节点500_145_QEPB04081__675__11-39-39-922.txt的数据

Date: Wed Nov 12 11:39:39 CST 2025
User: PC
Spectrometer: QEPB0408
触发模式: 0
积分时间 (秒): 1.000000E-2
Scans to average: 1
启用暗噪声校正: true
启用非线性校正: false
滑动平均宽度: 0
X轴模式: Wavelengths
Number of Pixels in Spectrum: 1044
>>>>>Begin Spectral Data<<<<<
220.843	-0.12
221.644	-0.12
222.444	-3.12
223.244	0.88
224.045	-1.12
224.845	-0.12
225.645	0.88
226.445	0.88
227.245	-1.12
228.045	-1.12
228.845	-1.12
229.645	0.88
230.444	1.88
231.244	-0.12
232.043	-1.12
232.843	1.88
233.642	-2.12
234.442	1.88
235.241	-2.12
236.04	1.88
236.839	1.88
237.638	-0.12
238.437	0.88
239.236	-0.12
240.035	0.88
240.833	0.88
241.632	1.88
242.43	0.88
243.229	1.88
244.027	2.88
244.826	-0.12
245.624	1.88
246.422	1.88
247.22	2.88
248.018	1.88
248.816	1.88
249.614	2.88
250.412	1.88
251.21	2.88
252.007	1.88
252.805	1.88
253.602	3.88
254.4	1.88
255.197	2.88
255.994	2.88
256.791	1.88
257.589	2.88
258.386	4.88
259.183	4.88
259.979	5.88
260.776	3.88
261.573	3.88
262.37	4.88
263.166	3.88
263.963	3.88
264.759	4.88
265.556	3.88
266.352	5.88
267.148	5.88
267.944	3.88
268.74	5.88
269.536	5.88
270.332	7.88
271.128	5.88
271.924	5.88
272.719	7.88
273.515	7.88
274.311	8.88
275.106	9.88
275.901	6.88
276.697	7.88
277.492	8.88
278.287	8.88
279.082	8.88
279.877	5.88
280.672	8.88
281.467	9.88
282.262	9.88
283.056	9.88
283.851	9.88
284.646	8.88
285.44	11.88
286.234	9.88
287.029	12.88
287.823	7.88
288.617	9.88
289.411	7.88
290.205	9.88
290.999	10.88
291.793	9.88
292.587	9.88
293.381	10.88
294.174	10.88
294.968	7.88
295.761	9.88
296.555	8.88
297.348	9.88
298.141	8.88
298.935	8.88
299.728	8.88
300.521	6.88
301.314	11.88
302.107	6.88
302.899	9.88
303.692	5.88
304.485	7.88
305.277	7.88
306.07	9.88
306.862	8.88
307.655	7.88
308.447	6.88
309.239	7.88
310.031	6.88
310.823	7.88
311.615	5.88
312.407	6.88
313.199	6.88
313.991	8.88
314.783	4.88
315.574	5.88
316.366	5.88
317.157	4.88
317.949	7.88
318.74	3.88
319.531	6.88
320.322	4.88
321.113	3.88
321.904	2.88
322.695	3.88
323.486	5.88
324.277	6.88
325.068	3.88
325.858	2.88
326.649	0.88
327.439	5.88
328.23	2.88
329.02	5.88
329.81	4.88
330.6	4.88
331.391	4.88
332.181	2.88
332.971	4.88
333.76	2.88
334.55	4.88
335.34	2.88
336.13	6.88
336.919	3.88
337.709	3.88
338.498	2.88
339.287	4.88
340.077	3.88
340.866	2.88
341.655	3.88
342.444	2.88
343.233	4.88
344.022	4.88
344.811	4.88
345.6	4.88
346.388	0.88
347.177	3.88
347.965	2.88
348.754	1.88
349.542	3.88
350.33	2.88
351.119	4.88
351.907	1.88
352.695	4.88
353.483	1.88
354.271	2.88
355.059	4.88
355.846	2.88
356.634	3.88
357.422	2.88
358.209	3.88
358.997	4.88
359.784	1.88
360.571	2.88
361.359	2.88
362.146	2.88
362.933	3.88
363.72	1.88
364.507	2.88
365.294	2.88
366.081	1.88
366.867	2.88
367.654	2.88
368.44	2.88
369.227	1.88
370.013	1.88
370.8	2.88
371.586	4.88
372.372	1.88
373.158	2.88
373.944	4.88
374.73	1.88
375.516	3.88
376.302	1.88
377.088	4.88
377.873	3.88
378.659	2.88
379.445	1.88
380.23	3.88
381.015	3.88
381.801	0.88
382.586	3.88
383.371	2.88
384.156	3.88
384.941	3.88
385.726	0.88
386.511	3.88
387.296	1.88
388.08	4.88
388.865	0.88
389.649	2.88
390.434	1.88
391.218	2.88
392.003	3.88
392.787	4.88
393.571	0.88
394.355	2.88
395.139	2.88
395.923	3.88
396.707	2.88
397.491	3.88
398.274	1.88
399.058	3.88
399.842	1.88
400.625	2.88
401.408	4.88
402.192	3.88
402.975	3.88
403.758	1.88
404.541	3.88
405.324	4.88
406.107	3.88
406.89	1.88
407.673	1.88
408.456	5.88
409.238	4.88
410.021	3.88
410.803	2.88
411.586	3.88
412.368	4.88
413.151	2.88
413.933	4.88
414.715	4.88
415.497	5.88
416.279	4.88
417.061	5.88
417.843	4.88
418.624	2.88
419.406	3.88
420.188	3.88
420.969	5.88
421.751	5.88
422.532	4.88
423.313	7.88
424.095	4.88
424.876	5.88
425.657	5.88
426.438	6.88
427.219	5.88
428	7.88
428.78	6.88
429.561	6.88
430.342	6.88
431.122	4.88
431.903	5.88
432.683	8.88
433.464	7.88
434.244	7.88
435.024	6.88
435.804	10.88
436.584	8.88
437.364	11.88
438.144	9.88
438.924	10.88
439.704	12.88
440.483	10.88
441.263	11.88
442.042	14.88
442.822	12.88
443.601	12.88
444.38	18.88
445.16	15.88
445.939	18.88
446.718	19.88
447.497	19.88
448.276	22.88
449.054	23.88
449.833	23.88
450.612	25.88
451.391	31.88
452.169	33.88
452.948	32.88
453.726	38.88
454.504	41.88
455.282	46.88
456.061	46.88
456.839	55.88
457.617	61.88
458.395	68.88
459.172	73.88
459.95	88.88
460.728	94.88
461.506	103.88
462.283	112.88
463.061	126.88
463.838	142.88
464.615	154.88
465.393	171.88
466.17	194.88
466.947	212.88
467.724	242.88
468.501	273.88
469.278	295.88
470.055	326.88
470.831	369.88
471.608	399.88
472.385	443.88
473.161	488.88
473.938	539.88
474.714	599.88
475.49	652.88
476.266	726.88
477.043	798.88
477.819	876.88
478.595	953.88
479.371	1058.88
480.146	1158.88
480.922	1277.88
481.698	1396.88
482.473	1522.88
483.249	1657.88
484.024	1823.88
484.8	1983.88
485.575	2202.88
486.35	2379.88
487.126	2593.88
487.901	2835.88
488.676	3105.88
489.451	3382.88
490.225	3688.88
491	4039.88
491.775	4387.88
492.55	4790.88
493.324	5193.88
494.099	5654.88
494.873	6133.88
495.647	6621.88
496.422	7186.88
497.196	7744.88
497.97	8304.88
498.744	8933.88
499.518	9607.88
500.292	10249.88
501.066	10854.88
501.839	11447.88
502.613	12089.88
503.387	12603.88
504.16	13222.88
504.934	13668.88
505.707	14105.88
506.48	14389.88
507.253	14642.88
508.027	14916.88
508.8	15037.88
509.573	15027.88
510.346	14954.88
511.118	14778.88
511.891	14558.88
512.664	14312.88
513.437	13867.88
514.209	13516.88
514.982	13076.88
515.754	12578.88
516.526	12127.88
517.298	11651.88
518.071	11137.88
518.843	10753.88
519.615	10294.88
520.387	9861.88
521.159	9468.88
521.93	9076.88
522.702	8722.88
523.474	8438.88
524.245	8062.88
525.017	7747.88
525.788	7417.88
526.56	7111.88
527.331	6828.88
528.102	6534.88
528.873	6305.88
529.644	6056.88
530.415	5748.88
531.186	5490.88
531.957	5244.88
532.728	5023.88
533.498	4777.88
534.269	4502.88
535.039	4287.88
535.81	4077.88
536.58	3856.88
537.351	3630.88
538.121	3447.88
538.891	3231.88
539.661	3079.88
540.431	2913.88
541.201	2746.88
541.971	2620.88
542.741	2451.88
543.51	2343.88
544.28	2237.88
545.05	2110.88
545.819	2001.88
546.588	1902.88
547.358	1785.88
548.127	1717.88
548.896	1638.88
549.665	1566.88
550.434	1482.88
551.203	1405.88
551.972	1333.88
552.741	1267.88
553.51	1209.88
554.278	1137.88
555.047	1068.88
555.815	1011.88
556.584	964.88
557.352	903.88
558.121	860.88
558.889	819.88
559.657	762.88
560.425	719.88
561.193	676.88
561.961	648.88
562.729	598.88
563.496	561.88
564.264	538.88
565.032	509.88
565.799	477.88
566.567	457.88
567.334	429.88
568.101	409.88
568.869	380.88
569.636	354.88
570.403	341.88
571.17	319.88
571.937	306.88
572.704	291.88
573.471	267.88
574.237	253.88
575.004	241.88
575.771	222.88
576.537	214.88
577.303	201.88
578.07	187.88
578.836	178.88
579.602	166.88
580.368	160.88
581.134	144.88
581.9	142.88
582.666	133.88
583.432	128.88
584.198	122.88
584.964	114.88
585.729	109.88
586.495	100.88
587.26	90.88
588.025	93.88
588.791	87.88
589.556	81.88
590.321	80.88
591.086	75.88
591.851	68.88
592.616	59.88
593.381	60.88
594.146	61.88
594.911	57.88
595.675	52.88
596.44	51.88
597.204	49.88
597.969	48.88
598.733	44.88
599.497	42.88
600.261	41.88
601.025	37.88
601.79	39.88
602.553	38.88
603.317	35.88
604.081	32.88
604.845	31.88
605.609	28.88
606.372	27.88
607.136	27.88
607.899	29.88
608.662	23.88
609.426	22.88
610.189	20.88
610.952	21.88
611.715	20.88
612.478	18.88
613.241	19.88
614.004	17.88
614.767	17.88
615.529	17.88
616.292	17.88
617.055	15.88
617.817	14.88
618.579	13.88
619.342	15.88
620.104	15.88
620.866	13.88
621.628	12.88
622.39	13.88
623.152	10.88
623.914	9.88
624.676	9.88
625.438	11.88
626.199	12.88
626.961	9.88
627.722	9.88
628.484	9.88
629.245	8.88
630.006	8.88
630.768	8.88
631.529	8.88
632.29	7.88
633.051	6.88
633.812	6.88
634.573	8.88
635.333	9.88
636.094	5.88
636.855	8.88
637.615	6.88
638.376	5.88
639.136	8.88
639.896	7.88
640.657	5.88
641.417	5.88
642.177	7.88
642.937	3.88
643.697	6.88
644.457	7.88
645.216	5.88
645.976	5.88
646.736	5.88
647.495	3.88
648.255	3.88
649.014	4.88
649.774	6.88
650.533	3.88
651.292	2.88
652.051	3.88
652.81	3.88
653.569	3.88
654.328	4.88
655.087	2.88
655.846	4.88
656.604	3.88
657.363	2.88
658.121	1.88
658.88	4.88
659.638	4.88
660.397	4.88
661.155	4.88
661.913	1.88
662.671	5.88
663.429	4.88
664.187	2.88
664.945	3.88
665.703	-0.12
666.46	1.88
667.218	1.88
667.976	2.88
668.733	3.88
669.49	1.88
670.248	2.88
671.005	1.88
671.762	1.88
672.519	4.88
673.276	1.88
674.033	4.88
674.79	1.88
675.547	1.88
676.304	2.88
677.06	4.88
677.817	1.88
678.574	3.88
679.33	2.88
680.086	3.88
680.843	4.88
681.599	0.88
682.355	3.88
683.111	1.88
683.867	4.88
684.623	2.88
685.379	1.88
686.135	3.88
686.89	2.88
687.646	3.88
688.402	1.88
689.157	3.88
689.912	0.88
690.668	1.88
691.423	2.88
692.178	0.88
692.933	5.88
693.688	0.88
694.443	2.88
695.198	3.88
695.953	0.88
696.708	3.88
697.462	0.88
698.217	1.88
698.972	-0.12
699.726	1.88
700.48	1.88
701.235	1.88
701.989	3.88
702.743	1.88
703.497	1.88
704.251	0.88
705.005	0.88
705.759	-0.12
706.513	1.88
707.266	2.88
708.02	1.88
708.774	1.88
709.527	2.88
710.28	1.88
711.034	4.88
711.787	2.88
712.54	1.88
713.293	-1.12
714.046	1.88
714.799	-0.12
715.552	2.88
716.305	2.88
717.058	1.88
717.81	2.88
718.563	2.88
719.315	3.88
720.068	2.88
720.82	-0.12
721.573	3.88
722.325	1.88
723.077	0.88
723.829	0.88
724.581	2.88
725.333	2.88
726.085	3.88
726.836	2.88
727.588	0.88
728.34	1.88
729.091	1.88
729.843	3.88
730.594	3.88
731.346	0.88
732.097	3.88
732.848	0.88
733.599	2.88
734.35	0.88
735.101	1.88
735.852	1.88
736.603	1.88
737.354	2.88
738.104	2.88
738.855	1.88
739.605	2.88
740.356	1.88
741.106	3.88
741.856	3.88
742.607	1.88
743.357	0.88
744.107	2.88
744.857	2.88
745.607	2.88
746.357	2.88
747.106	1.88
747.856	2.88
748.606	3.88
749.355	2.88
750.105	2.88
750.854	3.88
751.603	3.88
752.353	-0.12
753.102	4.88
753.851	0.88
754.6	2.88
755.349	1.88
756.098	5.88
756.847	1.88
757.595	3.88
758.344	3.88
759.093	1.88
759.841	2.88
760.589	3.88
761.338	1.88
762.086	1.88
762.834	1.88
763.582	4.88
764.331	1.88
765.079	4.88
765.826	2.88
766.574	1.88
767.322	2.88
768.07	2.88
768.817	4.88
769.565	4.88
770.312	3.88
771.06	3.88
771.807	3.88
772.554	2.88
773.302	4.88
774.049	5.88
774.796	2.88
775.543	5.88
776.29	3.88
777.036	4.88
777.783	2.88
778.53	5.88
779.276	2.88
780.023	4.88
780.769	3.88
781.516	2.88
782.262	2.88
783.008	4.88
783.754	4.88
784.5	6.88
785.246	4.88
785.992	4.88
786.738	3.88
787.484	4.88
788.23	3.88
788.975	4.88
789.721	4.88
790.466	5.88
791.212	5.88
791.957	4.88
792.702	4.88
793.447	5.88
794.193	4.88
794.938	2.88
795.683	3.88
796.427	4.88
797.172	6.88
797.917	2.88
798.662	5.88
799.406	3.88
800.151	6.88
800.895	3.88
801.64	3.88
802.384	3.88
803.128	4.88
803.872	3.88
804.616	2.88
805.36	5.88
806.104	3.88
806.848	5.88
807.592	5.88
808.336	4.88
809.079	4.88
809.823	5.88
810.566	4.88
811.31	2.88
812.053	3.88
812.796	5.88
813.539	1.88
814.283	4.88
815.026	1.88
815.769	2.88
816.511	3.88
817.254	5.88
817.997	1.88
818.74	2.88
819.482	3.88
820.225	1.88
820.967	1.88
821.71	1.88
822.452	1.88
823.194	3.88
823.936	2.88
824.678	1.88
825.42	4.88
826.162	2.88
826.904	1.88
827.646	1.88
828.388	4.88
829.129	1.88
829.871	2.88
830.612	2.88
831.354	0.88
832.095	2.88
832.836	2.88
833.577	2.88
834.319	2.88
835.06	2.88
835.801	0.88
836.542	2.88
837.282	1.88
838.023	0.88
838.764	1.88
839.504	0.88
840.245	2.88
840.985	2.88
841.726	0.88
842.466	1.88
843.206	1.88
843.946	2.88
844.687	1.88
845.427	4.88
846.166	0.88
846.906	0.88
847.646	2.88
848.386	-0.12
849.125	1.88
849.865	0.88
850.605	2.88
851.344	0.88
852.083	2.88
852.823	2.88
853.562	3.88
854.301	2.88
855.04	-1.12
855.779	-1.12
856.518	1.88
857.257	2.88
857.995	1.88
858.734	1.88
859.473	4.88
860.211	0.88
860.95	0.88
861.688	3.88
862.426	2.88
863.165	1.88
863.903	2.88
864.641	1.88
865.379	0.88
866.117	2.88
866.855	0.88
867.593	2.88
868.33	1.88
869.068	-3.12
869.806	1.88
870.543	1.88
871.28	1.88
872.018	1.88
872.755	1.88
873.492	0.88
874.229	0.88
874.967	0.88
875.703	-1.12
876.44	0.88
877.177	0.88
877.914	-0.12
878.651	1.88
879.387	-0.12
880.124	-0.12
880.86	-0.12
881.597	0.88
882.333	2.88
883.069	-0.12
883.806	1.88
884.542	-0.12
885.278	2.88
886.014	1.88
886.749	0.88
887.485	0.88
888.221	-0.12
888.957	0.88
889.692	3.88
890.428	1.88
891.163	1.88
891.899	0.88
892.634	0.88
893.369	-1.12
894.104	0.88
894.839	0.88
895.574	1.88
896.309	-0.12
897.044	0.88
897.779	1.88
898.514	-0.12
899.248	1.88
899.983	0.88
900.717	0.88
901.452	1.88
902.186	1.88
902.92	-0.12
903.654	-0.12
904.389	0.88
905.123	-0.12
905.857	1.88
906.59	-0.12
907.324	1.88
908.058	0.88
908.792	-1.12
909.525	0.88
910.259	0.88
910.992	1.88
911.726	0.88
912.459	0.88
913.192	0.88
913.925	0.88
914.658	0.88
915.391	-1.12
916.124	0.88
916.857	-0.12
917.59	-0.12
918.323	-0.12
919.055	-0.12
919.788	-2.12
920.521	-0.12
921.253	-1.12
921.985	1.88
922.718	0.88
923.45	2.88
924.182	0.88
924.914	1.88
925.646	-1.12
926.378	1.88
927.11	0.88
927.841	-0.12
928.573	-0.12
929.305	-1.12
930.036	1.88
930.768	-0.12
931.499	-0.12
932.23	-0.12
932.962	-0.12
933.693	0.88
934.424	0.88
935.155	-0.12
935.886	-1.12
936.617	1.88
937.348	-0.12
938.078	-0.12
938.809	-0.12
939.54	-1.12
940.27	2.88
941.001	-1.12
941.731	0.88
942.461	0.88
943.191	0.88
943.922	0.88
944.652	1.88
945.382	0.88
946.112	-0.12
946.841	1.88
947.571	1.88
948.301	-0.12
949.031	-2.12
949.76	1.88
950.49	1.88
951.219	-1.12
951.948	0.88
952.678	-1.12
953.407	0.88
954.136	1.88
954.865	0.88
955.594	1.88
956.323	0.88
957.052	0.88
957.78	-0.12
958.509	0.88
959.238	-1.12
959.966	-2.12
960.695	0.88
961.423	1.88
962.151	1.88
962.88	1.88
963.608	0.88
964.336	-0.12
965.064	-0.12
965.792	0.88
966.52	-1.12
967.247	2.88
967.975	2.88
968.703	-1.12
969.43	1.88
970.158	-0.12
970.885	1.88
971.613	-1.12
972.34	0.88
973.067	-1.12
973.794	-1.12
974.521	-1.12
975.248	0.88
975.975	-1.12
976.702	1.88
977.429	0.88
978.156	-0.12
978.882	-0.12
979.609	-0.12
980.335	1.88
981.062	-0.12
981.788	1.88
982.514	-0.12
983.24	1.88
983.967	-1.12
984.693	0.88
985.419	-2.12
986.144	2.88
986.87	-1.12
987.596	0.88
988.322	0.88
989.047	1.88
989.773	-1.12
990.498	0.88
991.224	1.88
991.949	0.88
992.674	-1.12
993.399	-0.12
994.124	-0.12
994.849	3.88
995.574	0.88
996.299	0.88
997.024	-1.12
997.749	-1.12
998.473	1.88
999.198	-1.12
999.922	1.88
1000.647	-0.12
1001.371	2.88
1002.095	0.88
1002.82	-1.12
1003.544	-1.12
1004.268	-0.12
1004.992	-1.12
1005.716	-1.12
1006.439	-1.12
1007.163	0.88
1007.887	-1.12
1008.611	1.88
1009.334	0.88
1010.058	-1.12
1010.781	-0.12
1011.504	2.88
1012.228	-0.12
1012.951	-1.12
1013.674	-0.12
1014.397	0.88
1015.12	-1.12
