节点500_145_QEPB04081__495__11-36-51-478.txt的数据

Date: Wed Nov 12 11:36:51 CST 2025
User: PC
Spectrometer: QEPB0408
触发模式: 0
积分时间 (秒): 1.000000E-2
Scans to average: 1
启用暗噪声校正: true
启用非线性校正: false
滑动平均宽度: 0
X轴模式: Wavelengths
Number of Pixels in Spectrum: 1044
>>>>>Begin Spectral Data<<<<<
220.843	-0.5
221.644	-0.5
222.444	-0.5
223.244	0.5
224.045	1.5
224.845	0.5
225.645	-0.5
226.445	2.5
227.245	-0.5
228.045	1.5
228.845	1.5
229.645	-0.5
230.444	1.5
231.244	-0.5
232.043	1.5
232.843	-0.5
233.642	0.5
234.442	1.5
235.241	0.5
236.04	1.5
236.839	-1.5
237.638	3.5
238.437	3.5
239.236	0.5
240.035	0.5
240.833	0.5
241.632	0.5
242.43	2.5
243.229	0.5
244.027	-0.5
244.826	1.5
245.624	3.5
246.422	0.5
247.22	3.5
248.018	1.5
248.816	2.5
249.614	1.5
250.412	3.5
251.21	1.5
252.007	2.5
252.805	3.5
253.602	3.5
254.4	2.5
255.197	3.5
255.994	4.5
256.791	2.5
257.589	3.5
258.386	3.5
259.183	1.5
259.979	6.5
260.776	2.5
261.573	4.5
262.37	3.5
263.166	4.5
263.963	3.5
264.759	7.5
265.556	5.5
266.352	3.5
267.148	5.5
267.944	6.5
268.74	4.5
269.536	6.5
270.332	6.5
271.128	5.5
271.924	3.5
272.719	6.5
273.515	7.5
274.311	7.5
275.106	9.5
275.901	10.5
276.697	10.5
277.492	8.5
278.287	8.5
279.082	10.5
279.877	8.5
280.672	8.5
281.467	11.5
282.262	12.5
283.056	10.5
283.851	10.5
284.646	12.5
285.44	9.5
286.234	10.5
287.029	11.5
287.823	11.5
288.617	9.5
289.411	9.5
290.205	11.5
290.999	9.5
291.793	9.5
292.587	10.5
293.381	11.5
294.174	12.5
294.968	9.5
295.761	10.5
296.555	9.5
297.348	8.5
298.141	7.5
298.935	9.5
299.728	10.5
300.521	12.5
301.314	9.5
302.107	7.5
302.899	9.5
303.692	5.5
304.485	8.5
305.277	8.5
306.07	7.5
306.862	7.5
307.655	7.5
308.447	9.5
309.239	7.5
310.031	8.5
310.823	6.5
311.615	6.5
312.407	9.5
313.199	6.5
313.991	5.5
314.783	5.5
315.574	6.5
316.366	3.5
317.157	5.5
317.949	5.5
318.74	4.5
319.531	6.5
320.322	5.5
321.113	4.5
321.904	5.5
322.695	7.5
323.486	2.5
324.277	4.5
325.068	4.5
325.858	5.5
326.649	4.5
327.439	4.5
328.23	2.5
329.02	2.5
329.81	3.5
330.6	3.5
331.391	0.5
332.181	4.5
332.971	4.5
333.76	3.5
334.55	5.5
335.34	2.5
336.13	4.5
336.919	3.5
337.709	3.5
338.498	3.5
339.287	1.5
340.077	2.5
340.866	3.5
341.655	2.5
342.444	5.5
343.233	3.5
344.022	4.5
344.811	2.5
345.6	2.5
346.388	1.5
347.177	2.5
347.965	2.5
348.754	1.5
349.542	1.5
350.33	3.5
351.119	6.5
351.907	3.5
352.695	4.5
353.483	1.5
354.271	1.5
355.059	5.5
355.846	1.5
356.634	3.5
357.422	1.5
358.209	1.5
358.997	3.5
359.784	3.5
360.571	1.5
361.359	2.5
362.146	2.5
362.933	3.5
363.72	3.5
364.507	1.5
365.294	3.5
366.081	2.5
366.867	0.5
367.654	4.5
368.44	1.5
369.227	4.5
370.013	1.5
370.8	2.5
371.586	2.5
372.372	2.5
373.158	5.5
373.944	1.5
374.73	2.5
375.516	2.5
376.302	3.5
377.088	3.5
377.873	1.5
378.659	3.5
379.445	4.5
380.23	2.5
381.015	2.5
381.801	4.5
382.586	0.5
383.371	3.5
384.156	0.5
384.941	1.5
385.726	5.5
386.511	2.5
387.296	1.5
388.08	3.5
388.865	2.5
389.649	2.5
390.434	2.5
391.218	3.5
392.003	2.5
392.787	5.5
393.571	2.5
394.355	2.5
395.139	4.5
395.923	3.5
396.707	2.5
397.491	2.5
398.274	0.5
399.058	6.5
399.842	3.5
400.625	4.5
401.408	4.5
402.192	5.5
402.975	3.5
403.758	2.5
404.541	3.5
405.324	3.5
406.107	2.5
406.89	2.5
407.673	4.5
408.456	5.5
409.238	4.5
410.021	3.5
410.803	5.5
411.586	4.5
412.368	4.5
413.151	5.5
413.933	4.5
414.715	3.5
415.497	5.5
416.279	6.5
417.061	4.5
417.843	5.5
418.624	4.5
419.406	3.5
420.188	3.5
420.969	5.5
421.751	6.5
422.532	7.5
423.313	6.5
424.095	7.5
424.876	7.5
425.657	4.5
426.438	6.5
427.219	9.5
428	8.5
428.78	6.5
429.561	5.5
430.342	9.5
431.122	9.5
431.903	8.5
432.683	7.5
433.464	7.5
434.244	9.5
435.024	8.5
435.804	8.5
436.584	9.5
437.364	10.5
438.144	13.5
438.924	12.5
439.704	13.5
440.483	8.5
441.263	11.5
442.042	10.5
442.822	13.5
443.601	14.5
444.38	16.5
445.16	17.5
445.939	14.5
446.718	21.5
447.497	19.5
448.276	21.5
449.054	23.5
449.833	23.5
450.612	25.5
451.391	29.5
452.169	30.5
452.948	34.5
453.726	36.5
454.504	39.5
455.282	43.5
456.061	47.5
456.839	50.5
457.617	59.5
458.395	63.5
459.172	69.5
459.95	78.5
460.728	92.5
461.506	98.5
462.283	105.5
463.061	118.5
463.838	133.5
464.615	147.5
465.393	162.5
466.17	179.5
466.947	202.5
467.724	229.5
468.501	255.5
469.278	282.5
470.055	316.5
470.831	346.5
471.608	391.5
472.385	431.5
473.161	477.5
473.938	529.5
474.714	586.5
475.49	641.5
476.266	704.5
477.043	776.5
477.819	861.5
478.595	940.5
479.371	1062.5
480.146	1155.5
480.922	1278.5
481.698	1413.5
482.473	1543.5
483.249	1687.5
484.024	1858.5
484.8	2035.5
485.575	2237.5
486.35	2456.5
487.126	2695.5
487.901	2944.5
488.676	3240.5
489.451	3524.5
490.225	3882.5
491	4238.5
491.775	4644.5
492.55	5066.5
493.324	5535.5
494.099	6053.5
494.873	6582.5
495.647	7184.5
496.422	7782.5
497.196	8392.5
497.97	9034.5
498.744	9710.5
499.518	10434.5
500.292	11101.5
501.066	11773.5
501.839	12413.5
502.613	13003.5
503.387	13628.5
504.16	14230.5
504.934	14677.5
505.707	15077.5
506.48	15417.5
507.253	15597.5
508.027	15724.5
508.8	15778.5
509.573	15742.5
510.346	15516.5
511.118	15352.5
511.891	15048.5
512.664	14604.5
513.437	14208.5
514.209	13708.5
514.982	13234.5
515.754	12702.5
516.526	12236.5
517.298	11673.5
518.071	11206.5
518.843	10699.5
519.615	10241.5
520.387	9825.5
521.159	9482.5
521.93	9049.5
522.702	8708.5
523.474	8306.5
524.245	8036.5
525.017	7717.5
525.788	7380.5
526.56	7089.5
527.331	6837.5
528.102	6531.5
528.873	6250.5
529.644	5988.5
530.415	5714.5
531.186	5452.5
531.957	5209.5
532.728	4949.5
533.498	4664.5
534.269	4406.5
535.039	4203.5
535.81	3973.5
536.58	3742.5
537.351	3535.5
538.121	3351.5
538.891	3181.5
539.661	3009.5
540.431	2820.5
541.201	2676.5
541.971	2522.5
542.741	2398.5
543.51	2286.5
544.28	2163.5
545.05	2048.5
545.819	1961.5
546.588	1856.5
547.358	1757.5
548.127	1677.5
548.896	1581.5
549.665	1506.5
550.434	1445.5
551.203	1376.5
551.972	1304.5
552.741	1248.5
553.51	1169.5
554.278	1108.5
555.047	1039.5
555.815	980.5
556.584	930.5
557.352	879.5
558.121	834.5
558.889	777.5
559.657	733.5
560.425	686.5
561.193	645.5
561.961	621.5
562.729	592.5
563.496	551.5
564.264	526.5
565.032	492.5
565.799	457.5
566.567	430.5
567.334	411.5
568.101	401.5
568.869	368.5
569.636	345.5
570.403	319.5
571.17	311.5
571.937	292.5
572.704	270.5
573.471	265.5
574.237	244.5
575.004	229.5
575.771	211.5
576.537	204.5
577.303	183.5
578.07	183.5
578.836	175.5
579.602	167.5
580.368	154.5
581.134	143.5
581.9	134.5
582.666	132.5
583.432	123.5
584.198	114.5
584.964	108.5
585.729	106.5
586.495	97.5
587.26	90.5
588.025	85.5
588.791	83.5
589.556	78.5
590.321	71.5
591.086	71.5
591.851	70.5
592.616	62.5
593.381	59.5
594.146	57.5
594.911	54.5
595.675	52.5
596.44	49.5
597.204	50.5
597.969	47.5
598.733	43.5
599.497	38.5
600.261	38.5
601.025	34.5
601.79	35.5
602.553	33.5
603.317	29.5
604.081	31.5
604.845	26.5
605.609	30.5
606.372	30.5
607.136	27.5
607.899	25.5
608.662	19.5
609.426	21.5
610.189	20.5
610.952	20.5
611.715	18.5
612.478	17.5
613.241	18.5
614.004	19.5
614.767	18.5
615.529	14.5
616.292	13.5
617.055	15.5
617.817	13.5
618.579	13.5
619.342	14.5
620.104	12.5
620.866	12.5
621.628	11.5
622.39	12.5
623.152	11.5
623.914	10.5
624.676	10.5
625.438	9.5
626.199	9.5
626.961	8.5
627.722	8.5
628.484	7.5
629.245	11.5
630.006	7.5
630.768	9.5
631.529	7.5
632.29	9.5
633.051	7.5
633.812	9.5
634.573	7.5
635.333	7.5
636.094	5.5
636.855	7.5
637.615	6.5
638.376	5.5
639.136	3.5
639.896	7.5
640.657	3.5
641.417	4.5
642.177	2.5
642.937	4.5
643.697	5.5
644.457	3.5
645.216	3.5
645.976	5.5
646.736	4.5
647.495	5.5
648.255	3.5
649.014	5.5
649.774	4.5
650.533	4.5
651.292	2.5
652.051	4.5
652.81	4.5
653.569	5.5
654.328	5.5
655.087	1.5
655.846	4.5
656.604	5.5
657.363	6.5
658.121	4.5
658.88	5.5
659.638	3.5
660.397	1.5
661.155	5.5
661.913	2.5
662.671	3.5
663.429	1.5
664.187	0.5
664.945	3.5
665.703	1.5
666.46	4.5
667.218	3.5
667.976	2.5
668.733	2.5
669.49	2.5
670.248	2.5
671.005	2.5
671.762	0.5
672.519	2.5
673.276	2.5
674.033	2.5
674.79	3.5
675.547	1.5
676.304	1.5
677.06	3.5
677.817	2.5
678.574	1.5
679.33	2.5
680.086	2.5
680.843	2.5
681.599	2.5
682.355	0.5
683.111	1.5
683.867	3.5
684.623	1.5
685.379	2.5
686.135	3.5
686.89	0.5
687.646	3.5
688.402	1.5
689.157	2.5
689.912	2.5
690.668	3.5
691.423	1.5
692.178	0.5
692.933	1.5
693.688	1.5
694.443	2.5
695.198	0.5
695.953	3.5
696.708	2.5
697.462	1.5
698.217	3.5
698.972	2.5
699.726	1.5
700.48	2.5
701.235	1.5
701.989	2.5
702.743	2.5
703.497	2.5
704.251	1.5
705.005	1.5
705.759	3.5
706.513	1.5
707.266	2.5
708.02	1.5
708.774	3.5
709.527	1.5
710.28	0.5
711.034	3.5
711.787	0.5
712.54	3.5
713.293	3.5
714.046	0.5
714.799	0.5
715.552	2.5
716.305	1.5
717.058	1.5
717.81	4.5
718.563	4.5
719.315	0.5
720.068	2.5
720.82	1.5
721.573	5.5
722.325	2.5
723.077	3.5
723.829	0.5
724.581	4.5
725.333	1.5
726.085	1.5
726.836	2.5
727.588	0.5
728.34	-0.5
729.091	2.5
729.843	1.5
730.594	-0.5
731.346	1.5
732.097	2.5
732.848	2.5
733.599	1.5
734.35	2.5
735.101	3.5
735.852	2.5
736.603	2.5
737.354	3.5
738.104	1.5
738.855	3.5
739.605	1.5
740.356	0.5
741.106	0.5
741.856	0.5
742.607	3.5
743.357	2.5
744.107	3.5
744.857	4.5
745.607	3.5
746.357	1.5
747.106	0.5
747.856	1.5
748.606	4.5
749.355	3.5
750.105	2.5
750.854	1.5
751.603	2.5
752.353	2.5
753.102	2.5
753.851	2.5
754.6	2.5
755.349	4.5
756.098	3.5
756.847	4.5
757.595	2.5
758.344	2.5
759.093	2.5
759.841	3.5
760.589	0.5
761.338	2.5
762.086	3.5
762.834	1.5
763.582	4.5
764.331	4.5
765.079	3.5
765.826	1.5
766.574	3.5
767.322	6.5
768.07	4.5
768.817	5.5
769.565	4.5
770.312	3.5
771.06	4.5
771.807	3.5
772.554	1.5
773.302	4.5
774.049	4.5
774.796	4.5
775.543	3.5
776.29	6.5
777.036	6.5
777.783	6.5
778.53	4.5
779.276	4.5
780.023	3.5
780.769	6.5
781.516	4.5
782.262	6.5
783.008	3.5
783.754	4.5
784.5	6.5
785.246	5.5
785.992	5.5
786.738	5.5
787.484	4.5
788.23	4.5
788.975	4.5
789.721	4.5
790.466	7.5
791.212	7.5
791.957	4.5
792.702	3.5
793.447	6.5
794.193	2.5
794.938	5.5
795.683	4.5
796.427	2.5
797.172	3.5
797.917	3.5
798.662	5.5
799.406	4.5
800.151	4.5
800.895	6.5
801.64	2.5
802.384	5.5
803.128	2.5
803.872	5.5
804.616	5.5
805.36	2.5
806.104	2.5
806.848	5.5
807.592	3.5
808.336	3.5
809.079	4.5
809.823	2.5
810.566	2.5
811.31	2.5
812.053	4.5
812.796	3.5
813.539	1.5
814.283	2.5
815.026	3.5
815.769	4.5
816.511	1.5
817.254	2.5
817.997	2.5
818.74	1.5
819.482	1.5
820.225	2.5
820.967	3.5
821.71	4.5
822.452	2.5
823.194	1.5
823.936	4.5
824.678	3.5
825.42	1.5
826.162	3.5
826.904	3.5
827.646	2.5
828.388	4.5
829.129	1.5
829.871	4.5
830.612	1.5
831.354	0.5
832.095	0.5
832.836	1.5
833.577	0.5
834.319	1.5
835.06	3.5
835.801	3.5
836.542	2.5
837.282	3.5
838.023	2.5
838.764	3.5
839.504	3.5
840.245	-0.5
840.985	0.5
841.726	1.5
842.466	0.5
843.206	2.5
843.946	2.5
844.687	2.5
845.427	3.5
846.166	2.5
846.906	4.5
847.646	4.5
848.386	1.5
849.125	4.5
849.865	1.5
850.605	3.5
851.344	0.5
852.083	-1.5
852.823	1.5
853.562	0.5
854.301	3.5
855.04	0.5
855.779	1.5
856.518	3.5
857.257	1.5
857.995	3.5
858.734	2.5
859.473	1.5
860.211	0.5
860.95	2.5
861.688	1.5
862.426	1.5
863.165	2.5
863.903	0.5
864.641	1.5
865.379	2.5
866.117	1.5
866.855	1.5
867.593	1.5
868.33	1.5
869.068	1.5
869.806	1.5
870.543	2.5
871.28	1.5
872.018	1.5
872.755	2.5
873.492	0.5
874.229	1.5
874.967	1.5
875.703	0.5
876.44	3.5
877.177	1.5
877.914	1.5
878.651	0.5
879.387	1.5
880.124	-0.5
880.86	-0.5
881.597	3.5
882.333	1.5
883.069	-1.5
883.806	2.5
884.542	1.5
885.278	0.5
886.014	1.5
886.749	1.5
887.485	1.5
888.221	0.5
888.957	0.5
889.692	0.5
890.428	-1.5
891.163	1.5
891.899	0.5
892.634	0.5
893.369	0.5
894.104	0.5
894.839	1.5
895.574	3.5
896.309	0.5
897.044	2.5
897.779	0.5
898.514	-1.5
899.248	1.5
899.983	0.5
900.717	2.5
901.452	0.5
902.186	1.5
902.92	1.5
903.654	0.5
904.389	1.5
905.123	-0.5
905.857	0.5
906.59	0.5
907.324	2.5
908.058	-1.5
908.792	1.5
909.525	1.5
910.259	0.5
910.992	2.5
911.726	-0.5
912.459	0.5
913.192	1.5
913.925	-1.5
914.658	-0.5
915.391	-0.5
916.124	2.5
916.857	2.5
917.59	0.5
918.323	0.5
919.055	1.5
919.788	0.5
920.521	-0.5
921.253	-1.5
921.985	1.5
922.718	0.5
923.45	-0.5
924.182	1.5
924.914	0.5
925.646	-0.5
926.378	2.5
927.11	-0.5
927.841	1.5
928.573	-1.5
929.305	1.5
930.036	1.5
930.768	-1.5
931.499	3.5
932.23	0.5
932.962	0.5
933.693	1.5
934.424	-1.5
935.155	2.5
935.886	1.5
936.617	0.5
937.348	2.5
938.078	-0.5
938.809	-0.5
939.54	0.5
940.27	-0.5
941.001	-1.5
941.731	-0.5
942.461	0.5
943.191	-1.5
943.922	1.5
944.652	-2.5
945.382	4.5
946.112	0.5
946.841	1.5
947.571	1.5
948.301	0.5
949.031	0.5
949.76	-2.5
950.49	0.5
951.219	-1.5
951.948	-1.5
952.678	-1.5
953.407	-0.5
954.136	0.5
954.865	1.5
955.594	-0.5
956.323	-0.5
957.052	1.5
957.78	-0.5
958.509	0.5
959.238	1.5
959.966	0.5
960.695	0.5
961.423	-1.5
962.151	-1.5
962.88	0.5
963.608	0.5
964.336	1.5
965.064	1.5
965.792	1.5
966.52	1.5
967.247	-0.5
967.975	-0.5
968.703	-0.5
969.43	2.5
970.158	-0.5
970.885	1.5
971.613	1.5
972.34	2.5
973.067	2.5
973.794	0.5
974.521	-2.5
975.248	-0.5
975.975	1.5
976.702	1.5
977.429	-0.5
978.156	1.5
978.882	-0.5
979.609	1.5
980.335	0.5
981.062	-1.5
981.788	0.5
982.514	0.5
983.24	0.5
983.967	-0.5
984.693	1.5
985.419	-0.5
986.144	2.5
986.87	-0.5
987.596	-1.5
988.322	-0.5
989.047	-0.5
989.773	-0.5
990.498	-1.5
991.224	0.5
991.949	-1.5
992.674	0.5
993.399	-1.5
994.124	-1.5
994.849	2.5
995.574	-0.5
996.299	-1.5
997.024	-1.5
997.749	1.5
998.473	0.5
999.198	0.5
999.922	-2.5
1000.647	-0.5
1001.371	3.5
1002.095	-0.5
1002.82	1.5
1003.544	-1.5
1004.268	0.5
1004.992	-0.5
1005.716	-1.5
1006.439	-0.5
1007.163	-0.5
1007.887	-1.5
1008.611	0.5
1009.334	-1.5
1010.058	0.5
1010.781	0.5
1011.504	-1.5
1012.228	2.5
1012.951	0.5
1013.674	-0.5
1014.397	-1.5
1015.12	-1.5
