节点500_145_QEPB04081__696__11-39-59-736.txt的数据

Date: Wed Nov 12 11:39:59 CST 2025
User: PC
Spectrometer: QEPB0408
触发模式: 0
积分时间 (秒): 1.000000E-2
Scans to average: 1
启用暗噪声校正: true
启用非线性校正: false
滑动平均宽度: 0
X轴模式: Wavelengths
Number of Pixels in Spectrum: 1044
>>>>>Begin Spectral Data<<<<<
220.843	-0.12
221.644	-3.12
222.444	0.88
223.244	0.88
224.045	0.88
224.845	0.88
225.645	-2.12
226.445	-0.12
227.245	-0.12
228.045	0.88
228.845	-0.12
229.645	2.88
230.444	2.88
231.244	-2.12
232.043	-0.12
232.843	0.88
233.642	2.88
234.442	0.88
235.241	0.88
236.04	1.88
236.839	-1.12
237.638	3.88
238.437	-0.12
239.236	0.88
240.035	3.88
240.833	-0.12
241.632	0.88
242.43	0.88
243.229	2.88
244.027	0.88
244.826	-0.12
245.624	-0.12
246.422	1.88
247.22	0.88
248.018	0.88
248.816	2.88
249.614	1.88
250.412	3.88
251.21	2.88
252.007	2.88
252.805	1.88
253.602	4.88
254.4	1.88
255.197	1.88
255.994	3.88
256.791	3.88
257.589	1.88
258.386	3.88
259.183	2.88
259.979	5.88
260.776	1.88
261.573	3.88
262.37	5.88
263.166	4.88
263.963	2.88
264.759	3.88
265.556	4.88
266.352	3.88
267.148	4.88
267.944	4.88
268.74	5.88
269.536	5.88
270.332	5.88
271.128	6.88
271.924	7.88
272.719	8.88
273.515	6.88
274.311	5.88
275.106	9.88
275.901	7.88
276.697	7.88
277.492	5.88
278.287	9.88
279.082	7.88
279.877	6.88
280.672	9.88
281.467	9.88
282.262	10.88
283.056	8.88
283.851	10.88
284.646	9.88
285.44	12.88
286.234	10.88
287.029	8.88
287.823	10.88
288.617	10.88
289.411	9.88
290.205	10.88
290.999	7.88
291.793	10.88
292.587	7.88
293.381	8.88
294.174	9.88
294.968	11.88
295.761	8.88
296.555	8.88
297.348	9.88
298.141	5.88
298.935	10.88
299.728	5.88
300.521	7.88
301.314	6.88
302.107	6.88
302.899	9.88
303.692	6.88
304.485	8.88
305.277	9.88
306.07	9.88
306.862	7.88
307.655	7.88
308.447	7.88
309.239	8.88
310.031	9.88
310.823	8.88
311.615	6.88
312.407	5.88
313.199	9.88
313.991	6.88
314.783	5.88
315.574	8.88
316.366	2.88
317.157	4.88
317.949	7.88
318.74	6.88
319.531	4.88
320.322	6.88
321.113	3.88
321.904	6.88
322.695	4.88
323.486	5.88
324.277	5.88
325.068	6.88
325.858	3.88
326.649	4.88
327.439	3.88
328.23	4.88
329.02	3.88
329.81	2.88
330.6	6.88
331.391	4.88
332.181	3.88
332.971	2.88
333.76	2.88
334.55	4.88
335.34	3.88
336.13	5.88
336.919	2.88
337.709	2.88
338.498	1.88
339.287	1.88
340.077	3.88
340.866	2.88
341.655	2.88
342.444	3.88
343.233	3.88
344.022	3.88
344.811	3.88
345.6	3.88
346.388	1.88
347.177	3.88
347.965	3.88
348.754	0.88
349.542	3.88
350.33	3.88
351.119	3.88
351.907	3.88
352.695	3.88
353.483	4.88
354.271	2.88
355.059	3.88
355.846	2.88
356.634	4.88
357.422	2.88
358.209	2.88
358.997	2.88
359.784	2.88
360.571	2.88
361.359	2.88
362.146	3.88
362.933	2.88
363.72	2.88
364.507	3.88
365.294	1.88
366.081	2.88
366.867	3.88
367.654	3.88
368.44	2.88
369.227	1.88
370.013	0.88
370.8	0.88
371.586	1.88
372.372	1.88
373.158	3.88
373.944	-0.12
374.73	2.88
375.516	2.88
376.302	1.88
377.088	2.88
377.873	-1.12
378.659	2.88
379.445	1.88
380.23	1.88
381.015	3.88
381.801	1.88
382.586	2.88
383.371	0.88
384.156	1.88
384.941	3.88
385.726	4.88
386.511	2.88
387.296	1.88
388.08	4.88
388.865	2.88
389.649	3.88
390.434	2.88
391.218	2.88
392.003	4.88
392.787	3.88
393.571	4.88
394.355	1.88
395.139	3.88
395.923	4.88
396.707	3.88
397.491	2.88
398.274	4.88
399.058	5.88
399.842	3.88
400.625	2.88
401.408	5.88
402.192	2.88
402.975	2.88
403.758	2.88
404.541	4.88
405.324	3.88
406.107	3.88
406.89	2.88
407.673	4.88
408.456	2.88
409.238	4.88
410.021	4.88
410.803	2.88
411.586	5.88
412.368	2.88
413.151	5.88
413.933	4.88
414.715	4.88
415.497	5.88
416.279	4.88
417.061	1.88
417.843	3.88
418.624	3.88
419.406	4.88
420.188	4.88
420.969	6.88
421.751	3.88
422.532	8.88
423.313	7.88
424.095	7.88
424.876	4.88
425.657	5.88
426.438	9.88
427.219	6.88
428	8.88
428.78	5.88
429.561	7.88
430.342	6.88
431.122	5.88
431.903	8.88
432.683	9.88
433.464	7.88
434.244	8.88
435.024	9.88
435.804	9.88
436.584	7.88
437.364	8.88
438.144	8.88
438.924	12.88
439.704	11.88
440.483	9.88
441.263	10.88
442.042	10.88
442.822	13.88
443.601	14.88
444.38	15.88
445.16	16.88
445.939	17.88
446.718	19.88
447.497	19.88
448.276	23.88
449.054	22.88
449.833	24.88
450.612	26.88
451.391	27.88
452.169	31.88
452.948	33.88
453.726	37.88
454.504	43.88
455.282	44.88
456.061	47.88
456.839	57.88
457.617	64.88
458.395	65.88
459.172	77.88
459.95	82.88
460.728	93.88
461.506	101.88
462.283	115.88
463.061	126.88
463.838	140.88
464.615	162.88
465.393	177.88
466.17	195.88
466.947	219.88
467.724	244.88
468.501	268.88
469.278	295.88
470.055	329.88
470.831	363.88
471.608	394.88
472.385	436.88
473.161	490.88
473.938	543.88
474.714	600.88
475.49	649.88
476.266	738.88
477.043	801.88
477.819	882.88
478.595	958.88
479.371	1058.88
480.146	1156.88
480.922	1261.88
481.698	1399.88
482.473	1532.88
483.249	1678.88
484.024	1815.88
484.8	1988.88
485.575	2152.88
486.35	2399.88
487.126	2594.88
487.901	2827.88
488.676	3090.88
489.451	3377.88
490.225	3685.88
491	4026.88
491.775	4395.88
492.55	4789.88
493.324	5189.88
494.099	5620.88
494.873	6125.88
495.647	6611.88
496.422	7198.88
497.196	7719.88
497.97	8302.88
498.744	8951.88
499.518	9589.88
500.292	10195.88
501.066	10827.88
501.839	11475.88
502.613	12068.88
503.387	12610.88
504.16	13160.88
504.934	13634.88
505.707	14080.88
506.48	14471.88
507.253	14666.88
508.027	14849.88
508.8	15030.88
509.573	14986.88
510.346	14892.88
511.118	14768.88
511.891	14580.88
512.664	14297.88
513.437	13924.88
514.209	13537.88
514.982	13081.88
515.754	12616.88
516.526	12177.88
517.298	11668.88
518.071	11165.88
518.843	10715.88
519.615	10288.88
520.387	9850.88
521.159	9455.88
521.93	9094.88
522.702	8734.88
523.474	8385.88
524.245	8094.88
525.017	7724.88
525.788	7416.88
526.56	7117.88
527.331	6846.88
528.102	6563.88
528.873	6295.88
529.644	6029.88
530.415	5759.88
531.186	5526.88
531.957	5278.88
532.728	5035.88
533.498	4784.88
534.269	4541.88
535.039	4285.88
535.81	4052.88
536.58	3845.88
537.351	3639.88
538.121	3440.88
538.891	3270.88
539.661	3070.88
540.431	2914.88
541.201	2737.88
541.971	2610.88
542.741	2475.88
543.51	2354.88
544.28	2220.88
545.05	2120.88
545.819	2002.88
546.588	1906.88
547.358	1811.88
548.127	1742.88
548.896	1647.88
549.665	1565.88
550.434	1475.88
551.203	1415.88
551.972	1351.88
552.741	1281.88
553.51	1193.88
554.278	1147.88
555.047	1080.88
555.815	1015.88
556.584	962.88
557.352	914.88
558.121	859.88
558.889	810.88
559.657	771.88
560.425	724.88
561.193	680.88
561.961	644.88
562.729	614.88
563.496	578.88
564.264	545.88
565.032	506.88
565.799	485.88
566.567	453.88
567.334	435.88
568.101	414.88
568.869	388.88
569.636	356.88
570.403	343.88
571.17	323.88
571.937	302.88
572.704	292.88
573.471	271.88
574.237	252.88
575.004	242.88
575.771	224.88
576.537	211.88
577.303	197.88
578.07	186.88
578.836	180.88
579.602	167.88
580.368	160.88
581.134	150.88
581.9	143.88
582.666	132.88
583.432	126.88
584.198	118.88
584.964	111.88
585.729	105.88
586.495	102.88
587.26	93.88
588.025	88.88
588.791	88.88
589.556	85.88
590.321	76.88
591.086	69.88
591.851	66.88
592.616	65.88
593.381	61.88
594.146	58.88
594.911	57.88
595.675	55.88
596.44	49.88
597.204	49.88
597.969	47.88
598.733	43.88
599.497	42.88
600.261	39.88
601.025	38.88
601.79	34.88
602.553	36.88
603.317	33.88
604.081	30.88
604.845	29.88
605.609	30.88
606.372	26.88
607.136	28.88
607.899	24.88
608.662	23.88
609.426	22.88
610.189	21.88
610.952	22.88
611.715	21.88
612.478	19.88
613.241	18.88
614.004	16.88
614.767	16.88
615.529	15.88
616.292	14.88
617.055	16.88
617.817	13.88
618.579	13.88
619.342	16.88
620.104	13.88
620.866	10.88
621.628	14.88
622.39	12.88
623.152	10.88
623.914	12.88
624.676	8.88
625.438	6.88
626.199	10.88
626.961	11.88
627.722	10.88
628.484	10.88
629.245	9.88
630.006	7.88
630.768	9.88
631.529	9.88
632.29	7.88
633.051	9.88
633.812	7.88
634.573	7.88
635.333	7.88
636.094	7.88
636.855	7.88
637.615	5.88
638.376	6.88
639.136	6.88
639.896	6.88
640.657	5.88
641.417	4.88
642.177	4.88
642.937	5.88
643.697	3.88
644.457	5.88
645.216	5.88
645.976	1.88
646.736	4.88
647.495	1.88
648.255	5.88
649.014	3.88
649.774	5.88
650.533	2.88
651.292	2.88
652.051	2.88
652.81	2.88
653.569	4.88
654.328	3.88
655.087	4.88
655.846	1.88
656.604	4.88
657.363	5.88
658.121	3.88
658.88	3.88
659.638	3.88
660.397	3.88
661.155	3.88
661.913	1.88
662.671	2.88
663.429	4.88
664.187	1.88
664.945	3.88
665.703	0.88
666.46	2.88
667.218	2.88
667.976	5.88
668.733	2.88
669.49	2.88
670.248	2.88
671.005	1.88
671.762	2.88
672.519	2.88
673.276	1.88
674.033	1.88
674.79	3.88
675.547	1.88
676.304	4.88
677.06	1.88
677.817	2.88
678.574	2.88
679.33	2.88
680.086	1.88
680.843	2.88
681.599	1.88
682.355	-0.12
683.111	3.88
683.867	4.88
684.623	1.88
685.379	0.88
686.135	2.88
686.89	1.88
687.646	1.88
688.402	1.88
689.157	1.88
689.912	2.88
690.668	2.88
691.423	2.88
692.178	2.88
692.933	1.88
693.688	2.88
694.443	1.88
695.198	1.88
695.953	3.88
696.708	2.88
697.462	1.88
698.217	1.88
698.972	0.88
699.726	2.88
700.48	2.88
701.235	3.88
701.989	2.88
702.743	2.88
703.497	3.88
704.251	0.88
705.005	0.88
705.759	2.88
706.513	0.88
707.266	0.88
708.02	3.88
708.774	0.88
709.527	1.88
710.28	2.88
711.034	1.88
711.787	2.88
712.54	-0.12
713.293	1.88
714.046	2.88
714.799	1.88
715.552	3.88
716.305	0.88
717.058	0.88
717.81	3.88
718.563	-1.12
719.315	5.88
720.068	5.88
720.82	2.88
721.573	1.88
722.325	1.88
723.077	1.88
723.829	1.88
724.581	2.88
725.333	2.88
726.085	1.88
726.836	0.88
727.588	1.88
728.34	0.88
729.091	2.88
729.843	2.88
730.594	4.88
731.346	4.88
732.097	2.88
732.848	1.88
733.599	3.88
734.35	2.88
735.101	2.88
735.852	2.88
736.603	0.88
737.354	2.88
738.104	1.88
738.855	1.88
739.605	3.88
740.356	3.88
741.106	0.88
741.856	1.88
742.607	4.88
743.357	0.88
744.107	1.88
744.857	1.88
745.607	3.88
746.357	3.88
747.106	2.88
747.856	2.88
748.606	0.88
749.355	2.88
750.105	0.88
750.854	3.88
751.603	1.88
752.353	1.88
753.102	2.88
753.851	2.88
754.6	2.88
755.349	1.88
756.098	3.88
756.847	2.88
757.595	2.88
758.344	1.88
759.093	0.88
759.841	2.88
760.589	1.88
761.338	1.88
762.086	2.88
762.834	1.88
763.582	1.88
764.331	4.88
765.079	2.88
765.826	2.88
766.574	4.88
767.322	3.88
768.07	1.88
768.817	4.88
769.565	2.88
770.312	5.88
771.06	3.88
771.807	2.88
772.554	3.88
773.302	5.88
774.049	4.88
774.796	2.88
775.543	4.88
776.29	4.88
777.036	4.88
777.783	5.88
778.53	4.88
779.276	5.88
780.023	3.88
780.769	2.88
781.516	4.88
782.262	4.88
783.008	5.88
783.754	4.88
784.5	3.88
785.246	3.88
785.992	5.88
786.738	3.88
787.484	5.88
788.23	3.88
788.975	5.88
789.721	4.88
790.466	2.88
791.212	4.88
791.957	2.88
792.702	4.88
793.447	4.88
794.193	3.88
794.938	4.88
795.683	3.88
796.427	6.88
797.172	2.88
797.917	4.88
798.662	6.88
799.406	4.88
800.151	3.88
800.895	5.88
801.64	3.88
802.384	5.88
803.128	2.88
803.872	4.88
804.616	3.88
805.36	4.88
806.104	3.88
806.848	3.88
807.592	1.88
808.336	5.88
809.079	5.88
809.823	1.88
810.566	6.88
811.31	2.88
812.053	3.88
812.796	3.88
813.539	1.88
814.283	1.88
815.026	1.88
815.769	3.88
816.511	3.88
817.254	3.88
817.997	1.88
818.74	2.88
819.482	3.88
820.225	3.88
820.967	2.88
821.71	3.88
822.452	5.88
823.194	3.88
823.936	1.88
824.678	3.88
825.42	2.88
826.162	3.88
826.904	2.88
827.646	3.88
828.388	1.88
829.129	3.88
829.871	2.88
830.612	2.88
831.354	2.88
832.095	3.88
832.836	3.88
833.577	1.88
834.319	3.88
835.06	3.88
835.801	1.88
836.542	2.88
837.282	1.88
838.023	4.88
838.764	1.88
839.504	1.88
840.245	2.88
840.985	1.88
841.726	3.88
842.466	-1.12
843.206	1.88
843.946	2.88
844.687	2.88
845.427	3.88
846.166	1.88
846.906	1.88
847.646	1.88
848.386	2.88
849.125	0.88
849.865	2.88
850.605	2.88
851.344	1.88
852.083	1.88
852.823	0.88
853.562	1.88
854.301	0.88
855.04	1.88
855.779	2.88
856.518	-1.12
857.257	2.88
857.995	2.88
858.734	2.88
859.473	3.88
860.211	-0.12
860.95	-1.12
861.688	-0.12
862.426	2.88
863.165	-0.12
863.903	1.88
864.641	1.88
865.379	1.88
866.117	0.88
866.855	-0.12
867.593	2.88
868.33	-1.12
869.068	1.88
869.806	1.88
870.543	1.88
871.28	1.88
872.018	0.88
872.755	1.88
873.492	-1.12
874.229	0.88
874.967	1.88
875.703	0.88
876.44	0.88
877.177	-1.12
877.914	0.88
878.651	3.88
879.387	-2.12
880.124	3.88
880.86	-0.12
881.597	-1.12
882.333	1.88
883.069	-0.12
883.806	-0.12
884.542	1.88
885.278	0.88
886.014	1.88
886.749	3.88
887.485	1.88
888.221	0.88
888.957	0.88
889.692	1.88
890.428	0.88
891.163	1.88
891.899	3.88
892.634	1.88
893.369	-0.12
894.104	0.88
894.839	1.88
895.574	1.88
896.309	-1.12
897.044	1.88
897.779	-0.12
898.514	0.88
899.248	-1.12
899.983	-1.12
900.717	-0.12
901.452	-1.12
902.186	-1.12
902.92	-4.12
903.654	0.88
904.389	1.88
905.123	-0.12
905.857	0.88
906.59	0.88
907.324	1.88
908.058	0.88
908.792	-0.12
909.525	1.88
910.259	0.88
910.992	-1.12
911.726	1.88
912.459	0.88
913.192	-0.12
913.925	0.88
914.658	-0.12
915.391	0.88
916.124	0.88
916.857	-1.12
917.59	1.88
918.323	1.88
919.055	1.88
919.788	1.88
920.521	-0.12
921.253	0.88
921.985	-0.12
922.718	1.88
923.45	0.88
924.182	0.88
924.914	-0.12
925.646	-0.12
926.378	-0.12
927.11	1.88
927.841	-0.12
928.573	1.88
929.305	0.88
930.036	-1.12
930.768	0.88
931.499	0.88
932.23	1.88
932.962	-0.12
933.693	-1.12
934.424	1.88
935.155	1.88
935.886	-0.12
936.617	-0.12
937.348	0.88
938.078	-0.12
938.809	1.88
939.54	1.88
940.27	0.88
941.001	0.88
941.731	0.88
942.461	0.88
943.191	1.88
943.922	2.88
944.652	-1.12
945.382	1.88
946.112	1.88
946.841	0.88
947.571	-1.12
948.301	1.88
949.031	-2.12
949.76	0.88
950.49	1.88
951.219	0.88
951.948	0.88
952.678	2.88
953.407	1.88
954.136	-1.12
954.865	-0.12
955.594	0.88
956.323	-1.12
957.052	-1.12
957.78	-1.12
958.509	-0.12
959.238	-2.12
959.966	0.88
960.695	1.88
961.423	2.88
962.151	-1.12
962.88	0.88
963.608	0.88
964.336	0.88
965.064	-1.12
965.792	0.88
966.52	-2.12
967.247	0.88
967.975	0.88
968.703	1.88
969.43	0.88
970.158	-1.12
970.885	0.88
971.613	-0.12
972.34	2.88
973.067	1.88
973.794	-0.12
974.521	-0.12
975.248	-0.12
975.975	-1.12
976.702	0.88
977.429	-0.12
978.156	-2.12
978.882	1.88
979.609	-2.12
980.335	1.88
981.062	0.88
981.788	0.88
982.514	0.88
983.24	0.88
983.967	3.88
984.693	-1.12
985.419	1.88
986.144	-1.12
986.87	-0.12
987.596	1.88
988.322	-0.12
989.047	1.88
989.773	1.88
990.498	0.88
991.224	3.88
991.949	-1.12
992.674	4.88
993.399	-1.12
994.124	-0.12
994.849	-0.12
995.574	2.88
996.299	-1.12
997.024	-0.12
997.749	1.88
998.473	1.88
999.198	0.88
999.922	-1.12
1000.647	2.88
1001.371	3.88
1002.095	0.88
1002.82	-1.12
1003.544	-1.12
1004.268	-0.12
1004.992	0.88
1005.716	-0.12
1006.439	-0.12
1007.163	0.88
1007.887	-0.12
1008.611	-0.12
1009.334	0.88
1010.058	-1.12
1010.781	-0.12
1011.504	-2.12
1012.228	-1.12
1012.951	-1.12
1013.674	-1.12
1014.397	-1.12
1015.12	0.88
