节点500_145_QEPB04081__599__11-38-28-365.txt的数据

Date: Wed Nov 12 11:38:28 CST 2025
User: PC
Spectrometer: QEPB0408
触发模式: 0
积分时间 (秒): 1.000000E-2
Scans to average: 1
启用暗噪声校正: true
启用非线性校正: false
滑动平均宽度: 0
X轴模式: Wavelengths
Number of Pixels in Spectrum: 1044
>>>>>Begin Spectral Data<<<<<
220.843	2.88
221.644	0.88
222.444	-1.12
223.244	1.88
224.045	1.88
224.845	-0.12
225.645	-0.12
226.445	-1.12
227.245	-1.12
228.045	-1.12
228.845	0.88
229.645	0.88
230.444	2.88
231.244	-2.12
232.043	1.88
232.843	1.88
233.642	0.88
234.442	1.88
235.241	1.88
236.04	-2.12
236.839	1.88
237.638	1.88
238.437	-0.12
239.236	1.88
240.035	1.88
240.833	-0.12
241.632	3.88
242.43	0.88
243.229	1.88
244.027	2.88
244.826	0.88
245.624	4.88
246.422	1.88
247.22	2.88
248.018	2.88
248.816	3.88
249.614	3.88
250.412	2.88
251.21	4.88
252.007	1.88
252.805	5.88
253.602	1.88
254.4	2.88
255.197	3.88
255.994	2.88
256.791	3.88
257.589	5.88
258.386	3.88
259.183	2.88
259.979	4.88
260.776	4.88
261.573	2.88
262.37	7.88
263.166	5.88
263.963	3.88
264.759	4.88
265.556	5.88
266.352	3.88
267.148	3.88
267.944	7.88
268.74	7.88
269.536	8.88
270.332	6.88
271.128	6.88
271.924	8.88
272.719	5.88
273.515	7.88
274.311	6.88
275.106	9.88
275.901	7.88
276.697	5.88
277.492	6.88
278.287	7.88
279.082	8.88
279.877	8.88
280.672	9.88
281.467	8.88
282.262	9.88
283.056	9.88
283.851	8.88
284.646	11.88
285.44	10.88
286.234	10.88
287.029	11.88
287.823	10.88
288.617	11.88
289.411	10.88
290.205	11.88
290.999	9.88
291.793	12.88
292.587	10.88
293.381	9.88
294.174	9.88
294.968	8.88
295.761	11.88
296.555	10.88
297.348	8.88
298.141	10.88
298.935	9.88
299.728	9.88
300.521	8.88
301.314	7.88
302.107	9.88
302.899	8.88
303.692	11.88
304.485	10.88
305.277	7.88
306.07	7.88
306.862	8.88
307.655	6.88
308.447	7.88
309.239	8.88
310.031	5.88
310.823	8.88
311.615	5.88
312.407	4.88
313.199	7.88
313.991	5.88
314.783	7.88
315.574	6.88
316.366	6.88
317.157	4.88
317.949	5.88
318.74	6.88
319.531	6.88
320.322	4.88
321.113	5.88
321.904	5.88
322.695	2.88
323.486	2.88
324.277	3.88
325.068	3.88
325.858	4.88
326.649	2.88
327.439	4.88
328.23	5.88
329.02	4.88
329.81	4.88
330.6	3.88
331.391	3.88
332.181	4.88
332.971	4.88
333.76	2.88
334.55	4.88
335.34	3.88
336.13	3.88
336.919	3.88
337.709	1.88
338.498	1.88
339.287	4.88
340.077	2.88
340.866	3.88
341.655	3.88
342.444	3.88
343.233	0.88
344.022	2.88
344.811	4.88
345.6	4.88
346.388	5.88
347.177	1.88
347.965	1.88
348.754	3.88
349.542	4.88
350.33	1.88
351.119	5.88
351.907	3.88
352.695	0.88
353.483	2.88
354.271	2.88
355.059	1.88
355.846	2.88
356.634	1.88
357.422	1.88
358.209	3.88
358.997	1.88
359.784	3.88
360.571	3.88
361.359	2.88
362.146	4.88
362.933	4.88
363.72	2.88
364.507	3.88
365.294	1.88
366.081	3.88
366.867	-0.12
367.654	2.88
368.44	1.88
369.227	3.88
370.013	3.88
370.8	2.88
371.586	3.88
372.372	2.88
373.158	1.88
373.944	2.88
374.73	3.88
375.516	3.88
376.302	3.88
377.088	2.88
377.873	4.88
378.659	1.88
379.445	2.88
380.23	1.88
381.015	3.88
381.801	3.88
382.586	2.88
383.371	1.88
384.156	1.88
384.941	4.88
385.726	4.88
386.511	4.88
387.296	3.88
388.08	3.88
388.865	3.88
389.649	1.88
390.434	2.88
391.218	1.88
392.003	2.88
392.787	3.88
393.571	2.88
394.355	3.88
395.139	1.88
395.923	4.88
396.707	1.88
397.491	3.88
398.274	2.88
399.058	4.88
399.842	3.88
400.625	2.88
401.408	5.88
402.192	4.88
402.975	5.88
403.758	2.88
404.541	4.88
405.324	4.88
406.107	2.88
406.89	3.88
407.673	1.88
408.456	4.88
409.238	5.88
410.021	5.88
410.803	3.88
411.586	3.88
412.368	2.88
413.151	2.88
413.933	4.88
414.715	1.88
415.497	2.88
416.279	5.88
417.061	4.88
417.843	5.88
418.624	4.88
419.406	2.88
420.188	5.88
420.969	2.88
421.751	5.88
422.532	5.88
423.313	5.88
424.095	6.88
424.876	4.88
425.657	5.88
426.438	6.88
427.219	6.88
428	6.88
428.78	4.88
429.561	7.88
430.342	7.88
431.122	6.88
431.903	6.88
432.683	7.88
433.464	7.88
434.244	9.88
435.024	11.88
435.804	7.88
436.584	9.88
437.364	10.88
438.144	12.88
438.924	10.88
439.704	13.88
440.483	12.88
441.263	13.88
442.042	13.88
442.822	13.88
443.601	15.88
444.38	12.88
445.16	18.88
445.939	14.88
446.718	16.88
447.497	20.88
448.276	21.88
449.054	23.88
449.833	24.88
450.612	26.88
451.391	27.88
452.169	33.88
452.948	34.88
453.726	37.88
454.504	40.88
455.282	42.88
456.061	46.88
456.839	56.88
457.617	57.88
458.395	65.88
459.172	77.88
459.95	81.88
460.728	91.88
461.506	103.88
462.283	114.88
463.061	125.88
463.838	139.88
464.615	152.88
465.393	169.88
466.17	190.88
466.947	215.88
467.724	236.88
468.501	263.88
469.278	289.88
470.055	319.88
470.831	357.88
471.608	394.88
472.385	438.88
473.161	492.88
473.938	528.88
474.714	592.88
475.49	650.88
476.266	713.88
477.043	785.88
477.819	860.88
478.595	959.88
479.371	1055.88
480.146	1158.88
480.922	1269.88
481.698	1388.88
482.473	1525.88
483.249	1671.88
484.024	1844.88
484.8	2014.88
485.575	2181.88
486.35	2393.88
487.126	2632.88
487.901	2860.88
488.676	3149.88
489.451	3418.88
490.225	3764.88
491	4108.88
491.775	4466.88
492.55	4896.88
493.324	5308.88
494.099	5778.88
494.873	6313.88
495.647	6835.88
496.422	7397.88
497.196	7977.88
497.97	8560.88
498.744	9238.88
499.518	9902.88
500.292	10542.88
501.066	11203.88
501.839	11815.88
502.613	12407.88
503.387	13048.88
504.16	13575.88
504.934	14030.88
505.707	14432.88
506.48	14774.88
507.253	15009.88
508.027	15211.88
508.8	15281.88
509.573	15250.88
510.346	15160.88
511.118	14990.88
511.891	14726.88
512.664	14342.88
513.437	13956.88
514.209	13547.88
514.982	13043.88
515.754	12558.88
516.526	12140.88
517.298	11588.88
518.071	11101.88
518.843	10637.88
519.615	10229.88
520.387	9796.88
521.159	9432.88
521.93	9040.88
522.702	8697.88
523.474	8322.88
524.245	8004.88
525.017	7697.88
525.788	7380.88
526.56	7065.88
527.331	6796.88
528.102	6494.88
528.873	6260.88
529.644	5994.88
530.415	5709.88
531.186	5466.88
531.957	5210.88
532.728	4934.88
533.498	4685.88
534.269	4463.88
535.039	4233.88
535.81	3991.88
536.58	3749.88
537.351	3599.88
538.121	3349.88
538.891	3210.88
539.661	3033.88
540.431	2870.88
541.201	2710.88
541.971	2560.88
542.741	2411.88
543.51	2308.88
544.28	2171.88
545.05	2090.88
545.819	1975.88
546.588	1864.88
547.358	1776.88
548.127	1690.88
548.896	1622.88
549.665	1536.88
550.434	1452.88
551.203	1389.88
551.972	1319.88
552.741	1249.88
553.51	1195.88
554.278	1128.88
555.047	1051.88
555.815	990.88
556.584	934.88
557.352	895.88
558.121	840.88
558.889	795.88
559.657	740.88
560.425	717.88
561.193	677.88
561.961	632.88
562.729	601.88
563.496	554.88
564.264	529.88
565.032	501.88
565.799	469.88
566.567	448.88
567.334	423.88
568.101	396.88
568.869	372.88
569.636	352.88
570.403	334.88
571.17	314.88
571.937	299.88
572.704	278.88
573.471	264.88
574.237	240.88
575.004	238.88
575.771	216.88
576.537	206.88
577.303	196.88
578.07	185.88
578.836	174.88
579.602	162.88
580.368	157.88
581.134	149.88
581.9	136.88
582.666	133.88
583.432	122.88
584.198	115.88
584.964	107.88
585.729	104.88
586.495	99.88
587.26	97.88
588.025	90.88
588.791	84.88
589.556	78.88
590.321	75.88
591.086	71.88
591.851	66.88
592.616	62.88
593.381	61.88
594.146	59.88
594.911	55.88
595.675	52.88
596.44	50.88
597.204	46.88
597.969	45.88
598.733	44.88
599.497	40.88
600.261	36.88
601.025	38.88
601.79	36.88
602.553	33.88
603.317	33.88
604.081	32.88
604.845	29.88
605.609	26.88
606.372	27.88
607.136	27.88
607.899	25.88
608.662	23.88
609.426	25.88
610.189	23.88
610.952	20.88
611.715	19.88
612.478	18.88
613.241	18.88
614.004	18.88
614.767	17.88
615.529	14.88
616.292	14.88
617.055	14.88
617.817	13.88
618.579	13.88
619.342	12.88
620.104	13.88
620.866	15.88
621.628	12.88
622.39	13.88
623.152	11.88
623.914	11.88
624.676	9.88
625.438	9.88
626.199	9.88
626.961	11.88
627.722	8.88
628.484	9.88
629.245	8.88
630.006	9.88
630.768	9.88
631.529	8.88
632.29	8.88
633.051	10.88
633.812	7.88
634.573	6.88
635.333	7.88
636.094	4.88
636.855	8.88
637.615	6.88
638.376	8.88
639.136	4.88
639.896	6.88
640.657	6.88
641.417	5.88
642.177	7.88
642.937	2.88
643.697	4.88
644.457	3.88
645.216	4.88
645.976	3.88
646.736	5.88
647.495	5.88
648.255	4.88
649.014	5.88
649.774	3.88
650.533	4.88
651.292	2.88
652.051	1.88
652.81	5.88
653.569	2.88
654.328	5.88
655.087	2.88
655.846	2.88
656.604	2.88
657.363	1.88
658.121	4.88
658.88	1.88
659.638	3.88
660.397	2.88
661.155	3.88
661.913	5.88
662.671	5.88
663.429	4.88
664.187	5.88
664.945	4.88
665.703	4.88
666.46	1.88
667.218	4.88
667.976	3.88
668.733	5.88
669.49	3.88
670.248	3.88
671.005	4.88
671.762	3.88
672.519	2.88
673.276	4.88
674.033	0.88
674.79	1.88
675.547	2.88
676.304	2.88
677.06	1.88
677.817	4.88
678.574	2.88
679.33	2.88
680.086	0.88
680.843	2.88
681.599	2.88
682.355	2.88
683.111	2.88
683.867	2.88
684.623	1.88
685.379	4.88
686.135	4.88
686.89	3.88
687.646	1.88
688.402	4.88
689.157	2.88
689.912	3.88
690.668	0.88
691.423	2.88
692.178	4.88
692.933	0.88
693.688	2.88
694.443	1.88
695.198	2.88
695.953	1.88
696.708	-0.12
697.462	2.88
698.217	1.88
698.972	1.88
699.726	0.88
700.48	1.88
701.235	2.88
701.989	0.88
702.743	0.88
703.497	1.88
704.251	3.88
705.005	2.88
705.759	2.88
706.513	1.88
707.266	2.88
708.02	-0.12
708.774	0.88
709.527	1.88
710.28	1.88
711.034	2.88
711.787	2.88
712.54	4.88
713.293	2.88
714.046	0.88
714.799	2.88
715.552	1.88
716.305	1.88
717.058	2.88
717.81	0.88
718.563	1.88
719.315	3.88
720.068	1.88
720.82	2.88
721.573	2.88
722.325	0.88
723.077	0.88
723.829	1.88
724.581	0.88
725.333	2.88
726.085	1.88
726.836	1.88
727.588	0.88
728.34	2.88
729.091	1.88
729.843	2.88
730.594	1.88
731.346	4.88
732.097	1.88
732.848	1.88
733.599	0.88
734.35	3.88
735.101	3.88
735.852	4.88
736.603	2.88
737.354	3.88
738.104	1.88
738.855	2.88
739.605	1.88
740.356	3.88
741.106	1.88
741.856	2.88
742.607	-0.12
743.357	3.88
744.107	0.88
744.857	4.88
745.607	2.88
746.357	2.88
747.106	2.88
747.856	1.88
748.606	0.88
749.355	1.88
750.105	3.88
750.854	0.88
751.603	4.88
752.353	3.88
753.102	-0.12
753.851	3.88
754.6	1.88
755.349	3.88
756.098	2.88
756.847	3.88
757.595	2.88
758.344	3.88
759.093	3.88
759.841	1.88
760.589	2.88
761.338	2.88
762.086	2.88
762.834	4.88
763.582	4.88
764.331	3.88
765.079	2.88
765.826	3.88
766.574	2.88
767.322	2.88
768.07	3.88
768.817	4.88
769.565	4.88
770.312	4.88
771.06	4.88
771.807	1.88
772.554	4.88
773.302	4.88
774.049	3.88
774.796	3.88
775.543	4.88
776.29	3.88
777.036	2.88
777.783	3.88
778.53	4.88
779.276	3.88
780.023	5.88
780.769	4.88
781.516	7.88
782.262	6.88
783.008	4.88
783.754	5.88
784.5	3.88
785.246	5.88
785.992	1.88
786.738	5.88
787.484	3.88
788.23	5.88
788.975	4.88
789.721	5.88
790.466	6.88
791.212	3.88
791.957	5.88
792.702	4.88
793.447	3.88
794.193	7.88
794.938	6.88
795.683	3.88
796.427	5.88
797.172	5.88
797.917	5.88
798.662	3.88
799.406	5.88
800.151	4.88
800.895	7.88
801.64	4.88
802.384	3.88
803.128	5.88
803.872	5.88
804.616	3.88
805.36	4.88
806.104	3.88
806.848	3.88
807.592	4.88
808.336	1.88
809.079	2.88
809.823	4.88
810.566	5.88
811.31	3.88
812.053	3.88
812.796	4.88
813.539	4.88
814.283	1.88
815.026	2.88
815.769	3.88
816.511	3.88
817.254	4.88
817.997	2.88
818.74	2.88
819.482	3.88
820.225	2.88
820.967	2.88
821.71	3.88
822.452	1.88
823.194	2.88
823.936	3.88
824.678	1.88
825.42	4.88
826.162	2.88
826.904	2.88
827.646	2.88
828.388	4.88
829.129	3.88
829.871	5.88
830.612	2.88
831.354	1.88
832.095	3.88
832.836	5.88
833.577	2.88
834.319	4.88
835.06	2.88
835.801	3.88
836.542	1.88
837.282	3.88
838.023	3.88
838.764	1.88
839.504	2.88
840.245	3.88
840.985	2.88
841.726	2.88
842.466	2.88
843.206	1.88
843.946	2.88
844.687	2.88
845.427	1.88
846.166	2.88
846.906	1.88
847.646	3.88
848.386	2.88
849.125	2.88
849.865	1.88
850.605	0.88
851.344	4.88
852.083	1.88
852.823	1.88
853.562	3.88
854.301	1.88
855.04	0.88
855.779	2.88
856.518	3.88
857.257	0.88
857.995	2.88
858.734	1.88
859.473	2.88
860.211	2.88
860.95	1.88
861.688	2.88
862.426	1.88
863.165	2.88
863.903	2.88
864.641	1.88
865.379	1.88
866.117	2.88
866.855	0.88
867.593	2.88
868.33	0.88
869.068	0.88
869.806	0.88
870.543	-0.12
871.28	-1.12
872.018	2.88
872.755	-1.12
873.492	1.88
874.229	2.88
874.967	1.88
875.703	2.88
876.44	1.88
877.177	0.88
877.914	0.88
878.651	2.88
879.387	1.88
880.124	1.88
880.86	1.88
881.597	-1.12
882.333	-1.12
883.069	3.88
883.806	0.88
884.542	-1.12
885.278	0.88
886.014	2.88
886.749	-2.12
887.485	1.88
888.221	0.88
888.957	-0.12
889.692	1.88
890.428	1.88
891.163	0.88
891.899	0.88
892.634	2.88
893.369	1.88
894.104	0.88
894.839	2.88
895.574	1.88
896.309	2.88
897.044	1.88
897.779	0.88
898.514	0.88
899.248	0.88
899.983	0.88
900.717	0.88
901.452	1.88
902.186	1.88
902.92	2.88
903.654	0.88
904.389	-0.12
905.123	-1.12
905.857	-1.12
906.59	0.88
907.324	-1.12
908.058	0.88
908.792	0.88
909.525	1.88
910.259	0.88
910.992	0.88
911.726	2.88
912.459	1.88
913.192	1.88
913.925	-0.12
914.658	1.88
915.391	3.88
916.124	0.88
916.857	2.88
917.59	1.88
918.323	2.88
919.055	0.88
919.788	0.88
920.521	1.88
921.253	0.88
921.985	1.88
922.718	1.88
923.45	-1.12
924.182	0.88
924.914	-0.12
925.646	1.88
926.378	1.88
927.11	-0.12
927.841	0.88
928.573	-1.12
929.305	0.88
930.036	-0.12
930.768	0.88
931.499	-0.12
932.23	1.88
932.962	1.88
933.693	-1.12
934.424	-0.12
935.155	-1.12
935.886	-0.12
936.617	0.88
937.348	2.88
938.078	1.88
938.809	1.88
939.54	-1.12
940.27	0.88
941.001	3.88
941.731	-1.12
942.461	-0.12
943.191	0.88
943.922	-0.12
944.652	1.88
945.382	0.88
946.112	0.88
946.841	0.88
947.571	-1.12
948.301	0.88
949.031	0.88
949.76	-1.12
950.49	-0.12
951.219	1.88
951.948	1.88
952.678	0.88
953.407	0.88
954.136	1.88
954.865	1.88
955.594	-0.12
956.323	-1.12
957.052	0.88
957.78	2.88
958.509	0.88
959.238	0.88
959.966	0.88
960.695	-0.12
961.423	0.88
962.151	1.88
962.88	-0.12
963.608	0.88
964.336	-1.12
965.064	1.88
965.792	-1.12
966.52	1.88
967.247	-0.12
967.975	-2.12
968.703	2.88
969.43	0.88
970.158	2.88
970.885	-0.12
971.613	0.88
972.34	-1.12
973.067	0.88
973.794	1.88
974.521	-0.12
975.248	1.88
975.975	-0.12
976.702	-0.12
977.429	-0.12
978.156	1.88
978.882	0.88
979.609	-0.12
980.335	-0.12
981.062	-0.12
981.788	-1.12
982.514	1.88
983.24	-0.12
983.967	-0.12
984.693	2.88
985.419	2.88
986.144	1.88
986.87	0.88
987.596	1.88
988.322	1.88
989.047	-1.12
989.773	2.88
990.498	0.88
991.224	0.88
991.949	2.88
992.674	1.88
993.399	1.88
994.124	-0.12
994.849	0.88
995.574	0.88
996.299	0.88
997.024	0.88
997.749	1.88
998.473	-0.12
999.198	1.88
999.922	-0.12
1000.647	1.88
1001.371	3.88
1002.095	-1.12
1002.82	-1.12
1003.544	-2.12
1004.268	0.88
1004.992	-0.12
1005.716	-1.12
1006.439	-1.12
1007.163	0.88
1007.887	1.88
1008.611	-0.12
1009.334	1.88
1010.058	1.88
1010.781	-0.12
1011.504	1.88
1012.228	0.88
1012.951	0.88
1013.674	-2.12
1014.397	0.88
1015.12	0.88
