节点500_145_QEPB04081__205__11-32-14-500.txt的数据

Date: Wed Nov 12 11:32:14 CST 2025
User: PC
Spectrometer: QEPB0408
触发模式: 0
积分时间 (秒): 1.000000E-2
Scans to average: 1
启用暗噪声校正: true
启用非线性校正: false
滑动平均宽度: 0
X轴模式: Wavelengths
Number of Pixels in Spectrum: 1044
>>>>>Begin Spectral Data<<<<<
220.843	-1.62
221.644	-1.62
222.444	1.38
223.244	0.38
224.045	0.38
224.845	0.38
225.645	-0.62
226.445	-0.62
227.245	-1.62
228.045	1.38
228.845	-0.62
229.645	0.38
230.444	1.38
231.244	0.38
232.043	2.38
232.843	-0.62
233.642	2.38
234.442	2.38
235.241	-0.62
236.04	0.38
236.839	-0.62
237.638	-0.62
238.437	1.38
239.236	1.38
240.035	0.38
240.833	2.38
241.632	2.38
242.43	-0.62
243.229	2.38
244.027	3.38
244.826	1.38
245.624	1.38
246.422	2.38
247.22	2.38
248.018	4.38
248.816	3.38
249.614	3.38
250.412	2.38
251.21	3.38
252.007	2.38
252.805	3.38
253.602	3.38
254.4	4.38
255.197	0.38
255.994	2.38
256.791	3.38
257.589	4.38
258.386	6.38
259.183	3.38
259.979	3.38
260.776	5.38
261.573	5.38
262.37	5.38
263.166	7.38
263.963	4.38
264.759	7.38
265.556	6.38
266.352	5.38
267.148	7.38
267.944	7.38
268.74	8.38
269.536	9.38
270.332	6.38
271.128	8.38
271.924	8.38
272.719	6.38
273.515	8.38
274.311	7.38
275.106	8.38
275.901	9.38
276.697	10.38
277.492	8.38
278.287	13.38
279.082	9.38
279.877	9.38
280.672	10.38
281.467	10.38
282.262	10.38
283.056	10.38
283.851	10.38
284.646	12.38
285.44	13.38
286.234	12.38
287.029	10.38
287.823	11.38
288.617	10.38
289.411	11.38
290.205	10.38
290.999	9.38
291.793	12.38
292.587	10.38
293.381	10.38
294.174	11.38
294.968	10.38
295.761	12.38
296.555	6.38
297.348	10.38
298.141	9.38
298.935	11.38
299.728	8.38
300.521	12.38
301.314	9.38
302.107	8.38
302.899	9.38
303.692	7.38
304.485	8.38
305.277	8.38
306.07	10.38
306.862	6.38
307.655	8.38
308.447	8.38
309.239	4.38
310.031	9.38
310.823	5.38
311.615	6.38
312.407	5.38
313.199	3.38
313.991	7.38
314.783	5.38
315.574	10.38
316.366	6.38
317.157	5.38
317.949	7.38
318.74	3.38
319.531	5.38
320.322	3.38
321.113	3.38
321.904	4.38
322.695	5.38
323.486	5.38
324.277	7.38
325.068	6.38
325.858	5.38
326.649	5.38
327.439	5.38
328.23	3.38
329.02	2.38
329.81	1.38
330.6	3.38
331.391	3.38
332.181	4.38
332.971	1.38
333.76	1.38
334.55	3.38
335.34	4.38
336.13	6.38
336.919	5.38
337.709	2.38
338.498	4.38
339.287	3.38
340.077	3.38
340.866	3.38
341.655	4.38
342.444	3.38
343.233	5.38
344.022	3.38
344.811	2.38
345.6	2.38
346.388	1.38
347.177	4.38
347.965	5.38
348.754	5.38
349.542	4.38
350.33	2.38
351.119	2.38
351.907	3.38
352.695	3.38
353.483	4.38
354.271	2.38
355.059	2.38
355.846	6.38
356.634	6.38
357.422	5.38
358.209	3.38
358.997	1.38
359.784	2.38
360.571	3.38
361.359	1.38
362.146	6.38
362.933	3.38
363.72	1.38
364.507	1.38
365.294	2.38
366.081	2.38
366.867	3.38
367.654	2.38
368.44	-0.62
369.227	1.38
370.013	2.38
370.8	1.38
371.586	2.38
372.372	3.38
373.158	2.38
373.944	4.38
374.73	2.38
375.516	1.38
376.302	2.38
377.088	4.38
377.873	2.38
378.659	2.38
379.445	3.38
380.23	1.38
381.015	2.38
381.801	1.38
382.586	6.38
383.371	3.38
384.156	2.38
384.941	2.38
385.726	2.38
386.511	5.38
387.296	3.38
388.08	3.38
388.865	2.38
389.649	3.38
390.434	3.38
391.218	2.38
392.003	2.38
392.787	2.38
393.571	1.38
394.355	5.38
395.139	2.38
395.923	3.38
396.707	4.38
397.491	4.38
398.274	3.38
399.058	4.38
399.842	2.38
400.625	1.38
401.408	2.38
402.192	3.38
402.975	4.38
403.758	4.38
404.541	5.38
405.324	4.38
406.107	3.38
406.89	5.38
407.673	2.38
408.456	5.38
409.238	4.38
410.021	5.38
410.803	3.38
411.586	5.38
412.368	6.38
413.151	5.38
413.933	5.38
414.715	5.38
415.497	5.38
416.279	5.38
417.061	4.38
417.843	4.38
418.624	5.38
419.406	4.38
420.188	6.38
420.969	4.38
421.751	3.38
422.532	4.38
423.313	5.38
424.095	5.38
424.876	6.38
425.657	6.38
426.438	6.38
427.219	5.38
428	8.38
428.78	7.38
429.561	7.38
430.342	7.38
431.122	9.38
431.903	4.38
432.683	6.38
433.464	7.38
434.244	9.38
435.024	10.38
435.804	9.38
436.584	9.38
437.364	12.38
438.144	10.38
438.924	11.38
439.704	9.38
440.483	11.38
441.263	12.38
442.042	14.38
442.822	14.38
443.601	15.38
444.38	14.38
445.16	15.38
445.939	15.38
446.718	17.38
447.497	18.38
448.276	21.38
449.054	21.38
449.833	22.38
450.612	23.38
451.391	26.38
452.169	26.38
452.948	30.38
453.726	37.38
454.504	36.38
455.282	43.38
456.061	48.38
456.839	51.38
457.617	53.38
458.395	58.38
459.172	61.38
459.95	73.38
460.728	83.38
461.506	87.38
462.283	97.38
463.061	110.38
463.838	122.38
464.615	135.38
465.393	152.38
466.17	163.38
466.947	185.38
467.724	211.38
468.501	236.38
469.278	264.38
470.055	285.38
470.831	327.38
471.608	366.38
472.385	402.38
473.161	449.38
473.938	506.38
474.714	555.38
475.49	619.38
476.266	689.38
477.043	758.38
477.819	854.38
478.595	931.38
479.371	1033.38
480.146	1139.38
480.922	1270.38
481.698	1403.38
482.473	1545.38
483.249	1718.38
484.024	1898.38
484.8	2099.38
485.575	2315.38
486.35	2554.38
487.126	2818.38
487.901	3115.38
488.676	3437.38
489.451	3766.38
490.225	4158.38
491	4588.38
491.775	5064.38
492.55	5568.38
493.324	6103.38
494.099	6639.38
494.873	7305.38
495.647	7954.38
496.422	8630.38
497.196	9334.38
497.97	10126.38
498.744	10880.38
499.518	11694.38
500.292	12430.38
501.066	13172.38
501.839	13872.38
502.613	14551.38
503.387	15189.38
504.16	15759.38
504.934	16159.38
505.707	16479.38
506.48	16747.38
507.253	16896.38
508.027	16931.38
508.8	16838.38
509.573	16597.38
510.346	16340.38
511.118	15932.38
511.891	15499.38
512.664	14996.38
513.437	14448.38
514.209	13809.38
514.982	13330.38
515.754	12785.38
516.526	12171.38
517.298	11633.38
518.071	11116.38
518.843	10571.38
519.615	10127.38
520.387	9758.38
521.159	9334.38
521.93	8990.38
522.702	8594.38
523.474	8264.38
524.245	7969.38
525.017	7646.38
525.788	7337.38
526.56	7026.38
527.331	6750.38
528.102	6416.38
528.873	6122.38
529.644	5861.38
530.415	5595.38
531.186	5294.38
531.957	5016.38
532.728	4778.38
533.498	4523.38
534.269	4264.38
535.039	4029.38
535.81	3808.38
536.58	3593.38
537.351	3378.38
538.121	3205.38
538.891	3026.38
539.661	2825.38
540.431	2712.38
541.201	2557.38
541.971	2422.38
542.741	2294.38
543.51	2166.38
544.28	2057.38
545.05	1946.38
545.819	1856.38
546.588	1769.38
547.358	1706.38
548.127	1599.38
548.896	1539.38
549.665	1450.38
550.434	1385.38
551.203	1298.38
551.972	1236.38
552.741	1166.38
553.51	1107.38
554.278	1053.38
555.047	996.38
555.815	926.38
556.584	870.38
557.352	822.38
558.121	788.38
558.889	734.38
559.657	694.38
560.425	653.38
561.193	608.38
561.961	574.38
562.729	544.38
563.496	507.38
564.264	484.38
565.032	455.38
565.799	429.38
566.567	399.38
567.334	392.38
568.101	369.38
568.869	344.38
569.636	332.38
570.403	307.38
571.17	293.38
571.937	275.38
572.704	262.38
573.471	240.38
574.237	228.38
575.004	215.38
575.771	208.38
576.537	193.38
577.303	180.38
578.07	164.38
578.836	163.38
579.602	145.38
580.368	142.38
581.134	134.38
581.9	124.38
582.666	117.38
583.432	115.38
584.198	107.38
584.964	106.38
585.729	103.38
586.495	84.38
587.26	84.38
588.025	83.38
588.791	78.38
589.556	73.38
590.321	70.38
591.086	63.38
591.851	62.38
592.616	62.38
593.381	54.38
594.146	51.38
594.911	52.38
595.675	44.38
596.44	46.38
597.204	42.38
597.969	45.38
598.733	40.38
599.497	38.38
600.261	34.38
601.025	34.38
601.79	30.38
602.553	29.38
603.317	30.38
604.081	29.38
604.845	27.38
605.609	25.38
606.372	27.38
607.136	23.38
607.899	22.38
608.662	23.38
609.426	20.38
610.189	21.38
610.952	20.38
611.715	20.38
612.478	18.38
613.241	17.38
614.004	14.38
614.767	17.38
615.529	16.38
616.292	17.38
617.055	12.38
617.817	14.38
618.579	13.38
619.342	15.38
620.104	14.38
620.866	13.38
621.628	10.38
622.39	12.38
623.152	11.38
623.914	11.38
624.676	12.38
625.438	9.38
626.199	8.38
626.961	8.38
627.722	7.38
628.484	9.38
629.245	8.38
630.006	12.38
630.768	4.38
631.529	7.38
632.29	7.38
633.051	6.38
633.812	6.38
634.573	7.38
635.333	7.38
636.094	8.38
636.855	6.38
637.615	4.38
638.376	8.38
639.136	5.38
639.896	3.38
640.657	7.38
641.417	6.38
642.177	4.38
642.937	5.38
643.697	3.38
644.457	6.38
645.216	3.38
645.976	6.38
646.736	4.38
647.495	4.38
648.255	6.38
649.014	5.38
649.774	4.38
650.533	4.38
651.292	4.38
652.051	1.38
652.81	2.38
653.569	4.38
654.328	4.38
655.087	4.38
655.846	2.38
656.604	3.38
657.363	4.38
658.121	2.38
658.88	4.38
659.638	2.38
660.397	5.38
661.155	1.38
661.913	5.38
662.671	2.38
663.429	1.38
664.187	3.38
664.945	2.38
665.703	3.38
666.46	2.38
667.218	2.38
667.976	4.38
668.733	2.38
669.49	5.38
670.248	4.38
671.005	3.38
671.762	-1.62
672.519	5.38
673.276	1.38
674.033	2.38
674.79	4.38
675.547	1.38
676.304	2.38
677.06	3.38
677.817	2.38
678.574	2.38
679.33	2.38
680.086	1.38
680.843	2.38
681.599	4.38
682.355	1.38
683.111	2.38
683.867	2.38
684.623	3.38
685.379	2.38
686.135	2.38
686.89	0.38
687.646	1.38
688.402	1.38
689.157	3.38
689.912	3.38
690.668	3.38
691.423	0.38
692.178	2.38
692.933	1.38
693.688	2.38
694.443	3.38
695.198	2.38
695.953	2.38
696.708	1.38
697.462	2.38
698.217	3.38
698.972	3.38
699.726	1.38
700.48	0.38
701.235	4.38
701.989	2.38
702.743	2.38
703.497	2.38
704.251	1.38
705.005	0.38
705.759	1.38
706.513	3.38
707.266	0.38
708.02	0.38
708.774	1.38
709.527	1.38
710.28	3.38
711.034	0.38
711.787	1.38
712.54	2.38
713.293	0.38
714.046	1.38
714.799	2.38
715.552	2.38
716.305	0.38
717.058	5.38
717.81	3.38
718.563	-0.62
719.315	3.38
720.068	3.38
720.82	3.38
721.573	2.38
722.325	0.38
723.077	1.38
723.829	2.38
724.581	0.38
725.333	1.38
726.085	1.38
726.836	1.38
727.588	1.38
728.34	2.38
729.091	3.38
729.843	3.38
730.594	0.38
731.346	1.38
732.097	2.38
732.848	1.38
733.599	2.38
734.35	2.38
735.101	2.38
735.852	1.38
736.603	3.38
737.354	2.38
738.104	0.38
738.855	3.38
739.605	-0.62
740.356	2.38
741.106	2.38
741.856	2.38
742.607	2.38
743.357	1.38
744.107	2.38
744.857	3.38
745.607	2.38
746.357	3.38
747.106	0.38
747.856	4.38
748.606	2.38
749.355	2.38
750.105	2.38
750.854	2.38
751.603	2.38
752.353	3.38
753.102	1.38
753.851	2.38
754.6	3.38
755.349	1.38
756.098	2.38
756.847	2.38
757.595	5.38
758.344	5.38
759.093	1.38
759.841	1.38
760.589	4.38
761.338	4.38
762.086	5.38
762.834	2.38
763.582	2.38
764.331	4.38
765.079	6.38
765.826	5.38
766.574	3.38
767.322	4.38
768.07	6.38
768.817	4.38
769.565	4.38
770.312	4.38
771.06	4.38
771.807	3.38
772.554	4.38
773.302	6.38
774.049	9.38
774.796	1.38
775.543	5.38
776.29	3.38
777.036	2.38
777.783	5.38
778.53	4.38
779.276	5.38
780.023	4.38
780.769	5.38
781.516	2.38
782.262	5.38
783.008	5.38
783.754	6.38
784.5	7.38
785.246	4.38
785.992	5.38
786.738	4.38
787.484	6.38
788.23	5.38
788.975	4.38
789.721	3.38
790.466	4.38
791.212	6.38
791.957	2.38
792.702	4.38
793.447	6.38
794.193	5.38
794.938	4.38
795.683	5.38
796.427	8.38
797.172	4.38
797.917	4.38
798.662	6.38
799.406	3.38
800.151	4.38
800.895	4.38
801.64	3.38
802.384	4.38
803.128	5.38
803.872	3.38
804.616	5.38
805.36	4.38
806.104	5.38
806.848	4.38
807.592	5.38
808.336	2.38
809.079	2.38
809.823	4.38
810.566	1.38
811.31	1.38
812.053	3.38
812.796	3.38
813.539	2.38
814.283	4.38
815.026	2.38
815.769	3.38
816.511	1.38
817.254	2.38
817.997	5.38
818.74	3.38
819.482	1.38
820.225	3.38
820.967	4.38
821.71	2.38
822.452	4.38
823.194	3.38
823.936	3.38
824.678	1.38
825.42	3.38
826.162	2.38
826.904	1.38
827.646	3.38
828.388	4.38
829.129	4.38
829.871	2.38
830.612	3.38
831.354	1.38
832.095	2.38
832.836	3.38
833.577	1.38
834.319	2.38
835.06	2.38
835.801	2.38
836.542	4.38
837.282	3.38
838.023	3.38
838.764	2.38
839.504	1.38
840.245	5.38
840.985	2.38
841.726	2.38
842.466	2.38
843.206	2.38
843.946	4.38
844.687	2.38
845.427	2.38
846.166	2.38
846.906	4.38
847.646	1.38
848.386	3.38
849.125	2.38
849.865	2.38
850.605	5.38
851.344	-1.62
852.083	1.38
852.823	1.38
853.562	3.38
854.301	2.38
855.04	3.38
855.779	1.38
856.518	1.38
857.257	2.38
857.995	1.38
858.734	1.38
859.473	0.38
860.211	1.38
860.95	2.38
861.688	1.38
862.426	2.38
863.165	4.38
863.903	0.38
864.641	1.38
865.379	2.38
866.117	1.38
866.855	-0.62
867.593	2.38
868.33	1.38
869.068	0.38
869.806	2.38
870.543	2.38
871.28	0.38
872.018	0.38
872.755	2.38
873.492	2.38
874.229	4.38
874.967	-0.62
875.703	1.38
876.44	1.38
877.177	0.38
877.914	0.38
878.651	1.38
879.387	-0.62
880.124	-0.62
880.86	2.38
881.597	1.38
882.333	1.38
883.069	0.38
883.806	-1.62
884.542	1.38
885.278	0.38
886.014	0.38
886.749	2.38
887.485	-1.62
888.221	0.38
888.957	0.38
889.692	0.38
890.428	0.38
891.163	1.38
891.899	2.38
892.634	-1.62
893.369	1.38
894.104	1.38
894.839	0.38
895.574	-0.62
896.309	-1.62
897.044	0.38
897.779	-1.62
898.514	1.38
899.248	1.38
899.983	1.38
900.717	-1.62
901.452	2.38
902.186	1.38
902.92	0.38
903.654	1.38
904.389	1.38
905.123	1.38
905.857	1.38
906.59	0.38
907.324	1.38
908.058	1.38
908.792	-0.62
909.525	-0.62
910.259	0.38
910.992	-0.62
911.726	-0.62
912.459	2.38
913.192	0.38
913.925	0.38
914.658	-0.62
915.391	-0.62
916.124	1.38
916.857	-1.62
917.59	0.38
918.323	-0.62
919.055	0.38
919.788	1.38
920.521	0.38
921.253	1.38
921.985	1.38
922.718	0.38
923.45	0.38
924.182	-1.62
924.914	2.38
925.646	-1.62
926.378	0.38
927.11	-0.62
927.841	2.38
928.573	1.38
929.305	0.38
930.036	1.38
930.768	1.38
931.499	0.38
932.23	-1.62
932.962	2.38
933.693	0.38
934.424	0.38
935.155	1.38
935.886	0.38
936.617	-2.62
937.348	0.38
938.078	2.38
938.809	2.38
939.54	0.38
940.27	0.38
941.001	-0.62
941.731	1.38
942.461	1.38
943.191	1.38
943.922	-0.62
944.652	-0.62
945.382	-0.62
946.112	-1.62
946.841	2.38
947.571	1.38
948.301	-0.62
949.031	1.38
949.76	2.38
950.49	1.38
951.219	1.38
951.948	1.38
952.678	1.38
953.407	0.38
954.136	0.38
954.865	-0.62
955.594	1.38
956.323	-1.62
957.052	-1.62
957.78	-1.62
958.509	0.38
959.238	1.38
959.966	0.38
960.695	2.38
961.423	0.38
962.151	-0.62
962.88	1.38
963.608	1.38
964.336	-0.62
965.064	-1.62
965.792	1.38
966.52	0.38
967.247	1.38
967.975	0.38
968.703	-0.62
969.43	1.38
970.158	3.38
970.885	0.38
971.613	-1.62
972.34	0.38
973.067	0.38
973.794	1.38
974.521	-1.62
975.248	1.38
975.975	-1.62
976.702	-1.62
977.429	3.38
978.156	0.38
978.882	-1.62
979.609	1.38
980.335	0.38
981.062	0.38
981.788	-0.62
982.514	3.38
983.24	1.38
983.967	-1.62
984.693	2.38
985.419	-1.62
986.144	0.38
986.87	0.38
987.596	-0.62
988.322	0.38
989.047	-1.62
989.773	-0.62
990.498	-0.62
991.224	1.38
991.949	-1.62
992.674	1.38
993.399	1.38
994.124	2.38
994.849	1.38
995.574	-1.62
996.299	1.38
997.024	1.38
997.749	0.38
998.473	0.38
999.198	-0.62
999.922	0.38
1000.647	-1.62
1001.371	5.38
1002.095	-1.62
1002.82	-1.62
1003.544	-0.62
1004.268	-1.62
1004.992	-0.62
1005.716	-0.62
1006.439	0.38
1007.163	-0.62
1007.887	1.38
1008.611	1.38
1009.334	-1.62
1010.058	-1.62
1010.781	0.38
1011.504	0.38
1012.228	3.38
1012.951	-1.62
1013.674	-0.62
1014.397	0.38
1015.12	0.38
