节点500_145_QEPB04081__550__11-37-41-444.txt的数据

Date: Wed Nov 12 11:37:41 CST 2025
User: PC
Spectrometer: QEPB0408
触发模式: 0
积分时间 (秒): 1.000000E-2
Scans to average: 1
启用暗噪声校正: true
启用非线性校正: false
滑动平均宽度: 0
X轴模式: Wavelengths
Number of Pixels in Spectrum: 1044
>>>>>Begin Spectral Data<<<<<
220.843	0
221.644	-1
222.444	1
223.244	-2
224.045	0
224.845	0
225.645	-1
226.445	1
227.245	-2
228.045	0
228.845	-1
229.645	0
230.444	-1
231.244	1
232.043	-1
232.843	1
233.642	0
234.442	-1
235.241	0
236.04	0
236.839	1
237.638	-1
238.437	0
239.236	0
240.035	1
240.833	-1
241.632	2
242.43	1
243.229	0
244.027	0
244.826	0
245.624	3
246.422	2
247.22	1
248.018	0
248.816	2
249.614	1
250.412	1
251.21	4
252.007	3
252.805	1
253.602	3
254.4	3
255.197	3
255.994	2
256.791	2
257.589	4
258.386	2
259.183	4
259.979	5
260.776	4
261.573	3
262.37	1
263.166	3
263.963	6
264.759	6
265.556	8
266.352	6
267.148	5
267.944	4
268.74	3
269.536	5
270.332	6
271.128	3
271.924	7
272.719	8
273.515	4
274.311	7
275.106	9
275.901	5
276.697	8
277.492	11
278.287	11
279.082	8
279.877	8
280.672	8
281.467	7
282.262	9
283.056	10
283.851	9
284.646	9
285.44	8
286.234	10
287.029	10
287.823	10
288.617	8
289.411	9
290.205	9
290.999	11
291.793	9
292.587	9
293.381	11
294.174	8
294.968	10
295.761	9
296.555	9
297.348	10
298.141	9
298.935	9
299.728	9
300.521	9
301.314	7
302.107	9
302.899	9
303.692	9
304.485	8
305.277	8
306.07	9
306.862	7
307.655	7
308.447	6
309.239	7
310.031	5
310.823	7
311.615	5
312.407	5
313.199	5
313.991	6
314.783	7
315.574	7
316.366	7
317.157	6
317.949	4
318.74	5
319.531	4
320.322	4
321.113	3
321.904	2
322.695	6
323.486	3
324.277	4
325.068	6
325.858	5
326.649	5
327.439	4
328.23	4
329.02	5
329.81	7
330.6	4
331.391	2
332.181	4
332.971	3
333.76	4
334.55	5
335.34	5
336.13	5
336.919	5
337.709	4
338.498	2
339.287	6
340.077	4
340.866	2
341.655	2
342.444	2
343.233	4
344.022	2
344.811	2
345.6	4
346.388	4
347.177	4
347.965	4
348.754	2
349.542	2
350.33	2
351.119	2
351.907	3
352.695	4
353.483	1
354.271	1
355.059	2
355.846	3
356.634	2
357.422	3
358.209	3
358.997	3
359.784	2
360.571	3
361.359	5
362.146	1
362.933	3
363.72	2
364.507	1
365.294	2
366.081	2
366.867	1
367.654	1
368.44	3
369.227	3
370.013	0
370.8	1
371.586	0
372.372	3
373.158	4
373.944	2
374.73	3
375.516	5
376.302	3
377.088	3
377.873	3
378.659	1
379.445	3
380.23	2
381.015	2
381.801	4
382.586	1
383.371	2
384.156	2
384.941	3
385.726	3
386.511	4
387.296	1
388.08	3
388.865	1
389.649	2
390.434	2
391.218	5
392.003	2
392.787	2
393.571	1
394.355	1
395.139	2
395.923	4
396.707	4
397.491	4
398.274	2
399.058	4
399.842	1
400.625	1
401.408	2
402.192	3
402.975	3
403.758	1
404.541	4
405.324	4
406.107	5
406.89	5
407.673	5
408.456	2
409.238	1
410.021	3
410.803	1
411.586	5
412.368	5
413.151	3
413.933	4
414.715	5
415.497	3
416.279	4
417.061	6
417.843	5
418.624	5
419.406	3
420.188	7
420.969	4
421.751	6
422.532	6
423.313	5
424.095	3
424.876	5
425.657	6
426.438	6
427.219	6
428	5
428.78	5
429.561	6
430.342	7
431.122	7
431.903	8
432.683	7
433.464	10
434.244	7
435.024	9
435.804	8
436.584	11
437.364	7
438.144	9
438.924	11
439.704	12
440.483	11
441.263	10
442.042	11
442.822	13
443.601	13
444.38	17
445.16	18
445.939	16
446.718	17
447.497	17
448.276	21
449.054	21
449.833	23
450.612	27
451.391	28
452.169	30
452.948	34
453.726	36
454.504	41
455.282	47
456.061	47
456.839	53
457.617	58
458.395	65
459.172	74
459.95	76
460.728	93
461.506	101
462.283	113
463.061	121
463.838	135
464.615	154
465.393	164
466.17	190
466.947	212
467.724	237
468.501	253
469.278	286
470.055	314
470.831	360
471.608	396
472.385	427
473.161	478
473.938	532
474.714	589
475.49	644
476.266	715
477.043	792
477.819	881
478.595	952
479.371	1056
480.146	1147
480.922	1285
481.698	1395
482.473	1543
483.249	1684
484.024	1866
484.8	2023
485.575	2220
486.35	2433
487.126	2669
487.901	2930
488.676	3192
489.451	3492
490.225	3829
491	4199
491.775	4592
492.55	5006
493.324	5460
494.099	5938
494.873	6440
495.647	7041
496.422	7595
497.196	8204
497.97	8874
498.744	9496
499.518	10202
500.292	10875
501.066	11509
501.839	12166
502.613	12801
503.387	13394
504.16	13941
504.934	14495
505.707	14821
506.48	15180
507.253	15418
508.027	15531
508.8	15560
509.573	15597
510.346	15404
511.118	15205
511.891	14865
512.664	14558
513.437	14095
514.209	13727
514.982	13215
515.754	12770
516.526	12213
517.298	11678
518.071	11211
518.843	10768
519.615	10237
520.387	9857
521.159	9492
521.93	9115
522.702	8706
523.474	8414
524.245	8052
525.017	7759
525.788	7419
526.56	7070
527.331	6849
528.102	6546
528.873	6289
529.644	6002
530.415	5747
531.186	5463
531.957	5196
532.728	4951
533.498	4679
534.269	4479
535.039	4215
535.81	4023
536.58	3800
537.351	3579
538.121	3364
538.891	3190
539.661	3010
540.431	2874
541.201	2688
541.971	2549
542.741	2444
543.51	2283
544.28	2194
545.05	2071
545.819	1986
546.588	1859
547.358	1791
548.127	1691
548.896	1600
549.665	1533
550.434	1455
551.203	1381
551.972	1318
552.741	1241
553.51	1163
554.278	1126
555.047	1054
555.815	999
556.584	939
557.352	890
558.121	833
558.889	782
559.657	746
560.425	701
561.193	660
561.961	623
562.729	596
563.496	555
564.264	527
565.032	497
565.799	464
566.567	442
567.334	413
568.101	397
568.869	370
569.636	345
570.403	333
571.17	314
571.937	290
572.704	274
573.471	262
574.237	248
575.004	225
575.771	218
576.537	201
577.303	194
578.07	183
578.836	170
579.602	157
580.368	155
581.134	144
581.9	138
582.666	129
583.432	123
584.198	114
584.964	110
585.729	103
586.495	95
587.26	94
588.025	89
588.791	79
589.556	79
590.321	73
591.086	74
591.851	65
592.616	58
593.381	61
594.146	58
594.911	50
595.675	49
596.44	48
597.204	47
597.969	44
598.733	43
599.497	41
600.261	40
601.025	36
601.79	35
602.553	32
603.317	35
604.081	30
604.845	28
605.609	28
606.372	29
607.136	25
607.899	24
608.662	22
609.426	25
610.189	20
610.952	23
611.715	22
612.478	20
613.241	18
614.004	17
614.767	18
615.529	18
616.292	17
617.055	14
617.817	16
618.579	14
619.342	13
620.104	14
620.866	11
621.628	12
622.39	11
623.152	14
623.914	11
624.676	11
625.438	9
626.199	9
626.961	10
627.722	11
628.484	10
629.245	9
630.006	8
630.768	8
631.529	6
632.29	9
633.051	7
633.812	7
634.573	8
635.333	5
636.094	6
636.855	4
637.615	5
638.376	7
639.136	5
639.896	5
640.657	4
641.417	6
642.177	5
642.937	4
643.697	5
644.457	3
645.216	5
645.976	1
646.736	3
647.495	4
648.255	2
649.014	2
649.774	2
650.533	3
651.292	5
652.051	4
652.81	3
653.569	4
654.328	1
655.087	3
655.846	2
656.604	4
657.363	4
658.121	2
658.88	2
659.638	2
660.397	3
661.155	3
661.913	1
662.671	2
663.429	1
664.187	1
664.945	3
665.703	2
666.46	3
667.218	4
667.976	5
668.733	1
669.49	1
670.248	1
671.005	1
671.762	3
672.519	1
673.276	3
674.033	1
674.79	1
675.547	2
676.304	1
677.06	3
677.817	1
678.574	3
679.33	3
680.086	1
680.843	1
681.599	0
682.355	2
683.111	2
683.867	2
684.623	4
685.379	1
686.135	5
686.89	4
687.646	1
688.402	2
689.157	1
689.912	3
690.668	-2
691.423	1
692.178	2
692.933	2
693.688	3
694.443	2
695.198	1
695.953	2
696.708	1
697.462	2
698.217	1
698.972	1
699.726	0
700.48	-1
701.235	2
701.989	2
702.743	1
703.497	2
704.251	1
705.005	0
705.759	2
706.513	0
707.266	2
708.02	0
708.774	2
709.527	1
710.28	2
711.034	0
711.787	2
712.54	1
713.293	2
714.046	1
714.799	0
715.552	1
716.305	1
717.058	1
717.81	2
718.563	0
719.315	2
720.068	1
720.82	2
721.573	3
722.325	1
723.077	1
723.829	2
724.581	2
725.333	2
726.085	2
726.836	1
727.588	2
728.34	2
729.091	0
729.843	2
730.594	4
731.346	1
732.097	5
732.848	2
733.599	3
734.35	2
735.101	4
735.852	2
736.603	0
737.354	-1
738.104	1
738.855	1
739.605	0
740.356	1
741.106	3
741.856	1
742.607	1
743.357	2
744.107	2
744.857	3
745.607	2
746.357	2
747.106	2
747.856	2
748.606	2
749.355	0
750.105	2
750.854	4
751.603	3
752.353	2
753.102	4
753.851	1
754.6	1
755.349	-1
756.098	2
756.847	3
757.595	1
758.344	2
759.093	1
759.841	3
760.589	3
761.338	3
762.086	2
762.834	4
763.582	4
764.331	3
765.079	2
765.826	4
766.574	3
767.322	3
768.07	3
768.817	4
769.565	2
770.312	3
771.06	1
771.807	2
772.554	6
773.302	2
774.049	4
774.796	4
775.543	3
776.29	5
777.036	3
777.783	4
778.53	3
779.276	4
780.023	4
780.769	6
781.516	4
782.262	4
783.008	3
783.754	3
784.5	4
785.246	2
785.992	5
786.738	6
787.484	7
788.23	5
788.975	5
789.721	3
790.466	5
791.212	7
791.957	6
792.702	3
793.447	3
794.193	4
794.938	4
795.683	5
796.427	5
797.172	4
797.917	5
798.662	4
799.406	3
800.151	3
800.895	3
801.64	4
802.384	3
803.128	5
803.872	6
804.616	2
805.36	4
806.104	5
806.848	4
807.592	5
808.336	5
809.079	4
809.823	3
810.566	5
811.31	2
812.053	5
812.796	4
813.539	3
814.283	4
815.026	3
815.769	4
816.511	3
817.254	3
817.997	4
818.74	2
819.482	4
820.225	1
820.967	3
821.71	1
822.452	3
823.194	3
823.936	3
824.678	4
825.42	1
826.162	1
826.904	3
827.646	3
828.388	2
829.129	1
829.871	2
830.612	1
831.354	3
832.095	1
832.836	2
833.577	2
834.319	2
835.06	1
835.801	2
836.542	3
837.282	0
838.023	3
838.764	0
839.504	0
840.245	2
840.985	1
841.726	3
842.466	1
843.206	0
843.946	2
844.687	0
845.427	3
846.166	1
846.906	1
847.646	4
848.386	3
849.125	3
849.865	2
850.605	1
851.344	1
852.083	3
852.823	1
853.562	3
854.301	3
855.04	0
855.779	2
856.518	0
857.257	0
857.995	1
858.734	-1
859.473	2
860.211	1
860.95	2
861.688	1
862.426	2
863.165	2
863.903	1
864.641	1
865.379	1
866.117	2
866.855	-1
867.593	1
868.33	-2
869.068	1
869.806	1
870.543	0
871.28	2
872.018	-1
872.755	1
873.492	-1
874.229	3
874.967	3
875.703	0
876.44	0
877.177	-1
877.914	1
878.651	-1
879.387	0
880.124	0
880.86	1
881.597	1
882.333	1
883.069	0
883.806	0
884.542	1
885.278	-1
886.014	-2
886.749	0
887.485	0
888.221	0
888.957	2
889.692	-2
890.428	1
891.163	-1
891.899	2
892.634	-1
893.369	2
894.104	2
894.839	2
895.574	1
896.309	1
897.044	2
897.779	-3
898.514	0
899.248	0
899.983	2
900.717	1
901.452	-2
902.186	2
902.92	0
903.654	1
904.389	0
905.123	-2
905.857	-1
906.59	-2
907.324	0
908.058	0
908.792	1
909.525	0
910.259	-1
910.992	0
911.726	0
912.459	0
913.192	1
913.925	-1
914.658	1
915.391	0
916.124	2
916.857	-1
917.59	2
918.323	0
919.055	-2
919.788	-1
920.521	-2
921.253	0
921.985	-1
922.718	0
923.45	0
924.182	-2
924.914	0
925.646	-1
926.378	0
927.11	-1
927.841	1
928.573	1
929.305	1
930.036	-2
930.768	0
931.499	2
932.23	0
932.962	1
933.693	-1
934.424	0
935.155	1
935.886	-1
936.617	2
937.348	-1
938.078	-2
938.809	1
939.54	0
940.27	0
941.001	-2
941.731	0
942.461	1
943.191	-1
943.922	-1
944.652	1
945.382	-2
946.112	1
946.841	0
947.571	1
948.301	0
949.031	1
949.76	0
950.49	-2
951.219	1
951.948	1
952.678	-1
953.407	0
954.136	2
954.865	-2
955.594	2
956.323	0
957.052	0
957.78	0
958.509	0
959.238	0
959.966	-1
960.695	3
961.423	0
962.151	1
962.88	1
963.608	0
964.336	3
965.064	-1
965.792	1
966.52	1
967.247	-1
967.975	0
968.703	-1
969.43	0
970.158	0
970.885	0
971.613	0
972.34	0
973.067	-3
973.794	0
974.521	-1
975.248	-2
975.975	0
976.702	0
977.429	-2
978.156	-2
978.882	-2
979.609	1
980.335	1
981.062	-2
981.788	1
982.514	1
983.24	-1
983.967	0
984.693	2
985.419	1
986.144	0
986.87	1
987.596	0
988.322	-1
989.047	1
989.773	1
990.498	0
991.224	3
991.949	0
992.674	-3
993.399	-2
994.124	-1
994.849	0
995.574	1
996.299	0
997.024	1
997.749	-3
998.473	-1
999.198	1
999.922	0
1000.647	-2
1001.371	4
1002.095	-2
1002.82	2
1003.544	-3
1004.268	1
1004.992	-1
1005.716	0
1006.439	2
1007.163	-1
1007.887	1
1008.611	2
1009.334	3
1010.058	-2
1010.781	1
1011.504	0
1012.228	-2
1012.951	0
1013.674	-1
1014.397	0
1015.12	0
