节点500_145_QEPB04081__281__11-33-27-500.txt的数据

Date: Wed Nov 12 11:33:27 CST 2025
User: PC
Spectrometer: QEPB0408
触发模式: 0
积分时间 (秒): 1.000000E-2
Scans to average: 1
启用暗噪声校正: true
启用非线性校正: false
滑动平均宽度: 0
X轴模式: Wavelengths
Number of Pixels in Spectrum: 1044
>>>>>Begin Spectral Data<<<<<
220.843	1.12
221.644	-1.88
222.444	2.12
223.244	-1.88
224.045	0.12
224.845	-0.88
225.645	1.12
226.445	-0.88
227.245	-1.88
228.045	1.12
228.845	2.12
229.645	-1.88
230.444	0.12
231.244	3.12
232.043	1.12
232.843	-1.88
233.642	1.12
234.442	-0.88
235.241	1.12
236.04	1.12
236.839	1.12
237.638	1.12
238.437	2.12
239.236	1.12
240.035	1.12
240.833	0.12
241.632	4.12
242.43	1.12
243.229	4.12
244.027	2.12
244.826	2.12
245.624	0.12
246.422	3.12
247.22	1.12
248.018	2.12
248.816	4.12
249.614	2.12
250.412	3.12
251.21	-0.88
252.007	2.12
252.805	3.12
253.602	4.12
254.4	2.12
255.197	1.12
255.994	4.12
256.791	3.12
257.589	4.12
258.386	3.12
259.183	2.12
259.979	3.12
260.776	2.12
261.573	3.12
262.37	4.12
263.166	4.12
263.963	4.12
264.759	5.12
265.556	7.12
266.352	7.12
267.148	5.12
267.944	5.12
268.74	4.12
269.536	6.12
270.332	6.12
271.128	7.12
271.924	8.12
272.719	7.12
273.515	8.12
274.311	6.12
275.106	8.12
275.901	9.12
276.697	9.12
277.492	10.12
278.287	9.12
279.082	11.12
279.877	9.12
280.672	10.12
281.467	10.12
282.262	9.12
283.056	9.12
283.851	9.12
284.646	11.12
285.44	10.12
286.234	10.12
287.029	10.12
287.823	10.12
288.617	12.12
289.411	12.12
290.205	6.12
290.999	9.12
291.793	10.12
292.587	11.12
293.381	12.12
294.174	12.12
294.968	10.12
295.761	10.12
296.555	7.12
297.348	8.12
298.141	9.12
298.935	9.12
299.728	11.12
300.521	10.12
301.314	8.12
302.107	9.12
302.899	6.12
303.692	9.12
304.485	10.12
305.277	8.12
306.07	11.12
306.862	8.12
307.655	7.12
308.447	8.12
309.239	8.12
310.031	10.12
310.823	9.12
311.615	5.12
312.407	7.12
313.199	6.12
313.991	6.12
314.783	5.12
315.574	7.12
316.366	5.12
317.157	3.12
317.949	8.12
318.74	4.12
319.531	5.12
320.322	5.12
321.113	5.12
321.904	5.12
322.695	5.12
323.486	3.12
324.277	5.12
325.068	6.12
325.858	4.12
326.649	5.12
327.439	4.12
328.23	3.12
329.02	3.12
329.81	4.12
330.6	5.12
331.391	3.12
332.181	5.12
332.971	4.12
333.76	5.12
334.55	4.12
335.34	3.12
336.13	4.12
336.919	2.12
337.709	4.12
338.498	2.12
339.287	4.12
340.077	3.12
340.866	5.12
341.655	2.12
342.444	5.12
343.233	4.12
344.022	1.12
344.811	2.12
345.6	1.12
346.388	3.12
347.177	3.12
347.965	2.12
348.754	1.12
349.542	3.12
350.33	2.12
351.119	2.12
351.907	2.12
352.695	3.12
353.483	2.12
354.271	3.12
355.059	3.12
355.846	2.12
356.634	1.12
357.422	3.12
358.209	1.12
358.997	3.12
359.784	2.12
360.571	1.12
361.359	1.12
362.146	2.12
362.933	1.12
363.72	3.12
364.507	1.12
365.294	2.12
366.081	2.12
366.867	-0.88
367.654	5.12
368.44	2.12
369.227	3.12
370.013	4.12
370.8	3.12
371.586	4.12
372.372	2.12
373.158	2.12
373.944	2.12
374.73	4.12
375.516	3.12
376.302	2.12
377.088	2.12
377.873	1.12
378.659	1.12
379.445	4.12
380.23	3.12
381.015	2.12
381.801	3.12
382.586	5.12
383.371	0.12
384.156	3.12
384.941	2.12
385.726	2.12
386.511	6.12
387.296	1.12
388.08	3.12
388.865	3.12
389.649	3.12
390.434	0.12
391.218	2.12
392.003	2.12
392.787	3.12
393.571	4.12
394.355	4.12
395.139	3.12
395.923	4.12
396.707	2.12
397.491	2.12
398.274	2.12
399.058	3.12
399.842	3.12
400.625	2.12
401.408	3.12
402.192	2.12
402.975	5.12
403.758	3.12
404.541	5.12
405.324	3.12
406.107	4.12
406.89	3.12
407.673	5.12
408.456	6.12
409.238	4.12
410.021	3.12
410.803	7.12
411.586	4.12
412.368	4.12
413.151	3.12
413.933	5.12
414.715	4.12
415.497	5.12
416.279	4.12
417.061	3.12
417.843	4.12
418.624	3.12
419.406	4.12
420.188	2.12
420.969	5.12
421.751	6.12
422.532	3.12
423.313	8.12
424.095	7.12
424.876	8.12
425.657	5.12
426.438	6.12
427.219	7.12
428	6.12
428.78	5.12
429.561	9.12
430.342	7.12
431.122	6.12
431.903	7.12
432.683	7.12
433.464	8.12
434.244	6.12
435.024	6.12
435.804	13.12
436.584	10.12
437.364	12.12
438.144	10.12
438.924	10.12
439.704	12.12
440.483	10.12
441.263	11.12
442.042	15.12
442.822	14.12
443.601	14.12
444.38	13.12
445.16	14.12
445.939	16.12
446.718	17.12
447.497	17.12
448.276	19.12
449.054	23.12
449.833	26.12
450.612	25.12
451.391	26.12
452.169	31.12
452.948	30.12
453.726	33.12
454.504	37.12
455.282	41.12
456.061	45.12
456.839	51.12
457.617	56.12
458.395	61.12
459.172	70.12
459.95	75.12
460.728	84.12
461.506	94.12
462.283	103.12
463.061	113.12
463.838	127.12
464.615	133.12
465.393	157.12
466.17	167.12
466.947	199.12
467.724	212.12
468.501	236.12
469.278	263.12
470.055	297.12
470.831	325.12
471.608	376.12
472.385	417.12
473.161	464.12
473.938	512.12
474.714	558.12
475.49	628.12
476.266	691.12
477.043	772.12
477.819	846.12
478.595	939.12
479.371	1046.12
480.146	1146.12
480.922	1278.12
481.698	1401.12
482.473	1542.12
483.249	1709.12
484.024	1886.12
484.8	2073.12
485.575	2275.12
486.35	2523.12
487.126	2788.12
487.901	3065.12
488.676	3372.12
489.451	3711.12
490.225	4086.12
491	4465.12
491.775	4931.12
492.55	5394.12
493.324	5922.12
494.099	6431.12
494.873	7043.12
495.647	7696.12
496.422	8371.12
497.196	9018.12
497.97	9718.12
498.744	10489.12
499.518	11240.12
500.292	11948.12
501.066	12686.12
501.839	13363.12
502.613	14052.12
503.387	14653.12
504.16	15243.12
504.934	15673.12
505.707	16028.12
506.48	16302.12
507.253	16452.12
508.027	16502.12
508.8	16481.12
509.573	16263.12
510.346	16048.12
511.118	15718.12
511.891	15318.12
512.664	14819.12
513.437	14325.12
514.209	13792.12
514.982	13279.12
515.754	12720.12
516.526	12217.12
517.298	11630.12
518.071	11114.12
518.843	10596.12
519.615	10159.12
520.387	9748.12
521.159	9364.12
521.93	8981.12
522.702	8632.12
523.474	8297.12
524.245	7938.12
525.017	7652.12
525.788	7341.12
526.56	7062.12
527.331	6731.12
528.102	6457.12
528.873	6177.12
529.644	5905.12
530.415	5631.12
531.186	5385.12
531.957	5056.12
532.728	4829.12
533.498	4568.12
534.269	4308.12
535.039	4092.12
535.81	3846.12
536.58	3661.12
537.351	3428.12
538.121	3234.12
538.891	3090.12
539.661	2894.12
540.431	2719.12
541.201	2599.12
541.971	2463.12
542.741	2323.12
543.51	2214.12
544.28	2084.12
545.05	1979.12
545.819	1889.12
546.588	1805.12
547.358	1700.12
548.127	1630.12
548.896	1540.12
549.665	1452.12
550.434	1385.12
551.203	1316.12
551.972	1250.12
552.741	1177.12
553.51	1121.12
554.278	1057.12
555.047	1006.12
555.815	944.12
556.584	887.12
557.352	837.12
558.121	793.12
558.889	748.12
559.657	702.12
560.425	660.12
561.193	624.12
561.961	591.12
562.729	562.12
563.496	523.12
564.264	490.12
565.032	465.12
565.799	435.12
566.567	414.12
567.334	403.12
568.101	372.12
568.869	344.12
569.636	332.12
570.403	311.12
571.17	295.12
571.937	272.12
572.704	261.12
573.471	243.12
574.237	237.12
575.004	220.12
575.771	203.12
576.537	193.12
577.303	184.12
578.07	170.12
578.836	166.12
579.602	155.12
580.368	150.12
581.134	137.12
581.9	129.12
582.666	119.12
583.432	114.12
584.198	115.12
584.964	101.12
585.729	97.12
586.495	86.12
587.26	87.12
588.025	82.12
588.791	79.12
589.556	76.12
590.321	72.12
591.086	65.12
591.851	64.12
592.616	61.12
593.381	56.12
594.146	57.12
594.911	53.12
595.675	49.12
596.44	45.12
597.204	46.12
597.969	40.12
598.733	37.12
599.497	41.12
600.261	37.12
601.025	36.12
601.79	36.12
602.553	31.12
603.317	28.12
604.081	30.12
604.845	27.12
605.609	27.12
606.372	29.12
607.136	23.12
607.899	24.12
608.662	23.12
609.426	20.12
610.189	21.12
610.952	17.12
611.715	19.12
612.478	15.12
613.241	18.12
614.004	16.12
614.767	15.12
615.529	15.12
616.292	15.12
617.055	14.12
617.817	12.12
618.579	15.12
619.342	15.12
620.104	13.12
620.866	13.12
621.628	11.12
622.39	11.12
623.152	9.12
623.914	9.12
624.676	9.12
625.438	10.12
626.199	9.12
626.961	9.12
627.722	10.12
628.484	8.12
629.245	8.12
630.006	9.12
630.768	8.12
631.529	9.12
632.29	9.12
633.051	8.12
633.812	6.12
634.573	7.12
635.333	5.12
636.094	5.12
636.855	6.12
637.615	7.12
638.376	5.12
639.136	6.12
639.896	6.12
640.657	3.12
641.417	5.12
642.177	6.12
642.937	7.12
643.697	5.12
644.457	4.12
645.216	5.12
645.976	4.12
646.736	5.12
647.495	3.12
648.255	4.12
649.014	4.12
649.774	4.12
650.533	1.12
651.292	5.12
652.051	5.12
652.81	3.12
653.569	4.12
654.328	3.12
655.087	1.12
655.846	4.12
656.604	2.12
657.363	2.12
658.121	3.12
658.88	3.12
659.638	2.12
660.397	2.12
661.155	3.12
661.913	4.12
662.671	3.12
663.429	4.12
664.187	5.12
664.945	4.12
665.703	1.12
666.46	3.12
667.218	3.12
667.976	3.12
668.733	3.12
669.49	3.12
670.248	3.12
671.005	3.12
671.762	2.12
672.519	4.12
673.276	3.12
674.033	3.12
674.79	3.12
675.547	3.12
676.304	2.12
677.06	1.12
677.817	3.12
678.574	2.12
679.33	4.12
680.086	1.12
680.843	2.12
681.599	2.12
682.355	2.12
683.111	4.12
683.867	1.12
684.623	3.12
685.379	1.12
686.135	3.12
686.89	2.12
687.646	1.12
688.402	2.12
689.157	1.12
689.912	2.12
690.668	3.12
691.423	4.12
692.178	2.12
692.933	2.12
693.688	3.12
694.443	1.12
695.198	2.12
695.953	3.12
696.708	1.12
697.462	2.12
698.217	2.12
698.972	3.12
699.726	3.12
700.48	2.12
701.235	3.12
701.989	2.12
702.743	3.12
703.497	0.12
704.251	1.12
705.005	-0.88
705.759	2.12
706.513	2.12
707.266	1.12
708.02	4.12
708.774	3.12
709.527	3.12
710.28	2.12
711.034	1.12
711.787	1.12
712.54	1.12
713.293	2.12
714.046	1.12
714.799	2.12
715.552	1.12
716.305	1.12
717.058	4.12
717.81	2.12
718.563	1.12
719.315	0.12
720.068	-0.88
720.82	1.12
721.573	3.12
722.325	1.12
723.077	0.12
723.829	3.12
724.581	1.12
725.333	2.12
726.085	0.12
726.836	0.12
727.588	3.12
728.34	2.12
729.091	-0.88
729.843	1.12
730.594	1.12
731.346	2.12
732.097	2.12
732.848	2.12
733.599	1.12
734.35	3.12
735.101	2.12
735.852	3.12
736.603	2.12
737.354	2.12
738.104	4.12
738.855	1.12
739.605	1.12
740.356	2.12
741.106	0.12
741.856	1.12
742.607	2.12
743.357	3.12
744.107	0.12
744.857	3.12
745.607	2.12
746.357	1.12
747.106	1.12
747.856	3.12
748.606	1.12
749.355	2.12
750.105	3.12
750.854	1.12
751.603	4.12
752.353	3.12
753.102	3.12
753.851	3.12
754.6	2.12
755.349	2.12
756.098	1.12
756.847	3.12
757.595	3.12
758.344	2.12
759.093	3.12
759.841	1.12
760.589	3.12
761.338	2.12
762.086	2.12
762.834	2.12
763.582	3.12
764.331	4.12
765.079	4.12
765.826	5.12
766.574	2.12
767.322	5.12
768.07	4.12
768.817	5.12
769.565	3.12
770.312	3.12
771.06	5.12
771.807	4.12
772.554	5.12
773.302	2.12
774.049	2.12
774.796	6.12
775.543	5.12
776.29	5.12
777.036	2.12
777.783	2.12
778.53	5.12
779.276	5.12
780.023	5.12
780.769	3.12
781.516	3.12
782.262	5.12
783.008	5.12
783.754	5.12
784.5	6.12
785.246	3.12
785.992	7.12
786.738	6.12
787.484	5.12
788.23	6.12
788.975	3.12
789.721	4.12
790.466	7.12
791.212	3.12
791.957	6.12
792.702	5.12
793.447	4.12
794.193	5.12
794.938	5.12
795.683	2.12
796.427	3.12
797.172	3.12
797.917	5.12
798.662	4.12
799.406	2.12
800.151	5.12
800.895	6.12
801.64	4.12
802.384	7.12
803.128	5.12
803.872	3.12
804.616	5.12
805.36	4.12
806.104	5.12
806.848	2.12
807.592	4.12
808.336	4.12
809.079	2.12
809.823	2.12
810.566	3.12
811.31	3.12
812.053	3.12
812.796	5.12
813.539	2.12
814.283	3.12
815.026	4.12
815.769	2.12
816.511	2.12
817.254	3.12
817.997	6.12
818.74	3.12
819.482	3.12
820.225	2.12
820.967	2.12
821.71	2.12
822.452	4.12
823.194	3.12
823.936	3.12
824.678	4.12
825.42	5.12
826.162	2.12
826.904	4.12
827.646	2.12
828.388	3.12
829.129	2.12
829.871	4.12
830.612	3.12
831.354	2.12
832.095	2.12
832.836	2.12
833.577	4.12
834.319	2.12
835.06	-0.88
835.801	1.12
836.542	2.12
837.282	4.12
838.023	2.12
838.764	2.12
839.504	3.12
840.245	2.12
840.985	3.12
841.726	1.12
842.466	1.12
843.206	1.12
843.946	2.12
844.687	3.12
845.427	2.12
846.166	-0.88
846.906	1.12
847.646	3.12
848.386	2.12
849.125	1.12
849.865	3.12
850.605	1.12
851.344	2.12
852.083	1.12
852.823	4.12
853.562	-0.88
854.301	1.12
855.04	2.12
855.779	1.12
856.518	3.12
857.257	0.12
857.995	2.12
858.734	3.12
859.473	2.12
860.211	1.12
860.95	2.12
861.688	1.12
862.426	1.12
863.165	2.12
863.903	1.12
864.641	1.12
865.379	1.12
866.117	0.12
866.855	0.12
867.593	0.12
868.33	0.12
869.068	1.12
869.806	2.12
870.543	1.12
871.28	1.12
872.018	1.12
872.755	1.12
873.492	0.12
874.229	0.12
874.967	0.12
875.703	2.12
876.44	0.12
877.177	2.12
877.914	0.12
878.651	0.12
879.387	0.12
880.124	0.12
880.86	3.12
881.597	0.12
882.333	2.12
883.069	-1.88
883.806	1.12
884.542	1.12
885.278	-1.88
886.014	2.12
886.749	0.12
887.485	0.12
888.221	-0.88
888.957	2.12
889.692	2.12
890.428	0.12
891.163	0.12
891.899	1.12
892.634	1.12
893.369	1.12
894.104	1.12
894.839	0.12
895.574	0.12
896.309	-1.88
897.044	-1.88
897.779	0.12
898.514	-0.88
899.248	2.12
899.983	1.12
900.717	-0.88
901.452	0.12
902.186	-1.88
902.92	-1.88
903.654	4.12
904.389	1.12
905.123	1.12
905.857	0.12
906.59	-1.88
907.324	-1.88
908.058	0.12
908.792	2.12
909.525	0.12
910.259	2.12
910.992	0.12
911.726	0.12
912.459	2.12
913.192	1.12
913.925	0.12
914.658	1.12
915.391	1.12
916.124	-0.88
916.857	1.12
917.59	-0.88
918.323	1.12
919.055	1.12
919.788	-1.88
920.521	1.12
921.253	-0.88
921.985	0.12
922.718	1.12
923.45	0.12
924.182	0.12
924.914	2.12
925.646	0.12
926.378	0.12
927.11	1.12
927.841	0.12
928.573	-0.88
929.305	-1.88
930.036	-0.88
930.768	0.12
931.499	-1.88
932.23	0.12
932.962	3.12
933.693	-0.88
934.424	1.12
935.155	1.12
935.886	0.12
936.617	0.12
937.348	0.12
938.078	0.12
938.809	2.12
939.54	-0.88
940.27	2.12
941.001	2.12
941.731	0.12
942.461	0.12
943.191	0.12
943.922	0.12
944.652	-0.88
945.382	-0.88
946.112	-1.88
946.841	2.12
947.571	2.12
948.301	1.12
949.031	2.12
949.76	1.12
950.49	-1.88
951.219	1.12
951.948	-1.88
952.678	0.12
953.407	0.12
954.136	2.12
954.865	2.12
955.594	0.12
956.323	2.12
957.052	-0.88
957.78	0.12
958.509	1.12
959.238	-0.88
959.966	0.12
960.695	0.12
961.423	0.12
962.151	2.12
962.88	0.12
963.608	1.12
964.336	1.12
965.064	0.12
965.792	-1.88
966.52	-0.88
967.247	0.12
967.975	-0.88
968.703	1.12
969.43	-1.88
970.158	-0.88
970.885	1.12
971.613	1.12
972.34	1.12
973.067	-0.88
973.794	-1.88
974.521	-2.88
975.248	0.12
975.975	1.12
976.702	3.12
977.429	2.12
978.156	-1.88
978.882	1.12
979.609	1.12
980.335	1.12
981.062	0.12
981.788	0.12
982.514	2.12
983.24	-0.88
983.967	0.12
984.693	-1.88
985.419	-0.88
986.144	0.12
986.87	-0.88
987.596	0.12
988.322	-0.88
989.047	-1.88
989.773	0.12
990.498	0.12
991.224	1.12
991.949	1.12
992.674	2.12
993.399	-1.88
994.124	-1.88
994.849	-0.88
995.574	1.12
996.299	-0.88
997.024	0.12
997.749	-0.88
998.473	-1.88
999.198	-0.88
999.922	1.12
1000.647	3.12
1001.371	4.12
1002.095	-2.88
1002.82	-0.88
1003.544	-2.88
1004.268	-0.88
1004.992	-1.88
1005.716	-0.88
1006.439	-0.88
1007.163	-0.88
1007.887	0.12
1008.611	-1.88
1009.334	0.12
1010.058	3.12
1010.781	-0.88
1011.504	2.12
1012.228	-0.88
1012.951	2.12
1013.674	0.12
1014.397	0.12
1015.12	0.12
