节点500_145_QEPB04081__66__11-30-00-702.txt的数据

Date: Wed Nov 12 11:30:00 CST 2025
User: PC
Spectrometer: QEPB0408
触发模式: 0
积分时间 (秒): 1.000000E-2
Scans to average: 1
启用暗噪声校正: true
启用非线性校正: false
滑动平均宽度: 0
X轴模式: Wavelengths
Number of Pixels in Spectrum: 1044
>>>>>Begin Spectral Data<<<<<
220.843	-0.25
221.644	-0.25
222.444	-4.25
223.244	-2.25
224.045	-0.25
224.845	0.75
225.645	-0.25
226.445	-2.25
227.245	0.75
228.045	0.75
228.845	-1.25
229.645	0.75
230.444	-1.25
231.244	-0.25
232.043	-1.25
232.843	-0.25
233.642	0.75
234.442	-0.25
235.241	-1.25
236.04	1.75
236.839	-0.25
237.638	-0.25
238.437	-0.25
239.236	1.75
240.035	0.75
240.833	2.75
241.632	0.75
242.43	0.75
243.229	0.75
244.027	1.75
244.826	2.75
245.624	0.75
246.422	1.75
247.22	2.75
248.018	1.75
248.816	1.75
249.614	1.75
250.412	1.75
251.21	2.75
252.007	1.75
252.805	2.75
253.602	2.75
254.4	2.75
255.197	1.75
255.994	2.75
256.791	2.75
257.589	3.75
258.386	3.75
259.183	5.75
259.979	5.75
260.776	3.75
261.573	3.75
262.37	5.75
263.166	3.75
263.963	7.75
264.759	6.75
265.556	6.75
266.352	4.75
267.148	6.75
267.944	9.75
268.74	6.75
269.536	7.75
270.332	5.75
271.128	7.75
271.924	9.75
272.719	7.75
273.515	8.75
274.311	6.75
275.106	11.75
275.901	12.75
276.697	7.75
277.492	11.75
278.287	8.75
279.082	10.75
279.877	11.75
280.672	9.75
281.467	7.75
282.262	13.75
283.056	11.75
283.851	11.75
284.646	11.75
285.44	10.75
286.234	8.75
287.029	12.75
287.823	8.75
288.617	9.75
289.411	8.75
290.205	11.75
290.999	9.75
291.793	12.75
292.587	8.75
293.381	9.75
294.174	9.75
294.968	7.75
295.761	8.75
296.555	9.75
297.348	7.75
298.141	6.75
298.935	8.75
299.728	8.75
300.521	9.75
301.314	7.75
302.107	7.75
302.899	9.75
303.692	7.75
304.485	8.75
305.277	8.75
306.07	7.75
306.862	4.75
307.655	7.75
308.447	6.75
309.239	5.75
310.031	7.75
310.823	5.75
311.615	6.75
312.407	5.75
313.199	7.75
313.991	4.75
314.783	3.75
315.574	4.75
316.366	3.75
317.157	6.75
317.949	5.75
318.74	5.75
319.531	3.75
320.322	4.75
321.113	4.75
321.904	4.75
322.695	5.75
323.486	4.75
324.277	0.75
325.068	0.75
325.858	4.75
326.649	4.75
327.439	2.75
328.23	3.75
329.02	2.75
329.81	4.75
330.6	4.75
331.391	3.75
332.181	1.75
332.971	2.75
333.76	2.75
334.55	2.75
335.34	4.75
336.13	6.75
336.919	2.75
337.709	1.75
338.498	3.75
339.287	2.75
340.077	2.75
340.866	2.75
341.655	-0.25
342.444	4.75
343.233	0.75
344.022	3.75
344.811	4.75
345.6	2.75
346.388	2.75
347.177	0.75
347.965	4.75
348.754	1.75
349.542	0.75
350.33	1.75
351.119	1.75
351.907	2.75
352.695	2.75
353.483	3.75
354.271	4.75
355.059	1.75
355.846	4.75
356.634	1.75
357.422	3.75
358.209	1.75
358.997	3.75
359.784	1.75
360.571	1.75
361.359	3.75
362.146	3.75
362.933	4.75
363.72	2.75
364.507	1.75
365.294	1.75
366.081	0.75
366.867	1.75
367.654	2.75
368.44	0.75
369.227	1.75
370.013	5.75
370.8	0.75
371.586	0.75
372.372	4.75
373.158	1.75
373.944	1.75
374.73	0.75
375.516	4.75
376.302	0.75
377.088	4.75
377.873	1.75
378.659	2.75
379.445	3.75
380.23	1.75
381.015	3.75
381.801	2.75
382.586	0.75
383.371	2.75
384.156	4.75
384.941	1.75
385.726	1.75
386.511	0.75
387.296	1.75
388.08	1.75
388.865	3.75
389.649	0.75
390.434	2.75
391.218	0.75
392.003	4.75
392.787	0.75
393.571	2.75
394.355	1.75
395.139	0.75
395.923	2.75
396.707	4.75
397.491	5.75
398.274	2.75
399.058	2.75
399.842	1.75
400.625	3.75
401.408	2.75
402.192	1.75
402.975	2.75
403.758	4.75
404.541	2.75
405.324	4.75
406.107	4.75
406.89	3.75
407.673	4.75
408.456	2.75
409.238	4.75
410.021	0.75
410.803	2.75
411.586	1.75
412.368	7.75
413.151	3.75
413.933	2.75
414.715	2.75
415.497	3.75
416.279	6.75
417.061	4.75
417.843	4.75
418.624	3.75
419.406	6.75
420.188	7.75
420.969	4.75
421.751	5.75
422.532	4.75
423.313	4.75
424.095	6.75
424.876	6.75
425.657	5.75
426.438	6.75
427.219	4.75
428	5.75
428.78	7.75
429.561	5.75
430.342	6.75
431.122	8.75
431.903	6.75
432.683	7.75
433.464	8.75
434.244	8.75
435.024	9.75
435.804	6.75
436.584	10.75
437.364	6.75
438.144	9.75
438.924	11.75
439.704	9.75
440.483	11.75
441.263	9.75
442.042	10.75
442.822	12.75
443.601	13.75
444.38	14.75
445.16	14.75
445.939	14.75
446.718	15.75
447.497	16.75
448.276	20.75
449.054	19.75
449.833	21.75
450.612	22.75
451.391	24.75
452.169	26.75
452.948	29.75
453.726	30.75
454.504	35.75
455.282	35.75
456.061	39.75
456.839	42.75
457.617	49.75
458.395	54.75
459.172	59.75
459.95	63.75
460.728	69.75
461.506	76.75
462.283	93.75
463.061	104.75
463.838	115.75
464.615	125.75
465.393	142.75
466.17	158.75
466.947	174.75
467.724	200.75
468.501	210.75
469.278	246.75
470.055	280.75
470.831	299.75
471.608	336.75
472.385	385.75
473.161	423.75
473.938	473.75
474.714	533.75
475.49	586.75
476.266	656.75
477.043	735.75
477.819	806.75
478.595	901.75
479.371	998.75
480.146	1115.75
480.922	1244.75
481.698	1384.75
482.473	1532.75
483.249	1689.75
484.024	1877.75
484.8	2090.75
485.575	2319.75
486.35	2580.75
487.126	2825.75
487.901	3136.75
488.676	3469.75
489.451	3855.75
490.225	4266.75
491	4708.75
491.775	5209.75
492.55	5736.75
493.324	6278.75
494.099	6958.75
494.873	7611.75
495.647	8296.75
496.422	9040.75
497.196	9788.75
497.97	10595.75
498.744	11429.75
499.518	12244.75
500.292	13062.75
501.066	13777.75
501.839	14526.75
502.613	15204.75
503.387	15824.75
504.16	16370.75
504.934	16728.75
505.707	17020.75
506.48	17296.75
507.253	17304.75
508.027	17292.75
508.8	17093.75
509.573	16850.75
510.346	16491.75
511.118	15983.75
511.891	15471.75
512.664	14893.75
513.437	14358.75
514.209	13757.75
514.982	13113.75
515.754	12506.75
516.526	11911.75
517.298	11409.75
518.071	10874.75
518.843	10423.75
519.615	9946.75
520.387	9546.75
521.159	9161.75
521.93	8764.75
522.702	8432.75
523.474	8119.75
524.245	7801.75
525.017	7473.75
525.788	7204.75
526.56	6891.75
527.331	6604.75
528.102	6280.75
528.873	6009.75
529.644	5697.75
530.415	5473.75
531.186	5166.75
531.957	4896.75
532.728	4632.75
533.498	4352.75
534.269	4129.75
535.039	3891.75
535.81	3681.75
536.58	3463.75
537.351	3270.75
538.121	3087.75
538.891	2905.75
539.661	2763.75
540.431	2602.75
541.201	2472.75
541.971	2337.75
542.741	2242.75
543.51	2092.75
544.28	1984.75
545.05	1897.75
545.819	1786.75
546.588	1710.75
547.358	1640.75
548.127	1558.75
548.896	1467.75
549.665	1391.75
550.434	1330.75
551.203	1251.75
551.972	1180.75
552.741	1135.75
553.51	1059.75
554.278	1008.75
555.047	943.75
555.815	898.75
556.584	841.75
557.352	790.75
558.121	741.75
558.889	700.75
559.657	652.75
560.425	621.75
561.193	588.75
561.961	540.75
562.729	530.75
563.496	486.75
564.264	466.75
565.032	438.75
565.799	416.75
566.567	391.75
567.334	368.75
568.101	351.75
568.869	332.75
569.636	312.75
570.403	290.75
571.17	269.75
571.937	258.75
572.704	249.75
573.471	232.75
574.237	218.75
575.004	210.75
575.771	197.75
576.537	183.75
577.303	169.75
578.07	161.75
578.836	147.75
579.602	143.75
580.368	133.75
581.134	125.75
581.9	121.75
582.666	113.75
583.432	106.75
584.198	100.75
584.964	97.75
585.729	95.75
586.495	88.75
587.26	82.75
588.025	76.75
588.791	72.75
589.556	67.75
590.321	64.75
591.086	64.75
591.851	56.75
592.616	54.75
593.381	51.75
594.146	50.75
594.911	46.75
595.675	46.75
596.44	42.75
597.204	40.75
597.969	36.75
598.733	36.75
599.497	36.75
600.261	32.75
601.025	28.75
601.79	32.75
602.553	30.75
603.317	27.75
604.081	27.75
604.845	25.75
605.609	26.75
606.372	24.75
607.136	23.75
607.899	22.75
608.662	20.75
609.426	21.75
610.189	20.75
610.952	20.75
611.715	17.75
612.478	14.75
613.241	17.75
614.004	12.75
614.767	13.75
615.529	13.75
616.292	12.75
617.055	13.75
617.817	15.75
618.579	11.75
619.342	11.75
620.104	9.75
620.866	10.75
621.628	13.75
622.39	11.75
623.152	8.75
623.914	9.75
624.676	9.75
625.438	9.75
626.199	6.75
626.961	6.75
627.722	8.75
628.484	8.75
629.245	7.75
630.006	7.75
630.768	7.75
631.529	6.75
632.29	4.75
633.051	4.75
633.812	5.75
634.573	6.75
635.333	7.75
636.094	5.75
636.855	7.75
637.615	4.75
638.376	5.75
639.136	5.75
639.896	4.75
640.657	4.75
641.417	5.75
642.177	5.75
642.937	4.75
643.697	6.75
644.457	4.75
645.216	2.75
645.976	4.75
646.736	1.75
647.495	1.75
648.255	2.75
649.014	6.75
649.774	4.75
650.533	0.75
651.292	3.75
652.051	2.75
652.81	1.75
653.569	1.75
654.328	3.75
655.087	5.75
655.846	1.75
656.604	5.75
657.363	3.75
658.121	3.75
658.88	-0.25
659.638	1.75
660.397	2.75
661.155	3.75
661.913	2.75
662.671	2.75
663.429	3.75
664.187	3.75
664.945	1.75
665.703	3.75
666.46	3.75
667.218	-0.25
667.976	1.75
668.733	2.75
669.49	0.75
670.248	3.75
671.005	3.75
671.762	1.75
672.519	1.75
673.276	1.75
674.033	3.75
674.79	1.75
675.547	1.75
676.304	2.75
677.06	1.75
677.817	0.75
678.574	0.75
679.33	1.75
680.086	1.75
680.843	1.75
681.599	1.75
682.355	0.75
683.111	2.75
683.867	1.75
684.623	2.75
685.379	1.75
686.135	3.75
686.89	1.75
687.646	1.75
688.402	2.75
689.157	0.75
689.912	-0.25
690.668	0.75
691.423	1.75
692.178	1.75
692.933	3.75
693.688	3.75
694.443	1.75
695.198	3.75
695.953	1.75
696.708	0.75
697.462	1.75
698.217	-1.25
698.972	2.75
699.726	1.75
700.48	1.75
701.235	-0.25
701.989	1.75
702.743	1.75
703.497	0.75
704.251	-0.25
705.005	0.75
705.759	0.75
706.513	2.75
707.266	3.75
708.02	3.75
708.774	1.75
709.527	4.75
710.28	-1.25
711.034	2.75
711.787	0.75
712.54	-0.25
713.293	1.75
714.046	1.75
714.799	1.75
715.552	3.75
716.305	1.75
717.058	1.75
717.81	0.75
718.563	2.75
719.315	-0.25
720.068	-0.25
720.82	0.75
721.573	2.75
722.325	1.75
723.077	2.75
723.829	1.75
724.581	0.75
725.333	3.75
726.085	2.75
726.836	3.75
727.588	3.75
728.34	1.75
729.091	0.75
729.843	-1.25
730.594	1.75
731.346	1.75
732.097	1.75
732.848	2.75
733.599	3.75
734.35	2.75
735.101	1.75
735.852	3.75
736.603	1.75
737.354	2.75
738.104	0.75
738.855	0.75
739.605	3.75
740.356	1.75
741.106	1.75
741.856	3.75
742.607	0.75
743.357	3.75
744.107	1.75
744.857	1.75
745.607	3.75
746.357	1.75
747.106	2.75
747.856	1.75
748.606	2.75
749.355	0.75
750.105	1.75
750.854	1.75
751.603	2.75
752.353	2.75
753.102	2.75
753.851	4.75
754.6	-1.25
755.349	4.75
756.098	1.75
756.847	2.75
757.595	3.75
758.344	5.75
759.093	2.75
759.841	3.75
760.589	2.75
761.338	2.75
762.086	3.75
762.834	1.75
763.582	1.75
764.331	1.75
765.079	4.75
765.826	4.75
766.574	3.75
767.322	2.75
768.07	2.75
768.817	4.75
769.565	3.75
770.312	5.75
771.06	3.75
771.807	5.75
772.554	5.75
773.302	3.75
774.049	2.75
774.796	4.75
775.543	5.75
776.29	3.75
777.036	4.75
777.783	4.75
778.53	4.75
779.276	4.75
780.023	3.75
780.769	1.75
781.516	6.75
782.262	5.75
783.008	3.75
783.754	6.75
784.5	5.75
785.246	5.75
785.992	6.75
786.738	4.75
787.484	5.75
788.23	4.75
788.975	3.75
789.721	4.75
790.466	4.75
791.212	5.75
791.957	6.75
792.702	5.75
793.447	2.75
794.193	4.75
794.938	4.75
795.683	3.75
796.427	5.75
797.172	3.75
797.917	3.75
798.662	2.75
799.406	5.75
800.151	2.75
800.895	6.75
801.64	4.75
802.384	2.75
803.128	3.75
803.872	1.75
804.616	4.75
805.36	5.75
806.104	2.75
806.848	3.75
807.592	5.75
808.336	3.75
809.079	3.75
809.823	2.75
810.566	1.75
811.31	1.75
812.053	3.75
812.796	1.75
813.539	4.75
814.283	2.75
815.026	1.75
815.769	1.75
816.511	4.75
817.254	3.75
817.997	-0.25
818.74	2.75
819.482	4.75
820.225	3.75
820.967	3.75
821.71	2.75
822.452	4.75
823.194	2.75
823.936	3.75
824.678	1.75
825.42	2.75
826.162	4.75
826.904	-0.25
827.646	0.75
828.388	1.75
829.129	2.75
829.871	3.75
830.612	2.75
831.354	0.75
832.095	0.75
832.836	1.75
833.577	1.75
834.319	1.75
835.06	2.75
835.801	1.75
836.542	0.75
837.282	1.75
838.023	3.75
838.764	1.75
839.504	1.75
840.245	1.75
840.985	2.75
841.726	1.75
842.466	0.75
843.206	3.75
843.946	1.75
844.687	1.75
845.427	4.75
846.166	2.75
846.906	1.75
847.646	1.75
848.386	3.75
849.125	1.75
849.865	2.75
850.605	1.75
851.344	0.75
852.083	1.75
852.823	1.75
853.562	2.75
854.301	1.75
855.04	1.75
855.779	0.75
856.518	1.75
857.257	1.75
857.995	0.75
858.734	1.75
859.473	2.75
860.211	0.75
860.95	0.75
861.688	1.75
862.426	3.75
863.165	1.75
863.903	-0.25
864.641	1.75
865.379	1.75
866.117	1.75
866.855	0.75
867.593	0.75
868.33	0.75
869.068	0.75
869.806	1.75
870.543	1.75
871.28	1.75
872.018	1.75
872.755	0.75
873.492	2.75
874.229	-1.25
874.967	1.75
875.703	0.75
876.44	0.75
877.177	-2.25
877.914	-0.25
878.651	1.75
879.387	-0.25
880.124	-1.25
880.86	-0.25
881.597	0.75
882.333	0.75
883.069	1.75
883.806	-1.25
884.542	0.75
885.278	1.75
886.014	0.75
886.749	1.75
887.485	-0.25
888.221	0.75
888.957	0.75
889.692	-1.25
890.428	-0.25
891.163	-1.25
891.899	0.75
892.634	1.75
893.369	1.75
894.104	-3.25
894.839	0.75
895.574	-0.25
896.309	-1.25
897.044	1.75
897.779	-0.25
898.514	1.75
899.248	-0.25
899.983	-0.25
900.717	-0.25
901.452	-0.25
902.186	0.75
902.92	0.75
903.654	1.75
904.389	-2.25
905.123	0.75
905.857	-0.25
906.59	-1.25
907.324	0.75
908.058	-1.25
908.792	0.75
909.525	-1.25
910.259	-2.25
910.992	1.75
911.726	-3.25
912.459	-0.25
913.192	0.75
913.925	-0.25
914.658	-0.25
915.391	-0.25
916.124	0.75
916.857	-0.25
917.59	1.75
918.323	0.75
919.055	-0.25
919.788	-0.25
920.521	0.75
921.253	-0.25
921.985	0.75
922.718	1.75
923.45	-1.25
924.182	-2.25
924.914	-0.25
925.646	-2.25
926.378	0.75
927.11	-3.25
927.841	0.75
928.573	-1.25
929.305	-0.25
930.036	-0.25
930.768	-2.25
931.499	0.75
932.23	-0.25
932.962	0.75
933.693	-2.25
934.424	-2.25
935.155	1.75
935.886	-0.25
936.617	0.75
937.348	0.75
938.078	1.75
938.809	-1.25
939.54	-2.25
940.27	2.75
941.001	0.75
941.731	0.75
942.461	0.75
943.191	0.75
943.922	0.75
944.652	-0.25
945.382	0.75
946.112	-1.25
946.841	-0.25
947.571	0.75
948.301	0.75
949.031	1.75
949.76	-0.25
950.49	1.75
951.219	-1.25
951.948	0.75
952.678	-2.25
953.407	-0.25
954.136	0.75
954.865	-0.25
955.594	-0.25
956.323	-1.25
957.052	-1.25
957.78	-2.25
958.509	-1.25
959.238	0.75
959.966	-0.25
960.695	0.75
961.423	-2.25
962.151	0.75
962.88	-2.25
963.608	-2.25
964.336	-2.25
965.064	-1.25
965.792	-0.25
966.52	-1.25
967.247	2.75
967.975	0.75
968.703	0.75
969.43	0.75
970.158	-2.25
970.885	-0.25
971.613	-0.25
972.34	-0.25
973.067	-0.25
973.794	-2.25
974.521	0.75
975.248	-2.25
975.975	-0.25
976.702	0.75
977.429	-0.25
978.156	0.75
978.882	0.75
979.609	-0.25
980.335	1.75
981.062	2.75
981.788	1.75
982.514	0.75
983.24	-2.25
983.967	-0.25
984.693	0.75
985.419	-2.25
986.144	-1.25
986.87	-0.25
987.596	-2.25
988.322	1.75
989.047	0.75
989.773	-0.25
990.498	0.75
991.224	-1.25
991.949	-2.25
992.674	-1.25
993.399	0.75
994.124	-0.25
994.849	0.75
995.574	0.75
996.299	-1.25
997.024	1.75
997.749	-1.25
998.473	-0.25
999.198	-0.25
999.922	-0.25
1000.647	-0.25
1001.371	3.75
1002.095	-0.25
1002.82	-0.25
1003.544	-2.25
1004.268	-2.25
1004.992	0.75
1005.716	1.75
1006.439	0.75
1007.163	0.75
1007.887	-2.25
1008.611	-0.25
1009.334	1.75
1010.058	-2.25
1010.781	0.75
1011.504	0.75
1012.228	-0.25
1012.951	-0.25
1013.674	0.75
1014.397	0.75
1015.12	-2.25
