节点500_145_QEPB04081__532__11-37-23-482.txt的数据

Date: Wed Nov 12 11:37:23 CST 2025
User: PC
Spectrometer: QEPB0408
触发模式: 0
积分时间 (秒): 1.000000E-2
Scans to average: 1
启用暗噪声校正: true
启用非线性校正: false
滑动平均宽度: 0
X轴模式: Wavelengths
Number of Pixels in Spectrum: 1044
>>>>>Begin Spectral Data<<<<<
220.843	-1.88
221.644	-1.88
222.444	-1.88
223.244	-3.88
224.045	1.12
224.845	0.12
225.645	0.12
226.445	2.12
227.245	0.12
228.045	2.12
228.845	-1.88
229.645	0.12
230.444	1.12
231.244	2.12
232.043	2.12
232.843	-1.88
233.642	-0.88
234.442	-0.88
235.241	1.12
236.04	-2.88
236.839	-0.88
237.638	-0.88
238.437	-0.88
239.236	0.12
240.035	0.12
240.833	1.12
241.632	-0.88
242.43	-0.88
243.229	0.12
244.027	2.12
244.826	1.12
245.624	0.12
246.422	0.12
247.22	0.12
248.018	1.12
248.816	1.12
249.614	0.12
250.412	2.12
251.21	2.12
252.007	3.12
252.805	4.12
253.602	1.12
254.4	1.12
255.197	1.12
255.994	5.12
256.791	3.12
257.589	3.12
258.386	3.12
259.183	1.12
259.979	4.12
260.776	0.12
261.573	0.12
262.37	0.12
263.166	3.12
263.963	5.12
264.759	4.12
265.556	3.12
266.352	4.12
267.148	2.12
267.944	4.12
268.74	5.12
269.536	6.12
270.332	7.12
271.128	5.12
271.924	6.12
272.719	8.12
273.515	4.12
274.311	7.12
275.106	8.12
275.901	8.12
276.697	7.12
277.492	8.12
278.287	8.12
279.082	6.12
279.877	6.12
280.672	8.12
281.467	8.12
282.262	5.12
283.056	9.12
283.851	9.12
284.646	10.12
285.44	10.12
286.234	9.12
287.029	9.12
287.823	11.12
288.617	9.12
289.411	9.12
290.205	8.12
290.999	9.12
291.793	9.12
292.587	9.12
293.381	9.12
294.174	9.12
294.968	10.12
295.761	8.12
296.555	11.12
297.348	6.12
298.141	8.12
298.935	7.12
299.728	8.12
300.521	9.12
301.314	7.12
302.107	8.12
302.899	7.12
303.692	7.12
304.485	7.12
305.277	5.12
306.07	8.12
306.862	6.12
307.655	4.12
308.447	4.12
309.239	6.12
310.031	7.12
310.823	3.12
311.615	5.12
312.407	6.12
313.199	4.12
313.991	4.12
314.783	2.12
315.574	5.12
316.366	3.12
317.157	6.12
317.949	3.12
318.74	4.12
319.531	4.12
320.322	4.12
321.113	3.12
321.904	3.12
322.695	2.12
323.486	3.12
324.277	1.12
325.068	3.12
325.858	3.12
326.649	3.12
327.439	2.12
328.23	3.12
329.02	2.12
329.81	2.12
330.6	3.12
331.391	2.12
332.181	3.12
332.971	2.12
333.76	5.12
334.55	4.12
335.34	0.12
336.13	4.12
336.919	0.12
337.709	3.12
338.498	3.12
339.287	4.12
340.077	4.12
340.866	1.12
341.655	4.12
342.444	1.12
343.233	3.12
344.022	-0.88
344.811	2.12
345.6	0.12
346.388	2.12
347.177	3.12
347.965	0.12
348.754	3.12
349.542	3.12
350.33	2.12
351.119	4.12
351.907	0.12
352.695	3.12
353.483	2.12
354.271	2.12
355.059	3.12
355.846	3.12
356.634	3.12
357.422	1.12
358.209	1.12
358.997	3.12
359.784	1.12
360.571	2.12
361.359	1.12
362.146	-0.88
362.933	0.12
363.72	1.12
364.507	2.12
365.294	2.12
366.081	-0.88
366.867	0.12
367.654	1.12
368.44	2.12
369.227	3.12
370.013	2.12
370.8	0.12
371.586	1.12
372.372	0.12
373.158	1.12
373.944	0.12
374.73	4.12
375.516	4.12
376.302	1.12
377.088	1.12
377.873	0.12
378.659	1.12
379.445	0.12
380.23	4.12
381.015	3.12
381.801	3.12
382.586	2.12
383.371	2.12
384.156	0.12
384.941	1.12
385.726	2.12
386.511	0.12
387.296	1.12
388.08	1.12
388.865	1.12
389.649	3.12
390.434	3.12
391.218	2.12
392.003	4.12
392.787	1.12
393.571	1.12
394.355	3.12
395.139	2.12
395.923	1.12
396.707	1.12
397.491	2.12
398.274	2.12
399.058	2.12
399.842	3.12
400.625	2.12
401.408	0.12
402.192	3.12
402.975	1.12
403.758	4.12
404.541	1.12
405.324	2.12
406.107	2.12
406.89	2.12
407.673	2.12
408.456	4.12
409.238	1.12
410.021	3.12
410.803	5.12
411.586	1.12
412.368	2.12
413.151	4.12
413.933	1.12
414.715	2.12
415.497	4.12
416.279	3.12
417.061	4.12
417.843	5.12
418.624	4.12
419.406	4.12
420.188	5.12
420.969	4.12
421.751	2.12
422.532	5.12
423.313	5.12
424.095	5.12
424.876	3.12
425.657	6.12
426.438	4.12
427.219	6.12
428	4.12
428.78	6.12
429.561	6.12
430.342	5.12
431.122	5.12
431.903	5.12
432.683	5.12
433.464	6.12
434.244	8.12
435.024	7.12
435.804	6.12
436.584	7.12
437.364	7.12
438.144	7.12
438.924	10.12
439.704	11.12
440.483	11.12
441.263	10.12
442.042	10.12
442.822	13.12
443.601	10.12
444.38	13.12
445.16	16.12
445.939	18.12
446.718	19.12
447.497	18.12
448.276	19.12
449.054	22.12
449.833	23.12
450.612	25.12
451.391	28.12
452.169	28.12
452.948	34.12
453.726	36.12
454.504	35.12
455.282	44.12
456.061	45.12
456.839	50.12
457.617	59.12
458.395	63.12
459.172	69.12
459.95	80.12
460.728	87.12
461.506	94.12
462.283	111.12
463.061	120.12
463.838	137.12
464.615	153.12
465.393	165.12
466.17	185.12
466.947	200.12
467.724	230.12
468.501	252.12
469.278	283.12
470.055	311.12
470.831	351.12
471.608	385.12
472.385	434.12
473.161	481.12
473.938	536.12
474.714	582.12
475.49	654.12
476.266	704.12
477.043	791.12
477.819	868.12
478.595	962.12
479.371	1058.12
480.146	1171.12
480.922	1275.12
481.698	1402.12
482.473	1530.12
483.249	1693.12
484.024	1860.12
484.8	2029.12
485.575	2213.12
486.35	2450.12
487.126	2692.12
487.901	2936.12
488.676	3219.12
489.451	3523.12
490.225	3840.12
491	4205.12
491.775	4612.12
492.55	5022.12
493.324	5486.12
494.099	5961.12
494.873	6531.12
495.647	7081.12
496.422	7676.12
497.196	8303.12
497.97	8901.12
498.744	9550.12
499.518	10292.12
500.292	10934.12
501.066	11659.12
501.839	12266.12
502.613	12876.12
503.387	13530.12
504.16	14034.12
504.934	14565.12
505.707	14964.12
506.48	15236.12
507.253	15468.12
508.027	15636.12
508.8	15716.12
509.573	15669.12
510.346	15510.12
511.118	15273.12
511.891	14976.12
512.664	14606.12
513.437	14189.12
514.209	13695.12
514.982	13211.12
515.754	12718.12
516.526	12234.12
517.298	11694.12
518.071	11202.12
518.843	10716.12
519.615	10267.12
520.387	9868.12
521.159	9477.12
521.93	9081.12
522.702	8707.12
523.474	8409.12
524.245	8052.12
525.017	7746.12
525.788	7396.12
526.56	7098.12
527.331	6837.12
528.102	6529.12
528.873	6272.12
529.644	6007.12
530.415	5732.12
531.186	5461.12
531.957	5226.12
532.728	4942.12
533.498	4702.12
534.269	4456.12
535.039	4211.12
535.81	3989.12
536.58	3776.12
537.351	3547.12
538.121	3348.12
538.891	3206.12
539.661	3000.12
540.431	2840.12
541.201	2702.12
541.971	2544.12
542.741	2429.12
543.51	2288.12
544.28	2168.12
545.05	2067.12
545.819	1957.12
546.588	1871.12
547.358	1767.12
548.127	1682.12
548.896	1608.12
549.665	1507.12
550.434	1447.12
551.203	1376.12
551.972	1318.12
552.741	1237.12
553.51	1165.12
554.278	1112.12
555.047	1055.12
555.815	987.12
556.584	933.12
557.352	880.12
558.121	824.12
558.889	790.12
559.657	740.12
560.425	686.12
561.193	660.12
561.961	626.12
562.729	585.12
563.496	555.12
564.264	524.12
565.032	490.12
565.799	465.12
566.567	447.12
567.334	416.12
568.101	398.12
568.869	364.12
569.636	349.12
570.403	335.12
571.17	311.12
571.937	296.12
572.704	274.12
573.471	254.12
574.237	241.12
575.004	228.12
575.771	225.12
576.537	202.12
577.303	193.12
578.07	181.12
578.836	170.12
579.602	161.12
580.368	152.12
581.134	145.12
581.9	137.12
582.666	129.12
583.432	121.12
584.198	120.12
584.964	108.12
585.729	103.12
586.495	99.12
587.26	92.12
588.025	88.12
588.791	79.12
589.556	76.12
590.321	72.12
591.086	70.12
591.851	65.12
592.616	63.12
593.381	59.12
594.146	54.12
594.911	52.12
595.675	49.12
596.44	48.12
597.204	47.12
597.969	41.12
598.733	42.12
599.497	37.12
600.261	36.12
601.025	37.12
601.79	36.12
602.553	34.12
603.317	30.12
604.081	29.12
604.845	30.12
605.609	25.12
606.372	26.12
607.136	25.12
607.899	22.12
608.662	20.12
609.426	24.12
610.189	21.12
610.952	21.12
611.715	18.12
612.478	20.12
613.241	18.12
614.004	19.12
614.767	16.12
615.529	15.12
616.292	13.12
617.055	14.12
617.817	14.12
618.579	12.12
619.342	10.12
620.104	13.12
620.866	13.12
621.628	9.12
622.39	10.12
623.152	10.12
623.914	11.12
624.676	8.12
625.438	10.12
626.199	10.12
626.961	8.12
627.722	8.12
628.484	7.12
629.245	7.12
630.006	4.12
630.768	8.12
631.529	6.12
632.29	8.12
633.051	4.12
633.812	7.12
634.573	6.12
635.333	8.12
636.094	5.12
636.855	6.12
637.615	3.12
638.376	8.12
639.136	0.12
639.896	7.12
640.657	4.12
641.417	5.12
642.177	5.12
642.937	5.12
643.697	3.12
644.457	4.12
645.216	6.12
645.976	2.12
646.736	1.12
647.495	3.12
648.255	3.12
649.014	1.12
649.774	2.12
650.533	2.12
651.292	2.12
652.051	5.12
652.81	1.12
653.569	3.12
654.328	5.12
655.087	1.12
655.846	3.12
656.604	4.12
657.363	3.12
658.121	3.12
658.88	2.12
659.638	3.12
660.397	3.12
661.155	3.12
661.913	2.12
662.671	1.12
663.429	3.12
664.187	4.12
664.945	1.12
665.703	0.12
666.46	1.12
667.218	2.12
667.976	1.12
668.733	4.12
669.49	-0.88
670.248	3.12
671.005	0.12
671.762	1.12
672.519	1.12
673.276	0.12
674.033	1.12
674.79	0.12
675.547	0.12
676.304	0.12
677.06	-1.88
677.817	1.12
678.574	0.12
679.33	1.12
680.086	1.12
680.843	1.12
681.599	1.12
682.355	3.12
683.111	1.12
683.867	1.12
684.623	1.12
685.379	0.12
686.135	1.12
686.89	1.12
687.646	1.12
688.402	0.12
689.157	-1.88
689.912	-0.88
690.668	2.12
691.423	0.12
692.178	1.12
692.933	1.12
693.688	-0.88
694.443	1.12
695.198	1.12
695.953	1.12
696.708	2.12
697.462	-1.88
698.217	3.12
698.972	2.12
699.726	2.12
700.48	-0.88
701.235	-0.88
701.989	1.12
702.743	2.12
703.497	1.12
704.251	1.12
705.005	-0.88
705.759	0.12
706.513	0.12
707.266	-2.88
708.02	0.12
708.774	0.12
709.527	2.12
710.28	-0.88
711.034	1.12
711.787	1.12
712.54	0.12
713.293	-0.88
714.046	3.12
714.799	0.12
715.552	1.12
716.305	1.12
717.058	0.12
717.81	2.12
718.563	1.12
719.315	1.12
720.068	-1.88
720.82	-0.88
721.573	1.12
722.325	-0.88
723.077	1.12
723.829	0.12
724.581	-0.88
725.333	3.12
726.085	1.12
726.836	1.12
727.588	0.12
728.34	1.12
729.091	1.12
729.843	2.12
730.594	1.12
731.346	1.12
732.097	3.12
732.848	0.12
733.599	2.12
734.35	1.12
735.101	1.12
735.852	3.12
736.603	0.12
737.354	2.12
738.104	1.12
738.855	2.12
739.605	2.12
740.356	1.12
741.106	2.12
741.856	2.12
742.607	2.12
743.357	0.12
744.107	2.12
744.857	4.12
745.607	-0.88
746.357	1.12
747.106	-0.88
747.856	2.12
748.606	1.12
749.355	2.12
750.105	0.12
750.854	1.12
751.603	3.12
752.353	-0.88
753.102	2.12
753.851	0.12
754.6	1.12
755.349	4.12
756.098	2.12
756.847	2.12
757.595	0.12
758.344	1.12
759.093	3.12
759.841	6.12
760.589	4.12
761.338	2.12
762.086	2.12
762.834	1.12
763.582	2.12
764.331	1.12
765.079	1.12
765.826	2.12
766.574	2.12
767.322	5.12
768.07	2.12
768.817	3.12
769.565	1.12
770.312	4.12
771.06	3.12
771.807	2.12
772.554	4.12
773.302	4.12
774.049	4.12
774.796	2.12
775.543	4.12
776.29	1.12
777.036	3.12
777.783	2.12
778.53	3.12
779.276	2.12
780.023	2.12
780.769	3.12
781.516	3.12
782.262	2.12
783.008	2.12
783.754	2.12
784.5	3.12
785.246	3.12
785.992	2.12
786.738	3.12
787.484	2.12
788.23	3.12
788.975	4.12
789.721	6.12
790.466	3.12
791.212	4.12
791.957	6.12
792.702	1.12
793.447	5.12
794.193	4.12
794.938	4.12
795.683	5.12
796.427	5.12
797.172	5.12
797.917	2.12
798.662	4.12
799.406	1.12
800.151	2.12
800.895	2.12
801.64	3.12
802.384	4.12
803.128	2.12
803.872	3.12
804.616	2.12
805.36	4.12
806.104	1.12
806.848	3.12
807.592	4.12
808.336	3.12
809.079	3.12
809.823	3.12
810.566	1.12
811.31	1.12
812.053	4.12
812.796	4.12
813.539	4.12
814.283	1.12
815.026	1.12
815.769	3.12
816.511	2.12
817.254	3.12
817.997	3.12
818.74	1.12
819.482	3.12
820.225	0.12
820.967	2.12
821.71	0.12
822.452	2.12
823.194	2.12
823.936	1.12
824.678	3.12
825.42	1.12
826.162	1.12
826.904	3.12
827.646	0.12
828.388	1.12
829.129	3.12
829.871	0.12
830.612	1.12
831.354	4.12
832.095	1.12
832.836	1.12
833.577	2.12
834.319	0.12
835.06	1.12
835.801	1.12
836.542	2.12
837.282	1.12
838.023	1.12
838.764	1.12
839.504	-0.88
840.245	0.12
840.985	1.12
841.726	0.12
842.466	0.12
843.206	1.12
843.946	0.12
844.687	1.12
845.427	3.12
846.166	1.12
846.906	1.12
847.646	1.12
848.386	-1.88
849.125	0.12
849.865	0.12
850.605	1.12
851.344	1.12
852.083	1.12
852.823	1.12
853.562	2.12
854.301	3.12
855.04	-1.88
855.779	0.12
856.518	1.12
857.257	2.12
857.995	-1.88
858.734	-1.88
859.473	-0.88
860.211	0.12
860.95	0.12
861.688	-1.88
862.426	-1.88
863.165	1.12
863.903	2.12
864.641	1.12
865.379	0.12
866.117	0.12
866.855	1.12
867.593	0.12
868.33	1.12
869.068	0.12
869.806	3.12
870.543	-2.88
871.28	0.12
872.018	0.12
872.755	-0.88
873.492	-2.88
874.229	-0.88
874.967	0.12
875.703	-0.88
876.44	0.12
877.177	1.12
877.914	-0.88
878.651	0.12
879.387	0.12
880.124	-0.88
880.86	1.12
881.597	1.12
882.333	0.12
883.069	-1.88
883.806	-0.88
884.542	-2.88
885.278	2.12
886.014	-0.88
886.749	0.12
887.485	-0.88
888.221	-0.88
888.957	-1.88
889.692	-1.88
890.428	0.12
891.163	-0.88
891.899	-0.88
892.634	-0.88
893.369	-2.88
894.104	0.12
894.839	-1.88
895.574	0.12
896.309	0.12
897.044	-1.88
897.779	1.12
898.514	-0.88
899.248	-0.88
899.983	-0.88
900.717	-1.88
901.452	-0.88
902.186	-0.88
902.92	0.12
903.654	-2.88
904.389	0.12
905.123	-0.88
905.857	-0.88
906.59	-2.88
907.324	-3.88
908.058	-2.88
908.792	-0.88
909.525	0.12
910.259	-2.88
910.992	0.12
911.726	-0.88
912.459	-2.88
913.192	1.12
913.925	-0.88
914.658	-0.88
915.391	0.12
916.124	0.12
916.857	-0.88
917.59	-1.88
918.323	0.12
919.055	-0.88
919.788	0.12
920.521	-0.88
921.253	-2.88
921.985	-1.88
922.718	0.12
923.45	-1.88
924.182	-2.88
924.914	-1.88
925.646	-0.88
926.378	0.12
927.11	1.12
927.841	-1.88
928.573	-0.88
929.305	-1.88
930.036	1.12
930.768	1.12
931.499	-1.88
932.23	-0.88
932.962	-0.88
933.693	-1.88
934.424	0.12
935.155	-0.88
935.886	-1.88
936.617	-0.88
937.348	-0.88
938.078	-0.88
938.809	-1.88
939.54	-0.88
940.27	-0.88
941.001	-0.88
941.731	-0.88
942.461	1.12
943.191	-0.88
943.922	0.12
944.652	0.12
945.382	1.12
946.112	-1.88
946.841	1.12
947.571	-1.88
948.301	-1.88
949.031	-0.88
949.76	-1.88
950.49	-0.88
951.219	-0.88
951.948	-1.88
952.678	0.12
953.407	1.12
954.136	-0.88
954.865	-0.88
955.594	0.12
956.323	-2.88
957.052	-2.88
957.78	-1.88
958.509	-2.88
959.238	-1.88
959.966	-0.88
960.695	-0.88
961.423	-1.88
962.151	-0.88
962.88	-0.88
963.608	-0.88
964.336	-0.88
965.064	-1.88
965.792	-1.88
966.52	-1.88
967.247	-0.88
967.975	-0.88
968.703	0.12
969.43	1.12
970.158	-0.88
970.885	-1.88
971.613	-0.88
972.34	-0.88
973.067	-1.88
973.794	-2.88
974.521	-0.88
975.248	-3.88
975.975	-1.88
976.702	0.12
977.429	-0.88
978.156	-1.88
978.882	-0.88
979.609	-2.88
980.335	-2.88
981.062	1.12
981.788	1.12
982.514	-1.88
983.24	1.12
983.967	-2.88
984.693	0.12
985.419	-0.88
986.144	-0.88
986.87	-2.88
987.596	-0.88
988.322	2.12
989.047	-0.88
989.773	0.12
990.498	-1.88
991.224	0.12
991.949	0.12
992.674	2.12
993.399	-0.88
994.124	0.12
994.849	0.12
995.574	-0.88
996.299	-1.88
997.024	-0.88
997.749	-2.88
998.473	-2.88
999.198	-0.88
999.922	-1.88
1000.647	-2.88
1001.371	4.12
1002.095	0.12
1002.82	-0.88
1003.544	-0.88
1004.268	-0.88
1004.992	-2.88
1005.716	-2.88
1006.439	0.12
1007.163	-1.88
1007.887	0.12
1008.611	-0.88
1009.334	0.12
1010.058	-0.88
1010.781	-1.88
1011.504	-1.88
1012.228	0.12
1012.951	0.12
1013.674	-0.88
1014.397	-0.88
1015.12	-0.88
