节点500_145_QEPB04081__654__11-39-20-081.txt的数据

Date: Wed Nov 12 11:39:20 CST 2025
User: PC
Spectrometer: QEPB0408
触发模式: 0
积分时间 (秒): 1.000000E-2
Scans to average: 1
启用暗噪声校正: true
启用非线性校正: false
滑动平均宽度: 0
X轴模式: Wavelengths
Number of Pixels in Spectrum: 1044
>>>>>Begin Spectral Data<<<<<
220.843	0.62
221.644	1.62
222.444	-0.38
223.244	0.62
224.045	-1.38
224.845	-0.38
225.645	-1.38
226.445	1.62
227.245	-0.38
228.045	0.62
228.845	1.62
229.645	0.62
230.444	-1.38
231.244	1.62
232.043	-0.38
232.843	3.62
233.642	-0.38
234.442	3.62
235.241	1.62
236.04	-0.38
236.839	0.62
237.638	3.62
238.437	2.62
239.236	2.62
240.035	0.62
240.833	-0.38
241.632	-0.38
242.43	1.62
243.229	1.62
244.027	2.62
244.826	0.62
245.624	2.62
246.422	3.62
247.22	1.62
248.018	1.62
248.816	3.62
249.614	1.62
250.412	0.62
251.21	1.62
252.007	3.62
252.805	1.62
253.602	3.62
254.4	3.62
255.197	3.62
255.994	2.62
256.791	4.62
257.589	3.62
258.386	2.62
259.183	2.62
259.979	4.62
260.776	4.62
261.573	5.62
262.37	4.62
263.166	6.62
263.963	2.62
264.759	5.62
265.556	4.62
266.352	5.62
267.148	3.62
267.944	5.62
268.74	5.62
269.536	5.62
270.332	5.62
271.128	6.62
271.924	7.62
272.719	6.62
273.515	7.62
274.311	7.62
275.106	6.62
275.901	7.62
276.697	8.62
277.492	7.62
278.287	9.62
279.082	11.62
279.877	10.62
280.672	9.62
281.467	9.62
282.262	6.62
283.056	7.62
283.851	11.62
284.646	6.62
285.44	10.62
286.234	8.62
287.029	11.62
287.823	10.62
288.617	9.62
289.411	9.62
290.205	8.62
290.999	10.62
291.793	9.62
292.587	11.62
293.381	8.62
294.174	9.62
294.968	9.62
295.761	7.62
296.555	8.62
297.348	7.62
298.141	10.62
298.935	10.62
299.728	9.62
300.521	10.62
301.314	8.62
302.107	7.62
302.899	8.62
303.692	8.62
304.485	9.62
305.277	6.62
306.07	6.62
306.862	5.62
307.655	8.62
308.447	5.62
309.239	7.62
310.031	7.62
310.823	5.62
311.615	7.62
312.407	7.62
313.199	5.62
313.991	8.62
314.783	2.62
315.574	4.62
316.366	5.62
317.157	5.62
317.949	5.62
318.74	9.62
319.531	5.62
320.322	4.62
321.113	6.62
321.904	4.62
322.695	5.62
323.486	2.62
324.277	5.62
325.068	4.62
325.858	3.62
326.649	5.62
327.439	3.62
328.23	5.62
329.02	4.62
329.81	2.62
330.6	4.62
331.391	4.62
332.181	5.62
332.971	2.62
333.76	3.62
334.55	2.62
335.34	3.62
336.13	3.62
336.919	4.62
337.709	3.62
338.498	3.62
339.287	6.62
340.077	3.62
340.866	4.62
341.655	1.62
342.444	4.62
343.233	4.62
344.022	2.62
344.811	3.62
345.6	1.62
346.388	1.62
347.177	3.62
347.965	4.62
348.754	3.62
349.542	2.62
350.33	3.62
351.119	0.62
351.907	2.62
352.695	4.62
353.483	2.62
354.271	4.62
355.059	2.62
355.846	3.62
356.634	3.62
357.422	2.62
358.209	6.62
358.997	4.62
359.784	2.62
360.571	3.62
361.359	5.62
362.146	4.62
362.933	1.62
363.72	2.62
364.507	3.62
365.294	3.62
366.081	3.62
366.867	2.62
367.654	2.62
368.44	2.62
369.227	1.62
370.013	2.62
370.8	3.62
371.586	-1.38
372.372	4.62
373.158	2.62
373.944	2.62
374.73	4.62
375.516	2.62
376.302	1.62
377.088	3.62
377.873	2.62
378.659	3.62
379.445	2.62
380.23	3.62
381.015	2.62
381.801	4.62
382.586	1.62
383.371	5.62
384.156	5.62
384.941	2.62
385.726	4.62
386.511	3.62
387.296	1.62
388.08	1.62
388.865	4.62
389.649	3.62
390.434	2.62
391.218	5.62
392.003	1.62
392.787	5.62
393.571	1.62
394.355	5.62
395.139	0.62
395.923	1.62
396.707	4.62
397.491	2.62
398.274	4.62
399.058	3.62
399.842	4.62
400.625	4.62
401.408	2.62
402.192	1.62
402.975	4.62
403.758	5.62
404.541	2.62
405.324	5.62
406.107	4.62
406.89	4.62
407.673	5.62
408.456	4.62
409.238	5.62
410.021	5.62
410.803	5.62
411.586	4.62
412.368	7.62
413.151	3.62
413.933	3.62
414.715	5.62
415.497	3.62
416.279	6.62
417.061	5.62
417.843	4.62
418.624	7.62
419.406	3.62
420.188	5.62
420.969	4.62
421.751	4.62
422.532	5.62
423.313	5.62
424.095	7.62
424.876	4.62
425.657	5.62
426.438	5.62
427.219	3.62
428	5.62
428.78	7.62
429.561	7.62
430.342	9.62
431.122	6.62
431.903	7.62
432.683	7.62
433.464	6.62
434.244	8.62
435.024	11.62
435.804	7.62
436.584	10.62
437.364	9.62
438.144	11.62
438.924	8.62
439.704	10.62
440.483	11.62
441.263	11.62
442.042	12.62
442.822	13.62
443.601	14.62
444.38	13.62
445.16	14.62
445.939	15.62
446.718	17.62
447.497	20.62
448.276	21.62
449.054	25.62
449.833	27.62
450.612	27.62
451.391	28.62
452.169	34.62
452.948	37.62
453.726	38.62
454.504	41.62
455.282	45.62
456.061	49.62
456.839	58.62
457.617	59.62
458.395	68.62
459.172	75.62
459.95	81.62
460.728	94.62
461.506	103.62
462.283	112.62
463.061	131.62
463.838	148.62
464.615	157.62
465.393	176.62
466.17	195.62
466.947	216.62
467.724	239.62
468.501	272.62
469.278	298.62
470.055	319.62
470.831	357.62
471.608	396.62
472.385	447.62
473.161	498.62
473.938	540.62
474.714	599.62
475.49	667.62
476.266	726.62
477.043	803.62
477.819	878.62
478.595	953.62
479.371	1062.62
480.146	1154.62
480.922	1268.62
481.698	1402.62
482.473	1522.62
483.249	1658.62
484.024	1814.62
484.8	1993.62
485.575	2184.62
486.35	2377.62
487.126	2596.62
487.901	2843.62
488.676	3109.62
489.451	3396.62
490.225	3688.62
491	4031.62
491.775	4419.62
492.55	4820.62
493.324	5185.62
494.099	5688.62
494.873	6158.62
495.647	6683.62
496.422	7202.62
497.196	7799.62
497.97	8354.62
498.744	8983.62
499.518	9663.62
500.292	10278.62
501.066	10873.62
501.839	11563.62
502.613	12124.62
503.387	12719.62
504.16	13249.62
504.934	13743.62
505.707	14185.62
506.48	14528.62
507.253	14795.62
508.027	14996.62
508.8	15072.62
509.573	15109.62
510.346	15009.62
511.118	14896.62
511.891	14606.62
512.664	14348.62
513.437	13928.62
514.209	13539.62
514.982	13100.62
515.754	12604.62
516.526	12140.62
517.298	11671.62
518.071	11203.62
518.843	10738.62
519.615	10293.62
520.387	9877.62
521.159	9457.62
521.93	9103.62
522.702	8753.62
523.474	8401.62
524.245	8066.62
525.017	7748.62
525.788	7438.62
526.56	7163.62
527.331	6822.62
528.102	6581.62
528.873	6333.62
529.644	6057.62
530.415	5779.62
531.186	5512.62
531.957	5248.62
532.728	5012.62
533.498	4752.62
534.269	4496.62
535.039	4288.62
535.81	4047.62
536.58	3854.62
537.351	3628.62
538.121	3436.62
538.891	3253.62
539.661	3096.62
540.431	2922.62
541.201	2758.62
541.971	2614.62
542.741	2456.62
543.51	2357.62
544.28	2231.62
545.05	2114.62
545.819	2004.62
546.588	1909.62
547.358	1805.62
548.127	1726.62
548.896	1623.62
549.665	1551.62
550.434	1473.62
551.203	1401.62
551.972	1344.62
552.741	1269.62
553.51	1195.62
554.278	1126.62
555.047	1078.62
555.815	1018.62
556.584	952.62
557.352	903.62
558.121	862.62
558.889	809.62
559.657	766.62
560.425	718.62
561.193	681.62
561.961	645.62
562.729	606.62
563.496	577.62
564.264	543.62
565.032	518.62
565.799	480.62
566.567	455.62
567.334	432.62
568.101	409.62
568.869	382.62
569.636	358.62
570.403	339.62
571.17	324.62
571.937	310.62
572.704	284.62
573.471	268.62
574.237	257.62
575.004	237.62
575.771	226.62
576.537	211.62
577.303	193.62
578.07	186.62
578.836	177.62
579.602	172.62
580.368	160.62
581.134	156.62
581.9	136.62
582.666	130.62
583.432	131.62
584.198	120.62
584.964	114.62
585.729	107.62
586.495	103.62
587.26	95.62
588.025	86.62
588.791	83.62
589.556	77.62
590.321	74.62
591.086	76.62
591.851	64.62
592.616	65.62
593.381	62.62
594.146	59.62
594.911	54.62
595.675	55.62
596.44	49.62
597.204	46.62
597.969	43.62
598.733	45.62
599.497	43.62
600.261	37.62
601.025	35.62
601.79	34.62
602.553	36.62
603.317	33.62
604.081	30.62
604.845	33.62
605.609	30.62
606.372	31.62
607.136	25.62
607.899	24.62
608.662	24.62
609.426	22.62
610.189	25.62
610.952	23.62
611.715	21.62
612.478	21.62
613.241	18.62
614.004	17.62
614.767	16.62
615.529	16.62
616.292	17.62
617.055	17.62
617.817	16.62
618.579	13.62
619.342	14.62
620.104	10.62
620.866	12.62
621.628	12.62
622.39	13.62
623.152	10.62
623.914	12.62
624.676	9.62
625.438	10.62
626.199	9.62
626.961	7.62
627.722	10.62
628.484	10.62
629.245	8.62
630.006	10.62
630.768	8.62
631.529	7.62
632.29	9.62
633.051	8.62
633.812	6.62
634.573	7.62
635.333	8.62
636.094	5.62
636.855	5.62
637.615	6.62
638.376	5.62
639.136	5.62
639.896	5.62
640.657	5.62
641.417	6.62
642.177	3.62
642.937	7.62
643.697	3.62
644.457	4.62
645.216	4.62
645.976	4.62
646.736	5.62
647.495	2.62
648.255	5.62
649.014	5.62
649.774	5.62
650.533	4.62
651.292	5.62
652.051	4.62
652.81	4.62
653.569	4.62
654.328	4.62
655.087	5.62
655.846	3.62
656.604	4.62
657.363	4.62
658.121	3.62
658.88	-0.38
659.638	4.62
660.397	2.62
661.155	4.62
661.913	3.62
662.671	2.62
663.429	2.62
664.187	4.62
664.945	2.62
665.703	2.62
666.46	2.62
667.218	2.62
667.976	1.62
668.733	1.62
669.49	4.62
670.248	3.62
671.005	3.62
671.762	2.62
672.519	5.62
673.276	1.62
674.033	3.62
674.79	1.62
675.547	1.62
676.304	1.62
677.06	2.62
677.817	4.62
678.574	-1.38
679.33	1.62
680.086	2.62
680.843	3.62
681.599	2.62
682.355	2.62
683.111	2.62
683.867	2.62
684.623	1.62
685.379	2.62
686.135	0.62
686.89	0.62
687.646	2.62
688.402	2.62
689.157	2.62
689.912	-0.38
690.668	0.62
691.423	1.62
692.178	2.62
692.933	2.62
693.688	5.62
694.443	0.62
695.198	1.62
695.953	2.62
696.708	3.62
697.462	1.62
698.217	2.62
698.972	1.62
699.726	2.62
700.48	-0.38
701.235	1.62
701.989	3.62
702.743	2.62
703.497	2.62
704.251	1.62
705.005	2.62
705.759	1.62
706.513	2.62
707.266	3.62
708.02	4.62
708.774	4.62
709.527	0.62
710.28	-0.38
711.034	1.62
711.787	0.62
712.54	1.62
713.293	3.62
714.046	1.62
714.799	2.62
715.552	0.62
716.305	-1.38
717.058	2.62
717.81	0.62
718.563	-0.38
719.315	2.62
720.068	1.62
720.82	0.62
721.573	1.62
722.325	1.62
723.077	2.62
723.829	1.62
724.581	1.62
725.333	1.62
726.085	2.62
726.836	-1.38
727.588	2.62
728.34	2.62
729.091	2.62
729.843	0.62
730.594	0.62
731.346	1.62
732.097	1.62
732.848	2.62
733.599	1.62
734.35	3.62
735.101	2.62
735.852	0.62
736.603	3.62
737.354	2.62
738.104	3.62
738.855	0.62
739.605	3.62
740.356	3.62
741.106	2.62
741.856	2.62
742.607	3.62
743.357	4.62
744.107	1.62
744.857	2.62
745.607	0.62
746.357	0.62
747.106	1.62
747.856	1.62
748.606	2.62
749.355	0.62
750.105	1.62
750.854	0.62
751.603	0.62
752.353	4.62
753.102	0.62
753.851	5.62
754.6	1.62
755.349	0.62
756.098	2.62
756.847	2.62
757.595	3.62
758.344	1.62
759.093	1.62
759.841	0.62
760.589	-0.38
761.338	3.62
762.086	1.62
762.834	2.62
763.582	1.62
764.331	2.62
765.079	2.62
765.826	1.62
766.574	3.62
767.322	2.62
768.07	2.62
768.817	5.62
769.565	4.62
770.312	4.62
771.06	3.62
771.807	2.62
772.554	4.62
773.302	4.62
774.049	3.62
774.796	3.62
775.543	4.62
776.29	3.62
777.036	2.62
777.783	4.62
778.53	4.62
779.276	4.62
780.023	5.62
780.769	4.62
781.516	3.62
782.262	5.62
783.008	5.62
783.754	6.62
784.5	2.62
785.246	4.62
785.992	4.62
786.738	4.62
787.484	3.62
788.23	4.62
788.975	7.62
789.721	6.62
790.466	6.62
791.212	3.62
791.957	3.62
792.702	5.62
793.447	5.62
794.193	3.62
794.938	5.62
795.683	5.62
796.427	4.62
797.172	3.62
797.917	4.62
798.662	4.62
799.406	2.62
800.151	3.62
800.895	4.62
801.64	3.62
802.384	4.62
803.128	2.62
803.872	5.62
804.616	2.62
805.36	4.62
806.104	3.62
806.848	5.62
807.592	1.62
808.336	5.62
809.079	2.62
809.823	4.62
810.566	3.62
811.31	5.62
812.053	3.62
812.796	2.62
813.539	4.62
814.283	1.62
815.026	2.62
815.769	5.62
816.511	3.62
817.254	2.62
817.997	2.62
818.74	2.62
819.482	3.62
820.225	2.62
820.967	2.62
821.71	3.62
822.452	1.62
823.194	1.62
823.936	3.62
824.678	2.62
825.42	5.62
826.162	3.62
826.904	2.62
827.646	2.62
828.388	2.62
829.129	6.62
829.871	3.62
830.612	2.62
831.354	3.62
832.095	3.62
832.836	1.62
833.577	1.62
834.319	1.62
835.06	1.62
835.801	2.62
836.542	1.62
837.282	5.62
838.023	2.62
838.764	-0.38
839.504	1.62
840.245	1.62
840.985	2.62
841.726	3.62
842.466	2.62
843.206	1.62
843.946	1.62
844.687	1.62
845.427	2.62
846.166	2.62
846.906	1.62
847.646	2.62
848.386	1.62
849.125	2.62
849.865	2.62
850.605	1.62
851.344	2.62
852.083	0.62
852.823	4.62
853.562	0.62
854.301	0.62
855.04	0.62
855.779	1.62
856.518	0.62
857.257	1.62
857.995	1.62
858.734	2.62
859.473	0.62
860.211	3.62
860.95	0.62
861.688	2.62
862.426	2.62
863.165	2.62
863.903	2.62
864.641	3.62
865.379	0.62
866.117	-0.38
866.855	1.62
867.593	1.62
868.33	1.62
869.068	-1.38
869.806	0.62
870.543	0.62
871.28	1.62
872.018	2.62
872.755	1.62
873.492	0.62
874.229	-0.38
874.967	0.62
875.703	-1.38
876.44	0.62
877.177	1.62
877.914	1.62
878.651	0.62
879.387	2.62
880.124	-1.38
880.86	3.62
881.597	-0.38
882.333	2.62
883.069	1.62
883.806	-1.38
884.542	0.62
885.278	-1.38
886.014	1.62
886.749	-0.38
887.485	0.62
888.221	0.62
888.957	-0.38
889.692	0.62
890.428	-1.38
891.163	2.62
891.899	0.62
892.634	2.62
893.369	0.62
894.104	0.62
894.839	2.62
895.574	-0.38
896.309	-0.38
897.044	1.62
897.779	-0.38
898.514	-0.38
899.248	0.62
899.983	1.62
900.717	-0.38
901.452	1.62
902.186	0.62
902.92	0.62
903.654	0.62
904.389	0.62
905.123	2.62
905.857	2.62
906.59	1.62
907.324	-0.38
908.058	3.62
908.792	0.62
909.525	-0.38
910.259	2.62
910.992	-1.38
911.726	0.62
912.459	1.62
913.192	1.62
913.925	0.62
914.658	-1.38
915.391	-2.38
916.124	-0.38
916.857	1.62
917.59	1.62
918.323	-0.38
919.055	2.62
919.788	-0.38
920.521	-0.38
921.253	-1.38
921.985	0.62
922.718	2.62
923.45	1.62
924.182	1.62
924.914	-1.38
925.646	-1.38
926.378	0.62
927.11	-1.38
927.841	0.62
928.573	1.62
929.305	-0.38
930.036	-1.38
930.768	0.62
931.499	-1.38
932.23	-0.38
932.962	0.62
933.693	0.62
934.424	0.62
935.155	-1.38
935.886	1.62
936.617	0.62
937.348	0.62
938.078	0.62
938.809	-0.38
939.54	0.62
940.27	-1.38
941.001	1.62
941.731	-0.38
942.461	1.62
943.191	3.62
943.922	0.62
944.652	-0.38
945.382	0.62
946.112	0.62
946.841	1.62
947.571	0.62
948.301	-0.38
949.031	-1.38
949.76	0.62
950.49	-1.38
951.219	0.62
951.948	1.62
952.678	-0.38
953.407	-0.38
954.136	-0.38
954.865	1.62
955.594	1.62
956.323	-1.38
957.052	-1.38
957.78	0.62
958.509	-1.38
959.238	-1.38
959.966	-0.38
960.695	0.62
961.423	1.62
962.151	0.62
962.88	-1.38
963.608	1.62
964.336	0.62
965.064	0.62
965.792	0.62
966.52	1.62
967.247	-1.38
967.975	0.62
968.703	2.62
969.43	0.62
970.158	-1.38
970.885	0.62
971.613	0.62
972.34	-1.38
973.067	0.62
973.794	-0.38
974.521	-1.38
975.248	-0.38
975.975	-1.38
976.702	-0.38
977.429	1.62
978.156	-0.38
978.882	-1.38
979.609	-0.38
980.335	-1.38
981.062	-1.38
981.788	0.62
982.514	-0.38
983.24	-1.38
983.967	1.62
984.693	-0.38
985.419	1.62
986.144	0.62
986.87	-0.38
987.596	-1.38
988.322	-0.38
989.047	-0.38
989.773	-1.38
990.498	1.62
991.224	-0.38
991.949	-0.38
992.674	1.62
993.399	0.62
994.124	0.62
994.849	0.62
995.574	0.62
996.299	-1.38
997.024	1.62
997.749	-1.38
998.473	0.62
999.198	-0.38
999.922	0.62
1000.647	-0.38
1001.371	0.62
1002.095	-0.38
1002.82	-1.38
1003.544	-1.38
1004.268	0.62
1004.992	0.62
1005.716	-1.38
1006.439	-0.38
1007.163	-1.38
1007.887	-1.38
1008.611	-1.38
1009.334	1.62
1010.058	-1.38
1010.781	-0.38
1011.504	0.62
1012.228	-1.38
1012.951	0.62
1013.674	0.62
1014.397	-0.38
1015.12	1.62
