节点500_145_QEPB04081__502__11-36-57-480.txt的数据

Date: Wed Nov 12 11:36:57 CST 2025
User: PC
Spectrometer: QEPB0408
触发模式: 0
积分时间 (秒): 1.000000E-2
Scans to average: 1
启用暗噪声校正: true
启用非线性校正: false
滑动平均宽度: 0
X轴模式: Wavelengths
Number of Pixels in Spectrum: 1044
>>>>>Begin Spectral Data<<<<<
220.843	-0.88
221.644	-2.88
222.444	2.12
223.244	1.12
224.045	3.12
224.845	0.12
225.645	1.12
226.445	1.12
227.245	-0.88
228.045	0.12
228.845	1.12
229.645	2.12
230.444	1.12
231.244	1.12
232.043	1.12
232.843	1.12
233.642	3.12
234.442	4.12
235.241	1.12
236.04	-0.88
236.839	1.12
237.638	4.12
238.437	1.12
239.236	2.12
240.035	-0.88
240.833	1.12
241.632	0.12
242.43	2.12
243.229	1.12
244.027	4.12
244.826	3.12
245.624	3.12
246.422	4.12
247.22	2.12
248.018	2.12
248.816	3.12
249.614	3.12
250.412	4.12
251.21	2.12
252.007	4.12
252.805	6.12
253.602	4.12
254.4	2.12
255.197	4.12
255.994	4.12
256.791	4.12
257.589	4.12
258.386	6.12
259.183	4.12
259.979	4.12
260.776	5.12
261.573	4.12
262.37	2.12
263.166	8.12
263.963	5.12
264.759	3.12
265.556	8.12
266.352	4.12
267.148	10.12
267.944	6.12
268.74	4.12
269.536	8.12
270.332	3.12
271.128	8.12
271.924	6.12
272.719	10.12
273.515	6.12
274.311	10.12
275.106	7.12
275.901	11.12
276.697	10.12
277.492	6.12
278.287	9.12
279.082	8.12
279.877	8.12
280.672	11.12
281.467	9.12
282.262	8.12
283.056	10.12
283.851	12.12
284.646	14.12
285.44	11.12
286.234	11.12
287.029	13.12
287.823	11.12
288.617	11.12
289.411	12.12
290.205	10.12
290.999	13.12
291.793	9.12
292.587	10.12
293.381	10.12
294.174	10.12
294.968	9.12
295.761	10.12
296.555	10.12
297.348	9.12
298.141	8.12
298.935	10.12
299.728	10.12
300.521	10.12
301.314	9.12
302.107	8.12
302.899	11.12
303.692	8.12
304.485	9.12
305.277	10.12
306.07	8.12
306.862	7.12
307.655	8.12
308.447	8.12
309.239	7.12
310.031	10.12
310.823	6.12
311.615	8.12
312.407	5.12
313.199	6.12
313.991	8.12
314.783	6.12
315.574	7.12
316.366	6.12
317.157	6.12
317.949	5.12
318.74	5.12
319.531	6.12
320.322	6.12
321.113	8.12
321.904	6.12
322.695	8.12
323.486	6.12
324.277	5.12
325.068	5.12
325.858	4.12
326.649	6.12
327.439	5.12
328.23	4.12
329.02	7.12
329.81	3.12
330.6	4.12
331.391	4.12
332.181	2.12
332.971	5.12
333.76	5.12
334.55	2.12
335.34	4.12
336.13	5.12
336.919	4.12
337.709	5.12
338.498	6.12
339.287	4.12
340.077	5.12
340.866	3.12
341.655	5.12
342.444	4.12
343.233	4.12
344.022	3.12
344.811	3.12
345.6	3.12
346.388	4.12
347.177	5.12
347.965	3.12
348.754	2.12
349.542	4.12
350.33	2.12
351.119	5.12
351.907	4.12
352.695	3.12
353.483	3.12
354.271	4.12
355.059	4.12
355.846	6.12
356.634	5.12
357.422	3.12
358.209	4.12
358.997	2.12
359.784	5.12
360.571	4.12
361.359	2.12
362.146	3.12
362.933	4.12
363.72	6.12
364.507	4.12
365.294	2.12
366.081	3.12
366.867	3.12
367.654	2.12
368.44	3.12
369.227	4.12
370.013	3.12
370.8	4.12
371.586	2.12
372.372	2.12
373.158	4.12
373.944	3.12
374.73	5.12
375.516	2.12
376.302	3.12
377.088	3.12
377.873	1.12
378.659	6.12
379.445	3.12
380.23	3.12
381.015	4.12
381.801	3.12
382.586	6.12
383.371	2.12
384.156	4.12
384.941	3.12
385.726	3.12
386.511	3.12
387.296	3.12
388.08	4.12
388.865	4.12
389.649	6.12
390.434	3.12
391.218	2.12
392.003	2.12
392.787	2.12
393.571	4.12
394.355	2.12
395.139	2.12
395.923	4.12
396.707	5.12
397.491	4.12
398.274	4.12
399.058	4.12
399.842	3.12
400.625	4.12
401.408	7.12
402.192	2.12
402.975	4.12
403.758	2.12
404.541	3.12
405.324	3.12
406.107	5.12
406.89	6.12
407.673	5.12
408.456	6.12
409.238	3.12
410.021	6.12
410.803	5.12
411.586	7.12
412.368	4.12
413.151	5.12
413.933	4.12
414.715	4.12
415.497	8.12
416.279	5.12
417.061	4.12
417.843	5.12
418.624	6.12
419.406	6.12
420.188	5.12
420.969	5.12
421.751	5.12
422.532	4.12
423.313	6.12
424.095	6.12
424.876	5.12
425.657	7.12
426.438	7.12
427.219	6.12
428	7.12
428.78	8.12
429.561	8.12
430.342	7.12
431.122	10.12
431.903	7.12
432.683	8.12
433.464	10.12
434.244	9.12
435.024	10.12
435.804	9.12
436.584	9.12
437.364	11.12
438.144	10.12
438.924	13.12
439.704	12.12
440.483	13.12
441.263	14.12
442.042	14.12
442.822	15.12
443.601	14.12
444.38	16.12
445.16	18.12
445.939	18.12
446.718	18.12
447.497	20.12
448.276	21.12
449.054	20.12
449.833	27.12
450.612	27.12
451.391	27.12
452.169	31.12
452.948	31.12
453.726	40.12
454.504	42.12
455.282	45.12
456.061	49.12
456.839	51.12
457.617	59.12
458.395	61.12
459.172	73.12
459.95	76.12
460.728	89.12
461.506	102.12
462.283	108.12
463.061	119.12
463.838	135.12
464.615	152.12
465.393	166.12
466.17	186.12
466.947	201.12
467.724	233.12
468.501	257.12
469.278	287.12
470.055	312.12
470.831	351.12
471.608	381.12
472.385	430.12
473.161	479.12
473.938	528.12
474.714	582.12
475.49	647.12
476.266	710.12
477.043	786.12
477.819	875.12
478.595	961.12
479.371	1055.12
480.146	1163.12
480.922	1270.12
481.698	1408.12
482.473	1546.12
483.249	1696.12
484.024	1848.12
484.8	2034.12
485.575	2234.12
486.35	2446.12
487.126	2700.12
487.901	2931.12
488.676	3236.12
489.451	3552.12
490.225	3866.12
491	4243.12
491.775	4615.12
492.55	5073.12
493.324	5526.12
494.099	6012.12
494.873	6539.12
495.647	7123.12
496.422	7700.12
497.196	8379.12
497.97	8972.12
498.744	9685.12
499.518	10373.12
500.292	11063.12
501.066	11748.12
501.839	12411.12
502.613	13011.12
503.387	13666.12
504.16	14180.12
504.934	14698.12
505.707	15027.12
506.48	15381.12
507.253	15622.12
508.027	15719.12
508.8	15814.12
509.573	15717.12
510.346	15550.12
511.118	15327.12
511.891	15003.12
512.664	14579.12
513.437	14211.12
514.209	13681.12
514.982	13245.12
515.754	12749.12
516.526	12199.12
517.298	11669.12
518.071	11221.12
518.843	10703.12
519.615	10277.12
520.387	9830.12
521.159	9446.12
521.93	9087.12
522.702	8666.12
523.474	8390.12
524.245	8045.12
525.017	7703.12
525.788	7427.12
526.56	7137.12
527.331	6828.12
528.102	6554.12
528.873	6268.12
529.644	5991.12
530.415	5722.12
531.186	5446.12
531.957	5207.12
532.728	4952.12
533.498	4678.12
534.269	4415.12
535.039	4215.12
535.81	3968.12
536.58	3762.12
537.351	3563.12
538.121	3339.12
538.891	3197.12
539.661	2999.12
540.431	2818.12
541.201	2695.12
541.971	2571.12
542.741	2395.12
543.51	2278.12
544.28	2166.12
545.05	2059.12
545.819	1971.12
546.588	1854.12
547.358	1768.12
548.127	1685.12
548.896	1602.12
549.665	1533.12
550.434	1468.12
551.203	1352.12
551.972	1293.12
552.741	1232.12
553.51	1181.12
554.278	1108.12
555.047	1041.12
555.815	990.12
556.584	932.12
557.352	877.12
558.121	827.12
558.889	780.12
559.657	740.12
560.425	692.12
561.193	655.12
561.961	621.12
562.729	589.12
563.496	561.12
564.264	526.12
565.032	492.12
565.799	463.12
566.567	436.12
567.334	411.12
568.101	387.12
568.869	366.12
569.636	357.12
570.403	335.12
571.17	310.12
571.937	288.12
572.704	278.12
573.471	255.12
574.237	245.12
575.004	228.12
575.771	215.12
576.537	210.12
577.303	192.12
578.07	178.12
578.836	174.12
579.602	164.12
580.368	155.12
581.134	147.12
581.9	135.12
582.666	133.12
583.432	122.12
584.198	114.12
584.964	107.12
585.729	104.12
586.495	95.12
587.26	95.12
588.025	87.12
588.791	82.12
589.556	81.12
590.321	73.12
591.086	73.12
591.851	72.12
592.616	65.12
593.381	61.12
594.146	53.12
594.911	55.12
595.675	53.12
596.44	51.12
597.204	48.12
597.969	47.12
598.733	42.12
599.497	42.12
600.261	37.12
601.025	39.12
601.79	37.12
602.553	33.12
603.317	33.12
604.081	32.12
604.845	27.12
605.609	30.12
606.372	30.12
607.136	23.12
607.899	27.12
608.662	27.12
609.426	23.12
610.189	23.12
610.952	20.12
611.715	22.12
612.478	19.12
613.241	19.12
614.004	18.12
614.767	19.12
615.529	15.12
616.292	19.12
617.055	16.12
617.817	15.12
618.579	16.12
619.342	15.12
620.104	14.12
620.866	13.12
621.628	11.12
622.39	12.12
623.152	14.12
623.914	12.12
624.676	12.12
625.438	11.12
626.199	9.12
626.961	9.12
627.722	8.12
628.484	8.12
629.245	11.12
630.006	12.12
630.768	10.12
631.529	9.12
632.29	8.12
633.051	8.12
633.812	7.12
634.573	9.12
635.333	10.12
636.094	4.12
636.855	6.12
637.615	7.12
638.376	8.12
639.136	6.12
639.896	6.12
640.657	6.12
641.417	10.12
642.177	5.12
642.937	5.12
643.697	8.12
644.457	5.12
645.216	7.12
645.976	5.12
646.736	4.12
647.495	6.12
648.255	3.12
649.014	6.12
649.774	5.12
650.533	4.12
651.292	3.12
652.051	5.12
652.81	5.12
653.569	6.12
654.328	5.12
655.087	4.12
655.846	5.12
656.604	4.12
657.363	4.12
658.121	4.12
658.88	2.12
659.638	4.12
660.397	3.12
661.155	4.12
661.913	4.12
662.671	4.12
663.429	7.12
664.187	5.12
664.945	4.12
665.703	4.12
666.46	3.12
667.218	4.12
667.976	4.12
668.733	5.12
669.49	4.12
670.248	3.12
671.005	4.12
671.762	1.12
672.519	3.12
673.276	3.12
674.033	2.12
674.79	3.12
675.547	3.12
676.304	5.12
677.06	3.12
677.817	4.12
678.574	4.12
679.33	3.12
680.086	2.12
680.843	4.12
681.599	0.12
682.355	6.12
683.111	3.12
683.867	5.12
684.623	2.12
685.379	1.12
686.135	4.12
686.89	3.12
687.646	3.12
688.402	1.12
689.157	2.12
689.912	4.12
690.668	2.12
691.423	4.12
692.178	2.12
692.933	2.12
693.688	3.12
694.443	2.12
695.198	3.12
695.953	1.12
696.708	2.12
697.462	5.12
698.217	3.12
698.972	2.12
699.726	3.12
700.48	3.12
701.235	2.12
701.989	3.12
702.743	3.12
703.497	4.12
704.251	2.12
705.005	3.12
705.759	4.12
706.513	1.12
707.266	3.12
708.02	2.12
708.774	4.12
709.527	1.12
710.28	4.12
711.034	2.12
711.787	1.12
712.54	3.12
713.293	2.12
714.046	3.12
714.799	2.12
715.552	2.12
716.305	3.12
717.058	5.12
717.81	2.12
718.563	2.12
719.315	4.12
720.068	1.12
720.82	3.12
721.573	2.12
722.325	1.12
723.077	4.12
723.829	4.12
724.581	2.12
725.333	2.12
726.085	2.12
726.836	3.12
727.588	3.12
728.34	4.12
729.091	4.12
729.843	2.12
730.594	3.12
731.346	4.12
732.097	0.12
732.848	4.12
733.599	3.12
734.35	1.12
735.101	1.12
735.852	3.12
736.603	2.12
737.354	-0.88
738.104	3.12
738.855	3.12
739.605	3.12
740.356	2.12
741.106	4.12
741.856	1.12
742.607	6.12
743.357	4.12
744.107	3.12
744.857	2.12
745.607	4.12
746.357	2.12
747.106	1.12
747.856	2.12
748.606	4.12
749.355	2.12
750.105	3.12
750.854	3.12
751.603	3.12
752.353	3.12
753.102	3.12
753.851	4.12
754.6	4.12
755.349	2.12
756.098	2.12
756.847	4.12
757.595	2.12
758.344	4.12
759.093	4.12
759.841	2.12
760.589	3.12
761.338	4.12
762.086	3.12
762.834	4.12
763.582	6.12
764.331	4.12
765.079	2.12
765.826	3.12
766.574	3.12
767.322	4.12
768.07	3.12
768.817	5.12
769.565	5.12
770.312	2.12
771.06	4.12
771.807	3.12
772.554	6.12
773.302	4.12
774.049	4.12
774.796	3.12
775.543	5.12
776.29	7.12
777.036	6.12
777.783	5.12
778.53	5.12
779.276	4.12
780.023	5.12
780.769	6.12
781.516	5.12
782.262	5.12
783.008	6.12
783.754	4.12
784.5	6.12
785.246	8.12
785.992	5.12
786.738	5.12
787.484	6.12
788.23	7.12
788.975	6.12
789.721	6.12
790.466	5.12
791.212	6.12
791.957	5.12
792.702	5.12
793.447	7.12
794.193	3.12
794.938	6.12
795.683	7.12
796.427	7.12
797.172	6.12
797.917	5.12
798.662	5.12
799.406	5.12
800.151	8.12
800.895	6.12
801.64	4.12
802.384	5.12
803.128	3.12
803.872	7.12
804.616	5.12
805.36	6.12
806.104	5.12
806.848	3.12
807.592	5.12
808.336	5.12
809.079	5.12
809.823	4.12
810.566	4.12
811.31	5.12
812.053	3.12
812.796	4.12
813.539	4.12
814.283	4.12
815.026	3.12
815.769	4.12
816.511	4.12
817.254	4.12
817.997	6.12
818.74	3.12
819.482	4.12
820.225	5.12
820.967	3.12
821.71	3.12
822.452	4.12
823.194	4.12
823.936	3.12
824.678	2.12
825.42	4.12
826.162	5.12
826.904	4.12
827.646	3.12
828.388	3.12
829.129	2.12
829.871	4.12
830.612	2.12
831.354	3.12
832.095	4.12
832.836	3.12
833.577	4.12
834.319	2.12
835.06	5.12
835.801	2.12
836.542	4.12
837.282	5.12
838.023	5.12
838.764	5.12
839.504	3.12
840.245	4.12
840.985	6.12
841.726	2.12
842.466	4.12
843.206	2.12
843.946	3.12
844.687	1.12
845.427	1.12
846.166	4.12
846.906	2.12
847.646	1.12
848.386	4.12
849.125	3.12
849.865	2.12
850.605	2.12
851.344	3.12
852.083	4.12
852.823	5.12
853.562	2.12
854.301	4.12
855.04	2.12
855.779	2.12
856.518	3.12
857.257	3.12
857.995	4.12
858.734	1.12
859.473	2.12
860.211	1.12
860.95	3.12
861.688	2.12
862.426	3.12
863.165	2.12
863.903	1.12
864.641	2.12
865.379	2.12
866.117	2.12
866.855	2.12
867.593	0.12
868.33	1.12
869.068	2.12
869.806	2.12
870.543	1.12
871.28	2.12
872.018	2.12
872.755	0.12
873.492	1.12
874.229	2.12
874.967	2.12
875.703	2.12
876.44	1.12
877.177	3.12
877.914	2.12
878.651	0.12
879.387	3.12
880.124	2.12
880.86	2.12
881.597	2.12
882.333	3.12
883.069	1.12
883.806	2.12
884.542	2.12
885.278	0.12
886.014	3.12
886.749	0.12
887.485	1.12
888.221	1.12
888.957	4.12
889.692	2.12
890.428	1.12
891.163	0.12
891.899	-0.88
892.634	0.12
893.369	-0.88
894.104	2.12
894.839	0.12
895.574	2.12
896.309	1.12
897.044	2.12
897.779	3.12
898.514	1.12
899.248	2.12
899.983	0.12
900.717	3.12
901.452	-0.88
902.186	1.12
902.92	0.12
903.654	0.12
904.389	1.12
905.123	2.12
905.857	1.12
906.59	2.12
907.324	0.12
908.058	3.12
908.792	1.12
909.525	-0.88
910.259	1.12
910.992	1.12
911.726	1.12
912.459	-0.88
913.192	0.12
913.925	0.12
914.658	0.12
915.391	-0.88
916.124	0.12
916.857	2.12
917.59	-0.88
918.323	2.12
919.055	1.12
919.788	-0.88
920.521	2.12
921.253	2.12
921.985	-0.88
922.718	0.12
923.45	0.12
924.182	2.12
924.914	1.12
925.646	1.12
926.378	1.12
927.11	0.12
927.841	-1.88
928.573	0.12
929.305	2.12
930.036	1.12
930.768	2.12
931.499	1.12
932.23	1.12
932.962	1.12
933.693	0.12
934.424	-0.88
935.155	2.12
935.886	2.12
936.617	1.12
937.348	1.12
938.078	1.12
938.809	1.12
939.54	1.12
940.27	1.12
941.001	1.12
941.731	0.12
942.461	1.12
943.191	-0.88
943.922	3.12
944.652	1.12
945.382	2.12
946.112	2.12
946.841	-0.88
947.571	1.12
948.301	-2.88
949.031	3.12
949.76	1.12
950.49	1.12
951.219	0.12
951.948	0.12
952.678	2.12
953.407	1.12
954.136	1.12
954.865	2.12
955.594	1.12
956.323	1.12
957.052	-0.88
957.78	4.12
958.509	1.12
959.238	2.12
959.966	-0.88
960.695	2.12
961.423	-0.88
962.151	1.12
962.88	1.12
963.608	0.12
964.336	0.12
965.064	3.12
965.792	3.12
966.52	1.12
967.247	0.12
967.975	-1.88
968.703	2.12
969.43	1.12
970.158	0.12
970.885	1.12
971.613	-0.88
972.34	-0.88
973.067	2.12
973.794	0.12
974.521	1.12
975.248	3.12
975.975	-0.88
976.702	0.12
977.429	0.12
978.156	-0.88
978.882	2.12
979.609	1.12
980.335	3.12
981.062	-1.88
981.788	1.12
982.514	-0.88
983.24	-0.88
983.967	1.12
984.693	-0.88
985.419	2.12
986.144	0.12
986.87	0.12
987.596	1.12
988.322	0.12
989.047	0.12
989.773	2.12
990.498	1.12
991.224	1.12
991.949	2.12
992.674	-1.88
993.399	2.12
994.124	-0.88
994.849	1.12
995.574	2.12
996.299	3.12
997.024	2.12
997.749	2.12
998.473	2.12
999.198	-0.88
999.922	1.12
1000.647	1.12
1001.371	4.12
1002.095	-1.88
1002.82	-0.88
1003.544	-0.88
1004.268	1.12
1004.992	0.12
1005.716	0.12
1006.439	2.12
1007.163	1.12
1007.887	2.12
1008.611	1.12
1009.334	3.12
1010.058	-4.88
1010.781	1.12
1011.504	2.12
1012.228	2.12
1012.951	2.12
1013.674	-0.88
1014.397	-0.88
1015.12	-0.88
