节点500_145_QEPB04081__225__11-32-34-500.txt的数据

Date: Wed Nov 12 11:32:34 CST 2025
User: PC
Spectrometer: QEPB0408
触发模式: 0
积分时间 (秒): 1.000000E-2
Scans to average: 1
启用暗噪声校正: true
启用非线性校正: false
滑动平均宽度: 0
X轴模式: Wavelengths
Number of Pixels in Spectrum: 1044
>>>>>Begin Spectral Data<<<<<
220.843	-1
221.644	-2
222.444	-1
223.244	-1
224.045	1
224.845	1
225.645	-1
226.445	-2
227.245	-2
228.045	0
228.845	1
229.645	0
230.444	-2
231.244	1
232.043	1
232.843	0
233.642	0
234.442	-2
235.241	-2
236.04	2
236.839	0
237.638	0
238.437	1
239.236	2
240.035	2
240.833	2
241.632	0
242.43	2
243.229	2
244.027	2
244.826	2
245.624	-1
246.422	3
247.22	1
248.018	3
248.816	2
249.614	3
250.412	5
251.21	2
252.007	1
252.805	2
253.602	1
254.4	1
255.197	1
255.994	4
256.791	1
257.589	4
258.386	2
259.183	3
259.979	5
260.776	4
261.573	4
262.37	4
263.166	5
263.963	6
264.759	4
265.556	4
266.352	7
267.148	7
267.944	5
268.74	7
269.536	5
270.332	7
271.128	8
271.924	7
272.719	10
273.515	8
274.311	8
275.106	10
275.901	6
276.697	9
277.492	9
278.287	8
279.082	9
279.877	14
280.672	10
281.467	10
282.262	10
283.056	8
283.851	9
284.646	10
285.44	10
286.234	10
287.029	10
287.823	9
288.617	11
289.411	12
290.205	10
290.999	11
291.793	10
292.587	9
293.381	12
294.174	9
294.968	11
295.761	8
296.555	9
297.348	10
298.141	7
298.935	9
299.728	9
300.521	12
301.314	9
302.107	9
302.899	8
303.692	7
304.485	10
305.277	9
306.07	8
306.862	7
307.655	10
308.447	6
309.239	7
310.031	10
310.823	5
311.615	8
312.407	6
313.199	4
313.991	5
314.783	5
315.574	6
316.366	7
317.157	5
317.949	5
318.74	5
319.531	4
320.322	2
321.113	5
321.904	4
322.695	5
323.486	6
324.277	5
325.068	4
325.858	5
326.649	5
327.439	2
328.23	3
329.02	6
329.81	3
330.6	5
331.391	1
332.181	3
332.971	2
333.76	4
334.55	5
335.34	1
336.13	3
336.919	4
337.709	2
338.498	5
339.287	3
340.077	3
340.866	2
341.655	2
342.444	3
343.233	4
344.022	3
344.811	1
345.6	4
346.388	3
347.177	1
347.965	3
348.754	3
349.542	3
350.33	2
351.119	3
351.907	2
352.695	3
353.483	0
354.271	1
355.059	3
355.846	2
356.634	3
357.422	1
358.209	3
358.997	3
359.784	2
360.571	1
361.359	2
362.146	4
362.933	3
363.72	2
364.507	5
365.294	1
366.081	5
366.867	2
367.654	3
368.44	2
369.227	2
370.013	3
370.8	2
371.586	5
372.372	2
373.158	3
373.944	3
374.73	1
375.516	3
376.302	1
377.088	2
377.873	1
378.659	2
379.445	2
380.23	1
381.015	3
381.801	2
382.586	4
383.371	1
384.156	2
384.941	5
385.726	2
386.511	3
387.296	1
388.08	4
388.865	1
389.649	3
390.434	2
391.218	2
392.003	2
392.787	1
393.571	5
394.355	4
395.139	4
395.923	2
396.707	5
397.491	4
398.274	3
399.058	4
399.842	2
400.625	2
401.408	2
402.192	4
402.975	6
403.758	3
404.541	2
405.324	2
406.107	4
406.89	3
407.673	5
408.456	2
409.238	4
410.021	3
410.803	4
411.586	6
412.368	4
413.151	3
413.933	5
414.715	2
415.497	3
416.279	6
417.061	5
417.843	4
418.624	5
419.406	4
420.188	4
420.969	7
421.751	3
422.532	4
423.313	6
424.095	4
424.876	7
425.657	7
426.438	5
427.219	5
428	7
428.78	7
429.561	9
430.342	9
431.122	5
431.903	9
432.683	5
433.464	8
434.244	8
435.024	7
435.804	8
436.584	9
437.364	10
438.144	11
438.924	9
439.704	12
440.483	10
441.263	15
442.042	10
442.822	12
443.601	11
444.38	17
445.16	15
445.939	17
446.718	17
447.497	18
448.276	20
449.054	23
449.833	20
450.612	24
451.391	25
452.169	30
452.948	26
453.726	31
454.504	39
455.282	42
456.061	42
456.839	50
457.617	55
458.395	59
459.172	62
459.95	72
460.728	80
461.506	90
462.283	97
463.061	106
463.838	119
464.615	136
465.393	151
466.17	168
466.947	185
467.724	211
468.501	236
469.278	260
470.055	291
470.831	327
471.608	363
472.385	399
473.161	450
473.938	500
474.714	557
475.49	622
476.266	691
477.043	772
477.819	843
478.595	930
479.371	1042
480.146	1130
480.922	1265
481.698	1423
482.473	1553
483.249	1696
484.024	1896
484.8	2095
485.575	2299
486.35	2540
487.126	2828
487.901	3098
488.676	3419
489.451	3757
490.225	4123
491	4570
491.775	5047
492.55	5525
493.324	6084
494.099	6664
494.873	7275
495.647	7914
496.422	8592
497.196	9272
497.97	10004
498.744	10835
499.518	11634
500.292	12353
501.066	13066
501.839	13713
502.613	14494
503.387	15088
504.16	15614
504.934	16078
505.707	16415
506.48	16653
507.253	16795
508.027	16877
508.8	16770
509.573	16562
510.346	16310
511.118	15887
511.891	15467
512.664	14996
513.437	14442
514.209	13846
514.982	13307
515.754	12785
516.526	12217
517.298	11654
518.071	11079
518.843	10637
519.615	10196
520.387	9775
521.159	9350
521.93	8977
522.702	8624
523.474	8284
524.245	7974
525.017	7645
525.788	7327
526.56	7007
527.331	6722
528.102	6437
528.873	6166
529.644	5853
530.415	5608
531.186	5315
531.957	5058
532.728	4790
533.498	4531
534.269	4273
535.039	4058
535.81	3816
536.58	3612
537.351	3418
538.121	3244
538.891	3049
539.661	2860
540.431	2721
541.201	2577
541.971	2429
542.741	2329
543.51	2203
544.28	2071
545.05	1979
545.819	1865
546.588	1798
547.358	1690
548.127	1615
548.896	1535
549.665	1458
550.434	1390
551.203	1307
551.972	1250
552.741	1176
553.51	1108
554.278	1048
555.047	981
555.815	934
556.584	883
557.352	831
558.121	788
558.889	741
559.657	694
560.425	657
561.193	608
561.961	581
562.729	548
563.496	525
564.264	477
565.032	459
565.799	428
566.567	405
567.334	392
568.101	374
568.869	344
569.636	326
570.403	313
571.17	292
571.937	278
572.704	264
573.471	246
574.237	230
575.004	221
575.771	206
576.537	192
577.303	180
578.07	172
578.836	158
579.602	149
580.368	139
581.134	130
581.9	129
582.666	119
583.432	117
584.198	109
584.964	101
585.729	95
586.495	92
587.26	85
588.025	81
588.791	77
589.556	75
590.321	69
591.086	62
591.851	66
592.616	58
593.381	57
594.146	54
594.911	49
595.675	46
596.44	48
597.204	45
597.969	39
598.733	38
599.497	38
600.261	36
601.025	35
601.79	32
602.553	33
603.317	31
604.081	29
604.845	27
605.609	25
606.372	28
607.136	25
607.899	22
608.662	22
609.426	22
610.189	18
610.952	20
611.715	20
612.478	18
613.241	19
614.004	17
614.767	14
615.529	15
616.292	17
617.055	17
617.817	12
618.579	13
619.342	11
620.104	11
620.866	10
621.628	9
622.39	8
623.152	9
623.914	11
624.676	12
625.438	8
626.199	10
626.961	7
627.722	11
628.484	9
629.245	9
630.006	10
630.768	9
631.529	6
632.29	7
633.051	8
633.812	3
634.573	6
635.333	8
636.094	5
636.855	7
637.615	4
638.376	4
639.136	6
639.896	5
640.657	5
641.417	5
642.177	6
642.937	5
643.697	6
644.457	3
645.216	5
645.976	5
646.736	4
647.495	4
648.255	3
649.014	5
649.774	3
650.533	5
651.292	4
652.051	5
652.81	5
653.569	4
654.328	1
655.087	2
655.846	2
656.604	4
657.363	3
658.121	4
658.88	3
659.638	2
660.397	5
661.155	5
661.913	5
662.671	0
663.429	3
664.187	4
664.945	3
665.703	4
666.46	2
667.218	-1
667.976	2
668.733	5
669.49	1
670.248	2
671.005	4
671.762	1
672.519	3
673.276	2
674.033	2
674.79	4
675.547	0
676.304	2
677.06	2
677.817	3
678.574	3
679.33	3
680.086	1
680.843	2
681.599	2
682.355	2
683.111	2
683.867	2
684.623	2
685.379	2
686.135	3
686.89	3
687.646	2
688.402	3
689.157	2
689.912	0
690.668	1
691.423	2
692.178	2
692.933	1
693.688	2
694.443	2
695.198	3
695.953	2
696.708	3
697.462	2
698.217	1
698.972	1
699.726	2
700.48	2
701.235	4
701.989	0
702.743	2
703.497	0
704.251	2
705.005	1
705.759	1
706.513	1
707.266	3
708.02	3
708.774	0
709.527	1
710.28	1
711.034	3
711.787	2
712.54	0
713.293	1
714.046	3
714.799	0
715.552	3
716.305	2
717.058	2
717.81	-1
718.563	3
719.315	0
720.068	1
720.82	1
721.573	1
722.325	3
723.077	2
723.829	1
724.581	0
725.333	1
726.085	-1
726.836	1
727.588	4
728.34	0
729.091	3
729.843	1
730.594	1
731.346	3
732.097	1
732.848	1
733.599	2
734.35	3
735.101	1
735.852	3
736.603	2
737.354	1
738.104	2
738.855	-1
739.605	1
740.356	2
741.106	3
741.856	2
742.607	2
743.357	1
744.107	0
744.857	3
745.607	1
746.357	4
747.106	3
747.856	1
748.606	2
749.355	2
750.105	1
750.854	4
751.603	3
752.353	1
753.102	1
753.851	3
754.6	1
755.349	2
756.098	4
756.847	4
757.595	3
758.344	5
759.093	2
759.841	3
760.589	4
761.338	2
762.086	4
762.834	3
763.582	3
764.331	5
765.079	3
765.826	2
766.574	4
767.322	4
768.07	2
768.817	3
769.565	3
770.312	4
771.06	4
771.807	5
772.554	5
773.302	5
774.049	3
774.796	2
775.543	3
776.29	5
777.036	5
777.783	2
778.53	4
779.276	4
780.023	6
780.769	4
781.516	5
782.262	4
783.008	5
783.754	5
784.5	3
785.246	4
785.992	5
786.738	6
787.484	6
788.23	3
788.975	7
789.721	7
790.466	6
791.212	3
791.957	8
792.702	5
793.447	3
794.193	5
794.938	5
795.683	5
796.427	3
797.172	4
797.917	5
798.662	5
799.406	5
800.151	3
800.895	4
801.64	3
802.384	6
803.128	3
803.872	4
804.616	5
805.36	4
806.104	5
806.848	4
807.592	6
808.336	2
809.079	2
809.823	3
810.566	2
811.31	5
812.053	4
812.796	5
813.539	4
814.283	3
815.026	3
815.769	2
816.511	2
817.254	3
817.997	2
818.74	2
819.482	3
820.225	2
820.967	4
821.71	4
822.452	4
823.194	3
823.936	3
824.678	2
825.42	3
826.162	1
826.904	2
827.646	1
828.388	3
829.129	4
829.871	1
830.612	1
831.354	1
832.095	3
832.836	1
833.577	1
834.319	3
835.06	3
835.801	4
836.542	1
837.282	1
838.023	2
838.764	1
839.504	2
840.245	2
840.985	2
841.726	2
842.466	0
843.206	1
843.946	0
844.687	2
845.427	0
846.166	3
846.906	1
847.646	2
848.386	0
849.125	4
849.865	2
850.605	0
851.344	3
852.083	-1
852.823	2
853.562	2
854.301	-1
855.04	3
855.779	-2
856.518	1
857.257	2
857.995	1
858.734	1
859.473	-2
860.211	2
860.95	1
861.688	3
862.426	1
863.165	1
863.903	0
864.641	0
865.379	1
866.117	1
866.855	3
867.593	0
868.33	1
869.068	0
869.806	-2
870.543	2
871.28	0
872.018	0
872.755	1
873.492	1
874.229	2
874.967	-1
875.703	2
876.44	1
877.177	0
877.914	1
878.651	1
879.387	1
880.124	2
880.86	3
881.597	1
882.333	0
883.069	0
883.806	0
884.542	1
885.278	0
886.014	2
886.749	1
887.485	-1
888.221	0
888.957	-2
889.692	1
890.428	-2
891.163	-1
891.899	-2
892.634	2
893.369	-1
894.104	1
894.839	-1
895.574	-3
896.309	2
897.044	-1
897.779	1
898.514	1
899.248	-1
899.983	1
900.717	1
901.452	-1
902.186	-1
902.92	1
903.654	-2
904.389	-2
905.123	2
905.857	1
906.59	0
907.324	1
908.058	0
908.792	-2
909.525	0
910.259	0
910.992	-2
911.726	-1
912.459	-1
913.192	0
913.925	1
914.658	-2
915.391	-2
916.124	0
916.857	2
917.59	-1
918.323	3
919.055	-1
919.788	1
920.521	0
921.253	0
921.985	0
922.718	0
923.45	1
924.182	1
924.914	0
925.646	1
926.378	0
927.11	2
927.841	-1
928.573	0
929.305	0
930.036	-1
930.768	1
931.499	1
932.23	0
932.962	1
933.693	-1
934.424	0
935.155	1
935.886	1
936.617	-1
937.348	-1
938.078	0
938.809	-3
939.54	2
940.27	-2
941.001	0
941.731	-1
942.461	0
943.191	1
943.922	-1
944.652	1
945.382	1
946.112	0
946.841	1
947.571	-2
948.301	1
949.031	-1
949.76	2
950.49	-1
951.219	0
951.948	0
952.678	-2
953.407	-2
954.136	-1
954.865	2
955.594	-1
956.323	-1
957.052	0
957.78	-2
958.509	2
959.238	-2
959.966	-2
960.695	-1
961.423	-1
962.151	0
962.88	-2
963.608	1
964.336	0
965.064	0
965.792	-1
966.52	-2
967.247	-2
967.975	1
968.703	2
969.43	-2
970.158	0
970.885	-2
971.613	1
972.34	-1
973.067	1
973.794	1
974.521	0
975.248	1
975.975	-2
976.702	1
977.429	1
978.156	0
978.882	1
979.609	-1
980.335	1
981.062	1
981.788	-1
982.514	0
983.24	-2
983.967	-2
984.693	0
985.419	1
986.144	0
986.87	0
987.596	0
988.322	-3
989.047	0
989.773	1
990.498	0
991.224	-1
991.949	-1
992.674	1
993.399	-4
994.124	2
994.849	-3
995.574	-1
996.299	2
997.024	-2
997.749	1
998.473	1
999.198	1
999.922	1
1000.647	-2
1001.371	3
1002.095	0
1002.82	1
1003.544	0
1004.268	0
1004.992	-2
1005.716	-1
1006.439	2
1007.163	-2
1007.887	-1
1008.611	1
1009.334	0
1010.058	0
1010.781	-1
1011.504	0
1012.228	0
1012.951	1
1013.674	-3
1014.397	-2
1015.12	0
