节点500_145_QEPB04081__64__11-29-58-711.txt的数据

Date: Wed Nov 12 11:29:58 CST 2025
User: PC
Spectrometer: QEPB0408
触发模式: 0
积分时间 (秒): 1.000000E-2
Scans to average: 1
启用暗噪声校正: true
启用非线性校正: false
滑动平均宽度: 0
X轴模式: Wavelengths
Number of Pixels in Spectrum: 1044
>>>>>Begin Spectral Data<<<<<
220.843	1.62
221.644	0.62
222.444	0.62
223.244	-1.38
224.045	0.62
224.845	-1.38
225.645	0.62
226.445	-1.38
227.245	1.62
228.045	1.62
228.845	4.62
229.645	2.62
230.444	1.62
231.244	-0.38
232.043	0.62
232.843	0.62
233.642	-1.38
234.442	-0.38
235.241	5.62
236.04	1.62
236.839	2.62
237.638	2.62
238.437	0.62
239.236	1.62
240.035	-0.38
240.833	1.62
241.632	0.62
242.43	4.62
243.229	2.62
244.027	2.62
244.826	3.62
245.624	2.62
246.422	2.62
247.22	2.62
248.018	2.62
248.816	5.62
249.614	2.62
250.412	4.62
251.21	3.62
252.007	5.62
252.805	2.62
253.602	2.62
254.4	5.62
255.197	1.62
255.994	5.62
256.791	3.62
257.589	3.62
258.386	4.62
259.183	7.62
259.979	5.62
260.776	2.62
261.573	4.62
262.37	5.62
263.166	5.62
263.963	4.62
264.759	4.62
265.556	6.62
266.352	4.62
267.148	8.62
267.944	7.62
268.74	8.62
269.536	7.62
270.332	8.62
271.128	9.62
271.924	7.62
272.719	11.62
273.515	7.62
274.311	8.62
275.106	9.62
275.901	9.62
276.697	11.62
277.492	11.62
278.287	12.62
279.082	10.62
279.877	9.62
280.672	13.62
281.467	8.62
282.262	10.62
283.056	11.62
283.851	12.62
284.646	12.62
285.44	11.62
286.234	11.62
287.029	9.62
287.823	14.62
288.617	11.62
289.411	11.62
290.205	11.62
290.999	11.62
291.793	10.62
292.587	10.62
293.381	13.62
294.174	9.62
294.968	12.62
295.761	9.62
296.555	10.62
297.348	11.62
298.141	9.62
298.935	12.62
299.728	9.62
300.521	10.62
301.314	10.62
302.107	9.62
302.899	9.62
303.692	7.62
304.485	10.62
305.277	10.62
306.07	8.62
306.862	8.62
307.655	7.62
308.447	6.62
309.239	8.62
310.031	8.62
310.823	7.62
311.615	5.62
312.407	6.62
313.199	8.62
313.991	5.62
314.783	7.62
315.574	6.62
316.366	4.62
317.157	6.62
317.949	5.62
318.74	6.62
319.531	7.62
320.322	5.62
321.113	4.62
321.904	3.62
322.695	5.62
323.486	5.62
324.277	6.62
325.068	6.62
325.858	4.62
326.649	6.62
327.439	3.62
328.23	3.62
329.02	5.62
329.81	2.62
330.6	4.62
331.391	4.62
332.181	3.62
332.971	4.62
333.76	3.62
334.55	4.62
335.34	4.62
336.13	5.62
336.919	3.62
337.709	5.62
338.498	5.62
339.287	3.62
340.077	4.62
340.866	1.62
341.655	5.62
342.444	6.62
343.233	4.62
344.022	1.62
344.811	3.62
345.6	2.62
346.388	2.62
347.177	3.62
347.965	4.62
348.754	4.62
349.542	4.62
350.33	5.62
351.119	1.62
351.907	3.62
352.695	5.62
353.483	5.62
354.271	2.62
355.059	5.62
355.846	3.62
356.634	5.62
357.422	3.62
358.209	2.62
358.997	2.62
359.784	3.62
360.571	4.62
361.359	2.62
362.146	1.62
362.933	2.62
363.72	4.62
364.507	3.62
365.294	4.62
366.081	2.62
366.867	4.62
367.654	2.62
368.44	4.62
369.227	3.62
370.013	3.62
370.8	1.62
371.586	2.62
372.372	1.62
373.158	2.62
373.944	3.62
374.73	2.62
375.516	2.62
376.302	3.62
377.088	2.62
377.873	3.62
378.659	4.62
379.445	3.62
380.23	3.62
381.015	2.62
381.801	3.62
382.586	2.62
383.371	1.62
384.156	4.62
384.941	4.62
385.726	2.62
386.511	3.62
387.296	2.62
388.08	2.62
388.865	3.62
389.649	3.62
390.434	2.62
391.218	2.62
392.003	3.62
392.787	3.62
393.571	2.62
394.355	5.62
395.139	4.62
395.923	2.62
396.707	1.62
397.491	2.62
398.274	2.62
399.058	4.62
399.842	4.62
400.625	3.62
401.408	3.62
402.192	0.62
402.975	2.62
403.758	4.62
404.541	2.62
405.324	5.62
406.107	5.62
406.89	2.62
407.673	3.62
408.456	4.62
409.238	2.62
410.021	5.62
410.803	3.62
411.586	3.62
412.368	5.62
413.151	4.62
413.933	4.62
414.715	2.62
415.497	6.62
416.279	4.62
417.061	6.62
417.843	2.62
418.624	5.62
419.406	5.62
420.188	6.62
420.969	5.62
421.751	7.62
422.532	4.62
423.313	4.62
424.095	5.62
424.876	6.62
425.657	6.62
426.438	7.62
427.219	4.62
428	7.62
428.78	7.62
429.561	7.62
430.342	8.62
431.122	5.62
431.903	9.62
432.683	8.62
433.464	5.62
434.244	10.62
435.024	8.62
435.804	11.62
436.584	8.62
437.364	8.62
438.144	11.62
438.924	11.62
439.704	11.62
440.483	10.62
441.263	12.62
442.042	12.62
442.822	11.62
443.601	13.62
444.38	14.62
445.16	16.62
445.939	16.62
446.718	19.62
447.497	19.62
448.276	16.62
449.054	19.62
449.833	23.62
450.612	24.62
451.391	22.62
452.169	28.62
452.948	30.62
453.726	32.62
454.504	34.62
455.282	38.62
456.061	40.62
456.839	49.62
457.617	49.62
458.395	56.62
459.172	55.62
459.95	68.62
460.728	72.62
461.506	78.62
462.283	87.62
463.061	106.62
463.838	113.62
464.615	126.62
465.393	133.62
466.17	157.62
466.947	174.62
467.724	193.62
468.501	212.62
469.278	252.62
470.055	276.62
470.831	306.62
471.608	339.62
472.385	374.62
473.161	422.62
473.938	474.62
474.714	520.62
475.49	592.62
476.266	659.62
477.043	739.62
477.819	818.62
478.595	912.62
479.371	1005.62
480.146	1114.62
480.922	1246.62
481.698	1360.62
482.473	1517.62
483.249	1692.62
484.024	1876.62
484.8	2089.62
485.575	2332.62
486.35	2538.62
487.126	2845.62
487.901	3180.62
488.676	3486.62
489.451	3865.62
490.225	4270.62
491	4728.62
491.775	5233.62
492.55	5776.62
493.324	6315.62
494.099	6949.62
494.873	7603.62
495.647	8325.62
496.422	9091.62
497.196	9822.62
497.97	10646.62
498.744	11448.62
499.518	12247.62
500.292	13026.62
501.066	13775.62
501.839	14511.62
502.613	15194.62
503.387	15839.62
504.16	16378.62
504.934	16803.62
505.707	17024.62
506.48	17281.62
507.253	17345.62
508.027	17277.62
508.8	17114.62
509.573	16785.62
510.346	16521.62
511.118	15975.62
511.891	15482.62
512.664	14896.62
513.437	14297.62
514.209	13716.62
514.982	13090.62
515.754	12524.62
516.526	11929.62
517.298	11465.62
518.071	10867.62
518.843	10380.62
519.615	9967.62
520.387	9548.62
521.159	9163.62
521.93	8820.62
522.702	8485.62
523.474	8137.62
524.245	7820.62
525.017	7454.62
525.788	7172.62
526.56	6926.62
527.331	6594.62
528.102	6299.62
528.873	5991.62
529.644	5738.62
530.415	5429.62
531.186	5174.62
531.957	4890.62
532.728	4638.62
533.498	4376.62
534.269	4140.62
535.039	3898.62
535.81	3656.62
536.58	3476.62
537.351	3280.62
538.121	3086.62
538.891	2906.62
539.661	2780.62
540.431	2605.62
541.201	2460.62
541.971	2332.62
542.741	2206.62
543.51	2114.62
544.28	2001.62
545.05	1879.62
545.819	1820.62
546.588	1706.62
547.358	1646.62
548.127	1548.62
548.896	1471.62
549.665	1402.62
550.434	1334.62
551.203	1251.62
551.972	1196.62
552.741	1134.62
553.51	1065.62
554.278	997.62
555.047	936.62
555.815	881.62
556.584	842.62
557.352	781.62
558.121	754.62
558.889	702.62
559.657	661.62
560.425	611.62
561.193	580.62
561.961	558.62
562.729	520.62
563.496	486.62
564.264	462.62
565.032	442.62
565.799	418.62
566.567	388.62
567.334	374.62
568.101	350.62
568.869	327.62
569.636	310.62
570.403	295.62
571.17	278.62
571.937	263.62
572.704	240.62
573.471	228.62
574.237	217.62
575.004	207.62
575.771	196.62
576.537	185.62
577.303	171.62
578.07	165.62
578.836	148.62
579.602	140.62
580.368	133.62
581.134	129.62
581.9	122.62
582.666	112.62
583.432	102.62
584.198	100.62
584.964	95.62
585.729	94.62
586.495	87.62
587.26	82.62
588.025	74.62
588.791	78.62
589.556	71.62
590.321	66.62
591.086	62.62
591.851	59.62
592.616	57.62
593.381	51.62
594.146	52.62
594.911	46.62
595.675	45.62
596.44	45.62
597.204	39.62
597.969	39.62
598.733	37.62
599.497	38.62
600.261	37.62
601.025	30.62
601.79	32.62
602.553	30.62
603.317	29.62
604.081	27.62
604.845	27.62
605.609	26.62
606.372	22.62
607.136	22.62
607.899	20.62
608.662	23.62
609.426	19.62
610.189	21.62
610.952	15.62
611.715	17.62
612.478	20.62
613.241	17.62
614.004	17.62
614.767	13.62
615.529	13.62
616.292	17.62
617.055	14.62
617.817	15.62
618.579	12.62
619.342	15.62
620.104	11.62
620.866	10.62
621.628	12.62
622.39	9.62
623.152	10.62
623.914	10.62
624.676	10.62
625.438	10.62
626.199	9.62
626.961	9.62
627.722	7.62
628.484	9.62
629.245	9.62
630.006	9.62
630.768	8.62
631.529	7.62
632.29	8.62
633.051	5.62
633.812	6.62
634.573	8.62
635.333	6.62
636.094	7.62
636.855	5.62
637.615	7.62
638.376	6.62
639.136	6.62
639.896	3.62
640.657	4.62
641.417	6.62
642.177	4.62
642.937	5.62
643.697	3.62
644.457	3.62
645.216	5.62
645.976	4.62
646.736	5.62
647.495	5.62
648.255	6.62
649.014	3.62
649.774	5.62
650.533	6.62
651.292	4.62
652.051	3.62
652.81	3.62
653.569	7.62
654.328	2.62
655.087	4.62
655.846	2.62
656.604	3.62
657.363	3.62
658.121	2.62
658.88	4.62
659.638	2.62
660.397	4.62
661.155	5.62
661.913	2.62
662.671	0.62
663.429	3.62
664.187	2.62
664.945	3.62
665.703	2.62
666.46	1.62
667.218	3.62
667.976	4.62
668.733	3.62
669.49	4.62
670.248	2.62
671.005	4.62
671.762	3.62
672.519	2.62
673.276	3.62
674.033	2.62
674.79	3.62
675.547	2.62
676.304	1.62
677.06	4.62
677.817	1.62
678.574	2.62
679.33	2.62
680.086	3.62
680.843	1.62
681.599	1.62
682.355	3.62
683.111	3.62
683.867	3.62
684.623	4.62
685.379	2.62
686.135	1.62
686.89	3.62
687.646	4.62
688.402	1.62
689.157	2.62
689.912	3.62
690.668	2.62
691.423	0.62
692.178	4.62
692.933	3.62
693.688	3.62
694.443	3.62
695.198	2.62
695.953	2.62
696.708	3.62
697.462	0.62
698.217	0.62
698.972	2.62
699.726	3.62
700.48	-1.38
701.235	2.62
701.989	2.62
702.743	2.62
703.497	5.62
704.251	0.62
705.005	1.62
705.759	3.62
706.513	2.62
707.266	0.62
708.02	1.62
708.774	5.62
709.527	2.62
710.28	3.62
711.034	1.62
711.787	3.62
712.54	3.62
713.293	2.62
714.046	2.62
714.799	1.62
715.552	1.62
716.305	2.62
717.058	1.62
717.81	4.62
718.563	0.62
719.315	1.62
720.068	2.62
720.82	2.62
721.573	1.62
722.325	1.62
723.077	0.62
723.829	2.62
724.581	2.62
725.333	1.62
726.085	2.62
726.836	0.62
727.588	1.62
728.34	3.62
729.091	1.62
729.843	2.62
730.594	3.62
731.346	2.62
732.097	3.62
732.848	0.62
733.599	3.62
734.35	2.62
735.101	3.62
735.852	0.62
736.603	0.62
737.354	2.62
738.104	2.62
738.855	3.62
739.605	1.62
740.356	4.62
741.106	2.62
741.856	2.62
742.607	4.62
743.357	3.62
744.107	3.62
744.857	2.62
745.607	4.62
746.357	3.62
747.106	2.62
747.856	0.62
748.606	1.62
749.355	3.62
750.105	1.62
750.854	2.62
751.603	2.62
752.353	3.62
753.102	3.62
753.851	5.62
754.6	4.62
755.349	4.62
756.098	1.62
756.847	2.62
757.595	1.62
758.344	2.62
759.093	1.62
759.841	2.62
760.589	3.62
761.338	6.62
762.086	2.62
762.834	3.62
763.582	5.62
764.331	4.62
765.079	4.62
765.826	4.62
766.574	4.62
767.322	4.62
768.07	5.62
768.817	4.62
769.565	6.62
770.312	7.62
771.06	8.62
771.807	5.62
772.554	2.62
773.302	5.62
774.049	4.62
774.796	4.62
775.543	5.62
776.29	7.62
777.036	6.62
777.783	4.62
778.53	6.62
779.276	6.62
780.023	1.62
780.769	6.62
781.516	7.62
782.262	4.62
783.008	4.62
783.754	4.62
784.5	8.62
785.246	4.62
785.992	6.62
786.738	6.62
787.484	4.62
788.23	5.62
788.975	4.62
789.721	8.62
790.466	3.62
791.212	6.62
791.957	6.62
792.702	7.62
793.447	5.62
794.193	4.62
794.938	6.62
795.683	4.62
796.427	5.62
797.172	7.62
797.917	4.62
798.662	4.62
799.406	4.62
800.151	5.62
800.895	5.62
801.64	6.62
802.384	7.62
803.128	5.62
803.872	5.62
804.616	5.62
805.36	2.62
806.104	5.62
806.848	4.62
807.592	6.62
808.336	3.62
809.079	6.62
809.823	5.62
810.566	4.62
811.31	4.62
812.053	7.62
812.796	3.62
813.539	3.62
814.283	5.62
815.026	4.62
815.769	4.62
816.511	4.62
817.254	3.62
817.997	5.62
818.74	2.62
819.482	5.62
820.225	5.62
820.967	3.62
821.71	3.62
822.452	1.62
823.194	3.62
823.936	3.62
824.678	2.62
825.42	1.62
826.162	3.62
826.904	4.62
827.646	2.62
828.388	3.62
829.129	3.62
829.871	4.62
830.612	1.62
831.354	2.62
832.095	5.62
832.836	1.62
833.577	5.62
834.319	2.62
835.06	3.62
835.801	2.62
836.542	0.62
837.282	2.62
838.023	1.62
838.764	2.62
839.504	3.62
840.245	1.62
840.985	2.62
841.726	1.62
842.466	3.62
843.206	2.62
843.946	1.62
844.687	2.62
845.427	1.62
846.166	4.62
846.906	1.62
847.646	3.62
848.386	2.62
849.125	3.62
849.865	1.62
850.605	3.62
851.344	3.62
852.083	2.62
852.823	2.62
853.562	2.62
854.301	2.62
855.04	0.62
855.779	1.62
856.518	2.62
857.257	1.62
857.995	3.62
858.734	0.62
859.473	2.62
860.211	2.62
860.95	1.62
861.688	1.62
862.426	1.62
863.165	3.62
863.903	0.62
864.641	0.62
865.379	2.62
866.117	-0.38
866.855	1.62
867.593	1.62
868.33	2.62
869.068	-1.38
869.806	1.62
870.543	0.62
871.28	-0.38
872.018	-0.38
872.755	0.62
873.492	3.62
874.229	1.62
874.967	1.62
875.703	1.62
876.44	2.62
877.177	0.62
877.914	1.62
878.651	1.62
879.387	0.62
880.124	2.62
880.86	0.62
881.597	1.62
882.333	0.62
883.069	0.62
883.806	0.62
884.542	2.62
885.278	-1.38
886.014	0.62
886.749	0.62
887.485	0.62
888.221	0.62
888.957	0.62
889.692	2.62
890.428	-0.38
891.163	4.62
891.899	0.62
892.634	-1.38
893.369	3.62
894.104	0.62
894.839	1.62
895.574	1.62
896.309	-1.38
897.044	-3.38
897.779	1.62
898.514	-0.38
899.248	1.62
899.983	1.62
900.717	-0.38
901.452	1.62
902.186	0.62
902.92	0.62
903.654	0.62
904.389	2.62
905.123	1.62
905.857	0.62
906.59	-0.38
907.324	0.62
908.058	0.62
908.792	1.62
909.525	0.62
910.259	0.62
910.992	-0.38
911.726	1.62
912.459	0.62
913.192	2.62
913.925	-0.38
914.658	2.62
915.391	-0.38
916.124	-0.38
916.857	0.62
917.59	1.62
918.323	0.62
919.055	1.62
919.788	2.62
920.521	1.62
921.253	2.62
921.985	0.62
922.718	0.62
923.45	0.62
924.182	-0.38
924.914	0.62
925.646	3.62
926.378	-1.38
927.11	0.62
927.841	1.62
928.573	-0.38
929.305	0.62
930.036	-1.38
930.768	0.62
931.499	1.62
932.23	0.62
932.962	1.62
933.693	-0.38
934.424	0.62
935.155	1.62
935.886	2.62
936.617	-1.38
937.348	1.62
938.078	0.62
938.809	0.62
939.54	0.62
940.27	-1.38
941.001	0.62
941.731	0.62
942.461	2.62
943.191	1.62
943.922	1.62
944.652	-0.38
945.382	-0.38
946.112	1.62
946.841	0.62
947.571	-1.38
948.301	1.62
949.031	2.62
949.76	-0.38
950.49	-0.38
951.219	-1.38
951.948	1.62
952.678	-0.38
953.407	0.62
954.136	-0.38
954.865	2.62
955.594	0.62
956.323	1.62
957.052	1.62
957.78	1.62
958.509	0.62
959.238	0.62
959.966	0.62
960.695	1.62
961.423	1.62
962.151	0.62
962.88	-0.38
963.608	2.62
964.336	0.62
965.064	2.62
965.792	0.62
966.52	0.62
967.247	0.62
967.975	1.62
968.703	-0.38
969.43	-0.38
970.158	0.62
970.885	0.62
971.613	0.62
972.34	-0.38
973.067	-1.38
973.794	3.62
974.521	0.62
975.248	0.62
975.975	0.62
976.702	0.62
977.429	-0.38
978.156	0.62
978.882	1.62
979.609	0.62
980.335	2.62
981.062	0.62
981.788	0.62
982.514	1.62
983.24	-0.38
983.967	1.62
984.693	1.62
985.419	0.62
986.144	-0.38
986.87	-0.38
987.596	0.62
988.322	1.62
989.047	-1.38
989.773	-0.38
990.498	0.62
991.224	-1.38
991.949	-1.38
992.674	1.62
993.399	1.62
994.124	-0.38
994.849	-1.38
995.574	2.62
996.299	0.62
997.024	0.62
997.749	0.62
998.473	-1.38
999.198	-0.38
999.922	0.62
1000.647	3.62
1001.371	3.62
1002.095	-2.38
1002.82	-0.38
1003.544	-1.38
1004.268	-0.38
1004.992	0.62
1005.716	0.62
1006.439	2.62
1007.163	-1.38
1007.887	0.62
1008.611	1.62
1009.334	0.62
1010.058	1.62
1010.781	-2.38
1011.504	1.62
1012.228	-0.38
1012.951	1.62
1013.674	-0.38
1014.397	0.62
1015.12	-1.38
