节点500_145_QEPB04081__691__11-39-54-779.txt的数据

Date: Wed Nov 12 11:39:54 CST 2025
User: PC
Spectrometer: QEPB0408
触发模式: 0
积分时间 (秒): 1.000000E-2
Scans to average: 1
启用暗噪声校正: true
启用非线性校正: false
滑动平均宽度: 0
X轴模式: Wavelengths
Number of Pixels in Spectrum: 1044
>>>>>Begin Spectral Data<<<<<
220.843	1.38
221.644	-1.62
222.444	0.38
223.244	-0.62
224.045	0.38
224.845	1.38
225.645	-0.62
226.445	-0.62
227.245	-1.62
228.045	-2.62
228.845	-0.62
229.645	-1.62
230.444	1.38
231.244	1.38
232.043	1.38
232.843	-0.62
233.642	1.38
234.442	1.38
235.241	1.38
236.04	2.38
236.839	-0.62
237.638	1.38
238.437	1.38
239.236	-1.62
240.035	3.38
240.833	0.38
241.632	1.38
242.43	1.38
243.229	2.38
244.027	2.38
244.826	1.38
245.624	2.38
246.422	3.38
247.22	1.38
248.018	2.38
248.816	2.38
249.614	1.38
250.412	-0.62
251.21	2.38
252.007	3.38
252.805	4.38
253.602	1.38
254.4	3.38
255.197	2.38
255.994	4.38
256.791	3.38
257.589	1.38
258.386	2.38
259.183	3.38
259.979	5.38
260.776	5.38
261.573	2.38
262.37	5.38
263.166	3.38
263.963	4.38
264.759	5.38
265.556	4.38
266.352	5.38
267.148	3.38
267.944	5.38
268.74	4.38
269.536	7.38
270.332	7.38
271.128	6.38
271.924	6.38
272.719	5.38
273.515	7.38
274.311	6.38
275.106	11.38
275.901	9.38
276.697	7.38
277.492	7.38
278.287	7.38
279.082	8.38
279.877	8.38
280.672	7.38
281.467	13.38
282.262	10.38
283.056	5.38
283.851	7.38
284.646	11.38
285.44	9.38
286.234	9.38
287.029	8.38
287.823	9.38
288.617	10.38
289.411	9.38
290.205	10.38
290.999	11.38
291.793	10.38
292.587	10.38
293.381	7.38
294.174	12.38
294.968	7.38
295.761	10.38
296.555	8.38
297.348	11.38
298.141	7.38
298.935	7.38
299.728	10.38
300.521	6.38
301.314	10.38
302.107	7.38
302.899	8.38
303.692	6.38
304.485	7.38
305.277	8.38
306.07	5.38
306.862	8.38
307.655	7.38
308.447	8.38
309.239	7.38
310.031	6.38
310.823	6.38
311.615	7.38
312.407	6.38
313.199	5.38
313.991	4.38
314.783	8.38
315.574	6.38
316.366	7.38
317.157	4.38
317.949	5.38
318.74	5.38
319.531	3.38
320.322	6.38
321.113	6.38
321.904	2.38
322.695	5.38
323.486	4.38
324.277	3.38
325.068	4.38
325.858	4.38
326.649	3.38
327.439	5.38
328.23	5.38
329.02	2.38
329.81	3.38
330.6	3.38
331.391	2.38
332.181	2.38
332.971	2.38
333.76	1.38
334.55	4.38
335.34	6.38
336.13	1.38
336.919	6.38
337.709	3.38
338.498	2.38
339.287	4.38
340.077	2.38
340.866	4.38
341.655	3.38
342.444	1.38
343.233	3.38
344.022	4.38
344.811	4.38
345.6	2.38
346.388	1.38
347.177	0.38
347.965	3.38
348.754	0.38
349.542	5.38
350.33	4.38
351.119	3.38
351.907	0.38
352.695	3.38
353.483	1.38
354.271	0.38
355.059	2.38
355.846	4.38
356.634	2.38
357.422	3.38
358.209	1.38
358.997	2.38
359.784	3.38
360.571	3.38
361.359	0.38
362.146	0.38
362.933	3.38
363.72	0.38
364.507	2.38
365.294	4.38
366.081	2.38
366.867	4.38
367.654	1.38
368.44	3.38
369.227	0.38
370.013	3.38
370.8	-0.62
371.586	4.38
372.372	1.38
373.158	3.38
373.944	3.38
374.73	2.38
375.516	4.38
376.302	1.38
377.088	3.38
377.873	3.38
378.659	0.38
379.445	2.38
380.23	2.38
381.015	2.38
381.801	2.38
382.586	2.38
383.371	1.38
384.156	2.38
384.941	2.38
385.726	2.38
386.511	4.38
387.296	4.38
388.08	3.38
388.865	4.38
389.649	4.38
390.434	4.38
391.218	2.38
392.003	4.38
392.787	2.38
393.571	5.38
394.355	2.38
395.139	2.38
395.923	5.38
396.707	2.38
397.491	0.38
398.274	3.38
399.058	1.38
399.842	3.38
400.625	2.38
401.408	2.38
402.192	3.38
402.975	4.38
403.758	2.38
404.541	5.38
405.324	2.38
406.107	2.38
406.89	5.38
407.673	4.38
408.456	5.38
409.238	4.38
410.021	4.38
410.803	4.38
411.586	2.38
412.368	4.38
413.151	1.38
413.933	5.38
414.715	6.38
415.497	2.38
416.279	3.38
417.061	5.38
417.843	4.38
418.624	4.38
419.406	3.38
420.188	5.38
420.969	3.38
421.751	2.38
422.532	5.38
423.313	6.38
424.095	5.38
424.876	5.38
425.657	7.38
426.438	5.38
427.219	5.38
428	5.38
428.78	6.38
429.561	8.38
430.342	9.38
431.122	7.38
431.903	7.38
432.683	8.38
433.464	7.38
434.244	9.38
435.024	7.38
435.804	9.38
436.584	13.38
437.364	10.38
438.144	11.38
438.924	7.38
439.704	12.38
440.483	11.38
441.263	12.38
442.042	9.38
442.822	11.38
443.601	16.38
444.38	15.38
445.16	13.38
445.939	17.38
446.718	19.38
447.497	18.38
448.276	21.38
449.054	22.38
449.833	26.38
450.612	25.38
451.391	31.38
452.169	31.38
452.948	32.38
453.726	36.38
454.504	39.38
455.282	42.38
456.061	52.38
456.839	54.38
457.617	64.38
458.395	68.38
459.172	76.38
459.95	84.38
460.728	96.38
461.506	105.38
462.283	116.38
463.061	131.38
463.838	139.38
464.615	158.38
465.393	178.38
466.17	195.38
466.947	213.38
467.724	238.38
468.501	270.38
469.278	299.38
470.055	325.38
470.831	357.38
471.608	403.38
472.385	442.38
473.161	491.38
473.938	543.38
474.714	597.38
475.49	655.38
476.266	726.38
477.043	794.38
477.819	882.38
478.595	956.38
479.371	1065.38
480.146	1166.38
480.922	1266.38
481.698	1395.38
482.473	1523.38
483.249	1669.38
484.024	1823.38
484.8	2000.38
485.575	2174.38
486.35	2400.38
487.126	2607.38
487.901	2844.38
488.676	3104.38
489.451	3375.38
490.225	3666.38
491	4012.38
491.775	4402.38
492.55	4783.38
493.324	5185.38
494.099	5631.38
494.873	6141.38
495.647	6625.38
496.422	7191.38
497.196	7724.38
497.97	8320.38
498.744	8917.38
499.518	9573.38
500.292	10199.38
501.066	10840.38
501.839	11481.38
502.613	12077.38
503.387	12628.38
504.16	13165.38
504.934	13673.38
505.707	14061.38
506.48	14421.38
507.253	14728.38
508.027	14909.38
508.8	15068.38
509.573	14991.38
510.346	14950.38
511.118	14821.38
511.891	14599.38
512.664	14283.38
513.437	13903.38
514.209	13514.38
514.982	13048.38
515.754	12607.38
516.526	12126.38
517.298	11659.38
518.071	11222.38
518.843	10731.38
519.615	10280.38
520.387	9858.38
521.159	9471.38
521.93	9082.38
522.702	8719.38
523.474	8398.38
524.245	8117.38
525.017	7754.38
525.788	7450.38
526.56	7149.38
527.331	6889.38
528.102	6606.38
528.873	6320.38
529.644	6021.38
530.415	5779.38
531.186	5556.38
531.957	5269.38
532.728	5017.38
533.498	4750.38
534.269	4542.38
535.039	4321.38
535.81	4071.38
536.58	3857.38
537.351	3620.38
538.121	3458.38
538.891	3272.38
539.661	3107.38
540.431	2936.38
541.201	2765.38
541.971	2626.38
542.741	2469.38
543.51	2342.38
544.28	2216.38
545.05	2123.38
545.819	1998.38
546.588	1928.38
547.358	1821.38
548.127	1746.38
548.896	1634.38
549.665	1559.38
550.434	1493.38
551.203	1413.38
551.972	1339.38
552.741	1274.38
553.51	1201.38
554.278	1136.38
555.047	1082.38
555.815	1022.38
556.584	968.38
557.352	899.38
558.121	863.38
558.889	813.38
559.657	771.38
560.425	715.38
561.193	684.38
561.961	642.38
562.729	613.38
563.496	582.38
564.264	540.38
565.032	506.38
565.799	479.38
566.567	457.38
567.334	426.38
568.101	394.38
568.869	382.38
569.636	358.38
570.403	340.38
571.17	322.38
571.937	311.38
572.704	284.38
573.471	275.38
574.237	258.38
575.004	238.38
575.771	225.38
576.537	213.38
577.303	200.38
578.07	189.38
578.836	177.38
579.602	165.38
580.368	160.38
581.134	153.38
581.9	143.38
582.666	134.38
583.432	129.38
584.198	115.38
584.964	113.38
585.729	107.38
586.495	101.38
587.26	90.38
588.025	88.38
588.791	82.38
589.556	79.38
590.321	74.38
591.086	70.38
591.851	68.38
592.616	66.38
593.381	59.38
594.146	58.38
594.911	52.38
595.675	54.38
596.44	49.38
597.204	46.38
597.969	45.38
598.733	44.38
599.497	39.38
600.261	39.38
601.025	39.38
601.79	39.38
602.553	35.38
603.317	34.38
604.081	32.38
604.845	31.38
605.609	28.38
606.372	28.38
607.136	28.38
607.899	24.38
608.662	24.38
609.426	23.38
610.189	23.38
610.952	21.38
611.715	21.38
612.478	21.38
613.241	21.38
614.004	17.38
614.767	17.38
615.529	14.38
616.292	12.38
617.055	16.38
617.817	12.38
618.579	13.38
619.342	14.38
620.104	13.38
620.866	12.38
621.628	13.38
622.39	11.38
623.152	11.38
623.914	10.38
624.676	10.38
625.438	12.38
626.199	10.38
626.961	7.38
627.722	10.38
628.484	7.38
629.245	8.38
630.006	9.38
630.768	7.38
631.529	9.38
632.29	6.38
633.051	8.38
633.812	4.38
634.573	8.38
635.333	7.38
636.094	8.38
636.855	4.38
637.615	8.38
638.376	7.38
639.136	3.38
639.896	6.38
640.657	5.38
641.417	3.38
642.177	2.38
642.937	2.38
643.697	1.38
644.457	5.38
645.216	7.38
645.976	4.38
646.736	3.38
647.495	3.38
648.255	3.38
649.014	5.38
649.774	2.38
650.533	4.38
651.292	5.38
652.051	2.38
652.81	4.38
653.569	3.38
654.328	3.38
655.087	2.38
655.846	3.38
656.604	5.38
657.363	3.38
658.121	4.38
658.88	2.38
659.638	1.38
660.397	3.38
661.155	3.38
661.913	2.38
662.671	1.38
663.429	3.38
664.187	2.38
664.945	3.38
665.703	2.38
666.46	3.38
667.218	3.38
667.976	4.38
668.733	5.38
669.49	2.38
670.248	2.38
671.005	2.38
671.762	0.38
672.519	5.38
673.276	1.38
674.033	2.38
674.79	1.38
675.547	2.38
676.304	5.38
677.06	2.38
677.817	2.38
678.574	1.38
679.33	1.38
680.086	2.38
680.843	1.38
681.599	0.38
682.355	2.38
683.111	2.38
683.867	3.38
684.623	1.38
685.379	2.38
686.135	3.38
686.89	1.38
687.646	0.38
688.402	2.38
689.157	1.38
689.912	2.38
690.668	1.38
691.423	2.38
692.178	1.38
692.933	4.38
693.688	2.38
694.443	2.38
695.198	2.38
695.953	3.38
696.708	2.38
697.462	1.38
698.217	3.38
698.972	1.38
699.726	1.38
700.48	2.38
701.235	3.38
701.989	1.38
702.743	1.38
703.497	2.38
704.251	-0.62
705.005	0.38
705.759	3.38
706.513	3.38
707.266	1.38
708.02	1.38
708.774	0.38
709.527	1.38
710.28	0.38
711.034	0.38
711.787	2.38
712.54	4.38
713.293	1.38
714.046	2.38
714.799	2.38
715.552	1.38
716.305	3.38
717.058	1.38
717.81	1.38
718.563	2.38
719.315	2.38
720.068	0.38
720.82	-1.62
721.573	2.38
722.325	0.38
723.077	1.38
723.829	1.38
724.581	1.38
725.333	1.38
726.085	1.38
726.836	3.38
727.588	1.38
728.34	0.38
729.091	3.38
729.843	-0.62
730.594	2.38
731.346	1.38
732.097	1.38
732.848	1.38
733.599	1.38
734.35	2.38
735.101	2.38
735.852	5.38
736.603	1.38
737.354	1.38
738.104	1.38
738.855	0.38
739.605	2.38
740.356	2.38
741.106	1.38
741.856	1.38
742.607	2.38
743.357	3.38
744.107	3.38
744.857	3.38
745.607	2.38
746.357	2.38
747.106	2.38
747.856	1.38
748.606	3.38
749.355	3.38
750.105	2.38
750.854	3.38
751.603	2.38
752.353	3.38
753.102	3.38
753.851	2.38
754.6	3.38
755.349	2.38
756.098	1.38
756.847	0.38
757.595	1.38
758.344	2.38
759.093	2.38
759.841	1.38
760.589	1.38
761.338	1.38
762.086	2.38
762.834	3.38
763.582	2.38
764.331	3.38
765.079	1.38
765.826	3.38
766.574	2.38
767.322	3.38
768.07	4.38
768.817	3.38
769.565	0.38
770.312	5.38
771.06	3.38
771.807	3.38
772.554	3.38
773.302	2.38
774.049	4.38
774.796	2.38
775.543	3.38
776.29	4.38
777.036	2.38
777.783	4.38
778.53	2.38
779.276	4.38
780.023	2.38
780.769	5.38
781.516	4.38
782.262	3.38
783.008	3.38
783.754	2.38
784.5	5.38
785.246	2.38
785.992	4.38
786.738	5.38
787.484	3.38
788.23	3.38
788.975	6.38
789.721	4.38
790.466	3.38
791.212	2.38
791.957	4.38
792.702	3.38
793.447	3.38
794.193	5.38
794.938	5.38
795.683	4.38
796.427	5.38
797.172	3.38
797.917	3.38
798.662	3.38
799.406	3.38
800.151	5.38
800.895	2.38
801.64	5.38
802.384	5.38
803.128	2.38
803.872	2.38
804.616	2.38
805.36	6.38
806.104	3.38
806.848	2.38
807.592	3.38
808.336	1.38
809.079	2.38
809.823	1.38
810.566	3.38
811.31	3.38
812.053	5.38
812.796	4.38
813.539	4.38
814.283	3.38
815.026	2.38
815.769	4.38
816.511	2.38
817.254	3.38
817.997	2.38
818.74	2.38
819.482	2.38
820.225	2.38
820.967	1.38
821.71	3.38
822.452	1.38
823.194	4.38
823.936	3.38
824.678	4.38
825.42	2.38
826.162	3.38
826.904	2.38
827.646	0.38
828.388	4.38
829.129	2.38
829.871	1.38
830.612	2.38
831.354	1.38
832.095	2.38
832.836	2.38
833.577	2.38
834.319	0.38
835.06	3.38
835.801	2.38
836.542	2.38
837.282	4.38
838.023	3.38
838.764	1.38
839.504	1.38
840.245	2.38
840.985	1.38
841.726	2.38
842.466	3.38
843.206	2.38
843.946	0.38
844.687	1.38
845.427	3.38
846.166	1.38
846.906	2.38
847.646	2.38
848.386	2.38
849.125	1.38
849.865	1.38
850.605	1.38
851.344	4.38
852.083	3.38
852.823	1.38
853.562	2.38
854.301	2.38
855.04	0.38
855.779	2.38
856.518	2.38
857.257	0.38
857.995	1.38
858.734	2.38
859.473	2.38
860.211	-0.62
860.95	4.38
861.688	0.38
862.426	2.38
863.165	3.38
863.903	2.38
864.641	3.38
865.379	0.38
866.117	1.38
866.855	1.38
867.593	0.38
868.33	0.38
869.068	2.38
869.806	1.38
870.543	0.38
871.28	1.38
872.018	2.38
872.755	2.38
873.492	0.38
874.229	-0.62
874.967	1.38
875.703	-0.62
876.44	-0.62
877.177	1.38
877.914	-0.62
878.651	2.38
879.387	-0.62
880.124	1.38
880.86	0.38
881.597	1.38
882.333	-1.62
883.069	0.38
883.806	0.38
884.542	1.38
885.278	1.38
886.014	0.38
886.749	1.38
887.485	1.38
888.221	-0.62
888.957	1.38
889.692	0.38
890.428	1.38
891.163	-1.62
891.899	0.38
892.634	-0.62
893.369	-0.62
894.104	1.38
894.839	-2.62
895.574	-0.62
896.309	0.38
897.044	0.38
897.779	0.38
898.514	2.38
899.248	1.38
899.983	1.38
900.717	2.38
901.452	-0.62
902.186	-0.62
902.92	-0.62
903.654	-0.62
904.389	0.38
905.123	1.38
905.857	-0.62
906.59	0.38
907.324	0.38
908.058	0.38
908.792	-0.62
909.525	0.38
910.259	0.38
910.992	0.38
911.726	0.38
912.459	1.38
913.192	0.38
913.925	0.38
914.658	-0.62
915.391	0.38
916.124	-0.62
916.857	-1.62
917.59	1.38
918.323	1.38
919.055	0.38
919.788	0.38
920.521	1.38
921.253	0.38
921.985	-1.62
922.718	-1.62
923.45	0.38
924.182	-0.62
924.914	2.38
925.646	-0.62
926.378	0.38
927.11	-1.62
927.841	1.38
928.573	-1.62
929.305	1.38
930.036	-1.62
930.768	-0.62
931.499	0.38
932.23	-1.62
932.962	-0.62
933.693	1.38
934.424	-1.62
935.155	0.38
935.886	0.38
936.617	1.38
937.348	0.38
938.078	-0.62
938.809	-0.62
939.54	-0.62
940.27	0.38
941.001	0.38
941.731	2.38
942.461	-0.62
943.191	1.38
943.922	1.38
944.652	-0.62
945.382	0.38
946.112	-0.62
946.841	-0.62
947.571	2.38
948.301	0.38
949.031	-1.62
949.76	-1.62
950.49	2.38
951.219	1.38
951.948	-1.62
952.678	0.38
953.407	0.38
954.136	-0.62
954.865	1.38
955.594	-1.62
956.323	0.38
957.052	1.38
957.78	-0.62
958.509	-1.62
959.238	1.38
959.966	-0.62
960.695	-0.62
961.423	-1.62
962.151	0.38
962.88	-1.62
963.608	1.38
964.336	0.38
965.064	0.38
965.792	1.38
966.52	-0.62
967.247	0.38
967.975	0.38
968.703	0.38
969.43	1.38
970.158	-0.62
970.885	-0.62
971.613	1.38
972.34	2.38
973.067	-0.62
973.794	-0.62
974.521	-0.62
975.248	0.38
975.975	2.38
976.702	-1.62
977.429	-1.62
978.156	4.38
978.882	-0.62
979.609	0.38
980.335	-0.62
981.062	-3.62
981.788	1.38
982.514	-1.62
983.24	-1.62
983.967	-0.62
984.693	-0.62
985.419	-1.62
986.144	0.38
986.87	0.38
987.596	-1.62
988.322	3.38
989.047	0.38
989.773	1.38
990.498	0.38
991.224	0.38
991.949	1.38
992.674	1.38
993.399	1.38
994.124	1.38
994.849	0.38
995.574	-0.62
996.299	1.38
997.024	2.38
997.749	-1.62
998.473	1.38
999.198	-3.62
999.922	-2.62
1000.647	0.38
1001.371	2.38
1002.095	-1.62
1002.82	1.38
1003.544	-0.62
1004.268	2.38
1004.992	-1.62
1005.716	-0.62
1006.439	-1.62
1007.163	1.38
1007.887	-1.62
1008.611	0.38
1009.334	-0.62
1010.058	1.38
1010.781	2.38
1011.504	0.38
1012.228	3.38
1012.951	0.38
1013.674	-0.62
1014.397	0.38
1015.12	-1.62
