节点500_145_QEPB04081__250__11-32-58-472.txt的数据

Date: Wed Nov 12 11:32:58 CST 2025
User: PC
Spectrometer: QEPB0408
触发模式: 0
积分时间 (秒): 1.000000E-2
Scans to average: 1
启用暗噪声校正: true
启用非线性校正: false
滑动平均宽度: 0
X轴模式: Wavelengths
Number of Pixels in Spectrum: 1044
>>>>>Begin Spectral Data<<<<<
220.843	0.25
221.644	1.25
222.444	0.25
223.244	1.25
224.045	-1.75
224.845	-0.75
225.645	0.25
226.445	0.25
227.245	0.25
228.045	1.25
228.845	-0.75
229.645	0.25
230.444	0.25
231.244	-2.75
232.043	3.25
232.843	1.25
233.642	1.25
234.442	1.25
235.241	1.25
236.04	-1.75
236.839	2.25
237.638	0.25
238.437	0.25
239.236	0.25
240.035	-0.75
240.833	1.25
241.632	2.25
242.43	1.25
243.229	2.25
244.027	0.25
244.826	0.25
245.624	1.25
246.422	3.25
247.22	0.25
248.018	0.25
248.816	1.25
249.614	3.25
250.412	2.25
251.21	1.25
252.007	2.25
252.805	2.25
253.602	2.25
254.4	3.25
255.197	1.25
255.994	4.25
256.791	3.25
257.589	3.25
258.386	4.25
259.183	4.25
259.979	4.25
260.776	3.25
261.573	5.25
262.37	4.25
263.166	4.25
263.963	5.25
264.759	5.25
265.556	5.25
266.352	3.25
267.148	11.25
267.944	7.25
268.74	6.25
269.536	7.25
270.332	7.25
271.128	8.25
271.924	7.25
272.719	7.25
273.515	7.25
274.311	9.25
275.106	8.25
275.901	8.25
276.697	8.25
277.492	6.25
278.287	10.25
279.082	12.25
279.877	9.25
280.672	9.25
281.467	11.25
282.262	11.25
283.056	9.25
283.851	10.25
284.646	12.25
285.44	10.25
286.234	10.25
287.029	8.25
287.823	10.25
288.617	11.25
289.411	12.25
290.205	9.25
290.999	9.25
291.793	12.25
292.587	9.25
293.381	13.25
294.174	7.25
294.968	11.25
295.761	9.25
296.555	11.25
297.348	9.25
298.141	8.25
298.935	11.25
299.728	8.25
300.521	10.25
301.314	8.25
302.107	9.25
302.899	8.25
303.692	6.25
304.485	9.25
305.277	8.25
306.07	11.25
306.862	8.25
307.655	8.25
308.447	8.25
309.239	5.25
310.031	8.25
310.823	8.25
311.615	6.25
312.407	6.25
313.199	7.25
313.991	9.25
314.783	7.25
315.574	9.25
316.366	3.25
317.157	7.25
317.949	6.25
318.74	4.25
319.531	5.25
320.322	4.25
321.113	5.25
321.904	5.25
322.695	4.25
323.486	5.25
324.277	4.25
325.068	4.25
325.858	6.25
326.649	7.25
327.439	3.25
328.23	6.25
329.02	4.25
329.81	2.25
330.6	3.25
331.391	2.25
332.181	5.25
332.971	5.25
333.76	4.25
334.55	3.25
335.34	2.25
336.13	4.25
336.919	3.25
337.709	5.25
338.498	2.25
339.287	6.25
340.077	2.25
340.866	3.25
341.655	4.25
342.444	2.25
343.233	3.25
344.022	2.25
344.811	4.25
345.6	2.25
346.388	4.25
347.177	4.25
347.965	4.25
348.754	3.25
349.542	5.25
350.33	1.25
351.119	3.25
351.907	2.25
352.695	4.25
353.483	1.25
354.271	1.25
355.059	4.25
355.846	2.25
356.634	4.25
357.422	2.25
358.209	4.25
358.997	3.25
359.784	1.25
360.571	2.25
361.359	1.25
362.146	3.25
362.933	1.25
363.72	4.25
364.507	2.25
365.294	2.25
366.081	4.25
366.867	2.25
367.654	2.25
368.44	4.25
369.227	2.25
370.013	0.25
370.8	1.25
371.586	4.25
372.372	2.25
373.158	1.25
373.944	2.25
374.73	2.25
375.516	2.25
376.302	1.25
377.088	5.25
377.873	3.25
378.659	2.25
379.445	2.25
380.23	3.25
381.015	0.25
381.801	3.25
382.586	1.25
383.371	3.25
384.156	3.25
384.941	2.25
385.726	2.25
386.511	1.25
387.296	2.25
388.08	3.25
388.865	1.25
389.649	4.25
390.434	1.25
391.218	4.25
392.003	2.25
392.787	3.25
393.571	1.25
394.355	2.25
395.139	3.25
395.923	1.25
396.707	3.25
397.491	3.25
398.274	4.25
399.058	2.25
399.842	2.25
400.625	5.25
401.408	2.25
402.192	3.25
402.975	0.25
403.758	2.25
404.541	6.25
405.324	7.25
406.107	4.25
406.89	2.25
407.673	5.25
408.456	2.25
409.238	5.25
410.021	3.25
410.803	5.25
411.586	4.25
412.368	4.25
413.151	0.25
413.933	4.25
414.715	1.25
415.497	5.25
416.279	3.25
417.061	3.25
417.843	6.25
418.624	4.25
419.406	6.25
420.188	4.25
420.969	7.25
421.751	5.25
422.532	4.25
423.313	6.25
424.095	5.25
424.876	7.25
425.657	6.25
426.438	7.25
427.219	6.25
428	7.25
428.78	7.25
429.561	4.25
430.342	6.25
431.122	5.25
431.903	10.25
432.683	8.25
433.464	7.25
434.244	6.25
435.024	9.25
435.804	9.25
436.584	9.25
437.364	12.25
438.144	10.25
438.924	11.25
439.704	10.25
440.483	9.25
441.263	11.25
442.042	13.25
442.822	14.25
443.601	17.25
444.38	13.25
445.16	14.25
445.939	17.25
446.718	19.25
447.497	18.25
448.276	18.25
449.054	21.25
449.833	23.25
450.612	22.25
451.391	25.25
452.169	28.25
452.948	30.25
453.726	33.25
454.504	37.25
455.282	37.25
456.061	44.25
456.839	47.25
457.617	54.25
458.395	58.25
459.172	67.25
459.95	72.25
460.728	80.25
461.506	84.25
462.283	103.25
463.061	113.25
463.838	123.25
464.615	133.25
465.393	154.25
466.17	172.25
466.947	190.25
467.724	215.25
468.501	239.25
469.278	266.25
470.055	298.25
470.831	330.25
471.608	360.25
472.385	399.25
473.161	456.25
473.938	501.25
474.714	557.25
475.49	627.25
476.266	690.25
477.043	776.25
477.819	847.25
478.595	940.25
479.371	1041.25
480.146	1137.25
480.922	1263.25
481.698	1420.25
482.473	1543.25
483.249	1705.25
484.024	1875.25
484.8	2079.25
485.575	2288.25
486.35	2534.25
487.126	2786.25
487.901	3089.25
488.676	3387.25
489.451	3735.25
490.225	4109.25
491	4513.25
491.775	4953.25
492.55	5440.25
493.324	5967.25
494.099	6553.25
494.873	7131.25
495.647	7784.25
496.422	8480.25
497.196	9165.25
497.97	9905.25
498.744	10649.25
499.518	11415.25
500.292	12200.25
501.066	12899.25
501.839	13549.25
502.613	14260.25
503.387	14871.25
504.16	15438.25
504.934	15878.25
505.707	16164.25
506.48	16496.25
507.253	16632.25
508.027	16650.25
508.8	16595.25
509.573	16381.25
510.346	16074.25
511.118	15763.25
511.891	15371.25
512.664	14928.25
513.437	14339.25
514.209	13755.25
514.982	13251.25
515.754	12755.25
516.526	12125.25
517.298	11637.25
518.071	11087.25
518.843	10543.25
519.615	10137.25
520.387	9693.25
521.159	9360.25
521.93	8940.25
522.702	8571.25
523.474	8263.25
524.245	7969.25
525.017	7656.25
525.788	7331.25
526.56	7057.25
527.331	6691.25
528.102	6429.25
528.873	6163.25
529.644	5883.25
530.415	5577.25
531.186	5304.25
531.957	5055.25
532.728	4804.25
533.498	4521.25
534.269	4280.25
535.039	4050.25
535.81	3804.25
536.58	3619.25
537.351	3397.25
538.121	3198.25
538.891	3058.25
539.661	2891.25
540.431	2700.25
541.201	2574.25
541.971	2441.25
542.741	2310.25
543.51	2180.25
544.28	2078.25
545.05	1992.25
545.819	1871.25
546.588	1805.25
547.358	1687.25
548.127	1617.25
548.896	1550.25
549.665	1453.25
550.434	1378.25
551.203	1315.25
551.972	1233.25
552.741	1172.25
553.51	1106.25
554.278	1064.25
555.047	994.25
555.815	937.25
556.584	878.25
557.352	830.25
558.121	792.25
558.889	728.25
559.657	698.25
560.425	658.25
561.193	621.25
561.961	580.25
562.729	556.25
563.496	523.25
564.264	491.25
565.032	461.25
565.799	433.25
566.567	407.25
567.334	393.25
568.101	369.25
568.869	344.25
569.636	329.25
570.403	311.25
571.17	286.25
571.937	274.25
572.704	260.25
573.471	248.25
574.237	233.25
575.004	217.25
575.771	206.25
576.537	189.25
577.303	178.25
578.07	170.25
578.836	164.25
579.602	152.25
580.368	142.25
581.134	134.25
581.9	127.25
582.666	119.25
583.432	118.25
584.198	103.25
584.964	107.25
585.729	97.25
586.495	89.25
587.26	85.25
588.025	84.25
588.791	77.25
589.556	75.25
590.321	73.25
591.086	66.25
591.851	65.25
592.616	57.25
593.381	54.25
594.146	55.25
594.911	50.25
595.675	51.25
596.44	46.25
597.204	44.25
597.969	40.25
598.733	40.25
599.497	35.25
600.261	34.25
601.025	33.25
601.79	32.25
602.553	30.25
603.317	29.25
604.081	29.25
604.845	26.25
605.609	28.25
606.372	24.25
607.136	22.25
607.899	23.25
608.662	22.25
609.426	25.25
610.189	19.25
610.952	20.25
611.715	19.25
612.478	18.25
613.241	16.25
614.004	15.25
614.767	17.25
615.529	15.25
616.292	16.25
617.055	14.25
617.817	14.25
618.579	13.25
619.342	12.25
620.104	14.25
620.866	14.25
621.628	10.25
622.39	11.25
623.152	11.25
623.914	10.25
624.676	11.25
625.438	10.25
626.199	9.25
626.961	9.25
627.722	7.25
628.484	8.25
629.245	8.25
630.006	7.25
630.768	8.25
631.529	9.25
632.29	5.25
633.051	7.25
633.812	9.25
634.573	4.25
635.333	6.25
636.094	6.25
636.855	7.25
637.615	4.25
638.376	8.25
639.136	5.25
639.896	7.25
640.657	4.25
641.417	5.25
642.177	3.25
642.937	5.25
643.697	6.25
644.457	5.25
645.216	6.25
645.976	3.25
646.736	3.25
647.495	6.25
648.255	2.25
649.014	5.25
649.774	2.25
650.533	5.25
651.292	5.25
652.051	4.25
652.81	3.25
653.569	5.25
654.328	2.25
655.087	5.25
655.846	3.25
656.604	5.25
657.363	4.25
658.121	2.25
658.88	4.25
659.638	3.25
660.397	4.25
661.155	1.25
661.913	1.25
662.671	3.25
663.429	2.25
664.187	2.25
664.945	3.25
665.703	3.25
666.46	1.25
667.218	1.25
667.976	3.25
668.733	2.25
669.49	1.25
670.248	4.25
671.005	3.25
671.762	2.25
672.519	1.25
673.276	0.25
674.033	2.25
674.79	3.25
675.547	4.25
676.304	2.25
677.06	3.25
677.817	3.25
678.574	0.25
679.33	2.25
680.086	1.25
680.843	1.25
681.599	3.25
682.355	2.25
683.111	1.25
683.867	2.25
684.623	2.25
685.379	0.25
686.135	1.25
686.89	0.25
687.646	2.25
688.402	3.25
689.157	3.25
689.912	4.25
690.668	2.25
691.423	3.25
692.178	1.25
692.933	3.25
693.688	2.25
694.443	2.25
695.198	2.25
695.953	3.25
696.708	3.25
697.462	2.25
698.217	2.25
698.972	2.25
699.726	1.25
700.48	2.25
701.235	4.25
701.989	1.25
702.743	2.25
703.497	2.25
704.251	1.25
705.005	1.25
705.759	4.25
706.513	2.25
707.266	-0.75
708.02	0.25
708.774	-1.75
709.527	1.25
710.28	-0.75
711.034	3.25
711.787	0.25
712.54	2.25
713.293	2.25
714.046	2.25
714.799	2.25
715.552	1.25
716.305	3.25
717.058	3.25
717.81	1.25
718.563	4.25
719.315	1.25
720.068	3.25
720.82	2.25
721.573	0.25
722.325	1.25
723.077	4.25
723.829	-0.75
724.581	3.25
725.333	1.25
726.085	1.25
726.836	4.25
727.588	4.25
728.34	2.25
729.091	3.25
729.843	2.25
730.594	2.25
731.346	4.25
732.097	2.25
732.848	2.25
733.599	2.25
734.35	2.25
735.101	2.25
735.852	1.25
736.603	2.25
737.354	2.25
738.104	3.25
738.855	1.25
739.605	2.25
740.356	2.25
741.106	2.25
741.856	2.25
742.607	5.25
743.357	1.25
744.107	5.25
744.857	2.25
745.607	1.25
746.357	1.25
747.106	4.25
747.856	3.25
748.606	3.25
749.355	-1.75
750.105	3.25
750.854	0.25
751.603	4.25
752.353	2.25
753.102	3.25
753.851	1.25
754.6	0.25
755.349	2.25
756.098	4.25
756.847	4.25
757.595	3.25
758.344	2.25
759.093	2.25
759.841	2.25
760.589	4.25
761.338	2.25
762.086	4.25
762.834	4.25
763.582	3.25
764.331	4.25
765.079	4.25
765.826	4.25
766.574	3.25
767.322	4.25
768.07	3.25
768.817	3.25
769.565	4.25
770.312	4.25
771.06	6.25
771.807	4.25
772.554	4.25
773.302	3.25
774.049	4.25
774.796	6.25
775.543	4.25
776.29	4.25
777.036	5.25
777.783	6.25
778.53	3.25
779.276	4.25
780.023	5.25
780.769	3.25
781.516	6.25
782.262	5.25
783.008	4.25
783.754	5.25
784.5	3.25
785.246	5.25
785.992	8.25
786.738	4.25
787.484	7.25
788.23	5.25
788.975	3.25
789.721	2.25
790.466	6.25
791.212	4.25
791.957	5.25
792.702	6.25
793.447	6.25
794.193	6.25
794.938	5.25
795.683	7.25
796.427	4.25
797.172	4.25
797.917	2.25
798.662	5.25
799.406	5.25
800.151	5.25
800.895	4.25
801.64	4.25
802.384	5.25
803.128	3.25
803.872	7.25
804.616	3.25
805.36	4.25
806.104	5.25
806.848	3.25
807.592	5.25
808.336	2.25
809.079	5.25
809.823	4.25
810.566	3.25
811.31	3.25
812.053	2.25
812.796	4.25
813.539	2.25
814.283	4.25
815.026	3.25
815.769	3.25
816.511	3.25
817.254	2.25
817.997	2.25
818.74	3.25
819.482	3.25
820.225	1.25
820.967	3.25
821.71	2.25
822.452	4.25
823.194	4.25
823.936	3.25
824.678	4.25
825.42	3.25
826.162	2.25
826.904	5.25
827.646	1.25
828.388	1.25
829.129	2.25
829.871	5.25
830.612	2.25
831.354	0.25
832.095	2.25
832.836	1.25
833.577	3.25
834.319	2.25
835.06	3.25
835.801	0.25
836.542	2.25
837.282	2.25
838.023	4.25
838.764	3.25
839.504	3.25
840.245	1.25
840.985	1.25
841.726	1.25
842.466	3.25
843.206	4.25
843.946	3.25
844.687	1.25
845.427	4.25
846.166	2.25
846.906	0.25
847.646	2.25
848.386	2.25
849.125	1.25
849.865	2.25
850.605	2.25
851.344	2.25
852.083	1.25
852.823	1.25
853.562	1.25
854.301	4.25
855.04	2.25
855.779	1.25
856.518	1.25
857.257	2.25
857.995	1.25
858.734	1.25
859.473	2.25
860.211	1.25
860.95	2.25
861.688	1.25
862.426	0.25
863.165	0.25
863.903	0.25
864.641	1.25
865.379	0.25
866.117	1.25
866.855	1.25
867.593	3.25
868.33	1.25
869.068	0.25
869.806	1.25
870.543	1.25
871.28	0.25
872.018	1.25
872.755	0.25
873.492	1.25
874.229	1.25
874.967	0.25
875.703	0.25
876.44	1.25
877.177	1.25
877.914	0.25
878.651	2.25
879.387	0.25
880.124	0.25
880.86	2.25
881.597	1.25
882.333	-1.75
883.069	-1.75
883.806	1.25
884.542	-0.75
885.278	3.25
886.014	-1.75
886.749	-0.75
887.485	0.25
888.221	0.25
888.957	2.25
889.692	1.25
890.428	2.25
891.163	2.25
891.899	1.25
892.634	-1.75
893.369	-0.75
894.104	0.25
894.839	1.25
895.574	2.25
896.309	0.25
897.044	0.25
897.779	-0.75
898.514	0.25
899.248	0.25
899.983	0.25
900.717	-1.75
901.452	0.25
902.186	-1.75
902.92	-0.75
903.654	-0.75
904.389	3.25
905.123	-1.75
905.857	-1.75
906.59	0.25
907.324	-0.75
908.058	0.25
908.792	1.25
909.525	0.25
910.259	1.25
910.992	0.25
911.726	1.25
912.459	0.25
913.192	1.25
913.925	1.25
914.658	0.25
915.391	-1.75
916.124	2.25
916.857	2.25
917.59	1.25
918.323	0.25
919.055	0.25
919.788	0.25
920.521	0.25
921.253	3.25
921.985	1.25
922.718	0.25
923.45	1.25
924.182	-2.75
924.914	1.25
925.646	-0.75
926.378	1.25
927.11	0.25
927.841	1.25
928.573	0.25
929.305	0.25
930.036	-0.75
930.768	2.25
931.499	-0.75
932.23	-1.75
932.962	0.25
933.693	1.25
934.424	0.25
935.155	1.25
935.886	1.25
936.617	-0.75
937.348	0.25
938.078	-0.75
938.809	2.25
939.54	0.25
940.27	1.25
941.001	1.25
941.731	1.25
942.461	2.25
943.191	2.25
943.922	0.25
944.652	1.25
945.382	-0.75
946.112	0.25
946.841	-1.75
947.571	0.25
948.301	-1.75
949.031	1.25
949.76	0.25
950.49	1.25
951.219	0.25
951.948	1.25
952.678	1.25
953.407	-0.75
954.136	1.25
954.865	0.25
955.594	-0.75
956.323	0.25
957.052	-0.75
957.78	0.25
958.509	1.25
959.238	0.25
959.966	-0.75
960.695	-1.75
961.423	0.25
962.151	1.25
962.88	2.25
963.608	0.25
964.336	2.25
965.064	-1.75
965.792	-0.75
966.52	-0.75
967.247	1.25
967.975	-0.75
968.703	3.25
969.43	0.25
970.158	-1.75
970.885	-0.75
971.613	1.25
972.34	-0.75
973.067	2.25
973.794	1.25
974.521	-0.75
975.248	-0.75
975.975	-1.75
976.702	-0.75
977.429	0.25
978.156	1.25
978.882	-3.75
979.609	0.25
980.335	1.25
981.062	0.25
981.788	2.25
982.514	-2.75
983.24	2.25
983.967	0.25
984.693	-1.75
985.419	1.25
986.144	1.25
986.87	-0.75
987.596	1.25
988.322	1.25
989.047	0.25
989.773	0.25
990.498	1.25
991.224	1.25
991.949	-0.75
992.674	-0.75
993.399	-1.75
994.124	-0.75
994.849	0.25
995.574	-1.75
996.299	-0.75
997.024	0.25
997.749	-1.75
998.473	1.25
999.198	-2.75
999.922	1.25
1000.647	1.25
1001.371	3.25
1002.095	-0.75
1002.82	-1.75
1003.544	0.25
1004.268	0.25
1004.992	-0.75
1005.716	-0.75
1006.439	-0.75
1007.163	-1.75
1007.887	-1.75
1008.611	-1.75
1009.334	-0.75
1010.058	1.25
1010.781	1.25
1011.504	0.25
1012.228	0.25
1012.951	-0.75
1013.674	-0.75
1014.397	2.25
1015.12	-1.75
