节点500_145_QEPB04081__708__11-40-11-632.txt的数据

Date: Wed Nov 12 11:40:11 CST 2025
User: PC
Spectrometer: QEPB0408
触发模式: 0
积分时间 (秒): 1.000000E-2
Scans to average: 1
启用暗噪声校正: true
启用非线性校正: false
滑动平均宽度: 0
X轴模式: Wavelengths
Number of Pixels in Spectrum: 1044
>>>>>Begin Spectral Data<<<<<
220.843	0.88
221.644	-0.12
222.444	0.88
223.244	0.88
224.045	0.88
224.845	-2.12
225.645	-0.12
226.445	-2.12
227.245	0.88
228.045	-2.12
228.845	-1.12
229.645	-1.12
230.444	-1.12
231.244	-0.12
232.043	0.88
232.843	0.88
233.642	-1.12
234.442	0.88
235.241	-2.12
236.04	-2.12
236.839	1.88
237.638	-1.12
238.437	-1.12
239.236	1.88
240.035	1.88
240.833	1.88
241.632	0.88
242.43	-0.12
243.229	-2.12
244.027	-0.12
244.826	-0.12
245.624	-0.12
246.422	0.88
247.22	1.88
248.018	-0.12
248.816	0.88
249.614	0.88
250.412	0.88
251.21	2.88
252.007	1.88
252.805	0.88
253.602	1.88
254.4	3.88
255.197	0.88
255.994	1.88
256.791	2.88
257.589	4.88
258.386	5.88
259.183	3.88
259.979	2.88
260.776	5.88
261.573	1.88
262.37	3.88
263.166	3.88
263.963	1.88
264.759	1.88
265.556	5.88
266.352	3.88
267.148	3.88
267.944	3.88
268.74	5.88
269.536	6.88
270.332	4.88
271.128	6.88
271.924	7.88
272.719	5.88
273.515	5.88
274.311	6.88
275.106	6.88
275.901	5.88
276.697	7.88
277.492	4.88
278.287	7.88
279.082	6.88
279.877	6.88
280.672	7.88
281.467	6.88
282.262	8.88
283.056	7.88
283.851	9.88
284.646	5.88
285.44	10.88
286.234	8.88
287.029	6.88
287.823	11.88
288.617	6.88
289.411	9.88
290.205	8.88
290.999	10.88
291.793	8.88
292.587	8.88
293.381	7.88
294.174	8.88
294.968	7.88
295.761	7.88
296.555	8.88
297.348	9.88
298.141	7.88
298.935	9.88
299.728	8.88
300.521	8.88
301.314	6.88
302.107	7.88
302.899	7.88
303.692	6.88
304.485	9.88
305.277	6.88
306.07	5.88
306.862	4.88
307.655	7.88
308.447	7.88
309.239	6.88
310.031	8.88
310.823	6.88
311.615	6.88
312.407	4.88
313.199	5.88
313.991	6.88
314.783	2.88
315.574	3.88
316.366	3.88
317.157	7.88
317.949	5.88
318.74	5.88
319.531	4.88
320.322	5.88
321.113	1.88
321.904	1.88
322.695	4.88
323.486	3.88
324.277	1.88
325.068	3.88
325.858	2.88
326.649	1.88
327.439	0.88
328.23	2.88
329.02	1.88
329.81	5.88
330.6	3.88
331.391	1.88
332.181	3.88
332.971	1.88
333.76	3.88
334.55	0.88
335.34	3.88
336.13	3.88
336.919	0.88
337.709	2.88
338.498	0.88
339.287	-0.12
340.077	1.88
340.866	1.88
341.655	0.88
342.444	1.88
343.233	3.88
344.022	2.88
344.811	0.88
345.6	1.88
346.388	1.88
347.177	5.88
347.965	3.88
348.754	4.88
349.542	1.88
350.33	2.88
351.119	1.88
351.907	1.88
352.695	1.88
353.483	0.88
354.271	3.88
355.059	1.88
355.846	2.88
356.634	2.88
357.422	1.88
358.209	0.88
358.997	0.88
359.784	0.88
360.571	0.88
361.359	1.88
362.146	1.88
362.933	3.88
363.72	0.88
364.507	0.88
365.294	1.88
366.081	1.88
366.867	4.88
367.654	1.88
368.44	1.88
369.227	4.88
370.013	0.88
370.8	4.88
371.586	2.88
372.372	0.88
373.158	1.88
373.944	0.88
374.73	0.88
375.516	3.88
376.302	3.88
377.088	2.88
377.873	0.88
378.659	0.88
379.445	0.88
380.23	2.88
381.015	0.88
381.801	0.88
382.586	-0.12
383.371	3.88
384.156	2.88
384.941	2.88
385.726	1.88
386.511	1.88
387.296	2.88
388.08	2.88
388.865	1.88
389.649	0.88
390.434	0.88
391.218	3.88
392.003	0.88
392.787	2.88
393.571	2.88
394.355	2.88
395.139	1.88
395.923	2.88
396.707	-0.12
397.491	2.88
398.274	3.88
399.058	2.88
399.842	0.88
400.625	6.88
401.408	2.88
402.192	2.88
402.975	2.88
403.758	0.88
404.541	4.88
405.324	2.88
406.107	-0.12
406.89	0.88
407.673	4.88
408.456	2.88
409.238	3.88
410.021	2.88
410.803	2.88
411.586	3.88
412.368	2.88
413.151	6.88
413.933	2.88
414.715	2.88
415.497	3.88
416.279	3.88
417.061	4.88
417.843	3.88
418.624	4.88
419.406	2.88
420.188	2.88
420.969	3.88
421.751	3.88
422.532	3.88
423.313	4.88
424.095	6.88
424.876	5.88
425.657	3.88
426.438	5.88
427.219	4.88
428	5.88
428.78	1.88
429.561	6.88
430.342	5.88
431.122	6.88
431.903	5.88
432.683	4.88
433.464	7.88
434.244	6.88
435.024	7.88
435.804	7.88
436.584	10.88
437.364	9.88
438.144	8.88
438.924	7.88
439.704	10.88
440.483	12.88
441.263	10.88
442.042	10.88
442.822	12.88
443.601	14.88
444.38	14.88
445.16	14.88
445.939	16.88
446.718	17.88
447.497	18.88
448.276	24.88
449.054	24.88
449.833	25.88
450.612	23.88
451.391	28.88
452.169	29.88
452.948	32.88
453.726	39.88
454.504	39.88
455.282	46.88
456.061	48.88
456.839	53.88
457.617	61.88
458.395	67.88
459.172	75.88
459.95	79.88
460.728	92.88
461.506	106.88
462.283	115.88
463.061	125.88
463.838	135.88
464.615	158.88
465.393	172.88
466.17	195.88
466.947	217.88
467.724	244.88
468.501	268.88
469.278	296.88
470.055	329.88
470.831	365.88
471.608	404.88
472.385	443.88
473.161	485.88
473.938	546.88
474.714	598.88
475.49	655.88
476.266	728.88
477.043	788.88
477.819	873.88
478.595	976.88
479.371	1066.88
480.146	1158.88
480.922	1272.88
481.698	1394.88
482.473	1509.88
483.249	1658.88
484.024	1835.88
484.8	1993.88
485.575	2174.88
486.35	2374.88
487.126	2600.88
487.901	2810.88
488.676	3096.88
489.451	3381.88
490.225	3697.88
491	4006.88
491.775	4386.88
492.55	4749.88
493.324	5209.88
494.099	5633.88
494.873	6120.88
495.647	6614.88
496.422	7201.88
497.196	7765.88
497.97	8309.88
498.744	8965.88
499.518	9571.88
500.292	10215.88
501.066	10823.88
501.839	11411.88
502.613	12064.88
503.387	12623.88
504.16	13187.88
504.934	13672.88
505.707	14067.88
506.48	14392.88
507.253	14726.88
508.027	14897.88
508.8	14969.88
509.573	15002.88
510.346	14886.88
511.118	14836.88
511.891	14566.88
512.664	14322.88
513.437	13911.88
514.209	13512.88
514.982	13041.88
515.754	12619.88
516.526	12146.88
517.298	11702.88
518.071	11188.88
518.843	10751.88
519.615	10306.88
520.387	9844.88
521.159	9466.88
521.93	9068.88
522.702	8725.88
523.474	8400.88
524.245	8101.88
525.017	7742.88
525.788	7438.88
526.56	7132.88
527.331	6834.88
528.102	6590.88
528.873	6309.88
529.644	6036.88
530.415	5808.88
531.186	5524.88
531.957	5276.88
532.728	5008.88
533.498	4777.88
534.269	4512.88
535.039	4293.88
535.81	4063.88
536.58	3864.88
537.351	3618.88
538.121	3426.88
538.891	3250.88
539.661	3084.88
540.431	2927.88
541.201	2753.88
541.971	2610.88
542.741	2467.88
543.51	2348.88
544.28	2231.88
545.05	2108.88
545.819	2009.88
546.588	1894.88
547.358	1799.88
548.127	1734.88
548.896	1645.88
549.665	1564.88
550.434	1483.88
551.203	1409.88
551.972	1340.88
552.741	1266.88
553.51	1195.88
554.278	1140.88
555.047	1098.88
555.815	1024.88
556.584	957.88
557.352	906.88
558.121	860.88
558.889	811.88
559.657	767.88
560.425	730.88
561.193	684.88
561.961	638.88
562.729	607.88
563.496	567.88
564.264	538.88
565.032	513.88
565.799	486.88
566.567	452.88
567.334	425.88
568.101	410.88
568.869	375.88
569.636	355.88
570.403	339.88
571.17	322.88
571.937	299.88
572.704	284.88
573.471	276.88
574.237	254.88
575.004	240.88
575.771	221.88
576.537	212.88
577.303	201.88
578.07	184.88
578.836	174.88
579.602	171.88
580.368	158.88
581.134	147.88
581.9	144.88
582.666	133.88
583.432	129.88
584.198	117.88
584.964	112.88
585.729	107.88
586.495	100.88
587.26	91.88
588.025	88.88
588.791	82.88
589.556	79.88
590.321	74.88
591.086	72.88
591.851	65.88
592.616	66.88
593.381	62.88
594.146	59.88
594.911	55.88
595.675	51.88
596.44	48.88
597.204	45.88
597.969	46.88
598.733	44.88
599.497	42.88
600.261	40.88
601.025	37.88
601.79	33.88
602.553	32.88
603.317	31.88
604.081	29.88
604.845	28.88
605.609	26.88
606.372	27.88
607.136	26.88
607.899	21.88
608.662	26.88
609.426	22.88
610.189	20.88
610.952	17.88
611.715	22.88
612.478	17.88
613.241	20.88
614.004	19.88
614.767	17.88
615.529	14.88
616.292	16.88
617.055	14.88
617.817	13.88
618.579	12.88
619.342	12.88
620.104	13.88
620.866	12.88
621.628	10.88
622.39	10.88
623.152	11.88
623.914	9.88
624.676	10.88
625.438	10.88
626.199	6.88
626.961	9.88
627.722	8.88
628.484	7.88
629.245	7.88
630.006	8.88
630.768	7.88
631.529	7.88
632.29	6.88
633.051	6.88
633.812	6.88
634.573	5.88
635.333	5.88
636.094	6.88
636.855	5.88
637.615	6.88
638.376	6.88
639.136	4.88
639.896	4.88
640.657	2.88
641.417	2.88
642.177	4.88
642.937	3.88
643.697	4.88
644.457	5.88
645.216	4.88
645.976	4.88
646.736	3.88
647.495	1.88
648.255	5.88
649.014	2.88
649.774	1.88
650.533	4.88
651.292	1.88
652.051	3.88
652.81	2.88
653.569	5.88
654.328	1.88
655.087	3.88
655.846	2.88
656.604	3.88
657.363	1.88
658.121	1.88
658.88	2.88
659.638	0.88
660.397	0.88
661.155	2.88
661.913	2.88
662.671	1.88
663.429	1.88
664.187	3.88
664.945	2.88
665.703	-0.12
666.46	2.88
667.218	2.88
667.976	2.88
668.733	0.88
669.49	1.88
670.248	0.88
671.005	2.88
671.762	3.88
672.519	1.88
673.276	1.88
674.033	0.88
674.79	1.88
675.547	2.88
676.304	1.88
677.06	2.88
677.817	1.88
678.574	2.88
679.33	0.88
680.086	2.88
680.843	1.88
681.599	0.88
682.355	2.88
683.111	0.88
683.867	3.88
684.623	1.88
685.379	2.88
686.135	0.88
686.89	3.88
687.646	1.88
688.402	1.88
689.157	-1.12
689.912	0.88
690.668	-0.12
691.423	1.88
692.178	0.88
692.933	1.88
693.688	-0.12
694.443	-0.12
695.198	1.88
695.953	1.88
696.708	1.88
697.462	-1.12
698.217	-1.12
698.972	-1.12
699.726	2.88
700.48	0.88
701.235	-0.12
701.989	1.88
702.743	1.88
703.497	0.88
704.251	-0.12
705.005	4.88
705.759	1.88
706.513	-0.12
707.266	-1.12
708.02	0.88
708.774	-0.12
709.527	0.88
710.28	2.88
711.034	-0.12
711.787	-0.12
712.54	-1.12
713.293	1.88
714.046	-0.12
714.799	-1.12
715.552	2.88
716.305	-0.12
717.058	0.88
717.81	-0.12
718.563	0.88
719.315	-0.12
720.068	-1.12
720.82	-0.12
721.573	1.88
722.325	-0.12
723.077	1.88
723.829	1.88
724.581	1.88
725.333	-0.12
726.085	2.88
726.836	0.88
727.588	-0.12
728.34	1.88
729.091	2.88
729.843	1.88
730.594	1.88
731.346	0.88
732.097	1.88
732.848	0.88
733.599	1.88
734.35	-1.12
735.101	0.88
735.852	0.88
736.603	1.88
737.354	-0.12
738.104	-0.12
738.855	2.88
739.605	-0.12
740.356	2.88
741.106	-0.12
741.856	1.88
742.607	1.88
743.357	2.88
744.107	1.88
744.857	0.88
745.607	1.88
746.357	0.88
747.106	2.88
747.856	-0.12
748.606	1.88
749.355	0.88
750.105	1.88
750.854	0.88
751.603	0.88
752.353	1.88
753.102	3.88
753.851	2.88
754.6	1.88
755.349	1.88
756.098	3.88
756.847	1.88
757.595	2.88
758.344	1.88
759.093	0.88
759.841	2.88
760.589	0.88
761.338	3.88
762.086	-0.12
762.834	1.88
763.582	2.88
764.331	-0.12
765.079	1.88
765.826	1.88
766.574	5.88
767.322	1.88
768.07	1.88
768.817	1.88
769.565	1.88
770.312	2.88
771.06	2.88
771.807	4.88
772.554	3.88
773.302	1.88
774.049	2.88
774.796	3.88
775.543	3.88
776.29	2.88
777.036	3.88
777.783	6.88
778.53	1.88
779.276	2.88
780.023	2.88
780.769	1.88
781.516	4.88
782.262	3.88
783.008	2.88
783.754	3.88
784.5	3.88
785.246	2.88
785.992	5.88
786.738	1.88
787.484	2.88
788.23	3.88
788.975	2.88
789.721	4.88
790.466	4.88
791.212	4.88
791.957	3.88
792.702	5.88
793.447	2.88
794.193	2.88
794.938	3.88
795.683	3.88
796.427	3.88
797.172	1.88
797.917	4.88
798.662	3.88
799.406	2.88
800.151	2.88
800.895	5.88
801.64	2.88
802.384	3.88
803.128	2.88
803.872	3.88
804.616	3.88
805.36	4.88
806.104	1.88
806.848	0.88
807.592	0.88
808.336	4.88
809.079	2.88
809.823	2.88
810.566	3.88
811.31	3.88
812.053	1.88
812.796	1.88
813.539	2.88
814.283	1.88
815.026	3.88
815.769	3.88
816.511	1.88
817.254	2.88
817.997	0.88
818.74	2.88
819.482	1.88
820.225	1.88
820.967	0.88
821.71	0.88
822.452	2.88
823.194	1.88
823.936	2.88
824.678	1.88
825.42	1.88
826.162	2.88
826.904	0.88
827.646	2.88
828.388	0.88
829.129	1.88
829.871	1.88
830.612	0.88
831.354	1.88
832.095	0.88
832.836	5.88
833.577	0.88
834.319	1.88
835.06	3.88
835.801	0.88
836.542	0.88
837.282	1.88
838.023	-0.12
838.764	1.88
839.504	0.88
840.245	2.88
840.985	2.88
841.726	1.88
842.466	0.88
843.206	3.88
843.946	-0.12
844.687	0.88
845.427	0.88
846.166	0.88
846.906	2.88
847.646	-0.12
848.386	1.88
849.125	1.88
849.865	2.88
850.605	0.88
851.344	1.88
852.083	1.88
852.823	1.88
853.562	1.88
854.301	-0.12
855.04	0.88
855.779	1.88
856.518	0.88
857.257	3.88
857.995	-1.12
858.734	-0.12
859.473	-0.12
860.211	0.88
860.95	-0.12
861.688	0.88
862.426	-0.12
863.165	1.88
863.903	1.88
864.641	0.88
865.379	0.88
866.117	1.88
866.855	-2.12
867.593	0.88
868.33	0.88
869.068	0.88
869.806	-0.12
870.543	-0.12
871.28	1.88
872.018	0.88
872.755	-1.12
873.492	-1.12
874.229	1.88
874.967	-0.12
875.703	-0.12
876.44	0.88
877.177	1.88
877.914	-0.12
878.651	-2.12
879.387	0.88
880.124	1.88
880.86	-0.12
881.597	1.88
882.333	0.88
883.069	1.88
883.806	0.88
884.542	0.88
885.278	2.88
886.014	0.88
886.749	-1.12
887.485	0.88
888.221	-0.12
888.957	-2.12
889.692	1.88
890.428	-1.12
891.163	-1.12
891.899	-0.12
892.634	-1.12
893.369	-1.12
894.104	-2.12
894.839	0.88
895.574	-0.12
896.309	-2.12
897.044	2.88
897.779	0.88
898.514	0.88
899.248	0.88
899.983	0.88
900.717	-0.12
901.452	0.88
902.186	0.88
902.92	-1.12
903.654	0.88
904.389	0.88
905.123	1.88
905.857	0.88
906.59	-1.12
907.324	0.88
908.058	-1.12
908.792	-1.12
909.525	-1.12
910.259	0.88
910.992	0.88
911.726	-2.12
912.459	-0.12
913.192	-2.12
913.925	-1.12
914.658	1.88
915.391	-0.12
916.124	-2.12
916.857	0.88
917.59	-1.12
918.323	-2.12
919.055	0.88
919.788	-0.12
920.521	-0.12
921.253	0.88
921.985	0.88
922.718	-2.12
923.45	0.88
924.182	-1.12
924.914	-1.12
925.646	-1.12
926.378	-0.12
927.11	-3.12
927.841	-1.12
928.573	-1.12
929.305	0.88
930.036	-0.12
930.768	-0.12
931.499	0.88
932.23	-0.12
932.962	-0.12
933.693	-1.12
934.424	0.88
935.155	-1.12
935.886	0.88
936.617	-0.12
937.348	0.88
938.078	-0.12
938.809	-1.12
939.54	-0.12
940.27	-0.12
941.001	-0.12
941.731	-1.12
942.461	-2.12
943.191	0.88
943.922	-3.12
944.652	-0.12
945.382	0.88
946.112	-0.12
946.841	-4.12
947.571	-1.12
948.301	-1.12
949.031	-2.12
949.76	-1.12
950.49	1.88
951.219	-0.12
951.948	0.88
952.678	-2.12
953.407	-0.12
954.136	-0.12
954.865	0.88
955.594	0.88
956.323	-0.12
957.052	-3.12
957.78	-1.12
958.509	0.88
959.238	-2.12
959.966	0.88
960.695	1.88
961.423	-0.12
962.151	-1.12
962.88	-2.12
963.608	-0.12
964.336	-2.12
965.064	-2.12
965.792	-2.12
966.52	-2.12
967.247	1.88
967.975	-0.12
968.703	-0.12
969.43	0.88
970.158	-0.12
970.885	-1.12
971.613	0.88
972.34	-0.12
973.067	-2.12
973.794	-0.12
974.521	-0.12
975.248	-1.12
975.975	0.88
976.702	-0.12
977.429	-3.12
978.156	-1.12
978.882	1.88
979.609	-1.12
980.335	-0.12
981.062	-0.12
981.788	-2.12
982.514	-1.12
983.24	-2.12
983.967	-0.12
984.693	-1.12
985.419	-2.12
986.144	-1.12
986.87	-0.12
987.596	-0.12
988.322	-1.12
989.047	0.88
989.773	0.88
990.498	0.88
991.224	-0.12
991.949	0.88
992.674	0.88
993.399	-3.12
994.124	-1.12
994.849	-1.12
995.574	-2.12
996.299	1.88
997.024	0.88
997.749	-0.12
998.473	-4.12
999.198	2.88
999.922	-2.12
1000.647	-1.12
1001.371	5.88
1002.095	-1.12
1002.82	-3.12
1003.544	-2.12
1004.268	-2.12
1004.992	-0.12
1005.716	-3.12
1006.439	-0.12
1007.163	-2.12
1007.887	-1.12
1008.611	-1.12
1009.334	0.88
1010.058	-0.12
1010.781	-0.12
1011.504	0.88
1012.228	0.88
1012.951	-1.12
1013.674	1.88
1014.397	0.88
1015.12	-1.12
