节点500_145_QEPB04081__143__11-31-13-620.txt的数据

Date: Wed Nov 12 11:31:13 CST 2025
User: PC
Spectrometer: QEPB0408
触发模式: 0
积分时间 (秒): 1.000000E-2
Scans to average: 1
启用暗噪声校正: true
启用非线性校正: false
滑动平均宽度: 0
X轴模式: Wavelengths
Number of Pixels in Spectrum: 1044
>>>>>Begin Spectral Data<<<<<
220.843	2.38
221.644	-0.62
222.444	0.38
223.244	-1.62
224.045	0.38
224.845	2.38
225.645	0.38
226.445	3.38
227.245	1.38
228.045	1.38
228.845	0.38
229.645	1.38
230.444	1.38
231.244	1.38
232.043	0.38
232.843	2.38
233.642	-1.62
234.442	1.38
235.241	2.38
236.04	0.38
236.839	2.38
237.638	2.38
238.437	0.38
239.236	0.38
240.035	0.38
240.833	2.38
241.632	2.38
242.43	1.38
243.229	2.38
244.027	0.38
244.826	1.38
245.624	2.38
246.422	2.38
247.22	3.38
248.018	5.38
248.816	2.38
249.614	1.38
250.412	2.38
251.21	4.38
252.007	2.38
252.805	5.38
253.602	2.38
254.4	4.38
255.197	4.38
255.994	5.38
256.791	2.38
257.589	0.38
258.386	5.38
259.183	5.38
259.979	4.38
260.776	6.38
261.573	2.38
262.37	4.38
263.166	3.38
263.963	6.38
264.759	4.38
265.556	5.38
266.352	4.38
267.148	5.38
267.944	6.38
268.74	6.38
269.536	9.38
270.332	8.38
271.128	9.38
271.924	7.38
272.719	7.38
273.515	9.38
274.311	11.38
275.106	9.38
275.901	7.38
276.697	9.38
277.492	10.38
278.287	10.38
279.082	10.38
279.877	10.38
280.672	11.38
281.467	11.38
282.262	10.38
283.056	10.38
283.851	10.38
284.646	11.38
285.44	11.38
286.234	10.38
287.029	12.38
287.823	13.38
288.617	12.38
289.411	9.38
290.205	13.38
290.999	10.38
291.793	11.38
292.587	13.38
293.381	8.38
294.174	10.38
294.968	11.38
295.761	11.38
296.555	8.38
297.348	10.38
298.141	12.38
298.935	11.38
299.728	12.38
300.521	8.38
301.314	9.38
302.107	9.38
302.899	11.38
303.692	8.38
304.485	8.38
305.277	11.38
306.07	9.38
306.862	7.38
307.655	10.38
308.447	9.38
309.239	7.38
310.031	11.38
310.823	6.38
311.615	6.38
312.407	5.38
313.199	7.38
313.991	7.38
314.783	7.38
315.574	7.38
316.366	7.38
317.157	5.38
317.949	6.38
318.74	2.38
319.531	2.38
320.322	6.38
321.113	5.38
321.904	7.38
322.695	5.38
323.486	3.38
324.277	3.38
325.068	5.38
325.858	3.38
326.649	4.38
327.439	5.38
328.23	3.38
329.02	4.38
329.81	2.38
330.6	3.38
331.391	3.38
332.181	2.38
332.971	5.38
333.76	3.38
334.55	3.38
335.34	4.38
336.13	3.38
336.919	3.38
337.709	2.38
338.498	4.38
339.287	3.38
340.077	2.38
340.866	5.38
341.655	3.38
342.444	3.38
343.233	5.38
344.022	2.38
344.811	3.38
345.6	1.38
346.388	1.38
347.177	4.38
347.965	3.38
348.754	2.38
349.542	3.38
350.33	2.38
351.119	2.38
351.907	4.38
352.695	1.38
353.483	5.38
354.271	1.38
355.059	3.38
355.846	3.38
356.634	3.38
357.422	2.38
358.209	3.38
358.997	1.38
359.784	3.38
360.571	4.38
361.359	3.38
362.146	3.38
362.933	3.38
363.72	2.38
364.507	2.38
365.294	1.38
366.081	3.38
366.867	2.38
367.654	2.38
368.44	3.38
369.227	3.38
370.013	1.38
370.8	1.38
371.586	1.38
372.372	3.38
373.158	0.38
373.944	4.38
374.73	3.38
375.516	2.38
376.302	4.38
377.088	2.38
377.873	3.38
378.659	2.38
379.445	4.38
380.23	4.38
381.015	2.38
381.801	3.38
382.586	2.38
383.371	2.38
384.156	4.38
384.941	2.38
385.726	4.38
386.511	2.38
387.296	1.38
388.08	2.38
388.865	4.38
389.649	5.38
390.434	2.38
391.218	3.38
392.003	2.38
392.787	4.38
393.571	3.38
394.355	4.38
395.139	0.38
395.923	3.38
396.707	3.38
397.491	4.38
398.274	2.38
399.058	3.38
399.842	4.38
400.625	3.38
401.408	5.38
402.192	4.38
402.975	3.38
403.758	5.38
404.541	2.38
405.324	3.38
406.107	2.38
406.89	6.38
407.673	2.38
408.456	6.38
409.238	5.38
410.021	5.38
410.803	5.38
411.586	4.38
412.368	5.38
413.151	4.38
413.933	3.38
414.715	4.38
415.497	4.38
416.279	7.38
417.061	3.38
417.843	5.38
418.624	5.38
419.406	5.38
420.188	5.38
420.969	6.38
421.751	7.38
422.532	5.38
423.313	7.38
424.095	8.38
424.876	6.38
425.657	6.38
426.438	5.38
427.219	7.38
428	6.38
428.78	8.38
429.561	5.38
430.342	9.38
431.122	8.38
431.903	7.38
432.683	9.38
433.464	9.38
434.244	8.38
435.024	8.38
435.804	8.38
436.584	7.38
437.364	10.38
438.144	10.38
438.924	10.38
439.704	12.38
440.483	11.38
441.263	10.38
442.042	12.38
442.822	12.38
443.601	15.38
444.38	15.38
445.16	15.38
445.939	15.38
446.718	16.38
447.497	20.38
448.276	20.38
449.054	22.38
449.833	24.38
450.612	24.38
451.391	25.38
452.169	30.38
452.948	32.38
453.726	32.38
454.504	35.38
455.282	42.38
456.061	41.38
456.839	45.38
457.617	53.38
458.395	58.38
459.172	62.38
459.95	72.38
460.728	78.38
461.506	85.38
462.283	95.38
463.061	107.38
463.838	124.38
464.615	129.38
465.393	147.38
466.17	163.38
466.947	181.38
467.724	207.38
468.501	229.38
469.278	251.38
470.055	282.38
470.831	321.38
471.608	357.38
472.385	397.38
473.161	439.38
473.938	493.38
474.714	544.38
475.49	608.38
476.266	674.38
477.043	755.38
477.819	830.38
478.595	926.38
479.371	1013.38
480.146	1141.38
480.922	1266.38
481.698	1403.38
482.473	1539.38
483.249	1719.38
484.024	1901.38
484.8	2103.38
485.575	2322.38
486.35	2578.38
487.126	2861.38
487.901	3149.38
488.676	3483.38
489.451	3861.38
490.225	4241.38
491	4707.38
491.775	5181.38
492.55	5661.38
493.324	6237.38
494.099	6856.38
494.873	7473.38
495.647	8170.38
496.422	8923.38
497.196	9633.38
497.97	10430.38
498.744	11240.38
499.518	12062.38
500.292	12816.38
501.066	13536.38
501.839	14301.38
502.613	14997.38
503.387	15625.38
504.16	16119.38
504.934	16522.38
505.707	16887.38
506.48	17070.38
507.253	17171.38
508.027	17244.38
508.8	17053.38
509.573	16817.38
510.346	16473.38
511.118	16091.38
511.891	15583.38
512.664	14970.38
513.437	14501.38
514.209	13900.38
514.982	13261.38
515.754	12706.38
516.526	12115.38
517.298	11553.38
518.071	11057.38
518.843	10576.38
519.615	10115.38
520.387	9708.38
521.159	9342.38
521.93	8949.38
522.702	8572.38
523.474	8212.38
524.245	7912.38
525.017	7609.38
525.788	7288.38
526.56	7018.38
527.331	6680.38
528.102	6420.38
528.873	6094.38
529.644	5837.38
530.415	5573.38
531.186	5263.38
531.957	4981.38
532.728	4745.38
533.498	4490.38
534.269	4238.38
535.039	3984.38
535.81	3759.38
536.58	3563.38
537.351	3363.38
538.121	3172.38
538.891	2989.38
539.661	2809.38
540.431	2683.38
541.201	2536.38
541.971	2384.38
542.741	2272.38
543.51	2159.38
544.28	2035.38
545.05	1931.38
545.819	1854.38
546.588	1752.38
547.358	1665.38
548.127	1576.38
548.896	1521.38
549.665	1430.38
550.434	1360.38
551.203	1278.38
551.972	1229.38
552.741	1172.38
553.51	1104.38
554.278	1029.38
555.047	985.38
555.815	918.38
556.584	861.38
557.352	816.38
558.121	762.38
558.889	731.38
559.657	677.38
560.425	652.38
561.193	596.38
561.961	569.38
562.729	529.38
563.496	498.38
564.264	478.38
565.032	453.38
565.799	431.38
566.567	402.38
567.334	386.38
568.101	358.38
568.869	342.38
569.636	325.38
570.403	299.38
571.17	291.38
571.937	268.38
572.704	250.38
573.471	238.38
574.237	223.38
575.004	213.38
575.771	198.38
576.537	190.38
577.303	178.38
578.07	168.38
578.836	156.38
579.602	146.38
580.368	136.38
581.134	131.38
581.9	124.38
582.666	118.38
583.432	115.38
584.198	111.38
584.964	101.38
585.729	100.38
586.495	90.38
587.26	85.38
588.025	81.38
588.791	77.38
589.556	75.38
590.321	69.38
591.086	63.38
591.851	62.38
592.616	56.38
593.381	55.38
594.146	53.38
594.911	51.38
595.675	49.38
596.44	46.38
597.204	41.38
597.969	41.38
598.733	42.38
599.497	37.38
600.261	37.38
601.025	32.38
601.79	33.38
602.553	32.38
603.317	32.38
604.081	28.38
604.845	29.38
605.609	26.38
606.372	25.38
607.136	24.38
607.899	25.38
608.662	22.38
609.426	19.38
610.189	19.38
610.952	19.38
611.715	17.38
612.478	16.38
613.241	17.38
614.004	16.38
614.767	17.38
615.529	12.38
616.292	15.38
617.055	14.38
617.817	15.38
618.579	10.38
619.342	10.38
620.104	13.38
620.866	10.38
621.628	12.38
622.39	10.38
623.152	11.38
623.914	11.38
624.676	8.38
625.438	13.38
626.199	8.38
626.961	8.38
627.722	10.38
628.484	6.38
629.245	10.38
630.006	7.38
630.768	9.38
631.529	7.38
632.29	6.38
633.051	7.38
633.812	6.38
634.573	5.38
635.333	5.38
636.094	8.38
636.855	5.38
637.615	7.38
638.376	7.38
639.136	5.38
639.896	2.38
640.657	6.38
641.417	3.38
642.177	3.38
642.937	5.38
643.697	5.38
644.457	6.38
645.216	5.38
645.976	3.38
646.736	6.38
647.495	2.38
648.255	3.38
649.014	3.38
649.774	2.38
650.533	2.38
651.292	3.38
652.051	3.38
652.81	3.38
653.569	4.38
654.328	3.38
655.087	1.38
655.846	3.38
656.604	3.38
657.363	4.38
658.121	1.38
658.88	4.38
659.638	0.38
660.397	2.38
661.155	3.38
661.913	5.38
662.671	1.38
663.429	5.38
664.187	3.38
664.945	2.38
665.703	2.38
666.46	3.38
667.218	2.38
667.976	2.38
668.733	2.38
669.49	1.38
670.248	2.38
671.005	2.38
671.762	2.38
672.519	2.38
673.276	3.38
674.033	1.38
674.79	3.38
675.547	1.38
676.304	0.38
677.06	5.38
677.817	2.38
678.574	2.38
679.33	1.38
680.086	0.38
680.843	2.38
681.599	0.38
682.355	4.38
683.111	1.38
683.867	1.38
684.623	3.38
685.379	2.38
686.135	1.38
686.89	1.38
687.646	0.38
688.402	3.38
689.157	0.38
689.912	4.38
690.668	1.38
691.423	1.38
692.178	-0.62
692.933	2.38
693.688	2.38
694.443	2.38
695.198	2.38
695.953	0.38
696.708	2.38
697.462	-0.62
698.217	4.38
698.972	3.38
699.726	2.38
700.48	2.38
701.235	0.38
701.989	2.38
702.743	2.38
703.497	2.38
704.251	1.38
705.005	4.38
705.759	3.38
706.513	2.38
707.266	1.38
708.02	0.38
708.774	4.38
709.527	2.38
710.28	1.38
711.034	3.38
711.787	1.38
712.54	2.38
713.293	1.38
714.046	4.38
714.799	1.38
715.552	2.38
716.305	1.38
717.058	2.38
717.81	3.38
718.563	0.38
719.315	2.38
720.068	1.38
720.82	1.38
721.573	2.38
722.325	2.38
723.077	1.38
723.829	0.38
724.581	0.38
725.333	1.38
726.085	2.38
726.836	2.38
727.588	3.38
728.34	2.38
729.091	-1.62
729.843	2.38
730.594	2.38
731.346	2.38
732.097	2.38
732.848	2.38
733.599	4.38
734.35	1.38
735.101	2.38
735.852	1.38
736.603	1.38
737.354	3.38
738.104	3.38
738.855	4.38
739.605	1.38
740.356	0.38
741.106	3.38
741.856	3.38
742.607	2.38
743.357	1.38
744.107	2.38
744.857	2.38
745.607	2.38
746.357	2.38
747.106	1.38
747.856	2.38
748.606	2.38
749.355	2.38
750.105	2.38
750.854	2.38
751.603	3.38
752.353	1.38
753.102	5.38
753.851	2.38
754.6	1.38
755.349	3.38
756.098	1.38
756.847	2.38
757.595	4.38
758.344	2.38
759.093	2.38
759.841	4.38
760.589	5.38
761.338	2.38
762.086	4.38
762.834	4.38
763.582	2.38
764.331	4.38
765.079	4.38
765.826	5.38
766.574	3.38
767.322	3.38
768.07	2.38
768.817	4.38
769.565	5.38
770.312	5.38
771.06	5.38
771.807	2.38
772.554	4.38
773.302	4.38
774.049	5.38
774.796	4.38
775.543	3.38
776.29	4.38
777.036	5.38
777.783	6.38
778.53	4.38
779.276	4.38
780.023	6.38
780.769	7.38
781.516	5.38
782.262	4.38
783.008	6.38
783.754	5.38
784.5	5.38
785.246	5.38
785.992	4.38
786.738	7.38
787.484	6.38
788.23	6.38
788.975	5.38
789.721	6.38
790.466	4.38
791.212	2.38
791.957	5.38
792.702	5.38
793.447	6.38
794.193	7.38
794.938	3.38
795.683	3.38
796.427	5.38
797.172	6.38
797.917	5.38
798.662	5.38
799.406	5.38
800.151	4.38
800.895	5.38
801.64	4.38
802.384	5.38
803.128	3.38
803.872	7.38
804.616	3.38
805.36	4.38
806.104	4.38
806.848	2.38
807.592	4.38
808.336	4.38
809.079	4.38
809.823	4.38
810.566	2.38
811.31	6.38
812.053	3.38
812.796	5.38
813.539	3.38
814.283	3.38
815.026	3.38
815.769	2.38
816.511	4.38
817.254	3.38
817.997	1.38
818.74	1.38
819.482	4.38
820.225	2.38
820.967	4.38
821.71	3.38
822.452	3.38
823.194	4.38
823.936	4.38
824.678	3.38
825.42	4.38
826.162	5.38
826.904	2.38
827.646	1.38
828.388	2.38
829.129	2.38
829.871	3.38
830.612	2.38
831.354	0.38
832.095	2.38
832.836	1.38
833.577	1.38
834.319	3.38
835.06	4.38
835.801	2.38
836.542	3.38
837.282	1.38
838.023	1.38
838.764	1.38
839.504	3.38
840.245	2.38
840.985	3.38
841.726	-1.62
842.466	3.38
843.206	0.38
843.946	4.38
844.687	1.38
845.427	2.38
846.166	2.38
846.906	1.38
847.646	1.38
848.386	2.38
849.125	1.38
849.865	2.38
850.605	2.38
851.344	2.38
852.083	1.38
852.823	2.38
853.562	-1.62
854.301	3.38
855.04	2.38
855.779	3.38
856.518	2.38
857.257	1.38
857.995	2.38
858.734	1.38
859.473	4.38
860.211	2.38
860.95	0.38
861.688	2.38
862.426	-1.62
863.165	2.38
863.903	0.38
864.641	1.38
865.379	1.38
866.117	2.38
866.855	3.38
867.593	1.38
868.33	1.38
869.068	-0.62
869.806	0.38
870.543	1.38
871.28	1.38
872.018	4.38
872.755	-0.62
873.492	3.38
874.229	-1.62
874.967	1.38
875.703	2.38
876.44	2.38
877.177	2.38
877.914	-0.62
878.651	2.38
879.387	1.38
880.124	-0.62
880.86	1.38
881.597	-0.62
882.333	3.38
883.069	1.38
883.806	0.38
884.542	1.38
885.278	2.38
886.014	1.38
886.749	-1.62
887.485	2.38
888.221	0.38
888.957	0.38
889.692	0.38
890.428	-0.62
891.163	2.38
891.899	-0.62
892.634	-1.62
893.369	0.38
894.104	3.38
894.839	0.38
895.574	0.38
896.309	1.38
897.044	-1.62
897.779	0.38
898.514	3.38
899.248	0.38
899.983	-1.62
900.717	0.38
901.452	-0.62
902.186	1.38
902.92	0.38
903.654	2.38
904.389	-1.62
905.123	1.38
905.857	-0.62
906.59	0.38
907.324	0.38
908.058	0.38
908.792	-0.62
909.525	0.38
910.259	-0.62
910.992	1.38
911.726	-2.62
912.459	0.38
913.192	2.38
913.925	1.38
914.658	0.38
915.391	2.38
916.124	-1.62
916.857	0.38
917.59	1.38
918.323	0.38
919.055	1.38
919.788	2.38
920.521	0.38
921.253	-1.62
921.985	-0.62
922.718	-0.62
923.45	0.38
924.182	-1.62
924.914	0.38
925.646	0.38
926.378	-2.62
927.11	-1.62
927.841	0.38
928.573	3.38
929.305	1.38
930.036	0.38
930.768	0.38
931.499	-1.62
932.23	0.38
932.962	0.38
933.693	0.38
934.424	1.38
935.155	0.38
935.886	0.38
936.617	-1.62
937.348	1.38
938.078	1.38
938.809	0.38
939.54	-0.62
940.27	0.38
941.001	0.38
941.731	-1.62
942.461	1.38
943.191	1.38
943.922	1.38
944.652	0.38
945.382	-2.62
946.112	-0.62
946.841	0.38
947.571	0.38
948.301	0.38
949.031	0.38
949.76	0.38
950.49	-0.62
951.219	0.38
951.948	1.38
952.678	1.38
953.407	0.38
954.136	0.38
954.865	2.38
955.594	-0.62
956.323	0.38
957.052	0.38
957.78	1.38
958.509	-0.62
959.238	0.38
959.966	-0.62
960.695	-1.62
961.423	0.38
962.151	0.38
962.88	0.38
963.608	-2.62
964.336	0.38
965.064	1.38
965.792	0.38
966.52	0.38
967.247	-1.62
967.975	-1.62
968.703	-1.62
969.43	-1.62
970.158	-0.62
970.885	-1.62
971.613	3.38
972.34	-1.62
973.067	1.38
973.794	-1.62
974.521	-1.62
975.248	-1.62
975.975	-0.62
976.702	2.38
977.429	1.38
978.156	1.38
978.882	0.38
979.609	-1.62
980.335	2.38
981.062	-1.62
981.788	1.38
982.514	-0.62
983.24	1.38
983.967	1.38
984.693	0.38
985.419	0.38
986.144	0.38
986.87	2.38
987.596	0.38
988.322	0.38
989.047	2.38
989.773	0.38
990.498	-0.62
991.224	-1.62
991.949	-0.62
992.674	2.38
993.399	2.38
994.124	0.38
994.849	-2.62
995.574	-0.62
996.299	-1.62
997.024	0.38
997.749	-1.62
998.473	1.38
999.198	2.38
999.922	-0.62
1000.647	-0.62
1001.371	3.38
1002.095	0.38
1002.82	0.38
1003.544	-0.62
1004.268	2.38
1004.992	-0.62
1005.716	-0.62
1006.439	0.38
1007.163	0.38
1007.887	-2.62
1008.611	-1.62
1009.334	1.38
1010.058	2.38
1010.781	0.38
1011.504	0.38
1012.228	0.38
1012.951	-1.62
1013.674	0.38
1014.397	-1.62
1015.12	-0.62
