节点500_145_QEPB04081__74__11-30-08-686.txt的数据

Date: Wed Nov 12 11:30:08 CST 2025
User: PC
Spectrometer: QEPB0408
触发模式: 0
积分时间 (秒): 1.000000E-2
Scans to average: 1
启用暗噪声校正: true
启用非线性校正: false
滑动平均宽度: 0
X轴模式: Wavelengths
Number of Pixels in Spectrum: 1044
>>>>>Begin Spectral Data<<<<<
220.843	2.5
221.644	0.5
222.444	1.5
223.244	-1.5
224.045	2.5
224.845	-4.5
225.645	-0.5
226.445	1.5
227.245	1.5
228.045	0.5
228.845	-1.5
229.645	4.5
230.444	2.5
231.244	-1.5
232.043	1.5
232.843	1.5
233.642	1.5
234.442	1.5
235.241	1.5
236.04	2.5
236.839	1.5
237.638	2.5
238.437	1.5
239.236	2.5
240.035	2.5
240.833	1.5
241.632	1.5
242.43	2.5
243.229	2.5
244.027	1.5
244.826	2.5
245.624	2.5
246.422	4.5
247.22	3.5
248.018	2.5
248.816	1.5
249.614	0.5
250.412	2.5
251.21	1.5
252.007	3.5
252.805	2.5
253.602	2.5
254.4	4.5
255.197	3.5
255.994	4.5
256.791	5.5
257.589	3.5
258.386	4.5
259.183	4.5
259.979	5.5
260.776	4.5
261.573	6.5
262.37	5.5
263.166	5.5
263.963	5.5
264.759	8.5
265.556	5.5
266.352	4.5
267.148	6.5
267.944	6.5
268.74	7.5
269.536	8.5
270.332	10.5
271.128	8.5
271.924	6.5
272.719	9.5
273.515	9.5
274.311	9.5
275.106	8.5
275.901	13.5
276.697	10.5
277.492	9.5
278.287	8.5
279.082	11.5
279.877	11.5
280.672	10.5
281.467	10.5
282.262	10.5
283.056	9.5
283.851	12.5
284.646	11.5
285.44	10.5
286.234	12.5
287.029	12.5
287.823	9.5
288.617	11.5
289.411	12.5
290.205	13.5
290.999	11.5
291.793	13.5
292.587	10.5
293.381	13.5
294.174	8.5
294.968	13.5
295.761	10.5
296.555	8.5
297.348	9.5
298.141	8.5
298.935	11.5
299.728	9.5
300.521	8.5
301.314	10.5
302.107	10.5
302.899	8.5
303.692	8.5
304.485	9.5
305.277	9.5
306.07	8.5
306.862	7.5
307.655	8.5
308.447	9.5
309.239	10.5
310.031	11.5
310.823	7.5
311.615	7.5
312.407	7.5
313.199	7.5
313.991	7.5
314.783	5.5
315.574	5.5
316.366	6.5
317.157	6.5
317.949	6.5
318.74	3.5
319.531	6.5
320.322	6.5
321.113	5.5
321.904	4.5
322.695	3.5
323.486	3.5
324.277	6.5
325.068	5.5
325.858	2.5
326.649	5.5
327.439	5.5
328.23	3.5
329.02	4.5
329.81	3.5
330.6	3.5
331.391	3.5
332.181	1.5
332.971	4.5
333.76	5.5
334.55	3.5
335.34	4.5
336.13	4.5
336.919	2.5
337.709	5.5
338.498	3.5
339.287	2.5
340.077	2.5
340.866	4.5
341.655	3.5
342.444	4.5
343.233	4.5
344.022	3.5
344.811	4.5
345.6	5.5
346.388	4.5
347.177	4.5
347.965	4.5
348.754	5.5
349.542	2.5
350.33	1.5
351.119	2.5
351.907	2.5
352.695	6.5
353.483	2.5
354.271	3.5
355.059	3.5
355.846	5.5
356.634	3.5
357.422	2.5
358.209	4.5
358.997	3.5
359.784	4.5
360.571	1.5
361.359	3.5
362.146	2.5
362.933	3.5
363.72	1.5
364.507	3.5
365.294	3.5
366.081	2.5
366.867	2.5
367.654	3.5
368.44	2.5
369.227	3.5
370.013	3.5
370.8	5.5
371.586	2.5
372.372	2.5
373.158	3.5
373.944	2.5
374.73	3.5
375.516	4.5
376.302	1.5
377.088	1.5
377.873	0.5
378.659	4.5
379.445	2.5
380.23	2.5
381.015	3.5
381.801	2.5
382.586	4.5
383.371	2.5
384.156	3.5
384.941	2.5
385.726	4.5
386.511	3.5
387.296	1.5
388.08	2.5
388.865	1.5
389.649	5.5
390.434	0.5
391.218	0.5
392.003	4.5
392.787	3.5
393.571	5.5
394.355	2.5
395.139	2.5
395.923	2.5
396.707	0.5
397.491	4.5
398.274	5.5
399.058	3.5
399.842	4.5
400.625	4.5
401.408	2.5
402.192	3.5
402.975	3.5
403.758	3.5
404.541	2.5
405.324	2.5
406.107	3.5
406.89	6.5
407.673	4.5
408.456	5.5
409.238	2.5
410.021	6.5
410.803	4.5
411.586	4.5
412.368	3.5
413.151	3.5
413.933	4.5
414.715	4.5
415.497	5.5
416.279	5.5
417.061	5.5
417.843	4.5
418.624	7.5
419.406	6.5
420.188	4.5
420.969	7.5
421.751	4.5
422.532	4.5
423.313	6.5
424.095	6.5
424.876	7.5
425.657	5.5
426.438	9.5
427.219	8.5
428	7.5
428.78	6.5
429.561	7.5
430.342	4.5
431.122	7.5
431.903	10.5
432.683	9.5
433.464	7.5
434.244	10.5
435.024	9.5
435.804	7.5
436.584	11.5
437.364	10.5
438.144	11.5
438.924	12.5
439.704	14.5
440.483	12.5
441.263	14.5
442.042	10.5
442.822	12.5
443.601	16.5
444.38	14.5
445.16	16.5
445.939	16.5
446.718	18.5
447.497	21.5
448.276	19.5
449.054	19.5
449.833	21.5
450.612	23.5
451.391	26.5
452.169	28.5
452.948	30.5
453.726	34.5
454.504	33.5
455.282	37.5
456.061	40.5
456.839	44.5
457.617	52.5
458.395	56.5
459.172	62.5
459.95	67.5
460.728	72.5
461.506	85.5
462.283	93.5
463.061	103.5
463.838	112.5
464.615	129.5
465.393	146.5
466.17	162.5
466.947	175.5
467.724	197.5
468.501	221.5
469.278	248.5
470.055	273.5
470.831	309.5
471.608	349.5
472.385	382.5
473.161	435.5
473.938	479.5
474.714	535.5
475.49	594.5
476.266	662.5
477.043	733.5
477.819	827.5
478.595	903.5
479.371	1019.5
480.146	1136.5
480.922	1265.5
481.698	1396.5
482.473	1557.5
483.249	1706.5
484.024	1901.5
484.8	2109.5
485.575	2319.5
486.35	2588.5
487.126	2889.5
487.901	3147.5
488.676	3501.5
489.451	3920.5
490.225	4301.5
491	4772.5
491.775	5270.5
492.55	5804.5
493.324	6384.5
494.099	7003.5
494.873	7652.5
495.647	8408.5
496.422	9134.5
497.196	9911.5
497.97	10707.5
498.744	11500.5
499.518	12375.5
500.292	13132.5
501.066	13921.5
501.839	14624.5
502.613	15322.5
503.387	15923.5
504.16	16481.5
504.934	16891.5
505.707	17168.5
506.48	17390.5
507.253	17411.5
508.027	17436.5
508.8	17216.5
509.573	16905.5
510.346	16524.5
511.118	16105.5
511.891	15610.5
512.664	15023.5
513.437	14434.5
514.209	13889.5
514.982	13215.5
515.754	12625.5
516.526	12071.5
517.298	11501.5
518.071	11001.5
518.843	10467.5
519.615	10007.5
520.387	9626.5
521.159	9209.5
521.93	8866.5
522.702	8489.5
523.474	8175.5
524.245	7881.5
525.017	7565.5
525.788	7257.5
526.56	6970.5
527.331	6657.5
528.102	6360.5
528.873	6046.5
529.644	5781.5
530.415	5491.5
531.186	5246.5
531.957	4930.5
532.728	4646.5
533.498	4407.5
534.269	4162.5
535.039	3936.5
535.81	3702.5
536.58	3511.5
537.351	3323.5
538.121	3114.5
538.891	2970.5
539.661	2782.5
540.431	2624.5
541.201	2510.5
541.971	2356.5
542.741	2223.5
543.51	2125.5
544.28	2011.5
545.05	1909.5
545.819	1834.5
546.588	1726.5
547.358	1658.5
548.127	1567.5
548.896	1497.5
549.665	1405.5
550.434	1340.5
551.203	1269.5
551.972	1198.5
552.741	1143.5
553.51	1071.5
554.278	1029.5
555.047	952.5
555.815	899.5
556.584	853.5
557.352	791.5
558.121	748.5
558.889	701.5
559.657	665.5
560.425	628.5
561.193	598.5
561.961	563.5
562.729	521.5
563.496	494.5
564.264	475.5
565.032	445.5
565.799	413.5
566.567	397.5
567.334	373.5
568.101	353.5
568.869	335.5
569.636	316.5
570.403	295.5
571.17	285.5
571.937	261.5
572.704	245.5
573.471	226.5
574.237	222.5
575.004	210.5
575.771	198.5
576.537	190.5
577.303	176.5
578.07	163.5
578.836	158.5
579.602	144.5
580.368	133.5
581.134	129.5
581.9	120.5
582.666	116.5
583.432	110.5
584.198	102.5
584.964	100.5
585.729	89.5
586.495	87.5
587.26	85.5
588.025	76.5
588.791	76.5
589.556	69.5
590.321	65.5
591.086	67.5
591.851	61.5
592.616	57.5
593.381	52.5
594.146	51.5
594.911	47.5
595.675	47.5
596.44	48.5
597.204	41.5
597.969	44.5
598.733	39.5
599.497	38.5
600.261	33.5
601.025	32.5
601.79	29.5
602.553	30.5
603.317	29.5
604.081	29.5
604.845	26.5
605.609	24.5
606.372	22.5
607.136	23.5
607.899	21.5
608.662	21.5
609.426	21.5
610.189	18.5
610.952	19.5
611.715	17.5
612.478	18.5
613.241	16.5
614.004	18.5
614.767	15.5
615.529	12.5
616.292	15.5
617.055	14.5
617.817	13.5
618.579	13.5
619.342	10.5
620.104	13.5
620.866	10.5
621.628	10.5
622.39	10.5
623.152	12.5
623.914	10.5
624.676	10.5
625.438	10.5
626.199	8.5
626.961	9.5
627.722	8.5
628.484	7.5
629.245	6.5
630.006	9.5
630.768	8.5
631.529	7.5
632.29	6.5
633.051	4.5
633.812	8.5
634.573	8.5
635.333	10.5
636.094	5.5
636.855	7.5
637.615	6.5
638.376	6.5
639.136	5.5
639.896	5.5
640.657	5.5
641.417	4.5
642.177	3.5
642.937	5.5
643.697	5.5
644.457	6.5
645.216	5.5
645.976	5.5
646.736	4.5
647.495	1.5
648.255	5.5
649.014	3.5
649.774	6.5
650.533	5.5
651.292	3.5
652.051	3.5
652.81	3.5
653.569	3.5
654.328	4.5
655.087	5.5
655.846	6.5
656.604	3.5
657.363	2.5
658.121	0.5
658.88	5.5
659.638	4.5
660.397	4.5
661.155	4.5
661.913	1.5
662.671	4.5
663.429	1.5
664.187	2.5
664.945	3.5
665.703	2.5
666.46	1.5
667.218	2.5
667.976	5.5
668.733	2.5
669.49	2.5
670.248	2.5
671.005	1.5
671.762	3.5
672.519	1.5
673.276	4.5
674.033	3.5
674.79	2.5
675.547	1.5
676.304	2.5
677.06	2.5
677.817	2.5
678.574	3.5
679.33	2.5
680.086	2.5
680.843	1.5
681.599	2.5
682.355	5.5
683.111	2.5
683.867	3.5
684.623	3.5
685.379	2.5
686.135	1.5
686.89	2.5
687.646	1.5
688.402	3.5
689.157	3.5
689.912	3.5
690.668	3.5
691.423	2.5
692.178	1.5
692.933	2.5
693.688	-0.5
694.443	0.5
695.198	3.5
695.953	2.5
696.708	3.5
697.462	1.5
698.217	1.5
698.972	3.5
699.726	1.5
700.48	0.5
701.235	1.5
701.989	5.5
702.743	1.5
703.497	0.5
704.251	1.5
705.005	2.5
705.759	0.5
706.513	4.5
707.266	2.5
708.02	1.5
708.774	6.5
709.527	2.5
710.28	2.5
711.034	2.5
711.787	3.5
712.54	-1.5
713.293	1.5
714.046	3.5
714.799	1.5
715.552	3.5
716.305	3.5
717.058	2.5
717.81	0.5
718.563	1.5
719.315	3.5
720.068	3.5
720.82	3.5
721.573	2.5
722.325	4.5
723.077	2.5
723.829	2.5
724.581	3.5
725.333	2.5
726.085	3.5
726.836	2.5
727.588	4.5
728.34	3.5
729.091	1.5
729.843	3.5
730.594	3.5
731.346	2.5
732.097	1.5
732.848	2.5
733.599	3.5
734.35	2.5
735.101	0.5
735.852	2.5
736.603	2.5
737.354	2.5
738.104	0.5
738.855	2.5
739.605	3.5
740.356	1.5
741.106	2.5
741.856	2.5
742.607	3.5
743.357	1.5
744.107	2.5
744.857	2.5
745.607	3.5
746.357	3.5
747.106	0.5
747.856	2.5
748.606	0.5
749.355	1.5
750.105	3.5
750.854	3.5
751.603	3.5
752.353	2.5
753.102	4.5
753.851	4.5
754.6	5.5
755.349	5.5
756.098	4.5
756.847	2.5
757.595	0.5
758.344	3.5
759.093	2.5
759.841	3.5
760.589	5.5
761.338	3.5
762.086	3.5
762.834	6.5
763.582	4.5
764.331	1.5
765.079	3.5
765.826	3.5
766.574	5.5
767.322	5.5
768.07	2.5
768.817	5.5
769.565	5.5
770.312	6.5
771.06	3.5
771.807	3.5
772.554	4.5
773.302	3.5
774.049	5.5
774.796	2.5
775.543	6.5
776.29	5.5
777.036	6.5
777.783	7.5
778.53	3.5
779.276	5.5
780.023	6.5
780.769	5.5
781.516	5.5
782.262	5.5
783.008	5.5
783.754	3.5
784.5	8.5
785.246	5.5
785.992	6.5
786.738	4.5
787.484	7.5
788.23	6.5
788.975	4.5
789.721	6.5
790.466	7.5
791.212	7.5
791.957	4.5
792.702	4.5
793.447	8.5
794.193	5.5
794.938	5.5
795.683	4.5
796.427	6.5
797.172	1.5
797.917	5.5
798.662	5.5
799.406	2.5
800.151	3.5
800.895	5.5
801.64	4.5
802.384	5.5
803.128	4.5
803.872	5.5
804.616	1.5
805.36	6.5
806.104	2.5
806.848	4.5
807.592	6.5
808.336	3.5
809.079	5.5
809.823	5.5
810.566	3.5
811.31	4.5
812.053	5.5
812.796	5.5
813.539	3.5
814.283	5.5
815.026	4.5
815.769	2.5
816.511	4.5
817.254	4.5
817.997	2.5
818.74	2.5
819.482	3.5
820.225	4.5
820.967	5.5
821.71	1.5
822.452	1.5
823.194	4.5
823.936	5.5
824.678	4.5
825.42	3.5
826.162	1.5
826.904	4.5
827.646	2.5
828.388	4.5
829.129	3.5
829.871	1.5
830.612	2.5
831.354	3.5
832.095	1.5
832.836	3.5
833.577	4.5
834.319	2.5
835.06	1.5
835.801	2.5
836.542	2.5
837.282	1.5
838.023	1.5
838.764	2.5
839.504	2.5
840.245	3.5
840.985	2.5
841.726	2.5
842.466	2.5
843.206	1.5
843.946	3.5
844.687	1.5
845.427	3.5
846.166	1.5
846.906	2.5
847.646	2.5
848.386	1.5
849.125	4.5
849.865	3.5
850.605	-0.5
851.344	0.5
852.083	3.5
852.823	2.5
853.562	0.5
854.301	1.5
855.04	0.5
855.779	0.5
856.518	3.5
857.257	0.5
857.995	0.5
858.734	-0.5
859.473	2.5
860.211	2.5
860.95	2.5
861.688	2.5
862.426	-0.5
863.165	3.5
863.903	0.5
864.641	3.5
865.379	0.5
866.117	2.5
866.855	0.5
867.593	2.5
868.33	2.5
869.068	0.5
869.806	1.5
870.543	2.5
871.28	0.5
872.018	0.5
872.755	-0.5
873.492	2.5
874.229	1.5
874.967	2.5
875.703	1.5
876.44	-1.5
877.177	-0.5
877.914	1.5
878.651	0.5
879.387	0.5
880.124	-0.5
880.86	2.5
881.597	3.5
882.333	2.5
883.069	1.5
883.806	2.5
884.542	0.5
885.278	2.5
886.014	2.5
886.749	-0.5
887.485	2.5
888.221	1.5
888.957	0.5
889.692	-0.5
890.428	1.5
891.163	0.5
891.899	0.5
892.634	1.5
893.369	1.5
894.104	1.5
894.839	-0.5
895.574	0.5
896.309	1.5
897.044	-0.5
897.779	1.5
898.514	0.5
899.248	0.5
899.983	1.5
900.717	1.5
901.452	1.5
902.186	3.5
902.92	-0.5
903.654	0.5
904.389	-1.5
905.123	2.5
905.857	1.5
906.59	1.5
907.324	0.5
908.058	0.5
908.792	1.5
909.525	-0.5
910.259	0.5
910.992	1.5
911.726	0.5
912.459	-0.5
913.192	0.5
913.925	0.5
914.658	-1.5
915.391	0.5
916.124	-2.5
916.857	1.5
917.59	0.5
918.323	1.5
919.055	-0.5
919.788	0.5
920.521	-0.5
921.253	1.5
921.985	1.5
922.718	-0.5
923.45	0.5
924.182	1.5
924.914	0.5
925.646	2.5
926.378	0.5
927.11	-1.5
927.841	2.5
928.573	1.5
929.305	2.5
930.036	-1.5
930.768	0.5
931.499	-0.5
932.23	-0.5
932.962	-0.5
933.693	1.5
934.424	1.5
935.155	0.5
935.886	-0.5
936.617	-1.5
937.348	-0.5
938.078	0.5
938.809	1.5
939.54	-0.5
940.27	0.5
941.001	-0.5
941.731	-0.5
942.461	2.5
943.191	0.5
943.922	1.5
944.652	-1.5
945.382	-0.5
946.112	2.5
946.841	-1.5
947.571	0.5
948.301	0.5
949.031	1.5
949.76	1.5
950.49	0.5
951.219	-0.5
951.948	-0.5
952.678	0.5
953.407	0.5
954.136	-1.5
954.865	0.5
955.594	-1.5
956.323	1.5
957.052	-1.5
957.78	1.5
958.509	-0.5
959.238	-2.5
959.966	0.5
960.695	-0.5
961.423	1.5
962.151	0.5
962.88	0.5
963.608	-1.5
964.336	-1.5
965.064	-0.5
965.792	-1.5
966.52	1.5
967.247	1.5
967.975	0.5
968.703	1.5
969.43	1.5
970.158	0.5
970.885	2.5
971.613	1.5
972.34	0.5
973.067	0.5
973.794	1.5
974.521	1.5
975.248	-1.5
975.975	0.5
976.702	-0.5
977.429	-0.5
978.156	2.5
978.882	0.5
979.609	0.5
980.335	1.5
981.062	-1.5
981.788	2.5
982.514	-0.5
983.24	0.5
983.967	-1.5
984.693	-1.5
985.419	1.5
986.144	3.5
986.87	2.5
987.596	2.5
988.322	0.5
989.047	-1.5
989.773	1.5
990.498	0.5
991.224	-0.5
991.949	0.5
992.674	2.5
993.399	-1.5
994.124	0.5
994.849	-1.5
995.574	0.5
996.299	1.5
997.024	-1.5
997.749	1.5
998.473	1.5
999.198	0.5
999.922	-0.5
1000.647	1.5
1001.371	2.5
1002.095	-1.5
1002.82	-0.5
1003.544	-2.5
1004.268	2.5
1004.992	-0.5
1005.716	-1.5
1006.439	0.5
1007.163	2.5
1007.887	0.5
1008.611	2.5
1009.334	2.5
1010.058	-1.5
1010.781	0.5
1011.504	1.5
1012.228	-3.5
1012.951	-0.5
1013.674	0.5
1014.397	0.5
1015.12	1.5
