节点500_145_QEPB04081__263__11-33-11-494.txt的数据

Date: Wed Nov 12 11:33:11 CST 2025
User: PC
Spectrometer: QEPB0408
触发模式: 0
积分时间 (秒): 1.000000E-2
Scans to average: 1
启用暗噪声校正: true
启用非线性校正: false
滑动平均宽度: 0
X轴模式: Wavelengths
Number of Pixels in Spectrum: 1044
>>>>>Begin Spectral Data<<<<<
220.843	-1.38
221.644	-2.38
222.444	0.62
223.244	0.62
224.045	1.62
224.845	-1.38
225.645	-0.38
226.445	0.62
227.245	0.62
228.045	-0.38
228.845	0.62
229.645	0.62
230.444	0.62
231.244	-0.38
232.043	2.62
232.843	2.62
233.642	-1.38
234.442	0.62
235.241	2.62
236.04	3.62
236.839	1.62
237.638	2.62
238.437	0.62
239.236	-1.38
240.035	-0.38
240.833	3.62
241.632	2.62
242.43	1.62
243.229	2.62
244.027	1.62
244.826	1.62
245.624	2.62
246.422	0.62
247.22	2.62
248.018	1.62
248.816	3.62
249.614	2.62
250.412	0.62
251.21	3.62
252.007	1.62
252.805	4.62
253.602	0.62
254.4	4.62
255.197	3.62
255.994	3.62
256.791	3.62
257.589	3.62
258.386	1.62
259.183	3.62
259.979	3.62
260.776	3.62
261.573	6.62
262.37	4.62
263.166	5.62
263.963	5.62
264.759	4.62
265.556	5.62
266.352	6.62
267.148	7.62
267.944	7.62
268.74	7.62
269.536	6.62
270.332	7.62
271.128	8.62
271.924	5.62
272.719	9.62
273.515	8.62
274.311	8.62
275.106	9.62
275.901	9.62
276.697	9.62
277.492	9.62
278.287	8.62
279.082	10.62
279.877	9.62
280.672	11.62
281.467	8.62
282.262	8.62
283.056	9.62
283.851	10.62
284.646	10.62
285.44	11.62
286.234	12.62
287.029	11.62
287.823	14.62
288.617	10.62
289.411	10.62
290.205	10.62
290.999	11.62
291.793	13.62
292.587	11.62
293.381	11.62
294.174	11.62
294.968	10.62
295.761	11.62
296.555	9.62
297.348	8.62
298.141	10.62
298.935	9.62
299.728	10.62
300.521	8.62
301.314	10.62
302.107	6.62
302.899	8.62
303.692	6.62
304.485	7.62
305.277	9.62
306.07	8.62
306.862	8.62
307.655	7.62
308.447	9.62
309.239	10.62
310.031	8.62
310.823	4.62
311.615	7.62
312.407	8.62
313.199	6.62
313.991	9.62
314.783	6.62
315.574	7.62
316.366	4.62
317.157	5.62
317.949	3.62
318.74	5.62
319.531	5.62
320.322	4.62
321.113	7.62
321.904	5.62
322.695	4.62
323.486	6.62
324.277	2.62
325.068	3.62
325.858	5.62
326.649	5.62
327.439	4.62
328.23	4.62
329.02	3.62
329.81	3.62
330.6	3.62
331.391	3.62
332.181	2.62
332.971	5.62
333.76	2.62
334.55	5.62
335.34	3.62
336.13	3.62
336.919	4.62
337.709	4.62
338.498	3.62
339.287	1.62
340.077	0.62
340.866	4.62
341.655	2.62
342.444	1.62
343.233	2.62
344.022	5.62
344.811	1.62
345.6	3.62
346.388	3.62
347.177	4.62
347.965	4.62
348.754	5.62
349.542	5.62
350.33	2.62
351.119	4.62
351.907	1.62
352.695	4.62
353.483	4.62
354.271	2.62
355.059	3.62
355.846	4.62
356.634	3.62
357.422	2.62
358.209	2.62
358.997	3.62
359.784	4.62
360.571	1.62
361.359	2.62
362.146	3.62
362.933	0.62
363.72	3.62
364.507	2.62
365.294	1.62
366.081	1.62
366.867	3.62
367.654	4.62
368.44	4.62
369.227	4.62
370.013	3.62
370.8	2.62
371.586	3.62
372.372	2.62
373.158	2.62
373.944	1.62
374.73	5.62
375.516	3.62
376.302	3.62
377.088	3.62
377.873	2.62
378.659	2.62
379.445	3.62
380.23	2.62
381.015	2.62
381.801	1.62
382.586	3.62
383.371	2.62
384.156	3.62
384.941	5.62
385.726	2.62
386.511	5.62
387.296	3.62
388.08	2.62
388.865	0.62
389.649	3.62
390.434	2.62
391.218	4.62
392.003	2.62
392.787	2.62
393.571	4.62
394.355	1.62
395.139	2.62
395.923	3.62
396.707	3.62
397.491	4.62
398.274	2.62
399.058	5.62
399.842	2.62
400.625	4.62
401.408	3.62
402.192	3.62
402.975	4.62
403.758	4.62
404.541	2.62
405.324	5.62
406.107	3.62
406.89	4.62
407.673	3.62
408.456	5.62
409.238	3.62
410.021	8.62
410.803	2.62
411.586	4.62
412.368	5.62
413.151	4.62
413.933	5.62
414.715	5.62
415.497	4.62
416.279	6.62
417.061	7.62
417.843	5.62
418.624	5.62
419.406	4.62
420.188	5.62
420.969	5.62
421.751	5.62
422.532	7.62
423.313	6.62
424.095	4.62
424.876	5.62
425.657	7.62
426.438	7.62
427.219	7.62
428	7.62
428.78	8.62
429.561	8.62
430.342	7.62
431.122	7.62
431.903	7.62
432.683	8.62
433.464	5.62
434.244	5.62
435.024	8.62
435.804	8.62
436.584	9.62
437.364	9.62
438.144	11.62
438.924	12.62
439.704	10.62
440.483	10.62
441.263	13.62
442.042	11.62
442.822	14.62
443.601	15.62
444.38	14.62
445.16	17.62
445.939	15.62
446.718	18.62
447.497	17.62
448.276	20.62
449.054	21.62
449.833	22.62
450.612	26.62
451.391	26.62
452.169	29.62
452.948	31.62
453.726	35.62
454.504	39.62
455.282	38.62
456.061	43.62
456.839	48.62
457.617	54.62
458.395	61.62
459.172	65.62
459.95	72.62
460.728	85.62
461.506	90.62
462.283	99.62
463.061	116.62
463.838	127.62
464.615	139.62
465.393	154.62
466.17	175.62
466.947	194.62
467.724	207.62
468.501	242.62
469.278	269.62
470.055	292.62
470.831	328.62
471.608	365.62
472.385	409.62
473.161	455.62
473.938	502.62
474.714	563.62
475.49	625.62
476.266	687.62
477.043	763.62
477.819	842.62
478.595	935.62
479.371	1056.62
480.146	1145.62
480.922	1271.62
481.698	1416.62
482.473	1545.62
483.249	1722.62
484.024	1864.62
484.8	2071.62
485.575	2283.62
486.35	2524.62
487.126	2768.62
487.901	3057.62
488.676	3370.62
489.451	3732.62
490.225	4081.62
491	4489.62
491.775	4952.62
492.55	5424.62
493.324	5968.62
494.099	6505.62
494.873	7072.62
495.647	7729.62
496.422	8373.62
497.196	9073.62
497.97	9805.62
498.744	10563.62
499.518	11315.62
500.292	12040.62
501.066	12792.62
501.839	13456.62
502.613	14126.62
503.387	14737.62
504.16	15329.62
504.934	15764.62
505.707	16099.62
506.48	16352.62
507.253	16587.62
508.027	16573.62
508.8	16546.62
509.573	16399.62
510.346	16120.62
511.118	15719.62
511.891	15359.62
512.664	14878.62
513.437	14373.62
514.209	13807.62
514.982	13311.62
515.754	12763.62
516.526	12194.62
517.298	11657.62
518.071	11097.62
518.843	10617.62
519.615	10164.62
520.387	9768.62
521.159	9328.62
521.93	8966.62
522.702	8580.62
523.474	8302.62
524.245	7949.62
525.017	7641.62
525.788	7338.62
526.56	7036.62
527.331	6751.62
528.102	6414.62
528.873	6150.62
529.644	5883.62
530.415	5646.62
531.186	5345.62
531.957	5086.62
532.728	4820.62
533.498	4537.62
534.269	4309.62
535.039	4077.62
535.81	3849.62
536.58	3621.62
537.351	3431.62
538.121	3229.62
538.891	3050.62
539.661	2883.62
540.431	2722.62
541.201	2594.62
541.971	2454.62
542.741	2304.62
543.51	2192.62
544.28	2092.62
545.05	1998.62
545.819	1896.62
546.588	1795.62
547.358	1708.62
548.127	1623.62
548.896	1539.62
549.665	1470.62
550.434	1401.62
551.203	1322.62
551.972	1237.62
552.741	1191.62
553.51	1124.62
554.278	1062.62
555.047	984.62
555.815	939.62
556.584	892.62
557.352	843.62
558.121	791.62
558.889	735.62
559.657	696.62
560.425	657.62
561.193	625.62
561.961	585.62
562.729	549.62
563.496	523.62
564.264	500.62
565.032	454.62
565.799	444.62
566.567	420.62
567.334	397.62
568.101	375.62
568.869	345.62
569.636	324.62
570.403	314.62
571.17	296.62
571.937	269.62
572.704	256.62
573.471	243.62
574.237	231.62
575.004	216.62
575.771	201.62
576.537	193.62
577.303	178.62
578.07	170.62
578.836	164.62
579.602	153.62
580.368	149.62
581.134	141.62
581.9	131.62
582.666	122.62
583.432	114.62
584.198	112.62
584.964	98.62
585.729	96.62
586.495	94.62
587.26	88.62
588.025	85.62
588.791	77.62
589.556	71.62
590.321	69.62
591.086	69.62
591.851	61.62
592.616	60.62
593.381	58.62
594.146	50.62
594.911	49.62
595.675	50.62
596.44	47.62
597.204	44.62
597.969	43.62
598.733	42.62
599.497	39.62
600.261	37.62
601.025	37.62
601.79	35.62
602.553	30.62
603.317	27.62
604.081	27.62
604.845	27.62
605.609	28.62
606.372	29.62
607.136	24.62
607.899	24.62
608.662	19.62
609.426	24.62
610.189	22.62
610.952	17.62
611.715	17.62
612.478	21.62
613.241	19.62
614.004	16.62
614.767	16.62
615.529	16.62
616.292	14.62
617.055	14.62
617.817	14.62
618.579	14.62
619.342	15.62
620.104	12.62
620.866	12.62
621.628	12.62
622.39	10.62
623.152	12.62
623.914	13.62
624.676	10.62
625.438	9.62
626.199	10.62
626.961	9.62
627.722	8.62
628.484	5.62
629.245	8.62
630.006	5.62
630.768	8.62
631.529	5.62
632.29	6.62
633.051	6.62
633.812	5.62
634.573	8.62
635.333	5.62
636.094	7.62
636.855	7.62
637.615	7.62
638.376	5.62
639.136	3.62
639.896	7.62
640.657	2.62
641.417	5.62
642.177	5.62
642.937	5.62
643.697	6.62
644.457	4.62
645.216	4.62
645.976	6.62
646.736	4.62
647.495	3.62
648.255	5.62
649.014	6.62
649.774	2.62
650.533	4.62
651.292	4.62
652.051	4.62
652.81	1.62
653.569	4.62
654.328	5.62
655.087	2.62
655.846	3.62
656.604	2.62
657.363	3.62
658.121	2.62
658.88	2.62
659.638	5.62
660.397	2.62
661.155	5.62
661.913	3.62
662.671	3.62
663.429	1.62
664.187	3.62
664.945	3.62
665.703	0.62
666.46	3.62
667.218	3.62
667.976	2.62
668.733	2.62
669.49	1.62
670.248	5.62
671.005	3.62
671.762	5.62
672.519	3.62
673.276	1.62
674.033	4.62
674.79	0.62
675.547	3.62
676.304	1.62
677.06	3.62
677.817	2.62
678.574	2.62
679.33	2.62
680.086	1.62
680.843	5.62
681.599	0.62
682.355	0.62
683.111	1.62
683.867	2.62
684.623	5.62
685.379	2.62
686.135	2.62
686.89	3.62
687.646	0.62
688.402	1.62
689.157	1.62
689.912	2.62
690.668	2.62
691.423	1.62
692.178	2.62
692.933	3.62
693.688	1.62
694.443	2.62
695.198	3.62
695.953	2.62
696.708	4.62
697.462	1.62
698.217	5.62
698.972	1.62
699.726	2.62
700.48	4.62
701.235	2.62
701.989	3.62
702.743	2.62
703.497	2.62
704.251	1.62
705.005	2.62
705.759	2.62
706.513	2.62
707.266	2.62
708.02	2.62
708.774	0.62
709.527	0.62
710.28	-1.38
711.034	1.62
711.787	2.62
712.54	3.62
713.293	2.62
714.046	3.62
714.799	2.62
715.552	0.62
716.305	3.62
717.058	2.62
717.81	3.62
718.563	3.62
719.315	2.62
720.068	2.62
720.82	2.62
721.573	4.62
722.325	2.62
723.077	3.62
723.829	0.62
724.581	1.62
725.333	2.62
726.085	-0.38
726.836	3.62
727.588	1.62
728.34	2.62
729.091	1.62
729.843	0.62
730.594	3.62
731.346	1.62
732.097	3.62
732.848	3.62
733.599	3.62
734.35	-0.38
735.101	0.62
735.852	3.62
736.603	2.62
737.354	4.62
738.104	1.62
738.855	2.62
739.605	5.62
740.356	3.62
741.106	1.62
741.856	1.62
742.607	2.62
743.357	3.62
744.107	1.62
744.857	2.62
745.607	2.62
746.357	3.62
747.106	2.62
747.856	1.62
748.606	2.62
749.355	3.62
750.105	2.62
750.854	1.62
751.603	3.62
752.353	3.62
753.102	1.62
753.851	2.62
754.6	2.62
755.349	2.62
756.098	3.62
756.847	1.62
757.595	2.62
758.344	1.62
759.093	5.62
759.841	2.62
760.589	3.62
761.338	4.62
762.086	4.62
762.834	1.62
763.582	5.62
764.331	1.62
765.079	2.62
765.826	2.62
766.574	3.62
767.322	6.62
768.07	3.62
768.817	2.62
769.565	3.62
770.312	4.62
771.06	3.62
771.807	5.62
772.554	6.62
773.302	4.62
774.049	2.62
774.796	3.62
775.543	4.62
776.29	3.62
777.036	3.62
777.783	3.62
778.53	4.62
779.276	5.62
780.023	4.62
780.769	5.62
781.516	5.62
782.262	2.62
783.008	5.62
783.754	5.62
784.5	5.62
785.246	5.62
785.992	4.62
786.738	5.62
787.484	3.62
788.23	4.62
788.975	4.62
789.721	6.62
790.466	4.62
791.212	5.62
791.957	4.62
792.702	5.62
793.447	5.62
794.193	5.62
794.938	5.62
795.683	5.62
796.427	4.62
797.172	3.62
797.917	4.62
798.662	2.62
799.406	5.62
800.151	3.62
800.895	4.62
801.64	4.62
802.384	5.62
803.128	5.62
803.872	5.62
804.616	4.62
805.36	3.62
806.104	6.62
806.848	3.62
807.592	6.62
808.336	5.62
809.079	3.62
809.823	5.62
810.566	2.62
811.31	3.62
812.053	2.62
812.796	5.62
813.539	2.62
814.283	3.62
815.026	2.62
815.769	3.62
816.511	2.62
817.254	2.62
817.997	3.62
818.74	3.62
819.482	5.62
820.225	3.62
820.967	3.62
821.71	5.62
822.452	4.62
823.194	3.62
823.936	3.62
824.678	4.62
825.42	5.62
826.162	2.62
826.904	1.62
827.646	3.62
828.388	3.62
829.129	1.62
829.871	4.62
830.612	5.62
831.354	0.62
832.095	2.62
832.836	1.62
833.577	3.62
834.319	1.62
835.06	4.62
835.801	2.62
836.542	2.62
837.282	4.62
838.023	2.62
838.764	1.62
839.504	2.62
840.245	5.62
840.985	1.62
841.726	1.62
842.466	1.62
843.206	2.62
843.946	1.62
844.687	4.62
845.427	0.62
846.166	2.62
846.906	2.62
847.646	1.62
848.386	1.62
849.125	0.62
849.865	2.62
850.605	2.62
851.344	1.62
852.083	1.62
852.823	1.62
853.562	1.62
854.301	2.62
855.04	3.62
855.779	1.62
856.518	1.62
857.257	1.62
857.995	1.62
858.734	3.62
859.473	3.62
860.211	1.62
860.95	-0.38
861.688	3.62
862.426	1.62
863.165	2.62
863.903	2.62
864.641	1.62
865.379	0.62
866.117	2.62
866.855	1.62
867.593	0.62
868.33	2.62
869.068	0.62
869.806	2.62
870.543	1.62
871.28	0.62
872.018	1.62
872.755	-0.38
873.492	0.62
874.229	1.62
874.967	2.62
875.703	2.62
876.44	1.62
877.177	0.62
877.914	0.62
878.651	3.62
879.387	-0.38
880.124	1.62
880.86	-1.38
881.597	2.62
882.333	3.62
883.069	0.62
883.806	2.62
884.542	0.62
885.278	0.62
886.014	1.62
886.749	-1.38
887.485	1.62
888.221	0.62
888.957	0.62
889.692	1.62
890.428	1.62
891.163	0.62
891.899	3.62
892.634	-0.38
893.369	-0.38
894.104	1.62
894.839	-1.38
895.574	-0.38
896.309	0.62
897.044	1.62
897.779	1.62
898.514	-0.38
899.248	1.62
899.983	0.62
900.717	1.62
901.452	1.62
902.186	-1.38
902.92	-0.38
903.654	2.62
904.389	2.62
905.123	0.62
905.857	0.62
906.59	0.62
907.324	-1.38
908.058	0.62
908.792	0.62
909.525	0.62
910.259	0.62
910.992	0.62
911.726	1.62
912.459	-1.38
913.192	3.62
913.925	-0.38
914.658	-1.38
915.391	1.62
916.124	1.62
916.857	0.62
917.59	-0.38
918.323	-0.38
919.055	0.62
919.788	1.62
920.521	1.62
921.253	-0.38
921.985	1.62
922.718	0.62
923.45	-0.38
924.182	-0.38
924.914	-0.38
925.646	0.62
926.378	1.62
927.11	0.62
927.841	-1.38
928.573	0.62
929.305	0.62
930.036	1.62
930.768	0.62
931.499	0.62
932.23	1.62
932.962	-2.38
933.693	1.62
934.424	1.62
935.155	2.62
935.886	-0.38
936.617	0.62
937.348	0.62
938.078	0.62
938.809	1.62
939.54	1.62
940.27	2.62
941.001	-0.38
941.731	0.62
942.461	1.62
943.191	0.62
943.922	0.62
944.652	2.62
945.382	-0.38
946.112	0.62
946.841	-1.38
947.571	-1.38
948.301	2.62
949.031	1.62
949.76	0.62
950.49	-2.38
951.219	1.62
951.948	-0.38
952.678	-1.38
953.407	0.62
954.136	-1.38
954.865	0.62
955.594	0.62
956.323	-2.38
957.052	1.62
957.78	1.62
958.509	-0.38
959.238	-0.38
959.966	0.62
960.695	2.62
961.423	0.62
962.151	0.62
962.88	1.62
963.608	0.62
964.336	1.62
965.064	0.62
965.792	0.62
966.52	-1.38
967.247	1.62
967.975	1.62
968.703	-0.38
969.43	0.62
970.158	-0.38
970.885	2.62
971.613	1.62
972.34	-0.38
973.067	1.62
973.794	2.62
974.521	5.62
975.248	-1.38
975.975	0.62
976.702	0.62
977.429	-0.38
978.156	0.62
978.882	1.62
979.609	-1.38
980.335	-0.38
981.062	-0.38
981.788	-0.38
982.514	-0.38
983.24	0.62
983.967	-0.38
984.693	1.62
985.419	0.62
986.144	0.62
986.87	0.62
987.596	-0.38
988.322	1.62
989.047	1.62
989.773	-0.38
990.498	0.62
991.224	0.62
991.949	1.62
992.674	-0.38
993.399	-1.38
994.124	1.62
994.849	0.62
995.574	1.62
996.299	-0.38
997.024	0.62
997.749	0.62
998.473	1.62
999.198	0.62
999.922	-1.38
1000.647	-0.38
1001.371	3.62
1002.095	-0.38
1002.82	0.62
1003.544	-1.38
1004.268	-1.38
1004.992	0.62
1005.716	-0.38
1006.439	-1.38
1007.163	-0.38
1007.887	-0.38
1008.611	-3.38
1009.334	-0.38
1010.058	0.62
1010.781	1.62
1011.504	2.62
1012.228	0.62
1012.951	-0.38
1013.674	-1.38
1014.397	0.62
1015.12	-1.38
