节点500_145_QEPB04081__421__11-35-41-526.txt的数据

Date: Wed Nov 12 11:35:41 CST 2025
User: PC
Spectrometer: QEPB0408
触发模式: 0
积分时间 (秒): 1.000000E-2
Scans to average: 1
启用暗噪声校正: true
启用非线性校正: false
滑动平均宽度: 0
X轴模式: Wavelengths
Number of Pixels in Spectrum: 1044
>>>>>Begin Spectral Data<<<<<
220.843	-2.12
221.644	-2.12
222.444	-1.12
223.244	-2.12
224.045	-1.12
224.845	-2.12
225.645	-0.12
226.445	-0.12
227.245	0.88
228.045	0.88
228.845	-0.12
229.645	0.88
230.444	0.88
231.244	-0.12
232.043	-1.12
232.843	0.88
233.642	0.88
234.442	-0.12
235.241	-0.12
236.04	0.88
236.839	0.88
237.638	0.88
238.437	-1.12
239.236	-1.12
240.035	-3.12
240.833	1.88
241.632	0.88
242.43	-0.12
243.229	0.88
244.027	2.88
244.826	0.88
245.624	1.88
246.422	2.88
247.22	-0.12
248.018	1.88
248.816	0.88
249.614	0.88
250.412	1.88
251.21	1.88
252.007	2.88
252.805	2.88
253.602	2.88
254.4	3.88
255.197	0.88
255.994	5.88
256.791	2.88
257.589	3.88
258.386	1.88
259.183	1.88
259.979	0.88
260.776	1.88
261.573	2.88
262.37	2.88
263.166	5.88
263.963	4.88
264.759	5.88
265.556	6.88
266.352	3.88
267.148	4.88
267.944	5.88
268.74	5.88
269.536	4.88
270.332	4.88
271.128	4.88
271.924	4.88
272.719	7.88
273.515	6.88
274.311	7.88
275.106	5.88
275.901	8.88
276.697	8.88
277.492	6.88
278.287	7.88
279.082	7.88
279.877	7.88
280.672	7.88
281.467	7.88
282.262	9.88
283.056	8.88
283.851	11.88
284.646	10.88
285.44	10.88
286.234	8.88
287.029	11.88
287.823	9.88
288.617	7.88
289.411	10.88
290.205	8.88
290.999	8.88
291.793	11.88
292.587	11.88
293.381	10.88
294.174	8.88
294.968	9.88
295.761	10.88
296.555	8.88
297.348	9.88
298.141	8.88
298.935	9.88
299.728	8.88
300.521	8.88
301.314	6.88
302.107	8.88
302.899	6.88
303.692	8.88
304.485	7.88
305.277	7.88
306.07	6.88
306.862	6.88
307.655	6.88
308.447	8.88
309.239	4.88
310.031	8.88
310.823	7.88
311.615	6.88
312.407	4.88
313.199	5.88
313.991	5.88
314.783	4.88
315.574	6.88
316.366	4.88
317.157	4.88
317.949	4.88
318.74	3.88
319.531	4.88
320.322	3.88
321.113	4.88
321.904	3.88
322.695	2.88
323.486	6.88
324.277	6.88
325.068	4.88
325.858	2.88
326.649	4.88
327.439	2.88
328.23	3.88
329.02	1.88
329.81	2.88
330.6	3.88
331.391	2.88
332.181	1.88
332.971	4.88
333.76	2.88
334.55	2.88
335.34	1.88
336.13	3.88
336.919	1.88
337.709	1.88
338.498	1.88
339.287	1.88
340.077	6.88
340.866	2.88
341.655	2.88
342.444	2.88
343.233	5.88
344.022	0.88
344.811	1.88
345.6	1.88
346.388	2.88
347.177	1.88
347.965	1.88
348.754	2.88
349.542	0.88
350.33	1.88
351.119	2.88
351.907	2.88
352.695	3.88
353.483	0.88
354.271	2.88
355.059	-0.12
355.846	-0.12
356.634	3.88
357.422	2.88
358.209	2.88
358.997	3.88
359.784	2.88
360.571	3.88
361.359	1.88
362.146	0.88
362.933	2.88
363.72	1.88
364.507	-0.12
365.294	2.88
366.081	1.88
366.867	0.88
367.654	2.88
368.44	2.88
369.227	1.88
370.013	2.88
370.8	0.88
371.586	1.88
372.372	0.88
373.158	1.88
373.944	1.88
374.73	2.88
375.516	1.88
376.302	1.88
377.088	2.88
377.873	2.88
378.659	3.88
379.445	2.88
380.23	1.88
381.015	0.88
381.801	0.88
382.586	2.88
383.371	1.88
384.156	0.88
384.941	1.88
385.726	1.88
386.511	4.88
387.296	2.88
388.08	2.88
388.865	2.88
389.649	3.88
390.434	3.88
391.218	1.88
392.003	1.88
392.787	2.88
393.571	2.88
394.355	0.88
395.139	0.88
395.923	1.88
396.707	3.88
397.491	0.88
398.274	1.88
399.058	3.88
399.842	3.88
400.625	3.88
401.408	3.88
402.192	1.88
402.975	3.88
403.758	2.88
404.541	2.88
405.324	3.88
406.107	3.88
406.89	1.88
407.673	1.88
408.456	4.88
409.238	3.88
410.021	1.88
410.803	4.88
411.586	5.88
412.368	5.88
413.151	4.88
413.933	5.88
414.715	0.88
415.497	2.88
416.279	4.88
417.061	5.88
417.843	3.88
418.624	3.88
419.406	3.88
420.188	1.88
420.969	3.88
421.751	3.88
422.532	6.88
423.313	4.88
424.095	5.88
424.876	6.88
425.657	5.88
426.438	4.88
427.219	4.88
428	5.88
428.78	7.88
429.561	5.88
430.342	4.88
431.122	6.88
431.903	8.88
432.683	5.88
433.464	4.88
434.244	8.88
435.024	7.88
435.804	7.88
436.584	8.88
437.364	8.88
438.144	9.88
438.924	9.88
439.704	7.88
440.483	9.88
441.263	8.88
442.042	10.88
442.822	11.88
443.601	15.88
444.38	13.88
445.16	16.88
445.939	15.88
446.718	15.88
447.497	16.88
448.276	22.88
449.054	21.88
449.833	26.88
450.612	24.88
451.391	24.88
452.169	28.88
452.948	32.88
453.726	35.88
454.504	39.88
455.282	41.88
456.061	46.88
456.839	51.88
457.617	53.88
458.395	65.88
459.172	71.88
459.95	75.88
460.728	87.88
461.506	94.88
462.283	109.88
463.061	117.88
463.838	134.88
464.615	149.88
465.393	162.88
466.17	181.88
466.947	199.88
467.724	224.88
468.501	249.88
469.278	276.88
470.055	308.88
470.831	337.88
471.608	381.88
472.385	425.88
473.161	465.88
473.938	524.88
474.714	580.88
475.49	635.88
476.266	723.88
477.043	789.88
477.819	867.88
478.595	950.88
479.371	1042.88
480.146	1165.88
480.922	1295.88
481.698	1394.88
482.473	1562.88
483.249	1700.88
484.024	1875.88
484.8	2048.88
485.575	2244.88
486.35	2476.88
487.126	2697.88
487.901	2972.88
488.676	3281.88
489.451	3609.88
490.225	3953.88
491	4306.88
491.775	4737.88
492.55	5151.88
493.324	5661.88
494.099	6153.88
494.873	6697.88
495.647	7295.88
496.422	7923.88
497.196	8565.88
497.97	9246.88
498.744	9940.88
499.518	10613.88
500.292	11294.88
501.066	12016.88
501.839	12714.88
502.613	13337.88
503.387	13941.88
504.16	14545.88
504.934	14982.88
505.707	15331.88
506.48	15674.88
507.253	15902.88
508.027	16016.88
508.8	16040.88
509.573	15921.88
510.346	15775.88
511.118	15494.88
511.891	15151.88
512.664	14727.88
513.437	14306.88
514.209	13782.88
514.982	13263.88
515.754	12741.88
516.526	12250.88
517.298	11729.88
518.071	11222.88
518.843	10723.88
519.615	10284.88
520.387	9826.88
521.159	9440.88
521.93	9076.88
522.702	8683.88
523.474	8381.88
524.245	8025.88
525.017	7732.88
525.788	7415.88
526.56	7117.88
527.331	6818.88
528.102	6509.88
528.873	6269.88
529.644	5968.88
530.415	5733.88
531.186	5471.88
531.957	5181.88
532.728	4891.88
533.498	4668.88
534.269	4425.88
535.039	4164.88
535.81	3960.88
536.58	3733.88
537.351	3522.88
538.121	3328.88
538.891	3163.88
539.661	2973.88
540.431	2813.88
541.201	2649.88
541.971	2508.88
542.741	2399.88
543.51	2275.88
544.28	2146.88
545.05	2051.88
545.819	1935.88
546.588	1867.88
547.358	1759.88
548.127	1670.88
548.896	1590.88
549.665	1523.88
550.434	1437.88
551.203	1355.88
551.972	1291.88
552.741	1218.88
553.51	1157.88
554.278	1095.88
555.047	1032.88
555.815	972.88
556.584	932.88
557.352	861.88
558.121	812.88
558.889	778.88
559.657	728.88
560.425	690.88
561.193	648.88
561.961	611.88
562.729	579.88
563.496	529.88
564.264	509.88
565.032	484.88
565.799	459.88
566.567	437.88
567.334	400.88
568.101	380.88
568.869	359.88
569.636	341.88
570.403	328.88
571.17	306.88
571.937	293.88
572.704	276.88
573.471	253.88
574.237	244.88
575.004	225.88
575.771	215.88
576.537	200.88
577.303	189.88
578.07	174.88
578.836	173.88
579.602	160.88
580.368	149.88
581.134	146.88
581.9	137.88
582.666	126.88
583.432	123.88
584.198	112.88
584.964	102.88
585.729	101.88
586.495	89.88
587.26	88.88
588.025	85.88
588.791	82.88
589.556	79.88
590.321	77.88
591.086	68.88
591.851	68.88
592.616	61.88
593.381	57.88
594.146	55.88
594.911	52.88
595.675	50.88
596.44	47.88
597.204	45.88
597.969	42.88
598.733	40.88
599.497	36.88
600.261	38.88
601.025	36.88
601.79	34.88
602.553	29.88
603.317	30.88
604.081	31.88
604.845	27.88
605.609	29.88
606.372	21.88
607.136	24.88
607.899	24.88
608.662	22.88
609.426	21.88
610.189	21.88
610.952	21.88
611.715	18.88
612.478	20.88
613.241	16.88
614.004	15.88
614.767	18.88
615.529	16.88
616.292	12.88
617.055	13.88
617.817	14.88
618.579	13.88
619.342	12.88
620.104	10.88
620.866	11.88
621.628	12.88
622.39	10.88
623.152	10.88
623.914	9.88
624.676	9.88
625.438	8.88
626.199	8.88
626.961	9.88
627.722	8.88
628.484	9.88
629.245	9.88
630.006	9.88
630.768	8.88
631.529	6.88
632.29	6.88
633.051	7.88
633.812	7.88
634.573	4.88
635.333	6.88
636.094	5.88
636.855	5.88
637.615	6.88
638.376	6.88
639.136	5.88
639.896	3.88
640.657	6.88
641.417	5.88
642.177	3.88
642.937	3.88
643.697	6.88
644.457	3.88
645.216	5.88
645.976	2.88
646.736	4.88
647.495	3.88
648.255	4.88
649.014	3.88
649.774	2.88
650.533	2.88
651.292	1.88
652.051	3.88
652.81	4.88
653.569	5.88
654.328	1.88
655.087	1.88
655.846	3.88
656.604	0.88
657.363	4.88
658.121	2.88
658.88	2.88
659.638	3.88
660.397	2.88
661.155	1.88
661.913	2.88
662.671	3.88
663.429	0.88
664.187	0.88
664.945	3.88
665.703	0.88
666.46	3.88
667.218	1.88
667.976	2.88
668.733	2.88
669.49	1.88
670.248	1.88
671.005	3.88
671.762	1.88
672.519	2.88
673.276	2.88
674.033	0.88
674.79	2.88
675.547	-0.12
676.304	2.88
677.06	2.88
677.817	-0.12
678.574	0.88
679.33	2.88
680.086	2.88
680.843	2.88
681.599	0.88
682.355	1.88
683.111	2.88
683.867	-0.12
684.623	-1.12
685.379	3.88
686.135	1.88
686.89	-0.12
687.646	0.88
688.402	0.88
689.157	0.88
689.912	0.88
690.668	2.88
691.423	0.88
692.178	1.88
692.933	1.88
693.688	1.88
694.443	1.88
695.198	0.88
695.953	1.88
696.708	1.88
697.462	0.88
698.217	0.88
698.972	-0.12
699.726	4.88
700.48	0.88
701.235	1.88
701.989	-0.12
702.743	-1.12
703.497	0.88
704.251	0.88
705.005	2.88
705.759	0.88
706.513	1.88
707.266	0.88
708.02	-0.12
708.774	-0.12
709.527	0.88
710.28	4.88
711.034	0.88
711.787	0.88
712.54	1.88
713.293	0.88
714.046	-0.12
714.799	2.88
715.552	2.88
716.305	1.88
717.058	0.88
717.81	-0.12
718.563	1.88
719.315	0.88
720.068	1.88
720.82	2.88
721.573	0.88
722.325	0.88
723.077	0.88
723.829	0.88
724.581	0.88
725.333	0.88
726.085	2.88
726.836	-1.12
727.588	0.88
728.34	1.88
729.091	-0.12
729.843	3.88
730.594	0.88
731.346	-0.12
732.097	0.88
732.848	0.88
733.599	1.88
734.35	-2.12
735.101	2.88
735.852	2.88
736.603	3.88
737.354	0.88
738.104	-0.12
738.855	0.88
739.605	0.88
740.356	1.88
741.106	2.88
741.856	0.88
742.607	1.88
743.357	2.88
744.107	1.88
744.857	1.88
745.607	1.88
746.357	1.88
747.106	1.88
747.856	1.88
748.606	0.88
749.355	1.88
750.105	1.88
750.854	2.88
751.603	1.88
752.353	2.88
753.102	0.88
753.851	1.88
754.6	-0.12
755.349	1.88
756.098	1.88
756.847	4.88
757.595	2.88
758.344	3.88
759.093	1.88
759.841	0.88
760.589	2.88
761.338	3.88
762.086	2.88
762.834	3.88
763.582	4.88
764.331	3.88
765.079	2.88
765.826	-0.12
766.574	3.88
767.322	4.88
768.07	3.88
768.817	3.88
769.565	4.88
770.312	0.88
771.06	1.88
771.807	4.88
772.554	4.88
773.302	3.88
774.049	4.88
774.796	1.88
775.543	2.88
776.29	3.88
777.036	4.88
777.783	3.88
778.53	3.88
779.276	4.88
780.023	4.88
780.769	5.88
781.516	4.88
782.262	1.88
783.008	2.88
783.754	4.88
784.5	5.88
785.246	6.88
785.992	6.88
786.738	5.88
787.484	4.88
788.23	4.88
788.975	5.88
789.721	5.88
790.466	4.88
791.212	4.88
791.957	1.88
792.702	7.88
793.447	3.88
794.193	4.88
794.938	4.88
795.683	3.88
796.427	5.88
797.172	4.88
797.917	3.88
798.662	2.88
799.406	3.88
800.151	7.88
800.895	4.88
801.64	4.88
802.384	2.88
803.128	4.88
803.872	3.88
804.616	3.88
805.36	1.88
806.104	0.88
806.848	2.88
807.592	3.88
808.336	2.88
809.079	2.88
809.823	3.88
810.566	2.88
811.31	1.88
812.053	2.88
812.796	0.88
813.539	1.88
814.283	4.88
815.026	2.88
815.769	-0.12
816.511	3.88
817.254	2.88
817.997	2.88
818.74	2.88
819.482	2.88
820.225	4.88
820.967	0.88
821.71	0.88
822.452	2.88
823.194	0.88
823.936	2.88
824.678	2.88
825.42	1.88
826.162	2.88
826.904	2.88
827.646	1.88
828.388	1.88
829.129	0.88
829.871	2.88
830.612	1.88
831.354	4.88
832.095	-0.12
832.836	2.88
833.577	0.88
834.319	-0.12
835.06	0.88
835.801	1.88
836.542	3.88
837.282	3.88
838.023	-0.12
838.764	1.88
839.504	0.88
840.245	0.88
840.985	2.88
841.726	2.88
842.466	-0.12
843.206	2.88
843.946	0.88
844.687	3.88
845.427	0.88
846.166	0.88
846.906	2.88
847.646	2.88
848.386	1.88
849.125	0.88
849.865	2.88
850.605	2.88
851.344	0.88
852.083	1.88
852.823	1.88
853.562	2.88
854.301	1.88
855.04	1.88
855.779	0.88
856.518	0.88
857.257	-0.12
857.995	1.88
858.734	0.88
859.473	-1.12
860.211	-0.12
860.95	1.88
861.688	0.88
862.426	1.88
863.165	1.88
863.903	-1.12
864.641	-0.12
865.379	0.88
866.117	1.88
866.855	0.88
867.593	0.88
868.33	0.88
869.068	1.88
869.806	1.88
870.543	-0.12
871.28	-0.12
872.018	-1.12
872.755	1.88
873.492	2.88
874.229	4.88
874.967	-2.12
875.703	-0.12
876.44	2.88
877.177	-2.12
877.914	1.88
878.651	-0.12
879.387	1.88
880.124	0.88
880.86	-1.12
881.597	-0.12
882.333	0.88
883.069	-0.12
883.806	0.88
884.542	-0.12
885.278	-1.12
886.014	0.88
886.749	2.88
887.485	-2.12
888.221	-0.12
888.957	-0.12
889.692	-0.12
890.428	0.88
891.163	-1.12
891.899	-1.12
892.634	-1.12
893.369	0.88
894.104	-1.12
894.839	1.88
895.574	-1.12
896.309	-0.12
897.044	-0.12
897.779	0.88
898.514	-0.12
899.248	-0.12
899.983	1.88
900.717	2.88
901.452	0.88
902.186	-0.12
902.92	0.88
903.654	-0.12
904.389	-2.12
905.123	1.88
905.857	-2.12
906.59	-2.12
907.324	-1.12
908.058	0.88
908.792	-0.12
909.525	0.88
910.259	-0.12
910.992	-1.12
911.726	0.88
912.459	0.88
913.192	-1.12
913.925	-1.12
914.658	-0.12
915.391	1.88
916.124	0.88
916.857	-0.12
917.59	-0.12
918.323	0.88
919.055	-2.12
919.788	0.88
920.521	-0.12
921.253	-0.12
921.985	-0.12
922.718	-0.12
923.45	-1.12
924.182	-0.12
924.914	-0.12
925.646	-0.12
926.378	-0.12
927.11	-0.12
927.841	0.88
928.573	0.88
929.305	0.88
930.036	0.88
930.768	0.88
931.499	-2.12
932.23	-0.12
932.962	0.88
933.693	-0.12
934.424	1.88
935.155	-1.12
935.886	0.88
936.617	-0.12
937.348	-0.12
938.078	-2.12
938.809	-0.12
939.54	0.88
940.27	1.88
941.001	-2.12
941.731	1.88
942.461	-1.12
943.191	0.88
943.922	-1.12
944.652	0.88
945.382	-0.12
946.112	0.88
946.841	-2.12
947.571	0.88
948.301	-1.12
949.031	-3.12
949.76	-0.12
950.49	0.88
951.219	-0.12
951.948	0.88
952.678	-0.12
953.407	-0.12
954.136	0.88
954.865	0.88
955.594	0.88
956.323	2.88
957.052	0.88
957.78	-0.12
958.509	0.88
959.238	0.88
959.966	-1.12
960.695	-0.12
961.423	-0.12
962.151	0.88
962.88	-2.12
963.608	-0.12
964.336	0.88
965.064	0.88
965.792	0.88
966.52	-0.12
967.247	-0.12
967.975	0.88
968.703	-1.12
969.43	-1.12
970.158	-0.12
970.885	-2.12
971.613	-2.12
972.34	-0.12
973.067	1.88
973.794	-1.12
974.521	-2.12
975.248	-1.12
975.975	-0.12
976.702	-0.12
977.429	-2.12
978.156	-0.12
978.882	-0.12
979.609	-0.12
980.335	-2.12
981.062	-0.12
981.788	-3.12
982.514	-2.12
983.24	0.88
983.967	-0.12
984.693	-1.12
985.419	0.88
986.144	-0.12
986.87	-2.12
987.596	-1.12
988.322	-0.12
989.047	-1.12
989.773	-1.12
990.498	-0.12
991.224	0.88
991.949	-0.12
992.674	1.88
993.399	-1.12
994.124	-1.12
994.849	-0.12
995.574	-0.12
996.299	-1.12
997.024	-1.12
997.749	-0.12
998.473	-3.12
999.198	0.88
999.922	0.88
1000.647	-0.12
1001.371	4.88
1002.095	-2.12
1002.82	-0.12
1003.544	-2.12
1004.268	-2.12
1004.992	-2.12
1005.716	0.88
1006.439	-2.12
1007.163	-1.12
1007.887	0.88
1008.611	-2.12
1009.334	-2.12
1010.058	0.88
1010.781	-0.12
1011.504	-1.12
1012.228	0.88
1012.951	0.88
1013.674	0.88
1014.397	-2.12
1015.12	-0.12
