节点500_145_QEPB04081__111__11-30-44-569.txt的数据

Date: Wed Nov 12 11:30:44 CST 2025
User: PC
Spectrometer: QEPB0408
触发模式: 0
积分时间 (秒): 1.000000E-2
Scans to average: 1
启用暗噪声校正: true
启用非线性校正: false
滑动平均宽度: 0
X轴模式: Wavelengths
Number of Pixels in Spectrum: 1044
>>>>>Begin Spectral Data<<<<<
220.843	-1
221.644	2
222.444	0
223.244	2
224.045	3
224.845	1
225.645	2
226.445	0
227.245	-1
228.045	0
228.845	0
229.645	0
230.444	0
231.244	2
232.043	-2
232.843	2
233.642	1
234.442	2
235.241	2
236.04	-2
236.839	0
237.638	1
238.437	0
239.236	-1
240.035	0
240.833	1
241.632	2
242.43	1
243.229	1
244.027	2
244.826	2
245.624	3
246.422	3
247.22	0
248.018	1
248.816	1
249.614	2
250.412	2
251.21	2
252.007	2
252.805	4
253.602	3
254.4	4
255.197	4
255.994	5
256.791	3
257.589	3
258.386	3
259.183	4
259.979	5
260.776	6
261.573	4
262.37	6
263.166	5
263.963	5
264.759	6
265.556	6
266.352	7
267.148	7
267.944	5
268.74	9
269.536	8
270.332	7
271.128	7
271.924	8
272.719	9
273.515	8
274.311	10
275.106	10
275.901	8
276.697	12
277.492	9
278.287	8
279.082	10
279.877	10
280.672	14
281.467	14
282.262	10
283.056	11
283.851	10
284.646	11
285.44	11
286.234	12
287.029	13
287.823	12
288.617	11
289.411	12
290.205	8
290.999	13
291.793	11
292.587	12
293.381	9
294.174	10
294.968	11
295.761	13
296.555	8
297.348	11
298.141	12
298.935	10
299.728	11
300.521	5
301.314	10
302.107	5
302.899	7
303.692	8
304.485	6
305.277	9
306.07	10
306.862	8
307.655	8
308.447	9
309.239	4
310.031	9
310.823	8
311.615	8
312.407	7
313.199	8
313.991	7
314.783	5
315.574	6
316.366	6
317.157	7
317.949	4
318.74	5
319.531	7
320.322	5
321.113	5
321.904	7
322.695	5
323.486	5
324.277	7
325.068	4
325.858	4
326.649	3
327.439	4
328.23	4
329.02	5
329.81	4
330.6	4
331.391	6
332.181	7
332.971	1
333.76	7
334.55	5
335.34	4
336.13	5
336.919	0
337.709	3
338.498	4
339.287	3
340.077	5
340.866	6
341.655	2
342.444	3
343.233	3
344.022	2
344.811	2
345.6	4
346.388	2
347.177	2
347.965	4
348.754	3
349.542	1
350.33	1
351.119	1
351.907	3
352.695	2
353.483	3
354.271	3
355.059	3
355.846	2
356.634	5
357.422	4
358.209	0
358.997	0
359.784	2
360.571	4
361.359	3
362.146	4
362.933	1
363.72	5
364.507	4
365.294	2
366.081	3
366.867	3
367.654	2
368.44	2
369.227	3
370.013	2
370.8	3
371.586	3
372.372	1
373.158	2
373.944	1
374.73	4
375.516	2
376.302	5
377.088	2
377.873	4
378.659	4
379.445	0
380.23	2
381.015	4
381.801	3
382.586	3
383.371	3
384.156	2
384.941	1
385.726	3
386.511	3
387.296	3
388.08	4
388.865	3
389.649	6
390.434	1
391.218	3
392.003	0
392.787	2
393.571	5
394.355	5
395.139	4
395.923	2
396.707	3
397.491	4
398.274	4
399.058	4
399.842	5
400.625	3
401.408	2
402.192	5
402.975	2
403.758	3
404.541	3
405.324	4
406.107	4
406.89	2
407.673	3
408.456	3
409.238	5
410.021	4
410.803	3
411.586	4
412.368	5
413.151	4
413.933	6
414.715	5
415.497	5
416.279	6
417.061	3
417.843	6
418.624	4
419.406	4
420.188	6
420.969	6
421.751	5
422.532	6
423.313	6
424.095	7
424.876	7
425.657	6
426.438	7
427.219	7
428	9
428.78	8
429.561	8
430.342	11
431.122	6
431.903	8
432.683	7
433.464	7
434.244	9
435.024	9
435.804	9
436.584	9
437.364	8
438.144	9
438.924	10
439.704	10
440.483	10
441.263	13
442.042	12
442.822	16
443.601	17
444.38	13
445.16	17
445.939	16
446.718	19
447.497	17
448.276	21
449.054	22
449.833	20
450.612	25
451.391	25
452.169	29
452.948	29
453.726	32
454.504	33
455.282	37
456.061	42
456.839	45
457.617	52
458.395	59
459.172	63
459.95	68
460.728	77
461.506	85
462.283	96
463.061	108
463.838	114
464.615	132
465.393	143
466.17	158
466.947	184
467.724	200
468.501	226
469.278	254
470.055	285
470.831	316
471.608	359
472.385	396
473.161	439
473.938	492
474.714	549
475.49	596
476.266	671
477.043	751
477.819	827
478.595	920
479.371	1017
480.146	1150
480.922	1266
481.698	1386
482.473	1551
483.249	1731
484.024	1898
484.8	2114
485.575	2346
486.35	2595
487.126	2842
487.901	3183
488.676	3537
489.451	3859
490.225	4294
491	4721
491.775	5208
492.55	5732
493.324	6306
494.099	6914
494.873	7599
495.647	8275
496.422	8995
497.196	9728
497.97	10550
498.744	11347
499.518	12195
500.292	12930
501.066	13736
501.839	14461
502.613	15149
503.387	15759
504.16	16305
504.934	16704
505.707	17038
506.48	17207
507.253	17314
508.027	17282
508.8	17130
509.573	16855
510.346	16490
511.118	16072
511.891	15566
512.664	15034
513.437	14499
514.209	13861
514.982	13331
515.754	12706
516.526	12115
517.298	11514
518.071	11027
518.843	10526
519.615	10074
520.387	9658
521.159	9273
521.93	8907
522.702	8551
523.474	8248
524.245	7894
525.017	7608
525.788	7267
526.56	7024
527.331	6684
528.102	6402
528.873	6074
529.644	5831
530.415	5542
531.186	5273
531.957	4971
532.728	4725
533.498	4443
534.269	4220
535.039	3974
535.81	3761
536.58	3522
537.351	3350
538.121	3141
538.891	2988
539.661	2807
540.431	2666
541.201	2505
541.971	2381
542.741	2252
543.51	2142
544.28	2027
545.05	1932
545.819	1837
546.588	1745
547.358	1657
548.127	1571
548.896	1509
549.665	1418
550.434	1360
551.203	1272
551.972	1217
552.741	1153
553.51	1081
554.278	1011
555.047	966
555.815	913
556.584	854
557.352	815
558.121	766
558.889	722
559.657	687
560.425	629
561.193	584
561.961	558
562.729	535
563.496	504
564.264	467
565.032	454
565.799	415
566.567	404
567.334	373
568.101	353
568.869	337
569.636	314
570.403	301
571.17	282
571.937	270
572.704	250
573.471	239
574.237	222
575.004	212
575.771	203
576.537	186
577.303	177
578.07	161
578.836	154
579.602	146
580.368	135
581.134	128
581.9	125
582.666	115
583.432	115
584.198	103
584.964	105
585.729	98
586.495	87
587.26	81
588.025	79
588.791	76
589.556	67
590.321	65
591.086	63
591.851	59
592.616	55
593.381	54
594.146	49
594.911	51
595.675	44
596.44	46
597.204	42
597.969	40
598.733	37
599.497	38
600.261	34
601.025	33
601.79	36
602.553	27
603.317	34
604.081	26
604.845	28
605.609	26
606.372	25
607.136	25
607.899	23
608.662	21
609.426	22
610.189	19
610.952	20
611.715	18
612.478	16
613.241	15
614.004	16
614.767	12
615.529	15
616.292	13
617.055	14
617.817	14
618.579	14
619.342	14
620.104	11
620.866	11
621.628	13
622.39	12
623.152	12
623.914	9
624.676	10
625.438	8
626.199	9
626.961	10
627.722	9
628.484	9
629.245	8
630.006	8
630.768	8
631.529	7
632.29	6
633.051	9
633.812	8
634.573	7
635.333	7
636.094	8
636.855	6
637.615	6
638.376	6
639.136	8
639.896	7
640.657	5
641.417	5
642.177	5
642.937	5
643.697	5
644.457	4
645.216	6
645.976	5
646.736	6
647.495	4
648.255	6
649.014	5
649.774	7
650.533	2
651.292	4
652.051	2
652.81	6
653.569	3
654.328	1
655.087	4
655.846	5
656.604	7
657.363	2
658.121	4
658.88	5
659.638	3
660.397	3
661.155	5
661.913	3
662.671	4
663.429	3
664.187	2
664.945	3
665.703	5
666.46	1
667.218	5
667.976	3
668.733	2
669.49	3
670.248	3
671.005	2
671.762	5
672.519	3
673.276	1
674.033	2
674.79	1
675.547	1
676.304	2
677.06	1
677.817	3
678.574	2
679.33	2
680.086	3
680.843	1
681.599	2
682.355	1
683.111	4
683.867	2
684.623	3
685.379	1
686.135	4
686.89	3
687.646	4
688.402	0
689.157	3
689.912	2
690.668	2
691.423	1
692.178	4
692.933	3
693.688	1
694.443	1
695.198	1
695.953	2
696.708	3
697.462	3
698.217	0
698.972	1
699.726	1
700.48	-1
701.235	4
701.989	1
702.743	4
703.497	4
704.251	0
705.005	2
705.759	3
706.513	4
707.266	2
708.02	3
708.774	1
709.527	1
710.28	3
711.034	1
711.787	1
712.54	2
713.293	2
714.046	-1
714.799	2
715.552	4
716.305	4
717.058	2
717.81	3
718.563	1
719.315	2
720.068	3
720.82	3
721.573	1
722.325	0
723.077	0
723.829	2
724.581	3
725.333	1
726.085	2
726.836	0
727.588	1
728.34	2
729.091	0
729.843	5
730.594	3
731.346	4
732.097	3
732.848	5
733.599	1
734.35	2
735.101	4
735.852	0
736.603	1
737.354	1
738.104	0
738.855	2
739.605	2
740.356	1
741.106	0
741.856	2
742.607	2
743.357	5
744.107	1
744.857	3
745.607	3
746.357	1
747.106	3
747.856	1
748.606	4
749.355	6
750.105	1
750.854	3
751.603	3
752.353	2
753.102	3
753.851	3
754.6	4
755.349	1
756.098	4
756.847	2
757.595	4
758.344	2
759.093	3
759.841	2
760.589	3
761.338	3
762.086	5
762.834	3
763.582	3
764.331	4
765.079	4
765.826	2
766.574	4
767.322	4
768.07	3
768.817	4
769.565	6
770.312	5
771.06	5
771.807	5
772.554	4
773.302	6
774.049	4
774.796	5
775.543	7
776.29	6
777.036	4
777.783	4
778.53	3
779.276	8
780.023	5
780.769	5
781.516	5
782.262	7
783.008	4
783.754	5
784.5	5
785.246	7
785.992	6
786.738	7
787.484	9
788.23	4
788.975	4
789.721	7
790.466	5
791.212	8
791.957	3
792.702	6
793.447	4
794.193	7
794.938	6
795.683	4
796.427	7
797.172	4
797.917	5
798.662	5
799.406	5
800.151	5
800.895	4
801.64	6
802.384	2
803.128	6
803.872	5
804.616	4
805.36	4
806.104	3
806.848	5
807.592	2
808.336	5
809.079	2
809.823	1
810.566	4
811.31	6
812.053	4
812.796	4
813.539	2
814.283	4
815.026	2
815.769	3
816.511	3
817.254	2
817.997	3
818.74	3
819.482	2
820.225	3
820.967	4
821.71	2
822.452	4
823.194	3
823.936	1
824.678	3
825.42	2
826.162	1
826.904	5
827.646	2
828.388	1
829.129	2
829.871	2
830.612	1
831.354	2
832.095	2
832.836	4
833.577	1
834.319	2
835.06	4
835.801	4
836.542	2
837.282	2
838.023	2
838.764	1
839.504	2
840.245	3
840.985	2
841.726	3
842.466	3
843.206	4
843.946	1
844.687	1
845.427	2
846.166	1
846.906	2
847.646	2
848.386	1
849.125	2
849.865	0
850.605	3
851.344	5
852.083	4
852.823	0
853.562	2
854.301	3
855.04	1
855.779	2
856.518	2
857.257	0
857.995	1
858.734	4
859.473	2
860.211	2
860.95	3
861.688	1
862.426	3
863.165	0
863.903	0
864.641	0
865.379	-1
866.117	0
866.855	3
867.593	0
868.33	1
869.068	2
869.806	3
870.543	1
871.28	3
872.018	1
872.755	2
873.492	2
874.229	1
874.967	2
875.703	-2
876.44	1
877.177	1
877.914	2
878.651	1
879.387	0
880.124	2
880.86	2
881.597	1
882.333	0
883.069	-1
883.806	1
884.542	-1
885.278	1
886.014	0
886.749	1
887.485	2
888.221	-2
888.957	2
889.692	1
890.428	0
891.163	2
891.899	3
892.634	0
893.369	2
894.104	1
894.839	0
895.574	1
896.309	-1
897.044	-2
897.779	2
898.514	0
899.248	2
899.983	2
900.717	-1
901.452	-1
902.186	0
902.92	1
903.654	0
904.389	1
905.123	1
905.857	1
906.59	1
907.324	1
908.058	0
908.792	0
909.525	2
910.259	1
910.992	1
911.726	1
912.459	2
913.192	2
913.925	1
914.658	1
915.391	-1
916.124	-3
916.857	1
917.59	-1
918.323	0
919.055	0
919.788	0
920.521	1
921.253	0
921.985	1
922.718	0
923.45	-1
924.182	0
924.914	0
925.646	2
926.378	1
927.11	0
927.841	-3
928.573	-1
929.305	-2
930.036	0
930.768	0
931.499	-2
932.23	0
932.962	-2
933.693	1
934.424	1
935.155	0
935.886	2
936.617	-2
937.348	2
938.078	-1
938.809	1
939.54	-2
940.27	-3
941.001	2
941.731	1
942.461	-2
943.191	-1
943.922	0
944.652	0
945.382	0
946.112	1
946.841	0
947.571	0
948.301	-2
949.031	1
949.76	1
950.49	0
951.219	0
951.948	0
952.678	0
953.407	0
954.136	0
954.865	0
955.594	1
956.323	1
957.052	0
957.78	2
958.509	-1
959.238	2
959.966	1
960.695	1
961.423	0
962.151	0
962.88	-2
963.608	1
964.336	0
965.064	0
965.792	-3
966.52	0
967.247	-3
967.975	1
968.703	1
969.43	2
970.158	1
970.885	1
971.613	0
972.34	0
973.067	2
973.794	1
974.521	0
975.248	2
975.975	-2
976.702	1
977.429	-2
978.156	0
978.882	1
979.609	0
980.335	-1
981.062	-1
981.788	1
982.514	0
983.24	2
983.967	-2
984.693	-2
985.419	2
986.144	0
986.87	0
987.596	-1
988.322	1
989.047	2
989.773	1
990.498	-2
991.224	1
991.949	1
992.674	1
993.399	-2
994.124	0
994.849	2
995.574	2
996.299	1
997.024	0
997.749	0
998.473	2
999.198	0
999.922	2
1000.647	0
1001.371	5
1002.095	-1
1002.82	-2
1003.544	-3
1004.268	1
1004.992	-2
1005.716	-1
1006.439	0
1007.163	0
1007.887	1
1008.611	-1
1009.334	0
1010.058	0
1010.781	0
1011.504	1
1012.228	0
1012.951	1
1013.674	-1
1014.397	1
1015.12	0
