节点500_145_QEPB04081__170__11-31-39-556.txt的数据

Date: Wed Nov 12 11:31:39 CST 2025
User: PC
Spectrometer: QEPB0408
触发模式: 0
积分时间 (秒): 1.000000E-2
Scans to average: 1
启用暗噪声校正: true
启用非线性校正: false
滑动平均宽度: 0
X轴模式: Wavelengths
Number of Pixels in Spectrum: 1044
>>>>>Begin Spectral Data<<<<<
220.843	-1.12
221.644	0.88
222.444	-2.12
223.244	1.88
224.045	-1.12
224.845	-1.12
225.645	-0.12
226.445	-1.12
227.245	-1.12
228.045	0.88
228.845	-0.12
229.645	-1.12
230.444	0.88
231.244	-0.12
232.043	-2.12
232.843	0.88
233.642	-0.12
234.442	2.88
235.241	-2.12
236.04	-2.12
236.839	1.88
237.638	-0.12
238.437	1.88
239.236	-2.12
240.035	0.88
240.833	1.88
241.632	2.88
242.43	-0.12
243.229	-0.12
244.027	-0.12
244.826	0.88
245.624	-0.12
246.422	1.88
247.22	0.88
248.018	3.88
248.816	1.88
249.614	1.88
250.412	1.88
251.21	4.88
252.007	0.88
252.805	2.88
253.602	2.88
254.4	2.88
255.197	3.88
255.994	2.88
256.791	4.88
257.589	4.88
258.386	3.88
259.183	4.88
259.979	4.88
260.776	3.88
261.573	4.88
262.37	4.88
263.166	3.88
263.963	5.88
264.759	7.88
265.556	4.88
266.352	6.88
267.148	6.88
267.944	6.88
268.74	5.88
269.536	5.88
270.332	8.88
271.128	6.88
271.924	8.88
272.719	4.88
273.515	9.88
274.311	7.88
275.106	10.88
275.901	9.88
276.697	9.88
277.492	8.88
278.287	8.88
279.082	8.88
279.877	7.88
280.672	8.88
281.467	7.88
282.262	9.88
283.056	11.88
283.851	9.88
284.646	9.88
285.44	10.88
286.234	11.88
287.029	12.88
287.823	10.88
288.617	10.88
289.411	11.88
290.205	9.88
290.999	10.88
291.793	11.88
292.587	11.88
293.381	10.88
294.174	9.88
294.968	8.88
295.761	8.88
296.555	9.88
297.348	9.88
298.141	8.88
298.935	7.88
299.728	11.88
300.521	8.88
301.314	8.88
302.107	9.88
302.899	6.88
303.692	10.88
304.485	7.88
305.277	10.88
306.07	8.88
306.862	8.88
307.655	5.88
308.447	7.88
309.239	5.88
310.031	6.88
310.823	5.88
311.615	9.88
312.407	4.88
313.199	8.88
313.991	4.88
314.783	6.88
315.574	6.88
316.366	5.88
317.157	4.88
317.949	4.88
318.74	5.88
319.531	3.88
320.322	6.88
321.113	2.88
321.904	2.88
322.695	4.88
323.486	4.88
324.277	4.88
325.068	1.88
325.858	3.88
326.649	6.88
327.439	1.88
328.23	0.88
329.02	2.88
329.81	4.88
330.6	4.88
331.391	4.88
332.181	2.88
332.971	1.88
333.76	4.88
334.55	2.88
335.34	2.88
336.13	1.88
336.919	4.88
337.709	1.88
338.498	1.88
339.287	2.88
340.077	4.88
340.866	1.88
341.655	2.88
342.444	2.88
343.233	3.88
344.022	0.88
344.811	2.88
345.6	1.88
346.388	1.88
347.177	3.88
347.965	2.88
348.754	0.88
349.542	2.88
350.33	3.88
351.119	1.88
351.907	4.88
352.695	5.88
353.483	2.88
354.271	3.88
355.059	3.88
355.846	1.88
356.634	1.88
357.422	0.88
358.209	2.88
358.997	3.88
359.784	2.88
360.571	3.88
361.359	4.88
362.146	1.88
362.933	1.88
363.72	2.88
364.507	3.88
365.294	2.88
366.081	0.88
366.867	1.88
367.654	4.88
368.44	1.88
369.227	4.88
370.013	1.88
370.8	4.88
371.586	1.88
372.372	0.88
373.158	1.88
373.944	1.88
374.73	0.88
375.516	0.88
376.302	2.88
377.088	1.88
377.873	2.88
378.659	1.88
379.445	0.88
380.23	0.88
381.015	0.88
381.801	4.88
382.586	3.88
383.371	0.88
384.156	3.88
384.941	2.88
385.726	4.88
386.511	2.88
387.296	0.88
388.08	0.88
388.865	3.88
389.649	2.88
390.434	4.88
391.218	0.88
392.003	1.88
392.787	2.88
393.571	3.88
394.355	3.88
395.139	2.88
395.923	1.88
396.707	3.88
397.491	2.88
398.274	2.88
399.058	2.88
399.842	4.88
400.625	1.88
401.408	1.88
402.192	1.88
402.975	2.88
403.758	3.88
404.541	3.88
405.324	2.88
406.107	3.88
406.89	3.88
407.673	3.88
408.456	4.88
409.238	6.88
410.021	5.88
410.803	2.88
411.586	2.88
412.368	4.88
413.151	5.88
413.933	3.88
414.715	4.88
415.497	1.88
416.279	3.88
417.061	6.88
417.843	3.88
418.624	5.88
419.406	3.88
420.188	5.88
420.969	3.88
421.751	2.88
422.532	5.88
423.313	4.88
424.095	6.88
424.876	5.88
425.657	7.88
426.438	6.88
427.219	6.88
428	6.88
428.78	3.88
429.561	6.88
430.342	6.88
431.122	6.88
431.903	6.88
432.683	8.88
433.464	7.88
434.244	6.88
435.024	9.88
435.804	8.88
436.584	9.88
437.364	10.88
438.144	9.88
438.924	10.88
439.704	8.88
440.483	10.88
441.263	10.88
442.042	14.88
442.822	11.88
443.601	11.88
444.38	16.88
445.16	13.88
445.939	18.88
446.718	15.88
447.497	14.88
448.276	17.88
449.054	19.88
449.833	20.88
450.612	21.88
451.391	28.88
452.169	28.88
452.948	31.88
453.726	33.88
454.504	37.88
455.282	36.88
456.061	40.88
456.839	44.88
457.617	50.88
458.395	56.88
459.172	63.88
459.95	69.88
460.728	74.88
461.506	82.88
462.283	97.88
463.061	105.88
463.838	117.88
464.615	135.88
465.393	147.88
466.17	166.88
466.947	184.88
467.724	199.88
468.501	226.88
469.278	256.88
470.055	280.88
470.831	316.88
471.608	353.88
472.385	399.88
473.161	435.88
473.938	486.88
474.714	548.88
475.49	611.88
476.266	689.88
477.043	753.88
477.819	841.88
478.595	926.88
479.371	1024.88
480.146	1133.88
480.922	1271.88
481.698	1406.88
482.473	1560.88
483.249	1712.88
484.024	1898.88
484.8	2105.88
485.575	2313.88
486.35	2562.88
487.126	2826.88
487.901	3133.88
488.676	3466.88
489.451	3824.88
490.225	4223.88
491	4680.88
491.775	5140.88
492.55	5641.88
493.324	6222.88
494.099	6810.88
494.873	7425.88
495.647	8119.88
496.422	8828.88
497.196	9588.88
497.97	10392.88
498.744	11134.88
499.518	11964.88
500.292	12665.88
501.066	13481.88
501.839	14166.88
502.613	14816.88
503.387	15500.88
504.16	16020.88
504.934	16433.88
505.707	16745.88
506.48	16965.88
507.253	17057.88
508.027	17080.88
508.8	17006.88
509.573	16740.88
510.346	16416.88
511.118	16032.88
511.891	15466.88
512.664	14973.88
513.437	14433.88
514.209	13816.88
514.982	13284.88
515.754	12706.88
516.526	12083.88
517.298	11505.88
518.071	11000.88
518.843	10493.88
519.615	10039.88
520.387	9669.88
521.159	9300.88
521.93	8911.88
522.702	8572.88
523.474	8265.88
524.245	7925.88
525.017	7575.88
525.788	7280.88
526.56	7031.88
527.331	6680.88
528.102	6401.88
528.873	6067.88
529.644	5797.88
530.415	5559.88
531.186	5251.88
531.957	5004.88
532.728	4728.88
533.498	4447.88
534.269	4211.88
535.039	4002.88
535.81	3781.88
536.58	3550.88
537.351	3337.88
538.121	3159.88
538.891	3005.88
539.661	2841.88
540.431	2673.88
541.201	2541.88
541.971	2393.88
542.741	2284.88
543.51	2146.88
544.28	2046.88
545.05	1932.88
545.819	1851.88
546.588	1769.88
547.358	1661.88
548.127	1556.88
548.896	1507.88
549.665	1428.88
550.434	1363.88
551.203	1280.88
551.972	1229.88
552.741	1144.88
553.51	1078.88
554.278	1025.88
555.047	971.88
555.815	920.88
556.584	867.88
557.352	825.88
558.121	776.88
558.889	724.88
559.657	677.88
560.425	640.88
561.193	609.88
561.961	572.88
562.729	538.88
563.496	508.88
564.264	481.88
565.032	450.88
565.799	419.88
566.567	400.88
567.334	376.88
568.101	354.88
568.869	337.88
569.636	323.88
570.403	302.88
571.17	287.88
571.937	270.88
572.704	249.88
573.471	240.88
574.237	223.88
575.004	210.88
575.771	195.88
576.537	185.88
577.303	173.88
578.07	162.88
578.836	156.88
579.602	147.88
580.368	144.88
581.134	129.88
581.9	122.88
582.666	120.88
583.432	110.88
584.198	104.88
584.964	96.88
585.729	93.88
586.495	90.88
587.26	84.88
588.025	81.88
588.791	76.88
589.556	72.88
590.321	68.88
591.086	66.88
591.851	61.88
592.616	59.88
593.381	56.88
594.146	50.88
594.911	49.88
595.675	46.88
596.44	43.88
597.204	42.88
597.969	41.88
598.733	39.88
599.497	36.88
600.261	31.88
601.025	33.88
601.79	33.88
602.553	32.88
603.317	28.88
604.081	26.88
604.845	28.88
605.609	24.88
606.372	24.88
607.136	22.88
607.899	22.88
608.662	20.88
609.426	20.88
610.189	19.88
610.952	20.88
611.715	17.88
612.478	16.88
613.241	16.88
614.004	14.88
614.767	15.88
615.529	13.88
616.292	13.88
617.055	17.88
617.817	13.88
618.579	13.88
619.342	11.88
620.104	12.88
620.866	10.88
621.628	9.88
622.39	9.88
623.152	10.88
623.914	9.88
624.676	12.88
625.438	7.88
626.199	8.88
626.961	10.88
627.722	8.88
628.484	8.88
629.245	8.88
630.006	8.88
630.768	6.88
631.529	7.88
632.29	6.88
633.051	7.88
633.812	7.88
634.573	6.88
635.333	4.88
636.094	4.88
636.855	3.88
637.615	4.88
638.376	5.88
639.136	4.88
639.896	4.88
640.657	6.88
641.417	4.88
642.177	4.88
642.937	4.88
643.697	4.88
644.457	2.88
645.216	4.88
645.976	2.88
646.736	2.88
647.495	3.88
648.255	3.88
649.014	6.88
649.774	1.88
650.533	2.88
651.292	2.88
652.051	4.88
652.81	4.88
653.569	2.88
654.328	4.88
655.087	2.88
655.846	3.88
656.604	4.88
657.363	4.88
658.121	2.88
658.88	2.88
659.638	1.88
660.397	1.88
661.155	4.88
661.913	2.88
662.671	1.88
663.429	4.88
664.187	0.88
664.945	5.88
665.703	1.88
666.46	1.88
667.218	1.88
667.976	-0.12
668.733	1.88
669.49	2.88
670.248	3.88
671.005	2.88
671.762	4.88
672.519	4.88
673.276	0.88
674.033	2.88
674.79	2.88
675.547	0.88
676.304	1.88
677.06	-0.12
677.817	1.88
678.574	2.88
679.33	1.88
680.086	0.88
680.843	2.88
681.599	0.88
682.355	1.88
683.111	2.88
683.867	1.88
684.623	1.88
685.379	3.88
686.135	1.88
686.89	4.88
687.646	3.88
688.402	1.88
689.157	0.88
689.912	1.88
690.668	3.88
691.423	2.88
692.178	1.88
692.933	0.88
693.688	4.88
694.443	4.88
695.198	2.88
695.953	1.88
696.708	0.88
697.462	2.88
698.217	0.88
698.972	1.88
699.726	0.88
700.48	4.88
701.235	2.88
701.989	1.88
702.743	-0.12
703.497	1.88
704.251	1.88
705.005	-0.12
705.759	1.88
706.513	0.88
707.266	1.88
708.02	5.88
708.774	0.88
709.527	2.88
710.28	1.88
711.034	-0.12
711.787	2.88
712.54	0.88
713.293	1.88
714.046	0.88
714.799	1.88
715.552	0.88
716.305	0.88
717.058	-0.12
717.81	0.88
718.563	0.88
719.315	1.88
720.068	4.88
720.82	0.88
721.573	4.88
722.325	3.88
723.077	-0.12
723.829	1.88
724.581	1.88
725.333	2.88
726.085	2.88
726.836	0.88
727.588	0.88
728.34	0.88
729.091	1.88
729.843	0.88
730.594	-0.12
731.346	1.88
732.097	1.88
732.848	1.88
733.599	3.88
734.35	0.88
735.101	0.88
735.852	1.88
736.603	1.88
737.354	0.88
738.104	1.88
738.855	0.88
739.605	1.88
740.356	-0.12
741.106	0.88
741.856	0.88
742.607	3.88
743.357	0.88
744.107	-0.12
744.857	1.88
745.607	0.88
746.357	2.88
747.106	0.88
747.856	2.88
748.606	0.88
749.355	0.88
750.105	-0.12
750.854	2.88
751.603	3.88
752.353	4.88
753.102	2.88
753.851	1.88
754.6	2.88
755.349	3.88
756.098	0.88
756.847	2.88
757.595	3.88
758.344	4.88
759.093	3.88
759.841	1.88
760.589	3.88
761.338	3.88
762.086	0.88
762.834	1.88
763.582	3.88
764.331	2.88
765.079	3.88
765.826	3.88
766.574	5.88
767.322	3.88
768.07	2.88
768.817	3.88
769.565	3.88
770.312	1.88
771.06	4.88
771.807	5.88
772.554	4.88
773.302	4.88
774.049	4.88
774.796	6.88
775.543	4.88
776.29	4.88
777.036	3.88
777.783	2.88
778.53	5.88
779.276	4.88
780.023	4.88
780.769	5.88
781.516	3.88
782.262	3.88
783.008	3.88
783.754	5.88
784.5	2.88
785.246	6.88
785.992	4.88
786.738	6.88
787.484	3.88
788.23	4.88
788.975	4.88
789.721	3.88
790.466	6.88
791.212	3.88
791.957	4.88
792.702	5.88
793.447	4.88
794.193	5.88
794.938	2.88
795.683	4.88
796.427	5.88
797.172	6.88
797.917	5.88
798.662	1.88
799.406	3.88
800.151	2.88
800.895	5.88
801.64	4.88
802.384	1.88
803.128	7.88
803.872	2.88
804.616	5.88
805.36	1.88
806.104	4.88
806.848	1.88
807.592	3.88
808.336	3.88
809.079	5.88
809.823	1.88
810.566	5.88
811.31	6.88
812.053	2.88
812.796	3.88
813.539	3.88
814.283	3.88
815.026	1.88
815.769	1.88
816.511	1.88
817.254	4.88
817.997	1.88
818.74	4.88
819.482	1.88
820.225	4.88
820.967	2.88
821.71	3.88
822.452	2.88
823.194	2.88
823.936	1.88
824.678	2.88
825.42	1.88
826.162	-0.12
826.904	2.88
827.646	4.88
828.388	0.88
829.129	2.88
829.871	1.88
830.612	3.88
831.354	0.88
832.095	1.88
832.836	1.88
833.577	0.88
834.319	0.88
835.06	1.88
835.801	2.88
836.542	3.88
837.282	2.88
838.023	2.88
838.764	2.88
839.504	3.88
840.245	1.88
840.985	1.88
841.726	-0.12
842.466	-1.12
843.206	1.88
843.946	-0.12
844.687	1.88
845.427	3.88
846.166	0.88
846.906	0.88
847.646	0.88
848.386	-1.12
849.125	0.88
849.865	2.88
850.605	1.88
851.344	2.88
852.083	2.88
852.823	1.88
853.562	2.88
854.301	0.88
855.04	3.88
855.779	1.88
856.518	0.88
857.257	-0.12
857.995	1.88
858.734	1.88
859.473	1.88
860.211	1.88
860.95	1.88
861.688	-1.12
862.426	1.88
863.165	1.88
863.903	-0.12
864.641	-0.12
865.379	-0.12
866.117	1.88
866.855	1.88
867.593	-0.12
868.33	0.88
869.068	1.88
869.806	0.88
870.543	-0.12
871.28	1.88
872.018	-0.12
872.755	-2.12
873.492	0.88
874.229	-0.12
874.967	-0.12
875.703	0.88
876.44	0.88
877.177	0.88
877.914	-0.12
878.651	1.88
879.387	1.88
880.124	-0.12
880.86	0.88
881.597	-0.12
882.333	0.88
883.069	0.88
883.806	2.88
884.542	-0.12
885.278	-0.12
886.014	1.88
886.749	0.88
887.485	-0.12
888.221	0.88
888.957	-2.12
889.692	0.88
890.428	0.88
891.163	-0.12
891.899	1.88
892.634	-0.12
893.369	1.88
894.104	-2.12
894.839	1.88
895.574	-2.12
896.309	3.88
897.044	0.88
897.779	-3.12
898.514	1.88
899.248	-1.12
899.983	-0.12
900.717	2.88
901.452	-0.12
902.186	-0.12
902.92	-0.12
903.654	0.88
904.389	0.88
905.123	-2.12
905.857	-1.12
906.59	0.88
907.324	0.88
908.058	-2.12
908.792	-0.12
909.525	-1.12
910.259	0.88
910.992	0.88
911.726	-1.12
912.459	-0.12
913.192	1.88
913.925	0.88
914.658	-2.12
915.391	-2.12
916.124	-0.12
916.857	-4.12
917.59	-1.12
918.323	-0.12
919.055	0.88
919.788	-0.12
920.521	-0.12
921.253	-0.12
921.985	-2.12
922.718	-0.12
923.45	0.88
924.182	0.88
924.914	-1.12
925.646	-0.12
926.378	-0.12
927.11	-0.12
927.841	0.88
928.573	0.88
929.305	-1.12
930.036	-0.12
930.768	-0.12
931.499	0.88
932.23	-1.12
932.962	0.88
933.693	-0.12
934.424	1.88
935.155	-0.12
935.886	-2.12
936.617	0.88
937.348	-1.12
938.078	-0.12
938.809	-0.12
939.54	0.88
940.27	-0.12
941.001	-0.12
941.731	0.88
942.461	-1.12
943.191	0.88
943.922	-2.12
944.652	0.88
945.382	0.88
946.112	0.88
946.841	0.88
947.571	-0.12
948.301	0.88
949.031	-1.12
949.76	-0.12
950.49	-2.12
951.219	-0.12
951.948	0.88
952.678	-3.12
953.407	0.88
954.136	-0.12
954.865	1.88
955.594	-2.12
956.323	-2.12
957.052	-2.12
957.78	1.88
958.509	-0.12
959.238	1.88
959.966	-0.12
960.695	-0.12
961.423	-2.12
962.151	-2.12
962.88	-2.12
963.608	-0.12
964.336	-0.12
965.064	1.88
965.792	0.88
966.52	-1.12
967.247	-3.12
967.975	-2.12
968.703	1.88
969.43	0.88
970.158	-0.12
970.885	0.88
971.613	-0.12
972.34	-1.12
973.067	0.88
973.794	-0.12
974.521	-0.12
975.248	-0.12
975.975	-1.12
976.702	0.88
977.429	-3.12
978.156	-2.12
978.882	1.88
979.609	0.88
980.335	0.88
981.062	0.88
981.788	1.88
982.514	-2.12
983.24	-0.12
983.967	-2.12
984.693	1.88
985.419	-1.12
986.144	-1.12
986.87	1.88
987.596	-0.12
988.322	0.88
989.047	-0.12
989.773	-2.12
990.498	-0.12
991.224	0.88
991.949	-3.12
992.674	0.88
993.399	-0.12
994.124	0.88
994.849	-0.12
995.574	-1.12
996.299	-1.12
997.024	-1.12
997.749	0.88
998.473	-0.12
999.198	-1.12
999.922	1.88
1000.647	-2.12
1001.371	1.88
1002.095	-1.12
1002.82	-0.12
1003.544	-1.12
1004.268	0.88
1004.992	0.88
1005.716	-1.12
1006.439	-1.12
1007.163	-0.12
1007.887	-0.12
1008.611	-0.12
1009.334	-3.12
1010.058	-1.12
1010.781	-0.12
1011.504	-0.12
1012.228	-2.12
1012.951	0.88
1013.674	0.88
1014.397	-2.12
1015.12	0.88
