节点500_145_QEPB04081__193__11-32-02-514.txt的数据

Date: Wed Nov 12 11:32:02 CST 2025
User: PC
Spectrometer: QEPB0408
触发模式: 0
积分时间 (秒): 1.000000E-2
Scans to average: 1
启用暗噪声校正: true
启用非线性校正: false
滑动平均宽度: 0
X轴模式: Wavelengths
Number of Pixels in Spectrum: 1044
>>>>>Begin Spectral Data<<<<<
220.843	-0.75
221.644	-0.75
222.444	1.25
223.244	0.25
224.045	1.25
224.845	-0.75
225.645	0.25
226.445	1.25
227.245	-0.75
228.045	1.25
228.845	0.25
229.645	-0.75
230.444	1.25
231.244	-0.75
232.043	-1.75
232.843	-1.75
233.642	-1.75
234.442	0.25
235.241	1.25
236.04	0.25
236.839	-0.75
237.638	-2.75
238.437	0.25
239.236	1.25
240.035	-2.75
240.833	0.25
241.632	1.25
242.43	-0.75
243.229	1.25
244.027	0.25
244.826	3.25
245.624	0.25
246.422	0.25
247.22	0.25
248.018	-1.75
248.816	0.25
249.614	0.25
250.412	4.25
251.21	1.25
252.007	0.25
252.805	2.25
253.602	1.25
254.4	4.25
255.197	1.25
255.994	5.25
256.791	2.25
257.589	0.25
258.386	5.25
259.183	4.25
259.979	4.25
260.776	4.25
261.573	3.25
262.37	3.25
263.166	4.25
263.963	4.25
264.759	5.25
265.556	8.25
266.352	6.25
267.148	4.25
267.944	5.25
268.74	7.25
269.536	7.25
270.332	8.25
271.128	6.25
271.924	3.25
272.719	8.25
273.515	7.25
274.311	8.25
275.106	7.25
275.901	9.25
276.697	9.25
277.492	8.25
278.287	8.25
279.082	8.25
279.877	11.25
280.672	8.25
281.467	8.25
282.262	8.25
283.056	9.25
283.851	11.25
284.646	9.25
285.44	8.25
286.234	10.25
287.029	10.25
287.823	10.25
288.617	9.25
289.411	11.25
290.205	10.25
290.999	11.25
291.793	10.25
292.587	9.25
293.381	8.25
294.174	10.25
294.968	7.25
295.761	10.25
296.555	10.25
297.348	7.25
298.141	8.25
298.935	10.25
299.728	9.25
300.521	9.25
301.314	8.25
302.107	7.25
302.899	6.25
303.692	8.25
304.485	8.25
305.277	12.25
306.07	8.25
306.862	10.25
307.655	6.25
308.447	8.25
309.239	7.25
310.031	4.25
310.823	7.25
311.615	6.25
312.407	6.25
313.199	7.25
313.991	6.25
314.783	4.25
315.574	7.25
316.366	4.25
317.157	3.25
317.949	6.25
318.74	6.25
319.531	3.25
320.322	4.25
321.113	3.25
321.904	2.25
322.695	3.25
323.486	3.25
324.277	3.25
325.068	4.25
325.858	3.25
326.649	3.25
327.439	4.25
328.23	2.25
329.02	2.25
329.81	4.25
330.6	4.25
331.391	4.25
332.181	1.25
332.971	3.25
333.76	5.25
334.55	4.25
335.34	4.25
336.13	3.25
336.919	4.25
337.709	3.25
338.498	5.25
339.287	3.25
340.077	2.25
340.866	1.25
341.655	3.25
342.444	3.25
343.233	2.25
344.022	3.25
344.811	1.25
345.6	3.25
346.388	6.25
347.177	2.25
347.965	0.25
348.754	1.25
349.542	3.25
350.33	0.25
351.119	3.25
351.907	2.25
352.695	3.25
353.483	3.25
354.271	0.25
355.059	3.25
355.846	2.25
356.634	2.25
357.422	3.25
358.209	1.25
358.997	2.25
359.784	1.25
360.571	4.25
361.359	3.25
362.146	1.25
362.933	3.25
363.72	3.25
364.507	0.25
365.294	0.25
366.081	0.25
366.867	3.25
367.654	1.25
368.44	1.25
369.227	1.25
370.013	2.25
370.8	1.25
371.586	3.25
372.372	0.25
373.158	2.25
373.944	3.25
374.73	3.25
375.516	1.25
376.302	0.25
377.088	1.25
377.873	3.25
378.659	4.25
379.445	3.25
380.23	4.25
381.015	3.25
381.801	0.25
382.586	2.25
383.371	1.25
384.156	2.25
384.941	2.25
385.726	3.25
386.511	2.25
387.296	1.25
388.08	0.25
388.865	1.25
389.649	3.25
390.434	1.25
391.218	1.25
392.003	3.25
392.787	3.25
393.571	1.25
394.355	0.25
395.139	0.25
395.923	2.25
396.707	1.25
397.491	2.25
398.274	2.25
399.058	4.25
399.842	3.25
400.625	2.25
401.408	4.25
402.192	2.25
402.975	3.25
403.758	4.25
404.541	3.25
405.324	3.25
406.107	3.25
406.89	2.25
407.673	0.25
408.456	4.25
409.238	3.25
410.021	3.25
410.803	2.25
411.586	3.25
412.368	5.25
413.151	3.25
413.933	5.25
414.715	4.25
415.497	4.25
416.279	4.25
417.061	3.25
417.843	2.25
418.624	4.25
419.406	3.25
420.188	7.25
420.969	5.25
421.751	4.25
422.532	6.25
423.313	5.25
424.095	5.25
424.876	8.25
425.657	3.25
426.438	6.25
427.219	4.25
428	4.25
428.78	7.25
429.561	4.25
430.342	7.25
431.122	7.25
431.903	7.25
432.683	8.25
433.464	6.25
434.244	7.25
435.024	6.25
435.804	9.25
436.584	8.25
437.364	10.25
438.144	10.25
438.924	8.25
439.704	10.25
440.483	8.25
441.263	8.25
442.042	9.25
442.822	11.25
443.601	16.25
444.38	12.25
445.16	14.25
445.939	16.25
446.718	16.25
447.497	18.25
448.276	20.25
449.054	20.25
449.833	22.25
450.612	20.25
451.391	27.25
452.169	26.25
452.948	33.25
453.726	32.25
454.504	33.25
455.282	40.25
456.061	45.25
456.839	47.25
457.617	53.25
458.395	57.25
459.172	62.25
459.95	67.25
460.728	78.25
461.506	85.25
462.283	96.25
463.061	107.25
463.838	125.25
464.615	135.25
465.393	150.25
466.17	166.25
466.947	183.25
467.724	214.25
468.501	232.25
469.278	265.25
470.055	292.25
470.831	326.25
471.608	354.25
472.385	400.25
473.161	447.25
473.938	498.25
474.714	555.25
475.49	620.25
476.266	676.25
477.043	757.25
477.819	842.25
478.595	938.25
479.371	1034.25
480.146	1140.25
480.922	1259.25
481.698	1422.25
482.473	1539.25
483.249	1698.25
484.024	1895.25
484.8	2088.25
485.575	2305.25
486.35	2546.25
487.126	2814.25
487.901	3110.25
488.676	3458.25
489.451	3780.25
490.225	4208.25
491	4614.25
491.775	5059.25
492.55	5570.25
493.324	6109.25
494.099	6684.25
494.873	7344.25
495.647	8005.25
496.422	8672.25
497.196	9421.25
497.97	10192.25
498.744	10941.25
499.518	11728.25
500.292	12509.25
501.066	13212.25
501.839	13973.25
502.613	14684.25
503.387	15274.25
504.16	15792.25
504.934	16231.25
505.707	16617.25
506.48	16811.25
507.253	16904.25
508.027	16947.25
508.8	16871.25
509.573	16630.25
510.346	16362.25
511.118	15965.25
511.891	15511.25
512.664	14977.25
513.437	14443.25
514.209	13859.25
514.982	13272.25
515.754	12733.25
516.526	12136.25
517.298	11598.25
518.071	11062.25
518.843	10560.25
519.615	10126.25
520.387	9684.25
521.159	9348.25
521.93	8938.25
522.702	8600.25
523.474	8264.25
524.245	7941.25
525.017	7598.25
525.788	7307.25
526.56	7047.25
527.331	6733.25
528.102	6425.25
528.873	6137.25
529.644	5859.25
530.415	5601.25
531.186	5286.25
531.957	5024.25
532.728	4768.25
533.498	4504.25
534.269	4257.25
535.039	4028.25
535.81	3787.25
536.58	3563.25
537.351	3384.25
538.121	3186.25
538.891	3028.25
539.661	2864.25
540.431	2695.25
541.201	2546.25
541.971	2415.25
542.741	2292.25
543.51	2169.25
544.28	2061.25
545.05	1973.25
545.819	1852.25
546.588	1776.25
547.358	1699.25
548.127	1605.25
548.896	1522.25
549.665	1433.25
550.434	1373.25
551.203	1311.25
551.972	1238.25
552.741	1156.25
553.51	1109.25
554.278	1037.25
555.047	979.25
555.815	920.25
556.584	867.25
557.352	825.25
558.121	781.25
558.889	727.25
559.657	686.25
560.425	650.25
561.193	608.25
561.961	577.25
562.729	540.25
563.496	522.25
564.264	489.25
565.032	459.25
565.799	444.25
566.567	403.25
567.334	384.25
568.101	366.25
568.869	341.25
569.636	324.25
570.403	296.25
571.17	283.25
571.937	266.25
572.704	255.25
573.471	237.25
574.237	232.25
575.004	219.25
575.771	197.25
576.537	194.25
577.303	178.25
578.07	164.25
578.836	159.25
579.602	148.25
580.368	143.25
581.134	134.25
581.9	126.25
582.666	121.25
583.432	113.25
584.198	109.25
584.964	100.25
585.729	94.25
586.495	90.25
587.26	86.25
588.025	80.25
588.791	72.25
589.556	74.25
590.321	69.25
591.086	65.25
591.851	59.25
592.616	60.25
593.381	53.25
594.146	52.25
594.911	47.25
595.675	47.25
596.44	46.25
597.204	42.25
597.969	42.25
598.733	38.25
599.497	38.25
600.261	38.25
601.025	33.25
601.79	34.25
602.553	29.25
603.317	31.25
604.081	26.25
604.845	29.25
605.609	25.25
606.372	24.25
607.136	19.25
607.899	20.25
608.662	21.25
609.426	22.25
610.189	17.25
610.952	17.25
611.715	20.25
612.478	17.25
613.241	17.25
614.004	15.25
614.767	16.25
615.529	16.25
616.292	14.25
617.055	13.25
617.817	15.25
618.579	12.25
619.342	13.25
620.104	9.25
620.866	11.25
621.628	11.25
622.39	9.25
623.152	10.25
623.914	11.25
624.676	10.25
625.438	9.25
626.199	8.25
626.961	8.25
627.722	7.25
628.484	8.25
629.245	7.25
630.006	7.25
630.768	4.25
631.529	7.25
632.29	5.25
633.051	5.25
633.812	6.25
634.573	6.25
635.333	4.25
636.094	5.25
636.855	5.25
637.615	6.25
638.376	6.25
639.136	4.25
639.896	5.25
640.657	6.25
641.417	2.25
642.177	6.25
642.937	6.25
643.697	1.25
644.457	5.25
645.216	2.25
645.976	3.25
646.736	4.25
647.495	3.25
648.255	4.25
649.014	3.25
649.774	3.25
650.533	1.25
651.292	3.25
652.051	4.25
652.81	3.25
653.569	4.25
654.328	2.25
655.087	3.25
655.846	2.25
656.604	0.25
657.363	3.25
658.121	2.25
658.88	3.25
659.638	1.25
660.397	2.25
661.155	2.25
661.913	1.25
662.671	2.25
663.429	0.25
664.187	4.25
664.945	2.25
665.703	3.25
666.46	3.25
667.218	1.25
667.976	1.25
668.733	1.25
669.49	2.25
670.248	3.25
671.005	2.25
671.762	2.25
672.519	1.25
673.276	2.25
674.033	0.25
674.79	1.25
675.547	1.25
676.304	1.25
677.06	3.25
677.817	0.25
678.574	1.25
679.33	0.25
680.086	2.25
680.843	0.25
681.599	1.25
682.355	0.25
683.111	3.25
683.867	1.25
684.623	-0.75
685.379	3.25
686.135	0.25
686.89	-1.75
687.646	1.25
688.402	-0.75
689.157	2.25
689.912	-0.75
690.668	1.25
691.423	2.25
692.178	2.25
692.933	-0.75
693.688	0.25
694.443	2.25
695.198	0.25
695.953	1.25
696.708	0.25
697.462	-1.75
698.217	0.25
698.972	0.25
699.726	0.25
700.48	2.25
701.235	1.25
701.989	0.25
702.743	1.25
703.497	0.25
704.251	1.25
705.005	2.25
705.759	1.25
706.513	2.25
707.266	3.25
708.02	3.25
708.774	0.25
709.527	-0.75
710.28	3.25
711.034	0.25
711.787	3.25
712.54	0.25
713.293	0.25
714.046	1.25
714.799	0.25
715.552	1.25
716.305	1.25
717.058	1.25
717.81	2.25
718.563	2.25
719.315	0.25
720.068	0.25
720.82	1.25
721.573	2.25
722.325	2.25
723.077	3.25
723.829	-0.75
724.581	3.25
725.333	-0.75
726.085	0.25
726.836	2.25
727.588	1.25
728.34	-0.75
729.091	0.25
729.843	1.25
730.594	1.25
731.346	3.25
732.097	-0.75
732.848	2.25
733.599	2.25
734.35	-0.75
735.101	0.25
735.852	0.25
736.603	1.25
737.354	3.25
738.104	1.25
738.855	3.25
739.605	1.25
740.356	1.25
741.106	1.25
741.856	0.25
742.607	0.25
743.357	3.25
744.107	3.25
744.857	1.25
745.607	3.25
746.357	1.25
747.106	2.25
747.856	1.25
748.606	1.25
749.355	3.25
750.105	0.25
750.854	1.25
751.603	2.25
752.353	0.25
753.102	2.25
753.851	2.25
754.6	1.25
755.349	0.25
756.098	4.25
756.847	2.25
757.595	1.25
758.344	0.25
759.093	2.25
759.841	3.25
760.589	3.25
761.338	4.25
762.086	3.25
762.834	2.25
763.582	3.25
764.331	2.25
765.079	2.25
765.826	3.25
766.574	3.25
767.322	2.25
768.07	3.25
768.817	3.25
769.565	1.25
770.312	4.25
771.06	3.25
771.807	1.25
772.554	5.25
773.302	4.25
774.049	5.25
774.796	2.25
775.543	5.25
776.29	6.25
777.036	3.25
777.783	1.25
778.53	6.25
779.276	3.25
780.023	3.25
780.769	4.25
781.516	7.25
782.262	4.25
783.008	2.25
783.754	5.25
784.5	4.25
785.246	3.25
785.992	5.25
786.738	4.25
787.484	4.25
788.23	6.25
788.975	6.25
789.721	5.25
790.466	5.25
791.212	6.25
791.957	2.25
792.702	6.25
793.447	3.25
794.193	4.25
794.938	4.25
795.683	3.25
796.427	5.25
797.172	3.25
797.917	6.25
798.662	5.25
799.406	4.25
800.151	4.25
800.895	3.25
801.64	5.25
802.384	2.25
803.128	3.25
803.872	4.25
804.616	2.25
805.36	3.25
806.104	2.25
806.848	3.25
807.592	4.25
808.336	2.25
809.079	3.25
809.823	1.25
810.566	3.25
811.31	1.25
812.053	3.25
812.796	2.25
813.539	1.25
814.283	1.25
815.026	0.25
815.769	0.25
816.511	1.25
817.254	3.25
817.997	1.25
818.74	3.25
819.482	3.25
820.225	3.25
820.967	2.25
821.71	1.25
822.452	3.25
823.194	2.25
823.936	3.25
824.678	3.25
825.42	1.25
826.162	1.25
826.904	3.25
827.646	3.25
828.388	0.25
829.129	4.25
829.871	-0.75
830.612	0.25
831.354	2.25
832.095	1.25
832.836	2.25
833.577	3.25
834.319	1.25
835.06	0.25
835.801	0.25
836.542	0.25
837.282	2.25
838.023	1.25
838.764	2.25
839.504	1.25
840.245	3.25
840.985	1.25
841.726	2.25
842.466	2.25
843.206	1.25
843.946	1.25
844.687	0.25
845.427	0.25
846.166	1.25
846.906	1.25
847.646	0.25
848.386	2.25
849.125	1.25
849.865	2.25
850.605	1.25
851.344	-0.75
852.083	2.25
852.823	-1.75
853.562	0.25
854.301	0.25
855.04	1.25
855.779	2.25
856.518	1.25
857.257	2.25
857.995	1.25
858.734	1.25
859.473	1.25
860.211	0.25
860.95	1.25
861.688	2.25
862.426	1.25
863.165	1.25
863.903	-0.75
864.641	2.25
865.379	-0.75
866.117	0.25
866.855	3.25
867.593	1.25
868.33	0.25
869.068	-0.75
869.806	-0.75
870.543	1.25
871.28	-0.75
872.018	0.25
872.755	1.25
873.492	-0.75
874.229	-2.75
874.967	1.25
875.703	0.25
876.44	-0.75
877.177	-0.75
877.914	0.25
878.651	1.25
879.387	0.25
880.124	2.25
880.86	-2.75
881.597	2.25
882.333	0.25
883.069	1.25
883.806	0.25
884.542	0.25
885.278	0.25
886.014	0.25
886.749	0.25
887.485	1.25
888.221	-0.75
888.957	-0.75
889.692	-1.75
890.428	1.25
891.163	-0.75
891.899	0.25
892.634	0.25
893.369	-2.75
894.104	1.25
894.839	0.25
895.574	0.25
896.309	-2.75
897.044	1.25
897.779	1.25
898.514	-1.75
899.248	0.25
899.983	-0.75
900.717	-0.75
901.452	-0.75
902.186	1.25
902.92	1.25
903.654	1.25
904.389	0.25
905.123	-0.75
905.857	1.25
906.59	0.25
907.324	0.25
908.058	1.25
908.792	-0.75
909.525	0.25
910.259	0.25
910.992	-1.75
911.726	0.25
912.459	-0.75
913.192	1.25
913.925	-0.75
914.658	0.25
915.391	-1.75
916.124	-1.75
916.857	2.25
917.59	-0.75
918.323	-1.75
919.055	-0.75
919.788	1.25
920.521	-1.75
921.253	-2.75
921.985	1.25
922.718	-0.75
923.45	-1.75
924.182	-1.75
924.914	-1.75
925.646	-1.75
926.378	0.25
927.11	-0.75
927.841	-1.75
928.573	0.25
929.305	0.25
930.036	0.25
930.768	1.25
931.499	-2.75
932.23	-2.75
932.962	-1.75
933.693	-0.75
934.424	-0.75
935.155	2.25
935.886	-0.75
936.617	-1.75
937.348	0.25
938.078	0.25
938.809	-0.75
939.54	-0.75
940.27	-0.75
941.001	-0.75
941.731	-1.75
942.461	-0.75
943.191	0.25
943.922	1.25
944.652	-2.75
945.382	-0.75
946.112	0.25
946.841	0.25
947.571	-1.75
948.301	-1.75
949.031	-0.75
949.76	-2.75
950.49	-2.75
951.219	1.25
951.948	-0.75
952.678	-0.75
953.407	-1.75
954.136	2.25
954.865	1.25
955.594	0.25
956.323	-1.75
957.052	-0.75
957.78	-1.75
958.509	-0.75
959.238	-0.75
959.966	-1.75
960.695	-1.75
961.423	0.25
962.151	-0.75
962.88	-1.75
963.608	-3.75
964.336	-0.75
965.064	0.25
965.792	-0.75
966.52	0.25
967.247	0.25
967.975	-0.75
968.703	0.25
969.43	-0.75
970.158	-0.75
970.885	0.25
971.613	-0.75
972.34	-2.75
973.067	-1.75
973.794	0.25
974.521	-0.75
975.248	-1.75
975.975	-0.75
976.702	-0.75
977.429	-0.75
978.156	-0.75
978.882	-1.75
979.609	0.25
980.335	-0.75
981.062	-0.75
981.788	1.25
982.514	0.25
983.24	-0.75
983.967	-1.75
984.693	0.25
985.419	-0.75
986.144	-1.75
986.87	-0.75
987.596	0.25
988.322	1.25
989.047	-2.75
989.773	-0.75
990.498	-2.75
991.224	0.25
991.949	-1.75
992.674	-0.75
993.399	1.25
994.124	0.25
994.849	0.25
995.574	0.25
996.299	0.25
997.024	-1.75
997.749	-0.75
998.473	-0.75
999.198	0.25
999.922	0.25
1000.647	0.25
1001.371	3.25
1002.095	-0.75
1002.82	-2.75
1003.544	-0.75
1004.268	0.25
1004.992	-0.75
1005.716	-0.75
1006.439	-1.75
1007.163	-0.75
1007.887	-2.75
1008.611	-0.75
1009.334	-0.75
1010.058	0.25
1010.781	2.25
1011.504	0.25
1012.228	-0.75
1012.951	1.25
1013.674	-0.75
1014.397	1.25
1015.12	-0.75
