节点500_145_QEPB04081__553__11-37-44-439.txt的数据

Date: Wed Nov 12 11:37:44 CST 2025
User: PC
Spectrometer: QEPB0408
触发模式: 0
积分时间 (秒): 1.000000E-2
Scans to average: 1
启用暗噪声校正: true
启用非线性校正: false
滑动平均宽度: 0
X轴模式: Wavelengths
Number of Pixels in Spectrum: 1044
>>>>>Begin Spectral Data<<<<<
220.843	1.88
221.644	0.88
222.444	-0.12
223.244	-0.12
224.045	-1.12
224.845	1.88
225.645	-0.12
226.445	2.88
227.245	0.88
228.045	1.88
228.845	2.88
229.645	0.88
230.444	0.88
231.244	0.88
232.043	1.88
232.843	-0.12
233.642	1.88
234.442	2.88
235.241	-0.12
236.04	2.88
236.839	-0.12
237.638	1.88
238.437	2.88
239.236	1.88
240.035	-0.12
240.833	3.88
241.632	0.88
242.43	0.88
243.229	1.88
244.027	0.88
244.826	2.88
245.624	2.88
246.422	3.88
247.22	2.88
248.018	2.88
248.816	1.88
249.614	3.88
250.412	1.88
251.21	1.88
252.007	3.88
252.805	2.88
253.602	2.88
254.4	0.88
255.197	1.88
255.994	5.88
256.791	2.88
257.589	3.88
258.386	2.88
259.183	4.88
259.979	3.88
260.776	2.88
261.573	4.88
262.37	5.88
263.166	5.88
263.963	5.88
264.759	3.88
265.556	4.88
266.352	6.88
267.148	3.88
267.944	4.88
268.74	4.88
269.536	7.88
270.332	6.88
271.128	9.88
271.924	5.88
272.719	10.88
273.515	6.88
274.311	7.88
275.106	6.88
275.901	7.88
276.697	7.88
277.492	8.88
278.287	8.88
279.082	7.88
279.877	8.88
280.672	10.88
281.467	9.88
282.262	9.88
283.056	8.88
283.851	11.88
284.646	10.88
285.44	8.88
286.234	9.88
287.029	7.88
287.823	12.88
288.617	10.88
289.411	8.88
290.205	9.88
290.999	10.88
291.793	12.88
292.587	9.88
293.381	11.88
294.174	9.88
294.968	11.88
295.761	9.88
296.555	7.88
297.348	10.88
298.141	9.88
298.935	9.88
299.728	10.88
300.521	9.88
301.314	8.88
302.107	7.88
302.899	10.88
303.692	5.88
304.485	8.88
305.277	6.88
306.07	6.88
306.862	7.88
307.655	7.88
308.447	7.88
309.239	7.88
310.031	6.88
310.823	9.88
311.615	5.88
312.407	6.88
313.199	7.88
313.991	4.88
314.783	5.88
315.574	5.88
316.366	5.88
317.157	6.88
317.949	6.88
318.74	4.88
319.531	6.88
320.322	5.88
321.113	4.88
321.904	8.88
322.695	5.88
323.486	3.88
324.277	4.88
325.068	5.88
325.858	2.88
326.649	5.88
327.439	3.88
328.23	3.88
329.02	5.88
329.81	2.88
330.6	6.88
331.391	4.88
332.181	3.88
332.971	5.88
333.76	4.88
334.55	5.88
335.34	1.88
336.13	5.88
336.919	3.88
337.709	3.88
338.498	4.88
339.287	4.88
340.077	2.88
340.866	3.88
341.655	3.88
342.444	3.88
343.233	3.88
344.022	3.88
344.811	1.88
345.6	2.88
346.388	2.88
347.177	3.88
347.965	2.88
348.754	5.88
349.542	3.88
350.33	4.88
351.119	5.88
351.907	4.88
352.695	3.88
353.483	3.88
354.271	3.88
355.059	2.88
355.846	1.88
356.634	3.88
357.422	0.88
358.209	3.88
358.997	4.88
359.784	4.88
360.571	4.88
361.359	2.88
362.146	1.88
362.933	1.88
363.72	2.88
364.507	1.88
365.294	0.88
366.081	4.88
366.867	1.88
367.654	4.88
368.44	1.88
369.227	3.88
370.013	1.88
370.8	2.88
371.586	2.88
372.372	2.88
373.158	1.88
373.944	3.88
374.73	3.88
375.516	2.88
376.302	2.88
377.088	4.88
377.873	1.88
378.659	4.88
379.445	3.88
380.23	2.88
381.015	0.88
381.801	1.88
382.586	4.88
383.371	3.88
384.156	2.88
384.941	1.88
385.726	2.88
386.511	5.88
387.296	3.88
388.08	3.88
388.865	2.88
389.649	2.88
390.434	2.88
391.218	3.88
392.003	2.88
392.787	3.88
393.571	4.88
394.355	2.88
395.139	4.88
395.923	4.88
396.707	1.88
397.491	4.88
398.274	2.88
399.058	1.88
399.842	3.88
400.625	4.88
401.408	4.88
402.192	5.88
402.975	5.88
403.758	2.88
404.541	3.88
405.324	2.88
406.107	6.88
406.89	4.88
407.673	3.88
408.456	3.88
409.238	4.88
410.021	7.88
410.803	2.88
411.586	3.88
412.368	5.88
413.151	7.88
413.933	3.88
414.715	3.88
415.497	6.88
416.279	6.88
417.061	5.88
417.843	6.88
418.624	4.88
419.406	6.88
420.188	4.88
420.969	6.88
421.751	4.88
422.532	6.88
423.313	6.88
424.095	5.88
424.876	6.88
425.657	4.88
426.438	9.88
427.219	5.88
428	8.88
428.78	8.88
429.561	5.88
430.342	5.88
431.122	8.88
431.903	8.88
432.683	5.88
433.464	7.88
434.244	8.88
435.024	6.88
435.804	10.88
436.584	7.88
437.364	9.88
438.144	11.88
438.924	9.88
439.704	13.88
440.483	9.88
441.263	12.88
442.042	10.88
442.822	10.88
443.601	14.88
444.38	14.88
445.16	16.88
445.939	15.88
446.718	19.88
447.497	19.88
448.276	21.88
449.054	23.88
449.833	26.88
450.612	26.88
451.391	29.88
452.169	33.88
452.948	33.88
453.726	36.88
454.504	39.88
455.282	44.88
456.061	49.88
456.839	53.88
457.617	61.88
458.395	66.88
459.172	74.88
459.95	81.88
460.728	86.88
461.506	101.88
462.283	112.88
463.061	122.88
463.838	134.88
464.615	152.88
465.393	165.88
466.17	191.88
466.947	210.88
467.724	232.88
468.501	258.88
469.278	292.88
470.055	324.88
470.831	351.88
471.608	398.88
472.385	441.88
473.161	480.88
473.938	541.88
474.714	588.88
475.49	649.88
476.266	720.88
477.043	798.88
477.819	872.88
478.595	955.88
479.371	1065.88
480.146	1159.88
480.922	1262.88
481.698	1399.88
482.473	1534.88
483.249	1674.88
484.024	1851.88
484.8	2032.88
485.575	2229.88
486.35	2426.88
487.126	2667.88
487.901	2910.88
488.676	3204.88
489.451	3525.88
490.225	3825.88
491	4172.88
491.775	4547.88
492.55	5018.88
493.324	5431.88
494.099	5916.88
494.873	6388.88
495.647	7037.88
496.422	7600.88
497.196	8195.88
497.97	8805.88
498.744	9443.88
499.518	10185.88
500.292	10862.88
501.066	11494.88
501.839	12154.88
502.613	12773.88
503.387	13317.88
504.16	13952.88
504.934	14399.88
505.707	14815.88
506.48	15121.88
507.253	15351.88
508.027	15579.88
508.8	15592.88
509.573	15584.88
510.346	15428.88
511.118	15233.88
511.891	14931.88
512.664	14525.88
513.437	14121.88
514.209	13732.88
514.982	13202.88
515.754	12741.88
516.526	12233.88
517.298	11691.88
518.071	11190.88
518.843	10732.88
519.615	10300.88
520.387	9882.88
521.159	9496.88
521.93	9067.88
522.702	8709.88
523.474	8402.88
524.245	8077.88
525.017	7728.88
525.788	7415.88
526.56	7163.88
527.331	6836.88
528.102	6525.88
528.873	6276.88
529.644	5991.88
530.415	5756.88
531.186	5501.88
531.957	5258.88
532.728	4977.88
533.498	4720.88
534.269	4456.88
535.039	4253.88
535.81	3990.88
536.58	3785.88
537.351	3570.88
538.121	3408.88
538.891	3212.88
539.661	3023.88
540.431	2857.88
541.201	2696.88
541.971	2551.88
542.741	2426.88
543.51	2314.88
544.28	2185.88
545.05	2078.88
545.819	1991.88
546.588	1867.88
547.358	1788.88
548.127	1701.88
548.896	1613.88
549.665	1541.88
550.434	1459.88
551.203	1388.88
551.972	1301.88
552.741	1245.88
553.51	1173.88
554.278	1116.88
555.047	1059.88
555.815	993.88
556.584	935.88
557.352	893.88
558.121	842.88
558.889	799.88
559.657	743.88
560.425	702.88
561.193	661.88
561.961	628.88
562.729	592.88
563.496	551.88
564.264	529.88
565.032	497.88
565.799	472.88
566.567	439.88
567.334	414.88
568.101	389.88
568.869	380.88
569.636	354.88
570.403	337.88
571.17	306.88
571.937	295.88
572.704	280.88
573.471	261.88
574.237	245.88
575.004	230.88
575.771	216.88
576.537	207.88
577.303	197.88
578.07	180.88
578.836	169.88
579.602	165.88
580.368	151.88
581.134	146.88
581.9	142.88
582.666	132.88
583.432	125.88
584.198	119.88
584.964	110.88
585.729	105.88
586.495	97.88
587.26	91.88
588.025	91.88
588.791	82.88
589.556	79.88
590.321	76.88
591.086	71.88
591.851	70.88
592.616	62.88
593.381	59.88
594.146	58.88
594.911	56.88
595.675	52.88
596.44	47.88
597.204	48.88
597.969	44.88
598.733	45.88
599.497	40.88
600.261	40.88
601.025	38.88
601.79	33.88
602.553	33.88
603.317	30.88
604.081	33.88
604.845	27.88
605.609	27.88
606.372	26.88
607.136	24.88
607.899	23.88
608.662	24.88
609.426	26.88
610.189	20.88
610.952	21.88
611.715	17.88
612.478	18.88
613.241	19.88
614.004	19.88
614.767	17.88
615.529	17.88
616.292	16.88
617.055	15.88
617.817	16.88
618.579	12.88
619.342	11.88
620.104	11.88
620.866	10.88
621.628	13.88
622.39	9.88
623.152	11.88
623.914	10.88
624.676	11.88
625.438	9.88
626.199	9.88
626.961	8.88
627.722	9.88
628.484	10.88
629.245	7.88
630.006	6.88
630.768	10.88
631.529	10.88
632.29	8.88
633.051	7.88
633.812	9.88
634.573	8.88
635.333	6.88
636.094	7.88
636.855	7.88
637.615	6.88
638.376	6.88
639.136	3.88
639.896	4.88
640.657	5.88
641.417	4.88
642.177	5.88
642.937	5.88
643.697	7.88
644.457	4.88
645.216	6.88
645.976	4.88
646.736	5.88
647.495	3.88
648.255	2.88
649.014	3.88
649.774	5.88
650.533	4.88
651.292	2.88
652.051	5.88
652.81	2.88
653.569	3.88
654.328	5.88
655.087	3.88
655.846	6.88
656.604	2.88
657.363	4.88
658.121	5.88
658.88	5.88
659.638	6.88
660.397	0.88
661.155	4.88
661.913	3.88
662.671	3.88
663.429	3.88
664.187	2.88
664.945	4.88
665.703	1.88
666.46	2.88
667.218	1.88
667.976	1.88
668.733	2.88
669.49	-1.12
670.248	2.88
671.005	3.88
671.762	1.88
672.519	2.88
673.276	2.88
674.033	2.88
674.79	6.88
675.547	3.88
676.304	1.88
677.06	2.88
677.817	1.88
678.574	3.88
679.33	4.88
680.086	1.88
680.843	3.88
681.599	2.88
682.355	2.88
683.111	3.88
683.867	3.88
684.623	4.88
685.379	1.88
686.135	3.88
686.89	3.88
687.646	2.88
688.402	-0.12
689.157	1.88
689.912	4.88
690.668	1.88
691.423	2.88
692.178	-0.12
692.933	4.88
693.688	2.88
694.443	2.88
695.198	2.88
695.953	1.88
696.708	1.88
697.462	3.88
698.217	2.88
698.972	2.88
699.726	2.88
700.48	5.88
701.235	0.88
701.989	1.88
702.743	2.88
703.497	1.88
704.251	3.88
705.005	3.88
705.759	3.88
706.513	0.88
707.266	2.88
708.02	2.88
708.774	4.88
709.527	1.88
710.28	3.88
711.034	2.88
711.787	1.88
712.54	1.88
713.293	1.88
714.046	3.88
714.799	2.88
715.552	1.88
716.305	2.88
717.058	3.88
717.81	1.88
718.563	1.88
719.315	3.88
720.068	2.88
720.82	1.88
721.573	1.88
722.325	3.88
723.077	2.88
723.829	2.88
724.581	1.88
725.333	2.88
726.085	1.88
726.836	2.88
727.588	2.88
728.34	2.88
729.091	3.88
729.843	0.88
730.594	1.88
731.346	1.88
732.097	2.88
732.848	0.88
733.599	4.88
734.35	0.88
735.101	2.88
735.852	1.88
736.603	1.88
737.354	3.88
738.104	3.88
738.855	1.88
739.605	2.88
740.356	2.88
741.106	1.88
741.856	3.88
742.607	1.88
743.357	0.88
744.107	3.88
744.857	1.88
745.607	1.88
746.357	2.88
747.106	0.88
747.856	2.88
748.606	2.88
749.355	4.88
750.105	2.88
750.854	2.88
751.603	1.88
752.353	3.88
753.102	1.88
753.851	1.88
754.6	0.88
755.349	2.88
756.098	2.88
756.847	3.88
757.595	2.88
758.344	2.88
759.093	5.88
759.841	2.88
760.589	2.88
761.338	2.88
762.086	3.88
762.834	3.88
763.582	4.88
764.331	1.88
765.079	5.88
765.826	2.88
766.574	1.88
767.322	3.88
768.07	5.88
768.817	3.88
769.565	2.88
770.312	5.88
771.06	2.88
771.807	2.88
772.554	5.88
773.302	4.88
774.049	5.88
774.796	3.88
775.543	4.88
776.29	4.88
777.036	2.88
777.783	7.88
778.53	6.88
779.276	7.88
780.023	4.88
780.769	3.88
781.516	1.88
782.262	2.88
783.008	4.88
783.754	2.88
784.5	4.88
785.246	3.88
785.992	4.88
786.738	4.88
787.484	6.88
788.23	7.88
788.975	5.88
789.721	3.88
790.466	4.88
791.212	3.88
791.957	3.88
792.702	3.88
793.447	4.88
794.193	2.88
794.938	5.88
795.683	5.88
796.427	4.88
797.172	3.88
797.917	4.88
798.662	3.88
799.406	4.88
800.151	6.88
800.895	6.88
801.64	3.88
802.384	3.88
803.128	4.88
803.872	4.88
804.616	5.88
805.36	2.88
806.104	1.88
806.848	3.88
807.592	5.88
808.336	3.88
809.079	3.88
809.823	2.88
810.566	3.88
811.31	3.88
812.053	0.88
812.796	5.88
813.539	2.88
814.283	4.88
815.026	2.88
815.769	1.88
816.511	5.88
817.254	4.88
817.997	2.88
818.74	1.88
819.482	2.88
820.225	3.88
820.967	5.88
821.71	4.88
822.452	4.88
823.194	2.88
823.936	0.88
824.678	3.88
825.42	3.88
826.162	3.88
826.904	3.88
827.646	3.88
828.388	1.88
829.129	2.88
829.871	1.88
830.612	1.88
831.354	2.88
832.095	3.88
832.836	2.88
833.577	1.88
834.319	1.88
835.06	2.88
835.801	2.88
836.542	3.88
837.282	1.88
838.023	1.88
838.764	1.88
839.504	4.88
840.245	2.88
840.985	2.88
841.726	1.88
842.466	2.88
843.206	3.88
843.946	1.88
844.687	2.88
845.427	4.88
846.166	1.88
846.906	2.88
847.646	3.88
848.386	2.88
849.125	2.88
849.865	0.88
850.605	2.88
851.344	1.88
852.083	0.88
852.823	1.88
853.562	2.88
854.301	2.88
855.04	0.88
855.779	1.88
856.518	2.88
857.257	1.88
857.995	2.88
858.734	0.88
859.473	1.88
860.211	1.88
860.95	1.88
861.688	0.88
862.426	-0.12
863.165	2.88
863.903	1.88
864.641	1.88
865.379	0.88
866.117	3.88
866.855	1.88
867.593	2.88
868.33	1.88
869.068	0.88
869.806	2.88
870.543	2.88
871.28	0.88
872.018	0.88
872.755	1.88
873.492	0.88
874.229	-0.12
874.967	2.88
875.703	-0.12
876.44	2.88
877.177	-0.12
877.914	0.88
878.651	1.88
879.387	-2.12
880.124	1.88
880.86	-0.12
881.597	1.88
882.333	0.88
883.069	-0.12
883.806	2.88
884.542	-1.12
885.278	1.88
886.014	-1.12
886.749	1.88
887.485	-0.12
888.221	1.88
888.957	-1.12
889.692	0.88
890.428	-0.12
891.163	-1.12
891.899	0.88
892.634	0.88
893.369	0.88
894.104	0.88
894.839	0.88
895.574	2.88
896.309	0.88
897.044	1.88
897.779	-1.12
898.514	1.88
899.248	0.88
899.983	0.88
900.717	3.88
901.452	0.88
902.186	-1.12
902.92	1.88
903.654	-1.12
904.389	3.88
905.123	-0.12
905.857	-0.12
906.59	-0.12
907.324	1.88
908.058	-1.12
908.792	1.88
909.525	0.88
910.259	-0.12
910.992	1.88
911.726	1.88
912.459	1.88
913.192	2.88
913.925	-1.12
914.658	0.88
915.391	-1.12
916.124	0.88
916.857	0.88
917.59	0.88
918.323	1.88
919.055	1.88
919.788	1.88
920.521	-0.12
921.253	-0.12
921.985	0.88
922.718	0.88
923.45	0.88
924.182	1.88
924.914	1.88
925.646	0.88
926.378	0.88
927.11	-0.12
927.841	-1.12
928.573	-1.12
929.305	-0.12
930.036	0.88
930.768	-2.12
931.499	0.88
932.23	1.88
932.962	-1.12
933.693	1.88
934.424	1.88
935.155	0.88
935.886	0.88
936.617	1.88
937.348	0.88
938.078	1.88
938.809	1.88
939.54	3.88
940.27	0.88
941.001	-2.12
941.731	1.88
942.461	-0.12
943.191	2.88
943.922	1.88
944.652	-0.12
945.382	1.88
946.112	-2.12
946.841	0.88
947.571	-1.12
948.301	0.88
949.031	-1.12
949.76	-0.12
950.49	-1.12
951.219	-1.12
951.948	0.88
952.678	1.88
953.407	-1.12
954.136	1.88
954.865	0.88
955.594	0.88
956.323	-2.12
957.052	3.88
957.78	0.88
958.509	0.88
959.238	-0.12
959.966	0.88
960.695	-0.12
961.423	0.88
962.151	1.88
962.88	-0.12
963.608	-1.12
964.336	-1.12
965.064	0.88
965.792	2.88
966.52	0.88
967.247	0.88
967.975	0.88
968.703	2.88
969.43	0.88
970.158	-0.12
970.885	0.88
971.613	0.88
972.34	-1.12
973.067	1.88
973.794	0.88
974.521	-0.12
975.248	-0.12
975.975	-0.12
976.702	-1.12
977.429	-0.12
978.156	1.88
978.882	-1.12
979.609	0.88
980.335	2.88
981.062	0.88
981.788	2.88
982.514	-1.12
983.24	0.88
983.967	0.88
984.693	0.88
985.419	0.88
986.144	-0.12
986.87	0.88
987.596	-0.12
988.322	0.88
989.047	1.88
989.773	1.88
990.498	-0.12
991.224	-1.12
991.949	1.88
992.674	1.88
993.399	-1.12
994.124	-1.12
994.849	2.88
995.574	0.88
996.299	1.88
997.024	0.88
997.749	1.88
998.473	-1.12
999.198	0.88
999.922	-0.12
1000.647	1.88
1001.371	3.88
1002.095	-1.12
1002.82	-1.12
1003.544	-0.12
1004.268	-1.12
1004.992	-0.12
1005.716	-0.12
1006.439	-1.12
1007.163	-1.12
1007.887	1.88
1008.611	1.88
1009.334	1.88
1010.058	0.88
1010.781	0.88
1011.504	-2.12
1012.228	1.88
1012.951	-0.12
1013.674	-0.12
1014.397	-1.12
1015.12	-0.12
