节点500_145_QEPB04081__426__11-35-45-552.txt的数据

Date: Wed Nov 12 11:35:45 CST 2025
User: PC
Spectrometer: QEPB0408
触发模式: 0
积分时间 (秒): 1.000000E-2
Scans to average: 1
启用暗噪声校正: true
启用非线性校正: false
滑动平均宽度: 0
X轴模式: Wavelengths
Number of Pixels in Spectrum: 1044
>>>>>Begin Spectral Data<<<<<
220.843	-1.75
221.644	-2.75
222.444	-0.75
223.244	-0.75
224.045	-0.75
224.845	2.25
225.645	0.25
226.445	-0.75
227.245	2.25
228.045	-1.75
228.845	0.25
229.645	-0.75
230.444	2.25
231.244	-0.75
232.043	1.25
232.843	1.25
233.642	-0.75
234.442	-1.75
235.241	-1.75
236.04	1.25
236.839	0.25
237.638	0.25
238.437	0.25
239.236	0.25
240.035	1.25
240.833	2.25
241.632	1.25
242.43	3.25
243.229	2.25
244.027	1.25
244.826	0.25
245.624	2.25
246.422	2.25
247.22	3.25
248.018	0.25
248.816	4.25
249.614	0.25
250.412	2.25
251.21	2.25
252.007	1.25
252.805	2.25
253.602	5.25
254.4	1.25
255.197	3.25
255.994	2.25
256.791	5.25
257.589	2.25
258.386	3.25
259.183	2.25
259.979	3.25
260.776	2.25
261.573	3.25
262.37	5.25
263.166	4.25
263.963	4.25
264.759	5.25
265.556	5.25
266.352	5.25
267.148	3.25
267.944	5.25
268.74	4.25
269.536	8.25
270.332	7.25
271.128	7.25
271.924	8.25
272.719	8.25
273.515	10.25
274.311	8.25
275.106	9.25
275.901	7.25
276.697	8.25
277.492	7.25
278.287	6.25
279.082	9.25
279.877	9.25
280.672	9.25
281.467	7.25
282.262	10.25
283.056	11.25
283.851	11.25
284.646	11.25
285.44	9.25
286.234	10.25
287.029	10.25
287.823	8.25
288.617	11.25
289.411	11.25
290.205	13.25
290.999	11.25
291.793	12.25
292.587	10.25
293.381	9.25
294.174	9.25
294.968	8.25
295.761	11.25
296.555	8.25
297.348	8.25
298.141	9.25
298.935	9.25
299.728	8.25
300.521	9.25
301.314	9.25
302.107	5.25
302.899	8.25
303.692	9.25
304.485	7.25
305.277	7.25
306.07	9.25
306.862	7.25
307.655	8.25
308.447	7.25
309.239	5.25
310.031	7.25
310.823	6.25
311.615	6.25
312.407	5.25
313.199	4.25
313.991	5.25
314.783	6.25
315.574	5.25
316.366	6.25
317.157	5.25
317.949	5.25
318.74	5.25
319.531	5.25
320.322	6.25
321.113	5.25
321.904	4.25
322.695	4.25
323.486	5.25
324.277	2.25
325.068	4.25
325.858	4.25
326.649	4.25
327.439	5.25
328.23	3.25
329.02	6.25
329.81	3.25
330.6	3.25
331.391	4.25
332.181	3.25
332.971	1.25
333.76	5.25
334.55	4.25
335.34	4.25
336.13	3.25
336.919	4.25
337.709	3.25
338.498	4.25
339.287	4.25
340.077	3.25
340.866	1.25
341.655	3.25
342.444	2.25
343.233	3.25
344.022	3.25
344.811	4.25
345.6	3.25
346.388	4.25
347.177	2.25
347.965	3.25
348.754	1.25
349.542	4.25
350.33	3.25
351.119	3.25
351.907	3.25
352.695	1.25
353.483	3.25
354.271	2.25
355.059	3.25
355.846	4.25
356.634	2.25
357.422	3.25
358.209	1.25
358.997	3.25
359.784	2.25
360.571	3.25
361.359	1.25
362.146	2.25
362.933	3.25
363.72	2.25
364.507	4.25
365.294	1.25
366.081	4.25
366.867	3.25
367.654	1.25
368.44	2.25
369.227	1.25
370.013	3.25
370.8	2.25
371.586	1.25
372.372	2.25
373.158	2.25
373.944	3.25
374.73	1.25
375.516	2.25
376.302	1.25
377.088	3.25
377.873	2.25
378.659	2.25
379.445	3.25
380.23	-0.75
381.015	0.25
381.801	5.25
382.586	2.25
383.371	2.25
384.156	1.25
384.941	2.25
385.726	3.25
386.511	3.25
387.296	5.25
388.08	3.25
388.865	3.25
389.649	-0.75
390.434	3.25
391.218	4.25
392.003	6.25
392.787	3.25
393.571	3.25
394.355	5.25
395.139	2.25
395.923	4.25
396.707	5.25
397.491	3.25
398.274	4.25
399.058	4.25
399.842	2.25
400.625	3.25
401.408	2.25
402.192	3.25
402.975	2.25
403.758	4.25
404.541	5.25
405.324	3.25
406.107	1.25
406.89	5.25
407.673	4.25
408.456	5.25
409.238	6.25
410.021	3.25
410.803	4.25
411.586	5.25
412.368	4.25
413.151	4.25
413.933	3.25
414.715	3.25
415.497	5.25
416.279	4.25
417.061	2.25
417.843	7.25
418.624	4.25
419.406	3.25
420.188	5.25
420.969	6.25
421.751	6.25
422.532	6.25
423.313	6.25
424.095	6.25
424.876	7.25
425.657	4.25
426.438	4.25
427.219	6.25
428	5.25
428.78	6.25
429.561	6.25
430.342	4.25
431.122	5.25
431.903	6.25
432.683	7.25
433.464	9.25
434.244	9.25
435.024	9.25
435.804	11.25
436.584	10.25
437.364	10.25
438.144	9.25
438.924	11.25
439.704	11.25
440.483	12.25
441.263	10.25
442.042	13.25
442.822	11.25
443.601	17.25
444.38	12.25
445.16	18.25
445.939	17.25
446.718	15.25
447.497	19.25
448.276	20.25
449.054	25.25
449.833	23.25
450.612	24.25
451.391	30.25
452.169	30.25
452.948	31.25
453.726	32.25
454.504	38.25
455.282	43.25
456.061	46.25
456.839	54.25
457.617	55.25
458.395	64.25
459.172	72.25
459.95	80.25
460.728	84.25
461.506	98.25
462.283	109.25
463.061	123.25
463.838	131.25
464.615	152.25
465.393	162.25
466.17	183.25
466.947	198.25
467.724	227.25
468.501	246.25
469.278	279.25
470.055	311.25
470.831	342.25
471.608	389.25
472.385	425.25
473.161	475.25
473.938	520.25
474.714	572.25
475.49	631.25
476.266	717.25
477.043	787.25
477.819	867.25
478.595	949.25
479.371	1035.25
480.146	1149.25
480.922	1288.25
481.698	1417.25
482.473	1550.25
483.249	1703.25
484.024	1872.25
484.8	2068.25
485.575	2254.25
486.35	2479.25
487.126	2733.25
487.901	2988.25
488.676	3272.25
489.451	3598.25
490.225	3927.25
491	4326.25
491.775	4731.25
492.55	5133.25
493.324	5637.25
494.099	6168.25
494.873	6677.25
495.647	7265.25
496.422	7898.25
497.196	8557.25
497.97	9232.25
498.744	9904.25
499.518	10600.25
500.292	11306.25
501.066	11994.25
501.839	12721.25
502.613	13310.25
503.387	13948.25
504.16	14523.25
504.934	15009.25
505.707	15330.25
506.48	15623.25
507.253	15884.25
508.027	15963.25
508.8	16038.25
509.573	15960.25
510.346	15795.25
511.118	15492.25
511.891	15123.25
512.664	14734.25
513.437	14281.25
514.209	13868.25
514.982	13328.25
515.754	12756.25
516.526	12261.25
517.298	11681.25
518.071	11182.25
518.843	10727.25
519.615	10295.25
520.387	9885.25
521.159	9456.25
521.93	9055.25
522.702	8738.25
523.474	8381.25
524.245	8049.25
525.017	7722.25
525.788	7431.25
526.56	7125.25
527.331	6800.25
528.102	6563.25
528.873	6287.25
529.644	5989.25
530.415	5708.25
531.186	5461.25
531.957	5182.25
532.728	4942.25
533.498	4671.25
534.269	4426.25
535.039	4190.25
535.81	3979.25
536.58	3737.25
537.351	3517.25
538.121	3356.25
538.891	3173.25
539.661	2996.25
540.431	2816.25
541.201	2660.25
541.971	2546.25
542.741	2401.25
543.51	2278.25
544.28	2155.25
545.05	2054.25
545.819	1950.25
546.588	1845.25
547.358	1761.25
548.127	1675.25
548.896	1597.25
549.665	1496.25
550.434	1437.25
551.203	1357.25
551.972	1290.25
552.741	1223.25
553.51	1160.25
554.278	1100.25
555.047	1034.25
555.815	987.25
556.584	924.25
557.352	869.25
558.121	821.25
558.889	766.25
559.657	734.25
560.425	694.25
561.193	664.25
561.961	607.25
562.729	579.25
563.496	552.25
564.264	516.25
565.032	487.25
565.799	456.25
566.567	433.25
567.334	407.25
568.101	385.25
568.869	360.25
569.636	340.25
570.403	329.25
571.17	305.25
571.937	290.25
572.704	279.25
573.471	256.25
574.237	249.25
575.004	225.25
575.771	220.25
576.537	206.25
577.303	184.25
578.07	186.25
578.836	166.25
579.602	156.25
580.368	149.25
581.134	144.25
581.9	132.25
582.666	133.25
583.432	120.25
584.198	115.25
584.964	106.25
585.729	100.25
586.495	98.25
587.26	93.25
588.025	87.25
588.791	81.25
589.556	77.25
590.321	76.25
591.086	68.25
591.851	64.25
592.616	60.25
593.381	58.25
594.146	56.25
594.911	54.25
595.675	48.25
596.44	47.25
597.204	49.25
597.969	42.25
598.733	42.25
599.497	39.25
600.261	38.25
601.025	35.25
601.79	34.25
602.553	35.25
603.317	33.25
604.081	32.25
604.845	31.25
605.609	28.25
606.372	29.25
607.136	26.25
607.899	27.25
608.662	23.25
609.426	24.25
610.189	21.25
610.952	22.25
611.715	23.25
612.478	18.25
613.241	17.25
614.004	17.25
614.767	14.25
615.529	17.25
616.292	16.25
617.055	15.25
617.817	14.25
618.579	13.25
619.342	13.25
620.104	12.25
620.866	12.25
621.628	9.25
622.39	12.25
623.152	10.25
623.914	10.25
624.676	11.25
625.438	9.25
626.199	9.25
626.961	8.25
627.722	10.25
628.484	9.25
629.245	11.25
630.006	8.25
630.768	5.25
631.529	5.25
632.29	6.25
633.051	5.25
633.812	8.25
634.573	8.25
635.333	9.25
636.094	8.25
636.855	7.25
637.615	7.25
638.376	6.25
639.136	6.25
639.896	5.25
640.657	4.25
641.417	3.25
642.177	6.25
642.937	6.25
643.697	6.25
644.457	4.25
645.216	5.25
645.976	3.25
646.736	3.25
647.495	6.25
648.255	5.25
649.014	4.25
649.774	3.25
650.533	5.25
651.292	1.25
652.051	2.25
652.81	4.25
653.569	5.25
654.328	4.25
655.087	4.25
655.846	3.25
656.604	6.25
657.363	3.25
658.121	2.25
658.88	2.25
659.638	5.25
660.397	2.25
661.155	3.25
661.913	4.25
662.671	-0.75
663.429	2.25
664.187	3.25
664.945	4.25
665.703	3.25
666.46	3.25
667.218	3.25
667.976	1.25
668.733	1.25
669.49	1.25
670.248	3.25
671.005	2.25
671.762	3.25
672.519	1.25
673.276	1.25
674.033	3.25
674.79	3.25
675.547	1.25
676.304	2.25
677.06	2.25
677.817	3.25
678.574	2.25
679.33	2.25
680.086	4.25
680.843	1.25
681.599	1.25
682.355	3.25
683.111	2.25
683.867	1.25
684.623	4.25
685.379	1.25
686.135	1.25
686.89	2.25
687.646	1.25
688.402	0.25
689.157	3.25
689.912	3.25
690.668	2.25
691.423	2.25
692.178	3.25
692.933	2.25
693.688	3.25
694.443	4.25
695.198	2.25
695.953	3.25
696.708	2.25
697.462	0.25
698.217	1.25
698.972	1.25
699.726	2.25
700.48	0.25
701.235	2.25
701.989	4.25
702.743	1.25
703.497	1.25
704.251	1.25
705.005	0.25
705.759	2.25
706.513	2.25
707.266	1.25
708.02	3.25
708.774	0.25
709.527	2.25
710.28	3.25
711.034	1.25
711.787	1.25
712.54	0.25
713.293	2.25
714.046	2.25
714.799	0.25
715.552	2.25
716.305	1.25
717.058	2.25
717.81	2.25
718.563	1.25
719.315	1.25
720.068	3.25
720.82	0.25
721.573	0.25
722.325	1.25
723.077	3.25
723.829	1.25
724.581	0.25
725.333	2.25
726.085	2.25
726.836	1.25
727.588	0.25
728.34	1.25
729.091	3.25
729.843	3.25
730.594	1.25
731.346	3.25
732.097	2.25
732.848	2.25
733.599	1.25
734.35	3.25
735.101	3.25
735.852	4.25
736.603	4.25
737.354	1.25
738.104	1.25
738.855	5.25
739.605	3.25
740.356	1.25
741.106	2.25
741.856	2.25
742.607	0.25
743.357	3.25
744.107	2.25
744.857	3.25
745.607	4.25
746.357	1.25
747.106	4.25
747.856	1.25
748.606	2.25
749.355	3.25
750.105	1.25
750.854	3.25
751.603	1.25
752.353	4.25
753.102	2.25
753.851	2.25
754.6	2.25
755.349	5.25
756.098	3.25
756.847	3.25
757.595	4.25
758.344	1.25
759.093	2.25
759.841	4.25
760.589	5.25
761.338	4.25
762.086	3.25
762.834	2.25
763.582	1.25
764.331	6.25
765.079	3.25
765.826	4.25
766.574	3.25
767.322	4.25
768.07	4.25
768.817	3.25
769.565	4.25
770.312	3.25
771.06	6.25
771.807	3.25
772.554	3.25
773.302	6.25
774.049	4.25
774.796	6.25
775.543	1.25
776.29	5.25
777.036	6.25
777.783	4.25
778.53	3.25
779.276	3.25
780.023	7.25
780.769	4.25
781.516	5.25
782.262	5.25
783.008	3.25
783.754	3.25
784.5	2.25
785.246	7.25
785.992	7.25
786.738	7.25
787.484	5.25
788.23	5.25
788.975	2.25
789.721	3.25
790.466	5.25
791.212	4.25
791.957	4.25
792.702	6.25
793.447	5.25
794.193	4.25
794.938	4.25
795.683	4.25
796.427	6.25
797.172	3.25
797.917	3.25
798.662	4.25
799.406	2.25
800.151	6.25
800.895	5.25
801.64	2.25
802.384	5.25
803.128	5.25
803.872	4.25
804.616	5.25
805.36	3.25
806.104	6.25
806.848	5.25
807.592	4.25
808.336	1.25
809.079	3.25
809.823	3.25
810.566	2.25
811.31	4.25
812.053	5.25
812.796	4.25
813.539	3.25
814.283	1.25
815.026	1.25
815.769	4.25
816.511	3.25
817.254	3.25
817.997	2.25
818.74	3.25
819.482	2.25
820.225	3.25
820.967	1.25
821.71	3.25
822.452	3.25
823.194	2.25
823.936	4.25
824.678	3.25
825.42	4.25
826.162	3.25
826.904	2.25
827.646	3.25
828.388	1.25
829.129	2.25
829.871	1.25
830.612	2.25
831.354	2.25
832.095	2.25
832.836	3.25
833.577	0.25
834.319	4.25
835.06	2.25
835.801	2.25
836.542	1.25
837.282	2.25
838.023	3.25
838.764	2.25
839.504	1.25
840.245	1.25
840.985	3.25
841.726	0.25
842.466	0.25
843.206	2.25
843.946	2.25
844.687	3.25
845.427	2.25
846.166	3.25
846.906	0.25
847.646	2.25
848.386	3.25
849.125	1.25
849.865	2.25
850.605	1.25
851.344	0.25
852.083	3.25
852.823	2.25
853.562	1.25
854.301	1.25
855.04	2.25
855.779	-0.75
856.518	3.25
857.257	1.25
857.995	1.25
858.734	2.25
859.473	1.25
860.211	-0.75
860.95	2.25
861.688	1.25
862.426	2.25
863.165	3.25
863.903	1.25
864.641	1.25
865.379	2.25
866.117	1.25
866.855	4.25
867.593	1.25
868.33	2.25
869.068	0.25
869.806	2.25
870.543	-0.75
871.28	-0.75
872.018	2.25
872.755	1.25
873.492	1.25
874.229	0.25
874.967	2.25
875.703	3.25
876.44	1.25
877.177	0.25
877.914	-1.75
878.651	2.25
879.387	2.25
880.124	1.25
880.86	0.25
881.597	1.25
882.333	0.25
883.069	1.25
883.806	2.25
884.542	0.25
885.278	1.25
886.014	0.25
886.749	0.25
887.485	-0.75
888.221	0.25
888.957	0.25
889.692	-0.75
890.428	0.25
891.163	1.25
891.899	0.25
892.634	1.25
893.369	0.25
894.104	1.25
894.839	2.25
895.574	0.25
896.309	1.25
897.044	0.25
897.779	3.25
898.514	1.25
899.248	-0.75
899.983	0.25
900.717	-1.75
901.452	1.25
902.186	-0.75
902.92	0.25
903.654	-1.75
904.389	0.25
905.123	1.25
905.857	1.25
906.59	0.25
907.324	2.25
908.058	2.25
908.792	-0.75
909.525	0.25
910.259	1.25
910.992	1.25
911.726	1.25
912.459	1.25
913.192	2.25
913.925	1.25
914.658	-1.75
915.391	2.25
916.124	-2.75
916.857	0.25
917.59	0.25
918.323	3.25
919.055	0.25
919.788	1.25
920.521	0.25
921.253	-0.75
921.985	2.25
922.718	0.25
923.45	-0.75
924.182	0.25
924.914	-2.75
925.646	-1.75
926.378	-0.75
927.11	1.25
927.841	-1.75
928.573	0.25
929.305	1.25
930.036	0.25
930.768	1.25
931.499	0.25
932.23	1.25
932.962	1.25
933.693	-0.75
934.424	1.25
935.155	-0.75
935.886	1.25
936.617	0.25
937.348	-1.75
938.078	-1.75
938.809	0.25
939.54	0.25
940.27	1.25
941.001	1.25
941.731	1.25
942.461	-1.75
943.191	-2.75
943.922	-1.75
944.652	1.25
945.382	-2.75
946.112	-1.75
946.841	0.25
947.571	3.25
948.301	-0.75
949.031	2.25
949.76	0.25
950.49	-1.75
951.219	1.25
951.948	0.25
952.678	0.25
953.407	1.25
954.136	-0.75
954.865	0.25
955.594	1.25
956.323	3.25
957.052	0.25
957.78	2.25
958.509	1.25
959.238	0.25
959.966	1.25
960.695	-1.75
961.423	1.25
962.151	-0.75
962.88	-0.75
963.608	1.25
964.336	1.25
965.064	-0.75
965.792	1.25
966.52	1.25
967.247	-0.75
967.975	2.25
968.703	0.25
969.43	-0.75
970.158	-2.75
970.885	-0.75
971.613	1.25
972.34	0.25
973.067	0.25
973.794	1.25
974.521	0.25
975.248	0.25
975.975	-2.75
976.702	2.25
977.429	0.25
978.156	-1.75
978.882	1.25
979.609	0.25
980.335	1.25
981.062	-1.75
981.788	1.25
982.514	-0.75
983.24	-0.75
983.967	0.25
984.693	-1.75
985.419	1.25
986.144	-2.75
986.87	0.25
987.596	0.25
988.322	1.25
989.047	-1.75
989.773	-1.75
990.498	-0.75
991.224	1.25
991.949	-0.75
992.674	-0.75
993.399	-0.75
994.124	-1.75
994.849	0.25
995.574	1.25
996.299	0.25
997.024	2.25
997.749	1.25
998.473	1.25
999.198	1.25
999.922	0.25
1000.647	0.25
1001.371	5.25
1002.095	-1.75
1002.82	1.25
1003.544	-0.75
1004.268	1.25
1004.992	-2.75
1005.716	-0.75
1006.439	-1.75
1007.163	-0.75
1007.887	-0.75
1008.611	0.25
1009.334	1.25
1010.058	1.25
1010.781	0.25
1011.504	2.25
1012.228	-2.75
1012.951	0.25
1013.674	-1.75
1014.397	-0.75
1015.12	-1.75
