节点500_145_QEPB04081__500__11-36-56-469.txt的数据

Date: Wed Nov 12 11:36:56 CST 2025
User: PC
Spectrometer: QEPB0408
触发模式: 0
积分时间 (秒): 1.000000E-2
Scans to average: 1
启用暗噪声校正: true
启用非线性校正: false
滑动平均宽度: 0
X轴模式: Wavelengths
Number of Pixels in Spectrum: 1044
>>>>>Begin Spectral Data<<<<<
220.843	-0.38
221.644	0.62
222.444	-2.38
223.244	-2.38
224.045	0.62
224.845	-0.38
225.645	1.62
226.445	-1.38
227.245	-1.38
228.045	2.62
228.845	0.62
229.645	-0.38
230.444	0.62
231.244	-0.38
232.043	1.62
232.843	0.62
233.642	-0.38
234.442	-1.38
235.241	1.62
236.04	1.62
236.839	3.62
237.638	-0.38
238.437	0.62
239.236	1.62
240.035	0.62
240.833	0.62
241.632	3.62
242.43	2.62
243.229	-0.38
244.027	3.62
244.826	3.62
245.624	0.62
246.422	1.62
247.22	1.62
248.018	2.62
248.816	3.62
249.614	1.62
250.412	1.62
251.21	1.62
252.007	3.62
252.805	1.62
253.602	2.62
254.4	2.62
255.197	5.62
255.994	2.62
256.791	2.62
257.589	4.62
258.386	3.62
259.183	6.62
259.979	1.62
260.776	5.62
261.573	3.62
262.37	5.62
263.166	5.62
263.963	5.62
264.759	4.62
265.556	4.62
266.352	6.62
267.148	7.62
267.944	4.62
268.74	6.62
269.536	4.62
270.332	7.62
271.128	5.62
271.924	8.62
272.719	8.62
273.515	9.62
274.311	7.62
275.106	8.62
275.901	8.62
276.697	8.62
277.492	7.62
278.287	6.62
279.082	7.62
279.877	8.62
280.672	8.62
281.467	10.62
282.262	10.62
283.056	8.62
283.851	10.62
284.646	7.62
285.44	10.62
286.234	11.62
287.029	9.62
287.823	8.62
288.617	11.62
289.411	12.62
290.205	10.62
290.999	10.62
291.793	10.62
292.587	9.62
293.381	9.62
294.174	10.62
294.968	10.62
295.761	9.62
296.555	9.62
297.348	10.62
298.141	7.62
298.935	9.62
299.728	8.62
300.521	8.62
301.314	7.62
302.107	8.62
302.899	6.62
303.692	8.62
304.485	9.62
305.277	10.62
306.07	6.62
306.862	8.62
307.655	8.62
308.447	8.62
309.239	8.62
310.031	9.62
310.823	4.62
311.615	8.62
312.407	5.62
313.199	5.62
313.991	7.62
314.783	4.62
315.574	3.62
316.366	5.62
317.157	6.62
317.949	5.62
318.74	4.62
319.531	6.62
320.322	5.62
321.113	5.62
321.904	2.62
322.695	4.62
323.486	3.62
324.277	5.62
325.068	5.62
325.858	2.62
326.649	7.62
327.439	4.62
328.23	2.62
329.02	1.62
329.81	5.62
330.6	4.62
331.391	3.62
332.181	3.62
332.971	1.62
333.76	3.62
334.55	5.62
335.34	5.62
336.13	3.62
336.919	2.62
337.709	2.62
338.498	3.62
339.287	2.62
340.077	3.62
340.866	4.62
341.655	2.62
342.444	3.62
343.233	4.62
344.022	1.62
344.811	4.62
345.6	2.62
346.388	1.62
347.177	3.62
347.965	2.62
348.754	4.62
349.542	3.62
350.33	2.62
351.119	4.62
351.907	2.62
352.695	2.62
353.483	3.62
354.271	2.62
355.059	1.62
355.846	4.62
356.634	3.62
357.422	5.62
358.209	2.62
358.997	2.62
359.784	1.62
360.571	3.62
361.359	1.62
362.146	3.62
362.933	2.62
363.72	1.62
364.507	1.62
365.294	3.62
366.081	0.62
366.867	2.62
367.654	1.62
368.44	2.62
369.227	3.62
370.013	0.62
370.8	1.62
371.586	1.62
372.372	2.62
373.158	2.62
373.944	2.62
374.73	3.62
375.516	3.62
376.302	4.62
377.088	0.62
377.873	2.62
378.659	1.62
379.445	2.62
380.23	2.62
381.015	1.62
381.801	4.62
382.586	2.62
383.371	1.62
384.156	4.62
384.941	1.62
385.726	2.62
386.511	2.62
387.296	1.62
388.08	2.62
388.865	0.62
389.649	5.62
390.434	3.62
391.218	3.62
392.003	4.62
392.787	0.62
393.571	4.62
394.355	2.62
395.139	4.62
395.923	3.62
396.707	4.62
397.491	2.62
398.274	4.62
399.058	4.62
399.842	4.62
400.625	2.62
401.408	5.62
402.192	5.62
402.975	3.62
403.758	1.62
404.541	3.62
405.324	3.62
406.107	4.62
406.89	2.62
407.673	3.62
408.456	4.62
409.238	4.62
410.021	4.62
410.803	4.62
411.586	5.62
412.368	4.62
413.151	3.62
413.933	4.62
414.715	4.62
415.497	2.62
416.279	3.62
417.061	7.62
417.843	4.62
418.624	7.62
419.406	5.62
420.188	3.62
420.969	3.62
421.751	5.62
422.532	4.62
423.313	2.62
424.095	5.62
424.876	7.62
425.657	6.62
426.438	5.62
427.219	5.62
428	7.62
428.78	5.62
429.561	6.62
430.342	6.62
431.122	8.62
431.903	7.62
432.683	7.62
433.464	6.62
434.244	7.62
435.024	11.62
435.804	8.62
436.584	8.62
437.364	11.62
438.144	9.62
438.924	12.62
439.704	11.62
440.483	12.62
441.263	9.62
442.042	12.62
442.822	13.62
443.601	13.62
444.38	16.62
445.16	14.62
445.939	16.62
446.718	21.62
447.497	17.62
448.276	19.62
449.054	22.62
449.833	25.62
450.612	26.62
451.391	29.62
452.169	29.62
452.948	33.62
453.726	37.62
454.504	39.62
455.282	46.62
456.061	52.62
456.839	55.62
457.617	56.62
458.395	60.62
459.172	74.62
459.95	78.62
460.728	92.62
461.506	98.62
462.283	107.62
463.061	122.62
463.838	132.62
464.615	148.62
465.393	169.62
466.17	182.62
466.947	209.62
467.724	229.62
468.501	249.62
469.278	277.62
470.055	314.62
470.831	348.62
471.608	389.62
472.385	424.62
473.161	482.62
473.938	525.62
474.714	589.62
475.49	660.62
476.266	717.62
477.043	782.62
477.819	862.62
478.595	954.62
479.371	1053.62
480.146	1157.62
480.922	1267.62
481.698	1409.62
482.473	1550.62
483.249	1690.62
484.024	1859.62
484.8	2024.62
485.575	2237.62
486.35	2440.62
487.126	2693.62
487.901	2960.62
488.676	3237.62
489.451	3539.62
490.225	3869.62
491	4225.62
491.775	4646.62
492.55	5052.62
493.324	5513.62
494.099	6030.62
494.873	6555.62
495.647	7131.62
496.422	7692.62
497.196	8380.62
497.97	8962.62
498.744	9679.62
499.518	10389.62
500.292	11049.62
501.066	11710.62
501.839	12404.62
502.613	12985.62
503.387	13625.62
504.16	14155.62
504.934	14681.62
505.707	15044.62
506.48	15355.62
507.253	15596.62
508.027	15741.62
508.8	15804.62
509.573	15719.62
510.346	15586.62
511.118	15311.62
511.891	14988.62
512.664	14592.62
513.437	14202.62
514.209	13707.62
514.982	13239.62
515.754	12737.62
516.526	12223.62
517.298	11711.62
518.071	11178.62
518.843	10750.62
519.615	10252.62
520.387	9837.62
521.159	9445.62
521.93	9091.62
522.702	8692.62
523.474	8363.62
524.245	8015.62
525.017	7737.62
525.788	7427.62
526.56	7155.62
527.331	6801.62
528.102	6548.62
528.873	6266.62
529.644	5978.62
530.415	5709.62
531.186	5457.62
531.957	5216.62
532.728	4944.62
533.498	4676.62
534.269	4395.62
535.039	4197.62
535.81	3965.62
536.58	3774.62
537.351	3554.62
538.121	3358.62
538.891	3160.62
539.661	3009.62
540.431	2824.62
541.201	2676.62
541.971	2548.62
542.741	2412.62
543.51	2279.62
544.28	2163.62
545.05	2057.62
545.819	1947.62
546.588	1868.62
547.358	1756.62
548.127	1689.62
548.896	1583.62
549.665	1520.62
550.434	1445.62
551.203	1369.62
551.972	1292.62
552.741	1222.62
553.51	1175.62
554.278	1106.62
555.047	1055.62
555.815	984.62
556.584	931.62
557.352	878.62
558.121	839.62
558.889	776.62
559.657	745.62
560.425	693.62
561.193	657.62
561.961	625.62
562.729	584.62
563.496	552.62
564.264	518.62
565.032	482.62
565.799	468.62
566.567	439.62
567.334	410.62
568.101	382.62
568.869	362.62
569.636	342.62
570.403	322.62
571.17	311.62
571.937	295.62
572.704	274.62
573.471	264.62
574.237	243.62
575.004	233.62
575.771	216.62
576.537	205.62
577.303	193.62
578.07	182.62
578.836	173.62
579.602	158.62
580.368	149.62
581.134	140.62
581.9	128.62
582.666	127.62
583.432	123.62
584.198	120.62
584.964	113.62
585.729	107.62
586.495	103.62
587.26	90.62
588.025	88.62
588.791	83.62
589.556	78.62
590.321	70.62
591.086	68.62
591.851	62.62
592.616	64.62
593.381	60.62
594.146	56.62
594.911	53.62
595.675	50.62
596.44	48.62
597.204	47.62
597.969	44.62
598.733	43.62
599.497	39.62
600.261	38.62
601.025	33.62
601.79	33.62
602.553	34.62
603.317	33.62
604.081	30.62
604.845	26.62
605.609	29.62
606.372	27.62
607.136	27.62
607.899	21.62
608.662	23.62
609.426	24.62
610.189	21.62
610.952	23.62
611.715	21.62
612.478	20.62
613.241	20.62
614.004	16.62
614.767	17.62
615.529	13.62
616.292	18.62
617.055	13.62
617.817	14.62
618.579	13.62
619.342	12.62
620.104	13.62
620.866	14.62
621.628	13.62
622.39	12.62
623.152	8.62
623.914	13.62
624.676	10.62
625.438	9.62
626.199	10.62
626.961	10.62
627.722	8.62
628.484	11.62
629.245	8.62
630.006	6.62
630.768	9.62
631.529	7.62
632.29	8.62
633.051	5.62
633.812	8.62
634.573	7.62
635.333	5.62
636.094	6.62
636.855	9.62
637.615	8.62
638.376	5.62
639.136	7.62
639.896	7.62
640.657	6.62
641.417	7.62
642.177	5.62
642.937	4.62
643.697	5.62
644.457	5.62
645.216	4.62
645.976	5.62
646.736	5.62
647.495	5.62
648.255	6.62
649.014	5.62
649.774	3.62
650.533	5.62
651.292	3.62
652.051	4.62
652.81	4.62
653.569	5.62
654.328	5.62
655.087	3.62
655.846	3.62
656.604	3.62
657.363	3.62
658.121	2.62
658.88	2.62
659.638	4.62
660.397	0.62
661.155	4.62
661.913	2.62
662.671	1.62
663.429	1.62
664.187	4.62
664.945	2.62
665.703	2.62
666.46	4.62
667.218	1.62
667.976	4.62
668.733	3.62
669.49	4.62
670.248	3.62
671.005	1.62
671.762	2.62
672.519	2.62
673.276	2.62
674.033	3.62
674.79	2.62
675.547	2.62
676.304	1.62
677.06	1.62
677.817	1.62
678.574	3.62
679.33	2.62
680.086	1.62
680.843	2.62
681.599	1.62
682.355	3.62
683.111	2.62
683.867	1.62
684.623	2.62
685.379	4.62
686.135	2.62
686.89	3.62
687.646	3.62
688.402	2.62
689.157	4.62
689.912	1.62
690.668	2.62
691.423	2.62
692.178	-0.38
692.933	3.62
693.688	3.62
694.443	3.62
695.198	2.62
695.953	3.62
696.708	2.62
697.462	2.62
698.217	0.62
698.972	2.62
699.726	2.62
700.48	2.62
701.235	2.62
701.989	2.62
702.743	1.62
703.497	1.62
704.251	2.62
705.005	1.62
705.759	0.62
706.513	0.62
707.266	5.62
708.02	2.62
708.774	2.62
709.527	2.62
710.28	0.62
711.034	1.62
711.787	1.62
712.54	3.62
713.293	2.62
714.046	2.62
714.799	-0.38
715.552	1.62
716.305	3.62
717.058	1.62
717.81	2.62
718.563	0.62
719.315	1.62
720.068	2.62
720.82	3.62
721.573	3.62
722.325	3.62
723.077	2.62
723.829	1.62
724.581	1.62
725.333	3.62
726.085	2.62
726.836	3.62
727.588	0.62
728.34	1.62
729.091	2.62
729.843	3.62
730.594	3.62
731.346	2.62
732.097	2.62
732.848	2.62
733.599	2.62
734.35	1.62
735.101	3.62
735.852	2.62
736.603	3.62
737.354	-0.38
738.104	1.62
738.855	3.62
739.605	-0.38
740.356	2.62
741.106	0.62
741.856	3.62
742.607	3.62
743.357	2.62
744.107	3.62
744.857	3.62
745.607	2.62
746.357	4.62
747.106	2.62
747.856	2.62
748.606	0.62
749.355	4.62
750.105	1.62
750.854	2.62
751.603	3.62
752.353	3.62
753.102	2.62
753.851	0.62
754.6	3.62
755.349	3.62
756.098	2.62
756.847	3.62
757.595	4.62
758.344	3.62
759.093	2.62
759.841	3.62
760.589	2.62
761.338	1.62
762.086	2.62
762.834	1.62
763.582	4.62
764.331	2.62
765.079	3.62
765.826	3.62
766.574	2.62
767.322	2.62
768.07	0.62
768.817	3.62
769.565	3.62
770.312	2.62
771.06	3.62
771.807	3.62
772.554	4.62
773.302	2.62
774.049	5.62
774.796	5.62
775.543	3.62
776.29	5.62
777.036	3.62
777.783	5.62
778.53	3.62
779.276	6.62
780.023	4.62
780.769	5.62
781.516	4.62
782.262	6.62
783.008	6.62
783.754	4.62
784.5	6.62
785.246	5.62
785.992	4.62
786.738	7.62
787.484	3.62
788.23	7.62
788.975	5.62
789.721	5.62
790.466	4.62
791.212	4.62
791.957	6.62
792.702	5.62
793.447	5.62
794.193	4.62
794.938	3.62
795.683	6.62
796.427	2.62
797.172	7.62
797.917	2.62
798.662	5.62
799.406	1.62
800.151	3.62
800.895	5.62
801.64	2.62
802.384	5.62
803.128	2.62
803.872	3.62
804.616	4.62
805.36	5.62
806.104	3.62
806.848	5.62
807.592	5.62
808.336	3.62
809.079	3.62
809.823	3.62
810.566	3.62
811.31	2.62
812.053	1.62
812.796	3.62
813.539	2.62
814.283	3.62
815.026	2.62
815.769	3.62
816.511	2.62
817.254	3.62
817.997	3.62
818.74	4.62
819.482	3.62
820.225	2.62
820.967	2.62
821.71	4.62
822.452	3.62
823.194	2.62
823.936	0.62
824.678	3.62
825.42	3.62
826.162	3.62
826.904	3.62
827.646	2.62
828.388	3.62
829.129	1.62
829.871	2.62
830.612	1.62
831.354	5.62
832.095	2.62
832.836	1.62
833.577	2.62
834.319	0.62
835.06	3.62
835.801	1.62
836.542	3.62
837.282	2.62
838.023	2.62
838.764	2.62
839.504	2.62
840.245	4.62
840.985	3.62
841.726	1.62
842.466	4.62
843.206	1.62
843.946	1.62
844.687	1.62
845.427	2.62
846.166	2.62
846.906	1.62
847.646	1.62
848.386	2.62
849.125	2.62
849.865	1.62
850.605	2.62
851.344	2.62
852.083	1.62
852.823	0.62
853.562	-0.38
854.301	3.62
855.04	1.62
855.779	1.62
856.518	0.62
857.257	2.62
857.995	1.62
858.734	-1.38
859.473	2.62
860.211	-1.38
860.95	-1.38
861.688	2.62
862.426	1.62
863.165	2.62
863.903	2.62
864.641	2.62
865.379	1.62
866.117	1.62
866.855	1.62
867.593	2.62
868.33	2.62
869.068	-0.38
869.806	1.62
870.543	0.62
871.28	0.62
872.018	0.62
872.755	1.62
873.492	1.62
874.229	0.62
874.967	1.62
875.703	0.62
876.44	0.62
877.177	1.62
877.914	1.62
878.651	1.62
879.387	0.62
880.124	1.62
880.86	-0.38
881.597	2.62
882.333	0.62
883.069	2.62
883.806	-0.38
884.542	-0.38
885.278	1.62
886.014	1.62
886.749	-0.38
887.485	0.62
888.221	-1.38
888.957	2.62
889.692	1.62
890.428	1.62
891.163	1.62
891.899	1.62
892.634	1.62
893.369	-1.38
894.104	-1.38
894.839	1.62
895.574	0.62
896.309	0.62
897.044	1.62
897.779	1.62
898.514	0.62
899.248	1.62
899.983	0.62
900.717	-0.38
901.452	-0.38
902.186	1.62
902.92	-1.38
903.654	-1.38
904.389	0.62
905.123	0.62
905.857	0.62
906.59	2.62
907.324	1.62
908.058	0.62
908.792	1.62
909.525	0.62
910.259	-0.38
910.992	0.62
911.726	0.62
912.459	1.62
913.192	-0.38
913.925	0.62
914.658	0.62
915.391	0.62
916.124	0.62
916.857	0.62
917.59	1.62
918.323	0.62
919.055	1.62
919.788	0.62
920.521	-1.38
921.253	1.62
921.985	0.62
922.718	1.62
923.45	0.62
924.182	0.62
924.914	1.62
925.646	-0.38
926.378	2.62
927.11	0.62
927.841	-1.38
928.573	0.62
929.305	1.62
930.036	2.62
930.768	1.62
931.499	-1.38
932.23	0.62
932.962	1.62
933.693	1.62
934.424	-0.38
935.155	1.62
935.886	-0.38
936.617	2.62
937.348	0.62
938.078	1.62
938.809	0.62
939.54	-3.38
940.27	-1.38
941.001	-0.38
941.731	0.62
942.461	-0.38
943.191	0.62
943.922	1.62
944.652	0.62
945.382	2.62
946.112	-0.38
946.841	-0.38
947.571	0.62
948.301	0.62
949.031	1.62
949.76	1.62
950.49	-0.38
951.219	-0.38
951.948	0.62
952.678	2.62
953.407	0.62
954.136	1.62
954.865	0.62
955.594	1.62
956.323	1.62
957.052	-0.38
957.78	2.62
958.509	0.62
959.238	-1.38
959.966	1.62
960.695	2.62
961.423	-0.38
962.151	-1.38
962.88	0.62
963.608	2.62
964.336	-0.38
965.064	1.62
965.792	-1.38
966.52	1.62
967.247	2.62
967.975	1.62
968.703	-1.38
969.43	0.62
970.158	-0.38
970.885	1.62
971.613	0.62
972.34	-1.38
973.067	-0.38
973.794	-0.38
974.521	0.62
975.248	-1.38
975.975	0.62
976.702	1.62
977.429	1.62
978.156	0.62
978.882	-0.38
979.609	1.62
980.335	1.62
981.062	0.62
981.788	-1.38
982.514	-0.38
983.24	1.62
983.967	-0.38
984.693	1.62
985.419	-1.38
986.144	1.62
986.87	-1.38
987.596	0.62
988.322	-0.38
989.047	-1.38
989.773	1.62
990.498	0.62
991.224	0.62
991.949	1.62
992.674	0.62
993.399	-1.38
994.124	0.62
994.849	-0.38
995.574	-1.38
996.299	-1.38
997.024	-0.38
997.749	0.62
998.473	0.62
999.198	0.62
999.922	0.62
1000.647	-1.38
1001.371	0.62
1002.095	-0.38
1002.82	-1.38
1003.544	-1.38
1004.268	-0.38
1004.992	0.62
1005.716	-1.38
1006.439	1.62
1007.163	-0.38
1007.887	1.62
1008.611	1.62
1009.334	-0.38
1010.058	-1.38
1010.781	-1.38
1011.504	0.62
1012.228	1.62
1012.951	1.62
1013.674	0.62
1014.397	0.62
1015.12	-0.38
