节点500_145_QEPB04081__566__11-37-57-395.txt的数据

Date: Wed Nov 12 11:37:57 CST 2025
User: PC
Spectrometer: QEPB0408
触发模式: 0
积分时间 (秒): 1.000000E-2
Scans to average: 1
启用暗噪声校正: true
启用非线性校正: false
滑动平均宽度: 0
X轴模式: Wavelengths
Number of Pixels in Spectrum: 1044
>>>>>Begin Spectral Data<<<<<
220.843	-1.88
221.644	-1.88
222.444	0.12
223.244	-0.88
224.045	0.12
224.845	0.12
225.645	-2.88
226.445	-0.88
227.245	1.12
228.045	0.12
228.845	0.12
229.645	-0.88
230.444	0.12
231.244	1.12
232.043	0.12
232.843	1.12
233.642	0.12
234.442	2.12
235.241	0.12
236.04	0.12
236.839	1.12
237.638	2.12
238.437	1.12
239.236	2.12
240.035	1.12
240.833	0.12
241.632	0.12
242.43	0.12
243.229	1.12
244.027	1.12
244.826	3.12
245.624	2.12
246.422	0.12
247.22	3.12
248.018	2.12
248.816	4.12
249.614	1.12
250.412	2.12
251.21	1.12
252.007	3.12
252.805	0.12
253.602	1.12
254.4	2.12
255.197	1.12
255.994	2.12
256.791	4.12
257.589	3.12
258.386	3.12
259.183	1.12
259.979	4.12
260.776	3.12
261.573	4.12
262.37	5.12
263.166	3.12
263.963	5.12
264.759	4.12
265.556	4.12
266.352	1.12
267.148	4.12
267.944	6.12
268.74	5.12
269.536	6.12
270.332	6.12
271.128	6.12
271.924	9.12
272.719	8.12
273.515	6.12
274.311	5.12
275.106	9.12
275.901	5.12
276.697	9.12
277.492	6.12
278.287	9.12
279.082	8.12
279.877	7.12
280.672	11.12
281.467	8.12
282.262	10.12
283.056	8.12
283.851	9.12
284.646	9.12
285.44	9.12
286.234	10.12
287.029	8.12
287.823	8.12
288.617	9.12
289.411	9.12
290.205	10.12
290.999	10.12
291.793	9.12
292.587	10.12
293.381	7.12
294.174	10.12
294.968	10.12
295.761	11.12
296.555	8.12
297.348	9.12
298.141	9.12
298.935	12.12
299.728	11.12
300.521	9.12
301.314	7.12
302.107	5.12
302.899	8.12
303.692	7.12
304.485	9.12
305.277	7.12
306.07	3.12
306.862	8.12
307.655	6.12
308.447	9.12
309.239	8.12
310.031	9.12
310.823	7.12
311.615	5.12
312.407	6.12
313.199	7.12
313.991	8.12
314.783	7.12
315.574	6.12
316.366	7.12
317.157	5.12
317.949	6.12
318.74	4.12
319.531	4.12
320.322	4.12
321.113	5.12
321.904	7.12
322.695	4.12
323.486	3.12
324.277	5.12
325.068	4.12
325.858	3.12
326.649	5.12
327.439	4.12
328.23	4.12
329.02	5.12
329.81	4.12
330.6	3.12
331.391	2.12
332.181	3.12
332.971	2.12
333.76	3.12
334.55	3.12
335.34	3.12
336.13	4.12
336.919	3.12
337.709	3.12
338.498	5.12
339.287	4.12
340.077	3.12
340.866	2.12
341.655	5.12
342.444	3.12
343.233	3.12
344.022	4.12
344.811	4.12
345.6	3.12
346.388	5.12
347.177	2.12
347.965	6.12
348.754	3.12
349.542	3.12
350.33	2.12
351.119	5.12
351.907	3.12
352.695	3.12
353.483	2.12
354.271	2.12
355.059	3.12
355.846	3.12
356.634	5.12
357.422	2.12
358.209	3.12
358.997	3.12
359.784	2.12
360.571	3.12
361.359	3.12
362.146	2.12
362.933	2.12
363.72	1.12
364.507	2.12
365.294	2.12
366.081	2.12
366.867	2.12
367.654	2.12
368.44	1.12
369.227	3.12
370.013	3.12
370.8	4.12
371.586	3.12
372.372	2.12
373.158	1.12
373.944	4.12
374.73	2.12
375.516	2.12
376.302	0.12
377.088	1.12
377.873	-0.88
378.659	2.12
379.445	0.12
380.23	3.12
381.015	1.12
381.801	2.12
382.586	2.12
383.371	1.12
384.156	3.12
384.941	2.12
385.726	2.12
386.511	3.12
387.296	1.12
388.08	3.12
388.865	1.12
389.649	4.12
390.434	2.12
391.218	3.12
392.003	1.12
392.787	1.12
393.571	5.12
394.355	4.12
395.139	4.12
395.923	5.12
396.707	2.12
397.491	2.12
398.274	4.12
399.058	4.12
399.842	4.12
400.625	2.12
401.408	2.12
402.192	2.12
402.975	2.12
403.758	0.12
404.541	3.12
405.324	2.12
406.107	3.12
406.89	2.12
407.673	4.12
408.456	2.12
409.238	2.12
410.021	5.12
410.803	1.12
411.586	5.12
412.368	4.12
413.151	5.12
413.933	2.12
414.715	6.12
415.497	5.12
416.279	4.12
417.061	6.12
417.843	4.12
418.624	6.12
419.406	5.12
420.188	3.12
420.969	6.12
421.751	5.12
422.532	5.12
423.313	6.12
424.095	5.12
424.876	6.12
425.657	6.12
426.438	5.12
427.219	6.12
428	5.12
428.78	8.12
429.561	7.12
430.342	6.12
431.122	5.12
431.903	7.12
432.683	7.12
433.464	9.12
434.244	6.12
435.024	6.12
435.804	12.12
436.584	8.12
437.364	10.12
438.144	9.12
438.924	8.12
439.704	9.12
440.483	9.12
441.263	11.12
442.042	12.12
442.822	13.12
443.601	14.12
444.38	14.12
445.16	18.12
445.939	15.12
446.718	20.12
447.497	18.12
448.276	23.12
449.054	21.12
449.833	22.12
450.612	22.12
451.391	25.12
452.169	31.12
452.948	32.12
453.726	39.12
454.504	43.12
455.282	42.12
456.061	52.12
456.839	52.12
457.617	61.12
458.395	65.12
459.172	75.12
459.95	81.12
460.728	92.12
461.506	99.12
462.283	111.12
463.061	121.12
463.838	133.12
464.615	152.12
465.393	168.12
466.17	189.12
466.947	211.12
467.724	232.12
468.501	260.12
469.278	290.12
470.055	314.12
470.831	354.12
471.608	396.12
472.385	443.12
473.161	480.12
473.938	533.12
474.714	601.12
475.49	653.12
476.266	715.12
477.043	793.12
477.819	871.12
478.595	965.12
479.371	1058.12
480.146	1173.12
480.922	1268.12
481.698	1390.12
482.473	1552.12
483.249	1700.12
484.024	1849.12
484.8	2029.12
485.575	2229.12
486.35	2430.12
487.126	2660.12
487.901	2931.12
488.676	3182.12
489.451	3475.12
490.225	3815.12
491	4153.12
491.775	4549.12
492.55	4950.12
493.324	5388.12
494.099	5886.12
494.873	6415.12
495.647	6948.12
496.422	7514.12
497.196	8143.12
497.97	8777.12
498.744	9422.12
499.518	10066.12
500.292	10754.12
501.066	11396.12
501.839	12062.12
502.613	12697.12
503.387	13247.12
504.16	13794.12
504.934	14365.12
505.707	14755.12
506.48	15037.12
507.253	15224.12
508.027	15451.12
508.8	15568.12
509.573	15490.12
510.346	15359.12
511.118	15153.12
511.891	14906.12
512.664	14546.12
513.437	14148.12
514.209	13713.12
514.982	13201.12
515.754	12792.12
516.526	12220.12
517.298	11709.12
518.071	11201.12
518.843	10748.12
519.615	10333.12
520.387	9890.12
521.159	9501.12
521.93	9098.12
522.702	8761.12
523.474	8403.12
524.245	8067.12
525.017	7741.12
525.788	7449.12
526.56	7121.12
527.331	6856.12
528.102	6527.12
528.873	6310.12
529.644	6002.12
530.415	5770.12
531.186	5493.12
531.957	5233.12
532.728	4979.12
533.498	4737.12
534.269	4480.12
535.039	4266.12
535.81	4029.12
536.58	3795.12
537.351	3607.12
538.121	3416.12
538.891	3228.12
539.661	3040.12
540.431	2883.12
541.201	2730.12
541.971	2592.12
542.741	2447.12
543.51	2307.12
544.28	2199.12
545.05	2078.12
545.819	1996.12
546.588	1893.12
547.358	1798.12
548.127	1697.12
548.896	1616.12
549.665	1539.12
550.434	1451.12
551.203	1398.12
551.972	1315.12
552.741	1248.12
553.51	1187.12
554.278	1116.12
555.047	1054.12
555.815	1008.12
556.584	944.12
557.352	894.12
558.121	839.12
558.889	788.12
559.657	758.12
560.425	702.12
561.193	668.12
561.961	630.12
562.729	593.12
563.496	565.12
564.264	526.12
565.032	508.12
565.799	479.12
566.567	444.12
567.334	420.12
568.101	397.12
568.869	377.12
569.636	352.12
570.403	329.12
571.17	314.12
571.937	296.12
572.704	279.12
573.471	262.12
574.237	250.12
575.004	238.12
575.771	224.12
576.537	201.12
577.303	196.12
578.07	181.12
578.836	167.12
579.602	162.12
580.368	163.12
581.134	143.12
581.9	137.12
582.666	132.12
583.432	124.12
584.198	118.12
584.964	115.12
585.729	108.12
586.495	100.12
587.26	94.12
588.025	91.12
588.791	81.12
589.556	78.12
590.321	75.12
591.086	72.12
591.851	67.12
592.616	64.12
593.381	61.12
594.146	56.12
594.911	59.12
595.675	49.12
596.44	48.12
597.204	45.12
597.969	43.12
598.733	42.12
599.497	42.12
600.261	39.12
601.025	39.12
601.79	33.12
602.553	34.12
603.317	32.12
604.081	30.12
604.845	29.12
605.609	28.12
606.372	26.12
607.136	24.12
607.899	27.12
608.662	22.12
609.426	21.12
610.189	21.12
610.952	22.12
611.715	20.12
612.478	16.12
613.241	17.12
614.004	16.12
614.767	19.12
615.529	16.12
616.292	15.12
617.055	13.12
617.817	14.12
618.579	14.12
619.342	14.12
620.104	16.12
620.866	11.12
621.628	10.12
622.39	12.12
623.152	12.12
623.914	10.12
624.676	10.12
625.438	11.12
626.199	7.12
626.961	10.12
627.722	11.12
628.484	9.12
629.245	10.12
630.006	9.12
630.768	9.12
631.529	7.12
632.29	7.12
633.051	6.12
633.812	8.12
634.573	7.12
635.333	5.12
636.094	6.12
636.855	6.12
637.615	5.12
638.376	6.12
639.136	3.12
639.896	4.12
640.657	5.12
641.417	3.12
642.177	2.12
642.937	5.12
643.697	5.12
644.457	5.12
645.216	4.12
645.976	5.12
646.736	3.12
647.495	4.12
648.255	5.12
649.014	5.12
649.774	5.12
650.533	4.12
651.292	4.12
652.051	2.12
652.81	4.12
653.569	2.12
654.328	5.12
655.087	2.12
655.846	5.12
656.604	3.12
657.363	2.12
658.121	5.12
658.88	3.12
659.638	5.12
660.397	2.12
661.155	4.12
661.913	3.12
662.671	1.12
663.429	3.12
664.187	3.12
664.945	2.12
665.703	1.12
666.46	5.12
667.218	2.12
667.976	4.12
668.733	2.12
669.49	3.12
670.248	2.12
671.005	0.12
671.762	4.12
672.519	2.12
673.276	2.12
674.033	2.12
674.79	2.12
675.547	3.12
676.304	3.12
677.06	3.12
677.817	3.12
678.574	0.12
679.33	3.12
680.086	1.12
680.843	4.12
681.599	1.12
682.355	3.12
683.111	2.12
683.867	2.12
684.623	1.12
685.379	0.12
686.135	0.12
686.89	2.12
687.646	3.12
688.402	0.12
689.157	3.12
689.912	2.12
690.668	1.12
691.423	2.12
692.178	3.12
692.933	4.12
693.688	2.12
694.443	2.12
695.198	3.12
695.953	1.12
696.708	5.12
697.462	0.12
698.217	2.12
698.972	1.12
699.726	3.12
700.48	1.12
701.235	0.12
701.989	2.12
702.743	3.12
703.497	2.12
704.251	2.12
705.005	1.12
705.759	0.12
706.513	1.12
707.266	4.12
708.02	4.12
708.774	1.12
709.527	2.12
710.28	2.12
711.034	2.12
711.787	3.12
712.54	2.12
713.293	0.12
714.046	3.12
714.799	1.12
715.552	1.12
716.305	1.12
717.058	2.12
717.81	2.12
718.563	5.12
719.315	2.12
720.068	1.12
720.82	3.12
721.573	1.12
722.325	2.12
723.077	3.12
723.829	4.12
724.581	3.12
725.333	3.12
726.085	1.12
726.836	1.12
727.588	0.12
728.34	1.12
729.091	1.12
729.843	1.12
730.594	1.12
731.346	-0.88
732.097	1.12
732.848	1.12
733.599	3.12
734.35	1.12
735.101	1.12
735.852	1.12
736.603	1.12
737.354	3.12
738.104	2.12
738.855	3.12
739.605	5.12
740.356	2.12
741.106	2.12
741.856	3.12
742.607	2.12
743.357	4.12
744.107	0.12
744.857	2.12
745.607	3.12
746.357	0.12
747.106	3.12
747.856	2.12
748.606	2.12
749.355	3.12
750.105	1.12
750.854	1.12
751.603	3.12
752.353	1.12
753.102	1.12
753.851	3.12
754.6	2.12
755.349	3.12
756.098	2.12
756.847	3.12
757.595	3.12
758.344	4.12
759.093	0.12
759.841	3.12
760.589	1.12
761.338	4.12
762.086	2.12
762.834	1.12
763.582	3.12
764.331	3.12
765.079	3.12
765.826	3.12
766.574	3.12
767.322	4.12
768.07	3.12
768.817	6.12
769.565	3.12
770.312	3.12
771.06	5.12
771.807	2.12
772.554	2.12
773.302	2.12
774.049	5.12
774.796	3.12
775.543	4.12
776.29	3.12
777.036	3.12
777.783	3.12
778.53	3.12
779.276	6.12
780.023	2.12
780.769	4.12
781.516	4.12
782.262	4.12
783.008	7.12
783.754	4.12
784.5	3.12
785.246	4.12
785.992	4.12
786.738	4.12
787.484	4.12
788.23	2.12
788.975	7.12
789.721	6.12
790.466	4.12
791.212	4.12
791.957	3.12
792.702	4.12
793.447	5.12
794.193	5.12
794.938	4.12
795.683	5.12
796.427	5.12
797.172	3.12
797.917	2.12
798.662	5.12
799.406	1.12
800.151	6.12
800.895	5.12
801.64	5.12
802.384	5.12
803.128	3.12
803.872	3.12
804.616	1.12
805.36	2.12
806.104	4.12
806.848	4.12
807.592	4.12
808.336	3.12
809.079	4.12
809.823	5.12
810.566	3.12
811.31	6.12
812.053	3.12
812.796	6.12
813.539	5.12
814.283	5.12
815.026	3.12
815.769	3.12
816.511	5.12
817.254	2.12
817.997	3.12
818.74	0.12
819.482	3.12
820.225	1.12
820.967	4.12
821.71	5.12
822.452	2.12
823.194	3.12
823.936	2.12
824.678	4.12
825.42	2.12
826.162	3.12
826.904	0.12
827.646	0.12
828.388	2.12
829.129	1.12
829.871	2.12
830.612	3.12
831.354	4.12
832.095	2.12
832.836	2.12
833.577	3.12
834.319	-0.88
835.06	3.12
835.801	2.12
836.542	2.12
837.282	4.12
838.023	1.12
838.764	2.12
839.504	4.12
840.245	1.12
840.985	2.12
841.726	4.12
842.466	2.12
843.206	2.12
843.946	2.12
844.687	0.12
845.427	4.12
846.166	0.12
846.906	0.12
847.646	2.12
848.386	-0.88
849.125	2.12
849.865	3.12
850.605	3.12
851.344	1.12
852.083	1.12
852.823	0.12
853.562	1.12
854.301	2.12
855.04	2.12
855.779	1.12
856.518	3.12
857.257	0.12
857.995	3.12
858.734	0.12
859.473	1.12
860.211	1.12
860.95	1.12
861.688	2.12
862.426	2.12
863.165	2.12
863.903	-0.88
864.641	1.12
865.379	1.12
866.117	2.12
866.855	1.12
867.593	3.12
868.33	2.12
869.068	1.12
869.806	0.12
870.543	1.12
871.28	0.12
872.018	2.12
872.755	0.12
873.492	0.12
874.229	3.12
874.967	2.12
875.703	3.12
876.44	0.12
877.177	-0.88
877.914	1.12
878.651	3.12
879.387	2.12
880.124	0.12
880.86	1.12
881.597	1.12
882.333	1.12
883.069	1.12
883.806	1.12
884.542	-0.88
885.278	2.12
886.014	1.12
886.749	2.12
887.485	4.12
888.221	0.12
888.957	1.12
889.692	1.12
890.428	1.12
891.163	0.12
891.899	1.12
892.634	-0.88
893.369	1.12
894.104	0.12
894.839	1.12
895.574	0.12
896.309	1.12
897.044	-2.88
897.779	0.12
898.514	2.12
899.248	1.12
899.983	1.12
900.717	1.12
901.452	0.12
902.186	-0.88
902.92	1.12
903.654	-1.88
904.389	1.12
905.123	2.12
905.857	2.12
906.59	2.12
907.324	-0.88
908.058	-0.88
908.792	-1.88
909.525	1.12
910.259	-1.88
910.992	-0.88
911.726	1.12
912.459	-0.88
913.192	0.12
913.925	3.12
914.658	-1.88
915.391	-0.88
916.124	1.12
916.857	-0.88
917.59	-0.88
918.323	0.12
919.055	-0.88
919.788	0.12
920.521	1.12
921.253	0.12
921.985	0.12
922.718	0.12
923.45	0.12
924.182	-1.88
924.914	1.12
925.646	-0.88
926.378	0.12
927.11	1.12
927.841	1.12
928.573	2.12
929.305	0.12
930.036	1.12
930.768	2.12
931.499	1.12
932.23	1.12
932.962	-1.88
933.693	0.12
934.424	-1.88
935.155	0.12
935.886	-0.88
936.617	1.12
937.348	-0.88
938.078	-1.88
938.809	-1.88
939.54	0.12
940.27	1.12
941.001	1.12
941.731	-1.88
942.461	1.12
943.191	0.12
943.922	-0.88
944.652	-1.88
945.382	0.12
946.112	0.12
946.841	-1.88
947.571	0.12
948.301	-0.88
949.031	2.12
949.76	-1.88
950.49	0.12
951.219	0.12
951.948	-1.88
952.678	1.12
953.407	-0.88
954.136	1.12
954.865	1.12
955.594	-1.88
956.323	-1.88
957.052	-1.88
957.78	0.12
958.509	1.12
959.238	1.12
959.966	3.12
960.695	0.12
961.423	1.12
962.151	0.12
962.88	1.12
963.608	-0.88
964.336	1.12
965.064	1.12
965.792	1.12
966.52	1.12
967.247	-0.88
967.975	0.12
968.703	1.12
969.43	1.12
970.158	0.12
970.885	0.12
971.613	0.12
972.34	1.12
973.067	-1.88
973.794	-1.88
974.521	-0.88
975.248	-1.88
975.975	2.12
976.702	-0.88
977.429	2.12
978.156	-1.88
978.882	1.12
979.609	0.12
980.335	-1.88
981.062	2.12
981.788	0.12
982.514	-0.88
983.24	1.12
983.967	0.12
984.693	0.12
985.419	-0.88
986.144	0.12
986.87	0.12
987.596	-1.88
988.322	-0.88
989.047	-0.88
989.773	-0.88
990.498	0.12
991.224	-0.88
991.949	1.12
992.674	-0.88
993.399	1.12
994.124	-1.88
994.849	0.12
995.574	1.12
996.299	1.12
997.024	-0.88
997.749	0.12
998.473	-1.88
999.198	0.12
999.922	3.12
1000.647	-0.88
1001.371	4.12
1002.095	-0.88
1002.82	-0.88
1003.544	-0.88
1004.268	-1.88
1004.992	-2.88
1005.716	-2.88
1006.439	-1.88
1007.163	0.12
1007.887	-0.88
1008.611	1.12
1009.334	0.12
1010.058	-2.88
1010.781	1.12
1011.504	0.12
1012.228	1.12
1012.951	-0.88
1013.674	1.12
1014.397	0.12
1015.12	-1.88
