节点500_145_QEPB04081__46__11-29-40-744.txt的数据

Date: Wed Nov 12 11:29:40 CST 2025
User: PC
Spectrometer: QEPB0408
触发模式: 0
积分时间 (秒): 1.000000E-2
Scans to average: 1
启用暗噪声校正: true
启用非线性校正: false
滑动平均宽度: 0
X轴模式: Wavelengths
Number of Pixels in Spectrum: 1044
>>>>>Begin Spectral Data<<<<<
220.843	-0.62
221.644	2.38
222.444	1.38
223.244	1.38
224.045	1.38
224.845	1.38
225.645	-0.62
226.445	-0.62
227.245	-0.62
228.045	2.38
228.845	-0.62
229.645	1.38
230.444	0.38
231.244	2.38
232.043	0.38
232.843	1.38
233.642	0.38
234.442	1.38
235.241	1.38
236.04	1.38
236.839	0.38
237.638	2.38
238.437	2.38
239.236	1.38
240.035	1.38
240.833	1.38
241.632	1.38
242.43	4.38
243.229	3.38
244.027	1.38
244.826	0.38
245.624	3.38
246.422	3.38
247.22	0.38
248.018	2.38
248.816	1.38
249.614	2.38
250.412	2.38
251.21	4.38
252.007	4.38
252.805	1.38
253.602	3.38
254.4	3.38
255.197	2.38
255.994	6.38
256.791	1.38
257.589	3.38
258.386	2.38
259.183	3.38
259.979	6.38
260.776	4.38
261.573	2.38
262.37	6.38
263.166	7.38
263.963	6.38
264.759	4.38
265.556	5.38
266.352	6.38
267.148	5.38
267.944	5.38
268.74	8.38
269.536	6.38
270.332	8.38
271.128	7.38
271.924	8.38
272.719	9.38
273.515	8.38
274.311	8.38
275.106	8.38
275.901	10.38
276.697	10.38
277.492	9.38
278.287	12.38
279.082	12.38
279.877	8.38
280.672	14.38
281.467	10.38
282.262	11.38
283.056	11.38
283.851	8.38
284.646	10.38
285.44	12.38
286.234	11.38
287.029	11.38
287.823	11.38
288.617	13.38
289.411	12.38
290.205	10.38
290.999	13.38
291.793	11.38
292.587	12.38
293.381	12.38
294.174	11.38
294.968	13.38
295.761	9.38
296.555	11.38
297.348	8.38
298.141	11.38
298.935	10.38
299.728	9.38
300.521	11.38
301.314	10.38
302.107	9.38
302.899	5.38
303.692	7.38
304.485	7.38
305.277	8.38
306.07	8.38
306.862	6.38
307.655	5.38
308.447	7.38
309.239	7.38
310.031	8.38
310.823	8.38
311.615	8.38
312.407	6.38
313.199	6.38
313.991	6.38
314.783	6.38
315.574	5.38
316.366	6.38
317.157	3.38
317.949	6.38
318.74	6.38
319.531	6.38
320.322	7.38
321.113	4.38
321.904	5.38
322.695	5.38
323.486	4.38
324.277	2.38
325.068	5.38
325.858	5.38
326.649	5.38
327.439	3.38
328.23	4.38
329.02	5.38
329.81	6.38
330.6	4.38
331.391	3.38
332.181	4.38
332.971	3.38
333.76	3.38
334.55	5.38
335.34	0.38
336.13	3.38
336.919	1.38
337.709	4.38
338.498	5.38
339.287	4.38
340.077	5.38
340.866	6.38
341.655	2.38
342.444	3.38
343.233	3.38
344.022	3.38
344.811	2.38
345.6	5.38
346.388	4.38
347.177	4.38
347.965	2.38
348.754	4.38
349.542	5.38
350.33	3.38
351.119	5.38
351.907	3.38
352.695	3.38
353.483	5.38
354.271	4.38
355.059	3.38
355.846	4.38
356.634	5.38
357.422	1.38
358.209	2.38
358.997	4.38
359.784	4.38
360.571	2.38
361.359	2.38
362.146	2.38
362.933	4.38
363.72	3.38
364.507	1.38
365.294	6.38
366.081	2.38
366.867	3.38
367.654	4.38
368.44	2.38
369.227	4.38
370.013	4.38
370.8	4.38
371.586	3.38
372.372	2.38
373.158	2.38
373.944	2.38
374.73	3.38
375.516	3.38
376.302	1.38
377.088	3.38
377.873	2.38
378.659	3.38
379.445	3.38
380.23	3.38
381.015	2.38
381.801	3.38
382.586	2.38
383.371	3.38
384.156	1.38
384.941	3.38
385.726	2.38
386.511	2.38
387.296	4.38
388.08	5.38
388.865	4.38
389.649	3.38
390.434	3.38
391.218	4.38
392.003	4.38
392.787	3.38
393.571	2.38
394.355	2.38
395.139	2.38
395.923	3.38
396.707	3.38
397.491	4.38
398.274	3.38
399.058	4.38
399.842	5.38
400.625	3.38
401.408	3.38
402.192	5.38
402.975	6.38
403.758	5.38
404.541	7.38
405.324	3.38
406.107	1.38
406.89	3.38
407.673	3.38
408.456	5.38
409.238	4.38
410.021	4.38
410.803	8.38
411.586	3.38
412.368	7.38
413.151	5.38
413.933	5.38
414.715	3.38
415.497	5.38
416.279	6.38
417.061	7.38
417.843	7.38
418.624	5.38
419.406	6.38
420.188	7.38
420.969	3.38
421.751	5.38
422.532	7.38
423.313	8.38
424.095	6.38
424.876	7.38
425.657	7.38
426.438	6.38
427.219	7.38
428	5.38
428.78	8.38
429.561	8.38
430.342	8.38
431.122	6.38
431.903	7.38
432.683	10.38
433.464	6.38
434.244	8.38
435.024	11.38
435.804	11.38
436.584	11.38
437.364	11.38
438.144	12.38
438.924	9.38
439.704	12.38
440.483	10.38
441.263	13.38
442.042	14.38
442.822	12.38
443.601	14.38
444.38	16.38
445.16	15.38
445.939	17.38
446.718	15.38
447.497	18.38
448.276	17.38
449.054	20.38
449.833	21.38
450.612	21.38
451.391	24.38
452.169	25.38
452.948	32.38
453.726	28.38
454.504	33.38
455.282	37.38
456.061	39.38
456.839	49.38
457.617	46.38
458.395	55.38
459.172	58.38
459.95	64.38
460.728	70.38
461.506	82.38
462.283	89.38
463.061	102.38
463.838	112.38
464.615	120.38
465.393	140.38
466.17	157.38
466.947	173.38
467.724	194.38
468.501	216.38
469.278	246.38
470.055	270.38
470.831	295.38
471.608	332.38
472.385	374.38
473.161	419.38
473.938	469.38
474.714	524.38
475.49	586.38
476.266	651.38
477.043	726.38
477.819	803.38
478.595	900.38
479.371	1018.38
480.146	1117.38
480.922	1250.38
481.698	1379.38
482.473	1523.38
483.249	1691.38
484.024	1870.38
484.8	2070.38
485.575	2318.38
486.35	2574.38
487.126	2839.38
487.901	3150.38
488.676	3490.38
489.451	3878.38
490.225	4282.38
491	4767.38
491.775	5220.38
492.55	5793.38
493.324	6365.38
494.099	6967.38
494.873	7685.38
495.647	8352.38
496.422	9108.38
497.196	9921.38
497.97	10739.38
498.744	11518.38
499.518	12349.38
500.292	13138.38
501.066	13896.38
501.839	14635.38
502.613	15327.38
503.387	15957.38
504.16	16464.38
504.934	16938.38
505.707	17162.38
506.48	17338.38
507.253	17426.38
508.027	17368.38
508.8	17152.38
509.573	16906.38
510.346	16550.38
511.118	16001.38
511.891	15459.38
512.664	14934.38
513.437	14274.38
514.209	13749.38
514.982	13101.38
515.754	12491.38
516.526	11902.38
517.298	11316.38
518.071	10863.38
518.843	10376.38
519.615	9935.38
520.387	9517.38
521.159	9095.38
521.93	8779.38
522.702	8450.38
523.474	8125.38
524.245	7780.38
525.017	7482.38
525.788	7186.38
526.56	6884.38
527.331	6602.38
528.102	6259.38
528.873	5997.38
529.644	5738.38
530.415	5434.38
531.186	5153.38
531.957	4904.38
532.728	4631.38
533.498	4369.38
534.269	4112.38
535.039	3873.38
535.81	3654.38
536.58	3428.38
537.351	3251.38
538.121	3042.38
538.891	2913.38
539.661	2741.38
540.431	2587.38
541.201	2457.38
541.971	2338.38
542.741	2193.38
543.51	2068.38
544.28	1988.38
545.05	1887.38
545.819	1808.38
546.588	1706.38
547.358	1623.38
548.127	1564.38
548.896	1469.38
549.665	1399.38
550.434	1310.38
551.203	1248.38
551.972	1182.38
552.741	1124.38
553.51	1062.38
554.278	995.38
555.047	944.38
555.815	877.38
556.584	837.38
557.352	779.38
558.121	750.38
558.889	691.38
559.657	653.38
560.425	621.38
561.193	580.38
561.961	553.38
562.729	514.38
563.496	493.38
564.264	457.38
565.032	439.38
565.799	417.38
566.567	387.38
567.334	361.38
568.101	345.38
568.869	323.38
569.636	310.38
570.403	293.38
571.17	274.38
571.937	258.38
572.704	243.38
573.471	229.38
574.237	217.38
575.004	206.38
575.771	188.38
576.537	180.38
577.303	171.38
578.07	160.38
578.836	153.38
579.602	142.38
580.368	135.38
581.134	126.38
581.9	118.38
582.666	112.38
583.432	108.38
584.198	100.38
584.964	96.38
585.729	91.38
586.495	88.38
587.26	80.38
588.025	78.38
588.791	74.38
589.556	69.38
590.321	63.38
591.086	67.38
591.851	55.38
592.616	52.38
593.381	53.38
594.146	50.38
594.911	48.38
595.675	43.38
596.44	46.38
597.204	43.38
597.969	38.38
598.733	37.38
599.497	35.38
600.261	36.38
601.025	35.38
601.79	32.38
602.553	29.38
603.317	29.38
604.081	28.38
604.845	27.38
605.609	25.38
606.372	21.38
607.136	26.38
607.899	22.38
608.662	22.38
609.426	20.38
610.189	20.38
610.952	21.38
611.715	18.38
612.478	21.38
613.241	16.38
614.004	16.38
614.767	16.38
615.529	14.38
616.292	17.38
617.055	13.38
617.817	14.38
618.579	14.38
619.342	13.38
620.104	13.38
620.866	9.38
621.628	10.38
622.39	10.38
623.152	8.38
623.914	10.38
624.676	9.38
625.438	11.38
626.199	7.38
626.961	9.38
627.722	6.38
628.484	9.38
629.245	9.38
630.006	6.38
630.768	7.38
631.529	8.38
632.29	6.38
633.051	8.38
633.812	8.38
634.573	6.38
635.333	6.38
636.094	6.38
636.855	5.38
637.615	3.38
638.376	6.38
639.136	7.38
639.896	7.38
640.657	4.38
641.417	5.38
642.177	2.38
642.937	5.38
643.697	5.38
644.457	5.38
645.216	5.38
645.976	5.38
646.736	4.38
647.495	6.38
648.255	5.38
649.014	4.38
649.774	4.38
650.533	7.38
651.292	4.38
652.051	5.38
652.81	4.38
653.569	3.38
654.328	2.38
655.087	4.38
655.846	5.38
656.604	3.38
657.363	3.38
658.121	3.38
658.88	3.38
659.638	3.38
660.397	1.38
661.155	2.38
661.913	5.38
662.671	4.38
663.429	3.38
664.187	4.38
664.945	2.38
665.703	3.38
666.46	3.38
667.218	3.38
667.976	1.38
668.733	4.38
669.49	3.38
670.248	2.38
671.005	3.38
671.762	4.38
672.519	1.38
673.276	4.38
674.033	4.38
674.79	3.38
675.547	5.38
676.304	2.38
677.06	2.38
677.817	2.38
678.574	1.38
679.33	1.38
680.086	2.38
680.843	2.38
681.599	5.38
682.355	2.38
683.111	2.38
683.867	2.38
684.623	1.38
685.379	2.38
686.135	1.38
686.89	2.38
687.646	3.38
688.402	0.38
689.157	2.38
689.912	1.38
690.668	1.38
691.423	1.38
692.178	3.38
692.933	3.38
693.688	3.38
694.443	0.38
695.198	3.38
695.953	2.38
696.708	4.38
697.462	1.38
698.217	-0.62
698.972	3.38
699.726	2.38
700.48	2.38
701.235	1.38
701.989	2.38
702.743	-0.62
703.497	2.38
704.251	4.38
705.005	0.38
705.759	4.38
706.513	2.38
707.266	3.38
708.02	2.38
708.774	2.38
709.527	0.38
710.28	1.38
711.034	5.38
711.787	2.38
712.54	3.38
713.293	2.38
714.046	-0.62
714.799	2.38
715.552	0.38
716.305	1.38
717.058	0.38
717.81	0.38
718.563	1.38
719.315	1.38
720.068	2.38
720.82	1.38
721.573	3.38
722.325	2.38
723.077	2.38
723.829	2.38
724.581	1.38
725.333	2.38
726.085	2.38
726.836	1.38
727.588	2.38
728.34	4.38
729.091	2.38
729.843	3.38
730.594	3.38
731.346	1.38
732.097	2.38
732.848	3.38
733.599	1.38
734.35	4.38
735.101	2.38
735.852	2.38
736.603	2.38
737.354	3.38
738.104	4.38
738.855	1.38
739.605	2.38
740.356	3.38
741.106	4.38
741.856	1.38
742.607	2.38
743.357	2.38
744.107	2.38
744.857	2.38
745.607	0.38
746.357	2.38
747.106	2.38
747.856	1.38
748.606	2.38
749.355	2.38
750.105	2.38
750.854	2.38
751.603	3.38
752.353	4.38
753.102	2.38
753.851	1.38
754.6	5.38
755.349	2.38
756.098	2.38
756.847	2.38
757.595	3.38
758.344	4.38
759.093	3.38
759.841	2.38
760.589	1.38
761.338	5.38
762.086	2.38
762.834	0.38
763.582	4.38
764.331	4.38
765.079	3.38
765.826	3.38
766.574	3.38
767.322	3.38
768.07	4.38
768.817	5.38
769.565	6.38
770.312	4.38
771.06	4.38
771.807	5.38
772.554	5.38
773.302	2.38
774.049	6.38
774.796	6.38
775.543	4.38
776.29	6.38
777.036	7.38
777.783	4.38
778.53	2.38
779.276	5.38
780.023	8.38
780.769	5.38
781.516	3.38
782.262	2.38
783.008	5.38
783.754	3.38
784.5	4.38
785.246	4.38
785.992	5.38
786.738	6.38
787.484	4.38
788.23	5.38
788.975	4.38
789.721	6.38
790.466	7.38
791.212	4.38
791.957	5.38
792.702	5.38
793.447	6.38
794.193	7.38
794.938	5.38
795.683	8.38
796.427	6.38
797.172	4.38
797.917	4.38
798.662	5.38
799.406	2.38
800.151	4.38
800.895	1.38
801.64	4.38
802.384	5.38
803.128	4.38
803.872	4.38
804.616	5.38
805.36	4.38
806.104	2.38
806.848	3.38
807.592	4.38
808.336	4.38
809.079	4.38
809.823	4.38
810.566	2.38
811.31	3.38
812.053	3.38
812.796	4.38
813.539	3.38
814.283	3.38
815.026	3.38
815.769	3.38
816.511	5.38
817.254	4.38
817.997	4.38
818.74	4.38
819.482	2.38
820.225	4.38
820.967	3.38
821.71	3.38
822.452	2.38
823.194	4.38
823.936	5.38
824.678	4.38
825.42	4.38
826.162	5.38
826.904	-0.62
827.646	4.38
828.388	4.38
829.129	2.38
829.871	4.38
830.612	3.38
831.354	0.38
832.095	2.38
832.836	3.38
833.577	3.38
834.319	3.38
835.06	3.38
835.801	3.38
836.542	2.38
837.282	2.38
838.023	1.38
838.764	1.38
839.504	5.38
840.245	2.38
840.985	4.38
841.726	2.38
842.466	4.38
843.206	3.38
843.946	1.38
844.687	0.38
845.427	2.38
846.166	5.38
846.906	0.38
847.646	1.38
848.386	1.38
849.125	2.38
849.865	2.38
850.605	1.38
851.344	2.38
852.083	3.38
852.823	2.38
853.562	2.38
854.301	2.38
855.04	1.38
855.779	0.38
856.518	0.38
857.257	2.38
857.995	3.38
858.734	3.38
859.473	3.38
860.211	2.38
860.95	2.38
861.688	2.38
862.426	1.38
863.165	1.38
863.903	0.38
864.641	3.38
865.379	2.38
866.117	0.38
866.855	4.38
867.593	1.38
868.33	1.38
869.068	1.38
869.806	2.38
870.543	3.38
871.28	1.38
872.018	1.38
872.755	3.38
873.492	1.38
874.229	1.38
874.967	-0.62
875.703	2.38
876.44	3.38
877.177	2.38
877.914	-0.62
878.651	1.38
879.387	2.38
880.124	0.38
880.86	1.38
881.597	1.38
882.333	0.38
883.069	0.38
883.806	2.38
884.542	-1.62
885.278	2.38
886.014	1.38
886.749	-0.62
887.485	1.38
888.221	3.38
888.957	0.38
889.692	1.38
890.428	1.38
891.163	-0.62
891.899	2.38
892.634	1.38
893.369	1.38
894.104	0.38
894.839	3.38
895.574	0.38
896.309	1.38
897.044	1.38
897.779	1.38
898.514	1.38
899.248	0.38
899.983	1.38
900.717	0.38
901.452	0.38
902.186	-1.62
902.92	0.38
903.654	-1.62
904.389	2.38
905.123	1.38
905.857	2.38
906.59	0.38
907.324	1.38
908.058	0.38
908.792	2.38
909.525	0.38
910.259	0.38
910.992	0.38
911.726	1.38
912.459	2.38
913.192	-0.62
913.925	1.38
914.658	-0.62
915.391	2.38
916.124	0.38
916.857	0.38
917.59	1.38
918.323	-0.62
919.055	1.38
919.788	0.38
920.521	1.38
921.253	0.38
921.985	-1.62
922.718	0.38
923.45	1.38
924.182	1.38
924.914	2.38
925.646	-1.62
926.378	-0.62
927.11	-0.62
927.841	1.38
928.573	0.38
929.305	0.38
930.036	2.38
930.768	2.38
931.499	0.38
932.23	-1.62
932.962	-1.62
933.693	2.38
934.424	1.38
935.155	2.38
935.886	2.38
936.617	2.38
937.348	0.38
938.078	1.38
938.809	1.38
939.54	2.38
940.27	-0.62
941.001	1.38
941.731	2.38
942.461	-0.62
943.191	0.38
943.922	0.38
944.652	-1.62
945.382	1.38
946.112	-0.62
946.841	0.38
947.571	-0.62
948.301	0.38
949.031	1.38
949.76	1.38
950.49	1.38
951.219	0.38
951.948	0.38
952.678	0.38
953.407	2.38
954.136	-0.62
954.865	1.38
955.594	2.38
956.323	0.38
957.052	0.38
957.78	0.38
958.509	0.38
959.238	1.38
959.966	0.38
960.695	2.38
961.423	1.38
962.151	-0.62
962.88	2.38
963.608	2.38
964.336	-0.62
965.064	-1.62
965.792	1.38
966.52	2.38
967.247	0.38
967.975	0.38
968.703	-0.62
969.43	1.38
970.158	1.38
970.885	-0.62
971.613	0.38
972.34	1.38
973.067	1.38
973.794	2.38
974.521	-0.62
975.248	-1.62
975.975	-1.62
976.702	1.38
977.429	2.38
978.156	-0.62
978.882	2.38
979.609	2.38
980.335	2.38
981.062	1.38
981.788	0.38
982.514	-0.62
983.24	1.38
983.967	1.38
984.693	-0.62
985.419	-1.62
986.144	3.38
986.87	0.38
987.596	-1.62
988.322	0.38
989.047	-0.62
989.773	0.38
990.498	-1.62
991.224	0.38
991.949	-0.62
992.674	0.38
993.399	-0.62
994.124	2.38
994.849	2.38
995.574	0.38
996.299	-0.62
997.024	0.38
997.749	0.38
998.473	0.38
999.198	1.38
999.922	1.38
1000.647	-1.62
1001.371	2.38
1002.095	-1.62
1002.82	0.38
1003.544	-2.62
1004.268	0.38
1004.992	-1.62
1005.716	0.38
1006.439	-0.62
1007.163	-0.62
1007.887	-0.62
1008.611	0.38
1009.334	2.38
1010.058	0.38
1010.781	1.38
1011.504	1.38
1012.228	1.38
1012.951	0.38
1013.674	2.38
1014.397	-1.62
1015.12	0.38
