节点500_145_QEPB04081__693__11-39-56-751.txt的数据

Date: Wed Nov 12 11:39:56 CST 2025
User: PC
Spectrometer: QEPB0408
触发模式: 0
积分时间 (秒): 1.000000E-2
Scans to average: 1
启用暗噪声校正: true
启用非线性校正: false
滑动平均宽度: 0
X轴模式: Wavelengths
Number of Pixels in Spectrum: 1044
>>>>>Begin Spectral Data<<<<<
220.843	1
221.644	0
222.444	-1
223.244	2
224.045	0
224.845	1
225.645	-1
226.445	-1
227.245	4
228.045	1
228.845	0
229.645	0
230.444	1
231.244	0
232.043	3
232.843	3
233.642	3
234.442	2
235.241	2
236.04	2
236.839	0
237.638	1
238.437	6
239.236	2
240.035	2
240.833	2
241.632	2
242.43	1
243.229	2
244.027	1
244.826	4
245.624	3
246.422	3
247.22	-1
248.018	3
248.816	1
249.614	2
250.412	2
251.21	0
252.007	2
252.805	2
253.602	3
254.4	1
255.197	5
255.994	5
256.791	5
257.589	4
258.386	3
259.183	5
259.979	5
260.776	4
261.573	4
262.37	4
263.166	5
263.963	8
264.759	6
265.556	6
266.352	7
267.148	4
267.944	7
268.74	8
269.536	7
270.332	7
271.128	7
271.924	5
272.719	6
273.515	6
274.311	9
275.106	8
275.901	9
276.697	8
277.492	10
278.287	8
279.082	8
279.877	7
280.672	10
281.467	10
282.262	8
283.056	9
283.851	10
284.646	8
285.44	10
286.234	9
287.029	12
287.823	11
288.617	10
289.411	10
290.205	10
290.999	10
291.793	11
292.587	10
293.381	9
294.174	8
294.968	8
295.761	9
296.555	10
297.348	10
298.141	12
298.935	13
299.728	10
300.521	10
301.314	8
302.107	11
302.899	7
303.692	9
304.485	8
305.277	6
306.07	10
306.862	10
307.655	7
308.447	8
309.239	9
310.031	8
310.823	6
311.615	8
312.407	8
313.199	10
313.991	4
314.783	8
315.574	7
316.366	5
317.157	7
317.949	6
318.74	7
319.531	5
320.322	7
321.113	4
321.904	6
322.695	4
323.486	5
324.277	4
325.068	6
325.858	4
326.649	6
327.439	4
328.23	6
329.02	3
329.81	5
330.6	2
331.391	3
332.181	5
332.971	4
333.76	3
334.55	3
335.34	5
336.13	4
336.919	6
337.709	3
338.498	4
339.287	3
340.077	4
340.866	6
341.655	2
342.444	4
343.233	3
344.022	3
344.811	4
345.6	3
346.388	7
347.177	2
347.965	4
348.754	5
349.542	3
350.33	6
351.119	3
351.907	4
352.695	3
353.483	3
354.271	3
355.059	5
355.846	5
356.634	4
357.422	4
358.209	5
358.997	4
359.784	3
360.571	4
361.359	5
362.146	4
362.933	4
363.72	4
364.507	5
365.294	2
366.081	4
366.867	1
367.654	2
368.44	3
369.227	6
370.013	3
370.8	3
371.586	3
372.372	3
373.158	2
373.944	5
374.73	2
375.516	3
376.302	3
377.088	2
377.873	3
378.659	2
379.445	3
380.23	4
381.015	2
381.801	5
382.586	2
383.371	6
384.156	0
384.941	5
385.726	1
386.511	5
387.296	4
388.08	3
388.865	3
389.649	3
390.434	3
391.218	3
392.003	1
392.787	3
393.571	5
394.355	3
395.139	2
395.923	6
396.707	4
397.491	3
398.274	4
399.058	4
399.842	3
400.625	4
401.408	6
402.192	3
402.975	5
403.758	4
404.541	4
405.324	9
406.107	3
406.89	4
407.673	5
408.456	6
409.238	3
410.021	5
410.803	8
411.586	6
412.368	2
413.151	5
413.933	4
414.715	4
415.497	6
416.279	6
417.061	5
417.843	7
418.624	5
419.406	7
420.188	6
420.969	6
421.751	7
422.532	3
423.313	6
424.095	7
424.876	6
425.657	5
426.438	7
427.219	4
428	6
428.78	7
429.561	5
430.342	4
431.122	8
431.903	6
432.683	10
433.464	11
434.244	8
435.024	7
435.804	8
436.584	10
437.364	12
438.144	11
438.924	9
439.704	11
440.483	13
441.263	14
442.042	13
442.822	14
443.601	17
444.38	17
445.16	16
445.939	18
446.718	18
447.497	22
448.276	22
449.054	26
449.833	28
450.612	28
451.391	30
452.169	30
452.948	36
453.726	37
454.504	45
455.282	48
456.061	52
456.839	56
457.617	61
458.395	66
459.172	74
459.95	86
460.728	93
461.506	104
462.283	114
463.061	129
463.838	142
464.615	158
465.393	179
466.17	198
466.947	221
467.724	238
468.501	270
469.278	292
470.055	328
470.831	360
471.608	399
472.385	445
473.161	494
473.938	539
474.714	598
475.49	664
476.266	725
477.043	811
477.819	876
478.595	964
479.371	1057
480.146	1148
480.922	1279
481.698	1392
482.473	1506
483.249	1673
484.024	1838
484.8	1997
485.575	2184
486.35	2375
487.126	2605
487.901	2854
488.676	3109
489.451	3387
490.225	3678
491	4026
491.775	4388
492.55	4771
493.324	5206
494.099	5634
494.873	6133
495.647	6641
496.422	7207
497.196	7728
497.97	8316
498.744	8944
499.518	9575
500.292	10222
501.066	10843
501.839	11454
502.613	12058
503.387	12621
504.16	13167
504.934	13636
505.707	14065
506.48	14449
507.253	14658
508.027	14908
508.8	15044
509.573	15040
510.346	14955
511.118	14799
511.891	14531
512.664	14269
513.437	13862
514.209	13483
514.982	13083
515.754	12619
516.526	12100
517.298	11648
518.071	11194
518.843	10768
519.615	10279
520.387	9863
521.159	9462
521.93	9065
522.702	8731
523.474	8402
524.245	8092
525.017	7772
525.788	7421
526.56	7128
527.331	6836
528.102	6572
528.873	6314
529.644	6056
530.415	5776
531.186	5501
531.957	5282
532.728	5012
533.498	4788
534.269	4535
535.039	4300
535.81	4053
536.58	3845
537.351	3639
538.121	3450
538.891	3272
539.661	3086
540.431	2928
541.201	2761
541.971	2613
542.741	2478
543.51	2337
544.28	2224
545.05	2106
545.819	2018
546.588	1908
547.358	1833
548.127	1726
548.896	1660
549.665	1577
550.434	1491
551.203	1412
551.972	1349
552.741	1280
553.51	1209
554.278	1140
555.047	1077
555.815	1026
556.584	968
557.352	901
558.121	868
558.889	809
559.657	775
560.425	715
561.193	685
561.961	646
562.729	614
563.496	574
564.264	542
565.032	503
565.799	476
566.567	446
567.334	431
568.101	412
568.869	387
569.636	358
570.403	339
571.17	322
571.937	307
572.704	292
573.471	266
574.237	255
575.004	242
575.771	227
576.537	218
577.303	194
578.07	193
578.836	176
579.602	167
580.368	156
581.134	151
581.9	144
582.666	137
583.432	125
584.198	118
584.964	115
585.729	109
586.495	105
587.26	98
588.025	94
588.791	88
589.556	80
590.321	74
591.086	75
591.851	73
592.616	69
593.381	62
594.146	58
594.911	61
595.675	52
596.44	53
597.204	47
597.969	47
598.733	45
599.497	41
600.261	43
601.025	38
601.79	39
602.553	36
603.317	33
604.081	33
604.845	34
605.609	28
606.372	29
607.136	28
607.899	25
608.662	24
609.426	24
610.189	22
610.952	23
611.715	20
612.478	19
613.241	19
614.004	22
614.767	17
615.529	18
616.292	15
617.055	16
617.817	16
618.579	13
619.342	15
620.104	14
620.866	12
621.628	13
622.39	12
623.152	13
623.914	12
624.676	13
625.438	11
626.199	10
626.961	12
627.722	10
628.484	11
629.245	9
630.006	8
630.768	10
631.529	9
632.29	8
633.051	7
633.812	9
634.573	9
635.333	8
636.094	6
636.855	8
637.615	7
638.376	8
639.136	8
639.896	6
640.657	6
641.417	5
642.177	7
642.937	5
643.697	5
644.457	8
645.216	4
645.976	7
646.736	5
647.495	5
648.255	6
649.014	4
649.774	7
650.533	3
651.292	5
652.051	3
652.81	4
653.569	7
654.328	1
655.087	8
655.846	5
656.604	6
657.363	4
658.121	3
658.88	2
659.638	4
660.397	4
661.155	3
661.913	3
662.671	2
663.429	3
664.187	1
664.945	2
665.703	5
666.46	4
667.218	4
667.976	3
668.733	3
669.49	1
670.248	5
671.005	3
671.762	3
672.519	3
673.276	4
674.033	3
674.79	4
675.547	4
676.304	1
677.06	2
677.817	3
678.574	5
679.33	2
680.086	1
680.843	3
681.599	4
682.355	3
683.111	2
683.867	2
684.623	3
685.379	3
686.135	2
686.89	0
687.646	2
688.402	2
689.157	4
689.912	3
690.668	3
691.423	2
692.178	3
692.933	2
693.688	2
694.443	4
695.198	2
695.953	4
696.708	3
697.462	4
698.217	0
698.972	3
699.726	2
700.48	3
701.235	2
701.989	2
702.743	5
703.497	3
704.251	3
705.005	2
705.759	1
706.513	2
707.266	2
708.02	3
708.774	1
709.527	1
710.28	3
711.034	3
711.787	4
712.54	-1
713.293	3
714.046	1
714.799	4
715.552	3
716.305	2
717.058	5
717.81	2
718.563	2
719.315	-1
720.068	4
720.82	2
721.573	1
722.325	2
723.077	1
723.829	3
724.581	1
725.333	1
726.085	3
726.836	3
727.588	2
728.34	4
729.091	3
729.843	2
730.594	1
731.346	3
732.097	1
732.848	4
733.599	3
734.35	1
735.101	1
735.852	4
736.603	3
737.354	3
738.104	4
738.855	2
739.605	5
740.356	2
741.106	5
741.856	2
742.607	3
743.357	3
744.107	0
744.857	4
745.607	5
746.357	5
747.106	4
747.856	3
748.606	5
749.355	2
750.105	3
750.854	3
751.603	5
752.353	3
753.102	4
753.851	4
754.6	1
755.349	3
756.098	3
756.847	5
757.595	8
758.344	2
759.093	3
759.841	3
760.589	3
761.338	3
762.086	4
762.834	4
763.582	3
764.331	4
765.079	4
765.826	5
766.574	1
767.322	2
768.07	3
768.817	3
769.565	4
770.312	3
771.06	3
771.807	4
772.554	4
773.302	4
774.049	2
774.796	4
775.543	5
776.29	4
777.036	8
777.783	4
778.53	7
779.276	4
780.023	6
780.769	5
781.516	5
782.262	4
783.008	5
783.754	5
784.5	6
785.246	6
785.992	5
786.738	7
787.484	5
788.23	5
788.975	4
789.721	5
790.466	4
791.212	4
791.957	4
792.702	4
793.447	4
794.193	4
794.938	4
795.683	8
796.427	6
797.172	5
797.917	3
798.662	5
799.406	4
800.151	4
800.895	5
801.64	4
802.384	6
803.128	5
803.872	6
804.616	7
805.36	4
806.104	5
806.848	5
807.592	3
808.336	5
809.079	3
809.823	3
810.566	3
811.31	4
812.053	5
812.796	5
813.539	4
814.283	4
815.026	6
815.769	6
816.511	4
817.254	5
817.997	4
818.74	5
819.482	6
820.225	5
820.967	4
821.71	4
822.452	1
823.194	4
823.936	4
824.678	3
825.42	3
826.162	2
826.904	3
827.646	3
828.388	3
829.129	3
829.871	4
830.612	4
831.354	3
832.095	3
832.836	3
833.577	2
834.319	4
835.06	3
835.801	3
836.542	4
837.282	4
838.023	1
838.764	2
839.504	4
840.245	1
840.985	2
841.726	3
842.466	4
843.206	0
843.946	4
844.687	2
845.427	4
846.166	6
846.906	3
847.646	1
848.386	4
849.125	3
849.865	5
850.605	2
851.344	5
852.083	2
852.823	0
853.562	3
854.301	2
855.04	2
855.779	1
856.518	3
857.257	2
857.995	6
858.734	3
859.473	2
860.211	3
860.95	3
861.688	3
862.426	1
863.165	1
863.903	3
864.641	2
865.379	0
866.117	0
866.855	3
867.593	3
868.33	2
869.068	3
869.806	1
870.543	3
871.28	1
872.018	2
872.755	0
873.492	1
874.229	3
874.967	-1
875.703	2
876.44	0
877.177	2
877.914	1
878.651	1
879.387	2
880.124	-2
880.86	1
881.597	3
882.333	2
883.069	2
883.806	2
884.542	1
885.278	1
886.014	1
886.749	0
887.485	0
888.221	0
888.957	2
889.692	-2
890.428	0
891.163	-1
891.899	0
892.634	2
893.369	1
894.104	0
894.839	3
895.574	0
896.309	2
897.044	1
897.779	1
898.514	2
899.248	-2
899.983	2
900.717	-1
901.452	1
902.186	1
902.92	0
903.654	-2
904.389	1
905.123	1
905.857	1
906.59	3
907.324	0
908.058	2
908.792	2
909.525	1
910.259	-1
910.992	0
911.726	0
912.459	0
913.192	-1
913.925	-1
914.658	0
915.391	1
916.124	0
916.857	2
917.59	2
918.323	1
919.055	1
919.788	4
920.521	2
921.253	1
921.985	1
922.718	-1
923.45	-1
924.182	-1
924.914	2
925.646	1
926.378	0
927.11	0
927.841	2
928.573	2
929.305	1
930.036	-2
930.768	2
931.499	-1
932.23	1
932.962	-1
933.693	2
934.424	1
935.155	1
935.886	2
936.617	0
937.348	1
938.078	0
938.809	1
939.54	-1
940.27	1
941.001	2
941.731	1
942.461	2
943.191	2
943.922	3
944.652	2
945.382	1
946.112	2
946.841	0
947.571	1
948.301	1
949.031	0
949.76	3
950.49	1
951.219	2
951.948	1
952.678	2
953.407	1
954.136	0
954.865	0
955.594	2
956.323	1
957.052	2
957.78	0
958.509	-1
959.238	-1
959.966	1
960.695	-1
961.423	3
962.151	-1
962.88	0
963.608	-1
964.336	2
965.064	1
965.792	1
966.52	0
967.247	-1
967.975	1
968.703	1
969.43	-1
970.158	2
970.885	-1
971.613	2
972.34	1
973.067	0
973.794	0
974.521	1
975.248	0
975.975	2
976.702	1
977.429	0
978.156	1
978.882	0
979.609	2
980.335	3
981.062	0
981.788	0
982.514	-1
983.24	3
983.967	0
984.693	2
985.419	-2
986.144	-1
986.87	0
987.596	1
988.322	3
989.047	-1
989.773	1
990.498	-1
991.224	0
991.949	1
992.674	3
993.399	2
994.124	-1
994.849	1
995.574	-1
996.299	-1
997.024	0
997.749	2
998.473	2
999.198	-1
999.922	1
1000.647	2
1001.371	3
1002.095	-1
1002.82	-2
1003.544	0
1004.268	-1
1004.992	-1
1005.716	2
1006.439	1
1007.163	1
1007.887	0
1008.611	0
1009.334	-1
1010.058	1
1010.781	2
1011.504	1
1012.228	0
1012.951	0
1013.674	0
1014.397	0
1015.12	0
