节点500_145_QEPB04081__77__11-30-11-668.txt的数据

Date: Wed Nov 12 11:30:11 CST 2025
User: PC
Spectrometer: QEPB0408
触发模式: 0
积分时间 (秒): 1.000000E-2
Scans to average: 1
启用暗噪声校正: true
启用非线性校正: false
滑动平均宽度: 0
X轴模式: Wavelengths
Number of Pixels in Spectrum: 1044
>>>>>Begin Spectral Data<<<<<
220.843	0.25
221.644	-1.75
222.444	1.25
223.244	0.25
224.045	2.25
224.845	0.25
225.645	-0.75
226.445	-1.75
227.245	0.25
228.045	0.25
228.845	1.25
229.645	-0.75
230.444	-0.75
231.244	2.25
232.043	-1.75
232.843	1.25
233.642	2.25
234.442	-0.75
235.241	-0.75
236.04	2.25
236.839	1.25
237.638	1.25
238.437	3.25
239.236	1.25
240.035	-0.75
240.833	2.25
241.632	0.25
242.43	2.25
243.229	0.25
244.027	0.25
244.826	2.25
245.624	2.25
246.422	2.25
247.22	2.25
248.018	3.25
248.816	1.25
249.614	0.25
250.412	2.25
251.21	1.25
252.007	4.25
252.805	1.25
253.602	3.25
254.4	4.25
255.197	3.25
255.994	3.25
256.791	4.25
257.589	7.25
258.386	5.25
259.183	3.25
259.979	3.25
260.776	2.25
261.573	4.25
262.37	4.25
263.166	7.25
263.963	5.25
264.759	6.25
265.556	1.25
266.352	5.25
267.148	8.25
267.944	6.25
268.74	8.25
269.536	7.25
270.332	6.25
271.128	6.25
271.924	6.25
272.719	10.25
273.515	9.25
274.311	9.25
275.106	9.25
275.901	8.25
276.697	13.25
277.492	10.25
278.287	11.25
279.082	9.25
279.877	11.25
280.672	9.25
281.467	9.25
282.262	13.25
283.056	11.25
283.851	14.25
284.646	11.25
285.44	10.25
286.234	12.25
287.029	12.25
287.823	10.25
288.617	11.25
289.411	10.25
290.205	13.25
290.999	11.25
291.793	11.25
292.587	10.25
293.381	12.25
294.174	12.25
294.968	10.25
295.761	11.25
296.555	10.25
297.348	9.25
298.141	7.25
298.935	11.25
299.728	7.25
300.521	9.25
301.314	11.25
302.107	6.25
302.899	8.25
303.692	7.25
304.485	9.25
305.277	7.25
306.07	8.25
306.862	7.25
307.655	7.25
308.447	7.25
309.239	5.25
310.031	6.25
310.823	9.25
311.615	4.25
312.407	8.25
313.199	5.25
313.991	6.25
314.783	6.25
315.574	6.25
316.366	7.25
317.157	8.25
317.949	5.25
318.74	5.25
319.531	7.25
320.322	3.25
321.113	5.25
321.904	5.25
322.695	4.25
323.486	4.25
324.277	1.25
325.068	6.25
325.858	5.25
326.649	5.25
327.439	5.25
328.23	3.25
329.02	4.25
329.81	3.25
330.6	5.25
331.391	6.25
332.181	4.25
332.971	3.25
333.76	2.25
334.55	4.25
335.34	3.25
336.13	3.25
336.919	3.25
337.709	2.25
338.498	5.25
339.287	1.25
340.077	3.25
340.866	4.25
341.655	3.25
342.444	3.25
343.233	4.25
344.022	2.25
344.811	5.25
345.6	4.25
346.388	4.25
347.177	5.25
347.965	3.25
348.754	4.25
349.542	1.25
350.33	2.25
351.119	3.25
351.907	2.25
352.695	4.25
353.483	2.25
354.271	2.25
355.059	3.25
355.846	2.25
356.634	1.25
357.422	3.25
358.209	5.25
358.997	1.25
359.784	2.25
360.571	5.25
361.359	1.25
362.146	4.25
362.933	2.25
363.72	3.25
364.507	2.25
365.294	4.25
366.081	4.25
366.867	3.25
367.654	2.25
368.44	3.25
369.227	5.25
370.013	2.25
370.8	-0.75
371.586	0.25
372.372	1.25
373.158	4.25
373.944	1.25
374.73	2.25
375.516	4.25
376.302	2.25
377.088	2.25
377.873	2.25
378.659	1.25
379.445	3.25
380.23	3.25
381.015	2.25
381.801	0.25
382.586	2.25
383.371	2.25
384.156	3.25
384.941	1.25
385.726	4.25
386.511	2.25
387.296	2.25
388.08	5.25
388.865	2.25
389.649	1.25
390.434	2.25
391.218	2.25
392.003	3.25
392.787	2.25
393.571	4.25
394.355	2.25
395.139	5.25
395.923	4.25
396.707	2.25
397.491	4.25
398.274	2.25
399.058	3.25
399.842	3.25
400.625	3.25
401.408	3.25
402.192	2.25
402.975	5.25
403.758	4.25
404.541	3.25
405.324	4.25
406.107	3.25
406.89	4.25
407.673	5.25
408.456	2.25
409.238	5.25
410.021	5.25
410.803	6.25
411.586	4.25
412.368	3.25
413.151	3.25
413.933	2.25
414.715	4.25
415.497	4.25
416.279	7.25
417.061	7.25
417.843	5.25
418.624	5.25
419.406	3.25
420.188	3.25
420.969	6.25
421.751	5.25
422.532	6.25
423.313	8.25
424.095	3.25
424.876	7.25
425.657	7.25
426.438	4.25
427.219	7.25
428	7.25
428.78	10.25
429.561	9.25
430.342	7.25
431.122	8.25
431.903	7.25
432.683	8.25
433.464	8.25
434.244	9.25
435.024	9.25
435.804	7.25
436.584	9.25
437.364	7.25
438.144	10.25
438.924	8.25
439.704	12.25
440.483	13.25
441.263	13.25
442.042	13.25
442.822	16.25
443.601	13.25
444.38	14.25
445.16	16.25
445.939	14.25
446.718	14.25
447.497	18.25
448.276	18.25
449.054	19.25
449.833	23.25
450.612	26.25
451.391	24.25
452.169	26.25
452.948	29.25
453.726	33.25
454.504	36.25
455.282	36.25
456.061	43.25
456.839	42.25
457.617	52.25
458.395	58.25
459.172	59.25
459.95	66.25
460.728	73.25
461.506	81.25
462.283	94.25
463.061	103.25
463.838	112.25
464.615	126.25
465.393	144.25
466.17	158.25
466.947	176.25
467.724	198.25
468.501	225.25
469.278	252.25
470.055	278.25
470.831	319.25
471.608	351.25
472.385	383.25
473.161	437.25
473.938	483.25
474.714	537.25
475.49	602.25
476.266	665.25
477.043	750.25
477.819	829.25
478.595	920.25
479.371	1018.25
480.146	1124.25
480.922	1259.25
481.698	1400.25
482.473	1561.25
483.249	1720.25
484.024	1904.25
484.8	2100.25
485.575	2338.25
486.35	2570.25
487.126	2862.25
487.901	3171.25
488.676	3489.25
489.451	3888.25
490.225	4324.25
491	4788.25
491.775	5237.25
492.55	5802.25
493.324	6379.25
494.099	6999.25
494.873	7671.25
495.647	8336.25
496.422	9100.25
497.196	9910.25
497.97	10702.25
498.744	11530.25
499.518	12286.25
500.292	13114.25
501.066	13878.25
501.839	14633.25
502.613	15314.25
503.387	15915.25
504.16	16473.25
504.934	16823.25
505.707	17170.25
506.48	17356.25
507.253	17404.25
508.027	17397.25
508.8	17180.25
509.573	16933.25
510.346	16593.25
511.118	16151.25
511.891	15638.25
512.664	14997.25
513.437	14412.25
514.209	13854.25
514.982	13256.25
515.754	12636.25
516.526	12051.25
517.298	11476.25
518.071	10990.25
518.843	10459.25
519.615	10065.25
520.387	9656.25
521.159	9242.25
521.93	8883.25
522.702	8531.25
523.474	8194.25
524.245	7886.25
525.017	7562.25
525.788	7246.25
526.56	6959.25
527.331	6649.25
528.102	6353.25
528.873	6079.25
529.644	5781.25
530.415	5471.25
531.186	5231.25
531.957	4947.25
532.728	4686.25
533.498	4421.25
534.269	4183.25
535.039	3938.25
535.81	3708.25
536.58	3518.25
537.351	3304.25
538.121	3124.25
538.891	2938.25
539.661	2789.25
540.431	2628.25
541.201	2495.25
541.971	2352.25
542.741	2236.25
543.51	2115.25
544.28	2022.25
545.05	1908.25
545.819	1814.25
546.588	1731.25
547.358	1663.25
548.127	1558.25
548.896	1489.25
549.665	1421.25
550.434	1346.25
551.203	1262.25
551.972	1195.25
552.741	1145.25
553.51	1087.25
554.278	1024.25
555.047	958.25
555.815	900.25
556.584	856.25
557.352	788.25
558.121	748.25
558.889	705.25
559.657	670.25
560.425	633.25
561.193	597.25
561.961	561.25
562.729	521.25
563.496	498.25
564.264	471.25
565.032	441.25
565.799	412.25
566.567	396.25
567.334	363.25
568.101	355.25
568.869	335.25
569.636	308.25
570.403	296.25
571.17	283.25
571.937	261.25
572.704	240.25
573.471	231.25
574.237	221.25
575.004	204.25
575.771	194.25
576.537	187.25
577.303	174.25
578.07	161.25
578.836	155.25
579.602	142.25
580.368	138.25
581.134	129.25
581.9	125.25
582.666	114.25
583.432	112.25
584.198	102.25
584.964	102.25
585.729	91.25
586.495	88.25
587.26	81.25
588.025	75.25
588.791	75.25
589.556	70.25
590.321	65.25
591.086	64.25
591.851	60.25
592.616	58.25
593.381	55.25
594.146	51.25
594.911	47.25
595.675	46.25
596.44	43.25
597.204	42.25
597.969	42.25
598.733	39.25
599.497	35.25
600.261	34.25
601.025	33.25
601.79	31.25
602.553	30.25
603.317	31.25
604.081	29.25
604.845	28.25
605.609	27.25
606.372	21.25
607.136	22.25
607.899	20.25
608.662	24.25
609.426	21.25
610.189	21.25
610.952	19.25
611.715	19.25
612.478	15.25
613.241	18.25
614.004	17.25
614.767	17.25
615.529	13.25
616.292	14.25
617.055	13.25
617.817	14.25
618.579	13.25
619.342	13.25
620.104	13.25
620.866	11.25
621.628	11.25
622.39	12.25
623.152	10.25
623.914	9.25
624.676	9.25
625.438	8.25
626.199	9.25
626.961	9.25
627.722	8.25
628.484	9.25
629.245	7.25
630.006	8.25
630.768	8.25
631.529	7.25
632.29	5.25
633.051	7.25
633.812	7.25
634.573	7.25
635.333	6.25
636.094	6.25
636.855	5.25
637.615	6.25
638.376	4.25
639.136	6.25
639.896	4.25
640.657	4.25
641.417	5.25
642.177	4.25
642.937	5.25
643.697	5.25
644.457	6.25
645.216	4.25
645.976	3.25
646.736	4.25
647.495	3.25
648.255	5.25
649.014	3.25
649.774	4.25
650.533	5.25
651.292	4.25
652.051	6.25
652.81	5.25
653.569	5.25
654.328	3.25
655.087	2.25
655.846	4.25
656.604	2.25
657.363	5.25
658.121	3.25
658.88	4.25
659.638	4.25
660.397	2.25
661.155	5.25
661.913	4.25
662.671	2.25
663.429	2.25
664.187	4.25
664.945	4.25
665.703	2.25
666.46	5.25
667.218	1.25
667.976	5.25
668.733	3.25
669.49	5.25
670.248	4.25
671.005	3.25
671.762	4.25
672.519	0.25
673.276	1.25
674.033	1.25
674.79	2.25
675.547	2.25
676.304	1.25
677.06	3.25
677.817	3.25
678.574	2.25
679.33	2.25
680.086	1.25
680.843	2.25
681.599	2.25
682.355	3.25
683.111	1.25
683.867	3.25
684.623	2.25
685.379	2.25
686.135	-0.75
686.89	2.25
687.646	2.25
688.402	2.25
689.157	1.25
689.912	3.25
690.668	3.25
691.423	3.25
692.178	1.25
692.933	4.25
693.688	1.25
694.443	1.25
695.198	2.25
695.953	0.25
696.708	3.25
697.462	2.25
698.217	2.25
698.972	1.25
699.726	0.25
700.48	4.25
701.235	1.25
701.989	1.25
702.743	2.25
703.497	0.25
704.251	3.25
705.005	2.25
705.759	2.25
706.513	1.25
707.266	3.25
708.02	0.25
708.774	3.25
709.527	2.25
710.28	0.25
711.034	3.25
711.787	1.25
712.54	2.25
713.293	3.25
714.046	2.25
714.799	1.25
715.552	0.25
716.305	1.25
717.058	2.25
717.81	1.25
718.563	1.25
719.315	2.25
720.068	2.25
720.82	1.25
721.573	2.25
722.325	2.25
723.077	2.25
723.829	1.25
724.581	2.25
725.333	3.25
726.085	-0.75
726.836	2.25
727.588	2.25
728.34	4.25
729.091	1.25
729.843	1.25
730.594	1.25
731.346	2.25
732.097	4.25
732.848	1.25
733.599	2.25
734.35	0.25
735.101	2.25
735.852	1.25
736.603	1.25
737.354	2.25
738.104	1.25
738.855	3.25
739.605	3.25
740.356	2.25
741.106	1.25
741.856	2.25
742.607	5.25
743.357	2.25
744.107	4.25
744.857	2.25
745.607	2.25
746.357	2.25
747.106	4.25
747.856	3.25
748.606	0.25
749.355	6.25
750.105	4.25
750.854	3.25
751.603	4.25
752.353	3.25
753.102	5.25
753.851	2.25
754.6	5.25
755.349	0.25
756.098	3.25
756.847	2.25
757.595	5.25
758.344	2.25
759.093	4.25
759.841	3.25
760.589	4.25
761.338	5.25
762.086	3.25
762.834	2.25
763.582	1.25
764.331	3.25
765.079	5.25
765.826	4.25
766.574	2.25
767.322	5.25
768.07	3.25
768.817	5.25
769.565	5.25
770.312	4.25
771.06	5.25
771.807	4.25
772.554	6.25
773.302	5.25
774.049	5.25
774.796	6.25
775.543	5.25
776.29	4.25
777.036	7.25
777.783	4.25
778.53	3.25
779.276	6.25
780.023	6.25
780.769	6.25
781.516	6.25
782.262	3.25
783.008	7.25
783.754	7.25
784.5	4.25
785.246	7.25
785.992	5.25
786.738	6.25
787.484	5.25
788.23	6.25
788.975	5.25
789.721	6.25
790.466	5.25
791.212	3.25
791.957	6.25
792.702	5.25
793.447	5.25
794.193	6.25
794.938	6.25
795.683	5.25
796.427	5.25
797.172	7.25
797.917	5.25
798.662	6.25
799.406	7.25
800.151	5.25
800.895	3.25
801.64	6.25
802.384	7.25
803.128	4.25
803.872	6.25
804.616	6.25
805.36	6.25
806.104	3.25
806.848	4.25
807.592	4.25
808.336	2.25
809.079	3.25
809.823	6.25
810.566	3.25
811.31	3.25
812.053	2.25
812.796	4.25
813.539	4.25
814.283	4.25
815.026	3.25
815.769	3.25
816.511	4.25
817.254	2.25
817.997	3.25
818.74	2.25
819.482	2.25
820.225	5.25
820.967	2.25
821.71	3.25
822.452	4.25
823.194	3.25
823.936	3.25
824.678	3.25
825.42	3.25
826.162	3.25
826.904	4.25
827.646	2.25
828.388	3.25
829.129	3.25
829.871	3.25
830.612	4.25
831.354	4.25
832.095	3.25
832.836	2.25
833.577	3.25
834.319	2.25
835.06	1.25
835.801	4.25
836.542	3.25
837.282	2.25
838.023	3.25
838.764	1.25
839.504	2.25
840.245	-0.75
840.985	3.25
841.726	1.25
842.466	0.25
843.206	2.25
843.946	2.25
844.687	2.25
845.427	2.25
846.166	0.25
846.906	1.25
847.646	3.25
848.386	3.25
849.125	1.25
849.865	2.25
850.605	1.25
851.344	0.25
852.083	1.25
852.823	0.25
853.562	0.25
854.301	3.25
855.04	2.25
855.779	0.25
856.518	1.25
857.257	1.25
857.995	1.25
858.734	2.25
859.473	-0.75
860.211	1.25
860.95	2.25
861.688	2.25
862.426	3.25
863.165	-0.75
863.903	1.25
864.641	1.25
865.379	1.25
866.117	1.25
866.855	1.25
867.593	3.25
868.33	1.25
869.068	2.25
869.806	-0.75
870.543	0.25
871.28	0.25
872.018	-0.75
872.755	2.25
873.492	1.25
874.229	-0.75
874.967	1.25
875.703	3.25
876.44	-0.75
877.177	0.25
877.914	1.25
878.651	4.25
879.387	-0.75
880.124	0.25
880.86	1.25
881.597	-1.75
882.333	3.25
883.069	1.25
883.806	1.25
884.542	1.25
885.278	1.25
886.014	1.25
886.749	-0.75
887.485	1.25
888.221	-0.75
888.957	2.25
889.692	-1.75
890.428	-0.75
891.163	3.25
891.899	-1.75
892.634	3.25
893.369	1.25
894.104	-2.75
894.839	0.25
895.574	2.25
896.309	2.25
897.044	3.25
897.779	3.25
898.514	-1.75
899.248	1.25
899.983	1.25
900.717	2.25
901.452	1.25
902.186	1.25
902.92	0.25
903.654	1.25
904.389	2.25
905.123	1.25
905.857	-0.75
906.59	0.25
907.324	0.25
908.058	1.25
908.792	0.25
909.525	1.25
910.259	0.25
910.992	-0.75
911.726	1.25
912.459	2.25
913.192	-2.75
913.925	1.25
914.658	0.25
915.391	2.25
916.124	-1.75
916.857	2.25
917.59	1.25
918.323	0.25
919.055	1.25
919.788	1.25
920.521	3.25
921.253	-0.75
921.985	1.25
922.718	0.25
923.45	-2.75
924.182	1.25
924.914	-0.75
925.646	1.25
926.378	0.25
927.11	2.25
927.841	0.25
928.573	1.25
929.305	0.25
930.036	0.25
930.768	1.25
931.499	1.25
932.23	1.25
932.962	0.25
933.693	1.25
934.424	-1.75
935.155	-0.75
935.886	1.25
936.617	0.25
937.348	-1.75
938.078	1.25
938.809	0.25
939.54	-1.75
940.27	2.25
941.001	3.25
941.731	-1.75
942.461	0.25
943.191	0.25
943.922	0.25
944.652	0.25
945.382	2.25
946.112	1.25
946.841	-1.75
947.571	-0.75
948.301	0.25
949.031	-2.75
949.76	1.25
950.49	0.25
951.219	4.25
951.948	1.25
952.678	0.25
953.407	1.25
954.136	-2.75
954.865	5.25
955.594	-1.75
956.323	1.25
957.052	0.25
957.78	-0.75
958.509	0.25
959.238	-1.75
959.966	0.25
960.695	1.25
961.423	-0.75
962.151	0.25
962.88	-0.75
963.608	1.25
964.336	-1.75
965.064	2.25
965.792	0.25
966.52	0.25
967.247	1.25
967.975	1.25
968.703	0.25
969.43	0.25
970.158	0.25
970.885	-0.75
971.613	1.25
972.34	1.25
973.067	1.25
973.794	-0.75
974.521	0.25
975.248	1.25
975.975	-0.75
976.702	-0.75
977.429	1.25
978.156	-0.75
978.882	-0.75
979.609	0.25
980.335	-0.75
981.062	0.25
981.788	1.25
982.514	1.25
983.24	-1.75
983.967	1.25
984.693	-1.75
985.419	1.25
986.144	-1.75
986.87	0.25
987.596	0.25
988.322	0.25
989.047	0.25
989.773	1.25
990.498	0.25
991.224	-0.75
991.949	0.25
992.674	0.25
993.399	1.25
994.124	2.25
994.849	0.25
995.574	1.25
996.299	0.25
997.024	0.25
997.749	2.25
998.473	-1.75
999.198	1.25
999.922	2.25
1000.647	0.25
1001.371	3.25
1002.095	-1.75
1002.82	0.25
1003.544	-1.75
1004.268	-0.75
1004.992	0.25
1005.716	-1.75
1006.439	-0.75
1007.163	0.25
1007.887	1.25
1008.611	0.25
1009.334	0.25
1010.058	-1.75
1010.781	1.25
1011.504	0.25
1012.228	-1.75
1012.951	-1.75
1013.674	2.25
1014.397	-1.75
1015.12	1.25
