节点500_145_QEPB04081__524__11-37-15-511.txt的数据

Date: Wed Nov 12 11:37:15 CST 2025
User: PC
Spectrometer: QEPB0408
触发模式: 0
积分时间 (秒): 1.000000E-2
Scans to average: 1
启用暗噪声校正: true
启用非线性校正: false
滑动平均宽度: 0
X轴模式: Wavelengths
Number of Pixels in Spectrum: 1044
>>>>>Begin Spectral Data<<<<<
220.843	-0.5
221.644	-1.5
222.444	-0.5
223.244	0.5
224.045	1.5
224.845	2.5
225.645	-3.5
226.445	0.5
227.245	0.5
228.045	1.5
228.845	1.5
229.645	-0.5
230.444	-1.5
231.244	-0.5
232.043	0.5
232.843	-0.5
233.642	-1.5
234.442	0.5
235.241	0.5
236.04	1.5
236.839	-1.5
237.638	3.5
238.437	1.5
239.236	1.5
240.035	-0.5
240.833	0.5
241.632	2.5
242.43	-0.5
243.229	1.5
244.027	1.5
244.826	2.5
245.624	1.5
246.422	1.5
247.22	1.5
248.018	1.5
248.816	3.5
249.614	1.5
250.412	2.5
251.21	3.5
252.007	1.5
252.805	4.5
253.602	3.5
254.4	3.5
255.197	1.5
255.994	2.5
256.791	3.5
257.589	3.5
258.386	3.5
259.183	3.5
259.979	1.5
260.776	2.5
261.573	2.5
262.37	6.5
263.166	4.5
263.963	6.5
264.759	3.5
265.556	4.5
266.352	4.5
267.148	5.5
267.944	4.5
268.74	4.5
269.536	7.5
270.332	6.5
271.128	7.5
271.924	7.5
272.719	5.5
273.515	9.5
274.311	6.5
275.106	9.5
275.901	9.5
276.697	9.5
277.492	10.5
278.287	7.5
279.082	9.5
279.877	10.5
280.672	9.5
281.467	10.5
282.262	7.5
283.056	10.5
283.851	7.5
284.646	10.5
285.44	9.5
286.234	10.5
287.029	12.5
287.823	9.5
288.617	11.5
289.411	7.5
290.205	11.5
290.999	10.5
291.793	9.5
292.587	12.5
293.381	11.5
294.174	9.5
294.968	8.5
295.761	10.5
296.555	9.5
297.348	8.5
298.141	9.5
298.935	9.5
299.728	10.5
300.521	10.5
301.314	10.5
302.107	7.5
302.899	7.5
303.692	10.5
304.485	6.5
305.277	9.5
306.07	7.5
306.862	8.5
307.655	7.5
308.447	9.5
309.239	10.5
310.031	5.5
310.823	8.5
311.615	6.5
312.407	7.5
313.199	6.5
313.991	6.5
314.783	6.5
315.574	4.5
316.366	3.5
317.157	6.5
317.949	5.5
318.74	5.5
319.531	5.5
320.322	5.5
321.113	5.5
321.904	6.5
322.695	4.5
323.486	5.5
324.277	4.5
325.068	1.5
325.858	2.5
326.649	4.5
327.439	5.5
328.23	3.5
329.02	3.5
329.81	3.5
330.6	2.5
331.391	3.5
332.181	2.5
332.971	5.5
333.76	5.5
334.55	4.5
335.34	1.5
336.13	5.5
336.919	4.5
337.709	1.5
338.498	2.5
339.287	3.5
340.077	5.5
340.866	4.5
341.655	0.5
342.444	4.5
343.233	5.5
344.022	3.5
344.811	0.5
345.6	4.5
346.388	2.5
347.177	2.5
347.965	7.5
348.754	3.5
349.542	2.5
350.33	0.5
351.119	4.5
351.907	2.5
352.695	1.5
353.483	3.5
354.271	4.5
355.059	3.5
355.846	1.5
356.634	4.5
357.422	3.5
358.209	2.5
358.997	2.5
359.784	0.5
360.571	2.5
361.359	1.5
362.146	2.5
362.933	3.5
363.72	2.5
364.507	3.5
365.294	2.5
366.081	1.5
366.867	1.5
367.654	1.5
368.44	1.5
369.227	1.5
370.013	2.5
370.8	2.5
371.586	4.5
372.372	1.5
373.158	3.5
373.944	3.5
374.73	1.5
375.516	5.5
376.302	3.5
377.088	4.5
377.873	3.5
378.659	1.5
379.445	2.5
380.23	2.5
381.015	4.5
381.801	3.5
382.586	4.5
383.371	3.5
384.156	3.5
384.941	4.5
385.726	2.5
386.511	2.5
387.296	3.5
388.08	-0.5
388.865	3.5
389.649	3.5
390.434	3.5
391.218	1.5
392.003	5.5
392.787	4.5
393.571	5.5
394.355	1.5
395.139	3.5
395.923	2.5
396.707	3.5
397.491	1.5
398.274	5.5
399.058	5.5
399.842	3.5
400.625	4.5
401.408	3.5
402.192	1.5
402.975	2.5
403.758	2.5
404.541	3.5
405.324	4.5
406.107	4.5
406.89	2.5
407.673	3.5
408.456	4.5
409.238	3.5
410.021	2.5
410.803	3.5
411.586	2.5
412.368	6.5
413.151	5.5
413.933	7.5
414.715	4.5
415.497	6.5
416.279	4.5
417.061	4.5
417.843	2.5
418.624	4.5
419.406	5.5
420.188	6.5
420.969	6.5
421.751	4.5
422.532	5.5
423.313	5.5
424.095	6.5
424.876	6.5
425.657	3.5
426.438	5.5
427.219	9.5
428	6.5
428.78	7.5
429.561	6.5
430.342	7.5
431.122	9.5
431.903	8.5
432.683	8.5
433.464	7.5
434.244	6.5
435.024	7.5
435.804	10.5
436.584	9.5
437.364	10.5
438.144	10.5
438.924	13.5
439.704	9.5
440.483	12.5
441.263	12.5
442.042	12.5
442.822	13.5
443.601	14.5
444.38	12.5
445.16	14.5
445.939	16.5
446.718	18.5
447.497	19.5
448.276	21.5
449.054	23.5
449.833	23.5
450.612	26.5
451.391	26.5
452.169	30.5
452.948	33.5
453.726	37.5
454.504	42.5
455.282	40.5
456.061	51.5
456.839	51.5
457.617	62.5
458.395	62.5
459.172	73.5
459.95	79.5
460.728	85.5
461.506	101.5
462.283	109.5
463.061	119.5
463.838	136.5
464.615	152.5
465.393	166.5
466.17	183.5
466.947	206.5
467.724	226.5
468.501	254.5
469.278	279.5
470.055	319.5
470.831	344.5
471.608	392.5
472.385	444.5
473.161	473.5
473.938	529.5
474.714	581.5
475.49	646.5
476.266	714.5
477.043	794.5
477.819	862.5
478.595	954.5
479.371	1066.5
480.146	1164.5
480.922	1281.5
481.698	1404.5
482.473	1531.5
483.249	1704.5
484.024	1847.5
484.8	2033.5
485.575	2231.5
486.35	2457.5
487.126	2675.5
487.901	2950.5
488.676	3217.5
489.451	3533.5
490.225	3867.5
491	4206.5
491.775	4601.5
492.55	5031.5
493.324	5487.5
494.099	6003.5
494.873	6496.5
495.647	7071.5
496.422	7671.5
497.196	8280.5
497.97	8920.5
498.744	9614.5
499.518	10313.5
500.292	10920.5
501.066	11637.5
501.839	12270.5
502.613	12922.5
503.387	13500.5
504.16	14076.5
504.934	14572.5
505.707	14892.5
506.48	15247.5
507.253	15544.5
508.027	15596.5
508.8	15704.5
509.573	15662.5
510.346	15486.5
511.118	15285.5
511.891	15006.5
512.664	14608.5
513.437	14215.5
514.209	13733.5
514.982	13226.5
515.754	12743.5
516.526	12181.5
517.298	11679.5
518.071	11178.5
518.843	10712.5
519.615	10311.5
520.387	9857.5
521.159	9435.5
521.93	9110.5
522.702	8732.5
523.474	8401.5
524.245	8057.5
525.017	7716.5
525.788	7461.5
526.56	7094.5
527.331	6824.5
528.102	6547.5
528.873	6258.5
529.644	6022.5
530.415	5744.5
531.186	5466.5
531.957	5241.5
532.728	4937.5
533.498	4701.5
534.269	4434.5
535.039	4225.5
535.81	3992.5
536.58	3774.5
537.351	3556.5
538.121	3374.5
538.891	3189.5
539.661	3004.5
540.431	2829.5
541.201	2671.5
541.971	2556.5
542.741	2415.5
543.51	2301.5
544.28	2179.5
545.05	2060.5
545.819	1965.5
546.588	1867.5
547.358	1780.5
548.127	1697.5
548.896	1604.5
549.665	1536.5
550.434	1436.5
551.203	1389.5
551.972	1313.5
552.741	1247.5
553.51	1171.5
554.278	1105.5
555.047	1051.5
555.815	977.5
556.584	939.5
557.352	877.5
558.121	837.5
558.889	789.5
559.657	740.5
560.425	702.5
561.193	663.5
561.961	627.5
562.729	586.5
563.496	553.5
564.264	533.5
565.032	496.5
565.799	466.5
566.567	443.5
567.334	410.5
568.101	393.5
568.869	376.5
569.636	353.5
570.403	330.5
571.17	306.5
571.937	302.5
572.704	282.5
573.471	258.5
574.237	248.5
575.004	233.5
575.771	222.5
576.537	205.5
577.303	193.5
578.07	179.5
578.836	175.5
579.602	161.5
580.368	155.5
581.134	145.5
581.9	137.5
582.666	123.5
583.432	126.5
584.198	116.5
584.964	113.5
585.729	106.5
586.495	96.5
587.26	92.5
588.025	84.5
588.791	83.5
589.556	78.5
590.321	74.5
591.086	68.5
591.851	66.5
592.616	63.5
593.381	57.5
594.146	54.5
594.911	54.5
595.675	50.5
596.44	47.5
597.204	46.5
597.969	46.5
598.733	41.5
599.497	38.5
600.261	39.5
601.025	33.5
601.79	37.5
602.553	35.5
603.317	30.5
604.081	30.5
604.845	31.5
605.609	26.5
606.372	28.5
607.136	26.5
607.899	24.5
608.662	25.5
609.426	21.5
610.189	19.5
610.952	22.5
611.715	20.5
612.478	19.5
613.241	19.5
614.004	17.5
614.767	17.5
615.529	15.5
616.292	14.5
617.055	15.5
617.817	16.5
618.579	13.5
619.342	14.5
620.104	10.5
620.866	13.5
621.628	11.5
622.39	10.5
623.152	10.5
623.914	10.5
624.676	10.5
625.438	10.5
626.199	11.5
626.961	8.5
627.722	7.5
628.484	10.5
629.245	9.5
630.006	7.5
630.768	7.5
631.529	7.5
632.29	6.5
633.051	8.5
633.812	5.5
634.573	7.5
635.333	6.5
636.094	4.5
636.855	6.5
637.615	6.5
638.376	6.5
639.136	5.5
639.896	5.5
640.657	6.5
641.417	6.5
642.177	3.5
642.937	5.5
643.697	6.5
644.457	4.5
645.216	2.5
645.976	5.5
646.736	1.5
647.495	5.5
648.255	4.5
649.014	3.5
649.774	4.5
650.533	3.5
651.292	2.5
652.051	0.5
652.81	5.5
653.569	3.5
654.328	4.5
655.087	2.5
655.846	2.5
656.604	1.5
657.363	3.5
658.121	3.5
658.88	5.5
659.638	1.5
660.397	3.5
661.155	3.5
661.913	2.5
662.671	3.5
663.429	4.5
664.187	0.5
664.945	2.5
665.703	2.5
666.46	2.5
667.218	3.5
667.976	2.5
668.733	2.5
669.49	2.5
670.248	3.5
671.005	3.5
671.762	2.5
672.519	1.5
673.276	0.5
674.033	2.5
674.79	2.5
675.547	0.5
676.304	1.5
677.06	3.5
677.817	2.5
678.574	3.5
679.33	1.5
680.086	4.5
680.843	2.5
681.599	3.5
682.355	1.5
683.111	3.5
683.867	2.5
684.623	2.5
685.379	4.5
686.135	1.5
686.89	3.5
687.646	0.5
688.402	0.5
689.157	3.5
689.912	1.5
690.668	1.5
691.423	1.5
692.178	2.5
692.933	1.5
693.688	2.5
694.443	3.5
695.198	3.5
695.953	2.5
696.708	2.5
697.462	2.5
698.217	0.5
698.972	0.5
699.726	1.5
700.48	2.5
701.235	1.5
701.989	1.5
702.743	2.5
703.497	0.5
704.251	3.5
705.005	4.5
705.759	4.5
706.513	2.5
707.266	2.5
708.02	2.5
708.774	1.5
709.527	2.5
710.28	3.5
711.034	0.5
711.787	2.5
712.54	1.5
713.293	2.5
714.046	1.5
714.799	3.5
715.552	1.5
716.305	1.5
717.058	2.5
717.81	1.5
718.563	2.5
719.315	-1.5
720.068	1.5
720.82	3.5
721.573	3.5
722.325	3.5
723.077	2.5
723.829	2.5
724.581	1.5
725.333	3.5
726.085	1.5
726.836	3.5
727.588	1.5
728.34	-0.5
729.091	1.5
729.843	0.5
730.594	2.5
731.346	2.5
732.097	0.5
732.848	2.5
733.599	0.5
734.35	1.5
735.101	2.5
735.852	3.5
736.603	1.5
737.354	2.5
738.104	1.5
738.855	2.5
739.605	2.5
740.356	1.5
741.106	2.5
741.856	2.5
742.607	0.5
743.357	4.5
744.107	1.5
744.857	4.5
745.607	2.5
746.357	2.5
747.106	1.5
747.856	1.5
748.606	3.5
749.355	2.5
750.105	2.5
750.854	1.5
751.603	4.5
752.353	3.5
753.102	2.5
753.851	2.5
754.6	0.5
755.349	3.5
756.098	2.5
756.847	2.5
757.595	3.5
758.344	1.5
759.093	3.5
759.841	5.5
760.589	5.5
761.338	3.5
762.086	3.5
762.834	4.5
763.582	1.5
764.331	4.5
765.079	4.5
765.826	4.5
766.574	5.5
767.322	5.5
768.07	3.5
768.817	2.5
769.565	4.5
770.312	1.5
771.06	5.5
771.807	4.5
772.554	3.5
773.302	4.5
774.049	1.5
774.796	4.5
775.543	5.5
776.29	3.5
777.036	5.5
777.783	3.5
778.53	2.5
779.276	3.5
780.023	6.5
780.769	3.5
781.516	4.5
782.262	6.5
783.008	3.5
783.754	8.5
784.5	2.5
785.246	4.5
785.992	5.5
786.738	7.5
787.484	3.5
788.23	5.5
788.975	5.5
789.721	5.5
790.466	6.5
791.212	7.5
791.957	4.5
792.702	7.5
793.447	3.5
794.193	4.5
794.938	6.5
795.683	6.5
796.427	5.5
797.172	2.5
797.917	6.5
798.662	5.5
799.406	5.5
800.151	5.5
800.895	4.5
801.64	2.5
802.384	2.5
803.128	3.5
803.872	5.5
804.616	5.5
805.36	2.5
806.104	5.5
806.848	5.5
807.592	4.5
808.336	2.5
809.079	3.5
809.823	4.5
810.566	3.5
811.31	3.5
812.053	4.5
812.796	3.5
813.539	5.5
814.283	1.5
815.026	4.5
815.769	2.5
816.511	5.5
817.254	2.5
817.997	2.5
818.74	4.5
819.482	2.5
820.225	2.5
820.967	3.5
821.71	2.5
822.452	0.5
823.194	2.5
823.936	5.5
824.678	2.5
825.42	4.5
826.162	2.5
826.904	1.5
827.646	3.5
828.388	2.5
829.129	2.5
829.871	2.5
830.612	1.5
831.354	4.5
832.095	3.5
832.836	2.5
833.577	3.5
834.319	3.5
835.06	1.5
835.801	2.5
836.542	3.5
837.282	1.5
838.023	2.5
838.764	1.5
839.504	2.5
840.245	1.5
840.985	2.5
841.726	2.5
842.466	1.5
843.206	1.5
843.946	1.5
844.687	1.5
845.427	1.5
846.166	2.5
846.906	1.5
847.646	1.5
848.386	2.5
849.125	3.5
849.865	1.5
850.605	3.5
851.344	5.5
852.083	3.5
852.823	2.5
853.562	1.5
854.301	0.5
855.04	3.5
855.779	2.5
856.518	2.5
857.257	1.5
857.995	1.5
858.734	1.5
859.473	1.5
860.211	0.5
860.95	1.5
861.688	1.5
862.426	2.5
863.165	1.5
863.903	1.5
864.641	-1.5
865.379	1.5
866.117	1.5
866.855	3.5
867.593	1.5
868.33	2.5
869.068	2.5
869.806	-0.5
870.543	1.5
871.28	1.5
872.018	2.5
872.755	1.5
873.492	-0.5
874.229	-0.5
874.967	-0.5
875.703	0.5
876.44	2.5
877.177	0.5
877.914	0.5
878.651	0.5
879.387	2.5
880.124	1.5
880.86	2.5
881.597	-0.5
882.333	2.5
883.069	0.5
883.806	-2.5
884.542	2.5
885.278	0.5
886.014	2.5
886.749	2.5
887.485	1.5
888.221	2.5
888.957	2.5
889.692	2.5
890.428	1.5
891.163	0.5
891.899	1.5
892.634	2.5
893.369	1.5
894.104	1.5
894.839	1.5
895.574	-0.5
896.309	-1.5
897.044	-0.5
897.779	2.5
898.514	0.5
899.248	0.5
899.983	1.5
900.717	-1.5
901.452	-0.5
902.186	1.5
902.92	0.5
903.654	2.5
904.389	0.5
905.123	1.5
905.857	-1.5
906.59	0.5
907.324	-0.5
908.058	1.5
908.792	2.5
909.525	-2.5
910.259	2.5
910.992	-1.5
911.726	2.5
912.459	1.5
913.192	-0.5
913.925	2.5
914.658	0.5
915.391	-0.5
916.124	0.5
916.857	0.5
917.59	0.5
918.323	0.5
919.055	0.5
919.788	-0.5
920.521	-0.5
921.253	1.5
921.985	-0.5
922.718	0.5
923.45	0.5
924.182	-0.5
924.914	-0.5
925.646	0.5
926.378	0.5
927.11	-0.5
927.841	-1.5
928.573	1.5
929.305	1.5
930.036	0.5
930.768	-0.5
931.499	0.5
932.23	2.5
932.962	0.5
933.693	-0.5
934.424	0.5
935.155	-2.5
935.886	2.5
936.617	-0.5
937.348	-1.5
938.078	0.5
938.809	-2.5
939.54	0.5
940.27	-1.5
941.001	1.5
941.731	-1.5
942.461	-1.5
943.191	-0.5
943.922	1.5
944.652	1.5
945.382	-0.5
946.112	-0.5
946.841	0.5
947.571	1.5
948.301	0.5
949.031	-0.5
949.76	1.5
950.49	0.5
951.219	0.5
951.948	-1.5
952.678	2.5
953.407	1.5
954.136	-0.5
954.865	0.5
955.594	-3.5
956.323	1.5
957.052	-0.5
957.78	-2.5
958.509	-0.5
959.238	-0.5
959.966	0.5
960.695	1.5
961.423	2.5
962.151	2.5
962.88	-2.5
963.608	0.5
964.336	1.5
965.064	1.5
965.792	-1.5
966.52	-1.5
967.247	0.5
967.975	-0.5
968.703	0.5
969.43	-1.5
970.158	0.5
970.885	0.5
971.613	-0.5
972.34	1.5
973.067	-0.5
973.794	0.5
974.521	0.5
975.248	1.5
975.975	-1.5
976.702	1.5
977.429	0.5
978.156	-0.5
978.882	-0.5
979.609	-1.5
980.335	0.5
981.062	1.5
981.788	2.5
982.514	1.5
983.24	2.5
983.967	-0.5
984.693	0.5
985.419	0.5
986.144	-1.5
986.87	0.5
987.596	1.5
988.322	-1.5
989.047	-0.5
989.773	0.5
990.498	0.5
991.224	0.5
991.949	0.5
992.674	-0.5
993.399	0.5
994.124	-1.5
994.849	1.5
995.574	0.5
996.299	1.5
997.024	1.5
997.749	1.5
998.473	-1.5
999.198	-3.5
999.922	-1.5
1000.647	0.5
1001.371	4.5
1002.095	0.5
1002.82	-2.5
1003.544	-0.5
1004.268	3.5
1004.992	-1.5
1005.716	2.5
1006.439	-1.5
1007.163	-0.5
1007.887	-0.5
1008.611	-0.5
1009.334	0.5
1010.058	1.5
1010.781	1.5
1011.504	0.5
1012.228	-1.5
1012.951	0.5
1013.674	-0.5
1014.397	-2.5
1015.12	0.5
