节点500_145_QEPB04081__506__11-37-01-454.txt的数据

Date: Wed Nov 12 11:37:01 CST 2025
User: PC
Spectrometer: QEPB0408
触发模式: 0
积分时间 (秒): 1.000000E-2
Scans to average: 1
启用暗噪声校正: true
启用非线性校正: false
滑动平均宽度: 0
X轴模式: Wavelengths
Number of Pixels in Spectrum: 1044
>>>>>Begin Spectral Data<<<<<
220.843	-0.5
221.644	-0.5
222.444	1.5
223.244	-0.5
224.045	-1.5
224.845	3.5
225.645	1.5
226.445	-0.5
227.245	2.5
228.045	-1.5
228.845	0.5
229.645	0.5
230.444	1.5
231.244	2.5
232.043	-0.5
232.843	0.5
233.642	3.5
234.442	3.5
235.241	-0.5
236.04	1.5
236.839	-0.5
237.638	-0.5
238.437	2.5
239.236	3.5
240.035	0.5
240.833	1.5
241.632	1.5
242.43	1.5
243.229	2.5
244.027	3.5
244.826	1.5
245.624	2.5
246.422	1.5
247.22	2.5
248.018	3.5
248.816	-0.5
249.614	3.5
250.412	2.5
251.21	2.5
252.007	2.5
252.805	5.5
253.602	1.5
254.4	2.5
255.197	3.5
255.994	3.5
256.791	4.5
257.589	1.5
258.386	6.5
259.183	2.5
259.979	3.5
260.776	7.5
261.573	4.5
262.37	2.5
263.166	2.5
263.963	5.5
264.759	5.5
265.556	3.5
266.352	4.5
267.148	3.5
267.944	6.5
268.74	4.5
269.536	5.5
270.332	7.5
271.128	6.5
271.924	5.5
272.719	5.5
273.515	6.5
274.311	7.5
275.106	8.5
275.901	7.5
276.697	6.5
277.492	7.5
278.287	7.5
279.082	4.5
279.877	8.5
280.672	7.5
281.467	9.5
282.262	10.5
283.056	11.5
283.851	10.5
284.646	13.5
285.44	9.5
286.234	11.5
287.029	10.5
287.823	9.5
288.617	10.5
289.411	7.5
290.205	9.5
290.999	10.5
291.793	10.5
292.587	10.5
293.381	8.5
294.174	10.5
294.968	8.5
295.761	9.5
296.555	9.5
297.348	6.5
298.141	8.5
298.935	9.5
299.728	8.5
300.521	10.5
301.314	10.5
302.107	7.5
302.899	7.5
303.692	10.5
304.485	9.5
305.277	8.5
306.07	9.5
306.862	6.5
307.655	8.5
308.447	7.5
309.239	8.5
310.031	8.5
310.823	6.5
311.615	7.5
312.407	5.5
313.199	6.5
313.991	5.5
314.783	8.5
315.574	3.5
316.366	6.5
317.157	5.5
317.949	6.5
318.74	5.5
319.531	5.5
320.322	6.5
321.113	4.5
321.904	3.5
322.695	6.5
323.486	3.5
324.277	2.5
325.068	4.5
325.858	6.5
326.649	4.5
327.439	1.5
328.23	5.5
329.02	4.5
329.81	5.5
330.6	3.5
331.391	3.5
332.181	3.5
332.971	4.5
333.76	4.5
334.55	2.5
335.34	4.5
336.13	3.5
336.919	5.5
337.709	3.5
338.498	3.5
339.287	5.5
340.077	2.5
340.866	3.5
341.655	4.5
342.444	2.5
343.233	3.5
344.022	2.5
344.811	3.5
345.6	5.5
346.388	3.5
347.177	2.5
347.965	2.5
348.754	3.5
349.542	5.5
350.33	5.5
351.119	4.5
351.907	3.5
352.695	2.5
353.483	2.5
354.271	4.5
355.059	4.5
355.846	3.5
356.634	3.5
357.422	3.5
358.209	3.5
358.997	2.5
359.784	3.5
360.571	2.5
361.359	1.5
362.146	3.5
362.933	2.5
363.72	1.5
364.507	2.5
365.294	2.5
366.081	4.5
366.867	1.5
367.654	2.5
368.44	3.5
369.227	3.5
370.013	3.5
370.8	3.5
371.586	1.5
372.372	2.5
373.158	5.5
373.944	3.5
374.73	2.5
375.516	2.5
376.302	2.5
377.088	1.5
377.873	1.5
378.659	1.5
379.445	4.5
380.23	4.5
381.015	1.5
381.801	1.5
382.586	4.5
383.371	2.5
384.156	4.5
384.941	3.5
385.726	3.5
386.511	2.5
387.296	3.5
388.08	2.5
388.865	3.5
389.649	2.5
390.434	1.5
391.218	4.5
392.003	4.5
392.787	3.5
393.571	4.5
394.355	4.5
395.139	3.5
395.923	3.5
396.707	1.5
397.491	1.5
398.274	4.5
399.058	1.5
399.842	5.5
400.625	3.5
401.408	2.5
402.192	2.5
402.975	4.5
403.758	4.5
404.541	4.5
405.324	4.5
406.107	3.5
406.89	2.5
407.673	2.5
408.456	3.5
409.238	5.5
410.021	5.5
410.803	5.5
411.586	4.5
412.368	2.5
413.151	3.5
413.933	4.5
414.715	4.5
415.497	4.5
416.279	4.5
417.061	4.5
417.843	5.5
418.624	4.5
419.406	4.5
420.188	6.5
420.969	6.5
421.751	3.5
422.532	6.5
423.313	7.5
424.095	5.5
424.876	5.5
425.657	5.5
426.438	4.5
427.219	5.5
428	7.5
428.78	7.5
429.561	7.5
430.342	7.5
431.122	8.5
431.903	5.5
432.683	10.5
433.464	6.5
434.244	7.5
435.024	11.5
435.804	9.5
436.584	7.5
437.364	8.5
438.144	10.5
438.924	11.5
439.704	13.5
440.483	12.5
441.263	11.5
442.042	14.5
442.822	12.5
443.601	15.5
444.38	14.5
445.16	15.5
445.939	17.5
446.718	19.5
447.497	20.5
448.276	20.5
449.054	20.5
449.833	22.5
450.612	26.5
451.391	31.5
452.169	29.5
452.948	33.5
453.726	36.5
454.504	37.5
455.282	42.5
456.061	46.5
456.839	49.5
457.617	58.5
458.395	68.5
459.172	73.5
459.95	82.5
460.728	87.5
461.506	93.5
462.283	110.5
463.061	125.5
463.838	134.5
464.615	147.5
465.393	168.5
466.17	188.5
466.947	206.5
467.724	235.5
468.501	256.5
469.278	283.5
470.055	306.5
470.831	349.5
471.608	385.5
472.385	427.5
473.161	476.5
473.938	524.5
474.714	582.5
475.49	652.5
476.266	713.5
477.043	789.5
477.819	867.5
478.595	956.5
479.371	1049.5
480.146	1160.5
480.922	1264.5
481.698	1406.5
482.473	1527.5
483.249	1702.5
484.024	1847.5
484.8	2012.5
485.575	2241.5
486.35	2452.5
487.126	2701.5
487.901	2956.5
488.676	3225.5
489.451	3523.5
490.225	3861.5
491	4202.5
491.775	4633.5
492.55	5036.5
493.324	5531.5
494.099	5998.5
494.873	6554.5
495.647	7081.5
496.422	7709.5
497.196	8326.5
497.97	8954.5
498.744	9644.5
499.518	10345.5
500.292	11009.5
501.066	11701.5
501.839	12324.5
502.613	12949.5
503.387	13606.5
504.16	14099.5
504.934	14641.5
505.707	14999.5
506.48	15337.5
507.253	15549.5
508.027	15686.5
508.8	15736.5
509.573	15652.5
510.346	15514.5
511.118	15257.5
511.891	14986.5
512.664	14588.5
513.437	14180.5
514.209	13717.5
514.982	13242.5
515.754	12723.5
516.526	12187.5
517.298	11677.5
518.071	11178.5
518.843	10672.5
519.615	10238.5
520.387	9828.5
521.159	9443.5
521.93	9037.5
522.702	8728.5
523.474	8397.5
524.245	8044.5
525.017	7705.5
525.788	7412.5
526.56	7107.5
527.331	6797.5
528.102	6537.5
528.873	6238.5
529.644	5984.5
530.415	5719.5
531.186	5449.5
531.957	5208.5
532.728	4942.5
533.498	4667.5
534.269	4414.5
535.039	4222.5
535.81	3998.5
536.58	3774.5
537.351	3559.5
538.121	3353.5
538.891	3187.5
539.661	3001.5
540.431	2841.5
541.201	2687.5
541.971	2548.5
542.741	2423.5
543.51	2270.5
544.28	2161.5
545.05	2057.5
545.819	1958.5
546.588	1835.5
547.358	1758.5
548.127	1680.5
548.896	1598.5
549.665	1525.5
550.434	1453.5
551.203	1363.5
551.972	1300.5
552.741	1229.5
553.51	1155.5
554.278	1118.5
555.047	1042.5
555.815	989.5
556.584	932.5
557.352	890.5
558.121	837.5
558.889	786.5
559.657	735.5
560.425	686.5
561.193	658.5
561.961	622.5
562.729	586.5
563.496	554.5
564.264	512.5
565.032	494.5
565.799	462.5
566.567	435.5
567.334	415.5
568.101	389.5
568.869	371.5
569.636	349.5
570.403	334.5
571.17	311.5
571.937	293.5
572.704	276.5
573.471	262.5
574.237	245.5
575.004	228.5
575.771	212.5
576.537	206.5
577.303	185.5
578.07	182.5
578.836	169.5
579.602	162.5
580.368	150.5
581.134	147.5
581.9	135.5
582.666	129.5
583.432	122.5
584.198	113.5
584.964	108.5
585.729	105.5
586.495	99.5
587.26	94.5
588.025	88.5
588.791	87.5
589.556	79.5
590.321	70.5
591.086	69.5
591.851	68.5
592.616	63.5
593.381	59.5
594.146	59.5
594.911	52.5
595.675	51.5
596.44	48.5
597.204	46.5
597.969	43.5
598.733	39.5
599.497	39.5
600.261	37.5
601.025	36.5
601.79	36.5
602.553	33.5
603.317	32.5
604.081	30.5
604.845	29.5
605.609	31.5
606.372	26.5
607.136	24.5
607.899	25.5
608.662	21.5
609.426	18.5
610.189	23.5
610.952	20.5
611.715	21.5
612.478	21.5
613.241	20.5
614.004	19.5
614.767	18.5
615.529	16.5
616.292	17.5
617.055	14.5
617.817	11.5
618.579	15.5
619.342	13.5
620.104	12.5
620.866	12.5
621.628	11.5
622.39	10.5
623.152	11.5
623.914	13.5
624.676	11.5
625.438	10.5
626.199	9.5
626.961	6.5
627.722	9.5
628.484	9.5
629.245	6.5
630.006	9.5
630.768	9.5
631.529	5.5
632.29	8.5
633.051	7.5
633.812	7.5
634.573	5.5
635.333	7.5
636.094	6.5
636.855	7.5
637.615	8.5
638.376	5.5
639.136	5.5
639.896	4.5
640.657	6.5
641.417	5.5
642.177	3.5
642.937	5.5
643.697	5.5
644.457	4.5
645.216	5.5
645.976	5.5
646.736	4.5
647.495	3.5
648.255	4.5
649.014	2.5
649.774	5.5
650.533	3.5
651.292	1.5
652.051	2.5
652.81	5.5
653.569	4.5
654.328	3.5
655.087	3.5
655.846	3.5
656.604	2.5
657.363	2.5
658.121	2.5
658.88	2.5
659.638	2.5
660.397	4.5
661.155	2.5
661.913	1.5
662.671	4.5
663.429	2.5
664.187	3.5
664.945	3.5
665.703	4.5
666.46	2.5
667.218	4.5
667.976	2.5
668.733	2.5
669.49	2.5
670.248	1.5
671.005	3.5
671.762	4.5
672.519	2.5
673.276	1.5
674.033	1.5
674.79	1.5
675.547	4.5
676.304	2.5
677.06	2.5
677.817	3.5
678.574	1.5
679.33	2.5
680.086	3.5
680.843	2.5
681.599	1.5
682.355	4.5
683.111	4.5
683.867	0.5
684.623	2.5
685.379	1.5
686.135	2.5
686.89	1.5
687.646	1.5
688.402	1.5
689.157	4.5
689.912	1.5
690.668	2.5
691.423	3.5
692.178	3.5
692.933	1.5
693.688	2.5
694.443	2.5
695.198	2.5
695.953	2.5
696.708	2.5
697.462	2.5
698.217	0.5
698.972	1.5
699.726	2.5
700.48	0.5
701.235	0.5
701.989	2.5
702.743	2.5
703.497	1.5
704.251	1.5
705.005	2.5
705.759	3.5
706.513	2.5
707.266	2.5
708.02	0.5
708.774	2.5
709.527	0.5
710.28	1.5
711.034	1.5
711.787	1.5
712.54	2.5
713.293	3.5
714.046	0.5
714.799	1.5
715.552	2.5
716.305	2.5
717.058	4.5
717.81	1.5
718.563	3.5
719.315	2.5
720.068	1.5
720.82	3.5
721.573	1.5
722.325	2.5
723.077	2.5
723.829	3.5
724.581	2.5
725.333	0.5
726.085	3.5
726.836	1.5
727.588	2.5
728.34	3.5
729.091	0.5
729.843	2.5
730.594	0.5
731.346	1.5
732.097	1.5
732.848	1.5
733.599	1.5
734.35	2.5
735.101	0.5
735.852	4.5
736.603	3.5
737.354	2.5
738.104	2.5
738.855	1.5
739.605	1.5
740.356	1.5
741.106	-0.5
741.856	3.5
742.607	1.5
743.357	3.5
744.107	2.5
744.857	1.5
745.607	3.5
746.357	0.5
747.106	0.5
747.856	3.5
748.606	1.5
749.355	4.5
750.105	3.5
750.854	2.5
751.603	3.5
752.353	2.5
753.102	4.5
753.851	1.5
754.6	2.5
755.349	4.5
756.098	3.5
756.847	2.5
757.595	4.5
758.344	3.5
759.093	3.5
759.841	4.5
760.589	2.5
761.338	2.5
762.086	4.5
762.834	5.5
763.582	4.5
764.331	6.5
765.079	2.5
765.826	5.5
766.574	4.5
767.322	1.5
768.07	6.5
768.817	2.5
769.565	2.5
770.312	5.5
771.06	3.5
771.807	2.5
772.554	3.5
773.302	4.5
774.049	5.5
774.796	3.5
775.543	3.5
776.29	5.5
777.036	5.5
777.783	4.5
778.53	2.5
779.276	2.5
780.023	4.5
780.769	4.5
781.516	4.5
782.262	6.5
783.008	3.5
783.754	4.5
784.5	6.5
785.246	3.5
785.992	5.5
786.738	3.5
787.484	4.5
788.23	5.5
788.975	6.5
789.721	4.5
790.466	4.5
791.212	3.5
791.957	6.5
792.702	4.5
793.447	3.5
794.193	5.5
794.938	4.5
795.683	5.5
796.427	5.5
797.172	6.5
797.917	4.5
798.662	4.5
799.406	5.5
800.151	3.5
800.895	5.5
801.64	4.5
802.384	4.5
803.128	2.5
803.872	2.5
804.616	3.5
805.36	3.5
806.104	4.5
806.848	4.5
807.592	4.5
808.336	2.5
809.079	4.5
809.823	5.5
810.566	3.5
811.31	3.5
812.053	2.5
812.796	4.5
813.539	3.5
814.283	2.5
815.026	5.5
815.769	1.5
816.511	4.5
817.254	2.5
817.997	1.5
818.74	3.5
819.482	2.5
820.225	1.5
820.967	2.5
821.71	1.5
822.452	2.5
823.194	3.5
823.936	5.5
824.678	4.5
825.42	3.5
826.162	3.5
826.904	3.5
827.646	1.5
828.388	1.5
829.129	3.5
829.871	2.5
830.612	5.5
831.354	1.5
832.095	2.5
832.836	3.5
833.577	2.5
834.319	2.5
835.06	1.5
835.801	4.5
836.542	1.5
837.282	5.5
838.023	4.5
838.764	1.5
839.504	3.5
840.245	3.5
840.985	1.5
841.726	2.5
842.466	-0.5
843.206	4.5
843.946	-0.5
844.687	3.5
845.427	3.5
846.166	3.5
846.906	1.5
847.646	0.5
848.386	2.5
849.125	1.5
849.865	2.5
850.605	3.5
851.344	5.5
852.083	2.5
852.823	0.5
853.562	-1.5
854.301	0.5
855.04	2.5
855.779	3.5
856.518	4.5
857.257	0.5
857.995	0.5
858.734	2.5
859.473	0.5
860.211	-1.5
860.95	1.5
861.688	2.5
862.426	2.5
863.165	0.5
863.903	2.5
864.641	1.5
865.379	3.5
866.117	1.5
866.855	1.5
867.593	0.5
868.33	0.5
869.068	2.5
869.806	1.5
870.543	3.5
871.28	-0.5
872.018	1.5
872.755	2.5
873.492	0.5
874.229	1.5
874.967	0.5
875.703	3.5
876.44	-1.5
877.177	1.5
877.914	2.5
878.651	0.5
879.387	2.5
880.124	1.5
880.86	-1.5
881.597	1.5
882.333	-0.5
883.069	0.5
883.806	-1.5
884.542	1.5
885.278	2.5
886.014	0.5
886.749	2.5
887.485	-1.5
888.221	-0.5
888.957	-0.5
889.692	-1.5
890.428	1.5
891.163	-0.5
891.899	0.5
892.634	1.5
893.369	1.5
894.104	-1.5
894.839	2.5
895.574	0.5
896.309	0.5
897.044	0.5
897.779	0.5
898.514	0.5
899.248	-1.5
899.983	2.5
900.717	1.5
901.452	0.5
902.186	-1.5
902.92	-2.5
903.654	1.5
904.389	0.5
905.123	1.5
905.857	0.5
906.59	1.5
907.324	1.5
908.058	1.5
908.792	-0.5
909.525	0.5
910.259	0.5
910.992	1.5
911.726	0.5
912.459	0.5
913.192	-0.5
913.925	2.5
914.658	-1.5
915.391	-0.5
916.124	1.5
916.857	0.5
917.59	0.5
918.323	-0.5
919.055	2.5
919.788	-0.5
920.521	1.5
921.253	1.5
921.985	0.5
922.718	1.5
923.45	-2.5
924.182	0.5
924.914	1.5
925.646	1.5
926.378	0.5
927.11	-0.5
927.841	-0.5
928.573	1.5
929.305	-0.5
930.036	1.5
930.768	1.5
931.499	-0.5
932.23	0.5
932.962	2.5
933.693	0.5
934.424	-0.5
935.155	-1.5
935.886	-0.5
936.617	-0.5
937.348	-1.5
938.078	-1.5
938.809	-0.5
939.54	1.5
940.27	-0.5
941.001	1.5
941.731	0.5
942.461	0.5
943.191	0.5
943.922	-0.5
944.652	-0.5
945.382	-1.5
946.112	0.5
946.841	1.5
947.571	-0.5
948.301	0.5
949.031	-2.5
949.76	-0.5
950.49	-1.5
951.219	-0.5
951.948	-0.5
952.678	-1.5
953.407	2.5
954.136	-0.5
954.865	1.5
955.594	-0.5
956.323	1.5
957.052	-1.5
957.78	-0.5
958.509	-1.5
959.238	-2.5
959.966	2.5
960.695	-1.5
961.423	-0.5
962.151	-0.5
962.88	-0.5
963.608	2.5
964.336	1.5
965.064	-0.5
965.792	0.5
966.52	-0.5
967.247	0.5
967.975	1.5
968.703	0.5
969.43	-0.5
970.158	-1.5
970.885	2.5
971.613	-1.5
972.34	-2.5
973.067	-1.5
973.794	1.5
974.521	0.5
975.248	-0.5
975.975	0.5
976.702	1.5
977.429	1.5
978.156	-1.5
978.882	-0.5
979.609	-1.5
980.335	0.5
981.062	-1.5
981.788	1.5
982.514	2.5
983.24	-0.5
983.967	3.5
984.693	-0.5
985.419	0.5
986.144	2.5
986.87	1.5
987.596	1.5
988.322	-0.5
989.047	0.5
989.773	1.5
990.498	1.5
991.224	1.5
991.949	-1.5
992.674	-2.5
993.399	-1.5
994.124	-1.5
994.849	1.5
995.574	0.5
996.299	-0.5
997.024	-1.5
997.749	0.5
998.473	-0.5
999.198	0.5
999.922	-0.5
1000.647	-0.5
1001.371	2.5
1002.095	-2.5
1002.82	-1.5
1003.544	-2.5
1004.268	0.5
1004.992	-0.5
1005.716	-1.5
1006.439	-0.5
1007.163	-0.5
1007.887	0.5
1008.611	0.5
1009.334	0.5
1010.058	-0.5
1010.781	-1.5
1011.504	1.5
1012.228	0.5
1012.951	0.5
1013.674	3.5
1014.397	-1.5
1015.12	1.5
