节点500_145_QEPB04081__324__11-34-08-508.txt的数据

Date: Wed Nov 12 11:34:08 CST 2025
User: PC
Spectrometer: QEPB0408
触发模式: 0
积分时间 (秒): 1.000000E-2
Scans to average: 1
启用暗噪声校正: true
启用非线性校正: false
滑动平均宽度: 0
X轴模式: Wavelengths
Number of Pixels in Spectrum: 1044
>>>>>Begin Spectral Data<<<<<
220.843	-2.25
221.644	-2.25
222.444	-1.25
223.244	-0.25
224.045	-0.25
224.845	-1.25
225.645	0.75
226.445	-1.25
227.245	-1.25
228.045	-3.25
228.845	-0.25
229.645	-1.25
230.444	-0.25
231.244	-1.25
232.043	0.75
232.843	0.75
233.642	-1.25
234.442	-1.25
235.241	-1.25
236.04	0.75
236.839	0.75
237.638	-0.25
238.437	1.75
239.236	-2.25
240.035	0.75
240.833	3.75
241.632	0.75
242.43	0.75
243.229	0.75
244.027	0.75
244.826	0.75
245.624	1.75
246.422	1.75
247.22	1.75
248.018	3.75
248.816	4.75
249.614	3.75
250.412	1.75
251.21	2.75
252.007	2.75
252.805	4.75
253.602	2.75
254.4	2.75
255.197	4.75
255.994	4.75
256.791	0.75
257.589	2.75
258.386	2.75
259.183	5.75
259.979	1.75
260.776	4.75
261.573	3.75
262.37	3.75
263.166	4.75
263.963	4.75
264.759	2.75
265.556	3.75
266.352	4.75
267.148	5.75
267.944	6.75
268.74	5.75
269.536	5.75
270.332	5.75
271.128	3.75
271.924	5.75
272.719	7.75
273.515	8.75
274.311	8.75
275.106	7.75
275.901	8.75
276.697	7.75
277.492	8.75
278.287	9.75
279.082	9.75
279.877	9.75
280.672	8.75
281.467	7.75
282.262	8.75
283.056	10.75
283.851	8.75
284.646	9.75
285.44	8.75
286.234	11.75
287.029	10.75
287.823	9.75
288.617	9.75
289.411	9.75
290.205	10.75
290.999	11.75
291.793	8.75
292.587	9.75
293.381	10.75
294.174	9.75
294.968	10.75
295.761	9.75
296.555	8.75
297.348	8.75
298.141	8.75
298.935	8.75
299.728	10.75
300.521	8.75
301.314	8.75
302.107	8.75
302.899	6.75
303.692	5.75
304.485	5.75
305.277	7.75
306.07	5.75
306.862	8.75
307.655	5.75
308.447	4.75
309.239	7.75
310.031	8.75
310.823	6.75
311.615	4.75
312.407	5.75
313.199	4.75
313.991	5.75
314.783	5.75
315.574	3.75
316.366	4.75
317.157	1.75
317.949	4.75
318.74	5.75
319.531	4.75
320.322	7.75
321.113	1.75
321.904	3.75
322.695	4.75
323.486	1.75
324.277	4.75
325.068	2.75
325.858	4.75
326.649	2.75
327.439	3.75
328.23	2.75
329.02	2.75
329.81	5.75
330.6	1.75
331.391	4.75
332.181	4.75
332.971	0.75
333.76	4.75
334.55	2.75
335.34	1.75
336.13	3.75
336.919	1.75
337.709	3.75
338.498	3.75
339.287	1.75
340.077	3.75
340.866	4.75
341.655	1.75
342.444	2.75
343.233	0.75
344.022	2.75
344.811	3.75
345.6	1.75
346.388	1.75
347.177	1.75
347.965	3.75
348.754	3.75
349.542	2.75
350.33	4.75
351.119	1.75
351.907	4.75
352.695	2.75
353.483	3.75
354.271	0.75
355.059	3.75
355.846	2.75
356.634	3.75
357.422	0.75
358.209	1.75
358.997	2.75
359.784	1.75
360.571	2.75
361.359	1.75
362.146	3.75
362.933	2.75
363.72	0.75
364.507	1.75
365.294	0.75
366.081	0.75
366.867	0.75
367.654	0.75
368.44	-0.25
369.227	1.75
370.013	2.75
370.8	0.75
371.586	0.75
372.372	1.75
373.158	1.75
373.944	2.75
374.73	0.75
375.516	1.75
376.302	1.75
377.088	-0.25
377.873	0.75
378.659	0.75
379.445	2.75
380.23	3.75
381.015	3.75
381.801	2.75
382.586	0.75
383.371	3.75
384.156	-0.25
384.941	1.75
385.726	2.75
386.511	1.75
387.296	3.75
388.08	1.75
388.865	1.75
389.649	1.75
390.434	5.75
391.218	2.75
392.003	3.75
392.787	1.75
393.571	3.75
394.355	2.75
395.139	3.75
395.923	0.75
396.707	4.75
397.491	1.75
398.274	2.75
399.058	3.75
399.842	2.75
400.625	2.75
401.408	4.75
402.192	3.75
402.975	3.75
403.758	1.75
404.541	4.75
405.324	3.75
406.107	1.75
406.89	1.75
407.673	3.75
408.456	3.75
409.238	3.75
410.021	2.75
410.803	2.75
411.586	2.75
412.368	2.75
413.151	4.75
413.933	6.75
414.715	4.75
415.497	3.75
416.279	4.75
417.061	3.75
417.843	5.75
418.624	5.75
419.406	5.75
420.188	3.75
420.969	2.75
421.751	4.75
422.532	3.75
423.313	6.75
424.095	4.75
424.876	7.75
425.657	8.75
426.438	6.75
427.219	4.75
428	6.75
428.78	4.75
429.561	7.75
430.342	5.75
431.122	6.75
431.903	8.75
432.683	7.75
433.464	7.75
434.244	9.75
435.024	4.75
435.804	8.75
436.584	10.75
437.364	8.75
438.144	9.75
438.924	12.75
439.704	7.75
440.483	14.75
441.263	10.75
442.042	13.75
442.822	15.75
443.601	12.75
444.38	12.75
445.16	16.75
445.939	17.75
446.718	16.75
447.497	18.75
448.276	21.75
449.054	19.75
449.833	22.75
450.612	22.75
451.391	27.75
452.169	28.75
452.948	32.75
453.726	37.75
454.504	38.75
455.282	40.75
456.061	44.75
456.839	49.75
457.617	56.75
458.395	60.75
459.172	68.75
459.95	75.75
460.728	83.75
461.506	91.75
462.283	101.75
463.061	115.75
463.838	126.75
464.615	141.75
465.393	157.75
466.17	177.75
466.947	193.75
467.724	221.75
468.501	237.75
469.278	267.75
470.055	301.75
470.831	333.75
471.608	373.75
472.385	411.75
473.161	460.75
473.938	513.75
474.714	571.75
475.49	635.75
476.266	697.75
477.043	762.75
477.819	847.75
478.595	947.75
479.371	1036.75
480.146	1152.75
480.922	1277.75
481.698	1416.75
482.473	1553.75
483.249	1703.75
484.024	1871.75
484.8	2057.75
485.575	2277.75
486.35	2501.75
487.126	2763.75
487.901	3033.75
488.676	3346.75
489.451	3674.75
490.225	4033.75
491	4434.75
491.775	4882.75
492.55	5347.75
493.324	5830.75
494.099	6390.75
494.873	6961.75
495.647	7577.75
496.422	8220.75
497.196	8907.75
497.97	9611.75
498.744	10354.75
499.518	11073.75
500.292	11814.75
501.066	12567.75
501.839	13260.75
502.613	13897.75
503.387	14537.75
504.16	15016.75
504.934	15510.75
505.707	15867.75
506.48	16221.75
507.253	16332.75
508.027	16397.75
508.8	16404.75
509.573	16203.75
510.346	15990.75
511.118	15678.75
511.891	15282.75
512.664	14855.75
513.437	14353.75
514.209	13812.75
514.982	13312.75
515.754	12732.75
516.526	12174.75
517.298	11656.75
518.071	11113.75
518.843	10651.75
519.615	10184.75
520.387	9759.75
521.159	9365.75
521.93	8991.75
522.702	8655.75
523.474	8313.75
524.245	7966.75
525.017	7693.75
525.788	7384.75
526.56	7079.75
527.331	6777.75
528.102	6470.75
528.873	6212.75
529.644	5907.75
530.415	5645.75
531.186	5386.75
531.957	5104.75
532.728	4821.75
533.498	4559.75
534.269	4330.75
535.039	4106.75
535.81	3867.75
536.58	3657.75
537.351	3458.75
538.121	3248.75
538.891	3093.75
539.661	2899.75
540.431	2745.75
541.201	2603.75
541.971	2483.75
542.741	2337.75
543.51	2236.75
544.28	2111.75
545.05	2014.75
545.819	1899.75
546.588	1812.75
547.358	1710.75
548.127	1621.75
548.896	1553.75
549.665	1480.75
550.434	1393.75
551.203	1331.75
551.972	1263.75
552.741	1183.75
553.51	1127.75
554.278	1068.75
555.047	1000.75
555.815	953.75
556.584	902.75
557.352	845.75
558.121	798.75
558.889	745.75
559.657	712.75
560.425	676.75
561.193	630.75
561.961	593.75
562.729	548.75
563.496	528.75
564.264	497.75
565.032	470.75
565.799	442.75
566.567	419.75
567.334	403.75
568.101	373.75
568.869	344.75
569.636	324.75
570.403	310.75
571.17	299.75
571.937	278.75
572.704	271.75
573.471	247.75
574.237	237.75
575.004	220.75
575.771	204.75
576.537	190.75
577.303	186.75
578.07	171.75
578.836	158.75
579.602	151.75
580.368	143.75
581.134	136.75
581.9	130.75
582.666	124.75
583.432	113.75
584.198	110.75
584.964	109.75
585.729	97.75
586.495	90.75
587.26	87.75
588.025	77.75
588.791	80.75
589.556	73.75
590.321	70.75
591.086	64.75
591.851	65.75
592.616	59.75
593.381	58.75
594.146	56.75
594.911	50.75
595.675	46.75
596.44	48.75
597.204	40.75
597.969	42.75
598.733	39.75
599.497	38.75
600.261	36.75
601.025	34.75
601.79	29.75
602.553	30.75
603.317	28.75
604.081	26.75
604.845	31.75
605.609	26.75
606.372	24.75
607.136	25.75
607.899	22.75
608.662	19.75
609.426	23.75
610.189	22.75
610.952	16.75
611.715	18.75
612.478	17.75
613.241	16.75
614.004	18.75
614.767	16.75
615.529	15.75
616.292	16.75
617.055	14.75
617.817	15.75
618.579	12.75
619.342	11.75
620.104	9.75
620.866	12.75
621.628	11.75
622.39	10.75
623.152	10.75
623.914	7.75
624.676	9.75
625.438	9.75
626.199	8.75
626.961	9.75
627.722	7.75
628.484	6.75
629.245	6.75
630.006	8.75
630.768	5.75
631.529	6.75
632.29	7.75
633.051	6.75
633.812	7.75
634.573	6.75
635.333	5.75
636.094	7.75
636.855	6.75
637.615	6.75
638.376	3.75
639.136	5.75
639.896	4.75
640.657	5.75
641.417	4.75
642.177	3.75
642.937	3.75
643.697	4.75
644.457	4.75
645.216	1.75
645.976	5.75
646.736	2.75
647.495	3.75
648.255	2.75
649.014	4.75
649.774	4.75
650.533	1.75
651.292	3.75
652.051	2.75
652.81	3.75
653.569	3.75
654.328	2.75
655.087	2.75
655.846	3.75
656.604	1.75
657.363	1.75
658.121	3.75
658.88	2.75
659.638	3.75
660.397	3.75
661.155	2.75
661.913	3.75
662.671	3.75
663.429	0.75
664.187	0.75
664.945	1.75
665.703	2.75
666.46	2.75
667.218	2.75
667.976	1.75
668.733	1.75
669.49	2.75
670.248	4.75
671.005	2.75
671.762	-0.25
672.519	1.75
673.276	0.75
674.033	0.75
674.79	2.75
675.547	1.75
676.304	0.75
677.06	-0.25
677.817	-0.25
678.574	1.75
679.33	2.75
680.086	1.75
680.843	4.75
681.599	2.75
682.355	0.75
683.111	2.75
683.867	0.75
684.623	2.75
685.379	1.75
686.135	0.75
686.89	1.75
687.646	1.75
688.402	2.75
689.157	1.75
689.912	0.75
690.668	2.75
691.423	-1.25
692.178	0.75
692.933	0.75
693.688	0.75
694.443	1.75
695.198	0.75
695.953	2.75
696.708	1.75
697.462	2.75
698.217	1.75
698.972	0.75
699.726	1.75
700.48	1.75
701.235	2.75
701.989	0.75
702.743	3.75
703.497	1.75
704.251	0.75
705.005	1.75
705.759	0.75
706.513	0.75
707.266	0.75
708.02	0.75
708.774	1.75
709.527	2.75
710.28	0.75
711.034	1.75
711.787	1.75
712.54	1.75
713.293	0.75
714.046	0.75
714.799	0.75
715.552	0.75
716.305	-0.25
717.058	1.75
717.81	0.75
718.563	2.75
719.315	2.75
720.068	1.75
720.82	2.75
721.573	1.75
722.325	0.75
723.077	0.75
723.829	3.75
724.581	0.75
725.333	0.75
726.085	0.75
726.836	-0.25
727.588	0.75
728.34	1.75
729.091	0.75
729.843	2.75
730.594	2.75
731.346	3.75
732.097	2.75
732.848	2.75
733.599	2.75
734.35	1.75
735.101	0.75
735.852	0.75
736.603	0.75
737.354	1.75
738.104	0.75
738.855	-0.25
739.605	0.75
740.356	2.75
741.106	0.75
741.856	1.75
742.607	-0.25
743.357	1.75
744.107	2.75
744.857	2.75
745.607	1.75
746.357	1.75
747.106	2.75
747.856	-0.25
748.606	2.75
749.355	1.75
750.105	0.75
750.854	4.75
751.603	1.75
752.353	0.75
753.102	2.75
753.851	2.75
754.6	1.75
755.349	3.75
756.098	1.75
756.847	1.75
757.595	2.75
758.344	1.75
759.093	3.75
759.841	2.75
760.589	2.75
761.338	2.75
762.086	3.75
762.834	1.75
763.582	1.75
764.331	1.75
765.079	2.75
765.826	1.75
766.574	2.75
767.322	2.75
768.07	3.75
768.817	4.75
769.565	2.75
770.312	4.75
771.06	1.75
771.807	2.75
772.554	1.75
773.302	3.75
774.049	2.75
774.796	1.75
775.543	5.75
776.29	1.75
777.036	4.75
777.783	2.75
778.53	4.75
779.276	2.75
780.023	4.75
780.769	4.75
781.516	3.75
782.262	4.75
783.008	2.75
783.754	5.75
784.5	3.75
785.246	3.75
785.992	6.75
786.738	4.75
787.484	0.75
788.23	5.75
788.975	4.75
789.721	3.75
790.466	4.75
791.212	5.75
791.957	2.75
792.702	5.75
793.447	5.75
794.193	4.75
794.938	3.75
795.683	4.75
796.427	2.75
797.172	3.75
797.917	4.75
798.662	4.75
799.406	4.75
800.151	5.75
800.895	0.75
801.64	4.75
802.384	2.75
803.128	4.75
803.872	3.75
804.616	6.75
805.36	6.75
806.104	2.75
806.848	2.75
807.592	2.75
808.336	2.75
809.079	2.75
809.823	2.75
810.566	0.75
811.31	2.75
812.053	3.75
812.796	0.75
813.539	0.75
814.283	2.75
815.026	1.75
815.769	3.75
816.511	3.75
817.254	5.75
817.997	1.75
818.74	2.75
819.482	2.75
820.225	2.75
820.967	2.75
821.71	-2.25
822.452	2.75
823.194	0.75
823.936	1.75
824.678	3.75
825.42	2.75
826.162	1.75
826.904	-0.25
827.646	0.75
828.388	2.75
829.129	3.75
829.871	2.75
830.612	2.75
831.354	3.75
832.095	2.75
832.836	0.75
833.577	-0.25
834.319	3.75
835.06	1.75
835.801	0.75
836.542	1.75
837.282	1.75
838.023	2.75
838.764	1.75
839.504	3.75
840.245	3.75
840.985	0.75
841.726	2.75
842.466	2.75
843.206	3.75
843.946	0.75
844.687	0.75
845.427	1.75
846.166	0.75
846.906	0.75
847.646	2.75
848.386	2.75
849.125	1.75
849.865	0.75
850.605	1.75
851.344	1.75
852.083	0.75
852.823	0.75
853.562	0.75
854.301	3.75
855.04	0.75
855.779	1.75
856.518	0.75
857.257	1.75
857.995	-0.25
858.734	0.75
859.473	-0.25
860.211	-0.25
860.95	1.75
861.688	-2.25
862.426	0.75
863.165	1.75
863.903	0.75
864.641	0.75
865.379	1.75
866.117	0.75
866.855	0.75
867.593	0.75
868.33	0.75
869.068	0.75
869.806	-1.25
870.543	-1.25
871.28	1.75
872.018	-2.25
872.755	0.75
873.492	-0.25
874.229	0.75
874.967	1.75
875.703	3.75
876.44	0.75
877.177	-1.25
877.914	0.75
878.651	0.75
879.387	-0.25
880.124	-2.25
880.86	-2.25
881.597	0.75
882.333	-0.25
883.069	0.75
883.806	-0.25
884.542	-2.25
885.278	-2.25
886.014	0.75
886.749	1.75
887.485	-1.25
888.221	0.75
888.957	0.75
889.692	-1.25
890.428	1.75
891.163	0.75
891.899	-0.25
892.634	-1.25
893.369	-0.25
894.104	-0.25
894.839	1.75
895.574	-0.25
896.309	0.75
897.044	-0.25
897.779	-0.25
898.514	0.75
899.248	0.75
899.983	0.75
900.717	-0.25
901.452	-0.25
902.186	-2.25
902.92	-0.25
903.654	0.75
904.389	-1.25
905.123	0.75
905.857	0.75
906.59	0.75
907.324	1.75
908.058	-0.25
908.792	1.75
909.525	-2.25
910.259	0.75
910.992	-0.25
911.726	-2.25
912.459	-1.25
913.192	-3.25
913.925	1.75
914.658	-1.25
915.391	0.75
916.124	-0.25
916.857	-1.25
917.59	2.75
918.323	-1.25
919.055	0.75
919.788	-0.25
920.521	-2.25
921.253	1.75
921.985	0.75
922.718	-2.25
923.45	-1.25
924.182	-0.25
924.914	0.75
925.646	-1.25
926.378	-1.25
927.11	-0.25
927.841	-1.25
928.573	-0.25
929.305	-1.25
930.036	-0.25
930.768	-0.25
931.499	-0.25
932.23	-0.25
932.962	0.75
933.693	-2.25
934.424	-1.25
935.155	0.75
935.886	-1.25
936.617	-0.25
937.348	0.75
938.078	2.75
938.809	-1.25
939.54	0.75
940.27	-0.25
941.001	-2.25
941.731	-1.25
942.461	-0.25
943.191	-1.25
943.922	-0.25
944.652	-0.25
945.382	0.75
946.112	0.75
946.841	-1.25
947.571	-0.25
948.301	0.75
949.031	-0.25
949.76	-3.25
950.49	-1.25
951.219	1.75
951.948	-0.25
952.678	-0.25
953.407	0.75
954.136	-0.25
954.865	1.75
955.594	0.75
956.323	-1.25
957.052	-0.25
957.78	-1.25
958.509	-0.25
959.238	-1.25
959.966	0.75
960.695	-2.25
961.423	-0.25
962.151	-1.25
962.88	-2.25
963.608	0.75
964.336	-2.25
965.064	-1.25
965.792	-0.25
966.52	-2.25
967.247	-0.25
967.975	-1.25
968.703	-0.25
969.43	-1.25
970.158	-0.25
970.885	0.75
971.613	-1.25
972.34	0.75
973.067	0.75
973.794	-2.25
974.521	-0.25
975.248	0.75
975.975	-0.25
976.702	0.75
977.429	1.75
978.156	-2.25
978.882	-2.25
979.609	-1.25
980.335	-0.25
981.062	1.75
981.788	-0.25
982.514	-2.25
983.24	-2.25
983.967	-0.25
984.693	-2.25
985.419	0.75
986.144	-0.25
986.87	0.75
987.596	0.75
988.322	-2.25
989.047	0.75
989.773	-0.25
990.498	0.75
991.224	0.75
991.949	-1.25
992.674	-1.25
993.399	0.75
994.124	0.75
994.849	-0.25
995.574	0.75
996.299	-0.25
997.024	-0.25
997.749	-0.25
998.473	-2.25
999.198	-0.25
999.922	-0.25
1000.647	0.75
1001.371	2.75
1002.095	-1.25
1002.82	-1.25
1003.544	-2.25
1004.268	-0.25
1004.992	-1.25
1005.716	0.75
1006.439	-1.25
1007.163	-0.25
1007.887	0.75
1008.611	-0.25
1009.334	-1.25
1010.058	0.75
1010.781	-0.25
1011.504	0.75
1012.228	-1.25
1012.951	0.75
1013.674	3.75
1014.397	-3.25
1015.12	0.75
