节点500_145_QEPB04081__19__11-29-14-829.txt的数据

Date: Wed Nov 12 11:29:14 CST 2025
User: PC
Spectrometer: QEPB0408
触发模式: 0
积分时间 (秒): 1.000000E-2
Scans to average: 1
启用暗噪声校正: true
启用非线性校正: false
滑动平均宽度: 0
X轴模式: Wavelengths
Number of Pixels in Spectrum: 1044
>>>>>Begin Spectral Data<<<<<
220.843	-0.12
221.644	-0.12
222.444	-1.12
223.244	1.88
224.045	-0.12
224.845	1.88
225.645	-1.12
226.445	2.88
227.245	-0.12
228.045	2.88
228.845	0.88
229.645	2.88
230.444	1.88
231.244	2.88
232.043	1.88
232.843	0.88
233.642	1.88
234.442	0.88
235.241	0.88
236.04	2.88
236.839	0.88
237.638	0.88
238.437	1.88
239.236	0.88
240.035	3.88
240.833	-0.12
241.632	2.88
242.43	1.88
243.229	2.88
244.027	0.88
244.826	1.88
245.624	3.88
246.422	3.88
247.22	1.88
248.018	3.88
248.816	4.88
249.614	2.88
250.412	3.88
251.21	5.88
252.007	2.88
252.805	3.88
253.602	1.88
254.4	3.88
255.197	4.88
255.994	2.88
256.791	3.88
257.589	1.88
258.386	5.88
259.183	2.88
259.979	3.88
260.776	4.88
261.573	6.88
262.37	6.88
263.166	5.88
263.963	7.88
264.759	7.88
265.556	8.88
266.352	5.88
267.148	6.88
267.944	7.88
268.74	7.88
269.536	4.88
270.332	7.88
271.128	11.88
271.924	8.88
272.719	8.88
273.515	10.88
274.311	9.88
275.106	9.88
275.901	9.88
276.697	10.88
277.492	10.88
278.287	12.88
279.082	10.88
279.877	12.88
280.672	10.88
281.467	9.88
282.262	11.88
283.056	9.88
283.851	9.88
284.646	12.88
285.44	11.88
286.234	12.88
287.029	14.88
287.823	10.88
288.617	12.88
289.411	9.88
290.205	11.88
290.999	11.88
291.793	11.88
292.587	12.88
293.381	8.88
294.174	11.88
294.968	8.88
295.761	9.88
296.555	8.88
297.348	9.88
298.141	8.88
298.935	10.88
299.728	10.88
300.521	9.88
301.314	9.88
302.107	8.88
302.899	7.88
303.692	8.88
304.485	9.88
305.277	9.88
306.07	8.88
306.862	9.88
307.655	9.88
308.447	6.88
309.239	6.88
310.031	7.88
310.823	6.88
311.615	5.88
312.407	5.88
313.199	8.88
313.991	7.88
314.783	7.88
315.574	7.88
316.366	6.88
317.157	6.88
317.949	6.88
318.74	6.88
319.531	3.88
320.322	4.88
321.113	5.88
321.904	6.88
322.695	5.88
323.486	4.88
324.277	2.88
325.068	3.88
325.858	5.88
326.649	2.88
327.439	4.88
328.23	4.88
329.02	2.88
329.81	5.88
330.6	4.88
331.391	5.88
332.181	4.88
332.971	4.88
333.76	3.88
334.55	4.88
335.34	6.88
336.13	0.88
336.919	2.88
337.709	2.88
338.498	1.88
339.287	4.88
340.077	2.88
340.866	5.88
341.655	3.88
342.444	5.88
343.233	3.88
344.022	2.88
344.811	7.88
345.6	2.88
346.388	4.88
347.177	3.88
347.965	2.88
348.754	3.88
349.542	4.88
350.33	2.88
351.119	4.88
351.907	5.88
352.695	1.88
353.483	2.88
354.271	1.88
355.059	2.88
355.846	4.88
356.634	4.88
357.422	3.88
358.209	3.88
358.997	1.88
359.784	2.88
360.571	1.88
361.359	3.88
362.146	1.88
362.933	5.88
363.72	1.88
364.507	2.88
365.294	4.88
366.081	2.88
366.867	5.88
367.654	1.88
368.44	3.88
369.227	3.88
370.013	-0.12
370.8	3.88
371.586	1.88
372.372	2.88
373.158	4.88
373.944	5.88
374.73	1.88
375.516	3.88
376.302	3.88
377.088	2.88
377.873	2.88
378.659	2.88
379.445	3.88
380.23	3.88
381.015	3.88
381.801	3.88
382.586	3.88
383.371	3.88
384.156	5.88
384.941	2.88
385.726	3.88
386.511	4.88
387.296	3.88
388.08	1.88
388.865	2.88
389.649	3.88
390.434	5.88
391.218	4.88
392.003	1.88
392.787	4.88
393.571	2.88
394.355	4.88
395.139	3.88
395.923	1.88
396.707	4.88
397.491	1.88
398.274	4.88
399.058	6.88
399.842	4.88
400.625	2.88
401.408	3.88
402.192	3.88
402.975	2.88
403.758	6.88
404.541	4.88
405.324	3.88
406.107	2.88
406.89	5.88
407.673	5.88
408.456	2.88
409.238	6.88
410.021	4.88
410.803	5.88
411.586	6.88
412.368	6.88
413.151	4.88
413.933	6.88
414.715	6.88
415.497	6.88
416.279	6.88
417.061	4.88
417.843	5.88
418.624	5.88
419.406	5.88
420.188	5.88
420.969	6.88
421.751	4.88
422.532	7.88
423.313	3.88
424.095	8.88
424.876	7.88
425.657	5.88
426.438	7.88
427.219	6.88
428	9.88
428.78	6.88
429.561	7.88
430.342	8.88
431.122	7.88
431.903	8.88
432.683	8.88
433.464	10.88
434.244	10.88
435.024	9.88
435.804	9.88
436.584	9.88
437.364	9.88
438.144	9.88
438.924	9.88
439.704	12.88
440.483	13.88
441.263	13.88
442.042	13.88
442.822	12.88
443.601	10.88
444.38	16.88
445.16	14.88
445.939	17.88
446.718	17.88
447.497	17.88
448.276	19.88
449.054	20.88
449.833	23.88
450.612	21.88
451.391	26.88
452.169	26.88
452.948	25.88
453.726	31.88
454.504	34.88
455.282	37.88
456.061	40.88
456.839	43.88
457.617	46.88
458.395	52.88
459.172	59.88
459.95	63.88
460.728	71.88
461.506	79.88
462.283	87.88
463.061	99.88
463.838	105.88
464.615	120.88
465.393	134.88
466.17	150.88
466.947	173.88
467.724	190.88
468.501	208.88
469.278	228.88
470.055	260.88
470.831	286.88
471.608	324.88
472.385	365.88
473.161	409.88
473.938	462.88
474.714	506.88
475.49	560.88
476.266	635.88
477.043	701.88
477.819	773.88
478.595	867.88
479.371	972.88
480.146	1066.88
480.922	1186.88
481.698	1327.88
482.473	1477.88
483.249	1637.88
484.024	1812.88
484.8	2035.88
485.575	2260.88
486.35	2503.88
487.126	2793.88
487.901	3106.88
488.676	3432.88
489.451	3801.88
490.225	4210.88
491	4655.88
491.775	5158.88
492.55	5706.88
493.324	6265.88
494.099	6890.88
494.873	7571.88
495.647	8249.88
496.422	9043.88
497.196	9762.88
497.97	10568.88
498.744	11434.88
499.518	12191.88
500.292	12978.88
501.066	13735.88
501.839	14461.88
502.613	15146.88
503.387	15702.88
504.16	16243.88
504.934	16598.88
505.707	16838.88
506.48	17065.88
507.253	17063.88
508.027	17037.88
508.8	16782.88
509.573	16533.88
510.346	16117.88
511.118	15656.88
511.891	15110.88
512.664	14434.88
513.437	13906.88
514.209	13305.88
514.982	12746.88
515.754	12150.88
516.526	11573.88
517.298	11077.88
518.071	10488.88
518.843	10060.88
519.615	9626.88
520.387	9230.88
521.159	8840.88
521.93	8529.88
522.702	8163.88
523.474	7909.88
524.245	7548.88
525.017	7279.88
525.788	6948.88
526.56	6682.88
527.331	6366.88
528.102	6110.88
528.873	5797.88
529.644	5539.88
530.415	5244.88
531.186	4987.88
531.957	4713.88
532.728	4462.88
533.498	4222.88
534.269	3981.88
535.039	3734.88
535.81	3515.88
536.58	3340.88
537.351	3128.88
538.121	2965.88
538.891	2789.88
539.661	2655.88
540.431	2500.88
541.201	2372.88
541.971	2234.88
542.741	2117.88
543.51	2037.88
544.28	1919.88
545.05	1818.88
545.819	1726.88
546.588	1659.88
547.358	1558.88
548.127	1482.88
548.896	1424.88
549.665	1348.88
550.434	1271.88
551.203	1209.88
551.972	1136.88
552.741	1075.88
553.51	1024.88
554.278	952.88
555.047	910.88
555.815	859.88
556.584	806.88
557.352	750.88
558.121	713.88
558.889	669.88
559.657	639.88
560.425	601.88
561.193	559.88
561.961	532.88
562.729	507.88
563.496	467.88
564.264	451.88
565.032	419.88
565.799	386.88
566.567	368.88
567.334	357.88
568.101	331.88
568.869	323.88
569.636	301.88
570.403	281.88
571.17	265.88
571.937	254.88
572.704	234.88
573.471	220.88
574.237	208.88
575.004	196.88
575.771	184.88
576.537	172.88
577.303	166.88
578.07	152.88
578.836	141.88
579.602	132.88
580.368	130.88
581.134	118.88
581.9	117.88
582.666	110.88
583.432	105.88
584.198	100.88
584.964	95.88
585.729	88.88
586.495	87.88
587.26	79.88
588.025	72.88
588.791	70.88
589.556	66.88
590.321	58.88
591.086	63.88
591.851	55.88
592.616	54.88
593.381	54.88
594.146	50.88
594.911	43.88
595.675	46.88
596.44	42.88
597.204	39.88
597.969	38.88
598.733	36.88
599.497	35.88
600.261	30.88
601.025	30.88
601.79	29.88
602.553	27.88
603.317	24.88
604.081	28.88
604.845	25.88
605.609	25.88
606.372	25.88
607.136	24.88
607.899	21.88
608.662	20.88
609.426	18.88
610.189	20.88
610.952	21.88
611.715	16.88
612.478	14.88
613.241	17.88
614.004	14.88
614.767	13.88
615.529	14.88
616.292	12.88
617.055	12.88
617.817	14.88
618.579	12.88
619.342	14.88
620.104	12.88
620.866	11.88
621.628	12.88
622.39	11.88
623.152	12.88
623.914	9.88
624.676	10.88
625.438	9.88
626.199	7.88
626.961	11.88
627.722	10.88
628.484	7.88
629.245	7.88
630.006	9.88
630.768	6.88
631.529	7.88
632.29	8.88
633.051	5.88
633.812	8.88
634.573	3.88
635.333	7.88
636.094	7.88
636.855	7.88
637.615	6.88
638.376	5.88
639.136	5.88
639.896	4.88
640.657	3.88
641.417	5.88
642.177	5.88
642.937	4.88
643.697	3.88
644.457	5.88
645.216	5.88
645.976	6.88
646.736	2.88
647.495	3.88
648.255	2.88
649.014	4.88
649.774	2.88
650.533	1.88
651.292	6.88
652.051	2.88
652.81	4.88
653.569	2.88
654.328	4.88
655.087	3.88
655.846	3.88
656.604	4.88
657.363	5.88
658.121	4.88
658.88	1.88
659.638	1.88
660.397	1.88
661.155	3.88
661.913	4.88
662.671	3.88
663.429	2.88
664.187	3.88
664.945	4.88
665.703	4.88
666.46	1.88
667.218	3.88
667.976	3.88
668.733	1.88
669.49	4.88
670.248	3.88
671.005	3.88
671.762	3.88
672.519	5.88
673.276	4.88
674.033	0.88
674.79	3.88
675.547	4.88
676.304	2.88
677.06	4.88
677.817	2.88
678.574	2.88
679.33	2.88
680.086	4.88
680.843	4.88
681.599	2.88
682.355	4.88
683.111	1.88
683.867	2.88
684.623	3.88
685.379	1.88
686.135	3.88
686.89	2.88
687.646	1.88
688.402	3.88
689.157	-0.12
689.912	1.88
690.668	4.88
691.423	2.88
692.178	1.88
692.933	2.88
693.688	4.88
694.443	1.88
695.198	1.88
695.953	0.88
696.708	1.88
697.462	5.88
698.217	1.88
698.972	3.88
699.726	1.88
700.48	0.88
701.235	2.88
701.989	2.88
702.743	1.88
703.497	2.88
704.251	3.88
705.005	1.88
705.759	0.88
706.513	1.88
707.266	3.88
708.02	4.88
708.774	1.88
709.527	0.88
710.28	3.88
711.034	1.88
711.787	1.88
712.54	1.88
713.293	1.88
714.046	2.88
714.799	3.88
715.552	1.88
716.305	2.88
717.058	3.88
717.81	1.88
718.563	3.88
719.315	4.88
720.068	2.88
720.82	1.88
721.573	2.88
722.325	2.88
723.077	2.88
723.829	1.88
724.581	2.88
725.333	2.88
726.085	3.88
726.836	2.88
727.588	3.88
728.34	3.88
729.091	2.88
729.843	4.88
730.594	3.88
731.346	3.88
732.097	3.88
732.848	2.88
733.599	3.88
734.35	1.88
735.101	3.88
735.852	2.88
736.603	4.88
737.354	1.88
738.104	1.88
738.855	2.88
739.605	2.88
740.356	2.88
741.106	2.88
741.856	3.88
742.607	1.88
743.357	2.88
744.107	2.88
744.857	2.88
745.607	5.88
746.357	3.88
747.106	1.88
747.856	2.88
748.606	4.88
749.355	2.88
750.105	3.88
750.854	1.88
751.603	3.88
752.353	2.88
753.102	4.88
753.851	1.88
754.6	4.88
755.349	2.88
756.098	5.88
756.847	3.88
757.595	4.88
758.344	2.88
759.093	2.88
759.841	4.88
760.589	3.88
761.338	3.88
762.086	3.88
762.834	3.88
763.582	3.88
764.331	2.88
765.079	4.88
765.826	4.88
766.574	3.88
767.322	3.88
768.07	6.88
768.817	5.88
769.565	5.88
770.312	4.88
771.06	4.88
771.807	6.88
772.554	3.88
773.302	6.88
774.049	3.88
774.796	5.88
775.543	8.88
776.29	5.88
777.036	5.88
777.783	3.88
778.53	5.88
779.276	4.88
780.023	6.88
780.769	4.88
781.516	4.88
782.262	5.88
783.008	6.88
783.754	5.88
784.5	7.88
785.246	5.88
785.992	6.88
786.738	5.88
787.484	5.88
788.23	5.88
788.975	6.88
789.721	4.88
790.466	4.88
791.212	9.88
791.957	5.88
792.702	6.88
793.447	6.88
794.193	3.88
794.938	7.88
795.683	6.88
796.427	4.88
797.172	5.88
797.917	7.88
798.662	6.88
799.406	4.88
800.151	4.88
800.895	4.88
801.64	3.88
802.384	3.88
803.128	5.88
803.872	5.88
804.616	4.88
805.36	4.88
806.104	2.88
806.848	5.88
807.592	3.88
808.336	4.88
809.079	5.88
809.823	4.88
810.566	1.88
811.31	3.88
812.053	4.88
812.796	4.88
813.539	2.88
814.283	4.88
815.026	4.88
815.769	3.88
816.511	4.88
817.254	3.88
817.997	6.88
818.74	2.88
819.482	1.88
820.225	2.88
820.967	5.88
821.71	1.88
822.452	2.88
823.194	2.88
823.936	1.88
824.678	3.88
825.42	2.88
826.162	3.88
826.904	3.88
827.646	2.88
828.388	2.88
829.129	0.88
829.871	5.88
830.612	4.88
831.354	3.88
832.095	3.88
832.836	3.88
833.577	3.88
834.319	2.88
835.06	3.88
835.801	2.88
836.542	1.88
837.282	2.88
838.023	1.88
838.764	3.88
839.504	2.88
840.245	2.88
840.985	3.88
841.726	1.88
842.466	4.88
843.206	1.88
843.946	4.88
844.687	4.88
845.427	4.88
846.166	3.88
846.906	1.88
847.646	3.88
848.386	2.88
849.125	2.88
849.865	2.88
850.605	3.88
851.344	3.88
852.083	1.88
852.823	4.88
853.562	2.88
854.301	0.88
855.04	-0.12
855.779	0.88
856.518	1.88
857.257	1.88
857.995	2.88
858.734	3.88
859.473	1.88
860.211	2.88
860.95	3.88
861.688	2.88
862.426	0.88
863.165	4.88
863.903	1.88
864.641	1.88
865.379	1.88
866.117	1.88
866.855	1.88
867.593	1.88
868.33	3.88
869.068	1.88
869.806	2.88
870.543	0.88
871.28	0.88
872.018	1.88
872.755	0.88
873.492	2.88
874.229	3.88
874.967	1.88
875.703	1.88
876.44	0.88
877.177	1.88
877.914	2.88
878.651	2.88
879.387	0.88
880.124	0.88
880.86	-0.12
881.597	0.88
882.333	0.88
883.069	-1.12
883.806	2.88
884.542	0.88
885.278	0.88
886.014	0.88
886.749	-1.12
887.485	1.88
888.221	1.88
888.957	1.88
889.692	-0.12
890.428	2.88
891.163	-0.12
891.899	0.88
892.634	3.88
893.369	3.88
894.104	0.88
894.839	1.88
895.574	0.88
896.309	1.88
897.044	-1.12
897.779	-0.12
898.514	1.88
899.248	2.88
899.983	1.88
900.717	-0.12
901.452	1.88
902.186	-1.12
902.92	1.88
903.654	2.88
904.389	1.88
905.123	2.88
905.857	-0.12
906.59	0.88
907.324	2.88
908.058	0.88
908.792	2.88
909.525	0.88
910.259	2.88
910.992	0.88
911.726	0.88
912.459	-1.12
913.192	0.88
913.925	1.88
914.658	1.88
915.391	0.88
916.124	-2.12
916.857	0.88
917.59	0.88
918.323	0.88
919.055	-0.12
919.788	0.88
920.521	1.88
921.253	0.88
921.985	2.88
922.718	-1.12
923.45	1.88
924.182	0.88
924.914	0.88
925.646	-1.12
926.378	-0.12
927.11	0.88
927.841	-0.12
928.573	2.88
929.305	2.88
930.036	-0.12
930.768	0.88
931.499	1.88
932.23	0.88
932.962	1.88
933.693	0.88
934.424	2.88
935.155	0.88
935.886	4.88
936.617	-1.12
937.348	1.88
938.078	-0.12
938.809	-0.12
939.54	2.88
940.27	0.88
941.001	2.88
941.731	0.88
942.461	-1.12
943.191	1.88
943.922	-0.12
944.652	1.88
945.382	0.88
946.112	0.88
946.841	2.88
947.571	1.88
948.301	0.88
949.031	1.88
949.76	0.88
950.49	-0.12
951.219	0.88
951.948	-1.12
952.678	1.88
953.407	0.88
954.136	-1.12
954.865	0.88
955.594	0.88
956.323	2.88
957.052	1.88
957.78	-0.12
958.509	-0.12
959.238	0.88
959.966	2.88
960.695	-0.12
961.423	1.88
962.151	0.88
962.88	0.88
963.608	-1.12
964.336	0.88
965.064	-1.12
965.792	1.88
966.52	1.88
967.247	1.88
967.975	0.88
968.703	1.88
969.43	-1.12
970.158	1.88
970.885	-1.12
971.613	0.88
972.34	-0.12
973.067	0.88
973.794	1.88
974.521	1.88
975.248	2.88
975.975	0.88
976.702	0.88
977.429	1.88
978.156	-0.12
978.882	1.88
979.609	1.88
980.335	3.88
981.062	0.88
981.788	0.88
982.514	-0.12
983.24	1.88
983.967	1.88
984.693	-0.12
985.419	3.88
986.144	0.88
986.87	0.88
987.596	1.88
988.322	-1.12
989.047	1.88
989.773	1.88
990.498	1.88
991.224	0.88
991.949	1.88
992.674	0.88
993.399	-0.12
994.124	-0.12
994.849	1.88
995.574	-0.12
996.299	2.88
997.024	-0.12
997.749	1.88
998.473	-0.12
999.198	0.88
999.922	-0.12
1000.647	1.88
1001.371	4.88
1002.095	-2.12
1002.82	-1.12
1003.544	-0.12
1004.268	0.88
1004.992	2.88
1005.716	-0.12
1006.439	0.88
1007.163	-0.12
1007.887	-0.12
1008.611	1.88
1009.334	-1.12
1010.058	4.88
1010.781	0.88
1011.504	1.88
1012.228	0.88
1012.951	-2.12
1013.674	0.88
1014.397	-0.12
1015.12	-0.12
