节点500_145_QEPB04081__510__11-37-05-477.txt的数据

Date: Wed Nov 12 11:37:05 CST 2025
User: PC
Spectrometer: QEPB0408
触发模式: 0
积分时间 (秒): 1.000000E-2
Scans to average: 1
启用暗噪声校正: true
启用非线性校正: false
滑动平均宽度: 0
X轴模式: Wavelengths
Number of Pixels in Spectrum: 1044
>>>>>Begin Spectral Data<<<<<
220.843	-1.12
221.644	-2.12
222.444	-0.12
223.244	-1.12
224.045	0.88
224.845	1.88
225.645	-2.12
226.445	-0.12
227.245	-2.12
228.045	0.88
228.845	-0.12
229.645	0.88
230.444	0.88
231.244	-1.12
232.043	-1.12
232.843	-0.12
233.642	-0.12
234.442	0.88
235.241	1.88
236.04	1.88
236.839	-0.12
237.638	0.88
238.437	-0.12
239.236	-1.12
240.035	0.88
240.833	-0.12
241.632	1.88
242.43	-0.12
243.229	0.88
244.027	0.88
244.826	1.88
245.624	1.88
246.422	-0.12
247.22	2.88
248.018	0.88
248.816	1.88
249.614	0.88
250.412	1.88
251.21	1.88
252.007	1.88
252.805	0.88
253.602	0.88
254.4	2.88
255.197	2.88
255.994	-1.12
256.791	2.88
257.589	0.88
258.386	0.88
259.183	0.88
259.979	1.88
260.776	3.88
261.573	3.88
262.37	2.88
263.166	2.88
263.963	4.88
264.759	2.88
265.556	5.88
266.352	3.88
267.148	5.88
267.944	4.88
268.74	4.88
269.536	3.88
270.332	2.88
271.128	6.88
271.924	8.88
272.719	7.88
273.515	5.88
274.311	8.88
275.106	7.88
275.901	7.88
276.697	8.88
277.492	7.88
278.287	7.88
279.082	7.88
279.877	9.88
280.672	8.88
281.467	8.88
282.262	9.88
283.056	12.88
283.851	7.88
284.646	8.88
285.44	11.88
286.234	11.88
287.029	9.88
287.823	10.88
288.617	8.88
289.411	9.88
290.205	9.88
290.999	10.88
291.793	7.88
292.587	8.88
293.381	11.88
294.174	8.88
294.968	8.88
295.761	9.88
296.555	8.88
297.348	8.88
298.141	8.88
298.935	9.88
299.728	5.88
300.521	6.88
301.314	8.88
302.107	7.88
302.899	3.88
303.692	5.88
304.485	9.88
305.277	9.88
306.07	7.88
306.862	7.88
307.655	7.88
308.447	5.88
309.239	6.88
310.031	8.88
310.823	4.88
311.615	3.88
312.407	3.88
313.199	5.88
313.991	6.88
314.783	3.88
315.574	6.88
316.366	6.88
317.157	4.88
317.949	6.88
318.74	6.88
319.531	2.88
320.322	3.88
321.113	4.88
321.904	3.88
322.695	4.88
323.486	4.88
324.277	3.88
325.068	4.88
325.858	3.88
326.649	4.88
327.439	3.88
328.23	2.88
329.02	1.88
329.81	2.88
330.6	3.88
331.391	2.88
332.181	0.88
332.971	4.88
333.76	1.88
334.55	2.88
335.34	2.88
336.13	2.88
336.919	2.88
337.709	0.88
338.498	3.88
339.287	2.88
340.077	2.88
340.866	1.88
341.655	1.88
342.444	2.88
343.233	2.88
344.022	1.88
344.811	1.88
345.6	4.88
346.388	2.88
347.177	4.88
347.965	4.88
348.754	2.88
349.542	0.88
350.33	1.88
351.119	2.88
351.907	2.88
352.695	0.88
353.483	3.88
354.271	1.88
355.059	2.88
355.846	1.88
356.634	2.88
357.422	1.88
358.209	2.88
358.997	1.88
359.784	2.88
360.571	3.88
361.359	2.88
362.146	1.88
362.933	2.88
363.72	2.88
364.507	3.88
365.294	0.88
366.081	1.88
366.867	1.88
367.654	2.88
368.44	3.88
369.227	3.88
370.013	2.88
370.8	2.88
371.586	0.88
372.372	0.88
373.158	2.88
373.944	-0.12
374.73	2.88
375.516	1.88
376.302	-0.12
377.088	3.88
377.873	1.88
378.659	1.88
379.445	0.88
380.23	-0.12
381.015	3.88
381.801	0.88
382.586	2.88
383.371	-0.12
384.156	1.88
384.941	0.88
385.726	1.88
386.511	3.88
387.296	0.88
388.08	0.88
388.865	2.88
389.649	1.88
390.434	2.88
391.218	3.88
392.003	3.88
392.787	1.88
393.571	1.88
394.355	1.88
395.139	5.88
395.923	2.88
396.707	0.88
397.491	2.88
398.274	0.88
399.058	1.88
399.842	1.88
400.625	2.88
401.408	1.88
402.192	2.88
402.975	3.88
403.758	1.88
404.541	4.88
405.324	1.88
406.107	1.88
406.89	1.88
407.673	2.88
408.456	2.88
409.238	2.88
410.021	1.88
410.803	2.88
411.586	3.88
412.368	4.88
413.151	3.88
413.933	4.88
414.715	2.88
415.497	5.88
416.279	2.88
417.061	3.88
417.843	5.88
418.624	3.88
419.406	4.88
420.188	2.88
420.969	4.88
421.751	5.88
422.532	4.88
423.313	4.88
424.095	4.88
424.876	8.88
425.657	5.88
426.438	5.88
427.219	4.88
428	5.88
428.78	6.88
429.561	7.88
430.342	6.88
431.122	7.88
431.903	8.88
432.683	7.88
433.464	7.88
434.244	4.88
435.024	7.88
435.804	7.88
436.584	7.88
437.364	8.88
438.144	8.88
438.924	9.88
439.704	12.88
440.483	7.88
441.263	12.88
442.042	11.88
442.822	10.88
443.601	13.88
444.38	13.88
445.16	13.88
445.939	15.88
446.718	17.88
447.497	18.88
448.276	18.88
449.054	20.88
449.833	22.88
450.612	24.88
451.391	24.88
452.169	29.88
452.948	30.88
453.726	35.88
454.504	39.88
455.282	41.88
456.061	47.88
456.839	50.88
457.617	60.88
458.395	63.88
459.172	72.88
459.95	80.88
460.728	84.88
461.506	98.88
462.283	108.88
463.061	123.88
463.838	137.88
464.615	150.88
465.393	168.88
466.17	184.88
466.947	205.88
467.724	226.88
468.501	257.88
469.278	283.88
470.055	312.88
470.831	355.88
471.608	384.88
472.385	431.88
473.161	476.88
473.938	530.88
474.714	581.88
475.49	642.88
476.266	720.88
477.043	777.88
477.819	866.88
478.595	956.88
479.371	1051.88
480.146	1153.88
480.922	1273.88
481.698	1397.88
482.473	1542.88
483.249	1699.88
484.024	1860.88
484.8	2036.88
485.575	2233.88
486.35	2451.88
487.126	2670.88
487.901	2916.88
488.676	3216.88
489.451	3540.88
490.225	3855.88
491	4238.88
491.775	4631.88
492.55	5034.88
493.324	5501.88
494.099	6016.88
494.873	6520.88
495.647	7074.88
496.422	7691.88
497.196	8303.88
497.97	8937.88
498.744	9612.88
499.518	10333.88
500.292	10992.88
501.066	11703.88
501.839	12333.88
502.613	12974.88
503.387	13580.88
504.16	14109.88
504.934	14589.88
505.707	14945.88
506.48	15274.88
507.253	15556.88
508.027	15673.88
508.8	15776.88
509.573	15662.88
510.346	15513.88
511.118	15309.88
511.891	15048.88
512.664	14573.88
513.437	14160.88
514.209	13684.88
514.982	13202.88
515.754	12701.88
516.526	12229.88
517.298	11713.88
518.071	11193.88
518.843	10720.88
519.615	10286.88
520.387	9849.88
521.159	9465.88
521.93	9073.88
522.702	8700.88
523.474	8378.88
524.245	8030.88
525.017	7725.88
525.788	7383.88
526.56	7099.88
527.331	6798.88
528.102	6537.88
528.873	6255.88
529.644	5990.88
530.415	5730.88
531.186	5485.88
531.957	5189.88
532.728	4939.88
533.498	4681.88
534.269	4430.88
535.039	4189.88
535.81	3998.88
536.58	3749.88
537.351	3562.88
538.121	3337.88
538.891	3196.88
539.661	3020.88
540.431	2852.88
541.201	2684.88
541.971	2551.88
542.741	2418.88
543.51	2290.88
544.28	2158.88
545.05	2078.88
545.819	1962.88
546.588	1869.88
547.358	1769.88
548.127	1680.88
548.896	1593.88
549.665	1530.88
550.434	1442.88
551.203	1381.88
551.972	1302.88
552.741	1235.88
553.51	1173.88
554.278	1103.88
555.047	1046.88
555.815	1005.88
556.584	941.88
557.352	878.88
558.121	821.88
558.889	781.88
559.657	742.88
560.425	691.88
561.193	660.88
561.961	613.88
562.729	587.88
563.496	552.88
564.264	527.88
565.032	489.88
565.799	464.88
566.567	440.88
567.334	408.88
568.101	389.88
568.869	370.88
569.636	347.88
570.403	325.88
571.17	306.88
571.937	291.88
572.704	272.88
573.471	262.88
574.237	239.88
575.004	231.88
575.771	214.88
576.537	200.88
577.303	195.88
578.07	180.88
578.836	172.88
579.602	160.88
580.368	156.88
581.134	144.88
581.9	134.88
582.666	131.88
583.432	122.88
584.198	116.88
584.964	111.88
585.729	103.88
586.495	97.88
587.26	90.88
588.025	85.88
588.791	81.88
589.556	79.88
590.321	71.88
591.086	69.88
591.851	65.88
592.616	66.88
593.381	58.88
594.146	56.88
594.911	52.88
595.675	52.88
596.44	45.88
597.204	43.88
597.969	42.88
598.733	44.88
599.497	40.88
600.261	38.88
601.025	33.88
601.79	33.88
602.553	33.88
603.317	29.88
604.081	30.88
604.845	31.88
605.609	26.88
606.372	24.88
607.136	25.88
607.899	24.88
608.662	21.88
609.426	22.88
610.189	22.88
610.952	18.88
611.715	19.88
612.478	15.88
613.241	16.88
614.004	17.88
614.767	17.88
615.529	15.88
616.292	12.88
617.055	13.88
617.817	11.88
618.579	13.88
619.342	12.88
620.104	12.88
620.866	10.88
621.628	11.88
622.39	12.88
623.152	10.88
623.914	9.88
624.676	9.88
625.438	9.88
626.199	9.88
626.961	6.88
627.722	7.88
628.484	9.88
629.245	6.88
630.006	4.88
630.768	7.88
631.529	7.88
632.29	6.88
633.051	6.88
633.812	5.88
634.573	5.88
635.333	5.88
636.094	6.88
636.855	1.88
637.615	4.88
638.376	4.88
639.136	4.88
639.896	5.88
640.657	2.88
641.417	5.88
642.177	3.88
642.937	4.88
643.697	2.88
644.457	5.88
645.216	1.88
645.976	5.88
646.736	3.88
647.495	3.88
648.255	5.88
649.014	6.88
649.774	3.88
650.533	5.88
651.292	3.88
652.051	2.88
652.81	3.88
653.569	1.88
654.328	3.88
655.087	1.88
655.846	3.88
656.604	2.88
657.363	4.88
658.121	2.88
658.88	1.88
659.638	3.88
660.397	1.88
661.155	2.88
661.913	2.88
662.671	1.88
663.429	2.88
664.187	2.88
664.945	2.88
665.703	4.88
666.46	2.88
667.218	2.88
667.976	1.88
668.733	4.88
669.49	-0.12
670.248	3.88
671.005	3.88
671.762	3.88
672.519	1.88
673.276	1.88
674.033	0.88
674.79	2.88
675.547	-0.12
676.304	4.88
677.06	0.88
677.817	0.88
678.574	2.88
679.33	1.88
680.086	-0.12
680.843	2.88
681.599	-0.12
682.355	0.88
683.111	3.88
683.867	0.88
684.623	3.88
685.379	0.88
686.135	1.88
686.89	0.88
687.646	1.88
688.402	1.88
689.157	2.88
689.912	0.88
690.668	2.88
691.423	2.88
692.178	0.88
692.933	-1.12
693.688	4.88
694.443	1.88
695.198	1.88
695.953	0.88
696.708	3.88
697.462	3.88
698.217	-0.12
698.972	1.88
699.726	-0.12
700.48	2.88
701.235	2.88
701.989	2.88
702.743	0.88
703.497	1.88
704.251	0.88
705.005	0.88
705.759	0.88
706.513	0.88
707.266	4.88
708.02	1.88
708.774	-0.12
709.527	0.88
710.28	1.88
711.034	2.88
711.787	2.88
712.54	-1.12
713.293	-0.12
714.046	1.88
714.799	1.88
715.552	0.88
716.305	1.88
717.058	0.88
717.81	0.88
718.563	0.88
719.315	0.88
720.068	2.88
720.82	0.88
721.573	1.88
722.325	0.88
723.077	1.88
723.829	0.88
724.581	0.88
725.333	0.88
726.085	-0.12
726.836	1.88
727.588	1.88
728.34	-2.12
729.091	3.88
729.843	0.88
730.594	1.88
731.346	1.88
732.097	2.88
732.848	1.88
733.599	1.88
734.35	-0.12
735.101	1.88
735.852	0.88
736.603	1.88
737.354	1.88
738.104	1.88
738.855	0.88
739.605	1.88
740.356	2.88
741.106	1.88
741.856	3.88
742.607	0.88
743.357	1.88
744.107	0.88
744.857	0.88
745.607	2.88
746.357	3.88
747.106	2.88
747.856	0.88
748.606	2.88
749.355	1.88
750.105	2.88
750.854	1.88
751.603	1.88
752.353	-0.12
753.102	4.88
753.851	1.88
754.6	1.88
755.349	0.88
756.098	0.88
756.847	0.88
757.595	1.88
758.344	1.88
759.093	0.88
759.841	0.88
760.589	4.88
761.338	1.88
762.086	1.88
762.834	1.88
763.582	1.88
764.331	1.88
765.079	4.88
765.826	2.88
766.574	1.88
767.322	1.88
768.07	2.88
768.817	1.88
769.565	3.88
770.312	1.88
771.06	0.88
771.807	0.88
772.554	1.88
773.302	3.88
774.049	2.88
774.796	4.88
775.543	2.88
776.29	1.88
777.036	6.88
777.783	2.88
778.53	3.88
779.276	6.88
780.023	1.88
780.769	3.88
781.516	3.88
782.262	2.88
783.008	5.88
783.754	3.88
784.5	3.88
785.246	2.88
785.992	5.88
786.738	4.88
787.484	2.88
788.23	1.88
788.975	4.88
789.721	5.88
790.466	4.88
791.212	5.88
791.957	4.88
792.702	2.88
793.447	3.88
794.193	2.88
794.938	2.88
795.683	3.88
796.427	4.88
797.172	3.88
797.917	4.88
798.662	4.88
799.406	2.88
800.151	4.88
800.895	3.88
801.64	4.88
802.384	5.88
803.128	4.88
803.872	1.88
804.616	6.88
805.36	4.88
806.104	5.88
806.848	2.88
807.592	2.88
808.336	1.88
809.079	2.88
809.823	2.88
810.566	4.88
811.31	2.88
812.053	3.88
812.796	4.88
813.539	2.88
814.283	2.88
815.026	0.88
815.769	2.88
816.511	5.88
817.254	1.88
817.997	1.88
818.74	1.88
819.482	3.88
820.225	1.88
820.967	2.88
821.71	2.88
822.452	-0.12
823.194	2.88
823.936	1.88
824.678	2.88
825.42	0.88
826.162	3.88
826.904	2.88
827.646	1.88
828.388	0.88
829.129	4.88
829.871	2.88
830.612	2.88
831.354	2.88
832.095	0.88
832.836	0.88
833.577	2.88
834.319	0.88
835.06	2.88
835.801	0.88
836.542	1.88
837.282	-0.12
838.023	1.88
838.764	3.88
839.504	1.88
840.245	1.88
840.985	-0.12
841.726	1.88
842.466	1.88
843.206	0.88
843.946	0.88
844.687	1.88
845.427	2.88
846.166	1.88
846.906	0.88
847.646	1.88
848.386	0.88
849.125	2.88
849.865	2.88
850.605	1.88
851.344	3.88
852.083	0.88
852.823	0.88
853.562	0.88
854.301	-0.12
855.04	-1.12
855.779	2.88
856.518	1.88
857.257	1.88
857.995	1.88
858.734	1.88
859.473	0.88
860.211	0.88
860.95	0.88
861.688	1.88
862.426	0.88
863.165	2.88
863.903	0.88
864.641	-1.12
865.379	-2.12
866.117	2.88
866.855	-1.12
867.593	0.88
868.33	-0.12
869.068	-1.12
869.806	2.88
870.543	0.88
871.28	0.88
872.018	2.88
872.755	-0.12
873.492	3.88
874.229	0.88
874.967	1.88
875.703	0.88
876.44	-0.12
877.177	0.88
877.914	0.88
878.651	0.88
879.387	0.88
880.124	0.88
880.86	0.88
881.597	0.88
882.333	2.88
883.069	-2.12
883.806	-1.12
884.542	0.88
885.278	0.88
886.014	0.88
886.749	0.88
887.485	1.88
888.221	0.88
888.957	-0.12
889.692	0.88
890.428	0.88
891.163	-1.12
891.899	-2.12
892.634	1.88
893.369	-2.12
894.104	-0.12
894.839	-0.12
895.574	1.88
896.309	-0.12
897.044	-0.12
897.779	0.88
898.514	1.88
899.248	0.88
899.983	0.88
900.717	1.88
901.452	-1.12
902.186	0.88
902.92	-1.12
903.654	0.88
904.389	1.88
905.123	1.88
905.857	-2.12
906.59	-0.12
907.324	-0.12
908.058	1.88
908.792	0.88
909.525	0.88
910.259	-0.12
910.992	-1.12
911.726	-2.12
912.459	-0.12
913.192	0.88
913.925	-2.12
914.658	-1.12
915.391	0.88
916.124	0.88
916.857	1.88
917.59	0.88
918.323	-0.12
919.055	-0.12
919.788	0.88
920.521	-1.12
921.253	0.88
921.985	-0.12
922.718	1.88
923.45	-0.12
924.182	-1.12
924.914	-0.12
925.646	-3.12
926.378	1.88
927.11	0.88
927.841	0.88
928.573	0.88
929.305	-0.12
930.036	-0.12
930.768	-2.12
931.499	-2.12
932.23	0.88
932.962	-2.12
933.693	-3.12
934.424	-2.12
935.155	-1.12
935.886	-2.12
936.617	1.88
937.348	0.88
938.078	-1.12
938.809	-2.12
939.54	-2.12
940.27	0.88
941.001	0.88
941.731	-2.12
942.461	-0.12
943.191	-2.12
943.922	-0.12
944.652	-1.12
945.382	0.88
946.112	2.88
946.841	-0.12
947.571	-3.12
948.301	-0.12
949.031	-0.12
949.76	-0.12
950.49	0.88
951.219	0.88
951.948	0.88
952.678	-2.12
953.407	0.88
954.136	-1.12
954.865	-0.12
955.594	0.88
956.323	-0.12
957.052	-1.12
957.78	-0.12
958.509	-0.12
959.238	-2.12
959.966	-1.12
960.695	0.88
961.423	-0.12
962.151	-2.12
962.88	-1.12
963.608	-1.12
964.336	-0.12
965.064	0.88
965.792	0.88
966.52	0.88
967.247	0.88
967.975	0.88
968.703	-2.12
969.43	-0.12
970.158	-1.12
970.885	1.88
971.613	-1.12
972.34	-2.12
973.067	-1.12
973.794	0.88
974.521	1.88
975.248	-2.12
975.975	-2.12
976.702	-1.12
977.429	0.88
978.156	1.88
978.882	0.88
979.609	0.88
980.335	0.88
981.062	-1.12
981.788	1.88
982.514	-1.12
983.24	1.88
983.967	-3.12
984.693	0.88
985.419	-2.12
986.144	-0.12
986.87	1.88
987.596	-0.12
988.322	-1.12
989.047	-2.12
989.773	-0.12
990.498	-1.12
991.224	-1.12
991.949	-0.12
992.674	-0.12
993.399	1.88
994.124	-0.12
994.849	-0.12
995.574	-1.12
996.299	-1.12
997.024	0.88
997.749	-1.12
998.473	2.88
999.198	-1.12
999.922	-0.12
1000.647	-1.12
1001.371	2.88
1002.095	-0.12
1002.82	-2.12
1003.544	-1.12
1004.268	-1.12
1004.992	1.88
1005.716	-4.12
1006.439	-1.12
1007.163	-1.12
1007.887	-4.12
1008.611	-1.12
1009.334	-0.12
1010.058	0.88
1010.781	-0.12
1011.504	-0.12
1012.228	0.88
1012.951	1.88
1013.674	-0.12
1014.397	-0.12
1015.12	-1.12
