节点500_145_QEPB04081__707__11-40-10-648.txt的数据

Date: Wed Nov 12 11:40:10 CST 2025
User: PC
Spectrometer: QEPB0408
触发模式: 0
积分时间 (秒): 1.000000E-2
Scans to average: 1
启用暗噪声校正: true
启用非线性校正: false
滑动平均宽度: 0
X轴模式: Wavelengths
Number of Pixels in Spectrum: 1044
>>>>>Begin Spectral Data<<<<<
220.843	-2.12
221.644	-2.12
222.444	-1.12
223.244	-0.12
224.045	-0.12
224.845	1.88
225.645	0.88
226.445	-1.12
227.245	-1.12
228.045	-0.12
228.845	-1.12
229.645	0.88
230.444	-0.12
231.244	-3.12
232.043	0.88
232.843	-3.12
233.642	-1.12
234.442	-1.12
235.241	0.88
236.04	0.88
236.839	0.88
237.638	-1.12
238.437	-2.12
239.236	0.88
240.035	0.88
240.833	2.88
241.632	0.88
242.43	-1.12
243.229	0.88
244.027	0.88
244.826	0.88
245.624	0.88
246.422	1.88
247.22	3.88
248.018	-0.12
248.816	1.88
249.614	1.88
250.412	0.88
251.21	-0.12
252.007	4.88
252.805	2.88
253.602	2.88
254.4	1.88
255.197	1.88
255.994	2.88
256.791	3.88
257.589	2.88
258.386	2.88
259.183	1.88
259.979	1.88
260.776	0.88
261.573	4.88
262.37	3.88
263.166	4.88
263.963	3.88
264.759	3.88
265.556	2.88
266.352	0.88
267.148	3.88
267.944	3.88
268.74	5.88
269.536	4.88
270.332	3.88
271.128	4.88
271.924	4.88
272.719	5.88
273.515	5.88
274.311	7.88
275.106	8.88
275.901	7.88
276.697	4.88
277.492	9.88
278.287	7.88
279.082	7.88
279.877	7.88
280.672	8.88
281.467	7.88
282.262	8.88
283.056	6.88
283.851	8.88
284.646	10.88
285.44	9.88
286.234	9.88
287.029	8.88
287.823	10.88
288.617	7.88
289.411	8.88
290.205	8.88
290.999	7.88
291.793	9.88
292.587	7.88
293.381	8.88
294.174	10.88
294.968	7.88
295.761	11.88
296.555	10.88
297.348	7.88
298.141	6.88
298.935	9.88
299.728	9.88
300.521	9.88
301.314	7.88
302.107	5.88
302.899	5.88
303.692	8.88
304.485	7.88
305.277	5.88
306.07	6.88
306.862	7.88
307.655	4.88
308.447	6.88
309.239	6.88
310.031	4.88
310.823	7.88
311.615	6.88
312.407	6.88
313.199	4.88
313.991	3.88
314.783	3.88
315.574	7.88
316.366	5.88
317.157	3.88
317.949	3.88
318.74	2.88
319.531	5.88
320.322	4.88
321.113	5.88
321.904	5.88
322.695	4.88
323.486	3.88
324.277	3.88
325.068	3.88
325.858	1.88
326.649	5.88
327.439	3.88
328.23	3.88
329.02	1.88
329.81	3.88
330.6	2.88
331.391	1.88
332.181	6.88
332.971	2.88
333.76	2.88
334.55	4.88
335.34	2.88
336.13	2.88
336.919	1.88
337.709	1.88
338.498	2.88
339.287	0.88
340.077	2.88
340.866	-0.12
341.655	3.88
342.444	1.88
343.233	3.88
344.022	4.88
344.811	2.88
345.6	2.88
346.388	2.88
347.177	3.88
347.965	1.88
348.754	5.88
349.542	1.88
350.33	0.88
351.119	1.88
351.907	-0.12
352.695	2.88
353.483	0.88
354.271	1.88
355.059	3.88
355.846	2.88
356.634	1.88
357.422	1.88
358.209	2.88
358.997	2.88
359.784	1.88
360.571	3.88
361.359	3.88
362.146	1.88
362.933	1.88
363.72	1.88
364.507	0.88
365.294	1.88
366.081	1.88
366.867	1.88
367.654	0.88
368.44	-1.12
369.227	2.88
370.013	0.88
370.8	0.88
371.586	2.88
372.372	2.88
373.158	2.88
373.944	0.88
374.73	1.88
375.516	2.88
376.302	3.88
377.088	1.88
377.873	0.88
378.659	2.88
379.445	0.88
380.23	1.88
381.015	1.88
381.801	0.88
382.586	3.88
383.371	-0.12
384.156	1.88
384.941	0.88
385.726	2.88
386.511	0.88
387.296	2.88
388.08	1.88
388.865	0.88
389.649	2.88
390.434	1.88
391.218	2.88
392.003	2.88
392.787	3.88
393.571	1.88
394.355	0.88
395.139	2.88
395.923	3.88
396.707	4.88
397.491	2.88
398.274	1.88
399.058	4.88
399.842	3.88
400.625	1.88
401.408	1.88
402.192	3.88
402.975	2.88
403.758	2.88
404.541	3.88
405.324	1.88
406.107	2.88
406.89	4.88
407.673	3.88
408.456	3.88
409.238	2.88
410.021	4.88
410.803	4.88
411.586	1.88
412.368	4.88
413.151	3.88
413.933	3.88
414.715	4.88
415.497	4.88
416.279	3.88
417.061	5.88
417.843	2.88
418.624	3.88
419.406	4.88
420.188	3.88
420.969	4.88
421.751	3.88
422.532	6.88
423.313	5.88
424.095	4.88
424.876	3.88
425.657	1.88
426.438	4.88
427.219	5.88
428	6.88
428.78	5.88
429.561	5.88
430.342	6.88
431.122	6.88
431.903	4.88
432.683	6.88
433.464	8.88
434.244	7.88
435.024	7.88
435.804	7.88
436.584	7.88
437.364	9.88
438.144	9.88
438.924	10.88
439.704	8.88
440.483	10.88
441.263	12.88
442.042	11.88
442.822	13.88
443.601	13.88
444.38	14.88
445.16	16.88
445.939	16.88
446.718	18.88
447.497	17.88
448.276	20.88
449.054	20.88
449.833	24.88
450.612	26.88
451.391	28.88
452.169	32.88
452.948	32.88
453.726	36.88
454.504	41.88
455.282	47.88
456.061	49.88
456.839	56.88
457.617	64.88
458.395	66.88
459.172	74.88
459.95	84.88
460.728	94.88
461.506	105.88
462.283	115.88
463.061	127.88
463.838	141.88
464.615	156.88
465.393	175.88
466.17	196.88
466.947	211.88
467.724	234.88
468.501	265.88
469.278	286.88
470.055	328.88
470.831	369.88
471.608	401.88
472.385	444.88
473.161	491.88
473.938	545.88
474.714	598.88
475.49	656.88
476.266	717.88
477.043	807.88
477.819	881.88
478.595	961.88
479.371	1066.88
480.146	1158.88
480.922	1279.88
481.698	1397.88
482.473	1516.88
483.249	1663.88
484.024	1824.88
484.8	1990.88
485.575	2191.88
486.35	2379.88
487.126	2614.88
487.901	2835.88
488.676	3104.88
489.451	3395.88
490.225	3674.88
491	4024.88
491.775	4394.88
492.55	4772.88
493.324	5185.88
494.099	5610.88
494.873	6106.88
495.647	6650.88
496.422	7184.88
497.196	7700.88
497.97	8315.88
498.744	8941.88
499.518	9592.88
500.292	10192.88
501.066	10823.88
501.839	11468.88
502.613	12043.88
503.387	12585.88
504.16	13189.88
504.934	13647.88
505.707	14070.88
506.48	14409.88
507.253	14714.88
508.027	14854.88
508.8	15001.88
509.573	15004.88
510.346	14974.88
511.118	14770.88
511.891	14541.88
512.664	14264.88
513.437	13892.88
514.209	13500.88
514.982	13066.88
515.754	12612.88
516.526	12141.88
517.298	11643.88
518.071	11198.88
518.843	10712.88
519.615	10269.88
520.387	9837.88
521.159	9462.88
521.93	9078.88
522.702	8708.88
523.474	8405.88
524.245	8058.88
525.017	7749.88
525.788	7425.88
526.56	7114.88
527.331	6859.88
528.102	6582.88
528.873	6315.88
529.644	6056.88
530.415	5779.88
531.186	5516.88
531.957	5278.88
532.728	4998.88
533.498	4747.88
534.269	4527.88
535.039	4310.88
535.81	4070.88
536.58	3843.88
537.351	3630.88
538.121	3459.88
538.891	3263.88
539.661	3076.88
540.431	2911.88
541.201	2775.88
541.971	2628.88
542.741	2468.88
543.51	2341.88
544.28	2210.88
545.05	2109.88
545.819	1999.88
546.588	1911.88
547.358	1803.88
548.127	1727.88
548.896	1634.88
549.665	1561.88
550.434	1491.88
551.203	1399.88
551.972	1335.88
552.741	1262.88
553.51	1212.88
554.278	1133.88
555.047	1084.88
555.815	1009.88
556.584	959.88
557.352	901.88
558.121	868.88
558.889	816.88
559.657	764.88
560.425	727.88
561.193	683.88
561.961	637.88
562.729	605.88
563.496	573.88
564.264	536.88
565.032	502.88
565.799	476.88
566.567	452.88
567.334	436.88
568.101	402.88
568.869	384.88
569.636	361.88
570.403	340.88
571.17	326.88
571.937	299.88
572.704	285.88
573.471	265.88
574.237	255.88
575.004	239.88
575.771	228.88
576.537	209.88
577.303	201.88
578.07	186.88
578.836	176.88
579.602	163.88
580.368	160.88
581.134	148.88
581.9	134.88
582.666	135.88
583.432	124.88
584.198	120.88
584.964	110.88
585.729	105.88
586.495	101.88
587.26	94.88
588.025	91.88
588.791	83.88
589.556	77.88
590.321	76.88
591.086	73.88
591.851	66.88
592.616	63.88
593.381	63.88
594.146	60.88
594.911	56.88
595.675	53.88
596.44	49.88
597.204	45.88
597.969	43.88
598.733	42.88
599.497	43.88
600.261	39.88
601.025	35.88
601.79	33.88
602.553	38.88
603.317	31.88
604.081	32.88
604.845	28.88
605.609	29.88
606.372	24.88
607.136	28.88
607.899	21.88
608.662	22.88
609.426	22.88
610.189	22.88
610.952	20.88
611.715	17.88
612.478	17.88
613.241	18.88
614.004	15.88
614.767	16.88
615.529	12.88
616.292	14.88
617.055	15.88
617.817	14.88
618.579	12.88
619.342	13.88
620.104	12.88
620.866	11.88
621.628	13.88
622.39	12.88
623.152	13.88
623.914	9.88
624.676	8.88
625.438	7.88
626.199	8.88
626.961	11.88
627.722	7.88
628.484	8.88
629.245	7.88
630.006	6.88
630.768	8.88
631.529	8.88
632.29	7.88
633.051	6.88
633.812	8.88
634.573	6.88
635.333	5.88
636.094	7.88
636.855	5.88
637.615	4.88
638.376	4.88
639.136	6.88
639.896	6.88
640.657	3.88
641.417	3.88
642.177	2.88
642.937	3.88
643.697	2.88
644.457	5.88
645.216	4.88
645.976	3.88
646.736	4.88
647.495	4.88
648.255	4.88
649.014	2.88
649.774	2.88
650.533	2.88
651.292	2.88
652.051	4.88
652.81	3.88
653.569	3.88
654.328	3.88
655.087	1.88
655.846	4.88
656.604	1.88
657.363	3.88
658.121	1.88
658.88	4.88
659.638	2.88
660.397	2.88
661.155	2.88
661.913	0.88
662.671	3.88
663.429	0.88
664.187	2.88
664.945	2.88
665.703	1.88
666.46	2.88
667.218	3.88
667.976	2.88
668.733	-0.12
669.49	3.88
670.248	0.88
671.005	1.88
671.762	1.88
672.519	-0.12
673.276	2.88
674.033	-0.12
674.79	1.88
675.547	3.88
676.304	0.88
677.06	3.88
677.817	0.88
678.574	1.88
679.33	3.88
680.086	0.88
680.843	1.88
681.599	1.88
682.355	1.88
683.111	0.88
683.867	2.88
684.623	0.88
685.379	-1.12
686.135	2.88
686.89	2.88
687.646	3.88
688.402	0.88
689.157	2.88
689.912	0.88
690.668	2.88
691.423	0.88
692.178	-2.12
692.933	2.88
693.688	3.88
694.443	1.88
695.198	0.88
695.953	2.88
696.708	1.88
697.462	-0.12
698.217	1.88
698.972	-0.12
699.726	0.88
700.48	-0.12
701.235	0.88
701.989	1.88
702.743	-0.12
703.497	-1.12
704.251	0.88
705.005	1.88
705.759	3.88
706.513	1.88
707.266	1.88
708.02	0.88
708.774	2.88
709.527	1.88
710.28	3.88
711.034	0.88
711.787	-1.12
712.54	-0.12
713.293	-2.12
714.046	0.88
714.799	2.88
715.552	-0.12
716.305	-2.12
717.058	-0.12
717.81	2.88
718.563	2.88
719.315	1.88
720.068	1.88
720.82	0.88
721.573	1.88
722.325	0.88
723.077	2.88
723.829	1.88
724.581	1.88
725.333	0.88
726.085	0.88
726.836	0.88
727.588	1.88
728.34	1.88
729.091	2.88
729.843	2.88
730.594	1.88
731.346	1.88
732.097	3.88
732.848	0.88
733.599	1.88
734.35	0.88
735.101	-1.12
735.852	0.88
736.603	-0.12
737.354	2.88
738.104	1.88
738.855	2.88
739.605	-0.12
740.356	0.88
741.106	-0.12
741.856	2.88
742.607	2.88
743.357	1.88
744.107	2.88
744.857	0.88
745.607	1.88
746.357	2.88
747.106	1.88
747.856	1.88
748.606	-0.12
749.355	2.88
750.105	0.88
750.854	1.88
751.603	0.88
752.353	1.88
753.102	0.88
753.851	1.88
754.6	0.88
755.349	3.88
756.098	2.88
756.847	2.88
757.595	2.88
758.344	0.88
759.093	0.88
759.841	2.88
760.589	2.88
761.338	1.88
762.086	1.88
762.834	2.88
763.582	0.88
764.331	4.88
765.079	1.88
765.826	1.88
766.574	4.88
767.322	2.88
768.07	0.88
768.817	1.88
769.565	2.88
770.312	1.88
771.06	1.88
771.807	5.88
772.554	0.88
773.302	0.88
774.049	1.88
774.796	0.88
775.543	4.88
776.29	2.88
777.036	3.88
777.783	2.88
778.53	2.88
779.276	1.88
780.023	1.88
780.769	5.88
781.516	4.88
782.262	2.88
783.008	4.88
783.754	2.88
784.5	3.88
785.246	2.88
785.992	3.88
786.738	4.88
787.484	2.88
788.23	5.88
788.975	4.88
789.721	4.88
790.466	3.88
791.212	3.88
791.957	1.88
792.702	7.88
793.447	2.88
794.193	3.88
794.938	5.88
795.683	2.88
796.427	4.88
797.172	2.88
797.917	3.88
798.662	2.88
799.406	1.88
800.151	2.88
800.895	2.88
801.64	4.88
802.384	0.88
803.128	2.88
803.872	4.88
804.616	2.88
805.36	2.88
806.104	1.88
806.848	1.88
807.592	2.88
808.336	4.88
809.079	2.88
809.823	2.88
810.566	0.88
811.31	1.88
812.053	2.88
812.796	3.88
813.539	3.88
814.283	0.88
815.026	0.88
815.769	3.88
816.511	1.88
817.254	4.88
817.997	1.88
818.74	1.88
819.482	3.88
820.225	1.88
820.967	3.88
821.71	0.88
822.452	1.88
823.194	2.88
823.936	2.88
824.678	1.88
825.42	1.88
826.162	0.88
826.904	0.88
827.646	2.88
828.388	0.88
829.129	0.88
829.871	-0.12
830.612	1.88
831.354	1.88
832.095	0.88
832.836	1.88
833.577	2.88
834.319	1.88
835.06	1.88
835.801	3.88
836.542	1.88
837.282	-0.12
838.023	1.88
838.764	2.88
839.504	1.88
840.245	0.88
840.985	1.88
841.726	-0.12
842.466	0.88
843.206	-1.12
843.946	1.88
844.687	0.88
845.427	2.88
846.166	1.88
846.906	0.88
847.646	0.88
848.386	0.88
849.125	1.88
849.865	1.88
850.605	3.88
851.344	-0.12
852.083	4.88
852.823	-0.12
853.562	3.88
854.301	-0.12
855.04	1.88
855.779	0.88
856.518	0.88
857.257	0.88
857.995	-0.12
858.734	0.88
859.473	-2.12
860.211	0.88
860.95	1.88
861.688	-0.12
862.426	-0.12
863.165	-0.12
863.903	0.88
864.641	0.88
865.379	0.88
866.117	-0.12
866.855	-0.12
867.593	-0.12
868.33	-0.12
869.068	1.88
869.806	1.88
870.543	-0.12
871.28	0.88
872.018	-0.12
872.755	3.88
873.492	-0.12
874.229	1.88
874.967	-0.12
875.703	2.88
876.44	1.88
877.177	0.88
877.914	-0.12
878.651	0.88
879.387	-1.12
880.124	1.88
880.86	-0.12
881.597	0.88
882.333	1.88
883.069	0.88
883.806	-1.12
884.542	-1.12
885.278	-1.12
886.014	0.88
886.749	-0.12
887.485	-1.12
888.221	0.88
888.957	-0.12
889.692	-1.12
890.428	0.88
891.163	-2.12
891.899	-0.12
892.634	-3.12
893.369	0.88
894.104	0.88
894.839	0.88
895.574	-1.12
896.309	1.88
897.044	0.88
897.779	-0.12
898.514	1.88
899.248	-0.12
899.983	-0.12
900.717	-1.12
901.452	-0.12
902.186	-1.12
902.92	0.88
903.654	1.88
904.389	-2.12
905.123	0.88
905.857	0.88
906.59	-1.12
907.324	0.88
908.058	-1.12
908.792	1.88
909.525	-1.12
910.259	-1.12
910.992	-1.12
911.726	0.88
912.459	-0.12
913.192	-2.12
913.925	-1.12
914.658	-4.12
915.391	1.88
916.124	-0.12
916.857	0.88
917.59	-1.12
918.323	-2.12
919.055	-1.12
919.788	0.88
920.521	0.88
921.253	0.88
921.985	-1.12
922.718	-2.12
923.45	1.88
924.182	0.88
924.914	0.88
925.646	0.88
926.378	2.88
927.11	-0.12
927.841	0.88
928.573	-0.12
929.305	-1.12
930.036	-0.12
930.768	0.88
931.499	-1.12
932.23	-2.12
932.962	0.88
933.693	-0.12
934.424	-0.12
935.155	0.88
935.886	0.88
936.617	1.88
937.348	-0.12
938.078	-0.12
938.809	-2.12
939.54	-1.12
940.27	0.88
941.001	-0.12
941.731	-2.12
942.461	-1.12
943.191	-0.12
943.922	-0.12
944.652	0.88
945.382	-0.12
946.112	-2.12
946.841	1.88
947.571	-0.12
948.301	-0.12
949.031	-0.12
949.76	-2.12
950.49	0.88
951.219	-3.12
951.948	-0.12
952.678	-0.12
953.407	0.88
954.136	0.88
954.865	-2.12
955.594	-2.12
956.323	-0.12
957.052	-1.12
957.78	0.88
958.509	1.88
959.238	-2.12
959.966	1.88
960.695	-0.12
961.423	0.88
962.151	-0.12
962.88	-0.12
963.608	1.88
964.336	0.88
965.064	1.88
965.792	0.88
966.52	1.88
967.247	1.88
967.975	-0.12
968.703	-0.12
969.43	-1.12
970.158	-1.12
970.885	-1.12
971.613	-1.12
972.34	0.88
973.067	-1.12
973.794	0.88
974.521	-1.12
975.248	-0.12
975.975	-0.12
976.702	-1.12
977.429	0.88
978.156	-1.12
978.882	1.88
979.609	-2.12
980.335	-0.12
981.062	0.88
981.788	-0.12
982.514	-0.12
983.24	-0.12
983.967	-2.12
984.693	-0.12
985.419	-2.12
986.144	-2.12
986.87	-0.12
987.596	0.88
988.322	-1.12
989.047	-0.12
989.773	1.88
990.498	-0.12
991.224	-0.12
991.949	-0.12
992.674	-0.12
993.399	0.88
994.124	-1.12
994.849	-0.12
995.574	-0.12
996.299	-0.12
997.024	-1.12
997.749	-1.12
998.473	0.88
999.198	-2.12
999.922	1.88
1000.647	-1.12
1001.371	4.88
1002.095	-0.12
1002.82	-1.12
1003.544	-0.12
1004.268	-2.12
1004.992	0.88
1005.716	1.88
1006.439	-2.12
1007.163	-0.12
1007.887	-1.12
1008.611	0.88
1009.334	-1.12
1010.058	-1.12
1010.781	-0.12
1011.504	-0.12
1012.228	-2.12
1012.951	-0.12
1013.674	-0.12
1014.397	-3.12
1015.12	-0.12
