节点500_145_QEPB04081__466__11-36-23-545.txt的数据

Date: Wed Nov 12 11:36:23 CST 2025
User: PC
Spectrometer: QEPB0408
触发模式: 0
积分时间 (秒): 1.000000E-2
Scans to average: 1
启用暗噪声校正: true
启用非线性校正: false
滑动平均宽度: 0
X轴模式: Wavelengths
Number of Pixels in Spectrum: 1044
>>>>>Begin Spectral Data<<<<<
220.843	-1.5
221.644	-0.5
222.444	1.5
223.244	-2.5
224.045	0.5
224.845	-0.5
225.645	0.5
226.445	0.5
227.245	1.5
228.045	0.5
228.845	0.5
229.645	1.5
230.444	-1.5
231.244	0.5
232.043	1.5
232.843	-1.5
233.642	1.5
234.442	1.5
235.241	0.5
236.04	1.5
236.839	1.5
237.638	1.5
238.437	1.5
239.236	0.5
240.035	1.5
240.833	1.5
241.632	1.5
242.43	1.5
243.229	0.5
244.027	2.5
244.826	2.5
245.624	1.5
246.422	1.5
247.22	-0.5
248.018	2.5
248.816	-0.5
249.614	3.5
250.412	3.5
251.21	3.5
252.007	3.5
252.805	1.5
253.602	2.5
254.4	3.5
255.197	1.5
255.994	3.5
256.791	3.5
257.589	5.5
258.386	2.5
259.183	1.5
259.979	3.5
260.776	5.5
261.573	5.5
262.37	3.5
263.166	5.5
263.963	3.5
264.759	6.5
265.556	4.5
266.352	6.5
267.148	4.5
267.944	5.5
268.74	8.5
269.536	5.5
270.332	7.5
271.128	6.5
271.924	6.5
272.719	9.5
273.515	6.5
274.311	6.5
275.106	8.5
275.901	9.5
276.697	8.5
277.492	9.5
278.287	8.5
279.082	10.5
279.877	9.5
280.672	7.5
281.467	9.5
282.262	13.5
283.056	9.5
283.851	11.5
284.646	10.5
285.44	10.5
286.234	10.5
287.029	9.5
287.823	10.5
288.617	9.5
289.411	12.5
290.205	9.5
290.999	9.5
291.793	11.5
292.587	9.5
293.381	12.5
294.174	7.5
294.968	11.5
295.761	10.5
296.555	9.5
297.348	10.5
298.141	8.5
298.935	10.5
299.728	7.5
300.521	9.5
301.314	7.5
302.107	10.5
302.899	8.5
303.692	7.5
304.485	9.5
305.277	8.5
306.07	8.5
306.862	10.5
307.655	10.5
308.447	7.5
309.239	8.5
310.031	7.5
310.823	6.5
311.615	9.5
312.407	6.5
313.199	6.5
313.991	5.5
314.783	7.5
315.574	8.5
316.366	4.5
317.157	5.5
317.949	4.5
318.74	4.5
319.531	4.5
320.322	4.5
321.113	7.5
321.904	5.5
322.695	6.5
323.486	4.5
324.277	4.5
325.068	5.5
325.858	2.5
326.649	4.5
327.439	5.5
328.23	4.5
329.02	3.5
329.81	3.5
330.6	5.5
331.391	2.5
332.181	4.5
332.971	5.5
333.76	2.5
334.55	5.5
335.34	3.5
336.13	2.5
336.919	2.5
337.709	2.5
338.498	0.5
339.287	3.5
340.077	4.5
340.866	3.5
341.655	1.5
342.444	1.5
343.233	5.5
344.022	1.5
344.811	2.5
345.6	4.5
346.388	3.5
347.177	4.5
347.965	3.5
348.754	5.5
349.542	6.5
350.33	6.5
351.119	3.5
351.907	3.5
352.695	3.5
353.483	3.5
354.271	1.5
355.059	3.5
355.846	1.5
356.634	2.5
357.422	2.5
358.209	4.5
358.997	5.5
359.784	4.5
360.571	1.5
361.359	3.5
362.146	2.5
362.933	4.5
363.72	2.5
364.507	2.5
365.294	2.5
366.081	1.5
366.867	3.5
367.654	3.5
368.44	2.5
369.227	2.5
370.013	3.5
370.8	5.5
371.586	2.5
372.372	3.5
373.158	4.5
373.944	1.5
374.73	3.5
375.516	0.5
376.302	5.5
377.088	2.5
377.873	1.5
378.659	2.5
379.445	1.5
380.23	5.5
381.015	1.5
381.801	4.5
382.586	3.5
383.371	3.5
384.156	1.5
384.941	4.5
385.726	2.5
386.511	2.5
387.296	3.5
388.08	3.5
388.865	2.5
389.649	2.5
390.434	2.5
391.218	4.5
392.003	5.5
392.787	3.5
393.571	3.5
394.355	2.5
395.139	1.5
395.923	1.5
396.707	4.5
397.491	1.5
398.274	2.5
399.058	4.5
399.842	3.5
400.625	2.5
401.408	6.5
402.192	5.5
402.975	3.5
403.758	2.5
404.541	4.5
405.324	3.5
406.107	5.5
406.89	4.5
407.673	3.5
408.456	2.5
409.238	5.5
410.021	3.5
410.803	4.5
411.586	6.5
412.368	5.5
413.151	3.5
413.933	5.5
414.715	2.5
415.497	6.5
416.279	3.5
417.061	5.5
417.843	5.5
418.624	7.5
419.406	2.5
420.188	4.5
420.969	7.5
421.751	5.5
422.532	6.5
423.313	4.5
424.095	8.5
424.876	8.5
425.657	6.5
426.438	5.5
427.219	5.5
428	7.5
428.78	5.5
429.561	7.5
430.342	7.5
431.122	7.5
431.903	8.5
432.683	5.5
433.464	7.5
434.244	7.5
435.024	9.5
435.804	10.5
436.584	11.5
437.364	7.5
438.144	9.5
438.924	13.5
439.704	11.5
440.483	14.5
441.263	9.5
442.042	12.5
442.822	13.5
443.601	14.5
444.38	15.5
445.16	18.5
445.939	15.5
446.718	16.5
447.497	19.5
448.276	21.5
449.054	22.5
449.833	25.5
450.612	25.5
451.391	32.5
452.169	28.5
452.948	30.5
453.726	38.5
454.504	38.5
455.282	45.5
456.061	47.5
456.839	54.5
457.617	55.5
458.395	62.5
459.172	73.5
459.95	85.5
460.728	85.5
461.506	96.5
462.283	107.5
463.061	119.5
463.838	129.5
464.615	151.5
465.393	164.5
466.17	177.5
466.947	208.5
467.724	224.5
468.501	249.5
469.278	282.5
470.055	311.5
470.831	346.5
471.608	382.5
472.385	430.5
473.161	474.5
473.938	524.5
474.714	583.5
475.49	648.5
476.266	713.5
477.043	788.5
477.819	867.5
478.595	956.5
479.371	1049.5
480.146	1163.5
480.922	1267.5
481.698	1399.5
482.473	1566.5
483.249	1695.5
484.024	1875.5
484.8	2046.5
485.575	2247.5
486.35	2476.5
487.126	2718.5
487.901	2982.5
488.676	3276.5
489.451	3573.5
490.225	3940.5
491	4305.5
491.775	4682.5
492.55	5129.5
493.324	5594.5
494.099	6104.5
494.873	6666.5
495.647	7229.5
496.422	7843.5
497.196	8471.5
497.97	9147.5
498.744	9837.5
499.518	10565.5
500.292	11193.5
501.066	11912.5
501.839	12618.5
502.613	13227.5
503.387	13789.5
504.16	14379.5
504.934	14837.5
505.707	15289.5
506.48	15529.5
507.253	15802.5
508.027	15961.5
508.8	15928.5
509.573	15916.5
510.346	15706.5
511.118	15477.5
511.891	15135.5
512.664	14740.5
513.437	14223.5
514.209	13813.5
514.982	13312.5
515.754	12771.5
516.526	12280.5
517.298	11711.5
518.071	11233.5
518.843	10727.5
519.615	10308.5
520.387	9888.5
521.159	9472.5
521.93	9064.5
522.702	8721.5
523.474	8395.5
524.245	8093.5
525.017	7750.5
525.788	7436.5
526.56	7124.5
527.331	6826.5
528.102	6543.5
528.873	6299.5
529.644	5979.5
530.415	5754.5
531.186	5478.5
531.957	5170.5
532.728	4931.5
533.498	4669.5
534.269	4445.5
535.039	4180.5
535.81	3950.5
536.58	3765.5
537.351	3553.5
538.121	3376.5
538.891	3162.5
539.661	3010.5
540.431	2828.5
541.201	2688.5
541.971	2542.5
542.741	2408.5
543.51	2289.5
544.28	2165.5
545.05	2055.5
545.819	1952.5
546.588	1841.5
547.358	1757.5
548.127	1667.5
548.896	1586.5
549.665	1524.5
550.434	1447.5
551.203	1370.5
551.972	1293.5
552.741	1233.5
553.51	1177.5
554.278	1099.5
555.047	1043.5
555.815	985.5
556.584	925.5
557.352	868.5
558.121	831.5
558.889	770.5
559.657	736.5
560.425	697.5
561.193	651.5
561.961	617.5
562.729	587.5
563.496	557.5
564.264	520.5
565.032	486.5
565.799	453.5
566.567	434.5
567.334	414.5
568.101	390.5
568.869	364.5
569.636	344.5
570.403	330.5
571.17	314.5
571.937	295.5
572.704	275.5
573.471	250.5
574.237	245.5
575.004	228.5
575.771	208.5
576.537	201.5
577.303	196.5
578.07	181.5
578.836	173.5
579.602	162.5
580.368	153.5
581.134	142.5
581.9	134.5
582.666	126.5
583.432	125.5
584.198	117.5
584.964	108.5
585.729	102.5
586.495	97.5
587.26	92.5
588.025	84.5
588.791	81.5
589.556	78.5
590.321	73.5
591.086	71.5
591.851	64.5
592.616	61.5
593.381	59.5
594.146	56.5
594.911	53.5
595.675	49.5
596.44	47.5
597.204	44.5
597.969	45.5
598.733	43.5
599.497	38.5
600.261	41.5
601.025	36.5
601.79	34.5
602.553	35.5
603.317	30.5
604.081	34.5
604.845	29.5
605.609	27.5
606.372	25.5
607.136	27.5
607.899	21.5
608.662	23.5
609.426	21.5
610.189	22.5
610.952	21.5
611.715	22.5
612.478	19.5
613.241	18.5
614.004	17.5
614.767	18.5
615.529	16.5
616.292	18.5
617.055	13.5
617.817	14.5
618.579	15.5
619.342	13.5
620.104	14.5
620.866	11.5
621.628	13.5
622.39	13.5
623.152	10.5
623.914	8.5
624.676	9.5
625.438	13.5
626.199	10.5
626.961	11.5
627.722	8.5
628.484	8.5
629.245	11.5
630.006	8.5
630.768	9.5
631.529	9.5
632.29	8.5
633.051	8.5
633.812	7.5
634.573	7.5
635.333	6.5
636.094	8.5
636.855	5.5
637.615	5.5
638.376	7.5
639.136	5.5
639.896	6.5
640.657	6.5
641.417	7.5
642.177	5.5
642.937	6.5
643.697	5.5
644.457	3.5
645.216	6.5
645.976	4.5
646.736	5.5
647.495	4.5
648.255	2.5
649.014	3.5
649.774	5.5
650.533	2.5
651.292	4.5
652.051	4.5
652.81	2.5
653.569	4.5
654.328	4.5
655.087	4.5
655.846	5.5
656.604	1.5
657.363	4.5
658.121	3.5
658.88	4.5
659.638	3.5
660.397	3.5
661.155	5.5
661.913	3.5
662.671	2.5
663.429	3.5
664.187	2.5
664.945	3.5
665.703	2.5
666.46	2.5
667.218	2.5
667.976	1.5
668.733	4.5
669.49	2.5
670.248	2.5
671.005	1.5
671.762	6.5
672.519	2.5
673.276	2.5
674.033	1.5
674.79	3.5
675.547	1.5
676.304	2.5
677.06	2.5
677.817	0.5
678.574	3.5
679.33	2.5
680.086	3.5
680.843	2.5
681.599	0.5
682.355	2.5
683.111	0.5
683.867	2.5
684.623	1.5
685.379	1.5
686.135	2.5
686.89	1.5
687.646	4.5
688.402	1.5
689.157	2.5
689.912	4.5
690.668	2.5
691.423	2.5
692.178	1.5
692.933	2.5
693.688	3.5
694.443	1.5
695.198	5.5
695.953	2.5
696.708	1.5
697.462	1.5
698.217	2.5
698.972	1.5
699.726	2.5
700.48	1.5
701.235	2.5
701.989	5.5
702.743	1.5
703.497	5.5
704.251	5.5
705.005	2.5
705.759	2.5
706.513	2.5
707.266	0.5
708.02	1.5
708.774	2.5
709.527	2.5
710.28	2.5
711.034	2.5
711.787	2.5
712.54	1.5
713.293	0.5
714.046	3.5
714.799	1.5
715.552	2.5
716.305	3.5
717.058	0.5
717.81	0.5
718.563	2.5
719.315	3.5
720.068	1.5
720.82	3.5
721.573	2.5
722.325	2.5
723.077	3.5
723.829	1.5
724.581	1.5
725.333	0.5
726.085	0.5
726.836	1.5
727.588	3.5
728.34	2.5
729.091	1.5
729.843	2.5
730.594	1.5
731.346	6.5
732.097	4.5
732.848	2.5
733.599	1.5
734.35	2.5
735.101	2.5
735.852	0.5
736.603	1.5
737.354	3.5
738.104	4.5
738.855	2.5
739.605	2.5
740.356	4.5
741.106	2.5
741.856	3.5
742.607	4.5
743.357	0.5
744.107	4.5
744.857	3.5
745.607	4.5
746.357	2.5
747.106	4.5
747.856	4.5
748.606	2.5
749.355	3.5
750.105	1.5
750.854	5.5
751.603	4.5
752.353	1.5
753.102	2.5
753.851	3.5
754.6	4.5
755.349	2.5
756.098	2.5
756.847	3.5
757.595	3.5
758.344	2.5
759.093	5.5
759.841	5.5
760.589	2.5
761.338	3.5
762.086	4.5
762.834	2.5
763.582	3.5
764.331	4.5
765.079	2.5
765.826	5.5
766.574	3.5
767.322	4.5
768.07	2.5
768.817	6.5
769.565	3.5
770.312	5.5
771.06	4.5
771.807	4.5
772.554	4.5
773.302	5.5
774.049	4.5
774.796	4.5
775.543	4.5
776.29	7.5
777.036	5.5
777.783	5.5
778.53	4.5
779.276	5.5
780.023	4.5
780.769	7.5
781.516	3.5
782.262	7.5
783.008	6.5
783.754	4.5
784.5	4.5
785.246	4.5
785.992	5.5
786.738	4.5
787.484	5.5
788.23	5.5
788.975	6.5
789.721	7.5
790.466	4.5
791.212	6.5
791.957	6.5
792.702	5.5
793.447	6.5
794.193	4.5
794.938	4.5
795.683	5.5
796.427	3.5
797.172	5.5
797.917	4.5
798.662	5.5
799.406	3.5
800.151	4.5
800.895	4.5
801.64	3.5
802.384	2.5
803.128	6.5
803.872	5.5
804.616	2.5
805.36	5.5
806.104	2.5
806.848	4.5
807.592	4.5
808.336	3.5
809.079	3.5
809.823	3.5
810.566	2.5
811.31	3.5
812.053	6.5
812.796	1.5
813.539	3.5
814.283	2.5
815.026	3.5
815.769	5.5
816.511	2.5
817.254	4.5
817.997	4.5
818.74	1.5
819.482	3.5
820.225	3.5
820.967	2.5
821.71	3.5
822.452	4.5
823.194	2.5
823.936	2.5
824.678	4.5
825.42	2.5
826.162	1.5
826.904	4.5
827.646	1.5
828.388	3.5
829.129	3.5
829.871	2.5
830.612	1.5
831.354	4.5
832.095	3.5
832.836	3.5
833.577	1.5
834.319	3.5
835.06	3.5
835.801	2.5
836.542	5.5
837.282	1.5
838.023	1.5
838.764	2.5
839.504	2.5
840.245	1.5
840.985	3.5
841.726	4.5
842.466	1.5
843.206	1.5
843.946	3.5
844.687	3.5
845.427	3.5
846.166	1.5
846.906	0.5
847.646	1.5
848.386	4.5
849.125	3.5
849.865	1.5
850.605	2.5
851.344	0.5
852.083	3.5
852.823	1.5
853.562	2.5
854.301	2.5
855.04	2.5
855.779	1.5
856.518	1.5
857.257	1.5
857.995	1.5
858.734	3.5
859.473	1.5
860.211	1.5
860.95	1.5
861.688	1.5
862.426	1.5
863.165	1.5
863.903	1.5
864.641	2.5
865.379	2.5
866.117	2.5
866.855	0.5
867.593	3.5
868.33	3.5
869.068	2.5
869.806	1.5
870.543	0.5
871.28	4.5
872.018	-0.5
872.755	-0.5
873.492	0.5
874.229	0.5
874.967	0.5
875.703	2.5
876.44	0.5
877.177	-1.5
877.914	1.5
878.651	1.5
879.387	1.5
880.124	0.5
880.86	-0.5
881.597	1.5
882.333	-0.5
883.069	0.5
883.806	1.5
884.542	1.5
885.278	0.5
886.014	1.5
886.749	0.5
887.485	1.5
888.221	1.5
888.957	0.5
889.692	1.5
890.428	-0.5
891.163	1.5
891.899	4.5
892.634	0.5
893.369	0.5
894.104	1.5
894.839	-0.5
895.574	-0.5
896.309	1.5
897.044	0.5
897.779	-0.5
898.514	2.5
899.248	-0.5
899.983	-0.5
900.717	1.5
901.452	0.5
902.186	0.5
902.92	0.5
903.654	-1.5
904.389	-1.5
905.123	1.5
905.857	0.5
906.59	0.5
907.324	-0.5
908.058	1.5
908.792	1.5
909.525	-1.5
910.259	0.5
910.992	-0.5
911.726	-0.5
912.459	2.5
913.192	-0.5
913.925	2.5
914.658	-1.5
915.391	1.5
916.124	1.5
916.857	-0.5
917.59	1.5
918.323	-1.5
919.055	2.5
919.788	0.5
920.521	-0.5
921.253	2.5
921.985	-2.5
922.718	2.5
923.45	-1.5
924.182	3.5
924.914	1.5
925.646	-1.5
926.378	0.5
927.11	-0.5
927.841	2.5
928.573	-0.5
929.305	1.5
930.036	0.5
930.768	-0.5
931.499	1.5
932.23	3.5
932.962	2.5
933.693	0.5
934.424	-2.5
935.155	2.5
935.886	-0.5
936.617	0.5
937.348	0.5
938.078	0.5
938.809	1.5
939.54	1.5
940.27	0.5
941.001	-0.5
941.731	0.5
942.461	-0.5
943.191	-0.5
943.922	1.5
944.652	-1.5
945.382	0.5
946.112	0.5
946.841	1.5
947.571	-1.5
948.301	-0.5
949.031	0.5
949.76	1.5
950.49	1.5
951.219	-0.5
951.948	0.5
952.678	2.5
953.407	1.5
954.136	1.5
954.865	-1.5
955.594	1.5
956.323	3.5
957.052	1.5
957.78	-1.5
958.509	-0.5
959.238	1.5
959.966	1.5
960.695	1.5
961.423	-2.5
962.151	-1.5
962.88	-1.5
963.608	1.5
964.336	3.5
965.064	1.5
965.792	0.5
966.52	-1.5
967.247	2.5
967.975	1.5
968.703	-1.5
969.43	0.5
970.158	-0.5
970.885	-1.5
971.613	0.5
972.34	-0.5
973.067	-0.5
973.794	-0.5
974.521	0.5
975.248	-1.5
975.975	0.5
976.702	1.5
977.429	1.5
978.156	2.5
978.882	-0.5
979.609	-1.5
980.335	0.5
981.062	1.5
981.788	1.5
982.514	1.5
983.24	1.5
983.967	0.5
984.693	1.5
985.419	-0.5
986.144	-1.5
986.87	0.5
987.596	1.5
988.322	-0.5
989.047	0.5
989.773	1.5
990.498	-0.5
991.224	1.5
991.949	-0.5
992.674	1.5
993.399	1.5
994.124	-1.5
994.849	2.5
995.574	0.5
996.299	1.5
997.024	-1.5
997.749	-2.5
998.473	0.5
999.198	0.5
999.922	-0.5
1000.647	-1.5
1001.371	3.5
1002.095	-2.5
1002.82	-0.5
1003.544	-0.5
1004.268	-0.5
1004.992	-0.5
1005.716	-1.5
1006.439	-1.5
1007.163	-1.5
1007.887	-0.5
1008.611	1.5
1009.334	2.5
1010.058	1.5
1010.781	-0.5
1011.504	0.5
1012.228	1.5
1012.951	1.5
1013.674	-0.5
1014.397	0.5
1015.12	-1.5
