节点500_145_QEPB04081__145__11-31-15-617.txt的数据

Date: Wed Nov 12 11:31:15 CST 2025
User: PC
Spectrometer: QEPB0408
触发模式: 0
积分时间 (秒): 1.000000E-2
Scans to average: 1
启用暗噪声校正: true
启用非线性校正: false
滑动平均宽度: 0
X轴模式: Wavelengths
Number of Pixels in Spectrum: 1044
>>>>>Begin Spectral Data<<<<<
220.843	-1.12
221.644	-1.12
222.444	-2.12
223.244	-0.12
224.045	-1.12
224.845	-2.12
225.645	0.88
226.445	-3.12
227.245	-2.12
228.045	0.88
228.845	-1.12
229.645	0.88
230.444	-0.12
231.244	-0.12
232.043	0.88
232.843	0.88
233.642	-0.12
234.442	0.88
235.241	3.88
236.04	0.88
236.839	-0.12
237.638	1.88
238.437	-0.12
239.236	1.88
240.035	0.88
240.833	2.88
241.632	-0.12
242.43	-1.12
243.229	1.88
244.027	1.88
244.826	-0.12
245.624	0.88
246.422	0.88
247.22	3.88
248.018	2.88
248.816	2.88
249.614	1.88
250.412	1.88
251.21	1.88
252.007	0.88
252.805	2.88
253.602	2.88
254.4	1.88
255.197	0.88
255.994	3.88
256.791	1.88
257.589	4.88
258.386	0.88
259.183	5.88
259.979	5.88
260.776	4.88
261.573	4.88
262.37	3.88
263.166	4.88
263.963	7.88
264.759	3.88
265.556	5.88
266.352	5.88
267.148	6.88
267.944	6.88
268.74	6.88
269.536	6.88
270.332	6.88
271.128	7.88
271.924	5.88
272.719	9.88
273.515	8.88
274.311	9.88
275.106	7.88
275.901	8.88
276.697	9.88
277.492	8.88
278.287	9.88
279.082	8.88
279.877	9.88
280.672	11.88
281.467	10.88
282.262	11.88
283.056	13.88
283.851	9.88
284.646	11.88
285.44	11.88
286.234	11.88
287.029	11.88
287.823	9.88
288.617	12.88
289.411	10.88
290.205	9.88
290.999	8.88
291.793	9.88
292.587	10.88
293.381	8.88
294.174	8.88
294.968	11.88
295.761	10.88
296.555	7.88
297.348	10.88
298.141	10.88
298.935	10.88
299.728	10.88
300.521	8.88
301.314	10.88
302.107	7.88
302.899	6.88
303.692	8.88
304.485	7.88
305.277	4.88
306.07	6.88
306.862	8.88
307.655	8.88
308.447	5.88
309.239	6.88
310.031	8.88
310.823	7.88
311.615	3.88
312.407	8.88
313.199	6.88
313.991	6.88
314.783	4.88
315.574	5.88
316.366	4.88
317.157	6.88
317.949	4.88
318.74	6.88
319.531	5.88
320.322	6.88
321.113	4.88
321.904	1.88
322.695	4.88
323.486	4.88
324.277	6.88
325.068	3.88
325.858	3.88
326.649	3.88
327.439	1.88
328.23	2.88
329.02	2.88
329.81	3.88
330.6	3.88
331.391	4.88
332.181	4.88
332.971	1.88
333.76	1.88
334.55	2.88
335.34	5.88
336.13	4.88
336.919	2.88
337.709	2.88
338.498	2.88
339.287	3.88
340.077	4.88
340.866	2.88
341.655	3.88
342.444	2.88
343.233	4.88
344.022	4.88
344.811	1.88
345.6	2.88
346.388	1.88
347.177	0.88
347.965	4.88
348.754	2.88
349.542	1.88
350.33	4.88
351.119	2.88
351.907	0.88
352.695	3.88
353.483	1.88
354.271	1.88
355.059	3.88
355.846	3.88
356.634	1.88
357.422	1.88
358.209	3.88
358.997	2.88
359.784	1.88
360.571	1.88
361.359	3.88
362.146	2.88
362.933	2.88
363.72	6.88
364.507	1.88
365.294	1.88
366.081	2.88
366.867	1.88
367.654	2.88
368.44	3.88
369.227	1.88
370.013	3.88
370.8	2.88
371.586	0.88
372.372	3.88
373.158	2.88
373.944	0.88
374.73	1.88
375.516	2.88
376.302	3.88
377.088	2.88
377.873	1.88
378.659	1.88
379.445	3.88
380.23	-1.12
381.015	2.88
381.801	0.88
382.586	4.88
383.371	1.88
384.156	4.88
384.941	2.88
385.726	2.88
386.511	1.88
387.296	2.88
388.08	2.88
388.865	3.88
389.649	4.88
390.434	4.88
391.218	2.88
392.003	1.88
392.787	3.88
393.571	2.88
394.355	1.88
395.139	3.88
395.923	3.88
396.707	1.88
397.491	2.88
398.274	2.88
399.058	3.88
399.842	2.88
400.625	4.88
401.408	2.88
402.192	2.88
402.975	3.88
403.758	4.88
404.541	4.88
405.324	2.88
406.107	3.88
406.89	2.88
407.673	3.88
408.456	3.88
409.238	3.88
410.021	3.88
410.803	3.88
411.586	2.88
412.368	4.88
413.151	5.88
413.933	4.88
414.715	3.88
415.497	2.88
416.279	3.88
417.061	3.88
417.843	3.88
418.624	4.88
419.406	4.88
420.188	6.88
420.969	4.88
421.751	6.88
422.532	5.88
423.313	5.88
424.095	8.88
424.876	8.88
425.657	4.88
426.438	6.88
427.219	6.88
428	5.88
428.78	7.88
429.561	6.88
430.342	6.88
431.122	8.88
431.903	8.88
432.683	8.88
433.464	8.88
434.244	8.88
435.024	9.88
435.804	9.88
436.584	7.88
437.364	9.88
438.144	9.88
438.924	11.88
439.704	12.88
440.483	9.88
441.263	12.88
442.042	12.88
442.822	13.88
443.601	14.88
444.38	13.88
445.16	13.88
445.939	13.88
446.718	18.88
447.497	16.88
448.276	17.88
449.054	17.88
449.833	24.88
450.612	23.88
451.391	24.88
452.169	26.88
452.948	26.88
453.726	32.88
454.504	34.88
455.282	38.88
456.061	40.88
456.839	44.88
457.617	50.88
458.395	58.88
459.172	62.88
459.95	67.88
460.728	75.88
461.506	90.88
462.283	91.88
463.061	105.88
463.838	118.88
464.615	135.88
465.393	146.88
466.17	160.88
466.947	185.88
467.724	210.88
468.501	227.88
469.278	248.88
470.055	281.88
470.831	324.88
471.608	348.88
472.385	398.88
473.161	436.88
473.938	500.88
474.714	544.88
475.49	609.88
476.266	674.88
477.043	761.88
477.819	836.88
478.595	925.88
479.371	1029.88
480.146	1138.88
480.922	1258.88
481.698	1405.88
482.473	1549.88
483.249	1701.88
484.024	1908.88
484.8	2103.88
485.575	2322.88
486.35	2565.88
487.126	2857.88
487.901	3144.88
488.676	3482.88
489.451	3863.88
490.225	4233.88
491	4717.88
491.775	5171.88
492.55	5672.88
493.324	6252.88
494.099	6843.88
494.873	7503.88
495.647	8202.88
496.422	8876.88
497.196	9678.88
497.97	10450.88
498.744	11260.88
499.518	12041.88
500.292	12833.88
501.066	13567.88
501.839	14273.88
502.613	14975.88
503.387	15620.88
504.16	16157.88
504.934	16530.88
505.707	16902.88
506.48	17090.88
507.253	17208.88
508.027	17208.88
508.8	17061.88
509.573	16843.88
510.346	16477.88
511.118	16059.88
511.891	15602.88
512.664	15010.88
513.437	14465.88
514.209	13898.88
514.982	13264.88
515.754	12722.88
516.526	12117.88
517.298	11532.88
518.071	11056.88
518.843	10586.88
519.615	10137.88
520.387	9680.88
521.159	9269.88
521.93	8941.88
522.702	8555.88
523.474	8247.88
524.245	7961.88
525.017	7575.88
525.788	7285.88
526.56	7033.88
527.331	6708.88
528.102	6430.88
528.873	6120.88
529.644	5816.88
530.415	5570.88
531.186	5274.88
531.957	4999.88
532.728	4750.88
533.498	4469.88
534.269	4242.88
535.039	3967.88
535.81	3773.88
536.58	3549.88
537.351	3341.88
538.121	3179.88
538.891	2986.88
539.661	2821.88
540.431	2669.88
541.201	2529.88
541.971	2381.88
542.741	2272.88
543.51	2137.88
544.28	2067.88
545.05	1932.88
545.819	1841.88
546.588	1760.88
547.358	1666.88
548.127	1583.88
548.896	1501.88
549.665	1433.88
550.434	1354.88
551.203	1290.88
551.972	1219.88
552.741	1134.88
553.51	1087.88
554.278	1033.88
555.047	971.88
555.815	909.88
556.584	851.88
557.352	809.88
558.121	769.88
558.889	726.88
559.657	682.88
560.425	643.88
561.193	605.88
561.961	567.88
562.729	536.88
563.496	502.88
564.264	478.88
565.032	454.88
565.799	423.88
566.567	404.88
567.334	378.88
568.101	357.88
568.869	340.88
569.636	316.88
570.403	302.88
571.17	284.88
571.937	277.88
572.704	249.88
573.471	236.88
574.237	223.88
575.004	212.88
575.771	201.88
576.537	186.88
577.303	172.88
578.07	164.88
578.836	153.88
579.602	145.88
580.368	139.88
581.134	133.88
581.9	127.88
582.666	114.88
583.432	112.88
584.198	105.88
584.964	104.88
585.729	89.88
586.495	87.88
587.26	85.88
588.025	80.88
588.791	73.88
589.556	71.88
590.321	65.88
591.086	62.88
591.851	62.88
592.616	59.88
593.381	52.88
594.146	53.88
594.911	48.88
595.675	44.88
596.44	46.88
597.204	45.88
597.969	40.88
598.733	39.88
599.497	38.88
600.261	33.88
601.025	34.88
601.79	29.88
602.553	26.88
603.317	30.88
604.081	26.88
604.845	28.88
605.609	25.88
606.372	22.88
607.136	25.88
607.899	23.88
608.662	20.88
609.426	19.88
610.189	18.88
610.952	19.88
611.715	20.88
612.478	18.88
613.241	18.88
614.004	15.88
614.767	15.88
615.529	16.88
616.292	11.88
617.055	15.88
617.817	11.88
618.579	12.88
619.342	13.88
620.104	11.88
620.866	14.88
621.628	9.88
622.39	11.88
623.152	8.88
623.914	10.88
624.676	11.88
625.438	6.88
626.199	10.88
626.961	9.88
627.722	8.88
628.484	5.88
629.245	7.88
630.006	8.88
630.768	6.88
631.529	9.88
632.29	5.88
633.051	7.88
633.812	6.88
634.573	6.88
635.333	7.88
636.094	6.88
636.855	4.88
637.615	4.88
638.376	7.88
639.136	4.88
639.896	3.88
640.657	4.88
641.417	4.88
642.177	4.88
642.937	5.88
643.697	4.88
644.457	3.88
645.216	6.88
645.976	3.88
646.736	3.88
647.495	3.88
648.255	4.88
649.014	2.88
649.774	3.88
650.533	2.88
651.292	3.88
652.051	2.88
652.81	5.88
653.569	2.88
654.328	2.88
655.087	1.88
655.846	4.88
656.604	4.88
657.363	2.88
658.121	3.88
658.88	3.88
659.638	1.88
660.397	4.88
661.155	2.88
661.913	3.88
662.671	2.88
663.429	3.88
664.187	3.88
664.945	1.88
665.703	3.88
666.46	1.88
667.218	2.88
667.976	3.88
668.733	3.88
669.49	2.88
670.248	1.88
671.005	2.88
671.762	2.88
672.519	2.88
673.276	1.88
674.033	1.88
674.79	2.88
675.547	3.88
676.304	0.88
677.06	1.88
677.817	1.88
678.574	1.88
679.33	0.88
680.086	2.88
680.843	0.88
681.599	3.88
682.355	2.88
683.111	2.88
683.867	0.88
684.623	0.88
685.379	2.88
686.135	1.88
686.89	0.88
687.646	2.88
688.402	2.88
689.157	1.88
689.912	1.88
690.668	2.88
691.423	1.88
692.178	0.88
692.933	0.88
693.688	2.88
694.443	1.88
695.198	1.88
695.953	3.88
696.708	1.88
697.462	2.88
698.217	1.88
698.972	1.88
699.726	1.88
700.48	0.88
701.235	1.88
701.989	2.88
702.743	1.88
703.497	3.88
704.251	1.88
705.005	0.88
705.759	1.88
706.513	1.88
707.266	2.88
708.02	2.88
708.774	0.88
709.527	2.88
710.28	2.88
711.034	-0.12
711.787	2.88
712.54	-2.12
713.293	2.88
714.046	1.88
714.799	0.88
715.552	2.88
716.305	-0.12
717.058	0.88
717.81	1.88
718.563	-0.12
719.315	-0.12
720.068	2.88
720.82	-0.12
721.573	4.88
722.325	2.88
723.077	1.88
723.829	0.88
724.581	3.88
725.333	2.88
726.085	3.88
726.836	1.88
727.588	0.88
728.34	0.88
729.091	1.88
729.843	0.88
730.594	2.88
731.346	3.88
732.097	-0.12
732.848	1.88
733.599	1.88
734.35	0.88
735.101	0.88
735.852	1.88
736.603	1.88
737.354	1.88
738.104	4.88
738.855	2.88
739.605	2.88
740.356	1.88
741.106	0.88
741.856	1.88
742.607	0.88
743.357	2.88
744.107	2.88
744.857	1.88
745.607	1.88
746.357	3.88
747.106	1.88
747.856	3.88
748.606	1.88
749.355	1.88
750.105	0.88
750.854	1.88
751.603	1.88
752.353	5.88
753.102	2.88
753.851	1.88
754.6	2.88
755.349	3.88
756.098	3.88
756.847	1.88
757.595	2.88
758.344	2.88
759.093	4.88
759.841	3.88
760.589	3.88
761.338	3.88
762.086	1.88
762.834	3.88
763.582	3.88
764.331	2.88
765.079	3.88
765.826	2.88
766.574	2.88
767.322	1.88
768.07	3.88
768.817	3.88
769.565	3.88
770.312	4.88
771.06	3.88
771.807	5.88
772.554	2.88
773.302	2.88
774.049	4.88
774.796	4.88
775.543	5.88
776.29	6.88
777.036	4.88
777.783	2.88
778.53	6.88
779.276	2.88
780.023	4.88
780.769	6.88
781.516	4.88
782.262	5.88
783.008	5.88
783.754	4.88
784.5	5.88
785.246	3.88
785.992	1.88
786.738	5.88
787.484	4.88
788.23	3.88
788.975	3.88
789.721	4.88
790.466	2.88
791.212	4.88
791.957	5.88
792.702	4.88
793.447	2.88
794.193	5.88
794.938	4.88
795.683	5.88
796.427	6.88
797.172	4.88
797.917	4.88
798.662	2.88
799.406	5.88
800.151	4.88
800.895	5.88
801.64	5.88
802.384	1.88
803.128	3.88
803.872	4.88
804.616	3.88
805.36	2.88
806.104	2.88
806.848	3.88
807.592	2.88
808.336	4.88
809.079	3.88
809.823	1.88
810.566	3.88
811.31	2.88
812.053	1.88
812.796	3.88
813.539	2.88
814.283	4.88
815.026	4.88
815.769	3.88
816.511	1.88
817.254	1.88
817.997	4.88
818.74	3.88
819.482	2.88
820.225	1.88
820.967	3.88
821.71	2.88
822.452	1.88
823.194	1.88
823.936	3.88
824.678	1.88
825.42	2.88
826.162	-0.12
826.904	1.88
827.646	1.88
828.388	2.88
829.129	2.88
829.871	2.88
830.612	1.88
831.354	3.88
832.095	1.88
832.836	-0.12
833.577	4.88
834.319	1.88
835.06	0.88
835.801	1.88
836.542	1.88
837.282	-1.12
838.023	2.88
838.764	1.88
839.504	1.88
840.245	3.88
840.985	1.88
841.726	0.88
842.466	0.88
843.206	3.88
843.946	0.88
844.687	-0.12
845.427	3.88
846.166	-1.12
846.906	1.88
847.646	2.88
848.386	1.88
849.125	-0.12
849.865	0.88
850.605	0.88
851.344	0.88
852.083	2.88
852.823	-0.12
853.562	3.88
854.301	0.88
855.04	-2.12
855.779	0.88
856.518	0.88
857.257	1.88
857.995	0.88
858.734	1.88
859.473	1.88
860.211	0.88
860.95	0.88
861.688	-0.12
862.426	0.88
863.165	-0.12
863.903	0.88
864.641	1.88
865.379	1.88
866.117	0.88
866.855	-0.12
867.593	1.88
868.33	-0.12
869.068	1.88
869.806	0.88
870.543	-0.12
871.28	-1.12
872.018	-2.12
872.755	1.88
873.492	-0.12
874.229	0.88
874.967	1.88
875.703	0.88
876.44	-1.12
877.177	2.88
877.914	1.88
878.651	0.88
879.387	-2.12
880.124	0.88
880.86	0.88
881.597	-0.12
882.333	-1.12
883.069	2.88
883.806	-0.12
884.542	0.88
885.278	0.88
886.014	1.88
886.749	-1.12
887.485	2.88
888.221	0.88
888.957	0.88
889.692	0.88
890.428	1.88
891.163	-1.12
891.899	1.88
892.634	-1.12
893.369	0.88
894.104	0.88
894.839	0.88
895.574	-2.12
896.309	0.88
897.044	0.88
897.779	-1.12
898.514	1.88
899.248	0.88
899.983	-2.12
900.717	1.88
901.452	1.88
902.186	-0.12
902.92	1.88
903.654	-0.12
904.389	-2.12
905.123	-0.12
905.857	0.88
906.59	0.88
907.324	-0.12
908.058	-0.12
908.792	-1.12
909.525	-1.12
910.259	1.88
910.992	1.88
911.726	0.88
912.459	2.88
913.192	-0.12
913.925	0.88
914.658	-1.12
915.391	-2.12
916.124	-0.12
916.857	-2.12
917.59	1.88
918.323	0.88
919.055	-0.12
919.788	-0.12
920.521	-0.12
921.253	-0.12
921.985	2.88
922.718	1.88
923.45	0.88
924.182	-1.12
924.914	0.88
925.646	1.88
926.378	1.88
927.11	-0.12
927.841	0.88
928.573	-2.12
929.305	-0.12
930.036	-0.12
930.768	0.88
931.499	1.88
932.23	-1.12
932.962	-0.12
933.693	-2.12
934.424	-0.12
935.155	1.88
935.886	-2.12
936.617	-1.12
937.348	-1.12
938.078	-0.12
938.809	-0.12
939.54	-3.12
940.27	0.88
941.001	-2.12
941.731	-0.12
942.461	0.88
943.191	-0.12
943.922	-0.12
944.652	0.88
945.382	0.88
946.112	-0.12
946.841	-0.12
947.571	0.88
948.301	-1.12
949.031	-0.12
949.76	-0.12
950.49	-2.12
951.219	-0.12
951.948	0.88
952.678	-2.12
953.407	0.88
954.136	-0.12
954.865	-2.12
955.594	0.88
956.323	-0.12
957.052	-1.12
957.78	1.88
958.509	0.88
959.238	-1.12
959.966	-3.12
960.695	1.88
961.423	-2.12
962.151	-1.12
962.88	-1.12
963.608	0.88
964.336	-0.12
965.064	-0.12
965.792	-1.12
966.52	0.88
967.247	1.88
967.975	1.88
968.703	-1.12
969.43	0.88
970.158	0.88
970.885	-1.12
971.613	-0.12
972.34	-0.12
973.067	-0.12
973.794	-2.12
974.521	0.88
975.248	-1.12
975.975	0.88
976.702	-0.12
977.429	-0.12
978.156	0.88
978.882	-0.12
979.609	0.88
980.335	-2.12
981.062	1.88
981.788	0.88
982.514	-2.12
983.24	1.88
983.967	-0.12
984.693	-0.12
985.419	-0.12
986.144	0.88
986.87	-2.12
987.596	-0.12
988.322	-0.12
989.047	0.88
989.773	-0.12
990.498	-0.12
991.224	1.88
991.949	-1.12
992.674	0.88
993.399	-0.12
994.124	-2.12
994.849	-0.12
995.574	0.88
996.299	-1.12
997.024	-0.12
997.749	-1.12
998.473	-1.12
999.198	-2.12
999.922	-0.12
1000.647	-2.12
1001.371	3.88
1002.095	-2.12
1002.82	-0.12
1003.544	-1.12
1004.268	-0.12
1004.992	-2.12
1005.716	-2.12
1006.439	-0.12
1007.163	-2.12
1007.887	0.88
1008.611	-1.12
1009.334	-2.12
1010.058	0.88
1010.781	0.88
1011.504	1.88
1012.228	-0.12
1012.951	-0.12
1013.674	0.88
1014.397	-2.12
1015.12	0.88
