节点500_145_QEPB04081__626__11-38-55-240.txt的数据

Date: Wed Nov 12 11:38:55 CST 2025
User: PC
Spectrometer: QEPB0408
触发模式: 0
积分时间 (秒): 1.000000E-2
Scans to average: 1
启用暗噪声校正: true
启用非线性校正: false
滑动平均宽度: 0
X轴模式: Wavelengths
Number of Pixels in Spectrum: 1044
>>>>>Begin Spectral Data<<<<<
220.843	0.88
221.644	0.88
222.444	-1.12
223.244	1.88
224.045	2.88
224.845	0.88
225.645	-1.12
226.445	-0.12
227.245	0.88
228.045	-2.12
228.845	1.88
229.645	0.88
230.444	1.88
231.244	0.88
232.043	1.88
232.843	-0.12
233.642	0.88
234.442	-0.12
235.241	-1.12
236.04	0.88
236.839	-1.12
237.638	0.88
238.437	1.88
239.236	0.88
240.035	2.88
240.833	-1.12
241.632	2.88
242.43	-0.12
243.229	2.88
244.027	1.88
244.826	1.88
245.624	2.88
246.422	3.88
247.22	2.88
248.018	1.88
248.816	3.88
249.614	3.88
250.412	1.88
251.21	3.88
252.007	0.88
252.805	2.88
253.602	4.88
254.4	2.88
255.197	0.88
255.994	3.88
256.791	4.88
257.589	2.88
258.386	3.88
259.183	3.88
259.979	2.88
260.776	5.88
261.573	2.88
262.37	2.88
263.166	1.88
263.963	6.88
264.759	2.88
265.556	2.88
266.352	5.88
267.148	6.88
267.944	5.88
268.74	3.88
269.536	5.88
270.332	6.88
271.128	7.88
271.924	6.88
272.719	4.88
273.515	9.88
274.311	5.88
275.106	6.88
275.901	6.88
276.697	8.88
277.492	7.88
278.287	8.88
279.082	11.88
279.877	9.88
280.672	8.88
281.467	9.88
282.262	6.88
283.056	7.88
283.851	8.88
284.646	9.88
285.44	11.88
286.234	9.88
287.029	11.88
287.823	12.88
288.617	8.88
289.411	10.88
290.205	10.88
290.999	10.88
291.793	11.88
292.587	8.88
293.381	7.88
294.174	9.88
294.968	9.88
295.761	8.88
296.555	10.88
297.348	9.88
298.141	9.88
298.935	9.88
299.728	8.88
300.521	7.88
301.314	7.88
302.107	9.88
302.899	10.88
303.692	10.88
304.485	7.88
305.277	9.88
306.07	9.88
306.862	7.88
307.655	10.88
308.447	7.88
309.239	6.88
310.031	8.88
310.823	5.88
311.615	7.88
312.407	5.88
313.199	6.88
313.991	6.88
314.783	7.88
315.574	6.88
316.366	7.88
317.157	6.88
317.949	8.88
318.74	5.88
319.531	4.88
320.322	4.88
321.113	5.88
321.904	5.88
322.695	4.88
323.486	4.88
324.277	4.88
325.068	3.88
325.858	4.88
326.649	4.88
327.439	2.88
328.23	3.88
329.02	6.88
329.81	3.88
330.6	2.88
331.391	5.88
332.181	3.88
332.971	5.88
333.76	2.88
334.55	4.88
335.34	1.88
336.13	3.88
336.919	5.88
337.709	2.88
338.498	1.88
339.287	4.88
340.077	1.88
340.866	3.88
341.655	2.88
342.444	1.88
343.233	1.88
344.022	4.88
344.811	4.88
345.6	3.88
346.388	2.88
347.177	2.88
347.965	3.88
348.754	5.88
349.542	3.88
350.33	5.88
351.119	1.88
351.907	3.88
352.695	3.88
353.483	3.88
354.271	1.88
355.059	1.88
355.846	4.88
356.634	3.88
357.422	1.88
358.209	1.88
358.997	2.88
359.784	1.88
360.571	2.88
361.359	4.88
362.146	3.88
362.933	3.88
363.72	2.88
364.507	2.88
365.294	2.88
366.081	2.88
366.867	2.88
367.654	1.88
368.44	3.88
369.227	0.88
370.013	2.88
370.8	2.88
371.586	2.88
372.372	3.88
373.158	1.88
373.944	1.88
374.73	2.88
375.516	2.88
376.302	4.88
377.088	2.88
377.873	2.88
378.659	2.88
379.445	3.88
380.23	0.88
381.015	3.88
381.801	1.88
382.586	4.88
383.371	2.88
384.156	3.88
384.941	2.88
385.726	1.88
386.511	3.88
387.296	3.88
388.08	2.88
388.865	4.88
389.649	2.88
390.434	1.88
391.218	3.88
392.003	3.88
392.787	3.88
393.571	2.88
394.355	2.88
395.139	1.88
395.923	2.88
396.707	3.88
397.491	2.88
398.274	5.88
399.058	5.88
399.842	3.88
400.625	2.88
401.408	7.88
402.192	5.88
402.975	5.88
403.758	4.88
404.541	4.88
405.324	3.88
406.107	2.88
406.89	4.88
407.673	3.88
408.456	3.88
409.238	5.88
410.021	3.88
410.803	5.88
411.586	2.88
412.368	5.88
413.151	5.88
413.933	4.88
414.715	4.88
415.497	3.88
416.279	5.88
417.061	4.88
417.843	3.88
418.624	2.88
419.406	6.88
420.188	5.88
420.969	4.88
421.751	5.88
422.532	4.88
423.313	6.88
424.095	6.88
424.876	6.88
425.657	5.88
426.438	5.88
427.219	5.88
428	7.88
428.78	6.88
429.561	9.88
430.342	8.88
431.122	6.88
431.903	7.88
432.683	6.88
433.464	7.88
434.244	7.88
435.024	7.88
435.804	7.88
436.584	10.88
437.364	9.88
438.144	11.88
438.924	10.88
439.704	10.88
440.483	9.88
441.263	10.88
442.042	11.88
442.822	12.88
443.601	15.88
444.38	10.88
445.16	14.88
445.939	18.88
446.718	18.88
447.497	18.88
448.276	22.88
449.054	20.88
449.833	25.88
450.612	27.88
451.391	30.88
452.169	31.88
452.948	34.88
453.726	36.88
454.504	41.88
455.282	42.88
456.061	49.88
456.839	54.88
457.617	61.88
458.395	66.88
459.172	70.88
459.95	82.88
460.728	93.88
461.506	102.88
462.283	113.88
463.061	122.88
463.838	144.88
464.615	156.88
465.393	175.88
466.17	194.88
466.947	217.88
467.724	237.88
468.501	261.88
469.278	292.88
470.055	330.88
470.831	360.88
471.608	402.88
472.385	439.88
473.161	484.88
473.938	534.88
474.714	592.88
475.49	649.88
476.266	722.88
477.043	795.88
477.819	882.88
478.595	975.88
479.371	1054.88
480.146	1162.88
480.922	1287.88
481.698	1385.88
482.473	1532.88
483.249	1660.88
484.024	1824.88
484.8	1997.88
485.575	2198.88
486.35	2399.88
487.126	2603.88
487.901	2870.88
488.676	3124.88
489.451	3429.88
490.225	3711.88
491	4042.88
491.775	4424.88
492.55	4858.88
493.324	5266.88
494.099	5738.88
494.873	6194.88
495.647	6746.88
496.422	7335.88
497.196	7881.88
497.97	8490.88
498.744	9083.88
499.518	9727.88
500.292	10436.88
501.066	11060.88
501.839	11662.88
502.613	12241.88
503.387	12860.88
504.16	13404.88
504.934	13866.88
505.707	14275.88
506.48	14640.88
507.253	14906.88
508.027	15063.88
508.8	15177.88
509.573	15139.88
510.346	15136.88
511.118	14886.88
511.891	14642.88
512.664	14299.88
513.437	13959.88
514.209	13507.88
514.982	13099.88
515.754	12632.88
516.526	12139.88
517.298	11610.88
518.071	11182.88
518.843	10694.88
519.615	10273.88
520.387	9850.88
521.159	9437.88
521.93	9037.88
522.702	8702.88
523.474	8394.88
524.245	8058.88
525.017	7738.88
525.788	7414.88
526.56	7100.88
527.331	6821.88
528.102	6575.88
528.873	6295.88
529.644	6016.88
530.415	5773.88
531.186	5504.88
531.957	5239.88
532.728	4990.88
533.498	4739.88
534.269	4507.88
535.039	4270.88
535.81	4048.88
536.58	3800.88
537.351	3605.88
538.121	3434.88
538.891	3238.88
539.661	3053.88
540.431	2897.88
541.201	2735.88
541.971	2612.88
542.741	2449.88
543.51	2354.88
544.28	2209.88
545.05	2108.88
545.819	1990.88
546.588	1898.88
547.358	1793.88
548.127	1717.88
548.896	1627.88
549.665	1554.88
550.434	1478.88
551.203	1413.88
551.972	1337.88
552.741	1279.88
553.51	1190.88
554.278	1128.88
555.047	1067.88
555.815	1003.88
556.584	958.88
557.352	903.88
558.121	850.88
558.889	798.88
559.657	750.88
560.425	709.88
561.193	676.88
561.961	635.88
562.729	597.88
563.496	577.88
564.264	533.88
565.032	505.88
565.799	481.88
566.567	449.88
567.334	426.88
568.101	398.88
568.869	377.88
569.636	353.88
570.403	337.88
571.17	321.88
571.937	302.88
572.704	277.88
573.471	268.88
574.237	249.88
575.004	238.88
575.771	222.88
576.537	208.88
577.303	193.88
578.07	182.88
578.836	178.88
579.602	166.88
580.368	158.88
581.134	149.88
581.9	145.88
582.666	134.88
583.432	124.88
584.198	119.88
584.964	113.88
585.729	109.88
586.495	103.88
587.26	97.88
588.025	92.88
588.791	81.88
589.556	81.88
590.321	81.88
591.086	73.88
591.851	68.88
592.616	61.88
593.381	58.88
594.146	57.88
594.911	56.88
595.675	50.88
596.44	52.88
597.204	48.88
597.969	44.88
598.733	42.88
599.497	43.88
600.261	36.88
601.025	37.88
601.79	34.88
602.553	33.88
603.317	31.88
604.081	31.88
604.845	31.88
605.609	26.88
606.372	29.88
607.136	23.88
607.899	25.88
608.662	25.88
609.426	23.88
610.189	24.88
610.952	21.88
611.715	20.88
612.478	18.88
613.241	18.88
614.004	18.88
614.767	18.88
615.529	17.88
616.292	14.88
617.055	15.88
617.817	17.88
618.579	16.88
619.342	14.88
620.104	13.88
620.866	12.88
621.628	11.88
622.39	11.88
623.152	9.88
623.914	10.88
624.676	11.88
625.438	10.88
626.199	9.88
626.961	7.88
627.722	10.88
628.484	10.88
629.245	7.88
630.006	11.88
630.768	11.88
631.529	9.88
632.29	9.88
633.051	8.88
633.812	8.88
634.573	7.88
635.333	9.88
636.094	7.88
636.855	6.88
637.615	6.88
638.376	5.88
639.136	5.88
639.896	5.88
640.657	5.88
641.417	2.88
642.177	3.88
642.937	4.88
643.697	5.88
644.457	3.88
645.216	5.88
645.976	5.88
646.736	4.88
647.495	2.88
648.255	7.88
649.014	4.88
649.774	5.88
650.533	2.88
651.292	4.88
652.051	3.88
652.81	5.88
653.569	3.88
654.328	4.88
655.087	2.88
655.846	4.88
656.604	4.88
657.363	4.88
658.121	2.88
658.88	1.88
659.638	2.88
660.397	4.88
661.155	2.88
661.913	2.88
662.671	1.88
663.429	4.88
664.187	4.88
664.945	3.88
665.703	2.88
666.46	2.88
667.218	3.88
667.976	2.88
668.733	2.88
669.49	4.88
670.248	1.88
671.005	4.88
671.762	2.88
672.519	1.88
673.276	1.88
674.033	4.88
674.79	2.88
675.547	1.88
676.304	3.88
677.06	0.88
677.817	3.88
678.574	2.88
679.33	0.88
680.086	0.88
680.843	2.88
681.599	3.88
682.355	1.88
683.111	2.88
683.867	3.88
684.623	2.88
685.379	3.88
686.135	2.88
686.89	-0.12
687.646	6.88
688.402	2.88
689.157	1.88
689.912	4.88
690.668	4.88
691.423	0.88
692.178	2.88
692.933	3.88
693.688	2.88
694.443	1.88
695.198	3.88
695.953	2.88
696.708	2.88
697.462	3.88
698.217	2.88
698.972	-0.12
699.726	2.88
700.48	2.88
701.235	2.88
701.989	2.88
702.743	3.88
703.497	0.88
704.251	2.88
705.005	2.88
705.759	1.88
706.513	2.88
707.266	1.88
708.02	-0.12
708.774	2.88
709.527	4.88
710.28	2.88
711.034	2.88
711.787	2.88
712.54	1.88
713.293	1.88
714.046	1.88
714.799	2.88
715.552	3.88
716.305	3.88
717.058	2.88
717.81	2.88
718.563	3.88
719.315	2.88
720.068	1.88
720.82	0.88
721.573	3.88
722.325	3.88
723.077	1.88
723.829	2.88
724.581	-0.12
725.333	2.88
726.085	3.88
726.836	3.88
727.588	0.88
728.34	3.88
729.091	2.88
729.843	1.88
730.594	3.88
731.346	2.88
732.097	1.88
732.848	2.88
733.599	1.88
734.35	4.88
735.101	0.88
735.852	1.88
736.603	2.88
737.354	1.88
738.104	1.88
738.855	1.88
739.605	1.88
740.356	5.88
741.106	1.88
741.856	3.88
742.607	1.88
743.357	0.88
744.107	-0.12
744.857	5.88
745.607	1.88
746.357	0.88
747.106	3.88
747.856	3.88
748.606	2.88
749.355	-1.12
750.105	1.88
750.854	-0.12
751.603	2.88
752.353	2.88
753.102	3.88
753.851	3.88
754.6	2.88
755.349	2.88
756.098	3.88
756.847	4.88
757.595	3.88
758.344	0.88
759.093	3.88
759.841	2.88
760.589	4.88
761.338	3.88
762.086	0.88
762.834	5.88
763.582	3.88
764.331	4.88
765.079	1.88
765.826	2.88
766.574	3.88
767.322	5.88
768.07	3.88
768.817	3.88
769.565	2.88
770.312	4.88
771.06	3.88
771.807	5.88
772.554	5.88
773.302	4.88
774.049	0.88
774.796	3.88
775.543	4.88
776.29	3.88
777.036	5.88
777.783	6.88
778.53	6.88
779.276	3.88
780.023	2.88
780.769	4.88
781.516	6.88
782.262	5.88
783.008	4.88
783.754	3.88
784.5	4.88
785.246	3.88
785.992	3.88
786.738	8.88
787.484	3.88
788.23	3.88
788.975	5.88
789.721	5.88
790.466	4.88
791.212	6.88
791.957	3.88
792.702	5.88
793.447	4.88
794.193	4.88
794.938	4.88
795.683	7.88
796.427	5.88
797.172	5.88
797.917	4.88
798.662	2.88
799.406	4.88
800.151	4.88
800.895	3.88
801.64	5.88
802.384	5.88
803.128	3.88
803.872	1.88
804.616	4.88
805.36	3.88
806.104	4.88
806.848	4.88
807.592	2.88
808.336	3.88
809.079	3.88
809.823	5.88
810.566	2.88
811.31	2.88
812.053	3.88
812.796	3.88
813.539	3.88
814.283	2.88
815.026	3.88
815.769	2.88
816.511	5.88
817.254	3.88
817.997	1.88
818.74	2.88
819.482	3.88
820.225	2.88
820.967	1.88
821.71	4.88
822.452	2.88
823.194	1.88
823.936	3.88
824.678	2.88
825.42	2.88
826.162	1.88
826.904	2.88
827.646	2.88
828.388	2.88
829.129	3.88
829.871	2.88
830.612	3.88
831.354	2.88
832.095	3.88
832.836	3.88
833.577	2.88
834.319	1.88
835.06	2.88
835.801	0.88
836.542	-0.12
837.282	2.88
838.023	2.88
838.764	-0.12
839.504	2.88
840.245	2.88
840.985	0.88
841.726	0.88
842.466	4.88
843.206	2.88
843.946	3.88
844.687	1.88
845.427	1.88
846.166	2.88
846.906	2.88
847.646	2.88
848.386	2.88
849.125	1.88
849.865	3.88
850.605	2.88
851.344	1.88
852.083	1.88
852.823	2.88
853.562	3.88
854.301	1.88
855.04	3.88
855.779	-0.12
856.518	1.88
857.257	2.88
857.995	1.88
858.734	-1.12
859.473	1.88
860.211	3.88
860.95	2.88
861.688	2.88
862.426	1.88
863.165	3.88
863.903	-1.12
864.641	0.88
865.379	-0.12
866.117	1.88
866.855	0.88
867.593	-0.12
868.33	2.88
869.068	-0.12
869.806	-1.12
870.543	0.88
871.28	0.88
872.018	2.88
872.755	1.88
873.492	2.88
874.229	1.88
874.967	-0.12
875.703	0.88
876.44	1.88
877.177	2.88
877.914	0.88
878.651	1.88
879.387	0.88
880.124	1.88
880.86	-1.12
881.597	-0.12
882.333	0.88
883.069	2.88
883.806	0.88
884.542	1.88
885.278	1.88
886.014	1.88
886.749	2.88
887.485	1.88
888.221	-0.12
888.957	2.88
889.692	1.88
890.428	1.88
891.163	4.88
891.899	-1.12
892.634	1.88
893.369	-0.12
894.104	2.88
894.839	-0.12
895.574	0.88
896.309	2.88
897.044	-2.12
897.779	0.88
898.514	0.88
899.248	0.88
899.983	-0.12
900.717	-0.12
901.452	1.88
902.186	1.88
902.92	1.88
903.654	-0.12
904.389	-0.12
905.123	2.88
905.857	-0.12
906.59	-0.12
907.324	-0.12
908.058	2.88
908.792	-0.12
909.525	1.88
910.259	1.88
910.992	0.88
911.726	0.88
912.459	0.88
913.192	1.88
913.925	0.88
914.658	1.88
915.391	-1.12
916.124	-0.12
916.857	1.88
917.59	-1.12
918.323	2.88
919.055	1.88
919.788	0.88
920.521	1.88
921.253	1.88
921.985	1.88
922.718	-0.12
923.45	0.88
924.182	0.88
924.914	2.88
925.646	-1.12
926.378	-0.12
927.11	0.88
927.841	0.88
928.573	1.88
929.305	1.88
930.036	0.88
930.768	0.88
931.499	-1.12
932.23	0.88
932.962	-1.12
933.693	-0.12
934.424	-1.12
935.155	0.88
935.886	0.88
936.617	-1.12
937.348	1.88
938.078	2.88
938.809	-0.12
939.54	-1.12
940.27	-0.12
941.001	1.88
941.731	-0.12
942.461	0.88
943.191	1.88
943.922	-1.12
944.652	0.88
945.382	-0.12
946.112	1.88
946.841	1.88
947.571	1.88
948.301	-1.12
949.031	0.88
949.76	2.88
950.49	-1.12
951.219	0.88
951.948	-0.12
952.678	1.88
953.407	-0.12
954.136	-0.12
954.865	0.88
955.594	-0.12
956.323	0.88
957.052	-0.12
957.78	0.88
958.509	1.88
959.238	2.88
959.966	0.88
960.695	-1.12
961.423	-0.12
962.151	-0.12
962.88	0.88
963.608	-1.12
964.336	0.88
965.064	0.88
965.792	-1.12
966.52	1.88
967.247	0.88
967.975	-1.12
968.703	1.88
969.43	1.88
970.158	-1.12
970.885	-0.12
971.613	0.88
972.34	-0.12
973.067	1.88
973.794	1.88
974.521	0.88
975.248	0.88
975.975	-3.12
976.702	2.88
977.429	0.88
978.156	0.88
978.882	1.88
979.609	0.88
980.335	-2.12
981.062	-0.12
981.788	0.88
982.514	2.88
983.24	0.88
983.967	-1.12
984.693	-1.12
985.419	-1.12
986.144	-0.12
986.87	0.88
987.596	-1.12
988.322	-0.12
989.047	0.88
989.773	-2.12
990.498	0.88
991.224	0.88
991.949	1.88
992.674	-0.12
993.399	-2.12
994.124	-0.12
994.849	0.88
995.574	0.88
996.299	-1.12
997.024	-1.12
997.749	0.88
998.473	0.88
999.198	-0.12
999.922	0.88
1000.647	1.88
1001.371	-0.12
1002.095	-0.12
1002.82	-1.12
1003.544	-1.12
1004.268	-0.12
1004.992	-2.12
1005.716	0.88
1006.439	-1.12
1007.163	-1.12
1007.887	-1.12
1008.611	1.88
1009.334	-0.12
1010.058	1.88
1010.781	0.88
1011.504	0.88
1012.228	-1.12
1012.951	0.88
1013.674	-0.12
1014.397	2.88
1015.12	-1.12
