节点500_145_QEPB04081__138__11-31-08-626.txt的数据

Date: Wed Nov 12 11:31:08 CST 2025
User: PC
Spectrometer: QEPB0408
触发模式: 0
积分时间 (秒): 1.000000E-2
Scans to average: 1
启用暗噪声校正: true
启用非线性校正: false
滑动平均宽度: 0
X轴模式: Wavelengths
Number of Pixels in Spectrum: 1044
>>>>>Begin Spectral Data<<<<<
220.843	1.38
221.644	-1.62
222.444	1.38
223.244	-0.62
224.045	2.38
224.845	-1.62
225.645	-0.62
226.445	0.38
227.245	-1.62
228.045	-1.62
228.845	1.38
229.645	0.38
230.444	-0.62
231.244	1.38
232.043	1.38
232.843	1.38
233.642	1.38
234.442	0.38
235.241	2.38
236.04	0.38
236.839	1.38
237.638	0.38
238.437	0.38
239.236	1.38
240.035	1.38
240.833	2.38
241.632	-1.62
242.43	3.38
243.229	1.38
244.027	1.38
244.826	4.38
245.624	1.38
246.422	2.38
247.22	1.38
248.018	2.38
248.816	3.38
249.614	1.38
250.412	3.38
251.21	3.38
252.007	3.38
252.805	1.38
253.602	1.38
254.4	6.38
255.197	3.38
255.994	3.38
256.791	3.38
257.589	4.38
258.386	4.38
259.183	1.38
259.979	3.38
260.776	6.38
261.573	5.38
262.37	5.38
263.166	5.38
263.963	4.38
264.759	6.38
265.556	6.38
266.352	6.38
267.148	7.38
267.944	5.38
268.74	9.38
269.536	8.38
270.332	7.38
271.128	8.38
271.924	7.38
272.719	9.38
273.515	9.38
274.311	10.38
275.106	10.38
275.901	7.38
276.697	6.38
277.492	7.38
278.287	12.38
279.082	10.38
279.877	9.38
280.672	9.38
281.467	12.38
282.262	11.38
283.056	10.38
283.851	12.38
284.646	11.38
285.44	13.38
286.234	12.38
287.029	10.38
287.823	12.38
288.617	8.38
289.411	11.38
290.205	10.38
290.999	11.38
291.793	11.38
292.587	12.38
293.381	13.38
294.174	9.38
294.968	12.38
295.761	11.38
296.555	9.38
297.348	12.38
298.141	10.38
298.935	11.38
299.728	9.38
300.521	9.38
301.314	10.38
302.107	9.38
302.899	7.38
303.692	7.38
304.485	8.38
305.277	7.38
306.07	8.38
306.862	7.38
307.655	8.38
308.447	10.38
309.239	8.38
310.031	8.38
310.823	8.38
311.615	7.38
312.407	6.38
313.199	6.38
313.991	8.38
314.783	6.38
315.574	4.38
316.366	5.38
317.157	7.38
317.949	7.38
318.74	6.38
319.531	6.38
320.322	4.38
321.113	6.38
321.904	4.38
322.695	5.38
323.486	5.38
324.277	4.38
325.068	6.38
325.858	2.38
326.649	5.38
327.439	6.38
328.23	1.38
329.02	4.38
329.81	4.38
330.6	2.38
331.391	3.38
332.181	2.38
332.971	5.38
333.76	4.38
334.55	3.38
335.34	4.38
336.13	3.38
336.919	1.38
337.709	2.38
338.498	4.38
339.287	4.38
340.077	4.38
340.866	2.38
341.655	4.38
342.444	3.38
343.233	4.38
344.022	2.38
344.811	3.38
345.6	2.38
346.388	2.38
347.177	3.38
347.965	4.38
348.754	3.38
349.542	1.38
350.33	4.38
351.119	4.38
351.907	1.38
352.695	3.38
353.483	4.38
354.271	4.38
355.059	3.38
355.846	3.38
356.634	5.38
357.422	3.38
358.209	0.38
358.997	3.38
359.784	3.38
360.571	1.38
361.359	2.38
362.146	4.38
362.933	2.38
363.72	5.38
364.507	0.38
365.294	1.38
366.081	1.38
366.867	2.38
367.654	4.38
368.44	3.38
369.227	4.38
370.013	3.38
370.8	2.38
371.586	3.38
372.372	0.38
373.158	5.38
373.944	3.38
374.73	3.38
375.516	4.38
376.302	2.38
377.088	3.38
377.873	3.38
378.659	4.38
379.445	2.38
380.23	5.38
381.015	2.38
381.801	2.38
382.586	2.38
383.371	1.38
384.156	4.38
384.941	3.38
385.726	2.38
386.511	4.38
387.296	3.38
388.08	3.38
388.865	2.38
389.649	2.38
390.434	0.38
391.218	2.38
392.003	1.38
392.787	2.38
393.571	4.38
394.355	2.38
395.139	3.38
395.923	1.38
396.707	3.38
397.491	2.38
398.274	3.38
399.058	3.38
399.842	4.38
400.625	2.38
401.408	3.38
402.192	1.38
402.975	5.38
403.758	3.38
404.541	4.38
405.324	2.38
406.107	3.38
406.89	4.38
407.673	3.38
408.456	5.38
409.238	2.38
410.021	3.38
410.803	3.38
411.586	3.38
412.368	4.38
413.151	4.38
413.933	7.38
414.715	4.38
415.497	5.38
416.279	5.38
417.061	5.38
417.843	4.38
418.624	5.38
419.406	5.38
420.188	6.38
420.969	5.38
421.751	6.38
422.532	5.38
423.313	6.38
424.095	5.38
424.876	6.38
425.657	7.38
426.438	6.38
427.219	8.38
428	7.38
428.78	6.38
429.561	7.38
430.342	5.38
431.122	6.38
431.903	6.38
432.683	6.38
433.464	8.38
434.244	9.38
435.024	10.38
435.804	10.38
436.584	9.38
437.364	10.38
438.144	10.38
438.924	10.38
439.704	11.38
440.483	10.38
441.263	10.38
442.042	12.38
442.822	14.38
443.601	14.38
444.38	13.38
445.16	17.38
445.939	15.38
446.718	16.38
447.497	21.38
448.276	17.38
449.054	19.38
449.833	20.38
450.612	25.38
451.391	25.38
452.169	30.38
452.948	30.38
453.726	31.38
454.504	38.38
455.282	34.38
456.061	41.38
456.839	48.38
457.617	50.38
458.395	56.38
459.172	62.38
459.95	72.38
460.728	76.38
461.506	83.38
462.283	95.38
463.061	109.38
463.838	119.38
464.615	136.38
465.393	147.38
466.17	163.38
466.947	180.38
467.724	208.38
468.501	226.38
469.278	254.38
470.055	287.38
470.831	319.38
471.608	356.38
472.385	395.38
473.161	436.38
473.938	488.38
474.714	545.38
475.49	598.38
476.266	675.38
477.043	753.38
477.819	835.38
478.595	926.38
479.371	1025.38
480.146	1136.38
480.922	1259.38
481.698	1400.38
482.473	1566.38
483.249	1718.38
484.024	1904.38
484.8	2100.38
485.575	2341.38
486.35	2582.38
487.126	2873.38
487.901	3159.38
488.676	3492.38
489.451	3838.38
490.225	4223.38
491	4680.38
491.775	5158.38
492.55	5716.38
493.324	6248.38
494.099	6838.38
494.873	7534.38
495.647	8187.38
496.422	8926.38
497.196	9658.38
497.97	10492.38
498.744	11231.38
499.518	12049.38
500.292	12881.38
501.066	13595.38
501.839	14342.38
502.613	15029.38
503.387	15610.38
504.16	16128.38
504.934	16557.38
505.707	16901.38
506.48	17153.38
507.253	17201.38
508.027	17215.38
508.8	17045.38
509.573	16855.38
510.346	16485.38
511.118	16060.38
511.891	15566.38
512.664	15067.38
513.437	14438.38
514.209	13875.38
514.982	13317.38
515.754	12690.38
516.526	12076.38
517.298	11594.38
518.071	11038.38
518.843	10569.38
519.615	10105.38
520.387	9664.38
521.159	9312.38
521.93	8929.38
522.702	8576.38
523.474	8287.38
524.245	7929.38
525.017	7610.38
525.788	7299.38
526.56	7026.38
527.331	6710.38
528.102	6388.38
528.873	6116.38
529.644	5827.38
530.415	5570.38
531.186	5236.38
531.957	4997.38
532.728	4724.38
533.498	4468.38
534.269	4224.38
535.039	4002.38
535.81	3756.38
536.58	3570.38
537.351	3357.38
538.121	3165.38
538.891	3002.38
539.661	2805.38
540.431	2681.38
541.201	2505.38
541.971	2406.38
542.741	2270.38
543.51	2171.38
544.28	2026.38
545.05	1927.38
545.819	1845.38
546.588	1762.38
547.358	1681.38
548.127	1573.38
548.896	1514.38
549.665	1434.38
550.434	1366.38
551.203	1276.38
551.972	1204.38
552.741	1153.38
553.51	1097.38
554.278	1022.38
555.047	965.38
555.815	906.38
556.584	866.38
557.352	807.38
558.121	757.38
558.889	721.38
559.657	684.38
560.425	635.38
561.193	600.38
561.961	574.38
562.729	544.38
563.496	504.38
564.264	476.38
565.032	449.38
565.799	422.38
566.567	407.38
567.334	380.38
568.101	360.38
568.869	338.38
569.636	308.38
570.403	309.38
571.17	284.38
571.937	272.38
572.704	256.38
573.471	238.38
574.237	230.38
575.004	210.38
575.771	191.38
576.537	183.38
577.303	176.38
578.07	159.38
578.836	157.38
579.602	148.38
580.368	135.38
581.134	131.38
581.9	127.38
582.666	117.38
583.432	108.38
584.198	101.38
584.964	100.38
585.729	92.38
586.495	89.38
587.26	84.38
588.025	78.38
588.791	79.38
589.556	72.38
590.321	66.38
591.086	64.38
591.851	56.38
592.616	53.38
593.381	57.38
594.146	53.38
594.911	46.38
595.675	50.38
596.44	44.38
597.204	44.38
597.969	46.38
598.733	38.38
599.497	36.38
600.261	34.38
601.025	33.38
601.79	32.38
602.553	31.38
603.317	30.38
604.081	26.38
604.845	28.38
605.609	23.38
606.372	25.38
607.136	26.38
607.899	22.38
608.662	24.38
609.426	19.38
610.189	21.38
610.952	17.38
611.715	20.38
612.478	19.38
613.241	16.38
614.004	16.38
614.767	15.38
615.529	15.38
616.292	13.38
617.055	15.38
617.817	13.38
618.579	11.38
619.342	13.38
620.104	10.38
620.866	13.38
621.628	13.38
622.39	12.38
623.152	13.38
623.914	8.38
624.676	9.38
625.438	11.38
626.199	8.38
626.961	8.38
627.722	8.38
628.484	12.38
629.245	7.38
630.006	7.38
630.768	9.38
631.529	6.38
632.29	7.38
633.051	3.38
633.812	7.38
634.573	5.38
635.333	7.38
636.094	6.38
636.855	7.38
637.615	7.38
638.376	5.38
639.136	7.38
639.896	5.38
640.657	5.38
641.417	6.38
642.177	6.38
642.937	4.38
643.697	4.38
644.457	5.38
645.216	5.38
645.976	4.38
646.736	2.38
647.495	2.38
648.255	5.38
649.014	3.38
649.774	6.38
650.533	5.38
651.292	4.38
652.051	3.38
652.81	3.38
653.569	5.38
654.328	3.38
655.087	2.38
655.846	6.38
656.604	2.38
657.363	5.38
658.121	5.38
658.88	4.38
659.638	3.38
660.397	2.38
661.155	1.38
661.913	3.38
662.671	2.38
663.429	3.38
664.187	3.38
664.945	3.38
665.703	2.38
666.46	2.38
667.218	4.38
667.976	1.38
668.733	2.38
669.49	3.38
670.248	1.38
671.005	2.38
671.762	4.38
672.519	0.38
673.276	1.38
674.033	2.38
674.79	2.38
675.547	3.38
676.304	1.38
677.06	3.38
677.817	1.38
678.574	3.38
679.33	2.38
680.086	2.38
680.843	2.38
681.599	3.38
682.355	2.38
683.111	3.38
683.867	4.38
684.623	0.38
685.379	2.38
686.135	2.38
686.89	2.38
687.646	1.38
688.402	0.38
689.157	3.38
689.912	2.38
690.668	4.38
691.423	1.38
692.178	2.38
692.933	2.38
693.688	3.38
694.443	2.38
695.198	0.38
695.953	2.38
696.708	1.38
697.462	4.38
698.217	3.38
698.972	2.38
699.726	3.38
700.48	1.38
701.235	3.38
701.989	1.38
702.743	0.38
703.497	2.38
704.251	2.38
705.005	5.38
705.759	-1.62
706.513	4.38
707.266	1.38
708.02	1.38
708.774	3.38
709.527	2.38
710.28	4.38
711.034	0.38
711.787	1.38
712.54	2.38
713.293	1.38
714.046	1.38
714.799	0.38
715.552	2.38
716.305	3.38
717.058	1.38
717.81	3.38
718.563	1.38
719.315	2.38
720.068	1.38
720.82	1.38
721.573	2.38
722.325	2.38
723.077	3.38
723.829	1.38
724.581	2.38
725.333	1.38
726.085	1.38
726.836	4.38
727.588	2.38
728.34	2.38
729.091	1.38
729.843	2.38
730.594	0.38
731.346	3.38
732.097	4.38
732.848	1.38
733.599	3.38
734.35	4.38
735.101	2.38
735.852	3.38
736.603	2.38
737.354	3.38
738.104	2.38
738.855	4.38
739.605	2.38
740.356	2.38
741.106	2.38
741.856	1.38
742.607	3.38
743.357	2.38
744.107	3.38
744.857	3.38
745.607	2.38
746.357	2.38
747.106	2.38
747.856	3.38
748.606	3.38
749.355	2.38
750.105	3.38
750.854	3.38
751.603	5.38
752.353	4.38
753.102	0.38
753.851	0.38
754.6	5.38
755.349	4.38
756.098	4.38
756.847	4.38
757.595	3.38
758.344	4.38
759.093	3.38
759.841	4.38
760.589	3.38
761.338	4.38
762.086	2.38
762.834	3.38
763.582	4.38
764.331	4.38
765.079	3.38
765.826	6.38
766.574	4.38
767.322	3.38
768.07	3.38
768.817	5.38
769.565	2.38
770.312	3.38
771.06	6.38
771.807	5.38
772.554	3.38
773.302	2.38
774.049	4.38
774.796	5.38
775.543	2.38
776.29	5.38
777.036	3.38
777.783	6.38
778.53	7.38
779.276	6.38
780.023	5.38
780.769	4.38
781.516	7.38
782.262	6.38
783.008	6.38
783.754	4.38
784.5	7.38
785.246	4.38
785.992	7.38
786.738	5.38
787.484	5.38
788.23	6.38
788.975	3.38
789.721	4.38
790.466	4.38
791.212	5.38
791.957	4.38
792.702	5.38
793.447	2.38
794.193	5.38
794.938	5.38
795.683	5.38
796.427	5.38
797.172	6.38
797.917	5.38
798.662	6.38
799.406	5.38
800.151	6.38
800.895	4.38
801.64	5.38
802.384	5.38
803.128	2.38
803.872	5.38
804.616	4.38
805.36	4.38
806.104	5.38
806.848	5.38
807.592	3.38
808.336	5.38
809.079	2.38
809.823	4.38
810.566	4.38
811.31	3.38
812.053	4.38
812.796	2.38
813.539	2.38
814.283	5.38
815.026	3.38
815.769	3.38
816.511	2.38
817.254	1.38
817.997	2.38
818.74	2.38
819.482	3.38
820.225	3.38
820.967	3.38
821.71	2.38
822.452	5.38
823.194	2.38
823.936	3.38
824.678	1.38
825.42	5.38
826.162	3.38
826.904	2.38
827.646	3.38
828.388	1.38
829.129	3.38
829.871	2.38
830.612	2.38
831.354	2.38
832.095	4.38
832.836	2.38
833.577	2.38
834.319	1.38
835.06	3.38
835.801	2.38
836.542	3.38
837.282	3.38
838.023	0.38
838.764	3.38
839.504	3.38
840.245	3.38
840.985	2.38
841.726	3.38
842.466	4.38
843.206	0.38
843.946	2.38
844.687	0.38
845.427	1.38
846.166	2.38
846.906	3.38
847.646	2.38
848.386	2.38
849.125	2.38
849.865	1.38
850.605	3.38
851.344	-0.62
852.083	0.38
852.823	1.38
853.562	1.38
854.301	2.38
855.04	1.38
855.779	-0.62
856.518	2.38
857.257	1.38
857.995	2.38
858.734	0.38
859.473	3.38
860.211	0.38
860.95	1.38
861.688	2.38
862.426	1.38
863.165	1.38
863.903	2.38
864.641	0.38
865.379	-1.62
866.117	2.38
866.855	0.38
867.593	2.38
868.33	0.38
869.068	0.38
869.806	1.38
870.543	-0.62
871.28	3.38
872.018	0.38
872.755	1.38
873.492	1.38
874.229	1.38
874.967	1.38
875.703	2.38
876.44	0.38
877.177	2.38
877.914	0.38
878.651	1.38
879.387	-0.62
880.124	2.38
880.86	-0.62
881.597	0.38
882.333	-1.62
883.069	0.38
883.806	0.38
884.542	0.38
885.278	1.38
886.014	1.38
886.749	1.38
887.485	-1.62
888.221	0.38
888.957	1.38
889.692	-1.62
890.428	0.38
891.163	2.38
891.899	0.38
892.634	-1.62
893.369	0.38
894.104	1.38
894.839	-1.62
895.574	0.38
896.309	0.38
897.044	2.38
897.779	-0.62
898.514	-1.62
899.248	0.38
899.983	-0.62
900.717	1.38
901.452	-0.62
902.186	-1.62
902.92	-0.62
903.654	0.38
904.389	-1.62
905.123	0.38
905.857	1.38
906.59	0.38
907.324	0.38
908.058	-0.62
908.792	-1.62
909.525	0.38
910.259	1.38
910.992	0.38
911.726	0.38
912.459	2.38
913.192	-1.62
913.925	1.38
914.658	-0.62
915.391	-0.62
916.124	0.38
916.857	0.38
917.59	-0.62
918.323	0.38
919.055	-1.62
919.788	3.38
920.521	-0.62
921.253	2.38
921.985	-1.62
922.718	0.38
923.45	-0.62
924.182	-1.62
924.914	-1.62
925.646	2.38
926.378	-0.62
927.11	1.38
927.841	-1.62
928.573	-1.62
929.305	2.38
930.036	0.38
930.768	0.38
931.499	0.38
932.23	1.38
932.962	0.38
933.693	0.38
934.424	1.38
935.155	-0.62
935.886	-0.62
936.617	1.38
937.348	-0.62
938.078	0.38
938.809	-1.62
939.54	1.38
940.27	0.38
941.001	1.38
941.731	-1.62
942.461	0.38
943.191	0.38
943.922	3.38
944.652	2.38
945.382	1.38
946.112	-0.62
946.841	0.38
947.571	0.38
948.301	-1.62
949.031	1.38
949.76	1.38
950.49	-0.62
951.219	0.38
951.948	0.38
952.678	2.38
953.407	-1.62
954.136	2.38
954.865	-0.62
955.594	0.38
956.323	-0.62
957.052	-0.62
957.78	0.38
958.509	-1.62
959.238	-1.62
959.966	0.38
960.695	1.38
961.423	-0.62
962.151	-0.62
962.88	1.38
963.608	-0.62
964.336	-1.62
965.064	2.38
965.792	0.38
966.52	0.38
967.247	-0.62
967.975	-1.62
968.703	1.38
969.43	1.38
970.158	-1.62
970.885	1.38
971.613	1.38
972.34	-1.62
973.067	2.38
973.794	2.38
974.521	2.38
975.248	1.38
975.975	0.38
976.702	1.38
977.429	-1.62
978.156	2.38
978.882	2.38
979.609	-0.62
980.335	2.38
981.062	0.38
981.788	1.38
982.514	-0.62
983.24	0.38
983.967	1.38
984.693	-1.62
985.419	2.38
986.144	-0.62
986.87	0.38
987.596	-0.62
988.322	1.38
989.047	2.38
989.773	-1.62
990.498	-1.62
991.224	-0.62
991.949	-1.62
992.674	1.38
993.399	0.38
994.124	-1.62
994.849	-1.62
995.574	1.38
996.299	-1.62
997.024	1.38
997.749	0.38
998.473	1.38
999.198	-1.62
999.922	0.38
1000.647	-1.62
1001.371	4.38
1002.095	-1.62
1002.82	-1.62
1003.544	-0.62
1004.268	3.38
1004.992	-1.62
1005.716	-1.62
1006.439	-1.62
1007.163	-2.62
1007.887	-0.62
1008.611	-1.62
1009.334	0.38
1010.058	1.38
1010.781	1.38
1011.504	-0.62
1012.228	-1.62
1012.951	-0.62
1013.674	1.38
1014.397	-0.62
1015.12	-0.62
