节点500_145_QEPB04081__555__11-37-46-428.txt的数据

Date: Wed Nov 12 11:37:46 CST 2025
User: PC
Spectrometer: QEPB0408
触发模式: 0
积分时间 (秒): 1.000000E-2
Scans to average: 1
启用暗噪声校正: true
启用非线性校正: false
滑动平均宽度: 0
X轴模式: Wavelengths
Number of Pixels in Spectrum: 1044
>>>>>Begin Spectral Data<<<<<
220.843	2
221.644	0
222.444	1
223.244	1
224.045	2
224.845	1
225.645	0
226.445	0
227.245	2
228.045	4
228.845	2
229.645	0
230.444	1
231.244	0
232.043	2
232.843	3
233.642	-1
234.442	4
235.241	3
236.04	-1
236.839	2
237.638	3
238.437	2
239.236	1
240.035	2
240.833	1
241.632	2
242.43	4
243.229	3
244.027	3
244.826	4
245.624	2
246.422	4
247.22	2
248.018	4
248.816	4
249.614	1
250.412	3
251.21	3
252.007	2
252.805	4
253.602	4
254.4	4
255.197	3
255.994	3
256.791	3
257.589	3
258.386	4
259.183	5
259.979	5
260.776	5
261.573	5
262.37	5
263.166	6
263.963	7
264.759	6
265.556	4
266.352	6
267.148	6
267.944	4
268.74	10
269.536	6
270.332	7
271.128	7
271.924	9
272.719	10
273.515	5
274.311	10
275.106	9
275.901	8
276.697	10
277.492	9
278.287	10
279.082	10
279.877	10
280.672	10
281.467	9
282.262	9
283.056	12
283.851	11
284.646	11
285.44	14
286.234	11
287.029	10
287.823	11
288.617	9
289.411	10
290.205	9
290.999	12
291.793	13
292.587	12
293.381	9
294.174	11
294.968	10
295.761	10
296.555	10
297.348	10
298.141	8
298.935	10
299.728	9
300.521	11
301.314	9
302.107	11
302.899	7
303.692	8
304.485	9
305.277	7
306.07	11
306.862	7
307.655	9
308.447	9
309.239	10
310.031	10
310.823	7
311.615	7
312.407	8
313.199	8
313.991	6
314.783	8
315.574	7
316.366	5
317.157	5
317.949	5
318.74	5
319.531	6
320.322	4
321.113	6
321.904	7
322.695	7
323.486	7
324.277	6
325.068	6
325.858	3
326.649	5
327.439	5
328.23	6
329.02	5
329.81	6
330.6	3
331.391	5
332.181	5
332.971	5
333.76	6
334.55	5
335.34	3
336.13	4
336.919	2
337.709	5
338.498	6
339.287	6
340.077	4
340.866	6
341.655	4
342.444	6
343.233	3
344.022	5
344.811	6
345.6	4
346.388	3
347.177	3
347.965	3
348.754	3
349.542	4
350.33	2
351.119	3
351.907	1
352.695	4
353.483	0
354.271	3
355.059	3
355.846	5
356.634	4
357.422	2
358.209	3
358.997	6
359.784	0
360.571	4
361.359	2
362.146	2
362.933	4
363.72	3
364.507	5
365.294	7
366.081	4
366.867	1
367.654	5
368.44	2
369.227	2
370.013	3
370.8	3
371.586	5
372.372	1
373.158	3
373.944	2
374.73	3
375.516	4
376.302	3
377.088	5
377.873	3
378.659	5
379.445	3
380.23	2
381.015	4
381.801	3
382.586	3
383.371	3
384.156	4
384.941	1
385.726	4
386.511	3
387.296	3
388.08	3
388.865	3
389.649	5
390.434	5
391.218	2
392.003	4
392.787	3
393.571	3
394.355	4
395.139	3
395.923	5
396.707	4
397.491	4
398.274	4
399.058	6
399.842	6
400.625	4
401.408	3
402.192	3
402.975	3
403.758	2
404.541	3
405.324	5
406.107	4
406.89	3
407.673	4
408.456	6
409.238	4
410.021	6
410.803	4
411.586	3
412.368	6
413.151	5
413.933	7
414.715	7
415.497	5
416.279	4
417.061	5
417.843	4
418.624	8
419.406	7
420.188	6
420.969	6
421.751	8
422.532	6
423.313	8
424.095	6
424.876	5
425.657	4
426.438	7
427.219	7
428	7
428.78	8
429.561	9
430.342	8
431.122	9
431.903	9
432.683	9
433.464	7
434.244	9
435.024	9
435.804	11
436.584	9
437.364	12
438.144	11
438.924	12
439.704	14
440.483	11
441.263	14
442.042	13
442.822	15
443.601	14
444.38	17
445.16	17
445.939	17
446.718	20
447.497	18
448.276	22
449.054	21
449.833	27
450.612	26
451.391	30
452.169	32
452.948	36
453.726	39
454.504	43
455.282	47
456.061	48
456.839	53
457.617	59
458.395	65
459.172	74
459.95	82
460.728	91
461.506	103
462.283	112
463.061	126
463.838	140
464.615	155
465.393	168
466.17	193
466.947	207
467.724	238
468.501	255
469.278	294
470.055	319
470.831	359
471.608	391
472.385	435
473.161	482
473.938	527
474.714	599
475.49	660
476.266	718
477.043	790
477.819	866
478.595	962
479.371	1071
480.146	1163
480.922	1276
481.698	1412
482.473	1534
483.249	1687
484.024	1836
484.8	2022
485.575	2232
486.35	2427
487.126	2656
487.901	2944
488.676	3183
489.451	3498
490.225	3842
491	4196
491.775	4570
492.55	4993
493.324	5470
494.099	5918
494.873	6449
495.647	6979
496.422	7550
497.196	8185
497.97	8831
498.744	9470
499.518	10159
500.292	10833
501.066	11482
501.839	12144
502.613	12747
503.387	13341
504.16	13882
504.934	14380
505.707	14778
506.48	15131
507.253	15331
508.027	15486
508.8	15624
509.573	15576
510.346	15427
511.118	15172
511.891	14875
512.664	14575
513.437	14135
514.209	13674
514.982	13209
515.754	12707
516.526	12231
517.298	11710
518.071	11196
518.843	10743
519.615	10338
520.387	9852
521.159	9496
521.93	9082
522.702	8740
523.474	8401
524.245	8085
525.017	7713
525.788	7426
526.56	7111
527.331	6849
528.102	6552
528.873	6311
529.644	5999
530.415	5754
531.186	5482
531.957	5239
532.728	4960
533.498	4713
534.269	4492
535.039	4260
535.81	4002
536.58	3790
537.351	3591
538.121	3381
538.891	3226
539.661	3039
540.431	2869
541.201	2713
541.971	2575
542.741	2447
543.51	2313
544.28	2203
545.05	2085
545.819	1972
546.588	1886
547.358	1789
548.127	1707
548.896	1618
549.665	1524
550.434	1448
551.203	1380
551.972	1308
552.741	1238
553.51	1186
554.278	1123
555.047	1054
555.815	1010
556.584	936
557.352	893
558.121	843
558.889	796
559.657	764
560.425	707
561.193	667
561.961	641
562.729	595
563.496	567
564.264	520
565.032	501
565.799	465
566.567	448
567.334	417
568.101	390
568.869	378
569.636	350
570.403	337
571.17	316
571.937	297
572.704	273
573.471	262
574.237	248
575.004	238
575.771	218
576.537	206
577.303	196
578.07	185
578.836	175
579.602	159
580.368	151
581.134	148
581.9	140
582.666	131
583.432	127
584.198	119
584.964	112
585.729	104
586.495	101
587.26	94
588.025	89
588.791	90
589.556	81
590.321	80
591.086	66
591.851	66
592.616	64
593.381	61
594.146	57
594.911	57
595.675	55
596.44	52
597.204	46
597.969	45
598.733	45
599.497	42
600.261	38
601.025	37
601.79	36
602.553	33
603.317	36
604.081	33
604.845	31
605.609	30
606.372	29
607.136	26
607.899	25
608.662	22
609.426	25
610.189	23
610.952	19
611.715	21
612.478	19
613.241	20
614.004	18
614.767	17
615.529	21
616.292	15
617.055	15
617.817	14
618.579	16
619.342	15
620.104	14
620.866	12
621.628	12
622.39	12
623.152	13
623.914	12
624.676	10
625.438	11
626.199	8
626.961	12
627.722	11
628.484	12
629.245	10
630.006	9
630.768	9
631.529	7
632.29	9
633.051	8
633.812	7
634.573	9
635.333	8
636.094	7
636.855	7
637.615	6
638.376	8
639.136	7
639.896	6
640.657	4
641.417	6
642.177	4
642.937	4
643.697	8
644.457	4
645.216	7
645.976	4
646.736	6
647.495	7
648.255	2
649.014	6
649.774	6
650.533	5
651.292	5
652.051	7
652.81	5
653.569	3
654.328	3
655.087	3
655.846	5
656.604	4
657.363	4
658.121	4
658.88	3
659.638	4
660.397	4
661.155	4
661.913	4
662.671	4
663.429	2
664.187	5
664.945	3
665.703	4
666.46	4
667.218	3
667.976	4
668.733	3
669.49	1
670.248	2
671.005	6
671.762	2
672.519	6
673.276	5
674.033	2
674.79	4
675.547	4
676.304	1
677.06	5
677.817	2
678.574	4
679.33	4
680.086	2
680.843	4
681.599	5
682.355	3
683.111	5
683.867	4
684.623	2
685.379	2
686.135	4
686.89	3
687.646	3
688.402	2
689.157	5
689.912	4
690.668	6
691.423	5
692.178	3
692.933	1
693.688	2
694.443	4
695.198	4
695.953	4
696.708	4
697.462	2
698.217	2
698.972	0
699.726	2
700.48	2
701.235	3
701.989	3
702.743	6
703.497	1
704.251	3
705.005	2
705.759	3
706.513	0
707.266	3
708.02	2
708.774	2
709.527	2
710.28	3
711.034	2
711.787	3
712.54	4
713.293	3
714.046	4
714.799	3
715.552	1
716.305	3
717.058	5
717.81	3
718.563	3
719.315	4
720.068	3
720.82	2
721.573	2
722.325	3
723.077	3
723.829	2
724.581	3
725.333	3
726.085	3
726.836	4
727.588	2
728.34	4
729.091	1
729.843	4
730.594	2
731.346	2
732.097	2
732.848	3
733.599	5
734.35	3
735.101	2
735.852	5
736.603	5
737.354	4
738.104	5
738.855	3
739.605	3
740.356	3
741.106	1
741.856	2
742.607	5
743.357	2
744.107	4
744.857	4
745.607	2
746.357	4
747.106	3
747.856	6
748.606	4
749.355	2
750.105	2
750.854	2
751.603	4
752.353	4
753.102	3
753.851	4
754.6	2
755.349	2
756.098	3
756.847	3
757.595	2
758.344	1
759.093	5
759.841	3
760.589	4
761.338	1
762.086	3
762.834	4
763.582	4
764.331	3
765.079	5
765.826	5
766.574	3
767.322	6
768.07	3
768.817	6
769.565	4
770.312	4
771.06	3
771.807	6
772.554	5
773.302	5
774.049	6
774.796	5
775.543	3
776.29	6
777.036	4
777.783	6
778.53	6
779.276	3
780.023	4
780.769	6
781.516	6
782.262	4
783.008	8
783.754	7
784.5	5
785.246	5
785.992	7
786.738	7
787.484	4
788.23	5
788.975	7
789.721	8
790.466	8
791.212	6
791.957	6
792.702	7
793.447	5
794.193	5
794.938	5
795.683	5
796.427	5
797.172	4
797.917	5
798.662	6
799.406	6
800.151	6
800.895	5
801.64	3
802.384	7
803.128	7
803.872	6
804.616	6
805.36	5
806.104	5
806.848	1
807.592	5
808.336	3
809.079	4
809.823	3
810.566	4
811.31	3
812.053	4
812.796	7
813.539	5
814.283	3
815.026	6
815.769	6
816.511	6
817.254	6
817.997	6
818.74	2
819.482	4
820.225	3
820.967	5
821.71	2
822.452	3
823.194	5
823.936	4
824.678	5
825.42	1
826.162	4
826.904	3
827.646	2
828.388	4
829.129	0
829.871	6
830.612	2
831.354	2
832.095	3
832.836	0
833.577	5
834.319	2
835.06	4
835.801	1
836.542	2
837.282	2
838.023	2
838.764	5
839.504	2
840.245	3
840.985	3
841.726	2
842.466	3
843.206	2
843.946	4
844.687	3
845.427	3
846.166	5
846.906	2
847.646	1
848.386	2
849.125	3
849.865	4
850.605	2
851.344	2
852.083	3
852.823	2
853.562	4
854.301	1
855.04	1
855.779	3
856.518	2
857.257	4
857.995	5
858.734	1
859.473	3
860.211	3
860.95	3
861.688	3
862.426	2
863.165	2
863.903	1
864.641	2
865.379	4
866.117	4
866.855	-1
867.593	2
868.33	2
869.068	1
869.806	2
870.543	1
871.28	3
872.018	2
872.755	1
873.492	0
874.229	3
874.967	2
875.703	2
876.44	1
877.177	3
877.914	2
878.651	2
879.387	1
880.124	2
880.86	1
881.597	2
882.333	0
883.069	1
883.806	2
884.542	1
885.278	4
886.014	2
886.749	2
887.485	2
888.221	1
888.957	3
889.692	0
890.428	1
891.163	2
891.899	4
892.634	0
893.369	1
894.104	3
894.839	1
895.574	2
896.309	1
897.044	2
897.779	2
898.514	1
899.248	3
899.983	2
900.717	2
901.452	2
902.186	3
902.92	2
903.654	3
904.389	-1
905.123	0
905.857	1
906.59	1
907.324	1
908.058	3
908.792	0
909.525	1
910.259	3
910.992	3
911.726	1
912.459	1
913.192	3
913.925	0
914.658	0
915.391	0
916.124	-1
916.857	1
917.59	1
918.323	3
919.055	0
919.788	2
920.521	1
921.253	3
921.985	1
922.718	2
923.45	3
924.182	2
924.914	2
925.646	2
926.378	4
927.11	1
927.841	-1
928.573	4
929.305	0
930.036	2
930.768	-1
931.499	2
932.23	2
932.962	-1
933.693	0
934.424	-1
935.155	3
935.886	2
936.617	0
937.348	0
938.078	2
938.809	0
939.54	1
940.27	2
941.001	2
941.731	1
942.461	2
943.191	1
943.922	1
944.652	-1
945.382	-1
946.112	3
946.841	1
947.571	2
948.301	1
949.031	0
949.76	2
950.49	-1
951.219	0
951.948	1
952.678	3
953.407	0
954.136	2
954.865	0
955.594	1
956.323	3
957.052	2
957.78	1
958.509	0
959.238	2
959.966	1
960.695	2
961.423	3
962.151	0
962.88	2
963.608	1
964.336	1
965.064	2
965.792	1
966.52	-1
967.247	0
967.975	3
968.703	0
969.43	1
970.158	2
970.885	1
971.613	2
972.34	1
973.067	3
973.794	0
974.521	-1
975.248	1
975.975	1
976.702	2
977.429	1
978.156	-1
978.882	1
979.609	2
980.335	1
981.062	0
981.788	-1
982.514	1
983.24	2
983.967	1
984.693	3
985.419	3
986.144	1
986.87	2
987.596	-1
988.322	2
989.047	-2
989.773	2
990.498	3
991.224	2
991.949	0
992.674	1
993.399	3
994.124	2
994.849	1
995.574	-1
996.299	-1
997.024	2
997.749	0
998.473	1
999.198	0
999.922	2
1000.647	3
1001.371	5
1002.095	-1
1002.82	-1
1003.544	-1
1004.268	0
1004.992	0
1005.716	-2
1006.439	0
1007.163	1
1007.887	-2
1008.611	0
1009.334	1
1010.058	0
1010.781	0
1011.504	2
1012.228	1
1012.951	0
1013.674	0
1014.397	1
1015.12	-3
