节点500_145_QEPB04081__442__11-36-01-536.txt的数据

Date: Wed Nov 12 11:36:01 CST 2025
User: PC
Spectrometer: QEPB0408
触发模式: 0
积分时间 (秒): 1.000000E-2
Scans to average: 1
启用暗噪声校正: true
启用非线性校正: false
滑动平均宽度: 0
X轴模式: Wavelengths
Number of Pixels in Spectrum: 1044
>>>>>Begin Spectral Data<<<<<
220.843	-0.75
221.644	-0.75
222.444	0.25
223.244	-0.75
224.045	-0.75
224.845	-1.75
225.645	-1.75
226.445	-0.75
227.245	-1.75
228.045	0.25
228.845	0.25
229.645	2.25
230.444	1.25
231.244	2.25
232.043	-0.75
232.843	1.25
233.642	-0.75
234.442	1.25
235.241	-0.75
236.04	0.25
236.839	0.25
237.638	-2.75
238.437	0.25
239.236	1.25
240.035	-0.75
240.833	0.25
241.632	-1.75
242.43	-1.75
243.229	2.25
244.027	2.25
244.826	0.25
245.624	0.25
246.422	0.25
247.22	1.25
248.018	2.25
248.816	0.25
249.614	2.25
250.412	0.25
251.21	2.25
252.007	1.25
252.805	1.25
253.602	2.25
254.4	0.25
255.197	2.25
255.994	1.25
256.791	4.25
257.589	1.25
258.386	1.25
259.183	0.25
259.979	1.25
260.776	2.25
261.573	5.25
262.37	4.25
263.166	6.25
263.963	4.25
264.759	4.25
265.556	6.25
266.352	5.25
267.148	4.25
267.944	4.25
268.74	4.25
269.536	4.25
270.332	7.25
271.128	6.25
271.924	6.25
272.719	6.25
273.515	7.25
274.311	8.25
275.106	6.25
275.901	9.25
276.697	6.25
277.492	7.25
278.287	7.25
279.082	9.25
279.877	7.25
280.672	8.25
281.467	10.25
282.262	8.25
283.056	10.25
283.851	9.25
284.646	10.25
285.44	8.25
286.234	10.25
287.029	7.25
287.823	6.25
288.617	10.25
289.411	9.25
290.205	9.25
290.999	9.25
291.793	6.25
292.587	9.25
293.381	12.25
294.174	9.25
294.968	7.25
295.761	9.25
296.555	10.25
297.348	8.25
298.141	9.25
298.935	9.25
299.728	10.25
300.521	8.25
301.314	8.25
302.107	8.25
302.899	8.25
303.692	6.25
304.485	7.25
305.277	10.25
306.07	7.25
306.862	7.25
307.655	4.25
308.447	7.25
309.239	8.25
310.031	6.25
310.823	6.25
311.615	6.25
312.407	5.25
313.199	6.25
313.991	4.25
314.783	6.25
315.574	4.25
316.366	6.25
317.157	3.25
317.949	5.25
318.74	5.25
319.531	3.25
320.322	2.25
321.113	1.25
321.904	4.25
322.695	4.25
323.486	3.25
324.277	4.25
325.068	2.25
325.858	3.25
326.649	1.25
327.439	3.25
328.23	2.25
329.02	4.25
329.81	2.25
330.6	2.25
331.391	2.25
332.181	1.25
332.971	3.25
333.76	3.25
334.55	4.25
335.34	1.25
336.13	0.25
336.919	2.25
337.709	2.25
338.498	4.25
339.287	2.25
340.077	2.25
340.866	1.25
341.655	1.25
342.444	2.25
343.233	3.25
344.022	1.25
344.811	1.25
345.6	2.25
346.388	2.25
347.177	1.25
347.965	4.25
348.754	2.25
349.542	1.25
350.33	2.25
351.119	3.25
351.907	3.25
352.695	4.25
353.483	2.25
354.271	4.25
355.059	1.25
355.846	1.25
356.634	2.25
357.422	2.25
358.209	-1.75
358.997	0.25
359.784	2.25
360.571	1.25
361.359	2.25
362.146	2.25
362.933	2.25
363.72	0.25
364.507	3.25
365.294	2.25
366.081	0.25
366.867	3.25
367.654	1.25
368.44	2.25
369.227	4.25
370.013	3.25
370.8	-0.75
371.586	1.25
372.372	2.25
373.158	0.25
373.944	1.25
374.73	2.25
375.516	0.25
376.302	0.25
377.088	1.25
377.873	4.25
378.659	2.25
379.445	1.25
380.23	1.25
381.015	2.25
381.801	3.25
382.586	3.25
383.371	-0.75
384.156	0.25
384.941	0.25
385.726	2.25
386.511	2.25
387.296	0.25
388.08	0.25
388.865	0.25
389.649	2.25
390.434	2.25
391.218	1.25
392.003	1.25
392.787	1.25
393.571	1.25
394.355	3.25
395.139	1.25
395.923	3.25
396.707	2.25
397.491	1.25
398.274	3.25
399.058	2.25
399.842	4.25
400.625	3.25
401.408	2.25
402.192	3.25
402.975	2.25
403.758	0.25
404.541	5.25
405.324	3.25
406.107	2.25
406.89	2.25
407.673	3.25
408.456	3.25
409.238	4.25
410.021	2.25
410.803	6.25
411.586	2.25
412.368	6.25
413.151	2.25
413.933	4.25
414.715	3.25
415.497	0.25
416.279	4.25
417.061	3.25
417.843	5.25
418.624	4.25
419.406	3.25
420.188	4.25
420.969	1.25
421.751	5.25
422.532	2.25
423.313	6.25
424.095	6.25
424.876	3.25
425.657	4.25
426.438	4.25
427.219	6.25
428	5.25
428.78	6.25
429.561	7.25
430.342	6.25
431.122	4.25
431.903	5.25
432.683	9.25
433.464	6.25
434.244	8.25
435.024	9.25
435.804	8.25
436.584	7.25
437.364	8.25
438.144	9.25
438.924	8.25
439.704	9.25
440.483	7.25
441.263	10.25
442.042	14.25
442.822	13.25
443.601	13.25
444.38	15.25
445.16	15.25
445.939	17.25
446.718	16.25
447.497	19.25
448.276	17.25
449.054	21.25
449.833	21.25
450.612	23.25
451.391	29.25
452.169	27.25
452.948	30.25
453.726	36.25
454.504	40.25
455.282	44.25
456.061	49.25
456.839	48.25
457.617	56.25
458.395	63.25
459.172	71.25
459.95	78.25
460.728	88.25
461.506	93.25
462.283	106.25
463.061	116.25
463.838	136.25
464.615	145.25
465.393	162.25
466.17	182.25
466.947	201.25
467.724	226.25
468.501	255.25
469.278	285.25
470.055	313.25
470.831	335.25
471.608	381.25
472.385	426.25
473.161	479.25
473.938	521.25
474.714	587.25
475.49	636.25
476.266	722.25
477.043	792.25
477.819	862.25
478.595	945.25
479.371	1052.25
480.146	1170.25
480.922	1272.25
481.698	1416.25
482.473	1544.25
483.249	1696.25
484.024	1876.25
484.8	2051.25
485.575	2255.25
486.35	2478.25
487.126	2704.25
487.901	2964.25
488.676	3266.25
489.451	3570.25
490.225	3892.25
491	4297.25
491.775	4699.25
492.55	5147.25
493.324	5612.25
494.099	6139.25
494.873	6667.25
495.647	7250.25
496.422	7836.25
497.196	8486.25
497.97	9190.25
498.744	9839.25
499.518	10560.25
500.292	11263.25
501.066	11888.25
501.839	12596.25
502.613	13224.25
503.387	13867.25
504.16	14428.25
504.934	14862.25
505.707	15243.25
506.48	15603.25
507.253	15831.25
508.027	15932.25
508.8	15976.25
509.573	15863.25
510.346	15684.25
511.118	15488.25
511.891	15142.25
512.664	14741.25
513.437	14284.25
514.209	13835.25
514.982	13254.25
515.754	12725.25
516.526	12276.25
517.298	11684.25
518.071	11228.25
518.843	10706.25
519.615	10332.25
520.387	9831.25
521.159	9449.25
521.93	9067.25
522.702	8727.25
523.474	8365.25
524.245	8029.25
525.017	7721.25
525.788	7409.25
526.56	7112.25
527.331	6809.25
528.102	6541.25
528.873	6217.25
529.644	6004.25
530.415	5705.25
531.186	5462.25
531.957	5202.25
532.728	4952.25
533.498	4681.25
534.269	4432.25
535.039	4209.25
535.81	3956.25
536.58	3747.25
537.351	3552.25
538.121	3341.25
538.891	3160.25
539.661	2990.25
540.431	2837.25
541.201	2672.25
541.971	2542.25
542.741	2420.25
543.51	2270.25
544.28	2166.25
545.05	2039.25
545.819	1960.25
546.588	1857.25
547.358	1759.25
548.127	1672.25
548.896	1581.25
549.665	1505.25
550.434	1433.25
551.203	1349.25
551.972	1287.25
552.741	1232.25
553.51	1146.25
554.278	1106.25
555.047	1021.25
555.815	973.25
556.584	927.25
557.352	873.25
558.121	826.25
558.889	765.25
559.657	733.25
560.425	692.25
561.193	652.25
561.961	613.25
562.729	590.25
563.496	539.25
564.264	518.25
565.032	484.25
565.799	464.25
566.567	436.25
567.334	410.25
568.101	385.25
568.869	365.25
569.636	347.25
570.403	326.25
571.17	310.25
571.937	287.25
572.704	269.25
573.471	253.25
574.237	236.25
575.004	222.25
575.771	216.25
576.537	200.25
577.303	190.25
578.07	178.25
578.836	169.25
579.602	157.25
580.368	152.25
581.134	143.25
581.9	134.25
582.666	129.25
583.432	125.25
584.198	117.25
584.964	110.25
585.729	103.25
586.495	99.25
587.26	91.25
588.025	88.25
588.791	86.25
589.556	78.25
590.321	75.25
591.086	68.25
591.851	64.25
592.616	63.25
593.381	57.25
594.146	57.25
594.911	56.25
595.675	45.25
596.44	47.25
597.204	44.25
597.969	44.25
598.733	40.25
599.497	41.25
600.261	39.25
601.025	34.25
601.79	35.25
602.553	32.25
603.317	30.25
604.081	28.25
604.845	32.25
605.609	29.25
606.372	26.25
607.136	24.25
607.899	21.25
608.662	21.25
609.426	20.25
610.189	21.25
610.952	21.25
611.715	19.25
612.478	20.25
613.241	17.25
614.004	17.25
614.767	14.25
615.529	17.25
616.292	13.25
617.055	13.25
617.817	11.25
618.579	11.25
619.342	15.25
620.104	11.25
620.866	10.25
621.628	10.25
622.39	11.25
623.152	9.25
623.914	10.25
624.676	11.25
625.438	9.25
626.199	8.25
626.961	9.25
627.722	10.25
628.484	8.25
629.245	6.25
630.006	9.25
630.768	7.25
631.529	7.25
632.29	4.25
633.051	9.25
633.812	7.25
634.573	8.25
635.333	6.25
636.094	5.25
636.855	5.25
637.615	5.25
638.376	8.25
639.136	4.25
639.896	3.25
640.657	6.25
641.417	3.25
642.177	4.25
642.937	2.25
643.697	5.25
644.457	6.25
645.216	1.25
645.976	4.25
646.736	4.25
647.495	2.25
648.255	3.25
649.014	3.25
649.774	4.25
650.533	2.25
651.292	4.25
652.051	5.25
652.81	2.25
653.569	0.25
654.328	4.25
655.087	0.25
655.846	3.25
656.604	5.25
657.363	3.25
658.121	6.25
658.88	1.25
659.638	1.25
660.397	2.25
661.155	1.25
661.913	2.25
662.671	3.25
663.429	2.25
664.187	2.25
664.945	0.25
665.703	2.25
666.46	1.25
667.218	3.25
667.976	2.25
668.733	2.25
669.49	3.25
670.248	1.25
671.005	2.25
671.762	-0.75
672.519	2.25
673.276	1.25
674.033	1.25
674.79	1.25
675.547	0.25
676.304	1.25
677.06	3.25
677.817	3.25
678.574	2.25
679.33	2.25
680.086	1.25
680.843	0.25
681.599	1.25
682.355	0.25
683.111	2.25
683.867	1.25
684.623	0.25
685.379	1.25
686.135	4.25
686.89	1.25
687.646	0.25
688.402	3.25
689.157	1.25
689.912	0.25
690.668	0.25
691.423	-0.75
692.178	1.25
692.933	1.25
693.688	3.25
694.443	-0.75
695.198	1.25
695.953	-0.75
696.708	1.25
697.462	4.25
698.217	0.25
698.972	1.25
699.726	2.25
700.48	-0.75
701.235	0.25
701.989	2.25
702.743	1.25
703.497	1.25
704.251	0.25
705.005	0.25
705.759	0.25
706.513	1.25
707.266	1.25
708.02	1.25
708.774	2.25
709.527	1.25
710.28	0.25
711.034	1.25
711.787	1.25
712.54	0.25
713.293	2.25
714.046	1.25
714.799	1.25
715.552	1.25
716.305	0.25
717.058	1.25
717.81	2.25
718.563	2.25
719.315	1.25
720.068	0.25
720.82	0.25
721.573	0.25
722.325	1.25
723.077	1.25
723.829	1.25
724.581	1.25
725.333	1.25
726.085	0.25
726.836	-0.75
727.588	2.25
728.34	0.25
729.091	2.25
729.843	1.25
730.594	0.25
731.346	0.25
732.097	-0.75
732.848	1.25
733.599	0.25
734.35	5.25
735.101	3.25
735.852	3.25
736.603	1.25
737.354	-0.75
738.104	0.25
738.855	-0.75
739.605	2.25
740.356	1.25
741.106	1.25
741.856	0.25
742.607	1.25
743.357	2.25
744.107	0.25
744.857	0.25
745.607	1.25
746.357	-0.75
747.106	1.25
747.856	0.25
748.606	2.25
749.355	2.25
750.105	1.25
750.854	3.25
751.603	1.25
752.353	3.25
753.102	1.25
753.851	2.25
754.6	1.25
755.349	0.25
756.098	4.25
756.847	1.25
757.595	2.25
758.344	0.25
759.093	4.25
759.841	1.25
760.589	1.25
761.338	3.25
762.086	3.25
762.834	1.25
763.582	1.25
764.331	3.25
765.079	4.25
765.826	4.25
766.574	1.25
767.322	1.25
768.07	3.25
768.817	2.25
769.565	2.25
770.312	3.25
771.06	4.25
771.807	2.25
772.554	1.25
773.302	3.25
774.049	3.25
774.796	4.25
775.543	4.25
776.29	2.25
777.036	0.25
777.783	3.25
778.53	4.25
779.276	3.25
780.023	4.25
780.769	2.25
781.516	2.25
782.262	3.25
783.008	1.25
783.754	4.25
784.5	4.25
785.246	6.25
785.992	3.25
786.738	4.25
787.484	7.25
788.23	1.25
788.975	4.25
789.721	3.25
790.466	4.25
791.212	4.25
791.957	4.25
792.702	4.25
793.447	3.25
794.193	5.25
794.938	2.25
795.683	4.25
796.427	6.25
797.172	3.25
797.917	4.25
798.662	4.25
799.406	3.25
800.151	4.25
800.895	3.25
801.64	4.25
802.384	3.25
803.128	3.25
803.872	1.25
804.616	4.25
805.36	3.25
806.104	4.25
806.848	1.25
807.592	2.25
808.336	2.25
809.079	2.25
809.823	2.25
810.566	3.25
811.31	3.25
812.053	3.25
812.796	3.25
813.539	1.25
814.283	2.25
815.026	2.25
815.769	2.25
816.511	2.25
817.254	2.25
817.997	0.25
818.74	1.25
819.482	2.25
820.225	6.25
820.967	1.25
821.71	1.25
822.452	2.25
823.194	2.25
823.936	1.25
824.678	1.25
825.42	3.25
826.162	2.25
826.904	2.25
827.646	0.25
828.388	3.25
829.129	1.25
829.871	3.25
830.612	4.25
831.354	1.25
832.095	1.25
832.836	1.25
833.577	0.25
834.319	3.25
835.06	0.25
835.801	0.25
836.542	1.25
837.282	1.25
838.023	1.25
838.764	-0.75
839.504	0.25
840.245	0.25
840.985	2.25
841.726	0.25
842.466	-0.75
843.206	0.25
843.946	1.25
844.687	1.25
845.427	-1.75
846.166	1.25
846.906	1.25
847.646	2.25
848.386	2.25
849.125	2.25
849.865	4.25
850.605	-0.75
851.344	2.25
852.083	0.25
852.823	1.25
853.562	2.25
854.301	1.25
855.04	-2.75
855.779	0.25
856.518	3.25
857.257	0.25
857.995	0.25
858.734	0.25
859.473	0.25
860.211	-1.75
860.95	-0.75
861.688	1.25
862.426	1.25
863.165	0.25
863.903	-1.75
864.641	-0.75
865.379	1.25
866.117	0.25
866.855	0.25
867.593	2.25
868.33	-0.75
869.068	1.25
869.806	1.25
870.543	1.25
871.28	-2.75
872.018	2.25
872.755	0.25
873.492	0.25
874.229	1.25
874.967	-0.75
875.703	-0.75
876.44	0.25
877.177	-0.75
877.914	0.25
878.651	1.25
879.387	0.25
880.124	2.25
880.86	-1.75
881.597	0.25
882.333	-0.75
883.069	-0.75
883.806	0.25
884.542	1.25
885.278	0.25
886.014	1.25
886.749	0.25
887.485	1.25
888.221	-0.75
888.957	2.25
889.692	1.25
890.428	-0.75
891.163	0.25
891.899	-0.75
892.634	0.25
893.369	0.25
894.104	-1.75
894.839	0.25
895.574	0.25
896.309	-1.75
897.044	-0.75
897.779	-0.75
898.514	-1.75
899.248	0.25
899.983	-0.75
900.717	0.25
901.452	1.25
902.186	1.25
902.92	0.25
903.654	-0.75
904.389	0.25
905.123	-0.75
905.857	-1.75
906.59	1.25
907.324	0.25
908.058	0.25
908.792	0.25
909.525	-0.75
910.259	-0.75
910.992	0.25
911.726	0.25
912.459	0.25
913.192	-0.75
913.925	1.25
914.658	0.25
915.391	1.25
916.124	-3.75
916.857	-1.75
917.59	-1.75
918.323	3.25
919.055	-0.75
919.788	0.25
920.521	-0.75
921.253	-2.75
921.985	0.25
922.718	1.25
923.45	-1.75
924.182	1.25
924.914	0.25
925.646	-0.75
926.378	-1.75
927.11	1.25
927.841	0.25
928.573	-0.75
929.305	-0.75
930.036	-2.75
930.768	-2.75
931.499	-0.75
932.23	1.25
932.962	1.25
933.693	0.25
934.424	-1.75
935.155	-0.75
935.886	0.25
936.617	-0.75
937.348	-0.75
938.078	0.25
938.809	-1.75
939.54	0.25
940.27	-3.75
941.001	0.25
941.731	-2.75
942.461	-0.75
943.191	-1.75
943.922	-0.75
944.652	1.25
945.382	0.25
946.112	-0.75
946.841	0.25
947.571	0.25
948.301	-1.75
949.031	1.25
949.76	-0.75
950.49	-2.75
951.219	-0.75
951.948	-2.75
952.678	-1.75
953.407	-0.75
954.136	0.25
954.865	-1.75
955.594	-1.75
956.323	0.25
957.052	-0.75
957.78	0.25
958.509	0.25
959.238	-1.75
959.966	-2.75
960.695	-1.75
961.423	-0.75
962.151	-1.75
962.88	1.25
963.608	0.25
964.336	0.25
965.064	0.25
965.792	-0.75
966.52	0.25
967.247	-2.75
967.975	-0.75
968.703	-1.75
969.43	0.25
970.158	0.25
970.885	-1.75
971.613	-0.75
972.34	0.25
973.067	-0.75
973.794	0.25
974.521	-1.75
975.248	-0.75
975.975	-1.75
976.702	0.25
977.429	1.25
978.156	-1.75
978.882	0.25
979.609	-1.75
980.335	-0.75
981.062	-2.75
981.788	0.25
982.514	0.25
983.24	-0.75
983.967	-2.75
984.693	-2.75
985.419	-0.75
986.144	-1.75
986.87	1.25
987.596	-0.75
988.322	0.25
989.047	0.25
989.773	0.25
990.498	-0.75
991.224	-0.75
991.949	-0.75
992.674	-0.75
993.399	1.25
994.124	0.25
994.849	-0.75
995.574	2.25
996.299	-0.75
997.024	0.25
997.749	-1.75
998.473	-1.75
999.198	-1.75
999.922	-0.75
1000.647	0.25
1001.371	4.25
1002.095	-1.75
1002.82	-0.75
1003.544	-1.75
1004.268	-0.75
1004.992	-2.75
1005.716	1.25
1006.439	-1.75
1007.163	0.25
1007.887	-1.75
1008.611	-1.75
1009.334	0.25
1010.058	-0.75
1010.781	0.25
1011.504	0.25
1012.228	-2.75
1012.951	1.25
1013.674	-0.75
1014.397	1.25
1015.12	-1.75
