节点500_145_QEPB04081__639__11-39-08-142.txt的数据

Date: Wed Nov 12 11:39:08 CST 2025
User: PC
Spectrometer: QEPB0408
触发模式: 0
积分时间 (秒): 1.000000E-2
Scans to average: 1
启用暗噪声校正: true
启用非线性校正: false
滑动平均宽度: 0
X轴模式: Wavelengths
Number of Pixels in Spectrum: 1044
>>>>>Begin Spectral Data<<<<<
220.843	-1.12
221.644	1.88
222.444	-1.12
223.244	0.88
224.045	0.88
224.845	0.88
225.645	-0.12
226.445	-1.12
227.245	1.88
228.045	1.88
228.845	-1.12
229.645	-0.12
230.444	1.88
231.244	1.88
232.043	-2.12
232.843	-1.12
233.642	0.88
234.442	0.88
235.241	0.88
236.04	0.88
236.839	-1.12
237.638	1.88
238.437	2.88
239.236	2.88
240.035	3.88
240.833	0.88
241.632	1.88
242.43	2.88
243.229	0.88
244.027	1.88
244.826	-1.12
245.624	-0.12
246.422	1.88
247.22	2.88
248.018	2.88
248.816	2.88
249.614	3.88
250.412	0.88
251.21	-1.12
252.007	2.88
252.805	1.88
253.602	5.88
254.4	2.88
255.197	3.88
255.994	2.88
256.791	3.88
257.589	2.88
258.386	1.88
259.183	3.88
259.979	4.88
260.776	3.88
261.573	5.88
262.37	2.88
263.166	6.88
263.963	3.88
264.759	5.88
265.556	5.88
266.352	4.88
267.148	4.88
267.944	6.88
268.74	4.88
269.536	5.88
270.332	7.88
271.128	5.88
271.924	5.88
272.719	5.88
273.515	5.88
274.311	6.88
275.106	7.88
275.901	8.88
276.697	8.88
277.492	5.88
278.287	6.88
279.082	5.88
279.877	8.88
280.672	7.88
281.467	9.88
282.262	9.88
283.056	8.88
283.851	10.88
284.646	7.88
285.44	9.88
286.234	9.88
287.029	10.88
287.823	8.88
288.617	11.88
289.411	9.88
290.205	9.88
290.999	10.88
291.793	9.88
292.587	10.88
293.381	8.88
294.174	9.88
294.968	9.88
295.761	7.88
296.555	7.88
297.348	7.88
298.141	9.88
298.935	8.88
299.728	11.88
300.521	7.88
301.314	9.88
302.107	7.88
302.899	7.88
303.692	6.88
304.485	6.88
305.277	6.88
306.07	8.88
306.862	9.88
307.655	6.88
308.447	9.88
309.239	10.88
310.031	8.88
310.823	7.88
311.615	7.88
312.407	6.88
313.199	8.88
313.991	3.88
314.783	7.88
315.574	5.88
316.366	3.88
317.157	5.88
317.949	5.88
318.74	6.88
319.531	2.88
320.322	4.88
321.113	3.88
321.904	3.88
322.695	5.88
323.486	3.88
324.277	4.88
325.068	7.88
325.858	2.88
326.649	2.88
327.439	4.88
328.23	2.88
329.02	4.88
329.81	3.88
330.6	2.88
331.391	5.88
332.181	6.88
332.971	3.88
333.76	2.88
334.55	3.88
335.34	3.88
336.13	6.88
336.919	4.88
337.709	4.88
338.498	2.88
339.287	4.88
340.077	3.88
340.866	4.88
341.655	3.88
342.444	3.88
343.233	3.88
344.022	4.88
344.811	5.88
345.6	3.88
346.388	2.88
347.177	1.88
347.965	1.88
348.754	5.88
349.542	1.88
350.33	3.88
351.119	3.88
351.907	4.88
352.695	2.88
353.483	1.88
354.271	0.88
355.059	4.88
355.846	3.88
356.634	0.88
357.422	4.88
358.209	1.88
358.997	3.88
359.784	5.88
360.571	0.88
361.359	1.88
362.146	2.88
362.933	3.88
363.72	2.88
364.507	2.88
365.294	2.88
366.081	0.88
366.867	0.88
367.654	2.88
368.44	3.88
369.227	3.88
370.013	4.88
370.8	1.88
371.586	0.88
372.372	2.88
373.158	2.88
373.944	5.88
374.73	3.88
375.516	1.88
376.302	4.88
377.088	2.88
377.873	1.88
378.659	3.88
379.445	1.88
380.23	2.88
381.015	2.88
381.801	2.88
382.586	2.88
383.371	2.88
384.156	2.88
384.941	3.88
385.726	2.88
386.511	3.88
387.296	2.88
388.08	1.88
388.865	4.88
389.649	0.88
390.434	1.88
391.218	2.88
392.003	2.88
392.787	4.88
393.571	3.88
394.355	1.88
395.139	2.88
395.923	3.88
396.707	4.88
397.491	2.88
398.274	2.88
399.058	2.88
399.842	4.88
400.625	3.88
401.408	2.88
402.192	4.88
402.975	2.88
403.758	5.88
404.541	4.88
405.324	2.88
406.107	4.88
406.89	2.88
407.673	5.88
408.456	3.88
409.238	5.88
410.021	3.88
410.803	6.88
411.586	7.88
412.368	6.88
413.151	3.88
413.933	3.88
414.715	5.88
415.497	5.88
416.279	5.88
417.061	3.88
417.843	3.88
418.624	5.88
419.406	4.88
420.188	6.88
420.969	3.88
421.751	5.88
422.532	6.88
423.313	5.88
424.095	6.88
424.876	6.88
425.657	4.88
426.438	7.88
427.219	6.88
428	5.88
428.78	7.88
429.561	6.88
430.342	5.88
431.122	6.88
431.903	7.88
432.683	7.88
433.464	10.88
434.244	7.88
435.024	10.88
435.804	11.88
436.584	10.88
437.364	10.88
438.144	11.88
438.924	10.88
439.704	9.88
440.483	11.88
441.263	9.88
442.042	10.88
442.822	12.88
443.601	14.88
444.38	14.88
445.16	16.88
445.939	16.88
446.718	18.88
447.497	19.88
448.276	20.88
449.054	22.88
449.833	23.88
450.612	25.88
451.391	27.88
452.169	30.88
452.948	33.88
453.726	40.88
454.504	42.88
455.282	46.88
456.061	51.88
456.839	55.88
457.617	61.88
458.395	66.88
459.172	73.88
459.95	86.88
460.728	91.88
461.506	102.88
462.283	114.88
463.061	125.88
463.838	144.88
464.615	160.88
465.393	173.88
466.17	197.88
466.947	217.88
467.724	240.88
468.501	257.88
469.278	290.88
470.055	327.88
470.831	369.88
471.608	400.88
472.385	435.88
473.161	489.88
473.938	536.88
474.714	601.88
475.49	654.88
476.266	720.88
477.043	804.88
477.819	872.88
478.595	951.88
479.371	1047.88
480.146	1158.88
480.922	1263.88
481.698	1381.88
482.473	1522.88
483.249	1665.88
484.024	1843.88
484.8	1994.88
485.575	2176.88
486.35	2389.88
487.126	2606.88
487.901	2863.88
488.676	3116.88
489.451	3400.88
490.225	3710.88
491	4053.88
491.775	4422.88
492.55	4837.88
493.324	5230.88
494.099	5693.88
494.873	6171.88
495.647	6706.88
496.422	7240.88
497.196	7876.88
497.97	8452.88
498.744	9016.88
499.518	9697.88
500.292	10353.88
501.066	10953.88
501.839	11592.88
502.613	12195.88
503.387	12760.88
504.16	13325.88
504.934	13851.88
505.707	14190.88
506.48	14563.88
507.253	14825.88
508.027	15004.88
508.8	15146.88
509.573	15173.88
510.346	15066.88
511.118	14920.88
511.891	14593.88
512.664	14299.88
513.437	13928.88
514.209	13533.88
514.982	13087.88
515.754	12594.88
516.526	12150.88
517.298	11637.88
518.071	11172.88
518.843	10702.88
519.615	10249.88
520.387	9884.88
521.159	9469.88
521.93	9083.88
522.702	8702.88
523.474	8416.88
524.245	8047.88
525.017	7721.88
525.788	7471.88
526.56	7139.88
527.331	6841.88
528.102	6554.88
528.873	6286.88
529.644	6026.88
530.415	5760.88
531.186	5548.88
531.957	5248.88
532.728	4989.88
533.498	4767.88
534.269	4502.88
535.039	4283.88
535.81	4072.88
536.58	3832.88
537.351	3623.88
538.121	3421.88
538.891	3265.88
539.661	3037.88
540.431	2900.88
541.201	2726.88
541.971	2600.88
542.741	2471.88
543.51	2339.88
544.28	2204.88
545.05	2098.88
545.819	2002.88
546.588	1916.88
547.358	1804.88
548.127	1709.88
548.896	1627.88
549.665	1545.88
550.434	1479.88
551.203	1398.88
551.972	1329.88
552.741	1260.88
553.51	1198.88
554.278	1137.88
555.047	1078.88
555.815	1005.88
556.584	963.88
557.352	903.88
558.121	839.88
558.889	814.88
559.657	755.88
560.425	712.88
561.193	682.88
561.961	637.88
562.729	601.88
563.496	581.88
564.264	543.88
565.032	506.88
565.799	476.88
566.567	455.88
567.334	424.88
568.101	399.88
568.869	373.88
569.636	359.88
570.403	338.88
571.17	326.88
571.937	297.88
572.704	286.88
573.471	263.88
574.237	252.88
575.004	238.88
575.771	224.88
576.537	210.88
577.303	195.88
578.07	187.88
578.836	171.88
579.602	170.88
580.368	159.88
581.134	149.88
581.9	140.88
582.666	133.88
583.432	125.88
584.198	120.88
584.964	112.88
585.729	105.88
586.495	104.88
587.26	94.88
588.025	92.88
588.791	88.88
589.556	79.88
590.321	76.88
591.086	73.88
591.851	68.88
592.616	66.88
593.381	59.88
594.146	61.88
594.911	52.88
595.675	54.88
596.44	47.88
597.204	45.88
597.969	47.88
598.733	42.88
599.497	40.88
600.261	40.88
601.025	38.88
601.79	37.88
602.553	33.88
603.317	34.88
604.081	32.88
604.845	32.88
605.609	30.88
606.372	28.88
607.136	28.88
607.899	26.88
608.662	22.88
609.426	24.88
610.189	23.88
610.952	21.88
611.715	21.88
612.478	20.88
613.241	20.88
614.004	17.88
614.767	17.88
615.529	15.88
616.292	15.88
617.055	15.88
617.817	16.88
618.579	13.88
619.342	14.88
620.104	12.88
620.866	13.88
621.628	11.88
622.39	13.88
623.152	13.88
623.914	9.88
624.676	10.88
625.438	10.88
626.199	10.88
626.961	9.88
627.722	9.88
628.484	9.88
629.245	9.88
630.006	7.88
630.768	6.88
631.529	6.88
632.29	6.88
633.051	7.88
633.812	9.88
634.573	6.88
635.333	5.88
636.094	8.88
636.855	8.88
637.615	6.88
638.376	7.88
639.136	5.88
639.896	6.88
640.657	6.88
641.417	4.88
642.177	7.88
642.937	6.88
643.697	5.88
644.457	3.88
645.216	6.88
645.976	6.88
646.736	7.88
647.495	3.88
648.255	3.88
649.014	4.88
649.774	4.88
650.533	4.88
651.292	3.88
652.051	2.88
652.81	3.88
653.569	5.88
654.328	4.88
655.087	3.88
655.846	1.88
656.604	3.88
657.363	3.88
658.121	2.88
658.88	4.88
659.638	4.88
660.397	0.88
661.155	2.88
661.913	4.88
662.671	1.88
663.429	2.88
664.187	5.88
664.945	1.88
665.703	4.88
666.46	2.88
667.218	-0.12
667.976	3.88
668.733	3.88
669.49	0.88
670.248	3.88
671.005	3.88
671.762	0.88
672.519	3.88
673.276	3.88
674.033	1.88
674.79	3.88
675.547	1.88
676.304	2.88
677.06	2.88
677.817	5.88
678.574	2.88
679.33	2.88
680.086	3.88
680.843	-0.12
681.599	3.88
682.355	1.88
683.111	3.88
683.867	3.88
684.623	-0.12
685.379	2.88
686.135	1.88
686.89	4.88
687.646	0.88
688.402	4.88
689.157	3.88
689.912	2.88
690.668	-0.12
691.423	2.88
692.178	5.88
692.933	1.88
693.688	3.88
694.443	3.88
695.198	2.88
695.953	0.88
696.708	0.88
697.462	3.88
698.217	2.88
698.972	2.88
699.726	2.88
700.48	5.88
701.235	4.88
701.989	2.88
702.743	0.88
703.497	3.88
704.251	2.88
705.005	1.88
705.759	1.88
706.513	0.88
707.266	2.88
708.02	2.88
708.774	2.88
709.527	1.88
710.28	1.88
711.034	0.88
711.787	2.88
712.54	2.88
713.293	1.88
714.046	1.88
714.799	0.88
715.552	2.88
716.305	0.88
717.058	3.88
717.81	-1.12
718.563	2.88
719.315	0.88
720.068	2.88
720.82	1.88
721.573	0.88
722.325	0.88
723.077	2.88
723.829	2.88
724.581	0.88
725.333	1.88
726.085	4.88
726.836	-0.12
727.588	3.88
728.34	1.88
729.091	2.88
729.843	2.88
730.594	1.88
731.346	1.88
732.097	3.88
732.848	1.88
733.599	3.88
734.35	3.88
735.101	1.88
735.852	2.88
736.603	1.88
737.354	2.88
738.104	4.88
738.855	2.88
739.605	3.88
740.356	3.88
741.106	2.88
741.856	2.88
742.607	3.88
743.357	3.88
744.107	2.88
744.857	3.88
745.607	2.88
746.357	1.88
747.106	2.88
747.856	2.88
748.606	3.88
749.355	1.88
750.105	3.88
750.854	4.88
751.603	2.88
752.353	2.88
753.102	4.88
753.851	2.88
754.6	2.88
755.349	4.88
756.098	1.88
756.847	4.88
757.595	2.88
758.344	1.88
759.093	2.88
759.841	0.88
760.589	2.88
761.338	2.88
762.086	4.88
762.834	2.88
763.582	2.88
764.331	1.88
765.079	4.88
765.826	2.88
766.574	2.88
767.322	3.88
768.07	3.88
768.817	3.88
769.565	4.88
770.312	6.88
771.06	5.88
771.807	4.88
772.554	3.88
773.302	5.88
774.049	2.88
774.796	4.88
775.543	3.88
776.29	2.88
777.036	5.88
777.783	1.88
778.53	6.88
779.276	5.88
780.023	3.88
780.769	3.88
781.516	4.88
782.262	7.88
783.008	3.88
783.754	1.88
784.5	3.88
785.246	5.88
785.992	3.88
786.738	5.88
787.484	5.88
788.23	3.88
788.975	3.88
789.721	5.88
790.466	5.88
791.212	4.88
791.957	4.88
792.702	5.88
793.447	5.88
794.193	4.88
794.938	2.88
795.683	5.88
796.427	4.88
797.172	3.88
797.917	4.88
798.662	4.88
799.406	4.88
800.151	4.88
800.895	7.88
801.64	3.88
802.384	5.88
803.128	4.88
803.872	5.88
804.616	6.88
805.36	2.88
806.104	1.88
806.848	5.88
807.592	4.88
808.336	4.88
809.079	3.88
809.823	4.88
810.566	5.88
811.31	4.88
812.053	2.88
812.796	4.88
813.539	6.88
814.283	2.88
815.026	4.88
815.769	2.88
816.511	3.88
817.254	1.88
817.997	1.88
818.74	5.88
819.482	2.88
820.225	0.88
820.967	2.88
821.71	5.88
822.452	4.88
823.194	4.88
823.936	3.88
824.678	1.88
825.42	2.88
826.162	1.88
826.904	2.88
827.646	2.88
828.388	4.88
829.129	1.88
829.871	-0.12
830.612	5.88
831.354	1.88
832.095	2.88
832.836	4.88
833.577	3.88
834.319	1.88
835.06	1.88
835.801	2.88
836.542	2.88
837.282	3.88
838.023	2.88
838.764	-0.12
839.504	1.88
840.245	1.88
840.985	0.88
841.726	0.88
842.466	3.88
843.206	4.88
843.946	0.88
844.687	2.88
845.427	1.88
846.166	2.88
846.906	0.88
847.646	3.88
848.386	-0.12
849.125	1.88
849.865	2.88
850.605	1.88
851.344	2.88
852.083	3.88
852.823	3.88
853.562	0.88
854.301	3.88
855.04	1.88
855.779	0.88
856.518	2.88
857.257	2.88
857.995	3.88
858.734	3.88
859.473	-1.12
860.211	3.88
860.95	1.88
861.688	3.88
862.426	1.88
863.165	4.88
863.903	1.88
864.641	2.88
865.379	1.88
866.117	2.88
866.855	1.88
867.593	0.88
868.33	0.88
869.068	2.88
869.806	-1.12
870.543	1.88
871.28	2.88
872.018	2.88
872.755	1.88
873.492	2.88
874.229	1.88
874.967	3.88
875.703	0.88
876.44	1.88
877.177	0.88
877.914	0.88
878.651	1.88
879.387	1.88
880.124	0.88
880.86	0.88
881.597	0.88
882.333	1.88
883.069	0.88
883.806	1.88
884.542	1.88
885.278	-0.12
886.014	1.88
886.749	-0.12
887.485	0.88
888.221	-0.12
888.957	0.88
889.692	1.88
890.428	0.88
891.163	2.88
891.899	-0.12
892.634	2.88
893.369	-0.12
894.104	0.88
894.839	0.88
895.574	1.88
896.309	0.88
897.044	-0.12
897.779	1.88
898.514	-1.12
899.248	0.88
899.983	1.88
900.717	-0.12
901.452	0.88
902.186	-1.12
902.92	-1.12
903.654	2.88
904.389	-1.12
905.123	-0.12
905.857	1.88
906.59	0.88
907.324	1.88
908.058	-0.12
908.792	-0.12
909.525	0.88
910.259	1.88
910.992	-0.12
911.726	-1.12
912.459	1.88
913.192	-1.12
913.925	0.88
914.658	1.88
915.391	0.88
916.124	-2.12
916.857	-1.12
917.59	-0.12
918.323	-0.12
919.055	1.88
919.788	1.88
920.521	1.88
921.253	0.88
921.985	0.88
922.718	-2.12
923.45	1.88
924.182	-0.12
924.914	0.88
925.646	-0.12
926.378	-1.12
927.11	-0.12
927.841	-0.12
928.573	0.88
929.305	-0.12
930.036	0.88
930.768	2.88
931.499	-2.12
932.23	-0.12
932.962	0.88
933.693	0.88
934.424	0.88
935.155	-2.12
935.886	1.88
936.617	0.88
937.348	-1.12
938.078	1.88
938.809	0.88
939.54	0.88
940.27	0.88
941.001	0.88
941.731	-1.12
942.461	2.88
943.191	1.88
943.922	-1.12
944.652	-0.12
945.382	1.88
946.112	-0.12
946.841	-1.12
947.571	-0.12
948.301	0.88
949.031	-1.12
949.76	1.88
950.49	1.88
951.219	1.88
951.948	0.88
952.678	-0.12
953.407	1.88
954.136	-0.12
954.865	0.88
955.594	1.88
956.323	1.88
957.052	-0.12
957.78	1.88
958.509	1.88
959.238	0.88
959.966	0.88
960.695	-0.12
961.423	1.88
962.151	-1.12
962.88	1.88
963.608	-1.12
964.336	-1.12
965.064	0.88
965.792	3.88
966.52	-1.12
967.247	-1.12
967.975	2.88
968.703	1.88
969.43	-0.12
970.158	0.88
970.885	-1.12
971.613	1.88
972.34	1.88
973.067	0.88
973.794	1.88
974.521	0.88
975.248	-1.12
975.975	-0.12
976.702	2.88
977.429	1.88
978.156	1.88
978.882	-1.12
979.609	-1.12
980.335	1.88
981.062	0.88
981.788	1.88
982.514	1.88
983.24	-2.12
983.967	0.88
984.693	0.88
985.419	0.88
986.144	-0.12
986.87	0.88
987.596	-0.12
988.322	-0.12
989.047	1.88
989.773	-0.12
990.498	-0.12
991.224	1.88
991.949	1.88
992.674	0.88
993.399	-0.12
994.124	-2.12
994.849	1.88
995.574	-0.12
996.299	0.88
997.024	0.88
997.749	0.88
998.473	0.88
999.198	0.88
999.922	-2.12
1000.647	0.88
1001.371	4.88
1002.095	-2.12
1002.82	-2.12
1003.544	-0.12
1004.268	-1.12
1004.992	-1.12
1005.716	1.88
1006.439	-2.12
1007.163	-1.12
1007.887	-1.12
1008.611	1.88
1009.334	1.88
1010.058	0.88
1010.781	1.88
1011.504	-1.12
1012.228	-0.12
1012.951	-1.12
1013.674	0.88
1014.397	-0.12
1015.12	-0.12
