节点500_145_QEPB04081__294__11-33-40-450.txt的数据

Date: Wed Nov 12 11:33:40 CST 2025
User: PC
Spectrometer: QEPB0408
触发模式: 0
积分时间 (秒): 1.000000E-2
Scans to average: 1
启用暗噪声校正: true
启用非线性校正: false
滑动平均宽度: 0
X轴模式: Wavelengths
Number of Pixels in Spectrum: 1044
>>>>>Begin Spectral Data<<<<<
220.843	-0.88
221.644	-0.88
222.444	-1.88
223.244	0.12
224.045	0.12
224.845	-1.88
225.645	-0.88
226.445	-0.88
227.245	0.12
228.045	0.12
228.845	0.12
229.645	0.12
230.444	1.12
231.244	2.12
232.043	1.12
232.843	4.12
233.642	0.12
234.442	-0.88
235.241	0.12
236.04	-0.88
236.839	-0.88
237.638	1.12
238.437	-0.88
239.236	2.12
240.035	0.12
240.833	1.12
241.632	3.12
242.43	2.12
243.229	1.12
244.027	2.12
244.826	2.12
245.624	1.12
246.422	0.12
247.22	3.12
248.018	0.12
248.816	2.12
249.614	3.12
250.412	1.12
251.21	2.12
252.007	3.12
252.805	2.12
253.602	3.12
254.4	2.12
255.197	3.12
255.994	4.12
256.791	1.12
257.589	4.12
258.386	2.12
259.183	2.12
259.979	5.12
260.776	5.12
261.573	4.12
262.37	1.12
263.166	5.12
263.963	7.12
264.759	7.12
265.556	6.12
266.352	7.12
267.148	5.12
267.944	5.12
268.74	6.12
269.536	6.12
270.332	7.12
271.128	7.12
271.924	7.12
272.719	7.12
273.515	8.12
274.311	8.12
275.106	10.12
275.901	7.12
276.697	9.12
277.492	8.12
278.287	10.12
279.082	9.12
279.877	9.12
280.672	10.12
281.467	10.12
282.262	9.12
283.056	8.12
283.851	8.12
284.646	10.12
285.44	11.12
286.234	10.12
287.029	10.12
287.823	14.12
288.617	10.12
289.411	10.12
290.205	11.12
290.999	11.12
291.793	10.12
292.587	10.12
293.381	10.12
294.174	10.12
294.968	12.12
295.761	11.12
296.555	9.12
297.348	9.12
298.141	10.12
298.935	11.12
299.728	9.12
300.521	9.12
301.314	8.12
302.107	9.12
302.899	9.12
303.692	9.12
304.485	8.12
305.277	8.12
306.07	8.12
306.862	7.12
307.655	10.12
308.447	6.12
309.239	9.12
310.031	7.12
310.823	6.12
311.615	7.12
312.407	6.12
313.199	3.12
313.991	7.12
314.783	5.12
315.574	6.12
316.366	3.12
317.157	4.12
317.949	7.12
318.74	5.12
319.531	5.12
320.322	4.12
321.113	6.12
321.904	5.12
322.695	4.12
323.486	4.12
324.277	6.12
325.068	5.12
325.858	3.12
326.649	5.12
327.439	3.12
328.23	5.12
329.02	4.12
329.81	5.12
330.6	5.12
331.391	3.12
332.181	4.12
332.971	3.12
333.76	7.12
334.55	3.12
335.34	4.12
336.13	3.12
336.919	2.12
337.709	4.12
338.498	3.12
339.287	4.12
340.077	4.12
340.866	2.12
341.655	1.12
342.444	1.12
343.233	3.12
344.022	5.12
344.811	3.12
345.6	3.12
346.388	1.12
347.177	4.12
347.965	3.12
348.754	5.12
349.542	3.12
350.33	2.12
351.119	3.12
351.907	2.12
352.695	3.12
353.483	3.12
354.271	4.12
355.059	2.12
355.846	3.12
356.634	0.12
357.422	2.12
358.209	2.12
358.997	3.12
359.784	4.12
360.571	3.12
361.359	2.12
362.146	0.12
362.933	0.12
363.72	3.12
364.507	2.12
365.294	5.12
366.081	1.12
366.867	1.12
367.654	5.12
368.44	1.12
369.227	7.12
370.013	0.12
370.8	3.12
371.586	1.12
372.372	3.12
373.158	2.12
373.944	2.12
374.73	4.12
375.516	5.12
376.302	2.12
377.088	3.12
377.873	3.12
378.659	1.12
379.445	2.12
380.23	4.12
381.015	2.12
381.801	2.12
382.586	1.12
383.371	3.12
384.156	4.12
384.941	2.12
385.726	3.12
386.511	4.12
387.296	2.12
388.08	3.12
388.865	3.12
389.649	3.12
390.434	3.12
391.218	3.12
392.003	3.12
392.787	1.12
393.571	3.12
394.355	2.12
395.139	2.12
395.923	1.12
396.707	3.12
397.491	1.12
398.274	3.12
399.058	4.12
399.842	2.12
400.625	4.12
401.408	5.12
402.192	5.12
402.975	2.12
403.758	4.12
404.541	5.12
405.324	3.12
406.107	2.12
406.89	3.12
407.673	4.12
408.456	5.12
409.238	4.12
410.021	2.12
410.803	6.12
411.586	4.12
412.368	2.12
413.151	6.12
413.933	4.12
414.715	6.12
415.497	2.12
416.279	5.12
417.061	4.12
417.843	5.12
418.624	6.12
419.406	6.12
420.188	6.12
420.969	5.12
421.751	5.12
422.532	4.12
423.313	6.12
424.095	6.12
424.876	6.12
425.657	5.12
426.438	8.12
427.219	7.12
428	5.12
428.78	6.12
429.561	9.12
430.342	8.12
431.122	7.12
431.903	7.12
432.683	8.12
433.464	8.12
434.244	10.12
435.024	11.12
435.804	7.12
436.584	8.12
437.364	10.12
438.144	10.12
438.924	14.12
439.704	10.12
440.483	11.12
441.263	12.12
442.042	11.12
442.822	14.12
443.601	13.12
444.38	18.12
445.16	14.12
445.939	17.12
446.718	18.12
447.497	18.12
448.276	20.12
449.054	21.12
449.833	24.12
450.612	24.12
451.391	24.12
452.169	30.12
452.948	30.12
453.726	35.12
454.504	39.12
455.282	39.12
456.061	44.12
456.839	49.12
457.617	54.12
458.395	58.12
459.172	68.12
459.95	72.12
460.728	86.12
461.506	95.12
462.283	99.12
463.061	112.12
463.838	122.12
464.615	141.12
465.393	153.12
466.17	174.12
466.947	194.12
467.724	221.12
468.501	239.12
469.278	270.12
470.055	298.12
470.831	340.12
471.608	377.12
472.385	408.12
473.161	467.12
473.938	510.12
474.714	564.12
475.49	625.12
476.266	693.12
477.043	768.12
477.819	841.12
478.595	945.12
479.371	1041.12
480.146	1152.12
480.922	1274.12
481.698	1412.12
482.473	1550.12
483.249	1710.12
484.024	1884.12
484.8	2073.12
485.575	2269.12
486.35	2505.12
487.126	2771.12
487.901	3060.12
488.676	3346.12
489.451	3690.12
490.225	4055.12
491	4474.12
491.775	4915.12
492.55	5355.12
493.324	5867.12
494.099	6422.12
494.873	6983.12
495.647	7638.12
496.422	8309.12
497.196	9015.12
497.97	9710.12
498.744	10408.12
499.518	11168.12
500.292	11918.12
501.066	12641.12
501.839	13310.12
502.613	14001.12
503.387	14599.12
504.16	15220.12
504.934	15600.12
505.707	15977.12
506.48	16249.12
507.253	16407.12
508.027	16452.12
508.8	16412.12
509.573	16341.12
510.346	16024.12
511.118	15721.12
511.891	15271.12
512.664	14833.12
513.437	14288.12
514.209	13822.12
514.982	13264.12
515.754	12719.12
516.526	12196.12
517.298	11644.12
518.071	11097.12
518.843	10638.12
519.615	10154.12
520.387	9742.12
521.159	9370.12
521.93	9009.12
522.702	8624.12
523.474	8294.12
524.245	8021.12
525.017	7611.12
525.788	7340.12
526.56	7039.12
527.331	6761.12
528.102	6478.12
528.873	6194.12
529.644	5922.12
530.415	5656.12
531.186	5359.12
531.957	5096.12
532.728	4826.12
533.498	4565.12
534.269	4316.12
535.039	4112.12
535.81	3862.12
536.58	3634.12
537.351	3458.12
538.121	3248.12
538.891	3068.12
539.661	2886.12
540.431	2733.12
541.201	2615.12
541.971	2461.12
542.741	2343.12
543.51	2215.12
544.28	2108.12
545.05	1998.12
545.819	1882.12
546.588	1820.12
547.358	1710.12
548.127	1640.12
548.896	1560.12
549.665	1475.12
550.434	1392.12
551.203	1329.12
551.972	1253.12
552.741	1184.12
553.51	1123.12
554.278	1071.12
555.047	999.12
555.815	951.12
556.584	897.12
557.352	848.12
558.121	805.12
558.889	755.12
559.657	708.12
560.425	663.12
561.193	629.12
561.961	590.12
562.729	559.12
563.496	526.12
564.264	502.12
565.032	466.12
565.799	444.12
566.567	419.12
567.334	393.12
568.101	380.12
568.869	350.12
569.636	339.12
570.403	318.12
571.17	298.12
571.937	278.12
572.704	263.12
573.471	255.12
574.237	235.12
575.004	222.12
575.771	203.12
576.537	196.12
577.303	181.12
578.07	167.12
578.836	163.12
579.602	158.12
580.368	143.12
581.134	140.12
581.9	130.12
582.666	125.12
583.432	121.12
584.198	110.12
584.964	102.12
585.729	96.12
586.495	98.12
587.26	87.12
588.025	87.12
588.791	77.12
589.556	74.12
590.321	70.12
591.086	64.12
591.851	64.12
592.616	57.12
593.381	58.12
594.146	52.12
594.911	50.12
595.675	49.12
596.44	45.12
597.204	46.12
597.969	41.12
598.733	39.12
599.497	41.12
600.261	35.12
601.025	35.12
601.79	33.12
602.553	31.12
603.317	31.12
604.081	30.12
604.845	30.12
605.609	27.12
606.372	25.12
607.136	23.12
607.899	27.12
608.662	21.12
609.426	21.12
610.189	21.12
610.952	21.12
611.715	19.12
612.478	18.12
613.241	17.12
614.004	13.12
614.767	14.12
615.529	19.12
616.292	15.12
617.055	14.12
617.817	13.12
618.579	13.12
619.342	11.12
620.104	14.12
620.866	12.12
621.628	10.12
622.39	11.12
623.152	11.12
623.914	9.12
624.676	10.12
625.438	12.12
626.199	8.12
626.961	9.12
627.722	8.12
628.484	7.12
629.245	9.12
630.006	7.12
630.768	9.12
631.529	8.12
632.29	8.12
633.051	7.12
633.812	7.12
634.573	10.12
635.333	7.12
636.094	7.12
636.855	4.12
637.615	7.12
638.376	6.12
639.136	8.12
639.896	7.12
640.657	5.12
641.417	8.12
642.177	6.12
642.937	7.12
643.697	4.12
644.457	6.12
645.216	5.12
645.976	5.12
646.736	4.12
647.495	4.12
648.255	3.12
649.014	5.12
649.774	1.12
650.533	4.12
651.292	4.12
652.051	4.12
652.81	5.12
653.569	3.12
654.328	2.12
655.087	4.12
655.846	3.12
656.604	4.12
657.363	5.12
658.121	5.12
658.88	2.12
659.638	6.12
660.397	4.12
661.155	4.12
661.913	4.12
662.671	3.12
663.429	4.12
664.187	2.12
664.945	3.12
665.703	2.12
666.46	5.12
667.218	2.12
667.976	3.12
668.733	3.12
669.49	1.12
670.248	2.12
671.005	1.12
671.762	3.12
672.519	1.12
673.276	3.12
674.033	1.12
674.79	2.12
675.547	2.12
676.304	2.12
677.06	3.12
677.817	1.12
678.574	2.12
679.33	2.12
680.086	1.12
680.843	1.12
681.599	0.12
682.355	0.12
683.111	2.12
683.867	2.12
684.623	1.12
685.379	2.12
686.135	1.12
686.89	2.12
687.646	0.12
688.402	3.12
689.157	2.12
689.912	2.12
690.668	3.12
691.423	3.12
692.178	1.12
692.933	1.12
693.688	1.12
694.443	4.12
695.198	4.12
695.953	2.12
696.708	2.12
697.462	2.12
698.217	1.12
698.972	1.12
699.726	4.12
700.48	2.12
701.235	3.12
701.989	2.12
702.743	1.12
703.497	4.12
704.251	2.12
705.005	3.12
705.759	2.12
706.513	1.12
707.266	2.12
708.02	-0.88
708.774	4.12
709.527	2.12
710.28	2.12
711.034	-0.88
711.787	2.12
712.54	3.12
713.293	-0.88
714.046	2.12
714.799	0.12
715.552	-0.88
716.305	2.12
717.058	2.12
717.81	3.12
718.563	1.12
719.315	2.12
720.068	1.12
720.82	4.12
721.573	0.12
722.325	1.12
723.077	3.12
723.829	-1.88
724.581	2.12
725.333	2.12
726.085	0.12
726.836	2.12
727.588	0.12
728.34	3.12
729.091	1.12
729.843	3.12
730.594	2.12
731.346	0.12
732.097	2.12
732.848	1.12
733.599	4.12
734.35	-1.88
735.101	2.12
735.852	2.12
736.603	3.12
737.354	0.12
738.104	1.12
738.855	2.12
739.605	1.12
740.356	2.12
741.106	1.12
741.856	2.12
742.607	3.12
743.357	1.12
744.107	2.12
744.857	2.12
745.607	3.12
746.357	0.12
747.106	0.12
747.856	1.12
748.606	2.12
749.355	3.12
750.105	1.12
750.854	2.12
751.603	2.12
752.353	2.12
753.102	5.12
753.851	3.12
754.6	2.12
755.349	3.12
756.098	2.12
756.847	1.12
757.595	3.12
758.344	5.12
759.093	2.12
759.841	1.12
760.589	5.12
761.338	5.12
762.086	5.12
762.834	2.12
763.582	3.12
764.331	1.12
765.079	4.12
765.826	3.12
766.574	5.12
767.322	5.12
768.07	3.12
768.817	2.12
769.565	3.12
770.312	3.12
771.06	3.12
771.807	4.12
772.554	5.12
773.302	1.12
774.049	4.12
774.796	6.12
775.543	3.12
776.29	5.12
777.036	4.12
777.783	5.12
778.53	2.12
779.276	5.12
780.023	7.12
780.769	4.12
781.516	4.12
782.262	4.12
783.008	4.12
783.754	7.12
784.5	5.12
785.246	6.12
785.992	8.12
786.738	6.12
787.484	5.12
788.23	6.12
788.975	3.12
789.721	7.12
790.466	7.12
791.212	6.12
791.957	6.12
792.702	7.12
793.447	4.12
794.193	5.12
794.938	4.12
795.683	3.12
796.427	4.12
797.172	5.12
797.917	5.12
798.662	4.12
799.406	4.12
800.151	6.12
800.895	3.12
801.64	3.12
802.384	5.12
803.128	5.12
803.872	4.12
804.616	2.12
805.36	9.12
806.104	4.12
806.848	3.12
807.592	4.12
808.336	4.12
809.079	2.12
809.823	5.12
810.566	3.12
811.31	3.12
812.053	4.12
812.796	3.12
813.539	1.12
814.283	3.12
815.026	3.12
815.769	4.12
816.511	3.12
817.254	4.12
817.997	3.12
818.74	1.12
819.482	2.12
820.225	4.12
820.967	3.12
821.71	4.12
822.452	4.12
823.194	3.12
823.936	2.12
824.678	3.12
825.42	2.12
826.162	4.12
826.904	2.12
827.646	1.12
828.388	3.12
829.129	3.12
829.871	0.12
830.612	2.12
831.354	2.12
832.095	3.12
832.836	1.12
833.577	4.12
834.319	4.12
835.06	3.12
835.801	2.12
836.542	1.12
837.282	1.12
838.023	2.12
838.764	3.12
839.504	2.12
840.245	-0.88
840.985	2.12
841.726	3.12
842.466	4.12
843.206	2.12
843.946	2.12
844.687	1.12
845.427	2.12
846.166	1.12
846.906	2.12
847.646	3.12
848.386	2.12
849.125	3.12
849.865	1.12
850.605	1.12
851.344	3.12
852.083	2.12
852.823	2.12
853.562	-0.88
854.301	3.12
855.04	2.12
855.779	3.12
856.518	2.12
857.257	2.12
857.995	2.12
858.734	2.12
859.473	1.12
860.211	1.12
860.95	-1.88
861.688	2.12
862.426	0.12
863.165	2.12
863.903	1.12
864.641	2.12
865.379	-2.88
866.117	1.12
866.855	2.12
867.593	0.12
868.33	1.12
869.068	0.12
869.806	2.12
870.543	0.12
871.28	0.12
872.018	2.12
872.755	2.12
873.492	5.12
874.229	-0.88
874.967	1.12
875.703	-0.88
876.44	1.12
877.177	1.12
877.914	2.12
878.651	-2.88
879.387	1.12
880.124	0.12
880.86	1.12
881.597	0.12
882.333	1.12
883.069	1.12
883.806	3.12
884.542	-1.88
885.278	1.12
886.014	1.12
886.749	2.12
887.485	2.12
888.221	0.12
888.957	-0.88
889.692	-1.88
890.428	1.12
891.163	0.12
891.899	1.12
892.634	0.12
893.369	0.12
894.104	0.12
894.839	1.12
895.574	-0.88
896.309	3.12
897.044	2.12
897.779	-1.88
898.514	1.12
899.248	1.12
899.983	0.12
900.717	2.12
901.452	1.12
902.186	-1.88
902.92	1.12
903.654	-0.88
904.389	1.12
905.123	0.12
905.857	1.12
906.59	0.12
907.324	-0.88
908.058	1.12
908.792	0.12
909.525	2.12
910.259	0.12
910.992	0.12
911.726	2.12
912.459	-0.88
913.192	2.12
913.925	-2.88
914.658	0.12
915.391	0.12
916.124	0.12
916.857	1.12
917.59	-1.88
918.323	3.12
919.055	-0.88
919.788	1.12
920.521	-1.88
921.253	0.12
921.985	0.12
922.718	-0.88
923.45	0.12
924.182	-1.88
924.914	1.12
925.646	1.12
926.378	1.12
927.11	0.12
927.841	0.12
928.573	-0.88
929.305	-0.88
930.036	-0.88
930.768	1.12
931.499	3.12
932.23	1.12
932.962	0.12
933.693	0.12
934.424	-0.88
935.155	0.12
935.886	-1.88
936.617	-0.88
937.348	0.12
938.078	2.12
938.809	-0.88
939.54	0.12
940.27	-0.88
941.001	1.12
941.731	-0.88
942.461	-1.88
943.191	0.12
943.922	1.12
944.652	-1.88
945.382	2.12
946.112	1.12
946.841	0.12
947.571	0.12
948.301	0.12
949.031	-2.88
949.76	2.12
950.49	-0.88
951.219	-0.88
951.948	2.12
952.678	1.12
953.407	0.12
954.136	1.12
954.865	1.12
955.594	0.12
956.323	-0.88
957.052	1.12
957.78	2.12
958.509	0.12
959.238	-1.88
959.966	-0.88
960.695	0.12
961.423	-0.88
962.151	3.12
962.88	1.12
963.608	1.12
964.336	-0.88
965.064	-0.88
965.792	-0.88
966.52	0.12
967.247	1.12
967.975	1.12
968.703	-0.88
969.43	0.12
970.158	-1.88
970.885	-0.88
971.613	1.12
972.34	-0.88
973.067	0.12
973.794	-1.88
974.521	0.12
975.248	-0.88
975.975	1.12
976.702	-0.88
977.429	1.12
978.156	1.12
978.882	0.12
979.609	0.12
980.335	-1.88
981.062	1.12
981.788	1.12
982.514	1.12
983.24	0.12
983.967	1.12
984.693	0.12
985.419	-1.88
986.144	0.12
986.87	-0.88
987.596	-0.88
988.322	0.12
989.047	-0.88
989.773	2.12
990.498	0.12
991.224	1.12
991.949	-1.88
992.674	-1.88
993.399	-0.88
994.124	0.12
994.849	2.12
995.574	0.12
996.299	0.12
997.024	0.12
997.749	2.12
998.473	0.12
999.198	-1.88
999.922	-0.88
1000.647	1.12
1001.371	3.12
1002.095	-0.88
1002.82	-0.88
1003.544	-0.88
1004.268	-1.88
1004.992	-1.88
1005.716	-2.88
1006.439	0.12
1007.163	-1.88
1007.887	0.12
1008.611	0.12
1009.334	-0.88
1010.058	-0.88
1010.781	2.12
1011.504	1.12
1012.228	-0.88
1012.951	1.12
1013.674	-1.88
1014.397	2.12
1015.12	-1.88
