节点500_145_QEPB04081__648__11-39-14-151.txt的数据

Date: Wed Nov 12 11:39:14 CST 2025
User: PC
Spectrometer: QEPB0408
触发模式: 0
积分时间 (秒): 1.000000E-2
Scans to average: 1
启用暗噪声校正: true
启用非线性校正: false
滑动平均宽度: 0
X轴模式: Wavelengths
Number of Pixels in Spectrum: 1044
>>>>>Begin Spectral Data<<<<<
220.843	0.88
221.644	-2.12
222.444	-2.12
223.244	1.88
224.045	1.88
224.845	0.88
225.645	1.88
226.445	1.88
227.245	-0.12
228.045	1.88
228.845	2.88
229.645	-0.12
230.444	1.88
231.244	2.88
232.043	0.88
232.843	1.88
233.642	1.88
234.442	0.88
235.241	0.88
236.04	3.88
236.839	0.88
237.638	0.88
238.437	3.88
239.236	0.88
240.035	-0.12
240.833	1.88
241.632	1.88
242.43	3.88
243.229	2.88
244.027	1.88
244.826	0.88
245.624	1.88
246.422	3.88
247.22	0.88
248.018	2.88
248.816	0.88
249.614	1.88
250.412	2.88
251.21	3.88
252.007	2.88
252.805	3.88
253.602	0.88
254.4	2.88
255.197	4.88
255.994	1.88
256.791	2.88
257.589	2.88
258.386	1.88
259.183	5.88
259.979	2.88
260.776	2.88
261.573	1.88
262.37	4.88
263.166	4.88
263.963	5.88
264.759	4.88
265.556	5.88
266.352	3.88
267.148	3.88
267.944	6.88
268.74	6.88
269.536	5.88
270.332	7.88
271.128	5.88
271.924	4.88
272.719	7.88
273.515	7.88
274.311	9.88
275.106	8.88
275.901	10.88
276.697	8.88
277.492	8.88
278.287	7.88
279.082	9.88
279.877	7.88
280.672	10.88
281.467	13.88
282.262	10.88
283.056	7.88
283.851	10.88
284.646	10.88
285.44	7.88
286.234	9.88
287.029	10.88
287.823	9.88
288.617	9.88
289.411	10.88
290.205	9.88
290.999	9.88
291.793	10.88
292.587	9.88
293.381	9.88
294.174	11.88
294.968	9.88
295.761	9.88
296.555	7.88
297.348	7.88
298.141	8.88
298.935	8.88
299.728	8.88
300.521	8.88
301.314	10.88
302.107	8.88
302.899	7.88
303.692	7.88
304.485	6.88
305.277	9.88
306.07	7.88
306.862	7.88
307.655	10.88
308.447	9.88
309.239	8.88
310.031	7.88
310.823	6.88
311.615	7.88
312.407	7.88
313.199	6.88
313.991	9.88
314.783	4.88
315.574	2.88
316.366	6.88
317.157	3.88
317.949	6.88
318.74	6.88
319.531	4.88
320.322	5.88
321.113	6.88
321.904	4.88
322.695	2.88
323.486	5.88
324.277	4.88
325.068	3.88
325.858	4.88
326.649	5.88
327.439	2.88
328.23	6.88
329.02	3.88
329.81	6.88
330.6	2.88
331.391	3.88
332.181	3.88
332.971	1.88
333.76	2.88
334.55	2.88
335.34	3.88
336.13	3.88
336.919	3.88
337.709	2.88
338.498	5.88
339.287	3.88
340.077	6.88
340.866	5.88
341.655	5.88
342.444	3.88
343.233	2.88
344.022	2.88
344.811	2.88
345.6	3.88
346.388	3.88
347.177	0.88
347.965	4.88
348.754	3.88
349.542	4.88
350.33	4.88
351.119	3.88
351.907	4.88
352.695	1.88
353.483	3.88
354.271	2.88
355.059	4.88
355.846	4.88
356.634	3.88
357.422	3.88
358.209	1.88
358.997	4.88
359.784	2.88
360.571	3.88
361.359	1.88
362.146	3.88
362.933	2.88
363.72	3.88
364.507	2.88
365.294	0.88
366.081	3.88
366.867	3.88
367.654	3.88
368.44	1.88
369.227	2.88
370.013	2.88
370.8	2.88
371.586	1.88
372.372	1.88
373.158	3.88
373.944	5.88
374.73	1.88
375.516	3.88
376.302	3.88
377.088	3.88
377.873	1.88
378.659	2.88
379.445	3.88
380.23	2.88
381.015	4.88
381.801	2.88
382.586	5.88
383.371	0.88
384.156	2.88
384.941	2.88
385.726	3.88
386.511	2.88
387.296	3.88
388.08	2.88
388.865	4.88
389.649	1.88
390.434	1.88
391.218	4.88
392.003	2.88
392.787	-0.12
393.571	2.88
394.355	4.88
395.139	2.88
395.923	2.88
396.707	3.88
397.491	1.88
398.274	2.88
399.058	3.88
399.842	5.88
400.625	2.88
401.408	4.88
402.192	4.88
402.975	5.88
403.758	3.88
404.541	4.88
405.324	1.88
406.107	1.88
406.89	5.88
407.673	7.88
408.456	3.88
409.238	3.88
410.021	2.88
410.803	2.88
411.586	6.88
412.368	4.88
413.151	4.88
413.933	6.88
414.715	5.88
415.497	5.88
416.279	3.88
417.061	4.88
417.843	5.88
418.624	2.88
419.406	7.88
420.188	4.88
420.969	4.88
421.751	5.88
422.532	5.88
423.313	6.88
424.095	5.88
424.876	7.88
425.657	4.88
426.438	6.88
427.219	5.88
428	6.88
428.78	7.88
429.561	5.88
430.342	7.88
431.122	5.88
431.903	8.88
432.683	8.88
433.464	9.88
434.244	9.88
435.024	7.88
435.804	7.88
436.584	9.88
437.364	7.88
438.144	7.88
438.924	10.88
439.704	11.88
440.483	11.88
441.263	13.88
442.042	13.88
442.822	13.88
443.601	13.88
444.38	13.88
445.16	16.88
445.939	15.88
446.718	18.88
447.497	20.88
448.276	21.88
449.054	22.88
449.833	25.88
450.612	27.88
451.391	30.88
452.169	31.88
452.948	35.88
453.726	35.88
454.504	41.88
455.282	47.88
456.061	48.88
456.839	54.88
457.617	61.88
458.395	68.88
459.172	79.88
459.95	92.88
460.728	91.88
461.506	104.88
462.283	114.88
463.061	128.88
463.838	141.88
464.615	157.88
465.393	174.88
466.17	198.88
466.947	215.88
467.724	241.88
468.501	264.88
469.278	293.88
470.055	327.88
470.831	364.88
471.608	400.88
472.385	440.88
473.161	493.88
473.938	539.88
474.714	589.88
475.49	656.88
476.266	709.88
477.043	795.88
477.819	879.88
478.595	963.88
479.371	1066.88
480.146	1152.88
480.922	1273.88
481.698	1396.88
482.473	1533.88
483.249	1665.88
484.024	1814.88
484.8	1989.88
485.575	2196.88
486.35	2387.88
487.126	2613.88
487.901	2857.88
488.676	3117.88
489.451	3411.88
490.225	3705.88
491	4077.88
491.775	4410.88
492.55	4801.88
493.324	5223.88
494.099	5661.88
494.873	6192.88
495.647	6687.88
496.422	7275.88
497.196	7784.88
497.97	8396.88
498.744	9041.88
499.518	9684.88
500.292	10302.88
501.066	10965.88
501.839	11554.88
502.613	12171.88
503.387	12751.88
504.16	13335.88
504.934	13740.88
505.707	14212.88
506.48	14537.88
507.253	14833.88
508.027	14974.88
508.8	15073.88
509.573	15110.88
510.346	15026.88
511.118	14906.88
511.891	14616.88
512.664	14305.88
513.437	13934.88
514.209	13523.88
514.982	13079.88
515.754	12614.88
516.526	12204.88
517.298	11656.88
518.071	11209.88
518.843	10721.88
519.615	10251.88
520.387	9864.88
521.159	9464.88
521.93	9077.88
522.702	8716.88
523.474	8393.88
524.245	8057.88
525.017	7750.88
525.788	7404.88
526.56	7132.88
527.331	6827.88
528.102	6571.88
528.873	6274.88
529.644	6032.88
530.415	5785.88
531.186	5521.88
531.957	5269.88
532.728	5011.88
533.498	4752.88
534.269	4488.88
535.039	4268.88
535.81	4049.88
536.58	3840.88
537.351	3621.88
538.121	3431.88
538.891	3250.88
539.661	3091.88
540.431	2900.88
541.201	2771.88
541.971	2619.88
542.741	2466.88
543.51	2354.88
544.28	2222.88
545.05	2110.88
545.819	2006.88
546.588	1874.88
547.358	1795.88
548.127	1725.88
548.896	1650.88
549.665	1566.88
550.434	1484.88
551.203	1410.88
551.972	1332.88
552.741	1262.88
553.51	1202.88
554.278	1138.88
555.047	1090.88
555.815	1023.88
556.584	958.88
557.352	911.88
558.121	844.88
558.889	807.88
559.657	768.88
560.425	725.88
561.193	671.88
561.961	642.88
562.729	603.88
563.496	571.88
564.264	538.88
565.032	514.88
565.799	476.88
566.567	446.88
567.334	423.88
568.101	408.88
568.869	384.88
569.636	363.88
570.403	337.88
571.17	315.88
571.937	302.88
572.704	289.88
573.471	268.88
574.237	253.88
575.004	234.88
575.771	224.88
576.537	210.88
577.303	200.88
578.07	193.88
578.836	174.88
579.602	162.88
580.368	154.88
581.134	150.88
581.9	141.88
582.666	134.88
583.432	122.88
584.198	121.88
584.964	113.88
585.729	107.88
586.495	101.88
587.26	94.88
588.025	91.88
588.791	84.88
589.556	77.88
590.321	79.88
591.086	69.88
591.851	67.88
592.616	63.88
593.381	61.88
594.146	60.88
594.911	55.88
595.675	52.88
596.44	46.88
597.204	48.88
597.969	44.88
598.733	43.88
599.497	39.88
600.261	40.88
601.025	41.88
601.79	33.88
602.553	36.88
603.317	31.88
604.081	29.88
604.845	31.88
605.609	25.88
606.372	30.88
607.136	25.88
607.899	25.88
608.662	26.88
609.426	21.88
610.189	20.88
610.952	20.88
611.715	22.88
612.478	19.88
613.241	21.88
614.004	17.88
614.767	17.88
615.529	15.88
616.292	18.88
617.055	17.88
617.817	13.88
618.579	15.88
619.342	13.88
620.104	12.88
620.866	11.88
621.628	12.88
622.39	12.88
623.152	15.88
623.914	9.88
624.676	10.88
625.438	12.88
626.199	9.88
626.961	10.88
627.722	8.88
628.484	8.88
629.245	9.88
630.006	6.88
630.768	6.88
631.529	9.88
632.29	6.88
633.051	8.88
633.812	7.88
634.573	7.88
635.333	7.88
636.094	7.88
636.855	6.88
637.615	9.88
638.376	6.88
639.136	6.88
639.896	5.88
640.657	6.88
641.417	5.88
642.177	4.88
642.937	5.88
643.697	4.88
644.457	5.88
645.216	6.88
645.976	6.88
646.736	3.88
647.495	4.88
648.255	5.88
649.014	3.88
649.774	3.88
650.533	3.88
651.292	5.88
652.051	3.88
652.81	4.88
653.569	4.88
654.328	2.88
655.087	1.88
655.846	1.88
656.604	3.88
657.363	0.88
658.121	3.88
658.88	3.88
659.638	4.88
660.397	2.88
661.155	2.88
661.913	3.88
662.671	2.88
663.429	7.88
664.187	1.88
664.945	0.88
665.703	2.88
666.46	0.88
667.218	1.88
667.976	2.88
668.733	1.88
669.49	2.88
670.248	1.88
671.005	2.88
671.762	1.88
672.519	3.88
673.276	1.88
674.033	3.88
674.79	2.88
675.547	4.88
676.304	1.88
677.06	2.88
677.817	2.88
678.574	3.88
679.33	2.88
680.086	1.88
680.843	1.88
681.599	2.88
682.355	1.88
683.111	1.88
683.867	1.88
684.623	3.88
685.379	2.88
686.135	1.88
686.89	2.88
687.646	1.88
688.402	2.88
689.157	3.88
689.912	3.88
690.668	1.88
691.423	2.88
692.178	2.88
692.933	0.88
693.688	3.88
694.443	2.88
695.198	2.88
695.953	2.88
696.708	0.88
697.462	2.88
698.217	3.88
698.972	3.88
699.726	1.88
700.48	2.88
701.235	1.88
701.989	0.88
702.743	3.88
703.497	3.88
704.251	4.88
705.005	1.88
705.759	3.88
706.513	3.88
707.266	2.88
708.02	2.88
708.774	2.88
709.527	0.88
710.28	2.88
711.034	2.88
711.787	-0.12
712.54	4.88
713.293	0.88
714.046	1.88
714.799	2.88
715.552	0.88
716.305	1.88
717.058	2.88
717.81	2.88
718.563	2.88
719.315	-0.12
720.068	0.88
720.82	2.88
721.573	2.88
722.325	-1.12
723.077	0.88
723.829	2.88
724.581	1.88
725.333	2.88
726.085	-0.12
726.836	1.88
727.588	3.88
728.34	1.88
729.091	0.88
729.843	1.88
730.594	2.88
731.346	1.88
732.097	0.88
732.848	2.88
733.599	3.88
734.35	3.88
735.101	2.88
735.852	2.88
736.603	2.88
737.354	3.88
738.104	1.88
738.855	1.88
739.605	2.88
740.356	3.88
741.106	2.88
741.856	1.88
742.607	0.88
743.357	0.88
744.107	2.88
744.857	4.88
745.607	0.88
746.357	1.88
747.106	1.88
747.856	5.88
748.606	3.88
749.355	4.88
750.105	0.88
750.854	1.88
751.603	5.88
752.353	2.88
753.102	2.88
753.851	3.88
754.6	3.88
755.349	-0.12
756.098	4.88
756.847	3.88
757.595	2.88
758.344	3.88
759.093	4.88
759.841	2.88
760.589	3.88
761.338	1.88
762.086	1.88
762.834	5.88
763.582	1.88
764.331	0.88
765.079	3.88
765.826	3.88
766.574	0.88
767.322	2.88
768.07	3.88
768.817	3.88
769.565	3.88
770.312	2.88
771.06	2.88
771.807	3.88
772.554	2.88
773.302	2.88
774.049	5.88
774.796	2.88
775.543	3.88
776.29	2.88
777.036	3.88
777.783	5.88
778.53	3.88
779.276	5.88
780.023	5.88
780.769	4.88
781.516	3.88
782.262	1.88
783.008	5.88
783.754	4.88
784.5	3.88
785.246	5.88
785.992	2.88
786.738	5.88
787.484	4.88
788.23	4.88
788.975	4.88
789.721	4.88
790.466	5.88
791.212	3.88
791.957	1.88
792.702	6.88
793.447	3.88
794.193	2.88
794.938	3.88
795.683	5.88
796.427	4.88
797.172	5.88
797.917	2.88
798.662	4.88
799.406	4.88
800.151	2.88
800.895	4.88
801.64	3.88
802.384	5.88
803.128	3.88
803.872	2.88
804.616	5.88
805.36	4.88
806.104	2.88
806.848	4.88
807.592	3.88
808.336	4.88
809.079	4.88
809.823	5.88
810.566	3.88
811.31	1.88
812.053	2.88
812.796	4.88
813.539	3.88
814.283	3.88
815.026	3.88
815.769	3.88
816.511	6.88
817.254	5.88
817.997	3.88
818.74	3.88
819.482	4.88
820.225	2.88
820.967	1.88
821.71	2.88
822.452	0.88
823.194	1.88
823.936	2.88
824.678	3.88
825.42	3.88
826.162	3.88
826.904	2.88
827.646	1.88
828.388	1.88
829.129	2.88
829.871	3.88
830.612	1.88
831.354	2.88
832.095	1.88
832.836	0.88
833.577	2.88
834.319	-0.12
835.06	2.88
835.801	-0.12
836.542	0.88
837.282	3.88
838.023	2.88
838.764	2.88
839.504	3.88
840.245	1.88
840.985	4.88
841.726	0.88
842.466	2.88
843.206	1.88
843.946	1.88
844.687	4.88
845.427	0.88
846.166	1.88
846.906	-0.12
847.646	4.88
848.386	0.88
849.125	4.88
849.865	2.88
850.605	1.88
851.344	0.88
852.083	2.88
852.823	4.88
853.562	-0.12
854.301	1.88
855.04	2.88
855.779	0.88
856.518	2.88
857.257	0.88
857.995	0.88
858.734	0.88
859.473	1.88
860.211	0.88
860.95	2.88
861.688	1.88
862.426	-0.12
863.165	1.88
863.903	1.88
864.641	-0.12
865.379	0.88
866.117	1.88
866.855	3.88
867.593	0.88
868.33	1.88
869.068	1.88
869.806	1.88
870.543	-0.12
871.28	1.88
872.018	1.88
872.755	1.88
873.492	3.88
874.229	0.88
874.967	1.88
875.703	1.88
876.44	1.88
877.177	2.88
877.914	1.88
878.651	1.88
879.387	0.88
880.124	-1.12
880.86	0.88
881.597	0.88
882.333	2.88
883.069	0.88
883.806	0.88
884.542	0.88
885.278	-0.12
886.014	2.88
886.749	0.88
887.485	-0.12
888.221	1.88
888.957	1.88
889.692	1.88
890.428	1.88
891.163	-1.12
891.899	-0.12
892.634	1.88
893.369	2.88
894.104	1.88
894.839	1.88
895.574	1.88
896.309	1.88
897.044	1.88
897.779	0.88
898.514	0.88
899.248	1.88
899.983	-0.12
900.717	-0.12
901.452	2.88
902.186	-1.12
902.92	0.88
903.654	-2.12
904.389	-1.12
905.123	0.88
905.857	-1.12
906.59	2.88
907.324	-1.12
908.058	0.88
908.792	-1.12
909.525	1.88
910.259	-0.12
910.992	-0.12
911.726	1.88
912.459	-2.12
913.192	1.88
913.925	-1.12
914.658	0.88
915.391	2.88
916.124	0.88
916.857	2.88
917.59	0.88
918.323	0.88
919.055	1.88
919.788	0.88
920.521	-3.12
921.253	1.88
921.985	1.88
922.718	0.88
923.45	-0.12
924.182	-2.12
924.914	-2.12
925.646	0.88
926.378	-0.12
927.11	1.88
927.841	-2.12
928.573	1.88
929.305	1.88
930.036	-0.12
930.768	2.88
931.499	0.88
932.23	0.88
932.962	-0.12
933.693	-0.12
934.424	1.88
935.155	1.88
935.886	-0.12
936.617	0.88
937.348	1.88
938.078	3.88
938.809	1.88
939.54	-2.12
940.27	1.88
941.001	0.88
941.731	-2.12
942.461	0.88
943.191	1.88
943.922	-0.12
944.652	-1.12
945.382	0.88
946.112	0.88
946.841	-0.12
947.571	-0.12
948.301	-0.12
949.031	-0.12
949.76	1.88
950.49	0.88
951.219	2.88
951.948	-1.12
952.678	2.88
953.407	-0.12
954.136	1.88
954.865	1.88
955.594	0.88
956.323	0.88
957.052	-0.12
957.78	0.88
958.509	-0.12
959.238	-0.12
959.966	-0.12
960.695	0.88
961.423	1.88
962.151	-1.12
962.88	-0.12
963.608	-0.12
964.336	1.88
965.064	-0.12
965.792	0.88
966.52	1.88
967.247	-0.12
967.975	0.88
968.703	1.88
969.43	1.88
970.158	0.88
970.885	0.88
971.613	1.88
972.34	0.88
973.067	-2.12
973.794	-0.12
974.521	-0.12
975.248	1.88
975.975	-1.12
976.702	3.88
977.429	1.88
978.156	1.88
978.882	-1.12
979.609	1.88
980.335	0.88
981.062	0.88
981.788	0.88
982.514	-2.12
983.24	2.88
983.967	-1.12
984.693	-1.12
985.419	0.88
986.144	-1.12
986.87	0.88
987.596	-0.12
988.322	-0.12
989.047	0.88
989.773	-0.12
990.498	-1.12
991.224	1.88
991.949	-0.12
992.674	-1.12
993.399	-0.12
994.124	-1.12
994.849	-2.12
995.574	0.88
996.299	0.88
997.024	0.88
997.749	0.88
998.473	1.88
999.198	0.88
999.922	-0.12
1000.647	0.88
1001.371	3.88
1002.095	0.88
1002.82	-1.12
1003.544	-2.12
1004.268	2.88
1004.992	-1.12
1005.716	-0.12
1006.439	-1.12
1007.163	-0.12
1007.887	0.88
1008.611	0.88
1009.334	2.88
1010.058	-1.12
1010.781	1.88
1011.504	-1.12
1012.228	1.88
1012.951	-1.12
1013.674	-0.12
1014.397	-0.12
1015.12	-0.12
