节点500_145_QEPB04081__88__11-30-22-627.txt的数据

Date: Wed Nov 12 11:30:22 CST 2025
User: PC
Spectrometer: QEPB0408
触发模式: 0
积分时间 (秒): 1.000000E-2
Scans to average: 1
启用暗噪声校正: true
启用非线性校正: false
滑动平均宽度: 0
X轴模式: Wavelengths
Number of Pixels in Spectrum: 1044
>>>>>Begin Spectral Data<<<<<
220.843	0.5
221.644	-0.5
222.444	1.5
223.244	0.5
224.045	0.5
224.845	-0.5
225.645	-0.5
226.445	0.5
227.245	-2.5
228.045	-0.5
228.845	0.5
229.645	-2.5
230.444	-2.5
231.244	0.5
232.043	1.5
232.843	1.5
233.642	0.5
234.442	1.5
235.241	1.5
236.04	1.5
236.839	0.5
237.638	2.5
238.437	-0.5
239.236	0.5
240.035	-1.5
240.833	-0.5
241.632	1.5
242.43	0.5
243.229	-1.5
244.027	0.5
244.826	2.5
245.624	1.5
246.422	1.5
247.22	3.5
248.018	1.5
248.816	2.5
249.614	1.5
250.412	0.5
251.21	2.5
252.007	1.5
252.805	1.5
253.602	2.5
254.4	2.5
255.197	2.5
255.994	4.5
256.791	3.5
257.589	2.5
258.386	5.5
259.183	4.5
259.979	3.5
260.776	4.5
261.573	4.5
262.37	4.5
263.166	4.5
263.963	4.5
264.759	4.5
265.556	4.5
266.352	6.5
267.148	5.5
267.944	6.5
268.74	5.5
269.536	6.5
270.332	7.5
271.128	6.5
271.924	6.5
272.719	6.5
273.515	8.5
274.311	9.5
275.106	9.5
275.901	8.5
276.697	10.5
277.492	9.5
278.287	6.5
279.082	9.5
279.877	8.5
280.672	12.5
281.467	9.5
282.262	9.5
283.056	10.5
283.851	11.5
284.646	11.5
285.44	10.5
286.234	12.5
287.029	9.5
287.823	11.5
288.617	11.5
289.411	10.5
290.205	9.5
290.999	10.5
291.793	11.5
292.587	10.5
293.381	12.5
294.174	9.5
294.968	10.5
295.761	9.5
296.555	6.5
297.348	9.5
298.141	9.5
298.935	9.5
299.728	9.5
300.521	7.5
301.314	8.5
302.107	8.5
302.899	9.5
303.692	8.5
304.485	10.5
305.277	9.5
306.07	7.5
306.862	7.5
307.655	7.5
308.447	8.5
309.239	7.5
310.031	6.5
310.823	7.5
311.615	3.5
312.407	7.5
313.199	4.5
313.991	6.5
314.783	8.5
315.574	5.5
316.366	4.5
317.157	4.5
317.949	5.5
318.74	4.5
319.531	3.5
320.322	3.5
321.113	4.5
321.904	3.5
322.695	4.5
323.486	3.5
324.277	1.5
325.068	3.5
325.858	3.5
326.649	2.5
327.439	2.5
328.23	2.5
329.02	3.5
329.81	4.5
330.6	2.5
331.391	3.5
332.181	-0.5
332.971	4.5
333.76	-0.5
334.55	2.5
335.34	1.5
336.13	3.5
336.919	2.5
337.709	3.5
338.498	5.5
339.287	1.5
340.077	1.5
340.866	2.5
341.655	1.5
342.444	4.5
343.233	2.5
344.022	1.5
344.811	4.5
345.6	2.5
346.388	4.5
347.177	2.5
347.965	3.5
348.754	1.5
349.542	2.5
350.33	1.5
351.119	2.5
351.907	4.5
352.695	2.5
353.483	1.5
354.271	-0.5
355.059	3.5
355.846	0.5
356.634	2.5
357.422	3.5
358.209	3.5
358.997	3.5
359.784	3.5
360.571	1.5
361.359	4.5
362.146	1.5
362.933	2.5
363.72	1.5
364.507	2.5
365.294	1.5
366.081	2.5
366.867	0.5
367.654	3.5
368.44	3.5
369.227	0.5
370.013	2.5
370.8	1.5
371.586	1.5
372.372	3.5
373.158	1.5
373.944	2.5
374.73	-1.5
375.516	4.5
376.302	1.5
377.088	2.5
377.873	2.5
378.659	2.5
379.445	1.5
380.23	2.5
381.015	2.5
381.801	2.5
382.586	4.5
383.371	1.5
384.156	3.5
384.941	0.5
385.726	0.5
386.511	3.5
387.296	2.5
388.08	1.5
388.865	1.5
389.649	1.5
390.434	3.5
391.218	3.5
392.003	2.5
392.787	2.5
393.571	1.5
394.355	2.5
395.139	1.5
395.923	4.5
396.707	3.5
397.491	1.5
398.274	2.5
399.058	1.5
399.842	0.5
400.625	4.5
401.408	4.5
402.192	6.5
402.975	3.5
403.758	4.5
404.541	3.5
405.324	4.5
406.107	2.5
406.89	2.5
407.673	5.5
408.456	1.5
409.238	3.5
410.021	3.5
410.803	3.5
411.586	0.5
412.368	4.5
413.151	2.5
413.933	4.5
414.715	5.5
415.497	2.5
416.279	4.5
417.061	4.5
417.843	3.5
418.624	2.5
419.406	4.5
420.188	3.5
420.969	4.5
421.751	5.5
422.532	5.5
423.313	9.5
424.095	6.5
424.876	5.5
425.657	6.5
426.438	1.5
427.219	6.5
428	5.5
428.78	5.5
429.561	4.5
430.342	4.5
431.122	7.5
431.903	5.5
432.683	5.5
433.464	4.5
434.244	9.5
435.024	7.5
435.804	7.5
436.584	7.5
437.364	11.5
438.144	11.5
438.924	9.5
439.704	9.5
440.483	11.5
441.263	9.5
442.042	9.5
442.822	10.5
443.601	12.5
444.38	15.5
445.16	13.5
445.939	13.5
446.718	15.5
447.497	17.5
448.276	18.5
449.054	22.5
449.833	21.5
450.612	20.5
451.391	26.5
452.169	26.5
452.948	29.5
453.726	31.5
454.504	32.5
455.282	39.5
456.061	38.5
456.839	45.5
457.617	51.5
458.395	56.5
459.172	60.5
459.95	65.5
460.728	73.5
461.506	82.5
462.283	93.5
463.061	98.5
463.838	109.5
464.615	125.5
465.393	142.5
466.17	162.5
466.947	175.5
467.724	196.5
468.501	221.5
469.278	246.5
470.055	275.5
470.831	311.5
471.608	338.5
472.385	386.5
473.161	428.5
473.938	471.5
474.714	533.5
475.49	598.5
476.266	663.5
477.043	731.5
477.819	810.5
478.595	908.5
479.371	1009.5
480.146	1121.5
480.922	1236.5
481.698	1369.5
482.473	1530.5
483.249	1697.5
484.024	1879.5
484.8	2088.5
485.575	2288.5
486.35	2536.5
487.126	2836.5
487.901	3128.5
488.676	3456.5
489.451	3827.5
490.225	4267.5
491	4700.5
491.775	5169.5
492.55	5724.5
493.324	6282.5
494.099	6904.5
494.873	7571.5
495.647	8244.5
496.422	8958.5
497.196	9740.5
497.97	10502.5
498.744	11309.5
499.518	12121.5
500.292	12907.5
501.066	13673.5
501.839	14398.5
502.613	15082.5
503.387	15753.5
504.16	16229.5
504.934	16619.5
505.707	16895.5
506.48	17074.5
507.253	17174.5
508.027	17154.5
508.8	16975.5
509.573	16701.5
510.346	16366.5
511.118	15937.5
511.891	15355.5
512.664	14888.5
513.437	14244.5
514.209	13677.5
514.982	13128.5
515.754	12541.5
516.526	11955.5
517.298	11368.5
518.071	10826.5
518.843	10391.5
519.615	9916.5
520.387	9470.5
521.159	9134.5
521.93	8733.5
522.702	8394.5
523.474	8080.5
524.245	7773.5
525.017	7471.5
525.788	7145.5
526.56	6892.5
527.331	6582.5
528.102	6288.5
528.873	5957.5
529.644	5727.5
530.415	5442.5
531.186	5142.5
531.957	4879.5
532.728	4628.5
533.498	4380.5
534.269	4126.5
535.039	3891.5
535.81	3661.5
536.58	3460.5
537.351	3273.5
538.121	3090.5
538.891	2911.5
539.661	2752.5
540.431	2612.5
541.201	2455.5
541.971	2321.5
542.741	2213.5
543.51	2105.5
544.28	1985.5
545.05	1891.5
545.819	1792.5
546.588	1729.5
547.358	1626.5
548.127	1540.5
548.896	1483.5
549.665	1395.5
550.434	1322.5
551.203	1253.5
551.972	1187.5
552.741	1126.5
553.51	1057.5
554.278	992.5
555.047	931.5
555.815	889.5
556.584	827.5
557.352	779.5
558.121	752.5
558.889	703.5
559.657	667.5
560.425	607.5
561.193	600.5
561.961	549.5
562.729	517.5
563.496	494.5
564.264	462.5
565.032	448.5
565.799	412.5
566.567	389.5
567.334	371.5
568.101	343.5
568.869	328.5
569.636	309.5
570.403	288.5
571.17	276.5
571.937	263.5
572.704	246.5
573.471	232.5
574.237	216.5
575.004	207.5
575.771	190.5
576.537	173.5
577.303	169.5
578.07	158.5
578.836	149.5
579.602	140.5
580.368	132.5
581.134	124.5
581.9	119.5
582.666	116.5
583.432	106.5
584.198	102.5
584.964	93.5
585.729	90.5
586.495	81.5
587.26	78.5
588.025	76.5
588.791	73.5
589.556	68.5
590.321	62.5
591.086	63.5
591.851	56.5
592.616	56.5
593.381	53.5
594.146	52.5
594.911	49.5
595.675	44.5
596.44	43.5
597.204	39.5
597.969	39.5
598.733	40.5
599.497	34.5
600.261	34.5
601.025	30.5
601.79	32.5
602.553	28.5
603.317	27.5
604.081	28.5
604.845	27.5
605.609	25.5
606.372	25.5
607.136	25.5
607.899	21.5
608.662	22.5
609.426	19.5
610.189	15.5
610.952	17.5
611.715	18.5
612.478	18.5
613.241	15.5
614.004	15.5
614.767	13.5
615.529	14.5
616.292	13.5
617.055	11.5
617.817	11.5
618.579	11.5
619.342	11.5
620.104	13.5
620.866	10.5
621.628	9.5
622.39	9.5
623.152	11.5
623.914	11.5
624.676	10.5
625.438	9.5
626.199	8.5
626.961	7.5
627.722	5.5
628.484	5.5
629.245	8.5
630.006	5.5
630.768	5.5
631.529	7.5
632.29	7.5
633.051	5.5
633.812	6.5
634.573	5.5
635.333	7.5
636.094	6.5
636.855	5.5
637.615	6.5
638.376	3.5
639.136	3.5
639.896	7.5
640.657	2.5
641.417	4.5
642.177	3.5
642.937	3.5
643.697	2.5
644.457	3.5
645.216	2.5
645.976	2.5
646.736	4.5
647.495	4.5
648.255	4.5
649.014	3.5
649.774	3.5
650.533	4.5
651.292	2.5
652.051	6.5
652.81	1.5
653.569	2.5
654.328	2.5
655.087	2.5
655.846	3.5
656.604	1.5
657.363	1.5
658.121	2.5
658.88	4.5
659.638	4.5
660.397	2.5
661.155	1.5
661.913	2.5
662.671	5.5
663.429	2.5
664.187	4.5
664.945	1.5
665.703	1.5
666.46	1.5
667.218	1.5
667.976	2.5
668.733	4.5
669.49	2.5
670.248	5.5
671.005	1.5
671.762	1.5
672.519	2.5
673.276	2.5
674.033	1.5
674.79	1.5
675.547	2.5
676.304	3.5
677.06	3.5
677.817	1.5
678.574	2.5
679.33	2.5
680.086	0.5
680.843	4.5
681.599	0.5
682.355	3.5
683.111	-0.5
683.867	2.5
684.623	0.5
685.379	-2.5
686.135	2.5
686.89	0.5
687.646	3.5
688.402	1.5
689.157	0.5
689.912	1.5
690.668	1.5
691.423	1.5
692.178	0.5
692.933	1.5
693.688	1.5
694.443	2.5
695.198	1.5
695.953	0.5
696.708	1.5
697.462	0.5
698.217	2.5
698.972	-0.5
699.726	1.5
700.48	-1.5
701.235	1.5
701.989	0.5
702.743	-0.5
703.497	3.5
704.251	0.5
705.005	0.5
705.759	1.5
706.513	1.5
707.266	-1.5
708.02	0.5
708.774	-0.5
709.527	1.5
710.28	-0.5
711.034	1.5
711.787	-1.5
712.54	1.5
713.293	0.5
714.046	2.5
714.799	2.5
715.552	1.5
716.305	1.5
717.058	0.5
717.81	0.5
718.563	2.5
719.315	2.5
720.068	3.5
720.82	0.5
721.573	2.5
722.325	0.5
723.077	0.5
723.829	-1.5
724.581	2.5
725.333	0.5
726.085	1.5
726.836	1.5
727.588	2.5
728.34	3.5
729.091	1.5
729.843	2.5
730.594	2.5
731.346	-1.5
732.097	3.5
732.848	0.5
733.599	1.5
734.35	1.5
735.101	1.5
735.852	-1.5
736.603	0.5
737.354	2.5
738.104	2.5
738.855	3.5
739.605	1.5
740.356	0.5
741.106	1.5
741.856	-0.5
742.607	2.5
743.357	1.5
744.107	4.5
744.857	1.5
745.607	2.5
746.357	0.5
747.106	0.5
747.856	2.5
748.606	1.5
749.355	2.5
750.105	2.5
750.854	-0.5
751.603	2.5
752.353	3.5
753.102	3.5
753.851	0.5
754.6	1.5
755.349	2.5
756.098	1.5
756.847	2.5
757.595	2.5
758.344	1.5
759.093	3.5
759.841	1.5
760.589	4.5
761.338	2.5
762.086	3.5
762.834	1.5
763.582	3.5
764.331	4.5
765.079	2.5
765.826	3.5
766.574	1.5
767.322	3.5
768.07	3.5
768.817	6.5
769.565	2.5
770.312	3.5
771.06	4.5
771.807	5.5
772.554	5.5
773.302	4.5
774.049	3.5
774.796	2.5
775.543	3.5
776.29	3.5
777.036	4.5
777.783	4.5
778.53	3.5
779.276	1.5
780.023	4.5
780.769	3.5
781.516	4.5
782.262	2.5
783.008	4.5
783.754	3.5
784.5	5.5
785.246	4.5
785.992	3.5
786.738	6.5
787.484	3.5
788.23	4.5
788.975	5.5
789.721	4.5
790.466	6.5
791.212	4.5
791.957	5.5
792.702	6.5
793.447	3.5
794.193	3.5
794.938	2.5
795.683	3.5
796.427	2.5
797.172	2.5
797.917	5.5
798.662	2.5
799.406	4.5
800.151	4.5
800.895	5.5
801.64	4.5
802.384	6.5
803.128	4.5
803.872	5.5
804.616	3.5
805.36	2.5
806.104	2.5
806.848	3.5
807.592	2.5
808.336	3.5
809.079	2.5
809.823	3.5
810.566	1.5
811.31	1.5
812.053	2.5
812.796	2.5
813.539	4.5
814.283	1.5
815.026	3.5
815.769	2.5
816.511	0.5
817.254	3.5
817.997	4.5
818.74	2.5
819.482	3.5
820.225	3.5
820.967	2.5
821.71	0.5
822.452	1.5
823.194	1.5
823.936	2.5
824.678	2.5
825.42	0.5
826.162	0.5
826.904	1.5
827.646	4.5
828.388	1.5
829.129	4.5
829.871	0.5
830.612	2.5
831.354	1.5
832.095	2.5
832.836	1.5
833.577	1.5
834.319	1.5
835.06	3.5
835.801	3.5
836.542	0.5
837.282	1.5
838.023	1.5
838.764	3.5
839.504	1.5
840.245	0.5
840.985	2.5
841.726	2.5
842.466	0.5
843.206	-0.5
843.946	2.5
844.687	2.5
845.427	0.5
846.166	2.5
846.906	1.5
847.646	1.5
848.386	1.5
849.125	1.5
849.865	-0.5
850.605	-1.5
851.344	3.5
852.083	0.5
852.823	1.5
853.562	0.5
854.301	-0.5
855.04	1.5
855.779	1.5
856.518	1.5
857.257	1.5
857.995	2.5
858.734	-0.5
859.473	-0.5
860.211	0.5
860.95	2.5
861.688	2.5
862.426	1.5
863.165	1.5
863.903	1.5
864.641	-0.5
865.379	0.5
866.117	1.5
866.855	0.5
867.593	1.5
868.33	0.5
869.068	-1.5
869.806	-0.5
870.543	0.5
871.28	0.5
872.018	-0.5
872.755	-1.5
873.492	0.5
874.229	0.5
874.967	0.5
875.703	0.5
876.44	0.5
877.177	-0.5
877.914	0.5
878.651	1.5
879.387	-0.5
880.124	-0.5
880.86	0.5
881.597	-1.5
882.333	1.5
883.069	-2.5
883.806	0.5
884.542	-0.5
885.278	0.5
886.014	1.5
886.749	-1.5
887.485	-0.5
888.221	-0.5
888.957	-1.5
889.692	1.5
890.428	-1.5
891.163	-0.5
891.899	-0.5
892.634	1.5
893.369	0.5
894.104	-0.5
894.839	0.5
895.574	-3.5
896.309	-1.5
897.044	1.5
897.779	-2.5
898.514	1.5
899.248	0.5
899.983	-1.5
900.717	-3.5
901.452	0.5
902.186	0.5
902.92	0.5
903.654	-1.5
904.389	-0.5
905.123	1.5
905.857	0.5
906.59	2.5
907.324	-3.5
908.058	0.5
908.792	0.5
909.525	-0.5
910.259	-0.5
910.992	0.5
911.726	0.5
912.459	-0.5
913.192	1.5
913.925	0.5
914.658	-0.5
915.391	0.5
916.124	-2.5
916.857	1.5
917.59	-0.5
918.323	0.5
919.055	-1.5
919.788	0.5
920.521	0.5
921.253	-3.5
921.985	1.5
922.718	1.5
923.45	-1.5
924.182	-1.5
924.914	1.5
925.646	-2.5
926.378	-0.5
927.11	0.5
927.841	-1.5
928.573	-1.5
929.305	-0.5
930.036	-1.5
930.768	-0.5
931.499	-1.5
932.23	-0.5
932.962	0.5
933.693	-0.5
934.424	1.5
935.155	-0.5
935.886	0.5
936.617	-0.5
937.348	-0.5
938.078	-0.5
938.809	-1.5
939.54	-0.5
940.27	-0.5
941.001	0.5
941.731	-2.5
942.461	-0.5
943.191	-1.5
943.922	1.5
944.652	-0.5
945.382	-2.5
946.112	0.5
946.841	-1.5
947.571	-1.5
948.301	-0.5
949.031	-3.5
949.76	0.5
950.49	-1.5
951.219	-0.5
951.948	0.5
952.678	1.5
953.407	-2.5
954.136	-0.5
954.865	1.5
955.594	-3.5
956.323	-1.5
957.052	0.5
957.78	-1.5
958.509	0.5
959.238	-2.5
959.966	0.5
960.695	-2.5
961.423	-0.5
962.151	0.5
962.88	0.5
963.608	-0.5
964.336	-1.5
965.064	-0.5
965.792	-0.5
966.52	0.5
967.247	0.5
967.975	-1.5
968.703	-1.5
969.43	-2.5
970.158	1.5
970.885	-0.5
971.613	0.5
972.34	-2.5
973.067	-3.5
973.794	-0.5
974.521	-0.5
975.248	0.5
975.975	-2.5
976.702	-0.5
977.429	0.5
978.156	0.5
978.882	-0.5
979.609	-2.5
980.335	-1.5
981.062	1.5
981.788	-0.5
982.514	0.5
983.24	-1.5
983.967	0.5
984.693	-1.5
985.419	-1.5
986.144	0.5
986.87	-2.5
987.596	-0.5
988.322	-1.5
989.047	1.5
989.773	0.5
990.498	-2.5
991.224	0.5
991.949	-0.5
992.674	-1.5
993.399	-1.5
994.124	0.5
994.849	0.5
995.574	-0.5
996.299	-0.5
997.024	0.5
997.749	-0.5
998.473	-3.5
999.198	-1.5
999.922	-1.5
1000.647	2.5
1001.371	2.5
1002.095	-0.5
1002.82	-1.5
1003.544	-1.5
1004.268	-0.5
1004.992	0.5
1005.716	-1.5
1006.439	-2.5
1007.163	-2.5
1007.887	-2.5
1008.611	-2.5
1009.334	0.5
1010.058	0.5
1010.781	-0.5
1011.504	0.5
1012.228	-0.5
1012.951	0.5
1013.674	-1.5
1014.397	1.5
1015.12	0.5
