节点500_145_QEPB04081__271__11-33-18-504.txt的数据

Date: Wed Nov 12 11:33:18 CST 2025
User: PC
Spectrometer: QEPB0408
触发模式: 0
积分时间 (秒): 1.000000E-2
Scans to average: 1
启用暗噪声校正: true
启用非线性校正: false
滑动平均宽度: 0
X轴模式: Wavelengths
Number of Pixels in Spectrum: 1044
>>>>>Begin Spectral Data<<<<<
220.843	-4
221.644	0
222.444	-1
223.244	0
224.045	1
224.845	2
225.645	-2
226.445	1
227.245	-2
228.045	-2
228.845	0
229.645	2
230.444	1
231.244	1
232.043	1
232.843	1
233.642	-1
234.442	2
235.241	1
236.04	-1
236.839	1
237.638	0
238.437	1
239.236	-1
240.035	1
240.833	0
241.632	3
242.43	1
243.229	2
244.027	1
244.826	2
245.624	5
246.422	2
247.22	1
248.018	1
248.816	3
249.614	2
250.412	2
251.21	1
252.007	1
252.805	1
253.602	3
254.4	4
255.197	2
255.994	2
256.791	3
257.589	1
258.386	4
259.183	5
259.979	4
260.776	5
261.573	6
262.37	4
263.166	5
263.963	5
264.759	4
265.556	5
266.352	6
267.148	5
267.944	6
268.74	6
269.536	7
270.332	6
271.128	7
271.924	7
272.719	7
273.515	8
274.311	8
275.106	8
275.901	9
276.697	5
277.492	10
278.287	9
279.082	9
279.877	10
280.672	11
281.467	13
282.262	11
283.056	12
283.851	10
284.646	10
285.44	8
286.234	10
287.029	10
287.823	10
288.617	11
289.411	8
290.205	10
290.999	11
291.793	8
292.587	9
293.381	10
294.174	8
294.968	10
295.761	11
296.555	10
297.348	9
298.141	12
298.935	9
299.728	10
300.521	9
301.314	13
302.107	8
302.899	9
303.692	10
304.485	7
305.277	10
306.07	7
306.862	8
307.655	9
308.447	8
309.239	9
310.031	7
310.823	6
311.615	7
312.407	7
313.199	9
313.991	5
314.783	7
315.574	7
316.366	7
317.157	7
317.949	7
318.74	6
319.531	5
320.322	4
321.113	5
321.904	5
322.695	4
323.486	5
324.277	5
325.068	5
325.858	6
326.649	6
327.439	2
328.23	4
329.02	4
329.81	2
330.6	2
331.391	3
332.181	5
332.971	3
333.76	4
334.55	2
335.34	3
336.13	3
336.919	4
337.709	2
338.498	5
339.287	5
340.077	1
340.866	7
341.655	3
342.444	5
343.233	2
344.022	5
344.811	3
345.6	2
346.388	3
347.177	4
347.965	3
348.754	2
349.542	4
350.33	3
351.119	2
351.907	1
352.695	0
353.483	3
354.271	3
355.059	2
355.846	5
356.634	1
357.422	0
358.209	3
358.997	4
359.784	2
360.571	4
361.359	1
362.146	2
362.933	5
363.72	1
364.507	3
365.294	2
366.081	2
366.867	3
367.654	-1
368.44	2
369.227	1
370.013	2
370.8	0
371.586	5
372.372	1
373.158	2
373.944	3
374.73	1
375.516	1
376.302	3
377.088	5
377.873	3
378.659	1
379.445	3
380.23	2
381.015	4
381.801	3
382.586	1
383.371	4
384.156	1
384.941	2
385.726	2
386.511	2
387.296	5
388.08	2
388.865	6
389.649	2
390.434	2
391.218	5
392.003	3
392.787	2
393.571	6
394.355	2
395.139	1
395.923	5
396.707	2
397.491	3
398.274	5
399.058	3
399.842	3
400.625	7
401.408	3
402.192	3
402.975	5
403.758	3
404.541	3
405.324	2
406.107	2
406.89	2
407.673	5
408.456	4
409.238	4
410.021	3
410.803	4
411.586	3
412.368	5
413.151	4
413.933	5
414.715	5
415.497	4
416.279	3
417.061	3
417.843	5
418.624	4
419.406	5
420.188	5
420.969	5
421.751	5
422.532	5
423.313	6
424.095	6
424.876	5
425.657	6
426.438	2
427.219	7
428	5
428.78	6
429.561	7
430.342	7
431.122	6
431.903	6
432.683	9
433.464	9
434.244	10
435.024	10
435.804	8
436.584	10
437.364	8
438.144	10
438.924	9
439.704	12
440.483	11
441.263	12
442.042	12
442.822	10
443.601	14
444.38	14
445.16	15
445.939	14
446.718	17
447.497	19
448.276	18
449.054	22
449.833	25
450.612	22
451.391	26
452.169	28
452.948	33
453.726	33
454.504	39
455.282	42
456.061	47
456.839	49
457.617	54
458.395	59
459.172	65
459.95	75
460.728	80
461.506	93
462.283	97
463.061	113
463.838	127
464.615	136
465.393	157
466.17	165
466.947	189
467.724	213
468.501	243
469.278	262
470.055	294
470.831	335
471.608	367
472.385	407
473.161	458
473.938	498
474.714	566
475.49	622
476.266	694
477.043	770
477.819	840
478.595	948
479.371	1045
480.146	1136
480.922	1265
481.698	1394
482.473	1528
483.249	1685
484.024	1879
484.8	2073
485.575	2280
486.35	2513
487.126	2773
487.901	3044
488.676	3369
489.451	3699
490.225	4089
491	4472
491.775	4936
492.55	5420
493.324	5917
494.099	6444
494.873	7078
495.647	7681
496.422	8390
497.196	9059
497.97	9776
498.744	10544
499.518	11275
500.292	11997
501.066	12680
501.839	13374
502.613	14116
503.387	14754
504.16	15274
504.934	15729
505.707	16056
506.48	16371
507.253	16507
508.027	16594
508.8	16507
509.573	16367
510.346	16071
511.118	15760
511.891	15355
512.664	14881
513.437	14348
514.209	13762
514.982	13258
515.754	12723
516.526	12173
517.298	11603
518.071	11072
518.843	10598
519.615	10146
520.387	9742
521.159	9339
521.93	8989
522.702	8610
523.474	8297
524.245	7986
525.017	7640
525.788	7308
526.56	7053
527.331	6735
528.102	6477
528.873	6165
529.644	5907
530.415	5627
531.186	5378
531.957	5070
532.728	4797
533.498	4556
534.269	4293
535.039	4068
535.81	3861
536.58	3638
537.351	3432
538.121	3250
538.891	3041
539.661	2880
540.431	2752
541.201	2598
541.971	2467
542.741	2329
543.51	2203
544.28	2088
545.05	1988
545.819	1891
546.588	1802
547.358	1708
548.127	1628
548.896	1546
549.665	1466
550.434	1383
551.203	1318
551.972	1269
552.741	1182
553.51	1129
554.278	1054
555.047	1017
555.815	936
556.584	892
557.352	840
558.121	785
558.889	749
559.657	693
560.425	652
561.193	625
561.961	575
562.729	552
563.496	525
564.264	485
565.032	462
565.799	446
566.567	410
567.334	389
568.101	363
568.869	352
569.636	333
570.403	311
571.17	294
571.937	276
572.704	259
573.471	250
574.237	244
575.004	215
575.771	206
576.537	192
577.303	180
578.07	172
578.836	162
579.602	155
580.368	142
581.134	136
581.9	128
582.666	125
583.432	119
584.198	106
584.964	105
585.729	98
586.495	93
587.26	85
588.025	84
588.791	81
589.556	69
590.321	71
591.086	70
591.851	62
592.616	60
593.381	59
594.146	51
594.911	54
595.675	49
596.44	42
597.204	43
597.969	44
598.733	41
599.497	38
600.261	38
601.025	34
601.79	34
602.553	31
603.317	30
604.081	29
604.845	28
605.609	28
606.372	25
607.136	25
607.899	24
608.662	21
609.426	23
610.189	20
610.952	21
611.715	18
612.478	17
613.241	18
614.004	17
614.767	19
615.529	17
616.292	16
617.055	13
617.817	15
618.579	15
619.342	11
620.104	11
620.866	10
621.628	11
622.39	13
623.152	10
623.914	9
624.676	9
625.438	8
626.199	10
626.961	8
627.722	9
628.484	8
629.245	7
630.006	10
630.768	8
631.529	5
632.29	7
633.051	6
633.812	8
634.573	5
635.333	8
636.094	6
636.855	8
637.615	5
638.376	4
639.136	6
639.896	6
640.657	5
641.417	4
642.177	5
642.937	3
643.697	3
644.457	2
645.216	5
645.976	6
646.736	5
647.495	2
648.255	5
649.014	4
649.774	5
650.533	4
651.292	3
652.051	4
652.81	2
653.569	2
654.328	2
655.087	4
655.846	5
656.604	5
657.363	5
658.121	3
658.88	5
659.638	3
660.397	4
661.155	5
661.913	3
662.671	2
663.429	2
664.187	1
664.945	2
665.703	0
666.46	2
667.218	4
667.976	2
668.733	4
669.49	2
670.248	1
671.005	5
671.762	2
672.519	2
673.276	5
674.033	2
674.79	3
675.547	2
676.304	5
677.06	3
677.817	3
678.574	4
679.33	1
680.086	3
680.843	3
681.599	1
682.355	1
683.111	4
683.867	3
684.623	2
685.379	2
686.135	1
686.89	3
687.646	1
688.402	1
689.157	3
689.912	3
690.668	2
691.423	2
692.178	0
692.933	0
693.688	-1
694.443	2
695.198	-2
695.953	4
696.708	2
697.462	2
698.217	0
698.972	2
699.726	1
700.48	1
701.235	1
701.989	2
702.743	0
703.497	0
704.251	1
705.005	1
705.759	2
706.513	3
707.266	4
708.02	0
708.774	1
709.527	2
710.28	0
711.034	2
711.787	2
712.54	1
713.293	2
714.046	2
714.799	1
715.552	3
716.305	1
717.058	3
717.81	1
718.563	1
719.315	1
720.068	3
720.82	2
721.573	0
722.325	3
723.077	0
723.829	3
724.581	3
725.333	0
726.085	3
726.836	1
727.588	4
728.34	2
729.091	1
729.843	2
730.594	1
731.346	3
732.097	3
732.848	3
733.599	1
734.35	2
735.101	2
735.852	2
736.603	3
737.354	3
738.104	3
738.855	2
739.605	2
740.356	1
741.106	1
741.856	3
742.607	2
743.357	2
744.107	3
744.857	1
745.607	2
746.357	2
747.106	5
747.856	4
748.606	5
749.355	1
750.105	1
750.854	6
751.603	2
752.353	2
753.102	2
753.851	2
754.6	5
755.349	2
756.098	2
756.847	1
757.595	2
758.344	2
759.093	5
759.841	5
760.589	1
761.338	2
762.086	3
762.834	2
763.582	3
764.331	3
765.079	4
765.826	3
766.574	3
767.322	2
768.07	6
768.817	5
769.565	3
770.312	4
771.06	4
771.807	6
772.554	4
773.302	4
774.049	6
774.796	4
775.543	5
776.29	6
777.036	5
777.783	0
778.53	2
779.276	4
780.023	3
780.769	5
781.516	3
782.262	6
783.008	1
783.754	5
784.5	4
785.246	5
785.992	5
786.738	4
787.484	4
788.23	5
788.975	5
789.721	6
790.466	6
791.212	5
791.957	5
792.702	6
793.447	5
794.193	7
794.938	4
795.683	6
796.427	7
797.172	2
797.917	5
798.662	3
799.406	4
800.151	4
800.895	5
801.64	5
802.384	5
803.128	5
803.872	7
804.616	3
805.36	5
806.104	4
806.848	5
807.592	4
808.336	6
809.079	3
809.823	4
810.566	3
811.31	3
812.053	5
812.796	4
813.539	3
814.283	3
815.026	3
815.769	4
816.511	3
817.254	2
817.997	1
818.74	4
819.482	5
820.225	1
820.967	5
821.71	5
822.452	1
823.194	2
823.936	3
824.678	3
825.42	1
826.162	3
826.904	1
827.646	1
828.388	2
829.129	1
829.871	3
830.612	2
831.354	4
832.095	2
832.836	2
833.577	3
834.319	2
835.06	5
835.801	1
836.542	3
837.282	2
838.023	4
838.764	2
839.504	2
840.245	-2
840.985	0
841.726	3
842.466	1
843.206	0
843.946	4
844.687	1
845.427	1
846.166	-1
846.906	2
847.646	2
848.386	4
849.125	2
849.865	2
850.605	2
851.344	3
852.083	2
852.823	1
853.562	0
854.301	1
855.04	0
855.779	0
856.518	0
857.257	1
857.995	1
858.734	3
859.473	1
860.211	1
860.95	1
861.688	0
862.426	2
863.165	1
863.903	3
864.641	2
865.379	1
866.117	2
866.855	0
867.593	4
868.33	0
869.068	1
869.806	2
870.543	0
871.28	1
872.018	0
872.755	0
873.492	1
874.229	0
874.967	1
875.703	2
876.44	1
877.177	2
877.914	0
878.651	1
879.387	2
880.124	-2
880.86	2
881.597	3
882.333	-1
883.069	1
883.806	1
884.542	1
885.278	0
886.014	1
886.749	1
887.485	0
888.221	-1
888.957	2
889.692	-1
890.428	2
891.163	-2
891.899	1
892.634	2
893.369	1
894.104	-1
894.839	1
895.574	0
896.309	-2
897.044	1
897.779	0
898.514	2
899.248	0
899.983	0
900.717	-1
901.452	0
902.186	2
902.92	1
903.654	2
904.389	0
905.123	0
905.857	3
906.59	-1
907.324	1
908.058	0
908.792	1
909.525	-2
910.259	1
910.992	2
911.726	0
912.459	2
913.192	1
913.925	1
914.658	1
915.391	-1
916.124	-2
916.857	2
917.59	2
918.323	-1
919.055	1
919.788	1
920.521	-1
921.253	0
921.985	2
922.718	0
923.45	1
924.182	-1
924.914	1
925.646	0
926.378	0
927.11	0
927.841	0
928.573	-1
929.305	0
930.036	-1
930.768	-2
931.499	-2
932.23	1
932.962	1
933.693	1
934.424	2
935.155	0
935.886	0
936.617	1
937.348	-2
938.078	-2
938.809	1
939.54	2
940.27	0
941.001	0
941.731	-1
942.461	0
943.191	1
943.922	0
944.652	0
945.382	-1
946.112	-2
946.841	1
947.571	0
948.301	1
949.031	1
949.76	1
950.49	1
951.219	1
951.948	-2
952.678	2
953.407	0
954.136	0
954.865	0
955.594	1
956.323	0
957.052	1
957.78	-2
958.509	1
959.238	-1
959.966	-1
960.695	1
961.423	-2
962.151	1
962.88	-1
963.608	3
964.336	1
965.064	0
965.792	1
966.52	-2
967.247	1
967.975	-2
968.703	1
969.43	-2
970.158	-1
970.885	-1
971.613	-1
972.34	1
973.067	-1
973.794	-1
974.521	0
975.248	-1
975.975	-1
976.702	1
977.429	1
978.156	-2
978.882	0
979.609	-2
980.335	1
981.062	2
981.788	-2
982.514	0
983.24	1
983.967	-1
984.693	0
985.419	-1
986.144	0
986.87	1
987.596	0
988.322	-1
989.047	3
989.773	0
990.498	0
991.224	1
991.949	-1
992.674	1
993.399	-2
994.124	2
994.849	0
995.574	1
996.299	-3
997.024	-3
997.749	0
998.473	-1
999.198	-2
999.922	0
1000.647	0
1001.371	3
1002.095	-1
1002.82	-1
1003.544	0
1004.268	-2
1004.992	-1
1005.716	1
1006.439	-1
1007.163	0
1007.887	1
1008.611	1
1009.334	1
1010.058	1
1010.781	1
1011.504	1
1012.228	2
1012.951	-1
1013.674	0
1014.397	-1
1015.12	1
