节点500_145_QEPB04081__596__11-38-25-364.txt的数据

Date: Wed Nov 12 11:38:25 CST 2025
User: PC
Spectrometer: QEPB0408
触发模式: 0
积分时间 (秒): 1.000000E-2
Scans to average: 1
启用暗噪声校正: true
启用非线性校正: false
滑动平均宽度: 0
X轴模式: Wavelengths
Number of Pixels in Spectrum: 1044
>>>>>Begin Spectral Data<<<<<
220.843	1.88
221.644	-0.12
222.444	4.88
223.244	-0.12
224.045	-2.12
224.845	-0.12
225.645	1.88
226.445	1.88
227.245	-1.12
228.045	1.88
228.845	-2.12
229.645	1.88
230.444	-0.12
231.244	1.88
232.043	-0.12
232.843	-1.12
233.642	2.88
234.442	0.88
235.241	0.88
236.04	-0.12
236.839	0.88
237.638	2.88
238.437	-0.12
239.236	0.88
240.035	-0.12
240.833	2.88
241.632	0.88
242.43	0.88
243.229	0.88
244.027	1.88
244.826	2.88
245.624	-0.12
246.422	1.88
247.22	1.88
248.018	4.88
248.816	4.88
249.614	2.88
250.412	3.88
251.21	1.88
252.007	0.88
252.805	2.88
253.602	4.88
254.4	2.88
255.197	3.88
255.994	4.88
256.791	2.88
257.589	6.88
258.386	5.88
259.183	5.88
259.979	3.88
260.776	3.88
261.573	3.88
262.37	2.88
263.166	6.88
263.963	1.88
264.759	3.88
265.556	4.88
266.352	3.88
267.148	2.88
267.944	3.88
268.74	6.88
269.536	5.88
270.332	6.88
271.128	6.88
271.924	6.88
272.719	6.88
273.515	6.88
274.311	6.88
275.106	8.88
275.901	9.88
276.697	6.88
277.492	6.88
278.287	9.88
279.082	6.88
279.877	6.88
280.672	9.88
281.467	9.88
282.262	7.88
283.056	5.88
283.851	6.88
284.646	8.88
285.44	11.88
286.234	10.88
287.029	8.88
287.823	8.88
288.617	5.88
289.411	11.88
290.205	9.88
290.999	9.88
291.793	9.88
292.587	9.88
293.381	9.88
294.174	8.88
294.968	10.88
295.761	7.88
296.555	9.88
297.348	9.88
298.141	7.88
298.935	8.88
299.728	8.88
300.521	6.88
301.314	7.88
302.107	11.88
302.899	9.88
303.692	5.88
304.485	6.88
305.277	6.88
306.07	8.88
306.862	7.88
307.655	7.88
308.447	5.88
309.239	7.88
310.031	7.88
310.823	7.88
311.615	5.88
312.407	6.88
313.199	7.88
313.991	7.88
314.783	5.88
315.574	5.88
316.366	4.88
317.157	7.88
317.949	5.88
318.74	4.88
319.531	4.88
320.322	5.88
321.113	6.88
321.904	4.88
322.695	4.88
323.486	4.88
324.277	2.88
325.068	4.88
325.858	4.88
326.649	3.88
327.439	2.88
328.23	2.88
329.02	1.88
329.81	4.88
330.6	4.88
331.391	2.88
332.181	4.88
332.971	3.88
333.76	5.88
334.55	2.88
335.34	4.88
336.13	4.88
336.919	2.88
337.709	2.88
338.498	3.88
339.287	3.88
340.077	3.88
340.866	2.88
341.655	3.88
342.444	1.88
343.233	3.88
344.022	2.88
344.811	5.88
345.6	5.88
346.388	1.88
347.177	1.88
347.965	2.88
348.754	3.88
349.542	2.88
350.33	2.88
351.119	2.88
351.907	2.88
352.695	4.88
353.483	3.88
354.271	3.88
355.059	0.88
355.846	1.88
356.634	3.88
357.422	1.88
358.209	5.88
358.997	3.88
359.784	2.88
360.571	0.88
361.359	3.88
362.146	3.88
362.933	3.88
363.72	3.88
364.507	2.88
365.294	2.88
366.081	2.88
366.867	2.88
367.654	4.88
368.44	1.88
369.227	3.88
370.013	1.88
370.8	0.88
371.586	0.88
372.372	3.88
373.158	3.88
373.944	3.88
374.73	5.88
375.516	2.88
376.302	5.88
377.088	3.88
377.873	1.88
378.659	1.88
379.445	2.88
380.23	2.88
381.015	1.88
381.801	3.88
382.586	1.88
383.371	2.88
384.156	1.88
384.941	1.88
385.726	4.88
386.511	1.88
387.296	5.88
388.08	1.88
388.865	1.88
389.649	1.88
390.434	3.88
391.218	4.88
392.003	0.88
392.787	2.88
393.571	1.88
394.355	5.88
395.139	1.88
395.923	1.88
396.707	3.88
397.491	4.88
398.274	4.88
399.058	4.88
399.842	3.88
400.625	2.88
401.408	2.88
402.192	5.88
402.975	3.88
403.758	3.88
404.541	3.88
405.324	3.88
406.107	4.88
406.89	2.88
407.673	4.88
408.456	1.88
409.238	2.88
410.021	3.88
410.803	2.88
411.586	2.88
412.368	3.88
413.151	5.88
413.933	4.88
414.715	6.88
415.497	7.88
416.279	2.88
417.061	2.88
417.843	2.88
418.624	3.88
419.406	3.88
420.188	7.88
420.969	3.88
421.751	3.88
422.532	3.88
423.313	5.88
424.095	7.88
424.876	6.88
425.657	7.88
426.438	5.88
427.219	7.88
428	7.88
428.78	7.88
429.561	6.88
430.342	6.88
431.122	6.88
431.903	6.88
432.683	6.88
433.464	6.88
434.244	6.88
435.024	8.88
435.804	10.88
436.584	8.88
437.364	8.88
438.144	9.88
438.924	11.88
439.704	9.88
440.483	12.88
441.263	9.88
442.042	13.88
442.822	12.88
443.601	12.88
444.38	13.88
445.16	14.88
445.939	14.88
446.718	17.88
447.497	21.88
448.276	16.88
449.054	20.88
449.833	21.88
450.612	24.88
451.391	26.88
452.169	26.88
452.948	29.88
453.726	33.88
454.504	38.88
455.282	41.88
456.061	46.88
456.839	50.88
457.617	51.88
458.395	59.88
459.172	65.88
459.95	70.88
460.728	84.88
461.506	95.88
462.283	107.88
463.061	111.88
463.838	122.88
464.615	143.88
465.393	150.88
466.17	170.88
466.947	192.88
467.724	217.88
468.501	236.88
469.278	260.88
470.055	293.88
470.831	324.88
471.608	363.88
472.385	396.88
473.161	439.88
473.938	489.88
474.714	536.88
475.49	590.88
476.266	654.88
477.043	723.88
477.819	791.88
478.595	877.88
479.371	967.88
480.146	1068.88
480.922	1166.88
481.698	1278.88
482.473	1406.88
483.249	1536.88
484.024	1680.88
484.8	1847.88
485.575	2013.88
486.35	2206.88
487.126	2424.88
487.901	2614.88
488.676	2868.88
489.451	3149.88
490.225	3465.88
491	3765.88
491.775	4101.88
492.55	4473.88
493.324	4849.88
494.099	5299.88
494.873	5762.88
495.647	6238.88
496.422	6777.88
497.196	7306.88
497.97	7872.88
498.744	8443.88
499.518	9093.88
500.292	9703.88
501.066	10245.88
501.839	10799.88
502.613	11384.88
503.387	11913.88
504.16	12409.88
504.934	12869.88
505.707	13220.88
506.48	13514.88
507.253	13780.88
508.027	13908.88
508.8	13982.88
509.573	13980.88
510.346	13903.88
511.118	13697.88
511.891	13476.88
512.664	13129.88
513.437	12805.88
514.209	12415.88
514.982	11966.88
515.754	11539.88
516.526	11082.88
517.298	10622.88
518.071	10219.88
518.843	9826.88
519.615	9325.88
520.387	8973.88
521.159	8617.88
521.93	8292.88
522.702	7946.88
523.474	7650.88
524.245	7326.88
525.017	7046.88
525.788	6766.88
526.56	6477.88
527.331	6213.88
528.102	5991.88
528.873	5721.88
529.644	5482.88
530.415	5204.88
531.186	5023.88
531.957	4770.88
532.728	4552.88
533.498	4313.88
534.269	4077.88
535.039	3866.88
535.81	3662.88
536.58	3466.88
537.351	3290.88
538.121	3105.88
538.891	2926.88
539.661	2769.88
540.431	2630.88
541.201	2475.88
541.971	2348.88
542.741	2198.88
543.51	2107.88
544.28	1992.88
545.05	1898.88
545.819	1815.88
546.588	1721.88
547.358	1630.88
548.127	1562.88
548.896	1477.88
549.665	1391.88
550.434	1330.88
551.203	1268.88
551.972	1206.88
552.741	1151.88
553.51	1074.88
554.278	1036.88
555.047	963.88
555.815	913.88
556.584	871.88
557.352	829.88
558.121	775.88
558.889	709.88
559.657	677.88
560.425	651.88
561.193	617.88
561.961	573.88
562.729	541.88
563.496	510.88
564.264	486.88
565.032	456.88
565.799	433.88
566.567	414.88
567.334	383.88
568.101	362.88
568.869	333.88
569.636	318.88
570.403	300.88
571.17	285.88
571.937	271.88
572.704	260.88
573.471	243.88
574.237	229.88
575.004	217.88
575.771	203.88
576.537	190.88
577.303	177.88
578.07	166.88
578.836	157.88
579.602	147.88
580.368	142.88
581.134	131.88
581.9	126.88
582.666	126.88
583.432	112.88
584.198	111.88
584.964	102.88
585.729	96.88
586.495	86.88
587.26	87.88
588.025	82.88
588.791	76.88
589.556	73.88
590.321	67.88
591.086	64.88
591.851	61.88
592.616	62.88
593.381	55.88
594.146	52.88
594.911	48.88
595.675	49.88
596.44	47.88
597.204	40.88
597.969	40.88
598.733	39.88
599.497	36.88
600.261	35.88
601.025	35.88
601.79	32.88
602.553	34.88
603.317	29.88
604.081	29.88
604.845	27.88
605.609	24.88
606.372	25.88
607.136	25.88
607.899	23.88
608.662	22.88
609.426	21.88
610.189	18.88
610.952	16.88
611.715	18.88
612.478	17.88
613.241	17.88
614.004	16.88
614.767	12.88
615.529	12.88
616.292	16.88
617.055	14.88
617.817	14.88
618.579	12.88
619.342	14.88
620.104	12.88
620.866	12.88
621.628	12.88
622.39	7.88
623.152	10.88
623.914	9.88
624.676	8.88
625.438	9.88
626.199	8.88
626.961	7.88
627.722	6.88
628.484	8.88
629.245	6.88
630.006	7.88
630.768	6.88
631.529	8.88
632.29	8.88
633.051	5.88
633.812	6.88
634.573	8.88
635.333	4.88
636.094	4.88
636.855	4.88
637.615	6.88
638.376	5.88
639.136	2.88
639.896	4.88
640.657	5.88
641.417	5.88
642.177	2.88
642.937	4.88
643.697	4.88
644.457	4.88
645.216	3.88
645.976	3.88
646.736	5.88
647.495	1.88
648.255	3.88
649.014	6.88
649.774	4.88
650.533	3.88
651.292	4.88
652.051	2.88
652.81	4.88
653.569	3.88
654.328	3.88
655.087	2.88
655.846	2.88
656.604	1.88
657.363	4.88
658.121	1.88
658.88	1.88
659.638	4.88
660.397	2.88
661.155	2.88
661.913	3.88
662.671	4.88
663.429	3.88
664.187	4.88
664.945	2.88
665.703	1.88
666.46	1.88
667.218	2.88
667.976	2.88
668.733	2.88
669.49	1.88
670.248	3.88
671.005	2.88
671.762	0.88
672.519	2.88
673.276	1.88
674.033	3.88
674.79	2.88
675.547	2.88
676.304	1.88
677.06	1.88
677.817	-0.12
678.574	2.88
679.33	3.88
680.086	3.88
680.843	4.88
681.599	0.88
682.355	2.88
683.111	3.88
683.867	2.88
684.623	1.88
685.379	2.88
686.135	1.88
686.89	1.88
687.646	2.88
688.402	0.88
689.157	1.88
689.912	1.88
690.668	2.88
691.423	1.88
692.178	3.88
692.933	2.88
693.688	2.88
694.443	2.88
695.198	1.88
695.953	2.88
696.708	1.88
697.462	0.88
698.217	1.88
698.972	0.88
699.726	0.88
700.48	2.88
701.235	3.88
701.989	1.88
702.743	3.88
703.497	1.88
704.251	2.88
705.005	3.88
705.759	1.88
706.513	-1.12
707.266	3.88
708.02	2.88
708.774	3.88
709.527	0.88
710.28	3.88
711.034	0.88
711.787	1.88
712.54	1.88
713.293	0.88
714.046	1.88
714.799	2.88
715.552	1.88
716.305	0.88
717.058	2.88
717.81	1.88
718.563	0.88
719.315	2.88
720.068	1.88
720.82	1.88
721.573	2.88
722.325	2.88
723.077	2.88
723.829	1.88
724.581	1.88
725.333	1.88
726.085	3.88
726.836	-0.12
727.588	1.88
728.34	1.88
729.091	1.88
729.843	2.88
730.594	1.88
731.346	2.88
732.097	2.88
732.848	0.88
733.599	3.88
734.35	1.88
735.101	3.88
735.852	1.88
736.603	2.88
737.354	1.88
738.104	2.88
738.855	2.88
739.605	-0.12
740.356	-0.12
741.106	-1.12
741.856	0.88
742.607	0.88
743.357	1.88
744.107	2.88
744.857	2.88
745.607	3.88
746.357	2.88
747.106	4.88
747.856	0.88
748.606	2.88
749.355	2.88
750.105	1.88
750.854	3.88
751.603	0.88
752.353	3.88
753.102	7.88
753.851	1.88
754.6	4.88
755.349	1.88
756.098	2.88
756.847	1.88
757.595	3.88
758.344	2.88
759.093	3.88
759.841	2.88
760.589	2.88
761.338	2.88
762.086	2.88
762.834	2.88
763.582	3.88
764.331	3.88
765.079	3.88
765.826	2.88
766.574	3.88
767.322	1.88
768.07	4.88
768.817	3.88
769.565	2.88
770.312	5.88
771.06	2.88
771.807	2.88
772.554	3.88
773.302	3.88
774.049	3.88
774.796	3.88
775.543	3.88
776.29	3.88
777.036	5.88
777.783	2.88
778.53	3.88
779.276	4.88
780.023	4.88
780.769	2.88
781.516	5.88
782.262	4.88
783.008	5.88
783.754	4.88
784.5	4.88
785.246	3.88
785.992	5.88
786.738	3.88
787.484	5.88
788.23	2.88
788.975	3.88
789.721	3.88
790.466	4.88
791.212	4.88
791.957	5.88
792.702	3.88
793.447	5.88
794.193	1.88
794.938	2.88
795.683	5.88
796.427	5.88
797.172	5.88
797.917	6.88
798.662	4.88
799.406	4.88
800.151	5.88
800.895	4.88
801.64	5.88
802.384	4.88
803.128	2.88
803.872	5.88
804.616	3.88
805.36	3.88
806.104	2.88
806.848	1.88
807.592	3.88
808.336	5.88
809.079	3.88
809.823	1.88
810.566	2.88
811.31	5.88
812.053	2.88
812.796	3.88
813.539	2.88
814.283	5.88
815.026	2.88
815.769	2.88
816.511	3.88
817.254	4.88
817.997	1.88
818.74	4.88
819.482	2.88
820.225	4.88
820.967	2.88
821.71	2.88
822.452	2.88
823.194	3.88
823.936	3.88
824.678	2.88
825.42	3.88
826.162	5.88
826.904	1.88
827.646	4.88
828.388	0.88
829.129	3.88
829.871	3.88
830.612	2.88
831.354	3.88
832.095	2.88
832.836	3.88
833.577	2.88
834.319	1.88
835.06	2.88
835.801	1.88
836.542	1.88
837.282	0.88
838.023	2.88
838.764	2.88
839.504	2.88
840.245	1.88
840.985	3.88
841.726	2.88
842.466	0.88
843.206	3.88
843.946	2.88
844.687	1.88
845.427	3.88
846.166	0.88
846.906	1.88
847.646	2.88
848.386	3.88
849.125	-0.12
849.865	-0.12
850.605	1.88
851.344	-0.12
852.083	2.88
852.823	1.88
853.562	2.88
854.301	0.88
855.04	1.88
855.779	1.88
856.518	1.88
857.257	2.88
857.995	1.88
858.734	-0.12
859.473	2.88
860.211	-0.12
860.95	2.88
861.688	-0.12
862.426	1.88
863.165	0.88
863.903	0.88
864.641	-1.12
865.379	-0.12
866.117	0.88
866.855	0.88
867.593	1.88
868.33	-0.12
869.068	1.88
869.806	2.88
870.543	0.88
871.28	2.88
872.018	-0.12
872.755	1.88
873.492	0.88
874.229	2.88
874.967	2.88
875.703	2.88
876.44	0.88
877.177	-1.12
877.914	-0.12
878.651	1.88
879.387	-0.12
880.124	1.88
880.86	0.88
881.597	1.88
882.333	-0.12
883.069	0.88
883.806	-1.12
884.542	0.88
885.278	1.88
886.014	1.88
886.749	-0.12
887.485	-1.12
888.221	1.88
888.957	1.88
889.692	2.88
890.428	-1.12
891.163	-1.12
891.899	-0.12
892.634	-1.12
893.369	0.88
894.104	0.88
894.839	-0.12
895.574	2.88
896.309	-0.12
897.044	3.88
897.779	1.88
898.514	0.88
899.248	-0.12
899.983	0.88
900.717	1.88
901.452	-0.12
902.186	1.88
902.92	-1.12
903.654	0.88
904.389	1.88
905.123	1.88
905.857	0.88
906.59	-0.12
907.324	0.88
908.058	0.88
908.792	0.88
909.525	-1.12
910.259	0.88
910.992	1.88
911.726	0.88
912.459	-0.12
913.192	2.88
913.925	-0.12
914.658	1.88
915.391	-0.12
916.124	1.88
916.857	1.88
917.59	1.88
918.323	-2.12
919.055	1.88
919.788	3.88
920.521	-1.12
921.253	0.88
921.985	0.88
922.718	-2.12
923.45	-1.12
924.182	1.88
924.914	0.88
925.646	0.88
926.378	1.88
927.11	-1.12
927.841	2.88
928.573	1.88
929.305	1.88
930.036	2.88
930.768	-1.12
931.499	1.88
932.23	-1.12
932.962	2.88
933.693	0.88
934.424	2.88
935.155	-1.12
935.886	0.88
936.617	1.88
937.348	-1.12
938.078	0.88
938.809	1.88
939.54	0.88
940.27	-1.12
941.001	-0.12
941.731	-1.12
942.461	1.88
943.191	1.88
943.922	-1.12
944.652	-0.12
945.382	1.88
946.112	1.88
946.841	2.88
947.571	-2.12
948.301	1.88
949.031	-1.12
949.76	-0.12
950.49	2.88
951.219	1.88
951.948	-0.12
952.678	-0.12
953.407	1.88
954.136	1.88
954.865	2.88
955.594	0.88
956.323	2.88
957.052	1.88
957.78	-1.12
958.509	0.88
959.238	2.88
959.966	0.88
960.695	-0.12
961.423	0.88
962.151	1.88
962.88	0.88
963.608	0.88
964.336	1.88
965.064	-1.12
965.792	1.88
966.52	-0.12
967.247	0.88
967.975	0.88
968.703	-0.12
969.43	0.88
970.158	1.88
970.885	0.88
971.613	-0.12
972.34	1.88
973.067	-0.12
973.794	-1.12
974.521	-1.12
975.248	-3.12
975.975	1.88
976.702	0.88
977.429	1.88
978.156	1.88
978.882	0.88
979.609	-0.12
980.335	-1.12
981.062	-0.12
981.788	-0.12
982.514	0.88
983.24	1.88
983.967	-0.12
984.693	-1.12
985.419	0.88
986.144	-1.12
986.87	-0.12
987.596	-0.12
988.322	1.88
989.047	0.88
989.773	1.88
990.498	-0.12
991.224	1.88
991.949	-0.12
992.674	2.88
993.399	-1.12
994.124	1.88
994.849	-0.12
995.574	-1.12
996.299	-0.12
997.024	1.88
997.749	1.88
998.473	0.88
999.198	-2.12
999.922	1.88
1000.647	-0.12
1001.371	2.88
1002.095	-2.12
1002.82	-0.12
1003.544	-1.12
1004.268	1.88
1004.992	-0.12
1005.716	-2.12
1006.439	0.88
1007.163	0.88
1007.887	-0.12
1008.611	1.88
1009.334	0.88
1010.058	-0.12
1010.781	-2.12
1011.504	1.88
1012.228	0.88
1012.951	-1.12
1013.674	2.88
1014.397	-2.12
1015.12	0.88
