节点500_145_QEPB04081__132__11-31-03-600.txt的数据

Date: Wed Nov 12 11:31:03 CST 2025
User: PC
Spectrometer: QEPB0408
触发模式: 0
积分时间 (秒): 1.000000E-2
Scans to average: 1
启用暗噪声校正: true
启用非线性校正: false
滑动平均宽度: 0
X轴模式: Wavelengths
Number of Pixels in Spectrum: 1044
>>>>>Begin Spectral Data<<<<<
220.843	-0.62
221.644	0.38
222.444	0.38
223.244	0.38
224.045	1.38
224.845	2.38
225.645	0.38
226.445	-0.62
227.245	3.38
228.045	-1.62
228.845	2.38
229.645	2.38
230.444	0.38
231.244	0.38
232.043	1.38
232.843	1.38
233.642	-1.62
234.442	-1.62
235.241	3.38
236.04	0.38
236.839	2.38
237.638	-0.62
238.437	1.38
239.236	1.38
240.035	2.38
240.833	-0.62
241.632	2.38
242.43	0.38
243.229	-0.62
244.027	3.38
244.826	2.38
245.624	2.38
246.422	4.38
247.22	1.38
248.018	3.38
248.816	1.38
249.614	3.38
250.412	1.38
251.21	3.38
252.007	2.38
252.805	0.38
253.602	1.38
254.4	0.38
255.197	5.38
255.994	2.38
256.791	1.38
257.589	4.38
258.386	4.38
259.183	3.38
259.979	2.38
260.776	5.38
261.573	3.38
262.37	7.38
263.166	6.38
263.963	6.38
264.759	5.38
265.556	5.38
266.352	6.38
267.148	7.38
267.944	9.38
268.74	7.38
269.536	8.38
270.332	8.38
271.128	6.38
271.924	7.38
272.719	10.38
273.515	8.38
274.311	8.38
275.106	9.38
275.901	10.38
276.697	7.38
277.492	6.38
278.287	10.38
279.082	11.38
279.877	10.38
280.672	10.38
281.467	12.38
282.262	10.38
283.056	9.38
283.851	14.38
284.646	11.38
285.44	11.38
286.234	8.38
287.029	10.38
287.823	11.38
288.617	11.38
289.411	11.38
290.205	12.38
290.999	14.38
291.793	7.38
292.587	11.38
293.381	11.38
294.174	11.38
294.968	11.38
295.761	11.38
296.555	10.38
297.348	10.38
298.141	9.38
298.935	8.38
299.728	11.38
300.521	10.38
301.314	9.38
302.107	10.38
302.899	7.38
303.692	8.38
304.485	8.38
305.277	9.38
306.07	9.38
306.862	7.38
307.655	10.38
308.447	7.38
309.239	5.38
310.031	9.38
310.823	9.38
311.615	9.38
312.407	8.38
313.199	7.38
313.991	5.38
314.783	6.38
315.574	5.38
316.366	6.38
317.157	4.38
317.949	3.38
318.74	6.38
319.531	5.38
320.322	5.38
321.113	4.38
321.904	5.38
322.695	5.38
323.486	5.38
324.277	6.38
325.068	8.38
325.858	2.38
326.649	3.38
327.439	4.38
328.23	4.38
329.02	4.38
329.81	3.38
330.6	2.38
331.391	4.38
332.181	2.38
332.971	2.38
333.76	2.38
334.55	1.38
335.34	4.38
336.13	3.38
336.919	2.38
337.709	3.38
338.498	3.38
339.287	5.38
340.077	3.38
340.866	5.38
341.655	2.38
342.444	2.38
343.233	4.38
344.022	3.38
344.811	3.38
345.6	2.38
346.388	4.38
347.177	3.38
347.965	3.38
348.754	4.38
349.542	2.38
350.33	3.38
351.119	2.38
351.907	5.38
352.695	1.38
353.483	1.38
354.271	5.38
355.059	1.38
355.846	2.38
356.634	4.38
357.422	3.38
358.209	2.38
358.997	3.38
359.784	4.38
360.571	2.38
361.359	1.38
362.146	4.38
362.933	2.38
363.72	4.38
364.507	2.38
365.294	2.38
366.081	0.38
366.867	3.38
367.654	1.38
368.44	4.38
369.227	2.38
370.013	3.38
370.8	3.38
371.586	2.38
372.372	3.38
373.158	1.38
373.944	3.38
374.73	4.38
375.516	4.38
376.302	4.38
377.088	2.38
377.873	1.38
378.659	3.38
379.445	3.38
380.23	2.38
381.015	2.38
381.801	3.38
382.586	2.38
383.371	2.38
384.156	3.38
384.941	2.38
385.726	3.38
386.511	2.38
387.296	4.38
388.08	3.38
388.865	4.38
389.649	2.38
390.434	3.38
391.218	2.38
392.003	1.38
392.787	5.38
393.571	4.38
394.355	4.38
395.139	5.38
395.923	4.38
396.707	3.38
397.491	2.38
398.274	6.38
399.058	4.38
399.842	5.38
400.625	4.38
401.408	5.38
402.192	4.38
402.975	5.38
403.758	6.38
404.541	1.38
405.324	5.38
406.107	5.38
406.89	5.38
407.673	5.38
408.456	4.38
409.238	6.38
410.021	4.38
410.803	3.38
411.586	4.38
412.368	3.38
413.151	7.38
413.933	6.38
414.715	4.38
415.497	5.38
416.279	3.38
417.061	4.38
417.843	5.38
418.624	6.38
419.406	6.38
420.188	4.38
420.969	5.38
421.751	3.38
422.532	7.38
423.313	4.38
424.095	5.38
424.876	7.38
425.657	6.38
426.438	6.38
427.219	4.38
428	8.38
428.78	6.38
429.561	6.38
430.342	7.38
431.122	5.38
431.903	9.38
432.683	8.38
433.464	8.38
434.244	8.38
435.024	9.38
435.804	9.38
436.584	9.38
437.364	9.38
438.144	7.38
438.924	11.38
439.704	12.38
440.483	10.38
441.263	11.38
442.042	13.38
442.822	14.38
443.601	14.38
444.38	16.38
445.16	14.38
445.939	16.38
446.718	16.38
447.497	19.38
448.276	20.38
449.054	19.38
449.833	19.38
450.612	22.38
451.391	25.38
452.169	29.38
452.948	28.38
453.726	32.38
454.504	34.38
455.282	38.38
456.061	43.38
456.839	47.38
457.617	49.38
458.395	58.38
459.172	61.38
459.95	69.38
460.728	79.38
461.506	81.38
462.283	93.38
463.061	109.38
463.838	116.38
464.615	130.38
465.393	145.38
466.17	162.38
466.947	183.38
467.724	202.38
468.501	231.38
469.278	253.38
470.055	282.38
470.831	310.38
471.608	350.38
472.385	400.38
473.161	444.38
473.938	488.38
474.714	545.38
475.49	602.38
476.266	668.38
477.043	745.38
477.819	830.38
478.595	932.38
479.371	1021.38
480.146	1140.38
480.922	1259.38
481.698	1402.38
482.473	1547.38
483.249	1720.38
484.024	1892.38
484.8	2107.38
485.575	2336.38
486.35	2579.38
487.126	2859.38
487.901	3156.38
488.676	3513.38
489.451	3863.38
490.225	4250.38
491	4693.38
491.775	5168.38
492.55	5690.38
493.324	6296.38
494.099	6886.38
494.873	7530.38
495.647	8199.38
496.422	8919.38
497.196	9695.38
497.97	10466.38
498.744	11257.38
499.518	12105.38
500.292	12867.38
501.066	13631.38
501.839	14382.38
502.613	15048.38
503.387	15643.38
504.16	16150.38
504.934	16563.38
505.707	16880.38
506.48	17139.38
507.253	17192.38
508.027	17230.38
508.8	17081.38
509.573	16889.38
510.346	16520.38
511.118	16076.38
511.891	15567.38
512.664	15046.38
513.437	14471.38
514.209	13892.38
514.982	13267.38
515.754	12684.38
516.526	12119.38
517.298	11535.38
518.071	10998.38
518.843	10563.38
519.615	10086.38
520.387	9717.38
521.159	9361.38
521.93	8922.38
522.702	8550.38
523.474	8240.38
524.245	7906.38
525.017	7644.38
525.788	7273.38
526.56	6995.38
527.331	6684.38
528.102	6389.38
528.873	6074.38
529.644	5848.38
530.415	5543.38
531.186	5258.38
531.957	4977.38
532.728	4715.38
533.498	4443.38
534.269	4217.38
535.039	3978.38
535.81	3756.38
536.58	3550.38
537.351	3332.38
538.121	3160.38
538.891	2968.38
539.661	2821.38
540.431	2658.38
541.201	2516.38
541.971	2394.38
542.741	2270.38
543.51	2124.38
544.28	2039.38
545.05	1934.38
545.819	1852.38
546.588	1758.38
547.358	1662.38
548.127	1588.38
548.896	1505.38
549.665	1424.38
550.434	1366.38
551.203	1288.38
551.972	1217.38
552.741	1146.38
553.51	1094.38
554.278	1028.38
555.047	964.38
555.815	922.38
556.584	855.38
557.352	808.38
558.121	755.38
558.889	722.38
559.657	672.38
560.425	643.38
561.193	598.38
561.961	566.38
562.729	541.38
563.496	507.38
564.264	471.38
565.032	450.38
565.799	418.38
566.567	400.38
567.334	378.38
568.101	361.38
568.869	340.38
569.636	316.38
570.403	297.38
571.17	290.38
571.937	271.38
572.704	256.38
573.471	236.38
574.237	224.38
575.004	213.38
575.771	199.38
576.537	189.38
577.303	179.38
578.07	168.38
578.836	154.38
579.602	149.38
580.368	141.38
581.134	134.38
581.9	123.38
582.666	118.38
583.432	115.38
584.198	105.38
584.964	103.38
585.729	95.38
586.495	88.38
587.26	82.38
588.025	81.38
588.791	77.38
589.556	76.38
590.321	66.38
591.086	64.38
591.851	61.38
592.616	55.38
593.381	56.38
594.146	52.38
594.911	55.38
595.675	43.38
596.44	45.38
597.204	43.38
597.969	41.38
598.733	35.38
599.497	39.38
600.261	35.38
601.025	29.38
601.79	33.38
602.553	32.38
603.317	29.38
604.081	30.38
604.845	30.38
605.609	27.38
606.372	24.38
607.136	24.38
607.899	24.38
608.662	23.38
609.426	21.38
610.189	21.38
610.952	19.38
611.715	21.38
612.478	18.38
613.241	15.38
614.004	16.38
614.767	18.38
615.529	15.38
616.292	14.38
617.055	13.38
617.817	14.38
618.579	13.38
619.342	14.38
620.104	14.38
620.866	10.38
621.628	10.38
622.39	13.38
623.152	10.38
623.914	9.38
624.676	9.38
625.438	8.38
626.199	8.38
626.961	8.38
627.722	7.38
628.484	6.38
629.245	7.38
630.006	8.38
630.768	7.38
631.529	6.38
632.29	8.38
633.051	8.38
633.812	7.38
634.573	6.38
635.333	7.38
636.094	6.38
636.855	6.38
637.615	7.38
638.376	6.38
639.136	7.38
639.896	6.38
640.657	4.38
641.417	5.38
642.177	6.38
642.937	3.38
643.697	6.38
644.457	5.38
645.216	1.38
645.976	5.38
646.736	4.38
647.495	4.38
648.255	3.38
649.014	5.38
649.774	2.38
650.533	5.38
651.292	6.38
652.051	6.38
652.81	3.38
653.569	4.38
654.328	5.38
655.087	5.38
655.846	2.38
656.604	3.38
657.363	4.38
658.121	3.38
658.88	2.38
659.638	5.38
660.397	3.38
661.155	3.38
661.913	5.38
662.671	3.38
663.429	3.38
664.187	2.38
664.945	2.38
665.703	4.38
666.46	4.38
667.218	3.38
667.976	2.38
668.733	2.38
669.49	3.38
670.248	4.38
671.005	4.38
671.762	1.38
672.519	2.38
673.276	2.38
674.033	4.38
674.79	5.38
675.547	4.38
676.304	4.38
677.06	2.38
677.817	3.38
678.574	-0.62
679.33	4.38
680.086	0.38
680.843	4.38
681.599	2.38
682.355	3.38
683.111	2.38
683.867	2.38
684.623	3.38
685.379	2.38
686.135	2.38
686.89	0.38
687.646	1.38
688.402	2.38
689.157	2.38
689.912	4.38
690.668	3.38
691.423	-0.62
692.178	0.38
692.933	2.38
693.688	1.38
694.443	1.38
695.198	1.38
695.953	2.38
696.708	3.38
697.462	3.38
698.217	2.38
698.972	5.38
699.726	1.38
700.48	1.38
701.235	2.38
701.989	1.38
702.743	3.38
703.497	3.38
704.251	1.38
705.005	2.38
705.759	4.38
706.513	1.38
707.266	0.38
708.02	0.38
708.774	1.38
709.527	1.38
710.28	2.38
711.034	2.38
711.787	3.38
712.54	3.38
713.293	0.38
714.046	3.38
714.799	2.38
715.552	1.38
716.305	2.38
717.058	2.38
717.81	1.38
718.563	1.38
719.315	0.38
720.068	-0.62
720.82	3.38
721.573	1.38
722.325	1.38
723.077	1.38
723.829	3.38
724.581	3.38
725.333	4.38
726.085	1.38
726.836	2.38
727.588	2.38
728.34	2.38
729.091	1.38
729.843	2.38
730.594	1.38
731.346	2.38
732.097	2.38
732.848	3.38
733.599	3.38
734.35	1.38
735.101	1.38
735.852	3.38
736.603	2.38
737.354	1.38
738.104	5.38
738.855	2.38
739.605	2.38
740.356	3.38
741.106	2.38
741.856	2.38
742.607	1.38
743.357	1.38
744.107	2.38
744.857	4.38
745.607	2.38
746.357	2.38
747.106	5.38
747.856	4.38
748.606	2.38
749.355	1.38
750.105	2.38
750.854	1.38
751.603	3.38
752.353	1.38
753.102	2.38
753.851	4.38
754.6	3.38
755.349	3.38
756.098	4.38
756.847	4.38
757.595	5.38
758.344	3.38
759.093	4.38
759.841	5.38
760.589	2.38
761.338	6.38
762.086	2.38
762.834	4.38
763.582	1.38
764.331	4.38
765.079	4.38
765.826	3.38
766.574	5.38
767.322	3.38
768.07	3.38
768.817	7.38
769.565	5.38
770.312	6.38
771.06	4.38
771.807	6.38
772.554	4.38
773.302	6.38
774.049	4.38
774.796	5.38
775.543	6.38
776.29	3.38
777.036	4.38
777.783	4.38
778.53	5.38
779.276	5.38
780.023	4.38
780.769	5.38
781.516	5.38
782.262	3.38
783.008	3.38
783.754	4.38
784.5	5.38
785.246	4.38
785.992	5.38
786.738	6.38
787.484	3.38
788.23	6.38
788.975	6.38
789.721	6.38
790.466	5.38
791.212	5.38
791.957	5.38
792.702	4.38
793.447	6.38
794.193	6.38
794.938	5.38
795.683	4.38
796.427	6.38
797.172	4.38
797.917	6.38
798.662	4.38
799.406	6.38
800.151	2.38
800.895	7.38
801.64	4.38
802.384	4.38
803.128	6.38
803.872	6.38
804.616	3.38
805.36	3.38
806.104	4.38
806.848	5.38
807.592	5.38
808.336	5.38
809.079	3.38
809.823	4.38
810.566	5.38
811.31	2.38
812.053	6.38
812.796	4.38
813.539	1.38
814.283	4.38
815.026	2.38
815.769	4.38
816.511	3.38
817.254	4.38
817.997	3.38
818.74	4.38
819.482	6.38
820.225	3.38
820.967	1.38
821.71	2.38
822.452	2.38
823.194	5.38
823.936	4.38
824.678	4.38
825.42	2.38
826.162	4.38
826.904	2.38
827.646	4.38
828.388	3.38
829.129	3.38
829.871	4.38
830.612	3.38
831.354	2.38
832.095	2.38
832.836	4.38
833.577	2.38
834.319	2.38
835.06	3.38
835.801	2.38
836.542	3.38
837.282	2.38
838.023	2.38
838.764	4.38
839.504	2.38
840.245	3.38
840.985	3.38
841.726	5.38
842.466	0.38
843.206	2.38
843.946	2.38
844.687	3.38
845.427	2.38
846.166	3.38
846.906	3.38
847.646	2.38
848.386	4.38
849.125	2.38
849.865	3.38
850.605	1.38
851.344	1.38
852.083	4.38
852.823	1.38
853.562	3.38
854.301	2.38
855.04	1.38
855.779	0.38
856.518	1.38
857.257	1.38
857.995	1.38
858.734	2.38
859.473	2.38
860.211	1.38
860.95	1.38
861.688	1.38
862.426	2.38
863.165	0.38
863.903	0.38
864.641	1.38
865.379	2.38
866.117	1.38
866.855	1.38
867.593	0.38
868.33	2.38
869.068	0.38
869.806	2.38
870.543	4.38
871.28	1.38
872.018	1.38
872.755	2.38
873.492	1.38
874.229	3.38
874.967	-0.62
875.703	2.38
876.44	2.38
877.177	2.38
877.914	-1.62
878.651	-0.62
879.387	1.38
880.124	-2.62
880.86	1.38
881.597	-0.62
882.333	-0.62
883.069	0.38
883.806	2.38
884.542	1.38
885.278	-1.62
886.014	0.38
886.749	2.38
887.485	-0.62
888.221	0.38
888.957	0.38
889.692	1.38
890.428	2.38
891.163	0.38
891.899	-2.62
892.634	1.38
893.369	2.38
894.104	2.38
894.839	0.38
895.574	1.38
896.309	0.38
897.044	2.38
897.779	-0.62
898.514	0.38
899.248	0.38
899.983	0.38
900.717	-0.62
901.452	1.38
902.186	1.38
902.92	0.38
903.654	1.38
904.389	0.38
905.123	0.38
905.857	0.38
906.59	0.38
907.324	0.38
908.058	-2.62
908.792	0.38
909.525	-0.62
910.259	1.38
910.992	-1.62
911.726	-0.62
912.459	0.38
913.192	-1.62
913.925	0.38
914.658	1.38
915.391	-2.62
916.124	2.38
916.857	-1.62
917.59	1.38
918.323	-0.62
919.055	0.38
919.788	0.38
920.521	0.38
921.253	-1.62
921.985	2.38
922.718	-0.62
923.45	-1.62
924.182	0.38
924.914	-0.62
925.646	-0.62
926.378	-0.62
927.11	0.38
927.841	2.38
928.573	1.38
929.305	0.38
930.036	0.38
930.768	1.38
931.499	1.38
932.23	1.38
932.962	-0.62
933.693	1.38
934.424	0.38
935.155	-0.62
935.886	0.38
936.617	-0.62
937.348	0.38
938.078	2.38
938.809	0.38
939.54	0.38
940.27	-0.62
941.001	-0.62
941.731	2.38
942.461	0.38
943.191	-0.62
943.922	-0.62
944.652	-0.62
945.382	0.38
946.112	-0.62
946.841	1.38
947.571	-1.62
948.301	1.38
949.031	2.38
949.76	-0.62
950.49	1.38
951.219	-0.62
951.948	4.38
952.678	2.38
953.407	-0.62
954.136	1.38
954.865	1.38
955.594	0.38
956.323	-1.62
957.052	0.38
957.78	1.38
958.509	0.38
959.238	-0.62
959.966	-2.62
960.695	1.38
961.423	-1.62
962.151	1.38
962.88	0.38
963.608	1.38
964.336	1.38
965.064	1.38
965.792	1.38
966.52	-0.62
967.247	0.38
967.975	0.38
968.703	2.38
969.43	1.38
970.158	1.38
970.885	1.38
971.613	0.38
972.34	2.38
973.067	0.38
973.794	-0.62
974.521	0.38
975.248	0.38
975.975	1.38
976.702	-1.62
977.429	0.38
978.156	0.38
978.882	-0.62
979.609	-0.62
980.335	-0.62
981.062	0.38
981.788	1.38
982.514	0.38
983.24	-1.62
983.967	-0.62
984.693	2.38
985.419	-1.62
986.144	3.38
986.87	-2.62
987.596	1.38
988.322	-1.62
989.047	1.38
989.773	1.38
990.498	0.38
991.224	1.38
991.949	-0.62
992.674	0.38
993.399	-0.62
994.124	-2.62
994.849	0.38
995.574	1.38
996.299	1.38
997.024	-0.62
997.749	1.38
998.473	0.38
999.198	1.38
999.922	-0.62
1000.647	-0.62
1001.371	1.38
1002.095	0.38
1002.82	-1.62
1003.544	-1.62
1004.268	0.38
1004.992	-0.62
1005.716	1.38
1006.439	0.38
1007.163	1.38
1007.887	1.38
1008.611	2.38
1009.334	0.38
1010.058	1.38
1010.781	1.38
1011.504	-0.62
1012.228	1.38
1012.951	-0.62
1013.674	0.38
1014.397	1.38
1015.12	0.38
