节点500_145_QEPB04081__430__11-35-49-547.txt的数据

Date: Wed Nov 12 11:35:49 CST 2025
User: PC
Spectrometer: QEPB0408
触发模式: 0
积分时间 (秒): 1.000000E-2
Scans to average: 1
启用暗噪声校正: true
启用非线性校正: false
滑动平均宽度: 0
X轴模式: Wavelengths
Number of Pixels in Spectrum: 1044
>>>>>Begin Spectral Data<<<<<
220.843	0.62
221.644	-1.38
222.444	-1.38
223.244	-1.38
224.045	-1.38
224.845	-3.38
225.645	2.62
226.445	0.62
227.245	0.62
228.045	-2.38
228.845	-0.38
229.645	0.62
230.444	0.62
231.244	0.62
232.043	0.62
232.843	-2.38
233.642	-0.38
234.442	0.62
235.241	0.62
236.04	1.62
236.839	-0.38
237.638	-1.38
238.437	0.62
239.236	-1.38
240.035	1.62
240.833	-1.38
241.632	-0.38
242.43	-0.38
243.229	-0.38
244.027	1.62
244.826	0.62
245.624	0.62
246.422	2.62
247.22	-0.38
248.018	-1.38
248.816	0.62
249.614	2.62
250.412	-0.38
251.21	1.62
252.007	1.62
252.805	2.62
253.602	3.62
254.4	0.62
255.197	2.62
255.994	2.62
256.791	0.62
257.589	4.62
258.386	1.62
259.183	4.62
259.979	2.62
260.776	7.62
261.573	3.62
262.37	4.62
263.166	2.62
263.963	4.62
264.759	4.62
265.556	5.62
266.352	2.62
267.148	5.62
267.944	5.62
268.74	6.62
269.536	4.62
270.332	2.62
271.128	3.62
271.924	8.62
272.719	6.62
273.515	7.62
274.311	6.62
275.106	6.62
275.901	8.62
276.697	9.62
277.492	6.62
278.287	8.62
279.082	9.62
279.877	7.62
280.672	7.62
281.467	7.62
282.262	5.62
283.056	9.62
283.851	11.62
284.646	8.62
285.44	8.62
286.234	6.62
287.029	8.62
287.823	8.62
288.617	10.62
289.411	9.62
290.205	9.62
290.999	9.62
291.793	7.62
292.587	8.62
293.381	8.62
294.174	8.62
294.968	10.62
295.761	8.62
296.555	7.62
297.348	9.62
298.141	10.62
298.935	8.62
299.728	4.62
300.521	8.62
301.314	7.62
302.107	8.62
302.899	6.62
303.692	7.62
304.485	6.62
305.277	8.62
306.07	5.62
306.862	6.62
307.655	7.62
308.447	6.62
309.239	7.62
310.031	5.62
310.823	7.62
311.615	4.62
312.407	6.62
313.199	6.62
313.991	6.62
314.783	4.62
315.574	3.62
316.366	6.62
317.157	4.62
317.949	3.62
318.74	6.62
319.531	2.62
320.322	5.62
321.113	3.62
321.904	5.62
322.695	6.62
323.486	1.62
324.277	5.62
325.068	0.62
325.858	4.62
326.649	1.62
327.439	3.62
328.23	2.62
329.02	2.62
329.81	3.62
330.6	1.62
331.391	5.62
332.181	1.62
332.971	2.62
333.76	2.62
334.55	1.62
335.34	4.62
336.13	3.62
336.919	2.62
337.709	2.62
338.498	1.62
339.287	2.62
340.077	2.62
340.866	2.62
341.655	2.62
342.444	1.62
343.233	2.62
344.022	0.62
344.811	2.62
345.6	4.62
346.388	4.62
347.177	1.62
347.965	3.62
348.754	5.62
349.542	1.62
350.33	1.62
351.119	3.62
351.907	3.62
352.695	0.62
353.483	2.62
354.271	1.62
355.059	4.62
355.846	2.62
356.634	3.62
357.422	3.62
358.209	1.62
358.997	2.62
359.784	3.62
360.571	1.62
361.359	1.62
362.146	1.62
362.933	0.62
363.72	1.62
364.507	0.62
365.294	2.62
366.081	1.62
366.867	2.62
367.654	2.62
368.44	2.62
369.227	1.62
370.013	2.62
370.8	0.62
371.586	1.62
372.372	1.62
373.158	0.62
373.944	-0.38
374.73	0.62
375.516	4.62
376.302	1.62
377.088	0.62
377.873	1.62
378.659	1.62
379.445	2.62
380.23	4.62
381.015	1.62
381.801	3.62
382.586	2.62
383.371	1.62
384.156	2.62
384.941	3.62
385.726	0.62
386.511	1.62
387.296	4.62
388.08	1.62
388.865	0.62
389.649	0.62
390.434	2.62
391.218	2.62
392.003	2.62
392.787	4.62
393.571	1.62
394.355	3.62
395.139	1.62
395.923	2.62
396.707	-0.38
397.491	0.62
398.274	0.62
399.058	1.62
399.842	1.62
400.625	3.62
401.408	3.62
402.192	3.62
402.975	3.62
403.758	2.62
404.541	0.62
405.324	2.62
406.107	3.62
406.89	2.62
407.673	3.62
408.456	1.62
409.238	2.62
410.021	3.62
410.803	3.62
411.586	4.62
412.368	5.62
413.151	2.62
413.933	3.62
414.715	3.62
415.497	3.62
416.279	4.62
417.061	5.62
417.843	4.62
418.624	3.62
419.406	1.62
420.188	7.62
420.969	3.62
421.751	3.62
422.532	5.62
423.313	6.62
424.095	3.62
424.876	3.62
425.657	3.62
426.438	6.62
427.219	4.62
428	7.62
428.78	5.62
429.561	4.62
430.342	5.62
431.122	8.62
431.903	4.62
432.683	8.62
433.464	5.62
434.244	6.62
435.024	10.62
435.804	8.62
436.584	7.62
437.364	9.62
438.144	9.62
438.924	7.62
439.704	10.62
440.483	13.62
441.263	12.62
442.042	15.62
442.822	10.62
443.601	15.62
444.38	13.62
445.16	15.62
445.939	15.62
446.718	16.62
447.497	18.62
448.276	20.62
449.054	21.62
449.833	23.62
450.612	24.62
451.391	25.62
452.169	31.62
452.948	29.62
453.726	36.62
454.504	35.62
455.282	42.62
456.061	48.62
456.839	52.62
457.617	54.62
458.395	61.62
459.172	64.62
459.95	75.62
460.728	83.62
461.506	97.62
462.283	106.62
463.061	121.62
463.838	131.62
464.615	151.62
465.393	162.62
466.17	179.62
466.947	199.62
467.724	224.62
468.501	251.62
469.278	281.62
470.055	309.62
470.831	344.62
471.608	386.62
472.385	427.62
473.161	467.62
473.938	524.62
474.714	574.62
475.49	637.62
476.266	712.62
477.043	790.62
477.819	863.62
478.595	964.62
479.371	1051.62
480.146	1173.62
480.922	1281.62
481.698	1388.62
482.473	1552.62
483.249	1694.62
484.024	1862.62
484.8	2045.62
485.575	2256.62
486.35	2456.62
487.126	2705.62
487.901	2994.62
488.676	3263.62
489.451	3572.62
490.225	3921.62
491	4307.62
491.775	4733.62
492.55	5149.62
493.324	5638.62
494.099	6134.62
494.873	6681.62
495.647	7284.62
496.422	7938.62
497.196	8554.62
497.97	9170.62
498.744	9827.62
499.518	10602.62
500.292	11292.62
501.066	11961.62
501.839	12660.62
502.613	13299.62
503.387	13892.62
504.16	14462.62
504.934	14965.62
505.707	15328.62
506.48	15628.62
507.253	15863.62
508.027	16000.62
508.8	16019.62
509.573	15896.62
510.346	15764.62
511.118	15478.62
511.891	15155.62
512.664	14727.62
513.437	14319.62
514.209	13833.62
514.982	13229.62
515.754	12733.62
516.526	12211.62
517.298	11700.62
518.071	11249.62
518.843	10729.62
519.615	10232.62
520.387	9847.62
521.159	9481.62
521.93	9106.62
522.702	8740.62
523.474	8384.62
524.245	8006.62
525.017	7738.62
525.788	7435.62
526.56	7079.62
527.331	6836.62
528.102	6567.62
528.873	6269.62
529.644	5989.62
530.415	5719.62
531.186	5451.62
531.957	5198.62
532.728	4927.62
533.498	4693.62
534.269	4425.62
535.039	4210.62
535.81	3973.62
536.58	3762.62
537.351	3542.62
538.121	3353.62
538.891	3167.62
539.661	2983.62
540.431	2815.62
541.201	2670.62
541.971	2545.62
542.741	2399.62
543.51	2296.62
544.28	2156.62
545.05	2047.62
545.819	1944.62
546.588	1865.62
547.358	1753.62
548.127	1676.62
548.896	1577.62
549.665	1510.62
550.434	1449.62
551.203	1359.62
551.972	1288.62
552.741	1209.62
553.51	1155.62
554.278	1104.62
555.047	1044.62
555.815	978.62
556.584	920.62
557.352	870.62
558.121	823.62
558.889	778.62
559.657	737.62
560.425	684.62
561.193	650.62
561.961	620.62
562.729	574.62
563.496	547.62
564.264	518.62
565.032	483.62
565.799	461.62
566.567	435.62
567.334	411.62
568.101	394.62
568.869	364.62
569.636	348.62
570.403	324.62
571.17	307.62
571.937	285.62
572.704	277.62
573.471	253.62
574.237	239.62
575.004	230.62
575.771	212.62
576.537	201.62
577.303	189.62
578.07	177.62
578.836	172.62
579.602	158.62
580.368	152.62
581.134	143.62
581.9	133.62
582.666	124.62
583.432	124.62
584.198	115.62
584.964	109.62
585.729	99.62
586.495	93.62
587.26	87.62
588.025	83.62
588.791	82.62
589.556	73.62
590.321	68.62
591.086	70.62
591.851	63.62
592.616	58.62
593.381	56.62
594.146	50.62
594.911	52.62
595.675	46.62
596.44	51.62
597.204	41.62
597.969	43.62
598.733	39.62
599.497	38.62
600.261	34.62
601.025	36.62
601.79	34.62
602.553	31.62
603.317	33.62
604.081	29.62
604.845	28.62
605.609	27.62
606.372	29.62
607.136	25.62
607.899	22.62
608.662	22.62
609.426	18.62
610.189	21.62
610.952	19.62
611.715	18.62
612.478	20.62
613.241	17.62
614.004	16.62
614.767	14.62
615.529	15.62
616.292	16.62
617.055	13.62
617.817	13.62
618.579	11.62
619.342	15.62
620.104	13.62
620.866	10.62
621.628	11.62
622.39	9.62
623.152	10.62
623.914	11.62
624.676	12.62
625.438	10.62
626.199	8.62
626.961	9.62
627.722	6.62
628.484	8.62
629.245	6.62
630.006	6.62
630.768	6.62
631.529	7.62
632.29	7.62
633.051	4.62
633.812	4.62
634.573	6.62
635.333	7.62
636.094	6.62
636.855	7.62
637.615	4.62
638.376	1.62
639.136	6.62
639.896	6.62
640.657	3.62
641.417	5.62
642.177	4.62
642.937	5.62
643.697	6.62
644.457	3.62
645.216	4.62
645.976	3.62
646.736	1.62
647.495	3.62
648.255	5.62
649.014	5.62
649.774	6.62
650.533	5.62
651.292	3.62
652.051	4.62
652.81	1.62
653.569	1.62
654.328	1.62
655.087	2.62
655.846	2.62
656.604	2.62
657.363	4.62
658.121	0.62
658.88	4.62
659.638	0.62
660.397	4.62
661.155	2.62
661.913	1.62
662.671	2.62
663.429	2.62
664.187	1.62
664.945	2.62
665.703	2.62
666.46	3.62
667.218	1.62
667.976	1.62
668.733	0.62
669.49	2.62
670.248	1.62
671.005	2.62
671.762	1.62
672.519	0.62
673.276	0.62
674.033	2.62
674.79	0.62
675.547	1.62
676.304	5.62
677.06	0.62
677.817	3.62
678.574	2.62
679.33	1.62
680.086	1.62
680.843	1.62
681.599	2.62
682.355	0.62
683.111	2.62
683.867	2.62
684.623	1.62
685.379	1.62
686.135	0.62
686.89	0.62
687.646	3.62
688.402	1.62
689.157	2.62
689.912	-0.38
690.668	0.62
691.423	0.62
692.178	1.62
692.933	0.62
693.688	1.62
694.443	-0.38
695.198	2.62
695.953	1.62
696.708	1.62
697.462	0.62
698.217	0.62
698.972	0.62
699.726	1.62
700.48	-0.38
701.235	1.62
701.989	0.62
702.743	1.62
703.497	2.62
704.251	2.62
705.005	0.62
705.759	0.62
706.513	1.62
707.266	1.62
708.02	1.62
708.774	2.62
709.527	4.62
710.28	2.62
711.034	-0.38
711.787	1.62
712.54	-2.38
713.293	3.62
714.046	2.62
714.799	1.62
715.552	0.62
716.305	1.62
717.058	0.62
717.81	0.62
718.563	-0.38
719.315	1.62
720.068	1.62
720.82	-0.38
721.573	0.62
722.325	0.62
723.077	0.62
723.829	1.62
724.581	1.62
725.333	2.62
726.085	0.62
726.836	0.62
727.588	-1.38
728.34	-0.38
729.091	0.62
729.843	-0.38
730.594	0.62
731.346	-0.38
732.097	1.62
732.848	0.62
733.599	-0.38
734.35	0.62
735.101	0.62
735.852	0.62
736.603	2.62
737.354	1.62
738.104	2.62
738.855	1.62
739.605	0.62
740.356	1.62
741.106	1.62
741.856	2.62
742.607	0.62
743.357	2.62
744.107	1.62
744.857	1.62
745.607	2.62
746.357	2.62
747.106	3.62
747.856	1.62
748.606	2.62
749.355	2.62
750.105	1.62
750.854	1.62
751.603	0.62
752.353	1.62
753.102	3.62
753.851	4.62
754.6	0.62
755.349	2.62
756.098	1.62
756.847	2.62
757.595	-0.38
758.344	2.62
759.093	3.62
759.841	2.62
760.589	3.62
761.338	2.62
762.086	2.62
762.834	2.62
763.582	-0.38
764.331	2.62
765.079	2.62
765.826	3.62
766.574	1.62
767.322	4.62
768.07	1.62
768.817	3.62
769.565	3.62
770.312	2.62
771.06	2.62
771.807	2.62
772.554	4.62
773.302	3.62
774.049	1.62
774.796	2.62
775.543	4.62
776.29	4.62
777.036	5.62
777.783	1.62
778.53	2.62
779.276	2.62
780.023	4.62
780.769	2.62
781.516	5.62
782.262	6.62
783.008	2.62
783.754	5.62
784.5	5.62
785.246	3.62
785.992	3.62
786.738	5.62
787.484	3.62
788.23	3.62
788.975	1.62
789.721	5.62
790.466	3.62
791.212	2.62
791.957	4.62
792.702	3.62
793.447	4.62
794.193	3.62
794.938	3.62
795.683	6.62
796.427	4.62
797.172	4.62
797.917	1.62
798.662	4.62
799.406	3.62
800.151	3.62
800.895	3.62
801.64	4.62
802.384	3.62
803.128	4.62
803.872	2.62
804.616	4.62
805.36	4.62
806.104	5.62
806.848	3.62
807.592	4.62
808.336	-2.38
809.079	1.62
809.823	3.62
810.566	1.62
811.31	3.62
812.053	2.62
812.796	1.62
813.539	2.62
814.283	4.62
815.026	3.62
815.769	3.62
816.511	4.62
817.254	-0.38
817.997	2.62
818.74	3.62
819.482	0.62
820.225	4.62
820.967	1.62
821.71	0.62
822.452	3.62
823.194	2.62
823.936	1.62
824.678	0.62
825.42	4.62
826.162	3.62
826.904	3.62
827.646	1.62
828.388	1.62
829.129	4.62
829.871	0.62
830.612	0.62
831.354	3.62
832.095	1.62
832.836	2.62
833.577	0.62
834.319	1.62
835.06	3.62
835.801	2.62
836.542	2.62
837.282	1.62
838.023	0.62
838.764	-0.38
839.504	0.62
840.245	1.62
840.985	3.62
841.726	0.62
842.466	2.62
843.206	0.62
843.946	0.62
844.687	1.62
845.427	1.62
846.166	3.62
846.906	0.62
847.646	-1.38
848.386	0.62
849.125	-0.38
849.865	1.62
850.605	0.62
851.344	1.62
852.083	0.62
852.823	1.62
853.562	1.62
854.301	0.62
855.04	0.62
855.779	-0.38
856.518	0.62
857.257	-0.38
857.995	0.62
858.734	2.62
859.473	2.62
860.211	1.62
860.95	-1.38
861.688	2.62
862.426	1.62
863.165	0.62
863.903	0.62
864.641	2.62
865.379	0.62
866.117	-2.38
866.855	-1.38
867.593	3.62
868.33	-0.38
869.068	0.62
869.806	0.62
870.543	-1.38
871.28	1.62
872.018	1.62
872.755	-0.38
873.492	2.62
874.229	-0.38
874.967	-0.38
875.703	1.62
876.44	-0.38
877.177	-2.38
877.914	0.62
878.651	-1.38
879.387	0.62
880.124	-3.38
880.86	-0.38
881.597	0.62
882.333	-0.38
883.069	0.62
883.806	-1.38
884.542	-1.38
885.278	-0.38
886.014	1.62
886.749	-0.38
887.485	1.62
888.221	-1.38
888.957	-1.38
889.692	-0.38
890.428	-0.38
891.163	0.62
891.899	-0.38
892.634	-0.38
893.369	-1.38
894.104	2.62
894.839	-0.38
895.574	-0.38
896.309	1.62
897.044	-0.38
897.779	-0.38
898.514	-2.38
899.248	0.62
899.983	-1.38
900.717	1.62
901.452	0.62
902.186	-1.38
902.92	-2.38
903.654	0.62
904.389	-0.38
905.123	-0.38
905.857	-0.38
906.59	-0.38
907.324	-0.38
908.058	-0.38
908.792	-0.38
909.525	-0.38
910.259	3.62
910.992	0.62
911.726	0.62
912.459	-0.38
913.192	-0.38
913.925	-1.38
914.658	0.62
915.391	0.62
916.124	-0.38
916.857	1.62
917.59	-2.38
918.323	0.62
919.055	0.62
919.788	-4.38
920.521	0.62
921.253	0.62
921.985	-0.38
922.718	0.62
923.45	0.62
924.182	0.62
924.914	-2.38
925.646	-0.38
926.378	-1.38
927.11	0.62
927.841	-1.38
928.573	-0.38
929.305	-0.38
930.036	-2.38
930.768	-1.38
931.499	-0.38
932.23	-0.38
932.962	-2.38
933.693	1.62
934.424	1.62
935.155	-2.38
935.886	-0.38
936.617	0.62
937.348	-2.38
938.078	-0.38
938.809	0.62
939.54	-0.38
940.27	-0.38
941.001	-1.38
941.731	-0.38
942.461	1.62
943.191	-0.38
943.922	-1.38
944.652	-1.38
945.382	-2.38
946.112	2.62
946.841	-0.38
947.571	0.62
948.301	0.62
949.031	-1.38
949.76	-1.38
950.49	0.62
951.219	-0.38
951.948	-1.38
952.678	-0.38
953.407	-0.38
954.136	-0.38
954.865	1.62
955.594	-1.38
956.323	-1.38
957.052	0.62
957.78	0.62
958.509	-0.38
959.238	-2.38
959.966	-1.38
960.695	-0.38
961.423	0.62
962.151	-0.38
962.88	0.62
963.608	-2.38
964.336	-0.38
965.064	-0.38
965.792	-2.38
966.52	-2.38
967.247	-1.38
967.975	-0.38
968.703	-0.38
969.43	-2.38
970.158	1.62
970.885	-1.38
971.613	-2.38
972.34	-0.38
973.067	1.62
973.794	-2.38
974.521	-2.38
975.248	1.62
975.975	-2.38
976.702	1.62
977.429	0.62
978.156	-1.38
978.882	-0.38
979.609	-0.38
980.335	0.62
981.062	0.62
981.788	-1.38
982.514	-1.38
983.24	-1.38
983.967	0.62
984.693	-0.38
985.419	-0.38
986.144	-1.38
986.87	1.62
987.596	1.62
988.322	-0.38
989.047	0.62
989.773	-1.38
990.498	0.62
991.224	-0.38
991.949	-1.38
992.674	-0.38
993.399	-4.38
994.124	-0.38
994.849	-0.38
995.574	-0.38
996.299	-0.38
997.024	0.62
997.749	-0.38
998.473	-1.38
999.198	-0.38
999.922	0.62
1000.647	-0.38
1001.371	4.62
1002.095	-2.38
1002.82	1.62
1003.544	-2.38
1004.268	-0.38
1004.992	-2.38
1005.716	-2.38
1006.439	-2.38
1007.163	-0.38
1007.887	-1.38
1008.611	-0.38
1009.334	-1.38
1010.058	0.62
1010.781	-1.38
1011.504	-0.38
1012.228	-2.38
1012.951	0.62
1013.674	-0.38
1014.397	-2.38
1015.12	0.62
