节点500_145_QEPB04081__579__11-38-09-382.txt的数据

Date: Wed Nov 12 11:38:09 CST 2025
User: PC
Spectrometer: QEPB0408
触发模式: 0
积分时间 (秒): 1.000000E-2
Scans to average: 1
启用暗噪声校正: true
启用非线性校正: false
滑动平均宽度: 0
X轴模式: Wavelengths
Number of Pixels in Spectrum: 1044
>>>>>Begin Spectral Data<<<<<
220.843	-0.38
221.644	0.62
222.444	-1.38
223.244	-0.38
224.045	-0.38
224.845	0.62
225.645	-0.38
226.445	1.62
227.245	1.62
228.045	1.62
228.845	-0.38
229.645	1.62
230.444	-1.38
231.244	-1.38
232.043	-0.38
232.843	1.62
233.642	-0.38
234.442	0.62
235.241	1.62
236.04	0.62
236.839	2.62
237.638	0.62
238.437	0.62
239.236	2.62
240.035	-1.38
240.833	1.62
241.632	1.62
242.43	0.62
243.229	1.62
244.027	2.62
244.826	3.62
245.624	1.62
246.422	2.62
247.22	0.62
248.018	1.62
248.816	3.62
249.614	2.62
250.412	1.62
251.21	1.62
252.007	2.62
252.805	1.62
253.602	3.62
254.4	3.62
255.197	1.62
255.994	1.62
256.791	3.62
257.589	2.62
258.386	3.62
259.183	2.62
259.979	3.62
260.776	3.62
261.573	1.62
262.37	2.62
263.166	5.62
263.963	4.62
264.759	6.62
265.556	3.62
266.352	5.62
267.148	7.62
267.944	5.62
268.74	5.62
269.536	4.62
270.332	5.62
271.128	6.62
271.924	7.62
272.719	8.62
273.515	5.62
274.311	9.62
275.106	7.62
275.901	10.62
276.697	7.62
277.492	7.62
278.287	8.62
279.082	7.62
279.877	9.62
280.672	9.62
281.467	6.62
282.262	9.62
283.056	9.62
283.851	9.62
284.646	10.62
285.44	8.62
286.234	9.62
287.029	9.62
287.823	8.62
288.617	10.62
289.411	11.62
290.205	7.62
290.999	11.62
291.793	8.62
292.587	9.62
293.381	11.62
294.174	9.62
294.968	9.62
295.761	11.62
296.555	10.62
297.348	9.62
298.141	8.62
298.935	10.62
299.728	9.62
300.521	9.62
301.314	7.62
302.107	8.62
302.899	7.62
303.692	9.62
304.485	9.62
305.277	7.62
306.07	10.62
306.862	8.62
307.655	7.62
308.447	9.62
309.239	9.62
310.031	7.62
310.823	6.62
311.615	6.62
312.407	6.62
313.199	6.62
313.991	5.62
314.783	7.62
315.574	5.62
316.366	6.62
317.157	4.62
317.949	4.62
318.74	7.62
319.531	1.62
320.322	5.62
321.113	5.62
321.904	5.62
322.695	6.62
323.486	4.62
324.277	3.62
325.068	1.62
325.858	3.62
326.649	5.62
327.439	5.62
328.23	6.62
329.02	3.62
329.81	4.62
330.6	4.62
331.391	4.62
332.181	2.62
332.971	1.62
333.76	6.62
334.55	4.62
335.34	4.62
336.13	2.62
336.919	3.62
337.709	2.62
338.498	1.62
339.287	3.62
340.077	1.62
340.866	2.62
341.655	4.62
342.444	2.62
343.233	2.62
344.022	2.62
344.811	4.62
345.6	2.62
346.388	5.62
347.177	5.62
347.965	2.62
348.754	3.62
349.542	2.62
350.33	2.62
351.119	3.62
351.907	4.62
352.695	5.62
353.483	3.62
354.271	4.62
355.059	2.62
355.846	4.62
356.634	2.62
357.422	1.62
358.209	4.62
358.997	3.62
359.784	4.62
360.571	1.62
361.359	3.62
362.146	5.62
362.933	2.62
363.72	3.62
364.507	3.62
365.294	4.62
366.081	-0.38
366.867	2.62
367.654	1.62
368.44	3.62
369.227	0.62
370.013	2.62
370.8	5.62
371.586	2.62
372.372	2.62
373.158	3.62
373.944	4.62
374.73	3.62
375.516	1.62
376.302	2.62
377.088	2.62
377.873	3.62
378.659	1.62
379.445	1.62
380.23	2.62
381.015	2.62
381.801	2.62
382.586	2.62
383.371	2.62
384.156	3.62
384.941	2.62
385.726	5.62
386.511	2.62
387.296	3.62
388.08	2.62
388.865	4.62
389.649	2.62
390.434	2.62
391.218	4.62
392.003	2.62
392.787	2.62
393.571	3.62
394.355	5.62
395.139	-1.38
395.923	2.62
396.707	2.62
397.491	2.62
398.274	4.62
399.058	4.62
399.842	4.62
400.625	2.62
401.408	2.62
402.192	1.62
402.975	3.62
403.758	5.62
404.541	2.62
405.324	4.62
406.107	3.62
406.89	2.62
407.673	4.62
408.456	2.62
409.238	3.62
410.021	2.62
410.803	5.62
411.586	4.62
412.368	3.62
413.151	3.62
413.933	2.62
414.715	5.62
415.497	3.62
416.279	5.62
417.061	3.62
417.843	4.62
418.624	6.62
419.406	3.62
420.188	6.62
420.969	5.62
421.751	7.62
422.532	3.62
423.313	6.62
424.095	7.62
424.876	2.62
425.657	7.62
426.438	6.62
427.219	3.62
428	7.62
428.78	4.62
429.561	7.62
430.342	6.62
431.122	9.62
431.903	7.62
432.683	6.62
433.464	8.62
434.244	6.62
435.024	7.62
435.804	9.62
436.584	10.62
437.364	11.62
438.144	12.62
438.924	10.62
439.704	7.62
440.483	10.62
441.263	12.62
442.042	11.62
442.822	17.62
443.601	13.62
444.38	15.62
445.16	19.62
445.939	17.62
446.718	18.62
447.497	21.62
448.276	21.62
449.054	24.62
449.833	26.62
450.612	25.62
451.391	28.62
452.169	29.62
452.948	35.62
453.726	36.62
454.504	41.62
455.282	43.62
456.061	50.62
456.839	57.62
457.617	58.62
458.395	63.62
459.172	74.62
459.95	81.62
460.728	89.62
461.506	100.62
462.283	113.62
463.061	124.62
463.838	144.62
464.615	154.62
465.393	171.62
466.17	189.62
466.947	212.62
467.724	236.62
468.501	261.62
469.278	291.62
470.055	319.62
470.831	363.62
471.608	393.62
472.385	442.62
473.161	485.62
473.938	535.62
474.714	590.62
475.49	653.62
476.266	720.62
477.043	794.62
477.819	874.62
478.595	973.62
479.371	1046.62
480.146	1169.62
480.922	1283.62
481.698	1388.62
482.473	1551.62
483.249	1667.62
484.024	1842.62
484.8	2027.62
485.575	2200.62
486.35	2415.62
487.126	2681.62
487.901	2915.62
488.676	3173.62
489.451	3514.62
490.225	3804.62
491	4137.62
491.775	4521.62
492.55	4935.62
493.324	5389.62
494.099	5877.62
494.873	6365.62
495.647	6929.62
496.422	7497.62
497.196	8079.62
497.97	8746.62
498.744	9366.62
499.518	10016.62
500.292	10700.62
501.066	11370.62
501.839	12003.62
502.613	12576.62
503.387	13207.62
504.16	13746.62
504.934	14248.62
505.707	14633.62
506.48	14929.62
507.253	15231.62
508.027	15370.62
508.8	15443.62
509.573	15448.62
510.346	15312.62
511.118	15116.62
511.891	14893.62
512.664	14488.62
513.437	14107.62
514.209	13701.62
514.982	13240.62
515.754	12694.62
516.526	12205.62
517.298	11727.62
518.071	11261.62
518.843	10747.62
519.615	10326.62
520.387	9850.62
521.159	9479.62
521.93	9104.62
522.702	8755.62
523.474	8428.62
524.245	8093.62
525.017	7770.62
525.788	7471.62
526.56	7146.62
527.331	6851.62
528.102	6601.62
528.873	6315.62
529.644	6022.62
530.415	5795.62
531.186	5531.62
531.957	5248.62
532.728	4995.62
533.498	4730.62
534.269	4498.62
535.039	4259.62
535.81	4016.62
536.58	3801.62
537.351	3570.62
538.121	3387.62
538.891	3259.62
539.661	3048.62
540.431	2888.62
541.201	2729.62
541.971	2573.62
542.741	2445.62
543.51	2310.62
544.28	2218.62
545.05	2085.62
545.819	1982.62
546.588	1887.62
547.358	1807.62
548.127	1711.62
548.896	1628.62
549.665	1550.62
550.434	1467.62
551.203	1387.62
551.972	1329.62
552.741	1254.62
553.51	1187.62
554.278	1136.62
555.047	1061.62
555.815	1001.62
556.584	944.62
557.352	895.62
558.121	847.62
558.889	805.62
559.657	751.62
560.425	706.62
561.193	670.62
561.961	631.62
562.729	596.62
563.496	559.62
564.264	533.62
565.032	510.62
565.799	478.62
566.567	441.62
567.334	420.62
568.101	393.62
568.869	372.62
569.636	350.62
570.403	330.62
571.17	314.62
571.937	295.62
572.704	292.62
573.471	264.62
574.237	245.62
575.004	237.62
575.771	217.62
576.537	207.62
577.303	198.62
578.07	184.62
578.836	174.62
579.602	164.62
580.368	159.62
581.134	146.62
581.9	138.62
582.666	127.62
583.432	124.62
584.198	116.62
584.964	110.62
585.729	107.62
586.495	100.62
587.26	93.62
588.025	93.62
588.791	83.62
589.556	78.62
590.321	78.62
591.086	69.62
591.851	66.62
592.616	69.62
593.381	63.62
594.146	56.62
594.911	51.62
595.675	51.62
596.44	49.62
597.204	46.62
597.969	47.62
598.733	45.62
599.497	40.62
600.261	39.62
601.025	35.62
601.79	37.62
602.553	36.62
603.317	31.62
604.081	29.62
604.845	29.62
605.609	30.62
606.372	26.62
607.136	25.62
607.899	24.62
608.662	25.62
609.426	22.62
610.189	22.62
610.952	19.62
611.715	19.62
612.478	19.62
613.241	16.62
614.004	19.62
614.767	16.62
615.529	15.62
616.292	16.62
617.055	15.62
617.817	14.62
618.579	14.62
619.342	14.62
620.104	11.62
620.866	10.62
621.628	11.62
622.39	12.62
623.152	12.62
623.914	11.62
624.676	11.62
625.438	10.62
626.199	12.62
626.961	8.62
627.722	9.62
628.484	8.62
629.245	9.62
630.006	5.62
630.768	9.62
631.529	7.62
632.29	7.62
633.051	5.62
633.812	6.62
634.573	9.62
635.333	9.62
636.094	6.62
636.855	5.62
637.615	4.62
638.376	7.62
639.136	8.62
639.896	3.62
640.657	5.62
641.417	5.62
642.177	5.62
642.937	5.62
643.697	5.62
644.457	2.62
645.216	3.62
645.976	3.62
646.736	2.62
647.495	4.62
648.255	6.62
649.014	5.62
649.774	2.62
650.533	6.62
651.292	3.62
652.051	5.62
652.81	1.62
653.569	5.62
654.328	2.62
655.087	5.62
655.846	2.62
656.604	4.62
657.363	4.62
658.121	2.62
658.88	1.62
659.638	4.62
660.397	5.62
661.155	3.62
661.913	1.62
662.671	4.62
663.429	1.62
664.187	3.62
664.945	5.62
665.703	2.62
666.46	3.62
667.218	4.62
667.976	2.62
668.733	2.62
669.49	1.62
670.248	2.62
671.005	2.62
671.762	2.62
672.519	1.62
673.276	5.62
674.033	1.62
674.79	1.62
675.547	1.62
676.304	0.62
677.06	3.62
677.817	2.62
678.574	1.62
679.33	2.62
680.086	2.62
680.843	3.62
681.599	1.62
682.355	1.62
683.111	0.62
683.867	2.62
684.623	1.62
685.379	1.62
686.135	2.62
686.89	2.62
687.646	1.62
688.402	2.62
689.157	2.62
689.912	1.62
690.668	0.62
691.423	3.62
692.178	2.62
692.933	2.62
693.688	3.62
694.443	3.62
695.198	1.62
695.953	2.62
696.708	4.62
697.462	4.62
698.217	1.62
698.972	2.62
699.726	2.62
700.48	1.62
701.235	1.62
701.989	3.62
702.743	1.62
703.497	3.62
704.251	0.62
705.005	3.62
705.759	1.62
706.513	3.62
707.266	1.62
708.02	3.62
708.774	3.62
709.527	1.62
710.28	2.62
711.034	1.62
711.787	3.62
712.54	1.62
713.293	1.62
714.046	0.62
714.799	3.62
715.552	3.62
716.305	2.62
717.058	0.62
717.81	0.62
718.563	1.62
719.315	1.62
720.068	1.62
720.82	3.62
721.573	0.62
722.325	1.62
723.077	4.62
723.829	0.62
724.581	1.62
725.333	-0.38
726.085	3.62
726.836	1.62
727.588	2.62
728.34	2.62
729.091	1.62
729.843	3.62
730.594	2.62
731.346	2.62
732.097	2.62
732.848	1.62
733.599	2.62
734.35	2.62
735.101	4.62
735.852	1.62
736.603	2.62
737.354	1.62
738.104	2.62
738.855	3.62
739.605	3.62
740.356	2.62
741.106	2.62
741.856	3.62
742.607	1.62
743.357	3.62
744.107	5.62
744.857	3.62
745.607	1.62
746.357	1.62
747.106	2.62
747.856	4.62
748.606	1.62
749.355	2.62
750.105	1.62
750.854	1.62
751.603	2.62
752.353	3.62
753.102	2.62
753.851	2.62
754.6	1.62
755.349	0.62
756.098	3.62
756.847	3.62
757.595	3.62
758.344	4.62
759.093	2.62
759.841	2.62
760.589	1.62
761.338	4.62
762.086	2.62
762.834	3.62
763.582	3.62
764.331	2.62
765.079	4.62
765.826	3.62
766.574	5.62
767.322	3.62
768.07	3.62
768.817	4.62
769.565	3.62
770.312	4.62
771.06	2.62
771.807	3.62
772.554	5.62
773.302	3.62
774.049	4.62
774.796	5.62
775.543	4.62
776.29	4.62
777.036	3.62
777.783	4.62
778.53	5.62
779.276	5.62
780.023	2.62
780.769	2.62
781.516	5.62
782.262	4.62
783.008	6.62
783.754	4.62
784.5	5.62
785.246	5.62
785.992	4.62
786.738	3.62
787.484	4.62
788.23	3.62
788.975	6.62
789.721	4.62
790.466	3.62
791.212	4.62
791.957	4.62
792.702	6.62
793.447	5.62
794.193	6.62
794.938	4.62
795.683	4.62
796.427	4.62
797.172	3.62
797.917	5.62
798.662	5.62
799.406	2.62
800.151	5.62
800.895	5.62
801.64	8.62
802.384	2.62
803.128	2.62
803.872	5.62
804.616	4.62
805.36	5.62
806.104	3.62
806.848	5.62
807.592	4.62
808.336	5.62
809.079	2.62
809.823	1.62
810.566	3.62
811.31	4.62
812.053	4.62
812.796	3.62
813.539	1.62
814.283	3.62
815.026	2.62
815.769	4.62
816.511	2.62
817.254	2.62
817.997	1.62
818.74	0.62
819.482	5.62
820.225	3.62
820.967	3.62
821.71	1.62
822.452	3.62
823.194	3.62
823.936	1.62
824.678	3.62
825.42	4.62
826.162	3.62
826.904	3.62
827.646	2.62
828.388	2.62
829.129	4.62
829.871	2.62
830.612	3.62
831.354	1.62
832.095	5.62
832.836	3.62
833.577	1.62
834.319	2.62
835.06	5.62
835.801	5.62
836.542	0.62
837.282	1.62
838.023	2.62
838.764	2.62
839.504	1.62
840.245	0.62
840.985	1.62
841.726	1.62
842.466	3.62
843.206	3.62
843.946	0.62
844.687	2.62
845.427	1.62
846.166	3.62
846.906	2.62
847.646	1.62
848.386	3.62
849.125	2.62
849.865	2.62
850.605	3.62
851.344	1.62
852.083	2.62
852.823	2.62
853.562	2.62
854.301	3.62
855.04	1.62
855.779	1.62
856.518	0.62
857.257	3.62
857.995	1.62
858.734	1.62
859.473	2.62
860.211	-0.38
860.95	1.62
861.688	0.62
862.426	1.62
863.165	2.62
863.903	2.62
864.641	1.62
865.379	-1.38
866.117	2.62
866.855	0.62
867.593	2.62
868.33	1.62
869.068	0.62
869.806	-1.38
870.543	1.62
871.28	1.62
872.018	-1.38
872.755	0.62
873.492	-0.38
874.229	0.62
874.967	2.62
875.703	0.62
876.44	0.62
877.177	0.62
877.914	1.62
878.651	0.62
879.387	0.62
880.124	0.62
880.86	0.62
881.597	-1.38
882.333	1.62
883.069	2.62
883.806	0.62
884.542	-0.38
885.278	-1.38
886.014	1.62
886.749	1.62
887.485	0.62
888.221	-1.38
888.957	0.62
889.692	1.62
890.428	1.62
891.163	1.62
891.899	1.62
892.634	1.62
893.369	0.62
894.104	-0.38
894.839	-0.38
895.574	0.62
896.309	1.62
897.044	2.62
897.779	1.62
898.514	0.62
899.248	2.62
899.983	0.62
900.717	-0.38
901.452	0.62
902.186	0.62
902.92	1.62
903.654	0.62
904.389	-0.38
905.123	-1.38
905.857	3.62
906.59	-1.38
907.324	1.62
908.058	-0.38
908.792	-1.38
909.525	1.62
910.259	0.62
910.992	1.62
911.726	-0.38
912.459	1.62
913.192	0.62
913.925	2.62
914.658	0.62
915.391	-1.38
916.124	0.62
916.857	-0.38
917.59	1.62
918.323	0.62
919.055	1.62
919.788	2.62
920.521	0.62
921.253	-1.38
921.985	-1.38
922.718	2.62
923.45	0.62
924.182	-0.38
924.914	1.62
925.646	-0.38
926.378	1.62
927.11	0.62
927.841	-0.38
928.573	1.62
929.305	0.62
930.036	-1.38
930.768	-1.38
931.499	2.62
932.23	-0.38
932.962	-1.38
933.693	1.62
934.424	-0.38
935.155	1.62
935.886	-1.38
936.617	1.62
937.348	1.62
938.078	-0.38
938.809	-1.38
939.54	-1.38
940.27	0.62
941.001	0.62
941.731	1.62
942.461	0.62
943.191	-0.38
943.922	0.62
944.652	-1.38
945.382	0.62
946.112	-0.38
946.841	1.62
947.571	-0.38
948.301	-1.38
949.031	0.62
949.76	1.62
950.49	-1.38
951.219	-0.38
951.948	1.62
952.678	-0.38
953.407	0.62
954.136	3.62
954.865	0.62
955.594	-0.38
956.323	2.62
957.052	1.62
957.78	-1.38
958.509	-0.38
959.238	-0.38
959.966	-1.38
960.695	-1.38
961.423	1.62
962.151	-0.38
962.88	-0.38
963.608	1.62
964.336	0.62
965.064	0.62
965.792	-0.38
966.52	-2.38
967.247	2.62
967.975	1.62
968.703	0.62
969.43	-0.38
970.158	-1.38
970.885	0.62
971.613	-1.38
972.34	0.62
973.067	1.62
973.794	0.62
974.521	-0.38
975.248	-0.38
975.975	1.62
976.702	0.62
977.429	0.62
978.156	0.62
978.882	-1.38
979.609	-0.38
980.335	0.62
981.062	-2.38
981.788	2.62
982.514	2.62
983.24	0.62
983.967	2.62
984.693	0.62
985.419	-0.38
986.144	1.62
986.87	-2.38
987.596	1.62
988.322	1.62
989.047	1.62
989.773	0.62
990.498	1.62
991.224	-1.38
991.949	-0.38
992.674	2.62
993.399	-0.38
994.124	2.62
994.849	0.62
995.574	-0.38
996.299	-0.38
997.024	0.62
997.749	1.62
998.473	1.62
999.198	0.62
999.922	-1.38
1000.647	-0.38
1001.371	4.62
1002.095	-0.38
1002.82	-2.38
1003.544	-1.38
1004.268	0.62
1004.992	-1.38
1005.716	1.62
1006.439	-0.38
1007.163	-0.38
1007.887	0.62
1008.611	2.62
1009.334	1.62
1010.058	0.62
1010.781	1.62
1011.504	-1.38
1012.228	0.62
1012.951	0.62
1013.674	1.62
1014.397	-2.38
1015.12	-0.38
