节点500_145_QEPB04081__142__11-31-12-624.txt的数据

Date: Wed Nov 12 11:31:12 CST 2025
User: PC
Spectrometer: QEPB0408
触发模式: 0
积分时间 (秒): 1.000000E-2
Scans to average: 1
启用暗噪声校正: true
启用非线性校正: false
滑动平均宽度: 0
X轴模式: Wavelengths
Number of Pixels in Spectrum: 1044
>>>>>Begin Spectral Data<<<<<
220.843	0.12
221.644	0.12
222.444	3.12
223.244	-1.88
224.045	-1.88
224.845	2.12
225.645	1.12
226.445	0.12
227.245	-0.88
228.045	0.12
228.845	2.12
229.645	-1.88
230.444	-0.88
231.244	1.12
232.043	2.12
232.843	-0.88
233.642	0.12
234.442	0.12
235.241	0.12
236.04	1.12
236.839	1.12
237.638	2.12
238.437	0.12
239.236	1.12
240.035	3.12
240.833	1.12
241.632	2.12
242.43	1.12
243.229	0.12
244.027	3.12
244.826	2.12
245.624	1.12
246.422	3.12
247.22	0.12
248.018	3.12
248.816	2.12
249.614	3.12
250.412	-0.88
251.21	3.12
252.007	3.12
252.805	3.12
253.602	1.12
254.4	2.12
255.197	2.12
255.994	4.12
256.791	2.12
257.589	4.12
258.386	4.12
259.183	3.12
259.979	3.12
260.776	6.12
261.573	4.12
262.37	3.12
263.166	3.12
263.963	5.12
264.759	5.12
265.556	8.12
266.352	5.12
267.148	7.12
267.944	6.12
268.74	3.12
269.536	6.12
270.332	10.12
271.128	5.12
271.924	8.12
272.719	8.12
273.515	10.12
274.311	10.12
275.106	7.12
275.901	7.12
276.697	9.12
277.492	12.12
278.287	8.12
279.082	11.12
279.877	10.12
280.672	7.12
281.467	11.12
282.262	10.12
283.056	9.12
283.851	11.12
284.646	12.12
285.44	10.12
286.234	9.12
287.029	10.12
287.823	14.12
288.617	11.12
289.411	8.12
290.205	10.12
290.999	12.12
291.793	9.12
292.587	11.12
293.381	9.12
294.174	9.12
294.968	11.12
295.761	11.12
296.555	10.12
297.348	9.12
298.141	9.12
298.935	8.12
299.728	9.12
300.521	8.12
301.314	9.12
302.107	7.12
302.899	6.12
303.692	7.12
304.485	7.12
305.277	8.12
306.07	6.12
306.862	8.12
307.655	8.12
308.447	7.12
309.239	7.12
310.031	7.12
310.823	6.12
311.615	7.12
312.407	4.12
313.199	7.12
313.991	8.12
314.783	4.12
315.574	5.12
316.366	7.12
317.157	5.12
317.949	5.12
318.74	6.12
319.531	5.12
320.322	5.12
321.113	2.12
321.904	4.12
322.695	6.12
323.486	4.12
324.277	7.12
325.068	2.12
325.858	5.12
326.649	1.12
327.439	5.12
328.23	4.12
329.02	3.12
329.81	3.12
330.6	0.12
331.391	4.12
332.181	2.12
332.971	1.12
333.76	3.12
334.55	2.12
335.34	3.12
336.13	4.12
336.919	4.12
337.709	3.12
338.498	2.12
339.287	3.12
340.077	4.12
340.866	3.12
341.655	3.12
342.444	3.12
343.233	3.12
344.022	3.12
344.811	5.12
345.6	3.12
346.388	1.12
347.177	2.12
347.965	3.12
348.754	2.12
349.542	4.12
350.33	0.12
351.119	3.12
351.907	1.12
352.695	2.12
353.483	2.12
354.271	3.12
355.059	4.12
355.846	2.12
356.634	3.12
357.422	4.12
358.209	2.12
358.997	1.12
359.784	4.12
360.571	3.12
361.359	3.12
362.146	2.12
362.933	5.12
363.72	2.12
364.507	0.12
365.294	1.12
366.081	1.12
366.867	2.12
367.654	1.12
368.44	2.12
369.227	3.12
370.013	7.12
370.8	1.12
371.586	2.12
372.372	3.12
373.158	2.12
373.944	4.12
374.73	0.12
375.516	4.12
376.302	4.12
377.088	2.12
377.873	4.12
378.659	1.12
379.445	4.12
380.23	3.12
381.015	2.12
381.801	1.12
382.586	5.12
383.371	5.12
384.156	3.12
384.941	3.12
385.726	1.12
386.511	1.12
387.296	3.12
388.08	2.12
388.865	2.12
389.649	1.12
390.434	4.12
391.218	2.12
392.003	1.12
392.787	2.12
393.571	5.12
394.355	1.12
395.139	6.12
395.923	4.12
396.707	2.12
397.491	2.12
398.274	4.12
399.058	2.12
399.842	6.12
400.625	4.12
401.408	4.12
402.192	3.12
402.975	3.12
403.758	2.12
404.541	5.12
405.324	5.12
406.107	4.12
406.89	4.12
407.673	5.12
408.456	3.12
409.238	3.12
410.021	5.12
410.803	3.12
411.586	4.12
412.368	5.12
413.151	2.12
413.933	4.12
414.715	6.12
415.497	6.12
416.279	8.12
417.061	4.12
417.843	5.12
418.624	5.12
419.406	5.12
420.188	4.12
420.969	3.12
421.751	8.12
422.532	3.12
423.313	7.12
424.095	7.12
424.876	3.12
425.657	4.12
426.438	6.12
427.219	5.12
428	6.12
428.78	8.12
429.561	6.12
430.342	5.12
431.122	7.12
431.903	6.12
432.683	9.12
433.464	5.12
434.244	8.12
435.024	10.12
435.804	10.12
436.584	9.12
437.364	9.12
438.144	10.12
438.924	13.12
439.704	9.12
440.483	12.12
441.263	12.12
442.042	13.12
442.822	13.12
443.601	15.12
444.38	15.12
445.16	14.12
445.939	17.12
446.718	18.12
447.497	18.12
448.276	20.12
449.054	23.12
449.833	24.12
450.612	22.12
451.391	24.12
452.169	26.12
452.948	29.12
453.726	31.12
454.504	33.12
455.282	34.12
456.061	44.12
456.839	46.12
457.617	51.12
458.395	59.12
459.172	61.12
459.95	70.12
460.728	79.12
461.506	89.12
462.283	95.12
463.061	107.12
463.838	122.12
464.615	130.12
465.393	143.12
466.17	169.12
466.947	187.12
467.724	201.12
468.501	225.12
469.278	256.12
470.055	285.12
470.831	315.12
471.608	349.12
472.385	401.12
473.161	445.12
473.938	493.12
474.714	549.12
475.49	603.12
476.266	681.12
477.043	760.12
477.819	838.12
478.595	934.12
479.371	1035.12
480.146	1149.12
480.922	1253.12
481.698	1402.12
482.473	1548.12
483.249	1725.12
484.024	1903.12
484.8	2100.12
485.575	2333.12
486.35	2585.12
487.126	2852.12
487.901	3177.12
488.676	3481.12
489.451	3843.12
490.225	4259.12
491	4705.12
491.775	5172.12
492.55	5662.12
493.324	6236.12
494.099	6857.12
494.873	7494.12
495.647	8165.12
496.422	8899.12
497.196	9635.12
497.97	10467.12
498.744	11208.12
499.518	12010.12
500.292	12821.12
501.066	13545.12
501.839	14315.12
502.613	14932.12
503.387	15574.12
504.16	16100.12
504.934	16613.12
505.707	16922.12
506.48	17096.12
507.253	17174.12
508.027	17198.12
508.8	17042.12
509.573	16858.12
510.346	16458.12
511.118	16020.12
511.891	15528.12
512.664	15048.12
513.437	14486.12
514.209	13869.12
514.982	13301.12
515.754	12667.12
516.526	12120.12
517.298	11573.12
518.071	11047.12
518.843	10551.12
519.615	10134.12
520.387	9696.12
521.159	9330.12
521.93	8916.12
522.702	8567.12
523.474	8219.12
524.245	7939.12
525.017	7632.12
525.788	7307.12
526.56	7008.12
527.331	6710.12
528.102	6411.12
528.873	6085.12
529.644	5845.12
530.415	5531.12
531.186	5276.12
531.957	4982.12
532.728	4715.12
533.498	4478.12
534.269	4216.12
535.039	3970.12
535.81	3757.12
536.58	3549.12
537.351	3341.12
538.121	3178.12
538.891	2998.12
539.661	2818.12
540.431	2676.12
541.201	2513.12
541.971	2382.12
542.741	2261.12
543.51	2163.12
544.28	2048.12
545.05	1937.12
545.819	1850.12
546.588	1756.12
547.358	1664.12
548.127	1581.12
548.896	1511.12
549.665	1428.12
550.434	1345.12
551.203	1292.12
551.972	1214.12
552.741	1148.12
553.51	1082.12
554.278	1040.12
555.047	971.12
555.815	912.12
556.584	863.12
557.352	804.12
558.121	764.12
558.889	722.12
559.657	680.12
560.425	648.12
561.193	596.12
561.961	573.12
562.729	536.12
563.496	498.12
564.264	469.12
565.032	450.12
565.799	429.12
566.567	410.12
567.334	375.12
568.101	360.12
568.869	339.12
569.636	323.12
570.403	299.12
571.17	281.12
571.937	264.12
572.704	252.12
573.471	233.12
574.237	228.12
575.004	215.12
575.771	195.12
576.537	190.12
577.303	180.12
578.07	166.12
578.836	154.12
579.602	148.12
580.368	141.12
581.134	129.12
581.9	127.12
582.666	118.12
583.432	111.12
584.198	107.12
584.964	98.12
585.729	92.12
586.495	88.12
587.26	85.12
588.025	78.12
588.791	75.12
589.556	73.12
590.321	69.12
591.086	61.12
591.851	59.12
592.616	55.12
593.381	55.12
594.146	50.12
594.911	49.12
595.675	50.12
596.44	45.12
597.204	44.12
597.969	42.12
598.733	38.12
599.497	35.12
600.261	37.12
601.025	31.12
601.79	34.12
602.553	29.12
603.317	29.12
604.081	30.12
604.845	28.12
605.609	25.12
606.372	25.12
607.136	24.12
607.899	22.12
608.662	23.12
609.426	21.12
610.189	20.12
610.952	21.12
611.715	17.12
612.478	17.12
613.241	20.12
614.004	16.12
614.767	14.12
615.529	14.12
616.292	16.12
617.055	16.12
617.817	16.12
618.579	13.12
619.342	10.12
620.104	13.12
620.866	12.12
621.628	11.12
622.39	12.12
623.152	9.12
623.914	9.12
624.676	9.12
625.438	10.12
626.199	10.12
626.961	12.12
627.722	9.12
628.484	7.12
629.245	7.12
630.006	7.12
630.768	7.12
631.529	7.12
632.29	5.12
633.051	7.12
633.812	6.12
634.573	7.12
635.333	7.12
636.094	8.12
636.855	5.12
637.615	4.12
638.376	5.12
639.136	4.12
639.896	4.12
640.657	4.12
641.417	5.12
642.177	4.12
642.937	4.12
643.697	6.12
644.457	5.12
645.216	5.12
645.976	5.12
646.736	3.12
647.495	2.12
648.255	5.12
649.014	4.12
649.774	-0.88
650.533	6.12
651.292	4.12
652.051	4.12
652.81	5.12
653.569	3.12
654.328	5.12
655.087	4.12
655.846	3.12
656.604	4.12
657.363	3.12
658.121	3.12
658.88	5.12
659.638	1.12
660.397	2.12
661.155	3.12
661.913	2.12
662.671	1.12
663.429	2.12
664.187	2.12
664.945	0.12
665.703	2.12
666.46	5.12
667.218	1.12
667.976	3.12
668.733	4.12
669.49	2.12
670.248	2.12
671.005	2.12
671.762	3.12
672.519	2.12
673.276	3.12
674.033	3.12
674.79	2.12
675.547	2.12
676.304	1.12
677.06	4.12
677.817	3.12
678.574	2.12
679.33	2.12
680.086	3.12
680.843	3.12
681.599	3.12
682.355	3.12
683.111	5.12
683.867	3.12
684.623	1.12
685.379	2.12
686.135	1.12
686.89	1.12
687.646	0.12
688.402	2.12
689.157	2.12
689.912	-1.88
690.668	1.12
691.423	2.12
692.178	1.12
692.933	1.12
693.688	1.12
694.443	1.12
695.198	2.12
695.953	1.12
696.708	2.12
697.462	2.12
698.217	1.12
698.972	1.12
699.726	0.12
700.48	4.12
701.235	1.12
701.989	0.12
702.743	2.12
703.497	2.12
704.251	4.12
705.005	0.12
705.759	2.12
706.513	-0.88
707.266	3.12
708.02	3.12
708.774	2.12
709.527	2.12
710.28	2.12
711.034	2.12
711.787	0.12
712.54	1.12
713.293	2.12
714.046	1.12
714.799	1.12
715.552	1.12
716.305	3.12
717.058	1.12
717.81	1.12
718.563	1.12
719.315	1.12
720.068	3.12
720.82	3.12
721.573	4.12
722.325	2.12
723.077	2.12
723.829	1.12
724.581	3.12
725.333	3.12
726.085	1.12
726.836	2.12
727.588	1.12
728.34	1.12
729.091	1.12
729.843	1.12
730.594	2.12
731.346	0.12
732.097	3.12
732.848	0.12
733.599	2.12
734.35	1.12
735.101	0.12
735.852	4.12
736.603	2.12
737.354	1.12
738.104	1.12
738.855	4.12
739.605	1.12
740.356	3.12
741.106	1.12
741.856	2.12
742.607	3.12
743.357	4.12
744.107	3.12
744.857	2.12
745.607	0.12
746.357	4.12
747.106	4.12
747.856	3.12
748.606	1.12
749.355	4.12
750.105	3.12
750.854	3.12
751.603	4.12
752.353	3.12
753.102	3.12
753.851	2.12
754.6	2.12
755.349	1.12
756.098	2.12
756.847	3.12
757.595	1.12
758.344	3.12
759.093	2.12
759.841	5.12
760.589	1.12
761.338	4.12
762.086	2.12
762.834	3.12
763.582	5.12
764.331	3.12
765.079	3.12
765.826	3.12
766.574	5.12
767.322	4.12
768.07	4.12
768.817	4.12
769.565	3.12
770.312	4.12
771.06	4.12
771.807	4.12
772.554	5.12
773.302	3.12
774.049	5.12
774.796	4.12
775.543	4.12
776.29	3.12
777.036	4.12
777.783	6.12
778.53	3.12
779.276	8.12
780.023	5.12
780.769	7.12
781.516	6.12
782.262	5.12
783.008	8.12
783.754	2.12
784.5	6.12
785.246	6.12
785.992	5.12
786.738	6.12
787.484	3.12
788.23	5.12
788.975	5.12
789.721	5.12
790.466	4.12
791.212	2.12
791.957	6.12
792.702	5.12
793.447	5.12
794.193	5.12
794.938	5.12
795.683	5.12
796.427	6.12
797.172	4.12
797.917	4.12
798.662	4.12
799.406	2.12
800.151	4.12
800.895	5.12
801.64	5.12
802.384	5.12
803.128	4.12
803.872	5.12
804.616	5.12
805.36	4.12
806.104	5.12
806.848	2.12
807.592	6.12
808.336	4.12
809.079	6.12
809.823	4.12
810.566	4.12
811.31	5.12
812.053	3.12
812.796	5.12
813.539	3.12
814.283	5.12
815.026	2.12
815.769	1.12
816.511	5.12
817.254	2.12
817.997	2.12
818.74	1.12
819.482	4.12
820.225	4.12
820.967	1.12
821.71	1.12
822.452	1.12
823.194	3.12
823.936	3.12
824.678	2.12
825.42	3.12
826.162	2.12
826.904	4.12
827.646	-0.88
828.388	3.12
829.129	2.12
829.871	3.12
830.612	-1.88
831.354	1.12
832.095	4.12
832.836	3.12
833.577	2.12
834.319	2.12
835.06	3.12
835.801	2.12
836.542	1.12
837.282	2.12
838.023	1.12
838.764	2.12
839.504	2.12
840.245	3.12
840.985	3.12
841.726	1.12
842.466	2.12
843.206	3.12
843.946	1.12
844.687	2.12
845.427	1.12
846.166	4.12
846.906	2.12
847.646	3.12
848.386	2.12
849.125	0.12
849.865	0.12
850.605	0.12
851.344	3.12
852.083	1.12
852.823	2.12
853.562	3.12
854.301	2.12
855.04	2.12
855.779	2.12
856.518	3.12
857.257	0.12
857.995	0.12
858.734	2.12
859.473	1.12
860.211	5.12
860.95	1.12
861.688	3.12
862.426	0.12
863.165	2.12
863.903	1.12
864.641	0.12
865.379	2.12
866.117	2.12
866.855	2.12
867.593	0.12
868.33	2.12
869.068	1.12
869.806	2.12
870.543	3.12
871.28	1.12
872.018	0.12
872.755	-0.88
873.492	2.12
874.229	1.12
874.967	0.12
875.703	2.12
876.44	-0.88
877.177	1.12
877.914	0.12
878.651	1.12
879.387	0.12
880.124	1.12
880.86	2.12
881.597	-0.88
882.333	1.12
883.069	0.12
883.806	0.12
884.542	1.12
885.278	-0.88
886.014	2.12
886.749	1.12
887.485	2.12
888.221	0.12
888.957	0.12
889.692	1.12
890.428	1.12
891.163	-0.88
891.899	0.12
892.634	-0.88
893.369	1.12
894.104	2.12
894.839	2.12
895.574	1.12
896.309	2.12
897.044	-1.88
897.779	1.12
898.514	0.12
899.248	0.12
899.983	0.12
900.717	0.12
901.452	1.12
902.186	-0.88
902.92	-0.88
903.654	0.12
904.389	1.12
905.123	-0.88
905.857	1.12
906.59	2.12
907.324	-0.88
908.058	1.12
908.792	0.12
909.525	0.12
910.259	2.12
910.992	-0.88
911.726	0.12
912.459	-0.88
913.192	1.12
913.925	1.12
914.658	0.12
915.391	1.12
916.124	0.12
916.857	1.12
917.59	0.12
918.323	2.12
919.055	0.12
919.788	0.12
920.521	1.12
921.253	2.12
921.985	0.12
922.718	0.12
923.45	-0.88
924.182	-1.88
924.914	2.12
925.646	1.12
926.378	0.12
927.11	-1.88
927.841	-0.88
928.573	0.12
929.305	2.12
930.036	-0.88
930.768	0.12
931.499	1.12
932.23	-1.88
932.962	0.12
933.693	2.12
934.424	1.12
935.155	0.12
935.886	2.12
936.617	0.12
937.348	0.12
938.078	1.12
938.809	3.12
939.54	-1.88
940.27	0.12
941.001	2.12
941.731	-1.88
942.461	1.12
943.191	1.12
943.922	-0.88
944.652	0.12
945.382	1.12
946.112	1.12
946.841	0.12
947.571	1.12
948.301	-0.88
949.031	0.12
949.76	2.12
950.49	-2.88
951.219	0.12
951.948	-2.88
952.678	-1.88
953.407	0.12
954.136	0.12
954.865	1.12
955.594	-1.88
956.323	2.12
957.052	0.12
957.78	0.12
958.509	1.12
959.238	1.12
959.966	1.12
960.695	-0.88
961.423	-0.88
962.151	-0.88
962.88	-1.88
963.608	2.12
964.336	-0.88
965.064	2.12
965.792	0.12
966.52	-1.88
967.247	-0.88
967.975	-1.88
968.703	-0.88
969.43	-2.88
970.158	1.12
970.885	0.12
971.613	1.12
972.34	0.12
973.067	0.12
973.794	2.12
974.521	-0.88
975.248	0.12
975.975	1.12
976.702	-0.88
977.429	0.12
978.156	1.12
978.882	1.12
979.609	-1.88
980.335	3.12
981.062	-0.88
981.788	-1.88
982.514	1.12
983.24	-1.88
983.967	2.12
984.693	-1.88
985.419	-0.88
986.144	-0.88
986.87	0.12
987.596	1.12
988.322	0.12
989.047	0.12
989.773	0.12
990.498	1.12
991.224	2.12
991.949	-0.88
992.674	1.12
993.399	0.12
994.124	-1.88
994.849	0.12
995.574	1.12
996.299	-1.88
997.024	-1.88
997.749	1.12
998.473	-1.88
999.198	0.12
999.922	-1.88
1000.647	-1.88
1001.371	3.12
1002.095	0.12
1002.82	-1.88
1003.544	-1.88
1004.268	-0.88
1004.992	-0.88
1005.716	-1.88
1006.439	-0.88
1007.163	0.12
1007.887	0.12
1008.611	2.12
1009.334	5.12
1010.058	-1.88
1010.781	-0.88
1011.504	3.12
1012.228	-1.88
1012.951	0.12
1013.674	0.12
1014.397	0.12
1015.12	0.12
