节点500_145_QEPB04081__332__11-34-15-542.txt的数据

Date: Wed Nov 12 11:34:15 CST 2025
User: PC
Spectrometer: QEPB0408
触发模式: 0
积分时间 (秒): 1.000000E-2
Scans to average: 1
启用暗噪声校正: true
启用非线性校正: false
滑动平均宽度: 0
X轴模式: Wavelengths
Number of Pixels in Spectrum: 1044
>>>>>Begin Spectral Data<<<<<
220.843	1
221.644	0
222.444	-2
223.244	-2
224.045	-1
224.845	1
225.645	0
226.445	-1
227.245	1
228.045	1
228.845	1
229.645	-1
230.444	-1
231.244	0
232.043	-1
232.843	1
233.642	0
234.442	0
235.241	2
236.04	1
236.839	0
237.638	0
238.437	0
239.236	5
240.035	1
240.833	-1
241.632	0
242.43	2
243.229	-1
244.027	2
244.826	1
245.624	2
246.422	2
247.22	3
248.018	1
248.816	4
249.614	3
250.412	5
251.21	3
252.007	2
252.805	4
253.602	3
254.4	2
255.197	1
255.994	2
256.791	5
257.589	3
258.386	5
259.183	3
259.979	4
260.776	4
261.573	4
262.37	4
263.166	4
263.963	3
264.759	4
265.556	7
266.352	3
267.148	6
267.944	5
268.74	5
269.536	8
270.332	6
271.128	7
271.924	4
272.719	7
273.515	9
274.311	7
275.106	7
275.901	9
276.697	9
277.492	9
278.287	10
279.082	9
279.877	8
280.672	11
281.467	11
282.262	10
283.056	12
283.851	8
284.646	11
285.44	9
286.234	8
287.029	11
287.823	10
288.617	11
289.411	10
290.205	11
290.999	10
291.793	10
292.587	12
293.381	8
294.174	9
294.968	12
295.761	10
296.555	9
297.348	9
298.141	8
298.935	12
299.728	7
300.521	8
301.314	9
302.107	6
302.899	10
303.692	8
304.485	8
305.277	9
306.07	7
306.862	8
307.655	8
308.447	6
309.239	9
310.031	8
310.823	5
311.615	5
312.407	8
313.199	6
313.991	7
314.783	5
315.574	7
316.366	6
317.157	3
317.949	6
318.74	4
319.531	6
320.322	4
321.113	5
321.904	5
322.695	2
323.486	7
324.277	5
325.068	4
325.858	4
326.649	3
327.439	3
328.23	6
329.02	2
329.81	2
330.6	3
331.391	3
332.181	4
332.971	7
333.76	4
334.55	1
335.34	5
336.13	5
336.919	4
337.709	2
338.498	3
339.287	4
340.077	3
340.866	3
341.655	4
342.444	4
343.233	0
344.022	4
344.811	3
345.6	2
346.388	5
347.177	5
347.965	5
348.754	2
349.542	5
350.33	3
351.119	4
351.907	5
352.695	2
353.483	4
354.271	2
355.059	4
355.846	2
356.634	2
357.422	2
358.209	4
358.997	3
359.784	2
360.571	8
361.359	1
362.146	3
362.933	3
363.72	1
364.507	2
365.294	3
366.081	2
366.867	2
367.654	3
368.44	2
369.227	-1
370.013	5
370.8	1
371.586	0
372.372	2
373.158	3
373.944	3
374.73	3
375.516	1
376.302	2
377.088	4
377.873	3
378.659	3
379.445	1
380.23	3
381.015	3
381.801	2
382.586	1
383.371	2
384.156	3
384.941	3
385.726	1
386.511	6
387.296	3
388.08	2
388.865	1
389.649	2
390.434	4
391.218	1
392.003	4
392.787	1
393.571	3
394.355	4
395.139	3
395.923	3
396.707	3
397.491	1
398.274	2
399.058	5
399.842	5
400.625	5
401.408	5
402.192	3
402.975	3
403.758	5
404.541	7
405.324	5
406.107	1
406.89	5
407.673	4
408.456	3
409.238	5
410.021	5
410.803	4
411.586	5
412.368	5
413.151	5
413.933	5
414.715	7
415.497	5
416.279	4
417.061	5
417.843	4
418.624	2
419.406	4
420.188	6
420.969	7
421.751	5
422.532	2
423.313	7
424.095	5
424.876	7
425.657	5
426.438	8
427.219	5
428	6
428.78	6
429.561	7
430.342	9
431.122	7
431.903	7
432.683	9
433.464	7
434.244	8
435.024	9
435.804	7
436.584	9
437.364	10
438.144	9
438.924	12
439.704	9
440.483	11
441.263	11
442.042	14
442.822	13
443.601	16
444.38	13
445.16	18
445.939	16
446.718	21
447.497	19
448.276	19
449.054	21
449.833	21
450.612	24
451.391	27
452.169	29
452.948	32
453.726	35
454.504	37
455.282	43
456.061	46
456.839	45
457.617	57
458.395	61
459.172	67
459.95	79
460.728	84
461.506	90
462.283	102
463.061	117
463.838	129
464.615	138
465.393	160
466.17	171
466.947	200
467.724	216
468.501	245
469.278	266
470.055	299
470.831	337
471.608	373
472.385	419
473.161	469
473.938	511
474.714	556
475.49	632
476.266	703
477.043	778
477.819	847
478.595	953
479.371	1033
480.146	1159
480.922	1273
481.698	1411
482.473	1564
483.249	1702
484.024	1890
484.8	2055
485.575	2283
486.35	2502
487.126	2779
487.901	3034
488.676	3312
489.451	3680
490.225	3999
491	4445
491.775	4857
492.55	5331
493.324	5815
494.099	6373
494.873	6937
495.647	7578
496.422	8217
497.196	8890
497.97	9605
498.744	10336
499.518	11086
500.292	11772
501.066	12534
501.839	13206
502.613	13828
503.387	14457
504.16	15028
504.934	15463
505.707	15856
506.48	16138
507.253	16327
508.027	16419
508.8	16378
509.573	16243
510.346	15991
511.118	15697
511.891	15295
512.664	14835
513.437	14358
514.209	13828
514.982	13264
515.754	12723
516.526	12203
517.298	11664
518.071	11115
518.843	10644
519.615	10228
520.387	9787
521.159	9420
521.93	8972
522.702	8667
523.474	8310
524.245	7987
525.017	7671
525.788	7372
526.56	7073
527.331	6779
528.102	6479
528.873	6230
529.644	5915
530.415	5639
531.186	5360
531.957	5106
532.728	4825
533.498	4589
534.269	4344
535.039	4133
535.81	3896
536.58	3668
537.351	3488
538.121	3245
538.891	3098
539.661	2913
540.431	2754
541.201	2625
541.971	2473
542.741	2330
543.51	2214
544.28	2126
545.05	2014
545.819	1920
546.588	1822
547.358	1717
548.127	1635
548.896	1547
549.665	1481
550.434	1399
551.203	1336
551.972	1262
552.741	1197
553.51	1120
554.278	1070
555.047	1008
555.815	949
556.584	908
557.352	852
558.121	797
558.889	750
559.657	708
560.425	664
561.193	634
561.961	601
562.729	561
563.496	535
564.264	499
565.032	467
565.799	446
566.567	420
567.334	397
568.101	376
568.869	358
569.636	339
570.403	321
571.17	289
571.937	276
572.704	262
573.471	251
574.237	237
575.004	219
575.771	210
576.537	194
577.303	183
578.07	175
578.836	164
579.602	159
580.368	146
581.134	141
581.9	137
582.666	126
583.432	121
584.198	112
584.964	108
585.729	101
586.495	91
587.26	89
588.025	85
588.791	81
589.556	74
590.321	75
591.086	67
591.851	67
592.616	61
593.381	58
594.146	56
594.911	50
595.675	52
596.44	45
597.204	46
597.969	42
598.733	39
599.497	38
600.261	35
601.025	34
601.79	32
602.553	32
603.317	30
604.081	30
604.845	30
605.609	29
606.372	27
607.136	25
607.899	24
608.662	21
609.426	21
610.189	23
610.952	19
611.715	18
612.478	19
613.241	17
614.004	17
614.767	15
615.529	18
616.292	13
617.055	17
617.817	14
618.579	14
619.342	13
620.104	9
620.866	13
621.628	11
622.39	10
623.152	12
623.914	10
624.676	9
625.438	11
626.199	8
626.961	8
627.722	10
628.484	7
629.245	8
630.006	10
630.768	7
631.529	7
632.29	6
633.051	6
633.812	5
634.573	8
635.333	7
636.094	7
636.855	7
637.615	6
638.376	5
639.136	6
639.896	6
640.657	6
641.417	1
642.177	6
642.937	4
643.697	7
644.457	3
645.216	3
645.976	4
646.736	5
647.495	5
648.255	6
649.014	3
649.774	5
650.533	4
651.292	1
652.051	4
652.81	4
653.569	2
654.328	5
655.087	3
655.846	6
656.604	4
657.363	2
658.121	4
658.88	4
659.638	4
660.397	3
661.155	1
661.913	4
662.671	1
663.429	4
664.187	3
664.945	1
665.703	2
666.46	2
667.218	4
667.976	2
668.733	3
669.49	3
670.248	2
671.005	5
671.762	2
672.519	2
673.276	3
674.033	2
674.79	2
675.547	1
676.304	2
677.06	3
677.817	3
678.574	2
679.33	2
680.086	1
680.843	3
681.599	2
682.355	2
683.111	2
683.867	0
684.623	1
685.379	3
686.135	2
686.89	1
687.646	0
688.402	1
689.157	-1
689.912	4
690.668	3
691.423	2
692.178	2
692.933	2
693.688	3
694.443	4
695.198	3
695.953	2
696.708	1
697.462	1
698.217	2
698.972	2
699.726	1
700.48	2
701.235	2
701.989	2
702.743	2
703.497	2
704.251	2
705.005	0
705.759	2
706.513	4
707.266	2
708.02	2
708.774	1
709.527	3
710.28	0
711.034	3
711.787	2
712.54	2
713.293	2
714.046	1
714.799	0
715.552	1
716.305	2
717.058	1
717.81	4
718.563	2
719.315	2
720.068	3
720.82	2
721.573	2
722.325	2
723.077	2
723.829	0
724.581	-1
725.333	2
726.085	0
726.836	3
727.588	1
728.34	3
729.091	2
729.843	1
730.594	3
731.346	2
732.097	2
732.848	2
733.599	3
734.35	2
735.101	-1
735.852	2
736.603	0
737.354	3
738.104	1
738.855	2
739.605	2
740.356	3
741.106	5
741.856	0
742.607	1
743.357	2
744.107	2
744.857	1
745.607	2
746.357	2
747.106	1
747.856	4
748.606	4
749.355	2
750.105	2
750.854	4
751.603	1
752.353	3
753.102	3
753.851	2
754.6	3
755.349	3
756.098	4
756.847	3
757.595	2
758.344	2
759.093	3
759.841	2
760.589	6
761.338	3
762.086	5
762.834	4
763.582	1
764.331	4
765.079	3
765.826	5
766.574	2
767.322	4
768.07	4
768.817	2
769.565	4
770.312	1
771.06	4
771.807	5
772.554	4
773.302	5
774.049	3
774.796	5
775.543	4
776.29	6
777.036	3
777.783	6
778.53	5
779.276	2
780.023	6
780.769	3
781.516	4
782.262	5
783.008	5
783.754	3
784.5	4
785.246	5
785.992	5
786.738	7
787.484	6
788.23	4
788.975	6
789.721	3
790.466	6
791.212	5
791.957	5
792.702	6
793.447	5
794.193	5
794.938	5
795.683	5
796.427	3
797.172	4
797.917	4
798.662	5
799.406	5
800.151	4
800.895	5
801.64	5
802.384	2
803.128	2
803.872	4
804.616	5
805.36	2
806.104	4
806.848	2
807.592	6
808.336	5
809.079	4
809.823	1
810.566	1
811.31	4
812.053	5
812.796	5
813.539	4
814.283	1
815.026	2
815.769	2
816.511	3
817.254	3
817.997	3
818.74	2
819.482	3
820.225	4
820.967	2
821.71	4
822.452	2
823.194	4
823.936	2
824.678	2
825.42	2
826.162	4
826.904	4
827.646	3
828.388	5
829.129	2
829.871	0
830.612	2
831.354	3
832.095	3
832.836	5
833.577	4
834.319	1
835.06	2
835.801	3
836.542	2
837.282	3
838.023	2
838.764	4
839.504	0
840.245	0
840.985	1
841.726	1
842.466	2
843.206	3
843.946	2
844.687	2
845.427	-1
846.166	3
846.906	1
847.646	3
848.386	2
849.125	1
849.865	1
850.605	3
851.344	2
852.083	2
852.823	0
853.562	1
854.301	0
855.04	1
855.779	-1
856.518	1
857.257	1
857.995	2
858.734	1
859.473	2
860.211	3
860.95	2
861.688	2
862.426	0
863.165	1
863.903	2
864.641	1
865.379	0
866.117	0
866.855	2
867.593	1
868.33	3
869.068	1
869.806	1
870.543	0
871.28	1
872.018	2
872.755	2
873.492	2
874.229	1
874.967	1
875.703	2
876.44	2
877.177	1
877.914	2
878.651	1
879.387	1
880.124	1
880.86	2
881.597	-2
882.333	0
883.069	1
883.806	0
884.542	0
885.278	1
886.014	0
886.749	-1
887.485	3
888.221	0
888.957	2
889.692	1
890.428	-1
891.163	0
891.899	1
892.634	0
893.369	-2
894.104	-1
894.839	0
895.574	-1
896.309	1
897.044	-1
897.779	1
898.514	1
899.248	0
899.983	1
900.717	0
901.452	1
902.186	1
902.92	0
903.654	1
904.389	1
905.123	0
905.857	-1
906.59	0
907.324	-2
908.058	2
908.792	-1
909.525	0
910.259	2
910.992	-1
911.726	0
912.459	2
913.192	0
913.925	0
914.658	-1
915.391	2
916.124	-1
916.857	-1
917.59	1
918.323	1
919.055	0
919.788	0
920.521	-1
921.253	1
921.985	3
922.718	0
923.45	1
924.182	1
924.914	0
925.646	-1
926.378	0
927.11	1
927.841	2
928.573	-1
929.305	0
930.036	1
930.768	-1
931.499	1
932.23	1
932.962	-1
933.693	0
934.424	0
935.155	3
935.886	-2
936.617	0
937.348	1
938.078	-1
938.809	0
939.54	1
940.27	0
941.001	1
941.731	-3
942.461	0
943.191	-1
943.922	1
944.652	-1
945.382	-2
946.112	0
946.841	0
947.571	-1
948.301	-3
949.031	-1
949.76	1
950.49	-2
951.219	-2
951.948	-1
952.678	1
953.407	-1
954.136	0
954.865	2
955.594	0
956.323	2
957.052	-2
957.78	1
958.509	1
959.238	1
959.966	1
960.695	0
961.423	3
962.151	1
962.88	1
963.608	-1
964.336	0
965.064	0
965.792	-1
966.52	0
967.247	-3
967.975	2
968.703	0
969.43	-1
970.158	-1
970.885	-2
971.613	2
972.34	-2
973.067	-2
973.794	-2
974.521	2
975.248	0
975.975	-2
976.702	1
977.429	-1
978.156	1
978.882	-1
979.609	-1
980.335	0
981.062	-1
981.788	3
982.514	-2
983.24	-1
983.967	-1
984.693	-2
985.419	-2
986.144	1
986.87	2
987.596	-2
988.322	0
989.047	0
989.773	1
990.498	1
991.224	0
991.949	1
992.674	-2
993.399	-1
994.124	1
994.849	-1
995.574	1
996.299	1
997.024	0
997.749	-1
998.473	1
999.198	1
999.922	1
1000.647	1
1001.371	3
1002.095	-1
1002.82	-1
1003.544	-1
1004.268	-1
1004.992	-3
1005.716	1
1006.439	-2
1007.163	1
1007.887	-1
1008.611	2
1009.334	1
1010.058	2
1010.781	1
1011.504	1
1012.228	0
1012.951	0
1013.674	1
1014.397	1
1015.12	-2
