节点500_145_QEPB04081__514__11-37-07-534.txt的数据

Date: Wed Nov 12 11:37:07 CST 2025
User: PC
Spectrometer: QEPB0408
触发模式: 0
积分时间 (秒): 1.000000E-2
Scans to average: 1
启用暗噪声校正: true
启用非线性校正: false
滑动平均宽度: 0
X轴模式: Wavelengths
Number of Pixels in Spectrum: 1044
>>>>>Begin Spectral Data<<<<<
220.843	-0.62
221.644	-1.62
222.444	0.38
223.244	-0.62
224.045	-1.62
224.845	0.38
225.645	1.38
226.445	-0.62
227.245	0.38
228.045	2.38
228.845	-0.62
229.645	-0.62
230.444	0.38
231.244	-1.62
232.043	2.38
232.843	-0.62
233.642	2.38
234.442	1.38
235.241	-0.62
236.04	2.38
236.839	0.38
237.638	1.38
238.437	-0.62
239.236	1.38
240.035	1.38
240.833	0.38
241.632	2.38
242.43	1.38
243.229	2.38
244.027	-0.62
244.826	0.38
245.624	1.38
246.422	1.38
247.22	3.38
248.018	3.38
248.816	3.38
249.614	2.38
250.412	2.38
251.21	0.38
252.007	1.38
252.805	3.38
253.602	2.38
254.4	1.38
255.197	3.38
255.994	3.38
256.791	3.38
257.589	3.38
258.386	4.38
259.183	2.38
259.979	3.38
260.776	3.38
261.573	5.38
262.37	4.38
263.166	5.38
263.963	7.38
264.759	7.38
265.556	4.38
266.352	4.38
267.148	6.38
267.944	5.38
268.74	5.38
269.536	7.38
270.332	5.38
271.128	7.38
271.924	9.38
272.719	8.38
273.515	7.38
274.311	4.38
275.106	10.38
275.901	9.38
276.697	8.38
277.492	8.38
278.287	8.38
279.082	10.38
279.877	10.38
280.672	13.38
281.467	7.38
282.262	6.38
283.056	10.38
283.851	9.38
284.646	9.38
285.44	9.38
286.234	12.38
287.029	11.38
287.823	9.38
288.617	9.38
289.411	9.38
290.205	10.38
290.999	9.38
291.793	10.38
292.587	11.38
293.381	11.38
294.174	11.38
294.968	10.38
295.761	8.38
296.555	8.38
297.348	10.38
298.141	7.38
298.935	11.38
299.728	9.38
300.521	10.38
301.314	7.38
302.107	10.38
302.899	9.38
303.692	9.38
304.485	6.38
305.277	10.38
306.07	9.38
306.862	8.38
307.655	7.38
308.447	7.38
309.239	7.38
310.031	10.38
310.823	11.38
311.615	8.38
312.407	7.38
313.199	6.38
313.991	6.38
314.783	6.38
315.574	3.38
316.366	6.38
317.157	5.38
317.949	6.38
318.74	3.38
319.531	3.38
320.322	4.38
321.113	5.38
321.904	3.38
322.695	2.38
323.486	6.38
324.277	4.38
325.068	5.38
325.858	4.38
326.649	5.38
327.439	4.38
328.23	2.38
329.02	4.38
329.81	4.38
330.6	3.38
331.391	3.38
332.181	3.38
332.971	6.38
333.76	1.38
334.55	3.38
335.34	2.38
336.13	2.38
336.919	5.38
337.709	5.38
338.498	2.38
339.287	5.38
340.077	5.38
340.866	3.38
341.655	1.38
342.444	2.38
343.233	4.38
344.022	5.38
344.811	4.38
345.6	2.38
346.388	3.38
347.177	2.38
347.965	1.38
348.754	2.38
349.542	3.38
350.33	2.38
351.119	5.38
351.907	3.38
352.695	3.38
353.483	4.38
354.271	2.38
355.059	3.38
355.846	3.38
356.634	3.38
357.422	2.38
358.209	1.38
358.997	2.38
359.784	1.38
360.571	5.38
361.359	2.38
362.146	1.38
362.933	2.38
363.72	4.38
364.507	3.38
365.294	1.38
366.081	3.38
366.867	2.38
367.654	1.38
368.44	1.38
369.227	3.38
370.013	2.38
370.8	2.38
371.586	3.38
372.372	2.38
373.158	2.38
373.944	0.38
374.73	0.38
375.516	2.38
376.302	3.38
377.088	0.38
377.873	2.38
378.659	1.38
379.445	2.38
380.23	0.38
381.015	2.38
381.801	2.38
382.586	4.38
383.371	1.38
384.156	0.38
384.941	1.38
385.726	3.38
386.511	3.38
387.296	1.38
388.08	3.38
388.865	5.38
389.649	1.38
390.434	2.38
391.218	3.38
392.003	4.38
392.787	4.38
393.571	1.38
394.355	1.38
395.139	3.38
395.923	3.38
396.707	1.38
397.491	3.38
398.274	3.38
399.058	3.38
399.842	2.38
400.625	2.38
401.408	5.38
402.192	6.38
402.975	5.38
403.758	3.38
404.541	4.38
405.324	6.38
406.107	2.38
406.89	5.38
407.673	2.38
408.456	8.38
409.238	3.38
410.021	4.38
410.803	5.38
411.586	2.38
412.368	4.38
413.151	4.38
413.933	3.38
414.715	3.38
415.497	4.38
416.279	3.38
417.061	6.38
417.843	6.38
418.624	4.38
419.406	7.38
420.188	5.38
420.969	5.38
421.751	6.38
422.532	5.38
423.313	3.38
424.095	5.38
424.876	5.38
425.657	7.38
426.438	7.38
427.219	6.38
428	6.38
428.78	5.38
429.561	7.38
430.342	7.38
431.122	7.38
431.903	5.38
432.683	6.38
433.464	7.38
434.244	9.38
435.024	7.38
435.804	7.38
436.584	7.38
437.364	11.38
438.144	13.38
438.924	9.38
439.704	11.38
440.483	12.38
441.263	12.38
442.042	14.38
442.822	12.38
443.601	13.38
444.38	14.38
445.16	15.38
445.939	18.38
446.718	17.38
447.497	18.38
448.276	21.38
449.054	23.38
449.833	25.38
450.612	25.38
451.391	28.38
452.169	31.38
452.948	34.38
453.726	36.38
454.504	37.38
455.282	41.38
456.061	50.38
456.839	54.38
457.617	54.38
458.395	63.38
459.172	74.38
459.95	79.38
460.728	85.38
461.506	98.38
462.283	108.38
463.061	123.38
463.838	138.38
464.615	151.38
465.393	173.38
466.17	188.38
466.947	200.38
467.724	226.38
468.501	254.38
469.278	285.38
470.055	314.38
470.831	349.38
471.608	389.38
472.385	430.38
473.161	487.38
473.938	527.38
474.714	589.38
475.49	642.38
476.266	717.38
477.043	784.38
477.819	873.38
478.595	962.38
479.371	1045.38
480.146	1150.38
480.922	1275.38
481.698	1395.38
482.473	1548.38
483.249	1697.38
484.024	1847.38
484.8	2038.38
485.575	2229.38
486.35	2454.38
487.126	2687.38
487.901	2944.38
488.676	3223.38
489.451	3535.38
490.225	3843.38
491	4206.38
491.775	4616.38
492.55	5049.38
493.324	5529.38
494.099	6028.38
494.873	6522.38
495.647	7123.38
496.422	7683.38
497.196	8298.38
497.97	8954.38
498.744	9615.38
499.518	10286.38
500.292	10980.38
501.066	11675.38
501.839	12305.38
502.613	12917.38
503.387	13574.38
504.16	14124.38
504.934	14572.38
505.707	14984.38
506.48	15317.38
507.253	15537.38
508.027	15739.38
508.8	15739.38
509.573	15714.38
510.346	15468.38
511.118	15291.38
511.891	14962.38
512.664	14624.38
513.437	14215.38
514.209	13712.38
514.982	13231.38
515.754	12708.38
516.526	12230.38
517.298	11694.38
518.071	11175.38
518.843	10713.38
519.615	10259.38
520.387	9864.38
521.159	9459.38
521.93	9096.38
522.702	8702.38
523.474	8361.38
524.245	8046.38
525.017	7715.38
525.788	7404.38
526.56	7136.38
527.331	6835.38
528.102	6559.38
528.873	6271.38
529.644	5989.38
530.415	5729.38
531.186	5460.38
531.957	5206.38
532.728	4948.38
533.498	4683.38
534.269	4449.38
535.039	4236.38
535.81	3977.38
536.58	3739.38
537.351	3537.38
538.121	3356.38
538.891	3182.38
539.661	3002.38
540.431	2833.38
541.201	2693.38
541.971	2584.38
542.741	2414.38
543.51	2270.38
544.28	2170.38
545.05	2046.38
545.819	1957.38
546.588	1857.38
547.358	1755.38
548.127	1678.38
548.896	1587.38
549.665	1522.38
550.434	1454.38
551.203	1361.38
551.972	1299.38
552.741	1238.38
553.51	1169.38
554.278	1115.38
555.047	1045.38
555.815	982.38
556.584	935.38
557.352	883.38
558.121	833.38
558.889	770.38
559.657	754.38
560.425	699.38
561.193	658.38
561.961	621.38
562.729	591.38
563.496	543.38
564.264	534.38
565.032	498.38
565.799	470.38
566.567	441.38
567.334	415.38
568.101	392.38
568.869	370.38
569.636	355.38
570.403	336.38
571.17	309.38
571.937	289.38
572.704	279.38
573.471	263.38
574.237	243.38
575.004	229.38
575.771	215.38
576.537	204.38
577.303	191.38
578.07	184.38
578.836	169.38
579.602	162.38
580.368	154.38
581.134	145.38
581.9	138.38
582.666	127.38
583.432	122.38
584.198	114.38
584.964	110.38
585.729	101.38
586.495	96.38
587.26	95.38
588.025	88.38
588.791	83.38
589.556	81.38
590.321	74.38
591.086	69.38
591.851	63.38
592.616	64.38
593.381	61.38
594.146	55.38
594.911	53.38
595.675	52.38
596.44	47.38
597.204	46.38
597.969	46.38
598.733	45.38
599.497	43.38
600.261	37.38
601.025	37.38
601.79	35.38
602.553	34.38
603.317	30.38
604.081	31.38
604.845	29.38
605.609	29.38
606.372	27.38
607.136	26.38
607.899	23.38
608.662	23.38
609.426	20.38
610.189	22.38
610.952	21.38
611.715	22.38
612.478	21.38
613.241	17.38
614.004	17.38
614.767	16.38
615.529	15.38
616.292	13.38
617.055	17.38
617.817	16.38
618.579	16.38
619.342	13.38
620.104	14.38
620.866	13.38
621.628	13.38
622.39	12.38
623.152	8.38
623.914	9.38
624.676	11.38
625.438	10.38
626.199	11.38
626.961	7.38
627.722	10.38
628.484	8.38
629.245	7.38
630.006	9.38
630.768	6.38
631.529	9.38
632.29	9.38
633.051	8.38
633.812	7.38
634.573	6.38
635.333	6.38
636.094	6.38
636.855	5.38
637.615	7.38
638.376	6.38
639.136	5.38
639.896	4.38
640.657	4.38
641.417	3.38
642.177	4.38
642.937	5.38
643.697	4.38
644.457	2.38
645.216	5.38
645.976	7.38
646.736	2.38
647.495	3.38
648.255	3.38
649.014	2.38
649.774	5.38
650.533	2.38
651.292	5.38
652.051	2.38
652.81	2.38
653.569	2.38
654.328	2.38
655.087	4.38
655.846	2.38
656.604	4.38
657.363	3.38
658.121	2.38
658.88	1.38
659.638	2.38
660.397	2.38
661.155	1.38
661.913	3.38
662.671	0.38
663.429	1.38
664.187	2.38
664.945	3.38
665.703	4.38
666.46	4.38
667.218	2.38
667.976	1.38
668.733	4.38
669.49	2.38
670.248	1.38
671.005	2.38
671.762	0.38
672.519	3.38
673.276	2.38
674.033	2.38
674.79	-0.62
675.547	1.38
676.304	3.38
677.06	0.38
677.817	3.38
678.574	1.38
679.33	1.38
680.086	2.38
680.843	2.38
681.599	3.38
682.355	1.38
683.111	2.38
683.867	2.38
684.623	5.38
685.379	3.38
686.135	2.38
686.89	4.38
687.646	1.38
688.402	1.38
689.157	2.38
689.912	1.38
690.668	2.38
691.423	2.38
692.178	2.38
692.933	3.38
693.688	2.38
694.443	3.38
695.198	3.38
695.953	1.38
696.708	2.38
697.462	2.38
698.217	0.38
698.972	1.38
699.726	-0.62
700.48	0.38
701.235	-0.62
701.989	0.38
702.743	3.38
703.497	1.38
704.251	3.38
705.005	2.38
705.759	3.38
706.513	5.38
707.266	2.38
708.02	0.38
708.774	0.38
709.527	0.38
710.28	3.38
711.034	-0.62
711.787	2.38
712.54	2.38
713.293	1.38
714.046	3.38
714.799	1.38
715.552	2.38
716.305	0.38
717.058	1.38
717.81	2.38
718.563	4.38
719.315	1.38
720.068	0.38
720.82	0.38
721.573	0.38
722.325	3.38
723.077	0.38
723.829	3.38
724.581	1.38
725.333	1.38
726.085	1.38
726.836	1.38
727.588	1.38
728.34	1.38
729.091	4.38
729.843	2.38
730.594	1.38
731.346	0.38
732.097	0.38
732.848	0.38
733.599	2.38
734.35	3.38
735.101	2.38
735.852	-0.62
736.603	2.38
737.354	3.38
738.104	0.38
738.855	0.38
739.605	1.38
740.356	1.38
741.106	3.38
741.856	1.38
742.607	1.38
743.357	3.38
744.107	3.38
744.857	1.38
745.607	1.38
746.357	2.38
747.106	3.38
747.856	4.38
748.606	2.38
749.355	2.38
750.105	3.38
750.854	1.38
751.603	2.38
752.353	3.38
753.102	3.38
753.851	3.38
754.6	1.38
755.349	1.38
756.098	5.38
756.847	3.38
757.595	2.38
758.344	2.38
759.093	4.38
759.841	0.38
760.589	3.38
761.338	4.38
762.086	3.38
762.834	5.38
763.582	0.38
764.331	1.38
765.079	1.38
765.826	6.38
766.574	4.38
767.322	2.38
768.07	5.38
768.817	2.38
769.565	7.38
770.312	4.38
771.06	5.38
771.807	4.38
772.554	4.38
773.302	6.38
774.049	6.38
774.796	5.38
775.543	5.38
776.29	5.38
777.036	2.38
777.783	4.38
778.53	3.38
779.276	4.38
780.023	3.38
780.769	4.38
781.516	7.38
782.262	4.38
783.008	3.38
783.754	4.38
784.5	3.38
785.246	5.38
785.992	5.38
786.738	5.38
787.484	2.38
788.23	4.38
788.975	8.38
789.721	3.38
790.466	6.38
791.212	7.38
791.957	3.38
792.702	4.38
793.447	2.38
794.193	6.38
794.938	5.38
795.683	3.38
796.427	2.38
797.172	6.38
797.917	2.38
798.662	3.38
799.406	3.38
800.151	3.38
800.895	4.38
801.64	3.38
802.384	3.38
803.128	5.38
803.872	2.38
804.616	7.38
805.36	3.38
806.104	5.38
806.848	3.38
807.592	4.38
808.336	2.38
809.079	3.38
809.823	4.38
810.566	4.38
811.31	4.38
812.053	6.38
812.796	2.38
813.539	7.38
814.283	3.38
815.026	3.38
815.769	3.38
816.511	3.38
817.254	3.38
817.997	2.38
818.74	2.38
819.482	3.38
820.225	0.38
820.967	2.38
821.71	3.38
822.452	2.38
823.194	3.38
823.936	2.38
824.678	2.38
825.42	1.38
826.162	2.38
826.904	4.38
827.646	1.38
828.388	3.38
829.129	4.38
829.871	4.38
830.612	4.38
831.354	2.38
832.095	3.38
832.836	3.38
833.577	3.38
834.319	2.38
835.06	-0.62
835.801	2.38
836.542	1.38
837.282	1.38
838.023	3.38
838.764	1.38
839.504	4.38
840.245	2.38
840.985	1.38
841.726	0.38
842.466	2.38
843.206	2.38
843.946	3.38
844.687	1.38
845.427	0.38
846.166	2.38
846.906	2.38
847.646	3.38
848.386	0.38
849.125	1.38
849.865	1.38
850.605	2.38
851.344	1.38
852.083	2.38
852.823	1.38
853.562	2.38
854.301	3.38
855.04	1.38
855.779	0.38
856.518	4.38
857.257	1.38
857.995	2.38
858.734	2.38
859.473	2.38
860.211	0.38
860.95	0.38
861.688	2.38
862.426	0.38
863.165	2.38
863.903	3.38
864.641	0.38
865.379	1.38
866.117	1.38
866.855	1.38
867.593	1.38
868.33	3.38
869.068	2.38
869.806	0.38
870.543	2.38
871.28	-0.62
872.018	0.38
872.755	0.38
873.492	-0.62
874.229	2.38
874.967	0.38
875.703	0.38
876.44	1.38
877.177	0.38
877.914	-1.62
878.651	0.38
879.387	-0.62
880.124	1.38
880.86	0.38
881.597	-1.62
882.333	-0.62
883.069	-0.62
883.806	2.38
884.542	-1.62
885.278	-0.62
886.014	1.38
886.749	0.38
887.485	0.38
888.221	-0.62
888.957	2.38
889.692	0.38
890.428	0.38
891.163	1.38
891.899	0.38
892.634	-0.62
893.369	-0.62
894.104	1.38
894.839	-1.62
895.574	-0.62
896.309	-1.62
897.044	0.38
897.779	0.38
898.514	0.38
899.248	1.38
899.983	1.38
900.717	1.38
901.452	1.38
902.186	2.38
902.92	-0.62
903.654	0.38
904.389	1.38
905.123	0.38
905.857	1.38
906.59	2.38
907.324	1.38
908.058	1.38
908.792	0.38
909.525	-0.62
910.259	3.38
910.992	0.38
911.726	1.38
912.459	1.38
913.192	1.38
913.925	0.38
914.658	0.38
915.391	1.38
916.124	-1.62
916.857	0.38
917.59	-1.62
918.323	0.38
919.055	-0.62
919.788	-1.62
920.521	1.38
921.253	0.38
921.985	1.38
922.718	1.38
923.45	-0.62
924.182	0.38
924.914	-0.62
925.646	0.38
926.378	1.38
927.11	2.38
927.841	-1.62
928.573	1.38
929.305	1.38
930.036	1.38
930.768	2.38
931.499	1.38
932.23	1.38
932.962	0.38
933.693	-0.62
934.424	1.38
935.155	-0.62
935.886	0.38
936.617	-0.62
937.348	-1.62
938.078	-0.62
938.809	0.38
939.54	-0.62
940.27	1.38
941.001	-1.62
941.731	0.38
942.461	-0.62
943.191	0.38
943.922	0.38
944.652	1.38
945.382	1.38
946.112	0.38
946.841	3.38
947.571	1.38
948.301	-1.62
949.031	0.38
949.76	0.38
950.49	1.38
951.219	1.38
951.948	-0.62
952.678	1.38
953.407	1.38
954.136	1.38
954.865	-0.62
955.594	0.38
956.323	1.38
957.052	1.38
957.78	0.38
958.509	0.38
959.238	1.38
959.966	-1.62
960.695	0.38
961.423	-0.62
962.151	0.38
962.88	0.38
963.608	-1.62
964.336	-1.62
965.064	2.38
965.792	-2.62
966.52	-0.62
967.247	-0.62
967.975	1.38
968.703	-1.62
969.43	-1.62
970.158	1.38
970.885	-1.62
971.613	0.38
972.34	1.38
973.067	0.38
973.794	1.38
974.521	0.38
975.248	0.38
975.975	0.38
976.702	1.38
977.429	0.38
978.156	-1.62
978.882	-0.62
979.609	-1.62
980.335	1.38
981.062	2.38
981.788	1.38
982.514	1.38
983.24	-0.62
983.967	1.38
984.693	0.38
985.419	-0.62
986.144	1.38
986.87	2.38
987.596	1.38
988.322	-0.62
989.047	-0.62
989.773	1.38
990.498	1.38
991.224	-0.62
991.949	-1.62
992.674	1.38
993.399	1.38
994.124	1.38
994.849	0.38
995.574	-0.62
996.299	0.38
997.024	-0.62
997.749	0.38
998.473	-0.62
999.198	-1.62
999.922	1.38
1000.647	-0.62
1001.371	3.38
1002.095	0.38
1002.82	-3.62
1003.544	0.38
1004.268	0.38
1004.992	-1.62
1005.716	0.38
1006.439	-1.62
1007.163	0.38
1007.887	-0.62
1008.611	-0.62
1009.334	1.38
1010.058	-0.62
1010.781	0.38
1011.504	1.38
1012.228	-1.62
1012.951	1.38
1013.674	-0.62
1014.397	-1.62
1015.12	0.38
