节点500_145_QEPB04081__543__11-37-34-467.txt的数据

Date: Wed Nov 12 11:37:34 CST 2025
User: PC
Spectrometer: QEPB0408
触发模式: 0
积分时间 (秒): 1.000000E-2
Scans to average: 1
启用暗噪声校正: true
启用非线性校正: false
滑动平均宽度: 0
X轴模式: Wavelengths
Number of Pixels in Spectrum: 1044
>>>>>Begin Spectral Data<<<<<
220.843	-0.75
221.644	-2.75
222.444	0.25
223.244	-0.75
224.045	0.25
224.845	-1.75
225.645	-2.75
226.445	-0.75
227.245	-0.75
228.045	0.25
228.845	-0.75
229.645	-0.75
230.444	-3.75
231.244	-0.75
232.043	1.25
232.843	0.25
233.642	-0.75
234.442	-0.75
235.241	-0.75
236.04	-0.75
236.839	-0.75
237.638	0.25
238.437	-1.75
239.236	1.25
240.035	-1.75
240.833	1.25
241.632	1.25
242.43	-0.75
243.229	2.25
244.027	0.25
244.826	-0.75
245.624	1.25
246.422	1.25
247.22	0.25
248.018	0.25
248.816	1.25
249.614	-0.75
250.412	2.25
251.21	0.25
252.007	1.25
252.805	1.25
253.602	-2.75
254.4	3.25
255.197	1.25
255.994	4.25
256.791	0.25
257.589	4.25
258.386	2.25
259.183	3.25
259.979	3.25
260.776	4.25
261.573	3.25
262.37	2.25
263.166	1.25
263.963	4.25
264.759	2.25
265.556	2.25
266.352	4.25
267.148	4.25
267.944	4.25
268.74	4.25
269.536	4.25
270.332	3.25
271.128	5.25
271.924	4.25
272.719	7.25
273.515	5.25
274.311	3.25
275.106	6.25
275.901	7.25
276.697	9.25
277.492	7.25
278.287	9.25
279.082	8.25
279.877	8.25
280.672	10.25
281.467	9.25
282.262	8.25
283.056	9.25
283.851	6.25
284.646	8.25
285.44	10.25
286.234	9.25
287.029	8.25
287.823	9.25
288.617	10.25
289.411	9.25
290.205	9.25
290.999	6.25
291.793	9.25
292.587	9.25
293.381	10.25
294.174	9.25
294.968	8.25
295.761	8.25
296.555	7.25
297.348	6.25
298.141	8.25
298.935	9.25
299.728	8.25
300.521	7.25
301.314	8.25
302.107	7.25
302.899	8.25
303.692	4.25
304.485	6.25
305.277	6.25
306.07	5.25
306.862	7.25
307.655	8.25
308.447	7.25
309.239	5.25
310.031	6.25
310.823	6.25
311.615	3.25
312.407	5.25
313.199	5.25
313.991	6.25
314.783	4.25
315.574	1.25
316.366	3.25
317.157	4.25
317.949	5.25
318.74	3.25
319.531	4.25
320.322	4.25
321.113	2.25
321.904	3.25
322.695	2.25
323.486	6.25
324.277	3.25
325.068	4.25
325.858	4.25
326.649	3.25
327.439	4.25
328.23	3.25
329.02	3.25
329.81	1.25
330.6	1.25
331.391	1.25
332.181	1.25
332.971	3.25
333.76	3.25
334.55	2.25
335.34	3.25
336.13	3.25
336.919	4.25
337.709	1.25
338.498	2.25
339.287	0.25
340.077	3.25
340.866	2.25
341.655	4.25
342.444	2.25
343.233	2.25
344.022	4.25
344.811	0.25
345.6	1.25
346.388	3.25
347.177	2.25
347.965	4.25
348.754	2.25
349.542	2.25
350.33	2.25
351.119	2.25
351.907	0.25
352.695	1.25
353.483	3.25
354.271	2.25
355.059	3.25
355.846	0.25
356.634	4.25
357.422	3.25
358.209	3.25
358.997	3.25
359.784	-1.75
360.571	2.25
361.359	1.25
362.146	1.25
362.933	1.25
363.72	1.25
364.507	1.25
365.294	0.25
366.081	1.25
366.867	2.25
367.654	1.25
368.44	1.25
369.227	-0.75
370.013	2.25
370.8	2.25
371.586	1.25
372.372	1.25
373.158	2.25
373.944	1.25
374.73	3.25
375.516	1.25
376.302	3.25
377.088	2.25
377.873	1.25
378.659	1.25
379.445	2.25
380.23	2.25
381.015	3.25
381.801	0.25
382.586	2.25
383.371	1.25
384.156	-0.75
384.941	0.25
385.726	-0.75
386.511	1.25
387.296	1.25
388.08	1.25
388.865	0.25
389.649	2.25
390.434	1.25
391.218	2.25
392.003	1.25
392.787	3.25
393.571	3.25
394.355	2.25
395.139	1.25
395.923	2.25
396.707	2.25
397.491	3.25
398.274	2.25
399.058	2.25
399.842	2.25
400.625	2.25
401.408	6.25
402.192	-0.75
402.975	2.25
403.758	2.25
404.541	3.25
405.324	2.25
406.107	2.25
406.89	1.25
407.673	4.25
408.456	4.25
409.238	4.25
410.021	3.25
410.803	3.25
411.586	1.25
412.368	1.25
413.151	2.25
413.933	6.25
414.715	3.25
415.497	6.25
416.279	3.25
417.061	4.25
417.843	6.25
418.624	1.25
419.406	4.25
420.188	3.25
420.969	4.25
421.751	3.25
422.532	4.25
423.313	5.25
424.095	4.25
424.876	6.25
425.657	6.25
426.438	6.25
427.219	4.25
428	4.25
428.78	4.25
429.561	4.25
430.342	6.25
431.122	7.25
431.903	6.25
432.683	6.25
433.464	8.25
434.244	4.25
435.024	5.25
435.804	9.25
436.584	8.25
437.364	8.25
438.144	9.25
438.924	8.25
439.704	11.25
440.483	8.25
441.263	9.25
442.042	9.25
442.822	15.25
443.601	12.25
444.38	12.25
445.16	16.25
445.939	15.25
446.718	16.25
447.497	19.25
448.276	20.25
449.054	22.25
449.833	22.25
450.612	25.25
451.391	26.25
452.169	29.25
452.948	31.25
453.726	33.25
454.504	40.25
455.282	43.25
456.061	50.25
456.839	50.25
457.617	57.25
458.395	62.25
459.172	73.25
459.95	83.25
460.728	88.25
461.506	101.25
462.283	104.25
463.061	125.25
463.838	134.25
464.615	147.25
465.393	172.25
466.17	180.25
466.947	212.25
467.724	231.25
468.501	253.25
469.278	285.25
470.055	314.25
470.831	348.25
471.608	384.25
472.385	433.25
473.161	479.25
473.938	533.25
474.714	588.25
475.49	647.25
476.266	729.25
477.043	791.25
477.819	861.25
478.595	953.25
479.371	1049.25
480.146	1165.25
480.922	1275.25
481.698	1402.25
482.473	1529.25
483.249	1684.25
484.024	1848.25
484.8	2037.25
485.575	2225.25
486.35	2442.25
487.126	2662.25
487.901	2902.25
488.676	3207.25
489.451	3510.25
490.225	3804.25
491	4190.25
491.775	4600.25
492.55	5005.25
493.324	5472.25
494.099	5954.25
494.873	6487.25
495.647	7027.25
496.422	7659.25
497.196	8227.25
497.97	8860.25
498.744	9530.25
499.518	10246.25
500.292	10883.25
501.066	11540.25
501.839	12225.25
502.613	12858.25
503.387	13438.25
504.16	13974.25
504.934	14491.25
505.707	14836.25
506.48	15188.25
507.253	15394.25
508.027	15589.25
508.8	15592.25
509.573	15607.25
510.346	15438.25
511.118	15249.25
511.891	14960.25
512.664	14520.25
513.437	14156.25
514.209	13692.25
514.982	13171.25
515.754	12713.25
516.526	12216.25
517.298	11715.25
518.071	11188.25
518.843	10726.25
519.615	10276.25
520.387	9831.25
521.159	9440.25
521.93	9052.25
522.702	8729.25
523.474	8390.25
524.245	8059.25
525.017	7750.25
525.788	7399.25
526.56	7099.25
527.331	6828.25
528.102	6542.25
528.873	6256.25
529.644	5985.25
530.415	5708.25
531.186	5466.25
531.957	5233.25
532.728	4947.25
533.498	4698.25
534.269	4465.25
535.039	4211.25
535.81	4007.25
536.58	3793.25
537.351	3578.25
538.121	3367.25
538.891	3194.25
539.661	3016.25
540.431	2848.25
541.201	2704.25
541.971	2549.25
542.741	2427.25
543.51	2292.25
544.28	2180.25
545.05	2070.25
545.819	1966.25
546.588	1847.25
547.358	1792.25
548.127	1688.25
548.896	1600.25
549.665	1530.25
550.434	1445.25
551.203	1382.25
551.972	1305.25
552.741	1243.25
553.51	1179.25
554.278	1113.25
555.047	1037.25
555.815	989.25
556.584	937.25
557.352	883.25
558.121	826.25
558.889	769.25
559.657	744.25
560.425	694.25
561.193	660.25
561.961	613.25
562.729	580.25
563.496	560.25
564.264	522.25
565.032	492.25
565.799	472.25
566.567	440.25
567.334	416.25
568.101	393.25
568.869	367.25
569.636	356.25
570.403	327.25
571.17	313.25
571.937	293.25
572.704	281.25
573.471	257.25
574.237	243.25
575.004	232.25
575.771	215.25
576.537	202.25
577.303	189.25
578.07	181.25
578.836	166.25
579.602	157.25
580.368	156.25
581.134	147.25
581.9	142.25
582.666	133.25
583.432	123.25
584.198	120.25
584.964	110.25
585.729	101.25
586.495	97.25
587.26	92.25
588.025	88.25
588.791	84.25
589.556	77.25
590.321	74.25
591.086	72.25
591.851	69.25
592.616	58.25
593.381	58.25
594.146	58.25
594.911	53.25
595.675	51.25
596.44	45.25
597.204	48.25
597.969	45.25
598.733	39.25
599.497	38.25
600.261	37.25
601.025	33.25
601.79	32.25
602.553	32.25
603.317	32.25
604.081	29.25
604.845	28.25
605.609	29.25
606.372	28.25
607.136	25.25
607.899	23.25
608.662	22.25
609.426	22.25
610.189	24.25
610.952	17.25
611.715	17.25
612.478	15.25
613.241	16.25
614.004	18.25
614.767	16.25
615.529	15.25
616.292	14.25
617.055	14.25
617.817	11.25
618.579	12.25
619.342	14.25
620.104	12.25
620.866	11.25
621.628	9.25
622.39	10.25
623.152	9.25
623.914	10.25
624.676	11.25
625.438	9.25
626.199	10.25
626.961	8.25
627.722	8.25
628.484	8.25
629.245	9.25
630.006	8.25
630.768	5.25
631.529	7.25
632.29	5.25
633.051	5.25
633.812	6.25
634.573	5.25
635.333	6.25
636.094	5.25
636.855	5.25
637.615	4.25
638.376	5.25
639.136	4.25
639.896	4.25
640.657	5.25
641.417	5.25
642.177	4.25
642.937	1.25
643.697	5.25
644.457	3.25
645.216	2.25
645.976	3.25
646.736	3.25
647.495	4.25
648.255	4.25
649.014	3.25
649.774	2.25
650.533	2.25
651.292	2.25
652.051	1.25
652.81	5.25
653.569	2.25
654.328	3.25
655.087	1.25
655.846	1.25
656.604	0.25
657.363	1.25
658.121	2.25
658.88	3.25
659.638	1.25
660.397	5.25
661.155	3.25
661.913	0.25
662.671	2.25
663.429	1.25
664.187	3.25
664.945	-0.75
665.703	2.25
666.46	2.25
667.218	1.25
667.976	0.25
668.733	2.25
669.49	1.25
670.248	3.25
671.005	4.25
671.762	-0.75
672.519	1.25
673.276	0.25
674.033	1.25
674.79	0.25
675.547	1.25
676.304	2.25
677.06	2.25
677.817	1.25
678.574	1.25
679.33	2.25
680.086	2.25
680.843	2.25
681.599	0.25
682.355	1.25
683.111	3.25
683.867	0.25
684.623	3.25
685.379	1.25
686.135	0.25
686.89	1.25
687.646	0.25
688.402	0.25
689.157	-1.75
689.912	0.25
690.668	0.25
691.423	1.25
692.178	-0.75
692.933	0.25
693.688	2.25
694.443	1.25
695.198	0.25
695.953	3.25
696.708	2.25
697.462	0.25
698.217	-0.75
698.972	0.25
699.726	-0.75
700.48	3.25
701.235	1.25
701.989	2.25
702.743	1.25
703.497	2.25
704.251	1.25
705.005	0.25
705.759	-1.75
706.513	0.25
707.266	3.25
708.02	-0.75
708.774	2.25
709.527	1.25
710.28	-0.75
711.034	0.25
711.787	1.25
712.54	0.25
713.293	-2.75
714.046	0.25
714.799	0.25
715.552	-0.75
716.305	3.25
717.058	0.25
717.81	-0.75
718.563	1.25
719.315	1.25
720.068	2.25
720.82	-0.75
721.573	1.25
722.325	-0.75
723.077	1.25
723.829	0.25
724.581	-0.75
725.333	-0.75
726.085	0.25
726.836	0.25
727.588	2.25
728.34	0.25
729.091	2.25
729.843	0.25
730.594	1.25
731.346	1.25
732.097	1.25
732.848	0.25
733.599	-0.75
734.35	0.25
735.101	0.25
735.852	4.25
736.603	-0.75
737.354	4.25
738.104	1.25
738.855	0.25
739.605	1.25
740.356	2.25
741.106	0.25
741.856	2.25
742.607	2.25
743.357	0.25
744.107	1.25
744.857	1.25
745.607	1.25
746.357	1.25
747.106	-0.75
747.856	1.25
748.606	1.25
749.355	1.25
750.105	3.25
750.854	2.25
751.603	1.25
752.353	1.25
753.102	0.25
753.851	3.25
754.6	0.25
755.349	0.25
756.098	1.25
756.847	2.25
757.595	3.25
758.344	1.25
759.093	1.25
759.841	1.25
760.589	3.25
761.338	1.25
762.086	1.25
762.834	2.25
763.582	1.25
764.331	1.25
765.079	2.25
765.826	2.25
766.574	1.25
767.322	3.25
768.07	1.25
768.817	2.25
769.565	2.25
770.312	1.25
771.06	3.25
771.807	1.25
772.554	4.25
773.302	3.25
774.049	3.25
774.796	3.25
775.543	1.25
776.29	5.25
777.036	2.25
777.783	3.25
778.53	1.25
779.276	2.25
780.023	2.25
780.769	4.25
781.516	2.25
782.262	1.25
783.008	4.25
783.754	4.25
784.5	3.25
785.246	3.25
785.992	2.25
786.738	1.25
787.484	3.25
788.23	4.25
788.975	5.25
789.721	5.25
790.466	4.25
791.212	2.25
791.957	4.25
792.702	4.25
793.447	2.25
794.193	1.25
794.938	4.25
795.683	3.25
796.427	2.25
797.172	4.25
797.917	2.25
798.662	3.25
799.406	3.25
800.151	1.25
800.895	5.25
801.64	4.25
802.384	4.25
803.128	4.25
803.872	5.25
804.616	3.25
805.36	-0.75
806.104	2.25
806.848	0.25
807.592	3.25
808.336	1.25
809.079	2.25
809.823	3.25
810.566	2.25
811.31	1.25
812.053	1.25
812.796	2.25
813.539	2.25
814.283	3.25
815.026	1.25
815.769	0.25
816.511	1.25
817.254	2.25
817.997	1.25
818.74	2.25
819.482	3.25
820.225	3.25
820.967	1.25
821.71	1.25
822.452	1.25
823.194	3.25
823.936	2.25
824.678	2.25
825.42	1.25
826.162	-0.75
826.904	1.25
827.646	0.25
828.388	1.25
829.129	1.25
829.871	0.25
830.612	2.25
831.354	3.25
832.095	0.25
832.836	2.25
833.577	2.25
834.319	1.25
835.06	-0.75
835.801	2.25
836.542	0.25
837.282	2.25
838.023	0.25
838.764	0.25
839.504	0.25
840.245	-0.75
840.985	1.25
841.726	3.25
842.466	0.25
843.206	1.25
843.946	1.25
844.687	1.25
845.427	0.25
846.166	0.25
846.906	-1.75
847.646	-0.75
848.386	0.25
849.125	-0.75
849.865	1.25
850.605	-0.75
851.344	2.25
852.083	-0.75
852.823	-0.75
853.562	-0.75
854.301	0.25
855.04	1.25
855.779	0.25
856.518	-0.75
857.257	0.25
857.995	0.25
858.734	-0.75
859.473	-0.75
860.211	1.25
860.95	-0.75
861.688	-0.75
862.426	0.25
863.165	1.25
863.903	0.25
864.641	-2.75
865.379	-1.75
866.117	-0.75
866.855	1.25
867.593	-1.75
868.33	0.25
869.068	2.25
869.806	-0.75
870.543	-2.75
871.28	0.25
872.018	0.25
872.755	-0.75
873.492	1.25
874.229	0.25
874.967	-0.75
875.703	1.25
876.44	0.25
877.177	1.25
877.914	1.25
878.651	2.25
879.387	-2.75
880.124	-0.75
880.86	2.25
881.597	-0.75
882.333	-2.75
883.069	-0.75
883.806	-1.75
884.542	0.25
885.278	-0.75
886.014	0.25
886.749	-0.75
887.485	0.25
888.221	0.25
888.957	-0.75
889.692	-0.75
890.428	0.25
891.163	-1.75
891.899	0.25
892.634	0.25
893.369	0.25
894.104	-1.75
894.839	-0.75
895.574	0.25
896.309	-0.75
897.044	-0.75
897.779	1.25
898.514	-3.75
899.248	-0.75
899.983	1.25
900.717	-1.75
901.452	-0.75
902.186	-2.75
902.92	-0.75
903.654	-1.75
904.389	0.25
905.123	-0.75
905.857	-0.75
906.59	2.25
907.324	-2.75
908.058	-0.75
908.792	-0.75
909.525	-0.75
910.259	-0.75
910.992	0.25
911.726	-1.75
912.459	0.25
913.192	0.25
913.925	-0.75
914.658	-1.75
915.391	-0.75
916.124	-2.75
916.857	0.25
917.59	-0.75
918.323	-0.75
919.055	0.25
919.788	0.25
920.521	-0.75
921.253	-0.75
921.985	-1.75
922.718	-0.75
923.45	0.25
924.182	0.25
924.914	-0.75
925.646	-0.75
926.378	-1.75
927.11	1.25
927.841	0.25
928.573	-0.75
929.305	-1.75
930.036	-1.75
930.768	-2.75
931.499	-1.75
932.23	0.25
932.962	1.25
933.693	1.25
934.424	-2.75
935.155	-0.75
935.886	1.25
936.617	-2.75
937.348	0.25
938.078	0.25
938.809	0.25
939.54	0.25
940.27	0.25
941.001	-1.75
941.731	-0.75
942.461	0.25
943.191	0.25
943.922	-0.75
944.652	-0.75
945.382	-1.75
946.112	0.25
946.841	-2.75
947.571	-0.75
948.301	0.25
949.031	-1.75
949.76	-0.75
950.49	-1.75
951.219	-0.75
951.948	-0.75
952.678	2.25
953.407	0.25
954.136	-2.75
954.865	-0.75
955.594	-0.75
956.323	-1.75
957.052	0.25
957.78	-2.75
958.509	-0.75
959.238	-2.75
959.966	-1.75
960.695	0.25
961.423	1.25
962.151	-0.75
962.88	0.25
963.608	-0.75
964.336	-0.75
965.064	-0.75
965.792	-1.75
966.52	-1.75
967.247	-1.75
967.975	1.25
968.703	-0.75
969.43	-2.75
970.158	-0.75
970.885	-0.75
971.613	-2.75
972.34	-1.75
973.067	-0.75
973.794	-0.75
974.521	-0.75
975.248	-1.75
975.975	-0.75
976.702	-0.75
977.429	-2.75
978.156	-1.75
978.882	-0.75
979.609	-3.75
980.335	0.25
981.062	-1.75
981.788	-0.75
982.514	0.25
983.24	-2.75
983.967	-0.75
984.693	-2.75
985.419	-2.75
986.144	-2.75
986.87	1.25
987.596	-0.75
988.322	-1.75
989.047	-2.75
989.773	-2.75
990.498	0.25
991.224	1.25
991.949	-1.75
992.674	-0.75
993.399	1.25
994.124	-1.75
994.849	-2.75
995.574	-0.75
996.299	-1.75
997.024	-0.75
997.749	-0.75
998.473	-2.75
999.198	-1.75
999.922	0.25
1000.647	-0.75
1001.371	5.25
1002.095	-0.75
1002.82	-0.75
1003.544	-0.75
1004.268	1.25
1004.992	-1.75
1005.716	-2.75
1006.439	-0.75
1007.163	-1.75
1007.887	-2.75
1008.611	-0.75
1009.334	-0.75
1010.058	0.25
1010.781	-0.75
1011.504	-0.75
1012.228	-2.75
1012.951	-3.75
1013.674	1.25
1014.397	0.25
1015.12	-0.75
