节点500_145_QEPB04081__208__11-32-17-509.txt的数据

Date: Wed Nov 12 11:32:17 CST 2025
User: PC
Spectrometer: QEPB0408
触发模式: 0
积分时间 (秒): 1.000000E-2
Scans to average: 1
启用暗噪声校正: true
启用非线性校正: false
滑动平均宽度: 0
X轴模式: Wavelengths
Number of Pixels in Spectrum: 1044
>>>>>Begin Spectral Data<<<<<
220.843	0.5
221.644	2.5
222.444	-0.5
223.244	2.5
224.045	-0.5
224.845	1.5
225.645	1.5
226.445	-0.5
227.245	-0.5
228.045	0.5
228.845	0.5
229.645	-0.5
230.444	1.5
231.244	1.5
232.043	-1.5
232.843	1.5
233.642	-1.5
234.442	0.5
235.241	3.5
236.04	2.5
236.839	2.5
237.638	0.5
238.437	0.5
239.236	0.5
240.035	1.5
240.833	1.5
241.632	2.5
242.43	1.5
243.229	-0.5
244.027	4.5
244.826	2.5
245.624	2.5
246.422	2.5
247.22	3.5
248.018	3.5
248.816	2.5
249.614	6.5
250.412	0.5
251.21	2.5
252.007	0.5
252.805	1.5
253.602	3.5
254.4	4.5
255.197	5.5
255.994	6.5
256.791	3.5
257.589	6.5
258.386	4.5
259.183	3.5
259.979	4.5
260.776	5.5
261.573	6.5
262.37	7.5
263.166	8.5
263.963	4.5
264.759	6.5
265.556	4.5
266.352	7.5
267.148	4.5
267.944	4.5
268.74	7.5
269.536	7.5
270.332	9.5
271.128	6.5
271.924	7.5
272.719	6.5
273.515	7.5
274.311	9.5
275.106	10.5
275.901	9.5
276.697	9.5
277.492	10.5
278.287	11.5
279.082	10.5
279.877	9.5
280.672	8.5
281.467	10.5
282.262	10.5
283.056	13.5
283.851	13.5
284.646	12.5
285.44	9.5
286.234	10.5
287.029	13.5
287.823	11.5
288.617	12.5
289.411	14.5
290.205	11.5
290.999	12.5
291.793	8.5
292.587	12.5
293.381	11.5
294.174	11.5
294.968	10.5
295.761	10.5
296.555	12.5
297.348	11.5
298.141	9.5
298.935	12.5
299.728	9.5
300.521	9.5
301.314	10.5
302.107	10.5
302.899	5.5
303.692	9.5
304.485	10.5
305.277	7.5
306.07	8.5
306.862	9.5
307.655	10.5
308.447	9.5
309.239	8.5
310.031	8.5
310.823	6.5
311.615	8.5
312.407	8.5
313.199	8.5
313.991	6.5
314.783	3.5
315.574	6.5
316.366	4.5
317.157	6.5
317.949	4.5
318.74	1.5
319.531	6.5
320.322	5.5
321.113	7.5
321.904	5.5
322.695	5.5
323.486	5.5
324.277	6.5
325.068	6.5
325.858	4.5
326.649	4.5
327.439	5.5
328.23	5.5
329.02	2.5
329.81	6.5
330.6	2.5
331.391	5.5
332.181	4.5
332.971	4.5
333.76	6.5
334.55	3.5
335.34	4.5
336.13	4.5
336.919	3.5
337.709	4.5
338.498	2.5
339.287	4.5
340.077	2.5
340.866	6.5
341.655	0.5
342.444	1.5
343.233	3.5
344.022	1.5
344.811	5.5
345.6	2.5
346.388	3.5
347.177	2.5
347.965	3.5
348.754	3.5
349.542	5.5
350.33	3.5
351.119	3.5
351.907	4.5
352.695	1.5
353.483	1.5
354.271	3.5
355.059	1.5
355.846	3.5
356.634	4.5
357.422	2.5
358.209	1.5
358.997	2.5
359.784	3.5
360.571	3.5
361.359	6.5
362.146	2.5
362.933	2.5
363.72	5.5
364.507	4.5
365.294	3.5
366.081	6.5
366.867	1.5
367.654	5.5
368.44	0.5
369.227	3.5
370.013	5.5
370.8	2.5
371.586	5.5
372.372	4.5
373.158	3.5
373.944	3.5
374.73	1.5
375.516	4.5
376.302	3.5
377.088	2.5
377.873	4.5
378.659	3.5
379.445	3.5
380.23	4.5
381.015	1.5
381.801	4.5
382.586	1.5
383.371	3.5
384.156	3.5
384.941	1.5
385.726	4.5
386.511	3.5
387.296	4.5
388.08	3.5
388.865	4.5
389.649	3.5
390.434	3.5
391.218	3.5
392.003	4.5
392.787	4.5
393.571	3.5
394.355	5.5
395.139	5.5
395.923	3.5
396.707	4.5
397.491	1.5
398.274	4.5
399.058	4.5
399.842	5.5
400.625	3.5
401.408	2.5
402.192	5.5
402.975	5.5
403.758	3.5
404.541	6.5
405.324	4.5
406.107	3.5
406.89	2.5
407.673	5.5
408.456	2.5
409.238	5.5
410.021	1.5
410.803	5.5
411.586	1.5
412.368	3.5
413.151	7.5
413.933	7.5
414.715	4.5
415.497	5.5
416.279	3.5
417.061	5.5
417.843	6.5
418.624	5.5
419.406	3.5
420.188	6.5
420.969	7.5
421.751	6.5
422.532	7.5
423.313	7.5
424.095	6.5
424.876	8.5
425.657	5.5
426.438	5.5
427.219	7.5
428	7.5
428.78	7.5
429.561	4.5
430.342	9.5
431.122	6.5
431.903	7.5
432.683	8.5
433.464	11.5
434.244	8.5
435.024	7.5
435.804	9.5
436.584	9.5
437.364	11.5
438.144	11.5
438.924	10.5
439.704	12.5
440.483	12.5
441.263	12.5
442.042	12.5
442.822	13.5
443.601	16.5
444.38	14.5
445.16	10.5
445.939	18.5
446.718	20.5
447.497	19.5
448.276	17.5
449.054	23.5
449.833	26.5
450.612	23.5
451.391	29.5
452.169	28.5
452.948	30.5
453.726	33.5
454.504	35.5
455.282	41.5
456.061	44.5
456.839	50.5
457.617	52.5
458.395	58.5
459.172	65.5
459.95	69.5
460.728	79.5
461.506	93.5
462.283	97.5
463.061	110.5
463.838	122.5
464.615	139.5
465.393	154.5
466.17	167.5
466.947	189.5
467.724	210.5
468.501	233.5
469.278	261.5
470.055	289.5
470.831	320.5
471.608	364.5
472.385	401.5
473.161	447.5
473.938	497.5
474.714	552.5
475.49	618.5
476.266	692.5
477.043	768.5
477.819	846.5
478.595	928.5
479.371	1033.5
480.146	1146.5
480.922	1263.5
481.698	1397.5
482.473	1554.5
483.249	1705.5
484.024	1901.5
484.8	2094.5
485.575	2314.5
486.35	2564.5
487.126	2830.5
487.901	3101.5
488.676	3433.5
489.451	3779.5
490.225	4166.5
491	4570.5
491.775	5049.5
492.55	5568.5
493.324	6100.5
494.099	6690.5
494.873	7270.5
495.647	7899.5
496.422	8602.5
497.196	9319.5
497.97	10052.5
498.744	10871.5
499.518	11680.5
500.292	12429.5
501.066	13133.5
501.839	13852.5
502.613	14544.5
503.387	15159.5
504.16	15734.5
504.934	16154.5
505.707	16527.5
506.48	16681.5
507.253	16860.5
508.027	16903.5
508.8	16787.5
509.573	16565.5
510.346	16364.5
511.118	15974.5
511.891	15479.5
512.664	14983.5
513.437	14419.5
514.209	13851.5
514.982	13333.5
515.754	12718.5
516.526	12152.5
517.298	11637.5
518.071	11097.5
518.843	10557.5
519.615	10120.5
520.387	9748.5
521.159	9366.5
521.93	8943.5
522.702	8632.5
523.474	8285.5
524.245	7946.5
525.017	7638.5
525.788	7348.5
526.56	7040.5
527.331	6741.5
528.102	6449.5
528.873	6138.5
529.644	5870.5
530.415	5597.5
531.186	5316.5
531.957	5048.5
532.728	4785.5
533.498	4501.5
534.269	4253.5
535.039	4041.5
535.81	3798.5
536.58	3594.5
537.351	3406.5
538.121	3208.5
538.891	3017.5
539.661	2865.5
540.431	2713.5
541.201	2558.5
541.971	2425.5
542.741	2311.5
543.51	2188.5
544.28	2074.5
545.05	1965.5
545.819	1868.5
546.588	1786.5
547.358	1683.5
548.127	1614.5
548.896	1523.5
549.665	1444.5
550.434	1382.5
551.203	1317.5
551.972	1236.5
552.741	1175.5
553.51	1117.5
554.278	1054.5
555.047	990.5
555.815	927.5
556.584	874.5
557.352	829.5
558.121	783.5
558.889	738.5
559.657	689.5
560.425	645.5
561.193	610.5
561.961	579.5
562.729	555.5
563.496	524.5
564.264	483.5
565.032	455.5
565.799	430.5
566.567	415.5
567.334	386.5
568.101	362.5
568.869	348.5
569.636	322.5
570.403	318.5
571.17	297.5
571.937	283.5
572.704	263.5
573.471	248.5
574.237	225.5
575.004	217.5
575.771	209.5
576.537	187.5
577.303	185.5
578.07	165.5
578.836	163.5
579.602	151.5
580.368	145.5
581.134	132.5
581.9	125.5
582.666	119.5
583.432	113.5
584.198	106.5
584.964	100.5
585.729	97.5
586.495	90.5
587.26	84.5
588.025	84.5
588.791	75.5
589.556	71.5
590.321	70.5
591.086	64.5
591.851	61.5
592.616	64.5
593.381	56.5
594.146	55.5
594.911	49.5
595.675	46.5
596.44	47.5
597.204	42.5
597.969	43.5
598.733	44.5
599.497	38.5
600.261	38.5
601.025	35.5
601.79	32.5
602.553	33.5
603.317	30.5
604.081	29.5
604.845	26.5
605.609	27.5
606.372	26.5
607.136	24.5
607.899	25.5
608.662	20.5
609.426	21.5
610.189	20.5
610.952	18.5
611.715	18.5
612.478	20.5
613.241	19.5
614.004	17.5
614.767	17.5
615.529	14.5
616.292	14.5
617.055	13.5
617.817	14.5
618.579	15.5
619.342	13.5
620.104	12.5
620.866	11.5
621.628	14.5
622.39	11.5
623.152	11.5
623.914	10.5
624.676	11.5
625.438	11.5
626.199	10.5
626.961	8.5
627.722	9.5
628.484	8.5
629.245	9.5
630.006	7.5
630.768	7.5
631.529	5.5
632.29	6.5
633.051	5.5
633.812	5.5
634.573	7.5
635.333	7.5
636.094	6.5
636.855	7.5
637.615	6.5
638.376	7.5
639.136	5.5
639.896	4.5
640.657	5.5
641.417	5.5
642.177	5.5
642.937	6.5
643.697	5.5
644.457	5.5
645.216	7.5
645.976	5.5
646.736	5.5
647.495	4.5
648.255	1.5
649.014	7.5
649.774	3.5
650.533	6.5
651.292	3.5
652.051	7.5
652.81	4.5
653.569	1.5
654.328	5.5
655.087	5.5
655.846	2.5
656.604	3.5
657.363	5.5
658.121	4.5
658.88	1.5
659.638	3.5
660.397	3.5
661.155	5.5
661.913	2.5
662.671	3.5
663.429	4.5
664.187	2.5
664.945	2.5
665.703	3.5
666.46	4.5
667.218	4.5
667.976	2.5
668.733	4.5
669.49	2.5
670.248	1.5
671.005	2.5
671.762	5.5
672.519	1.5
673.276	2.5
674.033	3.5
674.79	1.5
675.547	3.5
676.304	2.5
677.06	2.5
677.817	1.5
678.574	3.5
679.33	2.5
680.086	3.5
680.843	4.5
681.599	3.5
682.355	4.5
683.111	3.5
683.867	2.5
684.623	3.5
685.379	1.5
686.135	2.5
686.89	4.5
687.646	1.5
688.402	2.5
689.157	1.5
689.912	3.5
690.668	1.5
691.423	1.5
692.178	2.5
692.933	3.5
693.688	4.5
694.443	2.5
695.198	1.5
695.953	0.5
696.708	4.5
697.462	3.5
698.217	2.5
698.972	1.5
699.726	3.5
700.48	2.5
701.235	3.5
701.989	0.5
702.743	1.5
703.497	3.5
704.251	2.5
705.005	1.5
705.759	4.5
706.513	1.5
707.266	4.5
708.02	3.5
708.774	2.5
709.527	2.5
710.28	1.5
711.034	1.5
711.787	0.5
712.54	0.5
713.293	0.5
714.046	0.5
714.799	1.5
715.552	-0.5
716.305	3.5
717.058	2.5
717.81	4.5
718.563	1.5
719.315	0.5
720.068	3.5
720.82	1.5
721.573	4.5
722.325	1.5
723.077	1.5
723.829	4.5
724.581	1.5
725.333	1.5
726.085	1.5
726.836	1.5
727.588	4.5
728.34	2.5
729.091	1.5
729.843	2.5
730.594	3.5
731.346	1.5
732.097	1.5
732.848	3.5
733.599	3.5
734.35	1.5
735.101	1.5
735.852	2.5
736.603	1.5
737.354	2.5
738.104	2.5
738.855	1.5
739.605	2.5
740.356	0.5
741.106	2.5
741.856	2.5
742.607	3.5
743.357	1.5
744.107	2.5
744.857	2.5
745.607	1.5
746.357	1.5
747.106	2.5
747.856	3.5
748.606	2.5
749.355	3.5
750.105	2.5
750.854	3.5
751.603	3.5
752.353	4.5
753.102	5.5
753.851	2.5
754.6	0.5
755.349	4.5
756.098	3.5
756.847	4.5
757.595	2.5
758.344	2.5
759.093	5.5
759.841	2.5
760.589	2.5
761.338	4.5
762.086	3.5
762.834	2.5
763.582	3.5
764.331	1.5
765.079	3.5
765.826	2.5
766.574	2.5
767.322	4.5
768.07	3.5
768.817	5.5
769.565	3.5
770.312	2.5
771.06	4.5
771.807	5.5
772.554	4.5
773.302	2.5
774.049	5.5
774.796	5.5
775.543	5.5
776.29	7.5
777.036	2.5
777.783	2.5
778.53	5.5
779.276	5.5
780.023	6.5
780.769	5.5
781.516	4.5
782.262	4.5
783.008	4.5
783.754	5.5
784.5	6.5
785.246	4.5
785.992	3.5
786.738	3.5
787.484	5.5
788.23	5.5
788.975	3.5
789.721	5.5
790.466	5.5
791.212	6.5
791.957	5.5
792.702	5.5
793.447	8.5
794.193	5.5
794.938	4.5
795.683	6.5
796.427	4.5
797.172	5.5
797.917	2.5
798.662	6.5
799.406	5.5
800.151	6.5
800.895	5.5
801.64	3.5
802.384	8.5
803.128	5.5
803.872	3.5
804.616	4.5
805.36	3.5
806.104	5.5
806.848	2.5
807.592	4.5
808.336	4.5
809.079	5.5
809.823	2.5
810.566	1.5
811.31	3.5
812.053	4.5
812.796	5.5
813.539	3.5
814.283	4.5
815.026	2.5
815.769	4.5
816.511	5.5
817.254	4.5
817.997	4.5
818.74	4.5
819.482	3.5
820.225	2.5
820.967	4.5
821.71	2.5
822.452	3.5
823.194	3.5
823.936	3.5
824.678	0.5
825.42	3.5
826.162	1.5
826.904	2.5
827.646	-0.5
828.388	3.5
829.129	2.5
829.871	3.5
830.612	1.5
831.354	3.5
832.095	5.5
832.836	3.5
833.577	2.5
834.319	3.5
835.06	1.5
835.801	2.5
836.542	4.5
837.282	2.5
838.023	2.5
838.764	2.5
839.504	3.5
840.245	2.5
840.985	5.5
841.726	1.5
842.466	4.5
843.206	3.5
843.946	2.5
844.687	2.5
845.427	2.5
846.166	0.5
846.906	0.5
847.646	2.5
848.386	-1.5
849.125	4.5
849.865	-0.5
850.605	0.5
851.344	0.5
852.083	3.5
852.823	3.5
853.562	3.5
854.301	3.5
855.04	2.5
855.779	1.5
856.518	2.5
857.257	2.5
857.995	1.5
858.734	0.5
859.473	1.5
860.211	0.5
860.95	1.5
861.688	2.5
862.426	1.5
863.165	1.5
863.903	2.5
864.641	4.5
865.379	0.5
866.117	1.5
866.855	2.5
867.593	2.5
868.33	2.5
869.068	2.5
869.806	1.5
870.543	0.5
871.28	1.5
872.018	2.5
872.755	0.5
873.492	2.5
874.229	2.5
874.967	1.5
875.703	1.5
876.44	0.5
877.177	3.5
877.914	1.5
878.651	1.5
879.387	0.5
880.124	0.5
880.86	0.5
881.597	1.5
882.333	1.5
883.069	1.5
883.806	1.5
884.542	1.5
885.278	-0.5
886.014	2.5
886.749	0.5
887.485	-0.5
888.221	1.5
888.957	-0.5
889.692	1.5
890.428	1.5
891.163	3.5
891.899	0.5
892.634	1.5
893.369	1.5
894.104	2.5
894.839	2.5
895.574	-0.5
896.309	1.5
897.044	1.5
897.779	2.5
898.514	1.5
899.248	1.5
899.983	2.5
900.717	2.5
901.452	2.5
902.186	2.5
902.92	0.5
903.654	0.5
904.389	4.5
905.123	0.5
905.857	0.5
906.59	1.5
907.324	-0.5
908.058	-0.5
908.792	-1.5
909.525	0.5
910.259	2.5
910.992	1.5
911.726	1.5
912.459	0.5
913.192	1.5
913.925	1.5
914.658	-1.5
915.391	1.5
916.124	0.5
916.857	0.5
917.59	1.5
918.323	0.5
919.055	1.5
919.788	1.5
920.521	1.5
921.253	-0.5
921.985	1.5
922.718	0.5
923.45	-0.5
924.182	2.5
924.914	2.5
925.646	1.5
926.378	1.5
927.11	0.5
927.841	-1.5
928.573	2.5
929.305	1.5
930.036	1.5
930.768	-0.5
931.499	-1.5
932.23	1.5
932.962	2.5
933.693	-1.5
934.424	2.5
935.155	-1.5
935.886	1.5
936.617	1.5
937.348	0.5
938.078	0.5
938.809	-1.5
939.54	0.5
940.27	-1.5
941.001	0.5
941.731	-1.5
942.461	0.5
943.191	1.5
943.922	0.5
944.652	1.5
945.382	-2.5
946.112	2.5
946.841	1.5
947.571	-2.5
948.301	-0.5
949.031	-1.5
949.76	-0.5
950.49	1.5
951.219	1.5
951.948	1.5
952.678	2.5
953.407	-1.5
954.136	-1.5
954.865	0.5
955.594	1.5
956.323	1.5
957.052	0.5
957.78	0.5
958.509	0.5
959.238	-1.5
959.966	2.5
960.695	-0.5
961.423	2.5
962.151	2.5
962.88	1.5
963.608	1.5
964.336	0.5
965.064	1.5
965.792	2.5
966.52	-0.5
967.247	0.5
967.975	0.5
968.703	1.5
969.43	1.5
970.158	2.5
970.885	2.5
971.613	0.5
972.34	1.5
973.067	-1.5
973.794	0.5
974.521	2.5
975.248	-0.5
975.975	-0.5
976.702	0.5
977.429	0.5
978.156	1.5
978.882	1.5
979.609	0.5
980.335	0.5
981.062	0.5
981.788	-0.5
982.514	1.5
983.24	-0.5
983.967	1.5
984.693	1.5
985.419	1.5
986.144	-0.5
986.87	1.5
987.596	0.5
988.322	1.5
989.047	-1.5
989.773	1.5
990.498	0.5
991.224	2.5
991.949	1.5
992.674	-0.5
993.399	-0.5
994.124	1.5
994.849	1.5
995.574	1.5
996.299	-0.5
997.024	0.5
997.749	0.5
998.473	-1.5
999.198	-1.5
999.922	1.5
1000.647	0.5
1001.371	2.5
1002.095	-1.5
1002.82	-0.5
1003.544	-2.5
1004.268	0.5
1004.992	1.5
1005.716	1.5
1006.439	-0.5
1007.163	1.5
1007.887	0.5
1008.611	-0.5
1009.334	1.5
1010.058	0.5
1010.781	1.5
1011.504	2.5
1012.228	0.5
1012.951	0.5
1013.674	0.5
1014.397	-0.5
1015.12	1.5
