节点500_145_QEPB04081__321__11-34-05-486.txt的数据

Date: Wed Nov 12 11:34:05 CST 2025
User: PC
Spectrometer: QEPB0408
触发模式: 0
积分时间 (秒): 1.000000E-2
Scans to average: 1
启用暗噪声校正: true
启用非线性校正: false
滑动平均宽度: 0
X轴模式: Wavelengths
Number of Pixels in Spectrum: 1044
>>>>>Begin Spectral Data<<<<<
220.843	0.62
221.644	-1.38
222.444	1.62
223.244	1.62
224.045	-1.38
224.845	0.62
225.645	1.62
226.445	0.62
227.245	1.62
228.045	-1.38
228.845	-0.38
229.645	-3.38
230.444	1.62
231.244	-0.38
232.043	2.62
232.843	0.62
233.642	1.62
234.442	2.62
235.241	0.62
236.04	1.62
236.839	0.62
237.638	1.62
238.437	1.62
239.236	1.62
240.035	2.62
240.833	0.62
241.632	1.62
242.43	3.62
243.229	2.62
244.027	0.62
244.826	0.62
245.624	0.62
246.422	1.62
247.22	2.62
248.018	2.62
248.816	3.62
249.614	3.62
250.412	2.62
251.21	0.62
252.007	2.62
252.805	4.62
253.602	3.62
254.4	1.62
255.197	1.62
255.994	3.62
256.791	2.62
257.589	3.62
258.386	4.62
259.183	3.62
259.979	3.62
260.776	3.62
261.573	3.62
262.37	8.62
263.166	5.62
263.963	4.62
264.759	7.62
265.556	6.62
266.352	7.62
267.148	6.62
267.944	7.62
268.74	5.62
269.536	5.62
270.332	7.62
271.128	6.62
271.924	7.62
272.719	9.62
273.515	11.62
274.311	7.62
275.106	7.62
275.901	9.62
276.697	8.62
277.492	10.62
278.287	9.62
279.082	9.62
279.877	8.62
280.672	10.62
281.467	9.62
282.262	9.62
283.056	8.62
283.851	7.62
284.646	12.62
285.44	8.62
286.234	12.62
287.029	10.62
287.823	10.62
288.617	8.62
289.411	9.62
290.205	10.62
290.999	8.62
291.793	10.62
292.587	11.62
293.381	10.62
294.174	10.62
294.968	10.62
295.761	9.62
296.555	8.62
297.348	10.62
298.141	8.62
298.935	9.62
299.728	9.62
300.521	6.62
301.314	8.62
302.107	8.62
302.899	10.62
303.692	8.62
304.485	6.62
305.277	9.62
306.07	7.62
306.862	8.62
307.655	7.62
308.447	7.62
309.239	7.62
310.031	5.62
310.823	6.62
311.615	8.62
312.407	9.62
313.199	9.62
313.991	3.62
314.783	6.62
315.574	5.62
316.366	5.62
317.157	5.62
317.949	4.62
318.74	4.62
319.531	7.62
320.322	5.62
321.113	1.62
321.904	7.62
322.695	1.62
323.486	6.62
324.277	4.62
325.068	2.62
325.858	5.62
326.649	3.62
327.439	5.62
328.23	2.62
329.02	4.62
329.81	6.62
330.6	3.62
331.391	4.62
332.181	3.62
332.971	4.62
333.76	3.62
334.55	5.62
335.34	3.62
336.13	3.62
336.919	3.62
337.709	3.62
338.498	3.62
339.287	3.62
340.077	4.62
340.866	4.62
341.655	4.62
342.444	1.62
343.233	2.62
344.022	4.62
344.811	2.62
345.6	3.62
346.388	2.62
347.177	2.62
347.965	4.62
348.754	4.62
349.542	4.62
350.33	4.62
351.119	4.62
351.907	3.62
352.695	4.62
353.483	2.62
354.271	2.62
355.059	3.62
355.846	2.62
356.634	3.62
357.422	2.62
358.209	3.62
358.997	1.62
359.784	3.62
360.571	2.62
361.359	1.62
362.146	6.62
362.933	5.62
363.72	4.62
364.507	1.62
365.294	0.62
366.081	5.62
366.867	4.62
367.654	0.62
368.44	2.62
369.227	1.62
370.013	3.62
370.8	1.62
371.586	1.62
372.372	3.62
373.158	1.62
373.944	2.62
374.73	1.62
375.516	2.62
376.302	0.62
377.088	3.62
377.873	2.62
378.659	0.62
379.445	2.62
380.23	1.62
381.015	3.62
381.801	0.62
382.586	4.62
383.371	3.62
384.156	3.62
384.941	3.62
385.726	2.62
386.511	3.62
387.296	3.62
388.08	3.62
388.865	2.62
389.649	1.62
390.434	3.62
391.218	4.62
392.003	5.62
392.787	3.62
393.571	3.62
394.355	3.62
395.139	2.62
395.923	2.62
396.707	3.62
397.491	2.62
398.274	1.62
399.058	3.62
399.842	2.62
400.625	1.62
401.408	6.62
402.192	3.62
402.975	3.62
403.758	8.62
404.541	4.62
405.324	4.62
406.107	2.62
406.89	2.62
407.673	1.62
408.456	3.62
409.238	4.62
410.021	5.62
410.803	4.62
411.586	3.62
412.368	4.62
413.151	6.62
413.933	5.62
414.715	5.62
415.497	6.62
416.279	4.62
417.061	5.62
417.843	6.62
418.624	5.62
419.406	6.62
420.188	6.62
420.969	5.62
421.751	8.62
422.532	5.62
423.313	6.62
424.095	7.62
424.876	5.62
425.657	7.62
426.438	7.62
427.219	4.62
428	7.62
428.78	8.62
429.561	5.62
430.342	6.62
431.122	7.62
431.903	8.62
432.683	7.62
433.464	6.62
434.244	9.62
435.024	9.62
435.804	10.62
436.584	9.62
437.364	8.62
438.144	10.62
438.924	13.62
439.704	13.62
440.483	11.62
441.263	10.62
442.042	14.62
442.822	13.62
443.601	15.62
444.38	14.62
445.16	13.62
445.939	13.62
446.718	17.62
447.497	19.62
448.276	19.62
449.054	24.62
449.833	23.62
450.612	25.62
451.391	24.62
452.169	29.62
452.948	30.62
453.726	31.62
454.504	38.62
455.282	38.62
456.061	42.62
456.839	51.62
457.617	56.62
458.395	62.62
459.172	69.62
459.95	74.62
460.728	80.62
461.506	90.62
462.283	103.62
463.061	111.62
463.838	126.62
464.615	141.62
465.393	152.62
466.17	175.62
466.947	192.62
467.724	218.62
468.501	245.62
469.278	265.62
470.055	297.62
470.831	326.62
471.608	368.62
472.385	403.62
473.161	451.62
473.938	510.62
474.714	562.62
475.49	619.62
476.266	694.62
477.043	771.62
477.819	856.62
478.595	931.62
479.371	1039.62
480.146	1134.62
480.922	1258.62
481.698	1408.62
482.473	1544.62
483.249	1687.62
484.024	1875.62
484.8	2063.62
485.575	2265.62
486.35	2488.62
487.126	2736.62
487.901	3022.62
488.676	3335.62
489.451	3672.62
490.225	4011.62
491	4410.62
491.775	4849.62
492.55	5304.62
493.324	5805.62
494.099	6361.62
494.873	6929.62
495.647	7531.62
496.422	8194.62
497.196	8870.62
497.97	9586.62
498.744	10276.62
499.518	11026.62
500.292	11780.62
501.066	12473.62
501.839	13147.62
502.613	13843.62
503.387	14429.62
504.16	15038.62
504.934	15421.62
505.707	15858.62
506.48	16077.62
507.253	16231.62
508.027	16305.62
508.8	16249.62
509.573	16123.62
510.346	15903.62
511.118	15578.62
511.891	15225.62
512.664	14757.62
513.437	14227.62
514.209	13713.62
514.982	13194.62
515.754	12650.62
516.526	12108.62
517.298	11591.62
518.071	11046.62
518.843	10601.62
519.615	10129.62
520.387	9704.62
521.159	9333.62
521.93	8932.62
522.702	8595.62
523.474	8262.62
524.245	7929.62
525.017	7599.62
525.788	7315.62
526.56	7024.62
527.331	6724.62
528.102	6442.62
528.873	6168.62
529.644	5882.62
530.415	5607.62
531.186	5333.62
531.957	5056.62
532.728	4801.62
533.498	4537.62
534.269	4303.62
535.039	4062.62
535.81	3849.62
536.58	3639.62
537.351	3413.62
538.121	3249.62
538.891	3074.62
539.661	2901.62
540.431	2747.62
541.201	2587.62
541.971	2454.62
542.741	2332.62
543.51	2196.62
544.28	2080.62
545.05	1989.62
545.819	1885.62
546.588	1797.62
547.358	1709.62
548.127	1632.62
548.896	1553.62
549.665	1465.62
550.434	1393.62
551.203	1325.62
551.972	1252.62
552.741	1189.62
553.51	1118.62
554.278	1064.62
555.047	1014.62
555.815	938.62
556.584	891.62
557.352	844.62
558.121	780.62
558.889	749.62
559.657	711.62
560.425	661.62
561.193	635.62
561.961	603.62
562.729	557.62
563.496	526.62
564.264	498.62
565.032	477.62
565.799	436.62
566.567	411.62
567.334	397.62
568.101	375.62
568.869	350.62
569.636	335.62
570.403	315.62
571.17	290.62
571.937	282.62
572.704	264.62
573.471	242.62
574.237	234.62
575.004	225.62
575.771	205.62
576.537	196.62
577.303	184.62
578.07	169.62
578.836	158.62
579.602	153.62
580.368	144.62
581.134	139.62
581.9	132.62
582.666	126.62
583.432	114.62
584.198	104.62
584.964	106.62
585.729	94.62
586.495	93.62
587.26	88.62
588.025	81.62
588.791	77.62
589.556	72.62
590.321	71.62
591.086	67.62
591.851	60.62
592.616	57.62
593.381	55.62
594.146	52.62
594.911	50.62
595.675	52.62
596.44	46.62
597.204	43.62
597.969	42.62
598.733	43.62
599.497	40.62
600.261	37.62
601.025	38.62
601.79	33.62
602.553	30.62
603.317	30.62
604.081	27.62
604.845	28.62
605.609	28.62
606.372	27.62
607.136	26.62
607.899	24.62
608.662	22.62
609.426	19.62
610.189	24.62
610.952	21.62
611.715	21.62
612.478	20.62
613.241	19.62
614.004	16.62
614.767	15.62
615.529	15.62
616.292	14.62
617.055	14.62
617.817	13.62
618.579	14.62
619.342	12.62
620.104	12.62
620.866	12.62
621.628	12.62
622.39	11.62
623.152	10.62
623.914	11.62
624.676	10.62
625.438	8.62
626.199	8.62
626.961	9.62
627.722	10.62
628.484	8.62
629.245	9.62
630.006	8.62
630.768	5.62
631.529	6.62
632.29	7.62
633.051	9.62
633.812	7.62
634.573	6.62
635.333	7.62
636.094	5.62
636.855	5.62
637.615	5.62
638.376	4.62
639.136	7.62
639.896	4.62
640.657	3.62
641.417	6.62
642.177	5.62
642.937	2.62
643.697	4.62
644.457	4.62
645.216	5.62
645.976	3.62
646.736	6.62
647.495	6.62
648.255	4.62
649.014	2.62
649.774	4.62
650.533	7.62
651.292	4.62
652.051	2.62
652.81	1.62
653.569	5.62
654.328	2.62
655.087	3.62
655.846	3.62
656.604	5.62
657.363	2.62
658.121	5.62
658.88	1.62
659.638	1.62
660.397	2.62
661.155	2.62
661.913	4.62
662.671	3.62
663.429	4.62
664.187	3.62
664.945	1.62
665.703	6.62
666.46	3.62
667.218	2.62
667.976	1.62
668.733	4.62
669.49	4.62
670.248	3.62
671.005	3.62
671.762	1.62
672.519	3.62
673.276	2.62
674.033	2.62
674.79	1.62
675.547	2.62
676.304	1.62
677.06	2.62
677.817	0.62
678.574	1.62
679.33	4.62
680.086	1.62
680.843	3.62
681.599	2.62
682.355	1.62
683.111	4.62
683.867	2.62
684.623	4.62
685.379	2.62
686.135	1.62
686.89	2.62
687.646	2.62
688.402	2.62
689.157	2.62
689.912	2.62
690.668	1.62
691.423	0.62
692.178	3.62
692.933	2.62
693.688	2.62
694.443	3.62
695.198	3.62
695.953	0.62
696.708	1.62
697.462	3.62
698.217	0.62
698.972	1.62
699.726	3.62
700.48	0.62
701.235	2.62
701.989	1.62
702.743	2.62
703.497	1.62
704.251	2.62
705.005	4.62
705.759	1.62
706.513	1.62
707.266	0.62
708.02	1.62
708.774	2.62
709.527	1.62
710.28	2.62
711.034	0.62
711.787	1.62
712.54	0.62
713.293	3.62
714.046	-0.38
714.799	1.62
715.552	3.62
716.305	2.62
717.058	2.62
717.81	1.62
718.563	3.62
719.315	2.62
720.068	2.62
720.82	1.62
721.573	2.62
722.325	3.62
723.077	1.62
723.829	2.62
724.581	3.62
725.333	1.62
726.085	2.62
726.836	-0.38
727.588	1.62
728.34	2.62
729.091	2.62
729.843	1.62
730.594	4.62
731.346	1.62
732.097	0.62
732.848	3.62
733.599	1.62
734.35	3.62
735.101	1.62
735.852	1.62
736.603	1.62
737.354	3.62
738.104	2.62
738.855	2.62
739.605	3.62
740.356	2.62
741.106	3.62
741.856	1.62
742.607	1.62
743.357	0.62
744.107	3.62
744.857	3.62
745.607	1.62
746.357	2.62
747.106	4.62
747.856	2.62
748.606	1.62
749.355	2.62
750.105	3.62
750.854	2.62
751.603	1.62
752.353	4.62
753.102	2.62
753.851	4.62
754.6	3.62
755.349	4.62
756.098	2.62
756.847	1.62
757.595	2.62
758.344	2.62
759.093	2.62
759.841	3.62
760.589	5.62
761.338	5.62
762.086	2.62
762.834	3.62
763.582	2.62
764.331	3.62
765.079	2.62
765.826	0.62
766.574	4.62
767.322	3.62
768.07	4.62
768.817	3.62
769.565	3.62
770.312	3.62
771.06	2.62
771.807	3.62
772.554	4.62
773.302	5.62
774.049	5.62
774.796	6.62
775.543	4.62
776.29	3.62
777.036	6.62
777.783	3.62
778.53	4.62
779.276	4.62
780.023	5.62
780.769	4.62
781.516	4.62
782.262	2.62
783.008	4.62
783.754	5.62
784.5	4.62
785.246	3.62
785.992	5.62
786.738	5.62
787.484	5.62
788.23	2.62
788.975	6.62
789.721	2.62
790.466	3.62
791.212	5.62
791.957	3.62
792.702	4.62
793.447	4.62
794.193	5.62
794.938	3.62
795.683	3.62
796.427	5.62
797.172	4.62
797.917	3.62
798.662	5.62
799.406	5.62
800.151	5.62
800.895	3.62
801.64	5.62
802.384	5.62
803.128	5.62
803.872	2.62
804.616	3.62
805.36	6.62
806.104	4.62
806.848	5.62
807.592	3.62
808.336	7.62
809.079	4.62
809.823	2.62
810.566	3.62
811.31	1.62
812.053	6.62
812.796	5.62
813.539	4.62
814.283	3.62
815.026	3.62
815.769	4.62
816.511	3.62
817.254	1.62
817.997	2.62
818.74	3.62
819.482	0.62
820.225	3.62
820.967	3.62
821.71	2.62
822.452	3.62
823.194	0.62
823.936	2.62
824.678	2.62
825.42	3.62
826.162	4.62
826.904	3.62
827.646	2.62
828.388	-0.38
829.129	2.62
829.871	3.62
830.612	2.62
831.354	3.62
832.095	3.62
832.836	1.62
833.577	2.62
834.319	1.62
835.06	2.62
835.801	3.62
836.542	3.62
837.282	3.62
838.023	2.62
838.764	2.62
839.504	1.62
840.245	3.62
840.985	2.62
841.726	2.62
842.466	2.62
843.206	3.62
843.946	2.62
844.687	1.62
845.427	0.62
846.166	2.62
846.906	2.62
847.646	2.62
848.386	3.62
849.125	2.62
849.865	1.62
850.605	0.62
851.344	3.62
852.083	1.62
852.823	2.62
853.562	1.62
854.301	1.62
855.04	1.62
855.779	2.62
856.518	3.62
857.257	3.62
857.995	2.62
858.734	1.62
859.473	-0.38
860.211	1.62
860.95	1.62
861.688	1.62
862.426	1.62
863.165	5.62
863.903	1.62
864.641	2.62
865.379	2.62
866.117	-1.38
866.855	2.62
867.593	1.62
868.33	1.62
869.068	4.62
869.806	1.62
870.543	2.62
871.28	0.62
872.018	1.62
872.755	1.62
873.492	0.62
874.229	1.62
874.967	-1.38
875.703	-0.38
876.44	0.62
877.177	1.62
877.914	-0.38
878.651	0.62
879.387	3.62
880.124	2.62
880.86	1.62
881.597	3.62
882.333	0.62
883.069	2.62
883.806	-0.38
884.542	1.62
885.278	-1.38
886.014	1.62
886.749	2.62
887.485	1.62
888.221	-0.38
888.957	1.62
889.692	0.62
890.428	0.62
891.163	0.62
891.899	0.62
892.634	-0.38
893.369	0.62
894.104	-0.38
894.839	2.62
895.574	1.62
896.309	1.62
897.044	-1.38
897.779	-0.38
898.514	1.62
899.248	1.62
899.983	1.62
900.717	0.62
901.452	-0.38
902.186	1.62
902.92	-1.38
903.654	0.62
904.389	2.62
905.123	1.62
905.857	0.62
906.59	1.62
907.324	0.62
908.058	2.62
908.792	0.62
909.525	2.62
910.259	2.62
910.992	0.62
911.726	0.62
912.459	2.62
913.192	-0.38
913.925	-0.38
914.658	0.62
915.391	1.62
916.124	0.62
916.857	-2.38
917.59	-0.38
918.323	1.62
919.055	-1.38
919.788	1.62
920.521	1.62
921.253	1.62
921.985	1.62
922.718	0.62
923.45	1.62
924.182	-0.38
924.914	0.62
925.646	1.62
926.378	0.62
927.11	1.62
927.841	0.62
928.573	1.62
929.305	0.62
930.036	0.62
930.768	0.62
931.499	-0.38
932.23	1.62
932.962	2.62
933.693	-0.38
934.424	0.62
935.155	1.62
935.886	1.62
936.617	1.62
937.348	1.62
938.078	1.62
938.809	1.62
939.54	2.62
940.27	0.62
941.001	0.62
941.731	-1.38
942.461	-0.38
943.191	-0.38
943.922	-0.38
944.652	2.62
945.382	-0.38
946.112	0.62
946.841	-0.38
947.571	-2.38
948.301	1.62
949.031	-0.38
949.76	1.62
950.49	-1.38
951.219	-0.38
951.948	0.62
952.678	2.62
953.407	-1.38
954.136	-1.38
954.865	0.62
955.594	-1.38
956.323	-0.38
957.052	0.62
957.78	1.62
958.509	-2.38
959.238	1.62
959.966	0.62
960.695	1.62
961.423	0.62
962.151	-1.38
962.88	1.62
963.608	1.62
964.336	-1.38
965.064	2.62
965.792	1.62
966.52	-1.38
967.247	-1.38
967.975	2.62
968.703	0.62
969.43	1.62
970.158	1.62
970.885	-2.38
971.613	1.62
972.34	-0.38
973.067	-0.38
973.794	-0.38
974.521	0.62
975.248	0.62
975.975	-0.38
976.702	1.62
977.429	-0.38
978.156	1.62
978.882	0.62
979.609	0.62
980.335	2.62
981.062	0.62
981.788	-1.38
982.514	0.62
983.24	-0.38
983.967	-1.38
984.693	-1.38
985.419	1.62
986.144	1.62
986.87	0.62
987.596	0.62
988.322	0.62
989.047	1.62
989.773	-1.38
990.498	1.62
991.224	1.62
991.949	1.62
992.674	0.62
993.399	-0.38
994.124	0.62
994.849	1.62
995.574	-0.38
996.299	-0.38
997.024	0.62
997.749	2.62
998.473	0.62
999.198	-0.38
999.922	0.62
1000.647	-1.38
1001.371	2.62
1002.095	-1.38
1002.82	-0.38
1003.544	-1.38
1004.268	-0.38
1004.992	-2.38
1005.716	-0.38
1006.439	-0.38
1007.163	0.62
1007.887	1.62
1008.611	1.62
1009.334	-0.38
1010.058	-0.38
1010.781	0.62
1011.504	-1.38
1012.228	-0.38
1012.951	0.62
1013.674	-0.38
1014.397	1.62
1015.12	-1.38
