节点500_145_QEPB04081__432__11-35-51-544.txt的数据

Date: Wed Nov 12 11:35:51 CST 2025
User: PC
Spectrometer: QEPB0408
触发模式: 0
积分时间 (秒): 1.000000E-2
Scans to average: 1
启用暗噪声校正: true
启用非线性校正: false
滑动平均宽度: 0
X轴模式: Wavelengths
Number of Pixels in Spectrum: 1044
>>>>>Begin Spectral Data<<<<<
220.843	-1
221.644	0
222.444	-1
223.244	-2
224.045	1
224.845	0
225.645	-1
226.445	-1
227.245	1
228.045	-1
228.845	2
229.645	0
230.444	0
231.244	0
232.043	1
232.843	4
233.642	2
234.442	-1
235.241	1
236.04	2
236.839	0
237.638	-3
238.437	1
239.236	-2
240.035	2
240.833	3
241.632	-1
242.43	1
243.229	0
244.027	0
244.826	4
245.624	3
246.422	2
247.22	2
248.018	2
248.816	2
249.614	4
250.412	1
251.21	1
252.007	1
252.805	1
253.602	3
254.4	-1
255.197	3
255.994	2
256.791	4
257.589	6
258.386	3
259.183	4
259.979	4
260.776	3
261.573	2
262.37	4
263.166	5
263.963	6
264.759	5
265.556	6
266.352	5
267.148	4
267.944	6
268.74	6
269.536	10
270.332	6
271.128	8
271.924	5
272.719	6
273.515	9
274.311	7
275.106	10
275.901	7
276.697	9
277.492	8
278.287	9
279.082	9
279.877	8
280.672	9
281.467	10
282.262	11
283.056	10
283.851	8
284.646	11
285.44	10
286.234	9
287.029	12
287.823	12
288.617	12
289.411	9
290.205	10
290.999	11
291.793	7
292.587	13
293.381	10
294.174	12
294.968	9
295.761	10
296.555	10
297.348	10
298.141	9
298.935	9
299.728	10
300.521	8
301.314	9
302.107	6
302.899	9
303.692	7
304.485	8
305.277	7
306.07	7
306.862	7
307.655	8
308.447	7
309.239	7
310.031	5
310.823	9
311.615	9
312.407	7
313.199	5
313.991	5
314.783	5
315.574	3
316.366	5
317.157	3
317.949	5
318.74	6
319.531	4
320.322	4
321.113	5
321.904	4
322.695	4
323.486	3
324.277	4
325.068	4
325.858	5
326.649	2
327.439	3
328.23	4
329.02	5
329.81	4
330.6	4
331.391	4
332.181	2
332.971	1
333.76	4
334.55	6
335.34	4
336.13	3
336.919	3
337.709	3
338.498	3
339.287	4
340.077	4
340.866	7
341.655	2
342.444	4
343.233	2
344.022	5
344.811	3
345.6	5
346.388	2
347.177	1
347.965	5
348.754	3
349.542	3
350.33	2
351.119	2
351.907	1
352.695	2
353.483	3
354.271	2
355.059	3
355.846	3
356.634	2
357.422	3
358.209	0
358.997	4
359.784	1
360.571	3
361.359	4
362.146	4
362.933	2
363.72	1
364.507	2
365.294	3
366.081	2
366.867	3
367.654	2
368.44	3
369.227	1
370.013	4
370.8	3
371.586	3
372.372	1
373.158	3
373.944	3
374.73	1
375.516	5
376.302	1
377.088	1
377.873	4
378.659	3
379.445	2
380.23	3
381.015	3
381.801	2
382.586	3
383.371	3
384.156	6
384.941	3
385.726	1
386.511	2
387.296	3
388.08	3
388.865	3
389.649	2
390.434	3
391.218	1
392.003	6
392.787	3
393.571	6
394.355	3
395.139	4
395.923	2
396.707	4
397.491	4
398.274	4
399.058	4
399.842	5
400.625	1
401.408	5
402.192	3
402.975	4
403.758	2
404.541	3
405.324	3
406.107	3
406.89	2
407.673	5
408.456	5
409.238	4
410.021	3
410.803	5
411.586	4
412.368	5
413.151	5
413.933	4
414.715	4
415.497	5
416.279	3
417.061	3
417.843	8
418.624	4
419.406	6
420.188	6
420.969	5
421.751	4
422.532	5
423.313	7
424.095	4
424.876	5
425.657	8
426.438	4
427.219	8
428	9
428.78	7
429.561	8
430.342	5
431.122	8
431.903	6
432.683	7
433.464	9
434.244	12
435.024	10
435.804	9
436.584	9
437.364	7
438.144	10
438.924	10
439.704	9
440.483	14
441.263	12
442.042	13
442.822	12
443.601	14
444.38	16
445.16	14
445.939	16
446.718	16
447.497	20
448.276	21
449.054	21
449.833	24
450.612	24
451.391	29
452.169	29
452.948	37
453.726	33
454.504	44
455.282	40
456.061	47
456.839	49
457.617	57
458.395	61
459.172	67
459.95	78
460.728	85
461.506	93
462.283	106
463.061	117
463.838	134
464.615	146
465.393	163
466.17	183
466.947	199
467.724	226
468.501	250
469.278	276
470.055	305
470.831	344
471.608	389
472.385	430
473.161	472
473.938	521
474.714	585
475.49	649
476.266	704
477.043	781
477.819	864
478.595	956
479.371	1031
480.146	1172
480.922	1274
481.698	1395
482.473	1546
483.249	1691
484.024	1870
484.8	2045
485.575	2250
486.35	2474
487.126	2700
487.901	2980
488.676	3271
489.451	3586
490.225	3914
491	4313
491.775	4689
492.55	5147
493.324	5635
494.099	6158
494.873	6699
495.647	7284
496.422	7891
497.196	8542
497.97	9201
498.744	9864
499.518	10573
500.292	11321
501.066	12015
501.839	12672
502.613	13288
503.387	13891
504.16	14460
504.934	14932
505.707	15303
506.48	15602
507.253	15848
508.027	16026
508.8	16063
509.573	15960
510.346	15738
511.118	15502
511.891	15137
512.664	14734
513.437	14312
514.209	13822
514.982	13274
515.754	12758
516.526	12268
517.298	11691
518.071	11186
518.843	10742
519.615	10252
520.387	9842
521.159	9466
521.93	9073
522.702	8704
523.474	8391
524.245	8067
525.017	7708
525.788	7443
526.56	7136
527.331	6849
528.102	6515
528.873	6282
529.644	5977
530.415	5727
531.186	5419
531.957	5197
532.728	4923
533.498	4662
534.269	4404
535.039	4193
535.81	3969
536.58	3763
537.351	3529
538.121	3347
538.891	3176
539.661	2974
540.431	2863
541.201	2679
541.971	2553
542.741	2398
543.51	2278
544.28	2148
545.05	2061
545.819	1959
546.588	1853
547.358	1752
548.127	1686
548.896	1604
549.665	1508
550.434	1433
551.203	1371
551.972	1287
552.741	1226
553.51	1155
554.278	1097
555.047	1033
555.815	967
556.584	933
557.352	871
558.121	817
558.889	775
559.657	730
560.425	690
561.193	657
561.961	621
562.729	583
563.496	544
564.264	513
565.032	493
565.799	465
566.567	432
567.334	407
568.101	396
568.869	362
569.636	350
570.403	318
571.17	308
571.937	292
572.704	268
573.471	260
574.237	241
575.004	227
575.771	212
576.537	202
577.303	185
578.07	179
578.836	168
579.602	164
580.368	151
581.134	142
581.9	133
582.666	123
583.432	121
584.198	117
584.964	110
585.729	105
586.495	96
587.26	93
588.025	86
588.791	82
589.556	74
590.321	75
591.086	69
591.851	65
592.616	63
593.381	58
594.146	58
594.911	55
595.675	52
596.44	46
597.204	46
597.969	44
598.733	43
599.497	40
600.261	38
601.025	35
601.79	37
602.553	33
603.317	33
604.081	29
604.845	25
605.609	26
606.372	27
607.136	25
607.899	29
608.662	22
609.426	23
610.189	20
610.952	20
611.715	20
612.478	20
613.241	21
614.004	17
614.767	17
615.529	16
616.292	14
617.055	15
617.817	14
618.579	13
619.342	11
620.104	10
620.866	12
621.628	10
622.39	13
623.152	11
623.914	11
624.676	9
625.438	10
626.199	11
626.961	11
627.722	8
628.484	6
629.245	9
630.006	8
630.768	6
631.529	5
632.29	4
633.051	7
633.812	6
634.573	6
635.333	7
636.094	7
636.855	6
637.615	6
638.376	7
639.136	5
639.896	4
640.657	5
641.417	5
642.177	7
642.937	2
643.697	4
644.457	5
645.216	5
645.976	5
646.736	4
647.495	6
648.255	3
649.014	2
649.774	5
650.533	2
651.292	1
652.051	1
652.81	5
653.569	3
654.328	4
655.087	3
655.846	2
656.604	4
657.363	1
658.121	4
658.88	2
659.638	4
660.397	3
661.155	2
661.913	4
662.671	1
663.429	3
664.187	3
664.945	2
665.703	1
666.46	4
667.218	2
667.976	4
668.733	1
669.49	0
670.248	-1
671.005	2
671.762	1
672.519	3
673.276	2
674.033	1
674.79	3
675.547	3
676.304	2
677.06	3
677.817	-1
678.574	1
679.33	2
680.086	1
680.843	3
681.599	1
682.355	1
683.111	2
683.867	3
684.623	4
685.379	0
686.135	0
686.89	1
687.646	0
688.402	1
689.157	-2
689.912	3
690.668	2
691.423	3
692.178	3
692.933	1
693.688	3
694.443	1
695.198	3
695.953	2
696.708	2
697.462	2
698.217	0
698.972	3
699.726	2
700.48	-2
701.235	2
701.989	1
702.743	1
703.497	-1
704.251	3
705.005	0
705.759	2
706.513	2
707.266	2
708.02	2
708.774	0
709.527	0
710.28	1
711.034	4
711.787	1
712.54	2
713.293	3
714.046	1
714.799	1
715.552	5
716.305	2
717.058	3
717.81	-1
718.563	1
719.315	1
720.068	3
720.82	2
721.573	1
722.325	2
723.077	2
723.829	3
724.581	1
725.333	0
726.085	2
726.836	0
727.588	1
728.34	2
729.091	4
729.843	2
730.594	1
731.346	-1
732.097	0
732.848	1
733.599	1
734.35	3
735.101	1
735.852	2
736.603	1
737.354	1
738.104	1
738.855	2
739.605	0
740.356	3
741.106	3
741.856	1
742.607	3
743.357	3
744.107	1
744.857	2
745.607	2
746.357	5
747.106	3
747.856	2
748.606	3
749.355	4
750.105	1
750.854	2
751.603	5
752.353	3
753.102	3
753.851	3
754.6	2
755.349	2
756.098	4
756.847	2
757.595	1
758.344	2
759.093	2
759.841	2
760.589	4
761.338	2
762.086	3
762.834	5
763.582	2
764.331	5
765.079	5
765.826	4
766.574	2
767.322	3
768.07	4
768.817	3
769.565	4
770.312	2
771.06	4
771.807	5
772.554	5
773.302	5
774.049	0
774.796	5
775.543	5
776.29	3
777.036	4
777.783	2
778.53	5
779.276	2
780.023	6
780.769	5
781.516	5
782.262	5
783.008	5
783.754	6
784.5	3
785.246	5
785.992	7
786.738	6
787.484	7
788.23	5
788.975	3
789.721	3
790.466	5
791.212	3
791.957	5
792.702	3
793.447	8
794.193	5
794.938	3
795.683	3
796.427	1
797.172	5
797.917	4
798.662	1
799.406	3
800.151	4
800.895	5
801.64	3
802.384	5
803.128	6
803.872	4
804.616	4
805.36	3
806.104	6
806.848	4
807.592	4
808.336	4
809.079	2
809.823	3
810.566	2
811.31	5
812.053	5
812.796	3
813.539	6
814.283	1
815.026	2
815.769	4
816.511	5
817.254	4
817.997	1
818.74	2
819.482	4
820.225	4
820.967	2
821.71	1
822.452	4
823.194	1
823.936	0
824.678	2
825.42	2
826.162	0
826.904	3
827.646	3
828.388	1
829.129	3
829.871	1
830.612	4
831.354	4
832.095	3
832.836	2
833.577	3
834.319	2
835.06	1
835.801	4
836.542	1
837.282	6
838.023	1
838.764	2
839.504	0
840.245	4
840.985	2
841.726	3
842.466	1
843.206	3
843.946	0
844.687	2
845.427	2
846.166	2
846.906	2
847.646	3
848.386	1
849.125	2
849.865	3
850.605	1
851.344	2
852.083	1
852.823	3
853.562	2
854.301	1
855.04	2
855.779	2
856.518	2
857.257	0
857.995	2
858.734	2
859.473	1
860.211	-1
860.95	1
861.688	1
862.426	3
863.165	1
863.903	1
864.641	1
865.379	2
866.117	1
866.855	3
867.593	0
868.33	1
869.068	2
869.806	2
870.543	2
871.28	1
872.018	2
872.755	3
873.492	1
874.229	3
874.967	-2
875.703	1
876.44	-2
877.177	1
877.914	0
878.651	2
879.387	1
880.124	0
880.86	0
881.597	-2
882.333	-2
883.069	1
883.806	-1
884.542	1
885.278	1
886.014	-1
886.749	1
887.485	0
888.221	-2
888.957	0
889.692	-1
890.428	1
891.163	0
891.899	-1
892.634	1
893.369	2
894.104	1
894.839	0
895.574	1
896.309	0
897.044	-2
897.779	-1
898.514	-2
899.248	0
899.983	-1
900.717	1
901.452	2
902.186	-2
902.92	2
903.654	-2
904.389	1
905.123	-2
905.857	1
906.59	1
907.324	1
908.058	1
908.792	0
909.525	1
910.259	0
910.992	0
911.726	0
912.459	-1
913.192	2
913.925	-1
914.658	-2
915.391	-1
916.124	-2
916.857	-2
917.59	-1
918.323	2
919.055	1
919.788	2
920.521	1
921.253	0
921.985	-2
922.718	2
923.45	-1
924.182	1
924.914	-1
925.646	0
926.378	-2
927.11	1
927.841	-1
928.573	-1
929.305	0
930.036	-1
930.768	0
931.499	1
932.23	-1
932.962	-1
933.693	0
934.424	1
935.155	0
935.886	2
936.617	-2
937.348	2
938.078	-3
938.809	0
939.54	0
940.27	-1
941.001	-1
941.731	-1
942.461	0
943.191	-1
943.922	1
944.652	0
945.382	1
946.112	-1
946.841	-1
947.571	-1
948.301	-1
949.031	-3
949.76	-3
950.49	-2
951.219	0
951.948	-1
952.678	-1
953.407	-1
954.136	0
954.865	0
955.594	-1
956.323	3
957.052	-1
957.78	0
958.509	-2
959.238	0
959.966	-2
960.695	1
961.423	0
962.151	0
962.88	0
963.608	1
964.336	0
965.064	0
965.792	-2
966.52	1
967.247	1
967.975	1
968.703	-1
969.43	0
970.158	1
970.885	-3
971.613	1
972.34	-2
973.067	-1
973.794	-2
974.521	-2
975.248	2
975.975	0
976.702	0
977.429	1
978.156	1
978.882	1
979.609	-1
980.335	-2
981.062	0
981.788	0
982.514	0
983.24	1
983.967	-1
984.693	-1
985.419	3
986.144	-2
986.87	0
987.596	0
988.322	2
989.047	0
989.773	0
990.498	1
991.224	-3
991.949	0
992.674	-2
993.399	-2
994.124	0
994.849	1
995.574	0
996.299	1
997.024	-2
997.749	-1
998.473	1
999.198	1
999.922	2
1000.647	0
1001.371	3
1002.095	1
1002.82	-1
1003.544	-2
1004.268	1
1004.992	-1
1005.716	1
1006.439	-2
1007.163	-1
1007.887	-1
1008.611	0
1009.334	1
1010.058	2
1010.781	0
1011.504	2
1012.228	0
1012.951	0
1013.674	0
1014.397	0
1015.12	-1
