节点500_145_QEPB04081__155__11-31-25-602.txt的数据

Date: Wed Nov 12 11:31:25 CST 2025
User: PC
Spectrometer: QEPB0408
触发模式: 0
积分时间 (秒): 1.000000E-2
Scans to average: 1
启用暗噪声校正: true
启用非线性校正: false
滑动平均宽度: 0
X轴模式: Wavelengths
Number of Pixels in Spectrum: 1044
>>>>>Begin Spectral Data<<<<<
220.843	0.25
221.644	0.25
222.444	0.25
223.244	-2.75
224.045	1.25
224.845	-0.75
225.645	1.25
226.445	1.25
227.245	0.25
228.045	-0.75
228.845	1.25
229.645	-0.75
230.444	2.25
231.244	1.25
232.043	0.25
232.843	0.25
233.642	1.25
234.442	0.25
235.241	-0.75
236.04	2.25
236.839	2.25
237.638	1.25
238.437	2.25
239.236	-0.75
240.035	0.25
240.833	2.25
241.632	4.25
242.43	3.25
243.229	1.25
244.027	-0.75
244.826	2.25
245.624	1.25
246.422	4.25
247.22	3.25
248.018	3.25
248.816	3.25
249.614	0.25
250.412	4.25
251.21	1.25
252.007	3.25
252.805	3.25
253.602	4.25
254.4	3.25
255.197	3.25
255.994	3.25
256.791	2.25
257.589	2.25
258.386	3.25
259.183	1.25
259.979	5.25
260.776	5.25
261.573	4.25
262.37	4.25
263.166	5.25
263.963	3.25
264.759	4.25
265.556	4.25
266.352	3.25
267.148	4.25
267.944	5.25
268.74	8.25
269.536	6.25
270.332	8.25
271.128	8.25
271.924	7.25
272.719	10.25
273.515	9.25
274.311	9.25
275.106	9.25
275.901	11.25
276.697	9.25
277.492	7.25
278.287	9.25
279.082	8.25
279.877	11.25
280.672	10.25
281.467	10.25
282.262	10.25
283.056	9.25
283.851	10.25
284.646	11.25
285.44	10.25
286.234	9.25
287.029	9.25
287.823	14.25
288.617	10.25
289.411	11.25
290.205	8.25
290.999	8.25
291.793	11.25
292.587	11.25
293.381	12.25
294.174	8.25
294.968	12.25
295.761	12.25
296.555	11.25
297.348	9.25
298.141	9.25
298.935	10.25
299.728	9.25
300.521	9.25
301.314	8.25
302.107	9.25
302.899	9.25
303.692	9.25
304.485	11.25
305.277	7.25
306.07	8.25
306.862	9.25
307.655	8.25
308.447	8.25
309.239	4.25
310.031	7.25
310.823	7.25
311.615	7.25
312.407	7.25
313.199	4.25
313.991	7.25
314.783	5.25
315.574	7.25
316.366	7.25
317.157	5.25
317.949	4.25
318.74	4.25
319.531	5.25
320.322	8.25
321.113	5.25
321.904	6.25
322.695	6.25
323.486	2.25
324.277	6.25
325.068	3.25
325.858	2.25
326.649	7.25
327.439	3.25
328.23	4.25
329.02	3.25
329.81	2.25
330.6	2.25
331.391	1.25
332.181	3.25
332.971	5.25
333.76	4.25
334.55	3.25
335.34	2.25
336.13	2.25
336.919	3.25
337.709	1.25
338.498	5.25
339.287	5.25
340.077	4.25
340.866	5.25
341.655	5.25
342.444	2.25
343.233	3.25
344.022	2.25
344.811	5.25
345.6	2.25
346.388	2.25
347.177	3.25
347.965	4.25
348.754	6.25
349.542	3.25
350.33	2.25
351.119	4.25
351.907	4.25
352.695	4.25
353.483	3.25
354.271	3.25
355.059	4.25
355.846	4.25
356.634	4.25
357.422	3.25
358.209	6.25
358.997	1.25
359.784	0.25
360.571	4.25
361.359	2.25
362.146	4.25
362.933	1.25
363.72	3.25
364.507	4.25
365.294	1.25
366.081	2.25
366.867	0.25
367.654	3.25
368.44	3.25
369.227	0.25
370.013	2.25
370.8	5.25
371.586	4.25
372.372	1.25
373.158	3.25
373.944	2.25
374.73	-0.75
375.516	3.25
376.302	3.25
377.088	3.25
377.873	2.25
378.659	2.25
379.445	3.25
380.23	1.25
381.015	2.25
381.801	1.25
382.586	2.25
383.371	2.25
384.156	2.25
384.941	4.25
385.726	1.25
386.511	5.25
387.296	2.25
388.08	5.25
388.865	3.25
389.649	4.25
390.434	0.25
391.218	1.25
392.003	2.25
392.787	2.25
393.571	4.25
394.355	4.25
395.139	4.25
395.923	3.25
396.707	3.25
397.491	3.25
398.274	4.25
399.058	6.25
399.842	3.25
400.625	5.25
401.408	4.25
402.192	5.25
402.975	5.25
403.758	2.25
404.541	4.25
405.324	4.25
406.107	3.25
406.89	3.25
407.673	3.25
408.456	5.25
409.238	5.25
410.021	2.25
410.803	4.25
411.586	4.25
412.368	7.25
413.151	2.25
413.933	5.25
414.715	3.25
415.497	7.25
416.279	5.25
417.061	4.25
417.843	6.25
418.624	6.25
419.406	5.25
420.188	6.25
420.969	6.25
421.751	8.25
422.532	5.25
423.313	6.25
424.095	5.25
424.876	4.25
425.657	5.25
426.438	7.25
427.219	6.25
428	7.25
428.78	5.25
429.561	9.25
430.342	7.25
431.122	7.25
431.903	8.25
432.683	10.25
433.464	6.25
434.244	10.25
435.024	8.25
435.804	10.25
436.584	10.25
437.364	9.25
438.144	10.25
438.924	11.25
439.704	12.25
440.483	11.25
441.263	12.25
442.042	14.25
442.822	14.25
443.601	14.25
444.38	14.25
445.16	14.25
445.939	13.25
446.718	17.25
447.497	19.25
448.276	19.25
449.054	21.25
449.833	23.25
450.612	26.25
451.391	25.25
452.169	33.25
452.948	28.25
453.726	38.25
454.504	38.25
455.282	41.25
456.061	44.25
456.839	49.25
457.617	52.25
458.395	54.25
459.172	64.25
459.95	71.25
460.728	79.25
461.506	85.25
462.283	96.25
463.061	108.25
463.838	121.25
464.615	135.25
465.393	143.25
466.17	160.25
466.947	183.25
467.724	207.25
468.501	230.25
469.278	258.25
470.055	288.25
470.831	317.25
471.608	353.25
472.385	395.25
473.161	445.25
473.938	501.25
474.714	557.25
475.49	608.25
476.266	680.25
477.043	748.25
477.819	842.25
478.595	936.25
479.371	1029.25
480.146	1159.25
480.922	1272.25
481.698	1390.25
482.473	1553.25
483.249	1724.25
484.024	1902.25
484.8	2093.25
485.575	2297.25
486.35	2573.25
487.126	2858.25
487.901	3167.25
488.676	3481.25
489.451	3837.25
490.225	4253.25
491	4668.25
491.775	5156.25
492.55	5675.25
493.324	6228.25
494.099	6853.25
494.873	7459.25
495.647	8135.25
496.422	8892.25
497.196	9648.25
497.97	10423.25
498.744	11221.25
499.518	11983.25
500.292	12791.25
501.066	13508.25
501.839	14256.25
502.613	14948.25
503.387	15584.25
504.16	16081.25
504.934	16534.25
505.707	16891.25
506.48	17052.25
507.253	17136.25
508.027	17219.25
508.8	17072.25
509.573	16832.25
510.346	16496.25
511.118	16049.25
511.891	15567.25
512.664	15019.25
513.437	14487.25
514.209	13903.25
514.982	13279.25
515.754	12767.25
516.526	12116.25
517.298	11544.25
518.071	11059.25
518.843	10579.25
519.615	10102.25
520.387	9700.25
521.159	9351.25
521.93	8923.25
522.702	8579.25
523.474	8259.25
524.245	7978.25
525.017	7601.25
525.788	7301.25
526.56	7027.25
527.331	6709.25
528.102	6425.25
528.873	6130.25
529.644	5847.25
530.415	5581.25
531.186	5272.25
531.957	5020.25
532.728	4747.25
533.498	4448.25
534.269	4223.25
535.039	3994.25
535.81	3781.25
536.58	3562.25
537.351	3376.25
538.121	3170.25
538.891	2979.25
539.661	2841.25
540.431	2667.25
541.201	2532.25
541.971	2401.25
542.741	2279.25
543.51	2148.25
544.28	2044.25
545.05	1948.25
545.819	1841.25
546.588	1761.25
547.358	1681.25
548.127	1579.25
548.896	1529.25
549.665	1444.25
550.434	1360.25
551.203	1283.25
551.972	1215.25
552.741	1143.25
553.51	1092.25
554.278	1037.25
555.047	973.25
555.815	913.25
556.584	867.25
557.352	802.25
558.121	776.25
558.889	715.25
559.657	673.25
560.425	645.25
561.193	608.25
561.961	566.25
562.729	541.25
563.496	510.25
564.264	473.25
565.032	441.25
565.799	419.25
566.567	404.25
567.334	388.25
568.101	363.25
568.869	336.25
569.636	321.25
570.403	307.25
571.17	286.25
571.937	266.25
572.704	255.25
573.471	241.25
574.237	228.25
575.004	216.25
575.771	193.25
576.537	181.25
577.303	182.25
578.07	162.25
578.836	157.25
579.602	146.25
580.368	137.25
581.134	130.25
581.9	126.25
582.666	117.25
583.432	111.25
584.198	106.25
584.964	98.25
585.729	98.25
586.495	85.25
587.26	86.25
588.025	77.25
588.791	77.25
589.556	71.25
590.321	63.25
591.086	66.25
591.851	61.25
592.616	56.25
593.381	55.25
594.146	52.25
594.911	47.25
595.675	44.25
596.44	49.25
597.204	41.25
597.969	42.25
598.733	37.25
599.497	37.25
600.261	33.25
601.025	36.25
601.79	31.25
602.553	33.25
603.317	29.25
604.081	29.25
604.845	24.25
605.609	27.25
606.372	26.25
607.136	22.25
607.899	22.25
608.662	22.25
609.426	20.25
610.189	21.25
610.952	17.25
611.715	19.25
612.478	16.25
613.241	18.25
614.004	18.25
614.767	16.25
615.529	17.25
616.292	19.25
617.055	13.25
617.817	14.25
618.579	13.25
619.342	13.25
620.104	12.25
620.866	12.25
621.628	10.25
622.39	11.25
623.152	10.25
623.914	9.25
624.676	9.25
625.438	8.25
626.199	10.25
626.961	8.25
627.722	9.25
628.484	9.25
629.245	8.25
630.006	8.25
630.768	6.25
631.529	8.25
632.29	7.25
633.051	7.25
633.812	7.25
634.573	5.25
635.333	7.25
636.094	5.25
636.855	5.25
637.615	6.25
638.376	6.25
639.136	3.25
639.896	5.25
640.657	5.25
641.417	4.25
642.177	7.25
642.937	3.25
643.697	4.25
644.457	6.25
645.216	6.25
645.976	3.25
646.736	4.25
647.495	7.25
648.255	5.25
649.014	5.25
649.774	3.25
650.533	2.25
651.292	3.25
652.051	4.25
652.81	2.25
653.569	4.25
654.328	2.25
655.087	2.25
655.846	2.25
656.604	5.25
657.363	2.25
658.121	4.25
658.88	4.25
659.638	1.25
660.397	3.25
661.155	4.25
661.913	3.25
662.671	5.25
663.429	4.25
664.187	3.25
664.945	2.25
665.703	3.25
666.46	1.25
667.218	1.25
667.976	1.25
668.733	1.25
669.49	3.25
670.248	1.25
671.005	4.25
671.762	1.25
672.519	2.25
673.276	2.25
674.033	2.25
674.79	2.25
675.547	0.25
676.304	0.25
677.06	1.25
677.817	2.25
678.574	2.25
679.33	2.25
680.086	2.25
680.843	2.25
681.599	2.25
682.355	2.25
683.111	1.25
683.867	2.25
684.623	2.25
685.379	4.25
686.135	2.25
686.89	1.25
687.646	1.25
688.402	3.25
689.157	-0.75
689.912	1.25
690.668	2.25
691.423	0.25
692.178	3.25
692.933	1.25
693.688	1.25
694.443	3.25
695.198	5.25
695.953	2.25
696.708	0.25
697.462	0.25
698.217	1.25
698.972	3.25
699.726	2.25
700.48	2.25
701.235	2.25
701.989	1.25
702.743	0.25
703.497	3.25
704.251	2.25
705.005	2.25
705.759	2.25
706.513	1.25
707.266	3.25
708.02	1.25
708.774	3.25
709.527	2.25
710.28	2.25
711.034	3.25
711.787	3.25
712.54	1.25
713.293	1.25
714.046	2.25
714.799	0.25
715.552	5.25
716.305	1.25
717.058	0.25
717.81	1.25
718.563	1.25
719.315	2.25
720.068	2.25
720.82	2.25
721.573	1.25
722.325	4.25
723.077	1.25
723.829	3.25
724.581	1.25
725.333	2.25
726.085	2.25
726.836	2.25
727.588	4.25
728.34	2.25
729.091	1.25
729.843	2.25
730.594	2.25
731.346	4.25
732.097	1.25
732.848	4.25
733.599	2.25
734.35	2.25
735.101	3.25
735.852	2.25
736.603	2.25
737.354	1.25
738.104	5.25
738.855	2.25
739.605	3.25
740.356	3.25
741.106	2.25
741.856	1.25
742.607	2.25
743.357	1.25
744.107	2.25
744.857	3.25
745.607	3.25
746.357	1.25
747.106	5.25
747.856	2.25
748.606	4.25
749.355	4.25
750.105	3.25
750.854	2.25
751.603	3.25
752.353	2.25
753.102	3.25
753.851	1.25
754.6	2.25
755.349	4.25
756.098	2.25
756.847	1.25
757.595	3.25
758.344	2.25
759.093	4.25
759.841	3.25
760.589	1.25
761.338	2.25
762.086	4.25
762.834	4.25
763.582	3.25
764.331	1.25
765.079	3.25
765.826	2.25
766.574	2.25
767.322	3.25
768.07	3.25
768.817	8.25
769.565	2.25
770.312	3.25
771.06	3.25
771.807	3.25
772.554	3.25
773.302	4.25
774.049	3.25
774.796	3.25
775.543	4.25
776.29	7.25
777.036	6.25
777.783	2.25
778.53	3.25
779.276	5.25
780.023	7.25
780.769	4.25
781.516	5.25
782.262	5.25
783.008	4.25
783.754	4.25
784.5	5.25
785.246	5.25
785.992	6.25
786.738	5.25
787.484	5.25
788.23	4.25
788.975	7.25
789.721	4.25
790.466	5.25
791.212	5.25
791.957	3.25
792.702	5.25
793.447	4.25
794.193	4.25
794.938	5.25
795.683	4.25
796.427	6.25
797.172	2.25
797.917	4.25
798.662	4.25
799.406	3.25
800.151	4.25
800.895	5.25
801.64	3.25
802.384	2.25
803.128	3.25
803.872	4.25
804.616	3.25
805.36	5.25
806.104	3.25
806.848	4.25
807.592	3.25
808.336	3.25
809.079	2.25
809.823	3.25
810.566	4.25
811.31	3.25
812.053	4.25
812.796	3.25
813.539	2.25
814.283	3.25
815.026	3.25
815.769	4.25
816.511	2.25
817.254	1.25
817.997	4.25
818.74	2.25
819.482	5.25
820.225	3.25
820.967	3.25
821.71	2.25
822.452	4.25
823.194	2.25
823.936	1.25
824.678	2.25
825.42	3.25
826.162	3.25
826.904	5.25
827.646	4.25
828.388	1.25
829.129	3.25
829.871	2.25
830.612	4.25
831.354	3.25
832.095	3.25
832.836	2.25
833.577	0.25
834.319	2.25
835.06	2.25
835.801	2.25
836.542	2.25
837.282	1.25
838.023	2.25
838.764	1.25
839.504	2.25
840.245	0.25
840.985	1.25
841.726	2.25
842.466	3.25
843.206	5.25
843.946	3.25
844.687	2.25
845.427	2.25
846.166	1.25
846.906	-1.75
847.646	2.25
848.386	1.25
849.125	4.25
849.865	1.25
850.605	2.25
851.344	0.25
852.083	3.25
852.823	1.25
853.562	0.25
854.301	1.25
855.04	3.25
855.779	1.25
856.518	1.25
857.257	2.25
857.995	-0.75
858.734	2.25
859.473	2.25
860.211	-0.75
860.95	1.25
861.688	1.25
862.426	2.25
863.165	2.25
863.903	0.25
864.641	3.25
865.379	1.25
866.117	1.25
866.855	1.25
867.593	1.25
868.33	1.25
869.068	1.25
869.806	2.25
870.543	0.25
871.28	1.25
872.018	1.25
872.755	1.25
873.492	1.25
874.229	1.25
874.967	0.25
875.703	0.25
876.44	1.25
877.177	-1.75
877.914	0.25
878.651	2.25
879.387	1.25
880.124	3.25
880.86	-1.75
881.597	1.25
882.333	1.25
883.069	-0.75
883.806	0.25
884.542	-1.75
885.278	1.25
886.014	0.25
886.749	1.25
887.485	1.25
888.221	1.25
888.957	3.25
889.692	0.25
890.428	0.25
891.163	-0.75
891.899	0.25
892.634	1.25
893.369	0.25
894.104	-0.75
894.839	0.25
895.574	1.25
896.309	-0.75
897.044	0.25
897.779	-1.75
898.514	2.25
899.248	2.25
899.983	-0.75
900.717	-0.75
901.452	0.25
902.186	0.25
902.92	0.25
903.654	1.25
904.389	-2.75
905.123	-0.75
905.857	1.25
906.59	-0.75
907.324	2.25
908.058	1.25
908.792	1.25
909.525	1.25
910.259	1.25
910.992	-0.75
911.726	-0.75
912.459	-0.75
913.192	1.25
913.925	-0.75
914.658	0.25
915.391	0.25
916.124	1.25
916.857	-2.75
917.59	-0.75
918.323	0.25
919.055	1.25
919.788	-2.75
920.521	-0.75
921.253	1.25
921.985	-1.75
922.718	1.25
923.45	-1.75
924.182	0.25
924.914	0.25
925.646	1.25
926.378	-0.75
927.11	1.25
927.841	-0.75
928.573	0.25
929.305	1.25
930.036	-0.75
930.768	-0.75
931.499	-1.75
932.23	1.25
932.962	1.25
933.693	0.25
934.424	1.25
935.155	0.25
935.886	-0.75
936.617	0.25
937.348	0.25
938.078	0.25
938.809	0.25
939.54	0.25
940.27	0.25
941.001	0.25
941.731	1.25
942.461	0.25
943.191	-0.75
943.922	1.25
944.652	-1.75
945.382	1.25
946.112	-1.75
946.841	-1.75
947.571	-0.75
948.301	1.25
949.031	-0.75
949.76	0.25
950.49	2.25
951.219	0.25
951.948	-1.75
952.678	0.25
953.407	0.25
954.136	1.25
954.865	-2.75
955.594	0.25
956.323	-0.75
957.052	-1.75
957.78	0.25
958.509	-0.75
959.238	0.25
959.966	-0.75
960.695	-0.75
961.423	2.25
962.151	1.25
962.88	2.25
963.608	-0.75
964.336	-1.75
965.064	0.25
965.792	-1.75
966.52	0.25
967.247	1.25
967.975	0.25
968.703	1.25
969.43	1.25
970.158	-1.75
970.885	-0.75
971.613	1.25
972.34	1.25
973.067	1.25
973.794	0.25
974.521	3.25
975.248	-1.75
975.975	0.25
976.702	-0.75
977.429	0.25
978.156	1.25
978.882	-1.75
979.609	1.25
980.335	-1.75
981.062	1.25
981.788	1.25
982.514	-0.75
983.24	1.25
983.967	0.25
984.693	2.25
985.419	1.25
986.144	-0.75
986.87	1.25
987.596	-0.75
988.322	0.25
989.047	-1.75
989.773	2.25
990.498	0.25
991.224	-0.75
991.949	0.25
992.674	-1.75
993.399	-1.75
994.124	-0.75
994.849	-0.75
995.574	-0.75
996.299	0.25
997.024	2.25
997.749	-0.75
998.473	-0.75
999.198	0.25
999.922	-0.75
1000.647	2.25
1001.371	3.25
1002.095	0.25
1002.82	-1.75
1003.544	-0.75
1004.268	-1.75
1004.992	-0.75
1005.716	-1.75
1006.439	-0.75
1007.163	-0.75
1007.887	-0.75
1008.611	1.25
1009.334	0.25
1010.058	1.25
1010.781	2.25
1011.504	2.25
1012.228	2.25
1012.951	-0.75
1013.674	-0.75
1014.397	2.25
1015.12	-1.75
