节点500_145_QEPB04081__690__11-39-53-797.txt的数据

Date: Wed Nov 12 11:39:53 CST 2025
User: PC
Spectrometer: QEPB0408
触发模式: 0
积分时间 (秒): 1.000000E-2
Scans to average: 1
启用暗噪声校正: true
启用非线性校正: false
滑动平均宽度: 0
X轴模式: Wavelengths
Number of Pixels in Spectrum: 1044
>>>>>Begin Spectral Data<<<<<
220.843	-2.38
221.644	-1.38
222.444	-1.38
223.244	2.62
224.045	1.62
224.845	0.62
225.645	-1.38
226.445	0.62
227.245	1.62
228.045	-1.38
228.845	-0.38
229.645	2.62
230.444	0.62
231.244	-0.38
232.043	-3.38
232.843	0.62
233.642	-1.38
234.442	0.62
235.241	-0.38
236.04	-0.38
236.839	3.62
237.638	-0.38
238.437	1.62
239.236	0.62
240.035	1.62
240.833	2.62
241.632	1.62
242.43	0.62
243.229	0.62
244.027	1.62
244.826	2.62
245.624	2.62
246.422	2.62
247.22	2.62
248.018	1.62
248.816	1.62
249.614	1.62
250.412	1.62
251.21	0.62
252.007	2.62
252.805	1.62
253.602	3.62
254.4	2.62
255.197	1.62
255.994	2.62
256.791	3.62
257.589	2.62
258.386	3.62
259.183	4.62
259.979	4.62
260.776	2.62
261.573	2.62
262.37	2.62
263.166	3.62
263.963	3.62
264.759	8.62
265.556	5.62
266.352	6.62
267.148	4.62
267.944	6.62
268.74	3.62
269.536	4.62
270.332	6.62
271.128	4.62
271.924	5.62
272.719	7.62
273.515	6.62
274.311	6.62
275.106	9.62
275.901	6.62
276.697	9.62
277.492	7.62
278.287	9.62
279.082	5.62
279.877	9.62
280.672	10.62
281.467	8.62
282.262	7.62
283.056	8.62
283.851	8.62
284.646	10.62
285.44	9.62
286.234	9.62
287.029	10.62
287.823	9.62
288.617	9.62
289.411	8.62
290.205	8.62
290.999	11.62
291.793	11.62
292.587	10.62
293.381	6.62
294.174	10.62
294.968	8.62
295.761	9.62
296.555	7.62
297.348	7.62
298.141	8.62
298.935	9.62
299.728	11.62
300.521	10.62
301.314	7.62
302.107	9.62
302.899	8.62
303.692	9.62
304.485	8.62
305.277	6.62
306.07	7.62
306.862	9.62
307.655	7.62
308.447	7.62
309.239	9.62
310.031	9.62
310.823	5.62
311.615	6.62
312.407	6.62
313.199	8.62
313.991	5.62
314.783	6.62
315.574	6.62
316.366	5.62
317.157	5.62
317.949	3.62
318.74	4.62
319.531	5.62
320.322	3.62
321.113	3.62
321.904	4.62
322.695	2.62
323.486	5.62
324.277	4.62
325.068	3.62
325.858	2.62
326.649	3.62
327.439	3.62
328.23	6.62
329.02	2.62
329.81	3.62
330.6	2.62
331.391	4.62
332.181	3.62
332.971	3.62
333.76	3.62
334.55	4.62
335.34	4.62
336.13	2.62
336.919	4.62
337.709	1.62
338.498	4.62
339.287	1.62
340.077	3.62
340.866	5.62
341.655	2.62
342.444	4.62
343.233	3.62
344.022	1.62
344.811	3.62
345.6	1.62
346.388	3.62
347.177	1.62
347.965	3.62
348.754	2.62
349.542	2.62
350.33	3.62
351.119	2.62
351.907	4.62
352.695	1.62
353.483	5.62
354.271	2.62
355.059	1.62
355.846	2.62
356.634	0.62
357.422	4.62
358.209	3.62
358.997	1.62
359.784	5.62
360.571	3.62
361.359	2.62
362.146	1.62
362.933	3.62
363.72	2.62
364.507	2.62
365.294	3.62
366.081	2.62
366.867	0.62
367.654	1.62
368.44	1.62
369.227	1.62
370.013	2.62
370.8	1.62
371.586	1.62
372.372	3.62
373.158	0.62
373.944	3.62
374.73	1.62
375.516	1.62
376.302	4.62
377.088	2.62
377.873	1.62
378.659	1.62
379.445	1.62
380.23	3.62
381.015	3.62
381.801	3.62
382.586	3.62
383.371	3.62
384.156	1.62
384.941	3.62
385.726	3.62
386.511	4.62
387.296	2.62
388.08	2.62
388.865	3.62
389.649	2.62
390.434	4.62
391.218	5.62
392.003	1.62
392.787	1.62
393.571	3.62
394.355	3.62
395.139	2.62
395.923	3.62
396.707	5.62
397.491	2.62
398.274	5.62
399.058	1.62
399.842	4.62
400.625	3.62
401.408	2.62
402.192	1.62
402.975	2.62
403.758	2.62
404.541	1.62
405.324	2.62
406.107	2.62
406.89	4.62
407.673	5.62
408.456	2.62
409.238	3.62
410.021	5.62
410.803	3.62
411.586	4.62
412.368	1.62
413.151	2.62
413.933	7.62
414.715	5.62
415.497	2.62
416.279	6.62
417.061	3.62
417.843	4.62
418.624	4.62
419.406	3.62
420.188	6.62
420.969	5.62
421.751	5.62
422.532	5.62
423.313	5.62
424.095	4.62
424.876	5.62
425.657	9.62
426.438	5.62
427.219	5.62
428	6.62
428.78	7.62
429.561	7.62
430.342	8.62
431.122	5.62
431.903	7.62
432.683	9.62
433.464	9.62
434.244	7.62
435.024	10.62
435.804	8.62
436.584	10.62
437.364	8.62
438.144	10.62
438.924	9.62
439.704	16.62
440.483	9.62
441.263	11.62
442.042	11.62
442.822	10.62
443.601	15.62
444.38	14.62
445.16	17.62
445.939	17.62
446.718	19.62
447.497	19.62
448.276	20.62
449.054	23.62
449.833	23.62
450.612	27.62
451.391	29.62
452.169	34.62
452.948	34.62
453.726	39.62
454.504	42.62
455.282	47.62
456.061	54.62
456.839	55.62
457.617	63.62
458.395	70.62
459.172	71.62
459.95	86.62
460.728	97.62
461.506	104.62
462.283	113.62
463.061	127.62
463.838	139.62
464.615	162.62
465.393	181.62
466.17	201.62
466.947	214.62
467.724	242.62
468.501	267.62
469.278	297.62
470.055	329.62
470.831	366.62
471.608	408.62
472.385	444.62
473.161	492.62
473.938	544.62
474.714	594.62
475.49	662.62
476.266	733.62
477.043	815.62
477.819	880.62
478.595	954.62
479.371	1065.62
480.146	1155.62
480.922	1264.62
481.698	1383.62
482.473	1521.62
483.249	1658.62
484.024	1838.62
484.8	2001.62
485.575	2185.62
486.35	2395.62
487.126	2606.62
487.901	2815.62
488.676	3101.62
489.451	3397.62
490.225	3694.62
491	4037.62
491.775	4376.62
492.55	4776.62
493.324	5198.62
494.099	5649.62
494.873	6134.62
495.647	6642.62
496.422	7182.62
497.196	7736.62
497.97	8334.62
498.744	8918.62
499.518	9575.62
500.292	10229.62
501.066	10871.62
501.839	11453.62
502.613	12071.62
503.387	12629.62
504.16	13169.62
504.934	13660.62
505.707	14080.62
506.48	14403.62
507.253	14711.62
508.027	14871.62
508.8	15011.62
509.573	15017.62
510.346	14923.62
511.118	14825.62
511.891	14568.62
512.664	14246.62
513.437	13933.62
514.209	13538.62
514.982	13089.62
515.754	12652.62
516.526	12181.62
517.298	11652.62
518.071	11175.62
518.843	10761.62
519.615	10315.62
520.387	9861.62
521.159	9466.62
521.93	9090.62
522.702	8723.62
523.474	8415.62
524.245	8086.62
525.017	7758.62
525.788	7442.62
526.56	7137.62
527.331	6860.62
528.102	6585.62
528.873	6339.62
529.644	6025.62
530.415	5777.62
531.186	5520.62
531.957	5291.62
532.728	5024.62
533.498	4756.62
534.269	4518.62
535.039	4297.62
535.81	4080.62
536.58	3827.62
537.351	3635.62
538.121	3466.62
538.891	3260.62
539.661	3066.62
540.431	2906.62
541.201	2769.62
541.971	2605.62
542.741	2482.62
543.51	2349.62
544.28	2212.62
545.05	2109.62
545.819	2013.62
546.588	1909.62
547.358	1818.62
548.127	1730.62
548.896	1666.62
549.665	1549.62
550.434	1482.62
551.203	1419.62
551.972	1341.62
552.741	1269.62
553.51	1198.62
554.278	1139.62
555.047	1073.62
555.815	1018.62
556.584	954.62
557.352	911.62
558.121	856.62
558.889	815.62
559.657	761.62
560.425	728.62
561.193	678.62
561.961	637.62
562.729	618.62
563.496	581.62
564.264	544.62
565.032	504.62
565.799	481.62
566.567	455.62
567.334	433.62
568.101	402.62
568.869	375.62
569.636	367.62
570.403	335.62
571.17	317.62
571.937	304.62
572.704	285.62
573.471	271.62
574.237	255.62
575.004	238.62
575.771	221.62
576.537	214.62
577.303	194.62
578.07	191.62
578.836	174.62
579.602	165.62
580.368	163.62
581.134	150.62
581.9	143.62
582.666	134.62
583.432	126.62
584.198	119.62
584.964	115.62
585.729	110.62
586.495	102.62
587.26	95.62
588.025	91.62
588.791	88.62
589.556	79.62
590.321	73.62
591.086	68.62
591.851	67.62
592.616	64.62
593.381	64.62
594.146	62.62
594.911	55.62
595.675	57.62
596.44	53.62
597.204	49.62
597.969	46.62
598.733	41.62
599.497	46.62
600.261	40.62
601.025	39.62
601.79	34.62
602.553	36.62
603.317	35.62
604.081	30.62
604.845	31.62
605.609	32.62
606.372	30.62
607.136	26.62
607.899	27.62
608.662	22.62
609.426	23.62
610.189	24.62
610.952	20.62
611.715	20.62
612.478	18.62
613.241	16.62
614.004	18.62
614.767	14.62
615.529	16.62
616.292	15.62
617.055	17.62
617.817	19.62
618.579	16.62
619.342	14.62
620.104	13.62
620.866	12.62
621.628	12.62
622.39	10.62
623.152	10.62
623.914	11.62
624.676	10.62
625.438	10.62
626.199	11.62
626.961	10.62
627.722	9.62
628.484	7.62
629.245	8.62
630.006	8.62
630.768	7.62
631.529	6.62
632.29	8.62
633.051	5.62
633.812	7.62
634.573	6.62
635.333	7.62
636.094	5.62
636.855	5.62
637.615	7.62
638.376	5.62
639.136	6.62
639.896	3.62
640.657	5.62
641.417	3.62
642.177	5.62
642.937	4.62
643.697	6.62
644.457	5.62
645.216	5.62
645.976	6.62
646.736	4.62
647.495	6.62
648.255	2.62
649.014	5.62
649.774	4.62
650.533	4.62
651.292	1.62
652.051	1.62
652.81	4.62
653.569	4.62
654.328	4.62
655.087	5.62
655.846	2.62
656.604	1.62
657.363	2.62
658.121	4.62
658.88	5.62
659.638	1.62
660.397	2.62
661.155	4.62
661.913	3.62
662.671	3.62
663.429	3.62
664.187	2.62
664.945	4.62
665.703	1.62
666.46	2.62
667.218	5.62
667.976	2.62
668.733	5.62
669.49	2.62
670.248	2.62
671.005	3.62
671.762	2.62
672.519	2.62
673.276	-1.38
674.033	2.62
674.79	1.62
675.547	2.62
676.304	4.62
677.06	3.62
677.817	3.62
678.574	1.62
679.33	3.62
680.086	2.62
680.843	2.62
681.599	1.62
682.355	2.62
683.111	4.62
683.867	1.62
684.623	2.62
685.379	2.62
686.135	1.62
686.89	0.62
687.646	0.62
688.402	1.62
689.157	0.62
689.912	1.62
690.668	1.62
691.423	0.62
692.178	1.62
692.933	2.62
693.688	1.62
694.443	1.62
695.198	2.62
695.953	2.62
696.708	2.62
697.462	2.62
698.217	0.62
698.972	3.62
699.726	1.62
700.48	3.62
701.235	2.62
701.989	2.62
702.743	3.62
703.497	1.62
704.251	2.62
705.005	0.62
705.759	2.62
706.513	2.62
707.266	-0.38
708.02	1.62
708.774	2.62
709.527	2.62
710.28	2.62
711.034	3.62
711.787	2.62
712.54	2.62
713.293	1.62
714.046	1.62
714.799	1.62
715.552	2.62
716.305	2.62
717.058	1.62
717.81	0.62
718.563	2.62
719.315	0.62
720.068	1.62
720.82	1.62
721.573	3.62
722.325	2.62
723.077	2.62
723.829	0.62
724.581	-0.38
725.333	1.62
726.085	0.62
726.836	1.62
727.588	4.62
728.34	2.62
729.091	1.62
729.843	2.62
730.594	3.62
731.346	4.62
732.097	2.62
732.848	2.62
733.599	3.62
734.35	5.62
735.101	1.62
735.852	3.62
736.603	1.62
737.354	0.62
738.104	2.62
738.855	2.62
739.605	2.62
740.356	2.62
741.106	2.62
741.856	2.62
742.607	3.62
743.357	3.62
744.107	1.62
744.857	1.62
745.607	1.62
746.357	1.62
747.106	3.62
747.856	1.62
748.606	2.62
749.355	2.62
750.105	0.62
750.854	1.62
751.603	4.62
752.353	2.62
753.102	3.62
753.851	5.62
754.6	4.62
755.349	5.62
756.098	4.62
756.847	2.62
757.595	-0.38
758.344	4.62
759.093	1.62
759.841	1.62
760.589	4.62
761.338	4.62
762.086	3.62
762.834	1.62
763.582	2.62
764.331	3.62
765.079	0.62
765.826	5.62
766.574	2.62
767.322	4.62
768.07	2.62
768.817	5.62
769.565	3.62
770.312	2.62
771.06	4.62
771.807	1.62
772.554	3.62
773.302	5.62
774.049	3.62
774.796	3.62
775.543	5.62
776.29	4.62
777.036	1.62
777.783	2.62
778.53	1.62
779.276	4.62
780.023	4.62
780.769	1.62
781.516	5.62
782.262	2.62
783.008	4.62
783.754	4.62
784.5	4.62
785.246	3.62
785.992	2.62
786.738	5.62
787.484	5.62
788.23	5.62
788.975	4.62
789.721	8.62
790.466	5.62
791.212	2.62
791.957	5.62
792.702	2.62
793.447	3.62
794.193	5.62
794.938	3.62
795.683	4.62
796.427	4.62
797.172	3.62
797.917	4.62
798.662	4.62
799.406	3.62
800.151	2.62
800.895	4.62
801.64	1.62
802.384	5.62
803.128	7.62
803.872	3.62
804.616	3.62
805.36	3.62
806.104	4.62
806.848	4.62
807.592	5.62
808.336	2.62
809.079	1.62
809.823	2.62
810.566	2.62
811.31	3.62
812.053	2.62
812.796	6.62
813.539	4.62
814.283	2.62
815.026	4.62
815.769	1.62
816.511	4.62
817.254	4.62
817.997	2.62
818.74	0.62
819.482	0.62
820.225	3.62
820.967	1.62
821.71	1.62
822.452	3.62
823.194	2.62
823.936	3.62
824.678	4.62
825.42	2.62
826.162	1.62
826.904	2.62
827.646	1.62
828.388	3.62
829.129	1.62
829.871	1.62
830.612	1.62
831.354	2.62
832.095	3.62
832.836	2.62
833.577	3.62
834.319	5.62
835.06	1.62
835.801	0.62
836.542	1.62
837.282	2.62
838.023	1.62
838.764	1.62
839.504	1.62
840.245	2.62
840.985	2.62
841.726	0.62
842.466	2.62
843.206	3.62
843.946	3.62
844.687	3.62
845.427	-0.38
846.166	2.62
846.906	1.62
847.646	2.62
848.386	2.62
849.125	1.62
849.865	3.62
850.605	-0.38
851.344	2.62
852.083	1.62
852.823	3.62
853.562	1.62
854.301	3.62
855.04	2.62
855.779	-2.38
856.518	1.62
857.257	-0.38
857.995	1.62
858.734	2.62
859.473	1.62
860.211	0.62
860.95	0.62
861.688	0.62
862.426	1.62
863.165	1.62
863.903	0.62
864.641	0.62
865.379	-0.38
866.117	0.62
866.855	0.62
867.593	-1.38
868.33	2.62
869.068	1.62
869.806	0.62
870.543	-1.38
871.28	1.62
872.018	2.62
872.755	0.62
873.492	2.62
874.229	0.62
874.967	-1.38
875.703	1.62
876.44	-0.38
877.177	1.62
877.914	-0.38
878.651	1.62
879.387	-0.38
880.124	2.62
880.86	-0.38
881.597	1.62
882.333	-0.38
883.069	0.62
883.806	0.62
884.542	1.62
885.278	1.62
886.014	2.62
886.749	1.62
887.485	0.62
888.221	-0.38
888.957	1.62
889.692	1.62
890.428	-1.38
891.163	0.62
891.899	0.62
892.634	1.62
893.369	2.62
894.104	-1.38
894.839	1.62
895.574	-0.38
896.309	1.62
897.044	-0.38
897.779	1.62
898.514	1.62
899.248	1.62
899.983	1.62
900.717	0.62
901.452	-1.38
902.186	0.62
902.92	0.62
903.654	1.62
904.389	2.62
905.123	1.62
905.857	0.62
906.59	1.62
907.324	-1.38
908.058	0.62
908.792	0.62
909.525	0.62
910.259	-0.38
910.992	-1.38
911.726	0.62
912.459	0.62
913.192	1.62
913.925	-1.38
914.658	2.62
915.391	1.62
916.124	-1.38
916.857	-0.38
917.59	-0.38
918.323	1.62
919.055	-1.38
919.788	0.62
920.521	-1.38
921.253	1.62
921.985	2.62
922.718	1.62
923.45	1.62
924.182	2.62
924.914	0.62
925.646	0.62
926.378	1.62
927.11	1.62
927.841	0.62
928.573	-0.38
929.305	-0.38
930.036	1.62
930.768	0.62
931.499	0.62
932.23	0.62
932.962	-1.38
933.693	-0.38
934.424	1.62
935.155	0.62
935.886	0.62
936.617	-1.38
937.348	2.62
938.078	0.62
938.809	-0.38
939.54	-1.38
940.27	-0.38
941.001	-0.38
941.731	-2.38
942.461	0.62
943.191	-0.38
943.922	-0.38
944.652	-2.38
945.382	0.62
946.112	-1.38
946.841	0.62
947.571	0.62
948.301	-0.38
949.031	0.62
949.76	1.62
950.49	1.62
951.219	0.62
951.948	-1.38
952.678	1.62
953.407	-0.38
954.136	2.62
954.865	1.62
955.594	0.62
956.323	1.62
957.052	0.62
957.78	0.62
958.509	-0.38
959.238	-0.38
959.966	0.62
960.695	-1.38
961.423	-0.38
962.151	1.62
962.88	0.62
963.608	-0.38
964.336	1.62
965.064	0.62
965.792	0.62
966.52	1.62
967.247	-0.38
967.975	-0.38
968.703	0.62
969.43	1.62
970.158	-0.38
970.885	-0.38
971.613	0.62
972.34	1.62
973.067	-0.38
973.794	0.62
974.521	-1.38
975.248	0.62
975.975	0.62
976.702	1.62
977.429	0.62
978.156	0.62
978.882	-3.38
979.609	1.62
980.335	1.62
981.062	1.62
981.788	0.62
982.514	0.62
983.24	1.62
983.967	-2.38
984.693	1.62
985.419	1.62
986.144	-2.38
986.87	-0.38
987.596	0.62
988.322	-1.38
989.047	1.62
989.773	0.62
990.498	-0.38
991.224	0.62
991.949	-1.38
992.674	0.62
993.399	-0.38
994.124	-1.38
994.849	2.62
995.574	-0.38
996.299	-0.38
997.024	0.62
997.749	1.62
998.473	1.62
999.198	0.62
999.922	1.62
1000.647	2.62
1001.371	3.62
1002.095	-2.38
1002.82	0.62
1003.544	-1.38
1004.268	0.62
1004.992	-1.38
1005.716	-1.38
1006.439	-0.38
1007.163	1.62
1007.887	0.62
1008.611	0.62
1009.334	1.62
1010.058	-2.38
1010.781	-0.38
1011.504	0.62
1012.228	0.62
1012.951	1.62
1013.674	0.62
1014.397	-1.38
1015.12	-1.38
