节点500_145_QEPB04081__588__11-38-17-391.txt的数据

Date: Wed Nov 12 11:38:17 CST 2025
User: PC
Spectrometer: QEPB0408
触发模式: 0
积分时间 (秒): 1.000000E-2
Scans to average: 1
启用暗噪声校正: true
启用非线性校正: false
滑动平均宽度: 0
X轴模式: Wavelengths
Number of Pixels in Spectrum: 1044
>>>>>Begin Spectral Data<<<<<
220.843	-3.12
221.644	-1.12
222.444	-1.12
223.244	-0.12
224.045	-0.12
224.845	-0.12
225.645	-1.12
226.445	-2.12
227.245	-2.12
228.045	2.88
228.845	-0.12
229.645	-1.12
230.444	0.88
231.244	0.88
232.043	0.88
232.843	-0.12
233.642	-1.12
234.442	1.88
235.241	0.88
236.04	0.88
236.839	-1.12
237.638	-0.12
238.437	-2.12
239.236	0.88
240.035	-0.12
240.833	0.88
241.632	0.88
242.43	-1.12
243.229	-0.12
244.027	1.88
244.826	0.88
245.624	1.88
246.422	1.88
247.22	-0.12
248.018	1.88
248.816	-0.12
249.614	-0.12
250.412	0.88
251.21	2.88
252.007	1.88
252.805	2.88
253.602	0.88
254.4	-0.12
255.197	3.88
255.994	3.88
256.791	2.88
257.589	0.88
258.386	0.88
259.183	4.88
259.979	3.88
260.776	3.88
261.573	2.88
262.37	2.88
263.166	3.88
263.963	2.88
264.759	2.88
265.556	4.88
266.352	6.88
267.148	4.88
267.944	5.88
268.74	3.88
269.536	2.88
270.332	6.88
271.128	6.88
271.924	8.88
272.719	6.88
273.515	6.88
274.311	6.88
275.106	6.88
275.901	5.88
276.697	9.88
277.492	5.88
278.287	6.88
279.082	8.88
279.877	7.88
280.672	10.88
281.467	10.88
282.262	7.88
283.056	5.88
283.851	10.88
284.646	8.88
285.44	9.88
286.234	8.88
287.029	10.88
287.823	8.88
288.617	8.88
289.411	10.88
290.205	8.88
290.999	9.88
291.793	6.88
292.587	11.88
293.381	9.88
294.174	8.88
294.968	9.88
295.761	7.88
296.555	9.88
297.348	7.88
298.141	8.88
298.935	9.88
299.728	7.88
300.521	8.88
301.314	4.88
302.107	6.88
302.899	6.88
303.692	6.88
304.485	7.88
305.277	9.88
306.07	5.88
306.862	10.88
307.655	8.88
308.447	6.88
309.239	7.88
310.031	6.88
310.823	5.88
311.615	4.88
312.407	6.88
313.199	7.88
313.991	4.88
314.783	7.88
315.574	3.88
316.366	6.88
317.157	7.88
317.949	3.88
318.74	2.88
319.531	6.88
320.322	2.88
321.113	4.88
321.904	4.88
322.695	3.88
323.486	3.88
324.277	4.88
325.068	2.88
325.858	1.88
326.649	4.88
327.439	2.88
328.23	3.88
329.02	2.88
329.81	4.88
330.6	3.88
331.391	2.88
332.181	2.88
332.971	2.88
333.76	1.88
334.55	2.88
335.34	3.88
336.13	3.88
336.919	4.88
337.709	4.88
338.498	0.88
339.287	2.88
340.077	1.88
340.866	-0.12
341.655	3.88
342.444	2.88
343.233	2.88
344.022	1.88
344.811	2.88
345.6	2.88
346.388	2.88
347.177	3.88
347.965	1.88
348.754	0.88
349.542	3.88
350.33	2.88
351.119	2.88
351.907	1.88
352.695	2.88
353.483	0.88
354.271	2.88
355.059	0.88
355.846	3.88
356.634	2.88
357.422	-0.12
358.209	1.88
358.997	1.88
359.784	1.88
360.571	3.88
361.359	1.88
362.146	0.88
362.933	2.88
363.72	2.88
364.507	3.88
365.294	1.88
366.081	2.88
366.867	3.88
367.654	0.88
368.44	3.88
369.227	1.88
370.013	2.88
370.8	1.88
371.586	3.88
372.372	1.88
373.158	3.88
373.944	4.88
374.73	0.88
375.516	1.88
376.302	4.88
377.088	0.88
377.873	3.88
378.659	2.88
379.445	2.88
380.23	3.88
381.015	0.88
381.801	0.88
382.586	1.88
383.371	1.88
384.156	0.88
384.941	0.88
385.726	2.88
386.511	1.88
387.296	4.88
388.08	2.88
388.865	2.88
389.649	0.88
390.434	2.88
391.218	2.88
392.003	-1.12
392.787	0.88
393.571	1.88
394.355	3.88
395.139	1.88
395.923	3.88
396.707	3.88
397.491	1.88
398.274	1.88
399.058	2.88
399.842	3.88
400.625	1.88
401.408	2.88
402.192	2.88
402.975	2.88
403.758	3.88
404.541	1.88
405.324	4.88
406.107	1.88
406.89	1.88
407.673	5.88
408.456	4.88
409.238	4.88
410.021	2.88
410.803	2.88
411.586	0.88
412.368	3.88
413.151	3.88
413.933	4.88
414.715	3.88
415.497	2.88
416.279	3.88
417.061	4.88
417.843	2.88
418.624	4.88
419.406	3.88
420.188	4.88
420.969	4.88
421.751	7.88
422.532	4.88
423.313	4.88
424.095	5.88
424.876	2.88
425.657	4.88
426.438	5.88
427.219	5.88
428	6.88
428.78	6.88
429.561	5.88
430.342	8.88
431.122	4.88
431.903	5.88
432.683	8.88
433.464	6.88
434.244	9.88
435.024	9.88
435.804	6.88
436.584	8.88
437.364	7.88
438.144	9.88
438.924	12.88
439.704	9.88
440.483	11.88
441.263	10.88
442.042	11.88
442.822	11.88
443.601	13.88
444.38	14.88
445.16	15.88
445.939	16.88
446.718	16.88
447.497	20.88
448.276	20.88
449.054	20.88
449.833	23.88
450.612	24.88
451.391	29.88
452.169	29.88
452.948	31.88
453.726	35.88
454.504	39.88
455.282	45.88
456.061	46.88
456.839	53.88
457.617	57.88
458.395	66.88
459.172	80.88
459.95	84.88
460.728	90.88
461.506	99.88
462.283	105.88
463.061	125.88
463.838	138.88
464.615	147.88
465.393	167.88
466.17	189.88
466.947	214.88
467.724	237.88
468.501	263.88
469.278	284.88
470.055	324.88
470.831	358.88
471.608	395.88
472.385	438.88
473.161	487.88
473.938	537.88
474.714	596.88
475.49	656.88
476.266	726.88
477.043	796.88
477.819	873.88
478.595	962.88
479.371	1063.88
480.146	1162.88
480.922	1272.88
481.698	1412.88
482.473	1528.88
483.249	1693.88
484.024	1853.88
484.8	2013.88
485.575	2195.88
486.35	2421.88
487.126	2669.88
487.901	2918.88
488.676	3173.88
489.451	3476.88
490.225	3780.88
491	4144.88
491.775	4536.88
492.55	4938.88
493.324	5371.88
494.099	5830.88
494.873	6351.88
495.647	6892.88
496.422	7479.88
497.196	8062.88
497.97	8643.88
498.744	9335.88
499.518	10068.88
500.292	10650.88
501.066	11316.88
501.839	11989.88
502.613	12581.88
503.387	13205.88
504.16	13671.88
504.934	14238.88
505.707	14573.88
506.48	14934.88
507.253	15173.88
508.027	15320.88
508.8	15442.88
509.573	15402.88
510.346	15335.88
511.118	15110.88
511.891	14835.88
512.664	14508.88
513.437	14130.88
514.209	13667.88
514.982	13197.88
515.754	12717.88
516.526	12230.88
517.298	11725.88
518.071	11259.88
518.843	10741.88
519.615	10318.88
520.387	9884.88
521.159	9482.88
521.93	9085.88
522.702	8756.88
523.474	8414.88
524.245	8094.88
525.017	7770.88
525.788	7449.88
526.56	7145.88
527.331	6844.88
528.102	6569.88
528.873	6312.88
529.644	6021.88
530.415	5763.88
531.186	5521.88
531.957	5257.88
532.728	4993.88
533.498	4754.88
534.269	4496.88
535.039	4263.88
535.81	4027.88
536.58	3815.88
537.351	3612.88
538.121	3434.88
538.891	3229.88
539.661	3055.88
540.431	2900.88
541.201	2740.88
541.971	2595.88
542.741	2473.88
543.51	2320.88
544.28	2210.88
545.05	2089.88
545.819	1980.88
546.588	1886.88
547.358	1786.88
548.127	1700.88
548.896	1630.88
549.665	1532.88
550.434	1456.88
551.203	1382.88
551.972	1327.88
552.741	1246.88
553.51	1196.88
554.278	1125.88
555.047	1071.88
555.815	1006.88
556.584	949.88
557.352	900.88
558.121	841.88
558.889	796.88
559.657	752.88
560.425	709.88
561.193	671.88
561.961	646.88
562.729	596.88
563.496	565.88
564.264	533.88
565.032	504.88
565.799	476.88
566.567	440.88
567.334	421.88
568.101	384.88
568.869	375.88
569.636	354.88
570.403	337.88
571.17	317.88
571.937	296.88
572.704	285.88
573.471	262.88
574.237	250.88
575.004	240.88
575.771	219.88
576.537	208.88
577.303	195.88
578.07	180.88
578.836	171.88
579.602	164.88
580.368	154.88
581.134	148.88
581.9	139.88
582.666	133.88
583.432	123.88
584.198	122.88
584.964	111.88
585.729	104.88
586.495	100.88
587.26	98.88
588.025	87.88
588.791	82.88
589.556	78.88
590.321	72.88
591.086	71.88
591.851	64.88
592.616	62.88
593.381	60.88
594.146	56.88
594.911	53.88
595.675	50.88
596.44	49.88
597.204	49.88
597.969	48.88
598.733	43.88
599.497	40.88
600.261	39.88
601.025	34.88
601.79	36.88
602.553	33.88
603.317	32.88
604.081	27.88
604.845	29.88
605.609	27.88
606.372	28.88
607.136	27.88
607.899	24.88
608.662	22.88
609.426	23.88
610.189	21.88
610.952	20.88
611.715	16.88
612.478	18.88
613.241	16.88
614.004	16.88
614.767	20.88
615.529	17.88
616.292	14.88
617.055	16.88
617.817	15.88
618.579	13.88
619.342	12.88
620.104	10.88
620.866	11.88
621.628	11.88
622.39	9.88
623.152	9.88
623.914	9.88
624.676	10.88
625.438	8.88
626.199	7.88
626.961	7.88
627.722	8.88
628.484	9.88
629.245	9.88
630.006	8.88
630.768	9.88
631.529	7.88
632.29	9.88
633.051	6.88
633.812	6.88
634.573	7.88
635.333	5.88
636.094	4.88
636.855	7.88
637.615	5.88
638.376	2.88
639.136	5.88
639.896	5.88
640.657	6.88
641.417	4.88
642.177	3.88
642.937	5.88
643.697	3.88
644.457	5.88
645.216	4.88
645.976	3.88
646.736	4.88
647.495	2.88
648.255	3.88
649.014	3.88
649.774	4.88
650.533	3.88
651.292	3.88
652.051	2.88
652.81	0.88
653.569	5.88
654.328	3.88
655.087	4.88
655.846	3.88
656.604	3.88
657.363	2.88
658.121	2.88
658.88	2.88
659.638	1.88
660.397	3.88
661.155	1.88
661.913	1.88
662.671	6.88
663.429	3.88
664.187	0.88
664.945	1.88
665.703	1.88
666.46	-0.12
667.218	3.88
667.976	2.88
668.733	2.88
669.49	4.88
670.248	1.88
671.005	3.88
671.762	0.88
672.519	2.88
673.276	1.88
674.033	2.88
674.79	1.88
675.547	0.88
676.304	2.88
677.06	4.88
677.817	3.88
678.574	1.88
679.33	-1.12
680.086	4.88
680.843	-0.12
681.599	1.88
682.355	4.88
683.111	2.88
683.867	0.88
684.623	0.88
685.379	1.88
686.135	1.88
686.89	2.88
687.646	2.88
688.402	2.88
689.157	1.88
689.912	-0.12
690.668	2.88
691.423	2.88
692.178	0.88
692.933	0.88
693.688	-0.12
694.443	2.88
695.198	-2.12
695.953	1.88
696.708	3.88
697.462	0.88
698.217	1.88
698.972	0.88
699.726	2.88
700.48	0.88
701.235	-0.12
701.989	0.88
702.743	1.88
703.497	1.88
704.251	1.88
705.005	1.88
705.759	0.88
706.513	4.88
707.266	-0.12
708.02	0.88
708.774	1.88
709.527	-1.12
710.28	0.88
711.034	0.88
711.787	-0.12
712.54	0.88
713.293	0.88
714.046	-0.12
714.799	1.88
715.552	1.88
716.305	2.88
717.058	0.88
717.81	1.88
718.563	1.88
719.315	2.88
720.068	-1.12
720.82	1.88
721.573	0.88
722.325	1.88
723.077	3.88
723.829	-1.12
724.581	0.88
725.333	-0.12
726.085	3.88
726.836	-1.12
727.588	-0.12
728.34	0.88
729.091	-0.12
729.843	2.88
730.594	2.88
731.346	0.88
732.097	1.88
732.848	2.88
733.599	-0.12
734.35	0.88
735.101	4.88
735.852	2.88
736.603	2.88
737.354	2.88
738.104	1.88
738.855	1.88
739.605	2.88
740.356	3.88
741.106	2.88
741.856	1.88
742.607	0.88
743.357	2.88
744.107	1.88
744.857	0.88
745.607	2.88
746.357	2.88
747.106	1.88
747.856	2.88
748.606	1.88
749.355	2.88
750.105	0.88
750.854	1.88
751.603	4.88
752.353	1.88
753.102	4.88
753.851	3.88
754.6	1.88
755.349	1.88
756.098	1.88
756.847	2.88
757.595	2.88
758.344	3.88
759.093	1.88
759.841	1.88
760.589	2.88
761.338	4.88
762.086	1.88
762.834	2.88
763.582	2.88
764.331	1.88
765.079	2.88
765.826	1.88
766.574	3.88
767.322	2.88
768.07	1.88
768.817	2.88
769.565	4.88
770.312	3.88
771.06	2.88
771.807	2.88
772.554	3.88
773.302	3.88
774.049	2.88
774.796	2.88
775.543	3.88
776.29	0.88
777.036	3.88
777.783	4.88
778.53	2.88
779.276	4.88
780.023	4.88
780.769	4.88
781.516	0.88
782.262	4.88
783.008	5.88
783.754	5.88
784.5	5.88
785.246	2.88
785.992	2.88
786.738	3.88
787.484	4.88
788.23	4.88
788.975	6.88
789.721	4.88
790.466	3.88
791.212	3.88
791.957	5.88
792.702	2.88
793.447	4.88
794.193	2.88
794.938	3.88
795.683	2.88
796.427	5.88
797.172	4.88
797.917	5.88
798.662	5.88
799.406	2.88
800.151	3.88
800.895	4.88
801.64	2.88
802.384	3.88
803.128	4.88
803.872	5.88
804.616	1.88
805.36	2.88
806.104	2.88
806.848	4.88
807.592	2.88
808.336	4.88
809.079	1.88
809.823	1.88
810.566	2.88
811.31	1.88
812.053	3.88
812.796	3.88
813.539	2.88
814.283	4.88
815.026	3.88
815.769	2.88
816.511	2.88
817.254	3.88
817.997	1.88
818.74	3.88
819.482	0.88
820.225	0.88
820.967	0.88
821.71	1.88
822.452	2.88
823.194	1.88
823.936	1.88
824.678	1.88
825.42	-0.12
826.162	4.88
826.904	3.88
827.646	4.88
828.388	4.88
829.129	2.88
829.871	4.88
830.612	1.88
831.354	3.88
832.095	2.88
832.836	2.88
833.577	-0.12
834.319	0.88
835.06	1.88
835.801	-0.12
836.542	2.88
837.282	1.88
838.023	1.88
838.764	2.88
839.504	-1.12
840.245	-0.12
840.985	1.88
841.726	2.88
842.466	1.88
843.206	-1.12
843.946	1.88
844.687	2.88
845.427	3.88
846.166	2.88
846.906	2.88
847.646	0.88
848.386	1.88
849.125	1.88
849.865	2.88
850.605	0.88
851.344	-0.12
852.083	1.88
852.823	3.88
853.562	-0.12
854.301	0.88
855.04	1.88
855.779	0.88
856.518	-0.12
857.257	1.88
857.995	1.88
858.734	-1.12
859.473	-0.12
860.211	0.88
860.95	1.88
861.688	-0.12
862.426	1.88
863.165	1.88
863.903	-0.12
864.641	-1.12
865.379	-0.12
866.117	0.88
866.855	2.88
867.593	0.88
868.33	-0.12
869.068	1.88
869.806	0.88
870.543	-2.12
871.28	1.88
872.018	1.88
872.755	0.88
873.492	-0.12
874.229	-1.12
874.967	0.88
875.703	0.88
876.44	1.88
877.177	0.88
877.914	3.88
878.651	-0.12
879.387	-2.12
880.124	0.88
880.86	-1.12
881.597	1.88
882.333	0.88
883.069	1.88
883.806	0.88
884.542	2.88
885.278	0.88
886.014	0.88
886.749	2.88
887.485	0.88
888.221	0.88
888.957	-2.12
889.692	-0.12
890.428	1.88
891.163	-0.12
891.899	0.88
892.634	-1.12
893.369	0.88
894.104	0.88
894.839	0.88
895.574	0.88
896.309	0.88
897.044	1.88
897.779	-1.12
898.514	-1.12
899.248	-1.12
899.983	-0.12
900.717	0.88
901.452	0.88
902.186	-1.12
902.92	0.88
903.654	-0.12
904.389	1.88
905.123	-0.12
905.857	2.88
906.59	-2.12
907.324	-0.12
908.058	0.88
908.792	0.88
909.525	0.88
910.259	-0.12
910.992	0.88
911.726	0.88
912.459	0.88
913.192	1.88
913.925	1.88
914.658	-0.12
915.391	-0.12
916.124	-0.12
916.857	-0.12
917.59	1.88
918.323	1.88
919.055	-0.12
919.788	0.88
920.521	0.88
921.253	-2.12
921.985	-1.12
922.718	0.88
923.45	-0.12
924.182	-2.12
924.914	0.88
925.646	-2.12
926.378	-0.12
927.11	-0.12
927.841	-2.12
928.573	1.88
929.305	1.88
930.036	-2.12
930.768	-1.12
931.499	-0.12
932.23	-1.12
932.962	-1.12
933.693	0.88
934.424	-2.12
935.155	-0.12
935.886	-1.12
936.617	-0.12
937.348	-1.12
938.078	-1.12
938.809	-0.12
939.54	-1.12
940.27	0.88
941.001	-3.12
941.731	0.88
942.461	-1.12
943.191	0.88
943.922	-1.12
944.652	0.88
945.382	1.88
946.112	1.88
946.841	0.88
947.571	0.88
948.301	-0.12
949.031	-1.12
949.76	-2.12
950.49	-0.12
951.219	-0.12
951.948	-0.12
952.678	-2.12
953.407	-0.12
954.136	-0.12
954.865	-0.12
955.594	0.88
956.323	-0.12
957.052	-0.12
957.78	-2.12
958.509	1.88
959.238	-1.12
959.966	-1.12
960.695	0.88
961.423	-1.12
962.151	-0.12
962.88	-0.12
963.608	-2.12
964.336	-0.12
965.064	0.88
965.792	0.88
966.52	1.88
967.247	0.88
967.975	1.88
968.703	-0.12
969.43	-2.12
970.158	1.88
970.885	-2.12
971.613	-2.12
972.34	0.88
973.067	-0.12
973.794	1.88
974.521	-2.12
975.248	0.88
975.975	-2.12
976.702	-1.12
977.429	0.88
978.156	-2.12
978.882	0.88
979.609	0.88
980.335	0.88
981.062	-1.12
981.788	-0.12
982.514	-1.12
983.24	0.88
983.967	-0.12
984.693	-0.12
985.419	-0.12
986.144	0.88
986.87	-2.12
987.596	1.88
988.322	-2.12
989.047	-0.12
989.773	-2.12
990.498	-1.12
991.224	-0.12
991.949	-0.12
992.674	-0.12
993.399	0.88
994.124	-0.12
994.849	-0.12
995.574	-0.12
996.299	0.88
997.024	-1.12
997.749	-1.12
998.473	-0.12
999.198	-2.12
999.922	-1.12
1000.647	-0.12
1001.371	1.88
1002.095	-0.12
1002.82	-0.12
1003.544	-2.12
1004.268	-0.12
1004.992	-0.12
1005.716	-2.12
1006.439	0.88
1007.163	-0.12
1007.887	-1.12
1008.611	2.88
1009.334	-1.12
1010.058	1.88
1010.781	-1.12
1011.504	-2.12
1012.228	1.88
1012.951	-0.12
1013.674	-1.12
1014.397	-0.12
1015.12	1.88
