节点500_145_QEPB04081__112__11-30-45-571.txt的数据

Date: Wed Nov 12 11:30:45 CST 2025
User: PC
Spectrometer: QEPB0408
触发模式: 0
积分时间 (秒): 1.000000E-2
Scans to average: 1
启用暗噪声校正: true
启用非线性校正: false
滑动平均宽度: 0
X轴模式: Wavelengths
Number of Pixels in Spectrum: 1044
>>>>>Begin Spectral Data<<<<<
220.843	1.75
221.644	-2.25
222.444	-0.25
223.244	-0.25
224.045	0.75
224.845	-3.25
225.645	-1.25
226.445	0.75
227.245	0.75
228.045	-0.25
228.845	-0.25
229.645	-0.25
230.444	0.75
231.244	-0.25
232.043	-0.25
232.843	0.75
233.642	-0.25
234.442	-2.25
235.241	0.75
236.04	-0.25
236.839	0.75
237.638	2.75
238.437	-0.25
239.236	0.75
240.035	0.75
240.833	-0.25
241.632	-0.25
242.43	1.75
243.229	-0.25
244.027	-0.25
244.826	2.75
245.624	1.75
246.422	0.75
247.22	2.75
248.018	2.75
248.816	-0.25
249.614	3.75
250.412	0.75
251.21	2.75
252.007	2.75
252.805	0.75
253.602	-0.25
254.4	3.75
255.197	2.75
255.994	0.75
256.791	5.75
257.589	3.75
258.386	3.75
259.183	2.75
259.979	2.75
260.776	3.75
261.573	3.75
262.37	3.75
263.166	4.75
263.963	6.75
264.759	3.75
265.556	4.75
266.352	5.75
267.148	5.75
267.944	4.75
268.74	8.75
269.536	6.75
270.332	7.75
271.128	7.75
271.924	8.75
272.719	7.75
273.515	5.75
274.311	9.75
275.106	8.75
275.901	8.75
276.697	9.75
277.492	8.75
278.287	9.75
279.082	9.75
279.877	7.75
280.672	11.75
281.467	9.75
282.262	10.75
283.056	7.75
283.851	10.75
284.646	9.75
285.44	12.75
286.234	9.75
287.029	10.75
287.823	15.75
288.617	11.75
289.411	10.75
290.205	9.75
290.999	11.75
291.793	11.75
292.587	9.75
293.381	9.75
294.174	9.75
294.968	11.75
295.761	9.75
296.555	11.75
297.348	9.75
298.141	8.75
298.935	10.75
299.728	11.75
300.521	8.75
301.314	9.75
302.107	6.75
302.899	7.75
303.692	7.75
304.485	7.75
305.277	5.75
306.07	6.75
306.862	5.75
307.655	6.75
308.447	6.75
309.239	6.75
310.031	5.75
310.823	6.75
311.615	7.75
312.407	7.75
313.199	7.75
313.991	4.75
314.783	4.75
315.574	4.75
316.366	4.75
317.157	4.75
317.949	3.75
318.74	3.75
319.531	4.75
320.322	3.75
321.113	5.75
321.904	0.75
322.695	2.75
323.486	4.75
324.277	4.75
325.068	4.75
325.858	3.75
326.649	4.75
327.439	2.75
328.23	4.75
329.02	3.75
329.81	4.75
330.6	0.75
331.391	3.75
332.181	5.75
332.971	2.75
333.76	0.75
334.55	2.75
335.34	4.75
336.13	2.75
336.919	3.75
337.709	5.75
338.498	2.75
339.287	4.75
340.077	3.75
340.866	3.75
341.655	2.75
342.444	2.75
343.233	2.75
344.022	2.75
344.811	3.75
345.6	3.75
346.388	2.75
347.177	3.75
347.965	2.75
348.754	3.75
349.542	1.75
350.33	2.75
351.119	3.75
351.907	1.75
352.695	2.75
353.483	2.75
354.271	4.75
355.059	2.75
355.846	5.75
356.634	1.75
357.422	2.75
358.209	4.75
358.997	2.75
359.784	1.75
360.571	4.75
361.359	1.75
362.146	1.75
362.933	3.75
363.72	2.75
364.507	3.75
365.294	4.75
366.081	1.75
366.867	2.75
367.654	2.75
368.44	1.75
369.227	1.75
370.013	3.75
370.8	1.75
371.586	3.75
372.372	2.75
373.158	1.75
373.944	0.75
374.73	2.75
375.516	1.75
376.302	2.75
377.088	1.75
377.873	1.75
378.659	3.75
379.445	2.75
380.23	3.75
381.015	2.75
381.801	1.75
382.586	1.75
383.371	1.75
384.156	1.75
384.941	2.75
385.726	4.75
386.511	0.75
387.296	0.75
388.08	3.75
388.865	1.75
389.649	2.75
390.434	2.75
391.218	3.75
392.003	1.75
392.787	6.75
393.571	4.75
394.355	2.75
395.139	2.75
395.923	0.75
396.707	2.75
397.491	1.75
398.274	-0.25
399.058	2.75
399.842	2.75
400.625	2.75
401.408	2.75
402.192	2.75
402.975	1.75
403.758	4.75
404.541	3.75
405.324	3.75
406.107	4.75
406.89	4.75
407.673	4.75
408.456	4.75
409.238	3.75
410.021	4.75
410.803	3.75
411.586	5.75
412.368	3.75
413.151	6.75
413.933	1.75
414.715	4.75
415.497	2.75
416.279	4.75
417.061	4.75
417.843	4.75
418.624	3.75
419.406	3.75
420.188	4.75
420.969	4.75
421.751	4.75
422.532	4.75
423.313	3.75
424.095	4.75
424.876	5.75
425.657	6.75
426.438	5.75
427.219	3.75
428	4.75
428.78	7.75
429.561	4.75
430.342	5.75
431.122	6.75
431.903	8.75
432.683	6.75
433.464	7.75
434.244	7.75
435.024	9.75
435.804	9.75
436.584	5.75
437.364	9.75
438.144	8.75
438.924	10.75
439.704	9.75
440.483	11.75
441.263	10.75
442.042	10.75
442.822	11.75
443.601	13.75
444.38	13.75
445.16	14.75
445.939	16.75
446.718	17.75
447.497	16.75
448.276	19.75
449.054	19.75
449.833	20.75
450.612	21.75
451.391	25.75
452.169	28.75
452.948	27.75
453.726	32.75
454.504	37.75
455.282	38.75
456.061	42.75
456.839	45.75
457.617	52.75
458.395	53.75
459.172	60.75
459.95	66.75
460.728	76.75
461.506	84.75
462.283	95.75
463.061	104.75
463.838	117.75
464.615	130.75
465.393	146.75
466.17	165.75
466.947	183.75
467.724	196.75
468.501	221.75
469.278	252.75
470.055	285.75
470.831	310.75
471.608	348.75
472.385	395.75
473.161	436.75
473.938	484.75
474.714	544.75
475.49	603.75
476.266	675.75
477.043	753.75
477.819	828.75
478.595	921.75
479.371	1024.75
480.146	1136.75
480.922	1266.75
481.698	1410.75
482.473	1544.75
483.249	1712.75
484.024	1899.75
484.8	2120.75
485.575	2348.75
486.35	2580.75
487.126	2855.75
487.901	3181.75
488.676	3508.75
489.451	3859.75
490.225	4308.75
491	4760.75
491.775	5199.75
492.55	5730.75
493.324	6286.75
494.099	6897.75
494.873	7534.75
495.647	8240.75
496.422	8995.75
497.196	9785.75
497.97	10583.75
498.744	11303.75
499.518	12161.75
500.292	12968.75
501.066	13724.75
501.839	14438.75
502.613	15163.75
503.387	15762.75
504.16	16243.75
504.934	16718.75
505.707	16991.75
506.48	17232.75
507.253	17273.75
508.027	17328.75
508.8	17186.75
509.573	16862.75
510.346	16513.75
511.118	16118.75
511.891	15583.75
512.664	15088.75
513.437	14471.75
514.209	13898.75
514.982	13304.75
515.754	12697.75
516.526	12098.75
517.298	11529.75
518.071	10997.75
518.843	10580.75
519.615	10066.75
520.387	9666.75
521.159	9280.75
521.93	8921.75
522.702	8547.75
523.474	8234.75
524.245	7913.75
525.017	7629.75
525.788	7328.75
526.56	6998.75
527.331	6702.75
528.102	6396.75
528.873	6082.75
529.644	5827.75
530.415	5553.75
531.186	5257.75
531.957	4957.75
532.728	4695.75
533.498	4448.75
534.269	4210.75
535.039	3977.75
535.81	3749.75
536.58	3529.75
537.351	3355.75
538.121	3138.75
538.891	2981.75
539.661	2815.75
540.431	2639.75
541.201	2520.75
541.971	2394.75
542.741	2257.75
543.51	2138.75
544.28	2022.75
545.05	1926.75
545.819	1837.75
546.588	1736.75
547.358	1649.75
548.127	1572.75
548.896	1496.75
549.665	1427.75
550.434	1346.75
551.203	1288.75
551.972	1209.75
552.741	1142.75
553.51	1085.75
554.278	1017.75
555.047	943.75
555.815	903.75
556.584	850.75
557.352	804.75
558.121	760.75
558.889	714.75
559.657	679.75
560.425	631.75
561.193	593.75
561.961	552.75
562.729	536.75
563.496	511.75
564.264	471.75
565.032	445.75
565.799	425.75
566.567	386.75
567.334	385.75
568.101	354.75
568.869	334.75
569.636	315.75
570.403	298.75
571.17	277.75
571.937	265.75
572.704	252.75
573.471	233.75
574.237	224.75
575.004	212.75
575.771	201.75
576.537	194.75
577.303	177.75
578.07	164.75
578.836	152.75
579.602	144.75
580.368	137.75
581.134	130.75
581.9	123.75
582.666	112.75
583.432	105.75
584.198	104.75
584.964	96.75
585.729	93.75
586.495	86.75
587.26	81.75
588.025	80.75
588.791	71.75
589.556	72.75
590.321	70.75
591.086	63.75
591.851	63.75
592.616	58.75
593.381	51.75
594.146	53.75
594.911	52.75
595.675	47.75
596.44	42.75
597.204	41.75
597.969	37.75
598.733	34.75
599.497	34.75
600.261	32.75
601.025	33.75
601.79	30.75
602.553	31.75
603.317	29.75
604.081	29.75
604.845	29.75
605.609	23.75
606.372	23.75
607.136	25.75
607.899	22.75
608.662	17.75
609.426	19.75
610.189	21.75
610.952	19.75
611.715	18.75
612.478	17.75
613.241	13.75
614.004	15.75
614.767	14.75
615.529	13.75
616.292	15.75
617.055	12.75
617.817	12.75
618.579	12.75
619.342	10.75
620.104	12.75
620.866	13.75
621.628	12.75
622.39	9.75
623.152	9.75
623.914	10.75
624.676	8.75
625.438	8.75
626.199	8.75
626.961	7.75
627.722	8.75
628.484	8.75
629.245	7.75
630.006	6.75
630.768	6.75
631.529	7.75
632.29	8.75
633.051	8.75
633.812	7.75
634.573	6.75
635.333	6.75
636.094	6.75
636.855	8.75
637.615	3.75
638.376	4.75
639.136	7.75
639.896	3.75
640.657	5.75
641.417	5.75
642.177	6.75
642.937	6.75
643.697	4.75
644.457	3.75
645.216	4.75
645.976	5.75
646.736	2.75
647.495	5.75
648.255	4.75
649.014	1.75
649.774	5.75
650.533	2.75
651.292	3.75
652.051	0.75
652.81	4.75
653.569	1.75
654.328	1.75
655.087	4.75
655.846	1.75
656.604	2.75
657.363	0.75
658.121	1.75
658.88	5.75
659.638	3.75
660.397	1.75
661.155	0.75
661.913	1.75
662.671	3.75
663.429	2.75
664.187	2.75
664.945	0.75
665.703	3.75
666.46	2.75
667.218	1.75
667.976	2.75
668.733	0.75
669.49	2.75
670.248	0.75
671.005	3.75
671.762	2.75
672.519	2.75
673.276	0.75
674.033	1.75
674.79	0.75
675.547	2.75
676.304	4.75
677.06	-1.25
677.817	1.75
678.574	1.75
679.33	2.75
680.086	0.75
680.843	1.75
681.599	1.75
682.355	3.75
683.111	3.75
683.867	2.75
684.623	1.75
685.379	1.75
686.135	-0.25
686.89	2.75
687.646	1.75
688.402	0.75
689.157	2.75
689.912	0.75
690.668	1.75
691.423	-0.25
692.178	4.75
692.933	0.75
693.688	0.75
694.443	3.75
695.198	1.75
695.953	0.75
696.708	2.75
697.462	1.75
698.217	1.75
698.972	1.75
699.726	0.75
700.48	1.75
701.235	0.75
701.989	-0.25
702.743	3.75
703.497	0.75
704.251	1.75
705.005	4.75
705.759	0.75
706.513	1.75
707.266	3.75
708.02	0.75
708.774	4.75
709.527	1.75
710.28	0.75
711.034	0.75
711.787	1.75
712.54	0.75
713.293	3.75
714.046	1.75
714.799	3.75
715.552	1.75
716.305	0.75
717.058	2.75
717.81	1.75
718.563	1.75
719.315	0.75
720.068	1.75
720.82	3.75
721.573	2.75
722.325	4.75
723.077	0.75
723.829	1.75
724.581	1.75
725.333	0.75
726.085	0.75
726.836	1.75
727.588	1.75
728.34	0.75
729.091	1.75
729.843	2.75
730.594	3.75
731.346	1.75
732.097	0.75
732.848	1.75
733.599	2.75
734.35	0.75
735.101	2.75
735.852	0.75
736.603	1.75
737.354	0.75
738.104	2.75
738.855	-0.25
739.605	2.75
740.356	-0.25
741.106	-1.25
741.856	3.75
742.607	0.75
743.357	0.75
744.107	1.75
744.857	0.75
745.607	1.75
746.357	0.75
747.106	3.75
747.856	1.75
748.606	3.75
749.355	1.75
750.105	0.75
750.854	2.75
751.603	0.75
752.353	4.75
753.102	1.75
753.851	2.75
754.6	3.75
755.349	2.75
756.098	3.75
756.847	2.75
757.595	2.75
758.344	3.75
759.093	3.75
759.841	3.75
760.589	3.75
761.338	2.75
762.086	3.75
762.834	4.75
763.582	3.75
764.331	5.75
765.079	4.75
765.826	3.75
766.574	2.75
767.322	1.75
768.07	4.75
768.817	3.75
769.565	1.75
770.312	4.75
771.06	1.75
771.807	3.75
772.554	4.75
773.302	5.75
774.049	3.75
774.796	4.75
775.543	1.75
776.29	2.75
777.036	4.75
777.783	5.75
778.53	4.75
779.276	4.75
780.023	4.75
780.769	4.75
781.516	3.75
782.262	3.75
783.008	4.75
783.754	6.75
784.5	4.75
785.246	4.75
785.992	4.75
786.738	4.75
787.484	4.75
788.23	5.75
788.975	4.75
789.721	3.75
790.466	3.75
791.212	5.75
791.957	3.75
792.702	5.75
793.447	3.75
794.193	3.75
794.938	4.75
795.683	5.75
796.427	5.75
797.172	4.75
797.917	5.75
798.662	5.75
799.406	4.75
800.151	4.75
800.895	3.75
801.64	4.75
802.384	3.75
803.128	3.75
803.872	4.75
804.616	5.75
805.36	4.75
806.104	1.75
806.848	3.75
807.592	1.75
808.336	2.75
809.079	2.75
809.823	2.75
810.566	2.75
811.31	1.75
812.053	1.75
812.796	1.75
813.539	3.75
814.283	0.75
815.026	3.75
815.769	3.75
816.511	1.75
817.254	1.75
817.997	1.75
818.74	3.75
819.482	3.75
820.225	1.75
820.967	3.75
821.71	0.75
822.452	3.75
823.194	2.75
823.936	1.75
824.678	3.75
825.42	2.75
826.162	3.75
826.904	1.75
827.646	3.75
828.388	2.75
829.129	-1.25
829.871	1.75
830.612	2.75
831.354	-0.25
832.095	0.75
832.836	2.75
833.577	1.75
834.319	1.75
835.06	3.75
835.801	2.75
836.542	2.75
837.282	0.75
838.023	1.75
838.764	1.75
839.504	1.75
840.245	2.75
840.985	0.75
841.726	2.75
842.466	2.75
843.206	1.75
843.946	2.75
844.687	1.75
845.427	3.75
846.166	1.75
846.906	1.75
847.646	3.75
848.386	0.75
849.125	0.75
849.865	0.75
850.605	1.75
851.344	-2.25
852.083	1.75
852.823	1.75
853.562	1.75
854.301	-2.25
855.04	2.75
855.779	2.75
856.518	2.75
857.257	2.75
857.995	-0.25
858.734	-2.25
859.473	1.75
860.211	2.75
860.95	1.75
861.688	1.75
862.426	2.75
863.165	0.75
863.903	2.75
864.641	2.75
865.379	0.75
866.117	-1.25
866.855	-1.25
867.593	0.75
868.33	-0.25
869.068	0.75
869.806	-0.25
870.543	0.75
871.28	1.75
872.018	-1.25
872.755	1.75
873.492	-1.25
874.229	2.75
874.967	0.75
875.703	-1.25
876.44	1.75
877.177	-0.25
877.914	1.75
878.651	1.75
879.387	1.75
880.124	1.75
880.86	-3.25
881.597	-0.25
882.333	0.75
883.069	-2.25
883.806	-1.25
884.542	0.75
885.278	-1.25
886.014	0.75
886.749	0.75
887.485	1.75
888.221	-0.25
888.957	0.75
889.692	-2.25
890.428	0.75
891.163	-0.25
891.899	1.75
892.634	1.75
893.369	0.75
894.104	2.75
894.839	-0.25
895.574	-0.25
896.309	1.75
897.044	0.75
897.779	-1.25
898.514	0.75
899.248	0.75
899.983	0.75
900.717	2.75
901.452	-2.25
902.186	-0.25
902.92	-0.25
903.654	-0.25
904.389	-1.25
905.123	-3.25
905.857	4.75
906.59	1.75
907.324	0.75
908.058	-1.25
908.792	-0.25
909.525	-1.25
910.259	-0.25
910.992	-0.25
911.726	-0.25
912.459	1.75
913.192	1.75
913.925	0.75
914.658	0.75
915.391	-1.25
916.124	0.75
916.857	-1.25
917.59	-0.25
918.323	0.75
919.055	-0.25
919.788	-0.25
920.521	-0.25
921.253	0.75
921.985	0.75
922.718	0.75
923.45	-1.25
924.182	-0.25
924.914	1.75
925.646	-2.25
926.378	-0.25
927.11	-0.25
927.841	-1.25
928.573	0.75
929.305	0.75
930.036	-0.25
930.768	0.75
931.499	-0.25
932.23	-0.25
932.962	-1.25
933.693	-0.25
934.424	-0.25
935.155	-0.25
935.886	0.75
936.617	-0.25
937.348	2.75
938.078	0.75
938.809	-0.25
939.54	-2.25
940.27	-0.25
941.001	-0.25
941.731	1.75
942.461	-3.25
943.191	-0.25
943.922	0.75
944.652	-0.25
945.382	-0.25
946.112	-1.25
946.841	-0.25
947.571	0.75
948.301	-0.25
949.031	-2.25
949.76	-1.25
950.49	0.75
951.219	-0.25
951.948	-1.25
952.678	-1.25
953.407	-0.25
954.136	-2.25
954.865	-1.25
955.594	0.75
956.323	-0.25
957.052	-1.25
957.78	-0.25
958.509	-0.25
959.238	-1.25
959.966	0.75
960.695	-0.25
961.423	-1.25
962.151	0.75
962.88	-1.25
963.608	0.75
964.336	1.75
965.064	-0.25
965.792	0.75
966.52	0.75
967.247	1.75
967.975	-0.25
968.703	-0.25
969.43	-0.25
970.158	0.75
970.885	1.75
971.613	-1.25
972.34	-0.25
973.067	0.75
973.794	-0.25
974.521	-0.25
975.248	0.75
975.975	-2.25
976.702	-2.25
977.429	-0.25
978.156	-1.25
978.882	1.75
979.609	-0.25
980.335	-0.25
981.062	-0.25
981.788	0.75
982.514	1.75
983.24	-0.25
983.967	-1.25
984.693	0.75
985.419	0.75
986.144	-1.25
986.87	0.75
987.596	0.75
988.322	-0.25
989.047	-0.25
989.773	1.75
990.498	-1.25
991.224	-0.25
991.949	0.75
992.674	-0.25
993.399	-0.25
994.124	-1.25
994.849	0.75
995.574	1.75
996.299	2.75
997.024	-0.25
997.749	0.75
998.473	-1.25
999.198	-1.25
999.922	0.75
1000.647	-1.25
1001.371	2.75
1002.095	-2.25
1002.82	0.75
1003.544	-1.25
1004.268	2.75
1004.992	-1.25
1005.716	-1.25
1006.439	0.75
1007.163	-2.25
1007.887	-1.25
1008.611	-1.25
1009.334	-0.25
1010.058	0.75
1010.781	-0.25
1011.504	0.75
1012.228	0.75
1012.951	-0.25
1013.674	-0.25
1014.397	0.75
1015.12	-0.25
