节点500_145_QEPB04081__337__11-34-19-565.txt的数据

Date: Wed Nov 12 11:34:19 CST 2025
User: PC
Spectrometer: QEPB0408
触发模式: 0
积分时间 (秒): 1.000000E-2
Scans to average: 1
启用暗噪声校正: true
启用非线性校正: false
滑动平均宽度: 0
X轴模式: Wavelengths
Number of Pixels in Spectrum: 1044
>>>>>Begin Spectral Data<<<<<
220.843	-1.5
221.644	-0.5
222.444	1.5
223.244	0.5
224.045	0.5
224.845	-1.5
225.645	0.5
226.445	1.5
227.245	0.5
228.045	1.5
228.845	0.5
229.645	0.5
230.444	1.5
231.244	1.5
232.043	1.5
232.843	-1.5
233.642	1.5
234.442	-1.5
235.241	1.5
236.04	0.5
236.839	1.5
237.638	1.5
238.437	1.5
239.236	0.5
240.035	-0.5
240.833	2.5
241.632	1.5
242.43	4.5
243.229	2.5
244.027	2.5
244.826	1.5
245.624	-0.5
246.422	2.5
247.22	2.5
248.018	0.5
248.816	1.5
249.614	2.5
250.412	2.5
251.21	1.5
252.007	4.5
252.805	3.5
253.602	3.5
254.4	2.5
255.197	2.5
255.994	0.5
256.791	1.5
257.589	3.5
258.386	4.5
259.183	3.5
259.979	3.5
260.776	3.5
261.573	5.5
262.37	5.5
263.166	4.5
263.963	5.5
264.759	6.5
265.556	6.5
266.352	5.5
267.148	7.5
267.944	7.5
268.74	8.5
269.536	8.5
270.332	7.5
271.128	7.5
271.924	6.5
272.719	8.5
273.515	7.5
274.311	7.5
275.106	11.5
275.901	7.5
276.697	9.5
277.492	8.5
278.287	11.5
279.082	9.5
279.877	10.5
280.672	9.5
281.467	10.5
282.262	11.5
283.056	11.5
283.851	8.5
284.646	10.5
285.44	12.5
286.234	10.5
287.029	11.5
287.823	8.5
288.617	9.5
289.411	10.5
290.205	9.5
290.999	12.5
291.793	10.5
292.587	11.5
293.381	12.5
294.174	10.5
294.968	9.5
295.761	10.5
296.555	7.5
297.348	10.5
298.141	9.5
298.935	10.5
299.728	8.5
300.521	8.5
301.314	10.5
302.107	8.5
302.899	8.5
303.692	7.5
304.485	9.5
305.277	6.5
306.07	10.5
306.862	6.5
307.655	6.5
308.447	6.5
309.239	8.5
310.031	7.5
310.823	7.5
311.615	6.5
312.407	6.5
313.199	6.5
313.991	5.5
314.783	7.5
315.574	6.5
316.366	5.5
317.157	6.5
317.949	6.5
318.74	6.5
319.531	5.5
320.322	4.5
321.113	5.5
321.904	4.5
322.695	4.5
323.486	3.5
324.277	4.5
325.068	4.5
325.858	2.5
326.649	4.5
327.439	8.5
328.23	4.5
329.02	2.5
329.81	5.5
330.6	3.5
331.391	4.5
332.181	4.5
332.971	4.5
333.76	5.5
334.55	2.5
335.34	3.5
336.13	4.5
336.919	3.5
337.709	3.5
338.498	3.5
339.287	3.5
340.077	3.5
340.866	4.5
341.655	3.5
342.444	2.5
343.233	2.5
344.022	4.5
344.811	3.5
345.6	2.5
346.388	4.5
347.177	3.5
347.965	4.5
348.754	2.5
349.542	2.5
350.33	4.5
351.119	0.5
351.907	3.5
352.695	2.5
353.483	3.5
354.271	2.5
355.059	2.5
355.846	4.5
356.634	3.5
357.422	3.5
358.209	4.5
358.997	2.5
359.784	2.5
360.571	1.5
361.359	3.5
362.146	1.5
362.933	3.5
363.72	4.5
364.507	2.5
365.294	2.5
366.081	3.5
366.867	2.5
367.654	5.5
368.44	3.5
369.227	2.5
370.013	2.5
370.8	3.5
371.586	2.5
372.372	2.5
373.158	2.5
373.944	2.5
374.73	3.5
375.516	1.5
376.302	2.5
377.088	4.5
377.873	2.5
378.659	3.5
379.445	4.5
380.23	3.5
381.015	2.5
381.801	2.5
382.586	3.5
383.371	1.5
384.156	3.5
384.941	3.5
385.726	2.5
386.511	3.5
387.296	2.5
388.08	4.5
388.865	4.5
389.649	3.5
390.434	2.5
391.218	2.5
392.003	-0.5
392.787	1.5
393.571	1.5
394.355	2.5
395.139	1.5
395.923	3.5
396.707	4.5
397.491	2.5
398.274	5.5
399.058	2.5
399.842	1.5
400.625	2.5
401.408	2.5
402.192	2.5
402.975	5.5
403.758	2.5
404.541	4.5
405.324	5.5
406.107	3.5
406.89	2.5
407.673	5.5
408.456	2.5
409.238	2.5
410.021	4.5
410.803	5.5
411.586	4.5
412.368	4.5
413.151	4.5
413.933	5.5
414.715	5.5
415.497	2.5
416.279	4.5
417.061	3.5
417.843	3.5
418.624	4.5
419.406	7.5
420.188	5.5
420.969	5.5
421.751	6.5
422.532	4.5
423.313	3.5
424.095	6.5
424.876	6.5
425.657	9.5
426.438	6.5
427.219	5.5
428	8.5
428.78	6.5
429.561	6.5
430.342	6.5
431.122	9.5
431.903	7.5
432.683	8.5
433.464	7.5
434.244	8.5
435.024	10.5
435.804	7.5
436.584	12.5
437.364	8.5
438.144	11.5
438.924	11.5
439.704	12.5
440.483	12.5
441.263	10.5
442.042	11.5
442.822	13.5
443.601	12.5
444.38	16.5
445.16	15.5
445.939	16.5
446.718	16.5
447.497	21.5
448.276	20.5
449.054	20.5
449.833	22.5
450.612	25.5
451.391	24.5
452.169	31.5
452.948	32.5
453.726	33.5
454.504	37.5
455.282	42.5
456.061	44.5
456.839	53.5
457.617	52.5
458.395	60.5
459.172	67.5
459.95	74.5
460.728	82.5
461.506	96.5
462.283	104.5
463.061	113.5
463.838	126.5
464.615	140.5
465.393	157.5
466.17	181.5
466.947	195.5
467.724	220.5
468.501	248.5
469.278	278.5
470.055	304.5
470.831	336.5
471.608	374.5
472.385	419.5
473.161	463.5
473.938	517.5
474.714	572.5
475.49	631.5
476.266	693.5
477.043	768.5
477.819	850.5
478.595	943.5
479.371	1051.5
480.146	1147.5
480.922	1280.5
481.698	1398.5
482.473	1568.5
483.249	1718.5
484.024	1874.5
484.8	2075.5
485.575	2263.5
486.35	2516.5
487.126	2785.5
487.901	3039.5
488.676	3349.5
489.451	3678.5
490.225	4045.5
491	4425.5
491.775	4881.5
492.55	5303.5
493.324	5798.5
494.099	6373.5
494.873	6937.5
495.647	7558.5
496.422	8206.5
497.196	8914.5
497.97	9593.5
498.744	10298.5
499.518	11033.5
500.292	11753.5
501.066	12499.5
501.839	13157.5
502.613	13878.5
503.387	14431.5
504.16	14998.5
504.934	15474.5
505.707	15871.5
506.48	16093.5
507.253	16297.5
508.027	16408.5
508.8	16302.5
509.573	16232.5
510.346	15982.5
511.118	15680.5
511.891	15299.5
512.664	14885.5
513.437	14342.5
514.209	13809.5
514.982	13296.5
515.754	12743.5
516.526	12213.5
517.298	11645.5
518.071	11143.5
518.843	10630.5
519.615	10203.5
520.387	9780.5
521.159	9406.5
521.93	9002.5
522.702	8631.5
523.474	8333.5
524.245	7962.5
525.017	7665.5
525.788	7386.5
526.56	7089.5
527.331	6768.5
528.102	6455.5
528.873	6213.5
529.644	5912.5
530.415	5646.5
531.186	5388.5
531.957	5101.5
532.728	4885.5
533.498	4600.5
534.269	4358.5
535.039	4086.5
535.81	3889.5
536.58	3669.5
537.351	3464.5
538.121	3292.5
538.891	3083.5
539.661	2898.5
540.431	2782.5
541.201	2611.5
541.971	2502.5
542.741	2362.5
543.51	2235.5
544.28	2107.5
545.05	2003.5
545.819	1912.5
546.588	1823.5
547.358	1720.5
548.127	1624.5
548.896	1555.5
549.665	1479.5
550.434	1418.5
551.203	1341.5
551.972	1272.5
552.741	1193.5
553.51	1133.5
554.278	1074.5
555.047	1009.5
555.815	948.5
556.584	910.5
557.352	854.5
558.121	801.5
558.889	752.5
559.657	721.5
560.425	671.5
561.193	625.5
561.961	602.5
562.729	572.5
563.496	526.5
564.264	503.5
565.032	471.5
565.799	441.5
566.567	424.5
567.334	401.5
568.101	376.5
568.869	350.5
569.636	334.5
570.403	315.5
571.17	295.5
571.937	282.5
572.704	262.5
573.471	248.5
574.237	240.5
575.004	223.5
575.771	201.5
576.537	192.5
577.303	181.5
578.07	178.5
578.836	164.5
579.602	152.5
580.368	145.5
581.134	141.5
581.9	130.5
582.666	127.5
583.432	112.5
584.198	112.5
584.964	105.5
585.729	101.5
586.495	93.5
587.26	86.5
588.025	85.5
588.791	80.5
589.556	73.5
590.321	71.5
591.086	69.5
591.851	62.5
592.616	60.5
593.381	61.5
594.146	57.5
594.911	51.5
595.675	51.5
596.44	45.5
597.204	48.5
597.969	42.5
598.733	42.5
599.497	37.5
600.261	36.5
601.025	34.5
601.79	35.5
602.553	33.5
603.317	31.5
604.081	27.5
604.845	28.5
605.609	27.5
606.372	25.5
607.136	25.5
607.899	24.5
608.662	24.5
609.426	21.5
610.189	20.5
610.952	18.5
611.715	21.5
612.478	20.5
613.241	17.5
614.004	18.5
614.767	15.5
615.529	15.5
616.292	13.5
617.055	13.5
617.817	14.5
618.579	14.5
619.342	15.5
620.104	14.5
620.866	11.5
621.628	10.5
622.39	11.5
623.152	11.5
623.914	11.5
624.676	9.5
625.438	10.5
626.199	10.5
626.961	10.5
627.722	9.5
628.484	10.5
629.245	8.5
630.006	4.5
630.768	8.5
631.529	7.5
632.29	9.5
633.051	5.5
633.812	8.5
634.573	8.5
635.333	6.5
636.094	6.5
636.855	3.5
637.615	4.5
638.376	6.5
639.136	6.5
639.896	6.5
640.657	5.5
641.417	7.5
642.177	5.5
642.937	5.5
643.697	3.5
644.457	4.5
645.216	4.5
645.976	4.5
646.736	2.5
647.495	3.5
648.255	4.5
649.014	5.5
649.774	4.5
650.533	2.5
651.292	5.5
652.051	3.5
652.81	4.5
653.569	4.5
654.328	2.5
655.087	3.5
655.846	2.5
656.604	0.5
657.363	4.5
658.121	3.5
658.88	2.5
659.638	3.5
660.397	3.5
661.155	3.5
661.913	1.5
662.671	3.5
663.429	3.5
664.187	2.5
664.945	4.5
665.703	3.5
666.46	4.5
667.218	1.5
667.976	1.5
668.733	1.5
669.49	2.5
670.248	2.5
671.005	4.5
671.762	2.5
672.519	1.5
673.276	4.5
674.033	2.5
674.79	2.5
675.547	1.5
676.304	2.5
677.06	2.5
677.817	3.5
678.574	2.5
679.33	-0.5
680.086	0.5
680.843	1.5
681.599	1.5
682.355	1.5
683.111	1.5
683.867	2.5
684.623	1.5
685.379	3.5
686.135	1.5
686.89	1.5
687.646	3.5
688.402	2.5
689.157	3.5
689.912	1.5
690.668	4.5
691.423	-0.5
692.178	1.5
692.933	1.5
693.688	1.5
694.443	2.5
695.198	1.5
695.953	2.5
696.708	1.5
697.462	1.5
698.217	0.5
698.972	1.5
699.726	2.5
700.48	1.5
701.235	2.5
701.989	0.5
702.743	2.5
703.497	2.5
704.251	2.5
705.005	1.5
705.759	2.5
706.513	1.5
707.266	2.5
708.02	2.5
708.774	4.5
709.527	1.5
710.28	3.5
711.034	0.5
711.787	3.5
712.54	0.5
713.293	-0.5
714.046	1.5
714.799	1.5
715.552	1.5
716.305	1.5
717.058	2.5
717.81	1.5
718.563	3.5
719.315	3.5
720.068	4.5
720.82	2.5
721.573	0.5
722.325	1.5
723.077	2.5
723.829	1.5
724.581	4.5
725.333	3.5
726.085	2.5
726.836	3.5
727.588	1.5
728.34	2.5
729.091	0.5
729.843	3.5
730.594	-0.5
731.346	2.5
732.097	2.5
732.848	2.5
733.599	2.5
734.35	2.5
735.101	2.5
735.852	3.5
736.603	2.5
737.354	1.5
738.104	3.5
738.855	3.5
739.605	0.5
740.356	4.5
741.106	4.5
741.856	3.5
742.607	2.5
743.357	2.5
744.107	1.5
744.857	1.5
745.607	1.5
746.357	0.5
747.106	3.5
747.856	2.5
748.606	2.5
749.355	0.5
750.105	1.5
750.854	3.5
751.603	2.5
752.353	0.5
753.102	2.5
753.851	3.5
754.6	2.5
755.349	2.5
756.098	3.5
756.847	1.5
757.595	4.5
758.344	2.5
759.093	4.5
759.841	5.5
760.589	4.5
761.338	4.5
762.086	2.5
762.834	5.5
763.582	4.5
764.331	5.5
765.079	4.5
765.826	5.5
766.574	4.5
767.322	2.5
768.07	5.5
768.817	5.5
769.565	5.5
770.312	4.5
771.06	2.5
771.807	4.5
772.554	4.5
773.302	4.5
774.049	3.5
774.796	1.5
775.543	4.5
776.29	1.5
777.036	5.5
777.783	3.5
778.53	7.5
779.276	3.5
780.023	4.5
780.769	5.5
781.516	2.5
782.262	5.5
783.008	4.5
783.754	3.5
784.5	4.5
785.246	3.5
785.992	4.5
786.738	4.5
787.484	5.5
788.23	3.5
788.975	5.5
789.721	7.5
790.466	5.5
791.212	6.5
791.957	3.5
792.702	6.5
793.447	6.5
794.193	4.5
794.938	5.5
795.683	2.5
796.427	5.5
797.172	5.5
797.917	3.5
798.662	4.5
799.406	4.5
800.151	3.5
800.895	3.5
801.64	5.5
802.384	3.5
803.128	5.5
803.872	3.5
804.616	2.5
805.36	5.5
806.104	3.5
806.848	5.5
807.592	5.5
808.336	4.5
809.079	3.5
809.823	6.5
810.566	4.5
811.31	5.5
812.053	2.5
812.796	1.5
813.539	4.5
814.283	5.5
815.026	3.5
815.769	2.5
816.511	2.5
817.254	5.5
817.997	5.5
818.74	3.5
819.482	3.5
820.225	1.5
820.967	6.5
821.71	2.5
822.452	2.5
823.194	2.5
823.936	2.5
824.678	3.5
825.42	1.5
826.162	3.5
826.904	1.5
827.646	4.5
828.388	4.5
829.129	4.5
829.871	2.5
830.612	3.5
831.354	5.5
832.095	2.5
832.836	3.5
833.577	2.5
834.319	2.5
835.06	2.5
835.801	1.5
836.542	1.5
837.282	0.5
838.023	3.5
838.764	3.5
839.504	4.5
840.245	2.5
840.985	3.5
841.726	1.5
842.466	2.5
843.206	1.5
843.946	2.5
844.687	1.5
845.427	2.5
846.166	4.5
846.906	2.5
847.646	0.5
848.386	3.5
849.125	1.5
849.865	-0.5
850.605	2.5
851.344	3.5
852.083	2.5
852.823	3.5
853.562	3.5
854.301	0.5
855.04	2.5
855.779	2.5
856.518	1.5
857.257	1.5
857.995	0.5
858.734	2.5
859.473	-0.5
860.211	1.5
860.95	1.5
861.688	1.5
862.426	4.5
863.165	1.5
863.903	1.5
864.641	2.5
865.379	0.5
866.117	1.5
866.855	0.5
867.593	1.5
868.33	1.5
869.068	0.5
869.806	0.5
870.543	-0.5
871.28	2.5
872.018	0.5
872.755	1.5
873.492	-1.5
874.229	1.5
874.967	1.5
875.703	2.5
876.44	-0.5
877.177	1.5
877.914	2.5
878.651	0.5
879.387	1.5
880.124	0.5
880.86	1.5
881.597	0.5
882.333	0.5
883.069	-0.5
883.806	0.5
884.542	-0.5
885.278	0.5
886.014	1.5
886.749	0.5
887.485	-0.5
888.221	3.5
888.957	0.5
889.692	-0.5
890.428	1.5
891.163	-1.5
891.899	0.5
892.634	1.5
893.369	1.5
894.104	-0.5
894.839	1.5
895.574	1.5
896.309	0.5
897.044	1.5
897.779	-0.5
898.514	-1.5
899.248	0.5
899.983	1.5
900.717	0.5
901.452	0.5
902.186	2.5
902.92	0.5
903.654	1.5
904.389	0.5
905.123	1.5
905.857	0.5
906.59	0.5
907.324	1.5
908.058	0.5
908.792	-1.5
909.525	-2.5
910.259	2.5
910.992	-1.5
911.726	-0.5
912.459	2.5
913.192	2.5
913.925	1.5
914.658	0.5
915.391	0.5
916.124	-0.5
916.857	-0.5
917.59	-1.5
918.323	1.5
919.055	-0.5
919.788	0.5
920.521	1.5
921.253	0.5
921.985	0.5
922.718	1.5
923.45	-1.5
924.182	2.5
924.914	-1.5
925.646	0.5
926.378	-0.5
927.11	-1.5
927.841	0.5
928.573	2.5
929.305	0.5
930.036	-0.5
930.768	2.5
931.499	-0.5
932.23	-0.5
932.962	0.5
933.693	-2.5
934.424	-1.5
935.155	-0.5
935.886	-0.5
936.617	1.5
937.348	1.5
938.078	-0.5
938.809	1.5
939.54	-0.5
940.27	-1.5
941.001	-0.5
941.731	-0.5
942.461	-1.5
943.191	0.5
943.922	-1.5
944.652	1.5
945.382	-1.5
946.112	-0.5
946.841	1.5
947.571	0.5
948.301	-0.5
949.031	-2.5
949.76	2.5
950.49	0.5
951.219	0.5
951.948	0.5
952.678	-0.5
953.407	-1.5
954.136	1.5
954.865	1.5
955.594	0.5
956.323	0.5
957.052	-1.5
957.78	1.5
958.509	1.5
959.238	-1.5
959.966	2.5
960.695	-1.5
961.423	2.5
962.151	2.5
962.88	-0.5
963.608	1.5
964.336	-1.5
965.064	-0.5
965.792	-1.5
966.52	-0.5
967.247	0.5
967.975	-0.5
968.703	3.5
969.43	-0.5
970.158	2.5
970.885	1.5
971.613	0.5
972.34	-0.5
973.067	-1.5
973.794	-1.5
974.521	-1.5
975.248	0.5
975.975	0.5
976.702	0.5
977.429	-0.5
978.156	1.5
978.882	2.5
979.609	0.5
980.335	2.5
981.062	1.5
981.788	-1.5
982.514	1.5
983.24	-0.5
983.967	-0.5
984.693	1.5
985.419	0.5
986.144	-1.5
986.87	1.5
987.596	1.5
988.322	1.5
989.047	1.5
989.773	-0.5
990.498	-0.5
991.224	-0.5
991.949	1.5
992.674	1.5
993.399	1.5
994.124	1.5
994.849	1.5
995.574	2.5
996.299	-0.5
997.024	-0.5
997.749	2.5
998.473	-0.5
999.198	0.5
999.922	0.5
1000.647	1.5
1001.371	3.5
1002.095	-1.5
1002.82	0.5
1003.544	-0.5
1004.268	-0.5
1004.992	-0.5
1005.716	-0.5
1006.439	-0.5
1007.163	0.5
1007.887	0.5
1008.611	2.5
1009.334	0.5
1010.058	-1.5
1010.781	-0.5
1011.504	-0.5
1012.228	-0.5
1012.951	-2.5
1013.674	-0.5
1014.397	0.5
1015.12	0.5
