节点500_145_QEPB04081__516__11-37-07-536.txt的数据

Date: Wed Nov 12 11:37:07 CST 2025
User: PC
Spectrometer: QEPB0408
触发模式: 0
积分时间 (秒): 1.000000E-2
Scans to average: 1
启用暗噪声校正: true
启用非线性校正: false
滑动平均宽度: 0
X轴模式: Wavelengths
Number of Pixels in Spectrum: 1044
>>>>>Begin Spectral Data<<<<<
220.843	1
221.644	2
222.444	1
223.244	-1
224.045	-1
224.845	-1
225.645	2
226.445	-1
227.245	0
228.045	2
228.845	1
229.645	-1
230.444	2
231.244	3
232.043	0
232.843	0
233.642	0
234.442	2
235.241	0
236.04	2
236.839	4
237.638	2
238.437	3
239.236	3
240.035	2
240.833	4
241.632	1
242.43	2
243.229	1
244.027	3
244.826	2
245.624	1
246.422	4
247.22	2
248.018	1
248.816	2
249.614	4
250.412	2
251.21	0
252.007	4
252.805	2
253.602	3
254.4	2
255.197	3
255.994	4
256.791	1
257.589	3
258.386	4
259.183	2
259.979	5
260.776	4
261.573	6
262.37	3
263.166	7
263.963	5
264.759	8
265.556	4
266.352	9
267.148	6
267.944	9
268.74	5
269.536	7
270.332	6
271.128	8
271.924	7
272.719	8
273.515	10
274.311	9
275.106	9
275.901	9
276.697	9
277.492	10
278.287	11
279.082	9
279.877	9
280.672	10
281.467	11
282.262	10
283.056	11
283.851	9
284.646	9
285.44	12
286.234	9
287.029	11
287.823	12
288.617	12
289.411	13
290.205	8
290.999	12
291.793	12
292.587	13
293.381	9
294.174	8
294.968	10
295.761	10
296.555	12
297.348	8
298.141	11
298.935	11
299.728	9
300.521	10
301.314	8
302.107	12
302.899	8
303.692	11
304.485	9
305.277	9
306.07	9
306.862	11
307.655	7
308.447	6
309.239	6
310.031	9
310.823	7
311.615	6
312.407	7
313.199	7
313.991	6
314.783	6
315.574	6
316.366	6
317.157	6
317.949	5
318.74	3
319.531	3
320.322	6
321.113	5
321.904	6
322.695	7
323.486	3
324.277	7
325.068	4
325.858	5
326.649	7
327.439	5
328.23	7
329.02	5
329.81	5
330.6	2
331.391	3
332.181	5
332.971	2
333.76	6
334.55	4
335.34	6
336.13	4
336.919	3
337.709	6
338.498	3
339.287	6
340.077	3
340.866	4
341.655	4
342.444	4
343.233	7
344.022	2
344.811	5
345.6	5
346.388	4
347.177	4
347.965	5
348.754	4
349.542	3
350.33	4
351.119	2
351.907	4
352.695	4
353.483	3
354.271	5
355.059	3
355.846	4
356.634	6
357.422	4
358.209	2
358.997	2
359.784	4
360.571	2
361.359	2
362.146	2
362.933	4
363.72	3
364.507	6
365.294	5
366.081	3
366.867	5
367.654	3
368.44	2
369.227	3
370.013	3
370.8	2
371.586	3
372.372	3
373.158	2
373.944	4
374.73	3
375.516	3
376.302	2
377.088	0
377.873	4
378.659	5
379.445	2
380.23	3
381.015	3
381.801	4
382.586	2
383.371	5
384.156	1
384.941	4
385.726	4
386.511	3
387.296	3
388.08	5
388.865	5
389.649	3
390.434	6
391.218	3
392.003	3
392.787	5
393.571	2
394.355	6
395.139	4
395.923	3
396.707	5
397.491	3
398.274	4
399.058	4
399.842	6
400.625	5
401.408	5
402.192	4
402.975	5
403.758	4
404.541	3
405.324	5
406.107	6
406.89	4
407.673	2
408.456	2
409.238	6
410.021	5
410.803	5
411.586	1
412.368	3
413.151	5
413.933	5
414.715	4
415.497	7
416.279	5
417.061	5
417.843	7
418.624	6
419.406	4
420.188	7
420.969	6
421.751	8
422.532	8
423.313	7
424.095	6
424.876	6
425.657	7
426.438	6
427.219	7
428	8
428.78	7
429.561	9
430.342	6
431.122	10
431.903	5
432.683	6
433.464	8
434.244	9
435.024	10
435.804	9
436.584	10
437.364	8
438.144	10
438.924	10
439.704	11
440.483	14
441.263	15
442.042	13
442.822	14
443.601	13
444.38	15
445.16	18
445.939	18
446.718	21
447.497	22
448.276	24
449.054	22
449.833	24
450.612	23
451.391	28
452.169	30
452.948	32
453.726	40
454.504	38
455.282	45
456.061	47
456.839	56
457.617	60
458.395	64
459.172	70
459.95	78
460.728	91
461.506	97
462.283	114
463.061	123
463.838	136
464.615	157
465.393	162
466.17	185
466.947	206
467.724	228
468.501	252
469.278	288
470.055	315
470.831	355
471.608	387
472.385	430
473.161	483
473.938	522
474.714	590
475.49	651
476.266	713
477.043	795
477.819	861
478.595	952
479.371	1055
480.146	1159
480.922	1270
481.698	1399
482.473	1524
483.249	1688
484.024	1847
484.8	2030
485.575	2222
486.35	2446
487.126	2687
487.901	2943
488.676	3224
489.451	3525
490.225	3845
491	4227
491.775	4636
492.55	5064
493.324	5490
494.099	6005
494.873	6537
495.647	7105
496.422	7685
497.196	8327
497.97	8997
498.744	9670
499.518	10325
500.292	10995
501.066	11655
501.839	12322
502.613	12928
503.387	13519
504.16	14096
504.934	14598
505.707	14988
506.48	15277
507.253	15548
508.027	15654
508.8	15724
509.573	15691
510.346	15560
511.118	15291
511.891	14963
512.664	14602
513.437	14190
514.209	13717
514.982	13240
515.754	12741
516.526	12239
517.298	11681
518.071	11202
518.843	10686
519.615	10308
520.387	9872
521.159	9417
521.93	9066
522.702	8683
523.474	8396
524.245	8055
525.017	7747
525.788	7393
526.56	7110
527.331	6849
528.102	6552
528.873	6283
529.644	5993
530.415	5710
531.186	5454
531.957	5204
532.728	4975
533.498	4688
534.269	4429
535.039	4222
535.81	3999
536.58	3789
537.351	3574
538.121	3357
538.891	3198
539.661	2996
540.431	2853
541.201	2703
541.971	2550
542.741	2421
543.51	2281
544.28	2172
545.05	2064
545.819	1962
546.588	1885
547.358	1767
548.127	1696
548.896	1611
549.665	1519
550.434	1450
551.203	1376
551.972	1308
552.741	1235
553.51	1161
554.278	1119
555.047	1050
555.815	995
556.584	929
557.352	882
558.121	836
558.889	778
559.657	746
560.425	698
561.193	666
561.961	626
562.729	592
563.496	542
564.264	523
565.032	492
565.799	472
566.567	441
567.334	419
568.101	396
568.869	371
569.636	349
570.403	331
571.17	316
571.937	294
572.704	277
573.471	265
574.237	243
575.004	230
575.771	218
576.537	206
577.303	197
578.07	185
578.836	171
579.602	165
580.368	155
581.134	145
581.9	140
582.666	132
583.432	128
584.198	115
584.964	111
585.729	101
586.495	97
587.26	93
588.025	87
588.791	82
589.556	77
590.321	73
591.086	67
591.851	63
592.616	65
593.381	61
594.146	56
594.911	57
595.675	49
596.44	53
597.204	52
597.969	43
598.733	46
599.497	42
600.261	39
601.025	35
601.79	36
602.553	36
603.317	33
604.081	33
604.845	28
605.609	29
606.372	25
607.136	25
607.899	26
608.662	25
609.426	23
610.189	21
610.952	22
611.715	20
612.478	22
613.241	16
614.004	17
614.767	18
615.529	15
616.292	19
617.055	16
617.817	15
618.579	14
619.342	13
620.104	14
620.866	14
621.628	13
622.39	11
623.152	11
623.914	11
624.676	12
625.438	11
626.199	9
626.961	10
627.722	10
628.484	12
629.245	9
630.006	8
630.768	11
631.529	9
632.29	8
633.051	9
633.812	11
634.573	7
635.333	7
636.094	7
636.855	7
637.615	9
638.376	6
639.136	8
639.896	6
640.657	6
641.417	7
642.177	7
642.937	3
643.697	4
644.457	5
645.216	5
645.976	3
646.736	6
647.495	5
648.255	7
649.014	4
649.774	7
650.533	3
651.292	2
652.051	5
652.81	2
653.569	3
654.328	4
655.087	3
655.846	6
656.604	2
657.363	6
658.121	2
658.88	4
659.638	6
660.397	4
661.155	5
661.913	3
662.671	1
663.429	5
664.187	3
664.945	2
665.703	3
666.46	4
667.218	3
667.976	4
668.733	3
669.49	4
670.248	6
671.005	3
671.762	6
672.519	3
673.276	3
674.033	4
674.79	5
675.547	4
676.304	5
677.06	4
677.817	2
678.574	3
679.33	2
680.086	3
680.843	4
681.599	4
682.355	4
683.111	6
683.867	3
684.623	2
685.379	4
686.135	2
686.89	6
687.646	3
688.402	1
689.157	3
689.912	1
690.668	4
691.423	5
692.178	4
692.933	3
693.688	4
694.443	3
695.198	1
695.953	1
696.708	2
697.462	2
698.217	5
698.972	2
699.726	3
700.48	5
701.235	5
701.989	2
702.743	1
703.497	3
704.251	3
705.005	4
705.759	3
706.513	2
707.266	4
708.02	2
708.774	5
709.527	1
710.28	3
711.034	2
711.787	2
712.54	4
713.293	3
714.046	3
714.799	2
715.552	2
716.305	4
717.058	4
717.81	1
718.563	5
719.315	4
720.068	3
720.82	2
721.573	5
722.325	0
723.077	5
723.829	3
724.581	3
725.333	4
726.085	2
726.836	3
727.588	3
728.34	2
729.091	3
729.843	4
730.594	2
731.346	6
732.097	3
732.848	3
733.599	4
734.35	3
735.101	3
735.852	4
736.603	5
737.354	3
738.104	2
738.855	3
739.605	2
740.356	3
741.106	4
741.856	4
742.607	2
743.357	3
744.107	4
744.857	1
745.607	1
746.357	4
747.106	2
747.856	4
748.606	3
749.355	3
750.105	2
750.854	4
751.603	2
752.353	1
753.102	2
753.851	4
754.6	3
755.349	1
756.098	1
756.847	1
757.595	2
758.344	3
759.093	4
759.841	4
760.589	2
761.338	5
762.086	3
762.834	3
763.582	5
764.331	3
765.079	6
765.826	3
766.574	4
767.322	3
768.07	6
768.817	2
769.565	4
770.312	4
771.06	4
771.807	6
772.554	4
773.302	3
774.049	4
774.796	4
775.543	4
776.29	5
777.036	3
777.783	2
778.53	5
779.276	4
780.023	4
780.769	8
781.516	4
782.262	5
783.008	5
783.754	4
784.5	6
785.246	5
785.992	6
786.738	8
787.484	5
788.23	7
788.975	4
789.721	6
790.466	6
791.212	4
791.957	4
792.702	3
793.447	2
794.193	6
794.938	5
795.683	5
796.427	6
797.172	4
797.917	3
798.662	7
799.406	5
800.151	7
800.895	4
801.64	5
802.384	4
803.128	5
803.872	5
804.616	4
805.36	5
806.104	4
806.848	3
807.592	6
808.336	5
809.079	6
809.823	5
810.566	6
811.31	4
812.053	6
812.796	2
813.539	3
814.283	5
815.026	5
815.769	3
816.511	7
817.254	4
817.997	4
818.74	4
819.482	4
820.225	5
820.967	4
821.71	4
822.452	2
823.194	4
823.936	3
824.678	5
825.42	4
826.162	3
826.904	2
827.646	4
828.388	3
829.129	3
829.871	3
830.612	3
831.354	4
832.095	3
832.836	2
833.577	4
834.319	2
835.06	1
835.801	2
836.542	5
837.282	3
838.023	3
838.764	5
839.504	3
840.245	4
840.985	2
841.726	3
842.466	3
843.206	4
843.946	1
844.687	3
845.427	5
846.166	-1
846.906	3
847.646	4
848.386	3
849.125	3
849.865	2
850.605	5
851.344	1
852.083	2
852.823	4
853.562	1
854.301	-1
855.04	3
855.779	3
856.518	0
857.257	1
857.995	2
858.734	2
859.473	3
860.211	1
860.95	1
861.688	3
862.426	2
863.165	2
863.903	2
864.641	2
865.379	1
866.117	1
866.855	2
867.593	2
868.33	2
869.068	0
869.806	3
870.543	0
871.28	3
872.018	0
872.755	2
873.492	1
874.229	3
874.967	2
875.703	4
876.44	2
877.177	2
877.914	0
878.651	0
879.387	1
880.124	0
880.86	0
881.597	-1
882.333	1
883.069	3
883.806	1
884.542	-1
885.278	3
886.014	1
886.749	-1
887.485	3
888.221	2
888.957	3
889.692	1
890.428	3
891.163	1
891.899	3
892.634	2
893.369	0
894.104	1
894.839	0
895.574	3
896.309	2
897.044	0
897.779	0
898.514	1
899.248	-1
899.983	-1
900.717	1
901.452	-1
902.186	1
902.92	0
903.654	1
904.389	1
905.123	1
905.857	1
906.59	3
907.324	2
908.058	1
908.792	2
909.525	0
910.259	1
910.992	1
911.726	1
912.459	0
913.192	1
913.925	1
914.658	1
915.391	-1
916.124	2
916.857	0
917.59	2
918.323	-2
919.055	0
919.788	0
920.521	1
921.253	3
921.985	4
922.718	0
923.45	1
924.182	-1
924.914	2
925.646	0
926.378	1
927.11	-1
927.841	1
928.573	1
929.305	0
930.036	1
930.768	-2
931.499	2
932.23	-1
932.962	1
933.693	2
934.424	1
935.155	1
935.886	2
936.617	3
937.348	1
938.078	3
938.809	2
939.54	1
940.27	2
941.001	0
941.731	0
942.461	2
943.191	1
943.922	3
944.652	0
945.382	3
946.112	0
946.841	0
947.571	0
948.301	1
949.031	-1
949.76	-1
950.49	0
951.219	0
951.948	2
952.678	0
953.407	3
954.136	1
954.865	0
955.594	2
956.323	0
957.052	0
957.78	1
958.509	1
959.238	1
959.966	-1
960.695	1
961.423	2
962.151	0
962.88	0
963.608	1
964.336	3
965.064	-1
965.792	3
966.52	1
967.247	4
967.975	1
968.703	0
969.43	3
970.158	0
970.885	0
971.613	0
972.34	1
973.067	1
973.794	0
974.521	-1
975.248	1
975.975	2
976.702	2
977.429	-1
978.156	0
978.882	-1
979.609	2
980.335	0
981.062	0
981.788	0
982.514	2
983.24	-1
983.967	0
984.693	2
985.419	0
986.144	0
986.87	1
987.596	1
988.322	2
989.047	2
989.773	1
990.498	1
991.224	1
991.949	-1
992.674	0
993.399	2
994.124	0
994.849	2
995.574	1
996.299	2
997.024	2
997.749	-1
998.473	0
999.198	-1
999.922	-1
1000.647	0
1001.371	3
1002.095	-3
1002.82	0
1003.544	-1
1004.268	-1
1004.992	1
1005.716	0
1006.439	-1
1007.163	1
1007.887	1
1008.611	1
1009.334	-1
1010.058	3
1010.781	1
1011.504	1
1012.228	2
1012.951	2
1013.674	-2
1014.397	0
1015.12	1
