节点500_145_QEPB04081__469__11-36-25-568.txt的数据

Date: Wed Nov 12 11:36:25 CST 2025
User: PC
Spectrometer: QEPB0408
触发模式: 0
积分时间 (秒): 1.000000E-2
Scans to average: 1
启用暗噪声校正: true
启用非线性校正: false
滑动平均宽度: 0
X轴模式: Wavelengths
Number of Pixels in Spectrum: 1044
>>>>>Begin Spectral Data<<<<<
220.843	2.88
221.644	1.88
222.444	1.88
223.244	-1.12
224.045	0.88
224.845	0.88
225.645	2.88
226.445	1.88
227.245	-0.12
228.045	-0.12
228.845	0.88
229.645	0.88
230.444	-0.12
231.244	-0.12
232.043	0.88
232.843	1.88
233.642	0.88
234.442	0.88
235.241	1.88
236.04	0.88
236.839	3.88
237.638	1.88
238.437	0.88
239.236	3.88
240.035	1.88
240.833	1.88
241.632	1.88
242.43	1.88
243.229	2.88
244.027	2.88
244.826	1.88
245.624	1.88
246.422	2.88
247.22	1.88
248.018	2.88
248.816	0.88
249.614	2.88
250.412	4.88
251.21	3.88
252.007	2.88
252.805	-2.12
253.602	2.88
254.4	2.88
255.197	1.88
255.994	5.88
256.791	2.88
257.589	5.88
258.386	3.88
259.183	4.88
259.979	3.88
260.776	6.88
261.573	5.88
262.37	2.88
263.166	5.88
263.963	5.88
264.759	5.88
265.556	5.88
266.352	4.88
267.148	5.88
267.944	8.88
268.74	8.88
269.536	5.88
270.332	8.88
271.128	8.88
271.924	7.88
272.719	7.88
273.515	5.88
274.311	10.88
275.106	8.88
275.901	7.88
276.697	11.88
277.492	9.88
278.287	7.88
279.082	9.88
279.877	8.88
280.672	9.88
281.467	12.88
282.262	11.88
283.056	9.88
283.851	8.88
284.646	9.88
285.44	10.88
286.234	8.88
287.029	13.88
287.823	10.88
288.617	10.88
289.411	10.88
290.205	9.88
290.999	9.88
291.793	9.88
292.587	12.88
293.381	10.88
294.174	11.88
294.968	12.88
295.761	9.88
296.555	9.88
297.348	10.88
298.141	9.88
298.935	9.88
299.728	8.88
300.521	13.88
301.314	8.88
302.107	10.88
302.899	8.88
303.692	7.88
304.485	9.88
305.277	8.88
306.07	9.88
306.862	8.88
307.655	8.88
308.447	8.88
309.239	7.88
310.031	7.88
310.823	7.88
311.615	8.88
312.407	8.88
313.199	9.88
313.991	4.88
314.783	6.88
315.574	5.88
316.366	7.88
317.157	4.88
317.949	8.88
318.74	6.88
319.531	5.88
320.322	6.88
321.113	4.88
321.904	2.88
322.695	7.88
323.486	2.88
324.277	6.88
325.068	5.88
325.858	3.88
326.649	5.88
327.439	5.88
328.23	6.88
329.02	4.88
329.81	3.88
330.6	3.88
331.391	4.88
332.181	3.88
332.971	2.88
333.76	3.88
334.55	2.88
335.34	4.88
336.13	5.88
336.919	3.88
337.709	5.88
338.498	3.88
339.287	3.88
340.077	0.88
340.866	7.88
341.655	3.88
342.444	2.88
343.233	3.88
344.022	5.88
344.811	3.88
345.6	1.88
346.388	4.88
347.177	2.88
347.965	5.88
348.754	1.88
349.542	5.88
350.33	1.88
351.119	3.88
351.907	3.88
352.695	4.88
353.483	2.88
354.271	5.88
355.059	3.88
355.846	2.88
356.634	1.88
357.422	5.88
358.209	2.88
358.997	4.88
359.784	4.88
360.571	2.88
361.359	3.88
362.146	2.88
362.933	2.88
363.72	3.88
364.507	0.88
365.294	4.88
366.081	2.88
366.867	1.88
367.654	4.88
368.44	2.88
369.227	3.88
370.013	3.88
370.8	4.88
371.586	2.88
372.372	2.88
373.158	4.88
373.944	4.88
374.73	1.88
375.516	3.88
376.302	3.88
377.088	3.88
377.873	2.88
378.659	4.88
379.445	3.88
380.23	2.88
381.015	1.88
381.801	4.88
382.586	3.88
383.371	3.88
384.156	5.88
384.941	1.88
385.726	2.88
386.511	2.88
387.296	3.88
388.08	4.88
388.865	3.88
389.649	4.88
390.434	4.88
391.218	3.88
392.003	5.88
392.787	4.88
393.571	3.88
394.355	2.88
395.139	2.88
395.923	3.88
396.707	4.88
397.491	1.88
398.274	6.88
399.058	5.88
399.842	3.88
400.625	2.88
401.408	2.88
402.192	4.88
402.975	3.88
403.758	3.88
404.541	5.88
405.324	4.88
406.107	5.88
406.89	4.88
407.673	3.88
408.456	3.88
409.238	4.88
410.021	4.88
410.803	3.88
411.586	3.88
412.368	3.88
413.151	5.88
413.933	1.88
414.715	6.88
415.497	5.88
416.279	6.88
417.061	6.88
417.843	3.88
418.624	2.88
419.406	3.88
420.188	5.88
420.969	4.88
421.751	4.88
422.532	4.88
423.313	5.88
424.095	6.88
424.876	6.88
425.657	5.88
426.438	7.88
427.219	7.88
428	6.88
428.78	5.88
429.561	5.88
430.342	6.88
431.122	5.88
431.903	8.88
432.683	7.88
433.464	9.88
434.244	8.88
435.024	9.88
435.804	9.88
436.584	9.88
437.364	10.88
438.144	10.88
438.924	10.88
439.704	9.88
440.483	14.88
441.263	13.88
442.042	13.88
442.822	13.88
443.601	12.88
444.38	16.88
445.16	16.88
445.939	18.88
446.718	20.88
447.497	18.88
448.276	21.88
449.054	22.88
449.833	25.88
450.612	26.88
451.391	27.88
452.169	28.88
452.948	33.88
453.726	37.88
454.504	43.88
455.282	44.88
456.061	49.88
456.839	52.88
457.617	58.88
458.395	61.88
459.172	68.88
459.95	80.88
460.728	88.88
461.506	97.88
462.283	109.88
463.061	124.88
463.838	131.88
464.615	151.88
465.393	169.88
466.17	186.88
466.947	202.88
467.724	231.88
468.501	259.88
469.278	283.88
470.055	317.88
470.831	347.88
471.608	393.88
472.385	425.88
473.161	479.88
473.938	530.88
474.714	575.88
475.49	643.88
476.266	712.88
477.043	786.88
477.819	880.88
478.595	951.88
479.371	1053.88
480.146	1159.88
480.922	1275.88
481.698	1409.88
482.473	1541.88
483.249	1709.88
484.024	1867.88
484.8	2049.88
485.575	2256.88
486.35	2463.88
487.126	2716.88
487.901	2981.88
488.676	3259.88
489.451	3571.88
490.225	3913.88
491	4278.88
491.775	4678.88
492.55	5096.88
493.324	5616.88
494.099	6078.88
494.873	6680.88
495.647	7209.88
496.422	7826.88
497.196	8465.88
497.97	9195.88
498.744	9849.88
499.518	10491.88
500.292	11197.88
501.066	11912.88
501.839	12575.88
502.613	13218.88
503.387	13803.88
504.16	14410.88
504.934	14858.88
505.707	15267.88
506.48	15543.88
507.253	15779.88
508.027	15927.88
508.8	15929.88
509.573	15825.88
510.346	15670.88
511.118	15470.88
511.891	15099.88
512.664	14693.88
513.437	14262.88
514.209	13780.88
514.982	13295.88
515.754	12767.88
516.526	12240.88
517.298	11692.88
518.071	11199.88
518.843	10785.88
519.615	10300.88
520.387	9862.88
521.159	9486.88
521.93	9124.88
522.702	8711.88
523.474	8421.88
524.245	8080.88
525.017	7722.88
525.788	7415.88
526.56	7118.88
527.331	6813.88
528.102	6574.88
528.873	6285.88
529.644	5982.88
530.415	5719.88
531.186	5449.88
531.957	5198.88
532.728	4935.88
533.498	4651.88
534.269	4412.88
535.039	4191.88
535.81	3956.88
536.58	3760.88
537.351	3544.88
538.121	3352.88
538.891	3169.88
539.661	3014.88
540.431	2844.88
541.201	2702.88
541.971	2542.88
542.741	2414.88
543.51	2296.88
544.28	2165.88
545.05	2052.88
545.819	1955.88
546.588	1855.88
547.358	1769.88
548.127	1679.88
548.896	1579.88
549.665	1521.88
550.434	1458.88
551.203	1353.88
551.972	1296.88
552.741	1236.88
553.51	1170.88
554.278	1107.88
555.047	1048.88
555.815	989.88
556.584	936.88
557.352	877.88
558.121	825.88
558.889	785.88
559.657	729.88
560.425	694.88
561.193	659.88
561.961	613.88
562.729	585.88
563.496	549.88
564.264	520.88
565.032	494.88
565.799	467.88
566.567	442.88
567.334	412.88
568.101	384.88
568.869	373.88
569.636	343.88
570.403	333.88
571.17	308.88
571.937	288.88
572.704	270.88
573.471	255.88
574.237	242.88
575.004	228.88
575.771	215.88
576.537	201.88
577.303	199.88
578.07	178.88
578.836	166.88
579.602	159.88
580.368	147.88
581.134	141.88
581.9	136.88
582.666	134.88
583.432	123.88
584.198	118.88
584.964	111.88
585.729	100.88
586.495	100.88
587.26	92.88
588.025	89.88
588.791	83.88
589.556	80.88
590.321	74.88
591.086	73.88
591.851	69.88
592.616	64.88
593.381	58.88
594.146	56.88
594.911	54.88
595.675	52.88
596.44	50.88
597.204	46.88
597.969	43.88
598.733	42.88
599.497	39.88
600.261	40.88
601.025	35.88
601.79	35.88
602.553	34.88
603.317	28.88
604.081	30.88
604.845	33.88
605.609	30.88
606.372	28.88
607.136	25.88
607.899	28.88
608.662	24.88
609.426	22.88
610.189	21.88
610.952	20.88
611.715	19.88
612.478	21.88
613.241	18.88
614.004	19.88
614.767	17.88
615.529	18.88
616.292	18.88
617.055	13.88
617.817	13.88
618.579	13.88
619.342	13.88
620.104	12.88
620.866	10.88
621.628	12.88
622.39	10.88
623.152	11.88
623.914	9.88
624.676	10.88
625.438	9.88
626.199	9.88
626.961	8.88
627.722	10.88
628.484	9.88
629.245	7.88
630.006	6.88
630.768	9.88
631.529	6.88
632.29	5.88
633.051	6.88
633.812	6.88
634.573	7.88
635.333	5.88
636.094	8.88
636.855	7.88
637.615	8.88
638.376	5.88
639.136	5.88
639.896	6.88
640.657	7.88
641.417	5.88
642.177	5.88
642.937	7.88
643.697	3.88
644.457	5.88
645.216	6.88
645.976	4.88
646.736	4.88
647.495	3.88
648.255	5.88
649.014	4.88
649.774	5.88
650.533	3.88
651.292	3.88
652.051	6.88
652.81	3.88
653.569	5.88
654.328	2.88
655.087	4.88
655.846	4.88
656.604	2.88
657.363	3.88
658.121	1.88
658.88	5.88
659.638	3.88
660.397	2.88
661.155	2.88
661.913	3.88
662.671	4.88
663.429	3.88
664.187	3.88
664.945	3.88
665.703	2.88
666.46	0.88
667.218	2.88
667.976	2.88
668.733	5.88
669.49	3.88
670.248	3.88
671.005	3.88
671.762	1.88
672.519	2.88
673.276	4.88
674.033	1.88
674.79	5.88
675.547	3.88
676.304	2.88
677.06	2.88
677.817	0.88
678.574	0.88
679.33	2.88
680.086	1.88
680.843	2.88
681.599	2.88
682.355	4.88
683.111	3.88
683.867	2.88
684.623	3.88
685.379	3.88
686.135	2.88
686.89	2.88
687.646	3.88
688.402	4.88
689.157	2.88
689.912	1.88
690.668	3.88
691.423	2.88
692.178	3.88
692.933	2.88
693.688	2.88
694.443	2.88
695.198	1.88
695.953	1.88
696.708	3.88
697.462	1.88
698.217	1.88
698.972	0.88
699.726	1.88
700.48	1.88
701.235	1.88
701.989	1.88
702.743	1.88
703.497	3.88
704.251	1.88
705.005	3.88
705.759	1.88
706.513	3.88
707.266	1.88
708.02	1.88
708.774	2.88
709.527	1.88
710.28	4.88
711.034	2.88
711.787	2.88
712.54	3.88
713.293	0.88
714.046	2.88
714.799	0.88
715.552	1.88
716.305	1.88
717.058	1.88
717.81	4.88
718.563	1.88
719.315	4.88
720.068	2.88
720.82	3.88
721.573	1.88
722.325	1.88
723.077	0.88
723.829	1.88
724.581	1.88
725.333	1.88
726.085	-0.12
726.836	-0.12
727.588	3.88
728.34	0.88
729.091	2.88
729.843	3.88
730.594	2.88
731.346	4.88
732.097	2.88
732.848	3.88
733.599	2.88
734.35	2.88
735.101	-0.12
735.852	2.88
736.603	1.88
737.354	2.88
738.104	5.88
738.855	1.88
739.605	1.88
740.356	2.88
741.106	3.88
741.856	5.88
742.607	1.88
743.357	3.88
744.107	3.88
744.857	3.88
745.607	2.88
746.357	2.88
747.106	4.88
747.856	2.88
748.606	4.88
749.355	2.88
750.105	0.88
750.854	4.88
751.603	3.88
752.353	4.88
753.102	3.88
753.851	2.88
754.6	3.88
755.349	2.88
756.098	2.88
756.847	2.88
757.595	3.88
758.344	2.88
759.093	3.88
759.841	1.88
760.589	4.88
761.338	5.88
762.086	3.88
762.834	3.88
763.582	2.88
764.331	6.88
765.079	4.88
765.826	2.88
766.574	2.88
767.322	0.88
768.07	3.88
768.817	2.88
769.565	3.88
770.312	4.88
771.06	3.88
771.807	4.88
772.554	4.88
773.302	4.88
774.049	4.88
774.796	4.88
775.543	4.88
776.29	5.88
777.036	5.88
777.783	3.88
778.53	3.88
779.276	4.88
780.023	5.88
780.769	7.88
781.516	3.88
782.262	4.88
783.008	5.88
783.754	3.88
784.5	3.88
785.246	3.88
785.992	1.88
786.738	3.88
787.484	5.88
788.23	5.88
788.975	3.88
789.721	5.88
790.466	5.88
791.212	5.88
791.957	3.88
792.702	2.88
793.447	5.88
794.193	5.88
794.938	5.88
795.683	4.88
796.427	4.88
797.172	4.88
797.917	4.88
798.662	3.88
799.406	3.88
800.151	3.88
800.895	4.88
801.64	5.88
802.384	6.88
803.128	5.88
803.872	5.88
804.616	5.88
805.36	1.88
806.104	4.88
806.848	4.88
807.592	4.88
808.336	3.88
809.079	6.88
809.823	5.88
810.566	6.88
811.31	2.88
812.053	3.88
812.796	5.88
813.539	3.88
814.283	2.88
815.026	5.88
815.769	3.88
816.511	3.88
817.254	2.88
817.997	2.88
818.74	6.88
819.482	3.88
820.225	2.88
820.967	1.88
821.71	3.88
822.452	4.88
823.194	2.88
823.936	5.88
824.678	1.88
825.42	2.88
826.162	4.88
826.904	3.88
827.646	3.88
828.388	1.88
829.129	3.88
829.871	3.88
830.612	1.88
831.354	3.88
832.095	0.88
832.836	2.88
833.577	2.88
834.319	4.88
835.06	2.88
835.801	4.88
836.542	4.88
837.282	2.88
838.023	4.88
838.764	1.88
839.504	3.88
840.245	4.88
840.985	3.88
841.726	2.88
842.466	2.88
843.206	2.88
843.946	0.88
844.687	2.88
845.427	1.88
846.166	2.88
846.906	0.88
847.646	2.88
848.386	1.88
849.125	2.88
849.865	2.88
850.605	3.88
851.344	1.88
852.083	3.88
852.823	-0.12
853.562	1.88
854.301	2.88
855.04	1.88
855.779	3.88
856.518	1.88
857.257	1.88
857.995	0.88
858.734	-1.12
859.473	3.88
860.211	4.88
860.95	-1.12
861.688	1.88
862.426	2.88
863.165	2.88
863.903	1.88
864.641	0.88
865.379	2.88
866.117	1.88
866.855	-1.12
867.593	1.88
868.33	1.88
869.068	1.88
869.806	1.88
870.543	1.88
871.28	3.88
872.018	0.88
872.755	4.88
873.492	-0.12
874.229	1.88
874.967	-1.12
875.703	-0.12
876.44	0.88
877.177	-0.12
877.914	1.88
878.651	-1.12
879.387	1.88
880.124	1.88
880.86	0.88
881.597	1.88
882.333	0.88
883.069	0.88
883.806	0.88
884.542	1.88
885.278	1.88
886.014	1.88
886.749	-1.12
887.485	-0.12
888.221	-0.12
888.957	0.88
889.692	-1.12
890.428	1.88
891.163	1.88
891.899	2.88
892.634	-1.12
893.369	2.88
894.104	-2.12
894.839	1.88
895.574	0.88
896.309	1.88
897.044	2.88
897.779	0.88
898.514	-0.12
899.248	-1.12
899.983	-0.12
900.717	0.88
901.452	-0.12
902.186	2.88
902.92	1.88
903.654	2.88
904.389	1.88
905.123	0.88
905.857	1.88
906.59	1.88
907.324	0.88
908.058	0.88
908.792	3.88
909.525	0.88
910.259	-3.12
910.992	2.88
911.726	-1.12
912.459	2.88
913.192	0.88
913.925	2.88
914.658	0.88
915.391	-1.12
916.124	2.88
916.857	0.88
917.59	0.88
918.323	-1.12
919.055	1.88
919.788	1.88
920.521	1.88
921.253	-0.12
921.985	0.88
922.718	0.88
923.45	1.88
924.182	1.88
924.914	-1.12
925.646	0.88
926.378	0.88
927.11	1.88
927.841	1.88
928.573	-0.12
929.305	0.88
930.036	0.88
930.768	3.88
931.499	0.88
932.23	0.88
932.962	-1.12
933.693	-1.12
934.424	0.88
935.155	-0.12
935.886	0.88
936.617	-1.12
937.348	-1.12
938.078	0.88
938.809	-1.12
939.54	2.88
940.27	0.88
941.001	-1.12
941.731	-1.12
942.461	1.88
943.191	2.88
943.922	-1.12
944.652	0.88
945.382	0.88
946.112	0.88
946.841	-0.12
947.571	-1.12
948.301	1.88
949.031	1.88
949.76	-0.12
950.49	1.88
951.219	3.88
951.948	2.88
952.678	0.88
953.407	-0.12
954.136	-0.12
954.865	1.88
955.594	0.88
956.323	0.88
957.052	0.88
957.78	0.88
958.509	-1.12
959.238	0.88
959.966	1.88
960.695	0.88
961.423	0.88
962.151	1.88
962.88	0.88
963.608	0.88
964.336	1.88
965.064	0.88
965.792	-1.12
966.52	-0.12
967.247	0.88
967.975	-0.12
968.703	0.88
969.43	-1.12
970.158	5.88
970.885	0.88
971.613	-0.12
972.34	1.88
973.067	-2.12
973.794	0.88
974.521	-0.12
975.248	-1.12
975.975	-0.12
976.702	1.88
977.429	0.88
978.156	1.88
978.882	0.88
979.609	-1.12
980.335	0.88
981.062	0.88
981.788	1.88
982.514	1.88
983.24	0.88
983.967	0.88
984.693	1.88
985.419	1.88
986.144	2.88
986.87	0.88
987.596	2.88
988.322	0.88
989.047	1.88
989.773	0.88
990.498	0.88
991.224	1.88
991.949	-1.12
992.674	0.88
993.399	-0.12
994.124	2.88
994.849	-2.12
995.574	0.88
996.299	0.88
997.024	0.88
997.749	2.88
998.473	-0.12
999.198	0.88
999.922	-0.12
1000.647	1.88
1001.371	3.88
1002.095	-3.12
1002.82	0.88
1003.544	0.88
1004.268	0.88
1004.992	0.88
1005.716	-0.12
1006.439	-0.12
1007.163	1.88
1007.887	-0.12
1008.611	0.88
1009.334	-1.12
1010.058	1.88
1010.781	-1.12
1011.504	3.88
1012.228	-1.12
1012.951	-1.12
1013.674	-1.12
1014.397	-1.12
1015.12	0.88
