节点500_145_QEPB04081__129__11-31-00-614.txt的数据

Date: Wed Nov 12 11:31:00 CST 2025
User: PC
Spectrometer: QEPB0408
触发模式: 0
积分时间 (秒): 1.000000E-2
Scans to average: 1
启用暗噪声校正: true
启用非线性校正: false
滑动平均宽度: 0
X轴模式: Wavelengths
Number of Pixels in Spectrum: 1044
>>>>>Begin Spectral Data<<<<<
220.843	0
221.644	-1
222.444	2
223.244	1
224.045	1
224.845	-3
225.645	-2
226.445	1
227.245	-1
228.045	-1
228.845	-1
229.645	-1
230.444	1
231.244	0
232.043	-1
232.843	1
233.642	0
234.442	-2
235.241	0
236.04	0
236.839	-1
237.638	2
238.437	-2
239.236	1
240.035	1
240.833	1
241.632	1
242.43	0
243.229	2
244.027	4
244.826	1
245.624	1
246.422	2
247.22	3
248.018	0
248.816	3
249.614	4
250.412	1
251.21	2
252.007	1
252.805	4
253.602	2
254.4	1
255.197	4
255.994	2
256.791	4
257.589	5
258.386	3
259.183	1
259.979	5
260.776	4
261.573	4
262.37	5
263.166	4
263.963	7
264.759	4
265.556	9
266.352	9
267.148	5
267.944	6
268.74	7
269.536	9
270.332	7
271.128	7
271.924	8
272.719	7
273.515	6
274.311	9
275.106	7
275.901	9
276.697	11
277.492	10
278.287	13
279.082	10
279.877	11
280.672	10
281.467	12
282.262	8
283.056	11
283.851	10
284.646	12
285.44	13
286.234	10
287.029	10
287.823	10
288.617	12
289.411	11
290.205	14
290.999	11
291.793	10
292.587	9
293.381	9
294.174	9
294.968	10
295.761	10
296.555	10
297.348	10
298.141	9
298.935	10
299.728	12
300.521	10
301.314	8
302.107	7
302.899	9
303.692	8
304.485	7
305.277	8
306.07	7
306.862	7
307.655	7
308.447	6
309.239	8
310.031	8
310.823	7
311.615	8
312.407	5
313.199	7
313.991	6
314.783	7
315.574	6
316.366	5
317.157	6
317.949	5
318.74	6
319.531	5
320.322	4
321.113	4
321.904	6
322.695	6
323.486	4
324.277	6
325.068	4
325.858	2
326.649	7
327.439	4
328.23	4
329.02	6
329.81	5
330.6	1
331.391	5
332.181	6
332.971	3
333.76	5
334.55	3
335.34	4
336.13	4
336.919	2
337.709	4
338.498	2
339.287	4
340.077	2
340.866	4
341.655	2
342.444	1
343.233	3
344.022	3
344.811	1
345.6	2
346.388	3
347.177	4
347.965	1
348.754	2
349.542	2
350.33	3
351.119	3
351.907	5
352.695	3
353.483	2
354.271	3
355.059	3
355.846	0
356.634	2
357.422	4
358.209	2
358.997	1
359.784	3
360.571	2
361.359	3
362.146	2
362.933	2
363.72	2
364.507	5
365.294	2
366.081	2
366.867	4
367.654	5
368.44	4
369.227	2
370.013	0
370.8	1
371.586	0
372.372	1
373.158	2
373.944	3
374.73	3
375.516	2
376.302	1
377.088	2
377.873	4
378.659	1
379.445	3
380.23	2
381.015	3
381.801	2
382.586	2
383.371	2
384.156	3
384.941	2
385.726	2
386.511	3
387.296	3
388.08	5
388.865	3
389.649	4
390.434	2
391.218	2
392.003	2
392.787	1
393.571	2
394.355	3
395.139	5
395.923	5
396.707	2
397.491	2
398.274	2
399.058	2
399.842	3
400.625	5
401.408	2
402.192	5
402.975	3
403.758	5
404.541	4
405.324	5
406.107	5
406.89	1
407.673	6
408.456	4
409.238	5
410.021	4
410.803	6
411.586	4
412.368	5
413.151	5
413.933	3
414.715	6
415.497	5
416.279	7
417.061	5
417.843	5
418.624	5
419.406	5
420.188	5
420.969	5
421.751	8
422.532	5
423.313	7
424.095	7
424.876	3
425.657	7
426.438	5
427.219	7
428	6
428.78	7
429.561	8
430.342	7
431.122	8
431.903	7
432.683	5
433.464	8
434.244	5
435.024	8
435.804	8
436.584	10
437.364	7
438.144	9
438.924	7
439.704	11
440.483	11
441.263	11
442.042	10
442.822	17
443.601	12
444.38	14
445.16	13
445.939	17
446.718	15
447.497	16
448.276	19
449.054	20
449.833	23
450.612	25
451.391	26
452.169	27
452.948	33
453.726	33
454.504	32
455.282	40
456.061	43
456.839	51
457.617	51
458.395	57
459.172	65
459.95	70
460.728	78
461.506	86
462.283	98
463.061	101
463.838	121
464.615	130
465.393	147
466.17	164
466.947	182
467.724	208
468.501	223
469.278	258
470.055	284
470.831	316
471.608	356
472.385	395
473.161	436
473.938	492
474.714	544
475.49	609
476.266	676
477.043	750
477.819	825
478.595	944
479.371	1031
480.146	1141
480.922	1275
481.698	1402
482.473	1553
483.249	1717
484.024	1900
484.8	2097
485.575	2334
486.35	2571
487.126	2863
487.901	3149
488.676	3477
489.451	3868
490.225	4271
491	4690
491.775	5190
492.55	5705
493.324	6259
494.099	6867
494.873	7541
495.647	8250
496.422	8947
497.196	9724
497.97	10522
498.744	11275
499.518	12101
500.292	12836
501.066	13599
501.839	14362
502.613	15005
503.387	15664
504.16	16192
504.934	16568
505.707	16966
506.48	17143
507.253	17202
508.027	17221
508.8	17088
509.573	16871
510.346	16492
511.118	16037
511.891	15565
512.664	15012
513.437	14473
514.209	13878
514.982	13302
515.754	12674
516.526	12124
517.298	11573
518.071	11001
518.843	10553
519.615	10078
520.387	9678
521.159	9284
521.93	8942
522.702	8560
523.474	8246
524.245	7925
525.017	7609
525.788	7286
526.56	7007
527.331	6686
528.102	6413
528.873	6119
529.644	5821
530.415	5539
531.186	5257
531.957	4985
532.728	4707
533.498	4465
534.269	4226
535.039	4008
535.81	3774
536.58	3558
537.351	3331
538.121	3157
538.891	2992
539.661	2817
540.431	2667
541.201	2510
541.971	2389
542.741	2256
543.51	2149
544.28	2041
545.05	1937
545.819	1842
546.588	1756
547.358	1671
548.127	1578
548.896	1504
549.665	1424
550.434	1359
551.203	1291
551.972	1212
552.741	1151
553.51	1097
554.278	1025
555.047	966
555.815	917
556.584	858
557.352	809
558.121	766
558.889	733
559.657	685
560.425	637
561.193	597
561.961	566
562.729	540
563.496	500
564.264	472
565.032	451
565.799	423
566.567	401
567.334	377
568.101	360
568.869	340
569.636	317
570.403	298
571.17	294
571.937	273
572.704	256
573.471	237
574.237	225
575.004	207
575.771	201
576.537	187
577.303	175
578.07	164
578.836	156
579.602	152
580.368	138
581.134	128
581.9	122
582.666	119
583.432	111
584.198	105
584.964	98
585.729	95
586.495	90
587.26	83
588.025	83
588.791	75
589.556	70
590.321	67
591.086	66
591.851	64
592.616	56
593.381	56
594.146	52
594.911	49
595.675	47
596.44	44
597.204	42
597.969	40
598.733	40
599.497	37
600.261	37
601.025	30
601.79	32
602.553	31
603.317	30
604.081	24
604.845	25
605.609	27
606.372	27
607.136	21
607.899	25
608.662	22
609.426	21
610.189	20
610.952	18
611.715	22
612.478	19
613.241	17
614.004	16
614.767	18
615.529	14
616.292	17
617.055	16
617.817	14
618.579	12
619.342	10
620.104	13
620.866	11
621.628	11
622.39	9
623.152	9
623.914	11
624.676	9
625.438	9
626.199	12
626.961	8
627.722	9
628.484	7
629.245	10
630.006	9
630.768	6
631.529	7
632.29	9
633.051	8
633.812	7
634.573	6
635.333	5
636.094	7
636.855	7
637.615	6
638.376	7
639.136	5
639.896	5
640.657	7
641.417	4
642.177	5
642.937	9
643.697	4
644.457	5
645.216	4
645.976	4
646.736	1
647.495	6
648.255	4
649.014	5
649.774	3
650.533	5
651.292	6
652.051	4
652.81	5
653.569	5
654.328	5
655.087	4
655.846	5
656.604	5
657.363	2
658.121	5
658.88	1
659.638	3
660.397	2
661.155	3
661.913	4
662.671	1
663.429	4
664.187	4
664.945	1
665.703	3
666.46	3
667.218	3
667.976	1
668.733	2
669.49	0
670.248	3
671.005	4
671.762	2
672.519	4
673.276	2
674.033	1
674.79	2
675.547	3
676.304	2
677.06	2
677.817	1
678.574	-1
679.33	4
680.086	3
680.843	4
681.599	1
682.355	1
683.111	2
683.867	2
684.623	3
685.379	-1
686.135	3
686.89	4
687.646	4
688.402	4
689.157	0
689.912	0
690.668	2
691.423	1
692.178	2
692.933	1
693.688	0
694.443	1
695.198	3
695.953	2
696.708	4
697.462	4
698.217	2
698.972	2
699.726	4
700.48	-1
701.235	1
701.989	0
702.743	2
703.497	3
704.251	1
705.005	0
705.759	2
706.513	0
707.266	3
708.02	3
708.774	1
709.527	4
710.28	2
711.034	3
711.787	3
712.54	3
713.293	1
714.046	2
714.799	3
715.552	1
716.305	3
717.058	1
717.81	1
718.563	2
719.315	1
720.068	3
720.82	1
721.573	2
722.325	2
723.077	3
723.829	0
724.581	0
725.333	-1
726.085	2
726.836	2
727.588	3
728.34	2
729.091	4
729.843	1
730.594	2
731.346	1
732.097	2
732.848	4
733.599	0
734.35	3
735.101	0
735.852	2
736.603	2
737.354	-1
738.104	5
738.855	2
739.605	2
740.356	4
741.106	4
741.856	0
742.607	3
743.357	5
744.107	-1
744.857	3
745.607	2
746.357	3
747.106	1
747.856	1
748.606	3
749.355	3
750.105	3
750.854	1
751.603	4
752.353	3
753.102	1
753.851	3
754.6	1
755.349	2
756.098	4
756.847	1
757.595	4
758.344	3
759.093	2
759.841	2
760.589	5
761.338	2
762.086	4
762.834	1
763.582	4
764.331	5
765.079	3
765.826	4
766.574	3
767.322	3
768.07	4
768.817	5
769.565	6
770.312	5
771.06	3
771.807	5
772.554	3
773.302	4
774.049	5
774.796	6
775.543	5
776.29	7
777.036	5
777.783	4
778.53	7
779.276	5
780.023	3
780.769	4
781.516	7
782.262	5
783.008	5
783.754	7
784.5	5
785.246	7
785.992	3
786.738	4
787.484	6
788.23	8
788.975	5
789.721	5
790.466	4
791.212	5
791.957	6
792.702	6
793.447	5
794.193	4
794.938	5
795.683	3
796.427	5
797.172	6
797.917	3
798.662	5
799.406	5
800.151	3
800.895	7
801.64	3
802.384	7
803.128	7
803.872	3
804.616	5
805.36	2
806.104	6
806.848	4
807.592	5
808.336	2
809.079	5
809.823	5
810.566	4
811.31	3
812.053	3
812.796	5
813.539	5
814.283	3
815.026	4
815.769	4
816.511	3
817.254	3
817.997	5
818.74	3
819.482	1
820.225	4
820.967	2
821.71	5
822.452	4
823.194	4
823.936	3
824.678	3
825.42	5
826.162	2
826.904	5
827.646	4
828.388	2
829.129	3
829.871	2
830.612	2
831.354	3
832.095	3
832.836	2
833.577	2
834.319	6
835.06	3
835.801	1
836.542	5
837.282	1
838.023	4
838.764	1
839.504	1
840.245	2
840.985	3
841.726	2
842.466	2
843.206	4
843.946	2
844.687	3
845.427	2
846.166	1
846.906	1
847.646	2
848.386	1
849.125	0
849.865	3
850.605	2
851.344	5
852.083	2
852.823	3
853.562	1
854.301	1
855.04	3
855.779	2
856.518	2
857.257	0
857.995	1
858.734	3
859.473	0
860.211	0
860.95	3
861.688	3
862.426	1
863.165	1
863.903	2
864.641	-2
865.379	0
866.117	1
866.855	1
867.593	3
868.33	0
869.068	0
869.806	1
870.543	2
871.28	1
872.018	1
872.755	0
873.492	1
874.229	0
874.967	0
875.703	0
876.44	2
877.177	1
877.914	0
878.651	-2
879.387	0
880.124	0
880.86	1
881.597	2
882.333	2
883.069	1
883.806	1
884.542	0
885.278	2
886.014	2
886.749	3
887.485	1
888.221	0
888.957	1
889.692	0
890.428	0
891.163	3
891.899	1
892.634	2
893.369	-1
894.104	-1
894.839	0
895.574	-1
896.309	2
897.044	-1
897.779	0
898.514	0
899.248	-1
899.983	1
900.717	0
901.452	0
902.186	1
902.92	2
903.654	1
904.389	-1
905.123	2
905.857	0
906.59	0
907.324	2
908.058	1
908.792	1
909.525	0
910.259	1
910.992	0
911.726	-2
912.459	2
913.192	1
913.925	1
914.658	-1
915.391	-1
916.124	0
916.857	2
917.59	0
918.323	-1
919.055	0
919.788	-2
920.521	0
921.253	-1
921.985	1
922.718	1
923.45	-1
924.182	1
924.914	0
925.646	2
926.378	-1
927.11	-2
927.841	-1
928.573	-4
929.305	-4
930.036	-2
930.768	2
931.499	0
932.23	-1
932.962	0
933.693	-1
934.424	0
935.155	-1
935.886	0
936.617	0
937.348	0
938.078	0
938.809	-1
939.54	0
940.27	-1
941.001	1
941.731	-1
942.461	0
943.191	-1
943.922	0
944.652	1
945.382	1
946.112	0
946.841	1
947.571	-1
948.301	2
949.031	2
949.76	0
950.49	1
951.219	-1
951.948	0
952.678	-1
953.407	0
954.136	-1
954.865	1
955.594	1
956.323	0
957.052	-1
957.78	1
958.509	1
959.238	1
959.966	0
960.695	0
961.423	-2
962.151	0
962.88	0
963.608	0
964.336	0
965.064	1
965.792	0
966.52	-1
967.247	1
967.975	0
968.703	0
969.43	-2
970.158	-2
970.885	-1
971.613	1
972.34	1
973.067	-3
973.794	1
974.521	1
975.248	2
975.975	1
976.702	-1
977.429	0
978.156	-2
978.882	1
979.609	1
980.335	-2
981.062	0
981.788	-2
982.514	0
983.24	-2
983.967	0
984.693	-1
985.419	0
986.144	0
986.87	-2
987.596	-2
988.322	-2
989.047	0
989.773	-1
990.498	-1
991.224	1
991.949	1
992.674	2
993.399	0
994.124	1
994.849	2
995.574	2
996.299	2
997.024	-2
997.749	-1
998.473	-1
999.198	-1
999.922	1
1000.647	1
1001.371	3
1002.095	1
1002.82	-2
1003.544	-3
1004.268	0
1004.992	-1
1005.716	1
1006.439	0
1007.163	1
1007.887	-1
1008.611	2
1009.334	-1
1010.058	-2
1010.781	-1
1011.504	1
1012.228	0
1012.951	0
1013.674	2
1014.397	-3
1015.12	2
