节点500_145_QEPB04081__420__11-35-40-533.txt的数据

Date: Wed Nov 12 11:35:40 CST 2025
User: PC
Spectrometer: QEPB0408
触发模式: 0
积分时间 (秒): 1.000000E-2
Scans to average: 1
启用暗噪声校正: true
启用非线性校正: false
滑动平均宽度: 0
X轴模式: Wavelengths
Number of Pixels in Spectrum: 1044
>>>>>Begin Spectral Data<<<<<
220.843	-1.62
221.644	-1.62
222.444	1.38
223.244	0.38
224.045	-1.62
224.845	-1.62
225.645	-0.62
226.445	0.38
227.245	-0.62
228.045	3.38
228.845	1.38
229.645	-0.62
230.444	1.38
231.244	-0.62
232.043	0.38
232.843	0.38
233.642	1.38
234.442	1.38
235.241	1.38
236.04	0.38
236.839	1.38
237.638	1.38
238.437	-1.62
239.236	1.38
240.035	0.38
240.833	-0.62
241.632	2.38
242.43	1.38
243.229	1.38
244.027	0.38
244.826	2.38
245.624	3.38
246.422	3.38
247.22	1.38
248.018	3.38
248.816	2.38
249.614	2.38
250.412	3.38
251.21	4.38
252.007	1.38
252.805	0.38
253.602	1.38
254.4	3.38
255.197	2.38
255.994	2.38
256.791	3.38
257.589	2.38
258.386	4.38
259.183	4.38
259.979	5.38
260.776	6.38
261.573	3.38
262.37	3.38
263.166	5.38
263.963	5.38
264.759	6.38
265.556	5.38
266.352	6.38
267.148	6.38
267.944	6.38
268.74	6.38
269.536	9.38
270.332	7.38
271.128	6.38
271.924	5.38
272.719	7.38
273.515	8.38
274.311	9.38
275.106	8.38
275.901	8.38
276.697	7.38
277.492	6.38
278.287	9.38
279.082	8.38
279.877	10.38
280.672	10.38
281.467	9.38
282.262	10.38
283.056	10.38
283.851	9.38
284.646	10.38
285.44	10.38
286.234	11.38
287.029	12.38
287.823	10.38
288.617	10.38
289.411	10.38
290.205	12.38
290.999	9.38
291.793	10.38
292.587	10.38
293.381	10.38
294.174	10.38
294.968	10.38
295.761	11.38
296.555	9.38
297.348	10.38
298.141	11.38
298.935	9.38
299.728	9.38
300.521	8.38
301.314	11.38
302.107	6.38
302.899	8.38
303.692	8.38
304.485	8.38
305.277	6.38
306.07	6.38
306.862	10.38
307.655	4.38
308.447	7.38
309.239	6.38
310.031	7.38
310.823	6.38
311.615	5.38
312.407	6.38
313.199	7.38
313.991	6.38
314.783	4.38
315.574	6.38
316.366	5.38
317.157	3.38
317.949	4.38
318.74	4.38
319.531	4.38
320.322	5.38
321.113	5.38
321.904	3.38
322.695	5.38
323.486	4.38
324.277	2.38
325.068	6.38
325.858	5.38
326.649	2.38
327.439	5.38
328.23	3.38
329.02	5.38
329.81	2.38
330.6	4.38
331.391	5.38
332.181	2.38
332.971	4.38
333.76	2.38
334.55	3.38
335.34	4.38
336.13	3.38
336.919	5.38
337.709	2.38
338.498	3.38
339.287	4.38
340.077	5.38
340.866	5.38
341.655	3.38
342.444	2.38
343.233	3.38
344.022	3.38
344.811	3.38
345.6	4.38
346.388	5.38
347.177	2.38
347.965	5.38
348.754	4.38
349.542	3.38
350.33	2.38
351.119	2.38
351.907	2.38
352.695	3.38
353.483	2.38
354.271	3.38
355.059	2.38
355.846	4.38
356.634	3.38
357.422	1.38
358.209	2.38
358.997	1.38
359.784	1.38
360.571	5.38
361.359	-0.62
362.146	4.38
362.933	2.38
363.72	2.38
364.507	4.38
365.294	2.38
366.081	3.38
366.867	1.38
367.654	2.38
368.44	1.38
369.227	0.38
370.013	2.38
370.8	1.38
371.586	1.38
372.372	2.38
373.158	2.38
373.944	2.38
374.73	2.38
375.516	2.38
376.302	3.38
377.088	5.38
377.873	1.38
378.659	2.38
379.445	2.38
380.23	3.38
381.015	2.38
381.801	1.38
382.586	2.38
383.371	1.38
384.156	2.38
384.941	5.38
385.726	2.38
386.511	4.38
387.296	4.38
388.08	0.38
388.865	3.38
389.649	2.38
390.434	2.38
391.218	3.38
392.003	2.38
392.787	3.38
393.571	2.38
394.355	4.38
395.139	3.38
395.923	3.38
396.707	2.38
397.491	2.38
398.274	4.38
399.058	5.38
399.842	2.38
400.625	3.38
401.408	2.38
402.192	5.38
402.975	4.38
403.758	4.38
404.541	2.38
405.324	4.38
406.107	4.38
406.89	5.38
407.673	4.38
408.456	3.38
409.238	3.38
410.021	5.38
410.803	4.38
411.586	3.38
412.368	8.38
413.151	3.38
413.933	5.38
414.715	3.38
415.497	5.38
416.279	7.38
417.061	5.38
417.843	3.38
418.624	6.38
419.406	1.38
420.188	6.38
420.969	4.38
421.751	5.38
422.532	6.38
423.313	6.38
424.095	4.38
424.876	6.38
425.657	4.38
426.438	8.38
427.219	5.38
428	6.38
428.78	6.38
429.561	5.38
430.342	7.38
431.122	7.38
431.903	6.38
432.683	6.38
433.464	8.38
434.244	9.38
435.024	7.38
435.804	10.38
436.584	8.38
437.364	10.38
438.144	9.38
438.924	10.38
439.704	9.38
440.483	11.38
441.263	12.38
442.042	13.38
442.822	15.38
443.601	14.38
444.38	14.38
445.16	17.38
445.939	17.38
446.718	19.38
447.497	19.38
448.276	19.38
449.054	21.38
449.833	23.38
450.612	26.38
451.391	25.38
452.169	30.38
452.948	30.38
453.726	36.38
454.504	39.38
455.282	40.38
456.061	46.38
456.839	51.38
457.617	60.38
458.395	63.38
459.172	72.38
459.95	79.38
460.728	88.38
461.506	95.38
462.283	105.38
463.061	118.38
463.838	131.38
464.615	147.38
465.393	166.38
466.17	185.38
466.947	202.38
467.724	226.38
468.501	246.38
469.278	284.38
470.055	310.38
470.831	340.38
471.608	388.38
472.385	419.38
473.161	467.38
473.938	526.38
474.714	581.38
475.49	654.38
476.266	713.38
477.043	780.38
477.819	859.38
478.595	946.38
479.371	1040.38
480.146	1158.38
480.922	1284.38
481.698	1396.38
482.473	1531.38
483.249	1696.38
484.024	1867.38
484.8	2050.38
485.575	2238.38
486.35	2474.38
487.126	2718.38
487.901	3001.38
488.676	3281.38
489.451	3588.38
490.225	3938.38
491	4325.38
491.775	4721.38
492.55	5189.38
493.324	5629.38
494.099	6117.38
494.873	6704.38
495.647	7321.38
496.422	7916.38
497.196	8557.38
497.97	9252.38
498.744	9925.38
499.518	10616.38
500.292	11316.38
501.066	12036.38
501.839	12733.38
502.613	13389.38
503.387	13942.38
504.16	14545.38
504.934	15015.38
505.707	15334.38
506.48	15673.38
507.253	15840.38
508.027	16051.38
508.8	16033.38
509.573	15913.38
510.346	15753.38
511.118	15533.38
511.891	15118.38
512.664	14739.38
513.437	14313.38
514.209	13841.38
514.982	13280.38
515.754	12767.38
516.526	12239.38
517.298	11700.38
518.071	11183.38
518.843	10712.38
519.615	10264.38
520.387	9855.38
521.159	9459.38
521.93	9095.38
522.702	8740.38
523.474	8350.38
524.245	8059.38
525.017	7694.38
525.788	7374.38
526.56	7104.38
527.331	6829.38
528.102	6564.38
528.873	6265.38
529.644	5969.38
530.415	5721.38
531.186	5436.38
531.957	5173.38
532.728	4929.38
533.498	4658.38
534.269	4418.38
535.039	4169.38
535.81	3958.38
536.58	3743.38
537.351	3526.38
538.121	3365.38
538.891	3161.38
539.661	3004.38
540.431	2812.38
541.201	2661.38
541.971	2537.38
542.741	2403.38
543.51	2256.38
544.28	2152.38
545.05	2060.38
545.819	1945.38
546.588	1854.38
547.358	1756.38
548.127	1678.38
548.896	1598.38
549.665	1501.38
550.434	1435.38
551.203	1355.38
551.972	1300.38
552.741	1219.38
553.51	1141.38
554.278	1093.38
555.047	1043.38
555.815	969.38
556.584	924.38
557.352	867.38
558.121	815.38
558.889	773.38
559.657	724.38
560.425	691.38
561.193	645.38
561.961	612.38
562.729	577.38
563.496	548.38
564.264	522.38
565.032	486.38
565.799	461.38
566.567	435.38
567.334	416.38
568.101	388.38
568.869	362.38
569.636	347.38
570.403	325.38
571.17	300.38
571.937	286.38
572.704	280.38
573.471	251.38
574.237	240.38
575.004	225.38
575.771	213.38
576.537	197.38
577.303	191.38
578.07	180.38
578.836	172.38
579.602	161.38
580.368	152.38
581.134	144.38
581.9	134.38
582.666	128.38
583.432	123.38
584.198	114.38
584.964	107.38
585.729	97.38
586.495	97.38
587.26	94.38
588.025	82.38
588.791	78.38
589.556	76.38
590.321	72.38
591.086	66.38
591.851	65.38
592.616	59.38
593.381	58.38
594.146	55.38
594.911	52.38
595.675	52.38
596.44	46.38
597.204	45.38
597.969	41.38
598.733	43.38
599.497	44.38
600.261	37.38
601.025	36.38
601.79	35.38
602.553	34.38
603.317	30.38
604.081	32.38
604.845	27.38
605.609	29.38
606.372	26.38
607.136	25.38
607.899	23.38
608.662	23.38
609.426	23.38
610.189	21.38
610.952	21.38
611.715	22.38
612.478	22.38
613.241	15.38
614.004	18.38
614.767	15.38
615.529	19.38
616.292	14.38
617.055	15.38
617.817	13.38
618.579	16.38
619.342	13.38
620.104	11.38
620.866	11.38
621.628	14.38
622.39	13.38
623.152	13.38
623.914	10.38
624.676	9.38
625.438	9.38
626.199	11.38
626.961	8.38
627.722	10.38
628.484	8.38
629.245	8.38
630.006	7.38
630.768	8.38
631.529	6.38
632.29	5.38
633.051	7.38
633.812	6.38
634.573	8.38
635.333	5.38
636.094	5.38
636.855	7.38
637.615	8.38
638.376	5.38
639.136	4.38
639.896	6.38
640.657	5.38
641.417	3.38
642.177	6.38
642.937	4.38
643.697	4.38
644.457	3.38
645.216	7.38
645.976	4.38
646.736	3.38
647.495	5.38
648.255	5.38
649.014	5.38
649.774	5.38
650.533	3.38
651.292	3.38
652.051	5.38
652.81	3.38
653.569	2.38
654.328	5.38
655.087	3.38
655.846	4.38
656.604	3.38
657.363	4.38
658.121	3.38
658.88	1.38
659.638	3.38
660.397	2.38
661.155	1.38
661.913	4.38
662.671	1.38
663.429	4.38
664.187	4.38
664.945	5.38
665.703	3.38
666.46	4.38
667.218	3.38
667.976	3.38
668.733	5.38
669.49	0.38
670.248	3.38
671.005	2.38
671.762	3.38
672.519	1.38
673.276	3.38
674.033	1.38
674.79	0.38
675.547	4.38
676.304	0.38
677.06	3.38
677.817	3.38
678.574	3.38
679.33	3.38
680.086	2.38
680.843	1.38
681.599	2.38
682.355	2.38
683.111	2.38
683.867	-1.62
684.623	2.38
685.379	2.38
686.135	2.38
686.89	2.38
687.646	2.38
688.402	2.38
689.157	1.38
689.912	2.38
690.668	0.38
691.423	3.38
692.178	-0.62
692.933	1.38
693.688	4.38
694.443	2.38
695.198	1.38
695.953	0.38
696.708	0.38
697.462	2.38
698.217	2.38
698.972	1.38
699.726	3.38
700.48	3.38
701.235	1.38
701.989	3.38
702.743	1.38
703.497	3.38
704.251	0.38
705.005	3.38
705.759	2.38
706.513	0.38
707.266	2.38
708.02	1.38
708.774	2.38
709.527	-0.62
710.28	1.38
711.034	3.38
711.787	4.38
712.54	0.38
713.293	0.38
714.046	0.38
714.799	1.38
715.552	0.38
716.305	1.38
717.058	2.38
717.81	2.38
718.563	1.38
719.315	1.38
720.068	0.38
720.82	0.38
721.573	1.38
722.325	2.38
723.077	2.38
723.829	3.38
724.581	2.38
725.333	4.38
726.085	1.38
726.836	1.38
727.588	0.38
728.34	4.38
729.091	-0.62
729.843	1.38
730.594	4.38
731.346	1.38
732.097	0.38
732.848	0.38
733.599	1.38
734.35	2.38
735.101	1.38
735.852	1.38
736.603	0.38
737.354	1.38
738.104	0.38
738.855	2.38
739.605	0.38
740.356	2.38
741.106	4.38
741.856	1.38
742.607	2.38
743.357	1.38
744.107	3.38
744.857	2.38
745.607	0.38
746.357	2.38
747.106	1.38
747.856	3.38
748.606	3.38
749.355	3.38
750.105	2.38
750.854	1.38
751.603	1.38
752.353	1.38
753.102	5.38
753.851	2.38
754.6	4.38
755.349	2.38
756.098	1.38
756.847	4.38
757.595	0.38
758.344	3.38
759.093	2.38
759.841	4.38
760.589	3.38
761.338	1.38
762.086	3.38
762.834	2.38
763.582	5.38
764.331	4.38
765.079	5.38
765.826	3.38
766.574	3.38
767.322	4.38
768.07	4.38
768.817	4.38
769.565	3.38
770.312	5.38
771.06	3.38
771.807	4.38
772.554	5.38
773.302	4.38
774.049	5.38
774.796	3.38
775.543	4.38
776.29	2.38
777.036	3.38
777.783	5.38
778.53	1.38
779.276	5.38
780.023	5.38
780.769	5.38
781.516	3.38
782.262	5.38
783.008	5.38
783.754	5.38
784.5	6.38
785.246	5.38
785.992	4.38
786.738	8.38
787.484	4.38
788.23	6.38
788.975	3.38
789.721	3.38
790.466	5.38
791.212	4.38
791.957	4.38
792.702	6.38
793.447	7.38
794.193	5.38
794.938	4.38
795.683	4.38
796.427	6.38
797.172	1.38
797.917	6.38
798.662	4.38
799.406	5.38
800.151	4.38
800.895	4.38
801.64	4.38
802.384	7.38
803.128	4.38
803.872	5.38
804.616	2.38
805.36	3.38
806.104	5.38
806.848	5.38
807.592	2.38
808.336	1.38
809.079	5.38
809.823	3.38
810.566	6.38
811.31	1.38
812.053	3.38
812.796	2.38
813.539	3.38
814.283	4.38
815.026	3.38
815.769	2.38
816.511	2.38
817.254	1.38
817.997	2.38
818.74	3.38
819.482	3.38
820.225	2.38
820.967	6.38
821.71	4.38
822.452	4.38
823.194	3.38
823.936	2.38
824.678	4.38
825.42	3.38
826.162	3.38
826.904	4.38
827.646	0.38
828.388	4.38
829.129	1.38
829.871	4.38
830.612	2.38
831.354	2.38
832.095	1.38
832.836	2.38
833.577	3.38
834.319	3.38
835.06	3.38
835.801	1.38
836.542	-0.62
837.282	5.38
838.023	2.38
838.764	1.38
839.504	2.38
840.245	3.38
840.985	0.38
841.726	1.38
842.466	3.38
843.206	0.38
843.946	2.38
844.687	1.38
845.427	-0.62
846.166	1.38
846.906	0.38
847.646	1.38
848.386	2.38
849.125	2.38
849.865	2.38
850.605	1.38
851.344	3.38
852.083	3.38
852.823	2.38
853.562	-0.62
854.301	3.38
855.04	3.38
855.779	2.38
856.518	1.38
857.257	-0.62
857.995	2.38
858.734	1.38
859.473	0.38
860.211	2.38
860.95	2.38
861.688	0.38
862.426	1.38
863.165	2.38
863.903	0.38
864.641	1.38
865.379	1.38
866.117	2.38
866.855	0.38
867.593	0.38
868.33	1.38
869.068	1.38
869.806	1.38
870.543	-2.62
871.28	1.38
872.018	3.38
872.755	0.38
873.492	1.38
874.229	1.38
874.967	3.38
875.703	1.38
876.44	-0.62
877.177	1.38
877.914	1.38
878.651	1.38
879.387	0.38
880.124	2.38
880.86	0.38
881.597	2.38
882.333	1.38
883.069	1.38
883.806	1.38
884.542	2.38
885.278	1.38
886.014	1.38
886.749	-0.62
887.485	-1.62
888.221	-0.62
888.957	2.38
889.692	0.38
890.428	2.38
891.163	0.38
891.899	-0.62
892.634	1.38
893.369	1.38
894.104	-0.62
894.839	-0.62
895.574	0.38
896.309	2.38
897.044	1.38
897.779	0.38
898.514	-1.62
899.248	2.38
899.983	1.38
900.717	-1.62
901.452	0.38
902.186	1.38
902.92	-0.62
903.654	2.38
904.389	1.38
905.123	0.38
905.857	1.38
906.59	0.38
907.324	1.38
908.058	0.38
908.792	1.38
909.525	0.38
910.259	2.38
910.992	-1.62
911.726	1.38
912.459	0.38
913.192	1.38
913.925	1.38
914.658	2.38
915.391	0.38
916.124	1.38
916.857	2.38
917.59	-0.62
918.323	-1.62
919.055	-0.62
919.788	1.38
920.521	-0.62
921.253	0.38
921.985	1.38
922.718	0.38
923.45	-0.62
924.182	-2.62
924.914	0.38
925.646	0.38
926.378	-0.62
927.11	0.38
927.841	0.38
928.573	1.38
929.305	-1.62
930.036	4.38
930.768	1.38
931.499	0.38
932.23	1.38
932.962	-0.62
933.693	-0.62
934.424	-1.62
935.155	0.38
935.886	-1.62
936.617	-1.62
937.348	1.38
938.078	-0.62
938.809	-1.62
939.54	-0.62
940.27	-2.62
941.001	-1.62
941.731	1.38
942.461	2.38
943.191	1.38
943.922	-2.62
944.652	-0.62
945.382	-0.62
946.112	0.38
946.841	-0.62
947.571	2.38
948.301	0.38
949.031	1.38
949.76	-1.62
950.49	1.38
951.219	-0.62
951.948	0.38
952.678	1.38
953.407	-0.62
954.136	1.38
954.865	2.38
955.594	-0.62
956.323	1.38
957.052	1.38
957.78	0.38
958.509	-0.62
959.238	1.38
959.966	0.38
960.695	0.38
961.423	0.38
962.151	0.38
962.88	2.38
963.608	-0.62
964.336	0.38
965.064	1.38
965.792	-1.62
966.52	0.38
967.247	0.38
967.975	-1.62
968.703	-1.62
969.43	2.38
970.158	-1.62
970.885	0.38
971.613	-0.62
972.34	-0.62
973.067	2.38
973.794	-1.62
974.521	-0.62
975.248	-1.62
975.975	0.38
976.702	-0.62
977.429	0.38
978.156	1.38
978.882	-1.62
979.609	1.38
980.335	-1.62
981.062	1.38
981.788	1.38
982.514	1.38
983.24	0.38
983.967	-0.62
984.693	0.38
985.419	0.38
986.144	0.38
986.87	1.38
987.596	1.38
988.322	0.38
989.047	0.38
989.773	-0.62
990.498	-0.62
991.224	0.38
991.949	-0.62
992.674	-1.62
993.399	1.38
994.124	0.38
994.849	0.38
995.574	1.38
996.299	-0.62
997.024	0.38
997.749	1.38
998.473	-0.62
999.198	-1.62
999.922	-0.62
1000.647	1.38
1001.371	3.38
1002.095	-0.62
1002.82	0.38
1003.544	-0.62
1004.268	-0.62
1004.992	-1.62
1005.716	0.38
1006.439	-2.62
1007.163	-0.62
1007.887	0.38
1008.611	1.38
1009.334	2.38
1010.058	1.38
1010.781	-1.62
1011.504	-0.62
1012.228	0.38
1012.951	0.38
1013.674	-0.62
1014.397	-1.62
1015.12	-0.62
