节点500_145_QEPB04081__520__11-37-11-525.txt的数据

Date: Wed Nov 12 11:37:11 CST 2025
User: PC
Spectrometer: QEPB0408
触发模式: 0
积分时间 (秒): 1.000000E-2
Scans to average: 1
启用暗噪声校正: true
启用非线性校正: false
滑动平均宽度: 0
X轴模式: Wavelengths
Number of Pixels in Spectrum: 1044
>>>>>Begin Spectral Data<<<<<
220.843	0.25
221.644	0.25
222.444	2.25
223.244	0.25
224.045	-0.75
224.845	1.25
225.645	-0.75
226.445	1.25
227.245	0.25
228.045	0.25
228.845	1.25
229.645	1.25
230.444	-1.75
231.244	1.25
232.043	2.25
232.843	-1.75
233.642	2.25
234.442	1.25
235.241	0.25
236.04	1.25
236.839	-0.75
237.638	2.25
238.437	0.25
239.236	1.25
240.035	1.25
240.833	1.25
241.632	1.25
242.43	1.25
243.229	0.25
244.027	-0.75
244.826	3.25
245.624	0.25
246.422	1.25
247.22	0.25
248.018	2.25
248.816	1.25
249.614	1.25
250.412	3.25
251.21	1.25
252.007	2.25
252.805	2.25
253.602	3.25
254.4	1.25
255.197	4.25
255.994	3.25
256.791	0.25
257.589	5.25
258.386	3.25
259.183	3.25
259.979	4.25
260.776	6.25
261.573	4.25
262.37	4.25
263.166	4.25
263.963	5.25
264.759	6.25
265.556	4.25
266.352	4.25
267.148	6.25
267.944	5.25
268.74	5.25
269.536	4.25
270.332	8.25
271.128	8.25
271.924	4.25
272.719	7.25
273.515	5.25
274.311	7.25
275.106	7.25
275.901	8.25
276.697	7.25
277.492	8.25
278.287	7.25
279.082	8.25
279.877	8.25
280.672	5.25
281.467	9.25
282.262	11.25
283.056	9.25
283.851	7.25
284.646	9.25
285.44	9.25
286.234	7.25
287.029	9.25
287.823	12.25
288.617	8.25
289.411	9.25
290.205	9.25
290.999	10.25
291.793	10.25
292.587	9.25
293.381	9.25
294.174	11.25
294.968	8.25
295.761	7.25
296.555	10.25
297.348	7.25
298.141	9.25
298.935	10.25
299.728	8.25
300.521	13.25
301.314	10.25
302.107	10.25
302.899	11.25
303.692	6.25
304.485	9.25
305.277	9.25
306.07	8.25
306.862	7.25
307.655	8.25
308.447	4.25
309.239	6.25
310.031	6.25
310.823	7.25
311.615	7.25
312.407	7.25
313.199	7.25
313.991	5.25
314.783	4.25
315.574	6.25
316.366	5.25
317.157	3.25
317.949	6.25
318.74	7.25
319.531	4.25
320.322	3.25
321.113	6.25
321.904	6.25
322.695	1.25
323.486	4.25
324.277	4.25
325.068	4.25
325.858	4.25
326.649	5.25
327.439	2.25
328.23	4.25
329.02	2.25
329.81	2.25
330.6	3.25
331.391	4.25
332.181	3.25
332.971	2.25
333.76	6.25
334.55	2.25
335.34	4.25
336.13	5.25
336.919	3.25
337.709	2.25
338.498	2.25
339.287	5.25
340.077	3.25
340.866	2.25
341.655	1.25
342.444	2.25
343.233	3.25
344.022	2.25
344.811	4.25
345.6	2.25
346.388	4.25
347.177	3.25
347.965	4.25
348.754	3.25
349.542	1.25
350.33	3.25
351.119	2.25
351.907	2.25
352.695	5.25
353.483	2.25
354.271	3.25
355.059	3.25
355.846	2.25
356.634	0.25
357.422	3.25
358.209	2.25
358.997	4.25
359.784	3.25
360.571	1.25
361.359	3.25
362.146	6.25
362.933	1.25
363.72	1.25
364.507	0.25
365.294	4.25
366.081	3.25
366.867	3.25
367.654	1.25
368.44	2.25
369.227	3.25
370.013	1.25
370.8	3.25
371.586	2.25
372.372	3.25
373.158	4.25
373.944	1.25
374.73	3.25
375.516	2.25
376.302	3.25
377.088	3.25
377.873	2.25
378.659	4.25
379.445	2.25
380.23	2.25
381.015	1.25
381.801	2.25
382.586	2.25
383.371	2.25
384.156	2.25
384.941	2.25
385.726	2.25
386.511	2.25
387.296	2.25
388.08	3.25
388.865	4.25
389.649	4.25
390.434	2.25
391.218	4.25
392.003	0.25
392.787	4.25
393.571	4.25
394.355	3.25
395.139	4.25
395.923	4.25
396.707	1.25
397.491	2.25
398.274	5.25
399.058	2.25
399.842	3.25
400.625	4.25
401.408	2.25
402.192	3.25
402.975	5.25
403.758	3.25
404.541	2.25
405.324	5.25
406.107	1.25
406.89	3.25
407.673	4.25
408.456	3.25
409.238	5.25
410.021	2.25
410.803	3.25
411.586	7.25
412.368	4.25
413.151	5.25
413.933	3.25
414.715	6.25
415.497	5.25
416.279	2.25
417.061	5.25
417.843	5.25
418.624	7.25
419.406	1.25
420.188	5.25
420.969	5.25
421.751	5.25
422.532	5.25
423.313	4.25
424.095	6.25
424.876	7.25
425.657	5.25
426.438	6.25
427.219	7.25
428	7.25
428.78	8.25
429.561	6.25
430.342	7.25
431.122	10.25
431.903	6.25
432.683	7.25
433.464	9.25
434.244	6.25
435.024	8.25
435.804	7.25
436.584	10.25
437.364	9.25
438.144	8.25
438.924	9.25
439.704	10.25
440.483	10.25
441.263	11.25
442.042	11.25
442.822	16.25
443.601	13.25
444.38	12.25
445.16	13.25
445.939	14.25
446.718	17.25
447.497	20.25
448.276	23.25
449.054	23.25
449.833	26.25
450.612	27.25
451.391	25.25
452.169	30.25
452.948	32.25
453.726	36.25
454.504	39.25
455.282	45.25
456.061	50.25
456.839	54.25
457.617	59.25
458.395	64.25
459.172	73.25
459.95	78.25
460.728	86.25
461.506	99.25
462.283	112.25
463.061	122.25
463.838	134.25
464.615	155.25
465.393	166.25
466.17	180.25
466.947	204.25
467.724	230.25
468.501	262.25
469.278	282.25
470.055	321.25
470.831	350.25
471.608	396.25
472.385	430.25
473.161	481.25
473.938	534.25
474.714	589.25
475.49	644.25
476.266	718.25
477.043	786.25
477.819	865.25
478.595	956.25
479.371	1064.25
480.146	1165.25
480.922	1282.25
481.698	1414.25
482.473	1537.25
483.249	1688.25
484.024	1850.25
484.8	2039.25
485.575	2236.25
486.35	2483.25
487.126	2711.25
487.901	2955.25
488.676	3215.25
489.451	3538.25
490.225	3854.25
491	4226.25
491.775	4621.25
492.55	5039.25
493.324	5497.25
494.099	5995.25
494.873	6527.25
495.647	7050.25
496.422	7702.25
497.196	8317.25
497.97	8937.25
498.744	9615.25
499.518	10319.25
500.292	10991.25
501.066	11660.25
501.839	12354.25
502.613	12923.25
503.387	13552.25
504.16	14053.25
504.934	14617.25
505.707	14958.25
506.48	15286.25
507.253	15530.25
508.027	15685.25
508.8	15696.25
509.573	15659.25
510.346	15502.25
511.118	15303.25
511.891	15006.25
512.664	14556.25
513.437	14174.25
514.209	13685.25
514.982	13207.25
515.754	12732.25
516.526	12224.25
517.298	11703.25
518.071	11196.25
518.843	10739.25
519.615	10265.25
520.387	9811.25
521.159	9475.25
521.93	9057.25
522.702	8729.25
523.474	8370.25
524.245	8075.25
525.017	7727.25
525.788	7405.25
526.56	7128.25
527.331	6818.25
528.102	6519.25
528.873	6242.25
529.644	5986.25
530.415	5735.25
531.186	5468.25
531.957	5203.25
532.728	4925.25
533.498	4728.25
534.269	4429.25
535.039	4209.25
535.81	3980.25
536.58	3767.25
537.351	3559.25
538.121	3382.25
538.891	3208.25
539.661	3001.25
540.431	2859.25
541.201	2700.25
541.971	2537.25
542.741	2408.25
543.51	2295.25
544.28	2164.25
545.05	2072.25
545.819	1950.25
546.588	1867.25
547.358	1766.25
548.127	1697.25
548.896	1607.25
549.665	1513.25
550.434	1450.25
551.203	1367.25
551.972	1310.25
552.741	1239.25
553.51	1173.25
554.278	1109.25
555.047	1045.25
555.815	994.25
556.584	931.25
557.352	887.25
558.121	831.25
558.889	784.25
559.657	746.25
560.425	699.25
561.193	656.25
561.961	622.25
562.729	590.25
563.496	563.25
564.264	530.25
565.032	497.25
565.799	470.25
566.567	445.25
567.334	419.25
568.101	397.25
568.869	367.25
569.636	349.25
570.403	333.25
571.17	309.25
571.937	294.25
572.704	281.25
573.471	254.25
574.237	242.25
575.004	229.25
575.771	217.25
576.537	203.25
577.303	192.25
578.07	179.25
578.836	171.25
579.602	164.25
580.368	151.25
581.134	142.25
581.9	136.25
582.666	129.25
583.432	120.25
584.198	115.25
584.964	109.25
585.729	108.25
586.495	94.25
587.26	93.25
588.025	88.25
588.791	82.25
589.556	81.25
590.321	75.25
591.086	70.25
591.851	64.25
592.616	61.25
593.381	62.25
594.146	57.25
594.911	55.25
595.675	53.25
596.44	49.25
597.204	45.25
597.969	45.25
598.733	45.25
599.497	39.25
600.261	41.25
601.025	38.25
601.79	36.25
602.553	31.25
603.317	31.25
604.081	32.25
604.845	28.25
605.609	30.25
606.372	26.25
607.136	25.25
607.899	25.25
608.662	22.25
609.426	23.25
610.189	18.25
610.952	21.25
611.715	19.25
612.478	16.25
613.241	18.25
614.004	16.25
614.767	18.25
615.529	19.25
616.292	15.25
617.055	13.25
617.817	14.25
618.579	13.25
619.342	14.25
620.104	14.25
620.866	12.25
621.628	13.25
622.39	11.25
623.152	12.25
623.914	10.25
624.676	10.25
625.438	11.25
626.199	8.25
626.961	10.25
627.722	6.25
628.484	7.25
629.245	7.25
630.006	10.25
630.768	8.25
631.529	10.25
632.29	8.25
633.051	7.25
633.812	9.25
634.573	7.25
635.333	5.25
636.094	7.25
636.855	8.25
637.615	8.25
638.376	5.25
639.136	4.25
639.896	4.25
640.657	4.25
641.417	6.25
642.177	4.25
642.937	4.25
643.697	5.25
644.457	7.25
645.216	7.25
645.976	5.25
646.736	4.25
647.495	2.25
648.255	3.25
649.014	4.25
649.774	3.25
650.533	4.25
651.292	3.25
652.051	3.25
652.81	6.25
653.569	3.25
654.328	4.25
655.087	5.25
655.846	3.25
656.604	5.25
657.363	4.25
658.121	3.25
658.88	5.25
659.638	2.25
660.397	3.25
661.155	2.25
661.913	4.25
662.671	3.25
663.429	1.25
664.187	3.25
664.945	2.25
665.703	1.25
666.46	2.25
667.218	1.25
667.976	1.25
668.733	1.25
669.49	4.25
670.248	1.25
671.005	1.25
671.762	2.25
672.519	1.25
673.276	1.25
674.033	2.25
674.79	3.25
675.547	1.25
676.304	1.25
677.06	4.25
677.817	2.25
678.574	2.25
679.33	3.25
680.086	3.25
680.843	1.25
681.599	2.25
682.355	2.25
683.111	4.25
683.867	5.25
684.623	2.25
685.379	5.25
686.135	5.25
686.89	1.25
687.646	3.25
688.402	3.25
689.157	2.25
689.912	1.25
690.668	2.25
691.423	1.25
692.178	1.25
692.933	1.25
693.688	1.25
694.443	2.25
695.198	0.25
695.953	3.25
696.708	1.25
697.462	2.25
698.217	2.25
698.972	0.25
699.726	3.25
700.48	2.25
701.235	1.25
701.989	2.25
702.743	1.25
703.497	1.25
704.251	1.25
705.005	2.25
705.759	0.25
706.513	4.25
707.266	2.25
708.02	2.25
708.774	1.25
709.527	0.25
710.28	1.25
711.034	0.25
711.787	1.25
712.54	3.25
713.293	1.25
714.046	2.25
714.799	3.25
715.552	2.25
716.305	3.25
717.058	1.25
717.81	1.25
718.563	0.25
719.315	1.25
720.068	3.25
720.82	2.25
721.573	0.25
722.325	1.25
723.077	2.25
723.829	0.25
724.581	2.25
725.333	1.25
726.085	2.25
726.836	0.25
727.588	-0.75
728.34	0.25
729.091	1.25
729.843	1.25
730.594	2.25
731.346	3.25
732.097	3.25
732.848	2.25
733.599	3.25
734.35	2.25
735.101	1.25
735.852	2.25
736.603	0.25
737.354	1.25
738.104	3.25
738.855	2.25
739.605	2.25
740.356	2.25
741.106	1.25
741.856	0.25
742.607	2.25
743.357	2.25
744.107	2.25
744.857	3.25
745.607	2.25
746.357	3.25
747.106	2.25
747.856	2.25
748.606	3.25
749.355	1.25
750.105	1.25
750.854	3.25
751.603	4.25
752.353	3.25
753.102	2.25
753.851	2.25
754.6	2.25
755.349	1.25
756.098	3.25
756.847	2.25
757.595	2.25
758.344	4.25
759.093	2.25
759.841	3.25
760.589	4.25
761.338	1.25
762.086	4.25
762.834	1.25
763.582	2.25
764.331	4.25
765.079	5.25
765.826	4.25
766.574	3.25
767.322	3.25
768.07	3.25
768.817	4.25
769.565	4.25
770.312	3.25
771.06	4.25
771.807	4.25
772.554	1.25
773.302	2.25
774.049	2.25
774.796	3.25
775.543	5.25
776.29	2.25
777.036	5.25
777.783	4.25
778.53	1.25
779.276	4.25
780.023	3.25
780.769	5.25
781.516	4.25
782.262	4.25
783.008	7.25
783.754	5.25
784.5	4.25
785.246	2.25
785.992	5.25
786.738	5.25
787.484	2.25
788.23	4.25
788.975	3.25
789.721	7.25
790.466	2.25
791.212	5.25
791.957	5.25
792.702	6.25
793.447	6.25
794.193	2.25
794.938	6.25
795.683	5.25
796.427	4.25
797.172	2.25
797.917	5.25
798.662	4.25
799.406	3.25
800.151	5.25
800.895	4.25
801.64	1.25
802.384	4.25
803.128	3.25
803.872	5.25
804.616	5.25
805.36	5.25
806.104	4.25
806.848	4.25
807.592	3.25
808.336	5.25
809.079	2.25
809.823	2.25
810.566	4.25
811.31	4.25
812.053	3.25
812.796	2.25
813.539	2.25
814.283	3.25
815.026	1.25
815.769	4.25
816.511	2.25
817.254	2.25
817.997	2.25
818.74	3.25
819.482	2.25
820.225	2.25
820.967	3.25
821.71	4.25
822.452	1.25
823.194	2.25
823.936	5.25
824.678	6.25
825.42	1.25
826.162	2.25
826.904	1.25
827.646	2.25
828.388	4.25
829.129	1.25
829.871	4.25
830.612	3.25
831.354	6.25
832.095	3.25
832.836	2.25
833.577	2.25
834.319	3.25
835.06	3.25
835.801	4.25
836.542	2.25
837.282	2.25
838.023	1.25
838.764	4.25
839.504	3.25
840.245	3.25
840.985	3.25
841.726	0.25
842.466	0.25
843.206	4.25
843.946	2.25
844.687	2.25
845.427	0.25
846.166	0.25
846.906	2.25
847.646	-0.75
848.386	3.25
849.125	1.25
849.865	2.25
850.605	1.25
851.344	1.25
852.083	1.25
852.823	0.25
853.562	1.25
854.301	4.25
855.04	0.25
855.779	1.25
856.518	3.25
857.257	2.25
857.995	2.25
858.734	-1.75
859.473	1.25
860.211	2.25
860.95	1.25
861.688	0.25
862.426	1.25
863.165	1.25
863.903	0.25
864.641	3.25
865.379	1.25
866.117	1.25
866.855	1.25
867.593	1.25
868.33	1.25
869.068	0.25
869.806	1.25
870.543	0.25
871.28	1.25
872.018	0.25
872.755	1.25
873.492	1.25
874.229	2.25
874.967	2.25
875.703	0.25
876.44	0.25
877.177	3.25
877.914	0.25
878.651	0.25
879.387	0.25
880.124	1.25
880.86	1.25
881.597	0.25
882.333	-0.75
883.069	0.25
883.806	1.25
884.542	2.25
885.278	2.25
886.014	0.25
886.749	1.25
887.485	0.25
888.221	-0.75
888.957	-0.75
889.692	1.25
890.428	1.25
891.163	-0.75
891.899	2.25
892.634	-0.75
893.369	-0.75
894.104	-1.75
894.839	-0.75
895.574	0.25
896.309	0.25
897.044	0.25
897.779	1.25
898.514	-1.75
899.248	0.25
899.983	-0.75
900.717	1.25
901.452	-1.75
902.186	2.25
902.92	2.25
903.654	-2.75
904.389	-0.75
905.123	1.25
905.857	1.25
906.59	1.25
907.324	-0.75
908.058	1.25
908.792	-0.75
909.525	0.25
910.259	-2.75
910.992	2.25
911.726	-0.75
912.459	2.25
913.192	1.25
913.925	-1.75
914.658	3.25
915.391	0.25
916.124	1.25
916.857	-0.75
917.59	1.25
918.323	-1.75
919.055	0.25
919.788	1.25
920.521	-1.75
921.253	2.25
921.985	2.25
922.718	-1.75
923.45	-0.75
924.182	-1.75
924.914	1.25
925.646	-0.75
926.378	1.25
927.11	0.25
927.841	0.25
928.573	0.25
929.305	0.25
930.036	0.25
930.768	0.25
931.499	-0.75
932.23	-0.75
932.962	2.25
933.693	0.25
934.424	-0.75
935.155	0.25
935.886	1.25
936.617	0.25
937.348	-2.75
938.078	-0.75
938.809	-0.75
939.54	-0.75
940.27	1.25
941.001	-0.75
941.731	-0.75
942.461	-1.75
943.191	2.25
943.922	0.25
944.652	-1.75
945.382	1.25
946.112	-0.75
946.841	1.25
947.571	0.25
948.301	-0.75
949.031	1.25
949.76	0.25
950.49	2.25
951.219	-0.75
951.948	0.25
952.678	-1.75
953.407	0.25
954.136	0.25
954.865	-1.75
955.594	0.25
956.323	-0.75
957.052	0.25
957.78	2.25
958.509	-0.75
959.238	-1.75
959.966	-0.75
960.695	0.25
961.423	2.25
962.151	3.25
962.88	0.25
963.608	1.25
964.336	1.25
965.064	-0.75
965.792	1.25
966.52	-0.75
967.247	0.25
967.975	0.25
968.703	-1.75
969.43	-0.75
970.158	0.25
970.885	0.25
971.613	-1.75
972.34	-1.75
973.067	-0.75
973.794	0.25
974.521	-0.75
975.248	-1.75
975.975	1.25
976.702	-1.75
977.429	1.25
978.156	-0.75
978.882	-0.75
979.609	1.25
980.335	-1.75
981.062	0.25
981.788	0.25
982.514	1.25
983.24	0.25
983.967	-1.75
984.693	0.25
985.419	-1.75
986.144	-1.75
986.87	2.25
987.596	-0.75
988.322	0.25
989.047	-2.75
989.773	-0.75
990.498	-0.75
991.224	2.25
991.949	1.25
992.674	0.25
993.399	-1.75
994.124	0.25
994.849	1.25
995.574	0.25
996.299	-0.75
997.024	1.25
997.749	0.25
998.473	1.25
999.198	-1.75
999.922	2.25
1000.647	-0.75
1001.371	5.25
1002.095	-1.75
1002.82	-1.75
1003.544	-1.75
1004.268	0.25
1004.992	-0.75
1005.716	-0.75
1006.439	0.25
1007.163	0.25
1007.887	-1.75
1008.611	0.25
1009.334	0.25
1010.058	1.25
1010.781	0.25
1011.504	1.25
1012.228	1.25
1012.951	1.25
1013.674	-0.75
1014.397	0.25
1015.12	-0.75
