节点500_145_QEPB04081__202__11-32-11-508.txt的数据

Date: Wed Nov 12 11:32:11 CST 2025
User: PC
Spectrometer: QEPB0408
触发模式: 0
积分时间 (秒): 1.000000E-2
Scans to average: 1
启用暗噪声校正: true
启用非线性校正: false
滑动平均宽度: 0
X轴模式: Wavelengths
Number of Pixels in Spectrum: 1044
>>>>>Begin Spectral Data<<<<<
220.843	-0.5
221.644	-1.5
222.444	0.5
223.244	-1.5
224.045	-1.5
224.845	-3.5
225.645	0.5
226.445	-1.5
227.245	-0.5
228.045	-0.5
228.845	-0.5
229.645	-0.5
230.444	-2.5
231.244	-1.5
232.043	-0.5
232.843	-0.5
233.642	-0.5
234.442	-0.5
235.241	0.5
236.04	-0.5
236.839	2.5
237.638	1.5
238.437	0.5
239.236	0.5
240.035	0.5
240.833	1.5
241.632	0.5
242.43	-0.5
243.229	1.5
244.027	1.5
244.826	2.5
245.624	0.5
246.422	2.5
247.22	-0.5
248.018	3.5
248.816	3.5
249.614	1.5
250.412	1.5
251.21	0.5
252.007	1.5
252.805	2.5
253.602	2.5
254.4	2.5
255.197	2.5
255.994	3.5
256.791	1.5
257.589	5.5
258.386	2.5
259.183	1.5
259.979	4.5
260.776	2.5
261.573	4.5
262.37	3.5
263.166	4.5
263.963	5.5
264.759	5.5
265.556	4.5
266.352	5.5
267.148	6.5
267.944	8.5
268.74	6.5
269.536	8.5
270.332	8.5
271.128	8.5
271.924	7.5
272.719	8.5
273.515	8.5
274.311	9.5
275.106	9.5
275.901	8.5
276.697	9.5
277.492	8.5
278.287	9.5
279.082	5.5
279.877	8.5
280.672	10.5
281.467	9.5
282.262	9.5
283.056	9.5
283.851	10.5
284.646	11.5
285.44	11.5
286.234	11.5
287.029	9.5
287.823	11.5
288.617	11.5
289.411	12.5
290.205	12.5
290.999	11.5
291.793	11.5
292.587	12.5
293.381	11.5
294.174	7.5
294.968	9.5
295.761	10.5
296.555	10.5
297.348	9.5
298.141	8.5
298.935	9.5
299.728	10.5
300.521	7.5
301.314	8.5
302.107	8.5
302.899	8.5
303.692	6.5
304.485	8.5
305.277	7.5
306.07	8.5
306.862	8.5
307.655	6.5
308.447	6.5
309.239	6.5
310.031	7.5
310.823	5.5
311.615	3.5
312.407	7.5
313.199	8.5
313.991	5.5
314.783	5.5
315.574	6.5
316.366	4.5
317.157	3.5
317.949	2.5
318.74	3.5
319.531	5.5
320.322	1.5
321.113	5.5
321.904	4.5
322.695	4.5
323.486	5.5
324.277	2.5
325.068	4.5
325.858	5.5
326.649	4.5
327.439	3.5
328.23	3.5
329.02	3.5
329.81	2.5
330.6	4.5
331.391	2.5
332.181	5.5
332.971	2.5
333.76	1.5
334.55	3.5
335.34	3.5
336.13	0.5
336.919	1.5
337.709	2.5
338.498	2.5
339.287	3.5
340.077	2.5
340.866	2.5
341.655	1.5
342.444	2.5
343.233	1.5
344.022	4.5
344.811	3.5
345.6	5.5
346.388	2.5
347.177	1.5
347.965	0.5
348.754	1.5
349.542	4.5
350.33	0.5
351.119	1.5
351.907	4.5
352.695	1.5
353.483	3.5
354.271	1.5
355.059	1.5
355.846	1.5
356.634	1.5
357.422	1.5
358.209	1.5
358.997	2.5
359.784	2.5
360.571	3.5
361.359	2.5
362.146	3.5
362.933	0.5
363.72	4.5
364.507	4.5
365.294	2.5
366.081	-0.5
366.867	2.5
367.654	3.5
368.44	3.5
369.227	1.5
370.013	-1.5
370.8	2.5
371.586	0.5
372.372	-0.5
373.158	1.5
373.944	1.5
374.73	4.5
375.516	3.5
376.302	1.5
377.088	3.5
377.873	4.5
378.659	-0.5
379.445	1.5
380.23	2.5
381.015	3.5
381.801	4.5
382.586	1.5
383.371	1.5
384.156	2.5
384.941	3.5
385.726	3.5
386.511	0.5
387.296	3.5
388.08	5.5
388.865	3.5
389.649	3.5
390.434	3.5
391.218	3.5
392.003	2.5
392.787	2.5
393.571	0.5
394.355	1.5
395.139	5.5
395.923	1.5
396.707	4.5
397.491	0.5
398.274	4.5
399.058	2.5
399.842	4.5
400.625	2.5
401.408	5.5
402.192	1.5
402.975	4.5
403.758	2.5
404.541	7.5
405.324	1.5
406.107	3.5
406.89	3.5
407.673	3.5
408.456	3.5
409.238	2.5
410.021	4.5
410.803	4.5
411.586	4.5
412.368	4.5
413.151	4.5
413.933	1.5
414.715	6.5
415.497	4.5
416.279	4.5
417.061	4.5
417.843	4.5
418.624	4.5
419.406	2.5
420.188	4.5
420.969	4.5
421.751	5.5
422.532	4.5
423.313	6.5
424.095	6.5
424.876	4.5
425.657	6.5
426.438	6.5
427.219	6.5
428	8.5
428.78	3.5
429.561	7.5
430.342	7.5
431.122	7.5
431.903	9.5
432.683	9.5
433.464	6.5
434.244	7.5
435.024	7.5
435.804	9.5
436.584	7.5
437.364	9.5
438.144	8.5
438.924	12.5
439.704	11.5
440.483	9.5
441.263	11.5
442.042	11.5
442.822	13.5
443.601	12.5
444.38	13.5
445.16	12.5
445.939	13.5
446.718	17.5
447.497	15.5
448.276	20.5
449.054	20.5
449.833	20.5
450.612	22.5
451.391	25.5
452.169	29.5
452.948	28.5
453.726	33.5
454.504	37.5
455.282	36.5
456.061	43.5
456.839	47.5
457.617	52.5
458.395	59.5
459.172	65.5
459.95	69.5
460.728	81.5
461.506	89.5
462.283	92.5
463.061	104.5
463.838	124.5
464.615	137.5
465.393	155.5
466.17	164.5
466.947	190.5
467.724	202.5
468.501	237.5
469.278	258.5
470.055	295.5
470.831	321.5
471.608	361.5
472.385	406.5
473.161	453.5
473.938	497.5
474.714	552.5
475.49	617.5
476.266	686.5
477.043	763.5
477.819	844.5
478.595	940.5
479.371	1026.5
480.146	1134.5
480.922	1272.5
481.698	1400.5
482.473	1549.5
483.249	1721.5
484.024	1886.5
484.8	2072.5
485.575	2299.5
486.35	2546.5
487.126	2822.5
487.901	3118.5
488.676	3437.5
489.451	3783.5
490.225	4168.5
491	4591.5
491.775	5063.5
492.55	5537.5
493.324	6093.5
494.099	6688.5
494.873	7288.5
495.647	7946.5
496.422	8685.5
497.196	9380.5
497.97	10085.5
498.744	10921.5
499.518	11649.5
500.292	12409.5
501.066	13198.5
501.839	13863.5
502.613	14622.5
503.387	15182.5
504.16	15758.5
504.934	16213.5
505.707	16543.5
506.48	16743.5
507.253	16921.5
508.027	16945.5
508.8	16838.5
509.573	16629.5
510.346	16293.5
511.118	15977.5
511.891	15483.5
512.664	14962.5
513.437	14425.5
514.209	13807.5
514.982	13289.5
515.754	12696.5
516.526	12171.5
517.298	11598.5
518.071	11113.5
518.843	10593.5
519.615	10157.5
520.387	9728.5
521.159	9364.5
521.93	8930.5
522.702	8593.5
523.474	8265.5
524.245	7957.5
525.017	7639.5
525.788	7310.5
526.56	7041.5
527.331	6729.5
528.102	6415.5
528.873	6148.5
529.644	5862.5
530.415	5598.5
531.186	5304.5
531.957	5037.5
532.728	4763.5
533.498	4529.5
534.269	4281.5
535.039	4057.5
535.81	3779.5
536.58	3592.5
537.351	3390.5
538.121	3180.5
538.891	3024.5
539.661	2865.5
540.431	2690.5
541.201	2573.5
541.971	2441.5
542.741	2305.5
543.51	2182.5
544.28	2061.5
545.05	1960.5
545.819	1860.5
546.588	1785.5
547.358	1681.5
548.127	1604.5
548.896	1523.5
549.665	1451.5
550.434	1367.5
551.203	1291.5
551.972	1241.5
552.741	1164.5
553.51	1109.5
554.278	1043.5
555.047	982.5
555.815	928.5
556.584	869.5
557.352	825.5
558.121	777.5
558.889	747.5
559.657	696.5
560.425	650.5
561.193	617.5
561.961	580.5
562.729	558.5
563.496	510.5
564.264	488.5
565.032	461.5
565.799	443.5
566.567	409.5
567.334	390.5
568.101	366.5
568.869	342.5
569.636	322.5
570.403	311.5
571.17	284.5
571.937	269.5
572.704	255.5
573.471	245.5
574.237	232.5
575.004	218.5
575.771	204.5
576.537	188.5
577.303	179.5
578.07	165.5
578.836	157.5
579.602	147.5
580.368	139.5
581.134	129.5
581.9	133.5
582.666	125.5
583.432	112.5
584.198	106.5
584.964	98.5
585.729	93.5
586.495	91.5
587.26	89.5
588.025	78.5
588.791	76.5
589.556	72.5
590.321	68.5
591.086	62.5
591.851	64.5
592.616	57.5
593.381	55.5
594.146	52.5
594.911	51.5
595.675	49.5
596.44	43.5
597.204	38.5
597.969	41.5
598.733	39.5
599.497	36.5
600.261	37.5
601.025	32.5
601.79	30.5
602.553	32.5
603.317	29.5
604.081	28.5
604.845	26.5
605.609	26.5
606.372	24.5
607.136	22.5
607.899	22.5
608.662	23.5
609.426	18.5
610.189	20.5
610.952	16.5
611.715	17.5
612.478	18.5
613.241	17.5
614.004	17.5
614.767	17.5
615.529	14.5
616.292	15.5
617.055	13.5
617.817	13.5
618.579	13.5
619.342	12.5
620.104	13.5
620.866	9.5
621.628	11.5
622.39	10.5
623.152	9.5
623.914	10.5
624.676	8.5
625.438	9.5
626.199	10.5
626.961	8.5
627.722	9.5
628.484	7.5
629.245	7.5
630.006	9.5
630.768	6.5
631.529	7.5
632.29	5.5
633.051	7.5
633.812	6.5
634.573	6.5
635.333	5.5
636.094	3.5
636.855	3.5
637.615	5.5
638.376	5.5
639.136	4.5
639.896	5.5
640.657	1.5
641.417	2.5
642.177	4.5
642.937	1.5
643.697	4.5
644.457	7.5
645.216	2.5
645.976	4.5
646.736	2.5
647.495	4.5
648.255	5.5
649.014	4.5
649.774	1.5
650.533	2.5
651.292	5.5
652.051	4.5
652.81	4.5
653.569	3.5
654.328	4.5
655.087	2.5
655.846	4.5
656.604	4.5
657.363	4.5
658.121	4.5
658.88	4.5
659.638	3.5
660.397	4.5
661.155	2.5
661.913	3.5
662.671	1.5
663.429	3.5
664.187	2.5
664.945	2.5
665.703	1.5
666.46	2.5
667.218	0.5
667.976	0.5
668.733	2.5
669.49	0.5
670.248	2.5
671.005	2.5
671.762	3.5
672.519	3.5
673.276	1.5
674.033	2.5
674.79	0.5
675.547	2.5
676.304	1.5
677.06	2.5
677.817	1.5
678.574	0.5
679.33	1.5
680.086	0.5
680.843	1.5
681.599	1.5
682.355	1.5
683.111	3.5
683.867	2.5
684.623	1.5
685.379	0.5
686.135	1.5
686.89	3.5
687.646	1.5
688.402	2.5
689.157	2.5
689.912	2.5
690.668	1.5
691.423	3.5
692.178	0.5
692.933	0.5
693.688	2.5
694.443	2.5
695.198	1.5
695.953	0.5
696.708	2.5
697.462	0.5
698.217	0.5
698.972	0.5
699.726	1.5
700.48	2.5
701.235	2.5
701.989	-0.5
702.743	2.5
703.497	0.5
704.251	0.5
705.005	3.5
705.759	3.5
706.513	2.5
707.266	1.5
708.02	0.5
708.774	-1.5
709.527	0.5
710.28	0.5
711.034	1.5
711.787	0.5
712.54	0.5
713.293	1.5
714.046	-0.5
714.799	1.5
715.552	3.5
716.305	2.5
717.058	2.5
717.81	0.5
718.563	-0.5
719.315	0.5
720.068	1.5
720.82	0.5
721.573	0.5
722.325	1.5
723.077	0.5
723.829	2.5
724.581	0.5
725.333	-1.5
726.085	0.5
726.836	0.5
727.588	2.5
728.34	1.5
729.091	0.5
729.843	3.5
730.594	2.5
731.346	3.5
732.097	1.5
732.848	1.5
733.599	2.5
734.35	2.5
735.101	2.5
735.852	2.5
736.603	0.5
737.354	2.5
738.104	2.5
738.855	-0.5
739.605	1.5
740.356	1.5
741.106	3.5
741.856	3.5
742.607	2.5
743.357	0.5
744.107	1.5
744.857	1.5
745.607	3.5
746.357	2.5
747.106	1.5
747.856	4.5
748.606	3.5
749.355	2.5
750.105	2.5
750.854	2.5
751.603	0.5
752.353	4.5
753.102	3.5
753.851	2.5
754.6	4.5
755.349	3.5
756.098	1.5
756.847	1.5
757.595	4.5
758.344	0.5
759.093	3.5
759.841	2.5
760.589	2.5
761.338	4.5
762.086	4.5
762.834	3.5
763.582	4.5
764.331	2.5
765.079	3.5
765.826	4.5
766.574	3.5
767.322	0.5
768.07	2.5
768.817	2.5
769.565	4.5
770.312	2.5
771.06	3.5
771.807	2.5
772.554	4.5
773.302	3.5
774.049	2.5
774.796	1.5
775.543	3.5
776.29	4.5
777.036	4.5
777.783	5.5
778.53	5.5
779.276	4.5
780.023	7.5
780.769	3.5
781.516	6.5
782.262	2.5
783.008	4.5
783.754	5.5
784.5	3.5
785.246	6.5
785.992	4.5
786.738	4.5
787.484	4.5
788.23	5.5
788.975	5.5
789.721	5.5
790.466	4.5
791.212	4.5
791.957	5.5
792.702	6.5
793.447	5.5
794.193	8.5
794.938	4.5
795.683	4.5
796.427	6.5
797.172	3.5
797.917	7.5
798.662	2.5
799.406	3.5
800.151	0.5
800.895	5.5
801.64	6.5
802.384	5.5
803.128	3.5
803.872	3.5
804.616	6.5
805.36	5.5
806.104	4.5
806.848	3.5
807.592	0.5
808.336	3.5
809.079	4.5
809.823	2.5
810.566	2.5
811.31	5.5
812.053	3.5
812.796	3.5
813.539	4.5
814.283	1.5
815.026	0.5
815.769	1.5
816.511	4.5
817.254	4.5
817.997	4.5
818.74	2.5
819.482	1.5
820.225	1.5
820.967	3.5
821.71	1.5
822.452	0.5
823.194	0.5
823.936	3.5
824.678	2.5
825.42	3.5
826.162	1.5
826.904	3.5
827.646	3.5
828.388	1.5
829.129	3.5
829.871	3.5
830.612	0.5
831.354	2.5
832.095	0.5
832.836	1.5
833.577	2.5
834.319	4.5
835.06	-0.5
835.801	2.5
836.542	1.5
837.282	3.5
838.023	0.5
838.764	4.5
839.504	1.5
840.245	2.5
840.985	2.5
841.726	1.5
842.466	1.5
843.206	2.5
843.946	1.5
844.687	1.5
845.427	0.5
846.166	1.5
846.906	-0.5
847.646	-0.5
848.386	1.5
849.125	0.5
849.865	2.5
850.605	0.5
851.344	1.5
852.083	0.5
852.823	-0.5
853.562	1.5
854.301	2.5
855.04	1.5
855.779	-0.5
856.518	0.5
857.257	-0.5
857.995	3.5
858.734	1.5
859.473	3.5
860.211	2.5
860.95	1.5
861.688	2.5
862.426	-1.5
863.165	0.5
863.903	2.5
864.641	0.5
865.379	1.5
866.117	-0.5
866.855	0.5
867.593	0.5
868.33	0.5
869.068	0.5
869.806	-0.5
870.543	-2.5
871.28	0.5
872.018	0.5
872.755	-0.5
873.492	-1.5
874.229	0.5
874.967	-0.5
875.703	-0.5
876.44	0.5
877.177	0.5
877.914	2.5
878.651	-0.5
879.387	0.5
880.124	-1.5
880.86	-0.5
881.597	2.5
882.333	-0.5
883.069	1.5
883.806	0.5
884.542	1.5
885.278	-0.5
886.014	-0.5
886.749	0.5
887.485	-0.5
888.221	1.5
888.957	0.5
889.692	-0.5
890.428	0.5
891.163	1.5
891.899	0.5
892.634	-0.5
893.369	-0.5
894.104	-2.5
894.839	1.5
895.574	0.5
896.309	0.5
897.044	1.5
897.779	-0.5
898.514	-0.5
899.248	0.5
899.983	0.5
900.717	0.5
901.452	-0.5
902.186	0.5
902.92	-0.5
903.654	-0.5
904.389	-2.5
905.123	0.5
905.857	1.5
906.59	0.5
907.324	1.5
908.058	0.5
908.792	2.5
909.525	-1.5
910.259	-0.5
910.992	-0.5
911.726	1.5
912.459	-0.5
913.192	-1.5
913.925	0.5
914.658	-0.5
915.391	0.5
916.124	-0.5
916.857	-2.5
917.59	-0.5
918.323	0.5
919.055	1.5
919.788	-2.5
920.521	0.5
921.253	0.5
921.985	-1.5
922.718	-0.5
923.45	-0.5
924.182	-1.5
924.914	0.5
925.646	-1.5
926.378	-0.5
927.11	-1.5
927.841	-1.5
928.573	0.5
929.305	0.5
930.036	0.5
930.768	-1.5
931.499	1.5
932.23	-0.5
932.962	0.5
933.693	-0.5
934.424	1.5
935.155	-0.5
935.886	-0.5
936.617	0.5
937.348	-0.5
938.078	1.5
938.809	-2.5
939.54	1.5
940.27	-0.5
941.001	0.5
941.731	0.5
942.461	-0.5
943.191	-0.5
943.922	-0.5
944.652	2.5
945.382	0.5
946.112	-0.5
946.841	1.5
947.571	-3.5
948.301	0.5
949.031	-1.5
949.76	-0.5
950.49	0.5
951.219	0.5
951.948	-1.5
952.678	-0.5
953.407	-1.5
954.136	-1.5
954.865	1.5
955.594	-0.5
956.323	0.5
957.052	1.5
957.78	1.5
958.509	-0.5
959.238	2.5
959.966	-0.5
960.695	-0.5
961.423	0.5
962.151	-2.5
962.88	0.5
963.608	2.5
964.336	-0.5
965.064	0.5
965.792	-1.5
966.52	-0.5
967.247	-0.5
967.975	1.5
968.703	-0.5
969.43	0.5
970.158	0.5
970.885	0.5
971.613	0.5
972.34	-0.5
973.067	0.5
973.794	-0.5
974.521	1.5
975.248	0.5
975.975	-1.5
976.702	-1.5
977.429	0.5
978.156	-0.5
978.882	-0.5
979.609	0.5
980.335	0.5
981.062	0.5
981.788	-0.5
982.514	0.5
983.24	-0.5
983.967	1.5
984.693	-0.5
985.419	0.5
986.144	0.5
986.87	-1.5
987.596	0.5
988.322	-3.5
989.047	-0.5
989.773	3.5
990.498	0.5
991.224	0.5
991.949	1.5
992.674	0.5
993.399	-1.5
994.124	0.5
994.849	0.5
995.574	-0.5
996.299	0.5
997.024	0.5
997.749	-0.5
998.473	1.5
999.198	-0.5
999.922	0.5
1000.647	-0.5
1001.371	3.5
1002.095	-1.5
1002.82	-0.5
1003.544	-0.5
1004.268	0.5
1004.992	-0.5
1005.716	-2.5
1006.439	-2.5
1007.163	-0.5
1007.887	-0.5
1008.611	-2.5
1009.334	0.5
1010.058	1.5
1010.781	-0.5
1011.504	-0.5
1012.228	1.5
1012.951	0.5
1013.674	-1.5
1014.397	-0.5
1015.12	0.5
