节点500_145_QEPB04081__186__11-31-55-546.txt的数据

Date: Wed Nov 12 11:31:55 CST 2025
User: PC
Spectrometer: QEPB0408
触发模式: 0
积分时间 (秒): 1.000000E-2
Scans to average: 1
启用暗噪声校正: true
启用非线性校正: false
滑动平均宽度: 0
X轴模式: Wavelengths
Number of Pixels in Spectrum: 1044
>>>>>Begin Spectral Data<<<<<
220.843	1.5
221.644	1.5
222.444	0.5
223.244	-0.5
224.045	4.5
224.845	-0.5
225.645	-0.5
226.445	0.5
227.245	1.5
228.045	-1.5
228.845	0.5
229.645	2.5
230.444	0.5
231.244	0.5
232.043	1.5
232.843	1.5
233.642	-0.5
234.442	0.5
235.241	1.5
236.04	2.5
236.839	1.5
237.638	-0.5
238.437	0.5
239.236	4.5
240.035	1.5
240.833	1.5
241.632	3.5
242.43	1.5
243.229	2.5
244.027	1.5
244.826	1.5
245.624	1.5
246.422	4.5
247.22	3.5
248.018	4.5
248.816	4.5
249.614	4.5
250.412	2.5
251.21	1.5
252.007	3.5
252.805	3.5
253.602	1.5
254.4	3.5
255.197	1.5
255.994	2.5
256.791	2.5
257.589	3.5
258.386	4.5
259.183	5.5
259.979	4.5
260.776	3.5
261.573	4.5
262.37	3.5
263.166	5.5
263.963	5.5
264.759	4.5
265.556	5.5
266.352	7.5
267.148	6.5
267.944	7.5
268.74	7.5
269.536	7.5
270.332	9.5
271.128	7.5
271.924	7.5
272.719	10.5
273.515	7.5
274.311	7.5
275.106	9.5
275.901	8.5
276.697	8.5
277.492	10.5
278.287	11.5
279.082	12.5
279.877	10.5
280.672	10.5
281.467	8.5
282.262	11.5
283.056	8.5
283.851	12.5
284.646	14.5
285.44	12.5
286.234	10.5
287.029	10.5
287.823	10.5
288.617	12.5
289.411	12.5
290.205	11.5
290.999	11.5
291.793	10.5
292.587	9.5
293.381	10.5
294.174	12.5
294.968	8.5
295.761	13.5
296.555	13.5
297.348	10.5
298.141	8.5
298.935	8.5
299.728	9.5
300.521	8.5
301.314	10.5
302.107	9.5
302.899	9.5
303.692	9.5
304.485	8.5
305.277	9.5
306.07	7.5
306.862	8.5
307.655	6.5
308.447	10.5
309.239	6.5
310.031	8.5
310.823	8.5
311.615	6.5
312.407	6.5
313.199	5.5
313.991	7.5
314.783	6.5
315.574	7.5
316.366	5.5
317.157	4.5
317.949	5.5
318.74	5.5
319.531	7.5
320.322	4.5
321.113	6.5
321.904	5.5
322.695	3.5
323.486	6.5
324.277	5.5
325.068	4.5
325.858	3.5
326.649	4.5
327.439	5.5
328.23	3.5
329.02	4.5
329.81	3.5
330.6	2.5
331.391	2.5
332.181	4.5
332.971	3.5
333.76	2.5
334.55	6.5
335.34	3.5
336.13	3.5
336.919	4.5
337.709	6.5
338.498	2.5
339.287	5.5
340.077	2.5
340.866	1.5
341.655	4.5
342.444	4.5
343.233	3.5
344.022	3.5
344.811	3.5
345.6	2.5
346.388	2.5
347.177	6.5
347.965	2.5
348.754	1.5
349.542	3.5
350.33	3.5
351.119	2.5
351.907	2.5
352.695	5.5
353.483	2.5
354.271	2.5
355.059	2.5
355.846	3.5
356.634	4.5
357.422	2.5
358.209	3.5
358.997	1.5
359.784	3.5
360.571	6.5
361.359	5.5
362.146	2.5
362.933	3.5
363.72	2.5
364.507	5.5
365.294	2.5
366.081	2.5
366.867	1.5
367.654	1.5
368.44	4.5
369.227	3.5
370.013	3.5
370.8	2.5
371.586	1.5
372.372	2.5
373.158	3.5
373.944	2.5
374.73	3.5
375.516	4.5
376.302	3.5
377.088	2.5
377.873	1.5
378.659	5.5
379.445	2.5
380.23	4.5
381.015	2.5
381.801	2.5
382.586	2.5
383.371	2.5
384.156	2.5
384.941	4.5
385.726	3.5
386.511	3.5
387.296	3.5
388.08	2.5
388.865	0.5
389.649	5.5
390.434	3.5
391.218	2.5
392.003	4.5
392.787	3.5
393.571	4.5
394.355	2.5
395.139	3.5
395.923	3.5
396.707	2.5
397.491	3.5
398.274	3.5
399.058	6.5
399.842	3.5
400.625	2.5
401.408	5.5
402.192	4.5
402.975	5.5
403.758	7.5
404.541	5.5
405.324	1.5
406.107	5.5
406.89	3.5
407.673	5.5
408.456	5.5
409.238	3.5
410.021	7.5
410.803	4.5
411.586	4.5
412.368	4.5
413.151	4.5
413.933	5.5
414.715	6.5
415.497	5.5
416.279	5.5
417.061	3.5
417.843	5.5
418.624	4.5
419.406	5.5
420.188	4.5
420.969	7.5
421.751	7.5
422.532	6.5
423.313	4.5
424.095	5.5
424.876	5.5
425.657	4.5
426.438	8.5
427.219	7.5
428	6.5
428.78	8.5
429.561	8.5
430.342	8.5
431.122	10.5
431.903	6.5
432.683	7.5
433.464	7.5
434.244	6.5
435.024	7.5
435.804	10.5
436.584	8.5
437.364	9.5
438.144	8.5
438.924	9.5
439.704	11.5
440.483	13.5
441.263	12.5
442.042	11.5
442.822	13.5
443.601	17.5
444.38	16.5
445.16	16.5
445.939	16.5
446.718	18.5
447.497	18.5
448.276	20.5
449.054	21.5
449.833	23.5
450.612	24.5
451.391	27.5
452.169	29.5
452.948	28.5
453.726	34.5
454.504	36.5
455.282	41.5
456.061	44.5
456.839	48.5
457.617	50.5
458.395	55.5
459.172	62.5
459.95	68.5
460.728	78.5
461.506	90.5
462.283	94.5
463.061	105.5
463.838	121.5
464.615	138.5
465.393	149.5
466.17	165.5
466.947	185.5
467.724	210.5
468.501	231.5
469.278	261.5
470.055	285.5
470.831	330.5
471.608	357.5
472.385	405.5
473.161	450.5
473.938	500.5
474.714	558.5
475.49	613.5
476.266	674.5
477.043	755.5
477.819	837.5
478.595	948.5
479.371	1045.5
480.146	1141.5
480.922	1251.5
481.698	1411.5
482.473	1548.5
483.249	1713.5
484.024	1897.5
484.8	2088.5
485.575	2314.5
486.35	2567.5
487.126	2825.5
487.901	3108.5
488.676	3462.5
489.451	3813.5
490.225	4205.5
491	4647.5
491.775	5092.5
492.55	5597.5
493.324	6161.5
494.099	6731.5
494.873	7360.5
495.647	8020.5
496.422	8759.5
497.196	9446.5
497.97	10198.5
498.744	11029.5
499.518	11826.5
500.292	12512.5
501.066	13327.5
501.839	14029.5
502.613	14686.5
503.387	15318.5
504.16	15875.5
504.934	16306.5
505.707	16665.5
506.48	16862.5
507.253	17032.5
508.027	17012.5
508.8	16909.5
509.573	16635.5
510.346	16373.5
511.118	15979.5
511.891	15490.5
512.664	14940.5
513.437	14401.5
514.209	13866.5
514.982	13280.5
515.754	12767.5
516.526	12148.5
517.298	11601.5
518.071	11043.5
518.843	10573.5
519.615	10135.5
520.387	9689.5
521.159	9318.5
521.93	8941.5
522.702	8607.5
523.474	8297.5
524.245	7938.5
525.017	7661.5
525.788	7301.5
526.56	7015.5
527.331	6706.5
528.102	6411.5
528.873	6117.5
529.644	5841.5
530.415	5580.5
531.186	5296.5
531.957	5015.5
532.728	4735.5
533.498	4502.5
534.269	4268.5
535.039	4033.5
535.81	3810.5
536.58	3569.5
537.351	3377.5
538.121	3194.5
538.891	3006.5
539.661	2867.5
540.431	2686.5
541.201	2531.5
541.971	2417.5
542.741	2293.5
543.51	2183.5
544.28	2063.5
545.05	1964.5
545.819	1853.5
546.588	1780.5
547.358	1679.5
548.127	1598.5
548.896	1529.5
549.665	1436.5
550.434	1368.5
551.203	1297.5
551.972	1221.5
552.741	1170.5
553.51	1104.5
554.278	1050.5
555.047	977.5
555.815	915.5
556.584	874.5
557.352	816.5
558.121	781.5
558.889	727.5
559.657	685.5
560.425	649.5
561.193	608.5
561.961	578.5
562.729	544.5
563.496	522.5
564.264	485.5
565.032	457.5
565.799	434.5
566.567	409.5
567.334	381.5
568.101	363.5
568.869	341.5
569.636	327.5
570.403	301.5
571.17	286.5
571.937	271.5
572.704	259.5
573.471	247.5
574.237	225.5
575.004	211.5
575.771	203.5
576.537	189.5
577.303	179.5
578.07	167.5
578.836	162.5
579.602	150.5
580.368	137.5
581.134	136.5
581.9	125.5
582.666	119.5
583.432	116.5
584.198	108.5
584.964	103.5
585.729	99.5
586.495	90.5
587.26	85.5
588.025	76.5
588.791	76.5
589.556	71.5
590.321	67.5
591.086	66.5
591.851	59.5
592.616	56.5
593.381	53.5
594.146	56.5
594.911	47.5
595.675	48.5
596.44	48.5
597.204	46.5
597.969	41.5
598.733	40.5
599.497	40.5
600.261	36.5
601.025	32.5
601.79	32.5
602.553	31.5
603.317	30.5
604.081	28.5
604.845	30.5
605.609	24.5
606.372	25.5
607.136	22.5
607.899	22.5
608.662	24.5
609.426	23.5
610.189	22.5
610.952	18.5
611.715	21.5
612.478	17.5
613.241	17.5
614.004	13.5
614.767	14.5
615.529	17.5
616.292	15.5
617.055	14.5
617.817	13.5
618.579	13.5
619.342	11.5
620.104	11.5
620.866	10.5
621.628	9.5
622.39	10.5
623.152	13.5
623.914	13.5
624.676	10.5
625.438	8.5
626.199	12.5
626.961	10.5
627.722	10.5
628.484	8.5
629.245	9.5
630.006	9.5
630.768	6.5
631.529	7.5
632.29	6.5
633.051	6.5
633.812	9.5
634.573	8.5
635.333	7.5
636.094	8.5
636.855	7.5
637.615	7.5
638.376	5.5
639.136	4.5
639.896	7.5
640.657	4.5
641.417	4.5
642.177	6.5
642.937	4.5
643.697	5.5
644.457	2.5
645.216	4.5
645.976	6.5
646.736	4.5
647.495	3.5
648.255	5.5
649.014	5.5
649.774	3.5
650.533	4.5
651.292	5.5
652.051	4.5
652.81	7.5
653.569	4.5
654.328	3.5
655.087	4.5
655.846	2.5
656.604	4.5
657.363	1.5
658.121	2.5
658.88	2.5
659.638	3.5
660.397	1.5
661.155	2.5
661.913	4.5
662.671	2.5
663.429	5.5
664.187	2.5
664.945	1.5
665.703	2.5
666.46	2.5
667.218	1.5
667.976	2.5
668.733	3.5
669.49	2.5
670.248	2.5
671.005	5.5
671.762	3.5
672.519	4.5
673.276	2.5
674.033	1.5
674.79	4.5
675.547	2.5
676.304	1.5
677.06	1.5
677.817	3.5
678.574	5.5
679.33	1.5
680.086	3.5
680.843	1.5
681.599	2.5
682.355	2.5
683.111	4.5
683.867	2.5
684.623	3.5
685.379	2.5
686.135	3.5
686.89	1.5
687.646	3.5
688.402	2.5
689.157	1.5
689.912	1.5
690.668	4.5
691.423	2.5
692.178	2.5
692.933	2.5
693.688	5.5
694.443	2.5
695.198	1.5
695.953	2.5
696.708	3.5
697.462	2.5
698.217	0.5
698.972	3.5
699.726	2.5
700.48	-0.5
701.235	3.5
701.989	1.5
702.743	3.5
703.497	1.5
704.251	1.5
705.005	0.5
705.759	3.5
706.513	3.5
707.266	0.5
708.02	2.5
708.774	-0.5
709.527	1.5
710.28	3.5
711.034	1.5
711.787	1.5
712.54	3.5
713.293	1.5
714.046	1.5
714.799	3.5
715.552	0.5
716.305	0.5
717.058	2.5
717.81	0.5
718.563	3.5
719.315	2.5
720.068	2.5
720.82	1.5
721.573	2.5
722.325	2.5
723.077	1.5
723.829	3.5
724.581	0.5
725.333	1.5
726.085	2.5
726.836	-1.5
727.588	0.5
728.34	2.5
729.091	4.5
729.843	2.5
730.594	3.5
731.346	3.5
732.097	2.5
732.848	3.5
733.599	1.5
734.35	1.5
735.101	2.5
735.852	3.5
736.603	5.5
737.354	2.5
738.104	3.5
738.855	2.5
739.605	2.5
740.356	2.5
741.106	4.5
741.856	1.5
742.607	2.5
743.357	4.5
744.107	2.5
744.857	2.5
745.607	0.5
746.357	2.5
747.106	1.5
747.856	0.5
748.606	3.5
749.355	2.5
750.105	3.5
750.854	3.5
751.603	4.5
752.353	4.5
753.102	3.5
753.851	3.5
754.6	3.5
755.349	3.5
756.098	3.5
756.847	2.5
757.595	4.5
758.344	4.5
759.093	2.5
759.841	2.5
760.589	2.5
761.338	3.5
762.086	4.5
762.834	3.5
763.582	4.5
764.331	4.5
765.079	2.5
765.826	4.5
766.574	4.5
767.322	4.5
768.07	4.5
768.817	4.5
769.565	4.5
770.312	2.5
771.06	4.5
771.807	5.5
772.554	4.5
773.302	5.5
774.049	2.5
774.796	5.5
775.543	3.5
776.29	5.5
777.036	4.5
777.783	5.5
778.53	3.5
779.276	4.5
780.023	6.5
780.769	2.5
781.516	5.5
782.262	6.5
783.008	6.5
783.754	5.5
784.5	3.5
785.246	4.5
785.992	4.5
786.738	5.5
787.484	5.5
788.23	6.5
788.975	7.5
789.721	4.5
790.466	7.5
791.212	6.5
791.957	8.5
792.702	3.5
793.447	3.5
794.193	8.5
794.938	4.5
795.683	6.5
796.427	7.5
797.172	5.5
797.917	6.5
798.662	5.5
799.406	5.5
800.151	5.5
800.895	5.5
801.64	4.5
802.384	4.5
803.128	3.5
803.872	6.5
804.616	4.5
805.36	3.5
806.104	5.5
806.848	4.5
807.592	4.5
808.336	4.5
809.079	5.5
809.823	4.5
810.566	5.5
811.31	5.5
812.053	2.5
812.796	2.5
813.539	5.5
814.283	3.5
815.026	3.5
815.769	4.5
816.511	1.5
817.254	4.5
817.997	4.5
818.74	4.5
819.482	1.5
820.225	4.5
820.967	2.5
821.71	2.5
822.452	5.5
823.194	3.5
823.936	1.5
824.678	4.5
825.42	3.5
826.162	0.5
826.904	4.5
827.646	2.5
828.388	3.5
829.129	4.5
829.871	1.5
830.612	5.5
831.354	3.5
832.095	4.5
832.836	2.5
833.577	2.5
834.319	2.5
835.06	2.5
835.801	1.5
836.542	3.5
837.282	2.5
838.023	3.5
838.764	2.5
839.504	2.5
840.245	0.5
840.985	2.5
841.726	1.5
842.466	2.5
843.206	3.5
843.946	1.5
844.687	1.5
845.427	2.5
846.166	2.5
846.906	2.5
847.646	2.5
848.386	2.5
849.125	5.5
849.865	0.5
850.605	3.5
851.344	3.5
852.083	1.5
852.823	2.5
853.562	4.5
854.301	2.5
855.04	3.5
855.779	0.5
856.518	3.5
857.257	2.5
857.995	0.5
858.734	3.5
859.473	1.5
860.211	1.5
860.95	-0.5
861.688	3.5
862.426	1.5
863.165	1.5
863.903	1.5
864.641	0.5
865.379	2.5
866.117	1.5
866.855	1.5
867.593	1.5
868.33	1.5
869.068	3.5
869.806	1.5
870.543	1.5
871.28	0.5
872.018	2.5
872.755	0.5
873.492	1.5
874.229	1.5
874.967	1.5
875.703	1.5
876.44	0.5
877.177	1.5
877.914	2.5
878.651	0.5
879.387	0.5
880.124	-0.5
880.86	2.5
881.597	2.5
882.333	1.5
883.069	-1.5
883.806	-0.5
884.542	0.5
885.278	0.5
886.014	2.5
886.749	0.5
887.485	0.5
888.221	1.5
888.957	-0.5
889.692	1.5
890.428	0.5
891.163	2.5
891.899	0.5
892.634	1.5
893.369	0.5
894.104	-1.5
894.839	0.5
895.574	1.5
896.309	-2.5
897.044	2.5
897.779	-0.5
898.514	2.5
899.248	0.5
899.983	2.5
900.717	1.5
901.452	1.5
902.186	2.5
902.92	-0.5
903.654	1.5
904.389	-0.5
905.123	0.5
905.857	2.5
906.59	1.5
907.324	-0.5
908.058	0.5
908.792	2.5
909.525	-1.5
910.259	1.5
910.992	0.5
911.726	-0.5
912.459	-1.5
913.192	0.5
913.925	0.5
914.658	0.5
915.391	-0.5
916.124	0.5
916.857	0.5
917.59	0.5
918.323	0.5
919.055	1.5
919.788	-0.5
920.521	1.5
921.253	1.5
921.985	1.5
922.718	2.5
923.45	1.5
924.182	-0.5
924.914	-0.5
925.646	-0.5
926.378	3.5
927.11	-1.5
927.841	0.5
928.573	-0.5
929.305	0.5
930.036	0.5
930.768	1.5
931.499	0.5
932.23	0.5
932.962	-1.5
933.693	-1.5
934.424	1.5
935.155	-1.5
935.886	0.5
936.617	-1.5
937.348	-1.5
938.078	1.5
938.809	1.5
939.54	1.5
940.27	-0.5
941.001	1.5
941.731	0.5
942.461	-1.5
943.191	-1.5
943.922	1.5
944.652	1.5
945.382	2.5
946.112	1.5
946.841	2.5
947.571	-0.5
948.301	0.5
949.031	-0.5
949.76	0.5
950.49	-1.5
951.219	0.5
951.948	3.5
952.678	1.5
953.407	-0.5
954.136	1.5
954.865	1.5
955.594	1.5
956.323	-1.5
957.052	2.5
957.78	-0.5
958.509	1.5
959.238	0.5
959.966	-0.5
960.695	1.5
961.423	0.5
962.151	-0.5
962.88	-0.5
963.608	2.5
964.336	0.5
965.064	0.5
965.792	2.5
966.52	1.5
967.247	0.5
967.975	-1.5
968.703	-0.5
969.43	1.5
970.158	1.5
970.885	0.5
971.613	0.5
972.34	1.5
973.067	0.5
973.794	-0.5
974.521	1.5
975.248	1.5
975.975	2.5
976.702	1.5
977.429	0.5
978.156	0.5
978.882	-0.5
979.609	0.5
980.335	0.5
981.062	-0.5
981.788	0.5
982.514	2.5
983.24	-0.5
983.967	-1.5
984.693	1.5
985.419	0.5
986.144	1.5
986.87	-1.5
987.596	2.5
988.322	1.5
989.047	0.5
989.773	0.5
990.498	0.5
991.224	1.5
991.949	-0.5
992.674	1.5
993.399	1.5
994.124	1.5
994.849	1.5
995.574	3.5
996.299	2.5
997.024	-0.5
997.749	1.5
998.473	2.5
999.198	2.5
999.922	0.5
1000.647	0.5
1001.371	3.5
1002.095	-2.5
1002.82	-1.5
1003.544	0.5
1004.268	1.5
1004.992	-1.5
1005.716	-2.5
1006.439	2.5
1007.163	-1.5
1007.887	-0.5
1008.611	0.5
1009.334	1.5
1010.058	1.5
1010.781	-0.5
1011.504	0.5
1012.228	-0.5
1012.951	0.5
1013.674	0.5
1014.397	-0.5
1015.12	-0.5
