节点500_145_QEPB04081__486__11-36-42-485.txt的数据

Date: Wed Nov 12 11:36:42 CST 2025
User: PC
Spectrometer: QEPB0408
触发模式: 0
积分时间 (秒): 1.000000E-2
Scans to average: 1
启用暗噪声校正: true
启用非线性校正: false
滑动平均宽度: 0
X轴模式: Wavelengths
Number of Pixels in Spectrum: 1044
>>>>>Begin Spectral Data<<<<<
220.843	-1.88
221.644	-2.88
222.444	0.12
223.244	1.12
224.045	-0.88
224.845	-0.88
225.645	-0.88
226.445	1.12
227.245	0.12
228.045	-1.88
228.845	1.12
229.645	-1.88
230.444	0.12
231.244	-0.88
232.043	2.12
232.843	-0.88
233.642	1.12
234.442	3.12
235.241	-1.88
236.04	0.12
236.839	0.12
237.638	1.12
238.437	-0.88
239.236	2.12
240.035	2.12
240.833	0.12
241.632	2.12
242.43	2.12
243.229	1.12
244.027	2.12
244.826	1.12
245.624	2.12
246.422	3.12
247.22	1.12
248.018	-0.88
248.816	3.12
249.614	-0.88
250.412	1.12
251.21	1.12
252.007	2.12
252.805	4.12
253.602	3.12
254.4	1.12
255.197	3.12
255.994	2.12
256.791	3.12
257.589	2.12
258.386	5.12
259.183	3.12
259.979	3.12
260.776	4.12
261.573	4.12
262.37	5.12
263.166	5.12
263.963	5.12
264.759	4.12
265.556	7.12
266.352	5.12
267.148	5.12
267.944	6.12
268.74	5.12
269.536	5.12
270.332	6.12
271.128	5.12
271.924	6.12
272.719	8.12
273.515	6.12
274.311	5.12
275.106	9.12
275.901	6.12
276.697	7.12
277.492	10.12
278.287	10.12
279.082	8.12
279.877	7.12
280.672	10.12
281.467	9.12
282.262	7.12
283.056	8.12
283.851	11.12
284.646	11.12
285.44	11.12
286.234	10.12
287.029	12.12
287.823	11.12
288.617	11.12
289.411	9.12
290.205	9.12
290.999	10.12
291.793	9.12
292.587	8.12
293.381	10.12
294.174	8.12
294.968	10.12
295.761	9.12
296.555	8.12
297.348	11.12
298.141	10.12
298.935	12.12
299.728	10.12
300.521	7.12
301.314	9.12
302.107	3.12
302.899	7.12
303.692	9.12
304.485	7.12
305.277	9.12
306.07	7.12
306.862	8.12
307.655	9.12
308.447	9.12
309.239	9.12
310.031	8.12
310.823	8.12
311.615	5.12
312.407	5.12
313.199	8.12
313.991	9.12
314.783	6.12
315.574	4.12
316.366	7.12
317.157	7.12
317.949	4.12
318.74	6.12
319.531	5.12
320.322	5.12
321.113	6.12
321.904	5.12
322.695	5.12
323.486	6.12
324.277	6.12
325.068	6.12
325.858	5.12
326.649	4.12
327.439	3.12
328.23	5.12
329.02	5.12
329.81	3.12
330.6	3.12
331.391	3.12
332.181	3.12
332.971	3.12
333.76	2.12
334.55	4.12
335.34	3.12
336.13	4.12
336.919	3.12
337.709	2.12
338.498	4.12
339.287	3.12
340.077	5.12
340.866	2.12
341.655	4.12
342.444	6.12
343.233	2.12
344.022	5.12
344.811	3.12
345.6	2.12
346.388	3.12
347.177	4.12
347.965	0.12
348.754	2.12
349.542	1.12
350.33	3.12
351.119	2.12
351.907	3.12
352.695	2.12
353.483	4.12
354.271	4.12
355.059	3.12
355.846	2.12
356.634	2.12
357.422	2.12
358.209	2.12
358.997	3.12
359.784	2.12
360.571	3.12
361.359	3.12
362.146	2.12
362.933	3.12
363.72	2.12
364.507	2.12
365.294	2.12
366.081	1.12
366.867	1.12
367.654	3.12
368.44	1.12
369.227	4.12
370.013	4.12
370.8	3.12
371.586	1.12
372.372	3.12
373.158	3.12
373.944	2.12
374.73	3.12
375.516	1.12
376.302	3.12
377.088	4.12
377.873	1.12
378.659	4.12
379.445	4.12
380.23	2.12
381.015	2.12
381.801	1.12
382.586	3.12
383.371	5.12
384.156	1.12
384.941	4.12
385.726	2.12
386.511	4.12
387.296	0.12
388.08	4.12
388.865	2.12
389.649	6.12
390.434	1.12
391.218	2.12
392.003	4.12
392.787	3.12
393.571	4.12
394.355	2.12
395.139	2.12
395.923	4.12
396.707	3.12
397.491	3.12
398.274	2.12
399.058	4.12
399.842	4.12
400.625	5.12
401.408	2.12
402.192	2.12
402.975	2.12
403.758	2.12
404.541	1.12
405.324	4.12
406.107	5.12
406.89	5.12
407.673	3.12
408.456	6.12
409.238	5.12
410.021	5.12
410.803	4.12
411.586	1.12
412.368	7.12
413.151	4.12
413.933	5.12
414.715	2.12
415.497	5.12
416.279	4.12
417.061	6.12
417.843	7.12
418.624	5.12
419.406	4.12
420.188	5.12
420.969	7.12
421.751	5.12
422.532	7.12
423.313	4.12
424.095	5.12
424.876	7.12
425.657	4.12
426.438	6.12
427.219	4.12
428	5.12
428.78	7.12
429.561	7.12
430.342	5.12
431.122	6.12
431.903	9.12
432.683	6.12
433.464	8.12
434.244	10.12
435.024	8.12
435.804	8.12
436.584	9.12
437.364	9.12
438.144	8.12
438.924	11.12
439.704	11.12
440.483	10.12
441.263	10.12
442.042	10.12
442.822	14.12
443.601	14.12
444.38	14.12
445.16	17.12
445.939	15.12
446.718	20.12
447.497	22.12
448.276	22.12
449.054	22.12
449.833	24.12
450.612	27.12
451.391	29.12
452.169	30.12
452.948	34.12
453.726	35.12
454.504	41.12
455.282	43.12
456.061	46.12
456.839	54.12
457.617	59.12
458.395	65.12
459.172	70.12
459.95	80.12
460.728	84.12
461.506	99.12
462.283	108.12
463.061	119.12
463.838	134.12
464.615	147.12
465.393	166.12
466.17	186.12
466.947	209.12
467.724	222.12
468.501	256.12
469.278	282.12
470.055	313.12
470.831	350.12
471.608	378.12
472.385	425.12
473.161	477.12
473.938	518.12
474.714	574.12
475.49	639.12
476.266	707.12
477.043	787.12
477.819	861.12
478.595	962.12
479.371	1053.12
480.146	1156.12
480.922	1272.12
481.698	1393.12
482.473	1540.12
483.249	1701.12
484.024	1865.12
484.8	2040.12
485.575	2246.12
486.35	2451.12
487.126	2690.12
487.901	2962.12
488.676	3269.12
489.451	3562.12
490.225	3891.12
491	4268.12
491.775	4666.12
492.55	5113.12
493.324	5570.12
494.099	6054.12
494.873	6625.12
495.647	7208.12
496.422	7803.12
497.196	8394.12
497.97	9044.12
498.744	9786.12
499.518	10451.12
500.292	11150.12
501.066	11755.12
501.839	12474.12
502.613	13102.12
503.387	13726.12
504.16	14298.12
504.934	14774.12
505.707	15161.12
506.48	15453.12
507.253	15695.12
508.027	15838.12
508.8	15819.12
509.573	15770.12
510.346	15636.12
511.118	15353.12
511.891	15116.12
512.664	14607.12
513.437	14206.12
514.209	13739.12
514.982	13254.12
515.754	12695.12
516.526	12222.12
517.298	11687.12
518.071	11155.12
518.843	10724.12
519.615	10247.12
520.387	9817.12
521.159	9430.12
521.93	9066.12
522.702	8689.12
523.474	8366.12
524.245	8024.12
525.017	7727.12
525.788	7380.12
526.56	7093.12
527.331	6802.12
528.102	6506.12
528.873	6229.12
529.644	5972.12
530.415	5723.12
531.186	5441.12
531.957	5181.12
532.728	4950.12
533.498	4664.12
534.269	4418.12
535.039	4184.12
535.81	3953.12
536.58	3750.12
537.351	3540.12
538.121	3338.12
538.891	3168.12
539.661	2987.12
540.431	2831.12
541.201	2677.12
541.971	2529.12
542.741	2406.12
543.51	2276.12
544.28	2155.12
545.05	2069.12
545.819	1948.12
546.588	1854.12
547.358	1756.12
548.127	1681.12
548.896	1613.12
549.665	1515.12
550.434	1425.12
551.203	1351.12
551.972	1299.12
552.741	1219.12
553.51	1152.12
554.278	1104.12
555.047	1041.12
555.815	981.12
556.584	928.12
557.352	869.12
558.121	831.12
558.889	770.12
559.657	736.12
560.425	700.12
561.193	656.12
561.961	620.12
562.729	577.12
563.496	558.12
564.264	517.12
565.032	488.12
565.799	462.12
566.567	435.12
567.334	406.12
568.101	388.12
568.869	360.12
569.636	344.12
570.403	326.12
571.17	302.12
571.937	289.12
572.704	270.12
573.471	253.12
574.237	244.12
575.004	230.12
575.771	215.12
576.537	202.12
577.303	191.12
578.07	175.12
578.836	166.12
579.602	158.12
580.368	150.12
581.134	142.12
581.9	133.12
582.666	128.12
583.432	120.12
584.198	117.12
584.964	111.12
585.729	102.12
586.495	98.12
587.26	88.12
588.025	85.12
588.791	86.12
589.556	76.12
590.321	75.12
591.086	70.12
591.851	65.12
592.616	61.12
593.381	60.12
594.146	56.12
594.911	56.12
595.675	52.12
596.44	50.12
597.204	51.12
597.969	45.12
598.733	43.12
599.497	41.12
600.261	38.12
601.025	37.12
601.79	36.12
602.553	33.12
603.317	31.12
604.081	28.12
604.845	27.12
605.609	27.12
606.372	26.12
607.136	24.12
607.899	25.12
608.662	21.12
609.426	24.12
610.189	23.12
610.952	20.12
611.715	18.12
612.478	18.12
613.241	17.12
614.004	18.12
614.767	19.12
615.529	17.12
616.292	15.12
617.055	16.12
617.817	12.12
618.579	14.12
619.342	13.12
620.104	14.12
620.866	12.12
621.628	10.12
622.39	12.12
623.152	12.12
623.914	11.12
624.676	10.12
625.438	9.12
626.199	8.12
626.961	9.12
627.722	7.12
628.484	9.12
629.245	7.12
630.006	9.12
630.768	6.12
631.529	8.12
632.29	7.12
633.051	8.12
633.812	7.12
634.573	7.12
635.333	6.12
636.094	7.12
636.855	6.12
637.615	7.12
638.376	7.12
639.136	8.12
639.896	6.12
640.657	5.12
641.417	4.12
642.177	6.12
642.937	2.12
643.697	5.12
644.457	2.12
645.216	3.12
645.976	7.12
646.736	5.12
647.495	3.12
648.255	2.12
649.014	2.12
649.774	5.12
650.533	3.12
651.292	2.12
652.051	2.12
652.81	2.12
653.569	5.12
654.328	2.12
655.087	3.12
655.846	3.12
656.604	3.12
657.363	2.12
658.121	3.12
658.88	2.12
659.638	2.12
660.397	4.12
661.155	1.12
661.913	2.12
662.671	4.12
663.429	4.12
664.187	5.12
664.945	3.12
665.703	2.12
666.46	3.12
667.218	2.12
667.976	3.12
668.733	4.12
669.49	0.12
670.248	4.12
671.005	2.12
671.762	2.12
672.519	1.12
673.276	1.12
674.033	4.12
674.79	3.12
675.547	1.12
676.304	1.12
677.06	2.12
677.817	2.12
678.574	2.12
679.33	3.12
680.086	-0.88
680.843	2.12
681.599	-0.88
682.355	4.12
683.111	3.12
683.867	2.12
684.623	2.12
685.379	1.12
686.135	2.12
686.89	2.12
687.646	1.12
688.402	2.12
689.157	1.12
689.912	2.12
690.668	0.12
691.423	5.12
692.178	0.12
692.933	2.12
693.688	1.12
694.443	1.12
695.198	3.12
695.953	2.12
696.708	3.12
697.462	2.12
698.217	1.12
698.972	1.12
699.726	-0.88
700.48	2.12
701.235	-0.88
701.989	2.12
702.743	2.12
703.497	0.12
704.251	2.12
705.005	0.12
705.759	3.12
706.513	-0.88
707.266	2.12
708.02	1.12
708.774	3.12
709.527	4.12
710.28	-1.88
711.034	3.12
711.787	1.12
712.54	0.12
713.293	0.12
714.046	4.12
714.799	2.12
715.552	0.12
716.305	2.12
717.058	1.12
717.81	1.12
718.563	3.12
719.315	2.12
720.068	2.12
720.82	0.12
721.573	2.12
722.325	0.12
723.077	0.12
723.829	2.12
724.581	1.12
725.333	2.12
726.085	2.12
726.836	3.12
727.588	0.12
728.34	1.12
729.091	2.12
729.843	2.12
730.594	2.12
731.346	2.12
732.097	3.12
732.848	-0.88
733.599	2.12
734.35	2.12
735.101	2.12
735.852	2.12
736.603	-1.88
737.354	3.12
738.104	3.12
738.855	2.12
739.605	2.12
740.356	0.12
741.106	2.12
741.856	2.12
742.607	2.12
743.357	1.12
744.107	3.12
744.857	3.12
745.607	4.12
746.357	4.12
747.106	3.12
747.856	2.12
748.606	3.12
749.355	2.12
750.105	3.12
750.854	3.12
751.603	2.12
752.353	2.12
753.102	3.12
753.851	2.12
754.6	2.12
755.349	3.12
756.098	1.12
756.847	1.12
757.595	3.12
758.344	3.12
759.093	1.12
759.841	2.12
760.589	2.12
761.338	3.12
762.086	2.12
762.834	6.12
763.582	3.12
764.331	5.12
765.079	1.12
765.826	5.12
766.574	2.12
767.322	2.12
768.07	2.12
768.817	3.12
769.565	1.12
770.312	3.12
771.06	2.12
771.807	2.12
772.554	7.12
773.302	0.12
774.049	5.12
774.796	3.12
775.543	4.12
776.29	5.12
777.036	1.12
777.783	3.12
778.53	4.12
779.276	5.12
780.023	5.12
780.769	3.12
781.516	6.12
782.262	5.12
783.008	4.12
783.754	4.12
784.5	7.12
785.246	3.12
785.992	5.12
786.738	7.12
787.484	5.12
788.23	5.12
788.975	3.12
789.721	5.12
790.466	5.12
791.212	5.12
791.957	5.12
792.702	2.12
793.447	7.12
794.193	4.12
794.938	6.12
795.683	5.12
796.427	2.12
797.172	5.12
797.917	4.12
798.662	3.12
799.406	4.12
800.151	1.12
800.895	6.12
801.64	2.12
802.384	4.12
803.128	4.12
803.872	4.12
804.616	3.12
805.36	2.12
806.104	3.12
806.848	2.12
807.592	5.12
808.336	6.12
809.079	3.12
809.823	1.12
810.566	3.12
811.31	2.12
812.053	3.12
812.796	3.12
813.539	4.12
814.283	1.12
815.026	6.12
815.769	3.12
816.511	3.12
817.254	2.12
817.997	2.12
818.74	3.12
819.482	5.12
820.225	2.12
820.967	3.12
821.71	2.12
822.452	3.12
823.194	2.12
823.936	2.12
824.678	1.12
825.42	2.12
826.162	1.12
826.904	4.12
827.646	3.12
828.388	2.12
829.129	4.12
829.871	2.12
830.612	2.12
831.354	-0.88
832.095	3.12
832.836	2.12
833.577	5.12
834.319	1.12
835.06	1.12
835.801	2.12
836.542	1.12
837.282	4.12
838.023	1.12
838.764	2.12
839.504	2.12
840.245	0.12
840.985	2.12
841.726	2.12
842.466	2.12
843.206	1.12
843.946	2.12
844.687	3.12
845.427	1.12
846.166	3.12
846.906	2.12
847.646	2.12
848.386	1.12
849.125	1.12
849.865	0.12
850.605	1.12
851.344	3.12
852.083	0.12
852.823	1.12
853.562	1.12
854.301	4.12
855.04	3.12
855.779	0.12
856.518	-0.88
857.257	-0.88
857.995	3.12
858.734	0.12
859.473	2.12
860.211	2.12
860.95	2.12
861.688	3.12
862.426	1.12
863.165	1.12
863.903	4.12
864.641	2.12
865.379	2.12
866.117	2.12
866.855	2.12
867.593	2.12
868.33	3.12
869.068	1.12
869.806	0.12
870.543	1.12
871.28	2.12
872.018	2.12
872.755	1.12
873.492	2.12
874.229	0.12
874.967	-0.88
875.703	1.12
876.44	0.12
877.177	2.12
877.914	-0.88
878.651	1.12
879.387	2.12
880.124	0.12
880.86	0.12
881.597	1.12
882.333	0.12
883.069	0.12
883.806	-0.88
884.542	1.12
885.278	0.12
886.014	1.12
886.749	-0.88
887.485	1.12
888.221	1.12
888.957	-0.88
889.692	-0.88
890.428	0.12
891.163	0.12
891.899	-0.88
892.634	1.12
893.369	0.12
894.104	1.12
894.839	0.12
895.574	-1.88
896.309	0.12
897.044	0.12
897.779	1.12
898.514	-0.88
899.248	-0.88
899.983	-0.88
900.717	0.12
901.452	1.12
902.186	0.12
902.92	-0.88
903.654	1.12
904.389	2.12
905.123	1.12
905.857	3.12
906.59	1.12
907.324	0.12
908.058	1.12
908.792	0.12
909.525	-0.88
910.259	0.12
910.992	1.12
911.726	2.12
912.459	1.12
913.192	0.12
913.925	-1.88
914.658	0.12
915.391	-0.88
916.124	-1.88
916.857	0.12
917.59	2.12
918.323	0.12
919.055	1.12
919.788	1.12
920.521	-0.88
921.253	1.12
921.985	1.12
922.718	0.12
923.45	2.12
924.182	-0.88
924.914	0.12
925.646	-0.88
926.378	0.12
927.11	0.12
927.841	1.12
928.573	-0.88
929.305	0.12
930.036	3.12
930.768	2.12
931.499	1.12
932.23	1.12
932.962	-0.88
933.693	0.12
934.424	1.12
935.155	0.12
935.886	1.12
936.617	0.12
937.348	0.12
938.078	-0.88
938.809	2.12
939.54	1.12
940.27	2.12
941.001	-2.88
941.731	-1.88
942.461	1.12
943.191	-0.88
943.922	0.12
944.652	0.12
945.382	1.12
946.112	1.12
946.841	-1.88
947.571	-0.88
948.301	2.12
949.031	0.12
949.76	1.12
950.49	-0.88
951.219	0.12
951.948	-1.88
952.678	1.12
953.407	0.12
954.136	-0.88
954.865	1.12
955.594	-0.88
956.323	-1.88
957.052	0.12
957.78	-1.88
958.509	1.12
959.238	2.12
959.966	-0.88
960.695	-0.88
961.423	1.12
962.151	-1.88
962.88	-0.88
963.608	0.12
964.336	2.12
965.064	0.12
965.792	0.12
966.52	0.12
967.247	-1.88
967.975	-0.88
968.703	-1.88
969.43	2.12
970.158	0.12
970.885	1.12
971.613	0.12
972.34	0.12
973.067	-0.88
973.794	-1.88
974.521	0.12
975.248	-2.88
975.975	0.12
976.702	1.12
977.429	0.12
978.156	1.12
978.882	1.12
979.609	0.12
980.335	0.12
981.062	1.12
981.788	-1.88
982.514	-0.88
983.24	0.12
983.967	1.12
984.693	1.12
985.419	1.12
986.144	1.12
986.87	1.12
987.596	1.12
988.322	1.12
989.047	0.12
989.773	1.12
990.498	0.12
991.224	0.12
991.949	0.12
992.674	0.12
993.399	1.12
994.124	0.12
994.849	-0.88
995.574	0.12
996.299	0.12
997.024	2.12
997.749	-0.88
998.473	0.12
999.198	1.12
999.922	1.12
1000.647	-2.88
1001.371	3.12
1002.095	-1.88
1002.82	-1.88
1003.544	-1.88
1004.268	0.12
1004.992	-0.88
1005.716	-1.88
1006.439	0.12
1007.163	1.12
1007.887	1.12
1008.611	0.12
1009.334	1.12
1010.058	-0.88
1010.781	0.12
1011.504	-0.88
1012.228	0.12
1012.951	1.12
1013.674	-0.88
1014.397	2.12
1015.12	0.12
