节点500_145_QEPB04081__257__11-33-05-456.txt的数据

Date: Wed Nov 12 11:33:05 CST 2025
User: PC
Spectrometer: QEPB0408
触发模式: 0
积分时间 (秒): 1.000000E-2
Scans to average: 1
启用暗噪声校正: true
启用非线性校正: false
滑动平均宽度: 0
X轴模式: Wavelengths
Number of Pixels in Spectrum: 1044
>>>>>Begin Spectral Data<<<<<
220.843	-2.5
221.644	-0.5
222.444	-0.5
223.244	-0.5
224.045	0.5
224.845	-1.5
225.645	1.5
226.445	0.5
227.245	-0.5
228.045	0.5
228.845	-0.5
229.645	0.5
230.444	-1.5
231.244	1.5
232.043	1.5
232.843	3.5
233.642	1.5
234.442	1.5
235.241	0.5
236.04	4.5
236.839	0.5
237.638	-0.5
238.437	3.5
239.236	2.5
240.035	1.5
240.833	1.5
241.632	0.5
242.43	0.5
243.229	2.5
244.027	3.5
244.826	1.5
245.624	1.5
246.422	0.5
247.22	1.5
248.018	2.5
248.816	1.5
249.614	1.5
250.412	2.5
251.21	5.5
252.007	1.5
252.805	2.5
253.602	3.5
254.4	2.5
255.197	4.5
255.994	4.5
256.791	3.5
257.589	4.5
258.386	1.5
259.183	2.5
259.979	2.5
260.776	5.5
261.573	4.5
262.37	3.5
263.166	5.5
263.963	7.5
264.759	7.5
265.556	3.5
266.352	9.5
267.148	4.5
267.944	7.5
268.74	6.5
269.536	7.5
270.332	8.5
271.128	5.5
271.924	9.5
272.719	8.5
273.515	8.5
274.311	8.5
275.106	8.5
275.901	7.5
276.697	7.5
277.492	10.5
278.287	8.5
279.082	12.5
279.877	9.5
280.672	9.5
281.467	10.5
282.262	10.5
283.056	12.5
283.851	10.5
284.646	10.5
285.44	13.5
286.234	11.5
287.029	12.5
287.823	11.5
288.617	13.5
289.411	10.5
290.205	10.5
290.999	10.5
291.793	10.5
292.587	13.5
293.381	11.5
294.174	9.5
294.968	10.5
295.761	8.5
296.555	10.5
297.348	10.5
298.141	9.5
298.935	10.5
299.728	7.5
300.521	8.5
301.314	9.5
302.107	9.5
302.899	9.5
303.692	7.5
304.485	7.5
305.277	10.5
306.07	5.5
306.862	7.5
307.655	8.5
308.447	4.5
309.239	10.5
310.031	7.5
310.823	8.5
311.615	6.5
312.407	7.5
313.199	7.5
313.991	6.5
314.783	7.5
315.574	6.5
316.366	6.5
317.157	5.5
317.949	7.5
318.74	6.5
319.531	6.5
320.322	4.5
321.113	7.5
321.904	4.5
322.695	5.5
323.486	4.5
324.277	5.5
325.068	3.5
325.858	5.5
326.649	4.5
327.439	2.5
328.23	7.5
329.02	5.5
329.81	5.5
330.6	4.5
331.391	4.5
332.181	4.5
332.971	3.5
333.76	3.5
334.55	4.5
335.34	3.5
336.13	3.5
336.919	5.5
337.709	2.5
338.498	2.5
339.287	3.5
340.077	3.5
340.866	4.5
341.655	3.5
342.444	4.5
343.233	2.5
344.022	1.5
344.811	3.5
345.6	4.5
346.388	2.5
347.177	1.5
347.965	5.5
348.754	1.5
349.542	3.5
350.33	4.5
351.119	3.5
351.907	2.5
352.695	2.5
353.483	4.5
354.271	3.5
355.059	3.5
355.846	2.5
356.634	2.5
357.422	4.5
358.209	3.5
358.997	3.5
359.784	2.5
360.571	4.5
361.359	3.5
362.146	1.5
362.933	4.5
363.72	3.5
364.507	5.5
365.294	1.5
366.081	1.5
366.867	2.5
367.654	5.5
368.44	2.5
369.227	5.5
370.013	0.5
370.8	1.5
371.586	-0.5
372.372	2.5
373.158	2.5
373.944	4.5
374.73	1.5
375.516	1.5
376.302	3.5
377.088	3.5
377.873	1.5
378.659	1.5
379.445	2.5
380.23	3.5
381.015	2.5
381.801	2.5
382.586	4.5
383.371	0.5
384.156	3.5
384.941	4.5
385.726	2.5
386.511	-1.5
387.296	2.5
388.08	2.5
388.865	3.5
389.649	3.5
390.434	2.5
391.218	5.5
392.003	0.5
392.787	3.5
393.571	3.5
394.355	5.5
395.139	5.5
395.923	2.5
396.707	2.5
397.491	2.5
398.274	5.5
399.058	3.5
399.842	3.5
400.625	4.5
401.408	2.5
402.192	1.5
402.975	4.5
403.758	5.5
404.541	5.5
405.324	5.5
406.107	3.5
406.89	4.5
407.673	4.5
408.456	5.5
409.238	2.5
410.021	5.5
410.803	5.5
411.586	4.5
412.368	5.5
413.151	4.5
413.933	4.5
414.715	5.5
415.497	3.5
416.279	5.5
417.061	5.5
417.843	4.5
418.624	5.5
419.406	6.5
420.188	6.5
420.969	6.5
421.751	4.5
422.532	7.5
423.313	5.5
424.095	4.5
424.876	3.5
425.657	8.5
426.438	5.5
427.219	7.5
428	5.5
428.78	5.5
429.561	5.5
430.342	8.5
431.122	7.5
431.903	7.5
432.683	8.5
433.464	9.5
434.244	7.5
435.024	9.5
435.804	9.5
436.584	8.5
437.364	10.5
438.144	10.5
438.924	10.5
439.704	10.5
440.483	12.5
441.263	10.5
442.042	12.5
442.822	14.5
443.601	11.5
444.38	14.5
445.16	14.5
445.939	13.5
446.718	16.5
447.497	18.5
448.276	23.5
449.054	20.5
449.833	23.5
450.612	22.5
451.391	26.5
452.169	29.5
452.948	33.5
453.726	33.5
454.504	37.5
455.282	39.5
456.061	46.5
456.839	50.5
457.617	53.5
458.395	61.5
459.172	62.5
459.95	71.5
460.728	82.5
461.506	93.5
462.283	99.5
463.061	114.5
463.838	127.5
464.615	138.5
465.393	152.5
466.17	174.5
466.947	190.5
467.724	211.5
468.501	236.5
469.278	260.5
470.055	299.5
470.831	336.5
471.608	368.5
472.385	405.5
473.161	452.5
473.938	496.5
474.714	557.5
475.49	615.5
476.266	696.5
477.043	779.5
477.819	857.5
478.595	931.5
479.371	1035.5
480.146	1144.5
480.922	1260.5
481.698	1399.5
482.473	1537.5
483.249	1694.5
484.024	1870.5
484.8	2071.5
485.575	2283.5
486.35	2525.5
487.126	2763.5
487.901	3086.5
488.676	3386.5
489.451	3722.5
490.225	4100.5
491	4499.5
491.775	4959.5
492.55	5422.5
493.324	5936.5
494.099	6545.5
494.873	7118.5
495.647	7752.5
496.422	8392.5
497.196	9102.5
497.97	9858.5
498.744	10601.5
499.518	11379.5
500.292	12120.5
501.066	12823.5
501.839	13504.5
502.613	14226.5
503.387	14823.5
504.16	15394.5
504.934	15809.5
505.707	16194.5
506.48	16417.5
507.253	16560.5
508.027	16622.5
508.8	16541.5
509.573	16353.5
510.346	16098.5
511.118	15757.5
511.891	15334.5
512.664	14903.5
513.437	14326.5
514.209	13771.5
514.982	13270.5
515.754	12719.5
516.526	12120.5
517.298	11635.5
518.071	11114.5
518.843	10610.5
519.615	10143.5
520.387	9748.5
521.159	9353.5
521.93	8955.5
522.702	8607.5
523.474	8292.5
524.245	7945.5
525.017	7628.5
525.788	7300.5
526.56	7026.5
527.331	6761.5
528.102	6461.5
528.873	6179.5
529.644	5866.5
530.415	5602.5
531.186	5344.5
531.957	5069.5
532.728	4798.5
533.498	4556.5
534.269	4313.5
535.039	4057.5
535.81	3840.5
536.58	3617.5
537.351	3409.5
538.121	3230.5
538.891	3049.5
539.661	2877.5
540.431	2716.5
541.201	2585.5
541.971	2448.5
542.741	2321.5
543.51	2201.5
544.28	2075.5
545.05	1972.5
545.819	1880.5
546.588	1798.5
547.358	1702.5
548.127	1613.5
548.896	1554.5
549.665	1467.5
550.434	1383.5
551.203	1307.5
551.972	1246.5
552.741	1172.5
553.51	1125.5
554.278	1051.5
555.047	996.5
555.815	947.5
556.584	904.5
557.352	847.5
558.121	779.5
558.889	746.5
559.657	700.5
560.425	658.5
561.193	617.5
561.961	582.5
562.729	547.5
563.496	520.5
564.264	490.5
565.032	458.5
565.799	441.5
566.567	413.5
567.334	389.5
568.101	370.5
568.869	350.5
569.636	329.5
570.403	310.5
571.17	294.5
571.937	279.5
572.704	259.5
573.471	246.5
574.237	229.5
575.004	222.5
575.771	202.5
576.537	193.5
577.303	177.5
578.07	172.5
578.836	155.5
579.602	149.5
580.368	143.5
581.134	138.5
581.9	128.5
582.666	122.5
583.432	115.5
584.198	109.5
584.964	99.5
585.729	99.5
586.495	91.5
587.26	89.5
588.025	87.5
588.791	75.5
589.556	75.5
590.321	70.5
591.086	68.5
591.851	63.5
592.616	62.5
593.381	58.5
594.146	54.5
594.911	51.5
595.675	47.5
596.44	46.5
597.204	43.5
597.969	38.5
598.733	36.5
599.497	36.5
600.261	36.5
601.025	35.5
601.79	33.5
602.553	30.5
603.317	31.5
604.081	30.5
604.845	26.5
605.609	29.5
606.372	26.5
607.136	25.5
607.899	23.5
608.662	25.5
609.426	20.5
610.189	17.5
610.952	21.5
611.715	18.5
612.478	16.5
613.241	20.5
614.004	17.5
614.767	17.5
615.529	14.5
616.292	16.5
617.055	13.5
617.817	15.5
618.579	13.5
619.342	12.5
620.104	13.5
620.866	12.5
621.628	13.5
622.39	9.5
623.152	11.5
623.914	9.5
624.676	5.5
625.438	8.5
626.199	6.5
626.961	7.5
627.722	9.5
628.484	9.5
629.245	9.5
630.006	5.5
630.768	7.5
631.529	9.5
632.29	6.5
633.051	4.5
633.812	8.5
634.573	6.5
635.333	6.5
636.094	8.5
636.855	6.5
637.615	7.5
638.376	7.5
639.136	6.5
639.896	5.5
640.657	3.5
641.417	6.5
642.177	5.5
642.937	6.5
643.697	6.5
644.457	7.5
645.216	4.5
645.976	2.5
646.736	4.5
647.495	4.5
648.255	6.5
649.014	4.5
649.774	1.5
650.533	5.5
651.292	5.5
652.051	5.5
652.81	2.5
653.569	3.5
654.328	3.5
655.087	3.5
655.846	4.5
656.604	4.5
657.363	4.5
658.121	2.5
658.88	7.5
659.638	2.5
660.397	5.5
661.155	4.5
661.913	4.5
662.671	3.5
663.429	3.5
664.187	3.5
664.945	2.5
665.703	4.5
666.46	3.5
667.218	1.5
667.976	2.5
668.733	1.5
669.49	3.5
670.248	2.5
671.005	2.5
671.762	2.5
672.519	2.5
673.276	2.5
674.033	1.5
674.79	2.5
675.547	3.5
676.304	3.5
677.06	2.5
677.817	0.5
678.574	1.5
679.33	2.5
680.086	1.5
680.843	2.5
681.599	1.5
682.355	4.5
683.111	3.5
683.867	3.5
684.623	2.5
685.379	2.5
686.135	1.5
686.89	2.5
687.646	4.5
688.402	4.5
689.157	2.5
689.912	0.5
690.668	1.5
691.423	0.5
692.178	1.5
692.933	2.5
693.688	2.5
694.443	3.5
695.198	2.5
695.953	1.5
696.708	3.5
697.462	1.5
698.217	3.5
698.972	2.5
699.726	3.5
700.48	2.5
701.235	2.5
701.989	1.5
702.743	4.5
703.497	2.5
704.251	2.5
705.005	1.5
705.759	2.5
706.513	2.5
707.266	0.5
708.02	2.5
708.774	2.5
709.527	2.5
710.28	1.5
711.034	0.5
711.787	-0.5
712.54	2.5
713.293	1.5
714.046	1.5
714.799	0.5
715.552	2.5
716.305	3.5
717.058	1.5
717.81	2.5
718.563	0.5
719.315	1.5
720.068	1.5
720.82	3.5
721.573	-1.5
722.325	1.5
723.077	3.5
723.829	1.5
724.581	1.5
725.333	2.5
726.085	0.5
726.836	5.5
727.588	2.5
728.34	3.5
729.091	-0.5
729.843	2.5
730.594	2.5
731.346	2.5
732.097	0.5
732.848	1.5
733.599	2.5
734.35	1.5
735.101	3.5
735.852	0.5
736.603	2.5
737.354	3.5
738.104	1.5
738.855	2.5
739.605	2.5
740.356	1.5
741.106	2.5
741.856	3.5
742.607	2.5
743.357	1.5
744.107	2.5
744.857	1.5
745.607	5.5
746.357	2.5
747.106	1.5
747.856	3.5
748.606	2.5
749.355	3.5
750.105	2.5
750.854	2.5
751.603	4.5
752.353	3.5
753.102	4.5
753.851	1.5
754.6	2.5
755.349	3.5
756.098	3.5
756.847	4.5
757.595	2.5
758.344	5.5
759.093	4.5
759.841	3.5
760.589	3.5
761.338	5.5
762.086	4.5
762.834	4.5
763.582	5.5
764.331	3.5
765.079	4.5
765.826	2.5
766.574	1.5
767.322	5.5
768.07	1.5
768.817	4.5
769.565	5.5
770.312	5.5
771.06	5.5
771.807	4.5
772.554	1.5
773.302	3.5
774.049	4.5
774.796	5.5
775.543	6.5
776.29	6.5
777.036	2.5
777.783	8.5
778.53	5.5
779.276	6.5
780.023	4.5
780.769	5.5
781.516	4.5
782.262	6.5
783.008	5.5
783.754	2.5
784.5	5.5
785.246	5.5
785.992	4.5
786.738	4.5
787.484	5.5
788.23	5.5
788.975	3.5
789.721	5.5
790.466	6.5
791.212	6.5
791.957	6.5
792.702	7.5
793.447	6.5
794.193	4.5
794.938	4.5
795.683	5.5
796.427	5.5
797.172	3.5
797.917	7.5
798.662	7.5
799.406	4.5
800.151	4.5
800.895	4.5
801.64	7.5
802.384	5.5
803.128	3.5
803.872	5.5
804.616	4.5
805.36	7.5
806.104	5.5
806.848	5.5
807.592	4.5
808.336	2.5
809.079	4.5
809.823	3.5
810.566	2.5
811.31	2.5
812.053	4.5
812.796	4.5
813.539	3.5
814.283	3.5
815.026	2.5
815.769	2.5
816.511	3.5
817.254	4.5
817.997	4.5
818.74	3.5
819.482	2.5
820.225	3.5
820.967	4.5
821.71	4.5
822.452	2.5
823.194	2.5
823.936	2.5
824.678	4.5
825.42	3.5
826.162	5.5
826.904	2.5
827.646	0.5
828.388	2.5
829.129	1.5
829.871	2.5
830.612	2.5
831.354	1.5
832.095	2.5
832.836	1.5
833.577	2.5
834.319	2.5
835.06	3.5
835.801	4.5
836.542	1.5
837.282	2.5
838.023	3.5
838.764	3.5
839.504	1.5
840.245	2.5
840.985	2.5
841.726	2.5
842.466	1.5
843.206	2.5
843.946	1.5
844.687	2.5
845.427	2.5
846.166	1.5
846.906	2.5
847.646	1.5
848.386	1.5
849.125	3.5
849.865	1.5
850.605	3.5
851.344	1.5
852.083	0.5
852.823	2.5
853.562	1.5
854.301	3.5
855.04	2.5
855.779	1.5
856.518	1.5
857.257	2.5
857.995	0.5
858.734	1.5
859.473	1.5
860.211	1.5
860.95	2.5
861.688	1.5
862.426	3.5
863.165	1.5
863.903	2.5
864.641	2.5
865.379	0.5
866.117	3.5
866.855	0.5
867.593	-0.5
868.33	2.5
869.068	0.5
869.806	0.5
870.543	1.5
871.28	2.5
872.018	0.5
872.755	1.5
873.492	0.5
874.229	0.5
874.967	1.5
875.703	1.5
876.44	3.5
877.177	1.5
877.914	0.5
878.651	0.5
879.387	1.5
880.124	0.5
880.86	2.5
881.597	0.5
882.333	-0.5
883.069	-2.5
883.806	0.5
884.542	1.5
885.278	1.5
886.014	0.5
886.749	3.5
887.485	0.5
888.221	-0.5
888.957	0.5
889.692	1.5
890.428	-1.5
891.163	2.5
891.899	0.5
892.634	0.5
893.369	0.5
894.104	2.5
894.839	0.5
895.574	1.5
896.309	0.5
897.044	1.5
897.779	-1.5
898.514	0.5
899.248	0.5
899.983	0.5
900.717	-0.5
901.452	-0.5
902.186	2.5
902.92	0.5
903.654	-1.5
904.389	0.5
905.123	2.5
905.857	2.5
906.59	1.5
907.324	0.5
908.058	2.5
908.792	-0.5
909.525	0.5
910.259	0.5
910.992	0.5
911.726	1.5
912.459	0.5
913.192	1.5
913.925	3.5
914.658	1.5
915.391	2.5
916.124	0.5
916.857	0.5
917.59	1.5
918.323	1.5
919.055	-1.5
919.788	0.5
920.521	-1.5
921.253	0.5
921.985	2.5
922.718	2.5
923.45	0.5
924.182	-0.5
924.914	1.5
925.646	0.5
926.378	-0.5
927.11	1.5
927.841	0.5
928.573	2.5
929.305	-0.5
930.036	0.5
930.768	-2.5
931.499	2.5
932.23	2.5
932.962	0.5
933.693	-0.5
934.424	0.5
935.155	0.5
935.886	1.5
936.617	0.5
937.348	-0.5
938.078	2.5
938.809	0.5
939.54	0.5
940.27	0.5
941.001	-1.5
941.731	0.5
942.461	2.5
943.191	1.5
943.922	0.5
944.652	1.5
945.382	-0.5
946.112	0.5
946.841	0.5
947.571	-0.5
948.301	-0.5
949.031	1.5
949.76	-1.5
950.49	-0.5
951.219	-0.5
951.948	1.5
952.678	1.5
953.407	0.5
954.136	2.5
954.865	-1.5
955.594	0.5
956.323	1.5
957.052	-1.5
957.78	0.5
958.509	0.5
959.238	1.5
959.966	-0.5
960.695	1.5
961.423	1.5
962.151	1.5
962.88	1.5
963.608	0.5
964.336	0.5
965.064	-1.5
965.792	2.5
966.52	0.5
967.247	-1.5
967.975	2.5
968.703	0.5
969.43	1.5
970.158	0.5
970.885	0.5
971.613	1.5
972.34	-0.5
973.067	1.5
973.794	0.5
974.521	4.5
975.248	0.5
975.975	-0.5
976.702	0.5
977.429	-0.5
978.156	2.5
978.882	-1.5
979.609	1.5
980.335	0.5
981.062	0.5
981.788	1.5
982.514	0.5
983.24	-0.5
983.967	-0.5
984.693	-1.5
985.419	0.5
986.144	1.5
986.87	1.5
987.596	1.5
988.322	0.5
989.047	1.5
989.773	0.5
990.498	1.5
991.224	1.5
991.949	1.5
992.674	-0.5
993.399	2.5
994.124	-0.5
994.849	0.5
995.574	1.5
996.299	0.5
997.024	0.5
997.749	-0.5
998.473	0.5
999.198	-0.5
999.922	0.5
1000.647	1.5
1001.371	3.5
1002.095	-1.5
1002.82	-0.5
1003.544	0.5
1004.268	0.5
1004.992	1.5
1005.716	0.5
1006.439	0.5
1007.163	0.5
1007.887	2.5
1008.611	0.5
1009.334	1.5
1010.058	1.5
1010.781	3.5
1011.504	0.5
1012.228	-0.5
1012.951	0.5
1013.674	-1.5
1014.397	0.5
1015.12	-1.5
