节点500_145_QEPB04081__686__11-39-49-835.txt的数据

Date: Wed Nov 12 11:39:49 CST 2025
User: PC
Spectrometer: QEPB0408
触发模式: 0
积分时间 (秒): 1.000000E-2
Scans to average: 1
启用暗噪声校正: true
启用非线性校正: false
滑动平均宽度: 0
X轴模式: Wavelengths
Number of Pixels in Spectrum: 1044
>>>>>Begin Spectral Data<<<<<
220.843	2.5
221.644	0.5
222.444	-1.5
223.244	0.5
224.045	1.5
224.845	-3.5
225.645	1.5
226.445	-1.5
227.245	-0.5
228.045	1.5
228.845	0.5
229.645	2.5
230.444	-0.5
231.244	-0.5
232.043	1.5
232.843	-0.5
233.642	-1.5
234.442	0.5
235.241	3.5
236.04	0.5
236.839	-0.5
237.638	0.5
238.437	1.5
239.236	0.5
240.035	-0.5
240.833	4.5
241.632	1.5
242.43	2.5
243.229	-0.5
244.027	0.5
244.826	0.5
245.624	1.5
246.422	2.5
247.22	0.5
248.018	1.5
248.816	0.5
249.614	3.5
250.412	1.5
251.21	5.5
252.007	3.5
252.805	4.5
253.602	0.5
254.4	0.5
255.197	2.5
255.994	1.5
256.791	3.5
257.589	4.5
258.386	4.5
259.183	2.5
259.979	5.5
260.776	3.5
261.573	5.5
262.37	3.5
263.166	6.5
263.963	2.5
264.759	3.5
265.556	6.5
266.352	4.5
267.148	4.5
267.944	3.5
268.74	6.5
269.536	5.5
270.332	6.5
271.128	7.5
271.924	5.5
272.719	4.5
273.515	3.5
274.311	10.5
275.106	8.5
275.901	10.5
276.697	9.5
277.492	7.5
278.287	7.5
279.082	8.5
279.877	9.5
280.672	9.5
281.467	9.5
282.262	7.5
283.056	11.5
283.851	10.5
284.646	10.5
285.44	10.5
286.234	10.5
287.029	9.5
287.823	9.5
288.617	7.5
289.411	9.5
290.205	8.5
290.999	9.5
291.793	12.5
292.587	11.5
293.381	7.5
294.174	9.5
294.968	11.5
295.761	10.5
296.555	9.5
297.348	9.5
298.141	8.5
298.935	9.5
299.728	8.5
300.521	9.5
301.314	6.5
302.107	10.5
302.899	6.5
303.692	9.5
304.485	9.5
305.277	8.5
306.07	9.5
306.862	5.5
307.655	8.5
308.447	7.5
309.239	8.5
310.031	7.5
310.823	8.5
311.615	5.5
312.407	8.5
313.199	6.5
313.991	7.5
314.783	5.5
315.574	4.5
316.366	5.5
317.157	6.5
317.949	4.5
318.74	6.5
319.531	4.5
320.322	4.5
321.113	4.5
321.904	4.5
322.695	2.5
323.486	3.5
324.277	6.5
325.068	2.5
325.858	2.5
326.649	5.5
327.439	2.5
328.23	4.5
329.02	2.5
329.81	2.5
330.6	7.5
331.391	0.5
332.181	3.5
332.971	5.5
333.76	5.5
334.55	2.5
335.34	5.5
336.13	2.5
336.919	4.5
337.709	4.5
338.498	3.5
339.287	4.5
340.077	3.5
340.866	4.5
341.655	4.5
342.444	2.5
343.233	2.5
344.022	1.5
344.811	3.5
345.6	3.5
346.388	2.5
347.177	5.5
347.965	4.5
348.754	3.5
349.542	3.5
350.33	4.5
351.119	5.5
351.907	1.5
352.695	3.5
353.483	3.5
354.271	4.5
355.059	2.5
355.846	2.5
356.634	4.5
357.422	2.5
358.209	2.5
358.997	2.5
359.784	0.5
360.571	2.5
361.359	3.5
362.146	1.5
362.933	1.5
363.72	3.5
364.507	1.5
365.294	3.5
366.081	2.5
366.867	0.5
367.654	3.5
368.44	4.5
369.227	2.5
370.013	2.5
370.8	4.5
371.586	0.5
372.372	2.5
373.158	3.5
373.944	4.5
374.73	3.5
375.516	0.5
376.302	4.5
377.088	1.5
377.873	1.5
378.659	3.5
379.445	1.5
380.23	3.5
381.015	0.5
381.801	3.5
382.586	1.5
383.371	3.5
384.156	2.5
384.941	2.5
385.726	2.5
386.511	1.5
387.296	3.5
388.08	3.5
388.865	2.5
389.649	4.5
390.434	2.5
391.218	2.5
392.003	3.5
392.787	2.5
393.571	2.5
394.355	2.5
395.139	3.5
395.923	2.5
396.707	2.5
397.491	2.5
398.274	2.5
399.058	4.5
399.842	2.5
400.625	3.5
401.408	2.5
402.192	3.5
402.975	4.5
403.758	3.5
404.541	3.5
405.324	3.5
406.107	5.5
406.89	2.5
407.673	4.5
408.456	5.5
409.238	5.5
410.021	4.5
410.803	4.5
411.586	2.5
412.368	4.5
413.151	5.5
413.933	5.5
414.715	5.5
415.497	7.5
416.279	2.5
417.061	4.5
417.843	2.5
418.624	5.5
419.406	5.5
420.188	5.5
420.969	6.5
421.751	3.5
422.532	5.5
423.313	1.5
424.095	6.5
424.876	6.5
425.657	7.5
426.438	7.5
427.219	4.5
428	6.5
428.78	5.5
429.561	7.5
430.342	7.5
431.122	8.5
431.903	6.5
432.683	8.5
433.464	8.5
434.244	8.5
435.024	9.5
435.804	8.5
436.584	9.5
437.364	9.5
438.144	11.5
438.924	10.5
439.704	11.5
440.483	10.5
441.263	12.5
442.042	14.5
442.822	12.5
443.601	14.5
444.38	12.5
445.16	14.5
445.939	19.5
446.718	20.5
447.497	19.5
448.276	23.5
449.054	24.5
449.833	29.5
450.612	25.5
451.391	29.5
452.169	33.5
452.948	34.5
453.726	35.5
454.504	41.5
455.282	48.5
456.061	51.5
456.839	55.5
457.617	56.5
458.395	68.5
459.172	75.5
459.95	84.5
460.728	95.5
461.506	107.5
462.283	115.5
463.061	127.5
463.838	138.5
464.615	158.5
465.393	171.5
466.17	193.5
466.947	218.5
467.724	241.5
468.501	266.5
469.278	301.5
470.055	325.5
470.831	355.5
471.608	398.5
472.385	446.5
473.161	495.5
473.938	542.5
474.714	606.5
475.49	668.5
476.266	727.5
477.043	793.5
477.819	876.5
478.595	969.5
479.371	1051.5
480.146	1154.5
480.922	1264.5
481.698	1388.5
482.473	1538.5
483.249	1670.5
484.024	1818.5
484.8	2008.5
485.575	2188.5
486.35	2381.5
487.126	2608.5
487.901	2822.5
488.676	3099.5
489.451	3379.5
490.225	3684.5
491	4027.5
491.775	4381.5
492.55	4781.5
493.324	5182.5
494.099	5654.5
494.873	6103.5
495.647	6633.5
496.422	7178.5
497.196	7734.5
497.97	8357.5
498.744	8950.5
499.518	9581.5
500.292	10258.5
501.066	10854.5
501.839	11452.5
502.613	12045.5
503.387	12629.5
504.16	13199.5
504.934	13655.5
505.707	14074.5
506.48	14371.5
507.253	14708.5
508.027	14906.5
508.8	15057.5
509.573	14980.5
510.346	14963.5
511.118	14801.5
511.891	14583.5
512.664	14282.5
513.437	13874.5
514.209	13478.5
514.982	13082.5
515.754	12612.5
516.526	12169.5
517.298	11626.5
518.071	11184.5
518.843	10742.5
519.615	10309.5
520.387	9876.5
521.159	9466.5
521.93	9086.5
522.702	8742.5
523.474	8415.5
524.245	8092.5
525.017	7765.5
525.788	7446.5
526.56	7154.5
527.331	6862.5
528.102	6552.5
528.873	6309.5
529.644	6055.5
530.415	5788.5
531.186	5502.5
531.957	5287.5
532.728	5061.5
533.498	4769.5
534.269	4533.5
535.039	4312.5
535.81	4070.5
536.58	3847.5
537.351	3654.5
538.121	3463.5
538.891	3257.5
539.661	3064.5
540.431	2909.5
541.201	2761.5
541.971	2613.5
542.741	2460.5
543.51	2341.5
544.28	2216.5
545.05	2103.5
545.819	2006.5
546.588	1913.5
547.358	1810.5
548.127	1725.5
548.896	1636.5
549.665	1556.5
550.434	1471.5
551.203	1406.5
551.972	1347.5
552.741	1280.5
553.51	1209.5
554.278	1141.5
555.047	1075.5
555.815	1012.5
556.584	963.5
557.352	906.5
558.121	868.5
558.889	807.5
559.657	767.5
560.425	725.5
561.193	681.5
561.961	642.5
562.729	614.5
563.496	576.5
564.264	539.5
565.032	507.5
565.799	488.5
566.567	454.5
567.334	431.5
568.101	408.5
568.869	384.5
569.636	359.5
570.403	344.5
571.17	321.5
571.937	297.5
572.704	286.5
573.471	269.5
574.237	252.5
575.004	238.5
575.771	225.5
576.537	214.5
577.303	196.5
578.07	191.5
578.836	181.5
579.602	170.5
580.368	161.5
581.134	148.5
581.9	144.5
582.666	139.5
583.432	128.5
584.198	120.5
584.964	114.5
585.729	106.5
586.495	102.5
587.26	93.5
588.025	90.5
588.791	85.5
589.556	81.5
590.321	78.5
591.086	74.5
591.851	66.5
592.616	63.5
593.381	60.5
594.146	60.5
594.911	51.5
595.675	56.5
596.44	53.5
597.204	50.5
597.969	47.5
598.733	44.5
599.497	42.5
600.261	42.5
601.025	37.5
601.79	36.5
602.553	35.5
603.317	32.5
604.081	31.5
604.845	29.5
605.609	27.5
606.372	26.5
607.136	27.5
607.899	25.5
608.662	25.5
609.426	26.5
610.189	23.5
610.952	19.5
611.715	19.5
612.478	21.5
613.241	15.5
614.004	17.5
614.767	18.5
615.529	15.5
616.292	13.5
617.055	15.5
617.817	13.5
618.579	15.5
619.342	13.5
620.104	13.5
620.866	13.5
621.628	12.5
622.39	11.5
623.152	10.5
623.914	12.5
624.676	9.5
625.438	10.5
626.199	8.5
626.961	8.5
627.722	7.5
628.484	11.5
629.245	7.5
630.006	11.5
630.768	5.5
631.529	9.5
632.29	8.5
633.051	8.5
633.812	6.5
634.573	8.5
635.333	7.5
636.094	7.5
636.855	7.5
637.615	4.5
638.376	5.5
639.136	4.5
639.896	2.5
640.657	4.5
641.417	8.5
642.177	6.5
642.937	5.5
643.697	5.5
644.457	3.5
645.216	5.5
645.976	5.5
646.736	3.5
647.495	3.5
648.255	4.5
649.014	3.5
649.774	5.5
650.533	4.5
651.292	2.5
652.051	3.5
652.81	3.5
653.569	4.5
654.328	1.5
655.087	5.5
655.846	3.5
656.604	3.5
657.363	3.5
658.121	4.5
658.88	4.5
659.638	1.5
660.397	3.5
661.155	4.5
661.913	2.5
662.671	4.5
663.429	4.5
664.187	2.5
664.945	3.5
665.703	4.5
666.46	1.5
667.218	2.5
667.976	3.5
668.733	2.5
669.49	5.5
670.248	2.5
671.005	1.5
671.762	2.5
672.519	1.5
673.276	2.5
674.033	1.5
674.79	3.5
675.547	1.5
676.304	2.5
677.06	3.5
677.817	1.5
678.574	1.5
679.33	2.5
680.086	2.5
680.843	-0.5
681.599	1.5
682.355	0.5
683.111	2.5
683.867	2.5
684.623	2.5
685.379	0.5
686.135	2.5
686.89	3.5
687.646	1.5
688.402	0.5
689.157	2.5
689.912	1.5
690.668	0.5
691.423	2.5
692.178	3.5
692.933	1.5
693.688	-0.5
694.443	1.5
695.198	-0.5
695.953	2.5
696.708	2.5
697.462	2.5
698.217	2.5
698.972	1.5
699.726	1.5
700.48	2.5
701.235	2.5
701.989	1.5
702.743	1.5
703.497	2.5
704.251	1.5
705.005	2.5
705.759	1.5
706.513	1.5
707.266	2.5
708.02	2.5
708.774	1.5
709.527	1.5
710.28	0.5
711.034	3.5
711.787	4.5
712.54	3.5
713.293	5.5
714.046	0.5
714.799	1.5
715.552	1.5
716.305	1.5
717.058	1.5
717.81	1.5
718.563	-0.5
719.315	2.5
720.068	1.5
720.82	2.5
721.573	2.5
722.325	3.5
723.077	0.5
723.829	2.5
724.581	1.5
725.333	1.5
726.085	1.5
726.836	1.5
727.588	2.5
728.34	2.5
729.091	3.5
729.843	2.5
730.594	1.5
731.346	2.5
732.097	1.5
732.848	2.5
733.599	2.5
734.35	1.5
735.101	1.5
735.852	0.5
736.603	1.5
737.354	0.5
738.104	2.5
738.855	2.5
739.605	1.5
740.356	4.5
741.106	2.5
741.856	4.5
742.607	2.5
743.357	2.5
744.107	3.5
744.857	1.5
745.607	3.5
746.357	0.5
747.106	2.5
747.856	2.5
748.606	2.5
749.355	2.5
750.105	3.5
750.854	3.5
751.603	3.5
752.353	0.5
753.102	1.5
753.851	1.5
754.6	2.5
755.349	3.5
756.098	2.5
756.847	1.5
757.595	4.5
758.344	1.5
759.093	4.5
759.841	3.5
760.589	4.5
761.338	2.5
762.086	1.5
762.834	3.5
763.582	0.5
764.331	2.5
765.079	3.5
765.826	3.5
766.574	3.5
767.322	2.5
768.07	2.5
768.817	5.5
769.565	3.5
770.312	2.5
771.06	1.5
771.807	3.5
772.554	3.5
773.302	3.5
774.049	3.5
774.796	4.5
775.543	3.5
776.29	5.5
777.036	4.5
777.783	4.5
778.53	4.5
779.276	4.5
780.023	3.5
780.769	5.5
781.516	5.5
782.262	4.5
783.008	3.5
783.754	4.5
784.5	3.5
785.246	4.5
785.992	6.5
786.738	3.5
787.484	4.5
788.23	3.5
788.975	3.5
789.721	3.5
790.466	5.5
791.212	5.5
791.957	4.5
792.702	3.5
793.447	3.5
794.193	4.5
794.938	4.5
795.683	5.5
796.427	4.5
797.172	2.5
797.917	3.5
798.662	5.5
799.406	1.5
800.151	3.5
800.895	4.5
801.64	6.5
802.384	4.5
803.128	3.5
803.872	2.5
804.616	5.5
805.36	4.5
806.104	2.5
806.848	3.5
807.592	4.5
808.336	3.5
809.079	1.5
809.823	5.5
810.566	4.5
811.31	3.5
812.053	2.5
812.796	5.5
813.539	3.5
814.283	2.5
815.026	3.5
815.769	2.5
816.511	4.5
817.254	1.5
817.997	1.5
818.74	2.5
819.482	2.5
820.225	5.5
820.967	1.5
821.71	1.5
822.452	2.5
823.194	4.5
823.936	2.5
824.678	3.5
825.42	2.5
826.162	2.5
826.904	3.5
827.646	3.5
828.388	2.5
829.129	4.5
829.871	1.5
830.612	3.5
831.354	2.5
832.095	1.5
832.836	1.5
833.577	3.5
834.319	1.5
835.06	0.5
835.801	4.5
836.542	2.5
837.282	0.5
838.023	2.5
838.764	4.5
839.504	2.5
840.245	2.5
840.985	2.5
841.726	3.5
842.466	1.5
843.206	3.5
843.946	1.5
844.687	2.5
845.427	0.5
846.166	1.5
846.906	2.5
847.646	1.5
848.386	0.5
849.125	1.5
849.865	1.5
850.605	2.5
851.344	1.5
852.083	1.5
852.823	0.5
853.562	2.5
854.301	1.5
855.04	4.5
855.779	1.5
856.518	2.5
857.257	1.5
857.995	1.5
858.734	0.5
859.473	1.5
860.211	0.5
860.95	0.5
861.688	4.5
862.426	1.5
863.165	0.5
863.903	0.5
864.641	2.5
865.379	1.5
866.117	0.5
866.855	1.5
867.593	-0.5
868.33	3.5
869.068	2.5
869.806	2.5
870.543	-0.5
871.28	1.5
872.018	1.5
872.755	1.5
873.492	0.5
874.229	1.5
874.967	-0.5
875.703	0.5
876.44	0.5
877.177	-1.5
877.914	-0.5
878.651	4.5
879.387	1.5
880.124	0.5
880.86	-0.5
881.597	3.5
882.333	-0.5
883.069	3.5
883.806	-0.5
884.542	1.5
885.278	-2.5
886.014	2.5
886.749	1.5
887.485	-1.5
888.221	3.5
888.957	-0.5
889.692	-0.5
890.428	3.5
891.163	0.5
891.899	-0.5
892.634	2.5
893.369	2.5
894.104	-0.5
894.839	-0.5
895.574	-0.5
896.309	0.5
897.044	2.5
897.779	-1.5
898.514	1.5
899.248	0.5
899.983	-1.5
900.717	0.5
901.452	0.5
902.186	0.5
902.92	-0.5
903.654	0.5
904.389	-1.5
905.123	-0.5
905.857	-1.5
906.59	0.5
907.324	2.5
908.058	-1.5
908.792	0.5
909.525	0.5
910.259	1.5
910.992	0.5
911.726	0.5
912.459	2.5
913.192	-0.5
913.925	0.5
914.658	-3.5
915.391	0.5
916.124	-0.5
916.857	0.5
917.59	2.5
918.323	0.5
919.055	1.5
919.788	-1.5
920.521	1.5
921.253	1.5
921.985	1.5
922.718	1.5
923.45	1.5
924.182	0.5
924.914	-0.5
925.646	0.5
926.378	1.5
927.11	-1.5
927.841	0.5
928.573	-0.5
929.305	1.5
930.036	-0.5
930.768	0.5
931.499	0.5
932.23	-1.5
932.962	-0.5
933.693	0.5
934.424	1.5
935.155	-1.5
935.886	0.5
936.617	-1.5
937.348	1.5
938.078	0.5
938.809	-0.5
939.54	1.5
940.27	-1.5
941.001	0.5
941.731	1.5
942.461	1.5
943.191	2.5
943.922	1.5
944.652	1.5
945.382	1.5
946.112	2.5
946.841	-1.5
947.571	2.5
948.301	0.5
949.031	0.5
949.76	-0.5
950.49	-0.5
951.219	-0.5
951.948	1.5
952.678	-1.5
953.407	-0.5
954.136	-1.5
954.865	-1.5
955.594	-1.5
956.323	1.5
957.052	0.5
957.78	0.5
958.509	1.5
959.238	0.5
959.966	1.5
960.695	-0.5
961.423	-0.5
962.151	1.5
962.88	-1.5
963.608	1.5
964.336	0.5
965.064	0.5
965.792	0.5
966.52	-0.5
967.247	-0.5
967.975	1.5
968.703	2.5
969.43	-1.5
970.158	0.5
970.885	-1.5
971.613	0.5
972.34	-1.5
973.067	1.5
973.794	1.5
974.521	-0.5
975.248	2.5
975.975	0.5
976.702	0.5
977.429	1.5
978.156	-0.5
978.882	1.5
979.609	0.5
980.335	0.5
981.062	1.5
981.788	0.5
982.514	-1.5
983.24	-1.5
983.967	1.5
984.693	-1.5
985.419	-0.5
986.144	-0.5
986.87	-0.5
987.596	0.5
988.322	0.5
989.047	0.5
989.773	0.5
990.498	0.5
991.224	0.5
991.949	1.5
992.674	-0.5
993.399	-0.5
994.124	-2.5
994.849	-1.5
995.574	-2.5
996.299	-3.5
997.024	0.5
997.749	2.5
998.473	0.5
999.198	-0.5
999.922	-0.5
1000.647	2.5
1001.371	3.5
1002.095	-0.5
1002.82	-1.5
1003.544	-1.5
1004.268	-0.5
1004.992	-0.5
1005.716	-1.5
1006.439	-2.5
1007.163	1.5
1007.887	-1.5
1008.611	1.5
1009.334	1.5
1010.058	0.5
1010.781	0.5
1011.504	1.5
1012.228	0.5
1012.951	-0.5
1013.674	0.5
1014.397	0.5
1015.12	-0.5
