节点500_145_QEPB04081__494__11-36-50-478.txt的数据

Date: Wed Nov 12 11:36:50 CST 2025
User: PC
Spectrometer: QEPB0408
触发模式: 0
积分时间 (秒): 1.000000E-2
Scans to average: 1
启用暗噪声校正: true
启用非线性校正: false
滑动平均宽度: 0
X轴模式: Wavelengths
Number of Pixels in Spectrum: 1044
>>>>>Begin Spectral Data<<<<<
220.843	0.62
221.644	1.62
222.444	0.62
223.244	0.62
224.045	1.62
224.845	1.62
225.645	0.62
226.445	1.62
227.245	0.62
228.045	1.62
228.845	1.62
229.645	-0.38
230.444	-0.38
231.244	-1.38
232.043	0.62
232.843	0.62
233.642	1.62
234.442	0.62
235.241	1.62
236.04	3.62
236.839	1.62
237.638	1.62
238.437	-0.38
239.236	3.62
240.035	3.62
240.833	0.62
241.632	-0.38
242.43	1.62
243.229	3.62
244.027	2.62
244.826	2.62
245.624	2.62
246.422	1.62
247.22	2.62
248.018	3.62
248.816	2.62
249.614	4.62
250.412	2.62
251.21	2.62
252.007	1.62
252.805	1.62
253.602	3.62
254.4	2.62
255.197	2.62
255.994	3.62
256.791	2.62
257.589	2.62
258.386	6.62
259.183	2.62
259.979	4.62
260.776	5.62
261.573	4.62
262.37	5.62
263.166	5.62
263.963	4.62
264.759	4.62
265.556	4.62
266.352	7.62
267.148	3.62
267.944	7.62
268.74	7.62
269.536	9.62
270.332	6.62
271.128	7.62
271.924	7.62
272.719	7.62
273.515	7.62
274.311	7.62
275.106	8.62
275.901	7.62
276.697	8.62
277.492	10.62
278.287	6.62
279.082	10.62
279.877	8.62
280.672	10.62
281.467	11.62
282.262	11.62
283.056	11.62
283.851	9.62
284.646	11.62
285.44	10.62
286.234	9.62
287.029	10.62
287.823	9.62
288.617	12.62
289.411	10.62
290.205	10.62
290.999	9.62
291.793	9.62
292.587	11.62
293.381	7.62
294.174	8.62
294.968	10.62
295.761	10.62
296.555	10.62
297.348	9.62
298.141	8.62
298.935	9.62
299.728	8.62
300.521	9.62
301.314	10.62
302.107	6.62
302.899	10.62
303.692	6.62
304.485	8.62
305.277	12.62
306.07	9.62
306.862	8.62
307.655	9.62
308.447	9.62
309.239	7.62
310.031	5.62
310.823	5.62
311.615	8.62
312.407	6.62
313.199	9.62
313.991	6.62
314.783	5.62
315.574	5.62
316.366	7.62
317.157	5.62
317.949	6.62
318.74	7.62
319.531	4.62
320.322	5.62
321.113	5.62
321.904	5.62
322.695	5.62
323.486	5.62
324.277	3.62
325.068	3.62
325.858	5.62
326.649	3.62
327.439	4.62
328.23	3.62
329.02	3.62
329.81	4.62
330.6	3.62
331.391	5.62
332.181	3.62
332.971	3.62
333.76	5.62
334.55	4.62
335.34	4.62
336.13	4.62
336.919	4.62
337.709	1.62
338.498	1.62
339.287	4.62
340.077	2.62
340.866	2.62
341.655	2.62
342.444	4.62
343.233	2.62
344.022	3.62
344.811	4.62
345.6	2.62
346.388	4.62
347.177	3.62
347.965	3.62
348.754	3.62
349.542	4.62
350.33	3.62
351.119	2.62
351.907	2.62
352.695	2.62
353.483	3.62
354.271	-0.38
355.059	4.62
355.846	4.62
356.634	2.62
357.422	3.62
358.209	1.62
358.997	3.62
359.784	3.62
360.571	2.62
361.359	0.62
362.146	3.62
362.933	2.62
363.72	1.62
364.507	3.62
365.294	5.62
366.081	3.62
366.867	4.62
367.654	1.62
368.44	5.62
369.227	1.62
370.013	3.62
370.8	2.62
371.586	4.62
372.372	2.62
373.158	1.62
373.944	4.62
374.73	2.62
375.516	1.62
376.302	1.62
377.088	3.62
377.873	0.62
378.659	3.62
379.445	6.62
380.23	2.62
381.015	5.62
381.801	3.62
382.586	3.62
383.371	2.62
384.156	2.62
384.941	3.62
385.726	5.62
386.511	3.62
387.296	4.62
388.08	3.62
388.865	4.62
389.649	1.62
390.434	2.62
391.218	4.62
392.003	2.62
392.787	0.62
393.571	2.62
394.355	1.62
395.139	4.62
395.923	1.62
396.707	3.62
397.491	4.62
398.274	5.62
399.058	2.62
399.842	4.62
400.625	3.62
401.408	3.62
402.192	4.62
402.975	5.62
403.758	4.62
404.541	4.62
405.324	4.62
406.107	5.62
406.89	6.62
407.673	4.62
408.456	3.62
409.238	3.62
410.021	0.62
410.803	4.62
411.586	3.62
412.368	5.62
413.151	5.62
413.933	6.62
414.715	6.62
415.497	2.62
416.279	4.62
417.061	3.62
417.843	5.62
418.624	4.62
419.406	5.62
420.188	5.62
420.969	4.62
421.751	6.62
422.532	6.62
423.313	6.62
424.095	8.62
424.876	4.62
425.657	6.62
426.438	3.62
427.219	5.62
428	9.62
428.78	7.62
429.561	8.62
430.342	7.62
431.122	8.62
431.903	7.62
432.683	7.62
433.464	7.62
434.244	9.62
435.024	9.62
435.804	9.62
436.584	10.62
437.364	8.62
438.144	9.62
438.924	11.62
439.704	12.62
440.483	8.62
441.263	11.62
442.042	13.62
442.822	11.62
443.601	14.62
444.38	13.62
445.16	17.62
445.939	14.62
446.718	18.62
447.497	22.62
448.276	20.62
449.054	21.62
449.833	23.62
450.612	27.62
451.391	28.62
452.169	31.62
452.948	31.62
453.726	34.62
454.504	40.62
455.282	40.62
456.061	50.62
456.839	52.62
457.617	55.62
458.395	66.62
459.172	74.62
459.95	78.62
460.728	84.62
461.506	96.62
462.283	110.62
463.061	116.62
463.838	131.62
464.615	148.62
465.393	166.62
466.17	182.62
466.947	206.62
467.724	229.62
468.501	260.62
469.278	283.62
470.055	313.62
470.831	346.62
471.608	387.62
472.385	430.62
473.161	468.62
473.938	526.62
474.714	592.62
475.49	648.62
476.266	709.62
477.043	790.62
477.819	869.62
478.595	949.62
479.371	1048.62
480.146	1148.62
480.922	1281.62
481.698	1397.62
482.473	1536.62
483.249	1683.62
484.024	1850.62
484.8	2047.62
485.575	2245.62
486.35	2457.62
487.126	2684.62
487.901	2962.62
488.676	3214.62
489.451	3538.62
490.225	3870.62
491	4244.62
491.775	4636.62
492.55	5071.62
493.324	5539.62
494.099	6048.62
494.873	6557.62
495.647	7134.62
496.422	7762.62
497.196	8396.62
497.97	9026.62
498.744	9689.62
499.518	10421.62
500.292	11080.62
501.066	11773.62
501.839	12449.62
502.613	13024.62
503.387	13698.62
504.16	14241.62
504.934	14711.62
505.707	15068.62
506.48	15384.62
507.253	15629.62
508.027	15757.62
508.8	15801.62
509.573	15756.62
510.346	15612.62
511.118	15374.62
511.891	15015.62
512.664	14618.62
513.437	14184.62
514.209	13675.62
514.982	13214.62
515.754	12660.62
516.526	12222.62
517.298	11699.62
518.071	11157.62
518.843	10753.62
519.615	10249.62
520.387	9836.62
521.159	9421.62
521.93	9041.62
522.702	8705.62
523.474	8353.62
524.245	8053.62
525.017	7684.62
525.788	7413.62
526.56	7093.62
527.331	6822.62
528.102	6528.62
528.873	6262.62
529.644	5978.62
530.415	5692.62
531.186	5474.62
531.957	5177.62
532.728	4943.62
533.498	4645.62
534.269	4431.62
535.039	4190.62
535.81	3971.62
536.58	3751.62
537.351	3559.62
538.121	3359.62
538.891	3159.62
539.661	2975.62
540.431	2797.62
541.201	2680.62
541.971	2563.62
542.741	2399.62
543.51	2284.62
544.28	2145.62
545.05	2050.62
545.819	1935.62
546.588	1867.62
547.358	1749.62
548.127	1675.62
548.896	1583.62
549.665	1501.62
550.434	1426.62
551.203	1367.62
551.972	1292.62
552.741	1223.62
553.51	1171.62
554.278	1102.62
555.047	1043.62
555.815	988.62
556.584	927.62
557.352	876.62
558.121	823.62
558.889	779.62
559.657	742.62
560.425	691.62
561.193	655.62
561.961	630.62
562.729	585.62
563.496	549.62
564.264	519.62
565.032	488.62
565.799	453.62
566.567	431.62
567.334	416.62
568.101	379.62
568.869	361.62
569.636	347.62
570.403	324.62
571.17	310.62
571.937	289.62
572.704	272.62
573.471	261.62
574.237	247.62
575.004	230.62
575.771	213.62
576.537	207.62
577.303	192.62
578.07	184.62
578.836	168.62
579.602	157.62
580.368	149.62
581.134	146.62
581.9	138.62
582.666	129.62
583.432	123.62
584.198	111.62
584.964	108.62
585.729	101.62
586.495	96.62
587.26	94.62
588.025	86.62
588.791	81.62
589.556	78.62
590.321	75.62
591.086	67.62
591.851	70.62
592.616	63.62
593.381	57.62
594.146	56.62
594.911	55.62
595.675	50.62
596.44	48.62
597.204	46.62
597.969	46.62
598.733	44.62
599.497	39.62
600.261	39.62
601.025	34.62
601.79	35.62
602.553	34.62
603.317	30.62
604.081	34.62
604.845	31.62
605.609	27.62
606.372	24.62
607.136	25.62
607.899	24.62
608.662	23.62
609.426	23.62
610.189	22.62
610.952	22.62
611.715	22.62
612.478	20.62
613.241	18.62
614.004	16.62
614.767	17.62
615.529	16.62
616.292	18.62
617.055	16.62
617.817	15.62
618.579	14.62
619.342	11.62
620.104	12.62
620.866	13.62
621.628	11.62
622.39	14.62
623.152	13.62
623.914	10.62
624.676	11.62
625.438	9.62
626.199	9.62
626.961	9.62
627.722	10.62
628.484	10.62
629.245	7.62
630.006	8.62
630.768	3.62
631.529	6.62
632.29	7.62
633.051	7.62
633.812	8.62
634.573	6.62
635.333	7.62
636.094	7.62
636.855	7.62
637.615	6.62
638.376	6.62
639.136	5.62
639.896	8.62
640.657	5.62
641.417	4.62
642.177	5.62
642.937	5.62
643.697	5.62
644.457	4.62
645.216	3.62
645.976	4.62
646.736	4.62
647.495	3.62
648.255	5.62
649.014	5.62
649.774	5.62
650.533	5.62
651.292	4.62
652.051	3.62
652.81	3.62
653.569	3.62
654.328	4.62
655.087	3.62
655.846	4.62
656.604	4.62
657.363	2.62
658.121	2.62
658.88	4.62
659.638	3.62
660.397	1.62
661.155	2.62
661.913	1.62
662.671	1.62
663.429	4.62
664.187	3.62
664.945	4.62
665.703	2.62
666.46	4.62
667.218	3.62
667.976	3.62
668.733	2.62
669.49	1.62
670.248	3.62
671.005	3.62
671.762	2.62
672.519	1.62
673.276	3.62
674.033	3.62
674.79	2.62
675.547	2.62
676.304	2.62
677.06	3.62
677.817	6.62
678.574	2.62
679.33	3.62
680.086	1.62
680.843	0.62
681.599	2.62
682.355	3.62
683.111	3.62
683.867	0.62
684.623	2.62
685.379	2.62
686.135	1.62
686.89	3.62
687.646	0.62
688.402	4.62
689.157	1.62
689.912	3.62
690.668	3.62
691.423	1.62
692.178	2.62
692.933	2.62
693.688	1.62
694.443	2.62
695.198	2.62
695.953	1.62
696.708	3.62
697.462	1.62
698.217	2.62
698.972	2.62
699.726	2.62
700.48	3.62
701.235	2.62
701.989	3.62
702.743	1.62
703.497	1.62
704.251	1.62
705.005	1.62
705.759	1.62
706.513	0.62
707.266	1.62
708.02	3.62
708.774	2.62
709.527	3.62
710.28	1.62
711.034	0.62
711.787	2.62
712.54	0.62
713.293	4.62
714.046	1.62
714.799	1.62
715.552	0.62
716.305	2.62
717.058	1.62
717.81	1.62
718.563	3.62
719.315	1.62
720.068	3.62
720.82	2.62
721.573	2.62
722.325	3.62
723.077	1.62
723.829	2.62
724.581	2.62
725.333	1.62
726.085	3.62
726.836	1.62
727.588	4.62
728.34	3.62
729.091	3.62
729.843	2.62
730.594	1.62
731.346	3.62
732.097	3.62
732.848	3.62
733.599	2.62
734.35	2.62
735.101	1.62
735.852	4.62
736.603	1.62
737.354	3.62
738.104	2.62
738.855	1.62
739.605	4.62
740.356	3.62
741.106	3.62
741.856	4.62
742.607	1.62
743.357	4.62
744.107	4.62
744.857	4.62
745.607	2.62
746.357	2.62
747.106	0.62
747.856	1.62
748.606	2.62
749.355	5.62
750.105	3.62
750.854	4.62
751.603	2.62
752.353	2.62
753.102	3.62
753.851	3.62
754.6	2.62
755.349	4.62
756.098	5.62
756.847	4.62
757.595	3.62
758.344	2.62
759.093	5.62
759.841	2.62
760.589	4.62
761.338	2.62
762.086	3.62
762.834	3.62
763.582	5.62
764.331	3.62
765.079	3.62
765.826	2.62
766.574	3.62
767.322	3.62
768.07	6.62
768.817	2.62
769.565	3.62
770.312	3.62
771.06	4.62
771.807	4.62
772.554	5.62
773.302	4.62
774.049	4.62
774.796	4.62
775.543	7.62
776.29	6.62
777.036	7.62
777.783	5.62
778.53	5.62
779.276	3.62
780.023	5.62
780.769	4.62
781.516	6.62
782.262	6.62
783.008	4.62
783.754	5.62
784.5	5.62
785.246	4.62
785.992	6.62
786.738	5.62
787.484	7.62
788.23	4.62
788.975	4.62
789.721	4.62
790.466	8.62
791.212	4.62
791.957	5.62
792.702	5.62
793.447	3.62
794.193	5.62
794.938	2.62
795.683	3.62
796.427	4.62
797.172	5.62
797.917	5.62
798.662	4.62
799.406	4.62
800.151	2.62
800.895	4.62
801.64	1.62
802.384	3.62
803.128	4.62
803.872	1.62
804.616	6.62
805.36	4.62
806.104	6.62
806.848	3.62
807.592	3.62
808.336	4.62
809.079	2.62
809.823	4.62
810.566	2.62
811.31	5.62
812.053	1.62
812.796	2.62
813.539	2.62
814.283	3.62
815.026	5.62
815.769	2.62
816.511	5.62
817.254	1.62
817.997	3.62
818.74	2.62
819.482	1.62
820.225	3.62
820.967	2.62
821.71	3.62
822.452	2.62
823.194	3.62
823.936	3.62
824.678	2.62
825.42	2.62
826.162	2.62
826.904	3.62
827.646	1.62
828.388	4.62
829.129	3.62
829.871	2.62
830.612	4.62
831.354	0.62
832.095	4.62
832.836	1.62
833.577	1.62
834.319	4.62
835.06	2.62
835.801	1.62
836.542	2.62
837.282	3.62
838.023	2.62
838.764	3.62
839.504	1.62
840.245	1.62
840.985	2.62
841.726	1.62
842.466	3.62
843.206	3.62
843.946	2.62
844.687	1.62
845.427	2.62
846.166	4.62
846.906	2.62
847.646	4.62
848.386	3.62
849.125	0.62
849.865	2.62
850.605	1.62
851.344	1.62
852.083	2.62
852.823	2.62
853.562	0.62
854.301	2.62
855.04	2.62
855.779	1.62
856.518	1.62
857.257	3.62
857.995	1.62
858.734	0.62
859.473	1.62
860.211	3.62
860.95	2.62
861.688	1.62
862.426	2.62
863.165	3.62
863.903	0.62
864.641	1.62
865.379	2.62
866.117	-0.38
866.855	1.62
867.593	0.62
868.33	-1.38
869.068	2.62
869.806	2.62
870.543	1.62
871.28	1.62
872.018	2.62
872.755	1.62
873.492	2.62
874.229	3.62
874.967	0.62
875.703	1.62
876.44	-0.38
877.177	1.62
877.914	1.62
878.651	0.62
879.387	2.62
880.124	-0.38
880.86	0.62
881.597	1.62
882.333	0.62
883.069	1.62
883.806	1.62
884.542	2.62
885.278	0.62
886.014	1.62
886.749	-1.38
887.485	1.62
888.221	1.62
888.957	2.62
889.692	-0.38
890.428	-0.38
891.163	1.62
891.899	-0.38
892.634	0.62
893.369	0.62
894.104	1.62
894.839	1.62
895.574	0.62
896.309	0.62
897.044	1.62
897.779	1.62
898.514	0.62
899.248	-0.38
899.983	1.62
900.717	0.62
901.452	0.62
902.186	-1.38
902.92	-0.38
903.654	-0.38
904.389	-0.38
905.123	1.62
905.857	-0.38
906.59	0.62
907.324	1.62
908.058	1.62
908.792	1.62
909.525	0.62
910.259	1.62
910.992	0.62
911.726	1.62
912.459	-0.38
913.192	0.62
913.925	1.62
914.658	-0.38
915.391	0.62
916.124	-0.38
916.857	-0.38
917.59	1.62
918.323	1.62
919.055	-1.38
919.788	-1.38
920.521	3.62
921.253	-0.38
921.985	0.62
922.718	-1.38
923.45	-0.38
924.182	3.62
924.914	0.62
925.646	-0.38
926.378	0.62
927.11	0.62
927.841	3.62
928.573	-1.38
929.305	1.62
930.036	-1.38
930.768	1.62
931.499	1.62
932.23	0.62
932.962	0.62
933.693	1.62
934.424	-0.38
935.155	-1.38
935.886	1.62
936.617	-2.38
937.348	1.62
938.078	1.62
938.809	1.62
939.54	0.62
940.27	0.62
941.001	1.62
941.731	0.62
942.461	1.62
943.191	-1.38
943.922	1.62
944.652	1.62
945.382	1.62
946.112	1.62
946.841	-1.38
947.571	-0.38
948.301	0.62
949.031	1.62
949.76	0.62
950.49	-1.38
951.219	1.62
951.948	-1.38
952.678	2.62
953.407	0.62
954.136	1.62
954.865	-1.38
955.594	1.62
956.323	0.62
957.052	-1.38
957.78	1.62
958.509	2.62
959.238	3.62
959.966	-1.38
960.695	2.62
961.423	-1.38
962.151	0.62
962.88	1.62
963.608	-1.38
964.336	-0.38
965.064	-1.38
965.792	0.62
966.52	-1.38
967.247	-1.38
967.975	1.62
968.703	0.62
969.43	-0.38
970.158	1.62
970.885	1.62
971.613	0.62
972.34	0.62
973.067	1.62
973.794	2.62
974.521	-1.38
975.248	0.62
975.975	-1.38
976.702	1.62
977.429	0.62
978.156	1.62
978.882	1.62
979.609	1.62
980.335	-1.38
981.062	-1.38
981.788	1.62
982.514	0.62
983.24	0.62
983.967	2.62
984.693	2.62
985.419	1.62
986.144	-1.38
986.87	0.62
987.596	0.62
988.322	0.62
989.047	3.62
989.773	1.62
990.498	-0.38
991.224	0.62
991.949	3.62
992.674	0.62
993.399	-0.38
994.124	2.62
994.849	0.62
995.574	1.62
996.299	1.62
997.024	1.62
997.749	1.62
998.473	-0.38
999.198	2.62
999.922	1.62
1000.647	-1.38
1001.371	2.62
1002.095	-0.38
1002.82	-1.38
1003.544	-2.38
1004.268	-1.38
1004.992	-1.38
1005.716	1.62
1006.439	1.62
1007.163	1.62
1007.887	0.62
1008.611	-0.38
1009.334	0.62
1010.058	1.62
1010.781	0.62
1011.504	-1.38
1012.228	0.62
1012.951	-1.38
1013.674	1.62
1014.397	0.62
1015.12	0.62
