节点500_145_QEPB04081__425__11-35-44-551.txt的数据

Date: Wed Nov 12 11:35:44 CST 2025
User: PC
Spectrometer: QEPB0408
触发模式: 0
积分时间 (秒): 1.000000E-2
Scans to average: 1
启用暗噪声校正: true
启用非线性校正: false
滑动平均宽度: 0
X轴模式: Wavelengths
Number of Pixels in Spectrum: 1044
>>>>>Begin Spectral Data<<<<<
220.843	-1.5
221.644	0.5
222.444	-1.5
223.244	-0.5
224.045	1.5
224.845	1.5
225.645	-0.5
226.445	-0.5
227.245	-1.5
228.045	-0.5
228.845	2.5
229.645	1.5
230.444	-0.5
231.244	1.5
232.043	0.5
232.843	2.5
233.642	0.5
234.442	-1.5
235.241	0.5
236.04	1.5
236.839	-0.5
237.638	1.5
238.437	0.5
239.236	0.5
240.035	1.5
240.833	0.5
241.632	0.5
242.43	0.5
243.229	1.5
244.027	1.5
244.826	2.5
245.624	1.5
246.422	1.5
247.22	5.5
248.018	3.5
248.816	2.5
249.614	3.5
250.412	0.5
251.21	1.5
252.007	1.5
252.805	3.5
253.602	2.5
254.4	2.5
255.197	2.5
255.994	2.5
256.791	6.5
257.589	2.5
258.386	5.5
259.183	3.5
259.979	4.5
260.776	4.5
261.573	4.5
262.37	6.5
263.166	7.5
263.963	6.5
264.759	5.5
265.556	5.5
266.352	4.5
267.148	7.5
267.944	7.5
268.74	4.5
269.536	7.5
270.332	6.5
271.128	6.5
271.924	6.5
272.719	8.5
273.515	5.5
274.311	6.5
275.106	7.5
275.901	8.5
276.697	9.5
277.492	10.5
278.287	7.5
279.082	8.5
279.877	8.5
280.672	9.5
281.467	10.5
282.262	9.5
283.056	10.5
283.851	9.5
284.646	10.5
285.44	11.5
286.234	10.5
287.029	10.5
287.823	11.5
288.617	11.5
289.411	10.5
290.205	11.5
290.999	10.5
291.793	8.5
292.587	11.5
293.381	12.5
294.174	10.5
294.968	9.5
295.761	9.5
296.555	11.5
297.348	8.5
298.141	9.5
298.935	9.5
299.728	9.5
300.521	8.5
301.314	8.5
302.107	8.5
302.899	9.5
303.692	9.5
304.485	10.5
305.277	8.5
306.07	8.5
306.862	7.5
307.655	10.5
308.447	8.5
309.239	10.5
310.031	5.5
310.823	7.5
311.615	5.5
312.407	7.5
313.199	8.5
313.991	5.5
314.783	7.5
315.574	5.5
316.366	6.5
317.157	5.5
317.949	7.5
318.74	5.5
319.531	6.5
320.322	3.5
321.113	3.5
321.904	5.5
322.695	2.5
323.486	7.5
324.277	6.5
325.068	5.5
325.858	5.5
326.649	4.5
327.439	4.5
328.23	5.5
329.02	4.5
329.81	4.5
330.6	5.5
331.391	4.5
332.181	2.5
332.971	3.5
333.76	3.5
334.55	3.5
335.34	4.5
336.13	3.5
336.919	2.5
337.709	3.5
338.498	4.5
339.287	2.5
340.077	3.5
340.866	3.5
341.655	0.5
342.444	2.5
343.233	1.5
344.022	4.5
344.811	2.5
345.6	4.5
346.388	4.5
347.177	2.5
347.965	3.5
348.754	3.5
349.542	4.5
350.33	3.5
351.119	4.5
351.907	3.5
352.695	2.5
353.483	4.5
354.271	3.5
355.059	3.5
355.846	1.5
356.634	3.5
357.422	3.5
358.209	3.5
358.997	2.5
359.784	1.5
360.571	4.5
361.359	3.5
362.146	4.5
362.933	1.5
363.72	3.5
364.507	2.5
365.294	3.5
366.081	5.5
366.867	5.5
367.654	4.5
368.44	4.5
369.227	1.5
370.013	3.5
370.8	2.5
371.586	1.5
372.372	4.5
373.158	1.5
373.944	3.5
374.73	2.5
375.516	3.5
376.302	-0.5
377.088	2.5
377.873	2.5
378.659	2.5
379.445	4.5
380.23	4.5
381.015	3.5
381.801	2.5
382.586	3.5
383.371	2.5
384.156	3.5
384.941	3.5
385.726	2.5
386.511	2.5
387.296	2.5
388.08	4.5
388.865	1.5
389.649	4.5
390.434	3.5
391.218	4.5
392.003	3.5
392.787	5.5
393.571	0.5
394.355	2.5
395.139	3.5
395.923	1.5
396.707	2.5
397.491	4.5
398.274	4.5
399.058	5.5
399.842	4.5
400.625	4.5
401.408	2.5
402.192	3.5
402.975	2.5
403.758	1.5
404.541	4.5
405.324	2.5
406.107	2.5
406.89	4.5
407.673	3.5
408.456	5.5
409.238	3.5
410.021	6.5
410.803	4.5
411.586	3.5
412.368	3.5
413.151	6.5
413.933	4.5
414.715	4.5
415.497	4.5
416.279	5.5
417.061	5.5
417.843	5.5
418.624	5.5
419.406	7.5
420.188	7.5
420.969	5.5
421.751	6.5
422.532	6.5
423.313	6.5
424.095	5.5
424.876	4.5
425.657	6.5
426.438	6.5
427.219	6.5
428	6.5
428.78	6.5
429.561	7.5
430.342	5.5
431.122	5.5
431.903	7.5
432.683	7.5
433.464	8.5
434.244	10.5
435.024	8.5
435.804	8.5
436.584	9.5
437.364	9.5
438.144	9.5
438.924	11.5
439.704	12.5
440.483	11.5
441.263	13.5
442.042	10.5
442.822	13.5
443.601	14.5
444.38	13.5
445.16	16.5
445.939	13.5
446.718	19.5
447.497	19.5
448.276	20.5
449.054	25.5
449.833	24.5
450.612	27.5
451.391	24.5
452.169	32.5
452.948	31.5
453.726	34.5
454.504	40.5
455.282	42.5
456.061	50.5
456.839	49.5
457.617	57.5
458.395	63.5
459.172	68.5
459.95	76.5
460.728	87.5
461.506	99.5
462.283	105.5
463.061	117.5
463.838	137.5
464.615	145.5
465.393	160.5
466.17	178.5
466.947	205.5
467.724	222.5
468.501	255.5
469.278	277.5
470.055	314.5
470.831	352.5
471.608	372.5
472.385	427.5
473.161	473.5
473.938	521.5
474.714	587.5
475.49	639.5
476.266	708.5
477.043	791.5
477.819	865.5
478.595	954.5
479.371	1050.5
480.146	1164.5
480.922	1278.5
481.698	1409.5
482.473	1537.5
483.249	1710.5
484.024	1877.5
484.8	2044.5
485.575	2266.5
486.35	2458.5
487.126	2720.5
487.901	2983.5
488.676	3255.5
489.451	3595.5
490.225	3929.5
491	4301.5
491.775	4737.5
492.55	5181.5
493.324	5627.5
494.099	6155.5
494.873	6670.5
495.647	7264.5
496.422	7888.5
497.196	8554.5
497.97	9241.5
498.744	9922.5
499.518	10560.5
500.292	11310.5
501.066	12051.5
501.839	12721.5
502.613	13278.5
503.387	13941.5
504.16	14445.5
504.934	14967.5
505.707	15360.5
506.48	15676.5
507.253	15875.5
508.027	15973.5
508.8	16030.5
509.573	15933.5
510.346	15764.5
511.118	15503.5
511.891	15189.5
512.664	14773.5
513.437	14283.5
514.209	13805.5
514.982	13255.5
515.754	12760.5
516.526	12275.5
517.298	11649.5
518.071	11181.5
518.843	10671.5
519.615	10269.5
520.387	9872.5
521.159	9477.5
521.93	9077.5
522.702	8706.5
523.474	8376.5
524.245	8032.5
525.017	7726.5
525.788	7403.5
526.56	7122.5
527.331	6802.5
528.102	6527.5
528.873	6233.5
529.644	5985.5
530.415	5725.5
531.186	5449.5
531.957	5195.5
532.728	4943.5
533.498	4675.5
534.269	4423.5
535.039	4151.5
535.81	3952.5
536.58	3736.5
537.351	3541.5
538.121	3339.5
538.891	3181.5
539.661	2993.5
540.431	2820.5
541.201	2682.5
541.971	2549.5
542.741	2393.5
543.51	2274.5
544.28	2166.5
545.05	2038.5
545.819	1967.5
546.588	1848.5
547.358	1767.5
548.127	1665.5
548.896	1588.5
549.665	1503.5
550.434	1438.5
551.203	1350.5
551.972	1310.5
552.741	1224.5
553.51	1151.5
554.278	1108.5
555.047	1026.5
555.815	976.5
556.584	921.5
557.352	863.5
558.121	823.5
558.889	784.5
559.657	736.5
560.425	680.5
561.193	637.5
561.961	614.5
562.729	586.5
563.496	546.5
564.264	519.5
565.032	486.5
565.799	461.5
566.567	435.5
567.334	413.5
568.101	388.5
568.869	361.5
569.636	342.5
570.403	328.5
571.17	307.5
571.937	285.5
572.704	265.5
573.471	257.5
574.237	243.5
575.004	225.5
575.771	215.5
576.537	203.5
577.303	189.5
578.07	180.5
578.836	168.5
579.602	155.5
580.368	154.5
581.134	143.5
581.9	137.5
582.666	128.5
583.432	119.5
584.198	109.5
584.964	109.5
585.729	99.5
586.495	96.5
587.26	93.5
588.025	86.5
588.791	78.5
589.556	73.5
590.321	71.5
591.086	68.5
591.851	68.5
592.616	59.5
593.381	61.5
594.146	57.5
594.911	50.5
595.675	55.5
596.44	49.5
597.204	48.5
597.969	43.5
598.733	40.5
599.497	40.5
600.261	40.5
601.025	39.5
601.79	34.5
602.553	30.5
603.317	32.5
604.081	29.5
604.845	30.5
605.609	28.5
606.372	22.5
607.136	25.5
607.899	26.5
608.662	25.5
609.426	24.5
610.189	23.5
610.952	21.5
611.715	18.5
612.478	18.5
613.241	18.5
614.004	17.5
614.767	15.5
615.529	19.5
616.292	17.5
617.055	14.5
617.817	13.5
618.579	11.5
619.342	11.5
620.104	11.5
620.866	12.5
621.628	12.5
622.39	12.5
623.152	11.5
623.914	9.5
624.676	10.5
625.438	8.5
626.199	12.5
626.961	8.5
627.722	8.5
628.484	8.5
629.245	11.5
630.006	10.5
630.768	9.5
631.529	8.5
632.29	5.5
633.051	6.5
633.812	7.5
634.573	7.5
635.333	6.5
636.094	3.5
636.855	9.5
637.615	7.5
638.376	7.5
639.136	4.5
639.896	4.5
640.657	6.5
641.417	2.5
642.177	5.5
642.937	5.5
643.697	4.5
644.457	5.5
645.216	6.5
645.976	4.5
646.736	6.5
647.495	5.5
648.255	4.5
649.014	4.5
649.774	4.5
650.533	5.5
651.292	5.5
652.051	4.5
652.81	4.5
653.569	2.5
654.328	3.5
655.087	4.5
655.846	2.5
656.604	2.5
657.363	4.5
658.121	7.5
658.88	1.5
659.638	3.5
660.397	4.5
661.155	0.5
661.913	3.5
662.671	2.5
663.429	4.5
664.187	2.5
664.945	4.5
665.703	1.5
666.46	4.5
667.218	3.5
667.976	1.5
668.733	2.5
669.49	3.5
670.248	3.5
671.005	2.5
671.762	4.5
672.519	3.5
673.276	1.5
674.033	2.5
674.79	0.5
675.547	5.5
676.304	1.5
677.06	2.5
677.817	4.5
678.574	4.5
679.33	3.5
680.086	2.5
680.843	2.5
681.599	2.5
682.355	0.5
683.111	2.5
683.867	1.5
684.623	1.5
685.379	3.5
686.135	3.5
686.89	2.5
687.646	1.5
688.402	4.5
689.157	1.5
689.912	1.5
690.668	2.5
691.423	3.5
692.178	1.5
692.933	3.5
693.688	1.5
694.443	2.5
695.198	4.5
695.953	2.5
696.708	3.5
697.462	3.5
698.217	2.5
698.972	2.5
699.726	2.5
700.48	1.5
701.235	-1.5
701.989	1.5
702.743	2.5
703.497	1.5
704.251	2.5
705.005	2.5
705.759	3.5
706.513	4.5
707.266	3.5
708.02	-1.5
708.774	1.5
709.527	1.5
710.28	2.5
711.034	1.5
711.787	2.5
712.54	1.5
713.293	1.5
714.046	2.5
714.799	0.5
715.552	1.5
716.305	0.5
717.058	1.5
717.81	1.5
718.563	4.5
719.315	-0.5
720.068	1.5
720.82	2.5
721.573	3.5
722.325	2.5
723.077	2.5
723.829	2.5
724.581	2.5
725.333	1.5
726.085	1.5
726.836	1.5
727.588	2.5
728.34	1.5
729.091	3.5
729.843	1.5
730.594	1.5
731.346	3.5
732.097	4.5
732.848	1.5
733.599	2.5
734.35	2.5
735.101	2.5
735.852	2.5
736.603	2.5
737.354	1.5
738.104	3.5
738.855	0.5
739.605	1.5
740.356	1.5
741.106	0.5
741.856	0.5
742.607	2.5
743.357	1.5
744.107	3.5
744.857	1.5
745.607	2.5
746.357	2.5
747.106	2.5
747.856	2.5
748.606	2.5
749.355	2.5
750.105	2.5
750.854	3.5
751.603	2.5
752.353	3.5
753.102	5.5
753.851	3.5
754.6	5.5
755.349	2.5
756.098	2.5
756.847	2.5
757.595	3.5
758.344	3.5
759.093	3.5
759.841	1.5
760.589	4.5
761.338	5.5
762.086	4.5
762.834	3.5
763.582	2.5
764.331	1.5
765.079	4.5
765.826	2.5
766.574	2.5
767.322	3.5
768.07	5.5
768.817	2.5
769.565	4.5
770.312	4.5
771.06	1.5
771.807	2.5
772.554	6.5
773.302	2.5
774.049	5.5
774.796	5.5
775.543	2.5
776.29	4.5
777.036	4.5
777.783	5.5
778.53	4.5
779.276	4.5
780.023	5.5
780.769	4.5
781.516	6.5
782.262	3.5
783.008	7.5
783.754	5.5
784.5	3.5
785.246	5.5
785.992	4.5
786.738	5.5
787.484	5.5
788.23	7.5
788.975	7.5
789.721	1.5
790.466	5.5
791.212	7.5
791.957	3.5
792.702	6.5
793.447	5.5
794.193	6.5
794.938	4.5
795.683	2.5
796.427	5.5
797.172	3.5
797.917	7.5
798.662	5.5
799.406	4.5
800.151	4.5
800.895	6.5
801.64	3.5
802.384	6.5
803.128	4.5
803.872	6.5
804.616	4.5
805.36	4.5
806.104	4.5
806.848	4.5
807.592	2.5
808.336	4.5
809.079	5.5
809.823	2.5
810.566	3.5
811.31	2.5
812.053	3.5
812.796	2.5
813.539	2.5
814.283	4.5
815.026	4.5
815.769	4.5
816.511	2.5
817.254	2.5
817.997	1.5
818.74	3.5
819.482	0.5
820.225	2.5
820.967	1.5
821.71	4.5
822.452	0.5
823.194	3.5
823.936	2.5
824.678	5.5
825.42	3.5
826.162	2.5
826.904	4.5
827.646	2.5
828.388	4.5
829.129	5.5
829.871	1.5
830.612	1.5
831.354	1.5
832.095	2.5
832.836	-0.5
833.577	3.5
834.319	2.5
835.06	2.5
835.801	2.5
836.542	2.5
837.282	4.5
838.023	2.5
838.764	2.5
839.504	1.5
840.245	-0.5
840.985	3.5
841.726	3.5
842.466	2.5
843.206	-0.5
843.946	2.5
844.687	1.5
845.427	2.5
846.166	-0.5
846.906	3.5
847.646	2.5
848.386	1.5
849.125	2.5
849.865	3.5
850.605	2.5
851.344	3.5
852.083	2.5
852.823	1.5
853.562	1.5
854.301	0.5
855.04	1.5
855.779	2.5
856.518	1.5
857.257	1.5
857.995	5.5
858.734	1.5
859.473	1.5
860.211	4.5
860.95	0.5
861.688	0.5
862.426	3.5
863.165	1.5
863.903	1.5
864.641	3.5
865.379	1.5
866.117	1.5
866.855	1.5
867.593	-0.5
868.33	1.5
869.068	2.5
869.806	1.5
870.543	0.5
871.28	1.5
872.018	0.5
872.755	-0.5
873.492	2.5
874.229	-1.5
874.967	0.5
875.703	0.5
876.44	0.5
877.177	2.5
877.914	1.5
878.651	2.5
879.387	2.5
880.124	-0.5
880.86	1.5
881.597	-0.5
882.333	1.5
883.069	-0.5
883.806	1.5
884.542	1.5
885.278	-0.5
886.014	1.5
886.749	1.5
887.485	0.5
888.221	-0.5
888.957	1.5
889.692	0.5
890.428	1.5
891.163	-0.5
891.899	0.5
892.634	1.5
893.369	0.5
894.104	2.5
894.839	0.5
895.574	0.5
896.309	0.5
897.044	0.5
897.779	2.5
898.514	1.5
899.248	0.5
899.983	0.5
900.717	1.5
901.452	0.5
902.186	0.5
902.92	2.5
903.654	-0.5
904.389	-0.5
905.123	1.5
905.857	0.5
906.59	0.5
907.324	-1.5
908.058	-0.5
908.792	-1.5
909.525	0.5
910.259	1.5
910.992	1.5
911.726	1.5
912.459	-0.5
913.192	1.5
913.925	-0.5
914.658	1.5
915.391	0.5
916.124	1.5
916.857	1.5
917.59	0.5
918.323	-0.5
919.055	1.5
919.788	1.5
920.521	0.5
921.253	-1.5
921.985	2.5
922.718	0.5
923.45	1.5
924.182	-0.5
924.914	-1.5
925.646	-1.5
926.378	-1.5
927.11	-2.5
927.841	1.5
928.573	0.5
929.305	0.5
930.036	1.5
930.768	1.5
931.499	-1.5
932.23	0.5
932.962	-0.5
933.693	1.5
934.424	1.5
935.155	0.5
935.886	1.5
936.617	0.5
937.348	0.5
938.078	-1.5
938.809	-1.5
939.54	0.5
940.27	-1.5
941.001	-0.5
941.731	0.5
942.461	2.5
943.191	0.5
943.922	0.5
944.652	-1.5
945.382	-0.5
946.112	1.5
946.841	2.5
947.571	-0.5
948.301	0.5
949.031	2.5
949.76	0.5
950.49	1.5
951.219	0.5
951.948	-1.5
952.678	-0.5
953.407	-1.5
954.136	1.5
954.865	1.5
955.594	0.5
956.323	-0.5
957.052	0.5
957.78	-1.5
958.509	-0.5
959.238	-1.5
959.966	-1.5
960.695	2.5
961.423	2.5
962.151	0.5
962.88	0.5
963.608	-1.5
964.336	1.5
965.064	0.5
965.792	1.5
966.52	-0.5
967.247	-0.5
967.975	-0.5
968.703	-0.5
969.43	0.5
970.158	1.5
970.885	-1.5
971.613	2.5
972.34	1.5
973.067	2.5
973.794	-1.5
974.521	1.5
975.248	-2.5
975.975	0.5
976.702	-0.5
977.429	1.5
978.156	0.5
978.882	-0.5
979.609	1.5
980.335	1.5
981.062	-0.5
981.788	0.5
982.514	0.5
983.24	0.5
983.967	-1.5
984.693	2.5
985.419	-1.5
986.144	1.5
986.87	-0.5
987.596	-0.5
988.322	-0.5
989.047	0.5
989.773	3.5
990.498	1.5
991.224	1.5
991.949	1.5
992.674	0.5
993.399	2.5
994.124	0.5
994.849	0.5
995.574	-0.5
996.299	1.5
997.024	3.5
997.749	-1.5
998.473	0.5
999.198	0.5
999.922	0.5
1000.647	-0.5
1001.371	4.5
1002.095	-1.5
1002.82	-2.5
1003.544	-1.5
1004.268	1.5
1004.992	1.5
1005.716	0.5
1006.439	-1.5
1007.163	0.5
1007.887	-0.5
1008.611	-0.5
1009.334	-1.5
1010.058	0.5
1010.781	1.5
1011.504	-1.5
1012.228	0.5
1012.951	1.5
1013.674	-0.5
1014.397	-1.5
1015.12	1.5
