节点500_145_QEPB04081__704__11-40-07-673.txt的数据

Date: Wed Nov 12 11:40:07 CST 2025
User: PC
Spectrometer: QEPB0408
触发模式: 0
积分时间 (秒): 1.000000E-2
Scans to average: 1
启用暗噪声校正: true
启用非线性校正: false
滑动平均宽度: 0
X轴模式: Wavelengths
Number of Pixels in Spectrum: 1044
>>>>>Begin Spectral Data<<<<<
220.843	1.75
221.644	-1.25
222.444	0.75
223.244	1.75
224.045	0.75
224.845	1.75
225.645	0.75
226.445	-1.25
227.245	0.75
228.045	-0.25
228.845	-0.25
229.645	1.75
230.444	-0.25
231.244	1.75
232.043	0.75
232.843	1.75
233.642	0.75
234.442	2.75
235.241	-0.25
236.04	-0.25
236.839	1.75
237.638	-0.25
238.437	0.75
239.236	1.75
240.035	1.75
240.833	1.75
241.632	0.75
242.43	2.75
243.229	1.75
244.027	0.75
244.826	2.75
245.624	1.75
246.422	2.75
247.22	0.75
248.018	1.75
248.816	2.75
249.614	1.75
250.412	0.75
251.21	1.75
252.007	1.75
252.805	1.75
253.602	3.75
254.4	3.75
255.197	2.75
255.994	0.75
256.791	4.75
257.589	4.75
258.386	3.75
259.183	4.75
259.979	3.75
260.776	3.75
261.573	3.75
262.37	5.75
263.166	4.75
263.963	2.75
264.759	2.75
265.556	5.75
266.352	3.75
267.148	4.75
267.944	7.75
268.74	7.75
269.536	6.75
270.332	6.75
271.128	6.75
271.924	4.75
272.719	8.75
273.515	4.75
274.311	7.75
275.106	6.75
275.901	8.75
276.697	7.75
277.492	8.75
278.287	9.75
279.082	6.75
279.877	9.75
280.672	7.75
281.467	9.75
282.262	9.75
283.056	10.75
283.851	10.75
284.646	10.75
285.44	8.75
286.234	10.75
287.029	10.75
287.823	9.75
288.617	9.75
289.411	9.75
290.205	10.75
290.999	10.75
291.793	9.75
292.587	10.75
293.381	8.75
294.174	9.75
294.968	10.75
295.761	9.75
296.555	6.75
297.348	7.75
298.141	9.75
298.935	8.75
299.728	6.75
300.521	10.75
301.314	5.75
302.107	9.75
302.899	6.75
303.692	9.75
304.485	7.75
305.277	7.75
306.07	7.75
306.862	10.75
307.655	9.75
308.447	6.75
309.239	8.75
310.031	8.75
310.823	6.75
311.615	7.75
312.407	6.75
313.199	6.75
313.991	2.75
314.783	7.75
315.574	4.75
316.366	5.75
317.157	6.75
317.949	4.75
318.74	8.75
319.531	3.75
320.322	4.75
321.113	4.75
321.904	3.75
322.695	4.75
323.486	5.75
324.277	6.75
325.068	5.75
325.858	4.75
326.649	5.75
327.439	2.75
328.23	3.75
329.02	3.75
329.81	4.75
330.6	3.75
331.391	2.75
332.181	3.75
332.971	3.75
333.76	3.75
334.55	5.75
335.34	3.75
336.13	4.75
336.919	1.75
337.709	4.75
338.498	3.75
339.287	5.75
340.077	2.75
340.866	1.75
341.655	5.75
342.444	2.75
343.233	3.75
344.022	2.75
344.811	4.75
345.6	3.75
346.388	4.75
347.177	5.75
347.965	3.75
348.754	2.75
349.542	2.75
350.33	3.75
351.119	4.75
351.907	1.75
352.695	4.75
353.483	1.75
354.271	2.75
355.059	2.75
355.846	3.75
356.634	3.75
357.422	1.75
358.209	1.75
358.997	2.75
359.784	1.75
360.571	3.75
361.359	3.75
362.146	2.75
362.933	1.75
363.72	3.75
364.507	1.75
365.294	3.75
366.081	3.75
366.867	3.75
367.654	0.75
368.44	2.75
369.227	1.75
370.013	4.75
370.8	2.75
371.586	2.75
372.372	2.75
373.158	1.75
373.944	2.75
374.73	1.75
375.516	2.75
376.302	3.75
377.088	2.75
377.873	2.75
378.659	3.75
379.445	2.75
380.23	1.75
381.015	2.75
381.801	4.75
382.586	2.75
383.371	4.75
384.156	2.75
384.941	3.75
385.726	2.75
386.511	0.75
387.296	4.75
388.08	0.75
388.865	3.75
389.649	2.75
390.434	3.75
391.218	2.75
392.003	1.75
392.787	3.75
393.571	2.75
394.355	2.75
395.139	3.75
395.923	4.75
396.707	5.75
397.491	1.75
398.274	3.75
399.058	4.75
399.842	5.75
400.625	3.75
401.408	3.75
402.192	4.75
402.975	2.75
403.758	4.75
404.541	2.75
405.324	2.75
406.107	3.75
406.89	3.75
407.673	4.75
408.456	3.75
409.238	5.75
410.021	2.75
410.803	3.75
411.586	5.75
412.368	3.75
413.151	3.75
413.933	2.75
414.715	4.75
415.497	5.75
416.279	2.75
417.061	2.75
417.843	3.75
418.624	3.75
419.406	4.75
420.188	6.75
420.969	4.75
421.751	4.75
422.532	4.75
423.313	5.75
424.095	4.75
424.876	7.75
425.657	5.75
426.438	7.75
427.219	7.75
428	6.75
428.78	6.75
429.561	6.75
430.342	6.75
431.122	7.75
431.903	7.75
432.683	7.75
433.464	6.75
434.244	8.75
435.024	9.75
435.804	6.75
436.584	9.75
437.364	9.75
438.144	7.75
438.924	11.75
439.704	9.75
440.483	12.75
441.263	12.75
442.042	12.75
442.822	14.75
443.601	16.75
444.38	16.75
445.16	16.75
445.939	14.75
446.718	18.75
447.497	22.75
448.276	19.75
449.054	23.75
449.833	21.75
450.612	25.75
451.391	28.75
452.169	30.75
452.948	34.75
453.726	39.75
454.504	42.75
455.282	47.75
456.061	54.75
456.839	59.75
457.617	61.75
458.395	67.75
459.172	79.75
459.95	84.75
460.728	92.75
461.506	107.75
462.283	115.75
463.061	132.75
463.838	142.75
464.615	158.75
465.393	172.75
466.17	202.75
466.947	218.75
467.724	242.75
468.501	270.75
469.278	298.75
470.055	330.75
470.831	361.75
471.608	400.75
472.385	452.75
473.161	501.75
473.938	529.75
474.714	599.75
475.49	663.75
476.266	728.75
477.043	804.75
477.819	870.75
478.595	965.75
479.371	1068.75
480.146	1167.75
480.922	1272.75
481.698	1386.75
482.473	1526.75
483.249	1676.75
484.024	1821.75
484.8	1981.75
485.575	2189.75
486.35	2370.75
487.126	2600.75
487.901	2849.75
488.676	3095.75
489.451	3369.75
490.225	3699.75
491	3991.75
491.775	4375.75
492.55	4756.75
493.324	5192.75
494.099	5651.75
494.873	6126.75
495.647	6631.75
496.422	7172.75
497.196	7717.75
497.97	8294.75
498.744	8923.75
499.518	9598.75
500.292	10221.75
501.066	10842.75
501.839	11446.75
502.613	12030.75
503.387	12587.75
504.16	13169.75
504.934	13673.75
505.707	14083.75
506.48	14411.75
507.253	14664.75
508.027	14876.75
508.8	15035.75
509.573	14998.75
510.346	14923.75
511.118	14839.75
511.891	14580.75
512.664	14252.75
513.437	13933.75
514.209	13444.75
514.982	13118.75
515.754	12617.75
516.526	12143.75
517.298	11634.75
518.071	11179.75
518.843	10722.75
519.615	10318.75
520.387	9859.75
521.159	9454.75
521.93	9099.75
522.702	8754.75
523.474	8420.75
524.245	8087.75
525.017	7748.75
525.788	7446.75
526.56	7137.75
527.331	6826.75
528.102	6575.75
528.873	6321.75
529.644	6035.75
530.415	5795.75
531.186	5518.75
531.957	5264.75
532.728	5008.75
533.498	4779.75
534.269	4493.75
535.039	4283.75
535.81	4076.75
536.58	3860.75
537.351	3644.75
538.121	3408.75
538.891	3261.75
539.661	3078.75
540.431	2925.75
541.201	2767.75
541.971	2629.75
542.741	2482.75
543.51	2363.75
544.28	2242.75
545.05	2114.75
545.819	1998.75
546.588	1909.75
547.358	1814.75
548.127	1743.75
548.896	1641.75
549.665	1558.75
550.434	1491.75
551.203	1398.75
551.972	1332.75
552.741	1265.75
553.51	1195.75
554.278	1133.75
555.047	1080.75
555.815	1012.75
556.584	965.75
557.352	914.75
558.121	851.75
558.889	815.75
559.657	759.75
560.425	722.75
561.193	690.75
561.961	640.75
562.729	609.75
563.496	578.75
564.264	540.75
565.032	514.75
565.799	481.75
566.567	461.75
567.334	440.75
568.101	410.75
568.869	384.75
569.636	355.75
570.403	341.75
571.17	324.75
571.937	305.75
572.704	280.75
573.471	270.75
574.237	252.75
575.004	240.75
575.771	229.75
576.537	212.75
577.303	199.75
578.07	192.75
578.836	183.75
579.602	166.75
580.368	157.75
581.134	151.75
581.9	147.75
582.666	138.75
583.432	127.75
584.198	120.75
584.964	121.75
585.729	110.75
586.495	101.75
587.26	96.75
588.025	84.75
588.791	83.75
589.556	81.75
590.321	78.75
591.086	71.75
591.851	67.75
592.616	64.75
593.381	58.75
594.146	60.75
594.911	56.75
595.675	53.75
596.44	48.75
597.204	46.75
597.969	47.75
598.733	44.75
599.497	43.75
600.261	39.75
601.025	42.75
601.79	41.75
602.553	35.75
603.317	36.75
604.081	33.75
604.845	30.75
605.609	29.75
606.372	26.75
607.136	26.75
607.899	24.75
608.662	25.75
609.426	25.75
610.189	22.75
610.952	23.75
611.715	21.75
612.478	20.75
613.241	18.75
614.004	18.75
614.767	16.75
615.529	16.75
616.292	16.75
617.055	15.75
617.817	13.75
618.579	12.75
619.342	13.75
620.104	14.75
620.866	11.75
621.628	10.75
622.39	11.75
623.152	12.75
623.914	14.75
624.676	9.75
625.438	7.75
626.199	9.75
626.961	11.75
627.722	9.75
628.484	9.75
629.245	9.75
630.006	9.75
630.768	8.75
631.529	9.75
632.29	7.75
633.051	7.75
633.812	10.75
634.573	7.75
635.333	8.75
636.094	7.75
636.855	3.75
637.615	5.75
638.376	6.75
639.136	7.75
639.896	5.75
640.657	7.75
641.417	3.75
642.177	6.75
642.937	6.75
643.697	5.75
644.457	6.75
645.216	3.75
645.976	5.75
646.736	7.75
647.495	4.75
648.255	5.75
649.014	5.75
649.774	2.75
650.533	2.75
651.292	4.75
652.051	3.75
652.81	5.75
653.569	5.75
654.328	4.75
655.087	0.75
655.846	4.75
656.604	4.75
657.363	5.75
658.121	1.75
658.88	5.75
659.638	3.75
660.397	5.75
661.155	3.75
661.913	3.75
662.671	6.75
663.429	3.75
664.187	5.75
664.945	2.75
665.703	4.75
666.46	3.75
667.218	2.75
667.976	4.75
668.733	2.75
669.49	1.75
670.248	3.75
671.005	3.75
671.762	1.75
672.519	3.75
673.276	1.75
674.033	0.75
674.79	1.75
675.547	0.75
676.304	2.75
677.06	1.75
677.817	3.75
678.574	3.75
679.33	2.75
680.086	1.75
680.843	-0.25
681.599	2.75
682.355	1.75
683.111	1.75
683.867	0.75
684.623	1.75
685.379	2.75
686.135	2.75
686.89	1.75
687.646	1.75
688.402	3.75
689.157	1.75
689.912	1.75
690.668	1.75
691.423	0.75
692.178	2.75
692.933	2.75
693.688	2.75
694.443	0.75
695.198	3.75
695.953	1.75
696.708	0.75
697.462	3.75
698.217	0.75
698.972	2.75
699.726	3.75
700.48	2.75
701.235	2.75
701.989	-1.25
702.743	2.75
703.497	0.75
704.251	3.75
705.005	1.75
705.759	2.75
706.513	3.75
707.266	2.75
708.02	4.75
708.774	1.75
709.527	1.75
710.28	2.75
711.034	1.75
711.787	2.75
712.54	3.75
713.293	1.75
714.046	1.75
714.799	2.75
715.552	2.75
716.305	1.75
717.058	2.75
717.81	-1.25
718.563	2.75
719.315	3.75
720.068	2.75
720.82	2.75
721.573	2.75
722.325	4.75
723.077	2.75
723.829	1.75
724.581	1.75
725.333	1.75
726.085	2.75
726.836	1.75
727.588	2.75
728.34	0.75
729.091	3.75
729.843	2.75
730.594	2.75
731.346	4.75
732.097	2.75
732.848	2.75
733.599	3.75
734.35	2.75
735.101	2.75
735.852	0.75
736.603	2.75
737.354	0.75
738.104	2.75
738.855	0.75
739.605	1.75
740.356	1.75
741.106	2.75
741.856	3.75
742.607	1.75
743.357	3.75
744.107	2.75
744.857	2.75
745.607	1.75
746.357	3.75
747.106	2.75
747.856	1.75
748.606	4.75
749.355	-0.25
750.105	2.75
750.854	2.75
751.603	2.75
752.353	3.75
753.102	2.75
753.851	3.75
754.6	0.75
755.349	3.75
756.098	5.75
756.847	2.75
757.595	1.75
758.344	4.75
759.093	3.75
759.841	2.75
760.589	5.75
761.338	3.75
762.086	3.75
762.834	4.75
763.582	3.75
764.331	3.75
765.079	3.75
765.826	4.75
766.574	2.75
767.322	4.75
768.07	2.75
768.817	3.75
769.565	2.75
770.312	2.75
771.06	4.75
771.807	3.75
772.554	4.75
773.302	3.75
774.049	3.75
774.796	1.75
775.543	3.75
776.29	4.75
777.036	4.75
777.783	5.75
778.53	4.75
779.276	3.75
780.023	3.75
780.769	3.75
781.516	6.75
782.262	4.75
783.008	5.75
783.754	5.75
784.5	5.75
785.246	4.75
785.992	2.75
786.738	6.75
787.484	4.75
788.23	4.75
788.975	4.75
789.721	3.75
790.466	5.75
791.212	4.75
791.957	5.75
792.702	5.75
793.447	4.75
794.193	4.75
794.938	3.75
795.683	3.75
796.427	2.75
797.172	5.75
797.917	5.75
798.662	3.75
799.406	6.75
800.151	1.75
800.895	4.75
801.64	3.75
802.384	1.75
803.128	3.75
803.872	5.75
804.616	4.75
805.36	2.75
806.104	3.75
806.848	4.75
807.592	4.75
808.336	4.75
809.079	3.75
809.823	3.75
810.566	3.75
811.31	3.75
812.053	3.75
812.796	1.75
813.539	2.75
814.283	1.75
815.026	3.75
815.769	2.75
816.511	3.75
817.254	4.75
817.997	4.75
818.74	2.75
819.482	1.75
820.225	2.75
820.967	4.75
821.71	4.75
822.452	2.75
823.194	2.75
823.936	3.75
824.678	1.75
825.42	1.75
826.162	3.75
826.904	4.75
827.646	2.75
828.388	2.75
829.129	1.75
829.871	1.75
830.612	0.75
831.354	2.75
832.095	2.75
832.836	1.75
833.577	3.75
834.319	3.75
835.06	2.75
835.801	3.75
836.542	1.75
837.282	1.75
838.023	1.75
838.764	3.75
839.504	2.75
840.245	3.75
840.985	3.75
841.726	1.75
842.466	1.75
843.206	4.75
843.946	1.75
844.687	3.75
845.427	2.75
846.166	0.75
846.906	0.75
847.646	-0.25
848.386	1.75
849.125	2.75
849.865	2.75
850.605	2.75
851.344	2.75
852.083	1.75
852.823	2.75
853.562	2.75
854.301	2.75
855.04	0.75
855.779	-1.25
856.518	1.75
857.257	2.75
857.995	2.75
858.734	2.75
859.473	1.75
860.211	2.75
860.95	1.75
861.688	2.75
862.426	2.75
863.165	1.75
863.903	-0.25
864.641	1.75
865.379	1.75
866.117	1.75
866.855	-0.25
867.593	2.75
868.33	1.75
869.068	-0.25
869.806	-1.25
870.543	4.75
871.28	0.75
872.018	0.75
872.755	2.75
873.492	1.75
874.229	0.75
874.967	2.75
875.703	-0.25
876.44	2.75
877.177	3.75
877.914	-1.25
878.651	2.75
879.387	0.75
880.124	2.75
880.86	0.75
881.597	1.75
882.333	0.75
883.069	-0.25
883.806	-0.25
884.542	2.75
885.278	0.75
886.014	1.75
886.749	-0.25
887.485	-0.25
888.221	1.75
888.957	0.75
889.692	2.75
890.428	-0.25
891.163	0.75
891.899	1.75
892.634	1.75
893.369	0.75
894.104	0.75
894.839	1.75
895.574	0.75
896.309	2.75
897.044	-0.25
897.779	0.75
898.514	-0.25
899.248	1.75
899.983	3.75
900.717	1.75
901.452	1.75
902.186	-1.25
902.92	1.75
903.654	2.75
904.389	2.75
905.123	0.75
905.857	0.75
906.59	0.75
907.324	-1.25
908.058	1.75
908.792	3.75
909.525	1.75
910.259	0.75
910.992	1.75
911.726	0.75
912.459	0.75
913.192	1.75
913.925	-0.25
914.658	-0.25
915.391	1.75
916.124	-0.25
916.857	-1.25
917.59	1.75
918.323	-0.25
919.055	0.75
919.788	2.75
920.521	0.75
921.253	1.75
921.985	-0.25
922.718	1.75
923.45	0.75
924.182	0.75
924.914	-2.25
925.646	-0.25
926.378	-0.25
927.11	-0.25
927.841	1.75
928.573	0.75
929.305	-0.25
930.036	1.75
930.768	-1.25
931.499	-0.25
932.23	-0.25
932.962	0.75
933.693	0.75
934.424	0.75
935.155	-1.25
935.886	-1.25
936.617	-2.25
937.348	1.75
938.078	-0.25
938.809	-0.25
939.54	1.75
940.27	0.75
941.001	0.75
941.731	-2.25
942.461	2.75
943.191	-1.25
943.922	-1.25
944.652	0.75
945.382	-1.25
946.112	1.75
946.841	0.75
947.571	0.75
948.301	0.75
949.031	0.75
949.76	-1.25
950.49	-0.25
951.219	0.75
951.948	0.75
952.678	0.75
953.407	0.75
954.136	-0.25
954.865	-0.25
955.594	1.75
956.323	2.75
957.052	-1.25
957.78	0.75
958.509	0.75
959.238	0.75
959.966	1.75
960.695	0.75
961.423	2.75
962.151	1.75
962.88	1.75
963.608	-0.25
964.336	-0.25
965.064	0.75
965.792	1.75
966.52	0.75
967.247	1.75
967.975	-0.25
968.703	1.75
969.43	3.75
970.158	-1.25
970.885	-0.25
971.613	1.75
972.34	-0.25
973.067	0.75
973.794	1.75
974.521	0.75
975.248	0.75
975.975	-0.25
976.702	-0.25
977.429	-1.25
978.156	-0.25
978.882	1.75
979.609	-1.25
980.335	-0.25
981.062	-1.25
981.788	2.75
982.514	0.75
983.24	0.75
983.967	1.75
984.693	-0.25
985.419	-0.25
986.144	0.75
986.87	2.75
987.596	0.75
988.322	2.75
989.047	0.75
989.773	0.75
990.498	-1.25
991.224	-1.25
991.949	-1.25
992.674	1.75
993.399	0.75
994.124	-1.25
994.849	-0.25
995.574	0.75
996.299	-1.25
997.024	0.75
997.749	0.75
998.473	1.75
999.198	0.75
999.922	1.75
1000.647	1.75
1001.371	4.75
1002.095	-1.25
1002.82	1.75
1003.544	-1.25
1004.268	0.75
1004.992	-0.25
1005.716	0.75
1006.439	-0.25
1007.163	0.75
1007.887	0.75
1008.611	0.75
1009.334	2.75
1010.058	0.75
1010.781	2.75
1011.504	-0.25
1012.228	-1.25
1012.951	0.75
1013.674	-1.25
1014.397	-1.25
1015.12	-2.25
