节点500_145_QEPB04081__150__11-31-20-603.txt的数据

Date: Wed Nov 12 11:31:20 CST 2025
User: PC
Spectrometer: QEPB0408
触发模式: 0
积分时间 (秒): 1.000000E-2
Scans to average: 1
启用暗噪声校正: true
启用非线性校正: false
滑动平均宽度: 0
X轴模式: Wavelengths
Number of Pixels in Spectrum: 1044
>>>>>Begin Spectral Data<<<<<
220.843	2.12
221.644	1.12
222.444	0.12
223.244	0.12
224.045	0.12
224.845	1.12
225.645	2.12
226.445	-0.88
227.245	0.12
228.045	1.12
228.845	2.12
229.645	1.12
230.444	3.12
231.244	2.12
232.043	1.12
232.843	1.12
233.642	0.12
234.442	1.12
235.241	1.12
236.04	3.12
236.839	3.12
237.638	2.12
238.437	4.12
239.236	1.12
240.035	2.12
240.833	2.12
241.632	4.12
242.43	1.12
243.229	3.12
244.027	3.12
244.826	5.12
245.624	6.12
246.422	2.12
247.22	4.12
248.018	3.12
248.816	4.12
249.614	4.12
250.412	3.12
251.21	4.12
252.007	4.12
252.805	3.12
253.602	3.12
254.4	2.12
255.197	3.12
255.994	3.12
256.791	4.12
257.589	2.12
258.386	3.12
259.183	8.12
259.979	4.12
260.776	5.12
261.573	5.12
262.37	7.12
263.166	5.12
263.963	7.12
264.759	7.12
265.556	4.12
266.352	6.12
267.148	9.12
267.944	7.12
268.74	8.12
269.536	8.12
270.332	7.12
271.128	8.12
271.924	9.12
272.719	8.12
273.515	9.12
274.311	11.12
275.106	10.12
275.901	10.12
276.697	10.12
277.492	12.12
278.287	12.12
279.082	13.12
279.877	12.12
280.672	11.12
281.467	12.12
282.262	12.12
283.056	14.12
283.851	10.12
284.646	10.12
285.44	13.12
286.234	11.12
287.029	16.12
287.823	10.12
288.617	12.12
289.411	11.12
290.205	12.12
290.999	10.12
291.793	12.12
292.587	14.12
293.381	10.12
294.174	13.12
294.968	10.12
295.761	12.12
296.555	11.12
297.348	9.12
298.141	10.12
298.935	12.12
299.728	11.12
300.521	12.12
301.314	10.12
302.107	10.12
302.899	8.12
303.692	10.12
304.485	9.12
305.277	10.12
306.07	10.12
306.862	8.12
307.655	8.12
308.447	8.12
309.239	11.12
310.031	8.12
310.823	7.12
311.615	5.12
312.407	7.12
313.199	8.12
313.991	8.12
314.783	7.12
315.574	7.12
316.366	7.12
317.157	7.12
317.949	6.12
318.74	5.12
319.531	4.12
320.322	3.12
321.113	6.12
321.904	4.12
322.695	6.12
323.486	5.12
324.277	6.12
325.068	6.12
325.858	6.12
326.649	5.12
327.439	3.12
328.23	4.12
329.02	4.12
329.81	5.12
330.6	6.12
331.391	4.12
332.181	5.12
332.971	6.12
333.76	5.12
334.55	2.12
335.34	6.12
336.13	6.12
336.919	5.12
337.709	6.12
338.498	5.12
339.287	5.12
340.077	4.12
340.866	4.12
341.655	5.12
342.444	2.12
343.233	4.12
344.022	4.12
344.811	5.12
345.6	5.12
346.388	6.12
347.177	3.12
347.965	4.12
348.754	4.12
349.542	2.12
350.33	5.12
351.119	4.12
351.907	4.12
352.695	3.12
353.483	5.12
354.271	6.12
355.059	4.12
355.846	6.12
356.634	6.12
357.422	4.12
358.209	5.12
358.997	3.12
359.784	7.12
360.571	2.12
361.359	6.12
362.146	4.12
362.933	5.12
363.72	5.12
364.507	4.12
365.294	3.12
366.081	3.12
366.867	5.12
367.654	2.12
368.44	5.12
369.227	5.12
370.013	4.12
370.8	6.12
371.586	3.12
372.372	4.12
373.158	3.12
373.944	3.12
374.73	4.12
375.516	4.12
376.302	4.12
377.088	2.12
377.873	6.12
378.659	3.12
379.445	3.12
380.23	3.12
381.015	4.12
381.801	3.12
382.586	3.12
383.371	4.12
384.156	3.12
384.941	5.12
385.726	5.12
386.511	3.12
387.296	2.12
388.08	5.12
388.865	4.12
389.649	4.12
390.434	2.12
391.218	4.12
392.003	4.12
392.787	4.12
393.571	4.12
394.355	5.12
395.139	4.12
395.923	4.12
396.707	6.12
397.491	6.12
398.274	3.12
399.058	5.12
399.842	7.12
400.625	5.12
401.408	3.12
402.192	6.12
402.975	5.12
403.758	5.12
404.541	6.12
405.324	6.12
406.107	6.12
406.89	3.12
407.673	7.12
408.456	7.12
409.238	7.12
410.021	5.12
410.803	7.12
411.586	7.12
412.368	4.12
413.151	4.12
413.933	7.12
414.715	8.12
415.497	6.12
416.279	1.12
417.061	7.12
417.843	6.12
418.624	6.12
419.406	9.12
420.188	6.12
420.969	6.12
421.751	6.12
422.532	5.12
423.313	6.12
424.095	7.12
424.876	7.12
425.657	9.12
426.438	6.12
427.219	4.12
428	7.12
428.78	9.12
429.561	10.12
430.342	10.12
431.122	7.12
431.903	10.12
432.683	8.12
433.464	10.12
434.244	9.12
435.024	9.12
435.804	9.12
436.584	10.12
437.364	13.12
438.144	10.12
438.924	13.12
439.704	15.12
440.483	12.12
441.263	13.12
442.042	14.12
442.822	12.12
443.601	13.12
444.38	16.12
445.16	17.12
445.939	18.12
446.718	20.12
447.497	21.12
448.276	20.12
449.054	21.12
449.833	22.12
450.612	26.12
451.391	28.12
452.169	27.12
452.948	32.12
453.726	36.12
454.504	40.12
455.282	41.12
456.061	45.12
456.839	47.12
457.617	52.12
458.395	59.12
459.172	57.12
459.95	70.12
460.728	78.12
461.506	88.12
462.283	103.12
463.061	111.12
463.838	120.12
464.615	135.12
465.393	154.12
466.17	167.12
466.947	184.12
467.724	212.12
468.501	232.12
469.278	254.12
470.055	296.12
470.831	322.12
471.608	359.12
472.385	393.12
473.161	440.12
473.938	494.12
474.714	559.12
475.49	610.12
476.266	675.12
477.043	751.12
477.819	836.12
478.595	940.12
479.371	1042.12
480.146	1148.12
480.922	1281.12
481.698	1394.12
482.473	1545.12
483.249	1728.12
484.024	1891.12
484.8	2101.12
485.575	2329.12
486.35	2583.12
487.126	2846.12
487.901	3143.12
488.676	3493.12
489.451	3853.12
490.225	4260.12
491	4707.12
491.775	5177.12
492.55	5655.12
493.324	6241.12
494.099	6886.12
494.873	7457.12
495.647	8181.12
496.422	8884.12
497.196	9629.12
497.97	10422.12
498.744	11201.12
499.518	12061.12
500.292	12795.12
501.066	13570.12
501.839	14302.12
502.613	14956.12
503.387	15583.12
504.16	16115.12
504.934	16575.12
505.707	16925.12
506.48	17068.12
507.253	17163.12
508.027	17226.12
508.8	17061.12
509.573	16807.12
510.346	16448.12
511.118	16052.12
511.891	15574.12
512.664	15046.12
513.437	14438.12
514.209	13906.12
514.982	13300.12
515.754	12727.12
516.526	12147.12
517.298	11568.12
518.071	11030.12
518.843	10549.12
519.615	10132.12
520.387	9728.12
521.159	9342.12
521.93	8936.12
522.702	8579.12
523.474	8200.12
524.245	7950.12
525.017	7628.12
525.788	7309.12
526.56	7005.12
527.331	6713.12
528.102	6414.12
528.873	6132.12
529.644	5823.12
530.415	5572.12
531.186	5286.12
531.957	5005.12
532.728	4733.12
533.498	4478.12
534.269	4236.12
535.039	3983.12
535.81	3759.12
536.58	3566.12
537.351	3349.12
538.121	3174.12
538.891	2986.12
539.661	2824.12
540.431	2698.12
541.201	2529.12
541.971	2388.12
542.741	2299.12
543.51	2143.12
544.28	2066.12
545.05	1946.12
545.819	1845.12
546.588	1754.12
547.358	1677.12
548.127	1600.12
548.896	1503.12
549.665	1436.12
550.434	1351.12
551.203	1289.12
551.972	1222.12
552.741	1161.12
553.51	1102.12
554.278	1031.12
555.047	978.12
555.815	913.12
556.584	864.12
557.352	807.12
558.121	770.12
558.889	732.12
559.657	685.12
560.425	643.12
561.193	614.12
561.961	574.12
562.729	532.12
563.496	514.12
564.264	492.12
565.032	451.12
565.799	426.12
566.567	400.12
567.334	384.12
568.101	355.12
568.869	340.12
569.636	326.12
570.403	304.12
571.17	286.12
571.937	270.12
572.704	253.12
573.471	245.12
574.237	228.12
575.004	212.12
575.771	202.12
576.537	190.12
577.303	174.12
578.07	163.12
578.836	153.12
579.602	152.12
580.368	142.12
581.134	127.12
581.9	124.12
582.666	121.12
583.432	113.12
584.198	106.12
584.964	106.12
585.729	98.12
586.495	87.12
587.26	82.12
588.025	81.12
588.791	74.12
589.556	73.12
590.321	71.12
591.086	61.12
591.851	62.12
592.616	57.12
593.381	56.12
594.146	52.12
594.911	46.12
595.675	46.12
596.44	43.12
597.204	44.12
597.969	42.12
598.733	42.12
599.497	41.12
600.261	36.12
601.025	33.12
601.79	32.12
602.553	31.12
603.317	31.12
604.081	28.12
604.845	27.12
605.609	25.12
606.372	26.12
607.136	23.12
607.899	22.12
608.662	23.12
609.426	22.12
610.189	21.12
610.952	19.12
611.715	19.12
612.478	18.12
613.241	17.12
614.004	14.12
614.767	14.12
615.529	18.12
616.292	17.12
617.055	14.12
617.817	15.12
618.579	14.12
619.342	13.12
620.104	13.12
620.866	14.12
621.628	11.12
622.39	11.12
623.152	9.12
623.914	12.12
624.676	12.12
625.438	12.12
626.199	12.12
626.961	8.12
627.722	10.12
628.484	9.12
629.245	9.12
630.006	10.12
630.768	8.12
631.529	6.12
632.29	9.12
633.051	8.12
633.812	9.12
634.573	5.12
635.333	7.12
636.094	7.12
636.855	6.12
637.615	9.12
638.376	7.12
639.136	6.12
639.896	6.12
640.657	8.12
641.417	6.12
642.177	5.12
642.937	5.12
643.697	6.12
644.457	6.12
645.216	6.12
645.976	6.12
646.736	6.12
647.495	7.12
648.255	6.12
649.014	4.12
649.774	6.12
650.533	6.12
651.292	7.12
652.051	4.12
652.81	8.12
653.569	5.12
654.328	6.12
655.087	2.12
655.846	5.12
656.604	5.12
657.363	6.12
658.121	4.12
658.88	4.12
659.638	4.12
660.397	6.12
661.155	4.12
661.913	4.12
662.671	2.12
663.429	4.12
664.187	5.12
664.945	4.12
665.703	1.12
666.46	5.12
667.218	4.12
667.976	4.12
668.733	5.12
669.49	3.12
670.248	2.12
671.005	4.12
671.762	2.12
672.519	4.12
673.276	2.12
674.033	2.12
674.79	3.12
675.547	3.12
676.304	6.12
677.06	3.12
677.817	5.12
678.574	3.12
679.33	4.12
680.086	4.12
680.843	2.12
681.599	5.12
682.355	4.12
683.111	5.12
683.867	5.12
684.623	3.12
685.379	2.12
686.135	3.12
686.89	3.12
687.646	3.12
688.402	2.12
689.157	2.12
689.912	4.12
690.668	3.12
691.423	2.12
692.178	4.12
692.933	1.12
693.688	4.12
694.443	3.12
695.198	6.12
695.953	2.12
696.708	3.12
697.462	3.12
698.217	2.12
698.972	3.12
699.726	3.12
700.48	3.12
701.235	5.12
701.989	1.12
702.743	3.12
703.497	4.12
704.251	3.12
705.005	1.12
705.759	3.12
706.513	3.12
707.266	3.12
708.02	3.12
708.774	5.12
709.527	2.12
710.28	3.12
711.034	3.12
711.787	0.12
712.54	4.12
713.293	4.12
714.046	3.12
714.799	2.12
715.552	2.12
716.305	4.12
717.058	3.12
717.81	3.12
718.563	4.12
719.315	2.12
720.068	3.12
720.82	3.12
721.573	5.12
722.325	3.12
723.077	2.12
723.829	5.12
724.581	2.12
725.333	3.12
726.085	6.12
726.836	3.12
727.588	3.12
728.34	3.12
729.091	4.12
729.843	2.12
730.594	2.12
731.346	2.12
732.097	3.12
732.848	3.12
733.599	3.12
734.35	4.12
735.101	1.12
735.852	3.12
736.603	4.12
737.354	5.12
738.104	2.12
738.855	3.12
739.605	5.12
740.356	3.12
741.106	5.12
741.856	5.12
742.607	5.12
743.357	3.12
744.107	2.12
744.857	6.12
745.607	5.12
746.357	2.12
747.106	4.12
747.856	2.12
748.606	3.12
749.355	4.12
750.105	3.12
750.854	3.12
751.603	5.12
752.353	6.12
753.102	3.12
753.851	6.12
754.6	3.12
755.349	3.12
756.098	2.12
756.847	5.12
757.595	4.12
758.344	5.12
759.093	4.12
759.841	4.12
760.589	4.12
761.338	4.12
762.086	6.12
762.834	4.12
763.582	5.12
764.331	5.12
765.079	3.12
765.826	5.12
766.574	5.12
767.322	4.12
768.07	6.12
768.817	6.12
769.565	5.12
770.312	5.12
771.06	4.12
771.807	5.12
772.554	4.12
773.302	5.12
774.049	5.12
774.796	6.12
775.543	5.12
776.29	8.12
777.036	4.12
777.783	5.12
778.53	3.12
779.276	6.12
780.023	5.12
780.769	2.12
781.516	5.12
782.262	6.12
783.008	6.12
783.754	6.12
784.5	5.12
785.246	7.12
785.992	3.12
786.738	8.12
787.484	10.12
788.23	6.12
788.975	6.12
789.721	7.12
790.466	7.12
791.212	5.12
791.957	7.12
792.702	5.12
793.447	7.12
794.193	5.12
794.938	4.12
795.683	5.12
796.427	5.12
797.172	6.12
797.917	5.12
798.662	6.12
799.406	5.12
800.151	5.12
800.895	7.12
801.64	4.12
802.384	7.12
803.128	6.12
803.872	4.12
804.616	5.12
805.36	5.12
806.104	8.12
806.848	5.12
807.592	6.12
808.336	5.12
809.079	5.12
809.823	4.12
810.566	4.12
811.31	6.12
812.053	3.12
812.796	4.12
813.539	4.12
814.283	7.12
815.026	5.12
815.769	6.12
816.511	6.12
817.254	4.12
817.997	4.12
818.74	4.12
819.482	6.12
820.225	4.12
820.967	4.12
821.71	3.12
822.452	5.12
823.194	4.12
823.936	4.12
824.678	3.12
825.42	4.12
826.162	2.12
826.904	3.12
827.646	3.12
828.388	4.12
829.129	5.12
829.871	3.12
830.612	3.12
831.354	4.12
832.095	1.12
832.836	4.12
833.577	4.12
834.319	5.12
835.06	2.12
835.801	3.12
836.542	2.12
837.282	2.12
838.023	0.12
838.764	7.12
839.504	3.12
840.245	3.12
840.985	3.12
841.726	3.12
842.466	4.12
843.206	3.12
843.946	3.12
844.687	4.12
845.427	1.12
846.166	3.12
846.906	3.12
847.646	4.12
848.386	1.12
849.125	2.12
849.865	5.12
850.605	2.12
851.344	4.12
852.083	2.12
852.823	3.12
853.562	3.12
854.301	2.12
855.04	1.12
855.779	1.12
856.518	2.12
857.257	2.12
857.995	0.12
858.734	3.12
859.473	2.12
860.211	3.12
860.95	1.12
861.688	3.12
862.426	4.12
863.165	1.12
863.903	2.12
864.641	2.12
865.379	3.12
866.117	1.12
866.855	2.12
867.593	2.12
868.33	1.12
869.068	3.12
869.806	1.12
870.543	2.12
871.28	2.12
872.018	3.12
872.755	3.12
873.492	1.12
874.229	2.12
874.967	0.12
875.703	2.12
876.44	1.12
877.177	2.12
877.914	-0.88
878.651	2.12
879.387	4.12
880.124	1.12
880.86	0.12
881.597	1.12
882.333	3.12
883.069	2.12
883.806	3.12
884.542	2.12
885.278	1.12
886.014	3.12
886.749	0.12
887.485	3.12
888.221	0.12
888.957	-0.88
889.692	1.12
890.428	-0.88
891.163	2.12
891.899	2.12
892.634	2.12
893.369	0.12
894.104	1.12
894.839	2.12
895.574	2.12
896.309	3.12
897.044	2.12
897.779	2.12
898.514	1.12
899.248	-0.88
899.983	3.12
900.717	2.12
901.452	-1.88
902.186	2.12
902.92	1.12
903.654	3.12
904.389	2.12
905.123	3.12
905.857	2.12
906.59	1.12
907.324	1.12
908.058	2.12
908.792	3.12
909.525	3.12
910.259	2.12
910.992	1.12
911.726	1.12
912.459	2.12
913.192	-0.88
913.925	5.12
914.658	2.12
915.391	1.12
916.124	0.12
916.857	0.12
917.59	3.12
918.323	2.12
919.055	0.12
919.788	0.12
920.521	3.12
921.253	3.12
921.985	2.12
922.718	1.12
923.45	3.12
924.182	3.12
924.914	0.12
925.646	1.12
926.378	1.12
927.11	4.12
927.841	2.12
928.573	1.12
929.305	2.12
930.036	3.12
930.768	1.12
931.499	1.12
932.23	0.12
932.962	3.12
933.693	-0.88
934.424	1.12
935.155	1.12
935.886	1.12
936.617	3.12
937.348	1.12
938.078	2.12
938.809	0.12
939.54	0.12
940.27	2.12
941.001	0.12
941.731	2.12
942.461	0.12
943.191	1.12
943.922	0.12
944.652	3.12
945.382	0.12
946.112	4.12
946.841	2.12
947.571	0.12
948.301	1.12
949.031	3.12
949.76	2.12
950.49	1.12
951.219	3.12
951.948	1.12
952.678	3.12
953.407	3.12
954.136	-0.88
954.865	2.12
955.594	2.12
956.323	2.12
957.052	0.12
957.78	1.12
958.509	1.12
959.238	0.12
959.966	2.12
960.695	0.12
961.423	-0.88
962.151	0.12
962.88	0.12
963.608	1.12
964.336	0.12
965.064	3.12
965.792	3.12
966.52	2.12
967.247	1.12
967.975	-1.88
968.703	2.12
969.43	1.12
970.158	3.12
970.885	-0.88
971.613	2.12
972.34	2.12
973.067	0.12
973.794	0.12
974.521	-0.88
975.248	1.12
975.975	1.12
976.702	2.12
977.429	2.12
978.156	2.12
978.882	2.12
979.609	0.12
980.335	-0.88
981.062	1.12
981.788	-0.88
982.514	2.12
983.24	-0.88
983.967	1.12
984.693	1.12
985.419	0.12
986.144	-0.88
986.87	1.12
987.596	1.12
988.322	-0.88
989.047	-0.88
989.773	1.12
990.498	3.12
991.224	2.12
991.949	-0.88
992.674	0.12
993.399	2.12
994.124	1.12
994.849	0.12
995.574	1.12
996.299	2.12
997.024	2.12
997.749	1.12
998.473	-0.88
999.198	0.12
999.922	2.12
1000.647	0.12
1001.371	3.12
1002.095	-1.88
1002.82	0.12
1003.544	-1.88
1004.268	0.12
1004.992	1.12
1005.716	2.12
1006.439	2.12
1007.163	1.12
1007.887	1.12
1008.611	2.12
1009.334	2.12
1010.058	2.12
1010.781	0.12
1011.504	2.12
1012.228	-0.88
1012.951	1.12
1013.674	0.12
1014.397	-0.88
1015.12	0.12
