节点500_145_QEPB04081__103__11-30-37-583.txt的数据

Date: Wed Nov 12 11:30:37 CST 2025
User: PC
Spectrometer: QEPB0408
触发模式: 0
积分时间 (秒): 1.000000E-2
Scans to average: 1
启用暗噪声校正: true
启用非线性校正: false
滑动平均宽度: 0
X轴模式: Wavelengths
Number of Pixels in Spectrum: 1044
>>>>>Begin Spectral Data<<<<<
220.843	-2.62
221.644	1.38
222.444	-2.62
223.244	-2.62
224.045	0.38
224.845	-1.62
225.645	-0.62
226.445	-0.62
227.245	0.38
228.045	0.38
228.845	-1.62
229.645	1.38
230.444	-2.62
231.244	0.38
232.043	0.38
232.843	1.38
233.642	0.38
234.442	-0.62
235.241	-1.62
236.04	0.38
236.839	0.38
237.638	2.38
238.437	1.38
239.236	0.38
240.035	-0.62
240.833	1.38
241.632	0.38
242.43	0.38
243.229	-0.62
244.027	-0.62
244.826	2.38
245.624	-0.62
246.422	1.38
247.22	1.38
248.018	2.38
248.816	0.38
249.614	3.38
250.412	0.38
251.21	0.38
252.007	0.38
252.805	1.38
253.602	0.38
254.4	2.38
255.197	2.38
255.994	4.38
256.791	2.38
257.589	4.38
258.386	2.38
259.183	3.38
259.979	0.38
260.776	4.38
261.573	4.38
262.37	2.38
263.166	4.38
263.963	6.38
264.759	5.38
265.556	4.38
266.352	6.38
267.148	5.38
267.944	3.38
268.74	7.38
269.536	7.38
270.332	8.38
271.128	8.38
271.924	6.38
272.719	10.38
273.515	8.38
274.311	8.38
275.106	9.38
275.901	9.38
276.697	7.38
277.492	11.38
278.287	9.38
279.082	8.38
279.877	11.38
280.672	9.38
281.467	10.38
282.262	10.38
283.056	9.38
283.851	9.38
284.646	9.38
285.44	11.38
286.234	11.38
287.029	11.38
287.823	11.38
288.617	10.38
289.411	8.38
290.205	11.38
290.999	7.38
291.793	11.38
292.587	10.38
293.381	9.38
294.174	9.38
294.968	9.38
295.761	11.38
296.555	10.38
297.348	7.38
298.141	9.38
298.935	11.38
299.728	6.38
300.521	8.38
301.314	9.38
302.107	8.38
302.899	7.38
303.692	8.38
304.485	9.38
305.277	10.38
306.07	9.38
306.862	7.38
307.655	7.38
308.447	6.38
309.239	5.38
310.031	6.38
310.823	5.38
311.615	4.38
312.407	3.38
313.199	6.38
313.991	5.38
314.783	3.38
315.574	4.38
316.366	2.38
317.157	4.38
317.949	4.38
318.74	5.38
319.531	5.38
320.322	3.38
321.113	4.38
321.904	3.38
322.695	4.38
323.486	3.38
324.277	4.38
325.068	5.38
325.858	4.38
326.649	7.38
327.439	4.38
328.23	3.38
329.02	2.38
329.81	2.38
330.6	5.38
331.391	2.38
332.181	3.38
332.971	2.38
333.76	2.38
334.55	6.38
335.34	1.38
336.13	2.38
336.919	4.38
337.709	3.38
338.498	2.38
339.287	1.38
340.077	1.38
340.866	0.38
341.655	2.38
342.444	3.38
343.233	2.38
344.022	2.38
344.811	1.38
345.6	2.38
346.388	1.38
347.177	2.38
347.965	2.38
348.754	2.38
349.542	2.38
350.33	2.38
351.119	3.38
351.907	2.38
352.695	4.38
353.483	1.38
354.271	1.38
355.059	1.38
355.846	3.38
356.634	4.38
357.422	1.38
358.209	4.38
358.997	0.38
359.784	2.38
360.571	1.38
361.359	4.38
362.146	1.38
362.933	0.38
363.72	3.38
364.507	2.38
365.294	3.38
366.081	0.38
366.867	1.38
367.654	4.38
368.44	1.38
369.227	0.38
370.013	2.38
370.8	4.38
371.586	1.38
372.372	-0.62
373.158	2.38
373.944	1.38
374.73	2.38
375.516	0.38
376.302	1.38
377.088	3.38
377.873	-0.62
378.659	0.38
379.445	1.38
380.23	2.38
381.015	-0.62
381.801	1.38
382.586	3.38
383.371	1.38
384.156	0.38
384.941	2.38
385.726	2.38
386.511	2.38
387.296	4.38
388.08	2.38
388.865	2.38
389.649	2.38
390.434	2.38
391.218	2.38
392.003	1.38
392.787	1.38
393.571	4.38
394.355	3.38
395.139	1.38
395.923	2.38
396.707	0.38
397.491	2.38
398.274	2.38
399.058	3.38
399.842	2.38
400.625	3.38
401.408	5.38
402.192	2.38
402.975	2.38
403.758	2.38
404.541	3.38
405.324	3.38
406.107	2.38
406.89	3.38
407.673	4.38
408.456	4.38
409.238	4.38
410.021	4.38
410.803	3.38
411.586	3.38
412.368	6.38
413.151	1.38
413.933	4.38
414.715	3.38
415.497	4.38
416.279	4.38
417.061	4.38
417.843	3.38
418.624	1.38
419.406	4.38
420.188	4.38
420.969	4.38
421.751	4.38
422.532	6.38
423.313	4.38
424.095	5.38
424.876	5.38
425.657	5.38
426.438	5.38
427.219	5.38
428	4.38
428.78	9.38
429.561	6.38
430.342	7.38
431.122	6.38
431.903	8.38
432.683	8.38
433.464	6.38
434.244	9.38
435.024	6.38
435.804	10.38
436.584	8.38
437.364	9.38
438.144	9.38
438.924	9.38
439.704	10.38
440.483	10.38
441.263	14.38
442.042	10.38
442.822	11.38
443.601	13.38
444.38	11.38
445.16	14.38
445.939	16.38
446.718	14.38
447.497	18.38
448.276	17.38
449.054	18.38
449.833	20.38
450.612	25.38
451.391	25.38
452.169	28.38
452.948	27.38
453.726	30.38
454.504	33.38
455.282	40.38
456.061	39.38
456.839	46.38
457.617	47.38
458.395	58.38
459.172	61.38
459.95	69.38
460.728	76.38
461.506	86.38
462.283	92.38
463.061	100.38
463.838	113.38
464.615	129.38
465.393	141.38
466.17	163.38
466.947	177.38
467.724	198.38
468.501	218.38
469.278	254.38
470.055	275.38
470.831	316.38
471.608	351.38
472.385	394.38
473.161	435.38
473.938	486.38
474.714	539.38
475.49	595.38
476.266	669.38
477.043	747.38
477.819	832.38
478.595	918.38
479.371	1041.38
480.146	1144.38
480.922	1262.38
481.698	1399.38
482.473	1552.38
483.249	1721.38
484.024	1898.38
484.8	2100.38
485.575	2317.38
486.35	2572.38
487.126	2878.38
487.901	3164.38
488.676	3522.38
489.451	3875.38
490.225	4295.38
491	4752.38
491.775	5236.38
492.55	5733.38
493.324	6333.38
494.099	6962.38
494.873	7620.38
495.647	8308.38
496.422	9071.38
497.196	9839.38
497.97	10555.38
498.744	11379.38
499.518	12188.38
500.292	13023.38
501.066	13760.38
501.839	14529.38
502.613	15208.38
503.387	15837.38
504.16	16314.38
504.934	16767.38
505.707	17041.38
506.48	17240.38
507.253	17326.38
508.027	17300.38
508.8	17133.38
509.573	16960.38
510.346	16559.38
511.118	16114.38
511.891	15606.38
512.664	15054.38
513.437	14483.38
514.209	13865.38
514.982	13228.38
515.754	12702.38
516.526	12090.38
517.298	11492.38
518.071	11016.38
518.843	10516.38
519.615	10053.38
520.387	9668.38
521.159	9298.38
521.93	8887.38
522.702	8550.38
523.474	8247.38
524.245	7892.38
525.017	7598.38
525.788	7259.38
526.56	6952.38
527.331	6683.38
528.102	6372.38
528.873	6082.38
529.644	5823.38
530.415	5522.38
531.186	5211.38
531.957	4974.38
532.728	4684.38
533.498	4450.38
534.269	4198.38
535.039	3977.38
535.81	3741.38
536.58	3536.38
537.351	3301.38
538.121	3145.38
538.891	2976.38
539.661	2809.38
540.431	2643.38
541.201	2510.38
541.971	2366.38
542.741	2248.38
543.51	2121.38
544.28	2008.38
545.05	1922.38
545.819	1847.38
546.588	1738.38
547.358	1671.38
548.127	1584.38
548.896	1509.38
549.665	1417.38
550.434	1340.38
551.203	1277.38
551.972	1197.38
552.741	1131.38
553.51	1081.38
554.278	1025.38
555.047	964.38
555.815	904.38
556.584	861.38
557.352	794.38
558.121	752.38
558.889	717.38
559.657	671.38
560.425	628.38
561.193	600.38
561.961	558.38
562.729	529.38
563.496	501.38
564.264	473.38
565.032	447.38
565.799	421.38
566.567	395.38
567.334	371.38
568.101	347.38
568.869	334.38
569.636	307.38
570.403	290.38
571.17	276.38
571.937	264.38
572.704	255.38
573.471	236.38
574.237	221.38
575.004	210.38
575.771	197.38
576.537	179.38
577.303	175.38
578.07	163.38
578.836	156.38
579.602	147.38
580.368	138.38
581.134	125.38
581.9	125.38
582.666	115.38
583.432	112.38
584.198	103.38
584.964	99.38
585.729	94.38
586.495	88.38
587.26	81.38
588.025	77.38
588.791	72.38
589.556	72.38
590.321	65.38
591.086	61.38
591.851	59.38
592.616	54.38
593.381	54.38
594.146	52.38
594.911	52.38
595.675	51.38
596.44	43.38
597.204	40.38
597.969	40.38
598.733	38.38
599.497	36.38
600.261	36.38
601.025	35.38
601.79	32.38
602.553	31.38
603.317	28.38
604.081	29.38
604.845	26.38
605.609	24.38
606.372	24.38
607.136	24.38
607.899	24.38
608.662	23.38
609.426	18.38
610.189	17.38
610.952	18.38
611.715	18.38
612.478	16.38
613.241	17.38
614.004	17.38
614.767	15.38
615.529	14.38
616.292	13.38
617.055	12.38
617.817	13.38
618.579	9.38
619.342	9.38
620.104	11.38
620.866	13.38
621.628	10.38
622.39	9.38
623.152	9.38
623.914	8.38
624.676	8.38
625.438	8.38
626.199	7.38
626.961	8.38
627.722	6.38
628.484	4.38
629.245	6.38
630.006	9.38
630.768	6.38
631.529	6.38
632.29	5.38
633.051	7.38
633.812	5.38
634.573	6.38
635.333	6.38
636.094	4.38
636.855	6.38
637.615	5.38
638.376	3.38
639.136	5.38
639.896	6.38
640.657	4.38
641.417	3.38
642.177	0.38
642.937	3.38
643.697	3.38
644.457	3.38
645.216	3.38
645.976	5.38
646.736	5.38
647.495	2.38
648.255	2.38
649.014	3.38
649.774	4.38
650.533	3.38
651.292	5.38
652.051	5.38
652.81	1.38
653.569	4.38
654.328	2.38
655.087	1.38
655.846	2.38
656.604	4.38
657.363	3.38
658.121	2.38
658.88	2.38
659.638	3.38
660.397	2.38
661.155	1.38
661.913	1.38
662.671	1.38
663.429	-2.62
664.187	4.38
664.945	1.38
665.703	1.38
666.46	2.38
667.218	1.38
667.976	4.38
668.733	2.38
669.49	0.38
670.248	3.38
671.005	4.38
671.762	3.38
672.519	2.38
673.276	2.38
674.033	2.38
674.79	0.38
675.547	1.38
676.304	1.38
677.06	2.38
677.817	3.38
678.574	0.38
679.33	1.38
680.086	2.38
680.843	1.38
681.599	0.38
682.355	3.38
683.111	-0.62
683.867	2.38
684.623	1.38
685.379	1.38
686.135	2.38
686.89	0.38
687.646	0.38
688.402	2.38
689.157	2.38
689.912	2.38
690.668	2.38
691.423	3.38
692.178	0.38
692.933	2.38
693.688	1.38
694.443	3.38
695.198	0.38
695.953	0.38
696.708	2.38
697.462	2.38
698.217	2.38
698.972	1.38
699.726	0.38
700.48	1.38
701.235	0.38
701.989	1.38
702.743	-0.62
703.497	4.38
704.251	-0.62
705.005	1.38
705.759	1.38
706.513	1.38
707.266	2.38
708.02	-0.62
708.774	1.38
709.527	1.38
710.28	-0.62
711.034	3.38
711.787	2.38
712.54	2.38
713.293	1.38
714.046	-1.62
714.799	1.38
715.552	-0.62
716.305	1.38
717.058	1.38
717.81	0.38
718.563	0.38
719.315	3.38
720.068	0.38
720.82	2.38
721.573	-0.62
722.325	1.38
723.077	3.38
723.829	1.38
724.581	1.38
725.333	1.38
726.085	1.38
726.836	-0.62
727.588	1.38
728.34	1.38
729.091	2.38
729.843	3.38
730.594	1.38
731.346	1.38
732.097	2.38
732.848	2.38
733.599	1.38
734.35	0.38
735.101	1.38
735.852	1.38
736.603	4.38
737.354	3.38
738.104	1.38
738.855	3.38
739.605	1.38
740.356	2.38
741.106	2.38
741.856	0.38
742.607	1.38
743.357	0.38
744.107	1.38
744.857	1.38
745.607	0.38
746.357	2.38
747.106	1.38
747.856	3.38
748.606	3.38
749.355	1.38
750.105	1.38
750.854	4.38
751.603	3.38
752.353	1.38
753.102	0.38
753.851	1.38
754.6	3.38
755.349	0.38
756.098	1.38
756.847	4.38
757.595	3.38
758.344	2.38
759.093	1.38
759.841	5.38
760.589	4.38
761.338	2.38
762.086	1.38
762.834	2.38
763.582	3.38
764.331	3.38
765.079	4.38
765.826	3.38
766.574	6.38
767.322	1.38
768.07	2.38
768.817	1.38
769.565	4.38
770.312	4.38
771.06	4.38
771.807	2.38
772.554	2.38
773.302	2.38
774.049	6.38
774.796	4.38
775.543	6.38
776.29	5.38
777.036	2.38
777.783	5.38
778.53	3.38
779.276	6.38
780.023	4.38
780.769	3.38
781.516	7.38
782.262	5.38
783.008	3.38
783.754	4.38
784.5	6.38
785.246	3.38
785.992	4.38
786.738	4.38
787.484	3.38
788.23	3.38
788.975	4.38
789.721	4.38
790.466	3.38
791.212	2.38
791.957	4.38
792.702	7.38
793.447	3.38
794.193	4.38
794.938	6.38
795.683	4.38
796.427	4.38
797.172	3.38
797.917	2.38
798.662	4.38
799.406	5.38
800.151	4.38
800.895	2.38
801.64	3.38
802.384	3.38
803.128	4.38
803.872	4.38
804.616	3.38
805.36	4.38
806.104	1.38
806.848	0.38
807.592	5.38
808.336	4.38
809.079	3.38
809.823	2.38
810.566	3.38
811.31	2.38
812.053	0.38
812.796	1.38
813.539	4.38
814.283	1.38
815.026	1.38
815.769	2.38
816.511	1.38
817.254	1.38
817.997	2.38
818.74	1.38
819.482	1.38
820.225	1.38
820.967	2.38
821.71	1.38
822.452	4.38
823.194	2.38
823.936	4.38
824.678	1.38
825.42	2.38
826.162	3.38
826.904	1.38
827.646	1.38
828.388	1.38
829.129	1.38
829.871	0.38
830.612	1.38
831.354	2.38
832.095	2.38
832.836	0.38
833.577	2.38
834.319	1.38
835.06	0.38
835.801	-0.62
836.542	2.38
837.282	1.38
838.023	3.38
838.764	3.38
839.504	0.38
840.245	1.38
840.985	0.38
841.726	1.38
842.466	3.38
843.206	-0.62
843.946	4.38
844.687	1.38
845.427	2.38
846.166	1.38
846.906	2.38
847.646	0.38
848.386	2.38
849.125	-1.62
849.865	2.38
850.605	1.38
851.344	0.38
852.083	2.38
852.823	2.38
853.562	1.38
854.301	-0.62
855.04	1.38
855.779	1.38
856.518	-0.62
857.257	0.38
857.995	0.38
858.734	0.38
859.473	2.38
860.211	0.38
860.95	0.38
861.688	-0.62
862.426	1.38
863.165	-0.62
863.903	0.38
864.641	1.38
865.379	-1.62
866.117	0.38
866.855	0.38
867.593	0.38
868.33	2.38
869.068	-0.62
869.806	-0.62
870.543	-0.62
871.28	2.38
872.018	1.38
872.755	2.38
873.492	-1.62
874.229	-2.62
874.967	1.38
875.703	0.38
876.44	0.38
877.177	1.38
877.914	-0.62
878.651	1.38
879.387	-1.62
880.124	1.38
880.86	2.38
881.597	-2.62
882.333	1.38
883.069	1.38
883.806	-2.62
884.542	1.38
885.278	2.38
886.014	-1.62
886.749	1.38
887.485	1.38
888.221	-0.62
888.957	1.38
889.692	0.38
890.428	0.38
891.163	-0.62
891.899	-0.62
892.634	1.38
893.369	-1.62
894.104	-1.62
894.839	-0.62
895.574	1.38
896.309	-1.62
897.044	0.38
897.779	-0.62
898.514	-0.62
899.248	-0.62
899.983	0.38
900.717	-0.62
901.452	-0.62
902.186	0.38
902.92	-0.62
903.654	-1.62
904.389	0.38
905.123	-1.62
905.857	0.38
906.59	-0.62
907.324	-0.62
908.058	0.38
908.792	-1.62
909.525	0.38
910.259	0.38
910.992	1.38
911.726	-0.62
912.459	-1.62
913.192	1.38
913.925	-2.62
914.658	-1.62
915.391	0.38
916.124	-1.62
916.857	-0.62
917.59	0.38
918.323	-0.62
919.055	-0.62
919.788	-0.62
920.521	-2.62
921.253	0.38
921.985	-3.62
922.718	-1.62
923.45	1.38
924.182	-0.62
924.914	-1.62
925.646	-0.62
926.378	0.38
927.11	-0.62
927.841	-1.62
928.573	-2.62
929.305	0.38
930.036	-0.62
930.768	1.38
931.499	-0.62
932.23	1.38
932.962	-2.62
933.693	0.38
934.424	-0.62
935.155	-0.62
935.886	-0.62
936.617	-1.62
937.348	0.38
938.078	-0.62
938.809	-0.62
939.54	-0.62
940.27	-0.62
941.001	0.38
941.731	0.38
942.461	1.38
943.191	-1.62
943.922	-0.62
944.652	-1.62
945.382	-1.62
946.112	-1.62
946.841	0.38
947.571	0.38
948.301	-2.62
949.031	0.38
949.76	-0.62
950.49	-0.62
951.219	-0.62
951.948	-2.62
952.678	-1.62
953.407	0.38
954.136	1.38
954.865	-1.62
955.594	-1.62
956.323	1.38
957.052	-1.62
957.78	-0.62
958.509	-1.62
959.238	-1.62
959.966	-1.62
960.695	-2.62
961.423	-0.62
962.151	-0.62
962.88	-1.62
963.608	-2.62
964.336	2.38
965.064	-0.62
965.792	-1.62
966.52	0.38
967.247	0.38
967.975	0.38
968.703	-0.62
969.43	-0.62
970.158	-2.62
970.885	1.38
971.613	-1.62
972.34	-1.62
973.067	0.38
973.794	-0.62
974.521	-0.62
975.248	-1.62
975.975	-2.62
976.702	-0.62
977.429	-0.62
978.156	-1.62
978.882	-0.62
979.609	1.38
980.335	0.38
981.062	-2.62
981.788	-3.62
982.514	-0.62
983.24	0.38
983.967	1.38
984.693	-1.62
985.419	-0.62
986.144	-2.62
986.87	2.38
987.596	-0.62
988.322	-0.62
989.047	-0.62
989.773	-0.62
990.498	1.38
991.224	-2.62
991.949	-1.62
992.674	-1.62
993.399	0.38
994.124	-2.62
994.849	-1.62
995.574	-0.62
996.299	-2.62
997.024	-2.62
997.749	-0.62
998.473	-1.62
999.198	-1.62
999.922	-1.62
1000.647	-0.62
1001.371	3.38
1002.095	-1.62
1002.82	0.38
1003.544	0.38
1004.268	0.38
1004.992	-0.62
1005.716	-1.62
1006.439	-0.62
1007.163	-2.62
1007.887	-0.62
1008.611	0.38
1009.334	-0.62
1010.058	0.38
1010.781	-0.62
1011.504	1.38
1012.228	0.38
1012.951	-0.62
1013.674	-2.62
1014.397	0.38
1015.12	0.38
