节点500_145_QEPB04081__114__11-30-46-580.txt的数据

Date: Wed Nov 12 11:30:46 CST 2025
User: PC
Spectrometer: QEPB0408
触发模式: 0
积分时间 (秒): 1.000000E-2
Scans to average: 1
启用暗噪声校正: true
启用非线性校正: false
滑动平均宽度: 0
X轴模式: Wavelengths
Number of Pixels in Spectrum: 1044
>>>>>Begin Spectral Data<<<<<
220.843	-2.38
221.644	-0.38
222.444	-2.38
223.244	-0.38
224.045	-0.38
224.845	-0.38
225.645	1.62
226.445	-0.38
227.245	-0.38
228.045	-0.38
228.845	0.62
229.645	2.62
230.444	-2.38
231.244	-0.38
232.043	-1.38
232.843	-0.38
233.642	-0.38
234.442	-1.38
235.241	1.62
236.04	-1.38
236.839	0.62
237.638	1.62
238.437	-0.38
239.236	-0.38
240.035	0.62
240.833	0.62
241.632	1.62
242.43	1.62
243.229	0.62
244.027	3.62
244.826	0.62
245.624	1.62
246.422	1.62
247.22	0.62
248.018	0.62
248.816	0.62
249.614	1.62
250.412	1.62
251.21	1.62
252.007	2.62
252.805	1.62
253.602	3.62
254.4	4.62
255.197	2.62
255.994	2.62
256.791	2.62
257.589	3.62
258.386	3.62
259.183	3.62
259.979	2.62
260.776	5.62
261.573	4.62
262.37	1.62
263.166	4.62
263.963	5.62
264.759	3.62
265.556	5.62
266.352	3.62
267.148	5.62
267.944	4.62
268.74	5.62
269.536	5.62
270.332	6.62
271.128	7.62
271.924	7.62
272.719	7.62
273.515	9.62
274.311	9.62
275.106	9.62
275.901	6.62
276.697	8.62
277.492	9.62
278.287	9.62
279.082	8.62
279.877	10.62
280.672	9.62
281.467	11.62
282.262	9.62
283.056	10.62
283.851	12.62
284.646	10.62
285.44	7.62
286.234	8.62
287.029	9.62
287.823	10.62
288.617	11.62
289.411	10.62
290.205	11.62
290.999	9.62
291.793	11.62
292.587	8.62
293.381	11.62
294.174	8.62
294.968	11.62
295.761	9.62
296.555	10.62
297.348	6.62
298.141	9.62
298.935	11.62
299.728	9.62
300.521	11.62
301.314	8.62
302.107	8.62
302.899	7.62
303.692	5.62
304.485	10.62
305.277	8.62
306.07	6.62
306.862	7.62
307.655	7.62
308.447	8.62
309.239	6.62
310.031	6.62
310.823	5.62
311.615	7.62
312.407	5.62
313.199	5.62
313.991	7.62
314.783	4.62
315.574	5.62
316.366	5.62
317.157	4.62
317.949	4.62
318.74	3.62
319.531	4.62
320.322	2.62
321.113	6.62
321.904	4.62
322.695	4.62
323.486	4.62
324.277	3.62
325.068	4.62
325.858	4.62
326.649	4.62
327.439	2.62
328.23	4.62
329.02	1.62
329.81	4.62
330.6	4.62
331.391	3.62
332.181	3.62
332.971	0.62
333.76	1.62
334.55	1.62
335.34	0.62
336.13	3.62
336.919	3.62
337.709	1.62
338.498	3.62
339.287	0.62
340.077	3.62
340.866	2.62
341.655	2.62
342.444	3.62
343.233	1.62
344.022	2.62
344.811	2.62
345.6	1.62
346.388	2.62
347.177	2.62
347.965	5.62
348.754	1.62
349.542	3.62
350.33	2.62
351.119	2.62
351.907	1.62
352.695	3.62
353.483	2.62
354.271	3.62
355.059	3.62
355.846	2.62
356.634	2.62
357.422	3.62
358.209	3.62
358.997	4.62
359.784	-0.38
360.571	2.62
361.359	1.62
362.146	1.62
362.933	2.62
363.72	5.62
364.507	0.62
365.294	2.62
366.081	3.62
366.867	-1.38
367.654	2.62
368.44	-0.38
369.227	3.62
370.013	1.62
370.8	0.62
371.586	4.62
372.372	0.62
373.158	1.62
373.944	3.62
374.73	2.62
375.516	2.62
376.302	-0.38
377.088	0.62
377.873	1.62
378.659	2.62
379.445	1.62
380.23	3.62
381.015	1.62
381.801	0.62
382.586	2.62
383.371	3.62
384.156	2.62
384.941	1.62
385.726	1.62
386.511	1.62
387.296	0.62
388.08	4.62
388.865	2.62
389.649	1.62
390.434	0.62
391.218	3.62
392.003	0.62
392.787	1.62
393.571	1.62
394.355	1.62
395.139	1.62
395.923	1.62
396.707	0.62
397.491	3.62
398.274	2.62
399.058	6.62
399.842	0.62
400.625	4.62
401.408	2.62
402.192	3.62
402.975	2.62
403.758	2.62
404.541	2.62
405.324	3.62
406.107	3.62
406.89	3.62
407.673	1.62
408.456	1.62
409.238	0.62
410.021	3.62
410.803	2.62
411.586	2.62
412.368	4.62
413.151	4.62
413.933	4.62
414.715	4.62
415.497	2.62
416.279	4.62
417.061	3.62
417.843	3.62
418.624	4.62
419.406	6.62
420.188	6.62
420.969	5.62
421.751	6.62
422.532	9.62
423.313	4.62
424.095	6.62
424.876	4.62
425.657	4.62
426.438	7.62
427.219	4.62
428	4.62
428.78	7.62
429.561	4.62
430.342	6.62
431.122	4.62
431.903	6.62
432.683	7.62
433.464	7.62
434.244	7.62
435.024	9.62
435.804	7.62
436.584	8.62
437.364	10.62
438.144	9.62
438.924	8.62
439.704	8.62
440.483	11.62
441.263	13.62
442.042	10.62
442.822	10.62
443.601	10.62
444.38	12.62
445.16	16.62
445.939	13.62
446.718	17.62
447.497	19.62
448.276	20.62
449.054	20.62
449.833	19.62
450.612	24.62
451.391	26.62
452.169	29.62
452.948	27.62
453.726	31.62
454.504	34.62
455.282	38.62
456.061	43.62
456.839	45.62
457.617	53.62
458.395	60.62
459.172	57.62
459.95	68.62
460.728	74.62
461.506	87.62
462.283	96.62
463.061	101.62
463.838	119.62
464.615	130.62
465.393	144.62
466.17	162.62
466.947	182.62
467.724	202.62
468.501	226.62
469.278	254.62
470.055	279.62
470.831	318.62
471.608	348.62
472.385	396.62
473.161	433.62
473.938	489.62
474.714	545.62
475.49	604.62
476.266	671.62
477.043	749.62
477.819	822.62
478.595	929.62
479.371	1032.62
480.146	1134.62
480.922	1250.62
481.698	1413.62
482.473	1556.62
483.249	1716.62
484.024	1906.62
484.8	2100.62
485.575	2337.62
486.35	2577.62
487.126	2867.62
487.901	3159.62
488.676	3521.62
489.451	3882.62
490.225	4282.62
491	4736.62
491.775	5215.62
492.55	5726.62
493.324	6295.62
494.099	6918.62
494.873	7556.62
495.647	8315.62
496.422	8944.62
497.196	9756.62
497.97	10547.62
498.744	11363.62
499.518	12177.62
500.292	12993.62
501.066	13659.62
501.839	14469.62
502.613	15108.62
503.387	15760.62
504.16	16245.62
504.934	16678.62
505.707	16972.62
506.48	17230.62
507.253	17212.62
508.027	17240.62
508.8	17111.62
509.573	16893.62
510.346	16536.62
511.118	16095.62
511.891	15603.62
512.664	15046.62
513.437	14502.62
514.209	13931.62
514.982	13284.62
515.754	12717.62
516.526	12097.62
517.298	11547.62
518.071	11040.62
518.843	10533.62
519.615	10075.62
520.387	9658.62
521.159	9282.62
521.93	8906.62
522.702	8544.62
523.474	8230.62
524.245	7925.62
525.017	7592.62
525.788	7271.62
526.56	6981.62
527.331	6673.62
528.102	6421.62
528.873	6122.62
529.644	5817.62
530.415	5547.62
531.186	5272.62
531.957	4970.62
532.728	4697.62
533.498	4477.62
534.269	4208.62
535.039	3950.62
535.81	3751.62
536.58	3545.62
537.351	3327.62
538.121	3122.62
538.891	2976.62
539.661	2825.62
540.431	2666.62
541.201	2509.62
541.971	2386.62
542.741	2247.62
543.51	2143.62
544.28	2038.62
545.05	1928.62
545.819	1823.62
546.588	1753.62
547.358	1659.62
548.127	1569.62
548.896	1509.62
549.665	1419.62
550.434	1351.62
551.203	1274.62
551.972	1211.62
552.741	1143.62
553.51	1069.62
554.278	1028.62
555.047	968.62
555.815	918.62
556.584	855.62
557.352	804.62
558.121	756.62
558.889	723.62
559.657	665.62
560.425	643.62
561.193	594.62
561.961	564.62
562.729	533.62
563.496	511.62
564.264	474.62
565.032	445.62
565.799	425.62
566.567	396.62
567.334	378.62
568.101	348.62
568.869	341.62
569.636	319.62
570.403	304.62
571.17	274.62
571.937	266.62
572.704	250.62
573.471	234.62
574.237	222.62
575.004	209.62
575.771	198.62
576.537	186.62
577.303	171.62
578.07	164.62
578.836	156.62
579.602	143.62
580.368	138.62
581.134	129.62
581.9	121.62
582.666	116.62
583.432	110.62
584.198	105.62
584.964	103.62
585.729	95.62
586.495	87.62
587.26	87.62
588.025	79.62
588.791	75.62
589.556	72.62
590.321	68.62
591.086	63.62
591.851	58.62
592.616	57.62
593.381	52.62
594.146	51.62
594.911	48.62
595.675	46.62
596.44	44.62
597.204	39.62
597.969	40.62
598.733	36.62
599.497	33.62
600.261	35.62
601.025	35.62
601.79	31.62
602.553	31.62
603.317	26.62
604.081	27.62
604.845	29.62
605.609	23.62
606.372	24.62
607.136	24.62
607.899	22.62
608.662	23.62
609.426	21.62
610.189	17.62
610.952	20.62
611.715	17.62
612.478	15.62
613.241	16.62
614.004	14.62
614.767	14.62
615.529	15.62
616.292	14.62
617.055	13.62
617.817	16.62
618.579	10.62
619.342	14.62
620.104	9.62
620.866	10.62
621.628	11.62
622.39	12.62
623.152	10.62
623.914	10.62
624.676	9.62
625.438	8.62
626.199	10.62
626.961	9.62
627.722	6.62
628.484	8.62
629.245	5.62
630.006	7.62
630.768	9.62
631.529	5.62
632.29	6.62
633.051	5.62
633.812	6.62
634.573	3.62
635.333	5.62
636.094	5.62
636.855	5.62
637.615	5.62
638.376	2.62
639.136	5.62
639.896	4.62
640.657	5.62
641.417	3.62
642.177	4.62
642.937	3.62
643.697	4.62
644.457	6.62
645.216	6.62
645.976	6.62
646.736	2.62
647.495	4.62
648.255	6.62
649.014	2.62
649.774	2.62
650.533	1.62
651.292	2.62
652.051	2.62
652.81	2.62
653.569	3.62
654.328	0.62
655.087	2.62
655.846	3.62
656.604	2.62
657.363	1.62
658.121	4.62
658.88	1.62
659.638	0.62
660.397	2.62
661.155	3.62
661.913	1.62
662.671	1.62
663.429	1.62
664.187	4.62
664.945	0.62
665.703	0.62
666.46	3.62
667.218	3.62
667.976	3.62
668.733	1.62
669.49	3.62
670.248	1.62
671.005	2.62
671.762	2.62
672.519	0.62
673.276	2.62
674.033	0.62
674.79	3.62
675.547	0.62
676.304	0.62
677.06	2.62
677.817	2.62
678.574	2.62
679.33	1.62
680.086	4.62
680.843	0.62
681.599	0.62
682.355	1.62
683.111	0.62
683.867	3.62
684.623	3.62
685.379	1.62
686.135	1.62
686.89	1.62
687.646	2.62
688.402	0.62
689.157	2.62
689.912	1.62
690.668	2.62
691.423	1.62
692.178	1.62
692.933	2.62
693.688	0.62
694.443	2.62
695.198	2.62
695.953	2.62
696.708	1.62
697.462	0.62
698.217	2.62
698.972	0.62
699.726	2.62
700.48	3.62
701.235	0.62
701.989	1.62
702.743	0.62
703.497	1.62
704.251	-1.38
705.005	3.62
705.759	0.62
706.513	2.62
707.266	1.62
708.02	1.62
708.774	1.62
709.527	0.62
710.28	3.62
711.034	1.62
711.787	1.62
712.54	2.62
713.293	1.62
714.046	1.62
714.799	0.62
715.552	-0.38
716.305	0.62
717.058	1.62
717.81	1.62
718.563	0.62
719.315	1.62
720.068	1.62
720.82	2.62
721.573	-0.38
722.325	1.62
723.077	1.62
723.829	-1.38
724.581	0.62
725.333	-1.38
726.085	2.62
726.836	3.62
727.588	0.62
728.34	0.62
729.091	2.62
729.843	2.62
730.594	-0.38
731.346	0.62
732.097	4.62
732.848	1.62
733.599	-0.38
734.35	1.62
735.101	0.62
735.852	1.62
736.603	4.62
737.354	1.62
738.104	-1.38
738.855	1.62
739.605	0.62
740.356	1.62
741.106	1.62
741.856	0.62
742.607	0.62
743.357	2.62
744.107	0.62
744.857	2.62
745.607	2.62
746.357	3.62
747.106	2.62
747.856	1.62
748.606	-0.38
749.355	2.62
750.105	1.62
750.854	1.62
751.603	2.62
752.353	2.62
753.102	3.62
753.851	1.62
754.6	0.62
755.349	4.62
756.098	2.62
756.847	2.62
757.595	4.62
758.344	0.62
759.093	2.62
759.841	6.62
760.589	1.62
761.338	2.62
762.086	2.62
762.834	1.62
763.582	4.62
764.331	3.62
765.079	5.62
765.826	4.62
766.574	5.62
767.322	3.62
768.07	2.62
768.817	4.62
769.565	2.62
770.312	6.62
771.06	3.62
771.807	1.62
772.554	2.62
773.302	3.62
774.049	1.62
774.796	1.62
775.543	3.62
776.29	6.62
777.036	6.62
777.783	3.62
778.53	3.62
779.276	4.62
780.023	4.62
780.769	3.62
781.516	7.62
782.262	6.62
783.008	1.62
783.754	5.62
784.5	4.62
785.246	4.62
785.992	5.62
786.738	4.62
787.484	3.62
788.23	3.62
788.975	1.62
789.721	6.62
790.466	5.62
791.212	5.62
791.957	1.62
792.702	4.62
793.447	2.62
794.193	3.62
794.938	5.62
795.683	2.62
796.427	4.62
797.172	5.62
797.917	4.62
798.662	3.62
799.406	2.62
800.151	3.62
800.895	5.62
801.64	3.62
802.384	1.62
803.128	2.62
803.872	3.62
804.616	3.62
805.36	4.62
806.104	3.62
806.848	3.62
807.592	2.62
808.336	4.62
809.079	3.62
809.823	2.62
810.566	4.62
811.31	3.62
812.053	3.62
812.796	1.62
813.539	-0.38
814.283	4.62
815.026	1.62
815.769	1.62
816.511	-0.38
817.254	0.62
817.997	4.62
818.74	3.62
819.482	2.62
820.225	4.62
820.967	3.62
821.71	2.62
822.452	2.62
823.194	1.62
823.936	2.62
824.678	2.62
825.42	2.62
826.162	2.62
826.904	1.62
827.646	1.62
828.388	3.62
829.129	1.62
829.871	1.62
830.612	1.62
831.354	1.62
832.095	1.62
832.836	3.62
833.577	1.62
834.319	0.62
835.06	4.62
835.801	0.62
836.542	1.62
837.282	2.62
838.023	1.62
838.764	4.62
839.504	0.62
840.245	2.62
840.985	1.62
841.726	0.62
842.466	1.62
843.206	1.62
843.946	2.62
844.687	0.62
845.427	1.62
846.166	1.62
846.906	1.62
847.646	-0.38
848.386	0.62
849.125	1.62
849.865	-0.38
850.605	1.62
851.344	0.62
852.083	-2.38
852.823	0.62
853.562	-0.38
854.301	-0.38
855.04	2.62
855.779	0.62
856.518	-0.38
857.257	1.62
857.995	0.62
858.734	-0.38
859.473	1.62
860.211	-1.38
860.95	1.62
861.688	3.62
862.426	2.62
863.165	-0.38
863.903	0.62
864.641	-0.38
865.379	1.62
866.117	2.62
866.855	0.62
867.593	-0.38
868.33	1.62
869.068	-0.38
869.806	-0.38
870.543	-1.38
871.28	0.62
872.018	0.62
872.755	0.62
873.492	-0.38
874.229	0.62
874.967	0.62
875.703	-0.38
876.44	1.62
877.177	-2.38
877.914	-1.38
878.651	1.62
879.387	0.62
880.124	-0.38
880.86	-1.38
881.597	0.62
882.333	-0.38
883.069	1.62
883.806	0.62
884.542	-0.38
885.278	0.62
886.014	-0.38
886.749	0.62
887.485	0.62
888.221	1.62
888.957	1.62
889.692	0.62
890.428	0.62
891.163	0.62
891.899	-0.38
892.634	0.62
893.369	-3.38
894.104	0.62
894.839	0.62
895.574	-0.38
896.309	0.62
897.044	0.62
897.779	-0.38
898.514	-1.38
899.248	1.62
899.983	-1.38
900.717	-0.38
901.452	0.62
902.186	0.62
902.92	1.62
903.654	-1.38
904.389	-1.38
905.123	0.62
905.857	-1.38
906.59	-0.38
907.324	-0.38
908.058	0.62
908.792	0.62
909.525	-0.38
910.259	-0.38
910.992	0.62
911.726	-0.38
912.459	-0.38
913.192	-1.38
913.925	-0.38
914.658	1.62
915.391	-1.38
916.124	-0.38
916.857	2.62
917.59	0.62
918.323	0.62
919.055	-0.38
919.788	-1.38
920.521	2.62
921.253	-0.38
921.985	0.62
922.718	0.62
923.45	0.62
924.182	-0.38
924.914	0.62
925.646	-1.38
926.378	-0.38
927.11	-0.38
927.841	-0.38
928.573	-1.38
929.305	-0.38
930.036	0.62
930.768	-0.38
931.499	0.62
932.23	-1.38
932.962	-0.38
933.693	-0.38
934.424	0.62
935.155	-0.38
935.886	-1.38
936.617	-0.38
937.348	-2.38
938.078	-0.38
938.809	-2.38
939.54	-0.38
940.27	-0.38
941.001	1.62
941.731	-2.38
942.461	-1.38
943.191	-0.38
943.922	-0.38
944.652	-0.38
945.382	-0.38
946.112	0.62
946.841	1.62
947.571	1.62
948.301	0.62
949.031	-2.38
949.76	-2.38
950.49	0.62
951.219	-1.38
951.948	-0.38
952.678	1.62
953.407	0.62
954.136	-0.38
954.865	-0.38
955.594	0.62
956.323	0.62
957.052	-1.38
957.78	0.62
958.509	-0.38
959.238	-0.38
959.966	-0.38
960.695	-1.38
961.423	-0.38
962.151	-2.38
962.88	0.62
963.608	-0.38
964.336	-0.38
965.064	0.62
965.792	0.62
966.52	-1.38
967.247	-1.38
967.975	1.62
968.703	0.62
969.43	0.62
970.158	0.62
970.885	-0.38
971.613	0.62
972.34	-0.38
973.067	-3.38
973.794	-0.38
974.521	-2.38
975.248	0.62
975.975	0.62
976.702	-0.38
977.429	-3.38
978.156	1.62
978.882	0.62
979.609	1.62
980.335	1.62
981.062	0.62
981.788	0.62
982.514	-2.38
983.24	2.62
983.967	-1.38
984.693	1.62
985.419	-1.38
986.144	-1.38
986.87	-1.38
987.596	0.62
988.322	-0.38
989.047	0.62
989.773	-0.38
990.498	-1.38
991.224	-1.38
991.949	0.62
992.674	-0.38
993.399	-1.38
994.124	-0.38
994.849	-1.38
995.574	-0.38
996.299	-0.38
997.024	0.62
997.749	0.62
998.473	-0.38
999.198	-2.38
999.922	-0.38
1000.647	1.62
1001.371	2.62
1002.095	-3.38
1002.82	-0.38
1003.544	-3.38
1004.268	-2.38
1004.992	-0.38
1005.716	-2.38
1006.439	-0.38
1007.163	-2.38
1007.887	0.62
1008.611	-0.38
1009.334	-0.38
1010.058	1.62
1010.781	-0.38
1011.504	-1.38
1012.228	-1.38
1012.951	1.62
1013.674	0.62
1014.397	-0.38
1015.12	2.62
