节点500_145_QEPB04081__91__11-30-25-602.txt的数据

Date: Wed Nov 12 11:30:25 CST 2025
User: PC
Spectrometer: QEPB0408
触发模式: 0
积分时间 (秒): 1.000000E-2
Scans to average: 1
启用暗噪声校正: true
启用非线性校正: false
滑动平均宽度: 0
X轴模式: Wavelengths
Number of Pixels in Spectrum: 1044
>>>>>Begin Spectral Data<<<<<
220.843	1
221.644	-2
222.444	2
223.244	1
224.045	0
224.845	0
225.645	1
226.445	0
227.245	0
228.045	-2
228.845	1
229.645	0
230.444	0
231.244	2
232.043	-2
232.843	2
233.642	-3
234.442	-1
235.241	1
236.04	1
236.839	2
237.638	0
238.437	1
239.236	1
240.035	3
240.833	0
241.632	2
242.43	1
243.229	-2
244.027	-1
244.826	-1
245.624	2
246.422	1
247.22	1
248.018	6
248.816	1
249.614	4
250.412	2
251.21	3
252.007	2
252.805	2
253.602	4
254.4	2
255.197	2
255.994	4
256.791	3
257.589	4
258.386	2
259.183	4
259.979	3
260.776	5
261.573	5
262.37	7
263.166	6
263.963	4
264.759	6
265.556	4
266.352	7
267.148	4
267.944	7
268.74	8
269.536	6
270.332	10
271.128	8
271.924	7
272.719	8
273.515	9
274.311	10
275.106	10
275.901	8
276.697	9
277.492	10
278.287	11
279.082	10
279.877	7
280.672	11
281.467	11
282.262	10
283.056	12
283.851	12
284.646	10
285.44	11
286.234	12
287.029	12
287.823	10
288.617	11
289.411	11
290.205	13
290.999	12
291.793	13
292.587	11
293.381	11
294.174	10
294.968	10
295.761	10
296.555	10
297.348	11
298.141	11
298.935	11
299.728	9
300.521	9
301.314	8
302.107	8
302.899	9
303.692	7
304.485	8
305.277	7
306.07	11
306.862	5
307.655	9
308.447	6
309.239	10
310.031	9
310.823	5
311.615	7
312.407	5
313.199	4
313.991	6
314.783	4
315.574	5
316.366	7
317.157	6
317.949	6
318.74	5
319.531	6
320.322	5
321.113	5
321.904	3
322.695	6
323.486	3
324.277	4
325.068	5
325.858	3
326.649	5
327.439	5
328.23	5
329.02	5
329.81	4
330.6	3
331.391	2
332.181	4
332.971	3
333.76	4
334.55	2
335.34	5
336.13	6
336.919	3
337.709	4
338.498	2
339.287	5
340.077	5
340.866	3
341.655	4
342.444	1
343.233	2
344.022	4
344.811	3
345.6	2
346.388	2
347.177	3
347.965	3
348.754	5
349.542	4
350.33	3
351.119	5
351.907	5
352.695	5
353.483	3
354.271	4
355.059	3
355.846	2
356.634	4
357.422	3
358.209	2
358.997	3
359.784	3
360.571	3
361.359	3
362.146	5
362.933	0
363.72	3
364.507	4
365.294	4
366.081	1
366.867	4
367.654	6
368.44	2
369.227	3
370.013	5
370.8	4
371.586	3
372.372	0
373.158	3
373.944	2
374.73	0
375.516	4
376.302	2
377.088	3
377.873	7
378.659	3
379.445	1
380.23	1
381.015	2
381.801	3
382.586	5
383.371	2
384.156	4
384.941	2
385.726	4
386.511	2
387.296	4
388.08	2
388.865	1
389.649	2
390.434	1
391.218	4
392.003	4
392.787	3
393.571	6
394.355	4
395.139	5
395.923	2
396.707	4
397.491	5
398.274	6
399.058	1
399.842	4
400.625	4
401.408	6
402.192	3
402.975	3
403.758	3
404.541	4
405.324	3
406.107	4
406.89	4
407.673	4
408.456	3
409.238	6
410.021	4
410.803	3
411.586	4
412.368	7
413.151	5
413.933	4
414.715	2
415.497	6
416.279	4
417.061	5
417.843	3
418.624	7
419.406	6
420.188	5
420.969	5
421.751	5
422.532	6
423.313	6
424.095	4
424.876	6
425.657	5
426.438	9
427.219	8
428	6
428.78	8
429.561	5
430.342	7
431.122	7
431.903	7
432.683	9
433.464	7
434.244	10
435.024	11
435.804	9
436.584	9
437.364	9
438.144	9
438.924	10
439.704	10
440.483	13
441.263	11
442.042	12
442.822	12
443.601	14
444.38	15
445.16	14
445.939	14
446.718	19
447.497	17
448.276	18
449.054	21
449.833	23
450.612	25
451.391	24
452.169	27
452.948	31
453.726	31
454.504	33
455.282	37
456.061	46
456.839	41
457.617	50
458.395	55
459.172	62
459.95	70
460.728	75
461.506	82
462.283	92
463.061	106
463.838	114
464.615	128
465.393	143
466.17	159
466.947	173
467.724	204
468.501	221
469.278	246
470.055	275
470.831	310
471.608	346
472.385	395
473.161	430
473.938	484
474.714	538
475.49	600
476.266	672
477.043	741
477.819	826
478.595	922
479.371	1019
480.146	1134
480.922	1249
481.698	1395
482.473	1560
483.249	1721
484.024	1889
484.8	2110
485.575	2338
486.35	2593
487.126	2873
487.901	3172
488.676	3513
489.451	3892
490.225	4290
491	4779
491.775	5252
492.55	5768
493.324	6330
494.099	6993
494.873	7642
495.647	8336
496.422	9083
497.196	9907
497.97	10670
498.744	11449
499.518	12316
500.292	13074
501.066	13869
501.839	14622
502.613	15277
503.387	15880
504.16	16390
504.934	16821
505.707	17196
506.48	17368
507.253	17408
508.027	17394
508.8	17186
509.573	16945
510.346	16586
511.118	16132
511.891	15583
512.664	15020
513.437	14452
514.209	13930
514.982	13267
515.754	12722
516.526	12080
517.298	11515
518.071	11021
518.843	10466
519.615	10043
520.387	9683
521.159	9260
521.93	8917
522.702	8509
523.474	8247
524.245	7891
525.017	7594
525.788	7280
526.56	6989
527.331	6695
528.102	6347
528.873	6087
529.644	5792
530.415	5524
531.186	5202
531.957	4954
532.728	4686
533.498	4417
534.269	4171
535.039	3970
535.81	3736
536.58	3518
537.351	3329
538.121	3103
538.891	2965
539.661	2801
540.431	2643
541.201	2510
541.971	2395
542.741	2241
543.51	2119
544.28	2030
545.05	1924
545.819	1823
546.588	1742
547.358	1656
548.127	1572
548.896	1484
549.665	1421
550.434	1342
551.203	1272
551.972	1193
552.741	1143
553.51	1087
554.278	1013
555.047	966
555.815	898
556.584	847
557.352	801
558.121	753
558.889	701
559.657	678
560.425	628
561.193	592
561.961	561
562.729	534
563.496	497
564.264	473
565.032	449
565.799	417
566.567	401
567.334	370
568.101	354
568.869	339
569.636	319
570.403	309
571.17	281
571.937	258
572.704	253
573.471	231
574.237	222
575.004	206
575.771	197
576.537	181
577.303	172
578.07	167
578.836	156
579.602	145
580.368	134
581.134	133
581.9	126
582.666	116
583.432	109
584.198	102
584.964	97
585.729	90
586.495	84
587.26	82
588.025	78
588.791	73
589.556	70
590.321	68
591.086	63
591.851	61
592.616	58
593.381	54
594.146	49
594.911	51
595.675	48
596.44	41
597.204	41
597.969	39
598.733	38
599.497	37
600.261	35
601.025	33
601.79	32
602.553	31
603.317	29
604.081	29
604.845	32
605.609	24
606.372	24
607.136	26
607.899	24
608.662	21
609.426	19
610.189	24
610.952	19
611.715	19
612.478	16
613.241	17
614.004	17
614.767	16
615.529	12
616.292	16
617.055	11
617.817	13
618.579	12
619.342	14
620.104	14
620.866	13
621.628	12
622.39	12
623.152	10
623.914	9
624.676	11
625.438	11
626.199	8
626.961	11
627.722	7
628.484	7
629.245	9
630.006	6
630.768	7
631.529	5
632.29	7
633.051	9
633.812	8
634.573	6
635.333	6
636.094	7
636.855	7
637.615	5
638.376	4
639.136	6
639.896	8
640.657	5
641.417	6
642.177	5
642.937	5
643.697	4
644.457	5
645.216	5
645.976	4
646.736	5
647.495	4
648.255	6
649.014	4
649.774	3
650.533	4
651.292	4
652.051	5
652.81	3
653.569	4
654.328	2
655.087	3
655.846	4
656.604	2
657.363	1
658.121	2
658.88	5
659.638	2
660.397	3
661.155	2
661.913	3
662.671	3
663.429	3
664.187	3
664.945	1
665.703	4
666.46	5
667.218	1
667.976	5
668.733	2
669.49	2
670.248	3
671.005	2
671.762	2
672.519	2
673.276	4
674.033	3
674.79	3
675.547	2
676.304	2
677.06	4
677.817	1
678.574	2
679.33	1
680.086	3
680.843	3
681.599	2
682.355	3
683.111	2
683.867	3
684.623	2
685.379	2
686.135	2
686.89	2
687.646	1
688.402	0
689.157	3
689.912	2
690.668	2
691.423	2
692.178	2
692.933	2
693.688	1
694.443	1
695.198	5
695.953	2
696.708	3
697.462	4
698.217	3
698.972	-1
699.726	2
700.48	1
701.235	1
701.989	2
702.743	1
703.497	2
704.251	2
705.005	3
705.759	0
706.513	0
707.266	1
708.02	2
708.774	3
709.527	1
710.28	2
711.034	4
711.787	3
712.54	1
713.293	2
714.046	2
714.799	1
715.552	4
716.305	1
717.058	3
717.81	2
718.563	2
719.315	2
720.068	2
720.82	2
721.573	2
722.325	2
723.077	4
723.829	0
724.581	2
725.333	1
726.085	1
726.836	3
727.588	-1
728.34	0
729.091	0
729.843	4
730.594	3
731.346	2
732.097	1
732.848	0
733.599	4
734.35	2
735.101	0
735.852	2
736.603	3
737.354	3
738.104	2
738.855	5
739.605	4
740.356	2
741.106	3
741.856	1
742.607	4
743.357	4
744.107	4
744.857	1
745.607	3
746.357	2
747.106	2
747.856	1
748.606	3
749.355	2
750.105	3
750.854	1
751.603	2
752.353	3
753.102	2
753.851	5
754.6	2
755.349	4
756.098	2
756.847	4
757.595	3
758.344	4
759.093	1
759.841	3
760.589	2
761.338	2
762.086	1
762.834	4
763.582	4
764.331	3
765.079	5
765.826	2
766.574	3
767.322	4
768.07	4
768.817	6
769.565	2
770.312	4
771.06	3
771.807	4
772.554	6
773.302	5
774.049	4
774.796	2
775.543	6
776.29	6
777.036	6
777.783	4
778.53	5
779.276	5
780.023	7
780.769	5
781.516	4
782.262	7
783.008	5
783.754	4
784.5	4
785.246	2
785.992	6
786.738	7
787.484	6
788.23	6
788.975	3
789.721	7
790.466	5
791.212	6
791.957	6
792.702	4
793.447	7
794.193	5
794.938	5
795.683	5
796.427	2
797.172	5
797.917	3
798.662	6
799.406	2
800.151	5
800.895	6
801.64	5
802.384	3
803.128	5
803.872	6
804.616	4
805.36	5
806.104	7
806.848	4
807.592	4
808.336	4
809.079	4
809.823	1
810.566	4
811.31	2
812.053	5
812.796	5
813.539	3
814.283	5
815.026	5
815.769	5
816.511	2
817.254	5
817.997	3
818.74	2
819.482	4
820.225	3
820.967	5
821.71	1
822.452	3
823.194	4
823.936	0
824.678	5
825.42	2
826.162	2
826.904	4
827.646	2
828.388	4
829.129	2
829.871	3
830.612	0
831.354	3
832.095	2
832.836	2
833.577	2
834.319	1
835.06	3
835.801	3
836.542	2
837.282	4
838.023	5
838.764	2
839.504	1
840.245	5
840.985	1
841.726	2
842.466	0
843.206	2
843.946	0
844.687	2
845.427	3
846.166	5
846.906	1
847.646	1
848.386	2
849.125	4
849.865	2
850.605	3
851.344	1
852.083	3
852.823	1
853.562	1
854.301	4
855.04	2
855.779	1
856.518	3
857.257	0
857.995	2
858.734	1
859.473	3
860.211	1
860.95	2
861.688	1
862.426	0
863.165	2
863.903	0
864.641	0
865.379	1
866.117	1
866.855	1
867.593	0
868.33	3
869.068	2
869.806	3
870.543	1
871.28	0
872.018	1
872.755	-1
873.492	1
874.229	1
874.967	2
875.703	0
876.44	2
877.177	2
877.914	-1
878.651	1
879.387	0
880.124	0
880.86	1
881.597	1
882.333	1
883.069	2
883.806	3
884.542	1
885.278	2
886.014	2
886.749	0
887.485	2
888.221	0
888.957	1
889.692	2
890.428	1
891.163	1
891.899	0
892.634	0
893.369	-1
894.104	1
894.839	1
895.574	0
896.309	1
897.044	-1
897.779	-1
898.514	-1
899.248	1
899.983	0
900.717	1
901.452	1
902.186	-2
902.92	1
903.654	1
904.389	-1
905.123	3
905.857	-2
906.59	2
907.324	-1
908.058	0
908.792	-1
909.525	2
910.259	1
910.992	0
911.726	-1
912.459	-1
913.192	1
913.925	0
914.658	1
915.391	2
916.124	0
916.857	-1
917.59	-3
918.323	0
919.055	-2
919.788	-2
920.521	-1
921.253	-1
921.985	2
922.718	0
923.45	0
924.182	2
924.914	3
925.646	0
926.378	0
927.11	1
927.841	0
928.573	2
929.305	-2
930.036	0
930.768	1
931.499	0
932.23	1
932.962	-2
933.693	0
934.424	1
935.155	0
935.886	-2
936.617	-2
937.348	1
938.078	-1
938.809	1
939.54	-1
940.27	1
941.001	-2
941.731	2
942.461	0
943.191	-2
943.922	0
944.652	-1
945.382	0
946.112	0
946.841	0
947.571	-1
948.301	0
949.031	0
949.76	0
950.49	1
951.219	2
951.948	-1
952.678	0
953.407	1
954.136	0
954.865	0
955.594	0
956.323	1
957.052	-1
957.78	0
958.509	-2
959.238	-2
959.966	0
960.695	1
961.423	-1
962.151	0
962.88	0
963.608	-2
964.336	-1
965.064	0
965.792	-2
966.52	2
967.247	2
967.975	0
968.703	-1
969.43	-1
970.158	0
970.885	0
971.613	0
972.34	0
973.067	0
973.794	0
974.521	-1
975.248	1
975.975	-3
976.702	1
977.429	1
978.156	0
978.882	2
979.609	0
980.335	2
981.062	1
981.788	0
982.514	1
983.24	2
983.967	1
984.693	1
985.419	0
986.144	0
986.87	-2
987.596	1
988.322	1
989.047	2
989.773	0
990.498	1
991.224	0
991.949	1
992.674	0
993.399	0
994.124	2
994.849	-2
995.574	-2
996.299	1
997.024	0
997.749	-1
998.473	0
999.198	-1
999.922	1
1000.647	0
1001.371	2
1002.095	-3
1002.82	1
1003.544	-2
1004.268	0
1004.992	1
1005.716	0
1006.439	0
1007.163	0
1007.887	1
1008.611	-1
1009.334	-1
1010.058	0
1010.781	1
1011.504	1
1012.228	-1
1012.951	1
1013.674	1
1014.397	0
1015.12	0
