节点500_145_QEPB04081__100__11-30-34-597.txt的数据

Date: Wed Nov 12 11:30:34 CST 2025
User: PC
Spectrometer: QEPB0408
触发模式: 0
积分时间 (秒): 1.000000E-2
Scans to average: 1
启用暗噪声校正: true
启用非线性校正: false
滑动平均宽度: 0
X轴模式: Wavelengths
Number of Pixels in Spectrum: 1044
>>>>>Begin Spectral Data<<<<<
220.843	-2.12
221.644	-1.12
222.444	-2.12
223.244	-0.12
224.045	-0.12
224.845	0.88
225.645	0.88
226.445	-1.12
227.245	-0.12
228.045	0.88
228.845	0.88
229.645	-0.12
230.444	-1.12
231.244	-1.12
232.043	0.88
232.843	-0.12
233.642	0.88
234.442	-0.12
235.241	0.88
236.04	-0.12
236.839	0.88
237.638	0.88
238.437	0.88
239.236	3.88
240.035	-0.12
240.833	1.88
241.632	0.88
242.43	0.88
243.229	0.88
244.027	4.88
244.826	0.88
245.624	1.88
246.422	1.88
247.22	-0.12
248.018	0.88
248.816	1.88
249.614	2.88
250.412	1.88
251.21	2.88
252.007	2.88
252.805	0.88
253.602	1.88
254.4	3.88
255.197	0.88
255.994	3.88
256.791	2.88
257.589	6.88
258.386	0.88
259.183	6.88
259.979	6.88
260.776	4.88
261.573	4.88
262.37	3.88
263.166	5.88
263.963	3.88
264.759	6.88
265.556	7.88
266.352	6.88
267.148	7.88
267.944	5.88
268.74	5.88
269.536	4.88
270.332	6.88
271.128	7.88
271.924	9.88
272.719	8.88
273.515	9.88
274.311	8.88
275.106	8.88
275.901	9.88
276.697	10.88
277.492	9.88
278.287	13.88
279.082	9.88
279.877	12.88
280.672	8.88
281.467	10.88
282.262	10.88
283.056	12.88
283.851	10.88
284.646	10.88
285.44	11.88
286.234	9.88
287.029	11.88
287.823	10.88
288.617	13.88
289.411	12.88
290.205	11.88
290.999	13.88
291.793	10.88
292.587	11.88
293.381	12.88
294.174	10.88
294.968	11.88
295.761	10.88
296.555	9.88
297.348	8.88
298.141	8.88
298.935	11.88
299.728	8.88
300.521	8.88
301.314	9.88
302.107	7.88
302.899	6.88
303.692	8.88
304.485	7.88
305.277	10.88
306.07	8.88
306.862	8.88
307.655	7.88
308.447	7.88
309.239	6.88
310.031	4.88
310.823	6.88
311.615	5.88
312.407	3.88
313.199	5.88
313.991	5.88
314.783	8.88
315.574	6.88
316.366	6.88
317.157	7.88
317.949	4.88
318.74	5.88
319.531	3.88
320.322	4.88
321.113	3.88
321.904	3.88
322.695	4.88
323.486	5.88
324.277	4.88
325.068	4.88
325.858	4.88
326.649	2.88
327.439	4.88
328.23	4.88
329.02	1.88
329.81	2.88
330.6	1.88
331.391	0.88
332.181	4.88
332.971	4.88
333.76	4.88
334.55	5.88
335.34	4.88
336.13	2.88
336.919	6.88
337.709	4.88
338.498	-1.12
339.287	3.88
340.077	3.88
340.866	2.88
341.655	3.88
342.444	2.88
343.233	3.88
344.022	3.88
344.811	2.88
345.6	2.88
346.388	3.88
347.177	5.88
347.965	3.88
348.754	2.88
349.542	3.88
350.33	5.88
351.119	5.88
351.907	3.88
352.695	2.88
353.483	0.88
354.271	2.88
355.059	0.88
355.846	3.88
356.634	1.88
357.422	1.88
358.209	0.88
358.997	2.88
359.784	4.88
360.571	1.88
361.359	2.88
362.146	0.88
362.933	3.88
363.72	3.88
364.507	2.88
365.294	3.88
366.081	2.88
366.867	-0.12
367.654	3.88
368.44	1.88
369.227	1.88
370.013	1.88
370.8	5.88
371.586	3.88
372.372	1.88
373.158	1.88
373.944	1.88
374.73	1.88
375.516	1.88
376.302	2.88
377.088	3.88
377.873	0.88
378.659	2.88
379.445	4.88
380.23	3.88
381.015	0.88
381.801	3.88
382.586	3.88
383.371	2.88
384.156	3.88
384.941	1.88
385.726	5.88
386.511	2.88
387.296	2.88
388.08	3.88
388.865	0.88
389.649	4.88
390.434	5.88
391.218	4.88
392.003	4.88
392.787	3.88
393.571	3.88
394.355	0.88
395.139	3.88
395.923	3.88
396.707	2.88
397.491	2.88
398.274	3.88
399.058	2.88
399.842	2.88
400.625	5.88
401.408	0.88
402.192	4.88
402.975	0.88
403.758	3.88
404.541	3.88
405.324	5.88
406.107	4.88
406.89	4.88
407.673	5.88
408.456	5.88
409.238	5.88
410.021	4.88
410.803	1.88
411.586	4.88
412.368	3.88
413.151	4.88
413.933	5.88
414.715	4.88
415.497	4.88
416.279	4.88
417.061	3.88
417.843	4.88
418.624	4.88
419.406	5.88
420.188	6.88
420.969	8.88
421.751	4.88
422.532	7.88
423.313	7.88
424.095	6.88
424.876	5.88
425.657	6.88
426.438	6.88
427.219	6.88
428	4.88
428.78	6.88
429.561	6.88
430.342	8.88
431.122	7.88
431.903	9.88
432.683	4.88
433.464	6.88
434.244	9.88
435.024	6.88
435.804	9.88
436.584	8.88
437.364	10.88
438.144	6.88
438.924	12.88
439.704	9.88
440.483	11.88
441.263	12.88
442.042	11.88
442.822	12.88
443.601	12.88
444.38	14.88
445.16	14.88
445.939	15.88
446.718	16.88
447.497	16.88
448.276	19.88
449.054	20.88
449.833	23.88
450.612	22.88
451.391	24.88
452.169	27.88
452.948	25.88
453.726	32.88
454.504	36.88
455.282	38.88
456.061	39.88
456.839	45.88
457.617	51.88
458.395	56.88
459.172	64.88
459.95	67.88
460.728	74.88
461.506	86.88
462.283	90.88
463.061	105.88
463.838	111.88
464.615	132.88
465.393	145.88
466.17	167.88
466.947	180.88
467.724	197.88
468.501	224.88
469.278	251.88
470.055	287.88
470.831	314.88
471.608	351.88
472.385	397.88
473.161	438.88
473.938	482.88
474.714	548.88
475.49	603.88
476.266	664.88
477.043	742.88
477.819	830.88
478.595	907.88
479.371	1011.88
480.146	1131.88
480.922	1261.88
481.698	1400.88
482.473	1558.88
483.249	1726.88
484.024	1903.88
484.8	2113.88
485.575	2340.88
486.35	2576.88
487.126	2861.88
487.901	3185.88
488.676	3513.88
489.451	3870.88
490.225	4316.88
491	4737.88
491.775	5228.88
492.55	5778.88
493.324	6316.88
494.099	6958.88
494.873	7632.88
495.647	8319.88
496.422	9049.88
497.196	9809.88
497.97	10599.88
498.744	11457.88
499.518	12227.88
500.292	13058.88
501.066	13803.88
501.839	14573.88
502.613	15201.88
503.387	15864.88
504.16	16361.88
504.934	16749.88
505.707	17092.88
506.48	17274.88
507.253	17336.88
508.027	17340.88
508.8	17185.88
509.573	16967.88
510.346	16576.88
511.118	16086.88
511.891	15589.88
512.664	15025.88
513.437	14483.88
514.209	13888.88
514.982	13266.88
515.754	12679.88
516.526	12122.88
517.298	11545.88
518.071	10997.88
518.843	10516.88
519.615	10092.88
520.387	9638.88
521.159	9234.88
521.93	8911.88
522.702	8577.88
523.474	8199.88
524.245	7898.88
525.017	7606.88
525.788	7312.88
526.56	6987.88
527.331	6701.88
528.102	6367.88
528.873	6096.88
529.644	5786.88
530.415	5530.88
531.186	5265.88
531.957	4953.88
532.728	4710.88
533.498	4454.88
534.269	4201.88
535.039	3935.88
535.81	3729.88
536.58	3510.88
537.351	3329.88
538.121	3121.88
538.891	2964.88
539.661	2826.88
540.431	2644.88
541.201	2498.88
541.971	2370.88
542.741	2249.88
543.51	2115.88
544.28	2018.88
545.05	1925.88
545.819	1819.88
546.588	1738.88
547.358	1663.88
548.127	1579.88
548.896	1486.88
549.665	1417.88
550.434	1343.88
551.203	1272.88
551.972	1210.88
552.741	1134.88
553.51	1073.88
554.278	1019.88
555.047	966.88
555.815	908.88
556.584	849.88
557.352	798.88
558.121	751.88
558.889	717.88
559.657	664.88
560.425	632.88
561.193	597.88
561.961	567.88
562.729	526.88
563.496	496.88
564.264	471.88
565.032	445.88
565.799	422.88
566.567	394.88
567.334	380.88
568.101	357.88
568.869	332.88
569.636	312.88
570.403	297.88
571.17	281.88
571.937	264.88
572.704	249.88
573.471	234.88
574.237	218.88
575.004	208.88
575.771	199.88
576.537	185.88
577.303	174.88
578.07	165.88
578.836	150.88
579.602	146.88
580.368	133.88
581.134	129.88
581.9	122.88
582.666	114.88
583.432	109.88
584.198	106.88
584.964	98.88
585.729	93.88
586.495	88.88
587.26	80.88
588.025	73.88
588.791	74.88
589.556	71.88
590.321	69.88
591.086	61.88
591.851	61.88
592.616	52.88
593.381	55.88
594.146	51.88
594.911	46.88
595.675	49.88
596.44	44.88
597.204	42.88
597.969	38.88
598.733	37.88
599.497	34.88
600.261	36.88
601.025	34.88
601.79	32.88
602.553	29.88
603.317	30.88
604.081	28.88
604.845	26.88
605.609	24.88
606.372	26.88
607.136	23.88
607.899	22.88
608.662	20.88
609.426	20.88
610.189	19.88
610.952	20.88
611.715	17.88
612.478	17.88
613.241	17.88
614.004	13.88
614.767	15.88
615.529	16.88
616.292	17.88
617.055	12.88
617.817	13.88
618.579	11.88
619.342	14.88
620.104	9.88
620.866	11.88
621.628	12.88
622.39	10.88
623.152	9.88
623.914	9.88
624.676	9.88
625.438	8.88
626.199	10.88
626.961	7.88
627.722	6.88
628.484	9.88
629.245	7.88
630.006	4.88
630.768	8.88
631.529	6.88
632.29	6.88
633.051	5.88
633.812	6.88
634.573	6.88
635.333	6.88
636.094	6.88
636.855	4.88
637.615	4.88
638.376	4.88
639.136	5.88
639.896	5.88
640.657	4.88
641.417	4.88
642.177	3.88
642.937	5.88
643.697	5.88
644.457	2.88
645.216	4.88
645.976	3.88
646.736	4.88
647.495	5.88
648.255	1.88
649.014	0.88
649.774	3.88
650.533	4.88
651.292	4.88
652.051	3.88
652.81	3.88
653.569	0.88
654.328	3.88
655.087	5.88
655.846	0.88
656.604	2.88
657.363	4.88
658.121	1.88
658.88	3.88
659.638	2.88
660.397	2.88
661.155	4.88
661.913	1.88
662.671	-0.12
663.429	2.88
664.187	1.88
664.945	1.88
665.703	3.88
666.46	2.88
667.218	1.88
667.976	2.88
668.733	2.88
669.49	3.88
670.248	2.88
671.005	3.88
671.762	1.88
672.519	1.88
673.276	3.88
674.033	-0.12
674.79	2.88
675.547	1.88
676.304	4.88
677.06	1.88
677.817	0.88
678.574	1.88
679.33	0.88
680.086	4.88
680.843	1.88
681.599	3.88
682.355	0.88
683.111	3.88
683.867	2.88
684.623	0.88
685.379	1.88
686.135	1.88
686.89	2.88
687.646	1.88
688.402	0.88
689.157	1.88
689.912	2.88
690.668	0.88
691.423	1.88
692.178	2.88
692.933	-0.12
693.688	1.88
694.443	4.88
695.198	0.88
695.953	0.88
696.708	-2.12
697.462	4.88
698.217	1.88
698.972	3.88
699.726	-0.12
700.48	1.88
701.235	3.88
701.989	0.88
702.743	1.88
703.497	1.88
704.251	2.88
705.005	4.88
705.759	0.88
706.513	1.88
707.266	2.88
708.02	0.88
708.774	2.88
709.527	0.88
710.28	1.88
711.034	-0.12
711.787	2.88
712.54	-0.12
713.293	0.88
714.046	1.88
714.799	2.88
715.552	2.88
716.305	0.88
717.058	1.88
717.81	-0.12
718.563	1.88
719.315	3.88
720.068	0.88
720.82	2.88
721.573	0.88
722.325	1.88
723.077	1.88
723.829	1.88
724.581	1.88
725.333	2.88
726.085	1.88
726.836	1.88
727.588	2.88
728.34	1.88
729.091	3.88
729.843	1.88
730.594	1.88
731.346	3.88
732.097	-2.12
732.848	2.88
733.599	-0.12
734.35	1.88
735.101	1.88
735.852	1.88
736.603	1.88
737.354	1.88
738.104	2.88
738.855	0.88
739.605	0.88
740.356	1.88
741.106	0.88
741.856	-0.12
742.607	1.88
743.357	1.88
744.107	1.88
744.857	1.88
745.607	3.88
746.357	2.88
747.106	1.88
747.856	2.88
748.606	3.88
749.355	1.88
750.105	0.88
750.854	2.88
751.603	1.88
752.353	1.88
753.102	2.88
753.851	3.88
754.6	1.88
755.349	3.88
756.098	3.88
756.847	3.88
757.595	1.88
758.344	1.88
759.093	1.88
759.841	2.88
760.589	2.88
761.338	2.88
762.086	3.88
762.834	2.88
763.582	3.88
764.331	5.88
765.079	2.88
765.826	4.88
766.574	5.88
767.322	2.88
768.07	3.88
768.817	3.88
769.565	2.88
770.312	6.88
771.06	2.88
771.807	3.88
772.554	0.88
773.302	4.88
774.049	5.88
774.796	4.88
775.543	4.88
776.29	3.88
777.036	3.88
777.783	5.88
778.53	5.88
779.276	5.88
780.023	5.88
780.769	6.88
781.516	6.88
782.262	7.88
783.008	3.88
783.754	5.88
784.5	5.88
785.246	4.88
785.992	5.88
786.738	6.88
787.484	7.88
788.23	5.88
788.975	5.88
789.721	4.88
790.466	5.88
791.212	5.88
791.957	5.88
792.702	7.88
793.447	4.88
794.193	7.88
794.938	3.88
795.683	4.88
796.427	4.88
797.172	3.88
797.917	5.88
798.662	4.88
799.406	4.88
800.151	5.88
800.895	4.88
801.64	4.88
802.384	1.88
803.128	3.88
803.872	2.88
804.616	4.88
805.36	4.88
806.104	1.88
806.848	3.88
807.592	3.88
808.336	2.88
809.079	4.88
809.823	2.88
810.566	5.88
811.31	2.88
812.053	4.88
812.796	3.88
813.539	0.88
814.283	4.88
815.026	3.88
815.769	3.88
816.511	5.88
817.254	3.88
817.997	2.88
818.74	3.88
819.482	3.88
820.225	1.88
820.967	1.88
821.71	2.88
822.452	3.88
823.194	4.88
823.936	4.88
824.678	4.88
825.42	2.88
826.162	3.88
826.904	1.88
827.646	2.88
828.388	3.88
829.129	3.88
829.871	3.88
830.612	1.88
831.354	2.88
832.095	0.88
832.836	1.88
833.577	2.88
834.319	2.88
835.06	2.88
835.801	0.88
836.542	0.88
837.282	2.88
838.023	0.88
838.764	2.88
839.504	-0.12
840.245	0.88
840.985	1.88
841.726	1.88
842.466	1.88
843.206	1.88
843.946	1.88
844.687	2.88
845.427	3.88
846.166	1.88
846.906	1.88
847.646	3.88
848.386	2.88
849.125	1.88
849.865	-1.12
850.605	2.88
851.344	1.88
852.083	1.88
852.823	2.88
853.562	1.88
854.301	1.88
855.04	1.88
855.779	1.88
856.518	-1.12
857.257	5.88
857.995	3.88
858.734	1.88
859.473	1.88
860.211	0.88
860.95	2.88
861.688	2.88
862.426	1.88
863.165	-1.12
863.903	1.88
864.641	-0.12
865.379	0.88
866.117	2.88
866.855	-1.12
867.593	-1.12
868.33	1.88
869.068	0.88
869.806	0.88
870.543	-0.12
871.28	0.88
872.018	-2.12
872.755	-0.12
873.492	-0.12
874.229	0.88
874.967	1.88
875.703	0.88
876.44	0.88
877.177	-1.12
877.914	1.88
878.651	0.88
879.387	-0.12
880.124	1.88
880.86	-1.12
881.597	-0.12
882.333	2.88
883.069	0.88
883.806	-0.12
884.542	0.88
885.278	0.88
886.014	0.88
886.749	1.88
887.485	0.88
888.221	-4.12
888.957	0.88
889.692	0.88
890.428	3.88
891.163	1.88
891.899	-1.12
892.634	0.88
893.369	0.88
894.104	1.88
894.839	-0.12
895.574	1.88
896.309	-2.12
897.044	-1.12
897.779	0.88
898.514	-1.12
899.248	-1.12
899.983	0.88
900.717	1.88
901.452	-0.12
902.186	1.88
902.92	-1.12
903.654	-0.12
904.389	-0.12
905.123	-0.12
905.857	0.88
906.59	1.88
907.324	0.88
908.058	0.88
908.792	-0.12
909.525	1.88
910.259	-0.12
910.992	0.88
911.726	-0.12
912.459	0.88
913.192	0.88
913.925	-0.12
914.658	0.88
915.391	-0.12
916.124	-0.12
916.857	-0.12
917.59	1.88
918.323	0.88
919.055	1.88
919.788	0.88
920.521	-0.12
921.253	1.88
921.985	-2.12
922.718	2.88
923.45	-0.12
924.182	0.88
924.914	-1.12
925.646	1.88
926.378	-0.12
927.11	0.88
927.841	0.88
928.573	1.88
929.305	1.88
930.036	-0.12
930.768	-2.12
931.499	0.88
932.23	-2.12
932.962	-0.12
933.693	-1.12
934.424	-0.12
935.155	1.88
935.886	0.88
936.617	-1.12
937.348	-0.12
938.078	-2.12
938.809	0.88
939.54	0.88
940.27	0.88
941.001	-0.12
941.731	-0.12
942.461	-1.12
943.191	0.88
943.922	-0.12
944.652	1.88
945.382	0.88
946.112	-1.12
946.841	-1.12
947.571	-0.12
948.301	-2.12
949.031	2.88
949.76	-0.12
950.49	-0.12
951.219	-1.12
951.948	-0.12
952.678	0.88
953.407	0.88
954.136	1.88
954.865	-0.12
955.594	-2.12
956.323	-0.12
957.052	-1.12
957.78	1.88
958.509	-1.12
959.238	-0.12
959.966	-0.12
960.695	1.88
961.423	0.88
962.151	-0.12
962.88	0.88
963.608	-1.12
964.336	-0.12
965.064	-0.12
965.792	0.88
966.52	-0.12
967.247	-0.12
967.975	-2.12
968.703	-2.12
969.43	-0.12
970.158	-0.12
970.885	1.88
971.613	1.88
972.34	1.88
973.067	-1.12
973.794	-2.12
974.521	-0.12
975.248	-0.12
975.975	-0.12
976.702	0.88
977.429	-1.12
978.156	-0.12
978.882	0.88
979.609	-0.12
980.335	0.88
981.062	1.88
981.788	-0.12
982.514	-0.12
983.24	1.88
983.967	-0.12
984.693	-1.12
985.419	0.88
986.144	-3.12
986.87	1.88
987.596	-0.12
988.322	-1.12
989.047	1.88
989.773	-1.12
990.498	0.88
991.224	1.88
991.949	1.88
992.674	-1.12
993.399	1.88
994.124	-1.12
994.849	1.88
995.574	1.88
996.299	-1.12
997.024	-0.12
997.749	-1.12
998.473	1.88
999.198	0.88
999.922	-1.12
1000.647	0.88
1001.371	2.88
1002.095	0.88
1002.82	-2.12
1003.544	-2.12
1004.268	-1.12
1004.992	-2.12
1005.716	-1.12
1006.439	-0.12
1007.163	-1.12
1007.887	0.88
1008.611	1.88
1009.334	0.88
1010.058	-0.12
1010.781	-0.12
1011.504	0.88
1012.228	0.88
1012.951	2.88
1013.674	-0.12
1014.397	-1.12
1015.12	-1.12
