节点500_145_QEPB04081__207__11-32-16-501.txt的数据

Date: Wed Nov 12 11:32:16 CST 2025
User: PC
Spectrometer: QEPB0408
触发模式: 0
积分时间 (秒): 1.000000E-2
Scans to average: 1
启用暗噪声校正: true
启用非线性校正: false
滑动平均宽度: 0
X轴模式: Wavelengths
Number of Pixels in Spectrum: 1044
>>>>>Begin Spectral Data<<<<<
220.843	2
221.644	1
222.444	0
223.244	-2
224.045	2
224.845	-2
225.645	2
226.445	-1
227.245	1
228.045	2
228.845	0
229.645	1
230.444	-1
231.244	1
232.043	3
232.843	1
233.642	2
234.442	1
235.241	1
236.04	1
236.839	2
237.638	2
238.437	1
239.236	-1
240.035	2
240.833	-1
241.632	1
242.43	2
243.229	3
244.027	4
244.826	1
245.624	2
246.422	3
247.22	1
248.018	3
248.816	2
249.614	1
250.412	2
251.21	4
252.007	5
252.805	2
253.602	2
254.4	3
255.197	2
255.994	5
256.791	3
257.589	6
258.386	3
259.183	5
259.979	4
260.776	4
261.573	4
262.37	5
263.166	5
263.963	4
264.759	3
265.556	4
266.352	4
267.148	6
267.944	6
268.74	6
269.536	5
270.332	6
271.128	6
271.924	9
272.719	9
273.515	9
274.311	9
275.106	9
275.901	9
276.697	8
277.492	8
278.287	10
279.082	10
279.877	10
280.672	11
281.467	11
282.262	11
283.056	10
283.851	10
284.646	11
285.44	9
286.234	13
287.029	11
287.823	11
288.617	9
289.411	12
290.205	10
290.999	10
291.793	11
292.587	12
293.381	10
294.174	10
294.968	9
295.761	11
296.555	6
297.348	9
298.141	10
298.935	12
299.728	9
300.521	9
301.314	10
302.107	6
302.899	7
303.692	8
304.485	9
305.277	7
306.07	8
306.862	9
307.655	9
308.447	10
309.239	7
310.031	6
310.823	6
311.615	9
312.407	8
313.199	7
313.991	5
314.783	6
315.574	7
316.366	4
317.157	6
317.949	3
318.74	5
319.531	8
320.322	4
321.113	6
321.904	5
322.695	5
323.486	4
324.277	5
325.068	3
325.858	2
326.649	6
327.439	3
328.23	1
329.02	4
329.81	4
330.6	5
331.391	4
332.181	7
332.971	3
333.76	3
334.55	6
335.34	3
336.13	5
336.919	6
337.709	4
338.498	5
339.287	5
340.077	5
340.866	3
341.655	4
342.444	2
343.233	4
344.022	3
344.811	5
345.6	2
346.388	2
347.177	5
347.965	5
348.754	5
349.542	2
350.33	3
351.119	1
351.907	2
352.695	2
353.483	2
354.271	3
355.059	3
355.846	4
356.634	2
357.422	2
358.209	4
358.997	2
359.784	4
360.571	2
361.359	3
362.146	2
362.933	2
363.72	6
364.507	0
365.294	3
366.081	5
366.867	4
367.654	3
368.44	2
369.227	4
370.013	1
370.8	1
371.586	1
372.372	2
373.158	1
373.944	2
374.73	2
375.516	4
376.302	3
377.088	1
377.873	2
378.659	4
379.445	1
380.23	3
381.015	3
381.801	4
382.586	5
383.371	5
384.156	2
384.941	1
385.726	2
386.511	5
387.296	1
388.08	2
388.865	1
389.649	4
390.434	0
391.218	3
392.003	2
392.787	3
393.571	2
394.355	4
395.139	5
395.923	2
396.707	2
397.491	2
398.274	4
399.058	5
399.842	4
400.625	1
401.408	3
402.192	5
402.975	3
403.758	1
404.541	5
405.324	5
406.107	6
406.89	5
407.673	3
408.456	4
409.238	2
410.021	3
410.803	5
411.586	3
412.368	5
413.151	6
413.933	7
414.715	5
415.497	6
416.279	2
417.061	6
417.843	4
418.624	4
419.406	4
420.188	4
420.969	7
421.751	4
422.532	8
423.313	5
424.095	7
424.876	5
425.657	5
426.438	7
427.219	6
428	7
428.78	9
429.561	7
430.342	8
431.122	6
431.903	6
432.683	6
433.464	10
434.244	9
435.024	9
435.804	10
436.584	9
437.364	9
438.144	9
438.924	11
439.704	11
440.483	13
441.263	11
442.042	10
442.822	13
443.601	12
444.38	14
445.16	15
445.939	17
446.718	16
447.497	17
448.276	24
449.054	24
449.833	24
450.612	23
451.391	24
452.169	29
452.948	33
453.726	33
454.504	37
455.282	39
456.061	46
456.839	46
457.617	54
458.395	58
459.172	61
459.95	73
460.728	78
461.506	86
462.283	94
463.061	113
463.838	122
464.615	137
465.393	152
466.17	166
466.947	193
467.724	208
468.501	238
469.278	259
470.055	288
470.831	325
471.608	357
472.385	400
473.161	448
473.938	495
474.714	552
475.49	619
476.266	690
477.043	760
477.819	846
478.595	927
479.371	1029
480.146	1145
480.922	1278
481.698	1397
482.473	1553
483.249	1713
484.024	1896
484.8	2097
485.575	2305
486.35	2550
487.126	2834
487.901	3102
488.676	3430
489.451	3773
490.225	4174
491	4593
491.775	5044
492.55	5550
493.324	6094
494.099	6666
494.873	7255
495.647	7913
496.422	8666
497.196	9359
497.97	10098
498.744	10915
499.518	11613
500.292	12418
501.066	13174
501.839	13844
502.613	14563
503.387	15239
504.16	15729
504.934	16150
505.707	16465
506.48	16763
507.253	16846
508.027	16969
508.8	16801
509.573	16594
510.346	16275
511.118	15903
511.891	15498
512.664	14931
513.437	14387
514.209	13852
514.982	13310
515.754	12766
516.526	12122
517.298	11595
518.071	11081
518.843	10601
519.615	10122
520.387	9722
521.159	9361
521.93	8965
522.702	8595
523.474	8256
524.245	7947
525.017	7660
525.788	7319
526.56	7044
527.331	6740
528.102	6433
528.873	6113
529.644	5893
530.415	5611
531.186	5330
531.957	5051
532.728	4775
533.498	4497
534.269	4289
535.039	4050
535.81	3818
536.58	3603
537.351	3365
538.121	3229
538.891	3027
539.661	2862
540.431	2712
541.201	2573
541.971	2430
542.741	2298
543.51	2178
544.28	2072
545.05	1974
545.819	1850
546.588	1783
547.358	1689
548.127	1612
548.896	1521
549.665	1456
550.434	1381
551.203	1306
551.972	1242
552.741	1166
553.51	1106
554.278	1046
555.047	984
555.815	940
556.584	872
557.352	831
558.121	774
558.889	734
559.657	693
560.425	653
561.193	619
561.961	575
562.729	540
563.496	516
564.264	486
565.032	466
565.799	432
566.567	409
567.334	385
568.101	366
568.869	347
569.636	333
570.403	306
571.17	286
571.937	279
572.704	251
573.471	242
574.237	233
575.004	216
575.771	210
576.537	185
577.303	178
578.07	171
578.836	165
579.602	149
580.368	138
581.134	135
581.9	123
582.666	124
583.432	111
584.198	109
584.964	106
585.729	98
586.495	90
587.26	85
588.025	80
588.791	75
589.556	70
590.321	69
591.086	65
591.851	61
592.616	58
593.381	56
594.146	50
594.911	52
595.675	50
596.44	43
597.204	45
597.969	41
598.733	40
599.497	37
600.261	34
601.025	32
601.79	31
602.553	31
603.317	30
604.081	27
604.845	24
605.609	27
606.372	27
607.136	22
607.899	26
608.662	22
609.426	23
610.189	20
610.952	17
611.715	17
612.478	18
613.241	17
614.004	19
614.767	19
615.529	14
616.292	16
617.055	15
617.817	13
618.579	14
619.342	12
620.104	13
620.866	11
621.628	14
622.39	12
623.152	10
623.914	11
624.676	10
625.438	10
626.199	8
626.961	8
627.722	9
628.484	8
629.245	10
630.006	7
630.768	10
631.529	8
632.29	7
633.051	7
633.812	5
634.573	9
635.333	9
636.094	5
636.855	5
637.615	6
638.376	7
639.136	6
639.896	5
640.657	7
641.417	5
642.177	5
642.937	3
643.697	4
644.457	6
645.216	6
645.976	3
646.736	5
647.495	4
648.255	3
649.014	5
649.774	2
650.533	3
651.292	3
652.051	5
652.81	4
653.569	4
654.328	5
655.087	2
655.846	4
656.604	4
657.363	3
658.121	3
658.88	1
659.638	1
660.397	3
661.155	3
661.913	3
662.671	2
663.429	3
664.187	1
664.945	3
665.703	2
666.46	4
667.218	2
667.976	2
668.733	3
669.49	4
670.248	0
671.005	2
671.762	3
672.519	1
673.276	4
674.033	5
674.79	4
675.547	2
676.304	2
677.06	2
677.817	2
678.574	4
679.33	4
680.086	3
680.843	3
681.599	1
682.355	5
683.111	5
683.867	0
684.623	3
685.379	2
686.135	2
686.89	3
687.646	1
688.402	3
689.157	4
689.912	2
690.668	2
691.423	2
692.178	2
692.933	0
693.688	2
694.443	1
695.198	3
695.953	2
696.708	2
697.462	2
698.217	0
698.972	3
699.726	2
700.48	2
701.235	2
701.989	2
702.743	2
703.497	-1
704.251	4
705.005	2
705.759	2
706.513	2
707.266	2
708.02	3
708.774	2
709.527	2
710.28	1
711.034	1
711.787	2
712.54	1
713.293	0
714.046	1
714.799	3
715.552	2
716.305	3
717.058	3
717.81	1
718.563	2
719.315	2
720.068	1
720.82	2
721.573	1
722.325	2
723.077	1
723.829	2
724.581	2
725.333	3
726.085	-1
726.836	3
727.588	0
728.34	1
729.091	2
729.843	2
730.594	3
731.346	2
732.097	1
732.848	2
733.599	2
734.35	1
735.101	3
735.852	2
736.603	2
737.354	2
738.104	5
738.855	2
739.605	2
740.356	3
741.106	2
741.856	4
742.607	0
743.357	4
744.107	3
744.857	1
745.607	1
746.357	4
747.106	2
747.856	4
748.606	3
749.355	2
750.105	1
750.854	2
751.603	4
752.353	6
753.102	3
753.851	2
754.6	3
755.349	1
756.098	1
756.847	6
757.595	2
758.344	2
759.093	2
759.841	1
760.589	3
761.338	2
762.086	2
762.834	3
763.582	3
764.331	4
765.079	2
765.826	4
766.574	4
767.322	5
768.07	4
768.817	5
769.565	6
770.312	2
771.06	2
771.807	4
772.554	3
773.302	4
774.049	4
774.796	6
775.543	4
776.29	6
777.036	5
777.783	4
778.53	3
779.276	3
780.023	3
780.769	3
781.516	4
782.262	3
783.008	6
783.754	3
784.5	2
785.246	4
785.992	2
786.738	8
787.484	3
788.23	7
788.975	9
789.721	6
790.466	5
791.212	7
791.957	6
792.702	5
793.447	6
794.193	4
794.938	3
795.683	9
796.427	4
797.172	3
797.917	6
798.662	3
799.406	4
800.151	5
800.895	3
801.64	4
802.384	5
803.128	5
803.872	5
804.616	6
805.36	5
806.104	4
806.848	4
807.592	3
808.336	3
809.079	4
809.823	5
810.566	5
811.31	3
812.053	4
812.796	4
813.539	5
814.283	2
815.026	4
815.769	2
816.511	2
817.254	6
817.997	4
818.74	4
819.482	5
820.225	4
820.967	3
821.71	5
822.452	3
823.194	3
823.936	1
824.678	2
825.42	4
826.162	4
826.904	5
827.646	2
828.388	3
829.129	2
829.871	3
830.612	4
831.354	3
832.095	3
832.836	5
833.577	0
834.319	1
835.06	0
835.801	3
836.542	2
837.282	2
838.023	2
838.764	2
839.504	2
840.245	0
840.985	4
841.726	3
842.466	2
843.206	1
843.946	3
844.687	2
845.427	2
846.166	2
846.906	1
847.646	3
848.386	2
849.125	4
849.865	2
850.605	1
851.344	4
852.083	1
852.823	3
853.562	2
854.301	3
855.04	1
855.779	2
856.518	3
857.257	1
857.995	1
858.734	2
859.473	1
860.211	1
860.95	2
861.688	2
862.426	2
863.165	2
863.903	-2
864.641	3
865.379	1
866.117	3
866.855	3
867.593	-1
868.33	1
869.068	1
869.806	1
870.543	2
871.28	1
872.018	1
872.755	1
873.492	0
874.229	1
874.967	0
875.703	-2
876.44	3
877.177	4
877.914	1
878.651	0
879.387	1
880.124	2
880.86	2
881.597	-1
882.333	1
883.069	2
883.806	3
884.542	2
885.278	-1
886.014	0
886.749	2
887.485	1
888.221	1
888.957	-1
889.692	-1
890.428	2
891.163	1
891.899	0
892.634	1
893.369	2
894.104	1
894.839	2
895.574	-1
896.309	1
897.044	0
897.779	0
898.514	1
899.248	-1
899.983	2
900.717	1
901.452	1
902.186	-1
902.92	2
903.654	1
904.389	-1
905.123	0
905.857	1
906.59	2
907.324	1
908.058	1
908.792	-2
909.525	-2
910.259	1
910.992	1
911.726	-1
912.459	-1
913.192	0
913.925	2
914.658	1
915.391	1
916.124	0
916.857	0
917.59	1
918.323	0
919.055	1
919.788	-1
920.521	0
921.253	1
921.985	-2
922.718	0
923.45	2
924.182	0
924.914	0
925.646	2
926.378	0
927.11	0
927.841	0
928.573	0
929.305	0
930.036	0
930.768	-2
931.499	1
932.23	1
932.962	1
933.693	0
934.424	1
935.155	0
935.886	-2
936.617	-2
937.348	0
938.078	0
938.809	3
939.54	2
940.27	1
941.001	1
941.731	-2
942.461	0
943.191	2
943.922	0
944.652	-1
945.382	-3
946.112	-1
946.841	-2
947.571	-1
948.301	-1
949.031	0
949.76	-1
950.49	0
951.219	1
951.948	-1
952.678	0
953.407	1
954.136	0
954.865	1
955.594	-1
956.323	1
957.052	0
957.78	2
958.509	2
959.238	0
959.966	1
960.695	-2
961.423	2
962.151	0
962.88	-2
963.608	-2
964.336	0
965.064	1
965.792	-1
966.52	2
967.247	-1
967.975	-2
968.703	-2
969.43	0
970.158	1
970.885	0
971.613	0
972.34	2
973.067	0
973.794	-1
974.521	2
975.248	1
975.975	-2
976.702	0
977.429	2
978.156	1
978.882	1
979.609	1
980.335	1
981.062	-2
981.788	0
982.514	1
983.24	-2
983.967	1
984.693	0
985.419	2
986.144	-1
986.87	0
987.596	1
988.322	1
989.047	1
989.773	0
990.498	1
991.224	0
991.949	0
992.674	0
993.399	0
994.124	-2
994.849	1
995.574	0
996.299	1
997.024	-1
997.749	0
998.473	0
999.198	-1
999.922	-1
1000.647	0
1001.371	4
1002.095	-3
1002.82	1
1003.544	0
1004.268	2
1004.992	1
1005.716	0
1006.439	0
1007.163	-1
1007.887	1
1008.611	2
1009.334	1
1010.058	-1
1010.781	-1
1011.504	0
1012.228	1
1012.951	1
1013.674	-2
1014.397	1
1015.12	-2
