节点500_145_QEPB04081__699__11-40-02-725.txt的数据

Date: Wed Nov 12 11:40:02 CST 2025
User: PC
Spectrometer: QEPB0408
触发模式: 0
积分时间 (秒): 1.000000E-2
Scans to average: 1
启用暗噪声校正: true
启用非线性校正: false
滑动平均宽度: 0
X轴模式: Wavelengths
Number of Pixels in Spectrum: 1044
>>>>>Begin Spectral Data<<<<<
220.843	-0.62
221.644	-1.62
222.444	0.38
223.244	-1.62
224.045	1.38
224.845	2.38
225.645	-0.62
226.445	1.38
227.245	0.38
228.045	-0.62
228.845	0.38
229.645	-1.62
230.444	0.38
231.244	-0.62
232.043	0.38
232.843	1.38
233.642	1.38
234.442	0.38
235.241	2.38
236.04	2.38
236.839	0.38
237.638	3.38
238.437	0.38
239.236	2.38
240.035	2.38
240.833	1.38
241.632	1.38
242.43	0.38
243.229	0.38
244.027	-0.62
244.826	2.38
245.624	1.38
246.422	1.38
247.22	2.38
248.018	0.38
248.816	2.38
249.614	1.38
250.412	4.38
251.21	1.38
252.007	1.38
252.805	4.38
253.602	1.38
254.4	4.38
255.197	2.38
255.994	2.38
256.791	1.38
257.589	2.38
258.386	3.38
259.183	2.38
259.979	5.38
260.776	5.38
261.573	4.38
262.37	2.38
263.166	3.38
263.963	3.38
264.759	5.38
265.556	5.38
266.352	5.38
267.148	5.38
267.944	8.38
268.74	6.38
269.536	7.38
270.332	6.38
271.128	4.38
271.924	6.38
272.719	5.38
273.515	5.38
274.311	6.38
275.106	9.38
275.901	7.38
276.697	8.38
277.492	5.38
278.287	8.38
279.082	8.38
279.877	10.38
280.672	10.38
281.467	8.38
282.262	10.38
283.056	7.38
283.851	8.38
284.646	8.38
285.44	8.38
286.234	10.38
287.029	10.38
287.823	8.38
288.617	10.38
289.411	10.38
290.205	9.38
290.999	8.38
291.793	9.38
292.587	11.38
293.381	9.38
294.174	9.38
294.968	8.38
295.761	7.38
296.555	10.38
297.348	10.38
298.141	9.38
298.935	10.38
299.728	8.38
300.521	8.38
301.314	8.38
302.107	8.38
302.899	7.38
303.692	9.38
304.485	9.38
305.277	9.38
306.07	8.38
306.862	7.38
307.655	5.38
308.447	6.38
309.239	7.38
310.031	5.38
310.823	8.38
311.615	5.38
312.407	7.38
313.199	7.38
313.991	8.38
314.783	5.38
315.574	4.38
316.366	5.38
317.157	6.38
317.949	7.38
318.74	4.38
319.531	5.38
320.322	3.38
321.113	5.38
321.904	4.38
322.695	3.38
323.486	5.38
324.277	2.38
325.068	1.38
325.858	6.38
326.649	3.38
327.439	5.38
328.23	3.38
329.02	6.38
329.81	4.38
330.6	3.38
331.391	5.38
332.181	2.38
332.971	3.38
333.76	2.38
334.55	5.38
335.34	5.38
336.13	4.38
336.919	4.38
337.709	4.38
338.498	3.38
339.287	4.38
340.077	2.38
340.866	3.38
341.655	6.38
342.444	2.38
343.233	1.38
344.022	1.38
344.811	3.38
345.6	1.38
346.388	1.38
347.177	2.38
347.965	4.38
348.754	3.38
349.542	3.38
350.33	1.38
351.119	3.38
351.907	2.38
352.695	2.38
353.483	2.38
354.271	3.38
355.059	3.38
355.846	3.38
356.634	1.38
357.422	3.38
358.209	1.38
358.997	1.38
359.784	1.38
360.571	4.38
361.359	2.38
362.146	3.38
362.933	2.38
363.72	1.38
364.507	1.38
365.294	0.38
366.081	3.38
366.867	2.38
367.654	3.38
368.44	2.38
369.227	2.38
370.013	2.38
370.8	2.38
371.586	4.38
372.372	1.38
373.158	5.38
373.944	5.38
374.73	4.38
375.516	1.38
376.302	2.38
377.088	3.38
377.873	2.38
378.659	3.38
379.445	2.38
380.23	3.38
381.015	2.38
381.801	1.38
382.586	2.38
383.371	-0.62
384.156	5.38
384.941	1.38
385.726	2.38
386.511	4.38
387.296	1.38
388.08	3.38
388.865	2.38
389.649	5.38
390.434	1.38
391.218	1.38
392.003	3.38
392.787	1.38
393.571	4.38
394.355	2.38
395.139	3.38
395.923	3.38
396.707	2.38
397.491	4.38
398.274	2.38
399.058	2.38
399.842	4.38
400.625	4.38
401.408	3.38
402.192	1.38
402.975	4.38
403.758	3.38
404.541	3.38
405.324	3.38
406.107	3.38
406.89	4.38
407.673	5.38
408.456	5.38
409.238	4.38
410.021	4.38
410.803	2.38
411.586	1.38
412.368	6.38
413.151	4.38
413.933	5.38
414.715	3.38
415.497	4.38
416.279	2.38
417.061	5.38
417.843	3.38
418.624	4.38
419.406	5.38
420.188	5.38
420.969	5.38
421.751	5.38
422.532	5.38
423.313	7.38
424.095	3.38
424.876	5.38
425.657	3.38
426.438	3.38
427.219	4.38
428	7.38
428.78	4.38
429.561	6.38
430.342	7.38
431.122	7.38
431.903	8.38
432.683	7.38
433.464	7.38
434.244	8.38
435.024	7.38
435.804	7.38
436.584	11.38
437.364	10.38
438.144	10.38
438.924	10.38
439.704	10.38
440.483	12.38
441.263	14.38
442.042	13.38
442.822	13.38
443.601	12.38
444.38	14.38
445.16	14.38
445.939	17.38
446.718	19.38
447.497	19.38
448.276	22.38
449.054	22.38
449.833	27.38
450.612	27.38
451.391	27.38
452.169	33.38
452.948	34.38
453.726	39.38
454.504	38.38
455.282	47.38
456.061	47.38
456.839	54.38
457.617	62.38
458.395	69.38
459.172	75.38
459.95	81.38
460.728	94.38
461.506	102.38
462.283	119.38
463.061	123.38
463.838	140.38
464.615	162.38
465.393	176.38
466.17	194.38
466.947	215.38
467.724	239.38
468.501	261.38
469.278	298.38
470.055	330.38
470.831	359.38
471.608	393.38
472.385	443.38
473.161	494.38
473.938	552.38
474.714	589.38
475.49	659.38
476.266	715.38
477.043	798.38
477.819	875.38
478.595	951.38
479.371	1050.38
480.146	1162.38
480.922	1274.38
481.698	1392.38
482.473	1530.38
483.249	1667.38
484.024	1821.38
484.8	2002.38
485.575	2195.38
486.35	2370.38
487.126	2584.38
487.901	2833.38
488.676	3103.38
489.451	3363.38
490.225	3693.38
491	4007.38
491.775	4417.38
492.55	4750.38
493.324	5189.38
494.099	5649.38
494.873	6109.38
495.647	6632.38
496.422	7179.38
497.196	7747.38
497.97	8339.38
498.744	8946.38
499.518	9545.38
500.292	10235.38
501.066	10805.38
501.839	11464.38
502.613	12099.38
503.387	12649.38
504.16	13211.38
504.934	13713.38
505.707	14116.38
506.48	14440.38
507.253	14706.38
508.027	14889.38
508.8	14998.38
509.573	14959.38
510.346	14970.38
511.118	14806.38
511.891	14506.38
512.664	14247.38
513.437	13882.38
514.209	13539.38
514.982	13097.38
515.754	12598.38
516.526	12139.38
517.298	11689.38
518.071	11218.38
518.843	10740.38
519.615	10286.38
520.387	9884.38
521.159	9493.38
521.93	9148.38
522.702	8750.38
523.474	8385.38
524.245	8090.38
525.017	7778.38
525.788	7429.38
526.56	7158.38
527.331	6849.38
528.102	6585.38
528.873	6294.38
529.644	6023.38
530.415	5761.38
531.186	5507.38
531.957	5274.38
532.728	5011.38
533.498	4785.38
534.269	4542.38
535.039	4286.38
535.81	4069.38
536.58	3823.38
537.351	3652.38
538.121	3443.38
538.891	3262.38
539.661	3091.38
540.431	2924.38
541.201	2759.38
541.971	2601.38
542.741	2478.38
543.51	2348.38
544.28	2231.38
545.05	2119.38
545.819	1998.38
546.588	1897.38
547.358	1817.38
548.127	1733.38
548.896	1658.38
549.665	1558.38
550.434	1496.38
551.203	1398.38
551.972	1351.38
552.741	1272.38
553.51	1200.38
554.278	1149.38
555.047	1074.38
555.815	1016.38
556.584	965.38
557.352	922.38
558.121	865.38
558.889	810.38
559.657	766.38
560.425	718.38
561.193	692.38
561.961	647.38
562.729	605.38
563.496	574.38
564.264	539.38
565.032	517.38
565.799	477.38
566.567	461.38
567.334	440.38
568.101	406.38
568.869	378.38
569.636	359.38
570.403	340.38
571.17	321.38
571.937	302.38
572.704	284.38
573.471	275.38
574.237	248.38
575.004	236.38
575.771	228.38
576.537	215.38
577.303	201.38
578.07	186.38
578.836	177.38
579.602	166.38
580.368	156.38
581.134	151.38
581.9	141.38
582.666	137.38
583.432	126.38
584.198	118.38
584.964	112.38
585.729	102.38
586.495	99.38
587.26	95.38
588.025	94.38
588.791	88.38
589.556	81.38
590.321	79.38
591.086	74.38
591.851	67.38
592.616	65.38
593.381	64.38
594.146	59.38
594.911	60.38
595.675	51.38
596.44	55.38
597.204	49.38
597.969	47.38
598.733	43.38
599.497	38.38
600.261	39.38
601.025	37.38
601.79	39.38
602.553	33.38
603.317	30.38
604.081	30.38
604.845	30.38
605.609	29.38
606.372	27.38
607.136	24.38
607.899	24.38
608.662	23.38
609.426	23.38
610.189	23.38
610.952	21.38
611.715	22.38
612.478	19.38
613.241	18.38
614.004	18.38
614.767	15.38
615.529	14.38
616.292	17.38
617.055	14.38
617.817	14.38
618.579	17.38
619.342	15.38
620.104	13.38
620.866	12.38
621.628	12.38
622.39	10.38
623.152	10.38
623.914	12.38
624.676	9.38
625.438	10.38
626.199	9.38
626.961	8.38
627.722	7.38
628.484	10.38
629.245	6.38
630.006	7.38
630.768	11.38
631.529	5.38
632.29	7.38
633.051	9.38
633.812	7.38
634.573	8.38
635.333	5.38
636.094	6.38
636.855	8.38
637.615	6.38
638.376	3.38
639.136	5.38
639.896	5.38
640.657	3.38
641.417	5.38
642.177	3.38
642.937	5.38
643.697	6.38
644.457	4.38
645.216	5.38
645.976	5.38
646.736	3.38
647.495	4.38
648.255	4.38
649.014	7.38
649.774	3.38
650.533	5.38
651.292	5.38
652.051	3.38
652.81	3.38
653.569	3.38
654.328	3.38
655.087	2.38
655.846	5.38
656.604	3.38
657.363	2.38
658.121	5.38
658.88	4.38
659.638	3.38
660.397	2.38
661.155	3.38
661.913	2.38
662.671	0.38
663.429	4.38
664.187	3.38
664.945	1.38
665.703	1.38
666.46	3.38
667.218	3.38
667.976	4.38
668.733	3.38
669.49	2.38
670.248	2.38
671.005	1.38
671.762	3.38
672.519	2.38
673.276	3.38
674.033	3.38
674.79	2.38
675.547	4.38
676.304	1.38
677.06	2.38
677.817	3.38
678.574	4.38
679.33	0.38
680.086	0.38
680.843	2.38
681.599	1.38
682.355	1.38
683.111	4.38
683.867	1.38
684.623	2.38
685.379	1.38
686.135	4.38
686.89	2.38
687.646	2.38
688.402	1.38
689.157	1.38
689.912	2.38
690.668	1.38
691.423	3.38
692.178	1.38
692.933	2.38
693.688	2.38
694.443	2.38
695.198	1.38
695.953	1.38
696.708	0.38
697.462	1.38
698.217	1.38
698.972	0.38
699.726	2.38
700.48	1.38
701.235	1.38
701.989	0.38
702.743	2.38
703.497	1.38
704.251	3.38
705.005	2.38
705.759	3.38
706.513	2.38
707.266	2.38
708.02	0.38
708.774	0.38
709.527	2.38
710.28	1.38
711.034	3.38
711.787	1.38
712.54	1.38
713.293	0.38
714.046	3.38
714.799	1.38
715.552	-1.62
716.305	1.38
717.058	1.38
717.81	3.38
718.563	2.38
719.315	2.38
720.068	-0.62
720.82	1.38
721.573	2.38
722.325	1.38
723.077	4.38
723.829	1.38
724.581	1.38
725.333	1.38
726.085	2.38
726.836	0.38
727.588	2.38
728.34	2.38
729.091	0.38
729.843	3.38
730.594	3.38
731.346	1.38
732.097	1.38
732.848	1.38
733.599	1.38
734.35	3.38
735.101	3.38
735.852	1.38
736.603	4.38
737.354	0.38
738.104	1.38
738.855	2.38
739.605	1.38
740.356	5.38
741.106	2.38
741.856	0.38
742.607	1.38
743.357	1.38
744.107	3.38
744.857	3.38
745.607	2.38
746.357	2.38
747.106	0.38
747.856	3.38
748.606	1.38
749.355	-0.62
750.105	1.38
750.854	1.38
751.603	1.38
752.353	2.38
753.102	2.38
753.851	2.38
754.6	2.38
755.349	2.38
756.098	2.38
756.847	2.38
757.595	1.38
758.344	0.38
759.093	1.38
759.841	2.38
760.589	0.38
761.338	2.38
762.086	3.38
762.834	3.38
763.582	3.38
764.331	3.38
765.079	4.38
765.826	3.38
766.574	4.38
767.322	0.38
768.07	1.38
768.817	3.38
769.565	5.38
770.312	3.38
771.06	5.38
771.807	1.38
772.554	4.38
773.302	3.38
774.049	3.38
774.796	3.38
775.543	2.38
776.29	4.38
777.036	4.38
777.783	3.38
778.53	3.38
779.276	5.38
780.023	3.38
780.769	4.38
781.516	4.38
782.262	5.38
783.008	5.38
783.754	5.38
784.5	5.38
785.246	3.38
785.992	5.38
786.738	5.38
787.484	4.38
788.23	4.38
788.975	3.38
789.721	3.38
790.466	4.38
791.212	4.38
791.957	4.38
792.702	5.38
793.447	5.38
794.193	4.38
794.938	5.38
795.683	4.38
796.427	4.38
797.172	4.38
797.917	4.38
798.662	4.38
799.406	2.38
800.151	2.38
800.895	4.38
801.64	3.38
802.384	1.38
803.128	5.38
803.872	4.38
804.616	2.38
805.36	5.38
806.104	3.38
806.848	4.38
807.592	1.38
808.336	2.38
809.079	5.38
809.823	2.38
810.566	3.38
811.31	1.38
812.053	1.38
812.796	2.38
813.539	5.38
814.283	5.38
815.026	4.38
815.769	3.38
816.511	1.38
817.254	0.38
817.997	5.38
818.74	2.38
819.482	3.38
820.225	4.38
820.967	2.38
821.71	1.38
822.452	3.38
823.194	1.38
823.936	4.38
824.678	2.38
825.42	1.38
826.162	3.38
826.904	3.38
827.646	1.38
828.388	2.38
829.129	1.38
829.871	3.38
830.612	1.38
831.354	2.38
832.095	3.38
832.836	3.38
833.577	2.38
834.319	2.38
835.06	4.38
835.801	2.38
836.542	2.38
837.282	1.38
838.023	3.38
838.764	2.38
839.504	2.38
840.245	2.38
840.985	2.38
841.726	5.38
842.466	2.38
843.206	1.38
843.946	3.38
844.687	2.38
845.427	2.38
846.166	4.38
846.906	1.38
847.646	1.38
848.386	1.38
849.125	3.38
849.865	2.38
850.605	0.38
851.344	1.38
852.083	3.38
852.823	2.38
853.562	0.38
854.301	3.38
855.04	-1.62
855.779	3.38
856.518	4.38
857.257	1.38
857.995	1.38
858.734	-0.62
859.473	1.38
860.211	-2.62
860.95	-0.62
861.688	2.38
862.426	1.38
863.165	2.38
863.903	1.38
864.641	1.38
865.379	0.38
866.117	3.38
866.855	-0.62
867.593	1.38
868.33	3.38
869.068	0.38
869.806	1.38
870.543	0.38
871.28	-0.62
872.018	0.38
872.755	0.38
873.492	1.38
874.229	0.38
874.967	5.38
875.703	-1.62
876.44	2.38
877.177	0.38
877.914	-1.62
878.651	0.38
879.387	0.38
880.124	1.38
880.86	0.38
881.597	-1.62
882.333	1.38
883.069	2.38
883.806	0.38
884.542	0.38
885.278	1.38
886.014	3.38
886.749	0.38
887.485	1.38
888.221	1.38
888.957	2.38
889.692	1.38
890.428	2.38
891.163	0.38
891.899	-1.62
892.634	1.38
893.369	-1.62
894.104	1.38
894.839	1.38
895.574	-1.62
896.309	3.38
897.044	1.38
897.779	0.38
898.514	1.38
899.248	0.38
899.983	0.38
900.717	0.38
901.452	0.38
902.186	-0.62
902.92	0.38
903.654	-0.62
904.389	1.38
905.123	-1.62
905.857	-1.62
906.59	0.38
907.324	1.38
908.058	-0.62
908.792	1.38
909.525	1.38
910.259	-1.62
910.992	1.38
911.726	2.38
912.459	-1.62
913.192	0.38
913.925	-1.62
914.658	2.38
915.391	1.38
916.124	1.38
916.857	1.38
917.59	2.38
918.323	3.38
919.055	0.38
919.788	1.38
920.521	-1.62
921.253	-0.62
921.985	-0.62
922.718	-1.62
923.45	1.38
924.182	0.38
924.914	1.38
925.646	0.38
926.378	0.38
927.11	0.38
927.841	-0.62
928.573	-0.62
929.305	0.38
930.036	1.38
930.768	0.38
931.499	1.38
932.23	-0.62
932.962	1.38
933.693	2.38
934.424	-0.62
935.155	0.38
935.886	-0.62
936.617	1.38
937.348	-0.62
938.078	-1.62
938.809	1.38
939.54	0.38
940.27	2.38
941.001	2.38
941.731	-0.62
942.461	-1.62
943.191	0.38
943.922	-4.62
944.652	0.38
945.382	0.38
946.112	-0.62
946.841	-2.62
947.571	2.38
948.301	0.38
949.031	0.38
949.76	-1.62
950.49	1.38
951.219	-0.62
951.948	1.38
952.678	-0.62
953.407	0.38
954.136	2.38
954.865	-1.62
955.594	-1.62
956.323	-1.62
957.052	-0.62
957.78	1.38
958.509	0.38
959.238	-1.62
959.966	-2.62
960.695	1.38
961.423	-2.62
962.151	2.38
962.88	-0.62
963.608	-1.62
964.336	-1.62
965.064	-0.62
965.792	-0.62
966.52	-1.62
967.247	-0.62
967.975	0.38
968.703	0.38
969.43	0.38
970.158	0.38
970.885	1.38
971.613	-2.62
972.34	0.38
973.067	-1.62
973.794	0.38
974.521	1.38
975.248	-0.62
975.975	-0.62
976.702	-0.62
977.429	-1.62
978.156	-1.62
978.882	-1.62
979.609	-0.62
980.335	-0.62
981.062	1.38
981.788	0.38
982.514	2.38
983.24	-1.62
983.967	-1.62
984.693	-1.62
985.419	0.38
986.144	2.38
986.87	-0.62
987.596	-1.62
988.322	-1.62
989.047	-1.62
989.773	2.38
990.498	-1.62
991.224	1.38
991.949	0.38
992.674	-0.62
993.399	1.38
994.124	-1.62
994.849	-1.62
995.574	-0.62
996.299	-1.62
997.024	-1.62
997.749	0.38
998.473	-1.62
999.198	3.38
999.922	-1.62
1000.647	-0.62
1001.371	4.38
1002.095	-1.62
1002.82	-1.62
1003.544	-1.62
1004.268	-1.62
1004.992	0.38
1005.716	-2.62
1006.439	0.38
1007.163	0.38
1007.887	-0.62
1008.611	3.38
1009.334	0.38
1010.058	0.38
1010.781	0.38
1011.504	-1.62
1012.228	1.38
1012.951	-1.62
1013.674	2.38
1014.397	-1.62
1015.12	1.38
