节点500_145_QEPB04081__664__11-39-30-003.txt的数据

Date: Wed Nov 12 11:39:30 CST 2025
User: PC
Spectrometer: QEPB0408
触发模式: 0
积分时间 (秒): 1.000000E-2
Scans to average: 1
启用暗噪声校正: true
启用非线性校正: false
滑动平均宽度: 0
X轴模式: Wavelengths
Number of Pixels in Spectrum: 1044
>>>>>Begin Spectral Data<<<<<
220.843	-2
221.644	-3
222.444	-1
223.244	0
224.045	-2
224.845	2
225.645	-2
226.445	0
227.245	-3
228.045	1
228.845	0
229.645	2
230.444	-1
231.244	-1
232.043	-2
232.843	0
233.642	1
234.442	1
235.241	1
236.04	-1
236.839	0
237.638	2
238.437	-2
239.236	2
240.035	1
240.833	1
241.632	3
242.43	0
243.229	3
244.027	0
244.826	3
245.624	2
246.422	1
247.22	3
248.018	0
248.816	1
249.614	1
250.412	0
251.21	2
252.007	3
252.805	2
253.602	1
254.4	1
255.197	3
255.994	2
256.791	2
257.589	1
258.386	2
259.183	3
259.979	3
260.776	3
261.573	2
262.37	4
263.166	5
263.963	5
264.759	2
265.556	4
266.352	4
267.148	5
267.944	7
268.74	3
269.536	5
270.332	3
271.128	6
271.924	7
272.719	9
273.515	6
274.311	5
275.106	9
275.901	9
276.697	7
277.492	7
278.287	10
279.082	6
279.877	8
280.672	7
281.467	6
282.262	8
283.056	8
283.851	7
284.646	9
285.44	9
286.234	9
287.029	11
287.823	12
288.617	9
289.411	10
290.205	8
290.999	8
291.793	9
292.587	6
293.381	9
294.174	10
294.968	9
295.761	8
296.555	9
297.348	9
298.141	8
298.935	10
299.728	8
300.521	10
301.314	9
302.107	5
302.899	8
303.692	6
304.485	7
305.277	9
306.07	9
306.862	7
307.655	8
308.447	7
309.239	5
310.031	10
310.823	5
311.615	7
312.407	6
313.199	4
313.991	4
314.783	5
315.574	6
316.366	7
317.157	4
317.949	3
318.74	5
319.531	6
320.322	5
321.113	3
321.904	4
322.695	3
323.486	4
324.277	4
325.068	2
325.858	1
326.649	3
327.439	4
328.23	4
329.02	5
329.81	3
330.6	3
331.391	5
332.181	2
332.971	3
333.76	3
334.55	5
335.34	2
336.13	3
336.919	5
337.709	5
338.498	4
339.287	3
340.077	6
340.866	2
341.655	5
342.444	3
343.233	3
344.022	2
344.811	4
345.6	2
346.388	2
347.177	3
347.965	4
348.754	5
349.542	2
350.33	3
351.119	3
351.907	2
352.695	3
353.483	3
354.271	4
355.059	4
355.846	2
356.634	3
357.422	3
358.209	2
358.997	3
359.784	1
360.571	3
361.359	3
362.146	2
362.933	3
363.72	4
364.507	3
365.294	1
366.081	3
366.867	2
367.654	5
368.44	3
369.227	1
370.013	1
370.8	2
371.586	3
372.372	0
373.158	3
373.944	1
374.73	3
375.516	2
376.302	0
377.088	0
377.873	2
378.659	4
379.445	0
380.23	4
381.015	4
381.801	1
382.586	2
383.371	2
384.156	2
384.941	3
385.726	1
386.511	0
387.296	2
388.08	2
388.865	1
389.649	4
390.434	2
391.218	2
392.003	3
392.787	1
393.571	4
394.355	3
395.139	4
395.923	3
396.707	3
397.491	4
398.274	3
399.058	2
399.842	3
400.625	2
401.408	2
402.192	3
402.975	1
403.758	2
404.541	3
405.324	2
406.107	3
406.89	3
407.673	2
408.456	5
409.238	4
410.021	3
410.803	5
411.586	4
412.368	3
413.151	3
413.933	5
414.715	5
415.497	7
416.279	4
417.061	5
417.843	3
418.624	4
419.406	4
420.188	5
420.969	5
421.751	6
422.532	6
423.313	7
424.095	4
424.876	5
425.657	7
426.438	7
427.219	7
428	7
428.78	6
429.561	5
430.342	7
431.122	5
431.903	7
432.683	7
433.464	9
434.244	9
435.024	8
435.804	10
436.584	9
437.364	10
438.144	10
438.924	9
439.704	11
440.483	10
441.263	15
442.042	13
442.822	13
443.601	11
444.38	14
445.16	17
445.939	14
446.718	18
447.497	20
448.276	18
449.054	21
449.833	25
450.612	25
451.391	28
452.169	32
452.948	32
453.726	40
454.504	42
455.282	43
456.061	50
456.839	55
457.617	62
458.395	68
459.172	76
459.95	84
460.728	97
461.506	103
462.283	114
463.061	128
463.838	142
464.615	154
465.393	172
466.17	194
466.947	219
467.724	234
468.501	269
469.278	290
470.055	326
470.831	362
471.608	398
472.385	440
473.161	487
473.938	536
474.714	602
475.49	660
476.266	725
477.043	797
477.819	875
478.595	966
479.371	1055
480.146	1159
480.922	1279
481.698	1384
482.473	1526
483.249	1669
484.024	1823
484.8	1991
485.575	2190
486.35	2390
487.126	2611
487.901	2850
488.676	3113
489.451	3395
490.225	3677
491	4018
491.775	4372
492.55	4770
493.324	5171
494.099	5646
494.873	6105
495.647	6632
496.422	7198
497.196	7745
497.97	8333
498.744	8937
499.518	9623
500.292	10263
501.066	10886
501.839	11472
502.613	12116
503.387	12651
504.16	13193
504.934	13703
505.707	14162
506.48	14450
507.253	14682
508.027	14853
508.8	15069
509.573	15041
510.346	14955
511.118	14820
511.891	14595
512.664	14232
513.437	13909
514.209	13533
514.982	13098
515.754	12597
516.526	12119
517.298	11632
518.071	11173
518.843	10747
519.615	10285
520.387	9872
521.159	9443
521.93	9093
522.702	8697
523.474	8396
524.245	8061
525.017	7768
525.788	7422
526.56	7145
527.331	6850
528.102	6575
528.873	6298
529.644	6035
530.415	5781
531.186	5513
531.957	5260
532.728	4982
533.498	4785
534.269	4507
535.039	4294
535.81	4070
536.58	3847
537.351	3642
538.121	3434
538.891	3251
539.661	3089
540.431	2906
541.201	2759
541.971	2599
542.741	2469
543.51	2343
544.28	2232
545.05	2120
545.819	2001
546.588	1918
547.358	1815
548.127	1720
548.896	1639
549.665	1561
550.434	1479
551.203	1408
551.972	1338
552.741	1274
553.51	1190
554.278	1135
555.047	1078
555.815	1013
556.584	948
557.352	917
558.121	853
558.889	813
559.657	765
560.425	722
561.193	682
561.961	647
562.729	605
563.496	569
564.264	548
565.032	514
565.799	479
566.567	456
567.334	427
568.101	399
568.869	384
569.636	357
570.403	338
571.17	317
571.937	300
572.704	285
573.471	270
574.237	253
575.004	241
575.771	224
576.537	212
577.303	197
578.07	188
578.836	179
579.602	168
580.368	157
581.134	152
581.9	137
582.666	139
583.432	126
584.198	118
584.964	109
585.729	106
586.495	101
587.26	97
588.025	90
588.791	85
589.556	82
590.321	77
591.086	70
591.851	69
592.616	66
593.381	64
594.146	60
594.911	53
595.675	51
596.44	49
597.204	48
597.969	48
598.733	43
599.497	42
600.261	38
601.025	39
601.79	35
602.553	36
603.317	33
604.081	31
604.845	29
605.609	29
606.372	26
607.136	28
607.899	27
608.662	23
609.426	23
610.189	20
610.952	22
611.715	23
612.478	17
613.241	19
614.004	19
614.767	18
615.529	17
616.292	20
617.055	17
617.817	15
618.579	15
619.342	13
620.104	12
620.866	11
621.628	10
622.39	10
623.152	11
623.914	11
624.676	9
625.438	10
626.199	9
626.961	10
627.722	9
628.484	9
629.245	9
630.006	7
630.768	7
631.529	9
632.29	8
633.051	7
633.812	5
634.573	7
635.333	6
636.094	9
636.855	5
637.615	4
638.376	5
639.136	5
639.896	3
640.657	4
641.417	6
642.177	4
642.937	6
643.697	5
644.457	2
645.216	8
645.976	4
646.736	6
647.495	3
648.255	4
649.014	4
649.774	3
650.533	5
651.292	4
652.051	2
652.81	4
653.569	1
654.328	2
655.087	3
655.846	3
656.604	1
657.363	4
658.121	4
658.88	4
659.638	2
660.397	3
661.155	3
661.913	4
662.671	4
663.429	2
664.187	2
664.945	2
665.703	3
666.46	4
667.218	1
667.976	2
668.733	2
669.49	4
670.248	2
671.005	1
671.762	2
672.519	3
673.276	2
674.033	1
674.79	1
675.547	1
676.304	2
677.06	3
677.817	2
678.574	1
679.33	0
680.086	1
680.843	2
681.599	0
682.355	5
683.111	1
683.867	0
684.623	6
685.379	1
686.135	2
686.89	1
687.646	1
688.402	0
689.157	1
689.912	1
690.668	2
691.423	1
692.178	-1
692.933	1
693.688	3
694.443	2
695.198	2
695.953	3
696.708	3
697.462	-1
698.217	2
698.972	3
699.726	3
700.48	2
701.235	1
701.989	2
702.743	0
703.497	1
704.251	1
705.005	-1
705.759	2
706.513	1
707.266	1
708.02	0
708.774	2
709.527	1
710.28	1
711.034	0
711.787	3
712.54	2
713.293	-2
714.046	1
714.799	1
715.552	1
716.305	2
717.058	2
717.81	2
718.563	3
719.315	1
720.068	0
720.82	3
721.573	1
722.325	0
723.077	2
723.829	1
724.581	3
725.333	3
726.085	2
726.836	1
727.588	2
728.34	2
729.091	-2
729.843	3
730.594	3
731.346	-1
732.097	3
732.848	-2
733.599	2
734.35	1
735.101	3
735.852	5
736.603	2
737.354	1
738.104	3
738.855	3
739.605	2
740.356	3
741.106	0
741.856	1
742.607	1
743.357	0
744.107	3
744.857	3
745.607	4
746.357	2
747.106	2
747.856	1
748.606	3
749.355	2
750.105	2
750.854	3
751.603	3
752.353	0
753.102	2
753.851	1
754.6	4
755.349	3
756.098	2
756.847	1
757.595	2
758.344	1
759.093	0
759.841	4
760.589	3
761.338	3
762.086	2
762.834	0
763.582	1
764.331	1
765.079	0
765.826	1
766.574	2
767.322	5
768.07	3
768.817	3
769.565	2
770.312	4
771.06	1
771.807	2
772.554	3
773.302	5
774.049	3
774.796	2
775.543	5
776.29	4
777.036	6
777.783	5
778.53	4
779.276	5
780.023	4
780.769	7
781.516	3
782.262	3
783.008	6
783.754	4
784.5	3
785.246	4
785.992	6
786.738	3
787.484	4
788.23	4
788.975	4
789.721	6
790.466	3
791.212	5
791.957	5
792.702	6
793.447	5
794.193	3
794.938	4
795.683	3
796.427	7
797.172	5
797.917	5
798.662	5
799.406	4
800.151	4
800.895	1
801.64	4
802.384	4
803.128	5
803.872	3
804.616	4
805.36	6
806.104	2
806.848	3
807.592	2
808.336	3
809.079	3
809.823	3
810.566	2
811.31	5
812.053	5
812.796	4
813.539	5
814.283	5
815.026	3
815.769	3
816.511	2
817.254	1
817.997	2
818.74	1
819.482	1
820.225	1
820.967	4
821.71	3
822.452	1
823.194	3
823.936	3
824.678	3
825.42	4
826.162	2
826.904	1
827.646	5
828.388	2
829.129	0
829.871	1
830.612	2
831.354	3
832.095	1
832.836	1
833.577	2
834.319	1
835.06	2
835.801	2
836.542	3
837.282	2
838.023	3
838.764	3
839.504	3
840.245	2
840.985	1
841.726	3
842.466	1
843.206	1
843.946	2
844.687	1
845.427	1
846.166	1
846.906	2
847.646	2
848.386	1
849.125	2
849.865	2
850.605	0
851.344	0
852.083	2
852.823	0
853.562	2
854.301	-1
855.04	2
855.779	2
856.518	1
857.257	-1
857.995	1
858.734	0
859.473	-1
860.211	1
860.95	2
861.688	0
862.426	3
863.165	2
863.903	1
864.641	1
865.379	1
866.117	-2
866.855	2
867.593	1
868.33	1
869.068	1
869.806	1
870.543	0
871.28	1
872.018	1
872.755	1
873.492	1
874.229	0
874.967	1
875.703	0
876.44	0
877.177	1
877.914	2
878.651	1
879.387	2
880.124	1
880.86	0
881.597	1
882.333	-1
883.069	2
883.806	0
884.542	0
885.278	0
886.014	0
886.749	1
887.485	0
888.221	1
888.957	1
889.692	1
890.428	1
891.163	-3
891.899	-2
892.634	0
893.369	1
894.104	0
894.839	1
895.574	-2
896.309	0
897.044	0
897.779	1
898.514	1
899.248	1
899.983	1
900.717	-1
901.452	0
902.186	2
902.92	0
903.654	-2
904.389	0
905.123	1
905.857	0
906.59	-1
907.324	1
908.058	1
908.792	0
909.525	0
910.259	0
910.992	-1
911.726	0
912.459	-1
913.192	-2
913.925	1
914.658	2
915.391	-1
916.124	0
916.857	0
917.59	1
918.323	0
919.055	0
919.788	2
920.521	-2
921.253	0
921.985	-2
922.718	0
923.45	-2
924.182	0
924.914	0
925.646	0
926.378	-1
927.11	1
927.841	1
928.573	-1
929.305	-1
930.036	1
930.768	-2
931.499	-1
932.23	0
932.962	-3
933.693	-1
934.424	1
935.155	1
935.886	-2
936.617	1
937.348	-2
938.078	-1
938.809	1
939.54	-2
940.27	1
941.001	-1
941.731	-2
942.461	-3
943.191	1
943.922	-2
944.652	1
945.382	-1
946.112	1
946.841	2
947.571	-2
948.301	-1
949.031	-1
949.76	-1
950.49	-1
951.219	1
951.948	3
952.678	-3
953.407	3
954.136	1
954.865	0
955.594	0
956.323	0
957.052	-1
957.78	0
958.509	1
959.238	-2
959.966	-1
960.695	1
961.423	-2
962.151	3
962.88	-3
963.608	0
964.336	1
965.064	-2
965.792	-2
966.52	-1
967.247	2
967.975	0
968.703	1
969.43	0
970.158	-1
970.885	1
971.613	-1
972.34	1
973.067	1
973.794	-1
974.521	0
975.248	-1
975.975	0
976.702	2
977.429	2
978.156	-1
978.882	-1
979.609	-1
980.335	-2
981.062	0
981.788	-3
982.514	2
983.24	1
983.967	0
984.693	0
985.419	-1
986.144	1
986.87	1
987.596	0
988.322	-2
989.047	0
989.773	0
990.498	2
991.224	1
991.949	-1
992.674	-3
993.399	-2
994.124	1
994.849	0
995.574	1
996.299	-1
997.024	-2
997.749	0
998.473	0
999.198	1
999.922	-2
1000.647	-1
1001.371	5
1002.095	-1
1002.82	-3
1003.544	-1
1004.268	-2
1004.992	-2
1005.716	0
1006.439	1
1007.163	0
1007.887	-1
1008.611	0
1009.334	-2
1010.058	-2
1010.781	1
1011.504	0
1012.228	-2
1012.951	1
1013.674	1
1014.397	-2
1015.12	0
