节点500_145_QEPB04081__280__11-33-26-498.txt的数据

Date: Wed Nov 12 11:33:26 CST 2025
User: PC
Spectrometer: QEPB0408
触发模式: 0
积分时间 (秒): 1.000000E-2
Scans to average: 1
启用暗噪声校正: true
启用非线性校正: false
滑动平均宽度: 0
X轴模式: Wavelengths
Number of Pixels in Spectrum: 1044
>>>>>Begin Spectral Data<<<<<
220.843	-2
221.644	-1
222.444	-1
223.244	-1
224.045	-1
224.845	1
225.645	-1
226.445	-2
227.245	0
228.045	1
228.845	-1
229.645	1
230.444	1
231.244	1
232.043	1
232.843	2
233.642	-1
234.442	2
235.241	2
236.04	-1
236.839	1
237.638	1
238.437	2
239.236	2
240.035	3
240.833	2
241.632	0
242.43	1
243.229	0
244.027	2
244.826	4
245.624	1
246.422	2
247.22	0
248.018	1
248.816	3
249.614	2
250.412	1
251.21	4
252.007	3
252.805	3
253.602	1
254.4	0
255.197	1
255.994	4
256.791	3
257.589	5
258.386	3
259.183	6
259.979	3
260.776	5
261.573	6
262.37	5
263.166	6
263.963	6
264.759	5
265.556	5
266.352	5
267.148	6
267.944	3
268.74	6
269.536	5
270.332	7
271.128	8
271.924	9
272.719	8
273.515	9
274.311	7
275.106	6
275.901	7
276.697	10
277.492	9
278.287	10
279.082	9
279.877	10
280.672	10
281.467	11
282.262	9
283.056	11
283.851	9
284.646	11
285.44	11
286.234	12
287.029	10
287.823	12
288.617	13
289.411	9
290.205	11
290.999	9
291.793	9
292.587	10
293.381	11
294.174	11
294.968	9
295.761	10
296.555	11
297.348	9
298.141	9
298.935	9
299.728	10
300.521	12
301.314	9
302.107	8
302.899	10
303.692	9
304.485	8
305.277	9
306.07	7
306.862	9
307.655	10
308.447	6
309.239	7
310.031	8
310.823	7
311.615	6
312.407	6
313.199	5
313.991	5
314.783	6
315.574	5
316.366	5
317.157	5
317.949	3
318.74	6
319.531	5
320.322	7
321.113	5
321.904	5
322.695	5
323.486	3
324.277	6
325.068	5
325.858	5
326.649	4
327.439	3
328.23	2
329.02	3
329.81	3
330.6	4
331.391	6
332.181	3
332.971	3
333.76	5
334.55	5
335.34	3
336.13	3
336.919	2
337.709	3
338.498	5
339.287	4
340.077	2
340.866	2
341.655	3
342.444	2
343.233	3
344.022	5
344.811	4
345.6	4
346.388	4
347.177	3
347.965	4
348.754	2
349.542	3
350.33	2
351.119	1
351.907	2
352.695	3
353.483	5
354.271	2
355.059	2
355.846	3
356.634	3
357.422	2
358.209	2
358.997	4
359.784	4
360.571	2
361.359	3
362.146	1
362.933	5
363.72	4
364.507	3
365.294	0
366.081	1
366.867	4
367.654	5
368.44	3
369.227	1
370.013	7
370.8	1
371.586	2
372.372	3
373.158	3
373.944	4
374.73	1
375.516	1
376.302	2
377.088	3
377.873	5
378.659	2
379.445	4
380.23	2
381.015	0
381.801	5
382.586	2
383.371	6
384.156	1
384.941	2
385.726	2
386.511	3
387.296	4
388.08	1
388.865	4
389.649	2
390.434	2
391.218	1
392.003	2
392.787	3
393.571	1
394.355	3
395.139	0
395.923	2
396.707	3
397.491	3
398.274	3
399.058	0
399.842	4
400.625	4
401.408	5
402.192	5
402.975	4
403.758	6
404.541	2
405.324	3
406.107	2
406.89	6
407.673	3
408.456	5
409.238	4
410.021	4
410.803	1
411.586	4
412.368	4
413.151	5
413.933	4
414.715	3
415.497	5
416.279	4
417.061	6
417.843	4
418.624	4
419.406	4
420.188	4
420.969	5
421.751	6
422.532	5
423.313	6
424.095	4
424.876	5
425.657	5
426.438	7
427.219	7
428	6
428.78	8
429.561	7
430.342	6
431.122	8
431.903	8
432.683	6
433.464	8
434.244	8
435.024	7
435.804	7
436.584	9
437.364	9
438.144	10
438.924	12
439.704	9
440.483	10
441.263	11
442.042	14
442.822	14
443.601	16
444.38	16
445.16	15
445.939	16
446.718	16
447.497	18
448.276	18
449.054	22
449.833	22
450.612	24
451.391	26
452.169	30
452.948	34
453.726	34
454.504	35
455.282	44
456.061	43
456.839	47
457.617	53
458.395	60
459.172	68
459.95	75
460.728	78
461.506	93
462.283	105
463.061	111
463.838	129
464.615	140
465.393	150
466.17	174
466.947	194
467.724	208
468.501	236
469.278	266
470.055	298
470.831	330
471.608	371
472.385	411
473.161	460
473.938	505
474.714	567
475.49	626
476.266	693
477.043	763
477.819	842
478.595	926
479.371	1035
480.146	1130
480.922	1269
481.698	1404
482.473	1541
483.249	1698
484.024	1874
484.8	2070
485.575	2266
486.35	2527
487.126	2771
487.901	3052
488.676	3332
489.451	3697
490.225	4062
491	4464
491.775	4922
492.55	5405
493.324	5909
494.099	6472
494.873	7013
495.647	7683
496.422	8337
497.196	9030
497.97	9721
498.744	10502
499.518	11277
500.292	11971
501.066	12716
501.839	13327
502.613	14078
503.387	14698
504.16	15232
504.934	15730
505.707	16064
506.48	16317
507.253	16466
508.027	16585
508.8	16459
509.573	16324
510.346	16103
511.118	15785
511.891	15338
512.664	14840
513.437	14363
514.209	13834
514.982	13245
515.754	12717
516.526	12239
517.298	11628
518.071	11102
518.843	10596
519.615	10181
520.387	9761
521.159	9342
521.93	8979
522.702	8629
523.474	8274
524.245	7959
525.017	7660
525.788	7347
526.56	7050
527.331	6739
528.102	6469
528.873	6187
529.644	5888
530.415	5610
531.186	5362
531.957	5078
532.728	4818
533.498	4556
534.269	4333
535.039	4093
535.81	3878
536.58	3653
537.351	3422
538.121	3255
538.891	3076
539.661	2900
540.431	2766
541.201	2609
541.971	2453
542.741	2323
543.51	2207
544.28	2114
545.05	1984
545.819	1897
546.588	1801
547.358	1725
548.127	1609
548.896	1547
549.665	1466
550.434	1399
551.203	1315
551.972	1258
552.741	1197
553.51	1134
554.278	1068
555.047	1010
555.815	940
556.584	897
557.352	836
558.121	791
558.889	757
559.657	705
560.425	667
561.193	621
561.961	584
562.729	546
563.496	520
564.264	497
565.032	463
565.799	443
566.567	420
567.334	393
568.101	369
568.869	349
569.636	329
570.403	311
571.17	294
571.937	277
572.704	259
573.471	248
574.237	231
575.004	221
575.771	206
576.537	198
577.303	185
578.07	173
578.836	158
579.602	150
580.368	146
581.134	137
581.9	128
582.666	118
583.432	117
584.198	107
584.964	101
585.729	97
586.495	89
587.26	90
588.025	81
588.791	74
589.556	75
590.321	70
591.086	67
591.851	64
592.616	64
593.381	55
594.146	55
594.911	53
595.675	52
596.44	47
597.204	45
597.969	42
598.733	40
599.497	36
600.261	34
601.025	34
601.79	34
602.553	33
603.317	30
604.081	27
604.845	31
605.609	25
606.372	26
607.136	26
607.899	23
608.662	21
609.426	21
610.189	19
610.952	22
611.715	16
612.478	17
613.241	14
614.004	19
614.767	16
615.529	16
616.292	15
617.055	13
617.817	17
618.579	12
619.342	14
620.104	12
620.866	10
621.628	13
622.39	8
623.152	11
623.914	9
624.676	8
625.438	9
626.199	7
626.961	10
627.722	9
628.484	8
629.245	8
630.006	9
630.768	8
631.529	7
632.29	11
633.051	6
633.812	5
634.573	6
635.333	7
636.094	9
636.855	2
637.615	9
638.376	6
639.136	5
639.896	6
640.657	4
641.417	3
642.177	3
642.937	4
643.697	4
644.457	4
645.216	5
645.976	5
646.736	5
647.495	4
648.255	4
649.014	2
649.774	6
650.533	1
651.292	3
652.051	4
652.81	2
653.569	4
654.328	2
655.087	2
655.846	5
656.604	4
657.363	2
658.121	2
658.88	3
659.638	-1
660.397	4
661.155	2
661.913	3
662.671	3
663.429	1
664.187	1
664.945	4
665.703	1
666.46	1
667.218	5
667.976	0
668.733	1
669.49	3
670.248	0
671.005	2
671.762	1
672.519	2
673.276	4
674.033	2
674.79	3
675.547	3
676.304	4
677.06	4
677.817	2
678.574	2
679.33	1
680.086	3
680.843	3
681.599	3
682.355	3
683.111	1
683.867	2
684.623	1
685.379	4
686.135	1
686.89	2
687.646	3
688.402	0
689.157	3
689.912	1
690.668	1
691.423	3
692.178	1
692.933	3
693.688	1
694.443	3
695.198	1
695.953	3
696.708	2
697.462	1
698.217	4
698.972	1
699.726	1
700.48	3
701.235	0
701.989	1
702.743	1
703.497	2
704.251	0
705.005	4
705.759	3
706.513	1
707.266	2
708.02	4
708.774	5
709.527	2
710.28	2
711.034	2
711.787	2
712.54	4
713.293	-1
714.046	1
714.799	-1
715.552	2
716.305	3
717.058	4
717.81	4
718.563	1
719.315	2
720.068	2
720.82	2
721.573	4
722.325	2
723.077	3
723.829	-1
724.581	3
725.333	3
726.085	0
726.836	1
727.588	1
728.34	3
729.091	2
729.843	2
730.594	1
731.346	2
732.097	3
732.848	1
733.599	3
734.35	0
735.101	3
735.852	1
736.603	3
737.354	2
738.104	4
738.855	0
739.605	1
740.356	2
741.106	2
741.856	2
742.607	2
743.357	2
744.107	2
744.857	3
745.607	0
746.357	-2
747.106	3
747.856	1
748.606	1
749.355	2
750.105	0
750.854	5
751.603	2
752.353	4
753.102	2
753.851	4
754.6	2
755.349	2
756.098	2
756.847	4
757.595	3
758.344	-1
759.093	3
759.841	3
760.589	1
761.338	4
762.086	3
762.834	4
763.582	3
764.331	3
765.079	4
765.826	3
766.574	3
767.322	4
768.07	5
768.817	5
769.565	2
770.312	6
771.06	3
771.807	3
772.554	5
773.302	3
774.049	6
774.796	4
775.543	2
776.29	5
777.036	4
777.783	5
778.53	4
779.276	4
780.023	6
780.769	8
781.516	6
782.262	5
783.008	5
783.754	5
784.5	4
785.246	4
785.992	2
786.738	6
787.484	4
788.23	4
788.975	4
789.721	5
790.466	5
791.212	4
791.957	5
792.702	5
793.447	3
794.193	6
794.938	6
795.683	3
796.427	5
797.172	4
797.917	4
798.662	5
799.406	5
800.151	3
800.895	7
801.64	5
802.384	4
803.128	2
803.872	5
804.616	4
805.36	2
806.104	4
806.848	4
807.592	4
808.336	4
809.079	5
809.823	1
810.566	4
811.31	2
812.053	4
812.796	4
813.539	4
814.283	3
815.026	1
815.769	4
816.511	2
817.254	3
817.997	5
818.74	3
819.482	3
820.225	2
820.967	2
821.71	1
822.452	5
823.194	2
823.936	2
824.678	3
825.42	0
826.162	4
826.904	3
827.646	3
828.388	3
829.129	4
829.871	3
830.612	2
831.354	3
832.095	1
832.836	2
833.577	3
834.319	2
835.06	2
835.801	2
836.542	2
837.282	3
838.023	2
838.764	2
839.504	2
840.245	2
840.985	5
841.726	2
842.466	1
843.206	5
843.946	0
844.687	2
845.427	1
846.166	3
846.906	2
847.646	1
848.386	2
849.125	4
849.865	2
850.605	3
851.344	2
852.083	1
852.823	0
853.562	4
854.301	0
855.04	1
855.779	0
856.518	-1
857.257	2
857.995	1
858.734	-2
859.473	1
860.211	1
860.95	1
861.688	2
862.426	2
863.165	2
863.903	1
864.641	3
865.379	3
866.117	0
866.855	0
867.593	1
868.33	0
869.068	1
869.806	0
870.543	0
871.28	1
872.018	2
872.755	3
873.492	2
874.229	2
874.967	0
875.703	1
876.44	2
877.177	-1
877.914	1
878.651	-1
879.387	1
880.124	1
880.86	0
881.597	0
882.333	0
883.069	1
883.806	0
884.542	2
885.278	0
886.014	-1
886.749	1
887.485	0
888.221	2
888.957	0
889.692	0
890.428	2
891.163	-3
891.899	1
892.634	1
893.369	-1
894.104	1
894.839	0
895.574	-1
896.309	0
897.044	0
897.779	-3
898.514	-2
899.248	1
899.983	0
900.717	1
901.452	0
902.186	2
902.92	0
903.654	1
904.389	-3
905.123	1
905.857	-1
906.59	-2
907.324	0
908.058	2
908.792	-1
909.525	0
910.259	1
910.992	1
911.726	0
912.459	0
913.192	-2
913.925	2
914.658	1
915.391	2
916.124	0
916.857	0
917.59	1
918.323	0
919.055	1
919.788	0
920.521	0
921.253	1
921.985	-2
922.718	1
923.45	0
924.182	1
924.914	1
925.646	1
926.378	2
927.11	-2
927.841	1
928.573	2
929.305	0
930.036	1
930.768	-4
931.499	1
932.23	-1
932.962	-1
933.693	-1
934.424	1
935.155	-2
935.886	0
936.617	2
937.348	-1
938.078	-1
938.809	1
939.54	0
940.27	-1
941.001	0
941.731	1
942.461	1
943.191	0
943.922	1
944.652	-2
945.382	-1
946.112	0
946.841	1
947.571	1
948.301	0
949.031	-2
949.76	0
950.49	1
951.219	-2
951.948	0
952.678	-1
953.407	0
954.136	1
954.865	-2
955.594	1
956.323	1
957.052	-1
957.78	-1
958.509	0
959.238	2
959.966	0
960.695	0
961.423	-1
962.151	0
962.88	0
963.608	3
964.336	0
965.064	0
965.792	1
966.52	1
967.247	-1
967.975	0
968.703	1
969.43	1
970.158	-1
970.885	0
971.613	1
972.34	1
973.067	-2
973.794	-1
974.521	0
975.248	-2
975.975	0
976.702	-2
977.429	1
978.156	1
978.882	0
979.609	0
980.335	-2
981.062	1
981.788	-1
982.514	0
983.24	1
983.967	-1
984.693	0
985.419	0
986.144	0
986.87	-2
987.596	0
988.322	1
989.047	0
989.773	0
990.498	0
991.224	0
991.949	-1
992.674	0
993.399	-1
994.124	3
994.849	-2
995.574	0
996.299	0
997.024	-1
997.749	1
998.473	0
999.198	2
999.922	0
1000.647	1
1001.371	3
1002.095	-2
1002.82	-2
1003.544	-2
1004.268	1
1004.992	1
1005.716	3
1006.439	0
1007.163	-2
1007.887	-3
1008.611	0
1009.334	1
1010.058	0
1010.781	1
1011.504	1
1012.228	1
1012.951	0
1013.674	-1
1014.397	2
1015.12	2
