节点500_145_QEPB04081__303__11-33-49-438.txt的数据

Date: Wed Nov 12 11:33:49 CST 2025
User: PC
Spectrometer: QEPB0408
触发模式: 0
积分时间 (秒): 1.000000E-2
Scans to average: 1
启用暗噪声校正: true
启用非线性校正: false
滑动平均宽度: 0
X轴模式: Wavelengths
Number of Pixels in Spectrum: 1044
>>>>>Begin Spectral Data<<<<<
220.843	2.25
221.644	-0.75
222.444	0.25
223.244	-1.75
224.045	0.25
224.845	1.25
225.645	1.25
226.445	-2.75
227.245	1.25
228.045	0.25
228.845	1.25
229.645	0.25
230.444	0.25
231.244	2.25
232.043	1.25
232.843	1.25
233.642	1.25
234.442	2.25
235.241	0.25
236.04	-0.75
236.839	1.25
237.638	1.25
238.437	2.25
239.236	1.25
240.035	1.25
240.833	0.25
241.632	0.25
242.43	1.25
243.229	2.25
244.027	1.25
244.826	1.25
245.624	2.25
246.422	2.25
247.22	1.25
248.018	3.25
248.816	2.25
249.614	3.25
250.412	3.25
251.21	-0.75
252.007	3.25
252.805	2.25
253.602	3.25
254.4	1.25
255.197	2.25
255.994	3.25
256.791	1.25
257.589	4.25
258.386	3.25
259.183	3.25
259.979	3.25
260.776	5.25
261.573	6.25
262.37	4.25
263.166	5.25
263.963	4.25
264.759	6.25
265.556	4.25
266.352	6.25
267.148	6.25
267.944	5.25
268.74	4.25
269.536	7.25
270.332	8.25
271.128	7.25
271.924	8.25
272.719	8.25
273.515	8.25
274.311	9.25
275.106	8.25
275.901	7.25
276.697	8.25
277.492	10.25
278.287	9.25
279.082	9.25
279.877	12.25
280.672	11.25
281.467	10.25
282.262	10.25
283.056	9.25
283.851	11.25
284.646	10.25
285.44	12.25
286.234	12.25
287.029	10.25
287.823	10.25
288.617	9.25
289.411	10.25
290.205	9.25
290.999	11.25
291.793	13.25
292.587	9.25
293.381	10.25
294.174	7.25
294.968	12.25
295.761	11.25
296.555	8.25
297.348	8.25
298.141	8.25
298.935	9.25
299.728	9.25
300.521	9.25
301.314	10.25
302.107	9.25
302.899	8.25
303.692	7.25
304.485	8.25
305.277	9.25
306.07	7.25
306.862	8.25
307.655	8.25
308.447	6.25
309.239	5.25
310.031	6.25
310.823	5.25
311.615	5.25
312.407	5.25
313.199	5.25
313.991	4.25
314.783	5.25
315.574	6.25
316.366	4.25
317.157	5.25
317.949	4.25
318.74	5.25
319.531	5.25
320.322	2.25
321.113	4.25
321.904	5.25
322.695	4.25
323.486	3.25
324.277	3.25
325.068	4.25
325.858	5.25
326.649	2.25
327.439	5.25
328.23	5.25
329.02	5.25
329.81	5.25
330.6	6.25
331.391	3.25
332.181	4.25
332.971	3.25
333.76	5.25
334.55	2.25
335.34	4.25
336.13	2.25
336.919	3.25
337.709	5.25
338.498	2.25
339.287	2.25
340.077	3.25
340.866	4.25
341.655	2.25
342.444	3.25
343.233	4.25
344.022	2.25
344.811	3.25
345.6	4.25
346.388	3.25
347.177	2.25
347.965	4.25
348.754	4.25
349.542	2.25
350.33	3.25
351.119	1.25
351.907	3.25
352.695	4.25
353.483	4.25
354.271	4.25
355.059	1.25
355.846	4.25
356.634	1.25
357.422	3.25
358.209	6.25
358.997	2.25
359.784	3.25
360.571	3.25
361.359	4.25
362.146	0.25
362.933	3.25
363.72	4.25
364.507	0.25
365.294	4.25
366.081	3.25
366.867	3.25
367.654	3.25
368.44	0.25
369.227	-0.75
370.013	5.25
370.8	2.25
371.586	2.25
372.372	4.25
373.158	1.25
373.944	2.25
374.73	3.25
375.516	-0.75
376.302	2.25
377.088	4.25
377.873	3.25
378.659	2.25
379.445	3.25
380.23	2.25
381.015	2.25
381.801	3.25
382.586	0.25
383.371	4.25
384.156	4.25
384.941	2.25
385.726	3.25
386.511	2.25
387.296	5.25
388.08	3.25
388.865	3.25
389.649	2.25
390.434	4.25
391.218	1.25
392.003	3.25
392.787	5.25
393.571	4.25
394.355	0.25
395.139	2.25
395.923	2.25
396.707	5.25
397.491	3.25
398.274	4.25
399.058	2.25
399.842	3.25
400.625	4.25
401.408	5.25
402.192	6.25
402.975	2.25
403.758	5.25
404.541	3.25
405.324	5.25
406.107	3.25
406.89	1.25
407.673	5.25
408.456	2.25
409.238	3.25
410.021	2.25
410.803	2.25
411.586	3.25
412.368	4.25
413.151	5.25
413.933	3.25
414.715	3.25
415.497	6.25
416.279	4.25
417.061	4.25
417.843	1.25
418.624	5.25
419.406	2.25
420.188	5.25
420.969	4.25
421.751	4.25
422.532	6.25
423.313	4.25
424.095	8.25
424.876	7.25
425.657	4.25
426.438	5.25
427.219	3.25
428	4.25
428.78	6.25
429.561	8.25
430.342	5.25
431.122	7.25
431.903	7.25
432.683	7.25
433.464	8.25
434.244	7.25
435.024	8.25
435.804	9.25
436.584	6.25
437.364	9.25
438.144	8.25
438.924	11.25
439.704	9.25
440.483	9.25
441.263	10.25
442.042	11.25
442.822	10.25
443.601	13.25
444.38	14.25
445.16	15.25
445.939	16.25
446.718	17.25
447.497	18.25
448.276	22.25
449.054	22.25
449.833	24.25
450.612	23.25
451.391	26.25
452.169	30.25
452.948	32.25
453.726	34.25
454.504	39.25
455.282	39.25
456.061	45.25
456.839	51.25
457.617	55.25
458.395	58.25
459.172	65.25
459.95	74.25
460.728	84.25
461.506	99.25
462.283	103.25
463.061	113.25
463.838	130.25
464.615	139.25
465.393	154.25
466.17	177.25
466.947	197.25
467.724	219.25
468.501	243.25
469.278	273.25
470.055	302.25
470.831	331.25
471.608	374.25
472.385	417.25
473.161	458.25
473.938	506.25
474.714	560.25
475.49	625.25
476.266	695.25
477.043	769.25
477.819	850.25
478.595	943.25
479.371	1045.25
480.146	1146.25
480.922	1281.25
481.698	1406.25
482.473	1544.25
483.249	1705.25
484.024	1867.25
484.8	2055.25
485.575	2277.25
486.35	2497.25
487.126	2754.25
487.901	3057.25
488.676	3340.25
489.451	3679.25
490.225	4064.25
491	4456.25
491.775	4886.25
492.55	5370.25
493.324	5873.25
494.099	6431.25
494.873	6998.25
495.647	7617.25
496.422	8280.25
497.196	8933.25
497.97	9651.25
498.744	10425.25
499.518	11140.25
500.292	11885.25
501.066	12599.25
501.839	13288.25
502.613	13949.25
503.387	14599.25
504.16	15151.25
504.934	15603.25
505.707	15959.25
506.48	16248.25
507.253	16405.25
508.027	16482.25
508.8	16423.25
509.573	16231.25
510.346	16031.25
511.118	15710.25
511.891	15306.25
512.664	14874.25
513.437	14362.25
514.209	13821.25
514.982	13250.25
515.754	12705.25
516.526	12235.25
517.298	11636.25
518.071	11135.25
518.843	10650.25
519.615	10197.25
520.387	9720.25
521.159	9399.25
521.93	8980.25
522.702	8649.25
523.474	8306.25
524.245	7954.25
525.017	7665.25
525.788	7371.25
526.56	7066.25
527.331	6792.25
528.102	6472.25
528.873	6189.25
529.644	5908.25
530.415	5664.25
531.186	5357.25
531.957	5115.25
532.728	4848.25
533.498	4581.25
534.269	4329.25
535.039	4100.25
535.81	3851.25
536.58	3646.25
537.351	3456.25
538.121	3246.25
538.891	3067.25
539.661	2927.25
540.431	2743.25
541.201	2610.25
541.971	2461.25
542.741	2358.25
543.51	2219.25
544.28	2120.25
545.05	1985.25
545.819	1917.25
546.588	1823.25
547.358	1724.25
548.127	1649.25
548.896	1547.25
549.665	1460.25
550.434	1401.25
551.203	1322.25
551.972	1262.25
552.741	1183.25
553.51	1144.25
554.278	1057.25
555.047	1009.25
555.815	936.25
556.584	903.25
557.352	842.25
558.121	801.25
558.889	753.25
559.657	699.25
560.425	679.25
561.193	628.25
561.961	593.25
562.729	562.25
563.496	537.25
564.264	506.25
565.032	482.25
565.799	444.25
566.567	421.25
567.334	401.25
568.101	373.25
568.869	351.25
569.636	326.25
570.403	317.25
571.17	297.25
571.937	280.25
572.704	260.25
573.471	249.25
574.237	229.25
575.004	222.25
575.771	207.25
576.537	193.25
577.303	187.25
578.07	173.25
578.836	163.25
579.602	157.25
580.368	144.25
581.134	133.25
581.9	131.25
582.666	126.25
583.432	117.25
584.198	110.25
584.964	100.25
585.729	97.25
586.495	92.25
587.26	87.25
588.025	82.25
588.791	77.25
589.556	76.25
590.321	69.25
591.086	66.25
591.851	63.25
592.616	60.25
593.381	58.25
594.146	55.25
594.911	53.25
595.675	47.25
596.44	46.25
597.204	40.25
597.969	41.25
598.733	42.25
599.497	37.25
600.261	38.25
601.025	36.25
601.79	35.25
602.553	32.25
603.317	30.25
604.081	30.25
604.845	28.25
605.609	25.25
606.372	25.25
607.136	23.25
607.899	22.25
608.662	21.25
609.426	22.25
610.189	20.25
610.952	20.25
611.715	21.25
612.478	18.25
613.241	18.25
614.004	14.25
614.767	20.25
615.529	16.25
616.292	14.25
617.055	12.25
617.817	14.25
618.579	13.25
619.342	12.25
620.104	16.25
620.866	11.25
621.628	11.25
622.39	10.25
623.152	12.25
623.914	10.25
624.676	10.25
625.438	9.25
626.199	10.25
626.961	11.25
627.722	7.25
628.484	10.25
629.245	7.25
630.006	8.25
630.768	8.25
631.529	7.25
632.29	9.25
633.051	7.25
633.812	7.25
634.573	5.25
635.333	6.25
636.094	5.25
636.855	5.25
637.615	9.25
638.376	7.25
639.136	6.25
639.896	6.25
640.657	7.25
641.417	5.25
642.177	7.25
642.937	5.25
643.697	6.25
644.457	4.25
645.216	7.25
645.976	2.25
646.736	5.25
647.495	5.25
648.255	5.25
649.014	2.25
649.774	5.25
650.533	3.25
651.292	2.25
652.051	5.25
652.81	4.25
653.569	5.25
654.328	4.25
655.087	4.25
655.846	3.25
656.604	3.25
657.363	4.25
658.121	3.25
658.88	4.25
659.638	5.25
660.397	3.25
661.155	2.25
661.913	4.25
662.671	4.25
663.429	4.25
664.187	2.25
664.945	4.25
665.703	2.25
666.46	4.25
667.218	2.25
667.976	2.25
668.733	1.25
669.49	2.25
670.248	2.25
671.005	2.25
671.762	2.25
672.519	0.25
673.276	4.25
674.033	3.25
674.79	1.25
675.547	1.25
676.304	2.25
677.06	5.25
677.817	4.25
678.574	1.25
679.33	4.25
680.086	2.25
680.843	3.25
681.599	0.25
682.355	2.25
683.111	1.25
683.867	0.25
684.623	1.25
685.379	0.25
686.135	2.25
686.89	1.25
687.646	4.25
688.402	-0.75
689.157	5.25
689.912	-0.75
690.668	1.25
691.423	2.25
692.178	1.25
692.933	2.25
693.688	2.25
694.443	2.25
695.198	2.25
695.953	-0.75
696.708	1.25
697.462	0.25
698.217	3.25
698.972	3.25
699.726	1.25
700.48	2.25
701.235	2.25
701.989	1.25
702.743	0.25
703.497	2.25
704.251	4.25
705.005	1.25
705.759	1.25
706.513	3.25
707.266	2.25
708.02	1.25
708.774	1.25
709.527	4.25
710.28	2.25
711.034	1.25
711.787	1.25
712.54	2.25
713.293	0.25
714.046	2.25
714.799	1.25
715.552	3.25
716.305	2.25
717.058	0.25
717.81	2.25
718.563	3.25
719.315	3.25
720.068	2.25
720.82	0.25
721.573	1.25
722.325	3.25
723.077	3.25
723.829	1.25
724.581	2.25
725.333	2.25
726.085	0.25
726.836	1.25
727.588	-0.75
728.34	1.25
729.091	0.25
729.843	2.25
730.594	3.25
731.346	1.25
732.097	1.25
732.848	3.25
733.599	2.25
734.35	0.25
735.101	2.25
735.852	2.25
736.603	2.25
737.354	1.25
738.104	3.25
738.855	3.25
739.605	1.25
740.356	3.25
741.106	2.25
741.856	4.25
742.607	4.25
743.357	3.25
744.107	4.25
744.857	3.25
745.607	3.25
746.357	2.25
747.106	4.25
747.856	2.25
748.606	2.25
749.355	2.25
750.105	3.25
750.854	3.25
751.603	2.25
752.353	3.25
753.102	2.25
753.851	3.25
754.6	4.25
755.349	4.25
756.098	2.25
756.847	3.25
757.595	3.25
758.344	0.25
759.093	2.25
759.841	5.25
760.589	3.25
761.338	4.25
762.086	3.25
762.834	1.25
763.582	4.25
764.331	2.25
765.079	4.25
765.826	5.25
766.574	3.25
767.322	4.25
768.07	1.25
768.817	3.25
769.565	3.25
770.312	5.25
771.06	2.25
771.807	5.25
772.554	5.25
773.302	4.25
774.049	5.25
774.796	5.25
775.543	4.25
776.29	4.25
777.036	4.25
777.783	2.25
778.53	4.25
779.276	5.25
780.023	5.25
780.769	3.25
781.516	5.25
782.262	5.25
783.008	3.25
783.754	4.25
784.5	6.25
785.246	5.25
785.992	5.25
786.738	7.25
787.484	5.25
788.23	6.25
788.975	5.25
789.721	7.25
790.466	4.25
791.212	5.25
791.957	6.25
792.702	4.25
793.447	4.25
794.193	7.25
794.938	6.25
795.683	4.25
796.427	4.25
797.172	5.25
797.917	4.25
798.662	4.25
799.406	4.25
800.151	3.25
800.895	5.25
801.64	6.25
802.384	5.25
803.128	3.25
803.872	4.25
804.616	3.25
805.36	3.25
806.104	4.25
806.848	6.25
807.592	3.25
808.336	5.25
809.079	5.25
809.823	5.25
810.566	2.25
811.31	5.25
812.053	4.25
812.796	4.25
813.539	4.25
814.283	1.25
815.026	3.25
815.769	6.25
816.511	3.25
817.254	2.25
817.997	3.25
818.74	2.25
819.482	5.25
820.225	4.25
820.967	5.25
821.71	2.25
822.452	2.25
823.194	4.25
823.936	3.25
824.678	2.25
825.42	3.25
826.162	5.25
826.904	3.25
827.646	3.25
828.388	5.25
829.129	0.25
829.871	1.25
830.612	4.25
831.354	3.25
832.095	1.25
832.836	3.25
833.577	2.25
834.319	1.25
835.06	3.25
835.801	2.25
836.542	4.25
837.282	4.25
838.023	1.25
838.764	1.25
839.504	2.25
840.245	2.25
840.985	2.25
841.726	3.25
842.466	5.25
843.206	2.25
843.946	0.25
844.687	0.25
845.427	3.25
846.166	2.25
846.906	3.25
847.646	3.25
848.386	0.25
849.125	3.25
849.865	2.25
850.605	1.25
851.344	0.25
852.083	2.25
852.823	-0.75
853.562	1.25
854.301	1.25
855.04	2.25
855.779	3.25
856.518	-0.75
857.257	0.25
857.995	1.25
858.734	0.25
859.473	2.25
860.211	-2.75
860.95	2.25
861.688	2.25
862.426	1.25
863.165	1.25
863.903	2.25
864.641	1.25
865.379	-0.75
866.117	0.25
866.855	0.25
867.593	2.25
868.33	2.25
869.068	1.25
869.806	3.25
870.543	5.25
871.28	2.25
872.018	2.25
872.755	0.25
873.492	1.25
874.229	0.25
874.967	1.25
875.703	-0.75
876.44	0.25
877.177	1.25
877.914	1.25
878.651	2.25
879.387	3.25
880.124	0.25
880.86	-1.75
881.597	3.25
882.333	0.25
883.069	3.25
883.806	0.25
884.542	2.25
885.278	-0.75
886.014	-1.75
886.749	0.25
887.485	2.25
888.221	-0.75
888.957	0.25
889.692	1.25
890.428	0.25
891.163	2.25
891.899	1.25
892.634	-0.75
893.369	-0.75
894.104	2.25
894.839	-1.75
895.574	0.25
896.309	1.25
897.044	-0.75
897.779	1.25
898.514	1.25
899.248	-2.75
899.983	2.25
900.717	0.25
901.452	0.25
902.186	0.25
902.92	1.25
903.654	-1.75
904.389	2.25
905.123	-2.75
905.857	2.25
906.59	-0.75
907.324	0.25
908.058	1.25
908.792	0.25
909.525	2.25
910.259	-1.75
910.992	1.25
911.726	-1.75
912.459	-0.75
913.192	0.25
913.925	0.25
914.658	-1.75
915.391	1.25
916.124	-1.75
916.857	1.25
917.59	1.25
918.323	2.25
919.055	0.25
919.788	1.25
920.521	-0.75
921.253	1.25
921.985	-0.75
922.718	-2.75
923.45	-0.75
924.182	1.25
924.914	1.25
925.646	-0.75
926.378	1.25
927.11	2.25
927.841	1.25
928.573	-1.75
929.305	0.25
930.036	0.25
930.768	-0.75
931.499	1.25
932.23	2.25
932.962	-1.75
933.693	-0.75
934.424	1.25
935.155	1.25
935.886	-1.75
936.617	-0.75
937.348	3.25
938.078	2.25
938.809	-1.75
939.54	1.25
940.27	1.25
941.001	-0.75
941.731	2.25
942.461	1.25
943.191	-0.75
943.922	2.25
944.652	0.25
945.382	0.25
946.112	-0.75
946.841	1.25
947.571	0.25
948.301	-0.75
949.031	1.25
949.76	-0.75
950.49	0.25
951.219	-0.75
951.948	0.25
952.678	0.25
953.407	0.25
954.136	1.25
954.865	-0.75
955.594	0.25
956.323	0.25
957.052	-0.75
957.78	1.25
958.509	-0.75
959.238	0.25
959.966	-1.75
960.695	2.25
961.423	-1.75
962.151	0.25
962.88	0.25
963.608	1.25
964.336	0.25
965.064	-0.75
965.792	2.25
966.52	1.25
967.247	-1.75
967.975	1.25
968.703	-3.75
969.43	0.25
970.158	0.25
970.885	1.25
971.613	-0.75
972.34	0.25
973.067	-1.75
973.794	1.25
974.521	0.25
975.248	-0.75
975.975	0.25
976.702	1.25
977.429	-0.75
978.156	-1.75
978.882	-0.75
979.609	-1.75
980.335	0.25
981.062	0.25
981.788	0.25
982.514	0.25
983.24	-0.75
983.967	-1.75
984.693	1.25
985.419	-0.75
986.144	0.25
986.87	1.25
987.596	1.25
988.322	0.25
989.047	1.25
989.773	2.25
990.498	-0.75
991.224	1.25
991.949	-0.75
992.674	0.25
993.399	0.25
994.124	0.25
994.849	2.25
995.574	1.25
996.299	-1.75
997.024	-0.75
997.749	-0.75
998.473	-1.75
999.198	-1.75
999.922	1.25
1000.647	1.25
1001.371	3.25
1002.095	-1.75
1002.82	1.25
1003.544	-1.75
1004.268	0.25
1004.992	-1.75
1005.716	-1.75
1006.439	1.25
1007.163	0.25
1007.887	0.25
1008.611	-0.75
1009.334	1.25
1010.058	-0.75
1010.781	0.25
1011.504	1.25
1012.228	-0.75
1012.951	1.25
1013.674	-1.75
1014.397	-0.75
1015.12	0.25
