节点500_145_QEPB04081__366__11-34-47-589.txt的数据

Date: Wed Nov 12 11:34:47 CST 2025
User: PC
Spectrometer: QEPB0408
触发模式: 0
积分时间 (秒): 1.000000E-2
Scans to average: 1
启用暗噪声校正: true
启用非线性校正: false
滑动平均宽度: 0
X轴模式: Wavelengths
Number of Pixels in Spectrum: 1044
>>>>>Begin Spectral Data<<<<<
220.843	1
221.644	0
222.444	-1
223.244	-2
224.045	0
224.845	0
225.645	-1
226.445	3
227.245	0
228.045	-1
228.845	-2
229.645	3
230.444	0
231.244	1
232.043	1
232.843	2
233.642	0
234.442	1
235.241	2
236.04	1
236.839	2
237.638	0
238.437	1
239.236	0
240.035	0
240.833	3
241.632	2
242.43	1
243.229	2
244.027	1
244.826	4
245.624	1
246.422	0
247.22	3
248.018	1
248.816	1
249.614	2
250.412	3
251.21	0
252.007	2
252.805	1
253.602	0
254.4	3
255.197	1
255.994	3
256.791	1
257.589	4
258.386	3
259.183	1
259.979	5
260.776	4
261.573	2
262.37	4
263.166	7
263.963	8
264.759	5
265.556	8
266.352	5
267.148	6
267.944	6
268.74	7
269.536	5
270.332	9
271.128	6
271.924	7
272.719	6
273.515	11
274.311	8
275.106	9
275.901	5
276.697	8
277.492	9
278.287	10
279.082	10
279.877	10
280.672	10
281.467	9
282.262	10
283.056	9
283.851	13
284.646	10
285.44	9
286.234	13
287.029	11
287.823	10
288.617	11
289.411	9
290.205	10
290.999	10
291.793	12
292.587	9
293.381	8
294.174	11
294.968	10
295.761	10
296.555	8
297.348	11
298.141	9
298.935	13
299.728	10
300.521	8
301.314	8
302.107	10
302.899	9
303.692	6
304.485	7
305.277	7
306.07	7
306.862	8
307.655	7
308.447	9
309.239	8
310.031	9
310.823	5
311.615	10
312.407	6
313.199	6
313.991	8
314.783	5
315.574	6
316.366	4
317.157	5
317.949	6
318.74	3
319.531	7
320.322	1
321.113	5
321.904	6
322.695	4
323.486	5
324.277	6
325.068	7
325.858	4
326.649	3
327.439	3
328.23	6
329.02	5
329.81	2
330.6	5
331.391	5
332.181	4
332.971	5
333.76	5
334.55	4
335.34	3
336.13	3
336.919	5
337.709	3
338.498	3
339.287	4
340.077	5
340.866	0
341.655	4
342.444	4
343.233	5
344.022	3
344.811	0
345.6	3
346.388	1
347.177	5
347.965	2
348.754	5
349.542	3
350.33	2
351.119	5
351.907	2
352.695	5
353.483	2
354.271	3
355.059	3
355.846	1
356.634	2
357.422	3
358.209	0
358.997	1
359.784	4
360.571	6
361.359	0
362.146	3
362.933	0
363.72	3
364.507	3
365.294	2
366.081	4
366.867	2
367.654	2
368.44	1
369.227	4
370.013	2
370.8	1
371.586	2
372.372	1
373.158	4
373.944	2
374.73	0
375.516	2
376.302	3
377.088	5
377.873	4
378.659	3
379.445	1
380.23	3
381.015	1
381.801	2
382.586	5
383.371	1
384.156	3
384.941	0
385.726	3
386.511	2
387.296	3
388.08	4
388.865	4
389.649	5
390.434	4
391.218	5
392.003	4
392.787	3
393.571	4
394.355	0
395.139	2
395.923	4
396.707	3
397.491	2
398.274	3
399.058	3
399.842	3
400.625	7
401.408	1
402.192	3
402.975	6
403.758	3
404.541	3
405.324	2
406.107	6
406.89	3
407.673	3
408.456	4
409.238	4
410.021	2
410.803	4
411.586	5
412.368	5
413.151	2
413.933	7
414.715	2
415.497	3
416.279	4
417.061	6
417.843	5
418.624	3
419.406	5
420.188	7
420.969	3
421.751	4
422.532	7
423.313	5
424.095	7
424.876	6
425.657	7
426.438	5
427.219	4
428	7
428.78	8
429.561	4
430.342	7
431.122	6
431.903	7
432.683	9
433.464	8
434.244	8
435.024	7
435.804	8
436.584	7
437.364	10
438.144	8
438.924	13
439.704	9
440.483	11
441.263	13
442.042	11
442.822	11
443.601	12
444.38	13
445.16	14
445.939	17
446.718	17
447.497	19
448.276	22
449.054	21
449.833	26
450.612	23
451.391	27
452.169	31
452.948	32
453.726	37
454.504	37
455.282	43
456.061	45
456.839	52
457.617	55
458.395	62
459.172	67
459.95	78
460.728	82
461.506	92
462.283	105
463.061	117
463.838	129
464.615	142
465.393	162
466.17	181
466.947	200
467.724	222
468.501	251
469.278	276
470.055	306
470.831	343
471.608	379
472.385	422
473.161	469
473.938	510
474.714	566
475.49	632
476.266	703
477.043	778
477.819	864
478.595	953
479.371	1044
480.146	1149
480.922	1266
481.698	1406
482.473	1543
483.249	1700
484.024	1868
484.8	2060
485.575	2234
486.35	2480
487.126	2757
487.901	3004
488.676	3307
489.451	3617
490.225	3994
491	4362
491.775	4817
492.55	5234
493.324	5747
494.099	6250
494.873	6834
495.647	7445
496.422	8086
497.196	8764
497.97	9423
498.744	10129
499.518	10863
500.292	11585
501.066	12292
501.839	12992
502.613	13636
503.387	14224
504.16	14844
504.934	15202
505.707	15623
506.48	15937
507.253	16129
508.027	16216
508.8	16169
509.573	16095
510.346	15836
511.118	15637
511.891	15277
512.664	14802
513.437	14323
514.209	13817
514.982	13324
515.754	12761
516.526	12208
517.298	11673
518.071	11178
518.843	10682
519.615	10234
520.387	9797
521.159	9421
521.93	9022
522.702	8682
523.474	8364
524.245	8029
525.017	7674
525.788	7353
526.56	7083
527.331	6835
528.102	6520
528.873	6238
529.644	5959
530.415	5679
531.186	5405
531.957	5108
532.728	4858
533.498	4630
534.269	4385
535.039	4168
535.81	3935
536.58	3691
537.351	3495
538.121	3321
538.891	3121
539.661	2966
540.431	2791
541.201	2655
541.971	2500
542.741	2369
543.51	2262
544.28	2143
545.05	2029
545.819	1934
546.588	1825
547.358	1738
548.127	1648
548.896	1566
549.665	1496
550.434	1426
551.203	1344
551.972	1275
552.741	1218
553.51	1145
554.278	1082
555.047	1022
555.815	956
556.584	896
557.352	873
558.121	811
558.889	768
559.657	726
560.425	680
561.193	640
561.961	603
562.729	573
563.496	537
564.264	507
565.032	479
565.799	453
566.567	425
567.334	410
568.101	375
568.869	353
569.636	336
570.403	320
571.17	302
571.937	287
572.704	262
573.471	255
574.237	239
575.004	224
575.771	210
576.537	198
577.303	187
578.07	176
578.836	172
579.602	154
580.368	153
581.134	141
581.9	134
582.666	127
583.432	120
584.198	115
584.964	104
585.729	102
586.495	94
587.26	93
588.025	86
588.791	82
589.556	74
590.321	71
591.086	66
591.851	62
592.616	61
593.381	60
594.146	53
594.911	50
595.675	46
596.44	48
597.204	45
597.969	41
598.733	41
599.497	39
600.261	39
601.025	36
601.79	35
602.553	33
603.317	30
604.081	30
604.845	27
605.609	31
606.372	23
607.136	23
607.899	25
608.662	22
609.426	23
610.189	23
610.952	21
611.715	21
612.478	17
613.241	18
614.004	15
614.767	16
615.529	13
616.292	14
617.055	14
617.817	13
618.579	13
619.342	14
620.104	12
620.866	13
621.628	14
622.39	14
623.152	9
623.914	10
624.676	9
625.438	10
626.199	7
626.961	10
627.722	8
628.484	8
629.245	9
630.006	8
630.768	9
631.529	10
632.29	5
633.051	9
633.812	5
634.573	8
635.333	4
636.094	7
636.855	7
637.615	6
638.376	7
639.136	5
639.896	5
640.657	6
641.417	5
642.177	8
642.937	7
643.697	4
644.457	3
645.216	4
645.976	4
646.736	6
647.495	3
648.255	4
649.014	6
649.774	3
650.533	6
651.292	4
652.051	2
652.81	4
653.569	5
654.328	2
655.087	2
655.846	3
656.604	4
657.363	1
658.121	6
658.88	3
659.638	3
660.397	3
661.155	2
661.913	3
662.671	3
663.429	4
664.187	2
664.945	2
665.703	2
666.46	2
667.218	3
667.976	5
668.733	2
669.49	0
670.248	3
671.005	1
671.762	3
672.519	4
673.276	2
674.033	-1
674.79	2
675.547	2
676.304	3
677.06	3
677.817	4
678.574	1
679.33	4
680.086	4
680.843	1
681.599	3
682.355	1
683.111	3
683.867	2
684.623	1
685.379	2
686.135	3
686.89	3
687.646	3
688.402	3
689.157	3
689.912	4
690.668	1
691.423	1
692.178	3
692.933	3
693.688	2
694.443	2
695.198	4
695.953	1
696.708	2
697.462	2
698.217	2
698.972	1
699.726	2
700.48	4
701.235	3
701.989	1
702.743	2
703.497	2
704.251	2
705.005	1
705.759	1
706.513	-2
707.266	2
708.02	3
708.774	3
709.527	1
710.28	1
711.034	1
711.787	0
712.54	1
713.293	-1
714.046	3
714.799	2
715.552	1
716.305	3
717.058	0
717.81	0
718.563	0
719.315	2
720.068	2
720.82	2
721.573	1
722.325	1
723.077	1
723.829	-1
724.581	4
725.333	4
726.085	2
726.836	3
727.588	2
728.34	3
729.091	-1
729.843	4
730.594	2
731.346	-1
732.097	2
732.848	1
733.599	3
734.35	3
735.101	3
735.852	2
736.603	1
737.354	5
738.104	1
738.855	2
739.605	2
740.356	2
741.106	2
741.856	1
742.607	2
743.357	4
744.107	2
744.857	2
745.607	2
746.357	3
747.106	2
747.856	5
748.606	3
749.355	2
750.105	3
750.854	2
751.603	2
752.353	3
753.102	3
753.851	4
754.6	3
755.349	1
756.098	1
756.847	3
757.595	4
758.344	3
759.093	1
759.841	1
760.589	2
761.338	1
762.086	4
762.834	2
763.582	3
764.331	2
765.079	3
765.826	5
766.574	4
767.322	5
768.07	2
768.817	4
769.565	2
770.312	2
771.06	5
771.807	4
772.554	4
773.302	5
774.049	7
774.796	3
775.543	7
776.29	6
777.036	5
777.783	2
778.53	4
779.276	6
780.023	4
780.769	6
781.516	7
782.262	5
783.008	5
783.754	3
784.5	6
785.246	3
785.992	5
786.738	3
787.484	4
788.23	8
788.975	6
789.721	6
790.466	5
791.212	4
791.957	5
792.702	4
793.447	5
794.193	6
794.938	6
795.683	3
796.427	6
797.172	3
797.917	3
798.662	4
799.406	3
800.151	5
800.895	3
801.64	4
802.384	6
803.128	3
803.872	5
804.616	3
805.36	2
806.104	3
806.848	3
807.592	3
808.336	3
809.079	4
809.823	5
810.566	6
811.31	4
812.053	5
812.796	2
813.539	2
814.283	5
815.026	4
815.769	3
816.511	4
817.254	4
817.997	4
818.74	1
819.482	5
820.225	2
820.967	4
821.71	4
822.452	3
823.194	4
823.936	1
824.678	2
825.42	3
826.162	2
826.904	3
827.646	0
828.388	3
829.129	2
829.871	4
830.612	2
831.354	1
832.095	2
832.836	2
833.577	3
834.319	2
835.06	2
835.801	1
836.542	1
837.282	2
838.023	3
838.764	3
839.504	3
840.245	0
840.985	0
841.726	2
842.466	4
843.206	2
843.946	3
844.687	2
845.427	3
846.166	1
846.906	0
847.646	4
848.386	1
849.125	3
849.865	2
850.605	2
851.344	2
852.083	2
852.823	3
853.562	1
854.301	1
855.04	0
855.779	2
856.518	1
857.257	0
857.995	1
858.734	1
859.473	0
860.211	1
860.95	2
861.688	1
862.426	4
863.165	2
863.903	0
864.641	4
865.379	2
866.117	1
866.855	2
867.593	2
868.33	3
869.068	2
869.806	1
870.543	1
871.28	2
872.018	1
872.755	0
873.492	1
874.229	-1
874.967	-1
875.703	1
876.44	-1
877.177	1
877.914	0
878.651	2
879.387	0
880.124	-1
880.86	1
881.597	0
882.333	1
883.069	-1
883.806	2
884.542	0
885.278	0
886.014	-1
886.749	1
887.485	0
888.221	1
888.957	0
889.692	2
890.428	2
891.163	1
891.899	2
892.634	0
893.369	1
894.104	-1
894.839	-2
895.574	0
896.309	1
897.044	0
897.779	-1
898.514	0
899.248	0
899.983	1
900.717	1
901.452	0
902.186	-3
902.92	2
903.654	0
904.389	-1
905.123	1
905.857	0
906.59	1
907.324	-1
908.058	1
908.792	-3
909.525	0
910.259	0
910.992	1
911.726	0
912.459	-1
913.192	2
913.925	-1
914.658	-1
915.391	-3
916.124	1
916.857	1
917.59	0
918.323	2
919.055	-1
919.788	2
920.521	-1
921.253	1
921.985	1
922.718	0
923.45	-2
924.182	3
924.914	-2
925.646	-2
926.378	0
927.11	2
927.841	-1
928.573	0
929.305	0
930.036	2
930.768	-2
931.499	1
932.23	1
932.962	1
933.693	1
934.424	0
935.155	1
935.886	1
936.617	0
937.348	0
938.078	1
938.809	2
939.54	-2
940.27	3
941.001	1
941.731	0
942.461	0
943.191	3
943.922	-1
944.652	-2
945.382	1
946.112	1
946.841	2
947.571	-2
948.301	0
949.031	1
949.76	0
950.49	1
951.219	-1
951.948	0
952.678	0
953.407	0
954.136	1
954.865	-1
955.594	-1
956.323	1
957.052	1
957.78	1
958.509	-2
959.238	2
959.966	0
960.695	1
961.423	1
962.151	1
962.88	-1
963.608	1
964.336	1
965.064	1
965.792	0
966.52	0
967.247	-1
967.975	3
968.703	0
969.43	-1
970.158	-1
970.885	2
971.613	1
972.34	-1
973.067	-1
973.794	0
974.521	1
975.248	-3
975.975	1
976.702	0
977.429	2
978.156	2
978.882	-2
979.609	-2
980.335	1
981.062	1
981.788	-1
982.514	1
983.24	-1
983.967	-2
984.693	0
985.419	-2
986.144	0
986.87	1
987.596	-1
988.322	1
989.047	0
989.773	-1
990.498	-1
991.224	-1
991.949	1
992.674	-1
993.399	1
994.124	1
994.849	-1
995.574	0
996.299	0
997.024	2
997.749	-1
998.473	1
999.198	0
999.922	1
1000.647	-1
1001.371	5
1002.095	-2
1002.82	-2
1003.544	-1
1004.268	1
1004.992	-2
1005.716	-2
1006.439	1
1007.163	-2
1007.887	1
1008.611	-2
1009.334	-2
1010.058	0
1010.781	0
1011.504	0
1012.228	-1
1012.951	2
1013.674	0
1014.397	0
1015.12	-2
