节点500_145_QEPB04081__538__11-37-29-470.txt的数据

Date: Wed Nov 12 11:37:29 CST 2025
User: PC
Spectrometer: QEPB0408
触发模式: 0
积分时间 (秒): 1.000000E-2
Scans to average: 1
启用暗噪声校正: true
启用非线性校正: false
滑动平均宽度: 0
X轴模式: Wavelengths
Number of Pixels in Spectrum: 1044
>>>>>Begin Spectral Data<<<<<
220.843	0.38
221.644	-1.62
222.444	2.38
223.244	-0.62
224.045	0.38
224.845	-0.62
225.645	-0.62
226.445	-2.62
227.245	-0.62
228.045	0.38
228.845	-0.62
229.645	2.38
230.444	1.38
231.244	-0.62
232.043	1.38
232.843	0.38
233.642	2.38
234.442	0.38
235.241	0.38
236.04	-0.62
236.839	1.38
237.638	0.38
238.437	-0.62
239.236	2.38
240.035	0.38
240.833	0.38
241.632	2.38
242.43	0.38
243.229	1.38
244.027	1.38
244.826	1.38
245.624	1.38
246.422	1.38
247.22	1.38
248.018	3.38
248.816	2.38
249.614	1.38
250.412	2.38
251.21	2.38
252.007	2.38
252.805	2.38
253.602	2.38
254.4	3.38
255.197	2.38
255.994	4.38
256.791	1.38
257.589	1.38
258.386	3.38
259.183	3.38
259.979	5.38
260.776	4.38
261.573	7.38
262.37	4.38
263.166	5.38
263.963	3.38
264.759	5.38
265.556	3.38
266.352	4.38
267.148	6.38
267.944	3.38
268.74	3.38
269.536	3.38
270.332	4.38
271.128	6.38
271.924	4.38
272.719	8.38
273.515	8.38
274.311	6.38
275.106	7.38
275.901	9.38
276.697	6.38
277.492	7.38
278.287	8.38
279.082	9.38
279.877	9.38
280.672	10.38
281.467	9.38
282.262	7.38
283.056	9.38
283.851	9.38
284.646	9.38
285.44	10.38
286.234	9.38
287.029	9.38
287.823	11.38
288.617	9.38
289.411	10.38
290.205	9.38
290.999	10.38
291.793	10.38
292.587	8.38
293.381	10.38
294.174	8.38
294.968	7.38
295.761	10.38
296.555	8.38
297.348	9.38
298.141	9.38
298.935	10.38
299.728	10.38
300.521	8.38
301.314	9.38
302.107	8.38
302.899	9.38
303.692	5.38
304.485	7.38
305.277	7.38
306.07	10.38
306.862	7.38
307.655	4.38
308.447	8.38
309.239	6.38
310.031	9.38
310.823	6.38
311.615	6.38
312.407	6.38
313.199	5.38
313.991	8.38
314.783	7.38
315.574	5.38
316.366	5.38
317.157	6.38
317.949	7.38
318.74	5.38
319.531	6.38
320.322	5.38
321.113	5.38
321.904	5.38
322.695	3.38
323.486	3.38
324.277	4.38
325.068	3.38
325.858	2.38
326.649	3.38
327.439	3.38
328.23	2.38
329.02	6.38
329.81	3.38
330.6	5.38
331.391	1.38
332.181	3.38
332.971	2.38
333.76	1.38
334.55	5.38
335.34	4.38
336.13	3.38
336.919	3.38
337.709	4.38
338.498	3.38
339.287	4.38
340.077	4.38
340.866	2.38
341.655	2.38
342.444	3.38
343.233	3.38
344.022	4.38
344.811	4.38
345.6	2.38
346.388	2.38
347.177	1.38
347.965	4.38
348.754	3.38
349.542	4.38
350.33	2.38
351.119	1.38
351.907	3.38
352.695	2.38
353.483	2.38
354.271	4.38
355.059	2.38
355.846	1.38
356.634	2.38
357.422	4.38
358.209	1.38
358.997	2.38
359.784	2.38
360.571	2.38
361.359	2.38
362.146	3.38
362.933	1.38
363.72	2.38
364.507	1.38
365.294	3.38
366.081	1.38
366.867	2.38
367.654	1.38
368.44	4.38
369.227	3.38
370.013	2.38
370.8	3.38
371.586	2.38
372.372	2.38
373.158	2.38
373.944	1.38
374.73	3.38
375.516	2.38
376.302	1.38
377.088	3.38
377.873	2.38
378.659	4.38
379.445	2.38
380.23	1.38
381.015	2.38
381.801	1.38
382.586	3.38
383.371	4.38
384.156	1.38
384.941	1.38
385.726	3.38
386.511	5.38
387.296	5.38
388.08	4.38
388.865	1.38
389.649	3.38
390.434	2.38
391.218	5.38
392.003	3.38
392.787	3.38
393.571	2.38
394.355	1.38
395.139	2.38
395.923	5.38
396.707	4.38
397.491	5.38
398.274	3.38
399.058	2.38
399.842	3.38
400.625	1.38
401.408	4.38
402.192	3.38
402.975	3.38
403.758	2.38
404.541	2.38
405.324	2.38
406.107	3.38
406.89	2.38
407.673	2.38
408.456	1.38
409.238	2.38
410.021	4.38
410.803	2.38
411.586	6.38
412.368	2.38
413.151	3.38
413.933	5.38
414.715	4.38
415.497	2.38
416.279	3.38
417.061	5.38
417.843	4.38
418.624	5.38
419.406	4.38
420.188	5.38
420.969	5.38
421.751	4.38
422.532	5.38
423.313	7.38
424.095	6.38
424.876	4.38
425.657	5.38
426.438	7.38
427.219	7.38
428	7.38
428.78	6.38
429.561	7.38
430.342	8.38
431.122	6.38
431.903	8.38
432.683	6.38
433.464	7.38
434.244	9.38
435.024	6.38
435.804	8.38
436.584	6.38
437.364	10.38
438.144	9.38
438.924	10.38
439.704	12.38
440.483	9.38
441.263	10.38
442.042	11.38
442.822	13.38
443.601	14.38
444.38	15.38
445.16	14.38
445.939	18.38
446.718	19.38
447.497	17.38
448.276	20.38
449.054	20.38
449.833	24.38
450.612	24.38
451.391	23.38
452.169	30.38
452.948	33.38
453.726	33.38
454.504	38.38
455.282	42.38
456.061	46.38
456.839	50.38
457.617	58.38
458.395	59.38
459.172	68.38
459.95	77.38
460.728	89.38
461.506	97.38
462.283	103.38
463.061	119.38
463.838	129.38
464.615	147.38
465.393	163.38
466.17	184.38
466.947	202.38
467.724	218.38
468.501	246.38
469.278	271.38
470.055	302.38
470.831	339.38
471.608	378.38
472.385	424.38
473.161	467.38
473.938	509.38
474.714	576.38
475.49	614.38
476.266	689.38
477.043	758.38
477.819	836.38
478.595	923.38
479.371	1014.38
480.146	1113.38
480.922	1223.38
481.698	1343.38
482.473	1469.38
483.249	1625.38
484.024	1771.38
484.8	1958.38
485.575	2150.38
486.35	2341.38
487.126	2586.38
487.901	2814.38
488.676	3102.38
489.451	3391.38
490.225	3703.38
491	4041.38
491.775	4447.38
492.55	4836.38
493.324	5258.38
494.099	5742.38
494.873	6227.38
495.647	6794.38
496.422	7357.38
497.196	7895.38
497.97	8535.38
498.744	9180.38
499.518	9830.38
500.292	10480.38
501.066	11152.38
501.839	11810.38
502.613	12360.38
503.387	12943.38
504.16	13474.38
504.934	13975.38
505.707	14322.38
506.48	14617.38
507.253	14822.38
508.027	14990.38
508.8	15059.38
509.573	15075.38
510.346	14867.38
511.118	14661.38
511.891	14372.38
512.664	13975.38
513.437	13579.38
514.209	13153.38
514.982	12704.38
515.754	12216.38
516.526	11718.38
517.298	11254.38
518.071	10734.38
518.843	10264.38
519.615	9864.38
520.387	9480.38
521.159	9073.38
521.93	8703.38
522.702	8371.38
523.474	8090.38
524.245	7747.38
525.017	7450.38
525.788	7154.38
526.56	6821.38
527.331	6561.38
528.102	6320.38
528.873	6011.38
529.644	5760.38
530.415	5531.38
531.186	5258.38
531.957	5018.38
532.728	4785.38
533.498	4523.38
534.269	4301.38
535.039	4043.38
535.81	3851.38
536.58	3638.38
537.351	3433.38
538.121	3241.38
538.891	3041.38
539.661	2913.38
540.431	2735.38
541.201	2595.38
541.971	2466.38
542.741	2341.38
543.51	2228.38
544.28	2107.38
545.05	1989.38
545.819	1903.38
546.588	1793.38
547.358	1707.38
548.127	1627.38
548.896	1539.38
549.665	1455.38
550.434	1378.38
551.203	1311.38
551.972	1252.38
552.741	1187.38
553.51	1119.38
554.278	1058.38
555.047	995.38
555.815	959.38
556.584	895.38
557.352	856.38
558.121	803.38
558.889	757.38
559.657	713.38
560.425	670.38
561.193	638.38
561.961	607.38
562.729	567.38
563.496	534.38
564.264	505.38
565.032	481.38
565.799	450.38
566.567	428.38
567.334	399.38
568.101	381.38
568.869	360.38
569.636	333.38
570.403	321.38
571.17	296.38
571.937	287.38
572.704	259.38
573.471	251.38
574.237	233.38
575.004	221.38
575.771	207.38
576.537	195.38
577.303	190.38
578.07	177.38
578.836	169.38
579.602	155.38
580.368	142.38
581.134	139.38
581.9	135.38
582.666	123.38
583.432	119.38
584.198	112.38
584.964	101.38
585.729	103.38
586.495	96.38
587.26	91.38
588.025	84.38
588.791	81.38
589.556	74.38
590.321	74.38
591.086	70.38
591.851	61.38
592.616	57.38
593.381	60.38
594.146	57.38
594.911	52.38
595.675	51.38
596.44	46.38
597.204	45.38
597.969	42.38
598.733	42.38
599.497	37.38
600.261	36.38
601.025	35.38
601.79	33.38
602.553	32.38
603.317	30.38
604.081	30.38
604.845	29.38
605.609	26.38
606.372	24.38
607.136	23.38
607.899	25.38
608.662	23.38
609.426	20.38
610.189	22.38
610.952	23.38
611.715	21.38
612.478	16.38
613.241	20.38
614.004	15.38
614.767	16.38
615.529	15.38
616.292	18.38
617.055	13.38
617.817	14.38
618.579	12.38
619.342	13.38
620.104	12.38
620.866	11.38
621.628	12.38
622.39	12.38
623.152	9.38
623.914	10.38
624.676	9.38
625.438	9.38
626.199	10.38
626.961	11.38
627.722	10.38
628.484	7.38
629.245	8.38
630.006	8.38
630.768	10.38
631.529	5.38
632.29	6.38
633.051	7.38
633.812	7.38
634.573	9.38
635.333	7.38
636.094	6.38
636.855	8.38
637.615	6.38
638.376	5.38
639.136	6.38
639.896	7.38
640.657	5.38
641.417	5.38
642.177	5.38
642.937	3.38
643.697	4.38
644.457	6.38
645.216	4.38
645.976	5.38
646.736	4.38
647.495	4.38
648.255	4.38
649.014	4.38
649.774	2.38
650.533	5.38
651.292	4.38
652.051	5.38
652.81	3.38
653.569	3.38
654.328	4.38
655.087	1.38
655.846	3.38
656.604	4.38
657.363	3.38
658.121	3.38
658.88	5.38
659.638	3.38
660.397	3.38
661.155	4.38
661.913	1.38
662.671	4.38
663.429	1.38
664.187	1.38
664.945	3.38
665.703	4.38
666.46	3.38
667.218	2.38
667.976	5.38
668.733	2.38
669.49	4.38
670.248	4.38
671.005	3.38
671.762	3.38
672.519	5.38
673.276	0.38
674.033	2.38
674.79	1.38
675.547	3.38
676.304	1.38
677.06	2.38
677.817	1.38
678.574	2.38
679.33	2.38
680.086	0.38
680.843	1.38
681.599	1.38
682.355	2.38
683.111	1.38
683.867	4.38
684.623	4.38
685.379	1.38
686.135	1.38
686.89	1.38
687.646	3.38
688.402	3.38
689.157	0.38
689.912	3.38
690.668	2.38
691.423	3.38
692.178	0.38
692.933	2.38
693.688	2.38
694.443	2.38
695.198	2.38
695.953	-1.62
696.708	1.38
697.462	1.38
698.217	1.38
698.972	0.38
699.726	2.38
700.48	1.38
701.235	1.38
701.989	1.38
702.743	0.38
703.497	1.38
704.251	2.38
705.005	2.38
705.759	2.38
706.513	3.38
707.266	1.38
708.02	0.38
708.774	2.38
709.527	0.38
710.28	4.38
711.034	-0.62
711.787	1.38
712.54	1.38
713.293	2.38
714.046	3.38
714.799	0.38
715.552	2.38
716.305	0.38
717.058	1.38
717.81	3.38
718.563	1.38
719.315	2.38
720.068	2.38
720.82	3.38
721.573	0.38
722.325	2.38
723.077	1.38
723.829	-0.62
724.581	2.38
725.333	2.38
726.085	0.38
726.836	2.38
727.588	-1.62
728.34	2.38
729.091	2.38
729.843	1.38
730.594	1.38
731.346	-0.62
732.097	1.38
732.848	1.38
733.599	4.38
734.35	1.38
735.101	4.38
735.852	1.38
736.603	1.38
737.354	3.38
738.104	1.38
738.855	3.38
739.605	1.38
740.356	4.38
741.106	2.38
741.856	2.38
742.607	3.38
743.357	1.38
744.107	4.38
744.857	3.38
745.607	1.38
746.357	1.38
747.106	2.38
747.856	2.38
748.606	1.38
749.355	3.38
750.105	1.38
750.854	3.38
751.603	1.38
752.353	2.38
753.102	3.38
753.851	1.38
754.6	4.38
755.349	2.38
756.098	5.38
756.847	1.38
757.595	4.38
758.344	0.38
759.093	3.38
759.841	5.38
760.589	2.38
761.338	2.38
762.086	3.38
762.834	4.38
763.582	5.38
764.331	2.38
765.079	4.38
765.826	4.38
766.574	2.38
767.322	2.38
768.07	4.38
768.817	3.38
769.565	5.38
770.312	2.38
771.06	3.38
771.807	5.38
772.554	5.38
773.302	2.38
774.049	4.38
774.796	4.38
775.543	1.38
776.29	6.38
777.036	3.38
777.783	5.38
778.53	4.38
779.276	5.38
780.023	3.38
780.769	4.38
781.516	7.38
782.262	5.38
783.008	5.38
783.754	3.38
784.5	7.38
785.246	7.38
785.992	4.38
786.738	5.38
787.484	2.38
788.23	4.38
788.975	5.38
789.721	5.38
790.466	3.38
791.212	5.38
791.957	4.38
792.702	2.38
793.447	4.38
794.193	5.38
794.938	5.38
795.683	5.38
796.427	3.38
797.172	3.38
797.917	2.38
798.662	4.38
799.406	2.38
800.151	5.38
800.895	4.38
801.64	3.38
802.384	5.38
803.128	3.38
803.872	2.38
804.616	3.38
805.36	4.38
806.104	5.38
806.848	2.38
807.592	5.38
808.336	3.38
809.079	3.38
809.823	4.38
810.566	2.38
811.31	3.38
812.053	4.38
812.796	3.38
813.539	2.38
814.283	2.38
815.026	5.38
815.769	2.38
816.511	3.38
817.254	4.38
817.997	4.38
818.74	1.38
819.482	2.38
820.225	1.38
820.967	5.38
821.71	3.38
822.452	4.38
823.194	3.38
823.936	1.38
824.678	3.38
825.42	1.38
826.162	4.38
826.904	3.38
827.646	1.38
828.388	1.38
829.129	2.38
829.871	3.38
830.612	2.38
831.354	3.38
832.095	3.38
832.836	2.38
833.577	1.38
834.319	2.38
835.06	3.38
835.801	3.38
836.542	3.38
837.282	2.38
838.023	3.38
838.764	4.38
839.504	1.38
840.245	4.38
840.985	2.38
841.726	0.38
842.466	4.38
843.206	1.38
843.946	1.38
844.687	3.38
845.427	3.38
846.166	2.38
846.906	1.38
847.646	1.38
848.386	0.38
849.125	3.38
849.865	2.38
850.605	3.38
851.344	0.38
852.083	1.38
852.823	2.38
853.562	2.38
854.301	2.38
855.04	1.38
855.779	2.38
856.518	1.38
857.257	2.38
857.995	2.38
858.734	0.38
859.473	1.38
860.211	2.38
860.95	2.38
861.688	1.38
862.426	1.38
863.165	1.38
863.903	0.38
864.641	2.38
865.379	1.38
866.117	2.38
866.855	2.38
867.593	2.38
868.33	2.38
869.068	1.38
869.806	5.38
870.543	0.38
871.28	2.38
872.018	-0.62
872.755	0.38
873.492	-0.62
874.229	2.38
874.967	2.38
875.703	2.38
876.44	2.38
877.177	1.38
877.914	1.38
878.651	-0.62
879.387	-0.62
880.124	2.38
880.86	0.38
881.597	-0.62
882.333	-0.62
883.069	1.38
883.806	1.38
884.542	0.38
885.278	1.38
886.014	0.38
886.749	-0.62
887.485	2.38
888.221	-0.62
888.957	0.38
889.692	1.38
890.428	2.38
891.163	1.38
891.899	0.38
892.634	1.38
893.369	1.38
894.104	0.38
894.839	-0.62
895.574	1.38
896.309	-0.62
897.044	2.38
897.779	1.38
898.514	-0.62
899.248	2.38
899.983	-0.62
900.717	0.38
901.452	-0.62
902.186	0.38
902.92	-0.62
903.654	-1.62
904.389	1.38
905.123	-0.62
905.857	-0.62
906.59	1.38
907.324	-0.62
908.058	-0.62
908.792	-1.62
909.525	-1.62
910.259	-0.62
910.992	1.38
911.726	1.38
912.459	0.38
913.192	-0.62
913.925	-0.62
914.658	3.38
915.391	2.38
916.124	1.38
916.857	1.38
917.59	2.38
918.323	3.38
919.055	0.38
919.788	2.38
920.521	-0.62
921.253	-0.62
921.985	-0.62
922.718	0.38
923.45	0.38
924.182	-1.62
924.914	1.38
925.646	0.38
926.378	-0.62
927.11	1.38
927.841	0.38
928.573	0.38
929.305	0.38
930.036	2.38
930.768	-1.62
931.499	0.38
932.23	0.38
932.962	0.38
933.693	0.38
934.424	-1.62
935.155	1.38
935.886	1.38
936.617	1.38
937.348	1.38
938.078	0.38
938.809	2.38
939.54	-0.62
940.27	0.38
941.001	-1.62
941.731	-0.62
942.461	1.38
943.191	0.38
943.922	0.38
944.652	-0.62
945.382	2.38
946.112	0.38
946.841	0.38
947.571	-0.62
948.301	-1.62
949.031	1.38
949.76	-0.62
950.49	2.38
951.219	0.38
951.948	0.38
952.678	1.38
953.407	1.38
954.136	2.38
954.865	2.38
955.594	1.38
956.323	2.38
957.052	-0.62
957.78	1.38
958.509	0.38
959.238	-0.62
959.966	-1.62
960.695	3.38
961.423	0.38
962.151	0.38
962.88	1.38
963.608	-1.62
964.336	1.38
965.064	0.38
965.792	0.38
966.52	-0.62
967.247	-0.62
967.975	1.38
968.703	0.38
969.43	1.38
970.158	-0.62
970.885	1.38
971.613	0.38
972.34	-0.62
973.067	-0.62
973.794	0.38
974.521	-1.62
975.248	1.38
975.975	-0.62
976.702	-0.62
977.429	-1.62
978.156	-0.62
978.882	-1.62
979.609	2.38
980.335	-0.62
981.062	0.38
981.788	1.38
982.514	0.38
983.24	-0.62
983.967	-0.62
984.693	2.38
985.419	-0.62
986.144	1.38
986.87	1.38
987.596	1.38
988.322	1.38
989.047	1.38
989.773	0.38
990.498	0.38
991.224	0.38
991.949	0.38
992.674	1.38
993.399	0.38
994.124	-0.62
994.849	1.38
995.574	0.38
996.299	-1.62
997.024	0.38
997.749	-0.62
998.473	0.38
999.198	-0.62
999.922	1.38
1000.647	-2.62
1001.371	4.38
1002.095	-1.62
1002.82	-1.62
1003.544	-1.62
1004.268	-1.62
1004.992	-0.62
1005.716	-1.62
1006.439	-1.62
1007.163	-0.62
1007.887	-0.62
1008.611	1.38
1009.334	0.38
1010.058	-0.62
1010.781	1.38
1011.504	-0.62
1012.228	3.38
1012.951	-1.62
1013.674	0.38
1014.397	0.38
1015.12	1.38
