节点500_145_QEPB04081__154__11-31-24-603.txt的数据

Date: Wed Nov 12 11:31:24 CST 2025
User: PC
Spectrometer: QEPB0408
触发模式: 0
积分时间 (秒): 1.000000E-2
Scans to average: 1
启用暗噪声校正: true
启用非线性校正: false
滑动平均宽度: 0
X轴模式: Wavelengths
Number of Pixels in Spectrum: 1044
>>>>>Begin Spectral Data<<<<<
220.843	-1.5
221.644	0.5
222.444	0.5
223.244	0.5
224.045	-0.5
224.845	-0.5
225.645	-2.5
226.445	-1.5
227.245	-3.5
228.045	-1.5
228.845	0.5
229.645	-0.5
230.444	0.5
231.244	1.5
232.043	-0.5
232.843	-0.5
233.642	0.5
234.442	0.5
235.241	0.5
236.04	-0.5
236.839	-0.5
237.638	2.5
238.437	1.5
239.236	0.5
240.035	1.5
240.833	0.5
241.632	0.5
242.43	1.5
243.229	2.5
244.027	-0.5
244.826	-0.5
245.624	1.5
246.422	0.5
247.22	2.5
248.018	2.5
248.816	0.5
249.614	2.5
250.412	2.5
251.21	1.5
252.007	3.5
252.805	2.5
253.602	2.5
254.4	2.5
255.197	4.5
255.994	1.5
256.791	6.5
257.589	3.5
258.386	5.5
259.183	2.5
259.979	1.5
260.776	3.5
261.573	2.5
262.37	5.5
263.166	4.5
263.963	6.5
264.759	3.5
265.556	6.5
266.352	6.5
267.148	3.5
267.944	5.5
268.74	4.5
269.536	6.5
270.332	6.5
271.128	7.5
271.924	9.5
272.719	8.5
273.515	9.5
274.311	7.5
275.106	10.5
275.901	8.5
276.697	9.5
277.492	10.5
278.287	8.5
279.082	9.5
279.877	9.5
280.672	11.5
281.467	9.5
282.262	8.5
283.056	8.5
283.851	7.5
284.646	11.5
285.44	8.5
286.234	12.5
287.029	10.5
287.823	9.5
288.617	9.5
289.411	9.5
290.205	12.5
290.999	8.5
291.793	11.5
292.587	11.5
293.381	8.5
294.174	11.5
294.968	8.5
295.761	9.5
296.555	6.5
297.348	8.5
298.141	8.5
298.935	10.5
299.728	7.5
300.521	8.5
301.314	7.5
302.107	7.5
302.899	7.5
303.692	9.5
304.485	7.5
305.277	6.5
306.07	6.5
306.862	9.5
307.655	6.5
308.447	6.5
309.239	7.5
310.031	7.5
310.823	9.5
311.615	4.5
312.407	8.5
313.199	6.5
313.991	8.5
314.783	5.5
315.574	4.5
316.366	7.5
317.157	4.5
317.949	5.5
318.74	3.5
319.531	5.5
320.322	2.5
321.113	3.5
321.904	3.5
322.695	5.5
323.486	4.5
324.277	5.5
325.068	4.5
325.858	1.5
326.649	3.5
327.439	4.5
328.23	2.5
329.02	5.5
329.81	5.5
330.6	3.5
331.391	3.5
332.181	1.5
332.971	4.5
333.76	5.5
334.55	1.5
335.34	3.5
336.13	1.5
336.919	1.5
337.709	3.5
338.498	5.5
339.287	3.5
340.077	2.5
340.866	0.5
341.655	2.5
342.444	1.5
343.233	1.5
344.022	2.5
344.811	2.5
345.6	1.5
346.388	3.5
347.177	3.5
347.965	2.5
348.754	3.5
349.542	5.5
350.33	2.5
351.119	2.5
351.907	1.5
352.695	3.5
353.483	2.5
354.271	1.5
355.059	2.5
355.846	1.5
356.634	3.5
357.422	3.5
358.209	-0.5
358.997	2.5
359.784	0.5
360.571	3.5
361.359	3.5
362.146	3.5
362.933	4.5
363.72	2.5
364.507	2.5
365.294	1.5
366.081	0.5
366.867	1.5
367.654	4.5
368.44	3.5
369.227	1.5
370.013	1.5
370.8	-1.5
371.586	6.5
372.372	1.5
373.158	2.5
373.944	1.5
374.73	1.5
375.516	1.5
376.302	2.5
377.088	2.5
377.873	2.5
378.659	2.5
379.445	4.5
380.23	2.5
381.015	2.5
381.801	4.5
382.586	2.5
383.371	1.5
384.156	0.5
384.941	4.5
385.726	0.5
386.511	1.5
387.296	2.5
388.08	3.5
388.865	2.5
389.649	0.5
390.434	3.5
391.218	3.5
392.003	3.5
392.787	2.5
393.571	2.5
394.355	1.5
395.139	3.5
395.923	3.5
396.707	4.5
397.491	2.5
398.274	3.5
399.058	1.5
399.842	6.5
400.625	3.5
401.408	3.5
402.192	0.5
402.975	5.5
403.758	4.5
404.541	4.5
405.324	3.5
406.107	3.5
406.89	2.5
407.673	3.5
408.456	4.5
409.238	2.5
410.021	3.5
410.803	3.5
411.586	2.5
412.368	1.5
413.151	3.5
413.933	4.5
414.715	4.5
415.497	3.5
416.279	4.5
417.061	3.5
417.843	6.5
418.624	2.5
419.406	4.5
420.188	6.5
420.969	2.5
421.751	3.5
422.532	4.5
423.313	8.5
424.095	3.5
424.876	6.5
425.657	6.5
426.438	4.5
427.219	5.5
428	6.5
428.78	5.5
429.561	8.5
430.342	7.5
431.122	7.5
431.903	4.5
432.683	7.5
433.464	5.5
434.244	8.5
435.024	8.5
435.804	7.5
436.584	8.5
437.364	9.5
438.144	9.5
438.924	8.5
439.704	12.5
440.483	9.5
441.263	11.5
442.042	10.5
442.822	10.5
443.601	13.5
444.38	12.5
445.16	14.5
445.939	15.5
446.718	18.5
447.497	17.5
448.276	19.5
449.054	20.5
449.833	21.5
450.612	20.5
451.391	24.5
452.169	26.5
452.948	29.5
453.726	31.5
454.504	36.5
455.282	34.5
456.061	42.5
456.839	50.5
457.617	50.5
458.395	58.5
459.172	59.5
459.95	70.5
460.728	74.5
461.506	85.5
462.283	90.5
463.061	107.5
463.838	117.5
464.615	133.5
465.393	146.5
466.17	165.5
466.947	189.5
467.724	205.5
468.501	226.5
469.278	258.5
470.055	285.5
470.831	320.5
471.608	353.5
472.385	398.5
473.161	443.5
473.938	489.5
474.714	549.5
475.49	614.5
476.266	676.5
477.043	755.5
477.819	844.5
478.595	929.5
479.371	1026.5
480.146	1137.5
480.922	1251.5
481.698	1394.5
482.473	1556.5
483.249	1720.5
484.024	1877.5
484.8	2097.5
485.575	2319.5
486.35	2571.5
487.126	2859.5
487.901	3144.5
488.676	3489.5
489.451	3832.5
490.225	4260.5
491	4683.5
491.775	5152.5
492.55	5669.5
493.324	6226.5
494.099	6863.5
494.873	7478.5
495.647	8145.5
496.422	8907.5
497.196	9660.5
497.97	10402.5
498.744	11239.5
499.518	12020.5
500.292	12808.5
501.066	13529.5
501.839	14249.5
502.613	14957.5
503.387	15560.5
504.16	16062.5
504.934	16535.5
505.707	16825.5
506.48	17069.5
507.253	17200.5
508.027	17192.5
508.8	17008.5
509.573	16781.5
510.346	16468.5
511.118	16057.5
511.891	15601.5
512.664	15030.5
513.437	14489.5
514.209	13909.5
514.982	13245.5
515.754	12707.5
516.526	12117.5
517.298	11606.5
518.071	11083.5
518.843	10580.5
519.615	10098.5
520.387	9658.5
521.159	9304.5
521.93	8940.5
522.702	8569.5
523.474	8248.5
524.245	7937.5
525.017	7621.5
525.788	7290.5
526.56	6991.5
527.331	6734.5
528.102	6437.5
528.873	6144.5
529.644	5840.5
530.415	5558.5
531.186	5274.5
531.957	5016.5
532.728	4737.5
533.498	4495.5
534.269	4258.5
535.039	3987.5
535.81	3740.5
536.58	3546.5
537.351	3367.5
538.121	3173.5
538.891	2998.5
539.661	2825.5
540.431	2683.5
541.201	2546.5
541.971	2397.5
542.741	2266.5
543.51	2147.5
544.28	2051.5
545.05	1947.5
545.819	1849.5
546.588	1753.5
547.358	1677.5
548.127	1595.5
548.896	1501.5
549.665	1414.5
550.434	1360.5
551.203	1293.5
551.972	1212.5
552.741	1151.5
553.51	1097.5
554.278	1031.5
555.047	966.5
555.815	909.5
556.584	872.5
557.352	810.5
558.121	759.5
558.889	711.5
559.657	682.5
560.425	642.5
561.193	604.5
561.961	570.5
562.729	531.5
563.496	506.5
564.264	478.5
565.032	449.5
565.799	426.5
566.567	395.5
567.334	382.5
568.101	357.5
568.869	342.5
569.636	315.5
570.403	302.5
571.17	288.5
571.937	274.5
572.704	253.5
573.471	236.5
574.237	222.5
575.004	212.5
575.771	199.5
576.537	183.5
577.303	179.5
578.07	162.5
578.836	155.5
579.602	150.5
580.368	142.5
581.134	126.5
581.9	124.5
582.666	119.5
583.432	113.5
584.198	103.5
584.964	97.5
585.729	93.5
586.495	87.5
587.26	85.5
588.025	74.5
588.791	75.5
589.556	71.5
590.321	67.5
591.086	66.5
591.851	58.5
592.616	58.5
593.381	56.5
594.146	49.5
594.911	49.5
595.675	43.5
596.44	47.5
597.204	44.5
597.969	41.5
598.733	39.5
599.497	33.5
600.261	35.5
601.025	34.5
601.79	31.5
602.553	31.5
603.317	29.5
604.081	25.5
604.845	28.5
605.609	26.5
606.372	24.5
607.136	24.5
607.899	20.5
608.662	20.5
609.426	20.5
610.189	18.5
610.952	19.5
611.715	15.5
612.478	17.5
613.241	16.5
614.004	13.5
614.767	13.5
615.529	13.5
616.292	19.5
617.055	13.5
617.817	15.5
618.579	11.5
619.342	10.5
620.104	11.5
620.866	11.5
621.628	12.5
622.39	10.5
623.152	9.5
623.914	9.5
624.676	9.5
625.438	9.5
626.199	8.5
626.961	7.5
627.722	6.5
628.484	7.5
629.245	8.5
630.006	7.5
630.768	8.5
631.529	8.5
632.29	6.5
633.051	5.5
633.812	9.5
634.573	6.5
635.333	6.5
636.094	6.5
636.855	6.5
637.615	4.5
638.376	4.5
639.136	7.5
639.896	6.5
640.657	6.5
641.417	3.5
642.177	5.5
642.937	4.5
643.697	5.5
644.457	6.5
645.216	3.5
645.976	3.5
646.736	2.5
647.495	5.5
648.255	4.5
649.014	4.5
649.774	3.5
650.533	4.5
651.292	4.5
652.051	2.5
652.81	2.5
653.569	3.5
654.328	2.5
655.087	1.5
655.846	4.5
656.604	3.5
657.363	2.5
658.121	1.5
658.88	3.5
659.638	0.5
660.397	3.5
661.155	1.5
661.913	-0.5
662.671	3.5
663.429	1.5
664.187	2.5
664.945	0.5
665.703	3.5
666.46	1.5
667.218	-1.5
667.976	2.5
668.733	0.5
669.49	1.5
670.248	4.5
671.005	4.5
671.762	3.5
672.519	0.5
673.276	2.5
674.033	1.5
674.79	3.5
675.547	2.5
676.304	-0.5
677.06	0.5
677.817	1.5
678.574	2.5
679.33	1.5
680.086	1.5
680.843	1.5
681.599	1.5
682.355	0.5
683.111	1.5
683.867	2.5
684.623	2.5
685.379	2.5
686.135	1.5
686.89	0.5
687.646	0.5
688.402	1.5
689.157	0.5
689.912	0.5
690.668	1.5
691.423	3.5
692.178	1.5
692.933	0.5
693.688	1.5
694.443	0.5
695.198	1.5
695.953	1.5
696.708	1.5
697.462	-1.5
698.217	0.5
698.972	-0.5
699.726	1.5
700.48	-0.5
701.235	-0.5
701.989	1.5
702.743	-0.5
703.497	0.5
704.251	-0.5
705.005	2.5
705.759	0.5
706.513	0.5
707.266	3.5
708.02	1.5
708.774	0.5
709.527	0.5
710.28	5.5
711.034	0.5
711.787	1.5
712.54	1.5
713.293	2.5
714.046	1.5
714.799	1.5
715.552	1.5
716.305	-1.5
717.058	1.5
717.81	1.5
718.563	2.5
719.315	1.5
720.068	-0.5
720.82	1.5
721.573	0.5
722.325	2.5
723.077	0.5
723.829	-0.5
724.581	1.5
725.333	3.5
726.085	2.5
726.836	1.5
727.588	1.5
728.34	-1.5
729.091	-0.5
729.843	0.5
730.594	-0.5
731.346	1.5
732.097	4.5
732.848	0.5
733.599	0.5
734.35	-1.5
735.101	0.5
735.852	0.5
736.603	3.5
737.354	1.5
738.104	0.5
738.855	0.5
739.605	0.5
740.356	1.5
741.106	2.5
741.856	3.5
742.607	3.5
743.357	0.5
744.107	0.5
744.857	3.5
745.607	1.5
746.357	1.5
747.106	0.5
747.856	2.5
748.606	0.5
749.355	1.5
750.105	0.5
750.854	2.5
751.603	1.5
752.353	3.5
753.102	2.5
753.851	0.5
754.6	1.5
755.349	2.5
756.098	2.5
756.847	3.5
757.595	1.5
758.344	1.5
759.093	1.5
759.841	3.5
760.589	1.5
761.338	3.5
762.086	2.5
762.834	3.5
763.582	2.5
764.331	3.5
765.079	4.5
765.826	3.5
766.574	3.5
767.322	3.5
768.07	2.5
768.817	4.5
769.565	2.5
770.312	7.5
771.06	2.5
771.807	2.5
772.554	5.5
773.302	0.5
774.049	6.5
774.796	5.5
775.543	6.5
776.29	1.5
777.036	3.5
777.783	5.5
778.53	3.5
779.276	4.5
780.023	3.5
780.769	7.5
781.516	3.5
782.262	3.5
783.008	5.5
783.754	5.5
784.5	4.5
785.246	4.5
785.992	4.5
786.738	4.5
787.484	4.5
788.23	3.5
788.975	2.5
789.721	7.5
790.466	5.5
791.212	2.5
791.957	7.5
792.702	5.5
793.447	5.5
794.193	3.5
794.938	3.5
795.683	5.5
796.427	5.5
797.172	5.5
797.917	2.5
798.662	4.5
799.406	4.5
800.151	3.5
800.895	5.5
801.64	3.5
802.384	2.5
803.128	4.5
803.872	4.5
804.616	4.5
805.36	3.5
806.104	3.5
806.848	2.5
807.592	2.5
808.336	3.5
809.079	4.5
809.823	1.5
810.566	1.5
811.31	2.5
812.053	1.5
812.796	4.5
813.539	3.5
814.283	5.5
815.026	3.5
815.769	3.5
816.511	0.5
817.254	2.5
817.997	3.5
818.74	1.5
819.482	2.5
820.225	3.5
820.967	3.5
821.71	2.5
822.452	1.5
823.194	0.5
823.936	1.5
824.678	2.5
825.42	1.5
826.162	2.5
826.904	3.5
827.646	2.5
828.388	0.5
829.129	0.5
829.871	0.5
830.612	0.5
831.354	0.5
832.095	2.5
832.836	0.5
833.577	1.5
834.319	1.5
835.06	0.5
835.801	1.5
836.542	2.5
837.282	1.5
838.023	-1.5
838.764	2.5
839.504	0.5
840.245	0.5
840.985	1.5
841.726	-0.5
842.466	0.5
843.206	1.5
843.946	1.5
844.687	1.5
845.427	2.5
846.166	1.5
846.906	2.5
847.646	2.5
848.386	-0.5
849.125	1.5
849.865	1.5
850.605	1.5
851.344	1.5
852.083	-1.5
852.823	0.5
853.562	0.5
854.301	-0.5
855.04	-0.5
855.779	-0.5
856.518	0.5
857.257	1.5
857.995	0.5
858.734	-0.5
859.473	1.5
860.211	-2.5
860.95	1.5
861.688	1.5
862.426	0.5
863.165	2.5
863.903	-1.5
864.641	-0.5
865.379	-0.5
866.117	-0.5
866.855	1.5
867.593	-0.5
868.33	1.5
869.068	1.5
869.806	2.5
870.543	-1.5
871.28	0.5
872.018	1.5
872.755	-1.5
873.492	0.5
874.229	-0.5
874.967	2.5
875.703	0.5
876.44	0.5
877.177	-0.5
877.914	1.5
878.651	1.5
879.387	-1.5
880.124	1.5
880.86	0.5
881.597	-0.5
882.333	1.5
883.069	1.5
883.806	2.5
884.542	3.5
885.278	0.5
886.014	1.5
886.749	-2.5
887.485	0.5
888.221	-0.5
888.957	0.5
889.692	-1.5
890.428	0.5
891.163	-0.5
891.899	1.5
892.634	2.5
893.369	-1.5
894.104	1.5
894.839	1.5
895.574	-0.5
896.309	-0.5
897.044	-2.5
897.779	1.5
898.514	-1.5
899.248	0.5
899.983	-1.5
900.717	0.5
901.452	0.5
902.186	-2.5
902.92	0.5
903.654	-0.5
904.389	2.5
905.123	-2.5
905.857	-0.5
906.59	1.5
907.324	-0.5
908.058	-0.5
908.792	-0.5
909.525	1.5
910.259	2.5
910.992	-0.5
911.726	-0.5
912.459	1.5
913.192	-0.5
913.925	-0.5
914.658	-0.5
915.391	-2.5
916.124	0.5
916.857	-0.5
917.59	-0.5
918.323	0.5
919.055	-1.5
919.788	-1.5
920.521	-2.5
921.253	-2.5
921.985	-0.5
922.718	0.5
923.45	2.5
924.182	-1.5
924.914	-0.5
925.646	-0.5
926.378	-2.5
927.11	0.5
927.841	1.5
928.573	-0.5
929.305	-2.5
930.036	1.5
930.768	1.5
931.499	0.5
932.23	0.5
932.962	-2.5
933.693	0.5
934.424	-0.5
935.155	0.5
935.886	0.5
936.617	-0.5
937.348	-0.5
938.078	2.5
938.809	-0.5
939.54	-3.5
940.27	-0.5
941.001	-2.5
941.731	0.5
942.461	0.5
943.191	-1.5
943.922	-0.5
944.652	-0.5
945.382	-0.5
946.112	0.5
946.841	-1.5
947.571	-0.5
948.301	-1.5
949.031	0.5
949.76	0.5
950.49	-2.5
951.219	-2.5
951.948	-2.5
952.678	0.5
953.407	-0.5
954.136	-0.5
954.865	0.5
955.594	0.5
956.323	0.5
957.052	1.5
957.78	-0.5
958.509	-2.5
959.238	-1.5
959.966	-1.5
960.695	-1.5
961.423	1.5
962.151	-2.5
962.88	0.5
963.608	-0.5
964.336	-0.5
965.064	-2.5
965.792	0.5
966.52	0.5
967.247	0.5
967.975	-1.5
968.703	-1.5
969.43	-0.5
970.158	0.5
970.885	-1.5
971.613	-1.5
972.34	-1.5
973.067	1.5
973.794	-0.5
974.521	-0.5
975.248	-2.5
975.975	-0.5
976.702	-0.5
977.429	-1.5
978.156	-1.5
978.882	1.5
979.609	2.5
980.335	-0.5
981.062	0.5
981.788	-0.5
982.514	-0.5
983.24	-1.5
983.967	-2.5
984.693	1.5
985.419	-0.5
986.144	-1.5
986.87	1.5
987.596	-0.5
988.322	0.5
989.047	-0.5
989.773	-0.5
990.498	-1.5
991.224	-1.5
991.949	0.5
992.674	-0.5
993.399	-0.5
994.124	0.5
994.849	-0.5
995.574	2.5
996.299	-2.5
997.024	1.5
997.749	1.5
998.473	-1.5
999.198	-1.5
999.922	-0.5
1000.647	0.5
1001.371	1.5
1002.095	-1.5
1002.82	-1.5
1003.544	0.5
1004.268	-1.5
1004.992	0.5
1005.716	-1.5
1006.439	-3.5
1007.163	-1.5
1007.887	-0.5
1008.611	-0.5
1009.334	0.5
1010.058	-0.5
1010.781	-0.5
1011.504	-0.5
1012.228	-1.5
1012.951	0.5
1013.674	0.5
1014.397	-0.5
1015.12	0.5
