节点500_145_QEPB04081__344__11-34-26-540.txt的数据

Date: Wed Nov 12 11:34:26 CST 2025
User: PC
Spectrometer: QEPB0408
触发模式: 0
积分时间 (秒): 1.000000E-2
Scans to average: 1
启用暗噪声校正: true
启用非线性校正: false
滑动平均宽度: 0
X轴模式: Wavelengths
Number of Pixels in Spectrum: 1044
>>>>>Begin Spectral Data<<<<<
220.843	0.12
221.644	0.12
222.444	-2.88
223.244	1.12
224.045	1.12
224.845	-0.88
225.645	-0.88
226.445	-0.88
227.245	-1.88
228.045	0.12
228.845	-0.88
229.645	0.12
230.444	1.12
231.244	-0.88
232.043	-1.88
232.843	0.12
233.642	-3.88
234.442	-0.88
235.241	1.12
236.04	2.12
236.839	2.12
237.638	0.12
238.437	3.12
239.236	-0.88
240.035	0.12
240.833	-0.88
241.632	-0.88
242.43	1.12
243.229	2.12
244.027	2.12
244.826	1.12
245.624	2.12
246.422	0.12
247.22	2.12
248.018	2.12
248.816	0.12
249.614	3.12
250.412	1.12
251.21	5.12
252.007	2.12
252.805	4.12
253.602	7.12
254.4	1.12
255.197	1.12
255.994	2.12
256.791	4.12
257.589	2.12
258.386	4.12
259.183	4.12
259.979	3.12
260.776	5.12
261.573	3.12
262.37	5.12
263.166	5.12
263.963	4.12
264.759	5.12
265.556	5.12
266.352	7.12
267.148	4.12
267.944	6.12
268.74	5.12
269.536	8.12
270.332	9.12
271.128	7.12
271.924	6.12
272.719	7.12
273.515	8.12
274.311	7.12
275.106	7.12
275.901	10.12
276.697	9.12
277.492	8.12
278.287	7.12
279.082	11.12
279.877	8.12
280.672	9.12
281.467	9.12
282.262	11.12
283.056	9.12
283.851	9.12
284.646	7.12
285.44	10.12
286.234	11.12
287.029	10.12
287.823	12.12
288.617	13.12
289.411	12.12
290.205	9.12
290.999	11.12
291.793	8.12
292.587	13.12
293.381	10.12
294.174	9.12
294.968	11.12
295.761	9.12
296.555	9.12
297.348	8.12
298.141	10.12
298.935	11.12
299.728	12.12
300.521	8.12
301.314	6.12
302.107	10.12
302.899	9.12
303.692	7.12
304.485	9.12
305.277	6.12
306.07	9.12
306.862	7.12
307.655	5.12
308.447	6.12
309.239	9.12
310.031	5.12
310.823	7.12
311.615	7.12
312.407	5.12
313.199	7.12
313.991	5.12
314.783	6.12
315.574	5.12
316.366	6.12
317.157	4.12
317.949	3.12
318.74	3.12
319.531	4.12
320.322	3.12
321.113	5.12
321.904	3.12
322.695	2.12
323.486	5.12
324.277	3.12
325.068	4.12
325.858	5.12
326.649	5.12
327.439	2.12
328.23	3.12
329.02	4.12
329.81	4.12
330.6	6.12
331.391	5.12
332.181	2.12
332.971	3.12
333.76	3.12
334.55	2.12
335.34	2.12
336.13	3.12
336.919	5.12
337.709	4.12
338.498	4.12
339.287	3.12
340.077	3.12
340.866	5.12
341.655	2.12
342.444	3.12
343.233	3.12
344.022	2.12
344.811	3.12
345.6	3.12
346.388	1.12
347.177	2.12
347.965	5.12
348.754	2.12
349.542	2.12
350.33	3.12
351.119	1.12
351.907	2.12
352.695	2.12
353.483	1.12
354.271	1.12
355.059	5.12
355.846	5.12
356.634	4.12
357.422	1.12
358.209	0.12
358.997	3.12
359.784	2.12
360.571	1.12
361.359	5.12
362.146	1.12
362.933	3.12
363.72	2.12
364.507	3.12
365.294	5.12
366.081	3.12
366.867	0.12
367.654	2.12
368.44	3.12
369.227	2.12
370.013	3.12
370.8	2.12
371.586	1.12
372.372	1.12
373.158	0.12
373.944	3.12
374.73	2.12
375.516	6.12
376.302	2.12
377.088	1.12
377.873	2.12
378.659	1.12
379.445	2.12
380.23	2.12
381.015	3.12
381.801	2.12
382.586	2.12
383.371	3.12
384.156	2.12
384.941	5.12
385.726	4.12
386.511	5.12
387.296	1.12
388.08	1.12
388.865	3.12
389.649	4.12
390.434	1.12
391.218	3.12
392.003	5.12
392.787	3.12
393.571	2.12
394.355	2.12
395.139	3.12
395.923	3.12
396.707	3.12
397.491	5.12
398.274	4.12
399.058	3.12
399.842	4.12
400.625	3.12
401.408	3.12
402.192	2.12
402.975	3.12
403.758	5.12
404.541	7.12
405.324	4.12
406.107	0.12
406.89	5.12
407.673	3.12
408.456	3.12
409.238	2.12
410.021	5.12
410.803	6.12
411.586	4.12
412.368	6.12
413.151	2.12
413.933	5.12
414.715	4.12
415.497	3.12
416.279	5.12
417.061	3.12
417.843	4.12
418.624	3.12
419.406	7.12
420.188	4.12
420.969	5.12
421.751	5.12
422.532	5.12
423.313	5.12
424.095	7.12
424.876	6.12
425.657	4.12
426.438	4.12
427.219	7.12
428	4.12
428.78	7.12
429.561	8.12
430.342	5.12
431.122	7.12
431.903	9.12
432.683	8.12
433.464	5.12
434.244	10.12
435.024	9.12
435.804	7.12
436.584	10.12
437.364	9.12
438.144	8.12
438.924	10.12
439.704	10.12
440.483	11.12
441.263	11.12
442.042	14.12
442.822	12.12
443.601	13.12
444.38	14.12
445.16	15.12
445.939	16.12
446.718	17.12
447.497	18.12
448.276	20.12
449.054	24.12
449.833	23.12
450.612	24.12
451.391	28.12
452.169	28.12
452.948	32.12
453.726	34.12
454.504	41.12
455.282	40.12
456.061	48.12
456.839	51.12
457.617	56.12
458.395	61.12
459.172	67.12
459.95	76.12
460.728	82.12
461.506	92.12
462.283	107.12
463.061	117.12
463.838	125.12
464.615	142.12
465.393	159.12
466.17	173.12
466.947	199.12
467.724	221.12
468.501	242.12
469.278	275.12
470.055	302.12
470.831	342.12
471.608	373.12
472.385	419.12
473.161	468.12
473.938	517.12
474.714	567.12
475.49	630.12
476.266	707.12
477.043	763.12
477.819	858.12
478.595	942.12
479.371	1042.12
480.146	1150.12
480.922	1259.12
481.698	1395.12
482.473	1541.12
483.249	1705.12
484.024	1869.12
484.8	2052.12
485.575	2266.12
486.35	2487.12
487.126	2761.12
487.901	3034.12
488.676	3324.12
489.451	3676.12
490.225	4035.12
491	4397.12
491.775	4835.12
492.55	5309.12
493.324	5800.12
494.099	6307.12
494.873	6892.12
495.647	7532.12
496.422	8155.12
497.196	8817.12
497.97	9529.12
498.744	10253.12
499.518	10951.12
500.292	11752.12
501.066	12432.12
501.839	13128.12
502.613	13749.12
503.387	14406.12
504.16	14978.12
504.934	15373.12
505.707	15753.12
506.48	16024.12
507.253	16219.12
508.027	16303.12
508.8	16275.12
509.573	16157.12
510.346	15943.12
511.118	15663.12
511.891	15323.12
512.664	14821.12
513.437	14323.12
514.209	13749.12
514.982	13273.12
515.754	12777.12
516.526	12223.12
517.298	11655.12
518.071	11172.12
518.843	10692.12
519.615	10204.12
520.387	9776.12
521.159	9392.12
521.93	9062.12
522.702	8669.12
523.474	8333.12
524.245	7993.12
525.017	7687.12
525.788	7380.12
526.56	7069.12
527.331	6766.12
528.102	6470.12
528.873	6226.12
529.644	5968.12
530.415	5666.12
531.186	5398.12
531.957	5167.12
532.728	4875.12
533.498	4589.12
534.269	4346.12
535.039	4109.12
535.81	3917.12
536.58	3689.12
537.351	3471.12
538.121	3276.12
538.891	3115.12
539.661	2936.12
540.431	2780.12
541.201	2624.12
541.971	2491.12
542.741	2364.12
543.51	2236.12
544.28	2119.12
545.05	2029.12
545.819	1922.12
546.588	1823.12
547.358	1737.12
548.127	1653.12
548.896	1563.12
549.665	1493.12
550.434	1412.12
551.203	1328.12
551.972	1268.12
552.741	1198.12
553.51	1129.12
554.278	1079.12
555.047	1012.12
555.815	955.12
556.584	904.12
557.352	846.12
558.121	810.12
558.889	755.12
559.657	719.12
560.425	681.12
561.193	641.12
561.961	599.12
562.729	579.12
563.496	535.12
564.264	510.12
565.032	474.12
565.799	446.12
566.567	424.12
567.334	403.12
568.101	379.12
568.869	360.12
569.636	337.12
570.403	320.12
571.17	302.12
571.937	285.12
572.704	268.12
573.471	249.12
574.237	245.12
575.004	224.12
575.771	216.12
576.537	200.12
577.303	189.12
578.07	176.12
578.836	165.12
579.602	152.12
580.368	149.12
581.134	138.12
581.9	131.12
582.666	126.12
583.432	116.12
584.198	109.12
584.964	106.12
585.729	102.12
586.495	95.12
587.26	90.12
588.025	84.12
588.791	80.12
589.556	77.12
590.321	68.12
591.086	65.12
591.851	65.12
592.616	60.12
593.381	56.12
594.146	57.12
594.911	50.12
595.675	52.12
596.44	46.12
597.204	46.12
597.969	40.12
598.733	44.12
599.497	41.12
600.261	37.12
601.025	35.12
601.79	34.12
602.553	33.12
603.317	31.12
604.081	28.12
604.845	30.12
605.609	25.12
606.372	26.12
607.136	26.12
607.899	23.12
608.662	25.12
609.426	24.12
610.189	22.12
610.952	18.12
611.715	18.12
612.478	18.12
613.241	18.12
614.004	16.12
614.767	15.12
615.529	17.12
616.292	13.12
617.055	14.12
617.817	14.12
618.579	14.12
619.342	10.12
620.104	11.12
620.866	12.12
621.628	13.12
622.39	10.12
623.152	13.12
623.914	12.12
624.676	12.12
625.438	11.12
626.199	10.12
626.961	8.12
627.722	8.12
628.484	7.12
629.245	9.12
630.006	9.12
630.768	5.12
631.529	6.12
632.29	8.12
633.051	5.12
633.812	6.12
634.573	4.12
635.333	8.12
636.094	7.12
636.855	7.12
637.615	7.12
638.376	5.12
639.136	4.12
639.896	6.12
640.657	7.12
641.417	4.12
642.177	6.12
642.937	4.12
643.697	4.12
644.457	5.12
645.216	5.12
645.976	2.12
646.736	4.12
647.495	4.12
648.255	5.12
649.014	2.12
649.774	6.12
650.533	1.12
651.292	6.12
652.051	5.12
652.81	5.12
653.569	5.12
654.328	1.12
655.087	5.12
655.846	3.12
656.604	5.12
657.363	6.12
658.121	3.12
658.88	4.12
659.638	3.12
660.397	5.12
661.155	0.12
661.913	3.12
662.671	3.12
663.429	4.12
664.187	3.12
664.945	1.12
665.703	2.12
666.46	3.12
667.218	4.12
667.976	3.12
668.733	5.12
669.49	0.12
670.248	2.12
671.005	2.12
671.762	1.12
672.519	2.12
673.276	2.12
674.033	1.12
674.79	3.12
675.547	1.12
676.304	1.12
677.06	-0.88
677.817	2.12
678.574	1.12
679.33	2.12
680.086	4.12
680.843	3.12
681.599	3.12
682.355	0.12
683.111	4.12
683.867	2.12
684.623	1.12
685.379	2.12
686.135	4.12
686.89	1.12
687.646	1.12
688.402	3.12
689.157	2.12
689.912	2.12
690.668	4.12
691.423	-0.88
692.178	2.12
692.933	1.12
693.688	1.12
694.443	1.12
695.198	1.12
695.953	1.12
696.708	-0.88
697.462	3.12
698.217	0.12
698.972	2.12
699.726	0.12
700.48	3.12
701.235	1.12
701.989	1.12
702.743	2.12
703.497	3.12
704.251	2.12
705.005	4.12
705.759	-0.88
706.513	2.12
707.266	1.12
708.02	2.12
708.774	0.12
709.527	3.12
710.28	3.12
711.034	3.12
711.787	2.12
712.54	2.12
713.293	3.12
714.046	2.12
714.799	4.12
715.552	2.12
716.305	1.12
717.058	3.12
717.81	0.12
718.563	2.12
719.315	5.12
720.068	3.12
720.82	2.12
721.573	3.12
722.325	2.12
723.077	1.12
723.829	2.12
724.581	2.12
725.333	3.12
726.085	2.12
726.836	0.12
727.588	1.12
728.34	3.12
729.091	4.12
729.843	0.12
730.594	4.12
731.346	2.12
732.097	4.12
732.848	2.12
733.599	2.12
734.35	3.12
735.101	3.12
735.852	2.12
736.603	-0.88
737.354	1.12
738.104	2.12
738.855	1.12
739.605	1.12
740.356	0.12
741.106	0.12
741.856	1.12
742.607	1.12
743.357	2.12
744.107	1.12
744.857	1.12
745.607	2.12
746.357	1.12
747.106	3.12
747.856	1.12
748.606	2.12
749.355	2.12
750.105	3.12
750.854	1.12
751.603	2.12
752.353	3.12
753.102	1.12
753.851	4.12
754.6	1.12
755.349	4.12
756.098	3.12
756.847	1.12
757.595	5.12
758.344	5.12
759.093	2.12
759.841	0.12
760.589	2.12
761.338	4.12
762.086	3.12
762.834	4.12
763.582	2.12
764.331	4.12
765.079	3.12
765.826	2.12
766.574	3.12
767.322	1.12
768.07	5.12
768.817	4.12
769.565	3.12
770.312	4.12
771.06	4.12
771.807	1.12
772.554	4.12
773.302	4.12
774.049	1.12
774.796	2.12
775.543	2.12
776.29	5.12
777.036	4.12
777.783	5.12
778.53	7.12
779.276	4.12
780.023	4.12
780.769	5.12
781.516	6.12
782.262	3.12
783.008	2.12
783.754	4.12
784.5	4.12
785.246	6.12
785.992	4.12
786.738	3.12
787.484	4.12
788.23	5.12
788.975	6.12
789.721	4.12
790.466	7.12
791.212	6.12
791.957	3.12
792.702	5.12
793.447	5.12
794.193	5.12
794.938	5.12
795.683	3.12
796.427	4.12
797.172	4.12
797.917	6.12
798.662	6.12
799.406	3.12
800.151	4.12
800.895	8.12
801.64	4.12
802.384	4.12
803.128	4.12
803.872	3.12
804.616	5.12
805.36	5.12
806.104	3.12
806.848	1.12
807.592	3.12
808.336	2.12
809.079	4.12
809.823	4.12
810.566	4.12
811.31	3.12
812.053	5.12
812.796	5.12
813.539	4.12
814.283	4.12
815.026	3.12
815.769	3.12
816.511	3.12
817.254	2.12
817.997	1.12
818.74	3.12
819.482	3.12
820.225	5.12
820.967	3.12
821.71	2.12
822.452	2.12
823.194	2.12
823.936	5.12
824.678	5.12
825.42	4.12
826.162	3.12
826.904	3.12
827.646	4.12
828.388	3.12
829.129	3.12
829.871	3.12
830.612	0.12
831.354	-1.88
832.095	2.12
832.836	1.12
833.577	1.12
834.319	2.12
835.06	2.12
835.801	4.12
836.542	4.12
837.282	1.12
838.023	2.12
838.764	3.12
839.504	4.12
840.245	2.12
840.985	2.12
841.726	0.12
842.466	2.12
843.206	2.12
843.946	1.12
844.687	0.12
845.427	2.12
846.166	2.12
846.906	1.12
847.646	2.12
848.386	0.12
849.125	0.12
849.865	4.12
850.605	1.12
851.344	0.12
852.083	3.12
852.823	2.12
853.562	0.12
854.301	2.12
855.04	4.12
855.779	2.12
856.518	3.12
857.257	1.12
857.995	2.12
858.734	0.12
859.473	2.12
860.211	2.12
860.95	1.12
861.688	3.12
862.426	1.12
863.165	3.12
863.903	1.12
864.641	2.12
865.379	1.12
866.117	0.12
866.855	2.12
867.593	2.12
868.33	-1.88
869.068	1.12
869.806	1.12
870.543	2.12
871.28	2.12
872.018	2.12
872.755	1.12
873.492	3.12
874.229	-1.88
874.967	1.12
875.703	-0.88
876.44	-1.88
877.177	-0.88
877.914	1.12
878.651	2.12
879.387	-0.88
880.124	1.12
880.86	1.12
881.597	-1.88
882.333	0.12
883.069	0.12
883.806	1.12
884.542	1.12
885.278	1.12
886.014	2.12
886.749	0.12
887.485	0.12
888.221	1.12
888.957	2.12
889.692	2.12
890.428	-0.88
891.163	2.12
891.899	0.12
892.634	1.12
893.369	0.12
894.104	1.12
894.839	-1.88
895.574	0.12
896.309	1.12
897.044	-0.88
897.779	1.12
898.514	1.12
899.248	2.12
899.983	0.12
900.717	1.12
901.452	2.12
902.186	2.12
902.92	2.12
903.654	-0.88
904.389	1.12
905.123	-0.88
905.857	1.12
906.59	1.12
907.324	0.12
908.058	1.12
908.792	1.12
909.525	-0.88
910.259	2.12
910.992	0.12
911.726	1.12
912.459	0.12
913.192	0.12
913.925	0.12
914.658	2.12
915.391	0.12
916.124	1.12
916.857	1.12
917.59	0.12
918.323	2.12
919.055	2.12
919.788	0.12
920.521	-0.88
921.253	-1.88
921.985	1.12
922.718	-1.88
923.45	0.12
924.182	0.12
924.914	-1.88
925.646	0.12
926.378	-0.88
927.11	1.12
927.841	-0.88
928.573	0.12
929.305	-0.88
930.036	0.12
930.768	1.12
931.499	-1.88
932.23	2.12
932.962	1.12
933.693	-0.88
934.424	-0.88
935.155	0.12
935.886	-0.88
936.617	0.12
937.348	1.12
938.078	-0.88
938.809	-0.88
939.54	0.12
940.27	-1.88
941.001	-2.88
941.731	-0.88
942.461	0.12
943.191	0.12
943.922	1.12
944.652	0.12
945.382	-0.88
946.112	0.12
946.841	-1.88
947.571	-0.88
948.301	-1.88
949.031	-0.88
949.76	2.12
950.49	-0.88
951.219	0.12
951.948	-1.88
952.678	-1.88
953.407	0.12
954.136	1.12
954.865	0.12
955.594	3.12
956.323	-0.88
957.052	0.12
957.78	1.12
958.509	1.12
959.238	1.12
959.966	1.12
960.695	-1.88
961.423	-0.88
962.151	1.12
962.88	2.12
963.608	1.12
964.336	0.12
965.064	0.12
965.792	0.12
966.52	1.12
967.247	-0.88
967.975	1.12
968.703	1.12
969.43	0.12
970.158	0.12
970.885	-0.88
971.613	0.12
972.34	-0.88
973.067	0.12
973.794	0.12
974.521	-0.88
975.248	-0.88
975.975	-0.88
976.702	1.12
977.429	-0.88
978.156	2.12
978.882	0.12
979.609	-0.88
980.335	-2.88
981.062	-0.88
981.788	0.12
982.514	-0.88
983.24	1.12
983.967	-1.88
984.693	0.12
985.419	-1.88
986.144	-0.88
986.87	1.12
987.596	-0.88
988.322	0.12
989.047	1.12
989.773	0.12
990.498	2.12
991.224	-0.88
991.949	1.12
992.674	1.12
993.399	0.12
994.124	-1.88
994.849	1.12
995.574	2.12
996.299	0.12
997.024	1.12
997.749	0.12
998.473	-0.88
999.198	-1.88
999.922	-1.88
1000.647	-0.88
1001.371	1.12
1002.095	-0.88
1002.82	-1.88
1003.544	-0.88
1004.268	0.12
1004.992	-2.88
1005.716	0.12
1006.439	-1.88
1007.163	0.12
1007.887	-0.88
1008.611	-1.88
1009.334	2.12
1010.058	-0.88
1010.781	0.12
1011.504	2.12
1012.228	-1.88
1012.951	0.12
1013.674	1.12
1014.397	1.12
1015.12	0.12
