节点500_145_QEPB04081__455__11-36-13-548.txt的数据

Date: Wed Nov 12 11:36:13 CST 2025
User: PC
Spectrometer: QEPB0408
触发模式: 0
积分时间 (秒): 1.000000E-2
Scans to average: 1
启用暗噪声校正: true
启用非线性校正: false
滑动平均宽度: 0
X轴模式: Wavelengths
Number of Pixels in Spectrum: 1044
>>>>>Begin Spectral Data<<<<<
220.843	1.88
221.644	-2.12
222.444	-1.12
223.244	-3.12
224.045	-2.12
224.845	-1.12
225.645	-0.12
226.445	-2.12
227.245	-2.12
228.045	-0.12
228.845	-0.12
229.645	1.88
230.444	-1.12
231.244	0.88
232.043	-0.12
232.843	1.88
233.642	0.88
234.442	0.88
235.241	-0.12
236.04	-1.12
236.839	0.88
237.638	0.88
238.437	-0.12
239.236	0.88
240.035	-1.12
240.833	2.88
241.632	-0.12
242.43	0.88
243.229	-0.12
244.027	-0.12
244.826	2.88
245.624	2.88
246.422	2.88
247.22	-0.12
248.018	1.88
248.816	0.88
249.614	-2.12
250.412	0.88
251.21	-0.12
252.007	1.88
252.805	1.88
253.602	3.88
254.4	3.88
255.197	1.88
255.994	3.88
256.791	2.88
257.589	2.88
258.386	2.88
259.183	2.88
259.979	2.88
260.776	2.88
261.573	3.88
262.37	4.88
263.166	4.88
263.963	2.88
264.759	2.88
265.556	3.88
266.352	4.88
267.148	5.88
267.944	4.88
268.74	4.88
269.536	4.88
270.332	4.88
271.128	5.88
271.924	5.88
272.719	7.88
273.515	6.88
274.311	9.88
275.106	6.88
275.901	4.88
276.697	6.88
277.492	9.88
278.287	8.88
279.082	7.88
279.877	9.88
280.672	9.88
281.467	9.88
282.262	8.88
283.056	8.88
283.851	8.88
284.646	8.88
285.44	7.88
286.234	9.88
287.029	9.88
287.823	9.88
288.617	7.88
289.411	7.88
290.205	8.88
290.999	9.88
291.793	9.88
292.587	9.88
293.381	9.88
294.174	8.88
294.968	10.88
295.761	8.88
296.555	7.88
297.348	11.88
298.141	8.88
298.935	9.88
299.728	9.88
300.521	8.88
301.314	6.88
302.107	8.88
302.899	5.88
303.692	7.88
304.485	6.88
305.277	6.88
306.07	7.88
306.862	6.88
307.655	6.88
308.447	7.88
309.239	6.88
310.031	6.88
310.823	7.88
311.615	5.88
312.407	6.88
313.199	3.88
313.991	3.88
314.783	3.88
315.574	5.88
316.366	8.88
317.157	3.88
317.949	2.88
318.74	4.88
319.531	1.88
320.322	4.88
321.113	1.88
321.904	4.88
322.695	2.88
323.486	2.88
324.277	3.88
325.068	6.88
325.858	2.88
326.649	4.88
327.439	4.88
328.23	4.88
329.02	1.88
329.81	0.88
330.6	3.88
331.391	2.88
332.181	3.88
332.971	0.88
333.76	4.88
334.55	4.88
335.34	2.88
336.13	3.88
336.919	3.88
337.709	3.88
338.498	2.88
339.287	2.88
340.077	3.88
340.866	1.88
341.655	1.88
342.444	4.88
343.233	2.88
344.022	1.88
344.811	2.88
345.6	2.88
346.388	2.88
347.177	2.88
347.965	1.88
348.754	1.88
349.542	0.88
350.33	2.88
351.119	2.88
351.907	3.88
352.695	1.88
353.483	0.88
354.271	3.88
355.059	1.88
355.846	2.88
356.634	4.88
357.422	0.88
358.209	2.88
358.997	1.88
359.784	4.88
360.571	2.88
361.359	3.88
362.146	4.88
362.933	0.88
363.72	1.88
364.507	2.88
365.294	2.88
366.081	0.88
366.867	3.88
367.654	3.88
368.44	1.88
369.227	2.88
370.013	1.88
370.8	4.88
371.586	1.88
372.372	0.88
373.158	-1.12
373.944	2.88
374.73	0.88
375.516	2.88
376.302	2.88
377.088	2.88
377.873	0.88
378.659	1.88
379.445	0.88
380.23	3.88
381.015	1.88
381.801	2.88
382.586	1.88
383.371	1.88
384.156	2.88
384.941	1.88
385.726	2.88
386.511	2.88
387.296	3.88
388.08	2.88
388.865	2.88
389.649	3.88
390.434	1.88
391.218	2.88
392.003	2.88
392.787	2.88
393.571	2.88
394.355	1.88
395.139	1.88
395.923	1.88
396.707	1.88
397.491	2.88
398.274	5.88
399.058	3.88
399.842	-0.12
400.625	1.88
401.408	3.88
402.192	4.88
402.975	1.88
403.758	2.88
404.541	4.88
405.324	2.88
406.107	3.88
406.89	0.88
407.673	1.88
408.456	2.88
409.238	5.88
410.021	4.88
410.803	1.88
411.586	6.88
412.368	5.88
413.151	4.88
413.933	3.88
414.715	6.88
415.497	2.88
416.279	3.88
417.061	5.88
417.843	6.88
418.624	2.88
419.406	3.88
420.188	0.88
420.969	4.88
421.751	2.88
422.532	7.88
423.313	6.88
424.095	6.88
424.876	4.88
425.657	5.88
426.438	5.88
427.219	5.88
428	6.88
428.78	6.88
429.561	7.88
430.342	5.88
431.122	10.88
431.903	6.88
432.683	7.88
433.464	7.88
434.244	7.88
435.024	8.88
435.804	10.88
436.584	8.88
437.364	8.88
438.144	9.88
438.924	8.88
439.704	11.88
440.483	10.88
441.263	10.88
442.042	10.88
442.822	14.88
443.601	13.88
444.38	14.88
445.16	16.88
445.939	15.88
446.718	15.88
447.497	20.88
448.276	21.88
449.054	19.88
449.833	27.88
450.612	24.88
451.391	26.88
452.169	29.88
452.948	29.88
453.726	37.88
454.504	37.88
455.282	45.88
456.061	47.88
456.839	48.88
457.617	54.88
458.395	61.88
459.172	71.88
459.95	76.88
460.728	82.88
461.506	98.88
462.283	106.88
463.061	117.88
463.838	130.88
464.615	150.88
465.393	163.88
466.17	184.88
466.947	205.88
467.724	224.88
468.501	254.88
469.278	281.88
470.055	311.88
470.831	349.88
471.608	387.88
472.385	422.88
473.161	472.88
473.938	520.88
474.714	581.88
475.49	638.88
476.266	716.88
477.043	788.88
477.819	879.88
478.595	960.88
479.371	1054.88
480.146	1157.88
480.922	1284.88
481.698	1396.88
482.473	1558.88
483.249	1701.88
484.024	1871.88
484.8	2047.88
485.575	2258.88
486.35	2473.88
487.126	2711.88
487.901	2948.88
488.676	3271.88
489.451	3587.88
490.225	3937.88
491	4288.88
491.775	4707.88
492.55	5132.88
493.324	5604.88
494.099	6105.88
494.873	6680.88
495.647	7233.88
496.422	7884.88
497.196	8523.88
497.97	9163.88
498.744	9838.88
499.518	10572.88
500.292	11298.88
501.066	11981.88
501.839	12601.88
502.613	13250.88
503.387	13882.88
504.16	14414.88
504.934	14859.88
505.707	15250.88
506.48	15550.88
507.253	15771.88
508.027	15906.88
508.8	15941.88
509.573	15844.88
510.346	15717.88
511.118	15486.88
511.891	15151.88
512.664	14719.88
513.437	14289.88
514.209	13817.88
514.982	13249.88
515.754	12753.88
516.526	12261.88
517.298	11727.88
518.071	11214.88
518.843	10764.88
519.615	10278.88
520.387	9808.88
521.159	9469.88
521.93	9100.88
522.702	8742.88
523.474	8395.88
524.245	8009.88
525.017	7725.88
525.788	7416.88
526.56	7120.88
527.331	6814.88
528.102	6542.88
528.873	6284.88
529.644	5990.88
530.415	5715.88
531.186	5438.88
531.957	5214.88
532.728	4948.88
533.498	4648.88
534.269	4440.88
535.039	4201.88
535.81	3963.88
536.58	3767.88
537.351	3552.88
538.121	3371.88
538.891	3175.88
539.661	2974.88
540.431	2833.88
541.201	2692.88
541.971	2550.88
542.741	2412.88
543.51	2280.88
544.28	2166.88
545.05	2051.88
545.819	1945.88
546.588	1834.88
547.358	1779.88
548.127	1671.88
548.896	1598.88
549.665	1513.88
550.434	1431.88
551.203	1369.88
551.972	1288.88
552.741	1223.88
553.51	1166.88
554.278	1102.88
555.047	1034.88
555.815	988.88
556.584	927.88
557.352	873.88
558.121	829.88
558.889	781.88
559.657	735.88
560.425	683.88
561.193	652.88
561.961	616.88
562.729	590.88
563.496	545.88
564.264	513.88
565.032	485.88
565.799	457.88
566.567	433.88
567.334	407.88
568.101	389.88
568.869	365.88
569.636	350.88
570.403	328.88
571.17	300.88
571.937	285.88
572.704	272.88
573.471	261.88
574.237	237.88
575.004	226.88
575.771	212.88
576.537	203.88
577.303	195.88
578.07	177.88
578.836	169.88
579.602	152.88
580.368	150.88
581.134	141.88
581.9	134.88
582.666	127.88
583.432	121.88
584.198	113.88
584.964	106.88
585.729	100.88
586.495	99.88
587.26	88.88
588.025	84.88
588.791	82.88
589.556	79.88
590.321	73.88
591.086	68.88
591.851	66.88
592.616	65.88
593.381	56.88
594.146	56.88
594.911	53.88
595.675	48.88
596.44	49.88
597.204	46.88
597.969	45.88
598.733	38.88
599.497	39.88
600.261	35.88
601.025	34.88
601.79	35.88
602.553	30.88
603.317	29.88
604.081	31.88
604.845	27.88
605.609	30.88
606.372	27.88
607.136	25.88
607.899	25.88
608.662	21.88
609.426	22.88
610.189	19.88
610.952	18.88
611.715	18.88
612.478	19.88
613.241	18.88
614.004	18.88
614.767	16.88
615.529	13.88
616.292	16.88
617.055	15.88
617.817	12.88
618.579	16.88
619.342	13.88
620.104	13.88
620.866	11.88
621.628	13.88
622.39	12.88
623.152	10.88
623.914	8.88
624.676	10.88
625.438	9.88
626.199	9.88
626.961	11.88
627.722	8.88
628.484	10.88
629.245	7.88
630.006	4.88
630.768	6.88
631.529	7.88
632.29	6.88
633.051	5.88
633.812	7.88
634.573	5.88
635.333	6.88
636.094	6.88
636.855	4.88
637.615	5.88
638.376	5.88
639.136	6.88
639.896	6.88
640.657	4.88
641.417	4.88
642.177	5.88
642.937	3.88
643.697	4.88
644.457	3.88
645.216	6.88
645.976	4.88
646.736	3.88
647.495	3.88
648.255	2.88
649.014	2.88
649.774	4.88
650.533	3.88
651.292	2.88
652.051	3.88
652.81	2.88
653.569	2.88
654.328	0.88
655.087	3.88
655.846	5.88
656.604	5.88
657.363	1.88
658.121	0.88
658.88	2.88
659.638	4.88
660.397	2.88
661.155	4.88
661.913	1.88
662.671	2.88
663.429	2.88
664.187	2.88
664.945	1.88
665.703	0.88
666.46	3.88
667.218	2.88
667.976	2.88
668.733	2.88
669.49	2.88
670.248	0.88
671.005	0.88
671.762	1.88
672.519	2.88
673.276	0.88
674.033	0.88
674.79	-1.12
675.547	3.88
676.304	0.88
677.06	2.88
677.817	1.88
678.574	0.88
679.33	2.88
680.086	2.88
680.843	3.88
681.599	-0.12
682.355	3.88
683.111	2.88
683.867	0.88
684.623	1.88
685.379	1.88
686.135	1.88
686.89	3.88
687.646	1.88
688.402	2.88
689.157	1.88
689.912	1.88
690.668	2.88
691.423	0.88
692.178	0.88
692.933	1.88
693.688	0.88
694.443	1.88
695.198	2.88
695.953	0.88
696.708	2.88
697.462	0.88
698.217	0.88
698.972	3.88
699.726	-0.12
700.48	-0.12
701.235	0.88
701.989	2.88
702.743	2.88
703.497	2.88
704.251	0.88
705.005	0.88
705.759	-1.12
706.513	0.88
707.266	-0.12
708.02	0.88
708.774	2.88
709.527	3.88
710.28	-0.12
711.034	3.88
711.787	0.88
712.54	-0.12
713.293	-1.12
714.046	3.88
714.799	0.88
715.552	0.88
716.305	1.88
717.058	-0.12
717.81	-0.12
718.563	0.88
719.315	-0.12
720.068	1.88
720.82	0.88
721.573	2.88
722.325	0.88
723.077	2.88
723.829	1.88
724.581	-0.12
725.333	1.88
726.085	-1.12
726.836	1.88
727.588	1.88
728.34	2.88
729.091	1.88
729.843	1.88
730.594	2.88
731.346	0.88
732.097	0.88
732.848	1.88
733.599	-0.12
734.35	1.88
735.101	4.88
735.852	1.88
736.603	0.88
737.354	2.88
738.104	0.88
738.855	3.88
739.605	2.88
740.356	0.88
741.106	4.88
741.856	0.88
742.607	1.88
743.357	1.88
744.107	-0.12
744.857	3.88
745.607	3.88
746.357	1.88
747.106	1.88
747.856	2.88
748.606	0.88
749.355	1.88
750.105	1.88
750.854	3.88
751.603	1.88
752.353	1.88
753.102	3.88
753.851	0.88
754.6	2.88
755.349	0.88
756.098	2.88
756.847	4.88
757.595	-1.12
758.344	3.88
759.093	2.88
759.841	3.88
760.589	1.88
761.338	2.88
762.086	1.88
762.834	0.88
763.582	1.88
764.331	1.88
765.079	2.88
765.826	3.88
766.574	1.88
767.322	4.88
768.07	0.88
768.817	4.88
769.565	4.88
770.312	1.88
771.06	2.88
771.807	2.88
772.554	3.88
773.302	2.88
774.049	3.88
774.796	2.88
775.543	5.88
776.29	3.88
777.036	5.88
777.783	3.88
778.53	3.88
779.276	3.88
780.023	3.88
780.769	4.88
781.516	4.88
782.262	5.88
783.008	4.88
783.754	4.88
784.5	5.88
785.246	2.88
785.992	4.88
786.738	4.88
787.484	2.88
788.23	6.88
788.975	1.88
789.721	4.88
790.466	4.88
791.212	4.88
791.957	3.88
792.702	3.88
793.447	5.88
794.193	4.88
794.938	3.88
795.683	2.88
796.427	2.88
797.172	5.88
797.917	3.88
798.662	4.88
799.406	3.88
800.151	1.88
800.895	4.88
801.64	3.88
802.384	4.88
803.128	4.88
803.872	6.88
804.616	1.88
805.36	4.88
806.104	3.88
806.848	4.88
807.592	3.88
808.336	1.88
809.079	5.88
809.823	1.88
810.566	2.88
811.31	2.88
812.053	1.88
812.796	4.88
813.539	2.88
814.283	1.88
815.026	1.88
815.769	1.88
816.511	1.88
817.254	3.88
817.997	2.88
818.74	3.88
819.482	1.88
820.225	3.88
820.967	1.88
821.71	2.88
822.452	1.88
823.194	2.88
823.936	-0.12
824.678	2.88
825.42	2.88
826.162	1.88
826.904	3.88
827.646	1.88
828.388	1.88
829.129	1.88
829.871	1.88
830.612	1.88
831.354	3.88
832.095	3.88
832.836	1.88
833.577	2.88
834.319	0.88
835.06	1.88
835.801	1.88
836.542	2.88
837.282	3.88
838.023	3.88
838.764	2.88
839.504	2.88
840.245	0.88
840.985	-0.12
841.726	2.88
842.466	2.88
843.206	0.88
843.946	0.88
844.687	2.88
845.427	2.88
846.166	1.88
846.906	0.88
847.646	1.88
848.386	2.88
849.125	1.88
849.865	1.88
850.605	1.88
851.344	0.88
852.083	0.88
852.823	0.88
853.562	1.88
854.301	0.88
855.04	2.88
855.779	2.88
856.518	-0.12
857.257	1.88
857.995	-0.12
858.734	1.88
859.473	-0.12
860.211	2.88
860.95	-0.12
861.688	0.88
862.426	1.88
863.165	0.88
863.903	1.88
864.641	1.88
865.379	-0.12
866.117	0.88
866.855	1.88
867.593	-1.12
868.33	2.88
869.068	-0.12
869.806	1.88
870.543	-2.12
871.28	1.88
872.018	-2.12
872.755	1.88
873.492	0.88
874.229	0.88
874.967	0.88
875.703	-0.12
876.44	-0.12
877.177	-0.12
877.914	0.88
878.651	1.88
879.387	-2.12
880.124	-1.12
880.86	-0.12
881.597	0.88
882.333	1.88
883.069	-1.12
883.806	-0.12
884.542	-2.12
885.278	0.88
886.014	-2.12
886.749	1.88
887.485	0.88
888.221	1.88
888.957	-1.12
889.692	-0.12
890.428	-0.12
891.163	-1.12
891.899	1.88
892.634	-0.12
893.369	0.88
894.104	1.88
894.839	0.88
895.574	-0.12
896.309	-0.12
897.044	-0.12
897.779	-2.12
898.514	0.88
899.248	-0.12
899.983	-2.12
900.717	0.88
901.452	0.88
902.186	-1.12
902.92	-0.12
903.654	-0.12
904.389	0.88
905.123	-0.12
905.857	-0.12
906.59	-0.12
907.324	1.88
908.058	0.88
908.792	0.88
909.525	-1.12
910.259	-1.12
910.992	-0.12
911.726	0.88
912.459	-0.12
913.192	-1.12
913.925	1.88
914.658	-0.12
915.391	0.88
916.124	-1.12
916.857	-1.12
917.59	-0.12
918.323	-1.12
919.055	-0.12
919.788	1.88
920.521	-0.12
921.253	-0.12
921.985	-0.12
922.718	-1.12
923.45	-0.12
924.182	-1.12
924.914	0.88
925.646	-3.12
926.378	-2.12
927.11	-0.12
927.841	-0.12
928.573	0.88
929.305	-2.12
930.036	0.88
930.768	-2.12
931.499	1.88
932.23	-2.12
932.962	0.88
933.693	0.88
934.424	-3.12
935.155	0.88
935.886	-0.12
936.617	-0.12
937.348	-0.12
938.078	0.88
938.809	-0.12
939.54	-2.12
940.27	0.88
941.001	-0.12
941.731	-1.12
942.461	-1.12
943.191	0.88
943.922	-1.12
944.652	-2.12
945.382	2.88
946.112	-1.12
946.841	1.88
947.571	-2.12
948.301	-0.12
949.031	-2.12
949.76	-0.12
950.49	-0.12
951.219	-2.12
951.948	1.88
952.678	-0.12
953.407	-0.12
954.136	-0.12
954.865	-2.12
955.594	0.88
956.323	-0.12
957.052	0.88
957.78	1.88
958.509	-2.12
959.238	-1.12
959.966	0.88
960.695	0.88
961.423	0.88
962.151	2.88
962.88	-0.12
963.608	-1.12
964.336	0.88
965.064	-1.12
965.792	-1.12
966.52	-1.12
967.247	-0.12
967.975	-2.12
968.703	1.88
969.43	0.88
970.158	-3.12
970.885	0.88
971.613	-0.12
972.34	0.88
973.067	2.88
973.794	-0.12
974.521	0.88
975.248	-0.12
975.975	0.88
976.702	-0.12
977.429	-0.12
978.156	-3.12
978.882	-0.12
979.609	-1.12
980.335	-1.12
981.062	0.88
981.788	-2.12
982.514	-1.12
983.24	-0.12
983.967	-0.12
984.693	0.88
985.419	-0.12
986.144	-2.12
986.87	0.88
987.596	0.88
988.322	0.88
989.047	-1.12
989.773	-1.12
990.498	0.88
991.224	-1.12
991.949	-0.12
992.674	-0.12
993.399	-0.12
994.124	0.88
994.849	-0.12
995.574	-3.12
996.299	-1.12
997.024	0.88
997.749	-1.12
998.473	0.88
999.198	0.88
999.922	0.88
1000.647	-1.12
1001.371	4.88
1002.095	-2.12
1002.82	-2.12
1003.544	-0.12
1004.268	0.88
1004.992	0.88
1005.716	-0.12
1006.439	-1.12
1007.163	-2.12
1007.887	-0.12
1008.611	-1.12
1009.334	1.88
1010.058	0.88
1010.781	-1.12
1011.504	-1.12
1012.228	0.88
1012.951	-2.12
1013.674	-1.12
1014.397	1.88
1015.12	0.88
