节点500_145_QEPB04081__289__11-33-35-479.txt的数据

Date: Wed Nov 12 11:33:35 CST 2025
User: PC
Spectrometer: QEPB0408
触发模式: 0
积分时间 (秒): 1.000000E-2
Scans to average: 1
启用暗噪声校正: true
启用非线性校正: false
滑动平均宽度: 0
X轴模式: Wavelengths
Number of Pixels in Spectrum: 1044
>>>>>Begin Spectral Data<<<<<
220.843	-0.38
221.644	-1.38
222.444	-0.38
223.244	-0.38
224.045	-1.38
224.845	0.62
225.645	0.62
226.445	1.62
227.245	0.62
228.045	-0.38
228.845	-0.38
229.645	2.62
230.444	0.62
231.244	0.62
232.043	0.62
232.843	-0.38
233.642	0.62
234.442	1.62
235.241	-0.38
236.04	-0.38
236.839	0.62
237.638	0.62
238.437	1.62
239.236	1.62
240.035	1.62
240.833	0.62
241.632	2.62
242.43	1.62
243.229	1.62
244.027	3.62
244.826	2.62
245.624	2.62
246.422	0.62
247.22	3.62
248.018	1.62
248.816	1.62
249.614	2.62
250.412	0.62
251.21	3.62
252.007	2.62
252.805	3.62
253.602	5.62
254.4	2.62
255.197	3.62
255.994	4.62
256.791	5.62
257.589	2.62
258.386	5.62
259.183	4.62
259.979	3.62
260.776	4.62
261.573	4.62
262.37	5.62
263.166	4.62
263.963	4.62
264.759	5.62
265.556	5.62
266.352	6.62
267.148	5.62
267.944	5.62
268.74	6.62
269.536	9.62
270.332	9.62
271.128	7.62
271.924	7.62
272.719	8.62
273.515	6.62
274.311	9.62
275.106	6.62
275.901	7.62
276.697	8.62
277.492	10.62
278.287	9.62
279.082	9.62
279.877	10.62
280.672	12.62
281.467	10.62
282.262	8.62
283.056	9.62
283.851	9.62
284.646	9.62
285.44	10.62
286.234	9.62
287.029	13.62
287.823	11.62
288.617	11.62
289.411	10.62
290.205	10.62
290.999	12.62
291.793	11.62
292.587	13.62
293.381	12.62
294.174	8.62
294.968	7.62
295.761	10.62
296.555	12.62
297.348	8.62
298.141	12.62
298.935	9.62
299.728	9.62
300.521	9.62
301.314	9.62
302.107	10.62
302.899	8.62
303.692	6.62
304.485	9.62
305.277	8.62
306.07	10.62
306.862	8.62
307.655	8.62
308.447	5.62
309.239	8.62
310.031	7.62
310.823	7.62
311.615	8.62
312.407	7.62
313.199	5.62
313.991	5.62
314.783	6.62
315.574	7.62
316.366	6.62
317.157	4.62
317.949	4.62
318.74	7.62
319.531	3.62
320.322	4.62
321.113	4.62
321.904	5.62
322.695	5.62
323.486	4.62
324.277	6.62
325.068	2.62
325.858	5.62
326.649	5.62
327.439	3.62
328.23	5.62
329.02	5.62
329.81	2.62
330.6	1.62
331.391	3.62
332.181	4.62
332.971	2.62
333.76	4.62
334.55	4.62
335.34	7.62
336.13	1.62
336.919	3.62
337.709	2.62
338.498	4.62
339.287	5.62
340.077	4.62
340.866	2.62
341.655	1.62
342.444	5.62
343.233	1.62
344.022	3.62
344.811	3.62
345.6	1.62
346.388	5.62
347.177	1.62
347.965	1.62
348.754	2.62
349.542	2.62
350.33	3.62
351.119	3.62
351.907	4.62
352.695	4.62
353.483	1.62
354.271	1.62
355.059	0.62
355.846	1.62
356.634	2.62
357.422	1.62
358.209	4.62
358.997	0.62
359.784	1.62
360.571	1.62
361.359	4.62
362.146	4.62
362.933	4.62
363.72	3.62
364.507	3.62
365.294	2.62
366.081	2.62
366.867	4.62
367.654	1.62
368.44	2.62
369.227	2.62
370.013	3.62
370.8	3.62
371.586	2.62
372.372	1.62
373.158	2.62
373.944	1.62
374.73	4.62
375.516	2.62
376.302	3.62
377.088	2.62
377.873	3.62
378.659	2.62
379.445	1.62
380.23	2.62
381.015	3.62
381.801	1.62
382.586	1.62
383.371	2.62
384.156	0.62
384.941	2.62
385.726	2.62
386.511	3.62
387.296	2.62
388.08	2.62
388.865	2.62
389.649	2.62
390.434	1.62
391.218	4.62
392.003	2.62
392.787	3.62
393.571	1.62
394.355	3.62
395.139	4.62
395.923	2.62
396.707	4.62
397.491	2.62
398.274	2.62
399.058	2.62
399.842	5.62
400.625	3.62
401.408	5.62
402.192	5.62
402.975	4.62
403.758	4.62
404.541	1.62
405.324	5.62
406.107	4.62
406.89	3.62
407.673	5.62
408.456	3.62
409.238	3.62
410.021	3.62
410.803	4.62
411.586	3.62
412.368	4.62
413.151	4.62
413.933	4.62
414.715	7.62
415.497	3.62
416.279	8.62
417.061	3.62
417.843	6.62
418.624	3.62
419.406	5.62
420.188	4.62
420.969	5.62
421.751	7.62
422.532	5.62
423.313	6.62
424.095	5.62
424.876	4.62
425.657	5.62
426.438	7.62
427.219	7.62
428	6.62
428.78	9.62
429.561	6.62
430.342	5.62
431.122	6.62
431.903	8.62
432.683	6.62
433.464	8.62
434.244	7.62
435.024	9.62
435.804	7.62
436.584	12.62
437.364	8.62
438.144	10.62
438.924	8.62
439.704	11.62
440.483	12.62
441.263	10.62
442.042	11.62
442.822	14.62
443.601	15.62
444.38	12.62
445.16	15.62
445.939	15.62
446.718	19.62
447.497	18.62
448.276	18.62
449.054	23.62
449.833	24.62
450.612	21.62
451.391	25.62
452.169	30.62
452.948	32.62
453.726	36.62
454.504	35.62
455.282	42.62
456.061	44.62
456.839	51.62
457.617	54.62
458.395	58.62
459.172	67.62
459.95	72.62
460.728	82.62
461.506	93.62
462.283	99.62
463.061	114.62
463.838	126.62
464.615	141.62
465.393	153.62
466.17	180.62
466.947	194.62
467.724	219.62
468.501	240.62
469.278	263.62
470.055	304.62
470.831	330.62
471.608	375.62
472.385	406.62
473.161	457.62
473.938	512.62
474.714	566.62
475.49	629.62
476.266	690.62
477.043	765.62
477.819	855.62
478.595	942.62
479.371	1045.62
480.146	1151.62
480.922	1261.62
481.698	1399.62
482.473	1554.62
483.249	1712.62
484.024	1901.62
484.8	2069.62
485.575	2274.62
486.35	2519.62
487.126	2773.62
487.901	3029.62
488.676	3363.62
489.451	3696.62
490.225	4098.62
491	4471.62
491.775	4887.62
492.55	5369.62
493.324	5913.62
494.099	6415.62
494.873	6995.62
495.647	7658.62
496.422	8337.62
497.196	9018.62
497.97	9693.62
498.744	10482.62
499.518	11200.62
500.292	11933.62
501.066	12613.62
501.839	13316.62
502.613	14012.62
503.387	14645.62
504.16	15198.62
504.934	15589.62
505.707	16014.62
506.48	16248.62
507.253	16411.62
508.027	16465.62
508.8	16396.62
509.573	16260.62
510.346	16056.62
511.118	15684.62
511.891	15312.62
512.664	14843.62
513.437	14353.62
514.209	13809.62
514.982	13305.62
515.754	12709.62
516.526	12153.62
517.298	11681.62
518.071	11102.62
518.843	10620.62
519.615	10149.62
520.387	9739.62
521.159	9372.62
521.93	8992.62
522.702	8620.62
523.474	8328.62
524.245	7934.62
525.017	7658.62
525.788	7367.62
526.56	7075.62
527.331	6734.62
528.102	6442.62
528.873	6198.62
529.644	5904.62
530.415	5637.62
531.186	5321.62
531.957	5105.62
532.728	4825.62
533.498	4574.62
534.269	4320.62
535.039	4071.62
535.81	3863.62
536.58	3657.62
537.351	3443.62
538.121	3234.62
538.891	3057.62
539.661	2916.62
540.431	2750.62
541.201	2603.62
541.971	2457.62
542.741	2325.62
543.51	2217.62
544.28	2091.62
545.05	1986.62
545.819	1888.62
546.588	1812.62
547.358	1708.62
548.127	1630.62
548.896	1554.62
549.665	1471.62
550.434	1390.62
551.203	1316.62
551.972	1246.62
552.741	1183.62
553.51	1123.62
554.278	1068.62
555.047	1009.62
555.815	952.62
556.584	897.62
557.352	849.62
558.121	792.62
558.889	753.62
559.657	699.62
560.425	663.62
561.193	628.62
561.961	591.62
562.729	558.62
563.496	533.62
564.264	502.62
565.032	470.62
565.799	439.62
566.567	419.62
567.334	393.62
568.101	370.62
568.869	356.62
569.636	331.62
570.403	317.62
571.17	293.62
571.937	279.62
572.704	260.62
573.471	250.62
574.237	233.62
575.004	218.62
575.771	206.62
576.537	195.62
577.303	178.62
578.07	168.62
578.836	165.62
579.602	151.62
580.368	146.62
581.134	141.62
581.9	128.62
582.666	129.62
583.432	117.62
584.198	107.62
584.964	105.62
585.729	94.62
586.495	91.62
587.26	88.62
588.025	85.62
588.791	81.62
589.556	72.62
590.321	73.62
591.086	67.62
591.851	63.62
592.616	61.62
593.381	54.62
594.146	55.62
594.911	50.62
595.675	49.62
596.44	47.62
597.204	43.62
597.969	43.62
598.733	41.62
599.497	37.62
600.261	34.62
601.025	33.62
601.79	32.62
602.553	33.62
603.317	32.62
604.081	31.62
604.845	27.62
605.609	26.62
606.372	25.62
607.136	25.62
607.899	22.62
608.662	22.62
609.426	21.62
610.189	20.62
610.952	18.62
611.715	17.62
612.478	19.62
613.241	20.62
614.004	15.62
614.767	18.62
615.529	15.62
616.292	15.62
617.055	14.62
617.817	14.62
618.579	15.62
619.342	13.62
620.104	13.62
620.866	10.62
621.628	13.62
622.39	10.62
623.152	11.62
623.914	7.62
624.676	10.62
625.438	9.62
626.199	10.62
626.961	8.62
627.722	8.62
628.484	7.62
629.245	6.62
630.006	8.62
630.768	6.62
631.529	5.62
632.29	9.62
633.051	8.62
633.812	7.62
634.573	6.62
635.333	7.62
636.094	7.62
636.855	7.62
637.615	7.62
638.376	6.62
639.136	4.62
639.896	5.62
640.657	4.62
641.417	5.62
642.177	6.62
642.937	2.62
643.697	4.62
644.457	3.62
645.216	4.62
645.976	3.62
646.736	3.62
647.495	5.62
648.255	5.62
649.014	3.62
649.774	5.62
650.533	4.62
651.292	4.62
652.051	4.62
652.81	2.62
653.569	2.62
654.328	2.62
655.087	4.62
655.846	2.62
656.604	3.62
657.363	3.62
658.121	2.62
658.88	3.62
659.638	1.62
660.397	1.62
661.155	4.62
661.913	0.62
662.671	4.62
663.429	1.62
664.187	2.62
664.945	-0.38
665.703	2.62
666.46	3.62
667.218	1.62
667.976	2.62
668.733	1.62
669.49	3.62
670.248	2.62
671.005	4.62
671.762	3.62
672.519	2.62
673.276	4.62
674.033	1.62
674.79	2.62
675.547	2.62
676.304	2.62
677.06	-0.38
677.817	1.62
678.574	4.62
679.33	1.62
680.086	2.62
680.843	2.62
681.599	2.62
682.355	1.62
683.111	1.62
683.867	4.62
684.623	4.62
685.379	1.62
686.135	1.62
686.89	1.62
687.646	1.62
688.402	0.62
689.157	2.62
689.912	2.62
690.668	2.62
691.423	3.62
692.178	2.62
692.933	4.62
693.688	2.62
694.443	3.62
695.198	2.62
695.953	3.62
696.708	2.62
697.462	2.62
698.217	2.62
698.972	2.62
699.726	1.62
700.48	1.62
701.235	2.62
701.989	2.62
702.743	1.62
703.497	1.62
704.251	0.62
705.005	3.62
705.759	1.62
706.513	0.62
707.266	0.62
708.02	2.62
708.774	3.62
709.527	1.62
710.28	3.62
711.034	1.62
711.787	0.62
712.54	1.62
713.293	1.62
714.046	1.62
714.799	1.62
715.552	2.62
716.305	-0.38
717.058	3.62
717.81	2.62
718.563	-1.38
719.315	0.62
720.068	2.62
720.82	1.62
721.573	2.62
722.325	1.62
723.077	3.62
723.829	2.62
724.581	1.62
725.333	1.62
726.085	4.62
726.836	2.62
727.588	0.62
728.34	2.62
729.091	0.62
729.843	2.62
730.594	1.62
731.346	1.62
732.097	2.62
732.848	3.62
733.599	1.62
734.35	1.62
735.101	0.62
735.852	0.62
736.603	2.62
737.354	2.62
738.104	1.62
738.855	2.62
739.605	1.62
740.356	1.62
741.106	0.62
741.856	4.62
742.607	3.62
743.357	1.62
744.107	1.62
744.857	-0.38
745.607	2.62
746.357	4.62
747.106	0.62
747.856	-1.38
748.606	2.62
749.355	3.62
750.105	2.62
750.854	3.62
751.603	3.62
752.353	2.62
753.102	3.62
753.851	4.62
754.6	0.62
755.349	2.62
756.098	2.62
756.847	1.62
757.595	4.62
758.344	2.62
759.093	4.62
759.841	2.62
760.589	2.62
761.338	3.62
762.086	3.62
762.834	1.62
763.582	2.62
764.331	2.62
765.079	4.62
765.826	2.62
766.574	2.62
767.322	3.62
768.07	4.62
768.817	5.62
769.565	2.62
770.312	4.62
771.06	5.62
771.807	3.62
772.554	3.62
773.302	3.62
774.049	3.62
774.796	4.62
775.543	5.62
776.29	5.62
777.036	3.62
777.783	6.62
778.53	6.62
779.276	5.62
780.023	4.62
780.769	5.62
781.516	2.62
782.262	7.62
783.008	4.62
783.754	7.62
784.5	4.62
785.246	4.62
785.992	4.62
786.738	4.62
787.484	5.62
788.23	7.62
788.975	4.62
789.721	3.62
790.466	5.62
791.212	5.62
791.957	4.62
792.702	5.62
793.447	4.62
794.193	5.62
794.938	3.62
795.683	7.62
796.427	5.62
797.172	5.62
797.917	5.62
798.662	6.62
799.406	7.62
800.151	6.62
800.895	4.62
801.64	3.62
802.384	3.62
803.128	4.62
803.872	2.62
804.616	4.62
805.36	6.62
806.104	4.62
806.848	5.62
807.592	5.62
808.336	3.62
809.079	3.62
809.823	4.62
810.566	3.62
811.31	2.62
812.053	4.62
812.796	5.62
813.539	2.62
814.283	3.62
815.026	2.62
815.769	2.62
816.511	3.62
817.254	4.62
817.997	5.62
818.74	3.62
819.482	2.62
820.225	5.62
820.967	6.62
821.71	2.62
822.452	4.62
823.194	2.62
823.936	1.62
824.678	2.62
825.42	4.62
826.162	2.62
826.904	0.62
827.646	3.62
828.388	2.62
829.129	4.62
829.871	1.62
830.612	2.62
831.354	3.62
832.095	1.62
832.836	2.62
833.577	1.62
834.319	1.62
835.06	4.62
835.801	3.62
836.542	1.62
837.282	0.62
838.023	2.62
838.764	2.62
839.504	2.62
840.245	1.62
840.985	1.62
841.726	2.62
842.466	-0.38
843.206	2.62
843.946	1.62
844.687	-0.38
845.427	1.62
846.166	4.62
846.906	3.62
847.646	0.62
848.386	1.62
849.125	1.62
849.865	3.62
850.605	2.62
851.344	-0.38
852.083	2.62
852.823	3.62
853.562	2.62
854.301	1.62
855.04	1.62
855.779	2.62
856.518	1.62
857.257	0.62
857.995	0.62
858.734	0.62
859.473	1.62
860.211	3.62
860.95	1.62
861.688	1.62
862.426	1.62
863.165	-0.38
863.903	1.62
864.641	3.62
865.379	2.62
866.117	-0.38
866.855	-0.38
867.593	3.62
868.33	-1.38
869.068	2.62
869.806	1.62
870.543	-0.38
871.28	1.62
872.018	-1.38
872.755	2.62
873.492	2.62
874.229	0.62
874.967	1.62
875.703	2.62
876.44	2.62
877.177	0.62
877.914	-0.38
878.651	-0.38
879.387	-0.38
880.124	-1.38
880.86	-0.38
881.597	-1.38
882.333	1.62
883.069	0.62
883.806	1.62
884.542	2.62
885.278	-1.38
886.014	1.62
886.749	3.62
887.485	-0.38
888.221	2.62
888.957	1.62
889.692	1.62
890.428	0.62
891.163	-0.38
891.899	-0.38
892.634	0.62
893.369	0.62
894.104	1.62
894.839	1.62
895.574	0.62
896.309	1.62
897.044	0.62
897.779	-2.38
898.514	0.62
899.248	1.62
899.983	1.62
900.717	1.62
901.452	-0.38
902.186	1.62
902.92	-1.38
903.654	-1.38
904.389	-1.38
905.123	-0.38
905.857	1.62
906.59	0.62
907.324	0.62
908.058	1.62
908.792	0.62
909.525	2.62
910.259	1.62
910.992	1.62
911.726	0.62
912.459	0.62
913.192	-0.38
913.925	2.62
914.658	1.62
915.391	1.62
916.124	-0.38
916.857	1.62
917.59	1.62
918.323	0.62
919.055	1.62
919.788	0.62
920.521	0.62
921.253	0.62
921.985	-0.38
922.718	0.62
923.45	-0.38
924.182	1.62
924.914	-0.38
925.646	0.62
926.378	3.62
927.11	-0.38
927.841	-0.38
928.573	1.62
929.305	1.62
930.036	0.62
930.768	-0.38
931.499	1.62
932.23	-2.38
932.962	1.62
933.693	0.62
934.424	0.62
935.155	0.62
935.886	1.62
936.617	-0.38
937.348	-1.38
938.078	1.62
938.809	0.62
939.54	0.62
940.27	0.62
941.001	-0.38
941.731	-0.38
942.461	0.62
943.191	-0.38
943.922	1.62
944.652	1.62
945.382	1.62
946.112	1.62
946.841	-0.38
947.571	-0.38
948.301	0.62
949.031	1.62
949.76	1.62
950.49	0.62
951.219	0.62
951.948	2.62
952.678	1.62
953.407	-0.38
954.136	-0.38
954.865	1.62
955.594	2.62
956.323	-1.38
957.052	0.62
957.78	1.62
958.509	0.62
959.238	1.62
959.966	1.62
960.695	0.62
961.423	0.62
962.151	-0.38
962.88	-1.38
963.608	-2.38
964.336	0.62
965.064	1.62
965.792	0.62
966.52	-0.38
967.247	-0.38
967.975	-0.38
968.703	-1.38
969.43	-0.38
970.158	1.62
970.885	0.62
971.613	-1.38
972.34	-0.38
973.067	0.62
973.794	-0.38
974.521	1.62
975.248	-1.38
975.975	2.62
976.702	-3.38
977.429	0.62
978.156	0.62
978.882	-1.38
979.609	0.62
980.335	0.62
981.062	-0.38
981.788	-1.38
982.514	-0.38
983.24	1.62
983.967	0.62
984.693	1.62
985.419	-0.38
986.144	0.62
986.87	-0.38
987.596	1.62
988.322	2.62
989.047	-1.38
989.773	2.62
990.498	0.62
991.224	0.62
991.949	0.62
992.674	-0.38
993.399	-0.38
994.124	-0.38
994.849	2.62
995.574	0.62
996.299	3.62
997.024	-1.38
997.749	0.62
998.473	-0.38
999.198	-1.38
999.922	-0.38
1000.647	-0.38
1001.371	4.62
1002.095	-1.38
1002.82	-0.38
1003.544	-1.38
1004.268	0.62
1004.992	-3.38
1005.716	-3.38
1006.439	-1.38
1007.163	2.62
1007.887	-1.38
1008.611	-0.38
1009.334	0.62
1010.058	1.62
1010.781	-2.38
1011.504	-0.38
1012.228	2.62
1012.951	-0.38
1013.674	-1.38
1014.397	1.62
1015.12	-1.38
