节点500_145_QEPB04081__169__11-31-39-536.txt的数据

Date: Wed Nov 12 11:31:39 CST 2025
User: PC
Spectrometer: QEPB0408
触发模式: 0
积分时间 (秒): 1.000000E-2
Scans to average: 1
启用暗噪声校正: true
启用非线性校正: false
滑动平均宽度: 0
X轴模式: Wavelengths
Number of Pixels in Spectrum: 1044
>>>>>Begin Spectral Data<<<<<
220.843	1.62
221.644	-0.38
222.444	0.62
223.244	-2.38
224.045	1.62
224.845	1.62
225.645	-1.38
226.445	1.62
227.245	-0.38
228.045	0.62
228.845	0.62
229.645	0.62
230.444	2.62
231.244	0.62
232.043	1.62
232.843	1.62
233.642	0.62
234.442	2.62
235.241	0.62
236.04	1.62
236.839	2.62
237.638	1.62
238.437	-0.38
239.236	0.62
240.035	0.62
240.833	1.62
241.632	2.62
242.43	1.62
243.229	0.62
244.027	1.62
244.826	2.62
245.624	1.62
246.422	2.62
247.22	1.62
248.018	3.62
248.816	2.62
249.614	0.62
250.412	5.62
251.21	2.62
252.007	4.62
252.805	1.62
253.602	0.62
254.4	2.62
255.197	3.62
255.994	2.62
256.791	1.62
257.589	3.62
258.386	6.62
259.183	3.62
259.979	4.62
260.776	4.62
261.573	4.62
262.37	4.62
263.166	5.62
263.963	3.62
264.759	6.62
265.556	6.62
266.352	6.62
267.148	5.62
267.944	9.62
268.74	7.62
269.536	9.62
270.332	8.62
271.128	10.62
271.924	7.62
272.719	9.62
273.515	8.62
274.311	7.62
275.106	9.62
275.901	6.62
276.697	9.62
277.492	8.62
278.287	12.62
279.082	11.62
279.877	7.62
280.672	9.62
281.467	11.62
282.262	11.62
283.056	11.62
283.851	10.62
284.646	11.62
285.44	10.62
286.234	9.62
287.029	11.62
287.823	12.62
288.617	9.62
289.411	11.62
290.205	8.62
290.999	11.62
291.793	11.62
292.587	13.62
293.381	10.62
294.174	9.62
294.968	9.62
295.761	10.62
296.555	9.62
297.348	10.62
298.141	10.62
298.935	14.62
299.728	11.62
300.521	8.62
301.314	9.62
302.107	8.62
302.899	7.62
303.692	9.62
304.485	8.62
305.277	7.62
306.07	9.62
306.862	11.62
307.655	5.62
308.447	9.62
309.239	8.62
310.031	6.62
310.823	6.62
311.615	7.62
312.407	5.62
313.199	4.62
313.991	8.62
314.783	6.62
315.574	5.62
316.366	6.62
317.157	4.62
317.949	7.62
318.74	5.62
319.531	3.62
320.322	6.62
321.113	5.62
321.904	2.62
322.695	4.62
323.486	8.62
324.277	5.62
325.068	4.62
325.858	3.62
326.649	2.62
327.439	3.62
328.23	4.62
329.02	5.62
329.81	5.62
330.6	4.62
331.391	3.62
332.181	4.62
332.971	4.62
333.76	3.62
334.55	3.62
335.34	3.62
336.13	3.62
336.919	5.62
337.709	1.62
338.498	3.62
339.287	2.62
340.077	3.62
340.866	4.62
341.655	5.62
342.444	2.62
343.233	1.62
344.022	3.62
344.811	3.62
345.6	4.62
346.388	2.62
347.177	5.62
347.965	4.62
348.754	5.62
349.542	2.62
350.33	3.62
351.119	3.62
351.907	3.62
352.695	4.62
353.483	5.62
354.271	4.62
355.059	2.62
355.846	2.62
356.634	4.62
357.422	2.62
358.209	2.62
358.997	5.62
359.784	2.62
360.571	5.62
361.359	2.62
362.146	4.62
362.933	3.62
363.72	2.62
364.507	2.62
365.294	3.62
366.081	2.62
366.867	1.62
367.654	2.62
368.44	1.62
369.227	2.62
370.013	4.62
370.8	1.62
371.586	2.62
372.372	3.62
373.158	1.62
373.944	4.62
374.73	2.62
375.516	3.62
376.302	2.62
377.088	3.62
377.873	3.62
378.659	4.62
379.445	1.62
380.23	3.62
381.015	4.62
381.801	4.62
382.586	3.62
383.371	2.62
384.156	1.62
384.941	3.62
385.726	-0.38
386.511	6.62
387.296	3.62
388.08	3.62
388.865	3.62
389.649	1.62
390.434	2.62
391.218	5.62
392.003	1.62
392.787	4.62
393.571	4.62
394.355	5.62
395.139	4.62
395.923	2.62
396.707	3.62
397.491	5.62
398.274	4.62
399.058	3.62
399.842	2.62
400.625	5.62
401.408	1.62
402.192	4.62
402.975	5.62
403.758	3.62
404.541	4.62
405.324	4.62
406.107	4.62
406.89	2.62
407.673	3.62
408.456	3.62
409.238	5.62
410.021	3.62
410.803	3.62
411.586	6.62
412.368	4.62
413.151	4.62
413.933	7.62
414.715	6.62
415.497	5.62
416.279	7.62
417.061	6.62
417.843	5.62
418.624	5.62
419.406	7.62
420.188	5.62
420.969	6.62
421.751	4.62
422.532	6.62
423.313	6.62
424.095	5.62
424.876	6.62
425.657	6.62
426.438	7.62
427.219	5.62
428	5.62
428.78	10.62
429.561	9.62
430.342	7.62
431.122	8.62
431.903	7.62
432.683	6.62
433.464	8.62
434.244	9.62
435.024	9.62
435.804	9.62
436.584	11.62
437.364	10.62
438.144	10.62
438.924	10.62
439.704	12.62
440.483	10.62
441.263	11.62
442.042	14.62
442.822	13.62
443.601	14.62
444.38	14.62
445.16	15.62
445.939	17.62
446.718	17.62
447.497	19.62
448.276	20.62
449.054	22.62
449.833	22.62
450.612	25.62
451.391	24.62
452.169	28.62
452.948	30.62
453.726	30.62
454.504	36.62
455.282	37.62
456.061	42.62
456.839	48.62
457.617	49.62
458.395	57.62
459.172	63.62
459.95	67.62
460.728	77.62
461.506	88.62
462.283	95.62
463.061	104.62
463.838	118.62
464.615	130.62
465.393	153.62
466.17	160.62
466.947	187.62
467.724	206.62
468.501	231.62
469.278	256.62
470.055	280.62
470.831	323.62
471.608	354.62
472.385	389.62
473.161	449.62
473.938	493.62
474.714	549.62
475.49	607.62
476.266	676.62
477.043	756.62
477.819	836.62
478.595	934.62
479.371	1029.62
480.146	1130.62
480.922	1266.62
481.698	1387.62
482.473	1533.62
483.249	1708.62
484.024	1893.62
484.8	2092.62
485.575	2318.62
486.35	2565.62
487.126	2849.62
487.901	3138.62
488.676	3458.62
489.451	3820.62
490.225	4221.62
491	4670.62
491.775	5143.62
492.55	5644.62
493.324	6222.62
494.099	6832.62
494.873	7446.62
495.647	8093.62
496.422	8855.62
497.196	9564.62
497.97	10339.62
498.744	11123.62
499.518	11940.62
500.292	12691.62
501.066	13464.62
501.839	14153.62
502.613	14857.62
503.387	15511.62
504.16	15997.62
504.934	16461.62
505.707	16737.62
506.48	16999.62
507.253	17060.62
508.027	17083.62
508.8	17004.62
509.573	16744.62
510.346	16410.62
511.118	16027.62
511.891	15535.62
512.664	15016.62
513.437	14442.62
514.209	13811.62
514.982	13257.62
515.754	12698.62
516.526	12104.62
517.298	11546.62
518.071	11008.62
518.843	10529.62
519.615	10107.62
520.387	9667.62
521.159	9292.62
521.93	8908.62
522.702	8512.62
523.474	8214.62
524.245	7892.62
525.017	7567.62
525.788	7325.62
526.56	6970.62
527.331	6680.62
528.102	6410.62
528.873	6126.62
529.644	5850.62
530.415	5572.62
531.186	5263.62
531.957	4979.62
532.728	4700.62
533.498	4472.62
534.269	4245.62
535.039	3983.62
535.81	3753.62
536.58	3546.62
537.351	3340.62
538.121	3181.62
538.891	2985.62
539.661	2831.62
540.431	2662.62
541.201	2529.62
541.971	2408.62
542.741	2273.62
543.51	2160.62
544.28	2050.62
545.05	1941.62
545.819	1863.62
546.588	1777.62
547.358	1693.62
548.127	1601.62
548.896	1517.62
549.665	1448.62
550.434	1367.62
551.203	1291.62
551.972	1221.62
552.741	1159.62
553.51	1089.62
554.278	1053.62
555.047	967.62
555.815	910.62
556.584	867.62
557.352	811.62
558.121	771.62
558.889	718.62
559.657	681.62
560.425	643.62
561.193	604.62
561.961	569.62
562.729	540.62
563.496	504.62
564.264	480.62
565.032	444.62
565.799	427.62
566.567	402.62
567.334	379.62
568.101	356.62
568.869	336.62
569.636	328.62
570.403	305.62
571.17	287.62
571.937	273.62
572.704	255.62
573.471	244.62
574.237	222.62
575.004	211.62
575.771	195.62
576.537	190.62
577.303	172.62
578.07	167.62
578.836	155.62
579.602	144.62
580.368	139.62
581.134	131.62
581.9	128.62
582.666	118.62
583.432	110.62
584.198	108.62
584.964	96.62
585.729	91.62
586.495	88.62
587.26	83.62
588.025	79.62
588.791	74.62
589.556	71.62
590.321	71.62
591.086	62.62
591.851	62.62
592.616	60.62
593.381	54.62
594.146	52.62
594.911	51.62
595.675	44.62
596.44	44.62
597.204	40.62
597.969	38.62
598.733	39.62
599.497	37.62
600.261	37.62
601.025	35.62
601.79	33.62
602.553	32.62
603.317	31.62
604.081	29.62
604.845	26.62
605.609	24.62
606.372	20.62
607.136	21.62
607.899	21.62
608.662	23.62
609.426	20.62
610.189	19.62
610.952	20.62
611.715	17.62
612.478	18.62
613.241	15.62
614.004	18.62
614.767	15.62
615.529	15.62
616.292	14.62
617.055	13.62
617.817	13.62
618.579	12.62
619.342	14.62
620.104	13.62
620.866	14.62
621.628	13.62
622.39	12.62
623.152	10.62
623.914	10.62
624.676	11.62
625.438	8.62
626.199	9.62
626.961	7.62
627.722	9.62
628.484	11.62
629.245	6.62
630.006	8.62
630.768	8.62
631.529	5.62
632.29	7.62
633.051	7.62
633.812	8.62
634.573	9.62
635.333	6.62
636.094	5.62
636.855	7.62
637.615	6.62
638.376	3.62
639.136	5.62
639.896	6.62
640.657	4.62
641.417	7.62
642.177	2.62
642.937	4.62
643.697	6.62
644.457	6.62
645.216	5.62
645.976	7.62
646.736	4.62
647.495	5.62
648.255	4.62
649.014	1.62
649.774	4.62
650.533	5.62
651.292	5.62
652.051	4.62
652.81	4.62
653.569	3.62
654.328	3.62
655.087	2.62
655.846	2.62
656.604	5.62
657.363	5.62
658.121	3.62
658.88	4.62
659.638	5.62
660.397	5.62
661.155	2.62
661.913	2.62
662.671	5.62
663.429	2.62
664.187	7.62
664.945	2.62
665.703	3.62
666.46	1.62
667.218	2.62
667.976	4.62
668.733	3.62
669.49	3.62
670.248	5.62
671.005	2.62
671.762	2.62
672.519	4.62
673.276	5.62
674.033	3.62
674.79	4.62
675.547	1.62
676.304	0.62
677.06	2.62
677.817	1.62
678.574	5.62
679.33	2.62
680.086	1.62
680.843	2.62
681.599	2.62
682.355	3.62
683.111	2.62
683.867	3.62
684.623	0.62
685.379	2.62
686.135	0.62
686.89	1.62
687.646	0.62
688.402	0.62
689.157	4.62
689.912	2.62
690.668	2.62
691.423	0.62
692.178	3.62
692.933	5.62
693.688	2.62
694.443	2.62
695.198	2.62
695.953	3.62
696.708	3.62
697.462	2.62
698.217	3.62
698.972	0.62
699.726	1.62
700.48	3.62
701.235	1.62
701.989	2.62
702.743	3.62
703.497	0.62
704.251	1.62
705.005	3.62
705.759	2.62
706.513	3.62
707.266	1.62
708.02	4.62
708.774	0.62
709.527	1.62
710.28	2.62
711.034	4.62
711.787	1.62
712.54	2.62
713.293	1.62
714.046	3.62
714.799	2.62
715.552	2.62
716.305	3.62
717.058	0.62
717.81	2.62
718.563	2.62
719.315	1.62
720.068	2.62
720.82	2.62
721.573	2.62
722.325	-0.38
723.077	2.62
723.829	1.62
724.581	4.62
725.333	3.62
726.085	0.62
726.836	4.62
727.588	1.62
728.34	1.62
729.091	2.62
729.843	2.62
730.594	2.62
731.346	2.62
732.097	1.62
732.848	2.62
733.599	3.62
734.35	3.62
735.101	2.62
735.852	3.62
736.603	1.62
737.354	3.62
738.104	2.62
738.855	2.62
739.605	2.62
740.356	0.62
741.106	3.62
741.856	0.62
742.607	1.62
743.357	2.62
744.107	1.62
744.857	2.62
745.607	1.62
746.357	3.62
747.106	1.62
747.856	2.62
748.606	1.62
749.355	2.62
750.105	1.62
750.854	2.62
751.603	1.62
752.353	2.62
753.102	2.62
753.851	1.62
754.6	3.62
755.349	2.62
756.098	3.62
756.847	2.62
757.595	1.62
758.344	3.62
759.093	2.62
759.841	3.62
760.589	2.62
761.338	3.62
762.086	3.62
762.834	4.62
763.582	3.62
764.331	5.62
765.079	3.62
765.826	5.62
766.574	3.62
767.322	3.62
768.07	3.62
768.817	5.62
769.565	2.62
770.312	4.62
771.06	2.62
771.807	5.62
772.554	3.62
773.302	4.62
774.049	5.62
774.796	5.62
775.543	5.62
776.29	3.62
777.036	5.62
777.783	1.62
778.53	5.62
779.276	5.62
780.023	2.62
780.769	6.62
781.516	7.62
782.262	6.62
783.008	6.62
783.754	3.62
784.5	6.62
785.246	9.62
785.992	6.62
786.738	5.62
787.484	6.62
788.23	6.62
788.975	4.62
789.721	5.62
790.466	5.62
791.212	3.62
791.957	5.62
792.702	5.62
793.447	5.62
794.193	2.62
794.938	6.62
795.683	5.62
796.427	4.62
797.172	2.62
797.917	6.62
798.662	6.62
799.406	3.62
800.151	5.62
800.895	4.62
801.64	3.62
802.384	5.62
803.128	4.62
803.872	5.62
804.616	6.62
805.36	4.62
806.104	4.62
806.848	3.62
807.592	4.62
808.336	1.62
809.079	5.62
809.823	3.62
810.566	6.62
811.31	2.62
812.053	2.62
812.796	6.62
813.539	3.62
814.283	4.62
815.026	2.62
815.769	2.62
816.511	3.62
817.254	1.62
817.997	3.62
818.74	2.62
819.482	1.62
820.225	4.62
820.967	3.62
821.71	2.62
822.452	4.62
823.194	3.62
823.936	1.62
824.678	3.62
825.42	3.62
826.162	3.62
826.904	3.62
827.646	1.62
828.388	4.62
829.129	1.62
829.871	3.62
830.612	5.62
831.354	4.62
832.095	2.62
832.836	2.62
833.577	4.62
834.319	2.62
835.06	2.62
835.801	1.62
836.542	3.62
837.282	1.62
838.023	0.62
838.764	2.62
839.504	2.62
840.245	1.62
840.985	2.62
841.726	2.62
842.466	2.62
843.206	-0.38
843.946	3.62
844.687	3.62
845.427	3.62
846.166	2.62
846.906	1.62
847.646	1.62
848.386	1.62
849.125	1.62
849.865	0.62
850.605	3.62
851.344	1.62
852.083	0.62
852.823	1.62
853.562	1.62
854.301	1.62
855.04	2.62
855.779	1.62
856.518	1.62
857.257	1.62
857.995	2.62
858.734	2.62
859.473	4.62
860.211	3.62
860.95	1.62
861.688	1.62
862.426	0.62
863.165	0.62
863.903	2.62
864.641	0.62
865.379	0.62
866.117	3.62
866.855	1.62
867.593	0.62
868.33	2.62
869.068	0.62
869.806	1.62
870.543	0.62
871.28	2.62
872.018	1.62
872.755	0.62
873.492	1.62
874.229	1.62
874.967	3.62
875.703	1.62
876.44	1.62
877.177	1.62
877.914	0.62
878.651	1.62
879.387	0.62
880.124	1.62
880.86	1.62
881.597	1.62
882.333	-0.38
883.069	1.62
883.806	1.62
884.542	0.62
885.278	2.62
886.014	-1.38
886.749	0.62
887.485	0.62
888.221	0.62
888.957	1.62
889.692	-0.38
890.428	1.62
891.163	0.62
891.899	0.62
892.634	1.62
893.369	-0.38
894.104	2.62
894.839	1.62
895.574	1.62
896.309	1.62
897.044	1.62
897.779	1.62
898.514	-1.38
899.248	2.62
899.983	0.62
900.717	1.62
901.452	1.62
902.186	-0.38
902.92	2.62
903.654	0.62
904.389	1.62
905.123	-0.38
905.857	-0.38
906.59	0.62
907.324	0.62
908.058	0.62
908.792	-0.38
909.525	3.62
910.259	2.62
910.992	0.62
911.726	0.62
912.459	0.62
913.192	0.62
913.925	-0.38
914.658	2.62
915.391	1.62
916.124	-0.38
916.857	-1.38
917.59	0.62
918.323	1.62
919.055	0.62
919.788	1.62
920.521	-0.38
921.253	-1.38
921.985	-0.38
922.718	0.62
923.45	-0.38
924.182	1.62
924.914	0.62
925.646	0.62
926.378	1.62
927.11	2.62
927.841	0.62
928.573	0.62
929.305	0.62
930.036	0.62
930.768	-0.38
931.499	0.62
932.23	0.62
932.962	-2.38
933.693	3.62
934.424	1.62
935.155	3.62
935.886	-2.38
936.617	-0.38
937.348	0.62
938.078	0.62
938.809	3.62
939.54	0.62
940.27	-1.38
941.001	0.62
941.731	1.62
942.461	0.62
943.191	0.62
943.922	2.62
944.652	0.62
945.382	1.62
946.112	0.62
946.841	-0.38
947.571	1.62
948.301	3.62
949.031	1.62
949.76	2.62
950.49	0.62
951.219	2.62
951.948	1.62
952.678	1.62
953.407	2.62
954.136	1.62
954.865	1.62
955.594	0.62
956.323	1.62
957.052	2.62
957.78	2.62
958.509	0.62
959.238	0.62
959.966	1.62
960.695	0.62
961.423	0.62
962.151	-1.38
962.88	2.62
963.608	-1.38
964.336	-0.38
965.064	0.62
965.792	-1.38
966.52	1.62
967.247	-0.38
967.975	-0.38
968.703	1.62
969.43	1.62
970.158	0.62
970.885	-0.38
971.613	-0.38
972.34	-0.38
973.067	2.62
973.794	-0.38
974.521	-0.38
975.248	-0.38
975.975	-1.38
976.702	0.62
977.429	1.62
978.156	1.62
978.882	0.62
979.609	1.62
980.335	0.62
981.062	-1.38
981.788	1.62
982.514	-0.38
983.24	1.62
983.967	0.62
984.693	0.62
985.419	1.62
986.144	1.62
986.87	0.62
987.596	2.62
988.322	1.62
989.047	-0.38
989.773	0.62
990.498	3.62
991.224	0.62
991.949	1.62
992.674	0.62
993.399	2.62
994.124	1.62
994.849	0.62
995.574	1.62
996.299	-0.38
997.024	1.62
997.749	0.62
998.473	0.62
999.198	0.62
999.922	1.62
1000.647	0.62
1001.371	1.62
1002.095	-0.38
1002.82	-0.38
1003.544	-0.38
1004.268	1.62
1004.992	-0.38
1005.716	-0.38
1006.439	2.62
1007.163	1.62
1007.887	-0.38
1008.611	0.62
1009.334	1.62
1010.058	0.62
1010.781	-0.38
1011.504	3.62
1012.228	1.62
1012.951	0.62
1013.674	0.62
1014.397	-0.38
1015.12	-1.38
