节点500_145_QEPB04081__616__11-38-45-300.txt的数据

Date: Wed Nov 12 11:38:45 CST 2025
User: PC
Spectrometer: QEPB0408
触发模式: 0
积分时间 (秒): 1.000000E-2
Scans to average: 1
启用暗噪声校正: true
启用非线性校正: false
滑动平均宽度: 0
X轴模式: Wavelengths
Number of Pixels in Spectrum: 1044
>>>>>Begin Spectral Data<<<<<
220.843	-1.62
221.644	1.38
222.444	-1.62
223.244	-2.62
224.045	1.38
224.845	-0.62
225.645	1.38
226.445	0.38
227.245	-1.62
228.045	-0.62
228.845	0.38
229.645	-1.62
230.444	-0.62
231.244	-0.62
232.043	0.38
232.843	-1.62
233.642	1.38
234.442	0.38
235.241	-0.62
236.04	-0.62
236.839	1.38
237.638	1.38
238.437	0.38
239.236	0.38
240.035	2.38
240.833	2.38
241.632	0.38
242.43	-1.62
243.229	0.38
244.027	2.38
244.826	2.38
245.624	-0.62
246.422	4.38
247.22	1.38
248.018	1.38
248.816	3.38
249.614	1.38
250.412	1.38
251.21	3.38
252.007	2.38
252.805	3.38
253.602	2.38
254.4	4.38
255.197	2.38
255.994	2.38
256.791	1.38
257.589	4.38
258.386	5.38
259.183	2.38
259.979	8.38
260.776	3.38
261.573	4.38
262.37	4.38
263.166	4.38
263.963	5.38
264.759	5.38
265.556	7.38
266.352	5.38
267.148	3.38
267.944	7.38
268.74	4.38
269.536	5.38
270.332	5.38
271.128	6.38
271.924	6.38
272.719	6.38
273.515	6.38
274.311	6.38
275.106	7.38
275.901	5.38
276.697	6.38
277.492	7.38
278.287	7.38
279.082	9.38
279.877	9.38
280.672	11.38
281.467	10.38
282.262	9.38
283.056	10.38
283.851	4.38
284.646	10.38
285.44	8.38
286.234	10.38
287.029	9.38
287.823	10.38
288.617	8.38
289.411	11.38
290.205	10.38
290.999	11.38
291.793	12.38
292.587	9.38
293.381	11.38
294.174	11.38
294.968	10.38
295.761	10.38
296.555	8.38
297.348	8.38
298.141	8.38
298.935	9.38
299.728	9.38
300.521	7.38
301.314	5.38
302.107	7.38
302.899	8.38
303.692	6.38
304.485	9.38
305.277	8.38
306.07	6.38
306.862	9.38
307.655	8.38
308.447	7.38
309.239	6.38
310.031	7.38
310.823	8.38
311.615	6.38
312.407	6.38
313.199	7.38
313.991	5.38
314.783	6.38
315.574	7.38
316.366	5.38
317.157	7.38
317.949	5.38
318.74	5.38
319.531	6.38
320.322	3.38
321.113	2.38
321.904	3.38
322.695	3.38
323.486	5.38
324.277	4.38
325.068	8.38
325.858	2.38
326.649	6.38
327.439	6.38
328.23	6.38
329.02	4.38
329.81	5.38
330.6	2.38
331.391	5.38
332.181	5.38
332.971	2.38
333.76	4.38
334.55	4.38
335.34	1.38
336.13	5.38
336.919	4.38
337.709	2.38
338.498	2.38
339.287	5.38
340.077	5.38
340.866	3.38
341.655	4.38
342.444	2.38
343.233	2.38
344.022	1.38
344.811	2.38
345.6	3.38
346.388	2.38
347.177	3.38
347.965	6.38
348.754	3.38
349.542	4.38
350.33	1.38
351.119	2.38
351.907	2.38
352.695	5.38
353.483	4.38
354.271	1.38
355.059	2.38
355.846	3.38
356.634	2.38
357.422	3.38
358.209	3.38
358.997	2.38
359.784	5.38
360.571	5.38
361.359	2.38
362.146	3.38
362.933	1.38
363.72	3.38
364.507	1.38
365.294	2.38
366.081	1.38
366.867	1.38
367.654	3.38
368.44	2.38
369.227	1.38
370.013	2.38
370.8	2.38
371.586	2.38
372.372	2.38
373.158	4.38
373.944	3.38
374.73	2.38
375.516	0.38
376.302	1.38
377.088	2.38
377.873	1.38
378.659	3.38
379.445	2.38
380.23	3.38
381.015	4.38
381.801	2.38
382.586	4.38
383.371	1.38
384.156	4.38
384.941	2.38
385.726	2.38
386.511	2.38
387.296	2.38
388.08	4.38
388.865	3.38
389.649	0.38
390.434	3.38
391.218	4.38
392.003	3.38
392.787	2.38
393.571	4.38
394.355	3.38
395.139	5.38
395.923	3.38
396.707	2.38
397.491	1.38
398.274	4.38
399.058	2.38
399.842	5.38
400.625	3.38
401.408	2.38
402.192	4.38
402.975	3.38
403.758	0.38
404.541	3.38
405.324	4.38
406.107	2.38
406.89	3.38
407.673	1.38
408.456	5.38
409.238	4.38
410.021	3.38
410.803	6.38
411.586	3.38
412.368	2.38
413.151	5.38
413.933	4.38
414.715	1.38
415.497	6.38
416.279	4.38
417.061	4.38
417.843	4.38
418.624	6.38
419.406	3.38
420.188	2.38
420.969	3.38
421.751	5.38
422.532	4.38
423.313	5.38
424.095	8.38
424.876	6.38
425.657	5.38
426.438	7.38
427.219	5.38
428	5.38
428.78	5.38
429.561	8.38
430.342	7.38
431.122	8.38
431.903	8.38
432.683	8.38
433.464	8.38
434.244	7.38
435.024	6.38
435.804	10.38
436.584	8.38
437.364	10.38
438.144	9.38
438.924	9.38
439.704	10.38
440.483	9.38
441.263	12.38
442.042	13.38
442.822	12.38
443.601	13.38
444.38	15.38
445.16	17.38
445.939	16.38
446.718	18.38
447.497	19.38
448.276	21.38
449.054	23.38
449.833	23.38
450.612	29.38
451.391	29.38
452.169	30.38
452.948	34.38
453.726	36.38
454.504	38.38
455.282	45.38
456.061	51.38
456.839	54.38
457.617	63.38
458.395	68.38
459.172	72.38
459.95	81.38
460.728	92.38
461.506	102.38
462.283	115.38
463.061	124.38
463.838	142.38
464.615	154.38
465.393	174.38
466.17	188.38
466.947	216.38
467.724	237.38
468.501	266.38
469.278	293.38
470.055	323.38
470.831	349.38
471.608	396.38
472.385	437.38
473.161	492.38
473.938	528.38
474.714	598.38
475.49	642.38
476.266	727.38
477.043	785.38
477.819	873.38
478.595	958.38
479.371	1045.38
480.146	1155.38
480.922	1279.38
481.698	1388.38
482.473	1513.38
483.249	1683.38
484.024	1825.38
484.8	2007.38
485.575	2214.38
486.35	2385.38
487.126	2636.38
487.901	2869.38
488.676	3133.38
489.451	3423.38
490.225	3734.38
491	4097.38
491.775	4450.38
492.55	4836.38
493.324	5297.38
494.099	5766.38
494.873	6245.38
495.647	6787.38
496.422	7312.38
497.196	7952.38
497.97	8470.38
498.744	9173.38
499.518	9799.38
500.292	10442.38
501.066	11093.38
501.839	11685.38
502.613	12317.38
503.387	12913.38
504.16	13458.38
504.934	13922.38
505.707	14354.38
506.48	14657.38
507.253	14897.38
508.027	15104.38
508.8	15197.38
509.573	15185.38
510.346	15084.38
511.118	14929.38
511.891	14660.38
512.664	14366.38
513.437	13939.38
514.209	13537.38
514.982	13142.38
515.754	12617.38
516.526	12161.38
517.298	11669.38
518.071	11175.38
518.843	10717.38
519.615	10237.38
520.387	9828.38
521.159	9425.38
521.93	9050.38
522.702	8724.38
523.474	8394.38
524.245	8042.38
525.017	7712.38
525.788	7402.38
526.56	7130.38
527.331	6854.38
528.102	6573.38
528.873	6231.38
529.644	6003.38
530.415	5744.38
531.186	5480.38
531.957	5242.38
532.728	4955.38
533.498	4728.38
534.269	4489.38
535.039	4248.38
535.81	4019.38
536.58	3803.38
537.351	3596.38
538.121	3391.38
538.891	3218.38
539.661	3032.38
540.431	2888.38
541.201	2741.38
541.971	2582.38
542.741	2451.38
543.51	2305.38
544.28	2202.38
545.05	2095.38
545.819	1974.38
546.588	1883.38
547.358	1798.38
548.127	1701.38
548.896	1612.38
549.665	1541.38
550.434	1486.38
551.203	1399.38
551.972	1322.38
552.741	1257.38
553.51	1192.38
554.278	1133.38
555.047	1061.38
555.815	997.38
556.584	955.38
557.352	901.38
558.121	847.38
558.889	795.38
559.657	752.38
560.425	709.38
561.193	671.38
561.961	635.38
562.729	603.38
563.496	573.38
564.264	527.38
565.032	508.38
565.799	483.38
566.567	449.38
567.334	412.38
568.101	399.38
568.869	374.38
569.636	365.38
570.403	335.38
571.17	322.38
571.937	300.38
572.704	284.38
573.471	260.38
574.237	243.38
575.004	235.38
575.771	217.38
576.537	210.38
577.303	194.38
578.07	178.38
578.836	171.38
579.602	167.38
580.368	152.38
581.134	146.38
581.9	145.38
582.666	128.38
583.432	124.38
584.198	123.38
584.964	109.38
585.729	104.38
586.495	100.38
587.26	94.38
588.025	90.38
588.791	86.38
589.556	80.38
590.321	78.38
591.086	74.38
591.851	68.38
592.616	65.38
593.381	61.38
594.146	55.38
594.911	53.38
595.675	51.38
596.44	49.38
597.204	45.38
597.969	46.38
598.733	43.38
599.497	39.38
600.261	37.38
601.025	37.38
601.79	36.38
602.553	38.38
603.317	31.38
604.081	29.38
604.845	27.38
605.609	27.38
606.372	26.38
607.136	28.38
607.899	26.38
608.662	23.38
609.426	23.38
610.189	20.38
610.952	22.38
611.715	20.38
612.478	19.38
613.241	20.38
614.004	16.38
614.767	15.38
615.529	14.38
616.292	14.38
617.055	15.38
617.817	16.38
618.579	13.38
619.342	14.38
620.104	13.38
620.866	11.38
621.628	11.38
622.39	9.38
623.152	12.38
623.914	11.38
624.676	13.38
625.438	10.38
626.199	9.38
626.961	9.38
627.722	9.38
628.484	9.38
629.245	7.38
630.006	7.38
630.768	7.38
631.529	9.38
632.29	6.38
633.051	9.38
633.812	6.38
634.573	6.38
635.333	6.38
636.094	7.38
636.855	2.38
637.615	5.38
638.376	7.38
639.136	6.38
639.896	5.38
640.657	5.38
641.417	2.38
642.177	6.38
642.937	4.38
643.697	2.38
644.457	4.38
645.216	4.38
645.976	3.38
646.736	4.38
647.495	6.38
648.255	5.38
649.014	5.38
649.774	4.38
650.533	5.38
651.292	5.38
652.051	3.38
652.81	4.38
653.569	3.38
654.328	4.38
655.087	2.38
655.846	2.38
656.604	3.38
657.363	3.38
658.121	2.38
658.88	2.38
659.638	5.38
660.397	5.38
661.155	2.38
661.913	3.38
662.671	2.38
663.429	4.38
664.187	0.38
664.945	3.38
665.703	3.38
666.46	2.38
667.218	2.38
667.976	4.38
668.733	5.38
669.49	1.38
670.248	1.38
671.005	1.38
671.762	2.38
672.519	2.38
673.276	1.38
674.033	2.38
674.79	2.38
675.547	3.38
676.304	1.38
677.06	2.38
677.817	1.38
678.574	2.38
679.33	3.38
680.086	2.38
680.843	1.38
681.599	2.38
682.355	0.38
683.111	5.38
683.867	2.38
684.623	1.38
685.379	2.38
686.135	1.38
686.89	-0.62
687.646	2.38
688.402	2.38
689.157	1.38
689.912	2.38
690.668	3.38
691.423	1.38
692.178	3.38
692.933	2.38
693.688	2.38
694.443	2.38
695.198	2.38
695.953	-0.62
696.708	2.38
697.462	0.38
698.217	1.38
698.972	1.38
699.726	0.38
700.48	0.38
701.235	1.38
701.989	1.38
702.743	2.38
703.497	2.38
704.251	2.38
705.005	2.38
705.759	1.38
706.513	1.38
707.266	1.38
708.02	3.38
708.774	2.38
709.527	3.38
710.28	1.38
711.034	3.38
711.787	0.38
712.54	1.38
713.293	1.38
714.046	0.38
714.799	3.38
715.552	2.38
716.305	2.38
717.058	1.38
717.81	1.38
718.563	3.38
719.315	2.38
720.068	3.38
720.82	2.38
721.573	1.38
722.325	3.38
723.077	1.38
723.829	1.38
724.581	0.38
725.333	1.38
726.085	1.38
726.836	1.38
727.588	2.38
728.34	1.38
729.091	2.38
729.843	1.38
730.594	2.38
731.346	4.38
732.097	1.38
732.848	0.38
733.599	2.38
734.35	2.38
735.101	3.38
735.852	4.38
736.603	3.38
737.354	3.38
738.104	1.38
738.855	1.38
739.605	3.38
740.356	1.38
741.106	2.38
741.856	4.38
742.607	3.38
743.357	2.38
744.107	0.38
744.857	3.38
745.607	-1.62
746.357	3.38
747.106	-0.62
747.856	2.38
748.606	3.38
749.355	1.38
750.105	1.38
750.854	0.38
751.603	1.38
752.353	3.38
753.102	2.38
753.851	1.38
754.6	2.38
755.349	2.38
756.098	2.38
756.847	2.38
757.595	5.38
758.344	2.38
759.093	3.38
759.841	0.38
760.589	4.38
761.338	0.38
762.086	1.38
762.834	5.38
763.582	5.38
764.331	3.38
765.079	2.38
765.826	0.38
766.574	4.38
767.322	4.38
768.07	4.38
768.817	2.38
769.565	4.38
770.312	5.38
771.06	1.38
771.807	5.38
772.554	2.38
773.302	4.38
774.049	5.38
774.796	6.38
775.543	1.38
776.29	3.38
777.036	2.38
777.783	3.38
778.53	4.38
779.276	4.38
780.023	3.38
780.769	5.38
781.516	4.38
782.262	4.38
783.008	3.38
783.754	5.38
784.5	3.38
785.246	5.38
785.992	5.38
786.738	6.38
787.484	4.38
788.23	4.38
788.975	3.38
789.721	4.38
790.466	4.38
791.212	5.38
791.957	3.38
792.702	4.38
793.447	4.38
794.193	4.38
794.938	3.38
795.683	5.38
796.427	2.38
797.172	5.38
797.917	5.38
798.662	5.38
799.406	3.38
800.151	4.38
800.895	6.38
801.64	4.38
802.384	3.38
803.128	6.38
803.872	4.38
804.616	5.38
805.36	1.38
806.104	3.38
806.848	5.38
807.592	3.38
808.336	4.38
809.079	2.38
809.823	2.38
810.566	2.38
811.31	5.38
812.053	1.38
812.796	5.38
813.539	3.38
814.283	3.38
815.026	4.38
815.769	2.38
816.511	5.38
817.254	2.38
817.997	3.38
818.74	5.38
819.482	1.38
820.225	0.38
820.967	-0.62
821.71	2.38
822.452	1.38
823.194	3.38
823.936	2.38
824.678	3.38
825.42	3.38
826.162	2.38
826.904	5.38
827.646	4.38
828.388	0.38
829.129	2.38
829.871	1.38
830.612	3.38
831.354	2.38
832.095	1.38
832.836	3.38
833.577	0.38
834.319	2.38
835.06	4.38
835.801	2.38
836.542	5.38
837.282	3.38
838.023	2.38
838.764	3.38
839.504	2.38
840.245	-0.62
840.985	2.38
841.726	1.38
842.466	2.38
843.206	2.38
843.946	2.38
844.687	1.38
845.427	1.38
846.166	2.38
846.906	3.38
847.646	3.38
848.386	1.38
849.125	0.38
849.865	0.38
850.605	1.38
851.344	1.38
852.083	2.38
852.823	-0.62
853.562	4.38
854.301	1.38
855.04	1.38
855.779	0.38
856.518	2.38
857.257	1.38
857.995	2.38
858.734	1.38
859.473	0.38
860.211	2.38
860.95	0.38
861.688	1.38
862.426	1.38
863.165	1.38
863.903	1.38
864.641	2.38
865.379	2.38
866.117	0.38
866.855	2.38
867.593	0.38
868.33	0.38
869.068	2.38
869.806	-0.62
870.543	2.38
871.28	1.38
872.018	1.38
872.755	1.38
873.492	1.38
874.229	1.38
874.967	2.38
875.703	2.38
876.44	1.38
877.177	1.38
877.914	0.38
878.651	0.38
879.387	2.38
880.124	0.38
880.86	0.38
881.597	1.38
882.333	2.38
883.069	1.38
883.806	-0.62
884.542	2.38
885.278	0.38
886.014	-0.62
886.749	0.38
887.485	1.38
888.221	1.38
888.957	1.38
889.692	1.38
890.428	-1.62
891.163	1.38
891.899	0.38
892.634	1.38
893.369	0.38
894.104	-0.62
894.839	0.38
895.574	1.38
896.309	0.38
897.044	0.38
897.779	0.38
898.514	0.38
899.248	-0.62
899.983	-1.62
900.717	0.38
901.452	-0.62
902.186	-0.62
902.92	0.38
903.654	0.38
904.389	0.38
905.123	1.38
905.857	-1.62
906.59	1.38
907.324	0.38
908.058	0.38
908.792	1.38
909.525	-1.62
910.259	1.38
910.992	-0.62
911.726	0.38
912.459	0.38
913.192	2.38
913.925	0.38
914.658	-2.62
915.391	2.38
916.124	1.38
916.857	1.38
917.59	0.38
918.323	-0.62
919.055	-0.62
919.788	-2.62
920.521	0.38
921.253	1.38
921.985	0.38
922.718	-0.62
923.45	0.38
924.182	-0.62
924.914	0.38
925.646	1.38
926.378	-0.62
927.11	0.38
927.841	0.38
928.573	-0.62
929.305	2.38
930.036	1.38
930.768	-0.62
931.499	1.38
932.23	1.38
932.962	0.38
933.693	-1.62
934.424	-0.62
935.155	1.38
935.886	1.38
936.617	-0.62
937.348	0.38
938.078	0.38
938.809	-0.62
939.54	0.38
940.27	-0.62
941.001	-0.62
941.731	-1.62
942.461	1.38
943.191	0.38
943.922	0.38
944.652	0.38
945.382	-2.62
946.112	3.38
946.841	0.38
947.571	0.38
948.301	1.38
949.031	-0.62
949.76	-1.62
950.49	1.38
951.219	0.38
951.948	-1.62
952.678	1.38
953.407	0.38
954.136	-0.62
954.865	-0.62
955.594	0.38
956.323	-0.62
957.052	1.38
957.78	-0.62
958.509	1.38
959.238	-0.62
959.966	2.38
960.695	1.38
961.423	1.38
962.151	1.38
962.88	1.38
963.608	0.38
964.336	1.38
965.064	1.38
965.792	-1.62
966.52	0.38
967.247	2.38
967.975	3.38
968.703	2.38
969.43	0.38
970.158	-1.62
970.885	2.38
971.613	-0.62
972.34	0.38
973.067	1.38
973.794	-0.62
974.521	0.38
975.248	0.38
975.975	1.38
976.702	0.38
977.429	-0.62
978.156	1.38
978.882	-0.62
979.609	0.38
980.335	2.38
981.062	-0.62
981.788	0.38
982.514	-0.62
983.24	-1.62
983.967	0.38
984.693	-2.62
985.419	-0.62
986.144	-0.62
986.87	-0.62
987.596	0.38
988.322	0.38
989.047	0.38
989.773	1.38
990.498	-0.62
991.224	0.38
991.949	0.38
992.674	0.38
993.399	0.38
994.124	-1.62
994.849	-1.62
995.574	-0.62
996.299	-1.62
997.024	0.38
997.749	-0.62
998.473	1.38
999.198	0.38
999.922	-1.62
1000.647	1.38
1001.371	3.38
1002.095	-1.62
1002.82	-0.62
1003.544	-1.62
1004.268	-2.62
1004.992	0.38
1005.716	-2.62
1006.439	-0.62
1007.163	-0.62
1007.887	-1.62
1008.611	-1.62
1009.334	-1.62
1010.058	0.38
1010.781	1.38
1011.504	-0.62
1012.228	0.38
1012.951	-1.62
1013.674	-0.62
1014.397	1.38
1015.12	1.38
