节点500_145_QEPB04081__339__11-34-21-549.txt的数据

Date: Wed Nov 12 11:34:21 CST 2025
User: PC
Spectrometer: QEPB0408
触发模式: 0
积分时间 (秒): 1.000000E-2
Scans to average: 1
启用暗噪声校正: true
启用非线性校正: false
滑动平均宽度: 0
X轴模式: Wavelengths
Number of Pixels in Spectrum: 1044
>>>>>Begin Spectral Data<<<<<
220.843	0.38
221.644	-0.62
222.444	2.38
223.244	1.38
224.045	0.38
224.845	1.38
225.645	-0.62
226.445	-1.62
227.245	-2.62
228.045	1.38
228.845	1.38
229.645	-1.62
230.444	2.38
231.244	-1.62
232.043	-0.62
232.843	0.38
233.642	2.38
234.442	0.38
235.241	-0.62
236.04	1.38
236.839	0.38
237.638	2.38
238.437	0.38
239.236	2.38
240.035	1.38
240.833	1.38
241.632	1.38
242.43	2.38
243.229	2.38
244.027	1.38
244.826	3.38
245.624	1.38
246.422	2.38
247.22	1.38
248.018	1.38
248.816	3.38
249.614	1.38
250.412	3.38
251.21	2.38
252.007	-1.62
252.805	2.38
253.602	0.38
254.4	2.38
255.197	3.38
255.994	2.38
256.791	4.38
257.589	3.38
258.386	5.38
259.183	2.38
259.979	6.38
260.776	3.38
261.573	4.38
262.37	3.38
263.166	3.38
263.963	5.38
264.759	5.38
265.556	5.38
266.352	5.38
267.148	7.38
267.944	7.38
268.74	5.38
269.536	7.38
270.332	6.38
271.128	10.38
271.924	8.38
272.719	7.38
273.515	9.38
274.311	8.38
275.106	10.38
275.901	6.38
276.697	8.38
277.492	8.38
278.287	9.38
279.082	9.38
279.877	10.38
280.672	10.38
281.467	10.38
282.262	11.38
283.056	11.38
283.851	9.38
284.646	9.38
285.44	9.38
286.234	11.38
287.029	10.38
287.823	10.38
288.617	9.38
289.411	11.38
290.205	12.38
290.999	10.38
291.793	10.38
292.587	12.38
293.381	12.38
294.174	13.38
294.968	10.38
295.761	6.38
296.555	9.38
297.348	7.38
298.141	10.38
298.935	9.38
299.728	11.38
300.521	8.38
301.314	10.38
302.107	9.38
302.899	8.38
303.692	7.38
304.485	8.38
305.277	9.38
306.07	8.38
306.862	9.38
307.655	7.38
308.447	8.38
309.239	5.38
310.031	8.38
310.823	6.38
311.615	6.38
312.407	6.38
313.199	7.38
313.991	5.38
314.783	6.38
315.574	5.38
316.366	5.38
317.157	5.38
317.949	4.38
318.74	4.38
319.531	4.38
320.322	6.38
321.113	4.38
321.904	3.38
322.695	4.38
323.486	2.38
324.277	3.38
325.068	4.38
325.858	4.38
326.649	4.38
327.439	5.38
328.23	4.38
329.02	3.38
329.81	3.38
330.6	5.38
331.391	3.38
332.181	1.38
332.971	3.38
333.76	3.38
334.55	4.38
335.34	3.38
336.13	4.38
336.919	3.38
337.709	3.38
338.498	4.38
339.287	2.38
340.077	1.38
340.866	3.38
341.655	3.38
342.444	2.38
343.233	3.38
344.022	2.38
344.811	2.38
345.6	1.38
346.388	5.38
347.177	3.38
347.965	3.38
348.754	2.38
349.542	4.38
350.33	2.38
351.119	1.38
351.907	4.38
352.695	1.38
353.483	2.38
354.271	3.38
355.059	2.38
355.846	1.38
356.634	4.38
357.422	2.38
358.209	2.38
358.997	3.38
359.784	0.38
360.571	4.38
361.359	0.38
362.146	3.38
362.933	2.38
363.72	4.38
364.507	3.38
365.294	4.38
366.081	2.38
366.867	2.38
367.654	2.38
368.44	2.38
369.227	2.38
370.013	1.38
370.8	1.38
371.586	1.38
372.372	2.38
373.158	2.38
373.944	5.38
374.73	4.38
375.516	0.38
376.302	2.38
377.088	2.38
377.873	3.38
378.659	3.38
379.445	4.38
380.23	3.38
381.015	2.38
381.801	4.38
382.586	3.38
383.371	2.38
384.156	3.38
384.941	1.38
385.726	2.38
386.511	5.38
387.296	3.38
388.08	3.38
388.865	2.38
389.649	3.38
390.434	3.38
391.218	2.38
392.003	2.38
392.787	1.38
393.571	5.38
394.355	5.38
395.139	2.38
395.923	2.38
396.707	1.38
397.491	5.38
398.274	2.38
399.058	3.38
399.842	3.38
400.625	1.38
401.408	2.38
402.192	4.38
402.975	1.38
403.758	2.38
404.541	5.38
405.324	3.38
406.107	4.38
406.89	2.38
407.673	3.38
408.456	6.38
409.238	4.38
410.021	4.38
410.803	2.38
411.586	4.38
412.368	5.38
413.151	7.38
413.933	6.38
414.715	4.38
415.497	4.38
416.279	4.38
417.061	4.38
417.843	3.38
418.624	2.38
419.406	7.38
420.188	7.38
420.969	5.38
421.751	5.38
422.532	5.38
423.313	2.38
424.095	5.38
424.876	6.38
425.657	7.38
426.438	7.38
427.219	7.38
428	5.38
428.78	7.38
429.561	9.38
430.342	6.38
431.122	7.38
431.903	9.38
432.683	9.38
433.464	7.38
434.244	8.38
435.024	10.38
435.804	10.38
436.584	9.38
437.364	10.38
438.144	11.38
438.924	12.38
439.704	11.38
440.483	13.38
441.263	10.38
442.042	13.38
442.822	13.38
443.601	13.38
444.38	11.38
445.16	16.38
445.939	17.38
446.718	16.38
447.497	18.38
448.276	22.38
449.054	23.38
449.833	25.38
450.612	24.38
451.391	28.38
452.169	28.38
452.948	32.38
453.726	36.38
454.504	39.38
455.282	42.38
456.061	47.38
456.839	50.38
457.617	56.38
458.395	58.38
459.172	67.38
459.95	76.38
460.728	82.38
461.506	92.38
462.283	102.38
463.061	119.38
463.838	128.38
464.615	143.38
465.393	154.38
466.17	174.38
466.947	198.38
467.724	218.38
468.501	249.38
469.278	268.38
470.055	304.38
470.831	334.38
471.608	371.38
472.385	423.38
473.161	470.38
473.938	519.38
474.714	580.38
475.49	633.38
476.266	706.38
477.043	768.38
477.819	851.38
478.595	947.38
479.371	1040.38
480.146	1163.38
480.922	1264.38
481.698	1408.38
482.473	1551.38
483.249	1702.38
484.024	1869.38
484.8	2070.38
485.575	2280.38
486.35	2498.38
487.126	2754.38
487.901	3038.38
488.676	3330.38
489.451	3676.38
490.225	4013.38
491	4421.38
491.775	4841.38
492.55	5294.38
493.324	5847.38
494.099	6361.38
494.873	6934.38
495.647	7512.38
496.422	8174.38
497.196	8847.38
497.97	9609.38
498.744	10291.38
499.518	11024.38
500.292	11746.38
501.066	12450.38
501.839	13181.38
502.613	13807.38
503.387	14394.38
504.16	14984.38
504.934	15433.38
505.707	15808.38
506.48	16122.38
507.253	16265.38
508.027	16352.38
508.8	16347.38
509.573	16163.38
510.346	16022.38
511.118	15696.38
511.891	15291.38
512.664	14829.38
513.437	14305.38
514.209	13811.38
514.982	13248.38
515.754	12775.38
516.526	12194.38
517.298	11667.38
518.071	11159.38
518.843	10669.38
519.615	10198.38
520.387	9744.38
521.159	9418.38
521.93	9000.38
522.702	8678.38
523.474	8280.38
524.245	8013.38
525.017	7682.38
525.788	7386.38
526.56	7095.38
527.331	6801.38
528.102	6508.38
528.873	6208.38
529.644	5956.38
530.415	5659.38
531.186	5394.38
531.957	5139.38
532.728	4850.38
533.498	4605.38
534.269	4364.38
535.039	4141.38
535.81	3887.38
536.58	3679.38
537.351	3446.38
538.121	3267.38
538.891	3106.38
539.661	2916.38
540.431	2767.38
541.201	2623.38
541.971	2489.38
542.741	2362.38
543.51	2229.38
544.28	2117.38
545.05	2014.38
545.819	1923.38
546.588	1836.38
547.358	1735.38
548.127	1645.38
548.896	1570.38
549.665	1475.38
550.434	1408.38
551.203	1336.38
551.972	1256.38
552.741	1202.38
553.51	1133.38
554.278	1074.38
555.047	1002.38
555.815	952.38
556.584	896.38
557.352	863.38
558.121	801.38
558.889	760.38
559.657	712.38
560.425	675.38
561.193	639.38
561.961	601.38
562.729	572.38
563.496	529.38
564.264	501.38
565.032	472.38
565.799	446.38
566.567	423.38
567.334	391.38
568.101	383.38
568.869	357.38
569.636	333.38
570.403	317.38
571.17	295.38
571.937	286.38
572.704	264.38
573.471	249.38
574.237	234.38
575.004	221.38
575.771	211.38
576.537	192.38
577.303	186.38
578.07	170.38
578.836	159.38
579.602	154.38
580.368	149.38
581.134	139.38
581.9	129.38
582.666	126.38
583.432	118.38
584.198	110.38
584.964	107.38
585.729	99.38
586.495	96.38
587.26	89.38
588.025	81.38
588.791	78.38
589.556	77.38
590.321	71.38
591.086	69.38
591.851	65.38
592.616	60.38
593.381	56.38
594.146	53.38
594.911	49.38
595.675	45.38
596.44	43.38
597.204	45.38
597.969	41.38
598.733	45.38
599.497	37.38
600.261	37.38
601.025	37.38
601.79	32.38
602.553	34.38
603.317	33.38
604.081	31.38
604.845	28.38
605.609	29.38
606.372	28.38
607.136	25.38
607.899	25.38
608.662	21.38
609.426	23.38
610.189	21.38
610.952	21.38
611.715	20.38
612.478	17.38
613.241	21.38
614.004	18.38
614.767	14.38
615.529	16.38
616.292	15.38
617.055	13.38
617.817	13.38
618.579	16.38
619.342	13.38
620.104	13.38
620.866	11.38
621.628	11.38
622.39	10.38
623.152	11.38
623.914	13.38
624.676	11.38
625.438	13.38
626.199	8.38
626.961	9.38
627.722	10.38
628.484	7.38
629.245	8.38
630.006	8.38
630.768	10.38
631.529	4.38
632.29	6.38
633.051	5.38
633.812	5.38
634.573	7.38
635.333	6.38
636.094	9.38
636.855	5.38
637.615	5.38
638.376	4.38
639.136	5.38
639.896	6.38
640.657	3.38
641.417	4.38
642.177	5.38
642.937	5.38
643.697	5.38
644.457	4.38
645.216	4.38
645.976	4.38
646.736	4.38
647.495	4.38
648.255	3.38
649.014	5.38
649.774	4.38
650.533	5.38
651.292	4.38
652.051	3.38
652.81	1.38
653.569	2.38
654.328	4.38
655.087	4.38
655.846	1.38
656.604	2.38
657.363	2.38
658.121	4.38
658.88	2.38
659.638	3.38
660.397	1.38
661.155	5.38
661.913	1.38
662.671	2.38
663.429	3.38
664.187	2.38
664.945	3.38
665.703	3.38
666.46	2.38
667.218	1.38
667.976	3.38
668.733	1.38
669.49	2.38
670.248	3.38
671.005	3.38
671.762	2.38
672.519	3.38
673.276	4.38
674.033	1.38
674.79	2.38
675.547	1.38
676.304	1.38
677.06	5.38
677.817	1.38
678.574	3.38
679.33	3.38
680.086	1.38
680.843	2.38
681.599	1.38
682.355	2.38
683.111	2.38
683.867	1.38
684.623	2.38
685.379	3.38
686.135	3.38
686.89	1.38
687.646	1.38
688.402	3.38
689.157	0.38
689.912	2.38
690.668	4.38
691.423	3.38
692.178	2.38
692.933	2.38
693.688	1.38
694.443	3.38
695.198	2.38
695.953	4.38
696.708	2.38
697.462	2.38
698.217	2.38
698.972	1.38
699.726	3.38
700.48	3.38
701.235	4.38
701.989	-0.62
702.743	1.38
703.497	3.38
704.251	0.38
705.005	3.38
705.759	0.38
706.513	2.38
707.266	3.38
708.02	2.38
708.774	2.38
709.527	2.38
710.28	1.38
711.034	1.38
711.787	1.38
712.54	2.38
713.293	1.38
714.046	3.38
714.799	1.38
715.552	5.38
716.305	4.38
717.058	0.38
717.81	3.38
718.563	3.38
719.315	3.38
720.068	3.38
720.82	1.38
721.573	1.38
722.325	1.38
723.077	3.38
723.829	3.38
724.581	3.38
725.333	2.38
726.085	1.38
726.836	1.38
727.588	1.38
728.34	5.38
729.091	1.38
729.843	3.38
730.594	1.38
731.346	1.38
732.097	2.38
732.848	2.38
733.599	3.38
734.35	2.38
735.101	1.38
735.852	2.38
736.603	3.38
737.354	3.38
738.104	1.38
738.855	2.38
739.605	0.38
740.356	2.38
741.106	2.38
741.856	3.38
742.607	6.38
743.357	1.38
744.107	2.38
744.857	4.38
745.607	1.38
746.357	4.38
747.106	1.38
747.856	3.38
748.606	2.38
749.355	1.38
750.105	1.38
750.854	1.38
751.603	2.38
752.353	5.38
753.102	5.38
753.851	2.38
754.6	3.38
755.349	2.38
756.098	3.38
756.847	5.38
757.595	3.38
758.344	4.38
759.093	1.38
759.841	3.38
760.589	2.38
761.338	1.38
762.086	3.38
762.834	1.38
763.582	5.38
764.331	1.38
765.079	4.38
765.826	5.38
766.574	2.38
767.322	4.38
768.07	4.38
768.817	4.38
769.565	6.38
770.312	2.38
771.06	3.38
771.807	4.38
772.554	5.38
773.302	2.38
774.049	5.38
774.796	3.38
775.543	2.38
776.29	5.38
777.036	4.38
777.783	5.38
778.53	4.38
779.276	5.38
780.023	3.38
780.769	6.38
781.516	3.38
782.262	4.38
783.008	6.38
783.754	4.38
784.5	5.38
785.246	5.38
785.992	7.38
786.738	6.38
787.484	5.38
788.23	3.38
788.975	2.38
789.721	5.38
790.466	3.38
791.212	4.38
791.957	6.38
792.702	5.38
793.447	3.38
794.193	3.38
794.938	4.38
795.683	3.38
796.427	4.38
797.172	4.38
797.917	4.38
798.662	6.38
799.406	2.38
800.151	3.38
800.895	5.38
801.64	4.38
802.384	4.38
803.128	5.38
803.872	4.38
804.616	4.38
805.36	5.38
806.104	2.38
806.848	3.38
807.592	2.38
808.336	1.38
809.079	3.38
809.823	1.38
810.566	5.38
811.31	2.38
812.053	4.38
812.796	4.38
813.539	2.38
814.283	1.38
815.026	5.38
815.769	3.38
816.511	4.38
817.254	3.38
817.997	2.38
818.74	3.38
819.482	4.38
820.225	4.38
820.967	2.38
821.71	2.38
822.452	3.38
823.194	3.38
823.936	2.38
824.678	5.38
825.42	1.38
826.162	3.38
826.904	3.38
827.646	2.38
828.388	2.38
829.129	2.38
829.871	3.38
830.612	1.38
831.354	3.38
832.095	1.38
832.836	2.38
833.577	2.38
834.319	1.38
835.06	3.38
835.801	4.38
836.542	2.38
837.282	3.38
838.023	3.38
838.764	2.38
839.504	1.38
840.245	2.38
840.985	2.38
841.726	1.38
842.466	2.38
843.206	1.38
843.946	1.38
844.687	3.38
845.427	2.38
846.166	1.38
846.906	1.38
847.646	1.38
848.386	2.38
849.125	1.38
849.865	0.38
850.605	3.38
851.344	1.38
852.083	3.38
852.823	2.38
853.562	1.38
854.301	2.38
855.04	3.38
855.779	5.38
856.518	3.38
857.257	1.38
857.995	2.38
858.734	0.38
859.473	1.38
860.211	1.38
860.95	2.38
861.688	1.38
862.426	3.38
863.165	2.38
863.903	1.38
864.641	2.38
865.379	1.38
866.117	2.38
866.855	1.38
867.593	3.38
868.33	1.38
869.068	1.38
869.806	0.38
870.543	-1.62
871.28	2.38
872.018	1.38
872.755	1.38
873.492	-0.62
874.229	-0.62
874.967	2.38
875.703	-0.62
876.44	2.38
877.177	-1.62
877.914	0.38
878.651	2.38
879.387	-0.62
880.124	-0.62
880.86	-0.62
881.597	2.38
882.333	-1.62
883.069	1.38
883.806	1.38
884.542	-1.62
885.278	0.38
886.014	2.38
886.749	-1.62
887.485	-0.62
888.221	1.38
888.957	2.38
889.692	-0.62
890.428	2.38
891.163	-0.62
891.899	0.38
892.634	-0.62
893.369	-0.62
894.104	0.38
894.839	0.38
895.574	1.38
896.309	0.38
897.044	-1.62
897.779	1.38
898.514	0.38
899.248	1.38
899.983	1.38
900.717	-1.62
901.452	1.38
902.186	2.38
902.92	1.38
903.654	0.38
904.389	1.38
905.123	0.38
905.857	2.38
906.59	1.38
907.324	1.38
908.058	0.38
908.792	0.38
909.525	-1.62
910.259	0.38
910.992	1.38
911.726	0.38
912.459	1.38
913.192	0.38
913.925	-1.62
914.658	0.38
915.391	0.38
916.124	0.38
916.857	2.38
917.59	1.38
918.323	-1.62
919.055	-1.62
919.788	2.38
920.521	0.38
921.253	0.38
921.985	0.38
922.718	-1.62
923.45	-1.62
924.182	0.38
924.914	-0.62
925.646	0.38
926.378	-0.62
927.11	1.38
927.841	2.38
928.573	-0.62
929.305	-0.62
930.036	-1.62
930.768	0.38
931.499	-1.62
932.23	0.38
932.962	0.38
933.693	1.38
934.424	1.38
935.155	-0.62
935.886	1.38
936.617	3.38
937.348	-0.62
938.078	0.38
938.809	-0.62
939.54	-1.62
940.27	0.38
941.001	-1.62
941.731	2.38
942.461	-2.62
943.191	0.38
943.922	0.38
944.652	2.38
945.382	-0.62
946.112	1.38
946.841	0.38
947.571	0.38
948.301	-0.62
949.031	0.38
949.76	-0.62
950.49	-0.62
951.219	-1.62
951.948	0.38
952.678	-1.62
953.407	2.38
954.136	-1.62
954.865	1.38
955.594	1.38
956.323	-1.62
957.052	0.38
957.78	-0.62
958.509	1.38
959.238	0.38
959.966	1.38
960.695	0.38
961.423	0.38
962.151	0.38
962.88	0.38
963.608	1.38
964.336	-0.62
965.064	-2.62
965.792	2.38
966.52	0.38
967.247	1.38
967.975	0.38
968.703	2.38
969.43	1.38
970.158	-0.62
970.885	1.38
971.613	1.38
972.34	1.38
973.067	-1.62
973.794	0.38
974.521	0.38
975.248	-2.62
975.975	2.38
976.702	0.38
977.429	-0.62
978.156	-0.62
978.882	1.38
979.609	-0.62
980.335	-0.62
981.062	-1.62
981.788	1.38
982.514	-0.62
983.24	0.38
983.967	-0.62
984.693	-1.62
985.419	0.38
986.144	1.38
986.87	1.38
987.596	1.38
988.322	-1.62
989.047	-1.62
989.773	0.38
990.498	1.38
991.224	-0.62
991.949	1.38
992.674	-0.62
993.399	1.38
994.124	-2.62
994.849	0.38
995.574	0.38
996.299	2.38
997.024	-0.62
997.749	0.38
998.473	-0.62
999.198	0.38
999.922	-0.62
1000.647	-0.62
1001.371	2.38
1002.095	-1.62
1002.82	-1.62
1003.544	1.38
1004.268	-0.62
1004.992	-0.62
1005.716	-1.62
1006.439	0.38
1007.163	0.38
1007.887	1.38
1008.611	1.38
1009.334	0.38
1010.058	-0.62
1010.781	-0.62
1011.504	-2.62
1012.228	1.38
1012.951	-0.62
1013.674	-0.62
1014.397	-1.62
1015.12	2.38
