节点500_145_QEPB04081__580__11-38-10-378.txt的数据

Date: Wed Nov 12 11:38:10 CST 2025
User: PC
Spectrometer: QEPB0408
触发模式: 0
积分时间 (秒): 1.000000E-2
Scans to average: 1
启用暗噪声校正: true
启用非线性校正: false
滑动平均宽度: 0
X轴模式: Wavelengths
Number of Pixels in Spectrum: 1044
>>>>>Begin Spectral Data<<<<<
220.843	-1.25
221.644	-2.25
222.444	-0.25
223.244	-2.25
224.045	-1.25
224.845	-0.25
225.645	-0.25
226.445	1.75
227.245	0.75
228.045	-2.25
228.845	-1.25
229.645	-2.25
230.444	-0.25
231.244	-2.25
232.043	0.75
232.843	-0.25
233.642	-0.25
234.442	1.75
235.241	-0.25
236.04	2.75
236.839	-2.25
237.638	-1.25
238.437	-0.25
239.236	0.75
240.035	0.75
240.833	0.75
241.632	-0.25
242.43	0.75
243.229	1.75
244.027	0.75
244.826	-0.25
245.624	0.75
246.422	0.75
247.22	0.75
248.018	0.75
248.816	0.75
249.614	0.75
250.412	0.75
251.21	0.75
252.007	1.75
252.805	0.75
253.602	1.75
254.4	0.75
255.197	1.75
255.994	2.75
256.791	1.75
257.589	1.75
258.386	2.75
259.183	1.75
259.979	3.75
260.776	2.75
261.573	2.75
262.37	2.75
263.166	2.75
263.963	3.75
264.759	5.75
265.556	6.75
266.352	5.75
267.148	3.75
267.944	5.75
268.74	7.75
269.536	4.75
270.332	3.75
271.128	6.75
271.924	6.75
272.719	5.75
273.515	7.75
274.311	6.75
275.106	6.75
275.901	6.75
276.697	9.75
277.492	7.75
278.287	5.75
279.082	6.75
279.877	8.75
280.672	9.75
281.467	6.75
282.262	11.75
283.056	7.75
283.851	8.75
284.646	8.75
285.44	9.75
286.234	6.75
287.029	9.75
287.823	8.75
288.617	9.75
289.411	8.75
290.205	9.75
290.999	8.75
291.793	6.75
292.587	9.75
293.381	6.75
294.174	7.75
294.968	6.75
295.761	7.75
296.555	8.75
297.348	8.75
298.141	6.75
298.935	6.75
299.728	10.75
300.521	7.75
301.314	9.75
302.107	5.75
302.899	8.75
303.692	4.75
304.485	7.75
305.277	6.75
306.07	6.75
306.862	7.75
307.655	8.75
308.447	6.75
309.239	7.75
310.031	7.75
310.823	6.75
311.615	6.75
312.407	5.75
313.199	5.75
313.991	5.75
314.783	5.75
315.574	5.75
316.366	3.75
317.157	4.75
317.949	4.75
318.74	3.75
319.531	4.75
320.322	3.75
321.113	3.75
321.904	3.75
322.695	4.75
323.486	4.75
324.277	5.75
325.068	2.75
325.858	3.75
326.649	3.75
327.439	4.75
328.23	4.75
329.02	3.75
329.81	0.75
330.6	1.75
331.391	4.75
332.181	4.75
332.971	3.75
333.76	2.75
334.55	4.75
335.34	4.75
336.13	3.75
336.919	4.75
337.709	2.75
338.498	2.75
339.287	1.75
340.077	2.75
340.866	4.75
341.655	1.75
342.444	3.75
343.233	2.75
344.022	4.75
344.811	0.75
345.6	4.75
346.388	-0.25
347.177	1.75
347.965	1.75
348.754	2.75
349.542	2.75
350.33	5.75
351.119	1.75
351.907	2.75
352.695	0.75
353.483	1.75
354.271	1.75
355.059	1.75
355.846	2.75
356.634	1.75
357.422	1.75
358.209	1.75
358.997	4.75
359.784	1.75
360.571	1.75
361.359	1.75
362.146	1.75
362.933	1.75
363.72	1.75
364.507	1.75
365.294	2.75
366.081	3.75
366.867	3.75
367.654	1.75
368.44	1.75
369.227	0.75
370.013	3.75
370.8	1.75
371.586	-0.25
372.372	1.75
373.158	2.75
373.944	2.75
374.73	2.75
375.516	2.75
376.302	4.75
377.088	1.75
377.873	1.75
378.659	0.75
379.445	0.75
380.23	1.75
381.015	3.75
381.801	3.75
382.586	0.75
383.371	1.75
384.156	1.75
384.941	1.75
385.726	2.75
386.511	3.75
387.296	2.75
388.08	0.75
388.865	0.75
389.649	1.75
390.434	2.75
391.218	1.75
392.003	3.75
392.787	3.75
393.571	1.75
394.355	3.75
395.139	1.75
395.923	3.75
396.707	4.75
397.491	2.75
398.274	2.75
399.058	3.75
399.842	2.75
400.625	0.75
401.408	2.75
402.192	2.75
402.975	5.75
403.758	1.75
404.541	1.75
405.324	6.75
406.107	2.75
406.89	4.75
407.673	3.75
408.456	2.75
409.238	4.75
410.021	4.75
410.803	3.75
411.586	4.75
412.368	4.75
413.151	3.75
413.933	4.75
414.715	3.75
415.497	2.75
416.279	2.75
417.061	4.75
417.843	3.75
418.624	4.75
419.406	4.75
420.188	6.75
420.969	4.75
421.751	4.75
422.532	4.75
423.313	5.75
424.095	4.75
424.876	6.75
425.657	4.75
426.438	2.75
427.219	6.75
428	5.75
428.78	4.75
429.561	4.75
430.342	4.75
431.122	7.75
431.903	4.75
432.683	7.75
433.464	7.75
434.244	6.75
435.024	7.75
435.804	7.75
436.584	7.75
437.364	9.75
438.144	9.75
438.924	9.75
439.704	9.75
440.483	9.75
441.263	13.75
442.042	8.75
442.822	13.75
443.601	15.75
444.38	13.75
445.16	18.75
445.939	15.75
446.718	16.75
447.497	17.75
448.276	18.75
449.054	21.75
449.833	23.75
450.612	27.75
451.391	29.75
452.169	26.75
452.948	29.75
453.726	35.75
454.504	36.75
455.282	44.75
456.061	46.75
456.839	52.75
457.617	56.75
458.395	66.75
459.172	73.75
459.95	82.75
460.728	88.75
461.506	96.75
462.283	114.75
463.061	118.75
463.838	140.75
464.615	150.75
465.393	169.75
466.17	192.75
466.947	209.75
467.724	234.75
468.501	259.75
469.278	287.75
470.055	318.75
470.831	351.75
471.608	390.75
472.385	436.75
473.161	489.75
473.938	542.75
474.714	593.75
475.49	662.75
476.266	721.75
477.043	790.75
477.819	882.75
478.595	971.75
479.371	1057.75
480.146	1163.75
480.922	1280.75
481.698	1412.75
482.473	1540.75
483.249	1692.75
484.024	1841.75
484.8	2033.75
485.575	2204.75
486.35	2415.75
487.126	2663.75
487.901	2901.75
488.676	3166.75
489.451	3485.75
490.225	3804.75
491	4142.75
491.775	4548.75
492.55	4911.75
493.324	5398.75
494.099	5888.75
494.873	6350.75
495.647	6925.75
496.422	7508.75
497.196	8098.75
497.97	8700.75
498.744	9310.75
499.518	10015.75
500.292	10689.75
501.066	11377.75
501.839	12036.75
502.613	12605.75
503.387	13202.75
504.16	13754.75
504.934	14268.75
505.707	14636.75
506.48	14937.75
507.253	15182.75
508.027	15387.75
508.8	15544.75
509.573	15423.75
510.346	15342.75
511.118	15192.75
511.891	14882.75
512.664	14459.75
513.437	14119.75
514.209	13682.75
514.982	13222.75
515.754	12717.75
516.526	12184.75
517.298	11703.75
518.071	11223.75
518.843	10800.75
519.615	10287.75
520.387	9886.75
521.159	9495.75
521.93	9113.75
522.702	8708.75
523.474	8394.75
524.245	8080.75
525.017	7740.75
525.788	7419.75
526.56	7149.75
527.331	6858.75
528.102	6569.75
528.873	6295.75
529.644	6004.75
530.415	5751.75
531.186	5491.75
531.957	5247.75
532.728	4992.75
533.498	4749.75
534.269	4500.75
535.039	4275.75
535.81	4028.75
536.58	3814.75
537.351	3616.75
538.121	3407.75
538.891	3224.75
539.661	3048.75
540.431	2889.75
541.201	2735.75
541.971	2578.75
542.741	2480.75
543.51	2310.75
544.28	2209.75
545.05	2090.75
545.819	2002.75
546.588	1880.75
547.358	1788.75
548.127	1704.75
548.896	1638.75
549.665	1541.75
550.434	1467.75
551.203	1384.75
551.972	1323.75
552.741	1243.75
553.51	1192.75
554.278	1113.75
555.047	1066.75
555.815	988.75
556.584	956.75
557.352	883.75
558.121	854.75
558.889	790.75
559.657	760.75
560.425	711.75
561.193	677.75
561.961	632.75
562.729	591.75
563.496	577.75
564.264	527.75
565.032	502.75
565.799	476.75
566.567	447.75
567.334	416.75
568.101	392.75
568.869	374.75
569.636	344.75
570.403	334.75
571.17	312.75
571.937	300.75
572.704	277.75
573.471	265.75
574.237	248.75
575.004	228.75
575.771	223.75
576.537	204.75
577.303	193.75
578.07	186.75
578.836	172.75
579.602	162.75
580.368	154.75
581.134	148.75
581.9	141.75
582.666	132.75
583.432	128.75
584.198	113.75
584.964	109.75
585.729	99.75
586.495	98.75
587.26	94.75
588.025	88.75
588.791	85.75
589.556	77.75
590.321	74.75
591.086	71.75
591.851	68.75
592.616	62.75
593.381	57.75
594.146	57.75
594.911	52.75
595.675	53.75
596.44	50.75
597.204	45.75
597.969	43.75
598.733	43.75
599.497	40.75
600.261	38.75
601.025	33.75
601.79	35.75
602.553	30.75
603.317	29.75
604.081	31.75
604.845	30.75
605.609	28.75
606.372	25.75
607.136	26.75
607.899	21.75
608.662	22.75
609.426	22.75
610.189	20.75
610.952	19.75
611.715	20.75
612.478	19.75
613.241	17.75
614.004	16.75
614.767	14.75
615.529	13.75
616.292	14.75
617.055	15.75
617.817	14.75
618.579	11.75
619.342	12.75
620.104	12.75
620.866	12.75
621.628	12.75
622.39	12.75
623.152	10.75
623.914	9.75
624.676	9.75
625.438	8.75
626.199	11.75
626.961	7.75
627.722	10.75
628.484	9.75
629.245	7.75
630.006	6.75
630.768	8.75
631.529	8.75
632.29	9.75
633.051	6.75
633.812	6.75
634.573	5.75
635.333	6.75
636.094	3.75
636.855	7.75
637.615	5.75
638.376	5.75
639.136	6.75
639.896	4.75
640.657	5.75
641.417	2.75
642.177	5.75
642.937	4.75
643.697	1.75
644.457	6.75
645.216	2.75
645.976	0.75
646.736	4.75
647.495	2.75
648.255	5.75
649.014	3.75
649.774	4.75
650.533	1.75
651.292	5.75
652.051	5.75
652.81	2.75
653.569	1.75
654.328	1.75
655.087	4.75
655.846	2.75
656.604	2.75
657.363	0.75
658.121	2.75
658.88	1.75
659.638	2.75
660.397	3.75
661.155	-0.25
661.913	3.75
662.671	1.75
663.429	1.75
664.187	2.75
664.945	0.75
665.703	2.75
666.46	2.75
667.218	3.75
667.976	2.75
668.733	1.75
669.49	2.75
670.248	1.75
671.005	-0.25
671.762	1.75
672.519	0.75
673.276	3.75
674.033	4.75
674.79	1.75
675.547	1.75
676.304	1.75
677.06	3.75
677.817	2.75
678.574	0.75
679.33	1.75
680.086	1.75
680.843	0.75
681.599	-0.25
682.355	1.75
683.111	3.75
683.867	1.75
684.623	0.75
685.379	1.75
686.135	0.75
686.89	3.75
687.646	3.75
688.402	1.75
689.157	-0.25
689.912	-0.25
690.668	1.75
691.423	0.75
692.178	1.75
692.933	0.75
693.688	-0.25
694.443	1.75
695.198	1.75
695.953	0.75
696.708	1.75
697.462	2.75
698.217	3.75
698.972	1.75
699.726	2.75
700.48	-0.25
701.235	4.75
701.989	1.75
702.743	1.75
703.497	0.75
704.251	1.75
705.005	1.75
705.759	4.75
706.513	2.75
707.266	-0.25
708.02	2.75
708.774	1.75
709.527	2.75
710.28	1.75
711.034	0.75
711.787	1.75
712.54	1.75
713.293	1.75
714.046	1.75
714.799	1.75
715.552	2.75
716.305	-1.25
717.058	1.75
717.81	2.75
718.563	1.75
719.315	0.75
720.068	2.75
720.82	-0.25
721.573	0.75
722.325	1.75
723.077	0.75
723.829	0.75
724.581	-0.25
725.333	-0.25
726.085	1.75
726.836	2.75
727.588	1.75
728.34	-0.25
729.091	1.75
729.843	0.75
730.594	0.75
731.346	0.75
732.097	0.75
732.848	-1.25
733.599	2.75
734.35	3.75
735.101	1.75
735.852	1.75
736.603	5.75
737.354	0.75
738.104	4.75
738.855	1.75
739.605	0.75
740.356	0.75
741.106	2.75
741.856	2.75
742.607	0.75
743.357	1.75
744.107	1.75
744.857	3.75
745.607	1.75
746.357	1.75
747.106	1.75
747.856	1.75
748.606	2.75
749.355	0.75
750.105	1.75
750.854	3.75
751.603	1.75
752.353	2.75
753.102	2.75
753.851	4.75
754.6	0.75
755.349	0.75
756.098	2.75
756.847	1.75
757.595	-0.25
758.344	0.75
759.093	1.75
759.841	3.75
760.589	3.75
761.338	2.75
762.086	3.75
762.834	1.75
763.582	0.75
764.331	3.75
765.079	2.75
765.826	5.75
766.574	4.75
767.322	2.75
768.07	3.75
768.817	2.75
769.565	2.75
770.312	1.75
771.06	3.75
771.807	1.75
772.554	3.75
773.302	5.75
774.049	2.75
774.796	4.75
775.543	4.75
776.29	6.75
777.036	3.75
777.783	3.75
778.53	3.75
779.276	2.75
780.023	3.75
780.769	4.75
781.516	2.75
782.262	2.75
783.008	3.75
783.754	4.75
784.5	4.75
785.246	5.75
785.992	6.75
786.738	3.75
787.484	4.75
788.23	6.75
788.975	5.75
789.721	4.75
790.466	4.75
791.212	4.75
791.957	4.75
792.702	4.75
793.447	3.75
794.193	4.75
794.938	1.75
795.683	4.75
796.427	7.75
797.172	1.75
797.917	5.75
798.662	4.75
799.406	4.75
800.151	3.75
800.895	8.75
801.64	0.75
802.384	5.75
803.128	2.75
803.872	2.75
804.616	4.75
805.36	4.75
806.104	3.75
806.848	3.75
807.592	2.75
808.336	5.75
809.079	1.75
809.823	4.75
810.566	0.75
811.31	4.75
812.053	3.75
812.796	0.75
813.539	4.75
814.283	3.75
815.026	4.75
815.769	2.75
816.511	4.75
817.254	1.75
817.997	2.75
818.74	2.75
819.482	2.75
820.225	2.75
820.967	1.75
821.71	1.75
822.452	2.75
823.194	3.75
823.936	3.75
824.678	3.75
825.42	3.75
826.162	0.75
826.904	2.75
827.646	0.75
828.388	2.75
829.129	1.75
829.871	0.75
830.612	3.75
831.354	2.75
832.095	1.75
832.836	3.75
833.577	1.75
834.319	2.75
835.06	1.75
835.801	4.75
836.542	1.75
837.282	0.75
838.023	1.75
838.764	-0.25
839.504	-0.25
840.245	1.75
840.985	3.75
841.726	0.75
842.466	2.75
843.206	2.75
843.946	1.75
844.687	1.75
845.427	2.75
846.166	3.75
846.906	2.75
847.646	0.75
848.386	2.75
849.125	0.75
849.865	2.75
850.605	1.75
851.344	2.75
852.083	0.75
852.823	-0.25
853.562	1.75
854.301	-0.25
855.04	1.75
855.779	0.75
856.518	1.75
857.257	0.75
857.995	-0.25
858.734	1.75
859.473	0.75
860.211	0.75
860.95	1.75
861.688	1.75
862.426	-0.25
863.165	1.75
863.903	0.75
864.641	1.75
865.379	2.75
866.117	-3.25
866.855	0.75
867.593	0.75
868.33	1.75
869.068	1.75
869.806	0.75
870.543	1.75
871.28	1.75
872.018	0.75
872.755	-0.25
873.492	-0.25
874.229	-0.25
874.967	0.75
875.703	0.75
876.44	-1.25
877.177	0.75
877.914	-0.25
878.651	0.75
879.387	-0.25
880.124	-1.25
880.86	-2.25
881.597	0.75
882.333	-0.25
883.069	-0.25
883.806	-2.25
884.542	-0.25
885.278	-0.25
886.014	2.75
886.749	-0.25
887.485	0.75
888.221	1.75
888.957	-1.25
889.692	0.75
890.428	-2.25
891.163	1.75
891.899	0.75
892.634	1.75
893.369	-0.25
894.104	-1.25
894.839	0.75
895.574	-1.25
896.309	-0.25
897.044	1.75
897.779	-2.25
898.514	-1.25
899.248	-0.25
899.983	1.75
900.717	-1.25
901.452	-2.25
902.186	-1.25
902.92	-0.25
903.654	0.75
904.389	-0.25
905.123	-0.25
905.857	-2.25
906.59	0.75
907.324	-1.25
908.058	-1.25
908.792	-2.25
909.525	0.75
910.259	0.75
910.992	1.75
911.726	-0.25
912.459	-0.25
913.192	-1.25
913.925	1.75
914.658	-1.25
915.391	-0.25
916.124	-1.25
916.857	-1.25
917.59	-1.25
918.323	-1.25
919.055	0.75
919.788	-1.25
920.521	1.75
921.253	-1.25
921.985	1.75
922.718	0.75
923.45	0.75
924.182	-0.25
924.914	-0.25
925.646	0.75
926.378	2.75
927.11	-2.25
927.841	-0.25
928.573	-0.25
929.305	-2.25
930.036	-2.25
930.768	0.75
931.499	-1.25
932.23	0.75
932.962	-0.25
933.693	-2.25
934.424	0.75
935.155	-2.25
935.886	-1.25
936.617	1.75
937.348	0.75
938.078	1.75
938.809	0.75
939.54	-0.25
940.27	-0.25
941.001	1.75
941.731	-1.25
942.461	-0.25
943.191	-0.25
943.922	1.75
944.652	-0.25
945.382	-0.25
946.112	-0.25
946.841	0.75
947.571	1.75
948.301	0.75
949.031	-2.25
949.76	2.75
950.49	-2.25
951.219	0.75
951.948	-0.25
952.678	0.75
953.407	-1.25
954.136	-2.25
954.865	0.75
955.594	-2.25
956.323	1.75
957.052	-1.25
957.78	-0.25
958.509	-0.25
959.238	-3.25
959.966	-0.25
960.695	-1.25
961.423	-1.25
962.151	-0.25
962.88	-1.25
963.608	0.75
964.336	-1.25
965.064	0.75
965.792	-0.25
966.52	0.75
967.247	-1.25
967.975	-1.25
968.703	-1.25
969.43	-1.25
970.158	-0.25
970.885	0.75
971.613	0.75
972.34	-0.25
973.067	-2.25
973.794	-1.25
974.521	0.75
975.248	-0.25
975.975	-2.25
976.702	-0.25
977.429	0.75
978.156	0.75
978.882	0.75
979.609	-2.25
980.335	0.75
981.062	-0.25
981.788	1.75
982.514	0.75
983.24	0.75
983.967	-0.25
984.693	-2.25
985.419	-1.25
986.144	-0.25
986.87	-0.25
987.596	-2.25
988.322	-1.25
989.047	-2.25
989.773	0.75
990.498	0.75
991.224	-0.25
991.949	-1.25
992.674	-1.25
993.399	-1.25
994.124	-0.25
994.849	-2.25
995.574	-1.25
996.299	-1.25
997.024	0.75
997.749	-0.25
998.473	-0.25
999.198	-0.25
999.922	-0.25
1000.647	0.75
1001.371	0.75
1002.095	-2.25
1002.82	-0.25
1003.544	2.75
1004.268	2.75
1004.992	-1.25
1005.716	-2.25
1006.439	0.75
1007.163	-0.25
1007.887	-1.25
1008.611	1.75
1009.334	-1.25
1010.058	-1.25
1010.781	-2.25
1011.504	-0.25
1012.228	0.75
1012.951	-0.25
1013.674	-2.25
1014.397	-0.25
1015.12	1.75
