节点500_145_QEPB04081__301__11-33-47-446.txt的数据

Date: Wed Nov 12 11:33:47 CST 2025
User: PC
Spectrometer: QEPB0408
触发模式: 0
积分时间 (秒): 1.000000E-2
Scans to average: 1
启用暗噪声校正: true
启用非线性校正: false
滑动平均宽度: 0
X轴模式: Wavelengths
Number of Pixels in Spectrum: 1044
>>>>>Begin Spectral Data<<<<<
220.843	-1.75
221.644	0.25
222.444	1.25
223.244	-1.75
224.045	1.25
224.845	-1.75
225.645	-0.75
226.445	0.25
227.245	0.25
228.045	1.25
228.845	2.25
229.645	-1.75
230.444	0.25
231.244	-0.75
232.043	0.25
232.843	-1.75
233.642	1.25
234.442	-2.75
235.241	2.25
236.04	2.25
236.839	0.25
237.638	1.25
238.437	2.25
239.236	0.25
240.035	1.25
240.833	0.25
241.632	4.25
242.43	3.25
243.229	1.25
244.027	1.25
244.826	4.25
245.624	2.25
246.422	1.25
247.22	1.25
248.018	1.25
248.816	1.25
249.614	2.25
250.412	3.25
251.21	4.25
252.007	4.25
252.805	2.25
253.602	3.25
254.4	4.25
255.197	2.25
255.994	5.25
256.791	5.25
257.589	4.25
258.386	4.25
259.183	4.25
259.979	2.25
260.776	4.25
261.573	4.25
262.37	7.25
263.166	4.25
263.963	5.25
264.759	5.25
265.556	6.25
266.352	5.25
267.148	8.25
267.944	5.25
268.74	7.25
269.536	8.25
270.332	8.25
271.128	8.25
271.924	6.25
272.719	7.25
273.515	7.25
274.311	8.25
275.106	12.25
275.901	10.25
276.697	9.25
277.492	8.25
278.287	6.25
279.082	10.25
279.877	8.25
280.672	12.25
281.467	10.25
282.262	10.25
283.056	10.25
283.851	9.25
284.646	10.25
285.44	12.25
286.234	13.25
287.029	10.25
287.823	11.25
288.617	10.25
289.411	11.25
290.205	11.25
290.999	11.25
291.793	10.25
292.587	9.25
293.381	10.25
294.174	9.25
294.968	13.25
295.761	10.25
296.555	8.25
297.348	9.25
298.141	10.25
298.935	10.25
299.728	8.25
300.521	8.25
301.314	8.25
302.107	10.25
302.899	8.25
303.692	8.25
304.485	9.25
305.277	7.25
306.07	8.25
306.862	9.25
307.655	7.25
308.447	6.25
309.239	5.25
310.031	9.25
310.823	7.25
311.615	7.25
312.407	6.25
313.199	5.25
313.991	9.25
314.783	5.25
315.574	7.25
316.366	4.25
317.157	8.25
317.949	7.25
318.74	1.25
319.531	4.25
320.322	6.25
321.113	6.25
321.904	4.25
322.695	2.25
323.486	3.25
324.277	4.25
325.068	6.25
325.858	4.25
326.649	2.25
327.439	6.25
328.23	3.25
329.02	1.25
329.81	3.25
330.6	5.25
331.391	5.25
332.181	3.25
332.971	5.25
333.76	3.25
334.55	4.25
335.34	1.25
336.13	6.25
336.919	2.25
337.709	4.25
338.498	4.25
339.287	3.25
340.077	4.25
340.866	5.25
341.655	4.25
342.444	4.25
343.233	4.25
344.022	4.25
344.811	3.25
345.6	3.25
346.388	3.25
347.177	5.25
347.965	3.25
348.754	5.25
349.542	4.25
350.33	5.25
351.119	3.25
351.907	2.25
352.695	3.25
353.483	2.25
354.271	3.25
355.059	3.25
355.846	3.25
356.634	3.25
357.422	2.25
358.209	5.25
358.997	2.25
359.784	3.25
360.571	5.25
361.359	1.25
362.146	3.25
362.933	3.25
363.72	3.25
364.507	4.25
365.294	5.25
366.081	3.25
366.867	3.25
367.654	3.25
368.44	2.25
369.227	1.25
370.013	1.25
370.8	2.25
371.586	2.25
372.372	3.25
373.158	5.25
373.944	3.25
374.73	4.25
375.516	3.25
376.302	2.25
377.088	4.25
377.873	2.25
378.659	2.25
379.445	2.25
380.23	2.25
381.015	3.25
381.801	3.25
382.586	5.25
383.371	3.25
384.156	4.25
384.941	3.25
385.726	5.25
386.511	3.25
387.296	0.25
388.08	4.25
388.865	3.25
389.649	3.25
390.434	5.25
391.218	3.25
392.003	2.25
392.787	2.25
393.571	4.25
394.355	3.25
395.139	4.25
395.923	5.25
396.707	4.25
397.491	4.25
398.274	4.25
399.058	2.25
399.842	0.25
400.625	4.25
401.408	2.25
402.192	6.25
402.975	6.25
403.758	2.25
404.541	5.25
405.324	2.25
406.107	7.25
406.89	2.25
407.673	3.25
408.456	6.25
409.238	6.25
410.021	4.25
410.803	3.25
411.586	4.25
412.368	5.25
413.151	3.25
413.933	5.25
414.715	4.25
415.497	5.25
416.279	5.25
417.061	7.25
417.843	7.25
418.624	5.25
419.406	5.25
420.188	6.25
420.969	6.25
421.751	5.25
422.532	8.25
423.313	5.25
424.095	5.25
424.876	8.25
425.657	6.25
426.438	9.25
427.219	6.25
428	6.25
428.78	7.25
429.561	8.25
430.342	7.25
431.122	9.25
431.903	8.25
432.683	6.25
433.464	8.25
434.244	8.25
435.024	9.25
435.804	10.25
436.584	10.25
437.364	6.25
438.144	9.25
438.924	11.25
439.704	13.25
440.483	13.25
441.263	12.25
442.042	10.25
442.822	15.25
443.601	13.25
444.38	15.25
445.16	17.25
445.939	16.25
446.718	21.25
447.497	17.25
448.276	19.25
449.054	20.25
449.833	23.25
450.612	23.25
451.391	26.25
452.169	30.25
452.948	33.25
453.726	33.25
454.504	34.25
455.282	42.25
456.061	49.25
456.839	50.25
457.617	57.25
458.395	63.25
459.172	68.25
459.95	76.25
460.728	85.25
461.506	89.25
462.283	101.25
463.061	114.25
463.838	126.25
464.615	139.25
465.393	158.25
466.17	172.25
466.947	197.25
467.724	213.25
468.501	241.25
469.278	270.25
470.055	304.25
470.831	327.25
471.608	374.25
472.385	421.25
473.161	463.25
473.938	509.25
474.714	564.25
475.49	624.25
476.266	697.25
477.043	770.25
477.819	841.25
478.595	943.25
479.371	1027.25
480.146	1150.25
480.922	1290.25
481.698	1386.25
482.473	1559.25
483.249	1703.25
484.024	1881.25
484.8	2077.25
485.575	2295.25
486.35	2520.25
487.126	2780.25
487.901	3051.25
488.676	3342.25
489.451	3675.25
490.225	4067.25
491	4464.25
491.775	4877.25
492.55	5354.25
493.324	5886.25
494.099	6428.25
494.873	6979.25
495.647	7635.25
496.422	8306.25
497.196	8969.25
497.97	9657.25
498.744	10403.25
499.518	11210.25
500.292	11886.25
501.066	12641.25
501.839	13275.25
502.613	13940.25
503.387	14576.25
504.16	15125.25
504.934	15592.25
505.707	15941.25
506.48	16237.25
507.253	16363.25
508.027	16426.25
508.8	16385.25
509.573	16247.25
510.346	16049.25
511.118	15686.25
511.891	15329.25
512.664	14844.25
513.437	14324.25
514.209	13780.25
514.982	13293.25
515.754	12743.25
516.526	12204.25
517.298	11679.25
518.071	11119.25
518.843	10593.25
519.615	10187.25
520.387	9767.25
521.159	9360.25
521.93	8966.25
522.702	8618.25
523.474	8290.25
524.245	7963.25
525.017	7662.25
525.788	7369.25
526.56	7064.25
527.331	6747.25
528.102	6442.25
528.873	6203.25
529.644	5945.25
530.415	5633.25
531.186	5348.25
531.957	5083.25
532.728	4837.25
533.498	4600.25
534.269	4332.25
535.039	4097.25
535.81	3872.25
536.58	3648.25
537.351	3460.25
538.121	3225.25
538.891	3099.25
539.661	2892.25
540.431	2724.25
541.201	2610.25
541.971	2456.25
542.741	2316.25
543.51	2198.25
544.28	2093.25
545.05	2010.25
545.819	1902.25
546.588	1832.25
547.358	1731.25
548.127	1638.25
548.896	1553.25
549.665	1493.25
550.434	1401.25
551.203	1322.25
551.972	1261.25
552.741	1188.25
553.51	1126.25
554.278	1073.25
555.047	1007.25
555.815	945.25
556.584	897.25
557.352	848.25
558.121	795.25
558.889	752.25
559.657	703.25
560.425	663.25
561.193	640.25
561.961	589.25
562.729	561.25
563.496	527.25
564.264	501.25
565.032	470.25
565.799	449.25
566.567	419.25
567.334	389.25
568.101	387.25
568.869	356.25
569.636	332.25
570.403	317.25
571.17	301.25
571.937	279.25
572.704	257.25
573.471	243.25
574.237	238.25
575.004	217.25
575.771	198.25
576.537	198.25
577.303	182.25
578.07	169.25
578.836	168.25
579.602	156.25
580.368	142.25
581.134	135.25
581.9	129.25
582.666	122.25
583.432	117.25
584.198	113.25
584.964	105.25
585.729	96.25
586.495	89.25
587.26	89.25
588.025	84.25
588.791	80.25
589.556	76.25
590.321	68.25
591.086	65.25
591.851	63.25
592.616	57.25
593.381	57.25
594.146	54.25
594.911	50.25
595.675	48.25
596.44	48.25
597.204	45.25
597.969	39.25
598.733	44.25
599.497	41.25
600.261	36.25
601.025	36.25
601.79	32.25
602.553	34.25
603.317	30.25
604.081	30.25
604.845	30.25
605.609	29.25
606.372	28.25
607.136	26.25
607.899	21.25
608.662	22.25
609.426	22.25
610.189	19.25
610.952	21.25
611.715	21.25
612.478	19.25
613.241	20.25
614.004	16.25
614.767	17.25
615.529	16.25
616.292	15.25
617.055	13.25
617.817	15.25
618.579	12.25
619.342	12.25
620.104	14.25
620.866	11.25
621.628	12.25
622.39	12.25
623.152	10.25
623.914	10.25
624.676	9.25
625.438	13.25
626.199	9.25
626.961	8.25
627.722	8.25
628.484	8.25
629.245	8.25
630.006	6.25
630.768	5.25
631.529	9.25
632.29	7.25
633.051	8.25
633.812	5.25
634.573	7.25
635.333	5.25
636.094	7.25
636.855	6.25
637.615	5.25
638.376	5.25
639.136	6.25
639.896	4.25
640.657	6.25
641.417	6.25
642.177	7.25
642.937	5.25
643.697	7.25
644.457	4.25
645.216	5.25
645.976	4.25
646.736	7.25
647.495	4.25
648.255	5.25
649.014	5.25
649.774	4.25
650.533	5.25
651.292	4.25
652.051	5.25
652.81	4.25
653.569	3.25
654.328	1.25
655.087	2.25
655.846	4.25
656.604	4.25
657.363	4.25
658.121	3.25
658.88	4.25
659.638	3.25
660.397	4.25
661.155	3.25
661.913	3.25
662.671	3.25
663.429	1.25
664.187	1.25
664.945	4.25
665.703	1.25
666.46	3.25
667.218	4.25
667.976	2.25
668.733	4.25
669.49	1.25
670.248	2.25
671.005	3.25
671.762	1.25
672.519	3.25
673.276	2.25
674.033	3.25
674.79	1.25
675.547	2.25
676.304	-1.75
677.06	3.25
677.817	1.25
678.574	1.25
679.33	2.25
680.086	1.25
680.843	3.25
681.599	1.25
682.355	1.25
683.111	2.25
683.867	3.25
684.623	1.25
685.379	2.25
686.135	2.25
686.89	1.25
687.646	1.25
688.402	1.25
689.157	3.25
689.912	0.25
690.668	3.25
691.423	1.25
692.178	1.25
692.933	1.25
693.688	3.25
694.443	2.25
695.198	0.25
695.953	0.25
696.708	0.25
697.462	4.25
698.217	3.25
698.972	2.25
699.726	0.25
700.48	1.25
701.235	1.25
701.989	4.25
702.743	3.25
703.497	1.25
704.251	2.25
705.005	2.25
705.759	2.25
706.513	2.25
707.266	4.25
708.02	1.25
708.774	0.25
709.527	1.25
710.28	2.25
711.034	2.25
711.787	-0.75
712.54	1.25
713.293	2.25
714.046	0.25
714.799	2.25
715.552	2.25
716.305	3.25
717.058	0.25
717.81	2.25
718.563	1.25
719.315	2.25
720.068	0.25
720.82	2.25
721.573	2.25
722.325	-0.75
723.077	2.25
723.829	2.25
724.581	2.25
725.333	3.25
726.085	1.25
726.836	3.25
727.588	2.25
728.34	3.25
729.091	1.25
729.843	2.25
730.594	2.25
731.346	1.25
732.097	2.25
732.848	1.25
733.599	3.25
734.35	2.25
735.101	4.25
735.852	2.25
736.603	1.25
737.354	1.25
738.104	3.25
738.855	2.25
739.605	2.25
740.356	2.25
741.106	0.25
741.856	-0.75
742.607	3.25
743.357	3.25
744.107	2.25
744.857	3.25
745.607	2.25
746.357	3.25
747.106	1.25
747.856	1.25
748.606	1.25
749.355	2.25
750.105	1.25
750.854	3.25
751.603	3.25
752.353	2.25
753.102	0.25
753.851	3.25
754.6	4.25
755.349	3.25
756.098	3.25
756.847	2.25
757.595	1.25
758.344	4.25
759.093	2.25
759.841	2.25
760.589	3.25
761.338	5.25
762.086	1.25
762.834	1.25
763.582	4.25
764.331	4.25
765.079	4.25
765.826	3.25
766.574	4.25
767.322	4.25
768.07	5.25
768.817	3.25
769.565	5.25
770.312	3.25
771.06	5.25
771.807	3.25
772.554	5.25
773.302	5.25
774.049	4.25
774.796	5.25
775.543	3.25
776.29	4.25
777.036	4.25
777.783	4.25
778.53	3.25
779.276	5.25
780.023	3.25
780.769	5.25
781.516	5.25
782.262	5.25
783.008	6.25
783.754	4.25
784.5	4.25
785.246	7.25
785.992	4.25
786.738	4.25
787.484	5.25
788.23	5.25
788.975	3.25
789.721	8.25
790.466	3.25
791.212	5.25
791.957	5.25
792.702	2.25
793.447	5.25
794.193	5.25
794.938	2.25
795.683	4.25
796.427	4.25
797.172	7.25
797.917	3.25
798.662	5.25
799.406	7.25
800.151	4.25
800.895	5.25
801.64	2.25
802.384	4.25
803.128	6.25
803.872	3.25
804.616	4.25
805.36	5.25
806.104	7.25
806.848	4.25
807.592	3.25
808.336	5.25
809.079	4.25
809.823	1.25
810.566	4.25
811.31	4.25
812.053	3.25
812.796	4.25
813.539	3.25
814.283	4.25
815.026	3.25
815.769	3.25
816.511	4.25
817.254	2.25
817.997	4.25
818.74	5.25
819.482	3.25
820.225	1.25
820.967	4.25
821.71	3.25
822.452	3.25
823.194	3.25
823.936	1.25
824.678	3.25
825.42	2.25
826.162	3.25
826.904	1.25
827.646	4.25
828.388	2.25
829.129	1.25
829.871	1.25
830.612	3.25
831.354	1.25
832.095	3.25
832.836	3.25
833.577	3.25
834.319	1.25
835.06	2.25
835.801	2.25
836.542	1.25
837.282	1.25
838.023	1.25
838.764	3.25
839.504	0.25
840.245	1.25
840.985	2.25
841.726	2.25
842.466	1.25
843.206	2.25
843.946	2.25
844.687	4.25
845.427	2.25
846.166	1.25
846.906	0.25
847.646	4.25
848.386	0.25
849.125	2.25
849.865	2.25
850.605	2.25
851.344	1.25
852.083	4.25
852.823	2.25
853.562	3.25
854.301	3.25
855.04	1.25
855.779	3.25
856.518	3.25
857.257	2.25
857.995	0.25
858.734	3.25
859.473	3.25
860.211	0.25
860.95	1.25
861.688	0.25
862.426	2.25
863.165	3.25
863.903	2.25
864.641	2.25
865.379	2.25
866.117	0.25
866.855	2.25
867.593	1.25
868.33	-0.75
869.068	2.25
869.806	0.25
870.543	1.25
871.28	1.25
872.018	0.25
872.755	-1.75
873.492	1.25
874.229	1.25
874.967	1.25
875.703	3.25
876.44	1.25
877.177	1.25
877.914	-0.75
878.651	0.25
879.387	3.25
880.124	1.25
880.86	1.25
881.597	1.25
882.333	0.25
883.069	0.25
883.806	1.25
884.542	1.25
885.278	0.25
886.014	1.25
886.749	0.25
887.485	1.25
888.221	1.25
888.957	-0.75
889.692	0.25
890.428	-0.75
891.163	-0.75
891.899	-1.75
892.634	0.25
893.369	1.25
894.104	0.25
894.839	3.25
895.574	1.25
896.309	1.25
897.044	0.25
897.779	2.25
898.514	0.25
899.248	1.25
899.983	0.25
900.717	-1.75
901.452	1.25
902.186	1.25
902.92	2.25
903.654	1.25
904.389	-0.75
905.123	3.25
905.857	-1.75
906.59	-1.75
907.324	3.25
908.058	2.25
908.792	-0.75
909.525	1.25
910.259	2.25
910.992	0.25
911.726	3.25
912.459	1.25
913.192	1.25
913.925	-1.75
914.658	0.25
915.391	0.25
916.124	2.25
916.857	-2.75
917.59	-0.75
918.323	2.25
919.055	1.25
919.788	-1.75
920.521	0.25
921.253	0.25
921.985	2.25
922.718	0.25
923.45	0.25
924.182	0.25
924.914	0.25
925.646	0.25
926.378	-1.75
927.11	1.25
927.841	-0.75
928.573	1.25
929.305	-0.75
930.036	1.25
930.768	0.25
931.499	1.25
932.23	-0.75
932.962	0.25
933.693	0.25
934.424	-0.75
935.155	2.25
935.886	-0.75
936.617	1.25
937.348	1.25
938.078	0.25
938.809	1.25
939.54	2.25
940.27	-0.75
941.001	1.25
941.731	0.25
942.461	-0.75
943.191	-1.75
943.922	-0.75
944.652	0.25
945.382	1.25
946.112	1.25
946.841	1.25
947.571	1.25
948.301	-0.75
949.031	-1.75
949.76	2.25
950.49	1.25
951.219	1.25
951.948	-1.75
952.678	0.25
953.407	-2.75
954.136	2.25
954.865	1.25
955.594	-1.75
956.323	-0.75
957.052	-1.75
957.78	1.25
958.509	1.25
959.238	1.25
959.966	0.25
960.695	0.25
961.423	0.25
962.151	-0.75
962.88	2.25
963.608	-1.75
964.336	2.25
965.064	0.25
965.792	0.25
966.52	1.25
967.247	3.25
967.975	1.25
968.703	0.25
969.43	0.25
970.158	0.25
970.885	1.25
971.613	-1.75
972.34	-1.75
973.067	3.25
973.794	0.25
974.521	-1.75
975.248	-0.75
975.975	2.25
976.702	1.25
977.429	0.25
978.156	0.25
978.882	1.25
979.609	-1.75
980.335	1.25
981.062	1.25
981.788	1.25
982.514	0.25
983.24	0.25
983.967	1.25
984.693	3.25
985.419	1.25
986.144	-1.75
986.87	1.25
987.596	0.25
988.322	3.25
989.047	1.25
989.773	2.25
990.498	0.25
991.224	-1.75
991.949	1.25
992.674	-1.75
993.399	-0.75
994.124	2.25
994.849	0.25
995.574	0.25
996.299	-0.75
997.024	0.25
997.749	-1.75
998.473	-1.75
999.198	0.25
999.922	1.25
1000.647	-1.75
1001.371	4.25
1002.095	-2.75
1002.82	0.25
1003.544	0.25
1004.268	0.25
1004.992	-0.75
1005.716	-2.75
1006.439	1.25
1007.163	-0.75
1007.887	0.25
1008.611	0.25
1009.334	1.25
1010.058	0.25
1010.781	-0.75
1011.504	1.25
1012.228	-0.75
1012.951	0.25
1013.674	0.25
1014.397	-1.75
1015.12	-0.75
