节点500_145_QEPB04081__189__11-31-58-539.txt的数据

Date: Wed Nov 12 11:31:58 CST 2025
User: PC
Spectrometer: QEPB0408
触发模式: 0
积分时间 (秒): 1.000000E-2
Scans to average: 1
启用暗噪声校正: true
启用非线性校正: false
滑动平均宽度: 0
X轴模式: Wavelengths
Number of Pixels in Spectrum: 1044
>>>>>Begin Spectral Data<<<<<
220.843	1
221.644	-2
222.444	1
223.244	2
224.045	1
224.845	2
225.645	2
226.445	-1
227.245	1
228.045	3
228.845	1
229.645	1
230.444	2
231.244	2
232.043	0
232.843	2
233.642	0
234.442	1
235.241	3
236.04	3
236.839	3
237.638	1
238.437	3
239.236	2
240.035	2
240.833	2
241.632	1
242.43	2
243.229	2
244.027	4
244.826	3
245.624	3
246.422	3
247.22	4
248.018	3
248.816	2
249.614	3
250.412	3
251.21	2
252.007	4
252.805	2
253.602	6
254.4	3
255.197	5
255.994	5
256.791	2
257.589	4
258.386	1
259.183	6
259.979	5
260.776	5
261.573	4
262.37	5
263.166	3
263.963	5
264.759	7
265.556	6
266.352	7
267.148	8
267.944	7
268.74	10
269.536	6
270.332	10
271.128	10
271.924	8
272.719	6
273.515	9
274.311	11
275.106	9
275.901	9
276.697	8
277.492	9
278.287	10
279.082	11
279.877	13
280.672	11
281.467	14
282.262	11
283.056	13
283.851	13
284.646	13
285.44	13
286.234	12
287.029	13
287.823	12
288.617	12
289.411	10
290.205	11
290.999	11
291.793	14
292.587	11
293.381	11
294.174	12
294.968	13
295.761	11
296.555	13
297.348	10
298.141	9
298.935	8
299.728	7
300.521	11
301.314	9
302.107	10
302.899	8
303.692	10
304.485	9
305.277	8
306.07	10
306.862	10
307.655	7
308.447	9
309.239	7
310.031	9
310.823	6
311.615	10
312.407	11
313.199	8
313.991	6
314.783	8
315.574	9
316.366	8
317.157	3
317.949	6
318.74	7
319.531	7
320.322	5
321.113	3
321.904	5
322.695	6
323.486	5
324.277	5
325.068	6
325.858	5
326.649	6
327.439	4
328.23	5
329.02	5
329.81	5
330.6	5
331.391	4
332.181	3
332.971	2
333.76	5
334.55	5
335.34	4
336.13	6
336.919	0
337.709	4
338.498	4
339.287	5
340.077	1
340.866	2
341.655	3
342.444	2
343.233	5
344.022	5
344.811	4
345.6	5
346.388	7
347.177	4
347.965	5
348.754	2
349.542	5
350.33	7
351.119	3
351.907	6
352.695	4
353.483	4
354.271	5
355.059	2
355.846	2
356.634	3
357.422	3
358.209	3
358.997	3
359.784	5
360.571	5
361.359	4
362.146	3
362.933	4
363.72	5
364.507	2
365.294	4
366.081	5
366.867	1
367.654	5
368.44	3
369.227	3
370.013	2
370.8	3
371.586	0
372.372	6
373.158	3
373.944	2
374.73	5
375.516	2
376.302	3
377.088	5
377.873	3
378.659	2
379.445	5
380.23	4
381.015	3
381.801	4
382.586	2
383.371	3
384.156	6
384.941	6
385.726	4
386.511	3
387.296	2
388.08	4
388.865	3
389.649	3
390.434	4
391.218	4
392.003	3
392.787	4
393.571	3
394.355	3
395.139	5
395.923	3
396.707	3
397.491	5
398.274	6
399.058	4
399.842	4
400.625	6
401.408	2
402.192	5
402.975	5
403.758	3
404.541	4
405.324	4
406.107	2
406.89	3
407.673	5
408.456	3
409.238	5
410.021	7
410.803	4
411.586	6
412.368	4
413.151	5
413.933	4
414.715	5
415.497	7
416.279	6
417.061	5
417.843	4
418.624	7
419.406	5
420.188	4
420.969	6
421.751	7
422.532	6
423.313	5
424.095	9
424.876	8
425.657	8
426.438	6
427.219	7
428	8
428.78	7
429.561	9
430.342	8
431.122	10
431.903	6
432.683	8
433.464	10
434.244	10
435.024	11
435.804	7
436.584	11
437.364	9
438.144	11
438.924	11
439.704	14
440.483	11
441.263	11
442.042	14
442.822	16
443.601	16
444.38	15
445.16	15
445.939	20
446.718	20
447.497	21
448.276	23
449.054	21
449.833	23
450.612	24
451.391	28
452.169	31
452.948	31
453.726	38
454.504	37
455.282	43
456.061	42
456.839	50
457.617	52
458.395	58
459.172	69
459.95	71
460.728	78
461.506	92
462.283	99
463.061	107
463.838	125
464.615	137
465.393	153
466.17	167
466.947	183
467.724	209
468.501	243
469.278	259
470.055	291
470.831	317
471.608	364
472.385	399
473.161	457
473.938	498
474.714	553
475.49	615
476.266	682
477.043	767
477.819	852
478.595	940
479.371	1026
480.146	1143
480.922	1268
481.698	1413
482.473	1551
483.249	1703
484.024	1889
484.8	2100
485.575	2313
486.35	2560
487.126	2818
487.901	3122
488.676	3426
489.451	3808
490.225	4197
491	4621
491.775	5114
492.55	5582
493.324	6139
494.099	6725
494.873	7358
495.647	8018
496.422	8715
497.196	9447
497.97	10190
498.744	11004
499.518	11790
500.292	12480
501.066	13273
501.839	13947
502.613	14678
503.387	15346
504.16	15843
504.934	16289
505.707	16614
506.48	16855
507.253	16994
508.027	16985
508.8	16871
509.573	16629
510.346	16322
511.118	15986
511.891	15486
512.664	15006
513.437	14407
514.209	13844
514.982	13259
515.754	12728
516.526	12140
517.298	11586
518.071	11085
518.843	10570
519.615	10130
520.387	9745
521.159	9294
521.93	8932
522.702	8603
523.474	8231
524.245	7946
525.017	7599
525.788	7298
526.56	6991
527.331	6717
528.102	6400
528.873	6137
529.644	5867
530.415	5558
531.186	5256
531.957	5044
532.728	4756
533.498	4512
534.269	4254
535.039	4021
535.81	3802
536.58	3579
537.351	3377
538.121	3198
538.891	3003
539.661	2837
540.431	2697
541.201	2555
541.971	2421
542.741	2301
543.51	2158
544.28	2058
545.05	1951
545.819	1864
546.588	1778
547.358	1686
548.127	1598
548.896	1510
549.665	1443
550.434	1384
551.203	1310
551.972	1236
552.741	1174
553.51	1104
554.278	1042
555.047	981
555.815	928
556.584	879
557.352	819
558.121	781
558.889	731
559.657	684
560.425	654
561.193	621
561.961	582
562.729	549
563.496	522
564.264	495
565.032	460
565.799	432
566.567	403
567.334	391
568.101	360
568.869	344
569.636	327
570.403	320
571.17	293
571.937	276
572.704	263
573.471	249
574.237	228
575.004	217
575.771	207
576.537	188
577.303	180
578.07	171
578.836	162
579.602	150
580.368	139
581.134	135
581.9	129
582.666	122
583.432	116
584.198	109
584.964	103
585.729	94
586.495	92
587.26	85
588.025	80
588.791	80
589.556	74
590.321	68
591.086	63
591.851	64
592.616	58
593.381	58
594.146	55
594.911	51
595.675	50
596.44	47
597.204	47
597.969	42
598.733	43
599.497	40
600.261	38
601.025	37
601.79	33
602.553	31
603.317	28
604.081	31
604.845	27
605.609	29
606.372	26
607.136	24
607.899	26
608.662	22
609.426	22
610.189	22
610.952	18
611.715	19
612.478	18
613.241	15
614.004	18
614.767	15
615.529	18
616.292	15
617.055	14
617.817	11
618.579	15
619.342	14
620.104	14
620.866	15
621.628	11
622.39	11
623.152	12
623.914	13
624.676	12
625.438	11
626.199	10
626.961	8
627.722	10
628.484	10
629.245	10
630.006	8
630.768	11
631.529	6
632.29	7
633.051	9
633.812	7
634.573	7
635.333	6
636.094	8
636.855	10
637.615	6
638.376	8
639.136	6
639.896	6
640.657	4
641.417	8
642.177	7
642.937	7
643.697	6
644.457	2
645.216	5
645.976	7
646.736	5
647.495	4
648.255	4
649.014	6
649.774	3
650.533	6
651.292	3
652.051	5
652.81	6
653.569	3
654.328	3
655.087	4
655.846	7
656.604	5
657.363	1
658.121	4
658.88	1
659.638	5
660.397	2
661.155	6
661.913	5
662.671	4
663.429	2
664.187	1
664.945	3
665.703	4
666.46	6
667.218	3
667.976	4
668.733	2
669.49	5
670.248	1
671.005	3
671.762	6
672.519	2
673.276	4
674.033	3
674.79	4
675.547	3
676.304	4
677.06	1
677.817	3
678.574	2
679.33	3
680.086	3
680.843	3
681.599	3
682.355	3
683.111	2
683.867	3
684.623	3
685.379	2
686.135	5
686.89	3
687.646	2
688.402	2
689.157	1
689.912	4
690.668	1
691.423	3
692.178	1
692.933	1
693.688	4
694.443	1
695.198	3
695.953	2
696.708	2
697.462	2
698.217	1
698.972	4
699.726	3
700.48	3
701.235	2
701.989	2
702.743	4
703.497	2
704.251	3
705.005	3
705.759	3
706.513	4
707.266	4
708.02	1
708.774	2
709.527	3
710.28	0
711.034	2
711.787	3
712.54	5
713.293	3
714.046	2
714.799	3
715.552	3
716.305	5
717.058	4
717.81	5
718.563	3
719.315	3
720.068	5
720.82	3
721.573	5
722.325	3
723.077	2
723.829	3
724.581	1
725.333	1
726.085	2
726.836	4
727.588	3
728.34	1
729.091	2
729.843	2
730.594	3
731.346	4
732.097	5
732.848	4
733.599	4
734.35	3
735.101	2
735.852	4
736.603	3
737.354	5
738.104	3
738.855	2
739.605	3
740.356	3
741.106	3
741.856	3
742.607	5
743.357	3
744.107	4
744.857	3
745.607	2
746.357	3
747.106	4
747.856	3
748.606	5
749.355	2
750.105	4
750.854	2
751.603	2
752.353	4
753.102	3
753.851	3
754.6	4
755.349	3
756.098	3
756.847	4
757.595	5
758.344	2
759.093	4
759.841	5
760.589	5
761.338	6
762.086	4
762.834	4
763.582	6
764.331	4
765.079	4
765.826	5
766.574	4
767.322	3
768.07	8
768.817	3
769.565	3
770.312	5
771.06	4
771.807	5
772.554	3
773.302	7
774.049	7
774.796	3
775.543	4
776.29	3
777.036	3
777.783	8
778.53	5
779.276	9
780.023	5
780.769	6
781.516	6
782.262	4
783.008	8
783.754	5
784.5	7
785.246	5
785.992	6
786.738	9
787.484	4
788.23	4
788.975	9
789.721	7
790.466	6
791.212	5
791.957	7
792.702	6
793.447	6
794.193	5
794.938	5
795.683	4
796.427	4
797.172	5
797.917	6
798.662	5
799.406	5
800.151	5
800.895	6
801.64	6
802.384	8
803.128	4
803.872	4
804.616	4
805.36	4
806.104	5
806.848	6
807.592	3
808.336	6
809.079	5
809.823	4
810.566	4
811.31	5
812.053	5
812.796	6
813.539	6
814.283	4
815.026	3
815.769	5
816.511	4
817.254	2
817.997	5
818.74	3
819.482	3
820.225	7
820.967	1
821.71	7
822.452	3
823.194	4
823.936	5
824.678	3
825.42	4
826.162	3
826.904	2
827.646	3
828.388	5
829.129	4
829.871	3
830.612	4
831.354	3
832.095	4
832.836	4
833.577	3
834.319	5
835.06	4
835.801	2
836.542	4
837.282	4
838.023	3
838.764	4
839.504	5
840.245	0
840.985	3
841.726	2
842.466	3
843.206	5
843.946	5
844.687	2
845.427	3
846.166	3
846.906	0
847.646	4
848.386	3
849.125	4
849.865	2
850.605	2
851.344	1
852.083	2
852.823	4
853.562	1
854.301	3
855.04	1
855.779	2
856.518	3
857.257	4
857.995	2
858.734	2
859.473	2
860.211	2
860.95	0
861.688	2
862.426	2
863.165	4
863.903	2
864.641	0
865.379	2
866.117	2
866.855	4
867.593	2
868.33	3
869.068	2
869.806	2
870.543	2
871.28	1
872.018	3
872.755	2
873.492	2
874.229	2
874.967	3
875.703	3
876.44	2
877.177	3
877.914	2
878.651	0
879.387	2
880.124	1
880.86	0
881.597	0
882.333	2
883.069	2
883.806	0
884.542	0
885.278	0
886.014	1
886.749	2
887.485	2
888.221	2
888.957	1
889.692	2
890.428	2
891.163	1
891.899	1
892.634	2
893.369	-1
894.104	1
894.839	3
895.574	2
896.309	2
897.044	0
897.779	2
898.514	2
899.248	1
899.983	4
900.717	1
901.452	1
902.186	2
902.92	1
903.654	0
904.389	2
905.123	1
905.857	0
906.59	1
907.324	2
908.058	-1
908.792	2
909.525	3
910.259	3
910.992	1
911.726	2
912.459	-1
913.192	0
913.925	1
914.658	1
915.391	0
916.124	0
916.857	1
917.59	1
918.323	2
919.055	1
919.788	0
920.521	3
921.253	3
921.985	1
922.718	-1
923.45	2
924.182	1
924.914	0
925.646	-1
926.378	0
927.11	1
927.841	2
928.573	0
929.305	1
930.036	0
930.768	1
931.499	-1
932.23	2
932.962	2
933.693	1
934.424	1
935.155	1
935.886	0
936.617	1
937.348	2
938.078	1
938.809	2
939.54	2
940.27	0
941.001	0
941.731	1
942.461	0
943.191	2
943.922	2
944.652	1
945.382	-1
946.112	2
946.841	-1
947.571	-1
948.301	1
949.031	0
949.76	2
950.49	1
951.219	2
951.948	1
952.678	-1
953.407	2
954.136	2
954.865	2
955.594	0
956.323	2
957.052	0
957.78	0
958.509	-2
959.238	1
959.966	2
960.695	2
961.423	0
962.151	0
962.88	4
963.608	3
964.336	1
965.064	2
965.792	0
966.52	0
967.247	0
967.975	-1
968.703	0
969.43	2
970.158	4
970.885	0
971.613	-1
972.34	3
973.067	0
973.794	2
974.521	1
975.248	2
975.975	0
976.702	1
977.429	1
978.156	2
978.882	1
979.609	-1
980.335	3
981.062	0
981.788	2
982.514	2
983.24	0
983.967	1
984.693	1
985.419	2
986.144	-1
986.87	0
987.596	2
988.322	-1
989.047	3
989.773	-1
990.498	1
991.224	2
991.949	-1
992.674	1
993.399	1
994.124	2
994.849	-1
995.574	3
996.299	1
997.024	2
997.749	2
998.473	1
999.198	1
999.922	2
1000.647	1
1001.371	3
1002.095	-1
1002.82	1
1003.544	-1
1004.268	0
1004.992	2
1005.716	-1
1006.439	1
1007.163	1
1007.887	-1
1008.611	1
1009.334	3
1010.058	1
1010.781	1
1011.504	3
1012.228	0
1012.951	-1
1013.674	2
1014.397	-3
1015.12	0
