节点500_145_QEPB04081__267__11-33-15-488.txt的数据

Date: Wed Nov 12 11:33:15 CST 2025
User: PC
Spectrometer: QEPB0408
触发模式: 0
积分时间 (秒): 1.000000E-2
Scans to average: 1
启用暗噪声校正: true
启用非线性校正: false
滑动平均宽度: 0
X轴模式: Wavelengths
Number of Pixels in Spectrum: 1044
>>>>>Begin Spectral Data<<<<<
220.843	-0.38
221.644	-0.38
222.444	0.62
223.244	1.62
224.045	-0.38
224.845	-0.38
225.645	0.62
226.445	-0.38
227.245	0.62
228.045	-0.38
228.845	0.62
229.645	0.62
230.444	1.62
231.244	2.62
232.043	0.62
232.843	0.62
233.642	-2.38
234.442	-0.38
235.241	0.62
236.04	1.62
236.839	1.62
237.638	2.62
238.437	0.62
239.236	0.62
240.035	3.62
240.833	-0.38
241.632	1.62
242.43	1.62
243.229	0.62
244.027	2.62
244.826	3.62
245.624	4.62
246.422	4.62
247.22	0.62
248.018	2.62
248.816	2.62
249.614	5.62
250.412	1.62
251.21	2.62
252.007	0.62
252.805	4.62
253.602	4.62
254.4	2.62
255.197	6.62
255.994	2.62
256.791	3.62
257.589	5.62
258.386	5.62
259.183	5.62
259.979	3.62
260.776	6.62
261.573	5.62
262.37	5.62
263.166	6.62
263.963	5.62
264.759	4.62
265.556	5.62
266.352	9.62
267.148	3.62
267.944	7.62
268.74	5.62
269.536	5.62
270.332	6.62
271.128	7.62
271.924	10.62
272.719	9.62
273.515	9.62
274.311	10.62
275.106	10.62
275.901	9.62
276.697	6.62
277.492	12.62
278.287	10.62
279.082	11.62
279.877	10.62
280.672	8.62
281.467	10.62
282.262	10.62
283.056	11.62
283.851	10.62
284.646	14.62
285.44	10.62
286.234	10.62
287.029	12.62
287.823	9.62
288.617	10.62
289.411	12.62
290.205	12.62
290.999	12.62
291.793	10.62
292.587	10.62
293.381	10.62
294.174	13.62
294.968	9.62
295.761	9.62
296.555	9.62
297.348	7.62
298.141	10.62
298.935	9.62
299.728	9.62
300.521	7.62
301.314	9.62
302.107	9.62
302.899	9.62
303.692	10.62
304.485	9.62
305.277	8.62
306.07	10.62
306.862	6.62
307.655	9.62
308.447	7.62
309.239	8.62
310.031	6.62
310.823	9.62
311.615	7.62
312.407	7.62
313.199	7.62
313.991	6.62
314.783	6.62
315.574	7.62
316.366	6.62
317.157	4.62
317.949	6.62
318.74	7.62
319.531	6.62
320.322	4.62
321.113	6.62
321.904	7.62
322.695	2.62
323.486	5.62
324.277	6.62
325.068	5.62
325.858	3.62
326.649	4.62
327.439	5.62
328.23	5.62
329.02	2.62
329.81	4.62
330.6	4.62
331.391	5.62
332.181	1.62
332.971	1.62
333.76	2.62
334.55	3.62
335.34	6.62
336.13	2.62
336.919	4.62
337.709	3.62
338.498	4.62
339.287	4.62
340.077	2.62
340.866	5.62
341.655	1.62
342.444	1.62
343.233	1.62
344.022	5.62
344.811	3.62
345.6	2.62
346.388	6.62
347.177	1.62
347.965	4.62
348.754	2.62
349.542	4.62
350.33	3.62
351.119	3.62
351.907	2.62
352.695	3.62
353.483	4.62
354.271	4.62
355.059	1.62
355.846	4.62
356.634	4.62
357.422	2.62
358.209	2.62
358.997	3.62
359.784	0.62
360.571	3.62
361.359	6.62
362.146	3.62
362.933	5.62
363.72	3.62
364.507	3.62
365.294	4.62
366.081	4.62
366.867	3.62
367.654	2.62
368.44	5.62
369.227	2.62
370.013	2.62
370.8	-0.38
371.586	2.62
372.372	4.62
373.158	4.62
373.944	3.62
374.73	2.62
375.516	4.62
376.302	5.62
377.088	1.62
377.873	2.62
378.659	3.62
379.445	3.62
380.23	3.62
381.015	3.62
381.801	4.62
382.586	2.62
383.371	4.62
384.156	3.62
384.941	1.62
385.726	4.62
386.511	1.62
387.296	4.62
388.08	3.62
388.865	4.62
389.649	0.62
390.434	2.62
391.218	2.62
392.003	2.62
392.787	2.62
393.571	4.62
394.355	5.62
395.139	1.62
395.923	2.62
396.707	1.62
397.491	3.62
398.274	2.62
399.058	5.62
399.842	5.62
400.625	4.62
401.408	5.62
402.192	5.62
402.975	4.62
403.758	3.62
404.541	3.62
405.324	5.62
406.107	6.62
406.89	3.62
407.673	5.62
408.456	5.62
409.238	7.62
410.021	3.62
410.803	7.62
411.586	4.62
412.368	4.62
413.151	4.62
413.933	2.62
414.715	6.62
415.497	5.62
416.279	7.62
417.061	4.62
417.843	5.62
418.624	4.62
419.406	5.62
420.188	4.62
420.969	6.62
421.751	6.62
422.532	7.62
423.313	6.62
424.095	8.62
424.876	5.62
425.657	6.62
426.438	6.62
427.219	9.62
428	8.62
428.78	4.62
429.561	7.62
430.342	8.62
431.122	10.62
431.903	9.62
432.683	6.62
433.464	8.62
434.244	8.62
435.024	9.62
435.804	8.62
436.584	9.62
437.364	12.62
438.144	8.62
438.924	13.62
439.704	10.62
440.483	11.62
441.263	11.62
442.042	12.62
442.822	16.62
443.601	15.62
444.38	16.62
445.16	18.62
445.939	16.62
446.718	18.62
447.497	19.62
448.276	21.62
449.054	21.62
449.833	22.62
450.612	24.62
451.391	26.62
452.169	30.62
452.948	30.62
453.726	33.62
454.504	36.62
455.282	41.62
456.061	45.62
456.839	48.62
457.617	55.62
458.395	57.62
459.172	65.62
459.95	70.62
460.728	75.62
461.506	89.62
462.283	101.62
463.061	114.62
463.838	121.62
464.615	138.62
465.393	154.62
466.17	173.62
466.947	192.62
467.724	212.62
468.501	241.62
469.278	269.62
470.055	301.62
470.831	336.62
471.608	367.62
472.385	409.62
473.161	465.62
473.938	504.62
474.714	566.62
475.49	631.62
476.266	695.62
477.043	765.62
477.819	848.62
478.595	933.62
479.371	1033.62
480.146	1151.62
480.922	1259.62
481.698	1402.62
482.473	1538.62
483.249	1710.62
484.024	1884.62
484.8	2056.62
485.575	2285.62
486.35	2522.62
487.126	2780.62
487.901	3068.62
488.676	3375.62
489.451	3732.62
490.225	4078.62
491	4484.62
491.775	4952.62
492.55	5414.62
493.324	5911.62
494.099	6455.62
494.873	7070.62
495.647	7691.62
496.422	8367.62
497.196	9037.62
497.97	9800.62
498.744	10577.62
499.518	11293.62
500.292	12001.62
501.066	12752.62
501.839	13391.62
502.613	14145.62
503.387	14754.62
504.16	15328.62
504.934	15783.62
505.707	16121.62
506.48	16361.62
507.253	16522.62
508.027	16577.62
508.8	16543.62
509.573	16289.62
510.346	16133.62
511.118	15801.62
511.891	15344.62
512.664	14830.62
513.437	14346.62
514.209	13779.62
514.982	13307.62
515.754	12750.62
516.526	12190.62
517.298	11649.62
518.071	11133.62
518.843	10576.62
519.615	10191.62
520.387	9756.62
521.159	9390.62
521.93	8958.62
522.702	8622.62
523.474	8308.62
524.245	7982.62
525.017	7676.62
525.788	7342.62
526.56	7061.62
527.331	6735.62
528.102	6441.62
528.873	6185.62
529.644	5893.62
530.415	5621.62
531.186	5317.62
531.957	5066.62
532.728	4788.62
533.498	4561.62
534.269	4320.62
535.039	4059.62
535.81	3840.62
536.58	3639.62
537.351	3410.62
538.121	3251.62
538.891	3055.62
539.661	2880.62
540.431	2708.62
541.201	2594.62
541.971	2445.62
542.741	2316.62
543.51	2186.62
544.28	2101.62
545.05	1979.62
545.819	1885.62
546.588	1801.62
547.358	1712.62
548.127	1632.62
548.896	1539.62
549.665	1469.62
550.434	1398.62
551.203	1319.62
551.972	1255.62
552.741	1185.62
553.51	1114.62
554.278	1057.62
555.047	986.62
555.815	937.62
556.584	883.62
557.352	839.62
558.121	794.62
558.889	743.62
559.657	703.62
560.425	655.62
561.193	622.62
561.961	589.62
562.729	553.62
563.496	529.62
564.264	489.62
565.032	465.62
565.799	435.62
566.567	419.62
567.334	395.62
568.101	367.62
568.869	350.62
569.636	323.62
570.403	309.62
571.17	292.62
571.937	277.62
572.704	268.62
573.471	248.62
574.237	230.62
575.004	217.62
575.771	207.62
576.537	196.62
577.303	183.62
578.07	169.62
578.836	162.62
579.602	153.62
580.368	141.62
581.134	134.62
581.9	131.62
582.666	123.62
583.432	118.62
584.198	108.62
584.964	104.62
585.729	101.62
586.495	93.62
587.26	89.62
588.025	84.62
588.791	81.62
589.556	76.62
590.321	68.62
591.086	67.62
591.851	63.62
592.616	55.62
593.381	55.62
594.146	57.62
594.911	48.62
595.675	51.62
596.44	45.62
597.204	45.62
597.969	44.62
598.733	39.62
599.497	38.62
600.261	38.62
601.025	39.62
601.79	33.62
602.553	32.62
603.317	26.62
604.081	28.62
604.845	26.62
605.609	27.62
606.372	23.62
607.136	24.62
607.899	25.62
608.662	24.62
609.426	21.62
610.189	18.62
610.952	19.62
611.715	18.62
612.478	19.62
613.241	19.62
614.004	18.62
614.767	17.62
615.529	15.62
616.292	17.62
617.055	14.62
617.817	13.62
618.579	14.62
619.342	11.62
620.104	14.62
620.866	9.62
621.628	13.62
622.39	11.62
623.152	13.62
623.914	10.62
624.676	9.62
625.438	10.62
626.199	10.62
626.961	7.62
627.722	7.62
628.484	9.62
629.245	8.62
630.006	8.62
630.768	7.62
631.529	8.62
632.29	7.62
633.051	4.62
633.812	5.62
634.573	7.62
635.333	8.62
636.094	4.62
636.855	5.62
637.615	7.62
638.376	5.62
639.136	7.62
639.896	5.62
640.657	6.62
641.417	5.62
642.177	5.62
642.937	4.62
643.697	5.62
644.457	4.62
645.216	6.62
645.976	6.62
646.736	4.62
647.495	3.62
648.255	4.62
649.014	4.62
649.774	4.62
650.533	4.62
651.292	2.62
652.051	4.62
652.81	1.62
653.569	3.62
654.328	4.62
655.087	6.62
655.846	5.62
656.604	3.62
657.363	3.62
658.121	3.62
658.88	3.62
659.638	3.62
660.397	2.62
661.155	2.62
661.913	4.62
662.671	0.62
663.429	2.62
664.187	5.62
664.945	4.62
665.703	4.62
666.46	3.62
667.218	2.62
667.976	4.62
668.733	3.62
669.49	5.62
670.248	2.62
671.005	5.62
671.762	2.62
672.519	3.62
673.276	2.62
674.033	4.62
674.79	5.62
675.547	4.62
676.304	3.62
677.06	3.62
677.817	2.62
678.574	2.62
679.33	3.62
680.086	4.62
680.843	1.62
681.599	4.62
682.355	2.62
683.111	3.62
683.867	2.62
684.623	2.62
685.379	3.62
686.135	2.62
686.89	1.62
687.646	2.62
688.402	0.62
689.157	4.62
689.912	2.62
690.668	1.62
691.423	4.62
692.178	2.62
692.933	-0.38
693.688	2.62
694.443	1.62
695.198	0.62
695.953	3.62
696.708	3.62
697.462	1.62
698.217	4.62
698.972	3.62
699.726	1.62
700.48	3.62
701.235	4.62
701.989	2.62
702.743	1.62
703.497	2.62
704.251	0.62
705.005	3.62
705.759	1.62
706.513	1.62
707.266	4.62
708.02	1.62
708.774	2.62
709.527	0.62
710.28	3.62
711.034	2.62
711.787	2.62
712.54	2.62
713.293	2.62
714.046	5.62
714.799	4.62
715.552	3.62
716.305	4.62
717.058	0.62
717.81	3.62
718.563	2.62
719.315	2.62
720.068	2.62
720.82	2.62
721.573	2.62
722.325	2.62
723.077	-0.38
723.829	1.62
724.581	2.62
725.333	2.62
726.085	1.62
726.836	2.62
727.588	0.62
728.34	2.62
729.091	4.62
729.843	3.62
730.594	0.62
731.346	2.62
732.097	1.62
732.848	0.62
733.599	0.62
734.35	0.62
735.101	4.62
735.852	2.62
736.603	5.62
737.354	4.62
738.104	1.62
738.855	3.62
739.605	3.62
740.356	2.62
741.106	2.62
741.856	4.62
742.607	3.62
743.357	1.62
744.107	2.62
744.857	0.62
745.607	3.62
746.357	5.62
747.106	4.62
747.856	3.62
748.606	2.62
749.355	3.62
750.105	3.62
750.854	2.62
751.603	4.62
752.353	2.62
753.102	5.62
753.851	4.62
754.6	5.62
755.349	2.62
756.098	1.62
756.847	4.62
757.595	2.62
758.344	2.62
759.093	1.62
759.841	2.62
760.589	2.62
761.338	3.62
762.086	2.62
762.834	3.62
763.582	1.62
764.331	3.62
765.079	5.62
765.826	4.62
766.574	4.62
767.322	4.62
768.07	1.62
768.817	5.62
769.565	4.62
770.312	5.62
771.06	3.62
771.807	4.62
772.554	4.62
773.302	3.62
774.049	5.62
774.796	6.62
775.543	4.62
776.29	5.62
777.036	3.62
777.783	4.62
778.53	3.62
779.276	2.62
780.023	5.62
780.769	5.62
781.516	5.62
782.262	5.62
783.008	4.62
783.754	3.62
784.5	7.62
785.246	4.62
785.992	6.62
786.738	4.62
787.484	2.62
788.23	6.62
788.975	4.62
789.721	7.62
790.466	5.62
791.212	5.62
791.957	4.62
792.702	6.62
793.447	6.62
794.193	6.62
794.938	3.62
795.683	5.62
796.427	5.62
797.172	3.62
797.917	5.62
798.662	4.62
799.406	5.62
800.151	6.62
800.895	5.62
801.64	4.62
802.384	4.62
803.128	5.62
803.872	5.62
804.616	3.62
805.36	4.62
806.104	4.62
806.848	5.62
807.592	3.62
808.336	5.62
809.079	3.62
809.823	3.62
810.566	3.62
811.31	3.62
812.053	3.62
812.796	5.62
813.539	2.62
814.283	2.62
815.026	4.62
815.769	4.62
816.511	4.62
817.254	3.62
817.997	5.62
818.74	2.62
819.482	3.62
820.225	1.62
820.967	2.62
821.71	4.62
822.452	1.62
823.194	0.62
823.936	3.62
824.678	2.62
825.42	1.62
826.162	2.62
826.904	5.62
827.646	3.62
828.388	5.62
829.129	0.62
829.871	5.62
830.612	2.62
831.354	2.62
832.095	1.62
832.836	2.62
833.577	2.62
834.319	1.62
835.06	3.62
835.801	2.62
836.542	3.62
837.282	3.62
838.023	2.62
838.764	1.62
839.504	3.62
840.245	2.62
840.985	1.62
841.726	4.62
842.466	3.62
843.206	4.62
843.946	3.62
844.687	2.62
845.427	4.62
846.166	1.62
846.906	1.62
847.646	1.62
848.386	2.62
849.125	3.62
849.865	2.62
850.605	4.62
851.344	2.62
852.083	5.62
852.823	2.62
853.562	2.62
854.301	-0.38
855.04	3.62
855.779	2.62
856.518	2.62
857.257	2.62
857.995	2.62
858.734	2.62
859.473	2.62
860.211	2.62
860.95	1.62
861.688	3.62
862.426	2.62
863.165	1.62
863.903	0.62
864.641	-0.38
865.379	1.62
866.117	2.62
866.855	1.62
867.593	0.62
868.33	3.62
869.068	2.62
869.806	2.62
870.543	2.62
871.28	2.62
872.018	1.62
872.755	0.62
873.492	0.62
874.229	-0.38
874.967	1.62
875.703	-0.38
876.44	2.62
877.177	3.62
877.914	1.62
878.651	-1.38
879.387	1.62
880.124	3.62
880.86	1.62
881.597	1.62
882.333	1.62
883.069	1.62
883.806	0.62
884.542	0.62
885.278	-0.38
886.014	2.62
886.749	1.62
887.485	1.62
888.221	2.62
888.957	1.62
889.692	1.62
890.428	1.62
891.163	1.62
891.899	1.62
892.634	2.62
893.369	-0.38
894.104	1.62
894.839	1.62
895.574	3.62
896.309	-1.38
897.044	-1.38
897.779	1.62
898.514	1.62
899.248	2.62
899.983	0.62
900.717	2.62
901.452	-0.38
902.186	1.62
902.92	-0.38
903.654	1.62
904.389	2.62
905.123	1.62
905.857	0.62
906.59	0.62
907.324	0.62
908.058	1.62
908.792	2.62
909.525	2.62
910.259	0.62
910.992	1.62
911.726	-0.38
912.459	1.62
913.192	1.62
913.925	0.62
914.658	0.62
915.391	0.62
916.124	1.62
916.857	-0.38
917.59	1.62
918.323	1.62
919.055	0.62
919.788	0.62
920.521	0.62
921.253	3.62
921.985	1.62
922.718	0.62
923.45	2.62
924.182	1.62
924.914	-0.38
925.646	-0.38
926.378	1.62
927.11	0.62
927.841	1.62
928.573	-0.38
929.305	-1.38
930.036	0.62
930.768	0.62
931.499	2.62
932.23	1.62
932.962	0.62
933.693	1.62
934.424	0.62
935.155	1.62
935.886	0.62
936.617	1.62
937.348	-0.38
938.078	-2.38
938.809	0.62
939.54	1.62
940.27	-1.38
941.001	-1.38
941.731	-0.38
942.461	0.62
943.191	2.62
943.922	-0.38
944.652	1.62
945.382	1.62
946.112	1.62
946.841	1.62
947.571	1.62
948.301	0.62
949.031	-1.38
949.76	-1.38
950.49	2.62
951.219	-0.38
951.948	1.62
952.678	-1.38
953.407	1.62
954.136	2.62
954.865	0.62
955.594	2.62
956.323	0.62
957.052	-0.38
957.78	0.62
958.509	0.62
959.238	1.62
959.966	0.62
960.695	2.62
961.423	0.62
962.151	-0.38
962.88	3.62
963.608	-0.38
964.336	1.62
965.064	-0.38
965.792	-0.38
966.52	1.62
967.247	1.62
967.975	2.62
968.703	0.62
969.43	0.62
970.158	-0.38
970.885	1.62
971.613	0.62
972.34	-1.38
973.067	1.62
973.794	1.62
974.521	0.62
975.248	-0.38
975.975	0.62
976.702	3.62
977.429	2.62
978.156	-0.38
978.882	1.62
979.609	1.62
980.335	1.62
981.062	0.62
981.788	-0.38
982.514	1.62
983.24	1.62
983.967	-0.38
984.693	1.62
985.419	0.62
986.144	0.62
986.87	1.62
987.596	0.62
988.322	0.62
989.047	1.62
989.773	1.62
990.498	-0.38
991.224	2.62
991.949	-1.38
992.674	1.62
993.399	2.62
994.124	-1.38
994.849	1.62
995.574	0.62
996.299	0.62
997.024	2.62
997.749	2.62
998.473	1.62
999.198	1.62
999.922	2.62
1000.647	2.62
1001.371	4.62
1002.095	-1.38
1002.82	-1.38
1003.544	-2.38
1004.268	-0.38
1004.992	-0.38
1005.716	0.62
1006.439	-1.38
1007.163	0.62
1007.887	0.62
1008.611	1.62
1009.334	-1.38
1010.058	0.62
1010.781	-0.38
1011.504	-1.38
1012.228	1.62
1012.951	0.62
1013.674	1.62
1014.397	-0.38
1015.12	-1.38
