节点500_145_QEPB04081__44__11-29-38-754.txt的数据

Date: Wed Nov 12 11:29:38 CST 2025
User: PC
Spectrometer: QEPB0408
触发模式: 0
积分时间 (秒): 1.000000E-2
Scans to average: 1
启用暗噪声校正: true
启用非线性校正: false
滑动平均宽度: 0
X轴模式: Wavelengths
Number of Pixels in Spectrum: 1044
>>>>>Begin Spectral Data<<<<<
220.843	0.5
221.644	-1.5
222.444	0.5
223.244	-2.5
224.045	-0.5
224.845	1.5
225.645	0.5
226.445	-1.5
227.245	2.5
228.045	0.5
228.845	-1.5
229.645	0.5
230.444	0.5
231.244	0.5
232.043	0.5
232.843	1.5
233.642	2.5
234.442	0.5
235.241	1.5
236.04	0.5
236.839	0.5
237.638	1.5
238.437	2.5
239.236	2.5
240.035	-0.5
240.833	3.5
241.632	-0.5
242.43	1.5
243.229	0.5
244.027	1.5
244.826	1.5
245.624	0.5
246.422	0.5
247.22	3.5
248.018	2.5
248.816	2.5
249.614	1.5
250.412	3.5
251.21	2.5
252.007	1.5
252.805	3.5
253.602	6.5
254.4	3.5
255.197	3.5
255.994	4.5
256.791	0.5
257.589	6.5
258.386	3.5
259.183	3.5
259.979	3.5
260.776	4.5
261.573	4.5
262.37	5.5
263.166	4.5
263.963	7.5
264.759	7.5
265.556	6.5
266.352	7.5
267.148	9.5
267.944	7.5
268.74	6.5
269.536	8.5
270.332	8.5
271.128	7.5
271.924	9.5
272.719	10.5
273.515	9.5
274.311	8.5
275.106	11.5
275.901	10.5
276.697	8.5
277.492	9.5
278.287	11.5
279.082	10.5
279.877	9.5
280.672	11.5
281.467	10.5
282.262	8.5
283.056	11.5
283.851	9.5
284.646	10.5
285.44	11.5
286.234	10.5
287.029	9.5
287.823	12.5
288.617	9.5
289.411	11.5
290.205	12.5
290.999	10.5
291.793	13.5
292.587	11.5
293.381	12.5
294.174	10.5
294.968	10.5
295.761	8.5
296.555	10.5
297.348	10.5
298.141	10.5
298.935	10.5
299.728	9.5
300.521	11.5
301.314	10.5
302.107	8.5
302.899	9.5
303.692	8.5
304.485	8.5
305.277	9.5
306.07	7.5
306.862	7.5
307.655	7.5
308.447	11.5
309.239	8.5
310.031	9.5
310.823	7.5
311.615	6.5
312.407	4.5
313.199	6.5
313.991	5.5
314.783	3.5
315.574	5.5
316.366	6.5
317.157	5.5
317.949	6.5
318.74	4.5
319.531	5.5
320.322	4.5
321.113	4.5
321.904	5.5
322.695	1.5
323.486	5.5
324.277	2.5
325.068	4.5
325.858	2.5
326.649	5.5
327.439	3.5
328.23	3.5
329.02	3.5
329.81	4.5
330.6	2.5
331.391	3.5
332.181	3.5
332.971	3.5
333.76	5.5
334.55	3.5
335.34	5.5
336.13	3.5
336.919	4.5
337.709	3.5
338.498	5.5
339.287	2.5
340.077	2.5
340.866	3.5
341.655	2.5
342.444	2.5
343.233	2.5
344.022	3.5
344.811	4.5
345.6	3.5
346.388	5.5
347.177	2.5
347.965	2.5
348.754	3.5
349.542	3.5
350.33	4.5
351.119	3.5
351.907	2.5
352.695	3.5
353.483	4.5
354.271	2.5
355.059	4.5
355.846	4.5
356.634	2.5
357.422	4.5
358.209	2.5
358.997	4.5
359.784	1.5
360.571	3.5
361.359	0.5
362.146	5.5
362.933	3.5
363.72	4.5
364.507	1.5
365.294	2.5
366.081	1.5
366.867	2.5
367.654	2.5
368.44	4.5
369.227	2.5
370.013	3.5
370.8	3.5
371.586	2.5
372.372	5.5
373.158	2.5
373.944	3.5
374.73	2.5
375.516	2.5
376.302	2.5
377.088	5.5
377.873	3.5
378.659	2.5
379.445	4.5
380.23	4.5
381.015	3.5
381.801	4.5
382.586	3.5
383.371	3.5
384.156	4.5
384.941	1.5
385.726	0.5
386.511	3.5
387.296	2.5
388.08	2.5
388.865	4.5
389.649	5.5
390.434	2.5
391.218	2.5
392.003	4.5
392.787	5.5
393.571	3.5
394.355	2.5
395.139	2.5
395.923	2.5
396.707	1.5
397.491	2.5
398.274	4.5
399.058	1.5
399.842	6.5
400.625	3.5
401.408	3.5
402.192	2.5
402.975	5.5
403.758	4.5
404.541	3.5
405.324	4.5
406.107	2.5
406.89	5.5
407.673	6.5
408.456	4.5
409.238	3.5
410.021	4.5
410.803	3.5
411.586	5.5
412.368	5.5
413.151	3.5
413.933	5.5
414.715	4.5
415.497	3.5
416.279	7.5
417.061	4.5
417.843	4.5
418.624	6.5
419.406	3.5
420.188	4.5
420.969	4.5
421.751	8.5
422.532	6.5
423.313	7.5
424.095	8.5
424.876	5.5
425.657	4.5
426.438	5.5
427.219	7.5
428	7.5
428.78	7.5
429.561	5.5
430.342	8.5
431.122	9.5
431.903	4.5
432.683	7.5
433.464	8.5
434.244	8.5
435.024	9.5
435.804	9.5
436.584	10.5
437.364	8.5
438.144	10.5
438.924	10.5
439.704	10.5
440.483	13.5
441.263	12.5
442.042	13.5
442.822	12.5
443.601	12.5
444.38	16.5
445.16	17.5
445.939	17.5
446.718	18.5
447.497	20.5
448.276	20.5
449.054	21.5
449.833	22.5
450.612	23.5
451.391	24.5
452.169	27.5
452.948	29.5
453.726	32.5
454.504	38.5
455.282	36.5
456.061	39.5
456.839	44.5
457.617	49.5
458.395	51.5
459.172	57.5
459.95	68.5
460.728	72.5
461.506	81.5
462.283	89.5
463.061	97.5
463.838	111.5
464.615	126.5
465.393	141.5
466.17	156.5
466.947	172.5
467.724	200.5
468.501	210.5
469.278	245.5
470.055	270.5
470.831	299.5
471.608	345.5
472.385	377.5
473.161	421.5
473.938	474.5
474.714	522.5
475.49	582.5
476.266	656.5
477.043	730.5
477.819	812.5
478.595	885.5
479.371	1005.5
480.146	1123.5
480.922	1235.5
481.698	1363.5
482.473	1541.5
483.249	1681.5
484.024	1889.5
484.8	2093.5
485.575	2306.5
486.35	2553.5
487.126	2843.5
487.901	3162.5
488.676	3490.5
489.451	3880.5
490.225	4296.5
491	4760.5
491.775	5247.5
492.55	5812.5
493.324	6362.5
494.099	6996.5
494.873	7689.5
495.647	8387.5
496.422	9169.5
497.196	9895.5
497.97	10724.5
498.744	11569.5
499.518	12345.5
500.292	13174.5
501.066	13907.5
501.839	14693.5
502.613	15350.5
503.387	15985.5
504.16	16477.5
504.934	16876.5
505.707	17173.5
506.48	17376.5
507.253	17438.5
508.027	17335.5
508.8	17204.5
509.573	16969.5
510.346	16492.5
511.118	16004.5
511.891	15521.5
512.664	14868.5
513.437	14339.5
514.209	13742.5
514.982	13091.5
515.754	12493.5
516.526	11947.5
517.298	11364.5
518.071	10846.5
518.843	10377.5
519.615	9943.5
520.387	9522.5
521.159	9139.5
521.93	8748.5
522.702	8446.5
523.474	8111.5
524.245	7785.5
525.017	7478.5
525.788	7153.5
526.56	6899.5
527.331	6581.5
528.102	6272.5
528.873	5992.5
529.644	5687.5
530.415	5446.5
531.186	5162.5
531.957	4893.5
532.728	4617.5
533.498	4389.5
534.269	4111.5
535.039	3873.5
535.81	3662.5
536.58	3441.5
537.351	3263.5
538.121	3058.5
538.891	2898.5
539.661	2740.5
540.431	2592.5
541.201	2464.5
541.971	2326.5
542.741	2204.5
543.51	2072.5
544.28	1991.5
545.05	1891.5
545.819	1791.5
546.588	1716.5
547.358	1633.5
548.127	1529.5
548.896	1466.5
549.665	1390.5
550.434	1328.5
551.203	1252.5
551.972	1184.5
552.741	1110.5
553.51	1060.5
554.278	1005.5
555.047	945.5
555.815	883.5
556.584	833.5
557.352	794.5
558.121	734.5
558.889	688.5
559.657	655.5
560.425	618.5
561.193	579.5
561.961	556.5
562.729	518.5
563.496	485.5
564.264	453.5
565.032	435.5
565.799	408.5
566.567	384.5
567.334	363.5
568.101	348.5
568.869	330.5
569.636	306.5
570.403	291.5
571.17	271.5
571.937	267.5
572.704	238.5
573.471	239.5
574.237	212.5
575.004	207.5
575.771	193.5
576.537	183.5
577.303	167.5
578.07	159.5
578.836	153.5
579.602	136.5
580.368	134.5
581.134	132.5
581.9	118.5
582.666	115.5
583.432	110.5
584.198	102.5
584.964	95.5
585.729	93.5
586.495	92.5
587.26	79.5
588.025	70.5
588.791	70.5
589.556	69.5
590.321	63.5
591.086	64.5
591.851	55.5
592.616	52.5
593.381	54.5
594.146	50.5
594.911	52.5
595.675	46.5
596.44	45.5
597.204	45.5
597.969	39.5
598.733	35.5
599.497	36.5
600.261	37.5
601.025	34.5
601.79	33.5
602.553	29.5
603.317	25.5
604.081	28.5
604.845	24.5
605.609	23.5
606.372	26.5
607.136	25.5
607.899	22.5
608.662	19.5
609.426	23.5
610.189	19.5
610.952	20.5
611.715	20.5
612.478	18.5
613.241	14.5
614.004	15.5
614.767	18.5
615.529	15.5
616.292	17.5
617.055	13.5
617.817	13.5
618.579	11.5
619.342	14.5
620.104	12.5
620.866	13.5
621.628	10.5
622.39	11.5
623.152	9.5
623.914	10.5
624.676	10.5
625.438	9.5
626.199	8.5
626.961	8.5
627.722	8.5
628.484	8.5
629.245	11.5
630.006	10.5
630.768	6.5
631.529	6.5
632.29	7.5
633.051	7.5
633.812	6.5
634.573	9.5
635.333	4.5
636.094	7.5
636.855	7.5
637.615	5.5
638.376	7.5
639.136	6.5
639.896	7.5
640.657	8.5
641.417	5.5
642.177	6.5
642.937	4.5
643.697	6.5
644.457	4.5
645.216	6.5
645.976	5.5
646.736	5.5
647.495	4.5
648.255	5.5
649.014	5.5
649.774	2.5
650.533	5.5
651.292	7.5
652.051	1.5
652.81	5.5
653.569	2.5
654.328	5.5
655.087	4.5
655.846	3.5
656.604	3.5
657.363	2.5
658.121	4.5
658.88	1.5
659.638	5.5
660.397	3.5
661.155	2.5
661.913	5.5
662.671	4.5
663.429	3.5
664.187	3.5
664.945	3.5
665.703	2.5
666.46	1.5
667.218	1.5
667.976	3.5
668.733	4.5
669.49	2.5
670.248	2.5
671.005	3.5
671.762	1.5
672.519	4.5
673.276	4.5
674.033	2.5
674.79	1.5
675.547	2.5
676.304	2.5
677.06	3.5
677.817	2.5
678.574	2.5
679.33	2.5
680.086	3.5
680.843	3.5
681.599	0.5
682.355	1.5
683.111	2.5
683.867	0.5
684.623	1.5
685.379	1.5
686.135	5.5
686.89	1.5
687.646	3.5
688.402	4.5
689.157	2.5
689.912	1.5
690.668	2.5
691.423	0.5
692.178	2.5
692.933	1.5
693.688	2.5
694.443	1.5
695.198	3.5
695.953	4.5
696.708	4.5
697.462	5.5
698.217	-0.5
698.972	3.5
699.726	0.5
700.48	1.5
701.235	3.5
701.989	1.5
702.743	3.5
703.497	0.5
704.251	4.5
705.005	2.5
705.759	2.5
706.513	2.5
707.266	1.5
708.02	3.5
708.774	1.5
709.527	2.5
710.28	-0.5
711.034	2.5
711.787	2.5
712.54	2.5
713.293	1.5
714.046	-0.5
714.799	2.5
715.552	1.5
716.305	1.5
717.058	2.5
717.81	1.5
718.563	5.5
719.315	2.5
720.068	3.5
720.82	2.5
721.573	2.5
722.325	4.5
723.077	2.5
723.829	4.5
724.581	0.5
725.333	2.5
726.085	2.5
726.836	0.5
727.588	1.5
728.34	1.5
729.091	4.5
729.843	2.5
730.594	3.5
731.346	2.5
732.097	3.5
732.848	2.5
733.599	5.5
734.35	1.5
735.101	-0.5
735.852	4.5
736.603	5.5
737.354	2.5
738.104	3.5
738.855	1.5
739.605	3.5
740.356	3.5
741.106	2.5
741.856	2.5
742.607	1.5
743.357	2.5
744.107	1.5
744.857	4.5
745.607	3.5
746.357	2.5
747.106	3.5
747.856	1.5
748.606	4.5
749.355	-1.5
750.105	3.5
750.854	2.5
751.603	3.5
752.353	4.5
753.102	1.5
753.851	3.5
754.6	5.5
755.349	2.5
756.098	2.5
756.847	4.5
757.595	1.5
758.344	5.5
759.093	5.5
759.841	1.5
760.589	2.5
761.338	3.5
762.086	4.5
762.834	2.5
763.582	3.5
764.331	5.5
765.079	4.5
765.826	3.5
766.574	6.5
767.322	3.5
768.07	4.5
768.817	2.5
769.565	4.5
770.312	5.5
771.06	4.5
771.807	6.5
772.554	6.5
773.302	3.5
774.049	2.5
774.796	6.5
775.543	7.5
776.29	2.5
777.036	3.5
777.783	5.5
778.53	4.5
779.276	4.5
780.023	6.5
780.769	5.5
781.516	3.5
782.262	6.5
783.008	4.5
783.754	7.5
784.5	2.5
785.246	4.5
785.992	4.5
786.738	6.5
787.484	5.5
788.23	5.5
788.975	7.5
789.721	6.5
790.466	6.5
791.212	6.5
791.957	8.5
792.702	7.5
793.447	6.5
794.193	4.5
794.938	3.5
795.683	6.5
796.427	5.5
797.172	7.5
797.917	6.5
798.662	5.5
799.406	7.5
800.151	6.5
800.895	4.5
801.64	3.5
802.384	5.5
803.128	1.5
803.872	5.5
804.616	2.5
805.36	5.5
806.104	5.5
806.848	4.5
807.592	3.5
808.336	5.5
809.079	5.5
809.823	4.5
810.566	2.5
811.31	5.5
812.053	4.5
812.796	3.5
813.539	5.5
814.283	6.5
815.026	4.5
815.769	5.5
816.511	3.5
817.254	2.5
817.997	4.5
818.74	4.5
819.482	2.5
820.225	5.5
820.967	5.5
821.71	2.5
822.452	4.5
823.194	5.5
823.936	2.5
824.678	3.5
825.42	2.5
826.162	1.5
826.904	3.5
827.646	4.5
828.388	2.5
829.129	3.5
829.871	2.5
830.612	4.5
831.354	2.5
832.095	0.5
832.836	3.5
833.577	1.5
834.319	2.5
835.06	2.5
835.801	3.5
836.542	2.5
837.282	0.5
838.023	3.5
838.764	-1.5
839.504	3.5
840.245	2.5
840.985	3.5
841.726	3.5
842.466	3.5
843.206	2.5
843.946	1.5
844.687	3.5
845.427	1.5
846.166	2.5
846.906	2.5
847.646	2.5
848.386	3.5
849.125	1.5
849.865	2.5
850.605	2.5
851.344	1.5
852.083	1.5
852.823	3.5
853.562	2.5
854.301	0.5
855.04	1.5
855.779	0.5
856.518	2.5
857.257	2.5
857.995	2.5
858.734	1.5
859.473	1.5
860.211	1.5
860.95	1.5
861.688	0.5
862.426	1.5
863.165	0.5
863.903	1.5
864.641	0.5
865.379	3.5
866.117	3.5
866.855	0.5
867.593	2.5
868.33	2.5
869.068	2.5
869.806	0.5
870.543	1.5
871.28	1.5
872.018	0.5
872.755	1.5
873.492	0.5
874.229	1.5
874.967	0.5
875.703	-0.5
876.44	-0.5
877.177	1.5
877.914	1.5
878.651	2.5
879.387	-0.5
880.124	0.5
880.86	0.5
881.597	1.5
882.333	0.5
883.069	0.5
883.806	1.5
884.542	2.5
885.278	3.5
886.014	0.5
886.749	2.5
887.485	0.5
888.221	2.5
888.957	1.5
889.692	-0.5
890.428	-0.5
891.163	2.5
891.899	2.5
892.634	-1.5
893.369	1.5
894.104	-0.5
894.839	0.5
895.574	0.5
896.309	-2.5
897.044	3.5
897.779	-0.5
898.514	1.5
899.248	0.5
899.983	0.5
900.717	1.5
901.452	-0.5
902.186	1.5
902.92	-0.5
903.654	1.5
904.389	1.5
905.123	1.5
905.857	3.5
906.59	1.5
907.324	-0.5
908.058	-1.5
908.792	0.5
909.525	2.5
910.259	1.5
910.992	1.5
911.726	2.5
912.459	1.5
913.192	1.5
913.925	-0.5
914.658	0.5
915.391	0.5
916.124	0.5
916.857	0.5
917.59	-1.5
918.323	1.5
919.055	0.5
919.788	1.5
920.521	0.5
921.253	-0.5
921.985	0.5
922.718	1.5
923.45	0.5
924.182	-0.5
924.914	-0.5
925.646	1.5
926.378	1.5
927.11	-1.5
927.841	1.5
928.573	1.5
929.305	1.5
930.036	1.5
930.768	0.5
931.499	2.5
932.23	1.5
932.962	1.5
933.693	1.5
934.424	0.5
935.155	1.5
935.886	0.5
936.617	2.5
937.348	-0.5
938.078	0.5
938.809	3.5
939.54	-0.5
940.27	1.5
941.001	-0.5
941.731	-0.5
942.461	-0.5
943.191	0.5
943.922	-2.5
944.652	-1.5
945.382	0.5
946.112	-0.5
946.841	2.5
947.571	1.5
948.301	0.5
949.031	1.5
949.76	0.5
950.49	0.5
951.219	1.5
951.948	0.5
952.678	1.5
953.407	0.5
954.136	1.5
954.865	0.5
955.594	1.5
956.323	3.5
957.052	0.5
957.78	-0.5
958.509	2.5
959.238	-1.5
959.966	-0.5
960.695	-0.5
961.423	0.5
962.151	0.5
962.88	-0.5
963.608	0.5
964.336	2.5
965.064	0.5
965.792	1.5
966.52	1.5
967.247	0.5
967.975	0.5
968.703	1.5
969.43	0.5
970.158	1.5
970.885	1.5
971.613	0.5
972.34	0.5
973.067	2.5
973.794	-1.5
974.521	2.5
975.248	1.5
975.975	-1.5
976.702	0.5
977.429	0.5
978.156	-0.5
978.882	2.5
979.609	3.5
980.335	-0.5
981.062	2.5
981.788	-0.5
982.514	-1.5
983.24	0.5
983.967	-1.5
984.693	0.5
985.419	0.5
986.144	-1.5
986.87	0.5
987.596	0.5
988.322	1.5
989.047	-1.5
989.773	1.5
990.498	1.5
991.224	1.5
991.949	0.5
992.674	1.5
993.399	0.5
994.124	0.5
994.849	1.5
995.574	0.5
996.299	0.5
997.024	2.5
997.749	1.5
998.473	1.5
999.198	1.5
999.922	1.5
1000.647	1.5
1001.371	2.5
1002.095	-2.5
1002.82	-0.5
1003.544	-1.5
1004.268	0.5
1004.992	-2.5
1005.716	0.5
1006.439	0.5
1007.163	-0.5
1007.887	-0.5
1008.611	0.5
1009.334	1.5
1010.058	-1.5
1010.781	0.5
1011.504	-1.5
1012.228	0.5
1012.951	2.5
1013.674	0.5
1014.397	0.5
1015.12	-1.5
