节点500_145_QEPB04081__116__11-30-48-586.txt的数据

Date: Wed Nov 12 11:30:48 CST 2025
User: PC
Spectrometer: QEPB0408
触发模式: 0
积分时间 (秒): 1.000000E-2
Scans to average: 1
启用暗噪声校正: true
启用非线性校正: false
滑动平均宽度: 0
X轴模式: Wavelengths
Number of Pixels in Spectrum: 1044
>>>>>Begin Spectral Data<<<<<
220.843	0.62
221.644	-1.38
222.444	-1.38
223.244	0.62
224.045	-0.38
224.845	0.62
225.645	0.62
226.445	1.62
227.245	-0.38
228.045	-0.38
228.845	1.62
229.645	-0.38
230.444	1.62
231.244	1.62
232.043	2.62
232.843	1.62
233.642	-1.38
234.442	0.62
235.241	2.62
236.04	2.62
236.839	4.62
237.638	1.62
238.437	3.62
239.236	-0.38
240.035	1.62
240.833	2.62
241.632	1.62
242.43	2.62
243.229	2.62
244.027	1.62
244.826	1.62
245.624	4.62
246.422	3.62
247.22	1.62
248.018	3.62
248.816	2.62
249.614	3.62
250.412	1.62
251.21	2.62
252.007	3.62
252.805	2.62
253.602	3.62
254.4	2.62
255.197	2.62
255.994	3.62
256.791	4.62
257.589	5.62
258.386	4.62
259.183	1.62
259.979	4.62
260.776	3.62
261.573	3.62
262.37	7.62
263.166	6.62
263.963	4.62
264.759	5.62
265.556	7.62
266.352	6.62
267.148	7.62
267.944	7.62
268.74	6.62
269.536	5.62
270.332	6.62
271.128	8.62
271.924	9.62
272.719	9.62
273.515	7.62
274.311	7.62
275.106	8.62
275.901	9.62
276.697	8.62
277.492	10.62
278.287	11.62
279.082	12.62
279.877	11.62
280.672	8.62
281.467	12.62
282.262	11.62
283.056	11.62
283.851	12.62
284.646	12.62
285.44	11.62
286.234	13.62
287.029	11.62
287.823	13.62
288.617	13.62
289.411	9.62
290.205	10.62
290.999	12.62
291.793	13.62
292.587	14.62
293.381	10.62
294.174	14.62
294.968	9.62
295.761	12.62
296.555	10.62
297.348	10.62
298.141	12.62
298.935	12.62
299.728	10.62
300.521	11.62
301.314	8.62
302.107	9.62
302.899	7.62
303.692	13.62
304.485	9.62
305.277	10.62
306.07	9.62
306.862	8.62
307.655	8.62
308.447	8.62
309.239	6.62
310.031	9.62
310.823	7.62
311.615	7.62
312.407	6.62
313.199	7.62
313.991	5.62
314.783	8.62
315.574	7.62
316.366	5.62
317.157	6.62
317.949	4.62
318.74	4.62
319.531	5.62
320.322	5.62
321.113	5.62
321.904	6.62
322.695	5.62
323.486	3.62
324.277	5.62
325.068	4.62
325.858	4.62
326.649	3.62
327.439	6.62
328.23	4.62
329.02	4.62
329.81	4.62
330.6	5.62
331.391	6.62
332.181	5.62
332.971	3.62
333.76	2.62
334.55	5.62
335.34	6.62
336.13	5.62
336.919	4.62
337.709	4.62
338.498	2.62
339.287	5.62
340.077	3.62
340.866	5.62
341.655	3.62
342.444	2.62
343.233	2.62
344.022	0.62
344.811	4.62
345.6	1.62
346.388	2.62
347.177	3.62
347.965	5.62
348.754	3.62
349.542	3.62
350.33	3.62
351.119	3.62
351.907	1.62
352.695	3.62
353.483	2.62
354.271	4.62
355.059	2.62
355.846	4.62
356.634	2.62
357.422	3.62
358.209	4.62
358.997	4.62
359.784	4.62
360.571	3.62
361.359	4.62
362.146	4.62
362.933	2.62
363.72	1.62
364.507	1.62
365.294	3.62
366.081	2.62
366.867	3.62
367.654	0.62
368.44	4.62
369.227	1.62
370.013	3.62
370.8	3.62
371.586	4.62
372.372	3.62
373.158	2.62
373.944	5.62
374.73	3.62
375.516	3.62
376.302	3.62
377.088	1.62
377.873	2.62
378.659	2.62
379.445	3.62
380.23	1.62
381.015	2.62
381.801	2.62
382.586	4.62
383.371	3.62
384.156	4.62
384.941	3.62
385.726	3.62
386.511	2.62
387.296	3.62
388.08	4.62
388.865	3.62
389.649	4.62
390.434	4.62
391.218	4.62
392.003	4.62
392.787	3.62
393.571	2.62
394.355	1.62
395.139	6.62
395.923	2.62
396.707	5.62
397.491	3.62
398.274	5.62
399.058	3.62
399.842	6.62
400.625	4.62
401.408	6.62
402.192	1.62
402.975	6.62
403.758	2.62
404.541	3.62
405.324	2.62
406.107	5.62
406.89	3.62
407.673	4.62
408.456	2.62
409.238	5.62
410.021	6.62
410.803	4.62
411.586	6.62
412.368	5.62
413.151	6.62
413.933	4.62
414.715	4.62
415.497	7.62
416.279	6.62
417.061	7.62
417.843	4.62
418.624	4.62
419.406	6.62
420.188	3.62
420.969	8.62
421.751	2.62
422.532	6.62
423.313	7.62
424.095	9.62
424.876	6.62
425.657	7.62
426.438	6.62
427.219	8.62
428	8.62
428.78	7.62
429.561	8.62
430.342	7.62
431.122	8.62
431.903	5.62
432.683	8.62
433.464	9.62
434.244	9.62
435.024	9.62
435.804	9.62
436.584	8.62
437.364	10.62
438.144	12.62
438.924	14.62
439.704	10.62
440.483	10.62
441.263	13.62
442.042	10.62
442.822	14.62
443.601	14.62
444.38	15.62
445.16	15.62
445.939	17.62
446.718	15.62
447.497	18.62
448.276	20.62
449.054	22.62
449.833	24.62
450.612	23.62
451.391	30.62
452.169	27.62
452.948	29.62
453.726	33.62
454.504	35.62
455.282	39.62
456.061	46.62
456.839	46.62
457.617	51.62
458.395	59.62
459.172	66.62
459.95	69.62
460.728	73.62
461.506	87.62
462.283	94.62
463.061	110.62
463.838	119.62
464.615	134.62
465.393	147.62
466.17	162.62
466.947	186.62
467.724	206.62
468.501	231.62
469.278	255.62
470.055	287.62
470.831	315.62
471.608	351.62
472.385	393.62
473.161	448.62
473.938	492.62
474.714	540.62
475.49	605.62
476.266	670.62
477.043	753.62
477.819	825.62
478.595	917.62
479.371	1032.62
480.146	1131.62
480.922	1258.62
481.698	1389.62
482.473	1569.62
483.249	1714.62
484.024	1892.62
484.8	2108.62
485.575	2340.62
486.35	2573.62
487.126	2866.62
487.901	3164.62
488.676	3509.62
489.451	3881.62
490.225	4294.62
491	4718.62
491.775	5219.62
492.55	5727.62
493.324	6299.62
494.099	6887.62
494.873	7551.62
495.647	8256.62
496.422	8959.62
497.196	9746.62
497.97	10509.62
498.744	11375.62
499.518	12144.62
500.292	12965.62
501.066	13667.62
501.839	14444.62
502.613	15130.62
503.387	15736.62
504.16	16261.62
504.934	16667.62
505.707	17037.62
506.48	17239.62
507.253	17340.62
508.027	17260.62
508.8	17123.62
509.573	16910.62
510.346	16529.62
511.118	16108.62
511.891	15583.62
512.664	15060.62
513.437	14448.62
514.209	13913.62
514.982	13290.62
515.754	12752.62
516.526	12149.62
517.298	11585.62
518.071	11038.62
518.843	10552.62
519.615	10101.62
520.387	9684.62
521.159	9261.62
521.93	8904.62
522.702	8574.62
523.474	8233.62
524.245	7918.62
525.017	7599.62
525.788	7322.62
526.56	7003.62
527.331	6697.62
528.102	6379.62
528.873	6114.62
529.644	5815.62
530.415	5561.62
531.186	5244.62
531.957	4998.62
532.728	4736.62
533.498	4475.62
534.269	4203.62
535.039	3983.62
535.81	3748.62
536.58	3533.62
537.351	3335.62
538.121	3154.62
538.891	2968.62
539.661	2813.62
540.431	2656.62
541.201	2532.62
541.971	2375.62
542.741	2258.62
543.51	2131.62
544.28	2029.62
545.05	1919.62
545.819	1826.62
546.588	1739.62
547.358	1667.62
548.127	1575.62
548.896	1508.62
549.665	1421.62
550.434	1357.62
551.203	1283.62
551.972	1217.62
552.741	1159.62
553.51	1095.62
554.278	1022.62
555.047	968.62
555.815	915.62
556.584	858.62
557.352	807.62
558.121	756.62
558.889	711.62
559.657	679.62
560.425	643.62
561.193	607.62
561.961	565.62
562.729	533.62
563.496	506.62
564.264	480.62
565.032	448.62
565.799	422.62
566.567	402.62
567.334	382.62
568.101	351.62
568.869	336.62
569.636	324.62
570.403	304.62
571.17	285.62
571.937	263.62
572.704	258.62
573.471	233.62
574.237	223.62
575.004	205.62
575.771	198.62
576.537	184.62
577.303	179.62
578.07	163.62
578.836	155.62
579.602	144.62
580.368	139.62
581.134	133.62
581.9	123.62
582.666	118.62
583.432	113.62
584.198	106.62
584.964	98.62
585.729	94.62
586.495	88.62
587.26	85.62
588.025	80.62
588.791	73.62
589.556	71.62
590.321	68.62
591.086	58.62
591.851	60.62
592.616	58.62
593.381	52.62
594.146	51.62
594.911	47.62
595.675	45.62
596.44	44.62
597.204	43.62
597.969	39.62
598.733	40.62
599.497	35.62
600.261	33.62
601.025	34.62
601.79	34.62
602.553	32.62
603.317	30.62
604.081	28.62
604.845	26.62
605.609	26.62
606.372	26.62
607.136	24.62
607.899	23.62
608.662	24.62
609.426	22.62
610.189	20.62
610.952	17.62
611.715	19.62
612.478	15.62
613.241	18.62
614.004	18.62
614.767	17.62
615.529	16.62
616.292	14.62
617.055	13.62
617.817	16.62
618.579	14.62
619.342	13.62
620.104	13.62
620.866	12.62
621.628	9.62
622.39	13.62
623.152	11.62
623.914	13.62
624.676	10.62
625.438	11.62
626.199	9.62
626.961	11.62
627.722	8.62
628.484	9.62
629.245	10.62
630.006	7.62
630.768	5.62
631.529	8.62
632.29	7.62
633.051	9.62
633.812	9.62
634.573	6.62
635.333	5.62
636.094	4.62
636.855	7.62
637.615	7.62
638.376	4.62
639.136	6.62
639.896	9.62
640.657	7.62
641.417	6.62
642.177	7.62
642.937	3.62
643.697	3.62
644.457	8.62
645.216	7.62
645.976	5.62
646.736	4.62
647.495	4.62
648.255	6.62
649.014	4.62
649.774	4.62
650.533	4.62
651.292	5.62
652.051	4.62
652.81	6.62
653.569	3.62
654.328	2.62
655.087	3.62
655.846	5.62
656.604	5.62
657.363	5.62
658.121	4.62
658.88	3.62
659.638	5.62
660.397	2.62
661.155	4.62
661.913	2.62
662.671	3.62
663.429	2.62
664.187	4.62
664.945	3.62
665.703	4.62
666.46	2.62
667.218	3.62
667.976	1.62
668.733	1.62
669.49	3.62
670.248	4.62
671.005	5.62
671.762	2.62
672.519	2.62
673.276	2.62
674.033	3.62
674.79	2.62
675.547	2.62
676.304	3.62
677.06	2.62
677.817	5.62
678.574	3.62
679.33	3.62
680.086	3.62
680.843	1.62
681.599	1.62
682.355	2.62
683.111	3.62
683.867	0.62
684.623	2.62
685.379	2.62
686.135	2.62
686.89	2.62
687.646	0.62
688.402	3.62
689.157	2.62
689.912	3.62
690.668	4.62
691.423	0.62
692.178	1.62
692.933	1.62
693.688	1.62
694.443	2.62
695.198	1.62
695.953	2.62
696.708	0.62
697.462	3.62
698.217	0.62
698.972	3.62
699.726	2.62
700.48	2.62
701.235	0.62
701.989	1.62
702.743	2.62
703.497	-0.38
704.251	2.62
705.005	2.62
705.759	1.62
706.513	3.62
707.266	1.62
708.02	2.62
708.774	2.62
709.527	3.62
710.28	2.62
711.034	1.62
711.787	2.62
712.54	1.62
713.293	2.62
714.046	0.62
714.799	3.62
715.552	3.62
716.305	4.62
717.058	3.62
717.81	4.62
718.563	2.62
719.315	2.62
720.068	2.62
720.82	1.62
721.573	1.62
722.325	2.62
723.077	-0.38
723.829	4.62
724.581	2.62
725.333	2.62
726.085	2.62
726.836	1.62
727.588	3.62
728.34	0.62
729.091	2.62
729.843	3.62
730.594	2.62
731.346	4.62
732.097	2.62
732.848	4.62
733.599	0.62
734.35	2.62
735.101	4.62
735.852	0.62
736.603	0.62
737.354	3.62
738.104	2.62
738.855	4.62
739.605	1.62
740.356	3.62
741.106	3.62
741.856	2.62
742.607	2.62
743.357	4.62
744.107	2.62
744.857	4.62
745.607	3.62
746.357	2.62
747.106	2.62
747.856	3.62
748.606	3.62
749.355	3.62
750.105	3.62
750.854	3.62
751.603	3.62
752.353	4.62
753.102	2.62
753.851	4.62
754.6	1.62
755.349	3.62
756.098	2.62
756.847	2.62
757.595	3.62
758.344	2.62
759.093	4.62
759.841	1.62
760.589	5.62
761.338	4.62
762.086	1.62
762.834	4.62
763.582	2.62
764.331	3.62
765.079	2.62
765.826	4.62
766.574	5.62
767.322	4.62
768.07	4.62
768.817	3.62
769.565	3.62
770.312	5.62
771.06	1.62
771.807	5.62
772.554	3.62
773.302	5.62
774.049	4.62
774.796	7.62
775.543	5.62
776.29	2.62
777.036	5.62
777.783	5.62
778.53	6.62
779.276	3.62
780.023	4.62
780.769	4.62
781.516	4.62
782.262	6.62
783.008	5.62
783.754	7.62
784.5	6.62
785.246	6.62
785.992	5.62
786.738	5.62
787.484	6.62
788.23	6.62
788.975	5.62
789.721	5.62
790.466	5.62
791.212	7.62
791.957	5.62
792.702	5.62
793.447	6.62
794.193	4.62
794.938	8.62
795.683	5.62
796.427	5.62
797.172	5.62
797.917	7.62
798.662	3.62
799.406	6.62
800.151	8.62
800.895	5.62
801.64	7.62
802.384	6.62
803.128	6.62
803.872	4.62
804.616	3.62
805.36	5.62
806.104	4.62
806.848	5.62
807.592	6.62
808.336	5.62
809.079	4.62
809.823	3.62
810.566	4.62
811.31	2.62
812.053	5.62
812.796	5.62
813.539	5.62
814.283	4.62
815.026	5.62
815.769	5.62
816.511	4.62
817.254	5.62
817.997	2.62
818.74	4.62
819.482	3.62
820.225	2.62
820.967	3.62
821.71	2.62
822.452	2.62
823.194	2.62
823.936	3.62
824.678	2.62
825.42	4.62
826.162	4.62
826.904	2.62
827.646	2.62
828.388	3.62
829.129	5.62
829.871	1.62
830.612	4.62
831.354	3.62
832.095	3.62
832.836	3.62
833.577	4.62
834.319	3.62
835.06	4.62
835.801	3.62
836.542	3.62
837.282	3.62
838.023	4.62
838.764	1.62
839.504	2.62
840.245	3.62
840.985	2.62
841.726	3.62
842.466	0.62
843.206	3.62
843.946	3.62
844.687	3.62
845.427	2.62
846.166	2.62
846.906	3.62
847.646	2.62
848.386	2.62
849.125	1.62
849.865	3.62
850.605	2.62
851.344	1.62
852.083	5.62
852.823	-0.38
853.562	4.62
854.301	0.62
855.04	2.62
855.779	1.62
856.518	0.62
857.257	1.62
857.995	2.62
858.734	2.62
859.473	2.62
860.211	1.62
860.95	2.62
861.688	1.62
862.426	1.62
863.165	1.62
863.903	2.62
864.641	1.62
865.379	2.62
866.117	2.62
866.855	2.62
867.593	0.62
868.33	1.62
869.068	0.62
869.806	0.62
870.543	2.62
871.28	3.62
872.018	2.62
872.755	2.62
873.492	0.62
874.229	1.62
874.967	0.62
875.703	3.62
876.44	0.62
877.177	-0.38
877.914	-0.38
878.651	0.62
879.387	3.62
880.124	1.62
880.86	3.62
881.597	0.62
882.333	1.62
883.069	2.62
883.806	2.62
884.542	1.62
885.278	2.62
886.014	1.62
886.749	2.62
887.485	-0.38
888.221	3.62
888.957	-1.38
889.692	2.62
890.428	1.62
891.163	1.62
891.899	-1.38
892.634	2.62
893.369	1.62
894.104	2.62
894.839	1.62
895.574	1.62
896.309	1.62
897.044	1.62
897.779	2.62
898.514	4.62
899.248	1.62
899.983	1.62
900.717	2.62
901.452	-0.38
902.186	-0.38
902.92	-0.38
903.654	-0.38
904.389	0.62
905.123	0.62
905.857	0.62
906.59	0.62
907.324	-0.38
908.058	-2.38
908.792	1.62
909.525	1.62
910.259	-1.38
910.992	1.62
911.726	-0.38
912.459	1.62
913.192	1.62
913.925	2.62
914.658	0.62
915.391	0.62
916.124	-0.38
916.857	-1.38
917.59	1.62
918.323	1.62
919.055	-0.38
919.788	0.62
920.521	2.62
921.253	2.62
921.985	1.62
922.718	0.62
923.45	0.62
924.182	-0.38
924.914	1.62
925.646	-1.38
926.378	1.62
927.11	-0.38
927.841	0.62
928.573	1.62
929.305	1.62
930.036	1.62
930.768	-0.38
931.499	1.62
932.23	0.62
932.962	0.62
933.693	-0.38
934.424	3.62
935.155	-1.38
935.886	0.62
936.617	1.62
937.348	0.62
938.078	0.62
938.809	0.62
939.54	-1.38
940.27	2.62
941.001	-0.38
941.731	3.62
942.461	-1.38
943.191	1.62
943.922	-0.38
944.652	1.62
945.382	-0.38
946.112	0.62
946.841	2.62
947.571	-1.38
948.301	0.62
949.031	0.62
949.76	-1.38
950.49	1.62
951.219	-1.38
951.948	2.62
952.678	0.62
953.407	0.62
954.136	-0.38
954.865	-1.38
955.594	0.62
956.323	0.62
957.052	1.62
957.78	-1.38
958.509	0.62
959.238	1.62
959.966	-0.38
960.695	-0.38
961.423	0.62
962.151	2.62
962.88	-0.38
963.608	1.62
964.336	2.62
965.064	-1.38
965.792	0.62
966.52	-1.38
967.247	1.62
967.975	1.62
968.703	-0.38
969.43	-0.38
970.158	-0.38
970.885	1.62
971.613	-1.38
972.34	2.62
973.067	-0.38
973.794	1.62
974.521	0.62
975.248	0.62
975.975	2.62
976.702	1.62
977.429	1.62
978.156	2.62
978.882	1.62
979.609	0.62
980.335	-0.38
981.062	2.62
981.788	1.62
982.514	-0.38
983.24	0.62
983.967	-1.38
984.693	0.62
985.419	-1.38
986.144	1.62
986.87	-1.38
987.596	-0.38
988.322	0.62
989.047	1.62
989.773	0.62
990.498	0.62
991.224	2.62
991.949	1.62
992.674	1.62
993.399	2.62
994.124	-1.38
994.849	2.62
995.574	0.62
996.299	0.62
997.024	2.62
997.749	1.62
998.473	0.62
999.198	-0.38
999.922	1.62
1000.647	0.62
1001.371	5.62
1002.095	-0.38
1002.82	-1.38
1003.544	-2.38
1004.268	0.62
1004.992	-2.38
1005.716	-0.38
1006.439	0.62
1007.163	1.62
1007.887	2.62
1008.611	0.62
1009.334	0.62
1010.058	-0.38
1010.781	-0.38
1011.504	1.62
1012.228	1.62
1012.951	0.62
1013.674	-0.38
1014.397	-1.38
1015.12	-0.38
