节点500_145_QEPB04081__230__11-32-39-488.txt的数据

Date: Wed Nov 12 11:32:39 CST 2025
User: PC
Spectrometer: QEPB0408
触发模式: 0
积分时间 (秒): 1.000000E-2
Scans to average: 1
启用暗噪声校正: true
启用非线性校正: false
滑动平均宽度: 0
X轴模式: Wavelengths
Number of Pixels in Spectrum: 1044
>>>>>Begin Spectral Data<<<<<
220.843	-1
221.644	0
222.444	1
223.244	1
224.045	0
224.845	2
225.645	0
226.445	2
227.245	-2
228.045	0
228.845	2
229.645	2
230.444	0
231.244	1
232.043	-2
232.843	0
233.642	0
234.442	0
235.241	3
236.04	1
236.839	0
237.638	2
238.437	-1
239.236	1
240.035	1
240.833	-1
241.632	1
242.43	2
243.229	1
244.027	1
244.826	2
245.624	2
246.422	4
247.22	4
248.018	2
248.816	2
249.614	1
250.412	2
251.21	2
252.007	3
252.805	2
253.602	4
254.4	4
255.197	4
255.994	4
256.791	4
257.589	5
258.386	5
259.183	4
259.979	5
260.776	5
261.573	4
262.37	5
263.166	5
263.963	5
264.759	4
265.556	8
266.352	4
267.148	6
267.944	6
268.74	7
269.536	6
270.332	5
271.128	10
271.924	9
272.719	9
273.515	8
274.311	10
275.106	8
275.901	9
276.697	9
277.492	8
278.287	8
279.082	11
279.877	10
280.672	10
281.467	10
282.262	12
283.056	11
283.851	9
284.646	11
285.44	11
286.234	12
287.029	11
287.823	12
288.617	10
289.411	12
290.205	10
290.999	12
291.793	11
292.587	12
293.381	12
294.174	10
294.968	11
295.761	12
296.555	8
297.348	12
298.141	8
298.935	10
299.728	7
300.521	9
301.314	10
302.107	8
302.899	8
303.692	8
304.485	11
305.277	8
306.07	8
306.862	8
307.655	6
308.447	9
309.239	8
310.031	6
310.823	8
311.615	6
312.407	7
313.199	4
313.991	6
314.783	6
315.574	3
316.366	5
317.157	4
317.949	7
318.74	5
319.531	7
320.322	4
321.113	6
321.904	4
322.695	4
323.486	4
324.277	3
325.068	4
325.858	5
326.649	3
327.439	3
328.23	4
329.02	4
329.81	5
330.6	3
331.391	2
332.181	6
332.971	3
333.76	6
334.55	3
335.34	2
336.13	4
336.919	3
337.709	3
338.498	4
339.287	4
340.077	6
340.866	4
341.655	5
342.444	5
343.233	3
344.022	5
344.811	4
345.6	5
346.388	6
347.177	5
347.965	2
348.754	3
349.542	2
350.33	3
351.119	2
351.907	5
352.695	3
353.483	3
354.271	2
355.059	6
355.846	2
356.634	5
357.422	1
358.209	4
358.997	2
359.784	1
360.571	2
361.359	2
362.146	4
362.933	2
363.72	3
364.507	4
365.294	3
366.081	3
366.867	1
367.654	2
368.44	4
369.227	3
370.013	1
370.8	5
371.586	1
372.372	3
373.158	5
373.944	3
374.73	3
375.516	3
376.302	1
377.088	3
377.873	1
378.659	2
379.445	5
380.23	3
381.015	0
381.801	2
382.586	5
383.371	2
384.156	3
384.941	4
385.726	1
386.511	3
387.296	2
388.08	3
388.865	2
389.649	2
390.434	4
391.218	1
392.003	2
392.787	3
393.571	5
394.355	3
395.139	4
395.923	4
396.707	3
397.491	1
398.274	3
399.058	3
399.842	4
400.625	4
401.408	3
402.192	2
402.975	5
403.758	3
404.541	6
405.324	6
406.107	5
406.89	3
407.673	6
408.456	4
409.238	3
410.021	7
410.803	4
411.586	7
412.368	6
413.151	4
413.933	5
414.715	6
415.497	3
416.279	5
417.061	6
417.843	4
418.624	6
419.406	3
420.188	3
420.969	3
421.751	6
422.532	7
423.313	7
424.095	3
424.876	4
425.657	7
426.438	6
427.219	7
428	7
428.78	7
429.561	5
430.342	7
431.122	7
431.903	8
432.683	8
433.464	8
434.244	10
435.024	7
435.804	9
436.584	9
437.364	11
438.144	11
438.924	9
439.704	11
440.483	11
441.263	12
442.042	10
442.822	15
443.601	17
444.38	14
445.16	16
445.939	14
446.718	18
447.497	18
448.276	21
449.054	21
449.833	24
450.612	26
451.391	25
452.169	31
452.948	33
453.726	35
454.504	38
455.282	41
456.061	45
456.839	48
457.617	53
458.395	63
459.172	66
459.95	72
460.728	80
461.506	89
462.283	106
463.061	110
463.838	125
464.615	142
465.393	151
466.17	173
466.947	193
467.724	212
468.501	241
469.278	266
470.055	299
470.831	330
471.608	366
472.385	409
473.161	448
473.938	509
474.714	561
475.49	620
476.266	683
477.043	759
477.819	849
478.595	943
479.371	1041
480.146	1148
480.922	1277
481.698	1420
482.473	1560
483.249	1707
484.024	1893
484.8	2082
485.575	2307
486.35	2551
487.126	2789
487.901	3100
488.676	3400
489.451	3763
490.225	4141
491	4560
491.775	5039
492.55	5506
493.324	6037
494.099	6616
494.873	7250
495.647	7882
496.422	8590
497.196	9285
497.97	10047
498.744	10774
499.518	11575
500.292	12300
501.066	12984
501.839	13700
502.613	14448
503.387	15079
504.16	15563
504.934	16069
505.707	16398
506.48	16611
507.253	16782
508.027	16805
508.8	16748
509.573	16499
510.346	16265
511.118	15881
511.891	15458
512.664	14971
513.437	14417
514.209	13854
514.982	13328
515.754	12758
516.526	12183
517.298	11637
518.071	11081
518.843	10559
519.615	10166
520.387	9737
521.159	9349
521.93	8953
522.702	8591
523.474	8280
524.245	7958
525.017	7632
525.788	7333
526.56	7036
527.331	6744
528.102	6428
528.873	6155
529.644	5845
530.415	5627
531.186	5341
531.957	5074
532.728	4770
533.498	4534
534.269	4267
535.039	4052
535.81	3825
536.58	3628
537.351	3387
538.121	3220
538.891	3039
539.661	2874
540.431	2713
541.201	2593
541.971	2438
542.741	2303
543.51	2189
544.28	2075
545.05	1966
545.819	1884
546.588	1794
547.358	1689
548.127	1617
548.896	1537
549.665	1451
550.434	1389
551.203	1321
551.972	1229
552.741	1176
553.51	1110
554.278	1056
555.047	980
555.815	930
556.584	890
557.352	826
558.121	786
558.889	741
559.657	697
560.425	652
561.193	627
561.961	578
562.729	544
563.496	518
564.264	491
565.032	461
565.799	438
566.567	412
567.334	391
568.101	368
568.869	342
569.636	319
570.403	317
571.17	291
571.937	278
572.704	260
573.471	250
574.237	234
575.004	218
575.771	207
576.537	195
577.303	179
578.07	169
578.836	158
579.602	152
580.368	137
581.134	135
581.9	127
582.666	123
583.432	120
584.198	106
584.964	105
585.729	98
586.495	92
587.26	87
588.025	81
588.791	79
589.556	73
590.321	68
591.086	68
591.851	61
592.616	58
593.381	59
594.146	52
594.911	50
595.675	49
596.44	48
597.204	44
597.969	45
598.733	40
599.497	37
600.261	35
601.025	36
601.79	33
602.553	31
603.317	33
604.081	27
604.845	30
605.609	26
606.372	27
607.136	23
607.899	25
608.662	18
609.426	23
610.189	20
610.952	19
611.715	20
612.478	18
613.241	16
614.004	18
614.767	14
615.529	20
616.292	15
617.055	15
617.817	14
618.579	11
619.342	13
620.104	12
620.866	13
621.628	11
622.39	10
623.152	10
623.914	10
624.676	9
625.438	8
626.199	8
626.961	9
627.722	9
628.484	11
629.245	9
630.006	7
630.768	7
631.529	9
632.29	5
633.051	7
633.812	7
634.573	6
635.333	8
636.094	6
636.855	9
637.615	5
638.376	4
639.136	6
639.896	7
640.657	7
641.417	5
642.177	6
642.937	7
643.697	4
644.457	3
645.216	5
645.976	5
646.736	3
647.495	4
648.255	2
649.014	3
649.774	5
650.533	2
651.292	6
652.051	4
652.81	5
653.569	2
654.328	2
655.087	4
655.846	2
656.604	3
657.363	4
658.121	5
658.88	5
659.638	3
660.397	4
661.155	2
661.913	4
662.671	2
663.429	4
664.187	2
664.945	3
665.703	5
666.46	4
667.218	4
667.976	5
668.733	4
669.49	2
670.248	1
671.005	3
671.762	3
672.519	2
673.276	2
674.033	3
674.79	1
675.547	4
676.304	3
677.06	2
677.817	2
678.574	1
679.33	1
680.086	3
680.843	2
681.599	3
682.355	0
683.111	1
683.867	4
684.623	3
685.379	0
686.135	2
686.89	4
687.646	2
688.402	2
689.157	1
689.912	2
690.668	2
691.423	1
692.178	3
692.933	3
693.688	5
694.443	3
695.198	3
695.953	1
696.708	2
697.462	3
698.217	1
698.972	5
699.726	3
700.48	2
701.235	1
701.989	2
702.743	4
703.497	2
704.251	1
705.005	3
705.759	1
706.513	3
707.266	1
708.02	0
708.774	3
709.527	-1
710.28	1
711.034	2
711.787	1
712.54	3
713.293	1
714.046	3
714.799	1
715.552	1
716.305	2
717.058	1
717.81	2
718.563	2
719.315	0
720.068	3
720.82	1
721.573	2
722.325	1
723.077	1
723.829	2
724.581	-1
725.333	2
726.085	4
726.836	-1
727.588	2
728.34	1
729.091	3
729.843	2
730.594	1
731.346	4
732.097	2
732.848	3
733.599	2
734.35	2
735.101	2
735.852	1
736.603	1
737.354	1
738.104	1
738.855	2
739.605	2
740.356	2
741.106	1
741.856	0
742.607	2
743.357	4
744.107	2
744.857	2
745.607	2
746.357	3
747.106	1
747.856	5
748.606	3
749.355	1
750.105	2
750.854	0
751.603	2
752.353	3
753.102	4
753.851	3
754.6	3
755.349	3
756.098	2
756.847	3
757.595	4
758.344	5
759.093	4
759.841	5
760.589	2
761.338	2
762.086	4
762.834	5
763.582	4
764.331	4
765.079	4
765.826	4
766.574	6
767.322	5
768.07	3
768.817	4
769.565	5
770.312	3
771.06	4
771.807	4
772.554	4
773.302	5
774.049	5
774.796	4
775.543	7
776.29	6
777.036	4
777.783	5
778.53	4
779.276	5
780.023	4
780.769	5
781.516	3
782.262	5
783.008	4
783.754	6
784.5	3
785.246	4
785.992	7
786.738	8
787.484	7
788.23	7
788.975	5
789.721	3
790.466	6
791.212	6
791.957	5
792.702	6
793.447	5
794.193	4
794.938	3
795.683	5
796.427	5
797.172	7
797.917	5
798.662	5
799.406	7
800.151	4
800.895	4
801.64	2
802.384	3
803.128	5
803.872	2
804.616	4
805.36	5
806.104	6
806.848	2
807.592	4
808.336	4
809.079	3
809.823	6
810.566	3
811.31	5
812.053	5
812.796	5
813.539	3
814.283	4
815.026	3
815.769	2
816.511	2
817.254	2
817.997	2
818.74	3
819.482	2
820.225	3
820.967	2
821.71	1
822.452	3
823.194	3
823.936	5
824.678	0
825.42	3
826.162	2
826.904	1
827.646	5
828.388	2
829.129	4
829.871	2
830.612	3
831.354	2
832.095	2
832.836	3
833.577	0
834.319	2
835.06	4
835.801	4
836.542	2
837.282	2
838.023	4
838.764	2
839.504	2
840.245	2
840.985	2
841.726	2
842.466	3
843.206	3
843.946	1
844.687	3
845.427	0
846.166	0
846.906	1
847.646	4
848.386	1
849.125	1
849.865	2
850.605	1
851.344	1
852.083	1
852.823	2
853.562	4
854.301	-2
855.04	1
855.779	0
856.518	3
857.257	2
857.995	1
858.734	0
859.473	0
860.211	-1
860.95	1
861.688	2
862.426	2
863.165	2
863.903	-1
864.641	1
865.379	3
866.117	1
866.855	2
867.593	2
868.33	0
869.068	1
869.806	0
870.543	1
871.28	3
872.018	0
872.755	1
873.492	0
874.229	1
874.967	0
875.703	1
876.44	1
877.177	2
877.914	-2
878.651	2
879.387	2
880.124	1
880.86	0
881.597	2
882.333	0
883.069	2
883.806	0
884.542	1
885.278	1
886.014	1
886.749	0
887.485	1
888.221	2
888.957	-1
889.692	2
890.428	1
891.163	3
891.899	-1
892.634	-1
893.369	1
894.104	0
894.839	3
895.574	0
896.309	2
897.044	1
897.779	1
898.514	0
899.248	1
899.983	-1
900.717	2
901.452	2
902.186	2
902.92	-2
903.654	-1
904.389	-1
905.123	-2
905.857	-1
906.59	0
907.324	1
908.058	-2
908.792	2
909.525	-1
910.259	1
910.992	3
911.726	1
912.459	1
913.192	-3
913.925	2
914.658	-1
915.391	0
916.124	-2
916.857	0
917.59	0
918.323	0
919.055	2
919.788	0
920.521	0
921.253	-1
921.985	1
922.718	-2
923.45	0
924.182	1
924.914	-2
925.646	0
926.378	1
927.11	0
927.841	-2
928.573	-1
929.305	0
930.036	0
930.768	1
931.499	2
932.23	0
932.962	1
933.693	1
934.424	1
935.155	2
935.886	0
936.617	-1
937.348	0
938.078	0
938.809	1
939.54	-1
940.27	1
941.001	-1
941.731	0
942.461	-2
943.191	-1
943.922	-3
944.652	0
945.382	-1
946.112	2
946.841	-1
947.571	-1
948.301	0
949.031	0
949.76	3
950.49	-2
951.219	-2
951.948	0
952.678	-1
953.407	2
954.136	-2
954.865	0
955.594	-1
956.323	-2
957.052	0
957.78	-1
958.509	-1
959.238	0
959.966	-1
960.695	-1
961.423	0
962.151	-1
962.88	1
963.608	1
964.336	-2
965.064	1
965.792	0
966.52	-1
967.247	0
967.975	1
968.703	1
969.43	2
970.158	0
970.885	-1
971.613	-1
972.34	1
973.067	0
973.794	0
974.521	-2
975.248	0
975.975	0
976.702	-1
977.429	1
978.156	-2
978.882	1
979.609	-1
980.335	1
981.062	-2
981.788	0
982.514	3
983.24	0
983.967	3
984.693	-1
985.419	0
986.144	0
986.87	1
987.596	1
988.322	-1
989.047	2
989.773	-2
990.498	-2
991.224	-1
991.949	-2
992.674	1
993.399	1
994.124	2
994.849	0
995.574	-1
996.299	0
997.024	1
997.749	1
998.473	-1
999.198	1
999.922	-2
1000.647	1
1001.371	3
1002.095	-1
1002.82	0
1003.544	0
1004.268	-1
1004.992	0
1005.716	-1
1006.439	1
1007.163	-1
1007.887	-1
1008.611	1
1009.334	0
1010.058	1
1010.781	1
1011.504	1
1012.228	0
1012.951	1
1013.674	-2
1014.397	-2
1015.12	1
