节点500_145_QEPB04081__434__11-35-53-548.txt的数据

Date: Wed Nov 12 11:35:53 CST 2025
User: PC
Spectrometer: QEPB0408
触发模式: 0
积分时间 (秒): 1.000000E-2
Scans to average: 1
启用暗噪声校正: true
启用非线性校正: false
滑动平均宽度: 0
X轴模式: Wavelengths
Number of Pixels in Spectrum: 1044
>>>>>Begin Spectral Data<<<<<
220.843	-1
221.644	-1
222.444	1
223.244	4
224.045	1
224.845	0
225.645	1
226.445	-1
227.245	2
228.045	-1
228.845	1
229.645	4
230.444	3
231.244	2
232.043	2
232.843	2
233.642	-2
234.442	2
235.241	0
236.04	2
236.839	3
237.638	0
238.437	2
239.236	2
240.035	2
240.833	-1
241.632	2
242.43	2
243.229	1
244.027	2
244.826	3
245.624	3
246.422	2
247.22	4
248.018	2
248.816	4
249.614	2
250.412	2
251.21	4
252.007	2
252.805	1
253.602	4
254.4	6
255.197	3
255.994	6
256.791	4
257.589	6
258.386	3
259.183	5
259.979	5
260.776	7
261.573	2
262.37	6
263.166	6
263.963	6
264.759	7
265.556	6
266.352	6
267.148	6
267.944	7
268.74	8
269.536	5
270.332	6
271.128	6
271.924	10
272.719	7
273.515	6
274.311	9
275.106	7
275.901	7
276.697	8
277.492	8
278.287	10
279.082	9
279.877	9
280.672	12
281.467	11
282.262	11
283.056	11
283.851	7
284.646	11
285.44	11
286.234	11
287.029	11
287.823	9
288.617	10
289.411	12
290.205	13
290.999	11
291.793	12
292.587	12
293.381	11
294.174	11
294.968	12
295.761	10
296.555	10
297.348	12
298.141	12
298.935	10
299.728	10
300.521	8
301.314	11
302.107	9
302.899	7
303.692	9
304.485	8
305.277	9
306.07	9
306.862	8
307.655	10
308.447	10
309.239	8
310.031	6
310.823	7
311.615	7
312.407	6
313.199	8
313.991	5
314.783	5
315.574	5
316.366	7
317.157	6
317.949	5
318.74	3
319.531	6
320.322	4
321.113	4
321.904	5
322.695	6
323.486	5
324.277	6
325.068	5
325.858	3
326.649	4
327.439	3
328.23	6
329.02	5
329.81	4
330.6	4
331.391	5
332.181	4
332.971	4
333.76	3
334.55	4
335.34	5
336.13	6
336.919	6
337.709	6
338.498	6
339.287	4
340.077	4
340.866	4
341.655	3
342.444	4
343.233	6
344.022	5
344.811	5
345.6	5
346.388	5
347.177	4
347.965	2
348.754	4
349.542	4
350.33	6
351.119	3
351.907	4
352.695	3
353.483	5
354.271	2
355.059	2
355.846	3
356.634	4
357.422	3
358.209	1
358.997	6
359.784	3
360.571	7
361.359	2
362.146	4
362.933	4
363.72	4
364.507	5
365.294	2
366.081	3
366.867	1
367.654	5
368.44	2
369.227	5
370.013	4
370.8	2
371.586	5
372.372	2
373.158	2
373.944	4
374.73	2
375.516	1
376.302	3
377.088	4
377.873	5
378.659	1
379.445	5
380.23	2
381.015	3
381.801	4
382.586	3
383.371	4
384.156	4
384.941	2
385.726	2
386.511	3
387.296	1
388.08	3
388.865	2
389.649	5
390.434	4
391.218	4
392.003	5
392.787	4
393.571	6
394.355	4
395.139	2
395.923	3
396.707	4
397.491	5
398.274	5
399.058	3
399.842	6
400.625	3
401.408	7
402.192	5
402.975	6
403.758	4
404.541	4
405.324	7
406.107	6
406.89	5
407.673	4
408.456	4
409.238	5
410.021	4
410.803	6
411.586	4
412.368	5
413.151	7
413.933	5
414.715	4
415.497	4
416.279	6
417.061	4
417.843	5
418.624	4
419.406	6
420.188	6
420.969	5
421.751	4
422.532	5
423.313	8
424.095	6
424.876	7
425.657	7
426.438	6
427.219	7
428	6
428.78	7
429.561	8
430.342	8
431.122	8
431.903	7
432.683	8
433.464	7
434.244	10
435.024	10
435.804	10
436.584	10
437.364	10
438.144	11
438.924	11
439.704	9
440.483	10
441.263	13
442.042	13
442.822	15
443.601	13
444.38	14
445.16	17
445.939	17
446.718	16
447.497	20
448.276	21
449.054	22
449.833	25
450.612	29
451.391	31
452.169	32
452.948	33
453.726	33
454.504	38
455.282	44
456.061	51
456.839	53
457.617	61
458.395	64
459.172	71
459.95	80
460.728	89
461.506	98
462.283	107
463.061	118
463.838	133
464.615	150
465.393	167
466.17	183
466.947	206
467.724	230
468.501	256
469.278	284
470.055	312
470.831	346
471.608	386
472.385	426
473.161	472
473.938	528
474.714	579
475.49	641
476.266	719
477.043	790
477.819	870
478.595	952
479.371	1054
480.146	1158
480.922	1275
481.698	1417
482.473	1546
483.249	1695
484.024	1866
484.8	2042
485.575	2266
486.35	2481
487.126	2702
487.901	2977
488.676	3276
489.451	3579
490.225	3927
491	4300
491.775	4696
492.55	5168
493.324	5638
494.099	6141
494.873	6686
495.647	7259
496.422	7886
497.196	8522
497.97	9194
498.744	9879
499.518	10596
500.292	11295
501.066	11958
501.839	12651
502.613	13293
503.387	13869
504.16	14458
504.934	14901
505.707	15303
506.48	15653
507.253	15850
508.027	15941
508.8	15999
509.573	15885
510.346	15712
511.118	15456
511.891	15124
512.664	14734
513.437	14316
514.209	13847
514.982	13271
515.754	12745
516.526	12236
517.298	11716
518.071	11200
518.843	10707
519.615	10285
520.387	9861
521.159	9492
521.93	9082
522.702	8699
523.474	8402
524.245	8039
525.017	7735
525.788	7451
526.56	7156
527.331	6840
528.102	6524
528.873	6284
529.644	5983
530.415	5739
531.186	5436
531.957	5187
532.728	4948
533.498	4669
534.269	4431
535.039	4198
535.81	3977
536.58	3744
537.351	3542
538.121	3358
538.891	3166
539.661	2960
540.431	2823
541.201	2682
541.971	2550
542.741	2396
543.51	2278
544.28	2160
545.05	2041
545.819	1962
546.588	1845
547.358	1760
548.127	1677
548.896	1594
549.665	1511
550.434	1444
551.203	1345
551.972	1296
552.741	1228
553.51	1153
554.278	1110
555.047	1040
555.815	981
556.584	926
557.352	871
558.121	813
558.889	768
559.657	734
560.425	687
561.193	659
561.961	630
562.729	581
563.496	549
564.264	518
565.032	495
565.799	461
566.567	433
567.334	404
568.101	389
568.869	368
569.636	349
570.403	324
571.17	312
571.937	292
572.704	266
573.471	257
574.237	246
575.004	232
575.771	215
576.537	205
577.303	193
578.07	183
578.836	171
579.602	164
580.368	154
581.134	141
581.9	136
582.666	127
583.432	122
584.198	114
584.964	109
585.729	102
586.495	100
587.26	91
588.025	82
588.791	83
589.556	79
590.321	73
591.086	70
591.851	68
592.616	61
593.381	61
594.146	56
594.911	52
595.675	51
596.44	51
597.204	49
597.969	43
598.733	43
599.497	42
600.261	38
601.025	38
601.79	32
602.553	35
603.317	38
604.081	32
604.845	29
605.609	27
606.372	26
607.136	26
607.899	23
608.662	25
609.426	23
610.189	24
610.952	22
611.715	21
612.478	19
613.241	21
614.004	18
614.767	18
615.529	17
616.292	18
617.055	17
617.817	17
618.579	15
619.342	14
620.104	13
620.866	16
621.628	14
622.39	11
623.152	10
623.914	13
624.676	10
625.438	10
626.199	13
626.961	10
627.722	9
628.484	11
629.245	7
630.006	10
630.768	7
631.529	7
632.29	8
633.051	8
633.812	7
634.573	6
635.333	8
636.094	6
636.855	6
637.615	6
638.376	8
639.136	4
639.896	6
640.657	7
641.417	7
642.177	6
642.937	6
643.697	6
644.457	4
645.216	5
645.976	5
646.736	5
647.495	7
648.255	3
649.014	6
649.774	7
650.533	6
651.292	4
652.051	4
652.81	5
653.569	6
654.328	4
655.087	3
655.846	5
656.604	6
657.363	5
658.121	4
658.88	4
659.638	4
660.397	3
661.155	5
661.913	4
662.671	3
663.429	3
664.187	1
664.945	4
665.703	5
666.46	3
667.218	6
667.976	2
668.733	2
669.49	2
670.248	3
671.005	5
671.762	3
672.519	4
673.276	2
674.033	4
674.79	3
675.547	1
676.304	2
677.06	2
677.817	3
678.574	4
679.33	5
680.086	2
680.843	4
681.599	2
682.355	4
683.111	4
683.867	3
684.623	5
685.379	2
686.135	1
686.89	4
687.646	3
688.402	2
689.157	5
689.912	2
690.668	4
691.423	4
692.178	3
692.933	1
693.688	2
694.443	2
695.198	1
695.953	3
696.708	2
697.462	4
698.217	2
698.972	2
699.726	2
700.48	3
701.235	4
701.989	2
702.743	2
703.497	2
704.251	3
705.005	3
705.759	2
706.513	3
707.266	2
708.02	3
708.774	2
709.527	2
710.28	3
711.034	2
711.787	3
712.54	4
713.293	4
714.046	1
714.799	2
715.552	2
716.305	4
717.058	3
717.81	3
718.563	3
719.315	1
720.068	1
720.82	3
721.573	2
722.325	4
723.077	4
723.829	3
724.581	1
725.333	3
726.085	4
726.836	2
727.588	3
728.34	2
729.091	3
729.843	-1
730.594	6
731.346	3
732.097	2
732.848	1
733.599	2
734.35	4
735.101	2
735.852	3
736.603	3
737.354	3
738.104	1
738.855	4
739.605	3
740.356	3
741.106	4
741.856	2
742.607	2
743.357	5
744.107	2
744.857	4
745.607	4
746.357	2
747.106	1
747.856	2
748.606	3
749.355	4
750.105	3
750.854	4
751.603	4
752.353	3
753.102	3
753.851	5
754.6	3
755.349	4
756.098	2
756.847	6
757.595	3
758.344	4
759.093	5
759.841	3
760.589	4
761.338	2
762.086	3
762.834	3
763.582	2
764.331	2
765.079	5
765.826	4
766.574	4
767.322	5
768.07	7
768.817	6
769.565	4
770.312	4
771.06	5
771.807	6
772.554	5
773.302	6
774.049	5
774.796	6
775.543	4
776.29	4
777.036	3
777.783	6
778.53	6
779.276	3
780.023	7
780.769	6
781.516	7
782.262	6
783.008	5
783.754	5
784.5	4
785.246	6
785.992	6
786.738	6
787.484	6
788.23	4
788.975	5
789.721	5
790.466	5
791.212	6
791.957	6
792.702	5
793.447	6
794.193	5
794.938	6
795.683	7
796.427	6
797.172	5
797.917	6
798.662	6
799.406	2
800.151	3
800.895	8
801.64	5
802.384	5
803.128	5
803.872	3
804.616	2
805.36	4
806.104	5
806.848	4
807.592	6
808.336	4
809.079	3
809.823	8
810.566	5
811.31	4
812.053	6
812.796	4
813.539	4
814.283	3
815.026	5
815.769	2
816.511	3
817.254	3
817.997	4
818.74	5
819.482	1
820.225	5
820.967	2
821.71	4
822.452	2
823.194	3
823.936	4
824.678	4
825.42	5
826.162	4
826.904	5
827.646	2
828.388	4
829.129	6
829.871	4
830.612	3
831.354	3
832.095	4
832.836	3
833.577	2
834.319	4
835.06	2
835.801	2
836.542	4
837.282	3
838.023	5
838.764	4
839.504	2
840.245	3
840.985	4
841.726	2
842.466	2
843.206	2
843.946	3
844.687	3
845.427	2
846.166	6
846.906	2
847.646	4
848.386	3
849.125	3
849.865	5
850.605	1
851.344	4
852.083	3
852.823	3
853.562	1
854.301	3
855.04	4
855.779	0
856.518	3
857.257	2
857.995	3
858.734	2
859.473	2
860.211	2
860.95	1
861.688	3
862.426	0
863.165	3
863.903	4
864.641	0
865.379	1
866.117	0
866.855	2
867.593	1
868.33	4
869.068	1
869.806	2
870.543	3
871.28	0
872.018	4
872.755	4
873.492	0
874.229	5
874.967	3
875.703	4
876.44	0
877.177	3
877.914	2
878.651	2
879.387	3
880.124	2
880.86	2
881.597	0
882.333	5
883.069	0
883.806	2
884.542	2
885.278	1
886.014	3
886.749	1
887.485	2
888.221	2
888.957	0
889.692	1
890.428	2
891.163	1
891.899	2
892.634	2
893.369	-2
894.104	1
894.839	3
895.574	1
896.309	1
897.044	0
897.779	2
898.514	1
899.248	2
899.983	2
900.717	-1
901.452	1
902.186	2
902.92	1
903.654	2
904.389	0
905.123	2
905.857	2
906.59	2
907.324	-1
908.058	2
908.792	1
909.525	2
910.259	0
910.992	0
911.726	2
912.459	-1
913.192	2
913.925	2
914.658	1
915.391	1
916.124	1
916.857	1
917.59	0
918.323	1
919.055	1
919.788	2
920.521	2
921.253	0
921.985	2
922.718	1
923.45	0
924.182	2
924.914	1
925.646	1
926.378	-1
927.11	1
927.841	1
928.573	3
929.305	0
930.036	-1
930.768	2
931.499	-1
932.23	-1
932.962	3
933.693	1
934.424	3
935.155	1
935.886	2
936.617	0
937.348	1
938.078	-1
938.809	3
939.54	-2
940.27	2
941.001	2
941.731	1
942.461	2
943.191	-1
943.922	1
944.652	-1
945.382	1
946.112	3
946.841	-1
947.571	2
948.301	0
949.031	3
949.76	2
950.49	0
951.219	1
951.948	0
952.678	0
953.407	0
954.136	3
954.865	1
955.594	1
956.323	2
957.052	0
957.78	1
958.509	1
959.238	3
959.966	2
960.695	0
961.423	0
962.151	-1
962.88	0
963.608	2
964.336	1
965.064	2
965.792	1
966.52	2
967.247	1
967.975	3
968.703	1
969.43	0
970.158	1
970.885	2
971.613	2
972.34	-1
973.067	2
973.794	-1
974.521	0
975.248	1
975.975	1
976.702	1
977.429	0
978.156	0
978.882	1
979.609	1
980.335	1
981.062	0
981.788	1
982.514	2
983.24	-1
983.967	3
984.693	0
985.419	-1
986.144	0
986.87	1
987.596	-1
988.322	1
989.047	-1
989.773	1
990.498	1
991.224	1
991.949	0
992.674	0
993.399	4
994.124	-1
994.849	0
995.574	2
996.299	0
997.024	1
997.749	0
998.473	3
999.198	1
999.922	1
1000.647	-1
1001.371	2
1002.095	0
1002.82	-1
1003.544	0
1004.268	-1
1004.992	-1
1005.716	-2
1006.439	1
1007.163	-1
1007.887	-1
1008.611	-1
1009.334	1
1010.058	2
1010.781	0
1011.504	1
1012.228	2
1012.951	1
1013.674	-1
1014.397	1
1015.12	-2
