节点500_145_QEPB04081__227__11-32-36-491.txt的数据

Date: Wed Nov 12 11:32:36 CST 2025
User: PC
Spectrometer: QEPB0408
触发模式: 0
积分时间 (秒): 1.000000E-2
Scans to average: 1
启用暗噪声校正: true
启用非线性校正: false
滑动平均宽度: 0
X轴模式: Wavelengths
Number of Pixels in Spectrum: 1044
>>>>>Begin Spectral Data<<<<<
220.843	0.25
221.644	0.25
222.444	-1.75
223.244	0.25
224.045	1.25
224.845	-1.75
225.645	-0.75
226.445	-0.75
227.245	0.25
228.045	1.25
228.845	-0.75
229.645	1.25
230.444	-1.75
231.244	0.25
232.043	0.25
232.843	1.25
233.642	2.25
234.442	1.25
235.241	4.25
236.04	0.25
236.839	0.25
237.638	0.25
238.437	0.25
239.236	-0.75
240.035	1.25
240.833	2.25
241.632	1.25
242.43	0.25
243.229	1.25
244.027	1.25
244.826	3.25
245.624	2.25
246.422	2.25
247.22	2.25
248.018	3.25
248.816	2.25
249.614	3.25
250.412	2.25
251.21	3.25
252.007	1.25
252.805	2.25
253.602	2.25
254.4	0.25
255.197	2.25
255.994	4.25
256.791	5.25
257.589	2.25
258.386	5.25
259.183	3.25
259.979	2.25
260.776	5.25
261.573	6.25
262.37	5.25
263.166	3.25
263.963	6.25
264.759	5.25
265.556	7.25
266.352	5.25
267.148	5.25
267.944	7.25
268.74	7.25
269.536	7.25
270.332	10.25
271.128	7.25
271.924	7.25
272.719	7.25
273.515	9.25
274.311	8.25
275.106	10.25
275.901	10.25
276.697	9.25
277.492	8.25
278.287	9.25
279.082	10.25
279.877	10.25
280.672	9.25
281.467	11.25
282.262	10.25
283.056	9.25
283.851	11.25
284.646	11.25
285.44	12.25
286.234	10.25
287.029	10.25
287.823	12.25
288.617	9.25
289.411	9.25
290.205	10.25
290.999	13.25
291.793	10.25
292.587	13.25
293.381	10.25
294.174	12.25
294.968	13.25
295.761	9.25
296.555	10.25
297.348	9.25
298.141	11.25
298.935	10.25
299.728	9.25
300.521	7.25
301.314	7.25
302.107	8.25
302.899	7.25
303.692	5.25
304.485	7.25
305.277	11.25
306.07	8.25
306.862	6.25
307.655	9.25
308.447	8.25
309.239	9.25
310.031	5.25
310.823	6.25
311.615	8.25
312.407	6.25
313.199	7.25
313.991	5.25
314.783	6.25
315.574	7.25
316.366	3.25
317.157	6.25
317.949	5.25
318.74	8.25
319.531	5.25
320.322	6.25
321.113	4.25
321.904	3.25
322.695	5.25
323.486	5.25
324.277	5.25
325.068	3.25
325.858	4.25
326.649	3.25
327.439	4.25
328.23	6.25
329.02	4.25
329.81	5.25
330.6	2.25
331.391	4.25
332.181	3.25
332.971	2.25
333.76	4.25
334.55	4.25
335.34	3.25
336.13	2.25
336.919	3.25
337.709	3.25
338.498	4.25
339.287	5.25
340.077	3.25
340.866	4.25
341.655	1.25
342.444	6.25
343.233	7.25
344.022	3.25
344.811	3.25
345.6	5.25
346.388	3.25
347.177	3.25
347.965	3.25
348.754	5.25
349.542	2.25
350.33	5.25
351.119	2.25
351.907	5.25
352.695	4.25
353.483	3.25
354.271	3.25
355.059	3.25
355.846	4.25
356.634	1.25
357.422	3.25
358.209	3.25
358.997	3.25
359.784	3.25
360.571	3.25
361.359	4.25
362.146	1.25
362.933	4.25
363.72	3.25
364.507	3.25
365.294	4.25
366.081	3.25
366.867	2.25
367.654	2.25
368.44	3.25
369.227	1.25
370.013	6.25
370.8	2.25
371.586	2.25
372.372	3.25
373.158	2.25
373.944	1.25
374.73	3.25
375.516	2.25
376.302	2.25
377.088	4.25
377.873	2.25
378.659	2.25
379.445	5.25
380.23	4.25
381.015	2.25
381.801	5.25
382.586	3.25
383.371	3.25
384.156	3.25
384.941	2.25
385.726	3.25
386.511	3.25
387.296	3.25
388.08	0.25
388.865	5.25
389.649	3.25
390.434	5.25
391.218	4.25
392.003	1.25
392.787	3.25
393.571	2.25
394.355	1.25
395.139	1.25
395.923	2.25
396.707	5.25
397.491	3.25
398.274	5.25
399.058	4.25
399.842	5.25
400.625	3.25
401.408	3.25
402.192	3.25
402.975	2.25
403.758	3.25
404.541	5.25
405.324	4.25
406.107	5.25
406.89	3.25
407.673	4.25
408.456	2.25
409.238	5.25
410.021	2.25
410.803	4.25
411.586	5.25
412.368	4.25
413.151	3.25
413.933	5.25
414.715	5.25
415.497	5.25
416.279	2.25
417.061	5.25
417.843	3.25
418.624	4.25
419.406	4.25
420.188	6.25
420.969	5.25
421.751	6.25
422.532	5.25
423.313	7.25
424.095	5.25
424.876	8.25
425.657	6.25
426.438	8.25
427.219	8.25
428	7.25
428.78	9.25
429.561	9.25
430.342	6.25
431.122	7.25
431.903	7.25
432.683	8.25
433.464	9.25
434.244	9.25
435.024	7.25
435.804	9.25
436.584	10.25
437.364	9.25
438.144	9.25
438.924	11.25
439.704	9.25
440.483	11.25
441.263	14.25
442.042	11.25
442.822	14.25
443.601	14.25
444.38	14.25
445.16	16.25
445.939	20.25
446.718	17.25
447.497	20.25
448.276	19.25
449.054	19.25
449.833	25.25
450.612	23.25
451.391	26.25
452.169	29.25
452.948	29.25
453.726	33.25
454.504	36.25
455.282	39.25
456.061	45.25
456.839	49.25
457.617	56.25
458.395	60.25
459.172	62.25
459.95	70.25
460.728	84.25
461.506	87.25
462.283	101.25
463.061	112.25
463.838	128.25
464.615	139.25
465.393	149.25
466.17	172.25
466.947	193.25
467.724	214.25
468.501	234.25
469.278	265.25
470.055	288.25
470.831	324.25
471.608	358.25
472.385	406.25
473.161	456.25
473.938	501.25
474.714	558.25
475.49	624.25
476.266	683.25
477.043	765.25
477.819	844.25
478.595	934.25
479.371	1042.25
480.146	1161.25
480.922	1278.25
481.698	1411.25
482.473	1557.25
483.249	1710.25
484.024	1884.25
484.8	2089.25
485.575	2302.25
486.35	2565.25
487.126	2822.25
487.901	3105.25
488.676	3422.25
489.451	3753.25
490.225	4146.25
491	4573.25
491.775	5036.25
492.55	5509.25
493.324	6053.25
494.099	6637.25
494.873	7229.25
495.647	7854.25
496.422	8567.25
497.196	9289.25
497.97	10018.25
498.744	10802.25
499.518	11577.25
500.292	12315.25
501.066	13032.25
501.839	13754.25
502.613	14479.25
503.387	15097.25
504.16	15620.25
504.934	16068.25
505.707	16419.25
506.48	16678.25
507.253	16820.25
508.027	16897.25
508.8	16768.25
509.573	16483.25
510.346	16273.25
511.118	15893.25
511.891	15457.25
512.664	15001.25
513.437	14454.25
514.209	13834.25
514.982	13262.25
515.754	12743.25
516.526	12183.25
517.298	11644.25
518.071	11105.25
518.843	10611.25
519.615	10193.25
520.387	9738.25
521.159	9376.25
521.93	9001.25
522.702	8608.25
523.474	8283.25
524.245	7968.25
525.017	7636.25
525.788	7326.25
526.56	7030.25
527.331	6746.25
528.102	6463.25
528.873	6180.25
529.644	5862.25
530.415	5623.25
531.186	5321.25
531.957	5072.25
532.728	4811.25
533.498	4521.25
534.269	4293.25
535.039	4055.25
535.81	3809.25
536.58	3616.25
537.351	3409.25
538.121	3227.25
538.891	3026.25
539.661	2878.25
540.431	2720.25
541.201	2591.25
541.971	2445.25
542.741	2307.25
543.51	2174.25
544.28	2086.25
545.05	1964.25
545.819	1874.25
546.588	1794.25
547.358	1698.25
548.127	1618.25
548.896	1527.25
549.665	1465.25
550.434	1385.25
551.203	1318.25
551.972	1243.25
552.741	1178.25
553.51	1113.25
554.278	1057.25
555.047	981.25
555.815	944.25
556.584	887.25
557.352	830.25
558.121	787.25
558.889	736.25
559.657	699.25
560.425	664.25
561.193	616.25
561.961	590.25
562.729	545.25
563.496	524.25
564.264	487.25
565.032	453.25
565.799	437.25
566.567	403.25
567.334	396.25
568.101	366.25
568.869	343.25
569.636	331.25
570.403	309.25
571.17	290.25
571.937	273.25
572.704	264.25
573.471	242.25
574.237	227.25
575.004	215.25
575.771	202.25
576.537	191.25
577.303	180.25
578.07	163.25
578.836	166.25
579.602	149.25
580.368	143.25
581.134	135.25
581.9	132.25
582.666	125.25
583.432	115.25
584.198	109.25
584.964	99.25
585.729	100.25
586.495	92.25
587.26	89.25
588.025	79.25
588.791	75.25
589.556	74.25
590.321	70.25
591.086	66.25
591.851	65.25
592.616	58.25
593.381	54.25
594.146	52.25
594.911	53.25
595.675	50.25
596.44	47.25
597.204	44.25
597.969	44.25
598.733	44.25
599.497	36.25
600.261	38.25
601.025	33.25
601.79	31.25
602.553	33.25
603.317	30.25
604.081	29.25
604.845	27.25
605.609	29.25
606.372	23.25
607.136	26.25
607.899	21.25
608.662	22.25
609.426	21.25
610.189	20.25
610.952	21.25
611.715	19.25
612.478	16.25
613.241	18.25
614.004	15.25
614.767	19.25
615.529	17.25
616.292	16.25
617.055	13.25
617.817	14.25
618.579	11.25
619.342	14.25
620.104	10.25
620.866	9.25
621.628	11.25
622.39	9.25
623.152	9.25
623.914	10.25
624.676	9.25
625.438	10.25
626.199	9.25
626.961	9.25
627.722	11.25
628.484	8.25
629.245	9.25
630.006	7.25
630.768	7.25
631.529	7.25
632.29	8.25
633.051	6.25
633.812	6.25
634.573	7.25
635.333	8.25
636.094	7.25
636.855	7.25
637.615	6.25
638.376	6.25
639.136	4.25
639.896	4.25
640.657	4.25
641.417	9.25
642.177	6.25
642.937	6.25
643.697	4.25
644.457	3.25
645.216	6.25
645.976	4.25
646.736	3.25
647.495	3.25
648.255	4.25
649.014	5.25
649.774	5.25
650.533	2.25
651.292	5.25
652.051	5.25
652.81	4.25
653.569	3.25
654.328	3.25
655.087	3.25
655.846	4.25
656.604	2.25
657.363	4.25
658.121	3.25
658.88	3.25
659.638	2.25
660.397	2.25
661.155	2.25
661.913	1.25
662.671	4.25
663.429	4.25
664.187	5.25
664.945	2.25
665.703	2.25
666.46	2.25
667.218	1.25
667.976	3.25
668.733	3.25
669.49	3.25
670.248	3.25
671.005	2.25
671.762	2.25
672.519	1.25
673.276	6.25
674.033	2.25
674.79	2.25
675.547	1.25
676.304	2.25
677.06	3.25
677.817	1.25
678.574	2.25
679.33	3.25
680.086	4.25
680.843	3.25
681.599	4.25
682.355	2.25
683.111	-0.75
683.867	4.25
684.623	2.25
685.379	0.25
686.135	4.25
686.89	0.25
687.646	3.25
688.402	2.25
689.157	3.25
689.912	2.25
690.668	1.25
691.423	2.25
692.178	0.25
692.933	2.25
693.688	3.25
694.443	1.25
695.198	1.25
695.953	2.25
696.708	3.25
697.462	2.25
698.217	5.25
698.972	1.25
699.726	2.25
700.48	1.25
701.235	3.25
701.989	2.25
702.743	-0.75
703.497	1.25
704.251	1.25
705.005	3.25
705.759	2.25
706.513	-0.75
707.266	2.25
708.02	1.25
708.774	3.25
709.527	1.25
710.28	2.25
711.034	2.25
711.787	3.25
712.54	0.25
713.293	2.25
714.046	2.25
714.799	0.25
715.552	1.25
716.305	2.25
717.058	1.25
717.81	1.25
718.563	2.25
719.315	3.25
720.068	2.25
720.82	2.25
721.573	0.25
722.325	2.25
723.077	2.25
723.829	3.25
724.581	2.25
725.333	2.25
726.085	1.25
726.836	0.25
727.588	1.25
728.34	1.25
729.091	2.25
729.843	2.25
730.594	3.25
731.346	3.25
732.097	1.25
732.848	4.25
733.599	3.25
734.35	2.25
735.101	3.25
735.852	3.25
736.603	2.25
737.354	1.25
738.104	1.25
738.855	4.25
739.605	3.25
740.356	2.25
741.106	2.25
741.856	2.25
742.607	1.25
743.357	2.25
744.107	3.25
744.857	3.25
745.607	2.25
746.357	0.25
747.106	1.25
747.856	2.25
748.606	3.25
749.355	3.25
750.105	-0.75
750.854	2.25
751.603	2.25
752.353	2.25
753.102	4.25
753.851	3.25
754.6	5.25
755.349	1.25
756.098	2.25
756.847	3.25
757.595	1.25
758.344	2.25
759.093	2.25
759.841	3.25
760.589	5.25
761.338	5.25
762.086	2.25
762.834	2.25
763.582	3.25
764.331	2.25
765.079	3.25
765.826	4.25
766.574	5.25
767.322	6.25
768.07	3.25
768.817	5.25
769.565	3.25
770.312	4.25
771.06	4.25
771.807	3.25
772.554	5.25
773.302	4.25
774.049	6.25
774.796	4.25
775.543	2.25
776.29	4.25
777.036	6.25
777.783	3.25
778.53	5.25
779.276	7.25
780.023	6.25
780.769	6.25
781.516	4.25
782.262	4.25
783.008	5.25
783.754	4.25
784.5	7.25
785.246	1.25
785.992	6.25
786.738	7.25
787.484	3.25
788.23	6.25
788.975	6.25
789.721	7.25
790.466	5.25
791.212	3.25
791.957	5.25
792.702	5.25
793.447	6.25
794.193	6.25
794.938	5.25
795.683	3.25
796.427	6.25
797.172	4.25
797.917	4.25
798.662	7.25
799.406	3.25
800.151	4.25
800.895	4.25
801.64	5.25
802.384	4.25
803.128	2.25
803.872	4.25
804.616	4.25
805.36	4.25
806.104	4.25
806.848	3.25
807.592	5.25
808.336	4.25
809.079	3.25
809.823	3.25
810.566	4.25
811.31	3.25
812.053	1.25
812.796	4.25
813.539	3.25
814.283	5.25
815.026	3.25
815.769	2.25
816.511	4.25
817.254	5.25
817.997	2.25
818.74	3.25
819.482	4.25
820.225	4.25
820.967	3.25
821.71	5.25
822.452	3.25
823.194	3.25
823.936	4.25
824.678	2.25
825.42	1.25
826.162	2.25
826.904	0.25
827.646	1.25
828.388	2.25
829.129	2.25
829.871	3.25
830.612	1.25
831.354	3.25
832.095	2.25
832.836	1.25
833.577	1.25
834.319	3.25
835.06	6.25
835.801	2.25
836.542	2.25
837.282	2.25
838.023	1.25
838.764	1.25
839.504	0.25
840.245	2.25
840.985	1.25
841.726	1.25
842.466	2.25
843.206	2.25
843.946	2.25
844.687	3.25
845.427	2.25
846.166	1.25
846.906	2.25
847.646	1.25
848.386	2.25
849.125	3.25
849.865	1.25
850.605	3.25
851.344	3.25
852.083	0.25
852.823	2.25
853.562	1.25
854.301	0.25
855.04	3.25
855.779	3.25
856.518	2.25
857.257	3.25
857.995	0.25
858.734	0.25
859.473	2.25
860.211	0.25
860.95	3.25
861.688	3.25
862.426	2.25
863.165	3.25
863.903	2.25
864.641	1.25
865.379	1.25
866.117	4.25
866.855	1.25
867.593	-0.75
868.33	1.25
869.068	3.25
869.806	0.25
870.543	3.25
871.28	3.25
872.018	3.25
872.755	0.25
873.492	0.25
874.229	1.25
874.967	2.25
875.703	0.25
876.44	1.25
877.177	1.25
877.914	1.25
878.651	1.25
879.387	1.25
880.124	2.25
880.86	1.25
881.597	1.25
882.333	-0.75
883.069	2.25
883.806	1.25
884.542	1.25
885.278	1.25
886.014	1.25
886.749	0.25
887.485	0.25
888.221	-1.75
888.957	1.25
889.692	2.25
890.428	0.25
891.163	0.25
891.899	-0.75
892.634	-0.75
893.369	0.25
894.104	1.25
894.839	-0.75
895.574	0.25
896.309	0.25
897.044	1.25
897.779	1.25
898.514	1.25
899.248	1.25
899.983	-0.75
900.717	1.25
901.452	1.25
902.186	1.25
902.92	0.25
903.654	1.25
904.389	2.25
905.123	-1.75
905.857	-0.75
906.59	0.25
907.324	-0.75
908.058	0.25
908.792	0.25
909.525	0.25
910.259	1.25
910.992	1.25
911.726	-0.75
912.459	0.25
913.192	1.25
913.925	-0.75
914.658	0.25
915.391	-2.75
916.124	-0.75
916.857	1.25
917.59	-1.75
918.323	-0.75
919.055	-1.75
919.788	0.25
920.521	0.25
921.253	1.25
921.985	1.25
922.718	0.25
923.45	0.25
924.182	0.25
924.914	-0.75
925.646	1.25
926.378	2.25
927.11	0.25
927.841	0.25
928.573	0.25
929.305	1.25
930.036	1.25
930.768	-0.75
931.499	2.25
932.23	2.25
932.962	0.25
933.693	1.25
934.424	0.25
935.155	0.25
935.886	0.25
936.617	1.25
937.348	-0.75
938.078	2.25
938.809	1.25
939.54	-0.75
940.27	-0.75
941.001	-2.75
941.731	1.25
942.461	0.25
943.191	1.25
943.922	1.25
944.652	0.25
945.382	0.25
946.112	1.25
946.841	1.25
947.571	0.25
948.301	1.25
949.031	1.25
949.76	1.25
950.49	1.25
951.219	0.25
951.948	0.25
952.678	2.25
953.407	1.25
954.136	1.25
954.865	0.25
955.594	1.25
956.323	1.25
957.052	0.25
957.78	1.25
958.509	-0.75
959.238	0.25
959.966	-0.75
960.695	2.25
961.423	-1.75
962.151	-0.75
962.88	3.25
963.608	-0.75
964.336	1.25
965.064	1.25
965.792	-0.75
966.52	1.25
967.247	0.25
967.975	1.25
968.703	1.25
969.43	0.25
970.158	1.25
970.885	-1.75
971.613	1.25
972.34	0.25
973.067	1.25
973.794	1.25
974.521	0.25
975.248	-0.75
975.975	0.25
976.702	0.25
977.429	0.25
978.156	2.25
978.882	-1.75
979.609	-1.75
980.335	2.25
981.062	4.25
981.788	-0.75
982.514	0.25
983.24	-1.75
983.967	0.25
984.693	0.25
985.419	0.25
986.144	0.25
986.87	0.25
987.596	-0.75
988.322	-0.75
989.047	0.25
989.773	0.25
990.498	-0.75
991.224	-0.75
991.949	1.25
992.674	1.25
993.399	2.25
994.124	-2.75
994.849	1.25
995.574	0.25
996.299	1.25
997.024	-0.75
997.749	0.25
998.473	1.25
999.198	1.25
999.922	1.25
1000.647	1.25
1001.371	2.25
1002.095	1.25
1002.82	-0.75
1003.544	-0.75
1004.268	-1.75
1004.992	-0.75
1005.716	0.25
1006.439	-1.75
1007.163	-0.75
1007.887	-0.75
1008.611	-0.75
1009.334	1.25
1010.058	0.25
1010.781	1.25
1011.504	1.25
1012.228	0.25
1012.951	0.25
1013.674	0.25
1014.397	-2.75
1015.12	0.25
