节点500_145_QEPB04081__244__11-32-52-467.txt的数据

Date: Wed Nov 12 11:32:52 CST 2025
User: PC
Spectrometer: QEPB0408
触发模式: 0
积分时间 (秒): 1.000000E-2
Scans to average: 1
启用暗噪声校正: true
启用非线性校正: false
滑动平均宽度: 0
X轴模式: Wavelengths
Number of Pixels in Spectrum: 1044
>>>>>Begin Spectral Data<<<<<
220.843	-1.88
221.644	0.12
222.444	-0.88
223.244	1.12
224.045	1.12
224.845	-0.88
225.645	0.12
226.445	-1.88
227.245	0.12
228.045	1.12
228.845	2.12
229.645	0.12
230.444	1.12
231.244	2.12
232.043	-1.88
232.843	1.12
233.642	2.12
234.442	0.12
235.241	2.12
236.04	0.12
236.839	1.12
237.638	-1.88
238.437	2.12
239.236	1.12
240.035	1.12
240.833	-0.88
241.632	2.12
242.43	3.12
243.229	-0.88
244.027	5.12
244.826	2.12
245.624	4.12
246.422	2.12
247.22	2.12
248.018	-0.88
248.816	2.12
249.614	0.12
250.412	2.12
251.21	2.12
252.007	3.12
252.805	2.12
253.602	4.12
254.4	2.12
255.197	1.12
255.994	4.12
256.791	3.12
257.589	3.12
258.386	4.12
259.183	4.12
259.979	2.12
260.776	4.12
261.573	5.12
262.37	4.12
263.166	5.12
263.963	3.12
264.759	7.12
265.556	7.12
266.352	8.12
267.148	5.12
267.944	6.12
268.74	5.12
269.536	7.12
270.332	6.12
271.128	7.12
271.924	6.12
272.719	9.12
273.515	9.12
274.311	10.12
275.106	8.12
275.901	11.12
276.697	8.12
277.492	8.12
278.287	8.12
279.082	9.12
279.877	11.12
280.672	12.12
281.467	8.12
282.262	11.12
283.056	6.12
283.851	11.12
284.646	11.12
285.44	10.12
286.234	11.12
287.029	10.12
287.823	10.12
288.617	11.12
289.411	12.12
290.205	11.12
290.999	12.12
291.793	11.12
292.587	9.12
293.381	10.12
294.174	11.12
294.968	8.12
295.761	12.12
296.555	9.12
297.348	10.12
298.141	9.12
298.935	12.12
299.728	13.12
300.521	9.12
301.314	9.12
302.107	10.12
302.899	7.12
303.692	7.12
304.485	8.12
305.277	7.12
306.07	9.12
306.862	7.12
307.655	7.12
308.447	7.12
309.239	7.12
310.031	9.12
310.823	8.12
311.615	8.12
312.407	7.12
313.199	5.12
313.991	8.12
314.783	5.12
315.574	6.12
316.366	3.12
317.157	4.12
317.949	4.12
318.74	7.12
319.531	4.12
320.322	3.12
321.113	7.12
321.904	4.12
322.695	4.12
323.486	3.12
324.277	3.12
325.068	4.12
325.858	1.12
326.649	7.12
327.439	5.12
328.23	3.12
329.02	2.12
329.81	3.12
330.6	4.12
331.391	5.12
332.181	6.12
332.971	2.12
333.76	5.12
334.55	3.12
335.34	5.12
336.13	4.12
336.919	5.12
337.709	1.12
338.498	1.12
339.287	4.12
340.077	4.12
340.866	3.12
341.655	2.12
342.444	3.12
343.233	5.12
344.022	3.12
344.811	2.12
345.6	4.12
346.388	3.12
347.177	3.12
347.965	4.12
348.754	3.12
349.542	4.12
350.33	3.12
351.119	3.12
351.907	3.12
352.695	5.12
353.483	2.12
354.271	5.12
355.059	3.12
355.846	4.12
356.634	2.12
357.422	4.12
358.209	3.12
358.997	3.12
359.784	2.12
360.571	4.12
361.359	3.12
362.146	4.12
362.933	4.12
363.72	3.12
364.507	3.12
365.294	4.12
366.081	2.12
366.867	2.12
367.654	3.12
368.44	4.12
369.227	1.12
370.013	2.12
370.8	2.12
371.586	1.12
372.372	4.12
373.158	4.12
373.944	3.12
374.73	4.12
375.516	0.12
376.302	4.12
377.088	3.12
377.873	1.12
378.659	3.12
379.445	1.12
380.23	3.12
381.015	3.12
381.801	2.12
382.586	3.12
383.371	2.12
384.156	4.12
384.941	2.12
385.726	4.12
386.511	2.12
387.296	3.12
388.08	2.12
388.865	3.12
389.649	0.12
390.434	5.12
391.218	3.12
392.003	4.12
392.787	1.12
393.571	3.12
394.355	4.12
395.139	3.12
395.923	4.12
396.707	3.12
397.491	2.12
398.274	5.12
399.058	4.12
399.842	4.12
400.625	4.12
401.408	5.12
402.192	5.12
402.975	2.12
403.758	3.12
404.541	3.12
405.324	5.12
406.107	4.12
406.89	5.12
407.673	4.12
408.456	2.12
409.238	4.12
410.021	3.12
410.803	5.12
411.586	5.12
412.368	5.12
413.151	5.12
413.933	4.12
414.715	7.12
415.497	5.12
416.279	5.12
417.061	4.12
417.843	5.12
418.624	4.12
419.406	6.12
420.188	7.12
420.969	5.12
421.751	6.12
422.532	5.12
423.313	6.12
424.095	6.12
424.876	5.12
425.657	7.12
426.438	8.12
427.219	7.12
428	7.12
428.78	7.12
429.561	9.12
430.342	6.12
431.122	8.12
431.903	5.12
432.683	8.12
433.464	9.12
434.244	8.12
435.024	8.12
435.804	8.12
436.584	9.12
437.364	9.12
438.144	10.12
438.924	11.12
439.704	11.12
440.483	13.12
441.263	12.12
442.042	13.12
442.822	14.12
443.601	14.12
444.38	16.12
445.16	15.12
445.939	16.12
446.718	17.12
447.497	19.12
448.276	20.12
449.054	22.12
449.833	20.12
450.612	23.12
451.391	27.12
452.169	29.12
452.948	34.12
453.726	35.12
454.504	34.12
455.282	39.12
456.061	43.12
456.839	47.12
457.617	55.12
458.395	59.12
459.172	67.12
459.95	70.12
460.728	81.12
461.506	90.12
462.283	99.12
463.061	106.12
463.838	125.12
464.615	131.12
465.393	150.12
466.17	169.12
466.947	195.12
467.724	206.12
468.501	230.12
469.278	261.12
470.055	298.12
470.831	321.12
471.608	357.12
472.385	407.12
473.161	459.12
473.938	499.12
474.714	552.12
475.49	615.12
476.266	686.12
477.043	762.12
477.819	837.12
478.595	943.12
479.371	1030.12
480.146	1154.12
480.922	1273.12
481.698	1398.12
482.473	1547.12
483.249	1711.12
484.024	1880.12
484.8	2080.12
485.575	2295.12
486.35	2532.12
487.126	2785.12
487.901	3072.12
488.676	3391.12
489.451	3711.12
490.225	4110.12
491	4520.12
491.775	4959.12
492.55	5475.12
493.324	5995.12
494.099	6557.12
494.873	7155.12
495.647	7823.12
496.422	8475.12
497.196	9200.12
497.97	9926.12
498.744	10688.12
499.518	11453.12
500.292	12155.12
501.066	12944.12
501.839	13647.12
502.613	14306.12
503.387	14922.12
504.16	15528.12
504.934	15958.12
505.707	16259.12
506.48	16493.12
507.253	16709.12
508.027	16727.12
508.8	16591.12
509.573	16406.12
510.346	16204.12
511.118	15762.12
511.891	15411.12
512.664	14844.12
513.437	14361.12
514.209	13809.12
514.982	13242.12
515.754	12672.12
516.526	12137.12
517.298	11575.12
518.071	11081.12
518.843	10569.12
519.615	10121.12
520.387	9707.12
521.159	9334.12
521.93	8958.12
522.702	8562.12
523.474	8241.12
524.245	7921.12
525.017	7634.12
525.788	7320.12
526.56	6984.12
527.331	6701.12
528.102	6394.12
528.873	6122.12
529.644	5880.12
530.415	5620.12
531.186	5313.12
531.957	5041.12
532.728	4769.12
533.498	4535.12
534.269	4275.12
535.039	4046.12
535.81	3799.12
536.58	3598.12
537.351	3387.12
538.121	3198.12
538.891	3042.12
539.661	2850.12
540.431	2714.12
541.201	2576.12
541.971	2446.12
542.741	2306.12
543.51	2181.12
544.28	2066.12
545.05	1989.12
545.819	1877.12
546.588	1787.12
547.358	1687.12
548.127	1619.12
548.896	1517.12
549.665	1461.12
550.434	1372.12
551.203	1310.12
551.972	1246.12
552.741	1180.12
553.51	1128.12
554.278	1051.12
555.047	982.12
555.815	931.12
556.584	879.12
557.352	837.12
558.121	790.12
558.889	740.12
559.657	702.12
560.425	654.12
561.193	619.12
561.961	578.12
562.729	552.12
563.496	519.12
564.264	486.12
565.032	465.12
565.799	423.12
566.567	408.12
567.334	385.12
568.101	377.12
568.869	345.12
569.636	322.12
570.403	309.12
571.17	293.12
571.937	275.12
572.704	259.12
573.471	245.12
574.237	228.12
575.004	210.12
575.771	208.12
576.537	196.12
577.303	180.12
578.07	167.12
578.836	161.12
579.602	148.12
580.368	143.12
581.134	139.12
581.9	133.12
582.666	120.12
583.432	114.12
584.198	106.12
584.964	105.12
585.729	99.12
586.495	93.12
587.26	85.12
588.025	82.12
588.791	77.12
589.556	72.12
590.321	66.12
591.086	66.12
591.851	62.12
592.616	60.12
593.381	57.12
594.146	53.12
594.911	54.12
595.675	48.12
596.44	43.12
597.204	42.12
597.969	43.12
598.733	41.12
599.497	40.12
600.261	37.12
601.025	31.12
601.79	34.12
602.553	32.12
603.317	29.12
604.081	28.12
604.845	27.12
605.609	27.12
606.372	23.12
607.136	24.12
607.899	26.12
608.662	23.12
609.426	21.12
610.189	22.12
610.952	20.12
611.715	21.12
612.478	18.12
613.241	15.12
614.004	16.12
614.767	15.12
615.529	14.12
616.292	15.12
617.055	13.12
617.817	13.12
618.579	15.12
619.342	14.12
620.104	13.12
620.866	11.12
621.628	12.12
622.39	10.12
623.152	13.12
623.914	13.12
624.676	10.12
625.438	10.12
626.199	10.12
626.961	9.12
627.722	9.12
628.484	7.12
629.245	8.12
630.006	8.12
630.768	10.12
631.529	9.12
632.29	8.12
633.051	8.12
633.812	9.12
634.573	8.12
635.333	4.12
636.094	8.12
636.855	6.12
637.615	7.12
638.376	4.12
639.136	5.12
639.896	7.12
640.657	5.12
641.417	7.12
642.177	4.12
642.937	5.12
643.697	6.12
644.457	5.12
645.216	5.12
645.976	5.12
646.736	6.12
647.495	4.12
648.255	3.12
649.014	5.12
649.774	3.12
650.533	5.12
651.292	3.12
652.051	2.12
652.81	3.12
653.569	5.12
654.328	4.12
655.087	3.12
655.846	2.12
656.604	3.12
657.363	5.12
658.121	6.12
658.88	3.12
659.638	2.12
660.397	3.12
661.155	4.12
661.913	4.12
662.671	3.12
663.429	1.12
664.187	5.12
664.945	4.12
665.703	3.12
666.46	2.12
667.218	3.12
667.976	1.12
668.733	2.12
669.49	2.12
670.248	3.12
671.005	5.12
671.762	5.12
672.519	4.12
673.276	3.12
674.033	0.12
674.79	2.12
675.547	4.12
676.304	2.12
677.06	2.12
677.817	3.12
678.574	1.12
679.33	3.12
680.086	1.12
680.843	0.12
681.599	4.12
682.355	2.12
683.111	2.12
683.867	2.12
684.623	1.12
685.379	4.12
686.135	2.12
686.89	4.12
687.646	1.12
688.402	0.12
689.157	2.12
689.912	1.12
690.668	3.12
691.423	3.12
692.178	1.12
692.933	2.12
693.688	2.12
694.443	3.12
695.198	1.12
695.953	5.12
696.708	2.12
697.462	1.12
698.217	2.12
698.972	1.12
699.726	1.12
700.48	3.12
701.235	1.12
701.989	4.12
702.743	-1.88
703.497	3.12
704.251	1.12
705.005	2.12
705.759	4.12
706.513	4.12
707.266	2.12
708.02	2.12
708.774	2.12
709.527	3.12
710.28	6.12
711.034	2.12
711.787	3.12
712.54	1.12
713.293	0.12
714.046	3.12
714.799	1.12
715.552	1.12
716.305	2.12
717.058	0.12
717.81	3.12
718.563	2.12
719.315	2.12
720.068	4.12
720.82	4.12
721.573	2.12
722.325	1.12
723.077	2.12
723.829	1.12
724.581	2.12
725.333	2.12
726.085	1.12
726.836	4.12
727.588	2.12
728.34	2.12
729.091	2.12
729.843	2.12
730.594	3.12
731.346	0.12
732.097	2.12
732.848	3.12
733.599	3.12
734.35	-0.88
735.101	3.12
735.852	0.12
736.603	0.12
737.354	2.12
738.104	1.12
738.855	2.12
739.605	3.12
740.356	-0.88
741.106	4.12
741.856	1.12
742.607	3.12
743.357	2.12
744.107	3.12
744.857	4.12
745.607	2.12
746.357	2.12
747.106	2.12
747.856	2.12
748.606	2.12
749.355	3.12
750.105	3.12
750.854	4.12
751.603	2.12
752.353	2.12
753.102	4.12
753.851	3.12
754.6	5.12
755.349	3.12
756.098	3.12
756.847	1.12
757.595	6.12
758.344	3.12
759.093	3.12
759.841	3.12
760.589	4.12
761.338	1.12
762.086	4.12
762.834	2.12
763.582	4.12
764.331	1.12
765.079	3.12
765.826	5.12
766.574	4.12
767.322	6.12
768.07	4.12
768.817	4.12
769.565	3.12
770.312	3.12
771.06	4.12
771.807	4.12
772.554	5.12
773.302	4.12
774.049	4.12
774.796	3.12
775.543	4.12
776.29	5.12
777.036	4.12
777.783	5.12
778.53	5.12
779.276	6.12
780.023	6.12
780.769	6.12
781.516	5.12
782.262	4.12
783.008	5.12
783.754	3.12
784.5	6.12
785.246	5.12
785.992	6.12
786.738	5.12
787.484	6.12
788.23	5.12
788.975	4.12
789.721	5.12
790.466	6.12
791.212	5.12
791.957	6.12
792.702	5.12
793.447	7.12
794.193	4.12
794.938	5.12
795.683	7.12
796.427	4.12
797.172	5.12
797.917	2.12
798.662	3.12
799.406	2.12
800.151	4.12
800.895	4.12
801.64	4.12
802.384	5.12
803.128	3.12
803.872	5.12
804.616	2.12
805.36	5.12
806.104	5.12
806.848	4.12
807.592	3.12
808.336	5.12
809.079	2.12
809.823	3.12
810.566	4.12
811.31	3.12
812.053	4.12
812.796	4.12
813.539	2.12
814.283	3.12
815.026	5.12
815.769	6.12
816.511	4.12
817.254	3.12
817.997	4.12
818.74	3.12
819.482	6.12
820.225	2.12
820.967	3.12
821.71	2.12
822.452	3.12
823.194	4.12
823.936	2.12
824.678	4.12
825.42	0.12
826.162	0.12
826.904	1.12
827.646	2.12
828.388	1.12
829.129	2.12
829.871	2.12
830.612	1.12
831.354	3.12
832.095	3.12
832.836	3.12
833.577	3.12
834.319	0.12
835.06	3.12
835.801	3.12
836.542	4.12
837.282	4.12
838.023	2.12
838.764	2.12
839.504	1.12
840.245	3.12
840.985	3.12
841.726	1.12
842.466	1.12
843.206	1.12
843.946	3.12
844.687	2.12
845.427	2.12
846.166	2.12
846.906	1.12
847.646	3.12
848.386	3.12
849.125	1.12
849.865	2.12
850.605	1.12
851.344	0.12
852.083	0.12
852.823	2.12
853.562	2.12
854.301	1.12
855.04	1.12
855.779	2.12
856.518	-0.88
857.257	1.12
857.995	2.12
858.734	0.12
859.473	5.12
860.211	1.12
860.95	1.12
861.688	3.12
862.426	1.12
863.165	2.12
863.903	0.12
864.641	2.12
865.379	0.12
866.117	1.12
866.855	0.12
867.593	2.12
868.33	2.12
869.068	1.12
869.806	-1.88
870.543	0.12
871.28	-0.88
872.018	0.12
872.755	0.12
873.492	-0.88
874.229	-1.88
874.967	2.12
875.703	3.12
876.44	1.12
877.177	1.12
877.914	0.12
878.651	1.12
879.387	1.12
880.124	1.12
880.86	1.12
881.597	2.12
882.333	4.12
883.069	0.12
883.806	-1.88
884.542	1.12
885.278	0.12
886.014	2.12
886.749	0.12
887.485	2.12
888.221	-0.88
888.957	3.12
889.692	0.12
890.428	0.12
891.163	1.12
891.899	1.12
892.634	0.12
893.369	3.12
894.104	1.12
894.839	0.12
895.574	1.12
896.309	-0.88
897.044	0.12
897.779	1.12
898.514	3.12
899.248	2.12
899.983	1.12
900.717	0.12
901.452	1.12
902.186	0.12
902.92	-0.88
903.654	0.12
904.389	1.12
905.123	0.12
905.857	0.12
906.59	-1.88
907.324	0.12
908.058	0.12
908.792	1.12
909.525	1.12
910.259	0.12
910.992	0.12
911.726	0.12
912.459	1.12
913.192	-1.88
913.925	0.12
914.658	1.12
915.391	2.12
916.124	-0.88
916.857	1.12
917.59	1.12
918.323	-2.88
919.055	-0.88
919.788	-0.88
920.521	1.12
921.253	0.12
921.985	1.12
922.718	-2.88
923.45	0.12
924.182	-1.88
924.914	0.12
925.646	1.12
926.378	0.12
927.11	-1.88
927.841	0.12
928.573	1.12
929.305	1.12
930.036	1.12
930.768	2.12
931.499	0.12
932.23	3.12
932.962	-0.88
933.693	0.12
934.424	2.12
935.155	1.12
935.886	0.12
936.617	-1.88
937.348	-0.88
938.078	-1.88
938.809	0.12
939.54	1.12
940.27	0.12
941.001	1.12
941.731	0.12
942.461	0.12
943.191	1.12
943.922	2.12
944.652	1.12
945.382	0.12
946.112	-0.88
946.841	1.12
947.571	2.12
948.301	-0.88
949.031	-2.88
949.76	1.12
950.49	-0.88
951.219	0.12
951.948	-0.88
952.678	2.12
953.407	2.12
954.136	0.12
954.865	0.12
955.594	1.12
956.323	-1.88
957.052	1.12
957.78	-1.88
958.509	-1.88
959.238	0.12
959.966	-0.88
960.695	0.12
961.423	-0.88
962.151	-0.88
962.88	0.12
963.608	-1.88
964.336	-1.88
965.064	-0.88
965.792	0.12
966.52	0.12
967.247	1.12
967.975	0.12
968.703	1.12
969.43	2.12
970.158	-1.88
970.885	-1.88
971.613	0.12
972.34	-1.88
973.067	2.12
973.794	-2.88
974.521	0.12
975.248	0.12
975.975	1.12
976.702	1.12
977.429	2.12
978.156	-0.88
978.882	0.12
979.609	0.12
980.335	1.12
981.062	2.12
981.788	0.12
982.514	-1.88
983.24	-0.88
983.967	0.12
984.693	0.12
985.419	-0.88
986.144	3.12
986.87	-0.88
987.596	1.12
988.322	0.12
989.047	0.12
989.773	1.12
990.498	-0.88
991.224	2.12
991.949	0.12
992.674	-1.88
993.399	-1.88
994.124	-0.88
994.849	0.12
995.574	0.12
996.299	0.12
997.024	0.12
997.749	1.12
998.473	0.12
999.198	-0.88
999.922	0.12
1000.647	-1.88
1001.371	4.12
1002.095	-0.88
1002.82	1.12
1003.544	-2.88
1004.268	0.12
1004.992	-1.88
1005.716	-0.88
1006.439	0.12
1007.163	-0.88
1007.887	1.12
1008.611	-0.88
1009.334	1.12
1010.058	0.12
1010.781	0.12
1011.504	1.12
1012.228	0.12
1012.951	1.12
1013.674	-1.88
1014.397	0.12
1015.12	-0.88
