节点500_145_QEPB04081__475__11-36-31-543.txt的数据

Date: Wed Nov 12 11:36:31 CST 2025
User: PC
Spectrometer: QEPB0408
触发模式: 0
积分时间 (秒): 1.000000E-2
Scans to average: 1
启用暗噪声校正: true
启用非线性校正: false
滑动平均宽度: 0
X轴模式: Wavelengths
Number of Pixels in Spectrum: 1044
>>>>>Begin Spectral Data<<<<<
220.843	1.12
221.644	-1.88
222.444	-0.88
223.244	0.12
224.045	0.12
224.845	2.12
225.645	-0.88
226.445	-1.88
227.245	-1.88
228.045	1.12
228.845	2.12
229.645	0.12
230.444	-0.88
231.244	-1.88
232.043	0.12
232.843	1.12
233.642	1.12
234.442	3.12
235.241	0.12
236.04	3.12
236.839	1.12
237.638	-0.88
238.437	2.12
239.236	1.12
240.035	0.12
240.833	2.12
241.632	3.12
242.43	2.12
243.229	-0.88
244.027	2.12
244.826	0.12
245.624	-2.88
246.422	0.12
247.22	3.12
248.018	2.12
248.816	3.12
249.614	4.12
250.412	1.12
251.21	1.12
252.007	4.12
252.805	2.12
253.602	1.12
254.4	1.12
255.197	3.12
255.994	1.12
256.791	2.12
257.589	3.12
258.386	2.12
259.183	3.12
259.979	4.12
260.776	4.12
261.573	2.12
262.37	5.12
263.166	4.12
263.963	5.12
264.759	4.12
265.556	4.12
266.352	5.12
267.148	5.12
267.944	9.12
268.74	8.12
269.536	6.12
270.332	7.12
271.128	6.12
271.924	8.12
272.719	9.12
273.515	8.12
274.311	8.12
275.106	7.12
275.901	10.12
276.697	8.12
277.492	10.12
278.287	10.12
279.082	9.12
279.877	9.12
280.672	9.12
281.467	8.12
282.262	7.12
283.056	11.12
283.851	9.12
284.646	10.12
285.44	9.12
286.234	9.12
287.029	11.12
287.823	11.12
288.617	10.12
289.411	6.12
290.205	10.12
290.999	11.12
291.793	9.12
292.587	10.12
293.381	9.12
294.174	10.12
294.968	5.12
295.761	10.12
296.555	8.12
297.348	9.12
298.141	10.12
298.935	9.12
299.728	6.12
300.521	6.12
301.314	9.12
302.107	7.12
302.899	8.12
303.692	7.12
304.485	8.12
305.277	11.12
306.07	7.12
306.862	8.12
307.655	6.12
308.447	6.12
309.239	8.12
310.031	8.12
310.823	7.12
311.615	6.12
312.407	4.12
313.199	7.12
313.991	5.12
314.783	5.12
315.574	6.12
316.366	7.12
317.157	6.12
317.949	3.12
318.74	7.12
319.531	4.12
320.322	6.12
321.113	3.12
321.904	6.12
322.695	5.12
323.486	4.12
324.277	3.12
325.068	3.12
325.858	2.12
326.649	2.12
327.439	6.12
328.23	2.12
329.02	3.12
329.81	5.12
330.6	2.12
331.391	4.12
332.181	4.12
332.971	5.12
333.76	4.12
334.55	2.12
335.34	7.12
336.13	3.12
336.919	4.12
337.709	2.12
338.498	2.12
339.287	5.12
340.077	2.12
340.866	4.12
341.655	2.12
342.444	5.12
343.233	3.12
344.022	4.12
344.811	3.12
345.6	2.12
346.388	3.12
347.177	2.12
347.965	2.12
348.754	5.12
349.542	4.12
350.33	0.12
351.119	3.12
351.907	5.12
352.695	4.12
353.483	5.12
354.271	3.12
355.059	0.12
355.846	4.12
356.634	3.12
357.422	4.12
358.209	1.12
358.997	5.12
359.784	3.12
360.571	1.12
361.359	2.12
362.146	3.12
362.933	5.12
363.72	1.12
364.507	4.12
365.294	2.12
366.081	0.12
366.867	2.12
367.654	2.12
368.44	1.12
369.227	3.12
370.013	3.12
370.8	1.12
371.586	4.12
372.372	2.12
373.158	3.12
373.944	3.12
374.73	3.12
375.516	3.12
376.302	1.12
377.088	3.12
377.873	3.12
378.659	2.12
379.445	4.12
380.23	5.12
381.015	3.12
381.801	3.12
382.586	2.12
383.371	3.12
384.156	3.12
384.941	2.12
385.726	1.12
386.511	2.12
387.296	4.12
388.08	0.12
388.865	2.12
389.649	3.12
390.434	2.12
391.218	3.12
392.003	3.12
392.787	1.12
393.571	3.12
394.355	3.12
395.139	3.12
395.923	4.12
396.707	1.12
397.491	5.12
398.274	3.12
399.058	3.12
399.842	5.12
400.625	6.12
401.408	2.12
402.192	1.12
402.975	7.12
403.758	3.12
404.541	1.12
405.324	4.12
406.107	3.12
406.89	3.12
407.673	4.12
408.456	2.12
409.238	3.12
410.021	5.12
410.803	5.12
411.586	4.12
412.368	5.12
413.151	2.12
413.933	4.12
414.715	5.12
415.497	3.12
416.279	5.12
417.061	2.12
417.843	3.12
418.624	4.12
419.406	5.12
420.188	5.12
420.969	5.12
421.751	7.12
422.532	3.12
423.313	7.12
424.095	4.12
424.876	5.12
425.657	5.12
426.438	4.12
427.219	7.12
428	7.12
428.78	8.12
429.561	7.12
430.342	6.12
431.122	8.12
431.903	7.12
432.683	7.12
433.464	7.12
434.244	8.12
435.024	9.12
435.804	10.12
436.584	9.12
437.364	8.12
438.144	9.12
438.924	9.12
439.704	11.12
440.483	11.12
441.263	13.12
442.042	10.12
442.822	10.12
443.601	14.12
444.38	17.12
445.16	16.12
445.939	18.12
446.718	19.12
447.497	14.12
448.276	19.12
449.054	24.12
449.833	25.12
450.612	26.12
451.391	25.12
452.169	30.12
452.948	34.12
453.726	35.12
454.504	40.12
455.282	43.12
456.061	47.12
456.839	54.12
457.617	62.12
458.395	65.12
459.172	72.12
459.95	75.12
460.728	88.12
461.506	97.12
462.283	106.12
463.061	116.12
463.838	135.12
464.615	152.12
465.393	162.12
466.17	184.12
466.947	208.12
467.724	234.12
468.501	257.12
469.278	276.12
470.055	308.12
470.831	352.12
471.608	386.12
472.385	436.12
473.161	481.12
473.938	530.12
474.714	589.12
475.49	651.12
476.266	718.12
477.043	789.12
477.819	859.12
478.595	953.12
479.371	1069.12
480.146	1169.12
480.922	1281.12
481.698	1405.12
482.473	1551.12
483.249	1695.12
484.024	1868.12
484.8	2055.12
485.575	2244.12
486.35	2465.12
487.126	2693.12
487.901	2978.12
488.676	3244.12
489.451	3556.12
490.225	3901.12
491	4286.12
491.775	4683.12
492.55	5107.12
493.324	5604.12
494.099	6085.12
494.873	6627.12
495.647	7198.12
496.422	7804.12
497.196	8473.12
497.97	9099.12
498.744	9805.12
499.518	10510.12
500.292	11195.12
501.066	11881.12
501.839	12566.12
502.613	13229.12
503.387	13816.12
504.16	14345.12
504.934	14873.12
505.707	15232.12
506.48	15568.12
507.253	15749.12
508.027	15890.12
508.8	15909.12
509.573	15874.12
510.346	15678.12
511.118	15457.12
511.891	15088.12
512.664	14703.12
513.437	14273.12
514.209	13811.12
514.982	13314.12
515.754	12787.12
516.526	12257.12
517.298	11716.12
518.071	11188.12
518.843	10746.12
519.615	10295.12
520.387	9853.12
521.159	9478.12
521.93	9077.12
522.702	8714.12
523.474	8400.12
524.245	8061.12
525.017	7713.12
525.788	7427.12
526.56	7113.12
527.331	6824.12
528.102	6537.12
528.873	6297.12
529.644	5969.12
530.415	5716.12
531.186	5473.12
531.957	5198.12
532.728	4914.12
533.498	4678.12
534.269	4421.12
535.039	4203.12
535.81	3946.12
536.58	3797.12
537.351	3572.12
538.121	3351.12
538.891	3191.12
539.661	2998.12
540.431	2827.12
541.201	2678.12
541.971	2532.12
542.741	2407.12
543.51	2293.12
544.28	2162.12
545.05	2045.12
545.819	1944.12
546.588	1868.12
547.358	1763.12
548.127	1677.12
548.896	1594.12
549.665	1522.12
550.434	1431.12
551.203	1370.12
551.972	1283.12
552.741	1228.12
553.51	1163.12
554.278	1099.12
555.047	1048.12
555.815	997.12
556.584	935.12
557.352	871.12
558.121	820.12
558.889	784.12
559.657	736.12
560.425	691.12
561.193	647.12
561.961	617.12
562.729	588.12
563.496	551.12
564.264	513.12
565.032	484.12
565.799	470.12
566.567	431.12
567.334	412.12
568.101	387.12
568.869	361.12
569.636	345.12
570.403	335.12
571.17	313.12
571.937	289.12
572.704	276.12
573.471	263.12
574.237	245.12
575.004	228.12
575.771	215.12
576.537	208.12
577.303	188.12
578.07	179.12
578.836	164.12
579.602	163.12
580.368	156.12
581.134	141.12
581.9	138.12
582.666	127.12
583.432	124.12
584.198	113.12
584.964	111.12
585.729	102.12
586.495	99.12
587.26	93.12
588.025	86.12
588.791	83.12
589.556	80.12
590.321	78.12
591.086	70.12
591.851	65.12
592.616	59.12
593.381	60.12
594.146	52.12
594.911	55.12
595.675	51.12
596.44	50.12
597.204	48.12
597.969	42.12
598.733	40.12
599.497	39.12
600.261	39.12
601.025	37.12
601.79	35.12
602.553	31.12
603.317	32.12
604.081	27.12
604.845	29.12
605.609	29.12
606.372	25.12
607.136	24.12
607.899	25.12
608.662	21.12
609.426	23.12
610.189	22.12
610.952	18.12
611.715	17.12
612.478	19.12
613.241	19.12
614.004	19.12
614.767	14.12
615.529	16.12
616.292	17.12
617.055	15.12
617.817	14.12
618.579	13.12
619.342	11.12
620.104	11.12
620.866	14.12
621.628	13.12
622.39	9.12
623.152	14.12
623.914	10.12
624.676	11.12
625.438	11.12
626.199	8.12
626.961	8.12
627.722	10.12
628.484	8.12
629.245	8.12
630.006	9.12
630.768	10.12
631.529	8.12
632.29	8.12
633.051	7.12
633.812	9.12
634.573	7.12
635.333	4.12
636.094	6.12
636.855	8.12
637.615	6.12
638.376	6.12
639.136	5.12
639.896	5.12
640.657	4.12
641.417	6.12
642.177	5.12
642.937	6.12
643.697	4.12
644.457	7.12
645.216	5.12
645.976	2.12
646.736	4.12
647.495	3.12
648.255	4.12
649.014	4.12
649.774	5.12
650.533	4.12
651.292	4.12
652.051	5.12
652.81	2.12
653.569	4.12
654.328	3.12
655.087	2.12
655.846	2.12
656.604	5.12
657.363	4.12
658.121	3.12
658.88	5.12
659.638	4.12
660.397	3.12
661.155	1.12
661.913	3.12
662.671	4.12
663.429	2.12
664.187	3.12
664.945	2.12
665.703	4.12
666.46	3.12
667.218	2.12
667.976	2.12
668.733	2.12
669.49	3.12
670.248	2.12
671.005	2.12
671.762	2.12
672.519	3.12
673.276	3.12
674.033	1.12
674.79	2.12
675.547	4.12
676.304	5.12
677.06	2.12
677.817	1.12
678.574	2.12
679.33	1.12
680.086	4.12
680.843	0.12
681.599	1.12
682.355	2.12
683.111	0.12
683.867	1.12
684.623	3.12
685.379	1.12
686.135	2.12
686.89	0.12
687.646	3.12
688.402	0.12
689.157	1.12
689.912	1.12
690.668	2.12
691.423	1.12
692.178	2.12
692.933	1.12
693.688	2.12
694.443	0.12
695.198	2.12
695.953	0.12
696.708	2.12
697.462	1.12
698.217	1.12
698.972	2.12
699.726	2.12
700.48	1.12
701.235	0.12
701.989	0.12
702.743	1.12
703.497	1.12
704.251	3.12
705.005	2.12
705.759	3.12
706.513	2.12
707.266	1.12
708.02	2.12
708.774	1.12
709.527	2.12
710.28	4.12
711.034	0.12
711.787	4.12
712.54	3.12
713.293	3.12
714.046	2.12
714.799	2.12
715.552	3.12
716.305	2.12
717.058	3.12
717.81	0.12
718.563	4.12
719.315	2.12
720.068	1.12
720.82	3.12
721.573	3.12
722.325	2.12
723.077	2.12
723.829	1.12
724.581	1.12
725.333	3.12
726.085	2.12
726.836	4.12
727.588	2.12
728.34	1.12
729.091	1.12
729.843	1.12
730.594	1.12
731.346	2.12
732.097	4.12
732.848	3.12
733.599	1.12
734.35	4.12
735.101	1.12
735.852	1.12
736.603	3.12
737.354	3.12
738.104	1.12
738.855	0.12
739.605	2.12
740.356	1.12
741.106	2.12
741.856	1.12
742.607	-0.88
743.357	3.12
744.107	3.12
744.857	3.12
745.607	2.12
746.357	1.12
747.106	4.12
747.856	3.12
748.606	2.12
749.355	3.12
750.105	4.12
750.854	1.12
751.603	2.12
752.353	2.12
753.102	1.12
753.851	3.12
754.6	0.12
755.349	5.12
756.098	1.12
756.847	2.12
757.595	5.12
758.344	2.12
759.093	2.12
759.841	1.12
760.589	5.12
761.338	2.12
762.086	4.12
762.834	5.12
763.582	4.12
764.331	3.12
765.079	5.12
765.826	2.12
766.574	2.12
767.322	1.12
768.07	4.12
768.817	2.12
769.565	7.12
770.312	2.12
771.06	2.12
771.807	4.12
772.554	3.12
773.302	6.12
774.049	3.12
774.796	6.12
775.543	5.12
776.29	2.12
777.036	5.12
777.783	4.12
778.53	5.12
779.276	6.12
780.023	4.12
780.769	3.12
781.516	6.12
782.262	3.12
783.008	5.12
783.754	6.12
784.5	3.12
785.246	4.12
785.992	2.12
786.738	5.12
787.484	2.12
788.23	4.12
788.975	6.12
789.721	4.12
790.466	5.12
791.212	4.12
791.957	2.12
792.702	7.12
793.447	3.12
794.193	5.12
794.938	5.12
795.683	7.12
796.427	5.12
797.172	5.12
797.917	3.12
798.662	6.12
799.406	5.12
800.151	2.12
800.895	5.12
801.64	6.12
802.384	5.12
803.128	4.12
803.872	4.12
804.616	4.12
805.36	1.12
806.104	5.12
806.848	4.12
807.592	3.12
808.336	5.12
809.079	2.12
809.823	4.12
810.566	4.12
811.31	5.12
812.053	3.12
812.796	4.12
813.539	2.12
814.283	4.12
815.026	5.12
815.769	1.12
816.511	3.12
817.254	3.12
817.997	3.12
818.74	4.12
819.482	1.12
820.225	2.12
820.967	3.12
821.71	5.12
822.452	3.12
823.194	3.12
823.936	5.12
824.678	3.12
825.42	3.12
826.162	2.12
826.904	1.12
827.646	4.12
828.388	2.12
829.129	3.12
829.871	1.12
830.612	2.12
831.354	2.12
832.095	2.12
832.836	5.12
833.577	2.12
834.319	4.12
835.06	0.12
835.801	3.12
836.542	1.12
837.282	3.12
838.023	2.12
838.764	3.12
839.504	3.12
840.245	3.12
840.985	5.12
841.726	2.12
842.466	1.12
843.206	2.12
843.946	1.12
844.687	2.12
845.427	0.12
846.166	3.12
846.906	2.12
847.646	2.12
848.386	0.12
849.125	2.12
849.865	2.12
850.605	2.12
851.344	1.12
852.083	2.12
852.823	1.12
853.562	0.12
854.301	1.12
855.04	2.12
855.779	1.12
856.518	1.12
857.257	1.12
857.995	0.12
858.734	1.12
859.473	1.12
860.211	1.12
860.95	1.12
861.688	1.12
862.426	0.12
863.165	3.12
863.903	4.12
864.641	0.12
865.379	1.12
866.117	-1.88
866.855	2.12
867.593	1.12
868.33	1.12
869.068	-0.88
869.806	1.12
870.543	1.12
871.28	1.12
872.018	0.12
872.755	-0.88
873.492	-0.88
874.229	3.12
874.967	0.12
875.703	-1.88
876.44	0.12
877.177	-1.88
877.914	0.12
878.651	0.12
879.387	-0.88
880.124	-1.88
880.86	-0.88
881.597	3.12
882.333	-0.88
883.069	0.12
883.806	1.12
884.542	2.12
885.278	1.12
886.014	0.12
886.749	-1.88
887.485	1.12
888.221	1.12
888.957	-0.88
889.692	0.12
890.428	1.12
891.163	-0.88
891.899	-0.88
892.634	0.12
893.369	0.12
894.104	-1.88
894.839	1.12
895.574	2.12
896.309	2.12
897.044	1.12
897.779	1.12
898.514	0.12
899.248	2.12
899.983	0.12
900.717	1.12
901.452	2.12
902.186	-1.88
902.92	3.12
903.654	-1.88
904.389	2.12
905.123	0.12
905.857	0.12
906.59	-0.88
907.324	0.12
908.058	-0.88
908.792	1.12
909.525	-0.88
910.259	0.12
910.992	-0.88
911.726	1.12
912.459	-1.88
913.192	0.12
913.925	1.12
914.658	1.12
915.391	0.12
916.124	-0.88
916.857	0.12
917.59	0.12
918.323	0.12
919.055	1.12
919.788	-0.88
920.521	1.12
921.253	1.12
921.985	1.12
922.718	2.12
923.45	-1.88
924.182	2.12
924.914	-1.88
925.646	-1.88
926.378	0.12
927.11	1.12
927.841	0.12
928.573	-0.88
929.305	1.12
930.036	1.12
930.768	3.12
931.499	0.12
932.23	-0.88
932.962	-0.88
933.693	1.12
934.424	-2.88
935.155	1.12
935.886	1.12
936.617	0.12
937.348	1.12
938.078	1.12
938.809	-0.88
939.54	-1.88
940.27	-0.88
941.001	0.12
941.731	1.12
942.461	-1.88
943.191	1.12
943.922	1.12
944.652	-0.88
945.382	0.12
946.112	2.12
946.841	1.12
947.571	0.12
948.301	-0.88
949.031	-1.88
949.76	-0.88
950.49	0.12
951.219	1.12
951.948	0.12
952.678	0.12
953.407	0.12
954.136	-1.88
954.865	-0.88
955.594	-0.88
956.323	0.12
957.052	-1.88
957.78	0.12
958.509	3.12
959.238	-1.88
959.966	0.12
960.695	0.12
961.423	-1.88
962.151	-0.88
962.88	0.12
963.608	2.12
964.336	-0.88
965.064	1.12
965.792	-1.88
966.52	-0.88
967.247	0.12
967.975	1.12
968.703	1.12
969.43	-0.88
970.158	1.12
970.885	0.12
971.613	-0.88
972.34	1.12
973.067	-0.88
973.794	-0.88
974.521	2.12
975.248	-1.88
975.975	-2.88
976.702	2.12
977.429	1.12
978.156	-0.88
978.882	1.12
979.609	-1.88
980.335	0.12
981.062	1.12
981.788	-1.88
982.514	-1.88
983.24	2.12
983.967	1.12
984.693	1.12
985.419	0.12
986.144	-1.88
986.87	1.12
987.596	1.12
988.322	-0.88
989.047	-0.88
989.773	3.12
990.498	1.12
991.224	2.12
991.949	1.12
992.674	-1.88
993.399	0.12
994.124	2.12
994.849	-2.88
995.574	0.12
996.299	-0.88
997.024	1.12
997.749	1.12
998.473	-0.88
999.198	1.12
999.922	-1.88
1000.647	1.12
1001.371	3.12
1002.095	-0.88
1002.82	-1.88
1003.544	-0.88
1004.268	0.12
1004.992	-1.88
1005.716	-0.88
1006.439	1.12
1007.163	2.12
1007.887	0.12
1008.611	-1.88
1009.334	-1.88
1010.058	0.12
1010.781	1.12
1011.504	3.12
1012.228	2.12
1012.951	1.12
1013.674	1.12
1014.397	-2.88
1015.12	1.12
