节点500_145_QEPB04081__37__11-29-31-791.txt的数据

Date: Wed Nov 12 11:29:31 CST 2025
User: PC
Spectrometer: QEPB0408
触发模式: 0
积分时间 (秒): 1.000000E-2
Scans to average: 1
启用暗噪声校正: true
启用非线性校正: false
滑动平均宽度: 0
X轴模式: Wavelengths
Number of Pixels in Spectrum: 1044
>>>>>Begin Spectral Data<<<<<
220.843	-0.25
221.644	0.75
222.444	-0.25
223.244	0.75
224.045	0.75
224.845	-0.25
225.645	-0.25
226.445	0.75
227.245	-0.25
228.045	-1.25
228.845	0.75
229.645	1.75
230.444	-1.25
231.244	1.75
232.043	-2.25
232.843	-1.25
233.642	2.75
234.442	2.75
235.241	-0.25
236.04	1.75
236.839	-0.25
237.638	-0.25
238.437	1.75
239.236	1.75
240.035	2.75
240.833	-0.25
241.632	1.75
242.43	-1.25
243.229	3.75
244.027	1.75
244.826	-1.25
245.624	1.75
246.422	0.75
247.22	1.75
248.018	1.75
248.816	1.75
249.614	2.75
250.412	1.75
251.21	5.75
252.007	1.75
252.805	1.75
253.602	1.75
254.4	0.75
255.197	3.75
255.994	3.75
256.791	3.75
257.589	3.75
258.386	3.75
259.183	3.75
259.979	6.75
260.776	3.75
261.573	4.75
262.37	3.75
263.166	6.75
263.963	6.75
264.759	4.75
265.556	3.75
266.352	7.75
267.148	4.75
267.944	6.75
268.74	6.75
269.536	5.75
270.332	8.75
271.128	7.75
271.924	8.75
272.719	6.75
273.515	9.75
274.311	9.75
275.106	8.75
275.901	10.75
276.697	8.75
277.492	11.75
278.287	8.75
279.082	10.75
279.877	10.75
280.672	10.75
281.467	10.75
282.262	8.75
283.056	11.75
283.851	11.75
284.646	12.75
285.44	12.75
286.234	10.75
287.029	12.75
287.823	9.75
288.617	10.75
289.411	11.75
290.205	11.75
290.999	10.75
291.793	11.75
292.587	11.75
293.381	11.75
294.174	11.75
294.968	10.75
295.761	6.75
296.555	7.75
297.348	9.75
298.141	9.75
298.935	10.75
299.728	9.75
300.521	9.75
301.314	8.75
302.107	6.75
302.899	7.75
303.692	7.75
304.485	8.75
305.277	7.75
306.07	8.75
306.862	2.75
307.655	9.75
308.447	8.75
309.239	9.75
310.031	7.75
310.823	7.75
311.615	7.75
312.407	3.75
313.199	6.75
313.991	6.75
314.783	6.75
315.574	4.75
316.366	6.75
317.157	6.75
317.949	3.75
318.74	3.75
319.531	5.75
320.322	5.75
321.113	2.75
321.904	4.75
322.695	5.75
323.486	2.75
324.277	4.75
325.068	5.75
325.858	5.75
326.649	3.75
327.439	4.75
328.23	3.75
329.02	4.75
329.81	0.75
330.6	4.75
331.391	2.75
332.181	4.75
332.971	1.75
333.76	4.75
334.55	2.75
335.34	3.75
336.13	1.75
336.919	3.75
337.709	1.75
338.498	3.75
339.287	5.75
340.077	3.75
340.866	4.75
341.655	1.75
342.444	1.75
343.233	3.75
344.022	2.75
344.811	4.75
345.6	6.75
346.388	1.75
347.177	1.75
347.965	3.75
348.754	4.75
349.542	2.75
350.33	1.75
351.119	3.75
351.907	3.75
352.695	0.75
353.483	1.75
354.271	1.75
355.059	1.75
355.846	2.75
356.634	3.75
357.422	3.75
358.209	2.75
358.997	1.75
359.784	4.75
360.571	2.75
361.359	4.75
362.146	4.75
362.933	1.75
363.72	3.75
364.507	2.75
365.294	1.75
366.081	1.75
366.867	2.75
367.654	0.75
368.44	2.75
369.227	1.75
370.013	1.75
370.8	2.75
371.586	0.75
372.372	3.75
373.158	1.75
373.944	4.75
374.73	3.75
375.516	1.75
376.302	1.75
377.088	1.75
377.873	3.75
378.659	2.75
379.445	3.75
380.23	1.75
381.015	1.75
381.801	1.75
382.586	2.75
383.371	1.75
384.156	2.75
384.941	2.75
385.726	3.75
386.511	3.75
387.296	1.75
388.08	3.75
388.865	3.75
389.649	1.75
390.434	1.75
391.218	2.75
392.003	1.75
392.787	1.75
393.571	2.75
394.355	2.75
395.139	1.75
395.923	1.75
396.707	3.75
397.491	3.75
398.274	2.75
399.058	2.75
399.842	2.75
400.625	4.75
401.408	4.75
402.192	4.75
402.975	2.75
403.758	2.75
404.541	4.75
405.324	2.75
406.107	5.75
406.89	3.75
407.673	2.75
408.456	4.75
409.238	3.75
410.021	3.75
410.803	4.75
411.586	2.75
412.368	1.75
413.151	3.75
413.933	3.75
414.715	5.75
415.497	5.75
416.279	6.75
417.061	5.75
417.843	2.75
418.624	1.75
419.406	4.75
420.188	7.75
420.969	4.75
421.751	4.75
422.532	8.75
423.313	4.75
424.095	6.75
424.876	4.75
425.657	4.75
426.438	6.75
427.219	7.75
428	5.75
428.78	7.75
429.561	7.75
430.342	5.75
431.122	7.75
431.903	7.75
432.683	3.75
433.464	9.75
434.244	10.75
435.024	8.75
435.804	7.75
436.584	6.75
437.364	10.75
438.144	7.75
438.924	11.75
439.704	12.75
440.483	11.75
441.263	10.75
442.042	10.75
442.822	12.75
443.601	11.75
444.38	15.75
445.16	15.75
445.939	17.75
446.718	17.75
447.497	16.75
448.276	18.75
449.054	20.75
449.833	23.75
450.612	24.75
451.391	25.75
452.169	25.75
452.948	25.75
453.726	28.75
454.504	31.75
455.282	36.75
456.061	40.75
456.839	43.75
457.617	48.75
458.395	52.75
459.172	61.75
459.95	61.75
460.728	77.75
461.506	79.75
462.283	91.75
463.061	98.75
463.838	110.75
464.615	127.75
465.393	137.75
466.17	156.75
466.947	170.75
467.724	191.75
468.501	210.75
469.278	242.75
470.055	270.75
470.831	299.75
471.608	339.75
472.385	380.75
473.161	409.75
473.938	457.75
474.714	520.75
475.49	582.75
476.266	652.75
477.043	723.75
477.819	807.75
478.595	908.75
479.371	995.75
480.146	1112.75
480.922	1254.75
481.698	1359.75
482.473	1521.75
483.249	1686.75
484.024	1884.75
484.8	2075.75
485.575	2300.75
486.35	2566.75
487.126	2856.75
487.901	3150.75
488.676	3507.75
489.451	3882.75
490.225	4300.75
491	4762.75
491.775	5286.75
492.55	5828.75
493.324	6383.75
494.099	7039.75
494.873	7705.75
495.647	8497.75
496.422	9219.75
497.196	9981.75
497.97	10794.75
498.744	11615.75
499.518	12439.75
500.292	13217.75
501.066	13999.75
501.839	14763.75
502.613	15464.75
503.387	16021.75
504.16	16584.75
504.934	16983.75
505.707	17232.75
506.48	17434.75
507.253	17446.75
508.027	17392.75
508.8	17161.75
509.573	16927.75
510.346	16477.75
511.118	16080.75
511.891	15469.75
512.664	14895.75
513.437	14240.75
514.209	13697.75
514.982	13035.75
515.754	12457.75
516.526	11887.75
517.298	11335.75
518.071	10852.75
518.843	10324.75
519.615	9892.75
520.387	9489.75
521.159	9156.75
521.93	8774.75
522.702	8429.75
523.474	8061.75
524.245	7787.75
525.017	7430.75
525.788	7151.75
526.56	6873.75
527.331	6566.75
528.102	6272.75
528.873	5977.75
529.644	5654.75
530.415	5418.75
531.186	5132.75
531.957	4870.75
532.728	4594.75
533.498	4350.75
534.269	4093.75
535.039	3865.75
535.81	3641.75
536.58	3440.75
537.351	3230.75
538.121	3066.75
538.891	2873.75
539.661	2712.75
540.431	2585.75
541.201	2434.75
541.971	2315.75
542.741	2184.75
543.51	2068.75
544.28	1954.75
545.05	1879.75
545.819	1797.75
546.588	1685.75
547.358	1610.75
548.127	1539.75
548.896	1470.75
549.665	1381.75
550.434	1314.75
551.203	1237.75
551.972	1170.75
552.741	1116.75
553.51	1045.75
554.278	997.75
555.047	941.75
555.815	885.75
556.584	844.75
557.352	784.75
558.121	740.75
558.889	688.75
559.657	647.75
560.425	611.75
561.193	583.75
561.961	545.75
562.729	514.75
563.496	484.75
564.264	460.75
565.032	429.75
565.799	409.75
566.567	388.75
567.334	355.75
568.101	340.75
568.869	320.75
569.636	306.75
570.403	292.75
571.17	268.75
571.937	261.75
572.704	241.75
573.471	226.75
574.237	214.75
575.004	200.75
575.771	192.75
576.537	186.75
577.303	165.75
578.07	154.75
578.836	145.75
579.602	140.75
580.368	130.75
581.134	127.75
581.9	121.75
582.666	114.75
583.432	107.75
584.198	100.75
584.964	96.75
585.729	88.75
586.495	84.75
587.26	80.75
588.025	77.75
588.791	71.75
589.556	67.75
590.321	67.75
591.086	58.75
591.851	57.75
592.616	53.75
593.381	52.75
594.146	52.75
594.911	44.75
595.675	46.75
596.44	41.75
597.204	39.75
597.969	39.75
598.733	37.75
599.497	37.75
600.261	34.75
601.025	32.75
601.79	30.75
602.553	30.75
603.317	27.75
604.081	26.75
604.845	25.75
605.609	20.75
606.372	21.75
607.136	20.75
607.899	21.75
608.662	20.75
609.426	21.75
610.189	15.75
610.952	16.75
611.715	18.75
612.478	17.75
613.241	17.75
614.004	15.75
614.767	13.75
615.529	15.75
616.292	15.75
617.055	12.75
617.817	14.75
618.579	8.75
619.342	13.75
620.104	13.75
620.866	11.75
621.628	11.75
622.39	8.75
623.152	10.75
623.914	8.75
624.676	12.75
625.438	10.75
626.199	9.75
626.961	9.75
627.722	7.75
628.484	8.75
629.245	6.75
630.006	7.75
630.768	4.75
631.529	5.75
632.29	6.75
633.051	5.75
633.812	5.75
634.573	6.75
635.333	5.75
636.094	5.75
636.855	5.75
637.615	7.75
638.376	1.75
639.136	4.75
639.896	4.75
640.657	5.75
641.417	4.75
642.177	7.75
642.937	5.75
643.697	1.75
644.457	4.75
645.216	3.75
645.976	4.75
646.736	4.75
647.495	2.75
648.255	2.75
649.014	3.75
649.774	4.75
650.533	3.75
651.292	2.75
652.051	2.75
652.81	2.75
653.569	2.75
654.328	2.75
655.087	3.75
655.846	1.75
656.604	2.75
657.363	3.75
658.121	3.75
658.88	2.75
659.638	3.75
660.397	2.75
661.155	1.75
661.913	3.75
662.671	0.75
663.429	1.75
664.187	3.75
664.945	3.75
665.703	2.75
666.46	1.75
667.218	0.75
667.976	2.75
668.733	2.75
669.49	4.75
670.248	1.75
671.005	3.75
671.762	3.75
672.519	1.75
673.276	-0.25
674.033	0.75
674.79	1.75
675.547	2.75
676.304	2.75
677.06	0.75
677.817	2.75
678.574	1.75
679.33	2.75
680.086	3.75
680.843	2.75
681.599	1.75
682.355	0.75
683.111	2.75
683.867	4.75
684.623	3.75
685.379	1.75
686.135	1.75
686.89	2.75
687.646	2.75
688.402	2.75
689.157	1.75
689.912	0.75
690.668	4.75
691.423	-0.25
692.178	1.75
692.933	3.75
693.688	2.75
694.443	0.75
695.198	2.75
695.953	2.75
696.708	1.75
697.462	1.75
698.217	0.75
698.972	0.75
699.726	1.75
700.48	-0.25
701.235	1.75
701.989	0.75
702.743	-1.25
703.497	3.75
704.251	-1.25
705.005	1.75
705.759	0.75
706.513	0.75
707.266	1.75
708.02	1.75
708.774	1.75
709.527	1.75
710.28	1.75
711.034	1.75
711.787	3.75
712.54	0.75
713.293	-0.25
714.046	2.75
714.799	1.75
715.552	2.75
716.305	0.75
717.058	0.75
717.81	3.75
718.563	0.75
719.315	-0.25
720.068	0.75
720.82	1.75
721.573	2.75
722.325	0.75
723.077	5.75
723.829	0.75
724.581	3.75
725.333	0.75
726.085	2.75
726.836	0.75
727.588	1.75
728.34	-0.25
729.091	-0.25
729.843	3.75
730.594	1.75
731.346	0.75
732.097	1.75
732.848	-1.25
733.599	-1.25
734.35	0.75
735.101	2.75
735.852	0.75
736.603	3.75
737.354	1.75
738.104	1.75
738.855	2.75
739.605	0.75
740.356	3.75
741.106	0.75
741.856	-0.25
742.607	0.75
743.357	1.75
744.107	2.75
744.857	1.75
745.607	3.75
746.357	2.75
747.106	0.75
747.856	1.75
748.606	-0.25
749.355	3.75
750.105	2.75
750.854	2.75
751.603	2.75
752.353	3.75
753.102	2.75
753.851	1.75
754.6	5.75
755.349	0.75
756.098	1.75
756.847	1.75
757.595	1.75
758.344	0.75
759.093	3.75
759.841	2.75
760.589	4.75
761.338	2.75
762.086	1.75
762.834	0.75
763.582	1.75
764.331	4.75
765.079	3.75
765.826	4.75
766.574	1.75
767.322	4.75
768.07	6.75
768.817	5.75
769.565	3.75
770.312	2.75
771.06	4.75
771.807	3.75
772.554	5.75
773.302	3.75
774.049	5.75
774.796	5.75
775.543	5.75
776.29	4.75
777.036	4.75
777.783	4.75
778.53	4.75
779.276	5.75
780.023	4.75
780.769	3.75
781.516	6.75
782.262	4.75
783.008	5.75
783.754	5.75
784.5	5.75
785.246	3.75
785.992	6.75
786.738	2.75
787.484	3.75
788.23	4.75
788.975	3.75
789.721	5.75
790.466	3.75
791.212	7.75
791.957	5.75
792.702	6.75
793.447	4.75
794.193	4.75
794.938	7.75
795.683	4.75
796.427	4.75
797.172	5.75
797.917	3.75
798.662	4.75
799.406	3.75
800.151	4.75
800.895	5.75
801.64	5.75
802.384	4.75
803.128	3.75
803.872	3.75
804.616	3.75
805.36	4.75
806.104	2.75
806.848	4.75
807.592	1.75
808.336	2.75
809.079	0.75
809.823	3.75
810.566	2.75
811.31	2.75
812.053	2.75
812.796	3.75
813.539	-0.25
814.283	2.75
815.026	1.75
815.769	1.75
816.511	2.75
817.254	3.75
817.997	3.75
818.74	1.75
819.482	3.75
820.225	3.75
820.967	3.75
821.71	1.75
822.452	0.75
823.194	2.75
823.936	2.75
824.678	3.75
825.42	2.75
826.162	0.75
826.904	1.75
827.646	4.75
828.388	1.75
829.129	1.75
829.871	4.75
830.612	2.75
831.354	1.75
832.095	0.75
832.836	1.75
833.577	0.75
834.319	1.75
835.06	1.75
835.801	0.75
836.542	0.75
837.282	0.75
838.023	2.75
838.764	0.75
839.504	1.75
840.245	2.75
840.985	2.75
841.726	0.75
842.466	3.75
843.206	1.75
843.946	2.75
844.687	1.75
845.427	1.75
846.166	1.75
846.906	1.75
847.646	0.75
848.386	1.75
849.125	1.75
849.865	1.75
850.605	2.75
851.344	1.75
852.083	-0.25
852.823	0.75
853.562	2.75
854.301	2.75
855.04	1.75
855.779	0.75
856.518	1.75
857.257	0.75
857.995	3.75
858.734	-1.25
859.473	1.75
860.211	0.75
860.95	0.75
861.688	1.75
862.426	1.75
863.165	1.75
863.903	0.75
864.641	-0.25
865.379	0.75
866.117	-0.25
866.855	3.75
867.593	0.75
868.33	1.75
869.068	-0.25
869.806	0.75
870.543	2.75
871.28	0.75
872.018	0.75
872.755	1.75
873.492	0.75
874.229	0.75
874.967	0.75
875.703	0.75
876.44	-1.25
877.177	-0.25
877.914	-1.25
878.651	0.75
879.387	2.75
880.124	0.75
880.86	1.75
881.597	1.75
882.333	0.75
883.069	-1.25
883.806	0.75
884.542	-0.25
885.278	-0.25
886.014	1.75
886.749	-1.25
887.485	0.75
888.221	1.75
888.957	-3.25
889.692	0.75
890.428	2.75
891.163	1.75
891.899	-2.25
892.634	-0.25
893.369	0.75
894.104	0.75
894.839	0.75
895.574	-0.25
896.309	0.75
897.044	0.75
897.779	-1.25
898.514	0.75
899.248	0.75
899.983	-0.25
900.717	0.75
901.452	1.75
902.186	-0.25
902.92	1.75
903.654	-0.25
904.389	-0.25
905.123	-0.25
905.857	-3.25
906.59	-1.25
907.324	1.75
908.058	0.75
908.792	0.75
909.525	0.75
910.259	0.75
910.992	0.75
911.726	-0.25
912.459	-0.25
913.192	-1.25
913.925	1.75
914.658	0.75
915.391	-0.25
916.124	-1.25
916.857	1.75
917.59	2.75
918.323	-0.25
919.055	-0.25
919.788	-1.25
920.521	-2.25
921.253	-0.25
921.985	0.75
922.718	-0.25
923.45	-0.25
924.182	-0.25
924.914	-2.25
925.646	-1.25
926.378	0.75
927.11	-0.25
927.841	-0.25
928.573	1.75
929.305	-1.25
930.036	0.75
930.768	0.75
931.499	-0.25
932.23	0.75
932.962	-0.25
933.693	-0.25
934.424	-0.25
935.155	-0.25
935.886	-2.25
936.617	-1.25
937.348	-0.25
938.078	1.75
938.809	-1.25
939.54	-0.25
940.27	-2.25
941.001	-1.25
941.731	-0.25
942.461	-1.25
943.191	-0.25
943.922	-2.25
944.652	-0.25
945.382	-0.25
946.112	1.75
946.841	-1.25
947.571	0.75
948.301	0.75
949.031	-2.25
949.76	1.75
950.49	-0.25
951.219	-1.25
951.948	-0.25
952.678	0.75
953.407	0.75
954.136	-2.25
954.865	1.75
955.594	0.75
956.323	1.75
957.052	1.75
957.78	-0.25
958.509	-0.25
959.238	0.75
959.966	-1.25
960.695	0.75
961.423	-1.25
962.151	1.75
962.88	-0.25
963.608	-0.25
964.336	0.75
965.064	0.75
965.792	0.75
966.52	-0.25
967.247	0.75
967.975	0.75
968.703	1.75
969.43	-1.25
970.158	0.75
970.885	0.75
971.613	-0.25
972.34	-2.25
973.067	-1.25
973.794	-1.25
974.521	2.75
975.248	-1.25
975.975	-1.25
976.702	0.75
977.429	-2.25
978.156	-1.25
978.882	-2.25
979.609	-0.25
980.335	0.75
981.062	0.75
981.788	0.75
982.514	-1.25
983.24	-0.25
983.967	1.75
984.693	-2.25
985.419	-1.25
986.144	-0.25
986.87	-2.25
987.596	-0.25
988.322	-1.25
989.047	-3.25
989.773	-2.25
990.498	0.75
991.224	-1.25
991.949	-0.25
992.674	0.75
993.399	-0.25
994.124	1.75
994.849	-0.25
995.574	-1.25
996.299	-3.25
997.024	-0.25
997.749	1.75
998.473	-0.25
999.198	0.75
999.922	-1.25
1000.647	-2.25
1001.371	2.75
1002.095	-1.25
1002.82	-2.25
1003.544	0.75
1004.268	-1.25
1004.992	-1.25
1005.716	-2.25
1006.439	0.75
1007.163	-0.25
1007.887	-0.25
1008.611	-0.25
1009.334	0.75
1010.058	-1.25
1010.781	0.75
1011.504	2.75
1012.228	2.75
1012.951	0.75
1013.674	-1.25
1014.397	-0.25
1015.12	0.75
