节点500_145_QEPB04081__174__11-31-43-564.txt的数据

Date: Wed Nov 12 11:31:43 CST 2025
User: PC
Spectrometer: QEPB0408
触发模式: 0
积分时间 (秒): 1.000000E-2
Scans to average: 1
启用暗噪声校正: true
启用非线性校正: false
滑动平均宽度: 0
X轴模式: Wavelengths
Number of Pixels in Spectrum: 1044
>>>>>Begin Spectral Data<<<<<
220.843	2.12
221.644	-0.88
222.444	-1.88
223.244	-1.88
224.045	1.12
224.845	1.12
225.645	1.12
226.445	1.12
227.245	0.12
228.045	1.12
228.845	2.12
229.645	-0.88
230.444	1.12
231.244	1.12
232.043	2.12
232.843	2.12
233.642	1.12
234.442	0.12
235.241	0.12
236.04	2.12
236.839	2.12
237.638	1.12
238.437	0.12
239.236	1.12
240.035	1.12
240.833	1.12
241.632	3.12
242.43	3.12
243.229	0.12
244.027	1.12
244.826	1.12
245.624	1.12
246.422	2.12
247.22	3.12
248.018	0.12
248.816	4.12
249.614	2.12
250.412	3.12
251.21	3.12
252.007	1.12
252.805	3.12
253.602	2.12
254.4	4.12
255.197	4.12
255.994	4.12
256.791	4.12
257.589	2.12
258.386	3.12
259.183	5.12
259.979	3.12
260.776	4.12
261.573	3.12
262.37	5.12
263.166	1.12
263.963	6.12
264.759	5.12
265.556	5.12
266.352	6.12
267.148	8.12
267.944	7.12
268.74	7.12
269.536	7.12
270.332	6.12
271.128	9.12
271.924	7.12
272.719	8.12
273.515	9.12
274.311	9.12
275.106	10.12
275.901	8.12
276.697	9.12
277.492	9.12
278.287	11.12
279.082	12.12
279.877	9.12
280.672	12.12
281.467	11.12
282.262	10.12
283.056	11.12
283.851	10.12
284.646	14.12
285.44	11.12
286.234	11.12
287.029	9.12
287.823	12.12
288.617	11.12
289.411	11.12
290.205	13.12
290.999	9.12
291.793	8.12
292.587	12.12
293.381	11.12
294.174	9.12
294.968	12.12
295.761	10.12
296.555	9.12
297.348	11.12
298.141	12.12
298.935	9.12
299.728	9.12
300.521	11.12
301.314	10.12
302.107	7.12
302.899	9.12
303.692	5.12
304.485	9.12
305.277	9.12
306.07	9.12
306.862	11.12
307.655	6.12
308.447	8.12
309.239	9.12
310.031	7.12
310.823	7.12
311.615	7.12
312.407	5.12
313.199	5.12
313.991	7.12
314.783	5.12
315.574	5.12
316.366	5.12
317.157	4.12
317.949	5.12
318.74	5.12
319.531	3.12
320.322	4.12
321.113	5.12
321.904	4.12
322.695	2.12
323.486	6.12
324.277	3.12
325.068	8.12
325.858	4.12
326.649	5.12
327.439	6.12
328.23	5.12
329.02	5.12
329.81	6.12
330.6	4.12
331.391	2.12
332.181	1.12
332.971	3.12
333.76	2.12
334.55	4.12
335.34	2.12
336.13	5.12
336.919	4.12
337.709	4.12
338.498	3.12
339.287	1.12
340.077	3.12
340.866	3.12
341.655	2.12
342.444	2.12
343.233	3.12
344.022	3.12
344.811	4.12
345.6	4.12
346.388	5.12
347.177	4.12
347.965	5.12
348.754	0.12
349.542	4.12
350.33	3.12
351.119	4.12
351.907	5.12
352.695	6.12
353.483	2.12
354.271	3.12
355.059	4.12
355.846	1.12
356.634	4.12
357.422	3.12
358.209	0.12
358.997	3.12
359.784	5.12
360.571	4.12
361.359	2.12
362.146	4.12
362.933	1.12
363.72	4.12
364.507	2.12
365.294	1.12
366.081	4.12
366.867	2.12
367.654	3.12
368.44	4.12
369.227	5.12
370.013	2.12
370.8	2.12
371.586	4.12
372.372	3.12
373.158	3.12
373.944	3.12
374.73	1.12
375.516	2.12
376.302	2.12
377.088	3.12
377.873	2.12
378.659	2.12
379.445	3.12
380.23	2.12
381.015	6.12
381.801	1.12
382.586	3.12
383.371	3.12
384.156	5.12
384.941	4.12
385.726	1.12
386.511	3.12
387.296	0.12
388.08	3.12
388.865	3.12
389.649	4.12
390.434	3.12
391.218	1.12
392.003	3.12
392.787	3.12
393.571	2.12
394.355	4.12
395.139	3.12
395.923	1.12
396.707	2.12
397.491	4.12
398.274	4.12
399.058	3.12
399.842	3.12
400.625	2.12
401.408	6.12
402.192	5.12
402.975	4.12
403.758	2.12
404.541	5.12
405.324	3.12
406.107	6.12
406.89	5.12
407.673	4.12
408.456	5.12
409.238	5.12
410.021	4.12
410.803	6.12
411.586	3.12
412.368	6.12
413.151	7.12
413.933	5.12
414.715	5.12
415.497	5.12
416.279	5.12
417.061	2.12
417.843	7.12
418.624	5.12
419.406	5.12
420.188	3.12
420.969	6.12
421.751	8.12
422.532	4.12
423.313	7.12
424.095	7.12
424.876	6.12
425.657	7.12
426.438	7.12
427.219	5.12
428	6.12
428.78	7.12
429.561	7.12
430.342	7.12
431.122	8.12
431.903	5.12
432.683	8.12
433.464	8.12
434.244	10.12
435.024	8.12
435.804	9.12
436.584	9.12
437.364	7.12
438.144	10.12
438.924	11.12
439.704	10.12
440.483	10.12
441.263	10.12
442.042	16.12
442.822	13.12
443.601	12.12
444.38	14.12
445.16	14.12
445.939	17.12
446.718	19.12
447.497	19.12
448.276	18.12
449.054	18.12
449.833	22.12
450.612	25.12
451.391	25.12
452.169	29.12
452.948	31.12
453.726	30.12
454.504	35.12
455.282	40.12
456.061	45.12
456.839	48.12
457.617	52.12
458.395	57.12
459.172	63.12
459.95	70.12
460.728	80.12
461.506	82.12
462.283	94.12
463.061	106.12
463.838	117.12
464.615	138.12
465.393	151.12
466.17	163.12
466.947	186.12
467.724	201.12
468.501	224.12
469.278	251.12
470.055	289.12
470.831	314.12
471.608	358.12
472.385	397.12
473.161	438.12
473.938	481.12
474.714	555.12
475.49	601.12
476.266	672.12
477.043	754.12
477.819	853.12
478.595	937.12
479.371	1030.12
480.146	1136.12
480.922	1249.12
481.698	1401.12
482.473	1544.12
483.249	1722.12
484.024	1902.12
484.8	2090.12
485.575	2319.12
486.35	2579.12
487.126	2852.12
487.901	3141.12
488.676	3424.12
489.451	3846.12
490.225	4219.12
491	4647.12
491.775	5128.12
492.55	5624.12
493.324	6192.12
494.099	6791.12
494.873	7434.12
495.647	8069.12
496.422	8806.12
497.196	9589.12
497.97	10346.12
498.744	11148.12
499.518	11895.12
500.292	12660.12
501.066	13429.12
501.839	14139.12
502.613	14825.12
503.387	15467.12
504.16	15993.12
504.934	16427.12
505.707	16784.12
506.48	16930.12
507.253	17079.12
508.027	17098.12
508.8	16966.12
509.573	16680.12
510.346	16406.12
511.118	15963.12
511.891	15542.12
512.664	15007.12
513.437	14491.12
514.209	13821.12
514.982	13267.12
515.754	12640.12
516.526	12113.12
517.298	11540.12
518.071	11027.12
518.843	10551.12
519.615	10059.12
520.387	9732.12
521.159	9321.12
521.93	8916.12
522.702	8553.12
523.474	8250.12
524.245	7899.12
525.017	7650.12
525.788	7297.12
526.56	7035.12
527.331	6723.12
528.102	6413.12
528.873	6116.12
529.644	5798.12
530.415	5559.12
531.186	5257.12
531.957	4996.12
532.728	4714.12
533.498	4474.12
534.269	4238.12
535.039	4008.12
535.81	3790.12
536.58	3556.12
537.351	3359.12
538.121	3202.12
538.891	2985.12
539.661	2822.12
540.431	2678.12
541.201	2551.12
541.971	2402.12
542.741	2283.12
543.51	2149.12
544.28	2042.12
545.05	1935.12
545.819	1846.12
546.588	1762.12
547.358	1667.12
548.127	1585.12
548.896	1510.12
549.665	1449.12
550.434	1359.12
551.203	1296.12
551.972	1233.12
552.741	1159.12
553.51	1091.12
554.278	1032.12
555.047	971.12
555.815	907.12
556.584	861.12
557.352	810.12
558.121	769.12
558.889	739.12
559.657	687.12
560.425	643.12
561.193	601.12
561.961	573.12
562.729	534.12
563.496	509.12
564.264	469.12
565.032	452.12
565.799	427.12
566.567	411.12
567.334	385.12
568.101	359.12
568.869	341.12
569.636	324.12
570.403	306.12
571.17	290.12
571.937	267.12
572.704	250.12
573.471	239.12
574.237	229.12
575.004	222.12
575.771	202.12
576.537	185.12
577.303	178.12
578.07	168.12
578.836	157.12
579.602	147.12
580.368	141.12
581.134	132.12
581.9	125.12
582.666	120.12
583.432	113.12
584.198	104.12
584.964	102.12
585.729	95.12
586.495	92.12
587.26	82.12
588.025	77.12
588.791	77.12
589.556	68.12
590.321	65.12
591.086	63.12
591.851	60.12
592.616	58.12
593.381	55.12
594.146	49.12
594.911	47.12
595.675	45.12
596.44	47.12
597.204	42.12
597.969	41.12
598.733	40.12
599.497	37.12
600.261	34.12
601.025	36.12
601.79	33.12
602.553	30.12
603.317	28.12
604.081	30.12
604.845	26.12
605.609	24.12
606.372	27.12
607.136	25.12
607.899	21.12
608.662	23.12
609.426	20.12
610.189	20.12
610.952	20.12
611.715	19.12
612.478	18.12
613.241	17.12
614.004	16.12
614.767	16.12
615.529	14.12
616.292	16.12
617.055	14.12
617.817	16.12
618.579	17.12
619.342	13.12
620.104	11.12
620.866	12.12
621.628	13.12
622.39	10.12
623.152	10.12
623.914	10.12
624.676	10.12
625.438	10.12
626.199	10.12
626.961	9.12
627.722	6.12
628.484	6.12
629.245	7.12
630.006	8.12
630.768	8.12
631.529	7.12
632.29	8.12
633.051	4.12
633.812	6.12
634.573	7.12
635.333	8.12
636.094	9.12
636.855	4.12
637.615	5.12
638.376	4.12
639.136	7.12
639.896	5.12
640.657	6.12
641.417	8.12
642.177	5.12
642.937	3.12
643.697	3.12
644.457	7.12
645.216	2.12
645.976	3.12
646.736	5.12
647.495	2.12
648.255	3.12
649.014	4.12
649.774	5.12
650.533	2.12
651.292	4.12
652.051	7.12
652.81	3.12
653.569	4.12
654.328	3.12
655.087	2.12
655.846	3.12
656.604	4.12
657.363	1.12
658.121	2.12
658.88	3.12
659.638	2.12
660.397	5.12
661.155	5.12
661.913	5.12
662.671	2.12
663.429	4.12
664.187	6.12
664.945	2.12
665.703	2.12
666.46	1.12
667.218	3.12
667.976	1.12
668.733	2.12
669.49	1.12
670.248	3.12
671.005	2.12
671.762	3.12
672.519	2.12
673.276	1.12
674.033	2.12
674.79	3.12
675.547	1.12
676.304	2.12
677.06	3.12
677.817	0.12
678.574	3.12
679.33	-0.88
680.086	2.12
680.843	1.12
681.599	3.12
682.355	4.12
683.111	3.12
683.867	3.12
684.623	1.12
685.379	3.12
686.135	3.12
686.89	2.12
687.646	2.12
688.402	2.12
689.157	2.12
689.912	3.12
690.668	1.12
691.423	1.12
692.178	3.12
692.933	3.12
693.688	2.12
694.443	4.12
695.198	0.12
695.953	2.12
696.708	1.12
697.462	3.12
698.217	2.12
698.972	2.12
699.726	2.12
700.48	-0.88
701.235	3.12
701.989	1.12
702.743	2.12
703.497	2.12
704.251	1.12
705.005	3.12
705.759	3.12
706.513	2.12
707.266	2.12
708.02	2.12
708.774	3.12
709.527	1.12
710.28	3.12
711.034	1.12
711.787	2.12
712.54	1.12
713.293	3.12
714.046	1.12
714.799	0.12
715.552	1.12
716.305	1.12
717.058	1.12
717.81	2.12
718.563	2.12
719.315	4.12
720.068	1.12
720.82	2.12
721.573	0.12
722.325	1.12
723.077	2.12
723.829	1.12
724.581	3.12
725.333	2.12
726.085	3.12
726.836	4.12
727.588	3.12
728.34	1.12
729.091	0.12
729.843	3.12
730.594	2.12
731.346	2.12
732.097	2.12
732.848	2.12
733.599	0.12
734.35	1.12
735.101	4.12
735.852	3.12
736.603	3.12
737.354	4.12
738.104	3.12
738.855	2.12
739.605	-0.88
740.356	2.12
741.106	2.12
741.856	1.12
742.607	2.12
743.357	3.12
744.107	0.12
744.857	2.12
745.607	3.12
746.357	2.12
747.106	5.12
747.856	2.12
748.606	2.12
749.355	2.12
750.105	2.12
750.854	4.12
751.603	2.12
752.353	2.12
753.102	4.12
753.851	4.12
754.6	6.12
755.349	2.12
756.098	1.12
756.847	3.12
757.595	1.12
758.344	5.12
759.093	3.12
759.841	3.12
760.589	4.12
761.338	3.12
762.086	2.12
762.834	4.12
763.582	4.12
764.331	5.12
765.079	2.12
765.826	2.12
766.574	3.12
767.322	5.12
768.07	4.12
768.817	7.12
769.565	4.12
770.312	5.12
771.06	3.12
771.807	4.12
772.554	3.12
773.302	5.12
774.049	4.12
774.796	4.12
775.543	6.12
776.29	5.12
777.036	5.12
777.783	3.12
778.53	5.12
779.276	7.12
780.023	6.12
780.769	7.12
781.516	3.12
782.262	4.12
783.008	5.12
783.754	6.12
784.5	6.12
785.246	4.12
785.992	7.12
786.738	3.12
787.484	5.12
788.23	6.12
788.975	4.12
789.721	4.12
790.466	4.12
791.212	4.12
791.957	4.12
792.702	6.12
793.447	5.12
794.193	6.12
794.938	6.12
795.683	7.12
796.427	6.12
797.172	5.12
797.917	4.12
798.662	5.12
799.406	4.12
800.151	5.12
800.895	4.12
801.64	6.12
802.384	5.12
803.128	6.12
803.872	4.12
804.616	3.12
805.36	4.12
806.104	5.12
806.848	3.12
807.592	4.12
808.336	4.12
809.079	4.12
809.823	4.12
810.566	6.12
811.31	4.12
812.053	5.12
812.796	1.12
813.539	5.12
814.283	4.12
815.026	2.12
815.769	1.12
816.511	4.12
817.254	2.12
817.997	4.12
818.74	5.12
819.482	5.12
820.225	3.12
820.967	3.12
821.71	2.12
822.452	4.12
823.194	5.12
823.936	2.12
824.678	3.12
825.42	4.12
826.162	0.12
826.904	2.12
827.646	7.12
828.388	2.12
829.129	4.12
829.871	2.12
830.612	2.12
831.354	4.12
832.095	2.12
832.836	2.12
833.577	3.12
834.319	2.12
835.06	2.12
835.801	5.12
836.542	3.12
837.282	1.12
838.023	1.12
838.764	3.12
839.504	1.12
840.245	2.12
840.985	2.12
841.726	2.12
842.466	0.12
843.206	5.12
843.946	2.12
844.687	0.12
845.427	1.12
846.166	2.12
846.906	3.12
847.646	3.12
848.386	3.12
849.125	3.12
849.865	1.12
850.605	1.12
851.344	1.12
852.083	3.12
852.823	3.12
853.562	2.12
854.301	1.12
855.04	0.12
855.779	4.12
856.518	1.12
857.257	2.12
857.995	2.12
858.734	2.12
859.473	0.12
860.211	0.12
860.95	2.12
861.688	3.12
862.426	1.12
863.165	1.12
863.903	2.12
864.641	2.12
865.379	0.12
866.117	2.12
866.855	0.12
867.593	2.12
868.33	3.12
869.068	1.12
869.806	0.12
870.543	0.12
871.28	4.12
872.018	2.12
872.755	1.12
873.492	3.12
874.229	1.12
874.967	0.12
875.703	1.12
876.44	1.12
877.177	-1.88
877.914	2.12
878.651	0.12
879.387	-0.88
880.124	2.12
880.86	-1.88
881.597	-1.88
882.333	2.12
883.069	1.12
883.806	1.12
884.542	1.12
885.278	3.12
886.014	-0.88
886.749	0.12
887.485	1.12
888.221	1.12
888.957	2.12
889.692	-0.88
890.428	0.12
891.163	1.12
891.899	2.12
892.634	1.12
893.369	0.12
894.104	1.12
894.839	1.12
895.574	1.12
896.309	0.12
897.044	1.12
897.779	0.12
898.514	1.12
899.248	2.12
899.983	1.12
900.717	2.12
901.452	1.12
902.186	1.12
902.92	-0.88
903.654	0.12
904.389	2.12
905.123	0.12
905.857	1.12
906.59	-1.88
907.324	0.12
908.058	-0.88
908.792	1.12
909.525	1.12
910.259	-2.88
910.992	2.12
911.726	-0.88
912.459	0.12
913.192	-0.88
913.925	0.12
914.658	-0.88
915.391	0.12
916.124	-0.88
916.857	0.12
917.59	2.12
918.323	1.12
919.055	2.12
919.788	0.12
920.521	-0.88
921.253	2.12
921.985	2.12
922.718	2.12
923.45	0.12
924.182	0.12
924.914	0.12
925.646	0.12
926.378	1.12
927.11	1.12
927.841	0.12
928.573	1.12
929.305	0.12
930.036	1.12
930.768	0.12
931.499	0.12
932.23	-0.88
932.962	2.12
933.693	-1.88
934.424	-1.88
935.155	0.12
935.886	0.12
936.617	1.12
937.348	1.12
938.078	0.12
938.809	1.12
939.54	2.12
940.27	1.12
941.001	0.12
941.731	1.12
942.461	1.12
943.191	-0.88
943.922	1.12
944.652	-1.88
945.382	0.12
946.112	-0.88
946.841	0.12
947.571	-1.88
948.301	-1.88
949.031	-0.88
949.76	0.12
950.49	1.12
951.219	0.12
951.948	0.12
952.678	0.12
953.407	-0.88
954.136	0.12
954.865	0.12
955.594	-0.88
956.323	1.12
957.052	0.12
957.78	0.12
958.509	0.12
959.238	1.12
959.966	1.12
960.695	1.12
961.423	2.12
962.151	-1.88
962.88	3.12
963.608	-1.88
964.336	-1.88
965.064	1.12
965.792	0.12
966.52	0.12
967.247	0.12
967.975	-0.88
968.703	-0.88
969.43	0.12
970.158	0.12
970.885	3.12
971.613	-1.88
972.34	0.12
973.067	-0.88
973.794	-0.88
974.521	0.12
975.248	1.12
975.975	1.12
976.702	0.12
977.429	0.12
978.156	2.12
978.882	-0.88
979.609	1.12
980.335	2.12
981.062	1.12
981.788	1.12
982.514	-0.88
983.24	0.12
983.967	-1.88
984.693	1.12
985.419	0.12
986.144	-0.88
986.87	0.12
987.596	-1.88
988.322	-0.88
989.047	-2.88
989.773	0.12
990.498	1.12
991.224	0.12
991.949	-0.88
992.674	0.12
993.399	0.12
994.124	1.12
994.849	0.12
995.574	1.12
996.299	2.12
997.024	2.12
997.749	-1.88
998.473	-0.88
999.198	-0.88
999.922	0.12
1000.647	1.12
1001.371	2.12
1002.095	-0.88
1002.82	-0.88
1003.544	-0.88
1004.268	-0.88
1004.992	-0.88
1005.716	-1.88
1006.439	-1.88
1007.163	0.12
1007.887	-1.88
1008.611	0.12
1009.334	0.12
1010.058	-0.88
1010.781	-1.88
1011.504	-0.88
1012.228	-0.88
1012.951	1.12
1013.674	-0.88
1014.397	0.12
1015.12	0.12
