节点500_145_QEPB04081__172__11-31-41-555.txt的数据

Date: Wed Nov 12 11:31:41 CST 2025
User: PC
Spectrometer: QEPB0408
触发模式: 0
积分时间 (秒): 1.000000E-2
Scans to average: 1
启用暗噪声校正: true
启用非线性校正: false
滑动平均宽度: 0
X轴模式: Wavelengths
Number of Pixels in Spectrum: 1044
>>>>>Begin Spectral Data<<<<<
220.843	0.88
221.644	-3.12
222.444	-1.12
223.244	-2.12
224.045	0.88
224.845	-1.12
225.645	-1.12
226.445	0.88
227.245	-1.12
228.045	0.88
228.845	-0.12
229.645	-1.12
230.444	0.88
231.244	-1.12
232.043	1.88
232.843	0.88
233.642	1.88
234.442	0.88
235.241	0.88
236.04	-1.12
236.839	-0.12
237.638	0.88
238.437	-1.12
239.236	1.88
240.035	1.88
240.833	-0.12
241.632	2.88
242.43	1.88
243.229	3.88
244.027	0.88
244.826	1.88
245.624	3.88
246.422	2.88
247.22	-0.12
248.018	1.88
248.816	3.88
249.614	1.88
250.412	4.88
251.21	2.88
252.007	1.88
252.805	1.88
253.602	1.88
254.4	3.88
255.197	2.88
255.994	2.88
256.791	4.88
257.589	2.88
258.386	1.88
259.183	5.88
259.979	6.88
260.776	1.88
261.573	4.88
262.37	4.88
263.166	2.88
263.963	6.88
264.759	2.88
265.556	6.88
266.352	7.88
267.148	6.88
267.944	6.88
268.74	5.88
269.536	4.88
270.332	5.88
271.128	6.88
271.924	7.88
272.719	6.88
273.515	7.88
274.311	6.88
275.106	8.88
275.901	9.88
276.697	8.88
277.492	9.88
278.287	10.88
279.082	8.88
279.877	12.88
280.672	8.88
281.467	8.88
282.262	10.88
283.056	11.88
283.851	10.88
284.646	9.88
285.44	10.88
286.234	10.88
287.029	10.88
287.823	10.88
288.617	10.88
289.411	8.88
290.205	11.88
290.999	10.88
291.793	12.88
292.587	12.88
293.381	11.88
294.174	12.88
294.968	11.88
295.761	8.88
296.555	8.88
297.348	10.88
298.141	6.88
298.935	7.88
299.728	9.88
300.521	6.88
301.314	8.88
302.107	5.88
302.899	8.88
303.692	6.88
304.485	7.88
305.277	7.88
306.07	8.88
306.862	6.88
307.655	9.88
308.447	8.88
309.239	5.88
310.031	4.88
310.823	4.88
311.615	7.88
312.407	5.88
313.199	4.88
313.991	3.88
314.783	4.88
315.574	2.88
316.366	3.88
317.157	6.88
317.949	4.88
318.74	3.88
319.531	4.88
320.322	1.88
321.113	4.88
321.904	5.88
322.695	3.88
323.486	5.88
324.277	6.88
325.068	3.88
325.858	6.88
326.649	3.88
327.439	3.88
328.23	2.88
329.02	3.88
329.81	5.88
330.6	2.88
331.391	2.88
332.181	2.88
332.971	4.88
333.76	1.88
334.55	1.88
335.34	1.88
336.13	3.88
336.919	3.88
337.709	2.88
338.498	2.88
339.287	1.88
340.077	3.88
340.866	4.88
341.655	2.88
342.444	2.88
343.233	3.88
344.022	1.88
344.811	2.88
345.6	3.88
346.388	3.88
347.177	4.88
347.965	6.88
348.754	1.88
349.542	2.88
350.33	0.88
351.119	3.88
351.907	1.88
352.695	4.88
353.483	3.88
354.271	1.88
355.059	1.88
355.846	1.88
356.634	4.88
357.422	1.88
358.209	1.88
358.997	3.88
359.784	2.88
360.571	4.88
361.359	4.88
362.146	4.88
362.933	2.88
363.72	0.88
364.507	2.88
365.294	2.88
366.081	2.88
366.867	0.88
367.654	2.88
368.44	3.88
369.227	2.88
370.013	0.88
370.8	6.88
371.586	5.88
372.372	0.88
373.158	3.88
373.944	3.88
374.73	1.88
375.516	2.88
376.302	0.88
377.088	1.88
377.873	1.88
378.659	1.88
379.445	2.88
380.23	0.88
381.015	3.88
381.801	2.88
382.586	1.88
383.371	4.88
384.156	0.88
384.941	2.88
385.726	1.88
386.511	0.88
387.296	2.88
388.08	2.88
388.865	0.88
389.649	2.88
390.434	1.88
391.218	0.88
392.003	4.88
392.787	0.88
393.571	2.88
394.355	3.88
395.139	1.88
395.923	4.88
396.707	4.88
397.491	2.88
398.274	3.88
399.058	2.88
399.842	4.88
400.625	0.88
401.408	4.88
402.192	3.88
402.975	3.88
403.758	4.88
404.541	4.88
405.324	3.88
406.107	4.88
406.89	3.88
407.673	4.88
408.456	4.88
409.238	2.88
410.021	4.88
410.803	1.88
411.586	3.88
412.368	5.88
413.151	5.88
413.933	4.88
414.715	4.88
415.497	3.88
416.279	2.88
417.061	3.88
417.843	5.88
418.624	4.88
419.406	4.88
420.188	6.88
420.969	4.88
421.751	6.88
422.532	1.88
423.313	4.88
424.095	5.88
424.876	6.88
425.657	4.88
426.438	4.88
427.219	5.88
428	3.88
428.78	6.88
429.561	5.88
430.342	5.88
431.122	7.88
431.903	8.88
432.683	6.88
433.464	7.88
434.244	8.88
435.024	7.88
435.804	7.88
436.584	9.88
437.364	8.88
438.144	10.88
438.924	7.88
439.704	11.88
440.483	10.88
441.263	10.88
442.042	14.88
442.822	9.88
443.601	12.88
444.38	18.88
445.16	12.88
445.939	15.88
446.718	13.88
447.497	18.88
448.276	20.88
449.054	20.88
449.833	23.88
450.612	22.88
451.391	23.88
452.169	29.88
452.948	29.88
453.726	32.88
454.504	37.88
455.282	38.88
456.061	44.88
456.839	45.88
457.617	48.88
458.395	57.88
459.172	62.88
459.95	68.88
460.728	78.88
461.506	88.88
462.283	95.88
463.061	103.88
463.838	123.88
464.615	129.88
465.393	144.88
466.17	165.88
466.947	183.88
467.724	208.88
468.501	226.88
469.278	261.88
470.055	280.88
470.831	321.88
471.608	356.88
472.385	396.88
473.161	444.88
473.938	488.88
474.714	540.88
475.49	613.88
476.266	689.88
477.043	758.88
477.819	836.88
478.595	929.88
479.371	1031.88
480.146	1140.88
480.922	1267.88
481.698	1404.88
482.473	1564.88
483.249	1718.88
484.024	1880.88
484.8	2093.88
485.575	2324.88
486.35	2556.88
487.126	2840.88
487.901	3128.88
488.676	3442.88
489.451	3816.88
490.225	4206.88
491	4651.88
491.775	5126.88
492.55	5620.88
493.324	6198.88
494.099	6763.88
494.873	7426.88
495.647	8108.88
496.422	8797.88
497.196	9570.88
497.97	10333.88
498.744	11165.88
499.518	11892.88
500.292	12728.88
501.066	13448.88
501.839	14128.88
502.613	14833.88
503.387	15497.88
504.16	16011.88
504.934	16435.88
505.707	16798.88
506.48	16954.88
507.253	17017.88
508.027	17130.88
508.8	16986.88
509.573	16759.88
510.346	16402.88
511.118	15963.88
511.891	15521.88
512.664	14972.88
513.437	14470.88
514.209	13773.88
514.982	13266.88
515.754	12705.88
516.526	12109.88
517.298	11560.88
518.071	11007.88
518.843	10552.88
519.615	10108.88
520.387	9654.88
521.159	9306.88
521.93	8953.88
522.702	8553.88
523.474	8230.88
524.245	7929.88
525.017	7600.88
525.788	7261.88
526.56	7004.88
527.331	6695.88
528.102	6385.88
528.873	6114.88
529.644	5816.88
530.415	5529.88
531.186	5243.88
531.957	4984.88
532.728	4727.88
533.498	4465.88
534.269	4235.88
535.039	3976.88
535.81	3787.88
536.58	3542.88
537.351	3358.88
538.121	3164.88
538.891	2983.88
539.661	2804.88
540.431	2675.88
541.201	2539.88
541.971	2396.88
542.741	2262.88
543.51	2141.88
544.28	2040.88
545.05	1939.88
545.819	1849.88
546.588	1734.88
547.358	1688.88
548.127	1588.88
548.896	1512.88
549.665	1437.88
550.434	1360.88
551.203	1283.88
551.972	1223.88
552.741	1149.88
553.51	1107.88
554.278	1027.88
555.047	969.88
555.815	918.88
556.584	869.88
557.352	821.88
558.121	775.88
558.889	720.88
559.657	682.88
560.425	642.88
561.193	597.88
561.961	567.88
562.729	534.88
563.496	501.88
564.264	473.88
565.032	456.88
565.799	421.88
566.567	400.88
567.334	373.88
568.101	362.88
568.869	341.88
569.636	319.88
570.403	299.88
571.17	283.88
571.937	267.88
572.704	256.88
573.471	239.88
574.237	223.88
575.004	213.88
575.771	199.88
576.537	189.88
577.303	178.88
578.07	164.88
578.836	158.88
579.602	148.88
580.368	140.88
581.134	125.88
581.9	126.88
582.666	118.88
583.432	111.88
584.198	107.88
584.964	102.88
585.729	92.88
586.495	85.88
587.26	85.88
588.025	78.88
588.791	75.88
589.556	70.88
590.321	62.88
591.086	67.88
591.851	60.88
592.616	58.88
593.381	57.88
594.146	49.88
594.911	48.88
595.675	42.88
596.44	44.88
597.204	41.88
597.969	39.88
598.733	37.88
599.497	36.88
600.261	36.88
601.025	32.88
601.79	31.88
602.553	28.88
603.317	29.88
604.081	28.88
604.845	27.88
605.609	24.88
606.372	23.88
607.136	22.88
607.899	21.88
608.662	21.88
609.426	19.88
610.189	20.88
610.952	18.88
611.715	16.88
612.478	18.88
613.241	15.88
614.004	17.88
614.767	15.88
615.529	12.88
616.292	11.88
617.055	13.88
617.817	14.88
618.579	11.88
619.342	13.88
620.104	9.88
620.866	11.88
621.628	11.88
622.39	10.88
623.152	7.88
623.914	9.88
624.676	9.88
625.438	9.88
626.199	8.88
626.961	9.88
627.722	8.88
628.484	9.88
629.245	8.88
630.006	7.88
630.768	5.88
631.529	7.88
632.29	6.88
633.051	5.88
633.812	6.88
634.573	2.88
635.333	6.88
636.094	6.88
636.855	4.88
637.615	7.88
638.376	2.88
639.136	4.88
639.896	6.88
640.657	5.88
641.417	5.88
642.177	5.88
642.937	4.88
643.697	3.88
644.457	6.88
645.216	5.88
645.976	4.88
646.736	1.88
647.495	4.88
648.255	3.88
649.014	3.88
649.774	3.88
650.533	5.88
651.292	2.88
652.051	5.88
652.81	3.88
653.569	4.88
654.328	4.88
655.087	2.88
655.846	3.88
656.604	1.88
657.363	5.88
658.121	0.88
658.88	4.88
659.638	1.88
660.397	2.88
661.155	3.88
661.913	3.88
662.671	2.88
663.429	0.88
664.187	2.88
664.945	3.88
665.703	0.88
666.46	0.88
667.218	1.88
667.976	2.88
668.733	3.88
669.49	4.88
670.248	4.88
671.005	4.88
671.762	4.88
672.519	2.88
673.276	1.88
674.033	1.88
674.79	2.88
675.547	6.88
676.304	3.88
677.06	3.88
677.817	1.88
678.574	2.88
679.33	0.88
680.086	4.88
680.843	1.88
681.599	1.88
682.355	2.88
683.111	2.88
683.867	2.88
684.623	2.88
685.379	1.88
686.135	1.88
686.89	4.88
687.646	1.88
688.402	-0.12
689.157	1.88
689.912	1.88
690.668	1.88
691.423	0.88
692.178	2.88
692.933	1.88
693.688	1.88
694.443	3.88
695.198	0.88
695.953	1.88
696.708	1.88
697.462	2.88
698.217	1.88
698.972	-1.12
699.726	3.88
700.48	0.88
701.235	2.88
701.989	2.88
702.743	1.88
703.497	1.88
704.251	-1.12
705.005	1.88
705.759	2.88
706.513	0.88
707.266	2.88
708.02	1.88
708.774	3.88
709.527	2.88
710.28	1.88
711.034	2.88
711.787	-2.12
712.54	-0.12
713.293	1.88
714.046	2.88
714.799	-0.12
715.552	1.88
716.305	2.88
717.058	1.88
717.81	2.88
718.563	-0.12
719.315	2.88
720.068	3.88
720.82	2.88
721.573	0.88
722.325	1.88
723.077	0.88
723.829	1.88
724.581	1.88
725.333	0.88
726.085	2.88
726.836	1.88
727.588	2.88
728.34	2.88
729.091	1.88
729.843	2.88
730.594	1.88
731.346	0.88
732.097	3.88
732.848	1.88
733.599	2.88
734.35	-0.12
735.101	2.88
735.852	2.88
736.603	1.88
737.354	0.88
738.104	1.88
738.855	2.88
739.605	1.88
740.356	4.88
741.106	1.88
741.856	0.88
742.607	2.88
743.357	0.88
744.107	5.88
744.857	1.88
745.607	2.88
746.357	2.88
747.106	1.88
747.856	-2.12
748.606	1.88
749.355	2.88
750.105	3.88
750.854	2.88
751.603	2.88
752.353	1.88
753.102	1.88
753.851	3.88
754.6	2.88
755.349	2.88
756.098	2.88
756.847	3.88
757.595	2.88
758.344	4.88
759.093	3.88
759.841	1.88
760.589	1.88
761.338	4.88
762.086	2.88
762.834	5.88
763.582	3.88
764.331	3.88
765.079	3.88
765.826	1.88
766.574	2.88
767.322	5.88
768.07	2.88
768.817	5.88
769.565	3.88
770.312	4.88
771.06	3.88
771.807	2.88
772.554	3.88
773.302	4.88
774.049	5.88
774.796	3.88
775.543	3.88
776.29	5.88
777.036	4.88
777.783	4.88
778.53	4.88
779.276	5.88
780.023	5.88
780.769	3.88
781.516	5.88
782.262	3.88
783.008	5.88
783.754	6.88
784.5	5.88
785.246	3.88
785.992	3.88
786.738	8.88
787.484	3.88
788.23	4.88
788.975	4.88
789.721	5.88
790.466	7.88
791.212	4.88
791.957	5.88
792.702	4.88
793.447	5.88
794.193	4.88
794.938	3.88
795.683	3.88
796.427	4.88
797.172	2.88
797.917	4.88
798.662	3.88
799.406	3.88
800.151	4.88
800.895	4.88
801.64	3.88
802.384	3.88
803.128	2.88
803.872	4.88
804.616	3.88
805.36	4.88
806.104	4.88
806.848	1.88
807.592	2.88
808.336	2.88
809.079	4.88
809.823	2.88
810.566	4.88
811.31	4.88
812.053	2.88
812.796	4.88
813.539	0.88
814.283	1.88
815.026	-0.12
815.769	5.88
816.511	3.88
817.254	2.88
817.997	3.88
818.74	1.88
819.482	4.88
820.225	2.88
820.967	3.88
821.71	2.88
822.452	3.88
823.194	3.88
823.936	1.88
824.678	4.88
825.42	2.88
826.162	3.88
826.904	1.88
827.646	1.88
828.388	2.88
829.129	3.88
829.871	1.88
830.612	2.88
831.354	2.88
832.095	3.88
832.836	3.88
833.577	1.88
834.319	1.88
835.06	-0.12
835.801	1.88
836.542	0.88
837.282	1.88
838.023	2.88
838.764	3.88
839.504	1.88
840.245	2.88
840.985	1.88
841.726	0.88
842.466	1.88
843.206	0.88
843.946	1.88
844.687	0.88
845.427	0.88
846.166	0.88
846.906	1.88
847.646	1.88
848.386	0.88
849.125	2.88
849.865	3.88
850.605	0.88
851.344	2.88
852.083	0.88
852.823	0.88
853.562	-0.12
854.301	2.88
855.04	0.88
855.779	3.88
856.518	-0.12
857.257	-0.12
857.995	1.88
858.734	0.88
859.473	0.88
860.211	-0.12
860.95	1.88
861.688	-1.12
862.426	3.88
863.165	2.88
863.903	0.88
864.641	-0.12
865.379	3.88
866.117	-0.12
866.855	0.88
867.593	-0.12
868.33	1.88
869.068	-2.12
869.806	0.88
870.543	0.88
871.28	2.88
872.018	-0.12
872.755	-0.12
873.492	-0.12
874.229	-1.12
874.967	1.88
875.703	-1.12
876.44	2.88
877.177	2.88
877.914	-0.12
878.651	0.88
879.387	0.88
880.124	-1.12
880.86	-0.12
881.597	0.88
882.333	1.88
883.069	0.88
883.806	1.88
884.542	-0.12
885.278	0.88
886.014	0.88
886.749	-0.12
887.485	0.88
888.221	-1.12
888.957	-0.12
889.692	-0.12
890.428	1.88
891.163	-0.12
891.899	1.88
892.634	-0.12
893.369	0.88
894.104	0.88
894.839	-0.12
895.574	0.88
896.309	-1.12
897.044	1.88
897.779	-0.12
898.514	0.88
899.248	1.88
899.983	-0.12
900.717	-0.12
901.452	-0.12
902.186	1.88
902.92	1.88
903.654	-1.12
904.389	-0.12
905.123	1.88
905.857	1.88
906.59	0.88
907.324	0.88
908.058	0.88
908.792	-0.12
909.525	-0.12
910.259	-0.12
910.992	0.88
911.726	0.88
912.459	-0.12
913.192	0.88
913.925	0.88
914.658	0.88
915.391	1.88
916.124	-0.12
916.857	0.88
917.59	-2.12
918.323	0.88
919.055	1.88
919.788	0.88
920.521	0.88
921.253	-0.12
921.985	-0.12
922.718	-0.12
923.45	-0.12
924.182	-0.12
924.914	-0.12
925.646	-0.12
926.378	-0.12
927.11	1.88
927.841	1.88
928.573	0.88
929.305	-0.12
930.036	0.88
930.768	-0.12
931.499	0.88
932.23	-1.12
932.962	-1.12
933.693	-0.12
934.424	-0.12
935.155	0.88
935.886	0.88
936.617	-0.12
937.348	2.88
938.078	-2.12
938.809	-0.12
939.54	0.88
940.27	1.88
941.001	-1.12
941.731	1.88
942.461	-1.12
943.191	-1.12
943.922	2.88
944.652	0.88
945.382	-1.12
946.112	0.88
946.841	-0.12
947.571	1.88
948.301	-2.12
949.031	-0.12
949.76	-1.12
950.49	0.88
951.219	-1.12
951.948	-2.12
952.678	0.88
953.407	-1.12
954.136	-1.12
954.865	0.88
955.594	1.88
956.323	-0.12
957.052	-1.12
957.78	0.88
958.509	-1.12
959.238	0.88
959.966	-2.12
960.695	-0.12
961.423	0.88
962.151	-0.12
962.88	-0.12
963.608	0.88
964.336	-0.12
965.064	1.88
965.792	-0.12
966.52	0.88
967.247	-1.12
967.975	-0.12
968.703	1.88
969.43	1.88
970.158	-2.12
970.885	-2.12
971.613	-1.12
972.34	0.88
973.067	-0.12
973.794	-1.12
974.521	-0.12
975.248	-1.12
975.975	-0.12
976.702	-1.12
977.429	-1.12
978.156	0.88
978.882	1.88
979.609	-0.12
980.335	0.88
981.062	0.88
981.788	-0.12
982.514	-0.12
983.24	-0.12
983.967	-2.12
984.693	0.88
985.419	-0.12
986.144	-0.12
986.87	-0.12
987.596	-1.12
988.322	-0.12
989.047	-2.12
989.773	0.88
990.498	-0.12
991.224	0.88
991.949	-0.12
992.674	0.88
993.399	-1.12
994.124	0.88
994.849	-0.12
995.574	0.88
996.299	-1.12
997.024	-1.12
997.749	-2.12
998.473	1.88
999.198	1.88
999.922	0.88
1000.647	-2.12
1001.371	2.88
1002.095	0.88
1002.82	-1.12
1003.544	-2.12
1004.268	-0.12
1004.992	0.88
1005.716	-2.12
1006.439	-1.12
1007.163	-1.12
1007.887	0.88
1008.611	-0.12
1009.334	0.88
1010.058	2.88
1010.781	-3.12
1011.504	-0.12
1012.228	0.88
1012.951	0.88
1013.674	-2.12
1014.397	0.88
1015.12	-0.12
