节点500_145_QEPB04081__83__11-30-17-643.txt的数据

Date: Wed Nov 12 11:30:17 CST 2025
User: PC
Spectrometer: QEPB0408
触发模式: 0
积分时间 (秒): 1.000000E-2
Scans to average: 1
启用暗噪声校正: true
启用非线性校正: false
滑动平均宽度: 0
X轴模式: Wavelengths
Number of Pixels in Spectrum: 1044
>>>>>Begin Spectral Data<<<<<
220.843	1.5
221.644	-0.5
222.444	1.5
223.244	0.5
224.045	2.5
224.845	2.5
225.645	0.5
226.445	1.5
227.245	-1.5
228.045	1.5
228.845	1.5
229.645	0.5
230.444	0.5
231.244	1.5
232.043	2.5
232.843	2.5
233.642	1.5
234.442	-0.5
235.241	3.5
236.04	2.5
236.839	-1.5
237.638	1.5
238.437	0.5
239.236	2.5
240.035	1.5
240.833	2.5
241.632	2.5
242.43	0.5
243.229	2.5
244.027	1.5
244.826	-0.5
245.624	1.5
246.422	0.5
247.22	1.5
248.018	2.5
248.816	4.5
249.614	2.5
250.412	5.5
251.21	4.5
252.007	3.5
252.805	4.5
253.602	3.5
254.4	2.5
255.197	3.5
255.994	1.5
256.791	3.5
257.589	3.5
258.386	4.5
259.183	4.5
259.979	5.5
260.776	5.5
261.573	3.5
262.37	4.5
263.166	4.5
263.963	6.5
264.759	7.5
265.556	7.5
266.352	5.5
267.148	8.5
267.944	5.5
268.74	9.5
269.536	5.5
270.332	7.5
271.128	9.5
271.924	7.5
272.719	8.5
273.515	10.5
274.311	7.5
275.106	10.5
275.901	9.5
276.697	9.5
277.492	10.5
278.287	9.5
279.082	9.5
279.877	9.5
280.672	8.5
281.467	12.5
282.262	11.5
283.056	9.5
283.851	11.5
284.646	12.5
285.44	13.5
286.234	10.5
287.029	12.5
287.823	10.5
288.617	11.5
289.411	11.5
290.205	12.5
290.999	11.5
291.793	11.5
292.587	14.5
293.381	12.5
294.174	11.5
294.968	9.5
295.761	9.5
296.555	10.5
297.348	11.5
298.141	11.5
298.935	9.5
299.728	11.5
300.521	11.5
301.314	10.5
302.107	11.5
302.899	7.5
303.692	8.5
304.485	7.5
305.277	10.5
306.07	9.5
306.862	7.5
307.655	8.5
308.447	7.5
309.239	8.5
310.031	9.5
310.823	7.5
311.615	5.5
312.407	7.5
313.199	6.5
313.991	6.5
314.783	5.5
315.574	6.5
316.366	3.5
317.157	7.5
317.949	6.5
318.74	4.5
319.531	4.5
320.322	7.5
321.113	4.5
321.904	6.5
322.695	6.5
323.486	6.5
324.277	4.5
325.068	5.5
325.858	5.5
326.649	4.5
327.439	5.5
328.23	2.5
329.02	2.5
329.81	6.5
330.6	3.5
331.391	2.5
332.181	1.5
332.971	3.5
333.76	3.5
334.55	4.5
335.34	5.5
336.13	4.5
336.919	3.5
337.709	4.5
338.498	2.5
339.287	4.5
340.077	2.5
340.866	2.5
341.655	2.5
342.444	4.5
343.233	4.5
344.022	3.5
344.811	2.5
345.6	4.5
346.388	4.5
347.177	5.5
347.965	3.5
348.754	3.5
349.542	4.5
350.33	4.5
351.119	2.5
351.907	3.5
352.695	2.5
353.483	1.5
354.271	3.5
355.059	1.5
355.846	2.5
356.634	2.5
357.422	3.5
358.209	2.5
358.997	3.5
359.784	3.5
360.571	-0.5
361.359	5.5
362.146	1.5
362.933	2.5
363.72	2.5
364.507	2.5
365.294	4.5
366.081	1.5
366.867	1.5
367.654	2.5
368.44	4.5
369.227	2.5
370.013	3.5
370.8	4.5
371.586	1.5
372.372	3.5
373.158	3.5
373.944	4.5
374.73	4.5
375.516	3.5
376.302	3.5
377.088	0.5
377.873	5.5
378.659	0.5
379.445	2.5
380.23	1.5
381.015	3.5
381.801	2.5
382.586	0.5
383.371	2.5
384.156	2.5
384.941	1.5
385.726	4.5
386.511	4.5
387.296	3.5
388.08	2.5
388.865	1.5
389.649	4.5
390.434	2.5
391.218	1.5
392.003	4.5
392.787	2.5
393.571	2.5
394.355	5.5
395.139	3.5
395.923	2.5
396.707	3.5
397.491	1.5
398.274	4.5
399.058	5.5
399.842	4.5
400.625	5.5
401.408	3.5
402.192	3.5
402.975	3.5
403.758	6.5
404.541	2.5
405.324	4.5
406.107	4.5
406.89	7.5
407.673	5.5
408.456	3.5
409.238	5.5
410.021	5.5
410.803	6.5
411.586	6.5
412.368	2.5
413.151	5.5
413.933	3.5
414.715	4.5
415.497	6.5
416.279	5.5
417.061	6.5
417.843	4.5
418.624	5.5
419.406	5.5
420.188	4.5
420.969	6.5
421.751	7.5
422.532	6.5
423.313	5.5
424.095	6.5
424.876	5.5
425.657	7.5
426.438	6.5
427.219	6.5
428	8.5
428.78	5.5
429.561	7.5
430.342	7.5
431.122	8.5
431.903	8.5
432.683	6.5
433.464	9.5
434.244	7.5
435.024	10.5
435.804	8.5
436.584	10.5
437.364	10.5
438.144	9.5
438.924	12.5
439.704	11.5
440.483	11.5
441.263	13.5
442.042	13.5
442.822	14.5
443.601	14.5
444.38	15.5
445.16	14.5
445.939	17.5
446.718	16.5
447.497	16.5
448.276	21.5
449.054	20.5
449.833	23.5
450.612	22.5
451.391	24.5
452.169	28.5
452.948	29.5
453.726	29.5
454.504	33.5
455.282	40.5
456.061	41.5
456.839	43.5
457.617	51.5
458.395	54.5
459.172	60.5
459.95	67.5
460.728	74.5
461.506	82.5
462.283	91.5
463.061	100.5
463.838	114.5
464.615	129.5
465.393	140.5
466.17	156.5
466.947	171.5
467.724	200.5
468.501	220.5
469.278	255.5
470.055	281.5
470.831	309.5
471.608	353.5
472.385	394.5
473.161	434.5
473.938	490.5
474.714	542.5
475.49	600.5
476.266	659.5
477.043	737.5
477.819	819.5
478.595	913.5
479.371	1017.5
480.146	1129.5
480.922	1264.5
481.698	1383.5
482.473	1547.5
483.249	1724.5
484.024	1901.5
484.8	2089.5
485.575	2327.5
486.35	2588.5
487.126	2867.5
487.901	3162.5
488.676	3519.5
489.451	3895.5
490.225	4308.5
491	4742.5
491.775	5271.5
492.55	5796.5
493.324	6379.5
494.099	6989.5
494.873	7639.5
495.647	8357.5
496.422	9121.5
497.196	9878.5
497.97	10675.5
498.744	11463.5
499.518	12255.5
500.292	13097.5
501.066	13846.5
501.839	14572.5
502.613	15285.5
503.387	15954.5
504.16	16440.5
504.934	16836.5
505.707	17116.5
506.48	17306.5
507.253	17408.5
508.027	17365.5
508.8	17165.5
509.573	16890.5
510.346	16635.5
511.118	16077.5
511.891	15574.5
512.664	15016.5
513.437	14440.5
514.209	13841.5
514.982	13251.5
515.754	12629.5
516.526	12047.5
517.298	11481.5
518.071	10981.5
518.843	10496.5
519.615	10045.5
520.387	9631.5
521.159	9255.5
521.93	8893.5
522.702	8553.5
523.474	8187.5
524.245	7870.5
525.017	7574.5
525.788	7248.5
526.56	6968.5
527.331	6674.5
528.102	6356.5
528.873	6066.5
529.644	5785.5
530.415	5508.5
531.186	5228.5
531.957	4938.5
532.728	4687.5
533.498	4449.5
534.269	4158.5
535.039	3933.5
535.81	3725.5
536.58	3487.5
537.351	3296.5
538.121	3115.5
538.891	2949.5
539.661	2800.5
540.431	2650.5
541.201	2495.5
541.971	2341.5
542.741	2233.5
543.51	2113.5
544.28	2014.5
545.05	1914.5
545.819	1820.5
546.588	1738.5
547.358	1646.5
548.127	1566.5
548.896	1491.5
549.665	1398.5
550.434	1343.5
551.203	1261.5
551.972	1190.5
552.741	1152.5
553.51	1067.5
554.278	1010.5
555.047	958.5
555.815	905.5
556.584	844.5
557.352	797.5
558.121	744.5
558.889	705.5
559.657	661.5
560.425	628.5
561.193	598.5
561.961	549.5
562.729	528.5
563.496	508.5
564.264	470.5
565.032	439.5
565.799	418.5
566.567	391.5
567.334	378.5
568.101	353.5
568.869	335.5
569.636	313.5
570.403	298.5
571.17	281.5
571.937	265.5
572.704	246.5
573.471	235.5
574.237	226.5
575.004	210.5
575.771	201.5
576.537	184.5
577.303	173.5
578.07	163.5
578.836	156.5
579.602	142.5
580.368	133.5
581.134	134.5
581.9	127.5
582.666	116.5
583.432	112.5
584.198	102.5
584.964	98.5
585.729	92.5
586.495	89.5
587.26	84.5
588.025	80.5
588.791	76.5
589.556	71.5
590.321	66.5
591.086	62.5
591.851	63.5
592.616	59.5
593.381	55.5
594.146	52.5
594.911	49.5
595.675	48.5
596.44	45.5
597.204	41.5
597.969	41.5
598.733	39.5
599.497	37.5
600.261	31.5
601.025	31.5
601.79	30.5
602.553	29.5
603.317	31.5
604.081	28.5
604.845	27.5
605.609	26.5
606.372	23.5
607.136	27.5
607.899	22.5
608.662	21.5
609.426	23.5
610.189	19.5
610.952	17.5
611.715	20.5
612.478	17.5
613.241	17.5
614.004	17.5
614.767	16.5
615.529	14.5
616.292	14.5
617.055	15.5
617.817	12.5
618.579	14.5
619.342	14.5
620.104	12.5
620.866	13.5
621.628	12.5
622.39	9.5
623.152	10.5
623.914	8.5
624.676	10.5
625.438	8.5
626.199	12.5
626.961	9.5
627.722	10.5
628.484	7.5
629.245	9.5
630.006	7.5
630.768	7.5
631.529	9.5
632.29	6.5
633.051	9.5
633.812	8.5
634.573	6.5
635.333	7.5
636.094	7.5
636.855	8.5
637.615	5.5
638.376	6.5
639.136	4.5
639.896	5.5
640.657	6.5
641.417	1.5
642.177	7.5
642.937	5.5
643.697	5.5
644.457	4.5
645.216	4.5
645.976	4.5
646.736	4.5
647.495	6.5
648.255	4.5
649.014	7.5
649.774	5.5
650.533	4.5
651.292	5.5
652.051	6.5
652.81	5.5
653.569	3.5
654.328	4.5
655.087	5.5
655.846	3.5
656.604	5.5
657.363	3.5
658.121	4.5
658.88	2.5
659.638	5.5
660.397	2.5
661.155	3.5
661.913	3.5
662.671	4.5
663.429	2.5
664.187	1.5
664.945	4.5
665.703	2.5
666.46	3.5
667.218	4.5
667.976	3.5
668.733	4.5
669.49	1.5
670.248	3.5
671.005	3.5
671.762	2.5
672.519	3.5
673.276	3.5
674.033	4.5
674.79	1.5
675.547	2.5
676.304	3.5
677.06	3.5
677.817	3.5
678.574	3.5
679.33	0.5
680.086	3.5
680.843	0.5
681.599	1.5
682.355	1.5
683.111	2.5
683.867	0.5
684.623	2.5
685.379	2.5
686.135	1.5
686.89	3.5
687.646	2.5
688.402	0.5
689.157	0.5
689.912	1.5
690.668	2.5
691.423	3.5
692.178	2.5
692.933	1.5
693.688	3.5
694.443	3.5
695.198	0.5
695.953	4.5
696.708	2.5
697.462	2.5
698.217	1.5
698.972	1.5
699.726	4.5
700.48	2.5
701.235	1.5
701.989	2.5
702.743	2.5
703.497	2.5
704.251	5.5
705.005	1.5
705.759	2.5
706.513	2.5
707.266	1.5
708.02	3.5
708.774	1.5
709.527	2.5
710.28	1.5
711.034	4.5
711.787	2.5
712.54	1.5
713.293	1.5
714.046	1.5
714.799	4.5
715.552	1.5
716.305	-0.5
717.058	2.5
717.81	0.5
718.563	2.5
719.315	4.5
720.068	1.5
720.82	1.5
721.573	1.5
722.325	4.5
723.077	2.5
723.829	1.5
724.581	2.5
725.333	1.5
726.085	2.5
726.836	1.5
727.588	4.5
728.34	4.5
729.091	3.5
729.843	1.5
730.594	3.5
731.346	2.5
732.097	1.5
732.848	4.5
733.599	2.5
734.35	2.5
735.101	2.5
735.852	1.5
736.603	2.5
737.354	3.5
738.104	4.5
738.855	1.5
739.605	4.5
740.356	2.5
741.106	0.5
741.856	3.5
742.607	0.5
743.357	3.5
744.107	1.5
744.857	2.5
745.607	1.5
746.357	1.5
747.106	4.5
747.856	2.5
748.606	2.5
749.355	2.5
750.105	5.5
750.854	2.5
751.603	3.5
752.353	2.5
753.102	4.5
753.851	1.5
754.6	2.5
755.349	4.5
756.098	5.5
756.847	4.5
757.595	2.5
758.344	3.5
759.093	3.5
759.841	2.5
760.589	5.5
761.338	4.5
762.086	1.5
762.834	5.5
763.582	4.5
764.331	6.5
765.079	6.5
765.826	5.5
766.574	4.5
767.322	5.5
768.07	4.5
768.817	4.5
769.565	7.5
770.312	4.5
771.06	4.5
771.807	3.5
772.554	4.5
773.302	6.5
774.049	3.5
774.796	5.5
775.543	6.5
776.29	3.5
777.036	7.5
777.783	6.5
778.53	7.5
779.276	6.5
780.023	5.5
780.769	5.5
781.516	5.5
782.262	6.5
783.008	3.5
783.754	6.5
784.5	6.5
785.246	6.5
785.992	5.5
786.738	7.5
787.484	6.5
788.23	3.5
788.975	4.5
789.721	7.5
790.466	5.5
791.212	6.5
791.957	3.5
792.702	7.5
793.447	5.5
794.193	7.5
794.938	4.5
795.683	7.5
796.427	6.5
797.172	2.5
797.917	4.5
798.662	7.5
799.406	7.5
800.151	4.5
800.895	4.5
801.64	3.5
802.384	5.5
803.128	7.5
803.872	5.5
804.616	4.5
805.36	4.5
806.104	4.5
806.848	5.5
807.592	2.5
808.336	7.5
809.079	5.5
809.823	4.5
810.566	6.5
811.31	4.5
812.053	4.5
812.796	2.5
813.539	4.5
814.283	4.5
815.026	4.5
815.769	1.5
816.511	2.5
817.254	6.5
817.997	3.5
818.74	5.5
819.482	0.5
820.225	4.5
820.967	2.5
821.71	0.5
822.452	3.5
823.194	1.5
823.936	2.5
824.678	2.5
825.42	1.5
826.162	4.5
826.904	1.5
827.646	2.5
828.388	4.5
829.129	3.5
829.871	5.5
830.612	2.5
831.354	3.5
832.095	3.5
832.836	2.5
833.577	2.5
834.319	3.5
835.06	3.5
835.801	2.5
836.542	3.5
837.282	2.5
838.023	3.5
838.764	5.5
839.504	1.5
840.245	2.5
840.985	2.5
841.726	2.5
842.466	2.5
843.206	4.5
843.946	2.5
844.687	5.5
845.427	3.5
846.166	2.5
846.906	2.5
847.646	1.5
848.386	1.5
849.125	4.5
849.865	1.5
850.605	2.5
851.344	4.5
852.083	2.5
852.823	1.5
853.562	2.5
854.301	2.5
855.04	2.5
855.779	3.5
856.518	3.5
857.257	2.5
857.995	0.5
858.734	2.5
859.473	3.5
860.211	2.5
860.95	-0.5
861.688	-0.5
862.426	1.5
863.165	3.5
863.903	2.5
864.641	3.5
865.379	-1.5
866.117	1.5
866.855	1.5
867.593	2.5
868.33	2.5
869.068	1.5
869.806	-0.5
870.543	2.5
871.28	1.5
872.018	1.5
872.755	2.5
873.492	2.5
874.229	1.5
874.967	1.5
875.703	2.5
876.44	1.5
877.177	2.5
877.914	0.5
878.651	0.5
879.387	2.5
880.124	-0.5
880.86	0.5
881.597	1.5
882.333	0.5
883.069	1.5
883.806	1.5
884.542	0.5
885.278	0.5
886.014	1.5
886.749	0.5
887.485	2.5
888.221	-0.5
888.957	2.5
889.692	-1.5
890.428	2.5
891.163	2.5
891.899	1.5
892.634	1.5
893.369	-0.5
894.104	2.5
894.839	1.5
895.574	1.5
896.309	2.5
897.044	1.5
897.779	0.5
898.514	-0.5
899.248	3.5
899.983	-0.5
900.717	3.5
901.452	2.5
902.186	2.5
902.92	1.5
903.654	-0.5
904.389	-0.5
905.123	-0.5
905.857	2.5
906.59	2.5
907.324	-0.5
908.058	0.5
908.792	0.5
909.525	1.5
910.259	-1.5
910.992	0.5
911.726	-1.5
912.459	-0.5
913.192	0.5
913.925	0.5
914.658	2.5
915.391	-1.5
916.124	2.5
916.857	0.5
917.59	-1.5
918.323	3.5
919.055	-1.5
919.788	0.5
920.521	-0.5
921.253	-0.5
921.985	0.5
922.718	0.5
923.45	0.5
924.182	0.5
924.914	1.5
925.646	0.5
926.378	2.5
927.11	-0.5
927.841	0.5
928.573	3.5
929.305	-0.5
930.036	0.5
930.768	0.5
931.499	-1.5
932.23	1.5
932.962	-0.5
933.693	0.5
934.424	-1.5
935.155	1.5
935.886	-1.5
936.617	1.5
937.348	-0.5
938.078	0.5
938.809	-0.5
939.54	1.5
940.27	-0.5
941.001	-1.5
941.731	-1.5
942.461	-0.5
943.191	2.5
943.922	-0.5
944.652	0.5
945.382	-0.5
946.112	2.5
946.841	1.5
947.571	0.5
948.301	-0.5
949.031	1.5
949.76	0.5
950.49	1.5
951.219	1.5
951.948	-0.5
952.678	2.5
953.407	-1.5
954.136	1.5
954.865	-0.5
955.594	-1.5
956.323	2.5
957.052	1.5
957.78	2.5
958.509	-0.5
959.238	0.5
959.966	0.5
960.695	1.5
961.423	1.5
962.151	1.5
962.88	0.5
963.608	-1.5
964.336	0.5
965.064	-1.5
965.792	1.5
966.52	3.5
967.247	2.5
967.975	1.5
968.703	0.5
969.43	2.5
970.158	0.5
970.885	0.5
971.613	0.5
972.34	0.5
973.067	1.5
973.794	-1.5
974.521	1.5
975.248	-0.5
975.975	1.5
976.702	1.5
977.429	2.5
978.156	1.5
978.882	-1.5
979.609	1.5
980.335	-0.5
981.062	1.5
981.788	2.5
982.514	0.5
983.24	3.5
983.967	1.5
984.693	2.5
985.419	0.5
986.144	0.5
986.87	-0.5
987.596	1.5
988.322	0.5
989.047	2.5
989.773	-1.5
990.498	0.5
991.224	0.5
991.949	1.5
992.674	0.5
993.399	1.5
994.124	0.5
994.849	3.5
995.574	-0.5
996.299	-0.5
997.024	2.5
997.749	0.5
998.473	0.5
999.198	1.5
999.922	-0.5
1000.647	0.5
1001.371	3.5
1002.095	-0.5
1002.82	-1.5
1003.544	0.5
1004.268	-0.5
1004.992	-1.5
1005.716	-0.5
1006.439	0.5
1007.163	0.5
1007.887	0.5
1008.611	1.5
1009.334	0.5
1010.058	-0.5
1010.781	1.5
1011.504	0.5
1012.228	1.5
1012.951	-0.5
1013.674	-1.5
1014.397	0.5
1015.12	-0.5
