节点500_145_QEPB04081__361__11-34-43-567.txt的数据

Date: Wed Nov 12 11:34:43 CST 2025
User: PC
Spectrometer: QEPB0408
触发模式: 0
积分时间 (秒): 1.000000E-2
Scans to average: 1
启用暗噪声校正: true
启用非线性校正: false
滑动平均宽度: 0
X轴模式: Wavelengths
Number of Pixels in Spectrum: 1044
>>>>>Begin Spectral Data<<<<<
220.843	-0.88
221.644	0.12
222.444	-0.88
223.244	-1.88
224.045	-0.88
224.845	1.12
225.645	1.12
226.445	1.12
227.245	-0.88
228.045	1.12
228.845	-0.88
229.645	1.12
230.444	-0.88
231.244	0.12
232.043	0.12
232.843	1.12
233.642	0.12
234.442	2.12
235.241	3.12
236.04	3.12
236.839	0.12
237.638	-0.88
238.437	1.12
239.236	0.12
240.035	2.12
240.833	0.12
241.632	2.12
242.43	2.12
243.229	0.12
244.027	-0.88
244.826	2.12
245.624	4.12
246.422	1.12
247.22	2.12
248.018	0.12
248.816	0.12
249.614	3.12
250.412	2.12
251.21	4.12
252.007	3.12
252.805	1.12
253.602	4.12
254.4	4.12
255.197	2.12
255.994	5.12
256.791	2.12
257.589	2.12
258.386	3.12
259.183	3.12
259.979	2.12
260.776	4.12
261.573	5.12
262.37	5.12
263.166	5.12
263.963	7.12
264.759	4.12
265.556	4.12
266.352	7.12
267.148	7.12
267.944	5.12
268.74	4.12
269.536	8.12
270.332	6.12
271.128	6.12
271.924	9.12
272.719	9.12
273.515	6.12
274.311	8.12
275.106	10.12
275.901	8.12
276.697	6.12
277.492	9.12
278.287	11.12
279.082	8.12
279.877	7.12
280.672	8.12
281.467	9.12
282.262	9.12
283.056	11.12
283.851	10.12
284.646	10.12
285.44	11.12
286.234	11.12
287.029	12.12
287.823	10.12
288.617	12.12
289.411	9.12
290.205	14.12
290.999	11.12
291.793	10.12
292.587	11.12
293.381	7.12
294.174	11.12
294.968	12.12
295.761	8.12
296.555	10.12
297.348	8.12
298.141	10.12
298.935	8.12
299.728	8.12
300.521	11.12
301.314	11.12
302.107	8.12
302.899	7.12
303.692	8.12
304.485	8.12
305.277	8.12
306.07	9.12
306.862	9.12
307.655	8.12
308.447	7.12
309.239	8.12
310.031	7.12
310.823	7.12
311.615	6.12
312.407	7.12
313.199	6.12
313.991	4.12
314.783	6.12
315.574	7.12
316.366	7.12
317.157	4.12
317.949	5.12
318.74	6.12
319.531	4.12
320.322	5.12
321.113	5.12
321.904	6.12
322.695	5.12
323.486	4.12
324.277	4.12
325.068	6.12
325.858	7.12
326.649	2.12
327.439	6.12
328.23	2.12
329.02	3.12
329.81	3.12
330.6	5.12
331.391	5.12
332.181	3.12
332.971	2.12
333.76	3.12
334.55	4.12
335.34	1.12
336.13	2.12
336.919	6.12
337.709	2.12
338.498	4.12
339.287	2.12
340.077	2.12
340.866	2.12
341.655	2.12
342.444	5.12
343.233	2.12
344.022	2.12
344.811	5.12
345.6	2.12
346.388	2.12
347.177	2.12
347.965	2.12
348.754	4.12
349.542	5.12
350.33	4.12
351.119	2.12
351.907	2.12
352.695	3.12
353.483	5.12
354.271	1.12
355.059	1.12
355.846	1.12
356.634	2.12
357.422	2.12
358.209	3.12
358.997	2.12
359.784	5.12
360.571	3.12
361.359	1.12
362.146	3.12
362.933	4.12
363.72	2.12
364.507	4.12
365.294	1.12
366.081	3.12
366.867	3.12
367.654	3.12
368.44	3.12
369.227	3.12
370.013	4.12
370.8	1.12
371.586	2.12
372.372	2.12
373.158	3.12
373.944	4.12
374.73	0.12
375.516	1.12
376.302	2.12
377.088	3.12
377.873	2.12
378.659	0.12
379.445	2.12
380.23	2.12
381.015	3.12
381.801	2.12
382.586	2.12
383.371	3.12
384.156	3.12
384.941	2.12
385.726	2.12
386.511	5.12
387.296	3.12
388.08	3.12
388.865	5.12
389.649	4.12
390.434	6.12
391.218	2.12
392.003	2.12
392.787	5.12
393.571	3.12
394.355	0.12
395.139	2.12
395.923	3.12
396.707	3.12
397.491	3.12
398.274	3.12
399.058	3.12
399.842	5.12
400.625	2.12
401.408	1.12
402.192	4.12
402.975	4.12
403.758	4.12
404.541	6.12
405.324	2.12
406.107	4.12
406.89	5.12
407.673	1.12
408.456	3.12
409.238	5.12
410.021	4.12
410.803	3.12
411.586	4.12
412.368	6.12
413.151	3.12
413.933	5.12
414.715	6.12
415.497	2.12
416.279	4.12
417.061	7.12
417.843	7.12
418.624	6.12
419.406	4.12
420.188	3.12
420.969	5.12
421.751	7.12
422.532	6.12
423.313	5.12
424.095	6.12
424.876	5.12
425.657	7.12
426.438	3.12
427.219	4.12
428	6.12
428.78	9.12
429.561	8.12
430.342	7.12
431.122	6.12
431.903	4.12
432.683	7.12
433.464	7.12
434.244	9.12
435.024	8.12
435.804	9.12
436.584	9.12
437.364	11.12
438.144	10.12
438.924	10.12
439.704	11.12
440.483	10.12
441.263	9.12
442.042	13.12
442.822	12.12
443.601	13.12
444.38	14.12
445.16	18.12
445.939	16.12
446.718	18.12
447.497	17.12
448.276	19.12
449.054	21.12
449.833	20.12
450.612	24.12
451.391	25.12
452.169	29.12
452.948	32.12
453.726	32.12
454.504	40.12
455.282	42.12
456.061	47.12
456.839	52.12
457.617	55.12
458.395	61.12
459.172	67.12
459.95	77.12
460.728	85.12
461.506	93.12
462.283	108.12
463.061	117.12
463.838	127.12
464.615	147.12
465.393	167.12
466.17	180.12
466.947	198.12
467.724	218.12
468.501	248.12
469.278	272.12
470.055	306.12
470.831	337.12
471.608	380.12
472.385	420.12
473.161	460.12
473.938	515.12
474.714	571.12
475.49	638.12
476.266	708.12
477.043	775.12
477.819	859.12
478.595	940.12
479.371	1044.12
480.146	1157.12
480.922	1271.12
481.698	1402.12
482.473	1553.12
483.249	1715.12
484.024	1886.12
484.8	2041.12
485.575	2265.12
486.35	2501.12
487.126	2752.12
487.901	3013.12
488.676	3322.12
489.451	3634.12
490.225	4008.12
491	4390.12
491.775	4809.12
492.55	5196.12
493.324	5731.12
494.099	6271.12
494.873	6870.12
495.647	7433.12
496.422	8078.12
497.196	8774.12
497.97	9415.12
498.744	10138.12
499.518	10920.12
500.292	11611.12
501.066	12298.12
501.839	12975.12
502.613	13706.12
503.387	14259.12
504.16	14801.12
504.934	15254.12
505.707	15662.12
506.48	15928.12
507.253	16139.12
508.027	16185.12
508.8	16185.12
509.573	16086.12
510.346	15907.12
511.118	15557.12
511.891	15228.12
512.664	14792.12
513.437	14333.12
514.209	13817.12
514.982	13311.12
515.754	12706.12
516.526	12244.12
517.298	11709.12
518.071	11166.12
518.843	10694.12
519.615	10258.12
520.387	9798.12
521.159	9436.12
521.93	9040.12
522.702	8675.12
523.474	8324.12
524.245	8045.12
525.017	7708.12
525.788	7373.12
526.56	7088.12
527.331	6789.12
528.102	6514.12
528.873	6217.12
529.644	5962.12
530.415	5699.12
531.186	5406.12
531.957	5145.12
532.728	4893.12
533.498	4607.12
534.269	4372.12
535.039	4166.12
535.81	3935.12
536.58	3714.12
537.351	3485.12
538.121	3321.12
538.891	3126.12
539.661	2932.12
540.431	2796.12
541.201	2630.12
541.971	2508.12
542.741	2361.12
543.51	2231.12
544.28	2146.12
545.05	2040.12
545.819	1919.12
546.588	1833.12
547.358	1743.12
548.127	1655.12
548.896	1581.12
549.665	1495.12
550.434	1405.12
551.203	1347.12
551.972	1284.12
552.741	1194.12
553.51	1144.12
554.278	1092.12
555.047	1014.12
555.815	961.12
556.584	902.12
557.352	853.12
558.121	810.12
558.889	759.12
559.657	720.12
560.425	679.12
561.193	648.12
561.961	614.12
562.729	577.12
563.496	551.12
564.264	505.12
565.032	481.12
565.799	454.12
566.567	429.12
567.334	394.12
568.101	385.12
568.869	359.12
569.636	334.12
570.403	325.12
571.17	304.12
571.937	287.12
572.704	273.12
573.471	252.12
574.237	238.12
575.004	220.12
575.771	207.12
576.537	193.12
577.303	193.12
578.07	177.12
578.836	167.12
579.602	157.12
580.368	148.12
581.134	137.12
581.9	131.12
582.666	123.12
583.432	119.12
584.198	114.12
584.964	107.12
585.729	102.12
586.495	95.12
587.26	90.12
588.025	82.12
588.791	78.12
589.556	70.12
590.321	71.12
591.086	66.12
591.851	61.12
592.616	60.12
593.381	60.12
594.146	54.12
594.911	53.12
595.675	54.12
596.44	45.12
597.204	44.12
597.969	44.12
598.733	45.12
599.497	41.12
600.261	38.12
601.025	37.12
601.79	31.12
602.553	33.12
603.317	30.12
604.081	29.12
604.845	27.12
605.609	25.12
606.372	28.12
607.136	25.12
607.899	26.12
608.662	23.12
609.426	22.12
610.189	21.12
610.952	22.12
611.715	17.12
612.478	19.12
613.241	20.12
614.004	17.12
614.767	17.12
615.529	17.12
616.292	16.12
617.055	17.12
617.817	14.12
618.579	14.12
619.342	13.12
620.104	16.12
620.866	13.12
621.628	10.12
622.39	11.12
623.152	13.12
623.914	8.12
624.676	12.12
625.438	9.12
626.199	10.12
626.961	11.12
627.722	11.12
628.484	8.12
629.245	9.12
630.006	8.12
630.768	7.12
631.529	8.12
632.29	7.12
633.051	6.12
633.812	7.12
634.573	7.12
635.333	6.12
636.094	7.12
636.855	4.12
637.615	4.12
638.376	6.12
639.136	7.12
639.896	5.12
640.657	3.12
641.417	4.12
642.177	5.12
642.937	6.12
643.697	5.12
644.457	5.12
645.216	6.12
645.976	4.12
646.736	5.12
647.495	7.12
648.255	5.12
649.014	2.12
649.774	5.12
650.533	5.12
651.292	4.12
652.051	4.12
652.81	3.12
653.569	3.12
654.328	2.12
655.087	1.12
655.846	4.12
656.604	5.12
657.363	3.12
658.121	3.12
658.88	4.12
659.638	2.12
660.397	4.12
661.155	1.12
661.913	3.12
662.671	1.12
663.429	2.12
664.187	3.12
664.945	1.12
665.703	4.12
666.46	3.12
667.218	4.12
667.976	4.12
668.733	2.12
669.49	5.12
670.248	3.12
671.005	0.12
671.762	2.12
672.519	2.12
673.276	0.12
674.033	2.12
674.79	3.12
675.547	4.12
676.304	3.12
677.06	2.12
677.817	4.12
678.574	2.12
679.33	0.12
680.086	2.12
680.843	2.12
681.599	0.12
682.355	-1.88
683.111	2.12
683.867	3.12
684.623	4.12
685.379	1.12
686.135	2.12
686.89	2.12
687.646	2.12
688.402	5.12
689.157	1.12
689.912	2.12
690.668	2.12
691.423	1.12
692.178	2.12
692.933	2.12
693.688	3.12
694.443	0.12
695.198	4.12
695.953	1.12
696.708	0.12
697.462	1.12
698.217	1.12
698.972	2.12
699.726	4.12
700.48	1.12
701.235	1.12
701.989	1.12
702.743	1.12
703.497	2.12
704.251	3.12
705.005	1.12
705.759	2.12
706.513	1.12
707.266	2.12
708.02	1.12
708.774	3.12
709.527	1.12
710.28	2.12
711.034	3.12
711.787	1.12
712.54	4.12
713.293	1.12
714.046	2.12
714.799	2.12
715.552	1.12
716.305	1.12
717.058	1.12
717.81	0.12
718.563	0.12
719.315	2.12
720.068	2.12
720.82	1.12
721.573	1.12
722.325	2.12
723.077	2.12
723.829	3.12
724.581	2.12
725.333	1.12
726.085	2.12
726.836	3.12
727.588	0.12
728.34	2.12
729.091	1.12
729.843	2.12
730.594	3.12
731.346	1.12
732.097	2.12
732.848	0.12
733.599	0.12
734.35	1.12
735.101	1.12
735.852	1.12
736.603	2.12
737.354	3.12
738.104	1.12
738.855	2.12
739.605	2.12
740.356	1.12
741.106	2.12
741.856	0.12
742.607	4.12
743.357	3.12
744.107	2.12
744.857	4.12
745.607	1.12
746.357	3.12
747.106	3.12
747.856	1.12
748.606	3.12
749.355	2.12
750.105	1.12
750.854	1.12
751.603	1.12
752.353	4.12
753.102	2.12
753.851	4.12
754.6	3.12
755.349	4.12
756.098	0.12
756.847	2.12
757.595	2.12
758.344	2.12
759.093	3.12
759.841	2.12
760.589	2.12
761.338	1.12
762.086	6.12
762.834	3.12
763.582	5.12
764.331	7.12
765.079	3.12
765.826	4.12
766.574	1.12
767.322	4.12
768.07	5.12
768.817	2.12
769.565	4.12
770.312	5.12
771.06	0.12
771.807	2.12
772.554	3.12
773.302	4.12
774.049	2.12
774.796	5.12
775.543	3.12
776.29	6.12
777.036	5.12
777.783	6.12
778.53	4.12
779.276	5.12
780.023	5.12
780.769	5.12
781.516	6.12
782.262	5.12
783.008	8.12
783.754	5.12
784.5	5.12
785.246	3.12
785.992	4.12
786.738	4.12
787.484	5.12
788.23	7.12
788.975	4.12
789.721	5.12
790.466	5.12
791.212	5.12
791.957	7.12
792.702	4.12
793.447	5.12
794.193	5.12
794.938	3.12
795.683	4.12
796.427	4.12
797.172	4.12
797.917	3.12
798.662	3.12
799.406	6.12
800.151	4.12
800.895	3.12
801.64	5.12
802.384	6.12
803.128	7.12
803.872	5.12
804.616	1.12
805.36	6.12
806.104	5.12
806.848	2.12
807.592	4.12
808.336	4.12
809.079	5.12
809.823	3.12
810.566	2.12
811.31	6.12
812.053	4.12
812.796	3.12
813.539	3.12
814.283	2.12
815.026	2.12
815.769	2.12
816.511	5.12
817.254	4.12
817.997	5.12
818.74	3.12
819.482	4.12
820.225	2.12
820.967	5.12
821.71	2.12
822.452	3.12
823.194	4.12
823.936	3.12
824.678	3.12
825.42	5.12
826.162	3.12
826.904	2.12
827.646	2.12
828.388	1.12
829.129	2.12
829.871	2.12
830.612	2.12
831.354	1.12
832.095	3.12
832.836	0.12
833.577	1.12
834.319	3.12
835.06	2.12
835.801	0.12
836.542	2.12
837.282	3.12
838.023	1.12
838.764	3.12
839.504	1.12
840.245	2.12
840.985	3.12
841.726	3.12
842.466	4.12
843.206	0.12
843.946	1.12
844.687	3.12
845.427	3.12
846.166	4.12
846.906	1.12
847.646	2.12
848.386	3.12
849.125	1.12
849.865	2.12
850.605	2.12
851.344	2.12
852.083	2.12
852.823	1.12
853.562	0.12
854.301	1.12
855.04	1.12
855.779	1.12
856.518	1.12
857.257	-1.88
857.995	2.12
858.734	3.12
859.473	2.12
860.211	4.12
860.95	1.12
861.688	2.12
862.426	3.12
863.165	1.12
863.903	0.12
864.641	3.12
865.379	0.12
866.117	1.12
866.855	2.12
867.593	2.12
868.33	1.12
869.068	1.12
869.806	1.12
870.543	1.12
871.28	1.12
872.018	1.12
872.755	1.12
873.492	2.12
874.229	0.12
874.967	2.12
875.703	1.12
876.44	0.12
877.177	4.12
877.914	0.12
878.651	1.12
879.387	3.12
880.124	0.12
880.86	-0.88
881.597	1.12
882.333	1.12
883.069	-0.88
883.806	0.12
884.542	1.12
885.278	-0.88
886.014	0.12
886.749	-0.88
887.485	3.12
888.221	1.12
888.957	1.12
889.692	-1.88
890.428	-0.88
891.163	0.12
891.899	-0.88
892.634	0.12
893.369	2.12
894.104	1.12
894.839	1.12
895.574	1.12
896.309	1.12
897.044	0.12
897.779	0.12
898.514	2.12
899.248	1.12
899.983	-0.88
900.717	2.12
901.452	0.12
902.186	1.12
902.92	1.12
903.654	-1.88
904.389	2.12
905.123	1.12
905.857	1.12
906.59	-0.88
907.324	-1.88
908.058	1.12
908.792	-0.88
909.525	0.12
910.259	-1.88
910.992	1.12
911.726	-0.88
912.459	0.12
913.192	0.12
913.925	1.12
914.658	1.12
915.391	2.12
916.124	0.12
916.857	0.12
917.59	0.12
918.323	1.12
919.055	0.12
919.788	1.12
920.521	0.12
921.253	3.12
921.985	-0.88
922.718	1.12
923.45	0.12
924.182	0.12
924.914	2.12
925.646	-1.88
926.378	1.12
927.11	-0.88
927.841	1.12
928.573	1.12
929.305	-1.88
930.036	-0.88
930.768	-1.88
931.499	1.12
932.23	0.12
932.962	-1.88
933.693	0.12
934.424	0.12
935.155	-0.88
935.886	0.12
936.617	-0.88
937.348	0.12
938.078	-0.88
938.809	1.12
939.54	-0.88
940.27	0.12
941.001	0.12
941.731	-0.88
942.461	-0.88
943.191	0.12
943.922	0.12
944.652	-1.88
945.382	-0.88
946.112	0.12
946.841	1.12
947.571	-0.88
948.301	-2.88
949.031	1.12
949.76	-2.88
950.49	1.12
951.219	0.12
951.948	2.12
952.678	-1.88
953.407	0.12
954.136	-0.88
954.865	-0.88
955.594	-1.88
956.323	1.12
957.052	2.12
957.78	1.12
958.509	0.12
959.238	0.12
959.966	0.12
960.695	0.12
961.423	1.12
962.151	1.12
962.88	-1.88
963.608	0.12
964.336	0.12
965.064	-1.88
965.792	3.12
966.52	2.12
967.247	0.12
967.975	0.12
968.703	-1.88
969.43	1.12
970.158	-0.88
970.885	-0.88
971.613	0.12
972.34	0.12
973.067	0.12
973.794	0.12
974.521	0.12
975.248	-1.88
975.975	-0.88
976.702	0.12
977.429	1.12
978.156	2.12
978.882	-1.88
979.609	1.12
980.335	0.12
981.062	0.12
981.788	-1.88
982.514	-0.88
983.24	0.12
983.967	-0.88
984.693	0.12
985.419	1.12
986.144	0.12
986.87	1.12
987.596	0.12
988.322	1.12
989.047	-1.88
989.773	0.12
990.498	0.12
991.224	-0.88
991.949	-1.88
992.674	1.12
993.399	0.12
994.124	-1.88
994.849	0.12
995.574	-0.88
996.299	-2.88
997.024	2.12
997.749	-0.88
998.473	2.12
999.198	-1.88
999.922	0.12
1000.647	0.12
1001.371	2.12
1002.095	-0.88
1002.82	1.12
1003.544	-1.88
1004.268	1.12
1004.992	0.12
1005.716	0.12
1006.439	-0.88
1007.163	0.12
1007.887	1.12
1008.611	1.12
1009.334	2.12
1010.058	0.12
1010.781	2.12
1011.504	0.12
1012.228	1.12
1012.951	0.12
1013.674	0.12
1014.397	1.12
1015.12	-1.88
