节点500_145_QEPB04081__511__11-37-06-469.txt的数据

Date: Wed Nov 12 11:37:06 CST 2025
User: PC
Spectrometer: QEPB0408
触发模式: 0
积分时间 (秒): 1.000000E-2
Scans to average: 1
启用暗噪声校正: true
启用非线性校正: false
滑动平均宽度: 0
X轴模式: Wavelengths
Number of Pixels in Spectrum: 1044
>>>>>Begin Spectral Data<<<<<
220.843	-0.62
221.644	1.38
222.444	1.38
223.244	-0.62
224.045	3.38
224.845	2.38
225.645	-0.62
226.445	4.38
227.245	-2.62
228.045	-0.62
228.845	-3.62
229.645	1.38
230.444	-1.62
231.244	1.38
232.043	1.38
232.843	0.38
233.642	0.38
234.442	1.38
235.241	2.38
236.04	-0.62
236.839	-0.62
237.638	0.38
238.437	2.38
239.236	1.38
240.035	1.38
240.833	0.38
241.632	2.38
242.43	1.38
243.229	-0.62
244.027	1.38
244.826	2.38
245.624	0.38
246.422	3.38
247.22	1.38
248.018	1.38
248.816	2.38
249.614	4.38
250.412	3.38
251.21	1.38
252.007	1.38
252.805	2.38
253.602	2.38
254.4	2.38
255.197	5.38
255.994	1.38
256.791	2.38
257.589	5.38
258.386	5.38
259.183	3.38
259.979	6.38
260.776	3.38
261.573	3.38
262.37	3.38
263.166	4.38
263.963	4.38
264.759	5.38
265.556	6.38
266.352	5.38
267.148	5.38
267.944	2.38
268.74	6.38
269.536	6.38
270.332	7.38
271.128	8.38
271.924	7.38
272.719	8.38
273.515	7.38
274.311	8.38
275.106	10.38
275.901	7.38
276.697	8.38
277.492	9.38
278.287	8.38
279.082	7.38
279.877	9.38
280.672	9.38
281.467	10.38
282.262	7.38
283.056	10.38
283.851	11.38
284.646	10.38
285.44	10.38
286.234	10.38
287.029	11.38
287.823	9.38
288.617	9.38
289.411	10.38
290.205	8.38
290.999	11.38
291.793	9.38
292.587	7.38
293.381	12.38
294.174	10.38
294.968	10.38
295.761	8.38
296.555	8.38
297.348	8.38
298.141	8.38
298.935	6.38
299.728	9.38
300.521	9.38
301.314	10.38
302.107	10.38
302.899	7.38
303.692	9.38
304.485	9.38
305.277	6.38
306.07	7.38
306.862	6.38
307.655	7.38
308.447	8.38
309.239	6.38
310.031	6.38
310.823	7.38
311.615	9.38
312.407	6.38
313.199	7.38
313.991	4.38
314.783	3.38
315.574	6.38
316.366	6.38
317.157	5.38
317.949	5.38
318.74	5.38
319.531	5.38
320.322	6.38
321.113	5.38
321.904	5.38
322.695	5.38
323.486	4.38
324.277	6.38
325.068	5.38
325.858	2.38
326.649	4.38
327.439	3.38
328.23	3.38
329.02	5.38
329.81	1.38
330.6	2.38
331.391	4.38
332.181	4.38
332.971	4.38
333.76	3.38
334.55	2.38
335.34	4.38
336.13	5.38
336.919	2.38
337.709	4.38
338.498	3.38
339.287	3.38
340.077	2.38
340.866	3.38
341.655	3.38
342.444	1.38
343.233	5.38
344.022	3.38
344.811	4.38
345.6	2.38
346.388	4.38
347.177	4.38
347.965	1.38
348.754	2.38
349.542	2.38
350.33	5.38
351.119	1.38
351.907	1.38
352.695	4.38
353.483	1.38
354.271	3.38
355.059	3.38
355.846	4.38
356.634	5.38
357.422	2.38
358.209	2.38
358.997	3.38
359.784	3.38
360.571	2.38
361.359	1.38
362.146	3.38
362.933	1.38
363.72	2.38
364.507	1.38
365.294	3.38
366.081	4.38
366.867	2.38
367.654	1.38
368.44	1.38
369.227	1.38
370.013	2.38
370.8	4.38
371.586	3.38
372.372	1.38
373.158	3.38
373.944	2.38
374.73	2.38
375.516	3.38
376.302	4.38
377.088	3.38
377.873	1.38
378.659	3.38
379.445	3.38
380.23	4.38
381.015	-0.62
381.801	1.38
382.586	2.38
383.371	2.38
384.156	2.38
384.941	1.38
385.726	4.38
386.511	3.38
387.296	2.38
388.08	1.38
388.865	0.38
389.649	3.38
390.434	1.38
391.218	3.38
392.003	4.38
392.787	1.38
393.571	6.38
394.355	3.38
395.139	2.38
395.923	3.38
396.707	2.38
397.491	2.38
398.274	3.38
399.058	4.38
399.842	2.38
400.625	3.38
401.408	5.38
402.192	3.38
402.975	2.38
403.758	3.38
404.541	1.38
405.324	3.38
406.107	4.38
406.89	3.38
407.673	3.38
408.456	2.38
409.238	6.38
410.021	3.38
410.803	3.38
411.586	2.38
412.368	5.38
413.151	4.38
413.933	4.38
414.715	6.38
415.497	3.38
416.279	4.38
417.061	5.38
417.843	3.38
418.624	6.38
419.406	3.38
420.188	5.38
420.969	5.38
421.751	5.38
422.532	5.38
423.313	3.38
424.095	5.38
424.876	4.38
425.657	5.38
426.438	6.38
427.219	6.38
428	7.38
428.78	5.38
429.561	7.38
430.342	5.38
431.122	5.38
431.903	8.38
432.683	7.38
433.464	9.38
434.244	8.38
435.024	9.38
435.804	8.38
436.584	9.38
437.364	10.38
438.144	7.38
438.924	11.38
439.704	9.38
440.483	14.38
441.263	12.38
442.042	14.38
442.822	14.38
443.601	16.38
444.38	15.38
445.16	14.38
445.939	18.38
446.718	16.38
447.497	18.38
448.276	22.38
449.054	20.38
449.833	24.38
450.612	24.38
451.391	27.38
452.169	30.38
452.948	31.38
453.726	38.38
454.504	37.38
455.282	45.38
456.061	46.38
456.839	53.38
457.617	56.38
458.395	66.38
459.172	71.38
459.95	82.38
460.728	87.38
461.506	95.38
462.283	108.38
463.061	120.38
463.838	135.38
464.615	151.38
465.393	168.38
466.17	187.38
466.947	211.38
467.724	232.38
468.501	256.38
469.278	280.38
470.055	313.38
470.831	344.38
471.608	402.38
472.385	437.38
473.161	485.38
473.938	534.38
474.714	586.38
475.49	641.38
476.266	710.38
477.043	772.38
477.819	877.38
478.595	961.38
479.371	1061.38
480.146	1159.38
480.922	1270.38
481.698	1395.38
482.473	1543.38
483.249	1689.38
484.024	1848.38
484.8	2026.38
485.575	2245.38
486.35	2445.38
487.126	2668.38
487.901	2930.38
488.676	3214.38
489.451	3539.38
490.225	3863.38
491	4222.38
491.775	4594.38
492.55	5035.38
493.324	5528.38
494.099	5992.38
494.873	6541.38
495.647	7102.38
496.422	7671.38
497.196	8316.38
497.97	8922.38
498.744	9660.38
499.518	10321.38
500.292	11043.38
501.066	11712.38
501.839	12304.38
502.613	12959.38
503.387	13575.38
504.16	14126.38
504.934	14597.38
505.707	14976.38
506.48	15294.38
507.253	15541.38
508.027	15679.38
508.8	15719.38
509.573	15642.38
510.346	15536.38
511.118	15326.38
511.891	14963.38
512.664	14608.38
513.437	14220.38
514.209	13716.38
514.982	13211.38
515.754	12721.38
516.526	12256.38
517.298	11718.38
518.071	11195.38
518.843	10723.38
519.615	10283.38
520.387	9840.38
521.159	9468.38
521.93	9091.38
522.702	8759.38
523.474	8375.38
524.245	8044.38
525.017	7728.38
525.788	7424.38
526.56	7116.38
527.331	6835.38
528.102	6530.38
528.873	6280.38
529.644	5996.38
530.415	5728.38
531.186	5470.38
531.957	5225.38
532.728	4935.38
533.498	4698.38
534.269	4450.38
535.039	4223.38
535.81	3979.38
536.58	3760.38
537.351	3578.38
538.121	3378.38
538.891	3195.38
539.661	3018.38
540.431	2845.38
541.201	2688.38
541.971	2547.38
542.741	2409.38
543.51	2281.38
544.28	2162.38
545.05	2065.38
545.819	1970.38
546.588	1873.38
547.358	1775.38
548.127	1676.38
548.896	1607.38
549.665	1527.38
550.434	1449.38
551.203	1365.38
551.972	1304.38
552.741	1234.38
553.51	1176.38
554.278	1106.38
555.047	1052.38
555.815	994.38
556.584	923.38
557.352	874.38
558.121	829.38
558.889	783.38
559.657	733.38
560.425	686.38
561.193	650.38
561.961	620.38
562.729	594.38
563.496	553.38
564.264	526.38
565.032	491.38
565.799	464.38
566.567	442.38
567.334	416.38
568.101	383.38
568.869	374.38
569.636	351.38
570.403	338.38
571.17	312.38
571.937	290.38
572.704	279.38
573.471	259.38
574.237	244.38
575.004	236.38
575.771	221.38
576.537	205.38
577.303	192.38
578.07	183.38
578.836	176.38
579.602	154.38
580.368	154.38
581.134	144.38
581.9	135.38
582.666	133.38
583.432	123.38
584.198	118.38
584.964	115.38
585.729	106.38
586.495	96.38
587.26	88.38
588.025	87.38
588.791	82.38
589.556	73.38
590.321	71.38
591.086	71.38
591.851	66.38
592.616	66.38
593.381	61.38
594.146	55.38
594.911	56.38
595.675	52.38
596.44	51.38
597.204	48.38
597.969	46.38
598.733	40.38
599.497	38.38
600.261	37.38
601.025	39.38
601.79	31.38
602.553	31.38
603.317	35.38
604.081	30.38
604.845	25.38
605.609	26.38
606.372	24.38
607.136	23.38
607.899	22.38
608.662	23.38
609.426	23.38
610.189	19.38
610.952	22.38
611.715	21.38
612.478	19.38
613.241	18.38
614.004	16.38
614.767	16.38
615.529	14.38
616.292	17.38
617.055	13.38
617.817	16.38
618.579	14.38
619.342	11.38
620.104	10.38
620.866	10.38
621.628	13.38
622.39	12.38
623.152	9.38
623.914	12.38
624.676	10.38
625.438	10.38
626.199	10.38
626.961	8.38
627.722	10.38
628.484	9.38
629.245	8.38
630.006	8.38
630.768	8.38
631.529	7.38
632.29	8.38
633.051	5.38
633.812	5.38
634.573	8.38
635.333	7.38
636.094	8.38
636.855	7.38
637.615	7.38
638.376	4.38
639.136	5.38
639.896	5.38
640.657	6.38
641.417	5.38
642.177	5.38
642.937	5.38
643.697	6.38
644.457	4.38
645.216	2.38
645.976	3.38
646.736	4.38
647.495	6.38
648.255	2.38
649.014	5.38
649.774	2.38
650.533	5.38
651.292	4.38
652.051	4.38
652.81	2.38
653.569	3.38
654.328	6.38
655.087	7.38
655.846	4.38
656.604	4.38
657.363	3.38
658.121	6.38
658.88	4.38
659.638	2.38
660.397	4.38
661.155	3.38
661.913	2.38
662.671	2.38
663.429	3.38
664.187	0.38
664.945	3.38
665.703	3.38
666.46	2.38
667.218	2.38
667.976	3.38
668.733	3.38
669.49	3.38
670.248	4.38
671.005	1.38
671.762	3.38
672.519	2.38
673.276	3.38
674.033	2.38
674.79	1.38
675.547	2.38
676.304	2.38
677.06	1.38
677.817	1.38
678.574	2.38
679.33	3.38
680.086	4.38
680.843	1.38
681.599	2.38
682.355	1.38
683.111	0.38
683.867	2.38
684.623	2.38
685.379	0.38
686.135	2.38
686.89	-0.62
687.646	3.38
688.402	2.38
689.157	2.38
689.912	1.38
690.668	1.38
691.423	1.38
692.178	2.38
692.933	2.38
693.688	2.38
694.443	2.38
695.198	1.38
695.953	1.38
696.708	1.38
697.462	1.38
698.217	2.38
698.972	0.38
699.726	2.38
700.48	2.38
701.235	3.38
701.989	1.38
702.743	3.38
703.497	2.38
704.251	2.38
705.005	1.38
705.759	1.38
706.513	3.38
707.266	1.38
708.02	0.38
708.774	1.38
709.527	1.38
710.28	1.38
711.034	2.38
711.787	0.38
712.54	2.38
713.293	1.38
714.046	3.38
714.799	1.38
715.552	0.38
716.305	3.38
717.058	2.38
717.81	3.38
718.563	0.38
719.315	3.38
720.068	1.38
720.82	1.38
721.573	3.38
722.325	2.38
723.077	0.38
723.829	2.38
724.581	3.38
725.333	0.38
726.085	2.38
726.836	2.38
727.588	0.38
728.34	1.38
729.091	2.38
729.843	2.38
730.594	1.38
731.346	3.38
732.097	2.38
732.848	1.38
733.599	3.38
734.35	0.38
735.101	3.38
735.852	2.38
736.603	3.38
737.354	0.38
738.104	2.38
738.855	2.38
739.605	2.38
740.356	3.38
741.106	2.38
741.856	3.38
742.607	2.38
743.357	3.38
744.107	1.38
744.857	3.38
745.607	2.38
746.357	3.38
747.106	1.38
747.856	2.38
748.606	4.38
749.355	3.38
750.105	1.38
750.854	4.38
751.603	2.38
752.353	3.38
753.102	2.38
753.851	2.38
754.6	3.38
755.349	4.38
756.098	5.38
756.847	4.38
757.595	3.38
758.344	2.38
759.093	2.38
759.841	2.38
760.589	2.38
761.338	3.38
762.086	1.38
762.834	1.38
763.582	2.38
764.331	4.38
765.079	2.38
765.826	3.38
766.574	4.38
767.322	3.38
768.07	3.38
768.817	4.38
769.565	6.38
770.312	3.38
771.06	3.38
771.807	5.38
772.554	2.38
773.302	5.38
774.049	3.38
774.796	2.38
775.543	6.38
776.29	3.38
777.036	5.38
777.783	6.38
778.53	3.38
779.276	4.38
780.023	2.38
780.769	6.38
781.516	4.38
782.262	6.38
783.008	4.38
783.754	2.38
784.5	5.38
785.246	3.38
785.992	4.38
786.738	6.38
787.484	3.38
788.23	5.38
788.975	5.38
789.721	6.38
790.466	5.38
791.212	6.38
791.957	2.38
792.702	5.38
793.447	4.38
794.193	6.38
794.938	3.38
795.683	2.38
796.427	7.38
797.172	4.38
797.917	6.38
798.662	4.38
799.406	4.38
800.151	5.38
800.895	4.38
801.64	4.38
802.384	4.38
803.128	3.38
803.872	5.38
804.616	2.38
805.36	4.38
806.104	3.38
806.848	4.38
807.592	2.38
808.336	2.38
809.079	4.38
809.823	3.38
810.566	4.38
811.31	4.38
812.053	5.38
812.796	4.38
813.539	3.38
814.283	4.38
815.026	4.38
815.769	1.38
816.511	3.38
817.254	2.38
817.997	2.38
818.74	1.38
819.482	2.38
820.225	4.38
820.967	6.38
821.71	-0.62
822.452	2.38
823.194	2.38
823.936	1.38
824.678	2.38
825.42	1.38
826.162	3.38
826.904	3.38
827.646	1.38
828.388	2.38
829.129	3.38
829.871	4.38
830.612	2.38
831.354	4.38
832.095	3.38
832.836	2.38
833.577	1.38
834.319	3.38
835.06	2.38
835.801	1.38
836.542	2.38
837.282	1.38
838.023	4.38
838.764	3.38
839.504	2.38
840.245	2.38
840.985	2.38
841.726	1.38
842.466	1.38
843.206	3.38
843.946	3.38
844.687	1.38
845.427	1.38
846.166	2.38
846.906	2.38
847.646	2.38
848.386	1.38
849.125	4.38
849.865	1.38
850.605	2.38
851.344	0.38
852.083	3.38
852.823	3.38
853.562	3.38
854.301	2.38
855.04	0.38
855.779	1.38
856.518	2.38
857.257	1.38
857.995	2.38
858.734	2.38
859.473	2.38
860.211	-0.62
860.95	3.38
861.688	-0.62
862.426	1.38
863.165	1.38
863.903	1.38
864.641	1.38
865.379	2.38
866.117	1.38
866.855	1.38
867.593	2.38
868.33	1.38
869.068	0.38
869.806	4.38
870.543	-0.62
871.28	2.38
872.018	-0.62
872.755	0.38
873.492	1.38
874.229	1.38
874.967	1.38
875.703	1.38
876.44	1.38
877.177	0.38
877.914	1.38
878.651	1.38
879.387	0.38
880.124	0.38
880.86	0.38
881.597	0.38
882.333	0.38
883.069	0.38
883.806	1.38
884.542	-0.62
885.278	1.38
886.014	-1.62
886.749	1.38
887.485	3.38
888.221	-1.62
888.957	0.38
889.692	0.38
890.428	0.38
891.163	1.38
891.899	0.38
892.634	2.38
893.369	0.38
894.104	0.38
894.839	1.38
895.574	1.38
896.309	-1.62
897.044	1.38
897.779	0.38
898.514	1.38
899.248	1.38
899.983	-1.62
900.717	0.38
901.452	0.38
902.186	0.38
902.92	1.38
903.654	-0.62
904.389	-0.62
905.123	2.38
905.857	1.38
906.59	-1.62
907.324	-0.62
908.058	2.38
908.792	0.38
909.525	1.38
910.259	-0.62
910.992	2.38
911.726	0.38
912.459	0.38
913.192	-1.62
913.925	0.38
914.658	0.38
915.391	-0.62
916.124	1.38
916.857	-0.62
917.59	-0.62
918.323	1.38
919.055	0.38
919.788	1.38
920.521	-1.62
921.253	1.38
921.985	-1.62
922.718	0.38
923.45	0.38
924.182	1.38
924.914	0.38
925.646	1.38
926.378	2.38
927.11	-0.62
927.841	-1.62
928.573	1.38
929.305	-1.62
930.036	0.38
930.768	-0.62
931.499	-0.62
932.23	-0.62
932.962	0.38
933.693	-1.62
934.424	1.38
935.155	2.38
935.886	0.38
936.617	0.38
937.348	1.38
938.078	-1.62
938.809	-0.62
939.54	-0.62
940.27	1.38
941.001	-0.62
941.731	1.38
942.461	0.38
943.191	-0.62
943.922	2.38
944.652	-1.62
945.382	2.38
946.112	0.38
946.841	-1.62
947.571	1.38
948.301	-2.62
949.031	1.38
949.76	1.38
950.49	0.38
951.219	-0.62
951.948	0.38
952.678	-0.62
953.407	2.38
954.136	-1.62
954.865	-1.62
955.594	-1.62
956.323	0.38
957.052	0.38
957.78	0.38
958.509	0.38
959.238	1.38
959.966	-2.62
960.695	1.38
961.423	0.38
962.151	0.38
962.88	1.38
963.608	-0.62
964.336	0.38
965.064	1.38
965.792	0.38
966.52	-0.62
967.247	-0.62
967.975	2.38
968.703	-1.62
969.43	1.38
970.158	-1.62
970.885	1.38
971.613	0.38
972.34	-0.62
973.067	1.38
973.794	0.38
974.521	0.38
975.248	-0.62
975.975	0.38
976.702	1.38
977.429	0.38
978.156	0.38
978.882	-0.62
979.609	-0.62
980.335	-1.62
981.062	0.38
981.788	-0.62
982.514	0.38
983.24	-2.62
983.967	-1.62
984.693	2.38
985.419	0.38
986.144	0.38
986.87	-0.62
987.596	1.38
988.322	0.38
989.047	-0.62
989.773	2.38
990.498	-0.62
991.224	0.38
991.949	2.38
992.674	-1.62
993.399	1.38
994.124	1.38
994.849	0.38
995.574	-1.62
996.299	0.38
997.024	1.38
997.749	-1.62
998.473	0.38
999.198	-0.62
999.922	-1.62
1000.647	3.38
1001.371	2.38
1002.095	-0.62
1002.82	1.38
1003.544	-1.62
1004.268	0.38
1004.992	-2.62
1005.716	-1.62
1006.439	1.38
1007.163	-1.62
1007.887	1.38
1008.611	-0.62
1009.334	0.38
1010.058	-2.62
1010.781	1.38
1011.504	1.38
1012.228	0.38
1012.951	0.38
1013.674	0.38
1014.397	-1.62
1015.12	-0.62
