节点500_145_QEPB04081__78__11-30-12-656.txt的数据

Date: Wed Nov 12 11:30:12 CST 2025
User: PC
Spectrometer: QEPB0408
触发模式: 0
积分时间 (秒): 1.000000E-2
Scans to average: 1
启用暗噪声校正: true
启用非线性校正: false
滑动平均宽度: 0
X轴模式: Wavelengths
Number of Pixels in Spectrum: 1044
>>>>>Begin Spectral Data<<<<<
220.843	-1
221.644	-2
222.444	2
223.244	0
224.045	1
224.845	0
225.645	1
226.445	2
227.245	1
228.045	0
228.845	-1
229.645	1
230.444	1
231.244	2
232.043	0
232.843	2
233.642	1
234.442	-1
235.241	3
236.04	-1
236.839	2
237.638	1
238.437	2
239.236	3
240.035	0
240.833	4
241.632	2
242.43	-2
243.229	1
244.027	3
244.826	4
245.624	1
246.422	3
247.22	3
248.018	1
248.816	5
249.614	3
250.412	1
251.21	5
252.007	2
252.805	2
253.602	5
254.4	3
255.197	3
255.994	3
256.791	4
257.589	4
258.386	3
259.183	3
259.979	5
260.776	3
261.573	6
262.37	5
263.166	4
263.963	4
264.759	7
265.556	4
266.352	6
267.148	6
267.944	4
268.74	8
269.536	8
270.332	10
271.128	7
271.924	7
272.719	8
273.515	10
274.311	8
275.106	10
275.901	9
276.697	9
277.492	11
278.287	9
279.082	11
279.877	13
280.672	10
281.467	9
282.262	10
283.056	10
283.851	11
284.646	12
285.44	12
286.234	12
287.029	12
287.823	10
288.617	11
289.411	12
290.205	11
290.999	10
291.793	13
292.587	12
293.381	10
294.174	9
294.968	11
295.761	11
296.555	10
297.348	12
298.141	8
298.935	11
299.728	11
300.521	8
301.314	7
302.107	9
302.899	7
303.692	5
304.485	10
305.277	7
306.07	10
306.862	8
307.655	8
308.447	10
309.239	6
310.031	9
310.823	7
311.615	8
312.407	6
313.199	8
313.991	5
314.783	4
315.574	4
316.366	5
317.157	5
317.949	6
318.74	3
319.531	2
320.322	4
321.113	5
321.904	4
322.695	5
323.486	6
324.277	5
325.068	4
325.858	3
326.649	5
327.439	5
328.23	4
329.02	6
329.81	4
330.6	3
331.391	4
332.181	4
332.971	6
333.76	4
334.55	4
335.34	2
336.13	3
336.919	5
337.709	4
338.498	2
339.287	5
340.077	5
340.866	3
341.655	5
342.444	2
343.233	4
344.022	4
344.811	3
345.6	4
346.388	4
347.177	6
347.965	3
348.754	2
349.542	3
350.33	2
351.119	6
351.907	3
352.695	4
353.483	2
354.271	2
355.059	1
355.846	1
356.634	1
357.422	3
358.209	4
358.997	3
359.784	3
360.571	3
361.359	2
362.146	2
362.933	1
363.72	2
364.507	3
365.294	2
366.081	3
366.867	1
367.654	4
368.44	5
369.227	4
370.013	4
370.8	3
371.586	5
372.372	5
373.158	2
373.944	3
374.73	5
375.516	-1
376.302	5
377.088	4
377.873	6
378.659	1
379.445	3
380.23	3
381.015	5
381.801	2
382.586	2
383.371	1
384.156	4
384.941	2
385.726	4
386.511	3
387.296	3
388.08	2
388.865	4
389.649	4
390.434	2
391.218	3
392.003	4
392.787	2
393.571	4
394.355	2
395.139	3
395.923	4
396.707	7
397.491	5
398.274	4
399.058	3
399.842	3
400.625	4
401.408	2
402.192	4
402.975	5
403.758	3
404.541	4
405.324	3
406.107	4
406.89	2
407.673	5
408.456	6
409.238	7
410.021	5
410.803	3
411.586	7
412.368	6
413.151	6
413.933	7
414.715	6
415.497	4
416.279	5
417.061	5
417.843	3
418.624	2
419.406	7
420.188	7
420.969	5
421.751	8
422.532	6
423.313	6
424.095	4
424.876	6
425.657	7
426.438	7
427.219	5
428	6
428.78	5
429.561	7
430.342	8
431.122	9
431.903	8
432.683	8
433.464	9
434.244	11
435.024	8
435.804	11
436.584	9
437.364	10
438.144	10
438.924	10
439.704	10
440.483	11
441.263	12
442.042	10
442.822	14
443.601	12
444.38	14
445.16	12
445.939	16
446.718	18
447.497	19
448.276	20
449.054	20
449.833	22
450.612	25
451.391	25
452.169	27
452.948	30
453.726	33
454.504	33
455.282	39
456.061	46
456.839	46
457.617	48
458.395	56
459.172	59
459.95	68
460.728	72
461.506	88
462.283	90
463.061	102
463.838	120
464.615	131
465.393	145
466.17	162
466.947	180
467.724	196
468.501	218
469.278	252
470.055	276
470.831	311
471.608	344
472.385	390
473.161	433
473.938	475
474.714	537
475.49	599
476.266	670
477.043	737
477.819	821
478.595	916
479.371	1003
480.146	1134
480.922	1258
481.698	1413
482.473	1548
483.249	1729
484.024	1911
484.8	2113
485.575	2346
486.35	2590
487.126	2874
487.901	3169
488.676	3505
489.451	3895
490.225	4311
491	4789
491.775	5240
492.55	5827
493.324	6390
494.099	7013
494.873	7635
495.647	8414
496.422	9106
497.196	9858
497.97	10687
498.744	11495
499.518	12294
500.292	13053
501.066	13839
501.839	14671
502.613	15291
503.387	15877
504.16	16442
504.934	16893
505.707	17139
506.48	17334
507.253	17411
508.027	17408
508.8	17205
509.573	16957
510.346	16575
511.118	16091
511.891	15594
512.664	15012
513.437	14458
514.209	13873
514.982	13257
515.754	12633
516.526	12099
517.298	11457
518.071	11015
518.843	10488
519.615	10041
520.387	9591
521.159	9215
521.93	8880
522.702	8526
523.474	8174
524.245	7881
525.017	7562
525.788	7239
526.56	6952
527.331	6643
528.102	6350
528.873	6062
529.644	5734
530.415	5507
531.186	5201
531.957	4956
532.728	4675
533.498	4424
534.269	4145
535.039	3918
535.81	3706
536.58	3522
537.351	3303
538.121	3118
538.891	2970
539.661	2798
540.431	2670
541.201	2482
541.971	2374
542.741	2227
543.51	2116
544.28	2010
545.05	1919
545.819	1827
546.588	1729
547.358	1650
548.127	1555
548.896	1498
549.665	1419
550.434	1337
551.203	1270
551.972	1197
552.741	1134
553.51	1064
554.278	1012
555.047	949
555.815	908
556.584	847
557.352	806
558.121	746
558.889	708
559.657	669
560.425	626
561.193	598
561.961	566
562.729	527
563.496	506
564.264	472
565.032	448
565.799	427
566.567	401
567.334	375
568.101	354
568.869	336
569.636	318
570.403	300
571.17	282
571.937	270
572.704	252
573.471	234
574.237	220
575.004	208
575.771	196
576.537	182
577.303	180
578.07	162
578.836	153
579.602	145
580.368	134
581.134	126
581.9	123
582.666	115
583.432	113
584.198	97
584.964	99
585.729	88
586.495	90
587.26	88
588.025	78
588.791	76
589.556	71
590.321	69
591.086	65
591.851	60
592.616	57
593.381	56
594.146	55
594.911	48
595.675	48
596.44	45
597.204	45
597.969	41
598.733	38
599.497	37
600.261	37
601.025	30
601.79	31
602.553	32
603.317	29
604.081	29
604.845	26
605.609	27
606.372	24
607.136	25
607.899	19
608.662	24
609.426	23
610.189	20
610.952	16
611.715	17
612.478	18
613.241	17
614.004	16
614.767	15
615.529	15
616.292	17
617.055	14
617.817	16
618.579	12
619.342	11
620.104	12
620.866	11
621.628	12
622.39	8
623.152	11
623.914	9
624.676	12
625.438	6
626.199	9
626.961	7
627.722	8
628.484	10
629.245	10
630.006	8
630.768	8
631.529	8
632.29	8
633.051	8
633.812	8
634.573	6
635.333	5
636.094	5
636.855	9
637.615	8
638.376	5
639.136	7
639.896	8
640.657	5
641.417	7
642.177	4
642.937	7
643.697	5
644.457	6
645.216	5
645.976	6
646.736	6
647.495	5
648.255	7
649.014	5
649.774	6
650.533	5
651.292	6
652.051	2
652.81	3
653.569	3
654.328	3
655.087	5
655.846	6
656.604	3
657.363	4
658.121	2
658.88	3
659.638	5
660.397	3
661.155	4
661.913	5
662.671	3
663.429	3
664.187	4
664.945	3
665.703	2
666.46	1
667.218	2
667.976	2
668.733	3
669.49	2
670.248	2
671.005	4
671.762	2
672.519	2
673.276	5
674.033	4
674.79	3
675.547	5
676.304	0
677.06	2
677.817	3
678.574	3
679.33	3
680.086	3
680.843	2
681.599	2
682.355	2
683.111	1
683.867	5
684.623	3
685.379	3
686.135	1
686.89	0
687.646	4
688.402	0
689.157	1
689.912	3
690.668	2
691.423	4
692.178	3
692.933	3
693.688	1
694.443	2
695.198	2
695.953	1
696.708	3
697.462	1
698.217	1
698.972	2
699.726	1
700.48	4
701.235	2
701.989	1
702.743	2
703.497	3
704.251	2
705.005	1
705.759	0
706.513	3
707.266	1
708.02	2
708.774	2
709.527	2
710.28	6
711.034	4
711.787	1
712.54	1
713.293	-2
714.046	3
714.799	1
715.552	0
716.305	3
717.058	2
717.81	3
718.563	3
719.315	2
720.068	1
720.82	3
721.573	0
722.325	2
723.077	2
723.829	2
724.581	3
725.333	2
726.085	1
726.836	1
727.588	1
728.34	3
729.091	0
729.843	2
730.594	2
731.346	1
732.097	2
732.848	2
733.599	4
734.35	3
735.101	3
735.852	2
736.603	3
737.354	-2
738.104	3
738.855	4
739.605	2
740.356	2
741.106	1
741.856	2
742.607	4
743.357	2
744.107	3
744.857	2
745.607	1
746.357	2
747.106	3
747.856	3
748.606	3
749.355	5
750.105	1
750.854	4
751.603	1
752.353	2
753.102	2
753.851	2
754.6	4
755.349	2
756.098	1
756.847	4
757.595	5
758.344	4
759.093	2
759.841	6
760.589	7
761.338	6
762.086	3
762.834	3
763.582	4
764.331	4
765.079	5
765.826	3
766.574	5
767.322	3
768.07	4
768.817	4
769.565	3
770.312	5
771.06	5
771.807	2
772.554	5
773.302	2
774.049	5
774.796	6
775.543	6
776.29	6
777.036	6
777.783	5
778.53	4
779.276	7
780.023	6
780.769	5
781.516	6
782.262	3
783.008	6
783.754	3
784.5	7
785.246	6
785.992	4
786.738	8
787.484	6
788.23	5
788.975	5
789.721	6
790.466	6
791.212	5
791.957	4
792.702	4
793.447	7
794.193	4
794.938	4
795.683	6
796.427	6
797.172	6
797.917	3
798.662	2
799.406	5
800.151	5
800.895	4
801.64	5
802.384	6
803.128	5
803.872	4
804.616	3
805.36	4
806.104	4
806.848	4
807.592	3
808.336	2
809.079	6
809.823	5
810.566	4
811.31	6
812.053	2
812.796	4
813.539	2
814.283	4
815.026	3
815.769	6
816.511	2
817.254	4
817.997	2
818.74	3
819.482	5
820.225	5
820.967	2
821.71	4
822.452	3
823.194	3
823.936	3
824.678	3
825.42	3
826.162	4
826.904	3
827.646	3
828.388	3
829.129	3
829.871	3
830.612	1
831.354	0
832.095	2
832.836	4
833.577	2
834.319	3
835.06	1
835.801	1
836.542	1
837.282	3
838.023	2
838.764	3
839.504	2
840.245	4
840.985	3
841.726	2
842.466	2
843.206	1
843.946	2
844.687	2
845.427	0
846.166	3
846.906	1
847.646	4
848.386	1
849.125	3
849.865	2
850.605	3
851.344	1
852.083	1
852.823	3
853.562	1
854.301	1
855.04	3
855.779	2
856.518	1
857.257	2
857.995	1
858.734	1
859.473	3
860.211	0
860.95	2
861.688	1
862.426	-2
863.165	0
863.903	0
864.641	2
865.379	2
866.117	2
866.855	2
867.593	1
868.33	4
869.068	2
869.806	1
870.543	1
871.28	2
872.018	1
872.755	-1
873.492	3
874.229	1
874.967	1
875.703	0
876.44	-2
877.177	2
877.914	-2
878.651	1
879.387	3
880.124	-1
880.86	0
881.597	1
882.333	1
883.069	0
883.806	1
884.542	1
885.278	2
886.014	4
886.749	-1
887.485	3
888.221	0
888.957	3
889.692	1
890.428	1
891.163	0
891.899	0
892.634	1
893.369	2
894.104	4
894.839	1
895.574	-1
896.309	-1
897.044	0
897.779	0
898.514	0
899.248	1
899.983	1
900.717	0
901.452	1
902.186	1
902.92	2
903.654	1
904.389	1
905.123	0
905.857	0
906.59	2
907.324	0
908.058	0
908.792	-1
909.525	-2
910.259	2
910.992	0
911.726	0
912.459	0
913.192	0
913.925	0
914.658	-1
915.391	1
916.124	0
916.857	2
917.59	0
918.323	0
919.055	1
919.788	1
920.521	0
921.253	1
921.985	2
922.718	-2
923.45	-1
924.182	-1
924.914	1
925.646	0
926.378	1
927.11	2
927.841	2
928.573	0
929.305	-1
930.036	1
930.768	1
931.499	0
932.23	0
932.962	4
933.693	0
934.424	0
935.155	-1
935.886	1
936.617	0
937.348	0
938.078	-2
938.809	1
939.54	1
940.27	1
941.001	0
941.731	2
942.461	2
943.191	0
943.922	1
944.652	0
945.382	0
946.112	1
946.841	0
947.571	3
948.301	1
949.031	1
949.76	1
950.49	1
951.219	2
951.948	0
952.678	0
953.407	2
954.136	1
954.865	3
955.594	0
956.323	0
957.052	-1
957.78	-1
958.509	1
959.238	0
959.966	1
960.695	0
961.423	-2
962.151	-2
962.88	-2
963.608	1
964.336	-1
965.064	1
965.792	-2
966.52	-2
967.247	1
967.975	-1
968.703	1
969.43	2
970.158	0
970.885	0
971.613	-2
972.34	0
973.067	-1
973.794	2
974.521	0
975.248	1
975.975	0
976.702	2
977.429	2
978.156	0
978.882	2
979.609	1
980.335	0
981.062	0
981.788	0
982.514	1
983.24	0
983.967	1
984.693	2
985.419	1
986.144	2
986.87	1
987.596	0
988.322	0
989.047	-1
989.773	1
990.498	-1
991.224	0
991.949	-1
992.674	2
993.399	0
994.124	3
994.849	2
995.574	0
996.299	0
997.024	-1
997.749	1
998.473	0
999.198	1
999.922	3
1000.647	0
1001.371	2
1002.095	-3
1002.82	2
1003.544	-2
1004.268	0
1004.992	-2
1005.716	0
1006.439	-1
1007.163	-1
1007.887	1
1008.611	1
1009.334	-1
1010.058	1
1010.781	1
1011.504	1
1012.228	0
1012.951	-1
1013.674	0
1014.397	1
1015.12	1
