节点500_145_QEPB04081__133__11-31-04-595.txt的数据

Date: Wed Nov 12 11:31:04 CST 2025
User: PC
Spectrometer: QEPB0408
触发模式: 0
积分时间 (秒): 1.000000E-2
Scans to average: 1
启用暗噪声校正: true
启用非线性校正: false
滑动平均宽度: 0
X轴模式: Wavelengths
Number of Pixels in Spectrum: 1044
>>>>>Begin Spectral Data<<<<<
220.843	0.38
221.644	-1.62
222.444	-2.62
223.244	-1.62
224.045	-2.62
224.845	-0.62
225.645	-2.62
226.445	0.38
227.245	-0.62
228.045	-1.62
228.845	-1.62
229.645	0.38
230.444	-0.62
231.244	-2.62
232.043	-0.62
232.843	0.38
233.642	-1.62
234.442	0.38
235.241	-0.62
236.04	0.38
236.839	2.38
237.638	1.38
238.437	1.38
239.236	1.38
240.035	1.38
240.833	0.38
241.632	0.38
242.43	0.38
243.229	0.38
244.027	0.38
244.826	-0.62
245.624	0.38
246.422	0.38
247.22	1.38
248.018	1.38
248.816	1.38
249.614	0.38
250.412	1.38
251.21	2.38
252.007	1.38
252.805	1.38
253.602	4.38
254.4	2.38
255.197	2.38
255.994	0.38
256.791	3.38
257.589	4.38
258.386	3.38
259.183	4.38
259.979	4.38
260.776	4.38
261.573	5.38
262.37	2.38
263.166	4.38
263.963	3.38
264.759	5.38
265.556	3.38
266.352	5.38
267.148	6.38
267.944	6.38
268.74	4.38
269.536	5.38
270.332	8.38
271.128	6.38
271.924	8.38
272.719	7.38
273.515	10.38
274.311	8.38
275.106	7.38
275.901	6.38
276.697	9.38
277.492	11.38
278.287	8.38
279.082	8.38
279.877	9.38
280.672	9.38
281.467	10.38
282.262	11.38
283.056	9.38
283.851	10.38
284.646	9.38
285.44	10.38
286.234	13.38
287.029	10.38
287.823	10.38
288.617	9.38
289.411	9.38
290.205	8.38
290.999	10.38
291.793	8.38
292.587	12.38
293.381	9.38
294.174	9.38
294.968	9.38
295.761	9.38
296.555	9.38
297.348	10.38
298.141	7.38
298.935	10.38
299.728	8.38
300.521	7.38
301.314	6.38
302.107	5.38
302.899	6.38
303.692	8.38
304.485	8.38
305.277	5.38
306.07	6.38
306.862	8.38
307.655	8.38
308.447	7.38
309.239	6.38
310.031	8.38
310.823	7.38
311.615	7.38
312.407	6.38
313.199	3.38
313.991	5.38
314.783	5.38
315.574	4.38
316.366	3.38
317.157	5.38
317.949	3.38
318.74	6.38
319.531	3.38
320.322	4.38
321.113	4.38
321.904	4.38
322.695	4.38
323.486	3.38
324.277	4.38
325.068	3.38
325.858	3.38
326.649	1.38
327.439	2.38
328.23	4.38
329.02	1.38
329.81	4.38
330.6	2.38
331.391	4.38
332.181	3.38
332.971	1.38
333.76	4.38
334.55	2.38
335.34	3.38
336.13	0.38
336.919	3.38
337.709	3.38
338.498	0.38
339.287	4.38
340.077	2.38
340.866	3.38
341.655	2.38
342.444	3.38
343.233	2.38
344.022	2.38
344.811	2.38
345.6	1.38
346.388	2.38
347.177	1.38
347.965	3.38
348.754	4.38
349.542	1.38
350.33	3.38
351.119	1.38
351.907	1.38
352.695	2.38
353.483	4.38
354.271	3.38
355.059	0.38
355.846	3.38
356.634	-0.62
357.422	5.38
358.209	0.38
358.997	1.38
359.784	3.38
360.571	2.38
361.359	2.38
362.146	2.38
362.933	4.38
363.72	2.38
364.507	3.38
365.294	1.38
366.081	1.38
366.867	3.38
367.654	3.38
368.44	2.38
369.227	2.38
370.013	1.38
370.8	1.38
371.586	1.38
372.372	4.38
373.158	1.38
373.944	1.38
374.73	1.38
375.516	1.38
376.302	2.38
377.088	2.38
377.873	3.38
378.659	2.38
379.445	2.38
380.23	0.38
381.015	2.38
381.801	5.38
382.586	2.38
383.371	3.38
384.156	1.38
384.941	2.38
385.726	3.38
386.511	3.38
387.296	3.38
388.08	2.38
388.865	3.38
389.649	4.38
390.434	3.38
391.218	2.38
392.003	4.38
392.787	5.38
393.571	4.38
394.355	1.38
395.139	2.38
395.923	1.38
396.707	4.38
397.491	2.38
398.274	4.38
399.058	2.38
399.842	3.38
400.625	3.38
401.408	2.38
402.192	-0.62
402.975	1.38
403.758	3.38
404.541	0.38
405.324	4.38
406.107	4.38
406.89	0.38
407.673	1.38
408.456	2.38
409.238	4.38
410.021	3.38
410.803	4.38
411.586	3.38
412.368	2.38
413.151	5.38
413.933	1.38
414.715	4.38
415.497	4.38
416.279	4.38
417.061	6.38
417.843	4.38
418.624	6.38
419.406	1.38
420.188	4.38
420.969	4.38
421.751	5.38
422.532	4.38
423.313	3.38
424.095	4.38
424.876	2.38
425.657	7.38
426.438	5.38
427.219	5.38
428	4.38
428.78	5.38
429.561	7.38
430.342	7.38
431.122	7.38
431.903	8.38
432.683	6.38
433.464	7.38
434.244	6.38
435.024	7.38
435.804	8.38
436.584	9.38
437.364	6.38
438.144	8.38
438.924	10.38
439.704	10.38
440.483	11.38
441.263	12.38
442.042	12.38
442.822	12.38
443.601	8.38
444.38	14.38
445.16	13.38
445.939	15.38
446.718	16.38
447.497	16.38
448.276	20.38
449.054	20.38
449.833	21.38
450.612	18.38
451.391	27.38
452.169	29.38
452.948	32.38
453.726	31.38
454.504	36.38
455.282	40.38
456.061	41.38
456.839	48.38
457.617	48.38
458.395	57.38
459.172	63.38
459.95	70.38
460.728	76.38
461.506	80.38
462.283	92.38
463.061	105.38
463.838	115.38
464.615	131.38
465.393	140.38
466.17	163.38
466.947	183.38
467.724	208.38
468.501	226.38
469.278	261.38
470.055	287.38
470.831	323.38
471.608	354.38
472.385	389.38
473.161	435.38
473.938	490.38
474.714	543.38
475.49	599.38
476.266	680.38
477.043	756.38
477.819	834.38
478.595	917.38
479.371	1009.38
480.146	1122.38
480.922	1263.38
481.698	1398.38
482.473	1534.38
483.249	1721.38
484.024	1903.38
484.8	2105.38
485.575	2319.38
486.35	2581.38
487.126	2850.38
487.901	3148.38
488.676	3498.38
489.451	3875.38
490.225	4292.38
491	4680.38
491.775	5198.38
492.55	5689.38
493.324	6249.38
494.099	6900.38
494.873	7515.38
495.647	8200.38
496.422	8910.38
497.196	9673.38
497.97	10444.38
498.744	11247.38
499.518	12042.38
500.292	12858.38
501.066	13574.38
501.839	14337.38
502.613	15007.38
503.387	15603.38
504.16	16196.38
504.934	16590.38
505.707	16914.38
506.48	17139.38
507.253	17237.38
508.027	17221.38
508.8	17083.38
509.573	16792.38
510.346	16442.38
511.118	16075.38
511.891	15569.38
512.664	15056.38
513.437	14464.38
514.209	13891.38
514.982	13279.38
515.754	12713.38
516.526	12111.38
517.298	11577.38
518.071	11029.38
518.843	10561.38
519.615	10143.38
520.387	9654.38
521.159	9307.38
521.93	8953.38
522.702	8585.38
523.474	8248.38
524.245	7914.38
525.017	7584.38
525.788	7304.38
526.56	6981.38
527.331	6697.38
528.102	6395.38
528.873	6092.38
529.644	5820.38
530.415	5559.38
531.186	5267.38
531.957	5012.38
532.728	4725.38
533.498	4475.38
534.269	4226.38
535.039	3999.38
535.81	3760.38
536.58	3542.38
537.351	3344.38
538.121	3172.38
538.891	2979.38
539.661	2835.38
540.431	2680.38
541.201	2524.38
541.971	2400.38
542.741	2280.38
543.51	2143.38
544.28	2022.38
545.05	1946.38
545.819	1842.38
546.588	1770.38
547.358	1667.38
548.127	1581.38
548.896	1521.38
549.665	1428.38
550.434	1355.38
551.203	1281.38
551.972	1229.38
552.741	1146.38
553.51	1101.38
554.278	1025.38
555.047	952.38
555.815	923.38
556.584	858.38
557.352	801.38
558.121	756.38
558.889	725.38
559.657	682.38
560.425	630.38
561.193	607.38
561.961	560.38
562.729	545.38
563.496	501.38
564.264	475.38
565.032	446.38
565.799	430.38
566.567	400.38
567.334	376.38
568.101	354.38
568.869	343.38
569.636	316.38
570.403	298.38
571.17	276.38
571.937	266.38
572.704	251.38
573.471	239.38
574.237	221.38
575.004	207.38
575.771	198.38
576.537	182.38
577.303	176.38
578.07	166.38
578.836	155.38
579.602	143.38
580.368	133.38
581.134	128.38
581.9	124.38
582.666	115.38
583.432	111.38
584.198	107.38
584.964	96.38
585.729	94.38
586.495	86.38
587.26	81.38
588.025	76.38
588.791	75.38
589.556	70.38
590.321	68.38
591.086	64.38
591.851	59.38
592.616	58.38
593.381	51.38
594.146	56.38
594.911	47.38
595.675	49.38
596.44	46.38
597.204	42.38
597.969	38.38
598.733	40.38
599.497	33.38
600.261	34.38
601.025	30.38
601.79	32.38
602.553	28.38
603.317	28.38
604.081	28.38
604.845	27.38
605.609	26.38
606.372	22.38
607.136	23.38
607.899	24.38
608.662	22.38
609.426	20.38
610.189	19.38
610.952	20.38
611.715	17.38
612.478	17.38
613.241	15.38
614.004	16.38
614.767	14.38
615.529	11.38
616.292	15.38
617.055	13.38
617.817	15.38
618.579	12.38
619.342	10.38
620.104	12.38
620.866	13.38
621.628	6.38
622.39	9.38
623.152	8.38
623.914	11.38
624.676	11.38
625.438	7.38
626.199	8.38
626.961	7.38
627.722	6.38
628.484	6.38
629.245	10.38
630.006	6.38
630.768	6.38
631.529	6.38
632.29	7.38
633.051	7.38
633.812	7.38
634.573	5.38
635.333	4.38
636.094	5.38
636.855	6.38
637.615	4.38
638.376	5.38
639.136	6.38
639.896	5.38
640.657	4.38
641.417	4.38
642.177	4.38
642.937	8.38
643.697	4.38
644.457	3.38
645.216	4.38
645.976	3.38
646.736	2.38
647.495	3.38
648.255	2.38
649.014	4.38
649.774	5.38
650.533	2.38
651.292	1.38
652.051	2.38
652.81	2.38
653.569	1.38
654.328	3.38
655.087	4.38
655.846	2.38
656.604	3.38
657.363	0.38
658.121	4.38
658.88	2.38
659.638	6.38
660.397	5.38
661.155	3.38
661.913	2.38
662.671	0.38
663.429	4.38
664.187	3.38
664.945	4.38
665.703	1.38
666.46	1.38
667.218	2.38
667.976	2.38
668.733	2.38
669.49	1.38
670.248	2.38
671.005	0.38
671.762	2.38
672.519	0.38
673.276	0.38
674.033	-0.62
674.79	-0.62
675.547	1.38
676.304	2.38
677.06	0.38
677.817	2.38
678.574	1.38
679.33	1.38
680.086	0.38
680.843	3.38
681.599	2.38
682.355	-0.62
683.111	3.38
683.867	0.38
684.623	2.38
685.379	1.38
686.135	2.38
686.89	1.38
687.646	1.38
688.402	4.38
689.157	2.38
689.912	0.38
690.668	-0.62
691.423	2.38
692.178	1.38
692.933	-0.62
693.688	0.38
694.443	-0.62
695.198	1.38
695.953	0.38
696.708	0.38
697.462	1.38
698.217	3.38
698.972	0.38
699.726	-0.62
700.48	0.38
701.235	0.38
701.989	0.38
702.743	2.38
703.497	0.38
704.251	-0.62
705.005	-0.62
705.759	1.38
706.513	1.38
707.266	0.38
708.02	1.38
708.774	2.38
709.527	1.38
710.28	-1.62
711.034	2.38
711.787	2.38
712.54	-0.62
713.293	2.38
714.046	2.38
714.799	1.38
715.552	0.38
716.305	1.38
717.058	1.38
717.81	0.38
718.563	0.38
719.315	1.38
720.068	3.38
720.82	3.38
721.573	2.38
722.325	-0.62
723.077	1.38
723.829	2.38
724.581	0.38
725.333	-0.62
726.085	1.38
726.836	0.38
727.588	1.38
728.34	1.38
729.091	0.38
729.843	0.38
730.594	1.38
731.346	2.38
732.097	2.38
732.848	0.38
733.599	0.38
734.35	2.38
735.101	1.38
735.852	1.38
736.603	3.38
737.354	2.38
738.104	1.38
738.855	2.38
739.605	1.38
740.356	0.38
741.106	1.38
741.856	0.38
742.607	3.38
743.357	4.38
744.107	0.38
744.857	1.38
745.607	0.38
746.357	3.38
747.106	1.38
747.856	0.38
748.606	0.38
749.355	-0.62
750.105	2.38
750.854	2.38
751.603	0.38
752.353	0.38
753.102	-0.62
753.851	2.38
754.6	0.38
755.349	3.38
756.098	2.38
756.847	1.38
757.595	3.38
758.344	-0.62
759.093	3.38
759.841	0.38
760.589	4.38
761.338	0.38
762.086	2.38
762.834	3.38
763.582	1.38
764.331	4.38
765.079	1.38
765.826	2.38
766.574	3.38
767.322	3.38
768.07	2.38
768.817	3.38
769.565	5.38
770.312	3.38
771.06	3.38
771.807	3.38
772.554	2.38
773.302	5.38
774.049	4.38
774.796	5.38
775.543	6.38
776.29	5.38
777.036	6.38
777.783	5.38
778.53	3.38
779.276	2.38
780.023	4.38
780.769	4.38
781.516	3.38
782.262	3.38
783.008	3.38
783.754	4.38
784.5	3.38
785.246	4.38
785.992	4.38
786.738	6.38
787.484	6.38
788.23	5.38
788.975	6.38
789.721	3.38
790.466	4.38
791.212	4.38
791.957	3.38
792.702	7.38
793.447	6.38
794.193	4.38
794.938	2.38
795.683	4.38
796.427	3.38
797.172	4.38
797.917	6.38
798.662	3.38
799.406	5.38
800.151	4.38
800.895	2.38
801.64	2.38
802.384	3.38
803.128	3.38
803.872	3.38
804.616	2.38
805.36	2.38
806.104	3.38
806.848	3.38
807.592	4.38
808.336	1.38
809.079	3.38
809.823	6.38
810.566	4.38
811.31	1.38
812.053	2.38
812.796	4.38
813.539	4.38
814.283	1.38
815.026	3.38
815.769	2.38
816.511	3.38
817.254	4.38
817.997	2.38
818.74	1.38
819.482	2.38
820.225	2.38
820.967	1.38
821.71	3.38
822.452	1.38
823.194	2.38
823.936	3.38
824.678	0.38
825.42	4.38
826.162	1.38
826.904	4.38
827.646	2.38
828.388	0.38
829.129	2.38
829.871	-2.62
830.612	3.38
831.354	2.38
832.095	2.38
832.836	0.38
833.577	0.38
834.319	2.38
835.06	-0.62
835.801	0.38
836.542	0.38
837.282	1.38
838.023	2.38
838.764	1.38
839.504	4.38
840.245	2.38
840.985	1.38
841.726	0.38
842.466	2.38
843.206	-0.62
843.946	-0.62
844.687	1.38
845.427	0.38
846.166	1.38
846.906	-0.62
847.646	0.38
848.386	2.38
849.125	2.38
849.865	1.38
850.605	1.38
851.344	1.38
852.083	-0.62
852.823	0.38
853.562	-0.62
854.301	0.38
855.04	0.38
855.779	1.38
856.518	2.38
857.257	2.38
857.995	-0.62
858.734	1.38
859.473	0.38
860.211	1.38
860.95	0.38
861.688	1.38
862.426	2.38
863.165	-0.62
863.903	1.38
864.641	-0.62
865.379	2.38
866.117	1.38
866.855	0.38
867.593	0.38
868.33	-1.62
869.068	1.38
869.806	1.38
870.543	0.38
871.28	1.38
872.018	0.38
872.755	0.38
873.492	-1.62
874.229	2.38
874.967	0.38
875.703	1.38
876.44	0.38
877.177	0.38
877.914	1.38
878.651	0.38
879.387	0.38
880.124	-0.62
880.86	0.38
881.597	-1.62
882.333	-2.62
883.069	1.38
883.806	0.38
884.542	-0.62
885.278	-1.62
886.014	-0.62
886.749	0.38
887.485	-1.62
888.221	-0.62
888.957	-2.62
889.692	0.38
890.428	-0.62
891.163	1.38
891.899	1.38
892.634	0.38
893.369	1.38
894.104	0.38
894.839	0.38
895.574	-0.62
896.309	1.38
897.044	1.38
897.779	0.38
898.514	1.38
899.248	-1.62
899.983	1.38
900.717	-0.62
901.452	1.38
902.186	0.38
902.92	-0.62
903.654	0.38
904.389	-2.62
905.123	-2.62
905.857	-1.62
906.59	0.38
907.324	2.38
908.058	-0.62
908.792	-0.62
909.525	-0.62
910.259	-0.62
910.992	-0.62
911.726	-1.62
912.459	-2.62
913.192	-3.62
913.925	1.38
914.658	0.38
915.391	0.38
916.124	-0.62
916.857	-0.62
917.59	-2.62
918.323	-1.62
919.055	0.38
919.788	-1.62
920.521	-2.62
921.253	-0.62
921.985	1.38
922.718	-0.62
923.45	0.38
924.182	0.38
924.914	-0.62
925.646	-0.62
926.378	-2.62
927.11	-2.62
927.841	0.38
928.573	-2.62
929.305	1.38
930.036	-1.62
930.768	-2.62
931.499	-1.62
932.23	-2.62
932.962	-1.62
933.693	-2.62
934.424	-0.62
935.155	-0.62
935.886	-0.62
936.617	0.38
937.348	-0.62
938.078	-2.62
938.809	-2.62
939.54	-0.62
940.27	0.38
941.001	-0.62
941.731	-0.62
942.461	-0.62
943.191	1.38
943.922	-1.62
944.652	-0.62
945.382	1.38
946.112	-1.62
946.841	-0.62
947.571	0.38
948.301	1.38
949.031	0.38
949.76	-0.62
950.49	0.38
951.219	-1.62
951.948	1.38
952.678	-0.62
953.407	1.38
954.136	-2.62
954.865	2.38
955.594	0.38
956.323	-1.62
957.052	0.38
957.78	-1.62
958.509	-0.62
959.238	0.38
959.966	0.38
960.695	0.38
961.423	-1.62
962.151	-3.62
962.88	-2.62
963.608	-0.62
964.336	-1.62
965.064	0.38
965.792	1.38
966.52	0.38
967.247	-0.62
967.975	-0.62
968.703	-0.62
969.43	-3.62
970.158	-2.62
970.885	0.38
971.613	-0.62
972.34	-1.62
973.067	-1.62
973.794	-0.62
974.521	-2.62
975.248	0.38
975.975	-0.62
976.702	0.38
977.429	0.38
978.156	-1.62
978.882	-2.62
979.609	-0.62
980.335	2.38
981.062	0.38
981.788	-0.62
982.514	-1.62
983.24	-1.62
983.967	-1.62
984.693	-1.62
985.419	-1.62
986.144	-2.62
986.87	-1.62
987.596	-0.62
988.322	-1.62
989.047	-0.62
989.773	-1.62
990.498	0.38
991.224	-0.62
991.949	-0.62
992.674	1.38
993.399	-1.62
994.124	0.38
994.849	0.38
995.574	0.38
996.299	0.38
997.024	-0.62
997.749	0.38
998.473	-0.62
999.198	-0.62
999.922	1.38
1000.647	0.38
1001.371	2.38
1002.095	-1.62
1002.82	0.38
1003.544	0.38
1004.268	-1.62
1004.992	-3.62
1005.716	-0.62
1006.439	-0.62
1007.163	0.38
1007.887	-0.62
1008.611	-0.62
1009.334	0.38
1010.058	-1.62
1010.781	-2.62
1011.504	0.38
1012.228	-2.62
1012.951	0.38
1013.674	-0.62
1014.397	-0.62
1015.12	-0.62
