节点500_145_QEPB04081__203__11-32-12-503.txt的数据

Date: Wed Nov 12 11:32:12 CST 2025
User: PC
Spectrometer: QEPB0408
触发模式: 0
积分时间 (秒): 1.000000E-2
Scans to average: 1
启用暗噪声校正: true
启用非线性校正: false
滑动平均宽度: 0
X轴模式: Wavelengths
Number of Pixels in Spectrum: 1044
>>>>>Begin Spectral Data<<<<<
220.843	-0.75
221.644	0.25
222.444	-1.75
223.244	3.25
224.045	-1.75
224.845	-0.75
225.645	1.25
226.445	-0.75
227.245	-1.75
228.045	0.25
228.845	0.25
229.645	0.25
230.444	1.25
231.244	-0.75
232.043	-0.75
232.843	0.25
233.642	1.25
234.442	1.25
235.241	1.25
236.04	2.25
236.839	1.25
237.638	0.25
238.437	1.25
239.236	-0.75
240.035	1.25
240.833	0.25
241.632	1.25
242.43	3.25
243.229	3.25
244.027	1.25
244.826	-0.75
245.624	0.25
246.422	2.25
247.22	2.25
248.018	2.25
248.816	2.25
249.614	3.25
250.412	2.25
251.21	2.25
252.007	2.25
252.805	2.25
253.602	3.25
254.4	4.25
255.197	5.25
255.994	3.25
256.791	5.25
257.589	5.25
258.386	3.25
259.183	4.25
259.979	4.25
260.776	4.25
261.573	5.25
262.37	4.25
263.166	4.25
263.963	5.25
264.759	6.25
265.556	4.25
266.352	4.25
267.148	6.25
267.944	8.25
268.74	8.25
269.536	5.25
270.332	7.25
271.128	10.25
271.924	7.25
272.719	9.25
273.515	6.25
274.311	9.25
275.106	7.25
275.901	12.25
276.697	9.25
277.492	8.25
278.287	10.25
279.082	10.25
279.877	11.25
280.672	9.25
281.467	12.25
282.262	11.25
283.056	12.25
283.851	11.25
284.646	11.25
285.44	12.25
286.234	10.25
287.029	10.25
287.823	10.25
288.617	10.25
289.411	14.25
290.205	11.25
290.999	11.25
291.793	10.25
292.587	12.25
293.381	12.25
294.174	10.25
294.968	10.25
295.761	11.25
296.555	11.25
297.348	10.25
298.141	12.25
298.935	8.25
299.728	10.25
300.521	7.25
301.314	7.25
302.107	10.25
302.899	9.25
303.692	9.25
304.485	9.25
305.277	6.25
306.07	7.25
306.862	7.25
307.655	11.25
308.447	7.25
309.239	6.25
310.031	7.25
310.823	7.25
311.615	8.25
312.407	6.25
313.199	7.25
313.991	7.25
314.783	6.25
315.574	6.25
316.366	4.25
317.157	6.25
317.949	4.25
318.74	7.25
319.531	5.25
320.322	5.25
321.113	4.25
321.904	4.25
322.695	6.25
323.486	5.25
324.277	6.25
325.068	3.25
325.858	5.25
326.649	4.25
327.439	4.25
328.23	4.25
329.02	2.25
329.81	6.25
330.6	5.25
331.391	3.25
332.181	1.25
332.971	3.25
333.76	2.25
334.55	3.25
335.34	4.25
336.13	2.25
336.919	3.25
337.709	5.25
338.498	3.25
339.287	3.25
340.077	3.25
340.866	1.25
341.655	3.25
342.444	4.25
343.233	3.25
344.022	3.25
344.811	1.25
345.6	0.25
346.388	2.25
347.177	2.25
347.965	2.25
348.754	3.25
349.542	4.25
350.33	2.25
351.119	3.25
351.907	3.25
352.695	2.25
353.483	1.25
354.271	1.25
355.059	2.25
355.846	0.25
356.634	3.25
357.422	1.25
358.209	4.25
358.997	2.25
359.784	4.25
360.571	2.25
361.359	3.25
362.146	4.25
362.933	2.25
363.72	2.25
364.507	2.25
365.294	2.25
366.081	1.25
366.867	2.25
367.654	0.25
368.44	4.25
369.227	3.25
370.013	1.25
370.8	2.25
371.586	3.25
372.372	4.25
373.158	2.25
373.944	4.25
374.73	2.25
375.516	3.25
376.302	2.25
377.088	1.25
377.873	2.25
378.659	0.25
379.445	2.25
380.23	3.25
381.015	3.25
381.801	3.25
382.586	2.25
383.371	2.25
384.156	3.25
384.941	3.25
385.726	3.25
386.511	2.25
387.296	2.25
388.08	2.25
388.865	4.25
389.649	2.25
390.434	3.25
391.218	2.25
392.003	5.25
392.787	4.25
393.571	4.25
394.355	2.25
395.139	3.25
395.923	4.25
396.707	6.25
397.491	3.25
398.274	4.25
399.058	3.25
399.842	3.25
400.625	4.25
401.408	2.25
402.192	6.25
402.975	2.25
403.758	4.25
404.541	5.25
405.324	1.25
406.107	2.25
406.89	4.25
407.673	5.25
408.456	3.25
409.238	5.25
410.021	4.25
410.803	3.25
411.586	3.25
412.368	4.25
413.151	5.25
413.933	4.25
414.715	5.25
415.497	4.25
416.279	5.25
417.061	6.25
417.843	5.25
418.624	7.25
419.406	4.25
420.188	5.25
420.969	4.25
421.751	6.25
422.532	6.25
423.313	3.25
424.095	7.25
424.876	6.25
425.657	6.25
426.438	5.25
427.219	9.25
428	8.25
428.78	6.25
429.561	10.25
430.342	7.25
431.122	7.25
431.903	8.25
432.683	7.25
433.464	7.25
434.244	8.25
435.024	8.25
435.804	7.25
436.584	11.25
437.364	9.25
438.144	8.25
438.924	12.25
439.704	12.25
440.483	13.25
441.263	13.25
442.042	11.25
442.822	11.25
443.601	14.25
444.38	15.25
445.16	13.25
445.939	18.25
446.718	17.25
447.497	19.25
448.276	22.25
449.054	18.25
449.833	24.25
450.612	25.25
451.391	24.25
452.169	30.25
452.948	32.25
453.726	34.25
454.504	36.25
455.282	41.25
456.061	43.25
456.839	46.25
457.617	52.25
458.395	57.25
459.172	61.25
459.95	68.25
460.728	78.25
461.506	87.25
462.283	96.25
463.061	107.25
463.838	123.25
464.615	136.25
465.393	151.25
466.17	168.25
466.947	182.25
467.724	208.25
468.501	237.25
469.278	262.25
470.055	285.25
470.831	326.25
471.608	358.25
472.385	408.25
473.161	450.25
473.938	500.25
474.714	555.25
475.49	616.25
476.266	679.25
477.043	767.25
477.819	857.25
478.595	937.25
479.371	1034.25
480.146	1145.25
480.922	1263.25
481.698	1413.25
482.473	1561.25
483.249	1710.25
484.024	1893.25
484.8	2092.25
485.575	2297.25
486.35	2556.25
487.126	2812.25
487.901	3133.25
488.676	3407.25
489.451	3776.25
490.225	4163.25
491	4612.25
491.775	5052.25
492.55	5541.25
493.324	6101.25
494.099	6666.25
494.873	7282.25
495.647	7976.25
496.422	8645.25
497.196	9366.25
497.97	10126.25
498.744	10916.25
499.518	11629.25
500.292	12445.25
501.066	13146.25
501.839	13875.25
502.613	14614.25
503.387	15191.25
504.16	15743.25
504.934	16183.25
505.707	16550.25
506.48	16777.25
507.253	16854.25
508.027	16984.25
508.8	16833.25
509.573	16624.25
510.346	16307.25
511.118	15945.25
511.891	15504.25
512.664	15041.25
513.437	14418.25
514.209	13846.25
514.982	13287.25
515.754	12811.25
516.526	12159.25
517.298	11594.25
518.071	11103.25
518.843	10639.25
519.615	10137.25
520.387	9726.25
521.159	9356.25
521.93	8947.25
522.702	8623.25
523.474	8279.25
524.245	7915.25
525.017	7644.25
525.788	7310.25
526.56	7035.25
527.331	6735.25
528.102	6440.25
528.873	6119.25
529.644	5869.25
530.415	5576.25
531.186	5327.25
531.957	5038.25
532.728	4777.25
533.498	4519.25
534.269	4279.25
535.039	4039.25
535.81	3805.25
536.58	3588.25
537.351	3402.25
538.121	3206.25
538.891	3018.25
539.661	2876.25
540.431	2696.25
541.201	2560.25
541.971	2437.25
542.741	2311.25
543.51	2191.25
544.28	2067.25
545.05	1972.25
545.819	1859.25
546.588	1782.25
547.358	1706.25
548.127	1628.25
548.896	1537.25
549.665	1442.25
550.434	1363.25
551.203	1305.25
551.972	1233.25
552.741	1166.25
553.51	1116.25
554.278	1058.25
555.047	981.25
555.815	935.25
556.584	882.25
557.352	821.25
558.121	773.25
558.889	727.25
559.657	687.25
560.425	664.25
561.193	612.25
561.961	575.25
562.729	550.25
563.496	520.25
564.264	484.25
565.032	466.25
565.799	428.25
566.567	419.25
567.334	385.25
568.101	371.25
568.869	343.25
569.636	333.25
570.403	304.25
571.17	293.25
571.937	282.25
572.704	260.25
573.471	242.25
574.237	229.25
575.004	215.25
575.771	203.25
576.537	187.25
577.303	178.25
578.07	169.25
578.836	160.25
579.602	149.25
580.368	139.25
581.134	134.25
581.9	121.25
582.666	120.25
583.432	115.25
584.198	106.25
584.964	102.25
585.729	93.25
586.495	90.25
587.26	85.25
588.025	80.25
588.791	76.25
589.556	74.25
590.321	67.25
591.086	66.25
591.851	66.25
592.616	56.25
593.381	54.25
594.146	52.25
594.911	50.25
595.675	49.25
596.44	49.25
597.204	44.25
597.969	41.25
598.733	37.25
599.497	37.25
600.261	35.25
601.025	34.25
601.79	35.25
602.553	32.25
603.317	30.25
604.081	28.25
604.845	26.25
605.609	27.25
606.372	26.25
607.136	19.25
607.899	24.25
608.662	18.25
609.426	24.25
610.189	23.25
610.952	20.25
611.715	18.25
612.478	19.25
613.241	19.25
614.004	15.25
614.767	17.25
615.529	16.25
616.292	14.25
617.055	14.25
617.817	14.25
618.579	12.25
619.342	11.25
620.104	11.25
620.866	11.25
621.628	13.25
622.39	13.25
623.152	9.25
623.914	13.25
624.676	9.25
625.438	12.25
626.199	10.25
626.961	10.25
627.722	10.25
628.484	8.25
629.245	9.25
630.006	6.25
630.768	8.25
631.529	6.25
632.29	5.25
633.051	7.25
633.812	5.25
634.573	6.25
635.333	9.25
636.094	7.25
636.855	6.25
637.615	4.25
638.376	4.25
639.136	6.25
639.896	7.25
640.657	4.25
641.417	7.25
642.177	7.25
642.937	6.25
643.697	7.25
644.457	5.25
645.216	5.25
645.976	4.25
646.736	5.25
647.495	6.25
648.255	4.25
649.014	5.25
649.774	4.25
650.533	5.25
651.292	5.25
652.051	5.25
652.81	1.25
653.569	4.25
654.328	4.25
655.087	4.25
655.846	5.25
656.604	5.25
657.363	4.25
658.121	4.25
658.88	4.25
659.638	2.25
660.397	1.25
661.155	3.25
661.913	3.25
662.671	1.25
663.429	1.25
664.187	3.25
664.945	3.25
665.703	2.25
666.46	3.25
667.218	4.25
667.976	3.25
668.733	5.25
669.49	1.25
670.248	2.25
671.005	1.25
671.762	5.25
672.519	2.25
673.276	2.25
674.033	2.25
674.79	1.25
675.547	1.25
676.304	1.25
677.06	3.25
677.817	2.25
678.574	2.25
679.33	1.25
680.086	0.25
680.843	2.25
681.599	2.25
682.355	2.25
683.111	2.25
683.867	4.25
684.623	-0.75
685.379	2.25
686.135	2.25
686.89	3.25
687.646	3.25
688.402	3.25
689.157	1.25
689.912	1.25
690.668	-0.75
691.423	1.25
692.178	2.25
692.933	-0.75
693.688	3.25
694.443	-0.75
695.198	2.25
695.953	1.25
696.708	2.25
697.462	5.25
698.217	-0.75
698.972	0.25
699.726	2.25
700.48	2.25
701.235	2.25
701.989	1.25
702.743	1.25
703.497	1.25
704.251	2.25
705.005	2.25
705.759	2.25
706.513	1.25
707.266	1.25
708.02	2.25
708.774	0.25
709.527	1.25
710.28	2.25
711.034	2.25
711.787	1.25
712.54	5.25
713.293	2.25
714.046	2.25
714.799	2.25
715.552	2.25
716.305	5.25
717.058	3.25
717.81	3.25
718.563	2.25
719.315	1.25
720.068	4.25
720.82	2.25
721.573	2.25
722.325	4.25
723.077	3.25
723.829	2.25
724.581	1.25
725.333	4.25
726.085	1.25
726.836	1.25
727.588	2.25
728.34	1.25
729.091	3.25
729.843	1.25
730.594	4.25
731.346	2.25
732.097	4.25
732.848	3.25
733.599	2.25
734.35	0.25
735.101	1.25
735.852	1.25
736.603	0.25
737.354	2.25
738.104	0.25
738.855	3.25
739.605	2.25
740.356	1.25
741.106	3.25
741.856	2.25
742.607	3.25
743.357	1.25
744.107	2.25
744.857	2.25
745.607	3.25
746.357	3.25
747.106	2.25
747.856	4.25
748.606	3.25
749.355	6.25
750.105	3.25
750.854	3.25
751.603	3.25
752.353	2.25
753.102	3.25
753.851	2.25
754.6	0.25
755.349	5.25
756.098	2.25
756.847	3.25
757.595	3.25
758.344	-0.75
759.093	3.25
759.841	3.25
760.589	2.25
761.338	2.25
762.086	6.25
762.834	4.25
763.582	5.25
764.331	5.25
765.079	4.25
765.826	2.25
766.574	7.25
767.322	5.25
768.07	5.25
768.817	3.25
769.565	5.25
770.312	3.25
771.06	3.25
771.807	4.25
772.554	5.25
773.302	5.25
774.049	4.25
774.796	5.25
775.543	6.25
776.29	6.25
777.036	4.25
777.783	7.25
778.53	3.25
779.276	4.25
780.023	4.25
780.769	5.25
781.516	6.25
782.262	4.25
783.008	7.25
783.754	2.25
784.5	6.25
785.246	4.25
785.992	3.25
786.738	7.25
787.484	6.25
788.23	5.25
788.975	5.25
789.721	6.25
790.466	5.25
791.212	4.25
791.957	5.25
792.702	4.25
793.447	3.25
794.193	3.25
794.938	5.25
795.683	7.25
796.427	4.25
797.172	4.25
797.917	6.25
798.662	5.25
799.406	4.25
800.151	8.25
800.895	7.25
801.64	5.25
802.384	4.25
803.128	4.25
803.872	4.25
804.616	5.25
805.36	2.25
806.104	4.25
806.848	1.25
807.592	3.25
808.336	4.25
809.079	5.25
809.823	5.25
810.566	3.25
811.31	1.25
812.053	4.25
812.796	3.25
813.539	5.25
814.283	4.25
815.026	2.25
815.769	4.25
816.511	4.25
817.254	2.25
817.997	2.25
818.74	3.25
819.482	3.25
820.225	4.25
820.967	2.25
821.71	3.25
822.452	2.25
823.194	1.25
823.936	1.25
824.678	4.25
825.42	2.25
826.162	3.25
826.904	3.25
827.646	4.25
828.388	3.25
829.129	2.25
829.871	2.25
830.612	3.25
831.354	0.25
832.095	4.25
832.836	3.25
833.577	5.25
834.319	1.25
835.06	2.25
835.801	3.25
836.542	2.25
837.282	4.25
838.023	1.25
838.764	4.25
839.504	2.25
840.245	2.25
840.985	0.25
841.726	2.25
842.466	4.25
843.206	2.25
843.946	3.25
844.687	1.25
845.427	2.25
846.166	3.25
846.906	1.25
847.646	1.25
848.386	0.25
849.125	1.25
849.865	3.25
850.605	1.25
851.344	3.25
852.083	1.25
852.823	3.25
853.562	1.25
854.301	3.25
855.04	2.25
855.779	0.25
856.518	1.25
857.257	1.25
857.995	2.25
858.734	1.25
859.473	3.25
860.211	4.25
860.95	2.25
861.688	2.25
862.426	0.25
863.165	3.25
863.903	0.25
864.641	1.25
865.379	0.25
866.117	0.25
866.855	1.25
867.593	1.25
868.33	2.25
869.068	1.25
869.806	-0.75
870.543	0.25
871.28	3.25
872.018	1.25
872.755	0.25
873.492	2.25
874.229	1.25
874.967	2.25
875.703	3.25
876.44	2.25
877.177	3.25
877.914	-0.75
878.651	1.25
879.387	-0.75
880.124	2.25
880.86	1.25
881.597	1.25
882.333	2.25
883.069	0.25
883.806	-1.75
884.542	1.25
885.278	1.25
886.014	-0.75
886.749	-0.75
887.485	1.25
888.221	1.25
888.957	2.25
889.692	2.25
890.428	1.25
891.163	1.25
891.899	-0.75
892.634	3.25
893.369	1.25
894.104	0.25
894.839	1.25
895.574	-1.75
896.309	0.25
897.044	0.25
897.779	2.25
898.514	1.25
899.248	0.25
899.983	0.25
900.717	0.25
901.452	1.25
902.186	1.25
902.92	1.25
903.654	0.25
904.389	0.25
905.123	2.25
905.857	-1.75
906.59	0.25
907.324	0.25
908.058	1.25
908.792	-1.75
909.525	0.25
910.259	-1.75
910.992	0.25
911.726	-0.75
912.459	-0.75
913.192	-0.75
913.925	-0.75
914.658	1.25
915.391	0.25
916.124	-0.75
916.857	1.25
917.59	0.25
918.323	1.25
919.055	2.25
919.788	-0.75
920.521	1.25
921.253	-2.75
921.985	2.25
922.718	0.25
923.45	1.25
924.182	0.25
924.914	2.25
925.646	2.25
926.378	-1.75
927.11	0.25
927.841	-0.75
928.573	3.25
929.305	1.25
930.036	0.25
930.768	0.25
931.499	-1.75
932.23	0.25
932.962	0.25
933.693	1.25
934.424	0.25
935.155	-1.75
935.886	-1.75
936.617	-1.75
937.348	2.25
938.078	-0.75
938.809	0.25
939.54	1.25
940.27	1.25
941.001	2.25
941.731	-0.75
942.461	1.25
943.191	1.25
943.922	-1.75
944.652	0.25
945.382	-0.75
946.112	1.25
946.841	-1.75
947.571	1.25
948.301	0.25
949.031	-1.75
949.76	2.25
950.49	0.25
951.219	0.25
951.948	2.25
952.678	-1.75
953.407	-1.75
954.136	1.25
954.865	0.25
955.594	-1.75
956.323	1.25
957.052	1.25
957.78	0.25
958.509	-0.75
959.238	0.25
959.966	0.25
960.695	-1.75
961.423	-1.75
962.151	1.25
962.88	0.25
963.608	1.25
964.336	0.25
965.064	1.25
965.792	-0.75
966.52	1.25
967.247	0.25
967.975	-1.75
968.703	1.25
969.43	-0.75
970.158	0.25
970.885	0.25
971.613	0.25
972.34	-1.75
973.067	-0.75
973.794	1.25
974.521	-1.75
975.248	-0.75
975.975	-1.75
976.702	-0.75
977.429	-0.75
978.156	0.25
978.882	0.25
979.609	-1.75
980.335	1.25
981.062	-0.75
981.788	0.25
982.514	-0.75
983.24	2.25
983.967	-0.75
984.693	-0.75
985.419	-1.75
986.144	-1.75
986.87	-0.75
987.596	0.25
988.322	-0.75
989.047	0.25
989.773	0.25
990.498	0.25
991.224	-0.75
991.949	0.25
992.674	-0.75
993.399	-0.75
994.124	1.25
994.849	-0.75
995.574	0.25
996.299	0.25
997.024	1.25
997.749	1.25
998.473	0.25
999.198	0.25
999.922	-0.75
1000.647	1.25
1001.371	4.25
1002.095	0.25
1002.82	0.25
1003.544	-2.75
1004.268	0.25
1004.992	-0.75
1005.716	-2.75
1006.439	0.25
1007.163	0.25
1007.887	0.25
1008.611	-2.75
1009.334	1.25
1010.058	0.25
1010.781	1.25
1011.504	1.25
1012.228	1.25
1012.951	-1.75
1013.674	0.25
1014.397	1.25
1015.12	-1.75
