节点500_145_QEPB04081__427__11-35-46-551.txt的数据

Date: Wed Nov 12 11:35:46 CST 2025
User: PC
Spectrometer: QEPB0408
触发模式: 0
积分时间 (秒): 1.000000E-2
Scans to average: 1
启用暗噪声校正: true
启用非线性校正: false
滑动平均宽度: 0
X轴模式: Wavelengths
Number of Pixels in Spectrum: 1044
>>>>>Begin Spectral Data<<<<<
220.843	-0.25
221.644	-0.25
222.444	-2.25
223.244	0.75
224.045	-0.25
224.845	1.75
225.645	0.75
226.445	-0.25
227.245	-1.25
228.045	0.75
228.845	0.75
229.645	-2.25
230.444	0.75
231.244	-0.25
232.043	1.75
232.843	-0.25
233.642	1.75
234.442	1.75
235.241	1.75
236.04	4.75
236.839	0.75
237.638	0.75
238.437	0.75
239.236	1.75
240.035	3.75
240.833	0.75
241.632	2.75
242.43	1.75
243.229	1.75
244.027	0.75
244.826	3.75
245.624	-0.25
246.422	2.75
247.22	4.75
248.018	1.75
248.816	1.75
249.614	3.75
250.412	1.75
251.21	2.75
252.007	-0.25
252.805	4.75
253.602	2.75
254.4	2.75
255.197	2.75
255.994	2.75
256.791	5.75
257.589	2.75
258.386	4.75
259.183	2.75
259.979	3.75
260.776	4.75
261.573	3.75
262.37	5.75
263.166	5.75
263.963	5.75
264.759	6.75
265.556	4.75
266.352	5.75
267.148	7.75
267.944	5.75
268.74	5.75
269.536	8.75
270.332	4.75
271.128	8.75
271.924	7.75
272.719	7.75
273.515	8.75
274.311	6.75
275.106	7.75
275.901	7.75
276.697	8.75
277.492	8.75
278.287	9.75
279.082	8.75
279.877	8.75
280.672	10.75
281.467	8.75
282.262	10.75
283.056	11.75
283.851	8.75
284.646	10.75
285.44	9.75
286.234	11.75
287.029	11.75
287.823	13.75
288.617	12.75
289.411	10.75
290.205	11.75
290.999	10.75
291.793	13.75
292.587	10.75
293.381	11.75
294.174	7.75
294.968	8.75
295.761	9.75
296.555	9.75
297.348	8.75
298.141	9.75
298.935	10.75
299.728	7.75
300.521	9.75
301.314	9.75
302.107	10.75
302.899	8.75
303.692	5.75
304.485	6.75
305.277	9.75
306.07	5.75
306.862	7.75
307.655	8.75
308.447	9.75
309.239	5.75
310.031	8.75
310.823	8.75
311.615	6.75
312.407	8.75
313.199	8.75
313.991	6.75
314.783	8.75
315.574	5.75
316.366	8.75
317.157	6.75
317.949	4.75
318.74	6.75
319.531	6.75
320.322	5.75
321.113	4.75
321.904	5.75
322.695	4.75
323.486	7.75
324.277	2.75
325.068	4.75
325.858	4.75
326.649	4.75
327.439	3.75
328.23	5.75
329.02	4.75
329.81	6.75
330.6	4.75
331.391	4.75
332.181	4.75
332.971	4.75
333.76	3.75
334.55	5.75
335.34	5.75
336.13	3.75
336.919	2.75
337.709	2.75
338.498	4.75
339.287	2.75
340.077	4.75
340.866	2.75
341.655	5.75
342.444	3.75
343.233	4.75
344.022	3.75
344.811	2.75
345.6	3.75
346.388	3.75
347.177	4.75
347.965	2.75
348.754	2.75
349.542	3.75
350.33	3.75
351.119	3.75
351.907	2.75
352.695	5.75
353.483	4.75
354.271	1.75
355.059	4.75
355.846	2.75
356.634	3.75
357.422	3.75
358.209	3.75
358.997	2.75
359.784	3.75
360.571	3.75
361.359	2.75
362.146	2.75
362.933	2.75
363.72	3.75
364.507	3.75
365.294	0.75
366.081	3.75
366.867	1.75
367.654	4.75
368.44	1.75
369.227	2.75
370.013	3.75
370.8	1.75
371.586	4.75
372.372	3.75
373.158	5.75
373.944	3.75
374.73	2.75
375.516	4.75
376.302	1.75
377.088	2.75
377.873	2.75
378.659	2.75
379.445	-0.25
380.23	3.75
381.015	0.75
381.801	2.75
382.586	3.75
383.371	2.75
384.156	3.75
384.941	1.75
385.726	1.75
386.511	0.75
387.296	4.75
388.08	1.75
388.865	1.75
389.649	3.75
390.434	2.75
391.218	3.75
392.003	3.75
392.787	3.75
393.571	5.75
394.355	3.75
395.139	4.75
395.923	3.75
396.707	6.75
397.491	2.75
398.274	4.75
399.058	2.75
399.842	3.75
400.625	2.75
401.408	4.75
402.192	2.75
402.975	3.75
403.758	5.75
404.541	2.75
405.324	2.75
406.107	4.75
406.89	2.75
407.673	5.75
408.456	5.75
409.238	3.75
410.021	4.75
410.803	4.75
411.586	4.75
412.368	4.75
413.151	3.75
413.933	6.75
414.715	5.75
415.497	6.75
416.279	3.75
417.061	6.75
417.843	3.75
418.624	6.75
419.406	5.75
420.188	5.75
420.969	4.75
421.751	6.75
422.532	6.75
423.313	5.75
424.095	3.75
424.876	8.75
425.657	4.75
426.438	4.75
427.219	7.75
428	7.75
428.78	6.75
429.561	5.75
430.342	9.75
431.122	7.75
431.903	6.75
432.683	7.75
433.464	8.75
434.244	9.75
435.024	9.75
435.804	9.75
436.584	10.75
437.364	9.75
438.144	9.75
438.924	9.75
439.704	10.75
440.483	10.75
441.263	12.75
442.042	13.75
442.822	15.75
443.601	12.75
444.38	12.75
445.16	15.75
445.939	14.75
446.718	16.75
447.497	16.75
448.276	22.75
449.054	21.75
449.833	24.75
450.612	27.75
451.391	25.75
452.169	33.75
452.948	33.75
453.726	35.75
454.504	38.75
455.282	43.75
456.061	49.75
456.839	50.75
457.617	55.75
458.395	61.75
459.172	74.75
459.95	82.75
460.728	88.75
461.506	99.75
462.283	104.75
463.061	116.75
463.838	132.75
464.615	143.75
465.393	161.75
466.17	179.75
466.947	203.75
467.724	233.75
468.501	248.75
469.278	274.75
470.055	312.75
470.831	346.75
471.608	384.75
472.385	428.75
473.161	472.75
473.938	526.75
474.714	581.75
475.49	639.75
476.266	712.75
477.043	777.75
477.819	863.75
478.595	961.75
479.371	1057.75
480.146	1163.75
480.922	1267.75
481.698	1413.75
482.473	1543.75
483.249	1687.75
484.024	1864.75
484.8	2065.75
485.575	2248.75
486.35	2469.75
487.126	2730.75
487.901	2976.75
488.676	3261.75
489.451	3578.75
490.225	3926.75
491	4325.75
491.775	4706.75
492.55	5166.75
493.324	5657.75
494.099	6167.75
494.873	6677.75
495.647	7271.75
496.422	7893.75
497.196	8545.75
497.97	9233.75
498.744	9891.75
499.518	10669.75
500.292	11307.75
501.066	12013.75
501.839	12702.75
502.613	13330.75
503.387	13879.75
504.16	14448.75
504.934	14974.75
505.707	15318.75
506.48	15669.75
507.253	15869.75
508.027	16013.75
508.8	15976.75
509.573	15934.75
510.346	15761.75
511.118	15496.75
511.891	15179.75
512.664	14737.75
513.437	14322.75
514.209	13777.75
514.982	13269.75
515.754	12745.75
516.526	12246.75
517.298	11707.75
518.071	11241.75
518.843	10726.75
519.615	10266.75
520.387	9873.75
521.159	9468.75
521.93	9083.75
522.702	8715.75
523.474	8421.75
524.245	8055.75
525.017	7706.75
525.788	7393.75
526.56	7124.75
527.331	6838.75
528.102	6506.75
528.873	6208.75
529.644	6002.75
530.415	5704.75
531.186	5456.75
531.957	5182.75
532.728	4938.75
533.498	4699.75
534.269	4408.75
535.039	4166.75
535.81	3954.75
536.58	3727.75
537.351	3533.75
538.121	3351.75
538.891	3197.75
539.661	3002.75
540.431	2824.75
541.201	2664.75
541.971	2523.75
542.741	2400.75
543.51	2283.75
544.28	2171.75
545.05	2075.75
545.819	1950.75
546.588	1873.75
547.358	1752.75
548.127	1665.75
548.896	1582.75
549.665	1499.75
550.434	1435.75
551.203	1365.75
551.972	1286.75
552.741	1225.75
553.51	1166.75
554.278	1088.75
555.047	1029.75
555.815	972.75
556.584	919.75
557.352	871.75
558.121	827.75
558.889	778.75
559.657	731.75
560.425	681.75
561.193	655.75
561.961	615.75
562.729	579.75
563.496	545.75
564.264	522.75
565.032	489.75
565.799	459.75
566.567	432.75
567.334	414.75
568.101	380.75
568.869	361.75
569.636	341.75
570.403	322.75
571.17	305.75
571.937	289.75
572.704	280.75
573.471	264.75
574.237	244.75
575.004	221.75
575.771	220.75
576.537	201.75
577.303	190.75
578.07	176.75
578.836	170.75
579.602	164.75
580.368	153.75
581.134	143.75
581.9	129.75
582.666	131.75
583.432	124.75
584.198	112.75
584.964	107.75
585.729	105.75
586.495	96.75
587.26	92.75
588.025	85.75
588.791	79.75
589.556	80.75
590.321	72.75
591.086	71.75
591.851	66.75
592.616	64.75
593.381	57.75
594.146	59.75
594.911	55.75
595.675	50.75
596.44	47.75
597.204	46.75
597.969	45.75
598.733	45.75
599.497	42.75
600.261	38.75
601.025	38.75
601.79	30.75
602.553	32.75
603.317	30.75
604.081	31.75
604.845	28.75
605.609	27.75
606.372	25.75
607.136	26.75
607.899	26.75
608.662	25.75
609.426	23.75
610.189	20.75
610.952	18.75
611.715	19.75
612.478	20.75
613.241	18.75
614.004	15.75
614.767	17.75
615.529	15.75
616.292	14.75
617.055	14.75
617.817	14.75
618.579	12.75
619.342	14.75
620.104	14.75
620.866	14.75
621.628	11.75
622.39	11.75
623.152	11.75
623.914	15.75
624.676	11.75
625.438	13.75
626.199	9.75
626.961	7.75
627.722	8.75
628.484	7.75
629.245	8.75
630.006	8.75
630.768	9.75
631.529	7.75
632.29	6.75
633.051	8.75
633.812	7.75
634.573	7.75
635.333	6.75
636.094	5.75
636.855	7.75
637.615	7.75
638.376	6.75
639.136	5.75
639.896	5.75
640.657	5.75
641.417	2.75
642.177	6.75
642.937	5.75
643.697	5.75
644.457	3.75
645.216	5.75
645.976	5.75
646.736	5.75
647.495	5.75
648.255	5.75
649.014	4.75
649.774	4.75
650.533	4.75
651.292	4.75
652.051	4.75
652.81	4.75
653.569	2.75
654.328	2.75
655.087	1.75
655.846	3.75
656.604	3.75
657.363	6.75
658.121	2.75
658.88	3.75
659.638	3.75
660.397	2.75
661.155	4.75
661.913	4.75
662.671	4.75
663.429	1.75
664.187	4.75
664.945	3.75
665.703	2.75
666.46	3.75
667.218	1.75
667.976	3.75
668.733	2.75
669.49	6.75
670.248	4.75
671.005	3.75
671.762	2.75
672.519	2.75
673.276	3.75
674.033	0.75
674.79	1.75
675.547	3.75
676.304	1.75
677.06	4.75
677.817	3.75
678.574	3.75
679.33	1.75
680.086	1.75
680.843	3.75
681.599	3.75
682.355	1.75
683.111	2.75
683.867	2.75
684.623	2.75
685.379	1.75
686.135	2.75
686.89	2.75
687.646	4.75
688.402	2.75
689.157	1.75
689.912	0.75
690.668	2.75
691.423	2.75
692.178	2.75
692.933	2.75
693.688	2.75
694.443	0.75
695.198	3.75
695.953	2.75
696.708	2.75
697.462	2.75
698.217	0.75
698.972	1.75
699.726	3.75
700.48	3.75
701.235	0.75
701.989	1.75
702.743	-0.25
703.497	2.75
704.251	2.75
705.005	0.75
705.759	3.75
706.513	1.75
707.266	0.75
708.02	2.75
708.774	2.75
709.527	3.75
710.28	2.75
711.034	2.75
711.787	2.75
712.54	3.75
713.293	0.75
714.046	2.75
714.799	1.75
715.552	2.75
716.305	2.75
717.058	2.75
717.81	0.75
718.563	0.75
719.315	2.75
720.068	2.75
720.82	-0.25
721.573	1.75
722.325	1.75
723.077	3.75
723.829	3.75
724.581	2.75
725.333	1.75
726.085	2.75
726.836	3.75
727.588	1.75
728.34	1.75
729.091	0.75
729.843	2.75
730.594	2.75
731.346	0.75
732.097	2.75
732.848	1.75
733.599	2.75
734.35	3.75
735.101	0.75
735.852	1.75
736.603	-0.25
737.354	5.75
738.104	4.75
738.855	3.75
739.605	2.75
740.356	3.75
741.106	2.75
741.856	1.75
742.607	3.75
743.357	2.75
744.107	4.75
744.857	2.75
745.607	0.75
746.357	1.75
747.106	2.75
747.856	2.75
748.606	1.75
749.355	2.75
750.105	2.75
750.854	2.75
751.603	3.75
752.353	2.75
753.102	3.75
753.851	2.75
754.6	4.75
755.349	2.75
756.098	1.75
756.847	4.75
757.595	3.75
758.344	5.75
759.093	2.75
759.841	4.75
760.589	2.75
761.338	4.75
762.086	5.75
762.834	2.75
763.582	3.75
764.331	3.75
765.079	3.75
765.826	5.75
766.574	4.75
767.322	5.75
768.07	2.75
768.817	5.75
769.565	4.75
770.312	3.75
771.06	2.75
771.807	4.75
772.554	5.75
773.302	5.75
774.049	4.75
774.796	2.75
775.543	4.75
776.29	4.75
777.036	3.75
777.783	5.75
778.53	2.75
779.276	6.75
780.023	3.75
780.769	6.75
781.516	3.75
782.262	5.75
783.008	7.75
783.754	5.75
784.5	4.75
785.246	4.75
785.992	5.75
786.738	7.75
787.484	3.75
788.23	6.75
788.975	4.75
789.721	5.75
790.466	3.75
791.212	6.75
791.957	4.75
792.702	4.75
793.447	6.75
794.193	4.75
794.938	2.75
795.683	3.75
796.427	3.75
797.172	4.75
797.917	3.75
798.662	6.75
799.406	3.75
800.151	6.75
800.895	7.75
801.64	5.75
802.384	2.75
803.128	2.75
803.872	5.75
804.616	2.75
805.36	4.75
806.104	5.75
806.848	3.75
807.592	3.75
808.336	2.75
809.079	5.75
809.823	5.75
810.566	5.75
811.31	5.75
812.053	3.75
812.796	2.75
813.539	1.75
814.283	5.75
815.026	2.75
815.769	3.75
816.511	4.75
817.254	3.75
817.997	4.75
818.74	1.75
819.482	3.75
820.225	4.75
820.967	2.75
821.71	3.75
822.452	3.75
823.194	2.75
823.936	2.75
824.678	4.75
825.42	2.75
826.162	1.75
826.904	2.75
827.646	3.75
828.388	4.75
829.129	1.75
829.871	4.75
830.612	1.75
831.354	3.75
832.095	3.75
832.836	3.75
833.577	3.75
834.319	0.75
835.06	2.75
835.801	5.75
836.542	2.75
837.282	3.75
838.023	3.75
838.764	2.75
839.504	3.75
840.245	3.75
840.985	1.75
841.726	0.75
842.466	1.75
843.206	2.75
843.946	2.75
844.687	3.75
845.427	2.75
846.166	3.75
846.906	1.75
847.646	2.75
848.386	0.75
849.125	2.75
849.865	2.75
850.605	1.75
851.344	1.75
852.083	2.75
852.823	3.75
853.562	2.75
854.301	3.75
855.04	3.75
855.779	0.75
856.518	2.75
857.257	-1.25
857.995	1.75
858.734	2.75
859.473	0.75
860.211	-1.25
860.95	2.75
861.688	0.75
862.426	2.75
863.165	1.75
863.903	-1.25
864.641	2.75
865.379	1.75
866.117	1.75
866.855	-0.25
867.593	-2.25
868.33	-0.25
869.068	0.75
869.806	3.75
870.543	2.75
871.28	3.75
872.018	3.75
872.755	0.75
873.492	3.75
874.229	0.75
874.967	1.75
875.703	1.75
876.44	0.75
877.177	0.75
877.914	0.75
878.651	1.75
879.387	1.75
880.124	1.75
880.86	-0.25
881.597	-0.25
882.333	0.75
883.069	1.75
883.806	-0.25
884.542	1.75
885.278	1.75
886.014	2.75
886.749	-2.25
887.485	-0.25
888.221	1.75
888.957	1.75
889.692	0.75
890.428	0.75
891.163	-0.25
891.899	0.75
892.634	-0.25
893.369	2.75
894.104	1.75
894.839	1.75
895.574	0.75
896.309	-0.25
897.044	3.75
897.779	1.75
898.514	-1.25
899.248	1.75
899.983	0.75
900.717	1.75
901.452	1.75
902.186	-0.25
902.92	0.75
903.654	-0.25
904.389	-1.25
905.123	0.75
905.857	1.75
906.59	1.75
907.324	3.75
908.058	-0.25
908.792	1.75
909.525	1.75
910.259	2.75
910.992	3.75
911.726	1.75
912.459	-1.25
913.192	0.75
913.925	0.75
914.658	1.75
915.391	1.75
916.124	-0.25
916.857	-1.25
917.59	0.75
918.323	2.75
919.055	0.75
919.788	1.75
920.521	-0.25
921.253	2.75
921.985	0.75
922.718	-0.25
923.45	1.75
924.182	0.75
924.914	2.75
925.646	1.75
926.378	1.75
927.11	0.75
927.841	-2.25
928.573	0.75
929.305	-1.25
930.036	1.75
930.768	1.75
931.499	-0.25
932.23	-1.25
932.962	2.75
933.693	-0.25
934.424	-0.25
935.155	1.75
935.886	-1.25
936.617	1.75
937.348	2.75
938.078	-0.25
938.809	-0.25
939.54	1.75
940.27	0.75
941.001	-0.25
941.731	-0.25
942.461	-1.25
943.191	2.75
943.922	1.75
944.652	-0.25
945.382	1.75
946.112	-1.25
946.841	0.75
947.571	0.75
948.301	-0.25
949.031	0.75
949.76	-0.25
950.49	1.75
951.219	-1.25
951.948	1.75
952.678	2.75
953.407	-0.25
954.136	-0.25
954.865	1.75
955.594	0.75
956.323	-0.25
957.052	1.75
957.78	1.75
958.509	-0.25
959.238	0.75
959.966	-1.25
960.695	-0.25
961.423	-1.25
962.151	3.75
962.88	2.75
963.608	1.75
964.336	-1.25
965.064	-1.25
965.792	3.75
966.52	-0.25
967.247	1.75
967.975	-1.25
968.703	1.75
969.43	-1.25
970.158	0.75
970.885	-0.25
971.613	0.75
972.34	0.75
973.067	0.75
973.794	2.75
974.521	0.75
975.248	-0.25
975.975	1.75
976.702	0.75
977.429	1.75
978.156	-0.25
978.882	1.75
979.609	2.75
980.335	0.75
981.062	2.75
981.788	-0.25
982.514	-0.25
983.24	1.75
983.967	1.75
984.693	0.75
985.419	-0.25
986.144	1.75
986.87	0.75
987.596	0.75
988.322	0.75
989.047	0.75
989.773	4.75
990.498	-1.25
991.224	2.75
991.949	0.75
992.674	0.75
993.399	2.75
994.124	1.75
994.849	-1.25
995.574	-0.25
996.299	2.75
997.024	-1.25
997.749	0.75
998.473	0.75
999.198	0.75
999.922	0.75
1000.647	1.75
1001.371	3.75
1002.095	-1.25
1002.82	-0.25
1003.544	0.75
1004.268	2.75
1004.992	-0.25
1005.716	-0.25
1006.439	-2.25
1007.163	0.75
1007.887	-0.25
1008.611	0.75
1009.334	1.75
1010.058	0.75
1010.781	1.75
1011.504	0.75
1012.228	1.75
1012.951	-1.25
1013.674	-1.25
1014.397	-0.25
1015.12	-0.25
