节点500_145_QEPB04081__139__11-31-09-617.txt的数据

Date: Wed Nov 12 11:31:09 CST 2025
User: PC
Spectrometer: QEPB0408
触发模式: 0
积分时间 (秒): 1.000000E-2
Scans to average: 1
启用暗噪声校正: true
启用非线性校正: false
滑动平均宽度: 0
X轴模式: Wavelengths
Number of Pixels in Spectrum: 1044
>>>>>Begin Spectral Data<<<<<
220.843	-0.88
221.644	0.12
222.444	-1.88
223.244	-0.88
224.045	-1.88
224.845	0.12
225.645	-0.88
226.445	0.12
227.245	0.12
228.045	0.12
228.845	-1.88
229.645	0.12
230.444	0.12
231.244	1.12
232.043	0.12
232.843	0.12
233.642	1.12
234.442	1.12
235.241	4.12
236.04	1.12
236.839	1.12
237.638	0.12
238.437	1.12
239.236	0.12
240.035	0.12
240.833	2.12
241.632	4.12
242.43	0.12
243.229	2.12
244.027	5.12
244.826	1.12
245.624	3.12
246.422	3.12
247.22	2.12
248.018	3.12
248.816	2.12
249.614	5.12
250.412	-0.88
251.21	3.12
252.007	2.12
252.805	3.12
253.602	3.12
254.4	2.12
255.197	4.12
255.994	4.12
256.791	4.12
257.589	4.12
258.386	5.12
259.183	4.12
259.979	1.12
260.776	5.12
261.573	5.12
262.37	4.12
263.166	6.12
263.963	4.12
264.759	5.12
265.556	5.12
266.352	6.12
267.148	6.12
267.944	8.12
268.74	5.12
269.536	6.12
270.332	8.12
271.128	7.12
271.924	8.12
272.719	7.12
273.515	9.12
274.311	8.12
275.106	7.12
275.901	11.12
276.697	9.12
277.492	10.12
278.287	9.12
279.082	11.12
279.877	12.12
280.672	14.12
281.467	11.12
282.262	10.12
283.056	11.12
283.851	12.12
284.646	12.12
285.44	11.12
286.234	10.12
287.029	12.12
287.823	9.12
288.617	11.12
289.411	11.12
290.205	12.12
290.999	11.12
291.793	9.12
292.587	12.12
293.381	10.12
294.174	10.12
294.968	12.12
295.761	8.12
296.555	10.12
297.348	9.12
298.141	8.12
298.935	11.12
299.728	10.12
300.521	10.12
301.314	8.12
302.107	7.12
302.899	8.12
303.692	8.12
304.485	8.12
305.277	9.12
306.07	9.12
306.862	9.12
307.655	9.12
308.447	11.12
309.239	9.12
310.031	5.12
310.823	8.12
311.615	6.12
312.407	5.12
313.199	9.12
313.991	5.12
314.783	7.12
315.574	2.12
316.366	5.12
317.157	5.12
317.949	3.12
318.74	8.12
319.531	5.12
320.322	7.12
321.113	5.12
321.904	4.12
322.695	5.12
323.486	4.12
324.277	5.12
325.068	5.12
325.858	5.12
326.649	7.12
327.439	3.12
328.23	4.12
329.02	4.12
329.81	5.12
330.6	3.12
331.391	1.12
332.181	3.12
332.971	1.12
333.76	6.12
334.55	5.12
335.34	4.12
336.13	4.12
336.919	4.12
337.709	4.12
338.498	3.12
339.287	5.12
340.077	1.12
340.866	5.12
341.655	4.12
342.444	2.12
343.233	3.12
344.022	2.12
344.811	5.12
345.6	4.12
346.388	4.12
347.177	4.12
347.965	4.12
348.754	5.12
349.542	3.12
350.33	5.12
351.119	3.12
351.907	4.12
352.695	3.12
353.483	3.12
354.271	3.12
355.059	3.12
355.846	2.12
356.634	4.12
357.422	3.12
358.209	3.12
358.997	4.12
359.784	4.12
360.571	0.12
361.359	5.12
362.146	3.12
362.933	4.12
363.72	5.12
364.507	2.12
365.294	2.12
366.081	2.12
366.867	2.12
367.654	3.12
368.44	3.12
369.227	4.12
370.013	3.12
370.8	3.12
371.586	5.12
372.372	4.12
373.158	5.12
373.944	2.12
374.73	2.12
375.516	3.12
376.302	3.12
377.088	4.12
377.873	2.12
378.659	3.12
379.445	2.12
380.23	3.12
381.015	4.12
381.801	2.12
382.586	1.12
383.371	3.12
384.156	1.12
384.941	4.12
385.726	2.12
386.511	2.12
387.296	1.12
388.08	3.12
388.865	2.12
389.649	3.12
390.434	3.12
391.218	4.12
392.003	4.12
392.787	1.12
393.571	1.12
394.355	1.12
395.139	2.12
395.923	4.12
396.707	3.12
397.491	4.12
398.274	6.12
399.058	3.12
399.842	5.12
400.625	4.12
401.408	5.12
402.192	2.12
402.975	5.12
403.758	3.12
404.541	5.12
405.324	5.12
406.107	6.12
406.89	5.12
407.673	4.12
408.456	4.12
409.238	6.12
410.021	2.12
410.803	4.12
411.586	3.12
412.368	7.12
413.151	5.12
413.933	5.12
414.715	5.12
415.497	5.12
416.279	4.12
417.061	6.12
417.843	1.12
418.624	7.12
419.406	5.12
420.188	6.12
420.969	7.12
421.751	5.12
422.532	7.12
423.313	7.12
424.095	6.12
424.876	5.12
425.657	6.12
426.438	7.12
427.219	6.12
428	10.12
428.78	7.12
429.561	6.12
430.342	7.12
431.122	7.12
431.903	7.12
432.683	9.12
433.464	8.12
434.244	7.12
435.024	10.12
435.804	7.12
436.584	10.12
437.364	11.12
438.144	7.12
438.924	11.12
439.704	11.12
440.483	10.12
441.263	16.12
442.042	13.12
442.822	15.12
443.601	15.12
444.38	12.12
445.16	14.12
445.939	17.12
446.718	17.12
447.497	20.12
448.276	19.12
449.054	18.12
449.833	24.12
450.612	24.12
451.391	26.12
452.169	24.12
452.948	31.12
453.726	32.12
454.504	37.12
455.282	39.12
456.061	44.12
456.839	45.12
457.617	54.12
458.395	55.12
459.172	67.12
459.95	69.12
460.728	79.12
461.506	85.12
462.283	95.12
463.061	106.12
463.838	118.12
464.615	132.12
465.393	155.12
466.17	162.12
466.947	184.12
467.724	204.12
468.501	231.12
469.278	251.12
470.055	283.12
470.831	325.12
471.608	361.12
472.385	393.12
473.161	446.12
473.938	485.12
474.714	550.12
475.49	606.12
476.266	676.12
477.043	751.12
477.819	835.12
478.595	913.12
479.371	1017.12
480.146	1134.12
480.922	1280.12
481.698	1409.12
482.473	1558.12
483.249	1710.12
484.024	1899.12
484.8	2088.12
485.575	2317.12
486.35	2574.12
487.126	2861.12
487.901	3161.12
488.676	3479.12
489.451	3849.12
490.225	4257.12
491	4720.12
491.775	5169.12
492.55	5686.12
493.324	6241.12
494.099	6842.12
494.873	7499.12
495.647	8217.12
496.422	8929.12
497.196	9667.12
497.97	10483.12
498.744	11256.12
499.518	12035.12
500.292	12859.12
501.066	13577.12
501.839	14333.12
502.613	15018.12
503.387	15619.12
504.16	16165.12
504.934	16604.12
505.707	16947.12
506.48	17141.12
507.253	17224.12
508.027	17238.12
508.8	17057.12
509.573	16827.12
510.346	16446.12
511.118	16024.12
511.891	15545.12
512.664	15019.12
513.437	14447.12
514.209	13915.12
514.982	13293.12
515.754	12702.12
516.526	12053.12
517.298	11579.12
518.071	11043.12
518.843	10584.12
519.615	10093.12
520.387	9692.12
521.159	9336.12
521.93	8951.12
522.702	8540.12
523.474	8251.12
524.245	7914.12
525.017	7624.12
525.788	7298.12
526.56	6994.12
527.331	6726.12
528.102	6420.12
528.873	6110.12
529.644	5844.12
530.415	5572.12
531.186	5266.12
531.957	5001.12
532.728	4713.12
533.498	4475.12
534.269	4197.12
535.039	4001.12
535.81	3764.12
536.58	3536.12
537.351	3349.12
538.121	3175.12
538.891	2990.12
539.661	2821.12
540.431	2667.12
541.201	2536.12
541.971	2366.12
542.741	2266.12
543.51	2153.12
544.28	2018.12
545.05	1955.12
545.819	1848.12
546.588	1762.12
547.358	1663.12
548.127	1593.12
548.896	1499.12
549.665	1430.12
550.434	1354.12
551.203	1295.12
551.972	1217.12
552.741	1158.12
553.51	1094.12
554.278	1034.12
555.047	977.12
555.815	928.12
556.584	865.12
557.352	813.12
558.121	764.12
558.889	712.12
559.657	679.12
560.425	637.12
561.193	596.12
561.961	574.12
562.729	535.12
563.496	503.12
564.264	480.12
565.032	437.12
565.799	430.12
566.567	410.12
567.334	385.12
568.101	362.12
568.869	339.12
569.636	319.12
570.403	299.12
571.17	281.12
571.937	264.12
572.704	250.12
573.471	237.12
574.237	228.12
575.004	212.12
575.771	199.12
576.537	190.12
577.303	174.12
578.07	162.12
578.836	157.12
579.602	146.12
580.368	140.12
581.134	136.12
581.9	121.12
582.666	119.12
583.432	113.12
584.198	107.12
584.964	103.12
585.729	97.12
586.495	89.12
587.26	85.12
588.025	79.12
588.791	74.12
589.556	75.12
590.321	67.12
591.086	64.12
591.851	60.12
592.616	56.12
593.381	56.12
594.146	53.12
594.911	50.12
595.675	48.12
596.44	46.12
597.204	43.12
597.969	38.12
598.733	40.12
599.497	38.12
600.261	37.12
601.025	34.12
601.79	34.12
602.553	34.12
603.317	30.12
604.081	31.12
604.845	26.12
605.609	24.12
606.372	27.12
607.136	23.12
607.899	21.12
608.662	22.12
609.426	23.12
610.189	19.12
610.952	17.12
611.715	18.12
612.478	17.12
613.241	19.12
614.004	15.12
614.767	17.12
615.529	16.12
616.292	14.12
617.055	13.12
617.817	12.12
618.579	16.12
619.342	13.12
620.104	12.12
620.866	13.12
621.628	11.12
622.39	12.12
623.152	11.12
623.914	11.12
624.676	11.12
625.438	8.12
626.199	8.12
626.961	8.12
627.722	9.12
628.484	7.12
629.245	7.12
630.006	10.12
630.768	5.12
631.529	8.12
632.29	8.12
633.051	8.12
633.812	6.12
634.573	7.12
635.333	5.12
636.094	6.12
636.855	4.12
637.615	9.12
638.376	8.12
639.136	6.12
639.896	3.12
640.657	6.12
641.417	4.12
642.177	7.12
642.937	4.12
643.697	5.12
644.457	4.12
645.216	4.12
645.976	6.12
646.736	5.12
647.495	5.12
648.255	5.12
649.014	5.12
649.774	4.12
650.533	3.12
651.292	2.12
652.051	2.12
652.81	5.12
653.569	4.12
654.328	5.12
655.087	3.12
655.846	4.12
656.604	2.12
657.363	4.12
658.121	2.12
658.88	4.12
659.638	2.12
660.397	1.12
661.155	4.12
661.913	3.12
662.671	1.12
663.429	5.12
664.187	3.12
664.945	2.12
665.703	1.12
666.46	4.12
667.218	3.12
667.976	7.12
668.733	3.12
669.49	2.12
670.248	2.12
671.005	4.12
671.762	2.12
672.519	3.12
673.276	3.12
674.033	2.12
674.79	1.12
675.547	6.12
676.304	3.12
677.06	3.12
677.817	2.12
678.574	0.12
679.33	3.12
680.086	3.12
680.843	1.12
681.599	2.12
682.355	2.12
683.111	2.12
683.867	1.12
684.623	4.12
685.379	2.12
686.135	1.12
686.89	2.12
687.646	3.12
688.402	4.12
689.157	1.12
689.912	3.12
690.668	2.12
691.423	1.12
692.178	3.12
692.933	0.12
693.688	1.12
694.443	2.12
695.198	0.12
695.953	2.12
696.708	0.12
697.462	4.12
698.217	2.12
698.972	5.12
699.726	1.12
700.48	4.12
701.235	2.12
701.989	1.12
702.743	2.12
703.497	-0.88
704.251	4.12
705.005	0.12
705.759	3.12
706.513	5.12
707.266	1.12
708.02	2.12
708.774	1.12
709.527	2.12
710.28	2.12
711.034	2.12
711.787	4.12
712.54	1.12
713.293	2.12
714.046	3.12
714.799	4.12
715.552	1.12
716.305	4.12
717.058	3.12
717.81	3.12
718.563	3.12
719.315	1.12
720.068	2.12
720.82	4.12
721.573	-0.88
722.325	4.12
723.077	3.12
723.829	0.12
724.581	2.12
725.333	5.12
726.085	-0.88
726.836	1.12
727.588	2.12
728.34	2.12
729.091	5.12
729.843	1.12
730.594	1.12
731.346	3.12
732.097	3.12
732.848	1.12
733.599	2.12
734.35	5.12
735.101	2.12
735.852	2.12
736.603	3.12
737.354	1.12
738.104	3.12
738.855	2.12
739.605	2.12
740.356	6.12
741.106	3.12
741.856	2.12
742.607	0.12
743.357	3.12
744.107	1.12
744.857	5.12
745.607	3.12
746.357	3.12
747.106	5.12
747.856	2.12
748.606	4.12
749.355	3.12
750.105	4.12
750.854	2.12
751.603	3.12
752.353	4.12
753.102	3.12
753.851	2.12
754.6	0.12
755.349	2.12
756.098	1.12
756.847	3.12
757.595	4.12
758.344	1.12
759.093	5.12
759.841	1.12
760.589	5.12
761.338	4.12
762.086	1.12
762.834	3.12
763.582	3.12
764.331	3.12
765.079	3.12
765.826	5.12
766.574	5.12
767.322	4.12
768.07	4.12
768.817	4.12
769.565	6.12
770.312	4.12
771.06	6.12
771.807	8.12
772.554	3.12
773.302	7.12
774.049	3.12
774.796	7.12
775.543	3.12
776.29	4.12
777.036	2.12
777.783	5.12
778.53	5.12
779.276	4.12
780.023	5.12
780.769	5.12
781.516	6.12
782.262	8.12
783.008	3.12
783.754	3.12
784.5	5.12
785.246	7.12
785.992	4.12
786.738	6.12
787.484	7.12
788.23	5.12
788.975	5.12
789.721	5.12
790.466	6.12
791.212	5.12
791.957	6.12
792.702	5.12
793.447	5.12
794.193	5.12
794.938	5.12
795.683	5.12
796.427	6.12
797.172	6.12
797.917	6.12
798.662	7.12
799.406	5.12
800.151	5.12
800.895	5.12
801.64	6.12
802.384	5.12
803.128	6.12
803.872	2.12
804.616	3.12
805.36	5.12
806.104	5.12
806.848	3.12
807.592	3.12
808.336	6.12
809.079	4.12
809.823	5.12
810.566	2.12
811.31	4.12
812.053	5.12
812.796	2.12
813.539	3.12
814.283	3.12
815.026	4.12
815.769	1.12
816.511	1.12
817.254	3.12
817.997	2.12
818.74	3.12
819.482	3.12
820.225	0.12
820.967	3.12
821.71	4.12
822.452	3.12
823.194	3.12
823.936	3.12
824.678	0.12
825.42	2.12
826.162	5.12
826.904	4.12
827.646	3.12
828.388	3.12
829.129	3.12
829.871	1.12
830.612	1.12
831.354	0.12
832.095	1.12
832.836	2.12
833.577	1.12
834.319	1.12
835.06	3.12
835.801	5.12
836.542	2.12
837.282	2.12
838.023	4.12
838.764	1.12
839.504	5.12
840.245	3.12
840.985	2.12
841.726	2.12
842.466	3.12
843.206	1.12
843.946	1.12
844.687	4.12
845.427	0.12
846.166	3.12
846.906	1.12
847.646	2.12
848.386	3.12
849.125	2.12
849.865	2.12
850.605	1.12
851.344	1.12
852.083	3.12
852.823	1.12
853.562	2.12
854.301	3.12
855.04	2.12
855.779	0.12
856.518	3.12
857.257	0.12
857.995	2.12
858.734	1.12
859.473	1.12
860.211	4.12
860.95	1.12
861.688	1.12
862.426	1.12
863.165	2.12
863.903	2.12
864.641	2.12
865.379	3.12
866.117	0.12
866.855	2.12
867.593	2.12
868.33	0.12
869.068	1.12
869.806	0.12
870.543	5.12
871.28	2.12
872.018	1.12
872.755	0.12
873.492	-1.88
874.229	0.12
874.967	1.12
875.703	2.12
876.44	0.12
877.177	-0.88
877.914	1.12
878.651	1.12
879.387	0.12
880.124	-0.88
880.86	-0.88
881.597	2.12
882.333	1.12
883.069	3.12
883.806	-1.88
884.542	0.12
885.278	1.12
886.014	1.12
886.749	1.12
887.485	0.12
888.221	0.12
888.957	1.12
889.692	-0.88
890.428	-0.88
891.163	1.12
891.899	2.12
892.634	2.12
893.369	1.12
894.104	0.12
894.839	0.12
895.574	3.12
896.309	1.12
897.044	2.12
897.779	0.12
898.514	0.12
899.248	-1.88
899.983	1.12
900.717	-0.88
901.452	-0.88
902.186	0.12
902.92	-0.88
903.654	2.12
904.389	1.12
905.123	-1.88
905.857	1.12
906.59	1.12
907.324	-0.88
908.058	-0.88
908.792	0.12
909.525	2.12
910.259	2.12
910.992	0.12
911.726	2.12
912.459	0.12
913.192	-0.88
913.925	1.12
914.658	0.12
915.391	0.12
916.124	0.12
916.857	1.12
917.59	-0.88
918.323	1.12
919.055	4.12
919.788	0.12
920.521	-0.88
921.253	4.12
921.985	-1.88
922.718	-0.88
923.45	2.12
924.182	1.12
924.914	-1.88
925.646	2.12
926.378	1.12
927.11	1.12
927.841	0.12
928.573	-1.88
929.305	1.12
930.036	1.12
930.768	2.12
931.499	0.12
932.23	-2.88
932.962	1.12
933.693	-1.88
934.424	3.12
935.155	0.12
935.886	1.12
936.617	1.12
937.348	-1.88
938.078	-0.88
938.809	-0.88
939.54	0.12
940.27	1.12
941.001	1.12
941.731	1.12
942.461	-0.88
943.191	0.12
943.922	1.12
944.652	1.12
945.382	-1.88
946.112	0.12
946.841	-0.88
947.571	-1.88
948.301	0.12
949.031	-0.88
949.76	1.12
950.49	1.12
951.219	-0.88
951.948	0.12
952.678	-1.88
953.407	1.12
954.136	-0.88
954.865	0.12
955.594	0.12
956.323	0.12
957.052	0.12
957.78	1.12
958.509	-0.88
959.238	-1.88
959.966	0.12
960.695	-0.88
961.423	0.12
962.151	1.12
962.88	0.12
963.608	1.12
964.336	2.12
965.064	1.12
965.792	-0.88
966.52	-0.88
967.247	1.12
967.975	0.12
968.703	1.12
969.43	-0.88
970.158	0.12
970.885	-0.88
971.613	-0.88
972.34	0.12
973.067	1.12
973.794	-0.88
974.521	1.12
975.248	1.12
975.975	2.12
976.702	0.12
977.429	0.12
978.156	2.12
978.882	1.12
979.609	2.12
980.335	1.12
981.062	1.12
981.788	0.12
982.514	0.12
983.24	-0.88
983.967	1.12
984.693	1.12
985.419	-0.88
986.144	1.12
986.87	0.12
987.596	0.12
988.322	-0.88
989.047	-1.88
989.773	1.12
990.498	1.12
991.224	1.12
991.949	-0.88
992.674	0.12
993.399	-0.88
994.124	2.12
994.849	0.12
995.574	-2.88
996.299	1.12
997.024	2.12
997.749	1.12
998.473	0.12
999.198	0.12
999.922	1.12
1000.647	-1.88
1001.371	3.12
1002.095	-0.88
1002.82	1.12
1003.544	-0.88
1004.268	-0.88
1004.992	-0.88
1005.716	0.12
1006.439	0.12
1007.163	-0.88
1007.887	1.12
1008.611	2.12
1009.334	0.12
1010.058	0.12
1010.781	0.12
1011.504	1.12
1012.228	1.12
1012.951	-2.88
1013.674	-0.88
1014.397	0.12
1015.12	1.12
