节点500_145_QEPB04081__322__11-34-06-491.txt的数据

Date: Wed Nov 12 11:34:06 CST 2025
User: PC
Spectrometer: QEPB0408
触发模式: 0
积分时间 (秒): 1.000000E-2
Scans to average: 1
启用暗噪声校正: true
启用非线性校正: false
滑动平均宽度: 0
X轴模式: Wavelengths
Number of Pixels in Spectrum: 1044
>>>>>Begin Spectral Data<<<<<
220.843	-1.25
221.644	0.75
222.444	0.75
223.244	0.75
224.045	2.75
224.845	-0.25
225.645	1.75
226.445	0.75
227.245	1.75
228.045	-0.25
228.845	1.75
229.645	-0.25
230.444	0.75
231.244	0.75
232.043	1.75
232.843	-0.25
233.642	1.75
234.442	2.75
235.241	2.75
236.04	1.75
236.839	-1.25
237.638	2.75
238.437	1.75
239.236	1.75
240.035	1.75
240.833	1.75
241.632	3.75
242.43	1.75
243.229	1.75
244.027	0.75
244.826	1.75
245.624	1.75
246.422	1.75
247.22	2.75
248.018	2.75
248.816	3.75
249.614	4.75
250.412	3.75
251.21	1.75
252.007	-0.25
252.805	1.75
253.602	2.75
254.4	3.75
255.197	0.75
255.994	3.75
256.791	4.75
257.589	4.75
258.386	2.75
259.183	2.75
259.979	6.75
260.776	4.75
261.573	6.75
262.37	5.75
263.166	4.75
263.963	5.75
264.759	6.75
265.556	4.75
266.352	7.75
267.148	6.75
267.944	9.75
268.74	6.75
269.536	8.75
270.332	8.75
271.128	9.75
271.924	6.75
272.719	8.75
273.515	8.75
274.311	8.75
275.106	9.75
275.901	6.75
276.697	9.75
277.492	9.75
278.287	7.75
279.082	8.75
279.877	9.75
280.672	10.75
281.467	8.75
282.262	10.75
283.056	11.75
283.851	9.75
284.646	11.75
285.44	10.75
286.234	11.75
287.029	12.75
287.823	12.75
288.617	11.75
289.411	12.75
290.205	10.75
290.999	11.75
291.793	12.75
292.587	11.75
293.381	9.75
294.174	8.75
294.968	6.75
295.761	8.75
296.555	8.75
297.348	8.75
298.141	7.75
298.935	8.75
299.728	10.75
300.521	11.75
301.314	10.75
302.107	7.75
302.899	10.75
303.692	9.75
304.485	9.75
305.277	9.75
306.07	8.75
306.862	10.75
307.655	9.75
308.447	8.75
309.239	8.75
310.031	7.75
310.823	8.75
311.615	7.75
312.407	8.75
313.199	5.75
313.991	5.75
314.783	5.75
315.574	6.75
316.366	4.75
317.157	5.75
317.949	6.75
318.74	5.75
319.531	3.75
320.322	4.75
321.113	4.75
321.904	5.75
322.695	2.75
323.486	2.75
324.277	4.75
325.068	5.75
325.858	5.75
326.649	3.75
327.439	3.75
328.23	3.75
329.02	4.75
329.81	4.75
330.6	3.75
331.391	2.75
332.181	5.75
332.971	2.75
333.76	3.75
334.55	4.75
335.34	1.75
336.13	2.75
336.919	4.75
337.709	5.75
338.498	2.75
339.287	4.75
340.077	1.75
340.866	4.75
341.655	4.75
342.444	3.75
343.233	2.75
344.022	4.75
344.811	3.75
345.6	3.75
346.388	1.75
347.177	3.75
347.965	5.75
348.754	2.75
349.542	5.75
350.33	3.75
351.119	5.75
351.907	4.75
352.695	3.75
353.483	3.75
354.271	2.75
355.059	3.75
355.846	3.75
356.634	3.75
357.422	3.75
358.209	3.75
358.997	3.75
359.784	2.75
360.571	3.75
361.359	4.75
362.146	2.75
362.933	2.75
363.72	0.75
364.507	1.75
365.294	3.75
366.081	2.75
366.867	3.75
367.654	1.75
368.44	4.75
369.227	0.75
370.013	5.75
370.8	2.75
371.586	2.75
372.372	2.75
373.158	3.75
373.944	3.75
374.73	1.75
375.516	4.75
376.302	1.75
377.088	3.75
377.873	2.75
378.659	1.75
379.445	3.75
380.23	2.75
381.015	3.75
381.801	1.75
382.586	4.75
383.371	3.75
384.156	2.75
384.941	4.75
385.726	1.75
386.511	3.75
387.296	4.75
388.08	2.75
388.865	2.75
389.649	1.75
390.434	5.75
391.218	2.75
392.003	3.75
392.787	2.75
393.571	2.75
394.355	4.75
395.139	3.75
395.923	3.75
396.707	2.75
397.491	3.75
398.274	4.75
399.058	4.75
399.842	3.75
400.625	5.75
401.408	3.75
402.192	3.75
402.975	5.75
403.758	4.75
404.541	3.75
405.324	4.75
406.107	4.75
406.89	6.75
407.673	5.75
408.456	4.75
409.238	2.75
410.021	6.75
410.803	4.75
411.586	2.75
412.368	2.75
413.151	5.75
413.933	5.75
414.715	5.75
415.497	4.75
416.279	5.75
417.061	4.75
417.843	6.75
418.624	4.75
419.406	4.75
420.188	7.75
420.969	4.75
421.751	7.75
422.532	5.75
423.313	5.75
424.095	6.75
424.876	9.75
425.657	3.75
426.438	7.75
427.219	6.75
428	7.75
428.78	7.75
429.561	8.75
430.342	8.75
431.122	7.75
431.903	6.75
432.683	5.75
433.464	8.75
434.244	8.75
435.024	9.75
435.804	7.75
436.584	9.75
437.364	8.75
438.144	11.75
438.924	8.75
439.704	11.75
440.483	11.75
441.263	11.75
442.042	12.75
442.822	14.75
443.601	16.75
444.38	13.75
445.16	18.75
445.939	17.75
446.718	16.75
447.497	18.75
448.276	20.75
449.054	25.75
449.833	22.75
450.612	24.75
451.391	27.75
452.169	30.75
452.948	32.75
453.726	35.75
454.504	39.75
455.282	41.75
456.061	44.75
456.839	50.75
457.617	58.75
458.395	61.75
459.172	64.75
459.95	74.75
460.728	80.75
461.506	96.75
462.283	102.75
463.061	111.75
463.838	126.75
464.615	136.75
465.393	156.75
466.17	176.75
466.947	190.75
467.724	213.75
468.501	243.75
469.278	268.75
470.055	299.75
470.831	328.75
471.608	364.75
472.385	412.75
473.161	455.75
473.938	511.75
474.714	557.75
475.49	630.75
476.266	690.75
477.043	777.75
477.819	844.75
478.595	953.75
479.371	1047.75
480.146	1152.75
480.922	1265.75
481.698	1416.75
482.473	1552.75
483.249	1707.75
484.024	1867.75
484.8	2061.75
485.575	2286.75
486.35	2496.75
487.126	2761.75
487.901	3017.75
488.676	3350.75
489.451	3653.75
490.225	4045.75
491	4468.75
491.775	4868.75
492.55	5340.75
493.324	5842.75
494.099	6360.75
494.873	6943.75
495.647	7565.75
496.422	8235.75
497.196	8904.75
497.97	9614.75
498.744	10356.75
499.518	11126.75
500.292	11812.75
501.066	12579.75
501.839	13191.75
502.613	13905.75
503.387	14513.75
504.16	15086.75
504.934	15498.75
505.707	15852.75
506.48	16123.75
507.253	16267.75
508.027	16368.75
508.8	16323.75
509.573	16199.75
510.346	15969.75
511.118	15684.75
511.891	15303.75
512.664	14837.75
513.437	14304.75
514.209	13810.75
514.982	13224.75
515.754	12757.75
516.526	12225.75
517.298	11649.75
518.071	11103.75
518.843	10644.75
519.615	10212.75
520.387	9803.75
521.159	9365.75
521.93	8973.75
522.702	8626.75
523.474	8321.75
524.245	7962.75
525.017	7647.75
525.788	7338.75
526.56	7088.75
527.331	6758.75
528.102	6468.75
528.873	6186.75
529.644	5943.75
530.415	5626.75
531.186	5352.75
531.957	5098.75
532.728	4836.75
533.498	4566.75
534.269	4350.75
535.039	4089.75
535.81	3896.75
536.58	3656.75
537.351	3459.75
538.121	3256.75
538.891	3084.75
539.661	2918.75
540.431	2749.75
541.201	2609.75
541.971	2479.75
542.741	2347.75
543.51	2219.75
544.28	2102.75
545.05	2012.75
545.819	1906.75
546.588	1790.75
547.358	1732.75
548.127	1641.75
548.896	1555.75
549.665	1488.75
550.434	1401.75
551.203	1327.75
551.972	1256.75
552.741	1186.75
553.51	1134.75
554.278	1060.75
555.047	1001.75
555.815	954.75
556.584	909.75
557.352	843.75
558.121	797.75
558.889	753.75
559.657	707.75
560.425	665.75
561.193	626.75
561.961	598.75
562.729	560.75
563.496	530.75
564.264	498.75
565.032	478.75
565.799	447.75
566.567	422.75
567.334	396.75
568.101	372.75
568.869	349.75
569.636	329.75
570.403	315.75
571.17	301.75
571.937	279.75
572.704	260.75
573.471	250.75
574.237	237.75
575.004	215.75
575.771	209.75
576.537	194.75
577.303	185.75
578.07	179.75
578.836	165.75
579.602	153.75
580.368	147.75
581.134	136.75
581.9	126.75
582.666	125.75
583.432	119.75
584.198	117.75
584.964	110.75
585.729	98.75
586.495	91.75
587.26	86.75
588.025	82.75
588.791	73.75
589.556	75.75
590.321	73.75
591.086	61.75
591.851	63.75
592.616	58.75
593.381	54.75
594.146	50.75
594.911	51.75
595.675	55.75
596.44	46.75
597.204	46.75
597.969	40.75
598.733	41.75
599.497	38.75
600.261	34.75
601.025	37.75
601.79	32.75
602.553	32.75
603.317	34.75
604.081	32.75
604.845	29.75
605.609	28.75
606.372	25.75
607.136	25.75
607.899	27.75
608.662	21.75
609.426	19.75
610.189	21.75
610.952	19.75
611.715	17.75
612.478	19.75
613.241	17.75
614.004	17.75
614.767	17.75
615.529	17.75
616.292	13.75
617.055	16.75
617.817	12.75
618.579	13.75
619.342	14.75
620.104	11.75
620.866	12.75
621.628	12.75
622.39	11.75
623.152	11.75
623.914	11.75
624.676	11.75
625.438	10.75
626.199	9.75
626.961	8.75
627.722	11.75
628.484	10.75
629.245	7.75
630.006	7.75
630.768	6.75
631.529	7.75
632.29	7.75
633.051	7.75
633.812	8.75
634.573	7.75
635.333	5.75
636.094	6.75
636.855	7.75
637.615	4.75
638.376	5.75
639.136	5.75
639.896	5.75
640.657	6.75
641.417	6.75
642.177	5.75
642.937	2.75
643.697	5.75
644.457	5.75
645.216	4.75
645.976	6.75
646.736	3.75
647.495	4.75
648.255	3.75
649.014	5.75
649.774	4.75
650.533	2.75
651.292	3.75
652.051	5.75
652.81	6.75
653.569	6.75
654.328	5.75
655.087	4.75
655.846	4.75
656.604	2.75
657.363	0.75
658.121	2.75
658.88	4.75
659.638	1.75
660.397	5.75
661.155	2.75
661.913	3.75
662.671	4.75
663.429	3.75
664.187	3.75
664.945	2.75
665.703	4.75
666.46	3.75
667.218	3.75
667.976	2.75
668.733	1.75
669.49	2.75
670.248	3.75
671.005	3.75
671.762	3.75
672.519	3.75
673.276	3.75
674.033	3.75
674.79	1.75
675.547	2.75
676.304	0.75
677.06	3.75
677.817	3.75
678.574	1.75
679.33	1.75
680.086	3.75
680.843	1.75
681.599	0.75
682.355	3.75
683.111	1.75
683.867	1.75
684.623	2.75
685.379	2.75
686.135	1.75
686.89	0.75
687.646	1.75
688.402	2.75
689.157	2.75
689.912	1.75
690.668	1.75
691.423	2.75
692.178	3.75
692.933	1.75
693.688	1.75
694.443	2.75
695.198	3.75
695.953	2.75
696.708	2.75
697.462	2.75
698.217	0.75
698.972	1.75
699.726	2.75
700.48	2.75
701.235	2.75
701.989	3.75
702.743	-0.25
703.497	1.75
704.251	1.75
705.005	-0.25
705.759	3.75
706.513	3.75
707.266	1.75
708.02	0.75
708.774	2.75
709.527	2.75
710.28	0.75
711.034	2.75
711.787	3.75
712.54	2.75
713.293	0.75
714.046	1.75
714.799	4.75
715.552	1.75
716.305	2.75
717.058	2.75
717.81	-1.25
718.563	0.75
719.315	2.75
720.068	1.75
720.82	1.75
721.573	5.75
722.325	2.75
723.077	1.75
723.829	3.75
724.581	1.75
725.333	1.75
726.085	3.75
726.836	1.75
727.588	2.75
728.34	1.75
729.091	4.75
729.843	1.75
730.594	3.75
731.346	2.75
732.097	5.75
732.848	3.75
733.599	3.75
734.35	2.75
735.101	1.75
735.852	1.75
736.603	0.75
737.354	4.75
738.104	4.75
738.855	3.75
739.605	2.75
740.356	1.75
741.106	2.75
741.856	2.75
742.607	2.75
743.357	1.75
744.107	2.75
744.857	2.75
745.607	3.75
746.357	1.75
747.106	1.75
747.856	1.75
748.606	2.75
749.355	1.75
750.105	4.75
750.854	3.75
751.603	3.75
752.353	1.75
753.102	0.75
753.851	2.75
754.6	2.75
755.349	5.75
756.098	2.75
756.847	6.75
757.595	4.75
758.344	2.75
759.093	3.75
759.841	1.75
760.589	3.75
761.338	3.75
762.086	4.75
762.834	4.75
763.582	1.75
764.331	3.75
765.079	1.75
765.826	1.75
766.574	5.75
767.322	7.75
768.07	3.75
768.817	2.75
769.565	5.75
770.312	3.75
771.06	4.75
771.807	3.75
772.554	4.75
773.302	3.75
774.049	2.75
774.796	3.75
775.543	3.75
776.29	4.75
777.036	4.75
777.783	4.75
778.53	5.75
779.276	3.75
780.023	2.75
780.769	5.75
781.516	4.75
782.262	2.75
783.008	3.75
783.754	3.75
784.5	3.75
785.246	4.75
785.992	3.75
786.738	5.75
787.484	5.75
788.23	4.75
788.975	3.75
789.721	4.75
790.466	6.75
791.212	5.75
791.957	4.75
792.702	4.75
793.447	4.75
794.193	2.75
794.938	4.75
795.683	5.75
796.427	2.75
797.172	4.75
797.917	5.75
798.662	4.75
799.406	5.75
800.151	5.75
800.895	3.75
801.64	5.75
802.384	4.75
803.128	3.75
803.872	3.75
804.616	2.75
805.36	5.75
806.104	2.75
806.848	3.75
807.592	2.75
808.336	3.75
809.079	2.75
809.823	4.75
810.566	4.75
811.31	3.75
812.053	2.75
812.796	5.75
813.539	3.75
814.283	3.75
815.026	3.75
815.769	3.75
816.511	5.75
817.254	5.75
817.997	1.75
818.74	1.75
819.482	0.75
820.225	3.75
820.967	1.75
821.71	3.75
822.452	2.75
823.194	0.75
823.936	2.75
824.678	2.75
825.42	2.75
826.162	1.75
826.904	4.75
827.646	2.75
828.388	1.75
829.129	4.75
829.871	1.75
830.612	4.75
831.354	2.75
832.095	3.75
832.836	4.75
833.577	1.75
834.319	2.75
835.06	1.75
835.801	3.75
836.542	0.75
837.282	1.75
838.023	4.75
838.764	2.75
839.504	0.75
840.245	1.75
840.985	1.75
841.726	0.75
842.466	3.75
843.206	0.75
843.946	1.75
844.687	4.75
845.427	2.75
846.166	4.75
846.906	1.75
847.646	2.75
848.386	3.75
849.125	2.75
849.865	1.75
850.605	-0.25
851.344	1.75
852.083	3.75
852.823	3.75
853.562	2.75
854.301	4.75
855.04	2.75
855.779	1.75
856.518	0.75
857.257	2.75
857.995	0.75
858.734	1.75
859.473	1.75
860.211	1.75
860.95	-1.25
861.688	0.75
862.426	1.75
863.165	4.75
863.903	1.75
864.641	0.75
865.379	2.75
866.117	1.75
866.855	2.75
867.593	1.75
868.33	1.75
869.068	0.75
869.806	1.75
870.543	2.75
871.28	0.75
872.018	3.75
872.755	1.75
873.492	1.75
874.229	1.75
874.967	-1.25
875.703	2.75
876.44	2.75
877.177	1.75
877.914	0.75
878.651	1.75
879.387	1.75
880.124	1.75
880.86	0.75
881.597	2.75
882.333	1.75
883.069	0.75
883.806	-0.25
884.542	0.75
885.278	1.75
886.014	1.75
886.749	0.75
887.485	1.75
888.221	1.75
888.957	0.75
889.692	-1.25
890.428	1.75
891.163	-0.25
891.899	0.75
892.634	1.75
893.369	-0.25
894.104	1.75
894.839	-0.25
895.574	-1.25
896.309	0.75
897.044	0.75
897.779	-0.25
898.514	-1.25
899.248	1.75
899.983	0.75
900.717	-0.25
901.452	-1.25
902.186	0.75
902.92	1.75
903.654	1.75
904.389	-1.25
905.123	-1.25
905.857	2.75
906.59	0.75
907.324	-1.25
908.058	1.75
908.792	0.75
909.525	1.75
910.259	1.75
910.992	1.75
911.726	4.75
912.459	1.75
913.192	2.75
913.925	-1.25
914.658	0.75
915.391	0.75
916.124	0.75
916.857	-0.25
917.59	2.75
918.323	1.75
919.055	0.75
919.788	-1.25
920.521	2.75
921.253	1.75
921.985	2.75
922.718	0.75
923.45	-1.25
924.182	1.75
924.914	1.75
925.646	-0.25
926.378	0.75
927.11	1.75
927.841	-0.25
928.573	0.75
929.305	-1.25
930.036	1.75
930.768	0.75
931.499	1.75
932.23	-0.25
932.962	-1.25
933.693	-0.25
934.424	-1.25
935.155	-1.25
935.886	0.75
936.617	0.75
937.348	-0.25
938.078	1.75
938.809	-0.25
939.54	1.75
940.27	-0.25
941.001	-0.25
941.731	-0.25
942.461	1.75
943.191	-0.25
943.922	1.75
944.652	2.75
945.382	-0.25
946.112	-0.25
946.841	-0.25
947.571	-2.25
948.301	-1.25
949.031	-1.25
949.76	0.75
950.49	0.75
951.219	-1.25
951.948	-1.25
952.678	1.75
953.407	0.75
954.136	1.75
954.865	-1.25
955.594	-1.25
956.323	-0.25
957.052	0.75
957.78	0.75
958.509	0.75
959.238	1.75
959.966	1.75
960.695	-0.25
961.423	0.75
962.151	0.75
962.88	0.75
963.608	-2.25
964.336	0.75
965.064	0.75
965.792	-1.25
966.52	-0.25
967.247	1.75
967.975	0.75
968.703	0.75
969.43	0.75
970.158	1.75
970.885	-0.25
971.613	2.75
972.34	0.75
973.067	1.75
973.794	-2.25
974.521	-1.25
975.248	-0.25
975.975	-0.25
976.702	0.75
977.429	0.75
978.156	0.75
978.882	1.75
979.609	-0.25
980.335	-1.25
981.062	-0.25
981.788	1.75
982.514	1.75
983.24	-1.25
983.967	0.75
984.693	1.75
985.419	0.75
986.144	-1.25
986.87	-2.25
987.596	-1.25
988.322	1.75
989.047	1.75
989.773	0.75
990.498	0.75
991.224	-1.25
991.949	-0.25
992.674	-0.25
993.399	-0.25
994.124	0.75
994.849	0.75
995.574	1.75
996.299	-0.25
997.024	2.75
997.749	-0.25
998.473	-0.25
999.198	-0.25
999.922	-2.25
1000.647	0.75
1001.371	2.75
1002.095	-0.25
1002.82	0.75
1003.544	-1.25
1004.268	-0.25
1004.992	0.75
1005.716	-0.25
1006.439	0.75
1007.163	0.75
1007.887	1.75
1008.611	-2.25
1009.334	3.75
1010.058	1.75
1010.781	0.75
1011.504	2.75
1012.228	0.75
1012.951	-0.25
1013.674	-0.25
1014.397	-0.25
1015.12	-1.25
