节点500_145_QEPB04081__539__11-37-30-473.txt的数据

Date: Wed Nov 12 11:37:30 CST 2025
User: PC
Spectrometer: QEPB0408
触发模式: 0
积分时间 (秒): 1.000000E-2
Scans to average: 1
启用暗噪声校正: true
启用非线性校正: false
滑动平均宽度: 0
X轴模式: Wavelengths
Number of Pixels in Spectrum: 1044
>>>>>Begin Spectral Data<<<<<
220.843	1.12
221.644	-0.88
222.444	0.12
223.244	-0.88
224.045	0.12
224.845	-1.88
225.645	-0.88
226.445	1.12
227.245	0.12
228.045	-0.88
228.845	0.12
229.645	1.12
230.444	-1.88
231.244	-0.88
232.043	-0.88
232.843	2.12
233.642	2.12
234.442	1.12
235.241	1.12
236.04	0.12
236.839	1.12
237.638	-1.88
238.437	1.12
239.236	1.12
240.035	1.12
240.833	2.12
241.632	0.12
242.43	1.12
243.229	0.12
244.027	0.12
244.826	1.12
245.624	2.12
246.422	-0.88
247.22	1.12
248.018	0.12
248.816	1.12
249.614	1.12
250.412	1.12
251.21	3.12
252.007	1.12
252.805	1.12
253.602	3.12
254.4	2.12
255.197	3.12
255.994	1.12
256.791	5.12
257.589	3.12
258.386	5.12
259.183	3.12
259.979	2.12
260.776	5.12
261.573	4.12
262.37	5.12
263.166	6.12
263.963	5.12
264.759	4.12
265.556	5.12
266.352	6.12
267.148	5.12
267.944	5.12
268.74	4.12
269.536	5.12
270.332	7.12
271.128	7.12
271.924	8.12
272.719	7.12
273.515	6.12
274.311	5.12
275.106	7.12
275.901	5.12
276.697	7.12
277.492	7.12
278.287	6.12
279.082	8.12
279.877	6.12
280.672	8.12
281.467	8.12
282.262	9.12
283.056	7.12
283.851	8.12
284.646	8.12
285.44	8.12
286.234	10.12
287.029	9.12
287.823	8.12
288.617	8.12
289.411	7.12
290.205	10.12
290.999	9.12
291.793	8.12
292.587	8.12
293.381	9.12
294.174	10.12
294.968	8.12
295.761	9.12
296.555	7.12
297.348	5.12
298.141	11.12
298.935	9.12
299.728	10.12
300.521	7.12
301.314	7.12
302.107	5.12
302.899	7.12
303.692	7.12
304.485	9.12
305.277	8.12
306.07	7.12
306.862	4.12
307.655	7.12
308.447	7.12
309.239	5.12
310.031	6.12
310.823	7.12
311.615	7.12
312.407	7.12
313.199	3.12
313.991	3.12
314.783	5.12
315.574	5.12
316.366	4.12
317.157	5.12
317.949	4.12
318.74	5.12
319.531	4.12
320.322	5.12
321.113	4.12
321.904	2.12
322.695	5.12
323.486	4.12
324.277	2.12
325.068	6.12
325.858	7.12
326.649	5.12
327.439	5.12
328.23	3.12
329.02	4.12
329.81	4.12
330.6	2.12
331.391	3.12
332.181	3.12
332.971	3.12
333.76	1.12
334.55	2.12
335.34	4.12
336.13	3.12
336.919	4.12
337.709	3.12
338.498	3.12
339.287	2.12
340.077	2.12
340.866	2.12
341.655	4.12
342.444	4.12
343.233	5.12
344.022	3.12
344.811	2.12
345.6	2.12
346.388	3.12
347.177	0.12
347.965	3.12
348.754	4.12
349.542	3.12
350.33	0.12
351.119	2.12
351.907	6.12
352.695	2.12
353.483	2.12
354.271	2.12
355.059	3.12
355.846	1.12
356.634	0.12
357.422	3.12
358.209	1.12
358.997	0.12
359.784	3.12
360.571	3.12
361.359	2.12
362.146	1.12
362.933	1.12
363.72	1.12
364.507	3.12
365.294	2.12
366.081	2.12
366.867	1.12
367.654	1.12
368.44	1.12
369.227	1.12
370.013	1.12
370.8	2.12
371.586	1.12
372.372	2.12
373.158	1.12
373.944	1.12
374.73	4.12
375.516	1.12
376.302	4.12
377.088	3.12
377.873	2.12
378.659	2.12
379.445	3.12
380.23	2.12
381.015	1.12
381.801	4.12
382.586	1.12
383.371	3.12
384.156	0.12
384.941	1.12
385.726	1.12
386.511	2.12
387.296	3.12
388.08	4.12
388.865	2.12
389.649	2.12
390.434	2.12
391.218	2.12
392.003	0.12
392.787	-0.88
393.571	0.12
394.355	1.12
395.139	3.12
395.923	2.12
396.707	4.12
397.491	3.12
398.274	2.12
399.058	2.12
399.842	4.12
400.625	2.12
401.408	3.12
402.192	3.12
402.975	3.12
403.758	2.12
404.541	2.12
405.324	2.12
406.107	1.12
406.89	5.12
407.673	6.12
408.456	2.12
409.238	4.12
410.021	3.12
410.803	3.12
411.586	5.12
412.368	5.12
413.151	6.12
413.933	3.12
414.715	7.12
415.497	3.12
416.279	6.12
417.061	4.12
417.843	5.12
418.624	6.12
419.406	5.12
420.188	4.12
420.969	5.12
421.751	3.12
422.532	7.12
423.313	4.12
424.095	5.12
424.876	4.12
425.657	5.12
426.438	4.12
427.219	5.12
428	5.12
428.78	5.12
429.561	6.12
430.342	6.12
431.122	7.12
431.903	10.12
432.683	6.12
433.464	8.12
434.244	9.12
435.024	7.12
435.804	8.12
436.584	7.12
437.364	10.12
438.144	10.12
438.924	10.12
439.704	12.12
440.483	10.12
441.263	9.12
442.042	13.12
442.822	10.12
443.601	11.12
444.38	14.12
445.16	12.12
445.939	17.12
446.718	16.12
447.497	18.12
448.276	20.12
449.054	20.12
449.833	22.12
450.612	23.12
451.391	28.12
452.169	26.12
452.948	28.12
453.726	33.12
454.504	38.12
455.282	40.12
456.061	45.12
456.839	47.12
457.617	51.12
458.395	61.12
459.172	65.12
459.95	71.12
460.728	81.12
461.506	94.12
462.283	103.12
463.061	109.12
463.838	129.12
464.615	137.12
465.393	155.12
466.17	172.12
466.947	189.12
467.724	209.12
468.501	235.12
469.278	270.12
470.055	298.12
470.831	329.12
471.608	361.12
472.385	409.12
473.161	446.12
473.938	498.12
474.714	542.12
475.49	610.12
476.266	663.12
477.043	726.12
477.819	817.12
478.595	886.12
479.371	976.12
480.146	1087.12
480.922	1197.12
481.698	1289.12
482.473	1442.12
483.249	1573.12
484.024	1714.12
484.8	1893.12
485.575	2066.12
486.35	2276.12
487.126	2498.12
487.901	2731.12
488.676	3002.12
489.451	3258.12
490.225	3574.12
491	3933.12
491.775	4285.12
492.55	4666.12
493.324	5098.12
494.099	5532.12
494.873	6072.12
495.647	6562.12
496.422	7106.12
497.196	7656.12
497.97	8252.12
498.744	8887.12
499.518	9494.12
500.292	10143.12
501.066	10737.12
501.839	11373.12
502.613	11971.12
503.387	12545.12
504.16	13007.12
504.934	13502.12
505.707	13866.12
506.48	14137.12
507.253	14353.12
508.027	14491.12
508.8	14546.12
509.573	14471.12
510.346	14391.12
511.118	14140.12
511.891	13919.12
512.664	13497.12
513.437	13141.12
514.209	12721.12
514.982	12279.12
515.754	11803.12
516.526	11376.12
517.298	10885.12
518.071	10422.12
518.843	9954.12
519.615	9544.12
520.387	9195.12
521.159	8791.12
521.93	8440.12
522.702	8101.12
523.474	7766.12
524.245	7486.12
525.017	7186.12
525.788	6873.12
526.56	6597.12
527.331	6338.12
528.102	6054.12
528.873	5854.12
529.644	5570.12
530.415	5316.12
531.186	5062.12
531.957	4853.12
532.728	4607.12
533.498	4379.12
534.269	4156.12
535.039	3916.12
535.81	3718.12
536.58	3520.12
537.351	3314.12
538.121	3139.12
538.891	2981.12
539.661	2782.12
540.431	2647.12
541.201	2513.12
541.971	2367.12
542.741	2257.12
543.51	2120.12
544.28	2019.12
545.05	1923.12
545.819	1835.12
546.588	1746.12
547.358	1651.12
548.127	1575.12
548.896	1486.12
549.665	1428.12
550.434	1343.12
551.203	1269.12
551.972	1214.12
552.741	1145.12
553.51	1085.12
554.278	1036.12
555.047	964.12
555.815	918.12
556.584	875.12
557.352	823.12
558.121	760.12
558.889	732.12
559.657	685.12
560.425	648.12
561.193	611.12
561.961	580.12
562.729	540.12
563.496	523.12
564.264	487.12
565.032	454.12
565.799	436.12
566.567	411.12
567.334	388.12
568.101	363.12
568.869	355.12
569.636	317.12
570.403	303.12
571.17	294.12
571.937	277.12
572.704	258.12
573.471	247.12
574.237	229.12
575.004	210.12
575.771	208.12
576.537	191.12
577.303	180.12
578.07	167.12
578.836	159.12
579.602	149.12
580.368	142.12
581.134	137.12
581.9	126.12
582.666	120.12
583.432	117.12
584.198	105.12
584.964	104.12
585.729	95.12
586.495	88.12
587.26	86.12
588.025	81.12
588.791	78.12
589.556	70.12
590.321	68.12
591.086	67.12
591.851	62.12
592.616	60.12
593.381	52.12
594.146	54.12
594.911	47.12
595.675	46.12
596.44	46.12
597.204	44.12
597.969	40.12
598.733	37.12
599.497	34.12
600.261	37.12
601.025	35.12
601.79	31.12
602.553	31.12
603.317	30.12
604.081	27.12
604.845	29.12
605.609	26.12
606.372	24.12
607.136	24.12
607.899	22.12
608.662	24.12
609.426	21.12
610.189	18.12
610.952	19.12
611.715	19.12
612.478	18.12
613.241	19.12
614.004	15.12
614.767	14.12
615.529	16.12
616.292	14.12
617.055	15.12
617.817	11.12
618.579	12.12
619.342	12.12
620.104	12.12
620.866	10.12
621.628	13.12
622.39	10.12
623.152	11.12
623.914	8.12
624.676	9.12
625.438	8.12
626.199	8.12
626.961	8.12
627.722	9.12
628.484	6.12
629.245	8.12
630.006	7.12
630.768	7.12
631.529	6.12
632.29	9.12
633.051	8.12
633.812	7.12
634.573	6.12
635.333	7.12
636.094	7.12
636.855	5.12
637.615	7.12
638.376	5.12
639.136	6.12
639.896	3.12
640.657	4.12
641.417	4.12
642.177	5.12
642.937	5.12
643.697	4.12
644.457	5.12
645.216	4.12
645.976	6.12
646.736	4.12
647.495	4.12
648.255	2.12
649.014	3.12
649.774	3.12
650.533	4.12
651.292	4.12
652.051	4.12
652.81	3.12
653.569	5.12
654.328	1.12
655.087	2.12
655.846	2.12
656.604	4.12
657.363	4.12
658.121	2.12
658.88	2.12
659.638	2.12
660.397	3.12
661.155	1.12
661.913	2.12
662.671	3.12
663.429	0.12
664.187	3.12
664.945	3.12
665.703	4.12
666.46	0.12
667.218	-0.88
667.976	4.12
668.733	1.12
669.49	2.12
670.248	2.12
671.005	5.12
671.762	2.12
672.519	3.12
673.276	4.12
674.033	4.12
674.79	0.12
675.547	0.12
676.304	0.12
677.06	3.12
677.817	2.12
678.574	2.12
679.33	1.12
680.086	4.12
680.843	3.12
681.599	4.12
682.355	3.12
683.111	0.12
683.867	3.12
684.623	2.12
685.379	2.12
686.135	2.12
686.89	2.12
687.646	0.12
688.402	1.12
689.157	0.12
689.912	1.12
690.668	0.12
691.423	0.12
692.178	3.12
692.933	1.12
693.688	3.12
694.443	2.12
695.198	1.12
695.953	3.12
696.708	-0.88
697.462	5.12
698.217	2.12
698.972	0.12
699.726	2.12
700.48	0.12
701.235	3.12
701.989	-0.88
702.743	2.12
703.497	0.12
704.251	1.12
705.005	1.12
705.759	1.12
706.513	1.12
707.266	0.12
708.02	0.12
708.774	2.12
709.527	0.12
710.28	1.12
711.034	-0.88
711.787	2.12
712.54	1.12
713.293	0.12
714.046	2.12
714.799	2.12
715.552	2.12
716.305	0.12
717.058	3.12
717.81	2.12
718.563	1.12
719.315	3.12
720.068	2.12
720.82	5.12
721.573	-0.88
722.325	2.12
723.077	1.12
723.829	3.12
724.581	2.12
725.333	1.12
726.085	0.12
726.836	1.12
727.588	2.12
728.34	1.12
729.091	4.12
729.843	2.12
730.594	0.12
731.346	3.12
732.097	1.12
732.848	2.12
733.599	3.12
734.35	2.12
735.101	1.12
735.852	1.12
736.603	1.12
737.354	1.12
738.104	4.12
738.855	0.12
739.605	2.12
740.356	2.12
741.106	0.12
741.856	3.12
742.607	2.12
743.357	2.12
744.107	2.12
744.857	1.12
745.607	0.12
746.357	1.12
747.106	3.12
747.856	-0.88
748.606	1.12
749.355	2.12
750.105	4.12
750.854	4.12
751.603	3.12
752.353	3.12
753.102	1.12
753.851	3.12
754.6	2.12
755.349	4.12
756.098	1.12
756.847	4.12
757.595	2.12
758.344	3.12
759.093	4.12
759.841	2.12
760.589	2.12
761.338	4.12
762.086	1.12
762.834	2.12
763.582	3.12
764.331	3.12
765.079	5.12
765.826	2.12
766.574	6.12
767.322	4.12
768.07	5.12
768.817	5.12
769.565	3.12
770.312	3.12
771.06	2.12
771.807	3.12
772.554	2.12
773.302	2.12
774.049	3.12
774.796	4.12
775.543	2.12
776.29	4.12
777.036	4.12
777.783	0.12
778.53	5.12
779.276	2.12
780.023	6.12
780.769	6.12
781.516	5.12
782.262	5.12
783.008	5.12
783.754	5.12
784.5	3.12
785.246	4.12
785.992	4.12
786.738	4.12
787.484	4.12
788.23	5.12
788.975	4.12
789.721	4.12
790.466	5.12
791.212	3.12
791.957	6.12
792.702	3.12
793.447	2.12
794.193	4.12
794.938	6.12
795.683	4.12
796.427	4.12
797.172	4.12
797.917	3.12
798.662	4.12
799.406	4.12
800.151	5.12
800.895	7.12
801.64	3.12
802.384	4.12
803.128	5.12
803.872	2.12
804.616	4.12
805.36	1.12
806.104	4.12
806.848	2.12
807.592	4.12
808.336	2.12
809.079	2.12
809.823	2.12
810.566	2.12
811.31	2.12
812.053	3.12
812.796	5.12
813.539	3.12
814.283	3.12
815.026	3.12
815.769	4.12
816.511	1.12
817.254	1.12
817.997	1.12
818.74	1.12
819.482	2.12
820.225	3.12
820.967	2.12
821.71	1.12
822.452	2.12
823.194	1.12
823.936	4.12
824.678	1.12
825.42	3.12
826.162	2.12
826.904	0.12
827.646	1.12
828.388	2.12
829.129	2.12
829.871	1.12
830.612	3.12
831.354	2.12
832.095	2.12
832.836	2.12
833.577	2.12
834.319	1.12
835.06	0.12
835.801	2.12
836.542	2.12
837.282	-0.88
838.023	2.12
838.764	1.12
839.504	4.12
840.245	0.12
840.985	4.12
841.726	0.12
842.466	-0.88
843.206	2.12
843.946	1.12
844.687	2.12
845.427	1.12
846.166	2.12
846.906	1.12
847.646	1.12
848.386	2.12
849.125	-0.88
849.865	3.12
850.605	3.12
851.344	0.12
852.083	3.12
852.823	1.12
853.562	2.12
854.301	1.12
855.04	-0.88
855.779	1.12
856.518	3.12
857.257	0.12
857.995	1.12
858.734	2.12
859.473	-1.88
860.211	1.12
860.95	-0.88
861.688	1.12
862.426	0.12
863.165	2.12
863.903	2.12
864.641	0.12
865.379	2.12
866.117	-0.88
866.855	1.12
867.593	0.12
868.33	0.12
869.068	0.12
869.806	1.12
870.543	-0.88
871.28	1.12
872.018	1.12
872.755	1.12
873.492	1.12
874.229	2.12
874.967	0.12
875.703	2.12
876.44	0.12
877.177	2.12
877.914	3.12
878.651	1.12
879.387	1.12
880.124	-0.88
880.86	2.12
881.597	1.12
882.333	1.12
883.069	2.12
883.806	1.12
884.542	-1.88
885.278	-0.88
886.014	2.12
886.749	-1.88
887.485	1.12
888.221	0.12
888.957	-2.88
889.692	2.12
890.428	-0.88
891.163	1.12
891.899	-1.88
892.634	2.12
893.369	1.12
894.104	0.12
894.839	0.12
895.574	1.12
896.309	-0.88
897.044	1.12
897.779	0.12
898.514	-2.88
899.248	-1.88
899.983	0.12
900.717	-1.88
901.452	-0.88
902.186	0.12
902.92	0.12
903.654	-1.88
904.389	-0.88
905.123	0.12
905.857	1.12
906.59	0.12
907.324	-1.88
908.058	1.12
908.792	1.12
909.525	1.12
910.259	0.12
910.992	0.12
911.726	2.12
912.459	2.12
913.192	-0.88
913.925	3.12
914.658	1.12
915.391	-2.88
916.124	1.12
916.857	0.12
917.59	-0.88
918.323	-0.88
919.055	1.12
919.788	-0.88
920.521	1.12
921.253	2.12
921.985	-0.88
922.718	0.12
923.45	0.12
924.182	0.12
924.914	-1.88
925.646	0.12
926.378	-0.88
927.11	0.12
927.841	-1.88
928.573	0.12
929.305	-0.88
930.036	2.12
930.768	0.12
931.499	0.12
932.23	1.12
932.962	0.12
933.693	-1.88
934.424	-0.88
935.155	-3.88
935.886	0.12
936.617	1.12
937.348	1.12
938.078	-0.88
938.809	1.12
939.54	2.12
940.27	0.12
941.001	1.12
941.731	-1.88
942.461	3.12
943.191	0.12
943.922	2.12
944.652	0.12
945.382	1.12
946.112	0.12
946.841	0.12
947.571	1.12
948.301	1.12
949.031	-1.88
949.76	-1.88
950.49	0.12
951.219	0.12
951.948	-2.88
952.678	-1.88
953.407	-0.88
954.136	-0.88
954.865	-0.88
955.594	0.12
956.323	-0.88
957.052	1.12
957.78	-2.88
958.509	1.12
959.238	-2.88
959.966	0.12
960.695	0.12
961.423	0.12
962.151	-1.88
962.88	0.12
963.608	0.12
964.336	-0.88
965.064	0.12
965.792	1.12
966.52	1.12
967.247	0.12
967.975	-0.88
968.703	0.12
969.43	-0.88
970.158	-0.88
970.885	-1.88
971.613	-0.88
972.34	0.12
973.067	1.12
973.794	-0.88
974.521	0.12
975.248	0.12
975.975	-0.88
976.702	-2.88
977.429	1.12
978.156	0.12
978.882	-1.88
979.609	-1.88
980.335	0.12
981.062	1.12
981.788	0.12
982.514	-0.88
983.24	-0.88
983.967	-1.88
984.693	1.12
985.419	-0.88
986.144	-1.88
986.87	-1.88
987.596	0.12
988.322	-0.88
989.047	3.12
989.773	-1.88
990.498	-2.88
991.224	1.12
991.949	0.12
992.674	2.12
993.399	0.12
994.124	1.12
994.849	-0.88
995.574	1.12
996.299	1.12
997.024	0.12
997.749	0.12
998.473	0.12
999.198	-2.88
999.922	-2.88
1000.647	1.12
1001.371	3.12
1002.095	-0.88
1002.82	-0.88
1003.544	-0.88
1004.268	-1.88
1004.992	-0.88
1005.716	-0.88
1006.439	-0.88
1007.163	-1.88
1007.887	-1.88
1008.611	1.12
1009.334	1.12
1010.058	-0.88
1010.781	0.12
1011.504	2.12
1012.228	-0.88
1012.951	-0.88
1013.674	0.12
1014.397	-1.88
1015.12	2.12
