节点500_145_QEPB04081__48__11-29-42-749.txt的数据

Date: Wed Nov 12 11:29:42 CST 2025
User: PC
Spectrometer: QEPB0408
触发模式: 0
积分时间 (秒): 1.000000E-2
Scans to average: 1
启用暗噪声校正: true
启用非线性校正: false
滑动平均宽度: 0
X轴模式: Wavelengths
Number of Pixels in Spectrum: 1044
>>>>>Begin Spectral Data<<<<<
220.843	-1.62
221.644	1.38
222.444	0.38
223.244	1.38
224.045	-1.62
224.845	-1.62
225.645	-0.62
226.445	0.38
227.245	-1.62
228.045	0.38
228.845	1.38
229.645	0.38
230.444	-1.62
231.244	2.38
232.043	2.38
232.843	0.38
233.642	2.38
234.442	0.38
235.241	0.38
236.04	1.38
236.839	-1.62
237.638	2.38
238.437	2.38
239.236	2.38
240.035	1.38
240.833	1.38
241.632	1.38
242.43	2.38
243.229	2.38
244.027	2.38
244.826	5.38
245.624	0.38
246.422	2.38
247.22	3.38
248.018	1.38
248.816	2.38
249.614	2.38
250.412	4.38
251.21	3.38
252.007	1.38
252.805	4.38
253.602	1.38
254.4	4.38
255.197	4.38
255.994	3.38
256.791	4.38
257.589	5.38
258.386	3.38
259.183	4.38
259.979	6.38
260.776	2.38
261.573	5.38
262.37	5.38
263.166	6.38
263.963	7.38
264.759	7.38
265.556	7.38
266.352	5.38
267.148	7.38
267.944	8.38
268.74	6.38
269.536	8.38
270.332	6.38
271.128	8.38
271.924	10.38
272.719	11.38
273.515	10.38
274.311	9.38
275.106	10.38
275.901	11.38
276.697	11.38
277.492	12.38
278.287	12.38
279.082	10.38
279.877	13.38
280.672	12.38
281.467	12.38
282.262	11.38
283.056	10.38
283.851	12.38
284.646	13.38
285.44	10.38
286.234	13.38
287.029	11.38
287.823	12.38
288.617	11.38
289.411	13.38
290.205	11.38
290.999	11.38
291.793	12.38
292.587	14.38
293.381	11.38
294.174	9.38
294.968	11.38
295.761	12.38
296.555	9.38
297.348	10.38
298.141	13.38
298.935	12.38
299.728	10.38
300.521	9.38
301.314	11.38
302.107	9.38
302.899	7.38
303.692	7.38
304.485	10.38
305.277	9.38
306.07	9.38
306.862	9.38
307.655	7.38
308.447	8.38
309.239	10.38
310.031	9.38
310.823	7.38
311.615	7.38
312.407	7.38
313.199	7.38
313.991	5.38
314.783	6.38
315.574	4.38
316.366	6.38
317.157	5.38
317.949	7.38
318.74	3.38
319.531	7.38
320.322	4.38
321.113	5.38
321.904	8.38
322.695	3.38
323.486	7.38
324.277	4.38
325.068	3.38
325.858	5.38
326.649	2.38
327.439	4.38
328.23	4.38
329.02	3.38
329.81	2.38
330.6	5.38
331.391	3.38
332.181	5.38
332.971	4.38
333.76	2.38
334.55	6.38
335.34	3.38
336.13	5.38
336.919	3.38
337.709	4.38
338.498	5.38
339.287	4.38
340.077	4.38
340.866	2.38
341.655	2.38
342.444	4.38
343.233	2.38
344.022	4.38
344.811	3.38
345.6	5.38
346.388	5.38
347.177	5.38
347.965	4.38
348.754	4.38
349.542	3.38
350.33	2.38
351.119	6.38
351.907	5.38
352.695	4.38
353.483	5.38
354.271	2.38
355.059	5.38
355.846	4.38
356.634	3.38
357.422	3.38
358.209	4.38
358.997	3.38
359.784	3.38
360.571	3.38
361.359	1.38
362.146	2.38
362.933	3.38
363.72	2.38
364.507	5.38
365.294	1.38
366.081	3.38
366.867	1.38
367.654	2.38
368.44	2.38
369.227	2.38
370.013	2.38
370.8	2.38
371.586	6.38
372.372	3.38
373.158	4.38
373.944	3.38
374.73	4.38
375.516	2.38
376.302	3.38
377.088	2.38
377.873	3.38
378.659	3.38
379.445	3.38
380.23	2.38
381.015	3.38
381.801	2.38
382.586	2.38
383.371	2.38
384.156	6.38
384.941	3.38
385.726	1.38
386.511	2.38
387.296	2.38
388.08	5.38
388.865	1.38
389.649	5.38
390.434	2.38
391.218	2.38
392.003	3.38
392.787	5.38
393.571	4.38
394.355	4.38
395.139	2.38
395.923	4.38
396.707	2.38
397.491	3.38
398.274	3.38
399.058	3.38
399.842	6.38
400.625	3.38
401.408	4.38
402.192	2.38
402.975	4.38
403.758	5.38
404.541	5.38
405.324	3.38
406.107	4.38
406.89	2.38
407.673	4.38
408.456	6.38
409.238	4.38
410.021	1.38
410.803	5.38
411.586	4.38
412.368	2.38
413.151	3.38
413.933	6.38
414.715	5.38
415.497	7.38
416.279	3.38
417.061	7.38
417.843	6.38
418.624	5.38
419.406	6.38
420.188	8.38
420.969	6.38
421.751	5.38
422.532	5.38
423.313	9.38
424.095	4.38
424.876	6.38
425.657	6.38
426.438	5.38
427.219	7.38
428	7.38
428.78	5.38
429.561	7.38
430.342	8.38
431.122	8.38
431.903	6.38
432.683	5.38
433.464	9.38
434.244	10.38
435.024	10.38
435.804	7.38
436.584	8.38
437.364	11.38
438.144	10.38
438.924	8.38
439.704	12.38
440.483	12.38
441.263	10.38
442.042	12.38
442.822	12.38
443.601	11.38
444.38	14.38
445.16	17.38
445.939	15.38
446.718	17.38
447.497	18.38
448.276	18.38
449.054	24.38
449.833	21.38
450.612	24.38
451.391	27.38
452.169	26.38
452.948	29.38
453.726	31.38
454.504	35.38
455.282	40.38
456.061	41.38
456.839	46.38
457.617	51.38
458.395	55.38
459.172	61.38
459.95	68.38
460.728	73.38
461.506	83.38
462.283	90.38
463.061	100.38
463.838	112.38
464.615	123.38
465.393	143.38
466.17	159.38
466.947	172.38
467.724	194.38
468.501	215.38
469.278	246.38
470.055	274.38
470.831	301.38
471.608	346.38
472.385	377.38
473.161	433.38
473.938	462.38
474.714	528.38
475.49	594.38
476.266	647.38
477.043	731.38
477.819	814.38
478.595	908.38
479.371	1002.38
480.146	1123.38
480.922	1236.38
481.698	1368.38
482.473	1530.38
483.249	1686.38
484.024	1883.38
484.8	2087.38
485.575	2327.38
486.35	2552.38
487.126	2849.38
487.901	3144.38
488.676	3487.38
489.451	3868.38
490.225	4303.38
491	4735.38
491.775	5243.38
492.55	5783.38
493.324	6377.38
494.099	6949.38
494.873	7651.38
495.647	8375.38
496.422	9116.38
497.196	9833.38
497.97	10707.38
498.744	11489.38
499.518	12342.38
500.292	13139.38
501.066	13848.38
501.839	14638.38
502.613	15276.38
503.387	15913.38
504.16	16481.38
504.934	16846.38
505.707	17153.38
506.48	17309.38
507.253	17393.38
508.027	17286.38
508.8	17108.38
509.573	16892.38
510.346	16478.38
511.118	16045.38
511.891	15493.38
512.664	14879.38
513.437	14310.38
514.209	13708.38
514.982	13080.38
515.754	12478.38
516.526	11910.38
517.298	11331.38
518.071	10838.38
518.843	10394.38
519.615	9900.38
520.387	9500.38
521.159	9156.38
521.93	8794.38
522.702	8435.38
523.474	8136.38
524.245	7788.38
525.017	7477.38
525.788	7203.38
526.56	6877.38
527.331	6572.38
528.102	6285.38
528.873	6007.38
529.644	5719.38
530.415	5436.38
531.186	5167.38
531.957	4896.38
532.728	4601.38
533.498	4361.38
534.269	4110.38
535.039	3899.38
535.81	3633.38
536.58	3471.38
537.351	3243.38
538.121	3072.38
538.891	2908.38
539.661	2729.38
540.431	2594.38
541.201	2447.38
541.971	2337.38
542.741	2211.38
543.51	2099.38
544.28	1994.38
545.05	1890.38
545.819	1805.38
546.588	1710.38
547.358	1630.38
548.127	1530.38
548.896	1472.38
549.665	1404.38
550.434	1326.38
551.203	1252.38
551.972	1184.38
552.741	1119.38
553.51	1060.38
554.278	990.38
555.047	948.38
555.815	892.38
556.584	830.38
557.352	792.38
558.121	739.38
558.889	699.38
559.657	656.38
560.425	617.38
561.193	590.38
561.961	552.38
562.729	522.38
563.496	492.38
564.264	472.38
565.032	441.38
565.799	414.38
566.567	386.38
567.334	371.38
568.101	353.38
568.869	321.38
569.636	313.38
570.403	292.38
571.17	277.38
571.937	259.38
572.704	242.38
573.471	227.38
574.237	212.38
575.004	201.38
575.771	192.38
576.537	179.38
577.303	169.38
578.07	164.38
578.836	149.38
579.602	144.38
580.368	135.38
581.134	128.38
581.9	114.38
582.666	113.38
583.432	108.38
584.198	100.38
584.964	94.38
585.729	89.38
586.495	88.38
587.26	83.38
588.025	78.38
588.791	72.38
589.556	70.38
590.321	65.38
591.086	63.38
591.851	59.38
592.616	55.38
593.381	53.38
594.146	50.38
594.911	50.38
595.675	46.38
596.44	44.38
597.204	42.38
597.969	37.38
598.733	38.38
599.497	35.38
600.261	37.38
601.025	31.38
601.79	35.38
602.553	29.38
603.317	29.38
604.081	30.38
604.845	24.38
605.609	27.38
606.372	24.38
607.136	26.38
607.899	24.38
608.662	20.38
609.426	18.38
610.189	20.38
610.952	22.38
611.715	16.38
612.478	16.38
613.241	14.38
614.004	15.38
614.767	16.38
615.529	14.38
616.292	14.38
617.055	13.38
617.817	10.38
618.579	14.38
619.342	10.38
620.104	14.38
620.866	12.38
621.628	12.38
622.39	12.38
623.152	9.38
623.914	12.38
624.676	10.38
625.438	11.38
626.199	10.38
626.961	9.38
627.722	10.38
628.484	8.38
629.245	8.38
630.006	8.38
630.768	9.38
631.529	8.38
632.29	7.38
633.051	5.38
633.812	6.38
634.573	8.38
635.333	6.38
636.094	9.38
636.855	10.38
637.615	6.38
638.376	6.38
639.136	5.38
639.896	6.38
640.657	5.38
641.417	6.38
642.177	5.38
642.937	2.38
643.697	4.38
644.457	5.38
645.216	4.38
645.976	5.38
646.736	8.38
647.495	4.38
648.255	5.38
649.014	6.38
649.774	4.38
650.533	5.38
651.292	3.38
652.051	5.38
652.81	4.38
653.569	4.38
654.328	4.38
655.087	2.38
655.846	4.38
656.604	4.38
657.363	4.38
658.121	2.38
658.88	3.38
659.638	5.38
660.397	1.38
661.155	3.38
661.913	2.38
662.671	4.38
663.429	2.38
664.187	2.38
664.945	1.38
665.703	3.38
666.46	4.38
667.218	0.38
667.976	2.38
668.733	2.38
669.49	3.38
670.248	5.38
671.005	1.38
671.762	0.38
672.519	2.38
673.276	2.38
674.033	2.38
674.79	2.38
675.547	4.38
676.304	2.38
677.06	2.38
677.817	1.38
678.574	3.38
679.33	4.38
680.086	2.38
680.843	2.38
681.599	4.38
682.355	5.38
683.111	2.38
683.867	3.38
684.623	4.38
685.379	2.38
686.135	0.38
686.89	1.38
687.646	3.38
688.402	2.38
689.157	0.38
689.912	2.38
690.668	0.38
691.423	3.38
692.178	2.38
692.933	2.38
693.688	1.38
694.443	3.38
695.198	3.38
695.953	2.38
696.708	4.38
697.462	1.38
698.217	2.38
698.972	2.38
699.726	2.38
700.48	3.38
701.235	3.38
701.989	2.38
702.743	3.38
703.497	4.38
704.251	3.38
705.005	2.38
705.759	1.38
706.513	2.38
707.266	4.38
708.02	4.38
708.774	0.38
709.527	2.38
710.28	1.38
711.034	3.38
711.787	2.38
712.54	2.38
713.293	3.38
714.046	1.38
714.799	1.38
715.552	1.38
716.305	3.38
717.058	1.38
717.81	2.38
718.563	1.38
719.315	2.38
720.068	4.38
720.82	-0.62
721.573	2.38
722.325	2.38
723.077	2.38
723.829	2.38
724.581	1.38
725.333	4.38
726.085	3.38
726.836	3.38
727.588	0.38
728.34	2.38
729.091	3.38
729.843	2.38
730.594	3.38
731.346	0.38
732.097	3.38
732.848	1.38
733.599	3.38
734.35	2.38
735.101	2.38
735.852	1.38
736.603	4.38
737.354	2.38
738.104	2.38
738.855	3.38
739.605	5.38
740.356	4.38
741.106	3.38
741.856	5.38
742.607	4.38
743.357	1.38
744.107	0.38
744.857	2.38
745.607	1.38
746.357	2.38
747.106	2.38
747.856	6.38
748.606	4.38
749.355	2.38
750.105	4.38
750.854	2.38
751.603	3.38
752.353	4.38
753.102	2.38
753.851	2.38
754.6	3.38
755.349	3.38
756.098	2.38
756.847	4.38
757.595	2.38
758.344	2.38
759.093	4.38
759.841	3.38
760.589	4.38
761.338	6.38
762.086	7.38
762.834	1.38
763.582	2.38
764.331	5.38
765.079	2.38
765.826	5.38
766.574	5.38
767.322	3.38
768.07	3.38
768.817	4.38
769.565	4.38
770.312	3.38
771.06	4.38
771.807	5.38
772.554	4.38
773.302	6.38
774.049	4.38
774.796	5.38
775.543	6.38
776.29	6.38
777.036	6.38
777.783	4.38
778.53	5.38
779.276	5.38
780.023	6.38
780.769	4.38
781.516	6.38
782.262	6.38
783.008	4.38
783.754	7.38
784.5	6.38
785.246	6.38
785.992	6.38
786.738	5.38
787.484	6.38
788.23	6.38
788.975	4.38
789.721	5.38
790.466	8.38
791.212	5.38
791.957	4.38
792.702	6.38
793.447	6.38
794.193	5.38
794.938	6.38
795.683	4.38
796.427	5.38
797.172	3.38
797.917	5.38
798.662	8.38
799.406	6.38
800.151	5.38
800.895	4.38
801.64	6.38
802.384	3.38
803.128	6.38
803.872	2.38
804.616	5.38
805.36	5.38
806.104	3.38
806.848	6.38
807.592	3.38
808.336	4.38
809.079	2.38
809.823	5.38
810.566	4.38
811.31	3.38
812.053	5.38
812.796	4.38
813.539	5.38
814.283	2.38
815.026	5.38
815.769	4.38
816.511	3.38
817.254	3.38
817.997	3.38
818.74	2.38
819.482	2.38
820.225	4.38
820.967	5.38
821.71	2.38
822.452	4.38
823.194	3.38
823.936	4.38
824.678	4.38
825.42	2.38
826.162	5.38
826.904	4.38
827.646	5.38
828.388	3.38
829.129	3.38
829.871	4.38
830.612	2.38
831.354	2.38
832.095	2.38
832.836	2.38
833.577	1.38
834.319	3.38
835.06	2.38
835.801	4.38
836.542	2.38
837.282	2.38
838.023	2.38
838.764	3.38
839.504	3.38
840.245	1.38
840.985	2.38
841.726	2.38
842.466	2.38
843.206	2.38
843.946	4.38
844.687	4.38
845.427	2.38
846.166	2.38
846.906	1.38
847.646	2.38
848.386	2.38
849.125	1.38
849.865	2.38
850.605	1.38
851.344	4.38
852.083	3.38
852.823	2.38
853.562	1.38
854.301	-1.62
855.04	2.38
855.779	2.38
856.518	2.38
857.257	4.38
857.995	1.38
858.734	5.38
859.473	3.38
860.211	2.38
860.95	2.38
861.688	1.38
862.426	1.38
863.165	1.38
863.903	0.38
864.641	2.38
865.379	3.38
866.117	2.38
866.855	1.38
867.593	4.38
868.33	-0.62
869.068	1.38
869.806	1.38
870.543	3.38
871.28	1.38
872.018	0.38
872.755	3.38
873.492	1.38
874.229	1.38
874.967	1.38
875.703	0.38
876.44	1.38
877.177	-0.62
877.914	3.38
878.651	1.38
879.387	0.38
880.124	2.38
880.86	2.38
881.597	0.38
882.333	2.38
883.069	1.38
883.806	-0.62
884.542	2.38
885.278	2.38
886.014	1.38
886.749	1.38
887.485	-1.62
888.221	1.38
888.957	3.38
889.692	1.38
890.428	-0.62
891.163	0.38
891.899	1.38
892.634	-1.62
893.369	1.38
894.104	2.38
894.839	2.38
895.574	0.38
896.309	-0.62
897.044	0.38
897.779	0.38
898.514	1.38
899.248	0.38
899.983	2.38
900.717	0.38
901.452	1.38
902.186	1.38
902.92	0.38
903.654	1.38
904.389	2.38
905.123	0.38
905.857	2.38
906.59	-0.62
907.324	0.38
908.058	-0.62
908.792	-0.62
909.525	1.38
910.259	-0.62
910.992	-0.62
911.726	0.38
912.459	0.38
913.192	-0.62
913.925	1.38
914.658	0.38
915.391	1.38
916.124	0.38
916.857	0.38
917.59	0.38
918.323	0.38
919.055	0.38
919.788	2.38
920.521	1.38
921.253	0.38
921.985	-1.62
922.718	2.38
923.45	0.38
924.182	2.38
924.914	0.38
925.646	0.38
926.378	0.38
927.11	1.38
927.841	2.38
928.573	-1.62
929.305	0.38
930.036	0.38
930.768	1.38
931.499	2.38
932.23	0.38
932.962	-0.62
933.693	0.38
934.424	1.38
935.155	0.38
935.886	2.38
936.617	2.38
937.348	-1.62
938.078	1.38
938.809	-1.62
939.54	0.38
940.27	1.38
941.001	-1.62
941.731	0.38
942.461	-0.62
943.191	-0.62
943.922	1.38
944.652	0.38
945.382	0.38
946.112	-0.62
946.841	2.38
947.571	-0.62
948.301	-0.62
949.031	3.38
949.76	1.38
950.49	1.38
951.219	-0.62
951.948	0.38
952.678	-0.62
953.407	0.38
954.136	0.38
954.865	1.38
955.594	-0.62
956.323	1.38
957.052	0.38
957.78	-0.62
958.509	1.38
959.238	0.38
959.966	0.38
960.695	1.38
961.423	-0.62
962.151	0.38
962.88	1.38
963.608	0.38
964.336	0.38
965.064	0.38
965.792	-0.62
966.52	1.38
967.247	0.38
967.975	-0.62
968.703	1.38
969.43	2.38
970.158	-2.62
970.885	1.38
971.613	1.38
972.34	1.38
973.067	-0.62
973.794	1.38
974.521	3.38
975.248	-0.62
975.975	1.38
976.702	1.38
977.429	-0.62
978.156	0.38
978.882	0.38
979.609	1.38
980.335	-1.62
981.062	1.38
981.788	-1.62
982.514	1.38
983.24	0.38
983.967	0.38
984.693	0.38
985.419	0.38
986.144	1.38
986.87	0.38
987.596	1.38
988.322	0.38
989.047	-0.62
989.773	2.38
990.498	-1.62
991.224	0.38
991.949	1.38
992.674	2.38
993.399	0.38
994.124	-0.62
994.849	2.38
995.574	-1.62
996.299	1.38
997.024	0.38
997.749	0.38
998.473	0.38
999.198	-0.62
999.922	0.38
1000.647	0.38
1001.371	5.38
1002.095	-2.62
1002.82	0.38
1003.544	-1.62
1004.268	1.38
1004.992	1.38
1005.716	0.38
1006.439	0.38
1007.163	0.38
1007.887	-0.62
1008.611	5.38
1009.334	-0.62
1010.058	0.38
1010.781	2.38
1011.504	-1.62
1012.228	-0.62
1012.951	-0.62
1013.674	-0.62
1014.397	-1.62
1015.12	1.38
