节点500_145_QEPB04081__240__11-32-49-459.txt的数据

Date: Wed Nov 12 11:32:49 CST 2025
User: PC
Spectrometer: QEPB0408
触发模式: 0
积分时间 (秒): 1.000000E-2
Scans to average: 1
启用暗噪声校正: true
启用非线性校正: false
滑动平均宽度: 0
X轴模式: Wavelengths
Number of Pixels in Spectrum: 1044
>>>>>Begin Spectral Data<<<<<
220.843	-3.38
221.644	-0.38
222.444	-1.38
223.244	-0.38
224.045	-1.38
224.845	0.62
225.645	-0.38
226.445	-0.38
227.245	1.62
228.045	-0.38
228.845	0.62
229.645	-0.38
230.444	0.62
231.244	1.62
232.043	-1.38
232.843	0.62
233.642	-0.38
234.442	3.62
235.241	-1.38
236.04	-0.38
236.839	-0.38
237.638	-0.38
238.437	-0.38
239.236	-0.38
240.035	-0.38
240.833	-1.38
241.632	0.62
242.43	0.62
243.229	-0.38
244.027	2.62
244.826	0.62
245.624	1.62
246.422	1.62
247.22	0.62
248.018	1.62
248.816	2.62
249.614	1.62
250.412	-0.38
251.21	0.62
252.007	4.62
252.805	0.62
253.602	2.62
254.4	3.62
255.197	2.62
255.994	1.62
256.791	4.62
257.589	1.62
258.386	2.62
259.183	4.62
259.979	1.62
260.776	4.62
261.573	6.62
262.37	0.62
263.166	4.62
263.963	0.62
264.759	4.62
265.556	4.62
266.352	7.62
267.148	6.62
267.944	4.62
268.74	4.62
269.536	7.62
270.332	5.62
271.128	5.62
271.924	6.62
272.719	7.62
273.515	8.62
274.311	8.62
275.106	8.62
275.901	7.62
276.697	8.62
277.492	4.62
278.287	9.62
279.082	8.62
279.877	9.62
280.672	7.62
281.467	8.62
282.262	6.62
283.056	10.62
283.851	10.62
284.646	7.62
285.44	9.62
286.234	9.62
287.029	13.62
287.823	9.62
288.617	9.62
289.411	12.62
290.205	11.62
290.999	11.62
291.793	7.62
292.587	9.62
293.381	9.62
294.174	10.62
294.968	9.62
295.761	7.62
296.555	10.62
297.348	8.62
298.141	8.62
298.935	9.62
299.728	9.62
300.521	7.62
301.314	8.62
302.107	7.62
302.899	5.62
303.692	7.62
304.485	8.62
305.277	6.62
306.07	6.62
306.862	6.62
307.655	8.62
308.447	6.62
309.239	8.62
310.031	6.62
310.823	7.62
311.615	5.62
312.407	6.62
313.199	3.62
313.991	5.62
314.783	5.62
315.574	3.62
316.366	6.62
317.157	4.62
317.949	4.62
318.74	5.62
319.531	2.62
320.322	4.62
321.113	4.62
321.904	2.62
322.695	2.62
323.486	3.62
324.277	4.62
325.068	4.62
325.858	4.62
326.649	4.62
327.439	2.62
328.23	3.62
329.02	1.62
329.81	5.62
330.6	5.62
331.391	3.62
332.181	4.62
332.971	2.62
333.76	4.62
334.55	4.62
335.34	2.62
336.13	3.62
336.919	3.62
337.709	1.62
338.498	1.62
339.287	3.62
340.077	1.62
340.866	2.62
341.655	3.62
342.444	0.62
343.233	0.62
344.022	3.62
344.811	2.62
345.6	0.62
346.388	3.62
347.177	2.62
347.965	2.62
348.754	2.62
349.542	3.62
350.33	3.62
351.119	2.62
351.907	2.62
352.695	1.62
353.483	2.62
354.271	3.62
355.059	1.62
355.846	1.62
356.634	1.62
357.422	2.62
358.209	2.62
358.997	3.62
359.784	2.62
360.571	0.62
361.359	3.62
362.146	2.62
362.933	1.62
363.72	3.62
364.507	0.62
365.294	2.62
366.081	0.62
366.867	3.62
367.654	3.62
368.44	3.62
369.227	1.62
370.013	2.62
370.8	1.62
371.586	1.62
372.372	4.62
373.158	1.62
373.944	4.62
374.73	3.62
375.516	-0.38
376.302	2.62
377.088	0.62
377.873	3.62
378.659	1.62
379.445	2.62
380.23	3.62
381.015	0.62
381.801	1.62
382.586	0.62
383.371	1.62
384.156	3.62
384.941	2.62
385.726	3.62
386.511	2.62
387.296	2.62
388.08	-0.38
388.865	3.62
389.649	1.62
390.434	-0.38
391.218	3.62
392.003	3.62
392.787	1.62
393.571	2.62
394.355	4.62
395.139	0.62
395.923	1.62
396.707	1.62
397.491	1.62
398.274	2.62
399.058	2.62
399.842	4.62
400.625	4.62
401.408	2.62
402.192	4.62
402.975	3.62
403.758	3.62
404.541	4.62
405.324	1.62
406.107	2.62
406.89	1.62
407.673	4.62
408.456	1.62
409.238	4.62
410.021	3.62
410.803	3.62
411.586	3.62
412.368	0.62
413.151	5.62
413.933	3.62
414.715	5.62
415.497	5.62
416.279	6.62
417.061	2.62
417.843	2.62
418.624	6.62
419.406	6.62
420.188	4.62
420.969	6.62
421.751	3.62
422.532	5.62
423.313	3.62
424.095	4.62
424.876	5.62
425.657	5.62
426.438	6.62
427.219	6.62
428	7.62
428.78	6.62
429.561	7.62
430.342	6.62
431.122	6.62
431.903	8.62
432.683	7.62
433.464	7.62
434.244	8.62
435.024	8.62
435.804	8.62
436.584	9.62
437.364	10.62
438.144	9.62
438.924	10.62
439.704	9.62
440.483	10.62
441.263	9.62
442.042	11.62
442.822	12.62
443.601	12.62
444.38	16.62
445.16	14.62
445.939	16.62
446.718	18.62
447.497	16.62
448.276	20.62
449.054	21.62
449.833	23.62
450.612	24.62
451.391	27.62
452.169	24.62
452.948	32.62
453.726	30.62
454.504	37.62
455.282	40.62
456.061	42.62
456.839	49.62
457.617	49.62
458.395	59.62
459.172	65.62
459.95	67.62
460.728	79.62
461.506	89.62
462.283	98.62
463.061	109.62
463.838	123.62
464.615	130.62
465.393	151.62
466.17	171.62
466.947	186.62
467.724	210.62
468.501	235.62
469.278	261.62
470.055	297.62
470.831	326.62
471.608	365.62
472.385	397.62
473.161	440.62
473.938	501.62
474.714	552.62
475.49	612.62
476.266	677.62
477.043	762.62
477.819	833.62
478.595	934.62
479.371	1035.62
480.146	1131.62
480.922	1260.62
481.698	1396.62
482.473	1536.62
483.249	1697.62
484.024	1891.62
484.8	2070.62
485.575	2291.62
486.35	2517.62
487.126	2817.62
487.901	3080.62
488.676	3362.62
489.451	3750.62
490.225	4092.62
491	4542.62
491.775	4979.62
492.55	5461.62
493.324	5998.62
494.099	6557.62
494.873	7180.62
495.647	7840.62
496.422	8498.62
497.196	9148.62
497.97	9914.62
498.744	10668.62
499.518	11448.62
500.292	12167.62
501.066	12937.62
501.839	13624.62
502.613	14312.62
503.387	14937.62
504.16	15535.62
504.934	15929.62
505.707	16261.62
506.48	16537.62
507.253	16621.62
508.027	16685.62
508.8	16648.62
509.573	16424.62
510.346	16167.62
511.118	15799.62
511.891	15343.62
512.664	14861.62
513.437	14326.62
514.209	13774.62
514.982	13251.62
515.754	12665.62
516.526	12142.62
517.298	11565.62
518.071	11051.62
518.843	10579.62
519.615	10113.62
520.387	9684.62
521.159	9313.62
521.93	8933.62
522.702	8599.62
523.474	8248.62
524.245	7927.62
525.017	7624.62
525.788	7288.62
526.56	7003.62
527.331	6723.62
528.102	6428.62
528.873	6125.62
529.644	5876.62
530.415	5578.62
531.186	5298.62
531.957	5020.62
532.728	4792.62
533.498	4502.62
534.269	4274.62
535.039	4019.62
535.81	3803.62
536.58	3606.62
537.351	3393.62
538.121	3198.62
538.891	3017.62
539.661	2849.62
540.431	2705.62
541.201	2579.62
541.971	2456.62
542.741	2306.62
543.51	2188.62
544.28	2060.62
545.05	1960.62
545.819	1878.62
546.588	1775.62
547.358	1690.62
548.127	1611.62
548.896	1541.62
549.665	1452.62
550.434	1386.62
551.203	1313.62
551.972	1244.62
552.741	1178.62
553.51	1114.62
554.278	1056.62
555.047	988.62
555.815	926.62
556.584	870.62
557.352	824.62
558.121	775.62
558.889	732.62
559.657	695.62
560.425	661.62
561.193	611.62
561.961	573.62
562.729	549.62
563.496	518.62
564.264	484.62
565.032	471.62
565.799	434.62
566.567	420.62
567.334	387.62
568.101	370.62
568.869	349.62
569.636	317.62
570.403	302.62
571.17	290.62
571.937	277.62
572.704	260.62
573.471	244.62
574.237	230.62
575.004	217.62
575.771	202.62
576.537	191.62
577.303	180.62
578.07	168.62
578.836	156.62
579.602	150.62
580.368	136.62
581.134	130.62
581.9	130.62
582.666	117.62
583.432	118.62
584.198	106.62
584.964	101.62
585.729	99.62
586.495	89.62
587.26	83.62
588.025	83.62
588.791	76.62
589.556	72.62
590.321	64.62
591.086	63.62
591.851	59.62
592.616	58.62
593.381	56.62
594.146	53.62
594.911	52.62
595.675	47.62
596.44	44.62
597.204	42.62
597.969	41.62
598.733	37.62
599.497	38.62
600.261	39.62
601.025	34.62
601.79	32.62
602.553	29.62
603.317	28.62
604.081	29.62
604.845	26.62
605.609	26.62
606.372	24.62
607.136	24.62
607.899	22.62
608.662	21.62
609.426	19.62
610.189	18.62
610.952	20.62
611.715	17.62
612.478	18.62
613.241	17.62
614.004	17.62
614.767	15.62
615.529	11.62
616.292	14.62
617.055	13.62
617.817	14.62
618.579	13.62
619.342	10.62
620.104	10.62
620.866	11.62
621.628	12.62
622.39	8.62
623.152	10.62
623.914	11.62
624.676	6.62
625.438	7.62
626.199	7.62
626.961	8.62
627.722	8.62
628.484	6.62
629.245	5.62
630.006	6.62
630.768	8.62
631.529	6.62
632.29	5.62
633.051	4.62
633.812	4.62
634.573	5.62
635.333	5.62
636.094	5.62
636.855	6.62
637.615	4.62
638.376	3.62
639.136	4.62
639.896	4.62
640.657	4.62
641.417	4.62
642.177	5.62
642.937	4.62
643.697	3.62
644.457	5.62
645.216	5.62
645.976	4.62
646.736	5.62
647.495	2.62
648.255	3.62
649.014	5.62
649.774	1.62
650.533	2.62
651.292	4.62
652.051	4.62
652.81	3.62
653.569	2.62
654.328	2.62
655.087	0.62
655.846	2.62
656.604	1.62
657.363	5.62
658.121	2.62
658.88	1.62
659.638	3.62
660.397	4.62
661.155	4.62
661.913	1.62
662.671	3.62
663.429	2.62
664.187	2.62
664.945	0.62
665.703	2.62
666.46	2.62
667.218	1.62
667.976	0.62
668.733	1.62
669.49	1.62
670.248	2.62
671.005	1.62
671.762	4.62
672.519	1.62
673.276	2.62
674.033	1.62
674.79	0.62
675.547	1.62
676.304	1.62
677.06	1.62
677.817	2.62
678.574	2.62
679.33	1.62
680.086	-0.38
680.843	2.62
681.599	0.62
682.355	2.62
683.111	0.62
683.867	0.62
684.623	1.62
685.379	1.62
686.135	3.62
686.89	2.62
687.646	1.62
688.402	-1.38
689.157	2.62
689.912	3.62
690.668	2.62
691.423	1.62
692.178	2.62
692.933	1.62
693.688	1.62
694.443	2.62
695.198	0.62
695.953	2.62
696.708	-0.38
697.462	-0.38
698.217	0.62
698.972	0.62
699.726	2.62
700.48	1.62
701.235	0.62
701.989	0.62
702.743	0.62
703.497	2.62
704.251	1.62
705.005	1.62
705.759	0.62
706.513	-0.38
707.266	1.62
708.02	1.62
708.774	2.62
709.527	1.62
710.28	0.62
711.034	1.62
711.787	2.62
712.54	0.62
713.293	0.62
714.046	3.62
714.799	0.62
715.552	0.62
716.305	0.62
717.058	2.62
717.81	1.62
718.563	2.62
719.315	1.62
720.068	1.62
720.82	1.62
721.573	0.62
722.325	1.62
723.077	0.62
723.829	-0.38
724.581	0.62
725.333	0.62
726.085	0.62
726.836	0.62
727.588	1.62
728.34	-0.38
729.091	0.62
729.843	3.62
730.594	1.62
731.346	1.62
732.097	2.62
732.848	0.62
733.599	2.62
734.35	0.62
735.101	1.62
735.852	1.62
736.603	2.62
737.354	1.62
738.104	0.62
738.855	0.62
739.605	1.62
740.356	1.62
741.106	1.62
741.856	1.62
742.607	2.62
743.357	0.62
744.107	1.62
744.857	2.62
745.607	3.62
746.357	1.62
747.106	3.62
747.856	2.62
748.606	1.62
749.355	2.62
750.105	1.62
750.854	1.62
751.603	0.62
752.353	1.62
753.102	1.62
753.851	0.62
754.6	1.62
755.349	3.62
756.098	3.62
756.847	1.62
757.595	2.62
758.344	2.62
759.093	2.62
759.841	4.62
760.589	0.62
761.338	3.62
762.086	1.62
762.834	4.62
763.582	4.62
764.331	4.62
765.079	3.62
765.826	1.62
766.574	-0.38
767.322	0.62
768.07	1.62
768.817	3.62
769.565	1.62
770.312	3.62
771.06	4.62
771.807	0.62
772.554	4.62
773.302	5.62
774.049	7.62
774.796	3.62
775.543	3.62
776.29	2.62
777.036	3.62
777.783	5.62
778.53	3.62
779.276	6.62
780.023	4.62
780.769	3.62
781.516	3.62
782.262	4.62
783.008	4.62
783.754	3.62
784.5	3.62
785.246	2.62
785.992	4.62
786.738	3.62
787.484	3.62
788.23	6.62
788.975	4.62
789.721	5.62
790.466	2.62
791.212	3.62
791.957	4.62
792.702	2.62
793.447	4.62
794.193	4.62
794.938	2.62
795.683	2.62
796.427	4.62
797.172	3.62
797.917	4.62
798.662	3.62
799.406	3.62
800.151	3.62
800.895	2.62
801.64	3.62
802.384	2.62
803.128	3.62
803.872	5.62
804.616	4.62
805.36	3.62
806.104	3.62
806.848	3.62
807.592	2.62
808.336	3.62
809.079	4.62
809.823	4.62
810.566	4.62
811.31	0.62
812.053	2.62
812.796	1.62
813.539	0.62
814.283	1.62
815.026	3.62
815.769	2.62
816.511	2.62
817.254	3.62
817.997	2.62
818.74	2.62
819.482	2.62
820.225	1.62
820.967	4.62
821.71	2.62
822.452	0.62
823.194	2.62
823.936	2.62
824.678	1.62
825.42	0.62
826.162	3.62
826.904	-0.38
827.646	3.62
828.388	2.62
829.129	0.62
829.871	1.62
830.612	1.62
831.354	1.62
832.095	2.62
832.836	2.62
833.577	1.62
834.319	-0.38
835.06	0.62
835.801	-0.38
836.542	1.62
837.282	1.62
838.023	0.62
838.764	1.62
839.504	2.62
840.245	0.62
840.985	1.62
841.726	2.62
842.466	2.62
843.206	-0.38
843.946	3.62
844.687	3.62
845.427	1.62
846.166	2.62
846.906	-0.38
847.646	1.62
848.386	-0.38
849.125	0.62
849.865	-1.38
850.605	1.62
851.344	1.62
852.083	-0.38
852.823	1.62
853.562	0.62
854.301	2.62
855.04	-1.38
855.779	2.62
856.518	0.62
857.257	-0.38
857.995	1.62
858.734	0.62
859.473	1.62
860.211	2.62
860.95	2.62
861.688	3.62
862.426	-0.38
863.165	1.62
863.903	0.62
864.641	0.62
865.379	1.62
866.117	2.62
866.855	-0.38
867.593	1.62
868.33	-0.38
869.068	-0.38
869.806	-0.38
870.543	0.62
871.28	-0.38
872.018	1.62
872.755	1.62
873.492	-0.38
874.229	2.62
874.967	1.62
875.703	-0.38
876.44	0.62
877.177	-2.38
877.914	0.62
878.651	0.62
879.387	-0.38
880.124	-0.38
880.86	-0.38
881.597	-0.38
882.333	-0.38
883.069	0.62
883.806	0.62
884.542	-3.38
885.278	0.62
886.014	0.62
886.749	0.62
887.485	1.62
888.221	0.62
888.957	-1.38
889.692	-2.38
890.428	0.62
891.163	-0.38
891.899	0.62
892.634	-0.38
893.369	-2.38
894.104	0.62
894.839	-2.38
895.574	0.62
896.309	0.62
897.044	-0.38
897.779	-3.38
898.514	0.62
899.248	-1.38
899.983	-2.38
900.717	1.62
901.452	-0.38
902.186	-0.38
902.92	-0.38
903.654	-0.38
904.389	0.62
905.123	-1.38
905.857	0.62
906.59	0.62
907.324	-0.38
908.058	0.62
908.792	-2.38
909.525	-1.38
910.259	-0.38
910.992	1.62
911.726	-0.38
912.459	0.62
913.192	1.62
913.925	-0.38
914.658	1.62
915.391	-1.38
916.124	-1.38
916.857	-3.38
917.59	-1.38
918.323	1.62
919.055	-1.38
919.788	-2.38
920.521	-0.38
921.253	-1.38
921.985	0.62
922.718	2.62
923.45	0.62
924.182	-3.38
924.914	-0.38
925.646	0.62
926.378	-0.38
927.11	-1.38
927.841	1.62
928.573	0.62
929.305	-0.38
930.036	-1.38
930.768	0.62
931.499	-0.38
932.23	-0.38
932.962	-1.38
933.693	-0.38
934.424	0.62
935.155	-0.38
935.886	-0.38
936.617	-0.38
937.348	0.62
938.078	-0.38
938.809	1.62
939.54	-2.38
940.27	1.62
941.001	0.62
941.731	-1.38
942.461	0.62
943.191	-2.38
943.922	-1.38
944.652	-0.38
945.382	0.62
946.112	-2.38
946.841	-1.38
947.571	1.62
948.301	-1.38
949.031	-0.38
949.76	1.62
950.49	-0.38
951.219	1.62
951.948	-0.38
952.678	-1.38
953.407	1.62
954.136	0.62
954.865	-0.38
955.594	-0.38
956.323	1.62
957.052	-1.38
957.78	-0.38
958.509	-1.38
959.238	0.62
959.966	1.62
960.695	1.62
961.423	0.62
962.151	-0.38
962.88	-0.38
963.608	-2.38
964.336	-1.38
965.064	-1.38
965.792	0.62
966.52	-0.38
967.247	-0.38
967.975	2.62
968.703	-0.38
969.43	-2.38
970.158	-0.38
970.885	0.62
971.613	-0.38
972.34	-2.38
973.067	-0.38
973.794	-3.38
974.521	1.62
975.248	-1.38
975.975	-0.38
976.702	-0.38
977.429	-0.38
978.156	-0.38
978.882	-1.38
979.609	0.62
980.335	0.62
981.062	-1.38
981.788	0.62
982.514	-0.38
983.24	-2.38
983.967	-0.38
984.693	-0.38
985.419	1.62
986.144	-2.38
986.87	-1.38
987.596	-0.38
988.322	1.62
989.047	-2.38
989.773	0.62
990.498	-2.38
991.224	1.62
991.949	0.62
992.674	-3.38
993.399	0.62
994.124	-0.38
994.849	-2.38
995.574	-2.38
996.299	-0.38
997.024	0.62
997.749	-0.38
998.473	0.62
999.198	-0.38
999.922	0.62
1000.647	-0.38
1001.371	4.62
1002.095	-0.38
1002.82	-2.38
1003.544	0.62
1004.268	-0.38
1004.992	-2.38
1005.716	-0.38
1006.439	-2.38
1007.163	-2.38
1007.887	-0.38
1008.611	-0.38
1009.334	-1.38
1010.058	-2.38
1010.781	0.62
1011.504	-0.38
1012.228	-2.38
1012.951	-0.38
1013.674	-2.38
1014.397	0.62
1015.12	-0.38
