节点500_145_QEPB04081__470__11-36-26-561.txt的数据

Date: Wed Nov 12 11:36:26 CST 2025
User: PC
Spectrometer: QEPB0408
触发模式: 0
积分时间 (秒): 1.000000E-2
Scans to average: 1
启用暗噪声校正: true
启用非线性校正: false
滑动平均宽度: 0
X轴模式: Wavelengths
Number of Pixels in Spectrum: 1044
>>>>>Begin Spectral Data<<<<<
220.843	-0.5
221.644	-1.5
222.444	-0.5
223.244	-0.5
224.045	-0.5
224.845	1.5
225.645	-1.5
226.445	2.5
227.245	-0.5
228.045	-0.5
228.845	-1.5
229.645	0.5
230.444	-1.5
231.244	1.5
232.043	1.5
232.843	1.5
233.642	-0.5
234.442	0.5
235.241	2.5
236.04	1.5
236.839	2.5
237.638	3.5
238.437	-0.5
239.236	2.5
240.035	0.5
240.833	2.5
241.632	1.5
242.43	3.5
243.229	0.5
244.027	-0.5
244.826	1.5
245.624	2.5
246.422	1.5
247.22	1.5
248.018	-0.5
248.816	0.5
249.614	0.5
250.412	1.5
251.21	3.5
252.007	2.5
252.805	1.5
253.602	1.5
254.4	0.5
255.197	1.5
255.994	3.5
256.791	3.5
257.589	2.5
258.386	4.5
259.183	5.5
259.979	4.5
260.776	5.5
261.573	4.5
262.37	4.5
263.166	7.5
263.963	2.5
264.759	5.5
265.556	4.5
266.352	6.5
267.148	6.5
267.944	6.5
268.74	6.5
269.536	5.5
270.332	6.5
271.128	7.5
271.924	6.5
272.719	10.5
273.515	6.5
274.311	7.5
275.106	7.5
275.901	7.5
276.697	9.5
277.492	8.5
278.287	6.5
279.082	6.5
279.877	9.5
280.672	10.5
281.467	10.5
282.262	11.5
283.056	11.5
283.851	8.5
284.646	10.5
285.44	10.5
286.234	11.5
287.029	10.5
287.823	12.5
288.617	11.5
289.411	11.5
290.205	10.5
290.999	10.5
291.793	11.5
292.587	11.5
293.381	9.5
294.174	8.5
294.968	10.5
295.761	10.5
296.555	11.5
297.348	9.5
298.141	9.5
298.935	10.5
299.728	10.5
300.521	10.5
301.314	6.5
302.107	10.5
302.899	7.5
303.692	9.5
304.485	9.5
305.277	9.5
306.07	9.5
306.862	8.5
307.655	8.5
308.447	8.5
309.239	6.5
310.031	9.5
310.823	7.5
311.615	5.5
312.407	5.5
313.199	6.5
313.991	7.5
314.783	5.5
315.574	7.5
316.366	6.5
317.157	6.5
317.949	6.5
318.74	7.5
319.531	4.5
320.322	2.5
321.113	4.5
321.904	6.5
322.695	2.5
323.486	5.5
324.277	3.5
325.068	5.5
325.858	2.5
326.649	5.5
327.439	3.5
328.23	3.5
329.02	3.5
329.81	4.5
330.6	5.5
331.391	2.5
332.181	5.5
332.971	2.5
333.76	5.5
334.55	4.5
335.34	3.5
336.13	1.5
336.919	4.5
337.709	3.5
338.498	4.5
339.287	3.5
340.077	2.5
340.866	2.5
341.655	5.5
342.444	4.5
343.233	3.5
344.022	2.5
344.811	0.5
345.6	3.5
346.388	1.5
347.177	5.5
347.965	5.5
348.754	4.5
349.542	2.5
350.33	4.5
351.119	2.5
351.907	2.5
352.695	4.5
353.483	2.5
354.271	1.5
355.059	2.5
355.846	1.5
356.634	5.5
357.422	3.5
358.209	3.5
358.997	2.5
359.784	5.5
360.571	1.5
361.359	1.5
362.146	5.5
362.933	2.5
363.72	3.5
364.507	1.5
365.294	3.5
366.081	3.5
366.867	2.5
367.654	2.5
368.44	2.5
369.227	5.5
370.013	1.5
370.8	1.5
371.586	2.5
372.372	1.5
373.158	4.5
373.944	-0.5
374.73	3.5
375.516	1.5
376.302	2.5
377.088	2.5
377.873	1.5
378.659	2.5
379.445	2.5
380.23	3.5
381.015	1.5
381.801	2.5
382.586	4.5
383.371	2.5
384.156	2.5
384.941	1.5
385.726	4.5
386.511	2.5
387.296	0.5
388.08	2.5
388.865	3.5
389.649	3.5
390.434	4.5
391.218	1.5
392.003	2.5
392.787	3.5
393.571	3.5
394.355	2.5
395.139	5.5
395.923	4.5
396.707	2.5
397.491	2.5
398.274	3.5
399.058	3.5
399.842	2.5
400.625	1.5
401.408	1.5
402.192	2.5
402.975	3.5
403.758	4.5
404.541	2.5
405.324	1.5
406.107	4.5
406.89	3.5
407.673	3.5
408.456	5.5
409.238	6.5
410.021	4.5
410.803	2.5
411.586	5.5
412.368	4.5
413.151	3.5
413.933	6.5
414.715	1.5
415.497	4.5
416.279	4.5
417.061	6.5
417.843	5.5
418.624	6.5
419.406	6.5
420.188	4.5
420.969	6.5
421.751	2.5
422.532	5.5
423.313	6.5
424.095	4.5
424.876	3.5
425.657	5.5
426.438	6.5
427.219	7.5
428	5.5
428.78	7.5
429.561	9.5
430.342	7.5
431.122	8.5
431.903	5.5
432.683	7.5
433.464	9.5
434.244	8.5
435.024	6.5
435.804	7.5
436.584	11.5
437.364	8.5
438.144	7.5
438.924	10.5
439.704	13.5
440.483	12.5
441.263	11.5
442.042	14.5
442.822	14.5
443.601	15.5
444.38	14.5
445.16	16.5
445.939	14.5
446.718	17.5
447.497	19.5
448.276	18.5
449.054	21.5
449.833	26.5
450.612	27.5
451.391	29.5
452.169	30.5
452.948	30.5
453.726	41.5
454.504	37.5
455.282	43.5
456.061	48.5
456.839	50.5
457.617	58.5
458.395	63.5
459.172	74.5
459.95	76.5
460.728	88.5
461.506	97.5
462.283	111.5
463.061	119.5
463.838	134.5
464.615	153.5
465.393	173.5
466.17	181.5
466.947	201.5
467.724	223.5
468.501	253.5
469.278	286.5
470.055	312.5
470.831	344.5
471.608	386.5
472.385	426.5
473.161	469.5
473.938	531.5
474.714	582.5
475.49	633.5
476.266	712.5
477.043	795.5
477.819	870.5
478.595	958.5
479.371	1056.5
480.146	1173.5
480.922	1279.5
481.698	1392.5
482.473	1556.5
483.249	1694.5
484.024	1870.5
484.8	2046.5
485.575	2244.5
486.35	2487.5
487.126	2711.5
487.901	2968.5
488.676	3268.5
489.451	3556.5
490.225	3921.5
491	4281.5
491.775	4666.5
492.55	5110.5
493.324	5594.5
494.099	6092.5
494.873	6686.5
495.647	7205.5
496.422	7845.5
497.196	8515.5
497.97	9178.5
498.744	9801.5
499.518	10531.5
500.292	11225.5
501.066	11935.5
501.839	12591.5
502.613	13209.5
503.387	13822.5
504.16	14398.5
504.934	14855.5
505.707	15205.5
506.48	15511.5
507.253	15764.5
508.027	15864.5
508.8	15900.5
509.573	15866.5
510.346	15725.5
511.118	15450.5
511.891	15091.5
512.664	14684.5
513.437	14293.5
514.209	13814.5
514.982	13239.5
515.754	12831.5
516.526	12211.5
517.298	11699.5
518.071	11218.5
518.843	10769.5
519.615	10302.5
520.387	9891.5
521.159	9471.5
521.93	9060.5
522.702	8717.5
523.474	8399.5
524.245	8025.5
525.017	7738.5
525.788	7415.5
526.56	7117.5
527.331	6828.5
528.102	6520.5
528.873	6261.5
529.644	5976.5
530.415	5755.5
531.186	5459.5
531.957	5198.5
532.728	4914.5
533.498	4697.5
534.269	4414.5
535.039	4201.5
535.81	3970.5
536.58	3752.5
537.351	3526.5
538.121	3360.5
538.891	3192.5
539.661	2985.5
540.431	2830.5
541.201	2685.5
541.971	2552.5
542.741	2411.5
543.51	2278.5
544.28	2164.5
545.05	2069.5
545.819	1954.5
546.588	1853.5
547.358	1763.5
548.127	1688.5
548.896	1587.5
549.665	1507.5
550.434	1446.5
551.203	1361.5
551.972	1292.5
552.741	1237.5
553.51	1172.5
554.278	1102.5
555.047	1038.5
555.815	993.5
556.584	938.5
557.352	879.5
558.121	825.5
558.889	786.5
559.657	737.5
560.425	702.5
561.193	654.5
561.961	619.5
562.729	584.5
563.496	551.5
564.264	517.5
565.032	494.5
565.799	457.5
566.567	436.5
567.334	406.5
568.101	394.5
568.869	361.5
569.636	346.5
570.403	329.5
571.17	310.5
571.937	286.5
572.704	275.5
573.471	260.5
574.237	243.5
575.004	229.5
575.771	220.5
576.537	209.5
577.303	193.5
578.07	183.5
578.836	169.5
579.602	161.5
580.368	151.5
581.134	138.5
581.9	139.5
582.666	126.5
583.432	120.5
584.198	115.5
584.964	108.5
585.729	101.5
586.495	101.5
587.26	92.5
588.025	89.5
588.791	80.5
589.556	80.5
590.321	73.5
591.086	66.5
591.851	68.5
592.616	60.5
593.381	59.5
594.146	57.5
594.911	52.5
595.675	53.5
596.44	48.5
597.204	47.5
597.969	42.5
598.733	42.5
599.497	41.5
600.261	40.5
601.025	35.5
601.79	32.5
602.553	34.5
603.317	30.5
604.081	30.5
604.845	30.5
605.609	30.5
606.372	26.5
607.136	24.5
607.899	22.5
608.662	23.5
609.426	23.5
610.189	22.5
610.952	21.5
611.715	18.5
612.478	19.5
613.241	17.5
614.004	18.5
614.767	18.5
615.529	17.5
616.292	14.5
617.055	15.5
617.817	13.5
618.579	13.5
619.342	12.5
620.104	14.5
620.866	10.5
621.628	13.5
622.39	12.5
623.152	10.5
623.914	10.5
624.676	9.5
625.438	10.5
626.199	10.5
626.961	10.5
627.722	7.5
628.484	9.5
629.245	9.5
630.006	7.5
630.768	9.5
631.529	7.5
632.29	5.5
633.051	5.5
633.812	7.5
634.573	7.5
635.333	6.5
636.094	8.5
636.855	6.5
637.615	5.5
638.376	5.5
639.136	7.5
639.896	6.5
640.657	4.5
641.417	6.5
642.177	4.5
642.937	5.5
643.697	5.5
644.457	7.5
645.216	3.5
645.976	7.5
646.736	4.5
647.495	4.5
648.255	5.5
649.014	4.5
649.774	4.5
650.533	6.5
651.292	4.5
652.051	3.5
652.81	4.5
653.569	3.5
654.328	2.5
655.087	3.5
655.846	2.5
656.604	1.5
657.363	4.5
658.121	2.5
658.88	3.5
659.638	3.5
660.397	3.5
661.155	2.5
661.913	3.5
662.671	2.5
663.429	3.5
664.187	3.5
664.945	3.5
665.703	2.5
666.46	4.5
667.218	1.5
667.976	2.5
668.733	5.5
669.49	3.5
670.248	4.5
671.005	1.5
671.762	3.5
672.519	1.5
673.276	3.5
674.033	6.5
674.79	2.5
675.547	2.5
676.304	0.5
677.06	4.5
677.817	4.5
678.574	1.5
679.33	3.5
680.086	1.5
680.843	2.5
681.599	1.5
682.355	3.5
683.111	2.5
683.867	2.5
684.623	1.5
685.379	2.5
686.135	1.5
686.89	1.5
687.646	1.5
688.402	1.5
689.157	3.5
689.912	2.5
690.668	0.5
691.423	2.5
692.178	0.5
692.933	3.5
693.688	1.5
694.443	1.5
695.198	0.5
695.953	2.5
696.708	3.5
697.462	1.5
698.217	2.5
698.972	2.5
699.726	2.5
700.48	3.5
701.235	2.5
701.989	2.5
702.743	1.5
703.497	3.5
704.251	2.5
705.005	2.5
705.759	4.5
706.513	2.5
707.266	1.5
708.02	0.5
708.774	1.5
709.527	4.5
710.28	3.5
711.034	0.5
711.787	0.5
712.54	2.5
713.293	2.5
714.046	2.5
714.799	2.5
715.552	1.5
716.305	2.5
717.058	1.5
717.81	2.5
718.563	2.5
719.315	1.5
720.068	4.5
720.82	3.5
721.573	3.5
722.325	0.5
723.077	1.5
723.829	2.5
724.581	3.5
725.333	0.5
726.085	4.5
726.836	1.5
727.588	2.5
728.34	3.5
729.091	3.5
729.843	5.5
730.594	3.5
731.346	1.5
732.097	4.5
732.848	1.5
733.599	0.5
734.35	2.5
735.101	3.5
735.852	3.5
736.603	1.5
737.354	1.5
738.104	3.5
738.855	1.5
739.605	2.5
740.356	3.5
741.106	1.5
741.856	3.5
742.607	2.5
743.357	0.5
744.107	1.5
744.857	2.5
745.607	2.5
746.357	2.5
747.106	2.5
747.856	0.5
748.606	2.5
749.355	4.5
750.105	1.5
750.854	0.5
751.603	2.5
752.353	2.5
753.102	2.5
753.851	-0.5
754.6	3.5
755.349	2.5
756.098	3.5
756.847	0.5
757.595	3.5
758.344	2.5
759.093	2.5
759.841	3.5
760.589	3.5
761.338	3.5
762.086	2.5
762.834	3.5
763.582	1.5
764.331	2.5
765.079	2.5
765.826	3.5
766.574	3.5
767.322	2.5
768.07	5.5
768.817	5.5
769.565	1.5
770.312	1.5
771.06	5.5
771.807	5.5
772.554	3.5
773.302	3.5
774.049	5.5
774.796	4.5
775.543	4.5
776.29	5.5
777.036	4.5
777.783	6.5
778.53	3.5
779.276	5.5
780.023	4.5
780.769	5.5
781.516	5.5
782.262	4.5
783.008	2.5
783.754	2.5
784.5	5.5
785.246	5.5
785.992	4.5
786.738	4.5
787.484	3.5
788.23	4.5
788.975	3.5
789.721	6.5
790.466	4.5
791.212	5.5
791.957	7.5
792.702	1.5
793.447	5.5
794.193	4.5
794.938	5.5
795.683	6.5
796.427	3.5
797.172	4.5
797.917	5.5
798.662	5.5
799.406	2.5
800.151	6.5
800.895	5.5
801.64	2.5
802.384	7.5
803.128	3.5
803.872	3.5
804.616	3.5
805.36	5.5
806.104	1.5
806.848	4.5
807.592	0.5
808.336	3.5
809.079	4.5
809.823	4.5
810.566	1.5
811.31	4.5
812.053	1.5
812.796	4.5
813.539	2.5
814.283	2.5
815.026	1.5
815.769	2.5
816.511	4.5
817.254	1.5
817.997	4.5
818.74	2.5
819.482	3.5
820.225	3.5
820.967	5.5
821.71	2.5
822.452	2.5
823.194	4.5
823.936	3.5
824.678	2.5
825.42	1.5
826.162	2.5
826.904	3.5
827.646	1.5
828.388	1.5
829.129	2.5
829.871	6.5
830.612	3.5
831.354	5.5
832.095	2.5
832.836	2.5
833.577	2.5
834.319	1.5
835.06	2.5
835.801	1.5
836.542	0.5
837.282	1.5
838.023	2.5
838.764	3.5
839.504	2.5
840.245	1.5
840.985	3.5
841.726	3.5
842.466	2.5
843.206	2.5
843.946	2.5
844.687	1.5
845.427	2.5
846.166	0.5
846.906	3.5
847.646	2.5
848.386	3.5
849.125	2.5
849.865	0.5
850.605	1.5
851.344	3.5
852.083	3.5
852.823	2.5
853.562	0.5
854.301	3.5
855.04	2.5
855.779	4.5
856.518	5.5
857.257	2.5
857.995	0.5
858.734	2.5
859.473	2.5
860.211	1.5
860.95	-0.5
861.688	3.5
862.426	2.5
863.165	-1.5
863.903	1.5
864.641	-0.5
865.379	0.5
866.117	1.5
866.855	3.5
867.593	0.5
868.33	3.5
869.068	0.5
869.806	1.5
870.543	0.5
871.28	2.5
872.018	0.5
872.755	1.5
873.492	1.5
874.229	-0.5
874.967	0.5
875.703	1.5
876.44	1.5
877.177	3.5
877.914	2.5
878.651	1.5
879.387	2.5
880.124	1.5
880.86	0.5
881.597	-1.5
882.333	0.5
883.069	2.5
883.806	0.5
884.542	0.5
885.278	1.5
886.014	-0.5
886.749	1.5
887.485	1.5
888.221	2.5
888.957	0.5
889.692	1.5
890.428	1.5
891.163	1.5
891.899	0.5
892.634	-0.5
893.369	0.5
894.104	1.5
894.839	-0.5
895.574	1.5
896.309	0.5
897.044	-0.5
897.779	1.5
898.514	1.5
899.248	0.5
899.983	1.5
900.717	-0.5
901.452	1.5
902.186	2.5
902.92	0.5
903.654	1.5
904.389	2.5
905.123	-1.5
905.857	1.5
906.59	2.5
907.324	1.5
908.058	0.5
908.792	0.5
909.525	1.5
910.259	1.5
910.992	0.5
911.726	-1.5
912.459	3.5
913.192	-0.5
913.925	1.5
914.658	0.5
915.391	0.5
916.124	0.5
916.857	1.5
917.59	1.5
918.323	1.5
919.055	-0.5
919.788	1.5
920.521	0.5
921.253	0.5
921.985	0.5
922.718	1.5
923.45	1.5
924.182	1.5
924.914	0.5
925.646	1.5
926.378	-0.5
927.11	-2.5
927.841	-0.5
928.573	0.5
929.305	1.5
930.036	3.5
930.768	1.5
931.499	-0.5
932.23	1.5
932.962	-0.5
933.693	1.5
934.424	0.5
935.155	-1.5
935.886	1.5
936.617	0.5
937.348	0.5
938.078	-0.5
938.809	0.5
939.54	0.5
940.27	-1.5
941.001	1.5
941.731	-0.5
942.461	-0.5
943.191	0.5
943.922	0.5
944.652	-1.5
945.382	1.5
946.112	-1.5
946.841	0.5
947.571	-0.5
948.301	-1.5
949.031	1.5
949.76	0.5
950.49	0.5
951.219	1.5
951.948	-0.5
952.678	2.5
953.407	-0.5
954.136	1.5
954.865	-0.5
955.594	1.5
956.323	2.5
957.052	-2.5
957.78	0.5
958.509	0.5
959.238	-0.5
959.966	-0.5
960.695	1.5
961.423	1.5
962.151	1.5
962.88	0.5
963.608	2.5
964.336	0.5
965.064	-0.5
965.792	1.5
966.52	0.5
967.247	-0.5
967.975	0.5
968.703	0.5
969.43	0.5
970.158	-1.5
970.885	-0.5
971.613	-1.5
972.34	-1.5
973.067	0.5
973.794	0.5
974.521	-1.5
975.248	-1.5
975.975	1.5
976.702	0.5
977.429	-2.5
978.156	0.5
978.882	0.5
979.609	0.5
980.335	-0.5
981.062	0.5
981.788	-0.5
982.514	1.5
983.24	-0.5
983.967	-1.5
984.693	-0.5
985.419	-1.5
986.144	2.5
986.87	0.5
987.596	0.5
988.322	2.5
989.047	-0.5
989.773	2.5
990.498	0.5
991.224	1.5
991.949	0.5
992.674	2.5
993.399	1.5
994.124	-0.5
994.849	0.5
995.574	1.5
996.299	0.5
997.024	1.5
997.749	0.5
998.473	0.5
999.198	-0.5
999.922	0.5
1000.647	0.5
1001.371	2.5
1002.095	-0.5
1002.82	0.5
1003.544	-2.5
1004.268	0.5
1004.992	-2.5
1005.716	-1.5
1006.439	-0.5
1007.163	3.5
1007.887	-0.5
1008.611	0.5
1009.334	-0.5
1010.058	-1.5
1010.781	1.5
1011.504	-2.5
1012.228	-3.5
1012.951	0.5
1013.674	-1.5
1014.397	0.5
1015.12	0.5
