节点500_145_QEPB04081__441__11-36-00-527.txt的数据

Date: Wed Nov 12 11:36:00 CST 2025
User: PC
Spectrometer: QEPB0408
触发模式: 0
积分时间 (秒): 1.000000E-2
Scans to average: 1
启用暗噪声校正: true
启用非线性校正: false
滑动平均宽度: 0
X轴模式: Wavelengths
Number of Pixels in Spectrum: 1044
>>>>>Begin Spectral Data<<<<<
220.843	1
221.644	2
222.444	-2
223.244	1
224.045	0
224.845	-2
225.645	-1
226.445	0
227.245	3
228.045	2
228.845	2
229.645	0
230.444	1
231.244	2
232.043	1
232.843	0
233.642	2
234.442	1
235.241	0
236.04	-1
236.839	3
237.638	2
238.437	1
239.236	0
240.035	2
240.833	2
241.632	1
242.43	1
243.229	-1
244.027	4
244.826	3
245.624	3
246.422	2
247.22	0
248.018	3
248.816	1
249.614	1
250.412	2
251.21	2
252.007	2
252.805	4
253.602	4
254.4	1
255.197	4
255.994	5
256.791	4
257.589	3
258.386	6
259.183	4
259.979	5
260.776	8
261.573	4
262.37	2
263.166	7
263.963	3
264.759	6
265.556	5
266.352	4
267.148	7
267.944	6
268.74	7
269.536	6
270.332	7
271.128	9
271.924	9
272.719	8
273.515	8
274.311	8
275.106	10
275.901	8
276.697	10
277.492	9
278.287	12
279.082	8
279.877	11
280.672	8
281.467	10
282.262	10
283.056	10
283.851	10
284.646	12
285.44	13
286.234	11
287.029	14
287.823	11
288.617	11
289.411	14
290.205	12
290.999	12
291.793	6
292.587	9
293.381	12
294.174	9
294.968	11
295.761	8
296.555	10
297.348	9
298.141	11
298.935	11
299.728	11
300.521	8
301.314	9
302.107	7
302.899	8
303.692	11
304.485	8
305.277	8
306.07	8
306.862	8
307.655	8
308.447	8
309.239	5
310.031	8
310.823	7
311.615	7
312.407	7
313.199	7
313.991	7
314.783	8
315.574	8
316.366	7
317.157	6
317.949	6
318.74	6
319.531	6
320.322	4
321.113	5
321.904	6
322.695	8
323.486	5
324.277	6
325.068	4
325.858	6
326.649	5
327.439	5
328.23	6
329.02	6
329.81	5
330.6	3
331.391	5
332.181	3
332.971	2
333.76	4
334.55	5
335.34	5
336.13	3
336.919	3
337.709	3
338.498	2
339.287	6
340.077	3
340.866	5
341.655	5
342.444	6
343.233	6
344.022	2
344.811	2
345.6	5
346.388	5
347.177	5
347.965	4
348.754	3
349.542	3
350.33	4
351.119	3
351.907	4
352.695	4
353.483	5
354.271	5
355.059	3
355.846	4
356.634	4
357.422	4
358.209	4
358.997	4
359.784	1
360.571	4
361.359	3
362.146	3
362.933	3
363.72	3
364.507	4
365.294	5
366.081	4
366.867	4
367.654	2
368.44	4
369.227	3
370.013	4
370.8	2
371.586	2
372.372	3
373.158	4
373.944	3
374.73	4
375.516	3
376.302	3
377.088	4
377.873	4
378.659	3
379.445	4
380.23	6
381.015	3
381.801	2
382.586	3
383.371	3
384.156	2
384.941	2
385.726	2
386.511	4
387.296	5
388.08	3
388.865	5
389.649	3
390.434	3
391.218	2
392.003	2
392.787	5
393.571	2
394.355	1
395.139	3
395.923	3
396.707	4
397.491	2
398.274	4
399.058	5
399.842	7
400.625	2
401.408	2
402.192	2
402.975	3
403.758	6
404.541	4
405.324	3
406.107	5
406.89	3
407.673	6
408.456	1
409.238	6
410.021	5
410.803	5
411.586	6
412.368	4
413.151	5
413.933	4
414.715	6
415.497	6
416.279	5
417.061	5
417.843	5
418.624	5
419.406	5
420.188	7
420.969	5
421.751	8
422.532	5
423.313	7
424.095	7
424.876	6
425.657	7
426.438	8
427.219	6
428	7
428.78	10
429.561	8
430.342	6
431.122	9
431.903	9
432.683	8
433.464	10
434.244	7
435.024	7
435.804	8
436.584	9
437.364	11
438.144	10
438.924	11
439.704	10
440.483	13
441.263	11
442.042	13
442.822	13
443.601	15
444.38	15
445.16	17
445.939	15
446.718	17
447.497	18
448.276	17
449.054	23
449.833	26
450.612	28
451.391	28
452.169	32
452.948	32
453.726	39
454.504	40
455.282	44
456.061	49
456.839	54
457.617	59
458.395	65
459.172	69
459.95	80
460.728	89
461.506	95
462.283	111
463.061	121
463.838	137
464.615	151
465.393	163
466.17	182
466.947	205
467.724	232
468.501	255
469.278	284
470.055	314
470.831	353
471.608	386
472.385	432
473.161	473
473.938	519
474.714	593
475.49	649
476.266	713
477.043	788
477.819	875
478.595	952
479.371	1065
480.146	1156
480.922	1282
481.698	1407
482.473	1531
483.249	1693
484.024	1866
484.8	2046
485.575	2246
486.35	2467
487.126	2702
487.901	2977
488.676	3267
489.451	3574
490.225	3928
491	4304
491.775	4692
492.55	5154
493.324	5609
494.099	6120
494.873	6672
495.647	7243
496.422	7882
497.196	8505
497.97	9172
498.744	9882
499.518	10522
500.292	11254
501.066	11883
501.839	12605
502.613	13206
503.387	13846
504.16	14410
504.934	14943
505.707	15290
506.48	15575
507.253	15845
508.027	15967
508.8	16008
509.573	15853
510.346	15693
511.118	15453
511.891	15062
512.664	14653
513.437	14288
514.209	13779
514.982	13269
515.754	12740
516.526	12273
517.298	11682
518.071	11193
518.843	10760
519.615	10275
520.387	9895
521.159	9461
521.93	9094
522.702	8752
523.474	8375
524.245	8061
525.017	7710
525.788	7419
526.56	7120
527.331	6822
528.102	6528
528.873	6256
529.644	6001
530.415	5739
531.186	5465
531.957	5165
532.728	4936
533.498	4658
534.269	4437
535.039	4196
535.81	3967
536.58	3757
537.351	3551
538.121	3339
538.891	3192
539.661	3003
540.431	2837
541.201	2674
541.971	2543
542.741	2380
543.51	2292
544.28	2155
545.05	2064
545.819	1934
546.588	1857
547.358	1766
548.127	1684
548.896	1586
549.665	1518
550.434	1437
551.203	1370
551.972	1294
552.741	1223
553.51	1174
554.278	1103
555.047	1027
555.815	980
556.584	942
557.352	875
558.121	815
558.889	779
559.657	743
560.425	698
561.193	653
561.961	619
562.729	581
563.496	549
564.264	518
565.032	485
565.799	460
566.567	446
567.334	415
568.101	388
568.869	374
569.636	349
570.403	329
571.17	302
571.937	291
572.704	267
573.471	258
574.237	249
575.004	230
575.771	219
576.537	201
577.303	199
578.07	177
578.836	170
579.602	159
580.368	156
581.134	143
581.9	130
582.666	126
583.432	119
584.198	113
584.964	109
585.729	104
586.495	98
587.26	90
588.025	87
588.791	82
589.556	78
590.321	76
591.086	68
591.851	65
592.616	65
593.381	58
594.146	57
594.911	55
595.675	53
596.44	50
597.204	47
597.969	48
598.733	42
599.497	40
600.261	42
601.025	37
601.79	34
602.553	34
603.317	30
604.081	30
604.845	29
605.609	27
606.372	28
607.136	27
607.899	24
608.662	26
609.426	25
610.189	22
610.952	22
611.715	20
612.478	20
613.241	20
614.004	18
614.767	18
615.529	17
616.292	18
617.055	14
617.817	15
618.579	15
619.342	14
620.104	11
620.866	12
621.628	13
622.39	14
623.152	11
623.914	10
624.676	12
625.438	9
626.199	8
626.961	12
627.722	9
628.484	11
629.245	11
630.006	11
630.768	11
631.529	9
632.29	10
633.051	8
633.812	6
634.573	8
635.333	8
636.094	8
636.855	6
637.615	6
638.376	3
639.136	11
639.896	5
640.657	6
641.417	8
642.177	6
642.937	7
643.697	4
644.457	7
645.216	5
645.976	5
646.736	6
647.495	4
648.255	7
649.014	2
649.774	4
650.533	5
651.292	4
652.051	3
652.81	4
653.569	2
654.328	2
655.087	4
655.846	5
656.604	3
657.363	4
658.121	5
658.88	6
659.638	5
660.397	6
661.155	5
661.913	2
662.671	3
663.429	2
664.187	3
664.945	3
665.703	4
666.46	3
667.218	5
667.976	5
668.733	2
669.49	3
670.248	4
671.005	4
671.762	2
672.519	4
673.276	5
674.033	2
674.79	5
675.547	2
676.304	2
677.06	3
677.817	4
678.574	5
679.33	3
680.086	4
680.843	2
681.599	4
682.355	1
683.111	5
683.867	3
684.623	4
685.379	2
686.135	3
686.89	2
687.646	4
688.402	3
689.157	3
689.912	3
690.668	4
691.423	4
692.178	4
692.933	3
693.688	4
694.443	3
695.198	2
695.953	4
696.708	1
697.462	2
698.217	3
698.972	3
699.726	3
700.48	2
701.235	3
701.989	3
702.743	5
703.497	2
704.251	1
705.005	2
705.759	-1
706.513	2
707.266	4
708.02	3
708.774	3
709.527	2
710.28	2
711.034	3
711.787	2
712.54	1
713.293	2
714.046	1
714.799	2
715.552	3
716.305	0
717.058	3
717.81	3
718.563	1
719.315	1
720.068	2
720.82	3
721.573	3
722.325	4
723.077	3
723.829	3
724.581	0
725.333	2
726.085	2
726.836	1
727.588	2
728.34	3
729.091	2
729.843	2
730.594	1
731.346	3
732.097	1
732.848	3
733.599	1
734.35	4
735.101	4
735.852	5
736.603	5
737.354	2
738.104	1
738.855	3
739.605	4
740.356	4
741.106	3
741.856	4
742.607	1
743.357	3
744.107	4
744.857	5
745.607	3
746.357	3
747.106	3
747.856	3
748.606	3
749.355	3
750.105	4
750.854	4
751.603	0
752.353	4
753.102	2
753.851	5
754.6	4
755.349	3
756.098	3
756.847	3
757.595	5
758.344	3
759.093	1
759.841	3
760.589	2
761.338	6
762.086	3
762.834	3
763.582	0
764.331	4
765.079	5
765.826	6
766.574	3
767.322	6
768.07	5
768.817	5
769.565	6
770.312	5
771.06	3
771.807	6
772.554	4
773.302	6
774.049	5
774.796	6
775.543	7
776.29	7
777.036	6
777.783	3
778.53	4
779.276	5
780.023	5
780.769	6
781.516	4
782.262	4
783.008	5
783.754	4
784.5	4
785.246	5
785.992	5
786.738	7
787.484	5
788.23	4
788.975	7
789.721	6
790.466	5
791.212	3
791.957	5
792.702	8
793.447	5
794.193	4
794.938	7
795.683	6
796.427	7
797.172	3
797.917	8
798.662	4
799.406	5
800.151	5
800.895	5
801.64	6
802.384	3
803.128	6
803.872	3
804.616	5
805.36	6
806.104	7
806.848	5
807.592	7
808.336	3
809.079	6
809.823	4
810.566	5
811.31	4
812.053	5
812.796	5
813.539	5
814.283	6
815.026	5
815.769	5
816.511	3
817.254	5
817.997	4
818.74	3
819.482	3
820.225	5
820.967	4
821.71	3
822.452	2
823.194	3
823.936	5
824.678	5
825.42	2
826.162	4
826.904	4
827.646	2
828.388	1
829.129	4
829.871	5
830.612	3
831.354	3
832.095	1
832.836	3
833.577	5
834.319	4
835.06	3
835.801	3
836.542	3
837.282	4
838.023	2
838.764	4
839.504	3
840.245	3
840.985	4
841.726	2
842.466	1
843.206	1
843.946	2
844.687	2
845.427	1
846.166	3
846.906	3
847.646	2
848.386	3
849.125	3
849.865	2
850.605	2
851.344	2
852.083	2
852.823	3
853.562	3
854.301	3
855.04	4
855.779	1
856.518	2
857.257	3
857.995	3
858.734	2
859.473	1
860.211	1
860.95	0
861.688	2
862.426	5
863.165	2
863.903	4
864.641	3
865.379	1
866.117	3
866.855	0
867.593	3
868.33	1
869.068	1
869.806	3
870.543	3
871.28	3
872.018	1
872.755	6
873.492	-2
874.229	2
874.967	0
875.703	4
876.44	3
877.177	2
877.914	2
878.651	1
879.387	3
880.124	0
880.86	0
881.597	3
882.333	2
883.069	2
883.806	0
884.542	0
885.278	1
886.014	3
886.749	2
887.485	1
888.221	0
888.957	2
889.692	2
890.428	2
891.163	2
891.899	2
892.634	1
893.369	3
894.104	1
894.839	2
895.574	-1
896.309	1
897.044	0
897.779	3
898.514	3
899.248	1
899.983	2
900.717	1
901.452	1
902.186	1
902.92	1
903.654	1
904.389	1
905.123	1
905.857	0
906.59	0
907.324	1
908.058	2
908.792	2
909.525	0
910.259	1
910.992	-1
911.726	2
912.459	1
913.192	0
913.925	0
914.658	2
915.391	1
916.124	3
916.857	1
917.59	1
918.323	1
919.055	3
919.788	0
920.521	2
921.253	4
921.985	3
922.718	1
923.45	0
924.182	1
924.914	2
925.646	3
926.378	1
927.11	-1
927.841	0
928.573	0
929.305	1
930.036	1
930.768	1
931.499	1
932.23	2
932.962	2
933.693	0
934.424	1
935.155	0
935.886	2
936.617	-2
937.348	0
938.078	0
938.809	-2
939.54	2
940.27	1
941.001	1
941.731	1
942.461	1
943.191	0
943.922	1
944.652	2
945.382	0
946.112	0
946.841	1
947.571	2
948.301	-1
949.031	-1
949.76	1
950.49	2
951.219	1
951.948	3
952.678	1
953.407	1
954.136	-1
954.865	1
955.594	1
956.323	-1
957.052	1
957.78	-3
958.509	2
959.238	2
959.966	-1
960.695	1
961.423	1
962.151	1
962.88	1
963.608	2
964.336	0
965.064	3
965.792	2
966.52	0
967.247	1
967.975	0
968.703	1
969.43	1
970.158	2
970.885	3
971.613	0
972.34	2
973.067	1
973.794	2
974.521	0
975.248	3
975.975	1
976.702	0
977.429	2
978.156	3
978.882	0
979.609	1
980.335	3
981.062	2
981.788	4
982.514	2
983.24	2
983.967	2
984.693	0
985.419	0
986.144	-1
986.87	0
987.596	0
988.322	3
989.047	1
989.773	0
990.498	3
991.224	-1
991.949	1
992.674	1
993.399	0
994.124	2
994.849	-1
995.574	0
996.299	1
997.024	1
997.749	1
998.473	-1
999.198	2
999.922	-1
1000.647	3
1001.371	1
1002.095	-1
1002.82	0
1003.544	-1
1004.268	-2
1004.992	-2
1005.716	-1
1006.439	-1
1007.163	1
1007.887	1
1008.611	-1
1009.334	2
1010.058	3
1010.781	2
1011.504	0
1012.228	0
1012.951	0
1013.674	2
1014.397	-1
1015.12	0
