节点500_145_QEPB04081__471__11-36-27-552.txt的数据

Date: Wed Nov 12 11:36:27 CST 2025
User: PC
Spectrometer: QEPB0408
触发模式: 0
积分时间 (秒): 1.000000E-2
Scans to average: 1
启用暗噪声校正: true
启用非线性校正: false
滑动平均宽度: 0
X轴模式: Wavelengths
Number of Pixels in Spectrum: 1044
>>>>>Begin Spectral Data<<<<<
220.843	0
221.644	-1
222.444	0
223.244	1
224.045	1
224.845	2
225.645	0
226.445	2
227.245	-2
228.045	2
228.845	2
229.645	0
230.444	3
231.244	-1
232.043	1
232.843	-1
233.642	0
234.442	2
235.241	3
236.04	1
236.839	0
237.638	2
238.437	2
239.236	0
240.035	2
240.833	1
241.632	3
242.43	3
243.229	3
244.027	1
244.826	2
245.624	3
246.422	2
247.22	4
248.018	2
248.816	1
249.614	2
250.412	4
251.21	6
252.007	3
252.805	3
253.602	5
254.4	2
255.197	4
255.994	5
256.791	5
257.589	1
258.386	4
259.183	5
259.979	4
260.776	4
261.573	4
262.37	4
263.166	3
263.963	3
264.759	4
265.556	7
266.352	7
267.148	6
267.944	8
268.74	5
269.536	7
270.332	7
271.128	5
271.924	7
272.719	7
273.515	10
274.311	8
275.106	8
275.901	8
276.697	10
277.492	10
278.287	9
279.082	11
279.877	10
280.672	12
281.467	12
282.262	8
283.056	13
283.851	10
284.646	8
285.44	10
286.234	10
287.029	12
287.823	8
288.617	10
289.411	10
290.205	13
290.999	11
291.793	10
292.587	13
293.381	10
294.174	12
294.968	12
295.761	13
296.555	11
297.348	12
298.141	11
298.935	12
299.728	12
300.521	11
301.314	10
302.107	10
302.899	10
303.692	9
304.485	9
305.277	9
306.07	9
306.862	9
307.655	10
308.447	10
309.239	9
310.031	8
310.823	7
311.615	6
312.407	8
313.199	9
313.991	6
314.783	5
315.574	6
316.366	9
317.157	5
317.949	8
318.74	6
319.531	7
320.322	6
321.113	5
321.904	7
322.695	6
323.486	5
324.277	3
325.068	4
325.858	6
326.649	4
327.439	4
328.23	2
329.02	4
329.81	3
330.6	3
331.391	3
332.181	3
332.971	5
333.76	5
334.55	5
335.34	6
336.13	6
336.919	5
337.709	3
338.498	6
339.287	5
340.077	4
340.866	3
341.655	4
342.444	7
343.233	3
344.022	6
344.811	5
345.6	6
346.388	4
347.177	4
347.965	5
348.754	3
349.542	5
350.33	3
351.119	2
351.907	4
352.695	3
353.483	5
354.271	3
355.059	4
355.846	3
356.634	3
357.422	3
358.209	6
358.997	5
359.784	-1
360.571	6
361.359	4
362.146	1
362.933	3
363.72	3
364.507	3
365.294	2
366.081	4
366.867	3
367.654	3
368.44	4
369.227	4
370.013	5
370.8	-1
371.586	4
372.372	3
373.158	4
373.944	2
374.73	3
375.516	2
376.302	6
377.088	3
377.873	1
378.659	3
379.445	2
380.23	4
381.015	3
381.801	4
382.586	2
383.371	3
384.156	4
384.941	4
385.726	0
386.511	1
387.296	4
388.08	4
388.865	4
389.649	3
390.434	5
391.218	5
392.003	4
392.787	4
393.571	6
394.355	4
395.139	4
395.923	4
396.707	3
397.491	3
398.274	3
399.058	5
399.842	3
400.625	3
401.408	3
402.192	5
402.975	6
403.758	4
404.541	4
405.324	3
406.107	3
406.89	2
407.673	4
408.456	2
409.238	5
410.021	4
410.803	3
411.586	4
412.368	4
413.151	6
413.933	5
414.715	4
415.497	6
416.279	4
417.061	5
417.843	6
418.624	5
419.406	5
420.188	6
420.969	6
421.751	5
422.532	6
423.313	4
424.095	6
424.876	7
425.657	8
426.438	7
427.219	5
428	7
428.78	7
429.561	9
430.342	9
431.122	8
431.903	7
432.683	7
433.464	7
434.244	9
435.024	10
435.804	10
436.584	10
437.364	9
438.144	11
438.924	11
439.704	11
440.483	11
441.263	12
442.042	13
442.822	15
443.601	15
444.38	14
445.16	14
445.939	15
446.718	19
447.497	20
448.276	23
449.054	24
449.833	24
450.612	28
451.391	30
452.169	30
452.948	34
453.726	35
454.504	40
455.282	41
456.061	49
456.839	53
457.617	60
458.395	65
459.172	71
459.95	77
460.728	91
461.506	96
462.283	111
463.061	121
463.838	133
464.615	154
465.393	166
466.17	185
466.947	210
467.724	227
468.501	254
469.278	282
470.055	316
470.831	356
471.608	391
472.385	435
473.161	479
473.938	518
474.714	580
475.49	647
476.266	719
477.043	778
477.819	861
478.595	958
479.371	1060
480.146	1168
480.922	1263
481.698	1413
482.473	1548
483.249	1711
484.024	1878
484.8	2042
485.575	2255
486.35	2477
487.126	2718
487.901	2984
488.676	3242
489.451	3591
490.225	3919
491	4272
491.775	4675
492.55	5133
493.324	5614
494.099	6091
494.873	6668
495.647	7230
496.422	7841
497.196	8475
497.97	9117
498.744	9853
499.518	10464
500.292	11215
501.066	11911
501.839	12580
502.613	13214
503.387	13824
504.16	14400
504.934	14868
505.707	15207
506.48	15568
507.253	15814
508.027	15925
508.8	15944
509.573	15853
510.346	15720
511.118	15432
511.891	15074
512.664	14702
513.437	14274
514.209	13798
514.982	13244
515.754	12759
516.526	12270
517.298	11705
518.071	11199
518.843	10757
519.615	10279
520.387	9891
521.159	9476
521.93	9087
522.702	8730
523.474	8415
524.245	8050
525.017	7773
525.788	7426
526.56	7151
527.331	6841
528.102	6559
528.873	6284
529.644	5995
530.415	5750
531.186	5447
531.957	5205
532.728	4935
533.498	4668
534.269	4456
535.039	4210
535.81	3972
536.58	3783
537.351	3535
538.121	3364
538.891	3170
539.661	2994
540.431	2821
541.201	2682
541.971	2529
542.741	2413
543.51	2274
544.28	2162
545.05	2082
545.819	1956
546.588	1864
547.358	1767
548.127	1677
548.896	1596
549.665	1502
550.434	1432
551.203	1377
551.972	1297
552.741	1238
553.51	1170
554.278	1112
555.047	1038
555.815	991
556.584	933
557.352	881
558.121	825
558.889	789
559.657	737
560.425	695
561.193	661
561.961	626
562.729	585
563.496	556
564.264	518
565.032	495
565.799	456
566.567	439
567.334	406
568.101	391
568.869	373
569.636	358
570.403	328
571.17	299
571.937	282
572.704	279
573.471	262
574.237	236
575.004	229
575.771	216
576.537	204
577.303	196
578.07	180
578.836	167
579.602	159
580.368	155
581.134	143
581.9	136
582.666	138
583.432	120
584.198	120
584.964	111
585.729	103
586.495	95
587.26	90
588.025	85
588.791	83
589.556	76
590.321	73
591.086	69
591.851	69
592.616	59
593.381	60
594.146	58
594.911	52
595.675	50
596.44	48
597.204	48
597.969	45
598.733	41
599.497	44
600.261	34
601.025	37
601.79	37
602.553	35
603.317	32
604.081	29
604.845	30
605.609	30
606.372	26
607.136	27
607.899	26
608.662	22
609.426	21
610.189	23
610.952	20
611.715	22
612.478	21
613.241	19
614.004	19
614.767	15
615.529	17
616.292	13
617.055	13
617.817	16
618.579	15
619.342	15
620.104	13
620.866	15
621.628	13
622.39	14
623.152	13
623.914	11
624.676	13
625.438	11
626.199	11
626.961	11
627.722	9
628.484	12
629.245	10
630.006	8
630.768	10
631.529	8
632.29	8
633.051	12
633.812	9
634.573	6
635.333	9
636.094	6
636.855	8
637.615	8
638.376	6
639.136	5
639.896	6
640.657	8
641.417	5
642.177	6
642.937	6
643.697	7
644.457	5
645.216	6
645.976	6
646.736	6
647.495	5
648.255	4
649.014	2
649.774	3
650.533	5
651.292	7
652.051	4
652.81	5
653.569	3
654.328	5
655.087	3
655.846	5
656.604	6
657.363	3
658.121	3
658.88	3
659.638	6
660.397	6
661.155	6
661.913	4
662.671	3
663.429	5
664.187	4
664.945	6
665.703	4
666.46	3
667.218	5
667.976	2
668.733	4
669.49	2
670.248	2
671.005	5
671.762	3
672.519	4
673.276	2
674.033	3
674.79	3
675.547	2
676.304	3
677.06	2
677.817	2
678.574	4
679.33	3
680.086	4
680.843	4
681.599	6
682.355	2
683.111	4
683.867	1
684.623	5
685.379	5
686.135	4
686.89	1
687.646	2
688.402	3
689.157	3
689.912	5
690.668	3
691.423	2
692.178	5
692.933	2
693.688	4
694.443	2
695.198	0
695.953	1
696.708	2
697.462	2
698.217	1
698.972	2
699.726	0
700.48	2
701.235	3
701.989	1
702.743	4
703.497	2
704.251	2
705.005	3
705.759	1
706.513	4
707.266	2
708.02	0
708.774	4
709.527	1
710.28	2
711.034	1
711.787	3
712.54	5
713.293	3
714.046	3
714.799	4
715.552	3
716.305	4
717.058	2
717.81	6
718.563	4
719.315	3
720.068	3
720.82	2
721.573	2
722.325	1
723.077	3
723.829	3
724.581	3
725.333	1
726.085	2
726.836	2
727.588	2
728.34	4
729.091	2
729.843	3
730.594	5
731.346	2
732.097	5
732.848	1
733.599	3
734.35	2
735.101	2
735.852	5
736.603	2
737.354	2
738.104	3
738.855	2
739.605	5
740.356	3
741.106	3
741.856	3
742.607	2
743.357	2
744.107	2
744.857	3
745.607	1
746.357	5
747.106	4
747.856	0
748.606	4
749.355	2
750.105	5
750.854	4
751.603	4
752.353	2
753.102	3
753.851	4
754.6	3
755.349	4
756.098	1
756.847	5
757.595	4
758.344	3
759.093	5
759.841	3
760.589	3
761.338	4
762.086	2
762.834	1
763.582	6
764.331	4
765.079	3
765.826	6
766.574	4
767.322	6
768.07	6
768.817	4
769.565	3
770.312	4
771.06	5
771.807	3
772.554	3
773.302	5
774.049	5
774.796	5
775.543	4
776.29	5
777.036	6
777.783	7
778.53	8
779.276	5
780.023	5
780.769	3
781.516	5
782.262	4
783.008	7
783.754	6
784.5	4
785.246	6
785.992	5
786.738	5
787.484	5
788.23	6
788.975	7
789.721	6
790.466	5
791.212	5
791.957	4
792.702	4
793.447	6
794.193	7
794.938	5
795.683	7
796.427	5
797.172	5
797.917	5
798.662	7
799.406	5
800.151	5
800.895	4
801.64	6
802.384	5
803.128	6
803.872	5
804.616	5
805.36	2
806.104	5
806.848	4
807.592	5
808.336	2
809.079	6
809.823	5
810.566	5
811.31	6
812.053	3
812.796	5
813.539	2
814.283	7
815.026	3
815.769	4
816.511	6
817.254	2
817.997	7
818.74	3
819.482	5
820.225	4
820.967	1
821.71	4
822.452	3
823.194	3
823.936	5
824.678	6
825.42	4
826.162	3
826.904	5
827.646	2
828.388	5
829.129	3
829.871	3
830.612	0
831.354	3
832.095	3
832.836	2
833.577	4
834.319	3
835.06	4
835.801	2
836.542	3
837.282	3
838.023	2
838.764	4
839.504	2
840.245	2
840.985	3
841.726	1
842.466	5
843.206	2
843.946	5
844.687	5
845.427	2
846.166	3
846.906	3
847.646	4
848.386	2
849.125	3
849.865	2
850.605	1
851.344	3
852.083	2
852.823	4
853.562	3
854.301	2
855.04	2
855.779	2
856.518	1
857.257	3
857.995	5
858.734	2
859.473	0
860.211	1
860.95	1
861.688	2
862.426	2
863.165	3
863.903	4
864.641	2
865.379	1
866.117	0
866.855	5
867.593	1
868.33	6
869.068	3
869.806	2
870.543	1
871.28	1
872.018	1
872.755	2
873.492	1
874.229	2
874.967	-1
875.703	3
876.44	1
877.177	2
877.914	3
878.651	1
879.387	0
880.124	0
880.86	0
881.597	2
882.333	2
883.069	3
883.806	2
884.542	4
885.278	2
886.014	3
886.749	2
887.485	3
888.221	3
888.957	3
889.692	2
890.428	-2
891.163	1
891.899	2
892.634	1
893.369	2
894.104	1
894.839	1
895.574	1
896.309	2
897.044	1
897.779	3
898.514	1
899.248	1
899.983	0
900.717	-1
901.452	1
902.186	0
902.92	1
903.654	2
904.389	1
905.123	2
905.857	-2
906.59	2
907.324	2
908.058	1
908.792	2
909.525	0
910.259	3
910.992	2
911.726	3
912.459	1
913.192	-1
913.925	2
914.658	-1
915.391	1
916.124	1
916.857	0
917.59	0
918.323	1
919.055	2
919.788	3
920.521	1
921.253	1
921.985	0
922.718	2
923.45	1
924.182	-1
924.914	0
925.646	-1
926.378	1
927.11	1
927.841	1
928.573	2
929.305	2
930.036	0
930.768	2
931.499	-1
932.23	2
932.962	0
933.693	1
934.424	0
935.155	1
935.886	0
936.617	0
937.348	1
938.078	1
938.809	3
939.54	3
940.27	1
941.001	2
941.731	1
942.461	1
943.191	1
943.922	2
944.652	1
945.382	1
946.112	2
946.841	2
947.571	0
948.301	0
949.031	1
949.76	2
950.49	2
951.219	1
951.948	2
952.678	0
953.407	0
954.136	-2
954.865	-1
955.594	1
956.323	2
957.052	0
957.78	0
958.509	1
959.238	2
959.966	2
960.695	-2
961.423	1
962.151	2
962.88	1
963.608	2
964.336	2
965.064	-1
965.792	-1
966.52	0
967.247	-1
967.975	2
968.703	0
969.43	-1
970.158	2
970.885	0
971.613	1
972.34	-1
973.067	-1
973.794	0
974.521	2
975.248	1
975.975	-2
976.702	1
977.429	-1
978.156	1
978.882	1
979.609	4
980.335	1
981.062	2
981.788	1
982.514	0
983.24	1
983.967	1
984.693	0
985.419	1
986.144	-1
986.87	1
987.596	-2
988.322	2
989.047	0
989.773	-1
990.498	1
991.224	1
991.949	1
992.674	2
993.399	2
994.124	2
994.849	1
995.574	1
996.299	2
997.024	2
997.749	0
998.473	1
999.198	1
999.922	1
1000.647	0
1001.371	2
1002.095	-1
1002.82	-1
1003.544	1
1004.268	-1
1004.992	0
1005.716	0
1006.439	-1
1007.163	-1
1007.887	1
1008.611	-1
1009.334	-1
1010.058	1
1010.781	-1
1011.504	1
1012.228	1
1012.951	1
1013.674	-2
1014.397	1
1015.12	-1
