节点500_145_QEPB04081__698__11-40-01-731.txt的数据

Date: Wed Nov 12 11:40:01 CST 2025
User: PC
Spectrometer: QEPB0408
触发模式: 0
积分时间 (秒): 1.000000E-2
Scans to average: 1
启用暗噪声校正: true
启用非线性校正: false
滑动平均宽度: 0
X轴模式: Wavelengths
Number of Pixels in Spectrum: 1044
>>>>>Begin Spectral Data<<<<<
220.843	-0.88
221.644	-0.88
222.444	0.12
223.244	0.12
224.045	0.12
224.845	0.12
225.645	1.12
226.445	1.12
227.245	1.12
228.045	2.12
228.845	1.12
229.645	2.12
230.444	1.12
231.244	1.12
232.043	1.12
232.843	3.12
233.642	4.12
234.442	2.12
235.241	4.12
236.04	1.12
236.839	2.12
237.638	2.12
238.437	0.12
239.236	2.12
240.035	2.12
240.833	2.12
241.632	1.12
242.43	2.12
243.229	0.12
244.027	3.12
244.826	2.12
245.624	2.12
246.422	1.12
247.22	2.12
248.018	2.12
248.816	2.12
249.614	3.12
250.412	4.12
251.21	1.12
252.007	4.12
252.805	2.12
253.602	3.12
254.4	4.12
255.197	6.12
255.994	4.12
256.791	4.12
257.589	4.12
258.386	2.12
259.183	4.12
259.979	4.12
260.776	4.12
261.573	5.12
262.37	5.12
263.166	5.12
263.963	4.12
264.759	4.12
265.556	5.12
266.352	5.12
267.148	6.12
267.944	3.12
268.74	7.12
269.536	5.12
270.332	10.12
271.128	7.12
271.924	9.12
272.719	6.12
273.515	8.12
274.311	9.12
275.106	6.12
275.901	8.12
276.697	7.12
277.492	7.12
278.287	9.12
279.082	7.12
279.877	11.12
280.672	7.12
281.467	9.12
282.262	8.12
283.056	11.12
283.851	8.12
284.646	9.12
285.44	12.12
286.234	11.12
287.029	10.12
287.823	11.12
288.617	9.12
289.411	10.12
290.205	10.12
290.999	10.12
291.793	10.12
292.587	11.12
293.381	10.12
294.174	10.12
294.968	8.12
295.761	7.12
296.555	10.12
297.348	10.12
298.141	10.12
298.935	9.12
299.728	10.12
300.521	11.12
301.314	9.12
302.107	10.12
302.899	8.12
303.692	8.12
304.485	8.12
305.277	8.12
306.07	8.12
306.862	7.12
307.655	10.12
308.447	8.12
309.239	6.12
310.031	6.12
310.823	8.12
311.615	8.12
312.407	6.12
313.199	6.12
313.991	7.12
314.783	8.12
315.574	6.12
316.366	8.12
317.157	5.12
317.949	4.12
318.74	8.12
319.531	6.12
320.322	6.12
321.113	4.12
321.904	6.12
322.695	6.12
323.486	4.12
324.277	5.12
325.068	5.12
325.858	5.12
326.649	4.12
327.439	3.12
328.23	4.12
329.02	5.12
329.81	5.12
330.6	6.12
331.391	3.12
332.181	4.12
332.971	4.12
333.76	4.12
334.55	3.12
335.34	6.12
336.13	3.12
336.919	6.12
337.709	5.12
338.498	2.12
339.287	6.12
340.077	4.12
340.866	3.12
341.655	5.12
342.444	5.12
343.233	4.12
344.022	3.12
344.811	4.12
345.6	3.12
346.388	3.12
347.177	3.12
347.965	4.12
348.754	6.12
349.542	2.12
350.33	5.12
351.119	5.12
351.907	2.12
352.695	4.12
353.483	5.12
354.271	3.12
355.059	3.12
355.846	3.12
356.634	3.12
357.422	2.12
358.209	5.12
358.997	6.12
359.784	4.12
360.571	3.12
361.359	4.12
362.146	4.12
362.933	5.12
363.72	4.12
364.507	3.12
365.294	4.12
366.081	3.12
366.867	3.12
367.654	2.12
368.44	6.12
369.227	3.12
370.013	2.12
370.8	3.12
371.586	4.12
372.372	4.12
373.158	2.12
373.944	5.12
374.73	2.12
375.516	2.12
376.302	2.12
377.088	3.12
377.873	5.12
378.659	2.12
379.445	4.12
380.23	2.12
381.015	3.12
381.801	3.12
382.586	1.12
383.371	4.12
384.156	5.12
384.941	6.12
385.726	3.12
386.511	4.12
387.296	5.12
388.08	2.12
388.865	4.12
389.649	4.12
390.434	2.12
391.218	3.12
392.003	5.12
392.787	3.12
393.571	1.12
394.355	6.12
395.139	3.12
395.923	6.12
396.707	4.12
397.491	1.12
398.274	5.12
399.058	4.12
399.842	4.12
400.625	3.12
401.408	4.12
402.192	6.12
402.975	6.12
403.758	3.12
404.541	3.12
405.324	6.12
406.107	4.12
406.89	4.12
407.673	4.12
408.456	3.12
409.238	4.12
410.021	3.12
410.803	6.12
411.586	4.12
412.368	5.12
413.151	4.12
413.933	4.12
414.715	4.12
415.497	3.12
416.279	6.12
417.061	7.12
417.843	5.12
418.624	6.12
419.406	6.12
420.188	4.12
420.969	5.12
421.751	6.12
422.532	7.12
423.313	7.12
424.095	8.12
424.876	5.12
425.657	7.12
426.438	3.12
427.219	7.12
428	7.12
428.78	7.12
429.561	8.12
430.342	9.12
431.122	10.12
431.903	6.12
432.683	8.12
433.464	9.12
434.244	10.12
435.024	9.12
435.804	6.12
436.584	13.12
437.364	11.12
438.144	10.12
438.924	12.12
439.704	12.12
440.483	11.12
441.263	11.12
442.042	14.12
442.822	14.12
443.601	15.12
444.38	16.12
445.16	19.12
445.939	15.12
446.718	19.12
447.497	21.12
448.276	22.12
449.054	25.12
449.833	28.12
450.612	30.12
451.391	32.12
452.169	33.12
452.948	34.12
453.726	38.12
454.504	47.12
455.282	47.12
456.061	53.12
456.839	54.12
457.617	64.12
458.395	70.12
459.172	80.12
459.95	84.12
460.728	97.12
461.506	105.12
462.283	122.12
463.061	130.12
463.838	139.12
464.615	158.12
465.393	176.12
466.17	193.12
466.947	218.12
467.724	240.12
468.501	269.12
469.278	301.12
470.055	330.12
470.831	360.12
471.608	406.12
472.385	447.12
473.161	499.12
473.938	537.12
474.714	601.12
475.49	661.12
476.266	717.12
477.043	801.12
477.819	885.12
478.595	972.12
479.371	1054.12
480.146	1170.12
480.922	1276.12
481.698	1398.12
482.473	1517.12
483.249	1668.12
484.024	1827.12
484.8	2000.12
485.575	2182.12
486.35	2392.12
487.126	2594.12
487.901	2839.12
488.676	3094.12
489.451	3408.12
490.225	3693.12
491	4014.12
491.775	4410.12
492.55	4792.12
493.324	5180.12
494.099	5662.12
494.873	6093.12
495.647	6608.12
496.422	7158.12
497.196	7732.12
497.97	8323.12
498.744	8926.12
499.518	9577.12
500.292	10212.12
501.066	10822.12
501.839	11465.12
502.613	12035.12
503.387	12631.12
504.16	13205.12
504.934	13671.12
505.707	14042.12
506.48	14448.12
507.253	14632.12
508.027	14883.12
508.8	15002.12
509.573	15046.12
510.346	14959.12
511.118	14785.12
511.891	14554.12
512.664	14262.12
513.437	13878.12
514.209	13486.12
514.982	13038.12
515.754	12621.12
516.526	12140.12
517.298	11689.12
518.071	11209.12
518.843	10703.12
519.615	10296.12
520.387	9857.12
521.159	9464.12
521.93	9092.12
522.702	8739.12
523.474	8401.12
524.245	8078.12
525.017	7757.12
525.788	7425.12
526.56	7138.12
527.331	6848.12
528.102	6591.12
528.873	6298.12
529.644	6036.12
530.415	5781.12
531.186	5531.12
531.957	5287.12
532.728	5030.12
533.498	4773.12
534.269	4529.12
535.039	4289.12
535.81	4066.12
536.58	3852.12
537.351	3630.12
538.121	3442.12
538.891	3269.12
539.661	3105.12
540.431	2926.12
541.201	2763.12
541.971	2626.12
542.741	2483.12
543.51	2355.12
544.28	2227.12
545.05	2127.12
545.819	2012.12
546.588	1904.12
547.358	1823.12
548.127	1727.12
548.896	1638.12
549.665	1566.12
550.434	1481.12
551.203	1406.12
551.972	1346.12
552.741	1276.12
553.51	1199.12
554.278	1156.12
555.047	1080.12
555.815	1015.12
556.584	968.12
557.352	902.12
558.121	858.12
558.889	805.12
559.657	774.12
560.425	721.12
561.193	681.12
561.961	650.12
562.729	612.12
563.496	585.12
564.264	553.12
565.032	518.12
565.799	480.12
566.567	451.12
567.334	431.12
568.101	403.12
568.869	385.12
569.636	361.12
570.403	342.12
571.17	332.12
571.937	307.12
572.704	287.12
573.471	276.12
574.237	258.12
575.004	242.12
575.771	222.12
576.537	218.12
577.303	203.12
578.07	191.12
578.836	181.12
579.602	170.12
580.368	158.12
581.134	154.12
581.9	144.12
582.666	133.12
583.432	132.12
584.198	124.12
584.964	114.12
585.729	109.12
586.495	102.12
587.26	98.12
588.025	93.12
588.791	87.12
589.556	84.12
590.321	78.12
591.086	74.12
591.851	71.12
592.616	67.12
593.381	59.12
594.146	58.12
594.911	56.12
595.675	55.12
596.44	52.12
597.204	47.12
597.969	46.12
598.733	45.12
599.497	46.12
600.261	38.12
601.025	39.12
601.79	37.12
602.553	37.12
603.317	37.12
604.081	32.12
604.845	31.12
605.609	29.12
606.372	28.12
607.136	26.12
607.899	27.12
608.662	24.12
609.426	23.12
610.189	22.12
610.952	19.12
611.715	19.12
612.478	17.12
613.241	20.12
614.004	17.12
614.767	17.12
615.529	18.12
616.292	14.12
617.055	15.12
617.817	15.12
618.579	15.12
619.342	15.12
620.104	13.12
620.866	14.12
621.628	15.12
622.39	14.12
623.152	14.12
623.914	13.12
624.676	12.12
625.438	11.12
626.199	10.12
626.961	10.12
627.722	11.12
628.484	12.12
629.245	8.12
630.006	11.12
630.768	10.12
631.529	12.12
632.29	9.12
633.051	9.12
633.812	7.12
634.573	8.12
635.333	8.12
636.094	10.12
636.855	7.12
637.615	7.12
638.376	8.12
639.136	7.12
639.896	8.12
640.657	7.12
641.417	7.12
642.177	7.12
642.937	3.12
643.697	4.12
644.457	4.12
645.216	6.12
645.976	3.12
646.736	2.12
647.495	5.12
648.255	4.12
649.014	5.12
649.774	3.12
650.533	3.12
651.292	4.12
652.051	5.12
652.81	6.12
653.569	3.12
654.328	3.12
655.087	4.12
655.846	3.12
656.604	6.12
657.363	3.12
658.121	4.12
658.88	3.12
659.638	3.12
660.397	3.12
661.155	2.12
661.913	4.12
662.671	4.12
663.429	5.12
664.187	6.12
664.945	5.12
665.703	3.12
666.46	3.12
667.218	3.12
667.976	4.12
668.733	3.12
669.49	4.12
670.248	3.12
671.005	2.12
671.762	2.12
672.519	4.12
673.276	2.12
674.033	5.12
674.79	5.12
675.547	3.12
676.304	3.12
677.06	4.12
677.817	2.12
678.574	3.12
679.33	3.12
680.086	4.12
680.843	4.12
681.599	3.12
682.355	4.12
683.111	2.12
683.867	3.12
684.623	2.12
685.379	2.12
686.135	6.12
686.89	3.12
687.646	4.12
688.402	3.12
689.157	1.12
689.912	2.12
690.668	3.12
691.423	2.12
692.178	4.12
692.933	3.12
693.688	3.12
694.443	2.12
695.198	3.12
695.953	2.12
696.708	1.12
697.462	5.12
698.217	1.12
698.972	3.12
699.726	2.12
700.48	1.12
701.235	2.12
701.989	4.12
702.743	3.12
703.497	2.12
704.251	4.12
705.005	3.12
705.759	2.12
706.513	2.12
707.266	2.12
708.02	0.12
708.774	3.12
709.527	4.12
710.28	2.12
711.034	3.12
711.787	2.12
712.54	2.12
713.293	2.12
714.046	3.12
714.799	0.12
715.552	3.12
716.305	3.12
717.058	2.12
717.81	3.12
718.563	2.12
719.315	3.12
720.068	4.12
720.82	4.12
721.573	2.12
722.325	1.12
723.077	2.12
723.829	2.12
724.581	3.12
725.333	4.12
726.085	3.12
726.836	3.12
727.588	4.12
728.34	1.12
729.091	4.12
729.843	4.12
730.594	2.12
731.346	3.12
732.097	2.12
732.848	1.12
733.599	2.12
734.35	2.12
735.101	1.12
735.852	3.12
736.603	3.12
737.354	3.12
738.104	4.12
738.855	2.12
739.605	2.12
740.356	6.12
741.106	3.12
741.856	1.12
742.607	3.12
743.357	3.12
744.107	5.12
744.857	3.12
745.607	2.12
746.357	1.12
747.106	3.12
747.856	2.12
748.606	2.12
749.355	4.12
750.105	3.12
750.854	3.12
751.603	3.12
752.353	3.12
753.102	3.12
753.851	4.12
754.6	2.12
755.349	3.12
756.098	8.12
756.847	3.12
757.595	2.12
758.344	3.12
759.093	4.12
759.841	1.12
760.589	1.12
761.338	4.12
762.086	2.12
762.834	6.12
763.582	4.12
764.331	5.12
765.079	4.12
765.826	5.12
766.574	3.12
767.322	5.12
768.07	4.12
768.817	3.12
769.565	5.12
770.312	2.12
771.06	4.12
771.807	4.12
772.554	4.12
773.302	3.12
774.049	4.12
774.796	5.12
775.543	3.12
776.29	5.12
777.036	4.12
777.783	7.12
778.53	4.12
779.276	3.12
780.023	4.12
780.769	5.12
781.516	8.12
782.262	7.12
783.008	4.12
783.754	6.12
784.5	3.12
785.246	7.12
785.992	4.12
786.738	5.12
787.484	6.12
788.23	4.12
788.975	6.12
789.721	4.12
790.466	7.12
791.212	4.12
791.957	4.12
792.702	8.12
793.447	5.12
794.193	5.12
794.938	4.12
795.683	4.12
796.427	4.12
797.172	4.12
797.917	4.12
798.662	3.12
799.406	3.12
800.151	2.12
800.895	5.12
801.64	4.12
802.384	3.12
803.128	7.12
803.872	3.12
804.616	5.12
805.36	4.12
806.104	7.12
806.848	7.12
807.592	4.12
808.336	5.12
809.079	3.12
809.823	3.12
810.566	3.12
811.31	5.12
812.053	6.12
812.796	3.12
813.539	6.12
814.283	3.12
815.026	3.12
815.769	-0.88
816.511	4.12
817.254	3.12
817.997	2.12
818.74	5.12
819.482	4.12
820.225	2.12
820.967	4.12
821.71	3.12
822.452	4.12
823.194	3.12
823.936	4.12
824.678	3.12
825.42	4.12
826.162	4.12
826.904	4.12
827.646	2.12
828.388	2.12
829.129	1.12
829.871	3.12
830.612	1.12
831.354	6.12
832.095	3.12
832.836	4.12
833.577	3.12
834.319	4.12
835.06	3.12
835.801	6.12
836.542	4.12
837.282	3.12
838.023	2.12
838.764	2.12
839.504	4.12
840.245	2.12
840.985	6.12
841.726	3.12
842.466	2.12
843.206	3.12
843.946	2.12
844.687	3.12
845.427	-0.88
846.166	4.12
846.906	1.12
847.646	1.12
848.386	2.12
849.125	2.12
849.865	4.12
850.605	1.12
851.344	2.12
852.083	3.12
852.823	1.12
853.562	5.12
854.301	2.12
855.04	4.12
855.779	2.12
856.518	4.12
857.257	2.12
857.995	1.12
858.734	4.12
859.473	1.12
860.211	4.12
860.95	3.12
861.688	3.12
862.426	1.12
863.165	3.12
863.903	3.12
864.641	1.12
865.379	5.12
866.117	3.12
866.855	2.12
867.593	0.12
868.33	1.12
869.068	2.12
869.806	1.12
870.543	3.12
871.28	3.12
872.018	-1.88
872.755	3.12
873.492	3.12
874.229	2.12
874.967	1.12
875.703	3.12
876.44	2.12
877.177	2.12
877.914	2.12
878.651	1.12
879.387	1.12
880.124	1.12
880.86	3.12
881.597	0.12
882.333	2.12
883.069	3.12
883.806	0.12
884.542	3.12
885.278	3.12
886.014	1.12
886.749	2.12
887.485	4.12
888.221	3.12
888.957	2.12
889.692	2.12
890.428	1.12
891.163	2.12
891.899	2.12
892.634	0.12
893.369	2.12
894.104	1.12
894.839	2.12
895.574	1.12
896.309	2.12
897.044	3.12
897.779	1.12
898.514	1.12
899.248	2.12
899.983	0.12
900.717	2.12
901.452	1.12
902.186	1.12
902.92	3.12
903.654	0.12
904.389	-0.88
905.123	-2.88
905.857	-0.88
906.59	2.12
907.324	1.12
908.058	2.12
908.792	-0.88
909.525	2.12
910.259	-0.88
910.992	1.12
911.726	-0.88
912.459	0.12
913.192	0.12
913.925	1.12
914.658	2.12
915.391	2.12
916.124	1.12
916.857	0.12
917.59	2.12
918.323	2.12
919.055	1.12
919.788	0.12
920.521	3.12
921.253	0.12
921.985	-0.88
922.718	-0.88
923.45	0.12
924.182	2.12
924.914	2.12
925.646	2.12
926.378	2.12
927.11	3.12
927.841	1.12
928.573	-0.88
929.305	0.12
930.036	2.12
930.768	1.12
931.499	2.12
932.23	3.12
932.962	1.12
933.693	2.12
934.424	2.12
935.155	0.12
935.886	1.12
936.617	0.12
937.348	0.12
938.078	0.12
938.809	1.12
939.54	2.12
940.27	4.12
941.001	1.12
941.731	0.12
942.461	2.12
943.191	1.12
943.922	2.12
944.652	4.12
945.382	0.12
946.112	1.12
946.841	1.12
947.571	0.12
948.301	0.12
949.031	1.12
949.76	4.12
950.49	3.12
951.219	3.12
951.948	-0.88
952.678	-0.88
953.407	2.12
954.136	2.12
954.865	0.12
955.594	2.12
956.323	1.12
957.052	1.12
957.78	3.12
958.509	1.12
959.238	2.12
959.966	1.12
960.695	-1.88
961.423	1.12
962.151	-0.88
962.88	1.12
963.608	2.12
964.336	2.12
965.064	1.12
965.792	1.12
966.52	3.12
967.247	-0.88
967.975	1.12
968.703	-0.88
969.43	0.12
970.158	1.12
970.885	-0.88
971.613	4.12
972.34	1.12
973.067	2.12
973.794	-0.88
974.521	0.12
975.248	0.12
975.975	2.12
976.702	2.12
977.429	3.12
978.156	1.12
978.882	2.12
979.609	0.12
980.335	0.12
981.062	0.12
981.788	1.12
982.514	3.12
983.24	1.12
983.967	0.12
984.693	-0.88
985.419	2.12
986.144	1.12
986.87	0.12
987.596	1.12
988.322	1.12
989.047	1.12
989.773	0.12
990.498	2.12
991.224	1.12
991.949	3.12
992.674	1.12
993.399	2.12
994.124	2.12
994.849	3.12
995.574	1.12
996.299	1.12
997.024	2.12
997.749	0.12
998.473	0.12
999.198	2.12
999.922	0.12
1000.647	-0.88
1001.371	3.12
1002.095	-1.88
1002.82	0.12
1003.544	-1.88
1004.268	3.12
1004.992	2.12
1005.716	0.12
1006.439	-0.88
1007.163	-0.88
1007.887	3.12
1008.611	0.12
1009.334	2.12
1010.058	2.12
1010.781	1.12
1011.504	-0.88
1012.228	1.12
1012.951	-0.88
1013.674	-0.88
1014.397	1.12
1015.12	1.12
