节点500_145_QEPB04081__99__11-30-33-600.txt的数据

Date: Wed Nov 12 11:30:33 CST 2025
User: PC
Spectrometer: QEPB0408
触发模式: 0
积分时间 (秒): 1.000000E-2
Scans to average: 1
启用暗噪声校正: true
启用非线性校正: false
滑动平均宽度: 0
X轴模式: Wavelengths
Number of Pixels in Spectrum: 1044
>>>>>Begin Spectral Data<<<<<
220.843	-1.38
221.644	0.62
222.444	-1.38
223.244	-1.38
224.045	0.62
224.845	0.62
225.645	1.62
226.445	2.62
227.245	1.62
228.045	0.62
228.845	1.62
229.645	2.62
230.444	0.62
231.244	1.62
232.043	1.62
232.843	2.62
233.642	0.62
234.442	0.62
235.241	0.62
236.04	3.62
236.839	1.62
237.638	1.62
238.437	3.62
239.236	-0.38
240.035	2.62
240.833	0.62
241.632	5.62
242.43	1.62
243.229	1.62
244.027	2.62
244.826	3.62
245.624	2.62
246.422	2.62
247.22	1.62
248.018	3.62
248.816	4.62
249.614	2.62
250.412	2.62
251.21	2.62
252.007	0.62
252.805	3.62
253.602	5.62
254.4	3.62
255.197	2.62
255.994	6.62
256.791	7.62
257.589	2.62
258.386	5.62
259.183	7.62
259.979	3.62
260.776	7.62
261.573	5.62
262.37	5.62
263.166	7.62
263.963	5.62
264.759	5.62
265.556	4.62
266.352	7.62
267.148	5.62
267.944	8.62
268.74	7.62
269.536	9.62
270.332	8.62
271.128	7.62
271.924	9.62
272.719	8.62
273.515	11.62
274.311	7.62
275.106	10.62
275.901	8.62
276.697	9.62
277.492	12.62
278.287	11.62
279.082	10.62
279.877	13.62
280.672	10.62
281.467	12.62
282.262	10.62
283.056	9.62
283.851	10.62
284.646	13.62
285.44	13.62
286.234	14.62
287.029	10.62
287.823	10.62
288.617	11.62
289.411	9.62
290.205	12.62
290.999	10.62
291.793	11.62
292.587	13.62
293.381	11.62
294.174	12.62
294.968	11.62
295.761	12.62
296.555	10.62
297.348	9.62
298.141	9.62
298.935	11.62
299.728	10.62
300.521	9.62
301.314	7.62
302.107	10.62
302.899	9.62
303.692	10.62
304.485	9.62
305.277	8.62
306.07	5.62
306.862	9.62
307.655	10.62
308.447	7.62
309.239	9.62
310.031	8.62
310.823	8.62
311.615	7.62
312.407	8.62
313.199	7.62
313.991	8.62
314.783	6.62
315.574	6.62
316.366	7.62
317.157	6.62
317.949	3.62
318.74	10.62
319.531	2.62
320.322	7.62
321.113	6.62
321.904	6.62
322.695	5.62
323.486	3.62
324.277	7.62
325.068	5.62
325.858	6.62
326.649	4.62
327.439	4.62
328.23	5.62
329.02	6.62
329.81	5.62
330.6	4.62
331.391	5.62
332.181	5.62
332.971	5.62
333.76	2.62
334.55	4.62
335.34	5.62
336.13	5.62
336.919	5.62
337.709	1.62
338.498	3.62
339.287	2.62
340.077	5.62
340.866	6.62
341.655	1.62
342.444	5.62
343.233	4.62
344.022	4.62
344.811	6.62
345.6	5.62
346.388	3.62
347.177	4.62
347.965	3.62
348.754	4.62
349.542	2.62
350.33	4.62
351.119	4.62
351.907	4.62
352.695	3.62
353.483	2.62
354.271	3.62
355.059	1.62
355.846	4.62
356.634	3.62
357.422	4.62
358.209	2.62
358.997	2.62
359.784	4.62
360.571	4.62
361.359	3.62
362.146	3.62
362.933	4.62
363.72	1.62
364.507	4.62
365.294	3.62
366.081	3.62
366.867	2.62
367.654	3.62
368.44	4.62
369.227	3.62
370.013	5.62
370.8	2.62
371.586	3.62
372.372	2.62
373.158	3.62
373.944	5.62
374.73	2.62
375.516	3.62
376.302	2.62
377.088	4.62
377.873	2.62
378.659	2.62
379.445	2.62
380.23	3.62
381.015	4.62
381.801	6.62
382.586	1.62
383.371	3.62
384.156	5.62
384.941	2.62
385.726	3.62
386.511	2.62
387.296	5.62
388.08	1.62
388.865	2.62
389.649	3.62
390.434	4.62
391.218	3.62
392.003	3.62
392.787	4.62
393.571	3.62
394.355	4.62
395.139	3.62
395.923	2.62
396.707	5.62
397.491	3.62
398.274	4.62
399.058	2.62
399.842	5.62
400.625	6.62
401.408	3.62
402.192	5.62
402.975	4.62
403.758	5.62
404.541	4.62
405.324	5.62
406.107	4.62
406.89	3.62
407.673	6.62
408.456	4.62
409.238	5.62
410.021	2.62
410.803	1.62
411.586	7.62
412.368	5.62
413.151	5.62
413.933	2.62
414.715	6.62
415.497	5.62
416.279	4.62
417.061	8.62
417.843	4.62
418.624	4.62
419.406	5.62
420.188	6.62
420.969	4.62
421.751	7.62
422.532	7.62
423.313	3.62
424.095	7.62
424.876	9.62
425.657	7.62
426.438	6.62
427.219	4.62
428	6.62
428.78	7.62
429.561	8.62
430.342	7.62
431.122	7.62
431.903	7.62
432.683	7.62
433.464	8.62
434.244	8.62
435.024	11.62
435.804	9.62
436.584	10.62
437.364	9.62
438.144	10.62
438.924	13.62
439.704	12.62
440.483	11.62
441.263	9.62
442.042	15.62
442.822	14.62
443.601	15.62
444.38	15.62
445.16	14.62
445.939	16.62
446.718	15.62
447.497	17.62
448.276	19.62
449.054	17.62
449.833	23.62
450.612	23.62
451.391	28.62
452.169	30.62
452.948	30.62
453.726	31.62
454.504	35.62
455.282	38.62
456.061	42.62
456.839	45.62
457.617	50.62
458.395	56.62
459.172	64.62
459.95	65.62
460.728	74.62
461.506	86.62
462.283	93.62
463.061	104.62
463.838	113.62
464.615	130.62
465.393	145.62
466.17	166.62
466.947	186.62
467.724	202.62
468.501	222.62
469.278	252.62
470.055	279.62
470.831	316.62
471.608	352.62
472.385	387.62
473.161	453.62
473.938	497.62
474.714	542.62
475.49	607.62
476.266	665.62
477.043	756.62
477.819	831.62
478.595	920.62
479.371	1018.62
480.146	1127.62
480.922	1258.62
481.698	1382.62
482.473	1545.62
483.249	1716.62
484.024	1901.62
484.8	2121.62
485.575	2326.62
486.35	2589.62
487.126	2846.62
487.901	3170.62
488.676	3503.62
489.451	3880.62
490.225	4296.62
491	4747.62
491.775	5240.62
492.55	5755.62
493.324	6304.62
494.099	6942.62
494.873	7622.62
495.647	8357.62
496.422	9036.62
497.196	9786.62
497.97	10630.62
498.744	11433.62
499.518	12260.62
500.292	13051.62
501.066	13843.62
501.839	14515.62
502.613	15233.62
503.387	15842.62
504.16	16364.62
504.934	16799.62
505.707	17148.62
506.48	17311.62
507.253	17412.62
508.027	17348.62
508.8	17210.62
509.573	16956.62
510.346	16544.62
511.118	16088.62
511.891	15556.62
512.664	15013.62
513.437	14465.62
514.209	13905.62
514.982	13251.62
515.754	12701.62
516.526	12096.62
517.298	11523.62
518.071	11014.62
518.843	10519.62
519.615	10032.62
520.387	9651.62
521.159	9273.62
521.93	8862.62
522.702	8530.62
523.474	8223.62
524.245	7906.62
525.017	7595.62
525.788	7298.62
526.56	6994.62
527.331	6672.62
528.102	6393.62
528.873	6080.62
529.644	5801.62
530.415	5517.62
531.186	5259.62
531.957	4968.62
532.728	4697.62
533.498	4452.62
534.269	4189.62
535.039	3955.62
535.81	3727.62
536.58	3517.62
537.351	3311.62
538.121	3141.62
538.891	2976.62
539.661	2796.62
540.431	2655.62
541.201	2508.62
541.971	2368.62
542.741	2253.62
543.51	2161.62
544.28	2018.62
545.05	1920.62
545.819	1841.62
546.588	1731.62
547.358	1660.62
548.127	1570.62
548.896	1497.62
549.665	1408.62
550.434	1355.62
551.203	1279.62
551.972	1210.62
552.741	1146.62
553.51	1096.62
554.278	1014.62
555.047	967.62
555.815	897.62
556.584	856.62
557.352	802.62
558.121	761.62
558.889	727.62
559.657	676.62
560.425	629.62
561.193	590.62
561.961	563.62
562.729	533.62
563.496	498.62
564.264	475.62
565.032	442.62
565.799	426.62
566.567	398.62
567.334	371.62
568.101	360.62
568.869	329.62
569.636	320.62
570.403	298.62
571.17	281.62
571.937	275.62
572.704	252.62
573.471	243.62
574.237	225.62
575.004	216.62
575.771	194.62
576.537	187.62
577.303	176.62
578.07	160.62
578.836	156.62
579.602	143.62
580.368	138.62
581.134	129.62
581.9	125.62
582.666	120.62
583.432	110.62
584.198	102.62
584.964	98.62
585.729	91.62
586.495	85.62
587.26	84.62
588.025	82.62
588.791	74.62
589.556	65.62
590.321	62.62
591.086	64.62
591.851	63.62
592.616	55.62
593.381	54.62
594.146	54.62
594.911	51.62
595.675	47.62
596.44	46.62
597.204	39.62
597.969	39.62
598.733	37.62
599.497	36.62
600.261	36.62
601.025	35.62
601.79	33.62
602.553	30.62
603.317	29.62
604.081	25.62
604.845	26.62
605.609	26.62
606.372	23.62
607.136	22.62
607.899	22.62
608.662	25.62
609.426	22.62
610.189	21.62
610.952	20.62
611.715	19.62
612.478	15.62
613.241	18.62
614.004	16.62
614.767	16.62
615.529	12.62
616.292	15.62
617.055	16.62
617.817	10.62
618.579	15.62
619.342	14.62
620.104	12.62
620.866	12.62
621.628	12.62
622.39	13.62
623.152	10.62
623.914	11.62
624.676	10.62
625.438	9.62
626.199	8.62
626.961	9.62
627.722	8.62
628.484	6.62
629.245	7.62
630.006	9.62
630.768	8.62
631.529	6.62
632.29	7.62
633.051	7.62
633.812	6.62
634.573	7.62
635.333	7.62
636.094	5.62
636.855	7.62
637.615	6.62
638.376	8.62
639.136	6.62
639.896	9.62
640.657	8.62
641.417	4.62
642.177	6.62
642.937	3.62
643.697	3.62
644.457	5.62
645.216	5.62
645.976	8.62
646.736	6.62
647.495	5.62
648.255	4.62
649.014	5.62
649.774	5.62
650.533	5.62
651.292	3.62
652.051	3.62
652.81	4.62
653.569	5.62
654.328	4.62
655.087	2.62
655.846	3.62
656.604	3.62
657.363	2.62
658.121	5.62
658.88	3.62
659.638	4.62
660.397	5.62
661.155	0.62
661.913	1.62
662.671	4.62
663.429	3.62
664.187	2.62
664.945	4.62
665.703	2.62
666.46	2.62
667.218	2.62
667.976	3.62
668.733	5.62
669.49	2.62
670.248	2.62
671.005	2.62
671.762	2.62
672.519	4.62
673.276	3.62
674.033	4.62
674.79	2.62
675.547	1.62
676.304	3.62
677.06	2.62
677.817	2.62
678.574	2.62
679.33	1.62
680.086	2.62
680.843	3.62
681.599	3.62
682.355	2.62
683.111	5.62
683.867	4.62
684.623	2.62
685.379	4.62
686.135	0.62
686.89	4.62
687.646	2.62
688.402	2.62
689.157	2.62
689.912	2.62
690.668	1.62
691.423	2.62
692.178	4.62
692.933	2.62
693.688	3.62
694.443	2.62
695.198	1.62
695.953	2.62
696.708	1.62
697.462	3.62
698.217	-0.38
698.972	1.62
699.726	3.62
700.48	2.62
701.235	2.62
701.989	1.62
702.743	3.62
703.497	3.62
704.251	3.62
705.005	1.62
705.759	4.62
706.513	3.62
707.266	5.62
708.02	2.62
708.774	3.62
709.527	2.62
710.28	2.62
711.034	1.62
711.787	4.62
712.54	3.62
713.293	1.62
714.046	1.62
714.799	2.62
715.552	2.62
716.305	2.62
717.058	2.62
717.81	2.62
718.563	1.62
719.315	3.62
720.068	4.62
720.82	3.62
721.573	2.62
722.325	1.62
723.077	-0.38
723.829	2.62
724.581	3.62
725.333	1.62
726.085	3.62
726.836	2.62
727.588	2.62
728.34	0.62
729.091	1.62
729.843	2.62
730.594	2.62
731.346	0.62
732.097	1.62
732.848	4.62
733.599	1.62
734.35	2.62
735.101	3.62
735.852	2.62
736.603	1.62
737.354	3.62
738.104	2.62
738.855	0.62
739.605	2.62
740.356	1.62
741.106	2.62
741.856	2.62
742.607	2.62
743.357	3.62
744.107	4.62
744.857	3.62
745.607	2.62
746.357	3.62
747.106	3.62
747.856	2.62
748.606	4.62
749.355	3.62
750.105	3.62
750.854	2.62
751.603	4.62
752.353	4.62
753.102	-1.38
753.851	5.62
754.6	2.62
755.349	4.62
756.098	3.62
756.847	1.62
757.595	2.62
758.344	5.62
759.093	2.62
759.841	2.62
760.589	5.62
761.338	5.62
762.086	4.62
762.834	7.62
763.582	4.62
764.331	2.62
765.079	5.62
765.826	7.62
766.574	4.62
767.322	4.62
768.07	4.62
768.817	3.62
769.565	3.62
770.312	6.62
771.06	3.62
771.807	8.62
772.554	4.62
773.302	4.62
774.049	5.62
774.796	9.62
775.543	4.62
776.29	6.62
777.036	6.62
777.783	6.62
778.53	5.62
779.276	6.62
780.023	5.62
780.769	5.62
781.516	5.62
782.262	4.62
783.008	5.62
783.754	5.62
784.5	5.62
785.246	8.62
785.992	5.62
786.738	5.62
787.484	3.62
788.23	6.62
788.975	5.62
789.721	6.62
790.466	5.62
791.212	8.62
791.957	4.62
792.702	7.62
793.447	2.62
794.193	6.62
794.938	6.62
795.683	6.62
796.427	7.62
797.172	3.62
797.917	4.62
798.662	5.62
799.406	5.62
800.151	6.62
800.895	5.62
801.64	3.62
802.384	4.62
803.128	4.62
803.872	4.62
804.616	5.62
805.36	4.62
806.104	5.62
806.848	4.62
807.592	3.62
808.336	3.62
809.079	4.62
809.823	5.62
810.566	5.62
811.31	4.62
812.053	5.62
812.796	3.62
813.539	6.62
814.283	5.62
815.026	3.62
815.769	4.62
816.511	4.62
817.254	4.62
817.997	2.62
818.74	4.62
819.482	5.62
820.225	2.62
820.967	2.62
821.71	2.62
822.452	5.62
823.194	1.62
823.936	4.62
824.678	2.62
825.42	1.62
826.162	4.62
826.904	4.62
827.646	2.62
828.388	2.62
829.129	1.62
829.871	1.62
830.612	3.62
831.354	0.62
832.095	0.62
832.836	1.62
833.577	1.62
834.319	3.62
835.06	3.62
835.801	1.62
836.542	2.62
837.282	2.62
838.023	2.62
838.764	1.62
839.504	3.62
840.245	2.62
840.985	2.62
841.726	3.62
842.466	1.62
843.206	1.62
843.946	1.62
844.687	1.62
845.427	3.62
846.166	1.62
846.906	5.62
847.646	3.62
848.386	3.62
849.125	2.62
849.865	2.62
850.605	4.62
851.344	2.62
852.083	1.62
852.823	2.62
853.562	1.62
854.301	3.62
855.04	-1.38
855.779	1.62
856.518	2.62
857.257	1.62
857.995	-0.38
858.734	1.62
859.473	1.62
860.211	3.62
860.95	-0.38
861.688	0.62
862.426	3.62
863.165	0.62
863.903	2.62
864.641	2.62
865.379	1.62
866.117	2.62
866.855	1.62
867.593	0.62
868.33	2.62
869.068	2.62
869.806	0.62
870.543	2.62
871.28	0.62
872.018	1.62
872.755	2.62
873.492	1.62
874.229	1.62
874.967	1.62
875.703	3.62
876.44	1.62
877.177	0.62
877.914	1.62
878.651	-0.38
879.387	2.62
880.124	-0.38
880.86	-0.38
881.597	1.62
882.333	1.62
883.069	1.62
883.806	1.62
884.542	1.62
885.278	1.62
886.014	-1.38
886.749	1.62
887.485	2.62
888.221	2.62
888.957	1.62
889.692	2.62
890.428	0.62
891.163	2.62
891.899	2.62
892.634	1.62
893.369	1.62
894.104	1.62
894.839	2.62
895.574	2.62
896.309	-1.38
897.044	2.62
897.779	1.62
898.514	-0.38
899.248	0.62
899.983	3.62
900.717	1.62
901.452	-0.38
902.186	2.62
902.92	0.62
903.654	3.62
904.389	0.62
905.123	0.62
905.857	0.62
906.59	1.62
907.324	5.62
908.058	1.62
908.792	2.62
909.525	2.62
910.259	1.62
910.992	0.62
911.726	0.62
912.459	2.62
913.192	0.62
913.925	2.62
914.658	1.62
915.391	2.62
916.124	1.62
916.857	0.62
917.59	2.62
918.323	2.62
919.055	0.62
919.788	2.62
920.521	-0.38
921.253	2.62
921.985	2.62
922.718	0.62
923.45	0.62
924.182	-1.38
924.914	0.62
925.646	1.62
926.378	2.62
927.11	2.62
927.841	0.62
928.573	2.62
929.305	-1.38
930.036	0.62
930.768	0.62
931.499	1.62
932.23	-0.38
932.962	0.62
933.693	-0.38
934.424	1.62
935.155	3.62
935.886	-1.38
936.617	1.62
937.348	0.62
938.078	1.62
938.809	-1.38
939.54	-1.38
940.27	1.62
941.001	-0.38
941.731	-0.38
942.461	-0.38
943.191	0.62
943.922	1.62
944.652	-1.38
945.382	1.62
946.112	-1.38
946.841	1.62
947.571	0.62
948.301	1.62
949.031	0.62
949.76	-1.38
950.49	0.62
951.219	0.62
951.948	1.62
952.678	1.62
953.407	0.62
954.136	2.62
954.865	-0.38
955.594	0.62
956.323	-1.38
957.052	1.62
957.78	0.62
958.509	0.62
959.238	2.62
959.966	0.62
960.695	1.62
961.423	-0.38
962.151	-1.38
962.88	-0.38
963.608	-0.38
964.336	1.62
965.064	-1.38
965.792	1.62
966.52	0.62
967.247	1.62
967.975	-1.38
968.703	1.62
969.43	2.62
970.158	-0.38
970.885	2.62
971.613	0.62
972.34	0.62
973.067	1.62
973.794	-0.38
974.521	0.62
975.248	1.62
975.975	1.62
976.702	0.62
977.429	0.62
978.156	0.62
978.882	1.62
979.609	2.62
980.335	1.62
981.062	0.62
981.788	1.62
982.514	-2.38
983.24	0.62
983.967	-1.38
984.693	-0.38
985.419	1.62
986.144	0.62
986.87	1.62
987.596	-0.38
988.322	-0.38
989.047	0.62
989.773	2.62
990.498	-0.38
991.224	1.62
991.949	1.62
992.674	2.62
993.399	0.62
994.124	1.62
994.849	-1.38
995.574	0.62
996.299	0.62
997.024	3.62
997.749	0.62
998.473	2.62
999.198	-0.38
999.922	2.62
1000.647	-1.38
1001.371	2.62
1002.095	-1.38
1002.82	-0.38
1003.544	0.62
1004.268	0.62
1004.992	-0.38
1005.716	-0.38
1006.439	-1.38
1007.163	1.62
1007.887	-0.38
1008.611	-1.38
1009.334	2.62
1010.058	2.62
1010.781	0.62
1011.504	0.62
1012.228	1.62
1012.951	-1.38
1013.674	-1.38
1014.397	1.62
1015.12	-0.38
