节点500_145_QEPB04081__465__11-36-22-543.txt的数据

Date: Wed Nov 12 11:36:22 CST 2025
User: PC
Spectrometer: QEPB0408
触发模式: 0
积分时间 (秒): 1.000000E-2
Scans to average: 1
启用暗噪声校正: true
启用非线性校正: false
滑动平均宽度: 0
X轴模式: Wavelengths
Number of Pixels in Spectrum: 1044
>>>>>Begin Spectral Data<<<<<
220.843	2.62
221.644	-1.38
222.444	0.62
223.244	1.62
224.045	-2.38
224.845	-0.38
225.645	0.62
226.445	-1.38
227.245	1.62
228.045	2.62
228.845	-0.38
229.645	-0.38
230.444	0.62
231.244	0.62
232.043	1.62
232.843	0.62
233.642	1.62
234.442	0.62
235.241	0.62
236.04	2.62
236.839	-0.38
237.638	1.62
238.437	0.62
239.236	2.62
240.035	0.62
240.833	1.62
241.632	1.62
242.43	1.62
243.229	2.62
244.027	2.62
244.826	2.62
245.624	1.62
246.422	1.62
247.22	2.62
248.018	1.62
248.816	3.62
249.614	4.62
250.412	3.62
251.21	3.62
252.007	1.62
252.805	2.62
253.602	1.62
254.4	0.62
255.197	3.62
255.994	5.62
256.791	2.62
257.589	2.62
258.386	4.62
259.183	2.62
259.979	6.62
260.776	1.62
261.573	5.62
262.37	4.62
263.166	5.62
263.963	5.62
264.759	5.62
265.556	6.62
266.352	5.62
267.148	5.62
267.944	5.62
268.74	4.62
269.536	5.62
270.332	5.62
271.128	6.62
271.924	6.62
272.719	7.62
273.515	9.62
274.311	10.62
275.106	13.62
275.901	11.62
276.697	10.62
277.492	10.62
278.287	7.62
279.082	7.62
279.877	9.62
280.672	10.62
281.467	10.62
282.262	9.62
283.056	9.62
283.851	11.62
284.646	10.62
285.44	9.62
286.234	11.62
287.029	10.62
287.823	11.62
288.617	11.62
289.411	9.62
290.205	11.62
290.999	7.62
291.793	12.62
292.587	7.62
293.381	11.62
294.174	10.62
294.968	7.62
295.761	12.62
296.555	9.62
297.348	9.62
298.141	9.62
298.935	10.62
299.728	9.62
300.521	7.62
301.314	11.62
302.107	9.62
302.899	8.62
303.692	8.62
304.485	9.62
305.277	9.62
306.07	8.62
306.862	9.62
307.655	9.62
308.447	8.62
309.239	10.62
310.031	7.62
310.823	5.62
311.615	4.62
312.407	6.62
313.199	7.62
313.991	5.62
314.783	4.62
315.574	5.62
316.366	8.62
317.157	8.62
317.949	6.62
318.74	3.62
319.531	4.62
320.322	2.62
321.113	5.62
321.904	6.62
322.695	5.62
323.486	7.62
324.277	5.62
325.068	6.62
325.858	5.62
326.649	4.62
327.439	3.62
328.23	3.62
329.02	6.62
329.81	2.62
330.6	5.62
331.391	4.62
332.181	3.62
332.971	2.62
333.76	1.62
334.55	4.62
335.34	3.62
336.13	3.62
336.919	4.62
337.709	4.62
338.498	5.62
339.287	4.62
340.077	4.62
340.866	3.62
341.655	3.62
342.444	4.62
343.233	1.62
344.022	2.62
344.811	2.62
345.6	3.62
346.388	2.62
347.177	5.62
347.965	2.62
348.754	0.62
349.542	3.62
350.33	6.62
351.119	3.62
351.907	4.62
352.695	2.62
353.483	2.62
354.271	3.62
355.059	3.62
355.846	5.62
356.634	2.62
357.422	1.62
358.209	4.62
358.997	2.62
359.784	1.62
360.571	2.62
361.359	3.62
362.146	4.62
362.933	3.62
363.72	0.62
364.507	3.62
365.294	0.62
366.081	1.62
366.867	3.62
367.654	4.62
368.44	5.62
369.227	2.62
370.013	1.62
370.8	3.62
371.586	3.62
372.372	3.62
373.158	1.62
373.944	3.62
374.73	3.62
375.516	2.62
376.302	0.62
377.088	4.62
377.873	2.62
378.659	3.62
379.445	0.62
380.23	0.62
381.015	1.62
381.801	2.62
382.586	3.62
383.371	3.62
384.156	3.62
384.941	2.62
385.726	2.62
386.511	2.62
387.296	3.62
388.08	5.62
388.865	2.62
389.649	5.62
390.434	2.62
391.218	1.62
392.003	2.62
392.787	1.62
393.571	4.62
394.355	3.62
395.139	4.62
395.923	1.62
396.707	4.62
397.491	3.62
398.274	2.62
399.058	5.62
399.842	4.62
400.625	4.62
401.408	3.62
402.192	3.62
402.975	5.62
403.758	5.62
404.541	1.62
405.324	4.62
406.107	3.62
406.89	3.62
407.673	4.62
408.456	3.62
409.238	5.62
410.021	4.62
410.803	5.62
411.586	3.62
412.368	5.62
413.151	5.62
413.933	3.62
414.715	2.62
415.497	2.62
416.279	7.62
417.061	3.62
417.843	4.62
418.624	5.62
419.406	3.62
420.188	5.62
420.969	5.62
421.751	4.62
422.532	5.62
423.313	5.62
424.095	6.62
424.876	7.62
425.657	5.62
426.438	7.62
427.219	4.62
428	6.62
428.78	8.62
429.561	4.62
430.342	8.62
431.122	8.62
431.903	7.62
432.683	6.62
433.464	9.62
434.244	8.62
435.024	8.62
435.804	8.62
436.584	8.62
437.364	11.62
438.144	10.62
438.924	9.62
439.704	11.62
440.483	8.62
441.263	12.62
442.042	10.62
442.822	14.62
443.601	12.62
444.38	16.62
445.16	15.62
445.939	16.62
446.718	20.62
447.497	20.62
448.276	20.62
449.054	23.62
449.833	23.62
450.612	29.62
451.391	28.62
452.169	31.62
452.948	32.62
453.726	37.62
454.504	40.62
455.282	41.62
456.061	46.62
456.839	54.62
457.617	55.62
458.395	65.62
459.172	71.62
459.95	78.62
460.728	91.62
461.506	98.62
462.283	107.62
463.061	121.62
463.838	128.62
464.615	154.62
465.393	162.62
466.17	182.62
466.947	209.62
467.724	225.62
468.501	252.62
469.278	275.62
470.055	315.62
470.831	339.62
471.608	378.62
472.385	432.62
473.161	472.62
473.938	525.62
474.714	586.62
475.49	647.62
476.266	713.62
477.043	787.62
477.819	867.62
478.595	955.62
479.371	1057.62
480.146	1159.62
480.922	1274.62
481.698	1405.62
482.473	1545.62
483.249	1693.62
484.024	1871.62
484.8	2033.62
485.575	2259.62
486.35	2467.62
487.126	2712.62
487.901	2971.62
488.676	3248.62
489.451	3586.62
490.225	3917.62
491	4255.62
491.775	4712.62
492.55	5121.62
493.324	5594.62
494.099	6104.62
494.873	6659.62
495.647	7229.62
496.422	7871.62
497.196	8499.62
497.97	9139.62
498.744	9803.62
499.518	10560.62
500.292	11217.62
501.066	11929.62
501.839	12561.62
502.613	13197.62
503.387	13878.62
504.16	14366.62
504.934	14832.62
505.707	15273.62
506.48	15548.62
507.253	15776.62
508.027	15936.62
508.8	15974.62
509.573	15857.62
510.346	15722.62
511.118	15450.62
511.891	15158.62
512.664	14683.62
513.437	14255.62
514.209	13824.62
514.982	13252.62
515.754	12750.62
516.526	12259.62
517.298	11721.62
518.071	11205.62
518.843	10766.62
519.615	10281.62
520.387	9853.62
521.159	9457.62
521.93	9090.62
522.702	8729.62
523.474	8372.62
524.245	8083.62
525.017	7739.62
525.788	7412.62
526.56	7127.62
527.331	6817.62
528.102	6550.62
528.873	6262.62
529.644	5986.62
530.415	5731.62
531.186	5476.62
531.957	5223.62
532.728	4952.62
533.498	4662.62
534.269	4435.62
535.039	4203.62
535.81	3963.62
536.58	3767.62
537.351	3540.62
538.121	3364.62
538.891	3165.62
539.661	3001.62
540.431	2830.62
541.201	2677.62
541.971	2530.62
542.741	2398.62
543.51	2276.62
544.28	2177.62
545.05	2059.62
545.819	1945.62
546.588	1861.62
547.358	1763.62
548.127	1680.62
548.896	1595.62
549.665	1500.62
550.434	1436.62
551.203	1377.62
551.972	1303.62
552.741	1226.62
553.51	1166.62
554.278	1099.62
555.047	1042.62
555.815	980.62
556.584	925.62
557.352	870.62
558.121	817.62
558.889	775.62
559.657	732.62
560.425	700.62
561.193	651.62
561.961	615.62
562.729	573.62
563.496	556.62
564.264	516.62
565.032	494.62
565.799	469.62
566.567	433.62
567.334	407.62
568.101	392.62
568.869	371.62
569.636	341.62
570.403	333.62
571.17	314.62
571.937	292.62
572.704	270.62
573.471	251.62
574.237	242.62
575.004	231.62
575.771	215.62
576.537	194.62
577.303	190.62
578.07	178.62
578.836	169.62
579.602	160.62
580.368	148.62
581.134	142.62
581.9	138.62
582.666	127.62
583.432	120.62
584.198	117.62
584.964	108.62
585.729	103.62
586.495	97.62
587.26	93.62
588.025	88.62
588.791	82.62
589.556	77.62
590.321	75.62
591.086	69.62
591.851	67.62
592.616	63.62
593.381	60.62
594.146	54.62
594.911	50.62
595.675	47.62
596.44	48.62
597.204	45.62
597.969	41.62
598.733	39.62
599.497	39.62
600.261	36.62
601.025	37.62
601.79	33.62
602.553	34.62
603.317	31.62
604.081	30.62
604.845	28.62
605.609	28.62
606.372	25.62
607.136	23.62
607.899	23.62
608.662	24.62
609.426	21.62
610.189	21.62
610.952	21.62
611.715	17.62
612.478	17.62
613.241	19.62
614.004	16.62
614.767	17.62
615.529	17.62
616.292	16.62
617.055	13.62
617.817	16.62
618.579	12.62
619.342	11.62
620.104	15.62
620.866	11.62
621.628	11.62
622.39	13.62
623.152	8.62
623.914	13.62
624.676	10.62
625.438	9.62
626.199	11.62
626.961	8.62
627.722	10.62
628.484	8.62
629.245	6.62
630.006	9.62
630.768	8.62
631.529	7.62
632.29	6.62
633.051	6.62
633.812	6.62
634.573	9.62
635.333	7.62
636.094	6.62
636.855	8.62
637.615	7.62
638.376	4.62
639.136	4.62
639.896	5.62
640.657	7.62
641.417	5.62
642.177	5.62
642.937	4.62
643.697	5.62
644.457	5.62
645.216	6.62
645.976	6.62
646.736	5.62
647.495	4.62
648.255	5.62
649.014	5.62
649.774	3.62
650.533	5.62
651.292	5.62
652.051	3.62
652.81	3.62
653.569	4.62
654.328	4.62
655.087	4.62
655.846	3.62
656.604	2.62
657.363	0.62
658.121	2.62
658.88	2.62
659.638	3.62
660.397	1.62
661.155	3.62
661.913	3.62
662.671	4.62
663.429	3.62
664.187	3.62
664.945	1.62
665.703	1.62
666.46	3.62
667.218	2.62
667.976	3.62
668.733	2.62
669.49	4.62
670.248	3.62
671.005	2.62
671.762	4.62
672.519	1.62
673.276	2.62
674.033	3.62
674.79	0.62
675.547	1.62
676.304	3.62
677.06	3.62
677.817	2.62
678.574	2.62
679.33	5.62
680.086	1.62
680.843	2.62
681.599	2.62
682.355	2.62
683.111	1.62
683.867	1.62
684.623	2.62
685.379	0.62
686.135	2.62
686.89	3.62
687.646	1.62
688.402	4.62
689.157	3.62
689.912	2.62
690.668	1.62
691.423	1.62
692.178	-1.38
692.933	5.62
693.688	2.62
694.443	0.62
695.198	2.62
695.953	3.62
696.708	3.62
697.462	4.62
698.217	2.62
698.972	2.62
699.726	1.62
700.48	1.62
701.235	1.62
701.989	2.62
702.743	1.62
703.497	1.62
704.251	1.62
705.005	2.62
705.759	2.62
706.513	1.62
707.266	1.62
708.02	1.62
708.774	3.62
709.527	1.62
710.28	1.62
711.034	3.62
711.787	-0.38
712.54	2.62
713.293	1.62
714.046	1.62
714.799	4.62
715.552	2.62
716.305	3.62
717.058	0.62
717.81	2.62
718.563	2.62
719.315	1.62
720.068	2.62
720.82	0.62
721.573	1.62
722.325	-0.38
723.077	0.62
723.829	2.62
724.581	2.62
725.333	1.62
726.085	0.62
726.836	2.62
727.588	1.62
728.34	3.62
729.091	1.62
729.843	2.62
730.594	2.62
731.346	-1.38
732.097	4.62
732.848	3.62
733.599	3.62
734.35	2.62
735.101	1.62
735.852	2.62
736.603	1.62
737.354	2.62
738.104	1.62
738.855	2.62
739.605	1.62
740.356	1.62
741.106	3.62
741.856	2.62
742.607	0.62
743.357	0.62
744.107	4.62
744.857	4.62
745.607	2.62
746.357	1.62
747.106	3.62
747.856	1.62
748.606	1.62
749.355	1.62
750.105	4.62
750.854	2.62
751.603	3.62
752.353	-0.38
753.102	2.62
753.851	2.62
754.6	2.62
755.349	2.62
756.098	1.62
756.847	3.62
757.595	3.62
758.344	1.62
759.093	2.62
759.841	3.62
760.589	2.62
761.338	1.62
762.086	2.62
762.834	1.62
763.582	2.62
764.331	5.62
765.079	3.62
765.826	4.62
766.574	2.62
767.322	3.62
768.07	2.62
768.817	4.62
769.565	1.62
770.312	3.62
771.06	5.62
771.807	4.62
772.554	4.62
773.302	4.62
774.049	3.62
774.796	3.62
775.543	3.62
776.29	5.62
777.036	4.62
777.783	4.62
778.53	5.62
779.276	2.62
780.023	4.62
780.769	6.62
781.516	5.62
782.262	2.62
783.008	4.62
783.754	5.62
784.5	5.62
785.246	4.62
785.992	4.62
786.738	5.62
787.484	4.62
788.23	3.62
788.975	7.62
789.721	5.62
790.466	5.62
791.212	5.62
791.957	5.62
792.702	2.62
793.447	5.62
794.193	5.62
794.938	3.62
795.683	5.62
796.427	3.62
797.172	5.62
797.917	5.62
798.662	5.62
799.406	4.62
800.151	5.62
800.895	3.62
801.64	4.62
802.384	5.62
803.128	4.62
803.872	6.62
804.616	2.62
805.36	5.62
806.104	1.62
806.848	2.62
807.592	7.62
808.336	3.62
809.079	2.62
809.823	2.62
810.566	1.62
811.31	4.62
812.053	3.62
812.796	4.62
813.539	4.62
814.283	3.62
815.026	3.62
815.769	0.62
816.511	4.62
817.254	5.62
817.997	2.62
818.74	4.62
819.482	3.62
820.225	3.62
820.967	1.62
821.71	4.62
822.452	3.62
823.194	3.62
823.936	1.62
824.678	4.62
825.42	2.62
826.162	3.62
826.904	3.62
827.646	1.62
828.388	3.62
829.129	5.62
829.871	5.62
830.612	2.62
831.354	2.62
832.095	1.62
832.836	3.62
833.577	3.62
834.319	2.62
835.06	2.62
835.801	2.62
836.542	3.62
837.282	1.62
838.023	1.62
838.764	2.62
839.504	2.62
840.245	2.62
840.985	2.62
841.726	1.62
842.466	1.62
843.206	2.62
843.946	1.62
844.687	2.62
845.427	2.62
846.166	4.62
846.906	2.62
847.646	2.62
848.386	1.62
849.125	2.62
849.865	2.62
850.605	2.62
851.344	4.62
852.083	1.62
852.823	2.62
853.562	1.62
854.301	2.62
855.04	2.62
855.779	0.62
856.518	1.62
857.257	1.62
857.995	2.62
858.734	2.62
859.473	3.62
860.211	1.62
860.95	0.62
861.688	3.62
862.426	-0.38
863.165	3.62
863.903	3.62
864.641	-0.38
865.379	0.62
866.117	1.62
866.855	-0.38
867.593	1.62
868.33	2.62
869.068	2.62
869.806	1.62
870.543	0.62
871.28	0.62
872.018	2.62
872.755	-1.38
873.492	3.62
874.229	0.62
874.967	-0.38
875.703	1.62
876.44	1.62
877.177	-0.38
877.914	1.62
878.651	3.62
879.387	-0.38
880.124	-1.38
880.86	0.62
881.597	1.62
882.333	0.62
883.069	0.62
883.806	-0.38
884.542	0.62
885.278	2.62
886.014	1.62
886.749	1.62
887.485	0.62
888.221	-0.38
888.957	1.62
889.692	2.62
890.428	-0.38
891.163	2.62
891.899	1.62
892.634	1.62
893.369	-1.38
894.104	-0.38
894.839	1.62
895.574	1.62
896.309	1.62
897.044	0.62
897.779	0.62
898.514	1.62
899.248	-0.38
899.983	-1.38
900.717	2.62
901.452	1.62
902.186	-2.38
902.92	0.62
903.654	0.62
904.389	1.62
905.123	1.62
905.857	-0.38
906.59	0.62
907.324	1.62
908.058	-0.38
908.792	3.62
909.525	2.62
910.259	1.62
910.992	0.62
911.726	1.62
912.459	2.62
913.192	2.62
913.925	1.62
914.658	1.62
915.391	0.62
916.124	0.62
916.857	-1.38
917.59	1.62
918.323	0.62
919.055	0.62
919.788	2.62
920.521	1.62
921.253	-2.38
921.985	0.62
922.718	-1.38
923.45	-0.38
924.182	-0.38
924.914	0.62
925.646	-0.38
926.378	2.62
927.11	0.62
927.841	-0.38
928.573	1.62
929.305	-0.38
930.036	1.62
930.768	1.62
931.499	-1.38
932.23	1.62
932.962	0.62
933.693	1.62
934.424	1.62
935.155	0.62
935.886	2.62
936.617	1.62
937.348	2.62
938.078	-1.38
938.809	-0.38
939.54	0.62
940.27	1.62
941.001	0.62
941.731	-2.38
942.461	2.62
943.191	0.62
943.922	0.62
944.652	-0.38
945.382	0.62
946.112	-0.38
946.841	0.62
947.571	1.62
948.301	0.62
949.031	1.62
949.76	2.62
950.49	1.62
951.219	0.62
951.948	0.62
952.678	1.62
953.407	-0.38
954.136	0.62
954.865	-1.38
955.594	2.62
956.323	0.62
957.052	-0.38
957.78	1.62
958.509	1.62
959.238	1.62
959.966	-0.38
960.695	1.62
961.423	-0.38
962.151	-2.38
962.88	1.62
963.608	-0.38
964.336	0.62
965.064	1.62
965.792	0.62
966.52	-0.38
967.247	-2.38
967.975	0.62
968.703	-0.38
969.43	1.62
970.158	-0.38
970.885	-0.38
971.613	1.62
972.34	-1.38
973.067	1.62
973.794	-0.38
974.521	2.62
975.248	0.62
975.975	-0.38
976.702	1.62
977.429	0.62
978.156	1.62
978.882	-2.38
979.609	2.62
980.335	-1.38
981.062	0.62
981.788	1.62
982.514	0.62
983.24	0.62
983.967	1.62
984.693	-0.38
985.419	-0.38
986.144	-1.38
986.87	0.62
987.596	0.62
988.322	-0.38
989.047	-1.38
989.773	0.62
990.498	0.62
991.224	0.62
991.949	1.62
992.674	-1.38
993.399	-1.38
994.124	0.62
994.849	1.62
995.574	-0.38
996.299	0.62
997.024	-1.38
997.749	-0.38
998.473	0.62
999.198	-2.38
999.922	-1.38
1000.647	-1.38
1001.371	2.62
1002.095	1.62
1002.82	-1.38
1003.544	-1.38
1004.268	-0.38
1004.992	0.62
1005.716	-1.38
1006.439	-0.38
1007.163	-1.38
1007.887	-0.38
1008.611	-0.38
1009.334	3.62
1010.058	-1.38
1010.781	0.62
1011.504	1.62
1012.228	1.62
1012.951	-1.38
1013.674	-0.38
1014.397	0.62
1015.12	-0.38
