节点500_145_QEPB04081__166__11-31-36-561.txt的数据

Date: Wed Nov 12 11:31:36 CST 2025
User: PC
Spectrometer: QEPB0408
触发模式: 0
积分时间 (秒): 1.000000E-2
Scans to average: 1
启用暗噪声校正: true
启用非线性校正: false
滑动平均宽度: 0
X轴模式: Wavelengths
Number of Pixels in Spectrum: 1044
>>>>>Begin Spectral Data<<<<<
220.843	0.75
221.644	0.75
222.444	-1.25
223.244	1.75
224.045	0.75
224.845	-0.25
225.645	-0.25
226.445	-1.25
227.245	-0.25
228.045	0.75
228.845	-0.25
229.645	1.75
230.444	0.75
231.244	1.75
232.043	1.75
232.843	-0.25
233.642	-1.25
234.442	1.75
235.241	1.75
236.04	0.75
236.839	2.75
237.638	-1.25
238.437	0.75
239.236	0.75
240.035	1.75
240.833	1.75
241.632	-1.25
242.43	1.75
243.229	0.75
244.027	0.75
244.826	1.75
245.624	1.75
246.422	0.75
247.22	2.75
248.018	0.75
248.816	4.75
249.614	2.75
250.412	1.75
251.21	0.75
252.007	1.75
252.805	0.75
253.602	3.75
254.4	1.75
255.197	2.75
255.994	4.75
256.791	2.75
257.589	2.75
258.386	4.75
259.183	4.75
259.979	2.75
260.776	5.75
261.573	5.75
262.37	2.75
263.166	6.75
263.963	6.75
264.759	7.75
265.556	5.75
266.352	6.75
267.148	7.75
267.944	6.75
268.74	8.75
269.536	5.75
270.332	7.75
271.128	6.75
271.924	9.75
272.719	11.75
273.515	9.75
274.311	7.75
275.106	8.75
275.901	10.75
276.697	7.75
277.492	8.75
278.287	8.75
279.082	9.75
279.877	10.75
280.672	7.75
281.467	11.75
282.262	11.75
283.056	8.75
283.851	10.75
284.646	9.75
285.44	11.75
286.234	10.75
287.029	12.75
287.823	10.75
288.617	11.75
289.411	9.75
290.205	12.75
290.999	10.75
291.793	10.75
292.587	9.75
293.381	8.75
294.174	10.75
294.968	10.75
295.761	6.75
296.555	9.75
297.348	9.75
298.141	9.75
298.935	10.75
299.728	6.75
300.521	10.75
301.314	9.75
302.107	9.75
302.899	7.75
303.692	7.75
304.485	8.75
305.277	6.75
306.07	7.75
306.862	7.75
307.655	7.75
308.447	8.75
309.239	7.75
310.031	7.75
310.823	7.75
311.615	4.75
312.407	3.75
313.199	6.75
313.991	6.75
314.783	6.75
315.574	5.75
316.366	4.75
317.157	6.75
317.949	0.75
318.74	4.75
319.531	3.75
320.322	2.75
321.113	5.75
321.904	5.75
322.695	3.75
323.486	4.75
324.277	3.75
325.068	4.75
325.858	2.75
326.649	5.75
327.439	2.75
328.23	3.75
329.02	3.75
329.81	1.75
330.6	2.75
331.391	4.75
332.181	5.75
332.971	1.75
333.76	2.75
334.55	2.75
335.34	2.75
336.13	4.75
336.919	2.75
337.709	2.75
338.498	2.75
339.287	3.75
340.077	2.75
340.866	1.75
341.655	3.75
342.444	3.75
343.233	3.75
344.022	3.75
344.811	3.75
345.6	2.75
346.388	4.75
347.177	3.75
347.965	3.75
348.754	1.75
349.542	2.75
350.33	2.75
351.119	2.75
351.907	2.75
352.695	2.75
353.483	1.75
354.271	2.75
355.059	3.75
355.846	1.75
356.634	2.75
357.422	2.75
358.209	4.75
358.997	2.75
359.784	0.75
360.571	1.75
361.359	5.75
362.146	1.75
362.933	1.75
363.72	3.75
364.507	1.75
365.294	3.75
366.081	1.75
366.867	3.75
367.654	0.75
368.44	2.75
369.227	0.75
370.013	0.75
370.8	1.75
371.586	4.75
372.372	2.75
373.158	0.75
373.944	0.75
374.73	2.75
375.516	2.75
376.302	2.75
377.088	3.75
377.873	2.75
378.659	4.75
379.445	2.75
380.23	2.75
381.015	0.75
381.801	1.75
382.586	1.75
383.371	3.75
384.156	1.75
384.941	3.75
385.726	4.75
386.511	2.75
387.296	2.75
388.08	1.75
388.865	3.75
389.649	1.75
390.434	1.75
391.218	3.75
392.003	3.75
392.787	2.75
393.571	4.75
394.355	0.75
395.139	2.75
395.923	2.75
396.707	4.75
397.491	2.75
398.274	0.75
399.058	1.75
399.842	4.75
400.625	3.75
401.408	1.75
402.192	3.75
402.975	0.75
403.758	3.75
404.541	5.75
405.324	3.75
406.107	2.75
406.89	1.75
407.673	4.75
408.456	3.75
409.238	2.75
410.021	2.75
410.803	3.75
411.586	4.75
412.368	4.75
413.151	2.75
413.933	4.75
414.715	4.75
415.497	4.75
416.279	4.75
417.061	4.75
417.843	3.75
418.624	5.75
419.406	6.75
420.188	4.75
420.969	6.75
421.751	3.75
422.532	3.75
423.313	5.75
424.095	8.75
424.876	3.75
425.657	5.75
426.438	7.75
427.219	6.75
428	8.75
428.78	5.75
429.561	5.75
430.342	6.75
431.122	8.75
431.903	6.75
432.683	5.75
433.464	8.75
434.244	7.75
435.024	5.75
435.804	6.75
436.584	8.75
437.364	11.75
438.144	8.75
438.924	10.75
439.704	7.75
440.483	9.75
441.263	11.75
442.042	9.75
442.822	13.75
443.601	9.75
444.38	13.75
445.16	13.75
445.939	16.75
446.718	17.75
447.497	15.75
448.276	17.75
449.054	19.75
449.833	21.75
450.612	24.75
451.391	25.75
452.169	27.75
452.948	30.75
453.726	29.75
454.504	34.75
455.282	39.75
456.061	39.75
456.839	46.75
457.617	52.75
458.395	52.75
459.172	62.75
459.95	74.75
460.728	80.75
461.506	84.75
462.283	93.75
463.061	103.75
463.838	118.75
464.615	133.75
465.393	148.75
466.17	164.75
466.947	182.75
467.724	205.75
468.501	224.75
469.278	250.75
470.055	282.75
470.831	317.75
471.608	365.75
472.385	391.75
473.161	446.75
473.938	490.75
474.714	546.75
475.49	606.75
476.266	678.75
477.043	749.75
477.819	824.75
478.595	920.75
479.371	1034.75
480.146	1134.75
480.922	1257.75
481.698	1397.75
482.473	1535.75
483.249	1700.75
484.024	1882.75
484.8	2098.75
485.575	2312.75
486.35	2555.75
487.126	2829.75
487.901	3137.75
488.676	3437.75
489.451	3828.75
490.225	4242.75
491	4635.75
491.775	5123.75
492.55	5664.75
493.324	6231.75
494.099	6798.75
494.873	7440.75
495.647	8118.75
496.422	8838.75
497.196	9546.75
497.97	10322.75
498.744	11165.75
499.518	11964.75
500.292	12684.75
501.066	13471.75
501.839	14156.75
502.613	14831.75
503.387	15479.75
504.16	16024.75
504.934	16453.75
505.707	16788.75
506.48	16983.75
507.253	17131.75
508.027	17079.75
508.8	16975.75
509.573	16735.75
510.346	16388.75
511.118	16043.75
511.891	15465.75
512.664	15021.75
513.437	14378.75
514.209	13839.75
514.982	13230.75
515.754	12698.75
516.526	12070.75
517.298	11535.75
518.071	11021.75
518.843	10528.75
519.615	10065.75
520.387	9671.75
521.159	9306.75
521.93	8902.75
522.702	8533.75
523.474	8209.75
524.245	7921.75
525.017	7577.75
525.788	7301.75
526.56	6978.75
527.331	6716.75
528.102	6378.75
528.873	6098.75
529.644	5834.75
530.415	5546.75
531.186	5263.75
531.957	4997.75
532.728	4717.75
533.498	4484.75
534.269	4237.75
535.039	4001.75
535.81	3755.75
536.58	3532.75
537.351	3343.75
538.121	3161.75
538.891	2993.75
539.661	2836.75
540.431	2669.75
541.201	2530.75
541.971	2375.75
542.741	2261.75
543.51	2139.75
544.28	2036.75
545.05	1933.75
545.819	1843.75
546.588	1755.75
547.358	1664.75
548.127	1594.75
548.896	1511.75
549.665	1436.75
550.434	1368.75
551.203	1286.75
551.972	1216.75
552.741	1158.75
553.51	1083.75
554.278	1037.75
555.047	976.75
555.815	922.75
556.584	860.75
557.352	810.75
558.121	764.75
558.889	715.75
559.657	673.75
560.425	641.75
561.193	604.75
561.961	565.75
562.729	538.75
563.496	509.75
564.264	472.75
565.032	444.75
565.799	421.75
566.567	400.75
567.334	385.75
568.101	358.75
568.869	339.75
569.636	320.75
570.403	302.75
571.17	280.75
571.937	264.75
572.704	255.75
573.471	237.75
574.237	225.75
575.004	218.75
575.771	200.75
576.537	188.75
577.303	179.75
578.07	164.75
578.836	156.75
579.602	151.75
580.368	140.75
581.134	132.75
581.9	125.75
582.666	117.75
583.432	107.75
584.198	106.75
584.964	100.75
585.729	89.75
586.495	89.75
587.26	83.75
588.025	80.75
588.791	74.75
589.556	71.75
590.321	66.75
591.086	65.75
591.851	56.75
592.616	56.75
593.381	58.75
594.146	53.75
594.911	47.75
595.675	46.75
596.44	42.75
597.204	42.75
597.969	40.75
598.733	38.75
599.497	36.75
600.261	36.75
601.025	32.75
601.79	29.75
602.553	28.75
603.317	29.75
604.081	31.75
604.845	27.75
605.609	26.75
606.372	24.75
607.136	22.75
607.899	20.75
608.662	22.75
609.426	21.75
610.189	19.75
610.952	17.75
611.715	16.75
612.478	16.75
613.241	15.75
614.004	15.75
614.767	17.75
615.529	15.75
616.292	16.75
617.055	13.75
617.817	13.75
618.579	13.75
619.342	12.75
620.104	11.75
620.866	11.75
621.628	10.75
622.39	10.75
623.152	10.75
623.914	10.75
624.676	12.75
625.438	8.75
626.199	9.75
626.961	7.75
627.722	8.75
628.484	9.75
629.245	5.75
630.006	9.75
630.768	6.75
631.529	7.75
632.29	5.75
633.051	7.75
633.812	6.75
634.573	9.75
635.333	6.75
636.094	4.75
636.855	4.75
637.615	1.75
638.376	5.75
639.136	2.75
639.896	5.75
640.657	6.75
641.417	5.75
642.177	3.75
642.937	2.75
643.697	5.75
644.457	4.75
645.216	2.75
645.976	3.75
646.736	4.75
647.495	3.75
648.255	3.75
649.014	3.75
649.774	4.75
650.533	4.75
651.292	3.75
652.051	2.75
652.81	3.75
653.569	1.75
654.328	5.75
655.087	4.75
655.846	5.75
656.604	2.75
657.363	2.75
658.121	4.75
658.88	4.75
659.638	2.75
660.397	4.75
661.155	1.75
661.913	2.75
662.671	0.75
663.429	1.75
664.187	1.75
664.945	1.75
665.703	2.75
666.46	2.75
667.218	0.75
667.976	1.75
668.733	1.75
669.49	1.75
670.248	3.75
671.005	4.75
671.762	2.75
672.519	2.75
673.276	2.75
674.033	1.75
674.79	3.75
675.547	0.75
676.304	1.75
677.06	0.75
677.817	2.75
678.574	1.75
679.33	1.75
680.086	1.75
680.843	2.75
681.599	1.75
682.355	1.75
683.111	1.75
683.867	1.75
684.623	3.75
685.379	1.75
686.135	2.75
686.89	0.75
687.646	0.75
688.402	1.75
689.157	2.75
689.912	0.75
690.668	-0.25
691.423	3.75
692.178	3.75
692.933	1.75
693.688	2.75
694.443	0.75
695.198	2.75
695.953	1.75
696.708	0.75
697.462	0.75
698.217	2.75
698.972	3.75
699.726	0.75
700.48	0.75
701.235	1.75
701.989	0.75
702.743	1.75
703.497	-0.25
704.251	2.75
705.005	4.75
705.759	2.75
706.513	0.75
707.266	0.75
708.02	0.75
708.774	2.75
709.527	1.75
710.28	1.75
711.034	2.75
711.787	3.75
712.54	-0.25
713.293	2.75
714.046	0.75
714.799	1.75
715.552	1.75
716.305	-0.25
717.058	3.75
717.81	1.75
718.563	3.75
719.315	0.75
720.068	2.75
720.82	1.75
721.573	0.75
722.325	2.75
723.077	-0.25
723.829	1.75
724.581	0.75
725.333	4.75
726.085	0.75
726.836	1.75
727.588	2.75
728.34	0.75
729.091	2.75
729.843	1.75
730.594	1.75
731.346	2.75
732.097	1.75
732.848	1.75
733.599	2.75
734.35	1.75
735.101	1.75
735.852	1.75
736.603	0.75
737.354	1.75
738.104	3.75
738.855	2.75
739.605	0.75
740.356	3.75
741.106	1.75
741.856	0.75
742.607	0.75
743.357	1.75
744.107	1.75
744.857	0.75
745.607	0.75
746.357	1.75
747.106	3.75
747.856	4.75
748.606	2.75
749.355	-0.25
750.105	1.75
750.854	1.75
751.603	3.75
752.353	-0.25
753.102	2.75
753.851	0.75
754.6	1.75
755.349	1.75
756.098	0.75
756.847	3.75
757.595	1.75
758.344	1.75
759.093	3.75
759.841	0.75
760.589	4.75
761.338	4.75
762.086	2.75
762.834	3.75
763.582	2.75
764.331	2.75
765.079	2.75
765.826	0.75
766.574	3.75
767.322	3.75
768.07	4.75
768.817	3.75
769.565	2.75
770.312	4.75
771.06	3.75
771.807	1.75
772.554	4.75
773.302	4.75
774.049	3.75
774.796	4.75
775.543	5.75
776.29	4.75
777.036	3.75
777.783	5.75
778.53	4.75
779.276	1.75
780.023	3.75
780.769	6.75
781.516	6.75
782.262	3.75
783.008	3.75
783.754	4.75
784.5	4.75
785.246	4.75
785.992	3.75
786.738	4.75
787.484	4.75
788.23	4.75
788.975	4.75
789.721	5.75
790.466	7.75
791.212	3.75
791.957	4.75
792.702	4.75
793.447	5.75
794.193	4.75
794.938	5.75
795.683	2.75
796.427	4.75
797.172	5.75
797.917	3.75
798.662	5.75
799.406	4.75
800.151	3.75
800.895	4.75
801.64	2.75
802.384	1.75
803.128	5.75
803.872	4.75
804.616	4.75
805.36	4.75
806.104	5.75
806.848	3.75
807.592	3.75
808.336	3.75
809.079	2.75
809.823	2.75
810.566	4.75
811.31	1.75
812.053	5.75
812.796	2.75
813.539	4.75
814.283	-0.25
815.026	3.75
815.769	3.75
816.511	3.75
817.254	1.75
817.997	2.75
818.74	3.75
819.482	2.75
820.225	4.75
820.967	2.75
821.71	4.75
822.452	4.75
823.194	1.75
823.936	2.75
824.678	0.75
825.42	4.75
826.162	1.75
826.904	1.75
827.646	3.75
828.388	2.75
829.129	1.75
829.871	0.75
830.612	4.75
831.354	2.75
832.095	1.75
832.836	1.75
833.577	3.75
834.319	2.75
835.06	0.75
835.801	3.75
836.542	1.75
837.282	1.75
838.023	4.75
838.764	0.75
839.504	2.75
840.245	1.75
840.985	-0.25
841.726	2.75
842.466	1.75
843.206	1.75
843.946	1.75
844.687	0.75
845.427	-0.25
846.166	3.75
846.906	-0.25
847.646	2.75
848.386	1.75
849.125	0.75
849.865	2.75
850.605	-0.25
851.344	4.75
852.083	3.75
852.823	2.75
853.562	1.75
854.301	0.75
855.04	2.75
855.779	3.75
856.518	-0.25
857.257	1.75
857.995	0.75
858.734	4.75
859.473	0.75
860.211	1.75
860.95	2.75
861.688	0.75
862.426	0.75
863.165	-0.25
863.903	1.75
864.641	-0.25
865.379	1.75
866.117	0.75
866.855	-1.25
867.593	0.75
868.33	0.75
869.068	-0.25
869.806	0.75
870.543	0.75
871.28	1.75
872.018	-1.25
872.755	1.75
873.492	1.75
874.229	2.75
874.967	-2.25
875.703	2.75
876.44	0.75
877.177	0.75
877.914	1.75
878.651	-2.25
879.387	2.75
880.124	0.75
880.86	-0.25
881.597	-0.25
882.333	-0.25
883.069	1.75
883.806	0.75
884.542	2.75
885.278	-1.25
886.014	1.75
886.749	1.75
887.485	-1.25
888.221	-0.25
888.957	0.75
889.692	0.75
890.428	-0.25
891.163	-1.25
891.899	0.75
892.634	1.75
893.369	2.75
894.104	-2.25
894.839	0.75
895.574	1.75
896.309	-1.25
897.044	1.75
897.779	-0.25
898.514	-0.25
899.248	0.75
899.983	1.75
900.717	-0.25
901.452	1.75
902.186	-1.25
902.92	-2.25
903.654	1.75
904.389	-1.25
905.123	-0.25
905.857	-0.25
906.59	0.75
907.324	0.75
908.058	-2.25
908.792	1.75
909.525	1.75
910.259	0.75
910.992	-0.25
911.726	0.75
912.459	1.75
913.192	-1.25
913.925	0.75
914.658	-0.25
915.391	-0.25
916.124	-2.25
916.857	-1.25
917.59	-3.25
918.323	0.75
919.055	0.75
919.788	-2.25
920.521	-1.25
921.253	-0.25
921.985	-1.25
922.718	0.75
923.45	-0.25
924.182	-0.25
924.914	-0.25
925.646	-2.25
926.378	-1.25
927.11	0.75
927.841	0.75
928.573	-1.25
929.305	-0.25
930.036	-0.25
930.768	-1.25
931.499	3.75
932.23	-0.25
932.962	0.75
933.693	-1.25
934.424	0.75
935.155	-0.25
935.886	0.75
936.617	-2.25
937.348	-2.25
938.078	-0.25
938.809	0.75
939.54	-1.25
940.27	-1.25
941.001	-1.25
941.731	0.75
942.461	-0.25
943.191	-0.25
943.922	0.75
944.652	1.75
945.382	-2.25
946.112	-0.25
946.841	1.75
947.571	-0.25
948.301	-0.25
949.031	0.75
949.76	-1.25
950.49	-3.25
951.219	-0.25
951.948	-1.25
952.678	0.75
953.407	0.75
954.136	1.75
954.865	0.75
955.594	1.75
956.323	0.75
957.052	0.75
957.78	-0.25
958.509	1.75
959.238	1.75
959.966	-1.25
960.695	-0.25
961.423	-0.25
962.151	-2.25
962.88	-2.25
963.608	0.75
964.336	-2.25
965.064	0.75
965.792	1.75
966.52	-1.25
967.247	1.75
967.975	0.75
968.703	1.75
969.43	-0.25
970.158	-2.25
970.885	0.75
971.613	-0.25
972.34	-0.25
973.067	1.75
973.794	-0.25
974.521	-2.25
975.248	0.75
975.975	1.75
976.702	-3.25
977.429	1.75
978.156	1.75
978.882	0.75
979.609	0.75
980.335	0.75
981.062	-0.25
981.788	-2.25
982.514	-2.25
983.24	0.75
983.967	-1.25
984.693	-0.25
985.419	-3.25
986.144	0.75
986.87	-0.25
987.596	0.75
988.322	1.75
989.047	0.75
989.773	0.75
990.498	-0.25
991.224	1.75
991.949	-2.25
992.674	-1.25
993.399	1.75
994.124	-2.25
994.849	-0.25
995.574	0.75
996.299	-1.25
997.024	0.75
997.749	-0.25
998.473	-0.25
999.198	-0.25
999.922	2.75
1000.647	-1.25
1001.371	3.75
1002.095	-0.25
1002.82	-0.25
1003.544	-1.25
1004.268	0.75
1004.992	-1.25
1005.716	-1.25
1006.439	-2.25
1007.163	1.75
1007.887	-1.25
1008.611	-0.25
1009.334	-0.25
1010.058	0.75
1010.781	-0.25
1011.504	1.75
1012.228	-0.25
1012.951	-0.25
1013.674	-2.25
1014.397	0.75
1015.12	-0.25
