节点500_145_QEPB04081__634__11-39-03-174.txt的数据

Date: Wed Nov 12 11:39:03 CST 2025
User: PC
Spectrometer: QEPB0408
触发模式: 0
积分时间 (秒): 1.000000E-2
Scans to average: 1
启用暗噪声校正: true
启用非线性校正: false
滑动平均宽度: 0
X轴模式: Wavelengths
Number of Pixels in Spectrum: 1044
>>>>>Begin Spectral Data<<<<<
220.843	1.25
221.644	0.25
222.444	0.25
223.244	-0.75
224.045	1.25
224.845	0.25
225.645	1.25
226.445	1.25
227.245	0.25
228.045	-1.75
228.845	0.25
229.645	1.25
230.444	1.25
231.244	1.25
232.043	-0.75
232.843	1.25
233.642	2.25
234.442	0.25
235.241	1.25
236.04	1.25
236.839	3.25
237.638	2.25
238.437	-0.75
239.236	2.25
240.035	0.25
240.833	-0.75
241.632	0.25
242.43	1.25
243.229	2.25
244.027	2.25
244.826	2.25
245.624	-0.75
246.422	2.25
247.22	3.25
248.018	1.25
248.816	1.25
249.614	2.25
250.412	1.25
251.21	2.25
252.007	2.25
252.805	2.25
253.602	4.25
254.4	2.25
255.197	2.25
255.994	2.25
256.791	1.25
257.589	4.25
258.386	0.25
259.183	3.25
259.979	4.25
260.776	4.25
261.573	5.25
262.37	3.25
263.166	4.25
263.963	6.25
264.759	3.25
265.556	2.25
266.352	3.25
267.148	7.25
267.944	5.25
268.74	5.25
269.536	5.25
270.332	6.25
271.128	9.25
271.924	7.25
272.719	7.25
273.515	7.25
274.311	4.25
275.106	8.25
275.901	6.25
276.697	9.25
277.492	8.25
278.287	8.25
279.082	7.25
279.877	10.25
280.672	10.25
281.467	8.25
282.262	9.25
283.056	7.25
283.851	10.25
284.646	9.25
285.44	8.25
286.234	8.25
287.029	7.25
287.823	11.25
288.617	11.25
289.411	12.25
290.205	7.25
290.999	8.25
291.793	9.25
292.587	10.25
293.381	12.25
294.174	7.25
294.968	8.25
295.761	7.25
296.555	9.25
297.348	8.25
298.141	7.25
298.935	9.25
299.728	9.25
300.521	10.25
301.314	6.25
302.107	9.25
302.899	9.25
303.692	7.25
304.485	9.25
305.277	5.25
306.07	9.25
306.862	8.25
307.655	7.25
308.447	9.25
309.239	6.25
310.031	10.25
310.823	5.25
311.615	8.25
312.407	6.25
313.199	5.25
313.991	6.25
314.783	7.25
315.574	6.25
316.366	3.25
317.157	5.25
317.949	6.25
318.74	6.25
319.531	5.25
320.322	2.25
321.113	4.25
321.904	3.25
322.695	5.25
323.486	2.25
324.277	3.25
325.068	4.25
325.858	5.25
326.649	2.25
327.439	3.25
328.23	2.25
329.02	5.25
329.81	5.25
330.6	4.25
331.391	3.25
332.181	1.25
332.971	4.25
333.76	3.25
334.55	5.25
335.34	3.25
336.13	4.25
336.919	3.25
337.709	1.25
338.498	3.25
339.287	5.25
340.077	1.25
340.866	2.25
341.655	2.25
342.444	3.25
343.233	5.25
344.022	5.25
344.811	5.25
345.6	1.25
346.388	1.25
347.177	2.25
347.965	5.25
348.754	2.25
349.542	3.25
350.33	2.25
351.119	5.25
351.907	1.25
352.695	4.25
353.483	3.25
354.271	2.25
355.059	1.25
355.846	2.25
356.634	2.25
357.422	2.25
358.209	4.25
358.997	4.25
359.784	4.25
360.571	3.25
361.359	3.25
362.146	1.25
362.933	3.25
363.72	2.25
364.507	3.25
365.294	1.25
366.081	1.25
366.867	2.25
367.654	1.25
368.44	1.25
369.227	1.25
370.013	-0.75
370.8	3.25
371.586	1.25
372.372	1.25
373.158	4.25
373.944	0.25
374.73	2.25
375.516	3.25
376.302	4.25
377.088	3.25
377.873	3.25
378.659	5.25
379.445	0.25
380.23	4.25
381.015	3.25
381.801	1.25
382.586	4.25
383.371	2.25
384.156	3.25
384.941	1.25
385.726	3.25
386.511	3.25
387.296	5.25
388.08	3.25
388.865	3.25
389.649	2.25
390.434	1.25
391.218	4.25
392.003	3.25
392.787	1.25
393.571	3.25
394.355	0.25
395.139	2.25
395.923	3.25
396.707	3.25
397.491	2.25
398.274	4.25
399.058	2.25
399.842	5.25
400.625	4.25
401.408	2.25
402.192	2.25
402.975	3.25
403.758	3.25
404.541	4.25
405.324	0.25
406.107	4.25
406.89	4.25
407.673	3.25
408.456	2.25
409.238	3.25
410.021	3.25
410.803	4.25
411.586	5.25
412.368	4.25
413.151	3.25
413.933	5.25
414.715	3.25
415.497	5.25
416.279	5.25
417.061	4.25
417.843	2.25
418.624	5.25
419.406	6.25
420.188	4.25
420.969	6.25
421.751	3.25
422.532	5.25
423.313	5.25
424.095	7.25
424.876	5.25
425.657	5.25
426.438	6.25
427.219	8.25
428	9.25
428.78	5.25
429.561	5.25
430.342	5.25
431.122	6.25
431.903	8.25
432.683	7.25
433.464	9.25
434.244	8.25
435.024	8.25
435.804	10.25
436.584	9.25
437.364	10.25
438.144	9.25
438.924	11.25
439.704	11.25
440.483	11.25
441.263	11.25
442.042	13.25
442.822	13.25
443.601	14.25
444.38	14.25
445.16	14.25
445.939	18.25
446.718	17.25
447.497	21.25
448.276	20.25
449.054	23.25
449.833	22.25
450.612	26.25
451.391	29.25
452.169	32.25
452.948	31.25
453.726	38.25
454.504	40.25
455.282	43.25
456.061	47.25
456.839	55.25
457.617	61.25
458.395	66.25
459.172	74.25
459.95	83.25
460.728	91.25
461.506	103.25
462.283	110.25
463.061	120.25
463.838	142.25
464.615	157.25
465.393	174.25
466.17	195.25
466.947	211.25
467.724	233.25
468.501	260.25
469.278	292.25
470.055	333.25
470.831	359.25
471.608	402.25
472.385	444.25
473.161	494.25
473.938	540.25
474.714	598.25
475.49	658.25
476.266	718.25
477.043	799.25
477.819	875.25
478.595	955.25
479.371	1061.25
480.146	1160.25
480.922	1280.25
481.698	1393.25
482.473	1528.25
483.249	1683.25
484.024	1828.25
484.8	2000.25
485.575	2185.25
486.35	2399.25
487.126	2603.25
487.901	2872.25
488.676	3111.25
489.451	3397.25
490.225	3725.25
491	4068.25
491.775	4414.25
492.55	4815.25
493.324	5235.25
494.099	5686.25
494.873	6188.25
495.647	6718.25
496.422	7251.25
497.196	7859.25
497.97	8428.25
498.744	9052.25
499.518	9739.25
500.292	10380.25
501.066	10951.25
501.839	11640.25
502.613	12250.25
503.387	12767.25
504.16	13364.25
504.934	13862.25
505.707	14282.25
506.48	14661.25
507.253	14820.25
508.027	15021.25
508.8	15159.25
509.573	15111.25
510.346	15048.25
511.118	14883.25
511.891	14670.25
512.664	14300.25
513.437	13913.25
514.209	13523.25
514.982	13098.25
515.754	12628.25
516.526	12170.25
517.298	11671.25
518.071	11157.25
518.843	10722.25
519.615	10316.25
520.387	9885.25
521.159	9456.25
521.93	9083.25
522.702	8737.25
523.474	8405.25
524.245	8057.25
525.017	7754.25
525.788	7444.25
526.56	7130.25
527.331	6829.25
528.102	6551.25
528.873	6281.25
529.644	6036.25
530.415	5782.25
531.186	5499.25
531.957	5253.25
532.728	5006.25
533.498	4736.25
534.269	4496.25
535.039	4286.25
535.81	4070.25
536.58	3818.25
537.351	3608.25
538.121	3439.25
538.891	3262.25
539.661	3037.25
540.431	2892.25
541.201	2713.25
541.971	2607.25
542.741	2458.25
543.51	2330.25
544.28	2215.25
545.05	2092.25
545.819	2005.25
546.588	1902.25
547.358	1813.25
548.127	1712.25
548.896	1627.25
549.665	1542.25
550.434	1475.25
551.203	1402.25
551.972	1324.25
552.741	1255.25
553.51	1191.25
554.278	1129.25
555.047	1083.25
555.815	1013.25
556.584	941.25
557.352	896.25
558.121	854.25
558.889	809.25
559.657	752.25
560.425	716.25
561.193	677.25
561.961	631.25
562.729	606.25
563.496	573.25
564.264	530.25
565.032	505.25
565.799	479.25
566.567	450.25
567.334	428.25
568.101	396.25
568.869	375.25
569.636	358.25
570.403	340.25
571.17	318.25
571.937	300.25
572.704	286.25
573.471	271.25
574.237	249.25
575.004	234.25
575.771	223.25
576.537	206.25
577.303	202.25
578.07	189.25
578.836	178.25
579.602	168.25
580.368	158.25
581.134	147.25
581.9	139.25
582.666	130.25
583.432	128.25
584.198	124.25
584.964	111.25
585.729	109.25
586.495	104.25
587.26	94.25
588.025	88.25
588.791	88.25
589.556	81.25
590.321	74.25
591.086	69.25
591.851	68.25
592.616	61.25
593.381	65.25
594.146	53.25
594.911	54.25
595.675	50.25
596.44	50.25
597.204	47.25
597.969	44.25
598.733	42.25
599.497	42.25
600.261	37.25
601.025	40.25
601.79	36.25
602.553	36.25
603.317	33.25
604.081	31.25
604.845	28.25
605.609	30.25
606.372	26.25
607.136	27.25
607.899	25.25
608.662	22.25
609.426	22.25
610.189	21.25
610.952	22.25
611.715	20.25
612.478	20.25
613.241	19.25
614.004	16.25
614.767	17.25
615.529	15.25
616.292	15.25
617.055	18.25
617.817	13.25
618.579	11.25
619.342	13.25
620.104	11.25
620.866	13.25
621.628	14.25
622.39	10.25
623.152	14.25
623.914	13.25
624.676	11.25
625.438	12.25
626.199	11.25
626.961	11.25
627.722	9.25
628.484	11.25
629.245	9.25
630.006	5.25
630.768	8.25
631.529	9.25
632.29	6.25
633.051	6.25
633.812	5.25
634.573	7.25
635.333	7.25
636.094	7.25
636.855	6.25
637.615	7.25
638.376	4.25
639.136	2.25
639.896	4.25
640.657	5.25
641.417	6.25
642.177	3.25
642.937	7.25
643.697	5.25
644.457	4.25
645.216	6.25
645.976	3.25
646.736	4.25
647.495	3.25
648.255	3.25
649.014	4.25
649.774	4.25
650.533	2.25
651.292	3.25
652.051	5.25
652.81	2.25
653.569	6.25
654.328	3.25
655.087	4.25
655.846	3.25
656.604	2.25
657.363	4.25
658.121	3.25
658.88	3.25
659.638	1.25
660.397	3.25
661.155	3.25
661.913	3.25
662.671	3.25
663.429	3.25
664.187	1.25
664.945	0.25
665.703	1.25
666.46	2.25
667.218	2.25
667.976	5.25
668.733	3.25
669.49	5.25
670.248	3.25
671.005	2.25
671.762	4.25
672.519	2.25
673.276	1.25
674.033	1.25
674.79	2.25
675.547	0.25
676.304	2.25
677.06	5.25
677.817	1.25
678.574	1.25
679.33	2.25
680.086	4.25
680.843	4.25
681.599	2.25
682.355	1.25
683.111	0.25
683.867	3.25
684.623	2.25
685.379	1.25
686.135	3.25
686.89	2.25
687.646	3.25
688.402	2.25
689.157	3.25
689.912	0.25
690.668	3.25
691.423	-1.75
692.178	2.25
692.933	2.25
693.688	2.25
694.443	2.25
695.198	1.25
695.953	3.25
696.708	2.25
697.462	2.25
698.217	3.25
698.972	1.25
699.726	1.25
700.48	2.25
701.235	1.25
701.989	1.25
702.743	1.25
703.497	2.25
704.251	0.25
705.005	2.25
705.759	2.25
706.513	2.25
707.266	1.25
708.02	0.25
708.774	3.25
709.527	-0.75
710.28	2.25
711.034	0.25
711.787	2.25
712.54	1.25
713.293	2.25
714.046	2.25
714.799	2.25
715.552	2.25
716.305	-0.75
717.058	3.25
717.81	0.25
718.563	1.25
719.315	0.25
720.068	1.25
720.82	2.25
721.573	1.25
722.325	0.25
723.077	0.25
723.829	1.25
724.581	0.25
725.333	-0.75
726.085	2.25
726.836	1.25
727.588	2.25
728.34	2.25
729.091	0.25
729.843	0.25
730.594	2.25
731.346	1.25
732.097	1.25
732.848	1.25
733.599	2.25
734.35	3.25
735.101	2.25
735.852	0.25
736.603	1.25
737.354	1.25
738.104	0.25
738.855	3.25
739.605	2.25
740.356	3.25
741.106	1.25
741.856	3.25
742.607	3.25
743.357	4.25
744.107	2.25
744.857	3.25
745.607	2.25
746.357	2.25
747.106	1.25
747.856	2.25
748.606	1.25
749.355	2.25
750.105	3.25
750.854	2.25
751.603	2.25
752.353	3.25
753.102	0.25
753.851	1.25
754.6	3.25
755.349	2.25
756.098	3.25
756.847	1.25
757.595	2.25
758.344	3.25
759.093	1.25
759.841	1.25
760.589	2.25
761.338	3.25
762.086	2.25
762.834	3.25
763.582	5.25
764.331	4.25
765.079	4.25
765.826	2.25
766.574	4.25
767.322	2.25
768.07	4.25
768.817	2.25
769.565	3.25
770.312	4.25
771.06	3.25
771.807	3.25
772.554	4.25
773.302	4.25
774.049	5.25
774.796	2.25
775.543	2.25
776.29	3.25
777.036	6.25
777.783	4.25
778.53	3.25
779.276	3.25
780.023	7.25
780.769	5.25
781.516	4.25
782.262	6.25
783.008	2.25
783.754	6.25
784.5	3.25
785.246	6.25
785.992	3.25
786.738	3.25
787.484	3.25
788.23	4.25
788.975	4.25
789.721	5.25
790.466	4.25
791.212	6.25
791.957	4.25
792.702	6.25
793.447	5.25
794.193	5.25
794.938	5.25
795.683	3.25
796.427	4.25
797.172	4.25
797.917	5.25
798.662	3.25
799.406	2.25
800.151	5.25
800.895	2.25
801.64	4.25
802.384	3.25
803.128	4.25
803.872	4.25
804.616	5.25
805.36	2.25
806.104	3.25
806.848	4.25
807.592	3.25
808.336	6.25
809.079	5.25
809.823	2.25
810.566	4.25
811.31	5.25
812.053	4.25
812.796	3.25
813.539	2.25
814.283	1.25
815.026	3.25
815.769	3.25
816.511	3.25
817.254	2.25
817.997	4.25
818.74	3.25
819.482	2.25
820.225	2.25
820.967	2.25
821.71	2.25
822.452	2.25
823.194	1.25
823.936	2.25
824.678	2.25
825.42	1.25
826.162	1.25
826.904	3.25
827.646	2.25
828.388	1.25
829.129	5.25
829.871	3.25
830.612	0.25
831.354	1.25
832.095	1.25
832.836	3.25
833.577	4.25
834.319	1.25
835.06	1.25
835.801	3.25
836.542	4.25
837.282	1.25
838.023	2.25
838.764	2.25
839.504	2.25
840.245	4.25
840.985	1.25
841.726	0.25
842.466	1.25
843.206	1.25
843.946	2.25
844.687	1.25
845.427	2.25
846.166	2.25
846.906	1.25
847.646	1.25
848.386	3.25
849.125	0.25
849.865	2.25
850.605	2.25
851.344	2.25
852.083	4.25
852.823	2.25
853.562	3.25
854.301	0.25
855.04	2.25
855.779	0.25
856.518	2.25
857.257	2.25
857.995	1.25
858.734	2.25
859.473	3.25
860.211	3.25
860.95	3.25
861.688	1.25
862.426	1.25
863.165	1.25
863.903	0.25
864.641	0.25
865.379	1.25
866.117	0.25
866.855	1.25
867.593	0.25
868.33	2.25
869.068	2.25
869.806	-0.75
870.543	0.25
871.28	0.25
872.018	-0.75
872.755	1.25
873.492	-0.75
874.229	0.25
874.967	0.25
875.703	0.25
876.44	2.25
877.177	2.25
877.914	1.25
878.651	-1.75
879.387	0.25
880.124	1.25
880.86	0.25
881.597	-0.75
882.333	1.25
883.069	0.25
883.806	0.25
884.542	0.25
885.278	2.25
886.014	1.25
886.749	2.25
887.485	0.25
888.221	1.25
888.957	1.25
889.692	0.25
890.428	1.25
891.163	-2.75
891.899	-1.75
892.634	0.25
893.369	1.25
894.104	0.25
894.839	2.25
895.574	2.25
896.309	0.25
897.044	0.25
897.779	1.25
898.514	2.25
899.248	0.25
899.983	-1.75
900.717	2.25
901.452	0.25
902.186	1.25
902.92	-1.75
903.654	1.25
904.389	0.25
905.123	0.25
905.857	0.25
906.59	-1.75
907.324	-0.75
908.058	2.25
908.792	0.25
909.525	0.25
910.259	1.25
910.992	1.25
911.726	0.25
912.459	2.25
913.192	-1.75
913.925	2.25
914.658	1.25
915.391	1.25
916.124	-1.75
916.857	0.25
917.59	-0.75
918.323	1.25
919.055	2.25
919.788	0.25
920.521	-1.75
921.253	-0.75
921.985	2.25
922.718	1.25
923.45	-0.75
924.182	1.25
924.914	0.25
925.646	-0.75
926.378	-0.75
927.11	2.25
927.841	0.25
928.573	0.25
929.305	-1.75
930.036	2.25
930.768	1.25
931.499	1.25
932.23	1.25
932.962	0.25
933.693	0.25
934.424	0.25
935.155	-0.75
935.886	1.25
936.617	2.25
937.348	0.25
938.078	0.25
938.809	1.25
939.54	2.25
940.27	-0.75
941.001	-0.75
941.731	1.25
942.461	0.25
943.191	1.25
943.922	0.25
944.652	-0.75
945.382	-0.75
946.112	1.25
946.841	1.25
947.571	-2.75
948.301	0.25
949.031	1.25
949.76	1.25
950.49	0.25
951.219	-0.75
951.948	1.25
952.678	1.25
953.407	3.25
954.136	0.25
954.865	-0.75
955.594	0.25
956.323	0.25
957.052	0.25
957.78	-0.75
958.509	1.25
959.238	2.25
959.966	-0.75
960.695	-1.75
961.423	-1.75
962.151	-0.75
962.88	0.25
963.608	-0.75
964.336	2.25
965.064	0.25
965.792	0.25
966.52	0.25
967.247	0.25
967.975	0.25
968.703	1.25
969.43	-0.75
970.158	-0.75
970.885	1.25
971.613	-1.75
972.34	1.25
973.067	0.25
973.794	0.25
974.521	-1.75
975.248	0.25
975.975	-0.75
976.702	-1.75
977.429	-0.75
978.156	1.25
978.882	0.25
979.609	1.25
980.335	-1.75
981.062	1.25
981.788	-1.75
982.514	-0.75
983.24	0.25
983.967	0.25
984.693	-0.75
985.419	-0.75
986.144	1.25
986.87	0.25
987.596	2.25
988.322	1.25
989.047	0.25
989.773	2.25
990.498	-0.75
991.224	1.25
991.949	0.25
992.674	2.25
993.399	1.25
994.124	1.25
994.849	2.25
995.574	1.25
996.299	0.25
997.024	-0.75
997.749	2.25
998.473	-0.75
999.198	1.25
999.922	0.25
1000.647	1.25
1001.371	5.25
1002.095	0.25
1002.82	-1.75
1003.544	-1.75
1004.268	0.25
1004.992	1.25
1005.716	0.25
1006.439	3.25
1007.163	-1.75
1007.887	1.25
1008.611	0.25
1009.334	-0.75
1010.058	1.25
1010.781	-1.75
1011.504	1.25
1012.228	-0.75
1012.951	-0.75
1013.674	0.25
1014.397	0.25
1015.12	-1.75
