节点500_145_QEPB04081__658__11-39-24-044.txt的数据

Date: Wed Nov 12 11:39:24 CST 2025
User: PC
Spectrometer: QEPB0408
触发模式: 0
积分时间 (秒): 1.000000E-2
Scans to average: 1
启用暗噪声校正: true
启用非线性校正: false
滑动平均宽度: 0
X轴模式: Wavelengths
Number of Pixels in Spectrum: 1044
>>>>>Begin Spectral Data<<<<<
220.843	0.38
221.644	0.38
222.444	0.38
223.244	0.38
224.045	-0.62
224.845	1.38
225.645	0.38
226.445	0.38
227.245	-0.62
228.045	1.38
228.845	-0.62
229.645	0.38
230.444	1.38
231.244	2.38
232.043	1.38
232.843	4.38
233.642	-0.62
234.442	1.38
235.241	2.38
236.04	1.38
236.839	-0.62
237.638	2.38
238.437	2.38
239.236	2.38
240.035	4.38
240.833	1.38
241.632	3.38
242.43	2.38
243.229	2.38
244.027	3.38
244.826	2.38
245.624	4.38
246.422	0.38
247.22	2.38
248.018	4.38
248.816	1.38
249.614	4.38
250.412	3.38
251.21	2.38
252.007	2.38
252.805	4.38
253.602	2.38
254.4	4.38
255.197	3.38
255.994	3.38
256.791	5.38
257.589	2.38
258.386	5.38
259.183	5.38
259.979	4.38
260.776	5.38
261.573	5.38
262.37	7.38
263.166	4.38
263.963	7.38
264.759	5.38
265.556	7.38
266.352	6.38
267.148	6.38
267.944	8.38
268.74	4.38
269.536	8.38
270.332	6.38
271.128	6.38
271.924	9.38
272.719	7.38
273.515	8.38
274.311	8.38
275.106	8.38
275.901	8.38
276.697	8.38
277.492	7.38
278.287	9.38
279.082	8.38
279.877	9.38
280.672	11.38
281.467	9.38
282.262	9.38
283.056	9.38
283.851	8.38
284.646	10.38
285.44	10.38
286.234	10.38
287.029	11.38
287.823	11.38
288.617	12.38
289.411	10.38
290.205	10.38
290.999	11.38
291.793	12.38
292.587	13.38
293.381	10.38
294.174	11.38
294.968	10.38
295.761	8.38
296.555	8.38
297.348	8.38
298.141	10.38
298.935	10.38
299.728	10.38
300.521	8.38
301.314	11.38
302.107	9.38
302.899	7.38
303.692	9.38
304.485	8.38
305.277	11.38
306.07	7.38
306.862	10.38
307.655	8.38
308.447	10.38
309.239	8.38
310.031	7.38
310.823	8.38
311.615	6.38
312.407	9.38
313.199	7.38
313.991	7.38
314.783	8.38
315.574	7.38
316.366	7.38
317.157	5.38
317.949	6.38
318.74	6.38
319.531	6.38
320.322	5.38
321.113	4.38
321.904	5.38
322.695	4.38
323.486	7.38
324.277	3.38
325.068	6.38
325.858	6.38
326.649	5.38
327.439	6.38
328.23	5.38
329.02	5.38
329.81	4.38
330.6	5.38
331.391	5.38
332.181	3.38
332.971	6.38
333.76	5.38
334.55	3.38
335.34	6.38
336.13	5.38
336.919	4.38
337.709	5.38
338.498	4.38
339.287	3.38
340.077	5.38
340.866	5.38
341.655	5.38
342.444	5.38
343.233	3.38
344.022	5.38
344.811	4.38
345.6	3.38
346.388	3.38
347.177	3.38
347.965	5.38
348.754	1.38
349.542	5.38
350.33	3.38
351.119	4.38
351.907	3.38
352.695	3.38
353.483	4.38
354.271	5.38
355.059	4.38
355.846	3.38
356.634	4.38
357.422	3.38
358.209	3.38
358.997	5.38
359.784	3.38
360.571	2.38
361.359	4.38
362.146	5.38
362.933	0.38
363.72	3.38
364.507	7.38
365.294	4.38
366.081	3.38
366.867	3.38
367.654	5.38
368.44	2.38
369.227	3.38
370.013	1.38
370.8	3.38
371.586	2.38
372.372	2.38
373.158	3.38
373.944	6.38
374.73	1.38
375.516	2.38
376.302	3.38
377.088	4.38
377.873	2.38
378.659	4.38
379.445	3.38
380.23	4.38
381.015	2.38
381.801	3.38
382.586	4.38
383.371	4.38
384.156	3.38
384.941	3.38
385.726	2.38
386.511	6.38
387.296	4.38
388.08	3.38
388.865	4.38
389.649	4.38
390.434	2.38
391.218	4.38
392.003	1.38
392.787	5.38
393.571	5.38
394.355	2.38
395.139	4.38
395.923	6.38
396.707	3.38
397.491	3.38
398.274	3.38
399.058	7.38
399.842	3.38
400.625	5.38
401.408	4.38
402.192	4.38
402.975	2.38
403.758	3.38
404.541	3.38
405.324	4.38
406.107	3.38
406.89	2.38
407.673	3.38
408.456	4.38
409.238	5.38
410.021	3.38
410.803	5.38
411.586	4.38
412.368	5.38
413.151	5.38
413.933	6.38
414.715	5.38
415.497	8.38
416.279	7.38
417.061	4.38
417.843	5.38
418.624	6.38
419.406	4.38
420.188	7.38
420.969	6.38
421.751	6.38
422.532	6.38
423.313	8.38
424.095	5.38
424.876	9.38
425.657	7.38
426.438	7.38
427.219	6.38
428	7.38
428.78	6.38
429.561	5.38
430.342	8.38
431.122	8.38
431.903	8.38
432.683	8.38
433.464	10.38
434.244	9.38
435.024	10.38
435.804	8.38
436.584	9.38
437.364	8.38
438.144	11.38
438.924	7.38
439.704	10.38
440.483	14.38
441.263	14.38
442.042	14.38
442.822	14.38
443.601	13.38
444.38	17.38
445.16	17.38
445.939	16.38
446.718	18.38
447.497	18.38
448.276	23.38
449.054	26.38
449.833	25.38
450.612	25.38
451.391	29.38
452.169	31.38
452.948	38.38
453.726	43.38
454.504	41.38
455.282	47.38
456.061	49.38
456.839	57.38
457.617	64.38
458.395	64.38
459.172	79.38
459.95	82.38
460.728	92.38
461.506	106.38
462.283	115.38
463.061	131.38
463.838	136.38
464.615	160.38
465.393	180.38
466.17	194.38
466.947	216.38
467.724	249.38
468.501	268.38
469.278	292.38
470.055	329.38
470.831	354.38
471.608	395.38
472.385	436.38
473.161	494.38
473.938	547.38
474.714	600.38
475.49	658.38
476.266	720.38
477.043	798.38
477.819	887.38
478.595	964.38
479.371	1068.38
480.146	1158.38
480.922	1274.38
481.698	1380.38
482.473	1528.38
483.249	1666.38
484.024	1816.38
484.8	1999.38
485.575	2179.38
486.35	2389.38
487.126	2617.38
487.901	2822.38
488.676	3123.38
489.451	3400.38
490.225	3686.38
491	4039.38
491.775	4409.38
492.55	4763.38
493.324	5194.38
494.099	5649.38
494.873	6108.38
495.647	6665.38
496.422	7179.38
497.196	7731.38
497.97	8340.38
498.744	8957.38
499.518	9591.38
500.292	10252.38
501.066	10879.38
501.839	11470.38
502.613	12066.38
503.387	12689.38
504.16	13159.38
504.934	13711.38
505.707	14164.38
506.48	14456.38
507.253	14687.38
508.027	14962.38
508.8	15040.38
509.573	14999.38
510.346	14921.38
511.118	14824.38
511.891	14594.38
512.664	14249.38
513.437	13904.38
514.209	13495.38
514.982	13022.38
515.754	12568.38
516.526	12171.38
517.298	11713.38
518.071	11188.38
518.843	10714.38
519.615	10282.38
520.387	9824.38
521.159	9435.38
521.93	9082.38
522.702	8683.38
523.474	8379.38
524.245	8016.38
525.017	7757.38
525.788	7410.38
526.56	7109.38
527.331	6825.38
528.102	6540.38
528.873	6305.38
529.644	5998.38
530.415	5757.38
531.186	5509.38
531.957	5277.38
532.728	5003.38
533.498	4764.38
534.269	4518.38
535.039	4285.38
535.81	4055.38
536.58	3832.38
537.351	3624.38
538.121	3433.38
538.891	3253.38
539.661	3059.38
540.431	2906.38
541.201	2746.38
541.971	2593.38
542.741	2469.38
543.51	2336.38
544.28	2200.38
545.05	2117.38
545.819	2015.38
546.588	1893.38
547.358	1798.38
548.127	1718.38
548.896	1645.38
549.665	1548.38
550.434	1478.38
551.203	1400.38
551.972	1332.38
552.741	1261.38
553.51	1193.38
554.278	1142.38
555.047	1081.38
555.815	1007.38
556.584	966.38
557.352	899.38
558.121	865.38
558.889	800.38
559.657	766.38
560.425	721.38
561.193	678.38
561.961	635.38
562.729	604.38
563.496	565.38
564.264	545.38
565.032	513.38
565.799	484.38
566.567	452.38
567.334	427.38
568.101	405.38
568.869	384.38
569.636	363.38
570.403	345.38
571.17	320.38
571.937	305.38
572.704	289.38
573.471	264.38
574.237	250.38
575.004	239.38
575.771	222.38
576.537	208.38
577.303	199.38
578.07	192.38
578.836	176.38
579.602	167.38
580.368	161.38
581.134	152.38
581.9	144.38
582.666	141.38
583.432	125.38
584.198	118.38
584.964	114.38
585.729	105.38
586.495	101.38
587.26	93.38
588.025	93.38
588.791	87.38
589.556	79.38
590.321	79.38
591.086	73.38
591.851	71.38
592.616	67.38
593.381	59.38
594.146	61.38
594.911	54.38
595.675	54.38
596.44	52.38
597.204	51.38
597.969	47.38
598.733	43.38
599.497	42.38
600.261	39.38
601.025	41.38
601.79	37.38
602.553	35.38
603.317	33.38
604.081	31.38
604.845	32.38
605.609	28.38
606.372	28.38
607.136	24.38
607.899	26.38
608.662	27.38
609.426	21.38
610.189	25.38
610.952	21.38
611.715	22.38
612.478	17.38
613.241	18.38
614.004	20.38
614.767	17.38
615.529	17.38
616.292	16.38
617.055	15.38
617.817	15.38
618.579	14.38
619.342	13.38
620.104	14.38
620.866	13.38
621.628	12.38
622.39	14.38
623.152	9.38
623.914	11.38
624.676	10.38
625.438	11.38
626.199	13.38
626.961	9.38
627.722	10.38
628.484	9.38
629.245	8.38
630.006	9.38
630.768	8.38
631.529	8.38
632.29	6.38
633.051	10.38
633.812	11.38
634.573	8.38
635.333	8.38
636.094	8.38
636.855	8.38
637.615	8.38
638.376	7.38
639.136	8.38
639.896	6.38
640.657	8.38
641.417	8.38
642.177	5.38
642.937	5.38
643.697	6.38
644.457	6.38
645.216	4.38
645.976	4.38
646.736	3.38
647.495	5.38
648.255	3.38
649.014	7.38
649.774	5.38
650.533	3.38
651.292	4.38
652.051	5.38
652.81	4.38
653.569	4.38
654.328	4.38
655.087	4.38
655.846	5.38
656.604	4.38
657.363	4.38
658.121	8.38
658.88	3.38
659.638	4.38
660.397	2.38
661.155	3.38
661.913	6.38
662.671	2.38
663.429	7.38
664.187	0.38
664.945	3.38
665.703	5.38
666.46	4.38
667.218	7.38
667.976	3.38
668.733	4.38
669.49	2.38
670.248	3.38
671.005	4.38
671.762	-0.62
672.519	3.38
673.276	3.38
674.033	2.38
674.79	2.38
675.547	3.38
676.304	3.38
677.06	3.38
677.817	3.38
678.574	0.38
679.33	2.38
680.086	2.38
680.843	3.38
681.599	5.38
682.355	4.38
683.111	3.38
683.867	4.38
684.623	2.38
685.379	1.38
686.135	2.38
686.89	3.38
687.646	0.38
688.402	3.38
689.157	2.38
689.912	6.38
690.668	3.38
691.423	3.38
692.178	2.38
692.933	3.38
693.688	3.38
694.443	2.38
695.198	1.38
695.953	3.38
696.708	4.38
697.462	3.38
698.217	4.38
698.972	4.38
699.726	0.38
700.48	3.38
701.235	3.38
701.989	2.38
702.743	3.38
703.497	3.38
704.251	2.38
705.005	2.38
705.759	3.38
706.513	4.38
707.266	3.38
708.02	3.38
708.774	3.38
709.527	2.38
710.28	2.38
711.034	3.38
711.787	4.38
712.54	3.38
713.293	3.38
714.046	2.38
714.799	1.38
715.552	2.38
716.305	2.38
717.058	3.38
717.81	3.38
718.563	2.38
719.315	4.38
720.068	2.38
720.82	2.38
721.573	4.38
722.325	3.38
723.077	0.38
723.829	3.38
724.581	1.38
725.333	2.38
726.085	2.38
726.836	3.38
727.588	2.38
728.34	2.38
729.091	3.38
729.843	3.38
730.594	6.38
731.346	1.38
732.097	4.38
732.848	3.38
733.599	3.38
734.35	3.38
735.101	0.38
735.852	2.38
736.603	0.38
737.354	4.38
738.104	1.38
738.855	3.38
739.605	4.38
740.356	2.38
741.106	5.38
741.856	2.38
742.607	2.38
743.357	4.38
744.107	4.38
744.857	4.38
745.607	2.38
746.357	4.38
747.106	2.38
747.856	3.38
748.606	3.38
749.355	4.38
750.105	3.38
750.854	2.38
751.603	4.38
752.353	2.38
753.102	6.38
753.851	3.38
754.6	2.38
755.349	6.38
756.098	2.38
756.847	2.38
757.595	4.38
758.344	1.38
759.093	3.38
759.841	2.38
760.589	5.38
761.338	3.38
762.086	2.38
762.834	2.38
763.582	4.38
764.331	2.38
765.079	4.38
765.826	5.38
766.574	5.38
767.322	6.38
768.07	3.38
768.817	6.38
769.565	5.38
770.312	5.38
771.06	2.38
771.807	1.38
772.554	4.38
773.302	4.38
774.049	3.38
774.796	4.38
775.543	5.38
776.29	6.38
777.036	4.38
777.783	4.38
778.53	6.38
779.276	5.38
780.023	5.38
780.769	4.38
781.516	3.38
782.262	4.38
783.008	6.38
783.754	2.38
784.5	6.38
785.246	2.38
785.992	4.38
786.738	6.38
787.484	6.38
788.23	6.38
788.975	7.38
789.721	6.38
790.466	6.38
791.212	6.38
791.957	7.38
792.702	5.38
793.447	6.38
794.193	6.38
794.938	3.38
795.683	4.38
796.427	6.38
797.172	5.38
797.917	4.38
798.662	5.38
799.406	3.38
800.151	3.38
800.895	3.38
801.64	6.38
802.384	6.38
803.128	4.38
803.872	5.38
804.616	4.38
805.36	5.38
806.104	3.38
806.848	5.38
807.592	4.38
808.336	6.38
809.079	5.38
809.823	4.38
810.566	4.38
811.31	6.38
812.053	3.38
812.796	3.38
813.539	4.38
814.283	5.38
815.026	3.38
815.769	3.38
816.511	3.38
817.254	2.38
817.997	5.38
818.74	3.38
819.482	5.38
820.225	3.38
820.967	5.38
821.71	2.38
822.452	2.38
823.194	4.38
823.936	4.38
824.678	3.38
825.42	4.38
826.162	4.38
826.904	3.38
827.646	3.38
828.388	3.38
829.129	4.38
829.871	2.38
830.612	6.38
831.354	5.38
832.095	4.38
832.836	2.38
833.577	3.38
834.319	1.38
835.06	2.38
835.801	2.38
836.542	2.38
837.282	5.38
838.023	4.38
838.764	4.38
839.504	0.38
840.245	2.38
840.985	6.38
841.726	3.38
842.466	3.38
843.206	2.38
843.946	1.38
844.687	3.38
845.427	0.38
846.166	1.38
846.906	1.38
847.646	4.38
848.386	0.38
849.125	4.38
849.865	2.38
850.605	2.38
851.344	2.38
852.083	3.38
852.823	4.38
853.562	2.38
854.301	2.38
855.04	-0.62
855.779	1.38
856.518	2.38
857.257	1.38
857.995	1.38
858.734	2.38
859.473	1.38
860.211	1.38
860.95	2.38
861.688	3.38
862.426	3.38
863.165	2.38
863.903	2.38
864.641	3.38
865.379	1.38
866.117	0.38
866.855	2.38
867.593	0.38
868.33	3.38
869.068	1.38
869.806	3.38
870.543	2.38
871.28	0.38
872.018	2.38
872.755	1.38
873.492	3.38
874.229	0.38
874.967	3.38
875.703	0.38
876.44	2.38
877.177	0.38
877.914	-0.62
878.651	0.38
879.387	3.38
880.124	-0.62
880.86	-0.62
881.597	1.38
882.333	2.38
883.069	2.38
883.806	2.38
884.542	2.38
885.278	1.38
886.014	0.38
886.749	1.38
887.485	2.38
888.221	1.38
888.957	1.38
889.692	1.38
890.428	0.38
891.163	0.38
891.899	0.38
892.634	2.38
893.369	0.38
894.104	1.38
894.839	3.38
895.574	0.38
896.309	-1.62
897.044	2.38
897.779	2.38
898.514	2.38
899.248	1.38
899.983	0.38
900.717	0.38
901.452	-0.62
902.186	1.38
902.92	1.38
903.654	0.38
904.389	2.38
905.123	2.38
905.857	-0.62
906.59	2.38
907.324	0.38
908.058	1.38
908.792	3.38
909.525	1.38
910.259	3.38
910.992	1.38
911.726	1.38
912.459	0.38
913.192	0.38
913.925	0.38
914.658	0.38
915.391	1.38
916.124	-0.62
916.857	1.38
917.59	0.38
918.323	3.38
919.055	0.38
919.788	0.38
920.521	2.38
921.253	2.38
921.985	2.38
922.718	0.38
923.45	2.38
924.182	2.38
924.914	-0.62
925.646	2.38
926.378	0.38
927.11	1.38
927.841	0.38
928.573	2.38
929.305	-0.62
930.036	-0.62
930.768	2.38
931.499	-0.62
932.23	4.38
932.962	2.38
933.693	1.38
934.424	2.38
935.155	3.38
935.886	1.38
936.617	1.38
937.348	-0.62
938.078	-1.62
938.809	2.38
939.54	1.38
940.27	1.38
941.001	1.38
941.731	0.38
942.461	-0.62
943.191	1.38
943.922	1.38
944.652	1.38
945.382	1.38
946.112	-1.62
946.841	-0.62
947.571	0.38
948.301	2.38
949.031	2.38
949.76	0.38
950.49	3.38
951.219	0.38
951.948	-0.62
952.678	5.38
953.407	1.38
954.136	0.38
954.865	3.38
955.594	1.38
956.323	0.38
957.052	4.38
957.78	-0.62
958.509	0.38
959.238	0.38
959.966	-0.62
960.695	1.38
961.423	0.38
962.151	-0.62
962.88	0.38
963.608	-0.62
964.336	1.38
965.064	0.38
965.792	-0.62
966.52	1.38
967.247	2.38
967.975	1.38
968.703	0.38
969.43	1.38
970.158	2.38
970.885	2.38
971.613	2.38
972.34	0.38
973.067	1.38
973.794	-1.62
974.521	2.38
975.248	-0.62
975.975	0.38
976.702	1.38
977.429	2.38
978.156	2.38
978.882	2.38
979.609	0.38
980.335	2.38
981.062	0.38
981.788	1.38
982.514	0.38
983.24	1.38
983.967	-0.62
984.693	1.38
985.419	0.38
986.144	0.38
986.87	-0.62
987.596	0.38
988.322	0.38
989.047	-0.62
989.773	2.38
990.498	0.38
991.224	1.38
991.949	3.38
992.674	-0.62
993.399	0.38
994.124	-0.62
994.849	-0.62
995.574	0.38
996.299	2.38
997.024	2.38
997.749	-0.62
998.473	3.38
999.198	1.38
999.922	1.38
1000.647	2.38
1001.371	4.38
1002.095	-0.62
1002.82	0.38
1003.544	-1.62
1004.268	2.38
1004.992	0.38
1005.716	-0.62
1006.439	2.38
1007.163	1.38
1007.887	2.38
1008.611	0.38
1009.334	1.38
1010.058	0.38
1010.781	0.38
1011.504	2.38
1012.228	2.38
1012.951	-0.62
1013.674	-2.62
1014.397	1.38
1015.12	-0.62
