节点500_145_QEPB04081__513__11-37-07-533.txt的数据

Date: Wed Nov 12 11:37:07 CST 2025
User: PC
Spectrometer: QEPB0408
触发模式: 0
积分时间 (秒): 1.000000E-2
Scans to average: 1
启用暗噪声校正: true
启用非线性校正: false
滑动平均宽度: 0
X轴模式: Wavelengths
Number of Pixels in Spectrum: 1044
>>>>>Begin Spectral Data<<<<<
220.843	-1.62
221.644	0.38
222.444	-0.62
223.244	-0.62
224.045	-1.62
224.845	1.38
225.645	-1.62
226.445	0.38
227.245	-2.62
228.045	0.38
228.845	-2.62
229.645	1.38
230.444	1.38
231.244	0.38
232.043	-0.62
232.843	-0.62
233.642	0.38
234.442	-0.62
235.241	0.38
236.04	-0.62
236.839	-1.62
237.638	-1.62
238.437	0.38
239.236	1.38
240.035	-1.62
240.833	0.38
241.632	0.38
242.43	1.38
243.229	1.38
244.027	0.38
244.826	0.38
245.624	0.38
246.422	0.38
247.22	1.38
248.018	1.38
248.816	0.38
249.614	-0.62
250.412	0.38
251.21	1.38
252.007	3.38
252.805	1.38
253.602	0.38
254.4	0.38
255.197	0.38
255.994	2.38
256.791	2.38
257.589	3.38
258.386	3.38
259.183	2.38
259.979	3.38
260.776	-0.62
261.573	4.38
262.37	2.38
263.166	4.38
263.963	3.38
264.759	2.38
265.556	3.38
266.352	2.38
267.148	2.38
267.944	3.38
268.74	5.38
269.536	5.38
270.332	5.38
271.128	5.38
271.924	5.38
272.719	4.38
273.515	5.38
274.311	6.38
275.106	8.38
275.901	7.38
276.697	8.38
277.492	7.38
278.287	9.38
279.082	8.38
279.877	8.38
280.672	7.38
281.467	9.38
282.262	10.38
283.056	6.38
283.851	10.38
284.646	8.38
285.44	9.38
286.234	8.38
287.029	9.38
287.823	9.38
288.617	11.38
289.411	7.38
290.205	9.38
290.999	10.38
291.793	10.38
292.587	8.38
293.381	10.38
294.174	10.38
294.968	9.38
295.761	9.38
296.555	7.38
297.348	8.38
298.141	7.38
298.935	9.38
299.728	8.38
300.521	9.38
301.314	8.38
302.107	6.38
302.899	8.38
303.692	5.38
304.485	6.38
305.277	6.38
306.07	7.38
306.862	5.38
307.655	7.38
308.447	6.38
309.239	6.38
310.031	7.38
310.823	5.38
311.615	4.38
312.407	5.38
313.199	6.38
313.991	4.38
314.783	5.38
315.574	5.38
316.366	4.38
317.157	5.38
317.949	4.38
318.74	4.38
319.531	5.38
320.322	2.38
321.113	6.38
321.904	4.38
322.695	3.38
323.486	3.38
324.277	0.38
325.068	4.38
325.858	4.38
326.649	4.38
327.439	1.38
328.23	2.38
329.02	1.38
329.81	1.38
330.6	1.38
331.391	4.38
332.181	3.38
332.971	3.38
333.76	2.38
334.55	1.38
335.34	6.38
336.13	4.38
336.919	3.38
337.709	4.38
338.498	0.38
339.287	4.38
340.077	2.38
340.866	2.38
341.655	3.38
342.444	0.38
343.233	0.38
344.022	2.38
344.811	0.38
345.6	2.38
346.388	2.38
347.177	1.38
347.965	2.38
348.754	5.38
349.542	1.38
350.33	2.38
351.119	3.38
351.907	1.38
352.695	2.38
353.483	0.38
354.271	2.38
355.059	1.38
355.846	3.38
356.634	2.38
357.422	1.38
358.209	3.38
358.997	2.38
359.784	4.38
360.571	2.38
361.359	1.38
362.146	1.38
362.933	2.38
363.72	1.38
364.507	2.38
365.294	2.38
366.081	0.38
366.867	1.38
367.654	2.38
368.44	-0.62
369.227	1.38
370.013	0.38
370.8	0.38
371.586	2.38
372.372	1.38
373.158	4.38
373.944	4.38
374.73	1.38
375.516	-0.62
376.302	2.38
377.088	1.38
377.873	-1.62
378.659	4.38
379.445	1.38
380.23	2.38
381.015	-0.62
381.801	1.38
382.586	3.38
383.371	2.38
384.156	1.38
384.941	4.38
385.726	2.38
386.511	-0.62
387.296	1.38
388.08	1.38
388.865	2.38
389.649	3.38
390.434	1.38
391.218	1.38
392.003	2.38
392.787	2.38
393.571	2.38
394.355	2.38
395.139	4.38
395.923	1.38
396.707	3.38
397.491	0.38
398.274	2.38
399.058	3.38
399.842	2.38
400.625	1.38
401.408	-0.62
402.192	3.38
402.975	4.38
403.758	2.38
404.541	4.38
405.324	1.38
406.107	3.38
406.89	1.38
407.673	3.38
408.456	2.38
409.238	2.38
410.021	4.38
410.803	4.38
411.586	2.38
412.368	4.38
413.151	3.38
413.933	4.38
414.715	3.38
415.497	3.38
416.279	5.38
417.061	4.38
417.843	1.38
418.624	5.38
419.406	4.38
420.188	4.38
420.969	7.38
421.751	6.38
422.532	5.38
423.313	5.38
424.095	4.38
424.876	5.38
425.657	4.38
426.438	4.38
427.219	5.38
428	5.38
428.78	7.38
429.561	6.38
430.342	8.38
431.122	4.38
431.903	7.38
432.683	6.38
433.464	8.38
434.244	7.38
435.024	8.38
435.804	8.38
436.584	9.38
437.364	9.38
438.144	7.38
438.924	10.38
439.704	10.38
440.483	9.38
441.263	11.38
442.042	11.38
442.822	11.38
443.601	14.38
444.38	14.38
445.16	16.38
445.939	15.38
446.718	19.38
447.497	18.38
448.276	21.38
449.054	22.38
449.833	23.38
450.612	24.38
451.391	29.38
452.169	30.38
452.948	34.38
453.726	36.38
454.504	37.38
455.282	43.38
456.061	46.38
456.839	51.38
457.617	60.38
458.395	63.38
459.172	74.38
459.95	79.38
460.728	90.38
461.506	95.38
462.283	112.38
463.061	123.38
463.838	129.38
464.615	153.38
465.393	171.38
466.17	192.38
466.947	204.38
467.724	232.38
468.501	256.38
469.278	281.38
470.055	319.38
470.831	351.38
471.608	388.38
472.385	435.38
473.161	477.38
473.938	526.38
474.714	592.38
475.49	644.38
476.266	712.38
477.043	788.38
477.819	864.38
478.595	948.38
479.371	1049.38
480.146	1163.38
480.922	1283.38
481.698	1411.38
482.473	1538.38
483.249	1689.38
484.024	1851.38
484.8	2028.38
485.575	2212.38
486.35	2465.38
487.126	2680.38
487.901	2920.38
488.676	3212.38
489.451	3549.38
490.225	3843.38
491	4202.38
491.775	4615.38
492.55	5039.38
493.324	5498.38
494.099	6006.38
494.873	6532.38
495.647	7104.38
496.422	7688.38
497.196	8301.38
497.97	8947.38
498.744	9627.38
499.518	10303.38
500.292	11032.38
501.066	11712.38
501.839	12326.38
502.613	12976.38
503.387	13544.38
504.16	14096.38
504.934	14599.38
505.707	14962.38
506.48	15272.38
507.253	15578.38
508.027	15649.38
508.8	15794.38
509.573	15679.38
510.346	15490.38
511.118	15328.38
511.891	14975.38
512.664	14578.38
513.437	14135.38
514.209	13691.38
514.982	13230.38
515.754	12678.38
516.526	12243.38
517.298	11677.38
518.071	11212.38
518.843	10764.38
519.615	10277.38
520.387	9837.38
521.159	9454.38
521.93	9061.38
522.702	8698.38
523.474	8386.38
524.245	8036.38
525.017	7732.38
525.788	7405.38
526.56	7112.38
527.331	6828.38
528.102	6539.38
528.873	6283.38
529.644	5984.38
530.415	5751.38
531.186	5499.38
531.957	5202.38
532.728	4938.38
533.498	4693.38
534.269	4424.38
535.039	4217.38
535.81	3997.38
536.58	3755.38
537.351	3555.38
538.121	3383.38
538.891	3179.38
539.661	3001.38
540.431	2844.38
541.201	2701.38
541.971	2557.38
542.741	2424.38
543.51	2284.38
544.28	2175.38
545.05	2061.38
545.819	1950.38
546.588	1855.38
547.358	1765.38
548.127	1693.38
548.896	1610.38
549.665	1525.38
550.434	1442.38
551.203	1374.38
551.972	1301.38
552.741	1239.38
553.51	1173.38
554.278	1109.38
555.047	1050.38
555.815	986.38
556.584	940.38
557.352	882.38
558.121	832.38
558.889	777.38
559.657	743.38
560.425	691.38
561.193	651.38
561.961	627.38
562.729	592.38
563.496	557.38
564.264	523.38
565.032	497.38
565.799	466.38
566.567	435.38
567.334	421.38
568.101	389.38
568.869	372.38
569.636	348.38
570.403	334.38
571.17	307.38
571.937	290.38
572.704	278.38
573.471	260.38
574.237	246.38
575.004	223.38
575.771	219.38
576.537	204.38
577.303	191.38
578.07	179.38
578.836	171.38
579.602	160.38
580.368	152.38
581.134	144.38
581.9	133.38
582.666	126.38
583.432	124.38
584.198	117.38
584.964	109.38
585.729	100.38
586.495	102.38
587.26	94.38
588.025	91.38
588.791	83.38
589.556	77.38
590.321	74.38
591.086	66.38
591.851	65.38
592.616	62.38
593.381	61.38
594.146	52.38
594.911	57.38
595.675	49.38
596.44	46.38
597.204	48.38
597.969	41.38
598.733	42.38
599.497	38.38
600.261	38.38
601.025	36.38
601.79	33.38
602.553	33.38
603.317	29.38
604.081	27.38
604.845	25.38
605.609	29.38
606.372	27.38
607.136	23.38
607.899	25.38
608.662	20.38
609.426	23.38
610.189	21.38
610.952	22.38
611.715	18.38
612.478	16.38
613.241	17.38
614.004	14.38
614.767	18.38
615.529	16.38
616.292	12.38
617.055	14.38
617.817	13.38
618.579	12.38
619.342	11.38
620.104	11.38
620.866	9.38
621.628	11.38
622.39	12.38
623.152	9.38
623.914	11.38
624.676	7.38
625.438	12.38
626.199	10.38
626.961	9.38
627.722	6.38
628.484	8.38
629.245	5.38
630.006	4.38
630.768	5.38
631.529	8.38
632.29	7.38
633.051	6.38
633.812	5.38
634.573	5.38
635.333	4.38
636.094	7.38
636.855	6.38
637.615	3.38
638.376	6.38
639.136	4.38
639.896	4.38
640.657	4.38
641.417	6.38
642.177	4.38
642.937	3.38
643.697	8.38
644.457	4.38
645.216	5.38
645.976	1.38
646.736	4.38
647.495	5.38
648.255	2.38
649.014	2.38
649.774	1.38
650.533	2.38
651.292	3.38
652.051	5.38
652.81	4.38
653.569	3.38
654.328	1.38
655.087	0.38
655.846	3.38
656.604	3.38
657.363	2.38
658.121	0.38
658.88	4.38
659.638	3.38
660.397	2.38
661.155	3.38
661.913	-0.62
662.671	4.38
663.429	0.38
664.187	1.38
664.945	0.38
665.703	1.38
666.46	4.38
667.218	2.38
667.976	2.38
668.733	2.38
669.49	1.38
670.248	2.38
671.005	2.38
671.762	1.38
672.519	1.38
673.276	2.38
674.033	0.38
674.79	0.38
675.547	1.38
676.304	0.38
677.06	1.38
677.817	-1.62
678.574	2.38
679.33	0.38
680.086	1.38
680.843	0.38
681.599	0.38
682.355	2.38
683.111	1.38
683.867	1.38
684.623	1.38
685.379	0.38
686.135	1.38
686.89	2.38
687.646	3.38
688.402	1.38
689.157	3.38
689.912	2.38
690.668	0.38
691.423	0.38
692.178	0.38
692.933	2.38
693.688	0.38
694.443	0.38
695.198	0.38
695.953	0.38
696.708	1.38
697.462	1.38
698.217	3.38
698.972	0.38
699.726	1.38
700.48	0.38
701.235	0.38
701.989	1.38
702.743	-2.62
703.497	2.38
704.251	0.38
705.005	0.38
705.759	2.38
706.513	1.38
707.266	0.38
708.02	0.38
708.774	2.38
709.527	3.38
710.28	0.38
711.034	4.38
711.787	-0.62
712.54	0.38
713.293	0.38
714.046	2.38
714.799	0.38
715.552	3.38
716.305	0.38
717.058	1.38
717.81	1.38
718.563	1.38
719.315	1.38
720.068	1.38
720.82	1.38
721.573	2.38
722.325	1.38
723.077	0.38
723.829	1.38
724.581	0.38
725.333	0.38
726.085	0.38
726.836	2.38
727.588	0.38
728.34	2.38
729.091	-0.62
729.843	0.38
730.594	0.38
731.346	0.38
732.097	2.38
732.848	0.38
733.599	2.38
734.35	0.38
735.101	4.38
735.852	2.38
736.603	0.38
737.354	0.38
738.104	0.38
738.855	2.38
739.605	1.38
740.356	2.38
741.106	0.38
741.856	0.38
742.607	0.38
743.357	0.38
744.107	2.38
744.857	1.38
745.607	1.38
746.357	0.38
747.106	0.38
747.856	0.38
748.606	0.38
749.355	4.38
750.105	0.38
750.854	1.38
751.603	2.38
752.353	0.38
753.102	2.38
753.851	3.38
754.6	2.38
755.349	0.38
756.098	0.38
756.847	1.38
757.595	1.38
758.344	3.38
759.093	3.38
759.841	1.38
760.589	1.38
761.338	2.38
762.086	1.38
762.834	2.38
763.582	3.38
764.331	0.38
765.079	3.38
765.826	1.38
766.574	3.38
767.322	4.38
768.07	4.38
768.817	2.38
769.565	2.38
770.312	-0.62
771.06	5.38
771.807	3.38
772.554	3.38
773.302	3.38
774.049	4.38
774.796	1.38
775.543	4.38
776.29	1.38
777.036	4.38
777.783	4.38
778.53	3.38
779.276	4.38
780.023	4.38
780.769	4.38
781.516	3.38
782.262	3.38
783.008	4.38
783.754	4.38
784.5	6.38
785.246	4.38
785.992	4.38
786.738	4.38
787.484	4.38
788.23	4.38
788.975	0.38
789.721	3.38
790.466	1.38
791.212	5.38
791.957	4.38
792.702	5.38
793.447	3.38
794.193	2.38
794.938	5.38
795.683	4.38
796.427	4.38
797.172	4.38
797.917	4.38
798.662	5.38
799.406	4.38
800.151	2.38
800.895	4.38
801.64	2.38
802.384	1.38
803.128	5.38
803.872	4.38
804.616	3.38
805.36	4.38
806.104	2.38
806.848	2.38
807.592	3.38
808.336	4.38
809.079	2.38
809.823	3.38
810.566	3.38
811.31	3.38
812.053	3.38
812.796	3.38
813.539	-0.62
814.283	1.38
815.026	1.38
815.769	1.38
816.511	2.38
817.254	4.38
817.997	2.38
818.74	2.38
819.482	1.38
820.225	1.38
820.967	1.38
821.71	0.38
822.452	2.38
823.194	4.38
823.936	1.38
824.678	3.38
825.42	2.38
826.162	0.38
826.904	2.38
827.646	1.38
828.388	1.38
829.129	1.38
829.871	1.38
830.612	0.38
831.354	-0.62
832.095	1.38
832.836	1.38
833.577	2.38
834.319	2.38
835.06	2.38
835.801	1.38
836.542	1.38
837.282	2.38
838.023	1.38
838.764	2.38
839.504	3.38
840.245	2.38
840.985	1.38
841.726	0.38
842.466	3.38
843.206	3.38
843.946	2.38
844.687	-0.62
845.427	1.38
846.166	1.38
846.906	-0.62
847.646	2.38
848.386	1.38
849.125	0.38
849.865	0.38
850.605	-0.62
851.344	0.38
852.083	2.38
852.823	1.38
853.562	1.38
854.301	3.38
855.04	2.38
855.779	0.38
856.518	1.38
857.257	0.38
857.995	0.38
858.734	-1.62
859.473	0.38
860.211	0.38
860.95	3.38
861.688	1.38
862.426	-0.62
863.165	1.38
863.903	-2.62
864.641	2.38
865.379	2.38
866.117	2.38
866.855	-1.62
867.593	0.38
868.33	1.38
869.068	-3.62
869.806	1.38
870.543	-1.62
871.28	0.38
872.018	0.38
872.755	0.38
873.492	0.38
874.229	0.38
874.967	1.38
875.703	-1.62
876.44	0.38
877.177	0.38
877.914	-0.62
878.651	0.38
879.387	-1.62
880.124	-1.62
880.86	0.38
881.597	-0.62
882.333	0.38
883.069	-1.62
883.806	-0.62
884.542	0.38
885.278	-2.62
886.014	1.38
886.749	-2.62
887.485	0.38
888.221	0.38
888.957	-0.62
889.692	0.38
890.428	0.38
891.163	-0.62
891.899	-0.62
892.634	-0.62
893.369	0.38
894.104	1.38
894.839	-0.62
895.574	-0.62
896.309	-2.62
897.044	-0.62
897.779	-2.62
898.514	-2.62
899.248	-0.62
899.983	0.38
900.717	0.38
901.452	-1.62
902.186	-0.62
902.92	-0.62
903.654	-0.62
904.389	-1.62
905.123	-0.62
905.857	0.38
906.59	-1.62
907.324	-1.62
908.058	-0.62
908.792	-0.62
909.525	1.38
910.259	-3.62
910.992	-1.62
911.726	0.38
912.459	-1.62
913.192	-2.62
913.925	0.38
914.658	0.38
915.391	-0.62
916.124	0.38
916.857	0.38
917.59	0.38
918.323	1.38
919.055	0.38
919.788	-2.62
920.521	0.38
921.253	-0.62
921.985	-0.62
922.718	0.38
923.45	-0.62
924.182	-2.62
924.914	1.38
925.646	-2.62
926.378	2.38
927.11	-0.62
927.841	1.38
928.573	-1.62
929.305	-2.62
930.036	1.38
930.768	-0.62
931.499	0.38
932.23	-1.62
932.962	-0.62
933.693	-0.62
934.424	0.38
935.155	2.38
935.886	-1.62
936.617	-0.62
937.348	-2.62
938.078	-2.62
938.809	1.38
939.54	0.38
940.27	1.38
941.001	0.38
941.731	0.38
942.461	1.38
943.191	-0.62
943.922	-1.62
944.652	-2.62
945.382	-0.62
946.112	-1.62
946.841	-0.62
947.571	-0.62
948.301	-1.62
949.031	-1.62
949.76	-2.62
950.49	0.38
951.219	1.38
951.948	0.38
952.678	1.38
953.407	-1.62
954.136	1.38
954.865	-2.62
955.594	-0.62
956.323	-0.62
957.052	-1.62
957.78	-0.62
958.509	-1.62
959.238	-0.62
959.966	-0.62
960.695	1.38
961.423	-0.62
962.151	-3.62
962.88	-1.62
963.608	-0.62
964.336	0.38
965.064	-1.62
965.792	-1.62
966.52	-0.62
967.247	-1.62
967.975	0.38
968.703	-2.62
969.43	-0.62
970.158	-2.62
970.885	1.38
971.613	-1.62
972.34	-0.62
973.067	-0.62
973.794	-0.62
974.521	2.38
975.248	-2.62
975.975	-0.62
976.702	-2.62
977.429	-0.62
978.156	-2.62
978.882	-2.62
979.609	-1.62
980.335	-1.62
981.062	0.38
981.788	-0.62
982.514	-2.62
983.24	-0.62
983.967	-2.62
984.693	0.38
985.419	-2.62
986.144	-2.62
986.87	-0.62
987.596	-0.62
988.322	-0.62
989.047	-2.62
989.773	-0.62
990.498	-1.62
991.224	-0.62
991.949	-0.62
992.674	-0.62
993.399	-1.62
994.124	-2.62
994.849	0.38
995.574	0.38
996.299	0.38
997.024	-2.62
997.749	0.38
998.473	-0.62
999.198	0.38
999.922	-2.62
1000.647	0.38
1001.371	3.38
1002.095	-1.62
1002.82	-0.62
1003.544	0.38
1004.268	-0.62
1004.992	-0.62
1005.716	-4.62
1006.439	-0.62
1007.163	1.38
1007.887	2.38
1008.611	-1.62
1009.334	1.38
1010.058	0.38
1010.781	0.38
1011.504	-0.62
1012.228	-0.62
1012.951	-0.62
1013.674	-0.62
1014.397	-0.62
1015.12	0.38
