节点500_145_QEPB04081__160__11-31-30-582.txt的数据

Date: Wed Nov 12 11:31:30 CST 2025
User: PC
Spectrometer: QEPB0408
触发模式: 0
积分时间 (秒): 1.000000E-2
Scans to average: 1
启用暗噪声校正: true
启用非线性校正: false
滑动平均宽度: 0
X轴模式: Wavelengths
Number of Pixels in Spectrum: 1044
>>>>>Begin Spectral Data<<<<<
220.843	-0.88
221.644	0.12
222.444	-1.88
223.244	-1.88
224.045	1.12
224.845	-1.88
225.645	1.12
226.445	-1.88
227.245	-2.88
228.045	0.12
228.845	-0.88
229.645	1.12
230.444	1.12
231.244	0.12
232.043	0.12
232.843	3.12
233.642	3.12
234.442	0.12
235.241	0.12
236.04	1.12
236.839	0.12
237.638	2.12
238.437	1.12
239.236	1.12
240.035	2.12
240.833	-0.88
241.632	1.12
242.43	1.12
243.229	3.12
244.027	2.12
244.826	-0.88
245.624	3.12
246.422	1.12
247.22	3.12
248.018	1.12
248.816	4.12
249.614	1.12
250.412	1.12
251.21	2.12
252.007	2.12
252.805	2.12
253.602	0.12
254.4	2.12
255.197	1.12
255.994	2.12
256.791	3.12
257.589	2.12
258.386	4.12
259.183	4.12
259.979	5.12
260.776	5.12
261.573	3.12
262.37	2.12
263.166	5.12
263.963	7.12
264.759	8.12
265.556	6.12
266.352	4.12
267.148	8.12
267.944	5.12
268.74	7.12
269.536	6.12
270.332	7.12
271.128	8.12
271.924	7.12
272.719	9.12
273.515	9.12
274.311	9.12
275.106	9.12
275.901	6.12
276.697	10.12
277.492	9.12
278.287	11.12
279.082	11.12
279.877	9.12
280.672	10.12
281.467	11.12
282.262	11.12
283.056	11.12
283.851	12.12
284.646	10.12
285.44	7.12
286.234	9.12
287.029	11.12
287.823	11.12
288.617	13.12
289.411	14.12
290.205	9.12
290.999	10.12
291.793	11.12
292.587	10.12
293.381	10.12
294.174	10.12
294.968	11.12
295.761	10.12
296.555	9.12
297.348	11.12
298.141	9.12
298.935	8.12
299.728	9.12
300.521	8.12
301.314	10.12
302.107	11.12
302.899	12.12
303.692	8.12
304.485	9.12
305.277	9.12
306.07	9.12
306.862	8.12
307.655	8.12
308.447	9.12
309.239	8.12
310.031	8.12
310.823	7.12
311.615	8.12
312.407	5.12
313.199	7.12
313.991	6.12
314.783	6.12
315.574	6.12
316.366	6.12
317.157	7.12
317.949	6.12
318.74	5.12
319.531	5.12
320.322	5.12
321.113	4.12
321.904	5.12
322.695	3.12
323.486	4.12
324.277	2.12
325.068	4.12
325.858	3.12
326.649	4.12
327.439	4.12
328.23	3.12
329.02	5.12
329.81	2.12
330.6	2.12
331.391	6.12
332.181	4.12
332.971	2.12
333.76	2.12
334.55	5.12
335.34	2.12
336.13	3.12
336.919	1.12
337.709	5.12
338.498	3.12
339.287	3.12
340.077	2.12
340.866	2.12
341.655	4.12
342.444	4.12
343.233	2.12
344.022	4.12
344.811	3.12
345.6	3.12
346.388	2.12
347.177	3.12
347.965	3.12
348.754	2.12
349.542	3.12
350.33	2.12
351.119	4.12
351.907	2.12
352.695	4.12
353.483	4.12
354.271	1.12
355.059	2.12
355.846	1.12
356.634	3.12
357.422	4.12
358.209	2.12
358.997	3.12
359.784	2.12
360.571	3.12
361.359	4.12
362.146	2.12
362.933	0.12
363.72	3.12
364.507	5.12
365.294	2.12
366.081	3.12
366.867	2.12
367.654	5.12
368.44	2.12
369.227	3.12
370.013	4.12
370.8	0.12
371.586	2.12
372.372	1.12
373.158	4.12
373.944	4.12
374.73	2.12
375.516	3.12
376.302	0.12
377.088	2.12
377.873	2.12
378.659	3.12
379.445	2.12
380.23	2.12
381.015	5.12
381.801	3.12
382.586	4.12
383.371	3.12
384.156	5.12
384.941	4.12
385.726	4.12
386.511	4.12
387.296	1.12
388.08	5.12
388.865	4.12
389.649	2.12
390.434	5.12
391.218	1.12
392.003	2.12
392.787	3.12
393.571	3.12
394.355	2.12
395.139	2.12
395.923	1.12
396.707	3.12
397.491	3.12
398.274	3.12
399.058	4.12
399.842	4.12
400.625	3.12
401.408	4.12
402.192	3.12
402.975	5.12
403.758	5.12
404.541	6.12
405.324	5.12
406.107	3.12
406.89	4.12
407.673	5.12
408.456	5.12
409.238	4.12
410.021	3.12
410.803	4.12
411.586	4.12
412.368	6.12
413.151	5.12
413.933	5.12
414.715	4.12
415.497	4.12
416.279	5.12
417.061	5.12
417.843	5.12
418.624	5.12
419.406	5.12
420.188	6.12
420.969	6.12
421.751	3.12
422.532	5.12
423.313	5.12
424.095	4.12
424.876	5.12
425.657	7.12
426.438	7.12
427.219	5.12
428	6.12
428.78	7.12
429.561	6.12
430.342	7.12
431.122	7.12
431.903	10.12
432.683	7.12
433.464	7.12
434.244	8.12
435.024	7.12
435.804	10.12
436.584	9.12
437.364	8.12
438.144	10.12
438.924	9.12
439.704	11.12
440.483	11.12
441.263	12.12
442.042	13.12
442.822	14.12
443.601	15.12
444.38	13.12
445.16	14.12
445.939	14.12
446.718	17.12
447.497	19.12
448.276	16.12
449.054	20.12
449.833	23.12
450.612	23.12
451.391	24.12
452.169	29.12
452.948	30.12
453.726	32.12
454.504	35.12
455.282	37.12
456.061	40.12
456.839	43.12
457.617	50.12
458.395	56.12
459.172	62.12
459.95	70.12
460.728	74.12
461.506	89.12
462.283	93.12
463.061	106.12
463.838	117.12
464.615	125.12
465.393	144.12
466.17	161.12
466.947	182.12
467.724	201.12
468.501	222.12
469.278	245.12
470.055	275.12
470.831	309.12
471.608	350.12
472.385	395.12
473.161	432.12
473.938	480.12
474.714	534.12
475.49	593.12
476.266	658.12
477.043	739.12
477.819	801.12
478.595	892.12
479.371	1015.12
480.146	1108.12
480.922	1249.12
481.698	1363.12
482.473	1525.12
483.249	1670.12
484.024	1850.12
484.8	2035.12
485.575	2279.12
486.35	2514.12
487.126	2783.12
487.901	3073.12
488.676	3412.12
489.451	3737.12
490.225	4158.12
491	4606.12
491.775	5015.12
492.55	5512.12
493.324	6086.12
494.099	6673.12
494.873	7298.12
495.647	7970.12
496.422	8665.12
497.196	9333.12
497.97	10170.12
498.744	10923.12
499.518	11701.12
500.292	12439.12
501.066	13208.12
501.839	13918.12
502.613	14598.12
503.387	15203.12
504.16	15628.12
504.934	16074.12
505.707	16452.12
506.48	16604.12
507.253	16714.12
508.027	16732.12
508.8	16654.12
509.573	16359.12
510.346	16045.12
511.118	15660.12
511.891	15225.12
512.664	14692.12
513.437	14110.12
514.209	13497.12
514.982	13046.12
515.754	12427.12
516.526	11837.12
517.298	11292.12
518.071	10775.12
518.843	10263.12
519.615	9860.12
520.387	9458.12
521.159	9078.12
521.93	8727.12
522.702	8386.12
523.474	8043.12
524.245	7693.12
525.017	7441.12
525.788	7131.12
526.56	6833.12
527.331	6550.12
528.102	6251.12
528.873	5973.12
529.644	5680.12
530.415	5433.12
531.186	5166.12
531.957	4896.12
532.728	4604.12
533.498	4367.12
534.269	4132.12
535.039	3896.12
535.81	3676.12
536.58	3480.12
537.351	3250.12
538.121	3100.12
538.891	2939.12
539.661	2763.12
540.431	2600.12
541.201	2477.12
541.971	2336.12
542.741	2217.12
543.51	2122.12
544.28	1993.12
545.05	1904.12
545.819	1816.12
546.588	1716.12
547.358	1620.12
548.127	1563.12
548.896	1486.12
549.665	1399.12
550.434	1336.12
551.203	1261.12
551.972	1189.12
552.741	1131.12
553.51	1072.12
554.278	1008.12
555.047	956.12
555.815	888.12
556.584	835.12
557.352	795.12
558.121	753.12
558.889	702.12
559.657	668.12
560.425	639.12
561.193	597.12
561.961	555.12
562.729	528.12
563.496	492.12
564.264	467.12
565.032	444.12
565.799	418.12
566.567	391.12
567.334	376.12
568.101	352.12
568.869	330.12
569.636	313.12
570.403	292.12
571.17	282.12
571.937	265.12
572.704	251.12
573.471	235.12
574.237	219.12
575.004	209.12
575.771	197.12
576.537	184.12
577.303	166.12
578.07	158.12
578.836	151.12
579.602	145.12
580.368	133.12
581.134	126.12
581.9	125.12
582.666	109.12
583.432	107.12
584.198	100.12
584.964	98.12
585.729	90.12
586.495	85.12
587.26	83.12
588.025	77.12
588.791	74.12
589.556	71.12
590.321	66.12
591.086	63.12
591.851	55.12
592.616	55.12
593.381	54.12
594.146	48.12
594.911	48.12
595.675	49.12
596.44	44.12
597.204	44.12
597.969	39.12
598.733	35.12
599.497	37.12
600.261	35.12
601.025	30.12
601.79	32.12
602.553	29.12
603.317	27.12
604.081	27.12
604.845	26.12
605.609	26.12
606.372	24.12
607.136	22.12
607.899	22.12
608.662	22.12
609.426	20.12
610.189	21.12
610.952	20.12
611.715	21.12
612.478	20.12
613.241	17.12
614.004	15.12
614.767	13.12
615.529	17.12
616.292	12.12
617.055	14.12
617.817	12.12
618.579	12.12
619.342	11.12
620.104	12.12
620.866	12.12
621.628	13.12
622.39	11.12
623.152	11.12
623.914	8.12
624.676	10.12
625.438	7.12
626.199	10.12
626.961	9.12
627.722	9.12
628.484	10.12
629.245	8.12
630.006	8.12
630.768	8.12
631.529	8.12
632.29	4.12
633.051	7.12
633.812	6.12
634.573	7.12
635.333	5.12
636.094	6.12
636.855	8.12
637.615	5.12
638.376	4.12
639.136	2.12
639.896	4.12
640.657	6.12
641.417	5.12
642.177	5.12
642.937	3.12
643.697	5.12
644.457	5.12
645.216	5.12
645.976	4.12
646.736	4.12
647.495	2.12
648.255	6.12
649.014	6.12
649.774	4.12
650.533	5.12
651.292	3.12
652.051	4.12
652.81	3.12
653.569	3.12
654.328	2.12
655.087	5.12
655.846	2.12
656.604	4.12
657.363	4.12
658.121	2.12
658.88	0.12
659.638	2.12
660.397	2.12
661.155	2.12
661.913	5.12
662.671	0.12
663.429	2.12
664.187	3.12
664.945	4.12
665.703	2.12
666.46	1.12
667.218	5.12
667.976	3.12
668.733	1.12
669.49	3.12
670.248	3.12
671.005	3.12
671.762	3.12
672.519	4.12
673.276	3.12
674.033	2.12
674.79	0.12
675.547	3.12
676.304	2.12
677.06	2.12
677.817	2.12
678.574	3.12
679.33	2.12
680.086	1.12
680.843	4.12
681.599	5.12
682.355	4.12
683.111	3.12
683.867	1.12
684.623	2.12
685.379	4.12
686.135	2.12
686.89	2.12
687.646	2.12
688.402	2.12
689.157	4.12
689.912	4.12
690.668	5.12
691.423	2.12
692.178	2.12
692.933	2.12
693.688	2.12
694.443	3.12
695.198	1.12
695.953	2.12
696.708	2.12
697.462	5.12
698.217	4.12
698.972	3.12
699.726	1.12
700.48	1.12
701.235	3.12
701.989	2.12
702.743	4.12
703.497	2.12
704.251	1.12
705.005	2.12
705.759	3.12
706.513	2.12
707.266	1.12
708.02	2.12
708.774	4.12
709.527	0.12
710.28	1.12
711.034	3.12
711.787	0.12
712.54	1.12
713.293	2.12
714.046	3.12
714.799	1.12
715.552	4.12
716.305	2.12
717.058	2.12
717.81	1.12
718.563	1.12
719.315	3.12
720.068	0.12
720.82	1.12
721.573	1.12
722.325	0.12
723.077	2.12
723.829	4.12
724.581	0.12
725.333	1.12
726.085	3.12
726.836	1.12
727.588	2.12
728.34	3.12
729.091	2.12
729.843	3.12
730.594	0.12
731.346	1.12
732.097	2.12
732.848	2.12
733.599	2.12
734.35	2.12
735.101	2.12
735.852	3.12
736.603	3.12
737.354	3.12
738.104	0.12
738.855	1.12
739.605	1.12
740.356	3.12
741.106	2.12
741.856	5.12
742.607	1.12
743.357	2.12
744.107	3.12
744.857	2.12
745.607	3.12
746.357	2.12
747.106	3.12
747.856	3.12
748.606	4.12
749.355	1.12
750.105	3.12
750.854	4.12
751.603	2.12
752.353	2.12
753.102	2.12
753.851	2.12
754.6	3.12
755.349	0.12
756.098	4.12
756.847	2.12
757.595	4.12
758.344	3.12
759.093	3.12
759.841	5.12
760.589	3.12
761.338	1.12
762.086	2.12
762.834	2.12
763.582	3.12
764.331	3.12
765.079	3.12
765.826	3.12
766.574	5.12
767.322	3.12
768.07	4.12
768.817	3.12
769.565	3.12
770.312	2.12
771.06	4.12
771.807	5.12
772.554	4.12
773.302	4.12
774.049	2.12
774.796	5.12
775.543	4.12
776.29	2.12
777.036	6.12
777.783	4.12
778.53	5.12
779.276	6.12
780.023	2.12
780.769	5.12
781.516	5.12
782.262	6.12
783.008	3.12
783.754	3.12
784.5	4.12
785.246	3.12
785.992	5.12
786.738	2.12
787.484	7.12
788.23	5.12
788.975	6.12
789.721	5.12
790.466	8.12
791.212	6.12
791.957	5.12
792.702	3.12
793.447	7.12
794.193	2.12
794.938	5.12
795.683	4.12
796.427	5.12
797.172	4.12
797.917	5.12
798.662	4.12
799.406	3.12
800.151	6.12
800.895	4.12
801.64	5.12
802.384	4.12
803.128	5.12
803.872	3.12
804.616	3.12
805.36	3.12
806.104	4.12
806.848	6.12
807.592	2.12
808.336	4.12
809.079	3.12
809.823	2.12
810.566	3.12
811.31	3.12
812.053	3.12
812.796	1.12
813.539	3.12
814.283	3.12
815.026	4.12
815.769	5.12
816.511	4.12
817.254	4.12
817.997	2.12
818.74	4.12
819.482	3.12
820.225	2.12
820.967	3.12
821.71	1.12
822.452	2.12
823.194	2.12
823.936	5.12
824.678	1.12
825.42	2.12
826.162	4.12
826.904	2.12
827.646	3.12
828.388	2.12
829.129	1.12
829.871	1.12
830.612	4.12
831.354	1.12
832.095	2.12
832.836	4.12
833.577	4.12
834.319	2.12
835.06	3.12
835.801	2.12
836.542	2.12
837.282	3.12
838.023	2.12
838.764	2.12
839.504	-1.88
840.245	3.12
840.985	2.12
841.726	1.12
842.466	2.12
843.206	3.12
843.946	2.12
844.687	2.12
845.427	4.12
846.166	3.12
846.906	5.12
847.646	3.12
848.386	4.12
849.125	2.12
849.865	1.12
850.605	2.12
851.344	0.12
852.083	2.12
852.823	2.12
853.562	2.12
854.301	4.12
855.04	0.12
855.779	1.12
856.518	1.12
857.257	3.12
857.995	2.12
858.734	2.12
859.473	1.12
860.211	0.12
860.95	3.12
861.688	2.12
862.426	3.12
863.165	1.12
863.903	0.12
864.641	2.12
865.379	0.12
866.117	2.12
866.855	-1.88
867.593	1.12
868.33	2.12
869.068	2.12
869.806	2.12
870.543	1.12
871.28	1.12
872.018	2.12
872.755	0.12
873.492	1.12
874.229	1.12
874.967	1.12
875.703	1.12
876.44	3.12
877.177	3.12
877.914	-0.88
878.651	1.12
879.387	0.12
880.124	0.12
880.86	-0.88
881.597	3.12
882.333	0.12
883.069	-0.88
883.806	0.12
884.542	0.12
885.278	1.12
886.014	0.12
886.749	0.12
887.485	0.12
888.221	4.12
888.957	0.12
889.692	0.12
890.428	1.12
891.163	0.12
891.899	1.12
892.634	1.12
893.369	-1.88
894.104	1.12
894.839	-0.88
895.574	-1.88
896.309	-1.88
897.044	2.12
897.779	1.12
898.514	0.12
899.248	1.12
899.983	0.12
900.717	1.12
901.452	0.12
902.186	2.12
902.92	2.12
903.654	1.12
904.389	1.12
905.123	1.12
905.857	2.12
906.59	0.12
907.324	2.12
908.058	0.12
908.792	-0.88
909.525	0.12
910.259	0.12
910.992	2.12
911.726	0.12
912.459	1.12
913.192	-0.88
913.925	0.12
914.658	2.12
915.391	-1.88
916.124	1.12
916.857	-1.88
917.59	3.12
918.323	2.12
919.055	-0.88
919.788	-0.88
920.521	1.12
921.253	2.12
921.985	0.12
922.718	-0.88
923.45	1.12
924.182	1.12
924.914	-0.88
925.646	0.12
926.378	0.12
927.11	1.12
927.841	-0.88
928.573	-1.88
929.305	0.12
930.036	-1.88
930.768	1.12
931.499	0.12
932.23	0.12
932.962	0.12
933.693	-1.88
934.424	3.12
935.155	0.12
935.886	0.12
936.617	1.12
937.348	-1.88
938.078	0.12
938.809	0.12
939.54	-1.88
940.27	1.12
941.001	1.12
941.731	3.12
942.461	-0.88
943.191	0.12
943.922	2.12
944.652	0.12
945.382	1.12
946.112	-1.88
946.841	0.12
947.571	1.12
948.301	-1.88
949.031	-0.88
949.76	0.12
950.49	-0.88
951.219	0.12
951.948	0.12
952.678	2.12
953.407	-0.88
954.136	-0.88
954.865	0.12
955.594	-1.88
956.323	-0.88
957.052	1.12
957.78	-0.88
958.509	0.12
959.238	0.12
959.966	-2.88
960.695	0.12
961.423	0.12
962.151	1.12
962.88	0.12
963.608	-0.88
964.336	3.12
965.064	2.12
965.792	1.12
966.52	0.12
967.247	1.12
967.975	0.12
968.703	1.12
969.43	1.12
970.158	-0.88
970.885	1.12
971.613	2.12
972.34	-1.88
973.067	2.12
973.794	-1.88
974.521	0.12
975.248	1.12
975.975	-0.88
976.702	-1.88
977.429	2.12
978.156	0.12
978.882	1.12
979.609	2.12
980.335	0.12
981.062	2.12
981.788	1.12
982.514	-0.88
983.24	2.12
983.967	0.12
984.693	0.12
985.419	1.12
986.144	2.12
986.87	0.12
987.596	1.12
988.322	0.12
989.047	-1.88
989.773	2.12
990.498	-0.88
991.224	0.12
991.949	0.12
992.674	0.12
993.399	0.12
994.124	-0.88
994.849	-0.88
995.574	-1.88
996.299	-0.88
997.024	-0.88
997.749	-1.88
998.473	0.12
999.198	-1.88
999.922	1.12
1000.647	0.12
1001.371	3.12
1002.095	-0.88
1002.82	-1.88
1003.544	0.12
1004.268	-2.88
1004.992	-0.88
1005.716	-1.88
1006.439	-0.88
1007.163	0.12
1007.887	-0.88
1008.611	0.12
1009.334	0.12
1010.058	-1.88
1010.781	-0.88
1011.504	0.12
1012.228	-0.88
1012.951	0.12
1013.674	0.12
1014.397	0.12
1015.12	-0.88
