节点500_145_QEPB04081__195__11-32-04-517.txt的数据

Date: Wed Nov 12 11:32:04 CST 2025
User: PC
Spectrometer: QEPB0408
触发模式: 0
积分时间 (秒): 1.000000E-2
Scans to average: 1
启用暗噪声校正: true
启用非线性校正: false
滑动平均宽度: 0
X轴模式: Wavelengths
Number of Pixels in Spectrum: 1044
>>>>>Begin Spectral Data<<<<<
220.843	1.88
221.644	0.88
222.444	2.88
223.244	-0.12
224.045	1.88
224.845	-0.12
225.645	-0.12
226.445	0.88
227.245	0.88
228.045	2.88
228.845	-0.12
229.645	1.88
230.444	-1.12
231.244	1.88
232.043	1.88
232.843	2.88
233.642	0.88
234.442	0.88
235.241	1.88
236.04	0.88
236.839	2.88
237.638	-1.12
238.437	0.88
239.236	1.88
240.035	1.88
240.833	1.88
241.632	2.88
242.43	0.88
243.229	-0.12
244.027	1.88
244.826	2.88
245.624	2.88
246.422	4.88
247.22	-1.12
248.018	2.88
248.816	5.88
249.614	3.88
250.412	3.88
251.21	2.88
252.007	3.88
252.805	3.88
253.602	3.88
254.4	3.88
255.197	5.88
255.994	5.88
256.791	3.88
257.589	3.88
258.386	4.88
259.183	5.88
259.979	4.88
260.776	4.88
261.573	2.88
262.37	5.88
263.166	5.88
263.963	4.88
264.759	5.88
265.556	7.88
266.352	7.88
267.148	6.88
267.944	4.88
268.74	8.88
269.536	7.88
270.332	10.88
271.128	6.88
271.924	7.88
272.719	7.88
273.515	5.88
274.311	10.88
275.106	11.88
275.901	9.88
276.697	10.88
277.492	9.88
278.287	9.88
279.082	7.88
279.877	12.88
280.672	9.88
281.467	9.88
282.262	9.88
283.056	11.88
283.851	11.88
284.646	10.88
285.44	14.88
286.234	10.88
287.029	10.88
287.823	10.88
288.617	12.88
289.411	12.88
290.205	11.88
290.999	12.88
291.793	13.88
292.587	11.88
293.381	12.88
294.174	9.88
294.968	13.88
295.761	9.88
296.555	8.88
297.348	9.88
298.141	10.88
298.935	10.88
299.728	7.88
300.521	9.88
301.314	9.88
302.107	9.88
302.899	7.88
303.692	7.88
304.485	9.88
305.277	9.88
306.07	9.88
306.862	9.88
307.655	6.88
308.447	7.88
309.239	7.88
310.031	5.88
310.823	8.88
311.615	5.88
312.407	7.88
313.199	9.88
313.991	5.88
314.783	7.88
315.574	5.88
316.366	2.88
317.157	5.88
317.949	4.88
318.74	2.88
319.531	5.88
320.322	4.88
321.113	5.88
321.904	4.88
322.695	4.88
323.486	4.88
324.277	4.88
325.068	6.88
325.858	5.88
326.649	3.88
327.439	3.88
328.23	4.88
329.02	2.88
329.81	4.88
330.6	4.88
331.391	2.88
332.181	3.88
332.971	1.88
333.76	5.88
334.55	3.88
335.34	4.88
336.13	4.88
336.919	3.88
337.709	4.88
338.498	4.88
339.287	2.88
340.077	4.88
340.866	4.88
341.655	5.88
342.444	4.88
343.233	3.88
344.022	1.88
344.811	5.88
345.6	2.88
346.388	3.88
347.177	2.88
347.965	1.88
348.754	2.88
349.542	5.88
350.33	3.88
351.119	3.88
351.907	3.88
352.695	2.88
353.483	1.88
354.271	2.88
355.059	3.88
355.846	4.88
356.634	2.88
357.422	2.88
358.209	3.88
358.997	6.88
359.784	4.88
360.571	2.88
361.359	1.88
362.146	2.88
362.933	3.88
363.72	3.88
364.507	3.88
365.294	4.88
366.081	3.88
366.867	0.88
367.654	3.88
368.44	2.88
369.227	3.88
370.013	1.88
370.8	3.88
371.586	2.88
372.372	2.88
373.158	3.88
373.944	0.88
374.73	3.88
375.516	1.88
376.302	1.88
377.088	2.88
377.873	4.88
378.659	2.88
379.445	5.88
380.23	-1.12
381.015	2.88
381.801	3.88
382.586	1.88
383.371	1.88
384.156	5.88
384.941	2.88
385.726	2.88
386.511	1.88
387.296	1.88
388.08	2.88
388.865	3.88
389.649	1.88
390.434	3.88
391.218	3.88
392.003	2.88
392.787	4.88
393.571	3.88
394.355	2.88
395.139	4.88
395.923	3.88
396.707	7.88
397.491	2.88
398.274	4.88
399.058	5.88
399.842	3.88
400.625	4.88
401.408	3.88
402.192	4.88
402.975	4.88
403.758	5.88
404.541	6.88
405.324	1.88
406.107	5.88
406.89	3.88
407.673	5.88
408.456	4.88
409.238	6.88
410.021	4.88
410.803	6.88
411.586	3.88
412.368	2.88
413.151	5.88
413.933	5.88
414.715	5.88
415.497	5.88
416.279	3.88
417.061	4.88
417.843	2.88
418.624	7.88
419.406	7.88
420.188	5.88
420.969	3.88
421.751	5.88
422.532	5.88
423.313	6.88
424.095	7.88
424.876	7.88
425.657	6.88
426.438	4.88
427.219	7.88
428	7.88
428.78	6.88
429.561	7.88
430.342	7.88
431.122	8.88
431.903	12.88
432.683	7.88
433.464	9.88
434.244	7.88
435.024	9.88
435.804	11.88
436.584	7.88
437.364	11.88
438.144	11.88
438.924	10.88
439.704	10.88
440.483	12.88
441.263	13.88
442.042	11.88
442.822	13.88
443.601	14.88
444.38	17.88
445.16	14.88
445.939	17.88
446.718	21.88
447.497	15.88
448.276	21.88
449.054	21.88
449.833	23.88
450.612	24.88
451.391	30.88
452.169	30.88
452.948	30.88
453.726	33.88
454.504	36.88
455.282	39.88
456.061	42.88
456.839	48.88
457.617	51.88
458.395	59.88
459.172	64.88
459.95	73.88
460.728	78.88
461.506	85.88
462.283	98.88
463.061	110.88
463.838	116.88
464.615	137.88
465.393	156.88
466.17	166.88
466.947	190.88
467.724	211.88
468.501	233.88
469.278	263.88
470.055	290.88
470.831	323.88
471.608	359.88
472.385	402.88
473.161	443.88
473.938	493.88
474.714	569.88
475.49	612.88
476.266	685.88
477.043	761.88
477.819	842.88
478.595	948.88
479.371	1031.88
480.146	1139.88
480.922	1277.88
481.698	1389.88
482.473	1557.88
483.249	1717.88
484.024	1870.88
484.8	2098.88
485.575	2286.88
486.35	2553.88
487.126	2825.88
487.901	3117.88
488.676	3427.88
489.451	3805.88
490.225	4170.88
491	4618.88
491.775	5092.88
492.55	5551.88
493.324	6122.88
494.099	6703.88
494.873	7323.88
495.647	7980.88
496.422	8681.88
497.196	9381.88
497.97	10161.88
498.744	10949.88
499.518	11747.88
500.292	12495.88
501.066	13259.88
501.839	13957.88
502.613	14615.88
503.387	15259.88
504.16	15777.88
504.934	16224.88
505.707	16585.88
506.48	16830.88
507.253	16903.88
508.027	16940.88
508.8	16910.88
509.573	16658.88
510.346	16338.88
511.118	15953.88
511.891	15530.88
512.664	14967.88
513.437	14444.88
514.209	13845.88
514.982	13289.88
515.754	12740.88
516.526	12162.88
517.298	11586.88
518.071	11141.88
518.843	10539.88
519.615	10138.88
520.387	9708.88
521.159	9330.88
521.93	8931.88
522.702	8616.88
523.474	8255.88
524.245	7970.88
525.017	7628.88
525.788	7327.88
526.56	7016.88
527.331	6733.88
528.102	6456.88
528.873	6130.88
529.644	5868.88
530.415	5589.88
531.186	5298.88
531.957	5066.88
532.728	4798.88
533.498	4512.88
534.269	4263.88
535.039	4027.88
535.81	3825.88
536.58	3595.88
537.351	3403.88
538.121	3162.88
538.891	3018.88
539.661	2855.88
540.431	2704.88
541.201	2546.88
541.971	2434.88
542.741	2307.88
543.51	2177.88
544.28	2052.88
545.05	1970.88
545.819	1878.88
546.588	1770.88
547.358	1707.88
548.127	1598.88
548.896	1536.88
549.665	1447.88
550.434	1385.88
551.203	1307.88
551.972	1233.88
552.741	1176.88
553.51	1109.88
554.278	1034.88
555.047	988.88
555.815	927.88
556.584	887.88
557.352	817.88
558.121	772.88
558.889	727.88
559.657	681.88
560.425	641.88
561.193	624.88
561.961	574.88
562.729	545.88
563.496	513.88
564.264	483.88
565.032	450.88
565.799	430.88
566.567	417.88
567.334	383.88
568.101	360.88
568.869	344.88
569.636	331.88
570.403	308.88
571.17	289.88
571.937	272.88
572.704	257.88
573.471	242.88
574.237	230.88
575.004	216.88
575.771	204.88
576.537	184.88
577.303	179.88
578.07	173.88
578.836	163.88
579.602	153.88
580.368	141.88
581.134	138.88
581.9	121.88
582.666	116.88
583.432	113.88
584.198	106.88
584.964	102.88
585.729	97.88
586.495	90.88
587.26	85.88
588.025	80.88
588.791	79.88
589.556	71.88
590.321	65.88
591.086	61.88
591.851	61.88
592.616	56.88
593.381	56.88
594.146	51.88
594.911	54.88
595.675	46.88
596.44	45.88
597.204	43.88
597.969	38.88
598.733	41.88
599.497	41.88
600.261	37.88
601.025	34.88
601.79	30.88
602.553	30.88
603.317	30.88
604.081	28.88
604.845	28.88
605.609	30.88
606.372	26.88
607.136	21.88
607.899	26.88
608.662	24.88
609.426	19.88
610.189	20.88
610.952	18.88
611.715	21.88
612.478	18.88
613.241	17.88
614.004	14.88
614.767	13.88
615.529	16.88
616.292	14.88
617.055	14.88
617.817	10.88
618.579	14.88
619.342	12.88
620.104	12.88
620.866	14.88
621.628	10.88
622.39	12.88
623.152	10.88
623.914	9.88
624.676	9.88
625.438	10.88
626.199	9.88
626.961	7.88
627.722	10.88
628.484	7.88
629.245	7.88
630.006	8.88
630.768	7.88
631.529	8.88
632.29	7.88
633.051	8.88
633.812	8.88
634.573	7.88
635.333	8.88
636.094	8.88
636.855	6.88
637.615	5.88
638.376	6.88
639.136	6.88
639.896	7.88
640.657	4.88
641.417	5.88
642.177	3.88
642.937	2.88
643.697	3.88
644.457	5.88
645.216	3.88
645.976	5.88
646.736	4.88
647.495	2.88
648.255	4.88
649.014	5.88
649.774	3.88
650.533	4.88
651.292	2.88
652.051	3.88
652.81	3.88
653.569	3.88
654.328	5.88
655.087	3.88
655.846	6.88
656.604	3.88
657.363	3.88
658.121	3.88
658.88	3.88
659.638	4.88
660.397	3.88
661.155	1.88
661.913	0.88
662.671	4.88
663.429	5.88
664.187	2.88
664.945	4.88
665.703	2.88
666.46	4.88
667.218	3.88
667.976	4.88
668.733	3.88
669.49	4.88
670.248	1.88
671.005	2.88
671.762	5.88
672.519	3.88
673.276	1.88
674.033	3.88
674.79	3.88
675.547	1.88
676.304	3.88
677.06	2.88
677.817	2.88
678.574	4.88
679.33	2.88
680.086	1.88
680.843	2.88
681.599	2.88
682.355	2.88
683.111	1.88
683.867	0.88
684.623	4.88
685.379	1.88
686.135	-0.12
686.89	4.88
687.646	1.88
688.402	2.88
689.157	2.88
689.912	2.88
690.668	3.88
691.423	4.88
692.178	2.88
692.933	3.88
693.688	1.88
694.443	2.88
695.198	2.88
695.953	1.88
696.708	2.88
697.462	3.88
698.217	3.88
698.972	1.88
699.726	2.88
700.48	2.88
701.235	2.88
701.989	0.88
702.743	2.88
703.497	0.88
704.251	2.88
705.005	1.88
705.759	2.88
706.513	1.88
707.266	2.88
708.02	2.88
708.774	3.88
709.527	1.88
710.28	0.88
711.034	1.88
711.787	3.88
712.54	3.88
713.293	0.88
714.046	1.88
714.799	2.88
715.552	1.88
716.305	3.88
717.058	1.88
717.81	1.88
718.563	2.88
719.315	1.88
720.068	2.88
720.82	1.88
721.573	1.88
722.325	2.88
723.077	3.88
723.829	2.88
724.581	-0.12
725.333	1.88
726.085	2.88
726.836	4.88
727.588	2.88
728.34	1.88
729.091	2.88
729.843	4.88
730.594	-0.12
731.346	3.88
732.097	2.88
732.848	2.88
733.599	2.88
734.35	2.88
735.101	1.88
735.852	3.88
736.603	2.88
737.354	2.88
738.104	3.88
738.855	2.88
739.605	3.88
740.356	0.88
741.106	4.88
741.856	4.88
742.607	2.88
743.357	1.88
744.107	2.88
744.857	5.88
745.607	1.88
746.357	1.88
747.106	2.88
747.856	3.88
748.606	1.88
749.355	2.88
750.105	3.88
750.854	4.88
751.603	3.88
752.353	3.88
753.102	4.88
753.851	1.88
754.6	3.88
755.349	4.88
756.098	3.88
756.847	2.88
757.595	2.88
758.344	2.88
759.093	1.88
759.841	1.88
760.589	3.88
761.338	4.88
762.086	3.88
762.834	6.88
763.582	2.88
764.331	5.88
765.079	3.88
765.826	5.88
766.574	2.88
767.322	4.88
768.07	4.88
768.817	2.88
769.565	5.88
770.312	2.88
771.06	4.88
771.807	4.88
772.554	5.88
773.302	6.88
774.049	6.88
774.796	5.88
775.543	4.88
776.29	4.88
777.036	6.88
777.783	6.88
778.53	7.88
779.276	4.88
780.023	6.88
780.769	3.88
781.516	7.88
782.262	5.88
783.008	6.88
783.754	7.88
784.5	4.88
785.246	5.88
785.992	4.88
786.738	5.88
787.484	6.88
788.23	5.88
788.975	4.88
789.721	5.88
790.466	5.88
791.212	3.88
791.957	4.88
792.702	7.88
793.447	4.88
794.193	9.88
794.938	6.88
795.683	6.88
796.427	3.88
797.172	4.88
797.917	4.88
798.662	6.88
799.406	5.88
800.151	4.88
800.895	4.88
801.64	5.88
802.384	4.88
803.128	4.88
803.872	4.88
804.616	4.88
805.36	3.88
806.104	4.88
806.848	3.88
807.592	6.88
808.336	5.88
809.079	3.88
809.823	2.88
810.566	2.88
811.31	4.88
812.053	5.88
812.796	4.88
813.539	2.88
814.283	4.88
815.026	4.88
815.769	1.88
816.511	4.88
817.254	2.88
817.997	2.88
818.74	4.88
819.482	2.88
820.225	0.88
820.967	3.88
821.71	3.88
822.452	2.88
823.194	1.88
823.936	4.88
824.678	3.88
825.42	3.88
826.162	1.88
826.904	2.88
827.646	4.88
828.388	2.88
829.129	3.88
829.871	4.88
830.612	2.88
831.354	2.88
832.095	4.88
832.836	4.88
833.577	3.88
834.319	4.88
835.06	3.88
835.801	3.88
836.542	1.88
837.282	1.88
838.023	4.88
838.764	1.88
839.504	1.88
840.245	0.88
840.985	3.88
841.726	2.88
842.466	4.88
843.206	0.88
843.946	2.88
844.687	5.88
845.427	1.88
846.166	3.88
846.906	1.88
847.646	3.88
848.386	2.88
849.125	3.88
849.865	2.88
850.605	2.88
851.344	2.88
852.083	2.88
852.823	2.88
853.562	1.88
854.301	4.88
855.04	2.88
855.779	2.88
856.518	1.88
857.257	1.88
857.995	1.88
858.734	2.88
859.473	1.88
860.211	4.88
860.95	1.88
861.688	2.88
862.426	1.88
863.165	2.88
863.903	1.88
864.641	0.88
865.379	-0.12
866.117	0.88
866.855	-0.12
867.593	2.88
868.33	3.88
869.068	2.88
869.806	0.88
870.543	1.88
871.28	1.88
872.018	0.88
872.755	3.88
873.492	2.88
874.229	3.88
874.967	0.88
875.703	3.88
876.44	-0.12
877.177	2.88
877.914	0.88
878.651	0.88
879.387	1.88
880.124	1.88
880.86	0.88
881.597	-0.12
882.333	0.88
883.069	-0.12
883.806	0.88
884.542	0.88
885.278	-0.12
886.014	1.88
886.749	-0.12
887.485	1.88
888.221	0.88
888.957	1.88
889.692	0.88
890.428	-0.12
891.163	1.88
891.899	2.88
892.634	3.88
893.369	1.88
894.104	-2.12
894.839	0.88
895.574	0.88
896.309	2.88
897.044	-0.12
897.779	-0.12
898.514	1.88
899.248	-0.12
899.983	0.88
900.717	-1.12
901.452	1.88
902.186	1.88
902.92	-0.12
903.654	0.88
904.389	0.88
905.123	2.88
905.857	1.88
906.59	2.88
907.324	-1.12
908.058	1.88
908.792	1.88
909.525	0.88
910.259	1.88
910.992	0.88
911.726	1.88
912.459	3.88
913.192	-0.12
913.925	0.88
914.658	-0.12
915.391	1.88
916.124	0.88
916.857	1.88
917.59	1.88
918.323	2.88
919.055	-0.12
919.788	-0.12
920.521	0.88
921.253	1.88
921.985	1.88
922.718	0.88
923.45	3.88
924.182	0.88
924.914	0.88
925.646	2.88
926.378	0.88
927.11	0.88
927.841	1.88
928.573	0.88
929.305	0.88
930.036	0.88
930.768	1.88
931.499	1.88
932.23	1.88
932.962	-0.12
933.693	-1.12
934.424	0.88
935.155	-0.12
935.886	1.88
936.617	1.88
937.348	0.88
938.078	0.88
938.809	1.88
939.54	0.88
940.27	0.88
941.001	2.88
941.731	-1.12
942.461	2.88
943.191	1.88
943.922	0.88
944.652	1.88
945.382	0.88
946.112	0.88
946.841	0.88
947.571	1.88
948.301	-0.12
949.031	-1.12
949.76	2.88
950.49	-0.12
951.219	1.88
951.948	-1.12
952.678	1.88
953.407	-0.12
954.136	-0.12
954.865	1.88
955.594	0.88
956.323	0.88
957.052	2.88
957.78	1.88
958.509	1.88
959.238	0.88
959.966	2.88
960.695	0.88
961.423	1.88
962.151	0.88
962.88	0.88
963.608	0.88
964.336	1.88
965.064	1.88
965.792	0.88
966.52	0.88
967.247	0.88
967.975	1.88
968.703	2.88
969.43	-1.12
970.158	0.88
970.885	-0.12
971.613	1.88
972.34	0.88
973.067	0.88
973.794	-1.12
974.521	2.88
975.248	0.88
975.975	0.88
976.702	1.88
977.429	-1.12
978.156	0.88
978.882	0.88
979.609	1.88
980.335	1.88
981.062	1.88
981.788	0.88
982.514	-0.12
983.24	0.88
983.967	-0.12
984.693	-1.12
985.419	3.88
986.144	-1.12
986.87	0.88
987.596	0.88
988.322	-1.12
989.047	0.88
989.773	1.88
990.498	0.88
991.224	-0.12
991.949	1.88
992.674	-2.12
993.399	2.88
994.124	2.88
994.849	0.88
995.574	1.88
996.299	0.88
997.024	0.88
997.749	-1.12
998.473	0.88
999.198	-0.12
999.922	0.88
1000.647	1.88
1001.371	4.88
1002.095	-2.12
1002.82	-1.12
1003.544	0.88
1004.268	1.88
1004.992	-0.12
1005.716	0.88
1006.439	0.88
1007.163	0.88
1007.887	-0.12
1008.611	1.88
1009.334	-0.12
1010.058	-1.12
1010.781	-0.12
1011.504	2.88
1012.228	-0.12
1012.951	-0.12
1013.674	-2.12
1014.397	-1.12
1015.12	0.88
