节点500_145_QEPB04081__473__11-36-29-548.txt的数据

Date: Wed Nov 12 11:36:29 CST 2025
User: PC
Spectrometer: QEPB0408
触发模式: 0
积分时间 (秒): 1.000000E-2
Scans to average: 1
启用暗噪声校正: true
启用非线性校正: false
滑动平均宽度: 0
X轴模式: Wavelengths
Number of Pixels in Spectrum: 1044
>>>>>Begin Spectral Data<<<<<
220.843	0
221.644	-1
222.444	1
223.244	-1
224.045	-1
224.845	2
225.645	0
226.445	0
227.245	1
228.045	1
228.845	2
229.645	2
230.444	2
231.244	-1
232.043	2
232.843	3
233.642	1
234.442	0
235.241	2
236.04	-1
236.839	0
237.638	2
238.437	2
239.236	2
240.035	4
240.833	1
241.632	4
242.43	2
243.229	6
244.027	2
244.826	2
245.624	2
246.422	2
247.22	5
248.018	2
248.816	3
249.614	2
250.412	4
251.21	3
252.007	2
252.805	4
253.602	4
254.4	1
255.197	3
255.994	4
256.791	2
257.589	4
258.386	2
259.183	2
259.979	3
260.776	5
261.573	4
262.37	5
263.166	4
263.963	8
264.759	6
265.556	6
266.352	6
267.148	7
267.944	8
268.74	6
269.536	7
270.332	7
271.128	9
271.924	8
272.719	7
273.515	10
274.311	7
275.106	9
275.901	10
276.697	8
277.492	8
278.287	8
279.082	10
279.877	9
280.672	10
281.467	9
282.262	11
283.056	10
283.851	8
284.646	11
285.44	9
286.234	13
287.029	10
287.823	11
288.617	14
289.411	13
290.205	8
290.999	9
291.793	11
292.587	10
293.381	13
294.174	13
294.968	14
295.761	11
296.555	11
297.348	10
298.141	10
298.935	11
299.728	9
300.521	11
301.314	11
302.107	9
302.899	9
303.692	8
304.485	8
305.277	8
306.07	6
306.862	9
307.655	10
308.447	8
309.239	6
310.031	7
310.823	7
311.615	6
312.407	9
313.199	5
313.991	7
314.783	7
315.574	6
316.366	7
317.157	5
317.949	6
318.74	5
319.531	6
320.322	4
321.113	6
321.904	6
322.695	6
323.486	7
324.277	4
325.068	6
325.858	6
326.649	7
327.439	2
328.23	4
329.02	5
329.81	4
330.6	5
331.391	3
332.181	6
332.971	4
333.76	4
334.55	3
335.34	2
336.13	7
336.919	5
337.709	5
338.498	5
339.287	7
340.077	5
340.866	5
341.655	6
342.444	2
343.233	4
344.022	4
344.811	4
345.6	3
346.388	4
347.177	6
347.965	6
348.754	4
349.542	5
350.33	2
351.119	4
351.907	3
352.695	2
353.483	6
354.271	3
355.059	4
355.846	3
356.634	3
357.422	4
358.209	2
358.997	4
359.784	6
360.571	6
361.359	3
362.146	4
362.933	1
363.72	4
364.507	4
365.294	4
366.081	5
366.867	3
367.654	4
368.44	2
369.227	3
370.013	3
370.8	3
371.586	3
372.372	2
373.158	5
373.944	2
374.73	2
375.516	3
376.302	4
377.088	4
377.873	1
378.659	6
379.445	3
380.23	2
381.015	2
381.801	3
382.586	3
383.371	3
384.156	4
384.941	4
385.726	3
386.511	3
387.296	4
388.08	5
388.865	2
389.649	6
390.434	3
391.218	5
392.003	3
392.787	3
393.571	1
394.355	2
395.139	4
395.923	5
396.707	3
397.491	4
398.274	3
399.058	5
399.842	2
400.625	6
401.408	3
402.192	5
402.975	3
403.758	4
404.541	6
405.324	5
406.107	6
406.89	5
407.673	3
408.456	4
409.238	3
410.021	5
410.803	4
411.586	5
412.368	5
413.151	5
413.933	4
414.715	6
415.497	3
416.279	5
417.061	6
417.843	6
418.624	5
419.406	6
420.188	4
420.969	5
421.751	6
422.532	7
423.313	7
424.095	6
424.876	6
425.657	6
426.438	8
427.219	8
428	7
428.78	6
429.561	8
430.342	8
431.122	7
431.903	11
432.683	9
433.464	9
434.244	10
435.024	9
435.804	9
436.584	10
437.364	7
438.144	12
438.924	11
439.704	13
440.483	11
441.263	14
442.042	11
442.822	11
443.601	14
444.38	16
445.16	15
445.939	17
446.718	18
447.497	18
448.276	22
449.054	23
449.833	26
450.612	27
451.391	25
452.169	30
452.948	32
453.726	38
454.504	41
455.282	47
456.061	49
456.839	51
457.617	62
458.395	67
459.172	71
459.95	82
460.728	88
461.506	96
462.283	107
463.061	126
463.838	139
464.615	149
465.393	167
466.17	187
466.947	207
467.724	226
468.501	255
469.278	288
470.055	316
470.831	354
471.608	393
472.385	432
473.161	481
473.938	526
474.714	587
475.49	642
476.266	714
477.043	789
477.819	873
478.595	963
479.371	1057
480.146	1162
480.922	1285
481.698	1410
482.473	1551
483.249	1690
484.024	1880
484.8	2046
485.575	2240
486.35	2471
487.126	2712
487.901	2973
488.676	3243
489.451	3583
490.225	3912
491	4281
491.775	4680
492.55	5115
493.324	5567
494.099	6110
494.873	6621
495.647	7182
496.422	7827
497.196	8460
497.97	9125
498.744	9812
499.518	10556
500.292	11221
501.066	11885
501.839	12605
502.613	13252
503.387	13821
504.16	14361
504.934	14900
505.707	15242
506.48	15552
507.253	15799
508.027	15883
508.8	15889
509.573	15871
510.346	15732
511.118	15443
511.891	15079
512.664	14725
513.437	14315
514.209	13813
514.982	13225
515.754	12751
516.526	12280
517.298	11707
518.071	11240
518.843	10774
519.615	10323
520.387	9899
521.159	9506
521.93	9060
522.702	8753
523.474	8407
524.245	8042
525.017	7779
525.788	7458
526.56	7125
527.331	6815
528.102	6553
528.873	6241
529.644	6001
530.415	5752
531.186	5443
531.957	5193
532.728	4937
533.498	4688
534.269	4442
535.039	4193
535.81	3967
536.58	3763
537.351	3553
538.121	3369
538.891	3189
539.661	3001
540.431	2856
541.201	2676
541.971	2548
542.741	2400
543.51	2288
544.28	2168
545.05	2056
545.819	1946
546.588	1850
547.358	1775
548.127	1670
548.896	1590
549.665	1511
550.434	1439
551.203	1367
551.972	1308
552.741	1243
553.51	1187
554.278	1103
555.047	1043
555.815	981
556.584	928
557.352	872
558.121	829
558.889	783
559.657	733
560.425	697
561.193	655
561.961	616
562.729	591
563.496	556
564.264	520
565.032	486
565.799	464
566.567	440
567.334	403
568.101	388
568.869	364
569.636	350
570.403	321
571.17	318
571.937	294
572.704	268
573.471	259
574.237	238
575.004	229
575.771	218
576.537	208
577.303	193
578.07	185
578.836	172
579.602	159
580.368	151
581.134	148
581.9	134
582.666	133
583.432	121
584.198	116
584.964	104
585.729	103
586.495	98
587.26	92
588.025	88
588.791	83
589.556	78
590.321	75
591.086	68
591.851	65
592.616	62
593.381	60
594.146	58
594.911	57
595.675	50
596.44	49
597.204	47
597.969	42
598.733	41
599.497	40
600.261	37
601.025	35
601.79	33
602.553	32
603.317	31
604.081	31
604.845	26
605.609	30
606.372	25
607.136	25
607.899	26
608.662	26
609.426	26
610.189	23
610.952	21
611.715	19
612.478	18
613.241	20
614.004	18
614.767	16
615.529	16
616.292	16
617.055	15
617.817	15
618.579	14
619.342	14
620.104	13
620.866	16
621.628	13
622.39	11
623.152	12
623.914	9
624.676	10
625.438	11
626.199	9
626.961	10
627.722	12
628.484	9
629.245	9
630.006	8
630.768	9
631.529	11
632.29	8
633.051	9
633.812	5
634.573	9
635.333	9
636.094	7
636.855	8
637.615	6
638.376	7
639.136	7
639.896	9
640.657	7
641.417	6
642.177	6
642.937	5
643.697	3
644.457	6
645.216	6
645.976	7
646.736	5
647.495	5
648.255	4
649.014	8
649.774	4
650.533	4
651.292	6
652.051	4
652.81	5
653.569	3
654.328	5
655.087	6
655.846	6
656.604	4
657.363	4
658.121	6
658.88	3
659.638	4
660.397	5
661.155	3
661.913	3
662.671	4
663.429	4
664.187	4
664.945	5
665.703	4
666.46	3
667.218	6
667.976	2
668.733	4
669.49	5
670.248	2
671.005	6
671.762	2
672.519	3
673.276	1
674.033	3
674.79	4
675.547	3
676.304	1
677.06	4
677.817	1
678.574	4
679.33	3
680.086	2
680.843	1
681.599	2
682.355	3
683.111	3
683.867	2
684.623	1
685.379	4
686.135	3
686.89	3
687.646	2
688.402	3
689.157	3
689.912	3
690.668	2
691.423	3
692.178	4
692.933	4
693.688	6
694.443	3
695.198	5
695.953	3
696.708	3
697.462	2
698.217	2
698.972	3
699.726	2
700.48	4
701.235	2
701.989	4
702.743	2
703.497	2
704.251	3
705.005	3
705.759	3
706.513	4
707.266	4
708.02	3
708.774	2
709.527	2
710.28	5
711.034	2
711.787	4
712.54	4
713.293	3
714.046	2
714.799	2
715.552	1
716.305	2
717.058	3
717.81	3
718.563	2
719.315	2
720.068	5
720.82	3
721.573	4
722.325	1
723.077	1
723.829	2
724.581	3
725.333	3
726.085	0
726.836	4
727.588	2
728.34	2
729.091	2
729.843	2
730.594	0
731.346	2
732.097	2
732.848	5
733.599	2
734.35	4
735.101	1
735.852	2
736.603	3
737.354	4
738.104	2
738.855	-1
739.605	2
740.356	4
741.106	4
741.856	4
742.607	1
743.357	4
744.107	4
744.857	5
745.607	2
746.357	4
747.106	3
747.856	5
748.606	1
749.355	3
750.105	2
750.854	1
751.603	3
752.353	1
753.102	5
753.851	6
754.6	3
755.349	4
756.098	2
756.847	4
757.595	4
758.344	2
759.093	2
759.841	2
760.589	5
761.338	4
762.086	6
762.834	4
763.582	4
764.331	4
765.079	3
765.826	5
766.574	3
767.322	4
768.07	3
768.817	6
769.565	6
770.312	5
771.06	4
771.807	3
772.554	5
773.302	6
774.049	2
774.796	4
775.543	4
776.29	4
777.036	5
777.783	6
778.53	4
779.276	6
780.023	7
780.769	4
781.516	6
782.262	7
783.008	3
783.754	5
784.5	4
785.246	7
785.992	5
786.738	7
787.484	5
788.23	6
788.975	6
789.721	6
790.466	8
791.212	5
791.957	7
792.702	6
793.447	6
794.193	6
794.938	5
795.683	6
796.427	4
797.172	3
797.917	5
798.662	4
799.406	5
800.151	3
800.895	6
801.64	5
802.384	3
803.128	7
803.872	7
804.616	5
805.36	4
806.104	4
806.848	4
807.592	6
808.336	4
809.079	4
809.823	4
810.566	3
811.31	5
812.053	4
812.796	3
813.539	1
814.283	6
815.026	2
815.769	4
816.511	4
817.254	2
817.997	4
818.74	4
819.482	4
820.225	4
820.967	1
821.71	3
822.452	3
823.194	5
823.936	2
824.678	6
825.42	4
826.162	1
826.904	6
827.646	4
828.388	4
829.129	3
829.871	5
830.612	3
831.354	5
832.095	2
832.836	4
833.577	2
834.319	4
835.06	3
835.801	3
836.542	2
837.282	4
838.023	2
838.764	3
839.504	4
840.245	2
840.985	2
841.726	2
842.466	4
843.206	3
843.946	5
844.687	4
845.427	2
846.166	2
846.906	3
847.646	4
848.386	3
849.125	1
849.865	3
850.605	3
851.344	3
852.083	1
852.823	3
853.562	5
854.301	3
855.04	5
855.779	1
856.518	3
857.257	-1
857.995	3
858.734	2
859.473	2
860.211	2
860.95	1
861.688	3
862.426	2
863.165	3
863.903	3
864.641	3
865.379	1
866.117	2
866.855	3
867.593	-1
868.33	2
869.068	1
869.806	0
870.543	1
871.28	1
872.018	4
872.755	2
873.492	1
874.229	2
874.967	0
875.703	2
876.44	2
877.177	2
877.914	1
878.651	-1
879.387	1
880.124	3
880.86	2
881.597	2
882.333	2
883.069	2
883.806	1
884.542	4
885.278	0
886.014	2
886.749	2
887.485	1
888.221	1
888.957	2
889.692	-1
890.428	2
891.163	0
891.899	1
892.634	2
893.369	0
894.104	1
894.839	3
895.574	1
896.309	2
897.044	-1
897.779	0
898.514	3
899.248	-1
899.983	-1
900.717	0
901.452	3
902.186	2
902.92	1
903.654	2
904.389	1
905.123	2
905.857	3
906.59	2
907.324	0
908.058	3
908.792	0
909.525	1
910.259	1
910.992	0
911.726	0
912.459	2
913.192	1
913.925	2
914.658	1
915.391	-1
916.124	2
916.857	2
917.59	1
918.323	3
919.055	1
919.788	0
920.521	0
921.253	1
921.985	1
922.718	-1
923.45	2
924.182	0
924.914	-1
925.646	0
926.378	1
927.11	1
927.841	1
928.573	1
929.305	2
930.036	2
930.768	2
931.499	1
932.23	-1
932.962	-1
933.693	2
934.424	-2
935.155	2
935.886	0
936.617	2
937.348	3
938.078	0
938.809	0
939.54	2
940.27	1
941.001	2
941.731	2
942.461	0
943.191	2
943.922	2
944.652	2
945.382	2
946.112	4
946.841	2
947.571	2
948.301	1
949.031	0
949.76	2
950.49	3
951.219	2
951.948	2
952.678	2
953.407	2
954.136	2
954.865	-1
955.594	0
956.323	-1
957.052	1
957.78	2
958.509	0
959.238	2
959.966	2
960.695	2
961.423	0
962.151	2
962.88	2
963.608	-1
964.336	2
965.064	2
965.792	1
966.52	0
967.247	2
967.975	0
968.703	1
969.43	1
970.158	3
970.885	1
971.613	1
972.34	2
973.067	1
973.794	0
974.521	-1
975.248	1
975.975	1
976.702	1
977.429	2
978.156	0
978.882	-1
979.609	2
980.335	-1
981.062	1
981.788	0
982.514	2
983.24	1
983.967	1
984.693	1
985.419	-1
986.144	1
986.87	1
987.596	0
988.322	1
989.047	2
989.773	3
990.498	-2
991.224	1
991.949	3
992.674	1
993.399	-1
994.124	1
994.849	0
995.574	1
996.299	0
997.024	0
997.749	1
998.473	1
999.198	1
999.922	0
1000.647	-1
1001.371	2
1002.095	-1
1002.82	-1
1003.544	-1
1004.268	1
1004.992	0
1005.716	0
1006.439	0
1007.163	1
1007.887	1
1008.611	4
1009.334	-1
1010.058	1
1010.781	3
1011.504	2
1012.228	2
1012.951	0
1013.674	-1
1014.397	2
1015.12	0
