节点500_145_QEPB04081__356__11-34-38-547.txt的数据

Date: Wed Nov 12 11:34:38 CST 2025
User: PC
Spectrometer: QEPB0408
触发模式: 0
积分时间 (秒): 1.000000E-2
Scans to average: 1
启用暗噪声校正: true
启用非线性校正: false
滑动平均宽度: 0
X轴模式: Wavelengths
Number of Pixels in Spectrum: 1044
>>>>>Begin Spectral Data<<<<<
220.843	-0.25
221.644	-0.25
222.444	-0.25
223.244	-0.25
224.045	4.75
224.845	0.75
225.645	0.75
226.445	0.75
227.245	-0.25
228.045	1.75
228.845	-1.25
229.645	1.75
230.444	0.75
231.244	-2.25
232.043	0.75
232.843	-0.25
233.642	-0.25
234.442	0.75
235.241	-1.25
236.04	1.75
236.839	0.75
237.638	0.75
238.437	-0.25
239.236	1.75
240.035	-1.25
240.833	2.75
241.632	-1.25
242.43	-0.25
243.229	1.75
244.027	-0.25
244.826	-0.25
245.624	-0.25
246.422	0.75
247.22	2.75
248.018	1.75
248.816	0.75
249.614	-0.25
250.412	2.75
251.21	1.75
252.007	1.75
252.805	0.75
253.602	2.75
254.4	4.75
255.197	0.75
255.994	4.75
256.791	2.75
257.589	3.75
258.386	3.75
259.183	3.75
259.979	2.75
260.776	2.75
261.573	3.75
262.37	4.75
263.166	3.75
263.963	4.75
264.759	4.75
265.556	5.75
266.352	3.75
267.148	6.75
267.944	4.75
268.74	5.75
269.536	5.75
270.332	6.75
271.128	8.75
271.924	5.75
272.719	7.75
273.515	6.75
274.311	6.75
275.106	8.75
275.901	8.75
276.697	7.75
277.492	7.75
278.287	9.75
279.082	7.75
279.877	10.75
280.672	7.75
281.467	8.75
282.262	8.75
283.056	11.75
283.851	9.75
284.646	8.75
285.44	9.75
286.234	9.75
287.029	9.75
287.823	9.75
288.617	10.75
289.411	9.75
290.205	10.75
290.999	11.75
291.793	9.75
292.587	10.75
293.381	11.75
294.174	9.75
294.968	9.75
295.761	9.75
296.555	7.75
297.348	8.75
298.141	6.75
298.935	9.75
299.728	7.75
300.521	8.75
301.314	6.75
302.107	7.75
302.899	8.75
303.692	6.75
304.485	7.75
305.277	5.75
306.07	6.75
306.862	8.75
307.655	4.75
308.447	3.75
309.239	7.75
310.031	8.75
310.823	5.75
311.615	8.75
312.407	7.75
313.199	6.75
313.991	6.75
314.783	4.75
315.574	5.75
316.366	6.75
317.157	1.75
317.949	3.75
318.74	4.75
319.531	4.75
320.322	2.75
321.113	4.75
321.904	3.75
322.695	4.75
323.486	3.75
324.277	0.75
325.068	4.75
325.858	4.75
326.649	3.75
327.439	1.75
328.23	2.75
329.02	3.75
329.81	0.75
330.6	3.75
331.391	3.75
332.181	1.75
332.971	4.75
333.76	1.75
334.55	2.75
335.34	1.75
336.13	1.75
336.919	3.75
337.709	2.75
338.498	4.75
339.287	0.75
340.077	3.75
340.866	2.75
341.655	3.75
342.444	0.75
343.233	4.75
344.022	1.75
344.811	2.75
345.6	1.75
346.388	2.75
347.177	1.75
347.965	1.75
348.754	4.75
349.542	2.75
350.33	1.75
351.119	2.75
351.907	2.75
352.695	3.75
353.483	1.75
354.271	3.75
355.059	2.75
355.846	1.75
356.634	3.75
357.422	0.75
358.209	2.75
358.997	1.75
359.784	2.75
360.571	2.75
361.359	0.75
362.146	2.75
362.933	1.75
363.72	1.75
364.507	2.75
365.294	2.75
366.081	1.75
366.867	0.75
367.654	2.75
368.44	1.75
369.227	2.75
370.013	0.75
370.8	1.75
371.586	1.75
372.372	1.75
373.158	3.75
373.944	0.75
374.73	1.75
375.516	2.75
376.302	2.75
377.088	2.75
377.873	1.75
378.659	3.75
379.445	2.75
380.23	2.75
381.015	-0.25
381.801	0.75
382.586	3.75
383.371	1.75
384.156	4.75
384.941	0.75
385.726	4.75
386.511	2.75
387.296	1.75
388.08	2.75
388.865	0.75
389.649	2.75
390.434	0.75
391.218	0.75
392.003	2.75
392.787	1.75
393.571	2.75
394.355	0.75
395.139	1.75
395.923	1.75
396.707	2.75
397.491	3.75
398.274	2.75
399.058	2.75
399.842	0.75
400.625	2.75
401.408	3.75
402.192	2.75
402.975	1.75
403.758	1.75
404.541	2.75
405.324	0.75
406.107	4.75
406.89	3.75
407.673	4.75
408.456	3.75
409.238	2.75
410.021	4.75
410.803	1.75
411.586	4.75
412.368	3.75
413.151	2.75
413.933	3.75
414.715	3.75
415.497	2.75
416.279	2.75
417.061	4.75
417.843	5.75
418.624	4.75
419.406	5.75
420.188	4.75
420.969	5.75
421.751	3.75
422.532	5.75
423.313	3.75
424.095	3.75
424.876	5.75
425.657	4.75
426.438	5.75
427.219	4.75
428	6.75
428.78	6.75
429.561	8.75
430.342	8.75
431.122	6.75
431.903	4.75
432.683	5.75
433.464	8.75
434.244	6.75
435.024	10.75
435.804	7.75
436.584	11.75
437.364	8.75
438.144	11.75
438.924	10.75
439.704	10.75
440.483	12.75
441.263	13.75
442.042	13.75
442.822	11.75
443.601	12.75
444.38	13.75
445.16	15.75
445.939	18.75
446.718	18.75
447.497	17.75
448.276	19.75
449.054	19.75
449.833	24.75
450.612	25.75
451.391	27.75
452.169	27.75
452.948	27.75
453.726	33.75
454.504	36.75
455.282	42.75
456.061	41.75
456.839	44.75
457.617	54.75
458.395	59.75
459.172	67.75
459.95	73.75
460.728	87.75
461.506	92.75
462.283	101.75
463.061	114.75
463.838	123.75
464.615	148.75
465.393	155.75
466.17	175.75
466.947	199.75
467.724	217.75
468.501	244.75
469.278	274.75
470.055	306.75
470.831	335.75
471.608	372.75
472.385	418.75
473.161	477.75
473.938	518.75
474.714	568.75
475.49	635.75
476.266	701.75
477.043	773.75
477.819	864.75
478.595	944.75
479.371	1039.75
480.146	1156.75
480.922	1264.75
481.698	1400.75
482.473	1552.75
483.249	1705.75
484.024	1868.75
484.8	2044.75
485.575	2253.75
486.35	2488.75
487.126	2769.75
487.901	3026.75
488.676	3319.75
489.451	3653.75
490.225	4006.75
491	4395.75
491.775	4813.75
492.55	5235.75
493.324	5775.75
494.099	6292.75
494.873	6854.75
495.647	7442.75
496.422	8118.75
497.196	8736.75
497.97	9421.75
498.744	10156.75
499.518	10957.75
500.292	11599.75
501.066	12306.75
501.839	12990.75
502.613	13677.75
503.387	14280.75
504.16	14827.75
504.934	15262.75
505.707	15671.75
506.48	16034.75
507.253	16147.75
508.027	16225.75
508.8	16235.75
509.573	16128.75
510.346	15908.75
511.118	15607.75
511.891	15239.75
512.664	14754.75
513.437	14298.75
514.209	13799.75
514.982	13287.75
515.754	12718.75
516.526	12243.75
517.298	11666.75
518.071	11189.75
518.843	10665.75
519.615	10234.75
520.387	9815.75
521.159	9420.75
521.93	9066.75
522.702	8686.75
523.474	8321.75
524.245	8016.75
525.017	7701.75
525.788	7408.75
526.56	7078.75
527.331	6803.75
528.102	6479.75
528.873	6247.75
529.644	5936.75
530.415	5678.75
531.186	5384.75
531.957	5115.75
532.728	4872.75
533.498	4614.75
534.269	4348.75
535.039	4150.75
535.81	3919.75
536.58	3685.75
537.351	3480.75
538.121	3285.75
538.891	3118.75
539.661	2944.75
540.431	2766.75
541.201	2642.75
541.971	2494.75
542.741	2367.75
543.51	2239.75
544.28	2124.75
545.05	2031.75
545.819	1921.75
546.588	1813.75
547.358	1744.75
548.127	1664.75
548.896	1565.75
549.665	1497.75
550.434	1416.75
551.203	1355.75
551.972	1272.75
552.741	1210.75
553.51	1141.75
554.278	1077.75
555.047	1012.75
555.815	974.75
556.584	915.75
557.352	861.75
558.121	812.75
558.889	761.75
559.657	719.75
560.425	675.75
561.193	635.75
561.961	613.75
562.729	570.75
563.496	544.75
564.264	503.75
565.032	486.75
565.799	454.75
566.567	431.75
567.334	406.75
568.101	388.75
568.869	358.75
569.636	338.75
570.403	320.75
571.17	294.75
571.937	276.75
572.704	265.75
573.471	249.75
574.237	237.75
575.004	221.75
575.771	208.75
576.537	193.75
577.303	183.75
578.07	181.75
578.836	159.75
579.602	152.75
580.368	151.75
581.134	136.75
581.9	131.75
582.666	124.75
583.432	116.75
584.198	113.75
584.964	106.75
585.729	99.75
586.495	93.75
587.26	88.75
588.025	81.75
588.791	80.75
589.556	74.75
590.321	70.75
591.086	69.75
591.851	62.75
592.616	57.75
593.381	57.75
594.146	51.75
594.911	48.75
595.675	54.75
596.44	44.75
597.204	41.75
597.969	40.75
598.733	38.75
599.497	37.75
600.261	38.75
601.025	32.75
601.79	34.75
602.553	29.75
603.317	29.75
604.081	28.75
604.845	27.75
605.609	27.75
606.372	25.75
607.136	23.75
607.899	25.75
608.662	20.75
609.426	20.75
610.189	20.75
610.952	18.75
611.715	19.75
612.478	17.75
613.241	17.75
614.004	16.75
614.767	15.75
615.529	15.75
616.292	13.75
617.055	15.75
617.817	13.75
618.579	15.75
619.342	11.75
620.104	11.75
620.866	11.75
621.628	9.75
622.39	12.75
623.152	11.75
623.914	10.75
624.676	8.75
625.438	10.75
626.199	9.75
626.961	9.75
627.722	7.75
628.484	7.75
629.245	8.75
630.006	4.75
630.768	9.75
631.529	7.75
632.29	7.75
633.051	6.75
633.812	6.75
634.573	5.75
635.333	4.75
636.094	6.75
636.855	6.75
637.615	5.75
638.376	5.75
639.136	4.75
639.896	5.75
640.657	4.75
641.417	2.75
642.177	3.75
642.937	3.75
643.697	4.75
644.457	3.75
645.216	4.75
645.976	3.75
646.736	4.75
647.495	4.75
648.255	3.75
649.014	2.75
649.774	4.75
650.533	1.75
651.292	1.75
652.051	4.75
652.81	3.75
653.569	5.75
654.328	2.75
655.087	3.75
655.846	2.75
656.604	0.75
657.363	5.75
658.121	3.75
658.88	1.75
659.638	2.75
660.397	3.75
661.155	1.75
661.913	3.75
662.671	3.75
663.429	1.75
664.187	2.75
664.945	2.75
665.703	2.75
666.46	0.75
667.218	1.75
667.976	3.75
668.733	1.75
669.49	3.75
670.248	2.75
671.005	2.75
671.762	2.75
672.519	4.75
673.276	0.75
674.033	1.75
674.79	1.75
675.547	0.75
676.304	0.75
677.06	4.75
677.817	1.75
678.574	0.75
679.33	2.75
680.086	0.75
680.843	0.75
681.599	0.75
682.355	1.75
683.111	0.75
683.867	3.75
684.623	3.75
685.379	-0.25
686.135	2.75
686.89	0.75
687.646	-0.25
688.402	-0.25
689.157	1.75
689.912	3.75
690.668	0.75
691.423	2.75
692.178	2.75
692.933	3.75
693.688	1.75
694.443	2.75
695.198	1.75
695.953	2.75
696.708	0.75
697.462	1.75
698.217	1.75
698.972	2.75
699.726	0.75
700.48	-0.25
701.235	2.75
701.989	-1.25
702.743	0.75
703.497	2.75
704.251	-0.25
705.005	1.75
705.759	1.75
706.513	-1.25
707.266	2.75
708.02	-1.25
708.774	2.75
709.527	1.75
710.28	0.75
711.034	-0.25
711.787	1.75
712.54	0.75
713.293	0.75
714.046	3.75
714.799	2.75
715.552	2.75
716.305	0.75
717.058	1.75
717.81	2.75
718.563	0.75
719.315	0.75
720.068	1.75
720.82	3.75
721.573	0.75
722.325	0.75
723.077	3.75
723.829	1.75
724.581	0.75
725.333	0.75
726.085	0.75
726.836	1.75
727.588	1.75
728.34	-1.25
729.091	1.75
729.843	1.75
730.594	0.75
731.346	-0.25
732.097	1.75
732.848	4.75
733.599	0.75
734.35	0.75
735.101	2.75
735.852	1.75
736.603	-1.25
737.354	0.75
738.104	-0.25
738.855	1.75
739.605	2.75
740.356	3.75
741.106	0.75
741.856	4.75
742.607	1.75
743.357	4.75
744.107	2.75
744.857	2.75
745.607	1.75
746.357	3.75
747.106	-1.25
747.856	-0.25
748.606	4.75
749.355	1.75
750.105	0.75
750.854	1.75
751.603	2.75
752.353	-0.25
753.102	1.75
753.851	2.75
754.6	1.75
755.349	1.75
756.098	2.75
756.847	0.75
757.595	1.75
758.344	2.75
759.093	2.75
759.841	2.75
760.589	3.75
761.338	1.75
762.086	0.75
762.834	1.75
763.582	4.75
764.331	3.75
765.079	0.75
765.826	2.75
766.574	5.75
767.322	2.75
768.07	3.75
768.817	3.75
769.565	2.75
770.312	3.75
771.06	0.75
771.807	2.75
772.554	3.75
773.302	2.75
774.049	4.75
774.796	4.75
775.543	2.75
776.29	3.75
777.036	4.75
777.783	6.75
778.53	2.75
779.276	4.75
780.023	4.75
780.769	4.75
781.516	3.75
782.262	4.75
783.008	3.75
783.754	4.75
784.5	5.75
785.246	4.75
785.992	4.75
786.738	6.75
787.484	2.75
788.23	4.75
788.975	3.75
789.721	6.75
790.466	3.75
791.212	3.75
791.957	4.75
792.702	4.75
793.447	3.75
794.193	5.75
794.938	2.75
795.683	4.75
796.427	3.75
797.172	4.75
797.917	3.75
798.662	2.75
799.406	3.75
800.151	2.75
800.895	2.75
801.64	5.75
802.384	2.75
803.128	3.75
803.872	3.75
804.616	4.75
805.36	3.75
806.104	1.75
806.848	4.75
807.592	1.75
808.336	3.75
809.079	3.75
809.823	1.75
810.566	5.75
811.31	2.75
812.053	3.75
812.796	3.75
813.539	2.75
814.283	1.75
815.026	2.75
815.769	3.75
816.511	1.75
817.254	1.75
817.997	1.75
818.74	2.75
819.482	4.75
820.225	1.75
820.967	2.75
821.71	0.75
822.452	3.75
823.194	2.75
823.936	3.75
824.678	2.75
825.42	2.75
826.162	0.75
826.904	-0.25
827.646	3.75
828.388	3.75
829.129	3.75
829.871	3.75
830.612	2.75
831.354	1.75
832.095	-0.25
832.836	0.75
833.577	0.75
834.319	2.75
835.06	2.75
835.801	1.75
836.542	0.75
837.282	0.75
838.023	2.75
838.764	2.75
839.504	2.75
840.245	0.75
840.985	3.75
841.726	3.75
842.466	2.75
843.206	4.75
843.946	4.75
844.687	2.75
845.427	-0.25
846.166	1.75
846.906	2.75
847.646	2.75
848.386	1.75
849.125	1.75
849.865	0.75
850.605	0.75
851.344	2.75
852.083	1.75
852.823	1.75
853.562	0.75
854.301	0.75
855.04	-1.25
855.779	0.75
856.518	2.75
857.257	1.75
857.995	0.75
858.734	3.75
859.473	2.75
860.211	0.75
860.95	0.75
861.688	-0.25
862.426	1.75
863.165	0.75
863.903	3.75
864.641	3.75
865.379	-2.25
866.117	0.75
866.855	0.75
867.593	0.75
868.33	0.75
869.068	1.75
869.806	1.75
870.543	-0.25
871.28	0.75
872.018	0.75
872.755	1.75
873.492	1.75
874.229	0.75
874.967	2.75
875.703	0.75
876.44	0.75
877.177	-0.25
877.914	-2.25
878.651	0.75
879.387	-1.25
880.124	0.75
880.86	1.75
881.597	0.75
882.333	-2.25
883.069	0.75
883.806	0.75
884.542	-0.25
885.278	-0.25
886.014	-0.25
886.749	1.75
887.485	-2.25
888.221	0.75
888.957	-1.25
889.692	0.75
890.428	0.75
891.163	-1.25
891.899	-0.25
892.634	-0.25
893.369	0.75
894.104	-2.25
894.839	-1.25
895.574	-0.25
896.309	-0.25
897.044	-0.25
897.779	-1.25
898.514	0.75
899.248	1.75
899.983	1.75
900.717	0.75
901.452	-2.25
902.186	-1.25
902.92	-0.25
903.654	-2.25
904.389	0.75
905.123	0.75
905.857	-0.25
906.59	-0.25
907.324	1.75
908.058	-0.25
908.792	-2.25
909.525	-1.25
910.259	-1.25
910.992	1.75
911.726	-1.25
912.459	-1.25
913.192	-1.25
913.925	-1.25
914.658	0.75
915.391	0.75
916.124	0.75
916.857	-2.25
917.59	0.75
918.323	0.75
919.055	0.75
919.788	-1.25
920.521	-2.25
921.253	1.75
921.985	-1.25
922.718	-0.25
923.45	-0.25
924.182	-2.25
924.914	0.75
925.646	0.75
926.378	1.75
927.11	-1.25
927.841	-0.25
928.573	-2.25
929.305	-1.25
930.036	-0.25
930.768	-2.25
931.499	1.75
932.23	-0.25
932.962	0.75
933.693	-0.25
934.424	0.75
935.155	-2.25
935.886	-2.25
936.617	1.75
937.348	-0.25
938.078	-2.25
938.809	-0.25
939.54	-1.25
940.27	-0.25
941.001	0.75
941.731	-0.25
942.461	-2.25
943.191	0.75
943.922	-0.25
944.652	0.75
945.382	-0.25
946.112	-0.25
946.841	0.75
947.571	-2.25
948.301	-2.25
949.031	-0.25
949.76	-2.25
950.49	3.75
951.219	1.75
951.948	-2.25
952.678	-0.25
953.407	0.75
954.136	0.75
954.865	-2.25
955.594	-0.25
956.323	0.75
957.052	-1.25
957.78	0.75
958.509	-0.25
959.238	-0.25
959.966	-1.25
960.695	0.75
961.423	1.75
962.151	1.75
962.88	-0.25
963.608	2.75
964.336	0.75
965.064	-1.25
965.792	-1.25
966.52	-2.25
967.247	-1.25
967.975	0.75
968.703	0.75
969.43	-0.25
970.158	-0.25
970.885	0.75
971.613	-0.25
972.34	0.75
973.067	0.75
973.794	-0.25
974.521	-0.25
975.248	0.75
975.975	-1.25
976.702	0.75
977.429	0.75
978.156	1.75
978.882	-1.25
979.609	-0.25
980.335	-1.25
981.062	-0.25
981.788	-1.25
982.514	0.75
983.24	-1.25
983.967	0.75
984.693	-3.25
985.419	-1.25
986.144	0.75
986.87	0.75
987.596	0.75
988.322	0.75
989.047	-0.25
989.773	0.75
990.498	0.75
991.224	0.75
991.949	-0.25
992.674	0.75
993.399	-1.25
994.124	-0.25
994.849	1.75
995.574	-0.25
996.299	-0.25
997.024	-0.25
997.749	1.75
998.473	-0.25
999.198	-1.25
999.922	-1.25
1000.647	-0.25
1001.371	5.75
1002.095	-0.25
1002.82	-3.25
1003.544	-1.25
1004.268	-1.25
1004.992	-2.25
1005.716	-3.25
1006.439	-2.25
1007.163	-1.25
1007.887	-2.25
1008.611	-0.25
1009.334	-0.25
1010.058	-1.25
1010.781	0.75
1011.504	-1.25
1012.228	-1.25
1012.951	-1.25
1013.674	-0.25
1014.397	0.75
1015.12	-0.25
