节点500_145_QEPB04081__395__11-35-16-555.txt的数据

Date: Wed Nov 12 11:35:16 CST 2025
User: PC
Spectrometer: QEPB0408
触发模式: 0
积分时间 (秒): 1.000000E-2
Scans to average: 1
启用暗噪声校正: true
启用非线性校正: false
滑动平均宽度: 0
X轴模式: Wavelengths
Number of Pixels in Spectrum: 1044
>>>>>Begin Spectral Data<<<<<
220.843	-0.88
221.644	-2.88
222.444	-2.88
223.244	-0.88
224.045	0.12
224.845	1.12
225.645	-0.88
226.445	-0.88
227.245	0.12
228.045	-1.88
228.845	2.12
229.645	-1.88
230.444	0.12
231.244	-1.88
232.043	1.12
232.843	-0.88
233.642	0.12
234.442	1.12
235.241	0.12
236.04	1.12
236.839	3.12
237.638	2.12
238.437	-0.88
239.236	0.12
240.035	-0.88
240.833	3.12
241.632	3.12
242.43	3.12
243.229	2.12
244.027	1.12
244.826	2.12
245.624	3.12
246.422	3.12
247.22	1.12
248.018	3.12
248.816	3.12
249.614	4.12
250.412	1.12
251.21	1.12
252.007	1.12
252.805	2.12
253.602	4.12
254.4	1.12
255.197	6.12
255.994	1.12
256.791	3.12
257.589	2.12
258.386	5.12
259.183	1.12
259.979	2.12
260.776	4.12
261.573	3.12
262.37	7.12
263.166	1.12
263.963	4.12
264.759	5.12
265.556	5.12
266.352	6.12
267.148	5.12
267.944	6.12
268.74	7.12
269.536	6.12
270.332	5.12
271.128	5.12
271.924	7.12
272.719	5.12
273.515	8.12
274.311	9.12
275.106	7.12
275.901	7.12
276.697	9.12
277.492	7.12
278.287	7.12
279.082	12.12
279.877	8.12
280.672	9.12
281.467	8.12
282.262	10.12
283.056	10.12
283.851	10.12
284.646	12.12
285.44	10.12
286.234	9.12
287.029	12.12
287.823	11.12
288.617	12.12
289.411	8.12
290.205	8.12
290.999	10.12
291.793	11.12
292.587	11.12
293.381	10.12
294.174	11.12
294.968	8.12
295.761	10.12
296.555	9.12
297.348	10.12
298.141	8.12
298.935	11.12
299.728	9.12
300.521	6.12
301.314	8.12
302.107	9.12
302.899	8.12
303.692	8.12
304.485	7.12
305.277	5.12
306.07	9.12
306.862	7.12
307.655	4.12
308.447	4.12
309.239	7.12
310.031	5.12
310.823	6.12
311.615	8.12
312.407	5.12
313.199	7.12
313.991	5.12
314.783	5.12
315.574	5.12
316.366	6.12
317.157	6.12
317.949	5.12
318.74	5.12
319.531	5.12
320.322	7.12
321.113	2.12
321.904	5.12
322.695	5.12
323.486	4.12
324.277	7.12
325.068	2.12
325.858	2.12
326.649	5.12
327.439	5.12
328.23	5.12
329.02	4.12
329.81	4.12
330.6	2.12
331.391	4.12
332.181	1.12
332.971	3.12
333.76	5.12
334.55	3.12
335.34	6.12
336.13	2.12
336.919	2.12
337.709	5.12
338.498	2.12
339.287	2.12
340.077	3.12
340.866	4.12
341.655	2.12
342.444	5.12
343.233	2.12
344.022	5.12
344.811	4.12
345.6	2.12
346.388	2.12
347.177	5.12
347.965	3.12
348.754	6.12
349.542	3.12
350.33	3.12
351.119	3.12
351.907	3.12
352.695	1.12
353.483	3.12
354.271	3.12
355.059	1.12
355.846	4.12
356.634	3.12
357.422	3.12
358.209	2.12
358.997	3.12
359.784	3.12
360.571	2.12
361.359	1.12
362.146	1.12
362.933	6.12
363.72	1.12
364.507	3.12
365.294	4.12
366.081	3.12
366.867	5.12
367.654	3.12
368.44	3.12
369.227	2.12
370.013	3.12
370.8	1.12
371.586	3.12
372.372	2.12
373.158	1.12
373.944	5.12
374.73	1.12
375.516	3.12
376.302	3.12
377.088	3.12
377.873	1.12
378.659	2.12
379.445	2.12
380.23	3.12
381.015	1.12
381.801	2.12
382.586	2.12
383.371	2.12
384.156	2.12
384.941	3.12
385.726	4.12
386.511	2.12
387.296	3.12
388.08	1.12
388.865	2.12
389.649	2.12
390.434	5.12
391.218	5.12
392.003	3.12
392.787	1.12
393.571	3.12
394.355	5.12
395.139	2.12
395.923	2.12
396.707	4.12
397.491	3.12
398.274	4.12
399.058	3.12
399.842	5.12
400.625	2.12
401.408	4.12
402.192	3.12
402.975	3.12
403.758	3.12
404.541	5.12
405.324	4.12
406.107	2.12
406.89	4.12
407.673	3.12
408.456	2.12
409.238	2.12
410.021	5.12
410.803	5.12
411.586	5.12
412.368	6.12
413.151	5.12
413.933	2.12
414.715	3.12
415.497	1.12
416.279	5.12
417.061	4.12
417.843	6.12
418.624	4.12
419.406	4.12
420.188	6.12
420.969	5.12
421.751	5.12
422.532	2.12
423.313	7.12
424.095	7.12
424.876	5.12
425.657	5.12
426.438	4.12
427.219	8.12
428	8.12
428.78	5.12
429.561	7.12
430.342	7.12
431.122	8.12
431.903	6.12
432.683	9.12
433.464	5.12
434.244	11.12
435.024	7.12
435.804	6.12
436.584	9.12
437.364	6.12
438.144	12.12
438.924	11.12
439.704	9.12
440.483	14.12
441.263	9.12
442.042	11.12
442.822	11.12
443.601	12.12
444.38	15.12
445.16	15.12
445.939	14.12
446.718	17.12
447.497	18.12
448.276	23.12
449.054	22.12
449.833	23.12
450.612	25.12
451.391	30.12
452.169	31.12
452.948	31.12
453.726	35.12
454.504	40.12
455.282	43.12
456.061	45.12
456.839	54.12
457.617	57.12
458.395	61.12
459.172	69.12
459.95	77.12
460.728	89.12
461.506	93.12
462.283	106.12
463.061	115.12
463.838	133.12
464.615	146.12
465.393	165.12
466.17	182.12
466.947	201.12
467.724	223.12
468.501	246.12
469.278	273.12
470.055	305.12
470.831	341.12
471.608	385.12
472.385	416.12
473.161	477.12
473.938	517.12
474.714	571.12
475.49	632.12
476.266	711.12
477.043	782.12
477.819	859.12
478.595	952.12
479.371	1059.12
480.146	1157.12
480.922	1269.12
481.698	1409.12
482.473	1557.12
483.249	1702.12
484.024	1872.12
484.8	2040.12
485.575	2261.12
486.35	2466.12
487.126	2745.12
487.901	2991.12
488.676	3289.12
489.451	3617.12
490.225	3986.12
491	4366.12
491.775	4769.12
492.55	5196.12
493.324	5712.12
494.099	6191.12
494.873	6740.12
495.647	7406.12
496.422	8014.12
497.196	8678.12
497.97	9340.12
498.744	10064.12
499.518	10762.12
500.292	11459.12
501.066	12167.12
501.839	12855.12
502.613	13515.12
503.387	14186.12
504.16	14668.12
504.934	15181.12
505.707	15545.12
506.48	15816.12
507.253	16044.12
508.027	16131.12
508.8	16130.12
509.573	16060.12
510.346	15835.12
511.118	15571.12
511.891	15253.12
512.664	14772.12
513.437	14313.12
514.209	13830.12
514.982	13270.12
515.754	12779.12
516.526	12275.12
517.298	11730.12
518.071	11165.12
518.843	10729.12
519.615	10297.12
520.387	9844.12
521.159	9465.12
521.93	9077.12
522.702	8667.12
523.474	8366.12
524.245	8021.12
525.017	7729.12
525.788	7429.12
526.56	7127.12
527.331	6824.12
528.102	6521.12
528.873	6233.12
529.644	5972.12
530.415	5722.12
531.186	5411.12
531.957	5170.12
532.728	4916.12
533.498	4639.12
534.269	4410.12
535.039	4172.12
535.81	3950.12
536.58	3721.12
537.351	3530.12
538.121	3329.12
538.891	3144.12
539.661	2965.12
540.431	2797.12
541.201	2654.12
541.971	2500.12
542.741	2374.12
543.51	2273.12
544.28	2164.12
545.05	2047.12
545.819	1935.12
546.588	1842.12
547.358	1741.12
548.127	1654.12
548.896	1594.12
549.665	1491.12
550.434	1430.12
551.203	1347.12
551.972	1287.12
552.741	1220.12
553.51	1153.12
554.278	1093.12
555.047	1038.12
555.815	983.12
556.584	928.12
557.352	862.12
558.121	807.12
558.889	773.12
559.657	731.12
560.425	679.12
561.193	647.12
561.961	610.12
562.729	572.12
563.496	547.12
564.264	510.12
565.032	481.12
565.799	457.12
566.567	433.12
567.334	403.12
568.101	381.12
568.869	363.12
569.636	345.12
570.403	326.12
571.17	309.12
571.937	286.12
572.704	276.12
573.471	258.12
574.237	238.12
575.004	225.12
575.771	212.12
576.537	200.12
577.303	190.12
578.07	179.12
578.836	162.12
579.602	153.12
580.368	149.12
581.134	141.12
581.9	136.12
582.666	128.12
583.432	113.12
584.198	111.12
584.964	110.12
585.729	98.12
586.495	94.12
587.26	91.12
588.025	80.12
588.791	80.12
589.556	79.12
590.321	73.12
591.086	73.12
591.851	69.12
592.616	64.12
593.381	62.12
594.146	56.12
594.911	54.12
595.675	49.12
596.44	46.12
597.204	46.12
597.969	45.12
598.733	35.12
599.497	39.12
600.261	39.12
601.025	36.12
601.79	37.12
602.553	32.12
603.317	31.12
604.081	30.12
604.845	30.12
605.609	27.12
606.372	28.12
607.136	26.12
607.899	20.12
608.662	25.12
609.426	23.12
610.189	22.12
610.952	18.12
611.715	21.12
612.478	18.12
613.241	15.12
614.004	17.12
614.767	15.12
615.529	14.12
616.292	15.12
617.055	15.12
617.817	12.12
618.579	13.12
619.342	16.12
620.104	14.12
620.866	12.12
621.628	11.12
622.39	9.12
623.152	10.12
623.914	7.12
624.676	8.12
625.438	11.12
626.199	10.12
626.961	11.12
627.722	9.12
628.484	4.12
629.245	11.12
630.006	7.12
630.768	5.12
631.529	8.12
632.29	7.12
633.051	6.12
633.812	6.12
634.573	7.12
635.333	7.12
636.094	7.12
636.855	5.12
637.615	5.12
638.376	7.12
639.136	7.12
639.896	3.12
640.657	5.12
641.417	5.12
642.177	5.12
642.937	6.12
643.697	6.12
644.457	3.12
645.216	5.12
645.976	6.12
646.736	5.12
647.495	3.12
648.255	2.12
649.014	3.12
649.774	2.12
650.533	2.12
651.292	5.12
652.051	3.12
652.81	4.12
653.569	1.12
654.328	1.12
655.087	3.12
655.846	3.12
656.604	4.12
657.363	3.12
658.121	4.12
658.88	2.12
659.638	3.12
660.397	5.12
661.155	1.12
661.913	3.12
662.671	1.12
663.429	2.12
664.187	3.12
664.945	2.12
665.703	3.12
666.46	1.12
667.218	4.12
667.976	2.12
668.733	1.12
669.49	2.12
670.248	2.12
671.005	3.12
671.762	1.12
672.519	4.12
673.276	3.12
674.033	3.12
674.79	3.12
675.547	3.12
676.304	3.12
677.06	-0.88
677.817	2.12
678.574	3.12
679.33	1.12
680.086	2.12
680.843	0.12
681.599	3.12
682.355	3.12
683.111	0.12
683.867	0.12
684.623	2.12
685.379	3.12
686.135	4.12
686.89	2.12
687.646	2.12
688.402	2.12
689.157	3.12
689.912	1.12
690.668	2.12
691.423	2.12
692.178	2.12
692.933	-0.88
693.688	2.12
694.443	0.12
695.198	3.12
695.953	2.12
696.708	2.12
697.462	0.12
698.217	2.12
698.972	0.12
699.726	2.12
700.48	1.12
701.235	1.12
701.989	1.12
702.743	2.12
703.497	1.12
704.251	3.12
705.005	4.12
705.759	1.12
706.513	0.12
707.266	0.12
708.02	3.12
708.774	1.12
709.527	0.12
710.28	2.12
711.034	1.12
711.787	3.12
712.54	2.12
713.293	0.12
714.046	2.12
714.799	2.12
715.552	1.12
716.305	1.12
717.058	2.12
717.81	0.12
718.563	3.12
719.315	2.12
720.068	1.12
720.82	1.12
721.573	0.12
722.325	0.12
723.077	1.12
723.829	3.12
724.581	-0.88
725.333	2.12
726.085	1.12
726.836	1.12
727.588	1.12
728.34	0.12
729.091	2.12
729.843	0.12
730.594	3.12
731.346	2.12
732.097	1.12
732.848	2.12
733.599	1.12
734.35	2.12
735.101	2.12
735.852	1.12
736.603	-0.88
737.354	1.12
738.104	1.12
738.855	1.12
739.605	3.12
740.356	2.12
741.106	1.12
741.856	0.12
742.607	1.12
743.357	3.12
744.107	1.12
744.857	1.12
745.607	0.12
746.357	2.12
747.106	2.12
747.856	2.12
748.606	2.12
749.355	1.12
750.105	3.12
750.854	0.12
751.603	1.12
752.353	4.12
753.102	1.12
753.851	2.12
754.6	1.12
755.349	3.12
756.098	1.12
756.847	3.12
757.595	2.12
758.344	0.12
759.093	2.12
759.841	2.12
760.589	2.12
761.338	3.12
762.086	1.12
762.834	5.12
763.582	0.12
764.331	4.12
765.079	1.12
765.826	1.12
766.574	6.12
767.322	5.12
768.07	3.12
768.817	3.12
769.565	3.12
770.312	2.12
771.06	5.12
771.807	4.12
772.554	4.12
773.302	5.12
774.049	4.12
774.796	5.12
775.543	3.12
776.29	4.12
777.036	3.12
777.783	3.12
778.53	3.12
779.276	5.12
780.023	3.12
780.769	6.12
781.516	2.12
782.262	3.12
783.008	5.12
783.754	5.12
784.5	9.12
785.246	7.12
785.992	4.12
786.738	5.12
787.484	5.12
788.23	5.12
788.975	5.12
789.721	3.12
790.466	5.12
791.212	6.12
791.957	5.12
792.702	4.12
793.447	4.12
794.193	4.12
794.938	3.12
795.683	6.12
796.427	4.12
797.172	5.12
797.917	3.12
798.662	5.12
799.406	3.12
800.151	3.12
800.895	5.12
801.64	2.12
802.384	5.12
803.128	6.12
803.872	4.12
804.616	4.12
805.36	4.12
806.104	4.12
806.848	3.12
807.592	5.12
808.336	4.12
809.079	3.12
809.823	4.12
810.566	2.12
811.31	2.12
812.053	1.12
812.796	4.12
813.539	4.12
814.283	4.12
815.026	4.12
815.769	1.12
816.511	4.12
817.254	4.12
817.997	4.12
818.74	2.12
819.482	3.12
820.225	5.12
820.967	5.12
821.71	3.12
822.452	2.12
823.194	4.12
823.936	3.12
824.678	4.12
825.42	4.12
826.162	2.12
826.904	1.12
827.646	4.12
828.388	3.12
829.129	2.12
829.871	3.12
830.612	2.12
831.354	5.12
832.095	3.12
832.836	2.12
833.577	4.12
834.319	2.12
835.06	2.12
835.801	1.12
836.542	3.12
837.282	3.12
838.023	1.12
838.764	2.12
839.504	2.12
840.245	1.12
840.985	2.12
841.726	2.12
842.466	2.12
843.206	2.12
843.946	2.12
844.687	2.12
845.427	2.12
846.166	5.12
846.906	0.12
847.646	1.12
848.386	1.12
849.125	4.12
849.865	2.12
850.605	1.12
851.344	2.12
852.083	1.12
852.823	2.12
853.562	0.12
854.301	-1.88
855.04	3.12
855.779	1.12
856.518	2.12
857.257	3.12
857.995	1.12
858.734	3.12
859.473	2.12
860.211	-0.88
860.95	1.12
861.688	0.12
862.426	0.12
863.165	0.12
863.903	3.12
864.641	-0.88
865.379	3.12
866.117	0.12
866.855	3.12
867.593	0.12
868.33	0.12
869.068	1.12
869.806	0.12
870.543	1.12
871.28	-0.88
872.018	1.12
872.755	1.12
873.492	-1.88
874.229	0.12
874.967	-0.88
875.703	1.12
876.44	0.12
877.177	0.12
877.914	1.12
878.651	0.12
879.387	2.12
880.124	-1.88
880.86	2.12
881.597	0.12
882.333	-0.88
883.069	2.12
883.806	0.12
884.542	2.12
885.278	0.12
886.014	1.12
886.749	0.12
887.485	1.12
888.221	1.12
888.957	0.12
889.692	0.12
890.428	-1.88
891.163	-0.88
891.899	-1.88
892.634	2.12
893.369	0.12
894.104	1.12
894.839	0.12
895.574	-0.88
896.309	1.12
897.044	1.12
897.779	-0.88
898.514	2.12
899.248	1.12
899.983	1.12
900.717	0.12
901.452	2.12
902.186	1.12
902.92	2.12
903.654	-0.88
904.389	1.12
905.123	1.12
905.857	-0.88
906.59	-1.88
907.324	0.12
908.058	1.12
908.792	1.12
909.525	-1.88
910.259	0.12
910.992	-0.88
911.726	1.12
912.459	-1.88
913.192	-0.88
913.925	0.12
914.658	-1.88
915.391	1.12
916.124	0.12
916.857	0.12
917.59	-2.88
918.323	1.12
919.055	0.12
919.788	-1.88
920.521	0.12
921.253	0.12
921.985	-0.88
922.718	1.12
923.45	-0.88
924.182	1.12
924.914	-0.88
925.646	0.12
926.378	1.12
927.11	1.12
927.841	0.12
928.573	-1.88
929.305	0.12
930.036	0.12
930.768	2.12
931.499	-1.88
932.23	-1.88
932.962	2.12
933.693	0.12
934.424	2.12
935.155	-1.88
935.886	2.12
936.617	-0.88
937.348	0.12
938.078	-1.88
938.809	-0.88
939.54	-0.88
940.27	0.12
941.001	-1.88
941.731	-0.88
942.461	0.12
943.191	1.12
943.922	-0.88
944.652	2.12
945.382	-0.88
946.112	0.12
946.841	-0.88
947.571	0.12
948.301	1.12
949.031	-0.88
949.76	0.12
950.49	-1.88
951.219	0.12
951.948	-1.88
952.678	0.12
953.407	-0.88
954.136	0.12
954.865	0.12
955.594	-1.88
956.323	-0.88
957.052	-1.88
957.78	0.12
958.509	1.12
959.238	1.12
959.966	0.12
960.695	-0.88
961.423	-0.88
962.151	2.12
962.88	-0.88
963.608	1.12
964.336	-0.88
965.064	0.12
965.792	-1.88
966.52	2.12
967.247	1.12
967.975	1.12
968.703	0.12
969.43	-0.88
970.158	-0.88
970.885	0.12
971.613	-0.88
972.34	-0.88
973.067	0.12
973.794	0.12
974.521	0.12
975.248	-0.88
975.975	0.12
976.702	2.12
977.429	-0.88
978.156	-2.88
978.882	0.12
979.609	-0.88
980.335	0.12
981.062	-0.88
981.788	1.12
982.514	-0.88
983.24	1.12
983.967	2.12
984.693	-0.88
985.419	0.12
986.144	0.12
986.87	-0.88
987.596	0.12
988.322	1.12
989.047	0.12
989.773	-0.88
990.498	3.12
991.224	1.12
991.949	1.12
992.674	0.12
993.399	-1.88
994.124	1.12
994.849	-0.88
995.574	1.12
996.299	-0.88
997.024	-0.88
997.749	0.12
998.473	-0.88
999.198	-0.88
999.922	-0.88
1000.647	2.12
1001.371	2.12
1002.095	-0.88
1002.82	1.12
1003.544	0.12
1004.268	1.12
1004.992	-2.88
1005.716	0.12
1006.439	-1.88
1007.163	0.12
1007.887	0.12
1008.611	-2.88
1009.334	-1.88
1010.058	0.12
1010.781	-1.88
1011.504	-0.88
1012.228	-0.88
1012.951	0.12
1013.674	1.12
1014.397	-1.88
1015.12	-1.88
