节点500_145_QEPB04081__120__11-30-52-595.txt的数据

Date: Wed Nov 12 11:30:52 CST 2025
User: PC
Spectrometer: QEPB0408
触发模式: 0
积分时间 (秒): 1.000000E-2
Scans to average: 1
启用暗噪声校正: true
启用非线性校正: false
滑动平均宽度: 0
X轴模式: Wavelengths
Number of Pixels in Spectrum: 1044
>>>>>Begin Spectral Data<<<<<
220.843	-0.25
221.644	-3.25
222.444	1.75
223.244	-0.25
224.045	0.75
224.845	-1.25
225.645	2.75
226.445	0.75
227.245	1.75
228.045	0.75
228.845	1.75
229.645	-0.25
230.444	1.75
231.244	1.75
232.043	1.75
232.843	-0.25
233.642	2.75
234.442	1.75
235.241	1.75
236.04	1.75
236.839	3.75
237.638	3.75
238.437	1.75
239.236	0.75
240.035	2.75
240.833	4.75
241.632	2.75
242.43	1.75
243.229	2.75
244.027	0.75
244.826	3.75
245.624	0.75
246.422	5.75
247.22	1.75
248.018	4.75
248.816	2.75
249.614	1.75
250.412	3.75
251.21	4.75
252.007	3.75
252.805	2.75
253.602	2.75
254.4	3.75
255.197	3.75
255.994	5.75
256.791	3.75
257.589	5.75
258.386	2.75
259.183	5.75
259.979	4.75
260.776	4.75
261.573	4.75
262.37	4.75
263.166	5.75
263.963	5.75
264.759	5.75
265.556	7.75
266.352	4.75
267.148	5.75
267.944	6.75
268.74	8.75
269.536	7.75
270.332	8.75
271.128	10.75
271.924	7.75
272.719	9.75
273.515	8.75
274.311	9.75
275.106	8.75
275.901	10.75
276.697	9.75
277.492	11.75
278.287	9.75
279.082	12.75
279.877	9.75
280.672	9.75
281.467	9.75
282.262	11.75
283.056	12.75
283.851	10.75
284.646	10.75
285.44	11.75
286.234	13.75
287.029	10.75
287.823	11.75
288.617	11.75
289.411	11.75
290.205	9.75
290.999	10.75
291.793	10.75
292.587	11.75
293.381	11.75
294.174	10.75
294.968	11.75
295.761	10.75
296.555	8.75
297.348	11.75
298.141	10.75
298.935	11.75
299.728	9.75
300.521	8.75
301.314	9.75
302.107	9.75
302.899	8.75
303.692	8.75
304.485	10.75
305.277	6.75
306.07	7.75
306.862	9.75
307.655	6.75
308.447	7.75
309.239	6.75
310.031	8.75
310.823	6.75
311.615	8.75
312.407	7.75
313.199	7.75
313.991	7.75
314.783	6.75
315.574	6.75
316.366	6.75
317.157	6.75
317.949	4.75
318.74	4.75
319.531	5.75
320.322	4.75
321.113	6.75
321.904	5.75
322.695	5.75
323.486	5.75
324.277	5.75
325.068	5.75
325.858	3.75
326.649	5.75
327.439	4.75
328.23	6.75
329.02	2.75
329.81	2.75
330.6	5.75
331.391	4.75
332.181	3.75
332.971	4.75
333.76	4.75
334.55	4.75
335.34	5.75
336.13	3.75
336.919	5.75
337.709	4.75
338.498	5.75
339.287	4.75
340.077	4.75
340.866	2.75
341.655	3.75
342.444	2.75
343.233	4.75
344.022	3.75
344.811	4.75
345.6	4.75
346.388	3.75
347.177	5.75
347.965	2.75
348.754	4.75
349.542	4.75
350.33	3.75
351.119	3.75
351.907	3.75
352.695	6.75
353.483	3.75
354.271	0.75
355.059	2.75
355.846	4.75
356.634	3.75
357.422	1.75
358.209	4.75
358.997	2.75
359.784	5.75
360.571	2.75
361.359	2.75
362.146	3.75
362.933	1.75
363.72	0.75
364.507	2.75
365.294	1.75
366.081	2.75
366.867	6.75
367.654	2.75
368.44	2.75
369.227	3.75
370.013	2.75
370.8	4.75
371.586	2.75
372.372	2.75
373.158	3.75
373.944	1.75
374.73	5.75
375.516	3.75
376.302	2.75
377.088	1.75
377.873	1.75
378.659	1.75
379.445	3.75
380.23	2.75
381.015	2.75
381.801	3.75
382.586	2.75
383.371	4.75
384.156	3.75
384.941	3.75
385.726	2.75
386.511	1.75
387.296	3.75
388.08	0.75
388.865	0.75
389.649	2.75
390.434	3.75
391.218	3.75
392.003	3.75
392.787	1.75
393.571	1.75
394.355	5.75
395.139	3.75
395.923	5.75
396.707	5.75
397.491	4.75
398.274	7.75
399.058	2.75
399.842	5.75
400.625	2.75
401.408	3.75
402.192	3.75
402.975	5.75
403.758	3.75
404.541	5.75
405.324	5.75
406.107	4.75
406.89	4.75
407.673	4.75
408.456	3.75
409.238	3.75
410.021	6.75
410.803	4.75
411.586	4.75
412.368	5.75
413.151	5.75
413.933	7.75
414.715	4.75
415.497	6.75
416.279	4.75
417.061	6.75
417.843	7.75
418.624	4.75
419.406	7.75
420.188	5.75
420.969	5.75
421.751	6.75
422.532	6.75
423.313	7.75
424.095	7.75
424.876	8.75
425.657	7.75
426.438	5.75
427.219	5.75
428	7.75
428.78	9.75
429.561	7.75
430.342	8.75
431.122	6.75
431.903	8.75
432.683	9.75
433.464	6.75
434.244	10.75
435.024	9.75
435.804	10.75
436.584	10.75
437.364	10.75
438.144	8.75
438.924	9.75
439.704	12.75
440.483	11.75
441.263	13.75
442.042	14.75
442.822	14.75
443.601	13.75
444.38	18.75
445.16	14.75
445.939	17.75
446.718	16.75
447.497	17.75
448.276	22.75
449.054	21.75
449.833	25.75
450.612	24.75
451.391	24.75
452.169	28.75
452.948	32.75
453.726	34.75
454.504	36.75
455.282	40.75
456.061	41.75
456.839	44.75
457.617	55.75
458.395	54.75
459.172	60.75
459.95	71.75
460.728	76.75
461.506	85.75
462.283	93.75
463.061	104.75
463.838	118.75
464.615	130.75
465.393	143.75
466.17	158.75
466.947	181.75
467.724	209.75
468.501	228.75
469.278	251.75
470.055	286.75
470.831	313.75
471.608	352.75
472.385	397.75
473.161	431.75
473.938	492.75
474.714	544.75
475.49	606.75
476.266	675.75
477.043	746.75
477.819	838.75
478.595	922.75
479.371	1020.75
480.146	1124.75
480.922	1274.75
481.698	1401.75
482.473	1529.75
483.249	1723.75
484.024	1907.75
484.8	2100.75
485.575	2337.75
486.35	2586.75
487.126	2863.75
487.901	3159.75
488.676	3518.75
489.451	3840.75
490.225	4293.75
491	4712.75
491.775	5207.75
492.55	5693.75
493.324	6273.75
494.099	6899.75
494.873	7558.75
495.647	8237.75
496.422	8938.75
497.196	9709.75
497.97	10502.75
498.744	11320.75
499.518	12089.75
500.292	12896.75
501.066	13707.75
501.839	14377.75
502.613	15074.75
503.387	15695.75
504.16	16245.75
504.934	16662.75
505.707	16970.75
506.48	17160.75
507.253	17288.75
508.027	17307.75
508.8	17135.75
509.573	16894.75
510.346	16483.75
511.118	16090.75
511.891	15612.75
512.664	15020.75
513.437	14485.75
514.209	13847.75
514.982	13280.75
515.754	12631.75
516.526	12070.75
517.298	11549.75
518.071	11054.75
518.843	10539.75
519.615	10086.75
520.387	9698.75
521.159	9306.75
521.93	8951.75
522.702	8583.75
523.474	8238.75
524.245	7919.75
525.017	7627.75
525.788	7277.75
526.56	6985.75
527.331	6698.75
528.102	6402.75
528.873	6074.75
529.644	5811.75
530.415	5494.75
531.186	5282.75
531.957	4995.75
532.728	4736.75
533.498	4466.75
534.269	4223.75
535.039	3981.75
535.81	3733.75
536.58	3556.75
537.351	3344.75
538.121	3166.75
538.891	2968.75
539.661	2799.75
540.431	2664.75
541.201	2515.75
541.971	2391.75
542.741	2265.75
543.51	2152.75
544.28	2030.75
545.05	1940.75
545.819	1832.75
546.588	1747.75
547.358	1674.75
548.127	1591.75
548.896	1513.75
549.665	1423.75
550.434	1346.75
551.203	1275.75
551.972	1212.75
552.741	1153.75
553.51	1093.75
554.278	1020.75
555.047	970.75
555.815	910.75
556.584	857.75
557.352	801.75
558.121	769.75
558.889	727.75
559.657	671.75
560.425	638.75
561.193	590.75
561.961	565.75
562.729	535.75
563.496	499.75
564.264	480.75
565.032	445.75
565.799	428.75
566.567	399.75
567.334	377.75
568.101	360.75
568.869	340.75
569.636	317.75
570.403	301.75
571.17	282.75
571.937	267.75
572.704	253.75
573.471	238.75
574.237	221.75
575.004	208.75
575.771	195.75
576.537	182.75
577.303	174.75
578.07	167.75
578.836	158.75
579.602	142.75
580.368	139.75
581.134	129.75
581.9	129.75
582.666	116.75
583.432	109.75
584.198	105.75
584.964	99.75
585.729	94.75
586.495	87.75
587.26	84.75
588.025	78.75
588.791	74.75
589.556	72.75
590.321	64.75
591.086	65.75
591.851	59.75
592.616	58.75
593.381	53.75
594.146	53.75
594.911	51.75
595.675	47.75
596.44	45.75
597.204	41.75
597.969	39.75
598.733	39.75
599.497	34.75
600.261	34.75
601.025	32.75
601.79	34.75
602.553	31.75
603.317	30.75
604.081	30.75
604.845	27.75
605.609	26.75
606.372	25.75
607.136	22.75
607.899	21.75
608.662	23.75
609.426	21.75
610.189	22.75
610.952	18.75
611.715	20.75
612.478	18.75
613.241	17.75
614.004	14.75
614.767	13.75
615.529	15.75
616.292	12.75
617.055	14.75
617.817	14.75
618.579	13.75
619.342	11.75
620.104	13.75
620.866	13.75
621.628	11.75
622.39	10.75
623.152	11.75
623.914	8.75
624.676	13.75
625.438	10.75
626.199	10.75
626.961	9.75
627.722	8.75
628.484	9.75
629.245	8.75
630.006	9.75
630.768	6.75
631.529	7.75
632.29	8.75
633.051	9.75
633.812	7.75
634.573	7.75
635.333	6.75
636.094	6.75
636.855	4.75
637.615	5.75
638.376	6.75
639.136	5.75
639.896	3.75
640.657	7.75
641.417	3.75
642.177	5.75
642.937	3.75
643.697	5.75
644.457	6.75
645.216	5.75
645.976	3.75
646.736	4.75
647.495	5.75
648.255	4.75
649.014	4.75
649.774	6.75
650.533	3.75
651.292	5.75
652.051	6.75
652.81	7.75
653.569	0.75
654.328	3.75
655.087	3.75
655.846	2.75
656.604	5.75
657.363	4.75
658.121	2.75
658.88	4.75
659.638	2.75
660.397	4.75
661.155	5.75
661.913	3.75
662.671	4.75
663.429	4.75
664.187	2.75
664.945	3.75
665.703	5.75
666.46	1.75
667.218	3.75
667.976	2.75
668.733	3.75
669.49	3.75
670.248	3.75
671.005	2.75
671.762	2.75
672.519	3.75
673.276	3.75
674.033	4.75
674.79	1.75
675.547	2.75
676.304	2.75
677.06	2.75
677.817	3.75
678.574	1.75
679.33	5.75
680.086	2.75
680.843	2.75
681.599	1.75
682.355	3.75
683.111	3.75
683.867	4.75
684.623	2.75
685.379	5.75
686.135	0.75
686.89	2.75
687.646	2.75
688.402	2.75
689.157	2.75
689.912	3.75
690.668	3.75
691.423	3.75
692.178	5.75
692.933	1.75
693.688	2.75
694.443	1.75
695.198	1.75
695.953	0.75
696.708	4.75
697.462	2.75
698.217	0.75
698.972	1.75
699.726	2.75
700.48	1.75
701.235	1.75
701.989	3.75
702.743	2.75
703.497	2.75
704.251	2.75
705.005	1.75
705.759	4.75
706.513	2.75
707.266	1.75
708.02	3.75
708.774	3.75
709.527	2.75
710.28	3.75
711.034	2.75
711.787	3.75
712.54	2.75
713.293	4.75
714.046	1.75
714.799	1.75
715.552	3.75
716.305	3.75
717.058	3.75
717.81	2.75
718.563	3.75
719.315	3.75
720.068	3.75
720.82	2.75
721.573	-0.25
722.325	2.75
723.077	6.75
723.829	2.75
724.581	2.75
725.333	2.75
726.085	5.75
726.836	3.75
727.588	2.75
728.34	5.75
729.091	1.75
729.843	2.75
730.594	4.75
731.346	5.75
732.097	1.75
732.848	2.75
733.599	2.75
734.35	1.75
735.101	4.75
735.852	0.75
736.603	3.75
737.354	2.75
738.104	3.75
738.855	2.75
739.605	2.75
740.356	3.75
741.106	1.75
741.856	4.75
742.607	2.75
743.357	2.75
744.107	2.75
744.857	1.75
745.607	2.75
746.357	1.75
747.106	2.75
747.856	1.75
748.606	3.75
749.355	2.75
750.105	4.75
750.854	1.75
751.603	2.75
752.353	4.75
753.102	4.75
753.851	2.75
754.6	4.75
755.349	1.75
756.098	3.75
756.847	5.75
757.595	5.75
758.344	2.75
759.093	5.75
759.841	3.75
760.589	5.75
761.338	4.75
762.086	2.75
762.834	7.75
763.582	5.75
764.331	3.75
765.079	3.75
765.826	4.75
766.574	5.75
767.322	3.75
768.07	6.75
768.817	3.75
769.565	4.75
770.312	4.75
771.06	7.75
771.807	5.75
772.554	2.75
773.302	6.75
774.049	4.75
774.796	4.75
775.543	5.75
776.29	5.75
777.036	6.75
777.783	7.75
778.53	7.75
779.276	4.75
780.023	4.75
780.769	9.75
781.516	3.75
782.262	5.75
783.008	2.75
783.754	4.75
784.5	4.75
785.246	5.75
785.992	5.75
786.738	3.75
787.484	5.75
788.23	5.75
788.975	5.75
789.721	5.75
790.466	3.75
791.212	5.75
791.957	2.75
792.702	10.75
793.447	7.75
794.193	4.75
794.938	4.75
795.683	4.75
796.427	4.75
797.172	4.75
797.917	5.75
798.662	5.75
799.406	4.75
800.151	8.75
800.895	5.75
801.64	5.75
802.384	5.75
803.128	5.75
803.872	5.75
804.616	5.75
805.36	3.75
806.104	4.75
806.848	5.75
807.592	4.75
808.336	3.75
809.079	1.75
809.823	3.75
810.566	3.75
811.31	5.75
812.053	4.75
812.796	3.75
813.539	4.75
814.283	4.75
815.026	2.75
815.769	1.75
816.511	1.75
817.254	2.75
817.997	4.75
818.74	3.75
819.482	4.75
820.225	2.75
820.967	2.75
821.71	1.75
822.452	4.75
823.194	1.75
823.936	5.75
824.678	2.75
825.42	3.75
826.162	4.75
826.904	2.75
827.646	4.75
828.388	3.75
829.129	4.75
829.871	3.75
830.612	1.75
831.354	2.75
832.095	1.75
832.836	3.75
833.577	2.75
834.319	2.75
835.06	2.75
835.801	4.75
836.542	3.75
837.282	2.75
838.023	3.75
838.764	1.75
839.504	0.75
840.245	1.75
840.985	2.75
841.726	2.75
842.466	2.75
843.206	2.75
843.946	2.75
844.687	3.75
845.427	0.75
846.166	3.75
846.906	3.75
847.646	1.75
848.386	4.75
849.125	2.75
849.865	2.75
850.605	2.75
851.344	2.75
852.083	2.75
852.823	1.75
853.562	2.75
854.301	1.75
855.04	0.75
855.779	3.75
856.518	1.75
857.257	2.75
857.995	2.75
858.734	1.75
859.473	1.75
860.211	1.75
860.95	4.75
861.688	2.75
862.426	2.75
863.165	2.75
863.903	0.75
864.641	3.75
865.379	2.75
866.117	-0.25
866.855	3.75
867.593	1.75
868.33	2.75
869.068	1.75
869.806	-1.25
870.543	-1.25
871.28	2.75
872.018	1.75
872.755	1.75
873.492	2.75
874.229	0.75
874.967	1.75
875.703	2.75
876.44	2.75
877.177	0.75
877.914	0.75
878.651	1.75
879.387	2.75
880.124	2.75
880.86	1.75
881.597	4.75
882.333	0.75
883.069	2.75
883.806	1.75
884.542	0.75
885.278	2.75
886.014	0.75
886.749	2.75
887.485	2.75
888.221	1.75
888.957	0.75
889.692	-1.25
890.428	1.75
891.163	-2.25
891.899	2.75
892.634	-0.25
893.369	0.75
894.104	2.75
894.839	0.75
895.574	2.75
896.309	2.75
897.044	0.75
897.779	0.75
898.514	0.75
899.248	2.75
899.983	0.75
900.717	1.75
901.452	0.75
902.186	2.75
902.92	0.75
903.654	0.75
904.389	-2.25
905.123	1.75
905.857	1.75
906.59	0.75
907.324	1.75
908.058	0.75
908.792	1.75
909.525	0.75
910.259	1.75
910.992	2.75
911.726	-1.25
912.459	1.75
913.192	1.75
913.925	-0.25
914.658	1.75
915.391	-1.25
916.124	0.75
916.857	1.75
917.59	-1.25
918.323	2.75
919.055	1.75
919.788	0.75
920.521	0.75
921.253	1.75
921.985	0.75
922.718	-0.25
923.45	0.75
924.182	-1.25
924.914	0.75
925.646	2.75
926.378	-0.25
927.11	1.75
927.841	1.75
928.573	0.75
929.305	-0.25
930.036	-1.25
930.768	0.75
931.499	2.75
932.23	2.75
932.962	2.75
933.693	-0.25
934.424	-0.25
935.155	-1.25
935.886	-0.25
936.617	0.75
937.348	1.75
938.078	1.75
938.809	1.75
939.54	-1.25
940.27	2.75
941.001	0.75
941.731	0.75
942.461	0.75
943.191	1.75
943.922	0.75
944.652	1.75
945.382	-1.25
946.112	1.75
946.841	2.75
947.571	1.75
948.301	0.75
949.031	1.75
949.76	-0.25
950.49	0.75
951.219	-0.25
951.948	-0.25
952.678	-1.25
953.407	-0.25
954.136	-0.25
954.865	1.75
955.594	0.75
956.323	1.75
957.052	0.75
957.78	1.75
958.509	0.75
959.238	3.75
959.966	1.75
960.695	0.75
961.423	0.75
962.151	-1.25
962.88	0.75
963.608	2.75
964.336	1.75
965.064	1.75
965.792	0.75
966.52	-0.25
967.247	-0.25
967.975	1.75
968.703	-0.25
969.43	0.75
970.158	0.75
970.885	0.75
971.613	0.75
972.34	1.75
973.067	3.75
973.794	1.75
974.521	1.75
975.248	2.75
975.975	0.75
976.702	0.75
977.429	1.75
978.156	-1.25
978.882	1.75
979.609	3.75
980.335	-1.25
981.062	2.75
981.788	1.75
982.514	2.75
983.24	0.75
983.967	-1.25
984.693	0.75
985.419	1.75
986.144	-1.25
986.87	0.75
987.596	0.75
988.322	-0.25
989.047	0.75
989.773	0.75
990.498	1.75
991.224	1.75
991.949	0.75
992.674	0.75
993.399	1.75
994.124	1.75
994.849	-0.25
995.574	3.75
996.299	1.75
997.024	2.75
997.749	0.75
998.473	1.75
999.198	-1.25
999.922	0.75
1000.647	0.75
1001.371	3.75
1002.095	-1.25
1002.82	-1.25
1003.544	-3.25
1004.268	1.75
1004.992	1.75
1005.716	0.75
1006.439	-1.25
1007.163	-0.25
1007.887	1.75
1008.611	-1.25
1009.334	-1.25
1010.058	2.75
1010.781	1.75
1011.504	0.75
1012.228	1.75
1012.951	0.75
1013.674	0.75
1014.397	1.75
1015.12	-1.25
