节点500_145_QEPB04081__592__11-38-21-387.txt的数据

Date: Wed Nov 12 11:38:21 CST 2025
User: PC
Spectrometer: QEPB0408
触发模式: 0
积分时间 (秒): 1.000000E-2
Scans to average: 1
启用暗噪声校正: true
启用非线性校正: false
滑动平均宽度: 0
X轴模式: Wavelengths
Number of Pixels in Spectrum: 1044
>>>>>Begin Spectral Data<<<<<
220.843	-1.88
221.644	-0.88
222.444	1.12
223.244	0.12
224.045	1.12
224.845	-1.88
225.645	0.12
226.445	2.12
227.245	-0.88
228.045	1.12
228.845	1.12
229.645	-1.88
230.444	1.12
231.244	1.12
232.043	0.12
232.843	-0.88
233.642	0.12
234.442	-0.88
235.241	0.12
236.04	-2.88
236.839	1.12
237.638	1.12
238.437	0.12
239.236	1.12
240.035	-0.88
240.833	0.12
241.632	0.12
242.43	1.12
243.229	2.12
244.027	2.12
244.826	2.12
245.624	-0.88
246.422	0.12
247.22	1.12
248.018	2.12
248.816	2.12
249.614	2.12
250.412	0.12
251.21	2.12
252.007	1.12
252.805	2.12
253.602	2.12
254.4	2.12
255.197	4.12
255.994	2.12
256.791	2.12
257.589	3.12
258.386	2.12
259.183	5.12
259.979	4.12
260.776	2.12
261.573	4.12
262.37	5.12
263.166	5.12
263.963	4.12
264.759	5.12
265.556	4.12
266.352	5.12
267.148	7.12
267.944	3.12
268.74	7.12
269.536	5.12
270.332	4.12
271.128	7.12
271.924	7.12
272.719	7.12
273.515	7.12
274.311	6.12
275.106	10.12
275.901	7.12
276.697	9.12
277.492	8.12
278.287	10.12
279.082	9.12
279.877	8.12
280.672	7.12
281.467	9.12
282.262	9.12
283.056	10.12
283.851	8.12
284.646	12.12
285.44	10.12
286.234	8.12
287.029	10.12
287.823	11.12
288.617	10.12
289.411	11.12
290.205	9.12
290.999	9.12
291.793	10.12
292.587	9.12
293.381	10.12
294.174	9.12
294.968	10.12
295.761	9.12
296.555	9.12
297.348	10.12
298.141	9.12
298.935	10.12
299.728	10.12
300.521	6.12
301.314	9.12
302.107	10.12
302.899	8.12
303.692	9.12
304.485	9.12
305.277	8.12
306.07	7.12
306.862	8.12
307.655	7.12
308.447	9.12
309.239	9.12
310.031	10.12
310.823	7.12
311.615	6.12
312.407	5.12
313.199	6.12
313.991	6.12
314.783	8.12
315.574	5.12
316.366	4.12
317.157	5.12
317.949	6.12
318.74	3.12
319.531	5.12
320.322	6.12
321.113	2.12
321.904	5.12
322.695	4.12
323.486	4.12
324.277	5.12
325.068	3.12
325.858	5.12
326.649	2.12
327.439	4.12
328.23	3.12
329.02	5.12
329.81	2.12
330.6	3.12
331.391	4.12
332.181	2.12
332.971	5.12
333.76	4.12
334.55	4.12
335.34	2.12
336.13	4.12
336.919	3.12
337.709	4.12
338.498	3.12
339.287	2.12
340.077	5.12
340.866	3.12
341.655	3.12
342.444	3.12
343.233	3.12
344.022	2.12
344.811	4.12
345.6	2.12
346.388	5.12
347.177	3.12
347.965	3.12
348.754	4.12
349.542	4.12
350.33	2.12
351.119	2.12
351.907	3.12
352.695	2.12
353.483	3.12
354.271	2.12
355.059	4.12
355.846	2.12
356.634	3.12
357.422	1.12
358.209	4.12
358.997	3.12
359.784	2.12
360.571	3.12
361.359	1.12
362.146	3.12
362.933	4.12
363.72	3.12
364.507	3.12
365.294	0.12
366.081	5.12
366.867	1.12
367.654	4.12
368.44	5.12
369.227	3.12
370.013	3.12
370.8	2.12
371.586	1.12
372.372	2.12
373.158	3.12
373.944	2.12
374.73	1.12
375.516	4.12
376.302	1.12
377.088	5.12
377.873	4.12
378.659	1.12
379.445	2.12
380.23	2.12
381.015	2.12
381.801	2.12
382.586	3.12
383.371	3.12
384.156	3.12
384.941	3.12
385.726	3.12
386.511	2.12
387.296	2.12
388.08	2.12
388.865	3.12
389.649	5.12
390.434	4.12
391.218	3.12
392.003	4.12
392.787	1.12
393.571	2.12
394.355	3.12
395.139	3.12
395.923	2.12
396.707	3.12
397.491	4.12
398.274	2.12
399.058	3.12
399.842	5.12
400.625	4.12
401.408	3.12
402.192	3.12
402.975	2.12
403.758	3.12
404.541	6.12
405.324	1.12
406.107	3.12
406.89	4.12
407.673	1.12
408.456	2.12
409.238	3.12
410.021	4.12
410.803	4.12
411.586	4.12
412.368	4.12
413.151	4.12
413.933	6.12
414.715	4.12
415.497	5.12
416.279	4.12
417.061	8.12
417.843	3.12
418.624	5.12
419.406	5.12
420.188	4.12
420.969	5.12
421.751	7.12
422.532	2.12
423.313	5.12
424.095	4.12
424.876	6.12
425.657	7.12
426.438	6.12
427.219	6.12
428	7.12
428.78	5.12
429.561	7.12
430.342	6.12
431.122	6.12
431.903	5.12
432.683	8.12
433.464	8.12
434.244	8.12
435.024	8.12
435.804	11.12
436.584	9.12
437.364	11.12
438.144	11.12
438.924	11.12
439.704	10.12
440.483	11.12
441.263	11.12
442.042	11.12
442.822	14.12
443.601	14.12
444.38	14.12
445.16	14.12
445.939	16.12
446.718	19.12
447.497	20.12
448.276	21.12
449.054	26.12
449.833	25.12
450.612	28.12
451.391	26.12
452.169	31.12
452.948	30.12
453.726	37.12
454.504	41.12
455.282	46.12
456.061	50.12
456.839	54.12
457.617	61.12
458.395	67.12
459.172	73.12
459.95	82.12
460.728	92.12
461.506	102.12
462.283	115.12
463.061	124.12
463.838	138.12
464.615	158.12
465.393	170.12
466.17	193.12
466.947	215.12
467.724	235.12
468.501	261.12
469.278	297.12
470.055	322.12
470.831	360.12
471.608	396.12
472.385	440.12
473.161	488.12
473.938	545.12
474.714	594.12
475.49	657.12
476.266	716.12
477.043	790.12
477.819	879.12
478.595	965.12
479.371	1058.12
480.146	1166.12
480.922	1284.12
481.698	1392.12
482.473	1529.12
483.249	1681.12
484.024	1869.12
484.8	2018.12
485.575	2225.12
486.35	2411.12
487.126	2627.12
487.901	2907.12
488.676	3180.12
489.451	3465.12
490.225	3791.12
491	4143.12
491.775	4529.12
492.55	4929.12
493.324	5346.12
494.099	5846.12
494.873	6328.12
495.647	6865.12
496.422	7433.12
497.196	8062.12
497.97	8674.12
498.744	9335.12
499.518	10028.12
500.292	10677.12
501.066	11326.12
501.839	11936.12
502.613	12521.12
503.387	13134.12
504.16	13733.12
504.934	14222.12
505.707	14617.12
506.48	14923.12
507.253	15157.12
508.027	15400.12
508.8	15464.12
509.573	15448.12
510.346	15307.12
511.118	15118.12
511.891	14814.12
512.664	14498.12
513.437	14055.12
514.209	13660.12
514.982	13196.12
515.754	12725.12
516.526	12227.12
517.298	11713.12
518.071	11242.12
518.843	10783.12
519.615	10328.12
520.387	9932.12
521.159	9500.12
521.93	9141.12
522.702	8782.12
523.474	8424.12
524.245	8077.12
525.017	7774.12
525.788	7464.12
526.56	7130.12
527.331	6874.12
528.102	6573.12
528.873	6296.12
529.644	6038.12
530.415	5790.12
531.186	5520.12
531.957	5252.12
532.728	4987.12
533.498	4754.12
534.269	4481.12
535.039	4270.12
535.81	4036.12
536.58	3815.12
537.351	3617.12
538.121	3440.12
538.891	3235.12
539.661	3046.12
540.431	2872.12
541.201	2744.12
541.971	2583.12
542.741	2462.12
543.51	2314.12
544.28	2217.12
545.05	2086.12
545.819	2003.12
546.588	1884.12
547.358	1793.12
548.127	1703.12
548.896	1637.12
549.665	1538.12
550.434	1463.12
551.203	1394.12
551.972	1331.12
552.741	1246.12
553.51	1194.12
554.278	1149.12
555.047	1060.12
555.815	1001.12
556.584	941.12
557.352	898.12
558.121	845.12
558.889	791.12
559.657	763.12
560.425	713.12
561.193	679.12
561.961	632.12
562.729	604.12
563.496	562.12
564.264	535.12
565.032	505.12
565.799	479.12
566.567	448.12
567.334	432.12
568.101	409.12
568.869	384.12
569.636	354.12
570.403	335.12
571.17	314.12
571.937	304.12
572.704	287.12
573.471	268.12
574.237	250.12
575.004	234.12
575.771	221.12
576.537	209.12
577.303	197.12
578.07	184.12
578.836	172.12
579.602	166.12
580.368	153.12
581.134	148.12
581.9	138.12
582.666	133.12
583.432	123.12
584.198	121.12
584.964	110.12
585.729	103.12
586.495	99.12
587.26	93.12
588.025	90.12
588.791	84.12
589.556	80.12
590.321	75.12
591.086	71.12
591.851	66.12
592.616	65.12
593.381	64.12
594.146	57.12
594.911	57.12
595.675	55.12
596.44	46.12
597.204	47.12
597.969	44.12
598.733	43.12
599.497	41.12
600.261	40.12
601.025	34.12
601.79	37.12
602.553	37.12
603.317	33.12
604.081	31.12
604.845	30.12
605.609	27.12
606.372	28.12
607.136	25.12
607.899	26.12
608.662	24.12
609.426	23.12
610.189	22.12
610.952	19.12
611.715	21.12
612.478	21.12
613.241	21.12
614.004	18.12
614.767	17.12
615.529	16.12
616.292	15.12
617.055	16.12
617.817	14.12
618.579	17.12
619.342	14.12
620.104	14.12
620.866	11.12
621.628	13.12
622.39	12.12
623.152	12.12
623.914	13.12
624.676	10.12
625.438	12.12
626.199	10.12
626.961	10.12
627.722	10.12
628.484	10.12
629.245	6.12
630.006	7.12
630.768	6.12
631.529	10.12
632.29	6.12
633.051	8.12
633.812	8.12
634.573	6.12
635.333	7.12
636.094	7.12
636.855	6.12
637.615	5.12
638.376	6.12
639.136	7.12
639.896	4.12
640.657	6.12
641.417	5.12
642.177	3.12
642.937	4.12
643.697	6.12
644.457	5.12
645.216	3.12
645.976	3.12
646.736	5.12
647.495	5.12
648.255	4.12
649.014	4.12
649.774	4.12
650.533	4.12
651.292	3.12
652.051	4.12
652.81	3.12
653.569	4.12
654.328	4.12
655.087	4.12
655.846	1.12
656.604	2.12
657.363	2.12
658.121	0.12
658.88	1.12
659.638	4.12
660.397	5.12
661.155	2.12
661.913	3.12
662.671	1.12
663.429	4.12
664.187	2.12
664.945	1.12
665.703	3.12
666.46	3.12
667.218	2.12
667.976	3.12
668.733	2.12
669.49	2.12
670.248	3.12
671.005	3.12
671.762	0.12
672.519	5.12
673.276	0.12
674.033	3.12
674.79	2.12
675.547	2.12
676.304	3.12
677.06	2.12
677.817	1.12
678.574	3.12
679.33	2.12
680.086	1.12
680.843	2.12
681.599	2.12
682.355	2.12
683.111	1.12
683.867	1.12
684.623	3.12
685.379	3.12
686.135	5.12
686.89	2.12
687.646	3.12
688.402	1.12
689.157	1.12
689.912	3.12
690.668	2.12
691.423	0.12
692.178	3.12
692.933	0.12
693.688	2.12
694.443	2.12
695.198	2.12
695.953	1.12
696.708	2.12
697.462	0.12
698.217	2.12
698.972	1.12
699.726	2.12
700.48	4.12
701.235	2.12
701.989	2.12
702.743	2.12
703.497	2.12
704.251	2.12
705.005	1.12
705.759	0.12
706.513	0.12
707.266	0.12
708.02	2.12
708.774	2.12
709.527	2.12
710.28	1.12
711.034	3.12
711.787	1.12
712.54	1.12
713.293	3.12
714.046	2.12
714.799	2.12
715.552	2.12
716.305	3.12
717.058	3.12
717.81	3.12
718.563	3.12
719.315	1.12
720.068	1.12
720.82	1.12
721.573	5.12
722.325	2.12
723.077	2.12
723.829	3.12
724.581	-1.88
725.333	2.12
726.085	-0.88
726.836	1.12
727.588	1.12
728.34	2.12
729.091	3.12
729.843	0.12
730.594	1.12
731.346	-1.88
732.097	1.12
732.848	2.12
733.599	1.12
734.35	2.12
735.101	3.12
735.852	2.12
736.603	0.12
737.354	1.12
738.104	1.12
738.855	1.12
739.605	3.12
740.356	0.12
741.106	4.12
741.856	5.12
742.607	3.12
743.357	2.12
744.107	1.12
744.857	2.12
745.607	1.12
746.357	2.12
747.106	4.12
747.856	1.12
748.606	2.12
749.355	0.12
750.105	1.12
750.854	2.12
751.603	2.12
752.353	2.12
753.102	3.12
753.851	5.12
754.6	1.12
755.349	2.12
756.098	1.12
756.847	3.12
757.595	1.12
758.344	4.12
759.093	4.12
759.841	1.12
760.589	4.12
761.338	0.12
762.086	2.12
762.834	4.12
763.582	2.12
764.331	1.12
765.079	2.12
765.826	2.12
766.574	1.12
767.322	4.12
768.07	5.12
768.817	3.12
769.565	4.12
770.312	4.12
771.06	4.12
771.807	3.12
772.554	5.12
773.302	2.12
774.049	4.12
774.796	6.12
775.543	4.12
776.29	4.12
777.036	3.12
777.783	3.12
778.53	5.12
779.276	4.12
780.023	5.12
780.769	4.12
781.516	5.12
782.262	4.12
783.008	4.12
783.754	4.12
784.5	5.12
785.246	6.12
785.992	2.12
786.738	4.12
787.484	5.12
788.23	6.12
788.975	6.12
789.721	4.12
790.466	4.12
791.212	3.12
791.957	4.12
792.702	4.12
793.447	4.12
794.193	4.12
794.938	3.12
795.683	3.12
796.427	3.12
797.172	4.12
797.917	3.12
798.662	4.12
799.406	5.12
800.151	6.12
800.895	2.12
801.64	3.12
802.384	6.12
803.128	2.12
803.872	5.12
804.616	5.12
805.36	4.12
806.104	2.12
806.848	3.12
807.592	3.12
808.336	2.12
809.079	4.12
809.823	3.12
810.566	4.12
811.31	3.12
812.053	5.12
812.796	4.12
813.539	3.12
814.283	4.12
815.026	4.12
815.769	2.12
816.511	2.12
817.254	2.12
817.997	2.12
818.74	3.12
819.482	4.12
820.225	3.12
820.967	2.12
821.71	2.12
822.452	4.12
823.194	4.12
823.936	1.12
824.678	2.12
825.42	3.12
826.162	3.12
826.904	2.12
827.646	2.12
828.388	3.12
829.129	1.12
829.871	2.12
830.612	0.12
831.354	0.12
832.095	1.12
832.836	4.12
833.577	3.12
834.319	2.12
835.06	2.12
835.801	1.12
836.542	2.12
837.282	2.12
838.023	2.12
838.764	3.12
839.504	2.12
840.245	2.12
840.985	1.12
841.726	0.12
842.466	2.12
843.206	1.12
843.946	3.12
844.687	1.12
845.427	1.12
846.166	1.12
846.906	5.12
847.646	4.12
848.386	-0.88
849.125	1.12
849.865	4.12
850.605	2.12
851.344	2.12
852.083	0.12
852.823	2.12
853.562	-0.88
854.301	1.12
855.04	1.12
855.779	2.12
856.518	0.12
857.257	1.12
857.995	1.12
858.734	1.12
859.473	0.12
860.211	2.12
860.95	0.12
861.688	3.12
862.426	2.12
863.165	2.12
863.903	2.12
864.641	2.12
865.379	2.12
866.117	0.12
866.855	1.12
867.593	1.12
868.33	1.12
869.068	-1.88
869.806	0.12
870.543	2.12
871.28	0.12
872.018	1.12
872.755	3.12
873.492	1.12
874.229	1.12
874.967	2.12
875.703	3.12
876.44	0.12
877.177	1.12
877.914	0.12
878.651	1.12
879.387	1.12
880.124	1.12
880.86	1.12
881.597	2.12
882.333	1.12
883.069	1.12
883.806	1.12
884.542	1.12
885.278	2.12
886.014	0.12
886.749	-0.88
887.485	1.12
888.221	-1.88
888.957	1.12
889.692	0.12
890.428	-0.88
891.163	1.12
891.899	1.12
892.634	0.12
893.369	2.12
894.104	0.12
894.839	1.12
895.574	-0.88
896.309	0.12
897.044	1.12
897.779	1.12
898.514	1.12
899.248	1.12
899.983	-0.88
900.717	1.12
901.452	1.12
902.186	0.12
902.92	0.12
903.654	-1.88
904.389	-1.88
905.123	-1.88
905.857	0.12
906.59	-1.88
907.324	0.12
908.058	1.12
908.792	-0.88
909.525	-0.88
910.259	-1.88
910.992	1.12
911.726	1.12
912.459	-0.88
913.192	2.12
913.925	1.12
914.658	0.12
915.391	0.12
916.124	3.12
916.857	1.12
917.59	1.12
918.323	0.12
919.055	-1.88
919.788	2.12
920.521	-0.88
921.253	-0.88
921.985	1.12
922.718	-0.88
923.45	-1.88
924.182	1.12
924.914	0.12
925.646	2.12
926.378	-0.88
927.11	1.12
927.841	0.12
928.573	0.12
929.305	0.12
930.036	1.12
930.768	1.12
931.499	-0.88
932.23	2.12
932.962	-1.88
933.693	0.12
934.424	1.12
935.155	-0.88
935.886	1.12
936.617	0.12
937.348	0.12
938.078	-2.88
938.809	0.12
939.54	1.12
940.27	0.12
941.001	0.12
941.731	1.12
942.461	-0.88
943.191	-0.88
943.922	-0.88
944.652	3.12
945.382	0.12
946.112	-1.88
946.841	1.12
947.571	0.12
948.301	1.12
949.031	2.12
949.76	0.12
950.49	0.12
951.219	1.12
951.948	-1.88
952.678	1.12
953.407	0.12
954.136	-0.88
954.865	-0.88
955.594	-0.88
956.323	-0.88
957.052	-2.88
957.78	-0.88
958.509	1.12
959.238	-1.88
959.966	-0.88
960.695	1.12
961.423	0.12
962.151	-0.88
962.88	1.12
963.608	2.12
964.336	-1.88
965.064	-0.88
965.792	0.12
966.52	1.12
967.247	0.12
967.975	0.12
968.703	-0.88
969.43	1.12
970.158	-0.88
970.885	0.12
971.613	0.12
972.34	-0.88
973.067	-0.88
973.794	1.12
974.521	1.12
975.248	1.12
975.975	0.12
976.702	0.12
977.429	-1.88
978.156	1.12
978.882	0.12
979.609	-0.88
980.335	-0.88
981.062	0.12
981.788	0.12
982.514	-1.88
983.24	-1.88
983.967	1.12
984.693	0.12
985.419	1.12
986.144	0.12
986.87	0.12
987.596	-1.88
988.322	2.12
989.047	-0.88
989.773	0.12
990.498	-0.88
991.224	1.12
991.949	-1.88
992.674	0.12
993.399	1.12
994.124	-2.88
994.849	-1.88
995.574	1.12
996.299	-1.88
997.024	0.12
997.749	-1.88
998.473	1.12
999.198	1.12
999.922	1.12
1000.647	2.12
1001.371	3.12
1002.095	-1.88
1002.82	-0.88
1003.544	-2.88
1004.268	0.12
1004.992	-1.88
1005.716	-1.88
1006.439	0.12
1007.163	-0.88
1007.887	-1.88
1008.611	0.12
1009.334	0.12
1010.058	1.12
1010.781	2.12
1011.504	0.12
1012.228	1.12
1012.951	0.12
1013.674	2.12
1014.397	0.12
1015.12	0.12
