节点500_145_QEPB04081__640__11-39-09-147.txt的数据

Date: Wed Nov 12 11:39:09 CST 2025
User: PC
Spectrometer: QEPB0408
触发模式: 0
积分时间 (秒): 1.000000E-2
Scans to average: 1
启用暗噪声校正: true
启用非线性校正: false
滑动平均宽度: 0
X轴模式: Wavelengths
Number of Pixels in Spectrum: 1044
>>>>>Begin Spectral Data<<<<<
220.843	0.62
221.644	0.62
222.444	1.62
223.244	1.62
224.045	0.62
224.845	-2.38
225.645	0.62
226.445	-1.38
227.245	-1.38
228.045	2.62
228.845	-0.38
229.645	-1.38
230.444	1.62
231.244	-1.38
232.043	-0.38
232.843	1.62
233.642	1.62
234.442	0.62
235.241	1.62
236.04	2.62
236.839	-1.38
237.638	1.62
238.437	1.62
239.236	0.62
240.035	2.62
240.833	-0.38
241.632	1.62
242.43	0.62
243.229	2.62
244.027	0.62
244.826	2.62
245.624	1.62
246.422	3.62
247.22	1.62
248.018	0.62
248.816	3.62
249.614	2.62
250.412	1.62
251.21	2.62
252.007	0.62
252.805	2.62
253.602	0.62
254.4	3.62
255.197	1.62
255.994	1.62
256.791	3.62
257.589	2.62
258.386	5.62
259.183	1.62
259.979	2.62
260.776	5.62
261.573	4.62
262.37	2.62
263.166	4.62
263.963	5.62
264.759	5.62
265.556	4.62
266.352	5.62
267.148	8.62
267.944	7.62
268.74	5.62
269.536	6.62
270.332	7.62
271.128	6.62
271.924	7.62
272.719	6.62
273.515	7.62
274.311	3.62
275.106	7.62
275.901	7.62
276.697	7.62
277.492	8.62
278.287	7.62
279.082	7.62
279.877	11.62
280.672	9.62
281.467	9.62
282.262	9.62
283.056	10.62
283.851	9.62
284.646	10.62
285.44	10.62
286.234	9.62
287.029	8.62
287.823	9.62
288.617	12.62
289.411	9.62
290.205	12.62
290.999	11.62
291.793	10.62
292.587	11.62
293.381	8.62
294.174	9.62
294.968	9.62
295.761	9.62
296.555	9.62
297.348	10.62
298.141	9.62
298.935	8.62
299.728	7.62
300.521	9.62
301.314	6.62
302.107	9.62
302.899	8.62
303.692	9.62
304.485	7.62
305.277	10.62
306.07	8.62
306.862	8.62
307.655	6.62
308.447	8.62
309.239	7.62
310.031	6.62
310.823	6.62
311.615	7.62
312.407	4.62
313.199	7.62
313.991	5.62
314.783	6.62
315.574	5.62
316.366	5.62
317.157	5.62
317.949	5.62
318.74	5.62
319.531	7.62
320.322	3.62
321.113	5.62
321.904	2.62
322.695	5.62
323.486	5.62
324.277	2.62
325.068	3.62
325.858	4.62
326.649	5.62
327.439	4.62
328.23	1.62
329.02	5.62
329.81	3.62
330.6	3.62
331.391	4.62
332.181	4.62
332.971	7.62
333.76	4.62
334.55	4.62
335.34	3.62
336.13	4.62
336.919	5.62
337.709	4.62
338.498	3.62
339.287	3.62
340.077	4.62
340.866	2.62
341.655	3.62
342.444	5.62
343.233	2.62
344.022	2.62
344.811	2.62
345.6	4.62
346.388	2.62
347.177	4.62
347.965	1.62
348.754	3.62
349.542	5.62
350.33	-0.38
351.119	4.62
351.907	2.62
352.695	3.62
353.483	3.62
354.271	1.62
355.059	1.62
355.846	2.62
356.634	4.62
357.422	2.62
358.209	1.62
358.997	3.62
359.784	0.62
360.571	4.62
361.359	0.62
362.146	4.62
362.933	3.62
363.72	3.62
364.507	3.62
365.294	0.62
366.081	1.62
366.867	1.62
367.654	2.62
368.44	2.62
369.227	1.62
370.013	1.62
370.8	0.62
371.586	3.62
372.372	2.62
373.158	2.62
373.944	2.62
374.73	4.62
375.516	2.62
376.302	1.62
377.088	2.62
377.873	3.62
378.659	2.62
379.445	1.62
380.23	3.62
381.015	3.62
381.801	2.62
382.586	3.62
383.371	4.62
384.156	2.62
384.941	2.62
385.726	4.62
386.511	3.62
387.296	3.62
388.08	4.62
388.865	3.62
389.649	2.62
390.434	3.62
391.218	1.62
392.003	4.62
392.787	2.62
393.571	6.62
394.355	3.62
395.139	3.62
395.923	2.62
396.707	2.62
397.491	3.62
398.274	4.62
399.058	4.62
399.842	3.62
400.625	3.62
401.408	4.62
402.192	1.62
402.975	3.62
403.758	4.62
404.541	2.62
405.324	3.62
406.107	3.62
406.89	4.62
407.673	0.62
408.456	5.62
409.238	5.62
410.021	3.62
410.803	5.62
411.586	3.62
412.368	2.62
413.151	2.62
413.933	5.62
414.715	4.62
415.497	7.62
416.279	5.62
417.061	5.62
417.843	6.62
418.624	3.62
419.406	4.62
420.188	5.62
420.969	3.62
421.751	7.62
422.532	4.62
423.313	6.62
424.095	5.62
424.876	5.62
425.657	5.62
426.438	4.62
427.219	7.62
428	6.62
428.78	5.62
429.561	5.62
430.342	7.62
431.122	9.62
431.903	7.62
432.683	5.62
433.464	8.62
434.244	8.62
435.024	6.62
435.804	9.62
436.584	8.62
437.364	7.62
438.144	10.62
438.924	9.62
439.704	9.62
440.483	10.62
441.263	12.62
442.042	14.62
442.822	16.62
443.601	14.62
444.38	14.62
445.16	14.62
445.939	16.62
446.718	20.62
447.497	21.62
448.276	22.62
449.054	21.62
449.833	23.62
450.612	29.62
451.391	27.62
452.169	34.62
452.948	36.62
453.726	38.62
454.504	39.62
455.282	44.62
456.061	49.62
456.839	53.62
457.617	58.62
458.395	67.62
459.172	75.62
459.95	85.62
460.728	93.62
461.506	100.62
462.283	116.62
463.061	125.62
463.838	137.62
464.615	158.62
465.393	176.62
466.17	195.62
466.947	217.62
467.724	240.62
468.501	264.62
469.278	295.62
470.055	328.62
470.831	362.62
471.608	395.62
472.385	437.62
473.161	492.62
473.938	543.62
474.714	602.62
475.49	662.62
476.266	714.62
477.043	798.62
477.819	874.62
478.595	977.62
479.371	1050.62
480.146	1163.62
480.922	1279.62
481.698	1388.62
482.473	1505.62
483.249	1664.62
484.024	1839.62
484.8	1993.62
485.575	2169.62
486.35	2386.62
487.126	2595.62
487.901	2869.62
488.676	3124.62
489.451	3398.62
490.225	3712.62
491	4069.62
491.775	4417.62
492.55	4809.62
493.324	5224.62
494.099	5692.62
494.873	6200.62
495.647	6704.62
496.422	7251.62
497.196	7839.62
497.97	8403.62
498.744	9062.62
499.518	9745.62
500.292	10345.62
501.066	10986.62
501.839	11583.62
502.613	12202.62
503.387	12784.62
504.16	13314.62
504.934	13841.62
505.707	14255.62
506.48	14584.62
507.253	14861.62
508.027	14987.62
508.8	15089.62
509.573	15143.62
510.346	15027.62
511.118	14899.62
511.891	14627.62
512.664	14312.62
513.437	13960.62
514.209	13549.62
514.982	13088.62
515.754	12637.62
516.526	12176.62
517.298	11635.62
518.071	11221.62
518.843	10687.62
519.615	10228.62
520.387	9842.62
521.159	9432.62
521.93	9092.62
522.702	8722.62
523.474	8407.62
524.245	8083.62
525.017	7753.62
525.788	7419.62
526.56	7085.62
527.331	6823.62
528.102	6562.62
528.873	6275.62
529.644	6034.62
530.415	5755.62
531.186	5534.62
531.957	5262.62
532.728	5007.62
533.498	4724.62
534.269	4524.62
535.039	4293.62
535.81	4052.62
536.58	3820.62
537.351	3609.62
538.121	3438.62
538.891	3244.62
539.661	3081.62
540.431	2920.62
541.201	2745.62
541.971	2596.62
542.741	2443.62
543.51	2346.62
544.28	2217.62
545.05	2097.62
545.819	2004.62
546.588	1901.62
547.358	1810.62
548.127	1727.62
548.896	1639.62
549.665	1558.62
550.434	1475.62
551.203	1384.62
551.972	1334.62
552.741	1266.62
553.51	1195.62
554.278	1135.62
555.047	1067.62
555.815	1000.62
556.584	958.62
557.352	898.62
558.121	857.62
558.889	806.62
559.657	758.62
560.425	715.62
561.193	680.62
561.961	646.62
562.729	615.62
563.496	577.62
564.264	531.62
565.032	506.62
565.799	476.62
566.567	449.62
567.334	425.62
568.101	404.62
568.869	378.62
569.636	358.62
570.403	337.62
571.17	324.62
571.937	308.62
572.704	281.62
573.471	268.62
574.237	248.62
575.004	235.62
575.771	222.62
576.537	203.62
577.303	196.62
578.07	187.62
578.836	173.62
579.602	170.62
580.368	161.62
581.134	149.62
581.9	146.62
582.666	132.62
583.432	127.62
584.198	119.62
584.964	117.62
585.729	109.62
586.495	101.62
587.26	96.62
588.025	95.62
588.791	84.62
589.556	80.62
590.321	77.62
591.086	72.62
591.851	67.62
592.616	62.62
593.381	64.62
594.146	58.62
594.911	59.62
595.675	56.62
596.44	48.62
597.204	46.62
597.969	42.62
598.733	41.62
599.497	39.62
600.261	37.62
601.025	35.62
601.79	37.62
602.553	34.62
603.317	32.62
604.081	33.62
604.845	30.62
605.609	31.62
606.372	28.62
607.136	26.62
607.899	29.62
608.662	25.62
609.426	26.62
610.189	24.62
610.952	23.62
611.715	19.62
612.478	22.62
613.241	21.62
614.004	17.62
614.767	19.62
615.529	18.62
616.292	17.62
617.055	16.62
617.817	13.62
618.579	12.62
619.342	11.62
620.104	15.62
620.866	12.62
621.628	13.62
622.39	14.62
623.152	10.62
623.914	13.62
624.676	12.62
625.438	9.62
626.199	10.62
626.961	10.62
627.722	10.62
628.484	7.62
629.245	10.62
630.006	10.62
630.768	8.62
631.529	6.62
632.29	10.62
633.051	7.62
633.812	8.62
634.573	9.62
635.333	10.62
636.094	3.62
636.855	6.62
637.615	6.62
638.376	6.62
639.136	6.62
639.896	7.62
640.657	7.62
641.417	4.62
642.177	5.62
642.937	6.62
643.697	4.62
644.457	5.62
645.216	4.62
645.976	3.62
646.736	5.62
647.495	4.62
648.255	4.62
649.014	2.62
649.774	3.62
650.533	3.62
651.292	3.62
652.051	5.62
652.81	3.62
653.569	0.62
654.328	4.62
655.087	3.62
655.846	4.62
656.604	2.62
657.363	4.62
658.121	3.62
658.88	7.62
659.638	6.62
660.397	1.62
661.155	3.62
661.913	0.62
662.671	3.62
663.429	6.62
664.187	2.62
664.945	2.62
665.703	1.62
666.46	5.62
667.218	2.62
667.976	3.62
668.733	4.62
669.49	2.62
670.248	2.62
671.005	1.62
671.762	3.62
672.519	2.62
673.276	2.62
674.033	2.62
674.79	1.62
675.547	1.62
676.304	4.62
677.06	2.62
677.817	-0.38
678.574	3.62
679.33	3.62
680.086	2.62
680.843	2.62
681.599	2.62
682.355	3.62
683.111	2.62
683.867	0.62
684.623	2.62
685.379	0.62
686.135	2.62
686.89	2.62
687.646	2.62
688.402	-0.38
689.157	1.62
689.912	1.62
690.668	1.62
691.423	1.62
692.178	2.62
692.933	1.62
693.688	4.62
694.443	4.62
695.198	3.62
695.953	3.62
696.708	2.62
697.462	2.62
698.217	1.62
698.972	2.62
699.726	1.62
700.48	1.62
701.235	1.62
701.989	0.62
702.743	3.62
703.497	1.62
704.251	0.62
705.005	1.62
705.759	2.62
706.513	4.62
707.266	5.62
708.02	2.62
708.774	1.62
709.527	2.62
710.28	1.62
711.034	2.62
711.787	1.62
712.54	3.62
713.293	3.62
714.046	2.62
714.799	2.62
715.552	0.62
716.305	3.62
717.058	2.62
717.81	3.62
718.563	1.62
719.315	3.62
720.068	2.62
720.82	2.62
721.573	2.62
722.325	3.62
723.077	2.62
723.829	3.62
724.581	1.62
725.333	3.62
726.085	-0.38
726.836	3.62
727.588	1.62
728.34	3.62
729.091	1.62
729.843	2.62
730.594	0.62
731.346	1.62
732.097	2.62
732.848	1.62
733.599	2.62
734.35	4.62
735.101	1.62
735.852	3.62
736.603	1.62
737.354	2.62
738.104	3.62
738.855	3.62
739.605	3.62
740.356	0.62
741.106	2.62
741.856	2.62
742.607	2.62
743.357	3.62
744.107	2.62
744.857	2.62
745.607	1.62
746.357	3.62
747.106	-0.38
747.856	2.62
748.606	2.62
749.355	4.62
750.105	3.62
750.854	3.62
751.603	2.62
752.353	1.62
753.102	2.62
753.851	3.62
754.6	3.62
755.349	5.62
756.098	3.62
756.847	4.62
757.595	2.62
758.344	3.62
759.093	1.62
759.841	2.62
760.589	3.62
761.338	4.62
762.086	4.62
762.834	2.62
763.582	3.62
764.331	3.62
765.079	4.62
765.826	2.62
766.574	1.62
767.322	5.62
768.07	1.62
768.817	4.62
769.565	3.62
770.312	4.62
771.06	4.62
771.807	4.62
772.554	5.62
773.302	2.62
774.049	3.62
774.796	-0.38
775.543	3.62
776.29	5.62
777.036	2.62
777.783	3.62
778.53	6.62
779.276	4.62
780.023	2.62
780.769	2.62
781.516	4.62
782.262	4.62
783.008	5.62
783.754	3.62
784.5	5.62
785.246	3.62
785.992	3.62
786.738	4.62
787.484	3.62
788.23	3.62
788.975	3.62
789.721	4.62
790.466	4.62
791.212	3.62
791.957	6.62
792.702	7.62
793.447	5.62
794.193	3.62
794.938	2.62
795.683	5.62
796.427	3.62
797.172	5.62
797.917	4.62
798.662	2.62
799.406	2.62
800.151	2.62
800.895	5.62
801.64	3.62
802.384	5.62
803.128	2.62
803.872	5.62
804.616	5.62
805.36	4.62
806.104	2.62
806.848	4.62
807.592	3.62
808.336	2.62
809.079	3.62
809.823	1.62
810.566	5.62
811.31	2.62
812.053	1.62
812.796	2.62
813.539	2.62
814.283	2.62
815.026	5.62
815.769	2.62
816.511	3.62
817.254	3.62
817.997	3.62
818.74	1.62
819.482	4.62
820.225	3.62
820.967	4.62
821.71	2.62
822.452	0.62
823.194	4.62
823.936	4.62
824.678	3.62
825.42	2.62
826.162	3.62
826.904	3.62
827.646	3.62
828.388	5.62
829.129	3.62
829.871	3.62
830.612	1.62
831.354	4.62
832.095	2.62
832.836	1.62
833.577	2.62
834.319	2.62
835.06	4.62
835.801	2.62
836.542	5.62
837.282	3.62
838.023	2.62
838.764	3.62
839.504	2.62
840.245	1.62
840.985	4.62
841.726	2.62
842.466	2.62
843.206	0.62
843.946	4.62
844.687	5.62
845.427	2.62
846.166	2.62
846.906	4.62
847.646	2.62
848.386	-0.38
849.125	3.62
849.865	1.62
850.605	4.62
851.344	-0.38
852.083	2.62
852.823	1.62
853.562	1.62
854.301	2.62
855.04	3.62
855.779	2.62
856.518	1.62
857.257	2.62
857.995	1.62
858.734	1.62
859.473	4.62
860.211	0.62
860.95	0.62
861.688	1.62
862.426	2.62
863.165	3.62
863.903	0.62
864.641	1.62
865.379	1.62
866.117	4.62
866.855	2.62
867.593	1.62
868.33	2.62
869.068	0.62
869.806	1.62
870.543	1.62
871.28	1.62
872.018	2.62
872.755	1.62
873.492	1.62
874.229	1.62
874.967	1.62
875.703	0.62
876.44	0.62
877.177	1.62
877.914	0.62
878.651	-1.38
879.387	1.62
880.124	2.62
880.86	-0.38
881.597	3.62
882.333	2.62
883.069	-0.38
883.806	4.62
884.542	0.62
885.278	2.62
886.014	2.62
886.749	2.62
887.485	2.62
888.221	0.62
888.957	2.62
889.692	1.62
890.428	1.62
891.163	1.62
891.899	1.62
892.634	2.62
893.369	2.62
894.104	-0.38
894.839	0.62
895.574	1.62
896.309	0.62
897.044	-0.38
897.779	1.62
898.514	1.62
899.248	0.62
899.983	-1.38
900.717	0.62
901.452	-0.38
902.186	0.62
902.92	1.62
903.654	1.62
904.389	0.62
905.123	1.62
905.857	0.62
906.59	3.62
907.324	0.62
908.058	1.62
908.792	1.62
909.525	0.62
910.259	2.62
910.992	0.62
911.726	-0.38
912.459	0.62
913.192	1.62
913.925	-1.38
914.658	0.62
915.391	0.62
916.124	0.62
916.857	0.62
917.59	2.62
918.323	-2.38
919.055	0.62
919.788	4.62
920.521	0.62
921.253	1.62
921.985	1.62
922.718	0.62
923.45	0.62
924.182	-0.38
924.914	0.62
925.646	1.62
926.378	-0.38
927.11	0.62
927.841	-2.38
928.573	0.62
929.305	-0.38
930.036	-0.38
930.768	-1.38
931.499	1.62
932.23	0.62
932.962	-0.38
933.693	0.62
934.424	0.62
935.155	0.62
935.886	-0.38
936.617	-1.38
937.348	1.62
938.078	-0.38
938.809	-0.38
939.54	0.62
940.27	1.62
941.001	-0.38
941.731	-0.38
942.461	1.62
943.191	-2.38
943.922	1.62
944.652	0.62
945.382	1.62
946.112	1.62
946.841	1.62
947.571	-0.38
948.301	-0.38
949.031	1.62
949.76	-1.38
950.49	1.62
951.219	1.62
951.948	1.62
952.678	0.62
953.407	1.62
954.136	1.62
954.865	0.62
955.594	2.62
956.323	0.62
957.052	-0.38
957.78	0.62
958.509	-1.38
959.238	-0.38
959.966	-2.38
960.695	-0.38
961.423	0.62
962.151	-1.38
962.88	0.62
963.608	1.62
964.336	1.62
965.064	1.62
965.792	0.62
966.52	0.62
967.247	0.62
967.975	0.62
968.703	-0.38
969.43	1.62
970.158	2.62
970.885	0.62
971.613	1.62
972.34	-1.38
973.067	2.62
973.794	0.62
974.521	-0.38
975.248	-0.38
975.975	1.62
976.702	0.62
977.429	1.62
978.156	3.62
978.882	-0.38
979.609	2.62
980.335	0.62
981.062	1.62
981.788	-0.38
982.514	1.62
983.24	-0.38
983.967	-1.38
984.693	-1.38
985.419	1.62
986.144	-1.38
986.87	1.62
987.596	-1.38
988.322	1.62
989.047	-0.38
989.773	-0.38
990.498	0.62
991.224	-0.38
991.949	1.62
992.674	1.62
993.399	1.62
994.124	0.62
994.849	1.62
995.574	1.62
996.299	-1.38
997.024	2.62
997.749	-1.38
998.473	0.62
999.198	1.62
999.922	1.62
1000.647	1.62
1001.371	1.62
1002.095	-2.38
1002.82	0.62
1003.544	0.62
1004.268	1.62
1004.992	0.62
1005.716	-1.38
1006.439	0.62
1007.163	0.62
1007.887	0.62
1008.611	1.62
1009.334	3.62
1010.058	-0.38
1010.781	-0.38
1011.504	-0.38
1012.228	3.62
1012.951	1.62
1013.674	-2.38
1014.397	2.62
1015.12	-2.38
