节点500_145_QEPB04081__505__11-37-00-457.txt的数据

Date: Wed Nov 12 11:37:00 CST 2025
User: PC
Spectrometer: QEPB0408
触发模式: 0
积分时间 (秒): 1.000000E-2
Scans to average: 1
启用暗噪声校正: true
启用非线性校正: false
滑动平均宽度: 0
X轴模式: Wavelengths
Number of Pixels in Spectrum: 1044
>>>>>Begin Spectral Data<<<<<
220.843	1.25
221.644	1.25
222.444	-0.75
223.244	-0.75
224.045	0.25
224.845	-1.75
225.645	-0.75
226.445	-0.75
227.245	1.25
228.045	1.25
228.845	-1.75
229.645	0.25
230.444	-0.75
231.244	0.25
232.043	1.25
232.843	1.25
233.642	-1.75
234.442	2.25
235.241	0.25
236.04	2.25
236.839	2.25
237.638	0.25
238.437	1.25
239.236	-1.75
240.035	1.25
240.833	1.25
241.632	-0.75
242.43	3.25
243.229	-1.75
244.027	1.25
244.826	0.25
245.624	2.25
246.422	1.25
247.22	1.25
248.018	0.25
248.816	1.25
249.614	1.25
250.412	2.25
251.21	2.25
252.007	1.25
252.805	1.25
253.602	4.25
254.4	0.25
255.197	1.25
255.994	3.25
256.791	5.25
257.589	3.25
258.386	3.25
259.183	4.25
259.979	3.25
260.776	4.25
261.573	4.25
262.37	4.25
263.166	3.25
263.963	4.25
264.759	5.25
265.556	4.25
266.352	6.25
267.148	4.25
267.944	7.25
268.74	7.25
269.536	3.25
270.332	8.25
271.128	5.25
271.924	7.25
272.719	6.25
273.515	8.25
274.311	5.25
275.106	7.25
275.901	10.25
276.697	7.25
277.492	9.25
278.287	10.25
279.082	10.25
279.877	9.25
280.672	10.25
281.467	8.25
282.262	8.25
283.056	10.25
283.851	10.25
284.646	8.25
285.44	9.25
286.234	8.25
287.029	10.25
287.823	11.25
288.617	10.25
289.411	10.25
290.205	9.25
290.999	10.25
291.793	10.25
292.587	12.25
293.381	11.25
294.174	10.25
294.968	10.25
295.761	9.25
296.555	11.25
297.348	8.25
298.141	8.25
298.935	8.25
299.728	6.25
300.521	7.25
301.314	7.25
302.107	8.25
302.899	7.25
303.692	9.25
304.485	7.25
305.277	6.25
306.07	6.25
306.862	6.25
307.655	9.25
308.447	6.25
309.239	7.25
310.031	5.25
310.823	5.25
311.615	7.25
312.407	9.25
313.199	5.25
313.991	7.25
314.783	3.25
315.574	6.25
316.366	8.25
317.157	5.25
317.949	6.25
318.74	4.25
319.531	4.25
320.322	8.25
321.113	7.25
321.904	4.25
322.695	6.25
323.486	5.25
324.277	5.25
325.068	5.25
325.858	4.25
326.649	5.25
327.439	7.25
328.23	1.25
329.02	4.25
329.81	7.25
330.6	3.25
331.391	4.25
332.181	2.25
332.971	4.25
333.76	2.25
334.55	1.25
335.34	3.25
336.13	1.25
336.919	2.25
337.709	4.25
338.498	1.25
339.287	3.25
340.077	3.25
340.866	3.25
341.655	1.25
342.444	3.25
343.233	4.25
344.022	3.25
344.811	2.25
345.6	1.25
346.388	5.25
347.177	2.25
347.965	3.25
348.754	2.25
349.542	1.25
350.33	3.25
351.119	1.25
351.907	3.25
352.695	3.25
353.483	4.25
354.271	3.25
355.059	3.25
355.846	3.25
356.634	-0.75
357.422	3.25
358.209	2.25
358.997	1.25
359.784	2.25
360.571	4.25
361.359	3.25
362.146	2.25
362.933	2.25
363.72	2.25
364.507	2.25
365.294	4.25
366.081	1.25
366.867	1.25
367.654	1.25
368.44	3.25
369.227	2.25
370.013	3.25
370.8	1.25
371.586	1.25
372.372	0.25
373.158	1.25
373.944	4.25
374.73	1.25
375.516	2.25
376.302	2.25
377.088	2.25
377.873	3.25
378.659	1.25
379.445	3.25
380.23	2.25
381.015	2.25
381.801	1.25
382.586	2.25
383.371	3.25
384.156	1.25
384.941	2.25
385.726	3.25
386.511	2.25
387.296	4.25
388.08	2.25
388.865	2.25
389.649	2.25
390.434	2.25
391.218	3.25
392.003	0.25
392.787	3.25
393.571	3.25
394.355	2.25
395.139	3.25
395.923	5.25
396.707	3.25
397.491	4.25
398.274	2.25
399.058	2.25
399.842	4.25
400.625	1.25
401.408	3.25
402.192	4.25
402.975	4.25
403.758	2.25
404.541	3.25
405.324	3.25
406.107	4.25
406.89	6.25
407.673	4.25
408.456	3.25
409.238	4.25
410.021	3.25
410.803	4.25
411.586	2.25
412.368	4.25
413.151	5.25
413.933	3.25
414.715	5.25
415.497	6.25
416.279	2.25
417.061	4.25
417.843	4.25
418.624	3.25
419.406	5.25
420.188	4.25
420.969	5.25
421.751	5.25
422.532	4.25
423.313	6.25
424.095	5.25
424.876	5.25
425.657	4.25
426.438	7.25
427.219	6.25
428	9.25
428.78	7.25
429.561	6.25
430.342	5.25
431.122	7.25
431.903	7.25
432.683	7.25
433.464	7.25
434.244	7.25
435.024	5.25
435.804	7.25
436.584	10.25
437.364	9.25
438.144	9.25
438.924	13.25
439.704	12.25
440.483	10.25
441.263	10.25
442.042	12.25
442.822	13.25
443.601	15.25
444.38	13.25
445.16	16.25
445.939	14.25
446.718	17.25
447.497	21.25
448.276	22.25
449.054	24.25
449.833	23.25
450.612	28.25
451.391	27.25
452.169	29.25
452.948	33.25
453.726	34.25
454.504	40.25
455.282	38.25
456.061	48.25
456.839	54.25
457.617	57.25
458.395	61.25
459.172	70.25
459.95	79.25
460.728	85.25
461.506	99.25
462.283	115.25
463.061	126.25
463.838	136.25
464.615	150.25
465.393	166.25
466.17	183.25
466.947	202.25
467.724	222.25
468.501	256.25
469.278	281.25
470.055	315.25
470.831	353.25
471.608	384.25
472.385	429.25
473.161	477.25
473.938	540.25
474.714	587.25
475.49	648.25
476.266	720.25
477.043	780.25
477.819	865.25
478.595	958.25
479.371	1069.25
480.146	1154.25
480.922	1269.25
481.698	1401.25
482.473	1539.25
483.249	1686.25
484.024	1847.25
484.8	2043.25
485.575	2233.25
486.35	2449.25
487.126	2674.25
487.901	2929.25
488.676	3226.25
489.451	3528.25
490.225	3862.25
491	4229.25
491.775	4641.25
492.55	5068.25
493.324	5539.25
494.099	6037.25
494.873	6562.25
495.647	7117.25
496.422	7730.25
497.196	8366.25
497.97	8953.25
498.744	9674.25
499.518	10375.25
500.292	11027.25
501.066	11719.25
501.839	12389.25
502.613	13033.25
503.387	13595.25
504.16	14126.25
504.934	14648.25
505.707	15044.25
506.48	15397.25
507.253	15594.25
508.027	15754.25
508.8	15787.25
509.573	15722.25
510.346	15522.25
511.118	15317.25
511.891	15059.25
512.664	14662.25
513.437	14236.25
514.209	13699.25
514.982	13216.25
515.754	12742.25
516.526	12207.25
517.298	11711.25
518.071	11246.25
518.843	10754.25
519.615	10285.25
520.387	9829.25
521.159	9456.25
521.93	9082.25
522.702	8693.25
523.474	8389.25
524.245	8109.25
525.017	7750.25
525.788	7434.25
526.56	7126.25
527.331	6871.25
528.102	6547.25
528.873	6261.25
529.644	5988.25
530.415	5696.25
531.186	5465.25
531.957	5190.25
532.728	4920.25
533.498	4697.25
534.269	4448.25
535.039	4235.25
535.81	3964.25
536.58	3778.25
537.351	3563.25
538.121	3364.25
538.891	3214.25
539.661	2999.25
540.431	2836.25
541.201	2696.25
541.971	2551.25
542.741	2424.25
543.51	2294.25
544.28	2170.25
545.05	2057.25
545.819	1953.25
546.588	1881.25
547.358	1783.25
548.127	1681.25
548.896	1591.25
549.665	1529.25
550.434	1454.25
551.203	1370.25
551.972	1299.25
552.741	1240.25
553.51	1164.25
554.278	1120.25
555.047	1045.25
555.815	981.25
556.584	938.25
557.352	885.25
558.121	843.25
558.889	786.25
559.657	730.25
560.425	701.25
561.193	652.25
561.961	626.25
562.729	581.25
563.496	558.25
564.264	523.25
565.032	503.25
565.799	463.25
566.567	439.25
567.334	416.25
568.101	385.25
568.869	364.25
569.636	343.25
570.403	326.25
571.17	311.25
571.937	294.25
572.704	276.25
573.471	258.25
574.237	241.25
575.004	232.25
575.771	220.25
576.537	212.25
577.303	194.25
578.07	185.25
578.836	172.25
579.602	164.25
580.368	153.25
581.134	142.25
581.9	137.25
582.666	130.25
583.432	125.25
584.198	117.25
584.964	110.25
585.729	101.25
586.495	96.25
587.26	96.25
588.025	89.25
588.791	81.25
589.556	78.25
590.321	77.25
591.086	74.25
591.851	61.25
592.616	66.25
593.381	60.25
594.146	58.25
594.911	53.25
595.675	49.25
596.44	50.25
597.204	46.25
597.969	45.25
598.733	41.25
599.497	43.25
600.261	41.25
601.025	38.25
601.79	35.25
602.553	33.25
603.317	32.25
604.081	31.25
604.845	30.25
605.609	28.25
606.372	27.25
607.136	27.25
607.899	25.25
608.662	26.25
609.426	22.25
610.189	20.25
610.952	19.25
611.715	20.25
612.478	19.25
613.241	16.25
614.004	18.25
614.767	17.25
615.529	15.25
616.292	15.25
617.055	15.25
617.817	14.25
618.579	14.25
619.342	13.25
620.104	12.25
620.866	15.25
621.628	10.25
622.39	11.25
623.152	12.25
623.914	11.25
624.676	11.25
625.438	11.25
626.199	12.25
626.961	7.25
627.722	9.25
628.484	8.25
629.245	6.25
630.006	10.25
630.768	7.25
631.529	7.25
632.29	7.25
633.051	8.25
633.812	6.25
634.573	9.25
635.333	6.25
636.094	6.25
636.855	7.25
637.615	7.25
638.376	5.25
639.136	4.25
639.896	4.25
640.657	8.25
641.417	6.25
642.177	6.25
642.937	2.25
643.697	3.25
644.457	5.25
645.216	4.25
645.976	2.25
646.736	5.25
647.495	4.25
648.255	3.25
649.014	1.25
649.774	5.25
650.533	2.25
651.292	1.25
652.051	5.25
652.81	2.25
653.569	4.25
654.328	3.25
655.087	2.25
655.846	5.25
656.604	5.25
657.363	2.25
658.121	3.25
658.88	2.25
659.638	4.25
660.397	5.25
661.155	4.25
661.913	4.25
662.671	1.25
663.429	3.25
664.187	2.25
664.945	2.25
665.703	2.25
666.46	2.25
667.218	2.25
667.976	4.25
668.733	3.25
669.49	3.25
670.248	3.25
671.005	3.25
671.762	3.25
672.519	0.25
673.276	2.25
674.033	2.25
674.79	2.25
675.547	3.25
676.304	4.25
677.06	1.25
677.817	0.25
678.574	2.25
679.33	4.25
680.086	3.25
680.843	2.25
681.599	2.25
682.355	1.25
683.111	2.25
683.867	0.25
684.623	3.25
685.379	3.25
686.135	1.25
686.89	1.25
687.646	1.25
688.402	2.25
689.157	2.25
689.912	1.25
690.668	0.25
691.423	1.25
692.178	1.25
692.933	1.25
693.688	1.25
694.443	2.25
695.198	1.25
695.953	1.25
696.708	0.25
697.462	2.25
698.217	1.25
698.972	1.25
699.726	3.25
700.48	1.25
701.235	2.25
701.989	4.25
702.743	0.25
703.497	2.25
704.251	1.25
705.005	0.25
705.759	1.25
706.513	2.25
707.266	2.25
708.02	1.25
708.774	1.25
709.527	0.25
710.28	2.25
711.034	2.25
711.787	-0.75
712.54	1.25
713.293	4.25
714.046	1.25
714.799	3.25
715.552	3.25
716.305	1.25
717.058	3.25
717.81	2.25
718.563	0.25
719.315	1.25
720.068	3.25
720.82	1.25
721.573	1.25
722.325	2.25
723.077	1.25
723.829	2.25
724.581	2.25
725.333	1.25
726.085	0.25
726.836	2.25
727.588	1.25
728.34	2.25
729.091	1.25
729.843	1.25
730.594	2.25
731.346	0.25
732.097	2.25
732.848	2.25
733.599	0.25
734.35	2.25
735.101	1.25
735.852	1.25
736.603	2.25
737.354	0.25
738.104	2.25
738.855	2.25
739.605	2.25
740.356	2.25
741.106	4.25
741.856	3.25
742.607	1.25
743.357	1.25
744.107	1.25
744.857	3.25
745.607	1.25
746.357	3.25
747.106	2.25
747.856	-0.75
748.606	2.25
749.355	4.25
750.105	2.25
750.854	0.25
751.603	1.25
752.353	4.25
753.102	1.25
753.851	4.25
754.6	2.25
755.349	5.25
756.098	2.25
756.847	3.25
757.595	3.25
758.344	2.25
759.093	0.25
759.841	3.25
760.589	4.25
761.338	3.25
762.086	3.25
762.834	3.25
763.582	3.25
764.331	5.25
765.079	2.25
765.826	2.25
766.574	4.25
767.322	3.25
768.07	2.25
768.817	3.25
769.565	4.25
770.312	2.25
771.06	5.25
771.807	3.25
772.554	4.25
773.302	4.25
774.049	3.25
774.796	5.25
775.543	4.25
776.29	3.25
777.036	4.25
777.783	4.25
778.53	5.25
779.276	5.25
780.023	6.25
780.769	5.25
781.516	4.25
782.262	6.25
783.008	4.25
783.754	6.25
784.5	5.25
785.246	5.25
785.992	3.25
786.738	5.25
787.484	5.25
788.23	4.25
788.975	6.25
789.721	1.25
790.466	6.25
791.212	5.25
791.957	5.25
792.702	4.25
793.447	4.25
794.193	4.25
794.938	2.25
795.683	3.25
796.427	5.25
797.172	4.25
797.917	3.25
798.662	5.25
799.406	5.25
800.151	2.25
800.895	6.25
801.64	3.25
802.384	5.25
803.128	4.25
803.872	5.25
804.616	2.25
805.36	4.25
806.104	4.25
806.848	3.25
807.592	3.25
808.336	2.25
809.079	3.25
809.823	4.25
810.566	1.25
811.31	5.25
812.053	3.25
812.796	5.25
813.539	2.25
814.283	2.25
815.026	5.25
815.769	1.25
816.511	4.25
817.254	2.25
817.997	2.25
818.74	4.25
819.482	3.25
820.225	4.25
820.967	2.25
821.71	5.25
822.452	3.25
823.194	2.25
823.936	2.25
824.678	3.25
825.42	2.25
826.162	1.25
826.904	4.25
827.646	2.25
828.388	2.25
829.129	2.25
829.871	3.25
830.612	2.25
831.354	3.25
832.095	1.25
832.836	2.25
833.577	1.25
834.319	1.25
835.06	1.25
835.801	5.25
836.542	2.25
837.282	4.25
838.023	3.25
838.764	4.25
839.504	2.25
840.245	0.25
840.985	3.25
841.726	1.25
842.466	0.25
843.206	1.25
843.946	2.25
844.687	1.25
845.427	0.25
846.166	2.25
846.906	2.25
847.646	2.25
848.386	3.25
849.125	5.25
849.865	2.25
850.605	1.25
851.344	2.25
852.083	0.25
852.823	2.25
853.562	-0.75
854.301	0.25
855.04	2.25
855.779	1.25
856.518	2.25
857.257	3.25
857.995	3.25
858.734	-1.75
859.473	0.25
860.211	2.25
860.95	2.25
861.688	1.25
862.426	-0.75
863.165	1.25
863.903	2.25
864.641	2.25
865.379	2.25
866.117	1.25
866.855	1.25
867.593	0.25
868.33	3.25
869.068	1.25
869.806	0.25
870.543	-1.75
871.28	0.25
872.018	0.25
872.755	0.25
873.492	2.25
874.229	3.25
874.967	-0.75
875.703	0.25
876.44	1.25
877.177	2.25
877.914	-1.75
878.651	-2.75
879.387	0.25
880.124	0.25
880.86	0.25
881.597	0.25
882.333	0.25
883.069	1.25
883.806	1.25
884.542	2.25
885.278	-0.75
886.014	1.25
886.749	1.25
887.485	1.25
888.221	1.25
888.957	1.25
889.692	-0.75
890.428	0.25
891.163	1.25
891.899	-1.75
892.634	1.25
893.369	0.25
894.104	0.25
894.839	0.25
895.574	2.25
896.309	-0.75
897.044	1.25
897.779	1.25
898.514	2.25
899.248	-0.75
899.983	0.25
900.717	-2.75
901.452	0.25
902.186	-1.75
902.92	1.25
903.654	-0.75
904.389	-2.75
905.123	1.25
905.857	-1.75
906.59	0.25
907.324	0.25
908.058	2.25
908.792	0.25
909.525	-1.75
910.259	2.25
910.992	-2.75
911.726	0.25
912.459	0.25
913.192	0.25
913.925	1.25
914.658	0.25
915.391	0.25
916.124	1.25
916.857	0.25
917.59	0.25
918.323	1.25
919.055	0.25
919.788	-0.75
920.521	2.25
921.253	-0.75
921.985	-0.75
922.718	1.25
923.45	1.25
924.182	-0.75
924.914	-1.75
925.646	0.25
926.378	0.25
927.11	0.25
927.841	-1.75
928.573	0.25
929.305	-0.75
930.036	1.25
930.768	0.25
931.499	-0.75
932.23	1.25
932.962	2.25
933.693	0.25
934.424	1.25
935.155	0.25
935.886	-0.75
936.617	-0.75
937.348	-0.75
938.078	-1.75
938.809	1.25
939.54	0.25
940.27	-2.75
941.001	1.25
941.731	-1.75
942.461	2.25
943.191	-1.75
943.922	-0.75
944.652	1.25
945.382	-1.75
946.112	0.25
946.841	-1.75
947.571	0.25
948.301	1.25
949.031	0.25
949.76	0.25
950.49	1.25
951.219	0.25
951.948	0.25
952.678	-0.75
953.407	1.25
954.136	-0.75
954.865	-1.75
955.594	0.25
956.323	0.25
957.052	-0.75
957.78	1.25
958.509	0.25
959.238	-0.75
959.966	-1.75
960.695	0.25
961.423	0.25
962.151	-0.75
962.88	-0.75
963.608	-0.75
964.336	0.25
965.064	1.25
965.792	-0.75
966.52	2.25
967.247	0.25
967.975	0.25
968.703	-0.75
969.43	-0.75
970.158	-1.75
970.885	0.25
971.613	2.25
972.34	1.25
973.067	0.25
973.794	-1.75
974.521	1.25
975.248	0.25
975.975	-1.75
976.702	1.25
977.429	-1.75
978.156	2.25
978.882	0.25
979.609	0.25
980.335	1.25
981.062	-0.75
981.788	-1.75
982.514	0.25
983.24	1.25
983.967	-0.75
984.693	1.25
985.419	0.25
986.144	0.25
986.87	1.25
987.596	0.25
988.322	-1.75
989.047	0.25
989.773	0.25
990.498	0.25
991.224	-1.75
991.949	0.25
992.674	1.25
993.399	-1.75
994.124	1.25
994.849	0.25
995.574	-0.75
996.299	0.25
997.024	-0.75
997.749	-0.75
998.473	0.25
999.198	-1.75
999.922	1.25
1000.647	0.25
1001.371	3.25
1002.095	-1.75
1002.82	-0.75
1003.544	-2.75
1004.268	0.25
1004.992	-1.75
1005.716	-0.75
1006.439	-0.75
1007.163	-0.75
1007.887	-1.75
1008.611	-0.75
1009.334	0.25
1010.058	1.25
1010.781	1.25
1011.504	0.25
1012.228	-0.75
1012.951	0.25
1013.674	-0.75
1014.397	1.25
1015.12	1.25
