节点500_145_QEPB04081__26__11-29-21-797.txt的数据

Date: Wed Nov 12 11:29:21 CST 2025
User: PC
Spectrometer: QEPB0408
触发模式: 0
积分时间 (秒): 1.000000E-2
Scans to average: 1
启用暗噪声校正: true
启用非线性校正: false
滑动平均宽度: 0
X轴模式: Wavelengths
Number of Pixels in Spectrum: 1044
>>>>>Begin Spectral Data<<<<<
220.843	-0.88
221.644	0.12
222.444	1.12
223.244	0.12
224.045	-0.88
224.845	5.12
225.645	3.12
226.445	-0.88
227.245	2.12
228.045	-0.88
228.845	2.12
229.645	0.12
230.444	1.12
231.244	1.12
232.043	-1.88
232.843	2.12
233.642	3.12
234.442	2.12
235.241	3.12
236.04	2.12
236.839	3.12
237.638	-0.88
238.437	3.12
239.236	1.12
240.035	1.12
240.833	4.12
241.632	3.12
242.43	3.12
243.229	0.12
244.027	4.12
244.826	3.12
245.624	4.12
246.422	4.12
247.22	3.12
248.018	4.12
248.816	3.12
249.614	5.12
250.412	2.12
251.21	4.12
252.007	3.12
252.805	3.12
253.602	5.12
254.4	6.12
255.197	4.12
255.994	4.12
256.791	3.12
257.589	3.12
258.386	3.12
259.183	6.12
259.979	5.12
260.776	7.12
261.573	5.12
262.37	5.12
263.166	8.12
263.963	7.12
264.759	7.12
265.556	8.12
266.352	5.12
267.148	7.12
267.944	8.12
268.74	9.12
269.536	8.12
270.332	11.12
271.128	9.12
271.924	8.12
272.719	10.12
273.515	9.12
274.311	11.12
275.106	10.12
275.901	12.12
276.697	11.12
277.492	11.12
278.287	10.12
279.082	11.12
279.877	11.12
280.672	11.12
281.467	11.12
282.262	12.12
283.056	11.12
283.851	15.12
284.646	12.12
285.44	14.12
286.234	12.12
287.029	11.12
287.823	12.12
288.617	13.12
289.411	14.12
290.205	12.12
290.999	14.12
291.793	11.12
292.587	12.12
293.381	12.12
294.174	13.12
294.968	9.12
295.761	11.12
296.555	10.12
297.348	12.12
298.141	13.12
298.935	11.12
299.728	12.12
300.521	11.12
301.314	11.12
302.107	11.12
302.899	9.12
303.692	9.12
304.485	10.12
305.277	9.12
306.07	9.12
306.862	9.12
307.655	10.12
308.447	11.12
309.239	7.12
310.031	8.12
310.823	9.12
311.615	9.12
312.407	7.12
313.199	7.12
313.991	8.12
314.783	7.12
315.574	8.12
316.366	5.12
317.157	6.12
317.949	8.12
318.74	5.12
319.531	3.12
320.322	3.12
321.113	7.12
321.904	5.12
322.695	5.12
323.486	5.12
324.277	4.12
325.068	5.12
325.858	6.12
326.649	4.12
327.439	5.12
328.23	5.12
329.02	6.12
329.81	6.12
330.6	6.12
331.391	2.12
332.181	4.12
332.971	5.12
333.76	5.12
334.55	4.12
335.34	4.12
336.13	3.12
336.919	4.12
337.709	6.12
338.498	5.12
339.287	4.12
340.077	4.12
340.866	5.12
341.655	5.12
342.444	3.12
343.233	3.12
344.022	4.12
344.811	3.12
345.6	5.12
346.388	2.12
347.177	6.12
347.965	4.12
348.754	2.12
349.542	4.12
350.33	3.12
351.119	6.12
351.907	2.12
352.695	5.12
353.483	5.12
354.271	6.12
355.059	5.12
355.846	4.12
356.634	4.12
357.422	4.12
358.209	4.12
358.997	3.12
359.784	5.12
360.571	3.12
361.359	5.12
362.146	4.12
362.933	3.12
363.72	3.12
364.507	4.12
365.294	4.12
366.081	4.12
366.867	1.12
367.654	3.12
368.44	4.12
369.227	4.12
370.013	2.12
370.8	4.12
371.586	5.12
372.372	4.12
373.158	3.12
373.944	5.12
374.73	5.12
375.516	4.12
376.302	5.12
377.088	5.12
377.873	5.12
378.659	6.12
379.445	3.12
380.23	4.12
381.015	3.12
381.801	3.12
382.586	6.12
383.371	4.12
384.156	3.12
384.941	4.12
385.726	3.12
386.511	5.12
387.296	4.12
388.08	5.12
388.865	4.12
389.649	3.12
390.434	3.12
391.218	4.12
392.003	4.12
392.787	4.12
393.571	3.12
394.355	3.12
395.139	2.12
395.923	3.12
396.707	5.12
397.491	5.12
398.274	5.12
399.058	7.12
399.842	4.12
400.625	4.12
401.408	4.12
402.192	4.12
402.975	5.12
403.758	4.12
404.541	2.12
405.324	3.12
406.107	4.12
406.89	5.12
407.673	6.12
408.456	4.12
409.238	4.12
410.021	7.12
410.803	3.12
411.586	4.12
412.368	7.12
413.151	3.12
413.933	4.12
414.715	6.12
415.497	7.12
416.279	6.12
417.061	5.12
417.843	8.12
418.624	4.12
419.406	8.12
420.188	8.12
420.969	6.12
421.751	8.12
422.532	5.12
423.313	8.12
424.095	6.12
424.876	5.12
425.657	6.12
426.438	5.12
427.219	8.12
428	10.12
428.78	9.12
429.561	8.12
430.342	7.12
431.122	8.12
431.903	9.12
432.683	8.12
433.464	9.12
434.244	9.12
435.024	12.12
435.804	10.12
436.584	9.12
437.364	11.12
438.144	13.12
438.924	12.12
439.704	13.12
440.483	15.12
441.263	12.12
442.042	13.12
442.822	12.12
443.601	17.12
444.38	18.12
445.16	17.12
445.939	18.12
446.718	16.12
447.497	22.12
448.276	19.12
449.054	21.12
449.833	21.12
450.612	25.12
451.391	26.12
452.169	29.12
452.948	29.12
453.726	31.12
454.504	33.12
455.282	39.12
456.061	41.12
456.839	44.12
457.617	52.12
458.395	55.12
459.172	58.12
459.95	69.12
460.728	72.12
461.506	80.12
462.283	90.12
463.061	103.12
463.838	109.12
464.615	120.12
465.393	133.12
466.17	155.12
466.947	172.12
467.724	188.12
468.501	212.12
469.278	246.12
470.055	261.12
470.831	296.12
471.608	339.12
472.385	374.12
473.161	420.12
473.938	458.12
474.714	513.12
475.49	573.12
476.266	655.12
477.043	722.12
477.819	814.12
478.595	898.12
479.371	990.12
480.146	1120.12
480.922	1226.12
481.698	1373.12
482.473	1520.12
483.249	1686.12
484.024	1884.12
484.8	2096.12
485.575	2307.12
486.35	2560.12
487.126	2848.12
487.901	3171.12
488.676	3509.12
489.451	3887.12
490.225	4314.12
491	4783.12
491.775	5271.12
492.55	5842.12
493.324	6433.12
494.099	7083.12
494.873	7749.12
495.647	8490.12
496.422	9199.12
497.196	10018.12
497.97	10856.12
498.744	11684.12
499.518	12535.12
500.292	13307.12
501.066	14137.12
501.839	14811.12
502.613	15549.12
503.387	16059.12
504.16	16620.12
504.934	17032.12
505.707	17314.12
506.48	17531.12
507.253	17520.12
508.027	17445.12
508.8	17195.12
509.573	16947.12
510.346	16523.12
511.118	16106.12
511.891	15474.12
512.664	14841.12
513.437	14261.12
514.209	13654.12
514.982	12986.12
515.754	12431.12
516.526	11844.12
517.298	11327.12
518.071	10789.12
518.843	10306.12
519.615	9892.12
520.387	9479.12
521.159	9083.12
521.93	8753.12
522.702	8398.12
523.474	8075.12
524.245	7748.12
525.017	7443.12
525.788	7134.12
526.56	6845.12
527.331	6533.12
528.102	6241.12
528.873	5943.12
529.644	5673.12
530.415	5366.12
531.186	5103.12
531.957	4858.12
532.728	4579.12
533.498	4313.12
534.269	4093.12
535.039	3819.12
535.81	3640.12
536.58	3409.12
537.351	3227.12
538.121	3062.12
538.891	2872.12
539.661	2715.12
540.431	2582.12
541.201	2427.12
541.971	2291.12
542.741	2189.12
543.51	2062.12
544.28	1977.12
545.05	1862.12
545.819	1774.12
546.588	1701.12
547.358	1608.12
548.127	1535.12
548.896	1456.12
549.665	1386.12
550.434	1307.12
551.203	1235.12
551.972	1173.12
552.741	1120.12
553.51	1039.12
554.278	989.12
555.047	930.12
555.815	874.12
556.584	828.12
557.352	779.12
558.121	738.12
558.889	694.12
559.657	643.12
560.425	607.12
561.193	574.12
561.961	548.12
562.729	502.12
563.496	479.12
564.264	454.12
565.032	429.12
565.799	411.12
566.567	388.12
567.334	364.12
568.101	347.12
568.869	326.12
569.636	312.12
570.403	284.12
571.17	270.12
571.937	256.12
572.704	244.12
573.471	228.12
574.237	214.12
575.004	206.12
575.771	189.12
576.537	176.12
577.303	175.12
578.07	163.12
578.836	150.12
579.602	138.12
580.368	131.12
581.134	128.12
581.9	123.12
582.666	115.12
583.432	111.12
584.198	102.12
584.964	95.12
585.729	90.12
586.495	84.12
587.26	83.12
588.025	77.12
588.791	71.12
589.556	72.12
590.321	62.12
591.086	63.12
591.851	55.12
592.616	55.12
593.381	56.12
594.146	51.12
594.911	48.12
595.675	45.12
596.44	45.12
597.204	44.12
597.969	40.12
598.733	42.12
599.497	34.12
600.261	35.12
601.025	31.12
601.79	31.12
602.553	26.12
603.317	31.12
604.081	27.12
604.845	27.12
605.609	24.12
606.372	24.12
607.136	24.12
607.899	21.12
608.662	23.12
609.426	19.12
610.189	22.12
610.952	19.12
611.715	20.12
612.478	17.12
613.241	19.12
614.004	16.12
614.767	16.12
615.529	15.12
616.292	15.12
617.055	16.12
617.817	16.12
618.579	13.12
619.342	14.12
620.104	14.12
620.866	13.12
621.628	11.12
622.39	10.12
623.152	11.12
623.914	13.12
624.676	12.12
625.438	10.12
626.199	8.12
626.961	7.12
627.722	10.12
628.484	8.12
629.245	11.12
630.006	10.12
630.768	10.12
631.529	7.12
632.29	10.12
633.051	7.12
633.812	7.12
634.573	10.12
635.333	6.12
636.094	8.12
636.855	8.12
637.615	5.12
638.376	8.12
639.136	7.12
639.896	6.12
640.657	3.12
641.417	6.12
642.177	3.12
642.937	7.12
643.697	6.12
644.457	3.12
645.216	5.12
645.976	5.12
646.736	7.12
647.495	5.12
648.255	6.12
649.014	5.12
649.774	4.12
650.533	5.12
651.292	4.12
652.051	5.12
652.81	3.12
653.569	3.12
654.328	6.12
655.087	4.12
655.846	4.12
656.604	4.12
657.363	7.12
658.121	6.12
658.88	6.12
659.638	4.12
660.397	3.12
661.155	3.12
661.913	2.12
662.671	5.12
663.429	4.12
664.187	3.12
664.945	3.12
665.703	4.12
666.46	6.12
667.218	3.12
667.976	4.12
668.733	6.12
669.49	4.12
670.248	6.12
671.005	3.12
671.762	4.12
672.519	4.12
673.276	3.12
674.033	3.12
674.79	2.12
675.547	4.12
676.304	2.12
677.06	5.12
677.817	4.12
678.574	3.12
679.33	3.12
680.086	2.12
680.843	5.12
681.599	3.12
682.355	4.12
683.111	3.12
683.867	2.12
684.623	3.12
685.379	2.12
686.135	4.12
686.89	4.12
687.646	6.12
688.402	4.12
689.157	3.12
689.912	3.12
690.668	2.12
691.423	4.12
692.178	4.12
692.933	5.12
693.688	3.12
694.443	4.12
695.198	3.12
695.953	2.12
696.708	4.12
697.462	2.12
698.217	3.12
698.972	3.12
699.726	4.12
700.48	4.12
701.235	2.12
701.989	3.12
702.743	2.12
703.497	3.12
704.251	2.12
705.005	2.12
705.759	4.12
706.513	1.12
707.266	2.12
708.02	2.12
708.774	2.12
709.527	1.12
710.28	3.12
711.034	6.12
711.787	3.12
712.54	4.12
713.293	2.12
714.046	2.12
714.799	3.12
715.552	3.12
716.305	5.12
717.058	2.12
717.81	4.12
718.563	4.12
719.315	3.12
720.068	4.12
720.82	3.12
721.573	5.12
722.325	2.12
723.077	1.12
723.829	3.12
724.581	2.12
725.333	3.12
726.085	3.12
726.836	4.12
727.588	4.12
728.34	3.12
729.091	3.12
729.843	2.12
730.594	1.12
731.346	2.12
732.097	3.12
732.848	2.12
733.599	3.12
734.35	6.12
735.101	3.12
735.852	3.12
736.603	2.12
737.354	2.12
738.104	3.12
738.855	2.12
739.605	3.12
740.356	3.12
741.106	5.12
741.856	2.12
742.607	3.12
743.357	3.12
744.107	3.12
744.857	4.12
745.607	1.12
746.357	5.12
747.106	2.12
747.856	3.12
748.606	1.12
749.355	3.12
750.105	5.12
750.854	4.12
751.603	3.12
752.353	4.12
753.102	3.12
753.851	5.12
754.6	4.12
755.349	5.12
756.098	3.12
756.847	4.12
757.595	5.12
758.344	4.12
759.093	6.12
759.841	3.12
760.589	6.12
761.338	4.12
762.086	8.12
762.834	3.12
763.582	4.12
764.331	6.12
765.079	3.12
765.826	3.12
766.574	6.12
767.322	4.12
768.07	5.12
768.817	6.12
769.565	3.12
770.312	4.12
771.06	6.12
771.807	5.12
772.554	7.12
773.302	5.12
774.049	4.12
774.796	5.12
775.543	3.12
776.29	6.12
777.036	6.12
777.783	7.12
778.53	6.12
779.276	6.12
780.023	6.12
780.769	7.12
781.516	7.12
782.262	9.12
783.008	8.12
783.754	10.12
784.5	6.12
785.246	7.12
785.992	8.12
786.738	6.12
787.484	7.12
788.23	6.12
788.975	4.12
789.721	6.12
790.466	8.12
791.212	9.12
791.957	8.12
792.702	6.12
793.447	6.12
794.193	7.12
794.938	5.12
795.683	6.12
796.427	5.12
797.172	6.12
797.917	3.12
798.662	7.12
799.406	6.12
800.151	5.12
800.895	9.12
801.64	6.12
802.384	4.12
803.128	7.12
803.872	5.12
804.616	4.12
805.36	3.12
806.104	6.12
806.848	5.12
807.592	4.12
808.336	3.12
809.079	3.12
809.823	5.12
810.566	3.12
811.31	4.12
812.053	4.12
812.796	5.12
813.539	5.12
814.283	4.12
815.026	6.12
815.769	4.12
816.511	3.12
817.254	5.12
817.997	4.12
818.74	4.12
819.482	3.12
820.225	5.12
820.967	2.12
821.71	3.12
822.452	4.12
823.194	4.12
823.936	4.12
824.678	3.12
825.42	6.12
826.162	3.12
826.904	4.12
827.646	4.12
828.388	3.12
829.129	4.12
829.871	2.12
830.612	5.12
831.354	4.12
832.095	3.12
832.836	3.12
833.577	4.12
834.319	3.12
835.06	4.12
835.801	3.12
836.542	2.12
837.282	2.12
838.023	5.12
838.764	4.12
839.504	3.12
840.245	4.12
840.985	3.12
841.726	5.12
842.466	3.12
843.206	2.12
843.946	6.12
844.687	4.12
845.427	4.12
846.166	3.12
846.906	1.12
847.646	3.12
848.386	3.12
849.125	2.12
849.865	4.12
850.605	4.12
851.344	3.12
852.083	3.12
852.823	3.12
853.562	3.12
854.301	2.12
855.04	4.12
855.779	2.12
856.518	4.12
857.257	2.12
857.995	3.12
858.734	1.12
859.473	2.12
860.211	3.12
860.95	3.12
861.688	1.12
862.426	3.12
863.165	2.12
863.903	0.12
864.641	1.12
865.379	1.12
866.117	4.12
866.855	3.12
867.593	3.12
868.33	2.12
869.068	0.12
869.806	1.12
870.543	1.12
871.28	1.12
872.018	2.12
872.755	1.12
873.492	-0.88
874.229	3.12
874.967	1.12
875.703	2.12
876.44	2.12
877.177	1.12
877.914	3.12
878.651	0.12
879.387	0.12
880.124	1.12
880.86	2.12
881.597	1.12
882.333	1.12
883.069	2.12
883.806	-0.88
884.542	1.12
885.278	0.12
886.014	-0.88
886.749	1.12
887.485	2.12
888.221	1.12
888.957	1.12
889.692	1.12
890.428	1.12
891.163	2.12
891.899	0.12
892.634	3.12
893.369	3.12
894.104	2.12
894.839	1.12
895.574	2.12
896.309	1.12
897.044	2.12
897.779	1.12
898.514	2.12
899.248	1.12
899.983	3.12
900.717	-0.88
901.452	1.12
902.186	0.12
902.92	3.12
903.654	-0.88
904.389	1.12
905.123	2.12
905.857	0.12
906.59	4.12
907.324	3.12
908.058	1.12
908.792	3.12
909.525	1.12
910.259	2.12
910.992	2.12
911.726	0.12
912.459	3.12
913.192	3.12
913.925	1.12
914.658	1.12
915.391	1.12
916.124	1.12
916.857	0.12
917.59	1.12
918.323	1.12
919.055	1.12
919.788	0.12
920.521	1.12
921.253	1.12
921.985	1.12
922.718	1.12
923.45	0.12
924.182	0.12
924.914	1.12
925.646	1.12
926.378	2.12
927.11	2.12
927.841	2.12
928.573	0.12
929.305	2.12
930.036	-0.88
930.768	2.12
931.499	3.12
932.23	2.12
932.962	1.12
933.693	-0.88
934.424	0.12
935.155	1.12
935.886	1.12
936.617	1.12
937.348	0.12
938.078	2.12
938.809	2.12
939.54	-1.88
940.27	1.12
941.001	3.12
941.731	2.12
942.461	1.12
943.191	3.12
943.922	2.12
944.652	1.12
945.382	1.12
946.112	0.12
946.841	3.12
947.571	1.12
948.301	3.12
949.031	1.12
949.76	-0.88
950.49	3.12
951.219	2.12
951.948	1.12
952.678	2.12
953.407	2.12
954.136	-0.88
954.865	3.12
955.594	3.12
956.323	3.12
957.052	3.12
957.78	1.12
958.509	3.12
959.238	1.12
959.966	1.12
960.695	2.12
961.423	1.12
962.151	2.12
962.88	3.12
963.608	2.12
964.336	2.12
965.064	1.12
965.792	3.12
966.52	0.12
967.247	2.12
967.975	2.12
968.703	-0.88
969.43	2.12
970.158	1.12
970.885	1.12
971.613	0.12
972.34	0.12
973.067	3.12
973.794	-1.88
974.521	0.12
975.248	-0.88
975.975	4.12
976.702	1.12
977.429	3.12
978.156	1.12
978.882	1.12
979.609	0.12
980.335	1.12
981.062	1.12
981.788	1.12
982.514	1.12
983.24	3.12
983.967	0.12
984.693	2.12
985.419	1.12
986.144	2.12
986.87	2.12
987.596	0.12
988.322	2.12
989.047	-0.88
989.773	1.12
990.498	-0.88
991.224	2.12
991.949	2.12
992.674	0.12
993.399	3.12
994.124	0.12
994.849	2.12
995.574	-0.88
996.299	1.12
997.024	0.12
997.749	2.12
998.473	3.12
999.198	2.12
999.922	1.12
1000.647	3.12
1001.371	3.12
1002.095	-2.88
1002.82	0.12
1003.544	0.12
1004.268	3.12
1004.992	1.12
1005.716	0.12
1006.439	-0.88
1007.163	-0.88
1007.887	2.12
1008.611	2.12
1009.334	1.12
1010.058	1.12
1010.781	0.12
1011.504	-0.88
1012.228	2.12
1012.951	0.12
1013.674	0.12
1014.397	-0.88
1015.12	0.12
