节点500_145_QEPB04081__70__11-30-04-684.txt的数据

Date: Wed Nov 12 11:30:04 CST 2025
User: PC
Spectrometer: QEPB0408
触发模式: 0
积分时间 (秒): 1.000000E-2
Scans to average: 1
启用暗噪声校正: true
启用非线性校正: false
滑动平均宽度: 0
X轴模式: Wavelengths
Number of Pixels in Spectrum: 1044
>>>>>Begin Spectral Data<<<<<
220.843	-0.88
221.644	0.12
222.444	0.12
223.244	0.12
224.045	-0.88
224.845	-0.88
225.645	1.12
226.445	-1.88
227.245	-2.88
228.045	0.12
228.845	1.12
229.645	2.12
230.444	0.12
231.244	2.12
232.043	-0.88
232.843	-0.88
233.642	1.12
234.442	1.12
235.241	1.12
236.04	-0.88
236.839	2.12
237.638	-0.88
238.437	2.12
239.236	2.12
240.035	1.12
240.833	3.12
241.632	2.12
242.43	2.12
243.229	1.12
244.027	2.12
244.826	2.12
245.624	1.12
246.422	2.12
247.22	1.12
248.018	3.12
248.816	3.12
249.614	1.12
250.412	2.12
251.21	1.12
252.007	2.12
252.805	4.12
253.602	4.12
254.4	3.12
255.197	1.12
255.994	2.12
256.791	2.12
257.589	3.12
258.386	5.12
259.183	5.12
259.979	4.12
260.776	5.12
261.573	5.12
262.37	4.12
263.166	7.12
263.963	4.12
264.759	5.12
265.556	5.12
266.352	5.12
267.148	10.12
267.944	6.12
268.74	5.12
269.536	8.12
270.332	7.12
271.128	8.12
271.924	9.12
272.719	11.12
273.515	9.12
274.311	9.12
275.106	7.12
275.901	7.12
276.697	10.12
277.492	9.12
278.287	11.12
279.082	12.12
279.877	11.12
280.672	9.12
281.467	12.12
282.262	11.12
283.056	11.12
283.851	10.12
284.646	12.12
285.44	10.12
286.234	12.12
287.029	10.12
287.823	11.12
288.617	9.12
289.411	13.12
290.205	14.12
290.999	11.12
291.793	13.12
292.587	13.12
293.381	11.12
294.174	10.12
294.968	10.12
295.761	9.12
296.555	12.12
297.348	11.12
298.141	8.12
298.935	12.12
299.728	10.12
300.521	7.12
301.314	7.12
302.107	9.12
302.899	8.12
303.692	8.12
304.485	10.12
305.277	9.12
306.07	11.12
306.862	7.12
307.655	6.12
308.447	5.12
309.239	5.12
310.031	9.12
310.823	7.12
311.615	6.12
312.407	5.12
313.199	6.12
313.991	6.12
314.783	6.12
315.574	6.12
316.366	5.12
317.157	3.12
317.949	5.12
318.74	3.12
319.531	7.12
320.322	3.12
321.113	5.12
321.904	2.12
322.695	4.12
323.486	2.12
324.277	5.12
325.068	7.12
325.858	6.12
326.649	5.12
327.439	5.12
328.23	5.12
329.02	4.12
329.81	2.12
330.6	2.12
331.391	3.12
332.181	4.12
332.971	3.12
333.76	4.12
334.55	2.12
335.34	3.12
336.13	3.12
336.919	2.12
337.709	4.12
338.498	4.12
339.287	2.12
340.077	4.12
340.866	2.12
341.655	4.12
342.444	1.12
343.233	2.12
344.022	2.12
344.811	2.12
345.6	2.12
346.388	2.12
347.177	3.12
347.965	3.12
348.754	4.12
349.542	3.12
350.33	3.12
351.119	4.12
351.907	2.12
352.695	3.12
353.483	1.12
354.271	3.12
355.059	2.12
355.846	1.12
356.634	2.12
357.422	2.12
358.209	3.12
358.997	4.12
359.784	2.12
360.571	4.12
361.359	2.12
362.146	4.12
362.933	1.12
363.72	3.12
364.507	2.12
365.294	2.12
366.081	4.12
366.867	3.12
367.654	3.12
368.44	0.12
369.227	2.12
370.013	3.12
370.8	3.12
371.586	3.12
372.372	3.12
373.158	3.12
373.944	4.12
374.73	2.12
375.516	1.12
376.302	1.12
377.088	4.12
377.873	3.12
378.659	6.12
379.445	3.12
380.23	2.12
381.015	3.12
381.801	3.12
382.586	3.12
383.371	1.12
384.156	5.12
384.941	3.12
385.726	4.12
386.511	2.12
387.296	2.12
388.08	4.12
388.865	2.12
389.649	3.12
390.434	1.12
391.218	2.12
392.003	2.12
392.787	2.12
393.571	2.12
394.355	2.12
395.139	2.12
395.923	3.12
396.707	3.12
397.491	3.12
398.274	5.12
399.058	3.12
399.842	3.12
400.625	6.12
401.408	6.12
402.192	5.12
402.975	2.12
403.758	3.12
404.541	4.12
405.324	4.12
406.107	4.12
406.89	5.12
407.673	5.12
408.456	4.12
409.238	1.12
410.021	4.12
410.803	5.12
411.586	2.12
412.368	3.12
413.151	5.12
413.933	4.12
414.715	5.12
415.497	6.12
416.279	6.12
417.061	4.12
417.843	6.12
418.624	5.12
419.406	6.12
420.188	6.12
420.969	8.12
421.751	5.12
422.532	7.12
423.313	6.12
424.095	5.12
424.876	6.12
425.657	6.12
426.438	5.12
427.219	9.12
428	6.12
428.78	4.12
429.561	7.12
430.342	8.12
431.122	4.12
431.903	11.12
432.683	8.12
433.464	8.12
434.244	8.12
435.024	9.12
435.804	10.12
436.584	9.12
437.364	11.12
438.144	10.12
438.924	10.12
439.704	11.12
440.483	10.12
441.263	13.12
442.042	10.12
442.822	14.12
443.601	16.12
444.38	14.12
445.16	15.12
445.939	16.12
446.718	17.12
447.497	17.12
448.276	20.12
449.054	20.12
449.833	22.12
450.612	25.12
451.391	23.12
452.169	27.12
452.948	30.12
453.726	31.12
454.504	35.12
455.282	37.12
456.061	40.12
456.839	46.12
457.617	48.12
458.395	54.12
459.172	60.12
459.95	71.12
460.728	73.12
461.506	86.12
462.283	96.12
463.061	101.12
463.838	114.12
464.615	125.12
465.393	144.12
466.17	156.12
466.947	177.12
467.724	198.12
468.501	219.12
469.278	247.12
470.055	275.12
470.831	308.12
471.608	341.12
472.385	391.12
473.161	433.12
473.938	487.12
474.714	539.12
475.49	601.12
476.266	665.12
477.043	742.12
477.819	830.12
478.595	922.12
479.371	1017.12
480.146	1138.12
480.922	1253.12
481.698	1384.12
482.473	1529.12
483.249	1723.12
484.024	1895.12
484.8	2111.12
485.575	2354.12
486.35	2581.12
487.126	2867.12
487.901	3185.12
488.676	3529.12
489.451	3893.12
490.225	4314.12
491	4740.12
491.775	5275.12
492.55	5793.12
493.324	6394.12
494.099	7031.12
494.873	7674.12
495.647	8386.12
496.422	9148.12
497.196	9928.12
497.97	10720.12
498.744	11535.12
499.518	12361.12
500.292	13137.12
501.066	13951.12
501.839	14657.12
502.613	15338.12
503.387	15964.12
504.16	16512.12
504.934	16891.12
505.707	17189.12
506.48	17376.12
507.253	17428.12
508.027	17417.12
508.8	17249.12
509.573	16919.12
510.346	16558.12
511.118	16186.12
511.891	15547.12
512.664	14934.12
513.437	14434.12
514.209	13838.12
514.982	13235.12
515.754	12683.12
516.526	12041.12
517.298	11493.12
518.071	10923.12
518.843	10468.12
519.615	10024.12
520.387	9669.12
521.159	9271.12
521.93	8873.12
522.702	8535.12
523.474	8211.12
524.245	7852.12
525.017	7551.12
525.788	7253.12
526.56	6978.12
527.331	6638.12
528.102	6345.12
528.873	6077.12
529.644	5776.12
530.415	5482.12
531.186	5206.12
531.957	4947.12
532.728	4648.12
533.498	4439.12
534.269	4147.12
535.039	3918.12
535.81	3688.12
536.58	3522.12
537.351	3280.12
538.121	3106.12
538.891	2940.12
539.661	2783.12
540.431	2621.12
541.201	2485.12
541.971	2352.12
542.741	2235.12
543.51	2113.12
544.28	2018.12
545.05	1894.12
545.819	1819.12
546.588	1721.12
547.358	1639.12
548.127	1562.12
548.896	1488.12
549.665	1413.12
550.434	1333.12
551.203	1260.12
551.972	1200.12
552.741	1139.12
553.51	1062.12
554.278	1013.12
555.047	962.12
555.815	898.12
556.584	860.12
557.352	792.12
558.121	755.12
558.889	706.12
559.657	661.12
560.425	620.12
561.193	585.12
561.961	561.12
562.729	521.12
563.496	493.12
564.264	467.12
565.032	449.12
565.799	414.12
566.567	390.12
567.334	374.12
568.101	355.12
568.869	329.12
569.636	313.12
570.403	295.12
571.17	281.12
571.937	269.12
572.704	252.12
573.471	235.12
574.237	219.12
575.004	208.12
575.771	193.12
576.537	185.12
577.303	175.12
578.07	163.12
578.836	155.12
579.602	142.12
580.368	142.12
581.134	130.12
581.9	130.12
582.666	116.12
583.432	104.12
584.198	98.12
584.964	97.12
585.729	95.12
586.495	89.12
587.26	82.12
588.025	80.12
588.791	75.12
589.556	72.12
590.321	63.12
591.086	61.12
591.851	56.12
592.616	53.12
593.381	55.12
594.146	54.12
594.911	49.12
595.675	41.12
596.44	44.12
597.204	41.12
597.969	39.12
598.733	40.12
599.497	38.12
600.261	37.12
601.025	33.12
601.79	31.12
602.553	28.12
603.317	33.12
604.081	27.12
604.845	29.12
605.609	25.12
606.372	26.12
607.136	24.12
607.899	24.12
608.662	21.12
609.426	21.12
610.189	22.12
610.952	19.12
611.715	17.12
612.478	16.12
613.241	13.12
614.004	18.12
614.767	14.12
615.529	16.12
616.292	14.12
617.055	14.12
617.817	13.12
618.579	11.12
619.342	12.12
620.104	11.12
620.866	10.12
621.628	11.12
622.39	10.12
623.152	12.12
623.914	10.12
624.676	10.12
625.438	8.12
626.199	8.12
626.961	7.12
627.722	7.12
628.484	9.12
629.245	10.12
630.006	9.12
630.768	8.12
631.529	6.12
632.29	7.12
633.051	6.12
633.812	9.12
634.573	6.12
635.333	7.12
636.094	8.12
636.855	6.12
637.615	6.12
638.376	5.12
639.136	4.12
639.896	5.12
640.657	5.12
641.417	5.12
642.177	5.12
642.937	5.12
643.697	4.12
644.457	5.12
645.216	4.12
645.976	5.12
646.736	6.12
647.495	5.12
648.255	4.12
649.014	4.12
649.774	5.12
650.533	4.12
651.292	3.12
652.051	4.12
652.81	3.12
653.569	3.12
654.328	2.12
655.087	3.12
655.846	3.12
656.604	4.12
657.363	3.12
658.121	1.12
658.88	4.12
659.638	3.12
660.397	5.12
661.155	5.12
661.913	2.12
662.671	2.12
663.429	1.12
664.187	5.12
664.945	3.12
665.703	2.12
666.46	3.12
667.218	-0.88
667.976	4.12
668.733	4.12
669.49	2.12
670.248	0.12
671.005	4.12
671.762	2.12
672.519	2.12
673.276	2.12
674.033	0.12
674.79	3.12
675.547	2.12
676.304	1.12
677.06	2.12
677.817	0.12
678.574	3.12
679.33	2.12
680.086	5.12
680.843	3.12
681.599	2.12
682.355	3.12
683.111	2.12
683.867	4.12
684.623	2.12
685.379	6.12
686.135	1.12
686.89	1.12
687.646	2.12
688.402	2.12
689.157	2.12
689.912	-0.88
690.668	3.12
691.423	1.12
692.178	1.12
692.933	3.12
693.688	1.12
694.443	2.12
695.198	1.12
695.953	3.12
696.708	4.12
697.462	2.12
698.217	2.12
698.972	1.12
699.726	1.12
700.48	2.12
701.235	3.12
701.989	5.12
702.743	2.12
703.497	1.12
704.251	2.12
705.005	5.12
705.759	1.12
706.513	2.12
707.266	2.12
708.02	1.12
708.774	2.12
709.527	3.12
710.28	0.12
711.034	3.12
711.787	0.12
712.54	2.12
713.293	2.12
714.046	3.12
714.799	2.12
715.552	0.12
716.305	2.12
717.058	2.12
717.81	2.12
718.563	2.12
719.315	2.12
720.068	2.12
720.82	-0.88
721.573	2.12
722.325	2.12
723.077	2.12
723.829	1.12
724.581	2.12
725.333	4.12
726.085	3.12
726.836	3.12
727.588	2.12
728.34	3.12
729.091	-0.88
729.843	3.12
730.594	2.12
731.346	1.12
732.097	0.12
732.848	4.12
733.599	3.12
734.35	4.12
735.101	0.12
735.852	1.12
736.603	2.12
737.354	2.12
738.104	1.12
738.855	4.12
739.605	2.12
740.356	1.12
741.106	1.12
741.856	3.12
742.607	3.12
743.357	3.12
744.107	2.12
744.857	2.12
745.607	4.12
746.357	2.12
747.106	5.12
747.856	3.12
748.606	2.12
749.355	3.12
750.105	4.12
750.854	1.12
751.603	3.12
752.353	1.12
753.102	4.12
753.851	3.12
754.6	1.12
755.349	2.12
756.098	1.12
756.847	3.12
757.595	4.12
758.344	4.12
759.093	2.12
759.841	3.12
760.589	2.12
761.338	4.12
762.086	4.12
762.834	1.12
763.582	4.12
764.331	3.12
765.079	2.12
765.826	3.12
766.574	3.12
767.322	4.12
768.07	4.12
768.817	3.12
769.565	5.12
770.312	4.12
771.06	6.12
771.807	4.12
772.554	5.12
773.302	6.12
774.049	3.12
774.796	4.12
775.543	5.12
776.29	3.12
777.036	5.12
777.783	4.12
778.53	7.12
779.276	5.12
780.023	7.12
780.769	4.12
781.516	6.12
782.262	4.12
783.008	7.12
783.754	4.12
784.5	4.12
785.246	5.12
785.992	7.12
786.738	7.12
787.484	6.12
788.23	7.12
788.975	7.12
789.721	5.12
790.466	4.12
791.212	6.12
791.957	6.12
792.702	4.12
793.447	8.12
794.193	6.12
794.938	8.12
795.683	6.12
796.427	4.12
797.172	6.12
797.917	6.12
798.662	7.12
799.406	6.12
800.151	4.12
800.895	6.12
801.64	5.12
802.384	5.12
803.128	5.12
803.872	5.12
804.616	4.12
805.36	2.12
806.104	3.12
806.848	4.12
807.592	5.12
808.336	3.12
809.079	1.12
809.823	5.12
810.566	2.12
811.31	5.12
812.053	4.12
812.796	5.12
813.539	4.12
814.283	5.12
815.026	5.12
815.769	2.12
816.511	3.12
817.254	1.12
817.997	3.12
818.74	5.12
819.482	1.12
820.225	2.12
820.967	2.12
821.71	2.12
822.452	5.12
823.194	3.12
823.936	3.12
824.678	2.12
825.42	4.12
826.162	3.12
826.904	3.12
827.646	2.12
828.388	3.12
829.129	2.12
829.871	3.12
830.612	3.12
831.354	3.12
832.095	1.12
832.836	2.12
833.577	3.12
834.319	3.12
835.06	2.12
835.801	4.12
836.542	3.12
837.282	1.12
838.023	4.12
838.764	2.12
839.504	3.12
840.245	3.12
840.985	2.12
841.726	0.12
842.466	1.12
843.206	2.12
843.946	2.12
844.687	1.12
845.427	0.12
846.166	0.12
846.906	0.12
847.646	3.12
848.386	3.12
849.125	1.12
849.865	0.12
850.605	1.12
851.344	1.12
852.083	1.12
852.823	5.12
853.562	4.12
854.301	3.12
855.04	3.12
855.779	0.12
856.518	1.12
857.257	-0.88
857.995	2.12
858.734	2.12
859.473	3.12
860.211	4.12
860.95	1.12
861.688	3.12
862.426	0.12
863.165	-0.88
863.903	1.12
864.641	3.12
865.379	-0.88
866.117	2.12
866.855	1.12
867.593	1.12
868.33	2.12
869.068	0.12
869.806	3.12
870.543	1.12
871.28	0.12
872.018	-0.88
872.755	0.12
873.492	2.12
874.229	-0.88
874.967	1.12
875.703	2.12
876.44	1.12
877.177	3.12
877.914	1.12
878.651	-0.88
879.387	0.12
880.124	0.12
880.86	1.12
881.597	0.12
882.333	1.12
883.069	1.12
883.806	0.12
884.542	0.12
885.278	1.12
886.014	1.12
886.749	0.12
887.485	0.12
888.221	1.12
888.957	1.12
889.692	1.12
890.428	-0.88
891.163	2.12
891.899	0.12
892.634	0.12
893.369	1.12
894.104	1.12
894.839	4.12
895.574	-1.88
896.309	2.12
897.044	1.12
897.779	1.12
898.514	2.12
899.248	-1.88
899.983	0.12
900.717	0.12
901.452	0.12
902.186	0.12
902.92	-0.88
903.654	-0.88
904.389	-1.88
905.123	2.12
905.857	0.12
906.59	-0.88
907.324	1.12
908.058	1.12
908.792	1.12
909.525	-1.88
910.259	1.12
910.992	1.12
911.726	2.12
912.459	-2.88
913.192	-0.88
913.925	-0.88
914.658	1.12
915.391	1.12
916.124	0.12
916.857	0.12
917.59	1.12
918.323	-0.88
919.055	0.12
919.788	-2.88
920.521	-0.88
921.253	-1.88
921.985	1.12
922.718	0.12
923.45	0.12
924.182	0.12
924.914	1.12
925.646	-0.88
926.378	1.12
927.11	0.12
927.841	2.12
928.573	0.12
929.305	-0.88
930.036	-0.88
930.768	-0.88
931.499	1.12
932.23	1.12
932.962	0.12
933.693	-0.88
934.424	-1.88
935.155	0.12
935.886	1.12
936.617	0.12
937.348	2.12
938.078	0.12
938.809	-1.88
939.54	-0.88
940.27	0.12
941.001	3.12
941.731	-0.88
942.461	1.12
943.191	2.12
943.922	1.12
944.652	0.12
945.382	-0.88
946.112	-0.88
946.841	0.12
947.571	-0.88
948.301	-0.88
949.031	0.12
949.76	2.12
950.49	-0.88
951.219	0.12
951.948	1.12
952.678	-0.88
953.407	0.12
954.136	-0.88
954.865	-0.88
955.594	1.12
956.323	1.12
957.052	-1.88
957.78	-3.88
958.509	0.12
959.238	-2.88
959.966	0.12
960.695	0.12
961.423	0.12
962.151	0.12
962.88	1.12
963.608	4.12
964.336	1.12
965.064	2.12
965.792	0.12
966.52	1.12
967.247	2.12
967.975	2.12
968.703	-0.88
969.43	-0.88
970.158	2.12
970.885	0.12
971.613	0.12
972.34	2.12
973.067	-1.88
973.794	2.12
974.521	1.12
975.248	1.12
975.975	0.12
976.702	1.12
977.429	-0.88
978.156	-0.88
978.882	1.12
979.609	-0.88
980.335	-0.88
981.062	-1.88
981.788	-1.88
982.514	1.12
983.24	-1.88
983.967	1.12
984.693	-1.88
985.419	2.12
986.144	0.12
986.87	-1.88
987.596	1.12
988.322	0.12
989.047	2.12
989.773	-0.88
990.498	0.12
991.224	0.12
991.949	1.12
992.674	-0.88
993.399	-1.88
994.124	2.12
994.849	-1.88
995.574	1.12
996.299	1.12
997.024	0.12
997.749	0.12
998.473	0.12
999.198	2.12
999.922	1.12
1000.647	1.12
1001.371	3.12
1002.095	-0.88
1002.82	-0.88
1003.544	-0.88
1004.268	-0.88
1004.992	0.12
1005.716	-1.88
1006.439	0.12
1007.163	0.12
1007.887	0.12
1008.611	2.12
1009.334	-1.88
1010.058	0.12
1010.781	-0.88
1011.504	1.12
1012.228	1.12
1012.951	1.12
1013.674	1.12
1014.397	0.12
1015.12	-2.88
