节点500_145_QEPB04081__369__11-34-50-592.txt的数据

Date: Wed Nov 12 11:34:50 CST 2025
User: PC
Spectrometer: QEPB0408
触发模式: 0
积分时间 (秒): 1.000000E-2
Scans to average: 1
启用暗噪声校正: true
启用非线性校正: false
滑动平均宽度: 0
X轴模式: Wavelengths
Number of Pixels in Spectrum: 1044
>>>>>Begin Spectral Data<<<<<
220.843	-1.12
221.644	1.88
222.444	1.88
223.244	-1.12
224.045	1.88
224.845	2.88
225.645	0.88
226.445	-0.12
227.245	0.88
228.045	0.88
228.845	-0.12
229.645	0.88
230.444	1.88
231.244	3.88
232.043	1.88
232.843	-0.12
233.642	0.88
234.442	-0.12
235.241	2.88
236.04	0.88
236.839	2.88
237.638	2.88
238.437	2.88
239.236	1.88
240.035	0.88
240.833	1.88
241.632	-0.12
242.43	3.88
243.229	2.88
244.027	3.88
244.826	1.88
245.624	2.88
246.422	3.88
247.22	1.88
248.018	3.88
248.816	1.88
249.614	4.88
250.412	0.88
251.21	2.88
252.007	2.88
252.805	0.88
253.602	3.88
254.4	2.88
255.197	3.88
255.994	5.88
256.791	2.88
257.589	4.88
258.386	4.88
259.183	4.88
259.979	2.88
260.776	6.88
261.573	6.88
262.37	5.88
263.166	5.88
263.963	4.88
264.759	5.88
265.556	8.88
266.352	5.88
267.148	5.88
267.944	5.88
268.74	6.88
269.536	8.88
270.332	6.88
271.128	6.88
271.924	5.88
272.719	7.88
273.515	9.88
274.311	8.88
275.106	5.88
275.901	11.88
276.697	10.88
277.492	7.88
278.287	8.88
279.082	9.88
279.877	10.88
280.672	8.88
281.467	11.88
282.262	10.88
283.056	10.88
283.851	11.88
284.646	11.88
285.44	9.88
286.234	10.88
287.029	11.88
287.823	11.88
288.617	9.88
289.411	13.88
290.205	10.88
290.999	10.88
291.793	9.88
292.587	9.88
293.381	9.88
294.174	10.88
294.968	9.88
295.761	8.88
296.555	9.88
297.348	9.88
298.141	9.88
298.935	13.88
299.728	9.88
300.521	9.88
301.314	9.88
302.107	9.88
302.899	9.88
303.692	9.88
304.485	8.88
305.277	9.88
306.07	9.88
306.862	6.88
307.655	9.88
308.447	7.88
309.239	5.88
310.031	8.88
310.823	5.88
311.615	8.88
312.407	7.88
313.199	7.88
313.991	7.88
314.783	8.88
315.574	5.88
316.366	7.88
317.157	5.88
317.949	4.88
318.74	5.88
319.531	4.88
320.322	5.88
321.113	6.88
321.904	5.88
322.695	5.88
323.486	4.88
324.277	6.88
325.068	5.88
325.858	5.88
326.649	4.88
327.439	4.88
328.23	3.88
329.02	3.88
329.81	3.88
330.6	5.88
331.391	3.88
332.181	5.88
332.971	2.88
333.76	5.88
334.55	3.88
335.34	4.88
336.13	4.88
336.919	1.88
337.709	3.88
338.498	3.88
339.287	4.88
340.077	5.88
340.866	4.88
341.655	4.88
342.444	2.88
343.233	6.88
344.022	3.88
344.811	5.88
345.6	3.88
346.388	2.88
347.177	3.88
347.965	3.88
348.754	3.88
349.542	3.88
350.33	5.88
351.119	3.88
351.907	2.88
352.695	4.88
353.483	3.88
354.271	2.88
355.059	2.88
355.846	4.88
356.634	4.88
357.422	3.88
358.209	2.88
358.997	5.88
359.784	0.88
360.571	2.88
361.359	2.88
362.146	4.88
362.933	3.88
363.72	4.88
364.507	0.88
365.294	1.88
366.081	2.88
366.867	1.88
367.654	1.88
368.44	3.88
369.227	3.88
370.013	1.88
370.8	4.88
371.586	2.88
372.372	4.88
373.158	1.88
373.944	1.88
374.73	3.88
375.516	2.88
376.302	1.88
377.088	0.88
377.873	4.88
378.659	3.88
379.445	5.88
380.23	2.88
381.015	0.88
381.801	3.88
382.586	2.88
383.371	3.88
384.156	1.88
384.941	4.88
385.726	3.88
386.511	4.88
387.296	1.88
388.08	5.88
388.865	3.88
389.649	0.88
390.434	2.88
391.218	3.88
392.003	4.88
392.787	4.88
393.571	3.88
394.355	4.88
395.139	2.88
395.923	2.88
396.707	3.88
397.491	3.88
398.274	2.88
399.058	3.88
399.842	5.88
400.625	4.88
401.408	2.88
402.192	5.88
402.975	4.88
403.758	4.88
404.541	4.88
405.324	5.88
406.107	4.88
406.89	2.88
407.673	6.88
408.456	3.88
409.238	5.88
410.021	2.88
410.803	6.88
411.586	5.88
412.368	2.88
413.151	4.88
413.933	5.88
414.715	4.88
415.497	4.88
416.279	6.88
417.061	5.88
417.843	4.88
418.624	8.88
419.406	3.88
420.188	7.88
420.969	6.88
421.751	6.88
422.532	4.88
423.313	8.88
424.095	6.88
424.876	6.88
425.657	4.88
426.438	7.88
427.219	7.88
428	5.88
428.78	6.88
429.561	9.88
430.342	8.88
431.122	9.88
431.903	9.88
432.683	10.88
433.464	8.88
434.244	8.88
435.024	8.88
435.804	9.88
436.584	10.88
437.364	9.88
438.144	11.88
438.924	11.88
439.704	11.88
440.483	13.88
441.263	10.88
442.042	14.88
442.822	14.88
443.601	14.88
444.38	15.88
445.16	16.88
445.939	17.88
446.718	17.88
447.497	17.88
448.276	22.88
449.054	22.88
449.833	24.88
450.612	25.88
451.391	29.88
452.169	27.88
452.948	33.88
453.726	37.88
454.504	37.88
455.282	42.88
456.061	46.88
456.839	48.88
457.617	57.88
458.395	65.88
459.172	66.88
459.95	74.88
460.728	88.88
461.506	91.88
462.283	110.88
463.061	117.88
463.838	129.88
464.615	146.88
465.393	163.88
466.17	179.88
466.947	202.88
467.724	228.88
468.501	247.88
469.278	276.88
470.055	306.88
470.831	337.88
471.608	381.88
472.385	418.88
473.161	470.88
473.938	530.88
474.714	577.88
475.49	631.88
476.266	705.88
477.043	780.88
477.819	852.88
478.595	953.88
479.371	1045.88
480.146	1156.88
480.922	1266.88
481.698	1410.88
482.473	1552.88
483.249	1691.88
484.024	1875.88
484.8	2050.88
485.575	2268.88
486.35	2482.88
487.126	2742.88
487.901	3020.88
488.676	3301.88
489.451	3637.88
490.225	4000.88
491	4357.88
491.775	4802.88
492.55	5246.88
493.324	5745.88
494.099	6247.88
494.873	6843.88
495.647	7450.88
496.422	8029.88
497.196	8725.88
497.97	9422.88
498.744	10102.88
499.518	10855.88
500.292	11571.88
501.066	12258.88
501.839	12930.88
502.613	13606.88
503.387	14196.88
504.16	14769.88
504.934	15254.88
505.707	15639.88
506.48	15907.88
507.253	16123.88
508.027	16188.88
508.8	16151.88
509.573	16059.88
510.346	15874.88
511.118	15587.88
511.891	15253.88
512.664	14761.88
513.437	14346.88
514.209	13834.88
514.982	13263.88
515.754	12719.88
516.526	12248.88
517.298	11698.88
518.071	11157.88
518.843	10685.88
519.615	10234.88
520.387	9802.88
521.159	9418.88
521.93	9066.88
522.702	8677.88
523.474	8370.88
524.245	7997.88
525.017	7741.88
525.788	7407.88
526.56	7078.88
527.331	6790.88
528.102	6504.88
528.873	6229.88
529.644	5953.88
530.415	5662.88
531.186	5422.88
531.957	5150.88
532.728	4907.88
533.498	4616.88
534.269	4381.88
535.039	4158.88
535.81	3909.88
536.58	3727.88
537.351	3487.88
538.121	3293.88
538.891	3131.88
539.661	2952.88
540.431	2810.88
541.201	2638.88
541.971	2486.88
542.741	2367.88
543.51	2253.88
544.28	2137.88
545.05	2027.88
545.819	1914.88
546.588	1819.88
547.358	1747.88
548.127	1657.88
548.896	1573.88
549.665	1502.88
550.434	1431.88
551.203	1351.88
551.972	1272.88
552.741	1203.88
553.51	1159.88
554.278	1091.88
555.047	1007.88
555.815	970.88
556.584	925.88
557.352	860.88
558.121	804.88
558.889	759.88
559.657	726.88
560.425	673.88
561.193	630.88
561.961	602.88
562.729	565.88
563.496	535.88
564.264	510.88
565.032	469.88
565.799	448.88
566.567	427.88
567.334	403.88
568.101	379.88
568.869	352.88
569.636	339.88
570.403	316.88
571.17	305.88
571.937	286.88
572.704	273.88
573.471	252.88
574.237	242.88
575.004	224.88
575.771	213.88
576.537	204.88
577.303	186.88
578.07	173.88
578.836	165.88
579.602	156.88
580.368	144.88
581.134	138.88
581.9	131.88
582.666	132.88
583.432	117.88
584.198	108.88
584.964	105.88
585.729	101.88
586.495	98.88
587.26	90.88
588.025	84.88
588.791	81.88
589.556	75.88
590.321	71.88
591.086	69.88
591.851	62.88
592.616	60.88
593.381	59.88
594.146	59.88
594.911	51.88
595.675	50.88
596.44	47.88
597.204	46.88
597.969	47.88
598.733	39.88
599.497	42.88
600.261	39.88
601.025	35.88
601.79	37.88
602.553	30.88
603.317	32.88
604.081	29.88
604.845	29.88
605.609	26.88
606.372	25.88
607.136	27.88
607.899	22.88
608.662	23.88
609.426	21.88
610.189	20.88
610.952	22.88
611.715	19.88
612.478	19.88
613.241	17.88
614.004	17.88
614.767	15.88
615.529	16.88
616.292	15.88
617.055	13.88
617.817	15.88
618.579	14.88
619.342	12.88
620.104	11.88
620.866	12.88
621.628	14.88
622.39	10.88
623.152	10.88
623.914	11.88
624.676	12.88
625.438	9.88
626.199	8.88
626.961	9.88
627.722	8.88
628.484	7.88
629.245	9.88
630.006	9.88
630.768	7.88
631.529	7.88
632.29	8.88
633.051	6.88
633.812	6.88
634.573	6.88
635.333	7.88
636.094	7.88
636.855	5.88
637.615	8.88
638.376	5.88
639.136	5.88
639.896	6.88
640.657	4.88
641.417	5.88
642.177	5.88
642.937	7.88
643.697	6.88
644.457	5.88
645.216	5.88
645.976	5.88
646.736	4.88
647.495	3.88
648.255	4.88
649.014	4.88
649.774	5.88
650.533	7.88
651.292	3.88
652.051	1.88
652.81	6.88
653.569	4.88
654.328	2.88
655.087	2.88
655.846	2.88
656.604	5.88
657.363	3.88
658.121	2.88
658.88	3.88
659.638	3.88
660.397	1.88
661.155	3.88
661.913	4.88
662.671	2.88
663.429	2.88
664.187	2.88
664.945	0.88
665.703	3.88
666.46	2.88
667.218	4.88
667.976	2.88
668.733	2.88
669.49	5.88
670.248	-0.12
671.005	6.88
671.762	1.88
672.519	3.88
673.276	3.88
674.033	0.88
674.79	2.88
675.547	3.88
676.304	1.88
677.06	1.88
677.817	3.88
678.574	3.88
679.33	1.88
680.086	2.88
680.843	2.88
681.599	4.88
682.355	1.88
683.111	2.88
683.867	2.88
684.623	2.88
685.379	3.88
686.135	0.88
686.89	4.88
687.646	-0.12
688.402	2.88
689.157	2.88
689.912	2.88
690.668	3.88
691.423	1.88
692.178	4.88
692.933	1.88
693.688	0.88
694.443	1.88
695.198	3.88
695.953	2.88
696.708	3.88
697.462	2.88
698.217	0.88
698.972	0.88
699.726	3.88
700.48	0.88
701.235	1.88
701.989	-0.12
702.743	3.88
703.497	3.88
704.251	1.88
705.005	4.88
705.759	2.88
706.513	2.88
707.266	1.88
708.02	2.88
708.774	1.88
709.527	0.88
710.28	1.88
711.034	2.88
711.787	4.88
712.54	3.88
713.293	3.88
714.046	3.88
714.799	-0.12
715.552	2.88
716.305	2.88
717.058	2.88
717.81	0.88
718.563	1.88
719.315	2.88
720.068	2.88
720.82	1.88
721.573	1.88
722.325	3.88
723.077	-0.12
723.829	-0.12
724.581	2.88
725.333	-0.12
726.085	0.88
726.836	3.88
727.588	2.88
728.34	2.88
729.091	3.88
729.843	2.88
730.594	1.88
731.346	2.88
732.097	1.88
732.848	3.88
733.599	3.88
734.35	3.88
735.101	2.88
735.852	-0.12
736.603	2.88
737.354	5.88
738.104	3.88
738.855	1.88
739.605	3.88
740.356	3.88
741.106	2.88
741.856	1.88
742.607	3.88
743.357	2.88
744.107	2.88
744.857	3.88
745.607	2.88
746.357	4.88
747.106	2.88
747.856	0.88
748.606	2.88
749.355	3.88
750.105	1.88
750.854	3.88
751.603	2.88
752.353	4.88
753.102	1.88
753.851	1.88
754.6	4.88
755.349	4.88
756.098	1.88
756.847	3.88
757.595	2.88
758.344	3.88
759.093	4.88
759.841	3.88
760.589	2.88
761.338	3.88
762.086	3.88
762.834	2.88
763.582	3.88
764.331	3.88
765.079	4.88
765.826	2.88
766.574	2.88
767.322	4.88
768.07	4.88
768.817	2.88
769.565	3.88
770.312	3.88
771.06	4.88
771.807	5.88
772.554	7.88
773.302	5.88
774.049	2.88
774.796	3.88
775.543	5.88
776.29	5.88
777.036	2.88
777.783	4.88
778.53	4.88
779.276	5.88
780.023	6.88
780.769	4.88
781.516	6.88
782.262	3.88
783.008	4.88
783.754	5.88
784.5	4.88
785.246	4.88
785.992	3.88
786.738	6.88
787.484	6.88
788.23	6.88
788.975	6.88
789.721	4.88
790.466	6.88
791.212	4.88
791.957	4.88
792.702	5.88
793.447	3.88
794.193	5.88
794.938	3.88
795.683	5.88
796.427	3.88
797.172	3.88
797.917	5.88
798.662	3.88
799.406	5.88
800.151	4.88
800.895	4.88
801.64	4.88
802.384	5.88
803.128	4.88
803.872	4.88
804.616	6.88
805.36	4.88
806.104	2.88
806.848	5.88
807.592	3.88
808.336	4.88
809.079	3.88
809.823	4.88
810.566	2.88
811.31	2.88
812.053	4.88
812.796	6.88
813.539	4.88
814.283	3.88
815.026	4.88
815.769	1.88
816.511	3.88
817.254	4.88
817.997	4.88
818.74	2.88
819.482	3.88
820.225	2.88
820.967	2.88
821.71	5.88
822.452	5.88
823.194	3.88
823.936	3.88
824.678	2.88
825.42	5.88
826.162	2.88
826.904	4.88
827.646	3.88
828.388	2.88
829.129	2.88
829.871	2.88
830.612	3.88
831.354	0.88
832.095	2.88
832.836	5.88
833.577	1.88
834.319	1.88
835.06	0.88
835.801	2.88
836.542	4.88
837.282	2.88
838.023	3.88
838.764	3.88
839.504	1.88
840.245	3.88
840.985	2.88
841.726	1.88
842.466	3.88
843.206	4.88
843.946	1.88
844.687	2.88
845.427	1.88
846.166	2.88
846.906	0.88
847.646	5.88
848.386	3.88
849.125	2.88
849.865	3.88
850.605	1.88
851.344	2.88
852.083	2.88
852.823	4.88
853.562	2.88
854.301	3.88
855.04	2.88
855.779	1.88
856.518	3.88
857.257	1.88
857.995	4.88
858.734	1.88
859.473	1.88
860.211	2.88
860.95	2.88
861.688	0.88
862.426	2.88
863.165	1.88
863.903	2.88
864.641	-0.12
865.379	0.88
866.117	1.88
866.855	0.88
867.593	1.88
868.33	5.88
869.068	2.88
869.806	3.88
870.543	3.88
871.28	1.88
872.018	1.88
872.755	2.88
873.492	0.88
874.229	3.88
874.967	1.88
875.703	1.88
876.44	-1.12
877.177	3.88
877.914	-0.12
878.651	-0.12
879.387	2.88
880.124	2.88
880.86	1.88
881.597	1.88
882.333	0.88
883.069	1.88
883.806	2.88
884.542	1.88
885.278	0.88
886.014	-0.12
886.749	2.88
887.485	1.88
888.221	2.88
888.957	-0.12
889.692	-0.12
890.428	-1.12
891.163	-1.12
891.899	0.88
892.634	1.88
893.369	-1.12
894.104	-0.12
894.839	-0.12
895.574	-1.12
896.309	1.88
897.044	0.88
897.779	1.88
898.514	-0.12
899.248	2.88
899.983	0.88
900.717	-1.12
901.452	-1.12
902.186	-1.12
902.92	0.88
903.654	0.88
904.389	1.88
905.123	1.88
905.857	0.88
906.59	2.88
907.324	1.88
908.058	0.88
908.792	0.88
909.525	0.88
910.259	1.88
910.992	0.88
911.726	1.88
912.459	0.88
913.192	0.88
913.925	-0.12
914.658	1.88
915.391	-0.12
916.124	0.88
916.857	1.88
917.59	0.88
918.323	0.88
919.055	0.88
919.788	1.88
920.521	0.88
921.253	-1.12
921.985	0.88
922.718	0.88
923.45	-1.12
924.182	0.88
924.914	-0.12
925.646	1.88
926.378	0.88
927.11	0.88
927.841	0.88
928.573	0.88
929.305	1.88
930.036	0.88
930.768	0.88
931.499	0.88
932.23	0.88
932.962	1.88
933.693	-0.12
934.424	1.88
935.155	-0.12
935.886	2.88
936.617	1.88
937.348	1.88
938.078	1.88
938.809	0.88
939.54	1.88
940.27	2.88
941.001	0.88
941.731	-0.12
942.461	2.88
943.191	1.88
943.922	0.88
944.652	-0.12
945.382	-1.12
946.112	-0.12
946.841	1.88
947.571	0.88
948.301	-1.12
949.031	-0.12
949.76	-0.12
950.49	-1.12
951.219	1.88
951.948	-1.12
952.678	-1.12
953.407	-1.12
954.136	0.88
954.865	2.88
955.594	1.88
956.323	3.88
957.052	0.88
957.78	2.88
958.509	-1.12
959.238	1.88
959.966	1.88
960.695	-1.12
961.423	0.88
962.151	0.88
962.88	0.88
963.608	2.88
964.336	1.88
965.064	0.88
965.792	-2.12
966.52	0.88
967.247	-1.12
967.975	0.88
968.703	-1.12
969.43	1.88
970.158	1.88
970.885	0.88
971.613	1.88
972.34	1.88
973.067	1.88
973.794	1.88
974.521	-1.12
975.248	1.88
975.975	-1.12
976.702	2.88
977.429	0.88
978.156	-0.12
978.882	-0.12
979.609	0.88
980.335	1.88
981.062	2.88
981.788	0.88
982.514	1.88
983.24	-2.12
983.967	1.88
984.693	-0.12
985.419	-0.12
986.144	-0.12
986.87	1.88
987.596	1.88
988.322	0.88
989.047	1.88
989.773	0.88
990.498	0.88
991.224	-0.12
991.949	-0.12
992.674	1.88
993.399	-0.12
994.124	1.88
994.849	-0.12
995.574	1.88
996.299	-0.12
997.024	-1.12
997.749	1.88
998.473	0.88
999.198	2.88
999.922	-1.12
1000.647	2.88
1001.371	4.88
1002.095	-3.12
1002.82	-1.12
1003.544	-1.12
1004.268	1.88
1004.992	-1.12
1005.716	-0.12
1006.439	-1.12
1007.163	1.88
1007.887	0.88
1008.611	1.88
1009.334	-1.12
1010.058	1.88
1010.781	1.88
1011.504	1.88
1012.228	0.88
1012.951	-1.12
1013.674	1.88
1014.397	-1.12
1015.12	0.88
