节点500_145_QEPB04081__509__11-37-04-483.txt的数据

Date: Wed Nov 12 11:37:04 CST 2025
User: PC
Spectrometer: QEPB0408
触发模式: 0
积分时间 (秒): 1.000000E-2
Scans to average: 1
启用暗噪声校正: true
启用非线性校正: false
滑动平均宽度: 0
X轴模式: Wavelengths
Number of Pixels in Spectrum: 1044
>>>>>Begin Spectral Data<<<<<
220.843	-1.25
221.644	-0.25
222.444	-0.25
223.244	-2.25
224.045	0.75
224.845	-0.25
225.645	-2.25
226.445	-0.25
227.245	0.75
228.045	-1.25
228.845	-0.25
229.645	-0.25
230.444	1.75
231.244	-1.25
232.043	0.75
232.843	-2.25
233.642	0.75
234.442	-0.25
235.241	0.75
236.04	0.75
236.839	-1.25
237.638	1.75
238.437	1.75
239.236	1.75
240.035	0.75
240.833	-0.25
241.632	-0.25
242.43	0.75
243.229	0.75
244.027	0.75
244.826	1.75
245.624	0.75
246.422	-1.25
247.22	2.75
248.018	2.75
248.816	0.75
249.614	3.75
250.412	1.75
251.21	0.75
252.007	0.75
252.805	2.75
253.602	0.75
254.4	2.75
255.197	-0.25
255.994	2.75
256.791	2.75
257.589	4.75
258.386	4.75
259.183	2.75
259.979	1.75
260.776	1.75
261.573	3.75
262.37	3.75
263.166	1.75
263.963	3.75
264.759	1.75
265.556	6.75
266.352	5.75
267.148	6.75
267.944	6.75
268.74	8.75
269.536	5.75
270.332	4.75
271.128	4.75
271.924	5.75
272.719	6.75
273.515	4.75
274.311	7.75
275.106	9.75
275.901	5.75
276.697	6.75
277.492	6.75
278.287	8.75
279.082	8.75
279.877	9.75
280.672	8.75
281.467	6.75
282.262	8.75
283.056	8.75
283.851	8.75
284.646	12.75
285.44	8.75
286.234	9.75
287.029	8.75
287.823	9.75
288.617	11.75
289.411	10.75
290.205	9.75
290.999	8.75
291.793	9.75
292.587	9.75
293.381	10.75
294.174	9.75
294.968	11.75
295.761	8.75
296.555	8.75
297.348	11.75
298.141	7.75
298.935	9.75
299.728	10.75
300.521	6.75
301.314	6.75
302.107	6.75
302.899	9.75
303.692	4.75
304.485	8.75
305.277	7.75
306.07	7.75
306.862	8.75
307.655	6.75
308.447	8.75
309.239	4.75
310.031	8.75
310.823	6.75
311.615	8.75
312.407	3.75
313.199	4.75
313.991	6.75
314.783	3.75
315.574	6.75
316.366	5.75
317.157	3.75
317.949	6.75
318.74	3.75
319.531	4.75
320.322	1.75
321.113	4.75
321.904	3.75
322.695	4.75
323.486	4.75
324.277	3.75
325.068	1.75
325.858	4.75
326.649	3.75
327.439	4.75
328.23	0.75
329.02	1.75
329.81	0.75
330.6	3.75
331.391	2.75
332.181	1.75
332.971	3.75
333.76	5.75
334.55	2.75
335.34	2.75
336.13	3.75
336.919	3.75
337.709	3.75
338.498	3.75
339.287	2.75
340.077	4.75
340.866	1.75
341.655	4.75
342.444	0.75
343.233	2.75
344.022	3.75
344.811	2.75
345.6	4.75
346.388	0.75
347.177	1.75
347.965	2.75
348.754	4.75
349.542	1.75
350.33	1.75
351.119	3.75
351.907	1.75
352.695	1.75
353.483	3.75
354.271	1.75
355.059	4.75
355.846	0.75
356.634	-0.25
357.422	2.75
358.209	2.75
358.997	0.75
359.784	0.75
360.571	2.75
361.359	2.75
362.146	1.75
362.933	1.75
363.72	4.75
364.507	2.75
365.294	2.75
366.081	1.75
366.867	0.75
367.654	1.75
368.44	1.75
369.227	1.75
370.013	2.75
370.8	1.75
371.586	3.75
372.372	1.75
373.158	2.75
373.944	0.75
374.73	1.75
375.516	2.75
376.302	2.75
377.088	0.75
377.873	0.75
378.659	0.75
379.445	1.75
380.23	2.75
381.015	1.75
381.801	-0.25
382.586	1.75
383.371	1.75
384.156	0.75
384.941	2.75
385.726	3.75
386.511	0.75
387.296	2.75
388.08	2.75
388.865	-1.25
389.649	2.75
390.434	0.75
391.218	-1.25
392.003	3.75
392.787	0.75
393.571	4.75
394.355	3.75
395.139	1.75
395.923	0.75
396.707	4.75
397.491	4.75
398.274	2.75
399.058	3.75
399.842	2.75
400.625	3.75
401.408	3.75
402.192	2.75
402.975	2.75
403.758	2.75
404.541	4.75
405.324	3.75
406.107	3.75
406.89	2.75
407.673	1.75
408.456	4.75
409.238	2.75
410.021	2.75
410.803	0.75
411.586	5.75
412.368	4.75
413.151	3.75
413.933	4.75
414.715	4.75
415.497	2.75
416.279	2.75
417.061	5.75
417.843	3.75
418.624	1.75
419.406	1.75
420.188	3.75
420.969	5.75
421.751	5.75
422.532	2.75
423.313	3.75
424.095	0.75
424.876	5.75
425.657	4.75
426.438	7.75
427.219	5.75
428	6.75
428.78	6.75
429.561	3.75
430.342	7.75
431.122	6.75
431.903	6.75
432.683	7.75
433.464	6.75
434.244	8.75
435.024	8.75
435.804	7.75
436.584	7.75
437.364	8.75
438.144	7.75
438.924	10.75
439.704	9.75
440.483	9.75
441.263	12.75
442.042	10.75
442.822	13.75
443.601	15.75
444.38	14.75
445.16	16.75
445.939	18.75
446.718	18.75
447.497	16.75
448.276	20.75
449.054	20.75
449.833	26.75
450.612	26.75
451.391	25.75
452.169	30.75
452.948	32.75
453.726	36.75
454.504	38.75
455.282	43.75
456.061	48.75
456.839	51.75
457.617	55.75
458.395	64.75
459.172	72.75
459.95	78.75
460.728	87.75
461.506	101.75
462.283	105.75
463.061	124.75
463.838	130.75
464.615	144.75
465.393	162.75
466.17	180.75
466.947	206.75
467.724	231.75
468.501	257.75
469.278	279.75
470.055	314.75
470.831	343.75
471.608	388.75
472.385	423.75
473.161	478.75
473.938	532.75
474.714	586.75
475.49	648.75
476.266	712.75
477.043	791.75
477.819	876.75
478.595	961.75
479.371	1052.75
480.146	1142.75
480.922	1270.75
481.698	1397.75
482.473	1536.75
483.249	1688.75
484.024	1853.75
484.8	2038.75
485.575	2220.75
486.35	2444.75
487.126	2705.75
487.901	2956.75
488.676	3230.75
489.451	3552.75
490.225	3854.75
491	4228.75
491.775	4640.75
492.55	5049.75
493.324	5521.75
494.099	6005.75
494.873	6539.75
495.647	7102.75
496.422	7720.75
497.196	8341.75
497.97	8971.75
498.744	9619.75
499.518	10363.75
500.292	10988.75
501.066	11659.75
501.839	12343.75
502.613	12956.75
503.387	13516.75
504.16	14080.75
504.934	14616.75
505.707	14985.75
506.48	15261.75
507.253	15565.75
508.027	15716.75
508.8	15712.75
509.573	15590.75
510.346	15537.75
511.118	15305.75
511.891	14994.75
512.664	14602.75
513.437	14164.75
514.209	13706.75
514.982	13193.75
515.754	12700.75
516.526	12260.75
517.298	11698.75
518.071	11194.75
518.843	10703.75
519.615	10266.75
520.387	9806.75
521.159	9432.75
521.93	9083.75
522.702	8685.75
523.474	8395.75
524.245	8057.75
525.017	7718.75
525.788	7385.75
526.56	7139.75
527.331	6814.75
528.102	6541.75
528.873	6272.75
529.644	5995.75
530.415	5768.75
531.186	5451.75
531.957	5185.75
532.728	4942.75
533.498	4647.75
534.269	4432.75
535.039	4217.75
535.81	3977.75
536.58	3775.75
537.351	3546.75
538.121	3344.75
538.891	3184.75
539.661	2993.75
540.431	2825.75
541.201	2703.75
541.971	2554.75
542.741	2424.75
543.51	2276.75
544.28	2168.75
545.05	2070.75
545.819	1963.75
546.588	1860.75
547.358	1765.75
548.127	1691.75
548.896	1596.75
549.665	1503.75
550.434	1443.75
551.203	1365.75
551.972	1306.75
552.741	1237.75
553.51	1172.75
554.278	1101.75
555.047	1044.75
555.815	987.75
556.584	943.75
557.352	878.75
558.121	833.75
558.889	776.75
559.657	729.75
560.425	691.75
561.193	663.75
561.961	620.75
562.729	582.75
563.496	553.75
564.264	522.75
565.032	494.75
565.799	455.75
566.567	435.75
567.334	414.75
568.101	390.75
568.869	363.75
569.636	350.75
570.403	331.75
571.17	312.75
571.937	293.75
572.704	282.75
573.471	266.75
574.237	243.75
575.004	227.75
575.771	212.75
576.537	206.75
577.303	192.75
578.07	177.75
578.836	174.75
579.602	159.75
580.368	154.75
581.134	139.75
581.9	136.75
582.666	128.75
583.432	125.75
584.198	112.75
584.964	106.75
585.729	105.75
586.495	95.75
587.26	87.75
588.025	88.75
588.791	78.75
589.556	81.75
590.321	74.75
591.086	67.75
591.851	64.75
592.616	62.75
593.381	57.75
594.146	54.75
594.911	54.75
595.675	50.75
596.44	50.75
597.204	47.75
597.969	44.75
598.733	42.75
599.497	36.75
600.261	37.75
601.025	34.75
601.79	34.75
602.553	33.75
603.317	31.75
604.081	31.75
604.845	29.75
605.609	26.75
606.372	26.75
607.136	25.75
607.899	23.75
608.662	19.75
609.426	22.75
610.189	24.75
610.952	20.75
611.715	20.75
612.478	20.75
613.241	18.75
614.004	15.75
614.767	14.75
615.529	13.75
616.292	15.75
617.055	13.75
617.817	14.75
618.579	12.75
619.342	13.75
620.104	12.75
620.866	11.75
621.628	9.75
622.39	10.75
623.152	12.75
623.914	10.75
624.676	8.75
625.438	10.75
626.199	8.75
626.961	7.75
627.722	8.75
628.484	7.75
629.245	9.75
630.006	6.75
630.768	4.75
631.529	6.75
632.29	8.75
633.051	6.75
633.812	6.75
634.573	5.75
635.333	3.75
636.094	5.75
636.855	6.75
637.615	3.75
638.376	7.75
639.136	3.75
639.896	4.75
640.657	3.75
641.417	2.75
642.177	2.75
642.937	1.75
643.697	3.75
644.457	4.75
645.216	5.75
645.976	3.75
646.736	6.75
647.495	1.75
648.255	3.75
649.014	4.75
649.774	2.75
650.533	1.75
651.292	1.75
652.051	4.75
652.81	4.75
653.569	3.75
654.328	3.75
655.087	2.75
655.846	2.75
656.604	-0.25
657.363	2.75
658.121	1.75
658.88	2.75
659.638	0.75
660.397	-2.25
661.155	4.75
661.913	3.75
662.671	1.75
663.429	4.75
664.187	2.75
664.945	1.75
665.703	2.75
666.46	2.75
667.218	1.75
667.976	0.75
668.733	1.75
669.49	1.75
670.248	1.75
671.005	1.75
671.762	3.75
672.519	1.75
673.276	2.75
674.033	3.75
674.79	2.75
675.547	3.75
676.304	1.75
677.06	2.75
677.817	0.75
678.574	2.75
679.33	0.75
680.086	0.75
680.843	0.75
681.599	1.75
682.355	1.75
683.111	2.75
683.867	0.75
684.623	1.75
685.379	0.75
686.135	1.75
686.89	-0.25
687.646	1.75
688.402	2.75
689.157	1.75
689.912	1.75
690.668	-0.25
691.423	1.75
692.178	1.75
692.933	3.75
693.688	2.75
694.443	1.75
695.198	2.75
695.953	1.75
696.708	1.75
697.462	0.75
698.217	0.75
698.972	0.75
699.726	0.75
700.48	-1.25
701.235	2.75
701.989	0.75
702.743	-0.25
703.497	1.75
704.251	0.75
705.005	1.75
705.759	1.75
706.513	0.75
707.266	2.75
708.02	2.75
708.774	2.75
709.527	0.75
710.28	1.75
711.034	0.75
711.787	1.75
712.54	3.75
713.293	1.75
714.046	2.75
714.799	3.75
715.552	0.75
716.305	1.75
717.058	0.75
717.81	3.75
718.563	2.75
719.315	3.75
720.068	0.75
720.82	0.75
721.573	1.75
722.325	-0.25
723.077	1.75
723.829	0.75
724.581	-0.25
725.333	3.75
726.085	0.75
726.836	1.75
727.588	-0.25
728.34	0.75
729.091	1.75
729.843	1.75
730.594	1.75
731.346	-0.25
732.097	1.75
732.848	1.75
733.599	3.75
734.35	1.75
735.101	2.75
735.852	0.75
736.603	-1.25
737.354	1.75
738.104	-0.25
738.855	1.75
739.605	-0.25
740.356	1.75
741.106	1.75
741.856	1.75
742.607	1.75
743.357	1.75
744.107	1.75
744.857	0.75
745.607	2.75
746.357	1.75
747.106	2.75
747.856	1.75
748.606	0.75
749.355	1.75
750.105	0.75
750.854	0.75
751.603	1.75
752.353	1.75
753.102	1.75
753.851	-0.25
754.6	2.75
755.349	3.75
756.098	0.75
756.847	2.75
757.595	0.75
758.344	3.75
759.093	0.75
759.841	3.75
760.589	0.75
761.338	2.75
762.086	0.75
762.834	2.75
763.582	3.75
764.331	3.75
765.079	2.75
765.826	2.75
766.574	1.75
767.322	0.75
768.07	3.75
768.817	4.75
769.565	2.75
770.312	4.75
771.06	2.75
771.807	2.75
772.554	2.75
773.302	4.75
774.049	4.75
774.796	3.75
775.543	5.75
776.29	3.75
777.036	2.75
777.783	2.75
778.53	3.75
779.276	3.75
780.023	2.75
780.769	2.75
781.516	4.75
782.262	3.75
783.008	2.75
783.754	2.75
784.5	5.75
785.246	6.75
785.992	4.75
786.738	4.75
787.484	2.75
788.23	5.75
788.975	4.75
789.721	4.75
790.466	4.75
791.212	3.75
791.957	3.75
792.702	5.75
793.447	3.75
794.193	2.75
794.938	5.75
795.683	3.75
796.427	5.75
797.172	3.75
797.917	3.75
798.662	5.75
799.406	2.75
800.151	4.75
800.895	1.75
801.64	4.75
802.384	2.75
803.128	1.75
803.872	5.75
804.616	2.75
805.36	3.75
806.104	4.75
806.848	4.75
807.592	3.75
808.336	1.75
809.079	1.75
809.823	2.75
810.566	2.75
811.31	2.75
812.053	2.75
812.796	3.75
813.539	4.75
814.283	4.75
815.026	4.75
815.769	4.75
816.511	-0.25
817.254	2.75
817.997	2.75
818.74	3.75
819.482	2.75
820.225	0.75
820.967	2.75
821.71	3.75
822.452	3.75
823.194	1.75
823.936	2.75
824.678	3.75
825.42	1.75
826.162	4.75
826.904	2.75
827.646	0.75
828.388	0.75
829.129	0.75
829.871	3.75
830.612	0.75
831.354	2.75
832.095	2.75
832.836	2.75
833.577	1.75
834.319	3.75
835.06	-0.25
835.801	1.75
836.542	0.75
837.282	0.75
838.023	0.75
838.764	0.75
839.504	2.75
840.245	1.75
840.985	0.75
841.726	2.75
842.466	-0.25
843.206	2.75
843.946	-0.25
844.687	1.75
845.427	2.75
846.166	1.75
846.906	2.75
847.646	0.75
848.386	1.75
849.125	2.75
849.865	-0.25
850.605	1.75
851.344	0.75
852.083	1.75
852.823	0.75
853.562	2.75
854.301	1.75
855.04	1.75
855.779	0.75
856.518	0.75
857.257	0.75
857.995	1.75
858.734	0.75
859.473	1.75
860.211	0.75
860.95	1.75
861.688	0.75
862.426	1.75
863.165	0.75
863.903	0.75
864.641	0.75
865.379	-0.25
866.117	1.75
866.855	1.75
867.593	1.75
868.33	0.75
869.068	-0.25
869.806	0.75
870.543	-2.25
871.28	0.75
872.018	-0.25
872.755	-0.25
873.492	-0.25
874.229	-1.25
874.967	-0.25
875.703	0.75
876.44	0.75
877.177	-0.25
877.914	-0.25
878.651	-1.25
879.387	0.75
880.124	2.75
880.86	-1.25
881.597	2.75
882.333	0.75
883.069	-1.25
883.806	1.75
884.542	-0.25
885.278	-0.25
886.014	0.75
886.749	-0.25
887.485	1.75
888.221	-1.25
888.957	-0.25
889.692	0.75
890.428	0.75
891.163	0.75
891.899	0.75
892.634	1.75
893.369	-1.25
894.104	0.75
894.839	-2.25
895.574	-0.25
896.309	0.75
897.044	-0.25
897.779	0.75
898.514	-0.25
899.248	0.75
899.983	-1.25
900.717	0.75
901.452	1.75
902.186	-0.25
902.92	0.75
903.654	-1.25
904.389	0.75
905.123	-2.25
905.857	0.75
906.59	1.75
907.324	0.75
908.058	-0.25
908.792	0.75
909.525	-0.25
910.259	-1.25
910.992	0.75
911.726	-2.25
912.459	0.75
913.192	0.75
913.925	-1.25
914.658	-1.25
915.391	-0.25
916.124	-0.25
916.857	0.75
917.59	-0.25
918.323	-2.25
919.055	-0.25
919.788	1.75
920.521	0.75
921.253	0.75
921.985	-0.25
922.718	2.75
923.45	-0.25
924.182	-0.25
924.914	0.75
925.646	-0.25
926.378	-2.25
927.11	-1.25
927.841	-0.25
928.573	0.75
929.305	-2.25
930.036	-0.25
930.768	-0.25
931.499	-0.25
932.23	-1.25
932.962	0.75
933.693	0.75
934.424	-1.25
935.155	-0.25
935.886	-1.25
936.617	0.75
937.348	1.75
938.078	-0.25
938.809	-0.25
939.54	-1.25
940.27	1.75
941.001	-1.25
941.731	-0.25
942.461	-2.25
943.191	-1.25
943.922	-2.25
944.652	0.75
945.382	0.75
946.112	-0.25
946.841	-1.25
947.571	-1.25
948.301	-0.25
949.031	0.75
949.76	0.75
950.49	-0.25
951.219	-2.25
951.948	1.75
952.678	0.75
953.407	-0.25
954.136	-2.25
954.865	-2.25
955.594	0.75
956.323	-1.25
957.052	0.75
957.78	-1.25
958.509	-2.25
959.238	0.75
959.966	-1.25
960.695	-3.25
961.423	-1.25
962.151	-2.25
962.88	-0.25
963.608	0.75
964.336	-1.25
965.064	-0.25
965.792	0.75
966.52	-2.25
967.247	0.75
967.975	-1.25
968.703	-1.25
969.43	0.75
970.158	1.75
970.885	1.75
971.613	-1.25
972.34	0.75
973.067	-1.25
973.794	-0.25
974.521	-1.25
975.248	-1.25
975.975	-0.25
976.702	1.75
977.429	-2.25
978.156	-1.25
978.882	0.75
979.609	-0.25
980.335	-4.25
981.062	-0.25
981.788	0.75
982.514	-0.25
983.24	-3.25
983.967	1.75
984.693	-1.25
985.419	-1.25
986.144	1.75
986.87	-0.25
987.596	-1.25
988.322	-0.25
989.047	-0.25
989.773	-0.25
990.498	0.75
991.224	0.75
991.949	-1.25
992.674	-1.25
993.399	1.75
994.124	-2.25
994.849	-0.25
995.574	1.75
996.299	-2.25
997.024	-0.25
997.749	0.75
998.473	-0.25
999.198	0.75
999.922	-2.25
1000.647	0.75
1001.371	3.75
1002.095	-1.25
1002.82	-2.25
1003.544	-0.25
1004.268	-2.25
1004.992	-1.25
1005.716	-2.25
1006.439	-1.25
1007.163	0.75
1007.887	-0.25
1008.611	-0.25
1009.334	0.75
1010.058	1.75
1010.781	-0.25
1011.504	1.75
1012.228	1.75
1012.951	-0.25
1013.674	0.75
1014.397	-0.25
1015.12	-0.25
