节点500_145_QEPB04081__365__11-34-46-577.txt的数据

Date: Wed Nov 12 11:34:46 CST 2025
User: PC
Spectrometer: QEPB0408
触发模式: 0
积分时间 (秒): 1.000000E-2
Scans to average: 1
启用暗噪声校正: true
启用非线性校正: false
滑动平均宽度: 0
X轴模式: Wavelengths
Number of Pixels in Spectrum: 1044
>>>>>Begin Spectral Data<<<<<
220.843	-0.75
221.644	-0.75
222.444	-0.75
223.244	2.25
224.045	2.25
224.845	2.25
225.645	2.25
226.445	3.25
227.245	1.25
228.045	2.25
228.845	1.25
229.645	4.25
230.444	2.25
231.244	2.25
232.043	3.25
232.843	-0.75
233.642	2.25
234.442	2.25
235.241	2.25
236.04	3.25
236.839	2.25
237.638	2.25
238.437	1.25
239.236	3.25
240.035	2.25
240.833	2.25
241.632	1.25
242.43	3.25
243.229	2.25
244.027	3.25
244.826	4.25
245.624	0.25
246.422	3.25
247.22	0.25
248.018	4.25
248.816	2.25
249.614	2.25
250.412	3.25
251.21	3.25
252.007	4.25
252.805	2.25
253.602	2.25
254.4	3.25
255.197	5.25
255.994	3.25
256.791	2.25
257.589	3.25
258.386	6.25
259.183	6.25
259.979	4.25
260.776	4.25
261.573	4.25
262.37	7.25
263.166	4.25
263.963	6.25
264.759	8.25
265.556	7.25
266.352	2.25
267.148	6.25
267.944	6.25
268.74	9.25
269.536	6.25
270.332	4.25
271.128	3.25
271.924	5.25
272.719	8.25
273.515	7.25
274.311	10.25
275.106	10.25
275.901	9.25
276.697	10.25
277.492	8.25
278.287	10.25
279.082	10.25
279.877	12.25
280.672	11.25
281.467	8.25
282.262	8.25
283.056	11.25
283.851	12.25
284.646	10.25
285.44	13.25
286.234	12.25
287.029	12.25
287.823	13.25
288.617	9.25
289.411	10.25
290.205	12.25
290.999	14.25
291.793	14.25
292.587	9.25
293.381	10.25
294.174	11.25
294.968	11.25
295.761	9.25
296.555	8.25
297.348	11.25
298.141	10.25
298.935	12.25
299.728	10.25
300.521	9.25
301.314	10.25
302.107	9.25
302.899	9.25
303.692	7.25
304.485	8.25
305.277	8.25
306.07	8.25
306.862	9.25
307.655	6.25
308.447	10.25
309.239	10.25
310.031	7.25
310.823	9.25
311.615	9.25
312.407	5.25
313.199	7.25
313.991	6.25
314.783	8.25
315.574	7.25
316.366	6.25
317.157	4.25
317.949	8.25
318.74	4.25
319.531	6.25
320.322	5.25
321.113	5.25
321.904	4.25
322.695	7.25
323.486	6.25
324.277	5.25
325.068	6.25
325.858	4.25
326.649	6.25
327.439	4.25
328.23	4.25
329.02	4.25
329.81	6.25
330.6	5.25
331.391	3.25
332.181	3.25
332.971	4.25
333.76	4.25
334.55	5.25
335.34	4.25
336.13	5.25
336.919	3.25
337.709	8.25
338.498	3.25
339.287	5.25
340.077	6.25
340.866	6.25
341.655	4.25
342.444	3.25
343.233	5.25
344.022	5.25
344.811	6.25
345.6	4.25
346.388	3.25
347.177	4.25
347.965	3.25
348.754	6.25
349.542	5.25
350.33	4.25
351.119	2.25
351.907	1.25
352.695	3.25
353.483	3.25
354.271	3.25
355.059	3.25
355.846	5.25
356.634	5.25
357.422	2.25
358.209	2.25
358.997	3.25
359.784	3.25
360.571	4.25
361.359	4.25
362.146	5.25
362.933	3.25
363.72	3.25
364.507	3.25
365.294	4.25
366.081	3.25
366.867	3.25
367.654	1.25
368.44	4.25
369.227	4.25
370.013	2.25
370.8	2.25
371.586	3.25
372.372	3.25
373.158	4.25
373.944	4.25
374.73	4.25
375.516	5.25
376.302	3.25
377.088	2.25
377.873	6.25
378.659	3.25
379.445	3.25
380.23	7.25
381.015	2.25
381.801	4.25
382.586	5.25
383.371	2.25
384.156	3.25
384.941	3.25
385.726	4.25
386.511	3.25
387.296	3.25
388.08	5.25
388.865	5.25
389.649	3.25
390.434	3.25
391.218	6.25
392.003	4.25
392.787	4.25
393.571	2.25
394.355	4.25
395.139	5.25
395.923	5.25
396.707	4.25
397.491	4.25
398.274	6.25
399.058	5.25
399.842	3.25
400.625	7.25
401.408	3.25
402.192	6.25
402.975	4.25
403.758	6.25
404.541	3.25
405.324	4.25
406.107	6.25
406.89	4.25
407.673	5.25
408.456	5.25
409.238	3.25
410.021	5.25
410.803	2.25
411.586	6.25
412.368	6.25
413.151	4.25
413.933	8.25
414.715	7.25
415.497	5.25
416.279	6.25
417.061	7.25
417.843	4.25
418.624	6.25
419.406	7.25
420.188	6.25
420.969	5.25
421.751	6.25
422.532	7.25
423.313	7.25
424.095	5.25
424.876	6.25
425.657	6.25
426.438	4.25
427.219	5.25
428	8.25
428.78	9.25
429.561	9.25
430.342	8.25
431.122	6.25
431.903	8.25
432.683	7.25
433.464	10.25
434.244	9.25
435.024	10.25
435.804	11.25
436.584	11.25
437.364	11.25
438.144	10.25
438.924	12.25
439.704	11.25
440.483	14.25
441.263	13.25
442.042	12.25
442.822	15.25
443.601	15.25
444.38	14.25
445.16	18.25
445.939	18.25
446.718	19.25
447.497	21.25
448.276	22.25
449.054	24.25
449.833	27.25
450.612	25.25
451.391	31.25
452.169	30.25
452.948	31.25
453.726	35.25
454.504	38.25
455.282	43.25
456.061	45.25
456.839	53.25
457.617	58.25
458.395	62.25
459.172	74.25
459.95	75.25
460.728	87.25
461.506	91.25
462.283	109.25
463.061	113.25
463.838	127.25
464.615	148.25
465.393	159.25
466.17	179.25
466.947	204.25
467.724	219.25
468.501	255.25
469.278	279.25
470.055	306.25
470.831	338.25
471.608	378.25
472.385	421.25
473.161	474.25
473.938	513.25
474.714	564.25
475.49	636.25
476.266	703.25
477.043	789.25
477.819	867.25
478.595	936.25
479.371	1054.25
480.146	1152.25
480.922	1268.25
481.698	1400.25
482.473	1563.25
483.249	1706.25
484.024	1872.25
484.8	2044.25
485.575	2276.25
486.35	2488.25
487.126	2754.25
487.901	3031.25
488.676	3328.25
489.451	3625.25
490.225	3986.25
491	4362.25
491.775	4815.25
492.55	5232.25
493.324	5754.25
494.099	6257.25
494.873	6827.25
495.647	7457.25
496.422	8113.25
497.196	8748.25
497.97	9451.25
498.744	10150.25
499.518	10814.25
500.292	11584.25
501.066	12291.25
501.839	12969.25
502.613	13624.25
503.387	14205.25
504.16	14820.25
504.934	15266.25
505.707	15603.25
506.48	15937.25
507.253	16125.25
508.027	16194.25
508.8	16147.25
509.573	16117.25
510.346	15906.25
511.118	15604.25
511.891	15232.25
512.664	14781.25
513.437	14329.25
514.209	13778.25
514.982	13276.25
515.754	12747.25
516.526	12218.25
517.298	11704.25
518.071	11145.25
518.843	10659.25
519.615	10221.25
520.387	9787.25
521.159	9441.25
521.93	9069.25
522.702	8677.25
523.474	8337.25
524.245	7994.25
525.017	7694.25
525.788	7363.25
526.56	7096.25
527.331	6799.25
528.102	6533.25
528.873	6229.25
529.644	5957.25
530.415	5691.25
531.186	5402.25
531.957	5152.25
532.728	4900.25
533.498	4635.25
534.269	4365.25
535.039	4144.25
535.81	3927.25
536.58	3687.25
537.351	3512.25
538.121	3341.25
538.891	3132.25
539.661	2955.25
540.431	2790.25
541.201	2639.25
541.971	2495.25
542.741	2363.25
543.51	2228.25
544.28	2139.25
545.05	2017.25
545.819	1930.25
546.588	1833.25
547.358	1734.25
548.127	1652.25
548.896	1573.25
549.665	1492.25
550.434	1437.25
551.203	1357.25
551.972	1285.25
552.741	1212.25
553.51	1150.25
554.278	1083.25
555.047	1021.25
555.815	968.25
556.584	901.25
557.352	854.25
558.121	811.25
558.889	764.25
559.657	722.25
560.425	682.25
561.193	649.25
561.961	609.25
562.729	566.25
563.496	537.25
564.264	501.25
565.032	471.25
565.799	462.25
566.567	438.25
567.334	408.25
568.101	383.25
568.869	358.25
569.636	339.25
570.403	318.25
571.17	305.25
571.937	283.25
572.704	270.25
573.471	255.25
574.237	237.25
575.004	228.25
575.771	211.25
576.537	207.25
577.303	192.25
578.07	174.25
578.836	166.25
579.602	159.25
580.368	150.25
581.134	139.25
581.9	131.25
582.666	128.25
583.432	115.25
584.198	111.25
584.964	110.25
585.729	102.25
586.495	92.25
587.26	89.25
588.025	89.25
588.791	79.25
589.556	72.25
590.321	75.25
591.086	70.25
591.851	62.25
592.616	62.25
593.381	56.25
594.146	54.25
594.911	54.25
595.675	52.25
596.44	46.25
597.204	46.25
597.969	43.25
598.733	39.25
599.497	40.25
600.261	40.25
601.025	33.25
601.79	36.25
602.553	30.25
603.317	33.25
604.081	29.25
604.845	30.25
605.609	27.25
606.372	25.25
607.136	28.25
607.899	27.25
608.662	26.25
609.426	20.25
610.189	20.25
610.952	21.25
611.715	19.25
612.478	20.25
613.241	17.25
614.004	17.25
614.767	17.25
615.529	16.25
616.292	17.25
617.055	17.25
617.817	14.25
618.579	13.25
619.342	15.25
620.104	16.25
620.866	12.25
621.628	14.25
622.39	12.25
623.152	11.25
623.914	9.25
624.676	11.25
625.438	12.25
626.199	10.25
626.961	9.25
627.722	10.25
628.484	10.25
629.245	8.25
630.006	11.25
630.768	8.25
631.529	8.25
632.29	9.25
633.051	6.25
633.812	6.25
634.573	11.25
635.333	7.25
636.094	7.25
636.855	6.25
637.615	8.25
638.376	5.25
639.136	7.25
639.896	5.25
640.657	6.25
641.417	7.25
642.177	6.25
642.937	5.25
643.697	4.25
644.457	5.25
645.216	3.25
645.976	5.25
646.736	8.25
647.495	4.25
648.255	6.25
649.014	6.25
649.774	4.25
650.533	5.25
651.292	6.25
652.051	4.25
652.81	4.25
653.569	6.25
654.328	4.25
655.087	3.25
655.846	3.25
656.604	5.25
657.363	4.25
658.121	3.25
658.88	3.25
659.638	3.25
660.397	5.25
661.155	4.25
661.913	4.25
662.671	2.25
663.429	4.25
664.187	4.25
664.945	3.25
665.703	6.25
666.46	3.25
667.218	4.25
667.976	4.25
668.733	2.25
669.49	4.25
670.248	3.25
671.005	3.25
671.762	3.25
672.519	2.25
673.276	5.25
674.033	2.25
674.79	3.25
675.547	3.25
676.304	2.25
677.06	5.25
677.817	3.25
678.574	2.25
679.33	3.25
680.086	4.25
680.843	4.25
681.599	4.25
682.355	3.25
683.111	3.25
683.867	4.25
684.623	2.25
685.379	2.25
686.135	2.25
686.89	3.25
687.646	4.25
688.402	2.25
689.157	3.25
689.912	2.25
690.668	0.25
691.423	3.25
692.178	5.25
692.933	2.25
693.688	3.25
694.443	3.25
695.198	2.25
695.953	3.25
696.708	2.25
697.462	1.25
698.217	2.25
698.972	2.25
699.726	2.25
700.48	3.25
701.235	2.25
701.989	3.25
702.743	3.25
703.497	3.25
704.251	3.25
705.005	3.25
705.759	3.25
706.513	3.25
707.266	4.25
708.02	1.25
708.774	0.25
709.527	4.25
710.28	1.25
711.034	1.25
711.787	3.25
712.54	4.25
713.293	1.25
714.046	1.25
714.799	3.25
715.552	2.25
716.305	4.25
717.058	2.25
717.81	3.25
718.563	0.25
719.315	1.25
720.068	2.25
720.82	3.25
721.573	2.25
722.325	2.25
723.077	3.25
723.829	1.25
724.581	1.25
725.333	5.25
726.085	2.25
726.836	0.25
727.588	2.25
728.34	2.25
729.091	4.25
729.843	4.25
730.594	3.25
731.346	2.25
732.097	2.25
732.848	3.25
733.599	4.25
734.35	1.25
735.101	3.25
735.852	4.25
736.603	1.25
737.354	3.25
738.104	1.25
738.855	2.25
739.605	5.25
740.356	3.25
741.106	3.25
741.856	2.25
742.607	3.25
743.357	1.25
744.107	4.25
744.857	3.25
745.607	5.25
746.357	4.25
747.106	4.25
747.856	5.25
748.606	0.25
749.355	4.25
750.105	2.25
750.854	3.25
751.603	3.25
752.353	4.25
753.102	4.25
753.851	2.25
754.6	4.25
755.349	2.25
756.098	2.25
756.847	3.25
757.595	3.25
758.344	4.25
759.093	4.25
759.841	3.25
760.589	4.25
761.338	2.25
762.086	4.25
762.834	5.25
763.582	4.25
764.331	5.25
765.079	5.25
765.826	4.25
766.574	5.25
767.322	3.25
768.07	4.25
768.817	5.25
769.565	5.25
770.312	5.25
771.06	4.25
771.807	6.25
772.554	5.25
773.302	2.25
774.049	5.25
774.796	4.25
775.543	6.25
776.29	4.25
777.036	4.25
777.783	6.25
778.53	6.25
779.276	6.25
780.023	7.25
780.769	6.25
781.516	5.25
782.262	5.25
783.008	4.25
783.754	7.25
784.5	5.25
785.246	5.25
785.992	7.25
786.738	5.25
787.484	6.25
788.23	6.25
788.975	5.25
789.721	6.25
790.466	5.25
791.212	6.25
791.957	5.25
792.702	6.25
793.447	5.25
794.193	8.25
794.938	6.25
795.683	5.25
796.427	6.25
797.172	4.25
797.917	7.25
798.662	5.25
799.406	5.25
800.151	5.25
800.895	5.25
801.64	7.25
802.384	6.25
803.128	5.25
803.872	6.25
804.616	5.25
805.36	6.25
806.104	5.25
806.848	6.25
807.592	2.25
808.336	7.25
809.079	5.25
809.823	3.25
810.566	3.25
811.31	4.25
812.053	8.25
812.796	4.25
813.539	4.25
814.283	6.25
815.026	6.25
815.769	3.25
816.511	3.25
817.254	5.25
817.997	4.25
818.74	2.25
819.482	3.25
820.225	4.25
820.967	6.25
821.71	3.25
822.452	4.25
823.194	3.25
823.936	6.25
824.678	3.25
825.42	3.25
826.162	4.25
826.904	3.25
827.646	5.25
828.388	3.25
829.129	5.25
829.871	3.25
830.612	1.25
831.354	4.25
832.095	3.25
832.836	6.25
833.577	4.25
834.319	4.25
835.06	3.25
835.801	3.25
836.542	5.25
837.282	3.25
838.023	3.25
838.764	2.25
839.504	4.25
840.245	2.25
840.985	3.25
841.726	2.25
842.466	4.25
843.206	0.25
843.946	0.25
844.687	2.25
845.427	0.25
846.166	4.25
846.906	2.25
847.646	2.25
848.386	6.25
849.125	5.25
849.865	2.25
850.605	3.25
851.344	2.25
852.083	3.25
852.823	2.25
853.562	3.25
854.301	1.25
855.04	2.25
855.779	1.25
856.518	2.25
857.257	4.25
857.995	0.25
858.734	2.25
859.473	5.25
860.211	3.25
860.95	2.25
861.688	2.25
862.426	-0.75
863.165	3.25
863.903	2.25
864.641	1.25
865.379	2.25
866.117	4.25
866.855	3.25
867.593	2.25
868.33	3.25
869.068	2.25
869.806	0.25
870.543	3.25
871.28	3.25
872.018	2.25
872.755	3.25
873.492	-0.75
874.229	1.25
874.967	3.25
875.703	0.25
876.44	2.25
877.177	1.25
877.914	2.25
878.651	2.25
879.387	2.25
880.124	2.25
880.86	2.25
881.597	2.25
882.333	0.25
883.069	3.25
883.806	-0.75
884.542	5.25
885.278	3.25
886.014	0.25
886.749	0.25
887.485	2.25
888.221	2.25
888.957	-0.75
889.692	1.25
890.428	2.25
891.163	0.25
891.899	2.25
892.634	0.25
893.369	3.25
894.104	0.25
894.839	2.25
895.574	1.25
896.309	2.25
897.044	-1.75
897.779	0.25
898.514	1.25
899.248	3.25
899.983	2.25
900.717	0.25
901.452	3.25
902.186	0.25
902.92	1.25
903.654	1.25
904.389	0.25
905.123	1.25
905.857	3.25
906.59	1.25
907.324	0.25
908.058	1.25
908.792	3.25
909.525	1.25
910.259	3.25
910.992	2.25
911.726	3.25
912.459	2.25
913.192	0.25
913.925	0.25
914.658	2.25
915.391	1.25
916.124	3.25
916.857	2.25
917.59	3.25
918.323	2.25
919.055	1.25
919.788	1.25
920.521	2.25
921.253	2.25
921.985	1.25
922.718	2.25
923.45	4.25
924.182	2.25
924.914	2.25
925.646	2.25
926.378	2.25
927.11	3.25
927.841	-0.75
928.573	-0.75
929.305	2.25
930.036	-0.75
930.768	2.25
931.499	1.25
932.23	1.25
932.962	0.25
933.693	1.25
934.424	2.25
935.155	-0.75
935.886	2.25
936.617	4.25
937.348	0.25
938.078	-1.75
938.809	1.25
939.54	0.25
940.27	0.25
941.001	2.25
941.731	1.25
942.461	-0.75
943.191	1.25
943.922	1.25
944.652	2.25
945.382	1.25
946.112	2.25
946.841	1.25
947.571	1.25
948.301	3.25
949.031	1.25
949.76	2.25
950.49	1.25
951.219	-0.75
951.948	1.25
952.678	1.25
953.407	-0.75
954.136	1.25
954.865	2.25
955.594	0.25
956.323	2.25
957.052	1.25
957.78	0.25
958.509	3.25
959.238	1.25
959.966	0.25
960.695	0.25
961.423	1.25
962.151	1.25
962.88	0.25
963.608	1.25
964.336	-0.75
965.064	2.25
965.792	0.25
966.52	0.25
967.247	3.25
967.975	-0.75
968.703	1.25
969.43	-0.75
970.158	-0.75
970.885	1.25
971.613	-0.75
972.34	1.25
973.067	0.25
973.794	1.25
974.521	2.25
975.248	2.25
975.975	2.25
976.702	-2.75
977.429	1.25
978.156	-0.75
978.882	2.25
979.609	0.25
980.335	1.25
981.062	-0.75
981.788	2.25
982.514	3.25
983.24	-1.75
983.967	2.25
984.693	1.25
985.419	2.25
986.144	1.25
986.87	-0.75
987.596	0.25
988.322	-0.75
989.047	2.25
989.773	-0.75
990.498	-0.75
991.224	-0.75
991.949	1.25
992.674	1.25
993.399	1.25
994.124	2.25
994.849	2.25
995.574	2.25
996.299	1.25
997.024	1.25
997.749	3.25
998.473	1.25
999.198	1.25
999.922	0.25
1000.647	2.25
1001.371	5.25
1002.095	-0.75
1002.82	-0.75
1003.544	-3.75
1004.268	-0.75
1004.992	-0.75
1005.716	0.25
1006.439	0.25
1007.163	-0.75
1007.887	-0.75
1008.611	0.25
1009.334	-0.75
1010.058	3.25
1010.781	2.25
1011.504	1.25
1012.228	2.25
1012.951	1.25
1013.674	0.25
1014.397	-1.75
1015.12	0.25
