节点500_145_QEPB04081__453__11-36-11-565.txt的数据

Date: Wed Nov 12 11:36:11 CST 2025
User: PC
Spectrometer: QEPB0408
触发模式: 0
积分时间 (秒): 1.000000E-2
Scans to average: 1
启用暗噪声校正: true
启用非线性校正: false
滑动平均宽度: 0
X轴模式: Wavelengths
Number of Pixels in Spectrum: 1044
>>>>>Begin Spectral Data<<<<<
220.843	0.75
221.644	-2.25
222.444	-0.25
223.244	-0.25
224.045	-0.25
224.845	1.75
225.645	-1.25
226.445	-0.25
227.245	-1.25
228.045	-0.25
228.845	-0.25
229.645	0.75
230.444	-2.25
231.244	-2.25
232.043	-2.25
232.843	-0.25
233.642	1.75
234.442	-0.25
235.241	1.75
236.04	-0.25
236.839	-0.25
237.638	0.75
238.437	-0.25
239.236	1.75
240.035	-1.25
240.833	0.75
241.632	1.75
242.43	0.75
243.229	3.75
244.027	1.75
244.826	1.75
245.624	0.75
246.422	0.75
247.22	1.75
248.018	0.75
248.816	1.75
249.614	0.75
250.412	3.75
251.21	0.75
252.007	3.75
252.805	0.75
253.602	1.75
254.4	2.75
255.197	1.75
255.994	4.75
256.791	3.75
257.589	2.75
258.386	2.75
259.183	4.75
259.979	3.75
260.776	2.75
261.573	4.75
262.37	2.75
263.166	4.75
263.963	2.75
264.759	1.75
265.556	6.75
266.352	3.75
267.148	5.75
267.944	4.75
268.74	5.75
269.536	7.75
270.332	6.75
271.128	8.75
271.924	6.75
272.719	5.75
273.515	6.75
274.311	6.75
275.106	7.75
275.901	8.75
276.697	9.75
277.492	6.75
278.287	9.75
279.082	5.75
279.877	9.75
280.672	6.75
281.467	8.75
282.262	7.75
283.056	9.75
283.851	9.75
284.646	9.75
285.44	9.75
286.234	11.75
287.029	9.75
287.823	10.75
288.617	7.75
289.411	9.75
290.205	9.75
290.999	7.75
291.793	9.75
292.587	8.75
293.381	9.75
294.174	9.75
294.968	11.75
295.761	7.75
296.555	9.75
297.348	9.75
298.141	8.75
298.935	9.75
299.728	7.75
300.521	8.75
301.314	8.75
302.107	7.75
302.899	7.75
303.692	6.75
304.485	7.75
305.277	8.75
306.07	6.75
306.862	6.75
307.655	4.75
308.447	7.75
309.239	5.75
310.031	8.75
310.823	3.75
311.615	6.75
312.407	5.75
313.199	6.75
313.991	6.75
314.783	2.75
315.574	6.75
316.366	2.75
317.157	7.75
317.949	3.75
318.74	0.75
319.531	5.75
320.322	5.75
321.113	2.75
321.904	2.75
322.695	4.75
323.486	3.75
324.277	4.75
325.068	4.75
325.858	1.75
326.649	2.75
327.439	1.75
328.23	2.75
329.02	4.75
329.81	-0.25
330.6	5.75
331.391	1.75
332.181	2.75
332.971	2.75
333.76	5.75
334.55	3.75
335.34	3.75
336.13	5.75
336.919	2.75
337.709	1.75
338.498	3.75
339.287	1.75
340.077	1.75
340.866	3.75
341.655	2.75
342.444	-0.25
343.233	3.75
344.022	2.75
344.811	1.75
345.6	3.75
346.388	2.75
347.177	0.75
347.965	0.75
348.754	1.75
349.542	2.75
350.33	3.75
351.119	3.75
351.907	1.75
352.695	2.75
353.483	1.75
354.271	3.75
355.059	3.75
355.846	1.75
356.634	0.75
357.422	0.75
358.209	3.75
358.997	1.75
359.784	2.75
360.571	5.75
361.359	4.75
362.146	0.75
362.933	0.75
363.72	1.75
364.507	1.75
365.294	3.75
366.081	0.75
366.867	0.75
367.654	1.75
368.44	0.75
369.227	3.75
370.013	1.75
370.8	1.75
371.586	2.75
372.372	-0.25
373.158	1.75
373.944	3.75
374.73	2.75
375.516	2.75
376.302	4.75
377.088	2.75
377.873	2.75
378.659	2.75
379.445	1.75
380.23	2.75
381.015	1.75
381.801	2.75
382.586	3.75
383.371	1.75
384.156	1.75
384.941	0.75
385.726	0.75
386.511	2.75
387.296	2.75
388.08	2.75
388.865	2.75
389.649	1.75
390.434	2.75
391.218	1.75
392.003	2.75
392.787	1.75
393.571	1.75
394.355	3.75
395.139	2.75
395.923	4.75
396.707	1.75
397.491	4.75
398.274	2.75
399.058	3.75
399.842	1.75
400.625	3.75
401.408	2.75
402.192	0.75
402.975	3.75
403.758	1.75
404.541	3.75
405.324	1.75
406.107	1.75
406.89	1.75
407.673	4.75
408.456	1.75
409.238	3.75
410.021	4.75
410.803	5.75
411.586	4.75
412.368	0.75
413.151	4.75
413.933	5.75
414.715	2.75
415.497	4.75
416.279	1.75
417.061	3.75
417.843	4.75
418.624	6.75
419.406	3.75
420.188	4.75
420.969	3.75
421.751	6.75
422.532	6.75
423.313	4.75
424.095	3.75
424.876	3.75
425.657	4.75
426.438	7.75
427.219	4.75
428	5.75
428.78	6.75
429.561	7.75
430.342	5.75
431.122	4.75
431.903	11.75
432.683	4.75
433.464	5.75
434.244	8.75
435.024	7.75
435.804	7.75
436.584	6.75
437.364	9.75
438.144	8.75
438.924	8.75
439.704	8.75
440.483	8.75
441.263	13.75
442.042	12.75
442.822	13.75
443.601	12.75
444.38	16.75
445.16	14.75
445.939	14.75
446.718	16.75
447.497	17.75
448.276	22.75
449.054	23.75
449.833	21.75
450.612	25.75
451.391	26.75
452.169	28.75
452.948	31.75
453.726	38.75
454.504	37.75
455.282	42.75
456.061	45.75
456.839	49.75
457.617	57.75
458.395	65.75
459.172	69.75
459.95	74.75
460.728	86.75
461.506	97.75
462.283	109.75
463.061	116.75
463.838	132.75
464.615	147.75
465.393	167.75
466.17	185.75
466.947	207.75
467.724	226.75
468.501	257.75
469.278	278.75
470.055	314.75
470.831	338.75
471.608	386.75
472.385	425.75
473.161	478.75
473.938	532.75
474.714	582.75
475.49	642.75
476.266	714.75
477.043	793.75
477.819	858.75
478.595	959.75
479.371	1050.75
480.146	1161.75
480.922	1276.75
481.698	1400.75
482.473	1556.75
483.249	1705.75
484.024	1865.75
484.8	2058.75
485.575	2250.75
486.35	2480.75
487.126	2726.75
487.901	2975.75
488.676	3236.75
489.451	3577.75
490.225	3953.75
491	4305.75
491.775	4718.75
492.55	5140.75
493.324	5610.75
494.099	6094.75
494.873	6691.75
495.647	7264.75
496.422	7873.75
497.196	8512.75
497.97	9162.75
498.744	9843.75
499.518	10551.75
500.292	11199.75
501.066	11954.75
501.839	12593.75
502.613	13240.75
503.387	13858.75
504.16	14410.75
504.934	14875.75
505.707	15251.75
506.48	15542.75
507.253	15785.75
508.027	15923.75
508.8	15988.75
509.573	15889.75
510.346	15708.75
511.118	15490.75
511.891	15134.75
512.664	14691.75
513.437	14268.75
514.209	13809.75
514.982	13249.75
515.754	12749.75
516.526	12274.75
517.298	11740.75
518.071	11201.75
518.843	10749.75
519.615	10346.75
520.387	9833.75
521.159	9452.75
521.93	9088.75
522.702	8723.75
523.474	8413.75
524.245	8050.75
525.017	7732.75
525.788	7417.75
526.56	7094.75
527.331	6823.75
528.102	6539.75
528.873	6263.75
529.644	6043.75
530.415	5729.75
531.186	5446.75
531.957	5190.75
532.728	4923.75
533.498	4675.75
534.269	4420.75
535.039	4193.75
535.81	3982.75
536.58	3793.75
537.351	3548.75
538.121	3370.75
538.891	3180.75
539.661	2989.75
540.431	2846.75
541.201	2668.75
541.971	2549.75
542.741	2396.75
543.51	2274.75
544.28	2159.75
545.05	2067.75
545.819	1961.75
546.588	1848.75
547.358	1767.75
548.127	1679.75
548.896	1579.75
549.665	1514.75
550.434	1437.75
551.203	1367.75
551.972	1289.75
552.741	1220.75
553.51	1163.75
554.278	1106.75
555.047	1039.75
555.815	976.75
556.584	929.75
557.352	862.75
558.121	832.75
558.889	773.75
559.657	737.75
560.425	690.75
561.193	658.75
561.961	613.75
562.729	587.75
563.496	554.75
564.264	522.75
565.032	497.75
565.799	460.75
566.567	438.75
567.334	416.75
568.101	387.75
568.869	371.75
569.636	346.75
570.403	321.75
571.17	309.75
571.937	291.75
572.704	271.75
573.471	254.75
574.237	249.75
575.004	225.75
575.771	221.75
576.537	197.75
577.303	192.75
578.07	176.75
578.836	168.75
579.602	157.75
580.368	150.75
581.134	143.75
581.9	137.75
582.666	127.75
583.432	123.75
584.198	114.75
584.964	105.75
585.729	103.75
586.495	98.75
587.26	87.75
588.025	88.75
588.791	85.75
589.556	79.75
590.321	73.75
591.086	67.75
591.851	62.75
592.616	62.75
593.381	58.75
594.146	57.75
594.911	53.75
595.675	47.75
596.44	45.75
597.204	46.75
597.969	41.75
598.733	42.75
599.497	36.75
600.261	39.75
601.025	35.75
601.79	36.75
602.553	36.75
603.317	28.75
604.081	29.75
604.845	29.75
605.609	26.75
606.372	25.75
607.136	28.75
607.899	23.75
608.662	23.75
609.426	22.75
610.189	19.75
610.952	21.75
611.715	20.75
612.478	17.75
613.241	18.75
614.004	16.75
614.767	17.75
615.529	17.75
616.292	13.75
617.055	14.75
617.817	13.75
618.579	13.75
619.342	13.75
620.104	13.75
620.866	10.75
621.628	12.75
622.39	11.75
623.152	11.75
623.914	8.75
624.676	8.75
625.438	9.75
626.199	8.75
626.961	8.75
627.722	7.75
628.484	9.75
629.245	9.75
630.006	6.75
630.768	9.75
631.529	7.75
632.29	5.75
633.051	6.75
633.812	5.75
634.573	6.75
635.333	5.75
636.094	8.75
636.855	7.75
637.615	8.75
638.376	7.75
639.136	4.75
639.896	4.75
640.657	2.75
641.417	4.75
642.177	7.75
642.937	4.75
643.697	4.75
644.457	4.75
645.216	6.75
645.976	3.75
646.736	5.75
647.495	4.75
648.255	4.75
649.014	3.75
649.774	4.75
650.533	6.75
651.292	4.75
652.051	2.75
652.81	3.75
653.569	2.75
654.328	0.75
655.087	3.75
655.846	3.75
656.604	1.75
657.363	3.75
658.121	0.75
658.88	0.75
659.638	1.75
660.397	1.75
661.155	3.75
661.913	2.75
662.671	2.75
663.429	2.75
664.187	2.75
664.945	3.75
665.703	1.75
666.46	2.75
667.218	2.75
667.976	1.75
668.733	2.75
669.49	2.75
670.248	1.75
671.005	1.75
671.762	1.75
672.519	3.75
673.276	4.75
674.033	1.75
674.79	3.75
675.547	3.75
676.304	-1.25
677.06	2.75
677.817	2.75
678.574	2.75
679.33	0.75
680.086	-0.25
680.843	2.75
681.599	1.75
682.355	0.75
683.111	1.75
683.867	1.75
684.623	3.75
685.379	0.75
686.135	1.75
686.89	0.75
687.646	2.75
688.402	2.75
689.157	2.75
689.912	1.75
690.668	3.75
691.423	1.75
692.178	1.75
692.933	2.75
693.688	2.75
694.443	3.75
695.198	2.75
695.953	0.75
696.708	-0.25
697.462	0.75
698.217	0.75
698.972	1.75
699.726	2.75
700.48	3.75
701.235	1.75
701.989	3.75
702.743	0.75
703.497	1.75
704.251	2.75
705.005	0.75
705.759	1.75
706.513	0.75
707.266	0.75
708.02	0.75
708.774	1.75
709.527	-0.25
710.28	1.75
711.034	4.75
711.787	1.75
712.54	2.75
713.293	2.75
714.046	1.75
714.799	1.75
715.552	2.75
716.305	0.75
717.058	0.75
717.81	0.75
718.563	2.75
719.315	2.75
720.068	1.75
720.82	-0.25
721.573	1.75
722.325	-0.25
723.077	2.75
723.829	1.75
724.581	-1.25
725.333	1.75
726.085	0.75
726.836	2.75
727.588	-2.25
728.34	1.75
729.091	2.75
729.843	0.75
730.594	1.75
731.346	2.75
732.097	1.75
732.848	0.75
733.599	1.75
734.35	1.75
735.101	2.75
735.852	1.75
736.603	1.75
737.354	2.75
738.104	1.75
738.855	3.75
739.605	2.75
740.356	2.75
741.106	3.75
741.856	0.75
742.607	4.75
743.357	0.75
744.107	1.75
744.857	2.75
745.607	1.75
746.357	1.75
747.106	0.75
747.856	2.75
748.606	2.75
749.355	3.75
750.105	3.75
750.854	1.75
751.603	1.75
752.353	-0.25
753.102	1.75
753.851	3.75
754.6	1.75
755.349	2.75
756.098	3.75
756.847	2.75
757.595	2.75
758.344	1.75
759.093	2.75
759.841	1.75
760.589	2.75
761.338	3.75
762.086	1.75
762.834	2.75
763.582	4.75
764.331	3.75
765.079	0.75
765.826	1.75
766.574	3.75
767.322	2.75
768.07	2.75
768.817	5.75
769.565	1.75
770.312	4.75
771.06	2.75
771.807	0.75
772.554	2.75
773.302	3.75
774.049	6.75
774.796	2.75
775.543	2.75
776.29	6.75
777.036	2.75
777.783	6.75
778.53	2.75
779.276	4.75
780.023	4.75
780.769	3.75
781.516	3.75
782.262	2.75
783.008	7.75
783.754	3.75
784.5	3.75
785.246	3.75
785.992	5.75
786.738	2.75
787.484	5.75
788.23	3.75
788.975	4.75
789.721	3.75
790.466	2.75
791.212	3.75
791.957	4.75
792.702	3.75
793.447	5.75
794.193	6.75
794.938	4.75
795.683	7.75
796.427	4.75
797.172	3.75
797.917	1.75
798.662	3.75
799.406	2.75
800.151	6.75
800.895	6.75
801.64	2.75
802.384	3.75
803.128	3.75
803.872	2.75
804.616	5.75
805.36	4.75
806.104	3.75
806.848	2.75
807.592	3.75
808.336	4.75
809.079	1.75
809.823	1.75
810.566	3.75
811.31	4.75
812.053	3.75
812.796	4.75
813.539	0.75
814.283	4.75
815.026	1.75
815.769	2.75
816.511	4.75
817.254	1.75
817.997	4.75
818.74	0.75
819.482	4.75
820.225	0.75
820.967	4.75
821.71	2.75
822.452	2.75
823.194	3.75
823.936	0.75
824.678	2.75
825.42	1.75
826.162	2.75
826.904	4.75
827.646	2.75
828.388	2.75
829.129	1.75
829.871	2.75
830.612	2.75
831.354	0.75
832.095	2.75
832.836	1.75
833.577	2.75
834.319	3.75
835.06	2.75
835.801	1.75
836.542	3.75
837.282	1.75
838.023	1.75
838.764	3.75
839.504	-1.25
840.245	0.75
840.985	1.75
841.726	-0.25
842.466	0.75
843.206	0.75
843.946	0.75
844.687	0.75
845.427	1.75
846.166	2.75
846.906	1.75
847.646	1.75
848.386	0.75
849.125	2.75
849.865	0.75
850.605	-2.25
851.344	-0.25
852.083	1.75
852.823	2.75
853.562	2.75
854.301	-0.25
855.04	1.75
855.779	0.75
856.518	1.75
857.257	0.75
857.995	-0.25
858.734	-0.25
859.473	1.75
860.211	0.75
860.95	1.75
861.688	-0.25
862.426	-0.25
863.165	-1.25
863.903	1.75
864.641	0.75
865.379	-2.25
866.117	0.75
866.855	0.75
867.593	-0.25
868.33	0.75
869.068	0.75
869.806	0.75
870.543	0.75
871.28	0.75
872.018	0.75
872.755	0.75
873.492	-2.25
874.229	-1.25
874.967	1.75
875.703	-0.25
876.44	1.75
877.177	-0.25
877.914	0.75
878.651	0.75
879.387	0.75
880.124	1.75
880.86	1.75
881.597	-0.25
882.333	-1.25
883.069	-0.25
883.806	1.75
884.542	-0.25
885.278	0.75
886.014	1.75
886.749	-1.25
887.485	1.75
888.221	0.75
888.957	-0.25
889.692	-0.25
890.428	1.75
891.163	0.75
891.899	1.75
892.634	-2.25
893.369	-1.25
894.104	-3.25
894.839	0.75
895.574	0.75
896.309	1.75
897.044	0.75
897.779	1.75
898.514	-1.25
899.248	0.75
899.983	-1.25
900.717	1.75
901.452	-2.25
902.186	0.75
902.92	-1.25
903.654	0.75
904.389	-0.25
905.123	-0.25
905.857	0.75
906.59	-0.25
907.324	0.75
908.058	-0.25
908.792	-0.25
909.525	-0.25
910.259	-1.25
910.992	-0.25
911.726	-1.25
912.459	1.75
913.192	0.75
913.925	1.75
914.658	0.75
915.391	-0.25
916.124	0.75
916.857	-0.25
917.59	2.75
918.323	0.75
919.055	-1.25
919.788	-0.25
920.521	-2.25
921.253	-4.25
921.985	-2.25
922.718	-1.25
923.45	-0.25
924.182	-0.25
924.914	-0.25
925.646	-0.25
926.378	-0.25
927.11	0.75
927.841	-1.25
928.573	-0.25
929.305	-1.25
930.036	0.75
930.768	-1.25
931.499	0.75
932.23	0.75
932.962	-1.25
933.693	-1.25
934.424	-2.25
935.155	-1.25
935.886	-0.25
936.617	-0.25
937.348	-2.25
938.078	0.75
938.809	0.75
939.54	-1.25
940.27	0.75
941.001	-0.25
941.731	-0.25
942.461	-0.25
943.191	0.75
943.922	-1.25
944.652	-0.25
945.382	0.75
946.112	-2.25
946.841	-0.25
947.571	-1.25
948.301	-1.25
949.031	-1.25
949.76	-2.25
950.49	0.75
951.219	-1.25
951.948	-0.25
952.678	-0.25
953.407	-0.25
954.136	0.75
954.865	-1.25
955.594	-1.25
956.323	0.75
957.052	-0.25
957.78	0.75
958.509	-1.25
959.238	-1.25
959.966	-0.25
960.695	0.75
961.423	-1.25
962.151	0.75
962.88	0.75
963.608	-1.25
964.336	-1.25
965.064	-0.25
965.792	-0.25
966.52	-0.25
967.247	-0.25
967.975	-1.25
968.703	0.75
969.43	-2.25
970.158	1.75
970.885	1.75
971.613	0.75
972.34	0.75
973.067	-1.25
973.794	-0.25
974.521	-1.25
975.248	-1.25
975.975	-2.25
976.702	0.75
977.429	-2.25
978.156	-2.25
978.882	-0.25
979.609	0.75
980.335	-0.25
981.062	-0.25
981.788	-0.25
982.514	-0.25
983.24	-2.25
983.967	-2.25
984.693	-0.25
985.419	-1.25
986.144	0.75
986.87	0.75
987.596	0.75
988.322	-0.25
989.047	-2.25
989.773	-0.25
990.498	-1.25
991.224	0.75
991.949	0.75
992.674	-0.25
993.399	0.75
994.124	-1.25
994.849	-0.25
995.574	-1.25
996.299	-2.25
997.024	0.75
997.749	-0.25
998.473	-3.25
999.198	-0.25
999.922	0.75
1000.647	1.75
1001.371	3.75
1002.095	-2.25
1002.82	-2.25
1003.544	-0.25
1004.268	-0.25
1004.992	-1.25
1005.716	-2.25
1006.439	-2.25
1007.163	0.75
1007.887	-1.25
1008.611	-2.25
1009.334	-0.25
1010.058	-1.25
1010.781	0.75
1011.504	-0.25
1012.228	-0.25
1012.951	-0.25
1013.674	0.75
1014.397	-0.25
1015.12	0.75
