节点500_145_QEPB04081__11__11-29-07-799.txt的数据

Date: Wed Nov 12 11:29:07 CST 2025
User: PC
Spectrometer: QEPB0408
触发模式: 0
积分时间 (秒): 1.000000E-2
Scans to average: 1
启用暗噪声校正: true
启用非线性校正: false
滑动平均宽度: 0
X轴模式: Wavelengths
Number of Pixels in Spectrum: 1044
>>>>>Begin Spectral Data<<<<<
220.843	1.88
221.644	-2.12
222.444	-3.12
223.244	-1.12
224.045	-0.12
224.845	-0.12
225.645	-0.12
226.445	0.88
227.245	-2.12
228.045	-3.12
228.845	-1.12
229.645	0.88
230.444	-0.12
231.244	-2.12
232.043	1.88
232.843	-0.12
233.642	0.88
234.442	0.88
235.241	1.88
236.04	-0.12
236.839	-1.12
237.638	0.88
238.437	0.88
239.236	-0.12
240.035	0.88
240.833	0.88
241.632	1.88
242.43	-1.12
243.229	0.88
244.027	-0.12
244.826	3.88
245.624	-0.12
246.422	0.88
247.22	3.88
248.018	-2.12
248.816	2.88
249.614	2.88
250.412	-0.12
251.21	2.88
252.007	-0.12
252.805	3.88
253.602	2.88
254.4	0.88
255.197	1.88
255.994	3.88
256.791	1.88
257.589	3.88
258.386	1.88
259.183	0.88
259.979	4.88
260.776	3.88
261.573	2.88
262.37	4.88
263.166	3.88
263.963	4.88
264.759	4.88
265.556	5.88
266.352	4.88
267.148	6.88
267.944	3.88
268.74	5.88
269.536	6.88
270.332	6.88
271.128	8.88
271.924	8.88
272.719	6.88
273.515	7.88
274.311	5.88
275.106	8.88
275.901	8.88
276.697	8.88
277.492	9.88
278.287	9.88
279.082	10.88
279.877	10.88
280.672	11.88
281.467	8.88
282.262	8.88
283.056	8.88
283.851	11.88
284.646	12.88
285.44	10.88
286.234	12.88
287.029	9.88
287.823	10.88
288.617	8.88
289.411	9.88
290.205	12.88
290.999	9.88
291.793	12.88
292.587	8.88
293.381	10.88
294.174	7.88
294.968	10.88
295.761	9.88
296.555	10.88
297.348	8.88
298.141	8.88
298.935	8.88
299.728	10.88
300.521	10.88
301.314	7.88
302.107	8.88
302.899	11.88
303.692	8.88
304.485	9.88
305.277	8.88
306.07	8.88
306.862	9.88
307.655	7.88
308.447	5.88
309.239	7.88
310.031	5.88
310.823	6.88
311.615	7.88
312.407	4.88
313.199	6.88
313.991	5.88
314.783	6.88
315.574	6.88
316.366	6.88
317.157	4.88
317.949	6.88
318.74	6.88
319.531	1.88
320.322	5.88
321.113	2.88
321.904	5.88
322.695	6.88
323.486	2.88
324.277	5.88
325.068	4.88
325.858	7.88
326.649	3.88
327.439	5.88
328.23	4.88
329.02	2.88
329.81	4.88
330.6	3.88
331.391	5.88
332.181	3.88
332.971	3.88
333.76	1.88
334.55	5.88
335.34	1.88
336.13	2.88
336.919	2.88
337.709	4.88
338.498	4.88
339.287	2.88
340.077	2.88
340.866	3.88
341.655	2.88
342.444	3.88
343.233	3.88
344.022	1.88
344.811	1.88
345.6	2.88
346.388	5.88
347.177	0.88
347.965	3.88
348.754	3.88
349.542	2.88
350.33	2.88
351.119	4.88
351.907	3.88
352.695	4.88
353.483	3.88
354.271	1.88
355.059	3.88
355.846	2.88
356.634	1.88
357.422	1.88
358.209	1.88
358.997	2.88
359.784	1.88
360.571	0.88
361.359	1.88
362.146	1.88
362.933	4.88
363.72	4.88
364.507	3.88
365.294	3.88
366.081	0.88
366.867	3.88
367.654	2.88
368.44	4.88
369.227	0.88
370.013	0.88
370.8	1.88
371.586	-0.12
372.372	2.88
373.158	2.88
373.944	3.88
374.73	2.88
375.516	1.88
376.302	3.88
377.088	0.88
377.873	2.88
378.659	0.88
379.445	0.88
380.23	1.88
381.015	1.88
381.801	-0.12
382.586	1.88
383.371	1.88
384.156	2.88
384.941	2.88
385.726	1.88
386.511	0.88
387.296	2.88
388.08	-1.12
388.865	3.88
389.649	3.88
390.434	4.88
391.218	1.88
392.003	4.88
392.787	5.88
393.571	1.88
394.355	3.88
395.139	4.88
395.923	0.88
396.707	2.88
397.491	-0.12
398.274	1.88
399.058	1.88
399.842	2.88
400.625	2.88
401.408	4.88
402.192	1.88
402.975	4.88
403.758	4.88
404.541	1.88
405.324	2.88
406.107	1.88
406.89	3.88
407.673	4.88
408.456	3.88
409.238	4.88
410.021	5.88
410.803	5.88
411.586	4.88
412.368	4.88
413.151	3.88
413.933	6.88
414.715	4.88
415.497	1.88
416.279	3.88
417.061	3.88
417.843	4.88
418.624	5.88
419.406	3.88
420.188	5.88
420.969	4.88
421.751	4.88
422.532	4.88
423.313	5.88
424.095	6.88
424.876	5.88
425.657	6.88
426.438	7.88
427.219	6.88
428	7.88
428.78	7.88
429.561	6.88
430.342	4.88
431.122	5.88
431.903	7.88
432.683	9.88
433.464	8.88
434.244	7.88
435.024	8.88
435.804	7.88
436.584	8.88
437.364	9.88
438.144	10.88
438.924	9.88
439.704	9.88
440.483	9.88
441.263	12.88
442.042	9.88
442.822	9.88
443.601	12.88
444.38	14.88
445.16	16.88
445.939	13.88
446.718	16.88
447.497	17.88
448.276	17.88
449.054	18.88
449.833	19.88
450.612	22.88
451.391	24.88
452.169	24.88
452.948	26.88
453.726	29.88
454.504	29.88
455.282	36.88
456.061	40.88
456.839	42.88
457.617	47.88
458.395	56.88
459.172	59.88
459.95	65.88
460.728	73.88
461.506	79.88
462.283	88.88
463.061	97.88
463.838	110.88
464.615	121.88
465.393	141.88
466.17	148.88
466.947	170.88
467.724	192.88
468.501	215.88
469.278	236.88
470.055	265.88
470.831	296.88
471.608	333.88
472.385	370.88
473.161	419.88
473.938	465.88
474.714	510.88
475.49	575.88
476.266	641.88
477.043	718.88
477.819	805.88
478.595	889.88
479.371	993.88
480.146	1110.88
480.922	1219.88
481.698	1361.88
482.473	1520.88
483.249	1701.88
484.024	1865.88
484.8	2076.88
485.575	2315.88
486.35	2584.88
487.126	2856.88
487.901	3153.88
488.676	3503.88
489.451	3925.88
490.225	4301.88
491	4778.88
491.775	5291.88
492.55	5840.88
493.324	6439.88
494.099	7093.88
494.873	7766.88
495.647	8482.88
496.422	9235.88
497.196	10030.88
497.97	10818.88
498.744	11684.88
499.518	12527.88
500.292	13299.88
501.066	14127.88
501.839	14869.88
502.613	15475.88
503.387	16154.88
504.16	16651.88
504.934	17091.88
505.707	17326.88
506.48	17476.88
507.253	17501.88
508.027	17407.88
508.8	17259.88
509.573	16911.88
510.346	16529.88
511.118	16033.88
511.891	15471.88
512.664	14880.88
513.437	14237.88
514.209	13609.88
514.982	13031.88
515.754	12392.88
516.526	11844.88
517.298	11318.88
518.071	10802.88
518.843	10315.88
519.615	9844.88
520.387	9452.88
521.159	9104.88
521.93	8736.88
522.702	8392.88
523.474	8059.88
524.245	7741.88
525.017	7403.88
525.788	7126.88
526.56	6818.88
527.331	6513.88
528.102	6213.88
528.873	5932.88
529.644	5669.88
530.415	5354.88
531.186	5094.88
531.957	4842.88
532.728	4589.88
533.498	4342.88
534.269	4080.88
535.039	3827.88
535.81	3609.88
536.58	3394.88
537.351	3205.88
538.121	3064.88
538.891	2859.88
539.661	2716.88
540.431	2563.88
541.201	2441.88
541.971	2299.88
542.741	2183.88
543.51	2095.88
544.28	1968.88
545.05	1872.88
545.819	1778.88
546.588	1683.88
547.358	1608.88
548.127	1523.88
548.896	1449.88
549.665	1386.88
550.434	1285.88
551.203	1223.88
551.972	1175.88
552.741	1115.88
553.51	1042.88
554.278	984.88
555.047	931.88
555.815	870.88
556.584	824.88
557.352	780.88
558.121	735.88
558.889	694.88
559.657	649.88
560.425	611.88
561.193	582.88
561.961	532.88
562.729	510.88
563.496	487.88
564.264	454.88
565.032	425.88
565.799	405.88
566.567	382.88
567.334	358.88
568.101	337.88
568.869	320.88
569.636	296.88
570.403	285.88
571.17	266.88
571.937	256.88
572.704	241.88
573.471	229.88
574.237	216.88
575.004	202.88
575.771	185.88
576.537	176.88
577.303	167.88
578.07	155.88
578.836	148.88
579.602	140.88
580.368	137.88
581.134	124.88
581.9	117.88
582.666	113.88
583.432	106.88
584.198	104.88
584.964	93.88
585.729	84.88
586.495	80.88
587.26	78.88
588.025	75.88
588.791	70.88
589.556	63.88
590.321	64.88
591.086	57.88
591.851	57.88
592.616	46.88
593.381	50.88
594.146	45.88
594.911	49.88
595.675	43.88
596.44	41.88
597.204	37.88
597.969	40.88
598.733	38.88
599.497	37.88
600.261	33.88
601.025	30.88
601.79	27.88
602.553	30.88
603.317	29.88
604.081	29.88
604.845	25.88
605.609	23.88
606.372	23.88
607.136	23.88
607.899	16.88
608.662	22.88
609.426	21.88
610.189	18.88
610.952	16.88
611.715	13.88
612.478	18.88
613.241	18.88
614.004	13.88
614.767	14.88
615.529	12.88
616.292	13.88
617.055	13.88
617.817	10.88
618.579	12.88
619.342	13.88
620.104	12.88
620.866	12.88
621.628	11.88
622.39	7.88
623.152	9.88
623.914	9.88
624.676	10.88
625.438	7.88
626.199	8.88
626.961	8.88
627.722	8.88
628.484	5.88
629.245	8.88
630.006	6.88
630.768	7.88
631.529	10.88
632.29	5.88
633.051	5.88
633.812	6.88
634.573	3.88
635.333	6.88
636.094	2.88
636.855	5.88
637.615	6.88
638.376	4.88
639.136	3.88
639.896	3.88
640.657	6.88
641.417	3.88
642.177	2.88
642.937	6.88
643.697	4.88
644.457	3.88
645.216	4.88
645.976	5.88
646.736	1.88
647.495	3.88
648.255	1.88
649.014	1.88
649.774	3.88
650.533	2.88
651.292	2.88
652.051	2.88
652.81	3.88
653.569	2.88
654.328	1.88
655.087	1.88
655.846	3.88
656.604	2.88
657.363	4.88
658.121	0.88
658.88	3.88
659.638	4.88
660.397	0.88
661.155	1.88
661.913	1.88
662.671	2.88
663.429	2.88
664.187	4.88
664.945	2.88
665.703	2.88
666.46	2.88
667.218	3.88
667.976	2.88
668.733	2.88
669.49	3.88
670.248	0.88
671.005	2.88
671.762	0.88
672.519	1.88
673.276	1.88
674.033	0.88
674.79	0.88
675.547	1.88
676.304	3.88
677.06	1.88
677.817	0.88
678.574	-0.12
679.33	1.88
680.086	2.88
680.843	2.88
681.599	2.88
682.355	2.88
683.111	0.88
683.867	1.88
684.623	1.88
685.379	0.88
686.135	1.88
686.89	2.88
687.646	1.88
688.402	2.88
689.157	-0.12
689.912	1.88
690.668	3.88
691.423	0.88
692.178	1.88
692.933	1.88
693.688	2.88
694.443	2.88
695.198	1.88
695.953	0.88
696.708	1.88
697.462	0.88
698.217	0.88
698.972	0.88
699.726	2.88
700.48	-0.12
701.235	0.88
701.989	0.88
702.743	0.88
703.497	0.88
704.251	2.88
705.005	0.88
705.759	0.88
706.513	2.88
707.266	0.88
708.02	2.88
708.774	2.88
709.527	0.88
710.28	1.88
711.034	0.88
711.787	4.88
712.54	0.88
713.293	1.88
714.046	2.88
714.799	2.88
715.552	2.88
716.305	0.88
717.058	0.88
717.81	0.88
718.563	0.88
719.315	1.88
720.068	0.88
720.82	0.88
721.573	1.88
722.325	0.88
723.077	1.88
723.829	0.88
724.581	1.88
725.333	0.88
726.085	1.88
726.836	-0.12
727.588	1.88
728.34	1.88
729.091	2.88
729.843	1.88
730.594	0.88
731.346	3.88
732.097	1.88
732.848	1.88
733.599	1.88
734.35	1.88
735.101	1.88
735.852	1.88
736.603	1.88
737.354	1.88
738.104	1.88
738.855	2.88
739.605	1.88
740.356	2.88
741.106	0.88
741.856	3.88
742.607	1.88
743.357	1.88
744.107	2.88
744.857	1.88
745.607	1.88
746.357	3.88
747.106	3.88
747.856	1.88
748.606	1.88
749.355	1.88
750.105	1.88
750.854	3.88
751.603	0.88
752.353	2.88
753.102	2.88
753.851	2.88
754.6	3.88
755.349	3.88
756.098	3.88
756.847	0.88
757.595	1.88
758.344	2.88
759.093	3.88
759.841	4.88
760.589	1.88
761.338	4.88
762.086	0.88
762.834	2.88
763.582	1.88
764.331	1.88
765.079	2.88
765.826	2.88
766.574	3.88
767.322	2.88
768.07	4.88
768.817	4.88
769.565	2.88
770.312	2.88
771.06	2.88
771.807	4.88
772.554	3.88
773.302	4.88
774.049	4.88
774.796	4.88
775.543	6.88
776.29	3.88
777.036	2.88
777.783	5.88
778.53	5.88
779.276	4.88
780.023	4.88
780.769	4.88
781.516	4.88
782.262	4.88
783.008	3.88
783.754	3.88
784.5	6.88
785.246	4.88
785.992	5.88
786.738	5.88
787.484	3.88
788.23	5.88
788.975	4.88
789.721	5.88
790.466	4.88
791.212	6.88
791.957	4.88
792.702	2.88
793.447	5.88
794.193	4.88
794.938	5.88
795.683	4.88
796.427	4.88
797.172	3.88
797.917	4.88
798.662	1.88
799.406	3.88
800.151	3.88
800.895	3.88
801.64	3.88
802.384	3.88
803.128	6.88
803.872	4.88
804.616	3.88
805.36	6.88
806.104	5.88
806.848	3.88
807.592	3.88
808.336	2.88
809.079	4.88
809.823	3.88
810.566	3.88
811.31	2.88
812.053	1.88
812.796	1.88
813.539	3.88
814.283	3.88
815.026	2.88
815.769	1.88
816.511	1.88
817.254	4.88
817.997	1.88
818.74	1.88
819.482	3.88
820.225	2.88
820.967	3.88
821.71	0.88
822.452	3.88
823.194	1.88
823.936	2.88
824.678	1.88
825.42	2.88
826.162	3.88
826.904	1.88
827.646	1.88
828.388	1.88
829.129	0.88
829.871	3.88
830.612	1.88
831.354	2.88
832.095	1.88
832.836	2.88
833.577	4.88
834.319	1.88
835.06	1.88
835.801	1.88
836.542	2.88
837.282	2.88
838.023	1.88
838.764	3.88
839.504	-2.12
840.245	2.88
840.985	-0.12
841.726	3.88
842.466	1.88
843.206	3.88
843.946	2.88
844.687	1.88
845.427	0.88
846.166	2.88
846.906	1.88
847.646	2.88
848.386	1.88
849.125	1.88
849.865	0.88
850.605	1.88
851.344	0.88
852.083	0.88
852.823	0.88
853.562	1.88
854.301	-0.12
855.04	-0.12
855.779	2.88
856.518	0.88
857.257	0.88
857.995	-0.12
858.734	-1.12
859.473	2.88
860.211	1.88
860.95	3.88
861.688	0.88
862.426	1.88
863.165	0.88
863.903	-0.12
864.641	2.88
865.379	1.88
866.117	1.88
866.855	0.88
867.593	-1.12
868.33	0.88
869.068	1.88
869.806	0.88
870.543	0.88
871.28	0.88
872.018	-0.12
872.755	-0.12
873.492	1.88
874.229	1.88
874.967	0.88
875.703	-0.12
876.44	0.88
877.177	-0.12
877.914	0.88
878.651	0.88
879.387	-0.12
880.124	-1.12
880.86	0.88
881.597	-0.12
882.333	-0.12
883.069	1.88
883.806	-0.12
884.542	-1.12
885.278	0.88
886.014	-1.12
886.749	-1.12
887.485	0.88
888.221	-1.12
888.957	-2.12
889.692	-1.12
890.428	-0.12
891.163	-0.12
891.899	-0.12
892.634	0.88
893.369	-0.12
894.104	-0.12
894.839	-1.12
895.574	0.88
896.309	0.88
897.044	-0.12
897.779	1.88
898.514	0.88
899.248	0.88
899.983	-0.12
900.717	-0.12
901.452	-0.12
902.186	0.88
902.92	-0.12
903.654	1.88
904.389	-0.12
905.123	0.88
905.857	-2.12
906.59	-0.12
907.324	-4.12
908.058	-0.12
908.792	-1.12
909.525	1.88
910.259	-1.12
910.992	1.88
911.726	1.88
912.459	-1.12
913.192	0.88
913.925	-0.12
914.658	-0.12
915.391	1.88
916.124	-1.12
916.857	-0.12
917.59	-3.12
918.323	1.88
919.055	0.88
919.788	-1.12
920.521	0.88
921.253	0.88
921.985	-1.12
922.718	-2.12
923.45	0.88
924.182	0.88
924.914	-2.12
925.646	0.88
926.378	0.88
927.11	0.88
927.841	-1.12
928.573	1.88
929.305	-0.12
930.036	0.88
930.768	-2.12
931.499	1.88
932.23	-0.12
932.962	-1.12
933.693	1.88
934.424	0.88
935.155	-1.12
935.886	1.88
936.617	-1.12
937.348	0.88
938.078	-0.12
938.809	0.88
939.54	0.88
940.27	-1.12
941.001	-0.12
941.731	-0.12
942.461	-1.12
943.191	-0.12
943.922	1.88
944.652	-0.12
945.382	-0.12
946.112	0.88
946.841	0.88
947.571	1.88
948.301	-2.12
949.031	1.88
949.76	-0.12
950.49	-1.12
951.219	-0.12
951.948	-3.12
952.678	0.88
953.407	-0.12
954.136	-1.12
954.865	0.88
955.594	-2.12
956.323	-1.12
957.052	-0.12
957.78	-0.12
958.509	-0.12
959.238	-1.12
959.966	0.88
960.695	-2.12
961.423	-1.12
962.151	-0.12
962.88	-1.12
963.608	1.88
964.336	-1.12
965.064	0.88
965.792	-1.12
966.52	1.88
967.247	-2.12
967.975	0.88
968.703	-0.12
969.43	-1.12
970.158	0.88
970.885	-3.12
971.613	1.88
972.34	0.88
973.067	-0.12
973.794	-2.12
974.521	-1.12
975.248	-2.12
975.975	-0.12
976.702	1.88
977.429	-0.12
978.156	-1.12
978.882	-2.12
979.609	-0.12
980.335	0.88
981.062	-1.12
981.788	-0.12
982.514	-0.12
983.24	-0.12
983.967	1.88
984.693	-0.12
985.419	0.88
986.144	-0.12
986.87	-0.12
987.596	0.88
988.322	0.88
989.047	-0.12
989.773	-0.12
990.498	0.88
991.224	-2.12
991.949	0.88
992.674	-1.12
993.399	-0.12
994.124	-0.12
994.849	-0.12
995.574	-0.12
996.299	1.88
997.024	-0.12
997.749	-1.12
998.473	0.88
999.198	-1.12
999.922	-1.12
1000.647	0.88
1001.371	2.88
1002.095	-1.12
1002.82	1.88
1003.544	-2.12
1004.268	0.88
1004.992	-0.12
1005.716	-0.12
1006.439	-1.12
1007.163	-2.12
1007.887	-1.12
1008.611	-0.12
1009.334	-0.12
1010.058	-0.12
1010.781	0.88
1011.504	0.88
1012.228	1.88
1012.951	0.88
1013.674	-2.12
1014.397	0.88
1015.12	-1.12
