节点500_145_QEPB04081__611__11-38-40-318.txt的数据

Date: Wed Nov 12 11:38:40 CST 2025
User: PC
Spectrometer: QEPB0408
触发模式: 0
积分时间 (秒): 1.000000E-2
Scans to average: 1
启用暗噪声校正: true
启用非线性校正: false
滑动平均宽度: 0
X轴模式: Wavelengths
Number of Pixels in Spectrum: 1044
>>>>>Begin Spectral Data<<<<<
220.843	1.38
221.644	-1.62
222.444	-1.62
223.244	0.38
224.045	1.38
224.845	0.38
225.645	-1.62
226.445	-1.62
227.245	1.38
228.045	-0.62
228.845	2.38
229.645	-1.62
230.444	0.38
231.244	1.38
232.043	0.38
232.843	1.38
233.642	1.38
234.442	2.38
235.241	-0.62
236.04	2.38
236.839	2.38
237.638	1.38
238.437	4.38
239.236	-1.62
240.035	1.38
240.833	2.38
241.632	1.38
242.43	1.38
243.229	0.38
244.027	1.38
244.826	0.38
245.624	4.38
246.422	-0.62
247.22	0.38
248.018	1.38
248.816	1.38
249.614	0.38
250.412	3.38
251.21	3.38
252.007	5.38
252.805	3.38
253.602	3.38
254.4	1.38
255.197	2.38
255.994	0.38
256.791	2.38
257.589	3.38
258.386	4.38
259.183	3.38
259.979	6.38
260.776	5.38
261.573	4.38
262.37	4.38
263.166	5.38
263.963	7.38
264.759	4.38
265.556	2.38
266.352	7.38
267.148	3.38
267.944	5.38
268.74	5.38
269.536	5.38
270.332	5.38
271.128	2.38
271.924	9.38
272.719	7.38
273.515	5.38
274.311	5.38
275.106	11.38
275.901	10.38
276.697	9.38
277.492	9.38
278.287	7.38
279.082	8.38
279.877	10.38
280.672	9.38
281.467	8.38
282.262	7.38
283.056	9.38
283.851	6.38
284.646	9.38
285.44	8.38
286.234	10.38
287.029	9.38
287.823	9.38
288.617	10.38
289.411	13.38
290.205	8.38
290.999	11.38
291.793	10.38
292.587	11.38
293.381	9.38
294.174	10.38
294.968	11.38
295.761	10.38
296.555	8.38
297.348	7.38
298.141	9.38
298.935	9.38
299.728	8.38
300.521	10.38
301.314	9.38
302.107	10.38
302.899	6.38
303.692	7.38
304.485	8.38
305.277	9.38
306.07	8.38
306.862	9.38
307.655	6.38
308.447	6.38
309.239	7.38
310.031	6.38
310.823	7.38
311.615	8.38
312.407	5.38
313.199	7.38
313.991	5.38
314.783	7.38
315.574	6.38
316.366	7.38
317.157	6.38
317.949	1.38
318.74	6.38
319.531	3.38
320.322	5.38
321.113	5.38
321.904	5.38
322.695	8.38
323.486	6.38
324.277	4.38
325.068	4.38
325.858	4.38
326.649	3.38
327.439	4.38
328.23	4.38
329.02	3.38
329.81	2.38
330.6	5.38
331.391	2.38
332.181	1.38
332.971	3.38
333.76	3.38
334.55	3.38
335.34	8.38
336.13	1.38
336.919	3.38
337.709	3.38
338.498	4.38
339.287	2.38
340.077	2.38
340.866	7.38
341.655	5.38
342.444	2.38
343.233	3.38
344.022	4.38
344.811	5.38
345.6	3.38
346.388	3.38
347.177	2.38
347.965	6.38
348.754	3.38
349.542	3.38
350.33	4.38
351.119	2.38
351.907	3.38
352.695	2.38
353.483	3.38
354.271	5.38
355.059	2.38
355.846	2.38
356.634	1.38
357.422	3.38
358.209	0.38
358.997	2.38
359.784	3.38
360.571	3.38
361.359	4.38
362.146	3.38
362.933	2.38
363.72	3.38
364.507	1.38
365.294	3.38
366.081	2.38
366.867	2.38
367.654	3.38
368.44	2.38
369.227	2.38
370.013	3.38
370.8	3.38
371.586	1.38
372.372	2.38
373.158	7.38
373.944	2.38
374.73	2.38
375.516	3.38
376.302	4.38
377.088	1.38
377.873	3.38
378.659	2.38
379.445	2.38
380.23	2.38
381.015	3.38
381.801	1.38
382.586	2.38
383.371	0.38
384.156	2.38
384.941	4.38
385.726	3.38
386.511	3.38
387.296	3.38
388.08	2.38
388.865	2.38
389.649	2.38
390.434	2.38
391.218	1.38
392.003	3.38
392.787	3.38
393.571	1.38
394.355	2.38
395.139	3.38
395.923	5.38
396.707	5.38
397.491	2.38
398.274	1.38
399.058	0.38
399.842	3.38
400.625	1.38
401.408	2.38
402.192	3.38
402.975	3.38
403.758	5.38
404.541	2.38
405.324	4.38
406.107	4.38
406.89	2.38
407.673	4.38
408.456	4.38
409.238	4.38
410.021	3.38
410.803	5.38
411.586	4.38
412.368	3.38
413.151	4.38
413.933	4.38
414.715	4.38
415.497	4.38
416.279	6.38
417.061	5.38
417.843	3.38
418.624	5.38
419.406	2.38
420.188	5.38
420.969	2.38
421.751	5.38
422.532	5.38
423.313	6.38
424.095	6.38
424.876	4.38
425.657	6.38
426.438	7.38
427.219	7.38
428	6.38
428.78	4.38
429.561	5.38
430.342	9.38
431.122	7.38
431.903	7.38
432.683	9.38
433.464	6.38
434.244	10.38
435.024	8.38
435.804	6.38
436.584	10.38
437.364	7.38
438.144	7.38
438.924	11.38
439.704	9.38
440.483	13.38
441.263	15.38
442.042	12.38
442.822	14.38
443.601	17.38
444.38	15.38
445.16	14.38
445.939	17.38
446.718	18.38
447.497	20.38
448.276	21.38
449.054	24.38
449.833	25.38
450.612	27.38
451.391	28.38
452.169	30.38
452.948	34.38
453.726	37.38
454.504	42.38
455.282	44.38
456.061	47.38
456.839	54.38
457.617	58.38
458.395	63.38
459.172	76.38
459.95	84.38
460.728	91.38
461.506	97.38
462.283	110.38
463.061	125.38
463.838	140.38
464.615	155.38
465.393	175.38
466.17	190.38
466.947	208.38
467.724	237.38
468.501	270.38
469.278	282.38
470.055	321.38
470.831	352.38
471.608	396.38
472.385	431.38
473.161	483.38
473.938	537.38
474.714	600.38
475.49	647.38
476.266	721.38
477.043	790.38
477.819	871.38
478.595	959.38
479.371	1056.38
480.146	1156.38
480.922	1255.38
481.698	1388.38
482.473	1520.38
483.249	1667.38
484.024	1823.38
484.8	1992.38
485.575	2175.38
486.35	2382.38
487.126	2643.38
487.901	2887.38
488.676	3139.38
489.451	3430.38
490.225	3759.38
491	4107.38
491.775	4458.38
492.55	4835.38
493.324	5274.38
494.099	5772.38
494.873	6273.38
495.647	6770.38
496.422	7368.38
497.196	7956.38
497.97	8534.38
498.744	9140.38
499.518	9848.38
500.292	10492.38
501.066	11118.38
501.839	11780.38
502.613	12373.38
503.387	12949.38
504.16	13490.38
504.934	13990.38
505.707	14379.38
506.48	14708.38
507.253	14967.38
508.027	15124.38
508.8	15242.38
509.573	15228.38
510.346	15102.38
511.118	15003.38
511.891	14706.38
512.664	14385.38
513.437	13922.38
514.209	13591.38
514.982	13115.38
515.754	12612.38
516.526	12139.38
517.298	11657.38
518.071	11181.38
518.843	10685.38
519.615	10228.38
520.387	9851.38
521.159	9445.38
521.93	9036.38
522.702	8709.38
523.474	8352.38
524.245	8043.38
525.017	7743.38
525.788	7386.38
526.56	7129.38
527.331	6823.38
528.102	6516.38
528.873	6250.38
529.644	5984.38
530.415	5729.38
531.186	5466.38
531.957	5247.38
532.728	4967.38
533.498	4695.38
534.269	4503.38
535.039	4248.38
535.81	4024.38
536.58	3822.38
537.351	3601.38
538.121	3395.38
538.891	3218.38
539.661	3050.38
540.431	2885.38
541.201	2717.38
541.971	2558.38
542.741	2444.38
543.51	2299.38
544.28	2164.38
545.05	2081.38
545.819	1979.38
546.588	1880.38
547.358	1782.38
548.127	1712.38
548.896	1616.38
549.665	1532.38
550.434	1462.38
551.203	1386.38
551.972	1307.38
552.741	1245.38
553.51	1181.38
554.278	1109.38
555.047	1071.38
555.815	995.38
556.584	953.38
557.352	893.38
558.121	843.38
558.889	802.38
559.657	750.38
560.425	713.38
561.193	658.38
561.961	623.38
562.729	605.38
563.496	566.38
564.264	536.38
565.032	504.38
565.799	477.38
566.567	449.38
567.334	416.38
568.101	398.38
568.869	377.38
569.636	353.38
570.403	334.38
571.17	314.38
571.937	295.38
572.704	276.38
573.471	263.38
574.237	253.38
575.004	234.38
575.771	221.38
576.537	211.38
577.303	193.38
578.07	186.38
578.836	170.38
579.602	161.38
580.368	147.38
581.134	151.38
581.9	141.38
582.666	134.38
583.432	130.38
584.198	120.38
584.964	111.38
585.729	105.38
586.495	96.38
587.26	92.38
588.025	92.38
588.791	85.38
589.556	78.38
590.321	76.38
591.086	67.38
591.851	70.38
592.616	67.38
593.381	61.38
594.146	55.38
594.911	56.38
595.675	55.38
596.44	49.38
597.204	45.38
597.969	44.38
598.733	43.38
599.497	41.38
600.261	39.38
601.025	34.38
601.79	37.38
602.553	29.38
603.317	34.38
604.081	28.38
604.845	30.38
605.609	29.38
606.372	28.38
607.136	26.38
607.899	24.38
608.662	23.38
609.426	23.38
610.189	22.38
610.952	21.38
611.715	19.38
612.478	19.38
613.241	20.38
614.004	18.38
614.767	18.38
615.529	16.38
616.292	18.38
617.055	14.38
617.817	17.38
618.579	11.38
619.342	16.38
620.104	12.38
620.866	12.38
621.628	13.38
622.39	10.38
623.152	13.38
623.914	12.38
624.676	10.38
625.438	12.38
626.199	9.38
626.961	10.38
627.722	8.38
628.484	9.38
629.245	9.38
630.006	9.38
630.768	8.38
631.529	8.38
632.29	8.38
633.051	9.38
633.812	5.38
634.573	7.38
635.333	5.38
636.094	5.38
636.855	8.38
637.615	7.38
638.376	7.38
639.136	5.38
639.896	9.38
640.657	7.38
641.417	3.38
642.177	5.38
642.937	6.38
643.697	4.38
644.457	3.38
645.216	6.38
645.976	3.38
646.736	5.38
647.495	2.38
648.255	3.38
649.014	5.38
649.774	5.38
650.533	3.38
651.292	3.38
652.051	3.38
652.81	3.38
653.569	4.38
654.328	5.38
655.087	5.38
655.846	3.38
656.604	5.38
657.363	3.38
658.121	4.38
658.88	5.38
659.638	3.38
660.397	4.38
661.155	3.38
661.913	1.38
662.671	4.38
663.429	4.38
664.187	3.38
664.945	2.38
665.703	3.38
666.46	3.38
667.218	2.38
667.976	5.38
668.733	1.38
669.49	3.38
670.248	2.38
671.005	5.38
671.762	4.38
672.519	2.38
673.276	2.38
674.033	3.38
674.79	1.38
675.547	2.38
676.304	4.38
677.06	1.38
677.817	1.38
678.574	2.38
679.33	1.38
680.086	4.38
680.843	2.38
681.599	2.38
682.355	2.38
683.111	3.38
683.867	4.38
684.623	2.38
685.379	5.38
686.135	2.38
686.89	4.38
687.646	2.38
688.402	2.38
689.157	1.38
689.912	1.38
690.668	5.38
691.423	1.38
692.178	3.38
692.933	0.38
693.688	1.38
694.443	0.38
695.198	2.38
695.953	1.38
696.708	2.38
697.462	1.38
698.217	2.38
698.972	0.38
699.726	2.38
700.48	-0.62
701.235	2.38
701.989	2.38
702.743	0.38
703.497	1.38
704.251	1.38
705.005	-0.62
705.759	-0.62
706.513	2.38
707.266	2.38
708.02	1.38
708.774	1.38
709.527	0.38
710.28	3.38
711.034	0.38
711.787	2.38
712.54	4.38
713.293	2.38
714.046	3.38
714.799	3.38
715.552	2.38
716.305	1.38
717.058	3.38
717.81	3.38
718.563	2.38
719.315	2.38
720.068	1.38
720.82	2.38
721.573	1.38
722.325	2.38
723.077	-0.62
723.829	1.38
724.581	2.38
725.333	3.38
726.085	0.38
726.836	1.38
727.588	2.38
728.34	4.38
729.091	2.38
729.843	2.38
730.594	2.38
731.346	3.38
732.097	0.38
732.848	4.38
733.599	4.38
734.35	1.38
735.101	1.38
735.852	1.38
736.603	0.38
737.354	1.38
738.104	1.38
738.855	1.38
739.605	3.38
740.356	3.38
741.106	1.38
741.856	2.38
742.607	0.38
743.357	3.38
744.107	1.38
744.857	2.38
745.607	1.38
746.357	1.38
747.106	3.38
747.856	2.38
748.606	4.38
749.355	3.38
750.105	0.38
750.854	2.38
751.603	5.38
752.353	3.38
753.102	2.38
753.851	4.38
754.6	2.38
755.349	2.38
756.098	2.38
756.847	4.38
757.595	3.38
758.344	3.38
759.093	2.38
759.841	3.38
760.589	-0.62
761.338	4.38
762.086	5.38
762.834	4.38
763.582	2.38
764.331	3.38
765.079	2.38
765.826	4.38
766.574	3.38
767.322	1.38
768.07	5.38
768.817	1.38
769.565	4.38
770.312	2.38
771.06	4.38
771.807	2.38
772.554	5.38
773.302	3.38
774.049	1.38
774.796	3.38
775.543	3.38
776.29	4.38
777.036	5.38
777.783	1.38
778.53	4.38
779.276	4.38
780.023	5.38
780.769	5.38
781.516	5.38
782.262	5.38
783.008	4.38
783.754	4.38
784.5	3.38
785.246	3.38
785.992	2.38
786.738	5.38
787.484	4.38
788.23	4.38
788.975	5.38
789.721	5.38
790.466	4.38
791.212	2.38
791.957	4.38
792.702	3.38
793.447	3.38
794.193	4.38
794.938	5.38
795.683	6.38
796.427	5.38
797.172	5.38
797.917	3.38
798.662	3.38
799.406	3.38
800.151	4.38
800.895	5.38
801.64	6.38
802.384	2.38
803.128	3.38
803.872	4.38
804.616	4.38
805.36	4.38
806.104	4.38
806.848	5.38
807.592	4.38
808.336	4.38
809.079	1.38
809.823	4.38
810.566	4.38
811.31	3.38
812.053	2.38
812.796	1.38
813.539	4.38
814.283	2.38
815.026	2.38
815.769	4.38
816.511	3.38
817.254	1.38
817.997	3.38
818.74	2.38
819.482	3.38
820.225	4.38
820.967	7.38
821.71	1.38
822.452	2.38
823.194	2.38
823.936	3.38
824.678	3.38
825.42	4.38
826.162	2.38
826.904	3.38
827.646	2.38
828.388	0.38
829.129	4.38
829.871	4.38
830.612	1.38
831.354	3.38
832.095	2.38
832.836	7.38
833.577	1.38
834.319	5.38
835.06	3.38
835.801	2.38
836.542	2.38
837.282	1.38
838.023	1.38
838.764	0.38
839.504	2.38
840.245	2.38
840.985	2.38
841.726	2.38
842.466	3.38
843.206	2.38
843.946	3.38
844.687	2.38
845.427	3.38
846.166	0.38
846.906	2.38
847.646	2.38
848.386	7.38
849.125	1.38
849.865	1.38
850.605	1.38
851.344	1.38
852.083	3.38
852.823	1.38
853.562	1.38
854.301	-0.62
855.04	2.38
855.779	2.38
856.518	2.38
857.257	2.38
857.995	0.38
858.734	2.38
859.473	0.38
860.211	1.38
860.95	1.38
861.688	1.38
862.426	2.38
863.165	1.38
863.903	1.38
864.641	0.38
865.379	3.38
866.117	2.38
866.855	2.38
867.593	1.38
868.33	-1.62
869.068	1.38
869.806	-1.62
870.543	1.38
871.28	2.38
872.018	0.38
872.755	2.38
873.492	-0.62
874.229	2.38
874.967	0.38
875.703	2.38
876.44	0.38
877.177	1.38
877.914	2.38
878.651	-1.62
879.387	4.38
880.124	0.38
880.86	3.38
881.597	0.38
882.333	0.38
883.069	0.38
883.806	-0.62
884.542	1.38
885.278	0.38
886.014	1.38
886.749	1.38
887.485	-1.62
888.221	1.38
888.957	2.38
889.692	-1.62
890.428	1.38
891.163	3.38
891.899	1.38
892.634	-1.62
893.369	2.38
894.104	0.38
894.839	1.38
895.574	0.38
896.309	1.38
897.044	2.38
897.779	1.38
898.514	2.38
899.248	-0.62
899.983	0.38
900.717	0.38
901.452	1.38
902.186	1.38
902.92	1.38
903.654	1.38
904.389	1.38
905.123	1.38
905.857	-0.62
906.59	1.38
907.324	3.38
908.058	1.38
908.792	2.38
909.525	-0.62
910.259	1.38
910.992	1.38
911.726	1.38
912.459	1.38
913.192	1.38
913.925	1.38
914.658	2.38
915.391	0.38
916.124	-0.62
916.857	-0.62
917.59	3.38
918.323	0.38
919.055	3.38
919.788	1.38
920.521	-0.62
921.253	-0.62
921.985	0.38
922.718	-0.62
923.45	1.38
924.182	-0.62
924.914	-0.62
925.646	0.38
926.378	1.38
927.11	0.38
927.841	0.38
928.573	0.38
929.305	2.38
930.036	-0.62
930.768	0.38
931.499	0.38
932.23	-0.62
932.962	2.38
933.693	0.38
934.424	0.38
935.155	0.38
935.886	-1.62
936.617	1.38
937.348	1.38
938.078	1.38
938.809	-0.62
939.54	2.38
940.27	0.38
941.001	-0.62
941.731	1.38
942.461	-1.62
943.191	2.38
943.922	-0.62
944.652	-0.62
945.382	-3.62
946.112	1.38
946.841	0.38
947.571	-2.62
948.301	2.38
949.031	1.38
949.76	3.38
950.49	2.38
951.219	1.38
951.948	2.38
952.678	-1.62
953.407	0.38
954.136	0.38
954.865	1.38
955.594	0.38
956.323	3.38
957.052	0.38
957.78	0.38
958.509	0.38
959.238	-0.62
959.966	0.38
960.695	0.38
961.423	0.38
962.151	-1.62
962.88	0.38
963.608	1.38
964.336	-2.62
965.064	2.38
965.792	2.38
966.52	1.38
967.247	0.38
967.975	2.38
968.703	1.38
969.43	0.38
970.158	-0.62
970.885	0.38
971.613	-1.62
972.34	0.38
973.067	2.38
973.794	1.38
974.521	-1.62
975.248	1.38
975.975	2.38
976.702	1.38
977.429	0.38
978.156	1.38
978.882	0.38
979.609	1.38
980.335	1.38
981.062	2.38
981.788	0.38
982.514	1.38
983.24	-0.62
983.967	0.38
984.693	-0.62
985.419	2.38
986.144	-0.62
986.87	0.38
987.596	1.38
988.322	-1.62
989.047	0.38
989.773	-0.62
990.498	-1.62
991.224	-0.62
991.949	0.38
992.674	1.38
993.399	-0.62
994.124	0.38
994.849	0.38
995.574	1.38
996.299	-1.62
997.024	-0.62
997.749	0.38
998.473	1.38
999.198	0.38
999.922	1.38
1000.647	2.38
1001.371	3.38
1002.095	0.38
1002.82	0.38
1003.544	0.38
1004.268	-1.62
1004.992	-1.62
1005.716	1.38
1006.439	0.38
1007.163	-0.62
1007.887	-0.62
1008.611	1.38
1009.334	-0.62
1010.058	-2.62
1010.781	0.38
1011.504	0.38
1012.228	1.38
1012.951	0.38
1013.674	-1.62
1014.397	-1.62
1015.12	-1.62
