节点500_145_QEPB04081__102__11-30-36-582.txt的数据

Date: Wed Nov 12 11:30:36 CST 2025
User: PC
Spectrometer: QEPB0408
触发模式: 0
积分时间 (秒): 1.000000E-2
Scans to average: 1
启用暗噪声校正: true
启用非线性校正: false
滑动平均宽度: 0
X轴模式: Wavelengths
Number of Pixels in Spectrum: 1044
>>>>>Begin Spectral Data<<<<<
220.843	0.62
221.644	0.62
222.444	1.62
223.244	0.62
224.045	3.62
224.845	0.62
225.645	-0.38
226.445	-1.38
227.245	2.62
228.045	0.62
228.845	1.62
229.645	2.62
230.444	0.62
231.244	1.62
232.043	1.62
232.843	1.62
233.642	2.62
234.442	0.62
235.241	1.62
236.04	1.62
236.839	1.62
237.638	1.62
238.437	0.62
239.236	3.62
240.035	1.62
240.833	0.62
241.632	2.62
242.43	-0.38
243.229	3.62
244.027	1.62
244.826	3.62
245.624	2.62
246.422	-0.38
247.22	2.62
248.018	1.62
248.816	3.62
249.614	3.62
250.412	2.62
251.21	2.62
252.007	4.62
252.805	4.62
253.602	2.62
254.4	3.62
255.197	3.62
255.994	4.62
256.791	5.62
257.589	2.62
258.386	4.62
259.183	1.62
259.979	4.62
260.776	5.62
261.573	7.62
262.37	5.62
263.166	4.62
263.963	5.62
264.759	8.62
265.556	4.62
266.352	5.62
267.148	7.62
267.944	7.62
268.74	9.62
269.536	7.62
270.332	8.62
271.128	7.62
271.924	5.62
272.719	7.62
273.515	11.62
274.311	9.62
275.106	9.62
275.901	9.62
276.697	10.62
277.492	11.62
278.287	7.62
279.082	11.62
279.877	10.62
280.672	12.62
281.467	10.62
282.262	10.62
283.056	11.62
283.851	10.62
284.646	11.62
285.44	12.62
286.234	11.62
287.029	10.62
287.823	11.62
288.617	12.62
289.411	10.62
290.205	12.62
290.999	11.62
291.793	11.62
292.587	10.62
293.381	11.62
294.174	10.62
294.968	7.62
295.761	10.62
296.555	9.62
297.348	12.62
298.141	11.62
298.935	11.62
299.728	11.62
300.521	8.62
301.314	7.62
302.107	10.62
302.899	7.62
303.692	9.62
304.485	9.62
305.277	7.62
306.07	8.62
306.862	10.62
307.655	7.62
308.447	10.62
309.239	11.62
310.031	6.62
310.823	8.62
311.615	7.62
312.407	7.62
313.199	9.62
313.991	7.62
314.783	4.62
315.574	7.62
316.366	6.62
317.157	3.62
317.949	6.62
318.74	4.62
319.531	6.62
320.322	5.62
321.113	3.62
321.904	5.62
322.695	4.62
323.486	7.62
324.277	4.62
325.068	5.62
325.858	5.62
326.649	4.62
327.439	3.62
328.23	4.62
329.02	5.62
329.81	4.62
330.6	4.62
331.391	5.62
332.181	1.62
332.971	4.62
333.76	7.62
334.55	5.62
335.34	5.62
336.13	2.62
336.919	5.62
337.709	1.62
338.498	3.62
339.287	5.62
340.077	3.62
340.866	5.62
341.655	2.62
342.444	5.62
343.233	3.62
344.022	5.62
344.811	4.62
345.6	4.62
346.388	4.62
347.177	3.62
347.965	2.62
348.754	3.62
349.542	6.62
350.33	4.62
351.119	2.62
351.907	4.62
352.695	2.62
353.483	4.62
354.271	1.62
355.059	1.62
355.846	2.62
356.634	2.62
357.422	3.62
358.209	3.62
358.997	5.62
359.784	2.62
360.571	3.62
361.359	4.62
362.146	2.62
362.933	4.62
363.72	3.62
364.507	5.62
365.294	2.62
366.081	3.62
366.867	2.62
367.654	0.62
368.44	4.62
369.227	1.62
370.013	2.62
370.8	3.62
371.586	3.62
372.372	2.62
373.158	3.62
373.944	3.62
374.73	2.62
375.516	1.62
376.302	2.62
377.088	2.62
377.873	3.62
378.659	3.62
379.445	4.62
380.23	1.62
381.015	1.62
381.801	2.62
382.586	2.62
383.371	2.62
384.156	1.62
384.941	2.62
385.726	5.62
386.511	2.62
387.296	4.62
388.08	2.62
388.865	2.62
389.649	6.62
390.434	3.62
391.218	5.62
392.003	2.62
392.787	3.62
393.571	2.62
394.355	2.62
395.139	4.62
395.923	4.62
396.707	3.62
397.491	4.62
398.274	4.62
399.058	5.62
399.842	4.62
400.625	2.62
401.408	6.62
402.192	5.62
402.975	2.62
403.758	6.62
404.541	2.62
405.324	4.62
406.107	5.62
406.89	6.62
407.673	5.62
408.456	4.62
409.238	4.62
410.021	2.62
410.803	5.62
411.586	3.62
412.368	2.62
413.151	5.62
413.933	2.62
414.715	6.62
415.497	4.62
416.279	7.62
417.061	5.62
417.843	7.62
418.624	7.62
419.406	4.62
420.188	5.62
420.969	6.62
421.751	6.62
422.532	7.62
423.313	5.62
424.095	5.62
424.876	7.62
425.657	6.62
426.438	7.62
427.219	9.62
428	8.62
428.78	7.62
429.561	9.62
430.342	7.62
431.122	9.62
431.903	7.62
432.683	7.62
433.464	11.62
434.244	9.62
435.024	10.62
435.804	8.62
436.584	10.62
437.364	11.62
438.144	11.62
438.924	11.62
439.704	10.62
440.483	12.62
441.263	9.62
442.042	12.62
442.822	13.62
443.601	12.62
444.38	14.62
445.16	14.62
445.939	16.62
446.718	18.62
447.497	17.62
448.276	19.62
449.054	21.62
449.833	23.62
450.612	23.62
451.391	26.62
452.169	27.62
452.948	29.62
453.726	32.62
454.504	34.62
455.282	39.62
456.061	41.62
456.839	47.62
457.617	50.62
458.395	58.62
459.172	65.62
459.95	68.62
460.728	78.62
461.506	86.62
462.283	97.62
463.061	104.62
463.838	121.62
464.615	131.62
465.393	144.62
466.17	166.62
466.947	178.62
467.724	202.62
468.501	220.62
469.278	255.62
470.055	281.62
470.831	316.62
471.608	349.62
472.385	394.62
473.161	439.62
473.938	483.62
474.714	546.62
475.49	603.62
476.266	661.62
477.043	736.62
477.819	827.62
478.595	917.62
479.371	1020.62
480.146	1127.62
480.922	1265.62
481.698	1403.62
482.473	1554.62
483.249	1724.62
484.024	1901.62
484.8	2091.62
485.575	2330.62
486.35	2587.62
487.126	2879.62
487.901	3160.62
488.676	3498.62
489.451	3858.62
490.225	4292.62
491	4737.62
491.775	5220.62
492.55	5763.62
493.324	6350.62
494.099	6988.62
494.873	7610.62
495.647	8308.62
496.422	9051.62
497.196	9786.62
497.97	10657.62
498.744	11457.62
499.518	12229.62
500.292	12995.62
501.066	13772.62
501.839	14513.62
502.613	15219.62
503.387	15805.62
504.16	16392.62
504.934	16771.62
505.707	17079.62
506.48	17257.62
507.253	17335.62
508.027	17310.62
508.8	17156.62
509.573	16934.62
510.346	16537.62
511.118	16076.62
511.891	15625.62
512.664	15061.62
513.437	14454.62
514.209	13862.62
514.982	13315.62
515.754	12698.62
516.526	12060.62
517.298	11526.62
518.071	10989.62
518.843	10534.62
519.615	10077.62
520.387	9628.62
521.159	9287.62
521.93	8908.62
522.702	8541.62
523.474	8185.62
524.245	7908.62
525.017	7576.62
525.788	7289.62
526.56	6975.62
527.331	6686.62
528.102	6391.62
528.873	6081.62
529.644	5811.62
530.415	5524.62
531.186	5271.62
531.957	4972.62
532.728	4688.62
533.498	4423.62
534.269	4197.62
535.039	3966.62
535.81	3736.62
536.58	3514.62
537.351	3315.62
538.121	3141.62
538.891	2955.62
539.661	2801.62
540.431	2653.62
541.201	2508.62
541.971	2386.62
542.741	2240.62
543.51	2143.62
544.28	2038.62
545.05	1919.62
545.819	1833.62
546.588	1753.62
547.358	1653.62
548.127	1586.62
548.896	1481.62
549.665	1414.62
550.434	1355.62
551.203	1292.62
551.972	1210.62
552.741	1143.62
553.51	1078.62
554.278	1020.62
555.047	964.62
555.815	913.62
556.584	844.62
557.352	803.62
558.121	754.62
558.889	727.62
559.657	669.62
560.425	637.62
561.193	593.62
561.961	559.62
562.729	526.62
563.496	498.62
564.264	476.62
565.032	444.62
565.799	418.62
566.567	397.62
567.334	379.62
568.101	363.62
568.869	339.62
569.636	322.62
570.403	293.62
571.17	274.62
571.937	263.62
572.704	255.62
573.471	232.62
574.237	220.62
575.004	209.62
575.771	200.62
576.537	185.62
577.303	177.62
578.07	163.62
578.836	157.62
579.602	144.62
580.368	138.62
581.134	129.62
581.9	125.62
582.666	115.62
583.432	113.62
584.198	106.62
584.964	101.62
585.729	95.62
586.495	86.62
587.26	85.62
588.025	82.62
588.791	72.62
589.556	72.62
590.321	67.62
591.086	63.62
591.851	58.62
592.616	55.62
593.381	60.62
594.146	52.62
594.911	51.62
595.675	44.62
596.44	43.62
597.204	44.62
597.969	40.62
598.733	37.62
599.497	36.62
600.261	34.62
601.025	33.62
601.79	30.62
602.553	28.62
603.317	29.62
604.081	30.62
604.845	25.62
605.609	25.62
606.372	25.62
607.136	25.62
607.899	23.62
608.662	21.62
609.426	22.62
610.189	18.62
610.952	18.62
611.715	18.62
612.478	14.62
613.241	17.62
614.004	17.62
614.767	15.62
615.529	14.62
616.292	14.62
617.055	15.62
617.817	12.62
618.579	14.62
619.342	10.62
620.104	12.62
620.866	12.62
621.628	12.62
622.39	12.62
623.152	9.62
623.914	10.62
624.676	10.62
625.438	11.62
626.199	8.62
626.961	7.62
627.722	8.62
628.484	8.62
629.245	6.62
630.006	8.62
630.768	9.62
631.529	7.62
632.29	5.62
633.051	7.62
633.812	8.62
634.573	10.62
635.333	6.62
636.094	6.62
636.855	7.62
637.615	5.62
638.376	8.62
639.136	3.62
639.896	5.62
640.657	5.62
641.417	6.62
642.177	6.62
642.937	3.62
643.697	6.62
644.457	6.62
645.216	6.62
645.976	5.62
646.736	5.62
647.495	7.62
648.255	6.62
649.014	5.62
649.774	3.62
650.533	3.62
651.292	3.62
652.051	3.62
652.81	6.62
653.569	2.62
654.328	4.62
655.087	5.62
655.846	4.62
656.604	4.62
657.363	4.62
658.121	4.62
658.88	1.62
659.638	5.62
660.397	2.62
661.155	3.62
661.913	2.62
662.671	2.62
663.429	3.62
664.187	2.62
664.945	4.62
665.703	2.62
666.46	3.62
667.218	3.62
667.976	3.62
668.733	2.62
669.49	2.62
670.248	1.62
671.005	-0.38
671.762	2.62
672.519	3.62
673.276	2.62
674.033	2.62
674.79	2.62
675.547	4.62
676.304	1.62
677.06	3.62
677.817	1.62
678.574	2.62
679.33	0.62
680.086	3.62
680.843	4.62
681.599	4.62
682.355	2.62
683.111	3.62
683.867	3.62
684.623	1.62
685.379	0.62
686.135	2.62
686.89	0.62
687.646	3.62
688.402	2.62
689.157	2.62
689.912	3.62
690.668	1.62
691.423	2.62
692.178	4.62
692.933	1.62
693.688	4.62
694.443	0.62
695.198	2.62
695.953	2.62
696.708	4.62
697.462	3.62
698.217	0.62
698.972	2.62
699.726	1.62
700.48	1.62
701.235	2.62
701.989	2.62
702.743	3.62
703.497	0.62
704.251	2.62
705.005	1.62
705.759	2.62
706.513	3.62
707.266	2.62
708.02	4.62
708.774	0.62
709.527	2.62
710.28	0.62
711.034	2.62
711.787	2.62
712.54	1.62
713.293	2.62
714.046	1.62
714.799	2.62
715.552	2.62
716.305	2.62
717.058	-1.38
717.81	4.62
718.563	1.62
719.315	1.62
720.068	3.62
720.82	2.62
721.573	2.62
722.325	5.62
723.077	2.62
723.829	2.62
724.581	2.62
725.333	1.62
726.085	2.62
726.836	2.62
727.588	2.62
728.34	1.62
729.091	2.62
729.843	1.62
730.594	2.62
731.346	1.62
732.097	1.62
732.848	3.62
733.599	3.62
734.35	2.62
735.101	0.62
735.852	1.62
736.603	1.62
737.354	2.62
738.104	2.62
738.855	0.62
739.605	2.62
740.356	1.62
741.106	2.62
741.856	1.62
742.607	2.62
743.357	3.62
744.107	4.62
744.857	2.62
745.607	1.62
746.357	5.62
747.106	1.62
747.856	2.62
748.606	4.62
749.355	3.62
750.105	3.62
750.854	2.62
751.603	3.62
752.353	1.62
753.102	2.62
753.851	1.62
754.6	2.62
755.349	4.62
756.098	3.62
756.847	2.62
757.595	2.62
758.344	4.62
759.093	2.62
759.841	3.62
760.589	3.62
761.338	1.62
762.086	3.62
762.834	2.62
763.582	5.62
764.331	4.62
765.079	2.62
765.826	4.62
766.574	4.62
767.322	4.62
768.07	6.62
768.817	4.62
769.565	1.62
770.312	4.62
771.06	4.62
771.807	4.62
772.554	5.62
773.302	4.62
774.049	3.62
774.796	7.62
775.543	6.62
776.29	5.62
777.036	7.62
777.783	6.62
778.53	4.62
779.276	5.62
780.023	7.62
780.769	5.62
781.516	6.62
782.262	4.62
783.008	5.62
783.754	6.62
784.5	2.62
785.246	7.62
785.992	5.62
786.738	5.62
787.484	6.62
788.23	5.62
788.975	4.62
789.721	6.62
790.466	7.62
791.212	3.62
791.957	5.62
792.702	5.62
793.447	5.62
794.193	6.62
794.938	3.62
795.683	2.62
796.427	4.62
797.172	3.62
797.917	5.62
798.662	5.62
799.406	4.62
800.151	4.62
800.895	6.62
801.64	6.62
802.384	5.62
803.128	5.62
803.872	4.62
804.616	3.62
805.36	4.62
806.104	5.62
806.848	2.62
807.592	3.62
808.336	5.62
809.079	4.62
809.823	5.62
810.566	6.62
811.31	6.62
812.053	3.62
812.796	4.62
813.539	4.62
814.283	5.62
815.026	5.62
815.769	5.62
816.511	2.62
817.254	3.62
817.997	4.62
818.74	6.62
819.482	2.62
820.225	4.62
820.967	2.62
821.71	3.62
822.452	3.62
823.194	2.62
823.936	3.62
824.678	3.62
825.42	0.62
826.162	1.62
826.904	2.62
827.646	2.62
828.388	1.62
829.129	5.62
829.871	1.62
830.612	4.62
831.354	4.62
832.095	2.62
832.836	5.62
833.577	1.62
834.319	1.62
835.06	2.62
835.801	4.62
836.542	3.62
837.282	3.62
838.023	3.62
838.764	2.62
839.504	2.62
840.245	1.62
840.985	2.62
841.726	0.62
842.466	3.62
843.206	2.62
843.946	0.62
844.687	3.62
845.427	1.62
846.166	3.62
846.906	2.62
847.646	2.62
848.386	1.62
849.125	1.62
849.865	2.62
850.605	1.62
851.344	2.62
852.083	1.62
852.823	3.62
853.562	0.62
854.301	1.62
855.04	3.62
855.779	2.62
856.518	2.62
857.257	1.62
857.995	2.62
858.734	2.62
859.473	2.62
860.211	1.62
860.95	2.62
861.688	1.62
862.426	2.62
863.165	1.62
863.903	0.62
864.641	2.62
865.379	3.62
866.117	2.62
866.855	3.62
867.593	1.62
868.33	3.62
869.068	4.62
869.806	1.62
870.543	1.62
871.28	0.62
872.018	1.62
872.755	0.62
873.492	0.62
874.229	0.62
874.967	2.62
875.703	2.62
876.44	0.62
877.177	1.62
877.914	1.62
878.651	2.62
879.387	3.62
880.124	1.62
880.86	1.62
881.597	2.62
882.333	0.62
883.069	1.62
883.806	-1.38
884.542	2.62
885.278	1.62
886.014	1.62
886.749	0.62
887.485	1.62
888.221	0.62
888.957	0.62
889.692	1.62
890.428	1.62
891.163	0.62
891.899	0.62
892.634	1.62
893.369	0.62
894.104	-0.38
894.839	2.62
895.574	-0.38
896.309	1.62
897.044	1.62
897.779	2.62
898.514	-0.38
899.248	1.62
899.983	2.62
900.717	-1.38
901.452	0.62
902.186	1.62
902.92	0.62
903.654	0.62
904.389	-0.38
905.123	0.62
905.857	-0.38
906.59	2.62
907.324	1.62
908.058	-0.38
908.792	2.62
909.525	1.62
910.259	2.62
910.992	-0.38
911.726	1.62
912.459	0.62
913.192	-0.38
913.925	-0.38
914.658	0.62
915.391	1.62
916.124	-1.38
916.857	-1.38
917.59	0.62
918.323	-0.38
919.055	1.62
919.788	0.62
920.521	1.62
921.253	-0.38
921.985	1.62
922.718	2.62
923.45	-1.38
924.182	1.62
924.914	0.62
925.646	-0.38
926.378	1.62
927.11	-0.38
927.841	-0.38
928.573	-0.38
929.305	1.62
930.036	-0.38
930.768	2.62
931.499	-1.38
932.23	1.62
932.962	-0.38
933.693	0.62
934.424	2.62
935.155	2.62
935.886	0.62
936.617	-0.38
937.348	-1.38
938.078	-0.38
938.809	0.62
939.54	0.62
940.27	0.62
941.001	2.62
941.731	0.62
942.461	-1.38
943.191	0.62
943.922	-0.38
944.652	0.62
945.382	0.62
946.112	2.62
946.841	1.62
947.571	1.62
948.301	3.62
949.031	-1.38
949.76	0.62
950.49	1.62
951.219	0.62
951.948	1.62
952.678	0.62
953.407	0.62
954.136	0.62
954.865	1.62
955.594	0.62
956.323	-1.38
957.052	0.62
957.78	-0.38
958.509	1.62
959.238	-1.38
959.966	1.62
960.695	2.62
961.423	2.62
962.151	-0.38
962.88	1.62
963.608	-0.38
964.336	1.62
965.064	2.62
965.792	1.62
966.52	0.62
967.247	-0.38
967.975	-0.38
968.703	0.62
969.43	0.62
970.158	-0.38
970.885	0.62
971.613	1.62
972.34	1.62
973.067	-1.38
973.794	-0.38
974.521	1.62
975.248	0.62
975.975	0.62
976.702	-0.38
977.429	1.62
978.156	0.62
978.882	0.62
979.609	-1.38
980.335	1.62
981.062	0.62
981.788	-0.38
982.514	1.62
983.24	-0.38
983.967	1.62
984.693	-1.38
985.419	1.62
986.144	-0.38
986.87	-1.38
987.596	1.62
988.322	0.62
989.047	0.62
989.773	1.62
990.498	-0.38
991.224	0.62
991.949	1.62
992.674	2.62
993.399	0.62
994.124	1.62
994.849	2.62
995.574	-1.38
996.299	-0.38
997.024	-1.38
997.749	1.62
998.473	-1.38
999.198	-0.38
999.922	-0.38
1000.647	1.62
1001.371	2.62
1002.095	0.62
1002.82	-2.38
1003.544	1.62
1004.268	1.62
1004.992	-0.38
1005.716	1.62
1006.439	-1.38
1007.163	2.62
1007.887	-0.38
1008.611	0.62
1009.334	-2.38
1010.058	1.62
1010.781	0.62
1011.504	1.62
1012.228	0.62
1012.951	0.62
1013.674	-1.38
1014.397	-0.38
1015.12	-1.38
