节点500_145_QEPB04081__206__11-32-15-493.txt的数据

Date: Wed Nov 12 11:32:15 CST 2025
User: PC
Spectrometer: QEPB0408
触发模式: 0
积分时间 (秒): 1.000000E-2
Scans to average: 1
启用暗噪声校正: true
启用非线性校正: false
滑动平均宽度: 0
X轴模式: Wavelengths
Number of Pixels in Spectrum: 1044
>>>>>Begin Spectral Data<<<<<
220.843	1
221.644	0
222.444	-2
223.244	-2
224.045	-1
224.845	1
225.645	-2
226.445	1
227.245	0
228.045	2
228.845	0
229.645	-1
230.444	0
231.244	-2
232.043	0
232.843	0
233.642	1
234.442	2
235.241	0
236.04	1
236.839	-2
237.638	2
238.437	-1
239.236	0
240.035	2
240.833	1
241.632	0
242.43	1
243.229	2
244.027	-1
244.826	3
245.624	1
246.422	2
247.22	2
248.018	2
248.816	2
249.614	5
250.412	0
251.21	2
252.007	3
252.805	3
253.602	3
254.4	4
255.197	3
255.994	4
256.791	3
257.589	6
258.386	5
259.183	5
259.979	6
260.776	3
261.573	6
262.37	4
263.166	4
263.963	5
264.759	8
265.556	5
266.352	7
267.148	5
267.944	7
268.74	4
269.536	9
270.332	10
271.128	7
271.924	5
272.719	7
273.515	11
274.311	7
275.106	10
275.901	13
276.697	9
277.492	9
278.287	9
279.082	10
279.877	8
280.672	11
281.467	11
282.262	8
283.056	11
283.851	11
284.646	11
285.44	11
286.234	12
287.029	12
287.823	12
288.617	12
289.411	9
290.205	14
290.999	10
291.793	11
292.587	11
293.381	8
294.174	11
294.968	9
295.761	9
296.555	12
297.348	9
298.141	10
298.935	10
299.728	12
300.521	10
301.314	8
302.107	9
302.899	8
303.692	9
304.485	8
305.277	9
306.07	7
306.862	10
307.655	5
308.447	6
309.239	10
310.031	6
310.823	6
311.615	8
312.407	7
313.199	6
313.991	6
314.783	4
315.574	5
316.366	8
317.157	5
317.949	5
318.74	6
319.531	3
320.322	7
321.113	4
321.904	5
322.695	5
323.486	5
324.277	5
325.068	6
325.858	5
326.649	5
327.439	5
328.23	4
329.02	4
329.81	6
330.6	4
331.391	0
332.181	8
332.971	5
333.76	3
334.55	3
335.34	3
336.13	4
336.919	3
337.709	1
338.498	4
339.287	5
340.077	5
340.866	4
341.655	3
342.444	3
343.233	2
344.022	5
344.811	2
345.6	1
346.388	6
347.177	1
347.965	4
348.754	2
349.542	4
350.33	2
351.119	2
351.907	3
352.695	3
353.483	3
354.271	3
355.059	5
355.846	3
356.634	2
357.422	3
358.209	3
358.997	6
359.784	2
360.571	5
361.359	4
362.146	2
362.933	3
363.72	4
364.507	3
365.294	3
366.081	1
366.867	2
367.654	1
368.44	2
369.227	2
370.013	3
370.8	3
371.586	2
372.372	2
373.158	4
373.944	1
374.73	3
375.516	5
376.302	2
377.088	4
377.873	2
378.659	1
379.445	2
380.23	2
381.015	3
381.801	4
382.586	5
383.371	1
384.156	3
384.941	2
385.726	4
386.511	2
387.296	4
388.08	3
388.865	4
389.649	2
390.434	5
391.218	3
392.003	4
392.787	1
393.571	1
394.355	3
395.139	4
395.923	3
396.707	2
397.491	3
398.274	3
399.058	4
399.842	5
400.625	4
401.408	3
402.192	3
402.975	5
403.758	3
404.541	4
405.324	3
406.107	2
406.89	6
407.673	4
408.456	3
409.238	3
410.021	5
410.803	5
411.586	5
412.368	2
413.151	2
413.933	7
414.715	4
415.497	5
416.279	6
417.061	2
417.843	5
418.624	7
419.406	5
420.188	4
420.969	4
421.751	6
422.532	4
423.313	7
424.095	4
424.876	5
425.657	6
426.438	6
427.219	6
428	6
428.78	8
429.561	9
430.342	7
431.122	6
431.903	7
432.683	9
433.464	7
434.244	10
435.024	6
435.804	8
436.584	10
437.364	8
438.144	11
438.924	9
439.704	8
440.483	12
441.263	13
442.042	14
442.822	14
443.601	12
444.38	14
445.16	17
445.939	17
446.718	18
447.497	18
448.276	20
449.054	19
449.833	23
450.612	25
451.391	25
452.169	28
452.948	32
453.726	36
454.504	39
455.282	42
456.061	45
456.839	48
457.617	54
458.395	56
459.172	66
459.95	69
460.728	78
461.506	89
462.283	98
463.061	109
463.838	125
464.615	134
465.393	153
466.17	171
466.947	187
467.724	211
468.501	244
469.278	262
470.055	293
470.831	325
471.608	369
472.385	407
473.161	448
473.938	493
474.714	564
475.49	620
476.266	680
477.043	762
477.819	840
478.595	926
479.371	1034
480.146	1137
480.922	1273
481.698	1397
482.473	1571
483.249	1719
484.024	1886
484.8	2099
485.575	2311
486.35	2560
487.126	2817
487.901	3114
488.676	3433
489.451	3788
490.225	4165
491	4595
491.775	5029
492.55	5532
493.324	6071
494.099	6667
494.873	7307
495.647	7961
496.422	8590
497.196	9351
497.97	10080
498.744	10880
499.518	11675
500.292	12388
501.066	13178
501.839	13866
502.613	14584
503.387	15178
504.16	15768
504.934	16145
505.707	16515
506.48	16746
507.253	16864
508.027	16930
508.8	16803
509.573	16577
510.346	16302
511.118	15945
511.891	15468
512.664	14971
513.437	14385
514.209	13859
514.982	13327
515.754	12773
516.526	12188
517.298	11579
518.071	11104
518.843	10589
519.615	10121
520.387	9755
521.159	9332
521.93	8944
522.702	8593
523.474	8263
524.245	7993
525.017	7633
525.788	7322
526.56	7019
527.331	6738
528.102	6434
528.873	6170
529.644	5838
530.415	5584
531.186	5338
531.957	5046
532.728	4769
533.498	4533
534.269	4284
535.039	4054
535.81	3805
536.58	3591
537.351	3392
538.121	3198
538.891	3027
539.661	2863
540.431	2719
541.201	2569
541.971	2431
542.741	2293
543.51	2183
544.28	2072
545.05	1965
545.819	1882
546.588	1781
547.358	1689
548.127	1597
548.896	1514
549.665	1451
550.434	1388
551.203	1307
551.972	1230
552.741	1167
553.51	1100
554.278	1050
555.047	981
555.815	929
556.584	881
557.352	827
558.121	780
558.889	734
559.657	697
560.425	647
561.193	607
561.961	580
562.729	547
563.496	523
564.264	485
565.032	459
565.799	434
566.567	416
567.334	390
568.101	369
568.869	346
569.636	327
570.403	302
571.17	290
571.937	274
572.704	256
573.471	247
574.237	225
575.004	215
575.771	202
576.537	191
577.303	182
578.07	173
578.836	159
579.602	150
580.368	140
581.134	133
581.9	126
582.666	117
583.432	116
584.198	105
584.964	99
585.729	98
586.495	90
587.26	86
588.025	83
588.791	80
589.556	72
590.321	68
591.086	69
591.851	63
592.616	65
593.381	56
594.146	53
594.911	49
595.675	45
596.44	45
597.204	41
597.969	44
598.733	43
599.497	37
600.261	40
601.025	34
601.79	36
602.553	31
603.317	30
604.081	30
604.845	27
605.609	27
606.372	25
607.136	25
607.899	24
608.662	23
609.426	19
610.189	19
610.952	17
611.715	19
612.478	20
613.241	17
614.004	16
614.767	17
615.529	14
616.292	15
617.055	14
617.817	14
618.579	15
619.342	12
620.104	10
620.866	14
621.628	14
622.39	11
623.152	10
623.914	10
624.676	11
625.438	7
626.199	10
626.961	8
627.722	9
628.484	7
629.245	7
630.006	8
630.768	7
631.529	6
632.29	8
633.051	7
633.812	7
634.573	8
635.333	5
636.094	6
636.855	6
637.615	5
638.376	5
639.136	4
639.896	5
640.657	3
641.417	6
642.177	4
642.937	5
643.697	6
644.457	6
645.216	3
645.976	5
646.736	5
647.495	5
648.255	4
649.014	2
649.774	8
650.533	2
651.292	4
652.051	5
652.81	5
653.569	3
654.328	2
655.087	3
655.846	3
656.604	1
657.363	3
658.121	4
658.88	4
659.638	2
660.397	5
661.155	2
661.913	4
662.671	4
663.429	3
664.187	2
664.945	2
665.703	3
666.46	0
667.218	3
667.976	4
668.733	2
669.49	4
670.248	2
671.005	2
671.762	2
672.519	2
673.276	2
674.033	4
674.79	6
675.547	2
676.304	6
677.06	1
677.817	3
678.574	3
679.33	-1
680.086	2
680.843	3
681.599	1
682.355	2
683.111	3
683.867	2
684.623	1
685.379	5
686.135	3
686.89	1
687.646	2
688.402	1
689.157	2
689.912	2
690.668	-1
691.423	-1
692.178	4
692.933	2
693.688	2
694.443	4
695.198	0
695.953	2
696.708	2
697.462	0
698.217	5
698.972	1
699.726	2
700.48	3
701.235	3
701.989	1
702.743	5
703.497	0
704.251	1
705.005	3
705.759	1
706.513	3
707.266	3
708.02	3
708.774	1
709.527	0
710.28	4
711.034	1
711.787	2
712.54	2
713.293	1
714.046	2
714.799	0
715.552	3
716.305	2
717.058	2
717.81	1
718.563	2
719.315	0
720.068	0
720.82	2
721.573	3
722.325	4
723.077	1
723.829	2
724.581	1
725.333	4
726.085	1
726.836	1
727.588	2
728.34	2
729.091	3
729.843	1
730.594	1
731.346	4
732.097	2
732.848	2
733.599	3
734.35	2
735.101	2
735.852	1
736.603	1
737.354	0
738.104	2
738.855	3
739.605	3
740.356	2
741.106	5
741.856	4
742.607	4
743.357	3
744.107	2
744.857	2
745.607	-1
746.357	2
747.106	2
747.856	2
748.606	4
749.355	3
750.105	1
750.854	3
751.603	2
752.353	2
753.102	4
753.851	3
754.6	3
755.349	2
756.098	3
756.847	2
757.595	2
758.344	1
759.093	5
759.841	2
760.589	4
761.338	3
762.086	3
762.834	4
763.582	3
764.331	2
765.079	1
765.826	2
766.574	4
767.322	2
768.07	4
768.817	5
769.565	6
770.312	2
771.06	2
771.807	3
772.554	4
773.302	5
774.049	6
774.796	3
775.543	5
776.29	5
777.036	4
777.783	3
778.53	6
779.276	6
780.023	5
780.769	4
781.516	4
782.262	6
783.008	4
783.754	6
784.5	5
785.246	6
785.992	5
786.738	4
787.484	7
788.23	3
788.975	7
789.721	4
790.466	3
791.212	5
791.957	4
792.702	4
793.447	4
794.193	6
794.938	4
795.683	3
796.427	6
797.172	5
797.917	6
798.662	4
799.406	4
800.151	7
800.895	3
801.64	5
802.384	4
803.128	5
803.872	3
804.616	3
805.36	5
806.104	3
806.848	4
807.592	3
808.336	7
809.079	6
809.823	1
810.566	2
811.31	3
812.053	5
812.796	4
813.539	4
814.283	2
815.026	3
815.769	2
816.511	2
817.254	4
817.997	5
818.74	3
819.482	3
820.225	2
820.967	3
821.71	2
822.452	3
823.194	1
823.936	2
824.678	2
825.42	1
826.162	5
826.904	4
827.646	2
828.388	3
829.129	1
829.871	3
830.612	2
831.354	5
832.095	2
832.836	1
833.577	2
834.319	1
835.06	3
835.801	1
836.542	3
837.282	2
838.023	3
838.764	4
839.504	3
840.245	2
840.985	2
841.726	2
842.466	3
843.206	1
843.946	2
844.687	2
845.427	0
846.166	1
846.906	1
847.646	1
848.386	1
849.125	5
849.865	2
850.605	2
851.344	0
852.083	2
852.823	-1
853.562	2
854.301	2
855.04	2
855.779	2
856.518	2
857.257	2
857.995	2
858.734	0
859.473	-2
860.211	2
860.95	2
861.688	1
862.426	2
863.165	2
863.903	4
864.641	1
865.379	-2
866.117	2
866.855	1
867.593	0
868.33	-1
869.068	1
869.806	0
870.543	0
871.28	-2
872.018	1
872.755	3
873.492	0
874.229	3
874.967	0
875.703	1
876.44	2
877.177	-1
877.914	1
878.651	1
879.387	1
880.124	0
880.86	1
881.597	1
882.333	-1
883.069	1
883.806	-1
884.542	1
885.278	-1
886.014	1
886.749	1
887.485	1
888.221	2
888.957	2
889.692	-2
890.428	1
891.163	-2
891.899	1
892.634	-2
893.369	1
894.104	1
894.839	0
895.574	0
896.309	-2
897.044	2
897.779	0
898.514	1
899.248	1
899.983	-1
900.717	3
901.452	-2
902.186	1
902.92	1
903.654	-1
904.389	1
905.123	2
905.857	-2
906.59	-1
907.324	-2
908.058	-2
908.792	1
909.525	1
910.259	-1
910.992	0
911.726	0
912.459	0
913.192	0
913.925	-1
914.658	1
915.391	0
916.124	0
916.857	0
917.59	1
918.323	0
919.055	1
919.788	2
920.521	-2
921.253	-1
921.985	0
922.718	-1
923.45	2
924.182	0
924.914	0
925.646	-2
926.378	1
927.11	0
927.841	0
928.573	-1
929.305	0
930.036	1
930.768	1
931.499	0
932.23	0
932.962	0
933.693	1
934.424	-1
935.155	-2
935.886	-2
936.617	-4
937.348	2
938.078	0
938.809	2
939.54	-3
940.27	0
941.001	0
941.731	2
942.461	0
943.191	1
943.922	1
944.652	-1
945.382	1
946.112	0
946.841	0
947.571	2
948.301	-1
949.031	1
949.76	-2
950.49	1
951.219	0
951.948	1
952.678	0
953.407	2
954.136	1
954.865	-2
955.594	-2
956.323	0
957.052	-1
957.78	2
958.509	0
959.238	1
959.966	-1
960.695	1
961.423	-1
962.151	2
962.88	-2
963.608	2
964.336	0
965.064	-2
965.792	0
966.52	0
967.247	-1
967.975	-1
968.703	1
969.43	-1
970.158	-1
970.885	0
971.613	-1
972.34	1
973.067	-2
973.794	0
974.521	0
975.248	1
975.975	0
976.702	0
977.429	1
978.156	0
978.882	-2
979.609	2
980.335	1
981.062	0
981.788	1
982.514	1
983.24	1
983.967	-1
984.693	-1
985.419	-1
986.144	0
986.87	-1
987.596	1
988.322	0
989.047	0
989.773	-2
990.498	-2
991.224	-1
991.949	1
992.674	-1
993.399	1
994.124	0
994.849	0
995.574	-1
996.299	-2
997.024	2
997.749	0
998.473	1
999.198	1
999.922	0
1000.647	-2
1001.371	3
1002.095	-1
1002.82	-2
1003.544	-2
1004.268	-1
1004.992	-1
1005.716	0
1006.439	-1
1007.163	0
1007.887	-1
1008.611	-2
1009.334	0
1010.058	-1
1010.781	-1
1011.504	1
1012.228	-1
1012.951	1
1013.674	0
1014.397	1
1015.12	0
