节点500_145_QEPB04081__556__11-37-47-430.txt的数据

Date: Wed Nov 12 11:37:47 CST 2025
User: PC
Spectrometer: QEPB0408
触发模式: 0
积分时间 (秒): 1.000000E-2
Scans to average: 1
启用暗噪声校正: true
启用非线性校正: false
滑动平均宽度: 0
X轴模式: Wavelengths
Number of Pixels in Spectrum: 1044
>>>>>Begin Spectral Data<<<<<
220.843	0.25
221.644	0.25
222.444	-2.75
223.244	2.25
224.045	-1.75
224.845	0.25
225.645	-1.75
226.445	0.25
227.245	-0.75
228.045	-1.75
228.845	1.25
229.645	-1.75
230.444	0.25
231.244	1.25
232.043	2.25
232.843	0.25
233.642	0.25
234.442	2.25
235.241	-1.75
236.04	-1.75
236.839	-0.75
237.638	1.25
238.437	1.25
239.236	1.25
240.035	2.25
240.833	1.25
241.632	-1.75
242.43	2.25
243.229	0.25
244.027	-0.75
244.826	1.25
245.624	3.25
246.422	3.25
247.22	1.25
248.018	1.25
248.816	1.25
249.614	2.25
250.412	1.25
251.21	3.25
252.007	4.25
252.805	3.25
253.602	3.25
254.4	0.25
255.197	2.25
255.994	3.25
256.791	3.25
257.589	1.25
258.386	2.25
259.183	1.25
259.979	1.25
260.776	4.25
261.573	4.25
262.37	5.25
263.166	3.25
263.963	6.25
264.759	7.25
265.556	3.25
266.352	5.25
267.148	5.25
267.944	5.25
268.74	4.25
269.536	6.25
270.332	7.25
271.128	8.25
271.924	7.25
272.719	6.25
273.515	7.25
274.311	7.25
275.106	10.25
275.901	5.25
276.697	8.25
277.492	8.25
278.287	8.25
279.082	9.25
279.877	8.25
280.672	9.25
281.467	10.25
282.262	8.25
283.056	12.25
283.851	8.25
284.646	10.25
285.44	9.25
286.234	10.25
287.029	11.25
287.823	8.25
288.617	11.25
289.411	10.25
290.205	10.25
290.999	9.25
291.793	10.25
292.587	7.25
293.381	10.25
294.174	9.25
294.968	7.25
295.761	9.25
296.555	7.25
297.348	9.25
298.141	9.25
298.935	8.25
299.728	10.25
300.521	10.25
301.314	8.25
302.107	9.25
302.899	7.25
303.692	9.25
304.485	9.25
305.277	10.25
306.07	7.25
306.862	8.25
307.655	6.25
308.447	6.25
309.239	6.25
310.031	9.25
310.823	8.25
311.615	7.25
312.407	7.25
313.199	5.25
313.991	7.25
314.783	4.25
315.574	2.25
316.366	5.25
317.157	7.25
317.949	2.25
318.74	4.25
319.531	5.25
320.322	6.25
321.113	5.25
321.904	7.25
322.695	3.25
323.486	3.25
324.277	3.25
325.068	2.25
325.858	3.25
326.649	3.25
327.439	4.25
328.23	1.25
329.02	2.25
329.81	2.25
330.6	5.25
331.391	4.25
332.181	4.25
332.971	4.25
333.76	3.25
334.55	5.25
335.34	4.25
336.13	4.25
336.919	6.25
337.709	2.25
338.498	4.25
339.287	2.25
340.077	3.25
340.866	4.25
341.655	4.25
342.444	5.25
343.233	5.25
344.022	2.25
344.811	3.25
345.6	6.25
346.388	4.25
347.177	2.25
347.965	2.25
348.754	5.25
349.542	3.25
350.33	1.25
351.119	6.25
351.907	2.25
352.695	1.25
353.483	2.25
354.271	4.25
355.059	3.25
355.846	1.25
356.634	4.25
357.422	3.25
358.209	3.25
358.997	2.25
359.784	1.25
360.571	4.25
361.359	1.25
362.146	2.25
362.933	3.25
363.72	2.25
364.507	4.25
365.294	1.25
366.081	4.25
366.867	3.25
367.654	3.25
368.44	0.25
369.227	2.25
370.013	2.25
370.8	3.25
371.586	4.25
372.372	2.25
373.158	2.25
373.944	2.25
374.73	1.25
375.516	3.25
376.302	1.25
377.088	5.25
377.873	1.25
378.659	1.25
379.445	4.25
380.23	1.25
381.015	3.25
381.801	5.25
382.586	1.25
383.371	0.25
384.156	2.25
384.941	1.25
385.726	3.25
386.511	3.25
387.296	3.25
388.08	4.25
388.865	3.25
389.649	1.25
390.434	3.25
391.218	3.25
392.003	3.25
392.787	2.25
393.571	4.25
394.355	2.25
395.139	0.25
395.923	3.25
396.707	2.25
397.491	3.25
398.274	3.25
399.058	3.25
399.842	4.25
400.625	1.25
401.408	4.25
402.192	2.25
402.975	4.25
403.758	4.25
404.541	7.25
405.324	6.25
406.107	2.25
406.89	2.25
407.673	4.25
408.456	4.25
409.238	6.25
410.021	3.25
410.803	3.25
411.586	4.25
412.368	5.25
413.151	2.25
413.933	4.25
414.715	5.25
415.497	5.25
416.279	3.25
417.061	7.25
417.843	5.25
418.624	3.25
419.406	4.25
420.188	5.25
420.969	6.25
421.751	8.25
422.532	5.25
423.313	2.25
424.095	4.25
424.876	6.25
425.657	6.25
426.438	5.25
427.219	7.25
428	6.25
428.78	7.25
429.561	8.25
430.342	5.25
431.122	6.25
431.903	5.25
432.683	9.25
433.464	6.25
434.244	7.25
435.024	7.25
435.804	6.25
436.584	9.25
437.364	10.25
438.144	9.25
438.924	9.25
439.704	10.25
440.483	11.25
441.263	11.25
442.042	13.25
442.822	10.25
443.601	17.25
444.38	16.25
445.16	18.25
445.939	17.25
446.718	18.25
447.497	20.25
448.276	21.25
449.054	21.25
449.833	22.25
450.612	27.25
451.391	31.25
452.169	33.25
452.948	34.25
453.726	35.25
454.504	41.25
455.282	39.25
456.061	47.25
456.839	55.25
457.617	59.25
458.395	65.25
459.172	73.25
459.95	83.25
460.728	85.25
461.506	101.25
462.283	114.25
463.061	121.25
463.838	138.25
464.615	153.25
465.393	166.25
466.17	190.25
466.947	206.25
467.724	233.25
468.501	257.25
469.278	288.25
470.055	325.25
470.831	352.25
471.608	389.25
472.385	431.25
473.161	483.25
473.938	533.25
474.714	585.25
475.49	647.25
476.266	716.25
477.043	799.25
477.819	869.25
478.595	963.25
479.371	1047.25
480.146	1145.25
480.922	1261.25
481.698	1400.25
482.473	1546.25
483.249	1687.25
484.024	1849.25
484.8	2023.25
485.575	2224.25
486.35	2438.25
487.126	2663.25
487.901	2941.25
488.676	3199.25
489.451	3514.25
490.225	3822.25
491	4181.25
491.775	4575.25
492.55	4977.25
493.324	5437.25
494.099	5914.25
494.873	6422.25
495.647	6976.25
496.422	7566.25
497.196	8157.25
497.97	8761.25
498.744	9470.25
499.518	10169.25
500.292	10843.25
501.066	11478.25
501.839	12091.25
502.613	12760.25
503.387	13358.25
504.16	13879.25
504.934	14365.25
505.707	14812.25
506.48	15118.25
507.253	15317.25
508.027	15498.25
508.8	15586.25
509.573	15513.25
510.346	15385.25
511.118	15176.25
511.891	14942.25
512.664	14564.25
513.437	14155.25
514.209	13715.25
514.982	13184.25
515.754	12719.25
516.526	12210.25
517.298	11694.25
518.071	11228.25
518.843	10743.25
519.615	10324.25
520.387	9884.25
521.159	9505.25
521.93	9089.25
522.702	8763.25
523.474	8450.25
524.245	8099.25
525.017	7775.25
525.788	7443.25
526.56	7107.25
527.331	6860.25
528.102	6546.25
528.873	6280.25
529.644	5998.25
530.415	5762.25
531.186	5488.25
531.957	5237.25
532.728	4994.25
533.498	4727.25
534.269	4477.25
535.039	4228.25
535.81	4023.25
536.58	3805.25
537.351	3574.25
538.121	3406.25
538.891	3214.25
539.661	3048.25
540.431	2867.25
541.201	2751.25
541.971	2583.25
542.741	2426.25
543.51	2311.25
544.28	2176.25
545.05	2064.25
545.819	1977.25
546.588	1869.25
547.358	1784.25
548.127	1711.25
548.896	1616.25
549.665	1534.25
550.434	1464.25
551.203	1381.25
551.972	1313.25
552.741	1261.25
553.51	1185.25
554.278	1104.25
555.047	1047.25
555.815	1004.25
556.584	944.25
557.352	905.25
558.121	834.25
558.889	802.25
559.657	744.25
560.425	699.25
561.193	657.25
561.961	628.25
562.729	598.25
563.496	562.25
564.264	533.25
565.032	499.25
565.799	463.25
566.567	449.25
567.334	429.25
568.101	396.25
568.869	377.25
569.636	355.25
570.403	338.25
571.17	309.25
571.937	299.25
572.704	278.25
573.471	264.25
574.237	243.25
575.004	230.25
575.771	220.25
576.537	207.25
577.303	191.25
578.07	183.25
578.836	175.25
579.602	162.25
580.368	154.25
581.134	152.25
581.9	135.25
582.666	131.25
583.432	128.25
584.198	115.25
584.964	111.25
585.729	103.25
586.495	100.25
587.26	92.25
588.025	92.25
588.791	82.25
589.556	77.25
590.321	76.25
591.086	71.25
591.851	64.25
592.616	62.25
593.381	62.25
594.146	56.25
594.911	52.25
595.675	54.25
596.44	50.25
597.204	45.25
597.969	46.25
598.733	45.25
599.497	38.25
600.261	36.25
601.025	39.25
601.79	37.25
602.553	34.25
603.317	33.25
604.081	31.25
604.845	29.25
605.609	29.25
606.372	26.25
607.136	25.25
607.899	27.25
608.662	23.25
609.426	22.25
610.189	22.25
610.952	20.25
611.715	18.25
612.478	18.25
613.241	16.25
614.004	18.25
614.767	14.25
615.529	17.25
616.292	17.25
617.055	16.25
617.817	16.25
618.579	14.25
619.342	14.25
620.104	11.25
620.866	13.25
621.628	11.25
622.39	11.25
623.152	12.25
623.914	10.25
624.676	11.25
625.438	10.25
626.199	11.25
626.961	11.25
627.722	7.25
628.484	7.25
629.245	7.25
630.006	9.25
630.768	5.25
631.529	9.25
632.29	8.25
633.051	9.25
633.812	5.25
634.573	6.25
635.333	7.25
636.094	8.25
636.855	7.25
637.615	4.25
638.376	7.25
639.136	7.25
639.896	4.25
640.657	4.25
641.417	3.25
642.177	4.25
642.937	5.25
643.697	3.25
644.457	3.25
645.216	5.25
645.976	5.25
646.736	3.25
647.495	4.25
648.255	3.25
649.014	6.25
649.774	5.25
650.533	3.25
651.292	4.25
652.051	2.25
652.81	3.25
653.569	5.25
654.328	2.25
655.087	3.25
655.846	3.25
656.604	3.25
657.363	3.25
658.121	4.25
658.88	2.25
659.638	3.25
660.397	1.25
661.155	3.25
661.913	4.25
662.671	1.25
663.429	1.25
664.187	2.25
664.945	1.25
665.703	2.25
666.46	2.25
667.218	3.25
667.976	2.25
668.733	3.25
669.49	2.25
670.248	2.25
671.005	3.25
671.762	4.25
672.519	7.25
673.276	2.25
674.033	4.25
674.79	2.25
675.547	2.25
676.304	1.25
677.06	1.25
677.817	1.25
678.574	1.25
679.33	0.25
680.086	3.25
680.843	1.25
681.599	2.25
682.355	2.25
683.111	3.25
683.867	2.25
684.623	4.25
685.379	1.25
686.135	4.25
686.89	3.25
687.646	2.25
688.402	0.25
689.157	3.25
689.912	2.25
690.668	2.25
691.423	1.25
692.178	2.25
692.933	1.25
693.688	2.25
694.443	0.25
695.198	1.25
695.953	1.25
696.708	1.25
697.462	3.25
698.217	1.25
698.972	3.25
699.726	1.25
700.48	1.25
701.235	2.25
701.989	-0.75
702.743	2.25
703.497	0.25
704.251	3.25
705.005	2.25
705.759	1.25
706.513	1.25
707.266	1.25
708.02	1.25
708.774	2.25
709.527	3.25
710.28	1.25
711.034	1.25
711.787	4.25
712.54	1.25
713.293	2.25
714.046	0.25
714.799	2.25
715.552	0.25
716.305	1.25
717.058	1.25
717.81	2.25
718.563	1.25
719.315	0.25
720.068	1.25
720.82	1.25
721.573	0.25
722.325	2.25
723.077	0.25
723.829	4.25
724.581	1.25
725.333	1.25
726.085	1.25
726.836	2.25
727.588	1.25
728.34	2.25
729.091	2.25
729.843	1.25
730.594	3.25
731.346	2.25
732.097	3.25
732.848	1.25
733.599	2.25
734.35	2.25
735.101	1.25
735.852	2.25
736.603	2.25
737.354	2.25
738.104	1.25
738.855	3.25
739.605	1.25
740.356	3.25
741.106	0.25
741.856	2.25
742.607	0.25
743.357	3.25
744.107	3.25
744.857	1.25
745.607	2.25
746.357	0.25
747.106	1.25
747.856	3.25
748.606	3.25
749.355	1.25
750.105	2.25
750.854	4.25
751.603	3.25
752.353	5.25
753.102	1.25
753.851	3.25
754.6	3.25
755.349	1.25
756.098	3.25
756.847	2.25
757.595	3.25
758.344	1.25
759.093	2.25
759.841	2.25
760.589	2.25
761.338	1.25
762.086	0.25
762.834	4.25
763.582	3.25
764.331	4.25
765.079	1.25
765.826	3.25
766.574	0.25
767.322	4.25
768.07	4.25
768.817	3.25
769.565	2.25
770.312	3.25
771.06	2.25
771.807	3.25
772.554	4.25
773.302	7.25
774.049	3.25
774.796	5.25
775.543	3.25
776.29	3.25
777.036	5.25
777.783	3.25
778.53	4.25
779.276	4.25
780.023	5.25
780.769	4.25
781.516	5.25
782.262	6.25
783.008	5.25
783.754	5.25
784.5	4.25
785.246	3.25
785.992	5.25
786.738	5.25
787.484	6.25
788.23	6.25
788.975	4.25
789.721	3.25
790.466	4.25
791.212	5.25
791.957	5.25
792.702	3.25
793.447	4.25
794.193	5.25
794.938	6.25
795.683	3.25
796.427	3.25
797.172	4.25
797.917	4.25
798.662	4.25
799.406	4.25
800.151	5.25
800.895	6.25
801.64	6.25
802.384	4.25
803.128	5.25
803.872	5.25
804.616	6.25
805.36	3.25
806.104	4.25
806.848	4.25
807.592	3.25
808.336	4.25
809.079	2.25
809.823	5.25
810.566	1.25
811.31	3.25
812.053	3.25
812.796	1.25
813.539	3.25
814.283	2.25
815.026	6.25
815.769	2.25
816.511	2.25
817.254	3.25
817.997	0.25
818.74	2.25
819.482	0.25
820.225	4.25
820.967	2.25
821.71	3.25
822.452	3.25
823.194	1.25
823.936	4.25
824.678	2.25
825.42	2.25
826.162	3.25
826.904	2.25
827.646	1.25
828.388	3.25
829.129	5.25
829.871	2.25
830.612	5.25
831.354	2.25
832.095	1.25
832.836	2.25
833.577	1.25
834.319	3.25
835.06	2.25
835.801	4.25
836.542	1.25
837.282	2.25
838.023	2.25
838.764	2.25
839.504	2.25
840.245	-0.75
840.985	0.25
841.726	1.25
842.466	1.25
843.206	0.25
843.946	2.25
844.687	1.25
845.427	2.25
846.166	2.25
846.906	2.25
847.646	3.25
848.386	3.25
849.125	1.25
849.865	0.25
850.605	-1.75
851.344	1.25
852.083	1.25
852.823	4.25
853.562	0.25
854.301	1.25
855.04	2.25
855.779	2.25
856.518	1.25
857.257	2.25
857.995	0.25
858.734	1.25
859.473	3.25
860.211	0.25
860.95	1.25
861.688	2.25
862.426	0.25
863.165	3.25
863.903	-1.75
864.641	2.25
865.379	1.25
866.117	0.25
866.855	1.25
867.593	3.25
868.33	-0.75
869.068	3.25
869.806	0.25
870.543	1.25
871.28	2.25
872.018	1.25
872.755	1.25
873.492	2.25
874.229	-0.75
874.967	1.25
875.703	0.25
876.44	0.25
877.177	3.25
877.914	1.25
878.651	1.25
879.387	2.25
880.124	0.25
880.86	-0.75
881.597	0.25
882.333	0.25
883.069	0.25
883.806	-1.75
884.542	2.25
885.278	-2.75
886.014	1.25
886.749	-0.75
887.485	1.25
888.221	0.25
888.957	-0.75
889.692	1.25
890.428	0.25
891.163	1.25
891.899	-0.75
892.634	0.25
893.369	-0.75
894.104	-1.75
894.839	-1.75
895.574	-0.75
896.309	2.25
897.044	2.25
897.779	0.25
898.514	-0.75
899.248	-0.75
899.983	0.25
900.717	-0.75
901.452	1.25
902.186	-1.75
902.92	1.25
903.654	-0.75
904.389	-0.75
905.123	0.25
905.857	1.25
906.59	0.25
907.324	1.25
908.058	-0.75
908.792	2.25
909.525	1.25
910.259	0.25
910.992	-0.75
911.726	1.25
912.459	2.25
913.192	1.25
913.925	1.25
914.658	0.25
915.391	0.25
916.124	-0.75
916.857	0.25
917.59	0.25
918.323	1.25
919.055	1.25
919.788	1.25
920.521	0.25
921.253	-2.75
921.985	0.25
922.718	0.25
923.45	-1.75
924.182	-0.75
924.914	1.25
925.646	1.25
926.378	-1.75
927.11	1.25
927.841	-0.75
928.573	1.25
929.305	0.25
930.036	0.25
930.768	1.25
931.499	0.25
932.23	-0.75
932.962	1.25
933.693	-1.75
934.424	1.25
935.155	-2.75
935.886	1.25
936.617	-0.75
937.348	2.25
938.078	0.25
938.809	-2.75
939.54	2.25
940.27	1.25
941.001	-0.75
941.731	1.25
942.461	-0.75
943.191	1.25
943.922	-2.75
944.652	1.25
945.382	2.25
946.112	0.25
946.841	-1.75
947.571	1.25
948.301	-0.75
949.031	-1.75
949.76	2.25
950.49	-0.75
951.219	-0.75
951.948	2.25
952.678	2.25
953.407	0.25
954.136	-1.75
954.865	0.25
955.594	-2.75
956.323	0.25
957.052	0.25
957.78	1.25
958.509	-1.75
959.238	2.25
959.966	-1.75
960.695	0.25
961.423	-0.75
962.151	-1.75
962.88	-1.75
963.608	0.25
964.336	-0.75
965.064	-0.75
965.792	-1.75
966.52	3.25
967.247	0.25
967.975	0.25
968.703	0.25
969.43	-0.75
970.158	1.25
970.885	-0.75
971.613	1.25
972.34	0.25
973.067	0.25
973.794	0.25
974.521	-0.75
975.248	3.25
975.975	-1.75
976.702	0.25
977.429	1.25
978.156	-0.75
978.882	0.25
979.609	2.25
980.335	-0.75
981.062	1.25
981.788	0.25
982.514	-0.75
983.24	0.25
983.967	-0.75
984.693	0.25
985.419	-1.75
986.144	-2.75
986.87	2.25
987.596	1.25
988.322	-1.75
989.047	0.25
989.773	-0.75
990.498	0.25
991.224	0.25
991.949	0.25
992.674	-0.75
993.399	-0.75
994.124	0.25
994.849	-2.75
995.574	-0.75
996.299	0.25
997.024	0.25
997.749	1.25
998.473	-0.75
999.198	-1.75
999.922	1.25
1000.647	-0.75
1001.371	2.25
1002.095	1.25
1002.82	0.25
1003.544	-0.75
1004.268	-1.75
1004.992	-1.75
1005.716	-0.75
1006.439	-1.75
1007.163	0.25
1007.887	0.25
1008.611	0.25
1009.334	-1.75
1010.058	-0.75
1010.781	-0.75
1011.504	0.25
1012.228	-0.75
1012.951	-1.75
1013.674	0.25
1014.397	-0.75
1015.12	-0.75
