节点500_145_QEPB04081__565__11-37-56-393.txt的数据

Date: Wed Nov 12 11:37:56 CST 2025
User: PC
Spectrometer: QEPB0408
触发模式: 0
积分时间 (秒): 1.000000E-2
Scans to average: 1
启用暗噪声校正: true
启用非线性校正: false
滑动平均宽度: 0
X轴模式: Wavelengths
Number of Pixels in Spectrum: 1044
>>>>>Begin Spectral Data<<<<<
220.843	0.25
221.644	-1.75
222.444	-0.75
223.244	0.25
224.045	0.25
224.845	-2.75
225.645	1.25
226.445	1.25
227.245	-0.75
228.045	1.25
228.845	-0.75
229.645	0.25
230.444	1.25
231.244	1.25
232.043	0.25
232.843	2.25
233.642	0.25
234.442	0.25
235.241	1.25
236.04	1.25
236.839	1.25
237.638	0.25
238.437	-1.75
239.236	-1.75
240.035	2.25
240.833	0.25
241.632	1.25
242.43	3.25
243.229	2.25
244.027	1.25
244.826	3.25
245.624	1.25
246.422	1.25
247.22	-0.75
248.018	3.25
248.816	2.25
249.614	2.25
250.412	2.25
251.21	1.25
252.007	2.25
252.805	2.25
253.602	3.25
254.4	3.25
255.197	3.25
255.994	3.25
256.791	2.25
257.589	3.25
258.386	2.25
259.183	4.25
259.979	3.25
260.776	4.25
261.573	5.25
262.37	4.25
263.166	5.25
263.963	5.25
264.759	6.25
265.556	4.25
266.352	5.25
267.148	6.25
267.944	3.25
268.74	5.25
269.536	8.25
270.332	7.25
271.128	5.25
271.924	5.25
272.719	7.25
273.515	7.25
274.311	5.25
275.106	7.25
275.901	8.25
276.697	9.25
277.492	7.25
278.287	8.25
279.082	7.25
279.877	7.25
280.672	9.25
281.467	10.25
282.262	8.25
283.056	8.25
283.851	9.25
284.646	10.25
285.44	9.25
286.234	9.25
287.029	8.25
287.823	8.25
288.617	11.25
289.411	10.25
290.205	10.25
290.999	11.25
291.793	12.25
292.587	9.25
293.381	10.25
294.174	8.25
294.968	8.25
295.761	9.25
296.555	7.25
297.348	7.25
298.141	8.25
298.935	10.25
299.728	8.25
300.521	10.25
301.314	5.25
302.107	8.25
302.899	7.25
303.692	7.25
304.485	5.25
305.277	8.25
306.07	8.25
306.862	8.25
307.655	8.25
308.447	8.25
309.239	6.25
310.031	7.25
310.823	6.25
311.615	8.25
312.407	5.25
313.199	6.25
313.991	6.25
314.783	5.25
315.574	5.25
316.366	4.25
317.157	3.25
317.949	5.25
318.74	6.25
319.531	5.25
320.322	5.25
321.113	4.25
321.904	6.25
322.695	4.25
323.486	2.25
324.277	2.25
325.068	5.25
325.858	3.25
326.649	4.25
327.439	4.25
328.23	5.25
329.02	3.25
329.81	3.25
330.6	2.25
331.391	5.25
332.181	3.25
332.971	3.25
333.76	4.25
334.55	2.25
335.34	4.25
336.13	4.25
336.919	1.25
337.709	5.25
338.498	3.25
339.287	4.25
340.077	3.25
340.866	1.25
341.655	2.25
342.444	2.25
343.233	5.25
344.022	3.25
344.811	4.25
345.6	3.25
346.388	1.25
347.177	3.25
347.965	3.25
348.754	2.25
349.542	3.25
350.33	4.25
351.119	2.25
351.907	4.25
352.695	5.25
353.483	4.25
354.271	3.25
355.059	2.25
355.846	3.25
356.634	2.25
357.422	1.25
358.209	2.25
358.997	0.25
359.784	4.25
360.571	2.25
361.359	2.25
362.146	1.25
362.933	3.25
363.72	2.25
364.507	3.25
365.294	2.25
366.081	3.25
366.867	3.25
367.654	4.25
368.44	3.25
369.227	1.25
370.013	-0.75
370.8	2.25
371.586	2.25
372.372	2.25
373.158	2.25
373.944	2.25
374.73	2.25
375.516	1.25
376.302	5.25
377.088	0.25
377.873	3.25
378.659	2.25
379.445	0.25
380.23	3.25
381.015	1.25
381.801	3.25
382.586	1.25
383.371	2.25
384.156	3.25
384.941	1.25
385.726	2.25
386.511	3.25
387.296	5.25
388.08	2.25
388.865	5.25
389.649	3.25
390.434	1.25
391.218	5.25
392.003	3.25
392.787	3.25
393.571	1.25
394.355	4.25
395.139	3.25
395.923	0.25
396.707	3.25
397.491	2.25
398.274	2.25
399.058	2.25
399.842	4.25
400.625	2.25
401.408	3.25
402.192	2.25
402.975	1.25
403.758	4.25
404.541	4.25
405.324	3.25
406.107	2.25
406.89	4.25
407.673	5.25
408.456	5.25
409.238	5.25
410.021	6.25
410.803	4.25
411.586	4.25
412.368	3.25
413.151	4.25
413.933	2.25
414.715	6.25
415.497	4.25
416.279	3.25
417.061	2.25
417.843	4.25
418.624	7.25
419.406	5.25
420.188	3.25
420.969	3.25
421.751	7.25
422.532	5.25
423.313	6.25
424.095	5.25
424.876	5.25
425.657	5.25
426.438	5.25
427.219	5.25
428	8.25
428.78	3.25
429.561	9.25
430.342	7.25
431.122	6.25
431.903	7.25
432.683	11.25
433.464	8.25
434.244	8.25
435.024	10.25
435.804	7.25
436.584	10.25
437.364	8.25
438.144	10.25
438.924	9.25
439.704	10.25
440.483	11.25
441.263	14.25
442.042	12.25
442.822	13.25
443.601	14.25
444.38	16.25
445.16	16.25
445.939	14.25
446.718	19.25
447.497	18.25
448.276	21.25
449.054	21.25
449.833	25.25
450.612	24.25
451.391	26.25
452.169	31.25
452.948	33.25
453.726	37.25
454.504	37.25
455.282	46.25
456.061	50.25
456.839	58.25
457.617	59.25
458.395	66.25
459.172	73.25
459.95	78.25
460.728	88.25
461.506	98.25
462.283	113.25
463.061	121.25
463.838	136.25
464.615	155.25
465.393	172.25
466.17	193.25
466.947	209.25
467.724	232.25
468.501	263.25
469.278	287.25
470.055	317.25
470.831	354.25
471.608	396.25
472.385	435.25
473.161	484.25
473.938	535.25
474.714	588.25
475.49	652.25
476.266	717.25
477.043	807.25
477.819	882.25
478.595	949.25
479.371	1062.25
480.146	1153.25
480.922	1294.25
481.698	1408.25
482.473	1538.25
483.249	1699.25
484.024	1842.25
484.8	2021.25
485.575	2224.25
486.35	2416.25
487.126	2664.25
487.901	2938.25
488.676	3184.25
489.451	3479.25
490.225	3786.25
491	4170.25
491.775	4559.25
492.55	4930.25
493.324	5416.25
494.099	5905.25
494.873	6412.25
495.647	6952.25
496.422	7516.25
497.196	8109.25
497.97	8756.25
498.744	9397.25
499.518	10128.25
500.292	10776.25
501.066	11431.25
501.839	12096.25
502.613	12691.25
503.387	13262.25
504.16	13811.25
504.934	14359.25
505.707	14727.25
506.48	14992.25
507.253	15275.25
508.027	15469.25
508.8	15535.25
509.573	15504.25
510.346	15369.25
511.118	15179.25
511.891	14874.25
512.664	14551.25
513.437	14133.25
514.209	13709.25
514.982	13210.25
515.754	12734.25
516.526	12243.25
517.298	11713.25
518.071	11201.25
518.843	10750.25
519.615	10313.25
520.387	9879.25
521.159	9500.25
521.93	9088.25
522.702	8749.25
523.474	8444.25
524.245	8090.25
525.017	7728.25
525.788	7451.25
526.56	7151.25
527.331	6865.25
528.102	6572.25
528.873	6308.25
529.644	6040.25
530.415	5765.25
531.186	5510.25
531.957	5248.25
532.728	5001.25
533.498	4722.25
534.269	4494.25
535.039	4223.25
535.81	4020.25
536.58	3818.25
537.351	3600.25
538.121	3377.25
538.891	3221.25
539.661	3043.25
540.431	2874.25
541.201	2716.25
541.971	2583.25
542.741	2434.25
543.51	2313.25
544.28	2203.25
545.05	2083.25
545.819	1997.25
546.588	1889.25
547.358	1803.25
548.127	1708.25
548.896	1613.25
549.665	1537.25
550.434	1464.25
551.203	1398.25
551.972	1328.25
552.741	1255.25
553.51	1185.25
554.278	1129.25
555.047	1063.25
555.815	1011.25
556.584	937.25
557.352	901.25
558.121	843.25
558.889	784.25
559.657	746.25
560.425	709.25
561.193	663.25
561.961	629.25
562.729	598.25
563.496	553.25
564.264	526.25
565.032	504.25
565.799	462.25
566.567	442.25
567.334	413.25
568.101	396.25
568.869	380.25
569.636	354.25
570.403	330.25
571.17	313.25
571.937	289.25
572.704	282.25
573.471	269.25
574.237	245.25
575.004	230.25
575.771	224.25
576.537	209.25
577.303	198.25
578.07	183.25
578.836	174.25
579.602	163.25
580.368	152.25
581.134	149.25
581.9	140.25
582.666	136.25
583.432	126.25
584.198	117.25
584.964	109.25
585.729	108.25
586.495	100.25
587.26	90.25
588.025	90.25
588.791	81.25
589.556	80.25
590.321	71.25
591.086	72.25
591.851	67.25
592.616	62.25
593.381	58.25
594.146	57.25
594.911	56.25
595.675	55.25
596.44	50.25
597.204	45.25
597.969	43.25
598.733	42.25
599.497	39.25
600.261	40.25
601.025	36.25
601.79	34.25
602.553	33.25
603.317	32.25
604.081	32.25
604.845	28.25
605.609	29.25
606.372	22.25
607.136	25.25
607.899	24.25
608.662	22.25
609.426	23.25
610.189	23.25
610.952	22.25
611.715	20.25
612.478	17.25
613.241	15.25
614.004	14.25
614.767	18.25
615.529	18.25
616.292	14.25
617.055	14.25
617.817	16.25
618.579	13.25
619.342	14.25
620.104	12.25
620.866	14.25
621.628	12.25
622.39	11.25
623.152	14.25
623.914	12.25
624.676	10.25
625.438	9.25
626.199	10.25
626.961	8.25
627.722	9.25
628.484	9.25
629.245	10.25
630.006	9.25
630.768	7.25
631.529	7.25
632.29	9.25
633.051	7.25
633.812	7.25
634.573	9.25
635.333	7.25
636.094	10.25
636.855	5.25
637.615	5.25
638.376	6.25
639.136	5.25
639.896	9.25
640.657	7.25
641.417	6.25
642.177	3.25
642.937	5.25
643.697	5.25
644.457	7.25
645.216	3.25
645.976	3.25
646.736	4.25
647.495	5.25
648.255	4.25
649.014	2.25
649.774	6.25
650.533	5.25
651.292	2.25
652.051	6.25
652.81	5.25
653.569	3.25
654.328	5.25
655.087	5.25
655.846	5.25
656.604	3.25
657.363	1.25
658.121	0.25
658.88	4.25
659.638	4.25
660.397	3.25
661.155	1.25
661.913	3.25
662.671	4.25
663.429	2.25
664.187	5.25
664.945	2.25
665.703	1.25
666.46	1.25
667.218	1.25
667.976	6.25
668.733	2.25
669.49	4.25
670.248	2.25
671.005	2.25
671.762	5.25
672.519	1.25
673.276	1.25
674.033	0.25
674.79	2.25
675.547	3.25
676.304	2.25
677.06	4.25
677.817	1.25
678.574	2.25
679.33	2.25
680.086	2.25
680.843	1.25
681.599	1.25
682.355	0.25
683.111	1.25
683.867	4.25
684.623	0.25
685.379	3.25
686.135	2.25
686.89	4.25
687.646	1.25
688.402	1.25
689.157	3.25
689.912	2.25
690.668	3.25
691.423	1.25
692.178	2.25
692.933	0.25
693.688	1.25
694.443	1.25
695.198	0.25
695.953	3.25
696.708	4.25
697.462	-0.75
698.217	0.25
698.972	3.25
699.726	3.25
700.48	0.25
701.235	2.25
701.989	3.25
702.743	3.25
703.497	2.25
704.251	-0.75
705.005	2.25
705.759	1.25
706.513	2.25
707.266	4.25
708.02	1.25
708.774	4.25
709.527	0.25
710.28	3.25
711.034	1.25
711.787	3.25
712.54	2.25
713.293	0.25
714.046	3.25
714.799	0.25
715.552	4.25
716.305	0.25
717.058	0.25
717.81	4.25
718.563	2.25
719.315	3.25
720.068	-0.75
720.82	2.25
721.573	1.25
722.325	4.25
723.077	2.25
723.829	3.25
724.581	3.25
725.333	1.25
726.085	2.25
726.836	2.25
727.588	2.25
728.34	3.25
729.091	-0.75
729.843	1.25
730.594	1.25
731.346	3.25
732.097	3.25
732.848	2.25
733.599	3.25
734.35	1.25
735.101	4.25
735.852	2.25
736.603	2.25
737.354	1.25
738.104	3.25
738.855	2.25
739.605	2.25
740.356	2.25
741.106	1.25
741.856	3.25
742.607	3.25
743.357	1.25
744.107	4.25
744.857	-0.75
745.607	9.25
746.357	1.25
747.106	1.25
747.856	1.25
748.606	3.25
749.355	1.25
750.105	2.25
750.854	2.25
751.603	3.25
752.353	3.25
753.102	1.25
753.851	4.25
754.6	3.25
755.349	1.25
756.098	3.25
756.847	4.25
757.595	3.25
758.344	2.25
759.093	1.25
759.841	4.25
760.589	4.25
761.338	3.25
762.086	4.25
762.834	6.25
763.582	1.25
764.331	3.25
765.079	4.25
765.826	3.25
766.574	4.25
767.322	2.25
768.07	6.25
768.817	3.25
769.565	0.25
770.312	4.25
771.06	3.25
771.807	3.25
772.554	2.25
773.302	1.25
774.049	4.25
774.796	2.25
775.543	5.25
776.29	4.25
777.036	5.25
777.783	7.25
778.53	5.25
779.276	3.25
780.023	3.25
780.769	4.25
781.516	3.25
782.262	5.25
783.008	3.25
783.754	5.25
784.5	4.25
785.246	5.25
785.992	4.25
786.738	5.25
787.484	4.25
788.23	3.25
788.975	4.25
789.721	2.25
790.466	3.25
791.212	6.25
791.957	4.25
792.702	6.25
793.447	4.25
794.193	5.25
794.938	5.25
795.683	5.25
796.427	4.25
797.172	3.25
797.917	5.25
798.662	2.25
799.406	3.25
800.151	7.25
800.895	3.25
801.64	6.25
802.384	4.25
803.128	5.25
803.872	3.25
804.616	5.25
805.36	1.25
806.104	3.25
806.848	4.25
807.592	3.25
808.336	4.25
809.079	2.25
809.823	3.25
810.566	5.25
811.31	2.25
812.053	5.25
812.796	2.25
813.539	2.25
814.283	4.25
815.026	3.25
815.769	1.25
816.511	2.25
817.254	3.25
817.997	3.25
818.74	1.25
819.482	5.25
820.225	1.25
820.967	3.25
821.71	2.25
822.452	2.25
823.194	4.25
823.936	3.25
824.678	3.25
825.42	3.25
826.162	2.25
826.904	1.25
827.646	3.25
828.388	3.25
829.129	3.25
829.871	2.25
830.612	1.25
831.354	4.25
832.095	1.25
832.836	3.25
833.577	2.25
834.319	3.25
835.06	2.25
835.801	3.25
836.542	1.25
837.282	0.25
838.023	2.25
838.764	3.25
839.504	3.25
840.245	1.25
840.985	1.25
841.726	2.25
842.466	2.25
843.206	4.25
843.946	2.25
844.687	0.25
845.427	2.25
846.166	1.25
846.906	3.25
847.646	1.25
848.386	1.25
849.125	2.25
849.865	2.25
850.605	2.25
851.344	2.25
852.083	2.25
852.823	-0.75
853.562	2.25
854.301	2.25
855.04	-0.75
855.779	2.25
856.518	1.25
857.257	0.25
857.995	3.25
858.734	2.25
859.473	1.25
860.211	0.25
860.95	2.25
861.688	1.25
862.426	1.25
863.165	-0.75
863.903	2.25
864.641	0.25
865.379	1.25
866.117	0.25
866.855	2.25
867.593	2.25
868.33	-1.75
869.068	2.25
869.806	2.25
870.543	0.25
871.28	1.25
872.018	0.25
872.755	2.25
873.492	-0.75
874.229	0.25
874.967	1.25
875.703	-1.75
876.44	1.25
877.177	-0.75
877.914	0.25
878.651	2.25
879.387	1.25
880.124	0.25
880.86	0.25
881.597	3.25
882.333	-1.75
883.069	2.25
883.806	1.25
884.542	1.25
885.278	1.25
886.014	1.25
886.749	0.25
887.485	1.25
888.221	1.25
888.957	-1.75
889.692	1.25
890.428	2.25
891.163	-0.75
891.899	1.25
892.634	1.25
893.369	0.25
894.104	1.25
894.839	1.25
895.574	0.25
896.309	-0.75
897.044	-0.75
897.779	2.25
898.514	2.25
899.248	1.25
899.983	1.25
900.717	-1.75
901.452	-0.75
902.186	2.25
902.92	0.25
903.654	-0.75
904.389	1.25
905.123	-0.75
905.857	-0.75
906.59	0.25
907.324	0.25
908.058	-1.75
908.792	1.25
909.525	1.25
910.259	1.25
910.992	-0.75
911.726	0.25
912.459	0.25
913.192	0.25
913.925	0.25
914.658	0.25
915.391	0.25
916.124	1.25
916.857	-1.75
917.59	0.25
918.323	-0.75
919.055	-0.75
919.788	0.25
920.521	0.25
921.253	2.25
921.985	1.25
922.718	1.25
923.45	0.25
924.182	2.25
924.914	0.25
925.646	1.25
926.378	0.25
927.11	-1.75
927.841	-0.75
928.573	0.25
929.305	-0.75
930.036	-0.75
930.768	0.25
931.499	-2.75
932.23	-0.75
932.962	-0.75
933.693	-0.75
934.424	1.25
935.155	-0.75
935.886	-0.75
936.617	1.25
937.348	-0.75
938.078	2.25
938.809	1.25
939.54	-2.75
940.27	-1.75
941.001	0.25
941.731	-1.75
942.461	1.25
943.191	1.25
943.922	0.25
944.652	0.25
945.382	2.25
946.112	1.25
946.841	2.25
947.571	-1.75
948.301	-1.75
949.031	1.25
949.76	-1.75
950.49	-1.75
951.219	1.25
951.948	-0.75
952.678	2.25
953.407	0.25
954.136	-1.75
954.865	-0.75
955.594	-0.75
956.323	1.25
957.052	1.25
957.78	0.25
958.509	1.25
959.238	0.25
959.966	1.25
960.695	-0.75
961.423	0.25
962.151	-0.75
962.88	-0.75
963.608	1.25
964.336	0.25
965.064	-1.75
965.792	-0.75
966.52	0.25
967.247	1.25
967.975	-1.75
968.703	0.25
969.43	1.25
970.158	1.25
970.885	-1.75
971.613	0.25
972.34	1.25
973.067	-1.75
973.794	-0.75
974.521	-1.75
975.248	-1.75
975.975	1.25
976.702	1.25
977.429	1.25
978.156	-1.75
978.882	-0.75
979.609	-0.75
980.335	1.25
981.062	0.25
981.788	0.25
982.514	0.25
983.24	0.25
983.967	0.25
984.693	0.25
985.419	0.25
986.144	0.25
986.87	1.25
987.596	2.25
988.322	0.25
989.047	-0.75
989.773	1.25
990.498	0.25
991.224	-1.75
991.949	-1.75
992.674	0.25
993.399	-0.75
994.124	-0.75
994.849	1.25
995.574	1.25
996.299	-1.75
997.024	-0.75
997.749	1.25
998.473	-0.75
999.198	2.25
999.922	-1.75
1000.647	-1.75
1001.371	5.25
1002.095	-0.75
1002.82	1.25
1003.544	-2.75
1004.268	-0.75
1004.992	0.25
1005.716	-1.75
1006.439	1.25
1007.163	-0.75
1007.887	1.25
1008.611	-0.75
1009.334	0.25
1010.058	1.25
1010.781	-1.75
1011.504	0.25
1012.228	-1.75
1012.951	0.25
1013.674	-1.75
1014.397	-1.75
1015.12	0.25
