节点500_145_QEPB04081__283__11-33-29-506.txt的数据

Date: Wed Nov 12 11:33:29 CST 2025
User: PC
Spectrometer: QEPB0408
触发模式: 0
积分时间 (秒): 1.000000E-2
Scans to average: 1
启用暗噪声校正: true
启用非线性校正: false
滑动平均宽度: 0
X轴模式: Wavelengths
Number of Pixels in Spectrum: 1044
>>>>>Begin Spectral Data<<<<<
220.843	-0.5
221.644	-2.5
222.444	0.5
223.244	0.5
224.045	2.5
224.845	-0.5
225.645	-0.5
226.445	-2.5
227.245	-0.5
228.045	0.5
228.845	-1.5
229.645	-0.5
230.444	-0.5
231.244	-1.5
232.043	1.5
232.843	-0.5
233.642	1.5
234.442	0.5
235.241	0.5
236.04	-0.5
236.839	1.5
237.638	1.5
238.437	1.5
239.236	0.5
240.035	0.5
240.833	-0.5
241.632	0.5
242.43	1.5
243.229	-2.5
244.027	0.5
244.826	1.5
245.624	0.5
246.422	0.5
247.22	0.5
248.018	0.5
248.816	0.5
249.614	2.5
250.412	3.5
251.21	2.5
252.007	-0.5
252.805	2.5
253.602	2.5
254.4	4.5
255.197	1.5
255.994	2.5
256.791	5.5
257.589	1.5
258.386	1.5
259.183	3.5
259.979	1.5
260.776	5.5
261.573	4.5
262.37	2.5
263.166	2.5
263.963	4.5
264.759	1.5
265.556	2.5
266.352	5.5
267.148	6.5
267.944	4.5
268.74	6.5
269.536	5.5
270.332	4.5
271.128	6.5
271.924	7.5
272.719	4.5
273.515	8.5
274.311	8.5
275.106	9.5
275.901	9.5
276.697	7.5
277.492	6.5
278.287	8.5
279.082	7.5
279.877	10.5
280.672	8.5
281.467	9.5
282.262	8.5
283.056	7.5
283.851	7.5
284.646	11.5
285.44	8.5
286.234	7.5
287.029	11.5
287.823	10.5
288.617	10.5
289.411	11.5
290.205	8.5
290.999	9.5
291.793	12.5
292.587	9.5
293.381	7.5
294.174	10.5
294.968	10.5
295.761	8.5
296.555	11.5
297.348	6.5
298.141	10.5
298.935	10.5
299.728	7.5
300.521	8.5
301.314	6.5
302.107	8.5
302.899	5.5
303.692	7.5
304.485	8.5
305.277	7.5
306.07	8.5
306.862	8.5
307.655	9.5
308.447	7.5
309.239	6.5
310.031	6.5
310.823	6.5
311.615	5.5
312.407	6.5
313.199	4.5
313.991	5.5
314.783	4.5
315.574	5.5
316.366	6.5
317.157	4.5
317.949	3.5
318.74	6.5
319.531	3.5
320.322	3.5
321.113	5.5
321.904	4.5
322.695	1.5
323.486	2.5
324.277	4.5
325.068	3.5
325.858	4.5
326.649	3.5
327.439	4.5
328.23	4.5
329.02	2.5
329.81	2.5
330.6	4.5
331.391	2.5
332.181	4.5
332.971	1.5
333.76	3.5
334.55	5.5
335.34	4.5
336.13	2.5
336.919	2.5
337.709	2.5
338.498	1.5
339.287	3.5
340.077	3.5
340.866	2.5
341.655	4.5
342.444	2.5
343.233	1.5
344.022	1.5
344.811	4.5
345.6	4.5
346.388	2.5
347.177	1.5
347.965	2.5
348.754	2.5
349.542	4.5
350.33	4.5
351.119	3.5
351.907	3.5
352.695	1.5
353.483	3.5
354.271	2.5
355.059	4.5
355.846	1.5
356.634	3.5
357.422	2.5
358.209	2.5
358.997	3.5
359.784	5.5
360.571	2.5
361.359	2.5
362.146	2.5
362.933	-1.5
363.72	4.5
364.507	3.5
365.294	1.5
366.081	2.5
366.867	1.5
367.654	-0.5
368.44	1.5
369.227	3.5
370.013	1.5
370.8	2.5
371.586	2.5
372.372	1.5
373.158	4.5
373.944	1.5
374.73	0.5
375.516	1.5
376.302	3.5
377.088	0.5
377.873	1.5
378.659	0.5
379.445	0.5
380.23	2.5
381.015	0.5
381.801	3.5
382.586	3.5
383.371	4.5
384.156	1.5
384.941	1.5
385.726	3.5
386.511	2.5
387.296	2.5
388.08	2.5
388.865	3.5
389.649	3.5
390.434	0.5
391.218	1.5
392.003	2.5
392.787	0.5
393.571	2.5
394.355	1.5
395.139	1.5
395.923	1.5
396.707	3.5
397.491	0.5
398.274	5.5
399.058	1.5
399.842	1.5
400.625	1.5
401.408	1.5
402.192	1.5
402.975	0.5
403.758	3.5
404.541	2.5
405.324	2.5
406.107	1.5
406.89	0.5
407.673	5.5
408.456	2.5
409.238	3.5
410.021	3.5
410.803	5.5
411.586	3.5
412.368	3.5
413.151	3.5
413.933	3.5
414.715	4.5
415.497	5.5
416.279	3.5
417.061	5.5
417.843	1.5
418.624	2.5
419.406	3.5
420.188	5.5
420.969	8.5
421.751	6.5
422.532	3.5
423.313	4.5
424.095	5.5
424.876	6.5
425.657	9.5
426.438	4.5
427.219	6.5
428	7.5
428.78	4.5
429.561	6.5
430.342	6.5
431.122	5.5
431.903	5.5
432.683	6.5
433.464	5.5
434.244	5.5
435.024	8.5
435.804	8.5
436.584	7.5
437.364	9.5
438.144	10.5
438.924	13.5
439.704	10.5
440.483	10.5
441.263	10.5
442.042	11.5
442.822	10.5
443.601	11.5
444.38	15.5
445.16	14.5
445.939	12.5
446.718	16.5
447.497	16.5
448.276	19.5
449.054	19.5
449.833	23.5
450.612	22.5
451.391	28.5
452.169	27.5
452.948	28.5
453.726	34.5
454.504	36.5
455.282	41.5
456.061	45.5
456.839	50.5
457.617	51.5
458.395	60.5
459.172	64.5
459.95	71.5
460.728	83.5
461.506	89.5
462.283	104.5
463.061	111.5
463.838	126.5
464.615	144.5
465.393	157.5
466.17	176.5
466.947	191.5
467.724	216.5
468.501	239.5
469.278	267.5
470.055	300.5
470.831	326.5
471.608	367.5
472.385	413.5
473.161	455.5
473.938	506.5
474.714	559.5
475.49	624.5
476.266	698.5
477.043	759.5
477.819	848.5
478.595	945.5
479.371	1032.5
480.146	1144.5
480.922	1277.5
481.698	1406.5
482.473	1544.5
483.249	1717.5
484.024	1882.5
484.8	2067.5
485.575	2273.5
486.35	2519.5
487.126	2778.5
487.901	3054.5
488.676	3362.5
489.451	3687.5
490.225	4078.5
491	4458.5
491.775	4919.5
492.55	5410.5
493.324	5892.5
494.099	6444.5
494.873	7030.5
495.647	7687.5
496.422	8376.5
497.196	8987.5
497.97	9744.5
498.744	10469.5
499.518	11197.5
500.292	11923.5
501.066	12695.5
501.839	13341.5
502.613	14025.5
503.387	14673.5
504.16	15182.5
504.934	15678.5
505.707	16025.5
506.48	16279.5
507.253	16484.5
508.027	16519.5
508.8	16493.5
509.573	16306.5
510.346	16078.5
511.118	15746.5
511.891	15348.5
512.664	14862.5
513.437	14315.5
514.209	13836.5
514.982	13272.5
515.754	12710.5
516.526	12176.5
517.298	11683.5
518.071	11113.5
518.843	10608.5
519.615	10184.5
520.387	9747.5
521.159	9376.5
521.93	8952.5
522.702	8600.5
523.474	8275.5
524.245	7966.5
525.017	7645.5
525.788	7346.5
526.56	7047.5
527.331	6760.5
528.102	6444.5
528.873	6204.5
529.644	5871.5
530.415	5631.5
531.186	5370.5
531.957	5098.5
532.728	4835.5
533.498	4574.5
534.269	4328.5
535.039	4067.5
535.81	3839.5
536.58	3638.5
537.351	3437.5
538.121	3240.5
538.891	3067.5
539.661	2904.5
540.431	2733.5
541.201	2589.5
541.971	2457.5
542.741	2342.5
543.51	2222.5
544.28	2095.5
545.05	1988.5
545.819	1893.5
546.588	1805.5
547.358	1709.5
548.127	1623.5
548.896	1560.5
549.665	1464.5
550.434	1401.5
551.203	1320.5
551.972	1245.5
552.741	1185.5
553.51	1129.5
554.278	1061.5
555.047	1003.5
555.815	948.5
556.584	889.5
557.352	848.5
558.121	805.5
558.889	748.5
559.657	704.5
560.425	670.5
561.193	628.5
561.961	598.5
562.729	541.5
563.496	522.5
564.264	497.5
565.032	466.5
565.799	451.5
566.567	416.5
567.334	394.5
568.101	372.5
568.869	351.5
569.636	329.5
570.403	307.5
571.17	299.5
571.937	271.5
572.704	265.5
573.471	246.5
574.237	232.5
575.004	216.5
575.771	204.5
576.537	199.5
577.303	185.5
578.07	172.5
578.836	159.5
579.602	145.5
580.368	147.5
581.134	133.5
581.9	135.5
582.666	120.5
583.432	113.5
584.198	112.5
584.964	102.5
585.729	95.5
586.495	96.5
587.26	86.5
588.025	82.5
588.791	78.5
589.556	76.5
590.321	66.5
591.086	65.5
591.851	61.5
592.616	56.5
593.381	58.5
594.146	49.5
594.911	50.5
595.675	50.5
596.44	45.5
597.204	44.5
597.969	40.5
598.733	42.5
599.497	36.5
600.261	34.5
601.025	31.5
601.79	35.5
602.553	27.5
603.317	30.5
604.081	29.5
604.845	29.5
605.609	27.5
606.372	25.5
607.136	23.5
607.899	25.5
608.662	19.5
609.426	21.5
610.189	20.5
610.952	20.5
611.715	19.5
612.478	19.5
613.241	16.5
614.004	13.5
614.767	13.5
615.529	17.5
616.292	13.5
617.055	14.5
617.817	11.5
618.579	14.5
619.342	12.5
620.104	11.5
620.866	9.5
621.628	10.5
622.39	9.5
623.152	13.5
623.914	13.5
624.676	9.5
625.438	11.5
626.199	9.5
626.961	9.5
627.722	6.5
628.484	8.5
629.245	6.5
630.006	4.5
630.768	7.5
631.529	4.5
632.29	9.5
633.051	8.5
633.812	2.5
634.573	5.5
635.333	6.5
636.094	5.5
636.855	5.5
637.615	6.5
638.376	4.5
639.136	3.5
639.896	4.5
640.657	3.5
641.417	3.5
642.177	5.5
642.937	2.5
643.697	2.5
644.457	3.5
645.216	5.5
645.976	3.5
646.736	4.5
647.495	3.5
648.255	3.5
649.014	5.5
649.774	3.5
650.533	5.5
651.292	2.5
652.051	1.5
652.81	2.5
653.569	3.5
654.328	2.5
655.087	1.5
655.846	3.5
656.604	-0.5
657.363	2.5
658.121	2.5
658.88	6.5
659.638	1.5
660.397	1.5
661.155	2.5
661.913	1.5
662.671	2.5
663.429	2.5
664.187	0.5
664.945	1.5
665.703	-0.5
666.46	1.5
667.218	2.5
667.976	2.5
668.733	1.5
669.49	3.5
670.248	0.5
671.005	1.5
671.762	1.5
672.519	1.5
673.276	2.5
674.033	4.5
674.79	2.5
675.547	1.5
676.304	0.5
677.06	2.5
677.817	2.5
678.574	0.5
679.33	1.5
680.086	-0.5
680.843	4.5
681.599	0.5
682.355	1.5
683.111	3.5
683.867	2.5
684.623	0.5
685.379	1.5
686.135	0.5
686.89	2.5
687.646	2.5
688.402	-0.5
689.157	-0.5
689.912	1.5
690.668	-0.5
691.423	1.5
692.178	1.5
692.933	1.5
693.688	0.5
694.443	0.5
695.198	2.5
695.953	1.5
696.708	1.5
697.462	-1.5
698.217	1.5
698.972	1.5
699.726	-0.5
700.48	2.5
701.235	-1.5
701.989	2.5
702.743	2.5
703.497	1.5
704.251	3.5
705.005	0.5
705.759	1.5
706.513	1.5
707.266	1.5
708.02	-0.5
708.774	-1.5
709.527	0.5
710.28	1.5
711.034	1.5
711.787	-0.5
712.54	1.5
713.293	0.5
714.046	0.5
714.799	1.5
715.552	0.5
716.305	0.5
717.058	-0.5
717.81	1.5
718.563	1.5
719.315	0.5
720.068	1.5
720.82	0.5
721.573	1.5
722.325	1.5
723.077	1.5
723.829	1.5
724.581	0.5
725.333	1.5
726.085	-0.5
726.836	2.5
727.588	0.5
728.34	2.5
729.091	0.5
729.843	1.5
730.594	2.5
731.346	2.5
732.097	-0.5
732.848	2.5
733.599	2.5
734.35	1.5
735.101	1.5
735.852	2.5
736.603	-1.5
737.354	2.5
738.104	-2.5
738.855	2.5
739.605	1.5
740.356	0.5
741.106	0.5
741.856	0.5
742.607	3.5
743.357	0.5
744.107	0.5
744.857	1.5
745.607	1.5
746.357	3.5
747.106	0.5
747.856	3.5
748.606	2.5
749.355	2.5
750.105	2.5
750.854	2.5
751.603	1.5
752.353	1.5
753.102	2.5
753.851	1.5
754.6	1.5
755.349	1.5
756.098	2.5
756.847	3.5
757.595	0.5
758.344	4.5
759.093	3.5
759.841	3.5
760.589	3.5
761.338	1.5
762.086	4.5
762.834	3.5
763.582	1.5
764.331	1.5
765.079	1.5
765.826	1.5
766.574	1.5
767.322	4.5
768.07	2.5
768.817	4.5
769.565	1.5
770.312	4.5
771.06	3.5
771.807	3.5
772.554	4.5
773.302	0.5
774.049	2.5
774.796	2.5
775.543	2.5
776.29	3.5
777.036	2.5
777.783	5.5
778.53	4.5
779.276	2.5
780.023	6.5
780.769	5.5
781.516	3.5
782.262	3.5
783.008	5.5
783.754	4.5
784.5	4.5
785.246	3.5
785.992	3.5
786.738	1.5
787.484	5.5
788.23	6.5
788.975	2.5
789.721	7.5
790.466	5.5
791.212	6.5
791.957	5.5
792.702	4.5
793.447	4.5
794.193	3.5
794.938	5.5
795.683	5.5
796.427	6.5
797.172	5.5
797.917	4.5
798.662	4.5
799.406	1.5
800.151	4.5
800.895	3.5
801.64	2.5
802.384	5.5
803.128	3.5
803.872	3.5
804.616	4.5
805.36	4.5
806.104	3.5
806.848	2.5
807.592	5.5
808.336	3.5
809.079	4.5
809.823	3.5
810.566	2.5
811.31	5.5
812.053	2.5
812.796	3.5
813.539	2.5
814.283	3.5
815.026	5.5
815.769	2.5
816.511	2.5
817.254	1.5
817.997	1.5
818.74	2.5
819.482	2.5
820.225	2.5
820.967	3.5
821.71	3.5
822.452	1.5
823.194	3.5
823.936	4.5
824.678	-0.5
825.42	3.5
826.162	-0.5
826.904	5.5
827.646	3.5
828.388	4.5
829.129	1.5
829.871	4.5
830.612	3.5
831.354	0.5
832.095	3.5
832.836	2.5
833.577	0.5
834.319	2.5
835.06	1.5
835.801	0.5
836.542	2.5
837.282	3.5
838.023	2.5
838.764	1.5
839.504	-0.5
840.245	-0.5
840.985	1.5
841.726	0.5
842.466	1.5
843.206	1.5
843.946	0.5
844.687	-0.5
845.427	3.5
846.166	3.5
846.906	0.5
847.646	3.5
848.386	0.5
849.125	0.5
849.865	1.5
850.605	1.5
851.344	2.5
852.083	0.5
852.823	1.5
853.562	-0.5
854.301	0.5
855.04	3.5
855.779	-0.5
856.518	0.5
857.257	1.5
857.995	-0.5
858.734	-1.5
859.473	1.5
860.211	1.5
860.95	0.5
861.688	1.5
862.426	3.5
863.165	0.5
863.903	0.5
864.641	1.5
865.379	2.5
866.117	-2.5
866.855	2.5
867.593	0.5
868.33	0.5
869.068	1.5
869.806	0.5
870.543	0.5
871.28	0.5
872.018	2.5
872.755	-0.5
873.492	1.5
874.229	-0.5
874.967	1.5
875.703	1.5
876.44	0.5
877.177	-0.5
877.914	0.5
878.651	1.5
879.387	0.5
880.124	0.5
880.86	-1.5
881.597	0.5
882.333	0.5
883.069	-0.5
883.806	1.5
884.542	1.5
885.278	0.5
886.014	-0.5
886.749	0.5
887.485	0.5
888.221	1.5
888.957	1.5
889.692	-0.5
890.428	0.5
891.163	-2.5
891.899	1.5
892.634	-0.5
893.369	-0.5
894.104	1.5
894.839	-0.5
895.574	-0.5
896.309	-0.5
897.044	-1.5
897.779	-0.5
898.514	1.5
899.248	-0.5
899.983	-0.5
900.717	-0.5
901.452	-0.5
902.186	0.5
902.92	0.5
903.654	0.5
904.389	-2.5
905.123	-0.5
905.857	-0.5
906.59	-1.5
907.324	-2.5
908.058	1.5
908.792	0.5
909.525	-1.5
910.259	0.5
910.992	-0.5
911.726	0.5
912.459	0.5
913.192	1.5
913.925	-2.5
914.658	-0.5
915.391	-0.5
916.124	-2.5
916.857	-2.5
917.59	-2.5
918.323	0.5
919.055	0.5
919.788	-0.5
920.521	-2.5
921.253	-0.5
921.985	1.5
922.718	0.5
923.45	0.5
924.182	0.5
924.914	-0.5
925.646	0.5
926.378	-0.5
927.11	1.5
927.841	-1.5
928.573	0.5
929.305	0.5
930.036	2.5
930.768	-0.5
931.499	-0.5
932.23	-0.5
932.962	-0.5
933.693	1.5
934.424	0.5
935.155	-0.5
935.886	-0.5
936.617	0.5
937.348	-0.5
938.078	-0.5
938.809	-0.5
939.54	-2.5
940.27	0.5
941.001	0.5
941.731	-2.5
942.461	-0.5
943.191	0.5
943.922	-0.5
944.652	-1.5
945.382	-1.5
946.112	0.5
946.841	0.5
947.571	2.5
948.301	1.5
949.031	2.5
949.76	-1.5
950.49	-1.5
951.219	-1.5
951.948	-2.5
952.678	-1.5
953.407	0.5
954.136	0.5
954.865	-0.5
955.594	-3.5
956.323	-2.5
957.052	-0.5
957.78	-1.5
958.509	2.5
959.238	-0.5
959.966	0.5
960.695	-2.5
961.423	-2.5
962.151	-0.5
962.88	-0.5
963.608	-1.5
964.336	0.5
965.064	1.5
965.792	-2.5
966.52	-0.5
967.247	1.5
967.975	0.5
968.703	0.5
969.43	0.5
970.158	1.5
970.885	-2.5
971.613	0.5
972.34	-0.5
973.067	-1.5
973.794	0.5
974.521	-0.5
975.248	-1.5
975.975	0.5
976.702	-1.5
977.429	-2.5
978.156	0.5
978.882	0.5
979.609	-2.5
980.335	-0.5
981.062	-0.5
981.788	1.5
982.514	1.5
983.24	0.5
983.967	-1.5
984.693	-0.5
985.419	0.5
986.144	-1.5
986.87	0.5
987.596	-0.5
988.322	0.5
989.047	-0.5
989.773	-0.5
990.498	0.5
991.224	-0.5
991.949	1.5
992.674	0.5
993.399	-0.5
994.124	0.5
994.849	-0.5
995.574	0.5
996.299	0.5
997.024	1.5
997.749	-0.5
998.473	-0.5
999.198	-2.5
999.922	0.5
1000.647	0.5
1001.371	2.5
1002.095	2.5
1002.82	0.5
1003.544	-2.5
1004.268	1.5
1004.992	-0.5
1005.716	-0.5
1006.439	-2.5
1007.163	0.5
1007.887	0.5
1008.611	-2.5
1009.334	-0.5
1010.058	-0.5
1010.781	1.5
1011.504	-2.5
1012.228	-0.5
1012.951	0.5
1013.674	-1.5
1014.397	0.5
1015.12	-2.5
