节点500_145_QEPB04081__484__11-36-40-499.txt的数据

Date: Wed Nov 12 11:36:40 CST 2025
User: PC
Spectrometer: QEPB0408
触发模式: 0
积分时间 (秒): 1.000000E-2
Scans to average: 1
启用暗噪声校正: true
启用非线性校正: false
滑动平均宽度: 0
X轴模式: Wavelengths
Number of Pixels in Spectrum: 1044
>>>>>Begin Spectral Data<<<<<
220.843	-0.88
221.644	-0.88
222.444	0.12
223.244	3.12
224.045	-1.88
224.845	0.12
225.645	-0.88
226.445	-0.88
227.245	-1.88
228.045	-0.88
228.845	1.12
229.645	0.12
230.444	-0.88
231.244	0.12
232.043	0.12
232.843	-1.88
233.642	-0.88
234.442	0.12
235.241	1.12
236.04	0.12
236.839	3.12
237.638	0.12
238.437	1.12
239.236	4.12
240.035	1.12
240.833	0.12
241.632	0.12
242.43	2.12
243.229	2.12
244.027	1.12
244.826	5.12
245.624	2.12
246.422	1.12
247.22	1.12
248.018	1.12
248.816	5.12
249.614	2.12
250.412	2.12
251.21	1.12
252.007	1.12
252.805	1.12
253.602	0.12
254.4	1.12
255.197	3.12
255.994	3.12
256.791	3.12
257.589	4.12
258.386	3.12
259.183	4.12
259.979	2.12
260.776	3.12
261.573	4.12
262.37	7.12
263.166	3.12
263.963	5.12
264.759	5.12
265.556	6.12
266.352	5.12
267.148	7.12
267.944	6.12
268.74	6.12
269.536	5.12
270.332	9.12
271.128	7.12
271.924	7.12
272.719	4.12
273.515	8.12
274.311	7.12
275.106	8.12
275.901	8.12
276.697	8.12
277.492	10.12
278.287	7.12
279.082	9.12
279.877	8.12
280.672	9.12
281.467	8.12
282.262	10.12
283.056	7.12
283.851	13.12
284.646	10.12
285.44	7.12
286.234	10.12
287.029	9.12
287.823	9.12
288.617	13.12
289.411	10.12
290.205	11.12
290.999	11.12
291.793	9.12
292.587	10.12
293.381	10.12
294.174	9.12
294.968	9.12
295.761	10.12
296.555	7.12
297.348	8.12
298.141	9.12
298.935	8.12
299.728	9.12
300.521	9.12
301.314	7.12
302.107	8.12
302.899	7.12
303.692	9.12
304.485	5.12
305.277	9.12
306.07	9.12
306.862	7.12
307.655	5.12
308.447	6.12
309.239	10.12
310.031	6.12
310.823	7.12
311.615	6.12
312.407	8.12
313.199	8.12
313.991	6.12
314.783	8.12
315.574	6.12
316.366	6.12
317.157	4.12
317.949	3.12
318.74	3.12
319.531	4.12
320.322	5.12
321.113	5.12
321.904	6.12
322.695	5.12
323.486	5.12
324.277	5.12
325.068	4.12
325.858	4.12
326.649	3.12
327.439	3.12
328.23	4.12
329.02	3.12
329.81	4.12
330.6	3.12
331.391	5.12
332.181	4.12
332.971	4.12
333.76	2.12
334.55	5.12
335.34	5.12
336.13	0.12
336.919	3.12
337.709	5.12
338.498	3.12
339.287	2.12
340.077	3.12
340.866	6.12
341.655	1.12
342.444	3.12
343.233	0.12
344.022	3.12
344.811	3.12
345.6	2.12
346.388	1.12
347.177	4.12
347.965	2.12
348.754	1.12
349.542	4.12
350.33	3.12
351.119	2.12
351.907	2.12
352.695	4.12
353.483	4.12
354.271	4.12
355.059	2.12
355.846	2.12
356.634	1.12
357.422	5.12
358.209	2.12
358.997	1.12
359.784	4.12
360.571	3.12
361.359	3.12
362.146	3.12
362.933	4.12
363.72	1.12
364.507	3.12
365.294	3.12
366.081	1.12
366.867	2.12
367.654	2.12
368.44	2.12
369.227	3.12
370.013	3.12
370.8	4.12
371.586	2.12
372.372	3.12
373.158	1.12
373.944	5.12
374.73	1.12
375.516	1.12
376.302	2.12
377.088	2.12
377.873	6.12
378.659	0.12
379.445	1.12
380.23	3.12
381.015	1.12
381.801	1.12
382.586	2.12
383.371	2.12
384.156	0.12
384.941	4.12
385.726	2.12
386.511	3.12
387.296	3.12
388.08	3.12
388.865	5.12
389.649	2.12
390.434	3.12
391.218	2.12
392.003	2.12
392.787	4.12
393.571	2.12
394.355	4.12
395.139	2.12
395.923	3.12
396.707	2.12
397.491	4.12
398.274	4.12
399.058	2.12
399.842	3.12
400.625	4.12
401.408	4.12
402.192	3.12
402.975	2.12
403.758	3.12
404.541	4.12
405.324	4.12
406.107	4.12
406.89	5.12
407.673	5.12
408.456	3.12
409.238	4.12
410.021	2.12
410.803	6.12
411.586	3.12
412.368	6.12
413.151	5.12
413.933	5.12
414.715	7.12
415.497	2.12
416.279	8.12
417.061	7.12
417.843	5.12
418.624	4.12
419.406	5.12
420.188	6.12
420.969	6.12
421.751	7.12
422.532	7.12
423.313	6.12
424.095	9.12
424.876	3.12
425.657	5.12
426.438	6.12
427.219	6.12
428	7.12
428.78	7.12
429.561	8.12
430.342	8.12
431.122	5.12
431.903	6.12
432.683	9.12
433.464	5.12
434.244	11.12
435.024	9.12
435.804	6.12
436.584	13.12
437.364	10.12
438.144	11.12
438.924	8.12
439.704	12.12
440.483	13.12
441.263	12.12
442.042	12.12
442.822	14.12
443.601	13.12
444.38	14.12
445.16	16.12
445.939	16.12
446.718	19.12
447.497	18.12
448.276	20.12
449.054	20.12
449.833	25.12
450.612	25.12
451.391	28.12
452.169	27.12
452.948	32.12
453.726	33.12
454.504	41.12
455.282	43.12
456.061	49.12
456.839	49.12
457.617	58.12
458.395	64.12
459.172	76.12
459.95	79.12
460.728	90.12
461.506	97.12
462.283	110.12
463.061	121.12
463.838	136.12
464.615	145.12
465.393	167.12
466.17	182.12
466.947	201.12
467.724	231.12
468.501	261.12
469.278	275.12
470.055	315.12
470.831	344.12
471.608	390.12
472.385	433.12
473.161	471.12
473.938	523.12
474.714	589.12
475.49	634.12
476.266	706.12
477.043	782.12
477.819	856.12
478.595	937.12
479.371	1047.12
480.146	1140.12
480.922	1275.12
481.698	1408.12
482.473	1534.12
483.249	1680.12
484.024	1859.12
484.8	2017.12
485.575	2231.12
486.35	2470.12
487.126	2699.12
487.901	2954.12
488.676	3247.12
489.451	3536.12
490.225	3908.12
491	4240.12
491.775	4654.12
492.55	5071.12
493.324	5545.12
494.099	6089.12
494.873	6612.12
495.647	7165.12
496.422	7767.12
497.196	8429.12
497.97	9063.12
498.744	9754.12
499.518	10446.12
500.292	11121.12
501.066	11783.12
501.839	12462.12
502.613	13115.12
503.387	13685.12
504.16	14260.12
504.934	14777.12
505.707	15138.12
506.48	15396.12
507.253	15674.12
508.027	15776.12
508.8	15844.12
509.573	15731.12
510.346	15593.12
511.118	15336.12
511.891	15012.12
512.664	14600.12
513.437	14175.12
514.209	13791.12
514.982	13209.12
515.754	12702.12
516.526	12184.12
517.298	11670.12
518.071	11185.12
518.843	10734.12
519.615	10253.12
520.387	9834.12
521.159	9399.12
521.93	9050.12
522.702	8693.12
523.474	8368.12
524.245	7995.12
525.017	7703.12
525.788	7360.12
526.56	7073.12
527.331	6803.12
528.102	6495.12
528.873	6224.12
529.644	5937.12
530.415	5667.12
531.186	5424.12
531.957	5148.12
532.728	4921.12
533.498	4679.12
534.269	4430.12
535.039	4173.12
535.81	3955.12
536.58	3738.12
537.351	3537.12
538.121	3354.12
538.891	3163.12
539.661	2983.12
540.431	2815.12
541.201	2647.12
541.971	2522.12
542.741	2403.12
543.51	2279.12
544.28	2167.12
545.05	2038.12
545.819	1942.12
546.588	1850.12
547.358	1755.12
548.127	1687.12
548.896	1581.12
549.665	1514.12
550.434	1427.12
551.203	1371.12
551.972	1291.12
552.741	1232.12
553.51	1164.12
554.278	1087.12
555.047	1028.12
555.815	981.12
556.584	930.12
557.352	871.12
558.121	819.12
558.889	773.12
559.657	738.12
560.425	688.12
561.193	647.12
561.961	617.12
562.729	581.12
563.496	545.12
564.264	518.12
565.032	488.12
565.799	471.12
566.567	432.12
567.334	413.12
568.101	386.12
568.869	367.12
569.636	349.12
570.403	331.12
571.17	308.12
571.937	296.12
572.704	271.12
573.471	256.12
574.237	236.12
575.004	223.12
575.771	218.12
576.537	209.12
577.303	191.12
578.07	178.12
578.836	173.12
579.602	165.12
580.368	152.12
581.134	143.12
581.9	133.12
582.666	131.12
583.432	123.12
584.198	113.12
584.964	108.12
585.729	108.12
586.495	98.12
587.26	87.12
588.025	87.12
588.791	82.12
589.556	76.12
590.321	75.12
591.086	69.12
591.851	62.12
592.616	61.12
593.381	57.12
594.146	59.12
594.911	56.12
595.675	54.12
596.44	47.12
597.204	47.12
597.969	44.12
598.733	41.12
599.497	42.12
600.261	37.12
601.025	36.12
601.79	32.12
602.553	34.12
603.317	32.12
604.081	32.12
604.845	32.12
605.609	29.12
606.372	25.12
607.136	27.12
607.899	26.12
608.662	26.12
609.426	21.12
610.189	23.12
610.952	19.12
611.715	19.12
612.478	22.12
613.241	18.12
614.004	17.12
614.767	14.12
615.529	16.12
616.292	15.12
617.055	16.12
617.817	14.12
618.579	13.12
619.342	13.12
620.104	13.12
620.866	12.12
621.628	12.12
622.39	14.12
623.152	9.12
623.914	12.12
624.676	9.12
625.438	12.12
626.199	11.12
626.961	9.12
627.722	7.12
628.484	10.12
629.245	9.12
630.006	9.12
630.768	7.12
631.529	9.12
632.29	9.12
633.051	7.12
633.812	7.12
634.573	5.12
635.333	4.12
636.094	9.12
636.855	7.12
637.615	7.12
638.376	5.12
639.136	6.12
639.896	6.12
640.657	6.12
641.417	5.12
642.177	7.12
642.937	3.12
643.697	4.12
644.457	5.12
645.216	3.12
645.976	5.12
646.736	3.12
647.495	5.12
648.255	6.12
649.014	4.12
649.774	4.12
650.533	5.12
651.292	4.12
652.051	3.12
652.81	6.12
653.569	2.12
654.328	5.12
655.087	4.12
655.846	3.12
656.604	2.12
657.363	3.12
658.121	3.12
658.88	5.12
659.638	3.12
660.397	4.12
661.155	3.12
661.913	4.12
662.671	2.12
663.429	3.12
664.187	5.12
664.945	0.12
665.703	2.12
666.46	4.12
667.218	3.12
667.976	2.12
668.733	2.12
669.49	0.12
670.248	4.12
671.005	2.12
671.762	1.12
672.519	3.12
673.276	3.12
674.033	1.12
674.79	3.12
675.547	1.12
676.304	3.12
677.06	2.12
677.817	5.12
678.574	2.12
679.33	2.12
680.086	2.12
680.843	1.12
681.599	6.12
682.355	2.12
683.111	4.12
683.867	0.12
684.623	2.12
685.379	0.12
686.135	4.12
686.89	1.12
687.646	1.12
688.402	0.12
689.157	3.12
689.912	0.12
690.668	0.12
691.423	3.12
692.178	1.12
692.933	1.12
693.688	2.12
694.443	0.12
695.198	3.12
695.953	3.12
696.708	1.12
697.462	2.12
698.217	3.12
698.972	2.12
699.726	3.12
700.48	3.12
701.235	1.12
701.989	2.12
702.743	3.12
703.497	1.12
704.251	2.12
705.005	6.12
705.759	0.12
706.513	2.12
707.266	1.12
708.02	3.12
708.774	5.12
709.527	2.12
710.28	2.12
711.034	3.12
711.787	1.12
712.54	1.12
713.293	3.12
714.046	0.12
714.799	3.12
715.552	2.12
716.305	1.12
717.058	2.12
717.81	1.12
718.563	1.12
719.315	4.12
720.068	3.12
720.82	3.12
721.573	1.12
722.325	3.12
723.077	0.12
723.829	3.12
724.581	1.12
725.333	4.12
726.085	3.12
726.836	1.12
727.588	1.12
728.34	2.12
729.091	0.12
729.843	2.12
730.594	2.12
731.346	2.12
732.097	0.12
732.848	4.12
733.599	0.12
734.35	4.12
735.101	2.12
735.852	1.12
736.603	-0.88
737.354	1.12
738.104	1.12
738.855	2.12
739.605	2.12
740.356	1.12
741.106	2.12
741.856	0.12
742.607	3.12
743.357	0.12
744.107	3.12
744.857	3.12
745.607	4.12
746.357	0.12
747.106	1.12
747.856	3.12
748.606	3.12
749.355	3.12
750.105	3.12
750.854	3.12
751.603	3.12
752.353	1.12
753.102	2.12
753.851	4.12
754.6	3.12
755.349	1.12
756.098	2.12
756.847	1.12
757.595	2.12
758.344	2.12
759.093	2.12
759.841	2.12
760.589	2.12
761.338	3.12
762.086	3.12
762.834	3.12
763.582	2.12
764.331	3.12
765.079	2.12
765.826	2.12
766.574	5.12
767.322	4.12
768.07	5.12
768.817	5.12
769.565	3.12
770.312	3.12
771.06	3.12
771.807	3.12
772.554	3.12
773.302	5.12
774.049	5.12
774.796	4.12
775.543	4.12
776.29	7.12
777.036	5.12
777.783	5.12
778.53	5.12
779.276	3.12
780.023	2.12
780.769	6.12
781.516	4.12
782.262	2.12
783.008	5.12
783.754	5.12
784.5	5.12
785.246	7.12
785.992	4.12
786.738	5.12
787.484	1.12
788.23	4.12
788.975	7.12
789.721	2.12
790.466	4.12
791.212	6.12
791.957	6.12
792.702	7.12
793.447	4.12
794.193	4.12
794.938	4.12
795.683	4.12
796.427	4.12
797.172	5.12
797.917	6.12
798.662	5.12
799.406	5.12
800.151	4.12
800.895	7.12
801.64	3.12
802.384	3.12
803.128	4.12
803.872	3.12
804.616	2.12
805.36	4.12
806.104	4.12
806.848	5.12
807.592	4.12
808.336	5.12
809.079	1.12
809.823	3.12
810.566	4.12
811.31	2.12
812.053	4.12
812.796	3.12
813.539	1.12
814.283	2.12
815.026	5.12
815.769	4.12
816.511	5.12
817.254	4.12
817.997	0.12
818.74	4.12
819.482	-0.88
820.225	3.12
820.967	1.12
821.71	1.12
822.452	2.12
823.194	2.12
823.936	4.12
824.678	1.12
825.42	4.12
826.162	3.12
826.904	1.12
827.646	3.12
828.388	0.12
829.129	6.12
829.871	4.12
830.612	3.12
831.354	4.12
832.095	2.12
832.836	3.12
833.577	2.12
834.319	2.12
835.06	2.12
835.801	4.12
836.542	3.12
837.282	3.12
838.023	3.12
838.764	2.12
839.504	3.12
840.245	2.12
840.985	2.12
841.726	3.12
842.466	2.12
843.206	4.12
843.946	1.12
844.687	2.12
845.427	2.12
846.166	3.12
846.906	1.12
847.646	2.12
848.386	4.12
849.125	1.12
849.865	3.12
850.605	2.12
851.344	1.12
852.083	4.12
852.823	2.12
853.562	2.12
854.301	1.12
855.04	3.12
855.779	1.12
856.518	0.12
857.257	1.12
857.995	0.12
858.734	3.12
859.473	3.12
860.211	0.12
860.95	1.12
861.688	1.12
862.426	0.12
863.165	1.12
863.903	1.12
864.641	0.12
865.379	2.12
866.117	1.12
866.855	1.12
867.593	0.12
868.33	1.12
869.068	1.12
869.806	2.12
870.543	2.12
871.28	0.12
872.018	0.12
872.755	0.12
873.492	-0.88
874.229	3.12
874.967	0.12
875.703	1.12
876.44	2.12
877.177	1.12
877.914	2.12
878.651	2.12
879.387	1.12
880.124	-0.88
880.86	0.12
881.597	0.12
882.333	-1.88
883.069	2.12
883.806	1.12
884.542	1.12
885.278	1.12
886.014	2.12
886.749	0.12
887.485	-0.88
888.221	3.12
888.957	-0.88
889.692	1.12
890.428	1.12
891.163	0.12
891.899	-1.88
892.634	0.12
893.369	1.12
894.104	1.12
894.839	1.12
895.574	-0.88
896.309	1.12
897.044	1.12
897.779	-0.88
898.514	-0.88
899.248	-0.88
899.983	0.12
900.717	0.12
901.452	0.12
902.186	0.12
902.92	1.12
903.654	2.12
904.389	0.12
905.123	1.12
905.857	-1.88
906.59	1.12
907.324	-0.88
908.058	0.12
908.792	0.12
909.525	0.12
910.259	1.12
910.992	-0.88
911.726	2.12
912.459	-1.88
913.192	0.12
913.925	3.12
914.658	-0.88
915.391	-0.88
916.124	-1.88
916.857	0.12
917.59	0.12
918.323	-1.88
919.055	0.12
919.788	-1.88
920.521	3.12
921.253	1.12
921.985	-1.88
922.718	-0.88
923.45	-0.88
924.182	-0.88
924.914	1.12
925.646	-0.88
926.378	1.12
927.11	0.12
927.841	1.12
928.573	-0.88
929.305	-0.88
930.036	2.12
930.768	0.12
931.499	1.12
932.23	-0.88
932.962	-1.88
933.693	0.12
934.424	0.12
935.155	0.12
935.886	2.12
936.617	1.12
937.348	0.12
938.078	1.12
938.809	-0.88
939.54	0.12
940.27	1.12
941.001	1.12
941.731	0.12
942.461	1.12
943.191	-0.88
943.922	0.12
944.652	0.12
945.382	0.12
946.112	-0.88
946.841	0.12
947.571	-0.88
948.301	0.12
949.031	0.12
949.76	1.12
950.49	1.12
951.219	-0.88
951.948	2.12
952.678	-0.88
953.407	1.12
954.136	3.12
954.865	0.12
955.594	1.12
956.323	0.12
957.052	-1.88
957.78	1.12
958.509	2.12
959.238	-0.88
959.966	0.12
960.695	0.12
961.423	-0.88
962.151	0.12
962.88	1.12
963.608	2.12
964.336	-0.88
965.064	-0.88
965.792	-0.88
966.52	3.12
967.247	-0.88
967.975	-1.88
968.703	-1.88
969.43	-2.88
970.158	0.12
970.885	0.12
971.613	-0.88
972.34	1.12
973.067	-1.88
973.794	1.12
974.521	-3.88
975.248	0.12
975.975	1.12
976.702	-1.88
977.429	1.12
978.156	1.12
978.882	1.12
979.609	0.12
980.335	2.12
981.062	1.12
981.788	-1.88
982.514	1.12
983.24	0.12
983.967	2.12
984.693	-0.88
985.419	0.12
986.144	0.12
986.87	1.12
987.596	0.12
988.322	1.12
989.047	1.12
989.773	-1.88
990.498	1.12
991.224	2.12
991.949	2.12
992.674	0.12
993.399	-1.88
994.124	1.12
994.849	-0.88
995.574	2.12
996.299	1.12
997.024	1.12
997.749	-0.88
998.473	-0.88
999.198	-0.88
999.922	1.12
1000.647	1.12
1001.371	0.12
1002.095	0.12
1002.82	0.12
1003.544	0.12
1004.268	1.12
1004.992	-2.88
1005.716	1.12
1006.439	-1.88
1007.163	0.12
1007.887	0.12
1008.611	0.12
1009.334	2.12
1010.058	-0.88
1010.781	0.12
1011.504	0.12
1012.228	-1.88
1012.951	0.12
1013.674	2.12
1014.397	-1.88
1015.12	-0.88
