节点500_145_QEPB04081__32__11-29-27-786.txt的数据

Date: Wed Nov 12 11:29:27 CST 2025
User: PC
Spectrometer: QEPB0408
触发模式: 0
积分时间 (秒): 1.000000E-2
Scans to average: 1
启用暗噪声校正: true
启用非线性校正: false
滑动平均宽度: 0
X轴模式: Wavelengths
Number of Pixels in Spectrum: 1044
>>>>>Begin Spectral Data<<<<<
220.843	-0.62
221.644	0.38
222.444	1.38
223.244	0.38
224.045	-1.62
224.845	2.38
225.645	1.38
226.445	1.38
227.245	0.38
228.045	0.38
228.845	-0.62
229.645	0.38
230.444	0.38
231.244	0.38
232.043	2.38
232.843	0.38
233.642	-0.62
234.442	1.38
235.241	-0.62
236.04	0.38
236.839	1.38
237.638	1.38
238.437	1.38
239.236	-0.62
240.035	1.38
240.833	-1.62
241.632	1.38
242.43	1.38
243.229	2.38
244.027	0.38
244.826	-1.62
245.624	5.38
246.422	0.38
247.22	2.38
248.018	2.38
248.816	1.38
249.614	3.38
250.412	2.38
251.21	5.38
252.007	4.38
252.805	4.38
253.602	4.38
254.4	3.38
255.197	5.38
255.994	2.38
256.791	1.38
257.589	1.38
258.386	5.38
259.183	6.38
259.979	5.38
260.776	5.38
261.573	5.38
262.37	3.38
263.166	3.38
263.963	4.38
264.759	2.38
265.556	7.38
266.352	8.38
267.148	4.38
267.944	7.38
268.74	8.38
269.536	11.38
270.332	6.38
271.128	12.38
271.924	9.38
272.719	7.38
273.515	7.38
274.311	8.38
275.106	8.38
275.901	11.38
276.697	7.38
277.492	11.38
278.287	7.38
279.082	12.38
279.877	10.38
280.672	10.38
281.467	13.38
282.262	10.38
283.056	13.38
283.851	9.38
284.646	14.38
285.44	12.38
286.234	13.38
287.029	13.38
287.823	11.38
288.617	11.38
289.411	10.38
290.205	10.38
290.999	14.38
291.793	11.38
292.587	10.38
293.381	10.38
294.174	9.38
294.968	10.38
295.761	11.38
296.555	12.38
297.348	8.38
298.141	12.38
298.935	10.38
299.728	10.38
300.521	8.38
301.314	9.38
302.107	9.38
302.899	9.38
303.692	9.38
304.485	4.38
305.277	8.38
306.07	9.38
306.862	5.38
307.655	8.38
308.447	7.38
309.239	6.38
310.031	7.38
310.823	6.38
311.615	9.38
312.407	7.38
313.199	2.38
313.991	4.38
314.783	6.38
315.574	5.38
316.366	5.38
317.157	8.38
317.949	3.38
318.74	5.38
319.531	6.38
320.322	5.38
321.113	5.38
321.904	4.38
322.695	8.38
323.486	5.38
324.277	6.38
325.068	4.38
325.858	3.38
326.649	4.38
327.439	4.38
328.23	5.38
329.02	5.38
329.81	3.38
330.6	1.38
331.391	3.38
332.181	3.38
332.971	5.38
333.76	5.38
334.55	2.38
335.34	5.38
336.13	5.38
336.919	4.38
337.709	5.38
338.498	3.38
339.287	2.38
340.077	3.38
340.866	2.38
341.655	3.38
342.444	4.38
343.233	2.38
344.022	3.38
344.811	5.38
345.6	0.38
346.388	4.38
347.177	3.38
347.965	1.38
348.754	4.38
349.542	4.38
350.33	4.38
351.119	2.38
351.907	5.38
352.695	2.38
353.483	3.38
354.271	1.38
355.059	2.38
355.846	3.38
356.634	3.38
357.422	4.38
358.209	1.38
358.997	3.38
359.784	1.38
360.571	2.38
361.359	3.38
362.146	3.38
362.933	5.38
363.72	4.38
364.507	3.38
365.294	3.38
366.081	3.38
366.867	3.38
367.654	5.38
368.44	4.38
369.227	2.38
370.013	5.38
370.8	3.38
371.586	2.38
372.372	2.38
373.158	1.38
373.944	4.38
374.73	5.38
375.516	3.38
376.302	2.38
377.088	3.38
377.873	2.38
378.659	1.38
379.445	5.38
380.23	2.38
381.015	1.38
381.801	5.38
382.586	3.38
383.371	2.38
384.156	4.38
384.941	5.38
385.726	1.38
386.511	2.38
387.296	2.38
388.08	3.38
388.865	5.38
389.649	3.38
390.434	3.38
391.218	2.38
392.003	2.38
392.787	1.38
393.571	1.38
394.355	4.38
395.139	5.38
395.923	2.38
396.707	5.38
397.491	3.38
398.274	3.38
399.058	6.38
399.842	2.38
400.625	4.38
401.408	5.38
402.192	5.38
402.975	4.38
403.758	4.38
404.541	3.38
405.324	3.38
406.107	6.38
406.89	5.38
407.673	5.38
408.456	4.38
409.238	6.38
410.021	2.38
410.803	4.38
411.586	5.38
412.368	5.38
413.151	5.38
413.933	6.38
414.715	5.38
415.497	5.38
416.279	4.38
417.061	5.38
417.843	6.38
418.624	6.38
419.406	5.38
420.188	4.38
420.969	5.38
421.751	5.38
422.532	6.38
423.313	6.38
424.095	6.38
424.876	6.38
425.657	7.38
426.438	6.38
427.219	9.38
428	8.38
428.78	7.38
429.561	9.38
430.342	9.38
431.122	6.38
431.903	8.38
432.683	8.38
433.464	10.38
434.244	11.38
435.024	10.38
435.804	10.38
436.584	10.38
437.364	10.38
438.144	10.38
438.924	13.38
439.704	9.38
440.483	11.38
441.263	10.38
442.042	10.38
442.822	13.38
443.601	13.38
444.38	14.38
445.16	16.38
445.939	14.38
446.718	15.38
447.497	16.38
448.276	20.38
449.054	20.38
449.833	20.38
450.612	22.38
451.391	23.38
452.169	24.38
452.948	27.38
453.726	32.38
454.504	30.38
455.282	40.38
456.061	40.38
456.839	46.38
457.617	52.38
458.395	52.38
459.172	60.38
459.95	64.38
460.728	70.38
461.506	83.38
462.283	92.38
463.061	96.38
463.838	110.38
464.615	119.38
465.393	135.38
466.17	158.38
466.947	168.38
467.724	189.38
468.501	217.38
469.278	241.38
470.055	267.38
470.831	297.38
471.608	331.38
472.385	372.38
473.161	414.38
473.938	464.38
474.714	519.38
475.49	587.38
476.266	645.38
477.043	716.38
477.819	800.38
478.595	891.38
479.371	999.38
480.146	1104.38
480.922	1243.38
481.698	1371.38
482.473	1502.38
483.249	1694.38
484.024	1881.38
484.8	2085.38
485.575	2318.38
486.35	2573.38
487.126	2867.38
487.901	3193.38
488.676	3519.38
489.451	3889.38
490.225	4326.38
491	4794.38
491.775	5270.38
492.55	5853.38
493.324	6435.38
494.099	7094.38
494.873	7746.38
495.647	8507.38
496.422	9269.38
497.196	9999.38
497.97	10828.38
498.744	11702.38
499.518	12478.38
500.292	13265.38
501.066	14085.38
501.839	14791.38
502.613	15441.38
503.387	16126.38
504.16	16629.38
504.934	17014.38
505.707	17318.38
506.48	17473.38
507.253	17530.38
508.027	17389.38
508.8	17215.38
509.573	16917.38
510.346	16522.38
511.118	16054.38
511.891	15511.38
512.664	14874.38
513.437	14247.38
514.209	13707.38
514.982	13077.38
515.754	12449.38
516.526	11880.38
517.298	11330.38
518.071	10818.38
518.843	10326.38
519.615	9934.38
520.387	9483.38
521.159	9095.38
521.93	8772.38
522.702	8450.38
523.474	8101.38
524.245	7771.38
525.017	7454.38
525.788	7169.38
526.56	6850.38
527.331	6556.38
528.102	6260.38
528.873	5968.38
529.644	5676.38
530.415	5399.38
531.186	5113.38
531.957	4856.38
532.728	4596.38
533.498	4332.38
534.269	4094.38
535.039	3847.38
535.81	3633.38
536.58	3428.38
537.351	3226.38
538.121	3040.38
538.891	2902.38
539.661	2727.38
540.431	2558.38
541.201	2452.38
541.971	2314.38
542.741	2176.38
543.51	2074.38
544.28	1961.38
545.05	1885.38
545.819	1799.38
546.588	1700.38
547.358	1612.38
548.127	1522.38
548.896	1464.38
549.665	1390.38
550.434	1307.38
551.203	1241.38
551.972	1173.38
552.741	1113.38
553.51	1042.38
554.278	996.38
555.047	941.38
555.815	877.38
556.584	834.38
557.352	772.38
558.121	735.38
558.889	691.38
559.657	653.38
560.425	613.38
561.193	582.38
561.961	546.38
562.729	513.38
563.496	487.38
564.264	466.38
565.032	429.38
565.799	408.38
566.567	391.38
567.334	362.38
568.101	348.38
568.869	324.38
569.636	306.38
570.403	293.38
571.17	272.38
571.937	256.38
572.704	240.38
573.471	228.38
574.237	215.38
575.004	199.38
575.771	191.38
576.537	178.38
577.303	172.38
578.07	165.38
578.836	148.38
579.602	146.38
580.368	134.38
581.134	127.38
581.9	117.38
582.666	111.38
583.432	109.38
584.198	102.38
584.964	97.38
585.729	89.38
586.495	83.38
587.26	82.38
588.025	74.38
588.791	75.38
589.556	69.38
590.321	64.38
591.086	62.38
591.851	58.38
592.616	55.38
593.381	53.38
594.146	50.38
594.911	47.38
595.675	43.38
596.44	45.38
597.204	40.38
597.969	37.38
598.733	36.38
599.497	35.38
600.261	37.38
601.025	33.38
601.79	31.38
602.553	29.38
603.317	27.38
604.081	25.38
604.845	25.38
605.609	26.38
606.372	25.38
607.136	25.38
607.899	19.38
608.662	24.38
609.426	22.38
610.189	21.38
610.952	17.38
611.715	17.38
612.478	20.38
613.241	14.38
614.004	14.38
614.767	16.38
615.529	17.38
616.292	13.38
617.055	16.38
617.817	13.38
618.579	9.38
619.342	10.38
620.104	10.38
620.866	11.38
621.628	14.38
622.39	12.38
623.152	9.38
623.914	8.38
624.676	10.38
625.438	8.38
626.199	12.38
626.961	8.38
627.722	4.38
628.484	9.38
629.245	8.38
630.006	8.38
630.768	8.38
631.529	6.38
632.29	8.38
633.051	7.38
633.812	5.38
634.573	3.38
635.333	7.38
636.094	7.38
636.855	8.38
637.615	5.38
638.376	4.38
639.136	5.38
639.896	5.38
640.657	4.38
641.417	4.38
642.177	3.38
642.937	6.38
643.697	4.38
644.457	5.38
645.216	1.38
645.976	4.38
646.736	2.38
647.495	2.38
648.255	5.38
649.014	4.38
649.774	3.38
650.533	4.38
651.292	3.38
652.051	4.38
652.81	3.38
653.569	3.38
654.328	4.38
655.087	3.38
655.846	5.38
656.604	3.38
657.363	4.38
658.121	0.38
658.88	2.38
659.638	5.38
660.397	5.38
661.155	1.38
661.913	3.38
662.671	4.38
663.429	3.38
664.187	5.38
664.945	4.38
665.703	5.38
666.46	1.38
667.218	2.38
667.976	4.38
668.733	2.38
669.49	3.38
670.248	3.38
671.005	4.38
671.762	1.38
672.519	0.38
673.276	4.38
674.033	2.38
674.79	2.38
675.547	3.38
676.304	3.38
677.06	2.38
677.817	0.38
678.574	0.38
679.33	2.38
680.086	1.38
680.843	2.38
681.599	3.38
682.355	1.38
683.111	1.38
683.867	2.38
684.623	1.38
685.379	4.38
686.135	2.38
686.89	0.38
687.646	4.38
688.402	1.38
689.157	3.38
689.912	-0.62
690.668	2.38
691.423	1.38
692.178	2.38
692.933	4.38
693.688	1.38
694.443	3.38
695.198	0.38
695.953	1.38
696.708	3.38
697.462	2.38
698.217	2.38
698.972	2.38
699.726	3.38
700.48	3.38
701.235	3.38
701.989	1.38
702.743	3.38
703.497	1.38
704.251	0.38
705.005	4.38
705.759	3.38
706.513	2.38
707.266	2.38
708.02	3.38
708.774	2.38
709.527	1.38
710.28	2.38
711.034	3.38
711.787	2.38
712.54	1.38
713.293	2.38
714.046	3.38
714.799	0.38
715.552	2.38
716.305	2.38
717.058	2.38
717.81	1.38
718.563	0.38
719.315	1.38
720.068	3.38
720.82	5.38
721.573	0.38
722.325	1.38
723.077	2.38
723.829	2.38
724.581	5.38
725.333	-1.62
726.085	2.38
726.836	4.38
727.588	1.38
728.34	1.38
729.091	3.38
729.843	5.38
730.594	2.38
731.346	3.38
732.097	2.38
732.848	2.38
733.599	0.38
734.35	2.38
735.101	1.38
735.852	1.38
736.603	2.38
737.354	0.38
738.104	3.38
738.855	-0.62
739.605	2.38
740.356	2.38
741.106	2.38
741.856	6.38
742.607	2.38
743.357	1.38
744.107	2.38
744.857	4.38
745.607	5.38
746.357	3.38
747.106	2.38
747.856	0.38
748.606	2.38
749.355	4.38
750.105	3.38
750.854	2.38
751.603	4.38
752.353	2.38
753.102	3.38
753.851	3.38
754.6	4.38
755.349	1.38
756.098	4.38
756.847	5.38
757.595	5.38
758.344	3.38
759.093	2.38
759.841	2.38
760.589	1.38
761.338	2.38
762.086	3.38
762.834	2.38
763.582	6.38
764.331	2.38
765.079	4.38
765.826	2.38
766.574	6.38
767.322	3.38
768.07	6.38
768.817	4.38
769.565	2.38
770.312	7.38
771.06	5.38
771.807	3.38
772.554	5.38
773.302	5.38
774.049	4.38
774.796	3.38
775.543	6.38
776.29	4.38
777.036	7.38
777.783	4.38
778.53	5.38
779.276	5.38
780.023	4.38
780.769	5.38
781.516	4.38
782.262	5.38
783.008	4.38
783.754	3.38
784.5	4.38
785.246	3.38
785.992	10.38
786.738	6.38
787.484	5.38
788.23	7.38
788.975	5.38
789.721	5.38
790.466	6.38
791.212	5.38
791.957	5.38
792.702	5.38
793.447	5.38
794.193	5.38
794.938	6.38
795.683	4.38
796.427	8.38
797.172	3.38
797.917	5.38
798.662	5.38
799.406	6.38
800.151	6.38
800.895	5.38
801.64	6.38
802.384	7.38
803.128	2.38
803.872	5.38
804.616	5.38
805.36	4.38
806.104	3.38
806.848	1.38
807.592	4.38
808.336	7.38
809.079	4.38
809.823	3.38
810.566	4.38
811.31	4.38
812.053	4.38
812.796	2.38
813.539	3.38
814.283	4.38
815.026	3.38
815.769	1.38
816.511	2.38
817.254	4.38
817.997	3.38
818.74	2.38
819.482	2.38
820.225	2.38
820.967	3.38
821.71	0.38
822.452	3.38
823.194	3.38
823.936	2.38
824.678	2.38
825.42	1.38
826.162	4.38
826.904	0.38
827.646	0.38
828.388	2.38
829.129	2.38
829.871	2.38
830.612	3.38
831.354	3.38
832.095	3.38
832.836	4.38
833.577	4.38
834.319	2.38
835.06	2.38
835.801	2.38
836.542	4.38
837.282	3.38
838.023	3.38
838.764	2.38
839.504	2.38
840.245	0.38
840.985	4.38
841.726	2.38
842.466	1.38
843.206	1.38
843.946	4.38
844.687	1.38
845.427	3.38
846.166	3.38
846.906	2.38
847.646	2.38
848.386	1.38
849.125	1.38
849.865	1.38
850.605	2.38
851.344	3.38
852.083	0.38
852.823	2.38
853.562	2.38
854.301	2.38
855.04	-0.62
855.779	3.38
856.518	2.38
857.257	1.38
857.995	3.38
858.734	1.38
859.473	2.38
860.211	3.38
860.95	2.38
861.688	2.38
862.426	0.38
863.165	2.38
863.903	3.38
864.641	2.38
865.379	1.38
866.117	2.38
866.855	1.38
867.593	0.38
868.33	2.38
869.068	1.38
869.806	1.38
870.543	3.38
871.28	0.38
872.018	0.38
872.755	2.38
873.492	2.38
874.229	2.38
874.967	2.38
875.703	0.38
876.44	0.38
877.177	2.38
877.914	1.38
878.651	3.38
879.387	-0.62
880.124	2.38
880.86	2.38
881.597	2.38
882.333	0.38
883.069	0.38
883.806	1.38
884.542	1.38
885.278	0.38
886.014	2.38
886.749	1.38
887.485	0.38
888.221	-2.62
888.957	2.38
889.692	-0.62
890.428	-1.62
891.163	0.38
891.899	0.38
892.634	1.38
893.369	1.38
894.104	2.38
894.839	0.38
895.574	-0.62
896.309	1.38
897.044	-1.62
897.779	1.38
898.514	0.38
899.248	-0.62
899.983	-0.62
900.717	0.38
901.452	1.38
902.186	0.38
902.92	1.38
903.654	1.38
904.389	2.38
905.123	0.38
905.857	-0.62
906.59	1.38
907.324	-0.62
908.058	-0.62
908.792	-0.62
909.525	-0.62
910.259	2.38
910.992	1.38
911.726	0.38
912.459	-0.62
913.192	0.38
913.925	1.38
914.658	-1.62
915.391	-0.62
916.124	-1.62
916.857	-0.62
917.59	0.38
918.323	1.38
919.055	-0.62
919.788	1.38
920.521	0.38
921.253	-0.62
921.985	0.38
922.718	1.38
923.45	-0.62
924.182	-1.62
924.914	1.38
925.646	-0.62
926.378	0.38
927.11	1.38
927.841	0.38
928.573	2.38
929.305	0.38
930.036	0.38
930.768	2.38
931.499	0.38
932.23	0.38
932.962	1.38
933.693	2.38
934.424	0.38
935.155	-0.62
935.886	0.38
936.617	0.38
937.348	0.38
938.078	2.38
938.809	1.38
939.54	0.38
940.27	-1.62
941.001	-0.62
941.731	1.38
942.461	0.38
943.191	2.38
943.922	1.38
944.652	1.38
945.382	-0.62
946.112	1.38
946.841	2.38
947.571	-0.62
948.301	1.38
949.031	-0.62
949.76	0.38
950.49	-0.62
951.219	1.38
951.948	-1.62
952.678	0.38
953.407	-1.62
954.136	-0.62
954.865	0.38
955.594	1.38
956.323	-0.62
957.052	0.38
957.78	-1.62
958.509	1.38
959.238	-0.62
959.966	2.38
960.695	1.38
961.423	1.38
962.151	0.38
962.88	-1.62
963.608	-0.62
964.336	0.38
965.064	-0.62
965.792	1.38
966.52	1.38
967.247	0.38
967.975	0.38
968.703	1.38
969.43	2.38
970.158	0.38
970.885	-0.62
971.613	1.38
972.34	0.38
973.067	0.38
973.794	0.38
974.521	0.38
975.248	0.38
975.975	1.38
976.702	-1.62
977.429	0.38
978.156	-0.62
978.882	2.38
979.609	-0.62
980.335	1.38
981.062	1.38
981.788	0.38
982.514	-0.62
983.24	0.38
983.967	2.38
984.693	1.38
985.419	-1.62
986.144	2.38
986.87	2.38
987.596	1.38
988.322	-1.62
989.047	0.38
989.773	-0.62
990.498	1.38
991.224	0.38
991.949	0.38
992.674	0.38
993.399	-1.62
994.124	1.38
994.849	0.38
995.574	0.38
996.299	2.38
997.024	1.38
997.749	1.38
998.473	-0.62
999.198	-1.62
999.922	0.38
1000.647	0.38
1001.371	5.38
1002.095	0.38
1002.82	-4.62
1003.544	-0.62
1004.268	0.38
1004.992	-1.62
1005.716	2.38
1006.439	-4.62
1007.163	-1.62
1007.887	0.38
1008.611	1.38
1009.334	1.38
1010.058	0.38
1010.781	-0.62
1011.504	0.38
1012.228	1.38
1012.951	0.38
1013.674	-1.62
1014.397	-0.62
1015.12	1.38
