节点500_145_QEPB04081__620__11-38-49-274.txt的数据

Date: Wed Nov 12 11:38:49 CST 2025
User: PC
Spectrometer: QEPB0408
触发模式: 0
积分时间 (秒): 1.000000E-2
Scans to average: 1
启用暗噪声校正: true
启用非线性校正: false
滑动平均宽度: 0
X轴模式: Wavelengths
Number of Pixels in Spectrum: 1044
>>>>>Begin Spectral Data<<<<<
220.843	-2.12
221.644	-0.12
222.444	-2.12
223.244	-2.12
224.045	-0.12
224.845	-1.12
225.645	1.88
226.445	-1.12
227.245	0.88
228.045	1.88
228.845	-1.12
229.645	0.88
230.444	-2.12
231.244	-1.12
232.043	-1.12
232.843	1.88
233.642	0.88
234.442	1.88
235.241	0.88
236.04	-2.12
236.839	0.88
237.638	-0.12
238.437	-0.12
239.236	1.88
240.035	-0.12
240.833	-0.12
241.632	-0.12
242.43	1.88
243.229	0.88
244.027	2.88
244.826	-1.12
245.624	0.88
246.422	-0.12
247.22	0.88
248.018	0.88
248.816	3.88
249.614	0.88
250.412	-0.12
251.21	1.88
252.007	1.88
252.805	-0.12
253.602	0.88
254.4	2.88
255.197	2.88
255.994	1.88
256.791	1.88
257.589	0.88
258.386	1.88
259.183	1.88
259.979	3.88
260.776	4.88
261.573	2.88
262.37	4.88
263.166	3.88
263.963	5.88
264.759	4.88
265.556	2.88
266.352	3.88
267.148	4.88
267.944	3.88
268.74	8.88
269.536	5.88
270.332	6.88
271.128	6.88
271.924	3.88
272.719	5.88
273.515	4.88
274.311	6.88
275.106	6.88
275.901	7.88
276.697	8.88
277.492	7.88
278.287	4.88
279.082	5.88
279.877	5.88
280.672	6.88
281.467	8.88
282.262	8.88
283.056	9.88
283.851	8.88
284.646	7.88
285.44	10.88
286.234	8.88
287.029	12.88
287.823	7.88
288.617	8.88
289.411	9.88
290.205	8.88
290.999	9.88
291.793	9.88
292.587	8.88
293.381	8.88
294.174	7.88
294.968	8.88
295.761	6.88
296.555	9.88
297.348	7.88
298.141	8.88
298.935	8.88
299.728	6.88
300.521	6.88
301.314	7.88
302.107	8.88
302.899	5.88
303.692	7.88
304.485	9.88
305.277	8.88
306.07	6.88
306.862	7.88
307.655	7.88
308.447	6.88
309.239	5.88
310.031	7.88
310.823	6.88
311.615	4.88
312.407	4.88
313.199	6.88
313.991	5.88
314.783	4.88
315.574	4.88
316.366	3.88
317.157	3.88
317.949	3.88
318.74	4.88
319.531	2.88
320.322	3.88
321.113	2.88
321.904	2.88
322.695	4.88
323.486	4.88
324.277	2.88
325.068	6.88
325.858	3.88
326.649	3.88
327.439	3.88
328.23	4.88
329.02	4.88
329.81	5.88
330.6	4.88
331.391	3.88
332.181	2.88
332.971	3.88
333.76	2.88
334.55	3.88
335.34	3.88
336.13	3.88
336.919	2.88
337.709	0.88
338.498	2.88
339.287	2.88
340.077	3.88
340.866	3.88
341.655	2.88
342.444	3.88
343.233	2.88
344.022	0.88
344.811	-0.12
345.6	1.88
346.388	2.88
347.177	1.88
347.965	0.88
348.754	2.88
349.542	1.88
350.33	2.88
351.119	2.88
351.907	1.88
352.695	1.88
353.483	3.88
354.271	1.88
355.059	1.88
355.846	4.88
356.634	3.88
357.422	-0.12
358.209	0.88
358.997	3.88
359.784	1.88
360.571	2.88
361.359	3.88
362.146	1.88
362.933	-0.12
363.72	1.88
364.507	2.88
365.294	3.88
366.081	1.88
366.867	2.88
367.654	0.88
368.44	0.88
369.227	1.88
370.013	1.88
370.8	0.88
371.586	2.88
372.372	2.88
373.158	1.88
373.944	2.88
374.73	2.88
375.516	1.88
376.302	3.88
377.088	1.88
377.873	2.88
378.659	3.88
379.445	-0.12
380.23	2.88
381.015	1.88
381.801	2.88
382.586	1.88
383.371	1.88
384.156	2.88
384.941	-1.12
385.726	1.88
386.511	1.88
387.296	2.88
388.08	3.88
388.865	0.88
389.649	3.88
390.434	3.88
391.218	2.88
392.003	1.88
392.787	1.88
393.571	1.88
394.355	4.88
395.139	3.88
395.923	1.88
396.707	1.88
397.491	1.88
398.274	2.88
399.058	4.88
399.842	3.88
400.625	0.88
401.408	3.88
402.192	2.88
402.975	1.88
403.758	1.88
404.541	4.88
405.324	2.88
406.107	5.88
406.89	0.88
407.673	3.88
408.456	2.88
409.238	1.88
410.021	4.88
410.803	1.88
411.586	4.88
412.368	3.88
413.151	3.88
413.933	3.88
414.715	2.88
415.497	5.88
416.279	4.88
417.061	4.88
417.843	4.88
418.624	5.88
419.406	4.88
420.188	2.88
420.969	5.88
421.751	5.88
422.532	5.88
423.313	4.88
424.095	7.88
424.876	5.88
425.657	4.88
426.438	4.88
427.219	4.88
428	5.88
428.78	3.88
429.561	6.88
430.342	5.88
431.122	5.88
431.903	5.88
432.683	5.88
433.464	6.88
434.244	6.88
435.024	7.88
435.804	7.88
436.584	7.88
437.364	8.88
438.144	8.88
438.924	9.88
439.704	10.88
440.483	11.88
441.263	8.88
442.042	12.88
442.822	13.88
443.601	13.88
444.38	15.88
445.16	14.88
445.939	15.88
446.718	17.88
447.497	16.88
448.276	21.88
449.054	21.88
449.833	25.88
450.612	26.88
451.391	27.88
452.169	27.88
452.948	36.88
453.726	38.88
454.504	39.88
455.282	44.88
456.061	49.88
456.839	55.88
457.617	58.88
458.395	68.88
459.172	69.88
459.95	77.88
460.728	87.88
461.506	101.88
462.283	114.88
463.061	123.88
463.838	145.88
464.615	155.88
465.393	171.88
466.17	195.88
466.947	206.88
467.724	237.88
468.501	260.88
469.278	287.88
470.055	317.88
470.831	358.88
471.608	399.88
472.385	445.88
473.161	483.88
473.938	535.88
474.714	588.88
475.49	652.88
476.266	712.88
477.043	790.88
477.819	863.88
478.595	959.88
479.371	1054.88
480.146	1154.88
480.922	1249.88
481.698	1392.88
482.473	1515.88
483.249	1680.88
484.024	1834.88
484.8	1994.88
485.575	2199.88
486.35	2401.88
487.126	2617.88
487.901	2873.88
488.676	3126.88
489.451	3419.88
490.225	3740.88
491	4067.88
491.775	4449.88
492.55	4840.88
493.324	5260.88
494.099	5756.88
494.873	6234.88
495.647	6755.88
496.422	7320.88
497.196	7868.88
497.97	8515.88
498.744	9094.88
499.518	9792.88
500.292	10445.88
501.066	11105.88
501.839	11714.88
502.613	12326.88
503.387	12865.88
504.16	13464.88
504.934	13984.88
505.707	14340.88
506.48	14663.88
507.253	14940.88
508.027	15085.88
508.8	15220.88
509.573	15113.88
510.346	15106.88
511.118	14969.88
511.891	14681.88
512.664	14355.88
513.437	13979.88
514.209	13580.88
514.982	13079.88
515.754	12652.88
516.526	12174.88
517.298	11676.88
518.071	11161.88
518.843	10686.88
519.615	10283.88
520.387	9858.88
521.159	9434.88
521.93	9071.88
522.702	8692.88
523.474	8380.88
524.245	8052.88
525.017	7728.88
525.788	7448.88
526.56	7097.88
527.331	6813.88
528.102	6567.88
528.873	6255.88
529.644	6024.88
530.415	5756.88
531.186	5490.88
531.957	5257.88
532.728	4999.88
533.498	4756.88
534.269	4485.88
535.039	4259.88
535.81	4023.88
536.58	3807.88
537.351	3617.88
538.121	3426.88
538.891	3233.88
539.661	3054.88
540.431	2886.88
541.201	2725.88
541.971	2584.88
542.741	2439.88
543.51	2310.88
544.28	2192.88
545.05	2105.88
545.819	1976.88
546.588	1895.88
547.358	1790.88
548.127	1701.88
548.896	1622.88
549.665	1543.88
550.434	1476.88
551.203	1401.88
551.972	1325.88
552.741	1256.88
553.51	1195.88
554.278	1126.88
555.047	1067.88
555.815	1005.88
556.584	943.88
557.352	904.88
558.121	844.88
558.889	794.88
559.657	751.88
560.425	706.88
561.193	668.88
561.961	635.88
562.729	600.88
563.496	564.88
564.264	538.88
565.032	505.88
565.799	481.88
566.567	442.88
567.334	421.88
568.101	398.88
568.869	377.88
569.636	357.88
570.403	338.88
571.17	318.88
571.937	303.88
572.704	276.88
573.471	262.88
574.237	248.88
575.004	234.88
575.771	217.88
576.537	206.88
577.303	199.88
578.07	185.88
578.836	177.88
579.602	163.88
580.368	157.88
581.134	146.88
581.9	140.88
582.666	132.88
583.432	124.88
584.198	120.88
584.964	105.88
585.729	105.88
586.495	99.88
587.26	91.88
588.025	87.88
588.791	83.88
589.556	81.88
590.321	76.88
591.086	72.88
591.851	64.88
592.616	61.88
593.381	62.88
594.146	58.88
594.911	54.88
595.675	50.88
596.44	48.88
597.204	44.88
597.969	45.88
598.733	40.88
599.497	36.88
600.261	37.88
601.025	35.88
601.79	36.88
602.553	34.88
603.317	31.88
604.081	27.88
604.845	30.88
605.609	28.88
606.372	27.88
607.136	23.88
607.899	25.88
608.662	21.88
609.426	21.88
610.189	18.88
610.952	20.88
611.715	18.88
612.478	20.88
613.241	18.88
614.004	16.88
614.767	18.88
615.529	13.88
616.292	15.88
617.055	14.88
617.817	13.88
618.579	12.88
619.342	15.88
620.104	14.88
620.866	9.88
621.628	12.88
622.39	10.88
623.152	11.88
623.914	9.88
624.676	11.88
625.438	8.88
626.199	7.88
626.961	8.88
627.722	9.88
628.484	8.88
629.245	7.88
630.006	9.88
630.768	5.88
631.529	5.88
632.29	7.88
633.051	6.88
633.812	8.88
634.573	7.88
635.333	6.88
636.094	5.88
636.855	7.88
637.615	4.88
638.376	4.88
639.136	5.88
639.896	6.88
640.657	3.88
641.417	3.88
642.177	3.88
642.937	3.88
643.697	3.88
644.457	2.88
645.216	3.88
645.976	4.88
646.736	5.88
647.495	2.88
648.255	4.88
649.014	4.88
649.774	2.88
650.533	4.88
651.292	4.88
652.051	1.88
652.81	0.88
653.569	1.88
654.328	2.88
655.087	5.88
655.846	3.88
656.604	2.88
657.363	3.88
658.121	1.88
658.88	3.88
659.638	1.88
660.397	0.88
661.155	1.88
661.913	4.88
662.671	0.88
663.429	2.88
664.187	1.88
664.945	-0.12
665.703	3.88
666.46	0.88
667.218	0.88
667.976	0.88
668.733	2.88
669.49	1.88
670.248	1.88
671.005	2.88
671.762	1.88
672.519	1.88
673.276	1.88
674.033	0.88
674.79	2.88
675.547	0.88
676.304	0.88
677.06	-0.12
677.817	2.88
678.574	1.88
679.33	4.88
680.086	0.88
680.843	2.88
681.599	2.88
682.355	2.88
683.111	-0.12
683.867	0.88
684.623	-0.12
685.379	2.88
686.135	-0.12
686.89	1.88
687.646	1.88
688.402	-2.12
689.157	0.88
689.912	1.88
690.668	1.88
691.423	0.88
692.178	1.88
692.933	1.88
693.688	1.88
694.443	2.88
695.198	3.88
695.953	2.88
696.708	1.88
697.462	-0.12
698.217	0.88
698.972	1.88
699.726	1.88
700.48	1.88
701.235	0.88
701.989	1.88
702.743	0.88
703.497	0.88
704.251	-0.12
705.005	3.88
705.759	0.88
706.513	1.88
707.266	2.88
708.02	0.88
708.774	-0.12
709.527	1.88
710.28	1.88
711.034	1.88
711.787	0.88
712.54	1.88
713.293	0.88
714.046	1.88
714.799	1.88
715.552	3.88
716.305	1.88
717.058	1.88
717.81	0.88
718.563	0.88
719.315	-0.12
720.068	0.88
720.82	-0.12
721.573	2.88
722.325	0.88
723.077	-0.12
723.829	-0.12
724.581	0.88
725.333	2.88
726.085	1.88
726.836	-0.12
727.588	1.88
728.34	1.88
729.091	2.88
729.843	-0.12
730.594	1.88
731.346	-0.12
732.097	0.88
732.848	1.88
733.599	-0.12
734.35	0.88
735.101	2.88
735.852	0.88
736.603	2.88
737.354	1.88
738.104	2.88
738.855	2.88
739.605	-0.12
740.356	-0.12
741.106	0.88
741.856	1.88
742.607	0.88
743.357	1.88
744.107	3.88
744.857	-0.12
745.607	2.88
746.357	2.88
747.106	0.88
747.856	1.88
748.606	0.88
749.355	2.88
750.105	3.88
750.854	2.88
751.603	1.88
752.353	2.88
753.102	0.88
753.851	0.88
754.6	2.88
755.349	1.88
756.098	2.88
756.847	1.88
757.595	2.88
758.344	-0.12
759.093	0.88
759.841	2.88
760.589	0.88
761.338	4.88
762.086	2.88
762.834	4.88
763.582	2.88
764.331	3.88
765.079	2.88
765.826	2.88
766.574	3.88
767.322	1.88
768.07	1.88
768.817	2.88
769.565	4.88
770.312	2.88
771.06	1.88
771.807	4.88
772.554	2.88
773.302	2.88
774.049	4.88
774.796	2.88
775.543	1.88
776.29	2.88
777.036	1.88
777.783	3.88
778.53	3.88
779.276	1.88
780.023	4.88
780.769	3.88
781.516	2.88
782.262	5.88
783.008	3.88
783.754	2.88
784.5	3.88
785.246	3.88
785.992	5.88
786.738	3.88
787.484	2.88
788.23	3.88
788.975	3.88
789.721	3.88
790.466	0.88
791.212	5.88
791.957	3.88
792.702	4.88
793.447	4.88
794.193	4.88
794.938	4.88
795.683	4.88
796.427	2.88
797.172	3.88
797.917	2.88
798.662	2.88
799.406	4.88
800.151	4.88
800.895	3.88
801.64	1.88
802.384	1.88
803.128	0.88
803.872	4.88
804.616	1.88
805.36	3.88
806.104	2.88
806.848	3.88
807.592	1.88
808.336	1.88
809.079	0.88
809.823	3.88
810.566	4.88
811.31	2.88
812.053	4.88
812.796	4.88
813.539	0.88
814.283	2.88
815.026	1.88
815.769	3.88
816.511	2.88
817.254	4.88
817.997	2.88
818.74	2.88
819.482	1.88
820.225	0.88
820.967	3.88
821.71	1.88
822.452	1.88
823.194	2.88
823.936	-0.12
824.678	4.88
825.42	1.88
826.162	4.88
826.904	1.88
827.646	-0.12
828.388	1.88
829.129	1.88
829.871	3.88
830.612	2.88
831.354	3.88
832.095	2.88
832.836	0.88
833.577	-1.12
834.319	-0.12
835.06	-0.12
835.801	4.88
836.542	2.88
837.282	0.88
838.023	0.88
838.764	1.88
839.504	-1.12
840.245	0.88
840.985	-0.12
841.726	2.88
842.466	1.88
843.206	2.88
843.946	0.88
844.687	1.88
845.427	2.88
846.166	-0.12
846.906	3.88
847.646	-0.12
848.386	0.88
849.125	0.88
849.865	0.88
850.605	1.88
851.344	1.88
852.083	-0.12
852.823	1.88
853.562	0.88
854.301	0.88
855.04	1.88
855.779	1.88
856.518	0.88
857.257	0.88
857.995	0.88
858.734	0.88
859.473	1.88
860.211	-1.12
860.95	0.88
861.688	1.88
862.426	-0.12
863.165	0.88
863.903	-2.12
864.641	2.88
865.379	-1.12
866.117	-0.12
866.855	0.88
867.593	1.88
868.33	0.88
869.068	-1.12
869.806	1.88
870.543	-0.12
871.28	-0.12
872.018	-0.12
872.755	-0.12
873.492	-0.12
874.229	-0.12
874.967	0.88
875.703	-1.12
876.44	-1.12
877.177	-1.12
877.914	1.88
878.651	0.88
879.387	-0.12
880.124	-0.12
880.86	1.88
881.597	-2.12
882.333	1.88
883.069	-1.12
883.806	-0.12
884.542	-1.12
885.278	-0.12
886.014	-1.12
886.749	0.88
887.485	0.88
888.221	0.88
888.957	0.88
889.692	-0.12
890.428	-1.12
891.163	-1.12
891.899	2.88
892.634	-0.12
893.369	-0.12
894.104	0.88
894.839	-1.12
895.574	-0.12
896.309	-2.12
897.044	0.88
897.779	-0.12
898.514	1.88
899.248	-0.12
899.983	-0.12
900.717	-0.12
901.452	-2.12
902.186	0.88
902.92	-0.12
903.654	-2.12
904.389	2.88
905.123	-2.12
905.857	1.88
906.59	-0.12
907.324	0.88
908.058	-1.12
908.792	-1.12
909.525	-0.12
910.259	-0.12
910.992	1.88
911.726	-0.12
912.459	1.88
913.192	-0.12
913.925	-0.12
914.658	1.88
915.391	-1.12
916.124	-2.12
916.857	-0.12
917.59	-2.12
918.323	0.88
919.055	-1.12
919.788	-2.12
920.521	0.88
921.253	-0.12
921.985	0.88
922.718	-0.12
923.45	-2.12
924.182	-1.12
924.914	0.88
925.646	-2.12
926.378	1.88
927.11	0.88
927.841	-2.12
928.573	0.88
929.305	-1.12
930.036	-1.12
930.768	-2.12
931.499	0.88
932.23	-0.12
932.962	-0.12
933.693	-1.12
934.424	-2.12
935.155	0.88
935.886	0.88
936.617	-1.12
937.348	-0.12
938.078	0.88
938.809	-0.12
939.54	0.88
940.27	-0.12
941.001	-1.12
941.731	-2.12
942.461	-2.12
943.191	0.88
943.922	-1.12
944.652	-2.12
945.382	1.88
946.112	-0.12
946.841	0.88
947.571	-0.12
948.301	-2.12
949.031	-0.12
949.76	-2.12
950.49	-0.12
951.219	1.88
951.948	-1.12
952.678	-1.12
953.407	-0.12
954.136	-1.12
954.865	-0.12
955.594	-1.12
956.323	-0.12
957.052	-0.12
957.78	-0.12
958.509	0.88
959.238	-2.12
959.966	-3.12
960.695	-0.12
961.423	-1.12
962.151	0.88
962.88	-1.12
963.608	0.88
964.336	-1.12
965.064	-2.12
965.792	-1.12
966.52	-0.12
967.247	-0.12
967.975	0.88
968.703	-1.12
969.43	-0.12
970.158	-1.12
970.885	-2.12
971.613	-0.12
972.34	-1.12
973.067	-2.12
973.794	-1.12
974.521	0.88
975.248	-2.12
975.975	-0.12
976.702	-1.12
977.429	-0.12
978.156	-0.12
978.882	-1.12
979.609	-0.12
980.335	-2.12
981.062	-1.12
981.788	0.88
982.514	-0.12
983.24	-2.12
983.967	-0.12
984.693	-0.12
985.419	-4.12
986.144	0.88
986.87	-2.12
987.596	-0.12
988.322	1.88
989.047	-0.12
989.773	-3.12
990.498	-0.12
991.224	-1.12
991.949	0.88
992.674	-2.12
993.399	-0.12
994.124	-1.12
994.849	-2.12
995.574	-2.12
996.299	1.88
997.024	-2.12
997.749	0.88
998.473	-1.12
999.198	0.88
999.922	-1.12
1000.647	0.88
1001.371	4.88
1002.095	-1.12
1002.82	-1.12
1003.544	-2.12
1004.268	-0.12
1004.992	-1.12
1005.716	-1.12
1006.439	-0.12
1007.163	-2.12
1007.887	-2.12
1008.611	-0.12
1009.334	-0.12
1010.058	-0.12
1010.781	1.88
1011.504	-1.12
1012.228	0.88
1012.951	-1.12
1013.674	0.88
1014.397	-0.12
1015.12	-0.12
