节点500_145_QEPB04081__341__11-34-23-538.txt的数据

Date: Wed Nov 12 11:34:23 CST 2025
User: PC
Spectrometer: QEPB0408
触发模式: 0
积分时间 (秒): 1.000000E-2
Scans to average: 1
启用暗噪声校正: true
启用非线性校正: false
滑动平均宽度: 0
X轴模式: Wavelengths
Number of Pixels in Spectrum: 1044
>>>>>Begin Spectral Data<<<<<
220.843	1.62
221.644	-2.38
222.444	1.62
223.244	-0.38
224.045	0.62
224.845	1.62
225.645	-0.38
226.445	1.62
227.245	-1.38
228.045	1.62
228.845	1.62
229.645	2.62
230.444	-2.38
231.244	0.62
232.043	-0.38
232.843	-1.38
233.642	0.62
234.442	2.62
235.241	2.62
236.04	0.62
236.839	1.62
237.638	0.62
238.437	1.62
239.236	1.62
240.035	-2.38
240.833	2.62
241.632	2.62
242.43	0.62
243.229	0.62
244.027	-0.38
244.826	4.62
245.624	2.62
246.422	1.62
247.22	2.62
248.018	1.62
248.816	2.62
249.614	2.62
250.412	1.62
251.21	0.62
252.007	3.62
252.805	2.62
253.602	3.62
254.4	3.62
255.197	1.62
255.994	2.62
256.791	3.62
257.589	5.62
258.386	5.62
259.183	1.62
259.979	4.62
260.776	3.62
261.573	4.62
262.37	3.62
263.166	4.62
263.963	5.62
264.759	4.62
265.556	4.62
266.352	4.62
267.148	6.62
267.944	7.62
268.74	7.62
269.536	5.62
270.332	8.62
271.128	7.62
271.924	4.62
272.719	7.62
273.515	8.62
274.311	7.62
275.106	8.62
275.901	10.62
276.697	11.62
277.492	7.62
278.287	9.62
279.082	8.62
279.877	8.62
280.672	12.62
281.467	9.62
282.262	10.62
283.056	11.62
283.851	11.62
284.646	9.62
285.44	8.62
286.234	12.62
287.029	10.62
287.823	11.62
288.617	10.62
289.411	11.62
290.205	10.62
290.999	9.62
291.793	9.62
292.587	9.62
293.381	9.62
294.174	10.62
294.968	10.62
295.761	11.62
296.555	10.62
297.348	10.62
298.141	8.62
298.935	9.62
299.728	11.62
300.521	8.62
301.314	7.62
302.107	8.62
302.899	7.62
303.692	7.62
304.485	9.62
305.277	7.62
306.07	8.62
306.862	7.62
307.655	7.62
308.447	8.62
309.239	7.62
310.031	7.62
310.823	8.62
311.615	10.62
312.407	6.62
313.199	5.62
313.991	7.62
314.783	5.62
315.574	8.62
316.366	4.62
317.157	5.62
317.949	5.62
318.74	4.62
319.531	4.62
320.322	2.62
321.113	4.62
321.904	2.62
322.695	5.62
323.486	4.62
324.277	3.62
325.068	4.62
325.858	4.62
326.649	4.62
327.439	7.62
328.23	4.62
329.02	3.62
329.81	3.62
330.6	3.62
331.391	1.62
332.181	3.62
332.971	5.62
333.76	3.62
334.55	3.62
335.34	2.62
336.13	4.62
336.919	3.62
337.709	5.62
338.498	3.62
339.287	4.62
340.077	4.62
340.866	4.62
341.655	3.62
342.444	4.62
343.233	3.62
344.022	4.62
344.811	2.62
345.6	3.62
346.388	3.62
347.177	4.62
347.965	0.62
348.754	4.62
349.542	5.62
350.33	4.62
351.119	1.62
351.907	3.62
352.695	4.62
353.483	1.62
354.271	6.62
355.059	4.62
355.846	2.62
356.634	3.62
357.422	4.62
358.209	2.62
358.997	1.62
359.784	0.62
360.571	3.62
361.359	1.62
362.146	1.62
362.933	2.62
363.72	3.62
364.507	3.62
365.294	1.62
366.081	3.62
366.867	1.62
367.654	1.62
368.44	0.62
369.227	4.62
370.013	2.62
370.8	3.62
371.586	3.62
372.372	2.62
373.158	1.62
373.944	1.62
374.73	3.62
375.516	3.62
376.302	2.62
377.088	3.62
377.873	3.62
378.659	3.62
379.445	0.62
380.23	4.62
381.015	2.62
381.801	3.62
382.586	2.62
383.371	0.62
384.156	1.62
384.941	2.62
385.726	2.62
386.511	1.62
387.296	3.62
388.08	4.62
388.865	3.62
389.649	2.62
390.434	2.62
391.218	4.62
392.003	5.62
392.787	2.62
393.571	3.62
394.355	3.62
395.139	2.62
395.923	4.62
396.707	3.62
397.491	2.62
398.274	1.62
399.058	4.62
399.842	3.62
400.625	4.62
401.408	2.62
402.192	4.62
402.975	5.62
403.758	3.62
404.541	5.62
405.324	4.62
406.107	3.62
406.89	0.62
407.673	5.62
408.456	2.62
409.238	5.62
410.021	3.62
410.803	2.62
411.586	2.62
412.368	5.62
413.151	6.62
413.933	6.62
414.715	3.62
415.497	5.62
416.279	4.62
417.061	5.62
417.843	2.62
418.624	6.62
419.406	5.62
420.188	3.62
420.969	6.62
421.751	5.62
422.532	5.62
423.313	6.62
424.095	7.62
424.876	5.62
425.657	5.62
426.438	7.62
427.219	6.62
428	7.62
428.78	7.62
429.561	7.62
430.342	6.62
431.122	7.62
431.903	8.62
432.683	8.62
433.464	8.62
434.244	8.62
435.024	9.62
435.804	9.62
436.584	10.62
437.364	11.62
438.144	10.62
438.924	10.62
439.704	10.62
440.483	14.62
441.263	14.62
442.042	11.62
442.822	16.62
443.601	15.62
444.38	18.62
445.16	16.62
445.939	18.62
446.718	17.62
447.497	18.62
448.276	21.62
449.054	21.62
449.833	25.62
450.612	25.62
451.391	27.62
452.169	31.62
452.948	31.62
453.726	33.62
454.504	37.62
455.282	39.62
456.061	48.62
456.839	50.62
457.617	53.62
458.395	65.62
459.172	66.62
459.95	71.62
460.728	84.62
461.506	93.62
462.283	105.62
463.061	116.62
463.838	124.62
464.615	144.62
465.393	159.62
466.17	176.62
466.947	200.62
467.724	218.62
468.501	252.62
469.278	273.62
470.055	300.62
470.831	336.62
471.608	377.62
472.385	423.62
473.161	463.62
473.938	517.62
474.714	569.62
475.49	641.62
476.266	708.62
477.043	762.62
477.819	854.62
478.595	940.62
479.371	1030.62
480.146	1149.62
480.922	1270.62
481.698	1398.62
482.473	1529.62
483.249	1691.62
484.024	1870.62
484.8	2065.62
485.575	2265.62
486.35	2505.62
487.126	2767.62
487.901	3023.62
488.676	3336.62
489.451	3652.62
490.225	4013.62
491	4418.62
491.775	4849.62
492.55	5293.62
493.324	5774.62
494.099	6329.62
494.873	6908.62
495.647	7543.62
496.422	8186.62
497.196	8855.62
497.97	9491.62
498.744	10295.62
499.518	11011.62
500.292	11713.62
501.066	12405.62
501.839	13103.62
502.613	13806.62
503.387	14394.62
504.16	14934.62
504.934	15406.62
505.707	15798.62
506.48	16047.62
507.253	16237.62
508.027	16323.62
508.8	16317.62
509.573	16199.62
510.346	15956.62
511.118	15723.62
511.891	15337.62
512.664	14823.62
513.437	14310.62
514.209	13829.62
514.982	13279.62
515.754	12752.62
516.526	12238.62
517.298	11665.62
518.071	11139.62
518.843	10663.62
519.615	10250.62
520.387	9784.62
521.159	9392.62
521.93	9020.62
522.702	8653.62
523.474	8313.62
524.245	8022.62
525.017	7672.62
525.788	7366.62
526.56	7076.62
527.331	6765.62
528.102	6487.62
528.873	6191.62
529.644	5902.62
530.415	5649.62
531.186	5378.62
531.957	5110.62
532.728	4873.62
533.498	4624.62
534.269	4350.62
535.039	4135.62
535.81	3898.62
536.58	3681.62
537.351	3476.62
538.121	3312.62
538.891	3113.62
539.661	2925.62
540.431	2775.62
541.201	2633.62
541.971	2503.62
542.741	2354.62
543.51	2218.62
544.28	2113.62
545.05	2026.62
545.819	1925.62
546.588	1824.62
547.358	1737.62
548.127	1641.62
548.896	1544.62
549.665	1478.62
550.434	1422.62
551.203	1339.62
551.972	1263.62
552.741	1204.62
553.51	1143.62
554.278	1073.62
555.047	1013.62
555.815	956.62
556.584	906.62
557.352	844.62
558.121	801.62
558.889	757.62
559.657	721.62
560.425	677.62
561.193	638.62
561.961	598.62
562.729	561.62
563.496	536.62
564.264	511.62
565.032	466.62
565.799	443.62
566.567	421.62
567.334	400.62
568.101	376.62
568.869	358.62
569.636	338.62
570.403	321.62
571.17	303.62
571.937	279.62
572.704	269.62
573.471	255.62
574.237	239.62
575.004	222.62
575.771	208.62
576.537	195.62
577.303	186.62
578.07	174.62
578.836	161.62
579.602	152.62
580.368	144.62
581.134	142.62
581.9	127.62
582.666	127.62
583.432	116.62
584.198	110.62
584.964	107.62
585.729	101.62
586.495	93.62
587.26	89.62
588.025	85.62
588.791	75.62
589.556	76.62
590.321	67.62
591.086	66.62
591.851	63.62
592.616	60.62
593.381	60.62
594.146	54.62
594.911	54.62
595.675	49.62
596.44	49.62
597.204	47.62
597.969	43.62
598.733	44.62
599.497	43.62
600.261	38.62
601.025	38.62
601.79	30.62
602.553	35.62
603.317	30.62
604.081	29.62
604.845	30.62
605.609	29.62
606.372	27.62
607.136	24.62
607.899	25.62
608.662	24.62
609.426	24.62
610.189	22.62
610.952	21.62
611.715	19.62
612.478	19.62
613.241	18.62
614.004	17.62
614.767	20.62
615.529	14.62
616.292	16.62
617.055	15.62
617.817	13.62
618.579	14.62
619.342	11.62
620.104	13.62
620.866	14.62
621.628	10.62
622.39	9.62
623.152	11.62
623.914	13.62
624.676	8.62
625.438	12.62
626.199	10.62
626.961	11.62
627.722	11.62
628.484	8.62
629.245	10.62
630.006	6.62
630.768	9.62
631.529	4.62
632.29	8.62
633.051	5.62
633.812	6.62
634.573	7.62
635.333	6.62
636.094	8.62
636.855	4.62
637.615	5.62
638.376	8.62
639.136	5.62
639.896	7.62
640.657	5.62
641.417	5.62
642.177	5.62
642.937	6.62
643.697	3.62
644.457	7.62
645.216	3.62
645.976	5.62
646.736	4.62
647.495	4.62
648.255	1.62
649.014	8.62
649.774	7.62
650.533	4.62
651.292	3.62
652.051	5.62
652.81	4.62
653.569	5.62
654.328	2.62
655.087	2.62
655.846	4.62
656.604	4.62
657.363	2.62
658.121	4.62
658.88	3.62
659.638	5.62
660.397	4.62
661.155	5.62
661.913	3.62
662.671	5.62
663.429	3.62
664.187	2.62
664.945	4.62
665.703	2.62
666.46	2.62
667.218	1.62
667.976	4.62
668.733	2.62
669.49	0.62
670.248	2.62
671.005	1.62
671.762	2.62
672.519	3.62
673.276	1.62
674.033	3.62
674.79	2.62
675.547	3.62
676.304	1.62
677.06	3.62
677.817	4.62
678.574	2.62
679.33	3.62
680.086	1.62
680.843	3.62
681.599	2.62
682.355	5.62
683.111	2.62
683.867	3.62
684.623	-0.38
685.379	3.62
686.135	3.62
686.89	1.62
687.646	2.62
688.402	2.62
689.157	1.62
689.912	2.62
690.668	1.62
691.423	0.62
692.178	0.62
692.933	1.62
693.688	2.62
694.443	1.62
695.198	1.62
695.953	2.62
696.708	1.62
697.462	3.62
698.217	3.62
698.972	5.62
699.726	4.62
700.48	1.62
701.235	0.62
701.989	2.62
702.743	1.62
703.497	2.62
704.251	-0.38
705.005	3.62
705.759	0.62
706.513	1.62
707.266	5.62
708.02	4.62
708.774	3.62
709.527	0.62
710.28	1.62
711.034	2.62
711.787	1.62
712.54	2.62
713.293	2.62
714.046	1.62
714.799	1.62
715.552	3.62
716.305	0.62
717.058	1.62
717.81	2.62
718.563	2.62
719.315	3.62
720.068	1.62
720.82	1.62
721.573	2.62
722.325	2.62
723.077	0.62
723.829	3.62
724.581	0.62
725.333	2.62
726.085	1.62
726.836	2.62
727.588	1.62
728.34	0.62
729.091	1.62
729.843	1.62
730.594	1.62
731.346	-0.38
732.097	2.62
732.848	2.62
733.599	0.62
734.35	3.62
735.101	1.62
735.852	1.62
736.603	3.62
737.354	2.62
738.104	1.62
738.855	4.62
739.605	3.62
740.356	0.62
741.106	6.62
741.856	4.62
742.607	-1.38
743.357	2.62
744.107	2.62
744.857	4.62
745.607	5.62
746.357	5.62
747.106	3.62
747.856	4.62
748.606	1.62
749.355	2.62
750.105	1.62
750.854	4.62
751.603	3.62
752.353	2.62
753.102	3.62
753.851	3.62
754.6	2.62
755.349	1.62
756.098	2.62
756.847	3.62
757.595	0.62
758.344	2.62
759.093	2.62
759.841	4.62
760.589	2.62
761.338	1.62
762.086	5.62
762.834	3.62
763.582	2.62
764.331	1.62
765.079	5.62
765.826	4.62
766.574	3.62
767.322	5.62
768.07	2.62
768.817	4.62
769.565	4.62
770.312	3.62
771.06	6.62
771.807	1.62
772.554	3.62
773.302	5.62
774.049	5.62
774.796	3.62
775.543	4.62
776.29	3.62
777.036	6.62
777.783	6.62
778.53	4.62
779.276	5.62
780.023	3.62
780.769	5.62
781.516	5.62
782.262	5.62
783.008	6.62
783.754	4.62
784.5	7.62
785.246	4.62
785.992	5.62
786.738	4.62
787.484	3.62
788.23	5.62
788.975	5.62
789.721	7.62
790.466	7.62
791.212	6.62
791.957	5.62
792.702	5.62
793.447	7.62
794.193	6.62
794.938	2.62
795.683	4.62
796.427	7.62
797.172	1.62
797.917	4.62
798.662	6.62
799.406	5.62
800.151	4.62
800.895	3.62
801.64	3.62
802.384	4.62
803.128	4.62
803.872	4.62
804.616	3.62
805.36	5.62
806.104	3.62
806.848	6.62
807.592	5.62
808.336	5.62
809.079	4.62
809.823	2.62
810.566	3.62
811.31	2.62
812.053	1.62
812.796	3.62
813.539	4.62
814.283	3.62
815.026	2.62
815.769	4.62
816.511	4.62
817.254	2.62
817.997	4.62
818.74	2.62
819.482	2.62
820.225	3.62
820.967	1.62
821.71	3.62
822.452	3.62
823.194	4.62
823.936	2.62
824.678	2.62
825.42	4.62
826.162	1.62
826.904	2.62
827.646	2.62
828.388	4.62
829.129	0.62
829.871	1.62
830.612	4.62
831.354	2.62
832.095	1.62
832.836	3.62
833.577	2.62
834.319	1.62
835.06	0.62
835.801	2.62
836.542	2.62
837.282	3.62
838.023	3.62
838.764	4.62
839.504	3.62
840.245	3.62
840.985	3.62
841.726	1.62
842.466	2.62
843.206	1.62
843.946	4.62
844.687	4.62
845.427	1.62
846.166	2.62
846.906	-1.38
847.646	2.62
848.386	2.62
849.125	0.62
849.865	2.62
850.605	3.62
851.344	1.62
852.083	4.62
852.823	3.62
853.562	1.62
854.301	4.62
855.04	-0.38
855.779	2.62
856.518	1.62
857.257	0.62
857.995	0.62
858.734	1.62
859.473	1.62
860.211	2.62
860.95	0.62
861.688	1.62
862.426	1.62
863.165	-0.38
863.903	2.62
864.641	2.62
865.379	1.62
866.117	0.62
866.855	0.62
867.593	0.62
868.33	1.62
869.068	-0.38
869.806	0.62
870.543	1.62
871.28	0.62
872.018	0.62
872.755	1.62
873.492	3.62
874.229	1.62
874.967	0.62
875.703	-0.38
876.44	-1.38
877.177	0.62
877.914	1.62
878.651	2.62
879.387	-1.38
880.124	3.62
880.86	2.62
881.597	1.62
882.333	-0.38
883.069	0.62
883.806	0.62
884.542	-0.38
885.278	1.62
886.014	1.62
886.749	0.62
887.485	2.62
888.221	-0.38
888.957	-1.38
889.692	2.62
890.428	1.62
891.163	0.62
891.899	-2.38
892.634	2.62
893.369	-0.38
894.104	2.62
894.839	0.62
895.574	1.62
896.309	-0.38
897.044	0.62
897.779	0.62
898.514	0.62
899.248	0.62
899.983	1.62
900.717	0.62
901.452	0.62
902.186	-0.38
902.92	-0.38
903.654	-1.38
904.389	-0.38
905.123	1.62
905.857	2.62
906.59	2.62
907.324	-0.38
908.058	1.62
908.792	-0.38
909.525	1.62
910.259	1.62
910.992	-0.38
911.726	1.62
912.459	-1.38
913.192	0.62
913.925	0.62
914.658	1.62
915.391	0.62
916.124	-1.38
916.857	-2.38
917.59	0.62
918.323	-0.38
919.055	-1.38
919.788	3.62
920.521	1.62
921.253	-0.38
921.985	1.62
922.718	0.62
923.45	0.62
924.182	-0.38
924.914	1.62
925.646	0.62
926.378	1.62
927.11	-0.38
927.841	-0.38
928.573	1.62
929.305	-2.38
930.036	0.62
930.768	1.62
931.499	0.62
932.23	0.62
932.962	1.62
933.693	1.62
934.424	1.62
935.155	0.62
935.886	-0.38
936.617	-0.38
937.348	-0.38
938.078	0.62
938.809	-0.38
939.54	0.62
940.27	0.62
941.001	-0.38
941.731	1.62
942.461	1.62
943.191	0.62
943.922	1.62
944.652	-0.38
945.382	0.62
946.112	1.62
946.841	0.62
947.571	0.62
948.301	0.62
949.031	-1.38
949.76	-0.38
950.49	2.62
951.219	0.62
951.948	0.62
952.678	-1.38
953.407	-1.38
954.136	2.62
954.865	0.62
955.594	0.62
956.323	2.62
957.052	-1.38
957.78	1.62
958.509	2.62
959.238	-2.38
959.966	0.62
960.695	-0.38
961.423	1.62
962.151	-0.38
962.88	1.62
963.608	-1.38
964.336	2.62
965.064	1.62
965.792	2.62
966.52	0.62
967.247	-2.38
967.975	0.62
968.703	0.62
969.43	1.62
970.158	1.62
970.885	1.62
971.613	0.62
972.34	1.62
973.067	2.62
973.794	-0.38
974.521	0.62
975.248	1.62
975.975	2.62
976.702	-1.38
977.429	0.62
978.156	0.62
978.882	-1.38
979.609	0.62
980.335	0.62
981.062	0.62
981.788	0.62
982.514	1.62
983.24	0.62
983.967	2.62
984.693	-1.38
985.419	0.62
986.144	0.62
986.87	3.62
987.596	2.62
988.322	-1.38
989.047	-0.38
989.773	-1.38
990.498	0.62
991.224	0.62
991.949	1.62
992.674	0.62
993.399	0.62
994.124	0.62
994.849	-0.38
995.574	0.62
996.299	0.62
997.024	2.62
997.749	1.62
998.473	2.62
999.198	-0.38
999.922	-0.38
1000.647	-0.38
1001.371	2.62
1002.095	-1.38
1002.82	-0.38
1003.544	-0.38
1004.268	-0.38
1004.992	0.62
1005.716	0.62
1006.439	-0.38
1007.163	-0.38
1007.887	0.62
1008.611	0.62
1009.334	0.62
1010.058	0.62
1010.781	0.62
1011.504	-1.38
1012.228	2.62
1012.951	1.62
1013.674	0.62
1014.397	-1.38
1015.12	-1.38
