节点500_145_QEPB04081__171__11-31-40-557.txt的数据

Date: Wed Nov 12 11:31:40 CST 2025
User: PC
Spectrometer: QEPB0408
触发模式: 0
积分时间 (秒): 1.000000E-2
Scans to average: 1
启用暗噪声校正: true
启用非线性校正: false
滑动平均宽度: 0
X轴模式: Wavelengths
Number of Pixels in Spectrum: 1044
>>>>>Begin Spectral Data<<<<<
220.843	-0.12
221.644	-2.12
222.444	0.88
223.244	-1.12
224.045	-2.12
224.845	0.88
225.645	-0.12
226.445	-0.12
227.245	0.88
228.045	-0.12
228.845	1.88
229.645	-3.12
230.444	-2.12
231.244	-0.12
232.043	-0.12
232.843	-1.12
233.642	1.88
234.442	0.88
235.241	2.88
236.04	-0.12
236.839	-0.12
237.638	-0.12
238.437	1.88
239.236	1.88
240.035	3.88
240.833	0.88
241.632	-1.12
242.43	0.88
243.229	0.88
244.027	4.88
244.826	2.88
245.624	2.88
246.422	1.88
247.22	0.88
248.018	0.88
248.816	2.88
249.614	2.88
250.412	0.88
251.21	0.88
252.007	0.88
252.805	1.88
253.602	0.88
254.4	3.88
255.197	3.88
255.994	3.88
256.791	5.88
257.589	1.88
258.386	3.88
259.183	2.88
259.979	4.88
260.776	6.88
261.573	6.88
262.37	4.88
263.166	4.88
263.963	7.88
264.759	7.88
265.556	6.88
266.352	6.88
267.148	5.88
267.944	5.88
268.74	7.88
269.536	4.88
270.332	8.88
271.128	6.88
271.924	6.88
272.719	5.88
273.515	11.88
274.311	8.88
275.106	11.88
275.901	7.88
276.697	10.88
277.492	6.88
278.287	9.88
279.082	9.88
279.877	8.88
280.672	9.88
281.467	11.88
282.262	12.88
283.056	8.88
283.851	7.88
284.646	12.88
285.44	10.88
286.234	10.88
287.029	10.88
287.823	8.88
288.617	11.88
289.411	9.88
290.205	10.88
290.999	9.88
291.793	8.88
292.587	7.88
293.381	10.88
294.174	9.88
294.968	10.88
295.761	11.88
296.555	8.88
297.348	8.88
298.141	9.88
298.935	7.88
299.728	8.88
300.521	11.88
301.314	6.88
302.107	7.88
302.899	8.88
303.692	8.88
304.485	7.88
305.277	8.88
306.07	8.88
306.862	6.88
307.655	10.88
308.447	8.88
309.239	8.88
310.031	8.88
310.823	4.88
311.615	6.88
312.407	5.88
313.199	5.88
313.991	7.88
314.783	4.88
315.574	6.88
316.366	4.88
317.157	7.88
317.949	4.88
318.74	4.88
319.531	5.88
320.322	4.88
321.113	4.88
321.904	4.88
322.695	4.88
323.486	4.88
324.277	1.88
325.068	3.88
325.858	3.88
326.649	6.88
327.439	4.88
328.23	1.88
329.02	3.88
329.81	4.88
330.6	6.88
331.391	3.88
332.181	2.88
332.971	0.88
333.76	3.88
334.55	1.88
335.34	4.88
336.13	4.88
336.919	2.88
337.709	4.88
338.498	3.88
339.287	3.88
340.077	2.88
340.866	2.88
341.655	4.88
342.444	2.88
343.233	1.88
344.022	1.88
344.811	4.88
345.6	0.88
346.388	0.88
347.177	2.88
347.965	1.88
348.754	3.88
349.542	1.88
350.33	3.88
351.119	1.88
351.907	4.88
352.695	3.88
353.483	1.88
354.271	1.88
355.059	1.88
355.846	2.88
356.634	3.88
357.422	0.88
358.209	2.88
358.997	0.88
359.784	1.88
360.571	4.88
361.359	1.88
362.146	3.88
362.933	1.88
363.72	2.88
364.507	0.88
365.294	1.88
366.081	2.88
366.867	3.88
367.654	0.88
368.44	1.88
369.227	1.88
370.013	2.88
370.8	0.88
371.586	2.88
372.372	2.88
373.158	1.88
373.944	2.88
374.73	-0.12
375.516	3.88
376.302	2.88
377.088	2.88
377.873	1.88
378.659	1.88
379.445	1.88
380.23	0.88
381.015	0.88
381.801	3.88
382.586	2.88
383.371	2.88
384.156	3.88
384.941	1.88
385.726	4.88
386.511	0.88
387.296	1.88
388.08	2.88
388.865	2.88
389.649	2.88
390.434	0.88
391.218	1.88
392.003	3.88
392.787	3.88
393.571	1.88
394.355	1.88
395.139	4.88
395.923	1.88
396.707	4.88
397.491	4.88
398.274	3.88
399.058	3.88
399.842	1.88
400.625	2.88
401.408	4.88
402.192	4.88
402.975	2.88
403.758	2.88
404.541	3.88
405.324	3.88
406.107	2.88
406.89	2.88
407.673	6.88
408.456	3.88
409.238	5.88
410.021	5.88
410.803	5.88
411.586	1.88
412.368	2.88
413.151	4.88
413.933	5.88
414.715	4.88
415.497	4.88
416.279	2.88
417.061	5.88
417.843	8.88
418.624	5.88
419.406	5.88
420.188	4.88
420.969	5.88
421.751	5.88
422.532	6.88
423.313	6.88
424.095	5.88
424.876	6.88
425.657	5.88
426.438	6.88
427.219	5.88
428	6.88
428.78	6.88
429.561	7.88
430.342	5.88
431.122	6.88
431.903	9.88
432.683	7.88
433.464	9.88
434.244	7.88
435.024	8.88
435.804	8.88
436.584	7.88
437.364	11.88
438.144	7.88
438.924	10.88
439.704	10.88
440.483	10.88
441.263	10.88
442.042	10.88
442.822	14.88
443.601	14.88
444.38	15.88
445.16	13.88
445.939	15.88
446.718	16.88
447.497	13.88
448.276	15.88
449.054	20.88
449.833	20.88
450.612	22.88
451.391	28.88
452.169	27.88
452.948	28.88
453.726	32.88
454.504	33.88
455.282	36.88
456.061	41.88
456.839	48.88
457.617	51.88
458.395	58.88
459.172	61.88
459.95	71.88
460.728	76.88
461.506	86.88
462.283	94.88
463.061	102.88
463.838	119.88
464.615	130.88
465.393	146.88
466.17	159.88
466.947	185.88
467.724	198.88
468.501	227.88
469.278	258.88
470.055	294.88
470.831	317.88
471.608	357.88
472.385	395.88
473.161	442.88
473.938	487.88
474.714	542.88
475.49	608.88
476.266	668.88
477.043	753.88
477.819	825.88
478.595	918.88
479.371	1036.88
480.146	1145.88
480.922	1260.88
481.698	1388.88
482.473	1556.88
483.249	1697.88
484.024	1874.88
484.8	2096.88
485.575	2319.88
486.35	2567.88
487.126	2841.88
487.901	3136.88
488.676	3459.88
489.451	3845.88
490.225	4227.88
491	4672.88
491.775	5104.88
492.55	5605.88
493.324	6178.88
494.099	6772.88
494.873	7400.88
495.647	8067.88
496.422	8833.88
497.196	9560.88
497.97	10302.88
498.744	11110.88
499.518	11938.88
500.292	12668.88
501.066	13480.88
501.839	14159.88
502.613	14864.88
503.387	15411.88
504.16	15973.88
504.934	16393.88
505.707	16763.88
506.48	16967.88
507.253	17103.88
508.027	17059.88
508.8	16934.88
509.573	16716.88
510.346	16412.88
511.118	15994.88
511.891	15511.88
512.664	14956.88
513.437	14323.88
514.209	13860.88
514.982	13281.88
515.754	12722.88
516.526	12098.88
517.298	11504.88
518.071	11011.88
518.843	10512.88
519.615	10073.88
520.387	9660.88
521.159	9256.88
521.93	8902.88
522.702	8604.88
523.474	8262.88
524.245	7882.88
525.017	7613.88
525.788	7290.88
526.56	6961.88
527.331	6708.88
528.102	6381.88
528.873	6098.88
529.644	5815.88
530.415	5560.88
531.186	5259.88
531.957	5001.88
532.728	4709.88
533.498	4492.88
534.269	4218.88
535.039	3989.88
535.81	3769.88
536.58	3548.88
537.351	3329.88
538.121	3136.88
538.891	2994.88
539.661	2824.88
540.431	2685.88
541.201	2536.88
541.971	2387.88
542.741	2265.88
543.51	2145.88
544.28	2045.88
545.05	1949.88
545.819	1843.88
546.588	1771.88
547.358	1661.88
548.127	1593.88
548.896	1499.88
549.665	1429.88
550.434	1362.88
551.203	1283.88
551.972	1224.88
552.741	1154.88
553.51	1097.88
554.278	1037.88
555.047	968.88
555.815	916.88
556.584	869.88
557.352	804.88
558.121	761.88
558.889	718.88
559.657	679.88
560.425	637.88
561.193	597.88
561.961	565.88
562.729	529.88
563.496	518.88
564.264	466.88
565.032	447.88
565.799	430.88
566.567	392.88
567.334	388.88
568.101	362.88
568.869	343.88
569.636	321.88
570.403	304.88
571.17	283.88
571.937	263.88
572.704	260.88
573.471	239.88
574.237	230.88
575.004	211.88
575.771	201.88
576.537	180.88
577.303	177.88
578.07	169.88
578.836	156.88
579.602	151.88
580.368	138.88
581.134	130.88
581.9	120.88
582.666	119.88
583.432	113.88
584.198	106.88
584.964	100.88
585.729	95.88
586.495	93.88
587.26	85.88
588.025	79.88
588.791	80.88
589.556	72.88
590.321	70.88
591.086	64.88
591.851	60.88
592.616	58.88
593.381	54.88
594.146	51.88
594.911	48.88
595.675	47.88
596.44	45.88
597.204	41.88
597.969	38.88
598.733	37.88
599.497	39.88
600.261	37.88
601.025	33.88
601.79	31.88
602.553	28.88
603.317	27.88
604.081	27.88
604.845	25.88
605.609	24.88
606.372	25.88
607.136	23.88
607.899	22.88
608.662	21.88
609.426	21.88
610.189	20.88
610.952	19.88
611.715	15.88
612.478	17.88
613.241	17.88
614.004	13.88
614.767	13.88
615.529	14.88
616.292	16.88
617.055	13.88
617.817	13.88
618.579	12.88
619.342	11.88
620.104	9.88
620.866	13.88
621.628	12.88
622.39	10.88
623.152	11.88
623.914	11.88
624.676	9.88
625.438	6.88
626.199	10.88
626.961	9.88
627.722	8.88
628.484	7.88
629.245	6.88
630.006	7.88
630.768	4.88
631.529	6.88
632.29	8.88
633.051	6.88
633.812	5.88
634.573	4.88
635.333	5.88
636.094	6.88
636.855	3.88
637.615	4.88
638.376	5.88
639.136	3.88
639.896	3.88
640.657	3.88
641.417	2.88
642.177	6.88
642.937	2.88
643.697	2.88
644.457	4.88
645.216	1.88
645.976	4.88
646.736	1.88
647.495	3.88
648.255	2.88
649.014	4.88
649.774	5.88
650.533	2.88
651.292	5.88
652.051	4.88
652.81	5.88
653.569	3.88
654.328	3.88
655.087	1.88
655.846	1.88
656.604	2.88
657.363	1.88
658.121	2.88
658.88	4.88
659.638	3.88
660.397	1.88
661.155	0.88
661.913	5.88
662.671	2.88
663.429	1.88
664.187	0.88
664.945	1.88
665.703	1.88
666.46	1.88
667.218	0.88
667.976	2.88
668.733	2.88
669.49	1.88
670.248	1.88
671.005	0.88
671.762	2.88
672.519	2.88
673.276	2.88
674.033	1.88
674.79	2.88
675.547	1.88
676.304	1.88
677.06	0.88
677.817	1.88
678.574	2.88
679.33	3.88
680.086	1.88
680.843	1.88
681.599	2.88
682.355	-2.12
683.111	1.88
683.867	0.88
684.623	0.88
685.379	1.88
686.135	2.88
686.89	2.88
687.646	1.88
688.402	-0.12
689.157	1.88
689.912	2.88
690.668	3.88
691.423	1.88
692.178	2.88
692.933	-0.12
693.688	0.88
694.443	1.88
695.198	2.88
695.953	0.88
696.708	1.88
697.462	2.88
698.217	1.88
698.972	0.88
699.726	2.88
700.48	0.88
701.235	-0.12
701.989	2.88
702.743	1.88
703.497	1.88
704.251	1.88
705.005	1.88
705.759	1.88
706.513	2.88
707.266	0.88
708.02	3.88
708.774	1.88
709.527	1.88
710.28	0.88
711.034	-0.12
711.787	1.88
712.54	1.88
713.293	5.88
714.046	2.88
714.799	-0.12
715.552	2.88
716.305	2.88
717.058	1.88
717.81	1.88
718.563	1.88
719.315	1.88
720.068	0.88
720.82	3.88
721.573	0.88
722.325	2.88
723.077	0.88
723.829	1.88
724.581	1.88
725.333	3.88
726.085	3.88
726.836	1.88
727.588	0.88
728.34	0.88
729.091	-0.12
729.843	1.88
730.594	0.88
731.346	1.88
732.097	1.88
732.848	2.88
733.599	1.88
734.35	0.88
735.101	1.88
735.852	1.88
736.603	0.88
737.354	0.88
738.104	4.88
738.855	2.88
739.605	0.88
740.356	2.88
741.106	3.88
741.856	2.88
742.607	1.88
743.357	1.88
744.107	2.88
744.857	3.88
745.607	1.88
746.357	4.88
747.106	-0.12
747.856	0.88
748.606	3.88
749.355	1.88
750.105	4.88
750.854	2.88
751.603	2.88
752.353	1.88
753.102	1.88
753.851	3.88
754.6	2.88
755.349	2.88
756.098	2.88
756.847	1.88
757.595	2.88
758.344	1.88
759.093	1.88
759.841	2.88
760.589	3.88
761.338	3.88
762.086	2.88
762.834	3.88
763.582	1.88
764.331	3.88
765.079	3.88
765.826	6.88
766.574	3.88
767.322	0.88
768.07	1.88
768.817	1.88
769.565	6.88
770.312	5.88
771.06	1.88
771.807	4.88
772.554	2.88
773.302	6.88
774.049	1.88
774.796	4.88
775.543	4.88
776.29	4.88
777.036	3.88
777.783	2.88
778.53	3.88
779.276	4.88
780.023	4.88
780.769	4.88
781.516	3.88
782.262	6.88
783.008	4.88
783.754	4.88
784.5	4.88
785.246	6.88
785.992	6.88
786.738	6.88
787.484	4.88
788.23	1.88
788.975	4.88
789.721	6.88
790.466	3.88
791.212	1.88
791.957	3.88
792.702	4.88
793.447	4.88
794.193	5.88
794.938	5.88
795.683	2.88
796.427	6.88
797.172	5.88
797.917	3.88
798.662	5.88
799.406	2.88
800.151	3.88
800.895	3.88
801.64	4.88
802.384	4.88
803.128	4.88
803.872	3.88
804.616	4.88
805.36	2.88
806.104	3.88
806.848	3.88
807.592	2.88
808.336	1.88
809.079	1.88
809.823	3.88
810.566	3.88
811.31	2.88
812.053	4.88
812.796	1.88
813.539	3.88
814.283	0.88
815.026	1.88
815.769	4.88
816.511	2.88
817.254	0.88
817.997	1.88
818.74	3.88
819.482	2.88
820.225	3.88
820.967	2.88
821.71	2.88
822.452	3.88
823.194	2.88
823.936	2.88
824.678	4.88
825.42	0.88
826.162	0.88
826.904	2.88
827.646	1.88
828.388	0.88
829.129	1.88
829.871	1.88
830.612	2.88
831.354	-0.12
832.095	1.88
832.836	1.88
833.577	0.88
834.319	1.88
835.06	0.88
835.801	0.88
836.542	3.88
837.282	0.88
838.023	1.88
838.764	0.88
839.504	1.88
840.245	1.88
840.985	0.88
841.726	0.88
842.466	0.88
843.206	2.88
843.946	1.88
844.687	1.88
845.427	1.88
846.166	2.88
846.906	1.88
847.646	2.88
848.386	1.88
849.125	1.88
849.865	2.88
850.605	4.88
851.344	0.88
852.083	2.88
852.823	1.88
853.562	0.88
854.301	-1.12
855.04	1.88
855.779	-0.12
856.518	0.88
857.257	1.88
857.995	1.88
858.734	0.88
859.473	-0.12
860.211	1.88
860.95	2.88
861.688	0.88
862.426	-2.12
863.165	2.88
863.903	1.88
864.641	1.88
865.379	2.88
866.117	0.88
866.855	3.88
867.593	2.88
868.33	-1.12
869.068	2.88
869.806	-0.12
870.543	-0.12
871.28	1.88
872.018	0.88
872.755	2.88
873.492	-0.12
874.229	0.88
874.967	0.88
875.703	1.88
876.44	0.88
877.177	0.88
877.914	0.88
878.651	0.88
879.387	-1.12
880.124	0.88
880.86	0.88
881.597	0.88
882.333	0.88
883.069	0.88
883.806	-0.12
884.542	1.88
885.278	2.88
886.014	-0.12
886.749	1.88
887.485	-0.12
888.221	-0.12
888.957	-1.12
889.692	0.88
890.428	-1.12
891.163	-0.12
891.899	0.88
892.634	-0.12
893.369	0.88
894.104	-0.12
894.839	0.88
895.574	-0.12
896.309	-1.12
897.044	1.88
897.779	-2.12
898.514	1.88
899.248	0.88
899.983	0.88
900.717	2.88
901.452	-1.12
902.186	0.88
902.92	-3.12
903.654	-0.12
904.389	-0.12
905.123	1.88
905.857	1.88
906.59	0.88
907.324	1.88
908.058	-1.12
908.792	0.88
909.525	0.88
910.259	0.88
910.992	-1.12
911.726	-2.12
912.459	-0.12
913.192	-2.12
913.925	-2.12
914.658	-0.12
915.391	-2.12
916.124	0.88
916.857	1.88
917.59	1.88
918.323	-0.12
919.055	-1.12
919.788	-1.12
920.521	-1.12
921.253	1.88
921.985	-0.12
922.718	-0.12
923.45	-0.12
924.182	-1.12
924.914	-0.12
925.646	-0.12
926.378	1.88
927.11	-1.12
927.841	1.88
928.573	1.88
929.305	-0.12
930.036	-0.12
930.768	-0.12
931.499	-0.12
932.23	0.88
932.962	-0.12
933.693	1.88
934.424	1.88
935.155	-1.12
935.886	-0.12
936.617	-0.12
937.348	-0.12
938.078	-0.12
938.809	1.88
939.54	-2.12
940.27	-0.12
941.001	-2.12
941.731	0.88
942.461	-1.12
943.191	-0.12
943.922	0.88
944.652	-0.12
945.382	-0.12
946.112	-2.12
946.841	-0.12
947.571	-1.12
948.301	-0.12
949.031	-0.12
949.76	-2.12
950.49	-2.12
951.219	-3.12
951.948	-0.12
952.678	-0.12
953.407	-0.12
954.136	-1.12
954.865	0.88
955.594	-2.12
956.323	-1.12
957.052	1.88
957.78	-0.12
958.509	-1.12
959.238	-0.12
959.966	-0.12
960.695	0.88
961.423	1.88
962.151	-0.12
962.88	0.88
963.608	-0.12
964.336	0.88
965.064	-0.12
965.792	-0.12
966.52	-1.12
967.247	0.88
967.975	-1.12
968.703	-0.12
969.43	-0.12
970.158	0.88
970.885	-1.12
971.613	-4.12
972.34	-0.12
973.067	-0.12
973.794	-2.12
974.521	-1.12
975.248	-2.12
975.975	-1.12
976.702	-0.12
977.429	-2.12
978.156	-1.12
978.882	-2.12
979.609	-0.12
980.335	-2.12
981.062	0.88
981.788	-2.12
982.514	0.88
983.24	-2.12
983.967	0.88
984.693	-2.12
985.419	-2.12
986.144	0.88
986.87	-0.12
987.596	0.88
988.322	0.88
989.047	-1.12
989.773	0.88
990.498	-2.12
991.224	0.88
991.949	-2.12
992.674	0.88
993.399	0.88
994.124	0.88
994.849	-0.12
995.574	-2.12
996.299	-0.12
997.024	-1.12
997.749	-0.12
998.473	-2.12
999.198	-0.12
999.922	-1.12
1000.647	0.88
1001.371	2.88
1002.095	-2.12
1002.82	-1.12
1003.544	-1.12
1004.268	-2.12
1004.992	-1.12
1005.716	0.88
1006.439	-2.12
1007.163	-1.12
1007.887	-0.12
1008.611	-1.12
1009.334	-1.12
1010.058	-1.12
1010.781	-0.12
1011.504	1.88
1012.228	-0.12
1012.951	-0.12
1013.674	0.88
1014.397	-0.12
1015.12	0.88
