节点500_145_QEPB04081__582__11-38-12-379.txt的数据

Date: Wed Nov 12 11:38:12 CST 2025
User: PC
Spectrometer: QEPB0408
触发模式: 0
积分时间 (秒): 1.000000E-2
Scans to average: 1
启用暗噪声校正: true
启用非线性校正: false
滑动平均宽度: 0
X轴模式: Wavelengths
Number of Pixels in Spectrum: 1044
>>>>>Begin Spectral Data<<<<<
220.843	0.5
221.644	-4.5
222.444	-1.5
223.244	-2.5
224.045	-0.5
224.845	0.5
225.645	0.5
226.445	0.5
227.245	-3.5
228.045	-0.5
228.845	-2.5
229.645	-0.5
230.444	-0.5
231.244	-1.5
232.043	1.5
232.843	0.5
233.642	-0.5
234.442	-0.5
235.241	1.5
236.04	0.5
236.839	-1.5
237.638	-0.5
238.437	-1.5
239.236	1.5
240.035	1.5
240.833	0.5
241.632	2.5
242.43	0.5
243.229	1.5
244.027	-0.5
244.826	2.5
245.624	2.5
246.422	0.5
247.22	2.5
248.018	-1.5
248.816	0.5
249.614	1.5
250.412	-0.5
251.21	0.5
252.007	1.5
252.805	2.5
253.602	1.5
254.4	2.5
255.197	1.5
255.994	2.5
256.791	-0.5
257.589	4.5
258.386	1.5
259.183	4.5
259.979	4.5
260.776	4.5
261.573	2.5
262.37	4.5
263.166	2.5
263.963	2.5
264.759	3.5
265.556	4.5
266.352	2.5
267.148	4.5
267.944	4.5
268.74	5.5
269.536	5.5
270.332	5.5
271.128	5.5
271.924	7.5
272.719	4.5
273.515	6.5
274.311	6.5
275.106	8.5
275.901	6.5
276.697	6.5
277.492	8.5
278.287	7.5
279.082	8.5
279.877	7.5
280.672	7.5
281.467	6.5
282.262	10.5
283.056	7.5
283.851	8.5
284.646	9.5
285.44	7.5
286.234	8.5
287.029	8.5
287.823	10.5
288.617	8.5
289.411	9.5
290.205	8.5
290.999	7.5
291.793	10.5
292.587	11.5
293.381	9.5
294.174	10.5
294.968	10.5
295.761	8.5
296.555	8.5
297.348	9.5
298.141	6.5
298.935	8.5
299.728	6.5
300.521	8.5
301.314	8.5
302.107	9.5
302.899	9.5
303.692	7.5
304.485	7.5
305.277	9.5
306.07	6.5
306.862	5.5
307.655	6.5
308.447	5.5
309.239	8.5
310.031	4.5
310.823	5.5
311.615	3.5
312.407	5.5
313.199	4.5
313.991	6.5
314.783	6.5
315.574	2.5
316.366	4.5
317.157	4.5
317.949	4.5
318.74	3.5
319.531	4.5
320.322	3.5
321.113	5.5
321.904	3.5
322.695	3.5
323.486	4.5
324.277	1.5
325.068	3.5
325.858	4.5
326.649	3.5
327.439	5.5
328.23	1.5
329.02	3.5
329.81	2.5
330.6	3.5
331.391	3.5
332.181	3.5
332.971	1.5
333.76	2.5
334.55	4.5
335.34	3.5
336.13	2.5
336.919	3.5
337.709	0.5
338.498	1.5
339.287	3.5
340.077	3.5
340.866	1.5
341.655	4.5
342.444	2.5
343.233	2.5
344.022	4.5
344.811	0.5
345.6	2.5
346.388	3.5
347.177	1.5
347.965	3.5
348.754	3.5
349.542	2.5
350.33	-0.5
351.119	4.5
351.907	2.5
352.695	3.5
353.483	2.5
354.271	5.5
355.059	2.5
355.846	1.5
356.634	3.5
357.422	1.5
358.209	2.5
358.997	2.5
359.784	4.5
360.571	1.5
361.359	2.5
362.146	3.5
362.933	0.5
363.72	4.5
364.507	2.5
365.294	2.5
366.081	2.5
366.867	1.5
367.654	1.5
368.44	2.5
369.227	1.5
370.013	-0.5
370.8	1.5
371.586	5.5
372.372	3.5
373.158	4.5
373.944	2.5
374.73	2.5
375.516	0.5
376.302	1.5
377.088	1.5
377.873	1.5
378.659	1.5
379.445	0.5
380.23	0.5
381.015	2.5
381.801	3.5
382.586	3.5
383.371	0.5
384.156	1.5
384.941	1.5
385.726	0.5
386.511	4.5
387.296	0.5
388.08	0.5
388.865	2.5
389.649	2.5
390.434	3.5
391.218	2.5
392.003	1.5
392.787	2.5
393.571	3.5
394.355	2.5
395.139	1.5
395.923	2.5
396.707	3.5
397.491	0.5
398.274	2.5
399.058	2.5
399.842	2.5
400.625	4.5
401.408	4.5
402.192	-0.5
402.975	1.5
403.758	2.5
404.541	3.5
405.324	3.5
406.107	3.5
406.89	2.5
407.673	2.5
408.456	5.5
409.238	3.5
410.021	4.5
410.803	4.5
411.586	4.5
412.368	4.5
413.151	2.5
413.933	3.5
414.715	2.5
415.497	6.5
416.279	4.5
417.061	3.5
417.843	2.5
418.624	1.5
419.406	5.5
420.188	2.5
420.969	3.5
421.751	4.5
422.532	4.5
423.313	5.5
424.095	6.5
424.876	6.5
425.657	4.5
426.438	5.5
427.219	2.5
428	7.5
428.78	7.5
429.561	6.5
430.342	7.5
431.122	5.5
431.903	7.5
432.683	6.5
433.464	6.5
434.244	8.5
435.024	9.5
435.804	10.5
436.584	6.5
437.364	9.5
438.144	8.5
438.924	9.5
439.704	11.5
440.483	10.5
441.263	13.5
442.042	13.5
442.822	13.5
443.601	14.5
444.38	13.5
445.16	17.5
445.939	17.5
446.718	19.5
447.497	18.5
448.276	19.5
449.054	20.5
449.833	24.5
450.612	26.5
451.391	28.5
452.169	31.5
452.948	30.5
453.726	34.5
454.504	41.5
455.282	42.5
456.061	48.5
456.839	52.5
457.617	60.5
458.395	63.5
459.172	71.5
459.95	78.5
460.728	94.5
461.506	104.5
462.283	109.5
463.061	121.5
463.838	138.5
464.615	151.5
465.393	172.5
466.17	190.5
466.947	214.5
467.724	235.5
468.501	263.5
469.278	289.5
470.055	318.5
470.831	354.5
471.608	401.5
472.385	445.5
473.161	487.5
473.938	533.5
474.714	593.5
475.49	651.5
476.266	722.5
477.043	805.5
477.819	875.5
478.595	957.5
479.371	1056.5
480.146	1175.5
480.922	1278.5
481.698	1407.5
482.473	1542.5
483.249	1710.5
484.024	1837.5
484.8	2013.5
485.575	2216.5
486.35	2417.5
487.126	2650.5
487.901	2910.5
488.676	3182.5
489.451	3470.5
490.225	3823.5
491	4160.5
491.775	4528.5
492.55	4919.5
493.324	5374.5
494.099	5880.5
494.873	6408.5
495.647	6902.5
496.422	7499.5
497.196	8071.5
497.97	8663.5
498.744	9300.5
499.518	10044.5
500.292	10672.5
501.066	11350.5
501.839	11978.5
502.613	12642.5
503.387	13193.5
504.16	13737.5
504.934	14207.5
505.707	14662.5
506.48	14962.5
507.253	15227.5
508.027	15352.5
508.8	15450.5
509.573	15429.5
510.346	15304.5
511.118	15123.5
511.891	14835.5
512.664	14482.5
513.437	14164.5
514.209	13670.5
514.982	13206.5
515.754	12710.5
516.526	12254.5
517.298	11726.5
518.071	11215.5
518.843	10776.5
519.615	10274.5
520.387	9881.5
521.159	9474.5
521.93	9108.5
522.702	8762.5
523.474	8397.5
524.245	8098.5
525.017	7728.5
525.788	7444.5
526.56	7143.5
527.331	6854.5
528.102	6553.5
528.873	6307.5
529.644	6028.5
530.415	5774.5
531.186	5527.5
531.957	5246.5
532.728	4994.5
533.498	4741.5
534.269	4495.5
535.039	4245.5
535.81	4040.5
536.58	3796.5
537.351	3605.5
538.121	3413.5
538.891	3236.5
539.661	3044.5
540.431	2874.5
541.201	2737.5
541.971	2579.5
542.741	2428.5
543.51	2312.5
544.28	2195.5
545.05	2096.5
545.819	1976.5
546.588	1885.5
547.358	1807.5
548.127	1695.5
548.896	1619.5
549.665	1545.5
550.434	1458.5
551.203	1389.5
551.972	1327.5
552.741	1245.5
553.51	1194.5
554.278	1132.5
555.047	1074.5
555.815	1006.5
556.584	945.5
557.352	886.5
558.121	849.5
558.889	790.5
559.657	754.5
560.425	724.5
561.193	670.5
561.961	630.5
562.729	591.5
563.496	562.5
564.264	534.5
565.032	503.5
565.799	475.5
566.567	448.5
567.334	422.5
568.101	396.5
568.869	384.5
569.636	348.5
570.403	330.5
571.17	315.5
571.937	299.5
572.704	276.5
573.471	262.5
574.237	248.5
575.004	230.5
575.771	220.5
576.537	204.5
577.303	198.5
578.07	180.5
578.836	173.5
579.602	162.5
580.368	151.5
581.134	152.5
581.9	139.5
582.666	132.5
583.432	125.5
584.198	115.5
584.964	110.5
585.729	109.5
586.495	101.5
587.26	91.5
588.025	91.5
588.791	83.5
589.556	79.5
590.321	74.5
591.086	69.5
591.851	64.5
592.616	59.5
593.381	64.5
594.146	60.5
594.911	54.5
595.675	52.5
596.44	50.5
597.204	45.5
597.969	44.5
598.733	43.5
599.497	42.5
600.261	34.5
601.025	37.5
601.79	37.5
602.553	33.5
603.317	29.5
604.081	30.5
604.845	27.5
605.609	28.5
606.372	28.5
607.136	26.5
607.899	26.5
608.662	23.5
609.426	22.5
610.189	21.5
610.952	19.5
611.715	18.5
612.478	18.5
613.241	16.5
614.004	18.5
614.767	17.5
615.529	14.5
616.292	14.5
617.055	15.5
617.817	12.5
618.579	14.5
619.342	11.5
620.104	9.5
620.866	16.5
621.628	8.5
622.39	9.5
623.152	13.5
623.914	10.5
624.676	8.5
625.438	9.5
626.199	8.5
626.961	6.5
627.722	6.5
628.484	5.5
629.245	8.5
630.006	9.5
630.768	7.5
631.529	7.5
632.29	7.5
633.051	4.5
633.812	5.5
634.573	5.5
635.333	5.5
636.094	7.5
636.855	5.5
637.615	4.5
638.376	6.5
639.136	2.5
639.896	4.5
640.657	4.5
641.417	4.5
642.177	6.5
642.937	5.5
643.697	5.5
644.457	2.5
645.216	3.5
645.976	4.5
646.736	4.5
647.495	4.5
648.255	2.5
649.014	5.5
649.774	3.5
650.533	2.5
651.292	3.5
652.051	2.5
652.81	3.5
653.569	1.5
654.328	4.5
655.087	4.5
655.846	1.5
656.604	5.5
657.363	2.5
658.121	3.5
658.88	3.5
659.638	2.5
660.397	3.5
661.155	2.5
661.913	3.5
662.671	2.5
663.429	1.5
664.187	2.5
664.945	2.5
665.703	1.5
666.46	5.5
667.218	2.5
667.976	0.5
668.733	2.5
669.49	0.5
670.248	1.5
671.005	2.5
671.762	1.5
672.519	0.5
673.276	3.5
674.033	2.5
674.79	2.5
675.547	2.5
676.304	0.5
677.06	1.5
677.817	3.5
678.574	0.5
679.33	2.5
680.086	2.5
680.843	1.5
681.599	0.5
682.355	0.5
683.111	2.5
683.867	0.5
684.623	1.5
685.379	0.5
686.135	0.5
686.89	2.5
687.646	0.5
688.402	1.5
689.157	-0.5
689.912	0.5
690.668	-0.5
691.423	1.5
692.178	2.5
692.933	4.5
693.688	0.5
694.443	-1.5
695.198	2.5
695.953	0.5
696.708	2.5
697.462	1.5
698.217	2.5
698.972	3.5
699.726	1.5
700.48	2.5
701.235	0.5
701.989	1.5
702.743	2.5
703.497	0.5
704.251	1.5
705.005	-0.5
705.759	0.5
706.513	2.5
707.266	2.5
708.02	3.5
708.774	4.5
709.527	2.5
710.28	0.5
711.034	0.5
711.787	1.5
712.54	2.5
713.293	-0.5
714.046	-1.5
714.799	1.5
715.552	1.5
716.305	2.5
717.058	2.5
717.81	0.5
718.563	2.5
719.315	0.5
720.068	0.5
720.82	0.5
721.573	1.5
722.325	0.5
723.077	-1.5
723.829	2.5
724.581	0.5
725.333	3.5
726.085	0.5
726.836	1.5
727.588	4.5
728.34	1.5
729.091	1.5
729.843	3.5
730.594	0.5
731.346	0.5
732.097	3.5
732.848	1.5
733.599	0.5
734.35	1.5
735.101	0.5
735.852	2.5
736.603	0.5
737.354	2.5
738.104	-1.5
738.855	2.5
739.605	1.5
740.356	1.5
741.106	2.5
741.856	2.5
742.607	2.5
743.357	0.5
744.107	1.5
744.857	3.5
745.607	0.5
746.357	0.5
747.106	1.5
747.856	3.5
748.606	0.5
749.355	-0.5
750.105	2.5
750.854	1.5
751.603	3.5
752.353	3.5
753.102	0.5
753.851	1.5
754.6	1.5
755.349	1.5
756.098	1.5
756.847	4.5
757.595	4.5
758.344	4.5
759.093	2.5
759.841	1.5
760.589	-0.5
761.338	0.5
762.086	4.5
762.834	1.5
763.582	1.5
764.331	0.5
765.079	1.5
765.826	2.5
766.574	4.5
767.322	2.5
768.07	1.5
768.817	4.5
769.565	2.5
770.312	4.5
771.06	3.5
771.807	1.5
772.554	2.5
773.302	2.5
774.049	2.5
774.796	3.5
775.543	4.5
776.29	4.5
777.036	1.5
777.783	5.5
778.53	3.5
779.276	3.5
780.023	5.5
780.769	4.5
781.516	3.5
782.262	4.5
783.008	5.5
783.754	4.5
784.5	2.5
785.246	0.5
785.992	2.5
786.738	4.5
787.484	2.5
788.23	6.5
788.975	2.5
789.721	2.5
790.466	5.5
791.212	2.5
791.957	0.5
792.702	1.5
793.447	2.5
794.193	1.5
794.938	4.5
795.683	3.5
796.427	1.5
797.172	3.5
797.917	2.5
798.662	4.5
799.406	4.5
800.151	5.5
800.895	4.5
801.64	4.5
802.384	0.5
803.128	4.5
803.872	5.5
804.616	1.5
805.36	3.5
806.104	2.5
806.848	2.5
807.592	4.5
808.336	-0.5
809.079	3.5
809.823	3.5
810.566	4.5
811.31	2.5
812.053	1.5
812.796	3.5
813.539	4.5
814.283	2.5
815.026	2.5
815.769	0.5
816.511	5.5
817.254	2.5
817.997	1.5
818.74	3.5
819.482	5.5
820.225	1.5
820.967	3.5
821.71	1.5
822.452	1.5
823.194	2.5
823.936	1.5
824.678	2.5
825.42	3.5
826.162	1.5
826.904	2.5
827.646	0.5
828.388	1.5
829.129	1.5
829.871	1.5
830.612	-1.5
831.354	1.5
832.095	1.5
832.836	2.5
833.577	2.5
834.319	0.5
835.06	2.5
835.801	1.5
836.542	0.5
837.282	2.5
838.023	1.5
838.764	2.5
839.504	2.5
840.245	2.5
840.985	0.5
841.726	3.5
842.466	1.5
843.206	2.5
843.946	2.5
844.687	-0.5
845.427	1.5
846.166	0.5
846.906	0.5
847.646	3.5
848.386	1.5
849.125	-0.5
849.865	0.5
850.605	2.5
851.344	1.5
852.083	1.5
852.823	0.5
853.562	-0.5
854.301	-1.5
855.04	-1.5
855.779	2.5
856.518	0.5
857.257	-0.5
857.995	0.5
858.734	0.5
859.473	1.5
860.211	-0.5
860.95	-0.5
861.688	2.5
862.426	-0.5
863.165	1.5
863.903	0.5
864.641	0.5
865.379	-0.5
866.117	-1.5
866.855	0.5
867.593	1.5
868.33	-0.5
869.068	0.5
869.806	1.5
870.543	-0.5
871.28	-0.5
872.018	0.5
872.755	-2.5
873.492	2.5
874.229	1.5
874.967	2.5
875.703	0.5
876.44	-0.5
877.177	-0.5
877.914	-2.5
878.651	-0.5
879.387	-2.5
880.124	-0.5
880.86	-1.5
881.597	-1.5
882.333	0.5
883.069	-0.5
883.806	-0.5
884.542	0.5
885.278	-0.5
886.014	1.5
886.749	-2.5
887.485	0.5
888.221	-1.5
888.957	0.5
889.692	1.5
890.428	1.5
891.163	0.5
891.899	0.5
892.634	-0.5
893.369	0.5
894.104	-1.5
894.839	0.5
895.574	0.5
896.309	-0.5
897.044	0.5
897.779	0.5
898.514	-0.5
899.248	-0.5
899.983	2.5
900.717	1.5
901.452	0.5
902.186	-1.5
902.92	1.5
903.654	-1.5
904.389	-1.5
905.123	-2.5
905.857	-2.5
906.59	-0.5
907.324	-2.5
908.058	-0.5
908.792	-0.5
909.525	-0.5
910.259	-1.5
910.992	-2.5
911.726	-1.5
912.459	-1.5
913.192	-2.5
913.925	1.5
914.658	-0.5
915.391	-0.5
916.124	-2.5
916.857	-0.5
917.59	-1.5
918.323	1.5
919.055	0.5
919.788	1.5
920.521	-2.5
921.253	0.5
921.985	-1.5
922.718	-1.5
923.45	1.5
924.182	-2.5
924.914	0.5
925.646	0.5
926.378	-2.5
927.11	0.5
927.841	-0.5
928.573	-0.5
929.305	-2.5
930.036	0.5
930.768	-1.5
931.499	-0.5
932.23	0.5
932.962	-0.5
933.693	-0.5
934.424	-0.5
935.155	-1.5
935.886	-0.5
936.617	-0.5
937.348	-1.5
938.078	-1.5
938.809	0.5
939.54	-0.5
940.27	-3.5
941.001	-2.5
941.731	-0.5
942.461	0.5
943.191	-0.5
943.922	0.5
944.652	0.5
945.382	-1.5
946.112	-1.5
946.841	-2.5
947.571	1.5
948.301	-0.5
949.031	-0.5
949.76	-0.5
950.49	-0.5
951.219	-1.5
951.948	-1.5
952.678	-0.5
953.407	-0.5
954.136	0.5
954.865	-0.5
955.594	1.5
956.323	0.5
957.052	0.5
957.78	0.5
958.509	-0.5
959.238	-1.5
959.966	-2.5
960.695	-0.5
961.423	-1.5
962.151	-1.5
962.88	0.5
963.608	-0.5
964.336	0.5
965.064	-0.5
965.792	-2.5
966.52	0.5
967.247	-0.5
967.975	-1.5
968.703	-0.5
969.43	-0.5
970.158	0.5
970.885	-0.5
971.613	-1.5
972.34	-2.5
973.067	0.5
973.794	-1.5
974.521	-1.5
975.248	0.5
975.975	-1.5
976.702	-0.5
977.429	-1.5
978.156	-0.5
978.882	-0.5
979.609	0.5
980.335	0.5
981.062	-0.5
981.788	-2.5
982.514	0.5
983.24	-2.5
983.967	-0.5
984.693	-0.5
985.419	-0.5
986.144	0.5
986.87	-0.5
987.596	0.5
988.322	0.5
989.047	-2.5
989.773	-0.5
990.498	-2.5
991.224	-0.5
991.949	-0.5
992.674	-2.5
993.399	0.5
994.124	-2.5
994.849	-1.5
995.574	0.5
996.299	0.5
997.024	0.5
997.749	0.5
998.473	1.5
999.198	-0.5
999.922	0.5
1000.647	0.5
1001.371	2.5
1002.095	-2.5
1002.82	0.5
1003.544	0.5
1004.268	-2.5
1004.992	-0.5
1005.716	-0.5
1006.439	-0.5
1007.163	1.5
1007.887	-1.5
1008.611	-3.5
1009.334	-1.5
1010.058	1.5
1010.781	0.5
1011.504	0.5
1012.228	-1.5
1012.951	0.5
1013.674	-0.5
1014.397	1.5
1015.12	-2.5
