节点500_145_QEPB04081__249__11-32-57-476.txt的数据

Date: Wed Nov 12 11:32:57 CST 2025
User: PC
Spectrometer: QEPB0408
触发模式: 0
积分时间 (秒): 1.000000E-2
Scans to average: 1
启用暗噪声校正: true
启用非线性校正: false
滑动平均宽度: 0
X轴模式: Wavelengths
Number of Pixels in Spectrum: 1044
>>>>>Begin Spectral Data<<<<<
220.843	0.12
221.644	0.12
222.444	2.12
223.244	-2.88
224.045	1.12
224.845	0.12
225.645	-0.88
226.445	1.12
227.245	-0.88
228.045	-0.88
228.845	1.12
229.645	0.12
230.444	2.12
231.244	-0.88
232.043	0.12
232.843	1.12
233.642	2.12
234.442	0.12
235.241	3.12
236.04	2.12
236.839	-2.88
237.638	2.12
238.437	2.12
239.236	1.12
240.035	1.12
240.833	0.12
241.632	3.12
242.43	-1.88
243.229	1.12
244.027	1.12
244.826	3.12
245.624	3.12
246.422	1.12
247.22	3.12
248.018	1.12
248.816	2.12
249.614	2.12
250.412	1.12
251.21	2.12
252.007	2.12
252.805	3.12
253.602	4.12
254.4	5.12
255.197	4.12
255.994	2.12
256.791	4.12
257.589	3.12
258.386	3.12
259.183	3.12
259.979	4.12
260.776	5.12
261.573	3.12
262.37	5.12
263.166	4.12
263.963	5.12
264.759	6.12
265.556	7.12
266.352	6.12
267.148	4.12
267.944	8.12
268.74	7.12
269.536	8.12
270.332	6.12
271.128	7.12
271.924	9.12
272.719	8.12
273.515	8.12
274.311	7.12
275.106	10.12
275.901	8.12
276.697	10.12
277.492	6.12
278.287	10.12
279.082	11.12
279.877	10.12
280.672	10.12
281.467	8.12
282.262	10.12
283.056	10.12
283.851	9.12
284.646	11.12
285.44	13.12
286.234	10.12
287.029	14.12
287.823	10.12
288.617	11.12
289.411	13.12
290.205	9.12
290.999	10.12
291.793	11.12
292.587	11.12
293.381	10.12
294.174	10.12
294.968	8.12
295.761	10.12
296.555	9.12
297.348	9.12
298.141	11.12
298.935	11.12
299.728	11.12
300.521	9.12
301.314	8.12
302.107	7.12
302.899	8.12
303.692	6.12
304.485	9.12
305.277	10.12
306.07	10.12
306.862	8.12
307.655	9.12
308.447	8.12
309.239	7.12
310.031	6.12
310.823	6.12
311.615	7.12
312.407	8.12
313.199	8.12
313.991	7.12
314.783	5.12
315.574	6.12
316.366	6.12
317.157	7.12
317.949	6.12
318.74	3.12
319.531	4.12
320.322	5.12
321.113	4.12
321.904	6.12
322.695	4.12
323.486	4.12
324.277	5.12
325.068	5.12
325.858	5.12
326.649	4.12
327.439	6.12
328.23	2.12
329.02	4.12
329.81	4.12
330.6	2.12
331.391	4.12
332.181	6.12
332.971	3.12
333.76	5.12
334.55	2.12
335.34	5.12
336.13	5.12
336.919	5.12
337.709	4.12
338.498	3.12
339.287	5.12
340.077	4.12
340.866	3.12
341.655	5.12
342.444	1.12
343.233	1.12
344.022	2.12
344.811	4.12
345.6	6.12
346.388	1.12
347.177	1.12
347.965	2.12
348.754	3.12
349.542	4.12
350.33	2.12
351.119	2.12
351.907	2.12
352.695	3.12
353.483	3.12
354.271	3.12
355.059	6.12
355.846	-0.88
356.634	4.12
357.422	2.12
358.209	1.12
358.997	1.12
359.784	2.12
360.571	2.12
361.359	2.12
362.146	3.12
362.933	3.12
363.72	1.12
364.507	2.12
365.294	2.12
366.081	3.12
366.867	5.12
367.654	3.12
368.44	4.12
369.227	2.12
370.013	5.12
370.8	1.12
371.586	3.12
372.372	2.12
373.158	3.12
373.944	1.12
374.73	2.12
375.516	2.12
376.302	2.12
377.088	2.12
377.873	3.12
378.659	2.12
379.445	2.12
380.23	2.12
381.015	1.12
381.801	3.12
382.586	4.12
383.371	4.12
384.156	5.12
384.941	3.12
385.726	3.12
386.511	4.12
387.296	3.12
388.08	5.12
388.865	4.12
389.649	2.12
390.434	3.12
391.218	1.12
392.003	3.12
392.787	1.12
393.571	4.12
394.355	2.12
395.139	5.12
395.923	4.12
396.707	2.12
397.491	4.12
398.274	3.12
399.058	3.12
399.842	3.12
400.625	5.12
401.408	5.12
402.192	1.12
402.975	5.12
403.758	4.12
404.541	6.12
405.324	4.12
406.107	4.12
406.89	7.12
407.673	3.12
408.456	2.12
409.238	5.12
410.021	3.12
410.803	5.12
411.586	5.12
412.368	5.12
413.151	4.12
413.933	4.12
414.715	4.12
415.497	3.12
416.279	5.12
417.061	5.12
417.843	6.12
418.624	5.12
419.406	5.12
420.188	5.12
420.969	6.12
421.751	6.12
422.532	4.12
423.313	5.12
424.095	5.12
424.876	8.12
425.657	6.12
426.438	6.12
427.219	5.12
428	7.12
428.78	9.12
429.561	10.12
430.342	7.12
431.122	9.12
431.903	7.12
432.683	9.12
433.464	7.12
434.244	9.12
435.024	9.12
435.804	10.12
436.584	11.12
437.364	7.12
438.144	10.12
438.924	10.12
439.704	12.12
440.483	8.12
441.263	12.12
442.042	13.12
442.822	10.12
443.601	14.12
444.38	13.12
445.16	13.12
445.939	15.12
446.718	17.12
447.497	19.12
448.276	18.12
449.054	23.12
449.833	21.12
450.612	24.12
451.391	27.12
452.169	29.12
452.948	34.12
453.726	30.12
454.504	37.12
455.282	39.12
456.061	48.12
456.839	50.12
457.617	53.12
458.395	59.12
459.172	70.12
459.95	70.12
460.728	78.12
461.506	89.12
462.283	100.12
463.061	111.12
463.838	124.12
464.615	140.12
465.393	156.12
466.17	168.12
466.947	191.12
467.724	211.12
468.501	233.12
469.278	269.12
470.055	296.12
470.831	327.12
471.608	359.12
472.385	406.12
473.161	457.12
473.938	499.12
474.714	562.12
475.49	627.12
476.266	677.12
477.043	754.12
477.819	839.12
478.595	925.12
479.371	1034.12
480.146	1147.12
480.922	1265.12
481.698	1395.12
482.473	1556.12
483.249	1707.12
484.024	1894.12
484.8	2060.12
485.575	2296.12
486.35	2531.12
487.126	2793.12
487.901	3075.12
488.676	3390.12
489.451	3728.12
490.225	4095.12
491	4509.12
491.775	4993.12
492.55	5456.12
493.324	5992.12
494.099	6538.12
494.873	7150.12
495.647	7803.12
496.422	8499.12
497.196	9155.12
497.97	9895.12
498.744	10670.12
499.518	11419.12
500.292	12147.12
501.066	12924.12
501.839	13537.12
502.613	14253.12
503.387	14887.12
504.16	15414.12
504.934	15920.12
505.707	16240.12
506.48	16476.12
507.253	16637.12
508.027	16648.12
508.8	16594.12
509.573	16451.12
510.346	16165.12
511.118	15838.12
511.891	15393.12
512.664	14877.12
513.437	14357.12
514.209	13776.12
514.982	13222.12
515.754	12725.12
516.526	12124.12
517.298	11579.12
518.071	11064.12
518.843	10580.12
519.615	10117.12
520.387	9674.12
521.159	9342.12
521.93	8943.12
522.702	8608.12
523.474	8274.12
524.245	7947.12
525.017	7628.12
525.788	7346.12
526.56	7032.12
527.331	6730.12
528.102	6433.12
528.873	6143.12
529.644	5879.12
530.415	5572.12
531.186	5306.12
531.957	5048.12
532.728	4795.12
533.498	4533.12
534.269	4250.12
535.039	4052.12
535.81	3820.12
536.58	3590.12
537.351	3399.12
538.121	3240.12
538.891	3029.12
539.661	2855.12
540.431	2720.12
541.201	2574.12
541.971	2424.12
542.741	2293.12
543.51	2194.12
544.28	2071.12
545.05	1979.12
545.819	1881.12
546.588	1772.12
547.358	1708.12
548.127	1621.12
548.896	1528.12
549.665	1460.12
550.434	1386.12
551.203	1313.12
551.972	1245.12
552.741	1194.12
553.51	1114.12
554.278	1061.12
555.047	995.12
555.815	926.12
556.584	886.12
557.352	836.12
558.121	787.12
558.889	734.12
559.657	697.12
560.425	653.12
561.193	627.12
561.961	586.12
562.729	540.12
563.496	516.12
564.264	490.12
565.032	457.12
565.799	438.12
566.567	413.12
567.334	394.12
568.101	360.12
568.869	351.12
569.636	330.12
570.403	306.12
571.17	289.12
571.937	275.12
572.704	251.12
573.471	243.12
574.237	232.12
575.004	211.12
575.771	205.12
576.537	195.12
577.303	183.12
578.07	171.12
578.836	165.12
579.602	155.12
580.368	142.12
581.134	136.12
581.9	134.12
582.666	122.12
583.432	116.12
584.198	109.12
584.964	101.12
585.729	100.12
586.495	92.12
587.26	83.12
588.025	81.12
588.791	76.12
589.556	68.12
590.321	70.12
591.086	64.12
591.851	58.12
592.616	57.12
593.381	54.12
594.146	53.12
594.911	48.12
595.675	51.12
596.44	48.12
597.204	43.12
597.969	39.12
598.733	42.12
599.497	40.12
600.261	38.12
601.025	35.12
601.79	32.12
602.553	33.12
603.317	31.12
604.081	31.12
604.845	27.12
605.609	26.12
606.372	25.12
607.136	25.12
607.899	24.12
608.662	24.12
609.426	20.12
610.189	20.12
610.952	18.12
611.715	21.12
612.478	19.12
613.241	15.12
614.004	16.12
614.767	16.12
615.529	15.12
616.292	14.12
617.055	14.12
617.817	13.12
618.579	13.12
619.342	14.12
620.104	12.12
620.866	14.12
621.628	12.12
622.39	12.12
623.152	9.12
623.914	10.12
624.676	11.12
625.438	9.12
626.199	10.12
626.961	11.12
627.722	10.12
628.484	9.12
629.245	4.12
630.006	8.12
630.768	6.12
631.529	6.12
632.29	8.12
633.051	6.12
633.812	7.12
634.573	7.12
635.333	6.12
636.094	6.12
636.855	6.12
637.615	4.12
638.376	5.12
639.136	7.12
639.896	5.12
640.657	6.12
641.417	7.12
642.177	5.12
642.937	5.12
643.697	4.12
644.457	4.12
645.216	6.12
645.976	5.12
646.736	6.12
647.495	4.12
648.255	4.12
649.014	2.12
649.774	4.12
650.533	3.12
651.292	5.12
652.051	4.12
652.81	2.12
653.569	5.12
654.328	3.12
655.087	2.12
655.846	3.12
656.604	2.12
657.363	4.12
658.121	7.12
658.88	3.12
659.638	3.12
660.397	6.12
661.155	2.12
661.913	3.12
662.671	3.12
663.429	3.12
664.187	1.12
664.945	2.12
665.703	1.12
666.46	0.12
667.218	4.12
667.976	3.12
668.733	2.12
669.49	3.12
670.248	-0.88
671.005	3.12
671.762	2.12
672.519	4.12
673.276	2.12
674.033	1.12
674.79	3.12
675.547	2.12
676.304	4.12
677.06	1.12
677.817	1.12
678.574	2.12
679.33	1.12
680.086	3.12
680.843	1.12
681.599	2.12
682.355	2.12
683.111	2.12
683.867	3.12
684.623	1.12
685.379	4.12
686.135	3.12
686.89	1.12
687.646	1.12
688.402	1.12
689.157	1.12
689.912	2.12
690.668	4.12
691.423	0.12
692.178	2.12
692.933	3.12
693.688	2.12
694.443	3.12
695.198	1.12
695.953	1.12
696.708	2.12
697.462	2.12
698.217	1.12
698.972	1.12
699.726	2.12
700.48	-0.88
701.235	3.12
701.989	1.12
702.743	3.12
703.497	2.12
704.251	3.12
705.005	2.12
705.759	1.12
706.513	2.12
707.266	1.12
708.02	2.12
708.774	3.12
709.527	1.12
710.28	1.12
711.034	1.12
711.787	1.12
712.54	1.12
713.293	2.12
714.046	3.12
714.799	1.12
715.552	3.12
716.305	-0.88
717.058	2.12
717.81	2.12
718.563	4.12
719.315	2.12
720.068	0.12
720.82	2.12
721.573	2.12
722.325	0.12
723.077	3.12
723.829	3.12
724.581	-0.88
725.333	2.12
726.085	4.12
726.836	2.12
727.588	2.12
728.34	2.12
729.091	3.12
729.843	2.12
730.594	3.12
731.346	2.12
732.097	1.12
732.848	4.12
733.599	3.12
734.35	3.12
735.101	3.12
735.852	3.12
736.603	2.12
737.354	2.12
738.104	2.12
738.855	2.12
739.605	4.12
740.356	4.12
741.106	2.12
741.856	2.12
742.607	2.12
743.357	1.12
744.107	2.12
744.857	2.12
745.607	2.12
746.357	2.12
747.106	3.12
747.856	2.12
748.606	2.12
749.355	2.12
750.105	0.12
750.854	3.12
751.603	2.12
752.353	3.12
753.102	4.12
753.851	4.12
754.6	1.12
755.349	2.12
756.098	3.12
756.847	2.12
757.595	4.12
758.344	4.12
759.093	3.12
759.841	3.12
760.589	4.12
761.338	5.12
762.086	3.12
762.834	5.12
763.582	3.12
764.331	4.12
765.079	4.12
765.826	3.12
766.574	3.12
767.322	6.12
768.07	5.12
768.817	2.12
769.565	2.12
770.312	4.12
771.06	3.12
771.807	6.12
772.554	4.12
773.302	5.12
774.049	6.12
774.796	2.12
775.543	3.12
776.29	6.12
777.036	4.12
777.783	5.12
778.53	7.12
779.276	3.12
780.023	5.12
780.769	6.12
781.516	3.12
782.262	5.12
783.008	3.12
783.754	6.12
784.5	7.12
785.246	5.12
785.992	5.12
786.738	6.12
787.484	4.12
788.23	5.12
788.975	6.12
789.721	7.12
790.466	4.12
791.212	7.12
791.957	7.12
792.702	6.12
793.447	5.12
794.193	4.12
794.938	6.12
795.683	5.12
796.427	6.12
797.172	3.12
797.917	5.12
798.662	5.12
799.406	4.12
800.151	6.12
800.895	6.12
801.64	5.12
802.384	4.12
803.128	3.12
803.872	5.12
804.616	3.12
805.36	3.12
806.104	4.12
806.848	3.12
807.592	2.12
808.336	5.12
809.079	3.12
809.823	5.12
810.566	6.12
811.31	3.12
812.053	5.12
812.796	2.12
813.539	4.12
814.283	3.12
815.026	2.12
815.769	4.12
816.511	1.12
817.254	6.12
817.997	0.12
818.74	2.12
819.482	3.12
820.225	2.12
820.967	3.12
821.71	1.12
822.452	4.12
823.194	5.12
823.936	4.12
824.678	1.12
825.42	2.12
826.162	2.12
826.904	1.12
827.646	4.12
828.388	3.12
829.129	2.12
829.871	1.12
830.612	3.12
831.354	1.12
832.095	2.12
832.836	2.12
833.577	1.12
834.319	5.12
835.06	2.12
835.801	2.12
836.542	5.12
837.282	1.12
838.023	1.12
838.764	0.12
839.504	3.12
840.245	2.12
840.985	1.12
841.726	1.12
842.466	2.12
843.206	2.12
843.946	1.12
844.687	2.12
845.427	1.12
846.166	2.12
846.906	1.12
847.646	2.12
848.386	2.12
849.125	2.12
849.865	1.12
850.605	2.12
851.344	2.12
852.083	2.12
852.823	1.12
853.562	0.12
854.301	2.12
855.04	2.12
855.779	1.12
856.518	1.12
857.257	0.12
857.995	1.12
858.734	2.12
859.473	3.12
860.211	1.12
860.95	1.12
861.688	2.12
862.426	1.12
863.165	1.12
863.903	3.12
864.641	1.12
865.379	1.12
866.117	1.12
866.855	1.12
867.593	2.12
868.33	1.12
869.068	3.12
869.806	-1.88
870.543	1.12
871.28	2.12
872.018	0.12
872.755	1.12
873.492	0.12
874.229	3.12
874.967	0.12
875.703	0.12
876.44	2.12
877.177	1.12
877.914	1.12
878.651	1.12
879.387	0.12
880.124	4.12
880.86	2.12
881.597	0.12
882.333	-1.88
883.069	2.12
883.806	0.12
884.542	2.12
885.278	1.12
886.014	0.12
886.749	0.12
887.485	1.12
888.221	0.12
888.957	-0.88
889.692	1.12
890.428	0.12
891.163	0.12
891.899	3.12
892.634	-1.88
893.369	1.12
894.104	0.12
894.839	0.12
895.574	-0.88
896.309	1.12
897.044	2.12
897.779	1.12
898.514	2.12
899.248	0.12
899.983	1.12
900.717	-0.88
901.452	1.12
902.186	0.12
902.92	0.12
903.654	0.12
904.389	-0.88
905.123	-0.88
905.857	-1.88
906.59	-1.88
907.324	1.12
908.058	0.12
908.792	-1.88
909.525	-2.88
910.259	1.12
910.992	-0.88
911.726	0.12
912.459	1.12
913.192	1.12
913.925	0.12
914.658	-0.88
915.391	-1.88
916.124	1.12
916.857	-0.88
917.59	2.12
918.323	-0.88
919.055	3.12
919.788	2.12
920.521	0.12
921.253	2.12
921.985	0.12
922.718	-0.88
923.45	1.12
924.182	-0.88
924.914	-2.88
925.646	1.12
926.378	1.12
927.11	1.12
927.841	-0.88
928.573	-0.88
929.305	0.12
930.036	-1.88
930.768	0.12
931.499	3.12
932.23	-2.88
932.962	2.12
933.693	2.12
934.424	0.12
935.155	0.12
935.886	2.12
936.617	0.12
937.348	-1.88
938.078	1.12
938.809	0.12
939.54	0.12
940.27	2.12
941.001	0.12
941.731	-0.88
942.461	1.12
943.191	1.12
943.922	1.12
944.652	1.12
945.382	1.12
946.112	0.12
946.841	0.12
947.571	-0.88
948.301	-0.88
949.031	0.12
949.76	0.12
950.49	-1.88
951.219	1.12
951.948	0.12
952.678	2.12
953.407	0.12
954.136	1.12
954.865	-1.88
955.594	1.12
956.323	-1.88
957.052	0.12
957.78	3.12
958.509	1.12
959.238	1.12
959.966	2.12
960.695	0.12
961.423	-0.88
962.151	1.12
962.88	1.12
963.608	1.12
964.336	2.12
965.064	0.12
965.792	0.12
966.52	1.12
967.247	0.12
967.975	-0.88
968.703	-0.88
969.43	-1.88
970.158	0.12
970.885	2.12
971.613	-1.88
972.34	2.12
973.067	1.12
973.794	0.12
974.521	1.12
975.248	-0.88
975.975	2.12
976.702	1.12
977.429	1.12
978.156	0.12
978.882	2.12
979.609	1.12
980.335	-0.88
981.062	1.12
981.788	-0.88
982.514	0.12
983.24	-1.88
983.967	2.12
984.693	-1.88
985.419	-1.88
986.144	-0.88
986.87	-0.88
987.596	-0.88
988.322	1.12
989.047	1.12
989.773	1.12
990.498	-2.88
991.224	3.12
991.949	-1.88
992.674	1.12
993.399	2.12
994.124	1.12
994.849	0.12
995.574	-2.88
996.299	-1.88
997.024	0.12
997.749	-2.88
998.473	-0.88
999.198	0.12
999.922	0.12
1000.647	-1.88
1001.371	3.12
1002.095	-0.88
1002.82	-1.88
1003.544	-3.88
1004.268	-1.88
1004.992	-0.88
1005.716	-0.88
1006.439	-2.88
1007.163	2.12
1007.887	1.12
1008.611	1.12
1009.334	-0.88
1010.058	1.12
1010.781	0.12
1011.504	-0.88
1012.228	1.12
1012.951	1.12
1013.674	2.12
1014.397	0.12
1015.12	0.12
