节点500_145_QEPB04081__587__11-38-16-394.txt的数据

Date: Wed Nov 12 11:38:16 CST 2025
User: PC
Spectrometer: QEPB0408
触发模式: 0
积分时间 (秒): 1.000000E-2
Scans to average: 1
启用暗噪声校正: true
启用非线性校正: false
滑动平均宽度: 0
X轴模式: Wavelengths
Number of Pixels in Spectrum: 1044
>>>>>Begin Spectral Data<<<<<
220.843	2.5
221.644	-1.5
222.444	1.5
223.244	1.5
224.045	1.5
224.845	1.5
225.645	1.5
226.445	1.5
227.245	-0.5
228.045	0.5
228.845	1.5
229.645	1.5
230.444	1.5
231.244	0.5
232.043	0.5
232.843	0.5
233.642	1.5
234.442	-1.5
235.241	-1.5
236.04	0.5
236.839	4.5
237.638	2.5
238.437	-0.5
239.236	1.5
240.035	-0.5
240.833	1.5
241.632	3.5
242.43	1.5
243.229	-1.5
244.027	2.5
244.826	1.5
245.624	0.5
246.422	3.5
247.22	1.5
248.018	3.5
248.816	2.5
249.614	3.5
250.412	2.5
251.21	1.5
252.007	3.5
252.805	3.5
253.602	3.5
254.4	1.5
255.197	2.5
255.994	2.5
256.791	2.5
257.589	6.5
258.386	5.5
259.183	4.5
259.979	3.5
260.776	2.5
261.573	4.5
262.37	5.5
263.166	5.5
263.963	4.5
264.759	4.5
265.556	4.5
266.352	1.5
267.148	6.5
267.944	5.5
268.74	9.5
269.536	6.5
270.332	7.5
271.128	7.5
271.924	5.5
272.719	6.5
273.515	8.5
274.311	6.5
275.106	7.5
275.901	7.5
276.697	7.5
277.492	5.5
278.287	10.5
279.082	10.5
279.877	9.5
280.672	8.5
281.467	10.5
282.262	7.5
283.056	9.5
283.851	8.5
284.646	10.5
285.44	11.5
286.234	7.5
287.029	10.5
287.823	10.5
288.617	10.5
289.411	10.5
290.205	10.5
290.999	7.5
291.793	7.5
292.587	10.5
293.381	9.5
294.174	9.5
294.968	11.5
295.761	7.5
296.555	8.5
297.348	9.5
298.141	5.5
298.935	9.5
299.728	9.5
300.521	9.5
301.314	8.5
302.107	10.5
302.899	7.5
303.692	8.5
304.485	9.5
305.277	7.5
306.07	8.5
306.862	9.5
307.655	7.5
308.447	7.5
309.239	7.5
310.031	6.5
310.823	4.5
311.615	7.5
312.407	7.5
313.199	6.5
313.991	6.5
314.783	8.5
315.574	4.5
316.366	3.5
317.157	5.5
317.949	5.5
318.74	7.5
319.531	7.5
320.322	5.5
321.113	6.5
321.904	3.5
322.695	6.5
323.486	5.5
324.277	6.5
325.068	5.5
325.858	2.5
326.649	5.5
327.439	4.5
328.23	3.5
329.02	4.5
329.81	3.5
330.6	2.5
331.391	3.5
332.181	1.5
332.971	3.5
333.76	2.5
334.55	2.5
335.34	0.5
336.13	3.5
336.919	3.5
337.709	5.5
338.498	0.5
339.287	3.5
340.077	3.5
340.866	2.5
341.655	5.5
342.444	4.5
343.233	3.5
344.022	2.5
344.811	4.5
345.6	2.5
346.388	5.5
347.177	3.5
347.965	3.5
348.754	5.5
349.542	2.5
350.33	2.5
351.119	2.5
351.907	2.5
352.695	2.5
353.483	1.5
354.271	2.5
355.059	3.5
355.846	3.5
356.634	3.5
357.422	0.5
358.209	5.5
358.997	1.5
359.784	4.5
360.571	2.5
361.359	3.5
362.146	4.5
362.933	2.5
363.72	3.5
364.507	2.5
365.294	2.5
366.081	4.5
366.867	2.5
367.654	1.5
368.44	1.5
369.227	2.5
370.013	4.5
370.8	2.5
371.586	3.5
372.372	1.5
373.158	2.5
373.944	1.5
374.73	4.5
375.516	2.5
376.302	3.5
377.088	0.5
377.873	-0.5
378.659	3.5
379.445	0.5
380.23	2.5
381.015	1.5
381.801	3.5
382.586	5.5
383.371	0.5
384.156	4.5
384.941	2.5
385.726	2.5
386.511	3.5
387.296	2.5
388.08	2.5
388.865	2.5
389.649	2.5
390.434	1.5
391.218	3.5
392.003	2.5
392.787	1.5
393.571	2.5
394.355	2.5
395.139	3.5
395.923	3.5
396.707	4.5
397.491	2.5
398.274	3.5
399.058	2.5
399.842	3.5
400.625	2.5
401.408	3.5
402.192	3.5
402.975	2.5
403.758	1.5
404.541	5.5
405.324	4.5
406.107	3.5
406.89	4.5
407.673	3.5
408.456	3.5
409.238	0.5
410.021	4.5
410.803	2.5
411.586	4.5
412.368	4.5
413.151	3.5
413.933	4.5
414.715	4.5
415.497	5.5
416.279	4.5
417.061	4.5
417.843	5.5
418.624	4.5
419.406	3.5
420.188	5.5
420.969	5.5
421.751	3.5
422.532	6.5
423.313	5.5
424.095	7.5
424.876	6.5
425.657	3.5
426.438	6.5
427.219	6.5
428	6.5
428.78	5.5
429.561	7.5
430.342	8.5
431.122	7.5
431.903	7.5
432.683	7.5
433.464	7.5
434.244	7.5
435.024	9.5
435.804	8.5
436.584	7.5
437.364	10.5
438.144	9.5
438.924	10.5
439.704	10.5
440.483	12.5
441.263	11.5
442.042	12.5
442.822	13.5
443.601	12.5
444.38	14.5
445.16	15.5
445.939	16.5
446.718	17.5
447.497	19.5
448.276	23.5
449.054	23.5
449.833	24.5
450.612	28.5
451.391	28.5
452.169	26.5
452.948	34.5
453.726	34.5
454.504	39.5
455.282	44.5
456.061	49.5
456.839	59.5
457.617	59.5
458.395	64.5
459.172	77.5
459.95	85.5
460.728	92.5
461.506	101.5
462.283	111.5
463.061	125.5
463.838	137.5
464.615	156.5
465.393	171.5
466.17	191.5
466.947	213.5
467.724	237.5
468.501	261.5
469.278	294.5
470.055	318.5
470.831	360.5
471.608	392.5
472.385	440.5
473.161	483.5
473.938	535.5
474.714	592.5
475.49	655.5
476.266	709.5
477.043	797.5
477.819	884.5
478.595	970.5
479.371	1056.5
480.146	1154.5
480.922	1269.5
481.698	1401.5
482.473	1533.5
483.249	1669.5
484.024	1845.5
484.8	2020.5
485.575	2214.5
486.35	2433.5
487.126	2655.5
487.901	2893.5
488.676	3177.5
489.451	3463.5
490.225	3799.5
491	4121.5
491.775	4535.5
492.55	4943.5
493.324	5357.5
494.099	5858.5
494.873	6359.5
495.647	6921.5
496.422	7457.5
497.196	8094.5
497.97	8693.5
498.744	9312.5
499.518	9996.5
500.292	10628.5
501.066	11339.5
501.839	11944.5
502.613	12563.5
503.387	13159.5
504.16	13710.5
504.934	14267.5
505.707	14623.5
506.48	14952.5
507.253	15223.5
508.027	15382.5
508.8	15443.5
509.573	15401.5
510.346	15327.5
511.118	15133.5
511.891	14802.5
512.664	14502.5
513.437	14107.5
514.209	13657.5
514.982	13232.5
515.754	12681.5
516.526	12236.5
517.298	11681.5
518.071	11267.5
518.843	10789.5
519.615	10282.5
520.387	9898.5
521.159	9519.5
521.93	9111.5
522.702	8746.5
523.474	8426.5
524.245	8088.5
525.017	7775.5
525.788	7444.5
526.56	7144.5
527.331	6869.5
528.102	6584.5
528.873	6292.5
529.644	6037.5
530.415	5765.5
531.186	5492.5
531.957	5248.5
532.728	4977.5
533.498	4730.5
534.269	4493.5
535.039	4257.5
535.81	4039.5
536.58	3813.5
537.351	3606.5
538.121	3403.5
538.891	3205.5
539.661	3070.5
540.431	2900.5
541.201	2741.5
541.971	2590.5
542.741	2441.5
543.51	2326.5
544.28	2200.5
545.05	2086.5
545.819	2002.5
546.588	1873.5
547.358	1801.5
548.127	1714.5
548.896	1631.5
549.665	1553.5
550.434	1473.5
551.203	1393.5
551.972	1335.5
552.741	1263.5
553.51	1195.5
554.278	1134.5
555.047	1054.5
555.815	1008.5
556.584	951.5
557.352	894.5
558.121	850.5
558.889	805.5
559.657	751.5
560.425	713.5
561.193	674.5
561.961	636.5
562.729	594.5
563.496	555.5
564.264	531.5
565.032	506.5
565.799	480.5
566.567	446.5
567.334	433.5
568.101	399.5
568.869	372.5
569.636	356.5
570.403	337.5
571.17	313.5
571.937	299.5
572.704	284.5
573.471	269.5
574.237	252.5
575.004	234.5
575.771	217.5
576.537	209.5
577.303	195.5
578.07	188.5
578.836	174.5
579.602	164.5
580.368	157.5
581.134	148.5
581.9	135.5
582.666	139.5
583.432	125.5
584.198	121.5
584.964	109.5
585.729	105.5
586.495	100.5
587.26	91.5
588.025	96.5
588.791	89.5
589.556	77.5
590.321	74.5
591.086	72.5
591.851	69.5
592.616	65.5
593.381	59.5
594.146	58.5
594.911	58.5
595.675	48.5
596.44	50.5
597.204	51.5
597.969	50.5
598.733	43.5
599.497	43.5
600.261	40.5
601.025	37.5
601.79	32.5
602.553	37.5
603.317	33.5
604.081	31.5
604.845	28.5
605.609	29.5
606.372	27.5
607.136	27.5
607.899	24.5
608.662	23.5
609.426	22.5
610.189	20.5
610.952	20.5
611.715	21.5
612.478	18.5
613.241	17.5
614.004	17.5
614.767	17.5
615.529	14.5
616.292	15.5
617.055	19.5
617.817	15.5
618.579	14.5
619.342	15.5
620.104	13.5
620.866	12.5
621.628	10.5
622.39	12.5
623.152	9.5
623.914	10.5
624.676	7.5
625.438	10.5
626.199	8.5
626.961	11.5
627.722	8.5
628.484	9.5
629.245	6.5
630.006	8.5
630.768	9.5
631.529	7.5
632.29	7.5
633.051	7.5
633.812	3.5
634.573	7.5
635.333	6.5
636.094	7.5
636.855	3.5
637.615	7.5
638.376	9.5
639.136	3.5
639.896	5.5
640.657	6.5
641.417	5.5
642.177	4.5
642.937	6.5
643.697	5.5
644.457	3.5
645.216	4.5
645.976	5.5
646.736	6.5
647.495	3.5
648.255	5.5
649.014	4.5
649.774	4.5
650.533	4.5
651.292	2.5
652.051	5.5
652.81	4.5
653.569	4.5
654.328	1.5
655.087	1.5
655.846	3.5
656.604	3.5
657.363	2.5
658.121	3.5
658.88	4.5
659.638	5.5
660.397	2.5
661.155	3.5
661.913	2.5
662.671	3.5
663.429	2.5
664.187	3.5
664.945	1.5
665.703	2.5
666.46	1.5
667.218	3.5
667.976	3.5
668.733	1.5
669.49	5.5
670.248	1.5
671.005	2.5
671.762	2.5
672.519	2.5
673.276	4.5
674.033	2.5
674.79	3.5
675.547	2.5
676.304	3.5
677.06	3.5
677.817	1.5
678.574	1.5
679.33	2.5
680.086	1.5
680.843	3.5
681.599	1.5
682.355	2.5
683.111	2.5
683.867	1.5
684.623	1.5
685.379	1.5
686.135	1.5
686.89	3.5
687.646	4.5
688.402	2.5
689.157	1.5
689.912	3.5
690.668	2.5
691.423	4.5
692.178	2.5
692.933	1.5
693.688	2.5
694.443	2.5
695.198	3.5
695.953	2.5
696.708	2.5
697.462	2.5
698.217	2.5
698.972	1.5
699.726	-0.5
700.48	3.5
701.235	2.5
701.989	4.5
702.743	1.5
703.497	3.5
704.251	2.5
705.005	2.5
705.759	0.5
706.513	0.5
707.266	2.5
708.02	2.5
708.774	4.5
709.527	2.5
710.28	2.5
711.034	2.5
711.787	4.5
712.54	2.5
713.293	3.5
714.046	1.5
714.799	3.5
715.552	-0.5
716.305	2.5
717.058	2.5
717.81	2.5
718.563	3.5
719.315	2.5
720.068	1.5
720.82	2.5
721.573	0.5
722.325	2.5
723.077	2.5
723.829	3.5
724.581	4.5
725.333	1.5
726.085	2.5
726.836	1.5
727.588	1.5
728.34	1.5
729.091	2.5
729.843	2.5
730.594	-0.5
731.346	2.5
732.097	3.5
732.848	2.5
733.599	2.5
734.35	2.5
735.101	3.5
735.852	4.5
736.603	2.5
737.354	2.5
738.104	1.5
738.855	3.5
739.605	1.5
740.356	1.5
741.106	3.5
741.856	2.5
742.607	3.5
743.357	2.5
744.107	3.5
744.857	3.5
745.607	3.5
746.357	1.5
747.106	0.5
747.856	3.5
748.606	1.5
749.355	3.5
750.105	3.5
750.854	2.5
751.603	1.5
752.353	2.5
753.102	2.5
753.851	2.5
754.6	4.5
755.349	3.5
756.098	5.5
756.847	3.5
757.595	2.5
758.344	2.5
759.093	1.5
759.841	2.5
760.589	1.5
761.338	5.5
762.086	4.5
762.834	3.5
763.582	2.5
764.331	1.5
765.079	3.5
765.826	4.5
766.574	4.5
767.322	4.5
768.07	1.5
768.817	3.5
769.565	6.5
770.312	5.5
771.06	5.5
771.807	3.5
772.554	5.5
773.302	3.5
774.049	3.5
774.796	5.5
775.543	4.5
776.29	5.5
777.036	4.5
777.783	5.5
778.53	5.5
779.276	3.5
780.023	4.5
780.769	4.5
781.516	5.5
782.262	2.5
783.008	4.5
783.754	5.5
784.5	7.5
785.246	5.5
785.992	5.5
786.738	5.5
787.484	5.5
788.23	6.5
788.975	7.5
789.721	5.5
790.466	7.5
791.212	6.5
791.957	4.5
792.702	4.5
793.447	3.5
794.193	4.5
794.938	5.5
795.683	3.5
796.427	5.5
797.172	5.5
797.917	2.5
798.662	5.5
799.406	5.5
800.151	5.5
800.895	3.5
801.64	4.5
802.384	3.5
803.128	4.5
803.872	4.5
804.616	5.5
805.36	3.5
806.104	3.5
806.848	2.5
807.592	4.5
808.336	2.5
809.079	5.5
809.823	2.5
810.566	2.5
811.31	2.5
812.053	4.5
812.796	2.5
813.539	2.5
814.283	2.5
815.026	3.5
815.769	2.5
816.511	4.5
817.254	2.5
817.997	2.5
818.74	1.5
819.482	4.5
820.225	6.5
820.967	3.5
821.71	1.5
822.452	3.5
823.194	4.5
823.936	4.5
824.678	3.5
825.42	3.5
826.162	0.5
826.904	4.5
827.646	2.5
828.388	2.5
829.129	3.5
829.871	4.5
830.612	0.5
831.354	2.5
832.095	2.5
832.836	1.5
833.577	1.5
834.319	2.5
835.06	2.5
835.801	4.5
836.542	2.5
837.282	4.5
838.023	5.5
838.764	2.5
839.504	-1.5
840.245	2.5
840.985	1.5
841.726	1.5
842.466	2.5
843.206	2.5
843.946	2.5
844.687	0.5
845.427	3.5
846.166	-0.5
846.906	2.5
847.646	0.5
848.386	2.5
849.125	2.5
849.865	2.5
850.605	1.5
851.344	2.5
852.083	3.5
852.823	0.5
853.562	1.5
854.301	1.5
855.04	1.5
855.779	0.5
856.518	-0.5
857.257	0.5
857.995	2.5
858.734	0.5
859.473	1.5
860.211	0.5
860.95	1.5
861.688	0.5
862.426	2.5
863.165	1.5
863.903	1.5
864.641	1.5
865.379	2.5
866.117	0.5
866.855	0.5
867.593	1.5
868.33	0.5
869.068	0.5
869.806	0.5
870.543	1.5
871.28	2.5
872.018	1.5
872.755	-0.5
873.492	4.5
874.229	0.5
874.967	2.5
875.703	0.5
876.44	0.5
877.177	0.5
877.914	1.5
878.651	0.5
879.387	2.5
880.124	3.5
880.86	2.5
881.597	-1.5
882.333	1.5
883.069	0.5
883.806	0.5
884.542	-0.5
885.278	2.5
886.014	-0.5
886.749	0.5
887.485	0.5
888.221	2.5
888.957	2.5
889.692	1.5
890.428	-0.5
891.163	1.5
891.899	1.5
892.634	0.5
893.369	1.5
894.104	1.5
894.839	-1.5
895.574	-0.5
896.309	2.5
897.044	-0.5
897.779	2.5
898.514	1.5
899.248	1.5
899.983	-0.5
900.717	-0.5
901.452	1.5
902.186	1.5
902.92	-0.5
903.654	0.5
904.389	-0.5
905.123	-0.5
905.857	1.5
906.59	0.5
907.324	-1.5
908.058	1.5
908.792	0.5
909.525	-0.5
910.259	1.5
910.992	1.5
911.726	-0.5
912.459	1.5
913.192	1.5
913.925	-0.5
914.658	1.5
915.391	1.5
916.124	-0.5
916.857	0.5
917.59	1.5
918.323	0.5
919.055	1.5
919.788	1.5
920.521	-2.5
921.253	1.5
921.985	-1.5
922.718	-0.5
923.45	-0.5
924.182	-0.5
924.914	-0.5
925.646	-1.5
926.378	0.5
927.11	1.5
927.841	-0.5
928.573	-0.5
929.305	1.5
930.036	0.5
930.768	-0.5
931.499	1.5
932.23	-0.5
932.962	0.5
933.693	0.5
934.424	1.5
935.155	0.5
935.886	0.5
936.617	1.5
937.348	0.5
938.078	0.5
938.809	0.5
939.54	-0.5
940.27	-0.5
941.001	0.5
941.731	0.5
942.461	2.5
943.191	-0.5
943.922	-0.5
944.652	1.5
945.382	-0.5
946.112	0.5
946.841	-0.5
947.571	2.5
948.301	0.5
949.031	0.5
949.76	-0.5
950.49	0.5
951.219	1.5
951.948	1.5
952.678	0.5
953.407	-1.5
954.136	0.5
954.865	-1.5
955.594	1.5
956.323	0.5
957.052	1.5
957.78	0.5
958.509	-1.5
959.238	2.5
959.966	-1.5
960.695	-0.5
961.423	1.5
962.151	1.5
962.88	-2.5
963.608	-0.5
964.336	0.5
965.064	-0.5
965.792	0.5
966.52	-0.5
967.247	0.5
967.975	1.5
968.703	-1.5
969.43	-0.5
970.158	-0.5
970.885	0.5
971.613	0.5
972.34	0.5
973.067	0.5
973.794	-0.5
974.521	-0.5
975.248	1.5
975.975	0.5
976.702	0.5
977.429	-0.5
978.156	1.5
978.882	-1.5
979.609	1.5
980.335	1.5
981.062	-0.5
981.788	2.5
982.514	0.5
983.24	0.5
983.967	-0.5
984.693	-0.5
985.419	2.5
986.144	2.5
986.87	-1.5
987.596	0.5
988.322	0.5
989.047	-0.5
989.773	0.5
990.498	1.5
991.224	-0.5
991.949	-0.5
992.674	0.5
993.399	-1.5
994.124	2.5
994.849	1.5
995.574	1.5
996.299	-0.5
997.024	1.5
997.749	-0.5
998.473	2.5
999.198	-0.5
999.922	-1.5
1000.647	1.5
1001.371	5.5
1002.095	-1.5
1002.82	0.5
1003.544	-1.5
1004.268	0.5
1004.992	-1.5
1005.716	-2.5
1006.439	0.5
1007.163	-2.5
1007.887	0.5
1008.611	0.5
1009.334	-1.5
1010.058	3.5
1010.781	0.5
1011.504	1.5
1012.228	0.5
1012.951	0.5
1013.674	-3.5
1014.397	1.5
1015.12	-1.5
