节点500_145_QEPB04081__124__11-30-55-614.txt的数据

Date: Wed Nov 12 11:30:55 CST 2025
User: PC
Spectrometer: QEPB0408
触发模式: 0
积分时间 (秒): 1.000000E-2
Scans to average: 1
启用暗噪声校正: true
启用非线性校正: false
滑动平均宽度: 0
X轴模式: Wavelengths
Number of Pixels in Spectrum: 1044
>>>>>Begin Spectral Data<<<<<
220.843	1.12
221.644	3.12
222.444	2.12
223.244	1.12
224.045	3.12
224.845	0.12
225.645	4.12
226.445	1.12
227.245	0.12
228.045	1.12
228.845	0.12
229.645	3.12
230.444	0.12
231.244	3.12
232.043	1.12
232.843	2.12
233.642	2.12
234.442	1.12
235.241	1.12
236.04	2.12
236.839	2.12
237.638	3.12
238.437	3.12
239.236	1.12
240.035	-0.88
240.833	3.12
241.632	3.12
242.43	2.12
243.229	3.12
244.027	1.12
244.826	3.12
245.624	3.12
246.422	2.12
247.22	4.12
248.018	5.12
248.816	5.12
249.614	4.12
250.412	5.12
251.21	3.12
252.007	1.12
252.805	5.12
253.602	2.12
254.4	4.12
255.197	8.12
255.994	3.12
256.791	3.12
257.589	5.12
258.386	6.12
259.183	4.12
259.979	5.12
260.776	6.12
261.573	7.12
262.37	6.12
263.166	6.12
263.963	5.12
264.759	6.12
265.556	9.12
266.352	8.12
267.148	6.12
267.944	6.12
268.74	8.12
269.536	9.12
270.332	10.12
271.128	11.12
271.924	10.12
272.719	11.12
273.515	11.12
274.311	10.12
275.106	10.12
275.901	13.12
276.697	13.12
277.492	10.12
278.287	14.12
279.082	9.12
279.877	11.12
280.672	12.12
281.467	10.12
282.262	11.12
283.056	10.12
283.851	12.12
284.646	15.12
285.44	12.12
286.234	13.12
287.029	13.12
287.823	11.12
288.617	12.12
289.411	14.12
290.205	14.12
290.999	12.12
291.793	11.12
292.587	12.12
293.381	9.12
294.174	12.12
294.968	13.12
295.761	11.12
296.555	8.12
297.348	9.12
298.141	10.12
298.935	14.12
299.728	10.12
300.521	12.12
301.314	9.12
302.107	8.12
302.899	8.12
303.692	8.12
304.485	12.12
305.277	10.12
306.07	11.12
306.862	13.12
307.655	10.12
308.447	8.12
309.239	8.12
310.031	9.12
310.823	7.12
311.615	9.12
312.407	9.12
313.199	8.12
313.991	8.12
314.783	9.12
315.574	6.12
316.366	8.12
317.157	8.12
317.949	8.12
318.74	6.12
319.531	5.12
320.322	7.12
321.113	4.12
321.904	6.12
322.695	3.12
323.486	6.12
324.277	6.12
325.068	6.12
325.858	5.12
326.649	5.12
327.439	4.12
328.23	4.12
329.02	4.12
329.81	6.12
330.6	4.12
331.391	2.12
332.181	6.12
332.971	3.12
333.76	5.12
334.55	4.12
335.34	4.12
336.13	5.12
336.919	2.12
337.709	6.12
338.498	4.12
339.287	5.12
340.077	4.12
340.866	3.12
341.655	3.12
342.444	4.12
343.233	4.12
344.022	5.12
344.811	4.12
345.6	3.12
346.388	4.12
347.177	4.12
347.965	4.12
348.754	6.12
349.542	4.12
350.33	5.12
351.119	4.12
351.907	2.12
352.695	8.12
353.483	4.12
354.271	4.12
355.059	3.12
355.846	6.12
356.634	4.12
357.422	3.12
358.209	6.12
358.997	4.12
359.784	2.12
360.571	6.12
361.359	3.12
362.146	4.12
362.933	3.12
363.72	5.12
364.507	5.12
365.294	3.12
366.081	2.12
366.867	5.12
367.654	3.12
368.44	3.12
369.227	5.12
370.013	3.12
370.8	4.12
371.586	4.12
372.372	3.12
373.158	7.12
373.944	1.12
374.73	6.12
375.516	4.12
376.302	4.12
377.088	5.12
377.873	4.12
378.659	3.12
379.445	4.12
380.23	6.12
381.015	3.12
381.801	4.12
382.586	5.12
383.371	2.12
384.156	4.12
384.941	2.12
385.726	4.12
386.511	4.12
387.296	3.12
388.08	3.12
388.865	5.12
389.649	5.12
390.434	3.12
391.218	2.12
392.003	7.12
392.787	4.12
393.571	4.12
394.355	3.12
395.139	6.12
395.923	6.12
396.707	6.12
397.491	5.12
398.274	3.12
399.058	4.12
399.842	3.12
400.625	6.12
401.408	6.12
402.192	3.12
402.975	5.12
403.758	3.12
404.541	6.12
405.324	5.12
406.107	5.12
406.89	3.12
407.673	6.12
408.456	3.12
409.238	6.12
410.021	8.12
410.803	4.12
411.586	7.12
412.368	8.12
413.151	5.12
413.933	8.12
414.715	6.12
415.497	6.12
416.279	7.12
417.061	6.12
417.843	5.12
418.624	5.12
419.406	7.12
420.188	5.12
420.969	4.12
421.751	7.12
422.532	6.12
423.313	8.12
424.095	6.12
424.876	6.12
425.657	6.12
426.438	7.12
427.219	11.12
428	8.12
428.78	8.12
429.561	9.12
430.342	9.12
431.122	8.12
431.903	8.12
432.683	9.12
433.464	8.12
434.244	10.12
435.024	9.12
435.804	10.12
436.584	9.12
437.364	12.12
438.144	13.12
438.924	14.12
439.704	11.12
440.483	10.12
441.263	12.12
442.042	15.12
442.822	14.12
443.601	13.12
444.38	13.12
445.16	19.12
445.939	15.12
446.718	20.12
447.497	22.12
448.276	22.12
449.054	25.12
449.833	20.12
450.612	28.12
451.391	26.12
452.169	31.12
452.948	33.12
453.726	33.12
454.504	35.12
455.282	36.12
456.061	44.12
456.839	46.12
457.617	53.12
458.395	60.12
459.172	66.12
459.95	72.12
460.728	76.12
461.506	84.12
462.283	100.12
463.061	107.12
463.838	113.12
464.615	135.12
465.393	146.12
466.17	165.12
466.947	177.12
467.724	203.12
468.501	227.12
469.278	254.12
470.055	287.12
470.831	316.12
471.608	354.12
472.385	394.12
473.161	439.12
473.938	482.12
474.714	541.12
475.49	608.12
476.266	678.12
477.043	745.12
477.819	837.12
478.595	918.12
479.371	1032.12
480.146	1127.12
480.922	1265.12
481.698	1400.12
482.473	1560.12
483.249	1713.12
484.024	1902.12
484.8	2104.12
485.575	2322.12
486.35	2586.12
487.126	2848.12
487.901	3178.12
488.676	3515.12
489.451	3854.12
490.225	4272.12
491	4703.12
491.775	5192.12
492.55	5686.12
493.324	6291.12
494.099	6860.12
494.873	7506.12
495.647	8223.12
496.422	8978.12
497.196	9728.12
497.97	10531.12
498.744	11279.12
499.518	12152.12
500.292	12907.12
501.066	13646.12
501.839	14340.12
502.613	15101.12
503.387	15709.12
504.16	16171.12
504.934	16614.12
505.707	16982.12
506.48	17146.12
507.253	17291.12
508.027	17242.12
508.8	17091.12
509.573	16884.12
510.346	16504.12
511.118	16114.12
511.891	15573.12
512.664	15042.12
513.437	14469.12
514.209	13868.12
514.982	13286.12
515.754	12749.12
516.526	12132.12
517.298	11541.12
518.071	10986.12
518.843	10573.12
519.615	10093.12
520.387	9645.12
521.159	9285.12
521.93	8929.12
522.702	8561.12
523.474	8225.12
524.245	7924.12
525.017	7616.12
525.788	7263.12
526.56	6969.12
527.331	6696.12
528.102	6408.12
528.873	6075.12
529.644	5846.12
530.415	5562.12
531.186	5254.12
531.957	4970.12
532.728	4716.12
533.498	4451.12
534.269	4228.12
535.039	3986.12
535.81	3749.12
536.58	3525.12
537.351	3336.12
538.121	3163.12
538.891	2998.12
539.661	2836.12
540.431	2664.12
541.201	2531.12
541.971	2404.12
542.741	2265.12
543.51	2155.12
544.28	2035.12
545.05	1924.12
545.819	1845.12
546.588	1752.12
547.358	1651.12
548.127	1591.12
548.896	1507.12
549.665	1425.12
550.434	1366.12
551.203	1292.12
551.972	1209.12
552.741	1151.12
553.51	1093.12
554.278	1042.12
555.047	976.12
555.815	911.12
556.584	864.12
557.352	804.12
558.121	758.12
558.889	722.12
559.657	664.12
560.425	636.12
561.193	603.12
561.961	567.12
562.729	542.12
563.496	514.12
564.264	470.12
565.032	449.12
565.799	429.12
566.567	404.12
567.334	387.12
568.101	364.12
568.869	340.12
569.636	314.12
570.403	303.12
571.17	287.12
571.937	271.12
572.704	251.12
573.471	235.12
574.237	226.12
575.004	218.12
575.771	198.12
576.537	186.12
577.303	180.12
578.07	168.12
578.836	154.12
579.602	145.12
580.368	140.12
581.134	134.12
581.9	126.12
582.666	117.12
583.432	113.12
584.198	108.12
584.964	102.12
585.729	94.12
586.495	87.12
587.26	84.12
588.025	80.12
588.791	72.12
589.556	74.12
590.321	70.12
591.086	64.12
591.851	61.12
592.616	58.12
593.381	55.12
594.146	54.12
594.911	52.12
595.675	48.12
596.44	42.12
597.204	42.12
597.969	42.12
598.733	38.12
599.497	38.12
600.261	35.12
601.025	33.12
601.79	32.12
602.553	31.12
603.317	30.12
604.081	28.12
604.845	25.12
605.609	25.12
606.372	27.12
607.136	24.12
607.899	22.12
608.662	22.12
609.426	21.12
610.189	20.12
610.952	21.12
611.715	20.12
612.478	19.12
613.241	19.12
614.004	18.12
614.767	18.12
615.529	18.12
616.292	16.12
617.055	14.12
617.817	16.12
618.579	14.12
619.342	14.12
620.104	11.12
620.866	12.12
621.628	13.12
622.39	11.12
623.152	11.12
623.914	13.12
624.676	11.12
625.438	10.12
626.199	10.12
626.961	11.12
627.722	10.12
628.484	8.12
629.245	10.12
630.006	10.12
630.768	9.12
631.529	9.12
632.29	6.12
633.051	6.12
633.812	11.12
634.573	9.12
635.333	8.12
636.094	6.12
636.855	6.12
637.615	9.12
638.376	9.12
639.136	9.12
639.896	5.12
640.657	5.12
641.417	6.12
642.177	6.12
642.937	6.12
643.697	6.12
644.457	7.12
645.216	5.12
645.976	7.12
646.736	5.12
647.495	6.12
648.255	6.12
649.014	5.12
649.774	6.12
650.533	4.12
651.292	3.12
652.051	4.12
652.81	5.12
653.569	6.12
654.328	5.12
655.087	6.12
655.846	4.12
656.604	6.12
657.363	3.12
658.121	2.12
658.88	5.12
659.638	5.12
660.397	5.12
661.155	3.12
661.913	1.12
662.671	3.12
663.429	4.12
664.187	3.12
664.945	5.12
665.703	6.12
666.46	3.12
667.218	4.12
667.976	2.12
668.733	3.12
669.49	2.12
670.248	5.12
671.005	3.12
671.762	3.12
672.519	6.12
673.276	3.12
674.033	3.12
674.79	5.12
675.547	3.12
676.304	5.12
677.06	6.12
677.817	4.12
678.574	4.12
679.33	3.12
680.086	3.12
680.843	4.12
681.599	3.12
682.355	2.12
683.111	7.12
683.867	4.12
684.623	3.12
685.379	1.12
686.135	2.12
686.89	5.12
687.646	2.12
688.402	3.12
689.157	4.12
689.912	1.12
690.668	4.12
691.423	4.12
692.178	6.12
692.933	6.12
693.688	2.12
694.443	5.12
695.198	2.12
695.953	6.12
696.708	4.12
697.462	5.12
698.217	4.12
698.972	3.12
699.726	6.12
700.48	2.12
701.235	3.12
701.989	3.12
702.743	2.12
703.497	2.12
704.251	3.12
705.005	2.12
705.759	3.12
706.513	2.12
707.266	1.12
708.02	2.12
708.774	3.12
709.527	4.12
710.28	3.12
711.034	1.12
711.787	3.12
712.54	0.12
713.293	4.12
714.046	3.12
714.799	3.12
715.552	4.12
716.305	1.12
717.058	4.12
717.81	1.12
718.563	2.12
719.315	5.12
720.068	3.12
720.82	3.12
721.573	2.12
722.325	2.12
723.077	2.12
723.829	1.12
724.581	4.12
725.333	3.12
726.085	6.12
726.836	4.12
727.588	2.12
728.34	3.12
729.091	4.12
729.843	3.12
730.594	4.12
731.346	3.12
732.097	2.12
732.848	3.12
733.599	5.12
734.35	3.12
735.101	3.12
735.852	0.12
736.603	3.12
737.354	3.12
738.104	2.12
738.855	2.12
739.605	3.12
740.356	3.12
741.106	4.12
741.856	4.12
742.607	4.12
743.357	3.12
744.107	2.12
744.857	3.12
745.607	2.12
746.357	2.12
747.106	3.12
747.856	4.12
748.606	1.12
749.355	4.12
750.105	3.12
750.854	4.12
751.603	2.12
752.353	3.12
753.102	4.12
753.851	4.12
754.6	5.12
755.349	3.12
756.098	5.12
756.847	3.12
757.595	5.12
758.344	3.12
759.093	4.12
759.841	5.12
760.589	4.12
761.338	6.12
762.086	3.12
762.834	5.12
763.582	5.12
764.331	3.12
765.079	7.12
765.826	6.12
766.574	7.12
767.322	4.12
768.07	6.12
768.817	3.12
769.565	6.12
770.312	6.12
771.06	4.12
771.807	4.12
772.554	5.12
773.302	4.12
774.049	3.12
774.796	5.12
775.543	4.12
776.29	3.12
777.036	8.12
777.783	7.12
778.53	7.12
779.276	7.12
780.023	5.12
780.769	9.12
781.516	7.12
782.262	9.12
783.008	6.12
783.754	6.12
784.5	7.12
785.246	7.12
785.992	8.12
786.738	8.12
787.484	6.12
788.23	9.12
788.975	5.12
789.721	7.12
790.466	4.12
791.212	6.12
791.957	6.12
792.702	6.12
793.447	8.12
794.193	6.12
794.938	5.12
795.683	10.12
796.427	9.12
797.172	6.12
797.917	3.12
798.662	7.12
799.406	4.12
800.151	5.12
800.895	5.12
801.64	5.12
802.384	6.12
803.128	6.12
803.872	5.12
804.616	7.12
805.36	8.12
806.104	5.12
806.848	3.12
807.592	7.12
808.336	3.12
809.079	7.12
809.823	5.12
810.566	4.12
811.31	5.12
812.053	6.12
812.796	3.12
813.539	6.12
814.283	5.12
815.026	3.12
815.769	7.12
816.511	5.12
817.254	5.12
817.997	6.12
818.74	6.12
819.482	4.12
820.225	3.12
820.967	5.12
821.71	4.12
822.452	5.12
823.194	5.12
823.936	3.12
824.678	6.12
825.42	3.12
826.162	4.12
826.904	4.12
827.646	2.12
828.388	3.12
829.129	2.12
829.871	7.12
830.612	1.12
831.354	5.12
832.095	4.12
832.836	4.12
833.577	5.12
834.319	3.12
835.06	3.12
835.801	4.12
836.542	4.12
837.282	3.12
838.023	4.12
838.764	6.12
839.504	4.12
840.245	3.12
840.985	4.12
841.726	2.12
842.466	3.12
843.206	3.12
843.946	4.12
844.687	3.12
845.427	3.12
846.166	3.12
846.906	3.12
847.646	1.12
848.386	1.12
849.125	1.12
849.865	4.12
850.605	3.12
851.344	2.12
852.083	2.12
852.823	2.12
853.562	3.12
854.301	2.12
855.04	3.12
855.779	3.12
856.518	4.12
857.257	4.12
857.995	1.12
858.734	2.12
859.473	4.12
860.211	4.12
860.95	1.12
861.688	3.12
862.426	2.12
863.165	3.12
863.903	2.12
864.641	3.12
865.379	3.12
866.117	2.12
866.855	4.12
867.593	2.12
868.33	3.12
869.068	0.12
869.806	5.12
870.543	2.12
871.28	3.12
872.018	3.12
872.755	3.12
873.492	3.12
874.229	1.12
874.967	3.12
875.703	1.12
876.44	3.12
877.177	4.12
877.914	0.12
878.651	2.12
879.387	0.12
880.124	3.12
880.86	3.12
881.597	-0.88
882.333	0.12
883.069	1.12
883.806	0.12
884.542	0.12
885.278	1.12
886.014	2.12
886.749	3.12
887.485	3.12
888.221	0.12
888.957	1.12
889.692	2.12
890.428	0.12
891.163	0.12
891.899	3.12
892.634	2.12
893.369	1.12
894.104	1.12
894.839	0.12
895.574	2.12
896.309	2.12
897.044	2.12
897.779	2.12
898.514	1.12
899.248	3.12
899.983	1.12
900.717	0.12
901.452	3.12
902.186	1.12
902.92	2.12
903.654	0.12
904.389	1.12
905.123	1.12
905.857	2.12
906.59	0.12
907.324	2.12
908.058	1.12
908.792	1.12
909.525	3.12
910.259	1.12
910.992	0.12
911.726	-0.88
912.459	3.12
913.192	0.12
913.925	1.12
914.658	2.12
915.391	2.12
916.124	2.12
916.857	-0.88
917.59	2.12
918.323	1.12
919.055	0.12
919.788	2.12
920.521	3.12
921.253	1.12
921.985	3.12
922.718	-0.88
923.45	3.12
924.182	0.12
924.914	2.12
925.646	2.12
926.378	0.12
927.11	1.12
927.841	2.12
928.573	-0.88
929.305	1.12
930.036	-0.88
930.768	1.12
931.499	2.12
932.23	2.12
932.962	-0.88
933.693	4.12
934.424	0.12
935.155	1.12
935.886	1.12
936.617	0.12
937.348	2.12
938.078	1.12
938.809	2.12
939.54	0.12
940.27	0.12
941.001	1.12
941.731	0.12
942.461	3.12
943.191	1.12
943.922	3.12
944.652	2.12
945.382	-0.88
946.112	2.12
946.841	1.12
947.571	2.12
948.301	-0.88
949.031	2.12
949.76	1.12
950.49	0.12
951.219	-0.88
951.948	0.12
952.678	1.12
953.407	2.12
954.136	0.12
954.865	4.12
955.594	1.12
956.323	0.12
957.052	2.12
957.78	2.12
958.509	1.12
959.238	3.12
959.966	2.12
960.695	1.12
961.423	2.12
962.151	0.12
962.88	1.12
963.608	-0.88
964.336	2.12
965.064	2.12
965.792	3.12
966.52	3.12
967.247	0.12
967.975	2.12
968.703	1.12
969.43	1.12
970.158	-0.88
970.885	3.12
971.613	-0.88
972.34	1.12
973.067	2.12
973.794	2.12
974.521	1.12
975.248	3.12
975.975	3.12
976.702	2.12
977.429	-0.88
978.156	-0.88
978.882	2.12
979.609	0.12
980.335	1.12
981.062	2.12
981.788	2.12
982.514	1.12
983.24	2.12
983.967	2.12
984.693	2.12
985.419	3.12
986.144	2.12
986.87	-0.88
987.596	1.12
988.322	3.12
989.047	2.12
989.773	3.12
990.498	1.12
991.224	2.12
991.949	3.12
992.674	-0.88
993.399	2.12
994.124	0.12
994.849	1.12
995.574	2.12
996.299	3.12
997.024	2.12
997.749	1.12
998.473	1.12
999.198	1.12
999.922	2.12
1000.647	2.12
1001.371	4.12
1002.095	-0.88
1002.82	0.12
1003.544	-1.88
1004.268	0.12
1004.992	1.12
1005.716	1.12
1006.439	-0.88
1007.163	1.12
1007.887	1.12
1008.611	1.12
1009.334	2.12
1010.058	1.12
1010.781	2.12
1011.504	0.12
1012.228	0.12
1012.951	0.12
1013.674	-0.88
1014.397	0.12
1015.12	-0.88
