节点500_145_QEPB04081__285__11-33-31-491.txt的数据

Date: Wed Nov 12 11:33:31 CST 2025
User: PC
Spectrometer: QEPB0408
触发模式: 0
积分时间 (秒): 1.000000E-2
Scans to average: 1
启用暗噪声校正: true
启用非线性校正: false
滑动平均宽度: 0
X轴模式: Wavelengths
Number of Pixels in Spectrum: 1044
>>>>>Begin Spectral Data<<<<<
220.843	-0.12
221.644	-2.12
222.444	0.88
223.244	-1.12
224.045	0.88
224.845	-1.12
225.645	-2.12
226.445	1.88
227.245	-0.12
228.045	-0.12
228.845	-0.12
229.645	0.88
230.444	-0.12
231.244	1.88
232.043	0.88
232.843	-2.12
233.642	1.88
234.442	-0.12
235.241	-0.12
236.04	-2.12
236.839	0.88
237.638	-0.12
238.437	0.88
239.236	1.88
240.035	1.88
240.833	1.88
241.632	3.88
242.43	0.88
243.229	1.88
244.027	1.88
244.826	-1.12
245.624	0.88
246.422	-0.12
247.22	1.88
248.018	0.88
248.816	1.88
249.614	0.88
250.412	2.88
251.21	4.88
252.007	3.88
252.805	4.88
253.602	0.88
254.4	1.88
255.197	3.88
255.994	2.88
256.791	4.88
257.589	1.88
258.386	1.88
259.183	4.88
259.979	2.88
260.776	2.88
261.573	3.88
262.37	1.88
263.166	3.88
263.963	5.88
264.759	4.88
265.556	7.88
266.352	4.88
267.148	4.88
267.944	5.88
268.74	5.88
269.536	5.88
270.332	7.88
271.128	6.88
271.924	7.88
272.719	7.88
273.515	7.88
274.311	4.88
275.106	6.88
275.901	5.88
276.697	8.88
277.492	7.88
278.287	8.88
279.082	6.88
279.877	8.88
280.672	10.88
281.467	7.88
282.262	8.88
283.056	8.88
283.851	7.88
284.646	11.88
285.44	9.88
286.234	9.88
287.029	12.88
287.823	10.88
288.617	7.88
289.411	9.88
290.205	10.88
290.999	10.88
291.793	12.88
292.587	11.88
293.381	8.88
294.174	10.88
294.968	9.88
295.761	8.88
296.555	9.88
297.348	9.88
298.141	9.88
298.935	10.88
299.728	7.88
300.521	9.88
301.314	8.88
302.107	7.88
302.899	5.88
303.692	5.88
304.485	9.88
305.277	5.88
306.07	7.88
306.862	7.88
307.655	6.88
308.447	3.88
309.239	8.88
310.031	7.88
310.823	8.88
311.615	5.88
312.407	6.88
313.199	5.88
313.991	6.88
314.783	6.88
315.574	4.88
316.366	4.88
317.157	3.88
317.949	5.88
318.74	1.88
319.531	2.88
320.322	2.88
321.113	2.88
321.904	3.88
322.695	4.88
323.486	4.88
324.277	4.88
325.068	4.88
325.858	4.88
326.649	4.88
327.439	4.88
328.23	3.88
329.02	4.88
329.81	4.88
330.6	3.88
331.391	5.88
332.181	3.88
332.971	2.88
333.76	2.88
334.55	2.88
335.34	1.88
336.13	2.88
336.919	0.88
337.709	4.88
338.498	3.88
339.287	1.88
340.077	4.88
340.866	2.88
341.655	2.88
342.444	2.88
343.233	0.88
344.022	2.88
344.811	1.88
345.6	4.88
346.388	4.88
347.177	4.88
347.965	4.88
348.754	1.88
349.542	2.88
350.33	1.88
351.119	3.88
351.907	4.88
352.695	2.88
353.483	0.88
354.271	3.88
355.059	3.88
355.846	0.88
356.634	3.88
357.422	1.88
358.209	1.88
358.997	2.88
359.784	2.88
360.571	3.88
361.359	3.88
362.146	0.88
362.933	1.88
363.72	0.88
364.507	3.88
365.294	0.88
366.081	1.88
366.867	3.88
367.654	1.88
368.44	1.88
369.227	2.88
370.013	1.88
370.8	0.88
371.586	2.88
372.372	1.88
373.158	2.88
373.944	2.88
374.73	4.88
375.516	1.88
376.302	1.88
377.088	1.88
377.873	1.88
378.659	0.88
379.445	2.88
380.23	2.88
381.015	1.88
381.801	1.88
382.586	2.88
383.371	2.88
384.156	2.88
384.941	1.88
385.726	-0.12
386.511	1.88
387.296	1.88
388.08	-0.12
388.865	3.88
389.649	3.88
390.434	4.88
391.218	1.88
392.003	1.88
392.787	1.88
393.571	3.88
394.355	3.88
395.139	3.88
395.923	4.88
396.707	2.88
397.491	2.88
398.274	2.88
399.058	3.88
399.842	2.88
400.625	1.88
401.408	5.88
402.192	4.88
402.975	2.88
403.758	2.88
404.541	4.88
405.324	2.88
406.107	2.88
406.89	5.88
407.673	4.88
408.456	3.88
409.238	4.88
410.021	4.88
410.803	3.88
411.586	3.88
412.368	2.88
413.151	3.88
413.933	2.88
414.715	4.88
415.497	4.88
416.279	4.88
417.061	4.88
417.843	6.88
418.624	2.88
419.406	2.88
420.188	3.88
420.969	5.88
421.751	2.88
422.532	4.88
423.313	3.88
424.095	4.88
424.876	6.88
425.657	5.88
426.438	9.88
427.219	6.88
428	5.88
428.78	4.88
429.561	2.88
430.342	5.88
431.122	8.88
431.903	6.88
432.683	7.88
433.464	6.88
434.244	6.88
435.024	6.88
435.804	9.88
436.584	7.88
437.364	9.88
438.144	9.88
438.924	8.88
439.704	11.88
440.483	9.88
441.263	12.88
442.042	11.88
442.822	12.88
443.601	13.88
444.38	11.88
445.16	14.88
445.939	13.88
446.718	18.88
447.497	15.88
448.276	19.88
449.054	20.88
449.833	24.88
450.612	26.88
451.391	26.88
452.169	28.88
452.948	32.88
453.726	34.88
454.504	37.88
455.282	40.88
456.061	45.88
456.839	49.88
457.617	52.88
458.395	60.88
459.172	67.88
459.95	75.88
460.728	82.88
461.506	90.88
462.283	100.88
463.061	113.88
463.838	126.88
464.615	138.88
465.393	153.88
466.17	172.88
466.947	191.88
467.724	216.88
468.501	240.88
469.278	267.88
470.055	294.88
470.831	333.88
471.608	372.88
472.385	417.88
473.161	458.88
473.938	504.88
474.714	563.88
475.49	633.88
476.266	702.88
477.043	777.88
477.819	843.88
478.595	934.88
479.371	1034.88
480.146	1143.88
480.922	1267.88
481.698	1407.88
482.473	1542.88
483.249	1693.88
484.024	1879.88
484.8	2071.88
485.575	2288.88
486.35	2515.88
487.126	2770.88
487.901	3041.88
488.676	3358.88
489.451	3708.88
490.225	4075.88
491	4461.88
491.775	4910.88
492.55	5373.88
493.324	5926.88
494.099	6481.88
494.873	7038.88
495.647	7649.88
496.422	8319.88
497.196	9003.88
497.97	9731.88
498.744	10492.88
499.518	11248.88
500.292	11971.88
501.066	12662.88
501.839	13345.88
502.613	14049.88
503.387	14699.88
504.16	15230.88
504.934	15688.88
505.707	15984.88
506.48	16274.88
507.253	16465.88
508.027	16579.88
508.8	16427.88
509.573	16293.88
510.346	16084.88
511.118	15746.88
511.891	15352.88
512.664	14875.88
513.437	14353.88
514.209	13864.88
514.982	13325.88
515.754	12760.88
516.526	12200.88
517.298	11672.88
518.071	11103.88
518.843	10613.88
519.615	10162.88
520.387	9727.88
521.159	9375.88
521.93	8982.88
522.702	8649.88
523.474	8271.88
524.245	7982.88
525.017	7638.88
525.788	7341.88
526.56	7064.88
527.331	6744.88
528.102	6446.88
528.873	6178.88
529.644	5880.88
530.415	5636.88
531.186	5359.88
531.957	5094.88
532.728	4845.88
533.498	4586.88
534.269	4308.88
535.039	4083.88
535.81	3862.88
536.58	3644.88
537.351	3453.88
538.121	3240.88
538.891	3045.88
539.661	2909.88
540.431	2737.88
541.201	2608.88
541.971	2455.88
542.741	2323.88
543.51	2219.88
544.28	2088.88
545.05	1989.88
545.819	1901.88
546.588	1817.88
547.358	1715.88
548.127	1640.88
548.896	1546.88
549.665	1482.88
550.434	1406.88
551.203	1321.88
551.972	1257.88
552.741	1187.88
553.51	1125.88
554.278	1058.88
555.047	987.88
555.815	946.88
556.584	897.88
557.352	832.88
558.121	790.88
558.889	750.88
559.657	712.88
560.425	659.88
561.193	630.88
561.961	598.88
562.729	551.88
563.496	530.88
564.264	486.88
565.032	467.88
565.799	440.88
566.567	418.88
567.334	393.88
568.101	376.88
568.869	352.88
569.636	329.88
570.403	313.88
571.17	291.88
571.937	280.88
572.704	267.88
573.471	250.88
574.237	236.88
575.004	218.88
575.771	205.88
576.537	198.88
577.303	182.88
578.07	169.88
578.836	158.88
579.602	150.88
580.368	142.88
581.134	135.88
581.9	128.88
582.666	120.88
583.432	118.88
584.198	108.88
584.964	98.88
585.729	96.88
586.495	90.88
587.26	87.88
588.025	81.88
588.791	74.88
589.556	70.88
590.321	69.88
591.086	65.88
591.851	62.88
592.616	57.88
593.381	58.88
594.146	51.88
594.911	49.88
595.675	47.88
596.44	44.88
597.204	42.88
597.969	41.88
598.733	39.88
599.497	35.88
600.261	35.88
601.025	33.88
601.79	32.88
602.553	30.88
603.317	29.88
604.081	27.88
604.845	28.88
605.609	25.88
606.372	24.88
607.136	21.88
607.899	20.88
608.662	21.88
609.426	22.88
610.189	18.88
610.952	16.88
611.715	18.88
612.478	16.88
613.241	16.88
614.004	18.88
614.767	19.88
615.529	14.88
616.292	14.88
617.055	14.88
617.817	12.88
618.579	11.88
619.342	11.88
620.104	11.88
620.866	13.88
621.628	11.88
622.39	11.88
623.152	9.88
623.914	7.88
624.676	9.88
625.438	6.88
626.199	9.88
626.961	7.88
627.722	9.88
628.484	5.88
629.245	6.88
630.006	6.88
630.768	7.88
631.529	6.88
632.29	5.88
633.051	6.88
633.812	8.88
634.573	5.88
635.333	5.88
636.094	4.88
636.855	2.88
637.615	3.88
638.376	5.88
639.136	4.88
639.896	4.88
640.657	5.88
641.417	3.88
642.177	4.88
642.937	4.88
643.697	3.88
644.457	4.88
645.216	4.88
645.976	4.88
646.736	1.88
647.495	3.88
648.255	1.88
649.014	4.88
649.774	2.88
650.533	1.88
651.292	3.88
652.051	2.88
652.81	2.88
653.569	2.88
654.328	2.88
655.087	2.88
655.846	1.88
656.604	2.88
657.363	1.88
658.121	4.88
658.88	3.88
659.638	1.88
660.397	2.88
661.155	1.88
661.913	5.88
662.671	1.88
663.429	1.88
664.187	2.88
664.945	2.88
665.703	2.88
666.46	1.88
667.218	3.88
667.976	0.88
668.733	1.88
669.49	1.88
670.248	1.88
671.005	2.88
671.762	1.88
672.519	2.88
673.276	1.88
674.033	1.88
674.79	0.88
675.547	2.88
676.304	0.88
677.06	4.88
677.817	2.88
678.574	0.88
679.33	2.88
680.086	3.88
680.843	2.88
681.599	1.88
682.355	0.88
683.111	2.88
683.867	0.88
684.623	0.88
685.379	1.88
686.135	2.88
686.89	1.88
687.646	3.88
688.402	1.88
689.157	1.88
689.912	2.88
690.668	2.88
691.423	0.88
692.178	1.88
692.933	1.88
693.688	1.88
694.443	1.88
695.198	-0.12
695.953	-0.12
696.708	-0.12
697.462	2.88
698.217	0.88
698.972	1.88
699.726	1.88
700.48	1.88
701.235	1.88
701.989	3.88
702.743	-3.12
703.497	-0.12
704.251	4.88
705.005	-1.12
705.759	2.88
706.513	2.88
707.266	1.88
708.02	1.88
708.774	1.88
709.527	0.88
710.28	0.88
711.034	-0.12
711.787	0.88
712.54	1.88
713.293	0.88
714.046	1.88
714.799	1.88
715.552	0.88
716.305	2.88
717.058	1.88
717.81	-0.12
718.563	2.88
719.315	1.88
720.068	3.88
720.82	2.88
721.573	2.88
722.325	-0.12
723.077	0.88
723.829	2.88
724.581	-0.12
725.333	1.88
726.085	1.88
726.836	0.88
727.588	0.88
728.34	0.88
729.091	1.88
729.843	2.88
730.594	1.88
731.346	1.88
732.097	2.88
732.848	1.88
733.599	0.88
734.35	1.88
735.101	0.88
735.852	1.88
736.603	2.88
737.354	2.88
738.104	2.88
738.855	1.88
739.605	2.88
740.356	1.88
741.106	2.88
741.856	-0.12
742.607	1.88
743.357	2.88
744.107	1.88
744.857	1.88
745.607	1.88
746.357	1.88
747.106	1.88
747.856	2.88
748.606	1.88
749.355	2.88
750.105	2.88
750.854	0.88
751.603	1.88
752.353	3.88
753.102	1.88
753.851	3.88
754.6	1.88
755.349	2.88
756.098	1.88
756.847	1.88
757.595	2.88
758.344	2.88
759.093	5.88
759.841	2.88
760.589	1.88
761.338	1.88
762.086	1.88
762.834	1.88
763.582	2.88
764.331	4.88
765.079	4.88
765.826	2.88
766.574	2.88
767.322	1.88
768.07	3.88
768.817	3.88
769.565	4.88
770.312	4.88
771.06	4.88
771.807	2.88
772.554	3.88
773.302	4.88
774.049	3.88
774.796	2.88
775.543	1.88
776.29	3.88
777.036	3.88
777.783	4.88
778.53	5.88
779.276	1.88
780.023	6.88
780.769	4.88
781.516	4.88
782.262	3.88
783.008	6.88
783.754	5.88
784.5	1.88
785.246	5.88
785.992	2.88
786.738	3.88
787.484	5.88
788.23	3.88
788.975	5.88
789.721	2.88
790.466	6.88
791.212	5.88
791.957	4.88
792.702	6.88
793.447	2.88
794.193	3.88
794.938	3.88
795.683	4.88
796.427	5.88
797.172	5.88
797.917	5.88
798.662	1.88
799.406	5.88
800.151	4.88
800.895	3.88
801.64	4.88
802.384	2.88
803.128	4.88
803.872	3.88
804.616	4.88
805.36	3.88
806.104	2.88
806.848	1.88
807.592	0.88
808.336	4.88
809.079	-0.12
809.823	3.88
810.566	1.88
811.31	4.88
812.053	5.88
812.796	0.88
813.539	0.88
814.283	2.88
815.026	1.88
815.769	3.88
816.511	2.88
817.254	3.88
817.997	1.88
818.74	1.88
819.482	1.88
820.225	3.88
820.967	3.88
821.71	1.88
822.452	2.88
823.194	0.88
823.936	0.88
824.678	2.88
825.42	2.88
826.162	1.88
826.904	3.88
827.646	1.88
828.388	0.88
829.129	2.88
829.871	1.88
830.612	0.88
831.354	4.88
832.095	2.88
832.836	0.88
833.577	1.88
834.319	3.88
835.06	0.88
835.801	1.88
836.542	4.88
837.282	1.88
838.023	1.88
838.764	1.88
839.504	2.88
840.245	1.88
840.985	4.88
841.726	0.88
842.466	2.88
843.206	1.88
843.946	0.88
844.687	2.88
845.427	0.88
846.166	3.88
846.906	-0.12
847.646	0.88
848.386	2.88
849.125	0.88
849.865	2.88
850.605	0.88
851.344	0.88
852.083	0.88
852.823	2.88
853.562	0.88
854.301	0.88
855.04	1.88
855.779	-0.12
856.518	1.88
857.257	-0.12
857.995	-0.12
858.734	0.88
859.473	-1.12
860.211	3.88
860.95	0.88
861.688	2.88
862.426	0.88
863.165	1.88
863.903	2.88
864.641	-0.12
865.379	1.88
866.117	-1.12
866.855	-0.12
867.593	0.88
868.33	-1.12
869.068	-0.12
869.806	0.88
870.543	1.88
871.28	-0.12
872.018	0.88
872.755	1.88
873.492	1.88
874.229	0.88
874.967	1.88
875.703	0.88
876.44	0.88
877.177	-0.12
877.914	2.88
878.651	1.88
879.387	1.88
880.124	0.88
880.86	1.88
881.597	1.88
882.333	1.88
883.069	0.88
883.806	0.88
884.542	-0.12
885.278	0.88
886.014	0.88
886.749	0.88
887.485	0.88
888.221	1.88
888.957	0.88
889.692	0.88
890.428	-1.12
891.163	0.88
891.899	0.88
892.634	1.88
893.369	1.88
894.104	-0.12
894.839	1.88
895.574	-1.12
896.309	-0.12
897.044	-1.12
897.779	-0.12
898.514	1.88
899.248	-2.12
899.983	1.88
900.717	-0.12
901.452	-0.12
902.186	0.88
902.92	0.88
903.654	-1.12
904.389	-0.12
905.123	-0.12
905.857	-0.12
906.59	-2.12
907.324	1.88
908.058	-0.12
908.792	0.88
909.525	-0.12
910.259	0.88
910.992	0.88
911.726	-0.12
912.459	0.88
913.192	0.88
913.925	-0.12
914.658	0.88
915.391	-1.12
916.124	-0.12
916.857	0.88
917.59	1.88
918.323	0.88
919.055	-0.12
919.788	-2.12
920.521	0.88
921.253	-1.12
921.985	0.88
922.718	1.88
923.45	0.88
924.182	0.88
924.914	0.88
925.646	0.88
926.378	-0.12
927.11	-0.12
927.841	-0.12
928.573	-1.12
929.305	0.88
930.036	-2.12
930.768	1.88
931.499	-0.12
932.23	1.88
932.962	0.88
933.693	-2.12
934.424	0.88
935.155	-0.12
935.886	-0.12
936.617	-0.12
937.348	1.88
938.078	1.88
938.809	-0.12
939.54	0.88
940.27	0.88
941.001	-0.12
941.731	-0.12
942.461	-1.12
943.191	-2.12
943.922	-0.12
944.652	-0.12
945.382	0.88
946.112	-1.12
946.841	-1.12
947.571	-2.12
948.301	0.88
949.031	0.88
949.76	-2.12
950.49	0.88
951.219	0.88
951.948	-1.12
952.678	-0.12
953.407	-0.12
954.136	-0.12
954.865	1.88
955.594	-0.12
956.323	0.88
957.052	1.88
957.78	-1.12
958.509	-0.12
959.238	-1.12
959.966	-0.12
960.695	-0.12
961.423	-1.12
962.151	-0.12
962.88	-0.12
963.608	0.88
964.336	-2.12
965.064	-0.12
965.792	-2.12
966.52	-0.12
967.247	-1.12
967.975	-2.12
968.703	-0.12
969.43	-1.12
970.158	-2.12
970.885	1.88
971.613	0.88
972.34	0.88
973.067	-1.12
973.794	-0.12
974.521	-2.12
975.248	0.88
975.975	-1.12
976.702	-2.12
977.429	-0.12
978.156	-3.12
978.882	-0.12
979.609	-1.12
980.335	-0.12
981.062	0.88
981.788	2.88
982.514	-0.12
983.24	0.88
983.967	0.88
984.693	-3.12
985.419	0.88
986.144	-3.12
986.87	0.88
987.596	-1.12
988.322	-2.12
989.047	0.88
989.773	-0.12
990.498	-0.12
991.224	-1.12
991.949	-0.12
992.674	0.88
993.399	-1.12
994.124	-0.12
994.849	-2.12
995.574	-1.12
996.299	-0.12
997.024	-0.12
997.749	0.88
998.473	-0.12
999.198	-0.12
999.922	-1.12
1000.647	-0.12
1001.371	1.88
1002.095	-3.12
1002.82	0.88
1003.544	-0.12
1004.268	-1.12
1004.992	-0.12
1005.716	-2.12
1006.439	-2.12
1007.163	-0.12
1007.887	-0.12
1008.611	-0.12
1009.334	1.88
1010.058	-1.12
1010.781	0.88
1011.504	1.88
1012.228	-0.12
1012.951	0.88
1013.674	1.88
1014.397	-0.12
1015.12	-2.12
