节点500_145_QEPB04081__594__11-38-23-378.txt的数据

Date: Wed Nov 12 11:38:23 CST 2025
User: PC
Spectrometer: QEPB0408
触发模式: 0
积分时间 (秒): 1.000000E-2
Scans to average: 1
启用暗噪声校正: true
启用非线性校正: false
滑动平均宽度: 0
X轴模式: Wavelengths
Number of Pixels in Spectrum: 1044
>>>>>Begin Spectral Data<<<<<
220.843	-0.38
221.644	-1.38
222.444	-1.38
223.244	1.62
224.045	-0.38
224.845	0.62
225.645	1.62
226.445	-0.38
227.245	-0.38
228.045	0.62
228.845	1.62
229.645	2.62
230.444	-1.38
231.244	1.62
232.043	2.62
232.843	-0.38
233.642	0.62
234.442	1.62
235.241	2.62
236.04	-1.38
236.839	1.62
237.638	-1.38
238.437	2.62
239.236	1.62
240.035	0.62
240.833	0.62
241.632	-0.38
242.43	1.62
243.229	0.62
244.027	3.62
244.826	0.62
245.624	-0.38
246.422	2.62
247.22	0.62
248.018	3.62
248.816	2.62
249.614	1.62
250.412	1.62
251.21	1.62
252.007	1.62
252.805	1.62
253.602	3.62
254.4	3.62
255.197	2.62
255.994	2.62
256.791	1.62
257.589	4.62
258.386	2.62
259.183	1.62
259.979	4.62
260.776	2.62
261.573	1.62
262.37	4.62
263.166	3.62
263.963	4.62
264.759	5.62
265.556	3.62
266.352	3.62
267.148	5.62
267.944	3.62
268.74	6.62
269.536	9.62
270.332	7.62
271.128	6.62
271.924	4.62
272.719	6.62
273.515	6.62
274.311	6.62
275.106	8.62
275.901	8.62
276.697	9.62
277.492	7.62
278.287	8.62
279.082	4.62
279.877	8.62
280.672	5.62
281.467	7.62
282.262	9.62
283.056	10.62
283.851	8.62
284.646	7.62
285.44	7.62
286.234	8.62
287.029	9.62
287.823	8.62
288.617	7.62
289.411	11.62
290.205	9.62
290.999	7.62
291.793	5.62
292.587	9.62
293.381	8.62
294.174	8.62
294.968	9.62
295.761	8.62
296.555	7.62
297.348	6.62
298.141	7.62
298.935	9.62
299.728	6.62
300.521	8.62
301.314	7.62
302.107	5.62
302.899	6.62
303.692	7.62
304.485	7.62
305.277	8.62
306.07	7.62
306.862	7.62
307.655	7.62
308.447	7.62
309.239	7.62
310.031	6.62
310.823	7.62
311.615	4.62
312.407	4.62
313.199	7.62
313.991	7.62
314.783	4.62
315.574	4.62
316.366	2.62
317.157	7.62
317.949	5.62
318.74	5.62
319.531	4.62
320.322	5.62
321.113	3.62
321.904	3.62
322.695	6.62
323.486	3.62
324.277	2.62
325.068	4.62
325.858	2.62
326.649	4.62
327.439	3.62
328.23	5.62
329.02	4.62
329.81	1.62
330.6	1.62
331.391	0.62
332.181	4.62
332.971	2.62
333.76	3.62
334.55	4.62
335.34	3.62
336.13	3.62
336.919	1.62
337.709	3.62
338.498	2.62
339.287	5.62
340.077	2.62
340.866	2.62
341.655	4.62
342.444	3.62
343.233	4.62
344.022	4.62
344.811	5.62
345.6	2.62
346.388	1.62
347.177	2.62
347.965	3.62
348.754	5.62
349.542	4.62
350.33	3.62
351.119	4.62
351.907	1.62
352.695	2.62
353.483	5.62
354.271	1.62
355.059	1.62
355.846	3.62
356.634	2.62
357.422	1.62
358.209	1.62
358.997	2.62
359.784	4.62
360.571	3.62
361.359	2.62
362.146	2.62
362.933	1.62
363.72	2.62
364.507	1.62
365.294	2.62
366.081	0.62
366.867	3.62
367.654	2.62
368.44	1.62
369.227	2.62
370.013	3.62
370.8	3.62
371.586	3.62
372.372	1.62
373.158	2.62
373.944	1.62
374.73	3.62
375.516	4.62
376.302	2.62
377.088	4.62
377.873	2.62
378.659	2.62
379.445	3.62
380.23	2.62
381.015	3.62
381.801	4.62
382.586	1.62
383.371	2.62
384.156	5.62
384.941	1.62
385.726	2.62
386.511	4.62
387.296	4.62
388.08	2.62
388.865	3.62
389.649	3.62
390.434	1.62
391.218	1.62
392.003	2.62
392.787	2.62
393.571	2.62
394.355	1.62
395.139	2.62
395.923	3.62
396.707	2.62
397.491	3.62
398.274	5.62
399.058	1.62
399.842	3.62
400.625	3.62
401.408	4.62
402.192	3.62
402.975	3.62
403.758	0.62
404.541	2.62
405.324	3.62
406.107	4.62
406.89	1.62
407.673	3.62
408.456	2.62
409.238	2.62
410.021	3.62
410.803	2.62
411.586	5.62
412.368	3.62
413.151	4.62
413.933	3.62
414.715	7.62
415.497	4.62
416.279	0.62
417.061	5.62
417.843	2.62
418.624	3.62
419.406	4.62
420.188	4.62
420.969	4.62
421.751	4.62
422.532	4.62
423.313	3.62
424.095	5.62
424.876	6.62
425.657	1.62
426.438	5.62
427.219	2.62
428	6.62
428.78	5.62
429.561	7.62
430.342	2.62
431.122	6.62
431.903	7.62
432.683	6.62
433.464	8.62
434.244	5.62
435.024	6.62
435.804	7.62
436.584	7.62
437.364	9.62
438.144	10.62
438.924	9.62
439.704	9.62
440.483	10.62
441.263	12.62
442.042	10.62
442.822	12.62
443.601	13.62
444.38	13.62
445.16	13.62
445.939	14.62
446.718	15.62
447.497	16.62
448.276	19.62
449.054	18.62
449.833	21.62
450.612	24.62
451.391	22.62
452.169	28.62
452.948	32.62
453.726	29.62
454.504	37.62
455.282	41.62
456.061	44.62
456.839	46.62
457.617	53.62
458.395	55.62
459.172	65.62
459.95	70.62
460.728	77.62
461.506	91.62
462.283	96.62
463.061	108.62
463.838	121.62
464.615	125.62
465.393	144.62
466.17	166.62
466.947	189.62
467.724	205.62
468.501	225.62
469.278	259.62
470.055	282.62
470.831	300.62
471.608	345.62
472.385	374.62
473.161	420.62
473.938	466.62
474.714	517.62
475.49	568.62
476.266	619.62
477.043	686.62
477.819	770.62
478.595	833.62
479.371	925.62
480.146	1003.62
480.922	1094.62
481.698	1213.62
482.473	1324.62
483.249	1449.62
484.024	1607.62
484.8	1735.62
485.575	1922.62
486.35	2085.62
487.126	2279.62
487.901	2509.62
488.676	2733.62
489.451	3006.62
490.225	3271.62
491	3591.62
491.775	3896.62
492.55	4231.62
493.324	4654.62
494.099	5035.62
494.873	5495.62
495.647	5950.62
496.422	6426.62
497.196	6961.62
497.97	7496.62
498.744	8061.62
499.518	8631.62
500.292	9170.62
501.066	9770.62
501.839	10297.62
502.613	10851.62
503.387	11341.62
504.16	11800.62
504.934	12274.62
505.707	12569.62
506.48	12894.62
507.253	13101.62
508.027	13202.62
508.8	13351.62
509.573	13295.62
510.346	13191.62
511.118	13050.62
511.891	12754.62
512.664	12488.62
513.437	12160.62
514.209	11810.62
514.982	11374.62
515.754	10970.62
516.526	10550.62
517.298	10125.62
518.071	9673.62
518.843	9260.62
519.615	8890.62
520.387	8547.62
521.159	8169.62
521.93	7888.62
522.702	7556.62
523.474	7265.62
524.245	6995.62
525.017	6686.62
525.788	6383.62
526.56	6179.62
527.331	5925.62
528.102	5665.62
528.873	5410.62
529.644	5182.62
530.415	4967.62
531.186	4763.62
531.957	4527.62
532.728	4321.62
533.498	4103.62
534.269	3884.62
535.039	3661.62
535.81	3488.62
536.58	3292.62
537.351	3105.62
538.121	2947.62
538.891	2817.62
539.661	2637.62
540.431	2500.62
541.201	2359.62
541.971	2230.62
542.741	2104.62
543.51	2023.62
544.28	1899.62
545.05	1821.62
545.819	1718.62
546.588	1645.62
547.358	1562.62
548.127	1471.62
548.896	1409.62
549.665	1339.62
550.434	1267.62
551.203	1203.62
551.972	1141.62
552.741	1082.62
553.51	1026.62
554.278	973.62
555.047	928.62
555.815	870.62
556.584	820.62
557.352	763.62
558.121	723.62
558.889	682.62
559.657	652.62
560.425	612.62
561.193	581.62
561.961	544.62
562.729	520.62
563.496	494.62
564.264	463.62
565.032	436.62
565.799	412.62
566.567	391.62
567.334	360.62
568.101	344.62
568.869	329.62
569.636	303.62
570.403	286.62
571.17	272.62
571.937	261.62
572.704	247.62
573.471	232.62
574.237	216.62
575.004	204.62
575.771	193.62
576.537	180.62
577.303	171.62
578.07	161.62
578.836	146.62
579.602	141.62
580.368	135.62
581.134	130.62
581.9	120.62
582.666	115.62
583.432	103.62
584.198	100.62
584.964	97.62
585.729	92.62
586.495	81.62
587.26	86.62
588.025	77.62
588.791	74.62
589.556	72.62
590.321	65.62
591.086	64.62
591.851	57.62
592.616	54.62
593.381	52.62
594.146	51.62
594.911	50.62
595.675	41.62
596.44	47.62
597.204	40.62
597.969	41.62
598.733	38.62
599.497	34.62
600.261	37.62
601.025	30.62
601.79	29.62
602.553	30.62
603.317	27.62
604.081	28.62
604.845	23.62
605.609	25.62
606.372	20.62
607.136	23.62
607.899	23.62
608.662	19.62
609.426	19.62
610.189	17.62
610.952	17.62
611.715	17.62
612.478	16.62
613.241	16.62
614.004	14.62
614.767	17.62
615.529	13.62
616.292	19.62
617.055	13.62
617.817	13.62
618.579	11.62
619.342	14.62
620.104	13.62
620.866	10.62
621.628	11.62
622.39	10.62
623.152	8.62
623.914	9.62
624.676	8.62
625.438	9.62
626.199	7.62
626.961	6.62
627.722	8.62
628.484	6.62
629.245	6.62
630.006	7.62
630.768	6.62
631.529	9.62
632.29	7.62
633.051	8.62
633.812	6.62
634.573	6.62
635.333	7.62
636.094	6.62
636.855	5.62
637.615	4.62
638.376	5.62
639.136	4.62
639.896	4.62
640.657	5.62
641.417	5.62
642.177	4.62
642.937	4.62
643.697	7.62
644.457	4.62
645.216	4.62
645.976	2.62
646.736	3.62
647.495	2.62
648.255	2.62
649.014	3.62
649.774	4.62
650.533	2.62
651.292	3.62
652.051	5.62
652.81	3.62
653.569	3.62
654.328	4.62
655.087	4.62
655.846	3.62
656.604	3.62
657.363	2.62
658.121	2.62
658.88	5.62
659.638	2.62
660.397	2.62
661.155	3.62
661.913	3.62
662.671	1.62
663.429	0.62
664.187	2.62
664.945	3.62
665.703	2.62
666.46	0.62
667.218	3.62
667.976	2.62
668.733	2.62
669.49	2.62
670.248	4.62
671.005	2.62
671.762	2.62
672.519	2.62
673.276	2.62
674.033	1.62
674.79	2.62
675.547	3.62
676.304	1.62
677.06	3.62
677.817	3.62
678.574	1.62
679.33	0.62
680.086	1.62
680.843	0.62
681.599	0.62
682.355	5.62
683.111	2.62
683.867	4.62
684.623	3.62
685.379	3.62
686.135	1.62
686.89	1.62
687.646	2.62
688.402	0.62
689.157	3.62
689.912	2.62
690.668	2.62
691.423	1.62
692.178	0.62
692.933	3.62
693.688	0.62
694.443	2.62
695.198	1.62
695.953	1.62
696.708	2.62
697.462	2.62
698.217	0.62
698.972	2.62
699.726	1.62
700.48	3.62
701.235	2.62
701.989	2.62
702.743	2.62
703.497	3.62
704.251	2.62
705.005	-0.38
705.759	2.62
706.513	0.62
707.266	3.62
708.02	-0.38
708.774	2.62
709.527	1.62
710.28	0.62
711.034	1.62
711.787	1.62
712.54	1.62
713.293	2.62
714.046	1.62
714.799	2.62
715.552	1.62
716.305	2.62
717.058	0.62
717.81	1.62
718.563	0.62
719.315	2.62
720.068	1.62
720.82	3.62
721.573	3.62
722.325	0.62
723.077	2.62
723.829	2.62
724.581	-1.38
725.333	3.62
726.085	1.62
726.836	0.62
727.588	2.62
728.34	2.62
729.091	1.62
729.843	2.62
730.594	0.62
731.346	0.62
732.097	2.62
732.848	4.62
733.599	0.62
734.35	3.62
735.101	3.62
735.852	1.62
736.603	0.62
737.354	-0.38
738.104	1.62
738.855	2.62
739.605	1.62
740.356	2.62
741.106	4.62
741.856	2.62
742.607	4.62
743.357	1.62
744.107	2.62
744.857	1.62
745.607	1.62
746.357	1.62
747.106	2.62
747.856	3.62
748.606	2.62
749.355	2.62
750.105	2.62
750.854	2.62
751.603	1.62
752.353	2.62
753.102	-0.38
753.851	1.62
754.6	3.62
755.349	3.62
756.098	0.62
756.847	2.62
757.595	1.62
758.344	0.62
759.093	1.62
759.841	3.62
760.589	3.62
761.338	3.62
762.086	2.62
762.834	3.62
763.582	5.62
764.331	4.62
765.079	2.62
765.826	6.62
766.574	5.62
767.322	0.62
768.07	3.62
768.817	4.62
769.565	3.62
770.312	3.62
771.06	3.62
771.807	3.62
772.554	5.62
773.302	4.62
774.049	3.62
774.796	5.62
775.543	2.62
776.29	3.62
777.036	5.62
777.783	2.62
778.53	3.62
779.276	5.62
780.023	2.62
780.769	4.62
781.516	6.62
782.262	5.62
783.008	4.62
783.754	4.62
784.5	4.62
785.246	5.62
785.992	5.62
786.738	4.62
787.484	6.62
788.23	4.62
788.975	3.62
789.721	3.62
790.466	2.62
791.212	4.62
791.957	3.62
792.702	1.62
793.447	4.62
794.193	6.62
794.938	6.62
795.683	3.62
796.427	5.62
797.172	4.62
797.917	3.62
798.662	4.62
799.406	2.62
800.151	4.62
800.895	3.62
801.64	5.62
802.384	1.62
803.128	5.62
803.872	2.62
804.616	1.62
805.36	3.62
806.104	7.62
806.848	2.62
807.592	4.62
808.336	5.62
809.079	5.62
809.823	3.62
810.566	5.62
811.31	2.62
812.053	3.62
812.796	2.62
813.539	3.62
814.283	2.62
815.026	1.62
815.769	2.62
816.511	4.62
817.254	4.62
817.997	2.62
818.74	4.62
819.482	2.62
820.225	1.62
820.967	3.62
821.71	1.62
822.452	3.62
823.194	2.62
823.936	2.62
824.678	2.62
825.42	1.62
826.162	1.62
826.904	2.62
827.646	3.62
828.388	2.62
829.129	3.62
829.871	2.62
830.612	-0.38
831.354	3.62
832.095	2.62
832.836	2.62
833.577	2.62
834.319	4.62
835.06	2.62
835.801	3.62
836.542	3.62
837.282	3.62
838.023	2.62
838.764	2.62
839.504	2.62
840.245	2.62
840.985	2.62
841.726	4.62
842.466	0.62
843.206	0.62
843.946	1.62
844.687	2.62
845.427	2.62
846.166	-0.38
846.906	2.62
847.646	1.62
848.386	1.62
849.125	1.62
849.865	3.62
850.605	3.62
851.344	0.62
852.083	2.62
852.823	1.62
853.562	1.62
854.301	3.62
855.04	3.62
855.779	0.62
856.518	3.62
857.257	2.62
857.995	1.62
858.734	2.62
859.473	0.62
860.211	-0.38
860.95	1.62
861.688	0.62
862.426	1.62
863.165	1.62
863.903	1.62
864.641	0.62
865.379	0.62
866.117	1.62
866.855	1.62
867.593	0.62
868.33	2.62
869.068	-0.38
869.806	3.62
870.543	2.62
871.28	1.62
872.018	0.62
872.755	0.62
873.492	2.62
874.229	1.62
874.967	1.62
875.703	0.62
876.44	1.62
877.177	0.62
877.914	1.62
878.651	0.62
879.387	-0.38
880.124	0.62
880.86	1.62
881.597	2.62
882.333	-1.38
883.069	1.62
883.806	1.62
884.542	0.62
885.278	0.62
886.014	1.62
886.749	2.62
887.485	0.62
888.221	0.62
888.957	0.62
889.692	1.62
890.428	2.62
891.163	0.62
891.899	1.62
892.634	-0.38
893.369	3.62
894.104	0.62
894.839	-0.38
895.574	0.62
896.309	-0.38
897.044	0.62
897.779	-1.38
898.514	1.62
899.248	0.62
899.983	-0.38
900.717	0.62
901.452	1.62
902.186	-0.38
902.92	0.62
903.654	-0.38
904.389	0.62
905.123	-1.38
905.857	0.62
906.59	-0.38
907.324	1.62
908.058	1.62
908.792	-0.38
909.525	-0.38
910.259	1.62
910.992	-0.38
911.726	-1.38
912.459	-1.38
913.192	0.62
913.925	-0.38
914.658	1.62
915.391	-1.38
916.124	0.62
916.857	-0.38
917.59	1.62
918.323	2.62
919.055	0.62
919.788	0.62
920.521	0.62
921.253	2.62
921.985	0.62
922.718	-0.38
923.45	0.62
924.182	1.62
924.914	-1.38
925.646	-0.38
926.378	1.62
927.11	-1.38
927.841	1.62
928.573	-2.38
929.305	-2.38
930.036	1.62
930.768	0.62
931.499	0.62
932.23	0.62
932.962	3.62
933.693	0.62
934.424	1.62
935.155	1.62
935.886	-0.38
936.617	-0.38
937.348	0.62
938.078	-0.38
938.809	-1.38
939.54	-0.38
940.27	2.62
941.001	-1.38
941.731	-0.38
942.461	0.62
943.191	-1.38
943.922	1.62
944.652	0.62
945.382	1.62
946.112	0.62
946.841	-1.38
947.571	1.62
948.301	1.62
949.031	0.62
949.76	-0.38
950.49	-1.38
951.219	-0.38
951.948	0.62
952.678	0.62
953.407	-2.38
954.136	0.62
954.865	-0.38
955.594	1.62
956.323	1.62
957.052	0.62
957.78	0.62
958.509	1.62
959.238	0.62
959.966	0.62
960.695	1.62
961.423	1.62
962.151	2.62
962.88	0.62
963.608	-1.38
964.336	0.62
965.064	1.62
965.792	1.62
966.52	1.62
967.247	0.62
967.975	1.62
968.703	-1.38
969.43	1.62
970.158	0.62
970.885	0.62
971.613	1.62
972.34	0.62
973.067	1.62
973.794	-0.38
974.521	-0.38
975.248	-1.38
975.975	0.62
976.702	1.62
977.429	2.62
978.156	0.62
978.882	-1.38
979.609	-0.38
980.335	-1.38
981.062	2.62
981.788	0.62
982.514	0.62
983.24	-1.38
983.967	-0.38
984.693	2.62
985.419	-0.38
986.144	-1.38
986.87	1.62
987.596	-0.38
988.322	0.62
989.047	1.62
989.773	2.62
990.498	-0.38
991.224	0.62
991.949	0.62
992.674	0.62
993.399	-1.38
994.124	1.62
994.849	-1.38
995.574	-2.38
996.299	1.62
997.024	-1.38
997.749	0.62
998.473	-0.38
999.198	-0.38
999.922	0.62
1000.647	0.62
1001.371	2.62
1002.095	-2.38
1002.82	1.62
1003.544	-1.38
1004.268	-0.38
1004.992	-0.38
1005.716	-1.38
1006.439	1.62
1007.163	-3.38
1007.887	2.62
1008.611	0.62
1009.334	-1.38
1010.058	-1.38
1010.781	0.62
1011.504	0.62
1012.228	2.62
1012.951	-0.38
1013.674	-1.38
1014.397	1.62
1015.12	-0.38
