节点500_145_QEPB04081__406__11-35-27-556.txt的数据

Date: Wed Nov 12 11:35:27 CST 2025
User: PC
Spectrometer: QEPB0408
触发模式: 0
积分时间 (秒): 1.000000E-2
Scans to average: 1
启用暗噪声校正: true
启用非线性校正: false
滑动平均宽度: 0
X轴模式: Wavelengths
Number of Pixels in Spectrum: 1044
>>>>>Begin Spectral Data<<<<<
220.843	0.5
221.644	0.5
222.444	1.5
223.244	0.5
224.045	-1.5
224.845	-0.5
225.645	1.5
226.445	0.5
227.245	-1.5
228.045	1.5
228.845	1.5
229.645	-0.5
230.444	0.5
231.244	0.5
232.043	0.5
232.843	3.5
233.642	2.5
234.442	2.5
235.241	2.5
236.04	1.5
236.839	2.5
237.638	2.5
238.437	1.5
239.236	-0.5
240.035	0.5
240.833	1.5
241.632	0.5
242.43	3.5
243.229	1.5
244.027	0.5
244.826	2.5
245.624	0.5
246.422	1.5
247.22	-0.5
248.018	2.5
248.816	1.5
249.614	1.5
250.412	2.5
251.21	2.5
252.007	1.5
252.805	2.5
253.602	3.5
254.4	3.5
255.197	3.5
255.994	2.5
256.791	5.5
257.589	5.5
258.386	3.5
259.183	4.5
259.979	5.5
260.776	4.5
261.573	5.5
262.37	3.5
263.166	3.5
263.963	7.5
264.759	4.5
265.556	5.5
266.352	8.5
267.148	6.5
267.944	6.5
268.74	7.5
269.536	6.5
270.332	5.5
271.128	7.5
271.924	7.5
272.719	9.5
273.515	8.5
274.311	8.5
275.106	8.5
275.901	9.5
276.697	9.5
277.492	5.5
278.287	9.5
279.082	9.5
279.877	8.5
280.672	8.5
281.467	11.5
282.262	12.5
283.056	9.5
283.851	7.5
284.646	10.5
285.44	9.5
286.234	11.5
287.029	9.5
287.823	12.5
288.617	10.5
289.411	11.5
290.205	10.5
290.999	13.5
291.793	9.5
292.587	13.5
293.381	9.5
294.174	9.5
294.968	10.5
295.761	6.5
296.555	11.5
297.348	8.5
298.141	8.5
298.935	10.5
299.728	10.5
300.521	10.5
301.314	10.5
302.107	11.5
302.899	8.5
303.692	7.5
304.485	5.5
305.277	8.5
306.07	8.5
306.862	7.5
307.655	10.5
308.447	7.5
309.239	7.5
310.031	5.5
310.823	6.5
311.615	6.5
312.407	6.5
313.199	6.5
313.991	7.5
314.783	4.5
315.574	6.5
316.366	6.5
317.157	5.5
317.949	4.5
318.74	7.5
319.531	3.5
320.322	5.5
321.113	6.5
321.904	5.5
322.695	4.5
323.486	2.5
324.277	7.5
325.068	2.5
325.858	3.5
326.649	2.5
327.439	4.5
328.23	3.5
329.02	5.5
329.81	3.5
330.6	4.5
331.391	4.5
332.181	4.5
332.971	2.5
333.76	1.5
334.55	1.5
335.34	2.5
336.13	4.5
336.919	3.5
337.709	3.5
338.498	4.5
339.287	4.5
340.077	5.5
340.866	6.5
341.655	4.5
342.444	3.5
343.233	4.5
344.022	3.5
344.811	2.5
345.6	2.5
346.388	1.5
347.177	2.5
347.965	3.5
348.754	3.5
349.542	3.5
350.33	2.5
351.119	4.5
351.907	4.5
352.695	4.5
353.483	3.5
354.271	3.5
355.059	1.5
355.846	2.5
356.634	3.5
357.422	3.5
358.209	3.5
358.997	2.5
359.784	3.5
360.571	3.5
361.359	1.5
362.146	4.5
362.933	1.5
363.72	2.5
364.507	2.5
365.294	3.5
366.081	5.5
366.867	2.5
367.654	2.5
368.44	0.5
369.227	3.5
370.013	2.5
370.8	6.5
371.586	0.5
372.372	2.5
373.158	3.5
373.944	5.5
374.73	4.5
375.516	2.5
376.302	1.5
377.088	1.5
377.873	4.5
378.659	1.5
379.445	2.5
380.23	4.5
381.015	-0.5
381.801	2.5
382.586	2.5
383.371	2.5
384.156	1.5
384.941	3.5
385.726	2.5
386.511	4.5
387.296	5.5
388.08	1.5
388.865	4.5
389.649	2.5
390.434	4.5
391.218	1.5
392.003	2.5
392.787	3.5
393.571	6.5
394.355	2.5
395.139	2.5
395.923	2.5
396.707	5.5
397.491	5.5
398.274	1.5
399.058	1.5
399.842	2.5
400.625	5.5
401.408	6.5
402.192	3.5
402.975	3.5
403.758	5.5
404.541	3.5
405.324	1.5
406.107	5.5
406.89	3.5
407.673	2.5
408.456	5.5
409.238	2.5
410.021	2.5
410.803	4.5
411.586	6.5
412.368	4.5
413.151	5.5
413.933	6.5
414.715	3.5
415.497	7.5
416.279	3.5
417.061	5.5
417.843	4.5
418.624	4.5
419.406	4.5
420.188	3.5
420.969	4.5
421.751	6.5
422.532	5.5
423.313	6.5
424.095	4.5
424.876	8.5
425.657	5.5
426.438	7.5
427.219	6.5
428	7.5
428.78	5.5
429.561	7.5
430.342	5.5
431.122	7.5
431.903	6.5
432.683	7.5
433.464	5.5
434.244	9.5
435.024	8.5
435.804	9.5
436.584	11.5
437.364	12.5
438.144	7.5
438.924	12.5
439.704	10.5
440.483	10.5
441.263	11.5
442.042	11.5
442.822	14.5
443.601	14.5
444.38	16.5
445.16	18.5
445.939	15.5
446.718	17.5
447.497	19.5
448.276	20.5
449.054	21.5
449.833	25.5
450.612	26.5
451.391	30.5
452.169	30.5
452.948	29.5
453.726	32.5
454.504	39.5
455.282	44.5
456.061	45.5
456.839	50.5
457.617	58.5
458.395	61.5
459.172	69.5
459.95	77.5
460.728	90.5
461.506	100.5
462.283	105.5
463.061	119.5
463.838	134.5
464.615	146.5
465.393	165.5
466.17	184.5
466.947	201.5
467.724	231.5
468.501	249.5
469.278	281.5
470.055	310.5
470.831	345.5
471.608	385.5
472.385	428.5
473.161	477.5
473.938	522.5
474.714	586.5
475.49	640.5
476.266	705.5
477.043	790.5
477.819	854.5
478.595	953.5
479.371	1053.5
480.146	1161.5
480.922	1276.5
481.698	1406.5
482.473	1551.5
483.249	1696.5
484.024	1874.5
484.8	2068.5
485.575	2257.5
486.35	2482.5
487.126	2727.5
487.901	3009.5
488.676	3305.5
489.451	3622.5
490.225	3973.5
491	4344.5
491.775	4748.5
492.55	5196.5
493.324	5663.5
494.099	6198.5
494.873	6755.5
495.647	7292.5
496.422	7990.5
497.196	8601.5
497.97	9292.5
498.744	9983.5
499.518	10676.5
500.292	11396.5
501.066	12127.5
501.839	12788.5
502.613	13424.5
503.387	14029.5
504.16	14570.5
504.934	15048.5
505.707	15466.5
506.48	15779.5
507.253	15973.5
508.027	16125.5
508.8	16077.5
509.573	16013.5
510.346	15779.5
511.118	15552.5
511.891	15170.5
512.664	14731.5
513.437	14338.5
514.209	13848.5
514.982	13299.5
515.754	12801.5
516.526	12275.5
517.298	11758.5
518.071	11175.5
518.843	10742.5
519.615	10297.5
520.387	9860.5
521.159	9452.5
521.93	9054.5
522.702	8724.5
523.474	8350.5
524.245	8029.5
525.017	7713.5
525.788	7396.5
526.56	7094.5
527.331	6837.5
528.102	6548.5
528.873	6265.5
529.644	5978.5
530.415	5718.5
531.186	5433.5
531.957	5155.5
532.728	4913.5
533.498	4658.5
534.269	4424.5
535.039	4185.5
535.81	3948.5
536.58	3732.5
537.351	3538.5
538.121	3341.5
538.891	3177.5
539.661	2986.5
540.431	2794.5
541.201	2666.5
541.971	2525.5
542.741	2389.5
543.51	2262.5
544.28	2152.5
545.05	2042.5
545.819	1955.5
546.588	1851.5
547.358	1757.5
548.127	1666.5
548.896	1593.5
549.665	1490.5
550.434	1410.5
551.203	1347.5
551.972	1290.5
552.741	1216.5
553.51	1156.5
554.278	1095.5
555.047	1027.5
555.815	961.5
556.584	928.5
557.352	862.5
558.121	826.5
558.889	775.5
559.657	732.5
560.425	685.5
561.193	638.5
561.961	606.5
562.729	579.5
563.496	548.5
564.264	520.5
565.032	496.5
565.799	453.5
566.567	430.5
567.334	411.5
568.101	389.5
568.869	358.5
569.636	340.5
570.403	321.5
571.17	309.5
571.937	290.5
572.704	265.5
573.471	255.5
574.237	242.5
575.004	230.5
575.771	213.5
576.537	198.5
577.303	184.5
578.07	185.5
578.836	168.5
579.602	161.5
580.368	148.5
581.134	144.5
581.9	140.5
582.666	129.5
583.432	120.5
584.198	114.5
584.964	106.5
585.729	101.5
586.495	98.5
587.26	90.5
588.025	86.5
588.791	79.5
589.556	78.5
590.321	71.5
591.086	72.5
591.851	68.5
592.616	60.5
593.381	62.5
594.146	54.5
594.911	52.5
595.675	49.5
596.44	46.5
597.204	46.5
597.969	45.5
598.733	41.5
599.497	38.5
600.261	39.5
601.025	37.5
601.79	35.5
602.553	30.5
603.317	32.5
604.081	27.5
604.845	28.5
605.609	30.5
606.372	24.5
607.136	26.5
607.899	24.5
608.662	24.5
609.426	22.5
610.189	19.5
610.952	21.5
611.715	18.5
612.478	19.5
613.241	16.5
614.004	16.5
614.767	17.5
615.529	15.5
616.292	15.5
617.055	17.5
617.817	14.5
618.579	15.5
619.342	13.5
620.104	11.5
620.866	12.5
621.628	14.5
622.39	11.5
623.152	14.5
623.914	12.5
624.676	8.5
625.438	10.5
626.199	9.5
626.961	10.5
627.722	8.5
628.484	8.5
629.245	9.5
630.006	7.5
630.768	9.5
631.529	10.5
632.29	8.5
633.051	6.5
633.812	7.5
634.573	9.5
635.333	6.5
636.094	4.5
636.855	5.5
637.615	5.5
638.376	6.5
639.136	7.5
639.896	4.5
640.657	4.5
641.417	4.5
642.177	7.5
642.937	6.5
643.697	6.5
644.457	5.5
645.216	5.5
645.976	6.5
646.736	6.5
647.495	4.5
648.255	6.5
649.014	3.5
649.774	2.5
650.533	5.5
651.292	3.5
652.051	6.5
652.81	2.5
653.569	4.5
654.328	3.5
655.087	4.5
655.846	3.5
656.604	2.5
657.363	4.5
658.121	3.5
658.88	3.5
659.638	1.5
660.397	4.5
661.155	2.5
661.913	3.5
662.671	1.5
663.429	3.5
664.187	5.5
664.945	2.5
665.703	2.5
666.46	3.5
667.218	1.5
667.976	4.5
668.733	2.5
669.49	3.5
670.248	3.5
671.005	1.5
671.762	3.5
672.519	2.5
673.276	2.5
674.033	0.5
674.79	2.5
675.547	2.5
676.304	0.5
677.06	1.5
677.817	2.5
678.574	1.5
679.33	3.5
680.086	1.5
680.843	3.5
681.599	2.5
682.355	2.5
683.111	1.5
683.867	4.5
684.623	3.5
685.379	5.5
686.135	1.5
686.89	-0.5
687.646	2.5
688.402	1.5
689.157	5.5
689.912	3.5
690.668	2.5
691.423	2.5
692.178	3.5
692.933	1.5
693.688	1.5
694.443	3.5
695.198	1.5
695.953	3.5
696.708	0.5
697.462	1.5
698.217	1.5
698.972	2.5
699.726	2.5
700.48	2.5
701.235	1.5
701.989	4.5
702.743	1.5
703.497	2.5
704.251	2.5
705.005	3.5
705.759	2.5
706.513	1.5
707.266	3.5
708.02	2.5
708.774	3.5
709.527	2.5
710.28	3.5
711.034	0.5
711.787	0.5
712.54	3.5
713.293	3.5
714.046	2.5
714.799	-0.5
715.552	1.5
716.305	1.5
717.058	1.5
717.81	3.5
718.563	2.5
719.315	4.5
720.068	3.5
720.82	1.5
721.573	1.5
722.325	3.5
723.077	1.5
723.829	2.5
724.581	3.5
725.333	0.5
726.085	1.5
726.836	2.5
727.588	1.5
728.34	2.5
729.091	0.5
729.843	2.5
730.594	3.5
731.346	4.5
732.097	0.5
732.848	2.5
733.599	0.5
734.35	1.5
735.101	3.5
735.852	1.5
736.603	2.5
737.354	3.5
738.104	1.5
738.855	1.5
739.605	2.5
740.356	3.5
741.106	2.5
741.856	2.5
742.607	2.5
743.357	1.5
744.107	4.5
744.857	1.5
745.607	4.5
746.357	2.5
747.106	2.5
747.856	3.5
748.606	0.5
749.355	2.5
750.105	1.5
750.854	4.5
751.603	2.5
752.353	3.5
753.102	0.5
753.851	0.5
754.6	4.5
755.349	0.5
756.098	4.5
756.847	2.5
757.595	3.5
758.344	3.5
759.093	4.5
759.841	5.5
760.589	3.5
761.338	4.5
762.086	5.5
762.834	2.5
763.582	4.5
764.331	0.5
765.079	4.5
765.826	3.5
766.574	4.5
767.322	5.5
768.07	3.5
768.817	4.5
769.565	2.5
770.312	3.5
771.06	3.5
771.807	6.5
772.554	4.5
773.302	2.5
774.049	4.5
774.796	5.5
775.543	3.5
776.29	5.5
777.036	3.5
777.783	6.5
778.53	2.5
779.276	5.5
780.023	3.5
780.769	5.5
781.516	5.5
782.262	4.5
783.008	3.5
783.754	5.5
784.5	6.5
785.246	5.5
785.992	7.5
786.738	5.5
787.484	6.5
788.23	3.5
788.975	7.5
789.721	4.5
790.466	1.5
791.212	7.5
791.957	4.5
792.702	3.5
793.447	5.5
794.193	4.5
794.938	4.5
795.683	4.5
796.427	3.5
797.172	5.5
797.917	5.5
798.662	5.5
799.406	3.5
800.151	4.5
800.895	6.5
801.64	2.5
802.384	5.5
803.128	6.5
803.872	4.5
804.616	5.5
805.36	7.5
806.104	1.5
806.848	7.5
807.592	3.5
808.336	4.5
809.079	3.5
809.823	2.5
810.566	2.5
811.31	2.5
812.053	5.5
812.796	2.5
813.539	6.5
814.283	3.5
815.026	0.5
815.769	4.5
816.511	2.5
817.254	2.5
817.997	3.5
818.74	3.5
819.482	5.5
820.225	5.5
820.967	3.5
821.71	1.5
822.452	2.5
823.194	4.5
823.936	3.5
824.678	1.5
825.42	0.5
826.162	4.5
826.904	1.5
827.646	4.5
828.388	1.5
829.129	2.5
829.871	4.5
830.612	3.5
831.354	2.5
832.095	2.5
832.836	2.5
833.577	1.5
834.319	4.5
835.06	1.5
835.801	3.5
836.542	3.5
837.282	2.5
838.023	4.5
838.764	3.5
839.504	3.5
840.245	4.5
840.985	3.5
841.726	2.5
842.466	1.5
843.206	2.5
843.946	-1.5
844.687	4.5
845.427	2.5
846.166	1.5
846.906	2.5
847.646	2.5
848.386	1.5
849.125	0.5
849.865	2.5
850.605	3.5
851.344	4.5
852.083	-0.5
852.823	1.5
853.562	3.5
854.301	0.5
855.04	1.5
855.779	0.5
856.518	1.5
857.257	3.5
857.995	1.5
858.734	1.5
859.473	2.5
860.211	3.5
860.95	2.5
861.688	1.5
862.426	2.5
863.165	0.5
863.903	4.5
864.641	2.5
865.379	0.5
866.117	1.5
866.855	2.5
867.593	3.5
868.33	1.5
869.068	-0.5
869.806	2.5
870.543	2.5
871.28	1.5
872.018	-0.5
872.755	2.5
873.492	0.5
874.229	2.5
874.967	1.5
875.703	1.5
876.44	2.5
877.177	0.5
877.914	1.5
878.651	3.5
879.387	2.5
880.124	2.5
880.86	0.5
881.597	2.5
882.333	2.5
883.069	3.5
883.806	0.5
884.542	-1.5
885.278	1.5
886.014	-1.5
886.749	-0.5
887.485	1.5
888.221	-0.5
888.957	1.5
889.692	0.5
890.428	0.5
891.163	-1.5
891.899	2.5
892.634	0.5
893.369	1.5
894.104	1.5
894.839	1.5
895.574	2.5
896.309	-0.5
897.044	1.5
897.779	-1.5
898.514	1.5
899.248	2.5
899.983	2.5
900.717	0.5
901.452	-0.5
902.186	0.5
902.92	1.5
903.654	-0.5
904.389	0.5
905.123	0.5
905.857	1.5
906.59	-0.5
907.324	1.5
908.058	-1.5
908.792	0.5
909.525	1.5
910.259	-0.5
910.992	0.5
911.726	2.5
912.459	1.5
913.192	1.5
913.925	1.5
914.658	1.5
915.391	1.5
916.124	0.5
916.857	-1.5
917.59	-0.5
918.323	-1.5
919.055	1.5
919.788	-0.5
920.521	1.5
921.253	1.5
921.985	0.5
922.718	1.5
923.45	-1.5
924.182	3.5
924.914	0.5
925.646	1.5
926.378	-1.5
927.11	2.5
927.841	0.5
928.573	0.5
929.305	0.5
930.036	2.5
930.768	-0.5
931.499	-0.5
932.23	-0.5
932.962	-1.5
933.693	0.5
934.424	1.5
935.155	1.5
935.886	1.5
936.617	1.5
937.348	0.5
938.078	0.5
938.809	-1.5
939.54	0.5
940.27	0.5
941.001	0.5
941.731	0.5
942.461	0.5
943.191	-0.5
943.922	2.5
944.652	-0.5
945.382	-0.5
946.112	0.5
946.841	0.5
947.571	1.5
948.301	0.5
949.031	1.5
949.76	0.5
950.49	1.5
951.219	0.5
951.948	0.5
952.678	0.5
953.407	1.5
954.136	-1.5
954.865	1.5
955.594	-0.5
956.323	1.5
957.052	0.5
957.78	2.5
958.509	0.5
959.238	0.5
959.966	-2.5
960.695	1.5
961.423	2.5
962.151	0.5
962.88	1.5
963.608	0.5
964.336	-0.5
965.064	1.5
965.792	2.5
966.52	-0.5
967.247	0.5
967.975	0.5
968.703	1.5
969.43	-0.5
970.158	0.5
970.885	0.5
971.613	1.5
972.34	2.5
973.067	0.5
973.794	1.5
974.521	2.5
975.248	0.5
975.975	1.5
976.702	3.5
977.429	0.5
978.156	-1.5
978.882	2.5
979.609	0.5
980.335	0.5
981.062	-1.5
981.788	1.5
982.514	2.5
983.24	-0.5
983.967	0.5
984.693	1.5
985.419	-0.5
986.144	2.5
986.87	-1.5
987.596	0.5
988.322	1.5
989.047	1.5
989.773	-0.5
990.498	2.5
991.224	0.5
991.949	0.5
992.674	1.5
993.399	0.5
994.124	2.5
994.849	0.5
995.574	0.5
996.299	0.5
997.024	1.5
997.749	-0.5
998.473	0.5
999.198	1.5
999.922	2.5
1000.647	1.5
1001.371	4.5
1002.095	-0.5
1002.82	1.5
1003.544	0.5
1004.268	1.5
1004.992	-0.5
1005.716	-0.5
1006.439	0.5
1007.163	-0.5
1007.887	0.5
1008.611	1.5
1009.334	-2.5
1010.058	1.5
1010.781	1.5
1011.504	-1.5
1012.228	0.5
1012.951	-1.5
1013.674	-1.5
1014.397	-1.5
1015.12	-1.5
