节点500_145_QEPB04081__618__11-38-47-282.txt的数据

Date: Wed Nov 12 11:38:47 CST 2025
User: PC
Spectrometer: QEPB0408
触发模式: 0
积分时间 (秒): 1.000000E-2
Scans to average: 1
启用暗噪声校正: true
启用非线性校正: false
滑动平均宽度: 0
X轴模式: Wavelengths
Number of Pixels in Spectrum: 1044
>>>>>Begin Spectral Data<<<<<
220.843	0.62
221.644	-2.38
222.444	-0.38
223.244	-1.38
224.045	0.62
224.845	-2.38
225.645	-2.38
226.445	0.62
227.245	-2.38
228.045	-1.38
228.845	-2.38
229.645	-1.38
230.444	-2.38
231.244	-1.38
232.043	-2.38
232.843	-1.38
233.642	1.62
234.442	-2.38
235.241	1.62
236.04	-0.38
236.839	-2.38
237.638	0.62
238.437	-0.38
239.236	0.62
240.035	1.62
240.833	-0.38
241.632	0.62
242.43	1.62
243.229	0.62
244.027	0.62
244.826	1.62
245.624	0.62
246.422	0.62
247.22	2.62
248.018	1.62
248.816	1.62
249.614	0.62
250.412	1.62
251.21	0.62
252.007	1.62
252.805	2.62
253.602	3.62
254.4	2.62
255.197	2.62
255.994	3.62
256.791	4.62
257.589	1.62
258.386	2.62
259.183	2.62
259.979	3.62
260.776	2.62
261.573	2.62
262.37	3.62
263.166	5.62
263.963	3.62
264.759	2.62
265.556	4.62
266.352	4.62
267.148	5.62
267.944	4.62
268.74	6.62
269.536	3.62
270.332	7.62
271.128	6.62
271.924	3.62
272.719	6.62
273.515	5.62
274.311	7.62
275.106	7.62
275.901	6.62
276.697	6.62
277.492	8.62
278.287	6.62
279.082	8.62
279.877	8.62
280.672	11.62
281.467	8.62
282.262	11.62
283.056	8.62
283.851	10.62
284.646	7.62
285.44	8.62
286.234	12.62
287.029	7.62
287.823	11.62
288.617	9.62
289.411	9.62
290.205	11.62
290.999	8.62
291.793	9.62
292.587	10.62
293.381	8.62
294.174	9.62
294.968	8.62
295.761	5.62
296.555	10.62
297.348	6.62
298.141	7.62
298.935	9.62
299.728	9.62
300.521	8.62
301.314	7.62
302.107	5.62
302.899	6.62
303.692	6.62
304.485	7.62
305.277	5.62
306.07	8.62
306.862	6.62
307.655	7.62
308.447	7.62
309.239	6.62
310.031	8.62
310.823	5.62
311.615	6.62
312.407	5.62
313.199	5.62
313.991	7.62
314.783	5.62
315.574	6.62
316.366	4.62
317.157	3.62
317.949	3.62
318.74	4.62
319.531	4.62
320.322	5.62
321.113	4.62
321.904	2.62
322.695	3.62
323.486	4.62
324.277	5.62
325.068	3.62
325.858	3.62
326.649	4.62
327.439	4.62
328.23	1.62
329.02	2.62
329.81	1.62
330.6	5.62
331.391	1.62
332.181	5.62
332.971	4.62
333.76	3.62
334.55	1.62
335.34	4.62
336.13	2.62
336.919	0.62
337.709	3.62
338.498	0.62
339.287	1.62
340.077	4.62
340.866	1.62
341.655	1.62
342.444	0.62
343.233	4.62
344.022	2.62
344.811	2.62
345.6	1.62
346.388	2.62
347.177	2.62
347.965	1.62
348.754	2.62
349.542	4.62
350.33	0.62
351.119	2.62
351.907	1.62
352.695	1.62
353.483	1.62
354.271	0.62
355.059	0.62
355.846	1.62
356.634	3.62
357.422	2.62
358.209	2.62
358.997	2.62
359.784	2.62
360.571	1.62
361.359	1.62
362.146	1.62
362.933	0.62
363.72	2.62
364.507	0.62
365.294	3.62
366.081	1.62
366.867	1.62
367.654	1.62
368.44	3.62
369.227	2.62
370.013	2.62
370.8	1.62
371.586	2.62
372.372	1.62
373.158	2.62
373.944	0.62
374.73	1.62
375.516	1.62
376.302	4.62
377.088	-0.38
377.873	0.62
378.659	4.62
379.445	0.62
380.23	4.62
381.015	1.62
381.801	1.62
382.586	1.62
383.371	2.62
384.156	0.62
384.941	2.62
385.726	1.62
386.511	3.62
387.296	2.62
388.08	1.62
388.865	0.62
389.649	1.62
390.434	1.62
391.218	1.62
392.003	0.62
392.787	0.62
393.571	1.62
394.355	3.62
395.139	4.62
395.923	1.62
396.707	4.62
397.491	1.62
398.274	2.62
399.058	3.62
399.842	4.62
400.625	4.62
401.408	2.62
402.192	1.62
402.975	1.62
403.758	3.62
404.541	3.62
405.324	2.62
406.107	3.62
406.89	3.62
407.673	3.62
408.456	5.62
409.238	1.62
410.021	2.62
410.803	2.62
411.586	3.62
412.368	4.62
413.151	3.62
413.933	3.62
414.715	3.62
415.497	4.62
416.279	1.62
417.061	2.62
417.843	4.62
418.624	4.62
419.406	6.62
420.188	4.62
420.969	4.62
421.751	5.62
422.532	4.62
423.313	4.62
424.095	5.62
424.876	7.62
425.657	1.62
426.438	3.62
427.219	4.62
428	5.62
428.78	4.62
429.561	6.62
430.342	6.62
431.122	4.62
431.903	6.62
432.683	7.62
433.464	9.62
434.244	7.62
435.024	8.62
435.804	9.62
436.584	10.62
437.364	8.62
438.144	8.62
438.924	10.62
439.704	11.62
440.483	12.62
441.263	12.62
442.042	12.62
442.822	12.62
443.601	12.62
444.38	14.62
445.16	14.62
445.939	16.62
446.718	17.62
447.497	17.62
448.276	19.62
449.054	21.62
449.833	23.62
450.612	26.62
451.391	26.62
452.169	30.62
452.948	36.62
453.726	35.62
454.504	39.62
455.282	46.62
456.061	49.62
456.839	52.62
457.617	60.62
458.395	68.62
459.172	74.62
459.95	82.62
460.728	92.62
461.506	100.62
462.283	117.62
463.061	123.62
463.838	134.62
464.615	150.62
465.393	172.62
466.17	193.62
466.947	214.62
467.724	237.62
468.501	258.62
469.278	284.62
470.055	325.62
470.831	355.62
471.608	400.62
472.385	435.62
473.161	479.62
473.938	544.62
474.714	589.62
475.49	657.62
476.266	719.62
477.043	790.62
477.819	864.62
478.595	964.62
479.371	1047.62
480.146	1164.62
480.922	1267.62
481.698	1401.62
482.473	1510.62
483.249	1679.62
484.024	1825.62
484.8	1997.62
485.575	2175.62
486.35	2385.62
487.126	2622.62
487.901	2884.62
488.676	3132.62
489.451	3425.62
490.225	3748.62
491	4090.62
491.775	4451.62
492.55	4824.62
493.324	5293.62
494.099	5732.62
494.873	6215.62
495.647	6780.62
496.422	7346.62
497.196	7884.62
497.97	8492.62
498.744	9138.62
499.518	9815.62
500.292	10441.62
501.066	11074.62
501.839	11659.62
502.613	12289.62
503.387	12938.62
504.16	13415.62
504.934	13967.62
505.707	14296.62
506.48	14700.62
507.253	14927.62
508.027	15117.62
508.8	15236.62
509.573	15158.62
510.346	15073.62
511.118	14936.62
511.891	14684.62
512.664	14332.62
513.437	13991.62
514.209	13567.62
514.982	13118.62
515.754	12652.62
516.526	12158.62
517.298	11633.62
518.071	11130.62
518.843	10688.62
519.615	10226.62
520.387	9826.62
521.159	9446.62
521.93	9064.62
522.702	8713.62
523.474	8374.62
524.245	8069.62
525.017	7696.62
525.788	7413.62
526.56	7124.62
527.331	6819.62
528.102	6555.62
528.873	6293.62
529.644	5986.62
530.415	5743.62
531.186	5468.62
531.957	5215.62
532.728	4970.62
533.498	4720.62
534.269	4467.62
535.039	4271.62
535.81	4020.62
536.58	3805.62
537.351	3617.62
538.121	3411.62
538.891	3224.62
539.661	3044.62
540.431	2880.62
541.201	2716.62
541.971	2593.62
542.741	2450.62
543.51	2313.62
544.28	2206.62
545.05	2091.62
545.819	1984.62
546.588	1887.62
547.358	1805.62
548.127	1715.62
548.896	1600.62
549.665	1524.62
550.434	1454.62
551.203	1392.62
551.972	1316.62
552.741	1232.62
553.51	1191.62
554.278	1126.62
555.047	1055.62
555.815	1005.62
556.584	946.62
557.352	901.62
558.121	853.62
558.889	781.62
559.657	748.62
560.425	712.62
561.193	669.62
561.961	636.62
562.729	608.62
563.496	574.62
564.264	533.62
565.032	505.62
565.799	466.62
566.567	449.62
567.334	425.62
568.101	397.62
568.869	369.62
569.636	353.62
570.403	331.62
571.17	321.62
571.937	300.62
572.704	282.62
573.471	264.62
574.237	246.62
575.004	239.62
575.771	222.62
576.537	211.62
577.303	195.62
578.07	182.62
578.836	177.62
579.602	165.62
580.368	156.62
581.134	149.62
581.9	143.62
582.666	130.62
583.432	123.62
584.198	120.62
584.964	116.62
585.729	105.62
586.495	102.62
587.26	94.62
588.025	92.62
588.791	81.62
589.556	80.62
590.321	73.62
591.086	72.62
591.851	70.62
592.616	60.62
593.381	62.62
594.146	55.62
594.911	54.62
595.675	53.62
596.44	49.62
597.204	47.62
597.969	43.62
598.733	42.62
599.497	42.62
600.261	37.62
601.025	40.62
601.79	32.62
602.553	35.62
603.317	30.62
604.081	30.62
604.845	28.62
605.609	29.62
606.372	27.62
607.136	24.62
607.899	25.62
608.662	21.62
609.426	20.62
610.189	21.62
610.952	19.62
611.715	21.62
612.478	18.62
613.241	17.62
614.004	15.62
614.767	17.62
615.529	17.62
616.292	13.62
617.055	14.62
617.817	11.62
618.579	13.62
619.342	12.62
620.104	13.62
620.866	11.62
621.628	10.62
622.39	10.62
623.152	8.62
623.914	7.62
624.676	9.62
625.438	8.62
626.199	10.62
626.961	7.62
627.722	8.62
628.484	8.62
629.245	7.62
630.006	6.62
630.768	9.62
631.529	5.62
632.29	5.62
633.051	6.62
633.812	5.62
634.573	8.62
635.333	5.62
636.094	6.62
636.855	4.62
637.615	5.62
638.376	4.62
639.136	5.62
639.896	4.62
640.657	4.62
641.417	3.62
642.177	4.62
642.937	6.62
643.697	6.62
644.457	4.62
645.216	4.62
645.976	2.62
646.736	4.62
647.495	3.62
648.255	1.62
649.014	3.62
649.774	1.62
650.533	4.62
651.292	0.62
652.051	4.62
652.81	4.62
653.569	1.62
654.328	3.62
655.087	2.62
655.846	3.62
656.604	1.62
657.363	2.62
658.121	1.62
658.88	3.62
659.638	1.62
660.397	2.62
661.155	2.62
661.913	2.62
662.671	1.62
663.429	1.62
664.187	1.62
664.945	1.62
665.703	3.62
666.46	1.62
667.218	2.62
667.976	3.62
668.733	2.62
669.49	3.62
670.248	1.62
671.005	0.62
671.762	4.62
672.519	1.62
673.276	2.62
674.033	2.62
674.79	-1.38
675.547	1.62
676.304	1.62
677.06	2.62
677.817	0.62
678.574	0.62
679.33	2.62
680.086	1.62
680.843	2.62
681.599	0.62
682.355	4.62
683.111	2.62
683.867	2.62
684.623	4.62
685.379	2.62
686.135	1.62
686.89	-0.38
687.646	2.62
688.402	1.62
689.157	2.62
689.912	2.62
690.668	1.62
691.423	0.62
692.178	0.62
692.933	1.62
693.688	0.62
694.443	2.62
695.198	0.62
695.953	0.62
696.708	1.62
697.462	0.62
698.217	0.62
698.972	0.62
699.726	1.62
700.48	1.62
701.235	0.62
701.989	3.62
702.743	0.62
703.497	2.62
704.251	-0.38
705.005	2.62
705.759	3.62
706.513	0.62
707.266	2.62
708.02	1.62
708.774	4.62
709.527	0.62
710.28	0.62
711.034	-0.38
711.787	-0.38
712.54	0.62
713.293	0.62
714.046	1.62
714.799	0.62
715.552	0.62
716.305	-0.38
717.058	1.62
717.81	-1.38
718.563	0.62
719.315	2.62
720.068	0.62
720.82	0.62
721.573	2.62
722.325	0.62
723.077	0.62
723.829	0.62
724.581	-0.38
725.333	1.62
726.085	0.62
726.836	5.62
727.588	0.62
728.34	0.62
729.091	2.62
729.843	-0.38
730.594	1.62
731.346	-2.38
732.097	3.62
732.848	0.62
733.599	2.62
734.35	-0.38
735.101	3.62
735.852	0.62
736.603	0.62
737.354	1.62
738.104	-0.38
738.855	0.62
739.605	2.62
740.356	1.62
741.106	-0.38
741.856	3.62
742.607	0.62
743.357	1.62
744.107	1.62
744.857	0.62
745.607	1.62
746.357	3.62
747.106	1.62
747.856	4.62
748.606	1.62
749.355	2.62
750.105	2.62
750.854	3.62
751.603	0.62
752.353	2.62
753.102	3.62
753.851	1.62
754.6	1.62
755.349	2.62
756.098	2.62
756.847	0.62
757.595	1.62
758.344	1.62
759.093	1.62
759.841	1.62
760.589	4.62
761.338	2.62
762.086	2.62
762.834	1.62
763.582	2.62
764.331	1.62
765.079	0.62
765.826	4.62
766.574	2.62
767.322	5.62
768.07	1.62
768.817	4.62
769.565	3.62
770.312	1.62
771.06	2.62
771.807	1.62
772.554	3.62
773.302	2.62
774.049	0.62
774.796	3.62
775.543	2.62
776.29	6.62
777.036	0.62
777.783	4.62
778.53	2.62
779.276	2.62
780.023	1.62
780.769	1.62
781.516	3.62
782.262	4.62
783.008	2.62
783.754	3.62
784.5	2.62
785.246	3.62
785.992	1.62
786.738	5.62
787.484	3.62
788.23	4.62
788.975	6.62
789.721	4.62
790.466	3.62
791.212	4.62
791.957	4.62
792.702	4.62
793.447	2.62
794.193	4.62
794.938	1.62
795.683	5.62
796.427	4.62
797.172	3.62
797.917	4.62
798.662	4.62
799.406	4.62
800.151	5.62
800.895	4.62
801.64	3.62
802.384	2.62
803.128	2.62
803.872	3.62
804.616	4.62
805.36	4.62
806.104	2.62
806.848	2.62
807.592	2.62
808.336	3.62
809.079	4.62
809.823	1.62
810.566	4.62
811.31	3.62
812.053	2.62
812.796	1.62
813.539	1.62
814.283	3.62
815.026	3.62
815.769	3.62
816.511	1.62
817.254	0.62
817.997	0.62
818.74	3.62
819.482	1.62
820.225	2.62
820.967	1.62
821.71	3.62
822.452	0.62
823.194	3.62
823.936	1.62
824.678	-0.38
825.42	4.62
826.162	0.62
826.904	2.62
827.646	-0.38
828.388	1.62
829.129	1.62
829.871	2.62
830.612	2.62
831.354	1.62
832.095	3.62
832.836	1.62
833.577	0.62
834.319	2.62
835.06	0.62
835.801	3.62
836.542	2.62
837.282	1.62
838.023	0.62
838.764	1.62
839.504	-0.38
840.245	1.62
840.985	0.62
841.726	0.62
842.466	1.62
843.206	0.62
843.946	0.62
844.687	3.62
845.427	-0.38
846.166	0.62
846.906	2.62
847.646	1.62
848.386	1.62
849.125	2.62
849.865	2.62
850.605	0.62
851.344	1.62
852.083	2.62
852.823	-0.38
853.562	0.62
854.301	0.62
855.04	-2.38
855.779	2.62
856.518	1.62
857.257	-0.38
857.995	1.62
858.734	0.62
859.473	2.62
860.211	-0.38
860.95	-1.38
861.688	1.62
862.426	0.62
863.165	1.62
863.903	0.62
864.641	1.62
865.379	1.62
866.117	0.62
866.855	0.62
867.593	-1.38
868.33	0.62
869.068	-0.38
869.806	0.62
870.543	1.62
871.28	0.62
872.018	0.62
872.755	-0.38
873.492	-1.38
874.229	0.62
874.967	0.62
875.703	0.62
876.44	-0.38
877.177	-0.38
877.914	-0.38
878.651	0.62
879.387	-1.38
880.124	-0.38
880.86	-0.38
881.597	-0.38
882.333	0.62
883.069	-0.38
883.806	1.62
884.542	-0.38
885.278	-0.38
886.014	0.62
886.749	0.62
887.485	0.62
888.221	-1.38
888.957	2.62
889.692	-1.38
890.428	0.62
891.163	0.62
891.899	-1.38
892.634	-1.38
893.369	1.62
894.104	2.62
894.839	0.62
895.574	-0.38
896.309	2.62
897.044	-2.38
897.779	-0.38
898.514	0.62
899.248	-2.38
899.983	-0.38
900.717	0.62
901.452	1.62
902.186	-0.38
902.92	-1.38
903.654	2.62
904.389	-0.38
905.123	0.62
905.857	-0.38
906.59	-0.38
907.324	-3.38
908.058	0.62
908.792	-0.38
909.525	0.62
910.259	0.62
910.992	-1.38
911.726	0.62
912.459	-3.38
913.192	0.62
913.925	-1.38
914.658	0.62
915.391	-3.38
916.124	0.62
916.857	-0.38
917.59	-0.38
918.323	0.62
919.055	0.62
919.788	-0.38
920.521	-0.38
921.253	-0.38
921.985	-2.38
922.718	-2.38
923.45	-0.38
924.182	-2.38
924.914	-0.38
925.646	-0.38
926.378	-1.38
927.11	-1.38
927.841	1.62
928.573	0.62
929.305	-2.38
930.036	-0.38
930.768	0.62
931.499	-1.38
932.23	-0.38
932.962	-1.38
933.693	0.62
934.424	-2.38
935.155	-0.38
935.886	-0.38
936.617	-0.38
937.348	0.62
938.078	-0.38
938.809	0.62
939.54	-2.38
940.27	-1.38
941.001	-1.38
941.731	-1.38
942.461	-0.38
943.191	-1.38
943.922	0.62
944.652	-1.38
945.382	-0.38
946.112	1.62
946.841	-1.38
947.571	0.62
948.301	-2.38
949.031	-2.38
949.76	0.62
950.49	0.62
951.219	-0.38
951.948	-1.38
952.678	-1.38
953.407	-1.38
954.136	-1.38
954.865	0.62
955.594	-0.38
956.323	1.62
957.052	-1.38
957.78	-1.38
958.509	0.62
959.238	0.62
959.966	-1.38
960.695	-0.38
961.423	-1.38
962.151	-1.38
962.88	-1.38
963.608	-1.38
964.336	-2.38
965.064	0.62
965.792	0.62
966.52	-2.38
967.247	-0.38
967.975	-2.38
968.703	0.62
969.43	0.62
970.158	0.62
970.885	-0.38
971.613	1.62
972.34	0.62
973.067	-1.38
973.794	-0.38
974.521	-0.38
975.248	0.62
975.975	-0.38
976.702	0.62
977.429	-2.38
978.156	0.62
978.882	-0.38
979.609	0.62
980.335	0.62
981.062	-2.38
981.788	1.62
982.514	-0.38
983.24	-1.38
983.967	0.62
984.693	-1.38
985.419	-1.38
986.144	-0.38
986.87	0.62
987.596	-0.38
988.322	2.62
989.047	-2.38
989.773	2.62
990.498	-0.38
991.224	-1.38
991.949	-0.38
992.674	-1.38
993.399	-2.38
994.124	-0.38
994.849	-0.38
995.574	0.62
996.299	-1.38
997.024	-0.38
997.749	-1.38
998.473	0.62
999.198	-1.38
999.922	0.62
1000.647	0.62
1001.371	3.62
1002.095	-0.38
1002.82	-1.38
1003.544	-1.38
1004.268	-2.38
1004.992	0.62
1005.716	-2.38
1006.439	0.62
1007.163	-2.38
1007.887	0.62
1008.611	0.62
1009.334	-1.38
1010.058	-1.38
1010.781	-0.38
1011.504	1.62
1012.228	-1.38
1012.951	-0.38
1013.674	-0.38
1014.397	0.62
1015.12	-0.38
