节点500_145_QEPB04081__232__11-32-41-485.txt的数据

Date: Wed Nov 12 11:32:41 CST 2025
User: PC
Spectrometer: QEPB0408
触发模式: 0
积分时间 (秒): 1.000000E-2
Scans to average: 1
启用暗噪声校正: true
启用非线性校正: false
滑动平均宽度: 0
X轴模式: Wavelengths
Number of Pixels in Spectrum: 1044
>>>>>Begin Spectral Data<<<<<
220.843	-0.38
221.644	0.62
222.444	-0.38
223.244	1.62
224.045	-0.38
224.845	2.62
225.645	0.62
226.445	-0.38
227.245	1.62
228.045	1.62
228.845	1.62
229.645	2.62
230.444	-2.38
231.244	1.62
232.043	-0.38
232.843	1.62
233.642	0.62
234.442	2.62
235.241	0.62
236.04	-0.38
236.839	2.62
237.638	-0.38
238.437	0.62
239.236	1.62
240.035	1.62
240.833	2.62
241.632	3.62
242.43	3.62
243.229	1.62
244.027	2.62
244.826	2.62
245.624	0.62
246.422	1.62
247.22	3.62
248.018	1.62
248.816	3.62
249.614	0.62
250.412	5.62
251.21	2.62
252.007	1.62
252.805	3.62
253.602	2.62
254.4	3.62
255.197	5.62
255.994	2.62
256.791	5.62
257.589	4.62
258.386	4.62
259.183	4.62
259.979	2.62
260.776	5.62
261.573	6.62
262.37	5.62
263.166	4.62
263.963	5.62
264.759	6.62
265.556	5.62
266.352	3.62
267.148	6.62
267.944	6.62
268.74	6.62
269.536	5.62
270.332	7.62
271.128	8.62
271.924	6.62
272.719	7.62
273.515	11.62
274.311	8.62
275.106	8.62
275.901	9.62
276.697	10.62
277.492	10.62
278.287	5.62
279.082	7.62
279.877	10.62
280.672	10.62
281.467	10.62
282.262	9.62
283.056	8.62
283.851	10.62
284.646	9.62
285.44	11.62
286.234	10.62
287.029	10.62
287.823	9.62
288.617	13.62
289.411	10.62
290.205	10.62
290.999	9.62
291.793	10.62
292.587	10.62
293.381	9.62
294.174	11.62
294.968	12.62
295.761	9.62
296.555	8.62
297.348	10.62
298.141	9.62
298.935	11.62
299.728	7.62
300.521	10.62
301.314	9.62
302.107	9.62
302.899	8.62
303.692	9.62
304.485	9.62
305.277	8.62
306.07	7.62
306.862	8.62
307.655	8.62
308.447	7.62
309.239	7.62
310.031	7.62
310.823	7.62
311.615	6.62
312.407	5.62
313.199	7.62
313.991	4.62
314.783	6.62
315.574	7.62
316.366	4.62
317.157	3.62
317.949	2.62
318.74	6.62
319.531	3.62
320.322	6.62
321.113	4.62
321.904	4.62
322.695	4.62
323.486	3.62
324.277	5.62
325.068	5.62
325.858	6.62
326.649	2.62
327.439	5.62
328.23	3.62
329.02	2.62
329.81	5.62
330.6	2.62
331.391	4.62
332.181	2.62
332.971	2.62
333.76	3.62
334.55	3.62
335.34	2.62
336.13	4.62
336.919	5.62
337.709	1.62
338.498	3.62
339.287	5.62
340.077	2.62
340.866	4.62
341.655	3.62
342.444	5.62
343.233	1.62
344.022	4.62
344.811	2.62
345.6	5.62
346.388	4.62
347.177	2.62
347.965	3.62
348.754	2.62
349.542	3.62
350.33	3.62
351.119	2.62
351.907	3.62
352.695	3.62
353.483	2.62
354.271	3.62
355.059	3.62
355.846	5.62
356.634	1.62
357.422	0.62
358.209	2.62
358.997	3.62
359.784	2.62
360.571	5.62
361.359	1.62
362.146	0.62
362.933	2.62
363.72	1.62
364.507	1.62
365.294	2.62
366.081	2.62
366.867	1.62
367.654	3.62
368.44	2.62
369.227	1.62
370.013	2.62
370.8	3.62
371.586	0.62
372.372	3.62
373.158	1.62
373.944	2.62
374.73	2.62
375.516	1.62
376.302	3.62
377.088	3.62
377.873	3.62
378.659	1.62
379.445	4.62
380.23	2.62
381.015	1.62
381.801	3.62
382.586	3.62
383.371	3.62
384.156	3.62
384.941	2.62
385.726	1.62
386.511	3.62
387.296	3.62
388.08	3.62
388.865	4.62
389.649	2.62
390.434	1.62
391.218	3.62
392.003	2.62
392.787	4.62
393.571	3.62
394.355	2.62
395.139	1.62
395.923	7.62
396.707	1.62
397.491	2.62
398.274	3.62
399.058	3.62
399.842	3.62
400.625	3.62
401.408	2.62
402.192	3.62
402.975	4.62
403.758	3.62
404.541	4.62
405.324	3.62
406.107	3.62
406.89	1.62
407.673	5.62
408.456	5.62
409.238	4.62
410.021	4.62
410.803	7.62
411.586	6.62
412.368	2.62
413.151	6.62
413.933	7.62
414.715	4.62
415.497	6.62
416.279	5.62
417.061	6.62
417.843	4.62
418.624	6.62
419.406	5.62
420.188	5.62
420.969	4.62
421.751	6.62
422.532	3.62
423.313	5.62
424.095	5.62
424.876	4.62
425.657	5.62
426.438	5.62
427.219	7.62
428	5.62
428.78	7.62
429.561	4.62
430.342	7.62
431.122	6.62
431.903	9.62
432.683	6.62
433.464	7.62
434.244	9.62
435.024	7.62
435.804	8.62
436.584	12.62
437.364	8.62
438.144	9.62
438.924	9.62
439.704	10.62
440.483	14.62
441.263	12.62
442.042	13.62
442.822	14.62
443.601	15.62
444.38	14.62
445.16	14.62
445.939	16.62
446.718	15.62
447.497	16.62
448.276	19.62
449.054	22.62
449.833	21.62
450.612	23.62
451.391	25.62
452.169	28.62
452.948	27.62
453.726	34.62
454.504	37.62
455.282	37.62
456.061	41.62
456.839	47.62
457.617	54.62
458.395	61.62
459.172	64.62
459.95	70.62
460.728	74.62
461.506	88.62
462.283	96.62
463.061	106.62
463.838	118.62
464.615	139.62
465.393	147.62
466.17	168.62
466.947	178.62
467.724	205.62
468.501	231.62
469.278	258.62
470.055	287.62
470.831	321.62
471.608	351.62
472.385	389.62
473.161	438.62
473.938	482.62
474.714	546.62
475.49	604.62
476.266	668.62
477.043	749.62
477.819	825.62
478.595	920.62
479.371	1004.62
480.146	1114.62
480.922	1237.62
481.698	1372.62
482.473	1505.62
483.249	1669.62
484.024	1839.62
484.8	2017.62
485.575	2244.62
486.35	2474.62
487.126	2725.62
487.901	3020.62
488.676	3326.62
489.451	3651.62
490.225	4022.62
491	4441.62
491.775	4870.62
492.55	5351.62
493.324	5860.62
494.099	6414.62
494.873	7012.62
495.647	7647.62
496.422	8284.62
497.196	8979.62
497.97	9716.62
498.744	10473.62
499.518	11255.62
500.292	11956.62
501.066	12643.62
501.839	13367.62
502.613	13984.62
503.387	14628.62
504.16	15163.62
504.934	15624.62
505.707	15886.62
506.48	16171.62
507.253	16316.62
508.027	16352.62
508.8	16294.62
509.573	16095.62
510.346	15766.62
511.118	15442.62
511.891	14991.62
512.664	14572.62
513.437	13961.62
514.209	13450.62
514.982	12934.62
515.754	12373.62
516.526	11831.62
517.298	11307.62
518.071	10811.62
518.843	10277.62
519.615	9905.62
520.387	9473.62
521.159	9073.62
521.93	8704.62
522.702	8374.62
523.474	8091.62
524.245	7725.62
525.017	7456.62
525.788	7119.62
526.56	6859.62
527.331	6605.62
528.102	6236.62
528.873	5980.62
529.644	5748.62
530.415	5455.62
531.186	5204.62
531.957	4914.62
532.728	4647.62
533.498	4434.62
534.269	4180.62
535.039	3940.62
535.81	3732.62
536.58	3517.62
537.351	3310.62
538.121	3128.62
538.891	2965.62
539.661	2786.62
540.431	2643.62
541.201	2488.62
541.971	2377.62
542.741	2231.62
543.51	2124.62
544.28	2008.62
545.05	1908.62
545.819	1825.62
546.588	1734.62
547.358	1651.62
548.127	1582.62
548.896	1488.62
549.665	1421.62
550.434	1360.62
551.203	1285.62
551.972	1212.62
552.741	1155.62
553.51	1086.62
554.278	1021.62
555.047	960.62
555.815	905.62
556.584	866.62
557.352	804.62
558.121	758.62
558.889	717.62
559.657	672.62
560.425	651.62
561.193	608.62
561.961	568.62
562.729	528.62
563.496	505.62
564.264	469.62
565.032	444.62
565.799	427.62
566.567	403.62
567.334	380.62
568.101	358.62
568.869	334.62
569.636	319.62
570.403	304.62
571.17	285.62
571.937	264.62
572.704	248.62
573.471	233.62
574.237	223.62
575.004	213.62
575.771	202.62
576.537	192.62
577.303	173.62
578.07	169.62
578.836	154.62
579.602	145.62
580.368	137.62
581.134	128.62
581.9	121.62
582.666	123.62
583.432	110.62
584.198	104.62
584.964	99.62
585.729	95.62
586.495	91.62
587.26	85.62
588.025	78.62
588.791	76.62
589.556	73.62
590.321	69.62
591.086	65.62
591.851	62.62
592.616	55.62
593.381	57.62
594.146	53.62
594.911	47.62
595.675	45.62
596.44	46.62
597.204	44.62
597.969	41.62
598.733	41.62
599.497	36.62
600.261	34.62
601.025	32.62
601.79	32.62
602.553	31.62
603.317	30.62
604.081	25.62
604.845	27.62
605.609	28.62
606.372	22.62
607.136	20.62
607.899	24.62
608.662	23.62
609.426	20.62
610.189	19.62
610.952	18.62
611.715	17.62
612.478	19.62
613.241	19.62
614.004	18.62
614.767	17.62
615.529	13.62
616.292	14.62
617.055	14.62
617.817	15.62
618.579	12.62
619.342	14.62
620.104	12.62
620.866	12.62
621.628	11.62
622.39	10.62
623.152	12.62
623.914	9.62
624.676	8.62
625.438	10.62
626.199	9.62
626.961	7.62
627.722	7.62
628.484	10.62
629.245	9.62
630.006	8.62
630.768	6.62
631.529	6.62
632.29	7.62
633.051	5.62
633.812	9.62
634.573	6.62
635.333	6.62
636.094	6.62
636.855	6.62
637.615	6.62
638.376	7.62
639.136	6.62
639.896	4.62
640.657	5.62
641.417	5.62
642.177	4.62
642.937	4.62
643.697	4.62
644.457	4.62
645.216	5.62
645.976	6.62
646.736	5.62
647.495	2.62
648.255	8.62
649.014	6.62
649.774	4.62
650.533	5.62
651.292	3.62
652.051	4.62
652.81	3.62
653.569	5.62
654.328	2.62
655.087	1.62
655.846	2.62
656.604	3.62
657.363	2.62
658.121	4.62
658.88	3.62
659.638	1.62
660.397	3.62
661.155	5.62
661.913	3.62
662.671	4.62
663.429	3.62
664.187	2.62
664.945	4.62
665.703	2.62
666.46	1.62
667.218	3.62
667.976	3.62
668.733	2.62
669.49	2.62
670.248	2.62
671.005	2.62
671.762	2.62
672.519	1.62
673.276	3.62
674.033	2.62
674.79	1.62
675.547	1.62
676.304	2.62
677.06	2.62
677.817	1.62
678.574	1.62
679.33	0.62
680.086	2.62
680.843	2.62
681.599	1.62
682.355	3.62
683.111	0.62
683.867	3.62
684.623	3.62
685.379	4.62
686.135	2.62
686.89	-0.38
687.646	1.62
688.402	-0.38
689.157	2.62
689.912	3.62
690.668	1.62
691.423	1.62
692.178	1.62
692.933	2.62
693.688	5.62
694.443	3.62
695.198	2.62
695.953	3.62
696.708	1.62
697.462	2.62
698.217	2.62
698.972	1.62
699.726	4.62
700.48	0.62
701.235	1.62
701.989	2.62
702.743	0.62
703.497	2.62
704.251	0.62
705.005	3.62
705.759	1.62
706.513	2.62
707.266	3.62
708.02	2.62
708.774	1.62
709.527	2.62
710.28	4.62
711.034	2.62
711.787	2.62
712.54	3.62
713.293	0.62
714.046	1.62
714.799	2.62
715.552	3.62
716.305	2.62
717.058	1.62
717.81	0.62
718.563	2.62
719.315	3.62
720.068	3.62
720.82	3.62
721.573	2.62
722.325	2.62
723.077	1.62
723.829	1.62
724.581	3.62
725.333	1.62
726.085	2.62
726.836	0.62
727.588	2.62
728.34	2.62
729.091	2.62
729.843	3.62
730.594	1.62
731.346	1.62
732.097	2.62
732.848	1.62
733.599	4.62
734.35	2.62
735.101	4.62
735.852	2.62
736.603	3.62
737.354	2.62
738.104	3.62
738.855	3.62
739.605	1.62
740.356	2.62
741.106	1.62
741.856	3.62
742.607	5.62
743.357	3.62
744.107	1.62
744.857	1.62
745.607	3.62
746.357	1.62
747.106	4.62
747.856	3.62
748.606	5.62
749.355	2.62
750.105	2.62
750.854	5.62
751.603	3.62
752.353	2.62
753.102	2.62
753.851	2.62
754.6	1.62
755.349	2.62
756.098	2.62
756.847	2.62
757.595	5.62
758.344	4.62
759.093	4.62
759.841	4.62
760.589	1.62
761.338	2.62
762.086	2.62
762.834	3.62
763.582	3.62
764.331	2.62
765.079	4.62
765.826	2.62
766.574	3.62
767.322	4.62
768.07	3.62
768.817	6.62
769.565	4.62
770.312	2.62
771.06	4.62
771.807	6.62
772.554	4.62
773.302	5.62
774.049	4.62
774.796	3.62
775.543	5.62
776.29	3.62
777.036	6.62
777.783	4.62
778.53	3.62
779.276	4.62
780.023	5.62
780.769	4.62
781.516	5.62
782.262	4.62
783.008	5.62
783.754	6.62
784.5	5.62
785.246	4.62
785.992	5.62
786.738	5.62
787.484	5.62
788.23	5.62
788.975	5.62
789.721	5.62
790.466	7.62
791.212	4.62
791.957	4.62
792.702	6.62
793.447	4.62
794.193	5.62
794.938	5.62
795.683	5.62
796.427	5.62
797.172	4.62
797.917	5.62
798.662	6.62
799.406	4.62
800.151	6.62
800.895	4.62
801.64	5.62
802.384	6.62
803.128	3.62
803.872	4.62
804.616	2.62
805.36	5.62
806.104	3.62
806.848	3.62
807.592	4.62
808.336	3.62
809.079	4.62
809.823	4.62
810.566	5.62
811.31	4.62
812.053	2.62
812.796	2.62
813.539	2.62
814.283	2.62
815.026	1.62
815.769	6.62
816.511	2.62
817.254	2.62
817.997	1.62
818.74	2.62
819.482	6.62
820.225	2.62
820.967	4.62
821.71	2.62
822.452	3.62
823.194	2.62
823.936	3.62
824.678	3.62
825.42	2.62
826.162	5.62
826.904	3.62
827.646	3.62
828.388	3.62
829.129	3.62
829.871	0.62
830.612	3.62
831.354	3.62
832.095	4.62
832.836	1.62
833.577	2.62
834.319	3.62
835.06	2.62
835.801	3.62
836.542	3.62
837.282	2.62
838.023	5.62
838.764	1.62
839.504	2.62
840.245	1.62
840.985	2.62
841.726	1.62
842.466	4.62
843.206	2.62
843.946	1.62
844.687	2.62
845.427	3.62
846.166	2.62
846.906	4.62
847.646	2.62
848.386	2.62
849.125	3.62
849.865	1.62
850.605	4.62
851.344	3.62
852.083	1.62
852.823	0.62
853.562	1.62
854.301	0.62
855.04	0.62
855.779	3.62
856.518	3.62
857.257	1.62
857.995	1.62
858.734	1.62
859.473	1.62
860.211	-0.38
860.95	1.62
861.688	0.62
862.426	3.62
863.165	2.62
863.903	1.62
864.641	0.62
865.379	1.62
866.117	0.62
866.855	-0.38
867.593	2.62
868.33	0.62
869.068	0.62
869.806	3.62
870.543	2.62
871.28	-0.38
872.018	1.62
872.755	2.62
873.492	2.62
874.229	-0.38
874.967	0.62
875.703	0.62
876.44	1.62
877.177	0.62
877.914	0.62
878.651	1.62
879.387	0.62
880.124	1.62
880.86	-0.38
881.597	1.62
882.333	1.62
883.069	1.62
883.806	1.62
884.542	0.62
885.278	1.62
886.014	0.62
886.749	3.62
887.485	1.62
888.221	0.62
888.957	0.62
889.692	1.62
890.428	1.62
891.163	0.62
891.899	-0.38
892.634	-0.38
893.369	1.62
894.104	0.62
894.839	-1.38
895.574	3.62
896.309	0.62
897.044	0.62
897.779	2.62
898.514	3.62
899.248	1.62
899.983	-0.38
900.717	1.62
901.452	-0.38
902.186	-1.38
902.92	-0.38
903.654	0.62
904.389	1.62
905.123	1.62
905.857	2.62
906.59	1.62
907.324	0.62
908.058	0.62
908.792	-0.38
909.525	0.62
910.259	0.62
910.992	0.62
911.726	-0.38
912.459	0.62
913.192	1.62
913.925	0.62
914.658	1.62
915.391	-0.38
916.124	1.62
916.857	1.62
917.59	-1.38
918.323	1.62
919.055	-1.38
919.788	1.62
920.521	0.62
921.253	0.62
921.985	2.62
922.718	0.62
923.45	1.62
924.182	0.62
924.914	1.62
925.646	-0.38
926.378	0.62
927.11	0.62
927.841	1.62
928.573	1.62
929.305	-1.38
930.036	-1.38
930.768	-0.38
931.499	0.62
932.23	0.62
932.962	1.62
933.693	1.62
934.424	2.62
935.155	0.62
935.886	0.62
936.617	-0.38
937.348	-0.38
938.078	-1.38
938.809	0.62
939.54	0.62
940.27	1.62
941.001	1.62
941.731	3.62
942.461	2.62
943.191	1.62
943.922	0.62
944.652	-1.38
945.382	1.62
946.112	-1.38
946.841	0.62
947.571	1.62
948.301	3.62
949.031	1.62
949.76	-3.38
950.49	1.62
951.219	0.62
951.948	0.62
952.678	0.62
953.407	1.62
954.136	0.62
954.865	-0.38
955.594	-0.38
956.323	0.62
957.052	-0.38
957.78	-1.38
958.509	2.62
959.238	0.62
959.966	-0.38
960.695	2.62
961.423	-0.38
962.151	1.62
962.88	-0.38
963.608	0.62
964.336	1.62
965.064	-1.38
965.792	1.62
966.52	-1.38
967.247	1.62
967.975	0.62
968.703	1.62
969.43	1.62
970.158	0.62
970.885	0.62
971.613	0.62
972.34	3.62
973.067	-0.38
973.794	-2.38
974.521	-0.38
975.248	-1.38
975.975	2.62
976.702	0.62
977.429	0.62
978.156	0.62
978.882	0.62
979.609	0.62
980.335	-0.38
981.062	0.62
981.788	-0.38
982.514	-0.38
983.24	-0.38
983.967	-1.38
984.693	0.62
985.419	-0.38
986.144	1.62
986.87	-2.38
987.596	-0.38
988.322	-0.38
989.047	1.62
989.773	0.62
990.498	2.62
991.224	0.62
991.949	-0.38
992.674	0.62
993.399	0.62
994.124	-1.38
994.849	3.62
995.574	-0.38
996.299	0.62
997.024	0.62
997.749	1.62
998.473	-1.38
999.198	-0.38
999.922	-1.38
1000.647	-0.38
1001.371	3.62
1002.095	-1.38
1002.82	-2.38
1003.544	-2.38
1004.268	0.62
1004.992	1.62
1005.716	0.62
1006.439	-2.38
1007.163	-1.38
1007.887	2.62
1008.611	0.62
1009.334	1.62
1010.058	1.62
1010.781	-0.38
1011.504	0.62
1012.228	-0.38
1012.951	-1.38
1013.674	0.62
1014.397	1.62
1015.12	1.62
