节点500_145_QEPB04081__191__11-32-00-527.txt的数据

Date: Wed Nov 12 11:32:00 CST 2025
User: PC
Spectrometer: QEPB0408
触发模式: 0
积分时间 (秒): 1.000000E-2
Scans to average: 1
启用暗噪声校正: true
启用非线性校正: false
滑动平均宽度: 0
X轴模式: Wavelengths
Number of Pixels in Spectrum: 1044
>>>>>Begin Spectral Data<<<<<
220.843	-4.5
221.644	-0.5
222.444	-0.5
223.244	1.5
224.045	-0.5
224.845	0.5
225.645	-0.5
226.445	-0.5
227.245	1.5
228.045	1.5
228.845	0.5
229.645	-0.5
230.444	0.5
231.244	1.5
232.043	-0.5
232.843	1.5
233.642	1.5
234.442	0.5
235.241	-0.5
236.04	1.5
236.839	1.5
237.638	0.5
238.437	0.5
239.236	-2.5
240.035	1.5
240.833	-0.5
241.632	-0.5
242.43	1.5
243.229	-0.5
244.027	-0.5
244.826	-0.5
245.624	1.5
246.422	0.5
247.22	-0.5
248.018	0.5
248.816	1.5
249.614	1.5
250.412	1.5
251.21	2.5
252.007	4.5
252.805	3.5
253.602	4.5
254.4	0.5
255.197	2.5
255.994	4.5
256.791	3.5
257.589	4.5
258.386	1.5
259.183	3.5
259.979	3.5
260.776	3.5
261.573	3.5
262.37	2.5
263.166	4.5
263.963	8.5
264.759	7.5
265.556	4.5
266.352	6.5
267.148	4.5
267.944	4.5
268.74	8.5
269.536	5.5
270.332	5.5
271.128	8.5
271.924	7.5
272.719	8.5
273.515	9.5
274.311	7.5
275.106	8.5
275.901	8.5
276.697	9.5
277.492	9.5
278.287	8.5
279.082	10.5
279.877	8.5
280.672	9.5
281.467	11.5
282.262	9.5
283.056	12.5
283.851	11.5
284.646	12.5
285.44	10.5
286.234	9.5
287.029	11.5
287.823	10.5
288.617	12.5
289.411	10.5
290.205	9.5
290.999	11.5
291.793	13.5
292.587	12.5
293.381	10.5
294.174	11.5
294.968	10.5
295.761	8.5
296.555	8.5
297.348	11.5
298.141	11.5
298.935	9.5
299.728	9.5
300.521	9.5
301.314	10.5
302.107	9.5
302.899	8.5
303.692	8.5
304.485	6.5
305.277	7.5
306.07	7.5
306.862	8.5
307.655	7.5
308.447	8.5
309.239	6.5
310.031	6.5
310.823	4.5
311.615	7.5
312.407	5.5
313.199	4.5
313.991	4.5
314.783	3.5
315.574	4.5
316.366	4.5
317.157	4.5
317.949	3.5
318.74	3.5
319.531	2.5
320.322	4.5
321.113	7.5
321.904	4.5
322.695	4.5
323.486	6.5
324.277	3.5
325.068	5.5
325.858	2.5
326.649	2.5
327.439	4.5
328.23	4.5
329.02	2.5
329.81	3.5
330.6	-0.5
331.391	2.5
332.181	3.5
332.971	4.5
333.76	3.5
334.55	3.5
335.34	2.5
336.13	1.5
336.919	2.5
337.709	2.5
338.498	3.5
339.287	2.5
340.077	3.5
340.866	3.5
341.655	2.5
342.444	3.5
343.233	4.5
344.022	0.5
344.811	3.5
345.6	1.5
346.388	2.5
347.177	2.5
347.965	1.5
348.754	4.5
349.542	2.5
350.33	2.5
351.119	2.5
351.907	3.5
352.695	5.5
353.483	3.5
354.271	2.5
355.059	3.5
355.846	2.5
356.634	0.5
357.422	4.5
358.209	4.5
358.997	2.5
359.784	2.5
360.571	2.5
361.359	-0.5
362.146	2.5
362.933	1.5
363.72	3.5
364.507	4.5
365.294	2.5
366.081	1.5
366.867	0.5
367.654	1.5
368.44	2.5
369.227	0.5
370.013	-0.5
370.8	-2.5
371.586	2.5
372.372	0.5
373.158	0.5
373.944	1.5
374.73	2.5
375.516	0.5
376.302	2.5
377.088	3.5
377.873	3.5
378.659	3.5
379.445	3.5
380.23	3.5
381.015	0.5
381.801	3.5
382.586	-0.5
383.371	3.5
384.156	1.5
384.941	0.5
385.726	1.5
386.511	1.5
387.296	4.5
388.08	1.5
388.865	2.5
389.649	1.5
390.434	3.5
391.218	-0.5
392.003	2.5
392.787	2.5
393.571	0.5
394.355	5.5
395.139	2.5
395.923	1.5
396.707	4.5
397.491	3.5
398.274	2.5
399.058	2.5
399.842	2.5
400.625	4.5
401.408	1.5
402.192	4.5
402.975	2.5
403.758	4.5
404.541	4.5
405.324	3.5
406.107	5.5
406.89	2.5
407.673	4.5
408.456	1.5
409.238	1.5
410.021	3.5
410.803	2.5
411.586	4.5
412.368	4.5
413.151	4.5
413.933	1.5
414.715	5.5
415.497	4.5
416.279	5.5
417.061	6.5
417.843	6.5
418.624	3.5
419.406	4.5
420.188	5.5
420.969	6.5
421.751	4.5
422.532	6.5
423.313	4.5
424.095	5.5
424.876	7.5
425.657	5.5
426.438	4.5
427.219	7.5
428	5.5
428.78	4.5
429.561	8.5
430.342	8.5
431.122	7.5
431.903	8.5
432.683	8.5
433.464	9.5
434.244	8.5
435.024	8.5
435.804	6.5
436.584	6.5
437.364	10.5
438.144	9.5
438.924	9.5
439.704	9.5
440.483	9.5
441.263	12.5
442.042	13.5
442.822	13.5
443.601	12.5
444.38	12.5
445.16	15.5
445.939	16.5
446.718	16.5
447.497	18.5
448.276	19.5
449.054	18.5
449.833	24.5
450.612	25.5
451.391	29.5
452.169	27.5
452.948	29.5
453.726	33.5
454.504	34.5
455.282	40.5
456.061	42.5
456.839	46.5
457.617	52.5
458.395	59.5
459.172	61.5
459.95	69.5
460.728	75.5
461.506	84.5
462.283	95.5
463.061	105.5
463.838	120.5
464.615	134.5
465.393	146.5
466.17	168.5
466.947	187.5
467.724	197.5
468.501	232.5
469.278	251.5
470.055	289.5
470.831	317.5
471.608	362.5
472.385	401.5
473.161	448.5
473.938	501.5
474.714	552.5
475.49	611.5
476.266	684.5
477.043	759.5
477.819	848.5
478.595	934.5
479.371	1029.5
480.146	1155.5
480.922	1273.5
481.698	1393.5
482.473	1550.5
483.249	1726.5
484.024	1907.5
484.8	2098.5
485.575	2306.5
486.35	2558.5
487.126	2836.5
487.901	3112.5
488.676	3446.5
489.451	3814.5
490.225	4183.5
491	4608.5
491.775	5061.5
492.55	5564.5
493.324	6137.5
494.099	6728.5
494.873	7331.5
495.647	8018.5
496.422	8721.5
497.196	9446.5
497.97	10195.5
498.744	10982.5
499.518	11701.5
500.292	12541.5
501.066	13266.5
501.839	13940.5
502.613	14665.5
503.387	15293.5
504.16	15818.5
504.934	16293.5
505.707	16549.5
506.48	16805.5
507.253	16950.5
508.027	17004.5
508.8	16892.5
509.573	16666.5
510.346	16413.5
511.118	16015.5
511.891	15460.5
512.664	14993.5
513.437	14436.5
514.209	13868.5
514.982	13307.5
515.754	12721.5
516.526	12100.5
517.298	11562.5
518.071	11073.5
518.843	10544.5
519.615	10131.5
520.387	9708.5
521.159	9348.5
521.93	8939.5
522.702	8573.5
523.474	8241.5
524.245	7943.5
525.017	7641.5
525.788	7308.5
526.56	6993.5
527.331	6752.5
528.102	6400.5
528.873	6145.5
529.644	5826.5
530.415	5612.5
531.186	5278.5
531.957	5023.5
532.728	4754.5
533.498	4498.5
534.269	4236.5
535.039	4011.5
535.81	3781.5
536.58	3594.5
537.351	3390.5
538.121	3200.5
538.891	3022.5
539.661	2849.5
540.431	2686.5
541.201	2551.5
541.971	2425.5
542.741	2303.5
543.51	2172.5
544.28	2062.5
545.05	1963.5
545.819	1874.5
546.588	1777.5
547.358	1672.5
548.127	1590.5
548.896	1512.5
549.665	1447.5
550.434	1364.5
551.203	1286.5
551.972	1219.5
552.741	1172.5
553.51	1108.5
554.278	1047.5
555.047	985.5
555.815	921.5
556.584	877.5
557.352	832.5
558.121	774.5
558.889	732.5
559.657	679.5
560.425	643.5
561.193	611.5
561.961	569.5
562.729	541.5
563.496	514.5
564.264	477.5
565.032	451.5
565.799	431.5
566.567	408.5
567.334	384.5
568.101	361.5
568.869	338.5
569.636	328.5
570.403	303.5
571.17	285.5
571.937	269.5
572.704	263.5
573.471	240.5
574.237	229.5
575.004	212.5
575.771	202.5
576.537	185.5
577.303	178.5
578.07	168.5
578.836	160.5
579.602	147.5
580.368	143.5
581.134	131.5
581.9	126.5
582.666	120.5
583.432	112.5
584.198	107.5
584.964	102.5
585.729	101.5
586.495	90.5
587.26	83.5
588.025	80.5
588.791	74.5
589.556	70.5
590.321	70.5
591.086	66.5
591.851	58.5
592.616	56.5
593.381	57.5
594.146	54.5
594.911	51.5
595.675	48.5
596.44	45.5
597.204	41.5
597.969	43.5
598.733	39.5
599.497	39.5
600.261	35.5
601.025	33.5
601.79	32.5
602.553	31.5
603.317	31.5
604.081	28.5
604.845	24.5
605.609	24.5
606.372	24.5
607.136	23.5
607.899	26.5
608.662	23.5
609.426	20.5
610.189	16.5
610.952	20.5
611.715	19.5
612.478	17.5
613.241	15.5
614.004	13.5
614.767	15.5
615.529	16.5
616.292	14.5
617.055	13.5
617.817	12.5
618.579	12.5
619.342	11.5
620.104	12.5
620.866	11.5
621.628	8.5
622.39	11.5
623.152	10.5
623.914	9.5
624.676	10.5
625.438	7.5
626.199	8.5
626.961	9.5
627.722	8.5
628.484	7.5
629.245	5.5
630.006	5.5
630.768	7.5
631.529	6.5
632.29	6.5
633.051	6.5
633.812	5.5
634.573	6.5
635.333	4.5
636.094	5.5
636.855	4.5
637.615	4.5
638.376	3.5
639.136	3.5
639.896	5.5
640.657	3.5
641.417	4.5
642.177	6.5
642.937	4.5
643.697	3.5
644.457	3.5
645.216	5.5
645.976	4.5
646.736	4.5
647.495	5.5
648.255	3.5
649.014	5.5
649.774	4.5
650.533	1.5
651.292	1.5
652.051	4.5
652.81	3.5
653.569	4.5
654.328	3.5
655.087	3.5
655.846	3.5
656.604	1.5
657.363	1.5
658.121	4.5
658.88	3.5
659.638	3.5
660.397	1.5
661.155	2.5
661.913	1.5
662.671	2.5
663.429	1.5
664.187	3.5
664.945	0.5
665.703	0.5
666.46	2.5
667.218	2.5
667.976	1.5
668.733	1.5
669.49	3.5
670.248	2.5
671.005	3.5
671.762	2.5
672.519	0.5
673.276	2.5
674.033	1.5
674.79	0.5
675.547	1.5
676.304	1.5
677.06	2.5
677.817	1.5
678.574	1.5
679.33	2.5
680.086	3.5
680.843	1.5
681.599	0.5
682.355	2.5
683.111	1.5
683.867	2.5
684.623	1.5
685.379	0.5
686.135	0.5
686.89	-0.5
687.646	2.5
688.402	0.5
689.157	1.5
689.912	0.5
690.668	-0.5
691.423	1.5
692.178	0.5
692.933	1.5
693.688	2.5
694.443	2.5
695.198	1.5
695.953	0.5
696.708	3.5
697.462	0.5
698.217	3.5
698.972	2.5
699.726	0.5
700.48	2.5
701.235	-2.5
701.989	1.5
702.743	-0.5
703.497	1.5
704.251	0.5
705.005	0.5
705.759	0.5
706.513	2.5
707.266	3.5
708.02	0.5
708.774	0.5
709.527	2.5
710.28	0.5
711.034	1.5
711.787	-1.5
712.54	4.5
713.293	-0.5
714.046	0.5
714.799	2.5
715.552	0.5
716.305	0.5
717.058	-1.5
717.81	1.5
718.563	1.5
719.315	2.5
720.068	0.5
720.82	0.5
721.573	0.5
722.325	0.5
723.077	2.5
723.829	-0.5
724.581	2.5
725.333	-1.5
726.085	2.5
726.836	1.5
727.588	0.5
728.34	0.5
729.091	2.5
729.843	-0.5
730.594	0.5
731.346	0.5
732.097	1.5
732.848	3.5
733.599	2.5
734.35	-1.5
735.101	1.5
735.852	1.5
736.603	0.5
737.354	2.5
738.104	3.5
738.855	2.5
739.605	-0.5
740.356	0.5
741.106	3.5
741.856	1.5
742.607	0.5
743.357	0.5
744.107	2.5
744.857	1.5
745.607	1.5
746.357	3.5
747.106	0.5
747.856	2.5
748.606	2.5
749.355	2.5
750.105	1.5
750.854	2.5
751.603	0.5
752.353	0.5
753.102	3.5
753.851	3.5
754.6	2.5
755.349	3.5
756.098	1.5
756.847	1.5
757.595	3.5
758.344	4.5
759.093	2.5
759.841	1.5
760.589	-0.5
761.338	1.5
762.086	2.5
762.834	1.5
763.582	3.5
764.331	2.5
765.079	1.5
765.826	2.5
766.574	2.5
767.322	3.5
768.07	3.5
768.817	4.5
769.565	3.5
770.312	4.5
771.06	4.5
771.807	2.5
772.554	5.5
773.302	2.5
774.049	2.5
774.796	3.5
775.543	3.5
776.29	3.5
777.036	3.5
777.783	6.5
778.53	4.5
779.276	4.5
780.023	3.5
780.769	4.5
781.516	1.5
782.262	3.5
783.008	5.5
783.754	1.5
784.5	5.5
785.246	4.5
785.992	5.5
786.738	3.5
787.484	1.5
788.23	5.5
788.975	5.5
789.721	3.5
790.466	5.5
791.212	5.5
791.957	4.5
792.702	4.5
793.447	6.5
794.193	3.5
794.938	4.5
795.683	4.5
796.427	4.5
797.172	4.5
797.917	3.5
798.662	6.5
799.406	6.5
800.151	3.5
800.895	3.5
801.64	2.5
802.384	3.5
803.128	2.5
803.872	6.5
804.616	1.5
805.36	4.5
806.104	3.5
806.848	3.5
807.592	3.5
808.336	3.5
809.079	1.5
809.823	4.5
810.566	1.5
811.31	2.5
812.053	0.5
812.796	2.5
813.539	3.5
814.283	2.5
815.026	1.5
815.769	1.5
816.511	1.5
817.254	2.5
817.997	3.5
818.74	2.5
819.482	2.5
820.225	1.5
820.967	4.5
821.71	2.5
822.452	4.5
823.194	3.5
823.936	0.5
824.678	1.5
825.42	1.5
826.162	2.5
826.904	2.5
827.646	-0.5
828.388	2.5
829.129	3.5
829.871	1.5
830.612	1.5
831.354	4.5
832.095	0.5
832.836	1.5
833.577	2.5
834.319	1.5
835.06	1.5
835.801	5.5
836.542	1.5
837.282	3.5
838.023	1.5
838.764	4.5
839.504	1.5
840.245	1.5
840.985	0.5
841.726	0.5
842.466	2.5
843.206	-3.5
843.946	0.5
844.687	0.5
845.427	-0.5
846.166	1.5
846.906	0.5
847.646	1.5
848.386	0.5
849.125	1.5
849.865	1.5
850.605	2.5
851.344	1.5
852.083	-0.5
852.823	0.5
853.562	-1.5
854.301	0.5
855.04	1.5
855.779	2.5
856.518	-1.5
857.257	-0.5
857.995	1.5
858.734	0.5
859.473	-0.5
860.211	-0.5
860.95	-0.5
861.688	1.5
862.426	0.5
863.165	0.5
863.903	-0.5
864.641	-0.5
865.379	0.5
866.117	2.5
866.855	1.5
867.593	-0.5
868.33	-2.5
869.068	-2.5
869.806	2.5
870.543	0.5
871.28	0.5
872.018	0.5
872.755	0.5
873.492	1.5
874.229	-0.5
874.967	0.5
875.703	0.5
876.44	0.5
877.177	-0.5
877.914	-2.5
878.651	2.5
879.387	-2.5
880.124	0.5
880.86	0.5
881.597	-0.5
882.333	0.5
883.069	-0.5
883.806	1.5
884.542	0.5
885.278	-0.5
886.014	-0.5
886.749	-0.5
887.485	1.5
888.221	-2.5
888.957	1.5
889.692	0.5
890.428	-0.5
891.163	0.5
891.899	-0.5
892.634	-0.5
893.369	-0.5
894.104	1.5
894.839	0.5
895.574	-1.5
896.309	1.5
897.044	-1.5
897.779	0.5
898.514	1.5
899.248	1.5
899.983	-1.5
900.717	-0.5
901.452	0.5
902.186	1.5
902.92	1.5
903.654	-1.5
904.389	1.5
905.123	-0.5
905.857	-0.5
906.59	-0.5
907.324	0.5
908.058	0.5
908.792	1.5
909.525	-1.5
910.259	0.5
910.992	-1.5
911.726	0.5
912.459	-1.5
913.192	-2.5
913.925	0.5
914.658	0.5
915.391	1.5
916.124	-0.5
916.857	-2.5
917.59	2.5
918.323	-0.5
919.055	-0.5
919.788	-0.5
920.521	-0.5
921.253	-3.5
921.985	-1.5
922.718	0.5
923.45	0.5
924.182	-2.5
924.914	-0.5
925.646	-2.5
926.378	-1.5
927.11	-0.5
927.841	0.5
928.573	0.5
929.305	1.5
930.036	0.5
930.768	-1.5
931.499	0.5
932.23	1.5
932.962	-1.5
933.693	0.5
934.424	-0.5
935.155	0.5
935.886	0.5
936.617	-2.5
937.348	-0.5
938.078	-0.5
938.809	1.5
939.54	-0.5
940.27	1.5
941.001	1.5
941.731	-0.5
942.461	0.5
943.191	-0.5
943.922	-0.5
944.652	-0.5
945.382	-2.5
946.112	0.5
946.841	0.5
947.571	0.5
948.301	-0.5
949.031	-0.5
949.76	-1.5
950.49	-1.5
951.219	-1.5
951.948	-0.5
952.678	-0.5
953.407	-0.5
954.136	0.5
954.865	-1.5
955.594	-1.5
956.323	1.5
957.052	1.5
957.78	0.5
958.509	-0.5
959.238	-0.5
959.966	-1.5
960.695	-0.5
961.423	-0.5
962.151	-2.5
962.88	0.5
963.608	-1.5
964.336	-0.5
965.064	0.5
965.792	-2.5
966.52	-0.5
967.247	-2.5
967.975	0.5
968.703	-3.5
969.43	1.5
970.158	-0.5
970.885	-0.5
971.613	0.5
972.34	-4.5
973.067	-0.5
973.794	-0.5
974.521	-2.5
975.248	-0.5
975.975	-2.5
976.702	0.5
977.429	-2.5
978.156	1.5
978.882	-1.5
979.609	-2.5
980.335	1.5
981.062	-0.5
981.788	-1.5
982.514	-1.5
983.24	0.5
983.967	-0.5
984.693	-0.5
985.419	-0.5
986.144	0.5
986.87	0.5
987.596	0.5
988.322	0.5
989.047	0.5
989.773	0.5
990.498	-1.5
991.224	-0.5
991.949	2.5
992.674	-0.5
993.399	-0.5
994.124	1.5
994.849	-0.5
995.574	0.5
996.299	-0.5
997.024	0.5
997.749	-2.5
998.473	0.5
999.198	-0.5
999.922	-0.5
1000.647	-0.5
1001.371	2.5
1002.095	-0.5
1002.82	-0.5
1003.544	-0.5
1004.268	-3.5
1004.992	-1.5
1005.716	-2.5
1006.439	-2.5
1007.163	0.5
1007.887	1.5
1008.611	-2.5
1009.334	-0.5
1010.058	-1.5
1010.781	0.5
1011.504	0.5
1012.228	-0.5
1012.951	2.5
1013.674	-1.5
1014.397	-1.5
1015.12	-0.5
