节点500_145_QEPB04081__14__11-29-09-834.txt的数据

Date: Wed Nov 12 11:29:09 CST 2025
User: PC
Spectrometer: QEPB0408
触发模式: 0
积分时间 (秒): 1.000000E-2
Scans to average: 1
启用暗噪声校正: true
启用非线性校正: false
滑动平均宽度: 0
X轴模式: Wavelengths
Number of Pixels in Spectrum: 1044
>>>>>Begin Spectral Data<<<<<
220.843	1
221.644	0
222.444	1
223.244	1
224.045	1
224.845	2
225.645	2
226.445	0
227.245	-1
228.045	1
228.845	2
229.645	1
230.444	3
231.244	1
232.043	3
232.843	2
233.642	4
234.442	2
235.241	3
236.04	3
236.839	3
237.638	2
238.437	1
239.236	4
240.035	4
240.833	0
241.632	2
242.43	0
243.229	4
244.027	5
244.826	3
245.624	1
246.422	3
247.22	3
248.018	6
248.816	4
249.614	1
250.412	3
251.21	3
252.007	5
252.805	7
253.602	2
254.4	6
255.197	5
255.994	7
256.791	5
257.589	6
258.386	7
259.183	5
259.979	7
260.776	4
261.573	7
262.37	7
263.166	8
263.963	5
264.759	9
265.556	5
266.352	6
267.148	8
267.944	10
268.74	9
269.536	5
270.332	7
271.128	10
271.924	6
272.719	9
273.515	8
274.311	10
275.106	10
275.901	13
276.697	10
277.492	9
278.287	10
279.082	12
279.877	14
280.672	14
281.467	13
282.262	13
283.056	11
283.851	14
284.646	12
285.44	14
286.234	11
287.029	14
287.823	13
288.617	12
289.411	13
290.205	12
290.999	9
291.793	14
292.587	12
293.381	13
294.174	14
294.968	12
295.761	13
296.555	9
297.348	10
298.141	13
298.935	11
299.728	11
300.521	11
301.314	10
302.107	9
302.899	10
303.692	10
304.485	8
305.277	10
306.07	11
306.862	7
307.655	9
308.447	10
309.239	9
310.031	8
310.823	6
311.615	8
312.407	6
313.199	8
313.991	8
314.783	6
315.574	6
316.366	5
317.157	6
317.949	4
318.74	5
319.531	5
320.322	6
321.113	7
321.904	5
322.695	4
323.486	4
324.277	4
325.068	7
325.858	4
326.649	6
327.439	5
328.23	5
329.02	8
329.81	2
330.6	7
331.391	3
332.181	2
332.971	6
333.76	4
334.55	4
335.34	5
336.13	6
336.919	4
337.709	3
338.498	6
339.287	5
340.077	3
340.866	5
341.655	5
342.444	7
343.233	3
344.022	5
344.811	3
345.6	3
346.388	3
347.177	7
347.965	6
348.754	4
349.542	5
350.33	4
351.119	5
351.907	3
352.695	3
353.483	3
354.271	3
355.059	5
355.846	4
356.634	2
357.422	3
358.209	1
358.997	4
359.784	3
360.571	5
361.359	2
362.146	4
362.933	4
363.72	4
364.507	4
365.294	3
366.081	5
366.867	2
367.654	8
368.44	3
369.227	4
370.013	2
370.8	3
371.586	2
372.372	3
373.158	3
373.944	5
374.73	5
375.516	5
376.302	1
377.088	5
377.873	2
378.659	5
379.445	3
380.23	2
381.015	2
381.801	5
382.586	3
383.371	5
384.156	4
384.941	2
385.726	3
386.511	4
387.296	2
388.08	3
388.865	6
389.649	4
390.434	5
391.218	5
392.003	3
392.787	4
393.571	5
394.355	5
395.139	3
395.923	5
396.707	1
397.491	5
398.274	5
399.058	4
399.842	5
400.625	5
401.408	4
402.192	6
402.975	3
403.758	3
404.541	3
405.324	5
406.107	3
406.89	3
407.673	3
408.456	3
409.238	3
410.021	4
410.803	5
411.586	4
412.368	8
413.151	6
413.933	8
414.715	5
415.497	5
416.279	8
417.061	8
417.843	6
418.624	5
419.406	6
420.188	6
420.969	6
421.751	6
422.532	6
423.313	7
424.095	6
424.876	8
425.657	6
426.438	8
427.219	8
428	6
428.78	10
429.561	9
430.342	7
431.122	7
431.903	8
432.683	9
433.464	9
434.244	10
435.024	10
435.804	10
436.584	13
437.364	10
438.144	10
438.924	10
439.704	12
440.483	14
441.263	13
442.042	12
442.822	13
443.601	15
444.38	13
445.16	17
445.939	17
446.718	18
447.497	22
448.276	22
449.054	19
449.833	23
450.612	22
451.391	26
452.169	29
452.948	31
453.726	29
454.504	35
455.282	38
456.061	39
456.839	43
457.617	49
458.395	56
459.172	57
459.95	66
460.728	73
461.506	77
462.283	88
463.061	98
463.838	108
464.615	121
465.393	136
466.17	150
466.947	167
467.724	191
468.501	215
469.278	232
470.055	267
470.831	290
471.608	329
472.385	373
473.161	414
473.938	465
474.714	522
475.49	581
476.266	649
477.043	722
477.819	807
478.595	884
479.371	1002
480.146	1108
480.922	1244
481.698	1372
482.473	1515
483.249	1684
484.024	1875
484.8	2059
485.575	2322
486.35	2559
487.126	2858
487.901	3164
488.676	3504
489.451	3897
490.225	4331
491	4787
491.775	5259
492.55	5840
493.324	6469
494.099	7060
494.873	7705
495.647	8452
496.422	9249
497.196	10017
497.97	10845
498.744	11659
499.518	12539
500.292	13327
501.066	14081
501.839	14796
502.613	15506
503.387	16132
504.16	16655
504.934	16987
505.707	17329
506.48	17459
507.253	17502
508.027	17456
508.8	17210
509.573	16954
510.346	16514
511.118	16072
511.891	15405
512.664	14868
513.437	14229
514.209	13650
514.982	13031
515.754	12447
516.526	11871
517.298	11318
518.071	10773
518.843	10290
519.615	9849
520.387	9439
521.159	9097
521.93	8729
522.702	8363
523.474	8070
524.245	7751
525.017	7442
525.788	7122
526.56	6835
527.331	6527
528.102	6231
528.873	5950
529.644	5695
530.415	5386
531.186	5123
531.957	4827
532.728	4555
533.498	4307
534.269	4060
535.039	3843
535.81	3620
536.58	3410
537.351	3207
538.121	3019
538.891	2865
539.661	2719
540.431	2556
541.201	2464
541.971	2310
542.741	2182
543.51	2072
544.28	1963
545.05	1862
545.819	1766
546.588	1690
547.358	1614
548.127	1517
548.896	1451
549.665	1371
550.434	1303
551.203	1224
551.972	1160
552.741	1103
553.51	1048
554.278	988
555.047	930
555.815	875
556.584	828
557.352	785
558.121	722
558.889	688
559.657	650
560.425	613
561.193	580
561.961	547
562.729	518
563.496	486
564.264	460
565.032	431
565.799	406
566.567	389
567.334	359
568.101	340
568.869	323
569.636	311
570.403	291
571.17	273
571.937	260
572.704	241
573.471	226
574.237	213
575.004	204
575.771	190
576.537	179
577.303	167
578.07	158
578.836	156
579.602	138
580.368	128
581.134	125
581.9	123
582.666	113
583.432	107
584.198	103
584.964	98
585.729	91
586.495	85
587.26	81
588.025	77
588.791	71
589.556	69
590.321	63
591.086	63
591.851	59
592.616	52
593.381	52
594.146	51
594.911	45
595.675	44
596.44	45
597.204	39
597.969	40
598.733	35
599.497	35
600.261	35
601.025	33
601.79	30
602.553	30
603.317	28
604.081	30
604.845	27
605.609	24
606.372	23
607.136	24
607.899	21
608.662	19
609.426	22
610.189	18
610.952	20
611.715	18
612.478	15
613.241	17
614.004	17
614.767	16
615.529	12
616.292	16
617.055	16
617.817	12
618.579	15
619.342	12
620.104	12
620.866	10
621.628	11
622.39	11
623.152	10
623.914	11
624.676	11
625.438	9
626.199	8
626.961	9
627.722	10
628.484	10
629.245	9
630.006	8
630.768	10
631.529	9
632.29	9
633.051	8
633.812	7
634.573	8
635.333	6
636.094	5
636.855	7
637.615	6
638.376	8
639.136	6
639.896	7
640.657	7
641.417	6
642.177	6
642.937	6
643.697	6
644.457	5
645.216	5
645.976	6
646.736	5
647.495	6
648.255	6
649.014	5
649.774	3
650.533	4
651.292	6
652.051	5
652.81	5
653.569	6
654.328	5
655.087	5
655.846	3
656.604	5
657.363	4
658.121	7
658.88	3
659.638	6
660.397	4
661.155	5
661.913	2
662.671	2
663.429	5
664.187	2
664.945	7
665.703	3
666.46	4
667.218	5
667.976	2
668.733	3
669.49	2
670.248	4
671.005	5
671.762	3
672.519	3
673.276	2
674.033	2
674.79	1
675.547	5
676.304	3
677.06	4
677.817	4
678.574	2
679.33	1
680.086	2
680.843	5
681.599	4
682.355	3
683.111	3
683.867	3
684.623	6
685.379	4
686.135	2
686.89	4
687.646	3
688.402	3
689.157	5
689.912	3
690.668	2
691.423	6
692.178	2
692.933	4
693.688	5
694.443	1
695.198	4
695.953	4
696.708	3
697.462	3
698.217	2
698.972	4
699.726	2
700.48	4
701.235	5
701.989	2
702.743	0
703.497	2
704.251	5
705.005	3
705.759	2
706.513	3
707.266	2
708.02	4
708.774	3
709.527	3
710.28	6
711.034	2
711.787	4
712.54	1
713.293	2
714.046	3
714.799	3
715.552	3
716.305	2
717.058	3
717.81	4
718.563	3
719.315	3
720.068	4
720.82	3
721.573	3
722.325	2
723.077	2
723.829	2
724.581	4
725.333	2
726.085	3
726.836	1
727.588	1
728.34	2
729.091	2
729.843	4
730.594	2
731.346	1
732.097	6
732.848	5
733.599	3
734.35	2
735.101	1
735.852	2
736.603	1
737.354	3
738.104	4
738.855	2
739.605	2
740.356	2
741.106	4
741.856	7
742.607	5
743.357	3
744.107	2
744.857	2
745.607	5
746.357	2
747.106	4
747.856	3
748.606	5
749.355	4
750.105	5
750.854	4
751.603	2
752.353	4
753.102	2
753.851	5
754.6	6
755.349	1
756.098	5
756.847	4
757.595	6
758.344	3
759.093	5
759.841	2
760.589	4
761.338	5
762.086	3
762.834	5
763.582	5
764.331	4
765.079	4
765.826	8
766.574	4
767.322	3
768.07	6
768.817	3
769.565	5
770.312	4
771.06	3
771.807	5
772.554	8
773.302	5
774.049	5
774.796	7
775.543	7
776.29	6
777.036	6
777.783	7
778.53	7
779.276	6
780.023	6
780.769	7
781.516	5
782.262	9
783.008	6
783.754	7
784.5	7
785.246	8
785.992	7
786.738	6
787.484	9
788.23	5
788.975	8
789.721	7
790.466	5
791.212	7
791.957	7
792.702	5
793.447	5
794.193	6
794.938	3
795.683	8
796.427	7
797.172	4
797.917	8
798.662	5
799.406	6
800.151	5
800.895	3
801.64	4
802.384	6
803.128	5
803.872	6
804.616	9
805.36	4
806.104	4
806.848	5
807.592	4
808.336	7
809.079	5
809.823	8
810.566	5
811.31	6
812.053	6
812.796	6
813.539	5
814.283	5
815.026	5
815.769	6
816.511	3
817.254	4
817.997	2
818.74	5
819.482	5
820.225	4
820.967	3
821.71	4
822.452	4
823.194	2
823.936	6
824.678	4
825.42	1
826.162	3
826.904	5
827.646	4
828.388	2
829.129	3
829.871	3
830.612	3
831.354	2
832.095	3
832.836	4
833.577	1
834.319	3
835.06	3
835.801	2
836.542	4
837.282	4
838.023	4
838.764	4
839.504	5
840.245	3
840.985	3
841.726	3
842.466	2
843.206	4
843.946	3
844.687	2
845.427	5
846.166	1
846.906	4
847.646	2
848.386	3
849.125	3
849.865	3
850.605	5
851.344	0
852.083	2
852.823	3
853.562	3
854.301	1
855.04	3
855.779	3
856.518	1
857.257	2
857.995	2
858.734	3
859.473	3
860.211	2
860.95	3
861.688	4
862.426	3
863.165	4
863.903	1
864.641	3
865.379	1
866.117	2
866.855	-1
867.593	2
868.33	3
869.068	4
869.806	2
870.543	3
871.28	3
872.018	2
872.755	2
873.492	3
874.229	1
874.967	1
875.703	3
876.44	-1
877.177	1
877.914	1
878.651	1
879.387	3
880.124	3
880.86	1
881.597	-1
882.333	1
883.069	0
883.806	1
884.542	2
885.278	2
886.014	1
886.749	3
887.485	2
888.221	2
888.957	1
889.692	1
890.428	2
891.163	2
891.899	0
892.634	-1
893.369	3
894.104	-1
894.839	2
895.574	1
896.309	0
897.044	3
897.779	0
898.514	1
899.248	1
899.983	2
900.717	3
901.452	1
902.186	0
902.92	1
903.654	3
904.389	2
905.123	1
905.857	2
906.59	2
907.324	1
908.058	3
908.792	-1
909.525	1
910.259	3
910.992	1
911.726	1
912.459	0
913.192	2
913.925	0
914.658	1
915.391	2
916.124	3
916.857	0
917.59	3
918.323	1
919.055	0
919.788	3
920.521	1
921.253	2
921.985	2
922.718	2
923.45	2
924.182	1
924.914	1
925.646	1
926.378	1
927.11	0
927.841	0
928.573	0
929.305	1
930.036	1
930.768	1
931.499	1
932.23	2
932.962	-1
933.693	1
934.424	-1
935.155	3
935.886	1
936.617	2
937.348	3
938.078	0
938.809	-1
939.54	0
940.27	1
941.001	2
941.731	0
942.461	0
943.191	2
943.922	1
944.652	1
945.382	2
946.112	1
946.841	1
947.571	1
948.301	1
949.031	2
949.76	-1
950.49	3
951.219	-1
951.948	2
952.678	2
953.407	0
954.136	3
954.865	2
955.594	1
956.323	1
957.052	0
957.78	0
958.509	2
959.238	1
959.966	-1
960.695	1
961.423	0
962.151	-1
962.88	1
963.608	-1
964.336	2
965.064	2
965.792	1
966.52	1
967.247	-1
967.975	3
968.703	3
969.43	1
970.158	3
970.885	0
971.613	2
972.34	-1
973.067	1
973.794	0
974.521	0
975.248	2
975.975	2
976.702	4
977.429	1
978.156	3
978.882	0
979.609	2
980.335	1
981.062	2
981.788	1
982.514	0
983.24	1
983.967	-1
984.693	1
985.419	1
986.144	-1
986.87	1
987.596	2
988.322	1
989.047	2
989.773	1
990.498	2
991.224	-1
991.949	1
992.674	-1
993.399	2
994.124	2
994.849	1
995.574	2
996.299	-1
997.024	2
997.749	0
998.473	1
999.198	2
999.922	2
1000.647	1
1001.371	4
1002.095	-3
1002.82	0
1003.544	0
1004.268	2
1004.992	0
1005.716	0
1006.439	0
1007.163	1
1007.887	1
1008.611	-1
1009.334	1
1010.058	2
1010.781	4
1011.504	2
1012.228	-1
1012.951	-1
1013.674	0
1014.397	2
1015.12	-2
