节点500_145_QEPB04081__417__11-35-38-518.txt的数据

Date: Wed Nov 12 11:35:38 CST 2025
User: PC
Spectrometer: QEPB0408
触发模式: 0
积分时间 (秒): 1.000000E-2
Scans to average: 1
启用暗噪声校正: true
启用非线性校正: false
滑动平均宽度: 0
X轴模式: Wavelengths
Number of Pixels in Spectrum: 1044
>>>>>Begin Spectral Data<<<<<
220.843	-1
221.644	0
222.444	0
223.244	0
224.045	0
224.845	1
225.645	-2
226.445	-1
227.245	-1
228.045	2
228.845	-1
229.645	1
230.444	0
231.244	0
232.043	0
232.843	0
233.642	0
234.442	-1
235.241	-2
236.04	1
236.839	1
237.638	1
238.437	0
239.236	0
240.035	1
240.833	0
241.632	3
242.43	2
243.229	2
244.027	2
244.826	1
245.624	1
246.422	3
247.22	2
248.018	2
248.816	2
249.614	2
250.412	2
251.21	2
252.007	0
252.805	2
253.602	4
254.4	4
255.197	4
255.994	2
256.791	3
257.589	3
258.386	7
259.183	4
259.979	5
260.776	3
261.573	4
262.37	4
263.166	5
263.963	5
264.759	4
265.556	7
266.352	7
267.148	5
267.944	9
268.74	6
269.536	6
270.332	5
271.128	5
271.924	5
272.719	5
273.515	7
274.311	8
275.106	7
275.901	9
276.697	9
277.492	9
278.287	8
279.082	9
279.877	10
280.672	10
281.467	10
282.262	8
283.056	10
283.851	9
284.646	11
285.44	8
286.234	8
287.029	14
287.823	11
288.617	11
289.411	10
290.205	10
290.999	10
291.793	11
292.587	13
293.381	11
294.174	9
294.968	8
295.761	10
296.555	11
297.348	6
298.141	9
298.935	8
299.728	9
300.521	9
301.314	10
302.107	5
302.899	8
303.692	9
304.485	11
305.277	8
306.07	8
306.862	8
307.655	8
308.447	8
309.239	9
310.031	7
310.823	7
311.615	5
312.407	7
313.199	8
313.991	5
314.783	3
315.574	3
316.366	6
317.157	7
317.949	7
318.74	6
319.531	4
320.322	5
321.113	3
321.904	5
322.695	5
323.486	5
324.277	4
325.068	5
325.858	3
326.649	4
327.439	5
328.23	5
329.02	3
329.81	2
330.6	2
331.391	3
332.181	3
332.971	5
333.76	2
334.55	4
335.34	3
336.13	2
336.919	3
337.709	3
338.498	3
339.287	3
340.077	2
340.866	3
341.655	2
342.444	3
343.233	3
344.022	2
344.811	3
345.6	3
346.388	4
347.177	1
347.965	3
348.754	2
349.542	3
350.33	5
351.119	3
351.907	3
352.695	3
353.483	1
354.271	2
355.059	1
355.846	1
356.634	3
357.422	2
358.209	5
358.997	2
359.784	4
360.571	1
361.359	3
362.146	4
362.933	4
363.72	0
364.507	5
365.294	2
366.081	4
366.867	2
367.654	1
368.44	2
369.227	3
370.013	3
370.8	3
371.586	2
372.372	4
373.158	2
373.944	2
374.73	2
375.516	4
376.302	0
377.088	2
377.873	3
378.659	1
379.445	4
380.23	1
381.015	2
381.801	1
382.586	1
383.371	1
384.156	2
384.941	3
385.726	5
386.511	2
387.296	3
388.08	3
388.865	0
389.649	2
390.434	1
391.218	2
392.003	2
392.787	4
393.571	2
394.355	6
395.139	2
395.923	2
396.707	1
397.491	2
398.274	2
399.058	4
399.842	1
400.625	4
401.408	1
402.192	5
402.975	2
403.758	6
404.541	3
405.324	2
406.107	5
406.89	4
407.673	5
408.456	1
409.238	4
410.021	1
410.803	3
411.586	6
412.368	5
413.151	2
413.933	4
414.715	5
415.497	3
416.279	7
417.061	4
417.843	3
418.624	6
419.406	4
420.188	5
420.969	5
421.751	6
422.532	6
423.313	5
424.095	7
424.876	5
425.657	6
426.438	7
427.219	6
428	6
428.78	7
429.561	9
430.342	4
431.122	6
431.903	7
432.683	9
433.464	7
434.244	9
435.024	9
435.804	9
436.584	10
437.364	5
438.144	10
438.924	10
439.704	10
440.483	11
441.263	13
442.042	13
442.822	14
443.601	15
444.38	15
445.16	17
445.939	15
446.718	15
447.497	17
448.276	18
449.054	20
449.833	27
450.612	26
451.391	28
452.169	32
452.948	32
453.726	34
454.504	38
455.282	41
456.061	44
456.839	56
457.617	59
458.395	59
459.172	70
459.95	77
460.728	84
461.506	93
462.283	109
463.061	116
463.838	136
464.615	148
465.393	168
466.17	186
466.947	206
467.724	232
468.501	251
469.278	277
470.055	315
470.831	348
471.608	385
472.385	421
473.161	471
473.938	523
474.714	578
475.49	645
476.266	697
477.043	784
477.819	860
478.595	950
479.371	1049
480.146	1166
480.922	1272
481.698	1403
482.473	1546
483.249	1698
484.024	1882
484.8	2062
485.575	2256
486.35	2476
487.126	2719
487.901	2990
488.676	3299
489.451	3611
490.225	3958
491	4322
491.775	4730
492.55	5177
493.324	5653
494.099	6177
494.873	6707
495.647	7261
496.422	7897
497.196	8564
497.97	9225
498.744	9944
499.518	10672
500.292	11349
501.066	12068
501.839	12719
502.613	13372
503.387	13951
504.16	14502
504.934	14996
505.707	15365
506.48	15675
507.253	15894
508.027	15999
508.8	16095
509.573	15913
510.346	15782
511.118	15477
511.891	15136
512.664	14689
513.437	14318
514.209	13832
514.982	13262
515.754	12729
516.526	12279
517.298	11697
518.071	11184
518.843	10739
519.615	10279
520.387	9839
521.159	9460
521.93	9072
522.702	8717
523.474	8386
524.245	8053
525.017	7717
525.788	7411
526.56	7099
527.331	6827
528.102	6538
528.873	6240
529.644	5996
530.415	5709
531.186	5441
531.957	5180
532.728	4927
533.498	4691
534.269	4419
535.039	4184
535.81	3941
536.58	3735
537.351	3535
538.121	3352
538.891	3158
539.661	2979
540.431	2822
541.201	2662
541.971	2545
542.741	2407
543.51	2263
544.28	2145
545.05	2055
545.819	1969
546.588	1863
547.358	1776
548.127	1673
548.896	1581
549.665	1523
550.434	1431
551.203	1360
551.972	1289
552.741	1226
553.51	1152
554.278	1100
555.047	1030
555.815	991
556.584	926
557.352	871
558.121	814
558.889	784
559.657	741
560.425	684
561.193	639
561.961	610
562.729	591
563.496	546
564.264	517
565.032	493
565.799	462
566.567	441
567.334	402
568.101	385
568.869	363
569.636	347
570.403	325
571.17	303
571.937	285
572.704	268
573.471	261
574.237	244
575.004	231
575.771	216
576.537	201
577.303	192
578.07	176
578.836	171
579.602	160
580.368	153
581.134	138
581.9	135
582.666	131
583.432	120
584.198	111
584.964	111
585.729	95
586.495	95
587.26	91
588.025	82
588.791	81
589.556	78
590.321	72
591.086	66
591.851	68
592.616	65
593.381	59
594.146	55
594.911	54
595.675	49
596.44	47
597.204	45
597.969	46
598.733	44
599.497	42
600.261	38
601.025	36
601.79	35
602.553	31
603.317	32
604.081	32
604.845	26
605.609	28
606.372	25
607.136	24
607.899	23
608.662	22
609.426	22
610.189	23
610.952	21
611.715	20
612.478	17
613.241	19
614.004	17
614.767	15
615.529	16
616.292	10
617.055	14
617.817	13
618.579	11
619.342	13
620.104	13
620.866	11
621.628	12
622.39	14
623.152	13
623.914	9
624.676	11
625.438	11
626.199	8
626.961	9
627.722	11
628.484	7
629.245	8
630.006	8
630.768	5
631.529	7
632.29	9
633.051	6
633.812	5
634.573	7
635.333	5
636.094	7
636.855	5
637.615	4
638.376	7
639.136	4
639.896	5
640.657	7
641.417	3
642.177	5
642.937	5
643.697	5
644.457	4
645.216	3
645.976	3
646.736	3
647.495	3
648.255	4
649.014	5
649.774	3
650.533	3
651.292	5
652.051	4
652.81	4
653.569	1
654.328	3
655.087	3
655.846	5
656.604	3
657.363	2
658.121	4
658.88	2
659.638	2
660.397	5
661.155	3
661.913	3
662.671	2
663.429	3
664.187	2
664.945	4
665.703	3
666.46	3
667.218	4
667.976	2
668.733	3
669.49	0
670.248	2
671.005	2
671.762	3
672.519	3
673.276	2
674.033	3
674.79	1
675.547	1
676.304	3
677.06	3
677.817	2
678.574	2
679.33	2
680.086	4
680.843	3
681.599	3
682.355	4
683.111	0
683.867	2
684.623	1
685.379	2
686.135	0
686.89	6
687.646	3
688.402	1
689.157	2
689.912	1
690.668	2
691.423	1
692.178	0
692.933	0
693.688	2
694.443	0
695.198	2
695.953	1
696.708	2
697.462	1
698.217	1
698.972	2
699.726	2
700.48	-1
701.235	2
701.989	2
702.743	1
703.497	0
704.251	2
705.005	3
705.759	2
706.513	1
707.266	1
708.02	1
708.774	2
709.527	3
710.28	2
711.034	1
711.787	2
712.54	0
713.293	3
714.046	1
714.799	0
715.552	2
716.305	1
717.058	3
717.81	0
718.563	2
719.315	1
720.068	1
720.82	2
721.573	1
722.325	1
723.077	1
723.829	2
724.581	2
725.333	4
726.085	0
726.836	1
727.588	0
728.34	-1
729.091	2
729.843	2
730.594	0
731.346	-1
732.097	2
732.848	1
733.599	2
734.35	4
735.101	2
735.852	2
736.603	1
737.354	1
738.104	1
738.855	1
739.605	3
740.356	2
741.106	2
741.856	2
742.607	1
743.357	2
744.107	2
744.857	2
745.607	1
746.357	3
747.106	3
747.856	2
748.606	4
749.355	1
750.105	6
750.854	2
751.603	1
752.353	3
753.102	1
753.851	2
754.6	1
755.349	1
756.098	2
756.847	5
757.595	2
758.344	2
759.093	2
759.841	2
760.589	3
761.338	4
762.086	3
762.834	2
763.582	3
764.331	5
765.079	2
765.826	3
766.574	4
767.322	5
768.07	4
768.817	2
769.565	4
770.312	3
771.06	4
771.807	3
772.554	3
773.302	3
774.049	3
774.796	2
775.543	6
776.29	4
777.036	3
777.783	5
778.53	6
779.276	3
780.023	4
780.769	4
781.516	6
782.262	5
783.008	4
783.754	5
784.5	5
785.246	5
785.992	5
786.738	4
787.484	4
788.23	6
788.975	7
789.721	2
790.466	4
791.212	5
791.957	4
792.702	4
793.447	3
794.193	6
794.938	2
795.683	5
796.427	4
797.172	6
797.917	5
798.662	5
799.406	4
800.151	1
800.895	5
801.64	4
802.384	5
803.128	4
803.872	4
804.616	2
805.36	3
806.104	1
806.848	5
807.592	3
808.336	4
809.079	2
809.823	3
810.566	3
811.31	3
812.053	3
812.796	2
813.539	5
814.283	3
815.026	0
815.769	3
816.511	4
817.254	3
817.997	5
818.74	4
819.482	2
820.225	3
820.967	2
821.71	3
822.452	3
823.194	2
823.936	3
824.678	3
825.42	2
826.162	1
826.904	2
827.646	1
828.388	2
829.129	1
829.871	2
830.612	2
831.354	5
832.095	4
832.836	1
833.577	2
834.319	2
835.06	2
835.801	3
836.542	2
837.282	2
838.023	0
838.764	3
839.504	4
840.245	2
840.985	3
841.726	1
842.466	3
843.206	3
843.946	2
844.687	0
845.427	3
846.166	3
846.906	1
847.646	2
848.386	1
849.125	1
849.865	2
850.605	0
851.344	2
852.083	0
852.823	2
853.562	0
854.301	1
855.04	3
855.779	1
856.518	3
857.257	2
857.995	4
858.734	1
859.473	0
860.211	2
860.95	3
861.688	4
862.426	-1
863.165	1
863.903	3
864.641	0
865.379	2
866.117	2
866.855	4
867.593	1
868.33	0
869.068	2
869.806	0
870.543	1
871.28	-1
872.018	1
872.755	0
873.492	1
874.229	2
874.967	1
875.703	0
876.44	1
877.177	-1
877.914	-1
878.651	-1
879.387	2
880.124	-2
880.86	3
881.597	0
882.333	1
883.069	-2
883.806	1
884.542	1
885.278	-2
886.014	1
886.749	1
887.485	2
888.221	1
888.957	0
889.692	1
890.428	-3
891.163	0
891.899	-1
892.634	2
893.369	1
894.104	-1
894.839	0
895.574	1
896.309	1
897.044	-2
897.779	2
898.514	1
899.248	0
899.983	-1
900.717	-1
901.452	0
902.186	1
902.92	1
903.654	1
904.389	0
905.123	1
905.857	-1
906.59	0
907.324	1
908.058	0
908.792	0
909.525	-1
910.259	-2
910.992	1
911.726	0
912.459	-2
913.192	-1
913.925	0
914.658	0
915.391	1
916.124	-1
916.857	-2
917.59	-1
918.323	-1
919.055	-2
919.788	-1
920.521	1
921.253	-2
921.985	1
922.718	1
923.45	1
924.182	1
924.914	0
925.646	1
926.378	-1
927.11	1
927.841	1
928.573	1
929.305	0
930.036	1
930.768	0
931.499	-2
932.23	0
932.962	0
933.693	2
934.424	-1
935.155	-1
935.886	0
936.617	-2
937.348	2
938.078	1
938.809	0
939.54	1
940.27	-2
941.001	0
941.731	-1
942.461	-1
943.191	-1
943.922	-1
944.652	-1
945.382	1
946.112	2
946.841	-1
947.571	2
948.301	0
949.031	-3
949.76	-1
950.49	-1
951.219	0
951.948	0
952.678	1
953.407	0
954.136	0
954.865	0
955.594	1
956.323	-2
957.052	-3
957.78	0
958.509	0
959.238	1
959.966	-2
960.695	-2
961.423	2
962.151	-1
962.88	-1
963.608	1
964.336	0
965.064	-1
965.792	-2
966.52	0
967.247	3
967.975	1
968.703	-1
969.43	-1
970.158	-1
970.885	0
971.613	-2
972.34	0
973.067	0
973.794	-2
974.521	0
975.248	2
975.975	1
976.702	0
977.429	1
978.156	-1
978.882	1
979.609	1
980.335	1
981.062	-1
981.788	1
982.514	1
983.24	1
983.967	2
984.693	-1
985.419	0
986.144	2
986.87	1
987.596	-2
988.322	0
989.047	1
989.773	1
990.498	1
991.224	0
991.949	1
992.674	1
993.399	1
994.124	-2
994.849	0
995.574	0
996.299	-1
997.024	2
997.749	1
998.473	3
999.198	-2
999.922	0
1000.647	0
1001.371	3
1002.095	1
1002.82	-2
1003.544	-1
1004.268	0
1004.992	-2
1005.716	0
1006.439	0
1007.163	1
1007.887	0
1008.611	-2
1009.334	1
1010.058	0
1010.781	0
1011.504	-2
1012.228	-2
1012.951	1
1013.674	0
1014.397	0
1015.12	-2
