节点500_145_QEPB04081__385__11-35-06-596.txt的数据

Date: Wed Nov 12 11:35:06 CST 2025
User: PC
Spectrometer: QEPB0408
触发模式: 0
积分时间 (秒): 1.000000E-2
Scans to average: 1
启用暗噪声校正: true
启用非线性校正: false
滑动平均宽度: 0
X轴模式: Wavelengths
Number of Pixels in Spectrum: 1044
>>>>>Begin Spectral Data<<<<<
220.843	-1.38
221.644	1.62
222.444	-2.38
223.244	1.62
224.045	2.62
224.845	0.62
225.645	-2.38
226.445	0.62
227.245	0.62
228.045	-2.38
228.845	0.62
229.645	2.62
230.444	-1.38
231.244	0.62
232.043	-1.38
232.843	-0.38
233.642	0.62
234.442	1.62
235.241	-0.38
236.04	-0.38
236.839	0.62
237.638	-1.38
238.437	0.62
239.236	-0.38
240.035	1.62
240.833	0.62
241.632	-0.38
242.43	3.62
243.229	0.62
244.027	3.62
244.826	2.62
245.624	-1.38
246.422	2.62
247.22	1.62
248.018	0.62
248.816	1.62
249.614	2.62
250.412	4.62
251.21	1.62
252.007	3.62
252.805	3.62
253.602	3.62
254.4	3.62
255.197	1.62
255.994	3.62
256.791	1.62
257.589	3.62
258.386	5.62
259.183	4.62
259.979	5.62
260.776	4.62
261.573	4.62
262.37	5.62
263.166	4.62
263.963	2.62
264.759	6.62
265.556	5.62
266.352	3.62
267.148	3.62
267.944	5.62
268.74	6.62
269.536	5.62
270.332	7.62
271.128	6.62
271.924	7.62
272.719	7.62
273.515	6.62
274.311	5.62
275.106	6.62
275.901	6.62
276.697	9.62
277.492	9.62
278.287	9.62
279.082	8.62
279.877	7.62
280.672	7.62
281.467	9.62
282.262	9.62
283.056	10.62
283.851	10.62
284.646	11.62
285.44	10.62
286.234	9.62
287.029	11.62
287.823	9.62
288.617	10.62
289.411	10.62
290.205	10.62
290.999	10.62
291.793	8.62
292.587	13.62
293.381	10.62
294.174	11.62
294.968	8.62
295.761	11.62
296.555	9.62
297.348	8.62
298.141	9.62
298.935	9.62
299.728	9.62
300.521	10.62
301.314	9.62
302.107	7.62
302.899	7.62
303.692	8.62
304.485	7.62
305.277	9.62
306.07	8.62
306.862	8.62
307.655	8.62
308.447	7.62
309.239	10.62
310.031	7.62
310.823	5.62
311.615	7.62
312.407	5.62
313.199	8.62
313.991	7.62
314.783	6.62
315.574	7.62
316.366	5.62
317.157	6.62
317.949	4.62
318.74	4.62
319.531	2.62
320.322	7.62
321.113	7.62
321.904	3.62
322.695	7.62
323.486	3.62
324.277	5.62
325.068	5.62
325.858	4.62
326.649	6.62
327.439	3.62
328.23	4.62
329.02	2.62
329.81	3.62
330.6	2.62
331.391	2.62
332.181	7.62
332.971	4.62
333.76	6.62
334.55	2.62
335.34	5.62
336.13	4.62
336.919	2.62
337.709	5.62
338.498	1.62
339.287	5.62
340.077	4.62
340.866	4.62
341.655	5.62
342.444	3.62
343.233	3.62
344.022	5.62
344.811	2.62
345.6	3.62
346.388	4.62
347.177	2.62
347.965	3.62
348.754	4.62
349.542	4.62
350.33	5.62
351.119	5.62
351.907	3.62
352.695	5.62
353.483	3.62
354.271	2.62
355.059	1.62
355.846	1.62
356.634	2.62
357.422	5.62
358.209	3.62
358.997	2.62
359.784	3.62
360.571	1.62
361.359	2.62
362.146	2.62
362.933	5.62
363.72	3.62
364.507	1.62
365.294	2.62
366.081	-0.38
366.867	0.62
367.654	2.62
368.44	0.62
369.227	2.62
370.013	3.62
370.8	3.62
371.586	1.62
372.372	2.62
373.158	2.62
373.944	3.62
374.73	1.62
375.516	5.62
376.302	2.62
377.088	2.62
377.873	5.62
378.659	-0.38
379.445	1.62
380.23	3.62
381.015	2.62
381.801	4.62
382.586	2.62
383.371	4.62
384.156	2.62
384.941	2.62
385.726	1.62
386.511	2.62
387.296	2.62
388.08	0.62
388.865	3.62
389.649	1.62
390.434	3.62
391.218	3.62
392.003	0.62
392.787	3.62
393.571	3.62
394.355	3.62
395.139	2.62
395.923	0.62
396.707	2.62
397.491	3.62
398.274	5.62
399.058	1.62
399.842	1.62
400.625	3.62
401.408	2.62
402.192	5.62
402.975	2.62
403.758	3.62
404.541	4.62
405.324	4.62
406.107	4.62
406.89	2.62
407.673	4.62
408.456	3.62
409.238	3.62
410.021	5.62
410.803	5.62
411.586	7.62
412.368	4.62
413.151	4.62
413.933	5.62
414.715	3.62
415.497	4.62
416.279	7.62
417.061	4.62
417.843	6.62
418.624	6.62
419.406	5.62
420.188	4.62
420.969	5.62
421.751	4.62
422.532	6.62
423.313	5.62
424.095	6.62
424.876	5.62
425.657	7.62
426.438	5.62
427.219	6.62
428	4.62
428.78	7.62
429.561	6.62
430.342	6.62
431.122	7.62
431.903	8.62
432.683	5.62
433.464	8.62
434.244	9.62
435.024	8.62
435.804	10.62
436.584	12.62
437.364	10.62
438.144	11.62
438.924	12.62
439.704	11.62
440.483	11.62
441.263	10.62
442.042	12.62
442.822	15.62
443.601	14.62
444.38	14.62
445.16	15.62
445.939	16.62
446.718	19.62
447.497	22.62
448.276	19.62
449.054	20.62
449.833	23.62
450.612	24.62
451.391	29.62
452.169	27.62
452.948	32.62
453.726	35.62
454.504	41.62
455.282	42.62
456.061	48.62
456.839	51.62
457.617	55.62
458.395	64.62
459.172	69.62
459.95	80.62
460.728	84.62
461.506	94.62
462.283	106.62
463.061	116.62
463.838	132.62
464.615	144.62
465.393	165.62
466.17	180.62
466.947	194.62
467.724	228.62
468.501	249.62
469.278	277.62
470.055	303.62
470.831	345.62
471.608	385.62
472.385	419.62
473.161	461.62
473.938	513.62
474.714	573.62
475.49	635.62
476.266	703.62
477.043	781.62
477.819	868.62
478.595	955.62
479.371	1049.62
480.146	1150.62
480.922	1270.62
481.698	1405.62
482.473	1551.62
483.249	1701.62
484.024	1872.62
484.8	2048.62
485.575	2251.62
486.35	2480.62
487.126	2715.62
487.901	3012.62
488.676	3284.62
489.451	3629.62
490.225	3950.62
491	4344.62
491.775	4758.62
492.55	5207.62
493.324	5705.62
494.099	6223.62
494.873	6772.62
495.647	7401.62
496.422	8035.62
497.196	8699.62
497.97	9348.62
498.744	10053.62
499.518	10777.62
500.292	11489.62
501.066	12184.62
501.839	12842.62
502.613	13501.62
503.387	14165.62
504.16	14658.62
504.934	15121.62
505.707	15496.62
506.48	15805.62
507.253	15989.62
508.027	16168.62
508.8	16166.62
509.573	16017.62
510.346	15777.62
511.118	15530.62
511.891	15171.62
512.664	14753.62
513.437	14309.62
514.209	13839.62
514.982	13261.62
515.754	12729.62
516.526	12181.62
517.298	11693.62
518.071	11174.62
518.843	10662.62
519.615	10236.62
520.387	9865.62
521.159	9447.62
521.93	9036.62
522.702	8696.62
523.474	8393.62
524.245	8024.62
525.017	7664.62
525.788	7438.62
526.56	7123.62
527.331	6809.62
528.102	6500.62
528.873	6217.62
529.644	5976.62
530.415	5685.62
531.186	5413.62
531.957	5146.62
532.728	4902.62
533.498	4634.62
534.269	4403.62
535.039	4144.62
535.81	3885.62
536.58	3720.62
537.351	3516.62
538.121	3317.62
538.891	3135.62
539.661	2967.62
540.431	2800.62
541.201	2641.62
541.971	2482.62
542.741	2388.62
543.51	2240.62
544.28	2118.62
545.05	2030.62
545.819	1939.62
546.588	1825.62
547.358	1755.62
548.127	1656.62
548.896	1566.62
549.665	1496.62
550.434	1418.62
551.203	1343.62
551.972	1282.62
552.741	1216.62
553.51	1155.62
554.278	1071.62
555.047	1022.62
555.815	980.62
556.584	920.62
557.352	863.62
558.121	812.62
558.889	757.62
559.657	722.62
560.425	674.62
561.193	645.62
561.961	604.62
562.729	574.62
563.496	545.62
564.264	506.62
565.032	486.62
565.799	453.62
566.567	439.62
567.334	404.62
568.101	380.62
568.869	360.62
569.636	336.62
570.403	325.62
571.17	297.62
571.937	287.62
572.704	261.62
573.471	247.62
574.237	237.62
575.004	225.62
575.771	204.62
576.537	197.62
577.303	190.62
578.07	177.62
578.836	169.62
579.602	159.62
580.368	150.62
581.134	140.62
581.9	136.62
582.666	126.62
583.432	118.62
584.198	109.62
584.964	109.62
585.729	99.62
586.495	90.62
587.26	88.62
588.025	81.62
588.791	82.62
589.556	75.62
590.321	74.62
591.086	65.62
591.851	63.62
592.616	59.62
593.381	60.62
594.146	56.62
594.911	50.62
595.675	52.62
596.44	48.62
597.204	46.62
597.969	45.62
598.733	40.62
599.497	38.62
600.261	39.62
601.025	37.62
601.79	33.62
602.553	35.62
603.317	31.62
604.081	26.62
604.845	28.62
605.609	25.62
606.372	26.62
607.136	26.62
607.899	25.62
608.662	22.62
609.426	22.62
610.189	22.62
610.952	22.62
611.715	19.62
612.478	19.62
613.241	15.62
614.004	17.62
614.767	16.62
615.529	14.62
616.292	17.62
617.055	15.62
617.817	14.62
618.579	13.62
619.342	14.62
620.104	11.62
620.866	13.62
621.628	12.62
622.39	11.62
623.152	11.62
623.914	9.62
624.676	8.62
625.438	11.62
626.199	12.62
626.961	11.62
627.722	10.62
628.484	9.62
629.245	7.62
630.006	8.62
630.768	4.62
631.529	8.62
632.29	7.62
633.051	8.62
633.812	6.62
634.573	7.62
635.333	7.62
636.094	6.62
636.855	6.62
637.615	7.62
638.376	7.62
639.136	5.62
639.896	5.62
640.657	7.62
641.417	5.62
642.177	8.62
642.937	3.62
643.697	4.62
644.457	4.62
645.216	4.62
645.976	7.62
646.736	7.62
647.495	4.62
648.255	2.62
649.014	5.62
649.774	4.62
650.533	5.62
651.292	6.62
652.051	2.62
652.81	5.62
653.569	3.62
654.328	3.62
655.087	6.62
655.846	5.62
656.604	2.62
657.363	3.62
658.121	2.62
658.88	1.62
659.638	0.62
660.397	4.62
661.155	5.62
661.913	2.62
662.671	3.62
663.429	2.62
664.187	6.62
664.945	4.62
665.703	0.62
666.46	4.62
667.218	5.62
667.976	1.62
668.733	3.62
669.49	3.62
670.248	4.62
671.005	2.62
671.762	4.62
672.519	2.62
673.276	2.62
674.033	2.62
674.79	0.62
675.547	2.62
676.304	3.62
677.06	1.62
677.817	2.62
678.574	1.62
679.33	2.62
680.086	1.62
680.843	0.62
681.599	1.62
682.355	3.62
683.111	1.62
683.867	2.62
684.623	2.62
685.379	1.62
686.135	1.62
686.89	1.62
687.646	2.62
688.402	-0.38
689.157	2.62
689.912	2.62
690.668	1.62
691.423	1.62
692.178	3.62
692.933	1.62
693.688	1.62
694.443	3.62
695.198	0.62
695.953	3.62
696.708	2.62
697.462	4.62
698.217	0.62
698.972	2.62
699.726	5.62
700.48	2.62
701.235	3.62
701.989	1.62
702.743	1.62
703.497	2.62
704.251	1.62
705.005	0.62
705.759	4.62
706.513	2.62
707.266	-1.38
708.02	2.62
708.774	-0.38
709.527	2.62
710.28	3.62
711.034	3.62
711.787	1.62
712.54	-0.38
713.293	2.62
714.046	2.62
714.799	1.62
715.552	4.62
716.305	3.62
717.058	4.62
717.81	-0.38
718.563	2.62
719.315	4.62
720.068	1.62
720.82	1.62
721.573	2.62
722.325	1.62
723.077	2.62
723.829	2.62
724.581	1.62
725.333	2.62
726.085	3.62
726.836	0.62
727.588	2.62
728.34	1.62
729.091	3.62
729.843	5.62
730.594	0.62
731.346	1.62
732.097	1.62
732.848	3.62
733.599	4.62
734.35	2.62
735.101	-0.38
735.852	-0.38
736.603	2.62
737.354	2.62
738.104	0.62
738.855	0.62
739.605	3.62
740.356	5.62
741.106	0.62
741.856	0.62
742.607	1.62
743.357	3.62
744.107	1.62
744.857	5.62
745.607	2.62
746.357	2.62
747.106	3.62
747.856	-0.38
748.606	1.62
749.355	3.62
750.105	3.62
750.854	2.62
751.603	3.62
752.353	1.62
753.102	1.62
753.851	2.62
754.6	2.62
755.349	2.62
756.098	2.62
756.847	2.62
757.595	2.62
758.344	5.62
759.093	3.62
759.841	1.62
760.589	2.62
761.338	3.62
762.086	3.62
762.834	3.62
763.582	3.62
764.331	5.62
765.079	3.62
765.826	2.62
766.574	5.62
767.322	3.62
768.07	3.62
768.817	5.62
769.565	6.62
770.312	5.62
771.06	5.62
771.807	4.62
772.554	5.62
773.302	5.62
774.049	3.62
774.796	6.62
775.543	6.62
776.29	4.62
777.036	5.62
777.783	4.62
778.53	4.62
779.276	3.62
780.023	4.62
780.769	4.62
781.516	3.62
782.262	4.62
783.008	3.62
783.754	2.62
784.5	8.62
785.246	5.62
785.992	6.62
786.738	6.62
787.484	6.62
788.23	7.62
788.975	3.62
789.721	7.62
790.466	4.62
791.212	5.62
791.957	5.62
792.702	6.62
793.447	2.62
794.193	5.62
794.938	3.62
795.683	6.62
796.427	8.62
797.172	5.62
797.917	2.62
798.662	3.62
799.406	5.62
800.151	4.62
800.895	6.62
801.64	5.62
802.384	5.62
803.128	4.62
803.872	3.62
804.616	4.62
805.36	3.62
806.104	3.62
806.848	5.62
807.592	3.62
808.336	4.62
809.079	5.62
809.823	3.62
810.566	5.62
811.31	3.62
812.053	4.62
812.796	5.62
813.539	3.62
814.283	2.62
815.026	4.62
815.769	2.62
816.511	5.62
817.254	2.62
817.997	5.62
818.74	4.62
819.482	2.62
820.225	3.62
820.967	4.62
821.71	2.62
822.452	4.62
823.194	4.62
823.936	5.62
824.678	4.62
825.42	4.62
826.162	1.62
826.904	2.62
827.646	3.62
828.388	1.62
829.129	2.62
829.871	2.62
830.612	5.62
831.354	2.62
832.095	2.62
832.836	3.62
833.577	3.62
834.319	2.62
835.06	1.62
835.801	3.62
836.542	3.62
837.282	4.62
838.023	1.62
838.764	3.62
839.504	2.62
840.245	1.62
840.985	2.62
841.726	2.62
842.466	1.62
843.206	2.62
843.946	2.62
844.687	1.62
845.427	1.62
846.166	4.62
846.906	0.62
847.646	1.62
848.386	4.62
849.125	2.62
849.865	1.62
850.605	1.62
851.344	3.62
852.083	0.62
852.823	1.62
853.562	0.62
854.301	1.62
855.04	4.62
855.779	2.62
856.518	2.62
857.257	1.62
857.995	1.62
858.734	0.62
859.473	2.62
860.211	1.62
860.95	2.62
861.688	2.62
862.426	1.62
863.165	0.62
863.903	2.62
864.641	1.62
865.379	1.62
866.117	1.62
866.855	1.62
867.593	2.62
868.33	2.62
869.068	1.62
869.806	-0.38
870.543	2.62
871.28	-0.38
872.018	0.62
872.755	0.62
873.492	1.62
874.229	-0.38
874.967	1.62
875.703	2.62
876.44	1.62
877.177	1.62
877.914	1.62
878.651	0.62
879.387	0.62
880.124	-1.38
880.86	-0.38
881.597	1.62
882.333	2.62
883.069	0.62
883.806	1.62
884.542	1.62
885.278	-1.38
886.014	1.62
886.749	0.62
887.485	1.62
888.221	1.62
888.957	0.62
889.692	-0.38
890.428	0.62
891.163	-0.38
891.899	-1.38
892.634	1.62
893.369	2.62
894.104	-1.38
894.839	2.62
895.574	0.62
896.309	-0.38
897.044	-0.38
897.779	0.62
898.514	0.62
899.248	2.62
899.983	-1.38
900.717	0.62
901.452	1.62
902.186	0.62
902.92	-0.38
903.654	-2.38
904.389	-1.38
905.123	2.62
905.857	-1.38
906.59	1.62
907.324	-0.38
908.058	1.62
908.792	1.62
909.525	0.62
910.259	-0.38
910.992	-0.38
911.726	1.62
912.459	1.62
913.192	0.62
913.925	1.62
914.658	-0.38
915.391	1.62
916.124	-1.38
916.857	2.62
917.59	-0.38
918.323	-1.38
919.055	-0.38
919.788	-0.38
920.521	0.62
921.253	0.62
921.985	0.62
922.718	-1.38
923.45	0.62
924.182	0.62
924.914	-0.38
925.646	0.62
926.378	-1.38
927.11	-0.38
927.841	-0.38
928.573	1.62
929.305	-1.38
930.036	1.62
930.768	1.62
931.499	0.62
932.23	1.62
932.962	0.62
933.693	-0.38
934.424	1.62
935.155	0.62
935.886	1.62
936.617	-0.38
937.348	1.62
938.078	-1.38
938.809	1.62
939.54	-0.38
940.27	-1.38
941.001	2.62
941.731	0.62
942.461	-0.38
943.191	0.62
943.922	-0.38
944.652	-2.38
945.382	0.62
946.112	-0.38
946.841	2.62
947.571	-0.38
948.301	-0.38
949.031	1.62
949.76	0.62
950.49	0.62
951.219	0.62
951.948	-0.38
952.678	0.62
953.407	0.62
954.136	0.62
954.865	-0.38
955.594	0.62
956.323	1.62
957.052	1.62
957.78	0.62
958.509	0.62
959.238	-1.38
959.966	0.62
960.695	0.62
961.423	-0.38
962.151	-0.38
962.88	0.62
963.608	0.62
964.336	1.62
965.064	1.62
965.792	1.62
966.52	1.62
967.247	0.62
967.975	0.62
968.703	0.62
969.43	1.62
970.158	1.62
970.885	-1.38
971.613	1.62
972.34	2.62
973.067	1.62
973.794	-1.38
974.521	0.62
975.248	0.62
975.975	1.62
976.702	0.62
977.429	1.62
978.156	-1.38
978.882	0.62
979.609	0.62
980.335	0.62
981.062	-0.38
981.788	0.62
982.514	1.62
983.24	0.62
983.967	-1.38
984.693	-1.38
985.419	0.62
986.144	-2.38
986.87	0.62
987.596	1.62
988.322	2.62
989.047	0.62
989.773	0.62
990.498	1.62
991.224	0.62
991.949	0.62
992.674	0.62
993.399	0.62
994.124	0.62
994.849	-0.38
995.574	1.62
996.299	-0.38
997.024	1.62
997.749	0.62
998.473	0.62
999.198	0.62
999.922	1.62
1000.647	-1.38
1001.371	1.62
1002.095	-2.38
1002.82	-0.38
1003.544	-1.38
1004.268	-0.38
1004.992	-1.38
1005.716	-0.38
1006.439	0.62
1007.163	0.62
1007.887	0.62
1008.611	0.62
1009.334	0.62
1010.058	1.62
1010.781	-0.38
1011.504	-1.38
1012.228	0.62
1012.951	-0.38
1013.674	0.62
1014.397	1.62
1015.12	0.62
