节点500_145_QEPB04081__224__11-32-33-497.txt的数据

Date: Wed Nov 12 11:32:33 CST 2025
User: PC
Spectrometer: QEPB0408
触发模式: 0
积分时间 (秒): 1.000000E-2
Scans to average: 1
启用暗噪声校正: true
启用非线性校正: false
滑动平均宽度: 0
X轴模式: Wavelengths
Number of Pixels in Spectrum: 1044
>>>>>Begin Spectral Data<<<<<
220.843	1.38
221.644	0.38
222.444	-1.62
223.244	-0.62
224.045	0.38
224.845	-1.62
225.645	0.38
226.445	2.38
227.245	0.38
228.045	1.38
228.845	0.38
229.645	1.38
230.444	-1.62
231.244	1.38
232.043	0.38
232.843	2.38
233.642	-0.62
234.442	0.38
235.241	0.38
236.04	0.38
236.839	2.38
237.638	0.38
238.437	1.38
239.236	0.38
240.035	2.38
240.833	2.38
241.632	3.38
242.43	2.38
243.229	2.38
244.027	3.38
244.826	2.38
245.624	1.38
246.422	1.38
247.22	1.38
248.018	1.38
248.816	1.38
249.614	4.38
250.412	1.38
251.21	2.38
252.007	1.38
252.805	3.38
253.602	1.38
254.4	3.38
255.197	2.38
255.994	1.38
256.791	3.38
257.589	3.38
258.386	6.38
259.183	5.38
259.979	5.38
260.776	5.38
261.573	3.38
262.37	2.38
263.166	6.38
263.963	4.38
264.759	5.38
265.556	7.38
266.352	4.38
267.148	6.38
267.944	7.38
268.74	6.38
269.536	6.38
270.332	8.38
271.128	8.38
271.924	7.38
272.719	8.38
273.515	6.38
274.311	7.38
275.106	9.38
275.901	8.38
276.697	10.38
277.492	9.38
278.287	11.38
279.082	12.38
279.877	11.38
280.672	11.38
281.467	9.38
282.262	10.38
283.056	10.38
283.851	10.38
284.646	12.38
285.44	11.38
286.234	10.38
287.029	10.38
287.823	10.38
288.617	10.38
289.411	9.38
290.205	11.38
290.999	11.38
291.793	9.38
292.587	11.38
293.381	11.38
294.174	9.38
294.968	11.38
295.761	10.38
296.555	9.38
297.348	10.38
298.141	10.38
298.935	10.38
299.728	11.38
300.521	7.38
301.314	9.38
302.107	6.38
302.899	8.38
303.692	6.38
304.485	8.38
305.277	9.38
306.07	9.38
306.862	10.38
307.655	8.38
308.447	7.38
309.239	7.38
310.031	5.38
310.823	8.38
311.615	6.38
312.407	8.38
313.199	6.38
313.991	6.38
314.783	6.38
315.574	6.38
316.366	6.38
317.157	3.38
317.949	4.38
318.74	5.38
319.531	2.38
320.322	4.38
321.113	1.38
321.904	8.38
322.695	4.38
323.486	4.38
324.277	4.38
325.068	4.38
325.858	6.38
326.649	2.38
327.439	6.38
328.23	4.38
329.02	3.38
329.81	4.38
330.6	3.38
331.391	4.38
332.181	2.38
332.971	2.38
333.76	3.38
334.55	3.38
335.34	4.38
336.13	2.38
336.919	5.38
337.709	2.38
338.498	5.38
339.287	2.38
340.077	4.38
340.866	5.38
341.655	5.38
342.444	2.38
343.233	3.38
344.022	4.38
344.811	2.38
345.6	3.38
346.388	4.38
347.177	3.38
347.965	3.38
348.754	1.38
349.542	4.38
350.33	5.38
351.119	4.38
351.907	3.38
352.695	1.38
353.483	3.38
354.271	2.38
355.059	4.38
355.846	4.38
356.634	5.38
357.422	2.38
358.209	3.38
358.997	2.38
359.784	1.38
360.571	3.38
361.359	3.38
362.146	2.38
362.933	1.38
363.72	1.38
364.507	3.38
365.294	3.38
366.081	3.38
366.867	2.38
367.654	3.38
368.44	3.38
369.227	1.38
370.013	3.38
370.8	3.38
371.586	2.38
372.372	4.38
373.158	5.38
373.944	1.38
374.73	3.38
375.516	2.38
376.302	4.38
377.088	4.38
377.873	3.38
378.659	4.38
379.445	4.38
380.23	3.38
381.015	4.38
381.801	3.38
382.586	1.38
383.371	3.38
384.156	2.38
384.941	-0.62
385.726	2.38
386.511	2.38
387.296	2.38
388.08	1.38
388.865	3.38
389.649	1.38
390.434	3.38
391.218	4.38
392.003	5.38
392.787	4.38
393.571	2.38
394.355	1.38
395.139	2.38
395.923	4.38
396.707	1.38
397.491	3.38
398.274	6.38
399.058	1.38
399.842	4.38
400.625	1.38
401.408	3.38
402.192	4.38
402.975	3.38
403.758	2.38
404.541	3.38
405.324	5.38
406.107	3.38
406.89	2.38
407.673	3.38
408.456	2.38
409.238	5.38
410.021	5.38
410.803	5.38
411.586	4.38
412.368	6.38
413.151	5.38
413.933	5.38
414.715	4.38
415.497	5.38
416.279	8.38
417.061	5.38
417.843	4.38
418.624	7.38
419.406	2.38
420.188	3.38
420.969	5.38
421.751	9.38
422.532	6.38
423.313	2.38
424.095	4.38
424.876	3.38
425.657	7.38
426.438	7.38
427.219	7.38
428	7.38
428.78	7.38
429.561	8.38
430.342	6.38
431.122	5.38
431.903	6.38
432.683	9.38
433.464	5.38
434.244	8.38
435.024	10.38
435.804	11.38
436.584	9.38
437.364	10.38
438.144	12.38
438.924	12.38
439.704	9.38
440.483	12.38
441.263	10.38
442.042	12.38
442.822	14.38
443.601	14.38
444.38	14.38
445.16	16.38
445.939	17.38
446.718	17.38
447.497	19.38
448.276	18.38
449.054	21.38
449.833	23.38
450.612	24.38
451.391	28.38
452.169	29.38
452.948	29.38
453.726	32.38
454.504	36.38
455.282	41.38
456.061	42.38
456.839	47.38
457.617	53.38
458.395	59.38
459.172	69.38
459.95	69.38
460.728	83.38
461.506	90.38
462.283	99.38
463.061	106.38
463.838	125.38
464.615	130.38
465.393	154.38
466.17	160.38
466.947	184.38
467.724	212.38
468.501	239.38
469.278	261.38
470.055	298.38
470.831	326.38
471.608	359.38
472.385	408.38
473.161	449.38
473.938	499.38
474.714	561.38
475.49	617.38
476.266	689.38
477.043	772.38
477.819	838.38
478.595	940.38
479.371	1025.38
480.146	1131.38
480.922	1275.38
481.698	1406.38
482.473	1534.38
483.249	1712.38
484.024	1872.38
484.8	2098.38
485.575	2294.38
486.35	2552.38
487.126	2816.38
487.901	3095.38
488.676	3447.38
489.451	3770.38
490.225	4157.38
491	4588.38
491.775	5025.38
492.55	5526.38
493.324	6058.38
494.099	6634.38
494.873	7235.38
495.647	7880.38
496.422	8592.38
497.196	9299.38
497.97	10027.38
498.744	10784.38
499.518	11608.38
500.292	12323.38
501.066	13053.38
501.839	13760.38
502.613	14494.38
503.387	15117.38
504.16	15620.38
504.934	16105.38
505.707	16419.38
506.48	16671.38
507.253	16830.38
508.027	16826.38
508.8	16707.38
509.573	16590.38
510.346	16272.38
511.118	15919.38
511.891	15467.38
512.664	15029.38
513.437	14409.38
514.209	13877.38
514.982	13332.38
515.754	12740.38
516.526	12216.38
517.298	11689.38
518.071	11112.38
518.843	10609.38
519.615	10191.38
520.387	9704.38
521.159	9367.38
521.93	8972.38
522.702	8597.38
523.474	8304.38
524.245	7983.38
525.017	7621.38
525.788	7346.38
526.56	7043.38
527.331	6778.38
528.102	6465.38
528.873	6171.38
529.644	5858.38
530.415	5582.38
531.186	5351.38
531.957	5039.38
532.728	4794.38
533.498	4546.38
534.269	4288.38
535.039	4069.38
535.81	3808.38
536.58	3597.38
537.351	3390.38
538.121	3221.38
538.891	3044.38
539.661	2869.38
540.431	2739.38
541.201	2581.38
541.971	2422.38
542.741	2302.38
543.51	2194.38
544.28	2073.38
545.05	1970.38
545.819	1874.38
546.588	1801.38
547.358	1714.38
548.127	1613.38
548.896	1532.38
549.665	1456.38
550.434	1372.38
551.203	1310.38
551.972	1253.38
552.741	1176.38
553.51	1114.38
554.278	1042.38
555.047	985.38
555.815	924.38
556.584	871.38
557.352	838.38
558.121	785.38
558.889	737.38
559.657	695.38
560.425	655.38
561.193	608.38
561.961	579.38
562.729	554.38
563.496	526.38
564.264	494.38
565.032	457.38
565.799	430.38
566.567	411.38
567.334	391.38
568.101	369.38
568.869	347.38
569.636	326.38
570.403	313.38
571.17	290.38
571.937	274.38
572.704	263.38
573.471	237.38
574.237	237.38
575.004	217.38
575.771	198.38
576.537	186.38
577.303	181.38
578.07	170.38
578.836	158.38
579.602	145.38
580.368	138.38
581.134	136.38
581.9	126.38
582.666	124.38
583.432	116.38
584.198	108.38
584.964	102.38
585.729	100.38
586.495	90.38
587.26	86.38
588.025	82.38
588.791	78.38
589.556	71.38
590.321	71.38
591.086	64.38
591.851	65.38
592.616	58.38
593.381	56.38
594.146	53.38
594.911	48.38
595.675	44.38
596.44	45.38
597.204	43.38
597.969	42.38
598.733	39.38
599.497	41.38
600.261	36.38
601.025	33.38
601.79	36.38
602.553	29.38
603.317	30.38
604.081	27.38
604.845	25.38
605.609	28.38
606.372	24.38
607.136	25.38
607.899	22.38
608.662	23.38
609.426	20.38
610.189	20.38
610.952	19.38
611.715	19.38
612.478	17.38
613.241	15.38
614.004	19.38
614.767	16.38
615.529	15.38
616.292	15.38
617.055	13.38
617.817	13.38
618.579	16.38
619.342	13.38
620.104	11.38
620.866	9.38
621.628	12.38
622.39	11.38
623.152	11.38
623.914	9.38
624.676	9.38
625.438	9.38
626.199	11.38
626.961	8.38
627.722	10.38
628.484	10.38
629.245	7.38
630.006	9.38
630.768	7.38
631.529	7.38
632.29	8.38
633.051	6.38
633.812	9.38
634.573	7.38
635.333	5.38
636.094	7.38
636.855	6.38
637.615	4.38
638.376	6.38
639.136	7.38
639.896	5.38
640.657	5.38
641.417	4.38
642.177	4.38
642.937	5.38
643.697	5.38
644.457	5.38
645.216	4.38
645.976	6.38
646.736	7.38
647.495	3.38
648.255	4.38
649.014	2.38
649.774	6.38
650.533	3.38
651.292	4.38
652.051	4.38
652.81	5.38
653.569	1.38
654.328	4.38
655.087	2.38
655.846	3.38
656.604	3.38
657.363	1.38
658.121	2.38
658.88	5.38
659.638	3.38
660.397	3.38
661.155	2.38
661.913	3.38
662.671	3.38
663.429	5.38
664.187	3.38
664.945	3.38
665.703	2.38
666.46	2.38
667.218	2.38
667.976	4.38
668.733	2.38
669.49	5.38
670.248	1.38
671.005	2.38
671.762	1.38
672.519	2.38
673.276	2.38
674.033	4.38
674.79	0.38
675.547	0.38
676.304	3.38
677.06	3.38
677.817	0.38
678.574	1.38
679.33	0.38
680.086	4.38
680.843	2.38
681.599	4.38
682.355	1.38
683.111	0.38
683.867	1.38
684.623	2.38
685.379	2.38
686.135	2.38
686.89	4.38
687.646	3.38
688.402	2.38
689.157	2.38
689.912	2.38
690.668	3.38
691.423	3.38
692.178	-0.62
692.933	1.38
693.688	3.38
694.443	4.38
695.198	1.38
695.953	2.38
696.708	2.38
697.462	2.38
698.217	3.38
698.972	0.38
699.726	2.38
700.48	2.38
701.235	2.38
701.989	3.38
702.743	5.38
703.497	1.38
704.251	1.38
705.005	4.38
705.759	0.38
706.513	2.38
707.266	1.38
708.02	1.38
708.774	2.38
709.527	1.38
710.28	2.38
711.034	2.38
711.787	3.38
712.54	3.38
713.293	1.38
714.046	1.38
714.799	2.38
715.552	3.38
716.305	2.38
717.058	3.38
717.81	0.38
718.563	2.38
719.315	2.38
720.068	1.38
720.82	0.38
721.573	2.38
722.325	1.38
723.077	1.38
723.829	3.38
724.581	3.38
725.333	1.38
726.085	1.38
726.836	3.38
727.588	1.38
728.34	2.38
729.091	1.38
729.843	2.38
730.594	1.38
731.346	1.38
732.097	2.38
732.848	2.38
733.599	1.38
734.35	1.38
735.101	3.38
735.852	2.38
736.603	2.38
737.354	2.38
738.104	2.38
738.855	2.38
739.605	2.38
740.356	2.38
741.106	3.38
741.856	4.38
742.607	2.38
743.357	2.38
744.107	3.38
744.857	3.38
745.607	1.38
746.357	1.38
747.106	2.38
747.856	3.38
748.606	1.38
749.355	2.38
750.105	4.38
750.854	3.38
751.603	1.38
752.353	2.38
753.102	1.38
753.851	2.38
754.6	4.38
755.349	0.38
756.098	2.38
756.847	2.38
757.595	2.38
758.344	3.38
759.093	2.38
759.841	3.38
760.589	2.38
761.338	4.38
762.086	1.38
762.834	4.38
763.582	3.38
764.331	2.38
765.079	6.38
765.826	4.38
766.574	4.38
767.322	4.38
768.07	3.38
768.817	5.38
769.565	0.38
770.312	4.38
771.06	3.38
771.807	5.38
772.554	5.38
773.302	5.38
774.049	4.38
774.796	3.38
775.543	3.38
776.29	7.38
777.036	5.38
777.783	5.38
778.53	5.38
779.276	4.38
780.023	6.38
780.769	7.38
781.516	5.38
782.262	4.38
783.008	6.38
783.754	3.38
784.5	5.38
785.246	5.38
785.992	6.38
786.738	4.38
787.484	2.38
788.23	4.38
788.975	3.38
789.721	2.38
790.466	4.38
791.212	6.38
791.957	2.38
792.702	6.38
793.447	6.38
794.193	6.38
794.938	7.38
795.683	5.38
796.427	6.38
797.172	6.38
797.917	4.38
798.662	6.38
799.406	4.38
800.151	3.38
800.895	5.38
801.64	5.38
802.384	4.38
803.128	5.38
803.872	5.38
804.616	7.38
805.36	6.38
806.104	4.38
806.848	4.38
807.592	3.38
808.336	4.38
809.079	6.38
809.823	5.38
810.566	4.38
811.31	3.38
812.053	5.38
812.796	4.38
813.539	5.38
814.283	5.38
815.026	2.38
815.769	5.38
816.511	4.38
817.254	4.38
817.997	2.38
818.74	4.38
819.482	3.38
820.225	3.38
820.967	4.38
821.71	1.38
822.452	3.38
823.194	3.38
823.936	2.38
824.678	5.38
825.42	3.38
826.162	2.38
826.904	2.38
827.646	4.38
828.388	2.38
829.129	0.38
829.871	2.38
830.612	1.38
831.354	2.38
832.095	2.38
832.836	3.38
833.577	2.38
834.319	2.38
835.06	2.38
835.801	2.38
836.542	6.38
837.282	3.38
838.023	0.38
838.764	2.38
839.504	2.38
840.245	3.38
840.985	3.38
841.726	1.38
842.466	3.38
843.206	5.38
843.946	2.38
844.687	0.38
845.427	1.38
846.166	0.38
846.906	1.38
847.646	1.38
848.386	0.38
849.125	2.38
849.865	1.38
850.605	2.38
851.344	2.38
852.083	2.38
852.823	1.38
853.562	0.38
854.301	1.38
855.04	0.38
855.779	2.38
856.518	2.38
857.257	3.38
857.995	0.38
858.734	0.38
859.473	1.38
860.211	1.38
860.95	2.38
861.688	0.38
862.426	2.38
863.165	0.38
863.903	2.38
864.641	1.38
865.379	3.38
866.117	1.38
866.855	0.38
867.593	-1.62
868.33	-1.62
869.068	2.38
869.806	4.38
870.543	-0.62
871.28	2.38
872.018	1.38
872.755	0.38
873.492	-0.62
874.229	0.38
874.967	3.38
875.703	0.38
876.44	0.38
877.177	1.38
877.914	-1.62
878.651	2.38
879.387	0.38
880.124	2.38
880.86	4.38
881.597	2.38
882.333	0.38
883.069	1.38
883.806	3.38
884.542	1.38
885.278	1.38
886.014	-0.62
886.749	1.38
887.485	-0.62
888.221	-0.62
888.957	1.38
889.692	0.38
890.428	0.38
891.163	0.38
891.899	3.38
892.634	0.38
893.369	1.38
894.104	1.38
894.839	-0.62
895.574	0.38
896.309	2.38
897.044	1.38
897.779	-0.62
898.514	1.38
899.248	2.38
899.983	-0.62
900.717	0.38
901.452	0.38
902.186	-0.62
902.92	0.38
903.654	-1.62
904.389	-1.62
905.123	0.38
905.857	1.38
906.59	-0.62
907.324	1.38
908.058	1.38
908.792	-0.62
909.525	-0.62
910.259	1.38
910.992	2.38
911.726	-1.62
912.459	1.38
913.192	-0.62
913.925	1.38
914.658	1.38
915.391	1.38
916.124	-1.62
916.857	2.38
917.59	-0.62
918.323	0.38
919.055	3.38
919.788	-0.62
920.521	-0.62
921.253	1.38
921.985	0.38
922.718	-0.62
923.45	-1.62
924.182	-1.62
924.914	0.38
925.646	-1.62
926.378	0.38
927.11	2.38
927.841	1.38
928.573	1.38
929.305	2.38
930.036	0.38
930.768	-2.62
931.499	-0.62
932.23	-1.62
932.962	1.38
933.693	0.38
934.424	0.38
935.155	1.38
935.886	-1.62
936.617	0.38
937.348	1.38
938.078	0.38
938.809	1.38
939.54	-1.62
940.27	1.38
941.001	-0.62
941.731	-0.62
942.461	1.38
943.191	1.38
943.922	0.38
944.652	-1.62
945.382	0.38
946.112	1.38
946.841	-1.62
947.571	0.38
948.301	-0.62
949.031	1.38
949.76	-2.62
950.49	0.38
951.219	1.38
951.948	0.38
952.678	1.38
953.407	-1.62
954.136	1.38
954.865	0.38
955.594	1.38
956.323	-0.62
957.052	0.38
957.78	-0.62
958.509	1.38
959.238	1.38
959.966	1.38
960.695	1.38
961.423	2.38
962.151	2.38
962.88	1.38
963.608	0.38
964.336	0.38
965.064	-1.62
965.792	1.38
966.52	1.38
967.247	-1.62
967.975	1.38
968.703	-1.62
969.43	1.38
970.158	1.38
970.885	2.38
971.613	-1.62
972.34	0.38
973.067	1.38
973.794	1.38
974.521	-2.62
975.248	-0.62
975.975	1.38
976.702	-0.62
977.429	1.38
978.156	-1.62
978.882	-0.62
979.609	1.38
980.335	-2.62
981.062	1.38
981.788	1.38
982.514	0.38
983.24	1.38
983.967	0.38
984.693	0.38
985.419	0.38
986.144	1.38
986.87	2.38
987.596	-1.62
988.322	0.38
989.047	0.38
989.773	2.38
990.498	-0.62
991.224	0.38
991.949	-0.62
992.674	-0.62
993.399	0.38
994.124	-0.62
994.849	-0.62
995.574	0.38
996.299	-0.62
997.024	0.38
997.749	0.38
998.473	0.38
999.198	-0.62
999.922	1.38
1000.647	-1.62
1001.371	3.38
1002.095	-0.62
1002.82	-0.62
1003.544	-1.62
1004.268	1.38
1004.992	1.38
1005.716	-0.62
1006.439	-0.62
1007.163	2.38
1007.887	-2.62
1008.611	1.38
1009.334	0.38
1010.058	-0.62
1010.781	-1.62
1011.504	0.38
1012.228	0.38
1012.951	0.38
1013.674	-1.62
1014.397	1.38
1015.12	-0.62
