节点500_145_QEPB04081__62__11-29-56-715.txt的数据

Date: Wed Nov 12 11:29:56 CST 2025
User: PC
Spectrometer: QEPB0408
触发模式: 0
积分时间 (秒): 1.000000E-2
Scans to average: 1
启用暗噪声校正: true
启用非线性校正: false
滑动平均宽度: 0
X轴模式: Wavelengths
Number of Pixels in Spectrum: 1044
>>>>>Begin Spectral Data<<<<<
220.843	-2
221.644	1
222.444	-1
223.244	1
224.045	0
224.845	1
225.645	0
226.445	-1
227.245	1
228.045	0
228.845	2
229.645	1
230.444	-2
231.244	1
232.043	-2
232.843	1
233.642	1
234.442	1
235.241	2
236.04	-1
236.839	0
237.638	1
238.437	2
239.236	-2
240.035	0
240.833	0
241.632	3
242.43	1
243.229	2
244.027	1
244.826	2
245.624	0
246.422	3
247.22	2
248.018	2
248.816	2
249.614	2
250.412	3
251.21	0
252.007	2
252.805	2
253.602	1
254.4	5
255.197	5
255.994	4
256.791	3
257.589	3
258.386	2
259.183	4
259.979	2
260.776	4
261.573	6
262.37	5
263.166	4
263.963	4
264.759	5
265.556	6
266.352	6
267.148	6
267.944	8
268.74	7
269.536	5
270.332	7
271.128	7
271.924	7
272.719	7
273.515	9
274.311	7
275.106	9
275.901	9
276.697	7
277.492	10
278.287	10
279.082	8
279.877	11
280.672	10
281.467	11
282.262	12
283.056	8
283.851	12
284.646	13
285.44	11
286.234	12
287.029	13
287.823	12
288.617	13
289.411	12
290.205	10
290.999	13
291.793	12
292.587	11
293.381	11
294.174	13
294.968	11
295.761	11
296.555	10
297.348	9
298.141	13
298.935	12
299.728	9
300.521	10
301.314	10
302.107	10
302.899	7
303.692	7
304.485	9
305.277	10
306.07	9
306.862	10
307.655	8
308.447	7
309.239	6
310.031	9
310.823	8
311.615	5
312.407	6
313.199	7
313.991	7
314.783	7
315.574	5
316.366	5
317.157	7
317.949	3
318.74	5
319.531	5
320.322	3
321.113	4
321.904	5
322.695	2
323.486	2
324.277	5
325.068	3
325.858	6
326.649	4
327.439	5
328.23	4
329.02	4
329.81	4
330.6	5
331.391	5
332.181	0
332.971	2
333.76	5
334.55	4
335.34	4
336.13	3
336.919	2
337.709	5
338.498	2
339.287	3
340.077	2
340.866	2
341.655	3
342.444	5
343.233	3
344.022	3
344.811	3
345.6	5
346.388	4
347.177	5
347.965	3
348.754	4
349.542	2
350.33	4
351.119	1
351.907	5
352.695	3
353.483	3
354.271	3
355.059	3
355.846	3
356.634	3
357.422	3
358.209	5
358.997	2
359.784	4
360.571	3
361.359	2
362.146	2
362.933	1
363.72	6
364.507	2
365.294	3
366.081	1
366.867	0
367.654	5
368.44	2
369.227	3
370.013	3
370.8	2
371.586	2
372.372	2
373.158	3
373.944	3
374.73	1
375.516	2
376.302	2
377.088	2
377.873	4
378.659	3
379.445	1
380.23	3
381.015	5
381.801	2
382.586	2
383.371	1
384.156	1
384.941	3
385.726	4
386.511	1
387.296	2
388.08	3
388.865	4
389.649	3
390.434	2
391.218	4
392.003	2
392.787	2
393.571	3
394.355	1
395.139	2
395.923	1
396.707	6
397.491	2
398.274	3
399.058	2
399.842	2
400.625	5
401.408	4
402.192	5
402.975	4
403.758	3
404.541	4
405.324	3
406.107	5
406.89	3
407.673	3
408.456	5
409.238	5
410.021	4
410.803	2
411.586	6
412.368	5
413.151	6
413.933	5
414.715	5
415.497	3
416.279	3
417.061	4
417.843	2
418.624	6
419.406	2
420.188	5
420.969	5
421.751	3
422.532	6
423.313	5
424.095	5
424.876	7
425.657	7
426.438	9
427.219	7
428	6
428.78	8
429.561	4
430.342	9
431.122	8
431.903	7
432.683	8
433.464	8
434.244	12
435.024	9
435.804	10
436.584	8
437.364	8
438.144	11
438.924	10
439.704	12
440.483	11
441.263	12
442.042	13
442.822	13
443.601	13
444.38	15
445.16	17
445.939	17
446.718	17
447.497	17
448.276	18
449.054	21
449.833	22
450.612	25
451.391	23
452.169	30
452.948	30
453.726	33
454.504	33
455.282	35
456.061	41
456.839	43
457.617	50
458.395	50
459.172	58
459.95	68
460.728	68
461.506	79
462.283	94
463.061	102
463.838	115
464.615	124
465.393	140
466.17	162
466.947	176
467.724	195
468.501	221
469.278	241
470.055	275
470.831	304
471.608	347
472.385	379
473.161	421
473.938	470
474.714	528
475.49	586
476.266	661
477.043	729
477.819	811
478.595	908
479.371	987
480.146	1126
480.922	1249
481.698	1362
482.473	1528
483.249	1686
484.024	1887
484.8	2081
485.575	2302
486.35	2558
487.126	2840
487.901	3148
488.676	3489
489.451	3858
490.225	4270
491	4732
491.775	5237
492.55	5743
493.324	6342
494.099	6966
494.873	7603
495.647	8330
496.422	9086
497.196	9833
497.97	10630
498.744	11417
499.518	12269
500.292	13111
501.066	13773
501.839	14536
502.613	15271
503.387	15841
504.16	16378
504.934	16774
505.707	17080
506.48	17256
507.253	17312
508.027	17291
508.8	17082
509.573	16865
510.346	16470
511.118	16055
511.891	15504
512.664	14881
513.437	14321
514.209	13760
514.982	13085
515.754	12519
516.526	11941
517.298	11366
518.071	10891
518.843	10409
519.615	9998
520.387	9511
521.159	9170
521.93	8781
522.702	8480
523.474	8122
524.245	7788
525.017	7477
525.788	7187
526.56	6880
527.331	6616
528.102	6291
528.873	5992
529.644	5723
530.415	5457
531.186	5195
531.957	4858
532.728	4656
533.498	4376
534.269	4123
535.039	3892
535.81	3674
536.58	3459
537.351	3246
538.121	3074
538.891	2896
539.661	2751
540.431	2604
541.201	2477
541.971	2335
542.741	2209
543.51	2091
544.28	1985
545.05	1903
545.819	1796
546.588	1718
547.358	1638
548.127	1549
548.896	1488
549.665	1387
550.434	1323
551.203	1242
551.972	1181
552.741	1125
553.51	1070
554.278	999
555.047	941
555.815	893
556.584	846
557.352	787
558.121	748
558.889	706
559.657	657
560.425	624
561.193	586
561.961	553
562.729	520
563.496	496
564.264	468
565.032	441
565.799	415
566.567	392
567.334	373
568.101	355
568.869	329
569.636	312
570.403	287
571.17	284
571.937	258
572.704	242
573.471	231
574.237	218
575.004	201
575.771	190
576.537	178
577.303	172
578.07	163
578.836	146
579.602	144
580.368	134
581.134	131
581.9	115
582.666	114
583.432	111
584.198	100
584.964	97
585.729	94
586.495	88
587.26	82
588.025	78
588.791	76
589.556	67
590.321	62
591.086	60
591.851	59
592.616	57
593.381	53
594.146	51
594.911	49
595.675	46
596.44	45
597.204	40
597.969	38
598.733	37
599.497	35
600.261	36
601.025	33
601.79	32
602.553	31
603.317	29
604.081	26
604.845	27
605.609	26
606.372	24
607.136	23
607.899	23
608.662	20
609.426	21
610.189	20
610.952	20
611.715	18
612.478	18
613.241	17
614.004	17
614.767	14
615.529	14
616.292	16
617.055	11
617.817	14
618.579	12
619.342	13
620.104	12
620.866	12
621.628	12
622.39	12
623.152	13
623.914	8
624.676	10
625.438	8
626.199	8
626.961	8
627.722	8
628.484	9
629.245	11
630.006	9
630.768	7
631.529	7
632.29	8
633.051	8
633.812	5
634.573	6
635.333	8
636.094	7
636.855	5
637.615	5
638.376	4
639.136	6
639.896	8
640.657	4
641.417	7
642.177	5
642.937	7
643.697	5
644.457	6
645.216	6
645.976	6
646.736	1
647.495	5
648.255	4
649.014	5
649.774	5
650.533	4
651.292	3
652.051	6
652.81	2
653.569	2
654.328	3
655.087	4
655.846	4
656.604	5
657.363	4
658.121	2
658.88	5
659.638	1
660.397	3
661.155	2
661.913	3
662.671	3
663.429	2
664.187	3
664.945	3
665.703	2
666.46	4
667.218	5
667.976	2
668.733	1
669.49	2
670.248	2
671.005	3
671.762	0
672.519	1
673.276	2
674.033	0
674.79	3
675.547	0
676.304	2
677.06	3
677.817	3
678.574	0
679.33	2
680.086	1
680.843	0
681.599	3
682.355	3
683.111	3
683.867	2
684.623	0
685.379	1
686.135	-2
686.89	1
687.646	2
688.402	1
689.157	3
689.912	1
690.668	3
691.423	-1
692.178	2
692.933	2
693.688	4
694.443	2
695.198	1
695.953	4
696.708	3
697.462	0
698.217	2
698.972	2
699.726	3
700.48	1
701.235	1
701.989	2
702.743	2
703.497	1
704.251	2
705.005	3
705.759	0
706.513	5
707.266	0
708.02	1
708.774	2
709.527	1
710.28	4
711.034	-1
711.787	3
712.54	1
713.293	3
714.046	2
714.799	-1
715.552	5
716.305	3
717.058	2
717.81	2
718.563	3
719.315	3
720.068	1
720.82	3
721.573	3
722.325	0
723.077	2
723.829	2
724.581	4
725.333	2
726.085	2
726.836	4
727.588	3
728.34	2
729.091	0
729.843	1
730.594	2
731.346	2
732.097	2
732.848	2
733.599	2
734.35	1
735.101	2
735.852	1
736.603	4
737.354	2
738.104	2
738.855	5
739.605	2
740.356	2
741.106	3
741.856	1
742.607	4
743.357	2
744.107	3
744.857	2
745.607	2
746.357	1
747.106	0
747.856	1
748.606	1
749.355	4
750.105	1
750.854	2
751.603	4
752.353	1
753.102	6
753.851	1
754.6	3
755.349	3
756.098	3
756.847	3
757.595	5
758.344	3
759.093	6
759.841	4
760.589	3
761.338	2
762.086	3
762.834	5
763.582	4
764.331	3
765.079	3
765.826	3
766.574	4
767.322	4
768.07	1
768.817	5
769.565	4
770.312	5
771.06	2
771.807	3
772.554	6
773.302	5
774.049	6
774.796	5
775.543	4
776.29	8
777.036	4
777.783	5
778.53	5
779.276	5
780.023	5
780.769	3
781.516	7
782.262	6
783.008	7
783.754	5
784.5	7
785.246	7
785.992	3
786.738	5
787.484	6
788.23	5
788.975	4
789.721	4
790.466	6
791.212	5
791.957	7
792.702	6
793.447	5
794.193	3
794.938	6
795.683	8
796.427	5
797.172	6
797.917	5
798.662	4
799.406	2
800.151	4
800.895	3
801.64	4
802.384	5
803.128	5
803.872	6
804.616	4
805.36	2
806.104	4
806.848	4
807.592	1
808.336	1
809.079	4
809.823	3
810.566	4
811.31	2
812.053	3
812.796	2
813.539	2
814.283	4
815.026	3
815.769	2
816.511	5
817.254	2
817.997	4
818.74	3
819.482	0
820.225	1
820.967	4
821.71	1
822.452	4
823.194	1
823.936	4
824.678	2
825.42	3
826.162	3
826.904	5
827.646	4
828.388	4
829.129	2
829.871	4
830.612	2
831.354	2
832.095	3
832.836	2
833.577	3
834.319	3
835.06	2
835.801	2
836.542	2
837.282	4
838.023	1
838.764	2
839.504	2
840.245	2
840.985	3
841.726	1
842.466	5
843.206	3
843.946	3
844.687	0
845.427	2
846.166	1
846.906	3
847.646	4
848.386	1
849.125	2
849.865	3
850.605	3
851.344	2
852.083	1
852.823	1
853.562	1
854.301	2
855.04	0
855.779	2
856.518	2
857.257	0
857.995	2
858.734	0
859.473	2
860.211	1
860.95	4
861.688	2
862.426	1
863.165	2
863.903	1
864.641	4
865.379	1
866.117	4
866.855	2
867.593	-1
868.33	2
869.068	0
869.806	0
870.543	3
871.28	2
872.018	2
872.755	-3
873.492	1
874.229	-1
874.967	4
875.703	2
876.44	2
877.177	1
877.914	3
878.651	-1
879.387	0
880.124	1
880.86	1
881.597	-1
882.333	1
883.069	1
883.806	1
884.542	-2
885.278	2
886.014	-1
886.749	1
887.485	0
888.221	1
888.957	-1
889.692	1
890.428	0
891.163	1
891.899	1
892.634	1
893.369	1
894.104	1
894.839	2
895.574	2
896.309	1
897.044	1
897.779	3
898.514	2
899.248	1
899.983	0
900.717	3
901.452	0
902.186	-2
902.92	1
903.654	-1
904.389	2
905.123	1
905.857	2
906.59	1
907.324	-3
908.058	0
908.792	-3
909.525	0
910.259	-1
910.992	-1
911.726	0
912.459	-1
913.192	-1
913.925	0
914.658	2
915.391	-1
916.124	0
916.857	0
917.59	1
918.323	0
919.055	0
919.788	-1
920.521	2
921.253	1
921.985	0
922.718	-2
923.45	1
924.182	0
924.914	0
925.646	-1
926.378	0
927.11	3
927.841	0
928.573	2
929.305	0
930.036	0
930.768	2
931.499	1
932.23	1
932.962	-1
933.693	1
934.424	-2
935.155	0
935.886	2
936.617	1
937.348	2
938.078	1
938.809	1
939.54	2
940.27	-1
941.001	0
941.731	-1
942.461	1
943.191	-1
943.922	1
944.652	0
945.382	0
946.112	1
946.841	0
947.571	0
948.301	2
949.031	0
949.76	-1
950.49	0
951.219	1
951.948	-1
952.678	1
953.407	0
954.136	-1
954.865	1
955.594	0
956.323	1
957.052	1
957.78	1
958.509	0
959.238	0
959.966	0
960.695	-1
961.423	1
962.151	-2
962.88	0
963.608	0
964.336	1
965.064	0
965.792	2
966.52	-1
967.247	-1
967.975	1
968.703	2
969.43	1
970.158	0
970.885	-2
971.613	1
972.34	1
973.067	-2
973.794	0
974.521	1
975.248	2
975.975	1
976.702	2
977.429	-1
978.156	5
978.882	2
979.609	1
980.335	0
981.062	-1
981.788	2
982.514	1
983.24	0
983.967	0
984.693	-1
985.419	1
986.144	1
986.87	1
987.596	3
988.322	-2
989.047	1
989.773	0
990.498	2
991.224	-1
991.949	-1
992.674	-2
993.399	0
994.124	0
994.849	-1
995.574	1
996.299	2
997.024	1
997.749	-2
998.473	0
999.198	2
999.922	-3
1000.647	-1
1001.371	2
1002.095	-1
1002.82	1
1003.544	-4
1004.268	2
1004.992	-1
1005.716	-1
1006.439	0
1007.163	-4
1007.887	-1
1008.611	0
1009.334	-2
1010.058	0
1010.781	-1
1011.504	1
1012.228	-1
1012.951	1
1013.674	0
1014.397	1
1015.12	0
