节点500_145_QEPB04081__463__11-36-20-534.txt的数据

Date: Wed Nov 12 11:36:20 CST 2025
User: PC
Spectrometer: QEPB0408
触发模式: 0
积分时间 (秒): 1.000000E-2
Scans to average: 1
启用暗噪声校正: true
启用非线性校正: false
滑动平均宽度: 0
X轴模式: Wavelengths
Number of Pixels in Spectrum: 1044
>>>>>Begin Spectral Data<<<<<
220.843	0.38
221.644	-1.62
222.444	-1.62
223.244	0.38
224.045	1.38
224.845	0.38
225.645	0.38
226.445	1.38
227.245	1.38
228.045	0.38
228.845	1.38
229.645	-0.62
230.444	1.38
231.244	-0.62
232.043	0.38
232.843	-0.62
233.642	-0.62
234.442	-0.62
235.241	0.38
236.04	2.38
236.839	0.38
237.638	0.38
238.437	0.38
239.236	1.38
240.035	1.38
240.833	-0.62
241.632	2.38
242.43	3.38
243.229	2.38
244.027	2.38
244.826	2.38
245.624	1.38
246.422	-1.62
247.22	4.38
248.018	2.38
248.816	0.38
249.614	3.38
250.412	1.38
251.21	3.38
252.007	2.38
252.805	1.38
253.602	1.38
254.4	1.38
255.197	3.38
255.994	1.38
256.791	2.38
257.589	2.38
258.386	4.38
259.183	3.38
259.979	4.38
260.776	2.38
261.573	4.38
262.37	4.38
263.166	1.38
263.963	2.38
264.759	4.38
265.556	5.38
266.352	5.38
267.148	4.38
267.944	7.38
268.74	4.38
269.536	5.38
270.332	7.38
271.128	5.38
271.924	8.38
272.719	7.38
273.515	8.38
274.311	9.38
275.106	8.38
275.901	7.38
276.697	7.38
277.492	9.38
278.287	9.38
279.082	8.38
279.877	9.38
280.672	11.38
281.467	7.38
282.262	9.38
283.056	9.38
283.851	10.38
284.646	11.38
285.44	10.38
286.234	10.38
287.029	9.38
287.823	7.38
288.617	11.38
289.411	7.38
290.205	11.38
290.999	10.38
291.793	9.38
292.587	8.38
293.381	7.38
294.174	11.38
294.968	8.38
295.761	8.38
296.555	9.38
297.348	7.38
298.141	10.38
298.935	8.38
299.728	8.38
300.521	9.38
301.314	9.38
302.107	7.38
302.899	8.38
303.692	6.38
304.485	7.38
305.277	10.38
306.07	6.38
306.862	6.38
307.655	9.38
308.447	9.38
309.239	7.38
310.031	7.38
310.823	7.38
311.615	5.38
312.407	6.38
313.199	7.38
313.991	2.38
314.783	5.38
315.574	4.38
316.366	7.38
317.157	4.38
317.949	7.38
318.74	6.38
319.531	4.38
320.322	2.38
321.113	3.38
321.904	4.38
322.695	4.38
323.486	5.38
324.277	5.38
325.068	4.38
325.858	4.38
326.649	2.38
327.439	5.38
328.23	2.38
329.02	3.38
329.81	4.38
330.6	3.38
331.391	5.38
332.181	3.38
332.971	4.38
333.76	3.38
334.55	5.38
335.34	3.38
336.13	2.38
336.919	4.38
337.709	3.38
338.498	3.38
339.287	5.38
340.077	3.38
340.866	6.38
341.655	2.38
342.444	4.38
343.233	2.38
344.022	2.38
344.811	0.38
345.6	2.38
346.388	3.38
347.177	3.38
347.965	5.38
348.754	2.38
349.542	3.38
350.33	2.38
351.119	3.38
351.907	3.38
352.695	3.38
353.483	5.38
354.271	4.38
355.059	3.38
355.846	6.38
356.634	5.38
357.422	2.38
358.209	1.38
358.997	2.38
359.784	4.38
360.571	2.38
361.359	4.38
362.146	2.38
362.933	5.38
363.72	1.38
364.507	2.38
365.294	3.38
366.081	1.38
366.867	1.38
367.654	2.38
368.44	1.38
369.227	1.38
370.013	2.38
370.8	2.38
371.586	1.38
372.372	3.38
373.158	3.38
373.944	4.38
374.73	3.38
375.516	1.38
376.302	1.38
377.088	1.38
377.873	2.38
378.659	2.38
379.445	2.38
380.23	3.38
381.015	2.38
381.801	1.38
382.586	4.38
383.371	2.38
384.156	3.38
384.941	4.38
385.726	2.38
386.511	2.38
387.296	4.38
388.08	2.38
388.865	4.38
389.649	2.38
390.434	2.38
391.218	1.38
392.003	3.38
392.787	2.38
393.571	3.38
394.355	3.38
395.139	2.38
395.923	3.38
396.707	2.38
397.491	5.38
398.274	2.38
399.058	3.38
399.842	2.38
400.625	5.38
401.408	5.38
402.192	1.38
402.975	3.38
403.758	3.38
404.541	2.38
405.324	2.38
406.107	4.38
406.89	3.38
407.673	5.38
408.456	4.38
409.238	5.38
410.021	4.38
410.803	4.38
411.586	1.38
412.368	5.38
413.151	4.38
413.933	3.38
414.715	5.38
415.497	4.38
416.279	5.38
417.061	2.38
417.843	5.38
418.624	6.38
419.406	5.38
420.188	4.38
420.969	5.38
421.751	4.38
422.532	4.38
423.313	5.38
424.095	7.38
424.876	6.38
425.657	7.38
426.438	2.38
427.219	6.38
428	4.38
428.78	7.38
429.561	9.38
430.342	6.38
431.122	6.38
431.903	9.38
432.683	8.38
433.464	8.38
434.244	8.38
435.024	10.38
435.804	8.38
436.584	9.38
437.364	10.38
438.144	10.38
438.924	10.38
439.704	13.38
440.483	9.38
441.263	11.38
442.042	13.38
442.822	13.38
443.601	15.38
444.38	16.38
445.16	17.38
445.939	20.38
446.718	18.38
447.497	19.38
448.276	19.38
449.054	25.38
449.833	21.38
450.612	26.38
451.391	27.38
452.169	29.38
452.948	32.38
453.726	38.38
454.504	37.38
455.282	43.38
456.061	48.38
456.839	53.38
457.617	56.38
458.395	67.38
459.172	72.38
459.95	80.38
460.728	84.38
461.506	94.38
462.283	109.38
463.061	117.38
463.838	133.38
464.615	148.38
465.393	166.38
466.17	182.38
466.947	206.38
467.724	226.38
468.501	253.38
469.278	290.38
470.055	315.38
470.831	349.38
471.608	382.38
472.385	425.38
473.161	476.38
473.938	516.38
474.714	585.38
475.49	645.38
476.266	716.38
477.043	789.38
477.819	866.38
478.595	953.38
479.371	1067.38
480.146	1166.38
480.922	1282.38
481.698	1399.38
482.473	1557.38
483.249	1686.38
484.024	1875.38
484.8	2024.38
485.575	2271.38
486.35	2481.38
487.126	2702.38
487.901	2959.38
488.676	3270.38
489.451	3569.38
490.225	3917.38
491	4304.38
491.775	4697.38
492.55	5124.38
493.324	5606.38
494.099	6095.38
494.873	6655.38
495.647	7230.38
496.422	7857.38
497.196	8489.38
497.97	9147.38
498.744	9850.38
499.518	10522.38
500.292	11271.38
501.066	11890.38
501.839	12602.38
502.613	13211.38
503.387	13830.38
504.16	14397.38
504.934	14866.38
505.707	15300.38
506.48	15586.38
507.253	15809.38
508.027	15940.38
508.8	15956.38
509.573	15879.38
510.346	15675.38
511.118	15455.38
511.891	15166.38
512.664	14672.38
513.437	14242.38
514.209	13851.38
514.982	13261.38
515.754	12769.38
516.526	12253.38
517.298	11701.38
518.071	11228.38
518.843	10735.38
519.615	10301.38
520.387	9888.38
521.159	9474.38
521.93	9050.38
522.702	8739.38
523.474	8408.38
524.245	8049.38
525.017	7760.38
525.788	7415.38
526.56	7139.38
527.331	6853.38
528.102	6527.38
528.873	6263.38
529.644	5968.38
530.415	5730.38
531.186	5437.38
531.957	5186.38
532.728	4930.38
533.498	4692.38
534.269	4421.38
535.039	4176.38
535.81	3989.38
536.58	3773.38
537.351	3566.38
538.121	3346.38
538.891	3184.38
539.661	2993.38
540.431	2845.38
541.201	2675.38
541.971	2537.38
542.741	2401.38
543.51	2293.38
544.28	2157.38
545.05	2061.38
545.819	1954.38
546.588	1866.38
547.358	1752.38
548.127	1691.38
548.896	1596.38
549.665	1510.38
550.434	1444.38
551.203	1365.38
551.972	1281.38
552.741	1231.38
553.51	1179.38
554.278	1105.38
555.047	1030.38
555.815	988.38
556.584	924.38
557.352	877.38
558.121	834.38
558.889	780.38
559.657	728.38
560.425	693.38
561.193	662.38
561.961	627.38
562.729	583.38
563.496	558.38
564.264	521.38
565.032	478.38
565.799	451.38
566.567	432.38
567.334	409.38
568.101	387.38
568.869	368.38
569.636	343.38
570.403	329.38
571.17	297.38
571.937	289.38
572.704	268.38
573.471	261.38
574.237	243.38
575.004	235.38
575.771	219.38
576.537	198.38
577.303	197.38
578.07	184.38
578.836	168.38
579.602	164.38
580.368	149.38
581.134	141.38
581.9	138.38
582.666	128.38
583.432	119.38
584.198	119.38
584.964	113.38
585.729	101.38
586.495	94.38
587.26	92.38
588.025	87.38
588.791	81.38
589.556	77.38
590.321	73.38
591.086	70.38
591.851	68.38
592.616	63.38
593.381	59.38
594.146	59.38
594.911	50.38
595.675	52.38
596.44	54.38
597.204	46.38
597.969	44.38
598.733	39.38
599.497	41.38
600.261	38.38
601.025	36.38
601.79	32.38
602.553	35.38
603.317	33.38
604.081	30.38
604.845	29.38
605.609	26.38
606.372	25.38
607.136	25.38
607.899	24.38
608.662	21.38
609.426	23.38
610.189	20.38
610.952	17.38
611.715	19.38
612.478	20.38
613.241	19.38
614.004	16.38
614.767	17.38
615.529	16.38
616.292	14.38
617.055	16.38
617.817	14.38
618.579	12.38
619.342	15.38
620.104	11.38
620.866	14.38
621.628	12.38
622.39	11.38
623.152	9.38
623.914	12.38
624.676	12.38
625.438	10.38
626.199	10.38
626.961	7.38
627.722	10.38
628.484	9.38
629.245	9.38
630.006	7.38
630.768	9.38
631.529	9.38
632.29	7.38
633.051	6.38
633.812	6.38
634.573	6.38
635.333	5.38
636.094	5.38
636.855	6.38
637.615	5.38
638.376	5.38
639.136	4.38
639.896	3.38
640.657	4.38
641.417	7.38
642.177	7.38
642.937	4.38
643.697	4.38
644.457	5.38
645.216	4.38
645.976	4.38
646.736	2.38
647.495	5.38
648.255	1.38
649.014	5.38
649.774	4.38
650.533	3.38
651.292	4.38
652.051	2.38
652.81	6.38
653.569	1.38
654.328	4.38
655.087	3.38
655.846	4.38
656.604	3.38
657.363	4.38
658.121	3.38
658.88	3.38
659.638	2.38
660.397	2.38
661.155	4.38
661.913	1.38
662.671	4.38
663.429	4.38
664.187	3.38
664.945	3.38
665.703	3.38
666.46	4.38
667.218	2.38
667.976	2.38
668.733	4.38
669.49	0.38
670.248	2.38
671.005	1.38
671.762	3.38
672.519	1.38
673.276	2.38
674.033	1.38
674.79	4.38
675.547	3.38
676.304	1.38
677.06	1.38
677.817	5.38
678.574	3.38
679.33	4.38
680.086	0.38
680.843	2.38
681.599	0.38
682.355	2.38
683.111	2.38
683.867	1.38
684.623	1.38
685.379	2.38
686.135	2.38
686.89	3.38
687.646	3.38
688.402	2.38
689.157	0.38
689.912	2.38
690.668	2.38
691.423	2.38
692.178	0.38
692.933	1.38
693.688	4.38
694.443	3.38
695.198	1.38
695.953	5.38
696.708	1.38
697.462	2.38
698.217	0.38
698.972	2.38
699.726	2.38
700.48	1.38
701.235	2.38
701.989	0.38
702.743	4.38
703.497	-0.62
704.251	1.38
705.005	4.38
705.759	0.38
706.513	2.38
707.266	3.38
708.02	3.38
708.774	2.38
709.527	2.38
710.28	-0.62
711.034	2.38
711.787	1.38
712.54	3.38
713.293	1.38
714.046	1.38
714.799	2.38
715.552	1.38
716.305	1.38
717.058	4.38
717.81	2.38
718.563	3.38
719.315	1.38
720.068	2.38
720.82	2.38
721.573	3.38
722.325	1.38
723.077	1.38
723.829	1.38
724.581	2.38
725.333	2.38
726.085	1.38
726.836	1.38
727.588	1.38
728.34	3.38
729.091	1.38
729.843	2.38
730.594	2.38
731.346	1.38
732.097	0.38
732.848	2.38
733.599	1.38
734.35	2.38
735.101	2.38
735.852	1.38
736.603	2.38
737.354	1.38
738.104	2.38
738.855	-1.62
739.605	1.38
740.356	0.38
741.106	0.38
741.856	3.38
742.607	0.38
743.357	2.38
744.107	0.38
744.857	3.38
745.607	2.38
746.357	0.38
747.106	4.38
747.856	3.38
748.606	2.38
749.355	2.38
750.105	1.38
750.854	5.38
751.603	1.38
752.353	3.38
753.102	1.38
753.851	3.38
754.6	2.38
755.349	1.38
756.098	1.38
756.847	3.38
757.595	1.38
758.344	3.38
759.093	1.38
759.841	4.38
760.589	3.38
761.338	3.38
762.086	0.38
762.834	3.38
763.582	4.38
764.331	4.38
765.079	4.38
765.826	3.38
766.574	4.38
767.322	3.38
768.07	2.38
768.817	1.38
769.565	5.38
770.312	3.38
771.06	4.38
771.807	5.38
772.554	4.38
773.302	5.38
774.049	2.38
774.796	4.38
775.543	5.38
776.29	3.38
777.036	5.38
777.783	5.38
778.53	5.38
779.276	2.38
780.023	7.38
780.769	3.38
781.516	5.38
782.262	6.38
783.008	6.38
783.754	3.38
784.5	5.38
785.246	5.38
785.992	5.38
786.738	7.38
787.484	4.38
788.23	6.38
788.975	6.38
789.721	5.38
790.466	5.38
791.212	4.38
791.957	6.38
792.702	6.38
793.447	6.38
794.193	5.38
794.938	4.38
795.683	5.38
796.427	5.38
797.172	5.38
797.917	4.38
798.662	3.38
799.406	4.38
800.151	5.38
800.895	4.38
801.64	4.38
802.384	5.38
803.128	3.38
803.872	5.38
804.616	3.38
805.36	3.38
806.104	4.38
806.848	3.38
807.592	3.38
808.336	3.38
809.079	3.38
809.823	3.38
810.566	2.38
811.31	4.38
812.053	3.38
812.796	3.38
813.539	3.38
814.283	4.38
815.026	1.38
815.769	2.38
816.511	4.38
817.254	3.38
817.997	3.38
818.74	1.38
819.482	0.38
820.225	1.38
820.967	1.38
821.71	5.38
822.452	3.38
823.194	4.38
823.936	2.38
824.678	3.38
825.42	4.38
826.162	3.38
826.904	2.38
827.646	1.38
828.388	1.38
829.129	2.38
829.871	2.38
830.612	2.38
831.354	1.38
832.095	5.38
832.836	3.38
833.577	2.38
834.319	3.38
835.06	2.38
835.801	1.38
836.542	1.38
837.282	3.38
838.023	5.38
838.764	2.38
839.504	1.38
840.245	2.38
840.985	3.38
841.726	0.38
842.466	2.38
843.206	2.38
843.946	1.38
844.687	1.38
845.427	1.38
846.166	1.38
846.906	1.38
847.646	4.38
848.386	1.38
849.125	-0.62
849.865	1.38
850.605	0.38
851.344	2.38
852.083	1.38
852.823	2.38
853.562	3.38
854.301	-0.62
855.04	0.38
855.779	0.38
856.518	0.38
857.257	1.38
857.995	2.38
858.734	0.38
859.473	0.38
860.211	-0.62
860.95	1.38
861.688	1.38
862.426	1.38
863.165	2.38
863.903	1.38
864.641	2.38
865.379	1.38
866.117	-0.62
866.855	3.38
867.593	2.38
868.33	0.38
869.068	-0.62
869.806	-0.62
870.543	4.38
871.28	-1.62
872.018	1.38
872.755	1.38
873.492	-0.62
874.229	1.38
874.967	2.38
875.703	0.38
876.44	4.38
877.177	1.38
877.914	1.38
878.651	1.38
879.387	0.38
880.124	-0.62
880.86	1.38
881.597	0.38
882.333	1.38
883.069	1.38
883.806	1.38
884.542	1.38
885.278	1.38
886.014	1.38
886.749	-0.62
887.485	0.38
888.221	1.38
888.957	-0.62
889.692	-0.62
890.428	2.38
891.163	1.38
891.899	0.38
892.634	0.38
893.369	1.38
894.104	0.38
894.839	1.38
895.574	-1.62
896.309	1.38
897.044	0.38
897.779	-1.62
898.514	0.38
899.248	0.38
899.983	2.38
900.717	1.38
901.452	2.38
902.186	-1.62
902.92	1.38
903.654	1.38
904.389	-0.62
905.123	0.38
905.857	-0.62
906.59	-0.62
907.324	-1.62
908.058	3.38
908.792	0.38
909.525	0.38
910.259	1.38
910.992	-1.62
911.726	1.38
912.459	1.38
913.192	1.38
913.925	0.38
914.658	0.38
915.391	0.38
916.124	1.38
916.857	1.38
917.59	-0.62
918.323	-0.62
919.055	-0.62
919.788	-0.62
920.521	-1.62
921.253	-0.62
921.985	0.38
922.718	-0.62
923.45	2.38
924.182	1.38
924.914	-1.62
925.646	1.38
926.378	0.38
927.11	0.38
927.841	0.38
928.573	-0.62
929.305	1.38
930.036	0.38
930.768	1.38
931.499	1.38
932.23	1.38
932.962	0.38
933.693	-0.62
934.424	-1.62
935.155	-0.62
935.886	1.38
936.617	0.38
937.348	1.38
938.078	1.38
938.809	-1.62
939.54	1.38
940.27	-1.62
941.001	-0.62
941.731	-1.62
942.461	1.38
943.191	-0.62
943.922	-1.62
944.652	1.38
945.382	-0.62
946.112	1.38
946.841	0.38
947.571	-0.62
948.301	0.38
949.031	1.38
949.76	-1.62
950.49	1.38
951.219	2.38
951.948	-0.62
952.678	-0.62
953.407	0.38
954.136	1.38
954.865	-1.62
955.594	-0.62
956.323	-1.62
957.052	-0.62
957.78	0.38
958.509	-1.62
959.238	-0.62
959.966	0.38
960.695	1.38
961.423	-1.62
962.151	-0.62
962.88	1.38
963.608	-1.62
964.336	-1.62
965.064	1.38
965.792	1.38
966.52	-0.62
967.247	-1.62
967.975	1.38
968.703	0.38
969.43	1.38
970.158	1.38
970.885	-1.62
971.613	0.38
972.34	-1.62
973.067	1.38
973.794	1.38
974.521	0.38
975.248	0.38
975.975	-1.62
976.702	-1.62
977.429	-0.62
978.156	0.38
978.882	0.38
979.609	2.38
980.335	0.38
981.062	-1.62
981.788	2.38
982.514	1.38
983.24	-1.62
983.967	0.38
984.693	-0.62
985.419	0.38
986.144	1.38
986.87	2.38
987.596	0.38
988.322	1.38
989.047	0.38
989.773	1.38
990.498	2.38
991.224	0.38
991.949	0.38
992.674	0.38
993.399	1.38
994.124	-0.62
994.849	-0.62
995.574	1.38
996.299	-1.62
997.024	0.38
997.749	-1.62
998.473	-1.62
999.198	-1.62
999.922	0.38
1000.647	-1.62
1001.371	3.38
1002.095	-0.62
1002.82	0.38
1003.544	-0.62
1004.268	-1.62
1004.992	-0.62
1005.716	-1.62
1006.439	1.38
1007.163	1.38
1007.887	0.38
1008.611	1.38
1009.334	1.38
1010.058	0.38
1010.781	0.38
1011.504	0.38
1012.228	-0.62
1012.951	-0.62
1013.674	-0.62
1014.397	-0.62
1015.12	-0.62
