节点500_145_QEPB04081__402__11-35-23-534.txt的数据

Date: Wed Nov 12 11:35:23 CST 2025
User: PC
Spectrometer: QEPB0408
触发模式: 0
积分时间 (秒): 1.000000E-2
Scans to average: 1
启用暗噪声校正: true
启用非线性校正: false
滑动平均宽度: 0
X轴模式: Wavelengths
Number of Pixels in Spectrum: 1044
>>>>>Begin Spectral Data<<<<<
220.843	-0.5
221.644	0.5
222.444	-1.5
223.244	0.5
224.045	-0.5
224.845	0.5
225.645	-1.5
226.445	2.5
227.245	-0.5
228.045	1.5
228.845	1.5
229.645	1.5
230.444	1.5
231.244	2.5
232.043	1.5
232.843	0.5
233.642	0.5
234.442	2.5
235.241	2.5
236.04	-0.5
236.839	3.5
237.638	1.5
238.437	1.5
239.236	0.5
240.035	1.5
240.833	-0.5
241.632	0.5
242.43	4.5
243.229	2.5
244.027	1.5
244.826	2.5
245.624	4.5
246.422	-1.5
247.22	2.5
248.018	2.5
248.816	3.5
249.614	2.5
250.412	4.5
251.21	3.5
252.007	3.5
252.805	5.5
253.602	2.5
254.4	4.5
255.197	2.5
255.994	1.5
256.791	2.5
257.589	3.5
258.386	4.5
259.183	1.5
259.979	5.5
260.776	4.5
261.573	3.5
262.37	4.5
263.166	2.5
263.963	6.5
264.759	4.5
265.556	6.5
266.352	5.5
267.148	5.5
267.944	6.5
268.74	5.5
269.536	6.5
270.332	4.5
271.128	7.5
271.924	8.5
272.719	7.5
273.515	8.5
274.311	9.5
275.106	10.5
275.901	10.5
276.697	8.5
277.492	9.5
278.287	5.5
279.082	10.5
279.877	8.5
280.672	10.5
281.467	11.5
282.262	12.5
283.056	7.5
283.851	10.5
284.646	10.5
285.44	9.5
286.234	9.5
287.029	9.5
287.823	11.5
288.617	9.5
289.411	9.5
290.205	11.5
290.999	11.5
291.793	8.5
292.587	8.5
293.381	13.5
294.174	8.5
294.968	7.5
295.761	11.5
296.555	9.5
297.348	9.5
298.141	12.5
298.935	11.5
299.728	9.5
300.521	8.5
301.314	9.5
302.107	9.5
302.899	10.5
303.692	9.5
304.485	7.5
305.277	8.5
306.07	9.5
306.862	8.5
307.655	8.5
308.447	7.5
309.239	6.5
310.031	5.5
310.823	7.5
311.615	5.5
312.407	6.5
313.199	7.5
313.991	6.5
314.783	6.5
315.574	5.5
316.366	4.5
317.157	6.5
317.949	6.5
318.74	4.5
319.531	6.5
320.322	2.5
321.113	2.5
321.904	5.5
322.695	1.5
323.486	4.5
324.277	5.5
325.068	4.5
325.858	6.5
326.649	4.5
327.439	4.5
328.23	3.5
329.02	5.5
329.81	2.5
330.6	3.5
331.391	4.5
332.181	2.5
332.971	5.5
333.76	2.5
334.55	4.5
335.34	2.5
336.13	3.5
336.919	5.5
337.709	2.5
338.498	3.5
339.287	2.5
340.077	4.5
340.866	1.5
341.655	4.5
342.444	1.5
343.233	4.5
344.022	4.5
344.811	5.5
345.6	4.5
346.388	3.5
347.177	3.5
347.965	4.5
348.754	2.5
349.542	2.5
350.33	2.5
351.119	4.5
351.907	4.5
352.695	5.5
353.483	4.5
354.271	1.5
355.059	4.5
355.846	3.5
356.634	1.5
357.422	4.5
358.209	1.5
358.997	4.5
359.784	4.5
360.571	2.5
361.359	4.5
362.146	3.5
362.933	5.5
363.72	0.5
364.507	2.5
365.294	3.5
366.081	0.5
366.867	4.5
367.654	4.5
368.44	2.5
369.227	1.5
370.013	1.5
370.8	2.5
371.586	4.5
372.372	1.5
373.158	4.5
373.944	3.5
374.73	2.5
375.516	5.5
376.302	2.5
377.088	3.5
377.873	1.5
378.659	2.5
379.445	3.5
380.23	2.5
381.015	1.5
381.801	1.5
382.586	3.5
383.371	1.5
384.156	1.5
384.941	3.5
385.726	1.5
386.511	4.5
387.296	2.5
388.08	4.5
388.865	4.5
389.649	3.5
390.434	4.5
391.218	1.5
392.003	3.5
392.787	3.5
393.571	3.5
394.355	1.5
395.139	1.5
395.923	4.5
396.707	4.5
397.491	4.5
398.274	1.5
399.058	3.5
399.842	3.5
400.625	5.5
401.408	3.5
402.192	3.5
402.975	4.5
403.758	4.5
404.541	2.5
405.324	2.5
406.107	3.5
406.89	2.5
407.673	4.5
408.456	4.5
409.238	5.5
410.021	5.5
410.803	4.5
411.586	4.5
412.368	5.5
413.151	3.5
413.933	5.5
414.715	6.5
415.497	6.5
416.279	3.5
417.061	5.5
417.843	6.5
418.624	5.5
419.406	5.5
420.188	5.5
420.969	5.5
421.751	4.5
422.532	5.5
423.313	6.5
424.095	5.5
424.876	8.5
425.657	4.5
426.438	7.5
427.219	7.5
428	4.5
428.78	4.5
429.561	7.5
430.342	8.5
431.122	7.5
431.903	7.5
432.683	8.5
433.464	9.5
434.244	9.5
435.024	9.5
435.804	10.5
436.584	9.5
437.364	8.5
438.144	10.5
438.924	10.5
439.704	12.5
440.483	11.5
441.263	11.5
442.042	12.5
442.822	13.5
443.601	13.5
444.38	12.5
445.16	16.5
445.939	16.5
446.718	15.5
447.497	18.5
448.276	21.5
449.054	23.5
449.833	23.5
450.612	27.5
451.391	26.5
452.169	30.5
452.948	29.5
453.726	34.5
454.504	39.5
455.282	42.5
456.061	45.5
456.839	53.5
457.617	58.5
458.395	62.5
459.172	69.5
459.95	77.5
460.728	85.5
461.506	94.5
462.283	109.5
463.061	120.5
463.838	133.5
464.615	146.5
465.393	158.5
466.17	184.5
466.947	203.5
467.724	229.5
468.501	252.5
469.278	279.5
470.055	302.5
470.831	348.5
471.608	381.5
472.385	429.5
473.161	474.5
473.938	518.5
474.714	578.5
475.49	639.5
476.266	695.5
477.043	778.5
477.819	854.5
478.595	944.5
479.371	1051.5
480.146	1162.5
480.922	1278.5
481.698	1401.5
482.473	1551.5
483.249	1690.5
484.024	1871.5
484.8	2056.5
485.575	2253.5
486.35	2491.5
487.126	2751.5
487.901	2997.5
488.676	3291.5
489.451	3593.5
490.225	3978.5
491	4353.5
491.775	4740.5
492.55	5158.5
493.324	5687.5
494.099	6212.5
494.873	6803.5
495.647	7328.5
496.422	7974.5
497.196	8625.5
497.97	9345.5
498.744	10063.5
499.518	10730.5
500.292	11429.5
501.066	12161.5
501.839	12817.5
502.613	13464.5
503.387	14094.5
504.16	14631.5
504.934	15141.5
505.707	15539.5
506.48	15797.5
507.253	15986.5
508.027	16106.5
508.8	16146.5
509.573	15972.5
510.346	15824.5
511.118	15613.5
511.891	15261.5
512.664	14781.5
513.437	14320.5
514.209	13837.5
514.982	13312.5
515.754	12728.5
516.526	12198.5
517.298	11679.5
518.071	11171.5
518.843	10739.5
519.615	10289.5
520.387	9845.5
521.159	9491.5
521.93	9074.5
522.702	8739.5
523.474	8363.5
524.245	8039.5
525.017	7699.5
525.788	7392.5
526.56	7121.5
527.331	6823.5
528.102	6515.5
528.873	6286.5
529.644	5983.5
530.415	5723.5
531.186	5421.5
531.957	5170.5
532.728	4896.5
533.498	4645.5
534.269	4407.5
535.039	4162.5
535.81	3947.5
536.58	3745.5
537.351	3515.5
538.121	3328.5
538.891	3144.5
539.661	2986.5
540.431	2786.5
541.201	2673.5
541.971	2525.5
542.741	2389.5
543.51	2280.5
544.28	2147.5
545.05	2047.5
545.819	1952.5
546.588	1865.5
547.358	1759.5
548.127	1677.5
548.896	1583.5
549.665	1512.5
550.434	1433.5
551.203	1358.5
551.972	1281.5
552.741	1221.5
553.51	1149.5
554.278	1080.5
555.047	1029.5
555.815	983.5
556.584	911.5
557.352	867.5
558.121	813.5
558.889	771.5
559.657	724.5
560.425	679.5
561.193	646.5
561.961	611.5
562.729	584.5
563.496	535.5
564.264	519.5
565.032	482.5
565.799	453.5
566.567	423.5
567.334	407.5
568.101	388.5
568.869	361.5
569.636	338.5
570.403	317.5
571.17	298.5
571.937	287.5
572.704	268.5
573.471	257.5
574.237	243.5
575.004	223.5
575.771	210.5
576.537	200.5
577.303	189.5
578.07	175.5
578.836	165.5
579.602	160.5
580.368	148.5
581.134	148.5
581.9	136.5
582.666	122.5
583.432	116.5
584.198	111.5
584.964	104.5
585.729	101.5
586.495	99.5
587.26	91.5
588.025	88.5
588.791	78.5
589.556	75.5
590.321	73.5
591.086	66.5
591.851	64.5
592.616	63.5
593.381	56.5
594.146	55.5
594.911	54.5
595.675	54.5
596.44	51.5
597.204	48.5
597.969	45.5
598.733	38.5
599.497	41.5
600.261	35.5
601.025	35.5
601.79	35.5
602.553	34.5
603.317	29.5
604.081	29.5
604.845	28.5
605.609	28.5
606.372	28.5
607.136	24.5
607.899	26.5
608.662	20.5
609.426	23.5
610.189	23.5
610.952	20.5
611.715	20.5
612.478	17.5
613.241	17.5
614.004	19.5
614.767	15.5
615.529	17.5
616.292	16.5
617.055	13.5
617.817	14.5
618.579	14.5
619.342	14.5
620.104	11.5
620.866	14.5
621.628	11.5
622.39	13.5
623.152	12.5
623.914	11.5
624.676	10.5
625.438	11.5
626.199	8.5
626.961	9.5
627.722	8.5
628.484	9.5
629.245	7.5
630.006	7.5
630.768	8.5
631.529	7.5
632.29	6.5
633.051	7.5
633.812	6.5
634.573	9.5
635.333	7.5
636.094	6.5
636.855	6.5
637.615	4.5
638.376	6.5
639.136	5.5
639.896	7.5
640.657	6.5
641.417	5.5
642.177	4.5
642.937	4.5
643.697	8.5
644.457	5.5
645.216	4.5
645.976	3.5
646.736	3.5
647.495	4.5
648.255	2.5
649.014	4.5
649.774	2.5
650.533	3.5
651.292	4.5
652.051	2.5
652.81	3.5
653.569	3.5
654.328	3.5
655.087	2.5
655.846	3.5
656.604	2.5
657.363	4.5
658.121	4.5
658.88	1.5
659.638	4.5
660.397	3.5
661.155	5.5
661.913	4.5
662.671	2.5
663.429	2.5
664.187	1.5
664.945	3.5
665.703	1.5
666.46	2.5
667.218	3.5
667.976	3.5
668.733	3.5
669.49	-0.5
670.248	2.5
671.005	3.5
671.762	1.5
672.519	3.5
673.276	2.5
674.033	4.5
674.79	4.5
675.547	6.5
676.304	2.5
677.06	2.5
677.817	3.5
678.574	2.5
679.33	2.5
680.086	2.5
680.843	2.5
681.599	2.5
682.355	3.5
683.111	1.5
683.867	3.5
684.623	4.5
685.379	2.5
686.135	-0.5
686.89	0.5
687.646	1.5
688.402	4.5
689.157	3.5
689.912	3.5
690.668	2.5
691.423	2.5
692.178	1.5
692.933	1.5
693.688	2.5
694.443	1.5
695.198	2.5
695.953	3.5
696.708	1.5
697.462	2.5
698.217	3.5
698.972	1.5
699.726	1.5
700.48	1.5
701.235	2.5
701.989	3.5
702.743	2.5
703.497	2.5
704.251	2.5
705.005	2.5
705.759	2.5
706.513	2.5
707.266	2.5
708.02	3.5
708.774	0.5
709.527	1.5
710.28	1.5
711.034	4.5
711.787	2.5
712.54	0.5
713.293	2.5
714.046	2.5
714.799	1.5
715.552	3.5
716.305	2.5
717.058	2.5
717.81	1.5
718.563	2.5
719.315	1.5
720.068	2.5
720.82	0.5
721.573	1.5
722.325	3.5
723.077	0.5
723.829	2.5
724.581	0.5
725.333	1.5
726.085	2.5
726.836	3.5
727.588	0.5
728.34	4.5
729.091	2.5
729.843	2.5
730.594	4.5
731.346	1.5
732.097	2.5
732.848	3.5
733.599	1.5
734.35	2.5
735.101	-0.5
735.852	2.5
736.603	1.5
737.354	1.5
738.104	2.5
738.855	3.5
739.605	1.5
740.356	1.5
741.106	2.5
741.856	2.5
742.607	-1.5
743.357	2.5
744.107	1.5
744.857	1.5
745.607	2.5
746.357	1.5
747.106	1.5
747.856	0.5
748.606	1.5
749.355	3.5
750.105	3.5
750.854	2.5
751.603	2.5
752.353	3.5
753.102	3.5
753.851	3.5
754.6	1.5
755.349	4.5
756.098	0.5
756.847	4.5
757.595	1.5
758.344	2.5
759.093	4.5
759.841	2.5
760.589	3.5
761.338	2.5
762.086	1.5
762.834	7.5
763.582	3.5
764.331	5.5
765.079	2.5
765.826	3.5
766.574	1.5
767.322	4.5
768.07	3.5
768.817	5.5
769.565	4.5
770.312	2.5
771.06	3.5
771.807	4.5
772.554	6.5
773.302	6.5
774.049	6.5
774.796	3.5
775.543	3.5
776.29	7.5
777.036	4.5
777.783	5.5
778.53	3.5
779.276	5.5
780.023	3.5
780.769	3.5
781.516	5.5
782.262	6.5
783.008	3.5
783.754	3.5
784.5	6.5
785.246	4.5
785.992	3.5
786.738	6.5
787.484	5.5
788.23	3.5
788.975	6.5
789.721	4.5
790.466	5.5
791.212	4.5
791.957	5.5
792.702	4.5
793.447	3.5
794.193	6.5
794.938	6.5
795.683	7.5
796.427	5.5
797.172	6.5
797.917	2.5
798.662	6.5
799.406	4.5
800.151	6.5
800.895	5.5
801.64	5.5
802.384	4.5
803.128	5.5
803.872	5.5
804.616	3.5
805.36	4.5
806.104	2.5
806.848	4.5
807.592	3.5
808.336	4.5
809.079	3.5
809.823	2.5
810.566	5.5
811.31	4.5
812.053	0.5
812.796	2.5
813.539	5.5
814.283	3.5
815.026	2.5
815.769	2.5
816.511	5.5
817.254	5.5
817.997	5.5
818.74	4.5
819.482	2.5
820.225	3.5
820.967	3.5
821.71	3.5
822.452	2.5
823.194	5.5
823.936	1.5
824.678	4.5
825.42	5.5
826.162	3.5
826.904	4.5
827.646	1.5
828.388	4.5
829.129	2.5
829.871	2.5
830.612	4.5
831.354	0.5
832.095	4.5
832.836	2.5
833.577	-1.5
834.319	-1.5
835.06	2.5
835.801	3.5
836.542	2.5
837.282	0.5
838.023	3.5
838.764	1.5
839.504	3.5
840.245	2.5
840.985	1.5
841.726	3.5
842.466	1.5
843.206	2.5
843.946	2.5
844.687	1.5
845.427	2.5
846.166	1.5
846.906	1.5
847.646	2.5
848.386	1.5
849.125	2.5
849.865	1.5
850.605	2.5
851.344	0.5
852.083	1.5
852.823	2.5
853.562	1.5
854.301	1.5
855.04	-1.5
855.779	1.5
856.518	1.5
857.257	1.5
857.995	2.5
858.734	3.5
859.473	2.5
860.211	1.5
860.95	1.5
861.688	2.5
862.426	-0.5
863.165	3.5
863.903	3.5
864.641	2.5
865.379	1.5
866.117	0.5
866.855	0.5
867.593	3.5
868.33	1.5
869.068	2.5
869.806	3.5
870.543	0.5
871.28	0.5
872.018	1.5
872.755	1.5
873.492	0.5
874.229	2.5
874.967	2.5
875.703	1.5
876.44	1.5
877.177	-0.5
877.914	-0.5
878.651	1.5
879.387	0.5
880.124	1.5
880.86	2.5
881.597	0.5
882.333	2.5
883.069	-1.5
883.806	1.5
884.542	0.5
885.278	2.5
886.014	1.5
886.749	-0.5
887.485	-0.5
888.221	1.5
888.957	-0.5
889.692	1.5
890.428	3.5
891.163	0.5
891.899	-1.5
892.634	2.5
893.369	0.5
894.104	0.5
894.839	1.5
895.574	-0.5
896.309	0.5
897.044	0.5
897.779	1.5
898.514	-1.5
899.248	1.5
899.983	1.5
900.717	-0.5
901.452	1.5
902.186	-0.5
902.92	0.5
903.654	1.5
904.389	2.5
905.123	3.5
905.857	-2.5
906.59	1.5
907.324	-0.5
908.058	1.5
908.792	-0.5
909.525	-0.5
910.259	0.5
910.992	1.5
911.726	0.5
912.459	1.5
913.192	-1.5
913.925	1.5
914.658	1.5
915.391	-0.5
916.124	-1.5
916.857	2.5
917.59	0.5
918.323	2.5
919.055	1.5
919.788	0.5
920.521	1.5
921.253	1.5
921.985	0.5
922.718	-1.5
923.45	-0.5
924.182	0.5
924.914	-1.5
925.646	-0.5
926.378	0.5
927.11	-1.5
927.841	0.5
928.573	-0.5
929.305	-0.5
930.036	0.5
930.768	0.5
931.499	1.5
932.23	0.5
932.962	1.5
933.693	1.5
934.424	-1.5
935.155	1.5
935.886	0.5
936.617	2.5
937.348	-2.5
938.078	-0.5
938.809	1.5
939.54	-1.5
940.27	0.5
941.001	-1.5
941.731	1.5
942.461	0.5
943.191	0.5
943.922	1.5
944.652	0.5
945.382	3.5
946.112	-0.5
946.841	-1.5
947.571	0.5
948.301	2.5
949.031	2.5
949.76	1.5
950.49	1.5
951.219	0.5
951.948	1.5
952.678	1.5
953.407	1.5
954.136	1.5
954.865	-1.5
955.594	-0.5
956.323	2.5
957.052	1.5
957.78	1.5
958.509	-1.5
959.238	0.5
959.966	1.5
960.695	1.5
961.423	0.5
962.151	3.5
962.88	0.5
963.608	1.5
964.336	0.5
965.064	-0.5
965.792	-0.5
966.52	0.5
967.247	-0.5
967.975	2.5
968.703	3.5
969.43	1.5
970.158	-2.5
970.885	0.5
971.613	0.5
972.34	-1.5
973.067	-0.5
973.794	0.5
974.521	1.5
975.248	0.5
975.975	-0.5
976.702	1.5
977.429	1.5
978.156	-0.5
978.882	0.5
979.609	-1.5
980.335	-1.5
981.062	1.5
981.788	2.5
982.514	-0.5
983.24	2.5
983.967	0.5
984.693	-0.5
985.419	-1.5
986.144	1.5
986.87	1.5
987.596	0.5
988.322	-1.5
989.047	0.5
989.773	0.5
990.498	1.5
991.224	1.5
991.949	0.5
992.674	1.5
993.399	1.5
994.124	-1.5
994.849	1.5
995.574	-0.5
996.299	-0.5
997.024	-1.5
997.749	0.5
998.473	-0.5
999.198	0.5
999.922	0.5
1000.647	2.5
1001.371	5.5
1002.095	-1.5
1002.82	-2.5
1003.544	0.5
1004.268	0.5
1004.992	-1.5
1005.716	-0.5
1006.439	-0.5
1007.163	1.5
1007.887	2.5
1008.611	-0.5
1009.334	0.5
1010.058	-1.5
1010.781	2.5
1011.504	2.5
1012.228	1.5
1012.951	-1.5
1013.674	1.5
1014.397	-1.5
1015.12	-0.5
