节点500_145_QEPB04081__126__11-30-57-627.txt的数据

Date: Wed Nov 12 11:30:57 CST 2025
User: PC
Spectrometer: QEPB0408
触发模式: 0
积分时间 (秒): 1.000000E-2
Scans to average: 1
启用暗噪声校正: true
启用非线性校正: false
滑动平均宽度: 0
X轴模式: Wavelengths
Number of Pixels in Spectrum: 1044
>>>>>Begin Spectral Data<<<<<
220.843	-1.25
221.644	-1.25
222.444	-0.25
223.244	-1.25
224.045	-0.25
224.845	-0.25
225.645	0.75
226.445	0.75
227.245	-0.25
228.045	1.75
228.845	3.75
229.645	-0.25
230.444	1.75
231.244	-0.25
232.043	0.75
232.843	1.75
233.642	0.75
234.442	0.75
235.241	0.75
236.04	-0.25
236.839	-0.25
237.638	0.75
238.437	0.75
239.236	-1.25
240.035	1.75
240.833	0.75
241.632	-0.25
242.43	0.75
243.229	0.75
244.027	1.75
244.826	1.75
245.624	0.75
246.422	-0.25
247.22	1.75
248.018	4.75
248.816	0.75
249.614	1.75
250.412	-1.25
251.21	2.75
252.007	4.75
252.805	3.75
253.602	4.75
254.4	2.75
255.197	2.75
255.994	0.75
256.791	3.75
257.589	3.75
258.386	3.75
259.183	3.75
259.979	3.75
260.776	5.75
261.573	3.75
262.37	6.75
263.166	8.75
263.963	4.75
264.759	4.75
265.556	5.75
266.352	4.75
267.148	4.75
267.944	6.75
268.74	5.75
269.536	6.75
270.332	6.75
271.128	6.75
271.924	8.75
272.719	7.75
273.515	9.75
274.311	7.75
275.106	8.75
275.901	6.75
276.697	10.75
277.492	8.75
278.287	10.75
279.082	11.75
279.877	9.75
280.672	8.75
281.467	12.75
282.262	9.75
283.056	12.75
283.851	10.75
284.646	8.75
285.44	8.75
286.234	10.75
287.029	11.75
287.823	8.75
288.617	10.75
289.411	8.75
290.205	11.75
290.999	9.75
291.793	11.75
292.587	11.75
293.381	10.75
294.174	10.75
294.968	9.75
295.761	9.75
296.555	7.75
297.348	8.75
298.141	9.75
298.935	11.75
299.728	10.75
300.521	11.75
301.314	7.75
302.107	8.75
302.899	8.75
303.692	8.75
304.485	5.75
305.277	8.75
306.07	5.75
306.862	5.75
307.655	6.75
308.447	8.75
309.239	8.75
310.031	6.75
310.823	6.75
311.615	5.75
312.407	5.75
313.199	7.75
313.991	4.75
314.783	5.75
315.574	6.75
316.366	5.75
317.157	5.75
317.949	3.75
318.74	4.75
319.531	4.75
320.322	4.75
321.113	4.75
321.904	1.75
322.695	4.75
323.486	3.75
324.277	5.75
325.068	5.75
325.858	4.75
326.649	4.75
327.439	2.75
328.23	6.75
329.02	1.75
329.81	3.75
330.6	2.75
331.391	3.75
332.181	4.75
332.971	3.75
333.76	3.75
334.55	2.75
335.34	2.75
336.13	4.75
336.919	1.75
337.709	1.75
338.498	2.75
339.287	4.75
340.077	1.75
340.866	3.75
341.655	4.75
342.444	4.75
343.233	3.75
344.022	2.75
344.811	2.75
345.6	2.75
346.388	2.75
347.177	3.75
347.965	2.75
348.754	2.75
349.542	1.75
350.33	2.75
351.119	-0.25
351.907	0.75
352.695	0.75
353.483	0.75
354.271	2.75
355.059	1.75
355.846	0.75
356.634	1.75
357.422	2.75
358.209	3.75
358.997	1.75
359.784	5.75
360.571	1.75
361.359	4.75
362.146	4.75
362.933	1.75
363.72	5.75
364.507	3.75
365.294	3.75
366.081	1.75
366.867	3.75
367.654	1.75
368.44	2.75
369.227	1.75
370.013	1.75
370.8	1.75
371.586	4.75
372.372	2.75
373.158	2.75
373.944	2.75
374.73	2.75
375.516	4.75
376.302	2.75
377.088	0.75
377.873	2.75
378.659	1.75
379.445	4.75
380.23	2.75
381.015	2.75
381.801	2.75
382.586	1.75
383.371	2.75
384.156	4.75
384.941	2.75
385.726	3.75
386.511	3.75
387.296	3.75
388.08	2.75
388.865	3.75
389.649	0.75
390.434	3.75
391.218	5.75
392.003	3.75
392.787	6.75
393.571	2.75
394.355	1.75
395.139	2.75
395.923	3.75
396.707	2.75
397.491	2.75
398.274	4.75
399.058	2.75
399.842	3.75
400.625	5.75
401.408	1.75
402.192	4.75
402.975	4.75
403.758	3.75
404.541	4.75
405.324	0.75
406.107	4.75
406.89	2.75
407.673	4.75
408.456	4.75
409.238	6.75
410.021	4.75
410.803	3.75
411.586	3.75
412.368	3.75
413.151	6.75
413.933	5.75
414.715	5.75
415.497	6.75
416.279	4.75
417.061	5.75
417.843	3.75
418.624	5.75
419.406	6.75
420.188	5.75
420.969	4.75
421.751	3.75
422.532	5.75
423.313	5.75
424.095	6.75
424.876	6.75
425.657	5.75
426.438	6.75
427.219	4.75
428	5.75
428.78	4.75
429.561	8.75
430.342	7.75
431.122	6.75
431.903	7.75
432.683	6.75
433.464	8.75
434.244	6.75
435.024	8.75
435.804	9.75
436.584	8.75
437.364	6.75
438.144	7.75
438.924	12.75
439.704	10.75
440.483	11.75
441.263	11.75
442.042	9.75
442.822	10.75
443.601	12.75
444.38	12.75
445.16	14.75
445.939	15.75
446.718	13.75
447.497	17.75
448.276	18.75
449.054	21.75
449.833	21.75
450.612	22.75
451.391	22.75
452.169	29.75
452.948	31.75
453.726	28.75
454.504	34.75
455.282	40.75
456.061	39.75
456.839	44.75
457.617	51.75
458.395	56.75
459.172	63.75
459.95	68.75
460.728	73.75
461.506	83.75
462.283	92.75
463.061	107.75
463.838	112.75
464.615	132.75
465.393	147.75
466.17	163.75
466.947	180.75
467.724	200.75
468.501	226.75
469.278	253.75
470.055	275.75
470.831	320.75
471.608	349.75
472.385	396.75
473.161	439.75
473.938	493.75
474.714	541.75
475.49	616.75
476.266	685.75
477.043	750.75
477.819	829.75
478.595	924.75
479.371	1018.75
480.146	1131.75
480.922	1258.75
481.698	1409.75
482.473	1561.75
483.249	1722.75
484.024	1894.75
484.8	2107.75
485.575	2322.75
486.35	2573.75
487.126	2856.75
487.901	3156.75
488.676	3487.75
489.451	3835.75
490.225	4269.75
491	4681.75
491.775	5200.75
492.55	5693.75
493.324	6257.75
494.099	6910.75
494.873	7561.75
495.647	8207.75
496.422	8947.75
497.196	9722.75
497.97	10508.75
498.744	11291.75
499.518	12121.75
500.292	12878.75
501.066	13623.75
501.839	14393.75
502.613	15041.75
503.387	15620.75
504.16	16205.75
504.934	16662.75
505.707	16971.75
506.48	17132.75
507.253	17276.75
508.027	17294.75
508.8	17119.75
509.573	16865.75
510.346	16497.75
511.118	16102.75
511.891	15590.75
512.664	15073.75
513.437	14437.75
514.209	13917.75
514.982	13258.75
515.754	12701.75
516.526	12089.75
517.298	11591.75
518.071	10995.75
518.843	10531.75
519.615	10072.75
520.387	9665.75
521.159	9301.75
521.93	8920.75
522.702	8589.75
523.474	8213.75
524.245	7944.75
525.017	7624.75
525.788	7280.75
526.56	6969.75
527.331	6683.75
528.102	6388.75
528.873	6090.75
529.644	5826.75
530.415	5545.75
531.186	5288.75
531.957	4951.75
532.728	4713.75
533.498	4462.75
534.269	4244.75
535.039	3992.75
535.81	3760.75
536.58	3517.75
537.351	3344.75
538.121	3165.75
538.891	2970.75
539.661	2819.75
540.431	2653.75
541.201	2513.75
541.971	2396.75
542.741	2290.75
543.51	2149.75
544.28	2046.75
545.05	1937.75
545.819	1835.75
546.588	1755.75
547.358	1663.75
548.127	1581.75
548.896	1512.75
549.665	1421.75
550.434	1360.75
551.203	1296.75
551.972	1217.75
552.741	1150.75
553.51	1088.75
554.278	1023.75
555.047	974.75
555.815	911.75
556.584	857.75
557.352	800.75
558.121	760.75
558.889	721.75
559.657	683.75
560.425	648.75
561.193	598.75
561.961	563.75
562.729	533.75
563.496	506.75
564.264	477.75
565.032	444.75
565.799	419.75
566.567	397.75
567.334	378.75
568.101	362.75
568.869	339.75
569.636	320.75
570.403	298.75
571.17	281.75
571.937	265.75
572.704	243.75
573.471	241.75
574.237	227.75
575.004	209.75
575.771	199.75
576.537	185.75
577.303	178.75
578.07	165.75
578.836	156.75
579.602	148.75
580.368	136.75
581.134	129.75
581.9	125.75
582.666	117.75
583.432	108.75
584.198	101.75
584.964	98.75
585.729	96.75
586.495	90.75
587.26	81.75
588.025	80.75
588.791	72.75
589.556	70.75
590.321	63.75
591.086	64.75
591.851	62.75
592.616	54.75
593.381	57.75
594.146	49.75
594.911	49.75
595.675	47.75
596.44	45.75
597.204	40.75
597.969	40.75
598.733	39.75
599.497	36.75
600.261	35.75
601.025	38.75
601.79	32.75
602.553	31.75
603.317	29.75
604.081	24.75
604.845	25.75
605.609	25.75
606.372	24.75
607.136	22.75
607.899	22.75
608.662	23.75
609.426	19.75
610.189	16.75
610.952	20.75
611.715	17.75
612.478	15.75
613.241	17.75
614.004	14.75
614.767	16.75
615.529	15.75
616.292	15.75
617.055	13.75
617.817	13.75
618.579	13.75
619.342	12.75
620.104	13.75
620.866	8.75
621.628	8.75
622.39	11.75
623.152	10.75
623.914	9.75
624.676	10.75
625.438	6.75
626.199	8.75
626.961	7.75
627.722	7.75
628.484	6.75
629.245	7.75
630.006	6.75
630.768	5.75
631.529	6.75
632.29	6.75
633.051	7.75
633.812	5.75
634.573	5.75
635.333	5.75
636.094	4.75
636.855	6.75
637.615	5.75
638.376	6.75
639.136	4.75
639.896	5.75
640.657	5.75
641.417	5.75
642.177	8.75
642.937	1.75
643.697	6.75
644.457	2.75
645.216	4.75
645.976	5.75
646.736	2.75
647.495	3.75
648.255	5.75
649.014	5.75
649.774	0.75
650.533	3.75
651.292	1.75
652.051	2.75
652.81	5.75
653.569	0.75
654.328	3.75
655.087	4.75
655.846	2.75
656.604	2.75
657.363	4.75
658.121	5.75
658.88	2.75
659.638	2.75
660.397	1.75
661.155	3.75
661.913	1.75
662.671	1.75
663.429	1.75
664.187	-0.25
664.945	2.75
665.703	3.75
666.46	2.75
667.218	0.75
667.976	2.75
668.733	0.75
669.49	1.75
670.248	1.75
671.005	3.75
671.762	2.75
672.519	3.75
673.276	1.75
674.033	1.75
674.79	2.75
675.547	0.75
676.304	2.75
677.06	2.75
677.817	-0.25
678.574	1.75
679.33	1.75
680.086	2.75
680.843	0.75
681.599	2.75
682.355	1.75
683.111	2.75
683.867	1.75
684.623	2.75
685.379	0.75
686.135	1.75
686.89	2.75
687.646	2.75
688.402	1.75
689.157	3.75
689.912	1.75
690.668	1.75
691.423	0.75
692.178	3.75
692.933	1.75
693.688	1.75
694.443	-0.25
695.198	0.75
695.953	1.75
696.708	-0.25
697.462	3.75
698.217	0.75
698.972	0.75
699.726	0.75
700.48	1.75
701.235	1.75
701.989	1.75
702.743	4.75
703.497	1.75
704.251	2.75
705.005	0.75
705.759	1.75
706.513	2.75
707.266	0.75
708.02	4.75
708.774	1.75
709.527	0.75
710.28	1.75
711.034	2.75
711.787	3.75
712.54	0.75
713.293	2.75
714.046	2.75
714.799	3.75
715.552	1.75
716.305	-0.25
717.058	1.75
717.81	0.75
718.563	2.75
719.315	0.75
720.068	3.75
720.82	2.75
721.573	-0.25
722.325	0.75
723.077	1.75
723.829	1.75
724.581	0.75
725.333	2.75
726.085	1.75
726.836	0.75
727.588	0.75
728.34	2.75
729.091	2.75
729.843	1.75
730.594	2.75
731.346	2.75
732.097	1.75
732.848	1.75
733.599	1.75
734.35	1.75
735.101	0.75
735.852	0.75
736.603	0.75
737.354	0.75
738.104	4.75
738.855	1.75
739.605	3.75
740.356	1.75
741.106	0.75
741.856	2.75
742.607	1.75
743.357	2.75
744.107	1.75
744.857	0.75
745.607	1.75
746.357	0.75
747.106	2.75
747.856	0.75
748.606	1.75
749.355	2.75
750.105	2.75
750.854	3.75
751.603	1.75
752.353	3.75
753.102	3.75
753.851	3.75
754.6	4.75
755.349	2.75
756.098	4.75
756.847	3.75
757.595	1.75
758.344	1.75
759.093	3.75
759.841	1.75
760.589	4.75
761.338	4.75
762.086	2.75
762.834	2.75
763.582	2.75
764.331	5.75
765.079	1.75
765.826	3.75
766.574	4.75
767.322	4.75
768.07	3.75
768.817	1.75
769.565	5.75
770.312	3.75
771.06	6.75
771.807	3.75
772.554	3.75
773.302	3.75
774.049	4.75
774.796	5.75
775.543	3.75
776.29	5.75
777.036	4.75
777.783	4.75
778.53	6.75
779.276	4.75
780.023	4.75
780.769	2.75
781.516	3.75
782.262	4.75
783.008	3.75
783.754	5.75
784.5	4.75
785.246	4.75
785.992	5.75
786.738	6.75
787.484	4.75
788.23	4.75
788.975	5.75
789.721	1.75
790.466	3.75
791.212	3.75
791.957	6.75
792.702	5.75
793.447	4.75
794.193	3.75
794.938	4.75
795.683	4.75
796.427	3.75
797.172	5.75
797.917	6.75
798.662	5.75
799.406	6.75
800.151	2.75
800.895	3.75
801.64	4.75
802.384	3.75
803.128	4.75
803.872	5.75
804.616	4.75
805.36	0.75
806.104	3.75
806.848	1.75
807.592	3.75
808.336	3.75
809.079	2.75
809.823	4.75
810.566	5.75
811.31	4.75
812.053	4.75
812.796	3.75
813.539	1.75
814.283	3.75
815.026	2.75
815.769	1.75
816.511	1.75
817.254	2.75
817.997	0.75
818.74	1.75
819.482	4.75
820.225	4.75
820.967	2.75
821.71	4.75
822.452	0.75
823.194	1.75
823.936	2.75
824.678	1.75
825.42	2.75
826.162	1.75
826.904	1.75
827.646	3.75
828.388	1.75
829.129	4.75
829.871	1.75
830.612	1.75
831.354	2.75
832.095	4.75
832.836	2.75
833.577	2.75
834.319	2.75
835.06	2.75
835.801	3.75
836.542	1.75
837.282	5.75
838.023	4.75
838.764	1.75
839.504	5.75
840.245	2.75
840.985	0.75
841.726	1.75
842.466	2.75
843.206	-0.25
843.946	0.75
844.687	4.75
845.427	1.75
846.166	1.75
846.906	-0.25
847.646	2.75
848.386	0.75
849.125	2.75
849.865	2.75
850.605	1.75
851.344	1.75
852.083	0.75
852.823	1.75
853.562	1.75
854.301	0.75
855.04	1.75
855.779	-1.25
856.518	0.75
857.257	0.75
857.995	-0.25
858.734	-0.25
859.473	-0.25
860.211	0.75
860.95	1.75
861.688	0.75
862.426	1.75
863.165	-2.25
863.903	-0.25
864.641	1.75
865.379	-0.25
866.117	0.75
866.855	1.75
867.593	1.75
868.33	-1.25
869.068	1.75
869.806	0.75
870.543	0.75
871.28	1.75
872.018	0.75
872.755	0.75
873.492	1.75
874.229	3.75
874.967	-0.25
875.703	-4.25
876.44	1.75
877.177	0.75
877.914	0.75
878.651	-0.25
879.387	0.75
880.124	0.75
880.86	1.75
881.597	0.75
882.333	0.75
883.069	0.75
883.806	-1.25
884.542	0.75
885.278	-0.25
886.014	0.75
886.749	1.75
887.485	0.75
888.221	2.75
888.957	-1.25
889.692	-0.25
890.428	-1.25
891.163	0.75
891.899	-0.25
892.634	-2.25
893.369	-0.25
894.104	-0.25
894.839	0.75
895.574	-0.25
896.309	-0.25
897.044	0.75
897.779	-0.25
898.514	0.75
899.248	0.75
899.983	0.75
900.717	0.75
901.452	1.75
902.186	1.75
902.92	-0.25
903.654	-0.25
904.389	0.75
905.123	0.75
905.857	1.75
906.59	1.75
907.324	-1.25
908.058	-1.25
908.792	-0.25
909.525	-0.25
910.259	-1.25
910.992	2.75
911.726	-0.25
912.459	1.75
913.192	-2.25
913.925	0.75
914.658	0.75
915.391	-3.25
916.124	-0.25
916.857	-1.25
917.59	-0.25
918.323	0.75
919.055	0.75
919.788	0.75
920.521	-1.25
921.253	-0.25
921.985	-0.25
922.718	1.75
923.45	-0.25
924.182	1.75
924.914	0.75
925.646	-1.25
926.378	-0.25
927.11	-1.25
927.841	-0.25
928.573	-0.25
929.305	-0.25
930.036	-1.25
930.768	-3.25
931.499	1.75
932.23	-2.25
932.962	0.75
933.693	1.75
934.424	1.75
935.155	0.75
935.886	-2.25
936.617	1.75
937.348	-0.25
938.078	2.75
938.809	-0.25
939.54	-1.25
940.27	-1.25
941.001	-0.25
941.731	1.75
942.461	-1.25
943.191	-1.25
943.922	-1.25
944.652	1.75
945.382	-0.25
946.112	-0.25
946.841	0.75
947.571	0.75
948.301	-0.25
949.031	-0.25
949.76	1.75
950.49	-0.25
951.219	-0.25
951.948	0.75
952.678	0.75
953.407	-1.25
954.136	0.75
954.865	0.75
955.594	-1.25
956.323	0.75
957.052	0.75
957.78	0.75
958.509	-2.25
959.238	-0.25
959.966	-0.25
960.695	0.75
961.423	-0.25
962.151	0.75
962.88	1.75
963.608	1.75
964.336	0.75
965.064	0.75
965.792	-0.25
966.52	-0.25
967.247	1.75
967.975	0.75
968.703	-3.25
969.43	1.75
970.158	-0.25
970.885	2.75
971.613	0.75
972.34	-1.25
973.067	-0.25
973.794	-0.25
974.521	-2.25
975.248	-1.25
975.975	1.75
976.702	-0.25
977.429	0.75
978.156	-2.25
978.882	0.75
979.609	1.75
980.335	0.75
981.062	0.75
981.788	-2.25
982.514	-0.25
983.24	0.75
983.967	-2.25
984.693	0.75
985.419	-1.25
986.144	-1.25
986.87	1.75
987.596	-1.25
988.322	0.75
989.047	-0.25
989.773	-0.25
990.498	-0.25
991.224	0.75
991.949	-0.25
992.674	-2.25
993.399	-0.25
994.124	0.75
994.849	-3.25
995.574	-0.25
996.299	0.75
997.024	-0.25
997.749	0.75
998.473	1.75
999.198	-2.25
999.922	0.75
1000.647	0.75
1001.371	1.75
1002.095	-3.25
1002.82	0.75
1003.544	0.75
1004.268	0.75
1004.992	-2.25
1005.716	-2.25
1006.439	-1.25
1007.163	-0.25
1007.887	0.75
1008.611	0.75
1009.334	-0.25
1010.058	-0.25
1010.781	0.75
1011.504	-0.25
1012.228	2.75
1012.951	0.75
1013.674	-2.25
1014.397	0.75
1015.12	0.75
