节点500_145_QEPB04081__518__11-37-09-528.txt的数据

Date: Wed Nov 12 11:37:09 CST 2025
User: PC
Spectrometer: QEPB0408
触发模式: 0
积分时间 (秒): 1.000000E-2
Scans to average: 1
启用暗噪声校正: true
启用非线性校正: false
滑动平均宽度: 0
X轴模式: Wavelengths
Number of Pixels in Spectrum: 1044
>>>>>Begin Spectral Data<<<<<
220.843	-2.5
221.644	0.5
222.444	-0.5
223.244	-3.5
224.045	1.5
224.845	0.5
225.645	0.5
226.445	-0.5
227.245	2.5
228.045	-1.5
228.845	0.5
229.645	1.5
230.444	0.5
231.244	-1.5
232.043	-0.5
232.843	1.5
233.642	-0.5
234.442	2.5
235.241	0.5
236.04	2.5
236.839	-0.5
237.638	-1.5
238.437	1.5
239.236	0.5
240.035	2.5
240.833	-1.5
241.632	2.5
242.43	0.5
243.229	1.5
244.027	1.5
244.826	2.5
245.624	2.5
246.422	2.5
247.22	3.5
248.018	3.5
248.816	3.5
249.614	1.5
250.412	1.5
251.21	2.5
252.007	-1.5
252.805	4.5
253.602	1.5
254.4	2.5
255.197	1.5
255.994	1.5
256.791	3.5
257.589	3.5
258.386	4.5
259.183	1.5
259.979	4.5
260.776	3.5
261.573	3.5
262.37	2.5
263.166	6.5
263.963	7.5
264.759	5.5
265.556	4.5
266.352	4.5
267.148	5.5
267.944	5.5
268.74	7.5
269.536	7.5
270.332	5.5
271.128	6.5
271.924	6.5
272.719	5.5
273.515	8.5
274.311	6.5
275.106	7.5
275.901	7.5
276.697	7.5
277.492	8.5
278.287	9.5
279.082	9.5
279.877	9.5
280.672	9.5
281.467	6.5
282.262	8.5
283.056	9.5
283.851	7.5
284.646	11.5
285.44	8.5
286.234	10.5
287.029	8.5
287.823	8.5
288.617	11.5
289.411	11.5
290.205	10.5
290.999	10.5
291.793	8.5
292.587	10.5
293.381	10.5
294.174	9.5
294.968	7.5
295.761	12.5
296.555	11.5
297.348	8.5
298.141	10.5
298.935	10.5
299.728	10.5
300.521	9.5
301.314	8.5
302.107	8.5
302.899	9.5
303.692	7.5
304.485	7.5
305.277	7.5
306.07	8.5
306.862	9.5
307.655	5.5
308.447	7.5
309.239	9.5
310.031	6.5
310.823	6.5
311.615	7.5
312.407	6.5
313.199	5.5
313.991	5.5
314.783	7.5
315.574	5.5
316.366	5.5
317.157	5.5
317.949	5.5
318.74	5.5
319.531	3.5
320.322	5.5
321.113	5.5
321.904	5.5
322.695	4.5
323.486	4.5
324.277	4.5
325.068	4.5
325.858	4.5
326.649	2.5
327.439	4.5
328.23	5.5
329.02	2.5
329.81	4.5
330.6	1.5
331.391	5.5
332.181	1.5
332.971	3.5
333.76	3.5
334.55	3.5
335.34	3.5
336.13	5.5
336.919	3.5
337.709	2.5
338.498	3.5
339.287	3.5
340.077	5.5
340.866	3.5
341.655	0.5
342.444	3.5
343.233	3.5
344.022	3.5
344.811	1.5
345.6	3.5
346.388	4.5
347.177	1.5
347.965	2.5
348.754	2.5
349.542	3.5
350.33	4.5
351.119	2.5
351.907	3.5
352.695	5.5
353.483	3.5
354.271	2.5
355.059	5.5
355.846	4.5
356.634	2.5
357.422	3.5
358.209	2.5
358.997	4.5
359.784	2.5
360.571	1.5
361.359	1.5
362.146	2.5
362.933	2.5
363.72	1.5
364.507	3.5
365.294	3.5
366.081	2.5
366.867	4.5
367.654	1.5
368.44	2.5
369.227	2.5
370.013	1.5
370.8	-0.5
371.586	2.5
372.372	3.5
373.158	3.5
373.944	2.5
374.73	5.5
375.516	2.5
376.302	1.5
377.088	5.5
377.873	3.5
378.659	1.5
379.445	1.5
380.23	1.5
381.015	1.5
381.801	2.5
382.586	1.5
383.371	2.5
384.156	1.5
384.941	2.5
385.726	2.5
386.511	3.5
387.296	3.5
388.08	4.5
388.865	4.5
389.649	2.5
390.434	3.5
391.218	1.5
392.003	3.5
392.787	1.5
393.571	3.5
394.355	2.5
395.139	3.5
395.923	5.5
396.707	3.5
397.491	3.5
398.274	3.5
399.058	1.5
399.842	3.5
400.625	2.5
401.408	5.5
402.192	3.5
402.975	3.5
403.758	2.5
404.541	3.5
405.324	2.5
406.107	2.5
406.89	4.5
407.673	3.5
408.456	5.5
409.238	3.5
410.021	5.5
410.803	5.5
411.586	5.5
412.368	4.5
413.151	3.5
413.933	5.5
414.715	4.5
415.497	5.5
416.279	4.5
417.061	5.5
417.843	3.5
418.624	4.5
419.406	5.5
420.188	4.5
420.969	6.5
421.751	5.5
422.532	3.5
423.313	6.5
424.095	5.5
424.876	6.5
425.657	4.5
426.438	5.5
427.219	7.5
428	7.5
428.78	5.5
429.561	6.5
430.342	9.5
431.122	7.5
431.903	7.5
432.683	7.5
433.464	8.5
434.244	8.5
435.024	8.5
435.804	8.5
436.584	9.5
437.364	11.5
438.144	10.5
438.924	8.5
439.704	10.5
440.483	11.5
441.263	9.5
442.042	12.5
442.822	14.5
443.601	13.5
444.38	17.5
445.16	17.5
445.939	17.5
446.718	17.5
447.497	20.5
448.276	21.5
449.054	22.5
449.833	25.5
450.612	25.5
451.391	26.5
452.169	30.5
452.948	34.5
453.726	34.5
454.504	41.5
455.282	45.5
456.061	46.5
456.839	53.5
457.617	57.5
458.395	64.5
459.172	75.5
459.95	83.5
460.728	86.5
461.506	95.5
462.283	110.5
463.061	120.5
463.838	134.5
464.615	146.5
465.393	168.5
466.17	184.5
466.947	205.5
467.724	230.5
468.501	259.5
469.278	289.5
470.055	313.5
470.831	345.5
471.608	386.5
472.385	429.5
473.161	476.5
473.938	533.5
474.714	583.5
475.49	658.5
476.266	720.5
477.043	802.5
477.819	871.5
478.595	960.5
479.371	1041.5
480.146	1163.5
480.922	1277.5
481.698	1404.5
482.473	1534.5
483.249	1686.5
484.024	1852.5
484.8	2028.5
485.575	2252.5
486.35	2466.5
487.126	2693.5
487.901	2929.5
488.676	3217.5
489.451	3534.5
490.225	3830.5
491	4222.5
491.775	4611.5
492.55	5046.5
493.324	5523.5
494.099	6038.5
494.873	6585.5
495.647	7092.5
496.422	7700.5
497.196	8326.5
497.97	8917.5
498.744	9639.5
499.518	10281.5
500.292	10955.5
501.066	11644.5
501.839	12311.5
502.613	12976.5
503.387	13568.5
504.16	14141.5
504.934	14629.5
505.707	14945.5
506.48	15282.5
507.253	15561.5
508.027	15688.5
508.8	15704.5
509.573	15704.5
510.346	15516.5
511.118	15319.5
511.891	14986.5
512.664	14574.5
513.437	14197.5
514.209	13745.5
514.982	13229.5
515.754	12687.5
516.526	12191.5
517.298	11730.5
518.071	11191.5
518.843	10721.5
519.615	10296.5
520.387	9871.5
521.159	9454.5
521.93	9065.5
522.702	8717.5
523.474	8370.5
524.245	8054.5
525.017	7724.5
525.788	7424.5
526.56	7146.5
527.331	6858.5
528.102	6552.5
528.873	6256.5
529.644	5966.5
530.415	5740.5
531.186	5457.5
531.957	5183.5
532.728	4958.5
533.498	4667.5
534.269	4434.5
535.039	4220.5
535.81	3988.5
536.58	3784.5
537.351	3572.5
538.121	3375.5
538.891	3197.5
539.661	2995.5
540.431	2842.5
541.201	2676.5
541.971	2558.5
542.741	2413.5
543.51	2295.5
544.28	2177.5
545.05	2095.5
545.819	1954.5
546.588	1874.5
547.358	1772.5
548.127	1676.5
548.896	1609.5
549.665	1520.5
550.434	1460.5
551.203	1362.5
551.972	1299.5
552.741	1240.5
553.51	1176.5
554.278	1111.5
555.047	1042.5
555.815	986.5
556.584	932.5
557.352	883.5
558.121	831.5
558.889	779.5
559.657	733.5
560.425	699.5
561.193	664.5
561.961	622.5
562.729	595.5
563.496	559.5
564.264	525.5
565.032	501.5
565.799	458.5
566.567	444.5
567.334	408.5
568.101	394.5
568.869	367.5
569.636	348.5
570.403	330.5
571.17	318.5
571.937	300.5
572.704	275.5
573.471	261.5
574.237	236.5
575.004	233.5
575.771	217.5
576.537	204.5
577.303	187.5
578.07	185.5
578.836	168.5
579.602	166.5
580.368	156.5
581.134	145.5
581.9	138.5
582.666	131.5
583.432	120.5
584.198	116.5
584.964	105.5
585.729	103.5
586.495	98.5
587.26	95.5
588.025	87.5
588.791	80.5
589.556	83.5
590.321	74.5
591.086	68.5
591.851	65.5
592.616	61.5
593.381	61.5
594.146	58.5
594.911	54.5
595.675	49.5
596.44	47.5
597.204	42.5
597.969	45.5
598.733	42.5
599.497	39.5
600.261	36.5
601.025	38.5
601.79	35.5
602.553	32.5
603.317	32.5
604.081	33.5
604.845	30.5
605.609	29.5
606.372	29.5
607.136	26.5
607.899	25.5
608.662	23.5
609.426	19.5
610.189	21.5
610.952	20.5
611.715	22.5
612.478	19.5
613.241	18.5
614.004	18.5
614.767	15.5
615.529	17.5
616.292	16.5
617.055	13.5
617.817	14.5
618.579	15.5
619.342	13.5
620.104	12.5
620.866	13.5
621.628	11.5
622.39	10.5
623.152	12.5
623.914	9.5
624.676	10.5
625.438	13.5
626.199	10.5
626.961	9.5
627.722	9.5
628.484	7.5
629.245	9.5
630.006	8.5
630.768	7.5
631.529	9.5
632.29	5.5
633.051	6.5
633.812	9.5
634.573	5.5
635.333	5.5
636.094	6.5
636.855	7.5
637.615	6.5
638.376	8.5
639.136	5.5
639.896	4.5
640.657	8.5
641.417	5.5
642.177	8.5
642.937	6.5
643.697	5.5
644.457	1.5
645.216	5.5
645.976	4.5
646.736	3.5
647.495	4.5
648.255	4.5
649.014	4.5
649.774	4.5
650.533	3.5
651.292	4.5
652.051	4.5
652.81	4.5
653.569	5.5
654.328	6.5
655.087	7.5
655.846	3.5
656.604	3.5
657.363	4.5
658.121	4.5
658.88	5.5
659.638	4.5
660.397	3.5
661.155	4.5
661.913	4.5
662.671	2.5
663.429	1.5
664.187	2.5
664.945	1.5
665.703	1.5
666.46	3.5
667.218	3.5
667.976	2.5
668.733	3.5
669.49	2.5
670.248	2.5
671.005	4.5
671.762	4.5
672.519	3.5
673.276	1.5
674.033	2.5
674.79	3.5
675.547	2.5
676.304	1.5
677.06	0.5
677.817	1.5
678.574	2.5
679.33	2.5
680.086	5.5
680.843	-0.5
681.599	2.5
682.355	3.5
683.111	0.5
683.867	1.5
684.623	4.5
685.379	4.5
686.135	3.5
686.89	3.5
687.646	3.5
688.402	2.5
689.157	2.5
689.912	2.5
690.668	4.5
691.423	-0.5
692.178	2.5
692.933	0.5
693.688	2.5
694.443	1.5
695.198	2.5
695.953	2.5
696.708	1.5
697.462	3.5
698.217	2.5
698.972	2.5
699.726	1.5
700.48	0.5
701.235	3.5
701.989	1.5
702.743	1.5
703.497	3.5
704.251	2.5
705.005	1.5
705.759	0.5
706.513	1.5
707.266	2.5
708.02	2.5
708.774	2.5
709.527	1.5
710.28	2.5
711.034	1.5
711.787	2.5
712.54	1.5
713.293	1.5
714.046	1.5
714.799	1.5
715.552	2.5
716.305	3.5
717.058	3.5
717.81	1.5
718.563	3.5
719.315	2.5
720.068	2.5
720.82	2.5
721.573	2.5
722.325	3.5
723.077	1.5
723.829	3.5
724.581	2.5
725.333	3.5
726.085	2.5
726.836	2.5
727.588	4.5
728.34	-1.5
729.091	2.5
729.843	1.5
730.594	2.5
731.346	3.5
732.097	1.5
732.848	1.5
733.599	3.5
734.35	2.5
735.101	1.5
735.852	2.5
736.603	4.5
737.354	-0.5
738.104	1.5
738.855	2.5
739.605	2.5
740.356	3.5
741.106	3.5
741.856	2.5
742.607	1.5
743.357	1.5
744.107	1.5
744.857	2.5
745.607	2.5
746.357	2.5
747.106	1.5
747.856	2.5
748.606	1.5
749.355	0.5
750.105	2.5
750.854	5.5
751.603	2.5
752.353	6.5
753.102	3.5
753.851	3.5
754.6	2.5
755.349	5.5
756.098	3.5
756.847	2.5
757.595	1.5
758.344	2.5
759.093	2.5
759.841	5.5
760.589	5.5
761.338	1.5
762.086	1.5
762.834	0.5
763.582	5.5
764.331	3.5
765.079	2.5
765.826	3.5
766.574	2.5
767.322	5.5
768.07	3.5
768.817	2.5
769.565	4.5
770.312	4.5
771.06	4.5
771.807	4.5
772.554	4.5
773.302	6.5
774.049	3.5
774.796	3.5
775.543	4.5
776.29	4.5
777.036	5.5
777.783	3.5
778.53	3.5
779.276	2.5
780.023	4.5
780.769	6.5
781.516	6.5
782.262	4.5
783.008	3.5
783.754	5.5
784.5	3.5
785.246	3.5
785.992	5.5
786.738	4.5
787.484	5.5
788.23	5.5
788.975	2.5
789.721	3.5
790.466	5.5
791.212	2.5
791.957	4.5
792.702	3.5
793.447	4.5
794.193	7.5
794.938	5.5
795.683	5.5
796.427	1.5
797.172	2.5
797.917	4.5
798.662	6.5
799.406	1.5
800.151	4.5
800.895	4.5
801.64	3.5
802.384	5.5
803.128	5.5
803.872	2.5
804.616	5.5
805.36	6.5
806.104	4.5
806.848	4.5
807.592	3.5
808.336	2.5
809.079	2.5
809.823	5.5
810.566	2.5
811.31	4.5
812.053	2.5
812.796	3.5
813.539	3.5
814.283	3.5
815.026	4.5
815.769	1.5
816.511	3.5
817.254	1.5
817.997	4.5
818.74	2.5
819.482	3.5
820.225	3.5
820.967	5.5
821.71	0.5
822.452	1.5
823.194	1.5
823.936	2.5
824.678	3.5
825.42	2.5
826.162	1.5
826.904	2.5
827.646	2.5
828.388	2.5
829.129	3.5
829.871	0.5
830.612	1.5
831.354	2.5
832.095	3.5
832.836	1.5
833.577	1.5
834.319	1.5
835.06	0.5
835.801	1.5
836.542	2.5
837.282	0.5
838.023	2.5
838.764	1.5
839.504	5.5
840.245	2.5
840.985	3.5
841.726	2.5
842.466	1.5
843.206	2.5
843.946	-0.5
844.687	3.5
845.427	2.5
846.166	1.5
846.906	2.5
847.646	3.5
848.386	1.5
849.125	0.5
849.865	1.5
850.605	2.5
851.344	2.5
852.083	3.5
852.823	2.5
853.562	2.5
854.301	1.5
855.04	1.5
855.779	0.5
856.518	3.5
857.257	0.5
857.995	-1.5
858.734	2.5
859.473	0.5
860.211	1.5
860.95	2.5
861.688	-0.5
862.426	3.5
863.165	0.5
863.903	0.5
864.641	0.5
865.379	2.5
866.117	0.5
866.855	0.5
867.593	1.5
868.33	0.5
869.068	2.5
869.806	2.5
870.543	2.5
871.28	0.5
872.018	2.5
872.755	0.5
873.492	-1.5
874.229	2.5
874.967	0.5
875.703	2.5
876.44	1.5
877.177	1.5
877.914	1.5
878.651	-1.5
879.387	0.5
880.124	0.5
880.86	1.5
881.597	1.5
882.333	3.5
883.069	-0.5
883.806	1.5
884.542	2.5
885.278	-1.5
886.014	-0.5
886.749	1.5
887.485	0.5
888.221	-0.5
888.957	-0.5
889.692	0.5
890.428	1.5
891.163	0.5
891.899	-0.5
892.634	2.5
893.369	0.5
894.104	0.5
894.839	0.5
895.574	1.5
896.309	0.5
897.044	0.5
897.779	-0.5
898.514	3.5
899.248	0.5
899.983	-1.5
900.717	0.5
901.452	-1.5
902.186	1.5
902.92	0.5
903.654	1.5
904.389	0.5
905.123	1.5
905.857	1.5
906.59	1.5
907.324	0.5
908.058	1.5
908.792	1.5
909.525	-1.5
910.259	1.5
910.992	0.5
911.726	1.5
912.459	0.5
913.192	-0.5
913.925	0.5
914.658	-0.5
915.391	2.5
916.124	1.5
916.857	0.5
917.59	1.5
918.323	1.5
919.055	-2.5
919.788	0.5
920.521	-0.5
921.253	1.5
921.985	0.5
922.718	2.5
923.45	-1.5
924.182	-1.5
924.914	0.5
925.646	0.5
926.378	2.5
927.11	0.5
927.841	0.5
928.573	1.5
929.305	0.5
930.036	-0.5
930.768	0.5
931.499	0.5
932.23	-0.5
932.962	-0.5
933.693	-0.5
934.424	-0.5
935.155	-1.5
935.886	0.5
936.617	-0.5
937.348	0.5
938.078	0.5
938.809	-0.5
939.54	2.5
940.27	3.5
941.001	-0.5
941.731	-0.5
942.461	1.5
943.191	2.5
943.922	-0.5
944.652	2.5
945.382	-0.5
946.112	0.5
946.841	-0.5
947.571	0.5
948.301	0.5
949.031	-1.5
949.76	2.5
950.49	1.5
951.219	-0.5
951.948	2.5
952.678	-0.5
953.407	3.5
954.136	-2.5
954.865	-1.5
955.594	-1.5
956.323	1.5
957.052	0.5
957.78	0.5
958.509	2.5
959.238	1.5
959.966	1.5
960.695	1.5
961.423	-1.5
962.151	0.5
962.88	0.5
963.608	0.5
964.336	-0.5
965.064	-0.5
965.792	0.5
966.52	-0.5
967.247	-0.5
967.975	0.5
968.703	1.5
969.43	1.5
970.158	-1.5
970.885	-1.5
971.613	-0.5
972.34	2.5
973.067	0.5
973.794	0.5
974.521	0.5
975.248	1.5
975.975	-1.5
976.702	0.5
977.429	0.5
978.156	-1.5
978.882	-1.5
979.609	-0.5
980.335	1.5
981.062	1.5
981.788	-1.5
982.514	-1.5
983.24	-1.5
983.967	1.5
984.693	0.5
985.419	-0.5
986.144	-1.5
986.87	0.5
987.596	-0.5
988.322	1.5
989.047	0.5
989.773	-0.5
990.498	1.5
991.224	2.5
991.949	-0.5
992.674	0.5
993.399	-1.5
994.124	1.5
994.849	-0.5
995.574	1.5
996.299	-0.5
997.024	0.5
997.749	0.5
998.473	1.5
999.198	0.5
999.922	2.5
1000.647	1.5
1001.371	3.5
1002.095	-3.5
1002.82	0.5
1003.544	-0.5
1004.268	-1.5
1004.992	-0.5
1005.716	0.5
1006.439	-0.5
1007.163	0.5
1007.887	-2.5
1008.611	0.5
1009.334	1.5
1010.058	-0.5
1010.781	0.5
1011.504	0.5
1012.228	1.5
1012.951	0.5
1013.674	0.5
1014.397	0.5
1015.12	-1.5
