节点500_145_QEPB04081__291__11-33-37-465.txt的数据

Date: Wed Nov 12 11:33:37 CST 2025
User: PC
Spectrometer: QEPB0408
触发模式: 0
积分时间 (秒): 1.000000E-2
Scans to average: 1
启用暗噪声校正: true
启用非线性校正: false
滑动平均宽度: 0
X轴模式: Wavelengths
Number of Pixels in Spectrum: 1044
>>>>>Begin Spectral Data<<<<<
220.843	-0.5
221.644	0.5
222.444	-0.5
223.244	1.5
224.045	0.5
224.845	0.5
225.645	2.5
226.445	-1.5
227.245	-0.5
228.045	2.5
228.845	2.5
229.645	-0.5
230.444	1.5
231.244	1.5
232.043	1.5
232.843	2.5
233.642	-0.5
234.442	2.5
235.241	1.5
236.04	-0.5
236.839	-0.5
237.638	1.5
238.437	1.5
239.236	0.5
240.035	0.5
240.833	1.5
241.632	3.5
242.43	1.5
243.229	4.5
244.027	0.5
244.826	1.5
245.624	2.5
246.422	2.5
247.22	2.5
248.018	2.5
248.816	2.5
249.614	1.5
250.412	2.5
251.21	4.5
252.007	2.5
252.805	3.5
253.602	4.5
254.4	2.5
255.197	2.5
255.994	5.5
256.791	2.5
257.589	4.5
258.386	5.5
259.183	4.5
259.979	3.5
260.776	4.5
261.573	4.5
262.37	4.5
263.166	3.5
263.963	5.5
264.759	4.5
265.556	5.5
266.352	5.5
267.148	5.5
267.944	5.5
268.74	9.5
269.536	7.5
270.332	7.5
271.128	7.5
271.924	9.5
272.719	4.5
273.515	10.5
274.311	7.5
275.106	7.5
275.901	9.5
276.697	8.5
277.492	9.5
278.287	7.5
279.082	10.5
279.877	9.5
280.672	11.5
281.467	7.5
282.262	9.5
283.056	10.5
283.851	11.5
284.646	9.5
285.44	10.5
286.234	9.5
287.029	10.5
287.823	11.5
288.617	13.5
289.411	11.5
290.205	12.5
290.999	11.5
291.793	10.5
292.587	11.5
293.381	9.5
294.174	10.5
294.968	9.5
295.761	9.5
296.555	11.5
297.348	8.5
298.141	9.5
298.935	12.5
299.728	11.5
300.521	9.5
301.314	7.5
302.107	9.5
302.899	7.5
303.692	9.5
304.485	9.5
305.277	10.5
306.07	6.5
306.862	10.5
307.655	7.5
308.447	8.5
309.239	9.5
310.031	5.5
310.823	5.5
311.615	6.5
312.407	7.5
313.199	6.5
313.991	4.5
314.783	6.5
315.574	7.5
316.366	6.5
317.157	5.5
317.949	7.5
318.74	4.5
319.531	3.5
320.322	4.5
321.113	5.5
321.904	2.5
322.695	4.5
323.486	4.5
324.277	4.5
325.068	3.5
325.858	6.5
326.649	5.5
327.439	4.5
328.23	5.5
329.02	3.5
329.81	1.5
330.6	3.5
331.391	3.5
332.181	4.5
332.971	2.5
333.76	4.5
334.55	4.5
335.34	4.5
336.13	2.5
336.919	5.5
337.709	2.5
338.498	3.5
339.287	4.5
340.077	3.5
340.866	1.5
341.655	2.5
342.444	3.5
343.233	2.5
344.022	3.5
344.811	2.5
345.6	4.5
346.388	6.5
347.177	3.5
347.965	6.5
348.754	3.5
349.542	4.5
350.33	1.5
351.119	3.5
351.907	4.5
352.695	1.5
353.483	4.5
354.271	3.5
355.059	3.5
355.846	2.5
356.634	2.5
357.422	6.5
358.209	1.5
358.997	3.5
359.784	1.5
360.571	1.5
361.359	2.5
362.146	0.5
362.933	3.5
363.72	0.5
364.507	1.5
365.294	3.5
366.081	2.5
366.867	3.5
367.654	2.5
368.44	3.5
369.227	1.5
370.013	0.5
370.8	4.5
371.586	3.5
372.372	3.5
373.158	2.5
373.944	2.5
374.73	4.5
375.516	2.5
376.302	3.5
377.088	1.5
377.873	3.5
378.659	2.5
379.445	5.5
380.23	2.5
381.015	3.5
381.801	2.5
382.586	2.5
383.371	2.5
384.156	4.5
384.941	4.5
385.726	3.5
386.511	1.5
387.296	4.5
388.08	1.5
388.865	4.5
389.649	2.5
390.434	7.5
391.218	1.5
392.003	2.5
392.787	4.5
393.571	1.5
394.355	3.5
395.139	2.5
395.923	4.5
396.707	3.5
397.491	5.5
398.274	3.5
399.058	3.5
399.842	5.5
400.625	3.5
401.408	4.5
402.192	3.5
402.975	3.5
403.758	3.5
404.541	2.5
405.324	3.5
406.107	5.5
406.89	3.5
407.673	3.5
408.456	3.5
409.238	4.5
410.021	3.5
410.803	7.5
411.586	3.5
412.368	5.5
413.151	3.5
413.933	3.5
414.715	5.5
415.497	5.5
416.279	4.5
417.061	5.5
417.843	5.5
418.624	6.5
419.406	2.5
420.188	5.5
420.969	4.5
421.751	9.5
422.532	7.5
423.313	7.5
424.095	6.5
424.876	4.5
425.657	5.5
426.438	6.5
427.219	7.5
428	6.5
428.78	7.5
429.561	6.5
430.342	6.5
431.122	7.5
431.903	9.5
432.683	6.5
433.464	7.5
434.244	9.5
435.024	8.5
435.804	9.5
436.584	12.5
437.364	12.5
438.144	11.5
438.924	10.5
439.704	13.5
440.483	11.5
441.263	8.5
442.042	14.5
442.822	12.5
443.601	14.5
444.38	15.5
445.16	16.5
445.939	17.5
446.718	13.5
447.497	17.5
448.276	21.5
449.054	22.5
449.833	25.5
450.612	22.5
451.391	28.5
452.169	30.5
452.948	31.5
453.726	35.5
454.504	37.5
455.282	42.5
456.061	44.5
456.839	50.5
457.617	55.5
458.395	60.5
459.172	67.5
459.95	77.5
460.728	84.5
461.506	89.5
462.283	104.5
463.061	107.5
463.838	125.5
464.615	138.5
465.393	161.5
466.17	173.5
466.947	192.5
467.724	217.5
468.501	247.5
469.278	273.5
470.055	292.5
470.831	332.5
471.608	368.5
472.385	422.5
473.161	456.5
473.938	513.5
474.714	563.5
475.49	626.5
476.266	694.5
477.043	767.5
477.819	846.5
478.595	939.5
479.371	1027.5
480.146	1138.5
480.922	1265.5
481.698	1395.5
482.473	1554.5
483.249	1690.5
484.024	1864.5
484.8	2070.5
485.575	2294.5
486.35	2522.5
487.126	2758.5
487.901	3044.5
488.676	3372.5
489.451	3686.5
490.225	4049.5
491	4453.5
491.775	4897.5
492.55	5384.5
493.324	5903.5
494.099	6410.5
494.873	7007.5
495.647	7645.5
496.422	8304.5
497.196	8989.5
497.97	9696.5
498.744	10396.5
499.518	11194.5
500.292	11913.5
501.066	12657.5
501.839	13350.5
502.613	14014.5
503.387	14621.5
504.16	15236.5
504.934	15602.5
505.707	15970.5
506.48	16271.5
507.253	16406.5
508.027	16546.5
508.8	16459.5
509.573	16276.5
510.346	16053.5
511.118	15739.5
511.891	15331.5
512.664	14881.5
513.437	14330.5
514.209	13780.5
514.982	13248.5
515.754	12746.5
516.526	12193.5
517.298	11638.5
518.071	11116.5
518.843	10630.5
519.615	10172.5
520.387	9726.5
521.159	9375.5
521.93	9014.5
522.702	8640.5
523.474	8303.5
524.245	7976.5
525.017	7603.5
525.788	7336.5
526.56	7066.5
527.331	6729.5
528.102	6460.5
528.873	6173.5
529.644	5908.5
530.415	5615.5
531.186	5361.5
531.957	5092.5
532.728	4839.5
533.498	4574.5
534.269	4311.5
535.039	4096.5
535.81	3874.5
536.58	3641.5
537.351	3453.5
538.121	3272.5
538.891	3091.5
539.661	2889.5
540.431	2734.5
541.201	2605.5
541.971	2470.5
542.741	2320.5
543.51	2211.5
544.28	2098.5
545.05	1989.5
545.819	1905.5
546.588	1805.5
547.358	1700.5
548.127	1625.5
548.896	1556.5
549.665	1454.5
550.434	1390.5
551.203	1324.5
551.972	1257.5
552.741	1184.5
553.51	1126.5
554.278	1055.5
555.047	997.5
555.815	945.5
556.584	892.5
557.352	837.5
558.121	793.5
558.889	751.5
559.657	704.5
560.425	666.5
561.193	614.5
561.961	593.5
562.729	558.5
563.496	521.5
564.264	494.5
565.032	464.5
565.799	443.5
566.567	424.5
567.334	398.5
568.101	381.5
568.869	357.5
569.636	330.5
570.403	315.5
571.17	290.5
571.937	281.5
572.704	262.5
573.471	252.5
574.237	236.5
575.004	218.5
575.771	203.5
576.537	193.5
577.303	180.5
578.07	176.5
578.836	159.5
579.602	154.5
580.368	144.5
581.134	140.5
581.9	129.5
582.666	127.5
583.432	118.5
584.198	111.5
584.964	109.5
585.729	99.5
586.495	92.5
587.26	93.5
588.025	82.5
588.791	77.5
589.556	73.5
590.321	69.5
591.086	63.5
591.851	61.5
592.616	60.5
593.381	55.5
594.146	49.5
594.911	53.5
595.675	49.5
596.44	46.5
597.204	44.5
597.969	45.5
598.733	40.5
599.497	36.5
600.261	34.5
601.025	36.5
601.79	34.5
602.553	30.5
603.317	29.5
604.081	29.5
604.845	28.5
605.609	26.5
606.372	28.5
607.136	25.5
607.899	25.5
608.662	22.5
609.426	20.5
610.189	23.5
610.952	18.5
611.715	18.5
612.478	19.5
613.241	19.5
614.004	17.5
614.767	15.5
615.529	17.5
616.292	14.5
617.055	16.5
617.817	14.5
618.579	12.5
619.342	14.5
620.104	14.5
620.866	11.5
621.628	12.5
622.39	11.5
623.152	10.5
623.914	10.5
624.676	9.5
625.438	11.5
626.199	9.5
626.961	9.5
627.722	10.5
628.484	10.5
629.245	6.5
630.006	7.5
630.768	6.5
631.529	8.5
632.29	8.5
633.051	6.5
633.812	9.5
634.573	9.5
635.333	7.5
636.094	6.5
636.855	8.5
637.615	9.5
638.376	5.5
639.136	7.5
639.896	4.5
640.657	7.5
641.417	4.5
642.177	3.5
642.937	5.5
643.697	5.5
644.457	5.5
645.216	3.5
645.976	5.5
646.736	2.5
647.495	5.5
648.255	4.5
649.014	5.5
649.774	6.5
650.533	3.5
651.292	4.5
652.051	2.5
652.81	3.5
653.569	4.5
654.328	4.5
655.087	4.5
655.846	3.5
656.604	2.5
657.363	2.5
658.121	4.5
658.88	2.5
659.638	3.5
660.397	7.5
661.155	2.5
661.913	3.5
662.671	4.5
663.429	1.5
664.187	4.5
664.945	2.5
665.703	2.5
666.46	4.5
667.218	1.5
667.976	4.5
668.733	2.5
669.49	3.5
670.248	2.5
671.005	2.5
671.762	2.5
672.519	0.5
673.276	2.5
674.033	2.5
674.79	2.5
675.547	1.5
676.304	5.5
677.06	2.5
677.817	4.5
678.574	2.5
679.33	1.5
680.086	4.5
680.843	1.5
681.599	3.5
682.355	3.5
683.111	2.5
683.867	4.5
684.623	2.5
685.379	1.5
686.135	2.5
686.89	2.5
687.646	2.5
688.402	2.5
689.157	2.5
689.912	2.5
690.668	4.5
691.423	3.5
692.178	3.5
692.933	3.5
693.688	2.5
694.443	2.5
695.198	0.5
695.953	3.5
696.708	2.5
697.462	1.5
698.217	0.5
698.972	3.5
699.726	4.5
700.48	1.5
701.235	1.5
701.989	2.5
702.743	2.5
703.497	2.5
704.251	1.5
705.005	1.5
705.759	2.5
706.513	3.5
707.266	1.5
708.02	1.5
708.774	2.5
709.527	1.5
710.28	3.5
711.034	2.5
711.787	1.5
712.54	1.5
713.293	1.5
714.046	1.5
714.799	2.5
715.552	2.5
716.305	3.5
717.058	0.5
717.81	1.5
718.563	2.5
719.315	3.5
720.068	1.5
720.82	5.5
721.573	3.5
722.325	2.5
723.077	2.5
723.829	0.5
724.581	2.5
725.333	0.5
726.085	2.5
726.836	2.5
727.588	3.5
728.34	2.5
729.091	1.5
729.843	2.5
730.594	2.5
731.346	4.5
732.097	4.5
732.848	2.5
733.599	1.5
734.35	1.5
735.101	2.5
735.852	0.5
736.603	0.5
737.354	2.5
738.104	1.5
738.855	3.5
739.605	3.5
740.356	2.5
741.106	1.5
741.856	5.5
742.607	2.5
743.357	2.5
744.107	3.5
744.857	1.5
745.607	2.5
746.357	2.5
747.106	2.5
747.856	2.5
748.606	5.5
749.355	3.5
750.105	2.5
750.854	2.5
751.603	2.5
752.353	1.5
753.102	2.5
753.851	4.5
754.6	2.5
755.349	2.5
756.098	3.5
756.847	5.5
757.595	4.5
758.344	3.5
759.093	3.5
759.841	2.5
760.589	2.5
761.338	4.5
762.086	3.5
762.834	4.5
763.582	2.5
764.331	4.5
765.079	6.5
765.826	2.5
766.574	5.5
767.322	3.5
768.07	3.5
768.817	5.5
769.565	1.5
770.312	5.5
771.06	3.5
771.807	5.5
772.554	3.5
773.302	4.5
774.049	4.5
774.796	2.5
775.543	3.5
776.29	2.5
777.036	4.5
777.783	5.5
778.53	5.5
779.276	1.5
780.023	5.5
780.769	7.5
781.516	4.5
782.262	6.5
783.008	3.5
783.754	5.5
784.5	5.5
785.246	5.5
785.992	2.5
786.738	3.5
787.484	5.5
788.23	7.5
788.975	7.5
789.721	4.5
790.466	5.5
791.212	4.5
791.957	3.5
792.702	7.5
793.447	4.5
794.193	5.5
794.938	5.5
795.683	6.5
796.427	5.5
797.172	4.5
797.917	5.5
798.662	5.5
799.406	5.5
800.151	6.5
800.895	5.5
801.64	7.5
802.384	3.5
803.128	7.5
803.872	3.5
804.616	2.5
805.36	6.5
806.104	2.5
806.848	6.5
807.592	4.5
808.336	5.5
809.079	5.5
809.823	2.5
810.566	5.5
811.31	2.5
812.053	6.5
812.796	2.5
813.539	5.5
814.283	1.5
815.026	1.5
815.769	3.5
816.511	3.5
817.254	2.5
817.997	3.5
818.74	3.5
819.482	2.5
820.225	0.5
820.967	3.5
821.71	2.5
822.452	5.5
823.194	1.5
823.936	3.5
824.678	5.5
825.42	3.5
826.162	3.5
826.904	2.5
827.646	3.5
828.388	3.5
829.129	2.5
829.871	1.5
830.612	0.5
831.354	2.5
832.095	2.5
832.836	3.5
833.577	-1.5
834.319	1.5
835.06	3.5
835.801	1.5
836.542	4.5
837.282	1.5
838.023	3.5
838.764	2.5
839.504	6.5
840.245	3.5
840.985	3.5
841.726	0.5
842.466	2.5
843.206	2.5
843.946	5.5
844.687	1.5
845.427	-0.5
846.166	2.5
846.906	2.5
847.646	-0.5
848.386	4.5
849.125	1.5
849.865	1.5
850.605	1.5
851.344	2.5
852.083	2.5
852.823	0.5
853.562	2.5
854.301	1.5
855.04	2.5
855.779	0.5
856.518	2.5
857.257	1.5
857.995	-1.5
858.734	2.5
859.473	2.5
860.211	0.5
860.95	1.5
861.688	4.5
862.426	1.5
863.165	0.5
863.903	2.5
864.641	2.5
865.379	1.5
866.117	1.5
866.855	-0.5
867.593	2.5
868.33	-1.5
869.068	-0.5
869.806	2.5
870.543	-1.5
871.28	1.5
872.018	1.5
872.755	1.5
873.492	-0.5
874.229	1.5
874.967	1.5
875.703	1.5
876.44	1.5
877.177	2.5
877.914	0.5
878.651	1.5
879.387	-0.5
880.124	1.5
880.86	1.5
881.597	2.5
882.333	0.5
883.069	0.5
883.806	0.5
884.542	2.5
885.278	0.5
886.014	0.5
886.749	1.5
887.485	0.5
888.221	1.5
888.957	0.5
889.692	0.5
890.428	1.5
891.163	0.5
891.899	1.5
892.634	1.5
893.369	-1.5
894.104	-1.5
894.839	2.5
895.574	0.5
896.309	1.5
897.044	2.5
897.779	1.5
898.514	3.5
899.248	1.5
899.983	1.5
900.717	-1.5
901.452	1.5
902.186	3.5
902.92	0.5
903.654	2.5
904.389	-0.5
905.123	0.5
905.857	-0.5
906.59	-0.5
907.324	0.5
908.058	1.5
908.792	1.5
909.525	1.5
910.259	-2.5
910.992	-1.5
911.726	0.5
912.459	0.5
913.192	-1.5
913.925	2.5
914.658	0.5
915.391	0.5
916.124	0.5
916.857	-0.5
917.59	1.5
918.323	-1.5
919.055	1.5
919.788	1.5
920.521	0.5
921.253	2.5
921.985	-1.5
922.718	1.5
923.45	-1.5
924.182	1.5
924.914	-0.5
925.646	0.5
926.378	1.5
927.11	-1.5
927.841	-1.5
928.573	-1.5
929.305	-0.5
930.036	3.5
930.768	-1.5
931.499	-1.5
932.23	-1.5
932.962	-0.5
933.693	0.5
934.424	2.5
935.155	0.5
935.886	0.5
936.617	1.5
937.348	-1.5
938.078	-1.5
938.809	-0.5
939.54	1.5
940.27	1.5
941.001	3.5
941.731	-1.5
942.461	1.5
943.191	1.5
943.922	1.5
944.652	0.5
945.382	0.5
946.112	-1.5
946.841	1.5
947.571	1.5
948.301	2.5
949.031	0.5
949.76	-2.5
950.49	-0.5
951.219	-1.5
951.948	1.5
952.678	-1.5
953.407	0.5
954.136	1.5
954.865	1.5
955.594	-0.5
956.323	0.5
957.052	-0.5
957.78	-1.5
958.509	-0.5
959.238	2.5
959.966	0.5
960.695	1.5
961.423	-0.5
962.151	-1.5
962.88	-0.5
963.608	0.5
964.336	-0.5
965.064	-2.5
965.792	1.5
966.52	-0.5
967.247	1.5
967.975	0.5
968.703	1.5
969.43	1.5
970.158	0.5
970.885	0.5
971.613	-0.5
972.34	1.5
973.067	-1.5
973.794	0.5
974.521	-1.5
975.248	-1.5
975.975	1.5
976.702	0.5
977.429	4.5
978.156	2.5
978.882	0.5
979.609	2.5
980.335	-0.5
981.062	-0.5
981.788	0.5
982.514	0.5
983.24	0.5
983.967	1.5
984.693	-0.5
985.419	0.5
986.144	0.5
986.87	1.5
987.596	1.5
988.322	0.5
989.047	1.5
989.773	0.5
990.498	0.5
991.224	2.5
991.949	-0.5
992.674	1.5
993.399	-1.5
994.124	1.5
994.849	-0.5
995.574	-0.5
996.299	2.5
997.024	-1.5
997.749	0.5
998.473	2.5
999.198	-0.5
999.922	0.5
1000.647	1.5
1001.371	2.5
1002.095	-1.5
1002.82	-2.5
1003.544	0.5
1004.268	-1.5
1004.992	-0.5
1005.716	-1.5
1006.439	1.5
1007.163	0.5
1007.887	1.5
1008.611	1.5
1009.334	0.5
1010.058	4.5
1010.781	-2.5
1011.504	-0.5
1012.228	0.5
1012.951	0.5
1013.674	1.5
1014.397	0.5
1015.12	-1.5
