节点500_145_QEPB04081__389__11-35-10-577.txt的数据

Date: Wed Nov 12 11:35:10 CST 2025
User: PC
Spectrometer: QEPB0408
触发模式: 0
积分时间 (秒): 1.000000E-2
Scans to average: 1
启用暗噪声校正: true
启用非线性校正: false
滑动平均宽度: 0
X轴模式: Wavelengths
Number of Pixels in Spectrum: 1044
>>>>>Begin Spectral Data<<<<<
220.843	-0.62
221.644	0.38
222.444	-0.62
223.244	-0.62
224.045	0.38
224.845	-2.62
225.645	0.38
226.445	-0.62
227.245	1.38
228.045	1.38
228.845	0.38
229.645	-0.62
230.444	-0.62
231.244	0.38
232.043	0.38
232.843	2.38
233.642	-0.62
234.442	1.38
235.241	2.38
236.04	0.38
236.839	3.38
237.638	2.38
238.437	0.38
239.236	1.38
240.035	-0.62
240.833	2.38
241.632	1.38
242.43	1.38
243.229	-0.62
244.027	2.38
244.826	2.38
245.624	1.38
246.422	2.38
247.22	1.38
248.018	3.38
248.816	1.38
249.614	5.38
250.412	1.38
251.21	3.38
252.007	4.38
252.805	2.38
253.602	3.38
254.4	1.38
255.197	5.38
255.994	3.38
256.791	3.38
257.589	5.38
258.386	2.38
259.183	4.38
259.979	4.38
260.776	5.38
261.573	5.38
262.37	2.38
263.166	5.38
263.963	4.38
264.759	6.38
265.556	5.38
266.352	5.38
267.148	8.38
267.944	5.38
268.74	4.38
269.536	5.38
270.332	9.38
271.128	6.38
271.924	7.38
272.719	7.38
273.515	7.38
274.311	8.38
275.106	6.38
275.901	9.38
276.697	7.38
277.492	7.38
278.287	12.38
279.082	7.38
279.877	10.38
280.672	10.38
281.467	10.38
282.262	10.38
283.056	10.38
283.851	10.38
284.646	8.38
285.44	12.38
286.234	11.38
287.029	12.38
287.823	10.38
288.617	9.38
289.411	11.38
290.205	10.38
290.999	12.38
291.793	11.38
292.587	9.38
293.381	9.38
294.174	8.38
294.968	13.38
295.761	9.38
296.555	11.38
297.348	10.38
298.141	8.38
298.935	11.38
299.728	9.38
300.521	10.38
301.314	10.38
302.107	10.38
302.899	10.38
303.692	7.38
304.485	10.38
305.277	7.38
306.07	8.38
306.862	7.38
307.655	9.38
308.447	7.38
309.239	9.38
310.031	9.38
310.823	6.38
311.615	7.38
312.407	4.38
313.199	6.38
313.991	5.38
314.783	5.38
315.574	6.38
316.366	5.38
317.157	8.38
317.949	3.38
318.74	5.38
319.531	7.38
320.322	4.38
321.113	5.38
321.904	5.38
322.695	5.38
323.486	3.38
324.277	5.38
325.068	4.38
325.858	4.38
326.649	5.38
327.439	1.38
328.23	4.38
329.02	5.38
329.81	5.38
330.6	5.38
331.391	4.38
332.181	4.38
332.971	2.38
333.76	2.38
334.55	3.38
335.34	2.38
336.13	3.38
336.919	3.38
337.709	3.38
338.498	3.38
339.287	3.38
340.077	3.38
340.866	3.38
341.655	3.38
342.444	1.38
343.233	3.38
344.022	3.38
344.811	3.38
345.6	4.38
346.388	4.38
347.177	3.38
347.965	2.38
348.754	5.38
349.542	1.38
350.33	4.38
351.119	2.38
351.907	2.38
352.695	5.38
353.483	1.38
354.271	3.38
355.059	3.38
355.846	6.38
356.634	3.38
357.422	3.38
358.209	3.38
358.997	3.38
359.784	2.38
360.571	2.38
361.359	4.38
362.146	3.38
362.933	2.38
363.72	2.38
364.507	2.38
365.294	3.38
366.081	2.38
366.867	5.38
367.654	2.38
368.44	3.38
369.227	1.38
370.013	3.38
370.8	4.38
371.586	2.38
372.372	3.38
373.158	0.38
373.944	1.38
374.73	3.38
375.516	2.38
376.302	4.38
377.088	2.38
377.873	4.38
378.659	1.38
379.445	4.38
380.23	1.38
381.015	2.38
381.801	3.38
382.586	3.38
383.371	3.38
384.156	2.38
384.941	3.38
385.726	2.38
386.511	1.38
387.296	3.38
388.08	1.38
388.865	4.38
389.649	1.38
390.434	4.38
391.218	3.38
392.003	5.38
392.787	3.38
393.571	3.38
394.355	2.38
395.139	4.38
395.923	1.38
396.707	3.38
397.491	2.38
398.274	2.38
399.058	4.38
399.842	2.38
400.625	1.38
401.408	3.38
402.192	2.38
402.975	4.38
403.758	3.38
404.541	5.38
405.324	2.38
406.107	2.38
406.89	4.38
407.673	3.38
408.456	3.38
409.238	4.38
410.021	6.38
410.803	7.38
411.586	3.38
412.368	2.38
413.151	5.38
413.933	3.38
414.715	4.38
415.497	6.38
416.279	5.38
417.061	4.38
417.843	4.38
418.624	4.38
419.406	5.38
420.188	3.38
420.969	3.38
421.751	6.38
422.532	6.38
423.313	5.38
424.095	5.38
424.876	7.38
425.657	9.38
426.438	6.38
427.219	7.38
428	6.38
428.78	7.38
429.561	7.38
430.342	4.38
431.122	9.38
431.903	6.38
432.683	10.38
433.464	9.38
434.244	10.38
435.024	9.38
435.804	9.38
436.584	9.38
437.364	8.38
438.144	11.38
438.924	9.38
439.704	9.38
440.483	11.38
441.263	13.38
442.042	14.38
442.822	12.38
443.601	13.38
444.38	14.38
445.16	17.38
445.939	19.38
446.718	17.38
447.497	20.38
448.276	20.38
449.054	24.38
449.833	23.38
450.612	26.38
451.391	27.38
452.169	28.38
452.948	33.38
453.726	36.38
454.504	38.38
455.282	43.38
456.061	47.38
456.839	51.38
457.617	55.38
458.395	64.38
459.172	70.38
459.95	78.38
460.728	88.38
461.506	95.38
462.283	103.38
463.061	115.38
463.838	128.38
464.615	146.38
465.393	161.38
466.17	180.38
466.947	201.38
467.724	221.38
468.501	256.38
469.278	281.38
470.055	310.38
470.831	344.38
471.608	385.38
472.385	423.38
473.161	475.38
473.938	511.38
474.714	572.38
475.49	647.38
476.266	715.38
477.043	780.38
477.819	866.38
478.595	955.38
479.371	1057.38
480.146	1155.38
480.922	1279.38
481.698	1406.38
482.473	1548.38
483.249	1711.38
484.024	1865.38
484.8	2077.38
485.575	2259.38
486.35	2492.38
487.126	2757.38
487.901	3006.38
488.676	3327.38
489.451	3628.38
490.225	3989.38
491	4384.38
491.775	4778.38
492.55	5242.38
493.324	5724.38
494.099	6248.38
494.873	6820.38
495.647	7405.38
496.422	8038.38
497.196	8695.38
497.97	9380.38
498.744	10027.38
499.518	10850.38
500.292	11495.38
501.066	12198.38
501.839	12908.38
502.613	13561.38
503.387	14166.38
504.16	14737.38
504.934	15189.38
505.707	15564.38
506.48	15928.38
507.253	16093.38
508.027	16215.38
508.8	16207.38
509.573	16084.38
510.346	15910.38
511.118	15625.38
511.891	15256.38
512.664	14777.38
513.437	14383.38
514.209	13866.38
514.982	13299.38
515.754	12767.38
516.526	12243.38
517.298	11781.38
518.071	11230.38
518.843	10742.38
519.615	10306.38
520.387	9897.38
521.159	9512.38
521.93	9118.38
522.702	8737.38
523.474	8390.38
524.245	8076.38
525.017	7724.38
525.788	7464.38
526.56	7132.38
527.331	6846.38
528.102	6549.38
528.873	6267.38
529.644	5986.38
530.415	5726.38
531.186	5473.38
531.957	5183.38
532.728	4928.38
533.498	4656.38
534.269	4410.38
535.039	4168.38
535.81	3970.38
536.58	3734.38
537.351	3544.38
538.121	3345.38
538.891	3156.38
539.661	2977.38
540.431	2813.38
541.201	2660.38
541.971	2529.38
542.741	2390.38
543.51	2270.38
544.28	2163.38
545.05	2030.38
545.819	1951.38
546.588	1848.38
547.358	1751.38
548.127	1684.38
548.896	1579.38
549.665	1501.38
550.434	1430.38
551.203	1365.38
551.972	1263.38
552.741	1223.38
553.51	1164.38
554.278	1103.38
555.047	1029.38
555.815	973.38
556.584	921.38
557.352	871.38
558.121	815.38
558.889	779.38
559.657	724.38
560.425	683.38
561.193	644.38
561.961	621.38
562.729	578.38
563.496	540.38
564.264	505.38
565.032	488.38
565.799	458.38
566.567	425.38
567.334	402.38
568.101	391.38
568.869	363.38
569.636	348.38
570.403	322.38
571.17	300.38
571.937	291.38
572.704	266.38
573.471	254.38
574.237	236.38
575.004	228.38
575.771	213.38
576.537	206.38
577.303	187.38
578.07	183.38
578.836	167.38
579.602	164.38
580.368	150.38
581.134	140.38
581.9	136.38
582.666	126.38
583.432	119.38
584.198	118.38
584.964	111.38
585.729	102.38
586.495	96.38
587.26	90.38
588.025	85.38
588.791	83.38
589.556	72.38
590.321	73.38
591.086	68.38
591.851	64.38
592.616	59.38
593.381	57.38
594.146	52.38
594.911	54.38
595.675	52.38
596.44	49.38
597.204	43.38
597.969	46.38
598.733	42.38
599.497	35.38
600.261	36.38
601.025	33.38
601.79	35.38
602.553	36.38
603.317	29.38
604.081	29.38
604.845	28.38
605.609	28.38
606.372	26.38
607.136	27.38
607.899	23.38
608.662	23.38
609.426	22.38
610.189	19.38
610.952	21.38
611.715	19.38
612.478	19.38
613.241	16.38
614.004	18.38
614.767	16.38
615.529	13.38
616.292	15.38
617.055	14.38
617.817	14.38
618.579	17.38
619.342	13.38
620.104	13.38
620.866	14.38
621.628	14.38
622.39	9.38
623.152	11.38
623.914	11.38
624.676	13.38
625.438	10.38
626.199	9.38
626.961	10.38
627.722	9.38
628.484	9.38
629.245	6.38
630.006	8.38
630.768	9.38
631.529	5.38
632.29	6.38
633.051	7.38
633.812	8.38
634.573	7.38
635.333	7.38
636.094	9.38
636.855	6.38
637.615	5.38
638.376	5.38
639.136	6.38
639.896	3.38
640.657	5.38
641.417	4.38
642.177	4.38
642.937	7.38
643.697	4.38
644.457	5.38
645.216	5.38
645.976	6.38
646.736	4.38
647.495	3.38
648.255	6.38
649.014	2.38
649.774	4.38
650.533	4.38
651.292	4.38
652.051	5.38
652.81	2.38
653.569	5.38
654.328	2.38
655.087	3.38
655.846	3.38
656.604	3.38
657.363	4.38
658.121	4.38
658.88	2.38
659.638	2.38
660.397	3.38
661.155	4.38
661.913	4.38
662.671	2.38
663.429	2.38
664.187	1.38
664.945	3.38
665.703	2.38
666.46	3.38
667.218	1.38
667.976	3.38
668.733	3.38
669.49	4.38
670.248	3.38
671.005	3.38
671.762	0.38
672.519	3.38
673.276	2.38
674.033	3.38
674.79	3.38
675.547	2.38
676.304	2.38
677.06	2.38
677.817	-0.62
678.574	2.38
679.33	1.38
680.086	4.38
680.843	1.38
681.599	2.38
682.355	1.38
683.111	3.38
683.867	0.38
684.623	2.38
685.379	1.38
686.135	1.38
686.89	3.38
687.646	1.38
688.402	3.38
689.157	5.38
689.912	2.38
690.668	0.38
691.423	3.38
692.178	5.38
692.933	3.38
693.688	3.38
694.443	3.38
695.198	0.38
695.953	3.38
696.708	0.38
697.462	-0.62
698.217	3.38
698.972	0.38
699.726	2.38
700.48	1.38
701.235	2.38
701.989	1.38
702.743	3.38
703.497	2.38
704.251	0.38
705.005	2.38
705.759	0.38
706.513	1.38
707.266	1.38
708.02	2.38
708.774	1.38
709.527	2.38
710.28	2.38
711.034	0.38
711.787	3.38
712.54	1.38
713.293	2.38
714.046	2.38
714.799	2.38
715.552	2.38
716.305	0.38
717.058	-0.62
717.81	0.38
718.563	3.38
719.315	-0.62
720.068	2.38
720.82	3.38
721.573	0.38
722.325	1.38
723.077	2.38
723.829	3.38
724.581	0.38
725.333	1.38
726.085	3.38
726.836	2.38
727.588	1.38
728.34	0.38
729.091	2.38
729.843	4.38
730.594	1.38
731.346	4.38
732.097	1.38
732.848	5.38
733.599	1.38
734.35	4.38
735.101	3.38
735.852	0.38
736.603	4.38
737.354	0.38
738.104	0.38
738.855	1.38
739.605	3.38
740.356	2.38
741.106	3.38
741.856	0.38
742.607	1.38
743.357	1.38
744.107	0.38
744.857	3.38
745.607	1.38
746.357	4.38
747.106	4.38
747.856	5.38
748.606	4.38
749.355	2.38
750.105	2.38
750.854	3.38
751.603	0.38
752.353	5.38
753.102	3.38
753.851	2.38
754.6	3.38
755.349	4.38
756.098	1.38
756.847	4.38
757.595	3.38
758.344	3.38
759.093	2.38
759.841	3.38
760.589	1.38
761.338	4.38
762.086	0.38
762.834	4.38
763.582	3.38
764.331	3.38
765.079	3.38
765.826	5.38
766.574	3.38
767.322	4.38
768.07	4.38
768.817	3.38
769.565	2.38
770.312	3.38
771.06	3.38
771.807	5.38
772.554	2.38
773.302	6.38
774.049	3.38
774.796	5.38
775.543	2.38
776.29	4.38
777.036	3.38
777.783	6.38
778.53	3.38
779.276	4.38
780.023	2.38
780.769	4.38
781.516	5.38
782.262	6.38
783.008	2.38
783.754	3.38
784.5	4.38
785.246	4.38
785.992	4.38
786.738	4.38
787.484	6.38
788.23	6.38
788.975	4.38
789.721	5.38
790.466	2.38
791.212	5.38
791.957	5.38
792.702	5.38
793.447	3.38
794.193	5.38
794.938	3.38
795.683	3.38
796.427	4.38
797.172	3.38
797.917	4.38
798.662	3.38
799.406	5.38
800.151	4.38
800.895	5.38
801.64	3.38
802.384	3.38
803.128	5.38
803.872	3.38
804.616	3.38
805.36	4.38
806.104	6.38
806.848	2.38
807.592	3.38
808.336	2.38
809.079	3.38
809.823	4.38
810.566	2.38
811.31	2.38
812.053	2.38
812.796	2.38
813.539	3.38
814.283	5.38
815.026	5.38
815.769	6.38
816.511	3.38
817.254	3.38
817.997	1.38
818.74	5.38
819.482	2.38
820.225	3.38
820.967	2.38
821.71	3.38
822.452	5.38
823.194	4.38
823.936	3.38
824.678	3.38
825.42	5.38
826.162	2.38
826.904	2.38
827.646	4.38
828.388	3.38
829.129	2.38
829.871	2.38
830.612	4.38
831.354	2.38
832.095	1.38
832.836	4.38
833.577	1.38
834.319	2.38
835.06	3.38
835.801	4.38
836.542	1.38
837.282	2.38
838.023	4.38
838.764	2.38
839.504	5.38
840.245	3.38
840.985	3.38
841.726	1.38
842.466	3.38
843.206	4.38
843.946	2.38
844.687	1.38
845.427	2.38
846.166	2.38
846.906	2.38
847.646	0.38
848.386	2.38
849.125	1.38
849.865	2.38
850.605	2.38
851.344	2.38
852.083	3.38
852.823	2.38
853.562	3.38
854.301	2.38
855.04	2.38
855.779	2.38
856.518	0.38
857.257	-1.62
857.995	1.38
858.734	4.38
859.473	2.38
860.211	1.38
860.95	-0.62
861.688	1.38
862.426	-1.62
863.165	0.38
863.903	1.38
864.641	1.38
865.379	-0.62
866.117	0.38
866.855	0.38
867.593	0.38
868.33	0.38
869.068	2.38
869.806	0.38
870.543	1.38
871.28	1.38
872.018	-0.62
872.755	0.38
873.492	-0.62
874.229	2.38
874.967	2.38
875.703	2.38
876.44	-1.62
877.177	1.38
877.914	-0.62
878.651	-1.62
879.387	0.38
880.124	1.38
880.86	1.38
881.597	2.38
882.333	-1.62
883.069	1.38
883.806	0.38
884.542	0.38
885.278	1.38
886.014	-0.62
886.749	0.38
887.485	0.38
888.221	1.38
888.957	0.38
889.692	1.38
890.428	-0.62
891.163	-0.62
891.899	-0.62
892.634	2.38
893.369	1.38
894.104	1.38
894.839	0.38
895.574	-1.62
896.309	0.38
897.044	0.38
897.779	-0.62
898.514	0.38
899.248	0.38
899.983	1.38
900.717	2.38
901.452	2.38
902.186	2.38
902.92	1.38
903.654	1.38
904.389	3.38
905.123	1.38
905.857	1.38
906.59	-1.62
907.324	1.38
908.058	1.38
908.792	0.38
909.525	1.38
910.259	1.38
910.992	0.38
911.726	1.38
912.459	0.38
913.192	0.38
913.925	0.38
914.658	-2.62
915.391	0.38
916.124	0.38
916.857	-0.62
917.59	0.38
918.323	0.38
919.055	0.38
919.788	0.38
920.521	2.38
921.253	1.38
921.985	-1.62
922.718	0.38
923.45	-0.62
924.182	0.38
924.914	-1.62
925.646	1.38
926.378	0.38
927.11	-1.62
927.841	0.38
928.573	-1.62
929.305	0.38
930.036	-1.62
930.768	-0.62
931.499	-1.62
932.23	-1.62
932.962	0.38
933.693	1.38
934.424	0.38
935.155	-0.62
935.886	2.38
936.617	1.38
937.348	1.38
938.078	2.38
938.809	2.38
939.54	1.38
940.27	2.38
941.001	-0.62
941.731	1.38
942.461	-0.62
943.191	-0.62
943.922	-1.62
944.652	2.38
945.382	-0.62
946.112	0.38
946.841	0.38
947.571	0.38
948.301	3.38
949.031	0.38
949.76	1.38
950.49	0.38
951.219	1.38
951.948	1.38
952.678	0.38
953.407	1.38
954.136	-1.62
954.865	0.38
955.594	0.38
956.323	2.38
957.052	-0.62
957.78	0.38
958.509	0.38
959.238	-0.62
959.966	0.38
960.695	1.38
961.423	0.38
962.151	0.38
962.88	-0.62
963.608	1.38
964.336	-1.62
965.064	1.38
965.792	0.38
966.52	-2.62
967.247	1.38
967.975	0.38
968.703	0.38
969.43	1.38
970.158	0.38
970.885	-0.62
971.613	0.38
972.34	0.38
973.067	-1.62
973.794	1.38
974.521	0.38
975.248	1.38
975.975	-0.62
976.702	0.38
977.429	0.38
978.156	0.38
978.882	-0.62
979.609	-1.62
980.335	0.38
981.062	1.38
981.788	0.38
982.514	2.38
983.24	-1.62
983.967	-0.62
984.693	0.38
985.419	0.38
986.144	-0.62
986.87	-0.62
987.596	-1.62
988.322	-1.62
989.047	0.38
989.773	0.38
990.498	0.38
991.224	1.38
991.949	1.38
992.674	-1.62
993.399	-2.62
994.124	2.38
994.849	-0.62
995.574	2.38
996.299	1.38
997.024	2.38
997.749	0.38
998.473	2.38
999.198	2.38
999.922	0.38
1000.647	-0.62
1001.371	4.38
1002.095	-1.62
1002.82	-0.62
1003.544	-2.62
1004.268	1.38
1004.992	0.38
1005.716	-0.62
1006.439	0.38
1007.163	1.38
1007.887	1.38
1008.611	0.38
1009.334	0.38
1010.058	0.38
1010.781	1.38
1011.504	0.38
1012.228	1.38
1012.951	2.38
1013.674	-1.62
1014.397	-0.62
1015.12	0.38
