节点500_145_QEPB04081__593__11-38-22-378.txt的数据

Date: Wed Nov 12 11:38:22 CST 2025
User: PC
Spectrometer: QEPB0408
触发模式: 0
积分时间 (秒): 1.000000E-2
Scans to average: 1
启用暗噪声校正: true
启用非线性校正: false
滑动平均宽度: 0
X轴模式: Wavelengths
Number of Pixels in Spectrum: 1044
>>>>>Begin Spectral Data<<<<<
220.843	-0.5
221.644	-0.5
222.444	-0.5
223.244	-0.5
224.045	1.5
224.845	1.5
225.645	-2.5
226.445	0.5
227.245	0.5
228.045	1.5
228.845	1.5
229.645	0.5
230.444	-0.5
231.244	0.5
232.043	-0.5
232.843	-0.5
233.642	0.5
234.442	1.5
235.241	0.5
236.04	1.5
236.839	0.5
237.638	1.5
238.437	3.5
239.236	0.5
240.035	2.5
240.833	1.5
241.632	-1.5
242.43	2.5
243.229	-1.5
244.027	2.5
244.826	2.5
245.624	1.5
246.422	0.5
247.22	-0.5
248.018	1.5
248.816	1.5
249.614	3.5
250.412	2.5
251.21	2.5
252.007	-1.5
252.805	1.5
253.602	2.5
254.4	-0.5
255.197	1.5
255.994	3.5
256.791	1.5
257.589	2.5
258.386	5.5
259.183	1.5
259.979	4.5
260.776	5.5
261.573	2.5
262.37	5.5
263.166	4.5
263.963	0.5
264.759	4.5
265.556	4.5
266.352	6.5
267.148	4.5
267.944	5.5
268.74	5.5
269.536	5.5
270.332	7.5
271.128	7.5
271.924	5.5
272.719	6.5
273.515	4.5
274.311	6.5
275.106	6.5
275.901	10.5
276.697	5.5
277.492	7.5
278.287	7.5
279.082	9.5
279.877	8.5
280.672	9.5
281.467	8.5
282.262	6.5
283.056	10.5
283.851	8.5
284.646	9.5
285.44	7.5
286.234	9.5
287.029	8.5
287.823	10.5
288.617	7.5
289.411	9.5
290.205	8.5
290.999	10.5
291.793	8.5
292.587	9.5
293.381	8.5
294.174	7.5
294.968	10.5
295.761	9.5
296.555	9.5
297.348	8.5
298.141	10.5
298.935	10.5
299.728	9.5
300.521	7.5
301.314	7.5
302.107	9.5
302.899	7.5
303.692	8.5
304.485	7.5
305.277	7.5
306.07	9.5
306.862	7.5
307.655	8.5
308.447	5.5
309.239	7.5
310.031	7.5
310.823	6.5
311.615	5.5
312.407	7.5
313.199	7.5
313.991	5.5
314.783	6.5
315.574	7.5
316.366	5.5
317.157	4.5
317.949	4.5
318.74	5.5
319.531	3.5
320.322	6.5
321.113	5.5
321.904	6.5
322.695	4.5
323.486	3.5
324.277	3.5
325.068	3.5
325.858	5.5
326.649	3.5
327.439	4.5
328.23	3.5
329.02	3.5
329.81	4.5
330.6	2.5
331.391	4.5
332.181	2.5
332.971	3.5
333.76	3.5
334.55	1.5
335.34	3.5
336.13	3.5
336.919	4.5
337.709	4.5
338.498	3.5
339.287	3.5
340.077	2.5
340.866	2.5
341.655	5.5
342.444	4.5
343.233	2.5
344.022	3.5
344.811	1.5
345.6	2.5
346.388	5.5
347.177	4.5
347.965	1.5
348.754	2.5
349.542	4.5
350.33	3.5
351.119	2.5
351.907	3.5
352.695	3.5
353.483	2.5
354.271	5.5
355.059	2.5
355.846	2.5
356.634	1.5
357.422	2.5
358.209	1.5
358.997	1.5
359.784	2.5
360.571	1.5
361.359	1.5
362.146	1.5
362.933	3.5
363.72	3.5
364.507	3.5
365.294	2.5
366.081	4.5
366.867	1.5
367.654	2.5
368.44	2.5
369.227	2.5
370.013	1.5
370.8	2.5
371.586	2.5
372.372	4.5
373.158	2.5
373.944	3.5
374.73	3.5
375.516	0.5
376.302	2.5
377.088	3.5
377.873	4.5
378.659	2.5
379.445	4.5
380.23	3.5
381.015	3.5
381.801	-1.5
382.586	1.5
383.371	1.5
384.156	3.5
384.941	4.5
385.726	2.5
386.511	2.5
387.296	1.5
388.08	1.5
388.865	1.5
389.649	3.5
390.434	4.5
391.218	3.5
392.003	1.5
392.787	2.5
393.571	1.5
394.355	3.5
395.139	1.5
395.923	1.5
396.707	2.5
397.491	4.5
398.274	3.5
399.058	5.5
399.842	4.5
400.625	2.5
401.408	3.5
402.192	3.5
402.975	2.5
403.758	3.5
404.541	2.5
405.324	2.5
406.107	5.5
406.89	3.5
407.673	2.5
408.456	2.5
409.238	1.5
410.021	4.5
410.803	5.5
411.586	1.5
412.368	1.5
413.151	5.5
413.933	3.5
414.715	4.5
415.497	3.5
416.279	5.5
417.061	5.5
417.843	2.5
418.624	5.5
419.406	5.5
420.188	5.5
420.969	2.5
421.751	6.5
422.532	3.5
423.313	6.5
424.095	3.5
424.876	4.5
425.657	5.5
426.438	5.5
427.219	6.5
428	3.5
428.78	7.5
429.561	4.5
430.342	8.5
431.122	8.5
431.903	7.5
432.683	7.5
433.464	7.5
434.244	7.5
435.024	10.5
435.804	7.5
436.584	9.5
437.364	8.5
438.144	9.5
438.924	7.5
439.704	9.5
440.483	9.5
441.263	10.5
442.042	13.5
442.822	13.5
443.601	10.5
444.38	13.5
445.16	15.5
445.939	16.5
446.718	15.5
447.497	20.5
448.276	19.5
449.054	22.5
449.833	21.5
450.612	27.5
451.391	26.5
452.169	29.5
452.948	34.5
453.726	32.5
454.504	34.5
455.282	40.5
456.061	46.5
456.839	51.5
457.617	54.5
458.395	62.5
459.172	70.5
459.95	76.5
460.728	88.5
461.506	95.5
462.283	109.5
463.061	120.5
463.838	131.5
464.615	146.5
465.393	155.5
466.17	177.5
466.947	199.5
467.724	219.5
468.501	246.5
469.278	277.5
470.055	301.5
470.831	340.5
471.608	368.5
472.385	408.5
473.161	456.5
473.938	504.5
474.714	557.5
475.49	609.5
476.266	678.5
477.043	742.5
477.819	812.5
478.595	905.5
479.371	998.5
480.146	1097.5
480.922	1199.5
481.698	1311.5
482.473	1443.5
483.249	1571.5
484.024	1731.5
484.8	1903.5
485.575	2076.5
486.35	2283.5
487.126	2509.5
487.901	2729.5
488.676	2971.5
489.451	3246.5
490.225	3530.5
491	3879.5
491.775	4235.5
492.55	4597.5
493.324	4998.5
494.099	5476.5
494.873	5979.5
495.647	6463.5
496.422	6971.5
497.196	7516.5
497.97	8100.5
498.744	8739.5
499.518	9345.5
500.292	9964.5
501.066	10614.5
501.839	11157.5
502.613	11734.5
503.387	12337.5
504.16	12800.5
504.934	13288.5
505.707	13651.5
506.48	13926.5
507.253	14202.5
508.027	14386.5
508.8	14481.5
509.573	14445.5
510.346	14334.5
511.118	14122.5
511.891	13857.5
512.664	13502.5
513.437	13171.5
514.209	12816.5
514.982	12365.5
515.754	11906.5
516.526	11420.5
517.298	10996.5
518.071	10514.5
518.843	10023.5
519.615	9677.5
520.387	9245.5
521.159	8926.5
521.93	8521.5
522.702	8183.5
523.474	7887.5
524.245	7570.5
525.017	7291.5
525.788	6997.5
526.56	6687.5
527.331	6406.5
528.102	6168.5
528.873	5902.5
529.644	5649.5
530.415	5407.5
531.186	5149.5
531.957	4915.5
532.728	4681.5
533.498	4467.5
534.269	4205.5
535.039	3990.5
535.81	3795.5
536.58	3575.5
537.351	3369.5
538.121	3199.5
538.891	3039.5
539.661	2852.5
540.431	2708.5
541.201	2580.5
541.971	2407.5
542.741	2283.5
543.51	2167.5
544.28	2061.5
545.05	1960.5
545.819	1876.5
546.588	1774.5
547.358	1688.5
548.127	1617.5
548.896	1534.5
549.665	1451.5
550.434	1378.5
551.203	1309.5
551.972	1245.5
552.741	1172.5
553.51	1120.5
554.278	1057.5
555.047	990.5
555.815	939.5
556.584	896.5
557.352	829.5
558.121	795.5
558.889	742.5
559.657	710.5
560.425	661.5
561.193	629.5
561.961	600.5
562.729	560.5
563.496	515.5
564.264	498.5
565.032	471.5
565.799	437.5
566.567	417.5
567.334	400.5
568.101	381.5
568.869	354.5
569.636	329.5
570.403	317.5
571.17	297.5
571.937	278.5
572.704	270.5
573.471	243.5
574.237	229.5
575.004	226.5
575.771	205.5
576.537	193.5
577.303	185.5
578.07	176.5
578.836	160.5
579.602	153.5
580.368	151.5
581.134	140.5
581.9	128.5
582.666	126.5
583.432	118.5
584.198	112.5
584.964	104.5
585.729	97.5
586.495	92.5
587.26	90.5
588.025	90.5
588.791	76.5
589.556	77.5
590.321	70.5
591.086	67.5
591.851	62.5
592.616	64.5
593.381	54.5
594.146	55.5
594.911	49.5
595.675	49.5
596.44	47.5
597.204	46.5
597.969	44.5
598.733	38.5
599.497	39.5
600.261	38.5
601.025	35.5
601.79	34.5
602.553	29.5
603.317	30.5
604.081	28.5
604.845	26.5
605.609	26.5
606.372	26.5
607.136	23.5
607.899	23.5
608.662	22.5
609.426	22.5
610.189	22.5
610.952	21.5
611.715	17.5
612.478	18.5
613.241	15.5
614.004	18.5
614.767	13.5
615.529	13.5
616.292	16.5
617.055	15.5
617.817	15.5
618.579	13.5
619.342	10.5
620.104	11.5
620.866	14.5
621.628	11.5
622.39	10.5
623.152	11.5
623.914	8.5
624.676	12.5
625.438	8.5
626.199	9.5
626.961	10.5
627.722	9.5
628.484	9.5
629.245	9.5
630.006	10.5
630.768	11.5
631.529	7.5
632.29	7.5
633.051	6.5
633.812	6.5
634.573	5.5
635.333	7.5
636.094	7.5
636.855	7.5
637.615	6.5
638.376	5.5
639.136	3.5
639.896	6.5
640.657	4.5
641.417	6.5
642.177	5.5
642.937	5.5
643.697	5.5
644.457	5.5
645.216	5.5
645.976	3.5
646.736	5.5
647.495	5.5
648.255	5.5
649.014	3.5
649.774	4.5
650.533	4.5
651.292	4.5
652.051	4.5
652.81	5.5
653.569	3.5
654.328	4.5
655.087	4.5
655.846	4.5
656.604	3.5
657.363	3.5
658.121	3.5
658.88	2.5
659.638	5.5
660.397	3.5
661.155	2.5
661.913	4.5
662.671	3.5
663.429	1.5
664.187	2.5
664.945	0.5
665.703	2.5
666.46	1.5
667.218	2.5
667.976	3.5
668.733	3.5
669.49	1.5
670.248	1.5
671.005	2.5
671.762	3.5
672.519	3.5
673.276	4.5
674.033	0.5
674.79	1.5
675.547	0.5
676.304	3.5
677.06	2.5
677.817	3.5
678.574	2.5
679.33	2.5
680.086	2.5
680.843	2.5
681.599	1.5
682.355	2.5
683.111	2.5
683.867	2.5
684.623	1.5
685.379	1.5
686.135	3.5
686.89	3.5
687.646	1.5
688.402	1.5
689.157	0.5
689.912	0.5
690.668	4.5
691.423	3.5
692.178	3.5
692.933	1.5
693.688	2.5
694.443	3.5
695.198	1.5
695.953	4.5
696.708	1.5
697.462	2.5
698.217	2.5
698.972	1.5
699.726	2.5
700.48	1.5
701.235	2.5
701.989	-0.5
702.743	1.5
703.497	0.5
704.251	3.5
705.005	1.5
705.759	1.5
706.513	2.5
707.266	-1.5
708.02	1.5
708.774	1.5
709.527	2.5
710.28	1.5
711.034	2.5
711.787	2.5
712.54	0.5
713.293	2.5
714.046	2.5
714.799	1.5
715.552	2.5
716.305	0.5
717.058	1.5
717.81	0.5
718.563	1.5
719.315	1.5
720.068	2.5
720.82	0.5
721.573	1.5
722.325	1.5
723.077	1.5
723.829	2.5
724.581	2.5
725.333	1.5
726.085	0.5
726.836	2.5
727.588	0.5
728.34	0.5
729.091	3.5
729.843	2.5
730.594	2.5
731.346	2.5
732.097	1.5
732.848	1.5
733.599	1.5
734.35	3.5
735.101	1.5
735.852	1.5
736.603	2.5
737.354	1.5
738.104	1.5
738.855	1.5
739.605	2.5
740.356	0.5
741.106	-1.5
741.856	3.5
742.607	1.5
743.357	2.5
744.107	2.5
744.857	1.5
745.607	2.5
746.357	1.5
747.106	3.5
747.856	3.5
748.606	4.5
749.355	2.5
750.105	2.5
750.854	0.5
751.603	2.5
752.353	1.5
753.102	2.5
753.851	3.5
754.6	2.5
755.349	3.5
756.098	2.5
756.847	2.5
757.595	2.5
758.344	2.5
759.093	2.5
759.841	2.5
760.589	3.5
761.338	3.5
762.086	2.5
762.834	2.5
763.582	3.5
764.331	4.5
765.079	3.5
765.826	3.5
766.574	0.5
767.322	1.5
768.07	5.5
768.817	2.5
769.565	4.5
770.312	4.5
771.06	2.5
771.807	3.5
772.554	1.5
773.302	2.5
774.049	1.5
774.796	5.5
775.543	1.5
776.29	4.5
777.036	4.5
777.783	4.5
778.53	3.5
779.276	2.5
780.023	4.5
780.769	4.5
781.516	4.5
782.262	2.5
783.008	5.5
783.754	5.5
784.5	3.5
785.246	3.5
785.992	3.5
786.738	5.5
787.484	6.5
788.23	4.5
788.975	5.5
789.721	4.5
790.466	5.5
791.212	4.5
791.957	5.5
792.702	6.5
793.447	5.5
794.193	4.5
794.938	3.5
795.683	4.5
796.427	3.5
797.172	2.5
797.917	3.5
798.662	2.5
799.406	5.5
800.151	6.5
800.895	5.5
801.64	5.5
802.384	4.5
803.128	1.5
803.872	3.5
804.616	3.5
805.36	4.5
806.104	6.5
806.848	1.5
807.592	4.5
808.336	1.5
809.079	3.5
809.823	4.5
810.566	3.5
811.31	2.5
812.053	5.5
812.796	2.5
813.539	4.5
814.283	2.5
815.026	2.5
815.769	3.5
816.511	4.5
817.254	2.5
817.997	2.5
818.74	4.5
819.482	2.5
820.225	4.5
820.967	2.5
821.71	2.5
822.452	0.5
823.194	4.5
823.936	3.5
824.678	3.5
825.42	3.5
826.162	2.5
826.904	2.5
827.646	4.5
828.388	3.5
829.129	2.5
829.871	0.5
830.612	6.5
831.354	1.5
832.095	1.5
832.836	5.5
833.577	-0.5
834.319	2.5
835.06	3.5
835.801	1.5
836.542	0.5
837.282	2.5
838.023	3.5
838.764	3.5
839.504	3.5
840.245	3.5
840.985	3.5
841.726	4.5
842.466	1.5
843.206	2.5
843.946	0.5
844.687	0.5
845.427	1.5
846.166	3.5
846.906	3.5
847.646	-0.5
848.386	2.5
849.125	3.5
849.865	3.5
850.605	2.5
851.344	3.5
852.083	1.5
852.823	0.5
853.562	1.5
854.301	3.5
855.04	0.5
855.779	2.5
856.518	0.5
857.257	4.5
857.995	1.5
858.734	3.5
859.473	0.5
860.211	3.5
860.95	1.5
861.688	0.5
862.426	1.5
863.165	1.5
863.903	3.5
864.641	0.5
865.379	2.5
866.117	-1.5
866.855	0.5
867.593	0.5
868.33	0.5
869.068	1.5
869.806	2.5
870.543	1.5
871.28	1.5
872.018	1.5
872.755	1.5
873.492	1.5
874.229	0.5
874.967	-0.5
875.703	2.5
876.44	1.5
877.177	1.5
877.914	1.5
878.651	1.5
879.387	2.5
880.124	1.5
880.86	2.5
881.597	2.5
882.333	1.5
883.069	2.5
883.806	0.5
884.542	3.5
885.278	0.5
886.014	1.5
886.749	-0.5
887.485	0.5
888.221	0.5
888.957	-1.5
889.692	0.5
890.428	0.5
891.163	2.5
891.899	-1.5
892.634	-0.5
893.369	0.5
894.104	-1.5
894.839	-1.5
895.574	0.5
896.309	-0.5
897.044	0.5
897.779	1.5
898.514	1.5
899.248	-1.5
899.983	0.5
900.717	-1.5
901.452	0.5
902.186	-0.5
902.92	0.5
903.654	0.5
904.389	-0.5
905.123	1.5
905.857	-1.5
906.59	0.5
907.324	1.5
908.058	1.5
908.792	3.5
909.525	0.5
910.259	2.5
910.992	0.5
911.726	1.5
912.459	1.5
913.192	1.5
913.925	1.5
914.658	-0.5
915.391	0.5
916.124	-1.5
916.857	0.5
917.59	2.5
918.323	-1.5
919.055	1.5
919.788	-1.5
920.521	2.5
921.253	1.5
921.985	3.5
922.718	0.5
923.45	0.5
924.182	-0.5
924.914	-0.5
925.646	0.5
926.378	0.5
927.11	0.5
927.841	0.5
928.573	-1.5
929.305	-0.5
930.036	0.5
930.768	2.5
931.499	0.5
932.23	0.5
932.962	-1.5
933.693	-1.5
934.424	0.5
935.155	-0.5
935.886	1.5
936.617	-0.5
937.348	1.5
938.078	0.5
938.809	-1.5
939.54	1.5
940.27	-0.5
941.001	1.5
941.731	1.5
942.461	0.5
943.191	-1.5
943.922	-0.5
944.652	2.5
945.382	-1.5
946.112	0.5
946.841	-1.5
947.571	-0.5
948.301	0.5
949.031	-1.5
949.76	1.5
950.49	-0.5
951.219	-2.5
951.948	0.5
952.678	0.5
953.407	-1.5
954.136	0.5
954.865	2.5
955.594	1.5
956.323	1.5
957.052	-0.5
957.78	-0.5
958.509	-1.5
959.238	0.5
959.966	1.5
960.695	-1.5
961.423	-0.5
962.151	0.5
962.88	-0.5
963.608	0.5
964.336	-1.5
965.064	0.5
965.792	0.5
966.52	-0.5
967.247	2.5
967.975	-1.5
968.703	1.5
969.43	-0.5
970.158	1.5
970.885	0.5
971.613	-0.5
972.34	0.5
973.067	-0.5
973.794	1.5
974.521	-1.5
975.248	-0.5
975.975	0.5
976.702	2.5
977.429	-1.5
978.156	-0.5
978.882	2.5
979.609	-0.5
980.335	-0.5
981.062	0.5
981.788	1.5
982.514	-0.5
983.24	1.5
983.967	-0.5
984.693	-2.5
985.419	1.5
986.144	0.5
986.87	1.5
987.596	-0.5
988.322	-1.5
989.047	0.5
989.773	-0.5
990.498	0.5
991.224	1.5
991.949	-0.5
992.674	-0.5
993.399	-0.5
994.124	-0.5
994.849	0.5
995.574	0.5
996.299	-0.5
997.024	-0.5
997.749	1.5
998.473	1.5
999.198	0.5
999.922	-0.5
1000.647	1.5
1001.371	2.5
1002.095	-1.5
1002.82	-0.5
1003.544	-1.5
1004.268	0.5
1004.992	-2.5
1005.716	0.5
1006.439	0.5
1007.163	0.5
1007.887	-1.5
1008.611	-0.5
1009.334	0.5
1010.058	0.5
1010.781	1.5
1011.504	2.5
1012.228	0.5
1012.951	-0.5
1013.674	-1.5
1014.397	3.5
1015.12	-0.5
