节点500_285_QEPB04081__40__14-56-13-408.txt的数据

Date: Wed Nov 12 14:56:13 CST 2025
User: PC
Spectrometer: QEPB0408
触发模式: 0
积分时间 (秒): 1.000000E-2
Scans to average: 1
启用暗噪声校正: true
启用非线性校正: false
滑动平均宽度: 0
X轴模式: Wavelengths
Number of Pixels in Spectrum: 1044
>>>>>Begin Spectral Data<<<<<
220.843	1.75
221.644	-1.25
222.444	0.75
223.244	0.75
224.045	1.75
224.845	2.75
225.645	0.75
226.445	-0.25
227.245	0.75
228.045	1.75
228.845	4.75
229.645	1.75
230.444	1.75
231.244	1.75
232.043	1.75
232.843	4.75
233.642	4.75
234.442	1.75
235.241	1.75
236.04	2.75
236.839	5.75
237.638	1.75
238.437	3.75
239.236	3.75
240.035	2.75
240.833	2.75
241.632	6.75
242.43	4.75
243.229	2.75
244.027	6.75
244.826	3.75
245.624	7.75
246.422	5.75
247.22	3.75
248.018	4.75
248.816	1.75
249.614	5.75
250.412	5.75
251.21	8.75
252.007	4.75
252.805	5.75
253.602	8.75
254.4	6.75
255.197	7.75
255.994	8.75
256.791	9.75
257.589	7.75
258.386	7.75
259.183	9.75
259.979	7.75
260.776	9.75
261.573	10.75
262.37	9.75
263.166	10.75
263.963	10.75
264.759	11.75
265.556	12.75
266.352	10.75
267.148	12.75
267.944	11.75
268.74	14.75
269.536	13.75
270.332	12.75
271.128	14.75
271.924	15.75
272.719	17.75
273.515	12.75
274.311	13.75
275.106	17.75
275.901	14.75
276.697	15.75
277.492	16.75
278.287	15.75
279.082	17.75
279.877	14.75
280.672	18.75
281.467	14.75
282.262	18.75
283.056	18.75
283.851	16.75
284.646	18.75
285.44	18.75
286.234	15.75
287.029	16.75
287.823	17.75
288.617	18.75
289.411	19.75
290.205	16.75
290.999	15.75
291.793	15.75
292.587	14.75
293.381	15.75
294.174	14.75
294.968	13.75
295.761	14.75
296.555	12.75
297.348	11.75
298.141	14.75
298.935	14.75
299.728	13.75
300.521	13.75
301.314	14.75
302.107	12.75
302.899	12.75
303.692	12.75
304.485	11.75
305.277	12.75
306.07	10.75
306.862	12.75
307.655	9.75
308.447	8.75
309.239	10.75
310.031	9.75
310.823	8.75
311.615	7.75
312.407	9.75
313.199	9.75
313.991	8.75
314.783	7.75
315.574	5.75
316.366	7.75
317.157	5.75
317.949	5.75
318.74	6.75
319.531	7.75
320.322	6.75
321.113	5.75
321.904	7.75
322.695	6.75
323.486	6.75
324.277	8.75
325.068	6.75
325.858	6.75
326.649	5.75
327.439	3.75
328.23	6.75
329.02	4.75
329.81	5.75
330.6	4.75
331.391	6.75
332.181	5.75
332.971	5.75
333.76	5.75
334.55	6.75
335.34	6.75
336.13	5.75
336.919	4.75
337.709	3.75
338.498	6.75
339.287	6.75
340.077	6.75
340.866	5.75
341.655	7.75
342.444	6.75
343.233	5.75
344.022	3.75
344.811	6.75
345.6	5.75
346.388	4.75
347.177	7.75
347.965	6.75
348.754	7.75
349.542	6.75
350.33	5.75
351.119	5.75
351.907	3.75
352.695	4.75
353.483	3.75
354.271	5.75
355.059	4.75
355.846	5.75
356.634	5.75
357.422	5.75
358.209	3.75
358.997	6.75
359.784	3.75
360.571	6.75
361.359	5.75
362.146	5.75
362.933	5.75
363.72	5.75
364.507	7.75
365.294	5.75
366.081	2.75
366.867	2.75
367.654	4.75
368.44	4.75
369.227	6.75
370.013	1.75
370.8	2.75
371.586	5.75
372.372	1.75
373.158	4.75
373.944	4.75
374.73	2.75
375.516	5.75
376.302	3.75
377.088	4.75
377.873	5.75
378.659	5.75
379.445	5.75
380.23	5.75
381.015	4.75
381.801	4.75
382.586	5.75
383.371	4.75
384.156	3.75
384.941	3.75
385.726	5.75
386.511	4.75
387.296	4.75
388.08	5.75
388.865	4.75
389.649	4.75
390.434	5.75
391.218	5.75
392.003	5.75
392.787	6.75
393.571	3.75
394.355	8.75
395.139	3.75
395.923	6.75
396.707	2.75
397.491	5.75
398.274	7.75
399.058	3.75
399.842	7.75
400.625	5.75
401.408	7.75
402.192	6.75
402.975	3.75
403.758	4.75
404.541	6.75
405.324	2.75
406.107	8.75
406.89	6.75
407.673	5.75
408.456	5.75
409.238	9.75
410.021	8.75
410.803	8.75
411.586	8.75
412.368	8.75
413.151	8.75
413.933	7.75
414.715	9.75
415.497	8.75
416.279	9.75
417.061	9.75
417.843	8.75
418.624	9.75
419.406	8.75
420.188	8.75
420.969	9.75
421.751	9.75
422.532	7.75
423.313	8.75
424.095	10.75
424.876	10.75
425.657	10.75
426.438	11.75
427.219	8.75
428	12.75
428.78	9.75
429.561	11.75
430.342	10.75
431.122	11.75
431.903	12.75
432.683	15.75
433.464	14.75
434.244	17.75
435.024	15.75
435.804	14.75
436.584	17.75
437.364	18.75
438.144	16.75
438.924	18.75
439.704	20.75
440.483	19.75
441.263	21.75
442.042	20.75
442.822	23.75
443.601	26.75
444.38	25.75
445.16	28.75
445.939	29.75
446.718	32.75
447.497	34.75
448.276	35.75
449.054	37.75
449.833	43.75
450.612	44.75
451.391	48.75
452.169	52.75
452.948	53.75
453.726	63.75
454.504	69.75
455.282	70.75
456.061	83.75
456.839	89.75
457.617	96.75
458.395	112.75
459.172	120.75
459.95	137.75
460.728	153.75
461.506	165.75
462.283	194.75
463.061	207.75
463.838	239.75
464.615	263.75
465.393	296.75
466.17	333.75
466.947	379.75
467.724	417.75
468.501	466.75
469.278	509.75
470.055	586.75
470.831	655.75
471.608	722.75
472.385	813.75
473.161	914.75
473.938	994.75
474.714	1119.75
475.49	1263.75
476.266	1390.75
477.043	1542.75
477.819	1716.75
478.595	1928.75
479.371	2130.75
480.146	2359.75
480.922	2602.75
481.698	2905.75
482.473	3212.75
483.249	3568.75
484.024	3979.75
484.8	4390.75
485.575	4841.75
486.35	5362.75
487.126	5890.75
487.901	6525.75
488.676	7225.75
489.451	7938.75
490.225	8711.75
491	9638.75
491.775	10456.75
492.55	11465.75
493.324	12503.75
494.099	13483.75
494.873	14588.75
495.647	15769.75
496.422	16930.75
497.196	18115.75
497.97	19350.75
498.744	20562.75
499.518	21681.75
500.292	22777.75
501.066	23751.75
501.839	24600.75
502.613	25361.75
503.387	26004.75
504.16	26509.75
504.934	26544.75
505.707	26514.75
506.48	26429.75
507.253	26117.75
508.027	25640.75
508.8	25179.75
509.573	24640.75
510.346	23744.75
511.118	22890.75
511.891	22046.75
512.664	21168.75
513.437	20187.75
514.209	19271.75
514.982	18478.75
515.754	17647.75
516.526	16749.75
517.298	16027.75
518.071	15349.75
518.843	14744.75
519.615	14187.75
520.387	13614.75
521.159	13085.75
521.93	12560.75
522.702	12040.75
523.474	11555.75
524.245	11017.75
525.017	10521.75
525.788	10152.75
526.56	9660.75
527.331	9174.75
528.102	8725.75
528.873	8317.75
529.644	7879.75
530.415	7475.75
531.186	7066.75
531.957	6656.75
532.728	6342.75
533.498	5979.75
534.269	5660.75
535.039	5324.75
535.81	5036.75
536.58	4749.75
537.351	4453.75
538.121	4208.75
538.891	3998.75
539.661	3780.75
540.431	3563.75
541.201	3363.75
541.971	3181.75
542.741	3018.75
543.51	2890.75
544.28	2737.75
545.05	2604.75
545.819	2481.75
546.588	2340.75
547.358	2262.75
548.127	2139.75
548.896	2010.75
549.665	1905.75
550.434	1805.75
551.203	1703.75
551.972	1591.75
552.741	1513.75
553.51	1426.75
554.278	1366.75
555.047	1271.75
555.815	1208.75
556.584	1140.75
557.352	1082.75
558.121	1004.75
558.889	958.75
559.657	899.75
560.425	842.75
561.193	794.75
561.961	760.75
562.729	712.75
563.496	667.75
564.264	639.75
565.032	598.75
565.799	566.75
566.567	538.75
567.334	506.75
568.101	492.75
568.869	460.75
569.636	425.75
570.403	402.75
571.17	378.75
571.937	357.75
572.704	336.75
573.471	319.75
574.237	295.75
575.004	281.75
575.771	270.75
576.537	255.75
577.303	238.75
578.07	223.75
578.836	205.75
579.602	194.75
580.368	185.75
581.134	178.75
581.9	167.75
582.666	158.75
583.432	152.75
584.198	142.75
584.964	135.75
585.729	128.75
586.495	121.75
587.26	114.75
588.025	109.75
588.791	104.75
589.556	98.75
590.321	92.75
591.086	87.75
591.851	85.75
592.616	81.75
593.381	77.75
594.146	72.75
594.911	69.75
595.675	63.75
596.44	66.75
597.204	59.75
597.969	57.75
598.733	53.75
599.497	53.75
600.261	49.75
601.025	46.75
601.79	44.75
602.553	41.75
603.317	41.75
604.081	38.75
604.845	40.75
605.609	40.75
606.372	35.75
607.136	35.75
607.899	34.75
608.662	33.75
609.426	30.75
610.189	26.75
610.952	29.75
611.715	28.75
612.478	29.75
613.241	21.75
614.004	23.75
614.767	23.75
615.529	20.75
616.292	22.75
617.055	20.75
617.817	20.75
618.579	19.75
619.342	18.75
620.104	18.75
620.866	16.75
621.628	16.75
622.39	16.75
623.152	15.75
623.914	14.75
624.676	15.75
625.438	13.75
626.199	16.75
626.961	16.75
627.722	15.75
628.484	12.75
629.245	12.75
630.006	11.75
630.768	11.75
631.529	12.75
632.29	10.75
633.051	10.75
633.812	7.75
634.573	9.75
635.333	9.75
636.094	9.75
636.855	9.75
637.615	6.75
638.376	11.75
639.136	8.75
639.896	6.75
640.657	10.75
641.417	11.75
642.177	6.75
642.937	7.75
643.697	8.75
644.457	7.75
645.216	6.75
645.976	6.75
646.736	6.75
647.495	6.75
648.255	7.75
649.014	7.75
649.774	6.75
650.533	6.75
651.292	5.75
652.051	6.75
652.81	7.75
653.569	7.75
654.328	4.75
655.087	7.75
655.846	3.75
656.604	7.75
657.363	5.75
658.121	3.75
658.88	6.75
659.638	4.75
660.397	3.75
661.155	5.75
661.913	4.75
662.671	2.75
663.429	4.75
664.187	3.75
664.945	2.75
665.703	2.75
666.46	2.75
667.218	5.75
667.976	2.75
668.733	4.75
669.49	4.75
670.248	1.75
671.005	5.75
671.762	4.75
672.519	3.75
673.276	3.75
674.033	0.75
674.79	5.75
675.547	3.75
676.304	2.75
677.06	5.75
677.817	3.75
678.574	3.75
679.33	3.75
680.086	6.75
680.843	-0.25
681.599	4.75
682.355	2.75
683.111	2.75
683.867	2.75
684.623	2.75
685.379	2.75
686.135	4.75
686.89	4.75
687.646	4.75
688.402	3.75
689.157	3.75
689.912	2.75
690.668	3.75
691.423	2.75
692.178	2.75
692.933	6.75
693.688	3.75
694.443	3.75
695.198	1.75
695.953	1.75
696.708	4.75
697.462	1.75
698.217	6.75
698.972	4.75
699.726	2.75
700.48	0.75
701.235	4.75
701.989	3.75
702.743	1.75
703.497	2.75
704.251	2.75
705.005	1.75
705.759	3.75
706.513	0.75
707.266	3.75
708.02	4.75
708.774	3.75
709.527	3.75
710.28	3.75
711.034	4.75
711.787	1.75
712.54	3.75
713.293	2.75
714.046	2.75
714.799	2.75
715.552	0.75
716.305	4.75
717.058	1.75
717.81	4.75
718.563	2.75
719.315	2.75
720.068	2.75
720.82	3.75
721.573	3.75
722.325	3.75
723.077	3.75
723.829	4.75
724.581	1.75
725.333	2.75
726.085	1.75
726.836	3.75
727.588	2.75
728.34	3.75
729.091	4.75
729.843	1.75
730.594	3.75
731.346	4.75
732.097	3.75
732.848	4.75
733.599	1.75
734.35	3.75
735.101	3.75
735.852	4.75
736.603	3.75
737.354	2.75
738.104	3.75
738.855	1.75
739.605	3.75
740.356	3.75
741.106	1.75
741.856	5.75
742.607	2.75
743.357	3.75
744.107	5.75
744.857	4.75
745.607	4.75
746.357	3.75
747.106	4.75
747.856	5.75
748.606	4.75
749.355	5.75
750.105	1.75
750.854	1.75
751.603	2.75
752.353	5.75
753.102	3.75
753.851	4.75
754.6	4.75
755.349	5.75
756.098	5.75
756.847	5.75
757.595	4.75
758.344	4.75
759.093	5.75
759.841	6.75
760.589	6.75
761.338	6.75
762.086	6.75
762.834	6.75
763.582	5.75
764.331	5.75
765.079	5.75
765.826	6.75
766.574	6.75
767.322	7.75
768.07	6.75
768.817	7.75
769.565	6.75
770.312	7.75
771.06	5.75
771.807	5.75
772.554	8.75
773.302	7.75
774.049	7.75
774.796	8.75
775.543	7.75
776.29	8.75
777.036	7.75
777.783	8.75
778.53	6.75
779.276	8.75
780.023	8.75
780.769	7.75
781.516	6.75
782.262	7.75
783.008	7.75
783.754	10.75
784.5	8.75
785.246	10.75
785.992	5.75
786.738	7.75
787.484	8.75
788.23	10.75
788.975	8.75
789.721	8.75
790.466	9.75
791.212	9.75
791.957	5.75
792.702	8.75
793.447	6.75
794.193	9.75
794.938	6.75
795.683	6.75
796.427	8.75
797.172	8.75
797.917	6.75
798.662	5.75
799.406	5.75
800.151	4.75
800.895	5.75
801.64	5.75
802.384	4.75
803.128	7.75
803.872	7.75
804.616	6.75
805.36	4.75
806.104	4.75
806.848	3.75
807.592	5.75
808.336	5.75
809.079	6.75
809.823	5.75
810.566	2.75
811.31	4.75
812.053	5.75
812.796	4.75
813.539	5.75
814.283	3.75
815.026	1.75
815.769	3.75
816.511	4.75
817.254	4.75
817.997	0.75
818.74	2.75
819.482	4.75
820.225	3.75
820.967	3.75
821.71	1.75
822.452	2.75
823.194	3.75
823.936	3.75
824.678	2.75
825.42	3.75
826.162	2.75
826.904	2.75
827.646	5.75
828.388	4.75
829.129	2.75
829.871	1.75
830.612	2.75
831.354	5.75
832.095	2.75
832.836	2.75
833.577	3.75
834.319	3.75
835.06	3.75
835.801	0.75
836.542	2.75
837.282	2.75
838.023	3.75
838.764	3.75
839.504	3.75
840.245	2.75
840.985	3.75
841.726	2.75
842.466	3.75
843.206	3.75
843.946	5.75
844.687	0.75
845.427	2.75
846.166	3.75
846.906	1.75
847.646	4.75
848.386	3.75
849.125	3.75
849.865	3.75
850.605	2.75
851.344	1.75
852.083	2.75
852.823	2.75
853.562	3.75
854.301	0.75
855.04	1.75
855.779	1.75
856.518	2.75
857.257	3.75
857.995	2.75
858.734	2.75
859.473	2.75
860.211	0.75
860.95	1.75
861.688	0.75
862.426	2.75
863.165	3.75
863.903	1.75
864.641	-0.25
865.379	0.75
866.117	0.75
866.855	1.75
867.593	0.75
868.33	0.75
869.068	0.75
869.806	-1.25
870.543	1.75
871.28	0.75
872.018	0.75
872.755	1.75
873.492	2.75
874.229	0.75
874.967	1.75
875.703	1.75
876.44	3.75
877.177	0.75
877.914	2.75
878.651	2.75
879.387	-0.25
880.124	0.75
880.86	0.75
881.597	1.75
882.333	-1.25
883.069	0.75
883.806	-1.25
884.542	0.75
885.278	0.75
886.014	-0.25
886.749	1.75
887.485	0.75
888.221	-1.25
888.957	0.75
889.692	2.75
890.428	-0.25
891.163	-1.25
891.899	1.75
892.634	0.75
893.369	0.75
894.104	-2.25
894.839	-0.25
895.574	0.75
896.309	0.75
897.044	0.75
897.779	1.75
898.514	0.75
899.248	0.75
899.983	0.75
900.717	0.75
901.452	0.75
902.186	-0.25
902.92	-0.25
903.654	-0.25
904.389	0.75
905.123	-0.25
905.857	0.75
906.59	1.75
907.324	-0.25
908.058	-1.25
908.792	-1.25
909.525	0.75
910.259	0.75
910.992	1.75
911.726	0.75
912.459	-0.25
913.192	-0.25
913.925	-0.25
914.658	1.75
915.391	0.75
916.124	-0.25
916.857	-1.25
917.59	-1.25
918.323	0.75
919.055	-1.25
919.788	0.75
920.521	-1.25
921.253	-2.25
921.985	-0.25
922.718	-1.25
923.45	0.75
924.182	0.75
924.914	0.75
925.646	0.75
926.378	-0.25
927.11	1.75
927.841	0.75
928.573	-0.25
929.305	0.75
930.036	-2.25
930.768	-0.25
931.499	0.75
932.23	1.75
932.962	1.75
933.693	0.75
934.424	-0.25
935.155	0.75
935.886	0.75
936.617	-1.25
937.348	-0.25
938.078	0.75
938.809	-0.25
939.54	-1.25
940.27	-0.25
941.001	-0.25
941.731	0.75
942.461	-0.25
943.191	2.75
943.922	-0.25
944.652	0.75
945.382	1.75
946.112	-0.25
946.841	-3.25
947.571	0.75
948.301	-0.25
949.031	0.75
949.76	-0.25
950.49	0.75
951.219	-0.25
951.948	0.75
952.678	-1.25
953.407	-0.25
954.136	-1.25
954.865	0.75
955.594	-1.25
956.323	-0.25
957.052	-0.25
957.78	-2.25
958.509	2.75
959.238	0.75
959.966	0.75
960.695	-1.25
961.423	-1.25
962.151	0.75
962.88	-2.25
963.608	-1.25
964.336	-2.25
965.064	1.75
965.792	0.75
966.52	-2.25
967.247	-0.25
967.975	0.75
968.703	-1.25
969.43	-0.25
970.158	1.75
970.885	-0.25
971.613	-1.25
972.34	-0.25
973.067	0.75
973.794	-1.25
974.521	1.75
975.248	-0.25
975.975	1.75
976.702	0.75
977.429	0.75
978.156	-0.25
978.882	-0.25
979.609	-1.25
980.335	0.75
981.062	0.75
981.788	-1.25
982.514	-1.25
983.24	-0.25
983.967	-0.25
984.693	-0.25
985.419	2.75
986.144	0.75
986.87	0.75
987.596	-1.25
988.322	-0.25
989.047	0.75
989.773	1.75
990.498	-0.25
991.224	-2.25
991.949	0.75
992.674	-1.25
993.399	-0.25
994.124	0.75
994.849	0.75
995.574	1.75
996.299	0.75
997.024	0.75
997.749	-0.25
998.473	0.75
999.198	0.75
999.922	0.75
1000.647	1.75
1001.371	2.75
1002.095	-0.25
1002.82	-0.25
1003.544	-1.25
1004.268	0.75
1004.992	0.75
1005.716	-0.25
1006.439	0.75
1007.163	1.75
1007.887	0.75
1008.611	-0.25
1009.334	1.75
1010.058	1.75
1010.781	-0.25
1011.504	1.75
1012.228	-1.25
1012.951	-0.25
1013.674	-0.25
1014.397	0.75
1015.12	-1.25
