节点500_285_QEPB04081__314__15-00-46-750.txt的数据

Date: Wed Nov 12 15:00:46 CST 2025
User: PC
Spectrometer: QEPB0408
触发模式: 0
积分时间 (秒): 1.000000E-2
Scans to average: 1
启用暗噪声校正: true
启用非线性校正: false
滑动平均宽度: 0
X轴模式: Wavelengths
Number of Pixels in Spectrum: 1044
>>>>>Begin Spectral Data<<<<<
220.843	2.88
221.644	-0.12
222.444	3.88
223.244	2.88
224.045	1.88
224.845	0.88
225.645	-0.12
226.445	1.88
227.245	0.88
228.045	3.88
228.845	1.88
229.645	2.88
230.444	2.88
231.244	4.88
232.043	2.88
232.843	3.88
233.642	2.88
234.442	3.88
235.241	4.88
236.04	5.88
236.839	3.88
237.638	4.88
238.437	3.88
239.236	3.88
240.035	3.88
240.833	3.88
241.632	3.88
242.43	3.88
243.229	4.88
244.027	6.88
244.826	2.88
245.624	7.88
246.422	2.88
247.22	7.88
248.018	4.88
248.816	4.88
249.614	7.88
250.412	5.88
251.21	5.88
252.007	5.88
252.805	6.88
253.602	6.88
254.4	5.88
255.197	10.88
255.994	4.88
256.791	7.88
257.589	7.88
258.386	6.88
259.183	9.88
259.979	9.88
260.776	11.88
261.573	8.88
262.37	7.88
263.166	10.88
263.963	10.88
264.759	13.88
265.556	13.88
266.352	11.88
267.148	11.88
267.944	13.88
268.74	13.88
269.536	14.88
270.332	13.88
271.128	16.88
271.924	15.88
272.719	13.88
273.515	17.88
274.311	15.88
275.106	18.88
275.901	16.88
276.697	16.88
277.492	20.88
278.287	18.88
279.082	16.88
279.877	18.88
280.672	19.88
281.467	17.88
282.262	17.88
283.056	18.88
283.851	17.88
284.646	17.88
285.44	18.88
286.234	17.88
287.029	18.88
287.823	17.88
288.617	16.88
289.411	17.88
290.205	15.88
290.999	20.88
291.793	17.88
292.587	18.88
293.381	13.88
294.174	16.88
294.968	17.88
295.761	13.88
296.555	18.88
297.348	16.88
298.141	13.88
298.935	13.88
299.728	13.88
300.521	13.88
301.314	13.88
302.107	12.88
302.899	13.88
303.692	12.88
304.485	11.88
305.277	12.88
306.07	12.88
306.862	12.88
307.655	10.88
308.447	10.88
309.239	12.88
310.031	15.88
310.823	6.88
311.615	9.88
312.407	8.88
313.199	8.88
313.991	8.88
314.783	9.88
315.574	9.88
316.366	8.88
317.157	7.88
317.949	7.88
318.74	7.88
319.531	7.88
320.322	6.88
321.113	7.88
321.904	7.88
322.695	6.88
323.486	8.88
324.277	5.88
325.068	7.88
325.858	7.88
326.649	8.88
327.439	8.88
328.23	8.88
329.02	8.88
329.81	5.88
330.6	4.88
331.391	6.88
332.181	6.88
332.971	6.88
333.76	6.88
334.55	5.88
335.34	6.88
336.13	8.88
336.919	5.88
337.709	5.88
338.498	5.88
339.287	6.88
340.077	7.88
340.866	5.88
341.655	6.88
342.444	6.88
343.233	7.88
344.022	4.88
344.811	5.88
345.6	6.88
346.388	5.88
347.177	7.88
347.965	3.88
348.754	7.88
349.542	5.88
350.33	6.88
351.119	7.88
351.907	6.88
352.695	6.88
353.483	7.88
354.271	6.88
355.059	5.88
355.846	5.88
356.634	5.88
357.422	4.88
358.209	5.88
358.997	4.88
359.784	7.88
360.571	6.88
361.359	6.88
362.146	4.88
362.933	4.88
363.72	5.88
364.507	3.88
365.294	3.88
366.081	5.88
366.867	5.88
367.654	5.88
368.44	6.88
369.227	5.88
370.013	5.88
370.8	5.88
371.586	5.88
372.372	5.88
373.158	3.88
373.944	4.88
374.73	4.88
375.516	3.88
376.302	2.88
377.088	5.88
377.873	3.88
378.659	5.88
379.445	6.88
380.23	5.88
381.015	5.88
381.801	2.88
382.586	10.88
383.371	5.88
384.156	3.88
384.941	5.88
385.726	6.88
386.511	4.88
387.296	6.88
388.08	6.88
388.865	6.88
389.649	5.88
390.434	5.88
391.218	2.88
392.003	6.88
392.787	3.88
393.571	5.88
394.355	9.88
395.139	5.88
395.923	8.88
396.707	6.88
397.491	5.88
398.274	4.88
399.058	4.88
399.842	3.88
400.625	8.88
401.408	7.88
402.192	4.88
402.975	7.88
403.758	7.88
404.541	8.88
405.324	7.88
406.107	8.88
406.89	6.88
407.673	9.88
408.456	8.88
409.238	8.88
410.021	9.88
410.803	9.88
411.586	9.88
412.368	9.88
413.151	8.88
413.933	11.88
414.715	10.88
415.497	7.88
416.279	7.88
417.061	6.88
417.843	7.88
418.624	9.88
419.406	7.88
420.188	9.88
420.969	9.88
421.751	10.88
422.532	12.88
423.313	9.88
424.095	10.88
424.876	9.88
425.657	13.88
426.438	11.88
427.219	13.88
428	13.88
428.78	13.88
429.561	13.88
430.342	11.88
431.122	13.88
431.903	13.88
432.683	13.88
433.464	15.88
434.244	13.88
435.024	16.88
435.804	15.88
436.584	15.88
437.364	21.88
438.144	20.88
438.924	20.88
439.704	19.88
440.483	21.88
441.263	25.88
442.042	25.88
442.822	26.88
443.601	29.88
444.38	32.88
445.16	29.88
445.939	32.88
446.718	36.88
447.497	37.88
448.276	40.88
449.054	47.88
449.833	46.88
450.612	51.88
451.391	59.88
452.169	63.88
452.948	64.88
453.726	75.88
454.504	80.88
455.282	88.88
456.061	99.88
456.839	105.88
457.617	125.88
458.395	132.88
459.172	148.88
459.95	171.88
460.728	189.88
461.506	211.88
462.283	228.88
463.061	258.88
463.838	279.88
464.615	326.88
465.393	352.88
466.17	400.88
466.947	447.88
467.724	488.88
468.501	549.88
469.278	608.88
470.055	695.88
470.831	761.88
471.608	844.88
472.385	944.88
473.161	1057.88
473.938	1160.88
474.714	1289.88
475.49	1432.88
476.266	1560.88
477.043	1738.88
477.819	1933.88
478.595	2131.88
479.371	2339.88
480.146	2596.88
480.922	2856.88
481.698	3168.88
482.473	3475.88
483.249	3832.88
484.024	4208.88
484.8	4632.88
485.575	5086.88
486.35	5599.88
487.126	6150.88
487.901	6766.88
488.676	7413.88
489.451	8114.88
490.225	8880.88
491	9693.88
491.775	10571.88
492.55	11553.88
493.324	12519.88
494.099	13487.88
494.873	14580.88
495.647	15664.88
496.422	16874.88
497.196	17986.88
497.97	19311.88
498.744	20422.88
499.518	21691.88
500.292	22806.88
501.066	23828.88
501.839	24784.88
502.613	25686.88
503.387	26560.88
504.16	27104.88
504.934	27451.88
505.707	27585.88
506.48	27625.88
507.253	27492.88
508.027	27261.88
508.8	26903.88
509.573	26475.88
510.346	25843.88
511.118	25162.88
511.891	24239.88
512.664	23352.88
513.437	22504.88
514.209	21563.88
514.982	20620.88
515.754	19755.88
516.526	18799.88
517.298	18050.88
518.071	17231.88
518.843	16602.88
519.615	15940.88
520.387	15327.88
521.159	14753.88
521.93	14139.88
522.702	13593.88
523.474	13020.88
524.245	12411.88
525.017	11938.88
525.788	11448.88
526.56	10929.88
527.331	10406.88
528.102	9914.88
528.873	9489.88
529.644	9013.88
530.415	8587.88
531.186	8116.88
531.957	7667.88
532.728	7322.88
533.498	6906.88
534.269	6529.88
535.039	6205.88
535.81	5833.88
536.58	5529.88
537.351	5174.88
538.121	4899.88
538.891	4639.88
539.661	4381.88
540.431	4135.88
541.201	3913.88
541.971	3697.88
542.741	3531.88
543.51	3360.88
544.28	3212.88
545.05	3015.88
545.819	2880.88
546.588	2748.88
547.358	2603.88
548.127	2446.88
548.896	2361.88
549.665	2242.88
550.434	2098.88
551.203	1985.88
551.972	1895.88
552.741	1782.88
553.51	1689.88
554.278	1589.88
555.047	1494.88
555.815	1419.88
556.584	1344.88
557.352	1259.88
558.121	1190.88
558.889	1118.88
559.657	1068.88
560.425	1004.88
561.193	944.88
561.961	892.88
562.729	848.88
563.496	797.88
564.264	747.88
565.032	722.88
565.799	667.88
566.567	646.88
567.334	607.88
568.101	562.88
568.869	532.88
569.636	505.88
570.403	474.88
571.17	445.88
571.937	425.88
572.704	404.88
573.471	380.88
574.237	355.88
575.004	338.88
575.771	320.88
576.537	297.88
577.303	279.88
578.07	260.88
578.836	250.88
579.602	233.88
580.368	215.88
581.134	208.88
581.9	201.88
582.666	190.88
583.432	178.88
584.198	168.88
584.964	158.88
585.729	145.88
586.495	142.88
587.26	136.88
588.025	128.88
588.791	122.88
589.556	113.88
590.321	108.88
591.086	105.88
591.851	96.88
592.616	93.88
593.381	94.88
594.146	86.88
594.911	80.88
595.675	80.88
596.44	73.88
597.204	67.88
597.969	66.88
598.733	63.88
599.497	62.88
600.261	61.88
601.025	55.88
601.79	52.88
602.553	52.88
603.317	47.88
604.081	47.88
604.845	49.88
605.609	39.88
606.372	43.88
607.136	40.88
607.899	37.88
608.662	35.88
609.426	35.88
610.189	33.88
610.952	31.88
611.715	35.88
612.478	29.88
613.241	27.88
614.004	24.88
614.767	25.88
615.529	23.88
616.292	27.88
617.055	23.88
617.817	22.88
618.579	21.88
619.342	22.88
620.104	21.88
620.866	20.88
621.628	17.88
622.39	18.88
623.152	17.88
623.914	17.88
624.676	18.88
625.438	15.88
626.199	15.88
626.961	15.88
627.722	12.88
628.484	15.88
629.245	11.88
630.006	15.88
630.768	13.88
631.529	14.88
632.29	11.88
633.051	11.88
633.812	11.88
634.573	12.88
635.333	12.88
636.094	11.88
636.855	8.88
637.615	10.88
638.376	9.88
639.136	10.88
639.896	9.88
640.657	8.88
641.417	7.88
642.177	8.88
642.937	8.88
643.697	6.88
644.457	8.88
645.216	8.88
645.976	8.88
646.736	9.88
647.495	4.88
648.255	5.88
649.014	10.88
649.774	6.88
650.533	6.88
651.292	7.88
652.051	6.88
652.81	7.88
653.569	7.88
654.328	8.88
655.087	6.88
655.846	9.88
656.604	4.88
657.363	8.88
658.121	6.88
658.88	4.88
659.638	5.88
660.397	5.88
661.155	6.88
661.913	3.88
662.671	6.88
663.429	6.88
664.187	3.88
664.945	6.88
665.703	6.88
666.46	5.88
667.218	3.88
667.976	6.88
668.733	3.88
669.49	4.88
670.248	3.88
671.005	3.88
671.762	6.88
672.519	3.88
673.276	3.88
674.033	4.88
674.79	3.88
675.547	5.88
676.304	3.88
677.06	7.88
677.817	3.88
678.574	5.88
679.33	2.88
680.086	2.88
680.843	4.88
681.599	3.88
682.355	2.88
683.111	4.88
683.867	4.88
684.623	4.88
685.379	2.88
686.135	3.88
686.89	3.88
687.646	3.88
688.402	2.88
689.157	3.88
689.912	5.88
690.668	4.88
691.423	4.88
692.178	1.88
692.933	1.88
693.688	4.88
694.443	1.88
695.198	3.88
695.953	4.88
696.708	4.88
697.462	4.88
698.217	4.88
698.972	4.88
699.726	2.88
700.48	4.88
701.235	1.88
701.989	2.88
702.743	4.88
703.497	3.88
704.251	1.88
705.005	6.88
705.759	3.88
706.513	4.88
707.266	2.88
708.02	2.88
708.774	2.88
709.527	3.88
710.28	3.88
711.034	3.88
711.787	3.88
712.54	1.88
713.293	4.88
714.046	3.88
714.799	2.88
715.552	5.88
716.305	3.88
717.058	3.88
717.81	4.88
718.563	4.88
719.315	4.88
720.068	4.88
720.82	3.88
721.573	2.88
722.325	2.88
723.077	1.88
723.829	3.88
724.581	2.88
725.333	4.88
726.085	5.88
726.836	3.88
727.588	5.88
728.34	4.88
729.091	2.88
729.843	4.88
730.594	4.88
731.346	2.88
732.097	3.88
732.848	4.88
733.599	3.88
734.35	5.88
735.101	4.88
735.852	3.88
736.603	6.88
737.354	3.88
738.104	3.88
738.855	3.88
739.605	3.88
740.356	5.88
741.106	2.88
741.856	5.88
742.607	1.88
743.357	5.88
744.107	4.88
744.857	4.88
745.607	4.88
746.357	4.88
747.106	3.88
747.856	3.88
748.606	5.88
749.355	3.88
750.105	0.88
750.854	5.88
751.603	4.88
752.353	4.88
753.102	6.88
753.851	3.88
754.6	5.88
755.349	3.88
756.098	6.88
756.847	6.88
757.595	5.88
758.344	7.88
759.093	7.88
759.841	4.88
760.589	6.88
761.338	7.88
762.086	4.88
762.834	3.88
763.582	6.88
764.331	7.88
765.079	4.88
765.826	7.88
766.574	7.88
767.322	8.88
768.07	5.88
768.817	7.88
769.565	5.88
770.312	7.88
771.06	8.88
771.807	8.88
772.554	7.88
773.302	9.88
774.049	8.88
774.796	7.88
775.543	9.88
776.29	8.88
777.036	7.88
777.783	8.88
778.53	8.88
779.276	8.88
780.023	5.88
780.769	8.88
781.516	8.88
782.262	9.88
783.008	8.88
783.754	7.88
784.5	9.88
785.246	7.88
785.992	9.88
786.738	7.88
787.484	8.88
788.23	8.88
788.975	7.88
789.721	10.88
790.466	9.88
791.212	9.88
791.957	7.88
792.702	8.88
793.447	9.88
794.193	8.88
794.938	7.88
795.683	8.88
796.427	5.88
797.172	6.88
797.917	9.88
798.662	5.88
799.406	6.88
800.151	7.88
800.895	8.88
801.64	7.88
802.384	8.88
803.128	6.88
803.872	6.88
804.616	8.88
805.36	8.88
806.104	7.88
806.848	8.88
807.592	5.88
808.336	5.88
809.079	3.88
809.823	5.88
810.566	5.88
811.31	7.88
812.053	5.88
812.796	4.88
813.539	8.88
814.283	4.88
815.026	4.88
815.769	5.88
816.511	4.88
817.254	3.88
817.997	5.88
818.74	3.88
819.482	4.88
820.225	4.88
820.967	2.88
821.71	5.88
822.452	4.88
823.194	3.88
823.936	5.88
824.678	4.88
825.42	6.88
826.162	2.88
826.904	2.88
827.646	4.88
828.388	4.88
829.129	4.88
829.871	1.88
830.612	5.88
831.354	4.88
832.095	4.88
832.836	4.88
833.577	2.88
834.319	5.88
835.06	2.88
835.801	5.88
836.542	1.88
837.282	1.88
838.023	2.88
838.764	3.88
839.504	3.88
840.245	4.88
840.985	1.88
841.726	4.88
842.466	4.88
843.206	3.88
843.946	2.88
844.687	4.88
845.427	1.88
846.166	2.88
846.906	3.88
847.646	2.88
848.386	1.88
849.125	3.88
849.865	3.88
850.605	1.88
851.344	3.88
852.083	3.88
852.823	0.88
853.562	3.88
854.301	1.88
855.04	2.88
855.779	2.88
856.518	0.88
857.257	2.88
857.995	1.88
858.734	2.88
859.473	3.88
860.211	1.88
860.95	0.88
861.688	4.88
862.426	3.88
863.165	1.88
863.903	1.88
864.641	1.88
865.379	-1.12
866.117	1.88
866.855	-0.12
867.593	2.88
868.33	0.88
869.068	0.88
869.806	0.88
870.543	-0.12
871.28	1.88
872.018	1.88
872.755	2.88
873.492	1.88
874.229	1.88
874.967	-0.12
875.703	0.88
876.44	0.88
877.177	0.88
877.914	0.88
878.651	0.88
879.387	-1.12
880.124	1.88
880.86	0.88
881.597	1.88
882.333	0.88
883.069	1.88
883.806	0.88
884.542	1.88
885.278	2.88
886.014	-0.12
886.749	-0.12
887.485	0.88
888.221	2.88
888.957	0.88
889.692	-0.12
890.428	0.88
891.163	0.88
891.899	-0.12
892.634	3.88
893.369	0.88
894.104	0.88
894.839	0.88
895.574	0.88
896.309	1.88
897.044	-0.12
897.779	0.88
898.514	0.88
899.248	0.88
899.983	1.88
900.717	1.88
901.452	1.88
902.186	-0.12
902.92	3.88
903.654	1.88
904.389	-0.12
905.123	0.88
905.857	-0.12
906.59	1.88
907.324	-0.12
908.058	-0.12
908.792	2.88
909.525	0.88
910.259	1.88
910.992	-0.12
911.726	1.88
912.459	-1.12
913.192	0.88
913.925	0.88
914.658	0.88
915.391	-1.12
916.124	1.88
916.857	1.88
917.59	0.88
918.323	0.88
919.055	0.88
919.788	-0.12
920.521	2.88
921.253	-1.12
921.985	-0.12
922.718	-0.12
923.45	1.88
924.182	1.88
924.914	0.88
925.646	1.88
926.378	0.88
927.11	-0.12
927.841	-1.12
928.573	2.88
929.305	-0.12
930.036	0.88
930.768	1.88
931.499	-1.12
932.23	2.88
932.962	-1.12
933.693	1.88
934.424	0.88
935.155	1.88
935.886	-0.12
936.617	-0.12
937.348	-0.12
938.078	-0.12
938.809	-1.12
939.54	-0.12
940.27	-0.12
941.001	-0.12
941.731	-2.12
942.461	-0.12
943.191	-2.12
943.922	0.88
944.652	0.88
945.382	-0.12
946.112	2.88
946.841	-2.12
947.571	-0.12
948.301	0.88
949.031	1.88
949.76	-1.12
950.49	-0.12
951.219	2.88
951.948	-0.12
952.678	1.88
953.407	-1.12
954.136	0.88
954.865	0.88
955.594	-0.12
956.323	0.88
957.052	0.88
957.78	-0.12
958.509	1.88
959.238	-2.12
959.966	-0.12
960.695	-0.12
961.423	0.88
962.151	-0.12
962.88	0.88
963.608	3.88
964.336	1.88
965.064	-0.12
965.792	0.88
966.52	-0.12
967.247	0.88
967.975	-0.12
968.703	-0.12
969.43	-2.12
970.158	0.88
970.885	-0.12
971.613	0.88
972.34	-2.12
973.067	1.88
973.794	0.88
974.521	-0.12
975.248	0.88
975.975	-0.12
976.702	1.88
977.429	0.88
978.156	0.88
978.882	1.88
979.609	-0.12
980.335	0.88
981.062	0.88
981.788	0.88
982.514	0.88
983.24	-1.12
983.967	1.88
984.693	1.88
985.419	-0.12
986.144	0.88
986.87	-0.12
987.596	0.88
988.322	-0.12
989.047	-0.12
989.773	-0.12
990.498	-1.12
991.224	-0.12
991.949	0.88
992.674	0.88
993.399	-0.12
994.124	-2.12
994.849	-0.12
995.574	-1.12
996.299	1.88
997.024	1.88
997.749	-0.12
998.473	-0.12
999.198	-1.12
999.922	1.88
1000.647	-0.12
1001.371	2.88
1002.095	-0.12
1002.82	-1.12
1003.544	-2.12
1004.268	0.88
1004.992	1.88
1005.716	0.88
1006.439	3.88
1007.163	1.88
1007.887	1.88
1008.611	0.88
1009.334	1.88
1010.058	-0.12
1010.781	-0.12
1011.504	1.88
1012.228	0.88
1012.951	-0.12
1013.674	-0.12
1014.397	1.88
1015.12	-1.12
