节点500_285_QEPB04081__754__15-08-05-818.txt的数据

Date: Wed Nov 12 15:08:05 CST 2025
User: PC
Spectrometer: QEPB0408
触发模式: 0
积分时间 (秒): 1.000000E-2
Scans to average: 1
启用暗噪声校正: true
启用非线性校正: false
滑动平均宽度: 0
X轴模式: Wavelengths
Number of Pixels in Spectrum: 1044
>>>>>Begin Spectral Data<<<<<
220.843	2.5
221.644	1.5
222.444	1.5
223.244	2.5
224.045	1.5
224.845	3.5
225.645	1.5
226.445	2.5
227.245	1.5
228.045	2.5
228.845	2.5
229.645	2.5
230.444	3.5
231.244	2.5
232.043	4.5
232.843	3.5
233.642	1.5
234.442	3.5
235.241	5.5
236.04	2.5
236.839	4.5
237.638	2.5
238.437	5.5
239.236	3.5
240.035	4.5
240.833	4.5
241.632	5.5
242.43	5.5
243.229	5.5
244.027	4.5
244.826	5.5
245.624	5.5
246.422	6.5
247.22	4.5
248.018	3.5
248.816	3.5
249.614	4.5
250.412	6.5
251.21	6.5
252.007	4.5
252.805	3.5
253.602	5.5
254.4	7.5
255.197	6.5
255.994	7.5
256.791	6.5
257.589	5.5
258.386	7.5
259.183	7.5
259.979	7.5
260.776	8.5
261.573	8.5
262.37	8.5
263.166	8.5
263.963	9.5
264.759	8.5
265.556	12.5
266.352	9.5
267.148	11.5
267.944	11.5
268.74	8.5
269.536	13.5
270.332	11.5
271.128	14.5
271.924	13.5
272.719	12.5
273.515	13.5
274.311	12.5
275.106	12.5
275.901	15.5
276.697	15.5
277.492	17.5
278.287	12.5
279.082	19.5
279.877	13.5
280.672	17.5
281.467	15.5
282.262	13.5
283.056	15.5
283.851	18.5
284.646	17.5
285.44	17.5
286.234	17.5
287.029	17.5
287.823	17.5
288.617	16.5
289.411	13.5
290.205	18.5
290.999	16.5
291.793	17.5
292.587	15.5
293.381	18.5
294.174	16.5
294.968	12.5
295.761	13.5
296.555	18.5
297.348	12.5
298.141	15.5
298.935	15.5
299.728	14.5
300.521	13.5
301.314	13.5
302.107	11.5
302.899	11.5
303.692	13.5
304.485	10.5
305.277	13.5
306.07	12.5
306.862	12.5
307.655	11.5
308.447	11.5
309.239	12.5
310.031	9.5
310.823	11.5
311.615	10.5
312.407	8.5
313.199	9.5
313.991	8.5
314.783	10.5
315.574	6.5
316.366	8.5
317.157	5.5
317.949	7.5
318.74	9.5
319.531	8.5
320.322	8.5
321.113	7.5
321.904	8.5
322.695	8.5
323.486	6.5
324.277	7.5
325.068	6.5
325.858	9.5
326.649	6.5
327.439	7.5
328.23	9.5
329.02	6.5
329.81	5.5
330.6	7.5
331.391	4.5
332.181	5.5
332.971	4.5
333.76	4.5
334.55	6.5
335.34	7.5
336.13	4.5
336.919	6.5
337.709	8.5
338.498	5.5
339.287	6.5
340.077	8.5
340.866	4.5
341.655	5.5
342.444	6.5
343.233	6.5
344.022	5.5
344.811	6.5
345.6	5.5
346.388	7.5
347.177	4.5
347.965	6.5
348.754	6.5
349.542	5.5
350.33	7.5
351.119	6.5
351.907	5.5
352.695	4.5
353.483	5.5
354.271	5.5
355.059	5.5
355.846	4.5
356.634	4.5
357.422	6.5
358.209	5.5
358.997	3.5
359.784	5.5
360.571	6.5
361.359	6.5
362.146	0.5
362.933	5.5
363.72	5.5
364.507	2.5
365.294	3.5
366.081	6.5
366.867	5.5
367.654	4.5
368.44	5.5
369.227	6.5
370.013	4.5
370.8	6.5
371.586	5.5
372.372	5.5
373.158	5.5
373.944	4.5
374.73	4.5
375.516	3.5
376.302	3.5
377.088	7.5
377.873	5.5
378.659	4.5
379.445	3.5
380.23	1.5
381.015	4.5
381.801	5.5
382.586	4.5
383.371	5.5
384.156	6.5
384.941	4.5
385.726	4.5
386.511	4.5
387.296	6.5
388.08	7.5
388.865	5.5
389.649	4.5
390.434	4.5
391.218	6.5
392.003	5.5
392.787	6.5
393.571	6.5
394.355	4.5
395.139	8.5
395.923	6.5
396.707	5.5
397.491	4.5
398.274	4.5
399.058	6.5
399.842	7.5
400.625	2.5
401.408	5.5
402.192	5.5
402.975	7.5
403.758	7.5
404.541	7.5
405.324	6.5
406.107	7.5
406.89	5.5
407.673	9.5
408.456	6.5
409.238	8.5
410.021	6.5
410.803	8.5
411.586	7.5
412.368	6.5
413.151	9.5
413.933	8.5
414.715	9.5
415.497	8.5
416.279	8.5
417.061	10.5
417.843	7.5
418.624	11.5
419.406	9.5
420.188	8.5
420.969	8.5
421.751	10.5
422.532	10.5
423.313	10.5
424.095	10.5
424.876	10.5
425.657	11.5
426.438	10.5
427.219	9.5
428	13.5
428.78	11.5
429.561	13.5
430.342	13.5
431.122	15.5
431.903	14.5
432.683	14.5
433.464	11.5
434.244	13.5
435.024	16.5
435.804	16.5
436.584	20.5
437.364	22.5
438.144	17.5
438.924	21.5
439.704	20.5
440.483	20.5
441.263	21.5
442.042	25.5
442.822	26.5
443.601	29.5
444.38	30.5
445.16	36.5
445.939	35.5
446.718	39.5
447.497	42.5
448.276	45.5
449.054	47.5
449.833	53.5
450.612	56.5
451.391	61.5
452.169	70.5
452.948	72.5
453.726	80.5
454.504	90.5
455.282	100.5
456.061	112.5
456.839	119.5
457.617	134.5
458.395	153.5
459.172	169.5
459.95	188.5
460.728	206.5
461.506	229.5
462.283	251.5
463.061	290.5
463.838	315.5
464.615	355.5
465.393	397.5
466.17	431.5
466.947	484.5
467.724	533.5
468.501	597.5
469.278	662.5
470.055	733.5
470.831	806.5
471.608	897.5
472.385	993.5
473.161	1094.5
473.938	1222.5
474.714	1326.5
475.49	1466.5
476.266	1618.5
477.043	1772.5
477.819	1946.5
478.595	2119.5
479.371	2320.5
480.146	2541.5
480.922	2808.5
481.698	3093.5
482.473	3342.5
483.249	3670.5
484.024	4002.5
484.8	4381.5
485.575	4772.5
486.35	5190.5
487.126	5649.5
487.901	6150.5
488.676	6659.5
489.451	7290.5
490.225	7933.5
491	8609.5
491.775	9331.5
492.55	10123.5
493.324	10934.5
494.099	11705.5
494.873	12616.5
495.647	13572.5
496.422	14548.5
497.196	15533.5
497.97	16601.5
498.744	17703.5
499.518	18641.5
500.292	19753.5
501.066	20684.5
501.839	21636.5
502.613	22550.5
503.387	23395.5
504.16	24040.5
504.934	24541.5
505.707	24881.5
506.48	25182.5
507.253	25343.5
508.027	25283.5
508.8	25252.5
509.573	25053.5
510.346	24651.5
511.118	24189.5
511.891	23630.5
512.664	22939.5
513.437	22259.5
514.209	21468.5
514.982	20662.5
515.754	19871.5
516.526	19088.5
517.298	18295.5
518.071	17584.5
518.843	16860.5
519.615	16277.5
520.387	15639.5
521.159	15046.5
521.93	14417.5
522.702	13830.5
523.474	13313.5
524.245	12680.5
525.017	12173.5
525.788	11717.5
526.56	11239.5
527.331	10751.5
528.102	10291.5
528.873	9810.5
529.644	9342.5
530.415	8946.5
531.186	8544.5
531.957	8072.5
532.728	7717.5
533.498	7327.5
534.269	6947.5
535.039	6595.5
535.81	6228.5
536.58	5905.5
537.351	5571.5
538.121	5233.5
538.891	4967.5
539.661	4726.5
540.431	4418.5
541.201	4199.5
541.971	4005.5
542.741	3774.5
543.51	3598.5
544.28	3409.5
545.05	3241.5
545.819	3083.5
546.588	2902.5
547.358	2782.5
548.127	2664.5
548.896	2534.5
549.665	2382.5
550.434	2265.5
551.203	2150.5
551.972	2039.5
552.741	1933.5
553.51	1827.5
554.278	1731.5
555.047	1639.5
555.815	1533.5
556.584	1456.5
557.352	1385.5
558.121	1308.5
558.889	1229.5
559.657	1159.5
560.425	1104.5
561.193	1032.5
561.961	971.5
562.729	927.5
563.496	869.5
564.264	823.5
565.032	784.5
565.799	732.5
566.567	684.5
567.334	666.5
568.101	628.5
568.869	600.5
569.636	555.5
570.403	514.5
571.17	493.5
571.937	460.5
572.704	442.5
573.471	409.5
574.237	385.5
575.004	371.5
575.771	340.5
576.537	322.5
577.303	304.5
578.07	286.5
578.836	278.5
579.602	251.5
580.368	242.5
581.134	229.5
581.9	218.5
582.666	205.5
583.432	191.5
584.198	190.5
584.964	177.5
585.729	165.5
586.495	158.5
587.26	153.5
588.025	141.5
588.791	135.5
589.556	128.5
590.321	124.5
591.086	113.5
591.851	112.5
592.616	103.5
593.381	97.5
594.146	90.5
594.911	90.5
595.675	86.5
596.44	80.5
597.204	79.5
597.969	77.5
598.733	74.5
599.497	68.5
600.261	63.5
601.025	61.5
601.79	56.5
602.553	55.5
603.317	54.5
604.081	50.5
604.845	47.5
605.609	46.5
606.372	42.5
607.136	43.5
607.899	42.5
608.662	37.5
609.426	39.5
610.189	33.5
610.952	35.5
611.715	33.5
612.478	30.5
613.241	29.5
614.004	28.5
614.767	27.5
615.529	25.5
616.292	26.5
617.055	25.5
617.817	23.5
618.579	24.5
619.342	23.5
620.104	18.5
620.866	22.5
621.628	18.5
622.39	22.5
623.152	20.5
623.914	18.5
624.676	17.5
625.438	16.5
626.199	14.5
626.961	15.5
627.722	16.5
628.484	15.5
629.245	14.5
630.006	16.5
630.768	13.5
631.529	13.5
632.29	10.5
633.051	12.5
633.812	9.5
634.573	11.5
635.333	11.5
636.094	9.5
636.855	11.5
637.615	10.5
638.376	8.5
639.136	10.5
639.896	8.5
640.657	11.5
641.417	10.5
642.177	9.5
642.937	8.5
643.697	9.5
644.457	6.5
645.216	9.5
645.976	7.5
646.736	8.5
647.495	6.5
648.255	8.5
649.014	9.5
649.774	8.5
650.533	10.5
651.292	7.5
652.051	8.5
652.81	8.5
653.569	3.5
654.328	7.5
655.087	4.5
655.846	4.5
656.604	6.5
657.363	4.5
658.121	8.5
658.88	4.5
659.638	7.5
660.397	5.5
661.155	4.5
661.913	4.5
662.671	5.5
663.429	4.5
664.187	2.5
664.945	7.5
665.703	3.5
666.46	3.5
667.218	4.5
667.976	3.5
668.733	3.5
669.49	3.5
670.248	4.5
671.005	6.5
671.762	4.5
672.519	5.5
673.276	3.5
674.033	5.5
674.79	3.5
675.547	4.5
676.304	4.5
677.06	3.5
677.817	4.5
678.574	4.5
679.33	2.5
680.086	5.5
680.843	4.5
681.599	2.5
682.355	3.5
683.111	6.5
683.867	4.5
684.623	1.5
685.379	3.5
686.135	4.5
686.89	3.5
687.646	2.5
688.402	4.5
689.157	3.5
689.912	4.5
690.668	3.5
691.423	4.5
692.178	3.5
692.933	3.5
693.688	4.5
694.443	2.5
695.198	2.5
695.953	4.5
696.708	2.5
697.462	5.5
698.217	3.5
698.972	5.5
699.726	3.5
700.48	2.5
701.235	2.5
701.989	2.5
702.743	2.5
703.497	4.5
704.251	3.5
705.005	4.5
705.759	2.5
706.513	4.5
707.266	1.5
708.02	3.5
708.774	2.5
709.527	2.5
710.28	3.5
711.034	3.5
711.787	4.5
712.54	2.5
713.293	2.5
714.046	3.5
714.799	2.5
715.552	4.5
716.305	-0.5
717.058	3.5
717.81	1.5
718.563	2.5
719.315	2.5
720.068	5.5
720.82	4.5
721.573	1.5
722.325	2.5
723.077	2.5
723.829	1.5
724.581	3.5
725.333	3.5
726.085	3.5
726.836	3.5
727.588	2.5
728.34	2.5
729.091	1.5
729.843	3.5
730.594	3.5
731.346	2.5
732.097	4.5
732.848	3.5
733.599	4.5
734.35	3.5
735.101	3.5
735.852	3.5
736.603	0.5
737.354	4.5
738.104	3.5
738.855	2.5
739.605	3.5
740.356	3.5
741.106	2.5
741.856	4.5
742.607	4.5
743.357	3.5
744.107	4.5
744.857	2.5
745.607	4.5
746.357	3.5
747.106	4.5
747.856	3.5
748.606	3.5
749.355	3.5
750.105	4.5
750.854	3.5
751.603	3.5
752.353	3.5
753.102	5.5
753.851	3.5
754.6	4.5
755.349	3.5
756.098	4.5
756.847	3.5
757.595	5.5
758.344	7.5
759.093	4.5
759.841	4.5
760.589	2.5
761.338	6.5
762.086	5.5
762.834	7.5
763.582	7.5
764.331	6.5
765.079	6.5
765.826	5.5
766.574	5.5
767.322	7.5
768.07	6.5
768.817	5.5
769.565	4.5
770.312	7.5
771.06	5.5
771.807	6.5
772.554	7.5
773.302	7.5
774.049	6.5
774.796	6.5
775.543	6.5
776.29	9.5
777.036	8.5
777.783	7.5
778.53	6.5
779.276	8.5
780.023	6.5
780.769	7.5
781.516	9.5
782.262	10.5
783.008	7.5
783.754	7.5
784.5	7.5
785.246	8.5
785.992	7.5
786.738	7.5
787.484	6.5
788.23	10.5
788.975	4.5
789.721	8.5
790.466	7.5
791.212	8.5
791.957	7.5
792.702	7.5
793.447	9.5
794.193	7.5
794.938	8.5
795.683	7.5
796.427	5.5
797.172	6.5
797.917	4.5
798.662	7.5
799.406	6.5
800.151	7.5
800.895	8.5
801.64	9.5
802.384	6.5
803.128	5.5
803.872	5.5
804.616	5.5
805.36	8.5
806.104	6.5
806.848	4.5
807.592	6.5
808.336	4.5
809.079	6.5
809.823	7.5
810.566	5.5
811.31	5.5
812.053	5.5
812.796	4.5
813.539	5.5
814.283	6.5
815.026	6.5
815.769	4.5
816.511	5.5
817.254	4.5
817.997	5.5
818.74	5.5
819.482	6.5
820.225	2.5
820.967	5.5
821.71	0.5
822.452	1.5
823.194	3.5
823.936	2.5
824.678	3.5
825.42	4.5
826.162	2.5
826.904	3.5
827.646	0.5
828.388	3.5
829.129	4.5
829.871	2.5
830.612	3.5
831.354	1.5
832.095	2.5
832.836	4.5
833.577	4.5
834.319	3.5
835.06	2.5
835.801	3.5
836.542	3.5
837.282	6.5
838.023	2.5
838.764	2.5
839.504	4.5
840.245	2.5
840.985	4.5
841.726	2.5
842.466	6.5
843.206	2.5
843.946	3.5
844.687	3.5
845.427	3.5
846.166	1.5
846.906	1.5
847.646	3.5
848.386	3.5
849.125	4.5
849.865	0.5
850.605	3.5
851.344	2.5
852.083	1.5
852.823	4.5
853.562	4.5
854.301	1.5
855.04	3.5
855.779	1.5
856.518	-0.5
857.257	3.5
857.995	1.5
858.734	4.5
859.473	1.5
860.211	3.5
860.95	1.5
861.688	-0.5
862.426	2.5
863.165	0.5
863.903	3.5
864.641	0.5
865.379	0.5
866.117	0.5
866.855	0.5
867.593	1.5
868.33	3.5
869.068	0.5
869.806	0.5
870.543	1.5
871.28	0.5
872.018	3.5
872.755	2.5
873.492	0.5
874.229	0.5
874.967	1.5
875.703	2.5
876.44	0.5
877.177	-0.5
877.914	1.5
878.651	1.5
879.387	1.5
880.124	-0.5
880.86	1.5
881.597	0.5
882.333	2.5
883.069	-0.5
883.806	-1.5
884.542	1.5
885.278	-3.5
886.014	1.5
886.749	-1.5
887.485	0.5
888.221	1.5
888.957	-0.5
889.692	1.5
890.428	-0.5
891.163	3.5
891.899	-2.5
892.634	3.5
893.369	0.5
894.104	0.5
894.839	0.5
895.574	-2.5
896.309	2.5
897.044	-0.5
897.779	-1.5
898.514	0.5
899.248	0.5
899.983	2.5
900.717	1.5
901.452	-1.5
902.186	1.5
902.92	-2.5
903.654	0.5
904.389	-0.5
905.123	-0.5
905.857	-2.5
906.59	0.5
907.324	-1.5
908.058	0.5
908.792	-0.5
909.525	-0.5
910.259	-0.5
910.992	-1.5
911.726	1.5
912.459	1.5
913.192	-0.5
913.925	-1.5
914.658	2.5
915.391	-2.5
916.124	-2.5
916.857	-1.5
917.59	-1.5
918.323	0.5
919.055	0.5
919.788	-0.5
920.521	0.5
921.253	0.5
921.985	-0.5
922.718	-0.5
923.45	-0.5
924.182	0.5
924.914	-2.5
925.646	1.5
926.378	1.5
927.11	-1.5
927.841	-0.5
928.573	-1.5
929.305	-0.5
930.036	-0.5
930.768	0.5
931.499	1.5
932.23	-2.5
932.962	-0.5
933.693	-0.5
934.424	2.5
935.155	0.5
935.886	1.5
936.617	0.5
937.348	-1.5
938.078	1.5
938.809	-0.5
939.54	0.5
940.27	-0.5
941.001	-1.5
941.731	-1.5
942.461	-0.5
943.191	-0.5
943.922	-0.5
944.652	-0.5
945.382	-1.5
946.112	1.5
946.841	1.5
947.571	-2.5
948.301	0.5
949.031	-0.5
949.76	-0.5
950.49	0.5
951.219	0.5
951.948	0.5
952.678	-1.5
953.407	0.5
954.136	1.5
954.865	-0.5
955.594	0.5
956.323	1.5
957.052	2.5
957.78	1.5
958.509	-0.5
959.238	0.5
959.966	-1.5
960.695	0.5
961.423	-0.5
962.151	0.5
962.88	0.5
963.608	1.5
964.336	-1.5
965.064	1.5
965.792	-0.5
966.52	-1.5
967.247	-1.5
967.975	-0.5
968.703	-0.5
969.43	-0.5
970.158	-3.5
970.885	1.5
971.613	-2.5
972.34	1.5
973.067	-0.5
973.794	1.5
974.521	-1.5
975.248	0.5
975.975	1.5
976.702	1.5
977.429	-0.5
978.156	-0.5
978.882	-2.5
979.609	-0.5
980.335	0.5
981.062	1.5
981.788	1.5
982.514	0.5
983.24	0.5
983.967	-1.5
984.693	-0.5
985.419	-0.5
986.144	-0.5
986.87	-1.5
987.596	1.5
988.322	1.5
989.047	-2.5
989.773	1.5
990.498	-1.5
991.224	1.5
991.949	0.5
992.674	-1.5
993.399	0.5
994.124	2.5
994.849	-2.5
995.574	-0.5
996.299	1.5
997.024	-0.5
997.749	-0.5
998.473	0.5
999.198	-3.5
999.922	-0.5
1000.647	-0.5
1001.371	2.5
1002.095	-0.5
1002.82	-1.5
1003.544	-0.5
1004.268	1.5
1004.992	1.5
1005.716	-1.5
1006.439	0.5
1007.163	2.5
1007.887	1.5
1008.611	0.5
1009.334	1.5
1010.058	1.5
1010.781	0.5
1011.504	-1.5
1012.228	0.5
1012.951	0.5
1013.674	-0.5
1014.397	-0.5
1015.12	0.5
