节点500_285_QEPB04081__69__14-56-42-352.txt的数据

Date: Wed Nov 12 14:56:42 CST 2025
User: PC
Spectrometer: QEPB0408
触发模式: 0
积分时间 (秒): 1.000000E-2
Scans to average: 1
启用暗噪声校正: true
启用非线性校正: false
滑动平均宽度: 0
X轴模式: Wavelengths
Number of Pixels in Spectrum: 1044
>>>>>Begin Spectral Data<<<<<
220.843	2.62
221.644	0.62
222.444	-2.38
223.244	3.62
224.045	0.62
224.845	1.62
225.645	4.62
226.445	1.62
227.245	2.62
228.045	2.62
228.845	0.62
229.645	0.62
230.444	3.62
231.244	2.62
232.043	2.62
232.843	1.62
233.642	2.62
234.442	0.62
235.241	2.62
236.04	0.62
236.839	5.62
237.638	4.62
238.437	2.62
239.236	3.62
240.035	2.62
240.833	4.62
241.632	4.62
242.43	5.62
243.229	3.62
244.027	1.62
244.826	5.62
245.624	4.62
246.422	6.62
247.22	3.62
248.018	5.62
248.816	7.62
249.614	6.62
250.412	5.62
251.21	6.62
252.007	3.62
252.805	6.62
253.602	7.62
254.4	7.62
255.197	9.62
255.994	8.62
256.791	7.62
257.589	9.62
258.386	8.62
259.183	8.62
259.979	11.62
260.776	12.62
261.573	10.62
262.37	11.62
263.166	10.62
263.963	11.62
264.759	11.62
265.556	13.62
266.352	12.62
267.148	13.62
267.944	16.62
268.74	13.62
269.536	15.62
270.332	16.62
271.128	13.62
271.924	14.62
272.719	16.62
273.515	18.62
274.311	16.62
275.106	19.62
275.901	15.62
276.697	16.62
277.492	18.62
278.287	18.62
279.082	18.62
279.877	19.62
280.672	18.62
281.467	20.62
282.262	20.62
283.056	20.62
283.851	20.62
284.646	20.62
285.44	16.62
286.234	18.62
287.029	18.62
287.823	20.62
288.617	20.62
289.411	18.62
290.205	18.62
290.999	20.62
291.793	17.62
292.587	19.62
293.381	15.62
294.174	17.62
294.968	16.62
295.761	15.62
296.555	14.62
297.348	15.62
298.141	15.62
298.935	16.62
299.728	14.62
300.521	13.62
301.314	14.62
302.107	12.62
302.899	14.62
303.692	12.62
304.485	12.62
305.277	12.62
306.07	13.62
306.862	9.62
307.655	12.62
308.447	13.62
309.239	10.62
310.031	13.62
310.823	10.62
311.615	8.62
312.407	8.62
313.199	11.62
313.991	8.62
314.783	7.62
315.574	9.62
316.366	9.62
317.157	8.62
317.949	8.62
318.74	8.62
319.531	8.62
320.322	6.62
321.113	7.62
321.904	8.62
322.695	7.62
323.486	5.62
324.277	6.62
325.068	6.62
325.858	8.62
326.649	9.62
327.439	5.62
328.23	3.62
329.02	7.62
329.81	6.62
330.6	5.62
331.391	8.62
332.181	4.62
332.971	5.62
333.76	5.62
334.55	7.62
335.34	4.62
336.13	6.62
336.919	7.62
337.709	4.62
338.498	8.62
339.287	6.62
340.077	6.62
340.866	4.62
341.655	5.62
342.444	8.62
343.233	5.62
344.022	6.62
344.811	4.62
345.6	6.62
346.388	4.62
347.177	5.62
347.965	8.62
348.754	4.62
349.542	6.62
350.33	5.62
351.119	6.62
351.907	5.62
352.695	3.62
353.483	6.62
354.271	5.62
355.059	5.62
355.846	6.62
356.634	3.62
357.422	7.62
358.209	5.62
358.997	5.62
359.784	6.62
360.571	4.62
361.359	4.62
362.146	5.62
362.933	6.62
363.72	5.62
364.507	4.62
365.294	5.62
366.081	4.62
366.867	5.62
367.654	3.62
368.44	5.62
369.227	6.62
370.013	4.62
370.8	3.62
371.586	3.62
372.372	4.62
373.158	5.62
373.944	5.62
374.73	5.62
375.516	6.62
376.302	4.62
377.088	3.62
377.873	3.62
378.659	2.62
379.445	3.62
380.23	4.62
381.015	6.62
381.801	5.62
382.586	5.62
383.371	6.62
384.156	5.62
384.941	6.62
385.726	5.62
386.511	5.62
387.296	4.62
388.08	7.62
388.865	6.62
389.649	2.62
390.434	4.62
391.218	7.62
392.003	5.62
392.787	5.62
393.571	7.62
394.355	4.62
395.139	7.62
395.923	5.62
396.707	4.62
397.491	7.62
398.274	6.62
399.058	4.62
399.842	6.62
400.625	8.62
401.408	7.62
402.192	10.62
402.975	7.62
403.758	5.62
404.541	8.62
405.324	6.62
406.107	10.62
406.89	10.62
407.673	11.62
408.456	8.62
409.238	6.62
410.021	9.62
410.803	9.62
411.586	8.62
412.368	8.62
413.151	8.62
413.933	8.62
414.715	6.62
415.497	9.62
416.279	10.62
417.061	10.62
417.843	9.62
418.624	9.62
419.406	10.62
420.188	10.62
420.969	10.62
421.751	10.62
422.532	10.62
423.313	10.62
424.095	11.62
424.876	12.62
425.657	10.62
426.438	10.62
427.219	11.62
428	13.62
428.78	10.62
429.561	12.62
430.342	14.62
431.122	12.62
431.903	14.62
432.683	12.62
433.464	13.62
434.244	16.62
435.024	18.62
435.804	15.62
436.584	18.62
437.364	18.62
438.144	19.62
438.924	18.62
439.704	24.62
440.483	19.62
441.263	22.62
442.042	24.62
442.822	21.62
443.601	27.62
444.38	31.62
445.16	29.62
445.939	30.62
446.718	32.62
447.497	35.62
448.276	38.62
449.054	42.62
449.833	44.62
450.612	48.62
451.391	53.62
452.169	55.62
452.948	67.62
453.726	69.62
454.504	74.62
455.282	80.62
456.061	88.62
456.839	98.62
457.617	112.62
458.395	124.62
459.172	142.62
459.95	157.62
460.728	176.62
461.506	186.62
462.283	214.62
463.061	234.62
463.838	266.62
464.615	304.62
465.393	332.62
466.17	370.62
466.947	411.62
467.724	469.62
468.501	528.62
469.278	587.62
470.055	648.62
470.831	720.62
471.608	800.62
472.385	895.62
473.161	1015.62
473.938	1122.62
474.714	1256.62
475.49	1401.62
476.266	1535.62
477.043	1720.62
477.819	1899.62
478.595	2129.62
479.371	2347.62
480.146	2601.62
480.922	2879.62
481.698	3183.62
482.473	3520.62
483.249	3916.62
484.024	4329.62
484.8	4790.62
485.575	5270.62
486.35	5832.62
487.126	6452.62
487.901	7072.62
488.676	7813.62
489.451	8560.62
490.225	9420.62
491	10304.62
491.775	11336.62
492.55	12379.62
493.324	13431.62
494.099	14536.62
494.873	15702.62
495.647	16997.62
496.422	18224.62
497.196	19518.62
497.97	20816.62
498.744	22104.62
499.518	23351.62
500.292	24502.62
501.066	25606.62
501.839	26575.62
502.613	27383.62
503.387	28106.62
504.16	28617.62
504.934	28925.62
505.707	28843.62
506.48	28771.62
507.253	28543.62
508.027	28068.62
508.8	27467.62
509.573	26889.62
510.346	26126.62
511.118	25192.62
511.891	24272.62
512.664	23336.62
513.437	22326.62
514.209	21302.62
514.982	20391.62
515.754	19445.62
516.526	18584.62
517.298	17721.62
518.071	16982.62
518.843	16326.62
519.615	15676.62
520.387	15017.62
521.159	14464.62
521.93	13896.62
522.702	13291.62
523.474	12759.62
524.245	12232.62
525.017	11690.62
525.788	11234.62
526.56	10683.62
527.331	10185.62
528.102	9743.62
528.873	9208.62
529.644	8711.62
530.415	8327.62
531.186	7868.62
531.957	7456.62
532.728	7056.62
533.498	6664.62
534.269	6267.62
535.039	5931.62
535.81	5626.62
536.58	5284.62
537.351	4993.62
538.121	4695.62
538.891	4448.62
539.661	4199.62
540.431	3972.62
541.201	3748.62
541.971	3580.62
542.741	3362.62
543.51	3213.62
544.28	3074.62
545.05	2894.62
545.819	2755.62
546.588	2599.62
547.358	2508.62
548.127	2363.62
548.896	2239.62
549.665	2140.62
550.434	2022.62
551.203	1910.62
551.972	1784.62
552.741	1687.62
553.51	1603.62
554.278	1509.62
555.047	1425.62
555.815	1344.62
556.584	1262.62
557.352	1198.62
558.121	1134.62
558.889	1066.62
559.657	1005.62
560.425	944.62
561.193	896.62
561.961	847.62
562.729	797.62
563.496	759.62
564.264	717.62
565.032	675.62
565.799	628.62
566.567	606.62
567.334	571.62
568.101	538.62
568.869	506.62
569.636	478.62
570.403	454.62
571.17	428.62
571.937	399.62
572.704	375.62
573.471	357.62
574.237	344.62
575.004	318.62
575.771	304.62
576.537	279.62
577.303	254.62
578.07	249.62
578.836	233.62
579.602	221.62
580.368	214.62
581.134	205.62
581.9	189.62
582.666	174.62
583.432	166.62
584.198	164.62
584.964	156.62
585.729	141.62
586.495	132.62
587.26	132.62
588.025	123.62
588.791	119.62
589.556	112.62
590.321	108.62
591.086	100.62
591.851	90.62
592.616	88.62
593.381	86.62
594.146	80.62
594.911	79.62
595.675	68.62
596.44	70.62
597.204	67.62
597.969	65.62
598.733	58.62
599.497	60.62
600.261	55.62
601.025	58.62
601.79	54.62
602.553	47.62
603.317	48.62
604.081	44.62
604.845	41.62
605.609	40.62
606.372	39.62
607.136	33.62
607.899	34.62
608.662	36.62
609.426	33.62
610.189	28.62
610.952	26.62
611.715	29.62
612.478	28.62
613.241	25.62
614.004	27.62
614.767	24.62
615.529	23.62
616.292	23.62
617.055	22.62
617.817	22.62
618.579	20.62
619.342	21.62
620.104	20.62
620.866	19.62
621.628	19.62
622.39	18.62
623.152	20.62
623.914	18.62
624.676	15.62
625.438	15.62
626.199	16.62
626.961	16.62
627.722	15.62
628.484	14.62
629.245	12.62
630.006	12.62
630.768	15.62
631.529	12.62
632.29	15.62
633.051	12.62
633.812	10.62
634.573	10.62
635.333	9.62
636.094	9.62
636.855	10.62
637.615	9.62
638.376	9.62
639.136	7.62
639.896	9.62
640.657	6.62
641.417	5.62
642.177	8.62
642.937	8.62
643.697	8.62
644.457	6.62
645.216	10.62
645.976	6.62
646.736	5.62
647.495	6.62
648.255	3.62
649.014	5.62
649.774	9.62
650.533	5.62
651.292	8.62
652.051	5.62
652.81	5.62
653.569	5.62
654.328	4.62
655.087	7.62
655.846	5.62
656.604	5.62
657.363	5.62
658.121	6.62
658.88	5.62
659.638	7.62
660.397	3.62
661.155	3.62
661.913	3.62
662.671	5.62
663.429	3.62
664.187	5.62
664.945	2.62
665.703	4.62
666.46	0.62
667.218	5.62
667.976	6.62
668.733	3.62
669.49	5.62
670.248	5.62
671.005	6.62
671.762	5.62
672.519	6.62
673.276	2.62
674.033	3.62
674.79	4.62
675.547	5.62
676.304	3.62
677.06	2.62
677.817	3.62
678.574	4.62
679.33	3.62
680.086	3.62
680.843	4.62
681.599	4.62
682.355	3.62
683.111	4.62
683.867	3.62
684.623	4.62
685.379	2.62
686.135	3.62
686.89	-0.38
687.646	3.62
688.402	2.62
689.157	3.62
689.912	2.62
690.668	4.62
691.423	3.62
692.178	-0.38
692.933	2.62
693.688	4.62
694.443	2.62
695.198	3.62
695.953	2.62
696.708	4.62
697.462	1.62
698.217	3.62
698.972	3.62
699.726	3.62
700.48	1.62
701.235	2.62
701.989	2.62
702.743	5.62
703.497	4.62
704.251	3.62
705.005	2.62
705.759	3.62
706.513	1.62
707.266	4.62
708.02	2.62
708.774	1.62
709.527	2.62
710.28	3.62
711.034	3.62
711.787	1.62
712.54	5.62
713.293	0.62
714.046	2.62
714.799	3.62
715.552	5.62
716.305	3.62
717.058	2.62
717.81	3.62
718.563	3.62
719.315	2.62
720.068	3.62
720.82	2.62
721.573	4.62
722.325	2.62
723.077	2.62
723.829	2.62
724.581	1.62
725.333	4.62
726.085	3.62
726.836	2.62
727.588	4.62
728.34	3.62
729.091	3.62
729.843	3.62
730.594	2.62
731.346	3.62
732.097	4.62
732.848	2.62
733.599	4.62
734.35	5.62
735.101	3.62
735.852	4.62
736.603	4.62
737.354	2.62
738.104	4.62
738.855	1.62
739.605	5.62
740.356	6.62
741.106	5.62
741.856	3.62
742.607	3.62
743.357	4.62
744.107	5.62
744.857	5.62
745.607	3.62
746.357	5.62
747.106	7.62
747.856	4.62
748.606	4.62
749.355	5.62
750.105	4.62
750.854	5.62
751.603	4.62
752.353	4.62
753.102	5.62
753.851	4.62
754.6	6.62
755.349	5.62
756.098	6.62
756.847	4.62
757.595	4.62
758.344	4.62
759.093	5.62
759.841	6.62
760.589	3.62
761.338	8.62
762.086	6.62
762.834	7.62
763.582	6.62
764.331	5.62
765.079	6.62
765.826	8.62
766.574	7.62
767.322	6.62
768.07	6.62
768.817	6.62
769.565	5.62
770.312	8.62
771.06	7.62
771.807	8.62
772.554	7.62
773.302	8.62
774.049	8.62
774.796	6.62
775.543	8.62
776.29	8.62
777.036	8.62
777.783	8.62
778.53	7.62
779.276	11.62
780.023	7.62
780.769	8.62
781.516	7.62
782.262	10.62
783.008	8.62
783.754	8.62
784.5	9.62
785.246	7.62
785.992	7.62
786.738	8.62
787.484	6.62
788.23	9.62
788.975	7.62
789.721	8.62
790.466	7.62
791.212	9.62
791.957	8.62
792.702	6.62
793.447	10.62
794.193	8.62
794.938	9.62
795.683	8.62
796.427	5.62
797.172	7.62
797.917	7.62
798.662	10.62
799.406	7.62
800.151	6.62
800.895	7.62
801.64	7.62
802.384	6.62
803.128	6.62
803.872	7.62
804.616	6.62
805.36	4.62
806.104	6.62
806.848	4.62
807.592	4.62
808.336	4.62
809.079	4.62
809.823	6.62
810.566	4.62
811.31	4.62
812.053	4.62
812.796	3.62
813.539	7.62
814.283	3.62
815.026	4.62
815.769	4.62
816.511	3.62
817.254	4.62
817.997	3.62
818.74	4.62
819.482	3.62
820.225	3.62
820.967	4.62
821.71	4.62
822.452	2.62
823.194	4.62
823.936	2.62
824.678	3.62
825.42	4.62
826.162	2.62
826.904	3.62
827.646	4.62
828.388	3.62
829.129	5.62
829.871	5.62
830.612	2.62
831.354	4.62
832.095	4.62
832.836	3.62
833.577	1.62
834.319	4.62
835.06	2.62
835.801	3.62
836.542	4.62
837.282	1.62
838.023	5.62
838.764	5.62
839.504	3.62
840.245	4.62
840.985	2.62
841.726	3.62
842.466	2.62
843.206	3.62
843.946	3.62
844.687	0.62
845.427	2.62
846.166	1.62
846.906	3.62
847.646	4.62
848.386	1.62
849.125	3.62
849.865	2.62
850.605	4.62
851.344	1.62
852.083	3.62
852.823	4.62
853.562	1.62
854.301	3.62
855.04	2.62
855.779	2.62
856.518	1.62
857.257	-0.38
857.995	0.62
858.734	0.62
859.473	0.62
860.211	1.62
860.95	1.62
861.688	5.62
862.426	0.62
863.165	1.62
863.903	1.62
864.641	2.62
865.379	2.62
866.117	2.62
866.855	2.62
867.593	0.62
868.33	2.62
869.068	0.62
869.806	2.62
870.543	1.62
871.28	1.62
872.018	1.62
872.755	-0.38
873.492	0.62
874.229	0.62
874.967	2.62
875.703	-0.38
876.44	0.62
877.177	1.62
877.914	0.62
878.651	2.62
879.387	0.62
880.124	-0.38
880.86	1.62
881.597	-1.38
882.333	0.62
883.069	1.62
883.806	-0.38
884.542	0.62
885.278	0.62
886.014	1.62
886.749	-0.38
887.485	1.62
888.221	1.62
888.957	0.62
889.692	-0.38
890.428	-0.38
891.163	0.62
891.899	1.62
892.634	-0.38
893.369	-0.38
894.104	-1.38
894.839	1.62
895.574	-1.38
896.309	0.62
897.044	-0.38
897.779	0.62
898.514	1.62
899.248	0.62
899.983	0.62
900.717	-1.38
901.452	2.62
902.186	-1.38
902.92	0.62
903.654	0.62
904.389	-0.38
905.123	-1.38
905.857	-1.38
906.59	0.62
907.324	0.62
908.058	-0.38
908.792	-2.38
909.525	0.62
910.259	-3.38
910.992	-2.38
911.726	0.62
912.459	0.62
913.192	0.62
913.925	-1.38
914.658	2.62
915.391	-1.38
916.124	1.62
916.857	0.62
917.59	0.62
918.323	-0.38
919.055	-0.38
919.788	-0.38
920.521	-0.38
921.253	1.62
921.985	-1.38
922.718	0.62
923.45	0.62
924.182	-0.38
924.914	-1.38
925.646	0.62
926.378	0.62
927.11	1.62
927.841	-0.38
928.573	-1.38
929.305	0.62
930.036	0.62
930.768	-0.38
931.499	-1.38
932.23	-0.38
932.962	-0.38
933.693	0.62
934.424	-0.38
935.155	2.62
935.886	0.62
936.617	0.62
937.348	-0.38
938.078	0.62
938.809	-0.38
939.54	1.62
940.27	0.62
941.001	0.62
941.731	0.62
942.461	1.62
943.191	-1.38
943.922	-0.38
944.652	-1.38
945.382	-0.38
946.112	0.62
946.841	-0.38
947.571	-0.38
948.301	0.62
949.031	0.62
949.76	2.62
950.49	0.62
951.219	1.62
951.948	0.62
952.678	-0.38
953.407	1.62
954.136	-1.38
954.865	-0.38
955.594	1.62
956.323	0.62
957.052	-1.38
957.78	2.62
958.509	-1.38
959.238	1.62
959.966	-1.38
960.695	0.62
961.423	0.62
962.151	0.62
962.88	0.62
963.608	-0.38
964.336	0.62
965.064	-0.38
965.792	0.62
966.52	0.62
967.247	0.62
967.975	-1.38
968.703	0.62
969.43	-2.38
970.158	2.62
970.885	0.62
971.613	0.62
972.34	-0.38
973.067	-1.38
973.794	-0.38
974.521	1.62
975.248	0.62
975.975	-0.38
976.702	0.62
977.429	2.62
978.156	0.62
978.882	-0.38
979.609	-1.38
980.335	0.62
981.062	0.62
981.788	0.62
982.514	0.62
983.24	1.62
983.967	0.62
984.693	-0.38
985.419	-0.38
986.144	-0.38
986.87	0.62
987.596	0.62
988.322	-0.38
989.047	-0.38
989.773	0.62
990.498	-1.38
991.224	2.62
991.949	-2.38
992.674	0.62
993.399	-1.38
994.124	-0.38
994.849	0.62
995.574	-1.38
996.299	-0.38
997.024	-0.38
997.749	-1.38
998.473	-1.38
999.198	0.62
999.922	-0.38
1000.647	-0.38
1001.371	2.62
1002.095	-0.38
1002.82	-0.38
1003.544	-0.38
1004.268	0.62
1004.992	0.62
1005.716	0.62
1006.439	1.62
1007.163	-0.38
1007.887	1.62
1008.611	-0.38
1009.334	-0.38
1010.058	-0.38
1010.781	-0.38
1011.504	-1.38
1012.228	-0.38
1012.951	-1.38
1013.674	-1.38
1014.397	1.62
1015.12	-0.38
