节点500_285_QEPB04081__18__14-55-52-476.txt的数据

Date: Wed Nov 12 14:55:52 CST 2025
User: PC
Spectrometer: QEPB0408
触发模式: 0
积分时间 (秒): 1.000000E-2
Scans to average: 1
启用暗噪声校正: true
启用非线性校正: false
滑动平均宽度: 0
X轴模式: Wavelengths
Number of Pixels in Spectrum: 1044
>>>>>Begin Spectral Data<<<<<
220.843	0.62
221.644	3.62
222.444	2.62
223.244	0.62
224.045	3.62
224.845	0.62
225.645	2.62
226.445	2.62
227.245	0.62
228.045	1.62
228.845	0.62
229.645	3.62
230.444	1.62
231.244	-0.38
232.043	3.62
232.843	2.62
233.642	3.62
234.442	4.62
235.241	2.62
236.04	5.62
236.839	2.62
237.638	6.62
238.437	4.62
239.236	4.62
240.035	7.62
240.833	2.62
241.632	4.62
242.43	5.62
243.229	6.62
244.027	5.62
244.826	5.62
245.624	6.62
246.422	4.62
247.22	3.62
248.018	4.62
248.816	6.62
249.614	7.62
250.412	3.62
251.21	6.62
252.007	6.62
252.805	8.62
253.602	6.62
254.4	6.62
255.197	9.62
255.994	8.62
256.791	9.62
257.589	10.62
258.386	10.62
259.183	9.62
259.979	9.62
260.776	12.62
261.573	11.62
262.37	12.62
263.166	11.62
263.963	11.62
264.759	14.62
265.556	12.62
266.352	17.62
267.148	14.62
267.944	14.62
268.74	13.62
269.536	18.62
270.332	15.62
271.128	16.62
271.924	17.62
272.719	19.62
273.515	16.62
274.311	14.62
275.106	17.62
275.901	20.62
276.697	16.62
277.492	19.62
278.287	18.62
279.082	18.62
279.877	20.62
280.672	18.62
281.467	19.62
282.262	20.62
283.056	18.62
283.851	18.62
284.646	19.62
285.44	18.62
286.234	19.62
287.029	21.62
287.823	19.62
288.617	20.62
289.411	18.62
290.205	20.62
290.999	17.62
291.793	18.62
292.587	16.62
293.381	17.62
294.174	19.62
294.968	16.62
295.761	17.62
296.555	12.62
297.348	16.62
298.141	14.62
298.935	17.62
299.728	15.62
300.521	14.62
301.314	13.62
302.107	12.62
302.899	12.62
303.692	11.62
304.485	12.62
305.277	13.62
306.07	13.62
306.862	11.62
307.655	11.62
308.447	10.62
309.239	13.62
310.031	11.62
310.823	12.62
311.615	9.62
312.407	10.62
313.199	9.62
313.991	8.62
314.783	10.62
315.574	8.62
316.366	7.62
317.157	8.62
317.949	9.62
318.74	6.62
319.531	6.62
320.322	10.62
321.113	7.62
321.904	9.62
322.695	5.62
323.486	6.62
324.277	7.62
325.068	8.62
325.858	3.62
326.649	6.62
327.439	9.62
328.23	5.62
329.02	8.62
329.81	6.62
330.6	5.62
331.391	6.62
332.181	6.62
332.971	7.62
333.76	4.62
334.55	3.62
335.34	5.62
336.13	6.62
336.919	6.62
337.709	6.62
338.498	7.62
339.287	7.62
340.077	8.62
340.866	7.62
341.655	6.62
342.444	6.62
343.233	6.62
344.022	6.62
344.811	6.62
345.6	5.62
346.388	7.62
347.177	6.62
347.965	3.62
348.754	8.62
349.542	5.62
350.33	5.62
351.119	5.62
351.907	6.62
352.695	4.62
353.483	6.62
354.271	4.62
355.059	7.62
355.846	5.62
356.634	6.62
357.422	5.62
358.209	6.62
358.997	4.62
359.784	6.62
360.571	3.62
361.359	4.62
362.146	3.62
362.933	5.62
363.72	4.62
364.507	3.62
365.294	6.62
366.081	4.62
366.867	4.62
367.654	3.62
368.44	2.62
369.227	6.62
370.013	5.62
370.8	4.62
371.586	5.62
372.372	3.62
373.158	4.62
373.944	3.62
374.73	4.62
375.516	4.62
376.302	4.62
377.088	7.62
377.873	3.62
378.659	6.62
379.445	2.62
380.23	2.62
381.015	7.62
381.801	6.62
382.586	5.62
383.371	4.62
384.156	7.62
384.941	5.62
385.726	4.62
386.511	6.62
387.296	5.62
388.08	6.62
388.865	6.62
389.649	2.62
390.434	5.62
391.218	7.62
392.003	5.62
392.787	7.62
393.571	5.62
394.355	6.62
395.139	6.62
395.923	6.62
396.707	7.62
397.491	8.62
398.274	7.62
399.058	6.62
399.842	8.62
400.625	6.62
401.408	5.62
402.192	7.62
402.975	6.62
403.758	5.62
404.541	8.62
405.324	6.62
406.107	8.62
406.89	8.62
407.673	8.62
408.456	7.62
409.238	7.62
410.021	6.62
410.803	8.62
411.586	8.62
412.368	8.62
413.151	9.62
413.933	8.62
414.715	7.62
415.497	7.62
416.279	9.62
417.061	9.62
417.843	10.62
418.624	11.62
419.406	9.62
420.188	9.62
420.969	12.62
421.751	8.62
422.532	11.62
423.313	11.62
424.095	12.62
424.876	11.62
425.657	12.62
426.438	12.62
427.219	11.62
428	14.62
428.78	12.62
429.561	11.62
430.342	13.62
431.122	13.62
431.903	16.62
432.683	15.62
433.464	15.62
434.244	16.62
435.024	18.62
435.804	15.62
436.584	16.62
437.364	18.62
438.144	18.62
438.924	20.62
439.704	20.62
440.483	21.62
441.263	27.62
442.042	24.62
442.822	24.62
443.601	28.62
444.38	31.62
445.16	31.62
445.939	33.62
446.718	36.62
447.497	36.62
448.276	40.62
449.054	41.62
449.833	42.62
450.612	51.62
451.391	55.62
452.169	57.62
452.948	62.62
453.726	67.62
454.504	77.62
455.282	81.62
456.061	88.62
456.839	100.62
457.617	114.62
458.395	120.62
459.172	130.62
459.95	148.62
460.728	169.62
461.506	188.62
462.283	216.62
463.061	230.62
463.838	262.62
464.615	287.62
465.393	326.62
466.17	362.62
466.947	416.62
467.724	460.62
468.501	509.62
469.278	583.62
470.055	636.62
470.831	720.62
471.608	805.62
472.385	894.62
473.161	1007.62
473.938	1117.62
474.714	1241.62
475.49	1389.62
476.266	1545.62
477.043	1701.62
477.819	1907.62
478.595	2142.62
479.371	2354.62
480.146	2615.62
480.922	2901.62
481.698	3231.62
482.473	3583.62
483.249	3936.62
484.024	4370.62
484.8	4860.62
485.575	5376.62
486.35	5947.62
487.126	6577.62
487.901	7231.62
488.676	7974.62
489.451	8817.62
490.225	9686.62
491	10593.62
491.775	11634.62
492.55	12712.62
493.324	13848.62
494.099	14967.62
494.873	16163.62
495.647	17513.62
496.422	18818.62
497.196	20129.62
497.97	21485.62
498.744	22814.62
499.518	24099.62
500.292	25311.62
501.066	26324.62
501.839	27336.62
502.613	28143.62
503.387	28777.62
504.16	29250.62
504.934	29455.62
505.707	29403.62
506.48	29291.62
507.253	28927.62
508.027	28432.62
508.8	27950.62
509.573	27164.62
510.346	26404.62
511.118	25340.62
511.891	24450.62
512.664	23418.62
513.437	22367.62
514.209	21381.62
514.982	20483.62
515.754	19491.62
516.526	18538.62
517.298	17778.62
518.071	16946.62
518.843	16349.62
519.615	15710.62
520.387	15093.62
521.159	14504.62
521.93	13938.62
522.702	13385.62
523.474	12783.62
524.245	12233.62
525.017	11676.62
525.788	11205.62
526.56	10697.62
527.331	10128.62
528.102	9707.62
528.873	9194.62
529.644	8739.62
530.415	8252.62
531.186	7847.62
531.957	7406.62
532.728	7032.62
533.498	6650.62
534.269	6252.62
535.039	5887.62
535.81	5557.62
536.58	5246.62
537.351	4924.62
538.121	4675.62
538.891	4409.62
539.661	4152.62
540.431	3956.62
541.201	3722.62
541.971	3531.62
542.741	3357.62
543.51	3186.62
544.28	3045.62
545.05	2883.62
545.819	2747.62
546.588	2617.62
547.358	2487.62
548.127	2355.62
548.896	2216.62
549.665	2115.62
550.434	2005.62
551.203	1899.62
551.972	1789.62
552.741	1672.62
553.51	1594.62
554.278	1505.62
555.047	1418.62
555.815	1333.62
556.584	1260.62
557.352	1176.62
558.121	1115.62
558.889	1044.62
559.657	1002.62
560.425	939.62
561.193	895.62
561.961	833.62
562.729	781.62
563.496	758.62
564.264	703.62
565.032	666.62
565.799	631.62
566.567	604.62
567.334	564.62
568.101	531.62
568.869	504.62
569.636	465.62
570.403	454.62
571.17	421.62
571.937	399.62
572.704	368.62
573.471	353.62
574.237	340.62
575.004	312.62
575.771	298.62
576.537	275.62
577.303	260.62
578.07	246.62
578.836	226.62
579.602	214.62
580.368	203.62
581.134	195.62
581.9	188.62
582.666	178.62
583.432	165.62
584.198	160.62
584.964	148.62
585.729	145.62
586.495	138.62
587.26	129.62
588.025	119.62
588.791	116.62
589.556	111.62
590.321	98.62
591.086	100.62
591.851	91.62
592.616	85.62
593.381	87.62
594.146	80.62
594.911	75.62
595.675	75.62
596.44	65.62
597.204	68.62
597.969	64.62
598.733	62.62
599.497	59.62
600.261	57.62
601.025	50.62
601.79	52.62
602.553	50.62
603.317	47.62
604.081	44.62
604.845	38.62
605.609	41.62
606.372	33.62
607.136	39.62
607.899	37.62
608.662	33.62
609.426	33.62
610.189	30.62
610.952	32.62
611.715	31.62
612.478	28.62
613.241	24.62
614.004	27.62
614.767	27.62
615.529	24.62
616.292	24.62
617.055	23.62
617.817	22.62
618.579	22.62
619.342	21.62
620.104	20.62
620.866	19.62
621.628	20.62
622.39	16.62
623.152	17.62
623.914	13.62
624.676	12.62
625.438	16.62
626.199	14.62
626.961	15.62
627.722	15.62
628.484	11.62
629.245	14.62
630.006	12.62
630.768	9.62
631.529	10.62
632.29	12.62
633.051	9.62
633.812	9.62
634.573	11.62
635.333	8.62
636.094	9.62
636.855	12.62
637.615	12.62
638.376	8.62
639.136	11.62
639.896	8.62
640.657	7.62
641.417	7.62
642.177	8.62
642.937	7.62
643.697	10.62
644.457	10.62
645.216	8.62
645.976	9.62
646.736	6.62
647.495	8.62
648.255	6.62
649.014	6.62
649.774	8.62
650.533	7.62
651.292	7.62
652.051	5.62
652.81	6.62
653.569	6.62
654.328	6.62
655.087	6.62
655.846	5.62
656.604	8.62
657.363	4.62
658.121	4.62
658.88	6.62
659.638	6.62
660.397	6.62
661.155	7.62
661.913	5.62
662.671	6.62
663.429	5.62
664.187	5.62
664.945	5.62
665.703	5.62
666.46	6.62
667.218	4.62
667.976	5.62
668.733	4.62
669.49	4.62
670.248	5.62
671.005	4.62
671.762	6.62
672.519	2.62
673.276	6.62
674.033	5.62
674.79	4.62
675.547	0.62
676.304	6.62
677.06	4.62
677.817	2.62
678.574	6.62
679.33	4.62
680.086	5.62
680.843	4.62
681.599	2.62
682.355	6.62
683.111	2.62
683.867	2.62
684.623	4.62
685.379	6.62
686.135	6.62
686.89	3.62
687.646	6.62
688.402	4.62
689.157	5.62
689.912	5.62
690.668	1.62
691.423	4.62
692.178	1.62
692.933	5.62
693.688	3.62
694.443	3.62
695.198	0.62
695.953	4.62
696.708	4.62
697.462	4.62
698.217	4.62
698.972	3.62
699.726	0.62
700.48	3.62
701.235	3.62
701.989	5.62
702.743	2.62
703.497	3.62
704.251	5.62
705.005	4.62
705.759	3.62
706.513	4.62
707.266	3.62
708.02	3.62
708.774	2.62
709.527	3.62
710.28	2.62
711.034	4.62
711.787	2.62
712.54	3.62
713.293	3.62
714.046	5.62
714.799	5.62
715.552	3.62
716.305	5.62
717.058	4.62
717.81	2.62
718.563	4.62
719.315	2.62
720.068	3.62
720.82	4.62
721.573	3.62
722.325	1.62
723.077	3.62
723.829	3.62
724.581	3.62
725.333	3.62
726.085	4.62
726.836	3.62
727.588	4.62
728.34	3.62
729.091	3.62
729.843	4.62
730.594	3.62
731.346	4.62
732.097	4.62
732.848	4.62
733.599	3.62
734.35	4.62
735.101	4.62
735.852	2.62
736.603	4.62
737.354	5.62
738.104	5.62
738.855	3.62
739.605	3.62
740.356	5.62
741.106	5.62
741.856	5.62
742.607	4.62
743.357	4.62
744.107	3.62
744.857	3.62
745.607	5.62
746.357	4.62
747.106	4.62
747.856	4.62
748.606	4.62
749.355	6.62
750.105	2.62
750.854	4.62
751.603	4.62
752.353	5.62
753.102	4.62
753.851	2.62
754.6	6.62
755.349	4.62
756.098	6.62
756.847	7.62
757.595	4.62
758.344	8.62
759.093	6.62
759.841	4.62
760.589	5.62
761.338	6.62
762.086	5.62
762.834	5.62
763.582	8.62
764.331	4.62
765.079	4.62
765.826	8.62
766.574	6.62
767.322	9.62
768.07	8.62
768.817	8.62
769.565	5.62
770.312	8.62
771.06	7.62
771.807	7.62
772.554	9.62
773.302	8.62
774.049	8.62
774.796	10.62
775.543	7.62
776.29	8.62
777.036	8.62
777.783	9.62
778.53	8.62
779.276	7.62
780.023	9.62
780.769	8.62
781.516	10.62
782.262	8.62
783.008	9.62
783.754	8.62
784.5	9.62
785.246	10.62
785.992	8.62
786.738	8.62
787.484	10.62
788.23	8.62
788.975	9.62
789.721	9.62
790.466	9.62
791.212	6.62
791.957	7.62
792.702	6.62
793.447	6.62
794.193	9.62
794.938	6.62
795.683	7.62
796.427	9.62
797.172	7.62
797.917	10.62
798.662	7.62
799.406	5.62
800.151	8.62
800.895	5.62
801.64	6.62
802.384	8.62
803.128	4.62
803.872	3.62
804.616	5.62
805.36	7.62
806.104	6.62
806.848	6.62
807.592	4.62
808.336	6.62
809.079	5.62
809.823	5.62
810.566	4.62
811.31	4.62
812.053	5.62
812.796	6.62
813.539	3.62
814.283	6.62
815.026	7.62
815.769	7.62
816.511	4.62
817.254	4.62
817.997	3.62
818.74	3.62
819.482	4.62
820.225	2.62
820.967	4.62
821.71	5.62
822.452	5.62
823.194	4.62
823.936	3.62
824.678	2.62
825.42	4.62
826.162	2.62
826.904	5.62
827.646	1.62
828.388	1.62
829.129	3.62
829.871	1.62
830.612	3.62
831.354	3.62
832.095	4.62
832.836	1.62
833.577	4.62
834.319	3.62
835.06	2.62
835.801	5.62
836.542	1.62
837.282	4.62
838.023	1.62
838.764	3.62
839.504	2.62
840.245	2.62
840.985	4.62
841.726	3.62
842.466	5.62
843.206	1.62
843.946	3.62
844.687	4.62
845.427	3.62
846.166	3.62
846.906	-0.38
847.646	2.62
848.386	1.62
849.125	3.62
849.865	1.62
850.605	3.62
851.344	3.62
852.083	0.62
852.823	0.62
853.562	3.62
854.301	1.62
855.04	2.62
855.779	1.62
856.518	0.62
857.257	2.62
857.995	-0.38
858.734	0.62
859.473	0.62
860.211	-0.38
860.95	0.62
861.688	2.62
862.426	2.62
863.165	4.62
863.903	4.62
864.641	-1.38
865.379	0.62
866.117	2.62
866.855	0.62
867.593	0.62
868.33	2.62
869.068	0.62
869.806	-1.38
870.543	0.62
871.28	2.62
872.018	3.62
872.755	-0.38
873.492	1.62
874.229	1.62
874.967	1.62
875.703	1.62
876.44	1.62
877.177	0.62
877.914	3.62
878.651	0.62
879.387	1.62
880.124	1.62
880.86	1.62
881.597	2.62
882.333	0.62
883.069	-1.38
883.806	1.62
884.542	-1.38
885.278	1.62
886.014	-1.38
886.749	0.62
887.485	-0.38
888.221	0.62
888.957	0.62
889.692	0.62
890.428	-0.38
891.163	0.62
891.899	-0.38
892.634	1.62
893.369	0.62
894.104	1.62
894.839	1.62
895.574	-0.38
896.309	2.62
897.044	-2.38
897.779	1.62
898.514	1.62
899.248	1.62
899.983	1.62
900.717	1.62
901.452	-1.38
902.186	0.62
902.92	1.62
903.654	-1.38
904.389	0.62
905.123	0.62
905.857	-2.38
906.59	-0.38
907.324	0.62
908.058	1.62
908.792	0.62
909.525	-0.38
910.259	0.62
910.992	0.62
911.726	1.62
912.459	1.62
913.192	0.62
913.925	1.62
914.658	0.62
915.391	0.62
916.124	-0.38
916.857	1.62
917.59	0.62
918.323	-0.38
919.055	1.62
919.788	-0.38
920.521	-0.38
921.253	-1.38
921.985	-0.38
922.718	-0.38
923.45	-0.38
924.182	-2.38
924.914	-0.38
925.646	-0.38
926.378	1.62
927.11	0.62
927.841	0.62
928.573	-0.38
929.305	-0.38
930.036	2.62
930.768	1.62
931.499	-0.38
932.23	-1.38
932.962	2.62
933.693	-0.38
934.424	0.62
935.155	1.62
935.886	0.62
936.617	0.62
937.348	-1.38
938.078	2.62
938.809	-0.38
939.54	-1.38
940.27	-1.38
941.001	-1.38
941.731	1.62
942.461	-0.38
943.191	0.62
943.922	-0.38
944.652	-0.38
945.382	0.62
946.112	-0.38
946.841	0.62
947.571	0.62
948.301	-0.38
949.031	1.62
949.76	-1.38
950.49	-1.38
951.219	1.62
951.948	1.62
952.678	0.62
953.407	0.62
954.136	-0.38
954.865	-1.38
955.594	0.62
956.323	-0.38
957.052	0.62
957.78	0.62
958.509	1.62
959.238	-0.38
959.966	1.62
960.695	0.62
961.423	0.62
962.151	2.62
962.88	-0.38
963.608	5.62
964.336	2.62
965.064	-1.38
965.792	0.62
966.52	1.62
967.247	-0.38
967.975	-0.38
968.703	0.62
969.43	-0.38
970.158	-0.38
970.885	0.62
971.613	0.62
972.34	-1.38
973.067	0.62
973.794	0.62
974.521	-0.38
975.248	0.62
975.975	-0.38
976.702	1.62
977.429	-0.38
978.156	-1.38
978.882	0.62
979.609	-0.38
980.335	0.62
981.062	0.62
981.788	1.62
982.514	0.62
983.24	1.62
983.967	1.62
984.693	-0.38
985.419	2.62
986.144	0.62
986.87	-0.38
987.596	2.62
988.322	-1.38
989.047	0.62
989.773	-0.38
990.498	-0.38
991.224	1.62
991.949	-0.38
992.674	2.62
993.399	-2.38
994.124	-1.38
994.849	0.62
995.574	-1.38
996.299	0.62
997.024	-0.38
997.749	0.62
998.473	-2.38
999.198	0.62
999.922	0.62
1000.647	0.62
1001.371	2.62
1002.095	-1.38
1002.82	-0.38
1003.544	-1.38
1004.268	1.62
1004.992	-0.38
1005.716	-1.38
1006.439	1.62
1007.163	0.62
1007.887	2.62
1008.611	0.62
1009.334	-1.38
1010.058	-0.38
1010.781	0.62
1011.504	-0.38
1012.228	-1.38
1012.951	0.62
1013.674	-1.38
1014.397	0.62
1015.12	0.62
