节点500_285_QEPB04081__723__15-07-34-792.txt的数据

Date: Wed Nov 12 15:07:34 CST 2025
User: PC
Spectrometer: QEPB0408
触发模式: 0
积分时间 (秒): 1.000000E-2
Scans to average: 1
启用暗噪声校正: true
启用非线性校正: false
滑动平均宽度: 0
X轴模式: Wavelengths
Number of Pixels in Spectrum: 1044
>>>>>Begin Spectral Data<<<<<
220.843	2
221.644	3
222.444	3
223.244	4
224.045	0
224.845	-1
225.645	1
226.445	2
227.245	2
228.045	5
228.845	2
229.645	3
230.444	3
231.244	3
232.043	4
232.843	5
233.642	4
234.442	2
235.241	5
236.04	5
236.839	3
237.638	5
238.437	2
239.236	6
240.035	1
240.833	5
241.632	3
242.43	6
243.229	5
244.027	2
244.826	4
245.624	6
246.422	7
247.22	5
248.018	6
248.816	6
249.614	5
250.412	7
251.21	9
252.007	8
252.805	5
253.602	7
254.4	7
255.197	7
255.994	6
256.791	7
257.589	8
258.386	9
259.183	10
259.979	8
260.776	9
261.573	9
262.37	12
263.166	10
263.963	12
264.759	11
265.556	10
266.352	11
267.148	11
267.944	12
268.74	11
269.536	13
270.332	13
271.128	8
271.924	11
272.719	14
273.515	13
274.311	15
275.106	15
275.901	15
276.697	16
277.492	14
278.287	16
279.082	19
279.877	16
280.672	17
281.467	17
282.262	17
283.056	15
283.851	18
284.646	18
285.44	18
286.234	17
287.029	15
287.823	19
288.617	16
289.411	18
290.205	14
290.999	16
291.793	19
292.587	16
293.381	18
294.174	17
294.968	16
295.761	15
296.555	14
297.348	14
298.141	13
298.935	16
299.728	14
300.521	14
301.314	14
302.107	13
302.899	14
303.692	13
304.485	12
305.277	14
306.07	10
306.862	14
307.655	10
308.447	14
309.239	13
310.031	11
310.823	12
311.615	10
312.407	9
313.199	8
313.991	10
314.783	9
315.574	9
316.366	11
317.157	7
317.949	8
318.74	10
319.531	7
320.322	9
321.113	7
321.904	8
322.695	8
323.486	9
324.277	7
325.068	9
325.858	8
326.649	4
327.439	7
328.23	4
329.02	7
329.81	5
330.6	7
331.391	7
332.181	7
332.971	8
333.76	4
334.55	8
335.34	5
336.13	7
336.919	7
337.709	5
338.498	8
339.287	6
340.077	8
340.866	8
341.655	7
342.444	7
343.233	7
344.022	7
344.811	5
345.6	6
346.388	6
347.177	4
347.965	8
348.754	7
349.542	9
350.33	4
351.119	9
351.907	8
352.695	7
353.483	4
354.271	6
355.059	8
355.846	6
356.634	6
357.422	4
358.209	5
358.997	6
359.784	5
360.571	7
361.359	6
362.146	6
362.933	2
363.72	4
364.507	6
365.294	7
366.081	3
366.867	6
367.654	5
368.44	4
369.227	4
370.013	5
370.8	4
371.586	5
372.372	4
373.158	3
373.944	6
374.73	5
375.516	4
376.302	5
377.088	3
377.873	6
378.659	4
379.445	5
380.23	3
381.015	5
381.801	6
382.586	4
383.371	4
384.156	7
384.941	6
385.726	8
386.511	4
387.296	4
388.08	5
388.865	6
389.649	7
390.434	5
391.218	7
392.003	5
392.787	6
393.571	6
394.355	9
395.139	6
395.923	5
396.707	9
397.491	6
398.274	8
399.058	6
399.842	8
400.625	7
401.408	7
402.192	8
402.975	7
403.758	6
404.541	7
405.324	6
406.107	7
406.89	6
407.673	8
408.456	6
409.238	9
410.021	5
410.803	8
411.586	9
412.368	9
413.151	9
413.933	10
414.715	9
415.497	7
416.279	8
417.061	9
417.843	8
418.624	10
419.406	10
420.188	8
420.969	9
421.751	13
422.532	10
423.313	11
424.095	10
424.876	10
425.657	14
426.438	10
427.219	13
428	12
428.78	13
429.561	13
430.342	13
431.122	15
431.903	14
432.683	13
433.464	14
434.244	15
435.024	15
435.804	17
436.584	18
437.364	22
438.144	19
438.924	19
439.704	21
440.483	24
441.263	24
442.042	24
442.822	26
443.601	29
444.38	30
445.16	32
445.939	37
446.718	38
447.497	40
448.276	45
449.054	42
449.833	52
450.612	57
451.391	62
452.169	66
452.948	74
453.726	83
454.504	89
455.282	99
456.061	108
456.839	122
457.617	138
458.395	150
459.172	166
459.95	187
460.728	206
461.506	225
462.283	253
463.061	280
463.838	323
464.615	357
465.393	397
466.17	437
466.947	479
467.724	544
468.501	594
469.278	664
470.055	743
470.831	805
471.608	896
472.385	995
473.161	1091
473.938	1196
474.714	1335
475.49	1474
476.266	1609
477.043	1770
477.819	1934
478.595	2123
479.371	2325
480.146	2560
480.922	2790
481.698	3063
482.473	3356
483.249	3638
484.024	4022
484.8	4387
485.575	4754
486.35	5210
487.126	5632
487.901	6174
488.676	6705
489.451	7307
490.225	7917
491	8613
491.775	9405
492.55	10190
493.324	10943
494.099	11767
494.873	12644
495.647	13649
496.422	14591
497.196	15630
497.97	16669
498.744	17711
499.518	18727
500.292	19814
501.066	20876
501.839	21731
502.613	22630
503.387	23443
504.16	24163
504.934	24667
505.707	24990
506.48	25212
507.253	25299
508.027	25363
508.8	25297
509.573	25125
510.346	24773
511.118	24202
511.891	23598
512.664	22996
513.437	22225
514.209	21481
514.982	20773
515.754	19890
516.526	19074
517.298	18287
518.071	17598
518.843	16886
519.615	16245
520.387	15642
521.159	14979
521.93	14369
522.702	13840
523.474	13305
524.245	12706
525.017	12206
525.788	11730
526.56	11218
527.331	10681
528.102	10249
528.873	9768
529.644	9296
530.415	8960
531.186	8510
531.957	8056
532.728	7708
533.498	7322
534.269	6891
535.039	6554
535.81	6202
536.58	5886
537.351	5544
538.121	5210
538.891	4942
539.661	4703
540.431	4420
541.201	4181
541.971	3944
542.741	3779
543.51	3592
544.28	3406
545.05	3242
545.819	3052
546.588	2919
547.358	2795
548.127	2634
548.896	2513
549.665	2398
550.434	2253
551.203	2141
551.972	2034
552.741	1924
553.51	1823
554.278	1713
555.047	1630
555.815	1536
556.584	1463
557.352	1378
558.121	1291
558.889	1232
559.657	1166
560.425	1086
561.193	1036
561.961	969
562.729	910
563.496	873
564.264	829
565.032	777
565.799	735
566.567	697
567.334	655
568.101	617
568.869	589
569.636	557
570.403	521
571.17	483
571.937	455
572.704	435
573.471	417
574.237	390
575.004	372
575.771	344
576.537	325
577.303	307
578.07	298
578.836	270
579.602	261
580.368	238
581.134	234
581.9	222
582.666	211
583.432	194
584.198	188
584.964	173
585.729	169
586.495	156
587.26	149
588.025	140
588.791	134
589.556	124
590.321	122
591.086	111
591.851	108
592.616	101
593.381	94
594.146	92
594.911	88
595.675	85
596.44	80
597.204	77
597.969	73
598.733	71
599.497	67
600.261	65
601.025	60
601.79	56
602.553	54
603.317	51
604.081	53
604.845	50
605.609	44
606.372	44
607.136	45
607.899	43
608.662	43
609.426	37
610.189	39
610.952	33
611.715	31
612.478	34
613.241	30
614.004	30
614.767	29
615.529	29
616.292	27
617.055	27
617.817	27
618.579	22
619.342	24
620.104	22
620.866	23
621.628	21
622.39	16
623.152	22
623.914	20
624.676	18
625.438	16
626.199	13
626.961	18
627.722	16
628.484	16
629.245	17
630.006	14
630.768	14
631.529	13
632.29	14
633.051	11
633.812	12
634.573	14
635.333	11
636.094	11
636.855	14
637.615	9
638.376	10
639.136	13
639.896	9
640.657	10
641.417	11
642.177	8
642.937	11
643.697	8
644.457	8
645.216	8
645.976	9
646.736	7
647.495	8
648.255	8
649.014	7
649.774	8
650.533	7
651.292	9
652.051	7
652.81	7
653.569	6
654.328	5
655.087	4
655.846	6
656.604	6
657.363	8
658.121	7
658.88	7
659.638	6
660.397	5
661.155	5
661.913	5
662.671	7
663.429	7
664.187	5
664.945	5
665.703	6
666.46	5
667.218	7
667.976	5
668.733	6
669.49	6
670.248	6
671.005	4
671.762	6
672.519	6
673.276	6
674.033	7
674.79	2
675.547	5
676.304	3
677.06	5
677.817	3
678.574	3
679.33	6
680.086	3
680.843	4
681.599	5
682.355	6
683.111	4
683.867	5
684.623	3
685.379	4
686.135	5
686.89	5
687.646	4
688.402	4
689.157	2
689.912	4
690.668	4
691.423	3
692.178	2
692.933	5
693.688	4
694.443	2
695.198	4
695.953	4
696.708	5
697.462	5
698.217	2
698.972	3
699.726	4
700.48	3
701.235	5
701.989	3
702.743	2
703.497	3
704.251	2
705.005	1
705.759	2
706.513	3
707.266	4
708.02	3
708.774	2
709.527	6
710.28	2
711.034	6
711.787	4
712.54	3
713.293	5
714.046	6
714.799	5
715.552	2
716.305	5
717.058	4
717.81	4
718.563	4
719.315	3
720.068	4
720.82	5
721.573	3
722.325	4
723.077	2
723.829	4
724.581	4
725.333	4
726.085	4
726.836	6
727.588	3
728.34	4
729.091	3
729.843	4
730.594	5
731.346	4
732.097	4
732.848	5
733.599	5
734.35	4
735.101	5
735.852	6
736.603	2
737.354	4
738.104	4
738.855	5
739.605	5
740.356	3
741.106	3
741.856	5
742.607	6
743.357	5
744.107	3
744.857	6
745.607	6
746.357	4
747.106	4
747.856	3
748.606	5
749.355	5
750.105	6
750.854	7
751.603	4
752.353	6
753.102	6
753.851	7
754.6	4
755.349	5
756.098	6
756.847	5
757.595	7
758.344	5
759.093	6
759.841	6
760.589	7
761.338	4
762.086	5
762.834	6
763.582	5
764.331	7
765.079	5
765.826	8
766.574	8
767.322	6
768.07	7
768.817	3
769.565	9
770.312	8
771.06	7
771.807	7
772.554	6
773.302	8
774.049	5
774.796	4
775.543	9
776.29	6
777.036	8
777.783	8
778.53	7
779.276	8
780.023	8
780.769	8
781.516	8
782.262	8
783.008	7
783.754	9
784.5	10
785.246	10
785.992	7
786.738	9
787.484	6
788.23	7
788.975	8
789.721	9
790.466	9
791.212	8
791.957	8
792.702	9
793.447	6
794.193	9
794.938	5
795.683	6
796.427	8
797.172	7
797.917	6
798.662	7
799.406	8
800.151	8
800.895	7
801.64	7
802.384	8
803.128	5
803.872	7
804.616	8
805.36	7
806.104	6
806.848	6
807.592	7
808.336	8
809.079	6
809.823	7
810.566	5
811.31	6
812.053	4
812.796	4
813.539	4
814.283	6
815.026	6
815.769	5
816.511	4
817.254	4
817.997	6
818.74	7
819.482	5
820.225	7
820.967	6
821.71	2
822.452	4
823.194	2
823.936	4
824.678	5
825.42	3
826.162	4
826.904	0
827.646	5
828.388	4
829.129	4
829.871	4
830.612	4
831.354	6
832.095	3
832.836	4
833.577	4
834.319	5
835.06	5
835.801	2
836.542	2
837.282	5
838.023	5
838.764	2
839.504	4
840.245	2
840.985	2
841.726	5
842.466	5
843.206	4
843.946	4
844.687	2
845.427	5
846.166	4
846.906	4
847.646	4
848.386	1
849.125	2
849.865	2
850.605	3
851.344	1
852.083	5
852.823	1
853.562	2
854.301	1
855.04	3
855.779	4
856.518	3
857.257	3
857.995	2
858.734	3
859.473	5
860.211	5
860.95	2
861.688	2
862.426	1
863.165	5
863.903	3
864.641	4
865.379	1
866.117	1
866.855	2
867.593	1
868.33	3
869.068	1
869.806	3
870.543	2
871.28	1
872.018	1
872.755	-1
873.492	2
874.229	2
874.967	2
875.703	-1
876.44	3
877.177	0
877.914	2
878.651	3
879.387	0
880.124	5
880.86	1
881.597	2
882.333	2
883.069	0
883.806	0
884.542	1
885.278	1
886.014	-2
886.749	2
887.485	3
888.221	2
888.957	2
889.692	2
890.428	2
891.163	3
891.899	2
892.634	1
893.369	0
894.104	0
894.839	1
895.574	-1
896.309	2
897.044	0
897.779	1
898.514	-2
899.248	2
899.983	1
900.717	0
901.452	3
902.186	-1
902.92	1
903.654	0
904.389	1
905.123	2
905.857	1
906.59	1
907.324	-1
908.058	1
908.792	1
909.525	0
910.259	1
910.992	0
911.726	2
912.459	0
913.192	-2
913.925	0
914.658	1
915.391	1
916.124	-1
916.857	0
917.59	-2
918.323	3
919.055	0
919.788	0
920.521	2
921.253	-1
921.985	2
922.718	0
923.45	0
924.182	1
924.914	-1
925.646	1
926.378	1
927.11	0
927.841	-1
928.573	1
929.305	0
930.036	1
930.768	-1
931.499	0
932.23	0
932.962	1
933.693	1
934.424	0
935.155	-1
935.886	1
936.617	0
937.348	2
938.078	1
938.809	-1
939.54	0
940.27	-1
941.001	-2
941.731	-2
942.461	-3
943.191	2
943.922	-1
944.652	0
945.382	0
946.112	2
946.841	0
947.571	1
948.301	1
949.031	1
949.76	-2
950.49	-2
951.219	3
951.948	1
952.678	1
953.407	0
954.136	-1
954.865	2
955.594	0
956.323	1
957.052	-2
957.78	-1
958.509	1
959.238	-2
959.966	2
960.695	0
961.423	0
962.151	0
962.88	-1
963.608	0
964.336	-1
965.064	2
965.792	2
966.52	1
967.247	1
967.975	-1
968.703	0
969.43	0
970.158	1
970.885	1
971.613	-1
972.34	-1
973.067	0
973.794	1
974.521	3
975.248	1
975.975	0
976.702	1
977.429	1
978.156	-1
978.882	1
979.609	2
980.335	0
981.062	-1
981.788	-2
982.514	1
983.24	0
983.967	0
984.693	-1
985.419	0
986.144	-1
986.87	0
987.596	1
988.322	-2
989.047	0
989.773	2
990.498	0
991.224	1
991.949	0
992.674	-2
993.399	-1
994.124	0
994.849	1
995.574	1
996.299	2
997.024	0
997.749	2
998.473	1
999.198	0
999.922	0
1000.647	1
1001.371	5
1002.095	-1
1002.82	-1
1003.544	-2
1004.268	3
1004.992	1
1005.716	2
1006.439	1
1007.163	2
1007.887	0
1008.611	0
1009.334	-1
1010.058	-1
1010.781	1
1011.504	0
1012.228	0
1012.951	1
1013.674	1
1014.397	-2
1015.12	-1
