节点500_285_QEPB04081__260__14-59-52-865.txt的数据

Date: Wed Nov 12 14:59:52 CST 2025
User: PC
Spectrometer: QEPB0408
触发模式: 0
积分时间 (秒): 1.000000E-2
Scans to average: 1
启用暗噪声校正: true
启用非线性校正: false
滑动平均宽度: 0
X轴模式: Wavelengths
Number of Pixels in Spectrum: 1044
>>>>>Begin Spectral Data<<<<<
220.843	2.25
221.644	1.25
222.444	1.25
223.244	4.25
224.045	2.25
224.845	2.25
225.645	4.25
226.445	4.25
227.245	3.25
228.045	6.25
228.845	2.25
229.645	2.25
230.444	2.25
231.244	5.25
232.043	4.25
232.843	5.25
233.642	5.25
234.442	3.25
235.241	5.25
236.04	4.25
236.839	4.25
237.638	5.25
238.437	3.25
239.236	4.25
240.035	6.25
240.833	3.25
241.632	5.25
242.43	5.25
243.229	4.25
244.027	4.25
244.826	6.25
245.624	5.25
246.422	8.25
247.22	7.25
248.018	3.25
248.816	7.25
249.614	8.25
250.412	7.25
251.21	8.25
252.007	7.25
252.805	8.25
253.602	6.25
254.4	11.25
255.197	8.25
255.994	8.25
256.791	8.25
257.589	9.25
258.386	9.25
259.183	9.25
259.979	9.25
260.776	12.25
261.573	10.25
262.37	11.25
263.166	11.25
263.963	13.25
264.759	9.25
265.556	14.25
266.352	12.25
267.148	13.25
267.944	16.25
268.74	14.25
269.536	12.25
270.332	16.25
271.128	16.25
271.924	14.25
272.719	18.25
273.515	18.25
274.311	15.25
275.106	18.25
275.901	15.25
276.697	21.25
277.492	16.25
278.287	16.25
279.082	20.25
279.877	19.25
280.672	19.25
281.467	18.25
282.262	18.25
283.056	20.25
283.851	21.25
284.646	21.25
285.44	23.25
286.234	19.25
287.029	23.25
287.823	19.25
288.617	19.25
289.411	14.25
290.205	17.25
290.999	17.25
291.793	17.25
292.587	19.25
293.381	17.25
294.174	20.25
294.968	16.25
295.761	18.25
296.555	15.25
297.348	16.25
298.141	17.25
298.935	16.25
299.728	16.25
300.521	14.25
301.314	14.25
302.107	17.25
302.899	11.25
303.692	14.25
304.485	11.25
305.277	15.25
306.07	13.25
306.862	15.25
307.655	13.25
308.447	13.25
309.239	13.25
310.031	11.25
310.823	10.25
311.615	8.25
312.407	9.25
313.199	13.25
313.991	9.25
314.783	9.25
315.574	9.25
316.366	13.25
317.157	7.25
317.949	10.25
318.74	8.25
319.531	8.25
320.322	9.25
321.113	11.25
321.904	9.25
322.695	8.25
323.486	5.25
324.277	9.25
325.068	7.25
325.858	7.25
326.649	5.25
327.439	6.25
328.23	10.25
329.02	7.25
329.81	7.25
330.6	7.25
331.391	6.25
332.181	7.25
332.971	5.25
333.76	6.25
334.55	8.25
335.34	8.25
336.13	5.25
336.919	5.25
337.709	6.25
338.498	6.25
339.287	8.25
340.077	8.25
340.866	7.25
341.655	4.25
342.444	6.25
343.233	9.25
344.022	7.25
344.811	6.25
345.6	7.25
346.388	7.25
347.177	6.25
347.965	7.25
348.754	5.25
349.542	6.25
350.33	7.25
351.119	8.25
351.907	7.25
352.695	8.25
353.483	5.25
354.271	5.25
355.059	6.25
355.846	6.25
356.634	6.25
357.422	5.25
358.209	4.25
358.997	7.25
359.784	5.25
360.571	7.25
361.359	7.25
362.146	5.25
362.933	5.25
363.72	5.25
364.507	8.25
365.294	6.25
366.081	4.25
366.867	5.25
367.654	7.25
368.44	4.25
369.227	7.25
370.013	7.25
370.8	5.25
371.586	3.25
372.372	3.25
373.158	7.25
373.944	9.25
374.73	7.25
375.516	8.25
376.302	4.25
377.088	7.25
377.873	6.25
378.659	4.25
379.445	5.25
380.23	6.25
381.015	4.25
381.801	5.25
382.586	6.25
383.371	7.25
384.156	8.25
384.941	5.25
385.726	3.25
386.511	4.25
387.296	7.25
388.08	7.25
388.865	6.25
389.649	4.25
390.434	7.25
391.218	3.25
392.003	6.25
392.787	5.25
393.571	5.25
394.355	5.25
395.139	5.25
395.923	8.25
396.707	7.25
397.491	7.25
398.274	7.25
399.058	9.25
399.842	8.25
400.625	7.25
401.408	7.25
402.192	5.25
402.975	8.25
403.758	9.25
404.541	8.25
405.324	7.25
406.107	5.25
406.89	9.25
407.673	9.25
408.456	11.25
409.238	8.25
410.021	10.25
410.803	9.25
411.586	9.25
412.368	9.25
413.151	9.25
413.933	6.25
414.715	10.25
415.497	10.25
416.279	9.25
417.061	10.25
417.843	10.25
418.624	12.25
419.406	10.25
420.188	13.25
420.969	8.25
421.751	12.25
422.532	11.25
423.313	14.25
424.095	12.25
424.876	12.25
425.657	13.25
426.438	12.25
427.219	12.25
428	13.25
428.78	13.25
429.561	14.25
430.342	13.25
431.122	15.25
431.903	17.25
432.683	14.25
433.464	14.25
434.244	18.25
435.024	18.25
435.804	17.25
436.584	22.25
437.364	19.25
438.144	17.25
438.924	20.25
439.704	18.25
440.483	24.25
441.263	23.25
442.042	26.25
442.822	28.25
443.601	27.25
444.38	27.25
445.16	30.25
445.939	33.25
446.718	38.25
447.497	38.25
448.276	45.25
449.054	43.25
449.833	50.25
450.612	52.25
451.391	57.25
452.169	58.25
452.948	69.25
453.726	74.25
454.504	82.25
455.282	88.25
456.061	95.25
456.839	107.25
457.617	126.25
458.395	131.25
459.172	150.25
459.95	166.25
460.728	186.25
461.506	200.25
462.283	228.25
463.061	250.25
463.838	285.25
464.615	314.25
465.393	355.25
466.17	398.25
466.947	441.25
467.724	487.25
468.501	546.25
469.278	604.25
470.055	680.25
470.831	752.25
471.608	845.25
472.385	942.25
473.161	1043.25
473.938	1153.25
474.714	1278.25
475.49	1429.25
476.266	1570.25
477.043	1737.25
477.819	1937.25
478.595	2124.25
479.371	2325.25
480.146	2578.25
480.922	2855.25
481.698	3156.25
482.473	3485.25
483.249	3842.25
484.024	4218.25
484.8	4625.25
485.575	5137.25
486.35	5625.25
487.126	6216.25
487.901	6802.25
488.676	7441.25
489.451	8179.25
490.225	8947.25
491	9823.25
491.775	10681.25
492.55	11681.25
493.324	12665.25
494.099	13655.25
494.873	14719.25
495.647	15939.25
496.422	17075.25
497.196	18297.25
497.97	19502.25
498.744	20674.25
499.518	21929.25
500.292	23117.25
501.066	24150.25
501.839	25099.25
502.613	25921.25
503.387	26805.25
504.16	27348.25
504.934	27659.25
505.707	27830.25
506.48	27828.25
507.253	27655.25
508.027	27412.25
508.8	26997.25
509.573	26532.25
510.346	25865.25
511.118	25087.25
511.891	24153.25
512.664	23386.25
513.437	22459.25
514.209	21511.25
514.982	20604.25
515.754	19654.25
516.526	18809.25
517.298	17944.25
518.071	17214.25
518.843	16556.25
519.615	15924.25
520.387	15266.25
521.159	14634.25
521.93	14062.25
522.702	13518.25
523.474	12962.25
524.245	12420.25
525.017	11855.25
525.788	11446.25
526.56	10838.25
527.331	10355.25
528.102	9870.25
528.873	9439.25
529.644	8986.25
530.415	8548.25
531.186	8077.25
531.957	7671.25
532.728	7290.25
533.498	6916.25
534.269	6492.25
535.039	6156.25
535.81	5816.25
536.58	5489.25
537.351	5139.25
538.121	4871.25
538.891	4626.25
539.661	4369.25
540.431	4122.25
541.201	3912.25
541.971	3676.25
542.741	3507.25
543.51	3308.25
544.28	3170.25
545.05	3022.25
545.819	2854.25
546.588	2696.25
547.358	2559.25
548.127	2461.25
548.896	2344.25
549.665	2214.25
550.434	2091.25
551.203	1986.25
551.972	1865.25
552.741	1778.25
553.51	1675.25
554.278	1580.25
555.047	1487.25
555.815	1395.25
556.584	1334.25
557.352	1262.25
558.121	1178.25
558.889	1118.25
559.657	1048.25
560.425	984.25
561.193	935.25
561.961	883.25
562.729	836.25
563.496	786.25
564.264	750.25
565.032	707.25
565.799	676.25
566.567	640.25
567.334	595.25
568.101	558.25
568.869	530.25
569.636	497.25
570.403	474.25
571.17	450.25
571.937	417.25
572.704	399.25
573.471	378.25
574.237	353.25
575.004	335.25
575.771	316.25
576.537	303.25
577.303	280.25
578.07	263.25
578.836	240.25
579.602	230.25
580.368	220.25
581.134	209.25
581.9	195.25
582.666	189.25
583.432	175.25
584.198	166.25
584.964	159.25
585.729	151.25
586.495	150.25
587.26	140.25
588.025	123.25
588.791	128.25
589.556	117.25
590.321	109.25
591.086	103.25
591.851	103.25
592.616	93.25
593.381	86.25
594.146	85.25
594.911	82.25
595.675	77.25
596.44	79.25
597.204	72.25
597.969	66.25
598.733	65.25
599.497	62.25
600.261	58.25
601.025	54.25
601.79	53.25
602.553	54.25
603.317	53.25
604.081	45.25
604.845	45.25
605.609	43.25
606.372	41.25
607.136	41.25
607.899	40.25
608.662	41.25
609.426	35.25
610.189	35.25
610.952	32.25
611.715	31.25
612.478	32.25
613.241	30.25
614.004	28.25
614.767	28.25
615.529	27.25
616.292	26.25
617.055	23.25
617.817	21.25
618.579	23.25
619.342	22.25
620.104	24.25
620.866	21.25
621.628	23.25
622.39	21.25
623.152	18.25
623.914	16.25
624.676	16.25
625.438	16.25
626.199	17.25
626.961	16.25
627.722	15.25
628.484	15.25
629.245	9.25
630.006	13.25
630.768	12.25
631.529	14.25
632.29	14.25
633.051	12.25
633.812	14.25
634.573	12.25
635.333	10.25
636.094	10.25
636.855	10.25
637.615	10.25
638.376	10.25
639.136	12.25
639.896	11.25
640.657	9.25
641.417	9.25
642.177	12.25
642.937	11.25
643.697	9.25
644.457	10.25
645.216	8.25
645.976	12.25
646.736	8.25
647.495	8.25
648.255	8.25
649.014	7.25
649.774	9.25
650.533	8.25
651.292	6.25
652.051	4.25
652.81	6.25
653.569	8.25
654.328	8.25
655.087	10.25
655.846	7.25
656.604	4.25
657.363	7.25
658.121	8.25
658.88	8.25
659.638	5.25
660.397	6.25
661.155	5.25
661.913	6.25
662.671	7.25
663.429	2.25
664.187	7.25
664.945	6.25
665.703	6.25
666.46	7.25
667.218	4.25
667.976	5.25
668.733	4.25
669.49	7.25
670.248	4.25
671.005	4.25
671.762	8.25
672.519	5.25
673.276	4.25
674.033	7.25
674.79	5.25
675.547	3.25
676.304	2.25
677.06	2.25
677.817	5.25
678.574	5.25
679.33	5.25
680.086	5.25
680.843	3.25
681.599	3.25
682.355	3.25
683.111	5.25
683.867	4.25
684.623	4.25
685.379	2.25
686.135	3.25
686.89	3.25
687.646	5.25
688.402	5.25
689.157	6.25
689.912	4.25
690.668	5.25
691.423	6.25
692.178	4.25
692.933	6.25
693.688	3.25
694.443	4.25
695.198	4.25
695.953	4.25
696.708	5.25
697.462	4.25
698.217	3.25
698.972	4.25
699.726	6.25
700.48	4.25
701.235	5.25
701.989	3.25
702.743	4.25
703.497	4.25
704.251	4.25
705.005	2.25
705.759	5.25
706.513	7.25
707.266	2.25
708.02	4.25
708.774	2.25
709.527	7.25
710.28	4.25
711.034	6.25
711.787	4.25
712.54	5.25
713.293	2.25
714.046	3.25
714.799	5.25
715.552	2.25
716.305	5.25
717.058	4.25
717.81	3.25
718.563	3.25
719.315	4.25
720.068	4.25
720.82	4.25
721.573	4.25
722.325	5.25
723.077	2.25
723.829	6.25
724.581	4.25
725.333	5.25
726.085	4.25
726.836	5.25
727.588	4.25
728.34	3.25
729.091	4.25
729.843	5.25
730.594	7.25
731.346	3.25
732.097	3.25
732.848	6.25
733.599	5.25
734.35	5.25
735.101	4.25
735.852	6.25
736.603	5.25
737.354	4.25
738.104	7.25
738.855	8.25
739.605	5.25
740.356	6.25
741.106	6.25
741.856	7.25
742.607	4.25
743.357	4.25
744.107	5.25
744.857	5.25
745.607	5.25
746.357	4.25
747.106	6.25
747.856	6.25
748.606	5.25
749.355	9.25
750.105	4.25
750.854	9.25
751.603	4.25
752.353	5.25
753.102	5.25
753.851	7.25
754.6	7.25
755.349	5.25
756.098	8.25
756.847	5.25
757.595	7.25
758.344	8.25
759.093	7.25
759.841	8.25
760.589	7.25
761.338	7.25
762.086	7.25
762.834	7.25
763.582	7.25
764.331	8.25
765.079	7.25
765.826	6.25
766.574	7.25
767.322	8.25
768.07	6.25
768.817	9.25
769.565	10.25
770.312	8.25
771.06	8.25
771.807	10.25
772.554	8.25
773.302	10.25
774.049	8.25
774.796	8.25
775.543	11.25
776.29	9.25
777.036	8.25
777.783	12.25
778.53	8.25
779.276	10.25
780.023	11.25
780.769	11.25
781.516	10.25
782.262	7.25
783.008	9.25
783.754	10.25
784.5	9.25
785.246	7.25
785.992	10.25
786.738	13.25
787.484	9.25
788.23	10.25
788.975	10.25
789.721	8.25
790.466	8.25
791.212	9.25
791.957	12.25
792.702	9.25
793.447	8.25
794.193	7.25
794.938	7.25
795.683	8.25
796.427	7.25
797.172	9.25
797.917	7.25
798.662	9.25
799.406	8.25
800.151	10.25
800.895	9.25
801.64	8.25
802.384	10.25
803.128	8.25
803.872	8.25
804.616	8.25
805.36	5.25
806.104	6.25
806.848	5.25
807.592	8.25
808.336	5.25
809.079	6.25
809.823	4.25
810.566	7.25
811.31	5.25
812.053	6.25
812.796	8.25
813.539	9.25
814.283	4.25
815.026	7.25
815.769	3.25
816.511	7.25
817.254	6.25
817.997	4.25
818.74	3.25
819.482	6.25
820.225	3.25
820.967	4.25
821.71	6.25
822.452	8.25
823.194	4.25
823.936	7.25
824.678	4.25
825.42	4.25
826.162	6.25
826.904	5.25
827.646	4.25
828.388	5.25
829.129	5.25
829.871	4.25
830.612	3.25
831.354	5.25
832.095	1.25
832.836	4.25
833.577	4.25
834.319	5.25
835.06	3.25
835.801	5.25
836.542	2.25
837.282	4.25
838.023	3.25
838.764	3.25
839.504	3.25
840.245	7.25
840.985	3.25
841.726	5.25
842.466	2.25
843.206	3.25
843.946	3.25
844.687	4.25
845.427	4.25
846.166	2.25
846.906	3.25
847.646	4.25
848.386	6.25
849.125	2.25
849.865	4.25
850.605	4.25
851.344	3.25
852.083	2.25
852.823	3.25
853.562	2.25
854.301	1.25
855.04	4.25
855.779	5.25
856.518	1.25
857.257	2.25
857.995	3.25
858.734	3.25
859.473	2.25
860.211	3.25
860.95	3.25
861.688	6.25
862.426	1.25
863.165	2.25
863.903	0.25
864.641	1.25
865.379	0.25
866.117	4.25
866.855	2.25
867.593	4.25
868.33	4.25
869.068	2.25
869.806	2.25
870.543	2.25
871.28	3.25
872.018	2.25
872.755	0.25
873.492	4.25
874.229	0.25
874.967	3.25
875.703	2.25
876.44	4.25
877.177	3.25
877.914	3.25
878.651	5.25
879.387	0.25
880.124	2.25
880.86	4.25
881.597	0.25
882.333	2.25
883.069	0.25
883.806	1.25
884.542	2.25
885.278	1.25
886.014	0.25
886.749	0.25
887.485	4.25
888.221	0.25
888.957	2.25
889.692	1.25
890.428	2.25
891.163	-0.75
891.899	3.25
892.634	2.25
893.369	1.25
894.104	3.25
894.839	1.25
895.574	0.25
896.309	2.25
897.044	0.25
897.779	1.25
898.514	0.25
899.248	0.25
899.983	2.25
900.717	1.25
901.452	1.25
902.186	2.25
902.92	1.25
903.654	2.25
904.389	1.25
905.123	-0.75
905.857	0.25
906.59	0.25
907.324	3.25
908.058	2.25
908.792	2.25
909.525	0.25
910.259	2.25
910.992	0.25
911.726	1.25
912.459	2.25
913.192	0.25
913.925	2.25
914.658	0.25
915.391	2.25
916.124	0.25
916.857	0.25
917.59	1.25
918.323	-0.75
919.055	1.25
919.788	-1.75
920.521	0.25
921.253	3.25
921.985	0.25
922.718	1.25
923.45	0.25
924.182	2.25
924.914	1.25
925.646	0.25
926.378	2.25
927.11	1.25
927.841	1.25
928.573	1.25
929.305	1.25
930.036	2.25
930.768	1.25
931.499	0.25
932.23	1.25
932.962	0.25
933.693	1.25
934.424	1.25
935.155	1.25
935.886	-1.75
936.617	0.25
937.348	1.25
938.078	1.25
938.809	1.25
939.54	1.25
940.27	-1.75
941.001	1.25
941.731	1.25
942.461	1.25
943.191	1.25
943.922	0.25
944.652	0.25
945.382	-0.75
946.112	1.25
946.841	2.25
947.571	0.25
948.301	2.25
949.031	-1.75
949.76	0.25
950.49	2.25
951.219	-0.75
951.948	3.25
952.678	2.25
953.407	0.25
954.136	2.25
954.865	0.25
955.594	-0.75
956.323	1.25
957.052	0.25
957.78	0.25
958.509	0.25
959.238	0.25
959.966	0.25
960.695	1.25
961.423	0.25
962.151	2.25
962.88	-0.75
963.608	2.25
964.336	1.25
965.064	0.25
965.792	2.25
966.52	2.25
967.247	2.25
967.975	-1.75
968.703	2.25
969.43	1.25
970.158	-0.75
970.885	0.25
971.613	1.25
972.34	-0.75
973.067	1.25
973.794	0.25
974.521	2.25
975.248	1.25
975.975	3.25
976.702	0.25
977.429	1.25
978.156	2.25
978.882	0.25
979.609	-0.75
980.335	-0.75
981.062	2.25
981.788	1.25
982.514	1.25
983.24	0.25
983.967	1.25
984.693	3.25
985.419	0.25
986.144	0.25
986.87	1.25
987.596	0.25
988.322	3.25
989.047	1.25
989.773	2.25
990.498	4.25
991.224	2.25
991.949	1.25
992.674	2.25
993.399	1.25
994.124	1.25
994.849	-1.75
995.574	0.25
996.299	0.25
997.024	0.25
997.749	0.25
998.473	4.25
999.198	0.25
999.922	2.25
1000.647	2.25
1001.371	3.25
1002.095	-0.75
1002.82	-1.75
1003.544	-2.75
1004.268	3.25
1004.992	0.25
1005.716	1.25
1006.439	2.25
1007.163	0.25
1007.887	2.25
1008.611	1.25
1009.334	0.25
1010.058	3.25
1010.781	1.25
1011.504	1.25
1012.228	1.25
1012.951	1.25
1013.674	-0.75
1014.397	2.25
1015.12	-0.75
