节点500_285_QEPB04081__730__15-07-41-821.txt的数据

Date: Wed Nov 12 15:07:41 CST 2025
User: PC
Spectrometer: QEPB0408
触发模式: 0
积分时间 (秒): 1.000000E-2
Scans to average: 1
启用暗噪声校正: true
启用非线性校正: false
滑动平均宽度: 0
X轴模式: Wavelengths
Number of Pixels in Spectrum: 1044
>>>>>Begin Spectral Data<<<<<
220.843	1
221.644	1
222.444	3
223.244	1
224.045	0
224.845	3
225.645	1
226.445	2
227.245	5
228.045	2
228.845	1
229.645	5
230.444	3
231.244	1
232.043	1
232.843	3
233.642	4
234.442	4
235.241	3
236.04	4
236.839	4
237.638	4
238.437	1
239.236	7
240.035	3
240.833	4
241.632	3
242.43	4
243.229	3
244.027	3
244.826	5
245.624	4
246.422	5
247.22	6
248.018	6
248.816	6
249.614	5
250.412	5
251.21	5
252.007	5
252.805	5
253.602	6
254.4	8
255.197	6
255.994	5
256.791	7
257.589	5
258.386	8
259.183	10
259.979	10
260.776	10
261.573	9
262.37	8
263.166	8
263.963	11
264.759	11
265.556	10
266.352	13
267.148	13
267.944	14
268.74	11
269.536	12
270.332	14
271.128	14
271.924	12
272.719	14
273.515	17
274.311	12
275.106	15
275.901	14
276.697	16
277.492	15
278.287	14
279.082	17
279.877	17
280.672	17
281.467	16
282.262	17
283.056	14
283.851	17
284.646	20
285.44	18
286.234	20
287.029	18
287.823	19
288.617	18
289.411	16
290.205	16
290.999	17
291.793	15
292.587	18
293.381	16
294.174	17
294.968	14
295.761	14
296.555	13
297.348	16
298.141	13
298.935	12
299.728	13
300.521	14
301.314	17
302.107	16
302.899	11
303.692	11
304.485	14
305.277	13
306.07	13
306.862	10
307.655	10
308.447	13
309.239	13
310.031	12
310.823	13
311.615	13
312.407	9
313.199	11
313.991	10
314.783	9
315.574	11
316.366	9
317.157	9
317.949	10
318.74	7
319.531	8
320.322	12
321.113	9
321.904	10
322.695	9
323.486	5
324.277	7
325.068	6
325.858	7
326.649	3
327.439	8
328.23	5
329.02	6
329.81	5
330.6	6
331.391	8
332.181	6
332.971	6
333.76	8
334.55	8
335.34	8
336.13	4
336.919	6
337.709	5
338.498	7
339.287	5
340.077	9
340.866	6
341.655	5
342.444	7
343.233	6
344.022	6
344.811	6
345.6	6
346.388	7
347.177	6
347.965	6
348.754	6
349.542	5
350.33	8
351.119	6
351.907	6
352.695	6
353.483	4
354.271	6
355.059	8
355.846	8
356.634	5
357.422	6
358.209	4
358.997	6
359.784	5
360.571	8
361.359	7
362.146	5
362.933	6
363.72	5
364.507	5
365.294	4
366.081	4
366.867	5
367.654	5
368.44	6
369.227	4
370.013	2
370.8	5
371.586	4
372.372	6
373.158	3
373.944	4
374.73	4
375.516	6
376.302	5
377.088	5
377.873	7
378.659	7
379.445	4
380.23	7
381.015	5
381.801	4
382.586	7
383.371	7
384.156	5
384.941	4
385.726	6
386.511	6
387.296	9
388.08	6
388.865	6
389.649	5
390.434	4
391.218	5
392.003	6
392.787	2
393.571	7
394.355	6
395.139	5
395.923	6
396.707	9
397.491	5
398.274	10
399.058	7
399.842	7
400.625	6
401.408	6
402.192	7
402.975	10
403.758	7
404.541	6
405.324	6
406.107	7
406.89	8
407.673	8
408.456	6
409.238	7
410.021	8
410.803	7
411.586	7
412.368	8
413.151	9
413.933	9
414.715	9
415.497	9
416.279	8
417.061	8
417.843	10
418.624	11
419.406	12
420.188	9
420.969	10
421.751	10
422.532	10
423.313	9
424.095	11
424.876	10
425.657	13
426.438	12
427.219	12
428	11
428.78	12
429.561	13
430.342	14
431.122	11
431.903	13
432.683	14
433.464	15
434.244	14
435.024	17
435.804	20
436.584	18
437.364	18
438.144	18
438.924	21
439.704	23
440.483	22
441.263	22
442.042	27
442.822	25
443.601	28
444.38	30
445.16	35
445.939	32
446.718	38
447.497	42
448.276	44
449.054	50
449.833	52
450.612	54
451.391	61
452.169	73
452.948	73
453.726	82
454.504	91
455.282	99
456.061	106
456.839	124
457.617	141
458.395	152
459.172	168
459.95	192
460.728	200
461.506	231
462.283	255
463.061	289
463.838	321
464.615	358
465.393	399
466.17	436
466.947	486
467.724	542
468.501	607
469.278	665
470.055	737
470.831	817
471.608	897
472.385	1004
473.161	1116
473.938	1214
474.714	1331
475.49	1450
476.266	1617
477.043	1759
477.819	1937
478.595	2120
479.371	2333
480.146	2556
480.922	2802
481.698	3078
482.473	3346
483.249	3661
484.024	3981
484.8	4375
485.575	4759
486.35	5204
487.126	5650
487.901	6159
488.676	6700
489.451	7287
490.225	7954
491	8659
491.775	9357
492.55	10129
493.324	10990
494.099	11774
494.873	12644
495.647	13582
496.422	14603
497.196	15598
497.97	16635
498.744	17698
499.518	18731
500.292	19784
501.066	20763
501.839	21638
502.613	22593
503.387	23474
504.16	24116
504.934	24603
505.707	24970
506.48	25197
507.253	25399
508.027	25324
508.8	25197
509.573	25106
510.346	24710
511.118	24158
511.891	23683
512.664	23002
513.437	22272
514.209	21537
514.982	20699
515.754	19962
516.526	19086
517.298	18332
518.071	17549
518.843	16908
519.615	16337
520.387	15602
521.159	15027
521.93	14398
522.702	13868
523.474	13256
524.245	12703
525.017	12184
525.788	11725
526.56	11210
527.331	10691
528.102	10266
528.873	9831
529.644	9346
530.415	8912
531.186	8499
531.957	8074
532.728	7705
533.498	7324
534.269	6898
535.039	6564
535.81	6199
536.58	5858
537.351	5523
538.121	5224
538.891	4970
539.661	4690
540.431	4423
541.201	4194
541.971	4003
542.741	3778
543.51	3568
544.28	3398
545.05	3245
545.819	3077
546.588	2932
547.358	2771
548.127	2643
548.896	2512
549.665	2392
550.434	2260
551.203	2133
551.972	2033
552.741	1913
553.51	1829
554.278	1730
555.047	1631
555.815	1542
556.584	1455
557.352	1362
558.121	1291
558.889	1211
559.657	1151
560.425	1106
561.193	1041
561.961	985
562.729	922
563.496	871
564.264	814
565.032	777
565.799	747
566.567	698
567.334	661
568.101	621
568.869	587
569.636	553
570.403	517
571.17	488
571.937	465
572.704	437
573.471	417
574.237	385
575.004	363
575.771	340
576.537	328
577.303	309
578.07	291
578.836	274
579.602	260
580.368	244
581.134	228
581.9	222
582.666	210
583.432	195
584.198	185
584.964	174
585.729	171
586.495	161
587.26	149
588.025	146
588.791	132
589.556	131
590.321	125
591.086	113
591.851	107
592.616	104
593.381	101
594.146	96
594.911	91
595.675	85
596.44	80
597.204	79
597.969	72
598.733	76
599.497	67
600.261	66
601.025	60
601.79	59
602.553	55
603.317	53
604.081	49
604.845	46
605.609	51
606.372	43
607.136	45
607.899	40
608.662	40
609.426	38
610.189	38
610.952	36
611.715	34
612.478	33
613.241	30
614.004	30
614.767	31
615.529	29
616.292	26
617.055	26
617.817	24
618.579	28
619.342	24
620.104	22
620.866	23
621.628	21
622.39	21
623.152	19
623.914	18
624.676	19
625.438	16
626.199	17
626.961	16
627.722	17
628.484	15
629.245	15
630.006	14
630.768	15
631.529	15
632.29	11
633.051	14
633.812	11
634.573	13
635.333	12
636.094	10
636.855	12
637.615	11
638.376	10
639.136	10
639.896	9
640.657	9
641.417	8
642.177	7
642.937	9
643.697	11
644.457	7
645.216	10
645.976	8
646.736	8
647.495	9
648.255	9
649.014	8
649.774	9
650.533	9
651.292	7
652.051	5
652.81	9
653.569	5
654.328	7
655.087	8
655.846	5
656.604	4
657.363	6
658.121	6
658.88	6
659.638	7
660.397	6
661.155	5
661.913	6
662.671	4
663.429	7
664.187	6
664.945	7
665.703	4
666.46	4
667.218	6
667.976	4
668.733	3
669.49	4
670.248	4
671.005	6
671.762	3
672.519	4
673.276	6
674.033	5
674.79	4
675.547	2
676.304	4
677.06	4
677.817	5
678.574	5
679.33	5
680.086	5
680.843	3
681.599	5
682.355	3
683.111	5
683.867	4
684.623	5
685.379	4
686.135	2
686.89	3
687.646	3
688.402	4
689.157	6
689.912	4
690.668	5
691.423	3
692.178	4
692.933	2
693.688	4
694.443	3
695.198	4
695.953	5
696.708	3
697.462	3
698.217	4
698.972	5
699.726	5
700.48	2
701.235	3
701.989	5
702.743	2
703.497	5
704.251	2
705.005	4
705.759	3
706.513	5
707.266	7
708.02	4
708.774	5
709.527	2
710.28	4
711.034	3
711.787	5
712.54	6
713.293	3
714.046	6
714.799	2
715.552	2
716.305	6
717.058	3
717.81	5
718.563	4
719.315	7
720.068	1
720.82	4
721.573	3
722.325	2
723.077	2
723.829	2
724.581	5
725.333	3
726.085	3
726.836	1
727.588	4
728.34	3
729.091	4
729.843	4
730.594	2
731.346	5
732.097	4
732.848	4
733.599	3
734.35	4
735.101	4
735.852	5
736.603	7
737.354	4
738.104	4
738.855	5
739.605	4
740.356	4
741.106	4
741.856	5
742.607	5
743.357	7
744.107	5
744.857	4
745.607	6
746.357	8
747.106	5
747.856	5
748.606	4
749.355	6
750.105	4
750.854	6
751.603	2
752.353	5
753.102	5
753.851	6
754.6	6
755.349	7
756.098	6
756.847	5
757.595	4
758.344	6
759.093	2
759.841	5
760.589	7
761.338	5
762.086	8
762.834	4
763.582	6
764.331	6
765.079	7
765.826	6
766.574	6
767.322	6
768.07	6
768.817	8
769.565	7
770.312	8
771.06	7
771.807	6
772.554	9
773.302	7
774.049	10
774.796	9
775.543	6
776.29	8
777.036	6
777.783	9
778.53	7
779.276	6
780.023	8
780.769	6
781.516	8
782.262	7
783.008	10
783.754	8
784.5	8
785.246	11
785.992	8
786.738	10
787.484	7
788.23	10
788.975	8
789.721	9
790.466	7
791.212	8
791.957	8
792.702	7
793.447	9
794.193	8
794.938	8
795.683	9
796.427	7
797.172	8
797.917	7
798.662	6
799.406	5
800.151	7
800.895	5
801.64	9
802.384	7
803.128	6
803.872	7
804.616	7
805.36	6
806.104	8
806.848	6
807.592	6
808.336	8
809.079	7
809.823	6
810.566	6
811.31	4
812.053	4
812.796	7
813.539	6
814.283	4
815.026	5
815.769	6
816.511	7
817.254	3
817.997	5
818.74	4
819.482	6
820.225	7
820.967	4
821.71	5
822.452	3
823.194	4
823.936	4
824.678	4
825.42	4
826.162	2
826.904	4
827.646	2
828.388	3
829.129	5
829.871	4
830.612	1
831.354	1
832.095	5
832.836	5
833.577	3
834.319	4
835.06	2
835.801	5
836.542	2
837.282	4
838.023	2
838.764	6
839.504	4
840.245	2
840.985	5
841.726	4
842.466	4
843.206	3
843.946	5
844.687	3
845.427	2
846.166	4
846.906	2
847.646	5
848.386	5
849.125	5
849.865	3
850.605	3
851.344	4
852.083	2
852.823	2
853.562	4
854.301	2
855.04	2
855.779	2
856.518	1
857.257	2
857.995	3
858.734	2
859.473	2
860.211	4
860.95	2
861.688	2
862.426	4
863.165	2
863.903	4
864.641	-2
865.379	0
866.117	0
866.855	2
867.593	0
868.33	1
869.068	1
869.806	4
870.543	3
871.28	0
872.018	2
872.755	2
873.492	1
874.229	3
874.967	2
875.703	3
876.44	3
877.177	2
877.914	1
878.651	0
879.387	0
880.124	1
880.86	-1
881.597	3
882.333	2
883.069	2
883.806	1
884.542	1
885.278	1
886.014	3
886.749	0
887.485	2
888.221	2
888.957	0
889.692	2
890.428	2
891.163	-1
891.899	0
892.634	-1
893.369	1
894.104	0
894.839	3
895.574	1
896.309	1
897.044	2
897.779	1
898.514	2
899.248	1
899.983	0
900.717	0
901.452	2
902.186	0
902.92	-2
903.654	2
904.389	0
905.123	0
905.857	2
906.59	2
907.324	3
908.058	0
908.792	1
909.525	-1
910.259	3
910.992	-2
911.726	1
912.459	3
913.192	-1
913.925	0
914.658	1
915.391	0
916.124	0
916.857	1
917.59	3
918.323	-1
919.055	1
919.788	1
920.521	1
921.253	-1
921.985	-2
922.718	0
923.45	2
924.182	1
924.914	1
925.646	0
926.378	0
927.11	1
927.841	2
928.573	0
929.305	1
930.036	2
930.768	2
931.499	-1
932.23	-1
932.962	3
933.693	0
934.424	0
935.155	0
935.886	1
936.617	0
937.348	0
938.078	0
938.809	-1
939.54	1
940.27	0
941.001	0
941.731	1
942.461	1
943.191	0
943.922	-2
944.652	3
945.382	0
946.112	1
946.841	-1
947.571	0
948.301	0
949.031	0
949.76	0
950.49	1
951.219	0
951.948	-2
952.678	1
953.407	2
954.136	-2
954.865	0
955.594	1
956.323	1
957.052	2
957.78	2
958.509	0
959.238	0
959.966	1
960.695	1
961.423	0
962.151	1
962.88	1
963.608	0
964.336	0
965.064	2
965.792	-1
966.52	-2
967.247	2
967.975	1
968.703	2
969.43	1
970.158	1
970.885	-2
971.613	1
972.34	-2
973.067	0
973.794	0
974.521	1
975.248	1
975.975	1
976.702	0
977.429	-1
978.156	4
978.882	-1
979.609	4
980.335	0
981.062	-1
981.788	0
982.514	1
983.24	0
983.967	1
984.693	3
985.419	-1
986.144	2
986.87	0
987.596	-1
988.322	1
989.047	1
989.773	0
990.498	1
991.224	0
991.949	-1
992.674	0
993.399	3
994.124	-1
994.849	1
995.574	-2
996.299	2
997.024	1
997.749	0
998.473	2
999.198	-1
999.922	1
1000.647	0
1001.371	5
1002.095	0
1002.82	-3
1003.544	-2
1004.268	3
1004.992	0
1005.716	-1
1006.439	2
1007.163	1
1007.887	1
1008.611	2
1009.334	1
1010.058	1
1010.781	0
1011.504	1
1012.228	1
1012.951	2
1013.674	1
1014.397	0
1015.12	-3
