节点500_285_QEPB04081__248__14-59-40-897.txt的数据

Date: Wed Nov 12 14:59:40 CST 2025
User: PC
Spectrometer: QEPB0408
触发模式: 0
积分时间 (秒): 1.000000E-2
Scans to average: 1
启用暗噪声校正: true
启用非线性校正: false
滑动平均宽度: 0
X轴模式: Wavelengths
Number of Pixels in Spectrum: 1044
>>>>>Begin Spectral Data<<<<<
220.843	3.25
221.644	-0.75
222.444	0.25
223.244	1.25
224.045	3.25
224.845	2.25
225.645	0.25
226.445	0.25
227.245	3.25
228.045	2.25
228.845	3.25
229.645	2.25
230.444	4.25
231.244	2.25
232.043	6.25
232.843	2.25
233.642	2.25
234.442	4.25
235.241	2.25
236.04	4.25
236.839	3.25
237.638	4.25
238.437	3.25
239.236	3.25
240.035	1.25
240.833	3.25
241.632	7.25
242.43	3.25
243.229	7.25
244.027	4.25
244.826	6.25
245.624	8.25
246.422	7.25
247.22	6.25
248.018	4.25
248.816	6.25
249.614	5.25
250.412	6.25
251.21	8.25
252.007	6.25
252.805	7.25
253.602	7.25
254.4	6.25
255.197	10.25
255.994	7.25
256.791	9.25
257.589	8.25
258.386	8.25
259.183	8.25
259.979	12.25
260.776	11.25
261.573	8.25
262.37	9.25
263.166	7.25
263.963	11.25
264.759	12.25
265.556	12.25
266.352	13.25
267.148	12.25
267.944	13.25
268.74	17.25
269.536	11.25
270.332	15.25
271.128	15.25
271.924	16.25
272.719	13.25
273.515	17.25
274.311	16.25
275.106	16.25
275.901	18.25
276.697	18.25
277.492	17.25
278.287	17.25
279.082	19.25
279.877	17.25
280.672	17.25
281.467	18.25
282.262	19.25
283.056	19.25
283.851	21.25
284.646	16.25
285.44	17.25
286.234	18.25
287.029	23.25
287.823	21.25
288.617	18.25
289.411	19.25
290.205	16.25
290.999	18.25
291.793	16.25
292.587	19.25
293.381	18.25
294.174	17.25
294.968	17.25
295.761	15.25
296.555	15.25
297.348	15.25
298.141	13.25
298.935	17.25
299.728	15.25
300.521	16.25
301.314	13.25
302.107	13.25
302.899	13.25
303.692	12.25
304.485	13.25
305.277	12.25
306.07	16.25
306.862	13.25
307.655	9.25
308.447	9.25
309.239	11.25
310.031	13.25
310.823	12.25
311.615	10.25
312.407	10.25
313.199	10.25
313.991	11.25
314.783	8.25
315.574	8.25
316.366	8.25
317.157	6.25
317.949	9.25
318.74	8.25
319.531	7.25
320.322	9.25
321.113	6.25
321.904	7.25
322.695	8.25
323.486	5.25
324.277	6.25
325.068	9.25
325.858	6.25
326.649	7.25
327.439	5.25
328.23	7.25
329.02	5.25
329.81	9.25
330.6	7.25
331.391	8.25
332.181	8.25
332.971	10.25
333.76	5.25
334.55	6.25
335.34	5.25
336.13	7.25
336.919	6.25
337.709	4.25
338.498	7.25
339.287	6.25
340.077	7.25
340.866	5.25
341.655	6.25
342.444	8.25
343.233	5.25
344.022	4.25
344.811	5.25
345.6	7.25
346.388	8.25
347.177	6.25
347.965	4.25
348.754	5.25
349.542	6.25
350.33	3.25
351.119	9.25
351.907	6.25
352.695	6.25
353.483	6.25
354.271	3.25
355.059	7.25
355.846	7.25
356.634	5.25
357.422	7.25
358.209	4.25
358.997	7.25
359.784	6.25
360.571	5.25
361.359	7.25
362.146	6.25
362.933	7.25
363.72	4.25
364.507	7.25
365.294	4.25
366.081	5.25
366.867	7.25
367.654	6.25
368.44	5.25
369.227	4.25
370.013	6.25
370.8	4.25
371.586	3.25
372.372	3.25
373.158	4.25
373.944	4.25
374.73	6.25
375.516	3.25
376.302	4.25
377.088	4.25
377.873	5.25
378.659	3.25
379.445	3.25
380.23	2.25
381.015	6.25
381.801	4.25
382.586	5.25
383.371	4.25
384.156	4.25
384.941	6.25
385.726	4.25
386.511	5.25
387.296	4.25
388.08	5.25
388.865	7.25
389.649	3.25
390.434	4.25
391.218	6.25
392.003	3.25
392.787	5.25
393.571	7.25
394.355	9.25
395.139	3.25
395.923	8.25
396.707	5.25
397.491	6.25
398.274	7.25
399.058	6.25
399.842	6.25
400.625	8.25
401.408	5.25
402.192	7.25
402.975	9.25
403.758	8.25
404.541	7.25
405.324	8.25
406.107	8.25
406.89	5.25
407.673	9.25
408.456	8.25
409.238	9.25
410.021	9.25
410.803	8.25
411.586	9.25
412.368	7.25
413.151	8.25
413.933	7.25
414.715	9.25
415.497	8.25
416.279	7.25
417.061	10.25
417.843	11.25
418.624	8.25
419.406	11.25
420.188	10.25
420.969	10.25
421.751	9.25
422.532	12.25
423.313	11.25
424.095	10.25
424.876	12.25
425.657	13.25
426.438	13.25
427.219	11.25
428	10.25
428.78	13.25
429.561	15.25
430.342	14.25
431.122	12.25
431.903	14.25
432.683	15.25
433.464	19.25
434.244	20.25
435.024	16.25
435.804	18.25
436.584	18.25
437.364	20.25
438.144	19.25
438.924	23.25
439.704	21.25
440.483	23.25
441.263	23.25
442.042	26.25
442.822	26.25
443.601	24.25
444.38	30.25
445.16	32.25
445.939	35.25
446.718	36.25
447.497	40.25
448.276	42.25
449.054	44.25
449.833	45.25
450.612	51.25
451.391	54.25
452.169	61.25
452.948	67.25
453.726	71.25
454.504	81.25
455.282	85.25
456.061	95.25
456.839	107.25
457.617	122.25
458.395	132.25
459.172	143.25
459.95	165.25
460.728	181.25
461.506	210.25
462.283	225.25
463.061	254.25
463.838	283.25
464.615	319.25
465.393	355.25
466.17	391.25
466.947	439.25
467.724	502.25
468.501	545.25
469.278	607.25
470.055	672.25
470.831	753.25
471.608	837.25
472.385	936.25
473.161	1042.25
473.938	1146.25
474.714	1276.25
475.49	1418.25
476.266	1570.25
477.043	1731.25
477.819	1933.25
478.595	2127.25
479.371	2347.25
480.146	2597.25
480.922	2862.25
481.698	3159.25
482.473	3483.25
483.249	3849.25
484.024	4254.25
484.8	4663.25
485.575	5143.25
486.35	5657.25
487.126	6195.25
487.901	6825.25
488.676	7442.25
489.451	8203.25
490.225	9006.25
491	9840.25
491.775	10716.25
492.55	11720.25
493.324	12728.25
494.099	13687.25
494.873	14785.25
495.647	15939.25
496.422	17116.25
497.196	18296.25
497.97	19568.25
498.744	20718.25
499.518	22008.25
500.292	23111.25
501.066	24236.25
501.839	25163.25
502.613	26062.25
503.387	26801.25
504.16	27396.25
504.934	27661.25
505.707	27823.25
506.48	27835.25
507.253	27703.25
508.027	27340.25
508.8	27007.25
509.573	26606.25
510.346	25904.25
511.118	25100.25
511.891	24209.25
512.664	23320.25
513.437	22408.25
514.209	21475.25
514.982	20635.25
515.754	19675.25
516.526	18771.25
517.298	18008.25
518.071	17185.25
518.843	16551.25
519.615	15900.25
520.387	15257.25
521.159	14649.25
521.93	14064.25
522.702	13513.25
523.474	12943.25
524.245	12416.25
525.017	11874.25
525.788	11383.25
526.56	10865.25
527.331	10359.25
528.102	9871.25
528.873	9410.25
529.644	8983.25
530.415	8527.25
531.186	8100.25
531.957	7644.25
532.728	7299.25
533.498	6891.25
534.269	6481.25
535.039	6133.25
535.81	5814.25
536.58	5466.25
537.351	5154.25
538.121	4862.25
538.891	4618.25
539.661	4356.25
540.431	4105.25
541.201	3883.25
541.971	3691.25
542.741	3490.25
543.51	3315.25
544.28	3167.25
545.05	3021.25
545.819	2857.25
546.588	2719.25
547.358	2599.25
548.127	2463.25
548.896	2337.25
549.665	2200.25
550.434	2084.25
551.203	1975.25
551.972	1878.25
552.741	1776.25
553.51	1676.25
554.278	1586.25
555.047	1491.25
555.815	1394.25
556.584	1336.25
557.352	1251.25
558.121	1189.25
558.889	1112.25
559.657	1042.25
560.425	997.25
561.193	930.25
561.961	886.25
562.729	828.25
563.496	802.25
564.264	760.25
565.032	708.25
565.799	672.25
566.567	632.25
567.334	604.25
568.101	558.25
568.869	541.25
569.636	494.25
570.403	462.25
571.17	436.25
571.937	422.25
572.704	392.25
573.471	370.25
574.237	359.25
575.004	339.25
575.771	315.25
576.537	301.25
577.303	275.25
578.07	265.25
578.836	241.25
579.602	233.25
580.368	217.25
581.134	205.25
581.9	199.25
582.666	184.25
583.432	176.25
584.198	171.25
584.964	159.25
585.729	145.25
586.495	145.25
587.26	133.25
588.025	131.25
588.791	115.25
589.556	115.25
590.321	105.25
591.086	106.25
591.851	99.25
592.616	95.25
593.381	88.25
594.146	83.25
594.911	84.25
595.675	75.25
596.44	72.25
597.204	70.25
597.969	67.25
598.733	65.25
599.497	59.25
600.261	57.25
601.025	54.25
601.79	56.25
602.553	53.25
603.317	49.25
604.081	49.25
604.845	45.25
605.609	45.25
606.372	41.25
607.136	37.25
607.899	39.25
608.662	34.25
609.426	35.25
610.189	34.25
610.952	35.25
611.715	30.25
612.478	28.25
613.241	29.25
614.004	29.25
614.767	26.25
615.529	26.25
616.292	26.25
617.055	24.25
617.817	20.25
618.579	23.25
619.342	22.25
620.104	21.25
620.866	18.25
621.628	19.25
622.39	20.25
623.152	17.25
623.914	17.25
624.676	18.25
625.438	17.25
626.199	17.25
626.961	15.25
627.722	15.25
628.484	15.25
629.245	13.25
630.006	11.25
630.768	12.25
631.529	11.25
632.29	11.25
633.051	12.25
633.812	11.25
634.573	11.25
635.333	11.25
636.094	11.25
636.855	9.25
637.615	10.25
638.376	9.25
639.136	9.25
639.896	12.25
640.657	9.25
641.417	7.25
642.177	9.25
642.937	7.25
643.697	9.25
644.457	8.25
645.216	7.25
645.976	7.25
646.736	7.25
647.495	9.25
648.255	6.25
649.014	9.25
649.774	6.25
650.533	5.25
651.292	8.25
652.051	4.25
652.81	7.25
653.569	5.25
654.328	7.25
655.087	7.25
655.846	5.25
656.604	7.25
657.363	5.25
658.121	5.25
658.88	5.25
659.638	5.25
660.397	6.25
661.155	6.25
661.913	6.25
662.671	6.25
663.429	4.25
664.187	7.25
664.945	5.25
665.703	5.25
666.46	3.25
667.218	6.25
667.976	4.25
668.733	3.25
669.49	4.25
670.248	7.25
671.005	6.25
671.762	2.25
672.519	4.25
673.276	7.25
674.033	6.25
674.79	7.25
675.547	5.25
676.304	4.25
677.06	1.25
677.817	3.25
678.574	5.25
679.33	5.25
680.086	4.25
680.843	5.25
681.599	5.25
682.355	3.25
683.111	3.25
683.867	4.25
684.623	5.25
685.379	4.25
686.135	3.25
686.89	5.25
687.646	3.25
688.402	2.25
689.157	3.25
689.912	2.25
690.668	4.25
691.423	3.25
692.178	3.25
692.933	4.25
693.688	2.25
694.443	5.25
695.198	2.25
695.953	5.25
696.708	4.25
697.462	4.25
698.217	3.25
698.972	4.25
699.726	3.25
700.48	2.25
701.235	4.25
701.989	5.25
702.743	4.25
703.497	1.25
704.251	3.25
705.005	5.25
705.759	3.25
706.513	4.25
707.266	3.25
708.02	4.25
708.774	4.25
709.527	3.25
710.28	4.25
711.034	1.25
711.787	3.25
712.54	4.25
713.293	3.25
714.046	4.25
714.799	4.25
715.552	3.25
716.305	5.25
717.058	2.25
717.81	1.25
718.563	3.25
719.315	2.25
720.068	2.25
720.82	2.25
721.573	5.25
722.325	2.25
723.077	4.25
723.829	3.25
724.581	3.25
725.333	5.25
726.085	1.25
726.836	4.25
727.588	5.25
728.34	3.25
729.091	3.25
729.843	6.25
730.594	4.25
731.346	3.25
732.097	4.25
732.848	4.25
733.599	3.25
734.35	5.25
735.101	2.25
735.852	2.25
736.603	4.25
737.354	5.25
738.104	4.25
738.855	6.25
739.605	1.25
740.356	4.25
741.106	5.25
741.856	4.25
742.607	7.25
743.357	5.25
744.107	5.25
744.857	4.25
745.607	4.25
746.357	5.25
747.106	5.25
747.856	2.25
748.606	7.25
749.355	4.25
750.105	5.25
750.854	5.25
751.603	5.25
752.353	5.25
753.102	2.25
753.851	3.25
754.6	7.25
755.349	3.25
756.098	5.25
756.847	5.25
757.595	4.25
758.344	6.25
759.093	9.25
759.841	5.25
760.589	7.25
761.338	5.25
762.086	5.25
762.834	8.25
763.582	8.25
764.331	6.25
765.079	6.25
765.826	7.25
766.574	7.25
767.322	7.25
768.07	8.25
768.817	5.25
769.565	9.25
770.312	8.25
771.06	6.25
771.807	8.25
772.554	8.25
773.302	6.25
774.049	8.25
774.796	9.25
775.543	10.25
776.29	7.25
777.036	8.25
777.783	7.25
778.53	9.25
779.276	7.25
780.023	8.25
780.769	7.25
781.516	5.25
782.262	7.25
783.008	6.25
783.754	8.25
784.5	8.25
785.246	8.25
785.992	8.25
786.738	10.25
787.484	7.25
788.23	8.25
788.975	8.25
789.721	9.25
790.466	6.25
791.212	11.25
791.957	6.25
792.702	7.25
793.447	7.25
794.193	7.25
794.938	9.25
795.683	6.25
796.427	10.25
797.172	9.25
797.917	6.25
798.662	9.25
799.406	7.25
800.151	5.25
800.895	7.25
801.64	9.25
802.384	7.25
803.128	5.25
803.872	8.25
804.616	8.25
805.36	7.25
806.104	5.25
806.848	6.25
807.592	6.25
808.336	5.25
809.079	7.25
809.823	6.25
810.566	5.25
811.31	7.25
812.053	6.25
812.796	5.25
813.539	4.25
814.283	5.25
815.026	4.25
815.769	5.25
816.511	5.25
817.254	5.25
817.997	6.25
818.74	7.25
819.482	6.25
820.225	4.25
820.967	3.25
821.71	5.25
822.452	3.25
823.194	5.25
823.936	4.25
824.678	5.25
825.42	5.25
826.162	5.25
826.904	6.25
827.646	2.25
828.388	3.25
829.129	3.25
829.871	2.25
830.612	5.25
831.354	3.25
832.095	3.25
832.836	2.25
833.577	4.25
834.319	5.25
835.06	4.25
835.801	2.25
836.542	4.25
837.282	3.25
838.023	3.25
838.764	1.25
839.504	1.25
840.245	2.25
840.985	2.25
841.726	1.25
842.466	5.25
843.206	2.25
843.946	4.25
844.687	0.25
845.427	1.25
846.166	5.25
846.906	3.25
847.646	1.25
848.386	2.25
849.125	3.25
849.865	4.25
850.605	1.25
851.344	2.25
852.083	-0.75
852.823	4.25
853.562	3.25
854.301	3.25
855.04	1.25
855.779	3.25
856.518	1.25
857.257	2.25
857.995	1.25
858.734	2.25
859.473	-1.75
860.211	1.25
860.95	2.25
861.688	3.25
862.426	1.25
863.165	1.25
863.903	2.25
864.641	0.25
865.379	1.25
866.117	1.25
866.855	3.25
867.593	3.25
868.33	1.25
869.068	2.25
869.806	0.25
870.543	2.25
871.28	0.25
872.018	-0.75
872.755	3.25
873.492	2.25
874.229	0.25
874.967	1.25
875.703	2.25
876.44	1.25
877.177	0.25
877.914	0.25
878.651	-0.75
879.387	4.25
880.124	-0.75
880.86	1.25
881.597	1.25
882.333	0.25
883.069	1.25
883.806	1.25
884.542	1.25
885.278	1.25
886.014	1.25
886.749	0.25
887.485	1.25
888.221	3.25
888.957	1.25
889.692	-0.75
890.428	-0.75
891.163	0.25
891.899	1.25
892.634	1.25
893.369	0.25
894.104	0.25
894.839	-0.75
895.574	-0.75
896.309	0.25
897.044	0.25
897.779	1.25
898.514	1.25
899.248	0.25
899.983	1.25
900.717	1.25
901.452	-2.75
902.186	-0.75
902.92	2.25
903.654	-0.75
904.389	2.25
905.123	-0.75
905.857	1.25
906.59	2.25
907.324	2.25
908.058	0.25
908.792	1.25
909.525	-0.75
910.259	0.25
910.992	1.25
911.726	0.25
912.459	-0.75
913.192	-0.75
913.925	1.25
914.658	1.25
915.391	0.25
916.124	-0.75
916.857	2.25
917.59	0.25
918.323	1.25
919.055	-1.75
919.788	1.25
920.521	1.25
921.253	0.25
921.985	1.25
922.718	0.25
923.45	1.25
924.182	-1.75
924.914	-0.75
925.646	1.25
926.378	2.25
927.11	0.25
927.841	-1.75
928.573	-0.75
929.305	-1.75
930.036	-0.75
930.768	0.25
931.499	1.25
932.23	0.25
932.962	-1.75
933.693	-0.75
934.424	-0.75
935.155	1.25
935.886	0.25
936.617	-1.75
937.348	0.25
938.078	0.25
938.809	0.25
939.54	0.25
940.27	-0.75
941.001	-1.75
941.731	-2.75
942.461	-1.75
943.191	-0.75
943.922	1.25
944.652	-1.75
945.382	0.25
946.112	0.25
946.841	0.25
947.571	0.25
948.301	1.25
949.031	-0.75
949.76	-1.75
950.49	-0.75
951.219	1.25
951.948	0.25
952.678	1.25
953.407	1.25
954.136	-0.75
954.865	0.25
955.594	-1.75
956.323	1.25
957.052	0.25
957.78	2.25
958.509	1.25
959.238	-1.75
959.966	0.25
960.695	0.25
961.423	0.25
962.151	1.25
962.88	0.25
963.608	-0.75
964.336	-0.75
965.064	-1.75
965.792	-0.75
966.52	1.25
967.247	3.25
967.975	0.25
968.703	-1.75
969.43	1.25
970.158	0.25
970.885	0.25
971.613	1.25
972.34	-0.75
973.067	-0.75
973.794	-0.75
974.521	-0.75
975.248	0.25
975.975	-2.75
976.702	-0.75
977.429	1.25
978.156	-0.75
978.882	1.25
979.609	0.25
980.335	1.25
981.062	-1.75
981.788	0.25
982.514	0.25
983.24	-2.75
983.967	0.25
984.693	1.25
985.419	-0.75
986.144	-2.75
986.87	0.25
987.596	0.25
988.322	-0.75
989.047	0.25
989.773	-0.75
990.498	-0.75
991.224	0.25
991.949	0.25
992.674	-0.75
993.399	1.25
994.124	2.25
994.849	0.25
995.574	1.25
996.299	1.25
997.024	-0.75
997.749	0.25
998.473	-0.75
999.198	-0.75
999.922	-2.75
1000.647	-1.75
1001.371	4.25
1002.095	-0.75
1002.82	-3.75
1003.544	1.25
1004.268	1.25
1004.992	1.25
1005.716	-0.75
1006.439	2.25
1007.163	3.25
1007.887	1.25
1008.611	-0.75
1009.334	-1.75
1010.058	0.25
1010.781	-1.75
1011.504	-1.75
1012.228	0.25
1012.951	-0.75
1013.674	1.25
1014.397	0.25
1015.12	-1.75
