节点500_285_QEPB04081__773__15-08-24-794.txt的数据

Date: Wed Nov 12 15:08:24 CST 2025
User: PC
Spectrometer: QEPB0408
触发模式: 0
积分时间 (秒): 1.000000E-2
Scans to average: 1
启用暗噪声校正: true
启用非线性校正: false
滑动平均宽度: 0
X轴模式: Wavelengths
Number of Pixels in Spectrum: 1044
>>>>>Begin Spectral Data<<<<<
220.843	0.62
221.644	0.62
222.444	1.62
223.244	0.62
224.045	1.62
224.845	-0.38
225.645	0.62
226.445	0.62
227.245	1.62
228.045	3.62
228.845	3.62
229.645	3.62
230.444	1.62
231.244	0.62
232.043	2.62
232.843	1.62
233.642	1.62
234.442	1.62
235.241	4.62
236.04	2.62
236.839	4.62
237.638	5.62
238.437	3.62
239.236	1.62
240.035	1.62
240.833	1.62
241.632	2.62
242.43	4.62
243.229	4.62
244.027	4.62
244.826	4.62
245.624	4.62
246.422	4.62
247.22	3.62
248.018	2.62
248.816	2.62
249.614	5.62
250.412	4.62
251.21	4.62
252.007	5.62
252.805	5.62
253.602	6.62
254.4	7.62
255.197	6.62
255.994	3.62
256.791	7.62
257.589	6.62
258.386	7.62
259.183	9.62
259.979	8.62
260.776	7.62
261.573	8.62
262.37	9.62
263.166	5.62
263.963	7.62
264.759	11.62
265.556	10.62
266.352	9.62
267.148	10.62
267.944	13.62
268.74	10.62
269.536	12.62
270.332	13.62
271.128	12.62
271.924	11.62
272.719	13.62
273.515	13.62
274.311	13.62
275.106	13.62
275.901	13.62
276.697	14.62
277.492	15.62
278.287	17.62
279.082	15.62
279.877	15.62
280.672	16.62
281.467	16.62
282.262	16.62
283.056	17.62
283.851	16.62
284.646	19.62
285.44	15.62
286.234	16.62
287.029	16.62
287.823	15.62
288.617	18.62
289.411	16.62
290.205	14.62
290.999	17.62
291.793	16.62
292.587	14.62
293.381	15.62
294.174	17.62
294.968	15.62
295.761	12.62
296.555	15.62
297.348	14.62
298.141	12.62
298.935	13.62
299.728	14.62
300.521	10.62
301.314	11.62
302.107	13.62
302.899	13.62
303.692	13.62
304.485	10.62
305.277	9.62
306.07	10.62
306.862	12.62
307.655	10.62
308.447	12.62
309.239	14.62
310.031	8.62
310.823	11.62
311.615	9.62
312.407	9.62
313.199	10.62
313.991	8.62
314.783	9.62
315.574	8.62
316.366	6.62
317.157	9.62
317.949	10.62
318.74	9.62
319.531	4.62
320.322	9.62
321.113	6.62
321.904	6.62
322.695	5.62
323.486	8.62
324.277	5.62
325.068	3.62
325.858	6.62
326.649	6.62
327.439	5.62
328.23	4.62
329.02	7.62
329.81	8.62
330.6	6.62
331.391	5.62
332.181	6.62
332.971	7.62
333.76	5.62
334.55	5.62
335.34	6.62
336.13	5.62
336.919	3.62
337.709	6.62
338.498	2.62
339.287	7.62
340.077	6.62
340.866	7.62
341.655	6.62
342.444	4.62
343.233	6.62
344.022	4.62
344.811	7.62
345.6	4.62
346.388	5.62
347.177	6.62
347.965	6.62
348.754	4.62
349.542	6.62
350.33	4.62
351.119	2.62
351.907	6.62
352.695	6.62
353.483	5.62
354.271	3.62
355.059	3.62
355.846	3.62
356.634	6.62
357.422	5.62
358.209	4.62
358.997	5.62
359.784	5.62
360.571	5.62
361.359	4.62
362.146	5.62
362.933	3.62
363.72	3.62
364.507	2.62
365.294	6.62
366.081	5.62
366.867	4.62
367.654	4.62
368.44	4.62
369.227	5.62
370.013	2.62
370.8	4.62
371.586	6.62
372.372	4.62
373.158	1.62
373.944	2.62
374.73	6.62
375.516	4.62
376.302	6.62
377.088	4.62
377.873	4.62
378.659	4.62
379.445	3.62
380.23	5.62
381.015	4.62
381.801	4.62
382.586	5.62
383.371	5.62
384.156	3.62
384.941	4.62
385.726	6.62
386.511	4.62
387.296	7.62
388.08	4.62
388.865	3.62
389.649	4.62
390.434	5.62
391.218	5.62
392.003	4.62
392.787	5.62
393.571	6.62
394.355	4.62
395.139	7.62
395.923	5.62
396.707	5.62
397.491	4.62
398.274	5.62
399.058	8.62
399.842	6.62
400.625	5.62
401.408	3.62
402.192	6.62
402.975	5.62
403.758	5.62
404.541	6.62
405.324	5.62
406.107	6.62
406.89	5.62
407.673	7.62
408.456	6.62
409.238	6.62
410.021	5.62
410.803	4.62
411.586	6.62
412.368	5.62
413.151	8.62
413.933	4.62
414.715	9.62
415.497	8.62
416.279	9.62
417.061	9.62
417.843	8.62
418.624	7.62
419.406	8.62
420.188	8.62
420.969	6.62
421.751	7.62
422.532	7.62
423.313	7.62
424.095	12.62
424.876	10.62
425.657	8.62
426.438	9.62
427.219	10.62
428	9.62
428.78	13.62
429.561	13.62
430.342	14.62
431.122	13.62
431.903	14.62
432.683	13.62
433.464	13.62
434.244	13.62
435.024	11.62
435.804	18.62
436.584	16.62
437.364	16.62
438.144	19.62
438.924	19.62
439.704	20.62
440.483	23.62
441.263	23.62
442.042	25.62
442.822	25.62
443.601	27.62
444.38	29.62
445.16	31.62
445.939	35.62
446.718	37.62
447.497	40.62
448.276	46.62
449.054	44.62
449.833	49.62
450.612	53.62
451.391	63.62
452.169	69.62
452.948	74.62
453.726	83.62
454.504	93.62
455.282	97.62
456.061	114.62
456.839	125.62
457.617	138.62
458.395	147.62
459.172	169.62
459.95	181.62
460.728	205.62
461.506	232.62
462.283	251.62
463.061	286.62
463.838	324.62
464.615	361.62
465.393	393.62
466.17	445.62
466.947	484.62
467.724	541.62
468.501	588.62
469.278	668.62
470.055	743.62
470.831	810.62
471.608	899.62
472.385	993.62
473.161	1094.62
473.938	1207.62
474.714	1326.62
475.49	1459.62
476.266	1602.62
477.043	1765.62
477.819	1940.62
478.595	2120.62
479.371	2333.62
480.146	2545.62
480.922	2791.62
481.698	3042.62
482.473	3316.62
483.249	3652.62
484.024	3965.62
484.8	4335.62
485.575	4740.62
486.35	5174.62
487.126	5627.62
487.901	6119.62
488.676	6669.62
489.451	7227.62
490.225	7872.62
491	8573.62
491.775	9309.62
492.55	10099.62
493.324	10881.62
494.099	11718.62
494.873	12471.62
495.647	13431.62
496.422	14460.62
497.196	15477.62
497.97	16496.62
498.744	17567.62
499.518	18636.62
500.292	19602.62
501.066	20630.62
501.839	21535.62
502.613	22425.62
503.387	23215.62
504.16	23959.62
504.934	24438.62
505.707	24799.62
506.48	25030.62
507.253	25126.62
508.027	25136.62
508.8	25068.62
509.573	24963.62
510.346	24646.62
511.118	24075.62
511.891	23531.62
512.664	22931.62
513.437	22242.62
514.209	21389.62
514.982	20647.62
515.754	19842.62
516.526	19100.62
517.298	18257.62
518.071	17481.62
518.843	16826.62
519.615	16248.62
520.387	15645.62
521.159	15023.62
521.93	14388.62
522.702	13784.62
523.474	13282.62
524.245	12730.62
525.017	12163.62
525.788	11763.62
526.56	11208.62
527.331	10690.62
528.102	10256.62
528.873	9811.62
529.644	9339.62
530.415	8940.62
531.186	8497.62
531.957	8092.62
532.728	7723.62
533.498	7342.62
534.269	6909.62
535.039	6598.62
535.81	6212.62
536.58	5878.62
537.351	5528.62
538.121	5237.62
538.891	4960.62
539.661	4698.62
540.431	4435.62
541.201	4188.62
541.971	3980.62
542.741	3770.62
543.51	3554.62
544.28	3376.62
545.05	3250.62
545.819	3086.62
546.588	2913.62
547.358	2777.62
548.127	2642.62
548.896	2497.62
549.665	2373.62
550.434	2276.62
551.203	2159.62
551.972	2029.62
552.741	1926.62
553.51	1832.62
554.278	1735.62
555.047	1628.62
555.815	1549.62
556.584	1457.62
557.352	1368.62
558.121	1321.62
558.889	1236.62
559.657	1158.62
560.425	1109.62
561.193	1031.62
561.961	971.62
562.729	934.62
563.496	890.62
564.264	825.62
565.032	774.62
565.799	741.62
566.567	706.62
567.334	653.62
568.101	635.62
568.869	590.62
569.636	551.62
570.403	520.62
571.17	493.62
571.937	459.62
572.704	441.62
573.471	415.62
574.237	394.62
575.004	375.62
575.771	345.62
576.537	325.62
577.303	308.62
578.07	289.62
578.836	273.62
579.602	252.62
580.368	236.62
581.134	237.62
581.9	219.62
582.666	214.62
583.432	196.62
584.198	190.62
584.964	175.62
585.729	172.62
586.495	161.62
587.26	151.62
588.025	135.62
588.791	137.62
589.556	130.62
590.321	120.62
591.086	118.62
591.851	108.62
592.616	102.62
593.381	103.62
594.146	88.62
594.911	89.62
595.675	88.62
596.44	80.62
597.204	77.62
597.969	75.62
598.733	72.62
599.497	70.62
600.261	62.62
601.025	59.62
601.79	56.62
602.553	55.62
603.317	54.62
604.081	53.62
604.845	47.62
605.609	45.62
606.372	45.62
607.136	44.62
607.899	41.62
608.662	37.62
609.426	36.62
610.189	35.62
610.952	32.62
611.715	31.62
612.478	31.62
613.241	30.62
614.004	27.62
614.767	29.62
615.529	29.62
616.292	28.62
617.055	24.62
617.817	22.62
618.579	24.62
619.342	22.62
620.104	22.62
620.866	19.62
621.628	18.62
622.39	20.62
623.152	16.62
623.914	18.62
624.676	16.62
625.438	14.62
626.199	16.62
626.961	14.62
627.722	14.62
628.484	15.62
629.245	15.62
630.006	14.62
630.768	11.62
631.529	16.62
632.29	11.62
633.051	14.62
633.812	9.62
634.573	10.62
635.333	10.62
636.094	10.62
636.855	10.62
637.615	9.62
638.376	10.62
639.136	8.62
639.896	12.62
640.657	11.62
641.417	8.62
642.177	8.62
642.937	8.62
643.697	7.62
644.457	9.62
645.216	9.62
645.976	8.62
646.736	6.62
647.495	8.62
648.255	6.62
649.014	8.62
649.774	4.62
650.533	6.62
651.292	8.62
652.051	7.62
652.81	5.62
653.569	5.62
654.328	7.62
655.087	7.62
655.846	3.62
656.604	4.62
657.363	6.62
658.121	7.62
658.88	7.62
659.638	7.62
660.397	5.62
661.155	5.62
661.913	6.62
662.671	3.62
663.429	7.62
664.187	4.62
664.945	4.62
665.703	4.62
666.46	3.62
667.218	6.62
667.976	6.62
668.733	4.62
669.49	3.62
670.248	4.62
671.005	4.62
671.762	3.62
672.519	4.62
673.276	3.62
674.033	3.62
674.79	2.62
675.547	1.62
676.304	4.62
677.06	1.62
677.817	6.62
678.574	4.62
679.33	3.62
680.086	4.62
680.843	4.62
681.599	6.62
682.355	3.62
683.111	2.62
683.867	1.62
684.623	4.62
685.379	5.62
686.135	0.62
686.89	2.62
687.646	2.62
688.402	5.62
689.157	4.62
689.912	2.62
690.668	3.62
691.423	3.62
692.178	4.62
692.933	-0.38
693.688	3.62
694.443	1.62
695.198	1.62
695.953	5.62
696.708	3.62
697.462	3.62
698.217	3.62
698.972	4.62
699.726	2.62
700.48	3.62
701.235	4.62
701.989	1.62
702.743	3.62
703.497	1.62
704.251	2.62
705.005	2.62
705.759	3.62
706.513	4.62
707.266	2.62
708.02	1.62
708.774	3.62
709.527	2.62
710.28	3.62
711.034	1.62
711.787	3.62
712.54	3.62
713.293	4.62
714.046	3.62
714.799	3.62
715.552	2.62
716.305	2.62
717.058	3.62
717.81	1.62
718.563	1.62
719.315	3.62
720.068	3.62
720.82	4.62
721.573	3.62
722.325	1.62
723.077	3.62
723.829	4.62
724.581	3.62
725.333	0.62
726.085	0.62
726.836	0.62
727.588	1.62
728.34	3.62
729.091	3.62
729.843	1.62
730.594	4.62
731.346	3.62
732.097	0.62
732.848	5.62
733.599	2.62
734.35	6.62
735.101	4.62
735.852	1.62
736.603	4.62
737.354	4.62
738.104	4.62
738.855	4.62
739.605	4.62
740.356	6.62
741.106	2.62
741.856	4.62
742.607	4.62
743.357	3.62
744.107	4.62
744.857	3.62
745.607	3.62
746.357	4.62
747.106	1.62
747.856	3.62
748.606	3.62
749.355	3.62
750.105	5.62
750.854	6.62
751.603	3.62
752.353	4.62
753.102	4.62
753.851	3.62
754.6	2.62
755.349	3.62
756.098	5.62
756.847	6.62
757.595	6.62
758.344	3.62
759.093	4.62
759.841	4.62
760.589	5.62
761.338	5.62
762.086	5.62
762.834	4.62
763.582	3.62
764.331	5.62
765.079	5.62
765.826	6.62
766.574	7.62
767.322	6.62
768.07	7.62
768.817	6.62
769.565	4.62
770.312	6.62
771.06	5.62
771.807	7.62
772.554	5.62
773.302	7.62
774.049	8.62
774.796	7.62
775.543	7.62
776.29	4.62
777.036	9.62
777.783	7.62
778.53	5.62
779.276	5.62
780.023	5.62
780.769	5.62
781.516	5.62
782.262	8.62
783.008	5.62
783.754	5.62
784.5	8.62
785.246	6.62
785.992	9.62
786.738	7.62
787.484	8.62
788.23	7.62
788.975	6.62
789.721	7.62
790.466	6.62
791.212	8.62
791.957	6.62
792.702	7.62
793.447	8.62
794.193	7.62
794.938	8.62
795.683	7.62
796.427	7.62
797.172	9.62
797.917	5.62
798.662	7.62
799.406	5.62
800.151	5.62
800.895	5.62
801.64	8.62
802.384	7.62
803.128	5.62
803.872	6.62
804.616	5.62
805.36	6.62
806.104	4.62
806.848	5.62
807.592	5.62
808.336	0.62
809.079	6.62
809.823	3.62
810.566	5.62
811.31	3.62
812.053	3.62
812.796	1.62
813.539	4.62
814.283	5.62
815.026	3.62
815.769	5.62
816.511	3.62
817.254	5.62
817.997	5.62
818.74	1.62
819.482	6.62
820.225	3.62
820.967	3.62
821.71	3.62
822.452	4.62
823.194	2.62
823.936	1.62
824.678	4.62
825.42	1.62
826.162	2.62
826.904	2.62
827.646	1.62
828.388	4.62
829.129	3.62
829.871	3.62
830.612	3.62
831.354	1.62
832.095	1.62
832.836	4.62
833.577	2.62
834.319	2.62
835.06	3.62
835.801	3.62
836.542	2.62
837.282	1.62
838.023	3.62
838.764	3.62
839.504	3.62
840.245	1.62
840.985	2.62
841.726	2.62
842.466	2.62
843.206	1.62
843.946	4.62
844.687	0.62
845.427	1.62
846.166	2.62
846.906	1.62
847.646	4.62
848.386	1.62
849.125	2.62
849.865	3.62
850.605	3.62
851.344	1.62
852.083	0.62
852.823	4.62
853.562	0.62
854.301	4.62
855.04	4.62
855.779	2.62
856.518	1.62
857.257	1.62
857.995	1.62
858.734	1.62
859.473	2.62
860.211	0.62
860.95	1.62
861.688	2.62
862.426	0.62
863.165	1.62
863.903	1.62
864.641	0.62
865.379	-0.38
866.117	1.62
866.855	1.62
867.593	0.62
868.33	-0.38
869.068	1.62
869.806	0.62
870.543	1.62
871.28	1.62
872.018	0.62
872.755	1.62
873.492	1.62
874.229	2.62
874.967	2.62
875.703	1.62
876.44	-0.38
877.177	-0.38
877.914	0.62
878.651	0.62
879.387	-0.38
880.124	-2.38
880.86	1.62
881.597	-0.38
882.333	0.62
883.069	-0.38
883.806	-0.38
884.542	1.62
885.278	-1.38
886.014	1.62
886.749	0.62
887.485	0.62
888.221	1.62
888.957	1.62
889.692	-0.38
890.428	-0.38
891.163	0.62
891.899	-0.38
892.634	-1.38
893.369	0.62
894.104	-1.38
894.839	0.62
895.574	0.62
896.309	1.62
897.044	-0.38
897.779	2.62
898.514	1.62
899.248	0.62
899.983	-0.38
900.717	-2.38
901.452	-0.38
902.186	-0.38
902.92	-0.38
903.654	0.62
904.389	0.62
905.123	1.62
905.857	0.62
906.59	1.62
907.324	-1.38
908.058	0.62
908.792	-2.38
909.525	-0.38
910.259	1.62
910.992	-1.38
911.726	-0.38
912.459	1.62
913.192	-0.38
913.925	2.62
914.658	2.62
915.391	0.62
916.124	0.62
916.857	-0.38
917.59	1.62
918.323	-0.38
919.055	0.62
919.788	-0.38
920.521	0.62
921.253	0.62
921.985	-0.38
922.718	0.62
923.45	-0.38
924.182	2.62
924.914	0.62
925.646	0.62
926.378	-0.38
927.11	0.62
927.841	0.62
928.573	0.62
929.305	0.62
930.036	0.62
930.768	0.62
931.499	-2.38
932.23	0.62
932.962	0.62
933.693	-1.38
934.424	0.62
935.155	-0.38
935.886	0.62
936.617	-1.38
937.348	-0.38
938.078	0.62
938.809	0.62
939.54	-1.38
940.27	0.62
941.001	-0.38
941.731	-0.38
942.461	0.62
943.191	1.62
943.922	-0.38
944.652	-1.38
945.382	1.62
946.112	-1.38
946.841	-0.38
947.571	-1.38
948.301	-0.38
949.031	-2.38
949.76	-2.38
950.49	-1.38
951.219	-0.38
951.948	-0.38
952.678	-1.38
953.407	-1.38
954.136	-2.38
954.865	0.62
955.594	-0.38
956.323	-0.38
957.052	0.62
957.78	0.62
958.509	0.62
959.238	-2.38
959.966	-0.38
960.695	-0.38
961.423	0.62
962.151	1.62
962.88	-2.38
963.608	-0.38
964.336	0.62
965.064	-1.38
965.792	0.62
966.52	0.62
967.247	-0.38
967.975	0.62
968.703	-0.38
969.43	-1.38
970.158	-0.38
970.885	-0.38
971.613	-1.38
972.34	-1.38
973.067	1.62
973.794	-2.38
974.521	1.62
975.248	-2.38
975.975	2.62
976.702	0.62
977.429	-0.38
978.156	-2.38
978.882	0.62
979.609	-1.38
980.335	-0.38
981.062	0.62
981.788	-2.38
982.514	-0.38
983.24	-0.38
983.967	-2.38
984.693	-1.38
985.419	0.62
986.144	0.62
986.87	-1.38
987.596	-0.38
988.322	1.62
989.047	-1.38
989.773	-0.38
990.498	-0.38
991.224	0.62
991.949	1.62
992.674	0.62
993.399	0.62
994.124	-1.38
994.849	-0.38
995.574	-2.38
996.299	0.62
997.024	-0.38
997.749	0.62
998.473	-0.38
999.198	-1.38
999.922	-0.38
1000.647	-0.38
1001.371	4.62
1002.095	-3.38
1002.82	-0.38
1003.544	-1.38
1004.268	1.62
1004.992	-0.38
1005.716	-0.38
1006.439	1.62
1007.163	0.62
1007.887	0.62
1008.611	0.62
1009.334	1.62
1010.058	2.62
1010.781	0.62
1011.504	1.62
1012.228	1.62
1012.951	-0.38
1013.674	0.62
1014.397	1.62
1015.12	-1.38
