节点500_285_QEPB04081__2__14-55-37-499.txt的数据

Date: Wed Nov 12 14:55:37 CST 2025
User: PC
Spectrometer: QEPB0408
触发模式: 0
积分时间 (秒): 1.000000E-2
Scans to average: 1
启用暗噪声校正: true
启用非线性校正: false
滑动平均宽度: 0
X轴模式: Wavelengths
Number of Pixels in Spectrum: 1044
>>>>>Begin Spectral Data<<<<<
220.843	-2.75
221.644	-2.75
222.444	-0.75
223.244	-0.75
224.045	-1.75
224.845	-3.75
225.645	-2.75
226.445	-2.75
227.245	-1.75
228.045	-0.75
228.845	-3.75
229.645	-1.75
230.444	-2.75
231.244	-1.75
232.043	-0.75
232.843	-1.75
233.642	-0.75
234.442	-4.75
235.241	-1.75
236.04	-1.75
236.839	1.25
237.638	-3.75
238.437	-3.75
239.236	-2.75
240.035	-3.75
240.833	-0.75
241.632	-3.75
242.43	0.25
243.229	-1.75
244.027	-3.75
244.826	-0.75
245.624	-2.75
246.422	0.25
247.22	-0.75
248.018	-1.75
248.816	-1.75
249.614	-1.75
250.412	-1.75
251.21	-0.75
252.007	-0.75
252.805	-0.75
253.602	-2.75
254.4	-0.75
255.197	-1.75
255.994	-2.75
256.791	-0.75
257.589	-1.75
258.386	-0.75
259.183	-1.75
259.979	-3.75
260.776	-4.75
261.573	-2.75
262.37	-3.75
263.166	-3.75
263.963	0.25
264.759	-1.75
265.556	-1.75
266.352	-3.75
267.148	-2.75
267.944	-0.75
268.74	-0.75
269.536	0.25
270.332	-1.75
271.128	-3.75
271.924	-0.75
272.719	-1.75
273.515	-1.75
274.311	0.25
275.106	-0.75
275.901	0.25
276.697	0.25
277.492	-1.75
278.287	-1.75
279.082	-0.75
279.877	-0.75
280.672	-2.75
281.467	0.25
282.262	-3.75
283.056	-0.75
283.851	0.25
284.646	-1.75
285.44	0.25
286.234	-3.75
287.029	-0.75
287.823	-2.75
288.617	-1.75
289.411	-0.75
290.205	-1.75
290.999	-0.75
291.793	-3.75
292.587	-1.75
293.381	-1.75
294.174	0.25
294.968	-1.75
295.761	-1.75
296.555	-1.75
297.348	-2.75
298.141	-0.75
298.935	-1.75
299.728	-1.75
300.521	0.25
301.314	0.25
302.107	-3.75
302.899	0.25
303.692	-2.75
304.485	0.25
305.277	0.25
306.07	-0.75
306.862	-1.75
307.655	-1.75
308.447	-0.75
309.239	-1.75
310.031	-0.75
310.823	-1.75
311.615	-0.75
312.407	-1.75
313.199	-1.75
313.991	0.25
314.783	-1.75
315.574	-0.75
316.366	0.25
317.157	-2.75
317.949	0.25
318.74	-0.75
319.531	-0.75
320.322	2.25
321.113	-1.75
321.904	-0.75
322.695	-0.75
323.486	-0.75
324.277	-1.75
325.068	-2.75
325.858	1.25
326.649	-0.75
327.439	-0.75
328.23	-0.75
329.02	0.25
329.81	0.25
330.6	1.25
331.391	0.25
332.181	-1.75
332.971	1.25
333.76	0.25
334.55	1.25
335.34	-1.75
336.13	0.25
336.919	0.25
337.709	-1.75
338.498	0.25
339.287	-0.75
340.077	0.25
340.866	-1.75
341.655	0.25
342.444	0.25
343.233	-1.75
344.022	0.25
344.811	1.25
345.6	-0.75
346.388	-1.75
347.177	-0.75
347.965	-0.75
348.754	-0.75
349.542	-0.75
350.33	0.25
351.119	0.25
351.907	-0.75
352.695	-0.75
353.483	-0.75
354.271	-1.75
355.059	-0.75
355.846	-1.75
356.634	-1.75
357.422	0.25
358.209	-0.75
358.997	-1.75
359.784	-1.75
360.571	-0.75
361.359	-1.75
362.146	-1.75
362.933	-1.75
363.72	-1.75
364.507	-2.75
365.294	0.25
366.081	-1.75
366.867	-0.75
367.654	-0.75
368.44	-0.75
369.227	0.25
370.013	0.25
370.8	-1.75
371.586	0.25
372.372	-1.75
373.158	-1.75
373.944	-1.75
374.73	-0.75
375.516	1.25
376.302	-2.75
377.088	-0.75
377.873	-1.75
378.659	-0.75
379.445	-1.75
380.23	-0.75
381.015	-1.75
381.801	1.25
382.586	1.25
383.371	0.25
384.156	-0.75
384.941	0.25
385.726	-1.75
386.511	-0.75
387.296	-2.75
388.08	-0.75
388.865	-1.75
389.649	-0.75
390.434	0.25
391.218	-1.75
392.003	-0.75
392.787	-1.75
393.571	-1.75
394.355	-1.75
395.139	-1.75
395.923	0.25
396.707	-0.75
397.491	-1.75
398.274	-0.75
399.058	0.25
399.842	-0.75
400.625	-1.75
401.408	0.25
402.192	0.25
402.975	-0.75
403.758	-1.75
404.541	-1.75
405.324	-1.75
406.107	-2.75
406.89	-1.75
407.673	-1.75
408.456	-2.75
409.238	-2.75
410.021	0.25
410.803	1.25
411.586	-3.75
412.368	0.25
413.151	-1.75
413.933	-1.75
414.715	1.25
415.497	1.25
416.279	-1.75
417.061	-1.75
417.843	-1.75
418.624	0.25
419.406	-0.75
420.188	1.25
420.969	0.25
421.751	-1.75
422.532	-0.75
423.313	-2.75
424.095	1.25
424.876	-0.75
425.657	-1.75
426.438	-1.75
427.219	-0.75
428	-1.75
428.78	-1.75
429.561	-1.75
430.342	-0.75
431.122	-1.75
431.903	0.25
432.683	-0.75
433.464	0.25
434.244	0.25
435.024	-0.75
435.804	-1.75
436.584	-0.75
437.364	0.25
438.144	1.25
438.924	-2.75
439.704	-0.75
440.483	-0.75
441.263	0.25
442.042	0.25
442.822	-1.75
443.601	1.25
444.38	0.25
445.16	1.25
445.939	-0.75
446.718	-0.75
447.497	0.25
448.276	-1.75
449.054	1.25
449.833	-0.75
450.612	0.25
451.391	1.25
452.169	-1.75
452.948	0.25
453.726	-1.75
454.504	-1.75
455.282	-0.75
456.061	0.25
456.839	0.25
457.617	1.25
458.395	0.25
459.172	-0.75
459.95	-1.75
460.728	-0.75
461.506	1.25
462.283	-0.75
463.061	-0.75
463.838	1.25
464.615	-1.75
465.393	-0.75
466.17	-1.75
466.947	-1.75
467.724	2.25
468.501	-1.75
469.278	1.25
470.055	-0.75
470.831	-0.75
471.608	2.25
472.385	-1.75
473.161	2.25
473.938	-1.75
474.714	1.25
475.49	-1.75
476.266	-1.75
477.043	0.25
477.819	1.25
478.595	0.25
479.371	-0.75
480.146	-2.75
480.922	1.25
481.698	-0.75
482.473	-0.75
483.249	-0.75
484.024	-1.75
484.8	-1.75
485.575	-1.75
486.35	0.25
487.126	1.25
487.901	-0.75
488.676	0.25
489.451	-0.75
490.225	-3.75
491	0.25
491.775	0.25
492.55	-2.75
493.324	-2.75
494.099	-0.75
494.873	-0.75
495.647	-0.75
496.422	-0.75
497.196	0.25
497.97	-0.75
498.744	-0.75
499.518	1.25
500.292	-0.75
501.066	-2.75
501.839	0.25
502.613	-3.75
503.387	-1.75
504.16	0.25
504.934	-1.75
505.707	0.25
506.48	-0.75
507.253	0.25
508.027	-0.75
508.8	2.25
509.573	-1.75
510.346	0.25
511.118	-2.75
511.891	-0.75
512.664	-1.75
513.437	-0.75
514.209	1.25
514.982	0.25
515.754	-1.75
516.526	0.25
517.298	-2.75
518.071	0.25
518.843	-2.75
519.615	-1.75
520.387	0.25
521.159	2.25
521.93	0.25
522.702	1.25
523.474	1.25
524.245	-0.75
525.017	0.25
525.788	-0.75
526.56	-1.75
527.331	0.25
528.102	-1.75
528.873	-1.75
529.644	2.25
530.415	-0.75
531.186	0.25
531.957	-1.75
532.728	-1.75
533.498	0.25
534.269	-1.75
535.039	1.25
535.81	-0.75
536.58	2.25
537.351	0.25
538.121	-2.75
538.891	0.25
539.661	-0.75
540.431	-2.75
541.201	0.25
541.971	0.25
542.741	-0.75
543.51	1.25
544.28	-1.75
545.05	0.25
545.819	1.25
546.588	0.25
547.358	1.25
548.127	0.25
548.896	-0.75
549.665	-0.75
550.434	0.25
551.203	-2.75
551.972	0.25
552.741	-1.75
553.51	1.25
554.278	-2.75
555.047	0.25
555.815	1.25
556.584	-0.75
557.352	-0.75
558.121	-0.75
558.889	0.25
559.657	-2.75
560.425	-1.75
561.193	-0.75
561.961	-0.75
562.729	0.25
563.496	-0.75
564.264	-1.75
565.032	2.25
565.799	-0.75
566.567	-0.75
567.334	0.25
568.101	-1.75
568.869	0.25
569.636	0.25
570.403	-1.75
571.17	-0.75
571.937	-1.75
572.704	-0.75
573.471	-1.75
574.237	1.25
575.004	0.25
575.771	2.25
576.537	-0.75
577.303	-1.75
578.07	0.25
578.836	-0.75
579.602	-0.75
580.368	-0.75
581.134	-1.75
581.9	-0.75
582.666	0.25
583.432	-0.75
584.198	0.25
584.964	1.25
585.729	0.25
586.495	0.25
587.26	1.25
588.025	-1.75
588.791	0.25
589.556	-2.75
590.321	0.25
591.086	1.25
591.851	-1.75
592.616	-0.75
593.381	0.25
594.146	0.25
594.911	1.25
595.675	0.25
596.44	-0.75
597.204	-1.75
597.969	0.25
598.733	1.25
599.497	-0.75
600.261	-0.75
601.025	2.25
601.79	0.25
602.553	-1.75
603.317	0.25
604.081	-0.75
604.845	0.25
605.609	-0.75
606.372	-0.75
607.136	-0.75
607.899	-0.75
608.662	0.25
609.426	1.25
610.189	-2.75
610.952	0.25
611.715	0.25
612.478	-1.75
613.241	0.25
614.004	-0.75
614.767	2.25
615.529	0.25
616.292	1.25
617.055	-0.75
617.817	-0.75
618.579	-0.75
619.342	-2.75
620.104	-1.75
620.866	-1.75
621.628	0.25
622.39	-0.75
623.152	0.25
623.914	-0.75
624.676	-1.75
625.438	0.25
626.199	-1.75
626.961	0.25
627.722	0.25
628.484	-2.75
629.245	0.25
630.006	-0.75
630.768	-0.75
631.529	1.25
632.29	-1.75
633.051	-0.75
633.812	-0.75
634.573	0.25
635.333	-0.75
636.094	-0.75
636.855	0.25
637.615	-0.75
638.376	-0.75
639.136	0.25
639.896	0.25
640.657	-1.75
641.417	-0.75
642.177	-0.75
642.937	-1.75
643.697	1.25
644.457	-0.75
645.216	-1.75
645.976	-1.75
646.736	-2.75
647.495	0.25
648.255	-0.75
649.014	0.25
649.774	1.25
650.533	-0.75
651.292	-0.75
652.051	1.25
652.81	-0.75
653.569	0.25
654.328	-1.75
655.087	0.25
655.846	-0.75
656.604	0.25
657.363	-0.75
658.121	-0.75
658.88	0.25
659.638	-0.75
660.397	-0.75
661.155	-1.75
661.913	-0.75
662.671	-0.75
663.429	-0.75
664.187	-2.75
664.945	-0.75
665.703	1.25
666.46	-0.75
667.218	-1.75
667.976	1.25
668.733	-1.75
669.49	-0.75
670.248	-0.75
671.005	-0.75
671.762	-1.75
672.519	-0.75
673.276	1.25
674.033	-2.75
674.79	-0.75
675.547	1.25
676.304	0.25
677.06	1.25
677.817	-1.75
678.574	0.25
679.33	1.25
680.086	0.25
680.843	2.25
681.599	0.25
682.355	0.25
683.111	-1.75
683.867	2.25
684.623	-2.75
685.379	-0.75
686.135	3.25
686.89	-1.75
687.646	-1.75
688.402	-0.75
689.157	0.25
689.912	-2.75
690.668	0.25
691.423	0.25
692.178	0.25
692.933	-2.75
693.688	-0.75
694.443	-4.75
695.198	0.25
695.953	1.25
696.708	-0.75
697.462	-0.75
698.217	-0.75
698.972	0.25
699.726	-1.75
700.48	-1.75
701.235	-1.75
701.989	-0.75
702.743	-0.75
703.497	-0.75
704.251	0.25
705.005	0.25
705.759	0.25
706.513	-1.75
707.266	0.25
708.02	-1.75
708.774	-0.75
709.527	0.25
710.28	-1.75
711.034	-0.75
711.787	-0.75
712.54	-1.75
713.293	-0.75
714.046	-1.75
714.799	0.25
715.552	0.25
716.305	-1.75
717.058	1.25
717.81	-0.75
718.563	0.25
719.315	1.25
720.068	-1.75
720.82	-0.75
721.573	-0.75
722.325	0.25
723.077	-1.75
723.829	-1.75
724.581	-1.75
725.333	0.25
726.085	0.25
726.836	-0.75
727.588	-1.75
728.34	-0.75
729.091	-3.75
729.843	-1.75
730.594	-1.75
731.346	2.25
732.097	1.25
732.848	-1.75
733.599	2.25
734.35	0.25
735.101	0.25
735.852	-2.75
736.603	2.25
737.354	0.25
738.104	-1.75
738.855	0.25
739.605	-0.75
740.356	0.25
741.106	2.25
741.856	-1.75
742.607	1.25
743.357	0.25
744.107	0.25
744.857	-3.75
745.607	-1.75
746.357	0.25
747.106	-0.75
747.856	-1.75
748.606	-1.75
749.355	1.25
750.105	-1.75
750.854	-3.75
751.603	-1.75
752.353	-1.75
753.102	2.25
753.851	-1.75
754.6	-1.75
755.349	-0.75
756.098	-0.75
756.847	2.25
757.595	1.25
758.344	-1.75
759.093	0.25
759.841	-1.75
760.589	0.25
761.338	-0.75
762.086	0.25
762.834	1.25
763.582	-1.75
764.331	-2.75
765.079	-1.75
765.826	0.25
766.574	-1.75
767.322	0.25
768.07	-1.75
768.817	0.25
769.565	0.25
770.312	-0.75
771.06	1.25
771.807	2.25
772.554	0.25
773.302	-1.75
774.049	-0.75
774.796	-1.75
775.543	-0.75
776.29	0.25
777.036	4.25
777.783	-1.75
778.53	0.25
779.276	0.25
780.023	-1.75
780.769	0.25
781.516	-0.75
782.262	1.25
783.008	-1.75
783.754	0.25
784.5	-1.75
785.246	-0.75
785.992	1.25
786.738	-0.75
787.484	-1.75
788.23	-0.75
788.975	-0.75
789.721	-1.75
790.466	1.25
791.212	0.25
791.957	0.25
792.702	-1.75
793.447	-2.75
794.193	0.25
794.938	-0.75
795.683	-0.75
796.427	0.25
797.172	-0.75
797.917	-0.75
798.662	-0.75
799.406	-0.75
800.151	0.25
800.895	-0.75
801.64	0.25
802.384	-1.75
803.128	0.25
803.872	-0.75
804.616	-1.75
805.36	-0.75
806.104	1.25
806.848	0.25
807.592	0.25
808.336	-1.75
809.079	0.25
809.823	-1.75
810.566	-1.75
811.31	1.25
812.053	-1.75
812.796	1.25
813.539	-1.75
814.283	-1.75
815.026	-1.75
815.769	-2.75
816.511	-0.75
817.254	-1.75
817.997	0.25
818.74	1.25
819.482	-0.75
820.225	1.25
820.967	0.25
821.71	0.25
822.452	-1.75
823.194	1.25
823.936	-2.75
824.678	-0.75
825.42	-1.75
826.162	-0.75
826.904	3.25
827.646	-0.75
828.388	-1.75
829.129	0.25
829.871	-1.75
830.612	0.25
831.354	0.25
832.095	-0.75
832.836	-0.75
833.577	-1.75
834.319	-0.75
835.06	-0.75
835.801	-0.75
836.542	1.25
837.282	-1.75
838.023	0.25
838.764	-0.75
839.504	-0.75
840.245	-0.75
840.985	0.25
841.726	1.25
842.466	0.25
843.206	-0.75
843.946	0.25
844.687	-2.75
845.427	0.25
846.166	0.25
846.906	3.25
847.646	-2.75
848.386	-0.75
849.125	2.25
849.865	0.25
850.605	-0.75
851.344	0.25
852.083	-0.75
852.823	-1.75
853.562	-0.75
854.301	-1.75
855.04	1.25
855.779	1.25
856.518	-0.75
857.257	-0.75
857.995	0.25
858.734	-0.75
859.473	0.25
860.211	-0.75
860.95	0.25
861.688	-0.75
862.426	1.25
863.165	0.25
863.903	0.25
864.641	1.25
865.379	0.25
866.117	-0.75
866.855	-0.75
867.593	-0.75
868.33	1.25
869.068	1.25
869.806	-1.75
870.543	-0.75
871.28	0.25
872.018	0.25
872.755	-1.75
873.492	2.25
874.229	-0.75
874.967	-0.75
875.703	-1.75
876.44	-3.75
877.177	0.25
877.914	-3.75
878.651	-0.75
879.387	-1.75
880.124	-2.75
880.86	0.25
881.597	-3.75
882.333	0.25
883.069	-1.75
883.806	1.25
884.542	-0.75
885.278	-0.75
886.014	-0.75
886.749	-0.75
887.485	-0.75
888.221	0.25
888.957	-1.75
889.692	-1.75
890.428	-1.75
891.163	0.25
891.899	-0.75
892.634	-0.75
893.369	0.25
894.104	-1.75
894.839	0.25
895.574	1.25
896.309	-1.75
897.044	0.25
897.779	-2.75
898.514	1.25
899.248	-0.75
899.983	0.25
900.717	-0.75
901.452	-0.75
902.186	0.25
902.92	-0.75
903.654	-1.75
904.389	0.25
905.123	-1.75
905.857	1.25
906.59	0.25
907.324	0.25
908.058	-1.75
908.792	0.25
909.525	-2.75
910.259	2.25
910.992	0.25
911.726	-2.75
912.459	0.25
913.192	0.25
913.925	-0.75
914.658	-0.75
915.391	-1.75
916.124	-1.75
916.857	-0.75
917.59	-0.75
918.323	-1.75
919.055	-1.75
919.788	0.25
920.521	1.25
921.253	-0.75
921.985	0.25
922.718	0.25
923.45	0.25
924.182	-0.75
924.914	1.25
925.646	-0.75
926.378	0.25
927.11	-1.75
927.841	0.25
928.573	-0.75
929.305	0.25
930.036	0.25
930.768	1.25
931.499	-1.75
932.23	-3.75
932.962	-1.75
933.693	-0.75
934.424	0.25
935.155	-0.75
935.886	0.25
936.617	0.25
937.348	-1.75
938.078	-0.75
938.809	-1.75
939.54	0.25
940.27	-1.75
941.001	-0.75
941.731	0.25
942.461	-0.75
943.191	0.25
943.922	-0.75
944.652	0.25
945.382	-1.75
946.112	-1.75
946.841	0.25
947.571	1.25
948.301	-0.75
949.031	-1.75
949.76	0.25
950.49	-3.75
951.219	0.25
951.948	0.25
952.678	-1.75
953.407	-0.75
954.136	-1.75
954.865	2.25
955.594	0.25
956.323	-0.75
957.052	1.25
957.78	-0.75
958.509	-0.75
959.238	-0.75
959.966	-0.75
960.695	-0.75
961.423	-0.75
962.151	-0.75
962.88	-0.75
963.608	-0.75
964.336	-0.75
965.064	-0.75
965.792	0.25
966.52	0.25
967.247	0.25
967.975	-0.75
968.703	0.25
969.43	-1.75
970.158	0.25
970.885	1.25
971.613	-1.75
972.34	0.25
973.067	0.25
973.794	2.25
974.521	2.25
975.248	0.25
975.975	0.25
976.702	-0.75
977.429	-0.75
978.156	0.25
978.882	-0.75
979.609	-1.75
980.335	-0.75
981.062	-1.75
981.788	0.25
982.514	0.25
983.24	-0.75
983.967	-0.75
984.693	-1.75
985.419	-1.75
986.144	1.25
986.87	0.25
987.596	0.25
988.322	1.25
989.047	-0.75
989.773	0.25
990.498	0.25
991.224	-0.75
991.949	2.25
992.674	-3.75
993.399	-2.75
994.124	1.25
994.849	-1.75
995.574	-1.75
996.299	-3.75
997.024	-0.75
997.749	-0.75
998.473	-1.75
999.198	-0.75
999.922	-0.75
1000.647	-0.75
1001.371	2.25
1002.095	-0.75
1002.82	-1.75
1003.544	0.25
1004.268	-2.75
1004.992	-1.75
1005.716	-1.75
1006.439	-1.75
1007.163	-1.75
1007.887	-2.75
1008.611	0.25
1009.334	0.25
1010.058	0.25
1010.781	1.25
1011.504	0.25
1012.228	0.25
1012.951	1.25
1013.674	-1.75
1014.397	0.25
1015.12	0.25
