节点500_285_QEPB04081__281__15-00-13-800.txt的数据

Date: Wed Nov 12 15:00:13 CST 2025
User: PC
Spectrometer: QEPB0408
触发模式: 0
积分时间 (秒): 1.000000E-2
Scans to average: 1
启用暗噪声校正: true
启用非线性校正: false
滑动平均宽度: 0
X轴模式: Wavelengths
Number of Pixels in Spectrum: 1044
>>>>>Begin Spectral Data<<<<<
220.843	2.5
221.644	1.5
222.444	1.5
223.244	1.5
224.045	1.5
224.845	-0.5
225.645	1.5
226.445	1.5
227.245	1.5
228.045	2.5
228.845	1.5
229.645	3.5
230.444	3.5
231.244	2.5
232.043	5.5
232.843	2.5
233.642	3.5
234.442	3.5
235.241	2.5
236.04	3.5
236.839	5.5
237.638	4.5
238.437	4.5
239.236	3.5
240.035	5.5
240.833	5.5
241.632	1.5
242.43	4.5
243.229	5.5
244.027	3.5
244.826	7.5
245.624	5.5
246.422	6.5
247.22	4.5
248.018	7.5
248.816	6.5
249.614	4.5
250.412	6.5
251.21	6.5
252.007	5.5
252.805	5.5
253.602	5.5
254.4	5.5
255.197	7.5
255.994	8.5
256.791	6.5
257.589	10.5
258.386	6.5
259.183	8.5
259.979	9.5
260.776	11.5
261.573	9.5
262.37	9.5
263.166	11.5
263.963	13.5
264.759	11.5
265.556	11.5
266.352	12.5
267.148	12.5
267.944	11.5
268.74	13.5
269.536	13.5
270.332	16.5
271.128	14.5
271.924	15.5
272.719	17.5
273.515	17.5
274.311	15.5
275.106	14.5
275.901	17.5
276.697	16.5
277.492	18.5
278.287	20.5
279.082	17.5
279.877	19.5
280.672	20.5
281.467	19.5
282.262	16.5
283.056	20.5
283.851	18.5
284.646	21.5
285.44	20.5
286.234	21.5
287.029	19.5
287.823	18.5
288.617	19.5
289.411	17.5
290.205	21.5
290.999	16.5
291.793	17.5
292.587	18.5
293.381	17.5
294.174	16.5
294.968	15.5
295.761	13.5
296.555	15.5
297.348	14.5
298.141	15.5
298.935	15.5
299.728	15.5
300.521	14.5
301.314	15.5
302.107	12.5
302.899	9.5
303.692	11.5
304.485	13.5
305.277	13.5
306.07	11.5
306.862	12.5
307.655	12.5
308.447	10.5
309.239	13.5
310.031	10.5
310.823	9.5
311.615	10.5
312.407	9.5
313.199	8.5
313.991	9.5
314.783	9.5
315.574	5.5
316.366	8.5
317.157	7.5
317.949	6.5
318.74	7.5
319.531	6.5
320.322	7.5
321.113	6.5
321.904	6.5
322.695	7.5
323.486	9.5
324.277	6.5
325.068	4.5
325.858	8.5
326.649	5.5
327.439	7.5
328.23	6.5
329.02	5.5
329.81	7.5
330.6	6.5
331.391	7.5
332.181	6.5
332.971	5.5
333.76	5.5
334.55	6.5
335.34	7.5
336.13	7.5
336.919	9.5
337.709	5.5
338.498	7.5
339.287	5.5
340.077	6.5
340.866	6.5
341.655	8.5
342.444	4.5
343.233	5.5
344.022	8.5
344.811	5.5
345.6	5.5
346.388	7.5
347.177	5.5
347.965	5.5
348.754	4.5
349.542	6.5
350.33	6.5
351.119	6.5
351.907	8.5
352.695	5.5
353.483	3.5
354.271	6.5
355.059	5.5
355.846	7.5
356.634	7.5
357.422	6.5
358.209	4.5
358.997	4.5
359.784	5.5
360.571	4.5
361.359	4.5
362.146	5.5
362.933	4.5
363.72	5.5
364.507	8.5
365.294	5.5
366.081	4.5
366.867	6.5
367.654	4.5
368.44	5.5
369.227	5.5
370.013	6.5
370.8	4.5
371.586	4.5
372.372	5.5
373.158	6.5
373.944	4.5
374.73	6.5
375.516	6.5
376.302	4.5
377.088	7.5
377.873	3.5
378.659	5.5
379.445	4.5
380.23	4.5
381.015	3.5
381.801	5.5
382.586	5.5
383.371	4.5
384.156	8.5
384.941	6.5
385.726	6.5
386.511	3.5
387.296	5.5
388.08	5.5
388.865	4.5
389.649	4.5
390.434	8.5
391.218	3.5
392.003	5.5
392.787	4.5
393.571	7.5
394.355	6.5
395.139	8.5
395.923	4.5
396.707	6.5
397.491	7.5
398.274	5.5
399.058	7.5
399.842	5.5
400.625	4.5
401.408	8.5
402.192	5.5
402.975	9.5
403.758	7.5
404.541	8.5
405.324	5.5
406.107	5.5
406.89	6.5
407.673	7.5
408.456	9.5
409.238	9.5
410.021	7.5
410.803	6.5
411.586	8.5
412.368	8.5
413.151	9.5
413.933	10.5
414.715	7.5
415.497	9.5
416.279	10.5
417.061	9.5
417.843	9.5
418.624	9.5
419.406	8.5
420.188	7.5
420.969	10.5
421.751	7.5
422.532	9.5
423.313	11.5
424.095	11.5
424.876	12.5
425.657	9.5
426.438	12.5
427.219	14.5
428	13.5
428.78	13.5
429.561	14.5
430.342	15.5
431.122	15.5
431.903	12.5
432.683	15.5
433.464	16.5
434.244	16.5
435.024	17.5
435.804	17.5
436.584	19.5
437.364	21.5
438.144	20.5
438.924	20.5
439.704	22.5
440.483	23.5
441.263	20.5
442.042	27.5
442.822	28.5
443.601	31.5
444.38	30.5
445.16	30.5
445.939	34.5
446.718	31.5
447.497	39.5
448.276	42.5
449.054	42.5
449.833	47.5
450.612	53.5
451.391	55.5
452.169	59.5
452.948	66.5
453.726	71.5
454.504	78.5
455.282	89.5
456.061	95.5
456.839	115.5
457.617	117.5
458.395	134.5
459.172	147.5
459.95	161.5
460.728	184.5
461.506	198.5
462.283	229.5
463.061	257.5
463.838	279.5
464.615	319.5
465.393	352.5
466.17	395.5
466.947	446.5
467.724	497.5
468.501	557.5
469.278	612.5
470.055	687.5
470.831	757.5
471.608	849.5
472.385	946.5
473.161	1032.5
473.938	1173.5
474.714	1284.5
475.49	1420.5
476.266	1586.5
477.043	1741.5
477.819	1931.5
478.595	2135.5
479.371	2350.5
480.146	2602.5
480.922	2870.5
481.698	3145.5
482.473	3497.5
483.249	3852.5
484.024	4230.5
484.8	4654.5
485.575	5098.5
486.35	5630.5
487.126	6202.5
487.901	6812.5
488.676	7434.5
489.451	8157.5
490.225	8968.5
491	9767.5
491.775	10697.5
492.55	11627.5
493.324	12671.5
494.099	13651.5
494.873	14679.5
495.647	15874.5
496.422	17046.5
497.196	18202.5
497.97	19451.5
498.744	20645.5
499.518	21865.5
500.292	22971.5
501.066	24069.5
501.839	25035.5
502.613	25925.5
503.387	26731.5
504.16	27345.5
504.934	27629.5
505.707	27721.5
506.48	27774.5
507.253	27690.5
508.027	27348.5
508.8	26999.5
509.573	26641.5
510.346	25894.5
511.118	25076.5
511.891	24265.5
512.664	23392.5
513.437	22463.5
514.209	21497.5
514.982	20625.5
515.754	19723.5
516.526	18855.5
517.298	17992.5
518.071	17155.5
518.843	16577.5
519.615	15897.5
520.387	15275.5
521.159	14679.5
521.93	14060.5
522.702	13527.5
523.474	12957.5
524.245	12433.5
525.017	11859.5
525.788	11442.5
526.56	10942.5
527.331	10397.5
528.102	9900.5
528.873	9428.5
529.644	8984.5
530.415	8554.5
531.186	8131.5
531.957	7645.5
532.728	7303.5
533.498	6903.5
534.269	6526.5
535.039	6180.5
535.81	5810.5
536.58	5520.5
537.351	5166.5
538.121	4880.5
538.891	4624.5
539.661	4391.5
540.431	4132.5
541.201	3883.5
541.971	3713.5
542.741	3503.5
543.51	3321.5
544.28	3163.5
545.05	3037.5
545.819	2862.5
546.588	2711.5
547.358	2598.5
548.127	2457.5
548.896	2341.5
549.665	2221.5
550.434	2091.5
551.203	1992.5
551.972	1876.5
552.741	1770.5
553.51	1662.5
554.278	1577.5
555.047	1490.5
555.815	1425.5
556.584	1320.5
557.352	1254.5
558.121	1189.5
558.889	1109.5
559.657	1051.5
560.425	991.5
561.193	933.5
561.961	891.5
562.729	843.5
563.496	795.5
564.264	751.5
565.032	708.5
565.799	674.5
566.567	626.5
567.334	598.5
568.101	569.5
568.869	541.5
569.636	506.5
570.403	475.5
571.17	440.5
571.937	425.5
572.704	399.5
573.471	371.5
574.237	355.5
575.004	332.5
575.771	314.5
576.537	295.5
577.303	279.5
578.07	269.5
578.836	246.5
579.602	236.5
580.368	220.5
581.134	206.5
581.9	202.5
582.666	183.5
583.432	175.5
584.198	166.5
584.964	163.5
585.729	150.5
586.495	147.5
587.26	137.5
588.025	130.5
588.791	121.5
589.556	114.5
590.321	108.5
591.086	107.5
591.851	97.5
592.616	92.5
593.381	86.5
594.146	82.5
594.911	81.5
595.675	75.5
596.44	73.5
597.204	70.5
597.969	68.5
598.733	66.5
599.497	64.5
600.261	58.5
601.025	54.5
601.79	52.5
602.553	52.5
603.317	48.5
604.081	44.5
604.845	46.5
605.609	42.5
606.372	40.5
607.136	41.5
607.899	36.5
608.662	36.5
609.426	33.5
610.189	31.5
610.952	32.5
611.715	31.5
612.478	28.5
613.241	29.5
614.004	27.5
614.767	27.5
615.529	23.5
616.292	21.5
617.055	26.5
617.817	25.5
618.579	20.5
619.342	22.5
620.104	24.5
620.866	23.5
621.628	20.5
622.39	19.5
623.152	17.5
623.914	20.5
624.676	17.5
625.438	16.5
626.199	15.5
626.961	15.5
627.722	13.5
628.484	13.5
629.245	12.5
630.006	13.5
630.768	9.5
631.529	12.5
632.29	13.5
633.051	13.5
633.812	13.5
634.573	10.5
635.333	13.5
636.094	8.5
636.855	9.5
637.615	12.5
638.376	9.5
639.136	9.5
639.896	8.5
640.657	9.5
641.417	11.5
642.177	7.5
642.937	8.5
643.697	7.5
644.457	9.5
645.216	7.5
645.976	9.5
646.736	7.5
647.495	8.5
648.255	7.5
649.014	7.5
649.774	7.5
650.533	5.5
651.292	9.5
652.051	6.5
652.81	4.5
653.569	5.5
654.328	5.5
655.087	6.5
655.846	6.5
656.604	7.5
657.363	6.5
658.121	4.5
658.88	6.5
659.638	5.5
660.397	3.5
661.155	5.5
661.913	5.5
662.671	4.5
663.429	4.5
664.187	6.5
664.945	5.5
665.703	5.5
666.46	3.5
667.218	4.5
667.976	7.5
668.733	5.5
669.49	5.5
670.248	4.5
671.005	3.5
671.762	4.5
672.519	2.5
673.276	6.5
674.033	5.5
674.79	3.5
675.547	5.5
676.304	5.5
677.06	5.5
677.817	5.5
678.574	5.5
679.33	3.5
680.086	4.5
680.843	1.5
681.599	5.5
682.355	5.5
683.111	4.5
683.867	2.5
684.623	1.5
685.379	0.5
686.135	2.5
686.89	6.5
687.646	4.5
688.402	3.5
689.157	5.5
689.912	2.5
690.668	2.5
691.423	4.5
692.178	4.5
692.933	3.5
693.688	2.5
694.443	3.5
695.198	4.5
695.953	2.5
696.708	5.5
697.462	3.5
698.217	3.5
698.972	3.5
699.726	3.5
700.48	4.5
701.235	1.5
701.989	2.5
702.743	2.5
703.497	1.5
704.251	4.5
705.005	2.5
705.759	5.5
706.513	3.5
707.266	3.5
708.02	2.5
708.774	2.5
709.527	3.5
710.28	2.5
711.034	1.5
711.787	3.5
712.54	1.5
713.293	1.5
714.046	3.5
714.799	4.5
715.552	5.5
716.305	3.5
717.058	3.5
717.81	2.5
718.563	2.5
719.315	3.5
720.068	4.5
720.82	2.5
721.573	3.5
722.325	4.5
723.077	4.5
723.829	1.5
724.581	2.5
725.333	3.5
726.085	1.5
726.836	3.5
727.588	5.5
728.34	3.5
729.091	1.5
729.843	3.5
730.594	5.5
731.346	3.5
732.097	3.5
732.848	5.5
733.599	3.5
734.35	4.5
735.101	4.5
735.852	3.5
736.603	2.5
737.354	5.5
738.104	6.5
738.855	1.5
739.605	4.5
740.356	1.5
741.106	2.5
741.856	6.5
742.607	3.5
743.357	6.5
744.107	1.5
744.857	4.5
745.607	3.5
746.357	7.5
747.106	4.5
747.856	3.5
748.606	4.5
749.355	4.5
750.105	6.5
750.854	5.5
751.603	7.5
752.353	3.5
753.102	2.5
753.851	4.5
754.6	5.5
755.349	7.5
756.098	5.5
756.847	5.5
757.595	5.5
758.344	4.5
759.093	5.5
759.841	5.5
760.589	2.5
761.338	5.5
762.086	6.5
762.834	6.5
763.582	5.5
764.331	8.5
765.079	8.5
765.826	4.5
766.574	7.5
767.322	7.5
768.07	6.5
768.817	7.5
769.565	6.5
770.312	6.5
771.06	7.5
771.807	8.5
772.554	8.5
773.302	7.5
774.049	6.5
774.796	3.5
775.543	9.5
776.29	8.5
777.036	9.5
777.783	8.5
778.53	7.5
779.276	8.5
780.023	7.5
780.769	8.5
781.516	8.5
782.262	8.5
783.008	9.5
783.754	8.5
784.5	8.5
785.246	8.5
785.992	7.5
786.738	9.5
787.484	7.5
788.23	7.5
788.975	7.5
789.721	9.5
790.466	8.5
791.212	8.5
791.957	7.5
792.702	9.5
793.447	7.5
794.193	7.5
794.938	9.5
795.683	6.5
796.427	7.5
797.172	8.5
797.917	9.5
798.662	7.5
799.406	6.5
800.151	11.5
800.895	7.5
801.64	7.5
802.384	7.5
803.128	4.5
803.872	7.5
804.616	8.5
805.36	4.5
806.104	7.5
806.848	6.5
807.592	5.5
808.336	5.5
809.079	7.5
809.823	4.5
810.566	5.5
811.31	6.5
812.053	3.5
812.796	6.5
813.539	4.5
814.283	7.5
815.026	5.5
815.769	5.5
816.511	6.5
817.254	6.5
817.997	8.5
818.74	5.5
819.482	2.5
820.225	2.5
820.967	2.5
821.71	5.5
822.452	5.5
823.194	4.5
823.936	2.5
824.678	5.5
825.42	2.5
826.162	4.5
826.904	5.5
827.646	3.5
828.388	5.5
829.129	3.5
829.871	2.5
830.612	3.5
831.354	5.5
832.095	3.5
832.836	5.5
833.577	1.5
834.319	3.5
835.06	5.5
835.801	3.5
836.542	3.5
837.282	2.5
838.023	4.5
838.764	1.5
839.504	5.5
840.245	1.5
840.985	2.5
841.726	3.5
842.466	2.5
843.206	3.5
843.946	2.5
844.687	2.5
845.427	2.5
846.166	3.5
846.906	1.5
847.646	3.5
848.386	1.5
849.125	1.5
849.865	3.5
850.605	2.5
851.344	2.5
852.083	1.5
852.823	1.5
853.562	1.5
854.301	1.5
855.04	3.5
855.779	0.5
856.518	1.5
857.257	2.5
857.995	2.5
858.734	3.5
859.473	3.5
860.211	2.5
860.95	2.5
861.688	2.5
862.426	3.5
863.165	1.5
863.903	4.5
864.641	1.5
865.379	3.5
866.117	1.5
866.855	0.5
867.593	1.5
868.33	2.5
869.068	-1.5
869.806	0.5
870.543	3.5
871.28	1.5
872.018	1.5
872.755	1.5
873.492	4.5
874.229	-1.5
874.967	2.5
875.703	-0.5
876.44	1.5
877.177	1.5
877.914	1.5
878.651	-0.5
879.387	1.5
880.124	3.5
880.86	-0.5
881.597	1.5
882.333	-0.5
883.069	0.5
883.806	1.5
884.542	0.5
885.278	2.5
886.014	0.5
886.749	1.5
887.485	2.5
888.221	0.5
888.957	1.5
889.692	-0.5
890.428	0.5
891.163	-0.5
891.899	1.5
892.634	2.5
893.369	1.5
894.104	0.5
894.839	-0.5
895.574	-0.5
896.309	-0.5
897.044	-0.5
897.779	0.5
898.514	-0.5
899.248	1.5
899.983	-0.5
900.717	1.5
901.452	-0.5
902.186	0.5
902.92	0.5
903.654	-1.5
904.389	3.5
905.123	-0.5
905.857	0.5
906.59	-0.5
907.324	0.5
908.058	0.5
908.792	-1.5
909.525	-0.5
910.259	-0.5
910.992	-2.5
911.726	0.5
912.459	1.5
913.192	2.5
913.925	-0.5
914.658	-0.5
915.391	3.5
916.124	-1.5
916.857	2.5
917.59	-0.5
918.323	-0.5
919.055	-1.5
919.788	-2.5
920.521	-1.5
921.253	-0.5
921.985	0.5
922.718	1.5
923.45	-0.5
924.182	-0.5
924.914	-0.5
925.646	1.5
926.378	-1.5
927.11	-0.5
927.841	1.5
928.573	1.5
929.305	0.5
930.036	-0.5
930.768	-0.5
931.499	-1.5
932.23	-0.5
932.962	0.5
933.693	1.5
934.424	-0.5
935.155	-2.5
935.886	0.5
936.617	-0.5
937.348	0.5
938.078	-1.5
938.809	-1.5
939.54	0.5
940.27	0.5
941.001	0.5
941.731	1.5
942.461	0.5
943.191	0.5
943.922	0.5
944.652	0.5
945.382	-1.5
946.112	1.5
946.841	0.5
947.571	-1.5
948.301	-0.5
949.031	-0.5
949.76	-0.5
950.49	-0.5
951.219	1.5
951.948	0.5
952.678	-0.5
953.407	-0.5
954.136	-0.5
954.865	1.5
955.594	-0.5
956.323	-0.5
957.052	1.5
957.78	-1.5
958.509	1.5
959.238	-1.5
959.966	1.5
960.695	0.5
961.423	-0.5
962.151	1.5
962.88	-0.5
963.608	1.5
964.336	0.5
965.064	0.5
965.792	1.5
966.52	-0.5
967.247	1.5
967.975	0.5
968.703	-0.5
969.43	1.5
970.158	0.5
970.885	-0.5
971.613	0.5
972.34	-1.5
973.067	2.5
973.794	1.5
974.521	-1.5
975.248	-0.5
975.975	1.5
976.702	-0.5
977.429	0.5
978.156	-0.5
978.882	-0.5
979.609	-0.5
980.335	0.5
981.062	0.5
981.788	-3.5
982.514	0.5
983.24	-0.5
983.967	1.5
984.693	-0.5
985.419	0.5
986.144	-0.5
986.87	1.5
987.596	2.5
988.322	-0.5
989.047	-2.5
989.773	1.5
990.498	-2.5
991.224	0.5
991.949	0.5
992.674	-0.5
993.399	-0.5
994.124	0.5
994.849	0.5
995.574	1.5
996.299	-1.5
997.024	0.5
997.749	0.5
998.473	0.5
999.198	-1.5
999.922	-0.5
1000.647	0.5
1001.371	3.5
1002.095	-1.5
1002.82	-1.5
1003.544	-1.5
1004.268	3.5
1004.992	1.5
1005.716	0.5
1006.439	0.5
1007.163	-0.5
1007.887	2.5
1008.611	-0.5
1009.334	0.5
1010.058	-0.5
1010.781	1.5
1011.504	1.5
1012.228	0.5
1012.951	1.5
1013.674	-0.5
1014.397	-0.5
1015.12	0.5
