节点500_285_QEPB04081__50__14-56-23-355.txt的数据

Date: Wed Nov 12 14:56:23 CST 2025
User: PC
Spectrometer: QEPB0408
触发模式: 0
积分时间 (秒): 1.000000E-2
Scans to average: 1
启用暗噪声校正: true
启用非线性校正: false
滑动平均宽度: 0
X轴模式: Wavelengths
Number of Pixels in Spectrum: 1044
>>>>>Begin Spectral Data<<<<<
220.843	2.12
221.644	-0.88
222.444	1.12
223.244	3.12
224.045	2.12
224.845	1.12
225.645	1.12
226.445	0.12
227.245	3.12
228.045	3.12
228.845	4.12
229.645	3.12
230.444	1.12
231.244	3.12
232.043	3.12
232.843	5.12
233.642	5.12
234.442	6.12
235.241	3.12
236.04	3.12
236.839	4.12
237.638	2.12
238.437	3.12
239.236	7.12
240.035	4.12
240.833	4.12
241.632	7.12
242.43	6.12
243.229	4.12
244.027	6.12
244.826	5.12
245.624	6.12
246.422	8.12
247.22	6.12
248.018	7.12
248.816	5.12
249.614	6.12
250.412	8.12
251.21	5.12
252.007	8.12
252.805	9.12
253.602	5.12
254.4	11.12
255.197	7.12
255.994	11.12
256.791	7.12
257.589	10.12
258.386	9.12
259.183	9.12
259.979	11.12
260.776	12.12
261.573	13.12
262.37	12.12
263.166	13.12
263.963	14.12
264.759	13.12
265.556	15.12
266.352	13.12
267.148	16.12
267.944	17.12
268.74	15.12
269.536	16.12
270.332	17.12
271.128	16.12
271.924	20.12
272.719	17.12
273.515	14.12
274.311	19.12
275.106	19.12
275.901	18.12
276.697	19.12
277.492	17.12
278.287	15.12
279.082	21.12
279.877	21.12
280.672	19.12
281.467	21.12
282.262	22.12
283.056	20.12
283.851	18.12
284.646	20.12
285.44	18.12
286.234	18.12
287.029	20.12
287.823	18.12
288.617	17.12
289.411	22.12
290.205	20.12
290.999	21.12
291.793	18.12
292.587	19.12
293.381	16.12
294.174	17.12
294.968	19.12
295.761	15.12
296.555	15.12
297.348	14.12
298.141	15.12
298.935	17.12
299.728	16.12
300.521	15.12
301.314	11.12
302.107	14.12
302.899	12.12
303.692	13.12
304.485	11.12
305.277	10.12
306.07	13.12
306.862	14.12
307.655	14.12
308.447	13.12
309.239	13.12
310.031	12.12
310.823	11.12
311.615	11.12
312.407	9.12
313.199	10.12
313.991	10.12
314.783	7.12
315.574	9.12
316.366	11.12
317.157	8.12
317.949	9.12
318.74	10.12
319.531	8.12
320.322	5.12
321.113	6.12
321.904	8.12
322.695	7.12
323.486	7.12
324.277	7.12
325.068	7.12
325.858	7.12
326.649	8.12
327.439	9.12
328.23	7.12
329.02	7.12
329.81	5.12
330.6	7.12
331.391	5.12
332.181	5.12
332.971	8.12
333.76	6.12
334.55	6.12
335.34	7.12
336.13	5.12
336.919	6.12
337.709	7.12
338.498	7.12
339.287	6.12
340.077	6.12
340.866	9.12
341.655	5.12
342.444	8.12
343.233	5.12
344.022	9.12
344.811	7.12
345.6	5.12
346.388	6.12
347.177	5.12
347.965	5.12
348.754	6.12
349.542	6.12
350.33	6.12
351.119	5.12
351.907	7.12
352.695	6.12
353.483	6.12
354.271	6.12
355.059	5.12
355.846	6.12
356.634	5.12
357.422	5.12
358.209	7.12
358.997	7.12
359.784	5.12
360.571	6.12
361.359	7.12
362.146	5.12
362.933	5.12
363.72	5.12
364.507	5.12
365.294	6.12
366.081	4.12
366.867	6.12
367.654	6.12
368.44	4.12
369.227	6.12
370.013	5.12
370.8	5.12
371.586	4.12
372.372	4.12
373.158	5.12
373.944	3.12
374.73	5.12
375.516	6.12
376.302	6.12
377.088	5.12
377.873	5.12
378.659	4.12
379.445	5.12
380.23	5.12
381.015	5.12
381.801	6.12
382.586	4.12
383.371	3.12
384.156	5.12
384.941	5.12
385.726	6.12
386.511	4.12
387.296	6.12
388.08	8.12
388.865	5.12
389.649	6.12
390.434	6.12
391.218	8.12
392.003	4.12
392.787	5.12
393.571	7.12
394.355	8.12
395.139	7.12
395.923	8.12
396.707	7.12
397.491	10.12
398.274	7.12
399.058	5.12
399.842	8.12
400.625	8.12
401.408	5.12
402.192	6.12
402.975	6.12
403.758	7.12
404.541	5.12
405.324	7.12
406.107	9.12
406.89	8.12
407.673	9.12
408.456	10.12
409.238	5.12
410.021	11.12
410.803	9.12
411.586	8.12
412.368	9.12
413.151	8.12
413.933	10.12
414.715	8.12
415.497	10.12
416.279	11.12
417.061	8.12
417.843	9.12
418.624	8.12
419.406	11.12
420.188	10.12
420.969	9.12
421.751	11.12
422.532	10.12
423.313	14.12
424.095	12.12
424.876	14.12
425.657	14.12
426.438	12.12
427.219	12.12
428	11.12
428.78	13.12
429.561	14.12
430.342	14.12
431.122	15.12
431.903	12.12
432.683	17.12
433.464	14.12
434.244	20.12
435.024	19.12
435.804	18.12
436.584	17.12
437.364	18.12
438.144	19.12
438.924	22.12
439.704	19.12
440.483	23.12
441.263	24.12
442.042	25.12
442.822	27.12
443.601	28.12
444.38	29.12
445.16	31.12
445.939	34.12
446.718	34.12
447.497	36.12
448.276	41.12
449.054	39.12
449.833	48.12
450.612	47.12
451.391	50.12
452.169	56.12
452.948	63.12
453.726	68.12
454.504	76.12
455.282	81.12
456.061	88.12
456.839	100.12
457.617	113.12
458.395	124.12
459.172	135.12
459.95	150.12
460.728	170.12
461.506	186.12
462.283	206.12
463.061	233.12
463.838	258.12
464.615	293.12
465.393	329.12
466.17	368.12
466.947	407.12
467.724	465.12
468.501	511.12
469.278	586.12
470.055	648.12
470.831	709.12
471.608	804.12
472.385	883.12
473.161	998.12
473.938	1126.12
474.714	1244.12
475.49	1376.12
476.266	1535.12
477.043	1700.12
477.819	1889.12
478.595	2105.12
479.371	2318.12
480.146	2582.12
480.922	2888.12
481.698	3190.12
482.473	3563.12
483.249	3946.12
484.024	4334.12
484.8	4790.12
485.575	5310.12
486.35	5881.12
487.126	6503.12
487.901	7157.12
488.676	7899.12
489.451	8670.12
490.225	9555.12
491	10461.12
491.775	11430.12
492.55	12547.12
493.324	13651.12
494.099	14735.12
494.873	15938.12
495.647	17254.12
496.422	18544.12
497.196	19807.12
497.97	21158.12
498.744	22502.12
499.518	23713.12
500.292	24944.12
501.066	25960.12
501.839	26924.12
502.613	27743.12
503.387	28524.12
504.16	28993.12
504.934	29187.12
505.707	29149.12
506.48	28984.12
507.253	28628.12
508.027	28170.12
508.8	27572.12
509.573	26925.12
510.346	26121.12
511.118	25188.12
511.891	24223.12
512.664	23204.12
513.437	22272.12
514.209	21221.12
514.982	20328.12
515.754	19309.12
516.526	18379.12
517.298	17595.12
518.071	16842.12
518.843	16160.12
519.615	15536.12
520.387	14981.12
521.159	14408.12
521.93	13809.12
522.702	13225.12
523.474	12728.12
524.245	12147.12
525.017	11609.12
525.788	11116.12
526.56	10616.12
527.331	10126.12
528.102	9610.12
528.873	9160.12
529.644	8634.12
530.415	8196.12
531.186	7798.12
531.957	7357.12
532.728	6997.12
533.498	6568.12
534.269	6184.12
535.039	5854.12
535.81	5531.12
536.58	5207.12
537.351	4912.12
538.121	4639.12
538.891	4400.12
539.661	4146.12
540.431	3883.12
541.201	3680.12
541.971	3524.12
542.741	3345.12
543.51	3166.12
544.28	3026.12
545.05	2889.12
545.819	2721.12
546.588	2605.12
547.358	2468.12
548.127	2316.12
548.896	2232.12
549.665	2106.12
550.434	1972.12
551.203	1866.12
551.972	1784.12
552.741	1684.12
553.51	1584.12
554.278	1476.12
555.047	1409.12
555.815	1328.12
556.584	1251.12
557.352	1175.12
558.121	1107.12
558.889	1051.12
559.657	992.12
560.425	940.12
561.193	880.12
561.961	831.12
562.729	772.12
563.496	750.12
564.264	703.12
565.032	658.12
565.799	628.12
566.567	592.12
567.334	564.12
568.101	535.12
568.869	497.12
569.636	475.12
570.403	440.12
571.17	424.12
571.937	406.12
572.704	381.12
573.471	355.12
574.237	333.12
575.004	317.12
575.771	291.12
576.537	278.12
577.303	259.12
578.07	243.12
578.836	235.12
579.602	217.12
580.368	205.12
581.134	196.12
581.9	183.12
582.666	176.12
583.432	166.12
584.198	153.12
584.964	151.12
585.729	145.12
586.495	134.12
587.26	127.12
588.025	122.12
588.791	115.12
589.556	105.12
590.321	100.12
591.086	96.12
591.851	93.12
592.616	89.12
593.381	82.12
594.146	80.12
594.911	77.12
595.675	76.12
596.44	66.12
597.204	68.12
597.969	63.12
598.733	59.12
599.497	59.12
600.261	58.12
601.025	54.12
601.79	51.12
602.553	52.12
603.317	45.12
604.081	45.12
604.845	45.12
605.609	44.12
606.372	41.12
607.136	38.12
607.899	35.12
608.662	35.12
609.426	31.12
610.189	30.12
610.952	27.12
611.715	28.12
612.478	27.12
613.241	28.12
614.004	25.12
614.767	24.12
615.529	25.12
616.292	21.12
617.055	24.12
617.817	23.12
618.579	22.12
619.342	23.12
620.104	23.12
620.866	20.12
621.628	19.12
622.39	19.12
623.152	17.12
623.914	16.12
624.676	16.12
625.438	14.12
626.199	17.12
626.961	16.12
627.722	15.12
628.484	13.12
629.245	14.12
630.006	13.12
630.768	13.12
631.529	13.12
632.29	11.12
633.051	13.12
633.812	12.12
634.573	13.12
635.333	9.12
636.094	11.12
636.855	9.12
637.615	10.12
638.376	11.12
639.136	11.12
639.896	8.12
640.657	11.12
641.417	7.12
642.177	9.12
642.937	8.12
643.697	7.12
644.457	7.12
645.216	8.12
645.976	8.12
646.736	7.12
647.495	6.12
648.255	7.12
649.014	9.12
649.774	5.12
650.533	8.12
651.292	8.12
652.051	6.12
652.81	8.12
653.569	7.12
654.328	5.12
655.087	6.12
655.846	5.12
656.604	4.12
657.363	7.12
658.121	5.12
658.88	9.12
659.638	5.12
660.397	3.12
661.155	5.12
661.913	7.12
662.671	5.12
663.429	7.12
664.187	9.12
664.945	3.12
665.703	4.12
666.46	8.12
667.218	3.12
667.976	7.12
668.733	7.12
669.49	6.12
670.248	4.12
671.005	5.12
671.762	5.12
672.519	5.12
673.276	4.12
674.033	4.12
674.79	3.12
675.547	4.12
676.304	4.12
677.06	7.12
677.817	3.12
678.574	5.12
679.33	6.12
680.086	3.12
680.843	4.12
681.599	4.12
682.355	4.12
683.111	5.12
683.867	3.12
684.623	5.12
685.379	4.12
686.135	1.12
686.89	5.12
687.646	4.12
688.402	4.12
689.157	5.12
689.912	7.12
690.668	2.12
691.423	3.12
692.178	3.12
692.933	2.12
693.688	5.12
694.443	2.12
695.198	6.12
695.953	3.12
696.708	4.12
697.462	3.12
698.217	3.12
698.972	4.12
699.726	2.12
700.48	5.12
701.235	4.12
701.989	4.12
702.743	5.12
703.497	3.12
704.251	5.12
705.005	3.12
705.759	6.12
706.513	3.12
707.266	4.12
708.02	4.12
708.774	5.12
709.527	2.12
710.28	5.12
711.034	3.12
711.787	3.12
712.54	3.12
713.293	5.12
714.046	5.12
714.799	5.12
715.552	4.12
716.305	4.12
717.058	3.12
717.81	2.12
718.563	3.12
719.315	2.12
720.068	4.12
720.82	6.12
721.573	3.12
722.325	5.12
723.077	4.12
723.829	2.12
724.581	4.12
725.333	2.12
726.085	4.12
726.836	4.12
727.588	3.12
728.34	4.12
729.091	2.12
729.843	3.12
730.594	3.12
731.346	5.12
732.097	4.12
732.848	4.12
733.599	6.12
734.35	3.12
735.101	6.12
735.852	5.12
736.603	4.12
737.354	4.12
738.104	4.12
738.855	5.12
739.605	4.12
740.356	4.12
741.106	4.12
741.856	5.12
742.607	4.12
743.357	4.12
744.107	3.12
744.857	5.12
745.607	8.12
746.357	7.12
747.106	7.12
747.856	5.12
748.606	4.12
749.355	6.12
750.105	3.12
750.854	5.12
751.603	6.12
752.353	5.12
753.102	6.12
753.851	7.12
754.6	7.12
755.349	5.12
756.098	6.12
756.847	8.12
757.595	7.12
758.344	5.12
759.093	8.12
759.841	6.12
760.589	5.12
761.338	7.12
762.086	7.12
762.834	8.12
763.582	8.12
764.331	6.12
765.079	8.12
765.826	6.12
766.574	7.12
767.322	8.12
768.07	5.12
768.817	5.12
769.565	8.12
770.312	12.12
771.06	10.12
771.807	8.12
772.554	9.12
773.302	6.12
774.049	8.12
774.796	9.12
775.543	9.12
776.29	9.12
777.036	7.12
777.783	9.12
778.53	11.12
779.276	7.12
780.023	11.12
780.769	8.12
781.516	10.12
782.262	9.12
783.008	10.12
783.754	8.12
784.5	10.12
785.246	13.12
785.992	9.12
786.738	8.12
787.484	11.12
788.23	9.12
788.975	7.12
789.721	7.12
790.466	9.12
791.212	9.12
791.957	8.12
792.702	10.12
793.447	9.12
794.193	10.12
794.938	10.12
795.683	8.12
796.427	10.12
797.172	7.12
797.917	8.12
798.662	8.12
799.406	7.12
800.151	9.12
800.895	7.12
801.64	6.12
802.384	6.12
803.128	10.12
803.872	7.12
804.616	6.12
805.36	7.12
806.104	4.12
806.848	7.12
807.592	6.12
808.336	7.12
809.079	5.12
809.823	6.12
810.566	4.12
811.31	6.12
812.053	6.12
812.796	5.12
813.539	3.12
814.283	6.12
815.026	5.12
815.769	6.12
816.511	4.12
817.254	5.12
817.997	3.12
818.74	4.12
819.482	6.12
820.225	4.12
820.967	6.12
821.71	5.12
822.452	3.12
823.194	6.12
823.936	3.12
824.678	4.12
825.42	2.12
826.162	5.12
826.904	6.12
827.646	5.12
828.388	7.12
829.129	3.12
829.871	6.12
830.612	5.12
831.354	1.12
832.095	5.12
832.836	4.12
833.577	5.12
834.319	2.12
835.06	3.12
835.801	3.12
836.542	2.12
837.282	5.12
838.023	2.12
838.764	3.12
839.504	1.12
840.245	5.12
840.985	3.12
841.726	2.12
842.466	2.12
843.206	3.12
843.946	2.12
844.687	2.12
845.427	4.12
846.166	1.12
846.906	2.12
847.646	5.12
848.386	2.12
849.125	3.12
849.865	2.12
850.605	1.12
851.344	4.12
852.083	3.12
852.823	4.12
853.562	1.12
854.301	2.12
855.04	3.12
855.779	1.12
856.518	2.12
857.257	2.12
857.995	3.12
858.734	3.12
859.473	1.12
860.211	4.12
860.95	1.12
861.688	1.12
862.426	3.12
863.165	1.12
863.903	2.12
864.641	2.12
865.379	5.12
866.117	1.12
866.855	0.12
867.593	2.12
868.33	1.12
869.068	3.12
869.806	3.12
870.543	3.12
871.28	3.12
872.018	2.12
872.755	1.12
873.492	2.12
874.229	1.12
874.967	2.12
875.703	0.12
876.44	4.12
877.177	1.12
877.914	1.12
878.651	3.12
879.387	1.12
880.124	5.12
880.86	-1.88
881.597	3.12
882.333	1.12
883.069	4.12
883.806	1.12
884.542	-0.88
885.278	0.12
886.014	1.12
886.749	1.12
887.485	2.12
888.221	1.12
888.957	1.12
889.692	0.12
890.428	1.12
891.163	-0.88
891.899	1.12
892.634	0.12
893.369	-0.88
894.104	0.12
894.839	-0.88
895.574	0.12
896.309	-0.88
897.044	3.12
897.779	0.12
898.514	-0.88
899.248	3.12
899.983	1.12
900.717	0.12
901.452	-0.88
902.186	0.12
902.92	1.12
903.654	0.12
904.389	0.12
905.123	-0.88
905.857	-1.88
906.59	2.12
907.324	1.12
908.058	0.12
908.792	2.12
909.525	2.12
910.259	0.12
910.992	0.12
911.726	0.12
912.459	0.12
913.192	0.12
913.925	-0.88
914.658	1.12
915.391	1.12
916.124	0.12
916.857	-0.88
917.59	1.12
918.323	0.12
919.055	0.12
919.788	0.12
920.521	-1.88
921.253	2.12
921.985	3.12
922.718	0.12
923.45	-0.88
924.182	1.12
924.914	1.12
925.646	1.12
926.378	-0.88
927.11	0.12
927.841	1.12
928.573	-1.88
929.305	1.12
930.036	0.12
930.768	1.12
931.499	1.12
932.23	-0.88
932.962	1.12
933.693	-0.88
934.424	4.12
935.155	2.12
935.886	1.12
936.617	1.12
937.348	-0.88
938.078	4.12
938.809	-2.88
939.54	-0.88
940.27	0.12
941.001	0.12
941.731	2.12
942.461	0.12
943.191	0.12
943.922	-0.88
944.652	-0.88
945.382	1.12
946.112	0.12
946.841	0.12
947.571	-0.88
948.301	0.12
949.031	0.12
949.76	0.12
950.49	-0.88
951.219	1.12
951.948	1.12
952.678	-0.88
953.407	1.12
954.136	-0.88
954.865	-0.88
955.594	1.12
956.323	-0.88
957.052	1.12
957.78	1.12
958.509	-0.88
959.238	-0.88
959.966	-0.88
960.695	-0.88
961.423	1.12
962.151	-0.88
962.88	1.12
963.608	0.12
964.336	0.12
965.064	0.12
965.792	-0.88
966.52	0.12
967.247	-0.88
967.975	1.12
968.703	-0.88
969.43	1.12
970.158	0.12
970.885	0.12
971.613	-0.88
972.34	-0.88
973.067	2.12
973.794	-1.88
974.521	0.12
975.248	0.12
975.975	-1.88
976.702	0.12
977.429	-1.88
978.156	-0.88
978.882	2.12
979.609	-0.88
980.335	1.12
981.062	0.12
981.788	0.12
982.514	0.12
983.24	1.12
983.967	-1.88
984.693	1.12
985.419	-0.88
986.144	0.12
986.87	-0.88
987.596	-1.88
988.322	0.12
989.047	4.12
989.773	-0.88
990.498	2.12
991.224	0.12
991.949	0.12
992.674	0.12
993.399	-0.88
994.124	2.12
994.849	-2.88
995.574	2.12
996.299	-0.88
997.024	0.12
997.749	1.12
998.473	-0.88
999.198	-0.88
999.922	0.12
1000.647	1.12
1001.371	4.12
1002.095	0.12
1002.82	-0.88
1003.544	0.12
1004.268	1.12
1004.992	3.12
1005.716	0.12
1006.439	0.12
1007.163	3.12
1007.887	-0.88
1008.611	1.12
1009.334	1.12
1010.058	0.12
1010.781	0.12
1011.504	-0.88
1012.228	1.12
1012.951	-0.88
1013.674	0.12
1014.397	-2.88
1015.12	0.12
