节点500_285_QEPB04081__760__15-08-11-806.txt的数据

Date: Wed Nov 12 15:08:11 CST 2025
User: PC
Spectrometer: QEPB0408
触发模式: 0
积分时间 (秒): 1.000000E-2
Scans to average: 1
启用暗噪声校正: true
启用非线性校正: false
滑动平均宽度: 0
X轴模式: Wavelengths
Number of Pixels in Spectrum: 1044
>>>>>Begin Spectral Data<<<<<
220.843	1.88
221.644	0.88
222.444	3.88
223.244	-0.12
224.045	1.88
224.845	3.88
225.645	1.88
226.445	0.88
227.245	0.88
228.045	1.88
228.845	1.88
229.645	0.88
230.444	4.88
231.244	1.88
232.043	1.88
232.843	5.88
233.642	2.88
234.442	2.88
235.241	4.88
236.04	2.88
236.839	4.88
237.638	2.88
238.437	4.88
239.236	5.88
240.035	4.88
240.833	3.88
241.632	3.88
242.43	3.88
243.229	2.88
244.027	3.88
244.826	2.88
245.624	4.88
246.422	5.88
247.22	3.88
248.018	4.88
248.816	4.88
249.614	5.88
250.412	3.88
251.21	7.88
252.007	4.88
252.805	5.88
253.602	4.88
254.4	5.88
255.197	4.88
255.994	6.88
256.791	7.88
257.589	7.88
258.386	8.88
259.183	7.88
259.979	5.88
260.776	8.88
261.573	7.88
262.37	9.88
263.166	7.88
263.963	9.88
264.759	11.88
265.556	12.88
266.352	11.88
267.148	9.88
267.944	10.88
268.74	13.88
269.536	11.88
270.332	12.88
271.128	8.88
271.924	13.88
272.719	16.88
273.515	13.88
274.311	14.88
275.106	14.88
275.901	14.88
276.697	15.88
277.492	16.88
278.287	13.88
279.082	16.88
279.877	18.88
280.672	15.88
281.467	17.88
282.262	15.88
283.056	15.88
283.851	17.88
284.646	15.88
285.44	16.88
286.234	14.88
287.029	16.88
287.823	15.88
288.617	16.88
289.411	16.88
290.205	16.88
290.999	19.88
291.793	15.88
292.587	14.88
293.381	14.88
294.174	16.88
294.968	12.88
295.761	14.88
296.555	12.88
297.348	10.88
298.141	15.88
298.935	15.88
299.728	12.88
300.521	15.88
301.314	12.88
302.107	12.88
302.899	12.88
303.692	14.88
304.485	12.88
305.277	13.88
306.07	8.88
306.862	11.88
307.655	13.88
308.447	13.88
309.239	13.88
310.031	12.88
310.823	6.88
311.615	12.88
312.407	9.88
313.199	11.88
313.991	10.88
314.783	11.88
315.574	7.88
316.366	7.88
317.157	8.88
317.949	8.88
318.74	6.88
319.531	11.88
320.322	9.88
321.113	6.88
321.904	8.88
322.695	8.88
323.486	6.88
324.277	7.88
325.068	7.88
325.858	8.88
326.649	8.88
327.439	6.88
328.23	9.88
329.02	4.88
329.81	4.88
330.6	6.88
331.391	4.88
332.181	6.88
332.971	6.88
333.76	6.88
334.55	6.88
335.34	7.88
336.13	6.88
336.919	6.88
337.709	6.88
338.498	3.88
339.287	6.88
340.077	8.88
340.866	6.88
341.655	6.88
342.444	6.88
343.233	4.88
344.022	4.88
344.811	5.88
345.6	5.88
346.388	6.88
347.177	5.88
347.965	3.88
348.754	3.88
349.542	4.88
350.33	3.88
351.119	6.88
351.907	4.88
352.695	5.88
353.483	3.88
354.271	4.88
355.059	6.88
355.846	5.88
356.634	8.88
357.422	4.88
358.209	4.88
358.997	4.88
359.784	4.88
360.571	7.88
361.359	5.88
362.146	4.88
362.933	5.88
363.72	4.88
364.507	4.88
365.294	3.88
366.081	2.88
366.867	4.88
367.654	3.88
368.44	3.88
369.227	5.88
370.013	2.88
370.8	3.88
371.586	4.88
372.372	5.88
373.158	5.88
373.944	4.88
374.73	6.88
375.516	7.88
376.302	5.88
377.088	5.88
377.873	5.88
378.659	6.88
379.445	4.88
380.23	5.88
381.015	4.88
381.801	5.88
382.586	4.88
383.371	4.88
384.156	4.88
384.941	4.88
385.726	5.88
386.511	4.88
387.296	3.88
388.08	6.88
388.865	4.88
389.649	4.88
390.434	5.88
391.218	4.88
392.003	4.88
392.787	5.88
393.571	4.88
394.355	4.88
395.139	8.88
395.923	4.88
396.707	6.88
397.491	5.88
398.274	4.88
399.058	7.88
399.842	5.88
400.625	6.88
401.408	7.88
402.192	4.88
402.975	5.88
403.758	4.88
404.541	6.88
405.324	6.88
406.107	5.88
406.89	6.88
407.673	6.88
408.456	6.88
409.238	7.88
410.021	5.88
410.803	7.88
411.586	6.88
412.368	7.88
413.151	7.88
413.933	8.88
414.715	5.88
415.497	9.88
416.279	7.88
417.061	9.88
417.843	8.88
418.624	8.88
419.406	9.88
420.188	9.88
420.969	8.88
421.751	10.88
422.532	11.88
423.313	10.88
424.095	8.88
424.876	11.88
425.657	12.88
426.438	11.88
427.219	11.88
428	13.88
428.78	11.88
429.561	9.88
430.342	13.88
431.122	16.88
431.903	13.88
432.683	15.88
433.464	16.88
434.244	13.88
435.024	16.88
435.804	18.88
436.584	17.88
437.364	18.88
438.144	18.88
438.924	20.88
439.704	22.88
440.483	21.88
441.263	24.88
442.042	27.88
442.822	25.88
443.601	25.88
444.38	27.88
445.16	35.88
445.939	33.88
446.718	35.88
447.497	38.88
448.276	43.88
449.054	46.88
449.833	51.88
450.612	59.88
451.391	64.88
452.169	67.88
452.948	73.88
453.726	83.88
454.504	94.88
455.282	98.88
456.061	115.88
456.839	123.88
457.617	130.88
458.395	150.88
459.172	169.88
459.95	191.88
460.728	208.88
461.506	237.88
462.283	256.88
463.061	282.88
463.838	329.88
464.615	359.88
465.393	395.88
466.17	436.88
466.947	488.88
467.724	540.88
468.501	602.88
469.278	659.88
470.055	749.88
470.831	814.88
471.608	909.88
472.385	996.88
473.161	1102.88
473.938	1209.88
474.714	1342.88
475.49	1478.88
476.266	1615.88
477.043	1781.88
477.819	1942.88
478.595	2137.88
479.371	2347.88
480.146	2548.88
480.922	2809.88
481.698	3071.88
482.473	3338.88
483.249	3653.88
484.024	3997.88
484.8	4358.88
485.575	4748.88
486.35	5172.88
487.126	5665.88
487.901	6151.88
488.676	6708.88
489.451	7306.88
490.225	7941.88
491	8576.88
491.775	9333.88
492.55	10096.88
493.324	10961.88
494.099	11724.88
494.873	12585.88
495.647	13574.88
496.422	14566.88
497.196	15578.88
497.97	16564.88
498.744	17642.88
499.518	18687.88
500.292	19723.88
501.066	20748.88
501.839	21601.88
502.613	22509.88
503.387	23372.88
504.16	24121.88
504.934	24574.88
505.707	24866.88
506.48	25165.88
507.253	25275.88
508.027	25281.88
508.8	25208.88
509.573	25053.88
510.346	24698.88
511.118	24179.88
511.891	23641.88
512.664	22972.88
513.437	22294.88
514.209	21550.88
514.982	20730.88
515.754	19892.88
516.526	19194.88
517.298	18357.88
518.071	17593.88
518.843	16903.88
519.615	16298.88
520.387	15645.88
521.159	15082.88
521.93	14394.88
522.702	13848.88
523.474	13314.88
524.245	12690.88
525.017	12184.88
525.788	11751.88
526.56	11232.88
527.331	10728.88
528.102	10256.88
528.873	9821.88
529.644	9351.88
530.415	8908.88
531.186	8545.88
531.957	8050.88
532.728	7754.88
533.498	7352.88
534.269	6941.88
535.039	6582.88
535.81	6220.88
536.58	5887.88
537.351	5553.88
538.121	5240.88
538.891	5001.88
539.661	4718.88
540.431	4470.88
541.201	4199.88
541.971	3968.88
542.741	3763.88
543.51	3607.88
544.28	3426.88
545.05	3271.88
545.819	3078.88
546.588	2919.88
547.358	2775.88
548.127	2662.88
548.896	2523.88
549.665	2396.88
550.434	2276.88
551.203	2159.88
551.972	2038.88
552.741	1911.88
553.51	1831.88
554.278	1737.88
555.047	1643.88
555.815	1547.88
556.584	1463.88
557.352	1375.88
558.121	1305.88
558.889	1229.88
559.657	1165.88
560.425	1104.88
561.193	1042.88
561.961	979.88
562.729	926.88
563.496	878.88
564.264	830.88
565.032	782.88
565.799	739.88
566.567	699.88
567.334	653.88
568.101	628.88
568.869	594.88
569.636	557.88
570.403	519.88
571.17	490.88
571.937	471.88
572.704	439.88
573.471	415.88
574.237	399.88
575.004	374.88
575.771	345.88
576.537	333.88
577.303	308.88
578.07	287.88
578.836	278.88
579.602	256.88
580.368	240.88
581.134	230.88
581.9	211.88
582.666	211.88
583.432	194.88
584.198	189.88
584.964	180.88
585.729	170.88
586.495	158.88
587.26	154.88
588.025	143.88
588.791	133.88
589.556	127.88
590.321	119.88
591.086	118.88
591.851	109.88
592.616	105.88
593.381	102.88
594.146	90.88
594.911	88.88
595.675	86.88
596.44	82.88
597.204	76.88
597.969	73.88
598.733	65.88
599.497	67.88
600.261	61.88
601.025	62.88
601.79	57.88
602.553	56.88
603.317	53.88
604.081	47.88
604.845	43.88
605.609	45.88
606.372	43.88
607.136	41.88
607.899	40.88
608.662	36.88
609.426	39.88
610.189	35.88
610.952	34.88
611.715	36.88
612.478	33.88
613.241	33.88
614.004	33.88
614.767	28.88
615.529	27.88
616.292	27.88
617.055	23.88
617.817	25.88
618.579	23.88
619.342	21.88
620.104	23.88
620.866	23.88
621.628	21.88
622.39	20.88
623.152	19.88
623.914	19.88
624.676	19.88
625.438	18.88
626.199	17.88
626.961	15.88
627.722	16.88
628.484	13.88
629.245	12.88
630.006	15.88
630.768	13.88
631.529	13.88
632.29	13.88
633.051	13.88
633.812	13.88
634.573	11.88
635.333	10.88
636.094	11.88
636.855	11.88
637.615	9.88
638.376	7.88
639.136	10.88
639.896	7.88
640.657	8.88
641.417	8.88
642.177	10.88
642.937	8.88
643.697	6.88
644.457	7.88
645.216	9.88
645.976	8.88
646.736	8.88
647.495	6.88
648.255	9.88
649.014	6.88
649.774	8.88
650.533	4.88
651.292	6.88
652.051	6.88
652.81	6.88
653.569	7.88
654.328	8.88
655.087	5.88
655.846	4.88
656.604	5.88
657.363	7.88
658.121	6.88
658.88	6.88
659.638	6.88
660.397	6.88
661.155	5.88
661.913	3.88
662.671	6.88
663.429	5.88
664.187	4.88
664.945	4.88
665.703	6.88
666.46	4.88
667.218	3.88
667.976	1.88
668.733	4.88
669.49	5.88
670.248	1.88
671.005	4.88
671.762	5.88
672.519	3.88
673.276	6.88
674.033	3.88
674.79	3.88
675.547	4.88
676.304	2.88
677.06	4.88
677.817	3.88
678.574	3.88
679.33	2.88
680.086	3.88
680.843	4.88
681.599	4.88
682.355	5.88
683.111	2.88
683.867	5.88
684.623	4.88
685.379	4.88
686.135	3.88
686.89	3.88
687.646	4.88
688.402	1.88
689.157	2.88
689.912	1.88
690.668	4.88
691.423	1.88
692.178	3.88
692.933	2.88
693.688	4.88
694.443	1.88
695.198	1.88
695.953	5.88
696.708	4.88
697.462	2.88
698.217	2.88
698.972	3.88
699.726	2.88
700.48	4.88
701.235	2.88
701.989	3.88
702.743	2.88
703.497	3.88
704.251	1.88
705.005	1.88
705.759	3.88
706.513	2.88
707.266	3.88
708.02	3.88
708.774	2.88
709.527	4.88
710.28	2.88
711.034	1.88
711.787	4.88
712.54	4.88
713.293	1.88
714.046	5.88
714.799	1.88
715.552	4.88
716.305	1.88
717.058	4.88
717.81	4.88
718.563	3.88
719.315	4.88
720.068	3.88
720.82	3.88
721.573	3.88
722.325	3.88
723.077	1.88
723.829	2.88
724.581	4.88
725.333	0.88
726.085	3.88
726.836	1.88
727.588	2.88
728.34	0.88
729.091	4.88
729.843	1.88
730.594	3.88
731.346	6.88
732.097	4.88
732.848	4.88
733.599	5.88
734.35	2.88
735.101	6.88
735.852	6.88
736.603	3.88
737.354	5.88
738.104	1.88
738.855	3.88
739.605	3.88
740.356	7.88
741.106	3.88
741.856	3.88
742.607	3.88
743.357	1.88
744.107	4.88
744.857	4.88
745.607	4.88
746.357	3.88
747.106	4.88
747.856	4.88
748.606	4.88
749.355	6.88
750.105	2.88
750.854	4.88
751.603	3.88
752.353	2.88
753.102	3.88
753.851	2.88
754.6	5.88
755.349	6.88
756.098	4.88
756.847	4.88
757.595	2.88
758.344	4.88
759.093	5.88
759.841	5.88
760.589	3.88
761.338	5.88
762.086	4.88
762.834	7.88
763.582	4.88
764.331	6.88
765.079	5.88
765.826	6.88
766.574	4.88
767.322	4.88
768.07	5.88
768.817	7.88
769.565	7.88
770.312	7.88
771.06	5.88
771.807	7.88
772.554	7.88
773.302	8.88
774.049	6.88
774.796	7.88
775.543	7.88
776.29	7.88
777.036	6.88
777.783	7.88
778.53	6.88
779.276	7.88
780.023	6.88
780.769	8.88
781.516	8.88
782.262	6.88
783.008	10.88
783.754	6.88
784.5	10.88
785.246	6.88
785.992	5.88
786.738	6.88
787.484	6.88
788.23	9.88
788.975	6.88
789.721	7.88
790.466	7.88
791.212	7.88
791.957	9.88
792.702	9.88
793.447	5.88
794.193	5.88
794.938	5.88
795.683	8.88
796.427	7.88
797.172	6.88
797.917	7.88
798.662	7.88
799.406	5.88
800.151	8.88
800.895	6.88
801.64	7.88
802.384	7.88
803.128	5.88
803.872	6.88
804.616	8.88
805.36	5.88
806.104	5.88
806.848	4.88
807.592	7.88
808.336	4.88
809.079	6.88
809.823	5.88
810.566	4.88
811.31	6.88
812.053	6.88
812.796	6.88
813.539	7.88
814.283	3.88
815.026	6.88
815.769	5.88
816.511	5.88
817.254	5.88
817.997	5.88
818.74	2.88
819.482	3.88
820.225	4.88
820.967	4.88
821.71	5.88
822.452	4.88
823.194	4.88
823.936	6.88
824.678	2.88
825.42	6.88
826.162	4.88
826.904	4.88
827.646	2.88
828.388	5.88
829.129	4.88
829.871	2.88
830.612	2.88
831.354	4.88
832.095	4.88
832.836	3.88
833.577	3.88
834.319	4.88
835.06	2.88
835.801	1.88
836.542	3.88
837.282	2.88
838.023	4.88
838.764	1.88
839.504	2.88
840.245	1.88
840.985	4.88
841.726	3.88
842.466	3.88
843.206	1.88
843.946	2.88
844.687	3.88
845.427	2.88
846.166	4.88
846.906	2.88
847.646	0.88
848.386	3.88
849.125	1.88
849.865	1.88
850.605	2.88
851.344	1.88
852.083	4.88
852.823	3.88
853.562	2.88
854.301	1.88
855.04	2.88
855.779	2.88
856.518	2.88
857.257	0.88
857.995	1.88
858.734	3.88
859.473	1.88
860.211	1.88
860.95	0.88
861.688	3.88
862.426	1.88
863.165	0.88
863.903	2.88
864.641	0.88
865.379	2.88
866.117	1.88
866.855	2.88
867.593	1.88
868.33	0.88
869.068	0.88
869.806	1.88
870.543	1.88
871.28	1.88
872.018	1.88
872.755	3.88
873.492	1.88
874.229	1.88
874.967	0.88
875.703	1.88
876.44	-0.12
877.177	1.88
877.914	-0.12
878.651	0.88
879.387	-0.12
880.124	0.88
880.86	2.88
881.597	-0.12
882.333	-1.12
883.069	1.88
883.806	0.88
884.542	0.88
885.278	1.88
886.014	0.88
886.749	1.88
887.485	0.88
888.221	1.88
888.957	0.88
889.692	0.88
890.428	0.88
891.163	1.88
891.899	0.88
892.634	0.88
893.369	0.88
894.104	1.88
894.839	2.88
895.574	0.88
896.309	-0.12
897.044	2.88
897.779	-0.12
898.514	0.88
899.248	-0.12
899.983	2.88
900.717	1.88
901.452	-0.12
902.186	4.88
902.92	-0.12
903.654	2.88
904.389	0.88
905.123	-1.12
905.857	1.88
906.59	0.88
907.324	-0.12
908.058	-0.12
908.792	0.88
909.525	0.88
910.259	1.88
910.992	-0.12
911.726	-1.12
912.459	1.88
913.192	0.88
913.925	-2.12
914.658	0.88
915.391	2.88
916.124	-0.12
916.857	-2.12
917.59	-2.12
918.323	1.88
919.055	0.88
919.788	0.88
920.521	-0.12
921.253	2.88
921.985	-0.12
922.718	-0.12
923.45	1.88
924.182	0.88
924.914	-3.12
925.646	-0.12
926.378	-0.12
927.11	-1.12
927.841	1.88
928.573	0.88
929.305	1.88
930.036	-0.12
930.768	-0.12
931.499	1.88
932.23	-0.12
932.962	1.88
933.693	1.88
934.424	2.88
935.155	2.88
935.886	-0.12
936.617	1.88
937.348	-0.12
938.078	-0.12
938.809	0.88
939.54	-0.12
940.27	1.88
941.001	-2.12
941.731	0.88
942.461	-0.12
943.191	-0.12
943.922	2.88
944.652	-0.12
945.382	0.88
946.112	-0.12
946.841	0.88
947.571	1.88
948.301	-0.12
949.031	-0.12
949.76	0.88
950.49	-2.12
951.219	-0.12
951.948	-0.12
952.678	-0.12
953.407	0.88
954.136	0.88
954.865	-1.12
955.594	-0.12
956.323	2.88
957.052	0.88
957.78	-0.12
958.509	-0.12
959.238	0.88
959.966	1.88
960.695	0.88
961.423	-0.12
962.151	0.88
962.88	1.88
963.608	-1.12
964.336	0.88
965.064	-0.12
965.792	-0.12
966.52	-0.12
967.247	0.88
967.975	1.88
968.703	-2.12
969.43	0.88
970.158	-1.12
970.885	-2.12
971.613	-0.12
972.34	0.88
973.067	-0.12
973.794	0.88
974.521	2.88
975.248	-0.12
975.975	2.88
976.702	1.88
977.429	-1.12
978.156	2.88
978.882	0.88
979.609	-0.12
980.335	-1.12
981.062	1.88
981.788	1.88
982.514	0.88
983.24	0.88
983.967	-0.12
984.693	-0.12
985.419	0.88
986.144	-0.12
986.87	0.88
987.596	-0.12
988.322	1.88
989.047	-0.12
989.773	0.88
990.498	-0.12
991.224	0.88
991.949	-1.12
992.674	-0.12
993.399	-0.12
994.124	-0.12
994.849	-1.12
995.574	0.88
996.299	-0.12
997.024	2.88
997.749	-0.12
998.473	0.88
999.198	-1.12
999.922	0.88
1000.647	-2.12
1001.371	3.88
1002.095	-1.12
1002.82	-1.12
1003.544	-0.12
1004.268	-2.12
1004.992	2.88
1005.716	0.88
1006.439	1.88
1007.163	2.88
1007.887	-1.12
1008.611	0.88
1009.334	2.88
1010.058	-1.12
1010.781	1.88
1011.504	1.88
1012.228	-2.12
1012.951	2.88
1013.674	-1.12
1014.397	-1.12
1015.12	-2.12
