节点500_285_QEPB04081__19__14-55-53-471.txt的数据

Date: Wed Nov 12 14:55:53 CST 2025
User: PC
Spectrometer: QEPB0408
触发模式: 0
积分时间 (秒): 1.000000E-2
Scans to average: 1
启用暗噪声校正: true
启用非线性校正: false
滑动平均宽度: 0
X轴模式: Wavelengths
Number of Pixels in Spectrum: 1044
>>>>>Begin Spectral Data<<<<<
220.843	0.88
221.644	2.88
222.444	-0.12
223.244	2.88
224.045	0.88
224.845	3.88
225.645	2.88
226.445	2.88
227.245	3.88
228.045	0.88
228.845	0.88
229.645	0.88
230.444	4.88
231.244	2.88
232.043	3.88
232.843	2.88
233.642	1.88
234.442	5.88
235.241	4.88
236.04	2.88
236.839	2.88
237.638	2.88
238.437	4.88
239.236	5.88
240.035	2.88
240.833	3.88
241.632	5.88
242.43	6.88
243.229	5.88
244.027	6.88
244.826	4.88
245.624	4.88
246.422	6.88
247.22	0.88
248.018	7.88
248.816	7.88
249.614	6.88
250.412	8.88
251.21	5.88
252.007	7.88
252.805	5.88
253.602	10.88
254.4	8.88
255.197	6.88
255.994	7.88
256.791	7.88
257.589	8.88
258.386	9.88
259.183	11.88
259.979	10.88
260.776	10.88
261.573	11.88
262.37	12.88
263.166	13.88
263.963	11.88
264.759	12.88
265.556	15.88
266.352	14.88
267.148	18.88
267.944	14.88
268.74	13.88
269.536	14.88
270.332	14.88
271.128	14.88
271.924	15.88
272.719	19.88
273.515	17.88
274.311	20.88
275.106	18.88
275.901	17.88
276.697	19.88
277.492	20.88
278.287	18.88
279.082	18.88
279.877	17.88
280.672	19.88
281.467	18.88
282.262	22.88
283.056	22.88
283.851	19.88
284.646	21.88
285.44	18.88
286.234	22.88
287.029	21.88
287.823	19.88
288.617	18.88
289.411	18.88
290.205	19.88
290.999	16.88
291.793	21.88
292.587	19.88
293.381	16.88
294.174	17.88
294.968	20.88
295.761	18.88
296.555	13.88
297.348	13.88
298.141	20.88
298.935	18.88
299.728	15.88
300.521	14.88
301.314	14.88
302.107	14.88
302.899	10.88
303.692	15.88
304.485	11.88
305.277	12.88
306.07	10.88
306.862	11.88
307.655	14.88
308.447	13.88
309.239	10.88
310.031	11.88
310.823	10.88
311.615	10.88
312.407	8.88
313.199	8.88
313.991	8.88
314.783	7.88
315.574	10.88
316.366	10.88
317.157	8.88
317.949	7.88
318.74	9.88
319.531	7.88
320.322	9.88
321.113	5.88
321.904	7.88
322.695	8.88
323.486	6.88
324.277	8.88
325.068	6.88
325.858	6.88
326.649	6.88
327.439	6.88
328.23	8.88
329.02	5.88
329.81	4.88
330.6	8.88
331.391	7.88
332.181	8.88
332.971	7.88
333.76	5.88
334.55	7.88
335.34	5.88
336.13	4.88
336.919	3.88
337.709	5.88
338.498	5.88
339.287	5.88
340.077	4.88
340.866	7.88
341.655	8.88
342.444	7.88
343.233	5.88
344.022	6.88
344.811	5.88
345.6	4.88
346.388	8.88
347.177	6.88
347.965	5.88
348.754	6.88
349.542	7.88
350.33	5.88
351.119	4.88
351.907	7.88
352.695	7.88
353.483	4.88
354.271	3.88
355.059	6.88
355.846	6.88
356.634	6.88
357.422	7.88
358.209	5.88
358.997	5.88
359.784	4.88
360.571	5.88
361.359	5.88
362.146	5.88
362.933	4.88
363.72	3.88
364.507	5.88
365.294	3.88
366.081	4.88
366.867	3.88
367.654	3.88
368.44	5.88
369.227	2.88
370.013	5.88
370.8	5.88
371.586	6.88
372.372	6.88
373.158	4.88
373.944	5.88
374.73	6.88
375.516	2.88
376.302	3.88
377.088	2.88
377.873	7.88
378.659	4.88
379.445	6.88
380.23	4.88
381.015	5.88
381.801	5.88
382.586	4.88
383.371	3.88
384.156	5.88
384.941	7.88
385.726	5.88
386.511	7.88
387.296	6.88
388.08	3.88
388.865	6.88
389.649	3.88
390.434	5.88
391.218	5.88
392.003	4.88
392.787	10.88
393.571	5.88
394.355	7.88
395.139	6.88
395.923	5.88
396.707	6.88
397.491	6.88
398.274	7.88
399.058	5.88
399.842	6.88
400.625	8.88
401.408	8.88
402.192	9.88
402.975	5.88
403.758	8.88
404.541	7.88
405.324	7.88
406.107	9.88
406.89	9.88
407.673	8.88
408.456	7.88
409.238	5.88
410.021	6.88
410.803	8.88
411.586	10.88
412.368	6.88
413.151	9.88
413.933	7.88
414.715	9.88
415.497	7.88
416.279	8.88
417.061	8.88
417.843	8.88
418.624	9.88
419.406	12.88
420.188	8.88
420.969	9.88
421.751	15.88
422.532	11.88
423.313	9.88
424.095	11.88
424.876	13.88
425.657	11.88
426.438	12.88
427.219	12.88
428	16.88
428.78	13.88
429.561	9.88
430.342	14.88
431.122	15.88
431.903	13.88
432.683	15.88
433.464	14.88
434.244	18.88
435.024	15.88
435.804	17.88
436.584	17.88
437.364	18.88
438.144	18.88
438.924	20.88
439.704	21.88
440.483	23.88
441.263	25.88
442.042	23.88
442.822	25.88
443.601	25.88
444.38	30.88
445.16	32.88
445.939	34.88
446.718	32.88
447.497	39.88
448.276	40.88
449.054	43.88
449.833	47.88
450.612	49.88
451.391	52.88
452.169	55.88
452.948	62.88
453.726	68.88
454.504	76.88
455.282	80.88
456.061	91.88
456.839	103.88
457.617	110.88
458.395	123.88
459.172	135.88
459.95	152.88
460.728	167.88
461.506	184.88
462.283	207.88
463.061	233.88
463.838	263.88
464.615	296.88
465.393	329.88
466.17	363.88
466.947	415.88
467.724	469.88
468.501	508.88
469.278	572.88
470.055	644.88
470.831	723.88
471.608	803.88
472.385	898.88
473.161	1008.88
473.938	1118.88
474.714	1252.88
475.49	1381.88
476.266	1551.88
477.043	1724.88
477.819	1918.88
478.595	2131.88
479.371	2355.88
480.146	2628.88
480.922	2914.88
481.698	3213.88
482.473	3571.88
483.249	3943.88
484.024	4389.88
484.8	4869.88
485.575	5359.88
486.35	5972.88
487.126	6568.88
487.901	7250.88
488.676	7960.88
489.451	8815.88
490.225	9679.88
491	10601.88
491.775	11646.88
492.55	12731.88
493.324	13842.88
494.099	14986.88
494.873	16153.88
495.647	17485.88
496.422	18820.88
497.196	20152.88
497.97	21507.88
498.744	22785.88
499.518	24000.88
500.292	25249.88
501.066	26346.88
501.839	27261.88
502.613	28108.88
503.387	28798.88
504.16	29314.88
504.934	29476.88
505.707	29397.88
506.48	29346.88
507.253	28929.88
508.027	28527.88
508.8	27892.88
509.573	27187.88
510.346	26355.88
511.118	25354.88
511.891	24404.88
512.664	23434.88
513.437	22427.88
514.209	21379.88
514.982	20427.88
515.754	19481.88
516.526	18560.88
517.298	17736.88
518.071	16957.88
518.843	16360.88
519.615	15714.88
520.387	15072.88
521.159	14438.88
521.93	13943.88
522.702	13331.88
523.474	12720.88
524.245	12234.88
525.017	11680.88
525.788	11209.88
526.56	10716.88
527.331	10159.88
528.102	9713.88
528.873	9231.88
529.644	8712.88
530.415	8311.88
531.186	7849.88
531.957	7424.88
532.728	6985.88
533.498	6608.88
534.269	6235.88
535.039	5892.88
535.81	5537.88
536.58	5260.88
537.351	4922.88
538.121	4661.88
538.891	4424.88
539.661	4179.88
540.431	3947.88
541.201	3738.88
541.971	3527.88
542.741	3331.88
543.51	3179.88
544.28	3055.88
545.05	2881.88
545.819	2734.88
546.588	2610.88
547.358	2495.88
548.127	2365.88
548.896	2230.88
549.665	2113.88
550.434	1998.88
551.203	1902.88
551.972	1800.88
552.741	1698.88
553.51	1594.88
554.278	1493.88
555.047	1416.88
555.815	1335.88
556.584	1250.88
557.352	1172.88
558.121	1107.88
558.889	1068.88
559.657	997.88
560.425	947.88
561.193	886.88
561.961	840.88
562.729	795.88
563.496	752.88
564.264	693.88
565.032	670.88
565.799	633.88
566.567	604.88
567.334	565.88
568.101	525.88
568.869	503.88
569.636	479.88
570.403	448.88
571.17	420.88
571.937	391.88
572.704	370.88
573.471	351.88
574.237	333.88
575.004	319.88
575.771	295.88
576.537	286.88
577.303	257.88
578.07	245.88
578.836	231.88
579.602	215.88
580.368	201.88
581.134	194.88
581.9	189.88
582.666	170.88
583.432	167.88
584.198	154.88
584.964	145.88
585.729	138.88
586.495	129.88
587.26	128.88
588.025	121.88
588.791	116.88
589.556	108.88
590.321	98.88
591.086	94.88
591.851	91.88
592.616	90.88
593.381	83.88
594.146	83.88
594.911	81.88
595.675	70.88
596.44	69.88
597.204	67.88
597.969	63.88
598.733	60.88
599.497	55.88
600.261	57.88
601.025	55.88
601.79	48.88
602.553	46.88
603.317	44.88
604.081	43.88
604.845	44.88
605.609	41.88
606.372	39.88
607.136	39.88
607.899	36.88
608.662	32.88
609.426	30.88
610.189	31.88
610.952	34.88
611.715	31.88
612.478	27.88
613.241	28.88
614.004	24.88
614.767	26.88
615.529	24.88
616.292	23.88
617.055	22.88
617.817	23.88
618.579	24.88
619.342	22.88
620.104	16.88
620.866	17.88
621.628	18.88
622.39	20.88
623.152	14.88
623.914	17.88
624.676	14.88
625.438	12.88
626.199	15.88
626.961	11.88
627.722	14.88
628.484	14.88
629.245	15.88
630.006	13.88
630.768	12.88
631.529	13.88
632.29	12.88
633.051	12.88
633.812	12.88
634.573	7.88
635.333	9.88
636.094	9.88
636.855	11.88
637.615	8.88
638.376	8.88
639.136	10.88
639.896	10.88
640.657	12.88
641.417	6.88
642.177	8.88
642.937	6.88
643.697	8.88
644.457	7.88
645.216	8.88
645.976	7.88
646.736	6.88
647.495	6.88
648.255	6.88
649.014	7.88
649.774	5.88
650.533	6.88
651.292	7.88
652.051	6.88
652.81	5.88
653.569	5.88
654.328	6.88
655.087	6.88
655.846	7.88
656.604	4.88
657.363	6.88
658.121	4.88
658.88	2.88
659.638	3.88
660.397	5.88
661.155	6.88
661.913	4.88
662.671	5.88
663.429	5.88
664.187	5.88
664.945	6.88
665.703	4.88
666.46	4.88
667.218	2.88
667.976	5.88
668.733	3.88
669.49	4.88
670.248	4.88
671.005	4.88
671.762	4.88
672.519	4.88
673.276	4.88
674.033	4.88
674.79	3.88
675.547	3.88
676.304	2.88
677.06	4.88
677.817	2.88
678.574	4.88
679.33	3.88
680.086	6.88
680.843	3.88
681.599	5.88
682.355	2.88
683.111	3.88
683.867	5.88
684.623	2.88
685.379	3.88
686.135	3.88
686.89	4.88
687.646	4.88
688.402	3.88
689.157	2.88
689.912	3.88
690.668	5.88
691.423	5.88
692.178	2.88
692.933	2.88
693.688	3.88
694.443	2.88
695.198	3.88
695.953	4.88
696.708	1.88
697.462	6.88
698.217	1.88
698.972	2.88
699.726	4.88
700.48	3.88
701.235	4.88
701.989	2.88
702.743	3.88
703.497	3.88
704.251	4.88
705.005	2.88
705.759	3.88
706.513	3.88
707.266	3.88
708.02	3.88
708.774	2.88
709.527	2.88
710.28	3.88
711.034	2.88
711.787	5.88
712.54	5.88
713.293	3.88
714.046	2.88
714.799	1.88
715.552	5.88
716.305	3.88
717.058	2.88
717.81	4.88
718.563	3.88
719.315	5.88
720.068	3.88
720.82	3.88
721.573	2.88
722.325	4.88
723.077	4.88
723.829	3.88
724.581	5.88
725.333	2.88
726.085	5.88
726.836	3.88
727.588	2.88
728.34	3.88
729.091	4.88
729.843	3.88
730.594	4.88
731.346	4.88
732.097	4.88
732.848	1.88
733.599	4.88
734.35	5.88
735.101	2.88
735.852	4.88
736.603	3.88
737.354	5.88
738.104	5.88
738.855	5.88
739.605	6.88
740.356	4.88
741.106	3.88
741.856	5.88
742.607	4.88
743.357	2.88
744.107	5.88
744.857	3.88
745.607	4.88
746.357	3.88
747.106	4.88
747.856	5.88
748.606	5.88
749.355	5.88
750.105	4.88
750.854	4.88
751.603	5.88
752.353	5.88
753.102	5.88
753.851	5.88
754.6	6.88
755.349	4.88
756.098	5.88
756.847	6.88
757.595	6.88
758.344	6.88
759.093	6.88
759.841	5.88
760.589	4.88
761.338	7.88
762.086	7.88
762.834	7.88
763.582	6.88
764.331	7.88
765.079	5.88
765.826	8.88
766.574	7.88
767.322	6.88
768.07	6.88
768.817	6.88
769.565	9.88
770.312	7.88
771.06	12.88
771.807	10.88
772.554	5.88
773.302	8.88
774.049	9.88
774.796	9.88
775.543	10.88
776.29	7.88
777.036	9.88
777.783	6.88
778.53	8.88
779.276	8.88
780.023	10.88
780.769	6.88
781.516	7.88
782.262	7.88
783.008	10.88
783.754	10.88
784.5	8.88
785.246	8.88
785.992	7.88
786.738	6.88
787.484	10.88
788.23	9.88
788.975	9.88
789.721	10.88
790.466	6.88
791.212	9.88
791.957	10.88
792.702	9.88
793.447	8.88
794.193	6.88
794.938	8.88
795.683	7.88
796.427	8.88
797.172	8.88
797.917	9.88
798.662	10.88
799.406	5.88
800.151	10.88
800.895	7.88
801.64	5.88
802.384	7.88
803.128	7.88
803.872	9.88
804.616	7.88
805.36	4.88
806.104	6.88
806.848	5.88
807.592	4.88
808.336	6.88
809.079	4.88
809.823	6.88
810.566	5.88
811.31	4.88
812.053	5.88
812.796	4.88
813.539	3.88
814.283	7.88
815.026	2.88
815.769	3.88
816.511	2.88
817.254	5.88
817.997	4.88
818.74	5.88
819.482	3.88
820.225	4.88
820.967	3.88
821.71	3.88
822.452	3.88
823.194	2.88
823.936	3.88
824.678	5.88
825.42	7.88
826.162	2.88
826.904	3.88
827.646	2.88
828.388	4.88
829.129	2.88
829.871	1.88
830.612	4.88
831.354	1.88
832.095	3.88
832.836	1.88
833.577	2.88
834.319	5.88
835.06	4.88
835.801	3.88
836.542	4.88
837.282	2.88
838.023	2.88
838.764	1.88
839.504	3.88
840.245	2.88
840.985	4.88
841.726	0.88
842.466	3.88
843.206	3.88
843.946	2.88
844.687	1.88
845.427	3.88
846.166	1.88
846.906	4.88
847.646	2.88
848.386	2.88
849.125	3.88
849.865	2.88
850.605	2.88
851.344	-0.12
852.083	3.88
852.823	0.88
853.562	2.88
854.301	2.88
855.04	-0.12
855.779	1.88
856.518	2.88
857.257	2.88
857.995	2.88
858.734	2.88
859.473	2.88
860.211	2.88
860.95	2.88
861.688	1.88
862.426	0.88
863.165	1.88
863.903	2.88
864.641	2.88
865.379	0.88
866.117	1.88
866.855	2.88
867.593	2.88
868.33	1.88
869.068	0.88
869.806	1.88
870.543	-0.12
871.28	0.88
872.018	2.88
872.755	-0.12
873.492	2.88
874.229	2.88
874.967	0.88
875.703	0.88
876.44	2.88
877.177	0.88
877.914	-1.12
878.651	-1.12
879.387	-0.12
880.124	0.88
880.86	3.88
881.597	-1.12
882.333	0.88
883.069	0.88
883.806	2.88
884.542	2.88
885.278	0.88
886.014	1.88
886.749	-1.12
887.485	0.88
888.221	0.88
888.957	-0.12
889.692	0.88
890.428	-0.12
891.163	0.88
891.899	0.88
892.634	-0.12
893.369	1.88
894.104	0.88
894.839	-0.12
895.574	0.88
896.309	1.88
897.044	1.88
897.779	0.88
898.514	-0.12
899.248	-0.12
899.983	0.88
900.717	0.88
901.452	-0.12
902.186	0.88
902.92	0.88
903.654	0.88
904.389	-1.12
905.123	0.88
905.857	0.88
906.59	-1.12
907.324	0.88
908.058	-1.12
908.792	1.88
909.525	0.88
910.259	0.88
910.992	1.88
911.726	-1.12
912.459	0.88
913.192	2.88
913.925	0.88
914.658	0.88
915.391	0.88
916.124	1.88
916.857	0.88
917.59	1.88
918.323	0.88
919.055	0.88
919.788	-0.12
920.521	2.88
921.253	0.88
921.985	1.88
922.718	-0.12
923.45	0.88
924.182	-0.12
924.914	2.88
925.646	0.88
926.378	0.88
927.11	-0.12
927.841	-0.12
928.573	-0.12
929.305	-2.12
930.036	0.88
930.768	0.88
931.499	1.88
932.23	-0.12
932.962	0.88
933.693	0.88
934.424	0.88
935.155	-1.12
935.886	0.88
936.617	0.88
937.348	-1.12
938.078	-0.12
938.809	0.88
939.54	-2.12
940.27	-1.12
941.001	1.88
941.731	0.88
942.461	2.88
943.191	-3.12
943.922	-1.12
944.652	-0.12
945.382	2.88
946.112	3.88
946.841	-1.12
947.571	0.88
948.301	-0.12
949.031	2.88
949.76	-0.12
950.49	0.88
951.219	-0.12
951.948	-0.12
952.678	-1.12
953.407	-0.12
954.136	-1.12
954.865	0.88
955.594	-1.12
956.323	0.88
957.052	-0.12
957.78	-0.12
958.509	0.88
959.238	2.88
959.966	1.88
960.695	-3.12
961.423	-0.12
962.151	0.88
962.88	-1.12
963.608	-0.12
964.336	1.88
965.064	0.88
965.792	-1.12
966.52	-1.12
967.247	1.88
967.975	-1.12
968.703	0.88
969.43	-0.12
970.158	-0.12
970.885	-0.12
971.613	-1.12
972.34	0.88
973.067	1.88
973.794	0.88
974.521	-1.12
975.248	0.88
975.975	0.88
976.702	-1.12
977.429	2.88
978.156	-1.12
978.882	0.88
979.609	1.88
980.335	-0.12
981.062	-1.12
981.788	-0.12
982.514	-0.12
983.24	0.88
983.967	2.88
984.693	-0.12
985.419	-3.12
986.144	1.88
986.87	-1.12
987.596	0.88
988.322	-0.12
989.047	-1.12
989.773	-1.12
990.498	-0.12
991.224	0.88
991.949	0.88
992.674	0.88
993.399	0.88
994.124	-1.12
994.849	0.88
995.574	-1.12
996.299	-0.12
997.024	0.88
997.749	-0.12
998.473	-1.12
999.198	1.88
999.922	1.88
1000.647	0.88
1001.371	3.88
1002.095	0.88
1002.82	-0.12
1003.544	-2.12
1004.268	0.88
1004.992	1.88
1005.716	0.88
1006.439	-1.12
1007.163	0.88
1007.887	-0.12
1008.611	0.88
1009.334	-0.12
1010.058	0.88
1010.781	0.88
1011.504	-0.12
1012.228	2.88
1012.951	-1.12
1013.674	-0.12
1014.397	-1.12
1015.12	-0.12
