节点500_285_QEPB04081__822__15-09-13-720.txt的数据

Date: Wed Nov 12 15:09:13 CST 2025
User: PC
Spectrometer: QEPB0408
触发模式: 0
积分时间 (秒): 1.000000E-2
Scans to average: 1
启用暗噪声校正: true
启用非线性校正: false
滑动平均宽度: 0
X轴模式: Wavelengths
Number of Pixels in Spectrum: 1044
>>>>>Begin Spectral Data<<<<<
220.843	-0.62
221.644	0.38
222.444	1.38
223.244	1.38
224.045	1.38
224.845	0.38
225.645	3.38
226.445	0.38
227.245	1.38
228.045	2.38
228.845	0.38
229.645	3.38
230.444	2.38
231.244	0.38
232.043	3.38
232.843	3.38
233.642	3.38
234.442	1.38
235.241	3.38
236.04	2.38
236.839	2.38
237.638	1.38
238.437	0.38
239.236	3.38
240.035	0.38
240.833	3.38
241.632	4.38
242.43	4.38
243.229	5.38
244.027	6.38
244.826	6.38
245.624	5.38
246.422	4.38
247.22	4.38
248.018	4.38
248.816	5.38
249.614	5.38
250.412	6.38
251.21	3.38
252.007	5.38
252.805	6.38
253.602	6.38
254.4	5.38
255.197	8.38
255.994	8.38
256.791	5.38
257.589	7.38
258.386	8.38
259.183	7.38
259.979	8.38
260.776	7.38
261.573	9.38
262.37	7.38
263.166	9.38
263.963	9.38
264.759	9.38
265.556	6.38
266.352	9.38
267.148	11.38
267.944	10.38
268.74	11.38
269.536	10.38
270.332	12.38
271.128	12.38
271.924	10.38
272.719	13.38
273.515	15.38
274.311	12.38
275.106	13.38
275.901	14.38
276.697	14.38
277.492	13.38
278.287	16.38
279.082	15.38
279.877	17.38
280.672	13.38
281.467	16.38
282.262	19.38
283.056	16.38
283.851	17.38
284.646	13.38
285.44	18.38
286.234	17.38
287.029	17.38
287.823	17.38
288.617	17.38
289.411	16.38
290.205	14.38
290.999	17.38
291.793	15.38
292.587	15.38
293.381	18.38
294.174	14.38
294.968	18.38
295.761	13.38
296.555	12.38
297.348	15.38
298.141	14.38
298.935	16.38
299.728	13.38
300.521	13.38
301.314	13.38
302.107	11.38
302.899	9.38
303.692	11.38
304.485	12.38
305.277	10.38
306.07	11.38
306.862	11.38
307.655	10.38
308.447	10.38
309.239	10.38
310.031	9.38
310.823	10.38
311.615	10.38
312.407	9.38
313.199	10.38
313.991	10.38
314.783	10.38
315.574	8.38
316.366	7.38
317.157	6.38
317.949	9.38
318.74	6.38
319.531	7.38
320.322	9.38
321.113	6.38
321.904	8.38
322.695	5.38
323.486	8.38
324.277	7.38
325.068	6.38
325.858	7.38
326.649	5.38
327.439	7.38
328.23	5.38
329.02	4.38
329.81	6.38
330.6	4.38
331.391	6.38
332.181	5.38
332.971	7.38
333.76	4.38
334.55	6.38
335.34	5.38
336.13	5.38
336.919	4.38
337.709	7.38
338.498	5.38
339.287	6.38
340.077	5.38
340.866	4.38
341.655	6.38
342.444	7.38
343.233	5.38
344.022	6.38
344.811	4.38
345.6	6.38
346.388	6.38
347.177	3.38
347.965	5.38
348.754	6.38
349.542	4.38
350.33	0.38
351.119	5.38
351.907	4.38
352.695	4.38
353.483	5.38
354.271	4.38
355.059	5.38
355.846	5.38
356.634	5.38
357.422	3.38
358.209	3.38
358.997	3.38
359.784	1.38
360.571	4.38
361.359	3.38
362.146	4.38
362.933	4.38
363.72	5.38
364.507	5.38
365.294	5.38
366.081	3.38
366.867	4.38
367.654	3.38
368.44	1.38
369.227	4.38
370.013	3.38
370.8	4.38
371.586	6.38
372.372	5.38
373.158	4.38
373.944	6.38
374.73	2.38
375.516	3.38
376.302	4.38
377.088	5.38
377.873	5.38
378.659	4.38
379.445	5.38
380.23	1.38
381.015	6.38
381.801	6.38
382.586	6.38
383.371	5.38
384.156	3.38
384.941	5.38
385.726	5.38
386.511	5.38
387.296	5.38
388.08	5.38
388.865	4.38
389.649	4.38
390.434	8.38
391.218	5.38
392.003	7.38
392.787	5.38
393.571	7.38
394.355	4.38
395.139	5.38
395.923	6.38
396.707	6.38
397.491	6.38
398.274	3.38
399.058	6.38
399.842	7.38
400.625	5.38
401.408	3.38
402.192	6.38
402.975	7.38
403.758	6.38
404.541	5.38
405.324	6.38
406.107	5.38
406.89	5.38
407.673	4.38
408.456	7.38
409.238	4.38
410.021	6.38
410.803	8.38
411.586	6.38
412.368	9.38
413.151	7.38
413.933	4.38
414.715	6.38
415.497	7.38
416.279	6.38
417.061	8.38
417.843	7.38
418.624	7.38
419.406	9.38
420.188	8.38
420.969	8.38
421.751	10.38
422.532	9.38
423.313	8.38
424.095	9.38
424.876	11.38
425.657	11.38
426.438	11.38
427.219	11.38
428	13.38
428.78	12.38
429.561	10.38
430.342	11.38
431.122	14.38
431.903	11.38
432.683	14.38
433.464	16.38
434.244	14.38
435.024	17.38
435.804	16.38
436.584	16.38
437.364	20.38
438.144	20.38
438.924	22.38
439.704	21.38
440.483	24.38
441.263	22.38
442.042	23.38
442.822	26.38
443.601	29.38
444.38	30.38
445.16	34.38
445.939	35.38
446.718	36.38
447.497	39.38
448.276	44.38
449.054	48.38
449.833	51.38
450.612	57.38
451.391	63.38
452.169	68.38
452.948	73.38
453.726	84.38
454.504	91.38
455.282	102.38
456.061	111.38
456.839	125.38
457.617	138.38
458.395	149.38
459.172	171.38
459.95	188.38
460.728	211.38
461.506	233.38
462.283	268.38
463.061	292.38
463.838	318.38
464.615	357.38
465.393	398.38
466.17	438.38
466.947	497.38
467.724	548.38
468.501	603.38
469.278	676.38
470.055	748.38
470.831	821.38
471.608	909.38
472.385	1009.38
473.161	1085.38
473.938	1208.38
474.714	1327.38
475.49	1471.38
476.266	1600.38
477.043	1767.38
477.819	1940.38
478.595	2134.38
479.371	2335.38
480.146	2530.38
480.922	2793.38
481.698	3040.38
482.473	3323.38
483.249	3658.38
484.024	3987.38
484.8	4290.38
485.575	4690.38
486.35	5154.38
487.126	5577.38
487.901	6061.38
488.676	6623.38
489.451	7203.38
490.225	7846.38
491	8455.38
491.775	9236.38
492.55	9982.38
493.324	10752.38
494.099	11497.38
494.873	12418.38
495.647	13257.38
496.422	14230.38
497.196	15309.38
497.97	16265.38
498.744	17376.38
499.518	18332.38
500.292	19306.38
501.066	20320.38
501.839	21247.38
502.613	22155.38
503.387	22976.38
504.16	23661.38
504.934	24229.38
505.707	24556.38
506.48	24786.38
507.253	24979.38
508.027	24992.38
508.8	24932.38
509.573	24893.38
510.346	24470.38
511.118	24015.38
511.891	23461.38
512.664	22867.38
513.437	22201.38
514.209	21410.38
514.982	20650.38
515.754	19849.38
516.526	19027.38
517.298	18346.38
518.071	17534.38
518.843	16883.38
519.615	16281.38
520.387	15625.38
521.159	15059.38
521.93	14368.38
522.702	13821.38
523.474	13280.38
524.245	12691.38
525.017	12187.38
525.788	11735.38
526.56	11236.38
527.331	10728.38
528.102	10311.38
528.873	9814.38
529.644	9369.38
530.415	8981.38
531.186	8512.38
531.957	8129.38
532.728	7728.38
533.498	7383.38
534.269	6978.38
535.039	6578.38
535.81	6214.38
536.58	5904.38
537.351	5591.38
538.121	5268.38
538.891	4995.38
539.661	4726.38
540.431	4447.38
541.201	4209.38
541.971	4000.38
542.741	3816.38
543.51	3609.38
544.28	3433.38
545.05	3255.38
545.819	3099.38
546.588	2932.38
547.358	2793.38
548.127	2665.38
548.896	2523.38
549.665	2409.38
550.434	2279.38
551.203	2153.38
551.972	2060.38
552.741	1954.38
553.51	1841.38
554.278	1743.38
555.047	1640.38
555.815	1542.38
556.584	1457.38
557.352	1394.38
558.121	1306.38
558.889	1242.38
559.657	1182.38
560.425	1110.38
561.193	1052.38
561.961	977.38
562.729	932.38
563.496	881.38
564.264	834.38
565.032	786.38
565.799	744.38
566.567	703.38
567.334	665.38
568.101	628.38
568.869	596.38
569.636	547.38
570.403	519.38
571.17	490.38
571.937	469.38
572.704	445.38
573.471	418.38
574.237	398.38
575.004	366.38
575.771	343.38
576.537	330.38
577.303	310.38
578.07	294.38
578.836	274.38
579.602	256.38
580.368	242.38
581.134	233.38
581.9	227.38
582.666	213.38
583.432	199.38
584.198	185.38
584.964	179.38
585.729	167.38
586.495	164.38
587.26	148.38
588.025	144.38
588.791	138.38
589.556	129.38
590.321	125.38
591.086	110.38
591.851	113.38
592.616	105.38
593.381	99.38
594.146	94.38
594.911	91.38
595.675	85.38
596.44	80.38
597.204	80.38
597.969	76.38
598.733	72.38
599.497	65.38
600.261	64.38
601.025	62.38
601.79	52.38
602.553	53.38
603.317	53.38
604.081	49.38
604.845	50.38
605.609	45.38
606.372	45.38
607.136	45.38
607.899	40.38
608.662	41.38
609.426	39.38
610.189	38.38
610.952	37.38
611.715	30.38
612.478	32.38
613.241	32.38
614.004	28.38
614.767	28.38
615.529	26.38
616.292	22.38
617.055	23.38
617.817	24.38
618.579	22.38
619.342	22.38
620.104	24.38
620.866	21.38
621.628	20.38
622.39	22.38
623.152	18.38
623.914	17.38
624.676	19.38
625.438	16.38
626.199	17.38
626.961	16.38
627.722	17.38
628.484	14.38
629.245	12.38
630.006	16.38
630.768	13.38
631.529	14.38
632.29	11.38
633.051	13.38
633.812	11.38
634.573	13.38
635.333	9.38
636.094	9.38
636.855	8.38
637.615	10.38
638.376	8.38
639.136	8.38
639.896	7.38
640.657	8.38
641.417	9.38
642.177	8.38
642.937	9.38
643.697	8.38
644.457	9.38
645.216	7.38
645.976	8.38
646.736	5.38
647.495	7.38
648.255	7.38
649.014	6.38
649.774	8.38
650.533	7.38
651.292	8.38
652.051	6.38
652.81	7.38
653.569	7.38
654.328	4.38
655.087	6.38
655.846	5.38
656.604	5.38
657.363	6.38
658.121	7.38
658.88	5.38
659.638	5.38
660.397	5.38
661.155	5.38
661.913	6.38
662.671	7.38
663.429	5.38
664.187	3.38
664.945	2.38
665.703	3.38
666.46	6.38
667.218	5.38
667.976	7.38
668.733	1.38
669.49	4.38
670.248	5.38
671.005	4.38
671.762	4.38
672.519	5.38
673.276	5.38
674.033	4.38
674.79	1.38
675.547	4.38
676.304	0.38
677.06	4.38
677.817	1.38
678.574	4.38
679.33	4.38
680.086	5.38
680.843	2.38
681.599	2.38
682.355	3.38
683.111	3.38
683.867	3.38
684.623	4.38
685.379	3.38
686.135	4.38
686.89	1.38
687.646	1.38
688.402	1.38
689.157	2.38
689.912	5.38
690.668	5.38
691.423	0.38
692.178	3.38
692.933	1.38
693.688	3.38
694.443	3.38
695.198	2.38
695.953	2.38
696.708	3.38
697.462	0.38
698.217	3.38
698.972	3.38
699.726	4.38
700.48	3.38
701.235	3.38
701.989	3.38
702.743	4.38
703.497	5.38
704.251	3.38
705.005	1.38
705.759	2.38
706.513	2.38
707.266	4.38
708.02	0.38
708.774	3.38
709.527	1.38
710.28	2.38
711.034	4.38
711.787	2.38
712.54	3.38
713.293	1.38
714.046	4.38
714.799	3.38
715.552	2.38
716.305	5.38
717.058	2.38
717.81	3.38
718.563	3.38
719.315	2.38
720.068	1.38
720.82	3.38
721.573	3.38
722.325	1.38
723.077	4.38
723.829	3.38
724.581	5.38
725.333	3.38
726.085	2.38
726.836	3.38
727.588	3.38
728.34	2.38
729.091	5.38
729.843	2.38
730.594	3.38
731.346	2.38
732.097	2.38
732.848	2.38
733.599	4.38
734.35	2.38
735.101	1.38
735.852	3.38
736.603	3.38
737.354	1.38
738.104	2.38
738.855	4.38
739.605	3.38
740.356	2.38
741.106	4.38
741.856	1.38
742.607	4.38
743.357	4.38
744.107	4.38
744.857	3.38
745.607	4.38
746.357	3.38
747.106	3.38
747.856	4.38
748.606	3.38
749.355	3.38
750.105	2.38
750.854	4.38
751.603	5.38
752.353	2.38
753.102	4.38
753.851	4.38
754.6	4.38
755.349	6.38
756.098	6.38
756.847	3.38
757.595	6.38
758.344	6.38
759.093	3.38
759.841	6.38
760.589	6.38
761.338	4.38
762.086	7.38
762.834	4.38
763.582	6.38
764.331	5.38
765.079	5.38
765.826	6.38
766.574	5.38
767.322	3.38
768.07	4.38
768.817	6.38
769.565	6.38
770.312	5.38
771.06	7.38
771.807	4.38
772.554	7.38
773.302	6.38
774.049	6.38
774.796	5.38
775.543	8.38
776.29	6.38
777.036	6.38
777.783	6.38
778.53	3.38
779.276	8.38
780.023	8.38
780.769	6.38
781.516	7.38
782.262	7.38
783.008	3.38
783.754	6.38
784.5	8.38
785.246	8.38
785.992	6.38
786.738	6.38
787.484	7.38
788.23	5.38
788.975	8.38
789.721	5.38
790.466	8.38
791.212	5.38
791.957	6.38
792.702	9.38
793.447	6.38
794.193	6.38
794.938	4.38
795.683	7.38
796.427	6.38
797.172	7.38
797.917	9.38
798.662	9.38
799.406	5.38
800.151	8.38
800.895	6.38
801.64	5.38
802.384	6.38
803.128	6.38
803.872	6.38
804.616	6.38
805.36	2.38
806.104	4.38
806.848	4.38
807.592	8.38
808.336	4.38
809.079	4.38
809.823	4.38
810.566	6.38
811.31	4.38
812.053	3.38
812.796	6.38
813.539	3.38
814.283	0.38
815.026	3.38
815.769	4.38
816.511	4.38
817.254	3.38
817.997	0.38
818.74	5.38
819.482	2.38
820.225	2.38
820.967	0.38
821.71	3.38
822.452	3.38
823.194	2.38
823.936	2.38
824.678	4.38
825.42	4.38
826.162	1.38
826.904	1.38
827.646	5.38
828.388	1.38
829.129	1.38
829.871	1.38
830.612	4.38
831.354	2.38
832.095	1.38
832.836	1.38
833.577	2.38
834.319	3.38
835.06	2.38
835.801	2.38
836.542	1.38
837.282	3.38
838.023	4.38
838.764	5.38
839.504	2.38
840.245	3.38
840.985	5.38
841.726	2.38
842.466	4.38
843.206	3.38
843.946	2.38
844.687	4.38
845.427	2.38
846.166	0.38
846.906	3.38
847.646	2.38
848.386	4.38
849.125	2.38
849.865	2.38
850.605	1.38
851.344	1.38
852.083	5.38
852.823	1.38
853.562	1.38
854.301	-0.62
855.04	2.38
855.779	2.38
856.518	3.38
857.257	2.38
857.995	3.38
858.734	2.38
859.473	3.38
860.211	1.38
860.95	-0.62
861.688	0.38
862.426	2.38
863.165	0.38
863.903	0.38
864.641	1.38
865.379	-0.62
866.117	1.38
866.855	1.38
867.593	-1.62
868.33	0.38
869.068	3.38
869.806	-0.62
870.543	1.38
871.28	1.38
872.018	1.38
872.755	2.38
873.492	0.38
874.229	1.38
874.967	0.38
875.703	0.38
876.44	-0.62
877.177	1.38
877.914	0.38
878.651	1.38
879.387	2.38
880.124	1.38
880.86	1.38
881.597	1.38
882.333	0.38
883.069	2.38
883.806	-0.62
884.542	1.38
885.278	0.38
886.014	0.38
886.749	0.38
887.485	1.38
888.221	0.38
888.957	0.38
889.692	0.38
890.428	1.38
891.163	-1.62
891.899	-2.62
892.634	0.38
893.369	1.38
894.104	-2.62
894.839	-0.62
895.574	-1.62
896.309	0.38
897.044	1.38
897.779	-0.62
898.514	1.38
899.248	-0.62
899.983	1.38
900.717	-1.62
901.452	-0.62
902.186	1.38
902.92	0.38
903.654	0.38
904.389	-2.62
905.123	-0.62
905.857	1.38
906.59	0.38
907.324	-0.62
908.058	0.38
908.792	-3.62
909.525	-1.62
910.259	0.38
910.992	-0.62
911.726	-1.62
912.459	-1.62
913.192	-0.62
913.925	-0.62
914.658	-2.62
915.391	0.38
916.124	-0.62
916.857	0.38
917.59	0.38
918.323	-0.62
919.055	1.38
919.788	1.38
920.521	-0.62
921.253	-0.62
921.985	-3.62
922.718	0.38
923.45	0.38
924.182	0.38
924.914	0.38
925.646	0.38
926.378	0.38
927.11	-0.62
927.841	-1.62
928.573	-0.62
929.305	-0.62
930.036	0.38
930.768	-0.62
931.499	0.38
932.23	0.38
932.962	-2.62
933.693	-0.62
934.424	-0.62
935.155	1.38
935.886	-2.62
936.617	-3.62
937.348	-0.62
938.078	-0.62
938.809	0.38
939.54	0.38
940.27	-1.62
941.001	-0.62
941.731	0.38
942.461	0.38
943.191	0.38
943.922	1.38
944.652	-0.62
945.382	-0.62
946.112	-1.62
946.841	1.38
947.571	-0.62
948.301	-2.62
949.031	1.38
949.76	0.38
950.49	1.38
951.219	-3.62
951.948	2.38
952.678	0.38
953.407	-2.62
954.136	-0.62
954.865	-0.62
955.594	-0.62
956.323	-1.62
957.052	-0.62
957.78	-0.62
958.509	0.38
959.238	-1.62
959.966	0.38
960.695	0.38
961.423	-2.62
962.151	-0.62
962.88	-4.62
963.608	-1.62
964.336	0.38
965.064	-0.62
965.792	-0.62
966.52	0.38
967.247	0.38
967.975	0.38
968.703	-2.62
969.43	-0.62
970.158	0.38
970.885	-2.62
971.613	-1.62
972.34	0.38
973.067	-1.62
973.794	-2.62
974.521	-0.62
975.248	-0.62
975.975	-1.62
976.702	3.38
977.429	0.38
978.156	-1.62
978.882	-1.62
979.609	1.38
980.335	0.38
981.062	0.38
981.788	0.38
982.514	-0.62
983.24	0.38
983.967	-2.62
984.693	1.38
985.419	-2.62
986.144	0.38
986.87	-1.62
987.596	0.38
988.322	0.38
989.047	0.38
989.773	0.38
990.498	0.38
991.224	-0.62
991.949	0.38
992.674	0.38
993.399	0.38
994.124	-0.62
994.849	-0.62
995.574	0.38
996.299	0.38
997.024	-0.62
997.749	0.38
998.473	-0.62
999.198	-0.62
999.922	-0.62
1000.647	0.38
1001.371	2.38
1002.095	0.38
1002.82	-0.62
1003.544	-0.62
1004.268	0.38
1004.992	0.38
1005.716	0.38
1006.439	0.38
1007.163	1.38
1007.887	-0.62
1008.611	-2.62
1009.334	-1.62
1010.058	-1.62
1010.781	-3.62
1011.504	-0.62
1012.228	2.38
1012.951	-0.62
1013.674	-1.62
1014.397	2.38
1015.12	-1.62
