节点500_285_QEPB04081__41__14-56-14-403.txt的数据

Date: Wed Nov 12 14:56:14 CST 2025
User: PC
Spectrometer: QEPB0408
触发模式: 0
积分时间 (秒): 1.000000E-2
Scans to average: 1
启用暗噪声校正: true
启用非线性校正: false
滑动平均宽度: 0
X轴模式: Wavelengths
Number of Pixels in Spectrum: 1044
>>>>>Begin Spectral Data<<<<<
220.843	2.25
221.644	0.25
222.444	-0.75
223.244	3.25
224.045	1.25
224.845	2.25
225.645	-0.75
226.445	2.25
227.245	1.25
228.045	-0.75
228.845	0.25
229.645	2.25
230.444	2.25
231.244	2.25
232.043	4.25
232.843	2.25
233.642	2.25
234.442	3.25
235.241	3.25
236.04	3.25
236.839	2.25
237.638	2.25
238.437	5.25
239.236	0.25
240.035	5.25
240.833	3.25
241.632	3.25
242.43	4.25
243.229	5.25
244.027	5.25
244.826	4.25
245.624	2.25
246.422	6.25
247.22	7.25
248.018	7.25
248.816	5.25
249.614	7.25
250.412	5.25
251.21	8.25
252.007	6.25
252.805	6.25
253.602	6.25
254.4	8.25
255.197	6.25
255.994	8.25
256.791	7.25
257.589	6.25
258.386	8.25
259.183	9.25
259.979	8.25
260.776	10.25
261.573	10.25
262.37	9.25
263.166	12.25
263.963	12.25
264.759	11.25
265.556	13.25
266.352	15.25
267.148	13.25
267.944	12.25
268.74	13.25
269.536	14.25
270.332	14.25
271.128	18.25
271.924	14.25
272.719	17.25
273.515	16.25
274.311	16.25
275.106	18.25
275.901	17.25
276.697	19.25
277.492	19.25
278.287	19.25
279.082	18.25
279.877	20.25
280.672	20.25
281.467	20.25
282.262	22.25
283.056	21.25
283.851	19.25
284.646	21.25
285.44	19.25
286.234	19.25
287.029	19.25
287.823	22.25
288.617	19.25
289.411	17.25
290.205	18.25
290.999	16.25
291.793	20.25
292.587	18.25
293.381	19.25
294.174	17.25
294.968	16.25
295.761	14.25
296.555	13.25
297.348	13.25
298.141	14.25
298.935	16.25
299.728	15.25
300.521	12.25
301.314	14.25
302.107	15.25
302.899	15.25
303.692	9.25
304.485	11.25
305.277	10.25
306.07	11.25
306.862	10.25
307.655	10.25
308.447	11.25
309.239	13.25
310.031	10.25
310.823	10.25
311.615	10.25
312.407	8.25
313.199	10.25
313.991	8.25
314.783	8.25
315.574	10.25
316.366	9.25
317.157	7.25
317.949	4.25
318.74	8.25
319.531	5.25
320.322	10.25
321.113	9.25
321.904	6.25
322.695	9.25
323.486	5.25
324.277	8.25
325.068	6.25
325.858	4.25
326.649	4.25
327.439	5.25
328.23	6.25
329.02	7.25
329.81	6.25
330.6	4.25
331.391	5.25
332.181	7.25
332.971	4.25
333.76	6.25
334.55	7.25
335.34	6.25
336.13	5.25
336.919	7.25
337.709	4.25
338.498	6.25
339.287	5.25
340.077	4.25
340.866	4.25
341.655	7.25
342.444	4.25
343.233	6.25
344.022	5.25
344.811	7.25
345.6	5.25
346.388	6.25
347.177	7.25
347.965	4.25
348.754	5.25
349.542	6.25
350.33	3.25
351.119	6.25
351.907	5.25
352.695	4.25
353.483	6.25
354.271	5.25
355.059	5.25
355.846	7.25
356.634	6.25
357.422	4.25
358.209	5.25
358.997	5.25
359.784	4.25
360.571	4.25
361.359	4.25
362.146	5.25
362.933	6.25
363.72	6.25
364.507	6.25
365.294	3.25
366.081	7.25
366.867	4.25
367.654	5.25
368.44	4.25
369.227	2.25
370.013	5.25
370.8	4.25
371.586	3.25
372.372	4.25
373.158	7.25
373.944	6.25
374.73	6.25
375.516	6.25
376.302	3.25
377.088	5.25
377.873	6.25
378.659	3.25
379.445	5.25
380.23	4.25
381.015	4.25
381.801	2.25
382.586	3.25
383.371	1.25
384.156	5.25
384.941	5.25
385.726	7.25
386.511	6.25
387.296	7.25
388.08	4.25
388.865	6.25
389.649	5.25
390.434	5.25
391.218	3.25
392.003	4.25
392.787	5.25
393.571	1.25
394.355	5.25
395.139	6.25
395.923	4.25
396.707	6.25
397.491	3.25
398.274	6.25
399.058	5.25
399.842	8.25
400.625	8.25
401.408	7.25
402.192	6.25
402.975	6.25
403.758	6.25
404.541	8.25
405.324	6.25
406.107	7.25
406.89	4.25
407.673	8.25
408.456	6.25
409.238	8.25
410.021	7.25
410.803	8.25
411.586	8.25
412.368	6.25
413.151	8.25
413.933	7.25
414.715	9.25
415.497	9.25
416.279	7.25
417.061	8.25
417.843	9.25
418.624	8.25
419.406	9.25
420.188	8.25
420.969	11.25
421.751	10.25
422.532	12.25
423.313	10.25
424.095	11.25
424.876	11.25
425.657	10.25
426.438	11.25
427.219	11.25
428	12.25
428.78	13.25
429.561	12.25
430.342	15.25
431.122	14.25
431.903	11.25
432.683	14.25
433.464	17.25
434.244	17.25
435.024	16.25
435.804	16.25
436.584	17.25
437.364	19.25
438.144	18.25
438.924	22.25
439.704	19.25
440.483	18.25
441.263	22.25
442.042	25.25
442.822	26.25
443.601	28.25
444.38	26.25
445.16	29.25
445.939	27.25
446.718	36.25
447.497	36.25
448.276	35.25
449.054	41.25
449.833	45.25
450.612	48.25
451.391	52.25
452.169	60.25
452.948	60.25
453.726	69.25
454.504	76.25
455.282	80.25
456.061	89.25
456.839	96.25
457.617	110.25
458.395	120.25
459.172	135.25
459.95	149.25
460.728	167.25
461.506	184.25
462.283	207.25
463.061	228.25
463.838	263.25
464.615	293.25
465.393	325.25
466.17	365.25
466.947	407.25
467.724	452.25
468.501	508.25
469.278	575.25
470.055	647.25
470.831	706.25
471.608	790.25
472.385	891.25
473.161	986.25
473.938	1104.25
474.714	1227.25
475.49	1372.25
476.266	1520.25
477.043	1688.25
477.819	1870.25
478.595	2083.25
479.371	2326.25
480.146	2584.25
480.922	2852.25
481.698	3187.25
482.473	3513.25
483.249	3923.25
484.024	4317.25
484.8	4805.25
485.575	5297.25
486.35	5854.25
487.126	6461.25
487.901	7125.25
488.676	7834.25
489.451	8650.25
490.225	9495.25
491	10439.25
491.775	11477.25
492.55	12568.25
493.324	13631.25
494.099	14701.25
494.873	15957.25
495.647	17228.25
496.422	18457.25
497.196	19750.25
497.97	21169.25
498.744	22424.25
499.518	23632.25
500.292	24809.25
501.066	25908.25
501.839	26839.25
502.613	27709.25
503.387	28328.25
504.16	28832.25
504.934	29008.25
505.707	29043.25
506.48	28848.25
507.253	28487.25
508.027	28024.25
508.8	27477.25
509.573	26824.25
510.346	25958.25
511.118	25039.25
511.891	24048.25
512.664	23032.25
513.437	22081.25
514.209	21134.25
514.982	20129.25
515.754	19222.25
516.526	18302.25
517.298	17526.25
518.071	16723.25
518.843	16045.25
519.615	15479.25
520.387	14844.25
521.159	14277.25
521.93	13716.25
522.702	13196.25
523.474	12603.25
524.245	12073.25
525.017	11472.25
525.788	11030.25
526.56	10551.25
527.331	10057.25
528.102	9568.25
528.873	9099.25
529.644	8598.25
530.415	8198.25
531.186	7742.25
531.957	7307.25
532.728	6909.25
533.498	6547.25
534.269	6161.25
535.039	5807.25
535.81	5492.25
536.58	5175.25
537.351	4869.25
538.121	4608.25
538.891	4341.25
539.661	4095.25
540.431	3893.25
541.201	3664.25
541.971	3472.25
542.741	3318.25
543.51	3145.25
544.28	2985.25
545.05	2863.25
545.819	2732.25
546.588	2564.25
547.358	2456.25
548.127	2322.25
548.896	2198.25
549.665	2107.25
550.434	1968.25
551.203	1862.25
551.972	1765.25
552.741	1657.25
553.51	1571.25
554.278	1479.25
555.047	1394.25
555.815	1306.25
556.584	1236.25
557.352	1163.25
558.121	1113.25
558.889	1044.25
559.657	985.25
560.425	931.25
561.193	857.25
561.961	825.25
562.729	784.25
563.496	727.25
564.264	693.25
565.032	658.25
565.799	625.25
566.567	599.25
567.334	562.25
568.101	535.25
568.869	490.25
569.636	467.25
570.403	436.25
571.17	412.25
571.937	393.25
572.704	373.25
573.471	347.25
574.237	332.25
575.004	306.25
575.771	296.25
576.537	268.25
577.303	259.25
578.07	237.25
578.836	224.25
579.602	213.25
580.368	201.25
581.134	188.25
581.9	178.25
582.666	172.25
583.432	166.25
584.198	159.25
584.964	145.25
585.729	140.25
586.495	133.25
587.26	127.25
588.025	116.25
588.791	113.25
589.556	106.25
590.321	102.25
591.086	96.25
591.851	90.25
592.616	87.25
593.381	83.25
594.146	79.25
594.911	75.25
595.675	71.25
596.44	68.25
597.204	62.25
597.969	64.25
598.733	61.25
599.497	59.25
600.261	55.25
601.025	52.25
601.79	51.25
602.553	49.25
603.317	48.25
604.081	44.25
604.845	41.25
605.609	38.25
606.372	36.25
607.136	42.25
607.899	36.25
608.662	37.25
609.426	34.25
610.189	33.25
610.952	30.25
611.715	28.25
612.478	28.25
613.241	26.25
614.004	27.25
614.767	23.25
615.529	23.25
616.292	24.25
617.055	21.25
617.817	24.25
618.579	21.25
619.342	23.25
620.104	21.25
620.866	19.25
621.628	20.25
622.39	18.25
623.152	17.25
623.914	16.25
624.676	15.25
625.438	17.25
626.199	14.25
626.961	16.25
627.722	11.25
628.484	15.25
629.245	12.25
630.006	14.25
630.768	10.25
631.529	12.25
632.29	11.25
633.051	9.25
633.812	9.25
634.573	13.25
635.333	11.25
636.094	11.25
636.855	11.25
637.615	9.25
638.376	7.25
639.136	8.25
639.896	10.25
640.657	8.25
641.417	7.25
642.177	8.25
642.937	5.25
643.697	8.25
644.457	9.25
645.216	7.25
645.976	7.25
646.736	6.25
647.495	7.25
648.255	5.25
649.014	7.25
649.774	8.25
650.533	5.25
651.292	6.25
652.051	5.25
652.81	6.25
653.569	4.25
654.328	8.25
655.087	5.25
655.846	6.25
656.604	6.25
657.363	5.25
658.121	6.25
658.88	5.25
659.638	4.25
660.397	5.25
661.155	5.25
661.913	5.25
662.671	3.25
663.429	6.25
664.187	5.25
664.945	4.25
665.703	5.25
666.46	4.25
667.218	5.25
667.976	4.25
668.733	5.25
669.49	4.25
670.248	3.25
671.005	6.25
671.762	2.25
672.519	5.25
673.276	5.25
674.033	4.25
674.79	3.25
675.547	5.25
676.304	3.25
677.06	4.25
677.817	2.25
678.574	4.25
679.33	2.25
680.086	3.25
680.843	3.25
681.599	4.25
682.355	5.25
683.111	3.25
683.867	5.25
684.623	3.25
685.379	1.25
686.135	4.25
686.89	3.25
687.646	3.25
688.402	3.25
689.157	3.25
689.912	0.25
690.668	4.25
691.423	3.25
692.178	2.25
692.933	3.25
693.688	4.25
694.443	4.25
695.198	3.25
695.953	5.25
696.708	5.25
697.462	1.25
698.217	4.25
698.972	4.25
699.726	2.25
700.48	3.25
701.235	3.25
701.989	4.25
702.743	5.25
703.497	2.25
704.251	2.25
705.005	3.25
705.759	1.25
706.513	1.25
707.266	6.25
708.02	3.25
708.774	0.25
709.527	2.25
710.28	2.25
711.034	2.25
711.787	3.25
712.54	4.25
713.293	3.25
714.046	3.25
714.799	2.25
715.552	2.25
716.305	3.25
717.058	3.25
717.81	5.25
718.563	4.25
719.315	3.25
720.068	4.25
720.82	1.25
721.573	2.25
722.325	3.25
723.077	1.25
723.829	3.25
724.581	4.25
725.333	4.25
726.085	2.25
726.836	3.25
727.588	4.25
728.34	1.25
729.091	3.25
729.843	3.25
730.594	2.25
731.346	2.25
732.097	0.25
732.848	4.25
733.599	1.25
734.35	3.25
735.101	0.25
735.852	1.25
736.603	5.25
737.354	4.25
738.104	2.25
738.855	3.25
739.605	2.25
740.356	6.25
741.106	4.25
741.856	5.25
742.607	3.25
743.357	5.25
744.107	1.25
744.857	2.25
745.607	6.25
746.357	5.25
747.106	4.25
747.856	4.25
748.606	5.25
749.355	5.25
750.105	7.25
750.854	6.25
751.603	5.25
752.353	5.25
753.102	4.25
753.851	4.25
754.6	5.25
755.349	6.25
756.098	7.25
756.847	5.25
757.595	6.25
758.344	8.25
759.093	6.25
759.841	7.25
760.589	7.25
761.338	4.25
762.086	7.25
762.834	6.25
763.582	6.25
764.331	4.25
765.079	6.25
765.826	8.25
766.574	5.25
767.322	6.25
768.07	5.25
768.817	4.25
769.565	6.25
770.312	8.25
771.06	5.25
771.807	7.25
772.554	8.25
773.302	5.25
774.049	7.25
774.796	9.25
775.543	10.25
776.29	9.25
777.036	7.25
777.783	10.25
778.53	9.25
779.276	10.25
780.023	8.25
780.769	8.25
781.516	8.25
782.262	6.25
783.008	9.25
783.754	8.25
784.5	9.25
785.246	9.25
785.992	8.25
786.738	8.25
787.484	10.25
788.23	7.25
788.975	8.25
789.721	8.25
790.466	9.25
791.212	10.25
791.957	9.25
792.702	8.25
793.447	7.25
794.193	9.25
794.938	5.25
795.683	8.25
796.427	8.25
797.172	8.25
797.917	6.25
798.662	5.25
799.406	6.25
800.151	5.25
800.895	6.25
801.64	4.25
802.384	7.25
803.128	6.25
803.872	4.25
804.616	7.25
805.36	5.25
806.104	6.25
806.848	5.25
807.592	2.25
808.336	6.25
809.079	7.25
809.823	6.25
810.566	5.25
811.31	7.25
812.053	6.25
812.796	3.25
813.539	5.25
814.283	3.25
815.026	5.25
815.769	1.25
816.511	4.25
817.254	3.25
817.997	3.25
818.74	3.25
819.482	3.25
820.225	1.25
820.967	3.25
821.71	4.25
822.452	6.25
823.194	3.25
823.936	4.25
824.678	2.25
825.42	4.25
826.162	6.25
826.904	3.25
827.646	4.25
828.388	5.25
829.129	2.25
829.871	4.25
830.612	3.25
831.354	1.25
832.095	2.25
832.836	4.25
833.577	1.25
834.319	2.25
835.06	2.25
835.801	3.25
836.542	0.25
837.282	3.25
838.023	3.25
838.764	5.25
839.504	2.25
840.245	5.25
840.985	3.25
841.726	3.25
842.466	1.25
843.206	0.25
843.946	4.25
844.687	3.25
845.427	2.25
846.166	0.25
846.906	0.25
847.646	4.25
848.386	1.25
849.125	3.25
849.865	2.25
850.605	2.25
851.344	0.25
852.083	2.25
852.823	1.25
853.562	4.25
854.301	6.25
855.04	1.25
855.779	1.25
856.518	-0.75
857.257	1.25
857.995	1.25
858.734	3.25
859.473	2.25
860.211	1.25
860.95	1.25
861.688	3.25
862.426	1.25
863.165	0.25
863.903	2.25
864.641	1.25
865.379	3.25
866.117	1.25
866.855	0.25
867.593	1.25
868.33	2.25
869.068	1.25
869.806	1.25
870.543	0.25
871.28	-1.75
872.018	0.25
872.755	0.25
873.492	2.25
874.229	1.25
874.967	-1.75
875.703	1.25
876.44	0.25
877.177	-0.75
877.914	-1.75
878.651	0.25
879.387	1.25
880.124	0.25
880.86	1.25
881.597	0.25
882.333	0.25
883.069	1.25
883.806	-1.75
884.542	1.25
885.278	2.25
886.014	0.25
886.749	-0.75
887.485	0.25
888.221	0.25
888.957	-0.75
889.692	2.25
890.428	0.25
891.163	0.25
891.899	2.25
892.634	1.25
893.369	1.25
894.104	0.25
894.839	3.25
895.574	2.25
896.309	-0.75
897.044	2.25
897.779	-1.75
898.514	-1.75
899.248	0.25
899.983	0.25
900.717	0.25
901.452	-0.75
902.186	-1.75
902.92	1.25
903.654	0.25
904.389	0.25
905.123	2.25
905.857	-0.75
906.59	-0.75
907.324	2.25
908.058	2.25
908.792	0.25
909.525	-1.75
910.259	-0.75
910.992	-0.75
911.726	0.25
912.459	1.25
913.192	-0.75
913.925	-1.75
914.658	-0.75
915.391	-2.75
916.124	0.25
916.857	0.25
917.59	0.25
918.323	0.25
919.055	0.25
919.788	-0.75
920.521	0.25
921.253	-1.75
921.985	-0.75
922.718	-1.75
923.45	-0.75
924.182	2.25
924.914	0.25
925.646	1.25
926.378	-1.75
927.11	-0.75
927.841	-1.75
928.573	-0.75
929.305	-0.75
930.036	-1.75
930.768	1.25
931.499	-1.75
932.23	2.25
932.962	-0.75
933.693	1.25
934.424	0.25
935.155	1.25
935.886	-0.75
936.617	2.25
937.348	-0.75
938.078	-0.75
938.809	-0.75
939.54	0.25
940.27	-0.75
941.001	1.25
941.731	-1.75
942.461	-2.75
943.191	0.25
943.922	-1.75
944.652	2.25
945.382	-0.75
946.112	0.25
946.841	0.25
947.571	-1.75
948.301	-0.75
949.031	1.25
949.76	-0.75
950.49	-2.75
951.219	0.25
951.948	0.25
952.678	-0.75
953.407	0.25
954.136	-2.75
954.865	0.25
955.594	0.25
956.323	-2.75
957.052	0.25
957.78	-0.75
958.509	1.25
959.238	0.25
959.966	0.25
960.695	0.25
961.423	-1.75
962.151	0.25
962.88	0.25
963.608	0.25
964.336	1.25
965.064	0.25
965.792	0.25
966.52	-1.75
967.247	-0.75
967.975	0.25
968.703	0.25
969.43	0.25
970.158	1.25
970.885	1.25
971.613	1.25
972.34	1.25
973.067	-1.75
973.794	2.25
974.521	0.25
975.248	-3.75
975.975	2.25
976.702	0.25
977.429	-0.75
978.156	0.25
978.882	-0.75
979.609	1.25
980.335	1.25
981.062	-0.75
981.788	2.25
982.514	-1.75
983.24	0.25
983.967	-2.75
984.693	-1.75
985.419	1.25
986.144	-1.75
986.87	1.25
987.596	-2.75
988.322	1.25
989.047	-0.75
989.773	-1.75
990.498	1.25
991.224	0.25
991.949	1.25
992.674	0.25
993.399	0.25
994.124	3.25
994.849	-1.75
995.574	0.25
996.299	-0.75
997.024	2.25
997.749	-1.75
998.473	-1.75
999.198	1.25
999.922	-4.75
1000.647	-0.75
1001.371	3.25
1002.095	-0.75
1002.82	0.25
1003.544	0.25
1004.268	-0.75
1004.992	1.25
1005.716	-0.75
1006.439	0.25
1007.163	1.25
1007.887	1.25
1008.611	-0.75
1009.334	0.25
1010.058	-0.75
1010.781	-0.75
1011.504	0.25
1012.228	-0.75
1012.951	-0.75
1013.674	-2.75
1014.397	-0.75
1015.12	1.25
