节点500_285_QEPB04081__402__15-02-14-618.txt的数据

Date: Wed Nov 12 15:02:14 CST 2025
User: PC
Spectrometer: QEPB0408
触发模式: 0
积分时间 (秒): 1.000000E-2
Scans to average: 1
启用暗噪声校正: true
启用非线性校正: false
滑动平均宽度: 0
X轴模式: Wavelengths
Number of Pixels in Spectrum: 1044
>>>>>Begin Spectral Data<<<<<
220.843	0.38
221.644	0.38
222.444	0.38
223.244	0.38
224.045	2.38
224.845	1.38
225.645	0.38
226.445	2.38
227.245	2.38
228.045	4.38
228.845	1.38
229.645	2.38
230.444	0.38
231.244	1.38
232.043	3.38
232.843	1.38
233.642	1.38
234.442	3.38
235.241	2.38
236.04	1.38
236.839	2.38
237.638	4.38
238.437	2.38
239.236	3.38
240.035	5.38
240.833	5.38
241.632	5.38
242.43	3.38
243.229	4.38
244.027	3.38
244.826	6.38
245.624	2.38
246.422	4.38
247.22	5.38
248.018	4.38
248.816	5.38
249.614	4.38
250.412	8.38
251.21	4.38
252.007	5.38
252.805	6.38
253.602	7.38
254.4	7.38
255.197	5.38
255.994	7.38
256.791	5.38
257.589	7.38
258.386	9.38
259.183	8.38
259.979	7.38
260.776	9.38
261.573	11.38
262.37	11.38
263.166	11.38
263.963	10.38
264.759	9.38
265.556	10.38
266.352	11.38
267.148	11.38
267.944	9.38
268.74	14.38
269.536	13.38
270.332	14.38
271.128	16.38
271.924	14.38
272.719	13.38
273.515	14.38
274.311	16.38
275.106	15.38
275.901	16.38
276.697	18.38
277.492	16.38
278.287	19.38
279.082	17.38
279.877	19.38
280.672	20.38
281.467	17.38
282.262	19.38
283.056	18.38
283.851	16.38
284.646	19.38
285.44	15.38
286.234	18.38
287.029	16.38
287.823	18.38
288.617	17.38
289.411	17.38
290.205	18.38
290.999	18.38
291.793	16.38
292.587	16.38
293.381	16.38
294.174	15.38
294.968	15.38
295.761	17.38
296.555	13.38
297.348	15.38
298.141	16.38
298.935	16.38
299.728	14.38
300.521	13.38
301.314	15.38
302.107	15.38
302.899	13.38
303.692	11.38
304.485	13.38
305.277	13.38
306.07	11.38
306.862	13.38
307.655	11.38
308.447	11.38
309.239	12.38
310.031	10.38
310.823	9.38
311.615	8.38
312.407	9.38
313.199	10.38
313.991	8.38
314.783	9.38
315.574	7.38
316.366	9.38
317.157	7.38
317.949	8.38
318.74	5.38
319.531	6.38
320.322	7.38
321.113	6.38
321.904	9.38
322.695	4.38
323.486	7.38
324.277	6.38
325.068	5.38
325.858	10.38
326.649	6.38
327.439	4.38
328.23	8.38
329.02	5.38
329.81	3.38
330.6	7.38
331.391	6.38
332.181	4.38
332.971	3.38
333.76	6.38
334.55	3.38
335.34	5.38
336.13	6.38
336.919	5.38
337.709	5.38
338.498	6.38
339.287	7.38
340.077	7.38
340.866	6.38
341.655	7.38
342.444	8.38
343.233	4.38
344.022	6.38
344.811	5.38
345.6	4.38
346.388	4.38
347.177	3.38
347.965	5.38
348.754	7.38
349.542	5.38
350.33	5.38
351.119	5.38
351.907	4.38
352.695	3.38
353.483	6.38
354.271	5.38
355.059	3.38
355.846	4.38
356.634	3.38
357.422	4.38
358.209	5.38
358.997	8.38
359.784	3.38
360.571	5.38
361.359	2.38
362.146	6.38
362.933	4.38
363.72	5.38
364.507	3.38
365.294	6.38
366.081	4.38
366.867	6.38
367.654	6.38
368.44	3.38
369.227	1.38
370.013	4.38
370.8	4.38
371.586	6.38
372.372	4.38
373.158	4.38
373.944	5.38
374.73	6.38
375.516	4.38
376.302	5.38
377.088	5.38
377.873	7.38
378.659	3.38
379.445	4.38
380.23	4.38
381.015	3.38
381.801	5.38
382.586	2.38
383.371	5.38
384.156	4.38
384.941	3.38
385.726	3.38
386.511	4.38
387.296	7.38
388.08	3.38
388.865	5.38
389.649	5.38
390.434	6.38
391.218	5.38
392.003	5.38
392.787	6.38
393.571	6.38
394.355	6.38
395.139	5.38
395.923	6.38
396.707	4.38
397.491	5.38
398.274	6.38
399.058	6.38
399.842	3.38
400.625	5.38
401.408	6.38
402.192	7.38
402.975	7.38
403.758	6.38
404.541	6.38
405.324	7.38
406.107	10.38
406.89	8.38
407.673	8.38
408.456	8.38
409.238	7.38
410.021	7.38
410.803	8.38
411.586	7.38
412.368	12.38
413.151	9.38
413.933	10.38
414.715	7.38
415.497	9.38
416.279	7.38
417.061	8.38
417.843	9.38
418.624	9.38
419.406	12.38
420.188	9.38
420.969	9.38
421.751	11.38
422.532	12.38
423.313	12.38
424.095	9.38
424.876	10.38
425.657	10.38
426.438	13.38
427.219	10.38
428	12.38
428.78	11.38
429.561	11.38
430.342	13.38
431.122	9.38
431.903	15.38
432.683	15.38
433.464	13.38
434.244	15.38
435.024	15.38
435.804	16.38
436.584	18.38
437.364	19.38
438.144	20.38
438.924	18.38
439.704	22.38
440.483	21.38
441.263	24.38
442.042	26.38
442.822	23.38
443.601	29.38
444.38	33.38
445.16	33.38
445.939	33.38
446.718	37.38
447.497	38.38
448.276	42.38
449.054	43.38
449.833	47.38
450.612	54.38
451.391	53.38
452.169	61.38
452.948	67.38
453.726	72.38
454.504	81.38
455.282	92.38
456.061	98.38
456.839	113.38
457.617	124.38
458.395	134.38
459.172	151.38
459.95	167.38
460.728	189.38
461.506	208.38
462.283	233.38
463.061	260.38
463.838	287.38
464.615	328.38
465.393	365.38
466.17	413.38
466.947	458.38
467.724	500.38
468.501	558.38
469.278	631.38
470.055	697.38
470.831	777.38
471.608	860.38
472.385	948.38
473.161	1054.38
473.938	1178.38
474.714	1282.38
475.49	1436.38
476.266	1568.38
477.043	1753.38
477.819	1925.38
478.595	2153.38
479.371	2346.38
480.146	2580.38
480.922	2832.38
481.698	3138.38
482.473	3454.38
483.249	3769.38
484.024	4168.38
484.8	4557.38
485.575	5017.38
486.35	5507.38
487.126	6046.38
487.901	6613.38
488.676	7265.38
489.451	7946.38
490.225	8689.38
491	9435.38
491.775	10347.38
492.55	11273.38
493.324	12186.38
494.099	13160.38
494.873	14165.38
495.647	15284.38
496.422	16356.38
497.196	17519.38
497.97	18743.38
498.744	19882.38
499.518	21032.38
500.292	22125.38
501.066	23235.38
501.839	24239.38
502.613	25084.38
503.387	25863.38
504.16	26513.38
504.934	26885.38
505.707	27115.38
506.48	27211.38
507.253	27161.38
508.027	26921.38
508.8	26636.38
509.573	26238.38
510.346	25656.38
511.118	24897.38
511.891	24194.38
512.664	23353.38
513.437	22495.38
514.209	21524.38
514.982	20752.38
515.754	19808.38
516.526	18914.38
517.298	18137.38
518.071	17287.38
518.843	16699.38
519.615	16112.38
520.387	15432.38
521.159	14807.38
521.93	14173.38
522.702	13651.38
523.474	13092.38
524.245	12492.38
525.017	11995.38
525.788	11545.38
526.56	11020.38
527.331	10454.38
528.102	10008.38
528.873	9583.38
529.644	9097.38
530.415	8656.38
531.186	8206.38
531.957	7822.38
532.728	7415.38
533.498	7022.38
534.269	6625.38
535.039	6250.38
535.81	5894.38
536.58	5590.38
537.351	5275.38
538.121	4989.38
538.891	4722.38
539.661	4447.38
540.431	4201.38
541.201	3985.38
541.971	3791.38
542.741	3582.38
543.51	3389.38
544.28	3257.38
545.05	3086.38
545.819	2932.38
546.588	2764.38
547.358	2647.38
548.127	2504.38
548.896	2400.38
549.665	2273.38
550.434	2126.38
551.203	2023.38
551.972	1920.38
552.741	1816.38
553.51	1725.38
554.278	1622.38
555.047	1538.38
555.815	1439.38
556.584	1360.38
557.352	1284.38
558.121	1221.38
558.889	1141.38
559.657	1087.38
560.425	1015.38
561.193	973.38
561.961	909.38
562.729	859.38
563.496	805.38
564.264	772.38
565.032	735.38
565.799	697.38
566.567	653.38
567.334	617.38
568.101	584.38
568.869	562.38
569.636	516.38
570.403	488.38
571.17	456.38
571.937	437.38
572.704	407.38
573.471	380.38
574.237	371.38
575.004	336.38
575.771	326.38
576.537	301.38
577.303	287.38
578.07	273.38
578.836	251.38
579.602	238.38
580.368	221.38
581.134	220.38
581.9	208.38
582.666	191.38
583.432	183.38
584.198	177.38
584.964	167.38
585.729	156.38
586.495	142.38
587.26	139.38
588.025	130.38
588.791	124.38
589.556	121.38
590.321	110.38
591.086	108.38
591.851	98.38
592.616	96.38
593.381	89.38
594.146	87.38
594.911	81.38
595.675	77.38
596.44	71.38
597.204	69.38
597.969	70.38
598.733	67.38
599.497	63.38
600.261	60.38
601.025	56.38
601.79	54.38
602.553	48.38
603.317	50.38
604.081	50.38
604.845	42.38
605.609	39.38
606.372	43.38
607.136	40.38
607.899	36.38
608.662	36.38
609.426	33.38
610.189	34.38
610.952	34.38
611.715	29.38
612.478	33.38
613.241	27.38
614.004	27.38
614.767	28.38
615.529	26.38
616.292	28.38
617.055	24.38
617.817	22.38
618.579	21.38
619.342	22.38
620.104	23.38
620.866	19.38
621.628	19.38
622.39	18.38
623.152	22.38
623.914	19.38
624.676	17.38
625.438	17.38
626.199	16.38
626.961	14.38
627.722	15.38
628.484	13.38
629.245	13.38
630.006	13.38
630.768	14.38
631.529	10.38
632.29	14.38
633.051	13.38
633.812	10.38
634.573	12.38
635.333	10.38
636.094	11.38
636.855	8.38
637.615	11.38
638.376	7.38
639.136	9.38
639.896	11.38
640.657	9.38
641.417	6.38
642.177	9.38
642.937	9.38
643.697	11.38
644.457	8.38
645.216	7.38
645.976	9.38
646.736	8.38
647.495	10.38
648.255	7.38
649.014	8.38
649.774	8.38
650.533	7.38
651.292	8.38
652.051	8.38
652.81	7.38
653.569	7.38
654.328	7.38
655.087	5.38
655.846	7.38
656.604	4.38
657.363	5.38
658.121	6.38
658.88	5.38
659.638	5.38
660.397	4.38
661.155	6.38
661.913	4.38
662.671	5.38
663.429	5.38
664.187	3.38
664.945	5.38
665.703	5.38
666.46	7.38
667.218	2.38
667.976	4.38
668.733	4.38
669.49	5.38
670.248	4.38
671.005	3.38
671.762	6.38
672.519	4.38
673.276	1.38
674.033	5.38
674.79	2.38
675.547	4.38
676.304	2.38
677.06	2.38
677.817	3.38
678.574	3.38
679.33	3.38
680.086	1.38
680.843	5.38
681.599	5.38
682.355	3.38
683.111	6.38
683.867	3.38
684.623	4.38
685.379	5.38
686.135	4.38
686.89	4.38
687.646	0.38
688.402	4.38
689.157	6.38
689.912	5.38
690.668	1.38
691.423	3.38
692.178	4.38
692.933	1.38
693.688	1.38
694.443	3.38
695.198	3.38
695.953	4.38
696.708	3.38
697.462	4.38
698.217	5.38
698.972	4.38
699.726	2.38
700.48	5.38
701.235	5.38
701.989	1.38
702.743	2.38
703.497	4.38
704.251	3.38
705.005	2.38
705.759	2.38
706.513	4.38
707.266	3.38
708.02	4.38
708.774	3.38
709.527	3.38
710.28	4.38
711.034	4.38
711.787	2.38
712.54	3.38
713.293	4.38
714.046	4.38
714.799	4.38
715.552	1.38
716.305	3.38
717.058	4.38
717.81	2.38
718.563	3.38
719.315	4.38
720.068	3.38
720.82	2.38
721.573	2.38
722.325	2.38
723.077	4.38
723.829	4.38
724.581	4.38
725.333	4.38
726.085	3.38
726.836	3.38
727.588	2.38
728.34	1.38
729.091	1.38
729.843	3.38
730.594	2.38
731.346	5.38
732.097	4.38
732.848	2.38
733.599	3.38
734.35	5.38
735.101	3.38
735.852	1.38
736.603	2.38
737.354	1.38
738.104	4.38
738.855	1.38
739.605	5.38
740.356	3.38
741.106	3.38
741.856	5.38
742.607	6.38
743.357	6.38
744.107	2.38
744.857	5.38
745.607	1.38
746.357	3.38
747.106	4.38
747.856	4.38
748.606	1.38
749.355	9.38
750.105	4.38
750.854	6.38
751.603	3.38
752.353	4.38
753.102	7.38
753.851	5.38
754.6	5.38
755.349	6.38
756.098	4.38
756.847	6.38
757.595	5.38
758.344	7.38
759.093	3.38
759.841	5.38
760.589	4.38
761.338	7.38
762.086	6.38
762.834	5.38
763.582	7.38
764.331	7.38
765.079	6.38
765.826	7.38
766.574	7.38
767.322	7.38
768.07	7.38
768.817	7.38
769.565	7.38
770.312	6.38
771.06	6.38
771.807	8.38
772.554	9.38
773.302	6.38
774.049	6.38
774.796	6.38
775.543	9.38
776.29	8.38
777.036	8.38
777.783	8.38
778.53	9.38
779.276	7.38
780.023	6.38
780.769	6.38
781.516	7.38
782.262	8.38
783.008	8.38
783.754	8.38
784.5	10.38
785.246	6.38
785.992	7.38
786.738	6.38
787.484	8.38
788.23	9.38
788.975	8.38
789.721	8.38
790.466	9.38
791.212	6.38
791.957	11.38
792.702	7.38
793.447	8.38
794.193	7.38
794.938	7.38
795.683	9.38
796.427	6.38
797.172	9.38
797.917	8.38
798.662	9.38
799.406	8.38
800.151	7.38
800.895	7.38
801.64	6.38
802.384	6.38
803.128	6.38
803.872	7.38
804.616	7.38
805.36	6.38
806.104	5.38
806.848	4.38
807.592	4.38
808.336	3.38
809.079	4.38
809.823	3.38
810.566	5.38
811.31	5.38
812.053	3.38
812.796	6.38
813.539	6.38
814.283	6.38
815.026	6.38
815.769	4.38
816.511	5.38
817.254	4.38
817.997	5.38
818.74	4.38
819.482	3.38
820.225	5.38
820.967	3.38
821.71	4.38
822.452	5.38
823.194	5.38
823.936	4.38
824.678	5.38
825.42	3.38
826.162	4.38
826.904	5.38
827.646	5.38
828.388	5.38
829.129	3.38
829.871	3.38
830.612	2.38
831.354	4.38
832.095	3.38
832.836	4.38
833.577	2.38
834.319	4.38
835.06	3.38
835.801	5.38
836.542	2.38
837.282	4.38
838.023	4.38
838.764	2.38
839.504	3.38
840.245	3.38
840.985	3.38
841.726	2.38
842.466	2.38
843.206	2.38
843.946	0.38
844.687	2.38
845.427	0.38
846.166	1.38
846.906	2.38
847.646	2.38
848.386	4.38
849.125	3.38
849.865	3.38
850.605	1.38
851.344	1.38
852.083	2.38
852.823	1.38
853.562	3.38
854.301	1.38
855.04	2.38
855.779	2.38
856.518	2.38
857.257	3.38
857.995	4.38
858.734	3.38
859.473	2.38
860.211	1.38
860.95	1.38
861.688	2.38
862.426	4.38
863.165	1.38
863.903	3.38
864.641	3.38
865.379	0.38
866.117	2.38
866.855	1.38
867.593	1.38
868.33	2.38
869.068	0.38
869.806	1.38
870.543	1.38
871.28	3.38
872.018	1.38
872.755	2.38
873.492	1.38
874.229	0.38
874.967	1.38
875.703	0.38
876.44	1.38
877.177	1.38
877.914	-0.62
878.651	0.38
879.387	0.38
880.124	3.38
880.86	-0.62
881.597	-0.62
882.333	1.38
883.069	2.38
883.806	0.38
884.542	-1.62
885.278	0.38
886.014	0.38
886.749	-0.62
887.485	1.38
888.221	1.38
888.957	0.38
889.692	0.38
890.428	1.38
891.163	0.38
891.899	3.38
892.634	0.38
893.369	-2.62
894.104	-0.62
894.839	1.38
895.574	-0.62
896.309	0.38
897.044	2.38
897.779	0.38
898.514	-0.62
899.248	0.38
899.983	-1.62
900.717	-0.62
901.452	-1.62
902.186	1.38
902.92	1.38
903.654	-0.62
904.389	-1.62
905.123	-0.62
905.857	0.38
906.59	1.38
907.324	2.38
908.058	0.38
908.792	0.38
909.525	1.38
910.259	1.38
910.992	0.38
911.726	-0.62
912.459	-0.62
913.192	-0.62
913.925	-1.62
914.658	-0.62
915.391	-1.62
916.124	-2.62
916.857	0.38
917.59	-0.62
918.323	1.38
919.055	-0.62
919.788	0.38
920.521	0.38
921.253	-1.62
921.985	-1.62
922.718	0.38
923.45	0.38
924.182	1.38
924.914	0.38
925.646	-0.62
926.378	2.38
927.11	1.38
927.841	0.38
928.573	0.38
929.305	0.38
930.036	0.38
930.768	-0.62
931.499	-0.62
932.23	0.38
932.962	-2.62
933.693	-0.62
934.424	-2.62
935.155	-0.62
935.886	1.38
936.617	0.38
937.348	0.38
938.078	-0.62
938.809	1.38
939.54	0.38
940.27	0.38
941.001	-0.62
941.731	0.38
942.461	0.38
943.191	0.38
943.922	2.38
944.652	-0.62
945.382	0.38
946.112	0.38
946.841	-0.62
947.571	-1.62
948.301	0.38
949.031	1.38
949.76	1.38
950.49	2.38
951.219	0.38
951.948	-0.62
952.678	0.38
953.407	-1.62
954.136	0.38
954.865	1.38
955.594	-0.62
956.323	0.38
957.052	0.38
957.78	1.38
958.509	-0.62
959.238	-0.62
959.966	-0.62
960.695	-1.62
961.423	1.38
962.151	0.38
962.88	0.38
963.608	-0.62
964.336	-2.62
965.064	2.38
965.792	-1.62
966.52	0.38
967.247	-1.62
967.975	0.38
968.703	-1.62
969.43	0.38
970.158	0.38
970.885	0.38
971.613	0.38
972.34	-0.62
973.067	-0.62
973.794	1.38
974.521	0.38
975.248	-0.62
975.975	1.38
976.702	-0.62
977.429	0.38
978.156	0.38
978.882	2.38
979.609	-0.62
980.335	1.38
981.062	0.38
981.788	0.38
982.514	1.38
983.24	0.38
983.967	0.38
984.693	1.38
985.419	-0.62
986.144	1.38
986.87	-0.62
987.596	0.38
988.322	-1.62
989.047	-0.62
989.773	0.38
990.498	-0.62
991.224	0.38
991.949	0.38
992.674	0.38
993.399	-1.62
994.124	0.38
994.849	-0.62
995.574	1.38
996.299	0.38
997.024	-0.62
997.749	-0.62
998.473	-0.62
999.198	0.38
999.922	0.38
1000.647	0.38
1001.371	3.38
1002.095	-0.62
1002.82	-0.62
1003.544	-2.62
1004.268	1.38
1004.992	-3.62
1005.716	-0.62
1006.439	2.38
1007.163	4.38
1007.887	3.38
1008.611	2.38
1009.334	0.38
1010.058	0.38
1010.781	-0.62
1011.504	-0.62
1012.228	1.38
1012.951	1.38
1013.674	-0.62
1014.397	0.38
1015.12	-0.62
