节点500_285_QEPB04081__727__15-07-38-816.txt的数据

Date: Wed Nov 12 15:07:38 CST 2025
User: PC
Spectrometer: QEPB0408
触发模式: 0
积分时间 (秒): 1.000000E-2
Scans to average: 1
启用暗噪声校正: true
启用非线性校正: false
滑动平均宽度: 0
X轴模式: Wavelengths
Number of Pixels in Spectrum: 1044
>>>>>Begin Spectral Data<<<<<
220.843	2.12
221.644	4.12
222.444	3.12
223.244	2.12
224.045	1.12
224.845	3.12
225.645	4.12
226.445	5.12
227.245	7.12
228.045	3.12
228.845	4.12
229.645	2.12
230.444	3.12
231.244	4.12
232.043	5.12
232.843	4.12
233.642	4.12
234.442	5.12
235.241	6.12
236.04	6.12
236.839	3.12
237.638	4.12
238.437	7.12
239.236	5.12
240.035	4.12
240.833	5.12
241.632	3.12
242.43	5.12
243.229	6.12
244.027	7.12
244.826	4.12
245.624	6.12
246.422	5.12
247.22	7.12
248.018	5.12
248.816	8.12
249.614	6.12
250.412	6.12
251.21	7.12
252.007	7.12
252.805	6.12
253.602	9.12
254.4	8.12
255.197	10.12
255.994	8.12
256.791	9.12
257.589	8.12
258.386	8.12
259.183	10.12
259.979	9.12
260.776	9.12
261.573	8.12
262.37	11.12
263.166	11.12
263.963	12.12
264.759	12.12
265.556	10.12
266.352	14.12
267.148	12.12
267.944	14.12
268.74	10.12
269.536	13.12
270.332	14.12
271.128	16.12
271.924	13.12
272.719	13.12
273.515	15.12
274.311	17.12
275.106	14.12
275.901	19.12
276.697	18.12
277.492	18.12
278.287	17.12
279.082	18.12
279.877	16.12
280.672	19.12
281.467	19.12
282.262	18.12
283.056	17.12
283.851	17.12
284.646	19.12
285.44	16.12
286.234	17.12
287.029	17.12
287.823	22.12
288.617	18.12
289.411	17.12
290.205	19.12
290.999	18.12
291.793	17.12
292.587	17.12
293.381	17.12
294.174	19.12
294.968	17.12
295.761	17.12
296.555	17.12
297.348	16.12
298.141	14.12
298.935	18.12
299.728	16.12
300.521	15.12
301.314	17.12
302.107	13.12
302.899	14.12
303.692	12.12
304.485	15.12
305.277	14.12
306.07	14.12
306.862	15.12
307.655	12.12
308.447	15.12
309.239	13.12
310.031	13.12
310.823	13.12
311.615	10.12
312.407	10.12
313.199	12.12
313.991	11.12
314.783	10.12
315.574	13.12
316.366	11.12
317.157	9.12
317.949	9.12
318.74	11.12
319.531	9.12
320.322	8.12
321.113	10.12
321.904	10.12
322.695	11.12
323.486	10.12
324.277	7.12
325.068	12.12
325.858	9.12
326.649	8.12
327.439	9.12
328.23	9.12
329.02	7.12
329.81	8.12
330.6	7.12
331.391	5.12
332.181	6.12
332.971	6.12
333.76	7.12
334.55	9.12
335.34	8.12
336.13	8.12
336.919	8.12
337.709	10.12
338.498	9.12
339.287	7.12
340.077	7.12
340.866	7.12
341.655	6.12
342.444	4.12
343.233	5.12
344.022	10.12
344.811	6.12
345.6	6.12
346.388	6.12
347.177	7.12
347.965	8.12
348.754	7.12
349.542	6.12
350.33	7.12
351.119	8.12
351.907	7.12
352.695	7.12
353.483	6.12
354.271	9.12
355.059	7.12
355.846	5.12
356.634	6.12
357.422	8.12
358.209	6.12
358.997	6.12
359.784	6.12
360.571	6.12
361.359	8.12
362.146	6.12
362.933	9.12
363.72	5.12
364.507	7.12
365.294	6.12
366.081	6.12
366.867	4.12
367.654	4.12
368.44	6.12
369.227	5.12
370.013	7.12
370.8	6.12
371.586	8.12
372.372	7.12
373.158	5.12
373.944	6.12
374.73	6.12
375.516	5.12
376.302	6.12
377.088	6.12
377.873	6.12
378.659	6.12
379.445	8.12
380.23	6.12
381.015	8.12
381.801	7.12
382.586	5.12
383.371	4.12
384.156	6.12
384.941	8.12
385.726	6.12
386.511	8.12
387.296	8.12
388.08	9.12
388.865	8.12
389.649	4.12
390.434	8.12
391.218	7.12
392.003	6.12
392.787	7.12
393.571	7.12
394.355	5.12
395.139	8.12
395.923	7.12
396.707	10.12
397.491	7.12
398.274	7.12
399.058	9.12
399.842	8.12
400.625	8.12
401.408	9.12
402.192	9.12
402.975	9.12
403.758	10.12
404.541	10.12
405.324	8.12
406.107	8.12
406.89	9.12
407.673	8.12
408.456	10.12
409.238	10.12
410.021	8.12
410.803	9.12
411.586	9.12
412.368	8.12
413.151	8.12
413.933	11.12
414.715	9.12
415.497	8.12
416.279	5.12
417.061	11.12
417.843	9.12
418.624	10.12
419.406	10.12
420.188	12.12
420.969	10.12
421.751	12.12
422.532	14.12
423.313	10.12
424.095	13.12
424.876	12.12
425.657	14.12
426.438	14.12
427.219	13.12
428	15.12
428.78	14.12
429.561	14.12
430.342	14.12
431.122	18.12
431.903	16.12
432.683	16.12
433.464	15.12
434.244	18.12
435.024	17.12
435.804	17.12
436.584	18.12
437.364	22.12
438.144	21.12
438.924	21.12
439.704	18.12
440.483	21.12
441.263	27.12
442.042	26.12
442.822	29.12
443.601	27.12
444.38	31.12
445.16	34.12
445.939	36.12
446.718	41.12
447.497	42.12
448.276	44.12
449.054	49.12
449.833	54.12
450.612	57.12
451.391	62.12
452.169	70.12
452.948	78.12
453.726	83.12
454.504	91.12
455.282	103.12
456.061	110.12
456.839	122.12
457.617	139.12
458.395	152.12
459.172	167.12
459.95	187.12
460.728	210.12
461.506	231.12
462.283	258.12
463.061	290.12
463.838	321.12
464.615	353.12
465.393	388.12
466.17	447.12
466.947	490.12
467.724	539.12
468.501	593.12
469.278	657.12
470.055	731.12
470.831	813.12
471.608	912.12
472.385	992.12
473.161	1102.12
473.938	1198.12
474.714	1331.12
475.49	1462.12
476.266	1611.12
477.043	1766.12
477.819	1941.12
478.595	2129.12
479.371	2340.12
480.146	2557.12
480.922	2783.12
481.698	3047.12
482.473	3344.12
483.249	3652.12
484.024	3988.12
484.8	4366.12
485.575	4786.12
486.35	5190.12
487.126	5691.12
487.901	6171.12
488.676	6715.12
489.451	7321.12
490.225	7947.12
491	8619.12
491.775	9383.12
492.55	10090.12
493.324	10965.12
494.099	11762.12
494.873	12613.12
495.647	13631.12
496.422	14613.12
497.196	15558.12
497.97	16692.12
498.744	17728.12
499.518	18722.12
500.292	19823.12
501.066	20784.12
501.839	21710.12
502.613	22590.12
503.387	23435.12
504.16	24170.12
504.934	24626.12
505.707	24945.12
506.48	25211.12
507.253	25276.12
508.027	25336.12
508.8	25254.12
509.573	25039.12
510.346	24735.12
511.118	24127.12
511.891	23653.12
512.664	22935.12
513.437	22274.12
514.209	21490.12
514.982	20768.12
515.754	19900.12
516.526	19123.12
517.298	18339.12
518.071	17566.12
518.843	16907.12
519.615	16277.12
520.387	15626.12
521.159	15014.12
521.93	14460.12
522.702	13847.12
523.474	13267.12
524.245	12683.12
525.017	12180.12
525.788	11710.12
526.56	11223.12
527.331	10698.12
528.102	10224.12
528.873	9797.12
529.644	9383.12
530.415	8924.12
531.186	8512.12
531.957	8074.12
532.728	7708.12
533.498	7288.12
534.269	6932.12
535.039	6570.12
535.81	6195.12
536.58	5865.12
537.351	5537.12
538.121	5210.12
538.891	4957.12
539.661	4711.12
540.431	4441.12
541.201	4195.12
541.971	3955.12
542.741	3761.12
543.51	3571.12
544.28	3391.12
545.05	3245.12
545.819	3061.12
546.588	2946.12
547.358	2787.12
548.127	2633.12
548.896	2532.12
549.665	2384.12
550.434	2271.12
551.203	2134.12
551.972	2035.12
552.741	1922.12
553.51	1834.12
554.278	1713.12
555.047	1634.12
555.815	1533.12
556.584	1462.12
557.352	1366.12
558.121	1297.12
558.889	1236.12
559.657	1170.12
560.425	1094.12
561.193	1036.12
561.961	978.12
562.729	923.12
563.496	876.12
564.264	832.12
565.032	793.12
565.799	747.12
566.567	701.12
567.334	661.12
568.101	617.12
568.869	586.12
569.636	553.12
570.403	517.12
571.17	491.12
571.937	463.12
572.704	433.12
573.471	418.12
574.237	397.12
575.004	374.12
575.771	350.12
576.537	326.12
577.303	309.12
578.07	297.12
578.836	268.12
579.602	260.12
580.368	243.12
581.134	235.12
581.9	220.12
582.666	212.12
583.432	195.12
584.198	186.12
584.964	175.12
585.729	168.12
586.495	164.12
587.26	154.12
588.025	141.12
588.791	136.12
589.556	129.12
590.321	121.12
591.086	111.12
591.851	111.12
592.616	105.12
593.381	102.12
594.146	96.12
594.911	84.12
595.675	90.12
596.44	78.12
597.204	77.12
597.969	79.12
598.733	72.12
599.497	69.12
600.261	68.12
601.025	59.12
601.79	58.12
602.553	55.12
603.317	56.12
604.081	53.12
604.845	49.12
605.609	47.12
606.372	46.12
607.136	44.12
607.899	43.12
608.662	41.12
609.426	38.12
610.189	40.12
610.952	36.12
611.715	34.12
612.478	32.12
613.241	32.12
614.004	31.12
614.767	26.12
615.529	27.12
616.292	28.12
617.055	26.12
617.817	27.12
618.579	24.12
619.342	22.12
620.104	24.12
620.866	22.12
621.628	24.12
622.39	18.12
623.152	20.12
623.914	20.12
624.676	20.12
625.438	19.12
626.199	18.12
626.961	19.12
627.722	16.12
628.484	15.12
629.245	15.12
630.006	16.12
630.768	13.12
631.529	14.12
632.29	14.12
633.051	15.12
633.812	15.12
634.573	14.12
635.333	14.12
636.094	12.12
636.855	13.12
637.615	13.12
638.376	10.12
639.136	14.12
639.896	14.12
640.657	11.12
641.417	9.12
642.177	10.12
642.937	12.12
643.697	9.12
644.457	10.12
645.216	9.12
645.976	12.12
646.736	9.12
647.495	7.12
648.255	10.12
649.014	10.12
649.774	8.12
650.533	8.12
651.292	6.12
652.051	7.12
652.81	6.12
653.569	9.12
654.328	8.12
655.087	7.12
655.846	8.12
656.604	5.12
657.363	7.12
658.121	6.12
658.88	7.12
659.638	4.12
660.397	5.12
661.155	6.12
661.913	4.12
662.671	7.12
663.429	5.12
664.187	5.12
664.945	8.12
665.703	6.12
666.46	8.12
667.218	6.12
667.976	7.12
668.733	6.12
669.49	7.12
670.248	6.12
671.005	3.12
671.762	5.12
672.519	2.12
673.276	8.12
674.033	8.12
674.79	6.12
675.547	6.12
676.304	5.12
677.06	7.12
677.817	6.12
678.574	7.12
679.33	3.12
680.086	7.12
680.843	4.12
681.599	3.12
682.355	4.12
683.111	5.12
683.867	6.12
684.623	5.12
685.379	6.12
686.135	6.12
686.89	5.12
687.646	6.12
688.402	5.12
689.157	6.12
689.912	4.12
690.668	4.12
691.423	6.12
692.178	4.12
692.933	4.12
693.688	3.12
694.443	5.12
695.198	5.12
695.953	5.12
696.708	6.12
697.462	3.12
698.217	5.12
698.972	4.12
699.726	4.12
700.48	4.12
701.235	3.12
701.989	2.12
702.743	5.12
703.497	4.12
704.251	7.12
705.005	6.12
705.759	5.12
706.513	4.12
707.266	6.12
708.02	6.12
708.774	6.12
709.527	6.12
710.28	3.12
711.034	6.12
711.787	5.12
712.54	7.12
713.293	6.12
714.046	7.12
714.799	3.12
715.552	4.12
716.305	6.12
717.058	6.12
717.81	6.12
718.563	4.12
719.315	6.12
720.068	4.12
720.82	4.12
721.573	4.12
722.325	5.12
723.077	5.12
723.829	5.12
724.581	3.12
725.333	3.12
726.085	4.12
726.836	7.12
727.588	3.12
728.34	4.12
729.091	5.12
729.843	5.12
730.594	3.12
731.346	7.12
732.097	5.12
732.848	4.12
733.599	5.12
734.35	6.12
735.101	5.12
735.852	5.12
736.603	4.12
737.354	6.12
738.104	4.12
738.855	5.12
739.605	7.12
740.356	4.12
741.106	5.12
741.856	6.12
742.607	5.12
743.357	5.12
744.107	5.12
744.857	9.12
745.607	7.12
746.357	7.12
747.106	6.12
747.856	6.12
748.606	6.12
749.355	7.12
750.105	8.12
750.854	7.12
751.603	7.12
752.353	6.12
753.102	6.12
753.851	6.12
754.6	6.12
755.349	7.12
756.098	6.12
756.847	7.12
757.595	7.12
758.344	7.12
759.093	7.12
759.841	5.12
760.589	6.12
761.338	9.12
762.086	8.12
762.834	7.12
763.582	6.12
764.331	8.12
765.079	6.12
765.826	8.12
766.574	9.12
767.322	6.12
768.07	9.12
768.817	7.12
769.565	8.12
770.312	10.12
771.06	9.12
771.807	6.12
772.554	8.12
773.302	8.12
774.049	7.12
774.796	8.12
775.543	5.12
776.29	8.12
777.036	7.12
777.783	10.12
778.53	9.12
779.276	10.12
780.023	10.12
780.769	9.12
781.516	9.12
782.262	7.12
783.008	8.12
783.754	10.12
784.5	8.12
785.246	8.12
785.992	11.12
786.738	10.12
787.484	7.12
788.23	10.12
788.975	9.12
789.721	9.12
790.466	12.12
791.212	10.12
791.957	10.12
792.702	10.12
793.447	7.12
794.193	10.12
794.938	8.12
795.683	8.12
796.427	8.12
797.172	10.12
797.917	7.12
798.662	7.12
799.406	8.12
800.151	11.12
800.895	7.12
801.64	8.12
802.384	7.12
803.128	8.12
803.872	7.12
804.616	7.12
805.36	8.12
806.104	8.12
806.848	8.12
807.592	5.12
808.336	5.12
809.079	7.12
809.823	6.12
810.566	7.12
811.31	6.12
812.053	6.12
812.796	6.12
813.539	9.12
814.283	6.12
815.026	6.12
815.769	6.12
816.511	4.12
817.254	8.12
817.997	5.12
818.74	8.12
819.482	4.12
820.225	6.12
820.967	6.12
821.71	6.12
822.452	6.12
823.194	3.12
823.936	8.12
824.678	4.12
825.42	3.12
826.162	5.12
826.904	4.12
827.646	5.12
828.388	6.12
829.129	4.12
829.871	3.12
830.612	2.12
831.354	5.12
832.095	4.12
832.836	5.12
833.577	5.12
834.319	4.12
835.06	3.12
835.801	4.12
836.542	3.12
837.282	4.12
838.023	4.12
838.764	5.12
839.504	4.12
840.245	3.12
840.985	4.12
841.726	4.12
842.466	4.12
843.206	5.12
843.946	3.12
844.687	4.12
845.427	5.12
846.166	5.12
846.906	5.12
847.646	3.12
848.386	3.12
849.125	6.12
849.865	4.12
850.605	7.12
851.344	2.12
852.083	4.12
852.823	4.12
853.562	3.12
854.301	6.12
855.04	1.12
855.779	3.12
856.518	3.12
857.257	2.12
857.995	7.12
858.734	2.12
859.473	3.12
860.211	3.12
860.95	2.12
861.688	5.12
862.426	2.12
863.165	3.12
863.903	4.12
864.641	3.12
865.379	2.12
866.117	6.12
866.855	4.12
867.593	4.12
868.33	2.12
869.068	2.12
869.806	3.12
870.543	4.12
871.28	2.12
872.018	2.12
872.755	3.12
873.492	3.12
874.229	3.12
874.967	2.12
875.703	1.12
876.44	2.12
877.177	3.12
877.914	3.12
878.651	3.12
879.387	2.12
880.124	1.12
880.86	2.12
881.597	4.12
882.333	3.12
883.069	1.12
883.806	2.12
884.542	3.12
885.278	2.12
886.014	3.12
886.749	1.12
887.485	5.12
888.221	1.12
888.957	1.12
889.692	1.12
890.428	2.12
891.163	3.12
891.899	2.12
892.634	1.12
893.369	1.12
894.104	0.12
894.839	1.12
895.574	2.12
896.309	2.12
897.044	3.12
897.779	2.12
898.514	2.12
899.248	5.12
899.983	3.12
900.717	3.12
901.452	3.12
902.186	1.12
902.92	2.12
903.654	0.12
904.389	1.12
905.123	3.12
905.857	2.12
906.59	5.12
907.324	1.12
908.058	2.12
908.792	2.12
909.525	2.12
910.259	2.12
910.992	2.12
911.726	0.12
912.459	2.12
913.192	2.12
913.925	2.12
914.658	2.12
915.391	4.12
916.124	2.12
916.857	3.12
917.59	3.12
918.323	3.12
919.055	0.12
919.788	5.12
920.521	2.12
921.253	1.12
921.985	0.12
922.718	2.12
923.45	0.12
924.182	0.12
924.914	0.12
925.646	2.12
926.378	0.12
927.11	1.12
927.841	0.12
928.573	2.12
929.305	2.12
930.036	1.12
930.768	2.12
931.499	0.12
932.23	3.12
932.962	0.12
933.693	0.12
934.424	1.12
935.155	-0.88
935.886	3.12
936.617	3.12
937.348	0.12
938.078	2.12
938.809	2.12
939.54	2.12
940.27	3.12
941.001	3.12
941.731	-0.88
942.461	2.12
943.191	1.12
943.922	0.12
944.652	2.12
945.382	1.12
946.112	2.12
946.841	-0.88
947.571	1.12
948.301	1.12
949.031	2.12
949.76	0.12
950.49	3.12
951.219	1.12
951.948	0.12
952.678	1.12
953.407	1.12
954.136	0.12
954.865	1.12
955.594	2.12
956.323	4.12
957.052	2.12
957.78	2.12
958.509	0.12
959.238	-0.88
959.966	1.12
960.695	0.12
961.423	3.12
962.151	1.12
962.88	0.12
963.608	3.12
964.336	2.12
965.064	0.12
965.792	0.12
966.52	1.12
967.247	2.12
967.975	4.12
968.703	3.12
969.43	-1.88
970.158	1.12
970.885	3.12
971.613	3.12
972.34	2.12
973.067	1.12
973.794	1.12
974.521	1.12
975.248	1.12
975.975	4.12
976.702	2.12
977.429	0.12
978.156	0.12
978.882	1.12
979.609	0.12
980.335	3.12
981.062	2.12
981.788	2.12
982.514	2.12
983.24	2.12
983.967	1.12
984.693	-0.88
985.419	2.12
986.144	0.12
986.87	2.12
987.596	1.12
988.322	1.12
989.047	2.12
989.773	0.12
990.498	2.12
991.224	0.12
991.949	1.12
992.674	2.12
993.399	2.12
994.124	2.12
994.849	2.12
995.574	2.12
996.299	2.12
997.024	-0.88
997.749	0.12
998.473	-0.88
999.198	2.12
999.922	-0.88
1000.647	4.12
1001.371	4.12
1002.095	-0.88
1002.82	-0.88
1003.544	-0.88
1004.268	5.12
1004.992	1.12
1005.716	3.12
1006.439	2.12
1007.163	3.12
1007.887	5.12
1008.611	0.12
1009.334	0.12
1010.058	4.12
1010.781	0.12
1011.504	4.12
1012.228	1.12
1012.951	-0.88
1013.674	1.12
1014.397	-0.88
1015.12	-0.88
