节点500_285_QEPB04081__387__15-01-59-652.txt的数据

Date: Wed Nov 12 15:01:59 CST 2025
User: PC
Spectrometer: QEPB0408
触发模式: 0
积分时间 (秒): 1.000000E-2
Scans to average: 1
启用暗噪声校正: true
启用非线性校正: false
滑动平均宽度: 0
X轴模式: Wavelengths
Number of Pixels in Spectrum: 1044
>>>>>Begin Spectral Data<<<<<
220.843	2.25
221.644	2.25
222.444	4.25
223.244	2.25
224.045	1.25
224.845	3.25
225.645	1.25
226.445	5.25
227.245	2.25
228.045	2.25
228.845	3.25
229.645	3.25
230.444	4.25
231.244	2.25
232.043	2.25
232.843	3.25
233.642	3.25
234.442	4.25
235.241	3.25
236.04	5.25
236.839	4.25
237.638	3.25
238.437	6.25
239.236	4.25
240.035	2.25
240.833	4.25
241.632	4.25
242.43	6.25
243.229	4.25
244.027	5.25
244.826	4.25
245.624	6.25
246.422	5.25
247.22	4.25
248.018	8.25
248.816	6.25
249.614	6.25
250.412	7.25
251.21	4.25
252.007	7.25
252.805	8.25
253.602	8.25
254.4	5.25
255.197	8.25
255.994	5.25
256.791	10.25
257.589	9.25
258.386	14.25
259.183	10.25
259.979	9.25
260.776	9.25
261.573	10.25
262.37	12.25
263.166	10.25
263.963	11.25
264.759	15.25
265.556	10.25
266.352	12.25
267.148	13.25
267.944	13.25
268.74	14.25
269.536	14.25
270.332	14.25
271.128	16.25
271.924	17.25
272.719	17.25
273.515	15.25
274.311	17.25
275.106	14.25
275.901	20.25
276.697	18.25
277.492	16.25
278.287	17.25
279.082	15.25
279.877	16.25
280.672	19.25
281.467	19.25
282.262	17.25
283.056	18.25
283.851	20.25
284.646	19.25
285.44	20.25
286.234	17.25
287.029	18.25
287.823	19.25
288.617	18.25
289.411	18.25
290.205	17.25
290.999	20.25
291.793	17.25
292.587	18.25
293.381	16.25
294.174	16.25
294.968	17.25
295.761	16.25
296.555	18.25
297.348	14.25
298.141	16.25
298.935	18.25
299.728	17.25
300.521	14.25
301.314	18.25
302.107	15.25
302.899	14.25
303.692	12.25
304.485	13.25
305.277	12.25
306.07	14.25
306.862	10.25
307.655	12.25
308.447	13.25
309.239	9.25
310.031	13.25
310.823	12.25
311.615	10.25
312.407	10.25
313.199	10.25
313.991	11.25
314.783	8.25
315.574	9.25
316.366	8.25
317.157	10.25
317.949	7.25
318.74	9.25
319.531	8.25
320.322	9.25
321.113	8.25
321.904	7.25
322.695	8.25
323.486	7.25
324.277	7.25
325.068	8.25
325.858	8.25
326.649	8.25
327.439	6.25
328.23	7.25
329.02	6.25
329.81	7.25
330.6	8.25
331.391	7.25
332.181	9.25
332.971	6.25
333.76	6.25
334.55	8.25
335.34	6.25
336.13	9.25
336.919	8.25
337.709	8.25
338.498	5.25
339.287	5.25
340.077	6.25
340.866	7.25
341.655	5.25
342.444	7.25
343.233	6.25
344.022	7.25
344.811	4.25
345.6	11.25
346.388	6.25
347.177	7.25
347.965	5.25
348.754	7.25
349.542	6.25
350.33	7.25
351.119	6.25
351.907	6.25
352.695	4.25
353.483	6.25
354.271	4.25
355.059	5.25
355.846	4.25
356.634	7.25
357.422	7.25
358.209	6.25
358.997	4.25
359.784	7.25
360.571	6.25
361.359	7.25
362.146	6.25
362.933	6.25
363.72	6.25
364.507	7.25
365.294	7.25
366.081	5.25
366.867	6.25
367.654	6.25
368.44	6.25
369.227	4.25
370.013	7.25
370.8	5.25
371.586	6.25
372.372	6.25
373.158	3.25
373.944	6.25
374.73	4.25
375.516	8.25
376.302	6.25
377.088	4.25
377.873	5.25
378.659	7.25
379.445	6.25
380.23	4.25
381.015	8.25
381.801	7.25
382.586	5.25
383.371	4.25
384.156	6.25
384.941	8.25
385.726	5.25
386.511	5.25
387.296	6.25
388.08	3.25
388.865	6.25
389.649	5.25
390.434	6.25
391.218	7.25
392.003	6.25
392.787	7.25
393.571	9.25
394.355	8.25
395.139	5.25
395.923	9.25
396.707	10.25
397.491	7.25
398.274	6.25
399.058	6.25
399.842	9.25
400.625	6.25
401.408	7.25
402.192	7.25
402.975	7.25
403.758	8.25
404.541	4.25
405.324	8.25
406.107	9.25
406.89	10.25
407.673	9.25
408.456	6.25
409.238	8.25
410.021	10.25
410.803	9.25
411.586	9.25
412.368	7.25
413.151	10.25
413.933	10.25
414.715	8.25
415.497	10.25
416.279	8.25
417.061	12.25
417.843	13.25
418.624	8.25
419.406	11.25
420.188	10.25
420.969	12.25
421.751	11.25
422.532	12.25
423.313	12.25
424.095	12.25
424.876	14.25
425.657	11.25
426.438	14.25
427.219	12.25
428	13.25
428.78	13.25
429.561	13.25
430.342	14.25
431.122	14.25
431.903	14.25
432.683	13.25
433.464	15.25
434.244	15.25
435.024	19.25
435.804	16.25
436.584	19.25
437.364	18.25
438.144	18.25
438.924	21.25
439.704	23.25
440.483	21.25
441.263	24.25
442.042	25.25
442.822	25.25
443.601	29.25
444.38	28.25
445.16	30.25
445.939	35.25
446.718	35.25
447.497	41.25
448.276	43.25
449.054	45.25
449.833	48.25
450.612	54.25
451.391	61.25
452.169	63.25
452.948	70.25
453.726	76.25
454.504	82.25
455.282	87.25
456.061	104.25
456.839	110.25
457.617	128.25
458.395	135.25
459.172	150.25
459.95	168.25
460.728	190.25
461.506	207.25
462.283	234.25
463.061	264.25
463.838	290.25
464.615	334.25
465.393	370.25
466.17	410.25
466.947	451.25
467.724	509.25
468.501	568.25
469.278	621.25
470.055	693.25
470.831	767.25
471.608	865.25
472.385	943.25
473.161	1052.25
473.938	1158.25
474.714	1299.25
475.49	1432.25
476.266	1587.25
477.043	1743.25
477.819	1924.25
478.595	2149.25
479.371	2347.25
480.146	2596.25
480.922	2853.25
481.698	3153.25
482.473	3448.25
483.249	3834.25
484.024	4168.25
484.8	4610.25
485.575	5052.25
486.35	5511.25
487.126	6080.25
487.901	6673.25
488.676	7286.25
489.451	7943.25
490.225	8710.25
491	9501.25
491.775	10415.25
492.55	11332.25
493.324	12344.25
494.099	13177.25
494.873	14227.25
495.647	15323.25
496.422	16473.25
497.196	17625.25
497.97	18841.25
498.744	20025.25
499.518	21158.25
500.292	22241.25
501.066	23342.25
501.839	24361.25
502.613	25249.25
503.387	26042.25
504.16	26633.25
504.934	26978.25
505.707	27211.25
506.48	27310.25
507.253	27254.25
508.027	26971.25
508.8	26645.25
509.573	26372.25
510.346	25720.25
511.118	24913.25
511.891	24184.25
512.664	23373.25
513.437	22484.25
514.209	21506.25
514.982	20710.25
515.754	19763.25
516.526	18957.25
517.298	18135.25
518.071	17382.25
518.843	16669.25
519.615	16040.25
520.387	15383.25
521.159	14740.25
521.93	14167.25
522.702	13572.25
523.474	13038.25
524.245	12506.25
525.017	11946.25
525.788	11555.25
526.56	11029.25
527.331	10505.25
528.102	10024.25
528.873	9531.25
529.644	9074.25
530.415	8632.25
531.186	8190.25
531.957	7787.25
532.728	7385.25
533.498	7010.25
534.269	6612.25
535.039	6236.25
535.81	5921.25
536.58	5606.25
537.351	5234.25
538.121	4980.25
538.891	4699.25
539.661	4425.25
540.431	4200.25
541.201	3973.25
541.971	3749.25
542.741	3565.25
543.51	3388.25
544.28	3223.25
545.05	3073.25
545.819	2905.25
546.588	2770.25
547.358	2634.25
548.127	2515.25
548.896	2364.25
549.665	2258.25
550.434	2149.25
551.203	2016.25
551.972	1904.25
552.741	1790.25
553.51	1719.25
554.278	1638.25
555.047	1518.25
555.815	1442.25
556.584	1362.25
557.352	1280.25
558.121	1210.25
558.889	1144.25
559.657	1077.25
560.425	1014.25
561.193	965.25
561.961	915.25
562.729	858.25
563.496	811.25
564.264	764.25
565.032	722.25
565.799	694.25
566.567	649.25
567.334	609.25
568.101	575.25
568.869	547.25
569.636	510.25
570.403	483.25
571.17	456.25
571.937	433.25
572.704	411.25
573.471	381.25
574.237	368.25
575.004	345.25
575.771	316.25
576.537	299.25
577.303	287.25
578.07	270.25
578.836	256.25
579.602	242.25
580.368	226.25
581.134	210.25
581.9	199.25
582.666	197.25
583.432	180.25
584.198	167.25
584.964	162.25
585.729	156.25
586.495	151.25
587.26	139.25
588.025	134.25
588.791	121.25
589.556	118.25
590.321	117.25
591.086	108.25
591.851	103.25
592.616	99.25
593.381	90.25
594.146	89.25
594.911	85.25
595.675	79.25
596.44	72.25
597.204	69.25
597.969	68.25
598.733	66.25
599.497	63.25
600.261	62.25
601.025	57.25
601.79	55.25
602.553	51.25
603.317	49.25
604.081	48.25
604.845	44.25
605.609	47.25
606.372	45.25
607.136	40.25
607.899	40.25
608.662	41.25
609.426	36.25
610.189	33.25
610.952	34.25
611.715	33.25
612.478	31.25
613.241	29.25
614.004	25.25
614.767	26.25
615.529	29.25
616.292	26.25
617.055	25.25
617.817	22.25
618.579	24.25
619.342	23.25
620.104	21.25
620.866	21.25
621.628	21.25
622.39	17.25
623.152	18.25
623.914	17.25
624.676	18.25
625.438	17.25
626.199	17.25
626.961	17.25
627.722	14.25
628.484	16.25
629.245	15.25
630.006	16.25
630.768	15.25
631.529	14.25
632.29	14.25
633.051	13.25
633.812	12.25
634.573	11.25
635.333	12.25
636.094	11.25
636.855	10.25
637.615	10.25
638.376	10.25
639.136	11.25
639.896	12.25
640.657	8.25
641.417	10.25
642.177	9.25
642.937	9.25
643.697	5.25
644.457	7.25
645.216	6.25
645.976	8.25
646.736	8.25
647.495	8.25
648.255	8.25
649.014	7.25
649.774	8.25
650.533	8.25
651.292	6.25
652.051	6.25
652.81	4.25
653.569	7.25
654.328	6.25
655.087	5.25
655.846	7.25
656.604	6.25
657.363	6.25
658.121	6.25
658.88	6.25
659.638	5.25
660.397	7.25
661.155	4.25
661.913	6.25
662.671	8.25
663.429	5.25
664.187	6.25
664.945	5.25
665.703	3.25
666.46	5.25
667.218	3.25
667.976	5.25
668.733	4.25
669.49	7.25
670.248	6.25
671.005	4.25
671.762	6.25
672.519	3.25
673.276	6.25
674.033	2.25
674.79	5.25
675.547	5.25
676.304	5.25
677.06	7.25
677.817	2.25
678.574	3.25
679.33	3.25
680.086	5.25
680.843	4.25
681.599	5.25
682.355	4.25
683.111	5.25
683.867	3.25
684.623	5.25
685.379	4.25
686.135	2.25
686.89	3.25
687.646	5.25
688.402	5.25
689.157	2.25
689.912	4.25
690.668	3.25
691.423	3.25
692.178	4.25
692.933	4.25
693.688	4.25
694.443	3.25
695.198	3.25
695.953	2.25
696.708	5.25
697.462	6.25
698.217	4.25
698.972	4.25
699.726	3.25
700.48	3.25
701.235	2.25
701.989	4.25
702.743	2.25
703.497	2.25
704.251	3.25
705.005	2.25
705.759	3.25
706.513	5.25
707.266	2.25
708.02	3.25
708.774	4.25
709.527	4.25
710.28	3.25
711.034	4.25
711.787	5.25
712.54	3.25
713.293	4.25
714.046	4.25
714.799	5.25
715.552	3.25
716.305	7.25
717.058	4.25
717.81	3.25
718.563	4.25
719.315	3.25
720.068	5.25
720.82	4.25
721.573	4.25
722.325	2.25
723.077	6.25
723.829	2.25
724.581	2.25
725.333	4.25
726.085	5.25
726.836	4.25
727.588	4.25
728.34	5.25
729.091	4.25
729.843	4.25
730.594	6.25
731.346	4.25
732.097	4.25
732.848	4.25
733.599	3.25
734.35	6.25
735.101	2.25
735.852	6.25
736.603	7.25
737.354	4.25
738.104	6.25
738.855	5.25
739.605	4.25
740.356	4.25
741.106	4.25
741.856	4.25
742.607	6.25
743.357	5.25
744.107	2.25
744.857	5.25
745.607	3.25
746.357	6.25
747.106	5.25
747.856	6.25
748.606	4.25
749.355	4.25
750.105	9.25
750.854	5.25
751.603	4.25
752.353	6.25
753.102	5.25
753.851	6.25
754.6	6.25
755.349	4.25
756.098	7.25
756.847	5.25
757.595	9.25
758.344	6.25
759.093	7.25
759.841	8.25
760.589	5.25
761.338	7.25
762.086	6.25
762.834	7.25
763.582	4.25
764.331	7.25
765.079	9.25
765.826	7.25
766.574	6.25
767.322	6.25
768.07	8.25
768.817	9.25
769.565	9.25
770.312	7.25
771.06	7.25
771.807	7.25
772.554	10.25
773.302	10.25
774.049	9.25
774.796	8.25
775.543	7.25
776.29	8.25
777.036	9.25
777.783	8.25
778.53	10.25
779.276	9.25
780.023	8.25
780.769	11.25
781.516	7.25
782.262	11.25
783.008	7.25
783.754	10.25
784.5	9.25
785.246	8.25
785.992	10.25
786.738	7.25
787.484	10.25
788.23	9.25
788.975	9.25
789.721	7.25
790.466	12.25
791.212	8.25
791.957	7.25
792.702	7.25
793.447	8.25
794.193	7.25
794.938	9.25
795.683	8.25
796.427	10.25
797.172	9.25
797.917	9.25
798.662	8.25
799.406	5.25
800.151	8.25
800.895	9.25
801.64	7.25
802.384	8.25
803.128	8.25
803.872	7.25
804.616	7.25
805.36	7.25
806.104	5.25
806.848	5.25
807.592	8.25
808.336	5.25
809.079	5.25
809.823	5.25
810.566	8.25
811.31	6.25
812.053	5.25
812.796	6.25
813.539	6.25
814.283	7.25
815.026	3.25
815.769	6.25
816.511	5.25
817.254	5.25
817.997	3.25
818.74	6.25
819.482	7.25
820.225	4.25
820.967	6.25
821.71	3.25
822.452	6.25
823.194	4.25
823.936	6.25
824.678	7.25
825.42	6.25
826.162	4.25
826.904	6.25
827.646	4.25
828.388	5.25
829.129	5.25
829.871	3.25
830.612	7.25
831.354	4.25
832.095	4.25
832.836	3.25
833.577	4.25
834.319	4.25
835.06	5.25
835.801	2.25
836.542	4.25
837.282	3.25
838.023	4.25
838.764	2.25
839.504	2.25
840.245	1.25
840.985	5.25
841.726	3.25
842.466	4.25
843.206	3.25
843.946	4.25
844.687	4.25
845.427	2.25
846.166	1.25
846.906	2.25
847.646	4.25
848.386	4.25
849.125	0.25
849.865	3.25
850.605	7.25
851.344	3.25
852.083	3.25
852.823	4.25
853.562	1.25
854.301	2.25
855.04	1.25
855.779	1.25
856.518	2.25
857.257	4.25
857.995	6.25
858.734	3.25
859.473	3.25
860.211	3.25
860.95	3.25
861.688	0.25
862.426	0.25
863.165	2.25
863.903	3.25
864.641	1.25
865.379	3.25
866.117	2.25
866.855	1.25
867.593	3.25
868.33	2.25
869.068	2.25
869.806	2.25
870.543	0.25
871.28	1.25
872.018	0.25
872.755	1.25
873.492	-0.75
874.229	4.25
874.967	2.25
875.703	3.25
876.44	1.25
877.177	-0.75
877.914	1.25
878.651	2.25
879.387	2.25
880.124	2.25
880.86	0.25
881.597	0.25
882.333	2.25
883.069	0.25
883.806	1.25
884.542	3.25
885.278	2.25
886.014	0.25
886.749	2.25
887.485	2.25
888.221	0.25
888.957	2.25
889.692	1.25
890.428	1.25
891.163	-0.75
891.899	0.25
892.634	1.25
893.369	0.25
894.104	3.25
894.839	1.25
895.574	1.25
896.309	2.25
897.044	1.25
897.779	-0.75
898.514	2.25
899.248	1.25
899.983	0.25
900.717	1.25
901.452	1.25
902.186	1.25
902.92	2.25
903.654	2.25
904.389	2.25
905.123	1.25
905.857	1.25
906.59	1.25
907.324	1.25
908.058	0.25
908.792	0.25
909.525	2.25
910.259	1.25
910.992	1.25
911.726	-1.75
912.459	2.25
913.192	1.25
913.925	0.25
914.658	1.25
915.391	-0.75
916.124	2.25
916.857	0.25
917.59	1.25
918.323	1.25
919.055	-0.75
919.788	2.25
920.521	-2.75
921.253	0.25
921.985	2.25
922.718	1.25
923.45	2.25
924.182	-0.75
924.914	1.25
925.646	0.25
926.378	3.25
927.11	-1.75
927.841	1.25
928.573	0.25
929.305	-0.75
930.036	-0.75
930.768	-0.75
931.499	0.25
932.23	-1.75
932.962	1.25
933.693	-0.75
934.424	1.25
935.155	1.25
935.886	0.25
936.617	1.25
937.348	1.25
938.078	-1.75
938.809	-1.75
939.54	-0.75
940.27	1.25
941.001	-0.75
941.731	-0.75
942.461	0.25
943.191	-1.75
943.922	0.25
944.652	-0.75
945.382	0.25
946.112	0.25
946.841	-0.75
947.571	-0.75
948.301	1.25
949.031	0.25
949.76	0.25
950.49	2.25
951.219	0.25
951.948	1.25
952.678	-0.75
953.407	-1.75
954.136	-1.75
954.865	1.25
955.594	1.25
956.323	0.25
957.052	-0.75
957.78	0.25
958.509	0.25
959.238	1.25
959.966	0.25
960.695	2.25
961.423	2.25
962.151	2.25
962.88	2.25
963.608	-0.75
964.336	1.25
965.064	2.25
965.792	-0.75
966.52	2.25
967.247	2.25
967.975	-0.75
968.703	-0.75
969.43	1.25
970.158	0.25
970.885	-0.75
971.613	2.25
972.34	1.25
973.067	1.25
973.794	1.25
974.521	0.25
975.248	2.25
975.975	1.25
976.702	1.25
977.429	-0.75
978.156	0.25
978.882	3.25
979.609	-0.75
980.335	0.25
981.062	-0.75
981.788	-2.75
982.514	0.25
983.24	0.25
983.967	-0.75
984.693	0.25
985.419	2.25
986.144	-1.75
986.87	1.25
987.596	2.25
988.322	1.25
989.047	2.25
989.773	-0.75
990.498	1.25
991.224	1.25
991.949	2.25
992.674	1.25
993.399	1.25
994.124	-1.75
994.849	-0.75
995.574	0.25
996.299	3.25
997.024	0.25
997.749	2.25
998.473	0.25
999.198	2.25
999.922	-0.75
1000.647	1.25
1001.371	5.25
1002.095	-0.75
1002.82	-2.75
1003.544	-1.75
1004.268	0.25
1004.992	3.25
1005.716	0.25
1006.439	-0.75
1007.163	2.25
1007.887	4.25
1008.611	-0.75
1009.334	0.25
1010.058	0.25
1010.781	1.25
1011.504	0.25
1012.228	-0.75
1012.951	-0.75
1013.674	0.25
1014.397	1.25
1015.12	-0.75
