节点500_285_QEPB04081__268__15-00-00-854.txt的数据

Date: Wed Nov 12 15:00:00 CST 2025
User: PC
Spectrometer: QEPB0408
触发模式: 0
积分时间 (秒): 1.000000E-2
Scans to average: 1
启用暗噪声校正: true
启用非线性校正: false
滑动平均宽度: 0
X轴模式: Wavelengths
Number of Pixels in Spectrum: 1044
>>>>>Begin Spectral Data<<<<<
220.843	1.88
221.644	1.88
222.444	0.88
223.244	1.88
224.045	2.88
224.845	2.88
225.645	0.88
226.445	0.88
227.245	1.88
228.045	2.88
228.845	4.88
229.645	3.88
230.444	4.88
231.244	1.88
232.043	4.88
232.843	3.88
233.642	2.88
234.442	4.88
235.241	4.88
236.04	3.88
236.839	3.88
237.638	1.88
238.437	3.88
239.236	2.88
240.035	4.88
240.833	5.88
241.632	1.88
242.43	4.88
243.229	4.88
244.027	6.88
244.826	4.88
245.624	4.88
246.422	4.88
247.22	3.88
248.018	9.88
248.816	6.88
249.614	8.88
250.412	6.88
251.21	5.88
252.007	5.88
252.805	8.88
253.602	5.88
254.4	6.88
255.197	7.88
255.994	7.88
256.791	7.88
257.589	8.88
258.386	8.88
259.183	9.88
259.979	10.88
260.776	11.88
261.573	10.88
262.37	9.88
263.166	11.88
263.963	13.88
264.759	10.88
265.556	11.88
266.352	12.88
267.148	13.88
267.944	11.88
268.74	14.88
269.536	15.88
270.332	13.88
271.128	16.88
271.924	15.88
272.719	18.88
273.515	16.88
274.311	16.88
275.106	17.88
275.901	15.88
276.697	17.88
277.492	15.88
278.287	19.88
279.082	17.88
279.877	19.88
280.672	18.88
281.467	17.88
282.262	17.88
283.056	18.88
283.851	21.88
284.646	18.88
285.44	19.88
286.234	19.88
287.029	18.88
287.823	21.88
288.617	16.88
289.411	20.88
290.205	18.88
290.999	16.88
291.793	17.88
292.587	20.88
293.381	16.88
294.174	14.88
294.968	16.88
295.761	16.88
296.555	14.88
297.348	17.88
298.141	11.88
298.935	15.88
299.728	15.88
300.521	13.88
301.314	11.88
302.107	13.88
302.899	13.88
303.692	13.88
304.485	14.88
305.277	9.88
306.07	12.88
306.862	13.88
307.655	9.88
308.447	13.88
309.239	13.88
310.031	13.88
310.823	8.88
311.615	10.88
312.407	13.88
313.199	9.88
313.991	7.88
314.783	8.88
315.574	8.88
316.366	9.88
317.157	9.88
317.949	10.88
318.74	8.88
319.531	7.88
320.322	8.88
321.113	6.88
321.904	7.88
322.695	8.88
323.486	8.88
324.277	8.88
325.068	9.88
325.858	7.88
326.649	4.88
327.439	8.88
328.23	7.88
329.02	3.88
329.81	8.88
330.6	3.88
331.391	5.88
332.181	7.88
332.971	5.88
333.76	4.88
334.55	7.88
335.34	7.88
336.13	5.88
336.919	7.88
337.709	5.88
338.498	5.88
339.287	5.88
340.077	7.88
340.866	6.88
341.655	6.88
342.444	5.88
343.233	3.88
344.022	8.88
344.811	6.88
345.6	7.88
346.388	6.88
347.177	6.88
347.965	7.88
348.754	5.88
349.542	6.88
350.33	5.88
351.119	8.88
351.907	5.88
352.695	6.88
353.483	8.88
354.271	7.88
355.059	6.88
355.846	7.88
356.634	4.88
357.422	7.88
358.209	5.88
358.997	6.88
359.784	4.88
360.571	5.88
361.359	3.88
362.146	6.88
362.933	5.88
363.72	6.88
364.507	3.88
365.294	2.88
366.081	6.88
366.867	6.88
367.654	3.88
368.44	5.88
369.227	3.88
370.013	4.88
370.8	6.88
371.586	3.88
372.372	5.88
373.158	5.88
373.944	4.88
374.73	7.88
375.516	5.88
376.302	6.88
377.088	4.88
377.873	5.88
378.659	4.88
379.445	4.88
380.23	6.88
381.015	7.88
381.801	4.88
382.586	5.88
383.371	7.88
384.156	5.88
384.941	4.88
385.726	6.88
386.511	2.88
387.296	6.88
388.08	5.88
388.865	6.88
389.649	6.88
390.434	5.88
391.218	4.88
392.003	7.88
392.787	6.88
393.571	8.88
394.355	6.88
395.139	7.88
395.923	6.88
396.707	6.88
397.491	8.88
398.274	4.88
399.058	6.88
399.842	6.88
400.625	8.88
401.408	6.88
402.192	10.88
402.975	5.88
403.758	7.88
404.541	7.88
405.324	7.88
406.107	9.88
406.89	7.88
407.673	4.88
408.456	6.88
409.238	7.88
410.021	6.88
410.803	8.88
411.586	9.88
412.368	9.88
413.151	10.88
413.933	9.88
414.715	8.88
415.497	7.88
416.279	10.88
417.061	10.88
417.843	11.88
418.624	9.88
419.406	9.88
420.188	8.88
420.969	9.88
421.751	9.88
422.532	9.88
423.313	10.88
424.095	10.88
424.876	12.88
425.657	9.88
426.438	12.88
427.219	10.88
428	11.88
428.78	13.88
429.561	13.88
430.342	12.88
431.122	14.88
431.903	13.88
432.683	14.88
433.464	16.88
434.244	16.88
435.024	17.88
435.804	15.88
436.584	16.88
437.364	17.88
438.144	19.88
438.924	20.88
439.704	21.88
440.483	21.88
441.263	23.88
442.042	28.88
442.822	25.88
443.601	29.88
444.38	27.88
445.16	31.88
445.939	31.88
446.718	38.88
447.497	35.88
448.276	40.88
449.054	46.88
449.833	47.88
450.612	53.88
451.391	57.88
452.169	60.88
452.948	67.88
453.726	71.88
454.504	78.88
455.282	89.88
456.061	98.88
456.839	110.88
457.617	116.88
458.395	135.88
459.172	145.88
459.95	162.88
460.728	179.88
461.506	210.88
462.283	221.88
463.061	257.88
463.838	287.88
464.615	312.88
465.393	352.88
466.17	406.88
466.947	448.88
467.724	493.88
468.501	550.88
469.278	607.88
470.055	675.88
470.831	757.88
471.608	839.88
472.385	934.88
473.161	1045.88
473.938	1143.88
474.714	1289.88
475.49	1427.88
476.266	1564.88
477.043	1744.88
477.819	1921.88
478.595	2134.88
479.371	2336.88
480.146	2576.88
480.922	2865.88
481.698	3170.88
482.473	3474.88
483.249	3841.88
484.024	4237.88
484.8	4666.88
485.575	5090.88
486.35	5624.88
487.126	6170.88
487.901	6796.88
488.676	7461.88
489.451	8177.88
490.225	8991.88
491	9768.88
491.775	10706.88
492.55	11686.88
493.324	12695.88
494.099	13664.88
494.873	14668.88
495.647	15842.88
496.422	17072.88
497.196	18261.88
497.97	19451.88
498.744	20682.88
499.518	21879.88
500.292	23064.88
501.066	24073.88
501.839	25031.88
502.613	25956.88
503.387	26758.88
504.16	27299.88
504.934	27634.88
505.707	27819.88
506.48	27813.88
507.253	27656.88
508.027	27350.88
508.8	27080.88
509.573	26567.88
510.346	25863.88
511.118	25059.88
511.891	24262.88
512.664	23365.88
513.437	22480.88
514.209	21540.88
514.982	20608.88
515.754	19719.88
516.526	18855.88
517.298	18003.88
518.071	17222.88
518.843	16552.88
519.615	15955.88
520.387	15281.88
521.159	14697.88
521.93	14079.88
522.702	13555.88
523.474	12949.88
524.245	12389.88
525.017	11886.88
525.788	11464.88
526.56	10894.88
527.331	10356.88
528.102	9880.88
528.873	9475.88
529.644	8941.88
530.415	8527.88
531.186	8132.88
531.957	7661.88
532.728	7253.88
533.498	6896.88
534.269	6499.88
535.039	6134.88
535.81	5799.88
536.58	5506.88
537.351	5161.88
538.121	4873.88
538.891	4617.88
539.661	4361.88
540.431	4098.88
541.201	3905.88
541.971	3692.88
542.741	3467.88
543.51	3330.88
544.28	3172.88
545.05	3017.88
545.819	2855.88
546.588	2709.88
547.358	2590.88
548.127	2448.88
548.896	2342.88
549.665	2205.88
550.434	2085.88
551.203	1991.88
551.972	1878.88
552.741	1766.88
553.51	1677.88
554.278	1582.88
555.047	1493.88
555.815	1410.88
556.584	1316.88
557.352	1251.88
558.121	1176.88
558.889	1110.88
559.657	1057.88
560.425	992.88
561.193	922.88
561.961	887.88
562.729	845.88
563.496	795.88
564.264	754.88
565.032	701.88
565.799	678.88
566.567	637.88
567.334	601.88
568.101	560.88
568.869	534.88
569.636	501.88
570.403	474.88
571.17	448.88
571.937	422.88
572.704	404.88
573.471	376.88
574.237	350.88
575.004	337.88
575.771	313.88
576.537	302.88
577.303	280.88
578.07	256.88
578.836	252.88
579.602	232.88
580.368	219.88
581.134	212.88
581.9	201.88
582.666	183.88
583.432	182.88
584.198	171.88
584.964	155.88
585.729	151.88
586.495	139.88
587.26	136.88
588.025	128.88
588.791	124.88
589.556	114.88
590.321	112.88
591.086	103.88
591.851	100.88
592.616	89.88
593.381	90.88
594.146	77.88
594.911	82.88
595.675	78.88
596.44	75.88
597.204	70.88
597.969	66.88
598.733	65.88
599.497	60.88
600.261	58.88
601.025	55.88
601.79	55.88
602.553	48.88
603.317	48.88
604.081	45.88
604.845	45.88
605.609	41.88
606.372	38.88
607.136	41.88
607.899	37.88
608.662	36.88
609.426	33.88
610.189	40.88
610.952	30.88
611.715	33.88
612.478	29.88
613.241	29.88
614.004	29.88
614.767	29.88
615.529	29.88
616.292	23.88
617.055	27.88
617.817	22.88
618.579	20.88
619.342	22.88
620.104	19.88
620.866	19.88
621.628	20.88
622.39	19.88
623.152	17.88
623.914	18.88
624.676	18.88
625.438	17.88
626.199	17.88
626.961	16.88
627.722	12.88
628.484	17.88
629.245	13.88
630.006	13.88
630.768	10.88
631.529	12.88
632.29	11.88
633.051	13.88
633.812	12.88
634.573	10.88
635.333	11.88
636.094	11.88
636.855	8.88
637.615	11.88
638.376	12.88
639.136	10.88
639.896	9.88
640.657	9.88
641.417	8.88
642.177	9.88
642.937	7.88
643.697	8.88
644.457	9.88
645.216	9.88
645.976	6.88
646.736	8.88
647.495	8.88
648.255	7.88
649.014	7.88
649.774	5.88
650.533	6.88
651.292	8.88
652.051	8.88
652.81	5.88
653.569	4.88
654.328	7.88
655.087	6.88
655.846	7.88
656.604	3.88
657.363	6.88
658.121	3.88
658.88	7.88
659.638	4.88
660.397	8.88
661.155	4.88
661.913	5.88
662.671	3.88
663.429	5.88
664.187	6.88
664.945	3.88
665.703	3.88
666.46	4.88
667.218	4.88
667.976	4.88
668.733	6.88
669.49	6.88
670.248	5.88
671.005	4.88
671.762	6.88
672.519	4.88
673.276	6.88
674.033	4.88
674.79	4.88
675.547	5.88
676.304	3.88
677.06	7.88
677.817	2.88
678.574	3.88
679.33	1.88
680.086	4.88
680.843	3.88
681.599	4.88
682.355	6.88
683.111	4.88
683.867	3.88
684.623	5.88
685.379	4.88
686.135	2.88
686.89	1.88
687.646	4.88
688.402	2.88
689.157	3.88
689.912	5.88
690.668	3.88
691.423	1.88
692.178	2.88
692.933	4.88
693.688	4.88
694.443	4.88
695.198	1.88
695.953	2.88
696.708	2.88
697.462	3.88
698.217	4.88
698.972	4.88
699.726	1.88
700.48	3.88
701.235	1.88
701.989	3.88
702.743	3.88
703.497	3.88
704.251	3.88
705.005	3.88
705.759	5.88
706.513	4.88
707.266	4.88
708.02	3.88
708.774	5.88
709.527	4.88
710.28	1.88
711.034	4.88
711.787	2.88
712.54	4.88
713.293	3.88
714.046	4.88
714.799	5.88
715.552	0.88
716.305	4.88
717.058	3.88
717.81	2.88
718.563	3.88
719.315	3.88
720.068	3.88
720.82	6.88
721.573	4.88
722.325	4.88
723.077	3.88
723.829	2.88
724.581	3.88
725.333	1.88
726.085	3.88
726.836	3.88
727.588	5.88
728.34	2.88
729.091	4.88
729.843	4.88
730.594	3.88
731.346	4.88
732.097	5.88
732.848	4.88
733.599	3.88
734.35	3.88
735.101	4.88
735.852	6.88
736.603	3.88
737.354	4.88
738.104	5.88
738.855	4.88
739.605	5.88
740.356	1.88
741.106	1.88
741.856	6.88
742.607	1.88
743.357	1.88
744.107	3.88
744.857	4.88
745.607	6.88
746.357	4.88
747.106	4.88
747.856	3.88
748.606	5.88
749.355	4.88
750.105	4.88
750.854	5.88
751.603	4.88
752.353	5.88
753.102	3.88
753.851	6.88
754.6	4.88
755.349	6.88
756.098	6.88
756.847	5.88
757.595	6.88
758.344	7.88
759.093	6.88
759.841	4.88
760.589	5.88
761.338	8.88
762.086	4.88
762.834	7.88
763.582	6.88
764.331	6.88
765.079	7.88
765.826	4.88
766.574	6.88
767.322	9.88
768.07	7.88
768.817	5.88
769.565	7.88
770.312	9.88
771.06	9.88
771.807	8.88
772.554	8.88
773.302	7.88
774.049	8.88
774.796	7.88
775.543	8.88
776.29	6.88
777.036	9.88
777.783	8.88
778.53	6.88
779.276	8.88
780.023	6.88
780.769	10.88
781.516	5.88
782.262	9.88
783.008	9.88
783.754	9.88
784.5	9.88
785.246	9.88
785.992	9.88
786.738	8.88
787.484	6.88
788.23	8.88
788.975	7.88
789.721	9.88
790.466	9.88
791.212	8.88
791.957	6.88
792.702	9.88
793.447	7.88
794.193	7.88
794.938	7.88
795.683	7.88
796.427	6.88
797.172	7.88
797.917	7.88
798.662	7.88
799.406	6.88
800.151	7.88
800.895	4.88
801.64	4.88
802.384	8.88
803.128	6.88
803.872	7.88
804.616	7.88
805.36	5.88
806.104	6.88
806.848	6.88
807.592	7.88
808.336	6.88
809.079	9.88
809.823	6.88
810.566	5.88
811.31	4.88
812.053	6.88
812.796	8.88
813.539	3.88
814.283	3.88
815.026	4.88
815.769	1.88
816.511	4.88
817.254	7.88
817.997	4.88
818.74	3.88
819.482	2.88
820.225	4.88
820.967	1.88
821.71	5.88
822.452	2.88
823.194	4.88
823.936	3.88
824.678	4.88
825.42	5.88
826.162	2.88
826.904	4.88
827.646	4.88
828.388	1.88
829.129	4.88
829.871	3.88
830.612	2.88
831.354	3.88
832.095	4.88
832.836	3.88
833.577	2.88
834.319	5.88
835.06	4.88
835.801	4.88
836.542	4.88
837.282	4.88
838.023	1.88
838.764	3.88
839.504	1.88
840.245	2.88
840.985	4.88
841.726	2.88
842.466	1.88
843.206	1.88
843.946	2.88
844.687	5.88
845.427	4.88
846.166	3.88
846.906	2.88
847.646	2.88
848.386	3.88
849.125	3.88
849.865	3.88
850.605	1.88
851.344	3.88
852.083	2.88
852.823	1.88
853.562	2.88
854.301	1.88
855.04	3.88
855.779	2.88
856.518	3.88
857.257	0.88
857.995	0.88
858.734	2.88
859.473	1.88
860.211	3.88
860.95	4.88
861.688	3.88
862.426	4.88
863.165	4.88
863.903	2.88
864.641	0.88
865.379	2.88
866.117	2.88
866.855	2.88
867.593	1.88
868.33	0.88
869.068	2.88
869.806	0.88
870.543	2.88
871.28	2.88
872.018	2.88
872.755	2.88
873.492	-0.12
874.229	0.88
874.967	1.88
875.703	1.88
876.44	-0.12
877.177	1.88
877.914	2.88
878.651	0.88
879.387	-1.12
880.124	0.88
880.86	0.88
881.597	0.88
882.333	0.88
883.069	1.88
883.806	0.88
884.542	1.88
885.278	1.88
886.014	-0.12
886.749	1.88
887.485	1.88
888.221	3.88
888.957	-0.12
889.692	-0.12
890.428	-0.12
891.163	0.88
891.899	1.88
892.634	0.88
893.369	-0.12
894.104	-0.12
894.839	-0.12
895.574	1.88
896.309	0.88
897.044	2.88
897.779	0.88
898.514	-0.12
899.248	1.88
899.983	0.88
900.717	-2.12
901.452	-0.12
902.186	0.88
902.92	0.88
903.654	-0.12
904.389	-1.12
905.123	-0.12
905.857	1.88
906.59	0.88
907.324	-0.12
908.058	-0.12
908.792	0.88
909.525	0.88
910.259	-1.12
910.992	-1.12
911.726	0.88
912.459	1.88
913.192	-2.12
913.925	0.88
914.658	-0.12
915.391	-3.12
916.124	0.88
916.857	-2.12
917.59	2.88
918.323	1.88
919.055	-1.12
919.788	-1.12
920.521	3.88
921.253	-0.12
921.985	1.88
922.718	0.88
923.45	3.88
924.182	0.88
924.914	1.88
925.646	0.88
926.378	-0.12
927.11	2.88
927.841	0.88
928.573	-0.12
929.305	-1.12
930.036	-0.12
930.768	1.88
931.499	-0.12
932.23	-0.12
932.962	0.88
933.693	1.88
934.424	1.88
935.155	-0.12
935.886	2.88
936.617	0.88
937.348	-1.12
938.078	-0.12
938.809	3.88
939.54	0.88
940.27	-0.12
941.001	-0.12
941.731	2.88
942.461	-0.12
943.191	-2.12
943.922	-0.12
944.652	1.88
945.382	-0.12
946.112	1.88
946.841	-0.12
947.571	0.88
948.301	-2.12
949.031	-0.12
949.76	1.88
950.49	-0.12
951.219	1.88
951.948	-2.12
952.678	-1.12
953.407	-0.12
954.136	-0.12
954.865	-1.12
955.594	-0.12
956.323	-0.12
957.052	-0.12
957.78	1.88
958.509	0.88
959.238	0.88
959.966	2.88
960.695	-1.12
961.423	-0.12
962.151	0.88
962.88	-1.12
963.608	0.88
964.336	0.88
965.064	-0.12
965.792	0.88
966.52	0.88
967.247	0.88
967.975	1.88
968.703	-0.12
969.43	-1.12
970.158	-0.12
970.885	-0.12
971.613	0.88
972.34	-0.12
973.067	-0.12
973.794	2.88
974.521	0.88
975.248	-1.12
975.975	0.88
976.702	-2.12
977.429	-1.12
978.156	-0.12
978.882	1.88
979.609	0.88
980.335	2.88
981.062	0.88
981.788	-0.12
982.514	1.88
983.24	1.88
983.967	0.88
984.693	-1.12
985.419	0.88
986.144	-1.12
986.87	-1.12
987.596	-1.12
988.322	0.88
989.047	1.88
989.773	0.88
990.498	0.88
991.224	1.88
991.949	0.88
992.674	-0.12
993.399	0.88
994.124	2.88
994.849	1.88
995.574	1.88
996.299	1.88
997.024	-0.12
997.749	2.88
998.473	-0.12
999.198	-3.12
999.922	2.88
1000.647	0.88
1001.371	2.88
1002.095	-0.12
1002.82	-2.12
1003.544	-2.12
1004.268	0.88
1004.992	-2.12
1005.716	0.88
1006.439	1.88
1007.163	1.88
1007.887	1.88
1008.611	1.88
1009.334	-0.12
1010.058	0.88
1010.781	-0.12
1011.504	-2.12
1012.228	2.88
1012.951	0.88
1013.674	0.88
1014.397	-0.12
1015.12	-0.12
