节点500_285_QEPB04081__500__15-03-52-406.txt的数据

Date: Wed Nov 12 15:03:52 CST 2025
User: PC
Spectrometer: QEPB0408
触发模式: 0
积分时间 (秒): 1.000000E-2
Scans to average: 1
启用暗噪声校正: true
启用非线性校正: false
滑动平均宽度: 0
X轴模式: Wavelengths
Number of Pixels in Spectrum: 1044
>>>>>Begin Spectral Data<<<<<
220.843	1
221.644	2
222.444	2
223.244	2
224.045	3
224.845	2
225.645	2
226.445	-1
227.245	3
228.045	3
228.845	4
229.645	3
230.444	5
231.244	1
232.043	5
232.843	5
233.642	2
234.442	5
235.241	3
236.04	2
236.839	2
237.638	6
238.437	3
239.236	5
240.035	3
240.833	2
241.632	4
242.43	5
243.229	4
244.027	4
244.826	3
245.624	5
246.422	6
247.22	4
248.018	7
248.816	7
249.614	7
250.412	6
251.21	7
252.007	4
252.805	7
253.602	8
254.4	7
255.197	6
255.994	9
256.791	9
257.589	9
258.386	7
259.183	8
259.979	10
260.776	10
261.573	9
262.37	10
263.166	8
263.963	10
264.759	12
265.556	10
266.352	10
267.148	14
267.944	13
268.74	13
269.536	13
270.332	13
271.128	13
271.924	15
272.719	15
273.515	18
274.311	14
275.106	15
275.901	16
276.697	14
277.492	17
278.287	17
279.082	15
279.877	22
280.672	14
281.467	22
282.262	17
283.056	17
283.851	18
284.646	18
285.44	19
286.234	16
287.029	21
287.823	20
288.617	19
289.411	18
290.205	17
290.999	18
291.793	17
292.587	19
293.381	17
294.174	16
294.968	17
295.761	19
296.555	16
297.348	15
298.141	13
298.935	15
299.728	16
300.521	14
301.314	16
302.107	18
302.899	13
303.692	13
304.485	13
305.277	12
306.07	14
306.862	14
307.655	14
308.447	10
309.239	12
310.031	13
310.823	12
311.615	13
312.407	10
313.199	8
313.991	10
314.783	8
315.574	10
316.366	11
317.157	9
317.949	9
318.74	9
319.531	9
320.322	5
321.113	7
321.904	6
322.695	6
323.486	8
324.277	8
325.068	8
325.858	6
326.649	8
327.439	8
328.23	8
329.02	9
329.81	7
330.6	9
331.391	7
332.181	7
332.971	5
333.76	6
334.55	7
335.34	7
336.13	7
336.919	7
337.709	8
338.498	9
339.287	7
340.077	6
340.866	5
341.655	6
342.444	9
343.233	9
344.022	6
344.811	6
345.6	8
346.388	5
347.177	5
347.965	6
348.754	5
349.542	7
350.33	4
351.119	6
351.907	6
352.695	6
353.483	7
354.271	4
355.059	6
355.846	4
356.634	4
357.422	6
358.209	7
358.997	6
359.784	2
360.571	4
361.359	3
362.146	8
362.933	7
363.72	5
364.507	6
365.294	3
366.081	7
366.867	7
367.654	6
368.44	5
369.227	4
370.013	5
370.8	4
371.586	6
372.372	6
373.158	3
373.944	5
374.73	6
375.516	6
376.302	5
377.088	4
377.873	6
378.659	7
379.445	4
380.23	5
381.015	5
381.801	6
382.586	5
383.371	6
384.156	3
384.941	7
385.726	7
386.511	7
387.296	7
388.08	8
388.865	6
389.649	6
390.434	8
391.218	5
392.003	5
392.787	4
393.571	7
394.355	8
395.139	4
395.923	8
396.707	7
397.491	8
398.274	7
399.058	3
399.842	7
400.625	4
401.408	7
402.192	4
402.975	8
403.758	5
404.541	4
405.324	6
406.107	6
406.89	9
407.673	8
408.456	8
409.238	8
410.021	8
410.803	9
411.586	9
412.368	8
413.151	10
413.933	9
414.715	10
415.497	10
416.279	11
417.061	10
417.843	9
418.624	10
419.406	8
420.188	10
420.969	7
421.751	7
422.532	12
423.313	10
424.095	10
424.876	9
425.657	12
426.438	9
427.219	12
428	14
428.78	9
429.561	14
430.342	12
431.122	15
431.903	14
432.683	14
433.464	15
434.244	15
435.024	16
435.804	18
436.584	20
437.364	21
438.144	21
438.924	22
439.704	22
440.483	25
441.263	23
442.042	26
442.822	26
443.601	29
444.38	30
445.16	32
445.939	37
446.718	39
447.497	39
448.276	42
449.054	45
449.833	49
450.612	52
451.391	64
452.169	64
452.948	75
453.726	77
454.504	83
455.282	94
456.061	104
456.839	111
457.617	131
458.395	141
459.172	154
459.95	173
460.728	197
461.506	213
462.283	240
463.061	271
463.838	303
464.615	337
465.393	372
466.17	414
466.947	467
467.724	503
468.501	579
469.278	634
470.055	707
470.831	785
471.608	880
472.385	967
473.161	1076
473.938	1183
474.714	1305
475.49	1453
476.266	1591
477.043	1758
477.819	1934
478.595	2134
479.371	2338
480.146	2582
480.922	2853
481.698	3123
482.473	3436
483.249	3778
484.024	4144
484.8	4557
485.575	4933
486.35	5458
487.126	5922
487.901	6527
488.676	7132
489.451	7804
490.225	8514
491	9272
491.775	10110
492.55	10991
493.324	11870
494.099	12791
494.873	13779
495.647	14889
496.422	15979
497.196	17049
497.97	18225
498.744	19415
499.518	20478
500.292	21595
501.066	22675
501.839	23592
502.613	24504
503.387	25301
504.16	26058
504.934	26385
505.707	26642
506.48	26765
507.253	26751
508.027	26589
508.8	26345
509.573	25964
510.346	25499
511.118	24784
511.891	24144
512.664	23336
513.437	22514
514.209	21637
514.982	20766
515.754	19821
516.526	18993
517.298	18142
518.071	17365
518.843	16737
519.615	16123
520.387	15491
521.159	14847
521.93	14290
522.702	13711
523.474	13121
524.245	12599
525.017	12049
525.788	11582
526.56	11063
527.331	10556
528.102	10120
528.873	9620
529.644	9136
530.415	8703
531.186	8294
531.957	7884
532.728	7474
533.498	7119
534.269	6692
535.039	6343
535.81	5992
536.58	5645
537.351	5310
538.121	5022
538.891	4798
539.661	4508
540.431	4235
541.201	4026
541.971	3820
542.741	3614
543.51	3441
544.28	3267
545.05	3128
545.819	2968
546.588	2831
547.358	2655
548.127	2542
548.896	2404
549.665	2281
550.434	2174
551.203	2056
551.972	1945
552.741	1836
553.51	1745
554.278	1641
555.047	1557
555.815	1466
556.584	1396
557.352	1314
558.121	1232
558.889	1159
559.657	1098
560.425	1042
561.193	979
561.961	931
562.729	871
563.496	821
564.264	788
565.032	741
565.799	708
566.567	660
567.334	622
568.101	594
568.869	561
569.636	526
570.403	502
571.17	462
571.937	440
572.704	420
573.471	395
574.237	370
575.004	352
575.771	329
576.537	309
577.303	295
578.07	276
578.836	256
579.602	244
580.368	226
581.134	220
581.9	203
582.666	198
583.432	187
584.198	174
584.964	163
585.729	155
586.495	152
587.26	145
588.025	135
588.791	129
589.556	120
590.321	115
591.086	107
591.851	106
592.616	94
593.381	95
594.146	89
594.911	88
595.675	82
596.44	76
597.204	73
597.969	73
598.733	67
599.497	62
600.261	62
601.025	60
601.79	56
602.553	58
603.317	48
604.081	48
604.845	48
605.609	46
606.372	43
607.136	41
607.899	38
608.662	41
609.426	39
610.189	33
610.952	33
611.715	34
612.478	30
613.241	29
614.004	30
614.767	26
615.529	28
616.292	25
617.055	26
617.817	25
618.579	24
619.342	24
620.104	24
620.866	20
621.628	20
622.39	21
623.152	18
623.914	18
624.676	20
625.438	18
626.199	18
626.961	14
627.722	14
628.484	14
629.245	16
630.006	12
630.768	12
631.529	16
632.29	14
633.051	14
633.812	13
634.573	12
635.333	12
636.094	11
636.855	10
637.615	10
638.376	10
639.136	10
639.896	11
640.657	6
641.417	9
642.177	8
642.937	10
643.697	11
644.457	10
645.216	9
645.976	8
646.736	7
647.495	9
648.255	7
649.014	7
649.774	10
650.533	6
651.292	7
652.051	5
652.81	7
653.569	8
654.328	8
655.087	7
655.846	7
656.604	6
657.363	5
658.121	9
658.88	6
659.638	7
660.397	4
661.155	4
661.913	7
662.671	5
663.429	5
664.187	5
664.945	5
665.703	6
666.46	6
667.218	6
667.976	3
668.733	7
669.49	8
670.248	4
671.005	5
671.762	5
672.519	6
673.276	4
674.033	5
674.79	5
675.547	3
676.304	7
677.06	3
677.817	3
678.574	6
679.33	5
680.086	5
680.843	1
681.599	3
682.355	5
683.111	5
683.867	6
684.623	6
685.379	5
686.135	5
686.89	5
687.646	2
688.402	5
689.157	3
689.912	5
690.668	3
691.423	4
692.178	5
692.933	5
693.688	4
694.443	5
695.198	5
695.953	4
696.708	4
697.462	6
698.217	5
698.972	4
699.726	3
700.48	2
701.235	5
701.989	3
702.743	3
703.497	3
704.251	5
705.005	2
705.759	3
706.513	3
707.266	3
708.02	2
708.774	3
709.527	4
710.28	2
711.034	3
711.787	6
712.54	4
713.293	4
714.046	5
714.799	1
715.552	5
716.305	5
717.058	2
717.81	6
718.563	3
719.315	2
720.068	1
720.82	5
721.573	4
722.325	5
723.077	3
723.829	5
724.581	4
725.333	2
726.085	2
726.836	6
727.588	5
728.34	3
729.091	3
729.843	3
730.594	4
731.346	5
732.097	4
732.848	2
733.599	5
734.35	4
735.101	6
735.852	3
736.603	4
737.354	4
738.104	3
738.855	5
739.605	3
740.356	7
741.106	5
741.856	5
742.607	4
743.357	4
744.107	5
744.857	6
745.607	5
746.357	3
747.106	4
747.856	2
748.606	5
749.355	5
750.105	4
750.854	5
751.603	4
752.353	5
753.102	5
753.851	2
754.6	5
755.349	6
756.098	5
756.847	5
757.595	6
758.344	6
759.093	9
759.841	6
760.589	6
761.338	7
762.086	7
762.834	7
763.582	6
764.331	7
765.079	7
765.826	6
766.574	5
767.322	8
768.07	6
768.817	6
769.565	7
770.312	6
771.06	7
771.807	7
772.554	7
773.302	7
774.049	9
774.796	9
775.543	8
776.29	10
777.036	8
777.783	9
778.53	9
779.276	7
780.023	8
780.769	7
781.516	8
782.262	11
783.008	8
783.754	10
784.5	9
785.246	11
785.992	8
786.738	8
787.484	9
788.23	7
788.975	8
789.721	8
790.466	11
791.212	10
791.957	9
792.702	8
793.447	8
794.193	9
794.938	8
795.683	10
796.427	6
797.172	8
797.917	6
798.662	9
799.406	8
800.151	7
800.895	7
801.64	7
802.384	8
803.128	9
803.872	10
804.616	6
805.36	6
806.104	9
806.848	5
807.592	7
808.336	8
809.079	7
809.823	6
810.566	6
811.31	4
812.053	7
812.796	5
813.539	6
814.283	3
815.026	4
815.769	5
816.511	2
817.254	6
817.997	5
818.74	4
819.482	4
820.225	4
820.967	5
821.71	5
822.452	4
823.194	5
823.936	5
824.678	5
825.42	5
826.162	4
826.904	2
827.646	6
828.388	5
829.129	3
829.871	5
830.612	6
831.354	5
832.095	3
832.836	2
833.577	2
834.319	6
835.06	3
835.801	4
836.542	5
837.282	6
838.023	3
838.764	4
839.504	5
840.245	4
840.985	5
841.726	3
842.466	3
843.206	5
843.946	3
844.687	5
845.427	4
846.166	2
846.906	5
847.646	2
848.386	1
849.125	6
849.865	3
850.605	6
851.344	1
852.083	5
852.823	2
853.562	3
854.301	4
855.04	1
855.779	2
856.518	3
857.257	6
857.995	1
858.734	3
859.473	2
860.211	3
860.95	3
861.688	2
862.426	3
863.165	1
863.903	4
864.641	6
865.379	3
866.117	2
866.855	1
867.593	3
868.33	1
869.068	1
869.806	1
870.543	0
871.28	3
872.018	0
872.755	2
873.492	1
874.229	2
874.967	2
875.703	1
876.44	3
877.177	2
877.914	2
878.651	2
879.387	1
880.124	2
880.86	2
881.597	2
882.333	2
883.069	3
883.806	1
884.542	0
885.278	2
886.014	0
886.749	2
887.485	2
888.221	-1
888.957	0
889.692	1
890.428	1
891.163	1
891.899	0
892.634	1
893.369	1
894.104	1
894.839	1
895.574	2
896.309	2
897.044	1
897.779	1
898.514	-1
899.248	-2
899.983	3
900.717	2
901.452	0
902.186	1
902.92	0
903.654	2
904.389	1
905.123	0
905.857	-2
906.59	2
907.324	-1
908.058	1
908.792	3
909.525	0
910.259	1
910.992	0
911.726	-1
912.459	1
913.192	2
913.925	1
914.658	4
915.391	0
916.124	0
916.857	2
917.59	0
918.323	-1
919.055	0
919.788	-1
920.521	0
921.253	-1
921.985	2
922.718	0
923.45	0
924.182	0
924.914	2
925.646	0
926.378	0
927.11	3
927.841	1
928.573	1
929.305	0
930.036	0
930.768	2
931.499	2
932.23	3
932.962	1
933.693	1
934.424	1
935.155	1
935.886	1
936.617	2
937.348	0
938.078	0
938.809	2
939.54	-1
940.27	-1
941.001	0
941.731	0
942.461	0
943.191	1
943.922	0
944.652	1
945.382	0
946.112	1
946.841	0
947.571	1
948.301	-1
949.031	-2
949.76	-1
950.49	1
951.219	1
951.948	1
952.678	0
953.407	1
954.136	-2
954.865	1
955.594	0
956.323	0
957.052	0
957.78	0
958.509	2
959.238	0
959.966	0
960.695	2
961.423	1
962.151	1
962.88	0
963.608	0
964.336	0
965.064	1
965.792	1
966.52	0
967.247	0
967.975	1
968.703	0
969.43	-2
970.158	1
970.885	1
971.613	2
972.34	-1
973.067	0
973.794	-2
974.521	0
975.248	2
975.975	1
976.702	0
977.429	-1
978.156	1
978.882	2
979.609	-2
980.335	0
981.062	1
981.788	0
982.514	0
983.24	1
983.967	1
984.693	1
985.419	1
986.144	0
986.87	0
987.596	-1
988.322	0
989.047	-1
989.773	0
990.498	1
991.224	0
991.949	2
992.674	0
993.399	2
994.124	2
994.849	0
995.574	-1
996.299	2
997.024	0
997.749	-1
998.473	1
999.198	-1
999.922	1
1000.647	1
1001.371	4
1002.095	-2
1002.82	-1
1003.544	-2
1004.268	2
1004.992	2
1005.716	2
1006.439	3
1007.163	4
1007.887	2
1008.611	-2
1009.334	-1
1010.058	0
1010.781	1
1011.504	0
1012.228	0
1012.951	0
1013.674	1
1014.397	-1
1015.12	1
