节点500_285_QEPB04081__511__15-04-03-350.txt的数据

Date: Wed Nov 12 15:04:03 CST 2025
User: PC
Spectrometer: QEPB0408
触发模式: 0
积分时间 (秒): 1.000000E-2
Scans to average: 1
启用暗噪声校正: true
启用非线性校正: false
滑动平均宽度: 0
X轴模式: Wavelengths
Number of Pixels in Spectrum: 1044
>>>>>Begin Spectral Data<<<<<
220.843	0.25
221.644	1.25
222.444	3.25
223.244	1.25
224.045	0.25
224.845	2.25
225.645	1.25
226.445	2.25
227.245	3.25
228.045	1.25
228.845	4.25
229.645	1.25
230.444	3.25
231.244	3.25
232.043	4.25
232.843	5.25
233.642	1.25
234.442	4.25
235.241	1.25
236.04	4.25
236.839	2.25
237.638	4.25
238.437	4.25
239.236	3.25
240.035	4.25
240.833	3.25
241.632	3.25
242.43	2.25
243.229	4.25
244.027	4.25
244.826	6.25
245.624	6.25
246.422	4.25
247.22	3.25
248.018	7.25
248.816	7.25
249.614	5.25
250.412	8.25
251.21	6.25
252.007	7.25
252.805	4.25
253.602	7.25
254.4	5.25
255.197	7.25
255.994	9.25
256.791	6.25
257.589	10.25
258.386	6.25
259.183	8.25
259.979	8.25
260.776	9.25
261.573	7.25
262.37	8.25
263.166	10.25
263.963	11.25
264.759	10.25
265.556	10.25
266.352	11.25
267.148	11.25
267.944	13.25
268.74	16.25
269.536	13.25
270.332	13.25
271.128	13.25
271.924	12.25
272.719	14.25
273.515	16.25
274.311	14.25
275.106	16.25
275.901	18.25
276.697	15.25
277.492	15.25
278.287	16.25
279.082	16.25
279.877	15.25
280.672	13.25
281.467	17.25
282.262	23.25
283.056	17.25
283.851	18.25
284.646	16.25
285.44	16.25
286.234	17.25
287.029	16.25
287.823	18.25
288.617	19.25
289.411	17.25
290.205	18.25
290.999	18.25
291.793	15.25
292.587	15.25
293.381	16.25
294.174	17.25
294.968	16.25
295.761	13.25
296.555	14.25
297.348	12.25
298.141	15.25
298.935	19.25
299.728	13.25
300.521	13.25
301.314	13.25
302.107	11.25
302.899	11.25
303.692	12.25
304.485	10.25
305.277	13.25
306.07	11.25
306.862	10.25
307.655	10.25
308.447	12.25
309.239	11.25
310.031	13.25
310.823	9.25
311.615	8.25
312.407	10.25
313.199	6.25
313.991	9.25
314.783	7.25
315.574	9.25
316.366	8.25
317.157	8.25
317.949	9.25
318.74	6.25
319.531	6.25
320.322	5.25
321.113	10.25
321.904	6.25
322.695	7.25
323.486	6.25
324.277	7.25
325.068	7.25
325.858	6.25
326.649	5.25
327.439	6.25
328.23	5.25
329.02	5.25
329.81	3.25
330.6	8.25
331.391	4.25
332.181	6.25
332.971	7.25
333.76	4.25
334.55	7.25
335.34	5.25
336.13	7.25
336.919	3.25
337.709	8.25
338.498	7.25
339.287	4.25
340.077	7.25
340.866	4.25
341.655	4.25
342.444	6.25
343.233	5.25
344.022	5.25
344.811	7.25
345.6	5.25
346.388	6.25
347.177	5.25
347.965	8.25
348.754	4.25
349.542	4.25
350.33	6.25
351.119	7.25
351.907	5.25
352.695	5.25
353.483	6.25
354.271	4.25
355.059	5.25
355.846	7.25
356.634	7.25
357.422	4.25
358.209	7.25
358.997	5.25
359.784	3.25
360.571	5.25
361.359	4.25
362.146	6.25
362.933	6.25
363.72	3.25
364.507	6.25
365.294	5.25
366.081	5.25
366.867	4.25
367.654	5.25
368.44	2.25
369.227	4.25
370.013	3.25
370.8	3.25
371.586	5.25
372.372	2.25
373.158	6.25
373.944	4.25
374.73	3.25
375.516	2.25
376.302	5.25
377.088	5.25
377.873	4.25
378.659	4.25
379.445	5.25
380.23	3.25
381.015	5.25
381.801	2.25
382.586	4.25
383.371	4.25
384.156	4.25
384.941	3.25
385.726	6.25
386.511	4.25
387.296	6.25
388.08	3.25
388.865	4.25
389.649	7.25
390.434	5.25
391.218	5.25
392.003	6.25
392.787	3.25
393.571	5.25
394.355	5.25
395.139	6.25
395.923	6.25
396.707	5.25
397.491	7.25
398.274	3.25
399.058	5.25
399.842	5.25
400.625	3.25
401.408	4.25
402.192	9.25
402.975	7.25
403.758	7.25
404.541	7.25
405.324	7.25
406.107	6.25
406.89	6.25
407.673	7.25
408.456	6.25
409.238	8.25
410.021	6.25
410.803	6.25
411.586	9.25
412.368	6.25
413.151	8.25
413.933	9.25
414.715	8.25
415.497	9.25
416.279	7.25
417.061	8.25
417.843	9.25
418.624	8.25
419.406	9.25
420.188	9.25
420.969	9.25
421.751	9.25
422.532	10.25
423.313	11.25
424.095	10.25
424.876	8.25
425.657	12.25
426.438	9.25
427.219	11.25
428	13.25
428.78	15.25
429.561	13.25
430.342	13.25
431.122	13.25
431.903	12.25
432.683	17.25
433.464	15.25
434.244	15.25
435.024	16.25
435.804	15.25
436.584	17.25
437.364	19.25
438.144	18.25
438.924	17.25
439.704	22.25
440.483	24.25
441.263	25.25
442.042	24.25
442.822	28.25
443.601	29.25
444.38	27.25
445.16	32.25
445.939	33.25
446.718	36.25
447.497	38.25
448.276	45.25
449.054	47.25
449.833	49.25
450.612	53.25
451.391	57.25
452.169	65.25
452.948	71.25
453.726	75.25
454.504	82.25
455.282	91.25
456.061	102.25
456.839	113.25
457.617	129.25
458.395	140.25
459.172	157.25
459.95	171.25
460.728	194.25
461.506	214.25
462.283	239.25
463.061	265.25
463.838	292.25
464.615	337.25
465.393	370.25
466.17	411.25
466.947	462.25
467.724	513.25
468.501	573.25
469.278	631.25
470.055	710.25
470.831	777.25
471.608	879.25
472.385	975.25
473.161	1068.25
473.938	1183.25
474.714	1305.25
475.49	1444.25
476.266	1594.25
477.043	1760.25
477.819	1938.25
478.595	2128.25
479.371	2337.25
480.146	2593.25
480.922	2834.25
481.698	3123.25
482.473	3423.25
483.249	3742.25
484.024	4113.25
484.8	4529.25
485.575	4964.25
486.35	5469.25
487.126	5953.25
487.901	6553.25
488.676	7085.25
489.451	7798.25
490.225	8512.25
491	9269.25
491.775	10077.25
492.55	10974.25
493.324	11870.25
494.099	12733.25
494.873	13751.25
495.647	14795.25
496.422	15947.25
497.196	17019.25
497.97	18137.25
498.744	19295.25
499.518	20405.25
500.292	21523.25
501.066	22560.25
501.839	23492.25
502.613	24374.25
503.387	25213.25
504.16	25874.25
504.934	26230.25
505.707	26531.25
506.48	26737.25
507.253	26683.25
508.027	26501.25
508.8	26331.25
509.573	25991.25
510.346	25464.25
511.118	24757.25
511.891	24071.25
512.664	23304.25
513.437	22483.25
514.209	21601.25
514.982	20792.25
515.754	19911.25
516.526	19028.25
517.298	18178.25
518.071	17385.25
518.843	16735.25
519.615	16109.25
520.387	15470.25
521.159	14852.25
521.93	14287.25
522.702	13690.25
523.474	13128.25
524.245	12552.25
525.017	12065.25
525.788	11577.25
526.56	11067.25
527.331	10539.25
528.102	10103.25
528.873	9648.25
529.644	9174.25
530.415	8729.25
531.186	8277.25
531.957	7847.25
532.728	7516.25
533.498	7092.25
534.269	6719.25
535.039	6358.25
535.81	6016.25
536.58	5657.25
537.351	5369.25
538.121	5061.25
538.891	4816.25
539.661	4542.25
540.431	4248.25
541.201	4019.25
541.971	3834.25
542.741	3629.25
543.51	3455.25
544.28	3274.25
545.05	3111.25
545.819	2961.25
546.588	2829.25
547.358	2694.25
548.127	2540.25
548.896	2412.25
549.665	2303.25
550.434	2166.25
551.203	2040.25
551.972	1944.25
552.741	1841.25
553.51	1741.25
554.278	1628.25
555.047	1548.25
555.815	1464.25
556.584	1387.25
557.352	1311.25
558.121	1244.25
558.889	1162.25
559.657	1104.25
560.425	1051.25
561.193	992.25
561.961	930.25
562.729	875.25
563.496	832.25
564.264	776.25
565.032	731.25
565.799	706.25
566.567	665.25
567.334	638.25
568.101	595.25
568.869	557.25
569.636	523.25
570.403	491.25
571.17	464.25
571.937	441.25
572.704	420.25
573.471	397.25
574.237	371.25
575.004	348.25
575.771	328.25
576.537	308.25
577.303	290.25
578.07	280.25
578.836	265.25
579.602	238.25
580.368	229.25
581.134	212.25
581.9	211.25
582.666	199.25
583.432	187.25
584.198	173.25
584.964	168.25
585.729	168.25
586.495	149.25
587.26	140.25
588.025	134.25
588.791	130.25
589.556	119.25
590.321	111.25
591.086	109.25
591.851	101.25
592.616	98.25
593.381	92.25
594.146	87.25
594.911	83.25
595.675	86.25
596.44	72.25
597.204	70.25
597.969	68.25
598.733	66.25
599.497	61.25
600.261	62.25
601.025	58.25
601.79	54.25
602.553	56.25
603.317	53.25
604.081	51.25
604.845	47.25
605.609	47.25
606.372	44.25
607.136	41.25
607.899	42.25
608.662	35.25
609.426	38.25
610.189	34.25
610.952	35.25
611.715	34.25
612.478	32.25
613.241	32.25
614.004	27.25
614.767	27.25
615.529	29.25
616.292	26.25
617.055	21.25
617.817	21.25
618.579	21.25
619.342	23.25
620.104	20.25
620.866	19.25
621.628	20.25
622.39	19.25
623.152	16.25
623.914	17.25
624.676	19.25
625.438	17.25
626.199	16.25
626.961	17.25
627.722	17.25
628.484	13.25
629.245	14.25
630.006	13.25
630.768	13.25
631.529	11.25
632.29	11.25
633.051	12.25
633.812	12.25
634.573	11.25
635.333	10.25
636.094	10.25
636.855	11.25
637.615	9.25
638.376	12.25
639.136	10.25
639.896	10.25
640.657	7.25
641.417	6.25
642.177	9.25
642.937	7.25
643.697	5.25
644.457	8.25
645.216	8.25
645.976	8.25
646.736	7.25
647.495	8.25
648.255	7.25
649.014	5.25
649.774	6.25
650.533	5.25
651.292	5.25
652.051	6.25
652.81	6.25
653.569	3.25
654.328	5.25
655.087	6.25
655.846	2.25
656.604	7.25
657.363	6.25
658.121	6.25
658.88	3.25
659.638	5.25
660.397	6.25
661.155	4.25
661.913	5.25
662.671	3.25
663.429	5.25
664.187	5.25
664.945	3.25
665.703	6.25
666.46	5.25
667.218	3.25
667.976	5.25
668.733	5.25
669.49	6.25
670.248	3.25
671.005	5.25
671.762	4.25
672.519	4.25
673.276	4.25
674.033	3.25
674.79	3.25
675.547	1.25
676.304	7.25
677.06	1.25
677.817	3.25
678.574	3.25
679.33	4.25
680.086	3.25
680.843	3.25
681.599	3.25
682.355	2.25
683.111	2.25
683.867	2.25
684.623	2.25
685.379	3.25
686.135	2.25
686.89	2.25
687.646	1.25
688.402	5.25
689.157	4.25
689.912	3.25
690.668	1.25
691.423	1.25
692.178	3.25
692.933	3.25
693.688	4.25
694.443	1.25
695.198	5.25
695.953	3.25
696.708	4.25
697.462	2.25
698.217	4.25
698.972	2.25
699.726	3.25
700.48	0.25
701.235	2.25
701.989	4.25
702.743	4.25
703.497	2.25
704.251	3.25
705.005	3.25
705.759	1.25
706.513	6.25
707.266	3.25
708.02	1.25
708.774	3.25
709.527	2.25
710.28	1.25
711.034	2.25
711.787	4.25
712.54	2.25
713.293	2.25
714.046	0.25
714.799	1.25
715.552	3.25
716.305	2.25
717.058	4.25
717.81	3.25
718.563	2.25
719.315	4.25
720.068	2.25
720.82	1.25
721.573	2.25
722.325	6.25
723.077	3.25
723.829	3.25
724.581	2.25
725.333	1.25
726.085	4.25
726.836	1.25
727.588	1.25
728.34	1.25
729.091	3.25
729.843	3.25
730.594	4.25
731.346	4.25
732.097	2.25
732.848	2.25
733.599	3.25
734.35	4.25
735.101	1.25
735.852	4.25
736.603	1.25
737.354	6.25
738.104	3.25
738.855	3.25
739.605	4.25
740.356	4.25
741.106	5.25
741.856	3.25
742.607	4.25
743.357	4.25
744.107	7.25
744.857	4.25
745.607	6.25
746.357	2.25
747.106	5.25
747.856	3.25
748.606	5.25
749.355	7.25
750.105	2.25
750.854	6.25
751.603	4.25
752.353	3.25
753.102	7.25
753.851	5.25
754.6	6.25
755.349	6.25
756.098	3.25
756.847	4.25
757.595	6.25
758.344	4.25
759.093	4.25
759.841	5.25
760.589	8.25
761.338	3.25
762.086	8.25
762.834	6.25
763.582	5.25
764.331	4.25
765.079	7.25
765.826	6.25
766.574	6.25
767.322	6.25
768.07	7.25
768.817	6.25
769.565	6.25
770.312	6.25
771.06	7.25
771.807	7.25
772.554	7.25
773.302	6.25
774.049	8.25
774.796	5.25
775.543	4.25
776.29	5.25
777.036	6.25
777.783	7.25
778.53	8.25
779.276	9.25
780.023	8.25
780.769	8.25
781.516	7.25
782.262	7.25
783.008	9.25
783.754	9.25
784.5	7.25
785.246	7.25
785.992	9.25
786.738	9.25
787.484	6.25
788.23	8.25
788.975	8.25
789.721	9.25
790.466	7.25
791.212	6.25
791.957	8.25
792.702	8.25
793.447	8.25
794.193	9.25
794.938	10.25
795.683	8.25
796.427	7.25
797.172	8.25
797.917	7.25
798.662	9.25
799.406	8.25
800.151	6.25
800.895	6.25
801.64	6.25
802.384	7.25
803.128	6.25
803.872	7.25
804.616	7.25
805.36	3.25
806.104	6.25
806.848	5.25
807.592	5.25
808.336	6.25
809.079	4.25
809.823	7.25
810.566	5.25
811.31	3.25
812.053	5.25
812.796	4.25
813.539	6.25
814.283	4.25
815.026	4.25
815.769	5.25
816.511	3.25
817.254	3.25
817.997	3.25
818.74	4.25
819.482	4.25
820.225	4.25
820.967	3.25
821.71	3.25
822.452	3.25
823.194	1.25
823.936	4.25
824.678	1.25
825.42	4.25
826.162	3.25
826.904	3.25
827.646	2.25
828.388	3.25
829.129	3.25
829.871	3.25
830.612	1.25
831.354	4.25
832.095	5.25
832.836	3.25
833.577	4.25
834.319	3.25
835.06	3.25
835.801	2.25
836.542	2.25
837.282	2.25
838.023	2.25
838.764	5.25
839.504	4.25
840.245	0.25
840.985	5.25
841.726	1.25
842.466	3.25
843.206	2.25
843.946	0.25
844.687	2.25
845.427	3.25
846.166	1.25
846.906	3.25
847.646	-0.75
848.386	3.25
849.125	3.25
849.865	1.25
850.605	1.25
851.344	1.25
852.083	1.25
852.823	2.25
853.562	3.25
854.301	3.25
855.04	1.25
855.779	3.25
856.518	1.25
857.257	3.25
857.995	2.25
858.734	3.25
859.473	3.25
860.211	1.25
860.95	3.25
861.688	1.25
862.426	2.25
863.165	1.25
863.903	0.25
864.641	4.25
865.379	-0.75
866.117	0.25
866.855	1.25
867.593	2.25
868.33	1.25
869.068	0.25
869.806	2.25
870.543	-0.75
871.28	2.25
872.018	1.25
872.755	2.25
873.492	-0.75
874.229	0.25
874.967	-0.75
875.703	1.25
876.44	1.25
877.177	1.25
877.914	3.25
878.651	1.25
879.387	-2.75
880.124	1.25
880.86	0.25
881.597	1.25
882.333	1.25
883.069	0.25
883.806	0.25
884.542	-1.75
885.278	0.25
886.014	0.25
886.749	-0.75
887.485	1.25
888.221	0.25
888.957	1.25
889.692	0.25
890.428	0.25
891.163	-1.75
891.899	1.25
892.634	-0.75
893.369	0.25
894.104	0.25
894.839	-0.75
895.574	-0.75
896.309	-0.75
897.044	1.25
897.779	1.25
898.514	-0.75
899.248	-2.75
899.983	0.25
900.717	1.25
901.452	-1.75
902.186	0.25
902.92	1.25
903.654	-0.75
904.389	-0.75
905.123	0.25
905.857	1.25
906.59	0.25
907.324	-0.75
908.058	1.25
908.792	0.25
909.525	0.25
910.259	0.25
910.992	-0.75
911.726	-0.75
912.459	-0.75
913.192	0.25
913.925	0.25
914.658	-0.75
915.391	1.25
916.124	0.25
916.857	-0.75
917.59	-2.75
918.323	1.25
919.055	-2.75
919.788	0.25
920.521	-0.75
921.253	1.25
921.985	1.25
922.718	1.25
923.45	0.25
924.182	0.25
924.914	-1.75
925.646	0.25
926.378	-2.75
927.11	1.25
927.841	-0.75
928.573	1.25
929.305	1.25
930.036	-1.75
930.768	0.25
931.499	-0.75
932.23	1.25
932.962	-1.75
933.693	-0.75
934.424	0.25
935.155	-0.75
935.886	-0.75
936.617	-0.75
937.348	1.25
938.078	-0.75
938.809	-2.75
939.54	1.25
940.27	-0.75
941.001	0.25
941.731	-0.75
942.461	0.25
943.191	2.25
943.922	-1.75
944.652	2.25
945.382	1.25
946.112	0.25
946.841	1.25
947.571	-0.75
948.301	-0.75
949.031	-0.75
949.76	-0.75
950.49	-0.75
951.219	0.25
951.948	-0.75
952.678	1.25
953.407	1.25
954.136	0.25
954.865	1.25
955.594	-0.75
956.323	-0.75
957.052	-1.75
957.78	0.25
958.509	-0.75
959.238	-1.75
959.966	-2.75
960.695	-2.75
961.423	0.25
962.151	0.25
962.88	-0.75
963.608	-0.75
964.336	-2.75
965.064	-0.75
965.792	0.25
966.52	-0.75
967.247	-0.75
967.975	-0.75
968.703	0.25
969.43	-1.75
970.158	0.25
970.885	-0.75
971.613	1.25
972.34	-1.75
973.067	-1.75
973.794	-1.75
974.521	-2.75
975.248	1.25
975.975	-1.75
976.702	0.25
977.429	0.25
978.156	-2.75
978.882	1.25
979.609	-1.75
980.335	-0.75
981.062	0.25
981.788	-1.75
982.514	-0.75
983.24	1.25
983.967	1.25
984.693	0.25
985.419	-1.75
986.144	-0.75
986.87	-0.75
987.596	-0.75
988.322	-1.75
989.047	-0.75
989.773	-2.75
990.498	-0.75
991.224	0.25
991.949	-0.75
992.674	-0.75
993.399	0.25
994.124	-1.75
994.849	-0.75
995.574	-0.75
996.299	1.25
997.024	-2.75
997.749	-0.75
998.473	-0.75
999.198	0.25
999.922	-0.75
1000.647	-1.75
1001.371	2.25
1002.095	-0.75
1002.82	0.25
1003.544	-0.75
1004.268	1.25
1004.992	0.25
1005.716	1.25
1006.439	4.25
1007.163	2.25
1007.887	1.25
1008.611	0.25
1009.334	-0.75
1010.058	0.25
1010.781	-0.75
1011.504	1.25
1012.228	1.25
1012.951	-0.75
1013.674	0.25
1014.397	-0.75
1015.12	0.25
