节点500_285_QEPB04081__695__15-07-06-852.txt的数据

Date: Wed Nov 12 15:07:06 CST 2025
User: PC
Spectrometer: QEPB0408
触发模式: 0
积分时间 (秒): 1.000000E-2
Scans to average: 1
启用暗噪声校正: true
启用非线性校正: false
滑动平均宽度: 0
X轴模式: Wavelengths
Number of Pixels in Spectrum: 1044
>>>>>Begin Spectral Data<<<<<
220.843	2.12
221.644	1.12
222.444	1.12
223.244	1.12
224.045	3.12
224.845	2.12
225.645	4.12
226.445	3.12
227.245	4.12
228.045	1.12
228.845	4.12
229.645	2.12
230.444	2.12
231.244	1.12
232.043	3.12
232.843	3.12
233.642	2.12
234.442	7.12
235.241	4.12
236.04	3.12
236.839	3.12
237.638	4.12
238.437	4.12
239.236	2.12
240.035	5.12
240.833	2.12
241.632	6.12
242.43	5.12
243.229	4.12
244.027	3.12
244.826	3.12
245.624	4.12
246.422	5.12
247.22	6.12
248.018	3.12
248.816	5.12
249.614	5.12
250.412	6.12
251.21	5.12
252.007	5.12
252.805	8.12
253.602	7.12
254.4	8.12
255.197	7.12
255.994	7.12
256.791	7.12
257.589	6.12
258.386	7.12
259.183	9.12
259.979	9.12
260.776	8.12
261.573	10.12
262.37	9.12
263.166	8.12
263.963	11.12
264.759	10.12
265.556	9.12
266.352	12.12
267.148	10.12
267.944	11.12
268.74	12.12
269.536	13.12
270.332	13.12
271.128	12.12
271.924	15.12
272.719	14.12
273.515	15.12
274.311	15.12
275.106	15.12
275.901	13.12
276.697	15.12
277.492	17.12
278.287	16.12
279.082	15.12
279.877	17.12
280.672	18.12
281.467	17.12
282.262	16.12
283.056	20.12
283.851	16.12
284.646	15.12
285.44	18.12
286.234	17.12
287.029	16.12
287.823	17.12
288.617	17.12
289.411	17.12
290.205	17.12
290.999	18.12
291.793	18.12
292.587	17.12
293.381	15.12
294.174	18.12
294.968	15.12
295.761	15.12
296.555	16.12
297.348	16.12
298.141	15.12
298.935	17.12
299.728	14.12
300.521	14.12
301.314	14.12
302.107	12.12
302.899	12.12
303.692	12.12
304.485	12.12
305.277	13.12
306.07	12.12
306.862	11.12
307.655	14.12
308.447	13.12
309.239	11.12
310.031	11.12
310.823	11.12
311.615	8.12
312.407	8.12
313.199	10.12
313.991	9.12
314.783	12.12
315.574	10.12
316.366	9.12
317.157	7.12
317.949	8.12
318.74	7.12
319.531	7.12
320.322	6.12
321.113	9.12
321.904	8.12
322.695	6.12
323.486	7.12
324.277	8.12
325.068	9.12
325.858	6.12
326.649	9.12
327.439	4.12
328.23	5.12
329.02	5.12
329.81	9.12
330.6	6.12
331.391	7.12
332.181	7.12
332.971	6.12
333.76	6.12
334.55	5.12
335.34	7.12
336.13	6.12
336.919	7.12
337.709	4.12
338.498	3.12
339.287	5.12
340.077	7.12
340.866	8.12
341.655	8.12
342.444	5.12
343.233	7.12
344.022	6.12
344.811	9.12
345.6	6.12
346.388	4.12
347.177	5.12
347.965	6.12
348.754	6.12
349.542	6.12
350.33	6.12
351.119	9.12
351.907	5.12
352.695	5.12
353.483	6.12
354.271	6.12
355.059	7.12
355.846	5.12
356.634	4.12
357.422	7.12
358.209	5.12
358.997	4.12
359.784	6.12
360.571	3.12
361.359	5.12
362.146	6.12
362.933	6.12
363.72	2.12
364.507	4.12
365.294	4.12
366.081	5.12
366.867	5.12
367.654	6.12
368.44	5.12
369.227	7.12
370.013	5.12
370.8	6.12
371.586	5.12
372.372	4.12
373.158	5.12
373.944	6.12
374.73	7.12
375.516	4.12
376.302	7.12
377.088	7.12
377.873	6.12
378.659	5.12
379.445	5.12
380.23	5.12
381.015	5.12
381.801	4.12
382.586	5.12
383.371	4.12
384.156	5.12
384.941	6.12
385.726	4.12
386.511	5.12
387.296	7.12
388.08	4.12
388.865	4.12
389.649	4.12
390.434	3.12
391.218	5.12
392.003	5.12
392.787	4.12
393.571	5.12
394.355	5.12
395.139	5.12
395.923	7.12
396.707	7.12
397.491	4.12
398.274	5.12
399.058	6.12
399.842	6.12
400.625	6.12
401.408	6.12
402.192	7.12
402.975	7.12
403.758	5.12
404.541	6.12
405.324	7.12
406.107	7.12
406.89	7.12
407.673	7.12
408.456	7.12
409.238	7.12
410.021	8.12
410.803	6.12
411.586	10.12
412.368	8.12
413.151	7.12
413.933	7.12
414.715	8.12
415.497	9.12
416.279	9.12
417.061	11.12
417.843	6.12
418.624	8.12
419.406	10.12
420.188	9.12
420.969	11.12
421.751	10.12
422.532	12.12
423.313	12.12
424.095	10.12
424.876	11.12
425.657	11.12
426.438	13.12
427.219	10.12
428	12.12
428.78	13.12
429.561	14.12
430.342	13.12
431.122	14.12
431.903	14.12
432.683	14.12
433.464	14.12
434.244	15.12
435.024	18.12
435.804	16.12
436.584	18.12
437.364	17.12
438.144	20.12
438.924	18.12
439.704	18.12
440.483	21.12
441.263	23.12
442.042	26.12
442.822	27.12
443.601	26.12
444.38	28.12
445.16	30.12
445.939	35.12
446.718	38.12
447.497	42.12
448.276	43.12
449.054	47.12
449.833	52.12
450.612	59.12
451.391	65.12
452.169	65.12
452.948	72.12
453.726	79.12
454.504	88.12
455.282	102.12
456.061	108.12
456.839	122.12
457.617	132.12
458.395	152.12
459.172	164.12
459.95	176.12
460.728	203.12
461.506	226.12
462.283	256.12
463.061	277.12
463.838	317.12
464.615	360.12
465.393	392.12
466.17	425.12
466.947	492.12
467.724	533.12
468.501	591.12
469.278	663.12
470.055	723.12
470.831	802.12
471.608	880.12
472.385	975.12
473.161	1084.12
473.938	1198.12
474.714	1320.12
475.49	1446.12
476.266	1607.12
477.043	1755.12
477.819	1936.12
478.595	2122.12
479.371	2342.12
480.146	2560.12
480.922	2790.12
481.698	3077.12
482.473	3352.12
483.249	3667.12
484.024	4016.12
484.8	4373.12
485.575	4799.12
486.35	5236.12
487.126	5683.12
487.901	6175.12
488.676	6768.12
489.451	7359.12
490.225	8036.12
491	8667.12
491.775	9475.12
492.55	10286.12
493.324	11076.12
494.099	11907.12
494.873	12779.12
495.647	13774.12
496.422	14774.12
497.196	15842.12
497.97	16839.12
498.744	17958.12
499.518	18952.12
500.292	19976.12
501.066	21086.12
501.839	22001.12
502.613	22944.12
503.387	23651.12
504.16	24425.12
504.934	24887.12
505.707	25217.12
506.48	25424.12
507.253	25467.12
508.027	25496.12
508.8	25385.12
509.573	25217.12
510.346	24798.12
511.118	24190.12
511.891	23628.12
512.664	23017.12
513.437	22309.12
514.209	21490.12
514.982	20737.12
515.754	19825.12
516.526	19008.12
517.298	18299.12
518.071	17530.12
518.843	16850.12
519.615	16228.12
520.387	15554.12
521.159	14958.12
521.93	14368.12
522.702	13823.12
523.474	13279.12
524.245	12655.12
525.017	12118.12
525.788	11691.12
526.56	11135.12
527.331	10625.12
528.102	10203.12
528.873	9755.12
529.644	9310.12
530.415	8908.12
531.186	8428.12
531.957	8049.12
532.728	7626.12
533.498	7298.12
534.269	6892.12
535.039	6508.12
535.81	6197.12
536.58	5796.12
537.351	5489.12
538.121	5202.12
538.891	4937.12
539.661	4660.12
540.431	4412.12
541.201	4143.12
541.971	3936.12
542.741	3735.12
543.51	3543.12
544.28	3387.12
545.05	3212.12
545.819	3031.12
546.588	2906.12
547.358	2749.12
548.127	2621.12
548.896	2519.12
549.665	2366.12
550.434	2250.12
551.203	2123.12
551.972	2031.12
552.741	1907.12
553.51	1808.12
554.278	1699.12
555.047	1606.12
555.815	1518.12
556.584	1447.12
557.352	1365.12
558.121	1287.12
558.889	1218.12
559.657	1151.12
560.425	1079.12
561.193	1020.12
561.961	962.12
562.729	911.12
563.496	869.12
564.264	818.12
565.032	776.12
565.799	747.12
566.567	689.12
567.334	655.12
568.101	611.12
568.869	580.12
569.636	546.12
570.403	524.12
571.17	483.12
571.937	455.12
572.704	434.12
573.471	402.12
574.237	388.12
575.004	362.12
575.771	341.12
576.537	322.12
577.303	300.12
578.07	285.12
578.836	274.12
579.602	252.12
580.368	242.12
581.134	226.12
581.9	213.12
582.666	208.12
583.432	195.12
584.198	185.12
584.964	173.12
585.729	163.12
586.495	158.12
587.26	153.12
588.025	146.12
588.791	137.12
589.556	127.12
590.321	124.12
591.086	111.12
591.851	109.12
592.616	106.12
593.381	97.12
594.146	90.12
594.911	87.12
595.675	88.12
596.44	81.12
597.204	78.12
597.969	70.12
598.733	73.12
599.497	67.12
600.261	63.12
601.025	58.12
601.79	60.12
602.553	57.12
603.317	53.12
604.081	53.12
604.845	50.12
605.609	45.12
606.372	45.12
607.136	42.12
607.899	40.12
608.662	38.12
609.426	37.12
610.189	35.12
610.952	33.12
611.715	32.12
612.478	33.12
613.241	34.12
614.004	28.12
614.767	27.12
615.529	26.12
616.292	25.12
617.055	27.12
617.817	23.12
618.579	24.12
619.342	23.12
620.104	22.12
620.866	22.12
621.628	19.12
622.39	21.12
623.152	21.12
623.914	16.12
624.676	17.12
625.438	17.12
626.199	18.12
626.961	15.12
627.722	16.12
628.484	17.12
629.245	16.12
630.006	15.12
630.768	13.12
631.529	13.12
632.29	15.12
633.051	16.12
633.812	13.12
634.573	12.12
635.333	12.12
636.094	11.12
636.855	12.12
637.615	11.12
638.376	14.12
639.136	11.12
639.896	10.12
640.657	8.12
641.417	7.12
642.177	11.12
642.937	7.12
643.697	9.12
644.457	8.12
645.216	9.12
645.976	8.12
646.736	8.12
647.495	6.12
648.255	9.12
649.014	7.12
649.774	8.12
650.533	6.12
651.292	8.12
652.051	8.12
652.81	5.12
653.569	8.12
654.328	8.12
655.087	4.12
655.846	6.12
656.604	7.12
657.363	5.12
658.121	6.12
658.88	6.12
659.638	7.12
660.397	6.12
661.155	7.12
661.913	4.12
662.671	6.12
663.429	5.12
664.187	3.12
664.945	5.12
665.703	6.12
666.46	2.12
667.218	5.12
667.976	5.12
668.733	6.12
669.49	5.12
670.248	7.12
671.005	7.12
671.762	4.12
672.519	3.12
673.276	4.12
674.033	3.12
674.79	4.12
675.547	4.12
676.304	4.12
677.06	4.12
677.817	2.12
678.574	3.12
679.33	4.12
680.086	3.12
680.843	2.12
681.599	4.12
682.355	1.12
683.111	2.12
683.867	5.12
684.623	3.12
685.379	5.12
686.135	2.12
686.89	2.12
687.646	3.12
688.402	4.12
689.157	2.12
689.912	1.12
690.668	2.12
691.423	1.12
692.178	4.12
692.933	3.12
693.688	2.12
694.443	3.12
695.198	4.12
695.953	2.12
696.708	2.12
697.462	4.12
698.217	4.12
698.972	4.12
699.726	5.12
700.48	2.12
701.235	3.12
701.989	2.12
702.743	4.12
703.497	7.12
704.251	2.12
705.005	4.12
705.759	3.12
706.513	2.12
707.266	1.12
708.02	2.12
708.774	3.12
709.527	2.12
710.28	3.12
711.034	3.12
711.787	4.12
712.54	5.12
713.293	4.12
714.046	4.12
714.799	1.12
715.552	3.12
716.305	4.12
717.058	4.12
717.81	3.12
718.563	2.12
719.315	4.12
720.068	3.12
720.82	4.12
721.573	4.12
722.325	3.12
723.077	2.12
723.829	5.12
724.581	4.12
725.333	4.12
726.085	2.12
726.836	5.12
727.588	3.12
728.34	3.12
729.091	2.12
729.843	2.12
730.594	6.12
731.346	3.12
732.097	4.12
732.848	4.12
733.599	5.12
734.35	2.12
735.101	5.12
735.852	6.12
736.603	1.12
737.354	3.12
738.104	2.12
738.855	3.12
739.605	0.12
740.356	4.12
741.106	2.12
741.856	4.12
742.607	5.12
743.357	4.12
744.107	3.12
744.857	4.12
745.607	4.12
746.357	3.12
747.106	2.12
747.856	5.12
748.606	3.12
749.355	4.12
750.105	4.12
750.854	3.12
751.603	5.12
752.353	6.12
753.102	5.12
753.851	4.12
754.6	4.12
755.349	4.12
756.098	5.12
756.847	7.12
757.595	5.12
758.344	5.12
759.093	6.12
759.841	7.12
760.589	4.12
761.338	4.12
762.086	4.12
762.834	4.12
763.582	7.12
764.331	5.12
765.079	5.12
765.826	6.12
766.574	3.12
767.322	9.12
768.07	6.12
768.817	7.12
769.565	7.12
770.312	7.12
771.06	7.12
771.807	4.12
772.554	10.12
773.302	5.12
774.049	7.12
774.796	6.12
775.543	7.12
776.29	7.12
777.036	8.12
777.783	10.12
778.53	8.12
779.276	8.12
780.023	9.12
780.769	7.12
781.516	8.12
782.262	5.12
783.008	8.12
783.754	9.12
784.5	10.12
785.246	8.12
785.992	5.12
786.738	7.12
787.484	5.12
788.23	8.12
788.975	8.12
789.721	8.12
790.466	8.12
791.212	10.12
791.957	8.12
792.702	6.12
793.447	9.12
794.193	7.12
794.938	8.12
795.683	10.12
796.427	8.12
797.172	8.12
797.917	5.12
798.662	6.12
799.406	6.12
800.151	9.12
800.895	8.12
801.64	8.12
802.384	5.12
803.128	8.12
803.872	6.12
804.616	5.12
805.36	5.12
806.104	5.12
806.848	5.12
807.592	7.12
808.336	8.12
809.079	7.12
809.823	5.12
810.566	5.12
811.31	5.12
812.053	4.12
812.796	4.12
813.539	6.12
814.283	6.12
815.026	5.12
815.769	5.12
816.511	5.12
817.254	4.12
817.997	8.12
818.74	6.12
819.482	2.12
820.225	5.12
820.967	3.12
821.71	3.12
822.452	5.12
823.194	6.12
823.936	0.12
824.678	4.12
825.42	2.12
826.162	5.12
826.904	4.12
827.646	4.12
828.388	4.12
829.129	4.12
829.871	4.12
830.612	4.12
831.354	3.12
832.095	2.12
832.836	3.12
833.577	5.12
834.319	4.12
835.06	4.12
835.801	3.12
836.542	0.12
837.282	5.12
838.023	4.12
838.764	3.12
839.504	7.12
840.245	5.12
840.985	2.12
841.726	5.12
842.466	2.12
843.206	2.12
843.946	2.12
844.687	4.12
845.427	5.12
846.166	1.12
846.906	2.12
847.646	4.12
848.386	3.12
849.125	2.12
849.865	4.12
850.605	1.12
851.344	2.12
852.083	1.12
852.823	3.12
853.562	1.12
854.301	2.12
855.04	2.12
855.779	2.12
856.518	2.12
857.257	5.12
857.995	0.12
858.734	4.12
859.473	2.12
860.211	0.12
860.95	1.12
861.688	3.12
862.426	3.12
863.165	2.12
863.903	-1.88
864.641	2.12
865.379	4.12
866.117	2.12
866.855	0.12
867.593	2.12
868.33	2.12
869.068	2.12
869.806	1.12
870.543	1.12
871.28	1.12
872.018	0.12
872.755	0.12
873.492	0.12
874.229	2.12
874.967	2.12
875.703	2.12
876.44	2.12
877.177	2.12
877.914	1.12
878.651	1.12
879.387	3.12
880.124	0.12
880.86	0.12
881.597	1.12
882.333	1.12
883.069	1.12
883.806	-0.88
884.542	2.12
885.278	2.12
886.014	0.12
886.749	1.12
887.485	0.12
888.221	0.12
888.957	0.12
889.692	1.12
890.428	2.12
891.163	0.12
891.899	0.12
892.634	1.12
893.369	2.12
894.104	2.12
894.839	3.12
895.574	0.12
896.309	1.12
897.044	2.12
897.779	0.12
898.514	1.12
899.248	-1.88
899.983	1.12
900.717	0.12
901.452	1.12
902.186	1.12
902.92	0.12
903.654	2.12
904.389	2.12
905.123	1.12
905.857	0.12
906.59	1.12
907.324	2.12
908.058	3.12
908.792	1.12
909.525	0.12
910.259	-0.88
910.992	1.12
911.726	0.12
912.459	1.12
913.192	1.12
913.925	0.12
914.658	0.12
915.391	-1.88
916.124	0.12
916.857	2.12
917.59	2.12
918.323	0.12
919.055	0.12
919.788	-0.88
920.521	-1.88
921.253	-1.88
921.985	0.12
922.718	2.12
923.45	0.12
924.182	1.12
924.914	0.12
925.646	1.12
926.378	-0.88
927.11	1.12
927.841	0.12
928.573	-1.88
929.305	1.12
930.036	0.12
930.768	-0.88
931.499	-1.88
932.23	-0.88
932.962	1.12
933.693	-0.88
934.424	-0.88
935.155	-1.88
935.886	3.12
936.617	-0.88
937.348	-1.88
938.078	0.12
938.809	2.12
939.54	0.12
940.27	2.12
941.001	-1.88
941.731	1.12
942.461	0.12
943.191	0.12
943.922	0.12
944.652	1.12
945.382	2.12
946.112	-0.88
946.841	0.12
947.571	-1.88
948.301	0.12
949.031	1.12
949.76	0.12
950.49	1.12
951.219	0.12
951.948	0.12
952.678	1.12
953.407	2.12
954.136	0.12
954.865	1.12
955.594	1.12
956.323	-0.88
957.052	-0.88
957.78	1.12
958.509	1.12
959.238	0.12
959.966	-1.88
960.695	0.12
961.423	0.12
962.151	2.12
962.88	-0.88
963.608	-0.88
964.336	1.12
965.064	0.12
965.792	0.12
966.52	-2.88
967.247	0.12
967.975	-1.88
968.703	-1.88
969.43	0.12
970.158	-1.88
970.885	1.12
971.613	-1.88
972.34	2.12
973.067	2.12
973.794	1.12
974.521	0.12
975.248	-1.88
975.975	1.12
976.702	0.12
977.429	1.12
978.156	-1.88
978.882	-0.88
979.609	2.12
980.335	-1.88
981.062	1.12
981.788	0.12
982.514	0.12
983.24	1.12
983.967	0.12
984.693	0.12
985.419	0.12
986.144	1.12
986.87	0.12
987.596	0.12
988.322	2.12
989.047	-1.88
989.773	-1.88
990.498	1.12
991.224	-0.88
991.949	0.12
992.674	1.12
993.399	0.12
994.124	0.12
994.849	0.12
995.574	4.12
996.299	0.12
997.024	0.12
997.749	-0.88
998.473	0.12
999.198	0.12
999.922	-0.88
1000.647	0.12
1001.371	2.12
1002.095	-0.88
1002.82	-2.88
1003.544	0.12
1004.268	3.12
1004.992	1.12
1005.716	0.12
1006.439	0.12
1007.163	0.12
1007.887	1.12
1008.611	-0.88
1009.334	1.12
1010.058	-0.88
1010.781	0.12
1011.504	-1.88
1012.228	0.12
1012.951	-0.88
1013.674	0.12
1014.397	1.12
1015.12	1.12
