节点500_285_QEPB04081__467__15-03-19-520.txt的数据

Date: Wed Nov 12 15:03:19 CST 2025
User: PC
Spectrometer: QEPB0408
触发模式: 0
积分时间 (秒): 1.000000E-2
Scans to average: 1
启用暗噪声校正: true
启用非线性校正: false
滑动平均宽度: 0
X轴模式: Wavelengths
Number of Pixels in Spectrum: 1044
>>>>>Begin Spectral Data<<<<<
220.843	2.38
221.644	2.38
222.444	2.38
223.244	-0.62
224.045	2.38
224.845	2.38
225.645	2.38
226.445	4.38
227.245	0.38
228.045	3.38
228.845	4.38
229.645	3.38
230.444	4.38
231.244	4.38
232.043	3.38
232.843	2.38
233.642	3.38
234.442	4.38
235.241	4.38
236.04	3.38
236.839	5.38
237.638	6.38
238.437	4.38
239.236	5.38
240.035	3.38
240.833	1.38
241.632	6.38
242.43	4.38
243.229	5.38
244.027	6.38
244.826	7.38
245.624	4.38
246.422	5.38
247.22	7.38
248.018	7.38
248.816	7.38
249.614	6.38
250.412	6.38
251.21	8.38
252.007	7.38
252.805	7.38
253.602	7.38
254.4	8.38
255.197	7.38
255.994	8.38
256.791	9.38
257.589	10.38
258.386	9.38
259.183	8.38
259.979	9.38
260.776	10.38
261.573	11.38
262.37	9.38
263.166	11.38
263.963	13.38
264.759	12.38
265.556	14.38
266.352	11.38
267.148	13.38
267.944	14.38
268.74	13.38
269.536	15.38
270.332	15.38
271.128	16.38
271.924	14.38
272.719	17.38
273.515	14.38
274.311	14.38
275.106	19.38
275.901	17.38
276.697	19.38
277.492	18.38
278.287	18.38
279.082	17.38
279.877	18.38
280.672	18.38
281.467	18.38
282.262	17.38
283.056	17.38
283.851	19.38
284.646	18.38
285.44	18.38
286.234	16.38
287.029	18.38
287.823	19.38
288.617	20.38
289.411	17.38
290.205	20.38
290.999	18.38
291.793	22.38
292.587	19.38
293.381	17.38
294.174	19.38
294.968	15.38
295.761	17.38
296.555	15.38
297.348	17.38
298.141	16.38
298.935	18.38
299.728	17.38
300.521	16.38
301.314	16.38
302.107	14.38
302.899	14.38
303.692	13.38
304.485	11.38
305.277	17.38
306.07	13.38
306.862	12.38
307.655	14.38
308.447	12.38
309.239	14.38
310.031	12.38
310.823	11.38
311.615	10.38
312.407	10.38
313.199	10.38
313.991	11.38
314.783	10.38
315.574	9.38
316.366	9.38
317.157	10.38
317.949	7.38
318.74	10.38
319.531	7.38
320.322	7.38
321.113	9.38
321.904	7.38
322.695	7.38
323.486	6.38
324.277	10.38
325.068	6.38
325.858	7.38
326.649	9.38
327.439	7.38
328.23	9.38
329.02	5.38
329.81	6.38
330.6	8.38
331.391	8.38
332.181	10.38
332.971	6.38
333.76	6.38
334.55	7.38
335.34	8.38
336.13	7.38
336.919	9.38
337.709	7.38
338.498	6.38
339.287	6.38
340.077	9.38
340.866	8.38
341.655	4.38
342.444	8.38
343.233	7.38
344.022	5.38
344.811	5.38
345.6	7.38
346.388	5.38
347.177	6.38
347.965	5.38
348.754	7.38
349.542	5.38
350.33	7.38
351.119	6.38
351.907	6.38
352.695	4.38
353.483	6.38
354.271	8.38
355.059	7.38
355.846	6.38
356.634	5.38
357.422	6.38
358.209	5.38
358.997	5.38
359.784	6.38
360.571	6.38
361.359	5.38
362.146	8.38
362.933	5.38
363.72	7.38
364.507	5.38
365.294	5.38
366.081	4.38
366.867	4.38
367.654	6.38
368.44	4.38
369.227	6.38
370.013	4.38
370.8	7.38
371.586	7.38
372.372	5.38
373.158	5.38
373.944	6.38
374.73	6.38
375.516	5.38
376.302	6.38
377.088	7.38
377.873	3.38
378.659	5.38
379.445	6.38
380.23	4.38
381.015	4.38
381.801	4.38
382.586	6.38
383.371	5.38
384.156	6.38
384.941	6.38
385.726	6.38
386.511	4.38
387.296	5.38
388.08	7.38
388.865	6.38
389.649	3.38
390.434	5.38
391.218	5.38
392.003	5.38
392.787	5.38
393.571	9.38
394.355	8.38
395.139	9.38
395.923	8.38
396.707	7.38
397.491	4.38
398.274	6.38
399.058	9.38
399.842	7.38
400.625	8.38
401.408	6.38
402.192	5.38
402.975	5.38
403.758	7.38
404.541	9.38
405.324	8.38
406.107	10.38
406.89	5.38
407.673	9.38
408.456	10.38
409.238	8.38
410.021	7.38
410.803	8.38
411.586	9.38
412.368	10.38
413.151	7.38
413.933	9.38
414.715	9.38
415.497	12.38
416.279	8.38
417.061	10.38
417.843	9.38
418.624	10.38
419.406	10.38
420.188	11.38
420.969	10.38
421.751	10.38
422.532	11.38
423.313	11.38
424.095	7.38
424.876	14.38
425.657	12.38
426.438	12.38
427.219	14.38
428	12.38
428.78	13.38
429.561	12.38
430.342	14.38
431.122	12.38
431.903	14.38
432.683	16.38
433.464	13.38
434.244	16.38
435.024	18.38
435.804	19.38
436.584	17.38
437.364	20.38
438.144	22.38
438.924	21.38
439.704	22.38
440.483	23.38
441.263	25.38
442.042	24.38
442.822	28.38
443.601	29.38
444.38	33.38
445.16	34.38
445.939	37.38
446.718	39.38
447.497	38.38
448.276	40.38
449.054	47.38
449.833	49.38
450.612	54.38
451.391	58.38
452.169	63.38
452.948	71.38
453.726	70.38
454.504	84.38
455.282	97.38
456.061	104.38
456.839	113.38
457.617	126.38
458.395	135.38
459.172	159.38
459.95	172.38
460.728	186.38
461.506	213.38
462.283	238.38
463.061	257.38
463.838	304.38
464.615	336.38
465.393	369.38
466.17	414.38
466.947	457.38
467.724	502.38
468.501	572.38
469.278	633.38
470.055	696.38
470.831	784.38
471.608	860.38
472.385	962.38
473.161	1077.38
473.938	1180.38
474.714	1311.38
475.49	1444.38
476.266	1591.38
477.043	1764.38
477.819	1943.38
478.595	2136.38
479.371	2341.38
480.146	2591.38
480.922	2841.38
481.698	3131.38
482.473	3411.38
483.249	3778.38
484.024	4160.38
484.8	4573.38
485.575	4984.38
486.35	5511.38
487.126	6025.38
487.901	6577.38
488.676	7208.38
489.451	7870.38
490.225	8616.38
491	9385.38
491.775	10231.38
492.55	11101.38
493.324	12056.38
494.099	12993.38
494.873	14007.38
495.647	15054.38
496.422	16154.38
497.196	17279.38
497.97	18444.38
498.744	19662.38
499.518	20805.38
500.292	21858.38
501.066	22944.38
501.839	23869.38
502.613	24839.38
503.387	25573.38
504.16	26272.38
504.934	26597.38
505.707	26803.38
506.48	26959.38
507.253	26914.38
508.027	26772.38
508.8	26473.38
509.573	26087.38
510.346	25524.38
511.118	24914.38
511.891	24164.38
512.664	23376.38
513.437	22543.38
514.209	21590.38
514.982	20701.38
515.754	19853.38
516.526	18964.38
517.298	18162.38
518.071	17390.38
518.843	16674.38
519.615	16071.38
520.387	15414.38
521.159	14819.38
521.93	14250.38
522.702	13641.38
523.474	13067.38
524.245	12519.38
525.017	12009.38
525.788	11595.38
526.56	11017.38
527.331	10518.38
528.102	10039.38
528.873	9587.38
529.644	9126.38
530.415	8711.38
531.186	8248.38
531.957	7806.38
532.728	7464.38
533.498	7040.38
534.269	6678.38
535.039	6293.38
535.81	5969.38
536.58	5607.38
537.351	5291.38
538.121	5014.38
538.891	4744.38
539.661	4481.38
540.431	4246.38
541.201	4008.38
541.971	3797.38
542.741	3628.38
543.51	3420.38
544.28	3260.38
545.05	3097.38
545.819	2943.38
546.588	2788.38
547.358	2649.38
548.127	2550.38
548.896	2391.38
549.665	2266.38
550.434	2151.38
551.203	2035.38
551.972	1923.38
552.741	1833.38
553.51	1739.38
554.278	1637.38
555.047	1550.38
555.815	1461.38
556.584	1373.38
557.352	1296.38
558.121	1233.38
558.889	1160.38
559.657	1093.38
560.425	1038.38
561.193	963.38
561.961	917.38
562.729	871.38
563.496	829.38
564.264	773.38
565.032	726.38
565.799	697.38
566.567	650.38
567.334	622.38
568.101	587.38
568.869	554.38
569.636	524.38
570.403	482.38
571.17	459.38
571.937	437.38
572.704	416.38
573.471	383.38
574.237	375.38
575.004	347.38
575.771	333.38
576.537	309.38
577.303	288.38
578.07	273.38
578.836	263.38
579.602	244.38
580.368	224.38
581.134	220.38
581.9	205.38
582.666	191.38
583.432	178.38
584.198	174.38
584.964	166.38
585.729	164.38
586.495	148.38
587.26	136.38
588.025	135.38
588.791	125.38
589.556	121.38
590.321	111.38
591.086	106.38
591.851	103.38
592.616	100.38
593.381	92.38
594.146	90.38
594.911	85.38
595.675	81.38
596.44	75.38
597.204	74.38
597.969	68.38
598.733	66.38
599.497	66.38
600.261	63.38
601.025	56.38
601.79	51.38
602.553	52.38
603.317	49.38
604.081	51.38
604.845	48.38
605.609	44.38
606.372	42.38
607.136	39.38
607.899	42.38
608.662	37.38
609.426	38.38
610.189	35.38
610.952	33.38
611.715	31.38
612.478	31.38
613.241	30.38
614.004	31.38
614.767	28.38
615.529	26.38
616.292	23.38
617.055	23.38
617.817	22.38
618.579	26.38
619.342	24.38
620.104	22.38
620.866	18.38
621.628	21.38
622.39	20.38
623.152	20.38
623.914	23.38
624.676	18.38
625.438	16.38
626.199	14.38
626.961	16.38
627.722	15.38
628.484	16.38
629.245	15.38
630.006	16.38
630.768	13.38
631.529	13.38
632.29	14.38
633.051	13.38
633.812	13.38
634.573	13.38
635.333	11.38
636.094	14.38
636.855	11.38
637.615	12.38
638.376	12.38
639.136	10.38
639.896	12.38
640.657	8.38
641.417	9.38
642.177	9.38
642.937	9.38
643.697	8.38
644.457	9.38
645.216	10.38
645.976	7.38
646.736	9.38
647.495	7.38
648.255	7.38
649.014	6.38
649.774	7.38
650.533	9.38
651.292	7.38
652.051	8.38
652.81	6.38
653.569	6.38
654.328	5.38
655.087	7.38
655.846	8.38
656.604	5.38
657.363	7.38
658.121	7.38
658.88	6.38
659.638	5.38
660.397	7.38
661.155	7.38
661.913	5.38
662.671	5.38
663.429	4.38
664.187	7.38
664.945	8.38
665.703	6.38
666.46	7.38
667.218	4.38
667.976	7.38
668.733	5.38
669.49	6.38
670.248	5.38
671.005	7.38
671.762	4.38
672.519	5.38
673.276	4.38
674.033	3.38
674.79	4.38
675.547	4.38
676.304	4.38
677.06	5.38
677.817	3.38
678.574	5.38
679.33	6.38
680.086	4.38
680.843	4.38
681.599	3.38
682.355	6.38
683.111	5.38
683.867	3.38
684.623	4.38
685.379	2.38
686.135	6.38
686.89	1.38
687.646	5.38
688.402	2.38
689.157	3.38
689.912	5.38
690.668	4.38
691.423	4.38
692.178	4.38
692.933	4.38
693.688	3.38
694.443	5.38
695.198	5.38
695.953	4.38
696.708	3.38
697.462	6.38
698.217	3.38
698.972	5.38
699.726	3.38
700.48	2.38
701.235	6.38
701.989	4.38
702.743	5.38
703.497	4.38
704.251	4.38
705.005	4.38
705.759	4.38
706.513	3.38
707.266	3.38
708.02	4.38
708.774	7.38
709.527	2.38
710.28	5.38
711.034	5.38
711.787	5.38
712.54	3.38
713.293	4.38
714.046	6.38
714.799	2.38
715.552	4.38
716.305	3.38
717.058	6.38
717.81	4.38
718.563	4.38
719.315	4.38
720.068	4.38
720.82	4.38
721.573	5.38
722.325	4.38
723.077	4.38
723.829	4.38
724.581	5.38
725.333	2.38
726.085	6.38
726.836	5.38
727.588	4.38
728.34	6.38
729.091	6.38
729.843	5.38
730.594	4.38
731.346	6.38
732.097	4.38
732.848	7.38
733.599	6.38
734.35	4.38
735.101	6.38
735.852	4.38
736.603	6.38
737.354	3.38
738.104	5.38
738.855	3.38
739.605	4.38
740.356	6.38
741.106	4.38
741.856	5.38
742.607	6.38
743.357	5.38
744.107	7.38
744.857	4.38
745.607	6.38
746.357	4.38
747.106	5.38
747.856	4.38
748.606	5.38
749.355	7.38
750.105	5.38
750.854	5.38
751.603	5.38
752.353	4.38
753.102	6.38
753.851	6.38
754.6	6.38
755.349	4.38
756.098	6.38
756.847	6.38
757.595	5.38
758.344	8.38
759.093	5.38
759.841	7.38
760.589	3.38
761.338	5.38
762.086	5.38
762.834	6.38
763.582	8.38
764.331	7.38
765.079	8.38
765.826	5.38
766.574	7.38
767.322	8.38
768.07	7.38
768.817	8.38
769.565	7.38
770.312	7.38
771.06	6.38
771.807	9.38
772.554	9.38
773.302	7.38
774.049	8.38
774.796	8.38
775.543	9.38
776.29	7.38
777.036	8.38
777.783	10.38
778.53	9.38
779.276	12.38
780.023	7.38
780.769	9.38
781.516	9.38
782.262	10.38
783.008	8.38
783.754	9.38
784.5	9.38
785.246	8.38
785.992	10.38
786.738	12.38
787.484	9.38
788.23	10.38
788.975	9.38
789.721	11.38
790.466	7.38
791.212	12.38
791.957	9.38
792.702	9.38
793.447	11.38
794.193	8.38
794.938	9.38
795.683	11.38
796.427	9.38
797.172	8.38
797.917	7.38
798.662	7.38
799.406	8.38
800.151	9.38
800.895	10.38
801.64	9.38
802.384	5.38
803.128	6.38
803.872	7.38
804.616	6.38
805.36	8.38
806.104	8.38
806.848	6.38
807.592	5.38
808.336	5.38
809.079	6.38
809.823	6.38
810.566	6.38
811.31	5.38
812.053	6.38
812.796	5.38
813.539	5.38
814.283	6.38
815.026	4.38
815.769	5.38
816.511	5.38
817.254	6.38
817.997	5.38
818.74	7.38
819.482	7.38
820.225	4.38
820.967	3.38
821.71	5.38
822.452	7.38
823.194	3.38
823.936	6.38
824.678	5.38
825.42	4.38
826.162	2.38
826.904	8.38
827.646	4.38
828.388	7.38
829.129	4.38
829.871	2.38
830.612	4.38
831.354	3.38
832.095	4.38
832.836	4.38
833.577	2.38
834.319	3.38
835.06	4.38
835.801	4.38
836.542	4.38
837.282	3.38
838.023	4.38
838.764	4.38
839.504	1.38
840.245	3.38
840.985	5.38
841.726	3.38
842.466	4.38
843.206	4.38
843.946	5.38
844.687	5.38
845.427	2.38
846.166	2.38
846.906	5.38
847.646	3.38
848.386	3.38
849.125	3.38
849.865	4.38
850.605	3.38
851.344	5.38
852.083	2.38
852.823	2.38
853.562	5.38
854.301	1.38
855.04	3.38
855.779	1.38
856.518	4.38
857.257	2.38
857.995	2.38
858.734	1.38
859.473	1.38
860.211	4.38
860.95	2.38
861.688	2.38
862.426	4.38
863.165	2.38
863.903	4.38
864.641	1.38
865.379	2.38
866.117	2.38
866.855	4.38
867.593	3.38
868.33	2.38
869.068	2.38
869.806	3.38
870.543	2.38
871.28	2.38
872.018	0.38
872.755	1.38
873.492	1.38
874.229	2.38
874.967	0.38
875.703	2.38
876.44	4.38
877.177	0.38
877.914	2.38
878.651	0.38
879.387	1.38
880.124	4.38
880.86	3.38
881.597	2.38
882.333	1.38
883.069	3.38
883.806	2.38
884.542	0.38
885.278	2.38
886.014	-0.62
886.749	2.38
887.485	1.38
888.221	1.38
888.957	0.38
889.692	2.38
890.428	2.38
891.163	-0.62
891.899	1.38
892.634	0.38
893.369	4.38
894.104	1.38
894.839	4.38
895.574	1.38
896.309	0.38
897.044	3.38
897.779	2.38
898.514	1.38
899.248	0.38
899.983	1.38
900.717	2.38
901.452	-1.62
902.186	1.38
902.92	0.38
903.654	1.38
904.389	1.38
905.123	-0.62
905.857	-0.62
906.59	0.38
907.324	1.38
908.058	1.38
908.792	4.38
909.525	1.38
910.259	1.38
910.992	0.38
911.726	2.38
912.459	2.38
913.192	1.38
913.925	-0.62
914.658	2.38
915.391	3.38
916.124	0.38
916.857	3.38
917.59	3.38
918.323	3.38
919.055	0.38
919.788	1.38
920.521	1.38
921.253	0.38
921.985	1.38
922.718	2.38
923.45	-0.62
924.182	1.38
924.914	1.38
925.646	2.38
926.378	1.38
927.11	0.38
927.841	-0.62
928.573	2.38
929.305	1.38
930.036	-0.62
930.768	0.38
931.499	1.38
932.23	1.38
932.962	4.38
933.693	4.38
934.424	-0.62
935.155	1.38
935.886	2.38
936.617	0.38
937.348	1.38
938.078	1.38
938.809	0.38
939.54	0.38
940.27	3.38
941.001	-1.62
941.731	0.38
942.461	0.38
943.191	2.38
943.922	0.38
944.652	1.38
945.382	1.38
946.112	0.38
946.841	0.38
947.571	1.38
948.301	1.38
949.031	2.38
949.76	-0.62
950.49	1.38
951.219	-1.62
951.948	-0.62
952.678	1.38
953.407	3.38
954.136	2.38
954.865	0.38
955.594	1.38
956.323	0.38
957.052	-0.62
957.78	0.38
958.509	2.38
959.238	-0.62
959.966	1.38
960.695	1.38
961.423	0.38
962.151	2.38
962.88	0.38
963.608	-1.62
964.336	-1.62
965.064	0.38
965.792	0.38
966.52	0.38
967.247	0.38
967.975	0.38
968.703	1.38
969.43	0.38
970.158	0.38
970.885	-0.62
971.613	0.38
972.34	-0.62
973.067	0.38
973.794	0.38
974.521	-1.62
975.248	-0.62
975.975	-0.62
976.702	0.38
977.429	3.38
978.156	0.38
978.882	0.38
979.609	2.38
980.335	-0.62
981.062	1.38
981.788	0.38
982.514	0.38
983.24	0.38
983.967	1.38
984.693	-0.62
985.419	0.38
986.144	2.38
986.87	0.38
987.596	1.38
988.322	1.38
989.047	-0.62
989.773	0.38
990.498	2.38
991.224	0.38
991.949	1.38
992.674	0.38
993.399	-1.62
994.124	4.38
994.849	0.38
995.574	1.38
996.299	3.38
997.024	2.38
997.749	3.38
998.473	2.38
999.198	1.38
999.922	0.38
1000.647	2.38
1001.371	4.38
1002.095	-1.62
1002.82	-0.62
1003.544	-1.62
1004.268	4.38
1004.992	3.38
1005.716	2.38
1006.439	3.38
1007.163	1.38
1007.887	2.38
1008.611	0.38
1009.334	0.38
1010.058	0.38
1010.781	2.38
1011.504	1.38
1012.228	1.38
1012.951	-0.62
1013.674	-0.62
1014.397	0.38
1015.12	0.38
