节点500_285_QEPB04081__13__14-55-48-469.txt的数据

Date: Wed Nov 12 14:55:48 CST 2025
User: PC
Spectrometer: QEPB0408
触发模式: 0
积分时间 (秒): 1.000000E-2
Scans to average: 1
启用暗噪声校正: true
启用非线性校正: false
滑动平均宽度: 0
X轴模式: Wavelengths
Number of Pixels in Spectrum: 1044
>>>>>Begin Spectral Data<<<<<
220.843	0.25
221.644	3.25
222.444	2.25
223.244	1.25
224.045	2.25
224.845	2.25
225.645	2.25
226.445	3.25
227.245	2.25
228.045	5.25
228.845	4.25
229.645	3.25
230.444	6.25
231.244	2.25
232.043	4.25
232.843	4.25
233.642	2.25
234.442	3.25
235.241	4.25
236.04	5.25
236.839	5.25
237.638	4.25
238.437	6.25
239.236	4.25
240.035	5.25
240.833	6.25
241.632	7.25
242.43	6.25
243.229	8.25
244.027	5.25
244.826	7.25
245.624	6.25
246.422	7.25
247.22	8.25
248.018	7.25
248.816	6.25
249.614	7.25
250.412	7.25
251.21	7.25
252.007	9.25
252.805	8.25
253.602	7.25
254.4	9.25
255.197	9.25
255.994	9.25
256.791	9.25
257.589	9.25
258.386	10.25
259.183	12.25
259.979	10.25
260.776	11.25
261.573	11.25
262.37	12.25
263.166	12.25
263.963	12.25
264.759	13.25
265.556	13.25
266.352	14.25
267.148	19.25
267.944	13.25
268.74	16.25
269.536	15.25
270.332	17.25
271.128	15.25
271.924	17.25
272.719	19.25
273.515	17.25
274.311	20.25
275.106	19.25
275.901	17.25
276.697	21.25
277.492	21.25
278.287	21.25
279.082	21.25
279.877	21.25
280.672	22.25
281.467	23.25
282.262	20.25
283.056	20.25
283.851	18.25
284.646	20.25
285.44	22.25
286.234	19.25
287.029	22.25
287.823	17.25
288.617	21.25
289.411	15.25
290.205	17.25
290.999	19.25
291.793	22.25
292.587	17.25
293.381	20.25
294.174	17.25
294.968	19.25
295.761	18.25
296.555	13.25
297.348	18.25
298.141	13.25
298.935	16.25
299.728	15.25
300.521	14.25
301.314	15.25
302.107	16.25
302.899	15.25
303.692	13.25
304.485	16.25
305.277	13.25
306.07	14.25
306.862	11.25
307.655	10.25
308.447	13.25
309.239	14.25
310.031	11.25
310.823	11.25
311.615	9.25
312.407	13.25
313.199	11.25
313.991	9.25
314.783	7.25
315.574	7.25
316.366	12.25
317.157	10.25
317.949	9.25
318.74	11.25
319.531	9.25
320.322	8.25
321.113	9.25
321.904	7.25
322.695	10.25
323.486	8.25
324.277	8.25
325.068	8.25
325.858	10.25
326.649	4.25
327.439	8.25
328.23	8.25
329.02	7.25
329.81	5.25
330.6	6.25
331.391	6.25
332.181	7.25
332.971	5.25
333.76	7.25
334.55	6.25
335.34	8.25
336.13	9.25
336.919	6.25
337.709	7.25
338.498	9.25
339.287	6.25
340.077	5.25
340.866	8.25
341.655	6.25
342.444	6.25
343.233	8.25
344.022	6.25
344.811	9.25
345.6	6.25
346.388	8.25
347.177	7.25
347.965	8.25
348.754	6.25
349.542	4.25
350.33	6.25
351.119	4.25
351.907	7.25
352.695	8.25
353.483	4.25
354.271	6.25
355.059	6.25
355.846	6.25
356.634	5.25
357.422	5.25
358.209	5.25
358.997	5.25
359.784	6.25
360.571	6.25
361.359	6.25
362.146	8.25
362.933	7.25
363.72	6.25
364.507	6.25
365.294	4.25
366.081	7.25
366.867	8.25
367.654	7.25
368.44	5.25
369.227	7.25
370.013	7.25
370.8	6.25
371.586	7.25
372.372	6.25
373.158	6.25
373.944	7.25
374.73	5.25
375.516	7.25
376.302	6.25
377.088	6.25
377.873	5.25
378.659	7.25
379.445	7.25
380.23	4.25
381.015	8.25
381.801	5.25
382.586	6.25
383.371	6.25
384.156	5.25
384.941	5.25
385.726	5.25
386.511	8.25
387.296	8.25
388.08	8.25
388.865	10.25
389.649	6.25
390.434	9.25
391.218	5.25
392.003	8.25
392.787	5.25
393.571	5.25
394.355	9.25
395.139	7.25
395.923	7.25
396.707	5.25
397.491	5.25
398.274	10.25
399.058	7.25
399.842	8.25
400.625	8.25
401.408	7.25
402.192	6.25
402.975	7.25
403.758	9.25
404.541	8.25
405.324	8.25
406.107	8.25
406.89	7.25
407.673	9.25
408.456	8.25
409.238	7.25
410.021	9.25
410.803	9.25
411.586	9.25
412.368	8.25
413.151	10.25
413.933	11.25
414.715	6.25
415.497	9.25
416.279	10.25
417.061	9.25
417.843	12.25
418.624	11.25
419.406	10.25
420.188	9.25
420.969	11.25
421.751	11.25
422.532	11.25
423.313	11.25
424.095	12.25
424.876	12.25
425.657	12.25
426.438	11.25
427.219	13.25
428	15.25
428.78	15.25
429.561	15.25
430.342	15.25
431.122	16.25
431.903	17.25
432.683	14.25
433.464	15.25
434.244	14.25
435.024	18.25
435.804	17.25
436.584	18.25
437.364	20.25
438.144	22.25
438.924	21.25
439.704	22.25
440.483	23.25
441.263	24.25
442.042	27.25
442.822	26.25
443.601	30.25
444.38	27.25
445.16	33.25
445.939	35.25
446.718	36.25
447.497	34.25
448.276	39.25
449.054	44.25
449.833	47.25
450.612	50.25
451.391	53.25
452.169	57.25
452.948	64.25
453.726	67.25
454.504	76.25
455.282	81.25
456.061	90.25
456.839	101.25
457.617	108.25
458.395	125.25
459.172	142.25
459.95	156.25
460.728	176.25
461.506	183.25
462.283	207.25
463.061	233.25
463.838	271.25
464.615	296.25
465.393	321.25
466.17	374.25
466.947	409.25
467.724	459.25
468.501	516.25
469.278	587.25
470.055	646.25
470.831	717.25
471.608	811.25
472.385	920.25
473.161	1007.25
473.938	1129.25
474.714	1242.25
475.49	1398.25
476.266	1558.25
477.043	1706.25
477.819	1908.25
478.595	2123.25
479.371	2372.25
480.146	2632.25
480.922	2920.25
481.698	3229.25
482.473	3572.25
483.249	3948.25
484.024	4377.25
484.8	4852.25
485.575	5405.25
486.35	5933.25
487.126	6551.25
487.901	7224.25
488.676	7980.25
489.451	8820.25
490.225	9711.25
491	10628.25
491.775	11698.25
492.55	12762.25
493.324	13887.25
494.099	14994.25
494.873	16222.25
495.647	17496.25
496.422	18795.25
497.196	20151.25
497.97	21465.25
498.744	22855.25
499.518	24089.25
500.292	25274.25
501.066	26336.25
501.839	27265.25
502.613	28174.25
503.387	28838.25
504.16	29294.25
504.934	29518.25
505.707	29468.25
506.48	29296.25
507.253	28964.25
508.027	28483.25
508.8	27914.25
509.573	27268.25
510.346	26357.25
511.118	25400.25
511.891	24414.25
512.664	23464.25
513.437	22354.25
514.209	21418.25
514.982	20428.25
515.754	19478.25
516.526	18544.25
517.298	17746.25
518.071	17007.25
518.843	16327.25
519.615	15707.25
520.387	15070.25
521.159	14468.25
521.93	13888.25
522.702	13359.25
523.474	12798.25
524.245	12207.25
525.017	11658.25
525.788	11236.25
526.56	10695.25
527.331	10192.25
528.102	9716.25
528.873	9181.25
529.644	8731.25
530.415	8282.25
531.186	7831.25
531.957	7405.25
532.728	7050.25
533.498	6631.25
534.269	6246.25
535.039	5874.25
535.81	5580.25
536.58	5257.25
537.351	4921.25
538.121	4675.25
538.891	4434.25
539.661	4189.25
540.431	3958.25
541.201	3730.25
541.971	3513.25
542.741	3367.25
543.51	3192.25
544.28	3019.25
545.05	2885.25
545.819	2740.25
546.588	2606.25
547.358	2484.25
548.127	2369.25
548.896	2230.25
549.665	2106.25
550.434	1992.25
551.203	1900.25
551.972	1791.25
552.741	1681.25
553.51	1593.25
554.278	1503.25
555.047	1409.25
555.815	1340.25
556.584	1269.25
557.352	1206.25
558.121	1130.25
558.889	1043.25
559.657	995.25
560.425	947.25
561.193	893.25
561.961	829.25
562.729	795.25
563.496	747.25
564.264	703.25
565.032	668.25
565.799	633.25
566.567	599.25
567.334	565.25
568.101	539.25
568.869	505.25
569.636	475.25
570.403	448.25
571.17	418.25
571.937	395.25
572.704	366.25
573.471	355.25
574.237	332.25
575.004	312.25
575.771	292.25
576.537	277.25
577.303	264.25
578.07	247.25
578.836	229.25
579.602	222.25
580.368	208.25
581.134	199.25
581.9	192.25
582.666	176.25
583.432	165.25
584.198	159.25
584.964	151.25
585.729	144.25
586.495	137.25
587.26	130.25
588.025	121.25
588.791	121.25
589.556	114.25
590.321	102.25
591.086	95.25
591.851	95.25
592.616	90.25
593.381	86.25
594.146	81.25
594.911	74.25
595.675	75.25
596.44	72.25
597.204	65.25
597.969	66.25
598.733	63.25
599.497	58.25
600.261	54.25
601.025	52.25
601.79	50.25
602.553	52.25
603.317	48.25
604.081	46.25
604.845	45.25
605.609	41.25
606.372	39.25
607.136	38.25
607.899	37.25
608.662	36.25
609.426	35.25
610.189	33.25
610.952	31.25
611.715	32.25
612.478	28.25
613.241	29.25
614.004	25.25
614.767	25.25
615.529	24.25
616.292	25.25
617.055	21.25
617.817	20.25
618.579	24.25
619.342	21.25
620.104	20.25
620.866	19.25
621.628	20.25
622.39	21.25
623.152	17.25
623.914	17.25
624.676	17.25
625.438	17.25
626.199	17.25
626.961	15.25
627.722	16.25
628.484	13.25
629.245	12.25
630.006	16.25
630.768	14.25
631.529	13.25
632.29	10.25
633.051	13.25
633.812	11.25
634.573	12.25
635.333	13.25
636.094	11.25
636.855	9.25
637.615	10.25
638.376	10.25
639.136	11.25
639.896	7.25
640.657	13.25
641.417	10.25
642.177	9.25
642.937	9.25
643.697	7.25
644.457	10.25
645.216	9.25
645.976	9.25
646.736	9.25
647.495	8.25
648.255	9.25
649.014	5.25
649.774	9.25
650.533	7.25
651.292	8.25
652.051	7.25
652.81	5.25
653.569	7.25
654.328	5.25
655.087	7.25
655.846	9.25
656.604	6.25
657.363	7.25
658.121	6.25
658.88	6.25
659.638	5.25
660.397	7.25
661.155	6.25
661.913	7.25
662.671	8.25
663.429	5.25
664.187	7.25
664.945	7.25
665.703	3.25
666.46	6.25
667.218	5.25
667.976	3.25
668.733	6.25
669.49	6.25
670.248	6.25
671.005	3.25
671.762	7.25
672.519	4.25
673.276	5.25
674.033	6.25
674.79	5.25
675.547	5.25
676.304	4.25
677.06	4.25
677.817	8.25
678.574	6.25
679.33	5.25
680.086	3.25
680.843	4.25
681.599	5.25
682.355	4.25
683.111	4.25
683.867	3.25
684.623	6.25
685.379	4.25
686.135	6.25
686.89	2.25
687.646	5.25
688.402	4.25
689.157	2.25
689.912	5.25
690.668	5.25
691.423	3.25
692.178	4.25
692.933	5.25
693.688	5.25
694.443	4.25
695.198	4.25
695.953	4.25
696.708	4.25
697.462	5.25
698.217	4.25
698.972	4.25
699.726	5.25
700.48	1.25
701.235	3.25
701.989	2.25
702.743	5.25
703.497	4.25
704.251	3.25
705.005	4.25
705.759	3.25
706.513	4.25
707.266	5.25
708.02	6.25
708.774	7.25
709.527	5.25
710.28	5.25
711.034	3.25
711.787	6.25
712.54	3.25
713.293	4.25
714.046	3.25
714.799	5.25
715.552	5.25
716.305	5.25
717.058	2.25
717.81	3.25
718.563	2.25
719.315	4.25
720.068	4.25
720.82	5.25
721.573	4.25
722.325	5.25
723.077	4.25
723.829	4.25
724.581	5.25
725.333	5.25
726.085	4.25
726.836	5.25
727.588	3.25
728.34	5.25
729.091	3.25
729.843	5.25
730.594	4.25
731.346	4.25
732.097	4.25
732.848	3.25
733.599	6.25
734.35	5.25
735.101	5.25
735.852	4.25
736.603	3.25
737.354	4.25
738.104	4.25
738.855	4.25
739.605	5.25
740.356	3.25
741.106	5.25
741.856	6.25
742.607	4.25
743.357	7.25
744.107	4.25
744.857	6.25
745.607	6.25
746.357	6.25
747.106	5.25
747.856	6.25
748.606	6.25
749.355	3.25
750.105	9.25
750.854	4.25
751.603	5.25
752.353	4.25
753.102	5.25
753.851	7.25
754.6	6.25
755.349	5.25
756.098	6.25
756.847	6.25
757.595	8.25
758.344	5.25
759.093	7.25
759.841	7.25
760.589	4.25
761.338	7.25
762.086	7.25
762.834	10.25
763.582	5.25
764.331	8.25
765.079	7.25
765.826	10.25
766.574	8.25
767.322	10.25
768.07	9.25
768.817	8.25
769.565	7.25
770.312	7.25
771.06	6.25
771.807	9.25
772.554	9.25
773.302	11.25
774.049	11.25
774.796	7.25
775.543	10.25
776.29	7.25
777.036	8.25
777.783	9.25
778.53	9.25
779.276	10.25
780.023	9.25
780.769	9.25
781.516	10.25
782.262	11.25
783.008	9.25
783.754	9.25
784.5	10.25
785.246	8.25
785.992	13.25
786.738	11.25
787.484	10.25
788.23	10.25
788.975	7.25
789.721	9.25
790.466	8.25
791.212	9.25
791.957	9.25
792.702	12.25
793.447	8.25
794.193	11.25
794.938	12.25
795.683	10.25
796.427	7.25
797.172	10.25
797.917	6.25
798.662	9.25
799.406	8.25
800.151	9.25
800.895	11.25
801.64	7.25
802.384	10.25
803.128	7.25
803.872	8.25
804.616	7.25
805.36	7.25
806.104	7.25
806.848	7.25
807.592	4.25
808.336	6.25
809.079	7.25
809.823	6.25
810.566	6.25
811.31	4.25
812.053	5.25
812.796	6.25
813.539	6.25
814.283	4.25
815.026	3.25
815.769	6.25
816.511	6.25
817.254	5.25
817.997	4.25
818.74	5.25
819.482	6.25
820.225	5.25
820.967	4.25
821.71	5.25
822.452	3.25
823.194	4.25
823.936	8.25
824.678	3.25
825.42	6.25
826.162	4.25
826.904	5.25
827.646	6.25
828.388	4.25
829.129	5.25
829.871	5.25
830.612	4.25
831.354	4.25
832.095	5.25
832.836	4.25
833.577	3.25
834.319	4.25
835.06	3.25
835.801	5.25
836.542	4.25
837.282	4.25
838.023	5.25
838.764	4.25
839.504	2.25
840.245	5.25
840.985	3.25
841.726	3.25
842.466	4.25
843.206	5.25
843.946	3.25
844.687	1.25
845.427	4.25
846.166	2.25
846.906	3.25
847.646	4.25
848.386	4.25
849.125	5.25
849.865	4.25
850.605	4.25
851.344	5.25
852.083	4.25
852.823	3.25
853.562	3.25
854.301	1.25
855.04	2.25
855.779	3.25
856.518	3.25
857.257	3.25
857.995	4.25
858.734	2.25
859.473	3.25
860.211	4.25
860.95	5.25
861.688	3.25
862.426	2.25
863.165	4.25
863.903	1.25
864.641	1.25
865.379	1.25
866.117	2.25
866.855	3.25
867.593	1.25
868.33	0.25
869.068	1.25
869.806	3.25
870.543	3.25
871.28	0.25
872.018	1.25
872.755	2.25
873.492	4.25
874.229	2.25
874.967	2.25
875.703	5.25
876.44	-0.75
877.177	3.25
877.914	1.25
878.651	2.25
879.387	1.25
880.124	-0.75
880.86	1.25
881.597	0.25
882.333	2.25
883.069	3.25
883.806	0.25
884.542	1.25
885.278	1.25
886.014	1.25
886.749	1.25
887.485	1.25
888.221	-1.75
888.957	0.25
889.692	-0.75
890.428	0.25
891.163	0.25
891.899	1.25
892.634	0.25
893.369	2.25
894.104	0.25
894.839	0.25
895.574	2.25
896.309	2.25
897.044	2.25
897.779	0.25
898.514	0.25
899.248	0.25
899.983	3.25
900.717	0.25
901.452	1.25
902.186	1.25
902.92	2.25
903.654	0.25
904.389	3.25
905.123	1.25
905.857	-0.75
906.59	0.25
907.324	0.25
908.058	0.25
908.792	4.25
909.525	1.25
910.259	1.25
910.992	1.25
911.726	-0.75
912.459	0.25
913.192	-0.75
913.925	1.25
914.658	0.25
915.391	0.25
916.124	1.25
916.857	0.25
917.59	1.25
918.323	2.25
919.055	0.25
919.788	1.25
920.521	0.25
921.253	2.25
921.985	1.25
922.718	1.25
923.45	0.25
924.182	-0.75
924.914	0.25
925.646	-0.75
926.378	1.25
927.11	1.25
927.841	1.25
928.573	1.25
929.305	1.25
930.036	0.25
930.768	1.25
931.499	0.25
932.23	1.25
932.962	1.25
933.693	3.25
934.424	1.25
935.155	3.25
935.886	1.25
936.617	0.25
937.348	1.25
938.078	-1.75
938.809	1.25
939.54	0.25
940.27	-0.75
941.001	1.25
941.731	-0.75
942.461	1.25
943.191	0.25
943.922	0.25
944.652	1.25
945.382	1.25
946.112	3.25
946.841	2.25
947.571	2.25
948.301	1.25
949.031	0.25
949.76	1.25
950.49	1.25
951.219	-1.75
951.948	0.25
952.678	1.25
953.407	2.25
954.136	1.25
954.865	4.25
955.594	-0.75
956.323	-0.75
957.052	0.25
957.78	0.25
958.509	0.25
959.238	1.25
959.966	2.25
960.695	0.25
961.423	2.25
962.151	1.25
962.88	-0.75
963.608	2.25
964.336	2.25
965.064	-0.75
965.792	0.25
966.52	-0.75
967.247	0.25
967.975	1.25
968.703	1.25
969.43	0.25
970.158	0.25
970.885	1.25
971.613	-0.75
972.34	-0.75
973.067	-0.75
973.794	2.25
974.521	1.25
975.248	-0.75
975.975	0.25
976.702	0.25
977.429	1.25
978.156	2.25
978.882	0.25
979.609	1.25
980.335	-0.75
981.062	0.25
981.788	2.25
982.514	2.25
983.24	3.25
983.967	0.25
984.693	0.25
985.419	1.25
986.144	-0.75
986.87	1.25
987.596	-1.75
988.322	3.25
989.047	-0.75
989.773	2.25
990.498	0.25
991.224	0.25
991.949	2.25
992.674	1.25
993.399	1.25
994.124	1.25
994.849	0.25
995.574	0.25
996.299	-1.75
997.024	0.25
997.749	0.25
998.473	0.25
999.198	1.25
999.922	-0.75
1000.647	1.25
1001.371	2.25
1002.095	-0.75
1002.82	2.25
1003.544	-2.75
1004.268	0.25
1004.992	1.25
1005.716	1.25
1006.439	2.25
1007.163	3.25
1007.887	-0.75
1008.611	-0.75
1009.334	-0.75
1010.058	0.25
1010.781	1.25
1011.504	1.25
1012.228	0.25
1012.951	-0.75
1013.674	-0.75
1014.397	-0.75
1015.12	1.25
