节点500_285_QEPB04081__746__15-07-57-806.txt的数据

Date: Wed Nov 12 15:07:57 CST 2025
User: PC
Spectrometer: QEPB0408
触发模式: 0
积分时间 (秒): 1.000000E-2
Scans to average: 1
启用暗噪声校正: true
启用非线性校正: false
滑动平均宽度: 0
X轴模式: Wavelengths
Number of Pixels in Spectrum: 1044
>>>>>Begin Spectral Data<<<<<
220.843	0.5
221.644	2.5
222.444	1.5
223.244	2.5
224.045	1.5
224.845	1.5
225.645	4.5
226.445	2.5
227.245	1.5
228.045	4.5
228.845	3.5
229.645	2.5
230.444	2.5
231.244	3.5
232.043	5.5
232.843	3.5
233.642	5.5
234.442	3.5
235.241	4.5
236.04	3.5
236.839	3.5
237.638	4.5
238.437	3.5
239.236	4.5
240.035	3.5
240.833	5.5
241.632	2.5
242.43	6.5
243.229	5.5
244.027	5.5
244.826	6.5
245.624	3.5
246.422	4.5
247.22	4.5
248.018	4.5
248.816	8.5
249.614	6.5
250.412	4.5
251.21	8.5
252.007	6.5
252.805	6.5
253.602	5.5
254.4	7.5
255.197	7.5
255.994	7.5
256.791	4.5
257.589	8.5
258.386	6.5
259.183	8.5
259.979	11.5
260.776	7.5
261.573	8.5
262.37	8.5
263.166	8.5
263.963	12.5
264.759	8.5
265.556	12.5
266.352	11.5
267.148	11.5
267.944	12.5
268.74	12.5
269.536	15.5
270.332	12.5
271.128	11.5
271.924	11.5
272.719	10.5
273.515	13.5
274.311	14.5
275.106	18.5
275.901	14.5
276.697	13.5
277.492	16.5
278.287	17.5
279.082	17.5
279.877	17.5
280.672	17.5
281.467	15.5
282.262	15.5
283.056	20.5
283.851	17.5
284.646	18.5
285.44	18.5
286.234	15.5
287.029	13.5
287.823	18.5
288.617	19.5
289.411	18.5
290.205	18.5
290.999	17.5
291.793	18.5
292.587	17.5
293.381	16.5
294.174	18.5
294.968	14.5
295.761	16.5
296.555	14.5
297.348	18.5
298.141	14.5
298.935	17.5
299.728	14.5
300.521	14.5
301.314	14.5
302.107	14.5
302.899	12.5
303.692	12.5
304.485	13.5
305.277	14.5
306.07	13.5
306.862	13.5
307.655	12.5
308.447	11.5
309.239	14.5
310.031	13.5
310.823	11.5
311.615	12.5
312.407	8.5
313.199	9.5
313.991	9.5
314.783	10.5
315.574	7.5
316.366	9.5
317.157	9.5
317.949	8.5
318.74	8.5
319.531	8.5
320.322	7.5
321.113	9.5
321.904	7.5
322.695	7.5
323.486	5.5
324.277	7.5
325.068	6.5
325.858	8.5
326.649	7.5
327.439	7.5
328.23	7.5
329.02	6.5
329.81	6.5
330.6	6.5
331.391	8.5
332.181	7.5
332.971	6.5
333.76	5.5
334.55	5.5
335.34	7.5
336.13	5.5
336.919	6.5
337.709	7.5
338.498	7.5
339.287	5.5
340.077	5.5
340.866	7.5
341.655	8.5
342.444	5.5
343.233	8.5
344.022	6.5
344.811	7.5
345.6	6.5
346.388	7.5
347.177	7.5
347.965	8.5
348.754	9.5
349.542	5.5
350.33	6.5
351.119	5.5
351.907	5.5
352.695	6.5
353.483	5.5
354.271	5.5
355.059	4.5
355.846	7.5
356.634	5.5
357.422	5.5
358.209	4.5
358.997	5.5
359.784	5.5
360.571	6.5
361.359	6.5
362.146	7.5
362.933	7.5
363.72	5.5
364.507	5.5
365.294	5.5
366.081	3.5
366.867	6.5
367.654	6.5
368.44	3.5
369.227	4.5
370.013	5.5
370.8	3.5
371.586	3.5
372.372	5.5
373.158	7.5
373.944	5.5
374.73	3.5
375.516	6.5
376.302	6.5
377.088	5.5
377.873	8.5
378.659	4.5
379.445	3.5
380.23	5.5
381.015	3.5
381.801	5.5
382.586	7.5
383.371	5.5
384.156	6.5
384.941	2.5
385.726	6.5
386.511	5.5
387.296	8.5
388.08	5.5
388.865	3.5
389.649	5.5
390.434	5.5
391.218	4.5
392.003	4.5
392.787	5.5
393.571	5.5
394.355	5.5
395.139	9.5
395.923	6.5
396.707	8.5
397.491	8.5
398.274	7.5
399.058	5.5
399.842	7.5
400.625	7.5
401.408	4.5
402.192	9.5
402.975	7.5
403.758	7.5
404.541	7.5
405.324	7.5
406.107	7.5
406.89	7.5
407.673	8.5
408.456	8.5
409.238	7.5
410.021	6.5
410.803	5.5
411.586	6.5
412.368	9.5
413.151	9.5
413.933	9.5
414.715	8.5
415.497	10.5
416.279	6.5
417.061	8.5
417.843	9.5
418.624	8.5
419.406	10.5
420.188	10.5
420.969	10.5
421.751	9.5
422.532	10.5
423.313	10.5
424.095	10.5
424.876	13.5
425.657	11.5
426.438	13.5
427.219	14.5
428	11.5
428.78	12.5
429.561	11.5
430.342	14.5
431.122	15.5
431.903	12.5
432.683	14.5
433.464	17.5
434.244	17.5
435.024	14.5
435.804	17.5
436.584	18.5
437.364	22.5
438.144	16.5
438.924	21.5
439.704	18.5
440.483	23.5
441.263	25.5
442.042	28.5
442.822	28.5
443.601	31.5
444.38	32.5
445.16	30.5
445.939	34.5
446.718	40.5
447.497	44.5
448.276	46.5
449.054	49.5
449.833	52.5
450.612	57.5
451.391	62.5
452.169	67.5
452.948	80.5
453.726	85.5
454.504	92.5
455.282	98.5
456.061	110.5
456.839	123.5
457.617	141.5
458.395	150.5
459.172	169.5
459.95	190.5
460.728	205.5
461.506	236.5
462.283	261.5
463.061	281.5
463.838	323.5
464.615	352.5
465.393	395.5
466.17	434.5
466.947	488.5
467.724	546.5
468.501	597.5
469.278	663.5
470.055	741.5
470.831	809.5
471.608	897.5
472.385	994.5
473.161	1090.5
473.938	1214.5
474.714	1329.5
475.49	1449.5
476.266	1617.5
477.043	1763.5
477.819	1940.5
478.595	2120.5
479.371	2334.5
480.146	2549.5
480.922	2798.5
481.698	3054.5
482.473	3357.5
483.249	3640.5
484.024	3996.5
484.8	4374.5
485.575	4765.5
486.35	5179.5
487.126	5650.5
487.901	6160.5
488.676	6679.5
489.451	7315.5
490.225	7901.5
491	8589.5
491.775	9341.5
492.55	10158.5
493.324	10965.5
494.099	11763.5
494.873	12570.5
495.647	13605.5
496.422	14505.5
497.196	15568.5
497.97	16557.5
498.744	17608.5
499.518	18663.5
500.292	19716.5
501.066	20737.5
501.839	21666.5
502.613	22613.5
503.387	23347.5
504.16	24021.5
504.934	24461.5
505.707	24904.5
506.48	25152.5
507.253	25298.5
508.027	25285.5
508.8	25181.5
509.573	25084.5
510.346	24716.5
511.118	24126.5
511.891	23621.5
512.664	22984.5
513.437	22264.5
514.209	21461.5
514.982	20713.5
515.754	19914.5
516.526	19102.5
517.298	18330.5
518.071	17550.5
518.843	16925.5
519.615	16289.5
520.387	15665.5
521.159	15039.5
521.93	14369.5
522.702	13864.5
523.474	13298.5
524.245	12709.5
525.017	12165.5
525.788	11761.5
526.56	11230.5
527.331	10694.5
528.102	10275.5
528.873	9830.5
529.644	9347.5
530.415	8978.5
531.186	8486.5
531.957	8087.5
532.728	7731.5
533.498	7344.5
534.269	6935.5
535.039	6585.5
535.81	6225.5
536.58	5896.5
537.351	5541.5
538.121	5226.5
538.891	4969.5
539.661	4705.5
540.431	4439.5
541.201	4210.5
541.971	4002.5
542.741	3778.5
543.51	3587.5
544.28	3420.5
545.05	3246.5
545.819	3056.5
546.588	2929.5
547.358	2760.5
548.127	2636.5
548.896	2512.5
549.665	2382.5
550.434	2261.5
551.203	2159.5
551.972	2029.5
552.741	1926.5
553.51	1833.5
554.278	1728.5
555.047	1624.5
555.815	1549.5
556.584	1453.5
557.352	1391.5
558.121	1302.5
558.889	1243.5
559.657	1168.5
560.425	1097.5
561.193	1040.5
561.961	973.5
562.729	930.5
563.496	871.5
564.264	822.5
565.032	779.5
565.799	746.5
566.567	688.5
567.334	656.5
568.101	628.5
568.869	593.5
569.636	558.5
570.403	517.5
571.17	496.5
571.937	457.5
572.704	435.5
573.471	424.5
574.237	386.5
575.004	366.5
575.771	348.5
576.537	323.5
577.303	304.5
578.07	297.5
578.836	263.5
579.602	254.5
580.368	245.5
581.134	232.5
581.9	223.5
582.666	216.5
583.432	194.5
584.198	183.5
584.964	178.5
585.729	173.5
586.495	161.5
587.26	154.5
588.025	144.5
588.791	134.5
589.556	129.5
590.321	119.5
591.086	112.5
591.851	108.5
592.616	100.5
593.381	101.5
594.146	94.5
594.911	89.5
595.675	83.5
596.44	77.5
597.204	78.5
597.969	72.5
598.733	70.5
599.497	71.5
600.261	62.5
601.025	58.5
601.79	57.5
602.553	58.5
603.317	54.5
604.081	47.5
604.845	50.5
605.609	47.5
606.372	42.5
607.136	46.5
607.899	44.5
608.662	39.5
609.426	43.5
610.189	37.5
610.952	33.5
611.715	33.5
612.478	33.5
613.241	32.5
614.004	28.5
614.767	29.5
615.529	28.5
616.292	27.5
617.055	23.5
617.817	23.5
618.579	25.5
619.342	23.5
620.104	24.5
620.866	23.5
621.628	21.5
622.39	16.5
623.152	20.5
623.914	16.5
624.676	18.5
625.438	17.5
626.199	14.5
626.961	17.5
627.722	18.5
628.484	16.5
629.245	14.5
630.006	14.5
630.768	12.5
631.529	14.5
632.29	12.5
633.051	14.5
633.812	11.5
634.573	12.5
635.333	13.5
636.094	10.5
636.855	12.5
637.615	11.5
638.376	11.5
639.136	12.5
639.896	12.5
640.657	8.5
641.417	11.5
642.177	10.5
642.937	8.5
643.697	13.5
644.457	9.5
645.216	10.5
645.976	9.5
646.736	8.5
647.495	9.5
648.255	9.5
649.014	6.5
649.774	9.5
650.533	9.5
651.292	6.5
652.051	6.5
652.81	8.5
653.569	6.5
654.328	9.5
655.087	7.5
655.846	7.5
656.604	7.5
657.363	8.5
658.121	6.5
658.88	6.5
659.638	7.5
660.397	4.5
661.155	6.5
661.913	6.5
662.671	7.5
663.429	5.5
664.187	5.5
664.945	3.5
665.703	3.5
666.46	6.5
667.218	5.5
667.976	7.5
668.733	6.5
669.49	5.5
670.248	3.5
671.005	2.5
671.762	1.5
672.519	5.5
673.276	4.5
674.033	4.5
674.79	2.5
675.547	4.5
676.304	4.5
677.06	2.5
677.817	3.5
678.574	3.5
679.33	4.5
680.086	6.5
680.843	3.5
681.599	5.5
682.355	2.5
683.111	5.5
683.867	3.5
684.623	4.5
685.379	5.5
686.135	3.5
686.89	4.5
687.646	3.5
688.402	3.5
689.157	5.5
689.912	4.5
690.668	4.5
691.423	4.5
692.178	5.5
692.933	3.5
693.688	4.5
694.443	2.5
695.198	5.5
695.953	4.5
696.708	4.5
697.462	2.5
698.217	3.5
698.972	2.5
699.726	6.5
700.48	3.5
701.235	4.5
701.989	4.5
702.743	4.5
703.497	3.5
704.251	5.5
705.005	4.5
705.759	3.5
706.513	4.5
707.266	4.5
708.02	3.5
708.774	2.5
709.527	6.5
710.28	4.5
711.034	3.5
711.787	3.5
712.54	4.5
713.293	6.5
714.046	3.5
714.799	2.5
715.552	2.5
716.305	5.5
717.058	3.5
717.81	4.5
718.563	4.5
719.315	5.5
720.068	3.5
720.82	6.5
721.573	3.5
722.325	4.5
723.077	6.5
723.829	3.5
724.581	3.5
725.333	5.5
726.085	2.5
726.836	4.5
727.588	2.5
728.34	2.5
729.091	4.5
729.843	5.5
730.594	4.5
731.346	4.5
732.097	3.5
732.848	4.5
733.599	4.5
734.35	7.5
735.101	7.5
735.852	3.5
736.603	3.5
737.354	5.5
738.104	2.5
738.855	2.5
739.605	4.5
740.356	6.5
741.106	2.5
741.856	2.5
742.607	6.5
743.357	4.5
744.107	5.5
744.857	4.5
745.607	4.5
746.357	5.5
747.106	5.5
747.856	5.5
748.606	2.5
749.355	4.5
750.105	4.5
750.854	4.5
751.603	5.5
752.353	3.5
753.102	4.5
753.851	5.5
754.6	6.5
755.349	7.5
756.098	3.5
756.847	5.5
757.595	5.5
758.344	5.5
759.093	6.5
759.841	6.5
760.589	6.5
761.338	8.5
762.086	7.5
762.834	6.5
763.582	7.5
764.331	4.5
765.079	4.5
765.826	8.5
766.574	5.5
767.322	6.5
768.07	7.5
768.817	3.5
769.565	7.5
770.312	8.5
771.06	8.5
771.807	7.5
772.554	8.5
773.302	6.5
774.049	6.5
774.796	7.5
775.543	7.5
776.29	7.5
777.036	8.5
777.783	6.5
778.53	8.5
779.276	8.5
780.023	9.5
780.769	8.5
781.516	9.5
782.262	7.5
783.008	7.5
783.754	10.5
784.5	7.5
785.246	9.5
785.992	7.5
786.738	7.5
787.484	7.5
788.23	9.5
788.975	9.5
789.721	7.5
790.466	8.5
791.212	9.5
791.957	8.5
792.702	7.5
793.447	8.5
794.193	7.5
794.938	8.5
795.683	5.5
796.427	7.5
797.172	8.5
797.917	7.5
798.662	9.5
799.406	5.5
800.151	9.5
800.895	7.5
801.64	7.5
802.384	5.5
803.128	6.5
803.872	6.5
804.616	6.5
805.36	7.5
806.104	5.5
806.848	5.5
807.592	8.5
808.336	5.5
809.079	7.5
809.823	7.5
810.566	7.5
811.31	6.5
812.053	5.5
812.796	5.5
813.539	7.5
814.283	7.5
815.026	5.5
815.769	5.5
816.511	6.5
817.254	7.5
817.997	6.5
818.74	7.5
819.482	6.5
820.225	5.5
820.967	7.5
821.71	5.5
822.452	4.5
823.194	4.5
823.936	6.5
824.678	4.5
825.42	7.5
826.162	2.5
826.904	4.5
827.646	2.5
828.388	4.5
829.129	5.5
829.871	3.5
830.612	6.5
831.354	4.5
832.095	5.5
832.836	5.5
833.577	3.5
834.319	1.5
835.06	1.5
835.801	4.5
836.542	2.5
837.282	2.5
838.023	3.5
838.764	4.5
839.504	4.5
840.245	4.5
840.985	3.5
841.726	4.5
842.466	4.5
843.206	2.5
843.946	3.5
844.687	7.5
845.427	3.5
846.166	4.5
846.906	3.5
847.646	3.5
848.386	4.5
849.125	2.5
849.865	5.5
850.605	3.5
851.344	5.5
852.083	4.5
852.823	2.5
853.562	2.5
854.301	2.5
855.04	2.5
855.779	2.5
856.518	3.5
857.257	2.5
857.995	2.5
858.734	3.5
859.473	2.5
860.211	3.5
860.95	1.5
861.688	4.5
862.426	2.5
863.165	1.5
863.903	2.5
864.641	2.5
865.379	2.5
866.117	1.5
866.855	2.5
867.593	3.5
868.33	2.5
869.068	1.5
869.806	2.5
870.543	0.5
871.28	1.5
872.018	2.5
872.755	1.5
873.492	1.5
874.229	1.5
874.967	3.5
875.703	3.5
876.44	1.5
877.177	1.5
877.914	1.5
878.651	1.5
879.387	2.5
880.124	0.5
880.86	3.5
881.597	1.5
882.333	0.5
883.069	2.5
883.806	1.5
884.542	-0.5
885.278	1.5
886.014	1.5
886.749	-0.5
887.485	0.5
888.221	-1.5
888.957	1.5
889.692	2.5
890.428	1.5
891.163	2.5
891.899	0.5
892.634	-0.5
893.369	0.5
894.104	-0.5
894.839	4.5
895.574	2.5
896.309	0.5
897.044	0.5
897.779	-2.5
898.514	0.5
899.248	1.5
899.983	0.5
900.717	2.5
901.452	1.5
902.186	1.5
902.92	-0.5
903.654	1.5
904.389	0.5
905.123	1.5
905.857	-1.5
906.59	-0.5
907.324	2.5
908.058	0.5
908.792	1.5
909.525	0.5
910.259	0.5
910.992	0.5
911.726	2.5
912.459	2.5
913.192	-0.5
913.925	1.5
914.658	0.5
915.391	2.5
916.124	-0.5
916.857	-1.5
917.59	0.5
918.323	0.5
919.055	0.5
919.788	2.5
920.521	0.5
921.253	2.5
921.985	2.5
922.718	1.5
923.45	0.5
924.182	0.5
924.914	-0.5
925.646	-0.5
926.378	1.5
927.11	-2.5
927.841	1.5
928.573	2.5
929.305	0.5
930.036	1.5
930.768	-0.5
931.499	2.5
932.23	0.5
932.962	1.5
933.693	0.5
934.424	0.5
935.155	0.5
935.886	-1.5
936.617	0.5
937.348	-0.5
938.078	1.5
938.809	3.5
939.54	-1.5
940.27	0.5
941.001	-2.5
941.731	1.5
942.461	-1.5
943.191	-0.5
943.922	1.5
944.652	1.5
945.382	2.5
946.112	2.5
946.841	0.5
947.571	0.5
948.301	-2.5
949.031	-3.5
949.76	0.5
950.49	0.5
951.219	0.5
951.948	1.5
952.678	0.5
953.407	0.5
954.136	0.5
954.865	-0.5
955.594	-0.5
956.323	-0.5
957.052	-0.5
957.78	1.5
958.509	1.5
959.238	-0.5
959.966	0.5
960.695	1.5
961.423	1.5
962.151	2.5
962.88	-1.5
963.608	0.5
964.336	-1.5
965.064	0.5
965.792	2.5
966.52	0.5
967.247	0.5
967.975	-1.5
968.703	1.5
969.43	2.5
970.158	0.5
970.885	-0.5
971.613	0.5
972.34	1.5
973.067	-1.5
973.794	2.5
974.521	0.5
975.248	-0.5
975.975	1.5
976.702	0.5
977.429	-1.5
978.156	-0.5
978.882	-0.5
979.609	1.5
980.335	0.5
981.062	-1.5
981.788	0.5
982.514	1.5
983.24	3.5
983.967	0.5
984.693	0.5
985.419	1.5
986.144	1.5
986.87	1.5
987.596	-0.5
988.322	-0.5
989.047	2.5
989.773	1.5
990.498	1.5
991.224	1.5
991.949	-0.5
992.674	1.5
993.399	0.5
994.124	2.5
994.849	2.5
995.574	1.5
996.299	-0.5
997.024	1.5
997.749	-0.5
998.473	0.5
999.198	-0.5
999.922	1.5
1000.647	2.5
1001.371	3.5
1002.095	-1.5
1002.82	-0.5
1003.544	-2.5
1004.268	0.5
1004.992	1.5
1005.716	-1.5
1006.439	1.5
1007.163	1.5
1007.887	0.5
1008.611	0.5
1009.334	1.5
1010.058	-0.5
1010.781	-1.5
1011.504	1.5
1012.228	0.5
1012.951	-0.5
1013.674	0.5
1014.397	1.5
1015.12	-0.5
