节点500_285_QEPB04081__85__14-56-58-308.txt的数据

Date: Wed Nov 12 14:56:58 CST 2025
User: PC
Spectrometer: QEPB0408
触发模式: 0
积分时间 (秒): 1.000000E-2
Scans to average: 1
启用暗噪声校正: true
启用非线性校正: false
滑动平均宽度: 0
X轴模式: Wavelengths
Number of Pixels in Spectrum: 1044
>>>>>Begin Spectral Data<<<<<
220.843	1.25
221.644	1.25
222.444	2.25
223.244	2.25
224.045	1.25
224.845	2.25
225.645	1.25
226.445	4.25
227.245	3.25
228.045	1.25
228.845	1.25
229.645	0.25
230.444	3.25
231.244	3.25
232.043	3.25
232.843	5.25
233.642	3.25
234.442	3.25
235.241	3.25
236.04	5.25
236.839	5.25
237.638	3.25
238.437	2.25
239.236	4.25
240.035	4.25
240.833	3.25
241.632	6.25
242.43	7.25
243.229	5.25
244.027	5.25
244.826	3.25
245.624	6.25
246.422	8.25
247.22	6.25
248.018	7.25
248.816	8.25
249.614	7.25
250.412	8.25
251.21	7.25
252.007	7.25
252.805	6.25
253.602	8.25
254.4	7.25
255.197	5.25
255.994	8.25
256.791	9.25
257.589	7.25
258.386	7.25
259.183	9.25
259.979	11.25
260.776	13.25
261.573	11.25
262.37	11.25
263.166	10.25
263.963	12.25
264.759	11.25
265.556	10.25
266.352	12.25
267.148	13.25
267.944	13.25
268.74	13.25
269.536	15.25
270.332	15.25
271.128	17.25
271.924	15.25
272.719	15.25
273.515	15.25
274.311	18.25
275.106	17.25
275.901	19.25
276.697	15.25
277.492	17.25
278.287	18.25
279.082	18.25
279.877	17.25
280.672	19.25
281.467	19.25
282.262	20.25
283.056	19.25
283.851	20.25
284.646	19.25
285.44	20.25
286.234	20.25
287.029	19.25
287.823	21.25
288.617	20.25
289.411	20.25
290.205	18.25
290.999	19.25
291.793	19.25
292.587	17.25
293.381	19.25
294.174	17.25
294.968	16.25
295.761	13.25
296.555	16.25
297.348	15.25
298.141	14.25
298.935	19.25
299.728	17.25
300.521	12.25
301.314	16.25
302.107	13.25
302.899	16.25
303.692	11.25
304.485	15.25
305.277	13.25
306.07	12.25
306.862	14.25
307.655	13.25
308.447	13.25
309.239	13.25
310.031	11.25
310.823	11.25
311.615	8.25
312.407	11.25
313.199	8.25
313.991	11.25
314.783	8.25
315.574	11.25
316.366	7.25
317.157	9.25
317.949	10.25
318.74	8.25
319.531	10.25
320.322	8.25
321.113	9.25
321.904	7.25
322.695	9.25
323.486	9.25
324.277	7.25
325.068	5.25
325.858	7.25
326.649	6.25
327.439	6.25
328.23	5.25
329.02	9.25
329.81	7.25
330.6	5.25
331.391	7.25
332.181	7.25
332.971	5.25
333.76	7.25
334.55	7.25
335.34	5.25
336.13	7.25
336.919	7.25
337.709	5.25
338.498	8.25
339.287	8.25
340.077	5.25
340.866	7.25
341.655	7.25
342.444	6.25
343.233	7.25
344.022	5.25
344.811	6.25
345.6	5.25
346.388	6.25
347.177	4.25
347.965	6.25
348.754	9.25
349.542	4.25
350.33	7.25
351.119	6.25
351.907	3.25
352.695	5.25
353.483	6.25
354.271	10.25
355.059	6.25
355.846	5.25
356.634	4.25
357.422	5.25
358.209	7.25
358.997	6.25
359.784	6.25
360.571	4.25
361.359	7.25
362.146	3.25
362.933	5.25
363.72	5.25
364.507	4.25
365.294	7.25
366.081	4.25
366.867	5.25
367.654	2.25
368.44	4.25
369.227	7.25
370.013	8.25
370.8	5.25
371.586	4.25
372.372	5.25
373.158	5.25
373.944	5.25
374.73	5.25
375.516	3.25
376.302	5.25
377.088	8.25
377.873	2.25
378.659	7.25
379.445	5.25
380.23	5.25
381.015	5.25
381.801	3.25
382.586	5.25
383.371	4.25
384.156	4.25
384.941	5.25
385.726	6.25
386.511	5.25
387.296	4.25
388.08	6.25
388.865	8.25
389.649	5.25
390.434	8.25
391.218	4.25
392.003	6.25
392.787	3.25
393.571	8.25
394.355	6.25
395.139	6.25
395.923	7.25
396.707	7.25
397.491	6.25
398.274	4.25
399.058	8.25
399.842	7.25
400.625	6.25
401.408	8.25
402.192	7.25
402.975	9.25
403.758	8.25
404.541	6.25
405.324	9.25
406.107	7.25
406.89	7.25
407.673	7.25
408.456	8.25
409.238	10.25
410.021	9.25
410.803	7.25
411.586	7.25
412.368	9.25
413.151	7.25
413.933	9.25
414.715	10.25
415.497	8.25
416.279	11.25
417.061	11.25
417.843	10.25
418.624	11.25
419.406	12.25
420.188	11.25
420.969	9.25
421.751	13.25
422.532	10.25
423.313	11.25
424.095	11.25
424.876	11.25
425.657	14.25
426.438	11.25
427.219	13.25
428	13.25
428.78	12.25
429.561	13.25
430.342	13.25
431.122	13.25
431.903	15.25
432.683	15.25
433.464	18.25
434.244	15.25
435.024	15.25
435.804	18.25
436.584	17.25
437.364	20.25
438.144	19.25
438.924	21.25
439.704	22.25
440.483	21.25
441.263	29.25
442.042	23.25
442.822	23.25
443.601	26.25
444.38	29.25
445.16	29.25
445.939	33.25
446.718	35.25
447.497	38.25
448.276	41.25
449.054	43.25
449.833	51.25
450.612	51.25
451.391	54.25
452.169	62.25
452.948	63.25
453.726	72.25
454.504	75.25
455.282	84.25
456.061	95.25
456.839	103.25
457.617	113.25
458.395	126.25
459.172	139.25
459.95	156.25
460.728	172.25
461.506	193.25
462.283	213.25
463.061	243.25
463.838	265.25
464.615	301.25
465.393	336.25
466.17	371.25
466.947	421.25
467.724	469.25
468.501	529.25
469.278	585.25
470.055	643.25
470.831	741.25
471.608	813.25
472.385	916.25
473.161	1028.25
473.938	1127.25
474.714	1247.25
475.49	1392.25
476.266	1549.25
477.043	1733.25
477.819	1909.25
478.595	2114.25
479.371	2359.25
480.146	2606.25
480.922	2873.25
481.698	3189.25
482.473	3547.25
483.249	3891.25
484.024	4298.25
484.8	4759.25
485.575	5257.25
486.35	5801.25
487.126	6404.25
487.901	7064.25
488.676	7756.25
489.451	8548.25
490.225	9321.25
491	10271.25
491.775	11232.25
492.55	12318.25
493.324	13346.25
494.099	14448.25
494.873	15611.25
495.647	16859.25
496.422	18102.25
497.196	19385.25
497.97	20659.25
498.744	21936.25
499.518	23137.25
500.292	24332.25
501.066	25453.25
501.839	26410.25
502.613	27257.25
503.387	27912.25
504.16	28490.25
504.934	28710.25
505.707	28777.25
506.48	28657.25
507.253	28439.25
508.027	27972.25
508.8	27453.25
509.573	26934.25
510.346	26108.25
511.118	25157.25
511.891	24272.25
512.664	23276.25
513.437	22306.25
514.209	21367.25
514.982	20440.25
515.754	19497.25
516.526	18598.25
517.298	17811.25
518.071	17000.25
518.843	16329.25
519.615	15723.25
520.387	15043.25
521.159	14506.25
521.93	13915.25
522.702	13323.25
523.474	12801.25
524.245	12248.25
525.017	11731.25
525.788	11214.25
526.56	10672.25
527.331	10217.25
528.102	9672.25
528.873	9256.25
529.644	8798.25
530.415	8356.25
531.186	7889.25
531.957	7464.25
532.728	7073.25
533.498	6704.25
534.269	6285.25
535.039	5949.25
535.81	5623.25
536.58	5321.25
537.351	5000.25
538.121	4712.25
538.891	4464.25
539.661	4231.25
540.431	3987.25
541.201	3758.25
541.971	3567.25
542.741	3400.25
543.51	3230.25
544.28	3089.25
545.05	2911.25
545.819	2786.25
546.588	2629.25
547.358	2504.25
548.127	2374.25
548.896	2259.25
549.665	2143.25
550.434	2024.25
551.203	1928.25
551.972	1812.25
552.741	1697.25
553.51	1611.25
554.278	1525.25
555.047	1439.25
555.815	1349.25
556.584	1276.25
557.352	1207.25
558.121	1130.25
558.889	1076.25
559.657	1012.25
560.425	961.25
561.193	908.25
561.961	845.25
562.729	796.25
563.496	761.25
564.264	709.25
565.032	677.25
565.799	643.25
566.567	603.25
567.334	573.25
568.101	541.25
568.869	497.25
569.636	485.25
570.403	453.25
571.17	426.25
571.937	408.25
572.704	383.25
573.471	358.25
574.237	342.25
575.004	323.25
575.771	297.25
576.537	274.25
577.303	267.25
578.07	255.25
578.836	235.25
579.602	220.25
580.368	207.25
581.134	204.25
581.9	189.25
582.666	179.25
583.432	171.25
584.198	158.25
584.964	157.25
585.729	141.25
586.495	140.25
587.26	132.25
588.025	124.25
588.791	117.25
589.556	111.25
590.321	104.25
591.086	99.25
591.851	96.25
592.616	89.25
593.381	86.25
594.146	84.25
594.911	79.25
595.675	74.25
596.44	76.25
597.204	71.25
597.969	62.25
598.733	64.25
599.497	60.25
600.261	58.25
601.025	57.25
601.79	53.25
602.553	49.25
603.317	48.25
604.081	49.25
604.845	41.25
605.609	41.25
606.372	39.25
607.136	39.25
607.899	38.25
608.662	37.25
609.426	36.25
610.189	36.25
610.952	31.25
611.715	31.25
612.478	29.25
613.241	29.25
614.004	26.25
614.767	25.25
615.529	28.25
616.292	23.25
617.055	24.25
617.817	22.25
618.579	26.25
619.342	21.25
620.104	18.25
620.866	20.25
621.628	20.25
622.39	18.25
623.152	19.25
623.914	18.25
624.676	16.25
625.438	16.25
626.199	17.25
626.961	16.25
627.722	18.25
628.484	14.25
629.245	13.25
630.006	13.25
630.768	13.25
631.529	12.25
632.29	17.25
633.051	12.25
633.812	11.25
634.573	11.25
635.333	12.25
636.094	14.25
636.855	11.25
637.615	9.25
638.376	6.25
639.136	10.25
639.896	9.25
640.657	12.25
641.417	9.25
642.177	10.25
642.937	10.25
643.697	6.25
644.457	7.25
645.216	10.25
645.976	8.25
646.736	12.25
647.495	8.25
648.255	8.25
649.014	6.25
649.774	4.25
650.533	8.25
651.292	7.25
652.051	8.25
652.81	6.25
653.569	7.25
654.328	6.25
655.087	7.25
655.846	6.25
656.604	8.25
657.363	6.25
658.121	5.25
658.88	6.25
659.638	9.25
660.397	6.25
661.155	5.25
661.913	6.25
662.671	4.25
663.429	6.25
664.187	4.25
664.945	5.25
665.703	4.25
666.46	5.25
667.218	5.25
667.976	6.25
668.733	5.25
669.49	6.25
670.248	5.25
671.005	5.25
671.762	4.25
672.519	4.25
673.276	5.25
674.033	4.25
674.79	4.25
675.547	6.25
676.304	4.25
677.06	3.25
677.817	4.25
678.574	5.25
679.33	5.25
680.086	4.25
680.843	1.25
681.599	3.25
682.355	3.25
683.111	3.25
683.867	2.25
684.623	5.25
685.379	3.25
686.135	3.25
686.89	3.25
687.646	2.25
688.402	2.25
689.157	4.25
689.912	5.25
690.668	4.25
691.423	4.25
692.178	3.25
692.933	3.25
693.688	4.25
694.443	2.25
695.198	6.25
695.953	4.25
696.708	3.25
697.462	3.25
698.217	4.25
698.972	1.25
699.726	3.25
700.48	3.25
701.235	4.25
701.989	3.25
702.743	2.25
703.497	1.25
704.251	4.25
705.005	4.25
705.759	4.25
706.513	1.25
707.266	4.25
708.02	4.25
708.774	4.25
709.527	5.25
710.28	5.25
711.034	3.25
711.787	4.25
712.54	4.25
713.293	3.25
714.046	1.25
714.799	4.25
715.552	4.25
716.305	3.25
717.058	5.25
717.81	2.25
718.563	4.25
719.315	4.25
720.068	3.25
720.82	3.25
721.573	2.25
722.325	5.25
723.077	5.25
723.829	2.25
724.581	3.25
725.333	4.25
726.085	3.25
726.836	3.25
727.588	3.25
728.34	3.25
729.091	4.25
729.843	4.25
730.594	4.25
731.346	3.25
732.097	4.25
732.848	3.25
733.599	3.25
734.35	4.25
735.101	5.25
735.852	4.25
736.603	4.25
737.354	5.25
738.104	3.25
738.855	6.25
739.605	4.25
740.356	5.25
741.106	6.25
741.856	5.25
742.607	4.25
743.357	6.25
744.107	7.25
744.857	6.25
745.607	4.25
746.357	4.25
747.106	4.25
747.856	6.25
748.606	2.25
749.355	5.25
750.105	6.25
750.854	6.25
751.603	5.25
752.353	2.25
753.102	3.25
753.851	8.25
754.6	2.25
755.349	7.25
756.098	3.25
756.847	10.25
757.595	4.25
758.344	6.25
759.093	5.25
759.841	6.25
760.589	9.25
761.338	8.25
762.086	6.25
762.834	6.25
763.582	6.25
764.331	8.25
765.079	6.25
765.826	6.25
766.574	7.25
767.322	8.25
768.07	9.25
768.817	9.25
769.565	8.25
770.312	8.25
771.06	8.25
771.807	8.25
772.554	6.25
773.302	6.25
774.049	8.25
774.796	10.25
775.543	5.25
776.29	10.25
777.036	9.25
777.783	10.25
778.53	8.25
779.276	7.25
780.023	9.25
780.769	10.25
781.516	13.25
782.262	9.25
783.008	8.25
783.754	9.25
784.5	8.25
785.246	11.25
785.992	11.25
786.738	12.25
787.484	8.25
788.23	8.25
788.975	9.25
789.721	11.25
790.466	8.25
791.212	9.25
791.957	7.25
792.702	10.25
793.447	7.25
794.193	9.25
794.938	9.25
795.683	9.25
796.427	9.25
797.172	8.25
797.917	9.25
798.662	9.25
799.406	7.25
800.151	7.25
800.895	5.25
801.64	6.25
802.384	8.25
803.128	9.25
803.872	7.25
804.616	8.25
805.36	7.25
806.104	6.25
806.848	5.25
807.592	5.25
808.336	6.25
809.079	4.25
809.823	4.25
810.566	6.25
811.31	3.25
812.053	7.25
812.796	6.25
813.539	3.25
814.283	6.25
815.026	5.25
815.769	6.25
816.511	6.25
817.254	5.25
817.997	7.25
818.74	3.25
819.482	4.25
820.225	4.25
820.967	6.25
821.71	4.25
822.452	4.25
823.194	5.25
823.936	4.25
824.678	6.25
825.42	4.25
826.162	4.25
826.904	6.25
827.646	2.25
828.388	5.25
829.129	2.25
829.871	3.25
830.612	3.25
831.354	3.25
832.095	6.25
832.836	3.25
833.577	3.25
834.319	2.25
835.06	3.25
835.801	0.25
836.542	3.25
837.282	1.25
838.023	4.25
838.764	5.25
839.504	5.25
840.245	3.25
840.985	4.25
841.726	4.25
842.466	5.25
843.206	4.25
843.946	2.25
844.687	3.25
845.427	5.25
846.166	3.25
846.906	2.25
847.646	3.25
848.386	5.25
849.125	3.25
849.865	3.25
850.605	2.25
851.344	3.25
852.083	3.25
852.823	2.25
853.562	2.25
854.301	5.25
855.04	2.25
855.779	0.25
856.518	3.25
857.257	2.25
857.995	3.25
858.734	4.25
859.473	2.25
860.211	2.25
860.95	2.25
861.688	1.25
862.426	2.25
863.165	3.25
863.903	3.25
864.641	3.25
865.379	1.25
866.117	2.25
866.855	0.25
867.593	3.25
868.33	2.25
869.068	2.25
869.806	-0.75
870.543	2.25
871.28	1.25
872.018	3.25
872.755	3.25
873.492	4.25
874.229	2.25
874.967	1.25
875.703	2.25
876.44	2.25
877.177	-0.75
877.914	-0.75
878.651	1.25
879.387	2.25
880.124	0.25
880.86	1.25
881.597	1.25
882.333	1.25
883.069	2.25
883.806	-0.75
884.542	0.25
885.278	3.25
886.014	1.25
886.749	0.25
887.485	-1.75
888.221	4.25
888.957	0.25
889.692	1.25
890.428	1.25
891.163	1.25
891.899	1.25
892.634	2.25
893.369	0.25
894.104	-1.75
894.839	-1.75
895.574	1.25
896.309	-0.75
897.044	-0.75
897.779	0.25
898.514	1.25
899.248	0.25
899.983	2.25
900.717	1.25
901.452	1.25
902.186	2.25
902.92	0.25
903.654	1.25
904.389	1.25
905.123	1.25
905.857	-0.75
906.59	1.25
907.324	1.25
908.058	1.25
908.792	2.25
909.525	1.25
910.259	3.25
910.992	1.25
911.726	1.25
912.459	-1.75
913.192	1.25
913.925	0.25
914.658	2.25
915.391	0.25
916.124	-1.75
916.857	1.25
917.59	0.25
918.323	0.25
919.055	1.25
919.788	-1.75
920.521	-0.75
921.253	0.25
921.985	2.25
922.718	2.25
923.45	1.25
924.182	-0.75
924.914	0.25
925.646	1.25
926.378	1.25
927.11	2.25
927.841	1.25
928.573	1.25
929.305	1.25
930.036	1.25
930.768	0.25
931.499	2.25
932.23	-0.75
932.962	0.25
933.693	-0.75
934.424	1.25
935.155	0.25
935.886	-0.75
936.617	0.25
937.348	1.25
938.078	1.25
938.809	1.25
939.54	0.25
940.27	0.25
941.001	0.25
941.731	1.25
942.461	2.25
943.191	1.25
943.922	1.25
944.652	2.25
945.382	1.25
946.112	-0.75
946.841	1.25
947.571	-0.75
948.301	1.25
949.031	1.25
949.76	1.25
950.49	0.25
951.219	2.25
951.948	1.25
952.678	-1.75
953.407	4.25
954.136	1.25
954.865	1.25
955.594	-0.75
956.323	0.25
957.052	0.25
957.78	1.25
958.509	-0.75
959.238	0.25
959.966	-0.75
960.695	1.25
961.423	-1.75
962.151	0.25
962.88	0.25
963.608	1.25
964.336	1.25
965.064	1.25
965.792	0.25
966.52	0.25
967.247	0.25
967.975	0.25
968.703	1.25
969.43	2.25
970.158	0.25
970.885	1.25
971.613	-0.75
972.34	-1.75
973.067	1.25
973.794	-1.75
974.521	2.25
975.248	0.25
975.975	1.25
976.702	0.25
977.429	-1.75
978.156	3.25
978.882	-0.75
979.609	4.25
980.335	-0.75
981.062	0.25
981.788	2.25
982.514	0.25
983.24	2.25
983.967	0.25
984.693	-0.75
985.419	-0.75
986.144	-1.75
986.87	1.25
987.596	-0.75
988.322	1.25
989.047	-0.75
989.773	1.25
990.498	0.25
991.224	0.25
991.949	-1.75
992.674	2.25
993.399	1.25
994.124	-0.75
994.849	3.25
995.574	2.25
996.299	-0.75
997.024	1.25
997.749	-0.75
998.473	2.25
999.198	1.25
999.922	-0.75
1000.647	1.25
1001.371	4.25
1002.095	0.25
1002.82	-0.75
1003.544	-0.75
1004.268	2.25
1004.992	1.25
1005.716	1.25
1006.439	1.25
1007.163	1.25
1007.887	1.25
1008.611	0.25
1009.334	2.25
1010.058	0.25
1010.781	2.25
1011.504	1.25
1012.228	0.25
1012.951	-1.75
1013.674	-0.75
1014.397	-0.75
1015.12	0.25
