节点500_285_QEPB04081__259__14-59-51-861.txt的数据

Date: Wed Nov 12 14:59:51 CST 2025
User: PC
Spectrometer: QEPB0408
触发模式: 0
积分时间 (秒): 1.000000E-2
Scans to average: 1
启用暗噪声校正: true
启用非线性校正: false
滑动平均宽度: 0
X轴模式: Wavelengths
Number of Pixels in Spectrum: 1044
>>>>>Begin Spectral Data<<<<<
220.843	2.75
221.644	2.75
222.444	3.75
223.244	2.75
224.045	2.75
224.845	1.75
225.645	3.75
226.445	3.75
227.245	2.75
228.045	1.75
228.845	3.75
229.645	1.75
230.444	1.75
231.244	1.75
232.043	0.75
232.843	3.75
233.642	1.75
234.442	3.75
235.241	4.75
236.04	3.75
236.839	2.75
237.638	6.75
238.437	3.75
239.236	1.75
240.035	4.75
240.833	2.75
241.632	4.75
242.43	5.75
243.229	5.75
244.027	5.75
244.826	6.75
245.624	5.75
246.422	5.75
247.22	5.75
248.018	3.75
248.816	6.75
249.614	5.75
250.412	6.75
251.21	8.75
252.007	5.75
252.805	8.75
253.602	8.75
254.4	7.75
255.197	7.75
255.994	8.75
256.791	8.75
257.589	6.75
258.386	9.75
259.183	8.75
259.979	10.75
260.776	9.75
261.573	11.75
262.37	11.75
263.166	11.75
263.963	11.75
264.759	12.75
265.556	12.75
266.352	9.75
267.148	15.75
267.944	13.75
268.74	13.75
269.536	13.75
270.332	16.75
271.128	16.75
271.924	15.75
272.719	15.75
273.515	15.75
274.311	17.75
275.106	18.75
275.901	15.75
276.697	16.75
277.492	20.75
278.287	19.75
279.082	17.75
279.877	17.75
280.672	19.75
281.467	17.75
282.262	17.75
283.056	17.75
283.851	21.75
284.646	18.75
285.44	17.75
286.234	22.75
287.029	18.75
287.823	20.75
288.617	19.75
289.411	19.75
290.205	16.75
290.999	19.75
291.793	19.75
292.587	18.75
293.381	14.75
294.174	15.75
294.968	18.75
295.761	16.75
296.555	16.75
297.348	15.75
298.141	16.75
298.935	18.75
299.728	14.75
300.521	13.75
301.314	11.75
302.107	13.75
302.899	12.75
303.692	15.75
304.485	13.75
305.277	12.75
306.07	13.75
306.862	12.75
307.655	11.75
308.447	11.75
309.239	13.75
310.031	10.75
310.823	12.75
311.615	10.75
312.407	12.75
313.199	10.75
313.991	8.75
314.783	9.75
315.574	9.75
316.366	7.75
317.157	10.75
317.949	8.75
318.74	8.75
319.531	9.75
320.322	7.75
321.113	7.75
321.904	8.75
322.695	7.75
323.486	6.75
324.277	7.75
325.068	3.75
325.858	9.75
326.649	5.75
327.439	7.75
328.23	5.75
329.02	7.75
329.81	4.75
330.6	7.75
331.391	6.75
332.181	4.75
332.971	8.75
333.76	6.75
334.55	5.75
335.34	6.75
336.13	3.75
336.919	7.75
337.709	5.75
338.498	5.75
339.287	7.75
340.077	5.75
340.866	5.75
341.655	4.75
342.444	6.75
343.233	6.75
344.022	8.75
344.811	6.75
345.6	7.75
346.388	8.75
347.177	6.75
347.965	4.75
348.754	5.75
349.542	5.75
350.33	7.75
351.119	5.75
351.907	6.75
352.695	5.75
353.483	6.75
354.271	3.75
355.059	4.75
355.846	4.75
356.634	3.75
357.422	6.75
358.209	4.75
358.997	5.75
359.784	6.75
360.571	4.75
361.359	5.75
362.146	5.75
362.933	4.75
363.72	6.75
364.507	6.75
365.294	5.75
366.081	3.75
366.867	5.75
367.654	5.75
368.44	3.75
369.227	3.75
370.013	2.75
370.8	3.75
371.586	4.75
372.372	6.75
373.158	6.75
373.944	4.75
374.73	5.75
375.516	6.75
376.302	5.75
377.088	4.75
377.873	5.75
378.659	6.75
379.445	4.75
380.23	5.75
381.015	4.75
381.801	7.75
382.586	5.75
383.371	4.75
384.156	5.75
384.941	4.75
385.726	8.75
386.511	7.75
387.296	3.75
388.08	6.75
388.865	6.75
389.649	4.75
390.434	4.75
391.218	6.75
392.003	6.75
392.787	6.75
393.571	5.75
394.355	5.75
395.139	5.75
395.923	6.75
396.707	4.75
397.491	8.75
398.274	7.75
399.058	6.75
399.842	6.75
400.625	8.75
401.408	8.75
402.192	7.75
402.975	7.75
403.758	6.75
404.541	8.75
405.324	7.75
406.107	6.75
406.89	5.75
407.673	7.75
408.456	7.75
409.238	6.75
410.021	8.75
410.803	7.75
411.586	7.75
412.368	10.75
413.151	8.75
413.933	7.75
414.715	6.75
415.497	9.75
416.279	11.75
417.061	8.75
417.843	10.75
418.624	10.75
419.406	9.75
420.188	10.75
420.969	8.75
421.751	8.75
422.532	9.75
423.313	13.75
424.095	11.75
424.876	9.75
425.657	14.75
426.438	13.75
427.219	12.75
428	12.75
428.78	12.75
429.561	14.75
430.342	15.75
431.122	13.75
431.903	13.75
432.683	17.75
433.464	15.75
434.244	15.75
435.024	17.75
435.804	16.75
436.584	17.75
437.364	19.75
438.144	21.75
438.924	20.75
439.704	23.75
440.483	21.75
441.263	23.75
442.042	23.75
442.822	25.75
443.601	26.75
444.38	29.75
445.16	33.75
445.939	32.75
446.718	34.75
447.497	39.75
448.276	41.75
449.054	47.75
449.833	46.75
450.612	52.75
451.391	56.75
452.169	61.75
452.948	66.75
453.726	71.75
454.504	81.75
455.282	88.75
456.061	97.75
456.839	106.75
457.617	119.75
458.395	133.75
459.172	144.75
459.95	168.75
460.728	183.75
461.506	198.75
462.283	234.75
463.061	255.75
463.838	278.75
464.615	313.75
465.393	347.75
466.17	396.75
466.947	441.75
467.724	492.75
468.501	542.75
469.278	604.75
470.055	676.75
470.831	754.75
471.608	843.75
472.385	936.75
473.161	1038.75
473.938	1149.75
474.714	1281.75
475.49	1425.75
476.266	1584.75
477.043	1735.75
477.819	1923.75
478.595	2134.75
479.371	2341.75
480.146	2612.75
480.922	2871.75
481.698	3153.75
482.473	3483.75
483.249	3834.75
484.024	4224.75
484.8	4652.75
485.575	5114.75
486.35	5624.75
487.126	6201.75
487.901	6845.75
488.676	7452.75
489.451	8186.75
490.225	8930.75
491	9804.75
491.775	10702.75
492.55	11728.75
493.324	12656.75
494.099	13719.75
494.873	14705.75
495.647	15883.75
496.422	17041.75
497.196	18256.75
497.97	19583.75
498.744	20779.75
499.518	21911.75
500.292	23060.75
501.066	24171.75
501.839	25136.75
502.613	26009.75
503.387	26708.75
504.16	27350.75
504.934	27645.75
505.707	27850.75
506.48	27808.75
507.253	27639.75
508.027	27401.75
508.8	27052.75
509.573	26508.75
510.346	25923.75
511.118	25116.75
511.891	24217.75
512.664	23374.75
513.437	22497.75
514.209	21480.75
514.982	20638.75
515.754	19738.75
516.526	18785.75
517.298	18011.75
518.071	17172.75
518.843	16535.75
519.615	15891.75
520.387	15272.75
521.159	14713.75
521.93	14111.75
522.702	13536.75
523.474	12914.75
524.245	12398.75
525.017	11892.75
525.788	11427.75
526.56	10883.75
527.331	10390.75
528.102	9863.75
528.873	9452.75
529.644	8956.75
530.415	8530.75
531.186	8105.75
531.957	7648.75
532.728	7295.75
533.498	6899.75
534.269	6490.75
535.039	6139.75
535.81	5807.75
536.58	5468.75
537.351	5157.75
538.121	4872.75
538.891	4628.75
539.661	4380.75
540.431	4094.75
541.201	3898.75
541.971	3691.75
542.741	3514.75
543.51	3331.75
544.28	3163.75
545.05	2996.75
545.819	2841.75
546.588	2734.75
547.358	2591.75
548.127	2465.75
548.896	2323.75
549.665	2222.75
550.434	2091.75
551.203	1986.75
551.972	1864.75
552.741	1766.75
553.51	1662.75
554.278	1591.75
555.047	1491.75
555.815	1404.75
556.584	1329.75
557.352	1263.75
558.121	1175.75
558.889	1112.75
559.657	1075.75
560.425	1003.75
561.193	934.75
561.961	877.75
562.729	836.75
563.496	783.75
564.264	746.75
565.032	709.75
565.799	675.75
566.567	631.75
567.334	598.75
568.101	568.75
568.869	540.75
569.636	501.75
570.403	464.75
571.17	440.75
571.937	422.75
572.704	399.75
573.471	371.75
574.237	362.75
575.004	341.75
575.771	307.75
576.537	295.75
577.303	275.75
578.07	264.75
578.836	245.75
579.602	232.75
580.368	222.75
581.134	213.75
581.9	198.75
582.666	184.75
583.432	177.75
584.198	171.75
584.964	158.75
585.729	152.75
586.495	144.75
587.26	136.75
588.025	130.75
588.791	123.75
589.556	114.75
590.321	110.75
591.086	104.75
591.851	98.75
592.616	90.75
593.381	88.75
594.146	87.75
594.911	84.75
595.675	78.75
596.44	73.75
597.204	71.75
597.969	69.75
598.733	64.75
599.497	59.75
600.261	60.75
601.025	55.75
601.79	52.75
602.553	52.75
603.317	50.75
604.081	47.75
604.845	45.75
605.609	40.75
606.372	42.75
607.136	39.75
607.899	41.75
608.662	36.75
609.426	33.75
610.189	35.75
610.952	32.75
611.715	32.75
612.478	30.75
613.241	29.75
614.004	29.75
614.767	25.75
615.529	27.75
616.292	23.75
617.055	25.75
617.817	22.75
618.579	22.75
619.342	22.75
620.104	23.75
620.866	20.75
621.628	20.75
622.39	19.75
623.152	16.75
623.914	19.75
624.676	17.75
625.438	18.75
626.199	15.75
626.961	13.75
627.722	15.75
628.484	13.75
629.245	13.75
630.006	15.75
630.768	12.75
631.529	11.75
632.29	11.75
633.051	13.75
633.812	10.75
634.573	10.75
635.333	10.75
636.094	9.75
636.855	11.75
637.615	10.75
638.376	9.75
639.136	9.75
639.896	9.75
640.657	10.75
641.417	8.75
642.177	9.75
642.937	9.75
643.697	6.75
644.457	8.75
645.216	7.75
645.976	5.75
646.736	7.75
647.495	7.75
648.255	9.75
649.014	7.75
649.774	8.75
650.533	6.75
651.292	8.75
652.051	6.75
652.81	7.75
653.569	8.75
654.328	6.75
655.087	6.75
655.846	3.75
656.604	3.75
657.363	5.75
658.121	6.75
658.88	6.75
659.638	6.75
660.397	3.75
661.155	5.75
661.913	3.75
662.671	4.75
663.429	7.75
664.187	6.75
664.945	6.75
665.703	6.75
666.46	4.75
667.218	2.75
667.976	4.75
668.733	1.75
669.49	7.75
670.248	5.75
671.005	4.75
671.762	5.75
672.519	4.75
673.276	5.75
674.033	2.75
674.79	5.75
675.547	3.75
676.304	1.75
677.06	3.75
677.817	5.75
678.574	5.75
679.33	3.75
680.086	6.75
680.843	4.75
681.599	2.75
682.355	6.75
683.111	3.75
683.867	5.75
684.623	2.75
685.379	2.75
686.135	5.75
686.89	2.75
687.646	4.75
688.402	5.75
689.157	4.75
689.912	2.75
690.668	3.75
691.423	4.75
692.178	4.75
692.933	4.75
693.688	3.75
694.443	3.75
695.198	3.75
695.953	2.75
696.708	4.75
697.462	2.75
698.217	4.75
698.972	2.75
699.726	3.75
700.48	2.75
701.235	2.75
701.989	4.75
702.743	3.75
703.497	2.75
704.251	3.75
705.005	4.75
705.759	2.75
706.513	1.75
707.266	4.75
708.02	5.75
708.774	3.75
709.527	2.75
710.28	2.75
711.034	4.75
711.787	4.75
712.54	2.75
713.293	3.75
714.046	3.75
714.799	3.75
715.552	1.75
716.305	0.75
717.058	5.75
717.81	3.75
718.563	2.75
719.315	4.75
720.068	4.75
720.82	1.75
721.573	6.75
722.325	4.75
723.077	3.75
723.829	2.75
724.581	2.75
725.333	5.75
726.085	4.75
726.836	3.75
727.588	4.75
728.34	1.75
729.091	2.75
729.843	3.75
730.594	5.75
731.346	3.75
732.097	4.75
732.848	4.75
733.599	3.75
734.35	5.75
735.101	3.75
735.852	2.75
736.603	1.75
737.354	2.75
738.104	5.75
738.855	5.75
739.605	3.75
740.356	5.75
741.106	4.75
741.856	3.75
742.607	2.75
743.357	6.75
744.107	4.75
744.857	4.75
745.607	4.75
746.357	5.75
747.106	3.75
747.856	6.75
748.606	5.75
749.355	6.75
750.105	4.75
750.854	5.75
751.603	4.75
752.353	7.75
753.102	4.75
753.851	3.75
754.6	7.75
755.349	6.75
756.098	6.75
756.847	5.75
757.595	6.75
758.344	5.75
759.093	5.75
759.841	8.75
760.589	7.75
761.338	5.75
762.086	5.75
762.834	5.75
763.582	8.75
764.331	7.75
765.079	7.75
765.826	5.75
766.574	8.75
767.322	8.75
768.07	5.75
768.817	7.75
769.565	8.75
770.312	8.75
771.06	6.75
771.807	7.75
772.554	7.75
773.302	5.75
774.049	9.75
774.796	8.75
775.543	8.75
776.29	7.75
777.036	8.75
777.783	7.75
778.53	7.75
779.276	8.75
780.023	8.75
780.769	11.75
781.516	7.75
782.262	7.75
783.008	9.75
783.754	7.75
784.5	11.75
785.246	7.75
785.992	11.75
786.738	9.75
787.484	7.75
788.23	10.75
788.975	7.75
789.721	9.75
790.466	7.75
791.212	8.75
791.957	9.75
792.702	6.75
793.447	8.75
794.193	10.75
794.938	9.75
795.683	7.75
796.427	8.75
797.172	8.75
797.917	5.75
798.662	7.75
799.406	6.75
800.151	9.75
800.895	9.75
801.64	8.75
802.384	5.75
803.128	6.75
803.872	5.75
804.616	8.75
805.36	7.75
806.104	6.75
806.848	6.75
807.592	6.75
808.336	6.75
809.079	6.75
809.823	5.75
810.566	7.75
811.31	4.75
812.053	7.75
812.796	7.75
813.539	5.75
814.283	4.75
815.026	5.75
815.769	5.75
816.511	5.75
817.254	4.75
817.997	4.75
818.74	3.75
819.482	5.75
820.225	4.75
820.967	5.75
821.71	3.75
822.452	5.75
823.194	3.75
823.936	5.75
824.678	2.75
825.42	4.75
826.162	4.75
826.904	2.75
827.646	4.75
828.388	4.75
829.129	3.75
829.871	6.75
830.612	2.75
831.354	2.75
832.095	1.75
832.836	3.75
833.577	2.75
834.319	4.75
835.06	2.75
835.801	2.75
836.542	2.75
837.282	3.75
838.023	0.75
838.764	2.75
839.504	4.75
840.245	4.75
840.985	3.75
841.726	5.75
842.466	2.75
843.206	2.75
843.946	1.75
844.687	3.75
845.427	4.75
846.166	1.75
846.906	2.75
847.646	4.75
848.386	4.75
849.125	3.75
849.865	1.75
850.605	0.75
851.344	3.75
852.083	3.75
852.823	0.75
853.562	4.75
854.301	2.75
855.04	0.75
855.779	2.75
856.518	0.75
857.257	3.75
857.995	1.75
858.734	4.75
859.473	2.75
860.211	2.75
860.95	2.75
861.688	-1.25
862.426	2.75
863.165	1.75
863.903	1.75
864.641	2.75
865.379	0.75
866.117	0.75
866.855	3.75
867.593	1.75
868.33	3.75
869.068	0.75
869.806	3.75
870.543	1.75
871.28	3.75
872.018	0.75
872.755	-0.25
873.492	0.75
874.229	1.75
874.967	2.75
875.703	0.75
876.44	0.75
877.177	-0.25
877.914	0.75
878.651	-0.25
879.387	0.75
880.124	2.75
880.86	-0.25
881.597	2.75
882.333	2.75
883.069	0.75
883.806	2.75
884.542	0.75
885.278	1.75
886.014	0.75
886.749	-0.25
887.485	2.75
888.221	0.75
888.957	4.75
889.692	1.75
890.428	1.75
891.163	-1.25
891.899	-0.25
892.634	0.75
893.369	0.75
894.104	1.75
894.839	1.75
895.574	3.75
896.309	0.75
897.044	-0.25
897.779	1.75
898.514	1.75
899.248	0.75
899.983	3.75
900.717	-1.25
901.452	1.75
902.186	1.75
902.92	2.75
903.654	0.75
904.389	0.75
905.123	1.75
905.857	0.75
906.59	2.75
907.324	0.75
908.058	1.75
908.792	0.75
909.525	2.75
910.259	-0.25
910.992	1.75
911.726	0.75
912.459	1.75
913.192	1.75
913.925	0.75
914.658	-0.25
915.391	1.75
916.124	-0.25
916.857	0.75
917.59	1.75
918.323	-0.25
919.055	1.75
919.788	-1.25
920.521	1.75
921.253	-0.25
921.985	0.75
922.718	0.75
923.45	-0.25
924.182	1.75
924.914	-0.25
925.646	-2.25
926.378	-2.25
927.11	0.75
927.841	-0.25
928.573	2.75
929.305	0.75
930.036	-0.25
930.768	-0.25
931.499	0.75
932.23	1.75
932.962	-1.25
933.693	-1.25
934.424	1.75
935.155	1.75
935.886	1.75
936.617	2.75
937.348	0.75
938.078	1.75
938.809	-1.25
939.54	2.75
940.27	2.75
941.001	2.75
941.731	0.75
942.461	0.75
943.191	1.75
943.922	-0.25
944.652	2.75
945.382	0.75
946.112	1.75
946.841	-0.25
947.571	1.75
948.301	1.75
949.031	0.75
949.76	0.75
950.49	0.75
951.219	-0.25
951.948	-0.25
952.678	-1.25
953.407	0.75
954.136	2.75
954.865	0.75
955.594	-1.25
956.323	1.75
957.052	-0.25
957.78	-0.25
958.509	1.75
959.238	-1.25
959.966	0.75
960.695	-0.25
961.423	-0.25
962.151	-0.25
962.88	-0.25
963.608	1.75
964.336	-2.25
965.064	-0.25
965.792	1.75
966.52	-0.25
967.247	-1.25
967.975	0.75
968.703	-0.25
969.43	1.75
970.158	-0.25
970.885	-0.25
971.613	0.75
972.34	-0.25
973.067	0.75
973.794	-0.25
974.521	-0.25
975.248	1.75
975.975	1.75
976.702	1.75
977.429	0.75
978.156	0.75
978.882	-0.25
979.609	0.75
980.335	1.75
981.062	-0.25
981.788	-2.25
982.514	0.75
983.24	-2.25
983.967	1.75
984.693	1.75
985.419	0.75
986.144	0.75
986.87	-1.25
987.596	-2.25
988.322	1.75
989.047	0.75
989.773	-0.25
990.498	-0.25
991.224	0.75
991.949	-1.25
992.674	0.75
993.399	1.75
994.124	-0.25
994.849	2.75
995.574	0.75
996.299	-1.25
997.024	0.75
997.749	0.75
998.473	1.75
999.198	0.75
999.922	-0.25
1000.647	0.75
1001.371	1.75
1002.095	0.75
1002.82	-2.25
1003.544	0.75
1004.268	0.75
1004.992	0.75
1005.716	-0.25
1006.439	-0.25
1007.163	1.75
1007.887	2.75
1008.611	-0.25
1009.334	1.75
1010.058	-2.25
1010.781	2.75
1011.504	0.75
1012.228	-0.25
1012.951	0.75
1013.674	-1.25
1014.397	0.75
1015.12	-1.25
