节点500_285_QEPB04081__355__15-01-27-687.txt的数据

Date: Wed Nov 12 15:01:27 CST 2025
User: PC
Spectrometer: QEPB0408
触发模式: 0
积分时间 (秒): 1.000000E-2
Scans to average: 1
启用暗噪声校正: true
启用非线性校正: false
滑动平均宽度: 0
X轴模式: Wavelengths
Number of Pixels in Spectrum: 1044
>>>>>Begin Spectral Data<<<<<
220.843	2.12
221.644	2.12
222.444	2.12
223.244	2.12
224.045	2.12
224.845	1.12
225.645	4.12
226.445	4.12
227.245	2.12
228.045	3.12
228.845	5.12
229.645	1.12
230.444	4.12
231.244	2.12
232.043	3.12
232.843	2.12
233.642	2.12
234.442	5.12
235.241	3.12
236.04	4.12
236.839	4.12
237.638	6.12
238.437	4.12
239.236	6.12
240.035	3.12
240.833	4.12
241.632	5.12
242.43	2.12
243.229	5.12
244.027	8.12
244.826	4.12
245.624	5.12
246.422	5.12
247.22	7.12
248.018	8.12
248.816	7.12
249.614	9.12
250.412	5.12
251.21	8.12
252.007	6.12
252.805	6.12
253.602	8.12
254.4	8.12
255.197	8.12
255.994	8.12
256.791	7.12
257.589	8.12
258.386	10.12
259.183	8.12
259.979	9.12
260.776	10.12
261.573	10.12
262.37	11.12
263.166	10.12
263.963	11.12
264.759	14.12
265.556	12.12
266.352	14.12
267.148	14.12
267.944	13.12
268.74	14.12
269.536	14.12
270.332	13.12
271.128	13.12
271.924	17.12
272.719	18.12
273.515	18.12
274.311	18.12
275.106	17.12
275.901	18.12
276.697	21.12
277.492	16.12
278.287	19.12
279.082	15.12
279.877	18.12
280.672	19.12
281.467	18.12
282.262	20.12
283.056	21.12
283.851	20.12
284.646	18.12
285.44	18.12
286.234	18.12
287.029	18.12
287.823	19.12
288.617	18.12
289.411	18.12
290.205	17.12
290.999	20.12
291.793	17.12
292.587	17.12
293.381	17.12
294.174	20.12
294.968	17.12
295.761	17.12
296.555	15.12
297.348	16.12
298.141	16.12
298.935	18.12
299.728	16.12
300.521	18.12
301.314	14.12
302.107	15.12
302.899	15.12
303.692	14.12
304.485	16.12
305.277	15.12
306.07	14.12
306.862	13.12
307.655	13.12
308.447	12.12
309.239	10.12
310.031	12.12
310.823	9.12
311.615	10.12
312.407	9.12
313.199	8.12
313.991	11.12
314.783	10.12
315.574	8.12
316.366	9.12
317.157	9.12
317.949	9.12
318.74	11.12
319.531	10.12
320.322	6.12
321.113	8.12
321.904	9.12
322.695	9.12
323.486	7.12
324.277	7.12
325.068	4.12
325.858	8.12
326.649	6.12
327.439	5.12
328.23	6.12
329.02	7.12
329.81	5.12
330.6	8.12
331.391	7.12
332.181	6.12
332.971	9.12
333.76	5.12
334.55	8.12
335.34	6.12
336.13	7.12
336.919	4.12
337.709	7.12
338.498	7.12
339.287	6.12
340.077	8.12
340.866	7.12
341.655	7.12
342.444	5.12
343.233	3.12
344.022	5.12
344.811	5.12
345.6	6.12
346.388	6.12
347.177	6.12
347.965	8.12
348.754	6.12
349.542	7.12
350.33	7.12
351.119	6.12
351.907	5.12
352.695	8.12
353.483	7.12
354.271	5.12
355.059	8.12
355.846	4.12
356.634	7.12
357.422	6.12
358.209	4.12
358.997	7.12
359.784	7.12
360.571	7.12
361.359	6.12
362.146	5.12
362.933	4.12
363.72	3.12
364.507	5.12
365.294	5.12
366.081	6.12
366.867	8.12
367.654	4.12
368.44	6.12
369.227	7.12
370.013	4.12
370.8	4.12
371.586	4.12
372.372	7.12
373.158	6.12
373.944	6.12
374.73	3.12
375.516	6.12
376.302	5.12
377.088	5.12
377.873	5.12
378.659	6.12
379.445	5.12
380.23	4.12
381.015	4.12
381.801	7.12
382.586	7.12
383.371	6.12
384.156	3.12
384.941	4.12
385.726	5.12
386.511	7.12
387.296	6.12
388.08	5.12
388.865	6.12
389.649	8.12
390.434	7.12
391.218	8.12
392.003	5.12
392.787	8.12
393.571	4.12
394.355	7.12
395.139	5.12
395.923	7.12
396.707	5.12
397.491	7.12
398.274	7.12
399.058	7.12
399.842	7.12
400.625	8.12
401.408	7.12
402.192	9.12
402.975	9.12
403.758	6.12
404.541	7.12
405.324	10.12
406.107	11.12
406.89	7.12
407.673	9.12
408.456	8.12
409.238	8.12
410.021	10.12
410.803	9.12
411.586	8.12
412.368	9.12
413.151	10.12
413.933	10.12
414.715	12.12
415.497	11.12
416.279	9.12
417.061	10.12
417.843	8.12
418.624	9.12
419.406	10.12
420.188	12.12
420.969	10.12
421.751	13.12
422.532	12.12
423.313	12.12
424.095	9.12
424.876	10.12
425.657	14.12
426.438	14.12
427.219	14.12
428	14.12
428.78	14.12
429.561	15.12
430.342	13.12
431.122	14.12
431.903	15.12
432.683	17.12
433.464	16.12
434.244	14.12
435.024	18.12
435.804	20.12
436.584	18.12
437.364	21.12
438.144	22.12
438.924	24.12
439.704	21.12
440.483	23.12
441.263	22.12
442.042	23.12
442.822	28.12
443.601	27.12
444.38	28.12
445.16	32.12
445.939	33.12
446.718	37.12
447.497	41.12
448.276	43.12
449.054	48.12
449.833	47.12
450.612	51.12
451.391	58.12
452.169	63.12
452.948	64.12
453.726	69.12
454.504	79.12
455.282	93.12
456.061	99.12
456.839	111.12
457.617	122.12
458.395	135.12
459.172	154.12
459.95	165.12
460.728	183.12
461.506	209.12
462.283	234.12
463.061	267.12
463.838	287.12
464.615	316.12
465.393	360.12
466.17	400.12
466.947	449.12
467.724	498.12
468.501	555.12
469.278	626.12
470.055	694.12
470.831	769.12
471.608	849.12
472.385	949.12
473.161	1051.12
473.938	1163.12
474.714	1296.12
475.49	1423.12
476.266	1587.12
477.043	1764.12
477.819	1930.12
478.595	2131.12
479.371	2370.12
480.146	2584.12
480.922	2885.12
481.698	3151.12
482.473	3477.12
483.249	3823.12
484.024	4185.12
484.8	4633.12
485.575	5059.12
486.35	5554.12
487.126	6094.12
487.901	6733.12
488.676	7339.12
489.451	8040.12
490.225	8811.12
491	9582.12
491.775	10490.12
492.55	11466.12
493.324	12367.12
494.099	13362.12
494.873	14357.12
495.647	15515.12
496.422	16683.12
497.196	17804.12
497.97	19062.12
498.744	20238.12
499.518	21327.12
500.292	22557.12
501.066	23592.12
501.839	24575.12
502.613	25486.12
503.387	26275.12
504.16	26867.12
504.934	27209.12
505.707	27405.12
506.48	27447.12
507.253	27347.12
508.027	27141.12
508.8	26833.12
509.573	26408.12
510.346	25794.12
511.118	25002.12
511.891	24173.12
512.664	23345.12
513.437	22501.12
514.209	21559.12
514.982	20685.12
515.754	19704.12
516.526	18900.12
517.298	18024.12
518.071	17281.12
518.843	16610.12
519.615	15947.12
520.387	15374.12
521.159	14772.12
521.93	14178.12
522.702	13611.12
523.474	13047.12
524.245	12483.12
525.017	11923.12
525.788	11475.12
526.56	10935.12
527.331	10456.12
528.102	9974.12
528.873	9521.12
529.644	9043.12
530.415	8620.12
531.186	8144.12
531.957	7751.12
532.728	7341.12
533.498	6926.12
534.269	6580.12
535.039	6212.12
535.81	5882.12
536.58	5553.12
537.351	5246.12
538.121	4910.12
538.891	4669.12
539.661	4423.12
540.431	4187.12
541.201	3949.12
541.971	3734.12
542.741	3543.12
543.51	3370.12
544.28	3205.12
545.05	3041.12
545.819	2901.12
546.588	2750.12
547.358	2620.12
548.127	2504.12
548.896	2365.12
549.665	2234.12
550.434	2111.12
551.203	2008.12
551.972	1908.12
552.741	1787.12
553.51	1705.12
554.278	1588.12
555.047	1505.12
555.815	1423.12
556.584	1354.12
557.352	1268.12
558.121	1210.12
558.889	1133.12
559.657	1062.12
560.425	1015.12
561.193	950.12
561.961	909.12
562.729	852.12
563.496	810.12
564.264	763.12
565.032	729.12
565.799	679.12
566.567	650.12
567.334	610.12
568.101	576.12
568.869	548.12
569.636	514.12
570.403	478.12
571.17	443.12
571.937	433.12
572.704	404.12
573.471	383.12
574.237	360.12
575.004	338.12
575.771	318.12
576.537	300.12
577.303	284.12
578.07	268.12
578.836	243.12
579.602	237.12
580.368	226.12
581.134	212.12
581.9	208.12
582.666	189.12
583.432	179.12
584.198	169.12
584.964	160.12
585.729	159.12
586.495	148.12
587.26	136.12
588.025	129.12
588.791	122.12
589.556	114.12
590.321	115.12
591.086	107.12
591.851	104.12
592.616	93.12
593.381	94.12
594.146	87.12
594.911	84.12
595.675	80.12
596.44	71.12
597.204	72.12
597.969	67.12
598.733	63.12
599.497	66.12
600.261	58.12
601.025	59.12
601.79	54.12
602.553	55.12
603.317	54.12
604.081	48.12
604.845	48.12
605.609	44.12
606.372	44.12
607.136	38.12
607.899	39.12
608.662	41.12
609.426	36.12
610.189	34.12
610.952	34.12
611.715	31.12
612.478	30.12
613.241	28.12
614.004	29.12
614.767	31.12
615.529	26.12
616.292	26.12
617.055	24.12
617.817	25.12
618.579	23.12
619.342	22.12
620.104	20.12
620.866	19.12
621.628	22.12
622.39	18.12
623.152	20.12
623.914	18.12
624.676	20.12
625.438	18.12
626.199	16.12
626.961	15.12
627.722	16.12
628.484	19.12
629.245	14.12
630.006	16.12
630.768	15.12
631.529	12.12
632.29	13.12
633.051	14.12
633.812	11.12
634.573	14.12
635.333	11.12
636.094	12.12
636.855	10.12
637.615	11.12
638.376	10.12
639.136	13.12
639.896	11.12
640.657	10.12
641.417	13.12
642.177	8.12
642.937	11.12
643.697	7.12
644.457	9.12
645.216	8.12
645.976	9.12
646.736	10.12
647.495	8.12
648.255	8.12
649.014	8.12
649.774	8.12
650.533	7.12
651.292	9.12
652.051	8.12
652.81	7.12
653.569	8.12
654.328	7.12
655.087	7.12
655.846	6.12
656.604	7.12
657.363	7.12
658.121	7.12
658.88	7.12
659.638	5.12
660.397	5.12
661.155	5.12
661.913	6.12
662.671	6.12
663.429	7.12
664.187	6.12
664.945	6.12
665.703	5.12
666.46	7.12
667.218	7.12
667.976	6.12
668.733	5.12
669.49	6.12
670.248	7.12
671.005	7.12
671.762	6.12
672.519	4.12
673.276	5.12
674.033	6.12
674.79	4.12
675.547	6.12
676.304	5.12
677.06	6.12
677.817	5.12
678.574	6.12
679.33	5.12
680.086	6.12
680.843	4.12
681.599	4.12
682.355	7.12
683.111	5.12
683.867	3.12
684.623	7.12
685.379	5.12
686.135	4.12
686.89	2.12
687.646	4.12
688.402	5.12
689.157	4.12
689.912	3.12
690.668	5.12
691.423	5.12
692.178	5.12
692.933	4.12
693.688	5.12
694.443	4.12
695.198	4.12
695.953	2.12
696.708	6.12
697.462	4.12
698.217	5.12
698.972	3.12
699.726	2.12
700.48	6.12
701.235	3.12
701.989	6.12
702.743	3.12
703.497	4.12
704.251	4.12
705.005	5.12
705.759	5.12
706.513	3.12
707.266	5.12
708.02	2.12
708.774	7.12
709.527	4.12
710.28	5.12
711.034	2.12
711.787	5.12
712.54	4.12
713.293	5.12
714.046	2.12
714.799	4.12
715.552	4.12
716.305	5.12
717.058	3.12
717.81	5.12
718.563	7.12
719.315	5.12
720.068	4.12
720.82	5.12
721.573	2.12
722.325	4.12
723.077	4.12
723.829	5.12
724.581	4.12
725.333	3.12
726.085	4.12
726.836	2.12
727.588	4.12
728.34	4.12
729.091	3.12
729.843	4.12
730.594	5.12
731.346	7.12
732.097	2.12
732.848	4.12
733.599	6.12
734.35	3.12
735.101	4.12
735.852	5.12
736.603	5.12
737.354	6.12
738.104	6.12
738.855	2.12
739.605	4.12
740.356	5.12
741.106	5.12
741.856	6.12
742.607	7.12
743.357	6.12
744.107	2.12
744.857	5.12
745.607	6.12
746.357	5.12
747.106	6.12
747.856	6.12
748.606	7.12
749.355	7.12
750.105	4.12
750.854	7.12
751.603	7.12
752.353	6.12
753.102	4.12
753.851	6.12
754.6	7.12
755.349	7.12
756.098	7.12
756.847	6.12
757.595	5.12
758.344	7.12
759.093	7.12
759.841	8.12
760.589	6.12
761.338	8.12
762.086	8.12
762.834	7.12
763.582	5.12
764.331	8.12
765.079	8.12
765.826	6.12
766.574	8.12
767.322	8.12
768.07	5.12
768.817	8.12
769.565	6.12
770.312	8.12
771.06	11.12
771.807	10.12
772.554	5.12
773.302	8.12
774.049	7.12
774.796	6.12
775.543	12.12
776.29	9.12
777.036	8.12
777.783	10.12
778.53	12.12
779.276	10.12
780.023	8.12
780.769	8.12
781.516	8.12
782.262	11.12
783.008	10.12
783.754	9.12
784.5	9.12
785.246	11.12
785.992	9.12
786.738	7.12
787.484	8.12
788.23	10.12
788.975	9.12
789.721	10.12
790.466	9.12
791.212	9.12
791.957	10.12
792.702	9.12
793.447	10.12
794.193	9.12
794.938	7.12
795.683	11.12
796.427	6.12
797.172	9.12
797.917	7.12
798.662	9.12
799.406	6.12
800.151	7.12
800.895	8.12
801.64	10.12
802.384	8.12
803.128	7.12
803.872	7.12
804.616	8.12
805.36	7.12
806.104	10.12
806.848	6.12
807.592	5.12
808.336	6.12
809.079	6.12
809.823	6.12
810.566	5.12
811.31	7.12
812.053	5.12
812.796	9.12
813.539	4.12
814.283	5.12
815.026	5.12
815.769	4.12
816.511	7.12
817.254	5.12
817.997	3.12
818.74	3.12
819.482	3.12
820.225	6.12
820.967	4.12
821.71	3.12
822.452	4.12
823.194	3.12
823.936	4.12
824.678	5.12
825.42	4.12
826.162	5.12
826.904	5.12
827.646	4.12
828.388	6.12
829.129	2.12
829.871	4.12
830.612	4.12
831.354	5.12
832.095	6.12
832.836	2.12
833.577	4.12
834.319	6.12
835.06	2.12
835.801	5.12
836.542	3.12
837.282	4.12
838.023	2.12
838.764	5.12
839.504	5.12
840.245	2.12
840.985	4.12
841.726	5.12
842.466	4.12
843.206	3.12
843.946	2.12
844.687	2.12
845.427	2.12
846.166	5.12
846.906	4.12
847.646	3.12
848.386	3.12
849.125	4.12
849.865	4.12
850.605	5.12
851.344	3.12
852.083	2.12
852.823	3.12
853.562	3.12
854.301	2.12
855.04	2.12
855.779	1.12
856.518	2.12
857.257	3.12
857.995	1.12
858.734	2.12
859.473	1.12
860.211	3.12
860.95	2.12
861.688	2.12
862.426	2.12
863.165	4.12
863.903	2.12
864.641	2.12
865.379	3.12
866.117	4.12
866.855	1.12
867.593	3.12
868.33	2.12
869.068	2.12
869.806	3.12
870.543	2.12
871.28	3.12
872.018	2.12
872.755	0.12
873.492	0.12
874.229	4.12
874.967	2.12
875.703	2.12
876.44	0.12
877.177	1.12
877.914	2.12
878.651	1.12
879.387	0.12
880.124	2.12
880.86	1.12
881.597	1.12
882.333	1.12
883.069	2.12
883.806	2.12
884.542	2.12
885.278	0.12
886.014	1.12
886.749	3.12
887.485	2.12
888.221	1.12
888.957	2.12
889.692	1.12
890.428	2.12
891.163	2.12
891.899	3.12
892.634	0.12
893.369	1.12
894.104	0.12
894.839	0.12
895.574	0.12
896.309	1.12
897.044	2.12
897.779	1.12
898.514	0.12
899.248	1.12
899.983	1.12
900.717	0.12
901.452	0.12
902.186	0.12
902.92	0.12
903.654	-0.88
904.389	3.12
905.123	3.12
905.857	1.12
906.59	0.12
907.324	0.12
908.058	2.12
908.792	1.12
909.525	2.12
910.259	-0.88
910.992	1.12
911.726	0.12
912.459	0.12
913.192	1.12
913.925	0.12
914.658	0.12
915.391	0.12
916.124	0.12
916.857	0.12
917.59	0.12
918.323	2.12
919.055	2.12
919.788	-0.88
920.521	1.12
921.253	-1.88
921.985	0.12
922.718	2.12
923.45	2.12
924.182	1.12
924.914	1.12
925.646	0.12
926.378	0.12
927.11	0.12
927.841	-2.88
928.573	3.12
929.305	0.12
930.036	2.12
930.768	2.12
931.499	0.12
932.23	-0.88
932.962	1.12
933.693	1.12
934.424	2.12
935.155	1.12
935.886	4.12
936.617	0.12
937.348	2.12
938.078	0.12
938.809	0.12
939.54	-0.88
940.27	-0.88
941.001	2.12
941.731	1.12
942.461	0.12
943.191	-0.88
943.922	1.12
944.652	2.12
945.382	2.12
946.112	2.12
946.841	1.12
947.571	1.12
948.301	1.12
949.031	-1.88
949.76	1.12
950.49	0.12
951.219	2.12
951.948	1.12
952.678	2.12
953.407	1.12
954.136	2.12
954.865	1.12
955.594	0.12
956.323	-0.88
957.052	0.12
957.78	0.12
958.509	1.12
959.238	2.12
959.966	1.12
960.695	1.12
961.423	0.12
962.151	-0.88
962.88	0.12
963.608	0.12
964.336	0.12
965.064	2.12
965.792	1.12
966.52	1.12
967.247	0.12
967.975	1.12
968.703	1.12
969.43	1.12
970.158	0.12
970.885	0.12
971.613	2.12
972.34	2.12
973.067	-0.88
973.794	1.12
974.521	2.12
975.248	1.12
975.975	0.12
976.702	-0.88
977.429	3.12
978.156	2.12
978.882	2.12
979.609	2.12
980.335	0.12
981.062	1.12
981.788	-0.88
982.514	1.12
983.24	-0.88
983.967	1.12
984.693	3.12
985.419	1.12
986.144	2.12
986.87	0.12
987.596	0.12
988.322	0.12
989.047	2.12
989.773	2.12
990.498	-0.88
991.224	1.12
991.949	-1.88
992.674	0.12
993.399	1.12
994.124	1.12
994.849	0.12
995.574	2.12
996.299	-0.88
997.024	0.12
997.749	3.12
998.473	0.12
999.198	2.12
999.922	2.12
1000.647	1.12
1001.371	4.12
1002.095	-0.88
1002.82	-1.88
1003.544	1.12
1004.268	0.12
1004.992	0.12
1005.716	2.12
1006.439	2.12
1007.163	1.12
1007.887	1.12
1008.611	3.12
1009.334	0.12
1010.058	0.12
1010.781	1.12
1011.504	-0.88
1012.228	2.12
1012.951	-0.88
1013.674	-0.88
1014.397	1.12
1015.12	-1.88
