节点500_285_QEPB04081__344__15-01-16-710.txt的数据

Date: Wed Nov 12 15:01:16 CST 2025
User: PC
Spectrometer: QEPB0408
触发模式: 0
积分时间 (秒): 1.000000E-2
Scans to average: 1
启用暗噪声校正: true
启用非线性校正: false
滑动平均宽度: 0
X轴模式: Wavelengths
Number of Pixels in Spectrum: 1044
>>>>>Begin Spectral Data<<<<<
220.843	-0.62
221.644	1.38
222.444	3.38
223.244	4.38
224.045	1.38
224.845	2.38
225.645	-1.62
226.445	1.38
227.245	2.38
228.045	1.38
228.845	6.38
229.645	1.38
230.444	2.38
231.244	4.38
232.043	2.38
232.843	5.38
233.642	2.38
234.442	3.38
235.241	3.38
236.04	0.38
236.839	4.38
237.638	3.38
238.437	7.38
239.236	4.38
240.035	3.38
240.833	4.38
241.632	5.38
242.43	7.38
243.229	4.38
244.027	8.38
244.826	3.38
245.624	3.38
246.422	5.38
247.22	3.38
248.018	6.38
248.816	4.38
249.614	3.38
250.412	6.38
251.21	6.38
252.007	7.38
252.805	7.38
253.602	7.38
254.4	8.38
255.197	7.38
255.994	8.38
256.791	10.38
257.589	8.38
258.386	8.38
259.183	8.38
259.979	8.38
260.776	8.38
261.573	9.38
262.37	9.38
263.166	10.38
263.963	10.38
264.759	11.38
265.556	13.38
266.352	10.38
267.148	12.38
267.944	12.38
268.74	13.38
269.536	13.38
270.332	13.38
271.128	13.38
271.924	13.38
272.719	14.38
273.515	15.38
274.311	16.38
275.106	14.38
275.901	15.38
276.697	18.38
277.492	19.38
278.287	19.38
279.082	18.38
279.877	17.38
280.672	17.38
281.467	17.38
282.262	19.38
283.056	15.38
283.851	16.38
284.646	19.38
285.44	20.38
286.234	21.38
287.029	20.38
287.823	16.38
288.617	15.38
289.411	19.38
290.205	19.38
290.999	17.38
291.793	17.38
292.587	18.38
293.381	20.38
294.174	14.38
294.968	15.38
295.761	15.38
296.555	12.38
297.348	15.38
298.141	13.38
298.935	18.38
299.728	14.38
300.521	15.38
301.314	13.38
302.107	11.38
302.899	13.38
303.692	11.38
304.485	12.38
305.277	14.38
306.07	13.38
306.862	11.38
307.655	13.38
308.447	12.38
309.239	11.38
310.031	12.38
310.823	10.38
311.615	10.38
312.407	9.38
313.199	10.38
313.991	9.38
314.783	10.38
315.574	10.38
316.366	10.38
317.157	6.38
317.949	9.38
318.74	8.38
319.531	10.38
320.322	8.38
321.113	5.38
321.904	5.38
322.695	7.38
323.486	8.38
324.277	7.38
325.068	4.38
325.858	9.38
326.649	5.38
327.439	5.38
328.23	5.38
329.02	6.38
329.81	8.38
330.6	8.38
331.391	6.38
332.181	7.38
332.971	5.38
333.76	6.38
334.55	5.38
335.34	6.38
336.13	6.38
336.919	6.38
337.709	5.38
338.498	5.38
339.287	6.38
340.077	5.38
340.866	6.38
341.655	6.38
342.444	5.38
343.233	5.38
344.022	4.38
344.811	5.38
345.6	6.38
346.388	7.38
347.177	5.38
347.965	6.38
348.754	4.38
349.542	7.38
350.33	5.38
351.119	6.38
351.907	6.38
352.695	3.38
353.483	5.38
354.271	5.38
355.059	7.38
355.846	5.38
356.634	4.38
357.422	5.38
358.209	5.38
358.997	5.38
359.784	5.38
360.571	3.38
361.359	7.38
362.146	6.38
362.933	6.38
363.72	6.38
364.507	3.38
365.294	4.38
366.081	4.38
366.867	5.38
367.654	6.38
368.44	3.38
369.227	4.38
370.013	2.38
370.8	4.38
371.586	3.38
372.372	6.38
373.158	5.38
373.944	4.38
374.73	6.38
375.516	6.38
376.302	4.38
377.088	4.38
377.873	5.38
378.659	6.38
379.445	5.38
380.23	4.38
381.015	4.38
381.801	5.38
382.586	6.38
383.371	3.38
384.156	7.38
384.941	1.38
385.726	6.38
386.511	5.38
387.296	5.38
388.08	3.38
388.865	3.38
389.649	3.38
390.434	4.38
391.218	4.38
392.003	4.38
392.787	6.38
393.571	5.38
394.355	4.38
395.139	5.38
395.923	4.38
396.707	8.38
397.491	6.38
398.274	7.38
399.058	4.38
399.842	6.38
400.625	5.38
401.408	6.38
402.192	7.38
402.975	8.38
403.758	6.38
404.541	8.38
405.324	5.38
406.107	9.38
406.89	6.38
407.673	7.38
408.456	7.38
409.238	8.38
410.021	8.38
410.803	5.38
411.586	9.38
412.368	7.38
413.151	8.38
413.933	8.38
414.715	9.38
415.497	9.38
416.279	9.38
417.061	9.38
417.843	8.38
418.624	7.38
419.406	10.38
420.188	9.38
420.969	9.38
421.751	7.38
422.532	11.38
423.313	11.38
424.095	11.38
424.876	12.38
425.657	11.38
426.438	10.38
427.219	11.38
428	11.38
428.78	12.38
429.561	12.38
430.342	13.38
431.122	15.38
431.903	14.38
432.683	16.38
433.464	15.38
434.244	13.38
435.024	15.38
435.804	16.38
436.584	18.38
437.364	16.38
438.144	17.38
438.924	20.38
439.704	24.38
440.483	21.38
441.263	25.38
442.042	24.38
442.822	25.38
443.601	28.38
444.38	29.38
445.16	33.38
445.939	36.38
446.718	36.38
447.497	38.38
448.276	39.38
449.054	42.38
449.833	48.38
450.612	52.38
451.391	58.38
452.169	63.38
452.948	69.38
453.726	72.38
454.504	80.38
455.282	88.38
456.061	98.38
456.839	111.38
457.617	122.38
458.395	135.38
459.172	152.38
459.95	169.38
460.728	185.38
461.506	204.38
462.283	228.38
463.061	262.38
463.838	283.38
464.615	320.38
465.393	354.38
466.17	405.38
466.947	446.38
467.724	493.38
468.501	553.38
469.278	632.38
470.055	690.38
470.831	765.38
471.608	854.38
472.385	957.38
473.161	1055.38
473.938	1172.38
474.714	1286.38
475.49	1426.38
476.266	1583.38
477.043	1757.38
477.819	1936.38
478.595	2134.38
479.371	2338.38
480.146	2579.38
480.922	2857.38
481.698	3124.38
482.473	3493.38
483.249	3813.38
484.024	4230.38
484.8	4624.38
485.575	5068.38
486.35	5598.38
487.126	6128.38
487.901	6680.38
488.676	7346.38
489.451	8055.38
490.225	8803.38
491	9610.38
491.775	10519.38
492.55	11466.38
493.324	12402.38
494.099	13380.38
494.873	14394.38
495.647	15562.38
496.422	16758.38
497.196	17872.38
497.97	19089.38
498.744	20288.38
499.518	21410.38
500.292	22574.38
501.066	23605.38
501.839	24659.38
502.613	25474.38
503.387	26277.38
504.16	26937.38
504.934	27255.38
505.707	27432.38
506.48	27544.38
507.253	27385.38
508.027	27107.38
508.8	26815.38
509.573	26385.38
510.346	25725.38
511.118	25023.38
511.891	24216.38
512.664	23444.38
513.437	22469.38
514.209	21605.38
514.982	20684.38
515.754	19789.38
516.526	18860.38
517.298	18082.38
518.071	17255.38
518.843	16619.38
519.615	15987.38
520.387	15361.38
521.159	14751.38
521.93	14132.38
522.702	13624.38
523.474	13020.38
524.245	12466.38
525.017	11914.38
525.788	11481.38
526.56	10959.38
527.331	10428.38
528.102	10001.38
528.873	9469.38
529.644	9021.38
530.415	8577.38
531.186	8158.38
531.957	7704.38
532.728	7335.38
533.498	6990.38
534.269	6568.38
535.039	6229.38
535.81	5876.38
536.58	5539.38
537.351	5230.38
538.121	4932.38
538.891	4669.38
539.661	4420.38
540.431	4178.38
541.201	3937.38
541.971	3737.38
542.741	3527.38
543.51	3358.38
544.28	3194.38
545.05	3051.38
545.819	2892.38
546.588	2756.38
547.358	2618.38
548.127	2487.38
548.896	2331.38
549.665	2239.38
550.434	2128.38
551.203	2005.38
551.972	1895.38
552.741	1787.38
553.51	1694.38
554.278	1584.38
555.047	1512.38
555.815	1418.38
556.584	1332.38
557.352	1272.38
558.121	1211.38
558.889	1135.38
559.657	1069.38
560.425	1009.38
561.193	945.38
561.961	896.38
562.729	849.38
563.496	802.38
564.264	760.38
565.032	716.38
565.799	683.38
566.567	637.38
567.334	609.38
568.101	577.38
568.869	544.38
569.636	515.38
570.403	476.38
571.17	450.38
571.937	425.38
572.704	396.38
573.471	375.38
574.237	360.38
575.004	337.38
575.771	308.38
576.537	302.38
577.303	285.38
578.07	268.38
578.836	248.38
579.602	228.38
580.368	226.38
581.134	209.38
581.9	198.38
582.666	192.38
583.432	182.38
584.198	173.38
584.964	160.38
585.729	148.38
586.495	148.38
587.26	140.38
588.025	131.38
588.791	122.38
589.556	119.38
590.321	110.38
591.086	106.38
591.851	94.38
592.616	94.38
593.381	90.38
594.146	85.38
594.911	84.38
595.675	76.38
596.44	71.38
597.204	69.38
597.969	72.38
598.733	65.38
599.497	63.38
600.261	57.38
601.025	56.38
601.79	56.38
602.553	52.38
603.317	47.38
604.081	47.38
604.845	43.38
605.609	45.38
606.372	38.38
607.136	40.38
607.899	37.38
608.662	36.38
609.426	35.38
610.189	35.38
610.952	31.38
611.715	32.38
612.478	30.38
613.241	29.38
614.004	25.38
614.767	28.38
615.529	27.38
616.292	27.38
617.055	24.38
617.817	21.38
618.579	26.38
619.342	22.38
620.104	21.38
620.866	19.38
621.628	19.38
622.39	20.38
623.152	19.38
623.914	19.38
624.676	16.38
625.438	20.38
626.199	17.38
626.961	15.38
627.722	16.38
628.484	13.38
629.245	15.38
630.006	13.38
630.768	13.38
631.529	11.38
632.29	12.38
633.051	11.38
633.812	11.38
634.573	11.38
635.333	9.38
636.094	10.38
636.855	11.38
637.615	9.38
638.376	8.38
639.136	9.38
639.896	9.38
640.657	8.38
641.417	7.38
642.177	8.38
642.937	9.38
643.697	9.38
644.457	8.38
645.216	8.38
645.976	7.38
646.736	8.38
647.495	10.38
648.255	6.38
649.014	8.38
649.774	4.38
650.533	5.38
651.292	5.38
652.051	7.38
652.81	6.38
653.569	4.38
654.328	6.38
655.087	7.38
655.846	4.38
656.604	8.38
657.363	6.38
658.121	6.38
658.88	4.38
659.638	5.38
660.397	5.38
661.155	6.38
661.913	6.38
662.671	5.38
663.429	5.38
664.187	5.38
664.945	5.38
665.703	5.38
666.46	5.38
667.218	6.38
667.976	3.38
668.733	5.38
669.49	5.38
670.248	6.38
671.005	5.38
671.762	3.38
672.519	2.38
673.276	4.38
674.033	4.38
674.79	2.38
675.547	1.38
676.304	5.38
677.06	3.38
677.817	4.38
678.574	5.38
679.33	3.38
680.086	3.38
680.843	4.38
681.599	6.38
682.355	2.38
683.111	5.38
683.867	3.38
684.623	2.38
685.379	5.38
686.135	2.38
686.89	4.38
687.646	3.38
688.402	3.38
689.157	5.38
689.912	1.38
690.668	3.38
691.423	2.38
692.178	6.38
692.933	1.38
693.688	3.38
694.443	2.38
695.198	1.38
695.953	1.38
696.708	3.38
697.462	5.38
698.217	1.38
698.972	3.38
699.726	3.38
700.48	2.38
701.235	4.38
701.989	2.38
702.743	5.38
703.497	3.38
704.251	2.38
705.005	3.38
705.759	2.38
706.513	1.38
707.266	3.38
708.02	3.38
708.774	2.38
709.527	2.38
710.28	4.38
711.034	3.38
711.787	4.38
712.54	3.38
713.293	4.38
714.046	4.38
714.799	4.38
715.552	3.38
716.305	2.38
717.058	3.38
717.81	3.38
718.563	2.38
719.315	4.38
720.068	3.38
720.82	5.38
721.573	2.38
722.325	3.38
723.077	3.38
723.829	3.38
724.581	4.38
725.333	4.38
726.085	2.38
726.836	3.38
727.588	2.38
728.34	1.38
729.091	3.38
729.843	5.38
730.594	1.38
731.346	4.38
732.097	5.38
732.848	4.38
733.599	3.38
734.35	3.38
735.101	6.38
735.852	1.38
736.603	4.38
737.354	5.38
738.104	4.38
738.855	5.38
739.605	2.38
740.356	6.38
741.106	5.38
741.856	5.38
742.607	7.38
743.357	3.38
744.107	3.38
744.857	1.38
745.607	3.38
746.357	3.38
747.106	2.38
747.856	5.38
748.606	3.38
749.355	6.38
750.105	3.38
750.854	6.38
751.603	3.38
752.353	5.38
753.102	3.38
753.851	6.38
754.6	7.38
755.349	6.38
756.098	4.38
756.847	6.38
757.595	6.38
758.344	7.38
759.093	6.38
759.841	4.38
760.589	7.38
761.338	5.38
762.086	5.38
762.834	8.38
763.582	5.38
764.331	3.38
765.079	7.38
765.826	4.38
766.574	5.38
767.322	8.38
768.07	7.38
768.817	7.38
769.565	9.38
770.312	7.38
771.06	8.38
771.807	7.38
772.554	8.38
773.302	5.38
774.049	9.38
774.796	8.38
775.543	9.38
776.29	10.38
777.036	9.38
777.783	8.38
778.53	7.38
779.276	9.38
780.023	8.38
780.769	7.38
781.516	10.38
782.262	5.38
783.008	8.38
783.754	10.38
784.5	8.38
785.246	9.38
785.992	6.38
786.738	7.38
787.484	7.38
788.23	9.38
788.975	7.38
789.721	8.38
790.466	11.38
791.212	5.38
791.957	8.38
792.702	8.38
793.447	8.38
794.193	8.38
794.938	7.38
795.683	9.38
796.427	5.38
797.172	7.38
797.917	6.38
798.662	7.38
799.406	8.38
800.151	9.38
800.895	7.38
801.64	6.38
802.384	8.38
803.128	8.38
803.872	7.38
804.616	6.38
805.36	6.38
806.104	4.38
806.848	5.38
807.592	4.38
808.336	8.38
809.079	6.38
809.823	4.38
810.566	6.38
811.31	6.38
812.053	6.38
812.796	4.38
813.539	7.38
814.283	4.38
815.026	4.38
815.769	5.38
816.511	6.38
817.254	3.38
817.997	3.38
818.74	4.38
819.482	2.38
820.225	6.38
820.967	5.38
821.71	3.38
822.452	5.38
823.194	3.38
823.936	6.38
824.678	2.38
825.42	6.38
826.162	2.38
826.904	4.38
827.646	3.38
828.388	3.38
829.129	4.38
829.871	3.38
830.612	2.38
831.354	4.38
832.095	5.38
832.836	6.38
833.577	2.38
834.319	3.38
835.06	2.38
835.801	3.38
836.542	3.38
837.282	5.38
838.023	4.38
838.764	2.38
839.504	2.38
840.245	4.38
840.985	3.38
841.726	2.38
842.466	1.38
843.206	3.38
843.946	4.38
844.687	0.38
845.427	6.38
846.166	1.38
846.906	3.38
847.646	3.38
848.386	2.38
849.125	1.38
849.865	2.38
850.605	2.38
851.344	3.38
852.083	1.38
852.823	2.38
853.562	2.38
854.301	3.38
855.04	2.38
855.779	-0.62
856.518	1.38
857.257	2.38
857.995	1.38
858.734	2.38
859.473	2.38
860.211	1.38
860.95	2.38
861.688	1.38
862.426	2.38
863.165	3.38
863.903	1.38
864.641	0.38
865.379	3.38
866.117	1.38
866.855	-0.62
867.593	1.38
868.33	-0.62
869.068	2.38
869.806	2.38
870.543	0.38
871.28	0.38
872.018	1.38
872.755	1.38
873.492	1.38
874.229	-0.62
874.967	2.38
875.703	0.38
876.44	-0.62
877.177	1.38
877.914	1.38
878.651	2.38
879.387	-1.62
880.124	1.38
880.86	0.38
881.597	-0.62
882.333	1.38
883.069	2.38
883.806	0.38
884.542	1.38
885.278	1.38
886.014	2.38
886.749	-0.62
887.485	3.38
888.221	2.38
888.957	0.38
889.692	0.38
890.428	0.38
891.163	2.38
891.899	-1.62
892.634	1.38
893.369	0.38
894.104	0.38
894.839	1.38
895.574	-0.62
896.309	-1.62
897.044	-0.62
897.779	1.38
898.514	-1.62
899.248	4.38
899.983	1.38
900.717	0.38
901.452	0.38
902.186	1.38
902.92	-0.62
903.654	0.38
904.389	0.38
905.123	1.38
905.857	2.38
906.59	1.38
907.324	-0.62
908.058	1.38
908.792	1.38
909.525	0.38
910.259	1.38
910.992	-1.62
911.726	0.38
912.459	0.38
913.192	1.38
913.925	-0.62
914.658	-0.62
915.391	-0.62
916.124	0.38
916.857	2.38
917.59	-0.62
918.323	1.38
919.055	1.38
919.788	0.38
920.521	-1.62
921.253	-1.62
921.985	-0.62
922.718	0.38
923.45	-0.62
924.182	0.38
924.914	-0.62
925.646	1.38
926.378	-0.62
927.11	0.38
927.841	0.38
928.573	0.38
929.305	0.38
930.036	-0.62
930.768	-0.62
931.499	2.38
932.23	-0.62
932.962	0.38
933.693	0.38
934.424	2.38
935.155	-0.62
935.886	1.38
936.617	-0.62
937.348	-1.62
938.078	-0.62
938.809	0.38
939.54	-2.62
940.27	-0.62
941.001	-0.62
941.731	0.38
942.461	3.38
943.191	1.38
943.922	0.38
944.652	1.38
945.382	-2.62
946.112	-0.62
946.841	-1.62
947.571	-0.62
948.301	0.38
949.031	1.38
949.76	0.38
950.49	1.38
951.219	-3.62
951.948	1.38
952.678	0.38
953.407	2.38
954.136	-0.62
954.865	-2.62
955.594	1.38
956.323	0.38
957.052	-0.62
957.78	1.38
958.509	0.38
959.238	-0.62
959.966	-0.62
960.695	-0.62
961.423	0.38
962.151	1.38
962.88	1.38
963.608	-1.62
964.336	1.38
965.064	1.38
965.792	0.38
966.52	-0.62
967.247	2.38
967.975	1.38
968.703	0.38
969.43	2.38
970.158	-0.62
970.885	2.38
971.613	-0.62
972.34	-1.62
973.067	1.38
973.794	-2.62
974.521	0.38
975.248	-1.62
975.975	0.38
976.702	-2.62
977.429	0.38
978.156	0.38
978.882	-2.62
979.609	0.38
980.335	-0.62
981.062	1.38
981.788	0.38
982.514	-1.62
983.24	-0.62
983.967	-0.62
984.693	1.38
985.419	-0.62
986.144	-0.62
986.87	1.38
987.596	0.38
988.322	-0.62
989.047	-0.62
989.773	0.38
990.498	0.38
991.224	-1.62
991.949	-0.62
992.674	2.38
993.399	0.38
994.124	-0.62
994.849	0.38
995.574	-0.62
996.299	0.38
997.024	0.38
997.749	-0.62
998.473	0.38
999.198	1.38
999.922	-0.62
1000.647	-1.62
1001.371	2.38
1002.095	-1.62
1002.82	-1.62
1003.544	1.38
1004.268	0.38
1004.992	-1.62
1005.716	1.38
1006.439	2.38
1007.163	2.38
1007.887	2.38
1008.611	-0.62
1009.334	-0.62
1010.058	-0.62
1010.781	-0.62
1011.504	0.38
1012.228	-1.62
1012.951	1.38
1013.674	-1.62
1014.397	1.38
1015.12	-1.62
