节点500_285_QEPB04081__814__15-09-05-734.txt的数据

Date: Wed Nov 12 15:09:05 CST 2025
User: PC
Spectrometer: QEPB0408
触发模式: 0
积分时间 (秒): 1.000000E-2
Scans to average: 1
启用暗噪声校正: true
启用非线性校正: false
滑动平均宽度: 0
X轴模式: Wavelengths
Number of Pixels in Spectrum: 1044
>>>>>Begin Spectral Data<<<<<
220.843	0
221.644	1
222.444	0
223.244	0
224.045	1
224.845	1
225.645	0
226.445	2
227.245	2
228.045	2
228.845	2
229.645	0
230.444	3
231.244	2
232.043	4
232.843	4
233.642	2
234.442	6
235.241	4
236.04	2
236.839	4
237.638	2
238.437	3
239.236	5
240.035	3
240.833	4
241.632	8
242.43	3
243.229	4
244.027	5
244.826	3
245.624	5
246.422	6
247.22	5
248.018	7
248.816	6
249.614	5
250.412	7
251.21	5
252.007	4
252.805	6
253.602	5
254.4	6
255.197	8
255.994	7
256.791	7
257.589	10
258.386	7
259.183	8
259.979	8
260.776	9
261.573	9
262.37	10
263.166	10
263.963	11
264.759	9
265.556	9
266.352	13
267.148	10
267.944	8
268.74	14
269.536	15
270.332	12
271.128	15
271.924	12
272.719	13
273.515	14
274.311	14
275.106	15
275.901	16
276.697	15
277.492	14
278.287	15
279.082	18
279.877	16
280.672	17
281.467	17
282.262	16
283.056	17
283.851	16
284.646	16
285.44	17
286.234	14
287.029	16
287.823	18
288.617	13
289.411	16
290.205	16
290.999	17
291.793	17
292.587	21
293.381	17
294.174	14
294.968	17
295.761	14
296.555	13
297.348	14
298.141	15
298.935	18
299.728	14
300.521	17
301.314	14
302.107	12
302.899	12
303.692	12
304.485	14
305.277	11
306.07	13
306.862	12
307.655	11
308.447	12
309.239	13
310.031	11
310.823	12
311.615	10
312.407	11
313.199	12
313.991	9
314.783	9
315.574	8
316.366	9
317.157	7
317.949	8
318.74	8
319.531	7
320.322	9
321.113	8
321.904	7
322.695	7
323.486	8
324.277	7
325.068	7
325.858	8
326.649	10
327.439	7
328.23	6
329.02	8
329.81	5
330.6	7
331.391	7
332.181	12
332.971	6
333.76	8
334.55	6
335.34	5
336.13	9
336.919	4
337.709	7
338.498	5
339.287	6
340.077	7
340.866	9
341.655	6
342.444	5
343.233	5
344.022	7
344.811	6
345.6	5
346.388	4
347.177	8
347.965	7
348.754	10
349.542	7
350.33	6
351.119	6
351.907	5
352.695	7
353.483	5
354.271	6
355.059	5
355.846	5
356.634	5
357.422	6
358.209	5
358.997	7
359.784	6
360.571	4
361.359	4
362.146	8
362.933	6
363.72	6
364.507	4
365.294	6
366.081	6
366.867	4
367.654	6
368.44	7
369.227	4
370.013	6
370.8	2
371.586	5
372.372	3
373.158	5
373.944	5
374.73	4
375.516	4
376.302	4
377.088	7
377.873	4
378.659	3
379.445	2
380.23	4
381.015	6
381.801	2
382.586	6
383.371	5
384.156	5
384.941	5
385.726	7
386.511	6
387.296	4
388.08	5
388.865	6
389.649	4
390.434	7
391.218	5
392.003	6
392.787	5
393.571	7
394.355	6
395.139	9
395.923	7
396.707	5
397.491	7
398.274	7
399.058	6
399.842	5
400.625	5
401.408	6
402.192	8
402.975	6
403.758	7
404.541	5
405.324	7
406.107	7
406.89	7
407.673	7
408.456	8
409.238	8
410.021	10
410.803	8
411.586	7
412.368	9
413.151	9
413.933	10
414.715	9
415.497	7
416.279	10
417.061	9
417.843	10
418.624	9
419.406	8
420.188	9
420.969	11
421.751	13
422.532	9
423.313	11
424.095	12
424.876	11
425.657	13
426.438	12
427.219	13
428	12
428.78	12
429.561	13
430.342	14
431.122	13
431.903	15
432.683	16
433.464	14
434.244	20
435.024	18
435.804	18
436.584	17
437.364	18
438.144	20
438.924	21
439.704	25
440.483	23
441.263	26
442.042	26
442.822	28
443.601	29
444.38	30
445.16	33
445.939	35
446.718	37
447.497	39
448.276	45
449.054	49
449.833	53
450.612	56
451.391	65
452.169	72
452.948	80
453.726	80
454.504	92
455.282	101
456.061	115
456.839	122
457.617	143
458.395	151
459.172	165
459.95	191
460.728	218
461.506	235
462.283	265
463.061	284
463.838	327
464.615	362
465.393	394
466.17	439
466.947	496
467.724	542
468.501	604
469.278	659
470.055	740
470.831	830
471.608	908
472.385	1003
473.161	1105
473.938	1211
474.714	1336
475.49	1480
476.266	1621
477.043	1773
477.819	1941
478.595	2131
479.371	2339
480.146	2546
480.922	2786
481.698	3058
482.473	3331
483.249	3646
484.024	3966
484.8	4342
485.575	4714
486.35	5126
487.126	5561
487.901	6084
488.676	6621
489.451	7208
490.225	7854
491	8486
491.775	9252
492.55	10030
493.324	10807
494.099	11586
494.873	12405
495.647	13364
496.422	14300
497.196	15314
497.97	16333
498.744	17360
499.518	18439
500.292	19399
501.066	20425
501.839	21344
502.613	22209
503.387	23030
504.16	23735
504.934	24263
505.707	24634
506.48	24917
507.253	25035
508.027	25010
508.8	25007
509.573	24859
510.346	24534
511.118	24030
511.891	23482
512.664	22892
513.437	22153
514.209	21420
514.982	20667
515.754	19843
516.526	19110
517.298	18319
518.071	17593
518.843	16880
519.615	16325
520.387	15702
521.159	15050
521.93	14406
522.702	13857
523.474	13260
524.245	12683
525.017	12182
525.788	11758
526.56	11283
527.331	10718
528.102	10263
528.873	9856
529.644	9396
530.415	8951
531.186	8511
531.957	8116
532.728	7754
533.498	7369
534.269	6955
535.039	6574
535.81	6216
536.58	5917
537.351	5580
538.121	5279
538.891	4995
539.661	4728
540.431	4457
541.201	4195
541.971	4006
542.741	3794
543.51	3630
544.28	3438
545.05	3276
545.819	3111
546.588	2945
547.358	2800
548.127	2657
548.896	2531
549.665	2410
550.434	2290
551.203	2174
551.972	2058
552.741	1939
553.51	1830
554.278	1738
555.047	1641
555.815	1555
556.584	1473
557.352	1378
558.121	1308
558.889	1255
559.657	1167
560.425	1109
561.193	1045
561.961	985
562.729	926
563.496	892
564.264	825
565.032	781
565.799	739
566.567	700
567.334	667
568.101	627
568.869	604
569.636	560
570.403	531
571.17	506
571.937	472
572.704	439
573.471	417
574.237	387
575.004	372
575.771	352
576.537	333
577.303	309
578.07	289
578.836	271
579.602	257
580.368	241
581.134	236
581.9	213
582.666	212
583.432	198
584.198	189
584.964	181
585.729	173
586.495	163
587.26	157
588.025	149
588.791	140
589.556	127
590.321	116
591.086	111
591.851	112
592.616	101
593.381	98
594.146	95
594.911	91
595.675	87
596.44	81
597.204	76
597.969	77
598.733	72
599.497	70
600.261	65
601.025	65
601.79	59
602.553	57
603.317	55
604.081	52
604.845	47
605.609	46
606.372	47
607.136	40
607.899	41
608.662	40
609.426	40
610.189	37
610.952	35
611.715	32
612.478	32
613.241	31
614.004	27
614.767	31
615.529	28
616.292	28
617.055	28
617.817	26
618.579	23
619.342	24
620.104	21
620.866	19
621.628	19
622.39	19
623.152	20
623.914	19
624.676	20
625.438	19
626.199	20
626.961	15
627.722	17
628.484	14
629.245	16
630.006	14
630.768	11
631.529	13
632.29	12
633.051	14
633.812	12
634.573	12
635.333	16
636.094	12
636.855	8
637.615	12
638.376	12
639.136	11
639.896	9
640.657	11
641.417	9
642.177	11
642.937	9
643.697	10
644.457	8
645.216	10
645.976	9
646.736	8
647.495	11
648.255	9
649.014	7
649.774	7
650.533	7
651.292	7
652.051	8
652.81	7
653.569	8
654.328	7
655.087	6
655.846	7
656.604	7
657.363	6
658.121	7
658.88	6
659.638	7
660.397	6
661.155	6
661.913	4
662.671	4
663.429	5
664.187	4
664.945	6
665.703	5
666.46	6
667.218	4
667.976	4
668.733	5
669.49	5
670.248	5
671.005	6
671.762	6
672.519	5
673.276	4
674.033	5
674.79	5
675.547	2
676.304	3
677.06	5
677.817	5
678.574	5
679.33	5
680.086	4
680.843	3
681.599	4
682.355	4
683.111	1
683.867	4
684.623	5
685.379	3
686.135	3
686.89	5
687.646	4
688.402	5
689.157	3
689.912	2
690.668	3
691.423	4
692.178	4
692.933	6
693.688	4
694.443	2
695.198	2
695.953	2
696.708	4
697.462	5
698.217	4
698.972	3
699.726	4
700.48	0
701.235	6
701.989	3
702.743	5
703.497	5
704.251	4
705.005	6
705.759	4
706.513	3
707.266	4
708.02	3
708.774	2
709.527	4
710.28	5
711.034	3
711.787	4
712.54	2
713.293	5
714.046	4
714.799	3
715.552	2
716.305	4
717.058	2
717.81	4
718.563	3
719.315	4
720.068	3
720.82	5
721.573	4
722.325	5
723.077	3
723.829	5
724.581	1
725.333	2
726.085	4
726.836	2
727.588	2
728.34	4
729.091	4
729.843	4
730.594	3
731.346	4
732.097	4
732.848	3
733.599	3
734.35	4
735.101	6
735.852	3
736.603	4
737.354	4
738.104	6
738.855	5
739.605	4
740.356	7
741.106	4
741.856	1
742.607	4
743.357	7
744.107	5
744.857	4
745.607	4
746.357	2
747.106	7
747.856	4
748.606	4
749.355	6
750.105	4
750.854	5
751.603	8
752.353	5
753.102	5
753.851	4
754.6	5
755.349	3
756.098	7
756.847	8
757.595	4
758.344	6
759.093	6
759.841	6
760.589	6
761.338	5
762.086	7
762.834	4
763.582	5
764.331	7
765.079	5
765.826	6
766.574	5
767.322	7
768.07	5
768.817	6
769.565	6
770.312	7
771.06	10
771.807	7
772.554	7
773.302	7
774.049	6
774.796	5
775.543	9
776.29	8
777.036	7
777.783	5
778.53	7
779.276	8
780.023	9
780.769	7
781.516	10
782.262	7
783.008	10
783.754	8
784.5	6
785.246	6
785.992	6
786.738	9
787.484	7
788.23	8
788.975	7
789.721	10
790.466	10
791.212	8
791.957	9
792.702	7
793.447	8
794.193	7
794.938	5
795.683	7
796.427	5
797.172	8
797.917	6
798.662	7
799.406	6
800.151	5
800.895	6
801.64	8
802.384	8
803.128	5
803.872	7
804.616	5
805.36	6
806.104	6
806.848	4
807.592	4
808.336	7
809.079	5
809.823	5
810.566	6
811.31	4
812.053	5
812.796	6
813.539	5
814.283	7
815.026	4
815.769	5
816.511	6
817.254	5
817.997	5
818.74	5
819.482	8
820.225	2
820.967	2
821.71	4
822.452	1
823.194	3
823.936	4
824.678	5
825.42	4
826.162	1
826.904	5
827.646	3
828.388	5
829.129	4
829.871	2
830.612	4
831.354	2
832.095	4
832.836	3
833.577	2
834.319	2
835.06	3
835.801	4
836.542	3
837.282	5
838.023	4
838.764	4
839.504	3
840.245	2
840.985	4
841.726	4
842.466	2
843.206	2
843.946	5
844.687	5
845.427	5
846.166	4
846.906	5
847.646	4
848.386	4
849.125	4
849.865	3
850.605	1
851.344	1
852.083	4
852.823	2
853.562	2
854.301	0
855.04	3
855.779	2
856.518	2
857.257	1
857.995	4
858.734	1
859.473	3
860.211	3
860.95	3
861.688	1
862.426	3
863.165	3
863.903	2
864.641	1
865.379	4
866.117	3
866.855	3
867.593	3
868.33	1
869.068	2
869.806	1
870.543	2
871.28	0
872.018	0
872.755	3
873.492	2
874.229	2
874.967	-2
875.703	1
876.44	0
877.177	2
877.914	0
878.651	-2
879.387	5
880.124	1
880.86	2
881.597	-1
882.333	0
883.069	2
883.806	1
884.542	2
885.278	1
886.014	1
886.749	1
887.485	-1
888.221	1
888.957	-1
889.692	0
890.428	2
891.163	-1
891.899	3
892.634	-2
893.369	2
894.104	0
894.839	0
895.574	1
896.309	2
897.044	0
897.779	2
898.514	2
899.248	0
899.983	2
900.717	0
901.452	0
902.186	1
902.92	2
903.654	3
904.389	-2
905.123	1
905.857	1
906.59	2
907.324	0
908.058	1
908.792	0
909.525	2
910.259	-1
910.992	1
911.726	1
912.459	0
913.192	1
913.925	1
914.658	0
915.391	2
916.124	-1
916.857	-2
917.59	1
918.323	1
919.055	1
919.788	-1
920.521	1
921.253	-1
921.985	-2
922.718	2
923.45	2
924.182	2
924.914	0
925.646	1
926.378	1
927.11	1
927.841	0
928.573	1
929.305	1
930.036	-1
930.768	1
931.499	4
932.23	0
932.962	2
933.693	-2
934.424	1
935.155	0
935.886	0
936.617	0
937.348	-1
938.078	0
938.809	2
939.54	-2
940.27	0
941.001	1
941.731	0
942.461	-1
943.191	-1
943.922	-1
944.652	2
945.382	1
946.112	0
946.841	1
947.571	-1
948.301	-2
949.031	0
949.76	1
950.49	0
951.219	-1
951.948	3
952.678	0
953.407	2
954.136	0
954.865	1
955.594	0
956.323	0
957.052	0
957.78	1
958.509	0
959.238	0
959.966	-2
960.695	-1
961.423	0
962.151	1
962.88	1
963.608	0
964.336	1
965.064	2
965.792	-2
966.52	-4
967.247	1
967.975	-1
968.703	1
969.43	-2
970.158	0
970.885	-1
971.613	1
972.34	2
973.067	0
973.794	1
974.521	0
975.248	-2
975.975	0
976.702	0
977.429	0
978.156	1
978.882	1
979.609	3
980.335	0
981.062	1
981.788	1
982.514	1
983.24	1
983.967	0
984.693	0
985.419	1
986.144	2
986.87	1
987.596	0
988.322	-1
989.047	1
989.773	2
990.498	-2
991.224	2
991.949	0
992.674	0
993.399	1
994.124	-2
994.849	0
995.574	0
996.299	0
997.024	1
997.749	-1
998.473	1
999.198	0
999.922	1
1000.647	0
1001.371	2
1002.095	-2
1002.82	1
1003.544	-1
1004.268	1
1004.992	1
1005.716	2
1006.439	0
1007.163	1
1007.887	1
1008.611	1
1009.334	1
1010.058	-1
1010.781	1
1011.504	1
1012.228	0
1012.951	1
1013.674	0
1014.397	1
1015.12	-2
