节点500_285_QEPB04081__720__15-07-31-789.txt的数据

Date: Wed Nov 12 15:07:31 CST 2025
User: PC
Spectrometer: QEPB0408
触发模式: 0
积分时间 (秒): 1.000000E-2
Scans to average: 1
启用暗噪声校正: true
启用非线性校正: false
滑动平均宽度: 0
X轴模式: Wavelengths
Number of Pixels in Spectrum: 1044
>>>>>Begin Spectral Data<<<<<
220.843	-0.25
221.644	1.75
222.444	-0.25
223.244	0.75
224.045	2.75
224.845	1.75
225.645	-0.25
226.445	3.75
227.245	1.75
228.045	-0.25
228.845	1.75
229.645	3.75
230.444	3.75
231.244	3.75
232.043	1.75
232.843	2.75
233.642	2.75
234.442	3.75
235.241	1.75
236.04	3.75
236.839	3.75
237.638	3.75
238.437	1.75
239.236	2.75
240.035	4.75
240.833	4.75
241.632	5.75
242.43	3.75
243.229	4.75
244.027	6.75
244.826	1.75
245.624	6.75
246.422	3.75
247.22	4.75
248.018	4.75
248.816	5.75
249.614	7.75
250.412	4.75
251.21	5.75
252.007	7.75
252.805	5.75
253.602	5.75
254.4	6.75
255.197	7.75
255.994	5.75
256.791	8.75
257.589	6.75
258.386	8.75
259.183	7.75
259.979	6.75
260.776	8.75
261.573	10.75
262.37	9.75
263.166	11.75
263.963	10.75
264.759	11.75
265.556	9.75
266.352	11.75
267.148	9.75
267.944	10.75
268.74	9.75
269.536	9.75
270.332	14.75
271.128	12.75
271.924	13.75
272.719	16.75
273.515	9.75
274.311	15.75
275.106	12.75
275.901	14.75
276.697	16.75
277.492	14.75
278.287	17.75
279.082	14.75
279.877	14.75
280.672	13.75
281.467	18.75
282.262	16.75
283.056	16.75
283.851	16.75
284.646	14.75
285.44	17.75
286.234	17.75
287.029	15.75
287.823	17.75
288.617	19.75
289.411	16.75
290.205	15.75
290.999	16.75
291.793	15.75
292.587	16.75
293.381	15.75
294.174	16.75
294.968	15.75
295.761	15.75
296.555	13.75
297.348	13.75
298.141	15.75
298.935	18.75
299.728	14.75
300.521	13.75
301.314	14.75
302.107	10.75
302.899	12.75
303.692	12.75
304.485	12.75
305.277	11.75
306.07	11.75
306.862	13.75
307.655	11.75
308.447	9.75
309.239	10.75
310.031	9.75
310.823	6.75
311.615	11.75
312.407	7.75
313.199	12.75
313.991	9.75
314.783	9.75
315.574	10.75
316.366	7.75
317.157	7.75
317.949	6.75
318.74	10.75
319.531	7.75
320.322	7.75
321.113	4.75
321.904	6.75
322.695	6.75
323.486	8.75
324.277	5.75
325.068	6.75
325.858	7.75
326.649	6.75
327.439	6.75
328.23	8.75
329.02	6.75
329.81	6.75
330.6	8.75
331.391	3.75
332.181	6.75
332.971	8.75
333.76	4.75
334.55	5.75
335.34	8.75
336.13	6.75
336.919	4.75
337.709	6.75
338.498	4.75
339.287	4.75
340.077	4.75
340.866	6.75
341.655	5.75
342.444	5.75
343.233	6.75
344.022	5.75
344.811	6.75
345.6	5.75
346.388	4.75
347.177	5.75
347.965	4.75
348.754	5.75
349.542	4.75
350.33	5.75
351.119	4.75
351.907	4.75
352.695	7.75
353.483	6.75
354.271	4.75
355.059	7.75
355.846	3.75
356.634	5.75
357.422	3.75
358.209	5.75
358.997	6.75
359.784	6.75
360.571	6.75
361.359	3.75
362.146	5.75
362.933	4.75
363.72	5.75
364.507	5.75
365.294	6.75
366.081	4.75
366.867	4.75
367.654	7.75
368.44	3.75
369.227	5.75
370.013	4.75
370.8	4.75
371.586	4.75
372.372	3.75
373.158	3.75
373.944	4.75
374.73	4.75
375.516	5.75
376.302	2.75
377.088	4.75
377.873	4.75
378.659	2.75
379.445	6.75
380.23	4.75
381.015	3.75
381.801	5.75
382.586	5.75
383.371	4.75
384.156	3.75
384.941	2.75
385.726	5.75
386.511	6.75
387.296	4.75
388.08	6.75
388.865	2.75
389.649	4.75
390.434	3.75
391.218	2.75
392.003	6.75
392.787	5.75
393.571	5.75
394.355	5.75
395.139	5.75
395.923	5.75
396.707	5.75
397.491	6.75
398.274	6.75
399.058	7.75
399.842	5.75
400.625	6.75
401.408	3.75
402.192	6.75
402.975	7.75
403.758	6.75
404.541	6.75
405.324	6.75
406.107	6.75
406.89	5.75
407.673	6.75
408.456	10.75
409.238	7.75
410.021	5.75
410.803	7.75
411.586	8.75
412.368	5.75
413.151	6.75
413.933	9.75
414.715	8.75
415.497	8.75
416.279	10.75
417.061	7.75
417.843	9.75
418.624	8.75
419.406	11.75
420.188	11.75
420.969	9.75
421.751	9.75
422.532	9.75
423.313	8.75
424.095	9.75
424.876	10.75
425.657	12.75
426.438	9.75
427.219	11.75
428	9.75
428.78	10.75
429.561	15.75
430.342	13.75
431.122	13.75
431.903	14.75
432.683	13.75
433.464	15.75
434.244	17.75
435.024	15.75
435.804	15.75
436.584	18.75
437.364	16.75
438.144	19.75
438.924	19.75
439.704	22.75
440.483	23.75
441.263	24.75
442.042	28.75
442.822	26.75
443.601	29.75
444.38	31.75
445.16	33.75
445.939	37.75
446.718	36.75
447.497	40.75
448.276	42.75
449.054	48.75
449.833	51.75
450.612	52.75
451.391	59.75
452.169	69.75
452.948	70.75
453.726	78.75
454.504	90.75
455.282	99.75
456.061	114.75
456.839	121.75
457.617	134.75
458.395	150.75
459.172	168.75
459.95	189.75
460.728	207.75
461.506	229.75
462.283	254.75
463.061	284.75
463.838	320.75
464.615	355.75
465.393	389.75
466.17	434.75
466.947	485.75
467.724	534.75
468.501	594.75
469.278	663.75
470.055	723.75
470.831	814.75
471.608	900.75
472.385	999.75
473.161	1085.75
473.938	1190.75
474.714	1326.75
475.49	1464.75
476.266	1616.75
477.043	1769.75
477.819	1941.75
478.595	2116.75
479.371	2321.75
480.146	2567.75
480.922	2782.75
481.698	3060.75
482.473	3317.75
483.249	3657.75
484.024	3974.75
484.8	4365.75
485.575	4780.75
486.35	5177.75
487.126	5643.75
487.901	6187.75
488.676	6739.75
489.451	7320.75
490.225	7974.75
491	8632.75
491.775	9404.75
492.55	10211.75
493.324	10964.75
494.099	11795.75
494.873	12644.75
495.647	13635.75
496.422	14637.75
497.196	15620.75
497.97	16691.75
498.744	17725.75
499.518	18787.75
500.292	19806.75
501.066	20811.75
501.839	21713.75
502.613	22651.75
503.387	23466.75
504.16	24208.75
504.934	24591.75
505.707	25014.75
506.48	25223.75
507.253	25368.75
508.027	25305.75
508.8	25251.75
509.573	25115.75
510.346	24705.75
511.118	24204.75
511.891	23611.75
512.664	22977.75
513.437	22318.75
514.209	21406.75
514.982	20726.75
515.754	19860.75
516.526	19069.75
517.298	18321.75
518.071	17550.75
518.843	16853.75
519.615	16251.75
520.387	15614.75
521.159	15008.75
521.93	14383.75
522.702	13846.75
523.474	13288.75
524.245	12683.75
525.017	12185.75
525.788	11746.75
526.56	11210.75
527.331	10689.75
528.102	10273.75
528.873	9811.75
529.644	9310.75
530.415	8905.75
531.186	8492.75
531.957	8082.75
532.728	7725.75
533.498	7286.75
534.269	6909.75
535.039	6536.75
535.81	6219.75
536.58	5853.75
537.351	5519.75
538.121	5270.75
538.891	4954.75
539.661	4665.75
540.431	4440.75
541.201	4178.75
541.971	3954.75
542.741	3755.75
543.51	3560.75
544.28	3418.75
545.05	3232.75
545.819	3064.75
546.588	2906.75
547.358	2777.75
548.127	2646.75
548.896	2478.75
549.665	2379.75
550.434	2258.75
551.203	2156.75
551.972	2038.75
552.741	1906.75
553.51	1815.75
554.278	1730.75
555.047	1623.75
555.815	1517.75
556.584	1445.75
557.352	1367.75
558.121	1289.75
558.889	1237.75
559.657	1172.75
560.425	1095.75
561.193	1035.75
561.961	965.75
562.729	922.75
563.496	860.75
564.264	810.75
565.032	777.75
565.799	731.75
566.567	706.75
567.334	651.75
568.101	625.75
568.869	588.75
569.636	549.75
570.403	514.75
571.17	483.75
571.937	461.75
572.704	433.75
573.471	416.75
574.237	396.75
575.004	364.75
575.771	352.75
576.537	322.75
577.303	311.75
578.07	285.75
578.836	274.75
579.602	257.75
580.368	239.75
581.134	235.75
581.9	225.75
582.666	203.75
583.432	197.75
584.198	178.75
584.964	177.75
585.729	166.75
586.495	163.75
587.26	147.75
588.025	139.75
588.791	129.75
589.556	130.75
590.321	120.75
591.086	114.75
591.851	111.75
592.616	103.75
593.381	96.75
594.146	93.75
594.911	90.75
595.675	85.75
596.44	81.75
597.204	72.75
597.969	72.75
598.733	73.75
599.497	65.75
600.261	62.75
601.025	57.75
601.79	60.75
602.553	52.75
603.317	55.75
604.081	47.75
604.845	50.75
605.609	44.75
606.372	43.75
607.136	39.75
607.899	44.75
608.662	38.75
609.426	36.75
610.189	35.75
610.952	34.75
611.715	38.75
612.478	32.75
613.241	29.75
614.004	28.75
614.767	26.75
615.529	24.75
616.292	24.75
617.055	24.75
617.817	25.75
618.579	23.75
619.342	23.75
620.104	24.75
620.866	20.75
621.628	20.75
622.39	18.75
623.152	18.75
623.914	17.75
624.676	19.75
625.438	15.75
626.199	16.75
626.961	12.75
627.722	17.75
628.484	16.75
629.245	14.75
630.006	12.75
630.768	13.75
631.529	13.75
632.29	13.75
633.051	11.75
633.812	12.75
634.573	13.75
635.333	11.75
636.094	13.75
636.855	12.75
637.615	8.75
638.376	11.75
639.136	10.75
639.896	11.75
640.657	8.75
641.417	9.75
642.177	9.75
642.937	6.75
643.697	7.75
644.457	6.75
645.216	8.75
645.976	9.75
646.736	8.75
647.495	5.75
648.255	7.75
649.014	5.75
649.774	7.75
650.533	5.75
651.292	6.75
652.051	6.75
652.81	5.75
653.569	4.75
654.328	5.75
655.087	8.75
655.846	6.75
656.604	7.75
657.363	5.75
658.121	6.75
658.88	4.75
659.638	2.75
660.397	8.75
661.155	6.75
661.913	5.75
662.671	3.75
663.429	3.75
664.187	4.75
664.945	6.75
665.703	4.75
666.46	6.75
667.218	3.75
667.976	6.75
668.733	3.75
669.49	3.75
670.248	3.75
671.005	4.75
671.762	5.75
672.519	4.75
673.276	5.75
674.033	4.75
674.79	4.75
675.547	1.75
676.304	4.75
677.06	5.75
677.817	3.75
678.574	3.75
679.33	1.75
680.086	2.75
680.843	4.75
681.599	2.75
682.355	4.75
683.111	3.75
683.867	3.75
684.623	4.75
685.379	2.75
686.135	2.75
686.89	3.75
687.646	3.75
688.402	2.75
689.157	3.75
689.912	4.75
690.668	1.75
691.423	3.75
692.178	4.75
692.933	3.75
693.688	1.75
694.443	3.75
695.198	2.75
695.953	6.75
696.708	2.75
697.462	2.75
698.217	3.75
698.972	2.75
699.726	1.75
700.48	2.75
701.235	5.75
701.989	2.75
702.743	1.75
703.497	2.75
704.251	2.75
705.005	4.75
705.759	0.75
706.513	3.75
707.266	1.75
708.02	1.75
708.774	1.75
709.527	1.75
710.28	0.75
711.034	3.75
711.787	3.75
712.54	1.75
713.293	3.75
714.046	3.75
714.799	1.75
715.552	1.75
716.305	3.75
717.058	3.75
717.81	2.75
718.563	2.75
719.315	3.75
720.068	3.75
720.82	5.75
721.573	2.75
722.325	2.75
723.077	2.75
723.829	1.75
724.581	3.75
725.333	1.75
726.085	3.75
726.836	3.75
727.588	1.75
728.34	2.75
729.091	4.75
729.843	3.75
730.594	1.75
731.346	2.75
732.097	4.75
732.848	3.75
733.599	4.75
734.35	4.75
735.101	5.75
735.852	4.75
736.603	5.75
737.354	3.75
738.104	3.75
738.855	2.75
739.605	3.75
740.356	5.75
741.106	5.75
741.856	5.75
742.607	2.75
743.357	3.75
744.107	3.75
744.857	3.75
745.607	2.75
746.357	4.75
747.106	5.75
747.856	5.75
748.606	4.75
749.355	4.75
750.105	3.75
750.854	6.75
751.603	4.75
752.353	3.75
753.102	4.75
753.851	4.75
754.6	4.75
755.349	5.75
756.098	3.75
756.847	2.75
757.595	3.75
758.344	4.75
759.093	6.75
759.841	6.75
760.589	5.75
761.338	7.75
762.086	4.75
762.834	5.75
763.582	6.75
764.331	4.75
765.079	4.75
765.826	5.75
766.574	6.75
767.322	6.75
768.07	4.75
768.817	6.75
769.565	5.75
770.312	8.75
771.06	5.75
771.807	5.75
772.554	6.75
773.302	5.75
774.049	6.75
774.796	4.75
775.543	6.75
776.29	9.75
777.036	6.75
777.783	5.75
778.53	5.75
779.276	8.75
780.023	7.75
780.769	7.75
781.516	7.75
782.262	7.75
783.008	10.75
783.754	7.75
784.5	5.75
785.246	7.75
785.992	6.75
786.738	7.75
787.484	4.75
788.23	7.75
788.975	7.75
789.721	6.75
790.466	6.75
791.212	7.75
791.957	6.75
792.702	5.75
793.447	11.75
794.193	6.75
794.938	8.75
795.683	7.75
796.427	5.75
797.172	8.75
797.917	6.75
798.662	7.75
799.406	7.75
800.151	9.75
800.895	9.75
801.64	6.75
802.384	6.75
803.128	7.75
803.872	6.75
804.616	3.75
805.36	6.75
806.104	8.75
806.848	4.75
807.592	4.75
808.336	7.75
809.079	5.75
809.823	6.75
810.566	2.75
811.31	6.75
812.053	5.75
812.796	4.75
813.539	4.75
814.283	5.75
815.026	5.75
815.769	3.75
816.511	5.75
817.254	4.75
817.997	5.75
818.74	5.75
819.482	3.75
820.225	3.75
820.967	4.75
821.71	4.75
822.452	2.75
823.194	3.75
823.936	8.75
824.678	4.75
825.42	4.75
826.162	2.75
826.904	1.75
827.646	3.75
828.388	5.75
829.129	3.75
829.871	4.75
830.612	4.75
831.354	4.75
832.095	3.75
832.836	3.75
833.577	6.75
834.319	3.75
835.06	2.75
835.801	2.75
836.542	3.75
837.282	3.75
838.023	4.75
838.764	1.75
839.504	2.75
840.245	4.75
840.985	3.75
841.726	3.75
842.466	4.75
843.206	1.75
843.946	2.75
844.687	2.75
845.427	3.75
846.166	1.75
846.906	2.75
847.646	1.75
848.386	3.75
849.125	0.75
849.865	3.75
850.605	0.75
851.344	3.75
852.083	1.75
852.823	1.75
853.562	0.75
854.301	2.75
855.04	3.75
855.779	2.75
856.518	3.75
857.257	1.75
857.995	3.75
858.734	-0.25
859.473	1.75
860.211	1.75
860.95	1.75
861.688	1.75
862.426	1.75
863.165	0.75
863.903	2.75
864.641	1.75
865.379	2.75
866.117	-0.25
866.855	1.75
867.593	2.75
868.33	1.75
869.068	1.75
869.806	1.75
870.543	0.75
871.28	1.75
872.018	0.75
872.755	2.75
873.492	0.75
874.229	0.75
874.967	0.75
875.703	2.75
876.44	-0.25
877.177	0.75
877.914	3.75
878.651	0.75
879.387	0.75
880.124	2.75
880.86	0.75
881.597	-0.25
882.333	0.75
883.069	0.75
883.806	0.75
884.542	1.75
885.278	-1.25
886.014	-1.25
886.749	1.75
887.485	-0.25
888.221	1.75
888.957	-2.25
889.692	0.75
890.428	-0.25
891.163	0.75
891.899	-0.25
892.634	0.75
893.369	1.75
894.104	-1.25
894.839	-2.25
895.574	1.75
896.309	0.75
897.044	0.75
897.779	-0.25
898.514	1.75
899.248	0.75
899.983	0.75
900.717	2.75
901.452	-0.25
902.186	-0.25
902.92	0.75
903.654	2.75
904.389	-1.25
905.123	-2.25
905.857	0.75
906.59	-2.25
907.324	1.75
908.058	-1.25
908.792	-0.25
909.525	0.75
910.259	-0.25
910.992	0.75
911.726	-1.25
912.459	0.75
913.192	-1.25
913.925	0.75
914.658	0.75
915.391	0.75
916.124	-0.25
916.857	-0.25
917.59	0.75
918.323	-1.25
919.055	1.75
919.788	0.75
920.521	1.75
921.253	-0.25
921.985	-1.25
922.718	-0.25
923.45	0.75
924.182	2.75
924.914	1.75
925.646	-0.25
926.378	-0.25
927.11	0.75
927.841	-0.25
928.573	1.75
929.305	-0.25
930.036	0.75
930.768	0.75
931.499	0.75
932.23	0.75
932.962	-0.25
933.693	-1.25
934.424	-0.25
935.155	0.75
935.886	0.75
936.617	0.75
937.348	0.75
938.078	1.75
938.809	-1.25
939.54	-1.25
940.27	-0.25
941.001	0.75
941.731	0.75
942.461	0.75
943.191	0.75
943.922	0.75
944.652	-0.25
945.382	-0.25
946.112	-0.25
946.841	-1.25
947.571	-0.25
948.301	-0.25
949.031	-2.25
949.76	-1.25
950.49	0.75
951.219	-0.25
951.948	0.75
952.678	1.75
953.407	-1.25
954.136	0.75
954.865	-1.25
955.594	-0.25
956.323	1.75
957.052	-0.25
957.78	1.75
958.509	-0.25
959.238	0.75
959.966	0.75
960.695	-0.25
961.423	-2.25
962.151	-3.25
962.88	-1.25
963.608	1.75
964.336	0.75
965.064	-1.25
965.792	1.75
966.52	0.75
967.247	-1.25
967.975	-0.25
968.703	1.75
969.43	0.75
970.158	0.75
970.885	1.75
971.613	-2.25
972.34	-1.25
973.067	0.75
973.794	0.75
974.521	0.75
975.248	-1.25
975.975	0.75
976.702	-2.25
977.429	0.75
978.156	1.75
978.882	-3.25
979.609	-0.25
980.335	-2.25
981.062	0.75
981.788	-0.25
982.514	0.75
983.24	-0.25
983.967	-2.25
984.693	1.75
985.419	-0.25
986.144	0.75
986.87	-0.25
987.596	1.75
988.322	0.75
989.047	-0.25
989.773	-0.25
990.498	-2.25
991.224	0.75
991.949	-0.25
992.674	-0.25
993.399	1.75
994.124	-0.25
994.849	0.75
995.574	-0.25
996.299	0.75
997.024	0.75
997.749	-3.25
998.473	1.75
999.198	1.75
999.922	-1.25
1000.647	-1.25
1001.371	3.75
1002.095	-2.25
1002.82	-2.25
1003.544	0.75
1004.268	2.75
1004.992	0.75
1005.716	-2.25
1006.439	0.75
1007.163	-1.25
1007.887	1.75
1008.611	1.75
1009.334	-1.25
1010.058	0.75
1010.781	1.75
1011.504	-2.25
1012.228	2.75
1012.951	-0.25
1013.674	-0.25
1014.397	0.75
1015.12	-0.25
