节点500_285_QEPB04081__697__15-07-08-848.txt的数据

Date: Wed Nov 12 15:07:08 CST 2025
User: PC
Spectrometer: QEPB0408
触发模式: 0
积分时间 (秒): 1.000000E-2
Scans to average: 1
启用暗噪声校正: true
启用非线性校正: false
滑动平均宽度: 0
X轴模式: Wavelengths
Number of Pixels in Spectrum: 1044
>>>>>Begin Spectral Data<<<<<
220.843	2.38
221.644	2.38
222.444	3.38
223.244	1.38
224.045	4.38
224.845	4.38
225.645	2.38
226.445	2.38
227.245	3.38
228.045	3.38
228.845	4.38
229.645	2.38
230.444	2.38
231.244	2.38
232.043	3.38
232.843	4.38
233.642	5.38
234.442	5.38
235.241	1.38
236.04	3.38
236.839	2.38
237.638	5.38
238.437	2.38
239.236	1.38
240.035	4.38
240.833	4.38
241.632	2.38
242.43	5.38
243.229	6.38
244.027	5.38
244.826	6.38
245.624	5.38
246.422	4.38
247.22	6.38
248.018	6.38
248.816	6.38
249.614	7.38
250.412	4.38
251.21	9.38
252.007	5.38
252.805	8.38
253.602	7.38
254.4	7.38
255.197	8.38
255.994	7.38
256.791	8.38
257.589	8.38
258.386	8.38
259.183	9.38
259.979	9.38
260.776	10.38
261.573	9.38
262.37	11.38
263.166	9.38
263.963	10.38
264.759	10.38
265.556	13.38
266.352	10.38
267.148	13.38
267.944	13.38
268.74	13.38
269.536	15.38
270.332	13.38
271.128	11.38
271.924	14.38
272.719	17.38
273.515	15.38
274.311	14.38
275.106	18.38
275.901	16.38
276.697	18.38
277.492	19.38
278.287	16.38
279.082	18.38
279.877	16.38
280.672	16.38
281.467	14.38
282.262	19.38
283.056	18.38
283.851	18.38
284.646	15.38
285.44	16.38
286.234	19.38
287.029	17.38
287.823	17.38
288.617	17.38
289.411	17.38
290.205	16.38
290.999	16.38
291.793	18.38
292.587	17.38
293.381	17.38
294.174	17.38
294.968	16.38
295.761	19.38
296.555	12.38
297.348	16.38
298.141	16.38
298.935	15.38
299.728	14.38
300.521	14.38
301.314	12.38
302.107	14.38
302.899	12.38
303.692	14.38
304.485	12.38
305.277	15.38
306.07	13.38
306.862	13.38
307.655	10.38
308.447	11.38
309.239	12.38
310.031	10.38
310.823	11.38
311.615	11.38
312.407	10.38
313.199	10.38
313.991	9.38
314.783	12.38
315.574	9.38
316.366	10.38
317.157	10.38
317.949	9.38
318.74	9.38
319.531	6.38
320.322	9.38
321.113	11.38
321.904	5.38
322.695	7.38
323.486	8.38
324.277	7.38
325.068	7.38
325.858	7.38
326.649	7.38
327.439	7.38
328.23	9.38
329.02	6.38
329.81	7.38
330.6	7.38
331.391	9.38
332.181	8.38
332.971	8.38
333.76	7.38
334.55	5.38
335.34	6.38
336.13	7.38
336.919	6.38
337.709	7.38
338.498	7.38
339.287	6.38
340.077	5.38
340.866	8.38
341.655	5.38
342.444	5.38
343.233	7.38
344.022	3.38
344.811	8.38
345.6	8.38
346.388	6.38
347.177	4.38
347.965	7.38
348.754	7.38
349.542	6.38
350.33	7.38
351.119	6.38
351.907	7.38
352.695	5.38
353.483	3.38
354.271	7.38
355.059	4.38
355.846	6.38
356.634	6.38
357.422	7.38
358.209	6.38
358.997	6.38
359.784	4.38
360.571	6.38
361.359	6.38
362.146	6.38
362.933	6.38
363.72	7.38
364.507	3.38
365.294	7.38
366.081	5.38
366.867	5.38
367.654	4.38
368.44	7.38
369.227	6.38
370.013	2.38
370.8	6.38
371.586	4.38
372.372	5.38
373.158	4.38
373.944	4.38
374.73	6.38
375.516	6.38
376.302	4.38
377.088	4.38
377.873	6.38
378.659	6.38
379.445	3.38
380.23	6.38
381.015	7.38
381.801	6.38
382.586	6.38
383.371	6.38
384.156	6.38
384.941	4.38
385.726	5.38
386.511	5.38
387.296	8.38
388.08	6.38
388.865	7.38
389.649	7.38
390.434	5.38
391.218	6.38
392.003	6.38
392.787	6.38
393.571	8.38
394.355	7.38
395.139	7.38
395.923	5.38
396.707	7.38
397.491	8.38
398.274	6.38
399.058	6.38
399.842	7.38
400.625	7.38
401.408	5.38
402.192	5.38
402.975	7.38
403.758	6.38
404.541	8.38
405.324	5.38
406.107	9.38
406.89	6.38
407.673	9.38
408.456	7.38
409.238	7.38
410.021	10.38
410.803	8.38
411.586	9.38
412.368	9.38
413.151	10.38
413.933	9.38
414.715	9.38
415.497	10.38
416.279	10.38
417.061	12.38
417.843	8.38
418.624	6.38
419.406	9.38
420.188	7.38
420.969	10.38
421.751	9.38
422.532	10.38
423.313	9.38
424.095	12.38
424.876	14.38
425.657	9.38
426.438	13.38
427.219	11.38
428	12.38
428.78	14.38
429.561	13.38
430.342	14.38
431.122	14.38
431.903	14.38
432.683	17.38
433.464	16.38
434.244	16.38
435.024	15.38
435.804	18.38
436.584	18.38
437.364	17.38
438.144	20.38
438.924	20.38
439.704	21.38
440.483	24.38
441.263	26.38
442.042	26.38
442.822	30.38
443.601	28.38
444.38	29.38
445.16	32.38
445.939	34.38
446.718	36.38
447.497	40.38
448.276	44.38
449.054	48.38
449.833	51.38
450.612	56.38
451.391	61.38
452.169	65.38
452.948	75.38
453.726	81.38
454.504	92.38
455.282	99.38
456.061	109.38
456.839	121.38
457.617	136.38
458.395	147.38
459.172	166.38
459.95	185.38
460.728	203.38
461.506	223.38
462.283	256.38
463.061	283.38
463.838	319.38
464.615	354.38
465.393	394.38
466.17	439.38
466.947	484.38
467.724	534.38
468.501	599.38
469.278	653.38
470.055	725.38
470.831	810.38
471.608	898.38
472.385	1007.38
473.161	1088.38
473.938	1195.38
474.714	1324.38
475.49	1451.38
476.266	1598.38
477.043	1779.38
477.819	1919.38
478.595	2127.38
479.371	2342.38
480.146	2546.38
480.922	2808.38
481.698	3046.38
482.473	3350.38
483.249	3682.38
484.024	4009.38
484.8	4391.38
485.575	4789.38
486.35	5200.38
487.126	5677.38
487.901	6200.38
488.676	6759.38
489.451	7356.38
490.225	8034.38
491	8664.38
491.775	9464.38
492.55	10236.38
493.324	11099.38
494.099	11916.38
494.873	12761.38
495.647	13752.38
496.422	14768.38
497.196	15705.38
497.97	16793.38
498.744	17908.38
499.518	18925.38
500.292	19967.38
501.066	20996.38
501.839	21905.38
502.613	22845.38
503.387	23719.38
504.16	24334.38
504.934	24856.38
505.707	25156.38
506.48	25377.38
507.253	25468.38
508.027	25490.38
508.8	25379.38
509.573	25243.38
510.346	24837.38
511.118	24265.38
511.891	23602.38
512.664	22989.38
513.437	22251.38
514.209	21447.38
514.982	20688.38
515.754	19879.38
516.526	19076.38
517.298	18280.38
518.071	17544.38
518.843	16819.38
519.615	16223.38
520.387	15616.38
521.159	14965.38
521.93	14399.38
522.702	13818.38
523.474	13216.38
524.245	12666.38
525.017	12155.38
525.788	11710.38
526.56	11210.38
527.331	10641.38
528.102	10197.38
528.873	9782.38
529.644	9311.38
530.415	8867.38
531.186	8452.38
531.957	8039.38
532.728	7685.38
533.498	7262.38
534.269	6883.38
535.039	6522.38
535.81	6170.38
536.58	5848.38
537.351	5495.38
538.121	5169.38
538.891	4915.38
539.661	4647.38
540.431	4409.38
541.201	4148.38
541.971	3937.38
542.741	3727.38
543.51	3569.38
544.28	3395.38
545.05	3187.38
545.819	3063.38
546.588	2880.38
547.358	2756.38
548.127	2620.38
548.896	2498.38
549.665	2372.38
550.434	2243.38
551.203	2121.38
551.972	2014.38
552.741	1889.38
553.51	1791.38
554.278	1694.38
555.047	1624.38
555.815	1526.38
556.584	1450.38
557.352	1374.38
558.121	1280.38
558.889	1216.38
559.657	1151.38
560.425	1093.38
561.193	1030.38
561.961	972.38
562.729	920.38
563.496	873.38
564.264	816.38
565.032	777.38
565.799	730.38
566.567	693.38
567.334	661.38
568.101	628.38
568.869	583.38
569.636	556.38
570.403	521.38
571.17	480.38
571.937	450.38
572.704	435.38
573.471	414.38
574.237	394.38
575.004	371.38
575.771	341.38
576.537	320.38
577.303	303.38
578.07	296.38
578.836	269.38
579.602	252.38
580.368	241.38
581.134	225.38
581.9	214.38
582.666	207.38
583.432	191.38
584.198	185.38
584.964	172.38
585.729	162.38
586.495	154.38
587.26	151.38
588.025	140.38
588.791	133.38
589.556	131.38
590.321	120.38
591.086	115.38
591.851	109.38
592.616	98.38
593.381	102.38
594.146	91.38
594.911	89.38
595.675	81.38
596.44	77.38
597.204	76.38
597.969	69.38
598.733	67.38
599.497	66.38
600.261	62.38
601.025	62.38
601.79	55.38
602.553	55.38
603.317	49.38
604.081	50.38
604.845	51.38
605.609	44.38
606.372	44.38
607.136	42.38
607.899	40.38
608.662	39.38
609.426	35.38
610.189	34.38
610.952	35.38
611.715	36.38
612.478	31.38
613.241	32.38
614.004	29.38
614.767	26.38
615.529	24.38
616.292	24.38
617.055	26.38
617.817	26.38
618.579	24.38
619.342	21.38
620.104	20.38
620.866	23.38
621.628	24.38
622.39	21.38
623.152	21.38
623.914	18.38
624.676	17.38
625.438	17.38
626.199	15.38
626.961	17.38
627.722	16.38
628.484	18.38
629.245	14.38
630.006	15.38
630.768	12.38
631.529	15.38
632.29	13.38
633.051	13.38
633.812	13.38
634.573	12.38
635.333	13.38
636.094	11.38
636.855	11.38
637.615	9.38
638.376	12.38
639.136	10.38
639.896	11.38
640.657	10.38
641.417	8.38
642.177	11.38
642.937	8.38
643.697	10.38
644.457	10.38
645.216	6.38
645.976	10.38
646.736	7.38
647.495	7.38
648.255	10.38
649.014	7.38
649.774	7.38
650.533	7.38
651.292	10.38
652.051	7.38
652.81	9.38
653.569	7.38
654.328	4.38
655.087	8.38
655.846	5.38
656.604	6.38
657.363	7.38
658.121	6.38
658.88	7.38
659.638	7.38
660.397	3.38
661.155	7.38
661.913	5.38
662.671	4.38
663.429	5.38
664.187	6.38
664.945	5.38
665.703	3.38
666.46	5.38
667.218	6.38
667.976	5.38
668.733	5.38
669.49	6.38
670.248	4.38
671.005	7.38
671.762	3.38
672.519	5.38
673.276	5.38
674.033	4.38
674.79	5.38
675.547	2.38
676.304	3.38
677.06	5.38
677.817	4.38
678.574	4.38
679.33	1.38
680.086	6.38
680.843	3.38
681.599	6.38
682.355	2.38
683.111	7.38
683.867	3.38
684.623	5.38
685.379	6.38
686.135	3.38
686.89	2.38
687.646	5.38
688.402	7.38
689.157	6.38
689.912	6.38
690.668	6.38
691.423	4.38
692.178	6.38
692.933	5.38
693.688	5.38
694.443	1.38
695.198	4.38
695.953	4.38
696.708	0.38
697.462	5.38
698.217	1.38
698.972	3.38
699.726	6.38
700.48	4.38
701.235	3.38
701.989	1.38
702.743	6.38
703.497	3.38
704.251	3.38
705.005	2.38
705.759	4.38
706.513	3.38
707.266	2.38
708.02	5.38
708.774	4.38
709.527	2.38
710.28	3.38
711.034	3.38
711.787	3.38
712.54	2.38
713.293	3.38
714.046	0.38
714.799	1.38
715.552	4.38
716.305	7.38
717.058	5.38
717.81	4.38
718.563	3.38
719.315	5.38
720.068	2.38
720.82	7.38
721.573	3.38
722.325	3.38
723.077	4.38
723.829	5.38
724.581	3.38
725.333	4.38
726.085	6.38
726.836	2.38
727.588	3.38
728.34	5.38
729.091	2.38
729.843	4.38
730.594	2.38
731.346	4.38
732.097	4.38
732.848	3.38
733.599	3.38
734.35	3.38
735.101	3.38
735.852	5.38
736.603	6.38
737.354	3.38
738.104	5.38
738.855	3.38
739.605	4.38
740.356	2.38
741.106	5.38
741.856	5.38
742.607	5.38
743.357	5.38
744.107	5.38
744.857	5.38
745.607	5.38
746.357	6.38
747.106	5.38
747.856	8.38
748.606	4.38
749.355	6.38
750.105	3.38
750.854	5.38
751.603	3.38
752.353	6.38
753.102	5.38
753.851	5.38
754.6	5.38
755.349	7.38
756.098	5.38
756.847	4.38
757.595	6.38
758.344	8.38
759.093	6.38
759.841	5.38
760.589	4.38
761.338	7.38
762.086	7.38
762.834	5.38
763.582	5.38
764.331	9.38
765.079	7.38
765.826	5.38
766.574	7.38
767.322	8.38
768.07	5.38
768.817	5.38
769.565	5.38
770.312	7.38
771.06	7.38
771.807	8.38
772.554	8.38
773.302	7.38
774.049	8.38
774.796	6.38
775.543	8.38
776.29	9.38
777.036	6.38
777.783	8.38
778.53	6.38
779.276	8.38
780.023	6.38
780.769	9.38
781.516	8.38
782.262	8.38
783.008	9.38
783.754	7.38
784.5	9.38
785.246	10.38
785.992	8.38
786.738	9.38
787.484	9.38
788.23	6.38
788.975	7.38
789.721	9.38
790.466	8.38
791.212	9.38
791.957	9.38
792.702	8.38
793.447	11.38
794.193	7.38
794.938	9.38
795.683	8.38
796.427	8.38
797.172	7.38
797.917	8.38
798.662	6.38
799.406	7.38
800.151	7.38
800.895	9.38
801.64	9.38
802.384	5.38
803.128	6.38
803.872	9.38
804.616	7.38
805.36	5.38
806.104	9.38
806.848	6.38
807.592	6.38
808.336	4.38
809.079	7.38
809.823	5.38
810.566	6.38
811.31	6.38
812.053	5.38
812.796	6.38
813.539	5.38
814.283	5.38
815.026	6.38
815.769	7.38
816.511	6.38
817.254	5.38
817.997	6.38
818.74	4.38
819.482	6.38
820.225	5.38
820.967	5.38
821.71	7.38
822.452	3.38
823.194	3.38
823.936	6.38
824.678	5.38
825.42	5.38
826.162	4.38
826.904	3.38
827.646	5.38
828.388	6.38
829.129	3.38
829.871	3.38
830.612	5.38
831.354	3.38
832.095	3.38
832.836	2.38
833.577	5.38
834.319	3.38
835.06	4.38
835.801	4.38
836.542	5.38
837.282	4.38
838.023	4.38
838.764	3.38
839.504	2.38
840.245	2.38
840.985	2.38
841.726	3.38
842.466	2.38
843.206	3.38
843.946	2.38
844.687	3.38
845.427	1.38
846.166	4.38
846.906	1.38
847.646	3.38
848.386	2.38
849.125	1.38
849.865	3.38
850.605	4.38
851.344	2.38
852.083	2.38
852.823	4.38
853.562	2.38
854.301	2.38
855.04	4.38
855.779	3.38
856.518	5.38
857.257	4.38
857.995	2.38
858.734	2.38
859.473	4.38
860.211	1.38
860.95	0.38
861.688	2.38
862.426	1.38
863.165	3.38
863.903	2.38
864.641	3.38
865.379	4.38
866.117	2.38
866.855	2.38
867.593	1.38
868.33	1.38
869.068	1.38
869.806	2.38
870.543	3.38
871.28	3.38
872.018	2.38
872.755	3.38
873.492	0.38
874.229	1.38
874.967	0.38
875.703	3.38
876.44	0.38
877.177	3.38
877.914	2.38
878.651	1.38
879.387	2.38
880.124	-1.62
880.86	2.38
881.597	1.38
882.333	0.38
883.069	1.38
883.806	2.38
884.542	1.38
885.278	0.38
886.014	2.38
886.749	1.38
887.485	1.38
888.221	2.38
888.957	2.38
889.692	2.38
890.428	0.38
891.163	2.38
891.899	1.38
892.634	0.38
893.369	2.38
894.104	2.38
894.839	-0.62
895.574	1.38
896.309	1.38
897.044	1.38
897.779	-1.62
898.514	1.38
899.248	1.38
899.983	2.38
900.717	1.38
901.452	1.38
902.186	2.38
902.92	3.38
903.654	2.38
904.389	1.38
905.123	1.38
905.857	1.38
906.59	2.38
907.324	0.38
908.058	-0.62
908.792	1.38
909.525	-1.62
910.259	-0.62
910.992	0.38
911.726	-0.62
912.459	2.38
913.192	0.38
913.925	1.38
914.658	1.38
915.391	1.38
916.124	1.38
916.857	-0.62
917.59	-0.62
918.323	1.38
919.055	1.38
919.788	0.38
920.521	0.38
921.253	0.38
921.985	0.38
922.718	1.38
923.45	1.38
924.182	0.38
924.914	-0.62
925.646	-1.62
926.378	0.38
927.11	1.38
927.841	0.38
928.573	0.38
929.305	1.38
930.036	0.38
930.768	-1.62
931.499	2.38
932.23	0.38
932.962	0.38
933.693	-1.62
934.424	0.38
935.155	-1.62
935.886	0.38
936.617	1.38
937.348	1.38
938.078	0.38
938.809	1.38
939.54	1.38
940.27	1.38
941.001	-1.62
941.731	2.38
942.461	0.38
943.191	0.38
943.922	1.38
944.652	-0.62
945.382	2.38
946.112	2.38
946.841	2.38
947.571	0.38
948.301	0.38
949.031	1.38
949.76	-1.62
950.49	2.38
951.219	-0.62
951.948	1.38
952.678	1.38
953.407	-1.62
954.136	-0.62
954.865	1.38
955.594	-0.62
956.323	-1.62
957.052	2.38
957.78	1.38
958.509	0.38
959.238	1.38
959.966	-1.62
960.695	0.38
961.423	1.38
962.151	0.38
962.88	0.38
963.608	0.38
964.336	-0.62
965.064	-0.62
965.792	1.38
966.52	1.38
967.247	1.38
967.975	2.38
968.703	-1.62
969.43	0.38
970.158	-1.62
970.885	3.38
971.613	-1.62
972.34	-1.62
973.067	-1.62
973.794	0.38
974.521	1.38
975.248	-0.62
975.975	1.38
976.702	-0.62
977.429	-0.62
978.156	1.38
978.882	1.38
979.609	0.38
980.335	1.38
981.062	3.38
981.788	-0.62
982.514	0.38
983.24	0.38
983.967	0.38
984.693	0.38
985.419	0.38
986.144	0.38
986.87	0.38
987.596	1.38
988.322	1.38
989.047	1.38
989.773	1.38
990.498	-1.62
991.224	-0.62
991.949	0.38
992.674	0.38
993.399	3.38
994.124	1.38
994.849	1.38
995.574	0.38
996.299	1.38
997.024	1.38
997.749	2.38
998.473	-1.62
999.198	0.38
999.922	2.38
1000.647	0.38
1001.371	3.38
1002.095	-0.62
1002.82	-1.62
1003.544	1.38
1004.268	2.38
1004.992	4.38
1005.716	-0.62
1006.439	0.38
1007.163	1.38
1007.887	0.38
1008.611	0.38
1009.334	1.38
1010.058	0.38
1010.781	0.38
1011.504	1.38
1012.228	0.38
1012.951	-0.62
1013.674	0.38
1014.397	-1.62
1015.12	-0.62
