节点500_285_QEPB04081__589__15-05-21-179.txt的数据

Date: Wed Nov 12 15:05:21 CST 2025
User: PC
Spectrometer: QEPB0408
触发模式: 0
积分时间 (秒): 1.000000E-2
Scans to average: 1
启用暗噪声校正: true
启用非线性校正: false
滑动平均宽度: 0
X轴模式: Wavelengths
Number of Pixels in Spectrum: 1044
>>>>>Begin Spectral Data<<<<<
220.843	2.38
221.644	2.38
222.444	2.38
223.244	2.38
224.045	2.38
224.845	2.38
225.645	2.38
226.445	3.38
227.245	1.38
228.045	5.38
228.845	3.38
229.645	2.38
230.444	2.38
231.244	2.38
232.043	3.38
232.843	3.38
233.642	3.38
234.442	3.38
235.241	3.38
236.04	3.38
236.839	4.38
237.638	4.38
238.437	3.38
239.236	3.38
240.035	6.38
240.833	4.38
241.632	4.38
242.43	5.38
243.229	5.38
244.027	6.38
244.826	6.38
245.624	7.38
246.422	6.38
247.22	4.38
248.018	6.38
248.816	4.38
249.614	7.38
250.412	6.38
251.21	9.38
252.007	6.38
252.805	6.38
253.602	7.38
254.4	6.38
255.197	6.38
255.994	7.38
256.791	9.38
257.589	10.38
258.386	6.38
259.183	10.38
259.979	8.38
260.776	9.38
261.573	9.38
262.37	9.38
263.166	13.38
263.963	8.38
264.759	12.38
265.556	12.38
266.352	13.38
267.148	10.38
267.944	12.38
268.74	17.38
269.536	12.38
270.332	14.38
271.128	14.38
271.924	16.38
272.719	15.38
273.515	14.38
274.311	16.38
275.106	15.38
275.901	17.38
276.697	17.38
277.492	17.38
278.287	18.38
279.082	16.38
279.877	18.38
280.672	18.38
281.467	19.38
282.262	20.38
283.056	18.38
283.851	16.38
284.646	18.38
285.44	16.38
286.234	19.38
287.029	17.38
287.823	16.38
288.617	14.38
289.411	21.38
290.205	17.38
290.999	17.38
291.793	20.38
292.587	17.38
293.381	16.38
294.174	18.38
294.968	20.38
295.761	16.38
296.555	10.38
297.348	13.38
298.141	14.38
298.935	14.38
299.728	13.38
300.521	12.38
301.314	13.38
302.107	11.38
302.899	15.38
303.692	11.38
304.485	14.38
305.277	14.38
306.07	13.38
306.862	13.38
307.655	13.38
308.447	14.38
309.239	13.38
310.031	12.38
310.823	10.38
311.615	10.38
312.407	10.38
313.199	8.38
313.991	10.38
314.783	8.38
315.574	8.38
316.366	9.38
317.157	8.38
317.949	10.38
318.74	5.38
319.531	9.38
320.322	9.38
321.113	7.38
321.904	7.38
322.695	8.38
323.486	7.38
324.277	7.38
325.068	7.38
325.858	8.38
326.649	8.38
327.439	8.38
328.23	9.38
329.02	6.38
329.81	8.38
330.6	7.38
331.391	6.38
332.181	5.38
332.971	8.38
333.76	5.38
334.55	5.38
335.34	7.38
336.13	6.38
336.919	4.38
337.709	8.38
338.498	7.38
339.287	7.38
340.077	9.38
340.866	5.38
341.655	7.38
342.444	6.38
343.233	5.38
344.022	6.38
344.811	7.38
345.6	7.38
346.388	6.38
347.177	5.38
347.965	8.38
348.754	2.38
349.542	5.38
350.33	8.38
351.119	5.38
351.907	6.38
352.695	6.38
353.483	7.38
354.271	6.38
355.059	5.38
355.846	7.38
356.634	6.38
357.422	2.38
358.209	6.38
358.997	7.38
359.784	4.38
360.571	4.38
361.359	3.38
362.146	7.38
362.933	7.38
363.72	3.38
364.507	5.38
365.294	5.38
366.081	5.38
366.867	5.38
367.654	4.38
368.44	6.38
369.227	5.38
370.013	5.38
370.8	4.38
371.586	4.38
372.372	5.38
373.158	7.38
373.944	5.38
374.73	6.38
375.516	4.38
376.302	6.38
377.088	4.38
377.873	4.38
378.659	4.38
379.445	5.38
380.23	4.38
381.015	5.38
381.801	8.38
382.586	4.38
383.371	7.38
384.156	5.38
384.941	4.38
385.726	4.38
386.511	5.38
387.296	5.38
388.08	7.38
388.865	9.38
389.649	5.38
390.434	6.38
391.218	6.38
392.003	5.38
392.787	7.38
393.571	6.38
394.355	8.38
395.139	7.38
395.923	4.38
396.707	7.38
397.491	7.38
398.274	6.38
399.058	7.38
399.842	7.38
400.625	7.38
401.408	6.38
402.192	8.38
402.975	6.38
403.758	7.38
404.541	8.38
405.324	7.38
406.107	6.38
406.89	8.38
407.673	7.38
408.456	8.38
409.238	10.38
410.021	9.38
410.803	8.38
411.586	9.38
412.368	9.38
413.151	9.38
413.933	9.38
414.715	8.38
415.497	11.38
416.279	9.38
417.061	10.38
417.843	8.38
418.624	9.38
419.406	10.38
420.188	10.38
420.969	10.38
421.751	12.38
422.532	12.38
423.313	12.38
424.095	12.38
424.876	12.38
425.657	10.38
426.438	12.38
427.219	10.38
428	13.38
428.78	14.38
429.561	13.38
430.342	14.38
431.122	12.38
431.903	14.38
432.683	14.38
433.464	16.38
434.244	17.38
435.024	17.38
435.804	19.38
436.584	15.38
437.364	19.38
438.144	20.38
438.924	21.38
439.704	20.38
440.483	24.38
441.263	24.38
442.042	22.38
442.822	27.38
443.601	27.38
444.38	33.38
445.16	30.38
445.939	33.38
446.718	35.38
447.497	40.38
448.276	42.38
449.054	47.38
449.833	48.38
450.612	57.38
451.391	58.38
452.169	69.38
452.948	72.38
453.726	77.38
454.504	90.38
455.282	91.38
456.061	106.38
456.839	120.38
457.617	129.38
458.395	142.38
459.172	162.38
459.95	176.38
460.728	198.38
461.506	225.38
462.283	246.38
463.061	273.38
463.838	312.38
464.615	348.38
465.393	390.38
466.17	421.38
466.947	472.38
467.724	516.38
468.501	594.38
469.278	642.38
470.055	720.38
470.831	805.38
471.608	869.38
472.385	979.38
473.161	1079.38
473.938	1198.38
474.714	1321.38
475.49	1471.38
476.266	1609.38
477.043	1774.38
477.819	1953.38
478.595	2137.38
479.371	2344.38
480.146	2587.38
480.922	2838.38
481.698	3117.38
482.473	3399.38
483.249	3744.38
484.024	4107.38
484.8	4492.38
485.575	4903.38
486.35	5381.38
487.126	5882.38
487.901	6418.38
488.676	6981.38
489.451	7659.38
490.225	8338.38
491	9041.38
491.775	9871.38
492.55	10724.38
493.324	11607.38
494.099	12459.38
494.873	13417.38
495.647	14472.38
496.422	15481.38
497.196	16532.38
497.97	17702.38
498.744	18788.38
499.518	19869.38
500.292	21029.38
501.066	22092.38
501.839	22934.38
502.613	23901.38
503.387	24703.38
504.16	25396.38
504.934	25888.38
505.707	26109.38
506.48	26217.38
507.253	26267.38
508.027	26212.38
508.8	26121.38
509.573	25804.38
510.346	25297.38
511.118	24704.38
511.891	24002.38
512.664	23291.38
513.437	22490.38
514.209	21652.38
514.982	20812.38
515.754	19949.38
516.526	19136.38
517.298	18313.38
518.071	17507.38
518.843	16867.38
519.615	16192.38
520.387	15511.38
521.159	14930.38
521.93	14342.38
522.702	13797.38
523.474	13240.38
524.245	12668.38
525.017	12159.38
525.788	11671.38
526.56	11154.38
527.331	10596.38
528.102	10216.38
528.873	9717.38
529.644	9229.38
530.415	8826.38
531.186	8373.38
531.957	7950.38
532.728	7589.38
533.498	7232.38
534.269	6799.38
535.039	6430.38
535.81	6080.38
536.58	5777.38
537.351	5414.38
538.121	5131.38
538.891	4860.38
539.661	4621.38
540.431	4346.38
541.201	4078.38
541.971	3892.38
542.741	3702.38
543.51	3499.38
544.28	3309.38
545.05	3150.38
545.819	3026.38
546.588	2886.38
547.358	2717.38
548.127	2592.38
548.896	2444.38
549.665	2333.38
550.434	2215.38
551.203	2095.38
551.972	1982.38
552.741	1903.38
553.51	1779.38
554.278	1688.38
555.047	1590.38
555.815	1485.38
556.584	1418.38
557.352	1339.38
558.121	1266.38
558.889	1196.38
559.657	1128.38
560.425	1057.38
561.193	1005.38
561.961	938.38
562.729	892.38
563.496	845.38
564.264	798.38
565.032	750.38
565.799	709.38
566.567	684.38
567.334	639.38
568.101	607.38
568.869	561.38
569.636	530.38
570.403	503.38
571.17	472.38
571.937	444.38
572.704	427.38
573.471	396.38
574.237	372.38
575.004	364.38
575.771	336.38
576.537	311.38
577.303	300.38
578.07	279.38
578.836	266.38
579.602	251.38
580.368	240.38
581.134	226.38
581.9	212.38
582.666	203.38
583.432	189.38
584.198	180.38
584.964	171.38
585.729	162.38
586.495	154.38
587.26	148.38
588.025	139.38
588.791	128.38
589.556	126.38
590.321	120.38
591.086	109.38
591.851	105.38
592.616	101.38
593.381	97.38
594.146	91.38
594.911	89.38
595.675	82.38
596.44	77.38
597.204	75.38
597.969	73.38
598.733	66.38
599.497	65.38
600.261	67.38
601.025	60.38
601.79	55.38
602.553	57.38
603.317	49.38
604.081	51.38
604.845	49.38
605.609	48.38
606.372	45.38
607.136	45.38
607.899	41.38
608.662	41.38
609.426	38.38
610.189	34.38
610.952	33.38
611.715	32.38
612.478	32.38
613.241	34.38
614.004	29.38
614.767	31.38
615.529	28.38
616.292	24.38
617.055	26.38
617.817	24.38
618.579	24.38
619.342	21.38
620.104	24.38
620.866	20.38
621.628	21.38
622.39	21.38
623.152	19.38
623.914	19.38
624.676	21.38
625.438	18.38
626.199	17.38
626.961	17.38
627.722	13.38
628.484	16.38
629.245	13.38
630.006	16.38
630.768	12.38
631.529	13.38
632.29	12.38
633.051	16.38
633.812	15.38
634.573	14.38
635.333	13.38
636.094	12.38
636.855	10.38
637.615	10.38
638.376	11.38
639.136	14.38
639.896	8.38
640.657	7.38
641.417	10.38
642.177	12.38
642.937	9.38
643.697	9.38
644.457	11.38
645.216	6.38
645.976	8.38
646.736	8.38
647.495	10.38
648.255	7.38
649.014	6.38
649.774	10.38
650.533	7.38
651.292	7.38
652.051	7.38
652.81	6.38
653.569	9.38
654.328	4.38
655.087	8.38
655.846	7.38
656.604	8.38
657.363	8.38
658.121	7.38
658.88	6.38
659.638	5.38
660.397	5.38
661.155	5.38
661.913	7.38
662.671	6.38
663.429	6.38
664.187	5.38
664.945	4.38
665.703	4.38
666.46	7.38
667.218	4.38
667.976	6.38
668.733	5.38
669.49	4.38
670.248	4.38
671.005	5.38
671.762	4.38
672.519	3.38
673.276	3.38
674.033	5.38
674.79	4.38
675.547	6.38
676.304	6.38
677.06	4.38
677.817	4.38
678.574	4.38
679.33	1.38
680.086	4.38
680.843	5.38
681.599	5.38
682.355	4.38
683.111	6.38
683.867	7.38
684.623	5.38
685.379	7.38
686.135	3.38
686.89	4.38
687.646	2.38
688.402	4.38
689.157	4.38
689.912	3.38
690.668	4.38
691.423	6.38
692.178	2.38
692.933	4.38
693.688	4.38
694.443	3.38
695.198	5.38
695.953	4.38
696.708	4.38
697.462	3.38
698.217	6.38
698.972	4.38
699.726	4.38
700.48	2.38
701.235	4.38
701.989	3.38
702.743	6.38
703.497	4.38
704.251	4.38
705.005	2.38
705.759	3.38
706.513	3.38
707.266	3.38
708.02	3.38
708.774	4.38
709.527	5.38
710.28	3.38
711.034	1.38
711.787	5.38
712.54	2.38
713.293	3.38
714.046	2.38
714.799	3.38
715.552	4.38
716.305	3.38
717.058	4.38
717.81	3.38
718.563	3.38
719.315	4.38
720.068	3.38
720.82	2.38
721.573	4.38
722.325	3.38
723.077	5.38
723.829	2.38
724.581	2.38
725.333	3.38
726.085	5.38
726.836	4.38
727.588	5.38
728.34	4.38
729.091	2.38
729.843	6.38
730.594	2.38
731.346	3.38
732.097	6.38
732.848	6.38
733.599	4.38
734.35	5.38
735.101	5.38
735.852	3.38
736.603	3.38
737.354	5.38
738.104	4.38
738.855	4.38
739.605	5.38
740.356	3.38
741.106	5.38
741.856	4.38
742.607	3.38
743.357	5.38
744.107	4.38
744.857	5.38
745.607	5.38
746.357	4.38
747.106	1.38
747.856	4.38
748.606	5.38
749.355	5.38
750.105	5.38
750.854	5.38
751.603	5.38
752.353	6.38
753.102	6.38
753.851	5.38
754.6	7.38
755.349	6.38
756.098	4.38
756.847	4.38
757.595	8.38
758.344	5.38
759.093	4.38
759.841	8.38
760.589	6.38
761.338	6.38
762.086	5.38
762.834	5.38
763.582	5.38
764.331	5.38
765.079	10.38
765.826	8.38
766.574	7.38
767.322	6.38
768.07	6.38
768.817	9.38
769.565	6.38
770.312	7.38
771.06	6.38
771.807	7.38
772.554	9.38
773.302	9.38
774.049	7.38
774.796	8.38
775.543	8.38
776.29	7.38
777.036	8.38
777.783	10.38
778.53	7.38
779.276	6.38
780.023	7.38
780.769	9.38
781.516	9.38
782.262	8.38
783.008	10.38
783.754	8.38
784.5	8.38
785.246	8.38
785.992	8.38
786.738	9.38
787.484	7.38
788.23	9.38
788.975	8.38
789.721	8.38
790.466	9.38
791.212	8.38
791.957	9.38
792.702	8.38
793.447	8.38
794.193	7.38
794.938	10.38
795.683	8.38
796.427	7.38
797.172	8.38
797.917	8.38
798.662	7.38
799.406	8.38
800.151	7.38
800.895	6.38
801.64	4.38
802.384	8.38
803.128	7.38
803.872	7.38
804.616	7.38
805.36	7.38
806.104	8.38
806.848	4.38
807.592	8.38
808.336	6.38
809.079	7.38
809.823	6.38
810.566	4.38
811.31	5.38
812.053	6.38
812.796	6.38
813.539	6.38
814.283	2.38
815.026	6.38
815.769	3.38
816.511	4.38
817.254	4.38
817.997	5.38
818.74	5.38
819.482	4.38
820.225	5.38
820.967	3.38
821.71	3.38
822.452	5.38
823.194	4.38
823.936	2.38
824.678	4.38
825.42	5.38
826.162	3.38
826.904	5.38
827.646	5.38
828.388	4.38
829.129	4.38
829.871	5.38
830.612	6.38
831.354	5.38
832.095	2.38
832.836	4.38
833.577	5.38
834.319	4.38
835.06	2.38
835.801	8.38
836.542	2.38
837.282	2.38
838.023	2.38
838.764	3.38
839.504	4.38
840.245	3.38
840.985	4.38
841.726	3.38
842.466	4.38
843.206	2.38
843.946	2.38
844.687	4.38
845.427	2.38
846.166	4.38
846.906	6.38
847.646	3.38
848.386	3.38
849.125	4.38
849.865	6.38
850.605	4.38
851.344	3.38
852.083	2.38
852.823	3.38
853.562	4.38
854.301	1.38
855.04	5.38
855.779	4.38
856.518	2.38
857.257	1.38
857.995	0.38
858.734	2.38
859.473	3.38
860.211	2.38
860.95	3.38
861.688	3.38
862.426	4.38
863.165	1.38
863.903	3.38
864.641	0.38
865.379	1.38
866.117	4.38
866.855	0.38
867.593	3.38
868.33	2.38
869.068	2.38
869.806	5.38
870.543	2.38
871.28	1.38
872.018	0.38
872.755	5.38
873.492	2.38
874.229	3.38
874.967	1.38
875.703	2.38
876.44	0.38
877.177	0.38
877.914	0.38
878.651	1.38
879.387	3.38
880.124	0.38
880.86	-0.62
881.597	2.38
882.333	1.38
883.069	2.38
883.806	0.38
884.542	2.38
885.278	2.38
886.014	2.38
886.749	1.38
887.485	1.38
888.221	3.38
888.957	1.38
889.692	0.38
890.428	0.38
891.163	-0.62
891.899	2.38
892.634	-1.62
893.369	0.38
894.104	0.38
894.839	1.38
895.574	-1.62
896.309	2.38
897.044	1.38
897.779	1.38
898.514	2.38
899.248	0.38
899.983	0.38
900.717	-0.62
901.452	1.38
902.186	2.38
902.92	0.38
903.654	0.38
904.389	0.38
905.123	1.38
905.857	1.38
906.59	1.38
907.324	1.38
908.058	0.38
908.792	-0.62
909.525	3.38
910.259	1.38
910.992	0.38
911.726	0.38
912.459	0.38
913.192	-0.62
913.925	0.38
914.658	0.38
915.391	0.38
916.124	1.38
916.857	2.38
917.59	1.38
918.323	1.38
919.055	0.38
919.788	-0.62
920.521	0.38
921.253	-0.62
921.985	1.38
922.718	0.38
923.45	1.38
924.182	0.38
924.914	-0.62
925.646	-1.62
926.378	1.38
927.11	0.38
927.841	1.38
928.573	0.38
929.305	-0.62
930.036	0.38
930.768	0.38
931.499	0.38
932.23	0.38
932.962	-0.62
933.693	0.38
934.424	-0.62
935.155	1.38
935.886	-0.62
936.617	1.38
937.348	0.38
938.078	-0.62
938.809	2.38
939.54	0.38
940.27	-0.62
941.001	0.38
941.731	1.38
942.461	1.38
943.191	0.38
943.922	1.38
944.652	-0.62
945.382	1.38
946.112	0.38
946.841	2.38
947.571	0.38
948.301	-1.62
949.031	1.38
949.76	1.38
950.49	-0.62
951.219	2.38
951.948	0.38
952.678	0.38
953.407	0.38
954.136	2.38
954.865	-1.62
955.594	1.38
956.323	2.38
957.052	-0.62
957.78	1.38
958.509	0.38
959.238	0.38
959.966	1.38
960.695	0.38
961.423	0.38
962.151	-0.62
962.88	0.38
963.608	3.38
964.336	-2.62
965.064	1.38
965.792	2.38
966.52	0.38
967.247	1.38
967.975	0.38
968.703	0.38
969.43	0.38
970.158	1.38
970.885	2.38
971.613	1.38
972.34	1.38
973.067	0.38
973.794	1.38
974.521	-0.62
975.248	1.38
975.975	0.38
976.702	0.38
977.429	2.38
978.156	2.38
978.882	1.38
979.609	1.38
980.335	2.38
981.062	-1.62
981.788	1.38
982.514	-0.62
983.24	0.38
983.967	-0.62
984.693	-0.62
985.419	1.38
986.144	-1.62
986.87	1.38
987.596	0.38
988.322	1.38
989.047	1.38
989.773	-1.62
990.498	1.38
991.224	1.38
991.949	-0.62
992.674	2.38
993.399	-0.62
994.124	-0.62
994.849	2.38
995.574	1.38
996.299	1.38
997.024	-0.62
997.749	0.38
998.473	-0.62
999.198	-1.62
999.922	-0.62
1000.647	1.38
1001.371	3.38
1002.095	0.38
1002.82	-0.62
1003.544	0.38
1004.268	1.38
1004.992	0.38
1005.716	2.38
1006.439	0.38
1007.163	1.38
1007.887	2.38
1008.611	2.38
1009.334	0.38
1010.058	0.38
1010.781	0.38
1011.504	1.38
1012.228	0.38
1012.951	-0.62
1013.674	-0.62
1014.397	-0.62
1015.12	-1.62
