节点500_285_QEPB04081__312__15-00-44-748.txt的数据

Date: Wed Nov 12 15:00:44 CST 2025
User: PC
Spectrometer: QEPB0408
触发模式: 0
积分时间 (秒): 1.000000E-2
Scans to average: 1
启用暗噪声校正: true
启用非线性校正: false
滑动平均宽度: 0
X轴模式: Wavelengths
Number of Pixels in Spectrum: 1044
>>>>>Begin Spectral Data<<<<<
220.843	0.38
221.644	1.38
222.444	1.38
223.244	2.38
224.045	2.38
224.845	-1.62
225.645	2.38
226.445	2.38
227.245	-0.62
228.045	3.38
228.845	0.38
229.645	3.38
230.444	4.38
231.244	4.38
232.043	3.38
232.843	3.38
233.642	3.38
234.442	2.38
235.241	4.38
236.04	2.38
236.839	4.38
237.638	4.38
238.437	1.38
239.236	4.38
240.035	3.38
240.833	6.38
241.632	4.38
242.43	3.38
243.229	3.38
244.027	1.38
244.826	5.38
245.624	4.38
246.422	6.38
247.22	7.38
248.018	6.38
248.816	8.38
249.614	5.38
250.412	7.38
251.21	5.38
252.007	8.38
252.805	7.38
253.602	6.38
254.4	10.38
255.197	7.38
255.994	8.38
256.791	8.38
257.589	9.38
258.386	11.38
259.183	7.38
259.979	8.38
260.776	10.38
261.573	9.38
262.37	11.38
263.166	7.38
263.963	10.38
264.759	10.38
265.556	11.38
266.352	13.38
267.148	12.38
267.944	11.38
268.74	13.38
269.536	17.38
270.332	11.38
271.128	16.38
271.924	13.38
272.719	15.38
273.515	15.38
274.311	15.38
275.106	18.38
275.901	18.38
276.697	16.38
277.492	15.38
278.287	17.38
279.082	18.38
279.877	16.38
280.672	17.38
281.467	16.38
282.262	15.38
283.056	21.38
283.851	20.38
284.646	19.38
285.44	21.38
286.234	21.38
287.029	17.38
287.823	21.38
288.617	21.38
289.411	19.38
290.205	17.38
290.999	17.38
291.793	19.38
292.587	17.38
293.381	15.38
294.174	19.38
294.968	14.38
295.761	16.38
296.555	16.38
297.348	16.38
298.141	17.38
298.935	13.38
299.728	16.38
300.521	17.38
301.314	10.38
302.107	16.38
302.899	12.38
303.692	13.38
304.485	13.38
305.277	11.38
306.07	12.38
306.862	11.38
307.655	13.38
308.447	10.38
309.239	11.38
310.031	10.38
310.823	12.38
311.615	10.38
312.407	11.38
313.199	12.38
313.991	8.38
314.783	8.38
315.574	10.38
316.366	10.38
317.157	9.38
317.949	8.38
318.74	8.38
319.531	7.38
320.322	5.38
321.113	6.38
321.904	5.38
322.695	7.38
323.486	7.38
324.277	8.38
325.068	7.38
325.858	6.38
326.649	8.38
327.439	6.38
328.23	7.38
329.02	10.38
329.81	7.38
330.6	5.38
331.391	4.38
332.181	4.38
332.971	7.38
333.76	5.38
334.55	7.38
335.34	4.38
336.13	9.38
336.919	6.38
337.709	6.38
338.498	3.38
339.287	5.38
340.077	8.38
340.866	5.38
341.655	7.38
342.444	6.38
343.233	4.38
344.022	6.38
344.811	4.38
345.6	7.38
346.388	5.38
347.177	7.38
347.965	7.38
348.754	6.38
349.542	8.38
350.33	6.38
351.119	7.38
351.907	4.38
352.695	6.38
353.483	6.38
354.271	4.38
355.059	7.38
355.846	4.38
356.634	6.38
357.422	4.38
358.209	6.38
358.997	6.38
359.784	7.38
360.571	6.38
361.359	4.38
362.146	3.38
362.933	5.38
363.72	5.38
364.507	5.38
365.294	4.38
366.081	6.38
366.867	3.38
367.654	4.38
368.44	7.38
369.227	4.38
370.013	6.38
370.8	5.38
371.586	4.38
372.372	2.38
373.158	6.38
373.944	4.38
374.73	3.38
375.516	5.38
376.302	4.38
377.088	4.38
377.873	4.38
378.659	7.38
379.445	5.38
380.23	4.38
381.015	4.38
381.801	6.38
382.586	4.38
383.371	6.38
384.156	3.38
384.941	4.38
385.726	5.38
386.511	7.38
387.296	6.38
388.08	6.38
388.865	5.38
389.649	3.38
390.434	5.38
391.218	6.38
392.003	8.38
392.787	5.38
393.571	2.38
394.355	7.38
395.139	4.38
395.923	6.38
396.707	5.38
397.491	4.38
398.274	5.38
399.058	6.38
399.842	4.38
400.625	6.38
401.408	7.38
402.192	4.38
402.975	9.38
403.758	8.38
404.541	4.38
405.324	8.38
406.107	8.38
406.89	5.38
407.673	8.38
408.456	5.38
409.238	8.38
410.021	7.38
410.803	9.38
411.586	9.38
412.368	9.38
413.151	5.38
413.933	9.38
414.715	7.38
415.497	7.38
416.279	8.38
417.061	10.38
417.843	9.38
418.624	9.38
419.406	8.38
420.188	9.38
420.969	7.38
421.751	11.38
422.532	11.38
423.313	8.38
424.095	9.38
424.876	11.38
425.657	13.38
426.438	11.38
427.219	13.38
428	13.38
428.78	12.38
429.561	15.38
430.342	13.38
431.122	16.38
431.903	12.38
432.683	13.38
433.464	17.38
434.244	16.38
435.024	17.38
435.804	17.38
436.584	17.38
437.364	18.38
438.144	18.38
438.924	20.38
439.704	20.38
440.483	22.38
441.263	22.38
442.042	22.38
442.822	27.38
443.601	27.38
444.38	29.38
445.16	29.38
445.939	33.38
446.718	37.38
447.497	37.38
448.276	40.38
449.054	41.38
449.833	47.38
450.612	50.38
451.391	58.38
452.169	62.38
452.948	67.38
453.726	74.38
454.504	88.38
455.282	89.38
456.061	98.38
456.839	104.38
457.617	122.38
458.395	130.38
459.172	154.38
459.95	170.38
460.728	182.38
461.506	207.38
462.283	233.38
463.061	249.38
463.838	287.38
464.615	322.38
465.393	358.38
466.17	395.38
466.947	448.38
467.724	502.38
468.501	559.38
469.278	611.38
470.055	683.38
470.831	755.38
471.608	849.38
472.385	946.38
473.161	1052.38
473.938	1155.38
474.714	1287.38
475.49	1424.38
476.266	1578.38
477.043	1738.38
477.819	1921.38
478.595	2122.38
479.371	2353.38
480.146	2591.38
480.922	2856.38
481.698	3177.38
482.473	3487.38
483.249	3827.38
484.024	4226.38
484.8	4634.38
485.575	5125.38
486.35	5613.38
487.126	6161.38
487.901	6761.38
488.676	7420.38
489.451	8092.38
490.225	8885.38
491	9709.38
491.775	10639.38
492.55	11580.38
493.324	12492.38
494.099	13512.38
494.873	14548.38
495.647	15685.38
496.422	16881.38
497.196	18051.38
497.97	19264.38
498.744	20475.38
499.518	21675.38
500.292	22794.38
501.066	23876.38
501.839	24843.38
502.613	25693.38
503.387	26456.38
504.16	27172.38
504.934	27477.38
505.707	27644.38
506.48	27655.38
507.253	27473.38
508.027	27312.38
508.8	26943.38
509.573	26486.38
510.346	25819.38
511.118	25041.38
511.891	24189.38
512.664	23367.38
513.437	22443.38
514.209	21568.38
514.982	20636.38
515.754	19703.38
516.526	18859.38
517.298	18030.38
518.071	17256.38
518.843	16590.38
519.615	15996.38
520.387	15322.38
521.159	14694.38
521.93	14138.38
522.702	13547.38
523.474	13011.38
524.245	12429.38
525.017	11949.38
525.788	11468.38
526.56	10932.38
527.331	10367.38
528.102	9914.38
528.873	9461.38
529.644	9001.38
530.415	8577.38
531.186	8088.38
531.957	7684.38
532.728	7297.38
533.498	6937.38
534.269	6529.38
535.039	6219.38
535.81	5820.38
536.58	5517.38
537.351	5206.38
538.121	4918.38
538.891	4633.38
539.661	4370.38
540.431	4166.38
541.201	3925.38
541.971	3705.38
542.741	3521.38
543.51	3344.38
544.28	3178.38
545.05	3040.38
545.819	2880.38
546.588	2733.38
547.358	2588.38
548.127	2449.38
548.896	2337.38
549.665	2214.38
550.434	2118.38
551.203	1986.38
551.972	1881.38
552.741	1762.38
553.51	1689.38
554.278	1596.38
555.047	1491.38
555.815	1423.38
556.584	1336.38
557.352	1260.38
558.121	1187.38
558.889	1124.38
559.657	1063.38
560.425	997.38
561.193	955.38
561.961	900.38
562.729	836.38
563.496	802.38
564.264	751.38
565.032	710.38
565.799	680.38
566.567	640.38
567.334	597.38
568.101	577.38
568.869	541.38
569.636	502.38
570.403	477.38
571.17	446.38
571.937	427.38
572.704	394.38
573.471	378.38
574.237	354.38
575.004	336.38
575.771	315.38
576.537	296.38
577.303	284.38
578.07	264.38
578.836	245.38
579.602	237.38
580.368	225.38
581.134	204.38
581.9	196.38
582.666	184.38
583.432	173.38
584.198	169.38
584.964	163.38
585.729	150.38
586.495	144.38
587.26	136.38
588.025	128.38
588.791	122.38
589.556	111.38
590.321	108.38
591.086	102.38
591.851	101.38
592.616	96.38
593.381	86.38
594.146	87.38
594.911	81.38
595.675	80.38
596.44	74.38
597.204	72.38
597.969	68.38
598.733	65.38
599.497	60.38
600.261	59.38
601.025	60.38
601.79	51.38
602.553	51.38
603.317	50.38
604.081	45.38
604.845	47.38
605.609	44.38
606.372	41.38
607.136	40.38
607.899	37.38
608.662	38.38
609.426	36.38
610.189	33.38
610.952	33.38
611.715	32.38
612.478	28.38
613.241	26.38
614.004	25.38
614.767	25.38
615.529	26.38
616.292	24.38
617.055	25.38
617.817	24.38
618.579	22.38
619.342	23.38
620.104	20.38
620.866	23.38
621.628	18.38
622.39	20.38
623.152	18.38
623.914	17.38
624.676	17.38
625.438	15.38
626.199	16.38
626.961	17.38
627.722	15.38
628.484	15.38
629.245	16.38
630.006	14.38
630.768	14.38
631.529	14.38
632.29	11.38
633.051	11.38
633.812	13.38
634.573	12.38
635.333	10.38
636.094	12.38
636.855	8.38
637.615	11.38
638.376	11.38
639.136	8.38
639.896	11.38
640.657	8.38
641.417	7.38
642.177	7.38
642.937	8.38
643.697	8.38
644.457	8.38
645.216	8.38
645.976	7.38
646.736	7.38
647.495	6.38
648.255	6.38
649.014	3.38
649.774	6.38
650.533	7.38
651.292	9.38
652.051	6.38
652.81	5.38
653.569	6.38
654.328	6.38
655.087	6.38
655.846	3.38
656.604	3.38
657.363	7.38
658.121	6.38
658.88	7.38
659.638	6.38
660.397	7.38
661.155	5.38
661.913	6.38
662.671	6.38
663.429	3.38
664.187	4.38
664.945	5.38
665.703	3.38
666.46	4.38
667.218	4.38
667.976	6.38
668.733	4.38
669.49	4.38
670.248	3.38
671.005	4.38
671.762	6.38
672.519	3.38
673.276	5.38
674.033	3.38
674.79	3.38
675.547	5.38
676.304	3.38
677.06	5.38
677.817	5.38
678.574	6.38
679.33	1.38
680.086	5.38
680.843	1.38
681.599	2.38
682.355	3.38
683.111	4.38
683.867	4.38
684.623	5.38
685.379	1.38
686.135	4.38
686.89	2.38
687.646	4.38
688.402	3.38
689.157	2.38
689.912	5.38
690.668	1.38
691.423	7.38
692.178	2.38
692.933	3.38
693.688	3.38
694.443	4.38
695.198	2.38
695.953	2.38
696.708	3.38
697.462	2.38
698.217	4.38
698.972	1.38
699.726	2.38
700.48	4.38
701.235	3.38
701.989	2.38
702.743	3.38
703.497	2.38
704.251	3.38
705.005	3.38
705.759	4.38
706.513	5.38
707.266	3.38
708.02	3.38
708.774	1.38
709.527	2.38
710.28	6.38
711.034	2.38
711.787	3.38
712.54	0.38
713.293	2.38
714.046	4.38
714.799	4.38
715.552	2.38
716.305	3.38
717.058	2.38
717.81	2.38
718.563	5.38
719.315	3.38
720.068	3.38
720.82	3.38
721.573	2.38
722.325	2.38
723.077	5.38
723.829	1.38
724.581	2.38
725.333	4.38
726.085	1.38
726.836	3.38
727.588	3.38
728.34	2.38
729.091	1.38
729.843	3.38
730.594	4.38
731.346	4.38
732.097	5.38
732.848	3.38
733.599	1.38
734.35	2.38
735.101	2.38
735.852	3.38
736.603	2.38
737.354	4.38
738.104	5.38
738.855	4.38
739.605	6.38
740.356	3.38
741.106	4.38
741.856	5.38
742.607	3.38
743.357	4.38
744.107	4.38
744.857	4.38
745.607	6.38
746.357	3.38
747.106	3.38
747.856	4.38
748.606	5.38
749.355	4.38
750.105	5.38
750.854	6.38
751.603	4.38
752.353	5.38
753.102	4.38
753.851	5.38
754.6	5.38
755.349	5.38
756.098	6.38
756.847	5.38
757.595	6.38
758.344	4.38
759.093	6.38
759.841	3.38
760.589	5.38
761.338	6.38
762.086	5.38
762.834	6.38
763.582	5.38
764.331	5.38
765.079	8.38
765.826	6.38
766.574	5.38
767.322	5.38
768.07	6.38
768.817	8.38
769.565	6.38
770.312	8.38
771.06	6.38
771.807	7.38
772.554	7.38
773.302	6.38
774.049	6.38
774.796	8.38
775.543	7.38
776.29	9.38
777.036	10.38
777.783	10.38
778.53	9.38
779.276	8.38
780.023	7.38
780.769	9.38
781.516	9.38
782.262	7.38
783.008	7.38
783.754	8.38
784.5	7.38
785.246	10.38
785.992	8.38
786.738	6.38
787.484	7.38
788.23	7.38
788.975	7.38
789.721	8.38
790.466	8.38
791.212	9.38
791.957	8.38
792.702	8.38
793.447	9.38
794.193	8.38
794.938	9.38
795.683	7.38
796.427	7.38
797.172	6.38
797.917	9.38
798.662	9.38
799.406	5.38
800.151	8.38
800.895	7.38
801.64	7.38
802.384	8.38
803.128	6.38
803.872	7.38
804.616	5.38
805.36	6.38
806.104	7.38
806.848	5.38
807.592	5.38
808.336	5.38
809.079	6.38
809.823	6.38
810.566	7.38
811.31	4.38
812.053	3.38
812.796	5.38
813.539	6.38
814.283	2.38
815.026	5.38
815.769	3.38
816.511	3.38
817.254	4.38
817.997	4.38
818.74	3.38
819.482	6.38
820.225	1.38
820.967	3.38
821.71	3.38
822.452	4.38
823.194	4.38
823.936	5.38
824.678	5.38
825.42	5.38
826.162	6.38
826.904	4.38
827.646	4.38
828.388	1.38
829.129	5.38
829.871	2.38
830.612	3.38
831.354	4.38
832.095	2.38
832.836	1.38
833.577	3.38
834.319	1.38
835.06	3.38
835.801	3.38
836.542	4.38
837.282	2.38
838.023	5.38
838.764	4.38
839.504	2.38
840.245	3.38
840.985	2.38
841.726	2.38
842.466	4.38
843.206	2.38
843.946	2.38
844.687	2.38
845.427	3.38
846.166	3.38
846.906	3.38
847.646	4.38
848.386	1.38
849.125	2.38
849.865	0.38
850.605	2.38
851.344	2.38
852.083	0.38
852.823	1.38
853.562	1.38
854.301	2.38
855.04	2.38
855.779	-0.62
856.518	2.38
857.257	3.38
857.995	0.38
858.734	1.38
859.473	3.38
860.211	1.38
860.95	1.38
861.688	3.38
862.426	2.38
863.165	-0.62
863.903	3.38
864.641	3.38
865.379	3.38
866.117	0.38
866.855	2.38
867.593	1.38
868.33	2.38
869.068	2.38
869.806	1.38
870.543	3.38
871.28	-0.62
872.018	3.38
872.755	1.38
873.492	2.38
874.229	2.38
874.967	0.38
875.703	0.38
876.44	1.38
877.177	2.38
877.914	1.38
878.651	0.38
879.387	4.38
880.124	0.38
880.86	0.38
881.597	1.38
882.333	1.38
883.069	2.38
883.806	0.38
884.542	1.38
885.278	1.38
886.014	-0.62
886.749	0.38
887.485	1.38
888.221	1.38
888.957	0.38
889.692	0.38
890.428	0.38
891.163	1.38
891.899	2.38
892.634	1.38
893.369	0.38
894.104	0.38
894.839	1.38
895.574	0.38
896.309	0.38
897.044	3.38
897.779	1.38
898.514	0.38
899.248	1.38
899.983	-0.62
900.717	0.38
901.452	0.38
902.186	0.38
902.92	1.38
903.654	0.38
904.389	1.38
905.123	-0.62
905.857	1.38
906.59	-1.62
907.324	0.38
908.058	1.38
908.792	-0.62
909.525	-0.62
910.259	1.38
910.992	3.38
911.726	0.38
912.459	-0.62
913.192	0.38
913.925	1.38
914.658	0.38
915.391	-1.62
916.124	-0.62
916.857	-1.62
917.59	2.38
918.323	1.38
919.055	0.38
919.788	1.38
920.521	0.38
921.253	0.38
921.985	1.38
922.718	0.38
923.45	1.38
924.182	-2.62
924.914	0.38
925.646	-0.62
926.378	0.38
927.11	-2.62
927.841	-0.62
928.573	0.38
929.305	-1.62
930.036	0.38
930.768	-0.62
931.499	0.38
932.23	2.38
932.962	-0.62
933.693	-0.62
934.424	-2.62
935.155	2.38
935.886	0.38
936.617	1.38
937.348	3.38
938.078	0.38
938.809	1.38
939.54	-0.62
940.27	0.38
941.001	0.38
941.731	-3.62
942.461	0.38
943.191	3.38
943.922	0.38
944.652	1.38
945.382	-1.62
946.112	-0.62
946.841	-0.62
947.571	3.38
948.301	0.38
949.031	1.38
949.76	0.38
950.49	-1.62
951.219	-0.62
951.948	-1.62
952.678	-0.62
953.407	-0.62
954.136	-0.62
954.865	1.38
955.594	-0.62
956.323	0.38
957.052	-0.62
957.78	2.38
958.509	1.38
959.238	-1.62
959.966	-0.62
960.695	-0.62
961.423	0.38
962.151	-1.62
962.88	1.38
963.608	-0.62
964.336	0.38
965.064	0.38
965.792	1.38
966.52	0.38
967.247	-0.62
967.975	1.38
968.703	0.38
969.43	0.38
970.158	1.38
970.885	-1.62
971.613	-0.62
972.34	-0.62
973.067	-1.62
973.794	0.38
974.521	-0.62
975.248	2.38
975.975	-2.62
976.702	0.38
977.429	0.38
978.156	-1.62
978.882	-1.62
979.609	2.38
980.335	0.38
981.062	1.38
981.788	-0.62
982.514	0.38
983.24	-0.62
983.967	2.38
984.693	1.38
985.419	-0.62
986.144	-1.62
986.87	-1.62
987.596	-1.62
988.322	0.38
989.047	1.38
989.773	-0.62
990.498	-0.62
991.224	-0.62
991.949	-0.62
992.674	0.38
993.399	1.38
994.124	-0.62
994.849	2.38
995.574	1.38
996.299	-0.62
997.024	0.38
997.749	0.38
998.473	0.38
999.198	1.38
999.922	0.38
1000.647	-0.62
1001.371	4.38
1002.095	-1.62
1002.82	-2.62
1003.544	-0.62
1004.268	1.38
1004.992	-0.62
1005.716	0.38
1006.439	0.38
1007.163	1.38
1007.887	3.38
1008.611	-0.62
1009.334	-0.62
1010.058	2.38
1010.781	-2.62
1011.504	1.38
1012.228	0.38
1012.951	0.38
1013.674	1.38
1014.397	-0.62
1015.12	-0.62
