节点500_285_QEPB04081__712__15-07-23-821.txt的数据

Date: Wed Nov 12 15:07:23 CST 2025
User: PC
Spectrometer: QEPB0408
触发模式: 0
积分时间 (秒): 1.000000E-2
Scans to average: 1
启用暗噪声校正: true
启用非线性校正: false
滑动平均宽度: 0
X轴模式: Wavelengths
Number of Pixels in Spectrum: 1044
>>>>>Begin Spectral Data<<<<<
220.843	0.88
221.644	1.88
222.444	0.88
223.244	2.88
224.045	2.88
224.845	-0.12
225.645	2.88
226.445	1.88
227.245	1.88
228.045	1.88
228.845	1.88
229.645	1.88
230.444	0.88
231.244	0.88
232.043	1.88
232.843	2.88
233.642	1.88
234.442	1.88
235.241	3.88
236.04	4.88
236.839	6.88
237.638	3.88
238.437	5.88
239.236	4.88
240.035	3.88
240.833	5.88
241.632	4.88
242.43	4.88
243.229	4.88
244.027	2.88
244.826	4.88
245.624	3.88
246.422	3.88
247.22	4.88
248.018	3.88
248.816	3.88
249.614	5.88
250.412	4.88
251.21	3.88
252.007	4.88
252.805	5.88
253.602	5.88
254.4	4.88
255.197	7.88
255.994	7.88
256.791	3.88
257.589	8.88
258.386	6.88
259.183	8.88
259.979	9.88
260.776	5.88
261.573	9.88
262.37	6.88
263.166	10.88
263.963	9.88
264.759	9.88
265.556	10.88
266.352	10.88
267.148	9.88
267.944	13.88
268.74	12.88
269.536	10.88
270.332	13.88
271.128	12.88
271.924	13.88
272.719	12.88
273.515	14.88
274.311	11.88
275.106	13.88
275.901	13.88
276.697	13.88
277.492	17.88
278.287	14.88
279.082	14.88
279.877	14.88
280.672	15.88
281.467	16.88
282.262	15.88
283.056	15.88
283.851	15.88
284.646	17.88
285.44	19.88
286.234	18.88
287.029	17.88
287.823	15.88
288.617	16.88
289.411	17.88
290.205	16.88
290.999	17.88
291.793	16.88
292.587	15.88
293.381	15.88
294.174	12.88
294.968	17.88
295.761	14.88
296.555	15.88
297.348	13.88
298.141	10.88
298.935	15.88
299.728	14.88
300.521	13.88
301.314	12.88
302.107	12.88
302.899	13.88
303.692	14.88
304.485	13.88
305.277	11.88
306.07	12.88
306.862	12.88
307.655	9.88
308.447	11.88
309.239	12.88
310.031	11.88
310.823	8.88
311.615	11.88
312.407	6.88
313.199	8.88
313.991	10.88
314.783	9.88
315.574	9.88
316.366	8.88
317.157	6.88
317.949	9.88
318.74	6.88
319.531	9.88
320.322	8.88
321.113	8.88
321.904	4.88
322.695	4.88
323.486	6.88
324.277	6.88
325.068	7.88
325.858	7.88
326.649	6.88
327.439	5.88
328.23	6.88
329.02	5.88
329.81	4.88
330.6	8.88
331.391	4.88
332.181	6.88
332.971	4.88
333.76	4.88
334.55	7.88
335.34	4.88
336.13	7.88
336.919	6.88
337.709	8.88
338.498	5.88
339.287	4.88
340.077	6.88
340.866	7.88
341.655	6.88
342.444	6.88
343.233	4.88
344.022	6.88
344.811	4.88
345.6	2.88
346.388	4.88
347.177	4.88
347.965	4.88
348.754	5.88
349.542	4.88
350.33	4.88
351.119	7.88
351.907	5.88
352.695	3.88
353.483	5.88
354.271	5.88
355.059	5.88
355.846	7.88
356.634	6.88
357.422	3.88
358.209	4.88
358.997	3.88
359.784	4.88
360.571	4.88
361.359	4.88
362.146	3.88
362.933	4.88
363.72	4.88
364.507	4.88
365.294	4.88
366.081	5.88
366.867	4.88
367.654	5.88
368.44	2.88
369.227	5.88
370.013	5.88
370.8	3.88
371.586	4.88
372.372	3.88
373.158	4.88
373.944	3.88
374.73	4.88
375.516	5.88
376.302	2.88
377.088	3.88
377.873	3.88
378.659	5.88
379.445	1.88
380.23	0.88
381.015	6.88
381.801	6.88
382.586	5.88
383.371	5.88
384.156	3.88
384.941	3.88
385.726	4.88
386.511	3.88
387.296	5.88
388.08	5.88
388.865	4.88
389.649	3.88
390.434	5.88
391.218	4.88
392.003	4.88
392.787	4.88
393.571	5.88
394.355	4.88
395.139	6.88
395.923	4.88
396.707	4.88
397.491	4.88
398.274	6.88
399.058	5.88
399.842	6.88
400.625	2.88
401.408	6.88
402.192	7.88
402.975	6.88
403.758	6.88
404.541	6.88
405.324	6.88
406.107	8.88
406.89	5.88
407.673	8.88
408.456	6.88
409.238	8.88
410.021	8.88
410.803	8.88
411.586	7.88
412.368	7.88
413.151	9.88
413.933	9.88
414.715	9.88
415.497	6.88
416.279	9.88
417.061	8.88
417.843	7.88
418.624	9.88
419.406	8.88
420.188	10.88
420.969	8.88
421.751	10.88
422.532	11.88
423.313	11.88
424.095	9.88
424.876	11.88
425.657	12.88
426.438	10.88
427.219	9.88
428	10.88
428.78	11.88
429.561	15.88
430.342	13.88
431.122	13.88
431.903	12.88
432.683	15.88
433.464	13.88
434.244	16.88
435.024	17.88
435.804	15.88
436.584	17.88
437.364	18.88
438.144	18.88
438.924	19.88
439.704	20.88
440.483	25.88
441.263	22.88
442.042	24.88
442.822	26.88
443.601	25.88
444.38	29.88
445.16	33.88
445.939	33.88
446.718	37.88
447.497	41.88
448.276	42.88
449.054	51.88
449.833	52.88
450.612	51.88
451.391	61.88
452.169	68.88
452.948	74.88
453.726	80.88
454.504	89.88
455.282	93.88
456.061	109.88
456.839	125.88
457.617	134.88
458.395	147.88
459.172	171.88
459.95	184.88
460.728	209.88
461.506	225.88
462.283	258.88
463.061	286.88
463.838	320.88
464.615	347.88
465.393	398.88
466.17	442.88
466.947	486.88
467.724	543.88
468.501	592.88
469.278	657.88
470.055	727.88
470.831	809.88
471.608	909.88
472.385	1002.88
473.161	1084.88
473.938	1213.88
474.714	1331.88
475.49	1471.88
476.266	1604.88
477.043	1751.88
477.819	1930.88
478.595	2133.88
479.371	2340.88
480.146	2556.88
480.922	2803.88
481.698	3073.88
482.473	3328.88
483.249	3655.88
484.024	4001.88
484.8	4347.88
485.575	4768.88
486.35	5205.88
487.126	5663.88
487.901	6193.88
488.676	6714.88
489.451	7328.88
490.225	7965.88
491	8612.88
491.775	9398.88
492.55	10197.88
493.324	10998.88
494.099	11830.88
494.873	12688.88
495.647	13658.88
496.422	14654.88
497.196	15699.88
497.97	16712.88
498.744	17796.88
499.518	18851.88
500.292	19853.88
501.066	20843.88
501.839	21802.88
502.613	22737.88
503.387	23584.88
504.16	24258.88
504.934	24700.88
505.707	25082.88
506.48	25268.88
507.253	25396.88
508.027	25320.88
508.8	25344.88
509.573	25150.88
510.346	24730.88
511.118	24159.88
511.891	23667.88
512.664	23060.88
513.437	22274.88
514.209	21481.88
514.982	20735.88
515.754	19874.88
516.526	19090.88
517.298	18269.88
518.071	17507.88
518.843	16870.88
519.615	16263.88
520.387	15661.88
521.159	15001.88
521.93	14361.88
522.702	13848.88
523.474	13257.88
524.245	12667.88
525.017	12169.88
525.788	11718.88
526.56	11204.88
527.331	10671.88
528.102	10218.88
528.873	9768.88
529.644	9343.88
530.415	8937.88
531.186	8502.88
531.957	8036.88
532.728	7666.88
533.498	7327.88
534.269	6946.88
535.039	6546.88
535.81	6203.88
536.58	5858.88
537.351	5532.88
538.121	5211.88
538.891	4963.88
539.661	4682.88
540.431	4438.88
541.201	4193.88
541.971	3938.88
542.741	3746.88
543.51	3571.88
544.28	3423.88
545.05	3236.88
545.819	3060.88
546.588	2913.88
547.358	2773.88
548.127	2635.88
548.896	2490.88
549.665	2376.88
550.434	2237.88
551.203	2126.88
551.972	2024.88
552.741	1922.88
553.51	1816.88
554.278	1713.88
555.047	1614.88
555.815	1531.88
556.584	1445.88
557.352	1367.88
558.121	1293.88
558.889	1233.88
559.657	1154.88
560.425	1091.88
561.193	1033.88
561.961	971.88
562.729	931.88
563.496	873.88
564.264	813.88
565.032	774.88
565.799	731.88
566.567	699.88
567.334	650.88
568.101	620.88
568.869	590.88
569.636	553.88
570.403	506.88
571.17	484.88
571.937	461.88
572.704	436.88
573.471	403.88
574.237	384.88
575.004	366.88
575.771	336.88
576.537	328.88
577.303	305.88
578.07	292.88
578.836	269.88
579.602	259.88
580.368	239.88
581.134	228.88
581.9	213.88
582.666	201.88
583.432	193.88
584.198	183.88
584.964	169.88
585.729	166.88
586.495	154.88
587.26	151.88
588.025	142.88
588.791	135.88
589.556	131.88
590.321	119.88
591.086	115.88
591.851	108.88
592.616	104.88
593.381	95.88
594.146	92.88
594.911	87.88
595.675	85.88
596.44	79.88
597.204	77.88
597.969	72.88
598.733	71.88
599.497	68.88
600.261	65.88
601.025	59.88
601.79	54.88
602.553	52.88
603.317	52.88
604.081	51.88
604.845	45.88
605.609	46.88
606.372	40.88
607.136	44.88
607.899	37.88
608.662	41.88
609.426	36.88
610.189	37.88
610.952	31.88
611.715	33.88
612.478	28.88
613.241	29.88
614.004	27.88
614.767	28.88
615.529	27.88
616.292	23.88
617.055	25.88
617.817	25.88
618.579	23.88
619.342	23.88
620.104	23.88
620.866	21.88
621.628	19.88
622.39	17.88
623.152	19.88
623.914	19.88
624.676	18.88
625.438	17.88
626.199	17.88
626.961	15.88
627.722	14.88
628.484	16.88
629.245	12.88
630.006	15.88
630.768	13.88
631.529	13.88
632.29	12.88
633.051	12.88
633.812	11.88
634.573	10.88
635.333	13.88
636.094	12.88
636.855	9.88
637.615	9.88
638.376	8.88
639.136	9.88
639.896	9.88
640.657	8.88
641.417	11.88
642.177	7.88
642.937	9.88
643.697	8.88
644.457	6.88
645.216	10.88
645.976	7.88
646.736	7.88
647.495	4.88
648.255	8.88
649.014	6.88
649.774	4.88
650.533	7.88
651.292	5.88
652.051	5.88
652.81	3.88
653.569	4.88
654.328	6.88
655.087	3.88
655.846	6.88
656.604	4.88
657.363	4.88
658.121	4.88
658.88	6.88
659.638	3.88
660.397	6.88
661.155	6.88
661.913	4.88
662.671	5.88
663.429	3.88
664.187	5.88
664.945	3.88
665.703	4.88
666.46	4.88
667.218	5.88
667.976	4.88
668.733	2.88
669.49	5.88
670.248	5.88
671.005	4.88
671.762	2.88
672.519	4.88
673.276	4.88
674.033	6.88
674.79	3.88
675.547	6.88
676.304	3.88
677.06	7.88
677.817	3.88
678.574	4.88
679.33	6.88
680.086	3.88
680.843	2.88
681.599	3.88
682.355	3.88
683.111	3.88
683.867	4.88
684.623	6.88
685.379	1.88
686.135	3.88
686.89	4.88
687.646	3.88
688.402	4.88
689.157	2.88
689.912	4.88
690.668	4.88
691.423	1.88
692.178	4.88
692.933	3.88
693.688	2.88
694.443	3.88
695.198	3.88
695.953	4.88
696.708	7.88
697.462	2.88
698.217	4.88
698.972	4.88
699.726	1.88
700.48	4.88
701.235	0.88
701.989	2.88
702.743	4.88
703.497	2.88
704.251	3.88
705.005	4.88
705.759	1.88
706.513	0.88
707.266	6.88
708.02	1.88
708.774	2.88
709.527	2.88
710.28	1.88
711.034	3.88
711.787	2.88
712.54	3.88
713.293	5.88
714.046	2.88
714.799	5.88
715.552	1.88
716.305	3.88
717.058	1.88
717.81	3.88
718.563	2.88
719.315	2.88
720.068	2.88
720.82	0.88
721.573	2.88
722.325	1.88
723.077	1.88
723.829	3.88
724.581	3.88
725.333	4.88
726.085	1.88
726.836	2.88
727.588	2.88
728.34	3.88
729.091	6.88
729.843	2.88
730.594	3.88
731.346	3.88
732.097	4.88
732.848	4.88
733.599	5.88
734.35	4.88
735.101	4.88
735.852	3.88
736.603	1.88
737.354	2.88
738.104	3.88
738.855	3.88
739.605	1.88
740.356	6.88
741.106	5.88
741.856	3.88
742.607	4.88
743.357	5.88
744.107	4.88
744.857	4.88
745.607	2.88
746.357	3.88
747.106	4.88
747.856	4.88
748.606	5.88
749.355	3.88
750.105	4.88
750.854	4.88
751.603	4.88
752.353	7.88
753.102	1.88
753.851	5.88
754.6	2.88
755.349	2.88
756.098	3.88
756.847	3.88
757.595	3.88
758.344	2.88
759.093	5.88
759.841	4.88
760.589	2.88
761.338	5.88
762.086	5.88
762.834	6.88
763.582	5.88
764.331	5.88
765.079	5.88
765.826	6.88
766.574	6.88
767.322	3.88
768.07	5.88
768.817	7.88
769.565	5.88
770.312	7.88
771.06	7.88
771.807	4.88
772.554	5.88
773.302	6.88
774.049	6.88
774.796	8.88
775.543	5.88
776.29	7.88
777.036	6.88
777.783	6.88
778.53	7.88
779.276	7.88
780.023	6.88
780.769	5.88
781.516	7.88
782.262	7.88
783.008	5.88
783.754	9.88
784.5	7.88
785.246	8.88
785.992	8.88
786.738	8.88
787.484	6.88
788.23	6.88
788.975	9.88
789.721	5.88
790.466	6.88
791.212	8.88
791.957	7.88
792.702	7.88
793.447	8.88
794.193	8.88
794.938	7.88
795.683	7.88
796.427	8.88
797.172	6.88
797.917	8.88
798.662	5.88
799.406	5.88
800.151	6.88
800.895	5.88
801.64	8.88
802.384	6.88
803.128	6.88
803.872	4.88
804.616	3.88
805.36	6.88
806.104	3.88
806.848	3.88
807.592	4.88
808.336	4.88
809.079	6.88
809.823	6.88
810.566	5.88
811.31	4.88
812.053	5.88
812.796	4.88
813.539	6.88
814.283	3.88
815.026	3.88
815.769	3.88
816.511	4.88
817.254	5.88
817.997	2.88
818.74	5.88
819.482	2.88
820.225	3.88
820.967	3.88
821.71	4.88
822.452	4.88
823.194	2.88
823.936	6.88
824.678	1.88
825.42	2.88
826.162	4.88
826.904	5.88
827.646	3.88
828.388	1.88
829.129	2.88
829.871	1.88
830.612	3.88
831.354	4.88
832.095	0.88
832.836	2.88
833.577	3.88
834.319	1.88
835.06	1.88
835.801	2.88
836.542	1.88
837.282	3.88
838.023	2.88
838.764	2.88
839.504	1.88
840.245	2.88
840.985	1.88
841.726	2.88
842.466	3.88
843.206	2.88
843.946	3.88
844.687	3.88
845.427	1.88
846.166	1.88
846.906	1.88
847.646	1.88
848.386	2.88
849.125	4.88
849.865	1.88
850.605	0.88
851.344	1.88
852.083	4.88
852.823	4.88
853.562	1.88
854.301	2.88
855.04	0.88
855.779	3.88
856.518	-0.12
857.257	0.88
857.995	2.88
858.734	3.88
859.473	3.88
860.211	1.88
860.95	1.88
861.688	0.88
862.426	3.88
863.165	1.88
863.903	1.88
864.641	1.88
865.379	1.88
866.117	1.88
866.855	2.88
867.593	0.88
868.33	1.88
869.068	1.88
869.806	2.88
870.543	-1.12
871.28	1.88
872.018	0.88
872.755	1.88
873.492	1.88
874.229	0.88
874.967	1.88
875.703	1.88
876.44	0.88
877.177	0.88
877.914	1.88
878.651	0.88
879.387	-2.12
880.124	-0.12
880.86	-0.12
881.597	1.88
882.333	2.88
883.069	0.88
883.806	1.88
884.542	1.88
885.278	-0.12
886.014	0.88
886.749	0.88
887.485	-0.12
888.221	-0.12
888.957	0.88
889.692	-0.12
890.428	0.88
891.163	-0.12
891.899	0.88
892.634	0.88
893.369	-2.12
894.104	3.88
894.839	-2.12
895.574	3.88
896.309	1.88
897.044	0.88
897.779	-0.12
898.514	-0.12
899.248	0.88
899.983	0.88
900.717	-1.12
901.452	0.88
902.186	-0.12
902.92	-0.12
903.654	1.88
904.389	-1.12
905.123	0.88
905.857	0.88
906.59	-0.12
907.324	0.88
908.058	1.88
908.792	-1.12
909.525	1.88
910.259	-2.12
910.992	1.88
911.726	0.88
912.459	1.88
913.192	-0.12
913.925	-1.12
914.658	0.88
915.391	0.88
916.124	-0.12
916.857	-0.12
917.59	-0.12
918.323	-0.12
919.055	-0.12
919.788	0.88
920.521	1.88
921.253	0.88
921.985	1.88
922.718	1.88
923.45	0.88
924.182	-0.12
924.914	-1.12
925.646	-0.12
926.378	0.88
927.11	-1.12
927.841	0.88
928.573	1.88
929.305	-1.12
930.036	-2.12
930.768	0.88
931.499	-0.12
932.23	-0.12
932.962	-0.12
933.693	-0.12
934.424	-2.12
935.155	1.88
935.886	-0.12
936.617	-0.12
937.348	-2.12
938.078	-0.12
938.809	-2.12
939.54	0.88
940.27	-0.12
941.001	0.88
941.731	-0.12
942.461	0.88
943.191	-2.12
943.922	0.88
944.652	0.88
945.382	0.88
946.112	-0.12
946.841	0.88
947.571	-0.12
948.301	-1.12
949.031	-0.12
949.76	0.88
950.49	-1.12
951.219	-0.12
951.948	-0.12
952.678	0.88
953.407	1.88
954.136	0.88
954.865	-1.12
955.594	-1.12
956.323	0.88
957.052	0.88
957.78	2.88
958.509	-0.12
959.238	-0.12
959.966	0.88
960.695	-0.12
961.423	2.88
962.151	1.88
962.88	2.88
963.608	0.88
964.336	1.88
965.064	-0.12
965.792	-1.12
966.52	1.88
967.247	0.88
967.975	1.88
968.703	0.88
969.43	-0.12
970.158	-0.12
970.885	0.88
971.613	0.88
972.34	0.88
973.067	-2.12
973.794	0.88
974.521	-0.12
975.248	0.88
975.975	0.88
976.702	-1.12
977.429	-1.12
978.156	-0.12
978.882	0.88
979.609	1.88
980.335	0.88
981.062	0.88
981.788	0.88
982.514	0.88
983.24	-2.12
983.967	1.88
984.693	-2.12
985.419	-2.12
986.144	-1.12
986.87	1.88
987.596	0.88
988.322	-1.12
989.047	-1.12
989.773	0.88
990.498	0.88
991.224	0.88
991.949	0.88
992.674	0.88
993.399	-2.12
994.124	1.88
994.849	-2.12
995.574	-0.12
996.299	-1.12
997.024	0.88
997.749	-1.12
998.473	0.88
999.198	-1.12
999.922	1.88
1000.647	-0.12
1001.371	1.88
1002.095	-0.12
1002.82	-2.12
1003.544	-1.12
1004.268	0.88
1004.992	0.88
1005.716	1.88
1006.439	1.88
1007.163	1.88
1007.887	0.88
1008.611	-0.12
1009.334	-2.12
1010.058	-0.12
1010.781	-1.12
1011.504	0.88
1012.228	-0.12
1012.951	-0.12
1013.674	-1.12
1014.397	0.88
1015.12	1.88
