节点500_285_QEPB04081__70__14-56-43-341.txt的数据

Date: Wed Nov 12 14:56:43 CST 2025
User: PC
Spectrometer: QEPB0408
触发模式: 0
积分时间 (秒): 1.000000E-2
Scans to average: 1
启用暗噪声校正: true
启用非线性校正: false
滑动平均宽度: 0
X轴模式: Wavelengths
Number of Pixels in Spectrum: 1044
>>>>>Begin Spectral Data<<<<<
220.843	2.62
221.644	2.62
222.444	2.62
223.244	1.62
224.045	3.62
224.845	5.62
225.645	1.62
226.445	3.62
227.245	1.62
228.045	4.62
228.845	2.62
229.645	3.62
230.444	4.62
231.244	3.62
232.043	6.62
232.843	3.62
233.642	4.62
234.442	5.62
235.241	1.62
236.04	4.62
236.839	4.62
237.638	4.62
238.437	5.62
239.236	4.62
240.035	5.62
240.833	4.62
241.632	3.62
242.43	4.62
243.229	3.62
244.027	4.62
244.826	4.62
245.624	6.62
246.422	4.62
247.22	3.62
248.018	7.62
248.816	7.62
249.614	8.62
250.412	7.62
251.21	5.62
252.007	5.62
252.805	6.62
253.602	11.62
254.4	7.62
255.197	9.62
255.994	6.62
256.791	9.62
257.589	9.62
258.386	12.62
259.183	11.62
259.979	9.62
260.776	12.62
261.573	13.62
262.37	8.62
263.166	10.62
263.963	11.62
264.759	13.62
265.556	12.62
266.352	12.62
267.148	14.62
267.944	17.62
268.74	14.62
269.536	16.62
270.332	14.62
271.128	18.62
271.924	16.62
272.719	16.62
273.515	15.62
274.311	17.62
275.106	20.62
275.901	19.62
276.697	19.62
277.492	18.62
278.287	17.62
279.082	19.62
279.877	21.62
280.672	18.62
281.467	19.62
282.262	20.62
283.056	22.62
283.851	20.62
284.646	22.62
285.44	20.62
286.234	20.62
287.029	19.62
287.823	18.62
288.617	17.62
289.411	18.62
290.205	20.62
290.999	20.62
291.793	22.62
292.587	15.62
293.381	21.62
294.174	16.62
294.968	17.62
295.761	17.62
296.555	16.62
297.348	15.62
298.141	15.62
298.935	18.62
299.728	16.62
300.521	15.62
301.314	16.62
302.107	13.62
302.899	15.62
303.692	15.62
304.485	14.62
305.277	13.62
306.07	13.62
306.862	14.62
307.655	12.62
308.447	12.62
309.239	13.62
310.031	12.62
310.823	11.62
311.615	11.62
312.407	12.62
313.199	13.62
313.991	10.62
314.783	9.62
315.574	8.62
316.366	7.62
317.157	10.62
317.949	8.62
318.74	7.62
319.531	9.62
320.322	9.62
321.113	8.62
321.904	8.62
322.695	8.62
323.486	8.62
324.277	8.62
325.068	7.62
325.858	7.62
326.649	9.62
327.439	6.62
328.23	7.62
329.02	6.62
329.81	9.62
330.6	7.62
331.391	7.62
332.181	6.62
332.971	5.62
333.76	7.62
334.55	6.62
335.34	8.62
336.13	7.62
336.919	6.62
337.709	7.62
338.498	5.62
339.287	7.62
340.077	7.62
340.866	7.62
341.655	6.62
342.444	5.62
343.233	8.62
344.022	6.62
344.811	6.62
345.6	7.62
346.388	7.62
347.177	7.62
347.965	6.62
348.754	6.62
349.542	7.62
350.33	7.62
351.119	7.62
351.907	6.62
352.695	4.62
353.483	3.62
354.271	8.62
355.059	7.62
355.846	5.62
356.634	4.62
357.422	5.62
358.209	8.62
358.997	6.62
359.784	7.62
360.571	4.62
361.359	6.62
362.146	7.62
362.933	5.62
363.72	8.62
364.507	7.62
365.294	7.62
366.081	3.62
366.867	7.62
367.654	4.62
368.44	6.62
369.227	4.62
370.013	5.62
370.8	4.62
371.586	7.62
372.372	4.62
373.158	7.62
373.944	5.62
374.73	8.62
375.516	3.62
376.302	4.62
377.088	6.62
377.873	6.62
378.659	7.62
379.445	5.62
380.23	4.62
381.015	5.62
381.801	4.62
382.586	6.62
383.371	4.62
384.156	6.62
384.941	5.62
385.726	4.62
386.511	7.62
387.296	6.62
388.08	5.62
388.865	7.62
389.649	5.62
390.434	8.62
391.218	5.62
392.003	9.62
392.787	8.62
393.571	7.62
394.355	5.62
395.139	6.62
395.923	7.62
396.707	6.62
397.491	8.62
398.274	7.62
399.058	6.62
399.842	7.62
400.625	8.62
401.408	6.62
402.192	10.62
402.975	9.62
403.758	6.62
404.541	8.62
405.324	8.62
406.107	8.62
406.89	9.62
407.673	9.62
408.456	7.62
409.238	10.62
410.021	9.62
410.803	6.62
411.586	10.62
412.368	10.62
413.151	10.62
413.933	10.62
414.715	11.62
415.497	8.62
416.279	7.62
417.061	10.62
417.843	12.62
418.624	8.62
419.406	9.62
420.188	11.62
420.969	10.62
421.751	13.62
422.532	11.62
423.313	11.62
424.095	13.62
424.876	11.62
425.657	11.62
426.438	13.62
427.219	12.62
428	15.62
428.78	12.62
429.561	15.62
430.342	13.62
431.122	13.62
431.903	17.62
432.683	16.62
433.464	17.62
434.244	16.62
435.024	18.62
435.804	18.62
436.584	19.62
437.364	20.62
438.144	19.62
438.924	21.62
439.704	23.62
440.483	24.62
441.263	22.62
442.042	24.62
442.822	25.62
443.601	27.62
444.38	29.62
445.16	30.62
445.939	31.62
446.718	35.62
447.497	36.62
448.276	39.62
449.054	42.62
449.833	47.62
450.612	49.62
451.391	53.62
452.169	58.62
452.948	65.62
453.726	69.62
454.504	79.62
455.282	80.62
456.061	92.62
456.839	100.62
457.617	112.62
458.395	123.62
459.172	145.62
459.95	153.62
460.728	172.62
461.506	191.62
462.283	214.62
463.061	244.62
463.838	265.62
464.615	295.62
465.393	336.62
466.17	376.62
466.947	422.62
467.724	469.62
468.501	522.62
469.278	581.62
470.055	654.62
470.831	728.62
471.608	822.62
472.385	914.62
473.161	1005.62
473.938	1116.62
474.714	1259.62
475.49	1387.62
476.266	1550.62
477.043	1708.62
477.819	1890.62
478.595	2125.62
479.371	2351.62
480.146	2580.62
480.922	2883.62
481.698	3195.62
482.473	3533.62
483.249	3917.62
484.024	4334.62
484.8	4771.62
485.575	5276.62
486.35	5829.62
487.126	6428.62
487.901	7095.62
488.676	7796.62
489.451	8583.62
490.225	9443.62
491	10348.62
491.775	11331.62
492.55	12384.62
493.324	13426.62
494.099	14494.62
494.873	15729.62
495.647	17022.62
496.422	18298.62
497.196	19502.62
497.97	20830.62
498.744	22130.62
499.518	23401.62
500.292	24479.62
501.066	25632.62
501.839	26586.62
502.613	27341.62
503.387	28107.62
504.16	28603.62
504.934	28800.62
505.707	28838.62
506.48	28728.62
507.253	28505.62
508.027	28064.62
508.8	27538.62
509.573	26902.62
510.346	26111.62
511.118	25201.62
511.891	24329.62
512.664	23270.62
513.437	22353.62
514.209	21326.62
514.982	20419.62
515.754	19420.62
516.526	18613.62
517.298	17758.62
518.071	16983.62
518.843	16326.62
519.615	15661.62
520.387	15019.62
521.159	14436.62
521.93	13875.62
522.702	13313.62
523.474	12795.62
524.245	12196.62
525.017	11661.62
525.788	11224.62
526.56	10748.62
527.331	10167.62
528.102	9728.62
528.873	9237.62
529.644	8768.62
530.415	8304.62
531.186	7892.62
531.957	7460.62
532.728	7044.62
533.498	6689.62
534.269	6268.62
535.039	5959.62
535.81	5610.62
536.58	5278.62
537.351	4971.62
538.121	4700.62
538.891	4464.62
539.661	4241.62
540.431	3957.62
541.201	3760.62
541.971	3534.62
542.741	3367.62
543.51	3194.62
544.28	3087.62
545.05	2922.62
545.819	2767.62
546.588	2632.62
547.358	2490.62
548.127	2380.62
548.896	2244.62
549.665	2126.62
550.434	2017.62
551.203	1910.62
551.972	1799.62
552.741	1700.62
553.51	1601.62
554.278	1512.62
555.047	1434.62
555.815	1329.62
556.584	1278.62
557.352	1195.62
558.121	1127.62
558.889	1068.62
559.657	1005.62
560.425	950.62
561.193	899.62
561.961	838.62
562.729	790.62
563.496	760.62
564.264	727.62
565.032	675.62
565.799	647.62
566.567	600.62
567.334	571.62
568.101	548.62
568.869	509.62
569.636	485.62
570.403	444.62
571.17	426.62
571.937	399.62
572.704	379.62
573.471	357.62
574.237	344.62
575.004	325.62
575.771	302.62
576.537	278.62
577.303	272.62
578.07	248.62
578.836	234.62
579.602	225.62
580.368	207.62
581.134	198.62
581.9	194.62
582.666	182.62
583.432	168.62
584.198	162.62
584.964	149.62
585.729	141.62
586.495	133.62
587.26	129.62
588.025	125.62
588.791	115.62
589.556	111.62
590.321	107.62
591.086	102.62
591.851	97.62
592.616	86.62
593.381	88.62
594.146	80.62
594.911	79.62
595.675	73.62
596.44	68.62
597.204	71.62
597.969	65.62
598.733	62.62
599.497	60.62
600.261	54.62
601.025	54.62
601.79	48.62
602.553	49.62
603.317	47.62
604.081	44.62
604.845	43.62
605.609	40.62
606.372	42.62
607.136	42.62
607.899	35.62
608.662	40.62
609.426	36.62
610.189	33.62
610.952	31.62
611.715	35.62
612.478	28.62
613.241	27.62
614.004	27.62
614.767	23.62
615.529	28.62
616.292	27.62
617.055	25.62
617.817	22.62
618.579	24.62
619.342	20.62
620.104	20.62
620.866	22.62
621.628	19.62
622.39	20.62
623.152	19.62
623.914	17.62
624.676	17.62
625.438	16.62
626.199	15.62
626.961	18.62
627.722	13.62
628.484	13.62
629.245	13.62
630.006	15.62
630.768	15.62
631.529	12.62
632.29	14.62
633.051	12.62
633.812	11.62
634.573	13.62
635.333	10.62
636.094	12.62
636.855	12.62
637.615	12.62
638.376	9.62
639.136	9.62
639.896	7.62
640.657	8.62
641.417	8.62
642.177	8.62
642.937	8.62
643.697	10.62
644.457	7.62
645.216	6.62
645.976	8.62
646.736	10.62
647.495	7.62
648.255	8.62
649.014	6.62
649.774	8.62
650.533	9.62
651.292	7.62
652.051	7.62
652.81	6.62
653.569	8.62
654.328	10.62
655.087	7.62
655.846	7.62
656.604	4.62
657.363	8.62
658.121	6.62
658.88	6.62
659.638	5.62
660.397	6.62
661.155	8.62
661.913	6.62
662.671	6.62
663.429	6.62
664.187	4.62
664.945	6.62
665.703	7.62
666.46	7.62
667.218	5.62
667.976	5.62
668.733	7.62
669.49	6.62
670.248	6.62
671.005	7.62
671.762	5.62
672.519	3.62
673.276	2.62
674.033	4.62
674.79	4.62
675.547	5.62
676.304	5.62
677.06	5.62
677.817	4.62
678.574	4.62
679.33	5.62
680.086	2.62
680.843	7.62
681.599	5.62
682.355	5.62
683.111	3.62
683.867	4.62
684.623	5.62
685.379	3.62
686.135	5.62
686.89	1.62
687.646	4.62
688.402	4.62
689.157	5.62
689.912	5.62
690.668	1.62
691.423	5.62
692.178	5.62
692.933	2.62
693.688	3.62
694.443	3.62
695.198	3.62
695.953	5.62
696.708	4.62
697.462	3.62
698.217	3.62
698.972	4.62
699.726	3.62
700.48	3.62
701.235	3.62
701.989	0.62
702.743	3.62
703.497	3.62
704.251	4.62
705.005	4.62
705.759	2.62
706.513	2.62
707.266	0.62
708.02	5.62
708.774	4.62
709.527	5.62
710.28	5.62
711.034	3.62
711.787	4.62
712.54	3.62
713.293	5.62
714.046	5.62
714.799	3.62
715.552	7.62
716.305	2.62
717.058	5.62
717.81	3.62
718.563	4.62
719.315	5.62
720.068	3.62
720.82	5.62
721.573	4.62
722.325	6.62
723.077	4.62
723.829	2.62
724.581	7.62
725.333	1.62
726.085	4.62
726.836	3.62
727.588	5.62
728.34	3.62
729.091	4.62
729.843	4.62
730.594	5.62
731.346	4.62
732.097	3.62
732.848	5.62
733.599	6.62
734.35	4.62
735.101	5.62
735.852	6.62
736.603	6.62
737.354	5.62
738.104	1.62
738.855	3.62
739.605	5.62
740.356	5.62
741.106	6.62
741.856	3.62
742.607	4.62
743.357	6.62
744.107	3.62
744.857	6.62
745.607	3.62
746.357	5.62
747.106	4.62
747.856	6.62
748.606	5.62
749.355	6.62
750.105	4.62
750.854	3.62
751.603	8.62
752.353	5.62
753.102	6.62
753.851	5.62
754.6	6.62
755.349	4.62
756.098	5.62
756.847	8.62
757.595	6.62
758.344	4.62
759.093	7.62
759.841	9.62
760.589	6.62
761.338	7.62
762.086	6.62
762.834	6.62
763.582	9.62
764.331	8.62
765.079	6.62
765.826	8.62
766.574	7.62
767.322	9.62
768.07	6.62
768.817	8.62
769.565	7.62
770.312	9.62
771.06	7.62
771.807	9.62
772.554	7.62
773.302	8.62
774.049	8.62
774.796	8.62
775.543	9.62
776.29	10.62
777.036	8.62
777.783	9.62
778.53	9.62
779.276	10.62
780.023	8.62
780.769	7.62
781.516	9.62
782.262	9.62
783.008	9.62
783.754	9.62
784.5	8.62
785.246	9.62
785.992	9.62
786.738	10.62
787.484	8.62
788.23	6.62
788.975	10.62
789.721	9.62
790.466	9.62
791.212	8.62
791.957	7.62
792.702	10.62
793.447	8.62
794.193	9.62
794.938	9.62
795.683	10.62
796.427	9.62
797.172	8.62
797.917	9.62
798.662	7.62
799.406	6.62
800.151	8.62
800.895	7.62
801.64	8.62
802.384	8.62
803.128	7.62
803.872	6.62
804.616	7.62
805.36	8.62
806.104	8.62
806.848	8.62
807.592	6.62
808.336	4.62
809.079	8.62
809.823	5.62
810.566	4.62
811.31	5.62
812.053	7.62
812.796	6.62
813.539	3.62
814.283	7.62
815.026	3.62
815.769	6.62
816.511	7.62
817.254	3.62
817.997	4.62
818.74	4.62
819.482	5.62
820.225	6.62
820.967	5.62
821.71	6.62
822.452	6.62
823.194	4.62
823.936	2.62
824.678	5.62
825.42	6.62
826.162	2.62
826.904	4.62
827.646	2.62
828.388	5.62
829.129	3.62
829.871	4.62
830.612	4.62
831.354	5.62
832.095	4.62
832.836	3.62
833.577	5.62
834.319	3.62
835.06	4.62
835.801	3.62
836.542	3.62
837.282	4.62
838.023	3.62
838.764	2.62
839.504	6.62
840.245	2.62
840.985	4.62
841.726	2.62
842.466	2.62
843.206	2.62
843.946	5.62
844.687	3.62
845.427	3.62
846.166	5.62
846.906	1.62
847.646	5.62
848.386	4.62
849.125	4.62
849.865	3.62
850.605	1.62
851.344	2.62
852.083	2.62
852.823	2.62
853.562	4.62
854.301	2.62
855.04	4.62
855.779	3.62
856.518	1.62
857.257	1.62
857.995	2.62
858.734	2.62
859.473	2.62
860.211	4.62
860.95	3.62
861.688	1.62
862.426	2.62
863.165	1.62
863.903	4.62
864.641	1.62
865.379	0.62
866.117	1.62
866.855	-1.38
867.593	2.62
868.33	1.62
869.068	1.62
869.806	3.62
870.543	0.62
871.28	3.62
872.018	1.62
872.755	2.62
873.492	0.62
874.229	1.62
874.967	2.62
875.703	0.62
876.44	3.62
877.177	1.62
877.914	2.62
878.651	1.62
879.387	1.62
880.124	-0.38
880.86	1.62
881.597	2.62
882.333	3.62
883.069	4.62
883.806	-1.38
884.542	2.62
885.278	3.62
886.014	0.62
886.749	3.62
887.485	1.62
888.221	0.62
888.957	4.62
889.692	1.62
890.428	2.62
891.163	4.62
891.899	2.62
892.634	2.62
893.369	1.62
894.104	2.62
894.839	3.62
895.574	-0.38
896.309	0.62
897.044	0.62
897.779	-0.38
898.514	0.62
899.248	1.62
899.983	-1.38
900.717	1.62
901.452	-0.38
902.186	4.62
902.92	2.62
903.654	1.62
904.389	0.62
905.123	-0.38
905.857	1.62
906.59	1.62
907.324	-1.38
908.058	1.62
908.792	0.62
909.525	2.62
910.259	2.62
910.992	-0.38
911.726	1.62
912.459	0.62
913.192	-0.38
913.925	2.62
914.658	-2.38
915.391	-0.38
916.124	-0.38
916.857	1.62
917.59	0.62
918.323	0.62
919.055	2.62
919.788	-1.38
920.521	2.62
921.253	2.62
921.985	-1.38
922.718	1.62
923.45	-0.38
924.182	-0.38
924.914	0.62
925.646	3.62
926.378	1.62
927.11	0.62
927.841	2.62
928.573	1.62
929.305	1.62
930.036	0.62
930.768	-0.38
931.499	1.62
932.23	1.62
932.962	2.62
933.693	0.62
934.424	1.62
935.155	0.62
935.886	-0.38
936.617	0.62
937.348	-2.38
938.078	0.62
938.809	-0.38
939.54	-0.38
940.27	0.62
941.001	2.62
941.731	2.62
942.461	2.62
943.191	1.62
943.922	3.62
944.652	-0.38
945.382	2.62
946.112	-0.38
946.841	0.62
947.571	-0.38
948.301	0.62
949.031	0.62
949.76	0.62
950.49	0.62
951.219	-1.38
951.948	0.62
952.678	0.62
953.407	1.62
954.136	1.62
954.865	-0.38
955.594	1.62
956.323	1.62
957.052	1.62
957.78	1.62
958.509	1.62
959.238	1.62
959.966	-0.38
960.695	3.62
961.423	2.62
962.151	0.62
962.88	1.62
963.608	0.62
964.336	1.62
965.064	0.62
965.792	1.62
966.52	-0.38
967.247	0.62
967.975	0.62
968.703	-0.38
969.43	0.62
970.158	0.62
970.885	0.62
971.613	2.62
972.34	1.62
973.067	1.62
973.794	1.62
974.521	0.62
975.248	1.62
975.975	0.62
976.702	1.62
977.429	-0.38
978.156	0.62
978.882	-0.38
979.609	-0.38
980.335	0.62
981.062	1.62
981.788	1.62
982.514	-0.38
983.24	3.62
983.967	1.62
984.693	0.62
985.419	1.62
986.144	-0.38
986.87	1.62
987.596	0.62
988.322	3.62
989.047	-0.38
989.773	-0.38
990.498	1.62
991.224	1.62
991.949	-1.38
992.674	1.62
993.399	1.62
994.124	0.62
994.849	-1.38
995.574	2.62
996.299	2.62
997.024	0.62
997.749	1.62
998.473	1.62
999.198	2.62
999.922	-1.38
1000.647	-0.38
1001.371	3.62
1002.095	0.62
1002.82	-2.38
1003.544	-1.38
1004.268	1.62
1004.992	1.62
1005.716	2.62
1006.439	3.62
1007.163	3.62
1007.887	1.62
1008.611	1.62
1009.334	2.62
1010.058	1.62
1010.781	-0.38
1011.504	1.62
1012.228	2.62
1012.951	0.62
1013.674	-0.38
1014.397	-0.38
1015.12	-0.38
