节点500_285_QEPB04081__710__15-07-21-810.txt的数据

Date: Wed Nov 12 15:07:21 CST 2025
User: PC
Spectrometer: QEPB0408
触发模式: 0
积分时间 (秒): 1.000000E-2
Scans to average: 1
启用暗噪声校正: true
启用非线性校正: false
滑动平均宽度: 0
X轴模式: Wavelengths
Number of Pixels in Spectrum: 1044
>>>>>Begin Spectral Data<<<<<
220.843	1.12
221.644	2.12
222.444	1.12
223.244	1.12
224.045	2.12
224.845	2.12
225.645	0.12
226.445	2.12
227.245	-0.88
228.045	4.12
228.845	1.12
229.645	2.12
230.444	4.12
231.244	3.12
232.043	5.12
232.843	4.12
233.642	3.12
234.442	4.12
235.241	3.12
236.04	4.12
236.839	2.12
237.638	3.12
238.437	4.12
239.236	2.12
240.035	5.12
240.833	2.12
241.632	4.12
242.43	2.12
243.229	3.12
244.027	5.12
244.826	4.12
245.624	5.12
246.422	4.12
247.22	5.12
248.018	5.12
248.816	6.12
249.614	6.12
250.412	3.12
251.21	3.12
252.007	4.12
252.805	6.12
253.602	5.12
254.4	6.12
255.197	8.12
255.994	6.12
256.791	7.12
257.589	5.12
258.386	7.12
259.183	7.12
259.979	9.12
260.776	8.12
261.573	9.12
262.37	10.12
263.166	9.12
263.963	10.12
264.759	13.12
265.556	9.12
266.352	10.12
267.148	10.12
267.944	12.12
268.74	12.12
269.536	11.12
270.332	13.12
271.128	14.12
271.924	16.12
272.719	14.12
273.515	15.12
274.311	13.12
275.106	16.12
275.901	16.12
276.697	14.12
277.492	15.12
278.287	13.12
279.082	16.12
279.877	17.12
280.672	14.12
281.467	17.12
282.262	17.12
283.056	16.12
283.851	17.12
284.646	16.12
285.44	16.12
286.234	16.12
287.029	14.12
287.823	18.12
288.617	17.12
289.411	14.12
290.205	18.12
290.999	15.12
291.793	18.12
292.587	17.12
293.381	16.12
294.174	17.12
294.968	15.12
295.761	17.12
296.555	15.12
297.348	14.12
298.141	14.12
298.935	16.12
299.728	17.12
300.521	14.12
301.314	14.12
302.107	15.12
302.899	13.12
303.692	10.12
304.485	12.12
305.277	12.12
306.07	11.12
306.862	13.12
307.655	13.12
308.447	10.12
309.239	12.12
310.031	9.12
310.823	11.12
311.615	13.12
312.407	9.12
313.199	11.12
313.991	10.12
314.783	9.12
315.574	10.12
316.366	7.12
317.157	8.12
317.949	7.12
318.74	10.12
319.531	9.12
320.322	6.12
321.113	4.12
321.904	9.12
322.695	9.12
323.486	7.12
324.277	7.12
325.068	8.12
325.858	7.12
326.649	8.12
327.439	8.12
328.23	8.12
329.02	8.12
329.81	7.12
330.6	5.12
331.391	6.12
332.181	6.12
332.971	6.12
333.76	5.12
334.55	6.12
335.34	6.12
336.13	5.12
336.919	8.12
337.709	7.12
338.498	5.12
339.287	7.12
340.077	6.12
340.866	6.12
341.655	5.12
342.444	5.12
343.233	6.12
344.022	5.12
344.811	5.12
345.6	6.12
346.388	6.12
347.177	6.12
347.965	5.12
348.754	8.12
349.542	6.12
350.33	7.12
351.119	7.12
351.907	6.12
352.695	8.12
353.483	4.12
354.271	5.12
355.059	6.12
355.846	6.12
356.634	6.12
357.422	7.12
358.209	6.12
358.997	7.12
359.784	3.12
360.571	6.12
361.359	7.12
362.146	5.12
362.933	5.12
363.72	7.12
364.507	4.12
365.294	3.12
366.081	4.12
366.867	5.12
367.654	5.12
368.44	3.12
369.227	6.12
370.013	5.12
370.8	4.12
371.586	6.12
372.372	5.12
373.158	5.12
373.944	4.12
374.73	4.12
375.516	6.12
376.302	7.12
377.088	6.12
377.873	4.12
378.659	9.12
379.445	4.12
380.23	5.12
381.015	6.12
381.801	4.12
382.586	4.12
383.371	3.12
384.156	5.12
384.941	3.12
385.726	3.12
386.511	4.12
387.296	4.12
388.08	4.12
388.865	4.12
389.649	6.12
390.434	5.12
391.218	3.12
392.003	7.12
392.787	2.12
393.571	7.12
394.355	7.12
395.139	6.12
395.923	6.12
396.707	9.12
397.491	5.12
398.274	4.12
399.058	7.12
399.842	5.12
400.625	7.12
401.408	7.12
402.192	7.12
402.975	6.12
403.758	6.12
404.541	7.12
405.324	7.12
406.107	7.12
406.89	6.12
407.673	7.12
408.456	10.12
409.238	7.12
410.021	8.12
410.803	8.12
411.586	9.12
412.368	8.12
413.151	6.12
413.933	7.12
414.715	8.12
415.497	7.12
416.279	10.12
417.061	6.12
417.843	10.12
418.624	12.12
419.406	9.12
420.188	8.12
420.969	11.12
421.751	10.12
422.532	11.12
423.313	10.12
424.095	13.12
424.876	11.12
425.657	11.12
426.438	12.12
427.219	14.12
428	11.12
428.78	12.12
429.561	11.12
430.342	14.12
431.122	12.12
431.903	15.12
432.683	14.12
433.464	17.12
434.244	18.12
435.024	14.12
435.804	21.12
436.584	18.12
437.364	18.12
438.144	20.12
438.924	18.12
439.704	23.12
440.483	21.12
441.263	23.12
442.042	26.12
442.822	28.12
443.601	29.12
444.38	32.12
445.16	34.12
445.939	37.12
446.718	42.12
447.497	40.12
448.276	41.12
449.054	49.12
449.833	51.12
450.612	60.12
451.391	60.12
452.169	71.12
452.948	75.12
453.726	84.12
454.504	91.12
455.282	102.12
456.061	108.12
456.839	122.12
457.617	138.12
458.395	151.12
459.172	165.12
459.95	183.12
460.728	202.12
461.506	234.12
462.283	256.12
463.061	282.12
463.838	316.12
464.615	357.12
465.393	395.12
466.17	429.12
466.947	478.12
467.724	527.12
468.501	599.12
469.278	667.12
470.055	734.12
470.831	816.12
471.608	900.12
472.385	996.12
473.161	1100.12
473.938	1203.12
474.714	1329.12
475.49	1449.12
476.266	1609.12
477.043	1762.12
477.819	1934.12
478.595	2121.12
479.371	2340.12
480.146	2558.12
480.922	2801.12
481.698	3076.12
482.473	3358.12
483.249	3669.12
484.024	3982.12
484.8	4365.12
485.575	4769.12
486.35	5199.12
487.126	5655.12
487.901	6164.12
488.676	6731.12
489.451	7311.12
490.225	7944.12
491	8683.12
491.775	9388.12
492.55	10200.12
493.324	11000.12
494.099	11831.12
494.873	12698.12
495.647	13667.12
496.422	14655.12
497.196	15665.12
497.97	16691.12
498.744	17771.12
499.518	18768.12
500.292	19904.12
501.066	20888.12
501.839	21764.12
502.613	22716.12
503.387	23529.12
504.16	24206.12
504.934	24713.12
505.707	25011.12
506.48	25288.12
507.253	25336.12
508.027	25357.12
508.8	25261.12
509.573	25100.12
510.346	24688.12
511.118	24163.12
511.891	23623.12
512.664	23041.12
513.437	22306.12
514.209	21446.12
514.982	20729.12
515.754	19890.12
516.526	19062.12
517.298	18285.12
518.071	17484.12
518.843	16839.12
519.615	16281.12
520.387	15639.12
521.159	14987.12
521.93	14374.12
522.702	13837.12
523.474	13269.12
524.245	12630.12
525.017	12146.12
525.788	11692.12
526.56	11184.12
527.331	10630.12
528.102	10219.12
528.873	9801.12
529.644	9311.12
530.415	8912.12
531.186	8457.12
531.957	8049.12
532.728	7691.12
533.498	7271.12
534.269	6931.12
535.039	6558.12
535.81	6188.12
536.58	5863.12
537.351	5523.12
538.121	5212.12
538.891	4954.12
539.661	4664.12
540.431	4426.12
541.201	4163.12
541.971	3951.12
542.741	3755.12
543.51	3554.12
544.28	3394.12
545.05	3221.12
545.819	3069.12
546.588	2924.12
547.358	2787.12
548.127	2635.12
548.896	2502.12
549.665	2374.12
550.434	2240.12
551.203	2143.12
551.972	2026.12
552.741	1896.12
553.51	1828.12
554.278	1724.12
555.047	1621.12
555.815	1524.12
556.584	1443.12
557.352	1366.12
558.121	1293.12
558.889	1235.12
559.657	1176.12
560.425	1090.12
561.193	1022.12
561.961	977.12
562.729	922.12
563.496	860.12
564.264	822.12
565.032	775.12
565.799	738.12
566.567	697.12
567.334	651.12
568.101	619.12
568.869	580.12
569.636	548.12
570.403	520.12
571.17	479.12
571.937	459.12
572.704	428.12
573.471	415.12
574.237	386.12
575.004	365.12
575.771	338.12
576.537	319.12
577.303	310.12
578.07	293.12
578.836	265.12
579.602	251.12
580.368	242.12
581.134	236.12
581.9	222.12
582.666	210.12
583.432	197.12
584.198	187.12
584.964	175.12
585.729	166.12
586.495	156.12
587.26	151.12
588.025	146.12
588.791	133.12
589.556	131.12
590.321	121.12
591.086	116.12
591.851	109.12
592.616	100.12
593.381	95.12
594.146	93.12
594.911	84.12
595.675	86.12
596.44	77.12
597.204	78.12
597.969	73.12
598.733	68.12
599.497	68.12
600.261	64.12
601.025	58.12
601.79	57.12
602.553	58.12
603.317	52.12
604.081	54.12
604.845	46.12
605.609	45.12
606.372	44.12
607.136	42.12
607.899	42.12
608.662	40.12
609.426	41.12
610.189	37.12
610.952	36.12
611.715	34.12
612.478	33.12
613.241	30.12
614.004	27.12
614.767	27.12
615.529	29.12
616.292	25.12
617.055	27.12
617.817	24.12
618.579	24.12
619.342	25.12
620.104	21.12
620.866	20.12
621.628	20.12
622.39	21.12
623.152	17.12
623.914	19.12
624.676	17.12
625.438	17.12
626.199	18.12
626.961	17.12
627.722	18.12
628.484	12.12
629.245	17.12
630.006	14.12
630.768	14.12
631.529	13.12
632.29	13.12
633.051	12.12
633.812	10.12
634.573	12.12
635.333	13.12
636.094	10.12
636.855	11.12
637.615	12.12
638.376	10.12
639.136	8.12
639.896	10.12
640.657	10.12
641.417	8.12
642.177	10.12
642.937	9.12
643.697	9.12
644.457	7.12
645.216	8.12
645.976	9.12
646.736	9.12
647.495	7.12
648.255	7.12
649.014	7.12
649.774	6.12
650.533	5.12
651.292	9.12
652.051	9.12
652.81	8.12
653.569	6.12
654.328	6.12
655.087	7.12
655.846	7.12
656.604	7.12
657.363	4.12
658.121	8.12
658.88	3.12
659.638	7.12
660.397	5.12
661.155	7.12
661.913	7.12
662.671	8.12
663.429	5.12
664.187	5.12
664.945	4.12
665.703	6.12
666.46	4.12
667.218	6.12
667.976	4.12
668.733	6.12
669.49	5.12
670.248	4.12
671.005	4.12
671.762	5.12
672.519	3.12
673.276	4.12
674.033	5.12
674.79	6.12
675.547	5.12
676.304	4.12
677.06	7.12
677.817	4.12
678.574	4.12
679.33	5.12
680.086	4.12
680.843	3.12
681.599	5.12
682.355	7.12
683.111	3.12
683.867	4.12
684.623	5.12
685.379	5.12
686.135	2.12
686.89	4.12
687.646	2.12
688.402	4.12
689.157	2.12
689.912	1.12
690.668	3.12
691.423	2.12
692.178	3.12
692.933	3.12
693.688	2.12
694.443	3.12
695.198	2.12
695.953	4.12
696.708	5.12
697.462	5.12
698.217	3.12
698.972	3.12
699.726	4.12
700.48	2.12
701.235	5.12
701.989	2.12
702.743	3.12
703.497	6.12
704.251	3.12
705.005	4.12
705.759	2.12
706.513	5.12
707.266	1.12
708.02	5.12
708.774	2.12
709.527	3.12
710.28	3.12
711.034	4.12
711.787	2.12
712.54	4.12
713.293	4.12
714.046	2.12
714.799	1.12
715.552	4.12
716.305	4.12
717.058	5.12
717.81	5.12
718.563	2.12
719.315	4.12
720.068	2.12
720.82	4.12
721.573	5.12
722.325	5.12
723.077	5.12
723.829	4.12
724.581	5.12
725.333	0.12
726.085	4.12
726.836	2.12
727.588	2.12
728.34	3.12
729.091	3.12
729.843	2.12
730.594	3.12
731.346	2.12
732.097	3.12
732.848	3.12
733.599	3.12
734.35	3.12
735.101	4.12
735.852	3.12
736.603	4.12
737.354	5.12
738.104	2.12
738.855	5.12
739.605	5.12
740.356	5.12
741.106	5.12
741.856	5.12
742.607	3.12
743.357	4.12
744.107	3.12
744.857	5.12
745.607	6.12
746.357	4.12
747.106	4.12
747.856	5.12
748.606	3.12
749.355	2.12
750.105	5.12
750.854	6.12
751.603	3.12
752.353	5.12
753.102	4.12
753.851	3.12
754.6	6.12
755.349	5.12
756.098	6.12
756.847	5.12
757.595	5.12
758.344	5.12
759.093	4.12
759.841	5.12
760.589	7.12
761.338	6.12
762.086	6.12
762.834	8.12
763.582	6.12
764.331	3.12
765.079	8.12
765.826	7.12
766.574	7.12
767.322	9.12
768.07	6.12
768.817	6.12
769.565	7.12
770.312	10.12
771.06	6.12
771.807	8.12
772.554	7.12
773.302	6.12
774.049	9.12
774.796	7.12
775.543	6.12
776.29	10.12
777.036	9.12
777.783	6.12
778.53	6.12
779.276	8.12
780.023	7.12
780.769	9.12
781.516	9.12
782.262	7.12
783.008	6.12
783.754	7.12
784.5	9.12
785.246	8.12
785.992	5.12
786.738	8.12
787.484	10.12
788.23	7.12
788.975	7.12
789.721	8.12
790.466	8.12
791.212	8.12
791.957	7.12
792.702	8.12
793.447	10.12
794.193	8.12
794.938	8.12
795.683	7.12
796.427	6.12
797.172	10.12
797.917	5.12
798.662	6.12
799.406	8.12
800.151	5.12
800.895	10.12
801.64	6.12
802.384	10.12
803.128	9.12
803.872	6.12
804.616	5.12
805.36	7.12
806.104	5.12
806.848	5.12
807.592	7.12
808.336	7.12
809.079	6.12
809.823	6.12
810.566	4.12
811.31	4.12
812.053	3.12
812.796	6.12
813.539	5.12
814.283	5.12
815.026	4.12
815.769	7.12
816.511	6.12
817.254	4.12
817.997	7.12
818.74	3.12
819.482	6.12
820.225	5.12
820.967	3.12
821.71	4.12
822.452	1.12
823.194	5.12
823.936	4.12
824.678	2.12
825.42	3.12
826.162	5.12
826.904	2.12
827.646	2.12
828.388	5.12
829.129	5.12
829.871	3.12
830.612	5.12
831.354	6.12
832.095	2.12
832.836	3.12
833.577	3.12
834.319	3.12
835.06	2.12
835.801	2.12
836.542	3.12
837.282	2.12
838.023	4.12
838.764	5.12
839.504	2.12
840.245	4.12
840.985	2.12
841.726	5.12
842.466	5.12
843.206	3.12
843.946	1.12
844.687	4.12
845.427	1.12
846.166	2.12
846.906	2.12
847.646	2.12
848.386	2.12
849.125	2.12
849.865	4.12
850.605	4.12
851.344	4.12
852.083	2.12
852.823	2.12
853.562	2.12
854.301	3.12
855.04	4.12
855.779	2.12
856.518	0.12
857.257	2.12
857.995	4.12
858.734	2.12
859.473	0.12
860.211	2.12
860.95	2.12
861.688	3.12
862.426	1.12
863.165	2.12
863.903	4.12
864.641	0.12
865.379	2.12
866.117	1.12
866.855	2.12
867.593	2.12
868.33	2.12
869.068	3.12
869.806	-0.88
870.543	1.12
871.28	0.12
872.018	2.12
872.755	1.12
873.492	2.12
874.229	2.12
874.967	2.12
875.703	2.12
876.44	2.12
877.177	2.12
877.914	1.12
878.651	1.12
879.387	0.12
880.124	1.12
880.86	2.12
881.597	1.12
882.333	1.12
883.069	0.12
883.806	1.12
884.542	2.12
885.278	0.12
886.014	-1.88
886.749	2.12
887.485	1.12
888.221	-1.88
888.957	2.12
889.692	2.12
890.428	1.12
891.163	3.12
891.899	-0.88
892.634	1.12
893.369	-1.88
894.104	1.12
894.839	1.12
895.574	0.12
896.309	1.12
897.044	0.12
897.779	-0.88
898.514	-1.88
899.248	0.12
899.983	1.12
900.717	-1.88
901.452	1.12
902.186	0.12
902.92	0.12
903.654	0.12
904.389	1.12
905.123	2.12
905.857	-0.88
906.59	1.12
907.324	2.12
908.058	-1.88
908.792	2.12
909.525	-1.88
910.259	3.12
910.992	1.12
911.726	1.12
912.459	0.12
913.192	1.12
913.925	1.12
914.658	0.12
915.391	0.12
916.124	2.12
916.857	-1.88
917.59	1.12
918.323	0.12
919.055	-0.88
919.788	1.12
920.521	2.12
921.253	3.12
921.985	-1.88
922.718	0.12
923.45	0.12
924.182	1.12
924.914	2.12
925.646	1.12
926.378	0.12
927.11	-0.88
927.841	-0.88
928.573	-0.88
929.305	0.12
930.036	1.12
930.768	1.12
931.499	0.12
932.23	0.12
932.962	1.12
933.693	1.12
934.424	1.12
935.155	0.12
935.886	0.12
936.617	0.12
937.348	-0.88
938.078	-0.88
938.809	0.12
939.54	0.12
940.27	2.12
941.001	0.12
941.731	-0.88
942.461	-1.88
943.191	-1.88
943.922	1.12
944.652	3.12
945.382	-1.88
946.112	2.12
946.841	-1.88
947.571	-0.88
948.301	0.12
949.031	-0.88
949.76	0.12
950.49	0.12
951.219	-0.88
951.948	0.12
952.678	-1.88
953.407	-1.88
954.136	1.12
954.865	1.12
955.594	0.12
956.323	-1.88
957.052	1.12
957.78	0.12
958.509	0.12
959.238	1.12
959.966	0.12
960.695	1.12
961.423	1.12
962.151	-0.88
962.88	1.12
963.608	2.12
964.336	0.12
965.064	1.12
965.792	0.12
966.52	0.12
967.247	0.12
967.975	0.12
968.703	0.12
969.43	-0.88
970.158	-1.88
970.885	-1.88
971.613	1.12
972.34	2.12
973.067	1.12
973.794	-0.88
974.521	2.12
975.248	0.12
975.975	0.12
976.702	1.12
977.429	-0.88
978.156	1.12
978.882	0.12
979.609	1.12
980.335	-0.88
981.062	1.12
981.788	-0.88
982.514	-1.88
983.24	1.12
983.967	-1.88
984.693	2.12
985.419	1.12
986.144	0.12
986.87	-1.88
987.596	-1.88
988.322	2.12
989.047	2.12
989.773	1.12
990.498	-0.88
991.224	0.12
991.949	0.12
992.674	1.12
993.399	1.12
994.124	-1.88
994.849	0.12
995.574	-0.88
996.299	1.12
997.024	2.12
997.749	0.12
998.473	-0.88
999.198	2.12
999.922	0.12
1000.647	-0.88
1001.371	3.12
1002.095	0.12
1002.82	-2.88
1003.544	-0.88
1004.268	4.12
1004.992	0.12
1005.716	2.12
1006.439	3.12
1007.163	0.12
1007.887	0.12
1008.611	-0.88
1009.334	1.12
1010.058	2.12
1010.781	2.12
1011.504	0.12
1012.228	-1.88
1012.951	0.12
1013.674	1.12
1014.397	-0.88
1015.12	0.12
