节点500_285_QEPB04081__273__15-00-05-814.txt的数据

Date: Wed Nov 12 15:00:05 CST 2025
User: PC
Spectrometer: QEPB0408
触发模式: 0
积分时间 (秒): 1.000000E-2
Scans to average: 1
启用暗噪声校正: true
启用非线性校正: false
滑动平均宽度: 0
X轴模式: Wavelengths
Number of Pixels in Spectrum: 1044
>>>>>Begin Spectral Data<<<<<
220.843	2.12
221.644	1.12
222.444	3.12
223.244	1.12
224.045	4.12
224.845	1.12
225.645	1.12
226.445	3.12
227.245	2.12
228.045	5.12
228.845	6.12
229.645	3.12
230.444	3.12
231.244	4.12
232.043	4.12
232.843	1.12
233.642	5.12
234.442	3.12
235.241	5.12
236.04	4.12
236.839	5.12
237.638	4.12
238.437	5.12
239.236	5.12
240.035	6.12
240.833	6.12
241.632	4.12
242.43	4.12
243.229	6.12
244.027	4.12
244.826	7.12
245.624	9.12
246.422	6.12
247.22	5.12
248.018	4.12
248.816	7.12
249.614	9.12
250.412	9.12
251.21	6.12
252.007	7.12
252.805	9.12
253.602	8.12
254.4	11.12
255.197	8.12
255.994	8.12
256.791	9.12
257.589	10.12
258.386	10.12
259.183	10.12
259.979	12.12
260.776	10.12
261.573	12.12
262.37	12.12
263.166	10.12
263.963	13.12
264.759	11.12
265.556	11.12
266.352	14.12
267.148	13.12
267.944	14.12
268.74	17.12
269.536	14.12
270.332	15.12
271.128	18.12
271.924	19.12
272.719	14.12
273.515	16.12
274.311	17.12
275.106	15.12
275.901	18.12
276.697	21.12
277.492	17.12
278.287	17.12
279.082	18.12
279.877	20.12
280.672	18.12
281.467	18.12
282.262	20.12
283.056	17.12
283.851	19.12
284.646	18.12
285.44	18.12
286.234	21.12
287.029	18.12
287.823	19.12
288.617	20.12
289.411	17.12
290.205	17.12
290.999	20.12
291.793	17.12
292.587	19.12
293.381	18.12
294.174	15.12
294.968	15.12
295.761	17.12
296.555	18.12
297.348	14.12
298.141	16.12
298.935	17.12
299.728	16.12
300.521	15.12
301.314	15.12
302.107	14.12
302.899	16.12
303.692	13.12
304.485	13.12
305.277	14.12
306.07	14.12
306.862	14.12
307.655	12.12
308.447	12.12
309.239	12.12
310.031	10.12
310.823	12.12
311.615	11.12
312.407	13.12
313.199	11.12
313.991	10.12
314.783	10.12
315.574	7.12
316.366	7.12
317.157	9.12
317.949	8.12
318.74	9.12
319.531	8.12
320.322	8.12
321.113	6.12
321.904	8.12
322.695	10.12
323.486	7.12
324.277	7.12
325.068	7.12
325.858	10.12
326.649	8.12
327.439	7.12
328.23	6.12
329.02	6.12
329.81	6.12
330.6	7.12
331.391	4.12
332.181	5.12
332.971	8.12
333.76	7.12
334.55	8.12
335.34	2.12
336.13	7.12
336.919	7.12
337.709	6.12
338.498	6.12
339.287	5.12
340.077	7.12
340.866	6.12
341.655	8.12
342.444	5.12
343.233	4.12
344.022	6.12
344.811	8.12
345.6	7.12
346.388	7.12
347.177	7.12
347.965	9.12
348.754	7.12
349.542	8.12
350.33	7.12
351.119	8.12
351.907	4.12
352.695	7.12
353.483	8.12
354.271	7.12
355.059	5.12
355.846	5.12
356.634	7.12
357.422	5.12
358.209	5.12
358.997	6.12
359.784	5.12
360.571	7.12
361.359	4.12
362.146	7.12
362.933	4.12
363.72	6.12
364.507	6.12
365.294	2.12
366.081	6.12
366.867	5.12
367.654	5.12
368.44	5.12
369.227	6.12
370.013	5.12
370.8	4.12
371.586	6.12
372.372	8.12
373.158	5.12
373.944	4.12
374.73	6.12
375.516	7.12
376.302	6.12
377.088	6.12
377.873	6.12
378.659	5.12
379.445	5.12
380.23	5.12
381.015	5.12
381.801	5.12
382.586	4.12
383.371	7.12
384.156	5.12
384.941	5.12
385.726	7.12
386.511	5.12
387.296	6.12
388.08	6.12
388.865	6.12
389.649	8.12
390.434	7.12
391.218	7.12
392.003	6.12
392.787	7.12
393.571	5.12
394.355	8.12
395.139	5.12
395.923	4.12
396.707	7.12
397.491	6.12
398.274	8.12
399.058	8.12
399.842	9.12
400.625	7.12
401.408	9.12
402.192	8.12
402.975	9.12
403.758	10.12
404.541	9.12
405.324	5.12
406.107	8.12
406.89	8.12
407.673	9.12
408.456	7.12
409.238	10.12
410.021	9.12
410.803	9.12
411.586	12.12
412.368	9.12
413.151	10.12
413.933	9.12
414.715	10.12
415.497	10.12
416.279	9.12
417.061	9.12
417.843	7.12
418.624	10.12
419.406	11.12
420.188	9.12
420.969	11.12
421.751	9.12
422.532	13.12
423.313	11.12
424.095	11.12
424.876	14.12
425.657	13.12
426.438	12.12
427.219	13.12
428	15.12
428.78	12.12
429.561	14.12
430.342	14.12
431.122	13.12
431.903	17.12
432.683	14.12
433.464	16.12
434.244	18.12
435.024	16.12
435.804	16.12
436.584	20.12
437.364	16.12
438.144	20.12
438.924	23.12
439.704	23.12
440.483	22.12
441.263	23.12
442.042	24.12
442.822	26.12
443.601	31.12
444.38	26.12
445.16	31.12
445.939	32.12
446.718	37.12
447.497	38.12
448.276	41.12
449.054	47.12
449.833	45.12
450.612	49.12
451.391	55.12
452.169	59.12
452.948	69.12
453.726	74.12
454.504	80.12
455.282	89.12
456.061	96.12
456.839	107.12
457.617	117.12
458.395	134.12
459.172	149.12
459.95	163.12
460.728	179.12
461.506	206.12
462.283	227.12
463.061	251.12
463.838	280.12
464.615	322.12
465.393	348.12
466.17	384.12
466.947	441.12
467.724	493.12
468.501	539.12
469.278	619.12
470.055	677.12
470.831	757.12
471.608	849.12
472.385	946.12
473.161	1040.12
473.938	1155.12
474.714	1297.12
475.49	1422.12
476.266	1558.12
477.043	1745.12
477.819	1913.12
478.595	2121.12
479.371	2333.12
480.146	2588.12
480.922	2882.12
481.698	3158.12
482.473	3499.12
483.249	3836.12
484.024	4236.12
484.8	4629.12
485.575	5120.12
486.35	5653.12
487.126	6192.12
487.901	6811.12
488.676	7458.12
489.451	8220.12
490.225	8922.12
491	9794.12
491.775	10643.12
492.55	11615.12
493.324	12671.12
494.099	13612.12
494.873	14714.12
495.647	15888.12
496.422	17062.12
497.196	18231.12
497.97	19422.12
498.744	20639.12
499.518	21893.12
500.292	22960.12
501.066	24059.12
501.839	25047.12
502.613	25944.12
503.387	26722.12
504.16	27285.12
504.934	27614.12
505.707	27743.12
506.48	27760.12
507.253	27582.12
508.027	27304.12
508.8	26988.12
509.573	26526.12
510.346	25823.12
511.118	25077.12
511.891	24245.12
512.664	23396.12
513.437	22448.12
514.209	21568.12
514.982	20635.12
515.754	19695.12
516.526	18877.12
517.298	17955.12
518.071	17211.12
518.843	16526.12
519.615	15881.12
520.387	15319.12
521.159	14668.12
521.93	14115.12
522.702	13551.12
523.474	12942.12
524.245	12357.12
525.017	11870.12
525.788	11461.12
526.56	10890.12
527.331	10366.12
528.102	9937.12
528.873	9472.12
529.644	8967.12
530.415	8559.12
531.186	8107.12
531.957	7698.12
532.728	7281.12
533.498	6909.12
534.269	6488.12
535.039	6148.12
535.81	5848.12
536.58	5489.12
537.351	5154.12
538.121	4911.12
538.891	4613.12
539.661	4384.12
540.431	4115.12
541.201	3893.12
541.971	3713.12
542.741	3488.12
543.51	3344.12
544.28	3146.12
545.05	3030.12
545.819	2850.12
546.588	2724.12
547.358	2578.12
548.127	2466.12
548.896	2338.12
549.665	2216.12
550.434	2110.12
551.203	1988.12
551.972	1868.12
552.741	1781.12
553.51	1694.12
554.278	1580.12
555.047	1482.12
555.815	1412.12
556.584	1333.12
557.352	1242.12
558.121	1194.12
558.889	1112.12
559.657	1065.12
560.425	990.12
561.193	929.12
561.961	886.12
562.729	844.12
563.496	790.12
564.264	752.12
565.032	710.12
565.799	671.12
566.567	632.12
567.334	601.12
568.101	566.12
568.869	543.12
569.636	497.12
570.403	471.12
571.17	443.12
571.937	423.12
572.704	400.12
573.471	376.12
574.237	352.12
575.004	341.12
575.771	313.12
576.537	299.12
577.303	277.12
578.07	266.12
578.836	247.12
579.602	236.12
580.368	215.12
581.134	212.12
581.9	198.12
582.666	184.12
583.432	182.12
584.198	166.12
584.964	157.12
585.729	152.12
586.495	146.12
587.26	135.12
588.025	132.12
588.791	121.12
589.556	114.12
590.321	113.12
591.086	102.12
591.851	104.12
592.616	95.12
593.381	87.12
594.146	86.12
594.911	85.12
595.675	79.12
596.44	75.12
597.204	73.12
597.969	69.12
598.733	68.12
599.497	67.12
600.261	62.12
601.025	53.12
601.79	52.12
602.553	52.12
603.317	49.12
604.081	44.12
604.845	44.12
605.609	46.12
606.372	43.12
607.136	40.12
607.899	39.12
608.662	40.12
609.426	37.12
610.189	34.12
610.952	34.12
611.715	33.12
612.478	32.12
613.241	29.12
614.004	30.12
614.767	28.12
615.529	24.12
616.292	28.12
617.055	24.12
617.817	26.12
618.579	23.12
619.342	21.12
620.104	21.12
620.866	22.12
621.628	21.12
622.39	21.12
623.152	18.12
623.914	18.12
624.676	16.12
625.438	18.12
626.199	15.12
626.961	18.12
627.722	16.12
628.484	15.12
629.245	13.12
630.006	14.12
630.768	15.12
631.529	13.12
632.29	12.12
633.051	12.12
633.812	12.12
634.573	14.12
635.333	13.12
636.094	12.12
636.855	10.12
637.615	10.12
638.376	8.12
639.136	10.12
639.896	9.12
640.657	8.12
641.417	8.12
642.177	8.12
642.937	8.12
643.697	9.12
644.457	8.12
645.216	7.12
645.976	12.12
646.736	8.12
647.495	7.12
648.255	7.12
649.014	6.12
649.774	8.12
650.533	7.12
651.292	7.12
652.051	7.12
652.81	9.12
653.569	6.12
654.328	8.12
655.087	6.12
655.846	10.12
656.604	7.12
657.363	6.12
658.121	7.12
658.88	8.12
659.638	7.12
660.397	7.12
661.155	6.12
661.913	7.12
662.671	4.12
663.429	6.12
664.187	9.12
664.945	5.12
665.703	4.12
666.46	6.12
667.218	4.12
667.976	3.12
668.733	8.12
669.49	4.12
670.248	4.12
671.005	3.12
671.762	4.12
672.519	6.12
673.276	6.12
674.033	6.12
674.79	2.12
675.547	7.12
676.304	4.12
677.06	4.12
677.817	5.12
678.574	4.12
679.33	6.12
680.086	5.12
680.843	4.12
681.599	6.12
682.355	5.12
683.111	2.12
683.867	5.12
684.623	3.12
685.379	6.12
686.135	4.12
686.89	5.12
687.646	5.12
688.402	4.12
689.157	5.12
689.912	4.12
690.668	3.12
691.423	4.12
692.178	3.12
692.933	5.12
693.688	7.12
694.443	2.12
695.198	2.12
695.953	6.12
696.708	2.12
697.462	4.12
698.217	3.12
698.972	5.12
699.726	5.12
700.48	4.12
701.235	5.12
701.989	2.12
702.743	4.12
703.497	4.12
704.251	5.12
705.005	6.12
705.759	5.12
706.513	4.12
707.266	5.12
708.02	2.12
708.774	5.12
709.527	7.12
710.28	3.12
711.034	2.12
711.787	5.12
712.54	6.12
713.293	5.12
714.046	4.12
714.799	2.12
715.552	4.12
716.305	4.12
717.058	5.12
717.81	4.12
718.563	3.12
719.315	3.12
720.068	3.12
720.82	4.12
721.573	4.12
722.325	3.12
723.077	6.12
723.829	4.12
724.581	3.12
725.333	6.12
726.085	4.12
726.836	2.12
727.588	6.12
728.34	3.12
729.091	4.12
729.843	4.12
730.594	5.12
731.346	6.12
732.097	6.12
732.848	3.12
733.599	5.12
734.35	7.12
735.101	3.12
735.852	5.12
736.603	3.12
737.354	4.12
738.104	4.12
738.855	5.12
739.605	4.12
740.356	5.12
741.106	4.12
741.856	7.12
742.607	5.12
743.357	6.12
744.107	6.12
744.857	6.12
745.607	5.12
746.357	6.12
747.106	6.12
747.856	5.12
748.606	2.12
749.355	6.12
750.105	6.12
750.854	6.12
751.603	5.12
752.353	5.12
753.102	5.12
753.851	7.12
754.6	5.12
755.349	7.12
756.098	5.12
756.847	5.12
757.595	8.12
758.344	7.12
759.093	7.12
759.841	7.12
760.589	6.12
761.338	9.12
762.086	7.12
762.834	9.12
763.582	5.12
764.331	6.12
765.079	10.12
765.826	6.12
766.574	5.12
767.322	9.12
768.07	8.12
768.817	10.12
769.565	9.12
770.312	7.12
771.06	9.12
771.807	9.12
772.554	8.12
773.302	10.12
774.049	8.12
774.796	9.12
775.543	9.12
776.29	13.12
777.036	8.12
777.783	9.12
778.53	8.12
779.276	8.12
780.023	9.12
780.769	8.12
781.516	7.12
782.262	11.12
783.008	10.12
783.754	11.12
784.5	9.12
785.246	10.12
785.992	10.12
786.738	8.12
787.484	11.12
788.23	7.12
788.975	9.12
789.721	12.12
790.466	9.12
791.212	11.12
791.957	14.12
792.702	7.12
793.447	7.12
794.193	8.12
794.938	8.12
795.683	10.12
796.427	9.12
797.172	9.12
797.917	8.12
798.662	9.12
799.406	11.12
800.151	6.12
800.895	7.12
801.64	8.12
802.384	8.12
803.128	8.12
803.872	4.12
804.616	7.12
805.36	8.12
806.104	7.12
806.848	9.12
807.592	5.12
808.336	6.12
809.079	6.12
809.823	7.12
810.566	5.12
811.31	5.12
812.053	9.12
812.796	7.12
813.539	7.12
814.283	5.12
815.026	5.12
815.769	8.12
816.511	4.12
817.254	8.12
817.997	5.12
818.74	6.12
819.482	5.12
820.225	3.12
820.967	5.12
821.71	3.12
822.452	7.12
823.194	5.12
823.936	6.12
824.678	4.12
825.42	2.12
826.162	7.12
826.904	6.12
827.646	6.12
828.388	5.12
829.129	4.12
829.871	5.12
830.612	5.12
831.354	8.12
832.095	3.12
832.836	4.12
833.577	3.12
834.319	5.12
835.06	5.12
835.801	5.12
836.542	3.12
837.282	5.12
838.023	5.12
838.764	2.12
839.504	3.12
840.245	4.12
840.985	5.12
841.726	6.12
842.466	3.12
843.206	2.12
843.946	5.12
844.687	2.12
845.427	4.12
846.166	3.12
846.906	3.12
847.646	3.12
848.386	3.12
849.125	2.12
849.865	3.12
850.605	5.12
851.344	6.12
852.083	3.12
852.823	5.12
853.562	2.12
854.301	5.12
855.04	2.12
855.779	5.12
856.518	1.12
857.257	3.12
857.995	2.12
858.734	5.12
859.473	6.12
860.211	3.12
860.95	5.12
861.688	2.12
862.426	0.12
863.165	2.12
863.903	1.12
864.641	0.12
865.379	1.12
866.117	4.12
866.855	3.12
867.593	2.12
868.33	5.12
869.068	2.12
869.806	4.12
870.543	1.12
871.28	1.12
872.018	3.12
872.755	1.12
873.492	-1.88
874.229	2.12
874.967	3.12
875.703	1.12
876.44	1.12
877.177	4.12
877.914	-0.88
878.651	2.12
879.387	0.12
880.124	1.12
880.86	2.12
881.597	3.12
882.333	3.12
883.069	1.12
883.806	2.12
884.542	2.12
885.278	2.12
886.014	0.12
886.749	2.12
887.485	3.12
888.221	2.12
888.957	2.12
889.692	0.12
890.428	-0.88
891.163	2.12
891.899	2.12
892.634	1.12
893.369	0.12
894.104	1.12
894.839	0.12
895.574	0.12
896.309	0.12
897.044	-0.88
897.779	3.12
898.514	0.12
899.248	-0.88
899.983	1.12
900.717	-1.88
901.452	1.12
902.186	0.12
902.92	0.12
903.654	-0.88
904.389	-0.88
905.123	2.12
905.857	0.12
906.59	2.12
907.324	1.12
908.058	0.12
908.792	0.12
909.525	1.12
910.259	4.12
910.992	1.12
911.726	2.12
912.459	0.12
913.192	-1.88
913.925	1.12
914.658	0.12
915.391	1.12
916.124	-0.88
916.857	1.12
917.59	2.12
918.323	1.12
919.055	0.12
919.788	0.12
920.521	1.12
921.253	2.12
921.985	0.12
922.718	2.12
923.45	1.12
924.182	1.12
924.914	1.12
925.646	0.12
926.378	1.12
927.11	-1.88
927.841	0.12
928.573	0.12
929.305	2.12
930.036	1.12
930.768	2.12
931.499	-1.88
932.23	0.12
932.962	2.12
933.693	1.12
934.424	1.12
935.155	0.12
935.886	0.12
936.617	0.12
937.348	0.12
938.078	-0.88
938.809	1.12
939.54	1.12
940.27	1.12
941.001	1.12
941.731	1.12
942.461	0.12
943.191	0.12
943.922	-1.88
944.652	-0.88
945.382	1.12
946.112	1.12
946.841	0.12
947.571	0.12
948.301	3.12
949.031	3.12
949.76	-0.88
950.49	0.12
951.219	0.12
951.948	3.12
952.678	0.12
953.407	0.12
954.136	2.12
954.865	1.12
955.594	1.12
956.323	2.12
957.052	1.12
957.78	1.12
958.509	2.12
959.238	1.12
959.966	-0.88
960.695	1.12
961.423	2.12
962.151	0.12
962.88	1.12
963.608	2.12
964.336	-0.88
965.064	0.12
965.792	0.12
966.52	0.12
967.247	3.12
967.975	-0.88
968.703	0.12
969.43	3.12
970.158	0.12
970.885	-0.88
971.613	0.12
972.34	-0.88
973.067	-0.88
973.794	0.12
974.521	2.12
975.248	0.12
975.975	1.12
976.702	1.12
977.429	0.12
978.156	2.12
978.882	-0.88
979.609	1.12
980.335	0.12
981.062	2.12
981.788	1.12
982.514	0.12
983.24	2.12
983.967	2.12
984.693	1.12
985.419	2.12
986.144	0.12
986.87	1.12
987.596	-1.88
988.322	1.12
989.047	2.12
989.773	2.12
990.498	3.12
991.224	2.12
991.949	-0.88
992.674	3.12
993.399	0.12
994.124	3.12
994.849	2.12
995.574	1.12
996.299	-0.88
997.024	0.12
997.749	0.12
998.473	0.12
999.198	0.12
999.922	0.12
1000.647	1.12
1001.371	5.12
1002.095	-1.88
1002.82	0.12
1003.544	-1.88
1004.268	1.12
1004.992	3.12
1005.716	-0.88
1006.439	2.12
1007.163	4.12
1007.887	3.12
1008.611	1.12
1009.334	0.12
1010.058	2.12
1010.781	0.12
1011.504	0.12
1012.228	1.12
1012.951	-0.88
1013.674	0.12
1014.397	-0.88
1015.12	0.12
