节点500_285_QEPB04081__363__15-01-35-667.txt的数据

Date: Wed Nov 12 15:01:35 CST 2025
User: PC
Spectrometer: QEPB0408
触发模式: 0
积分时间 (秒): 1.000000E-2
Scans to average: 1
启用暗噪声校正: true
启用非线性校正: false
滑动平均宽度: 0
X轴模式: Wavelengths
Number of Pixels in Spectrum: 1044
>>>>>Begin Spectral Data<<<<<
220.843	2.88
221.644	2.88
222.444	1.88
223.244	1.88
224.045	0.88
224.845	1.88
225.645	0.88
226.445	1.88
227.245	0.88
228.045	2.88
228.845	2.88
229.645	3.88
230.444	3.88
231.244	2.88
232.043	2.88
232.843	2.88
233.642	2.88
234.442	1.88
235.241	2.88
236.04	3.88
236.839	1.88
237.638	3.88
238.437	3.88
239.236	3.88
240.035	3.88
240.833	4.88
241.632	3.88
242.43	4.88
243.229	7.88
244.027	6.88
244.826	1.88
245.624	2.88
246.422	4.88
247.22	5.88
248.018	3.88
248.816	4.88
249.614	5.88
250.412	4.88
251.21	6.88
252.007	3.88
252.805	6.88
253.602	5.88
254.4	7.88
255.197	8.88
255.994	5.88
256.791	7.88
257.589	8.88
258.386	9.88
259.183	8.88
259.979	10.88
260.776	6.88
261.573	8.88
262.37	9.88
263.166	8.88
263.963	9.88
264.759	10.88
265.556	11.88
266.352	12.88
267.148	10.88
267.944	13.88
268.74	11.88
269.536	11.88
270.332	11.88
271.128	12.88
271.924	12.88
272.719	13.88
273.515	16.88
274.311	15.88
275.106	15.88
275.901	15.88
276.697	16.88
277.492	19.88
278.287	16.88
279.082	16.88
279.877	17.88
280.672	16.88
281.467	14.88
282.262	13.88
283.056	17.88
283.851	17.88
284.646	16.88
285.44	16.88
286.234	12.88
287.029	16.88
287.823	16.88
288.617	16.88
289.411	16.88
290.205	17.88
290.999	17.88
291.793	17.88
292.587	19.88
293.381	16.88
294.174	17.88
294.968	17.88
295.761	12.88
296.555	15.88
297.348	9.88
298.141	12.88
298.935	16.88
299.728	13.88
300.521	10.88
301.314	13.88
302.107	9.88
302.899	8.88
303.692	13.88
304.485	11.88
305.277	11.88
306.07	12.88
306.862	10.88
307.655	10.88
308.447	11.88
309.239	13.88
310.031	9.88
310.823	11.88
311.615	8.88
312.407	9.88
313.199	8.88
313.991	6.88
314.783	8.88
315.574	7.88
316.366	4.88
317.157	8.88
317.949	7.88
318.74	8.88
319.531	6.88
320.322	6.88
321.113	5.88
321.904	10.88
322.695	9.88
323.486	6.88
324.277	8.88
325.068	5.88
325.858	5.88
326.649	7.88
327.439	7.88
328.23	6.88
329.02	3.88
329.81	5.88
330.6	5.88
331.391	6.88
332.181	7.88
332.971	5.88
333.76	6.88
334.55	8.88
335.34	5.88
336.13	5.88
336.919	6.88
337.709	3.88
338.498	4.88
339.287	7.88
340.077	6.88
340.866	5.88
341.655	4.88
342.444	4.88
343.233	3.88
344.022	6.88
344.811	4.88
345.6	4.88
346.388	6.88
347.177	6.88
347.965	3.88
348.754	6.88
349.542	5.88
350.33	7.88
351.119	6.88
351.907	6.88
352.695	6.88
353.483	5.88
354.271	2.88
355.059	5.88
355.846	5.88
356.634	6.88
357.422	4.88
358.209	5.88
358.997	3.88
359.784	4.88
360.571	4.88
361.359	4.88
362.146	3.88
362.933	3.88
363.72	5.88
364.507	5.88
365.294	4.88
366.081	5.88
366.867	4.88
367.654	4.88
368.44	5.88
369.227	4.88
370.013	4.88
370.8	6.88
371.586	3.88
372.372	4.88
373.158	4.88
373.944	5.88
374.73	5.88
375.516	4.88
376.302	2.88
377.088	5.88
377.873	6.88
378.659	3.88
379.445	4.88
380.23	3.88
381.015	4.88
381.801	3.88
382.586	6.88
383.371	3.88
384.156	5.88
384.941	6.88
385.726	3.88
386.511	5.88
387.296	3.88
388.08	5.88
388.865	3.88
389.649	3.88
390.434	4.88
391.218	4.88
392.003	7.88
392.787	4.88
393.571	5.88
394.355	6.88
395.139	6.88
395.923	6.88
396.707	5.88
397.491	6.88
398.274	4.88
399.058	6.88
399.842	5.88
400.625	3.88
401.408	7.88
402.192	7.88
402.975	5.88
403.758	5.88
404.541	5.88
405.324	6.88
406.107	7.88
406.89	6.88
407.673	7.88
408.456	6.88
409.238	7.88
410.021	6.88
410.803	8.88
411.586	5.88
412.368	10.88
413.151	7.88
413.933	9.88
414.715	8.88
415.497	8.88
416.279	6.88
417.061	8.88
417.843	9.88
418.624	9.88
419.406	8.88
420.188	10.88
420.969	7.88
421.751	9.88
422.532	10.88
423.313	11.88
424.095	8.88
424.876	10.88
425.657	9.88
426.438	11.88
427.219	12.88
428	9.88
428.78	12.88
429.561	13.88
430.342	11.88
431.122	11.88
431.903	14.88
432.683	11.88
433.464	12.88
434.244	13.88
435.024	12.88
435.804	14.88
436.584	20.88
437.364	17.88
438.144	18.88
438.924	21.88
439.704	18.88
440.483	22.88
441.263	21.88
442.042	22.88
442.822	24.88
443.601	23.88
444.38	26.88
445.16	26.88
445.939	32.88
446.718	32.88
447.497	35.88
448.276	36.88
449.054	42.88
449.833	41.88
450.612	46.88
451.391	52.88
452.169	60.88
452.948	63.88
453.726	68.88
454.504	71.88
455.282	81.88
456.061	86.88
456.839	98.88
457.617	108.88
458.395	129.88
459.172	138.88
459.95	154.88
460.728	176.88
461.506	191.88
462.283	214.88
463.061	235.88
463.838	270.88
464.615	298.88
465.393	328.88
466.17	373.88
466.947	421.88
467.724	456.88
468.501	519.88
469.278	570.88
470.055	632.88
470.831	712.88
471.608	786.88
472.385	892.88
473.161	977.88
473.938	1078.88
474.714	1196.88
475.49	1306.88
476.266	1451.88
477.043	1608.88
477.819	1791.88
478.595	1964.88
479.371	2171.88
480.146	2389.88
480.922	2623.88
481.698	2925.88
482.473	3203.88
483.249	3499.88
484.024	3887.88
484.8	4240.88
485.575	4653.88
486.35	5115.88
487.126	5639.88
487.901	6155.88
488.676	6749.88
489.451	7418.88
490.225	8071.88
491	8829.88
491.775	9684.88
492.55	10512.88
493.324	11411.88
494.099	12283.88
494.873	13203.88
495.647	14224.88
496.422	15323.88
497.196	16411.88
497.97	17503.88
498.744	18603.88
499.518	19650.88
500.292	20728.88
501.066	21682.88
501.839	22579.88
502.613	23422.88
503.387	24210.88
504.16	24714.88
504.934	25026.88
505.707	25234.88
506.48	25322.88
507.253	25198.88
508.027	24977.88
508.8	24722.88
509.573	24240.88
510.346	23777.88
511.118	23069.88
511.891	22295.88
512.664	21551.88
513.437	20669.88
514.209	19845.88
514.982	19068.88
515.754	18191.88
516.526	17431.88
517.298	16621.88
518.071	15944.88
518.843	15298.88
519.615	14784.88
520.387	14171.88
521.159	13631.88
521.93	13015.88
522.702	12541.88
523.474	12054.88
524.245	11470.88
525.017	10985.88
525.788	10546.88
526.56	10101.88
527.331	9606.88
528.102	9184.88
528.873	8766.88
529.644	8343.88
530.415	7940.88
531.186	7506.88
531.957	7136.88
532.728	6796.88
533.498	6424.88
534.269	6078.88
535.039	5718.88
535.81	5395.88
536.58	5098.88
537.351	4813.88
538.121	4562.88
538.891	4313.88
539.661	4065.88
540.431	3843.88
541.201	3621.88
541.971	3458.88
542.741	3269.88
543.51	3095.88
544.28	2981.88
545.05	2826.88
545.819	2669.88
546.588	2537.88
547.358	2402.88
548.127	2275.88
548.896	2173.88
549.665	2069.88
550.434	1954.88
551.203	1845.88
551.972	1754.88
552.741	1661.88
553.51	1568.88
554.278	1472.88
555.047	1386.88
555.815	1317.88
556.584	1253.88
557.352	1167.88
558.121	1110.88
558.889	1052.88
559.657	992.88
560.425	922.88
561.193	884.88
561.961	829.88
562.729	779.88
563.496	740.88
564.264	702.88
565.032	659.88
565.799	632.88
566.567	594.88
567.334	556.88
568.101	532.88
568.869	495.88
569.636	471.88
570.403	434.88
571.17	419.88
571.937	398.88
572.704	371.88
573.471	350.88
574.237	327.88
575.004	313.88
575.771	295.88
576.537	273.88
577.303	259.88
578.07	248.88
578.836	228.88
579.602	219.88
580.368	203.88
581.134	190.88
581.9	182.88
582.666	172.88
583.432	166.88
584.198	161.88
584.964	144.88
585.729	144.88
586.495	132.88
587.26	131.88
588.025	121.88
588.791	113.88
589.556	108.88
590.321	101.88
591.086	97.88
591.851	92.88
592.616	90.88
593.381	84.88
594.146	76.88
594.911	75.88
595.675	76.88
596.44	67.88
597.204	67.88
597.969	63.88
598.733	61.88
599.497	59.88
600.261	54.88
601.025	53.88
601.79	50.88
602.553	49.88
603.317	46.88
604.081	45.88
604.845	41.88
605.609	42.88
606.372	40.88
607.136	35.88
607.899	35.88
608.662	31.88
609.426	31.88
610.189	32.88
610.952	31.88
611.715	30.88
612.478	27.88
613.241	28.88
614.004	27.88
614.767	25.88
615.529	24.88
616.292	22.88
617.055	22.88
617.817	20.88
618.579	20.88
619.342	19.88
620.104	20.88
620.866	16.88
621.628	20.88
622.39	17.88
623.152	14.88
623.914	17.88
624.676	17.88
625.438	17.88
626.199	16.88
626.961	15.88
627.722	16.88
628.484	10.88
629.245	13.88
630.006	13.88
630.768	12.88
631.529	14.88
632.29	11.88
633.051	11.88
633.812	12.88
634.573	11.88
635.333	12.88
636.094	9.88
636.855	11.88
637.615	9.88
638.376	9.88
639.136	7.88
639.896	8.88
640.657	9.88
641.417	7.88
642.177	9.88
642.937	7.88
643.697	6.88
644.457	4.88
645.216	9.88
645.976	8.88
646.736	9.88
647.495	4.88
648.255	7.88
649.014	6.88
649.774	4.88
650.533	6.88
651.292	4.88
652.051	6.88
652.81	7.88
653.569	6.88
654.328	3.88
655.087	4.88
655.846	6.88
656.604	5.88
657.363	5.88
658.121	6.88
658.88	3.88
659.638	4.88
660.397	4.88
661.155	6.88
661.913	5.88
662.671	7.88
663.429	4.88
664.187	5.88
664.945	2.88
665.703	7.88
666.46	3.88
667.218	3.88
667.976	4.88
668.733	4.88
669.49	2.88
670.248	3.88
671.005	2.88
671.762	4.88
672.519	3.88
673.276	4.88
674.033	4.88
674.79	3.88
675.547	3.88
676.304	4.88
677.06	2.88
677.817	4.88
678.574	5.88
679.33	2.88
680.086	4.88
680.843	4.88
681.599	1.88
682.355	3.88
683.111	3.88
683.867	4.88
684.623	5.88
685.379	4.88
686.135	1.88
686.89	5.88
687.646	3.88
688.402	3.88
689.157	4.88
689.912	2.88
690.668	-0.12
691.423	1.88
692.178	3.88
692.933	3.88
693.688	2.88
694.443	3.88
695.198	3.88
695.953	2.88
696.708	3.88
697.462	1.88
698.217	3.88
698.972	4.88
699.726	3.88
700.48	2.88
701.235	2.88
701.989	2.88
702.743	1.88
703.497	2.88
704.251	2.88
705.005	4.88
705.759	2.88
706.513	1.88
707.266	4.88
708.02	2.88
708.774	4.88
709.527	2.88
710.28	-0.12
711.034	4.88
711.787	3.88
712.54	1.88
713.293	1.88
714.046	2.88
714.799	1.88
715.552	1.88
716.305	4.88
717.058	1.88
717.81	2.88
718.563	2.88
719.315	3.88
720.068	4.88
720.82	3.88
721.573	3.88
722.325	3.88
723.077	2.88
723.829	1.88
724.581	3.88
725.333	4.88
726.085	0.88
726.836	2.88
727.588	3.88
728.34	3.88
729.091	1.88
729.843	3.88
730.594	3.88
731.346	1.88
732.097	4.88
732.848	4.88
733.599	3.88
734.35	6.88
735.101	5.88
735.852	3.88
736.603	3.88
737.354	3.88
738.104	4.88
738.855	3.88
739.605	3.88
740.356	3.88
741.106	4.88
741.856	1.88
742.607	3.88
743.357	4.88
744.107	4.88
744.857	6.88
745.607	3.88
746.357	4.88
747.106	4.88
747.856	3.88
748.606	1.88
749.355	3.88
750.105	6.88
750.854	1.88
751.603	4.88
752.353	3.88
753.102	4.88
753.851	4.88
754.6	3.88
755.349	4.88
756.098	5.88
756.847	4.88
757.595	5.88
758.344	4.88
759.093	4.88
759.841	5.88
760.589	7.88
761.338	4.88
762.086	3.88
762.834	6.88
763.582	4.88
764.331	6.88
765.079	6.88
765.826	4.88
766.574	6.88
767.322	6.88
768.07	5.88
768.817	6.88
769.565	6.88
770.312	8.88
771.06	8.88
771.807	9.88
772.554	6.88
773.302	5.88
774.049	5.88
774.796	6.88
775.543	5.88
776.29	8.88
777.036	7.88
777.783	5.88
778.53	8.88
779.276	6.88
780.023	8.88
780.769	7.88
781.516	8.88
782.262	8.88
783.008	4.88
783.754	8.88
784.5	9.88
785.246	7.88
785.992	6.88
786.738	8.88
787.484	6.88
788.23	7.88
788.975	10.88
789.721	8.88
790.466	7.88
791.212	8.88
791.957	6.88
792.702	7.88
793.447	9.88
794.193	7.88
794.938	6.88
795.683	5.88
796.427	7.88
797.172	9.88
797.917	8.88
798.662	5.88
799.406	6.88
800.151	4.88
800.895	5.88
801.64	5.88
802.384	3.88
803.128	4.88
803.872	3.88
804.616	6.88
805.36	4.88
806.104	5.88
806.848	4.88
807.592	5.88
808.336	5.88
809.079	7.88
809.823	5.88
810.566	5.88
811.31	4.88
812.053	4.88
812.796	5.88
813.539	4.88
814.283	4.88
815.026	6.88
815.769	2.88
816.511	2.88
817.254	4.88
817.997	5.88
818.74	3.88
819.482	2.88
820.225	2.88
820.967	2.88
821.71	3.88
822.452	4.88
823.194	3.88
823.936	1.88
824.678	3.88
825.42	1.88
826.162	3.88
826.904	-0.12
827.646	4.88
828.388	2.88
829.129	2.88
829.871	4.88
830.612	3.88
831.354	3.88
832.095	2.88
832.836	2.88
833.577	4.88
834.319	3.88
835.06	2.88
835.801	1.88
836.542	2.88
837.282	4.88
838.023	5.88
838.764	3.88
839.504	3.88
840.245	4.88
840.985	3.88
841.726	4.88
842.466	4.88
843.206	1.88
843.946	2.88
844.687	4.88
845.427	3.88
846.166	0.88
846.906	1.88
847.646	1.88
848.386	3.88
849.125	4.88
849.865	1.88
850.605	1.88
851.344	0.88
852.083	-1.12
852.823	4.88
853.562	4.88
854.301	1.88
855.04	3.88
855.779	3.88
856.518	2.88
857.257	1.88
857.995	2.88
858.734	-0.12
859.473	2.88
860.211	0.88
860.95	0.88
861.688	1.88
862.426	-0.12
863.165	1.88
863.903	0.88
864.641	2.88
865.379	1.88
866.117	2.88
866.855	3.88
867.593	-0.12
868.33	1.88
869.068	1.88
869.806	0.88
870.543	1.88
871.28	1.88
872.018	1.88
872.755	1.88
873.492	1.88
874.229	0.88
874.967	1.88
875.703	1.88
876.44	0.88
877.177	0.88
877.914	-0.12
878.651	1.88
879.387	2.88
880.124	-0.12
880.86	1.88
881.597	1.88
882.333	-0.12
883.069	1.88
883.806	1.88
884.542	1.88
885.278	1.88
886.014	0.88
886.749	1.88
887.485	1.88
888.221	0.88
888.957	-0.12
889.692	0.88
890.428	1.88
891.163	0.88
891.899	0.88
892.634	1.88
893.369	0.88
894.104	-0.12
894.839	0.88
895.574	-1.12
896.309	0.88
897.044	0.88
897.779	1.88
898.514	2.88
899.248	-0.12
899.983	1.88
900.717	-0.12
901.452	0.88
902.186	0.88
902.92	1.88
903.654	0.88
904.389	1.88
905.123	1.88
905.857	0.88
906.59	0.88
907.324	0.88
908.058	-0.12
908.792	0.88
909.525	1.88
910.259	1.88
910.992	0.88
911.726	1.88
912.459	-0.12
913.192	-2.12
913.925	-0.12
914.658	-0.12
915.391	0.88
916.124	2.88
916.857	1.88
917.59	0.88
918.323	-0.12
919.055	-1.12
919.788	0.88
920.521	-0.12
921.253	0.88
921.985	0.88
922.718	-1.12
923.45	0.88
924.182	-0.12
924.914	0.88
925.646	-0.12
926.378	1.88
927.11	-3.12
927.841	-0.12
928.573	0.88
929.305	-0.12
930.036	-0.12
930.768	1.88
931.499	0.88
932.23	1.88
932.962	1.88
933.693	1.88
934.424	-1.12
935.155	1.88
935.886	-2.12
936.617	0.88
937.348	0.88
938.078	0.88
938.809	0.88
939.54	0.88
940.27	0.88
941.001	-0.12
941.731	2.88
942.461	1.88
943.191	0.88
943.922	0.88
944.652	-0.12
945.382	-0.12
946.112	-0.12
946.841	-0.12
947.571	-1.12
948.301	-0.12
949.031	1.88
949.76	0.88
950.49	0.88
951.219	-0.12
951.948	-1.12
952.678	-0.12
953.407	-0.12
954.136	-0.12
954.865	0.88
955.594	-0.12
956.323	0.88
957.052	0.88
957.78	0.88
958.509	0.88
959.238	-0.12
959.966	-2.12
960.695	-0.12
961.423	0.88
962.151	-1.12
962.88	1.88
963.608	-0.12
964.336	-2.12
965.064	2.88
965.792	0.88
966.52	-2.12
967.247	-2.12
967.975	-0.12
968.703	-0.12
969.43	0.88
970.158	-0.12
970.885	-2.12
971.613	0.88
972.34	1.88
973.067	0.88
973.794	2.88
974.521	-0.12
975.248	-0.12
975.975	0.88
976.702	0.88
977.429	0.88
978.156	0.88
978.882	-1.12
979.609	-0.12
980.335	1.88
981.062	-2.12
981.788	-1.12
982.514	0.88
983.24	-0.12
983.967	-1.12
984.693	-2.12
985.419	0.88
986.144	-0.12
986.87	-1.12
987.596	1.88
988.322	0.88
989.047	-0.12
989.773	1.88
990.498	0.88
991.224	0.88
991.949	-0.12
992.674	-1.12
993.399	0.88
994.124	-1.12
994.849	-2.12
995.574	0.88
996.299	-0.12
997.024	-0.12
997.749	-0.12
998.473	0.88
999.198	0.88
999.922	-1.12
1000.647	1.88
1001.371	3.88
1002.095	-1.12
1002.82	-0.12
1003.544	-2.12
1004.268	-0.12
1004.992	2.88
1005.716	-1.12
1006.439	1.88
1007.163	-0.12
1007.887	2.88
1008.611	-1.12
1009.334	0.88
1010.058	0.88
1010.781	-3.12
1011.504	-1.12
1012.228	-0.12
1012.951	-1.12
1013.674	-1.12
1014.397	0.88
1015.12	0.88
