节点500_285_QEPB04081__5__14-55-40-512.txt的数据

Date: Wed Nov 12 14:55:40 CST 2025
User: PC
Spectrometer: QEPB0408
触发模式: 0
积分时间 (秒): 1.000000E-2
Scans to average: 1
启用暗噪声校正: true
启用非线性校正: false
滑动平均宽度: 0
X轴模式: Wavelengths
Number of Pixels in Spectrum: 1044
>>>>>Begin Spectral Data<<<<<
220.843	-1.38
221.644	-0.38
222.444	-1.38
223.244	-3.38
224.045	0.62
224.845	-3.38
225.645	-1.38
226.445	-1.38
227.245	-4.38
228.045	-1.38
228.845	-0.38
229.645	-3.38
230.444	-0.38
231.244	-3.38
232.043	0.62
232.843	-1.38
233.642	-2.38
234.442	-1.38
235.241	-1.38
236.04	-1.38
236.839	-2.38
237.638	-2.38
238.437	-1.38
239.236	-3.38
240.035	-0.38
240.833	-2.38
241.632	-3.38
242.43	-1.38
243.229	-1.38
244.027	-1.38
244.826	-2.38
245.624	-1.38
246.422	-3.38
247.22	-2.38
248.018	-0.38
248.816	-2.38
249.614	0.62
250.412	-1.38
251.21	0.62
252.007	-0.38
252.805	-1.38
253.602	-2.38
254.4	-0.38
255.197	-1.38
255.994	-3.38
256.791	-0.38
257.589	-2.38
258.386	-3.38
259.183	-1.38
259.979	-2.38
260.776	-0.38
261.573	1.62
262.37	-0.38
263.166	-1.38
263.963	-0.38
264.759	-3.38
265.556	-0.38
266.352	-3.38
267.148	-1.38
267.944	-2.38
268.74	0.62
269.536	-0.38
270.332	-2.38
271.128	-1.38
271.924	-0.38
272.719	0.62
273.515	-2.38
274.311	-0.38
275.106	-1.38
275.901	1.62
276.697	-2.38
277.492	-1.38
278.287	-0.38
279.082	-1.38
279.877	-1.38
280.672	-1.38
281.467	-2.38
282.262	-0.38
283.056	0.62
283.851	-1.38
284.646	-1.38
285.44	-2.38
286.234	-0.38
287.029	-0.38
287.823	-0.38
288.617	-1.38
289.411	-3.38
290.205	-0.38
290.999	-1.38
291.793	-0.38
292.587	-0.38
293.381	-2.38
294.174	-1.38
294.968	-0.38
295.761	1.62
296.555	-3.38
297.348	0.62
298.141	-0.38
298.935	0.62
299.728	-1.38
300.521	-0.38
301.314	-1.38
302.107	-0.38
302.899	-1.38
303.692	-1.38
304.485	-1.38
305.277	-1.38
306.07	-0.38
306.862	-0.38
307.655	-0.38
308.447	0.62
309.239	0.62
310.031	-1.38
310.823	-0.38
311.615	-0.38
312.407	1.62
313.199	-1.38
313.991	0.62
314.783	-0.38
315.574	-0.38
316.366	0.62
317.157	-0.38
317.949	-3.38
318.74	0.62
319.531	-1.38
320.322	-3.38
321.113	0.62
321.904	-1.38
322.695	-0.38
323.486	-0.38
324.277	0.62
325.068	-0.38
325.858	0.62
326.649	1.62
327.439	-2.38
328.23	-0.38
329.02	-1.38
329.81	0.62
330.6	-1.38
331.391	-1.38
332.181	0.62
332.971	-2.38
333.76	0.62
334.55	0.62
335.34	-2.38
336.13	-1.38
336.919	-0.38
337.709	-1.38
338.498	-1.38
339.287	-2.38
340.077	-1.38
340.866	-3.38
341.655	-0.38
342.444	0.62
343.233	1.62
344.022	-1.38
344.811	-1.38
345.6	-0.38
346.388	-1.38
347.177	-2.38
347.965	0.62
348.754	-1.38
349.542	-1.38
350.33	0.62
351.119	0.62
351.907	-2.38
352.695	0.62
353.483	-0.38
354.271	-3.38
355.059	-0.38
355.846	-1.38
356.634	0.62
357.422	-0.38
358.209	-1.38
358.997	0.62
359.784	-1.38
360.571	2.62
361.359	-0.38
362.146	-1.38
362.933	-1.38
363.72	-2.38
364.507	-0.38
365.294	1.62
366.081	-0.38
366.867	0.62
367.654	-1.38
368.44	-0.38
369.227	-0.38
370.013	-1.38
370.8	-0.38
371.586	-0.38
372.372	-0.38
373.158	-0.38
373.944	-0.38
374.73	-1.38
375.516	-2.38
376.302	-1.38
377.088	-0.38
377.873	-0.38
378.659	-0.38
379.445	1.62
380.23	0.62
381.015	-0.38
381.801	-1.38
382.586	-1.38
383.371	1.62
384.156	0.62
384.941	0.62
385.726	-0.38
386.511	-2.38
387.296	0.62
388.08	0.62
388.865	1.62
389.649	-0.38
390.434	-1.38
391.218	2.62
392.003	-1.38
392.787	0.62
393.571	0.62
394.355	0.62
395.139	0.62
395.923	-1.38
396.707	1.62
397.491	0.62
398.274	1.62
399.058	-0.38
399.842	0.62
400.625	0.62
401.408	-0.38
402.192	0.62
402.975	0.62
403.758	-0.38
404.541	0.62
405.324	-1.38
406.107	0.62
406.89	-0.38
407.673	-1.38
408.456	-0.38
409.238	-0.38
410.021	-1.38
410.803	-0.38
411.586	0.62
412.368	0.62
413.151	-2.38
413.933	0.62
414.715	-1.38
415.497	1.62
416.279	-0.38
417.061	0.62
417.843	-1.38
418.624	-2.38
419.406	1.62
420.188	-0.38
420.969	-1.38
421.751	0.62
422.532	-2.38
423.313	1.62
424.095	0.62
424.876	-0.38
425.657	-0.38
426.438	-0.38
427.219	-0.38
428	0.62
428.78	0.62
429.561	-1.38
430.342	-1.38
431.122	0.62
431.903	-3.38
432.683	1.62
433.464	0.62
434.244	-0.38
435.024	-1.38
435.804	0.62
436.584	0.62
437.364	-0.38
438.144	0.62
438.924	0.62
439.704	-0.38
440.483	-1.38
441.263	0.62
442.042	0.62
442.822	-0.38
443.601	-0.38
444.38	0.62
445.16	0.62
445.939	-0.38
446.718	-0.38
447.497	-1.38
448.276	0.62
449.054	0.62
449.833	0.62
450.612	-1.38
451.391	0.62
452.169	-1.38
452.948	0.62
453.726	-1.38
454.504	1.62
455.282	-0.38
456.061	-1.38
456.839	0.62
457.617	-1.38
458.395	-0.38
459.172	1.62
459.95	-0.38
460.728	-1.38
461.506	-1.38
462.283	1.62
463.061	1.62
463.838	-2.38
464.615	1.62
465.393	-0.38
466.17	0.62
466.947	-1.38
467.724	1.62
468.501	-0.38
469.278	-1.38
470.055	2.62
470.831	-0.38
471.608	2.62
472.385	0.62
473.161	-0.38
473.938	-0.38
474.714	0.62
475.49	1.62
476.266	0.62
477.043	-1.38
477.819	1.62
478.595	-3.38
479.371	1.62
480.146	-1.38
480.922	-1.38
481.698	0.62
482.473	-1.38
483.249	-0.38
484.024	0.62
484.8	0.62
485.575	-0.38
486.35	-0.38
487.126	-0.38
487.901	-0.38
488.676	1.62
489.451	0.62
490.225	-1.38
491	0.62
491.775	-0.38
492.55	-0.38
493.324	0.62
494.099	0.62
494.873	-1.38
495.647	-1.38
496.422	-0.38
497.196	0.62
497.97	-0.38
498.744	-1.38
499.518	-0.38
500.292	-0.38
501.066	-0.38
501.839	-0.38
502.613	-0.38
503.387	-1.38
504.16	0.62
504.934	-1.38
505.707	0.62
506.48	-0.38
507.253	2.62
508.027	-0.38
508.8	-1.38
509.573	-1.38
510.346	-1.38
511.118	0.62
511.891	3.62
512.664	-0.38
513.437	0.62
514.209	-0.38
514.982	2.62
515.754	0.62
516.526	1.62
517.298	-1.38
518.071	-0.38
518.843	0.62
519.615	-2.38
520.387	0.62
521.159	-0.38
521.93	0.62
522.702	0.62
523.474	-1.38
524.245	0.62
525.017	0.62
525.788	0.62
526.56	1.62
527.331	-1.38
528.102	1.62
528.873	0.62
529.644	1.62
530.415	0.62
531.186	1.62
531.957	2.62
532.728	0.62
533.498	1.62
534.269	-0.38
535.039	-0.38
535.81	1.62
536.58	0.62
537.351	-0.38
538.121	-0.38
538.891	-0.38
539.661	-0.38
540.431	0.62
541.201	-0.38
541.971	-1.38
542.741	-1.38
543.51	-1.38
544.28	0.62
545.05	1.62
545.819	-1.38
546.588	0.62
547.358	0.62
548.127	-0.38
548.896	0.62
549.665	-1.38
550.434	0.62
551.203	-3.38
551.972	1.62
552.741	-1.38
553.51	1.62
554.278	0.62
555.047	0.62
555.815	0.62
556.584	-0.38
557.352	-0.38
558.121	-1.38
558.889	1.62
559.657	0.62
560.425	-0.38
561.193	0.62
561.961	0.62
562.729	-1.38
563.496	-0.38
564.264	-1.38
565.032	-1.38
565.799	-0.38
566.567	-1.38
567.334	-1.38
568.101	0.62
568.869	0.62
569.636	0.62
570.403	0.62
571.17	1.62
571.937	-0.38
572.704	-1.38
573.471	-1.38
574.237	-0.38
575.004	-0.38
575.771	1.62
576.537	1.62
577.303	-1.38
578.07	-0.38
578.836	-1.38
579.602	-1.38
580.368	0.62
581.134	-0.38
581.9	0.62
582.666	1.62
583.432	-1.38
584.198	1.62
584.964	-0.38
585.729	0.62
586.495	0.62
587.26	-1.38
588.025	0.62
588.791	-0.38
589.556	1.62
590.321	-0.38
591.086	0.62
591.851	-1.38
592.616	-1.38
593.381	0.62
594.146	-1.38
594.911	1.62
595.675	-1.38
596.44	1.62
597.204	-0.38
597.969	1.62
598.733	0.62
599.497	-1.38
600.261	-0.38
601.025	-0.38
601.79	-0.38
602.553	0.62
603.317	-1.38
604.081	0.62
604.845	-0.38
605.609	0.62
606.372	1.62
607.136	0.62
607.899	1.62
608.662	-0.38
609.426	1.62
610.189	-1.38
610.952	-1.38
611.715	1.62
612.478	-2.38
613.241	-0.38
614.004	-0.38
614.767	-1.38
615.529	0.62
616.292	0.62
617.055	0.62
617.817	-2.38
618.579	2.62
619.342	2.62
620.104	0.62
620.866	0.62
621.628	-1.38
622.39	-1.38
623.152	-1.38
623.914	0.62
624.676	-1.38
625.438	0.62
626.199	0.62
626.961	-0.38
627.722	2.62
628.484	-0.38
629.245	-0.38
630.006	0.62
630.768	1.62
631.529	1.62
632.29	0.62
633.051	-0.38
633.812	-1.38
634.573	-0.38
635.333	0.62
636.094	-0.38
636.855	-0.38
637.615	0.62
638.376	1.62
639.136	0.62
639.896	0.62
640.657	-0.38
641.417	-0.38
642.177	-0.38
642.937	0.62
643.697	1.62
644.457	0.62
645.216	0.62
645.976	0.62
646.736	0.62
647.495	-0.38
648.255	3.62
649.014	-1.38
649.774	-1.38
650.533	-0.38
651.292	-1.38
652.051	1.62
652.81	-1.38
653.569	-0.38
654.328	-0.38
655.087	-0.38
655.846	1.62
656.604	-0.38
657.363	0.62
658.121	-0.38
658.88	-0.38
659.638	0.62
660.397	-3.38
661.155	1.62
661.913	0.62
662.671	-3.38
663.429	0.62
664.187	-1.38
664.945	2.62
665.703	-1.38
666.46	0.62
667.218	-2.38
667.976	1.62
668.733	1.62
669.49	-0.38
670.248	1.62
671.005	-0.38
671.762	0.62
672.519	-0.38
673.276	-0.38
674.033	1.62
674.79	0.62
675.547	-1.38
676.304	-0.38
677.06	-1.38
677.817	0.62
678.574	-1.38
679.33	1.62
680.086	0.62
680.843	0.62
681.599	0.62
682.355	-0.38
683.111	-1.38
683.867	-1.38
684.623	1.62
685.379	0.62
686.135	3.62
686.89	-1.38
687.646	-0.38
688.402	-0.38
689.157	-0.38
689.912	-0.38
690.668	-2.38
691.423	0.62
692.178	0.62
692.933	1.62
693.688	1.62
694.443	-0.38
695.198	-0.38
695.953	1.62
696.708	0.62
697.462	0.62
698.217	-1.38
698.972	-0.38
699.726	-1.38
700.48	-1.38
701.235	2.62
701.989	-0.38
702.743	-0.38
703.497	-1.38
704.251	-1.38
705.005	0.62
705.759	-0.38
706.513	-0.38
707.266	0.62
708.02	-1.38
708.774	0.62
709.527	1.62
710.28	0.62
711.034	-0.38
711.787	-0.38
712.54	-0.38
713.293	0.62
714.046	0.62
714.799	0.62
715.552	-0.38
716.305	1.62
717.058	-0.38
717.81	0.62
718.563	-0.38
719.315	0.62
720.068	0.62
720.82	0.62
721.573	-0.38
722.325	-2.38
723.077	0.62
723.829	0.62
724.581	-0.38
725.333	0.62
726.085	-2.38
726.836	0.62
727.588	-0.38
728.34	0.62
729.091	-0.38
729.843	0.62
730.594	-2.38
731.346	-0.38
732.097	-0.38
732.848	1.62
733.599	-0.38
734.35	-0.38
735.101	-1.38
735.852	-0.38
736.603	-0.38
737.354	1.62
738.104	-0.38
738.855	-0.38
739.605	0.62
740.356	0.62
741.106	-0.38
741.856	-1.38
742.607	0.62
743.357	0.62
744.107	-0.38
744.857	-0.38
745.607	-0.38
746.357	1.62
747.106	-2.38
747.856	0.62
748.606	-1.38
749.355	-1.38
750.105	1.62
750.854	1.62
751.603	-2.38
752.353	-1.38
753.102	-1.38
753.851	1.62
754.6	-1.38
755.349	-0.38
756.098	0.62
756.847	-1.38
757.595	0.62
758.344	-0.38
759.093	-0.38
759.841	0.62
760.589	-0.38
761.338	0.62
762.086	-0.38
762.834	-1.38
763.582	-3.38
764.331	0.62
765.079	-1.38
765.826	0.62
766.574	0.62
767.322	-0.38
768.07	-0.38
768.817	-0.38
769.565	-0.38
770.312	-1.38
771.06	-2.38
771.807	-0.38
772.554	0.62
773.302	1.62
774.049	-2.38
774.796	1.62
775.543	0.62
776.29	-0.38
777.036	0.62
777.783	-1.38
778.53	1.62
779.276	0.62
780.023	-0.38
780.769	0.62
781.516	-1.38
782.262	0.62
783.008	1.62
783.754	-0.38
784.5	0.62
785.246	-0.38
785.992	-0.38
786.738	0.62
787.484	0.62
788.23	2.62
788.975	-2.38
789.721	-0.38
790.466	0.62
791.212	1.62
791.957	1.62
792.702	-0.38
793.447	0.62
794.193	0.62
794.938	0.62
795.683	0.62
796.427	-1.38
797.172	-2.38
797.917	-1.38
798.662	2.62
799.406	0.62
800.151	-1.38
800.895	0.62
801.64	-1.38
802.384	-1.38
803.128	-1.38
803.872	0.62
804.616	0.62
805.36	1.62
806.104	0.62
806.848	-1.38
807.592	0.62
808.336	0.62
809.079	-0.38
809.823	0.62
810.566	-0.38
811.31	-0.38
812.053	0.62
812.796	0.62
813.539	0.62
814.283	0.62
815.026	-0.38
815.769	0.62
816.511	0.62
817.254	-1.38
817.997	1.62
818.74	0.62
819.482	0.62
820.225	0.62
820.967	0.62
821.71	1.62
822.452	-0.38
823.194	-0.38
823.936	1.62
824.678	-0.38
825.42	0.62
826.162	-1.38
826.904	-0.38
827.646	-0.38
828.388	0.62
829.129	0.62
829.871	-0.38
830.612	0.62
831.354	0.62
832.095	0.62
832.836	-1.38
833.577	-0.38
834.319	-1.38
835.06	-1.38
835.801	0.62
836.542	2.62
837.282	0.62
838.023	0.62
838.764	-1.38
839.504	0.62
840.245	0.62
840.985	-0.38
841.726	0.62
842.466	-0.38
843.206	-1.38
843.946	1.62
844.687	-0.38
845.427	0.62
846.166	-1.38
846.906	1.62
847.646	0.62
848.386	-0.38
849.125	0.62
849.865	0.62
850.605	1.62
851.344	-1.38
852.083	0.62
852.823	-0.38
853.562	-0.38
854.301	0.62
855.04	0.62
855.779	2.62
856.518	2.62
857.257	0.62
857.995	0.62
858.734	-0.38
859.473	-0.38
860.211	0.62
860.95	0.62
861.688	-1.38
862.426	-0.38
863.165	1.62
863.903	2.62
864.641	0.62
865.379	-2.38
866.117	-1.38
866.855	-1.38
867.593	-0.38
868.33	-0.38
869.068	-0.38
869.806	0.62
870.543	-0.38
871.28	1.62
872.018	1.62
872.755	1.62
873.492	-0.38
874.229	1.62
874.967	-1.38
875.703	0.62
876.44	0.62
877.177	1.62
877.914	-2.38
878.651	0.62
879.387	0.62
880.124	0.62
880.86	-2.38
881.597	-0.38
882.333	-0.38
883.069	-1.38
883.806	-1.38
884.542	0.62
885.278	0.62
886.014	-0.38
886.749	-2.38
887.485	-0.38
888.221	2.62
888.957	0.62
889.692	2.62
890.428	-0.38
891.163	-0.38
891.899	-0.38
892.634	-0.38
893.369	-0.38
894.104	-0.38
894.839	0.62
895.574	-0.38
896.309	-0.38
897.044	0.62
897.779	-1.38
898.514	1.62
899.248	-1.38
899.983	-0.38
900.717	0.62
901.452	-1.38
902.186	-1.38
902.92	-0.38
903.654	-0.38
904.389	0.62
905.123	0.62
905.857	1.62
906.59	-1.38
907.324	0.62
908.058	0.62
908.792	-0.38
909.525	1.62
910.259	-2.38
910.992	1.62
911.726	-0.38
912.459	-2.38
913.192	0.62
913.925	-3.38
914.658	1.62
915.391	-2.38
916.124	2.62
916.857	-0.38
917.59	0.62
918.323	2.62
919.055	-0.38
919.788	0.62
920.521	-0.38
921.253	-0.38
921.985	-2.38
922.718	-0.38
923.45	-1.38
924.182	0.62
924.914	-1.38
925.646	-1.38
926.378	-0.38
927.11	-0.38
927.841	-0.38
928.573	0.62
929.305	0.62
930.036	-0.38
930.768	0.62
931.499	0.62
932.23	0.62
932.962	-0.38
933.693	1.62
934.424	0.62
935.155	-1.38
935.886	0.62
936.617	-1.38
937.348	-0.38
938.078	2.62
938.809	-1.38
939.54	0.62
940.27	-0.38
941.001	0.62
941.731	0.62
942.461	0.62
943.191	-0.38
943.922	-0.38
944.652	3.62
945.382	1.62
946.112	0.62
946.841	0.62
947.571	-0.38
948.301	-0.38
949.031	-0.38
949.76	0.62
950.49	-0.38
951.219	-0.38
951.948	0.62
952.678	-1.38
953.407	1.62
954.136	-1.38
954.865	-0.38
955.594	0.62
956.323	0.62
957.052	0.62
957.78	0.62
958.509	-0.38
959.238	-0.38
959.966	0.62
960.695	-1.38
961.423	0.62
962.151	0.62
962.88	0.62
963.608	-0.38
964.336	1.62
965.064	-2.38
965.792	0.62
966.52	1.62
967.247	-0.38
967.975	0.62
968.703	-0.38
969.43	0.62
970.158	-0.38
970.885	0.62
971.613	-1.38
972.34	1.62
973.067	-0.38
973.794	-0.38
974.521	-2.38
975.248	-0.38
975.975	0.62
976.702	1.62
977.429	0.62
978.156	-1.38
978.882	2.62
979.609	0.62
980.335	-1.38
981.062	0.62
981.788	0.62
982.514	-0.38
983.24	0.62
983.967	2.62
984.693	-0.38
985.419	0.62
986.144	1.62
986.87	0.62
987.596	-1.38
988.322	0.62
989.047	-0.38
989.773	-0.38
990.498	-0.38
991.224	-1.38
991.949	1.62
992.674	0.62
993.399	0.62
994.124	2.62
994.849	-0.38
995.574	0.62
996.299	0.62
997.024	1.62
997.749	-1.38
998.473	-2.38
999.198	1.62
999.922	0.62
1000.647	1.62
1001.371	3.62
1002.095	-1.38
1002.82	-1.38
1003.544	-2.38
1004.268	-3.38
1004.992	-1.38
1005.716	-2.38
1006.439	0.62
1007.163	-2.38
1007.887	-2.38
1008.611	0.62
1009.334	1.62
1010.058	-0.38
1010.781	-0.38
1011.504	2.62
1012.228	1.62
1012.951	1.62
1013.674	0.62
1014.397	-0.38
1015.12	-0.38
