节点500_285_QEPB04081__541__15-04-33-302.txt的数据

Date: Wed Nov 12 15:04:33 CST 2025
User: PC
Spectrometer: QEPB0408
触发模式: 0
积分时间 (秒): 1.000000E-2
Scans to average: 1
启用暗噪声校正: true
启用非线性校正: false
滑动平均宽度: 0
X轴模式: Wavelengths
Number of Pixels in Spectrum: 1044
>>>>>Begin Spectral Data<<<<<
220.843	4.12
221.644	2.12
222.444	1.12
223.244	3.12
224.045	2.12
224.845	3.12
225.645	2.12
226.445	1.12
227.245	4.12
228.045	2.12
228.845	1.12
229.645	-1.88
230.444	3.12
231.244	4.12
232.043	5.12
232.843	4.12
233.642	2.12
234.442	5.12
235.241	4.12
236.04	4.12
236.839	5.12
237.638	5.12
238.437	6.12
239.236	5.12
240.035	6.12
240.833	3.12
241.632	5.12
242.43	7.12
243.229	5.12
244.027	5.12
244.826	4.12
245.624	3.12
246.422	5.12
247.22	4.12
248.018	6.12
248.816	6.12
249.614	6.12
250.412	4.12
251.21	6.12
252.007	4.12
252.805	8.12
253.602	7.12
254.4	7.12
255.197	8.12
255.994	7.12
256.791	7.12
257.589	8.12
258.386	7.12
259.183	9.12
259.979	10.12
260.776	9.12
261.573	10.12
262.37	10.12
263.166	9.12
263.963	11.12
264.759	10.12
265.556	13.12
266.352	14.12
267.148	12.12
267.944	14.12
268.74	12.12
269.536	12.12
270.332	14.12
271.128	16.12
271.924	14.12
272.719	16.12
273.515	17.12
274.311	16.12
275.106	17.12
275.901	16.12
276.697	18.12
277.492	18.12
278.287	18.12
279.082	17.12
279.877	17.12
280.672	15.12
281.467	17.12
282.262	17.12
283.056	17.12
283.851	18.12
284.646	19.12
285.44	20.12
286.234	18.12
287.029	20.12
287.823	18.12
288.617	20.12
289.411	21.12
290.205	16.12
290.999	19.12
291.793	17.12
292.587	17.12
293.381	18.12
294.174	19.12
294.968	16.12
295.761	17.12
296.555	15.12
297.348	18.12
298.141	15.12
298.935	17.12
299.728	13.12
300.521	14.12
301.314	14.12
302.107	12.12
302.899	12.12
303.692	12.12
304.485	16.12
305.277	13.12
306.07	13.12
306.862	14.12
307.655	14.12
308.447	12.12
309.239	11.12
310.031	14.12
310.823	14.12
311.615	11.12
312.407	10.12
313.199	9.12
313.991	9.12
314.783	7.12
315.574	9.12
316.366	9.12
317.157	9.12
317.949	7.12
318.74	9.12
319.531	8.12
320.322	8.12
321.113	9.12
321.904	6.12
322.695	8.12
323.486	9.12
324.277	6.12
325.068	8.12
325.858	8.12
326.649	5.12
327.439	7.12
328.23	7.12
329.02	7.12
329.81	5.12
330.6	6.12
331.391	7.12
332.181	9.12
332.971	5.12
333.76	8.12
334.55	7.12
335.34	8.12
336.13	5.12
336.919	8.12
337.709	5.12
338.498	7.12
339.287	8.12
340.077	7.12
340.866	5.12
341.655	7.12
342.444	7.12
343.233	7.12
344.022	5.12
344.811	6.12
345.6	6.12
346.388	3.12
347.177	7.12
347.965	7.12
348.754	8.12
349.542	6.12
350.33	5.12
351.119	6.12
351.907	5.12
352.695	3.12
353.483	5.12
354.271	6.12
355.059	6.12
355.846	5.12
356.634	6.12
357.422	5.12
358.209	6.12
358.997	8.12
359.784	7.12
360.571	5.12
361.359	7.12
362.146	8.12
362.933	5.12
363.72	6.12
364.507	5.12
365.294	7.12
366.081	5.12
366.867	5.12
367.654	5.12
368.44	7.12
369.227	3.12
370.013	4.12
370.8	7.12
371.586	5.12
372.372	6.12
373.158	5.12
373.944	5.12
374.73	7.12
375.516	8.12
376.302	7.12
377.088	5.12
377.873	5.12
378.659	7.12
379.445	6.12
380.23	2.12
381.015	5.12
381.801	7.12
382.586	4.12
383.371	6.12
384.156	4.12
384.941	7.12
385.726	7.12
386.511	6.12
387.296	6.12
388.08	5.12
388.865	7.12
389.649	7.12
390.434	6.12
391.218	6.12
392.003	6.12
392.787	7.12
393.571	8.12
394.355	5.12
395.139	7.12
395.923	4.12
396.707	6.12
397.491	6.12
398.274	4.12
399.058	7.12
399.842	6.12
400.625	4.12
401.408	8.12
402.192	8.12
402.975	7.12
403.758	8.12
404.541	8.12
405.324	7.12
406.107	8.12
406.89	9.12
407.673	9.12
408.456	10.12
409.238	9.12
410.021	8.12
410.803	9.12
411.586	7.12
412.368	6.12
413.151	9.12
413.933	9.12
414.715	9.12
415.497	9.12
416.279	10.12
417.061	8.12
417.843	11.12
418.624	10.12
419.406	8.12
420.188	10.12
420.969	8.12
421.751	10.12
422.532	11.12
423.313	12.12
424.095	8.12
424.876	9.12
425.657	12.12
426.438	13.12
427.219	14.12
428	13.12
428.78	12.12
429.561	15.12
430.342	13.12
431.122	14.12
431.903	14.12
432.683	14.12
433.464	15.12
434.244	14.12
435.024	16.12
435.804	19.12
436.584	18.12
437.364	21.12
438.144	17.12
438.924	21.12
439.704	21.12
440.483	22.12
441.263	24.12
442.042	26.12
442.822	27.12
443.601	27.12
444.38	29.12
445.16	33.12
445.939	35.12
446.718	38.12
447.497	41.12
448.276	43.12
449.054	48.12
449.833	48.12
450.612	57.12
451.391	62.12
452.169	65.12
452.948	71.12
453.726	76.12
454.504	84.12
455.282	97.12
456.061	106.12
456.839	118.12
457.617	131.12
458.395	138.12
459.172	161.12
459.95	173.12
460.728	201.12
461.506	222.12
462.283	247.12
463.061	275.12
463.838	302.12
464.615	344.12
465.393	377.12
466.17	420.12
466.947	464.12
467.724	517.12
468.501	578.12
469.278	645.12
470.055	706.12
470.831	782.12
471.608	874.12
472.385	972.12
473.161	1081.12
473.938	1188.12
474.714	1315.12
475.49	1444.12
476.266	1589.12
477.043	1766.12
477.819	1944.12
478.595	2125.12
479.371	2355.12
480.146	2599.12
480.922	2825.12
481.698	3111.12
482.473	3417.12
483.249	3754.12
484.024	4110.12
484.8	4507.12
485.575	4961.12
486.35	5388.12
487.126	5937.12
487.901	6492.12
488.676	7096.12
489.451	7740.12
490.225	8417.12
491	9153.12
491.775	10015.12
492.55	10867.12
493.324	11779.12
494.099	12603.12
494.873	13621.12
495.647	14677.12
496.422	15749.12
497.196	16810.12
497.97	18013.12
498.744	19141.12
499.518	20195.12
500.292	21285.12
501.066	22384.12
501.839	23282.12
502.613	24224.12
503.387	25078.12
504.16	25651.12
504.934	26137.12
505.707	26374.12
506.48	26529.12
507.253	26549.12
508.027	26345.12
508.8	26198.12
509.573	25975.12
510.346	25388.12
511.118	24696.12
511.891	24004.12
512.664	23294.12
513.437	22421.12
514.209	21579.12
514.982	20763.12
515.754	19909.12
516.526	19068.12
517.298	18216.12
518.071	17418.12
518.843	16762.12
519.615	16194.12
520.387	15485.12
521.159	14901.12
521.93	14311.12
522.702	13758.12
523.474	13181.12
524.245	12585.12
525.017	12062.12
525.788	11596.12
526.56	11078.12
527.331	10593.12
528.102	10104.12
528.873	9655.12
529.644	9218.12
530.415	8736.12
531.186	8324.12
531.957	7886.12
532.728	7528.12
533.498	7133.12
534.269	6730.12
535.039	6339.12
535.81	6018.12
536.58	5689.12
537.351	5361.12
538.121	5089.12
538.891	4809.12
539.661	4539.12
540.431	4277.12
541.201	4062.12
541.971	3872.12
542.741	3656.12
543.51	3456.12
544.28	3292.12
545.05	3135.12
545.819	2983.12
546.588	2832.12
547.358	2693.12
548.127	2557.12
548.896	2423.12
549.665	2297.12
550.434	2185.12
551.203	2058.12
551.972	1969.12
552.741	1848.12
553.51	1773.12
554.278	1656.12
555.047	1583.12
555.815	1483.12
556.584	1405.12
557.352	1321.12
558.121	1237.12
558.889	1181.12
559.657	1112.12
560.425	1047.12
561.193	991.12
561.961	941.12
562.729	877.12
563.496	831.12
564.264	790.12
565.032	743.12
565.799	705.12
566.567	669.12
567.334	635.12
568.101	601.12
568.869	560.12
569.636	520.12
570.403	505.12
571.17	472.12
571.937	438.12
572.704	420.12
573.471	393.12
574.237	368.12
575.004	356.12
575.771	336.12
576.537	308.12
577.303	288.12
578.07	277.12
578.836	268.12
579.602	248.12
580.368	233.12
581.134	221.12
581.9	209.12
582.666	201.12
583.432	187.12
584.198	173.12
584.964	163.12
585.729	159.12
586.495	150.12
587.26	149.12
588.025	137.12
588.791	132.12
589.556	122.12
590.321	113.12
591.086	110.12
591.851	106.12
592.616	97.12
593.381	93.12
594.146	89.12
594.911	80.12
595.675	81.12
596.44	78.12
597.204	71.12
597.969	73.12
598.733	68.12
599.497	67.12
600.261	64.12
601.025	57.12
601.79	54.12
602.553	53.12
603.317	49.12
604.081	50.12
604.845	43.12
605.609	45.12
606.372	46.12
607.136	43.12
607.899	38.12
608.662	37.12
609.426	33.12
610.189	39.12
610.952	32.12
611.715	32.12
612.478	33.12
613.241	30.12
614.004	25.12
614.767	30.12
615.529	30.12
616.292	23.12
617.055	24.12
617.817	23.12
618.579	26.12
619.342	25.12
620.104	24.12
620.866	21.12
621.628	19.12
622.39	20.12
623.152	18.12
623.914	22.12
624.676	17.12
625.438	18.12
626.199	18.12
626.961	16.12
627.722	14.12
628.484	16.12
629.245	15.12
630.006	13.12
630.768	14.12
631.529	13.12
632.29	12.12
633.051	12.12
633.812	11.12
634.573	12.12
635.333	13.12
636.094	11.12
636.855	14.12
637.615	12.12
638.376	10.12
639.136	9.12
639.896	11.12
640.657	9.12
641.417	9.12
642.177	10.12
642.937	10.12
643.697	10.12
644.457	10.12
645.216	8.12
645.976	7.12
646.736	8.12
647.495	9.12
648.255	8.12
649.014	8.12
649.774	9.12
650.533	7.12
651.292	8.12
652.051	6.12
652.81	8.12
653.569	8.12
654.328	8.12
655.087	7.12
655.846	7.12
656.604	6.12
657.363	6.12
658.121	7.12
658.88	7.12
659.638	4.12
660.397	4.12
661.155	4.12
661.913	6.12
662.671	5.12
663.429	6.12
664.187	6.12
664.945	4.12
665.703	4.12
666.46	6.12
667.218	8.12
667.976	5.12
668.733	5.12
669.49	7.12
670.248	6.12
671.005	4.12
671.762	5.12
672.519	6.12
673.276	2.12
674.033	5.12
674.79	3.12
675.547	3.12
676.304	8.12
677.06	3.12
677.817	5.12
678.574	5.12
679.33	5.12
680.086	5.12
680.843	3.12
681.599	3.12
682.355	5.12
683.111	4.12
683.867	3.12
684.623	5.12
685.379	4.12
686.135	4.12
686.89	4.12
687.646	3.12
688.402	6.12
689.157	4.12
689.912	3.12
690.668	5.12
691.423	3.12
692.178	6.12
692.933	3.12
693.688	4.12
694.443	5.12
695.198	3.12
695.953	4.12
696.708	3.12
697.462	4.12
698.217	1.12
698.972	2.12
699.726	4.12
700.48	5.12
701.235	4.12
701.989	3.12
702.743	4.12
703.497	2.12
704.251	5.12
705.005	6.12
705.759	4.12
706.513	5.12
707.266	4.12
708.02	3.12
708.774	4.12
709.527	3.12
710.28	3.12
711.034	4.12
711.787	3.12
712.54	4.12
713.293	2.12
714.046	1.12
714.799	2.12
715.552	4.12
716.305	3.12
717.058	4.12
717.81	4.12
718.563	2.12
719.315	4.12
720.068	3.12
720.82	4.12
721.573	7.12
722.325	3.12
723.077	3.12
723.829	3.12
724.581	4.12
725.333	4.12
726.085	4.12
726.836	6.12
727.588	4.12
728.34	4.12
729.091	2.12
729.843	4.12
730.594	3.12
731.346	4.12
732.097	4.12
732.848	4.12
733.599	5.12
734.35	5.12
735.101	3.12
735.852	3.12
736.603	5.12
737.354	5.12
738.104	5.12
738.855	4.12
739.605	5.12
740.356	6.12
741.106	5.12
741.856	4.12
742.607	5.12
743.357	6.12
744.107	7.12
744.857	5.12
745.607	4.12
746.357	6.12
747.106	5.12
747.856	8.12
748.606	4.12
749.355	5.12
750.105	5.12
750.854	6.12
751.603	5.12
752.353	7.12
753.102	6.12
753.851	4.12
754.6	6.12
755.349	7.12
756.098	7.12
756.847	4.12
757.595	5.12
758.344	6.12
759.093	5.12
759.841	7.12
760.589	6.12
761.338	7.12
762.086	6.12
762.834	6.12
763.582	8.12
764.331	4.12
765.079	6.12
765.826	8.12
766.574	7.12
767.322	7.12
768.07	7.12
768.817	8.12
769.565	7.12
770.312	7.12
771.06	6.12
771.807	8.12
772.554	7.12
773.302	8.12
774.049	8.12
774.796	8.12
775.543	7.12
776.29	9.12
777.036	7.12
777.783	6.12
778.53	9.12
779.276	11.12
780.023	8.12
780.769	6.12
781.516	10.12
782.262	10.12
783.008	9.12
783.754	9.12
784.5	8.12
785.246	8.12
785.992	9.12
786.738	8.12
787.484	9.12
788.23	9.12
788.975	8.12
789.721	8.12
790.466	7.12
791.212	7.12
791.957	10.12
792.702	9.12
793.447	10.12
794.193	9.12
794.938	9.12
795.683	9.12
796.427	9.12
797.172	8.12
797.917	8.12
798.662	8.12
799.406	6.12
800.151	7.12
800.895	7.12
801.64	8.12
802.384	9.12
803.128	8.12
803.872	8.12
804.616	5.12
805.36	6.12
806.104	8.12
806.848	5.12
807.592	7.12
808.336	8.12
809.079	8.12
809.823	8.12
810.566	6.12
811.31	7.12
812.053	8.12
812.796	8.12
813.539	7.12
814.283	6.12
815.026	6.12
815.769	4.12
816.511	4.12
817.254	3.12
817.997	8.12
818.74	5.12
819.482	4.12
820.225	6.12
820.967	7.12
821.71	5.12
822.452	2.12
823.194	6.12
823.936	5.12
824.678	4.12
825.42	8.12
826.162	3.12
826.904	4.12
827.646	2.12
828.388	5.12
829.129	4.12
829.871	3.12
830.612	5.12
831.354	5.12
832.095	5.12
832.836	5.12
833.577	4.12
834.319	5.12
835.06	5.12
835.801	6.12
836.542	5.12
837.282	4.12
838.023	4.12
838.764	5.12
839.504	2.12
840.245	4.12
840.985	4.12
841.726	3.12
842.466	5.12
843.206	3.12
843.946	4.12
844.687	3.12
845.427	4.12
846.166	3.12
846.906	2.12
847.646	4.12
848.386	3.12
849.125	5.12
849.865	2.12
850.605	5.12
851.344	3.12
852.083	5.12
852.823	4.12
853.562	3.12
854.301	3.12
855.04	3.12
855.779	2.12
856.518	0.12
857.257	3.12
857.995	3.12
858.734	2.12
859.473	2.12
860.211	2.12
860.95	1.12
861.688	2.12
862.426	4.12
863.165	1.12
863.903	2.12
864.641	1.12
865.379	1.12
866.117	2.12
866.855	2.12
867.593	1.12
868.33	1.12
869.068	5.12
869.806	3.12
870.543	1.12
871.28	2.12
872.018	0.12
872.755	3.12
873.492	1.12
874.229	2.12
874.967	2.12
875.703	2.12
876.44	1.12
877.177	3.12
877.914	1.12
878.651	0.12
879.387	1.12
880.124	1.12
880.86	-0.88
881.597	1.12
882.333	0.12
883.069	0.12
883.806	3.12
884.542	2.12
885.278	1.12
886.014	3.12
886.749	2.12
887.485	2.12
888.221	1.12
888.957	2.12
889.692	1.12
890.428	2.12
891.163	1.12
891.899	1.12
892.634	3.12
893.369	2.12
894.104	1.12
894.839	1.12
895.574	1.12
896.309	1.12
897.044	1.12
897.779	2.12
898.514	0.12
899.248	2.12
899.983	0.12
900.717	2.12
901.452	-0.88
902.186	1.12
902.92	3.12
903.654	1.12
904.389	2.12
905.123	1.12
905.857	2.12
906.59	1.12
907.324	1.12
908.058	1.12
908.792	1.12
909.525	2.12
910.259	-1.88
910.992	1.12
911.726	1.12
912.459	0.12
913.192	-1.88
913.925	2.12
914.658	1.12
915.391	0.12
916.124	3.12
916.857	0.12
917.59	0.12
918.323	0.12
919.055	-0.88
919.788	1.12
920.521	2.12
921.253	0.12
921.985	0.12
922.718	0.12
923.45	2.12
924.182	0.12
924.914	0.12
925.646	1.12
926.378	2.12
927.11	0.12
927.841	-1.88
928.573	1.12
929.305	-1.88
930.036	1.12
930.768	2.12
931.499	4.12
932.23	0.12
932.962	-0.88
933.693	1.12
934.424	-0.88
935.155	3.12
935.886	1.12
936.617	0.12
937.348	-0.88
938.078	1.12
938.809	1.12
939.54	1.12
940.27	2.12
941.001	0.12
941.731	1.12
942.461	2.12
943.191	0.12
943.922	2.12
944.652	0.12
945.382	1.12
946.112	0.12
946.841	2.12
947.571	2.12
948.301	-1.88
949.031	0.12
949.76	1.12
950.49	-0.88
951.219	0.12
951.948	-0.88
952.678	2.12
953.407	1.12
954.136	0.12
954.865	1.12
955.594	-0.88
956.323	1.12
957.052	-0.88
957.78	1.12
958.509	3.12
959.238	1.12
959.966	1.12
960.695	0.12
961.423	0.12
962.151	-1.88
962.88	0.12
963.608	1.12
964.336	0.12
965.064	0.12
965.792	1.12
966.52	1.12
967.247	1.12
967.975	-0.88
968.703	-0.88
969.43	1.12
970.158	2.12
970.885	2.12
971.613	0.12
972.34	0.12
973.067	0.12
973.794	0.12
974.521	2.12
975.248	0.12
975.975	0.12
976.702	0.12
977.429	0.12
978.156	2.12
978.882	2.12
979.609	-1.88
980.335	1.12
981.062	1.12
981.788	-1.88
982.514	2.12
983.24	-0.88
983.967	0.12
984.693	1.12
985.419	1.12
986.144	0.12
986.87	1.12
987.596	2.12
988.322	1.12
989.047	0.12
989.773	0.12
990.498	2.12
991.224	-1.88
991.949	1.12
992.674	1.12
993.399	-0.88
994.124	1.12
994.849	1.12
995.574	1.12
996.299	2.12
997.024	-0.88
997.749	1.12
998.473	1.12
999.198	1.12
999.922	2.12
1000.647	-0.88
1001.371	3.12
1002.095	0.12
1002.82	-1.88
1003.544	1.12
1004.268	4.12
1004.992	2.12
1005.716	2.12
1006.439	1.12
1007.163	2.12
1007.887	2.12
1008.611	0.12
1009.334	-1.88
1010.058	1.12
1010.781	2.12
1011.504	1.12
1012.228	0.12
1012.951	2.12
1013.674	-0.88
1014.397	-1.88
1015.12	-1.88
