节点500_285_QEPB04081__619__15-05-51-084.txt的数据

Date: Wed Nov 12 15:05:51 CST 2025
User: PC
Spectrometer: QEPB0408
触发模式: 0
积分时间 (秒): 1.000000E-2
Scans to average: 1
启用暗噪声校正: true
启用非线性校正: false
滑动平均宽度: 0
X轴模式: Wavelengths
Number of Pixels in Spectrum: 1044
>>>>>Begin Spectral Data<<<<<
220.843	0.5
221.644	2.5
222.444	-1.5
223.244	0.5
224.045	0.5
224.845	0.5
225.645	2.5
226.445	-0.5
227.245	-0.5
228.045	1.5
228.845	0.5
229.645	3.5
230.444	2.5
231.244	3.5
232.043	1.5
232.843	1.5
233.642	5.5
234.442	3.5
235.241	5.5
236.04	1.5
236.839	2.5
237.638	2.5
238.437	4.5
239.236	4.5
240.035	3.5
240.833	3.5
241.632	1.5
242.43	3.5
243.229	4.5
244.027	4.5
244.826	4.5
245.624	7.5
246.422	6.5
247.22	3.5
248.018	5.5
248.816	7.5
249.614	4.5
250.412	5.5
251.21	4.5
252.007	7.5
252.805	4.5
253.602	4.5
254.4	5.5
255.197	8.5
255.994	5.5
256.791	6.5
257.589	6.5
258.386	5.5
259.183	7.5
259.979	11.5
260.776	5.5
261.573	9.5
262.37	8.5
263.166	6.5
263.963	10.5
264.759	10.5
265.556	10.5
266.352	10.5
267.148	10.5
267.944	10.5
268.74	12.5
269.536	13.5
270.332	13.5
271.128	13.5
271.924	12.5
272.719	16.5
273.515	15.5
274.311	12.5
275.106	14.5
275.901	13.5
276.697	14.5
277.492	17.5
278.287	13.5
279.082	17.5
279.877	15.5
280.672	19.5
281.467	18.5
282.262	17.5
283.056	14.5
283.851	17.5
284.646	18.5
285.44	18.5
286.234	17.5
287.029	16.5
287.823	16.5
288.617	17.5
289.411	14.5
290.205	17.5
290.999	15.5
291.793	17.5
292.587	16.5
293.381	17.5
294.174	16.5
294.968	17.5
295.761	15.5
296.555	15.5
297.348	14.5
298.141	15.5
298.935	18.5
299.728	15.5
300.521	16.5
301.314	14.5
302.107	14.5
302.899	14.5
303.692	11.5
304.485	10.5
305.277	11.5
306.07	9.5
306.862	13.5
307.655	11.5
308.447	13.5
309.239	10.5
310.031	9.5
310.823	9.5
311.615	8.5
312.407	9.5
313.199	11.5
313.991	8.5
314.783	8.5
315.574	8.5
316.366	5.5
317.157	8.5
317.949	7.5
318.74	8.5
319.531	6.5
320.322	5.5
321.113	6.5
321.904	7.5
322.695	8.5
323.486	8.5
324.277	8.5
325.068	7.5
325.858	8.5
326.649	4.5
327.439	7.5
328.23	7.5
329.02	6.5
329.81	4.5
330.6	5.5
331.391	6.5
332.181	5.5
332.971	6.5
333.76	7.5
334.55	6.5
335.34	7.5
336.13	2.5
336.919	6.5
337.709	6.5
338.498	4.5
339.287	3.5
340.077	6.5
340.866	7.5
341.655	3.5
342.444	5.5
343.233	5.5
344.022	5.5
344.811	7.5
345.6	3.5
346.388	6.5
347.177	4.5
347.965	6.5
348.754	5.5
349.542	4.5
350.33	5.5
351.119	4.5
351.907	4.5
352.695	5.5
353.483	6.5
354.271	5.5
355.059	4.5
355.846	5.5
356.634	4.5
357.422	4.5
358.209	4.5
358.997	4.5
359.784	6.5
360.571	5.5
361.359	4.5
362.146	2.5
362.933	6.5
363.72	5.5
364.507	5.5
365.294	7.5
366.081	3.5
366.867	4.5
367.654	5.5
368.44	6.5
369.227	4.5
370.013	3.5
370.8	3.5
371.586	3.5
372.372	4.5
373.158	2.5
373.944	3.5
374.73	3.5
375.516	3.5
376.302	4.5
377.088	4.5
377.873	5.5
378.659	4.5
379.445	5.5
380.23	3.5
381.015	2.5
381.801	6.5
382.586	3.5
383.371	5.5
384.156	5.5
384.941	4.5
385.726	4.5
386.511	6.5
387.296	4.5
388.08	6.5
388.865	4.5
389.649	3.5
390.434	5.5
391.218	6.5
392.003	4.5
392.787	5.5
393.571	5.5
394.355	5.5
395.139	5.5
395.923	5.5
396.707	5.5
397.491	6.5
398.274	6.5
399.058	5.5
399.842	6.5
400.625	6.5
401.408	4.5
402.192	7.5
402.975	8.5
403.758	5.5
404.541	6.5
405.324	5.5
406.107	6.5
406.89	6.5
407.673	8.5
408.456	6.5
409.238	8.5
410.021	7.5
410.803	6.5
411.586	8.5
412.368	6.5
413.151	6.5
413.933	8.5
414.715	9.5
415.497	9.5
416.279	4.5
417.061	9.5
417.843	7.5
418.624	7.5
419.406	11.5
420.188	8.5
420.969	9.5
421.751	9.5
422.532	8.5
423.313	8.5
424.095	8.5
424.876	10.5
425.657	10.5
426.438	9.5
427.219	12.5
428	9.5
428.78	12.5
429.561	11.5
430.342	12.5
431.122	10.5
431.903	15.5
432.683	11.5
433.464	14.5
434.244	14.5
435.024	16.5
435.804	16.5
436.584	19.5
437.364	14.5
438.144	18.5
438.924	19.5
439.704	26.5
440.483	20.5
441.263	24.5
442.042	23.5
442.822	25.5
443.601	25.5
444.38	26.5
445.16	29.5
445.939	31.5
446.718	38.5
447.497	41.5
448.276	44.5
449.054	49.5
449.833	52.5
450.612	54.5
451.391	59.5
452.169	65.5
452.948	75.5
453.726	80.5
454.504	91.5
455.282	95.5
456.061	109.5
456.839	114.5
457.617	134.5
458.395	146.5
459.172	161.5
459.95	177.5
460.728	200.5
461.506	223.5
462.283	251.5
463.061	280.5
463.838	303.5
464.615	339.5
465.393	384.5
466.17	420.5
466.947	484.5
467.724	533.5
468.501	592.5
469.278	645.5
470.055	710.5
470.831	784.5
471.608	888.5
472.385	988.5
473.161	1088.5
473.938	1204.5
474.714	1322.5
475.49	1458.5
476.266	1599.5
477.043	1757.5
477.819	1943.5
478.595	2124.5
479.371	2348.5
480.146	2560.5
480.922	2828.5
481.698	3089.5
482.473	3403.5
483.249	3718.5
484.024	4057.5
484.8	4454.5
485.575	4871.5
486.35	5346.5
487.126	5827.5
487.901	6334.5
488.676	6913.5
489.451	7542.5
490.225	8222.5
491	8941.5
491.775	9764.5
492.55	10556.5
493.324	11441.5
494.099	12307.5
494.873	13246.5
495.647	14223.5
496.422	15264.5
497.196	16372.5
497.97	17418.5
498.744	18491.5
499.518	19623.5
500.292	20726.5
501.066	21722.5
501.839	22691.5
502.613	23531.5
503.387	24423.5
504.16	25060.5
504.934	25556.5
505.707	25825.5
506.48	25980.5
507.253	26042.5
508.027	25996.5
508.8	25861.5
509.573	25635.5
510.346	25145.5
511.118	24545.5
511.891	23901.5
512.664	23124.5
513.437	22429.5
514.209	21578.5
514.982	20753.5
515.754	19916.5
516.526	19030.5
517.298	18289.5
518.071	17526.5
518.843	16832.5
519.615	16181.5
520.387	15530.5
521.159	14973.5
521.93	14293.5
522.702	13804.5
523.474	13244.5
524.245	12656.5
525.017	12138.5
525.788	11656.5
526.56	11122.5
527.331	10585.5
528.102	10153.5
528.873	9754.5
529.644	9255.5
530.415	8839.5
531.186	8385.5
531.957	7959.5
532.728	7636.5
533.498	7214.5
534.269	6847.5
535.039	6491.5
535.81	6106.5
536.58	5778.5
537.351	5466.5
538.121	5135.5
538.891	4893.5
539.661	4643.5
540.431	4356.5
541.201	4096.5
541.971	3881.5
542.741	3694.5
543.51	3508.5
544.28	3338.5
545.05	3169.5
545.819	3016.5
546.588	2856.5
547.358	2716.5
548.127	2601.5
548.896	2470.5
549.665	2342.5
550.434	2222.5
551.203	2081.5
551.972	1999.5
552.741	1885.5
553.51	1774.5
554.278	1689.5
555.047	1594.5
555.815	1500.5
556.584	1409.5
557.352	1340.5
558.121	1266.5
558.889	1192.5
559.657	1133.5
560.425	1049.5
561.193	1005.5
561.961	949.5
562.729	905.5
563.496	845.5
564.264	805.5
565.032	761.5
565.799	718.5
566.567	684.5
567.334	642.5
568.101	621.5
568.869	570.5
569.636	542.5
570.403	503.5
571.17	475.5
571.937	452.5
572.704	418.5
573.471	404.5
574.237	377.5
575.004	350.5
575.771	340.5
576.537	312.5
577.303	292.5
578.07	287.5
578.836	261.5
579.602	247.5
580.368	230.5
581.134	220.5
581.9	217.5
582.666	202.5
583.432	193.5
584.198	179.5
584.964	177.5
585.729	166.5
586.495	154.5
587.26	149.5
588.025	138.5
588.791	129.5
589.556	125.5
590.321	120.5
591.086	112.5
591.851	105.5
592.616	100.5
593.381	94.5
594.146	89.5
594.911	84.5
595.675	84.5
596.44	79.5
597.204	74.5
597.969	69.5
598.733	70.5
599.497	63.5
600.261	60.5
601.025	57.5
601.79	57.5
602.553	49.5
603.317	53.5
604.081	50.5
604.845	48.5
605.609	44.5
606.372	42.5
607.136	42.5
607.899	39.5
608.662	38.5
609.426	37.5
610.189	34.5
610.952	32.5
611.715	29.5
612.478	32.5
613.241	29.5
614.004	29.5
614.767	28.5
615.529	25.5
616.292	24.5
617.055	25.5
617.817	22.5
618.579	23.5
619.342	22.5
620.104	21.5
620.866	19.5
621.628	21.5
622.39	20.5
623.152	16.5
623.914	17.5
624.676	17.5
625.438	17.5
626.199	14.5
626.961	15.5
627.722	16.5
628.484	16.5
629.245	13.5
630.006	14.5
630.768	12.5
631.529	12.5
632.29	11.5
633.051	10.5
633.812	12.5
634.573	12.5
635.333	12.5
636.094	8.5
636.855	9.5
637.615	9.5
638.376	7.5
639.136	10.5
639.896	8.5
640.657	9.5
641.417	8.5
642.177	9.5
642.937	8.5
643.697	7.5
644.457	6.5
645.216	8.5
645.976	9.5
646.736	7.5
647.495	8.5
648.255	9.5
649.014	6.5
649.774	8.5
650.533	6.5
651.292	7.5
652.051	6.5
652.81	7.5
653.569	7.5
654.328	5.5
655.087	4.5
655.846	6.5
656.604	6.5
657.363	5.5
658.121	8.5
658.88	3.5
659.638	8.5
660.397	5.5
661.155	6.5
661.913	4.5
662.671	4.5
663.429	4.5
664.187	4.5
664.945	4.5
665.703	5.5
666.46	3.5
667.218	5.5
667.976	2.5
668.733	5.5
669.49	3.5
670.248	4.5
671.005	2.5
671.762	6.5
672.519	4.5
673.276	2.5
674.033	3.5
674.79	3.5
675.547	6.5
676.304	5.5
677.06	2.5
677.817	4.5
678.574	6.5
679.33	4.5
680.086	4.5
680.843	2.5
681.599	4.5
682.355	3.5
683.111	6.5
683.867	2.5
684.623	1.5
685.379	4.5
686.135	0.5
686.89	3.5
687.646	3.5
688.402	0.5
689.157	3.5
689.912	3.5
690.668	5.5
691.423	2.5
692.178	3.5
692.933	4.5
693.688	1.5
694.443	3.5
695.198	2.5
695.953	2.5
696.708	2.5
697.462	4.5
698.217	2.5
698.972	6.5
699.726	5.5
700.48	4.5
701.235	4.5
701.989	2.5
702.743	5.5
703.497	3.5
704.251	3.5
705.005	3.5
705.759	1.5
706.513	2.5
707.266	2.5
708.02	4.5
708.774	4.5
709.527	1.5
710.28	6.5
711.034	2.5
711.787	3.5
712.54	3.5
713.293	0.5
714.046	5.5
714.799	2.5
715.552	3.5
716.305	1.5
717.058	3.5
717.81	3.5
718.563	1.5
719.315	4.5
720.068	1.5
720.82	3.5
721.573	6.5
722.325	3.5
723.077	-0.5
723.829	1.5
724.581	6.5
725.333	2.5
726.085	4.5
726.836	3.5
727.588	2.5
728.34	3.5
729.091	1.5
729.843	4.5
730.594	3.5
731.346	3.5
732.097	5.5
732.848	5.5
733.599	2.5
734.35	2.5
735.101	4.5
735.852	4.5
736.603	6.5
737.354	3.5
738.104	3.5
738.855	4.5
739.605	5.5
740.356	5.5
741.106	4.5
741.856	5.5
742.607	4.5
743.357	5.5
744.107	0.5
744.857	5.5
745.607	3.5
746.357	4.5
747.106	5.5
747.856	4.5
748.606	6.5
749.355	3.5
750.105	5.5
750.854	4.5
751.603	7.5
752.353	1.5
753.102	4.5
753.851	2.5
754.6	5.5
755.349	4.5
756.098	6.5
756.847	5.5
757.595	3.5
758.344	5.5
759.093	4.5
759.841	3.5
760.589	6.5
761.338	6.5
762.086	8.5
762.834	5.5
763.582	6.5
764.331	4.5
765.079	7.5
765.826	5.5
766.574	6.5
767.322	10.5
768.07	5.5
768.817	5.5
769.565	6.5
770.312	3.5
771.06	9.5
771.807	6.5
772.554	6.5
773.302	6.5
774.049	6.5
774.796	7.5
775.543	7.5
776.29	8.5
777.036	5.5
777.783	7.5
778.53	7.5
779.276	9.5
780.023	7.5
780.769	6.5
781.516	8.5
782.262	4.5
783.008	7.5
783.754	7.5
784.5	9.5
785.246	6.5
785.992	5.5
786.738	7.5
787.484	9.5
788.23	7.5
788.975	8.5
789.721	5.5
790.466	7.5
791.212	9.5
791.957	7.5
792.702	6.5
793.447	9.5
794.193	5.5
794.938	8.5
795.683	5.5
796.427	10.5
797.172	8.5
797.917	7.5
798.662	5.5
799.406	5.5
800.151	6.5
800.895	7.5
801.64	6.5
802.384	7.5
803.128	4.5
803.872	5.5
804.616	7.5
805.36	6.5
806.104	6.5
806.848	4.5
807.592	5.5
808.336	6.5
809.079	5.5
809.823	7.5
810.566	3.5
811.31	5.5
812.053	3.5
812.796	5.5
813.539	3.5
814.283	4.5
815.026	4.5
815.769	4.5
816.511	5.5
817.254	3.5
817.997	4.5
818.74	5.5
819.482	4.5
820.225	4.5
820.967	4.5
821.71	3.5
822.452	4.5
823.194	4.5
823.936	3.5
824.678	2.5
825.42	2.5
826.162	5.5
826.904	3.5
827.646	0.5
828.388	3.5
829.129	2.5
829.871	4.5
830.612	5.5
831.354	1.5
832.095	3.5
832.836	4.5
833.577	2.5
834.319	3.5
835.06	2.5
835.801	3.5
836.542	4.5
837.282	6.5
838.023	2.5
838.764	1.5
839.504	3.5
840.245	4.5
840.985	0.5
841.726	3.5
842.466	2.5
843.206	1.5
843.946	2.5
844.687	2.5
845.427	1.5
846.166	1.5
846.906	3.5
847.646	2.5
848.386	1.5
849.125	4.5
849.865	0.5
850.605	2.5
851.344	0.5
852.083	2.5
852.823	-0.5
853.562	0.5
854.301	1.5
855.04	2.5
855.779	2.5
856.518	0.5
857.257	1.5
857.995	2.5
858.734	2.5
859.473	1.5
860.211	2.5
860.95	1.5
861.688	0.5
862.426	1.5
863.165	0.5
863.903	2.5
864.641	1.5
865.379	1.5
866.117	0.5
866.855	-1.5
867.593	0.5
868.33	0.5
869.068	0.5
869.806	1.5
870.543	1.5
871.28	-0.5
872.018	2.5
872.755	1.5
873.492	-0.5
874.229	1.5
874.967	1.5
875.703	2.5
876.44	0.5
877.177	0.5
877.914	-0.5
878.651	0.5
879.387	1.5
880.124	1.5
880.86	0.5
881.597	0.5
882.333	0.5
883.069	2.5
883.806	1.5
884.542	1.5
885.278	0.5
886.014	0.5
886.749	1.5
887.485	-2.5
888.221	0.5
888.957	-0.5
889.692	0.5
890.428	0.5
891.163	-1.5
891.899	-0.5
892.634	-0.5
893.369	1.5
894.104	2.5
894.839	0.5
895.574	-0.5
896.309	0.5
897.044	4.5
897.779	-1.5
898.514	0.5
899.248	0.5
899.983	-1.5
900.717	1.5
901.452	-0.5
902.186	0.5
902.92	-0.5
903.654	0.5
904.389	-0.5
905.123	1.5
905.857	0.5
906.59	0.5
907.324	0.5
908.058	0.5
908.792	1.5
909.525	0.5
910.259	-1.5
910.992	0.5
911.726	-0.5
912.459	-0.5
913.192	0.5
913.925	0.5
914.658	-0.5
915.391	1.5
916.124	0.5
916.857	1.5
917.59	0.5
918.323	1.5
919.055	0.5
919.788	-0.5
920.521	0.5
921.253	1.5
921.985	-0.5
922.718	-0.5
923.45	0.5
924.182	0.5
924.914	0.5
925.646	-0.5
926.378	1.5
927.11	-1.5
927.841	0.5
928.573	1.5
929.305	2.5
930.036	0.5
930.768	-0.5
931.499	-0.5
932.23	1.5
932.962	-0.5
933.693	0.5
934.424	0.5
935.155	0.5
935.886	-1.5
936.617	-0.5
937.348	-0.5
938.078	0.5
938.809	0.5
939.54	-0.5
940.27	-1.5
941.001	-0.5
941.731	0.5
942.461	0.5
943.191	2.5
943.922	-0.5
944.652	-0.5
945.382	0.5
946.112	-2.5
946.841	-0.5
947.571	-1.5
948.301	-1.5
949.031	-0.5
949.76	-0.5
950.49	0.5
951.219	0.5
951.948	0.5
952.678	1.5
953.407	-1.5
954.136	0.5
954.865	-2.5
955.594	0.5
956.323	1.5
957.052	-1.5
957.78	0.5
958.509	-2.5
959.238	0.5
959.966	-1.5
960.695	-2.5
961.423	-2.5
962.151	-0.5
962.88	-0.5
963.608	-0.5
964.336	-1.5
965.064	-1.5
965.792	1.5
966.52	-2.5
967.247	0.5
967.975	0.5
968.703	-2.5
969.43	0.5
970.158	1.5
970.885	-0.5
971.613	-1.5
972.34	-0.5
973.067	-0.5
973.794	-1.5
974.521	2.5
975.248	-1.5
975.975	-0.5
976.702	0.5
977.429	-0.5
978.156	-0.5
978.882	-0.5
979.609	-0.5
980.335	0.5
981.062	-0.5
981.788	1.5
982.514	-0.5
983.24	1.5
983.967	0.5
984.693	-0.5
985.419	-0.5
986.144	-0.5
986.87	-0.5
987.596	0.5
988.322	0.5
989.047	0.5
989.773	1.5
990.498	-0.5
991.224	1.5
991.949	0.5
992.674	-1.5
993.399	0.5
994.124	-1.5
994.849	1.5
995.574	-0.5
996.299	-0.5
997.024	-0.5
997.749	0.5
998.473	-0.5
999.198	-0.5
999.922	0.5
1000.647	1.5
1001.371	1.5
1002.095	0.5
1002.82	-2.5
1003.544	-2.5
1004.268	2.5
1004.992	1.5
1005.716	-2.5
1006.439	1.5
1007.163	-1.5
1007.887	-0.5
1008.611	-0.5
1009.334	1.5
1010.058	0.5
1010.781	-1.5
1011.504	-0.5
1012.228	1.5
1012.951	0.5
1013.674	-0.5
1014.397	0.5
1015.12	2.5
