节点500_285_QEPB04081__97__14-57-10-282.txt的数据

Date: Wed Nov 12 14:57:10 CST 2025
User: PC
Spectrometer: QEPB0408
触发模式: 0
积分时间 (秒): 1.000000E-2
Scans to average: 1
启用暗噪声校正: true
启用非线性校正: false
滑动平均宽度: 0
X轴模式: Wavelengths
Number of Pixels in Spectrum: 1044
>>>>>Begin Spectral Data<<<<<
220.843	1.88
221.644	2.88
222.444	0.88
223.244	0.88
224.045	2.88
224.845	2.88
225.645	0.88
226.445	-0.12
227.245	2.88
228.045	-0.12
228.845	1.88
229.645	0.88
230.444	2.88
231.244	1.88
232.043	1.88
232.843	1.88
233.642	5.88
234.442	1.88
235.241	0.88
236.04	0.88
236.839	2.88
237.638	1.88
238.437	5.88
239.236	2.88
240.035	2.88
240.833	2.88
241.632	3.88
242.43	4.88
243.229	4.88
244.027	4.88
244.826	3.88
245.624	2.88
246.422	4.88
247.22	3.88
248.018	4.88
248.816	6.88
249.614	6.88
250.412	4.88
251.21	4.88
252.007	7.88
252.805	6.88
253.602	6.88
254.4	5.88
255.197	6.88
255.994	6.88
256.791	9.88
257.589	8.88
258.386	9.88
259.183	9.88
259.979	10.88
260.776	10.88
261.573	10.88
262.37	8.88
263.166	11.88
263.963	10.88
264.759	11.88
265.556	11.88
266.352	9.88
267.148	15.88
267.944	10.88
268.74	13.88
269.536	14.88
270.332	15.88
271.128	14.88
271.924	15.88
272.719	15.88
273.515	17.88
274.311	17.88
275.106	19.88
275.901	17.88
276.697	15.88
277.492	15.88
278.287	22.88
279.082	17.88
279.877	16.88
280.672	18.88
281.467	16.88
282.262	19.88
283.056	18.88
283.851	16.88
284.646	18.88
285.44	18.88
286.234	16.88
287.029	16.88
287.823	19.88
288.617	17.88
289.411	19.88
290.205	18.88
290.999	18.88
291.793	18.88
292.587	14.88
293.381	15.88
294.174	18.88
294.968	15.88
295.761	16.88
296.555	16.88
297.348	16.88
298.141	16.88
298.935	13.88
299.728	15.88
300.521	14.88
301.314	12.88
302.107	12.88
302.899	11.88
303.692	11.88
304.485	11.88
305.277	11.88
306.07	14.88
306.862	10.88
307.655	9.88
308.447	11.88
309.239	12.88
310.031	10.88
310.823	8.88
311.615	12.88
312.407	8.88
313.199	9.88
313.991	9.88
314.783	8.88
315.574	9.88
316.366	7.88
317.157	5.88
317.949	6.88
318.74	6.88
319.531	8.88
320.322	3.88
321.113	5.88
321.904	7.88
322.695	8.88
323.486	6.88
324.277	5.88
325.068	6.88
325.858	6.88
326.649	7.88
327.439	6.88
328.23	6.88
329.02	8.88
329.81	4.88
330.6	4.88
331.391	5.88
332.181	4.88
332.971	4.88
333.76	6.88
334.55	5.88
335.34	6.88
336.13	7.88
336.919	5.88
337.709	5.88
338.498	4.88
339.287	4.88
340.077	4.88
340.866	4.88
341.655	4.88
342.444	6.88
343.233	7.88
344.022	6.88
344.811	6.88
345.6	5.88
346.388	3.88
347.177	4.88
347.965	4.88
348.754	2.88
349.542	4.88
350.33	3.88
351.119	3.88
351.907	6.88
352.695	4.88
353.483	6.88
354.271	3.88
355.059	2.88
355.846	5.88
356.634	6.88
357.422	3.88
358.209	4.88
358.997	3.88
359.784	7.88
360.571	6.88
361.359	5.88
362.146	4.88
362.933	5.88
363.72	4.88
364.507	3.88
365.294	2.88
366.081	5.88
366.867	4.88
367.654	4.88
368.44	7.88
369.227	5.88
370.013	7.88
370.8	4.88
371.586	4.88
372.372	6.88
373.158	5.88
373.944	4.88
374.73	4.88
375.516	5.88
376.302	5.88
377.088	4.88
377.873	3.88
378.659	2.88
379.445	6.88
380.23	4.88
381.015	4.88
381.801	3.88
382.586	4.88
383.371	6.88
384.156	4.88
384.941	5.88
385.726	4.88
386.511	5.88
387.296	6.88
388.08	5.88
388.865	5.88
389.649	2.88
390.434	4.88
391.218	5.88
392.003	3.88
392.787	4.88
393.571	5.88
394.355	5.88
395.139	5.88
395.923	8.88
396.707	7.88
397.491	5.88
398.274	6.88
399.058	7.88
399.842	7.88
400.625	6.88
401.408	4.88
402.192	8.88
402.975	7.88
403.758	6.88
404.541	6.88
405.324	7.88
406.107	5.88
406.89	5.88
407.673	7.88
408.456	7.88
409.238	8.88
410.021	8.88
410.803	5.88
411.586	7.88
412.368	7.88
413.151	6.88
413.933	8.88
414.715	10.88
415.497	6.88
416.279	7.88
417.061	8.88
417.843	6.88
418.624	12.88
419.406	9.88
420.188	9.88
420.969	10.88
421.751	8.88
422.532	8.88
423.313	10.88
424.095	11.88
424.876	10.88
425.657	11.88
426.438	12.88
427.219	11.88
428	16.88
428.78	12.88
429.561	13.88
430.342	13.88
431.122	12.88
431.903	15.88
432.683	13.88
433.464	14.88
434.244	14.88
435.024	14.88
435.804	15.88
436.584	19.88
437.364	19.88
438.144	18.88
438.924	20.88
439.704	22.88
440.483	20.88
441.263	24.88
442.042	28.88
442.822	25.88
443.601	30.88
444.38	28.88
445.16	32.88
445.939	33.88
446.718	36.88
447.497	36.88
448.276	39.88
449.054	42.88
449.833	42.88
450.612	47.88
451.391	51.88
452.169	61.88
452.948	62.88
453.726	64.88
454.504	80.88
455.282	84.88
456.061	88.88
456.839	105.88
457.617	115.88
458.395	126.88
459.172	140.88
459.95	152.88
460.728	173.88
461.506	190.88
462.283	215.88
463.061	238.88
463.838	272.88
464.615	295.88
465.393	333.88
466.17	380.88
466.947	423.88
467.724	468.88
468.501	524.88
469.278	594.88
470.055	660.88
470.831	729.88
471.608	817.88
472.385	909.88
473.161	1004.88
473.938	1133.88
474.714	1255.88
475.49	1386.88
476.266	1544.88
477.043	1733.88
477.819	1915.88
478.595	2114.88
479.371	2342.88
480.146	2588.88
480.922	2888.88
481.698	3202.88
482.473	3517.88
483.249	3875.88
484.024	4289.88
484.8	4768.88
485.575	5244.88
486.35	5785.88
487.126	6394.88
487.901	7036.88
488.676	7722.88
489.451	8492.88
490.225	9347.88
491	10236.88
491.775	11213.88
492.55	12227.88
493.324	13264.88
494.099	14366.88
494.873	15495.88
495.647	16785.88
496.422	17991.88
497.196	19250.88
497.97	20549.88
498.744	21897.88
499.518	23053.88
500.292	24184.88
501.066	25334.88
501.839	26271.88
502.613	27123.88
503.387	27796.88
504.16	28359.88
504.934	28636.88
505.707	28670.88
506.48	28612.88
507.253	28329.88
508.027	27959.88
508.8	27453.88
509.573	26851.88
510.346	26033.88
511.118	25176.88
511.891	24253.88
512.664	23330.88
513.437	22370.88
514.209	21360.88
514.982	20410.88
515.754	19510.88
516.526	18570.88
517.298	17790.88
518.071	16996.88
518.843	16346.88
519.615	15748.88
520.387	15065.88
521.159	14540.88
521.93	13934.88
522.702	13391.88
523.474	12802.88
524.245	12272.88
525.017	11720.88
525.788	11272.88
526.56	10704.88
527.331	10231.88
528.102	9764.88
528.873	9258.88
529.644	8782.88
530.415	8359.88
531.186	7888.88
531.957	7491.88
532.728	7076.88
533.498	6713.88
534.269	6325.88
535.039	5972.88
535.81	5664.88
536.58	5327.88
537.351	4988.88
538.121	4739.88
538.891	4475.88
539.661	4237.88
540.431	3998.88
541.201	3777.88
541.971	3591.88
542.741	3396.88
543.51	3224.88
544.28	3080.88
545.05	2938.88
545.819	2765.88
546.588	2640.88
547.358	2505.88
548.127	2364.88
548.896	2257.88
549.665	2135.88
550.434	2028.88
551.203	1908.88
551.972	1811.88
552.741	1709.88
553.51	1622.88
554.278	1514.88
555.047	1450.88
555.815	1347.88
556.584	1288.88
557.352	1209.88
558.121	1127.88
558.889	1074.88
559.657	1006.88
560.425	947.88
561.193	901.88
561.961	858.88
562.729	796.88
563.496	758.88
564.264	726.88
565.032	677.88
565.799	640.88
566.567	619.88
567.334	575.88
568.101	534.88
568.869	517.88
569.636	480.88
570.403	455.88
571.17	426.88
571.937	406.88
572.704	374.88
573.471	357.88
574.237	332.88
575.004	327.88
575.771	303.88
576.537	284.88
577.303	265.88
578.07	248.88
578.836	236.88
579.602	225.88
580.368	212.88
581.134	197.88
581.9	181.88
582.666	177.88
583.432	167.88
584.198	157.88
584.964	154.88
585.729	145.88
586.495	138.88
587.26	131.88
588.025	119.88
588.791	116.88
589.556	111.88
590.321	103.88
591.086	102.88
591.851	95.88
592.616	92.88
593.381	83.88
594.146	80.88
594.911	76.88
595.675	73.88
596.44	69.88
597.204	68.88
597.969	63.88
598.733	65.88
599.497	63.88
600.261	54.88
601.025	51.88
601.79	51.88
602.553	48.88
603.317	46.88
604.081	48.88
604.845	41.88
605.609	40.88
606.372	41.88
607.136	34.88
607.899	37.88
608.662	34.88
609.426	33.88
610.189	34.88
610.952	31.88
611.715	28.88
612.478	28.88
613.241	27.88
614.004	26.88
614.767	26.88
615.529	24.88
616.292	22.88
617.055	21.88
617.817	22.88
618.579	18.88
619.342	21.88
620.104	20.88
620.866	18.88
621.628	18.88
622.39	18.88
623.152	20.88
623.914	15.88
624.676	17.88
625.438	14.88
626.199	16.88
626.961	14.88
627.722	12.88
628.484	14.88
629.245	11.88
630.006	12.88
630.768	13.88
631.529	14.88
632.29	12.88
633.051	10.88
633.812	11.88
634.573	9.88
635.333	8.88
636.094	10.88
636.855	9.88
637.615	10.88
638.376	9.88
639.136	10.88
639.896	6.88
640.657	10.88
641.417	7.88
642.177	8.88
642.937	8.88
643.697	7.88
644.457	9.88
645.216	8.88
645.976	5.88
646.736	10.88
647.495	6.88
648.255	8.88
649.014	5.88
649.774	5.88
650.533	5.88
651.292	5.88
652.051	5.88
652.81	4.88
653.569	4.88
654.328	2.88
655.087	3.88
655.846	5.88
656.604	6.88
657.363	7.88
658.121	4.88
658.88	6.88
659.638	3.88
660.397	4.88
661.155	7.88
661.913	5.88
662.671	3.88
663.429	2.88
664.187	2.88
664.945	2.88
665.703	3.88
666.46	3.88
667.218	5.88
667.976	3.88
668.733	5.88
669.49	3.88
670.248	4.88
671.005	3.88
671.762	6.88
672.519	3.88
673.276	1.88
674.033	2.88
674.79	4.88
675.547	2.88
676.304	3.88
677.06	3.88
677.817	1.88
678.574	3.88
679.33	3.88
680.086	2.88
680.843	1.88
681.599	5.88
682.355	2.88
683.111	2.88
683.867	5.88
684.623	2.88
685.379	2.88
686.135	1.88
686.89	2.88
687.646	3.88
688.402	3.88
689.157	5.88
689.912	4.88
690.668	2.88
691.423	-0.12
692.178	4.88
692.933	3.88
693.688	3.88
694.443	1.88
695.198	3.88
695.953	2.88
696.708	3.88
697.462	4.88
698.217	1.88
698.972	4.88
699.726	2.88
700.48	0.88
701.235	4.88
701.989	4.88
702.743	2.88
703.497	4.88
704.251	4.88
705.005	2.88
705.759	2.88
706.513	1.88
707.266	3.88
708.02	2.88
708.774	2.88
709.527	1.88
710.28	3.88
711.034	2.88
711.787	3.88
712.54	6.88
713.293	3.88
714.046	1.88
714.799	0.88
715.552	3.88
716.305	4.88
717.058	4.88
717.81	2.88
718.563	1.88
719.315	5.88
720.068	1.88
720.82	2.88
721.573	4.88
722.325	3.88
723.077	4.88
723.829	2.88
724.581	1.88
725.333	4.88
726.085	2.88
726.836	2.88
727.588	2.88
728.34	2.88
729.091	2.88
729.843	4.88
730.594	3.88
731.346	2.88
732.097	3.88
732.848	4.88
733.599	3.88
734.35	5.88
735.101	2.88
735.852	3.88
736.603	1.88
737.354	3.88
738.104	5.88
738.855	4.88
739.605	3.88
740.356	6.88
741.106	2.88
741.856	3.88
742.607	5.88
743.357	5.88
744.107	2.88
744.857	3.88
745.607	3.88
746.357	6.88
747.106	4.88
747.856	6.88
748.606	5.88
749.355	4.88
750.105	3.88
750.854	4.88
751.603	6.88
752.353	5.88
753.102	5.88
753.851	5.88
754.6	2.88
755.349	5.88
756.098	5.88
756.847	3.88
757.595	6.88
758.344	6.88
759.093	4.88
759.841	6.88
760.589	7.88
761.338	6.88
762.086	7.88
762.834	6.88
763.582	4.88
764.331	7.88
765.079	6.88
765.826	7.88
766.574	7.88
767.322	7.88
768.07	8.88
768.817	7.88
769.565	7.88
770.312	6.88
771.06	6.88
771.807	7.88
772.554	8.88
773.302	9.88
774.049	10.88
774.796	7.88
775.543	9.88
776.29	8.88
777.036	6.88
777.783	7.88
778.53	10.88
779.276	7.88
780.023	7.88
780.769	7.88
781.516	7.88
782.262	7.88
783.008	8.88
783.754	9.88
784.5	6.88
785.246	8.88
785.992	9.88
786.738	6.88
787.484	6.88
788.23	8.88
788.975	8.88
789.721	9.88
790.466	7.88
791.212	8.88
791.957	7.88
792.702	6.88
793.447	8.88
794.193	8.88
794.938	10.88
795.683	6.88
796.427	7.88
797.172	5.88
797.917	5.88
798.662	8.88
799.406	5.88
800.151	7.88
800.895	6.88
801.64	7.88
802.384	5.88
803.128	7.88
803.872	4.88
804.616	6.88
805.36	5.88
806.104	4.88
806.848	5.88
807.592	8.88
808.336	5.88
809.079	5.88
809.823	1.88
810.566	5.88
811.31	5.88
812.053	3.88
812.796	4.88
813.539	2.88
814.283	4.88
815.026	3.88
815.769	5.88
816.511	3.88
817.254	3.88
817.997	5.88
818.74	3.88
819.482	3.88
820.225	3.88
820.967	3.88
821.71	3.88
822.452	1.88
823.194	6.88
823.936	2.88
824.678	3.88
825.42	3.88
826.162	2.88
826.904	5.88
827.646	1.88
828.388	2.88
829.129	2.88
829.871	3.88
830.612	3.88
831.354	2.88
832.095	1.88
832.836	3.88
833.577	3.88
834.319	2.88
835.06	4.88
835.801	1.88
836.542	2.88
837.282	1.88
838.023	-0.12
838.764	3.88
839.504	1.88
840.245	2.88
840.985	2.88
841.726	1.88
842.466	3.88
843.206	3.88
843.946	1.88
844.687	3.88
845.427	0.88
846.166	3.88
846.906	0.88
847.646	2.88
848.386	0.88
849.125	0.88
849.865	2.88
850.605	1.88
851.344	2.88
852.083	0.88
852.823	2.88
853.562	0.88
854.301	0.88
855.04	2.88
855.779	-0.12
856.518	2.88
857.257	1.88
857.995	-0.12
858.734	2.88
859.473	0.88
860.211	1.88
860.95	4.88
861.688	0.88
862.426	2.88
863.165	0.88
863.903	-0.12
864.641	0.88
865.379	1.88
866.117	2.88
866.855	-0.12
867.593	1.88
868.33	2.88
869.068	0.88
869.806	0.88
870.543	2.88
871.28	0.88
872.018	-0.12
872.755	0.88
873.492	-0.12
874.229	2.88
874.967	0.88
875.703	-1.12
876.44	2.88
877.177	0.88
877.914	2.88
878.651	0.88
879.387	0.88
880.124	0.88
880.86	-1.12
881.597	1.88
882.333	-0.12
883.069	-0.12
883.806	0.88
884.542	-0.12
885.278	1.88
886.014	0.88
886.749	0.88
887.485	-0.12
888.221	-1.12
888.957	0.88
889.692	1.88
890.428	0.88
891.163	1.88
891.899	-1.12
892.634	-3.12
893.369	0.88
894.104	0.88
894.839	-0.12
895.574	0.88
896.309	0.88
897.044	-0.12
897.779	0.88
898.514	-0.12
899.248	-1.12
899.983	0.88
900.717	1.88
901.452	0.88
902.186	-1.12
902.92	0.88
903.654	-1.12
904.389	2.88
905.123	0.88
905.857	1.88
906.59	-1.12
907.324	-1.12
908.058	1.88
908.792	-1.12
909.525	-1.12
910.259	2.88
910.992	-1.12
911.726	-0.12
912.459	-0.12
913.192	0.88
913.925	1.88
914.658	-0.12
915.391	-1.12
916.124	-1.12
916.857	0.88
917.59	-0.12
918.323	1.88
919.055	0.88
919.788	-1.12
920.521	0.88
921.253	-0.12
921.985	0.88
922.718	-2.12
923.45	-0.12
924.182	-0.12
924.914	0.88
925.646	0.88
926.378	-1.12
927.11	-1.12
927.841	0.88
928.573	0.88
929.305	0.88
930.036	-0.12
930.768	-1.12
931.499	-2.12
932.23	-1.12
932.962	0.88
933.693	-0.12
934.424	0.88
935.155	-1.12
935.886	1.88
936.617	-0.12
937.348	-3.12
938.078	1.88
938.809	0.88
939.54	1.88
940.27	0.88
941.001	-1.12
941.731	-0.12
942.461	-1.12
943.191	-0.12
943.922	-0.12
944.652	-0.12
945.382	-2.12
946.112	-1.12
946.841	0.88
947.571	-0.12
948.301	-2.12
949.031	0.88
949.76	-1.12
950.49	-1.12
951.219	-1.12
951.948	-0.12
952.678	1.88
953.407	-1.12
954.136	-1.12
954.865	-0.12
955.594	2.88
956.323	-1.12
957.052	0.88
957.78	-1.12
958.509	-1.12
959.238	-0.12
959.966	0.88
960.695	-1.12
961.423	0.88
962.151	-1.12
962.88	-1.12
963.608	-2.12
964.336	-0.12
965.064	-1.12
965.792	-0.12
966.52	0.88
967.247	-0.12
967.975	1.88
968.703	-0.12
969.43	-0.12
970.158	0.88
970.885	0.88
971.613	-1.12
972.34	-0.12
973.067	-0.12
973.794	-1.12
974.521	-2.12
975.248	-0.12
975.975	-1.12
976.702	0.88
977.429	-0.12
978.156	-2.12
978.882	-1.12
979.609	-0.12
980.335	-2.12
981.062	0.88
981.788	-0.12
982.514	-3.12
983.24	-2.12
983.967	0.88
984.693	-1.12
985.419	-1.12
986.144	-0.12
986.87	0.88
987.596	-1.12
988.322	-0.12
989.047	-1.12
989.773	-1.12
990.498	-0.12
991.224	0.88
991.949	-0.12
992.674	0.88
993.399	0.88
994.124	-0.12
994.849	-1.12
995.574	-1.12
996.299	0.88
997.024	-0.12
997.749	-1.12
998.473	0.88
999.198	-0.12
999.922	-0.12
1000.647	-1.12
1001.371	4.88
1002.095	-1.12
1002.82	-2.12
1003.544	-0.12
1004.268	1.88
1004.992	-0.12
1005.716	0.88
1006.439	-0.12
1007.163	2.88
1007.887	-0.12
1008.611	-2.12
1009.334	-0.12
1010.058	0.88
1010.781	-1.12
1011.504	1.88
1012.228	-0.12
1012.951	-0.12
1013.674	-0.12
1014.397	-1.12
1015.12	-0.12
