节点500_285_QEPB04081__180__14-58-33-159.txt的数据

Date: Wed Nov 12 14:58:33 CST 2025
User: PC
Spectrometer: QEPB0408
触发模式: 0
积分时间 (秒): 1.000000E-2
Scans to average: 1
启用暗噪声校正: true
启用非线性校正: false
滑动平均宽度: 0
X轴模式: Wavelengths
Number of Pixels in Spectrum: 1044
>>>>>Begin Spectral Data<<<<<
220.843	0.12
221.644	2.12
222.444	0.12
223.244	3.12
224.045	4.12
224.845	5.12
225.645	0.12
226.445	0.12
227.245	2.12
228.045	1.12
228.845	1.12
229.645	1.12
230.444	3.12
231.244	2.12
232.043	2.12
232.843	0.12
233.642	1.12
234.442	1.12
235.241	1.12
236.04	5.12
236.839	3.12
237.638	2.12
238.437	3.12
239.236	3.12
240.035	5.12
240.833	5.12
241.632	5.12
242.43	3.12
243.229	4.12
244.027	5.12
244.826	4.12
245.624	5.12
246.422	8.12
247.22	6.12
248.018	6.12
248.816	7.12
249.614	7.12
250.412	3.12
251.21	7.12
252.007	4.12
252.805	4.12
253.602	11.12
254.4	6.12
255.197	6.12
255.994	8.12
256.791	8.12
257.589	8.12
258.386	7.12
259.183	7.12
259.979	11.12
260.776	10.12
261.573	9.12
262.37	13.12
263.166	11.12
263.963	12.12
264.759	14.12
265.556	14.12
266.352	11.12
267.148	13.12
267.944	13.12
268.74	15.12
269.536	16.12
270.332	15.12
271.128	15.12
271.924	17.12
272.719	14.12
273.515	16.12
274.311	21.12
275.106	18.12
275.901	18.12
276.697	14.12
277.492	17.12
278.287	20.12
279.082	15.12
279.877	18.12
280.672	19.12
281.467	16.12
282.262	19.12
283.056	18.12
283.851	19.12
284.646	20.12
285.44	19.12
286.234	18.12
287.029	18.12
287.823	21.12
288.617	21.12
289.411	19.12
290.205	17.12
290.999	19.12
291.793	18.12
292.587	16.12
293.381	20.12
294.174	16.12
294.968	13.12
295.761	15.12
296.555	15.12
297.348	16.12
298.141	16.12
298.935	19.12
299.728	17.12
300.521	15.12
301.314	13.12
302.107	11.12
302.899	11.12
303.692	12.12
304.485	14.12
305.277	11.12
306.07	12.12
306.862	13.12
307.655	11.12
308.447	11.12
309.239	9.12
310.031	10.12
310.823	8.12
311.615	8.12
312.407	7.12
313.199	9.12
313.991	7.12
314.783	10.12
315.574	8.12
316.366	7.12
317.157	9.12
317.949	8.12
318.74	5.12
319.531	6.12
320.322	5.12
321.113	7.12
321.904	7.12
322.695	6.12
323.486	4.12
324.277	8.12
325.068	6.12
325.858	10.12
326.649	6.12
327.439	8.12
328.23	5.12
329.02	8.12
329.81	3.12
330.6	6.12
331.391	3.12
332.181	7.12
332.971	7.12
333.76	8.12
334.55	5.12
335.34	6.12
336.13	7.12
336.919	6.12
337.709	7.12
338.498	9.12
339.287	8.12
340.077	2.12
340.866	6.12
341.655	7.12
342.444	7.12
343.233	6.12
344.022	3.12
344.811	7.12
345.6	5.12
346.388	5.12
347.177	7.12
347.965	5.12
348.754	6.12
349.542	7.12
350.33	6.12
351.119	6.12
351.907	5.12
352.695	7.12
353.483	4.12
354.271	5.12
355.059	4.12
355.846	6.12
356.634	7.12
357.422	3.12
358.209	5.12
358.997	2.12
359.784	6.12
360.571	2.12
361.359	4.12
362.146	7.12
362.933	5.12
363.72	5.12
364.507	4.12
365.294	5.12
366.081	4.12
366.867	4.12
367.654	5.12
368.44	6.12
369.227	8.12
370.013	4.12
370.8	4.12
371.586	5.12
372.372	3.12
373.158	6.12
373.944	6.12
374.73	4.12
375.516	6.12
376.302	2.12
377.088	5.12
377.873	5.12
378.659	6.12
379.445	5.12
380.23	4.12
381.015	5.12
381.801	6.12
382.586	4.12
383.371	6.12
384.156	7.12
384.941	6.12
385.726	6.12
386.511	7.12
387.296	4.12
388.08	7.12
388.865	5.12
389.649	6.12
390.434	7.12
391.218	3.12
392.003	8.12
392.787	4.12
393.571	7.12
394.355	7.12
395.139	5.12
395.923	5.12
396.707	5.12
397.491	6.12
398.274	9.12
399.058	9.12
399.842	6.12
400.625	8.12
401.408	8.12
402.192	6.12
402.975	6.12
403.758	6.12
404.541	10.12
405.324	8.12
406.107	6.12
406.89	8.12
407.673	5.12
408.456	7.12
409.238	9.12
410.021	9.12
410.803	10.12
411.586	7.12
412.368	8.12
413.151	8.12
413.933	5.12
414.715	6.12
415.497	11.12
416.279	8.12
417.061	9.12
417.843	8.12
418.624	8.12
419.406	10.12
420.188	9.12
420.969	10.12
421.751	9.12
422.532	9.12
423.313	11.12
424.095	11.12
424.876	12.12
425.657	9.12
426.438	12.12
427.219	11.12
428	11.12
428.78	14.12
429.561	13.12
430.342	12.12
431.122	13.12
431.903	13.12
432.683	15.12
433.464	15.12
434.244	15.12
435.024	13.12
435.804	18.12
436.584	16.12
437.364	18.12
438.144	19.12
438.924	21.12
439.704	20.12
440.483	24.12
441.263	21.12
442.042	26.12
442.822	25.12
443.601	28.12
444.38	28.12
445.16	29.12
445.939	33.12
446.718	35.12
447.497	39.12
448.276	42.12
449.054	46.12
449.833	47.12
450.612	49.12
451.391	55.12
452.169	59.12
452.948	65.12
453.726	73.12
454.504	77.12
455.282	84.12
456.061	97.12
456.839	105.12
457.617	118.12
458.395	131.12
459.172	146.12
459.95	160.12
460.728	182.12
461.506	204.12
462.283	215.12
463.061	245.12
463.838	278.12
464.615	315.12
465.393	347.12
466.17	382.12
466.947	439.12
467.724	484.12
468.501	539.12
469.278	616.12
470.055	667.12
470.831	733.12
471.608	835.12
472.385	924.12
473.161	1031.12
473.938	1141.12
474.714	1275.12
475.49	1420.12
476.266	1571.12
477.043	1732.12
477.819	1911.12
478.595	2131.12
479.371	2351.12
480.146	2576.12
480.922	2862.12
481.698	3166.12
482.473	3513.12
483.249	3865.12
484.024	4250.12
484.8	4696.12
485.575	5176.12
486.35	5717.12
487.126	6262.12
487.901	6908.12
488.676	7614.12
489.451	8333.12
490.225	9135.12
491	10022.12
491.775	10969.12
492.55	11958.12
493.324	12950.12
494.099	13935.12
494.873	15075.12
495.647	16305.12
496.422	17486.12
497.196	18728.12
497.97	19980.12
498.744	21236.12
499.518	22447.12
500.292	23567.12
501.066	24690.12
501.839	25629.12
502.613	26513.12
503.387	27269.12
504.16	27826.12
504.934	28160.12
505.707	28113.12
506.48	28106.12
507.253	27955.12
508.027	27632.12
508.8	27249.12
509.573	26703.12
510.346	26025.12
511.118	25094.12
511.891	24291.12
512.664	23345.12
513.437	22433.12
514.209	21410.12
514.982	20549.12
515.754	19636.12
516.526	18681.12
517.298	17904.12
518.071	17090.12
518.843	16466.12
519.615	15840.12
520.387	15176.12
521.159	14593.12
521.93	13975.12
522.702	13478.12
523.474	12888.12
524.245	12374.12
525.017	11799.12
525.788	11354.12
526.56	10800.12
527.331	10268.12
528.102	9839.12
528.873	9384.12
529.644	8869.12
530.415	8473.12
531.186	8006.12
531.957	7606.12
532.728	7220.12
533.498	6811.12
534.269	6452.12
535.039	6084.12
535.81	5694.12
536.58	5421.12
537.351	5111.12
538.121	4819.12
538.891	4556.12
539.661	4312.12
540.431	4079.12
541.201	3847.12
541.971	3652.12
542.741	3465.12
543.51	3291.12
544.28	3128.12
545.05	2982.12
545.819	2852.12
546.588	2683.12
547.358	2548.12
548.127	2414.12
548.896	2328.12
549.665	2166.12
550.434	2067.12
551.203	1956.12
551.972	1857.12
552.741	1766.12
553.51	1654.12
554.278	1553.12
555.047	1478.12
555.815	1378.12
556.584	1315.12
557.352	1242.12
558.121	1168.12
558.889	1105.12
559.657	1043.12
560.425	986.12
561.193	913.12
561.961	869.12
562.729	820.12
563.496	768.12
564.264	743.12
565.032	696.12
565.799	663.12
566.567	630.12
567.334	588.12
568.101	562.12
568.869	525.12
569.636	487.12
570.403	473.12
571.17	434.12
571.937	421.12
572.704	383.12
573.471	369.12
574.237	346.12
575.004	334.12
575.771	308.12
576.537	289.12
577.303	274.12
578.07	260.12
578.836	241.12
579.602	229.12
580.368	215.12
581.134	202.12
581.9	189.12
582.666	187.12
583.432	176.12
584.198	169.12
584.964	158.12
585.729	145.12
586.495	139.12
587.26	135.12
588.025	124.12
588.791	122.12
589.556	111.12
590.321	103.12
591.086	101.12
591.851	96.12
592.616	91.12
593.381	89.12
594.146	84.12
594.911	79.12
595.675	72.12
596.44	70.12
597.204	69.12
597.969	71.12
598.733	65.12
599.497	61.12
600.261	56.12
601.025	53.12
601.79	56.12
602.553	52.12
603.317	48.12
604.081	45.12
604.845	41.12
605.609	43.12
606.372	40.12
607.136	43.12
607.899	37.12
608.662	35.12
609.426	32.12
610.189	34.12
610.952	31.12
611.715	30.12
612.478	27.12
613.241	28.12
614.004	26.12
614.767	27.12
615.529	25.12
616.292	26.12
617.055	22.12
617.817	21.12
618.579	19.12
619.342	20.12
620.104	22.12
620.866	19.12
621.628	20.12
622.39	20.12
623.152	17.12
623.914	17.12
624.676	13.12
625.438	18.12
626.199	13.12
626.961	17.12
627.722	13.12
628.484	13.12
629.245	15.12
630.006	11.12
630.768	15.12
631.529	9.12
632.29	13.12
633.051	10.12
633.812	11.12
634.573	13.12
635.333	12.12
636.094	13.12
636.855	12.12
637.615	9.12
638.376	10.12
639.136	8.12
639.896	9.12
640.657	6.12
641.417	9.12
642.177	11.12
642.937	8.12
643.697	11.12
644.457	6.12
645.216	8.12
645.976	9.12
646.736	7.12
647.495	8.12
648.255	6.12
649.014	9.12
649.774	5.12
650.533	9.12
651.292	7.12
652.051	7.12
652.81	7.12
653.569	6.12
654.328	7.12
655.087	6.12
655.846	5.12
656.604	5.12
657.363	6.12
658.121	7.12
658.88	5.12
659.638	5.12
660.397	3.12
661.155	5.12
661.913	6.12
662.671	6.12
663.429	4.12
664.187	4.12
664.945	2.12
665.703	5.12
666.46	5.12
667.218	5.12
667.976	4.12
668.733	3.12
669.49	4.12
670.248	6.12
671.005	5.12
671.762	5.12
672.519	4.12
673.276	3.12
674.033	4.12
674.79	3.12
675.547	6.12
676.304	4.12
677.06	3.12
677.817	5.12
678.574	4.12
679.33	4.12
680.086	3.12
680.843	3.12
681.599	1.12
682.355	3.12
683.111	6.12
683.867	5.12
684.623	3.12
685.379	3.12
686.135	1.12
686.89	4.12
687.646	4.12
688.402	3.12
689.157	4.12
689.912	6.12
690.668	4.12
691.423	4.12
692.178	7.12
692.933	4.12
693.688	5.12
694.443	4.12
695.198	3.12
695.953	2.12
696.708	3.12
697.462	2.12
698.217	5.12
698.972	2.12
699.726	5.12
700.48	3.12
701.235	5.12
701.989	4.12
702.743	4.12
703.497	3.12
704.251	4.12
705.005	3.12
705.759	0.12
706.513	2.12
707.266	5.12
708.02	2.12
708.774	5.12
709.527	3.12
710.28	4.12
711.034	2.12
711.787	4.12
712.54	3.12
713.293	4.12
714.046	3.12
714.799	3.12
715.552	6.12
716.305	3.12
717.058	2.12
717.81	4.12
718.563	3.12
719.315	3.12
720.068	4.12
720.82	5.12
721.573	5.12
722.325	5.12
723.077	3.12
723.829	3.12
724.581	4.12
725.333	3.12
726.085	6.12
726.836	4.12
727.588	3.12
728.34	4.12
729.091	2.12
729.843	4.12
730.594	4.12
731.346	2.12
732.097	5.12
732.848	4.12
733.599	2.12
734.35	4.12
735.101	4.12
735.852	5.12
736.603	5.12
737.354	5.12
738.104	4.12
738.855	4.12
739.605	3.12
740.356	7.12
741.106	3.12
741.856	5.12
742.607	6.12
743.357	3.12
744.107	6.12
744.857	5.12
745.607	3.12
746.357	4.12
747.106	3.12
747.856	5.12
748.606	1.12
749.355	4.12
750.105	6.12
750.854	5.12
751.603	6.12
752.353	5.12
753.102	8.12
753.851	6.12
754.6	7.12
755.349	5.12
756.098	8.12
756.847	5.12
757.595	4.12
758.344	6.12
759.093	5.12
759.841	8.12
760.589	5.12
761.338	5.12
762.086	8.12
762.834	7.12
763.582	8.12
764.331	5.12
765.079	8.12
765.826	7.12
766.574	6.12
767.322	6.12
768.07	7.12
768.817	8.12
769.565	6.12
770.312	7.12
771.06	7.12
771.807	8.12
772.554	7.12
773.302	9.12
774.049	9.12
774.796	9.12
775.543	8.12
776.29	10.12
777.036	8.12
777.783	8.12
778.53	9.12
779.276	9.12
780.023	7.12
780.769	8.12
781.516	8.12
782.262	10.12
783.008	8.12
783.754	9.12
784.5	12.12
785.246	10.12
785.992	8.12
786.738	6.12
787.484	10.12
788.23	8.12
788.975	9.12
789.721	9.12
790.466	10.12
791.212	10.12
791.957	8.12
792.702	9.12
793.447	7.12
794.193	9.12
794.938	7.12
795.683	9.12
796.427	7.12
797.172	6.12
797.917	7.12
798.662	8.12
799.406	6.12
800.151	7.12
800.895	7.12
801.64	6.12
802.384	4.12
803.128	7.12
803.872	5.12
804.616	7.12
805.36	5.12
806.104	6.12
806.848	6.12
807.592	5.12
808.336	7.12
809.079	5.12
809.823	5.12
810.566	7.12
811.31	5.12
812.053	7.12
812.796	5.12
813.539	6.12
814.283	8.12
815.026	5.12
815.769	6.12
816.511	5.12
817.254	3.12
817.997	3.12
818.74	4.12
819.482	4.12
820.225	1.12
820.967	5.12
821.71	4.12
822.452	3.12
823.194	7.12
823.936	4.12
824.678	7.12
825.42	4.12
826.162	5.12
826.904	3.12
827.646	3.12
828.388	4.12
829.129	2.12
829.871	4.12
830.612	3.12
831.354	4.12
832.095	2.12
832.836	3.12
833.577	1.12
834.319	3.12
835.06	3.12
835.801	4.12
836.542	2.12
837.282	6.12
838.023	3.12
838.764	2.12
839.504	2.12
840.245	1.12
840.985	1.12
841.726	2.12
842.466	3.12
843.206	3.12
843.946	3.12
844.687	1.12
845.427	3.12
846.166	3.12
846.906	1.12
847.646	3.12
848.386	3.12
849.125	2.12
849.865	2.12
850.605	3.12
851.344	2.12
852.083	1.12
852.823	1.12
853.562	3.12
854.301	0.12
855.04	5.12
855.779	3.12
856.518	3.12
857.257	1.12
857.995	2.12
858.734	1.12
859.473	1.12
860.211	1.12
860.95	0.12
861.688	3.12
862.426	1.12
863.165	-0.88
863.903	1.12
864.641	0.12
865.379	3.12
866.117	-1.88
866.855	2.12
867.593	1.12
868.33	1.12
869.068	-0.88
869.806	3.12
870.543	1.12
871.28	2.12
872.018	1.12
872.755	2.12
873.492	-0.88
874.229	1.12
874.967	1.12
875.703	1.12
876.44	-0.88
877.177	1.12
877.914	4.12
878.651	0.12
879.387	-1.88
880.124	2.12
880.86	0.12
881.597	2.12
882.333	0.12
883.069	1.12
883.806	0.12
884.542	1.12
885.278	1.12
886.014	1.12
886.749	1.12
887.485	0.12
888.221	2.12
888.957	-0.88
889.692	0.12
890.428	1.12
891.163	-0.88
891.899	0.12
892.634	-0.88
893.369	2.12
894.104	0.12
894.839	1.12
895.574	0.12
896.309	0.12
897.044	1.12
897.779	0.12
898.514	1.12
899.248	-0.88
899.983	0.12
900.717	1.12
901.452	0.12
902.186	3.12
902.92	-0.88
903.654	0.12
904.389	0.12
905.123	0.12
905.857	-0.88
906.59	0.12
907.324	-1.88
908.058	0.12
908.792	-0.88
909.525	0.12
910.259	-0.88
910.992	1.12
911.726	-0.88
912.459	0.12
913.192	1.12
913.925	-2.88
914.658	0.12
915.391	2.12
916.124	0.12
916.857	0.12
917.59	-1.88
918.323	-0.88
919.055	-0.88
919.788	-1.88
920.521	0.12
921.253	1.12
921.985	1.12
922.718	0.12
923.45	-1.88
924.182	-0.88
924.914	-0.88
925.646	1.12
926.378	0.12
927.11	0.12
927.841	-0.88
928.573	1.12
929.305	-1.88
930.036	-0.88
930.768	0.12
931.499	1.12
932.23	-0.88
932.962	0.12
933.693	-0.88
934.424	-0.88
935.155	-0.88
935.886	0.12
936.617	1.12
937.348	2.12
938.078	0.12
938.809	-0.88
939.54	3.12
940.27	-1.88
941.001	1.12
941.731	-1.88
942.461	1.12
943.191	-1.88
943.922	2.12
944.652	1.12
945.382	2.12
946.112	0.12
946.841	-0.88
947.571	2.12
948.301	1.12
949.031	-0.88
949.76	0.12
950.49	0.12
951.219	0.12
951.948	1.12
952.678	-1.88
953.407	0.12
954.136	2.12
954.865	-0.88
955.594	0.12
956.323	1.12
957.052	-0.88
957.78	-0.88
958.509	-0.88
959.238	0.12
959.966	-0.88
960.695	0.12
961.423	0.12
962.151	1.12
962.88	-2.88
963.608	0.12
964.336	-0.88
965.064	2.12
965.792	-0.88
966.52	0.12
967.247	-0.88
967.975	0.12
968.703	0.12
969.43	1.12
970.158	0.12
970.885	-0.88
971.613	0.12
972.34	-1.88
973.067	-1.88
973.794	2.12
974.521	-0.88
975.248	1.12
975.975	0.12
976.702	-1.88
977.429	0.12
978.156	-2.88
978.882	0.12
979.609	0.12
980.335	0.12
981.062	1.12
981.788	-1.88
982.514	0.12
983.24	-0.88
983.967	0.12
984.693	1.12
985.419	-0.88
986.144	-0.88
986.87	0.12
987.596	0.12
988.322	-0.88
989.047	2.12
989.773	-0.88
990.498	-1.88
991.224	1.12
991.949	1.12
992.674	1.12
993.399	1.12
994.124	0.12
994.849	0.12
995.574	-0.88
996.299	1.12
997.024	1.12
997.749	1.12
998.473	-0.88
999.198	-0.88
999.922	1.12
1000.647	1.12
1001.371	3.12
1002.095	-0.88
1002.82	0.12
1003.544	-1.88
1004.268	1.12
1004.992	0.12
1005.716	0.12
1006.439	-1.88
1007.163	1.12
1007.887	2.12
1008.611	1.12
1009.334	1.12
1010.058	-0.88
1010.781	1.12
1011.504	1.12
1012.228	0.12
1012.951	0.12
1013.674	-0.88
1014.397	2.12
1015.12	-1.88
