节点500_285_QEPB04081__519__15-04-11-340.txt的数据

Date: Wed Nov 12 15:04:11 CST 2025
User: PC
Spectrometer: QEPB0408
触发模式: 0
积分时间 (秒): 1.000000E-2
Scans to average: 1
启用暗噪声校正: true
启用非线性校正: false
滑动平均宽度: 0
X轴模式: Wavelengths
Number of Pixels in Spectrum: 1044
>>>>>Begin Spectral Data<<<<<
220.843	1.88
221.644	2.88
222.444	3.88
223.244	2.88
224.045	4.88
224.845	1.88
225.645	0.88
226.445	0.88
227.245	1.88
228.045	2.88
228.845	1.88
229.645	1.88
230.444	2.88
231.244	2.88
232.043	3.88
232.843	4.88
233.642	1.88
234.442	3.88
235.241	2.88
236.04	1.88
236.839	5.88
237.638	2.88
238.437	3.88
239.236	4.88
240.035	1.88
240.833	5.88
241.632	6.88
242.43	6.88
243.229	3.88
244.027	4.88
244.826	6.88
245.624	3.88
246.422	4.88
247.22	4.88
248.018	5.88
248.816	5.88
249.614	6.88
250.412	4.88
251.21	2.88
252.007	5.88
252.805	5.88
253.602	6.88
254.4	5.88
255.197	9.88
255.994	5.88
256.791	10.88
257.589	7.88
258.386	9.88
259.183	8.88
259.979	7.88
260.776	8.88
261.573	9.88
262.37	7.88
263.166	9.88
263.963	12.88
264.759	10.88
265.556	10.88
266.352	9.88
267.148	11.88
267.944	13.88
268.74	12.88
269.536	10.88
270.332	12.88
271.128	14.88
271.924	15.88
272.719	16.88
273.515	15.88
274.311	16.88
275.106	13.88
275.901	15.88
276.697	18.88
277.492	14.88
278.287	17.88
279.082	19.88
279.877	18.88
280.672	16.88
281.467	17.88
282.262	19.88
283.056	18.88
283.851	15.88
284.646	19.88
285.44	16.88
286.234	16.88
287.029	18.88
287.823	19.88
288.617	16.88
289.411	18.88
290.205	16.88
290.999	16.88
291.793	16.88
292.587	20.88
293.381	14.88
294.174	15.88
294.968	18.88
295.761	12.88
296.555	15.88
297.348	16.88
298.141	15.88
298.935	14.88
299.728	16.88
300.521	13.88
301.314	12.88
302.107	12.88
302.899	13.88
303.692	11.88
304.485	10.88
305.277	11.88
306.07	13.88
306.862	13.88
307.655	12.88
308.447	12.88
309.239	9.88
310.031	9.88
310.823	12.88
311.615	10.88
312.407	10.88
313.199	7.88
313.991	10.88
314.783	8.88
315.574	8.88
316.366	11.88
317.157	6.88
317.949	7.88
318.74	7.88
319.531	8.88
320.322	7.88
321.113	8.88
321.904	7.88
322.695	8.88
323.486	8.88
324.277	6.88
325.068	6.88
325.858	5.88
326.649	7.88
327.439	6.88
328.23	5.88
329.02	7.88
329.81	5.88
330.6	7.88
331.391	4.88
332.181	6.88
332.971	4.88
333.76	5.88
334.55	6.88
335.34	6.88
336.13	6.88
336.919	5.88
337.709	4.88
338.498	5.88
339.287	8.88
340.077	6.88
340.866	6.88
341.655	3.88
342.444	6.88
343.233	4.88
344.022	7.88
344.811	2.88
345.6	4.88
346.388	7.88
347.177	8.88
347.965	6.88
348.754	7.88
349.542	5.88
350.33	5.88
351.119	4.88
351.907	5.88
352.695	4.88
353.483	8.88
354.271	4.88
355.059	4.88
355.846	4.88
356.634	4.88
357.422	4.88
358.209	2.88
358.997	5.88
359.784	6.88
360.571	4.88
361.359	5.88
362.146	3.88
362.933	6.88
363.72	4.88
364.507	5.88
365.294	5.88
366.081	4.88
366.867	4.88
367.654	2.88
368.44	4.88
369.227	3.88
370.013	5.88
370.8	4.88
371.586	2.88
372.372	7.88
373.158	4.88
373.944	5.88
374.73	6.88
375.516	6.88
376.302	4.88
377.088	4.88
377.873	4.88
378.659	4.88
379.445	4.88
380.23	4.88
381.015	1.88
381.801	5.88
382.586	5.88
383.371	5.88
384.156	6.88
384.941	5.88
385.726	5.88
386.511	3.88
387.296	4.88
388.08	4.88
388.865	4.88
389.649	3.88
390.434	7.88
391.218	4.88
392.003	7.88
392.787	6.88
393.571	2.88
394.355	8.88
395.139	5.88
395.923	4.88
396.707	7.88
397.491	6.88
398.274	5.88
399.058	7.88
399.842	7.88
400.625	3.88
401.408	5.88
402.192	7.88
402.975	5.88
403.758	5.88
404.541	8.88
405.324	6.88
406.107	8.88
406.89	6.88
407.673	9.88
408.456	8.88
409.238	9.88
410.021	7.88
410.803	8.88
411.586	7.88
412.368	8.88
413.151	10.88
413.933	8.88
414.715	7.88
415.497	8.88
416.279	8.88
417.061	11.88
417.843	11.88
418.624	8.88
419.406	6.88
420.188	9.88
420.969	9.88
421.751	8.88
422.532	12.88
423.313	7.88
424.095	11.88
424.876	13.88
425.657	12.88
426.438	11.88
427.219	10.88
428	11.88
428.78	10.88
429.561	8.88
430.342	12.88
431.122	11.88
431.903	16.88
432.683	15.88
433.464	13.88
434.244	16.88
435.024	15.88
435.804	16.88
436.584	17.88
437.364	17.88
438.144	19.88
438.924	21.88
439.704	23.88
440.483	23.88
441.263	22.88
442.042	25.88
442.822	26.88
443.601	30.88
444.38	31.88
445.16	35.88
445.939	33.88
446.718	34.88
447.497	38.88
448.276	44.88
449.054	43.88
449.833	46.88
450.612	52.88
451.391	59.88
452.169	61.88
452.948	66.88
453.726	78.88
454.504	81.88
455.282	90.88
456.061	103.88
456.839	118.88
457.617	127.88
458.395	139.88
459.172	155.88
459.95	174.88
460.728	196.88
461.506	219.88
462.283	240.88
463.061	270.88
463.838	303.88
464.615	336.88
465.393	375.88
466.17	419.88
466.947	463.88
467.724	521.88
468.501	577.88
469.278	633.88
470.055	711.88
470.831	776.88
471.608	870.88
472.385	972.88
473.161	1073.88
473.938	1187.88
474.714	1318.88
475.49	1453.88
476.266	1595.88
477.043	1762.88
477.819	1939.88
478.595	2127.88
479.371	2344.88
480.146	2579.88
480.922	2829.88
481.698	3110.88
482.473	3442.88
483.249	3766.88
484.024	4144.88
484.8	4526.88
485.575	4960.88
486.35	5428.88
487.126	5949.88
487.901	6478.88
488.676	7104.88
489.451	7789.88
490.225	8475.88
491	9193.88
491.775	10073.88
492.55	10890.88
493.324	11812.88
494.099	12700.88
494.873	13720.88
495.647	14747.88
496.422	15865.88
497.196	16974.88
497.97	18078.88
498.744	19260.88
499.518	20280.88
500.292	21423.88
501.066	22510.88
501.839	23484.88
502.613	24345.88
503.387	25173.88
504.16	25842.88
504.934	26279.88
505.707	26499.88
506.48	26677.88
507.253	26637.88
508.027	26445.88
508.8	26282.88
509.573	25973.88
510.346	25474.88
511.118	24756.88
511.891	24044.88
512.664	23328.88
513.437	22531.88
514.209	21624.88
514.982	20735.88
515.754	19917.88
516.526	19069.88
517.298	18197.88
518.071	17425.88
518.843	16756.88
519.615	16084.88
520.387	15486.88
521.159	14857.88
521.93	14297.88
522.702	13713.88
523.474	13130.88
524.245	12561.88
525.017	12074.88
525.788	11616.88
526.56	11108.88
527.331	10561.88
528.102	10105.88
528.873	9623.88
529.644	9181.88
530.415	8740.88
531.186	8337.88
531.957	7878.88
532.728	7531.88
533.498	7112.88
534.269	6708.88
535.039	6381.88
535.81	6040.88
536.58	5674.88
537.351	5352.88
538.121	5073.88
538.891	4782.88
539.661	4537.88
540.431	4301.88
541.201	4044.88
541.971	3836.88
542.741	3638.88
543.51	3456.88
544.28	3292.88
545.05	3144.88
545.819	2973.88
546.588	2847.88
547.358	2670.88
548.127	2542.88
548.896	2427.88
549.665	2302.88
550.434	2165.88
551.203	2065.88
551.972	1936.88
552.741	1849.88
553.51	1734.88
554.278	1657.88
555.047	1551.88
555.815	1475.88
556.584	1388.88
557.352	1318.88
558.121	1237.88
558.889	1172.88
559.657	1134.88
560.425	1045.88
561.193	988.88
561.961	928.88
562.729	880.88
563.496	828.88
564.264	785.88
565.032	738.88
565.799	699.88
566.567	663.88
567.334	634.88
568.101	590.88
568.869	563.88
569.636	526.88
570.403	491.88
571.17	458.88
571.937	440.88
572.704	411.88
573.471	399.88
574.237	365.88
575.004	351.88
575.771	322.88
576.537	313.88
577.303	287.88
578.07	269.88
578.836	256.88
579.602	245.88
580.368	232.88
581.134	215.88
581.9	204.88
582.666	195.88
583.432	187.88
584.198	173.88
584.964	163.88
585.729	157.88
586.495	156.88
587.26	150.88
588.025	138.88
588.791	129.88
589.556	121.88
590.321	114.88
591.086	108.88
591.851	103.88
592.616	100.88
593.381	94.88
594.146	88.88
594.911	88.88
595.675	85.88
596.44	77.88
597.204	73.88
597.969	71.88
598.733	66.88
599.497	62.88
600.261	61.88
601.025	56.88
601.79	57.88
602.553	51.88
603.317	49.88
604.081	48.88
604.845	48.88
605.609	41.88
606.372	40.88
607.136	43.88
607.899	42.88
608.662	36.88
609.426	38.88
610.189	36.88
610.952	33.88
611.715	33.88
612.478	31.88
613.241	27.88
614.004	28.88
614.767	29.88
615.529	29.88
616.292	25.88
617.055	26.88
617.817	22.88
618.579	24.88
619.342	21.88
620.104	19.88
620.866	19.88
621.628	19.88
622.39	20.88
623.152	17.88
623.914	17.88
624.676	19.88
625.438	18.88
626.199	19.88
626.961	16.88
627.722	13.88
628.484	17.88
629.245	15.88
630.006	13.88
630.768	15.88
631.529	15.88
632.29	11.88
633.051	12.88
633.812	10.88
634.573	12.88
635.333	13.88
636.094	10.88
636.855	10.88
637.615	13.88
638.376	12.88
639.136	11.88
639.896	9.88
640.657	8.88
641.417	7.88
642.177	8.88
642.937	10.88
643.697	7.88
644.457	7.88
645.216	5.88
645.976	7.88
646.736	7.88
647.495	9.88
648.255	5.88
649.014	5.88
649.774	6.88
650.533	7.88
651.292	9.88
652.051	6.88
652.81	7.88
653.569	5.88
654.328	5.88
655.087	5.88
655.846	3.88
656.604	6.88
657.363	5.88
658.121	6.88
658.88	4.88
659.638	4.88
660.397	6.88
661.155	5.88
661.913	5.88
662.671	8.88
663.429	5.88
664.187	6.88
664.945	1.88
665.703	4.88
666.46	6.88
667.218	4.88
667.976	6.88
668.733	3.88
669.49	7.88
670.248	3.88
671.005	5.88
671.762	5.88
672.519	5.88
673.276	4.88
674.033	2.88
674.79	5.88
675.547	4.88
676.304	3.88
677.06	5.88
677.817	6.88
678.574	5.88
679.33	3.88
680.086	5.88
680.843	4.88
681.599	5.88
682.355	3.88
683.111	3.88
683.867	3.88
684.623	2.88
685.379	4.88
686.135	1.88
686.89	4.88
687.646	3.88
688.402	3.88
689.157	4.88
689.912	3.88
690.668	3.88
691.423	3.88
692.178	2.88
692.933	3.88
693.688	2.88
694.443	6.88
695.198	3.88
695.953	4.88
696.708	4.88
697.462	2.88
698.217	2.88
698.972	2.88
699.726	4.88
700.48	3.88
701.235	4.88
701.989	3.88
702.743	2.88
703.497	2.88
704.251	2.88
705.005	4.88
705.759	2.88
706.513	3.88
707.266	2.88
708.02	4.88
708.774	3.88
709.527	1.88
710.28	5.88
711.034	3.88
711.787	2.88
712.54	3.88
713.293	3.88
714.046	3.88
714.799	3.88
715.552	2.88
716.305	3.88
717.058	3.88
717.81	3.88
718.563	2.88
719.315	4.88
720.068	3.88
720.82	2.88
721.573	4.88
722.325	1.88
723.077	2.88
723.829	2.88
724.581	4.88
725.333	1.88
726.085	3.88
726.836	4.88
727.588	4.88
728.34	4.88
729.091	5.88
729.843	3.88
730.594	4.88
731.346	3.88
732.097	3.88
732.848	2.88
733.599	4.88
734.35	2.88
735.101	4.88
735.852	1.88
736.603	3.88
737.354	4.88
738.104	4.88
738.855	2.88
739.605	2.88
740.356	2.88
741.106	2.88
741.856	4.88
742.607	4.88
743.357	3.88
744.107	5.88
744.857	5.88
745.607	3.88
746.357	5.88
747.106	3.88
747.856	5.88
748.606	3.88
749.355	4.88
750.105	3.88
750.854	3.88
751.603	5.88
752.353	5.88
753.102	5.88
753.851	4.88
754.6	5.88
755.349	5.88
756.098	3.88
756.847	6.88
757.595	4.88
758.344	6.88
759.093	4.88
759.841	4.88
760.589	5.88
761.338	5.88
762.086	8.88
762.834	6.88
763.582	4.88
764.331	6.88
765.079	7.88
765.826	7.88
766.574	6.88
767.322	6.88
768.07	6.88
768.817	6.88
769.565	7.88
770.312	7.88
771.06	5.88
771.807	4.88
772.554	11.88
773.302	7.88
774.049	5.88
774.796	6.88
775.543	5.88
776.29	6.88
777.036	6.88
777.783	9.88
778.53	8.88
779.276	9.88
780.023	5.88
780.769	7.88
781.516	8.88
782.262	8.88
783.008	7.88
783.754	6.88
784.5	7.88
785.246	6.88
785.992	4.88
786.738	9.88
787.484	9.88
788.23	7.88
788.975	7.88
789.721	7.88
790.466	8.88
791.212	8.88
791.957	6.88
792.702	7.88
793.447	5.88
794.193	7.88
794.938	8.88
795.683	7.88
796.427	6.88
797.172	7.88
797.917	7.88
798.662	5.88
799.406	10.88
800.151	6.88
800.895	7.88
801.64	8.88
802.384	7.88
803.128	8.88
803.872	6.88
804.616	7.88
805.36	5.88
806.104	8.88
806.848	5.88
807.592	7.88
808.336	5.88
809.079	3.88
809.823	6.88
810.566	2.88
811.31	4.88
812.053	5.88
812.796	2.88
813.539	3.88
814.283	6.88
815.026	5.88
815.769	5.88
816.511	6.88
817.254	4.88
817.997	5.88
818.74	1.88
819.482	4.88
820.225	5.88
820.967	5.88
821.71	6.88
822.452	4.88
823.194	3.88
823.936	5.88
824.678	2.88
825.42	3.88
826.162	1.88
826.904	3.88
827.646	3.88
828.388	2.88
829.129	3.88
829.871	4.88
830.612	4.88
831.354	4.88
832.095	4.88
832.836	2.88
833.577	3.88
834.319	4.88
835.06	2.88
835.801	3.88
836.542	3.88
837.282	4.88
838.023	4.88
838.764	1.88
839.504	1.88
840.245	1.88
840.985	1.88
841.726	1.88
842.466	4.88
843.206	2.88
843.946	1.88
844.687	2.88
845.427	0.88
846.166	1.88
846.906	1.88
847.646	3.88
848.386	2.88
849.125	3.88
849.865	2.88
850.605	3.88
851.344	2.88
852.083	3.88
852.823	2.88
853.562	3.88
854.301	1.88
855.04	2.88
855.779	3.88
856.518	1.88
857.257	0.88
857.995	2.88
858.734	-0.12
859.473	2.88
860.211	1.88
860.95	1.88
861.688	3.88
862.426	-0.12
863.165	1.88
863.903	1.88
864.641	1.88
865.379	1.88
866.117	3.88
866.855	0.88
867.593	1.88
868.33	2.88
869.068	0.88
869.806	1.88
870.543	0.88
871.28	2.88
872.018	-0.12
872.755	0.88
873.492	0.88
874.229	2.88
874.967	-0.12
875.703	3.88
876.44	0.88
877.177	1.88
877.914	0.88
878.651	1.88
879.387	0.88
880.124	1.88
880.86	-0.12
881.597	-1.12
882.333	1.88
883.069	1.88
883.806	0.88
884.542	1.88
885.278	0.88
886.014	2.88
886.749	1.88
887.485	-1.12
888.221	0.88
888.957	-0.12
889.692	0.88
890.428	1.88
891.163	0.88
891.899	0.88
892.634	1.88
893.369	-0.12
894.104	-0.12
894.839	2.88
895.574	1.88
896.309	0.88
897.044	0.88
897.779	1.88
898.514	0.88
899.248	1.88
899.983	-1.12
900.717	-0.12
901.452	-0.12
902.186	0.88
902.92	0.88
903.654	0.88
904.389	1.88
905.123	-1.12
905.857	-1.12
906.59	-0.12
907.324	-0.12
908.058	0.88
908.792	-2.12
909.525	0.88
910.259	-0.12
910.992	0.88
911.726	-0.12
912.459	-0.12
913.192	1.88
913.925	2.88
914.658	2.88
915.391	0.88
916.124	-0.12
916.857	0.88
917.59	0.88
918.323	1.88
919.055	-1.12
919.788	0.88
920.521	0.88
921.253	-1.12
921.985	-0.12
922.718	-1.12
923.45	-0.12
924.182	0.88
924.914	0.88
925.646	1.88
926.378	0.88
927.11	-0.12
927.841	-2.12
928.573	0.88
929.305	0.88
930.036	1.88
930.768	-0.12
931.499	-0.12
932.23	0.88
932.962	1.88
933.693	-0.12
934.424	-0.12
935.155	0.88
935.886	1.88
936.617	-0.12
937.348	0.88
938.078	1.88
938.809	1.88
939.54	-0.12
940.27	-0.12
941.001	0.88
941.731	-0.12
942.461	-0.12
943.191	0.88
943.922	-0.12
944.652	-0.12
945.382	-0.12
946.112	0.88
946.841	-1.12
947.571	-1.12
948.301	0.88
949.031	0.88
949.76	-1.12
950.49	0.88
951.219	-1.12
951.948	-2.12
952.678	1.88
953.407	0.88
954.136	-0.12
954.865	0.88
955.594	1.88
956.323	0.88
957.052	-0.12
957.78	-1.12
958.509	-1.12
959.238	0.88
959.966	-0.12
960.695	0.88
961.423	1.88
962.151	1.88
962.88	-2.12
963.608	1.88
964.336	-2.12
965.064	-0.12
965.792	-0.12
966.52	0.88
967.247	-0.12
967.975	1.88
968.703	0.88
969.43	-2.12
970.158	-0.12
970.885	-0.12
971.613	0.88
972.34	0.88
973.067	-0.12
973.794	-1.12
974.521	0.88
975.248	-0.12
975.975	-0.12
976.702	-0.12
977.429	0.88
978.156	0.88
978.882	-0.12
979.609	0.88
980.335	0.88
981.062	-0.12
981.788	0.88
982.514	0.88
983.24	-0.12
983.967	1.88
984.693	-0.12
985.419	0.88
986.144	1.88
986.87	-0.12
987.596	-0.12
988.322	-2.12
989.047	0.88
989.773	-0.12
990.498	0.88
991.224	-0.12
991.949	-1.12
992.674	-0.12
993.399	0.88
994.124	-0.12
994.849	0.88
995.574	-0.12
996.299	2.88
997.024	0.88
997.749	0.88
998.473	0.88
999.198	0.88
999.922	0.88
1000.647	-0.12
1001.371	4.88
1002.095	0.88
1002.82	-1.12
1003.544	-2.12
1004.268	-0.12
1004.992	0.88
1005.716	1.88
1006.439	-1.12
1007.163	0.88
1007.887	-0.12
1008.611	-0.12
1009.334	1.88
1010.058	2.88
1010.781	3.88
1011.504	-0.12
1012.228	-1.12
1012.951	-2.12
1013.674	-0.12
1014.397	-2.12
1015.12	1.88
