节点500_285_QEPB04081__228__14-59-21-006.txt的数据

Date: Wed Nov 12 14:59:21 CST 2025
User: PC
Spectrometer: QEPB0408
触发模式: 0
积分时间 (秒): 1.000000E-2
Scans to average: 1
启用暗噪声校正: true
启用非线性校正: false
滑动平均宽度: 0
X轴模式: Wavelengths
Number of Pixels in Spectrum: 1044
>>>>>Begin Spectral Data<<<<<
220.843	2.5
221.644	0.5
222.444	2.5
223.244	3.5
224.045	0.5
224.845	2.5
225.645	1.5
226.445	0.5
227.245	1.5
228.045	2.5
228.845	2.5
229.645	1.5
230.444	1.5
231.244	2.5
232.043	2.5
232.843	2.5
233.642	1.5
234.442	4.5
235.241	4.5
236.04	3.5
236.839	2.5
237.638	5.5
238.437	5.5
239.236	2.5
240.035	6.5
240.833	4.5
241.632	3.5
242.43	6.5
243.229	5.5
244.027	5.5
244.826	8.5
245.624	3.5
246.422	6.5
247.22	5.5
248.018	4.5
248.816	6.5
249.614	7.5
250.412	6.5
251.21	7.5
252.007	9.5
252.805	6.5
253.602	8.5
254.4	5.5
255.197	5.5
255.994	8.5
256.791	8.5
257.589	9.5
258.386	9.5
259.183	9.5
259.979	9.5
260.776	11.5
261.573	11.5
262.37	9.5
263.166	10.5
263.963	11.5
264.759	12.5
265.556	15.5
266.352	12.5
267.148	13.5
267.944	12.5
268.74	16.5
269.536	12.5
270.332	16.5
271.128	12.5
271.924	13.5
272.719	15.5
273.515	20.5
274.311	15.5
275.106	17.5
275.901	19.5
276.697	14.5
277.492	18.5
278.287	16.5
279.082	19.5
279.877	16.5
280.672	17.5
281.467	17.5
282.262	21.5
283.056	17.5
283.851	19.5
284.646	19.5
285.44	18.5
286.234	20.5
287.029	16.5
287.823	19.5
288.617	17.5
289.411	21.5
290.205	17.5
290.999	18.5
291.793	17.5
292.587	17.5
293.381	21.5
294.174	16.5
294.968	15.5
295.761	20.5
296.555	13.5
297.348	13.5
298.141	15.5
298.935	19.5
299.728	15.5
300.521	13.5
301.314	13.5
302.107	11.5
302.899	13.5
303.692	16.5
304.485	14.5
305.277	11.5
306.07	11.5
306.862	14.5
307.655	9.5
308.447	13.5
309.239	13.5
310.031	12.5
310.823	12.5
311.615	9.5
312.407	9.5
313.199	9.5
313.991	10.5
314.783	9.5
315.574	6.5
316.366	8.5
317.157	6.5
317.949	9.5
318.74	5.5
319.531	8.5
320.322	8.5
321.113	5.5
321.904	7.5
322.695	9.5
323.486	7.5
324.277	6.5
325.068	6.5
325.858	5.5
326.649	7.5
327.439	7.5
328.23	6.5
329.02	7.5
329.81	9.5
330.6	7.5
331.391	7.5
332.181	7.5
332.971	6.5
333.76	6.5
334.55	5.5
335.34	6.5
336.13	6.5
336.919	7.5
337.709	6.5
338.498	6.5
339.287	5.5
340.077	7.5
340.866	8.5
341.655	7.5
342.444	6.5
343.233	5.5
344.022	3.5
344.811	6.5
345.6	6.5
346.388	6.5
347.177	4.5
347.965	3.5
348.754	6.5
349.542	4.5
350.33	6.5
351.119	7.5
351.907	5.5
352.695	6.5
353.483	6.5
354.271	6.5
355.059	6.5
355.846	3.5
356.634	5.5
357.422	4.5
358.209	4.5
358.997	1.5
359.784	7.5
360.571	5.5
361.359	3.5
362.146	7.5
362.933	4.5
363.72	6.5
364.507	3.5
365.294	5.5
366.081	5.5
366.867	4.5
367.654	4.5
368.44	5.5
369.227	1.5
370.013	1.5
370.8	5.5
371.586	6.5
372.372	5.5
373.158	4.5
373.944	5.5
374.73	4.5
375.516	5.5
376.302	4.5
377.088	7.5
377.873	6.5
378.659	5.5
379.445	5.5
380.23	5.5
381.015	5.5
381.801	2.5
382.586	4.5
383.371	5.5
384.156	8.5
384.941	6.5
385.726	7.5
386.511	6.5
387.296	5.5
388.08	6.5
388.865	5.5
389.649	6.5
390.434	3.5
391.218	3.5
392.003	5.5
392.787	5.5
393.571	7.5
394.355	8.5
395.139	5.5
395.923	5.5
396.707	6.5
397.491	7.5
398.274	6.5
399.058	5.5
399.842	9.5
400.625	7.5
401.408	6.5
402.192	7.5
402.975	6.5
403.758	7.5
404.541	6.5
405.324	5.5
406.107	5.5
406.89	6.5
407.673	5.5
408.456	8.5
409.238	9.5
410.021	7.5
410.803	7.5
411.586	7.5
412.368	10.5
413.151	5.5
413.933	8.5
414.715	8.5
415.497	6.5
416.279	8.5
417.061	9.5
417.843	9.5
418.624	9.5
419.406	9.5
420.188	12.5
420.969	9.5
421.751	10.5
422.532	10.5
423.313	13.5
424.095	10.5
424.876	11.5
425.657	11.5
426.438	9.5
427.219	13.5
428	13.5
428.78	10.5
429.561	13.5
430.342	13.5
431.122	13.5
431.903	14.5
432.683	16.5
433.464	15.5
434.244	16.5
435.024	15.5
435.804	12.5
436.584	16.5
437.364	21.5
438.144	18.5
438.924	23.5
439.704	21.5
440.483	23.5
441.263	25.5
442.042	24.5
442.822	25.5
443.601	26.5
444.38	29.5
445.16	30.5
445.939	32.5
446.718	35.5
447.497	34.5
448.276	41.5
449.054	47.5
449.833	49.5
450.612	48.5
451.391	54.5
452.169	58.5
452.948	65.5
453.726	73.5
454.504	77.5
455.282	92.5
456.061	97.5
456.839	108.5
457.617	114.5
458.395	129.5
459.172	152.5
459.95	162.5
460.728	181.5
461.506	201.5
462.283	223.5
463.061	252.5
463.838	281.5
464.615	313.5
465.393	355.5
466.17	400.5
466.947	441.5
467.724	486.5
468.501	547.5
469.278	602.5
470.055	667.5
470.831	753.5
471.608	827.5
472.385	920.5
473.161	1033.5
473.938	1157.5
474.714	1285.5
475.49	1416.5
476.266	1574.5
477.043	1724.5
477.819	1907.5
478.595	2126.5
479.371	2350.5
480.146	2586.5
480.922	2865.5
481.698	3177.5
482.473	3508.5
483.249	3846.5
484.024	4232.5
484.8	4678.5
485.575	5162.5
486.35	5656.5
487.126	6250.5
487.901	6826.5
488.676	7541.5
489.451	8229.5
490.225	9027.5
491	9854.5
491.775	10803.5
492.55	11754.5
493.324	12767.5
494.099	13791.5
494.873	14823.5
495.647	16063.5
496.422	17214.5
497.196	18502.5
497.97	19752.5
498.744	20874.5
499.518	22087.5
500.292	23248.5
501.066	24429.5
501.839	25365.5
502.613	26143.5
503.387	26944.5
504.16	27535.5
504.934	27891.5
505.707	27951.5
506.48	27994.5
507.253	27812.5
508.027	27500.5
508.8	27173.5
509.573	26575.5
510.346	25903.5
511.118	25168.5
511.891	24283.5
512.664	23401.5
513.437	22526.5
514.209	21504.5
514.982	20616.5
515.754	19694.5
516.526	18752.5
517.298	17954.5
518.071	17184.5
518.843	16486.5
519.615	15893.5
520.387	15281.5
521.159	14659.5
521.93	14077.5
522.702	13432.5
523.474	12963.5
524.245	12399.5
525.017	11853.5
525.788	11374.5
526.56	10883.5
527.331	10350.5
528.102	9850.5
528.873	9465.5
529.644	8967.5
530.415	8513.5
531.186	8082.5
531.957	7639.5
532.728	7258.5
533.498	6847.5
534.269	6452.5
535.039	6145.5
535.81	5761.5
536.58	5468.5
537.351	5113.5
538.121	4835.5
538.891	4586.5
539.661	4355.5
540.431	4090.5
541.201	3849.5
541.971	3657.5
542.741	3481.5
543.51	3281.5
544.28	3153.5
545.05	2974.5
545.819	2862.5
546.588	2725.5
547.358	2572.5
548.127	2441.5
548.896	2325.5
549.665	2203.5
550.434	2083.5
551.203	1978.5
551.972	1872.5
552.741	1749.5
553.51	1664.5
554.278	1573.5
555.047	1487.5
555.815	1388.5
556.584	1310.5
557.352	1251.5
558.121	1169.5
558.889	1125.5
559.657	1041.5
560.425	996.5
561.193	931.5
561.961	880.5
562.729	829.5
563.496	780.5
564.264	745.5
565.032	699.5
565.799	665.5
566.567	625.5
567.334	594.5
568.101	563.5
568.869	527.5
569.636	503.5
570.403	467.5
571.17	443.5
571.937	417.5
572.704	392.5
573.471	373.5
574.237	351.5
575.004	330.5
575.771	313.5
576.537	288.5
577.303	274.5
578.07	256.5
578.836	245.5
579.602	234.5
580.368	223.5
581.134	206.5
581.9	198.5
582.666	188.5
583.432	178.5
584.198	165.5
584.964	161.5
585.729	150.5
586.495	142.5
587.26	133.5
588.025	125.5
588.791	121.5
589.556	115.5
590.321	108.5
591.086	101.5
591.851	99.5
592.616	95.5
593.381	86.5
594.146	85.5
594.911	80.5
595.675	77.5
596.44	69.5
597.204	71.5
597.969	68.5
598.733	67.5
599.497	60.5
600.261	62.5
601.025	54.5
601.79	52.5
602.553	49.5
603.317	52.5
604.081	45.5
604.845	45.5
605.609	42.5
606.372	39.5
607.136	38.5
607.899	40.5
608.662	38.5
609.426	31.5
610.189	35.5
610.952	33.5
611.715	31.5
612.478	28.5
613.241	29.5
614.004	27.5
614.767	28.5
615.529	29.5
616.292	26.5
617.055	22.5
617.817	27.5
618.579	23.5
619.342	22.5
620.104	21.5
620.866	16.5
621.628	19.5
622.39	15.5
623.152	20.5
623.914	17.5
624.676	17.5
625.438	15.5
626.199	16.5
626.961	15.5
627.722	13.5
628.484	12.5
629.245	13.5
630.006	12.5
630.768	12.5
631.529	13.5
632.29	11.5
633.051	14.5
633.812	14.5
634.573	9.5
635.333	11.5
636.094	9.5
636.855	9.5
637.615	9.5
638.376	6.5
639.136	11.5
639.896	11.5
640.657	9.5
641.417	9.5
642.177	10.5
642.937	7.5
643.697	9.5
644.457	6.5
645.216	8.5
645.976	8.5
646.736	9.5
647.495	6.5
648.255	8.5
649.014	7.5
649.774	7.5
650.533	8.5
651.292	7.5
652.051	8.5
652.81	6.5
653.569	10.5
654.328	7.5
655.087	9.5
655.846	7.5
656.604	7.5
657.363	5.5
658.121	3.5
658.88	6.5
659.638	6.5
660.397	4.5
661.155	7.5
661.913	7.5
662.671	9.5
663.429	5.5
664.187	5.5
664.945	4.5
665.703	3.5
666.46	4.5
667.218	4.5
667.976	6.5
668.733	5.5
669.49	5.5
670.248	4.5
671.005	5.5
671.762	6.5
672.519	6.5
673.276	3.5
674.033	5.5
674.79	3.5
675.547	4.5
676.304	3.5
677.06	3.5
677.817	3.5
678.574	3.5
679.33	2.5
680.086	3.5
680.843	4.5
681.599	5.5
682.355	3.5
683.111	4.5
683.867	2.5
684.623	1.5
685.379	5.5
686.135	5.5
686.89	2.5
687.646	1.5
688.402	4.5
689.157	3.5
689.912	5.5
690.668	3.5
691.423	3.5
692.178	1.5
692.933	3.5
693.688	5.5
694.443	3.5
695.198	2.5
695.953	4.5
696.708	3.5
697.462	5.5
698.217	1.5
698.972	3.5
699.726	4.5
700.48	3.5
701.235	2.5
701.989	2.5
702.743	4.5
703.497	2.5
704.251	4.5
705.005	2.5
705.759	4.5
706.513	1.5
707.266	2.5
708.02	3.5
708.774	4.5
709.527	4.5
710.28	1.5
711.034	2.5
711.787	4.5
712.54	1.5
713.293	3.5
714.046	3.5
714.799	2.5
715.552	4.5
716.305	2.5
717.058	4.5
717.81	3.5
718.563	3.5
719.315	3.5
720.068	5.5
720.82	3.5
721.573	3.5
722.325	1.5
723.077	5.5
723.829	2.5
724.581	3.5
725.333	3.5
726.085	3.5
726.836	2.5
727.588	5.5
728.34	3.5
729.091	1.5
729.843	3.5
730.594	5.5
731.346	3.5
732.097	4.5
732.848	3.5
733.599	3.5
734.35	4.5
735.101	5.5
735.852	5.5
736.603	2.5
737.354	5.5
738.104	3.5
738.855	4.5
739.605	3.5
740.356	6.5
741.106	6.5
741.856	4.5
742.607	5.5
743.357	4.5
744.107	7.5
744.857	1.5
745.607	6.5
746.357	4.5
747.106	5.5
747.856	2.5
748.606	5.5
749.355	6.5
750.105	3.5
750.854	4.5
751.603	2.5
752.353	2.5
753.102	7.5
753.851	4.5
754.6	5.5
755.349	5.5
756.098	6.5
756.847	4.5
757.595	5.5
758.344	7.5
759.093	5.5
759.841	6.5
760.589	7.5
761.338	6.5
762.086	5.5
762.834	6.5
763.582	6.5
764.331	5.5
765.079	6.5
765.826	7.5
766.574	6.5
767.322	8.5
768.07	5.5
768.817	5.5
769.565	6.5
770.312	7.5
771.06	6.5
771.807	7.5
772.554	8.5
773.302	8.5
774.049	8.5
774.796	7.5
775.543	6.5
776.29	9.5
777.036	7.5
777.783	8.5
778.53	7.5
779.276	7.5
780.023	8.5
780.769	7.5
781.516	8.5
782.262	9.5
783.008	8.5
783.754	9.5
784.5	8.5
785.246	9.5
785.992	8.5
786.738	9.5
787.484	9.5
788.23	7.5
788.975	9.5
789.721	10.5
790.466	10.5
791.212	7.5
791.957	9.5
792.702	8.5
793.447	7.5
794.193	7.5
794.938	7.5
795.683	9.5
796.427	6.5
797.172	7.5
797.917	8.5
798.662	8.5
799.406	7.5
800.151	7.5
800.895	7.5
801.64	6.5
802.384	6.5
803.128	7.5
803.872	6.5
804.616	8.5
805.36	7.5
806.104	7.5
806.848	7.5
807.592	6.5
808.336	4.5
809.079	5.5
809.823	7.5
810.566	5.5
811.31	3.5
812.053	3.5
812.796	5.5
813.539	6.5
814.283	5.5
815.026	6.5
815.769	6.5
816.511	2.5
817.254	1.5
817.997	6.5
818.74	3.5
819.482	4.5
820.225	5.5
820.967	4.5
821.71	3.5
822.452	5.5
823.194	5.5
823.936	5.5
824.678	4.5
825.42	4.5
826.162	3.5
826.904	5.5
827.646	4.5
828.388	3.5
829.129	7.5
829.871	5.5
830.612	2.5
831.354	3.5
832.095	4.5
832.836	3.5
833.577	2.5
834.319	2.5
835.06	3.5
835.801	5.5
836.542	3.5
837.282	4.5
838.023	3.5
838.764	3.5
839.504	5.5
840.245	5.5
840.985	3.5
841.726	0.5
842.466	3.5
843.206	2.5
843.946	2.5
844.687	3.5
845.427	3.5
846.166	1.5
846.906	4.5
847.646	2.5
848.386	5.5
849.125	4.5
849.865	1.5
850.605	2.5
851.344	4.5
852.083	4.5
852.823	3.5
853.562	3.5
854.301	1.5
855.04	3.5
855.779	3.5
856.518	2.5
857.257	2.5
857.995	3.5
858.734	3.5
859.473	1.5
860.211	3.5
860.95	3.5
861.688	1.5
862.426	3.5
863.165	2.5
863.903	-0.5
864.641	2.5
865.379	0.5
866.117	0.5
866.855	1.5
867.593	0.5
868.33	3.5
869.068	0.5
869.806	1.5
870.543	3.5
871.28	0.5
872.018	0.5
872.755	0.5
873.492	2.5
874.229	1.5
874.967	1.5
875.703	3.5
876.44	1.5
877.177	2.5
877.914	0.5
878.651	0.5
879.387	1.5
880.124	4.5
880.86	1.5
881.597	0.5
882.333	2.5
883.069	2.5
883.806	2.5
884.542	2.5
885.278	1.5
886.014	2.5
886.749	1.5
887.485	1.5
888.221	2.5
888.957	0.5
889.692	-0.5
890.428	0.5
891.163	1.5
891.899	-0.5
892.634	1.5
893.369	1.5
894.104	0.5
894.839	1.5
895.574	-2.5
896.309	0.5
897.044	-0.5
897.779	0.5
898.514	0.5
899.248	1.5
899.983	-0.5
900.717	-0.5
901.452	-0.5
902.186	1.5
902.92	0.5
903.654	1.5
904.389	-0.5
905.123	0.5
905.857	2.5
906.59	1.5
907.324	0.5
908.058	1.5
908.792	0.5
909.525	1.5
910.259	1.5
910.992	1.5
911.726	0.5
912.459	1.5
913.192	-0.5
913.925	3.5
914.658	1.5
915.391	1.5
916.124	-0.5
916.857	-0.5
917.59	-2.5
918.323	0.5
919.055	2.5
919.788	-0.5
920.521	0.5
921.253	-1.5
921.985	-0.5
922.718	-0.5
923.45	-0.5
924.182	1.5
924.914	-0.5
925.646	1.5
926.378	-0.5
927.11	-2.5
927.841	2.5
928.573	1.5
929.305	2.5
930.036	2.5
930.768	0.5
931.499	-0.5
932.23	1.5
932.962	0.5
933.693	-0.5
934.424	1.5
935.155	-0.5
935.886	1.5
936.617	1.5
937.348	-1.5
938.078	1.5
938.809	1.5
939.54	0.5
940.27	1.5
941.001	-0.5
941.731	0.5
942.461	1.5
943.191	0.5
943.922	1.5
944.652	0.5
945.382	0.5
946.112	1.5
946.841	2.5
947.571	1.5
948.301	0.5
949.031	0.5
949.76	1.5
950.49	0.5
951.219	-0.5
951.948	0.5
952.678	1.5
953.407	0.5
954.136	1.5
954.865	-0.5
955.594	-0.5
956.323	0.5
957.052	0.5
957.78	-0.5
958.509	-0.5
959.238	1.5
959.966	0.5
960.695	0.5
961.423	-0.5
962.151	1.5
962.88	0.5
963.608	1.5
964.336	0.5
965.064	0.5
965.792	-0.5
966.52	-2.5
967.247	-0.5
967.975	0.5
968.703	0.5
969.43	1.5
970.158	-0.5
970.885	0.5
971.613	1.5
972.34	-0.5
973.067	-0.5
973.794	0.5
974.521	-0.5
975.248	-0.5
975.975	-0.5
976.702	3.5
977.429	-2.5
978.156	1.5
978.882	0.5
979.609	-1.5
980.335	0.5
981.062	-1.5
981.788	0.5
982.514	-0.5
983.24	1.5
983.967	0.5
984.693	-0.5
985.419	-0.5
986.144	-0.5
986.87	-0.5
987.596	0.5
988.322	1.5
989.047	2.5
989.773	1.5
990.498	2.5
991.224	0.5
991.949	3.5
992.674	-0.5
993.399	1.5
994.124	1.5
994.849	-2.5
995.574	2.5
996.299	-0.5
997.024	-0.5
997.749	0.5
998.473	-1.5
999.198	-0.5
999.922	-0.5
1000.647	-0.5
1001.371	3.5
1002.095	1.5
1002.82	-2.5
1003.544	-1.5
1004.268	1.5
1004.992	0.5
1005.716	2.5
1006.439	2.5
1007.163	2.5
1007.887	1.5
1008.611	1.5
1009.334	-2.5
1010.058	1.5
1010.781	0.5
1011.504	0.5
1012.228	1.5
1012.951	-0.5
1013.674	-0.5
1014.397	-0.5
1015.12	0.5
