节点500_285_QEPB04081__213__14-59-06-082.txt的数据

Date: Wed Nov 12 14:59:06 CST 2025
User: PC
Spectrometer: QEPB0408
触发模式: 0
积分时间 (秒): 1.000000E-2
Scans to average: 1
启用暗噪声校正: true
启用非线性校正: false
滑动平均宽度: 0
X轴模式: Wavelengths
Number of Pixels in Spectrum: 1044
>>>>>Begin Spectral Data<<<<<
220.843	4.5
221.644	2.5
222.444	2.5
223.244	2.5
224.045	1.5
224.845	4.5
225.645	3.5
226.445	4.5
227.245	4.5
228.045	2.5
228.845	4.5
229.645	2.5
230.444	2.5
231.244	2.5
232.043	1.5
232.843	2.5
233.642	3.5
234.442	3.5
235.241	3.5
236.04	4.5
236.839	4.5
237.638	3.5
238.437	5.5
239.236	6.5
240.035	5.5
240.833	4.5
241.632	3.5
242.43	3.5
243.229	7.5
244.027	5.5
244.826	6.5
245.624	5.5
246.422	5.5
247.22	7.5
248.018	5.5
248.816	6.5
249.614	7.5
250.412	8.5
251.21	6.5
252.007	5.5
252.805	9.5
253.602	9.5
254.4	9.5
255.197	6.5
255.994	7.5
256.791	8.5
257.589	7.5
258.386	11.5
259.183	10.5
259.979	6.5
260.776	11.5
261.573	11.5
262.37	12.5
263.166	10.5
263.963	13.5
264.759	12.5
265.556	11.5
266.352	13.5
267.148	13.5
267.944	14.5
268.74	14.5
269.536	14.5
270.332	15.5
271.128	14.5
271.924	15.5
272.719	15.5
273.515	13.5
274.311	17.5
275.106	13.5
275.901	20.5
276.697	18.5
277.492	17.5
278.287	20.5
279.082	20.5
279.877	18.5
280.672	18.5
281.467	21.5
282.262	21.5
283.056	17.5
283.851	17.5
284.646	20.5
285.44	17.5
286.234	16.5
287.029	20.5
287.823	18.5
288.617	17.5
289.411	21.5
290.205	16.5
290.999	19.5
291.793	17.5
292.587	16.5
293.381	17.5
294.174	18.5
294.968	17.5
295.761	15.5
296.555	19.5
297.348	12.5
298.141	15.5
298.935	15.5
299.728	14.5
300.521	17.5
301.314	14.5
302.107	14.5
302.899	11.5
303.692	13.5
304.485	13.5
305.277	13.5
306.07	13.5
306.862	13.5
307.655	13.5
308.447	12.5
309.239	11.5
310.031	10.5
310.823	10.5
311.615	11.5
312.407	10.5
313.199	11.5
313.991	9.5
314.783	8.5
315.574	9.5
316.366	8.5
317.157	8.5
317.949	8.5
318.74	9.5
319.531	7.5
320.322	5.5
321.113	6.5
321.904	9.5
322.695	7.5
323.486	6.5
324.277	6.5
325.068	5.5
325.858	6.5
326.649	7.5
327.439	9.5
328.23	8.5
329.02	5.5
329.81	7.5
330.6	8.5
331.391	5.5
332.181	6.5
332.971	7.5
333.76	6.5
334.55	7.5
335.34	5.5
336.13	6.5
336.919	5.5
337.709	6.5
338.498	6.5
339.287	6.5
340.077	7.5
340.866	4.5
341.655	7.5
342.444	5.5
343.233	7.5
344.022	5.5
344.811	6.5
345.6	5.5
346.388	5.5
347.177	6.5
347.965	5.5
348.754	4.5
349.542	8.5
350.33	4.5
351.119	5.5
351.907	5.5
352.695	4.5
353.483	4.5
354.271	4.5
355.059	6.5
355.846	4.5
356.634	3.5
357.422	5.5
358.209	4.5
358.997	8.5
359.784	4.5
360.571	6.5
361.359	7.5
362.146	5.5
362.933	5.5
363.72	4.5
364.507	7.5
365.294	4.5
366.081	4.5
366.867	4.5
367.654	3.5
368.44	4.5
369.227	2.5
370.013	3.5
370.8	3.5
371.586	3.5
372.372	3.5
373.158	4.5
373.944	7.5
374.73	4.5
375.516	6.5
376.302	6.5
377.088	4.5
377.873	5.5
378.659	4.5
379.445	5.5
380.23	4.5
381.015	7.5
381.801	7.5
382.586	3.5
383.371	7.5
384.156	5.5
384.941	6.5
385.726	5.5
386.511	3.5
387.296	6.5
388.08	4.5
388.865	3.5
389.649	6.5
390.434	6.5
391.218	4.5
392.003	6.5
392.787	8.5
393.571	4.5
394.355	4.5
395.139	8.5
395.923	5.5
396.707	5.5
397.491	5.5
398.274	9.5
399.058	5.5
399.842	5.5
400.625	8.5
401.408	6.5
402.192	8.5
402.975	5.5
403.758	7.5
404.541	5.5
405.324	6.5
406.107	8.5
406.89	8.5
407.673	9.5
408.456	7.5
409.238	9.5
410.021	7.5
410.803	9.5
411.586	9.5
412.368	6.5
413.151	8.5
413.933	9.5
414.715	10.5
415.497	8.5
416.279	7.5
417.061	8.5
417.843	8.5
418.624	10.5
419.406	11.5
420.188	10.5
420.969	11.5
421.751	11.5
422.532	11.5
423.313	11.5
424.095	12.5
424.876	11.5
425.657	12.5
426.438	13.5
427.219	13.5
428	13.5
428.78	13.5
429.561	13.5
430.342	16.5
431.122	14.5
431.903	13.5
432.683	14.5
433.464	14.5
434.244	16.5
435.024	16.5
435.804	18.5
436.584	20.5
437.364	19.5
438.144	19.5
438.924	20.5
439.704	22.5
440.483	20.5
441.263	23.5
442.042	23.5
442.822	27.5
443.601	31.5
444.38	26.5
445.16	32.5
445.939	32.5
446.718	36.5
447.497	37.5
448.276	40.5
449.054	47.5
449.833	44.5
450.612	50.5
451.391	56.5
452.169	60.5
452.948	64.5
453.726	68.5
454.504	79.5
455.282	90.5
456.061	98.5
456.839	107.5
457.617	119.5
458.395	128.5
459.172	148.5
459.95	162.5
460.728	179.5
461.506	199.5
462.283	221.5
463.061	247.5
463.838	280.5
464.615	311.5
465.393	349.5
466.17	389.5
466.947	437.5
467.724	492.5
468.501	548.5
469.278	596.5
470.055	672.5
470.831	760.5
471.608	819.5
472.385	932.5
473.161	1028.5
473.938	1147.5
474.714	1274.5
475.49	1413.5
476.266	1566.5
477.043	1726.5
477.819	1924.5
478.595	2122.5
479.371	2347.5
480.146	2614.5
480.922	2857.5
481.698	3151.5
482.473	3478.5
483.249	3873.5
484.024	4228.5
484.8	4710.5
485.575	5141.5
486.35	5673.5
487.126	6242.5
487.901	6859.5
488.676	7518.5
489.451	8287.5
490.225	9025.5
491	9926.5
491.775	10838.5
492.55	11806.5
493.324	12774.5
494.099	13876.5
494.873	14950.5
495.647	16120.5
496.422	17344.5
497.196	18569.5
497.97	19809.5
498.744	20985.5
499.518	22297.5
500.292	23371.5
501.066	24453.5
501.839	25419.5
502.613	26340.5
503.387	27123.5
504.16	27648.5
504.934	28012.5
505.707	28080.5
506.48	28085.5
507.253	27842.5
508.027	27488.5
508.8	27151.5
509.573	26636.5
510.346	25909.5
511.118	25108.5
511.891	24270.5
512.664	23386.5
513.437	22403.5
514.209	21488.5
514.982	20559.5
515.754	19604.5
516.526	18801.5
517.298	17954.5
518.071	17145.5
518.843	16474.5
519.615	15885.5
520.387	15193.5
521.159	14626.5
521.93	13975.5
522.702	13473.5
523.474	12941.5
524.245	12351.5
525.017	11817.5
525.788	11366.5
526.56	10830.5
527.331	10301.5
528.102	9841.5
528.873	9397.5
529.644	8909.5
530.415	8473.5
531.186	8026.5
531.957	7574.5
532.728	7211.5
533.498	6846.5
534.269	6456.5
535.039	6126.5
535.81	5756.5
536.58	5414.5
537.351	5112.5
538.121	4849.5
538.891	4550.5
539.661	4339.5
540.431	4084.5
541.201	3865.5
541.971	3659.5
542.741	3475.5
543.51	3307.5
544.28	3121.5
545.05	2977.5
545.819	2825.5
546.588	2700.5
547.358	2577.5
548.127	2433.5
548.896	2310.5
549.665	2182.5
550.434	2082.5
551.203	1967.5
551.972	1866.5
552.741	1753.5
553.51	1666.5
554.278	1557.5
555.047	1478.5
555.815	1386.5
556.584	1315.5
557.352	1238.5
558.121	1177.5
558.889	1106.5
559.657	1055.5
560.425	987.5
561.193	938.5
561.961	881.5
562.729	834.5
563.496	783.5
564.264	740.5
565.032	694.5
565.799	647.5
566.567	629.5
567.334	594.5
568.101	564.5
568.869	520.5
569.636	499.5
570.403	464.5
571.17	442.5
571.937	416.5
572.704	389.5
573.471	377.5
574.237	349.5
575.004	330.5
575.771	312.5
576.537	291.5
577.303	272.5
578.07	261.5
578.836	242.5
579.602	224.5
580.368	218.5
581.134	202.5
581.9	198.5
582.666	184.5
583.432	177.5
584.198	169.5
584.964	157.5
585.729	146.5
586.495	145.5
587.26	135.5
588.025	125.5
588.791	123.5
589.556	114.5
590.321	106.5
591.086	99.5
591.851	95.5
592.616	92.5
593.381	89.5
594.146	85.5
594.911	79.5
595.675	76.5
596.44	69.5
597.204	70.5
597.969	65.5
598.733	63.5
599.497	62.5
600.261	60.5
601.025	55.5
601.79	54.5
602.553	51.5
603.317	49.5
604.081	48.5
604.845	46.5
605.609	42.5
606.372	40.5
607.136	40.5
607.899	40.5
608.662	34.5
609.426	35.5
610.189	32.5
610.952	32.5
611.715	31.5
612.478	29.5
613.241	28.5
614.004	29.5
614.767	28.5
615.529	27.5
616.292	24.5
617.055	24.5
617.817	20.5
618.579	20.5
619.342	19.5
620.104	22.5
620.866	17.5
621.628	18.5
622.39	19.5
623.152	17.5
623.914	19.5
624.676	17.5
625.438	15.5
626.199	15.5
626.961	16.5
627.722	14.5
628.484	15.5
629.245	15.5
630.006	13.5
630.768	10.5
631.529	13.5
632.29	14.5
633.051	15.5
633.812	10.5
634.573	11.5
635.333	12.5
636.094	11.5
636.855	11.5
637.615	8.5
638.376	8.5
639.136	9.5
639.896	8.5
640.657	13.5
641.417	7.5
642.177	7.5
642.937	9.5
643.697	7.5
644.457	8.5
645.216	9.5
645.976	8.5
646.736	10.5
647.495	6.5
648.255	6.5
649.014	6.5
649.774	8.5
650.533	7.5
651.292	7.5
652.051	6.5
652.81	6.5
653.569	7.5
654.328	6.5
655.087	3.5
655.846	6.5
656.604	6.5
657.363	6.5
658.121	4.5
658.88	7.5
659.638	6.5
660.397	7.5
661.155	5.5
661.913	6.5
662.671	4.5
663.429	4.5
664.187	6.5
664.945	5.5
665.703	6.5
666.46	7.5
667.218	7.5
667.976	5.5
668.733	6.5
669.49	5.5
670.248	4.5
671.005	6.5
671.762	4.5
672.519	5.5
673.276	4.5
674.033	4.5
674.79	5.5
675.547	3.5
676.304	4.5
677.06	4.5
677.817	6.5
678.574	4.5
679.33	3.5
680.086	5.5
680.843	5.5
681.599	5.5
682.355	5.5
683.111	3.5
683.867	4.5
684.623	3.5
685.379	7.5
686.135	5.5
686.89	5.5
687.646	2.5
688.402	2.5
689.157	4.5
689.912	3.5
690.668	2.5
691.423	3.5
692.178	3.5
692.933	3.5
693.688	2.5
694.443	2.5
695.198	3.5
695.953	2.5
696.708	3.5
697.462	2.5
698.217	4.5
698.972	1.5
699.726	3.5
700.48	2.5
701.235	1.5
701.989	3.5
702.743	3.5
703.497	2.5
704.251	2.5
705.005	1.5
705.759	5.5
706.513	6.5
707.266	3.5
708.02	1.5
708.774	5.5
709.527	3.5
710.28	2.5
711.034	1.5
711.787	1.5
712.54	1.5
713.293	3.5
714.046	4.5
714.799	3.5
715.552	2.5
716.305	5.5
717.058	3.5
717.81	4.5
718.563	3.5
719.315	5.5
720.068	5.5
720.82	1.5
721.573	5.5
722.325	4.5
723.077	3.5
723.829	5.5
724.581	2.5
725.333	3.5
726.085	4.5
726.836	3.5
727.588	3.5
728.34	3.5
729.091	1.5
729.843	4.5
730.594	3.5
731.346	3.5
732.097	4.5
732.848	3.5
733.599	4.5
734.35	6.5
735.101	4.5
735.852	5.5
736.603	4.5
737.354	1.5
738.104	3.5
738.855	5.5
739.605	6.5
740.356	3.5
741.106	6.5
741.856	6.5
742.607	5.5
743.357	4.5
744.107	5.5
744.857	3.5
745.607	2.5
746.357	6.5
747.106	6.5
747.856	6.5
748.606	4.5
749.355	5.5
750.105	5.5
750.854	7.5
751.603	6.5
752.353	4.5
753.102	3.5
753.851	6.5
754.6	7.5
755.349	4.5
756.098	7.5
756.847	8.5
757.595	7.5
758.344	8.5
759.093	5.5
759.841	7.5
760.589	6.5
761.338	7.5
762.086	8.5
762.834	7.5
763.582	6.5
764.331	5.5
765.079	6.5
765.826	7.5
766.574	9.5
767.322	7.5
768.07	6.5
768.817	7.5
769.565	7.5
770.312	9.5
771.06	8.5
771.807	8.5
772.554	6.5
773.302	4.5
774.049	10.5
774.796	7.5
775.543	9.5
776.29	6.5
777.036	10.5
777.783	7.5
778.53	9.5
779.276	8.5
780.023	8.5
780.769	12.5
781.516	9.5
782.262	7.5
783.008	7.5
783.754	9.5
784.5	10.5
785.246	10.5
785.992	10.5
786.738	10.5
787.484	9.5
788.23	8.5
788.975	9.5
789.721	10.5
790.466	9.5
791.212	9.5
791.957	11.5
792.702	8.5
793.447	8.5
794.193	7.5
794.938	7.5
795.683	8.5
796.427	7.5
797.172	7.5
797.917	7.5
798.662	9.5
799.406	7.5
800.151	8.5
800.895	7.5
801.64	6.5
802.384	6.5
803.128	8.5
803.872	4.5
804.616	7.5
805.36	6.5
806.104	5.5
806.848	5.5
807.592	8.5
808.336	5.5
809.079	4.5
809.823	6.5
810.566	3.5
811.31	6.5
812.053	5.5
812.796	7.5
813.539	7.5
814.283	5.5
815.026	6.5
815.769	4.5
816.511	3.5
817.254	6.5
817.997	4.5
818.74	6.5
819.482	4.5
820.225	3.5
820.967	5.5
821.71	4.5
822.452	2.5
823.194	6.5
823.936	4.5
824.678	3.5
825.42	5.5
826.162	3.5
826.904	2.5
827.646	3.5
828.388	2.5
829.129	3.5
829.871	3.5
830.612	4.5
831.354	5.5
832.095	3.5
832.836	0.5
833.577	2.5
834.319	4.5
835.06	1.5
835.801	3.5
836.542	2.5
837.282	3.5
838.023	6.5
838.764	3.5
839.504	5.5
840.245	4.5
840.985	3.5
841.726	5.5
842.466	2.5
843.206	3.5
843.946	5.5
844.687	5.5
845.427	5.5
846.166	1.5
846.906	1.5
847.646	5.5
848.386	3.5
849.125	3.5
849.865	4.5
850.605	5.5
851.344	5.5
852.083	3.5
852.823	3.5
853.562	3.5
854.301	1.5
855.04	2.5
855.779	3.5
856.518	1.5
857.257	2.5
857.995	3.5
858.734	4.5
859.473	2.5
860.211	0.5
860.95	1.5
861.688	3.5
862.426	2.5
863.165	2.5
863.903	0.5
864.641	3.5
865.379	1.5
866.117	1.5
866.855	2.5
867.593	3.5
868.33	2.5
869.068	1.5
869.806	0.5
870.543	1.5
871.28	2.5
872.018	1.5
872.755	1.5
873.492	1.5
874.229	1.5
874.967	1.5
875.703	1.5
876.44	-0.5
877.177	2.5
877.914	0.5
878.651	0.5
879.387	1.5
880.124	0.5
880.86	0.5
881.597	0.5
882.333	1.5
883.069	0.5
883.806	2.5
884.542	0.5
885.278	-0.5
886.014	2.5
886.749	0.5
887.485	1.5
888.221	1.5
888.957	0.5
889.692	1.5
890.428	-0.5
891.163	1.5
891.899	1.5
892.634	1.5
893.369	1.5
894.104	2.5
894.839	1.5
895.574	1.5
896.309	2.5
897.044	-0.5
897.779	1.5
898.514	0.5
899.248	1.5
899.983	2.5
900.717	-0.5
901.452	2.5
902.186	1.5
902.92	0.5
903.654	0.5
904.389	1.5
905.123	0.5
905.857	-0.5
906.59	1.5
907.324	-0.5
908.058	2.5
908.792	3.5
909.525	0.5
910.259	4.5
910.992	-0.5
911.726	-0.5
912.459	2.5
913.192	1.5
913.925	1.5
914.658	2.5
915.391	0.5
916.124	1.5
916.857	1.5
917.59	0.5
918.323	1.5
919.055	1.5
919.788	-0.5
920.521	0.5
921.253	0.5
921.985	2.5
922.718	1.5
923.45	0.5
924.182	1.5
924.914	1.5
925.646	0.5
926.378	2.5
927.11	0.5
927.841	1.5
928.573	1.5
929.305	-0.5
930.036	0.5
930.768	0.5
931.499	0.5
932.23	0.5
932.962	0.5
933.693	-1.5
934.424	2.5
935.155	0.5
935.886	-0.5
936.617	0.5
937.348	0.5
938.078	0.5
938.809	-2.5
939.54	0.5
940.27	-0.5
941.001	-0.5
941.731	-0.5
942.461	-1.5
943.191	0.5
943.922	1.5
944.652	1.5
945.382	-0.5
946.112	0.5
946.841	0.5
947.571	1.5
948.301	0.5
949.031	-0.5
949.76	1.5
950.49	1.5
951.219	-0.5
951.948	1.5
952.678	0.5
953.407	2.5
954.136	-0.5
954.865	0.5
955.594	0.5
956.323	3.5
957.052	-0.5
957.78	0.5
958.509	-0.5
959.238	-2.5
959.966	-2.5
960.695	0.5
961.423	-1.5
962.151	-1.5
962.88	-1.5
963.608	-0.5
964.336	1.5
965.064	-1.5
965.792	-0.5
966.52	-1.5
967.247	1.5
967.975	0.5
968.703	0.5
969.43	0.5
970.158	-0.5
970.885	1.5
971.613	0.5
972.34	-0.5
973.067	-0.5
973.794	-1.5
974.521	2.5
975.248	-1.5
975.975	2.5
976.702	1.5
977.429	3.5
978.156	-0.5
978.882	0.5
979.609	2.5
980.335	1.5
981.062	-1.5
981.788	0.5
982.514	-0.5
983.24	-0.5
983.967	-1.5
984.693	1.5
985.419	-0.5
986.144	0.5
986.87	0.5
987.596	-2.5
988.322	0.5
989.047	0.5
989.773	0.5
990.498	0.5
991.224	0.5
991.949	-1.5
992.674	-0.5
993.399	1.5
994.124	0.5
994.849	1.5
995.574	1.5
996.299	-0.5
997.024	0.5
997.749	0.5
998.473	1.5
999.198	1.5
999.922	0.5
1000.647	-0.5
1001.371	3.5
1002.095	0.5
1002.82	-3.5
1003.544	-0.5
1004.268	-0.5
1004.992	-0.5
1005.716	-0.5
1006.439	1.5
1007.163	1.5
1007.887	1.5
1008.611	1.5
1009.334	1.5
1010.058	-1.5
1010.781	-0.5
1011.504	0.5
1012.228	-0.5
1012.951	-1.5
1013.674	1.5
1014.397	-1.5
1015.12	1.5
