节点500_285_QEPB04081__757__15-08-08-801.txt的数据

Date: Wed Nov 12 15:08:08 CST 2025
User: PC
Spectrometer: QEPB0408
触发模式: 0
积分时间 (秒): 1.000000E-2
Scans to average: 1
启用暗噪声校正: true
启用非线性校正: false
滑动平均宽度: 0
X轴模式: Wavelengths
Number of Pixels in Spectrum: 1044
>>>>>Begin Spectral Data<<<<<
220.843	1.12
221.644	2.12
222.444	2.12
223.244	3.12
224.045	3.12
224.845	1.12
225.645	1.12
226.445	2.12
227.245	2.12
228.045	0.12
228.845	3.12
229.645	1.12
230.444	2.12
231.244	3.12
232.043	3.12
232.843	3.12
233.642	2.12
234.442	1.12
235.241	5.12
236.04	2.12
236.839	4.12
237.638	4.12
238.437	5.12
239.236	3.12
240.035	5.12
240.833	3.12
241.632	1.12
242.43	6.12
243.229	2.12
244.027	7.12
244.826	6.12
245.624	4.12
246.422	6.12
247.22	2.12
248.018	5.12
248.816	6.12
249.614	8.12
250.412	4.12
251.21	4.12
252.007	8.12
252.805	6.12
253.602	6.12
254.4	5.12
255.197	7.12
255.994	7.12
256.791	8.12
257.589	9.12
258.386	9.12
259.183	9.12
259.979	5.12
260.776	8.12
261.573	9.12
262.37	10.12
263.166	10.12
263.963	12.12
264.759	10.12
265.556	10.12
266.352	8.12
267.148	11.12
267.944	11.12
268.74	11.12
269.536	10.12
270.332	14.12
271.128	13.12
271.924	14.12
272.719	14.12
273.515	13.12
274.311	15.12
275.106	14.12
275.901	14.12
276.697	16.12
277.492	15.12
278.287	18.12
279.082	17.12
279.877	18.12
280.672	16.12
281.467	16.12
282.262	16.12
283.056	17.12
283.851	17.12
284.646	19.12
285.44	17.12
286.234	20.12
287.029	15.12
287.823	14.12
288.617	16.12
289.411	17.12
290.205	17.12
290.999	17.12
291.793	16.12
292.587	17.12
293.381	16.12
294.174	17.12
294.968	16.12
295.761	14.12
296.555	15.12
297.348	16.12
298.141	12.12
298.935	18.12
299.728	13.12
300.521	13.12
301.314	14.12
302.107	14.12
302.899	11.12
303.692	9.12
304.485	12.12
305.277	14.12
306.07	14.12
306.862	14.12
307.655	11.12
308.447	12.12
309.239	12.12
310.031	10.12
310.823	12.12
311.615	9.12
312.407	11.12
313.199	9.12
313.991	10.12
314.783	8.12
315.574	9.12
316.366	8.12
317.157	8.12
317.949	11.12
318.74	8.12
319.531	7.12
320.322	9.12
321.113	9.12
321.904	6.12
322.695	10.12
323.486	8.12
324.277	7.12
325.068	7.12
325.858	9.12
326.649	8.12
327.439	8.12
328.23	7.12
329.02	7.12
329.81	6.12
330.6	7.12
331.391	10.12
332.181	6.12
332.971	5.12
333.76	6.12
334.55	8.12
335.34	5.12
336.13	8.12
336.919	10.12
337.709	9.12
338.498	8.12
339.287	3.12
340.077	5.12
340.866	6.12
341.655	7.12
342.444	7.12
343.233	7.12
344.022	6.12
344.811	7.12
345.6	8.12
346.388	5.12
347.177	9.12
347.965	5.12
348.754	6.12
349.542	6.12
350.33	7.12
351.119	8.12
351.907	7.12
352.695	5.12
353.483	5.12
354.271	7.12
355.059	6.12
355.846	6.12
356.634	6.12
357.422	4.12
358.209	5.12
358.997	6.12
359.784	5.12
360.571	7.12
361.359	5.12
362.146	5.12
362.933	5.12
363.72	3.12
364.507	4.12
365.294	4.12
366.081	5.12
366.867	3.12
367.654	5.12
368.44	7.12
369.227	5.12
370.013	6.12
370.8	3.12
371.586	8.12
372.372	5.12
373.158	6.12
373.944	5.12
374.73	5.12
375.516	6.12
376.302	5.12
377.088	5.12
377.873	3.12
378.659	6.12
379.445	6.12
380.23	4.12
381.015	5.12
381.801	4.12
382.586	7.12
383.371	5.12
384.156	6.12
384.941	6.12
385.726	3.12
386.511	8.12
387.296	6.12
388.08	5.12
388.865	5.12
389.649	5.12
390.434	9.12
391.218	6.12
392.003	8.12
392.787	6.12
393.571	5.12
394.355	7.12
395.139	5.12
395.923	7.12
396.707	5.12
397.491	5.12
398.274	8.12
399.058	5.12
399.842	7.12
400.625	7.12
401.408	7.12
402.192	8.12
402.975	8.12
403.758	6.12
404.541	6.12
405.324	9.12
406.107	10.12
406.89	7.12
407.673	7.12
408.456	6.12
409.238	9.12
410.021	7.12
410.803	9.12
411.586	9.12
412.368	7.12
413.151	8.12
413.933	9.12
414.715	9.12
415.497	7.12
416.279	11.12
417.061	7.12
417.843	9.12
418.624	9.12
419.406	9.12
420.188	10.12
420.969	10.12
421.751	11.12
422.532	11.12
423.313	10.12
424.095	12.12
424.876	11.12
425.657	10.12
426.438	11.12
427.219	13.12
428	12.12
428.78	13.12
429.561	14.12
430.342	13.12
431.122	12.12
431.903	16.12
432.683	14.12
433.464	16.12
434.244	14.12
435.024	17.12
435.804	16.12
436.584	15.12
437.364	19.12
438.144	21.12
438.924	19.12
439.704	20.12
440.483	23.12
441.263	23.12
442.042	28.12
442.822	28.12
443.601	26.12
444.38	30.12
445.16	31.12
445.939	35.12
446.718	41.12
447.497	42.12
448.276	48.12
449.054	45.12
449.833	53.12
450.612	59.12
451.391	63.12
452.169	68.12
452.948	74.12
453.726	87.12
454.504	91.12
455.282	98.12
456.061	108.12
456.839	121.12
457.617	138.12
458.395	149.12
459.172	168.12
459.95	187.12
460.728	202.12
461.506	232.12
462.283	256.12
463.061	282.12
463.838	317.12
464.615	355.12
465.393	399.12
466.17	433.12
466.947	477.12
467.724	536.12
468.501	604.12
469.278	667.12
470.055	751.12
470.831	805.12
471.608	901.12
472.385	1003.12
473.161	1092.12
473.938	1209.12
474.714	1334.12
475.49	1465.12
476.266	1605.12
477.043	1772.12
477.819	1936.12
478.595	2118.12
479.371	2329.12
480.146	2544.12
480.922	2766.12
481.698	3054.12
482.473	3344.12
483.249	3651.12
484.024	3998.12
484.8	4349.12
485.575	4760.12
486.35	5182.12
487.126	5658.12
487.901	6150.12
488.676	6705.12
489.451	7299.12
490.225	7918.12
491	8567.12
491.775	9360.12
492.55	10161.12
493.324	10934.12
494.099	11749.12
494.873	12598.12
495.647	13557.12
496.422	14533.12
497.196	15552.12
497.97	16589.12
498.744	17644.12
499.518	18646.12
500.292	19665.12
501.066	20708.12
501.839	21558.12
502.613	22552.12
503.387	23327.12
504.16	24019.12
504.934	24559.12
505.707	24853.12
506.48	25153.12
507.253	25301.12
508.027	25331.12
508.8	25215.12
509.573	25041.12
510.346	24720.12
511.118	24150.12
511.891	23593.12
512.664	22940.12
513.437	22279.12
514.209	21504.12
514.982	20653.12
515.754	19929.12
516.526	19081.12
517.298	18342.12
518.071	17559.12
518.843	16913.12
519.615	16272.12
520.387	15660.12
521.159	15026.12
521.93	14394.12
522.702	13838.12
523.474	13270.12
524.245	12708.12
525.017	12230.12
525.788	11734.12
526.56	11236.12
527.331	10715.12
528.102	10236.12
528.873	9810.12
529.644	9381.12
530.415	8961.12
531.186	8528.12
531.957	8087.12
532.728	7708.12
533.498	7308.12
534.269	6971.12
535.039	6542.12
535.81	6225.12
536.58	5847.12
537.351	5552.12
538.121	5241.12
538.891	4981.12
539.661	4696.12
540.431	4437.12
541.201	4186.12
541.971	3979.12
542.741	3777.12
543.51	3589.12
544.28	3437.12
545.05	3220.12
545.819	3097.12
546.588	2931.12
547.358	2779.12
548.127	2662.12
548.896	2543.12
549.665	2420.12
550.434	2272.12
551.203	2140.12
551.972	2045.12
552.741	1932.12
553.51	1827.12
554.278	1732.12
555.047	1634.12
555.815	1525.12
556.584	1466.12
557.352	1383.12
558.121	1315.12
558.889	1238.12
559.657	1166.12
560.425	1100.12
561.193	1043.12
561.961	987.12
562.729	923.12
563.496	872.12
564.264	830.12
565.032	774.12
565.799	743.12
566.567	713.12
567.334	666.12
568.101	619.12
568.869	587.12
569.636	552.12
570.403	519.12
571.17	496.12
571.937	461.12
572.704	436.12
573.471	423.12
574.237	397.12
575.004	364.12
575.771	349.12
576.537	318.12
577.303	311.12
578.07	290.12
578.836	278.12
579.602	256.12
580.368	246.12
581.134	228.12
581.9	219.12
582.666	212.12
583.432	198.12
584.198	188.12
584.964	177.12
585.729	166.12
586.495	158.12
587.26	149.12
588.025	145.12
588.791	136.12
589.556	129.12
590.321	119.12
591.086	117.12
591.851	112.12
592.616	104.12
593.381	99.12
594.146	96.12
594.911	88.12
595.675	80.12
596.44	84.12
597.204	76.12
597.969	73.12
598.733	66.12
599.497	67.12
600.261	65.12
601.025	66.12
601.79	58.12
602.553	57.12
603.317	54.12
604.081	48.12
604.845	51.12
605.609	49.12
606.372	42.12
607.136	44.12
607.899	43.12
608.662	39.12
609.426	39.12
610.189	37.12
610.952	37.12
611.715	35.12
612.478	33.12
613.241	31.12
614.004	30.12
614.767	29.12
615.529	26.12
616.292	29.12
617.055	25.12
617.817	25.12
618.579	24.12
619.342	25.12
620.104	21.12
620.866	22.12
621.628	19.12
622.39	23.12
623.152	21.12
623.914	18.12
624.676	18.12
625.438	18.12
626.199	18.12
626.961	18.12
627.722	16.12
628.484	15.12
629.245	14.12
630.006	11.12
630.768	14.12
631.529	13.12
632.29	13.12
633.051	14.12
633.812	12.12
634.573	14.12
635.333	11.12
636.094	10.12
636.855	10.12
637.615	10.12
638.376	13.12
639.136	12.12
639.896	9.12
640.657	11.12
641.417	11.12
642.177	9.12
642.937	7.12
643.697	7.12
644.457	8.12
645.216	8.12
645.976	9.12
646.736	7.12
647.495	9.12
648.255	10.12
649.014	7.12
649.774	9.12
650.533	8.12
651.292	7.12
652.051	6.12
652.81	9.12
653.569	8.12
654.328	8.12
655.087	6.12
655.846	6.12
656.604	6.12
657.363	7.12
658.121	6.12
658.88	6.12
659.638	6.12
660.397	6.12
661.155	8.12
661.913	6.12
662.671	4.12
663.429	6.12
664.187	5.12
664.945	5.12
665.703	6.12
666.46	5.12
667.218	3.12
667.976	4.12
668.733	4.12
669.49	5.12
670.248	3.12
671.005	3.12
671.762	4.12
672.519	3.12
673.276	3.12
674.033	4.12
674.79	2.12
675.547	5.12
676.304	5.12
677.06	2.12
677.817	3.12
678.574	3.12
679.33	3.12
680.086	5.12
680.843	4.12
681.599	4.12
682.355	4.12
683.111	3.12
683.867	3.12
684.623	4.12
685.379	5.12
686.135	3.12
686.89	5.12
687.646	6.12
688.402	3.12
689.157	6.12
689.912	2.12
690.668	5.12
691.423	4.12
692.178	3.12
692.933	4.12
693.688	3.12
694.443	5.12
695.198	2.12
695.953	6.12
696.708	4.12
697.462	4.12
698.217	2.12
698.972	5.12
699.726	4.12
700.48	5.12
701.235	2.12
701.989	7.12
702.743	2.12
703.497	3.12
704.251	4.12
705.005	3.12
705.759	5.12
706.513	4.12
707.266	2.12
708.02	1.12
708.774	3.12
709.527	4.12
710.28	2.12
711.034	5.12
711.787	1.12
712.54	1.12
713.293	4.12
714.046	6.12
714.799	5.12
715.552	1.12
716.305	2.12
717.058	4.12
717.81	3.12
718.563	2.12
719.315	2.12
720.068	5.12
720.82	5.12
721.573	4.12
722.325	4.12
723.077	2.12
723.829	5.12
724.581	6.12
725.333	1.12
726.085	3.12
726.836	7.12
727.588	5.12
728.34	5.12
729.091	6.12
729.843	5.12
730.594	3.12
731.346	5.12
732.097	4.12
732.848	4.12
733.599	3.12
734.35	5.12
735.101	5.12
735.852	4.12
736.603	3.12
737.354	4.12
738.104	3.12
738.855	3.12
739.605	2.12
740.356	4.12
741.106	4.12
741.856	4.12
742.607	3.12
743.357	4.12
744.107	1.12
744.857	5.12
745.607	4.12
746.357	6.12
747.106	5.12
747.856	5.12
748.606	4.12
749.355	5.12
750.105	5.12
750.854	5.12
751.603	5.12
752.353	7.12
753.102	3.12
753.851	7.12
754.6	4.12
755.349	5.12
756.098	4.12
756.847	5.12
757.595	2.12
758.344	2.12
759.093	7.12
759.841	5.12
760.589	5.12
761.338	7.12
762.086	4.12
762.834	6.12
763.582	5.12
764.331	8.12
765.079	7.12
765.826	8.12
766.574	4.12
767.322	8.12
768.07	7.12
768.817	8.12
769.565	5.12
770.312	4.12
771.06	5.12
771.807	7.12
772.554	8.12
773.302	9.12
774.049	6.12
774.796	9.12
775.543	9.12
776.29	8.12
777.036	9.12
777.783	5.12
778.53	7.12
779.276	7.12
780.023	9.12
780.769	8.12
781.516	8.12
782.262	7.12
783.008	6.12
783.754	10.12
784.5	7.12
785.246	9.12
785.992	9.12
786.738	7.12
787.484	10.12
788.23	9.12
788.975	8.12
789.721	7.12
790.466	7.12
791.212	9.12
791.957	5.12
792.702	8.12
793.447	8.12
794.193	7.12
794.938	7.12
795.683	6.12
796.427	8.12
797.172	8.12
797.917	8.12
798.662	8.12
799.406	6.12
800.151	7.12
800.895	8.12
801.64	5.12
802.384	5.12
803.128	7.12
803.872	9.12
804.616	6.12
805.36	7.12
806.104	5.12
806.848	5.12
807.592	6.12
808.336	8.12
809.079	5.12
809.823	6.12
810.566	4.12
811.31	5.12
812.053	7.12
812.796	2.12
813.539	6.12
814.283	5.12
815.026	6.12
815.769	4.12
816.511	5.12
817.254	5.12
817.997	5.12
818.74	4.12
819.482	5.12
820.225	3.12
820.967	4.12
821.71	3.12
822.452	6.12
823.194	4.12
823.936	4.12
824.678	2.12
825.42	3.12
826.162	2.12
826.904	4.12
827.646	4.12
828.388	4.12
829.129	4.12
829.871	5.12
830.612	5.12
831.354	3.12
832.095	3.12
832.836	3.12
833.577	2.12
834.319	3.12
835.06	5.12
835.801	5.12
836.542	6.12
837.282	3.12
838.023	4.12
838.764	3.12
839.504	4.12
840.245	3.12
840.985	3.12
841.726	4.12
842.466	5.12
843.206	4.12
843.946	4.12
844.687	2.12
845.427	3.12
846.166	0.12
846.906	0.12
847.646	2.12
848.386	3.12
849.125	5.12
849.865	2.12
850.605	2.12
851.344	3.12
852.083	6.12
852.823	2.12
853.562	1.12
854.301	3.12
855.04	0.12
855.779	2.12
856.518	3.12
857.257	3.12
857.995	2.12
858.734	4.12
859.473	4.12
860.211	3.12
860.95	0.12
861.688	2.12
862.426	3.12
863.165	4.12
863.903	3.12
864.641	2.12
865.379	1.12
866.117	1.12
866.855	1.12
867.593	1.12
868.33	2.12
869.068	2.12
869.806	0.12
870.543	1.12
871.28	3.12
872.018	1.12
872.755	2.12
873.492	0.12
874.229	1.12
874.967	1.12
875.703	-0.88
876.44	4.12
877.177	0.12
877.914	0.12
878.651	2.12
879.387	2.12
880.124	2.12
880.86	1.12
881.597	2.12
882.333	2.12
883.069	1.12
883.806	-0.88
884.542	0.12
885.278	2.12
886.014	0.12
886.749	1.12
887.485	0.12
888.221	-1.88
888.957	0.12
889.692	0.12
890.428	3.12
891.163	2.12
891.899	3.12
892.634	0.12
893.369	2.12
894.104	1.12
894.839	0.12
895.574	2.12
896.309	2.12
897.044	-0.88
897.779	0.12
898.514	0.12
899.248	3.12
899.983	1.12
900.717	0.12
901.452	2.12
902.186	1.12
902.92	1.12
903.654	1.12
904.389	-0.88
905.123	0.12
905.857	0.12
906.59	2.12
907.324	-0.88
908.058	-0.88
908.792	2.12
909.525	2.12
910.259	-0.88
910.992	1.12
911.726	1.12
912.459	1.12
913.192	0.12
913.925	2.12
914.658	0.12
915.391	0.12
916.124	1.12
916.857	-0.88
917.59	2.12
918.323	2.12
919.055	-3.88
919.788	1.12
920.521	1.12
921.253	1.12
921.985	0.12
922.718	0.12
923.45	-0.88
924.182	0.12
924.914	1.12
925.646	0.12
926.378	-1.88
927.11	1.12
927.841	-0.88
928.573	2.12
929.305	1.12
930.036	2.12
930.768	-1.88
931.499	1.12
932.23	2.12
932.962	2.12
933.693	2.12
934.424	0.12
935.155	0.12
935.886	0.12
936.617	0.12
937.348	2.12
938.078	-0.88
938.809	1.12
939.54	0.12
940.27	1.12
941.001	-0.88
941.731	-0.88
942.461	-0.88
943.191	0.12
943.922	2.12
944.652	-0.88
945.382	0.12
946.112	1.12
946.841	0.12
947.571	1.12
948.301	-0.88
949.031	1.12
949.76	2.12
950.49	0.12
951.219	0.12
951.948	1.12
952.678	-0.88
953.407	0.12
954.136	1.12
954.865	1.12
955.594	-1.88
956.323	0.12
957.052	1.12
957.78	1.12
958.509	1.12
959.238	-0.88
959.966	1.12
960.695	0.12
961.423	-1.88
962.151	1.12
962.88	-1.88
963.608	-0.88
964.336	0.12
965.064	2.12
965.792	0.12
966.52	1.12
967.247	0.12
967.975	0.12
968.703	0.12
969.43	0.12
970.158	2.12
970.885	0.12
971.613	-0.88
972.34	-0.88
973.067	-0.88
973.794	0.12
974.521	-1.88
975.248	0.12
975.975	1.12
976.702	-0.88
977.429	0.12
978.156	0.12
978.882	0.12
979.609	-1.88
980.335	2.12
981.062	-0.88
981.788	2.12
982.514	0.12
983.24	0.12
983.967	3.12
984.693	0.12
985.419	0.12
986.144	0.12
986.87	1.12
987.596	2.12
988.322	0.12
989.047	-1.88
989.773	1.12
990.498	-0.88
991.224	1.12
991.949	0.12
992.674	1.12
993.399	0.12
994.124	-0.88
994.849	0.12
995.574	-0.88
996.299	0.12
997.024	1.12
997.749	-1.88
998.473	-2.88
999.198	-0.88
999.922	0.12
1000.647	0.12
1001.371	2.12
1002.095	0.12
1002.82	-1.88
1003.544	-1.88
1004.268	2.12
1004.992	3.12
1005.716	0.12
1006.439	4.12
1007.163	2.12
1007.887	4.12
1008.611	0.12
1009.334	-0.88
1010.058	1.12
1010.781	0.12
1011.504	2.12
1012.228	0.12
1012.951	1.12
1013.674	0.12
1014.397	0.12
1015.12	0.12
