节点500_285_QEPB04081__861__15-09-52-674.txt的数据

Date: Wed Nov 12 15:09:52 CST 2025
User: PC
Spectrometer: QEPB0408
触发模式: 0
积分时间 (秒): 1.000000E-2
Scans to average: 1
启用暗噪声校正: true
启用非线性校正: false
滑动平均宽度: 0
X轴模式: Wavelengths
Number of Pixels in Spectrum: 1044
>>>>>Begin Spectral Data<<<<<
220.843	0.38
221.644	2.38
222.444	-0.62
223.244	1.38
224.045	0.38
224.845	0.38
225.645	0.38
226.445	1.38
227.245	2.38
228.045	0.38
228.845	2.38
229.645	2.38
230.444	3.38
231.244	4.38
232.043	2.38
232.843	2.38
233.642	4.38
234.442	4.38
235.241	2.38
236.04	4.38
236.839	3.38
237.638	-0.62
238.437	3.38
239.236	4.38
240.035	2.38
240.833	3.38
241.632	2.38
242.43	4.38
243.229	5.38
244.027	3.38
244.826	5.38
245.624	3.38
246.422	4.38
247.22	4.38
248.018	6.38
248.816	2.38
249.614	3.38
250.412	5.38
251.21	5.38
252.007	5.38
252.805	4.38
253.602	8.38
254.4	4.38
255.197	6.38
255.994	6.38
256.791	7.38
257.589	8.38
258.386	6.38
259.183	7.38
259.979	7.38
260.776	7.38
261.573	8.38
262.37	7.38
263.166	10.38
263.963	10.38
264.759	10.38
265.556	6.38
266.352	10.38
267.148	7.38
267.944	12.38
268.74	11.38
269.536	11.38
270.332	12.38
271.128	11.38
271.924	14.38
272.719	11.38
273.515	12.38
274.311	16.38
275.106	16.38
275.901	12.38
276.697	14.38
277.492	12.38
278.287	18.38
279.082	16.38
279.877	16.38
280.672	15.38
281.467	16.38
282.262	15.38
283.056	15.38
283.851	18.38
284.646	15.38
285.44	17.38
286.234	16.38
287.029	12.38
287.823	18.38
288.617	13.38
289.411	16.38
290.205	15.38
290.999	16.38
291.793	15.38
292.587	17.38
293.381	16.38
294.174	15.38
294.968	15.38
295.761	13.38
296.555	13.38
297.348	14.38
298.141	13.38
298.935	14.38
299.728	15.38
300.521	15.38
301.314	12.38
302.107	14.38
302.899	14.38
303.692	13.38
304.485	12.38
305.277	10.38
306.07	11.38
306.862	9.38
307.655	10.38
308.447	12.38
309.239	11.38
310.031	11.38
310.823	9.38
311.615	10.38
312.407	9.38
313.199	10.38
313.991	10.38
314.783	7.38
315.574	9.38
316.366	7.38
317.157	8.38
317.949	6.38
318.74	8.38
319.531	7.38
320.322	6.38
321.113	7.38
321.904	6.38
322.695	7.38
323.486	8.38
324.277	7.38
325.068	6.38
325.858	4.38
326.649	5.38
327.439	8.38
328.23	6.38
329.02	7.38
329.81	6.38
330.6	7.38
331.391	3.38
332.181	6.38
332.971	4.38
333.76	5.38
334.55	7.38
335.34	5.38
336.13	4.38
336.919	6.38
337.709	6.38
338.498	7.38
339.287	7.38
340.077	6.38
340.866	4.38
341.655	5.38
342.444	2.38
343.233	3.38
344.022	6.38
344.811	6.38
345.6	5.38
346.388	5.38
347.177	6.38
347.965	4.38
348.754	3.38
349.542	6.38
350.33	6.38
351.119	5.38
351.907	3.38
352.695	5.38
353.483	5.38
354.271	4.38
355.059	4.38
355.846	4.38
356.634	5.38
357.422	2.38
358.209	7.38
358.997	4.38
359.784	3.38
360.571	5.38
361.359	4.38
362.146	6.38
362.933	4.38
363.72	3.38
364.507	2.38
365.294	5.38
366.081	5.38
366.867	3.38
367.654	6.38
368.44	3.38
369.227	3.38
370.013	4.38
370.8	3.38
371.586	3.38
372.372	4.38
373.158	5.38
373.944	6.38
374.73	5.38
375.516	3.38
376.302	4.38
377.088	4.38
377.873	2.38
378.659	5.38
379.445	4.38
380.23	4.38
381.015	2.38
381.801	5.38
382.586	4.38
383.371	4.38
384.156	4.38
384.941	3.38
385.726	5.38
386.511	5.38
387.296	5.38
388.08	6.38
388.865	6.38
389.649	4.38
390.434	6.38
391.218	4.38
392.003	4.38
392.787	5.38
393.571	5.38
394.355	4.38
395.139	5.38
395.923	5.38
396.707	5.38
397.491	6.38
398.274	3.38
399.058	6.38
399.842	5.38
400.625	6.38
401.408	7.38
402.192	5.38
402.975	5.38
403.758	4.38
404.541	6.38
405.324	6.38
406.107	7.38
406.89	5.38
407.673	5.38
408.456	6.38
409.238	8.38
410.021	5.38
410.803	10.38
411.586	4.38
412.368	9.38
413.151	5.38
413.933	7.38
414.715	6.38
415.497	8.38
416.279	7.38
417.061	8.38
417.843	8.38
418.624	5.38
419.406	8.38
420.188	7.38
420.969	10.38
421.751	9.38
422.532	9.38
423.313	9.38
424.095	10.38
424.876	9.38
425.657	11.38
426.438	10.38
427.219	10.38
428	11.38
428.78	12.38
429.561	10.38
430.342	13.38
431.122	12.38
431.903	13.38
432.683	13.38
433.464	11.38
434.244	17.38
435.024	16.38
435.804	14.38
436.584	19.38
437.364	16.38
438.144	20.38
438.924	24.38
439.704	23.38
440.483	22.38
441.263	25.38
442.042	23.38
442.822	26.38
443.601	28.38
444.38	26.38
445.16	33.38
445.939	39.38
446.718	34.38
447.497	39.38
448.276	48.38
449.054	49.38
449.833	50.38
450.612	59.38
451.391	59.38
452.169	70.38
452.948	73.38
453.726	82.38
454.504	94.38
455.282	105.38
456.061	110.38
456.839	125.38
457.617	143.38
458.395	159.38
459.172	165.38
459.95	192.38
460.728	210.38
461.506	241.38
462.283	258.38
463.061	291.38
463.838	322.38
464.615	360.38
465.393	402.38
466.17	454.38
466.947	497.38
467.724	549.38
468.501	613.38
469.278	665.38
470.055	745.38
470.831	816.38
471.608	912.38
472.385	1018.38
473.161	1103.38
473.938	1197.38
474.714	1338.38
475.49	1471.38
476.266	1597.38
477.043	1782.38
477.819	1928.38
478.595	2122.38
479.371	2326.38
480.146	2541.38
480.922	2770.38
481.698	3037.38
482.473	3309.38
483.249	3636.38
484.024	3947.38
484.8	4320.38
485.575	4705.38
486.35	5107.38
487.126	5571.38
487.901	6045.38
488.676	6538.38
489.451	7091.38
490.225	7734.38
491	8404.38
491.775	9104.38
492.55	9914.38
493.324	10658.38
494.099	11416.38
494.873	12228.38
495.647	13196.38
496.422	14082.38
497.196	15124.38
497.97	16122.38
498.744	17117.38
499.518	18105.38
500.292	19158.38
501.066	20103.38
501.839	21069.38
502.613	21955.38
503.387	22809.38
504.16	23485.38
504.934	24011.38
505.707	24301.38
506.48	24679.38
507.253	24802.38
508.027	24878.38
508.8	24850.38
509.573	24735.38
510.346	24429.38
511.118	23910.38
511.891	23416.38
512.664	22791.38
513.437	22111.38
514.209	21349.38
514.982	20640.38
515.754	19802.38
516.526	19051.38
517.298	18266.38
518.071	17592.38
518.843	16921.38
519.615	16312.38
520.387	15704.38
521.159	15040.38
521.93	14466.38
522.702	13866.38
523.474	13304.38
524.245	12717.38
525.017	12231.38
525.788	11792.38
526.56	11270.38
527.331	10722.38
528.102	10290.38
528.873	9859.38
529.644	9408.38
530.415	9044.38
531.186	8559.38
531.957	8150.38
532.728	7754.38
533.498	7409.38
534.269	6993.38
535.039	6641.38
535.81	6315.38
536.58	5941.38
537.351	5616.38
538.121	5299.38
538.891	5041.38
539.661	4751.38
540.431	4468.38
541.201	4231.38
541.971	4017.38
542.741	3796.38
543.51	3620.38
544.28	3444.38
545.05	3274.38
545.819	3130.38
546.588	2977.38
547.358	2795.38
548.127	2676.38
548.896	2552.38
549.665	2437.38
550.434	2289.38
551.203	2170.38
551.972	2082.38
552.741	1949.38
553.51	1845.38
554.278	1752.38
555.047	1656.38
555.815	1576.38
556.584	1487.38
557.352	1402.38
558.121	1321.38
558.889	1255.38
559.657	1184.38
560.425	1108.38
561.193	1059.38
561.961	997.38
562.729	934.38
563.496	879.38
564.264	829.38
565.032	789.38
565.799	740.38
566.567	720.38
567.334	657.38
568.101	641.38
568.869	605.38
569.636	566.38
570.403	522.38
571.17	500.38
571.937	470.38
572.704	436.38
573.471	420.38
574.237	401.38
575.004	378.38
575.771	348.38
576.537	333.38
577.303	308.38
578.07	293.38
578.836	280.38
579.602	259.38
580.368	240.38
581.134	245.38
581.9	221.38
582.666	212.38
583.432	202.38
584.198	193.38
584.964	180.38
585.729	169.38
586.495	160.38
587.26	148.38
588.025	146.38
588.791	139.38
589.556	127.38
590.321	119.38
591.086	116.38
591.851	111.38
592.616	94.38
593.381	100.38
594.146	94.38
594.911	90.38
595.675	82.38
596.44	83.38
597.204	79.38
597.969	71.38
598.733	72.38
599.497	63.38
600.261	63.38
601.025	61.38
601.79	55.38
602.553	56.38
603.317	57.38
604.081	50.38
604.845	50.38
605.609	48.38
606.372	43.38
607.136	40.38
607.899	45.38
608.662	39.38
609.426	38.38
610.189	38.38
610.952	35.38
611.715	33.38
612.478	34.38
613.241	30.38
614.004	28.38
614.767	29.38
615.529	27.38
616.292	27.38
617.055	28.38
617.817	25.38
618.579	22.38
619.342	22.38
620.104	22.38
620.866	24.38
621.628	20.38
622.39	17.38
623.152	17.38
623.914	19.38
624.676	15.38
625.438	16.38
626.199	16.38
626.961	15.38
627.722	15.38
628.484	12.38
629.245	14.38
630.006	16.38
630.768	13.38
631.529	13.38
632.29	13.38
633.051	13.38
633.812	11.38
634.573	12.38
635.333	11.38
636.094	9.38
636.855	10.38
637.615	9.38
638.376	11.38
639.136	10.38
639.896	10.38
640.657	10.38
641.417	9.38
642.177	11.38
642.937	9.38
643.697	8.38
644.457	8.38
645.216	8.38
645.976	8.38
646.736	7.38
647.495	7.38
648.255	6.38
649.014	5.38
649.774	5.38
650.533	5.38
651.292	9.38
652.051	6.38
652.81	7.38
653.569	7.38
654.328	6.38
655.087	5.38
655.846	8.38
656.604	4.38
657.363	5.38
658.121	5.38
658.88	4.38
659.638	6.38
660.397	7.38
661.155	7.38
661.913	4.38
662.671	3.38
663.429	4.38
664.187	4.38
664.945	5.38
665.703	4.38
666.46	2.38
667.218	4.38
667.976	3.38
668.733	5.38
669.49	4.38
670.248	4.38
671.005	4.38
671.762	4.38
672.519	3.38
673.276	2.38
674.033	5.38
674.79	4.38
675.547	2.38
676.304	3.38
677.06	1.38
677.817	4.38
678.574	3.38
679.33	4.38
680.086	1.38
680.843	4.38
681.599	3.38
682.355	4.38
683.111	3.38
683.867	3.38
684.623	2.38
685.379	3.38
686.135	1.38
686.89	4.38
687.646	1.38
688.402	4.38
689.157	2.38
689.912	5.38
690.668	2.38
691.423	2.38
692.178	1.38
692.933	2.38
693.688	6.38
694.443	3.38
695.198	1.38
695.953	3.38
696.708	1.38
697.462	1.38
698.217	1.38
698.972	3.38
699.726	4.38
700.48	4.38
701.235	1.38
701.989	2.38
702.743	3.38
703.497	3.38
704.251	4.38
705.005	3.38
705.759	1.38
706.513	2.38
707.266	5.38
708.02	1.38
708.774	4.38
709.527	3.38
710.28	3.38
711.034	1.38
711.787	3.38
712.54	0.38
713.293	5.38
714.046	2.38
714.799	3.38
715.552	3.38
716.305	2.38
717.058	3.38
717.81	3.38
718.563	3.38
719.315	4.38
720.068	2.38
720.82	2.38
721.573	4.38
722.325	1.38
723.077	-0.62
723.829	2.38
724.581	2.38
725.333	4.38
726.085	3.38
726.836	3.38
727.588	3.38
728.34	0.38
729.091	3.38
729.843	2.38
730.594	4.38
731.346	4.38
732.097	2.38
732.848	6.38
733.599	3.38
734.35	1.38
735.101	4.38
735.852	5.38
736.603	4.38
737.354	3.38
738.104	4.38
738.855	0.38
739.605	4.38
740.356	1.38
741.106	3.38
741.856	5.38
742.607	3.38
743.357	1.38
744.107	4.38
744.857	2.38
745.607	4.38
746.357	2.38
747.106	4.38
747.856	3.38
748.606	4.38
749.355	2.38
750.105	3.38
750.854	4.38
751.603	4.38
752.353	5.38
753.102	2.38
753.851	4.38
754.6	5.38
755.349	6.38
756.098	4.38
756.847	5.38
757.595	7.38
758.344	6.38
759.093	4.38
759.841	5.38
760.589	2.38
761.338	6.38
762.086	2.38
762.834	4.38
763.582	6.38
764.331	6.38
765.079	5.38
765.826	6.38
766.574	5.38
767.322	5.38
768.07	4.38
768.817	5.38
769.565	4.38
770.312	6.38
771.06	5.38
771.807	5.38
772.554	6.38
773.302	5.38
774.049	7.38
774.796	5.38
775.543	7.38
776.29	7.38
777.036	8.38
777.783	5.38
778.53	6.38
779.276	6.38
780.023	6.38
780.769	4.38
781.516	5.38
782.262	7.38
783.008	6.38
783.754	8.38
784.5	10.38
785.246	6.38
785.992	6.38
786.738	8.38
787.484	9.38
788.23	8.38
788.975	8.38
789.721	7.38
790.466	6.38
791.212	7.38
791.957	9.38
792.702	5.38
793.447	7.38
794.193	5.38
794.938	5.38
795.683	7.38
796.427	7.38
797.172	6.38
797.917	6.38
798.662	4.38
799.406	6.38
800.151	8.38
800.895	5.38
801.64	6.38
802.384	6.38
803.128	6.38
803.872	4.38
804.616	2.38
805.36	6.38
806.104	4.38
806.848	7.38
807.592	5.38
808.336	3.38
809.079	5.38
809.823	4.38
810.566	5.38
811.31	4.38
812.053	4.38
812.796	3.38
813.539	2.38
814.283	5.38
815.026	4.38
815.769	3.38
816.511	4.38
817.254	4.38
817.997	3.38
818.74	4.38
819.482	2.38
820.225	5.38
820.967	2.38
821.71	4.38
822.452	3.38
823.194	5.38
823.936	2.38
824.678	6.38
825.42	3.38
826.162	3.38
826.904	5.38
827.646	3.38
828.388	3.38
829.129	4.38
829.871	6.38
830.612	3.38
831.354	3.38
832.095	1.38
832.836	2.38
833.577	4.38
834.319	2.38
835.06	5.38
835.801	3.38
836.542	1.38
837.282	4.38
838.023	0.38
838.764	3.38
839.504	0.38
840.245	4.38
840.985	2.38
841.726	2.38
842.466	2.38
843.206	1.38
843.946	3.38
844.687	2.38
845.427	4.38
846.166	1.38
846.906	2.38
847.646	2.38
848.386	4.38
849.125	2.38
849.865	0.38
850.605	1.38
851.344	4.38
852.083	2.38
852.823	1.38
853.562	1.38
854.301	1.38
855.04	1.38
855.779	1.38
856.518	0.38
857.257	0.38
857.995	0.38
858.734	1.38
859.473	2.38
860.211	0.38
860.95	0.38
861.688	3.38
862.426	0.38
863.165	3.38
863.903	1.38
864.641	1.38
865.379	3.38
866.117	0.38
866.855	1.38
867.593	1.38
868.33	0.38
869.068	1.38
869.806	2.38
870.543	1.38
871.28	0.38
872.018	2.38
872.755	-2.62
873.492	2.38
874.229	1.38
874.967	2.38
875.703	1.38
876.44	-0.62
877.177	2.38
877.914	-0.62
878.651	2.38
879.387	1.38
880.124	0.38
880.86	1.38
881.597	-0.62
882.333	2.38
883.069	-0.62
883.806	-1.62
884.542	0.38
885.278	0.38
886.014	0.38
886.749	0.38
887.485	1.38
888.221	0.38
888.957	0.38
889.692	-0.62
890.428	-1.62
891.163	-0.62
891.899	-0.62
892.634	2.38
893.369	0.38
894.104	1.38
894.839	0.38
895.574	1.38
896.309	0.38
897.044	-2.62
897.779	-1.62
898.514	0.38
899.248	-0.62
899.983	0.38
900.717	-2.62
901.452	-0.62
902.186	1.38
902.92	1.38
903.654	0.38
904.389	0.38
905.123	2.38
905.857	-0.62
906.59	-3.62
907.324	-1.62
908.058	0.38
908.792	0.38
909.525	-0.62
910.259	1.38
910.992	1.38
911.726	1.38
912.459	-1.62
913.192	-0.62
913.925	-0.62
914.658	-0.62
915.391	-1.62
916.124	0.38
916.857	0.38
917.59	-0.62
918.323	0.38
919.055	0.38
919.788	-0.62
920.521	1.38
921.253	-0.62
921.985	1.38
922.718	-0.62
923.45	-0.62
924.182	1.38
924.914	-1.62
925.646	-0.62
926.378	-1.62
927.11	1.38
927.841	1.38
928.573	0.38
929.305	-0.62
930.036	-0.62
930.768	0.38
931.499	-2.62
932.23	1.38
932.962	-0.62
933.693	-0.62
934.424	0.38
935.155	-0.62
935.886	-0.62
936.617	-1.62
937.348	-0.62
938.078	-0.62
938.809	-0.62
939.54	0.38
940.27	-1.62
941.001	-0.62
941.731	0.38
942.461	0.38
943.191	0.38
943.922	-1.62
944.652	-0.62
945.382	-0.62
946.112	1.38
946.841	1.38
947.571	0.38
948.301	-2.62
949.031	-1.62
949.76	0.38
950.49	0.38
951.219	1.38
951.948	-2.62
952.678	-2.62
953.407	-0.62
954.136	0.38
954.865	-1.62
955.594	1.38
956.323	-0.62
957.052	0.38
957.78	-1.62
958.509	-2.62
959.238	-2.62
959.966	-1.62
960.695	-3.62
961.423	0.38
962.151	-0.62
962.88	0.38
963.608	1.38
964.336	0.38
965.064	0.38
965.792	0.38
966.52	-0.62
967.247	0.38
967.975	-1.62
968.703	1.38
969.43	-1.62
970.158	-1.62
970.885	0.38
971.613	-1.62
972.34	0.38
973.067	-1.62
973.794	-0.62
974.521	0.38
975.248	0.38
975.975	0.38
976.702	-0.62
977.429	-0.62
978.156	-1.62
978.882	0.38
979.609	0.38
980.335	-0.62
981.062	0.38
981.788	-1.62
982.514	0.38
983.24	0.38
983.967	-1.62
984.693	-0.62
985.419	1.38
986.144	-1.62
986.87	2.38
987.596	-0.62
988.322	-1.62
989.047	0.38
989.773	-1.62
990.498	-0.62
991.224	-0.62
991.949	0.38
992.674	-1.62
993.399	-0.62
994.124	-0.62
994.849	0.38
995.574	-1.62
996.299	1.38
997.024	-0.62
997.749	0.38
998.473	-1.62
999.198	-0.62
999.922	-0.62
1000.647	1.38
1001.371	3.38
1002.095	-0.62
1002.82	-1.62
1003.544	-1.62
1004.268	1.38
1004.992	-1.62
1005.716	-0.62
1006.439	1.38
1007.163	1.38
1007.887	0.38
1008.611	0.38
1009.334	0.38
1010.058	-0.62
1010.781	-0.62
1011.504	0.38
1012.228	-0.62
1012.951	1.38
1013.674	-0.62
1014.397	-0.62
1015.12	0.38
