节点500_285_QEPB04081__394__15-02-06-655.txt的数据

Date: Wed Nov 12 15:02:06 CST 2025
User: PC
Spectrometer: QEPB0408
触发模式: 0
积分时间 (秒): 1.000000E-2
Scans to average: 1
启用暗噪声校正: true
启用非线性校正: false
滑动平均宽度: 0
X轴模式: Wavelengths
Number of Pixels in Spectrum: 1044
>>>>>Begin Spectral Data<<<<<
220.843	1.75
221.644	-0.25
222.444	2.75
223.244	-0.25
224.045	4.75
224.845	0.75
225.645	2.75
226.445	2.75
227.245	2.75
228.045	2.75
228.845	2.75
229.645	2.75
230.444	2.75
231.244	4.75
232.043	2.75
232.843	3.75
233.642	3.75
234.442	2.75
235.241	3.75
236.04	2.75
236.839	5.75
237.638	1.75
238.437	4.75
239.236	2.75
240.035	4.75
240.833	3.75
241.632	3.75
242.43	5.75
243.229	3.75
244.027	3.75
244.826	4.75
245.624	6.75
246.422	6.75
247.22	4.75
248.018	3.75
248.816	5.75
249.614	5.75
250.412	6.75
251.21	3.75
252.007	5.75
252.805	7.75
253.602	5.75
254.4	8.75
255.197	6.75
255.994	10.75
256.791	8.75
257.589	8.75
258.386	8.75
259.183	7.75
259.979	9.75
260.776	10.75
261.573	10.75
262.37	9.75
263.166	9.75
263.963	11.75
264.759	9.75
265.556	11.75
266.352	12.75
267.148	14.75
267.944	11.75
268.74	15.75
269.536	11.75
270.332	15.75
271.128	13.75
271.924	16.75
272.719	14.75
273.515	15.75
274.311	16.75
275.106	16.75
275.901	13.75
276.697	17.75
277.492	16.75
278.287	16.75
279.082	19.75
279.877	18.75
280.672	17.75
281.467	19.75
282.262	18.75
283.056	15.75
283.851	20.75
284.646	20.75
285.44	16.75
286.234	17.75
287.029	17.75
287.823	18.75
288.617	21.75
289.411	17.75
290.205	15.75
290.999	18.75
291.793	18.75
292.587	18.75
293.381	17.75
294.174	17.75
294.968	16.75
295.761	17.75
296.555	16.75
297.348	15.75
298.141	16.75
298.935	15.75
299.728	11.75
300.521	15.75
301.314	14.75
302.107	9.75
302.899	13.75
303.692	13.75
304.485	11.75
305.277	11.75
306.07	10.75
306.862	12.75
307.655	9.75
308.447	11.75
309.239	13.75
310.031	9.75
310.823	11.75
311.615	10.75
312.407	9.75
313.199	8.75
313.991	10.75
314.783	7.75
315.574	7.75
316.366	9.75
317.157	7.75
317.949	9.75
318.74	6.75
319.531	9.75
320.322	6.75
321.113	6.75
321.904	8.75
322.695	5.75
323.486	6.75
324.277	5.75
325.068	5.75
325.858	6.75
326.649	6.75
327.439	10.75
328.23	6.75
329.02	4.75
329.81	6.75
330.6	3.75
331.391	7.75
332.181	6.75
332.971	7.75
333.76	6.75
334.55	5.75
335.34	7.75
336.13	5.75
336.919	6.75
337.709	8.75
338.498	4.75
339.287	6.75
340.077	6.75
340.866	6.75
341.655	5.75
342.444	5.75
343.233	6.75
344.022	4.75
344.811	7.75
345.6	6.75
346.388	7.75
347.177	6.75
347.965	6.75
348.754	5.75
349.542	5.75
350.33	6.75
351.119	4.75
351.907	5.75
352.695	4.75
353.483	5.75
354.271	6.75
355.059	6.75
355.846	2.75
356.634	7.75
357.422	4.75
358.209	6.75
358.997	2.75
359.784	3.75
360.571	5.75
361.359	7.75
362.146	4.75
362.933	2.75
363.72	6.75
364.507	4.75
365.294	7.75
366.081	3.75
366.867	3.75
367.654	1.75
368.44	5.75
369.227	1.75
370.013	4.75
370.8	6.75
371.586	6.75
372.372	5.75
373.158	6.75
373.944	5.75
374.73	4.75
375.516	4.75
376.302	6.75
377.088	3.75
377.873	4.75
378.659	5.75
379.445	4.75
380.23	3.75
381.015	6.75
381.801	4.75
382.586	7.75
383.371	4.75
384.156	5.75
384.941	5.75
385.726	6.75
386.511	3.75
387.296	6.75
388.08	6.75
388.865	7.75
389.649	7.75
390.434	4.75
391.218	6.75
392.003	6.75
392.787	4.75
393.571	6.75
394.355	3.75
395.139	6.75
395.923	5.75
396.707	5.75
397.491	5.75
398.274	6.75
399.058	7.75
399.842	6.75
400.625	7.75
401.408	6.75
402.192	7.75
402.975	8.75
403.758	7.75
404.541	7.75
405.324	6.75
406.107	5.75
406.89	5.75
407.673	8.75
408.456	9.75
409.238	6.75
410.021	8.75
410.803	8.75
411.586	9.75
412.368	10.75
413.151	6.75
413.933	7.75
414.715	7.75
415.497	8.75
416.279	9.75
417.061	9.75
417.843	7.75
418.624	9.75
419.406	9.75
420.188	9.75
420.969	11.75
421.751	10.75
422.532	9.75
423.313	10.75
424.095	8.75
424.876	11.75
425.657	11.75
426.438	12.75
427.219	11.75
428	9.75
428.78	11.75
429.561	11.75
430.342	14.75
431.122	15.75
431.903	12.75
432.683	14.75
433.464	12.75
434.244	15.75
435.024	14.75
435.804	18.75
436.584	19.75
437.364	18.75
438.144	18.75
438.924	20.75
439.704	17.75
440.483	24.75
441.263	21.75
442.042	23.75
442.822	26.75
443.601	28.75
444.38	29.75
445.16	33.75
445.939	32.75
446.718	36.75
447.497	38.75
448.276	38.75
449.054	48.75
449.833	46.75
450.612	54.75
451.391	53.75
452.169	63.75
452.948	69.75
453.726	77.75
454.504	82.75
455.282	91.75
456.061	102.75
456.839	109.75
457.617	125.75
458.395	138.75
459.172	147.75
459.95	172.75
460.728	189.75
461.506	207.75
462.283	234.75
463.061	257.75
463.838	304.75
464.615	326.75
465.393	372.75
466.17	402.75
466.947	450.75
467.724	505.75
468.501	563.75
469.278	617.75
470.055	694.75
470.831	773.75
471.608	869.75
472.385	962.75
473.161	1065.75
473.938	1179.75
474.714	1299.75
475.49	1444.75
476.266	1588.75
477.043	1752.75
477.819	1941.75
478.595	2139.75
479.371	2363.75
480.146	2582.75
480.922	2850.75
481.698	3138.75
482.473	3446.75
483.249	3804.75
484.024	4176.75
484.8	4618.75
485.575	5021.75
486.35	5507.75
487.126	6037.75
487.901	6665.75
488.676	7259.75
489.451	7945.75
490.225	8716.75
491	9446.75
491.775	10343.75
492.55	11330.75
493.324	12209.75
494.099	13160.75
494.873	14211.75
495.647	15251.75
496.422	16474.75
497.196	17602.75
497.97	18780.75
498.744	19926.75
499.518	21097.75
500.292	22304.75
501.066	23286.75
501.839	24199.75
502.613	25216.75
503.387	25959.75
504.16	26578.75
504.934	26890.75
505.707	27145.75
506.48	27225.75
507.253	27198.75
508.027	26939.75
508.8	26588.75
509.573	26244.75
510.346	25652.75
511.118	24946.75
511.891	24171.75
512.664	23365.75
513.437	22534.75
514.209	21586.75
514.982	20700.75
515.754	19787.75
516.526	18958.75
517.298	18095.75
518.071	17307.75
518.843	16646.75
519.615	16032.75
520.387	15407.75
521.159	14777.75
521.93	14182.75
522.702	13620.75
523.474	13095.75
524.245	12467.75
525.017	11963.75
525.788	11497.75
526.56	10948.75
527.331	10457.75
528.102	10027.75
528.873	9552.75
529.644	9098.75
530.415	8614.75
531.186	8195.75
531.957	7768.75
532.728	7381.75
533.498	7014.75
534.269	6593.75
535.039	6270.75
535.81	5925.75
536.58	5602.75
537.351	5267.75
538.121	4961.75
538.891	4713.75
539.661	4458.75
540.431	4212.75
541.201	3979.75
541.971	3759.75
542.741	3573.75
543.51	3397.75
544.28	3224.75
545.05	3069.75
545.819	2925.75
546.588	2770.75
547.358	2634.75
548.127	2493.75
548.896	2377.75
549.665	2245.75
550.434	2123.75
551.203	2024.75
551.972	1923.75
552.741	1817.75
553.51	1709.75
554.278	1605.75
555.047	1533.75
555.815	1425.75
556.584	1363.75
557.352	1289.75
558.121	1209.75
558.889	1148.75
559.657	1085.75
560.425	1013.75
561.193	961.75
561.961	904.75
562.729	864.75
563.496	809.75
564.264	770.75
565.032	723.75
565.799	683.75
566.567	650.75
567.334	608.75
568.101	581.75
568.869	551.75
569.636	510.75
570.403	477.75
571.17	454.75
571.937	428.75
572.704	408.75
573.471	389.75
574.237	366.75
575.004	342.75
575.771	322.75
576.537	300.75
577.303	281.75
578.07	272.75
578.836	248.75
579.602	238.75
580.368	226.75
581.134	212.75
581.9	200.75
582.666	188.75
583.432	179.75
584.198	168.75
584.964	164.75
585.729	153.75
586.495	145.75
587.26	140.75
588.025	126.75
588.791	122.75
589.556	121.75
590.321	111.75
591.086	109.75
591.851	105.75
592.616	95.75
593.381	96.75
594.146	88.75
594.911	80.75
595.675	81.75
596.44	73.75
597.204	74.75
597.969	66.75
598.733	64.75
599.497	62.75
600.261	61.75
601.025	58.75
601.79	54.75
602.553	53.75
603.317	48.75
604.081	49.75
604.845	48.75
605.609	46.75
606.372	40.75
607.136	40.75
607.899	37.75
608.662	36.75
609.426	35.75
610.189	33.75
610.952	33.75
611.715	28.75
612.478	32.75
613.241	28.75
614.004	26.75
614.767	26.75
615.529	24.75
616.292	25.75
617.055	23.75
617.817	24.75
618.579	24.75
619.342	22.75
620.104	20.75
620.866	19.75
621.628	20.75
622.39	17.75
623.152	19.75
623.914	19.75
624.676	17.75
625.438	16.75
626.199	17.75
626.961	14.75
627.722	13.75
628.484	15.75
629.245	14.75
630.006	16.75
630.768	14.75
631.529	11.75
632.29	15.75
633.051	13.75
633.812	11.75
634.573	11.75
635.333	9.75
636.094	11.75
636.855	11.75
637.615	11.75
638.376	9.75
639.136	11.75
639.896	8.75
640.657	8.75
641.417	8.75
642.177	6.75
642.937	9.75
643.697	7.75
644.457	7.75
645.216	10.75
645.976	8.75
646.736	7.75
647.495	9.75
648.255	6.75
649.014	8.75
649.774	6.75
650.533	7.75
651.292	6.75
652.051	6.75
652.81	8.75
653.569	5.75
654.328	7.75
655.087	3.75
655.846	5.75
656.604	5.75
657.363	6.75
658.121	6.75
658.88	4.75
659.638	7.75
660.397	5.75
661.155	5.75
661.913	6.75
662.671	4.75
663.429	7.75
664.187	4.75
664.945	7.75
665.703	3.75
666.46	5.75
667.218	3.75
667.976	6.75
668.733	5.75
669.49	3.75
670.248	3.75
671.005	4.75
671.762	4.75
672.519	7.75
673.276	3.75
674.033	4.75
674.79	3.75
675.547	5.75
676.304	4.75
677.06	5.75
677.817	5.75
678.574	2.75
679.33	5.75
680.086	4.75
680.843	2.75
681.599	4.75
682.355	2.75
683.111	4.75
683.867	2.75
684.623	5.75
685.379	3.75
686.135	1.75
686.89	3.75
687.646	2.75
688.402	5.75
689.157	3.75
689.912	1.75
690.668	3.75
691.423	3.75
692.178	3.75
692.933	2.75
693.688	4.75
694.443	2.75
695.198	5.75
695.953	4.75
696.708	2.75
697.462	3.75
698.217	1.75
698.972	2.75
699.726	3.75
700.48	3.75
701.235	1.75
701.989	1.75
702.743	4.75
703.497	2.75
704.251	1.75
705.005	0.75
705.759	-0.25
706.513	3.75
707.266	2.75
708.02	5.75
708.774	3.75
709.527	3.75
710.28	6.75
711.034	3.75
711.787	4.75
712.54	1.75
713.293	4.75
714.046	3.75
714.799	4.75
715.552	3.75
716.305	3.75
717.058	4.75
717.81	5.75
718.563	3.75
719.315	3.75
720.068	2.75
720.82	4.75
721.573	2.75
722.325	2.75
723.077	4.75
723.829	2.75
724.581	3.75
725.333	2.75
726.085	5.75
726.836	2.75
727.588	1.75
728.34	2.75
729.091	1.75
729.843	2.75
730.594	1.75
731.346	2.75
732.097	2.75
732.848	3.75
733.599	2.75
734.35	2.75
735.101	5.75
735.852	3.75
736.603	4.75
737.354	3.75
738.104	3.75
738.855	5.75
739.605	4.75
740.356	4.75
741.106	3.75
741.856	5.75
742.607	4.75
743.357	2.75
744.107	5.75
744.857	3.75
745.607	4.75
746.357	4.75
747.106	3.75
747.856	7.75
748.606	6.75
749.355	5.75
750.105	4.75
750.854	3.75
751.603	5.75
752.353	5.75
753.102	3.75
753.851	7.75
754.6	4.75
755.349	5.75
756.098	3.75
756.847	4.75
757.595	5.75
758.344	5.75
759.093	8.75
759.841	6.75
760.589	5.75
761.338	6.75
762.086	7.75
762.834	6.75
763.582	6.75
764.331	4.75
765.079	4.75
765.826	4.75
766.574	7.75
767.322	7.75
768.07	5.75
768.817	10.75
769.565	3.75
770.312	5.75
771.06	9.75
771.807	5.75
772.554	7.75
773.302	7.75
774.049	8.75
774.796	8.75
775.543	8.75
776.29	8.75
777.036	6.75
777.783	7.75
778.53	7.75
779.276	10.75
780.023	9.75
780.769	10.75
781.516	8.75
782.262	7.75
783.008	7.75
783.754	9.75
784.5	8.75
785.246	9.75
785.992	8.75
786.738	7.75
787.484	7.75
788.23	8.75
788.975	10.75
789.721	9.75
790.466	7.75
791.212	6.75
791.957	9.75
792.702	8.75
793.447	7.75
794.193	8.75
794.938	7.75
795.683	9.75
796.427	8.75
797.172	6.75
797.917	8.75
798.662	6.75
799.406	6.75
800.151	7.75
800.895	6.75
801.64	6.75
802.384	8.75
803.128	6.75
803.872	6.75
804.616	8.75
805.36	5.75
806.104	8.75
806.848	6.75
807.592	6.75
808.336	7.75
809.079	5.75
809.823	5.75
810.566	3.75
811.31	4.75
812.053	6.75
812.796	5.75
813.539	5.75
814.283	4.75
815.026	5.75
815.769	3.75
816.511	4.75
817.254	5.75
817.997	1.75
818.74	3.75
819.482	5.75
820.225	4.75
820.967	3.75
821.71	4.75
822.452	3.75
823.194	5.75
823.936	5.75
824.678	3.75
825.42	5.75
826.162	3.75
826.904	4.75
827.646	3.75
828.388	2.75
829.129	4.75
829.871	4.75
830.612	4.75
831.354	5.75
832.095	3.75
832.836	3.75
833.577	2.75
834.319	2.75
835.06	3.75
835.801	2.75
836.542	3.75
837.282	3.75
838.023	3.75
838.764	2.75
839.504	3.75
840.245	5.75
840.985	3.75
841.726	3.75
842.466	2.75
843.206	1.75
843.946	1.75
844.687	5.75
845.427	1.75
846.166	1.75
846.906	1.75
847.646	-0.25
848.386	3.75
849.125	1.75
849.865	-0.25
850.605	1.75
851.344	3.75
852.083	1.75
852.823	-0.25
853.562	2.75
854.301	1.75
855.04	3.75
855.779	5.75
856.518	0.75
857.257	2.75
857.995	0.75
858.734	1.75
859.473	1.75
860.211	3.75
860.95	1.75
861.688	0.75
862.426	3.75
863.165	0.75
863.903	0.75
864.641	1.75
865.379	1.75
866.117	0.75
866.855	2.75
867.593	0.75
868.33	3.75
869.068	1.75
869.806	1.75
870.543	0.75
871.28	3.75
872.018	3.75
872.755	2.75
873.492	2.75
874.229	1.75
874.967	2.75
875.703	0.75
876.44	0.75
877.177	0.75
877.914	4.75
878.651	0.75
879.387	0.75
880.124	1.75
880.86	-0.25
881.597	0.75
882.333	1.75
883.069	0.75
883.806	2.75
884.542	-1.25
885.278	-0.25
886.014	1.75
886.749	1.75
887.485	1.75
888.221	0.75
888.957	1.75
889.692	-0.25
890.428	2.75
891.163	1.75
891.899	1.75
892.634	2.75
893.369	0.75
894.104	-0.25
894.839	-0.25
895.574	1.75
896.309	-1.25
897.044	0.75
897.779	1.75
898.514	-2.25
899.248	0.75
899.983	0.75
900.717	-1.25
901.452	0.75
902.186	-0.25
902.92	1.75
903.654	-0.25
904.389	0.75
905.123	-0.25
905.857	-0.25
906.59	-0.25
907.324	-0.25
908.058	2.75
908.792	-3.25
909.525	0.75
910.259	-0.25
910.992	0.75
911.726	0.75
912.459	-0.25
913.192	1.75
913.925	-1.25
914.658	-2.25
915.391	-1.25
916.124	-2.25
916.857	1.75
917.59	-3.25
918.323	0.75
919.055	-0.25
919.788	-1.25
920.521	1.75
921.253	-0.25
921.985	0.75
922.718	-0.25
923.45	0.75
924.182	0.75
924.914	-0.25
925.646	1.75
926.378	0.75
927.11	-0.25
927.841	-0.25
928.573	-0.25
929.305	-1.25
930.036	1.75
930.768	0.75
931.499	-0.25
932.23	-0.25
932.962	-0.25
933.693	-1.25
934.424	0.75
935.155	-0.25
935.886	-0.25
936.617	-0.25
937.348	1.75
938.078	-1.25
938.809	-2.25
939.54	1.75
940.27	0.75
941.001	-1.25
941.731	0.75
942.461	-2.25
943.191	-2.25
943.922	-2.25
944.652	-1.25
945.382	-0.25
946.112	0.75
946.841	1.75
947.571	-0.25
948.301	1.75
949.031	-1.25
949.76	-0.25
950.49	-0.25
951.219	0.75
951.948	-0.25
952.678	-1.25
953.407	0.75
954.136	0.75
954.865	0.75
955.594	-2.25
956.323	0.75
957.052	0.75
957.78	-1.25
958.509	-0.25
959.238	-2.25
959.966	0.75
960.695	0.75
961.423	-2.25
962.151	0.75
962.88	-1.25
963.608	2.75
964.336	-2.25
965.064	0.75
965.792	-0.25
966.52	0.75
967.247	1.75
967.975	-2.25
968.703	1.75
969.43	-0.25
970.158	-0.25
970.885	-0.25
971.613	-2.25
972.34	-1.25
973.067	-0.25
973.794	1.75
974.521	-0.25
975.248	0.75
975.975	0.75
976.702	-0.25
977.429	-0.25
978.156	-1.25
978.882	0.75
979.609	-0.25
980.335	0.75
981.062	0.75
981.788	-0.25
982.514	1.75
983.24	-1.25
983.967	1.75
984.693	-1.25
985.419	-0.25
986.144	1.75
986.87	1.75
987.596	0.75
988.322	-2.25
989.047	0.75
989.773	0.75
990.498	-4.25
991.224	1.75
991.949	-2.25
992.674	0.75
993.399	-0.25
994.124	-2.25
994.849	2.75
995.574	-0.25
996.299	2.75
997.024	-1.25
997.749	0.75
998.473	1.75
999.198	-2.25
999.922	1.75
1000.647	-3.25
1001.371	2.75
1002.095	1.75
1002.82	-2.25
1003.544	-2.25
1004.268	1.75
1004.992	0.75
1005.716	2.75
1006.439	0.75
1007.163	1.75
1007.887	1.75
1008.611	1.75
1009.334	-0.25
1010.058	1.75
1010.781	-1.25
1011.504	-0.25
1012.228	0.75
1012.951	-1.25
1013.674	0.75
1014.397	-0.25
1015.12	0.75
