节点500_285_QEPB04081__405__15-02-17-630.txt的数据

Date: Wed Nov 12 15:02:17 CST 2025
User: PC
Spectrometer: QEPB0408
触发模式: 0
积分时间 (秒): 1.000000E-2
Scans to average: 1
启用暗噪声校正: true
启用非线性校正: false
滑动平均宽度: 0
X轴模式: Wavelengths
Number of Pixels in Spectrum: 1044
>>>>>Begin Spectral Data<<<<<
220.843	2.62
221.644	-1.38
222.444	1.62
223.244	1.62
224.045	2.62
224.845	3.62
225.645	1.62
226.445	1.62
227.245	0.62
228.045	0.62
228.845	1.62
229.645	-0.38
230.444	0.62
231.244	4.62
232.043	3.62
232.843	3.62
233.642	3.62
234.442	4.62
235.241	0.62
236.04	3.62
236.839	2.62
237.638	4.62
238.437	1.62
239.236	3.62
240.035	3.62
240.833	2.62
241.632	2.62
242.43	4.62
243.229	5.62
244.027	4.62
244.826	4.62
245.624	6.62
246.422	6.62
247.22	4.62
248.018	4.62
248.816	7.62
249.614	6.62
250.412	7.62
251.21	6.62
252.007	4.62
252.805	7.62
253.602	7.62
254.4	7.62
255.197	6.62
255.994	6.62
256.791	7.62
257.589	9.62
258.386	8.62
259.183	7.62
259.979	10.62
260.776	9.62
261.573	8.62
262.37	9.62
263.166	11.62
263.963	12.62
264.759	12.62
265.556	9.62
266.352	11.62
267.148	12.62
267.944	13.62
268.74	12.62
269.536	11.62
270.332	15.62
271.128	13.62
271.924	16.62
272.719	16.62
273.515	14.62
274.311	17.62
275.106	13.62
275.901	16.62
276.697	17.62
277.492	17.62
278.287	18.62
279.082	17.62
279.877	16.62
280.672	16.62
281.467	16.62
282.262	19.62
283.056	18.62
283.851	18.62
284.646	17.62
285.44	18.62
286.234	19.62
287.029	17.62
287.823	18.62
288.617	18.62
289.411	16.62
290.205	20.62
290.999	18.62
291.793	16.62
292.587	17.62
293.381	18.62
294.174	15.62
294.968	16.62
295.761	15.62
296.555	14.62
297.348	14.62
298.141	16.62
298.935	14.62
299.728	15.62
300.521	14.62
301.314	13.62
302.107	12.62
302.899	13.62
303.692	13.62
304.485	12.62
305.277	12.62
306.07	11.62
306.862	15.62
307.655	15.62
308.447	11.62
309.239	11.62
310.031	12.62
310.823	9.62
311.615	12.62
312.407	9.62
313.199	9.62
313.991	8.62
314.783	8.62
315.574	8.62
316.366	8.62
317.157	10.62
317.949	9.62
318.74	7.62
319.531	8.62
320.322	6.62
321.113	8.62
321.904	8.62
322.695	6.62
323.486	8.62
324.277	3.62
325.068	8.62
325.858	8.62
326.649	6.62
327.439	8.62
328.23	8.62
329.02	6.62
329.81	5.62
330.6	5.62
331.391	6.62
332.181	7.62
332.971	7.62
333.76	5.62
334.55	6.62
335.34	4.62
336.13	7.62
336.919	7.62
337.709	6.62
338.498	5.62
339.287	5.62
340.077	2.62
340.866	6.62
341.655	5.62
342.444	3.62
343.233	6.62
344.022	6.62
344.811	6.62
345.6	8.62
346.388	6.62
347.177	4.62
347.965	5.62
348.754	5.62
349.542	4.62
350.33	5.62
351.119	6.62
351.907	7.62
352.695	5.62
353.483	3.62
354.271	5.62
355.059	3.62
355.846	4.62
356.634	5.62
357.422	5.62
358.209	3.62
358.997	4.62
359.784	3.62
360.571	5.62
361.359	5.62
362.146	6.62
362.933	6.62
363.72	4.62
364.507	6.62
365.294	5.62
366.081	6.62
366.867	6.62
367.654	5.62
368.44	4.62
369.227	3.62
370.013	8.62
370.8	3.62
371.586	4.62
372.372	4.62
373.158	3.62
373.944	2.62
374.73	4.62
375.516	3.62
376.302	7.62
377.088	3.62
377.873	5.62
378.659	2.62
379.445	3.62
380.23	3.62
381.015	4.62
381.801	2.62
382.586	5.62
383.371	7.62
384.156	5.62
384.941	4.62
385.726	5.62
386.511	2.62
387.296	3.62
388.08	6.62
388.865	6.62
389.649	6.62
390.434	6.62
391.218	2.62
392.003	5.62
392.787	6.62
393.571	4.62
394.355	5.62
395.139	6.62
395.923	6.62
396.707	5.62
397.491	7.62
398.274	7.62
399.058	5.62
399.842	7.62
400.625	6.62
401.408	5.62
402.192	6.62
402.975	6.62
403.758	5.62
404.541	4.62
405.324	8.62
406.107	6.62
406.89	7.62
407.673	6.62
408.456	8.62
409.238	7.62
410.021	6.62
410.803	6.62
411.586	7.62
412.368	9.62
413.151	7.62
413.933	8.62
414.715	7.62
415.497	10.62
416.279	8.62
417.061	9.62
417.843	8.62
418.624	13.62
419.406	9.62
420.188	9.62
420.969	11.62
421.751	9.62
422.532	10.62
423.313	9.62
424.095	9.62
424.876	9.62
425.657	11.62
426.438	11.62
427.219	13.62
428	13.62
428.78	12.62
429.561	13.62
430.342	11.62
431.122	11.62
431.903	14.62
432.683	18.62
433.464	17.62
434.244	15.62
435.024	15.62
435.804	17.62
436.584	18.62
437.364	21.62
438.144	18.62
438.924	21.62
439.704	21.62
440.483	23.62
441.263	21.62
442.042	25.62
442.822	27.62
443.601	26.62
444.38	30.62
445.16	30.62
445.939	35.62
446.718	38.62
447.497	39.62
448.276	41.62
449.054	47.62
449.833	50.62
450.612	52.62
451.391	56.62
452.169	60.62
452.948	68.62
453.726	72.62
454.504	81.62
455.282	95.62
456.061	98.62
456.839	108.62
457.617	123.62
458.395	140.62
459.172	158.62
459.95	167.62
460.728	188.62
461.506	205.62
462.283	232.62
463.061	259.62
463.838	295.62
464.615	328.62
465.393	361.62
466.17	404.62
466.947	456.62
467.724	510.62
468.501	564.62
469.278	621.62
470.055	700.62
470.831	777.62
471.608	875.62
472.385	960.62
473.161	1070.62
473.938	1177.62
474.714	1293.62
475.49	1441.62
476.266	1584.62
477.043	1757.62
477.819	1918.62
478.595	2121.62
479.371	2346.62
480.146	2593.62
480.922	2842.62
481.698	3136.62
482.473	3466.62
483.249	3771.62
484.024	4162.62
484.8	4583.62
485.575	4985.62
486.35	5489.62
487.126	6044.62
487.901	6637.62
488.676	7211.62
489.451	7934.62
490.225	8674.62
491	9451.62
491.775	10313.62
492.55	11233.62
493.324	12177.62
494.099	13063.62
494.873	14140.62
495.647	15253.62
496.422	16304.62
497.196	17542.62
497.97	18642.62
498.744	19877.62
499.518	20958.62
500.292	22094.62
501.066	23153.62
501.839	24137.62
502.613	25072.62
503.387	25809.62
504.16	26546.62
504.934	26827.62
505.707	27014.62
506.48	27151.62
507.253	27123.62
508.027	26847.62
508.8	26645.62
509.573	26167.62
510.346	25664.62
511.118	24971.62
511.891	24211.62
512.664	23378.62
513.437	22540.62
514.209	21542.62
514.982	20736.62
515.754	19754.62
516.526	18913.62
517.298	18107.62
518.071	17308.62
518.843	16695.62
519.615	16044.62
520.387	15406.62
521.159	14742.62
521.93	14181.62
522.702	13604.62
523.474	13098.62
524.245	12504.62
525.017	11991.62
525.788	11534.62
526.56	11022.62
527.331	10482.62
528.102	10053.62
528.873	9542.62
529.644	9101.62
530.415	8630.62
531.186	8190.62
531.957	7778.62
532.728	7424.62
533.498	7036.62
534.269	6607.62
535.039	6244.62
535.81	5908.62
536.58	5596.62
537.351	5260.62
538.121	4987.62
538.891	4718.62
539.661	4490.62
540.431	4204.62
541.201	3973.62
541.971	3769.62
542.741	3566.62
543.51	3390.62
544.28	3226.62
545.05	3076.62
545.819	2920.62
546.588	2788.62
547.358	2636.62
548.127	2508.62
548.896	2376.62
549.665	2260.62
550.434	2138.62
551.203	2020.62
551.972	1916.62
552.741	1825.62
553.51	1719.62
554.278	1619.62
555.047	1537.62
555.815	1443.62
556.584	1360.62
557.352	1280.62
558.121	1213.62
558.889	1148.62
559.657	1086.62
560.425	1029.62
561.193	955.62
561.961	913.62
562.729	859.62
563.496	807.62
564.264	762.62
565.032	717.62
565.799	691.62
566.567	657.62
567.334	610.62
568.101	582.62
568.869	548.62
569.636	518.62
570.403	491.62
571.17	454.62
571.937	433.62
572.704	415.62
573.471	384.62
574.237	361.62
575.004	344.62
575.771	327.62
576.537	307.62
577.303	283.62
578.07	261.62
578.836	255.62
579.602	239.62
580.368	226.62
581.134	211.62
581.9	204.62
582.666	192.62
583.432	186.62
584.198	172.62
584.964	165.62
585.729	152.62
586.495	151.62
587.26	137.62
588.025	124.62
588.791	125.62
589.556	119.62
590.321	110.62
591.086	108.62
591.851	105.62
592.616	95.62
593.381	92.62
594.146	85.62
594.911	82.62
595.675	75.62
596.44	74.62
597.204	71.62
597.969	70.62
598.733	66.62
599.497	63.62
600.261	60.62
601.025	55.62
601.79	51.62
602.553	53.62
603.317	49.62
604.081	47.62
604.845	45.62
605.609	42.62
606.372	42.62
607.136	41.62
607.899	40.62
608.662	36.62
609.426	33.62
610.189	34.62
610.952	34.62
611.715	33.62
612.478	30.62
613.241	30.62
614.004	30.62
614.767	26.62
615.529	24.62
616.292	27.62
617.055	25.62
617.817	19.62
618.579	22.62
619.342	22.62
620.104	19.62
620.866	18.62
621.628	18.62
622.39	20.62
623.152	17.62
623.914	17.62
624.676	17.62
625.438	14.62
626.199	16.62
626.961	15.62
627.722	17.62
628.484	16.62
629.245	17.62
630.006	11.62
630.768	14.62
631.529	13.62
632.29	13.62
633.051	11.62
633.812	9.62
634.573	10.62
635.333	12.62
636.094	10.62
636.855	12.62
637.615	9.62
638.376	10.62
639.136	9.62
639.896	9.62
640.657	11.62
641.417	10.62
642.177	9.62
642.937	7.62
643.697	6.62
644.457	7.62
645.216	5.62
645.976	8.62
646.736	5.62
647.495	5.62
648.255	8.62
649.014	7.62
649.774	8.62
650.533	7.62
651.292	6.62
652.051	7.62
652.81	6.62
653.569	7.62
654.328	8.62
655.087	6.62
655.846	5.62
656.604	4.62
657.363	7.62
658.121	4.62
658.88	7.62
659.638	3.62
660.397	6.62
661.155	5.62
661.913	2.62
662.671	4.62
663.429	5.62
664.187	4.62
664.945	4.62
665.703	6.62
666.46	4.62
667.218	3.62
667.976	5.62
668.733	4.62
669.49	3.62
670.248	3.62
671.005	2.62
671.762	3.62
672.519	5.62
673.276	4.62
674.033	2.62
674.79	5.62
675.547	1.62
676.304	5.62
677.06	2.62
677.817	4.62
678.574	3.62
679.33	1.62
680.086	5.62
680.843	3.62
681.599	4.62
682.355	3.62
683.111	4.62
683.867	4.62
684.623	6.62
685.379	5.62
686.135	4.62
686.89	3.62
687.646	4.62
688.402	3.62
689.157	3.62
689.912	4.62
690.668	5.62
691.423	3.62
692.178	3.62
692.933	3.62
693.688	3.62
694.443	3.62
695.198	4.62
695.953	2.62
696.708	3.62
697.462	2.62
698.217	5.62
698.972	0.62
699.726	3.62
700.48	4.62
701.235	2.62
701.989	1.62
702.743	1.62
703.497	3.62
704.251	4.62
705.005	1.62
705.759	5.62
706.513	3.62
707.266	5.62
708.02	3.62
708.774	3.62
709.527	4.62
710.28	2.62
711.034	4.62
711.787	4.62
712.54	3.62
713.293	2.62
714.046	1.62
714.799	3.62
715.552	2.62
716.305	3.62
717.058	3.62
717.81	3.62
718.563	3.62
719.315	2.62
720.068	2.62
720.82	1.62
721.573	1.62
722.325	1.62
723.077	5.62
723.829	4.62
724.581	4.62
725.333	5.62
726.085	4.62
726.836	4.62
727.588	3.62
728.34	4.62
729.091	6.62
729.843	2.62
730.594	1.62
731.346	2.62
732.097	5.62
732.848	2.62
733.599	3.62
734.35	3.62
735.101	2.62
735.852	6.62
736.603	4.62
737.354	3.62
738.104	3.62
738.855	2.62
739.605	3.62
740.356	4.62
741.106	4.62
741.856	3.62
742.607	5.62
743.357	4.62
744.107	5.62
744.857	5.62
745.607	4.62
746.357	6.62
747.106	3.62
747.856	3.62
748.606	2.62
749.355	5.62
750.105	4.62
750.854	3.62
751.603	5.62
752.353	3.62
753.102	5.62
753.851	4.62
754.6	6.62
755.349	5.62
756.098	3.62
756.847	7.62
757.595	5.62
758.344	6.62
759.093	3.62
759.841	5.62
760.589	6.62
761.338	2.62
762.086	6.62
762.834	4.62
763.582	4.62
764.331	5.62
765.079	7.62
765.826	6.62
766.574	4.62
767.322	8.62
768.07	5.62
768.817	6.62
769.565	5.62
770.312	3.62
771.06	6.62
771.807	8.62
772.554	7.62
773.302	7.62
774.049	6.62
774.796	6.62
775.543	8.62
776.29	10.62
777.036	9.62
777.783	8.62
778.53	9.62
779.276	8.62
780.023	8.62
780.769	6.62
781.516	8.62
782.262	6.62
783.008	7.62
783.754	9.62
784.5	10.62
785.246	10.62
785.992	7.62
786.738	10.62
787.484	7.62
788.23	7.62
788.975	8.62
789.721	10.62
790.466	8.62
791.212	8.62
791.957	4.62
792.702	9.62
793.447	9.62
794.193	5.62
794.938	6.62
795.683	5.62
796.427	7.62
797.172	8.62
797.917	7.62
798.662	8.62
799.406	8.62
800.151	7.62
800.895	6.62
801.64	6.62
802.384	7.62
803.128	6.62
803.872	4.62
804.616	6.62
805.36	6.62
806.104	6.62
806.848	7.62
807.592	4.62
808.336	5.62
809.079	6.62
809.823	6.62
810.566	4.62
811.31	4.62
812.053	6.62
812.796	1.62
813.539	5.62
814.283	3.62
815.026	6.62
815.769	5.62
816.511	3.62
817.254	6.62
817.997	3.62
818.74	5.62
819.482	3.62
820.225	5.62
820.967	4.62
821.71	4.62
822.452	3.62
823.194	3.62
823.936	4.62
824.678	2.62
825.42	0.62
826.162	4.62
826.904	3.62
827.646	4.62
828.388	2.62
829.129	3.62
829.871	5.62
830.612	1.62
831.354	4.62
832.095	3.62
832.836	3.62
833.577	3.62
834.319	3.62
835.06	2.62
835.801	3.62
836.542	5.62
837.282	2.62
838.023	0.62
838.764	3.62
839.504	2.62
840.245	2.62
840.985	2.62
841.726	4.62
842.466	5.62
843.206	2.62
843.946	3.62
844.687	2.62
845.427	3.62
846.166	3.62
846.906	3.62
847.646	1.62
848.386	0.62
849.125	3.62
849.865	1.62
850.605	3.62
851.344	4.62
852.083	1.62
852.823	1.62
853.562	2.62
854.301	3.62
855.04	2.62
855.779	3.62
856.518	2.62
857.257	0.62
857.995	2.62
858.734	1.62
859.473	4.62
860.211	1.62
860.95	1.62
861.688	3.62
862.426	2.62
863.165	2.62
863.903	2.62
864.641	1.62
865.379	3.62
866.117	2.62
866.855	-0.38
867.593	0.62
868.33	4.62
869.068	-0.38
869.806	3.62
870.543	1.62
871.28	-0.38
872.018	0.62
872.755	0.62
873.492	1.62
874.229	1.62
874.967	1.62
875.703	0.62
876.44	0.62
877.177	0.62
877.914	-0.38
878.651	-0.38
879.387	2.62
880.124	0.62
880.86	1.62
881.597	1.62
882.333	0.62
883.069	0.62
883.806	2.62
884.542	0.62
885.278	2.62
886.014	1.62
886.749	0.62
887.485	1.62
888.221	-0.38
888.957	1.62
889.692	-1.38
890.428	-0.38
891.163	2.62
891.899	2.62
892.634	0.62
893.369	1.62
894.104	1.62
894.839	1.62
895.574	-0.38
896.309	1.62
897.044	0.62
897.779	0.62
898.514	1.62
899.248	-0.38
899.983	0.62
900.717	-0.38
901.452	1.62
902.186	-1.38
902.92	-0.38
903.654	1.62
904.389	-0.38
905.123	0.62
905.857	0.62
906.59	2.62
907.324	1.62
908.058	1.62
908.792	2.62
909.525	0.62
910.259	0.62
910.992	-0.38
911.726	1.62
912.459	-0.38
913.192	0.62
913.925	1.62
914.658	-1.38
915.391	1.62
916.124	0.62
916.857	-1.38
917.59	-0.38
918.323	-2.38
919.055	3.62
919.788	0.62
920.521	-2.38
921.253	0.62
921.985	-0.38
922.718	0.62
923.45	0.62
924.182	0.62
924.914	-0.38
925.646	-0.38
926.378	-0.38
927.11	-0.38
927.841	-0.38
928.573	-2.38
929.305	-0.38
930.036	0.62
930.768	-0.38
931.499	-0.38
932.23	-0.38
932.962	-0.38
933.693	1.62
934.424	-0.38
935.155	-1.38
935.886	0.62
936.617	0.62
937.348	2.62
938.078	-1.38
938.809	-0.38
939.54	-0.38
940.27	-0.38
941.001	0.62
941.731	1.62
942.461	0.62
943.191	-2.38
943.922	1.62
944.652	0.62
945.382	0.62
946.112	-2.38
946.841	1.62
947.571	-1.38
948.301	3.62
949.031	-3.38
949.76	-1.38
950.49	0.62
951.219	-0.38
951.948	0.62
952.678	-0.38
953.407	-1.38
954.136	1.62
954.865	0.62
955.594	0.62
956.323	-1.38
957.052	1.62
957.78	-0.38
958.509	0.62
959.238	-1.38
959.966	-0.38
960.695	0.62
961.423	0.62
962.151	-0.38
962.88	3.62
963.608	-1.38
964.336	-0.38
965.064	-1.38
965.792	-0.38
966.52	2.62
967.247	-0.38
967.975	-0.38
968.703	1.62
969.43	-1.38
970.158	-1.38
970.885	0.62
971.613	0.62
972.34	1.62
973.067	-0.38
973.794	1.62
974.521	-0.38
975.248	-1.38
975.975	-0.38
976.702	-0.38
977.429	0.62
978.156	2.62
978.882	1.62
979.609	1.62
980.335	0.62
981.062	-1.38
981.788	-0.38
982.514	-1.38
983.24	-1.38
983.967	-1.38
984.693	1.62
985.419	-2.38
986.144	1.62
986.87	-1.38
987.596	-1.38
988.322	0.62
989.047	-0.38
989.773	-1.38
990.498	-0.38
991.224	-0.38
991.949	0.62
992.674	-0.38
993.399	0.62
994.124	0.62
994.849	3.62
995.574	0.62
996.299	-2.38
997.024	1.62
997.749	-0.38
998.473	0.62
999.198	-0.38
999.922	-2.38
1000.647	-0.38
1001.371	4.62
1002.095	-2.38
1002.82	-0.38
1003.544	-0.38
1004.268	1.62
1004.992	1.62
1005.716	2.62
1006.439	-0.38
1007.163	0.62
1007.887	1.62
1008.611	0.62
1009.334	0.62
1010.058	0.62
1010.781	1.62
1011.504	-0.38
1012.228	0.62
1012.951	-1.38
1013.674	-0.38
1014.397	-0.38
1015.12	0.62
