节点500_285_QEPB04081__177__14-58-30-131.txt的数据

Date: Wed Nov 12 14:58:30 CST 2025
User: PC
Spectrometer: QEPB0408
触发模式: 0
积分时间 (秒): 1.000000E-2
Scans to average: 1
启用暗噪声校正: true
启用非线性校正: false
滑动平均宽度: 0
X轴模式: Wavelengths
Number of Pixels in Spectrum: 1044
>>>>>Begin Spectral Data<<<<<
220.843	0.25
221.644	1.25
222.444	0.25
223.244	0.25
224.045	1.25
224.845	2.25
225.645	1.25
226.445	3.25
227.245	2.25
228.045	1.25
228.845	1.25
229.645	4.25
230.444	1.25
231.244	1.25
232.043	3.25
232.843	2.25
233.642	3.25
234.442	1.25
235.241	4.25
236.04	1.25
236.839	4.25
237.638	3.25
238.437	2.25
239.236	5.25
240.035	5.25
240.833	4.25
241.632	6.25
242.43	4.25
243.229	6.25
244.027	3.25
244.826	7.25
245.624	4.25
246.422	6.25
247.22	4.25
248.018	5.25
248.816	8.25
249.614	6.25
250.412	6.25
251.21	5.25
252.007	6.25
252.805	6.25
253.602	5.25
254.4	7.25
255.197	4.25
255.994	7.25
256.791	8.25
257.589	9.25
258.386	11.25
259.183	9.25
259.979	9.25
260.776	9.25
261.573	9.25
262.37	9.25
263.166	10.25
263.963	12.25
264.759	13.25
265.556	12.25
266.352	12.25
267.148	12.25
267.944	15.25
268.74	13.25
269.536	12.25
270.332	16.25
271.128	13.25
271.924	15.25
272.719	16.25
273.515	15.25
274.311	15.25
275.106	18.25
275.901	18.25
276.697	17.25
277.492	17.25
278.287	21.25
279.082	19.25
279.877	17.25
280.672	19.25
281.467	19.25
282.262	20.25
283.056	19.25
283.851	19.25
284.646	21.25
285.44	21.25
286.234	17.25
287.029	20.25
287.823	19.25
288.617	21.25
289.411	19.25
290.205	18.25
290.999	20.25
291.793	17.25
292.587	18.25
293.381	17.25
294.174	16.25
294.968	16.25
295.761	13.25
296.555	14.25
297.348	12.25
298.141	16.25
298.935	15.25
299.728	13.25
300.521	14.25
301.314	13.25
302.107	15.25
302.899	11.25
303.692	12.25
304.485	12.25
305.277	11.25
306.07	13.25
306.862	13.25
307.655	11.25
308.447	12.25
309.239	13.25
310.031	13.25
310.823	10.25
311.615	10.25
312.407	9.25
313.199	9.25
313.991	11.25
314.783	9.25
315.574	8.25
316.366	10.25
317.157	8.25
317.949	9.25
318.74	7.25
319.531	7.25
320.322	8.25
321.113	5.25
321.904	8.25
322.695	5.25
323.486	6.25
324.277	7.25
325.068	9.25
325.858	3.25
326.649	7.25
327.439	7.25
328.23	7.25
329.02	7.25
329.81	5.25
330.6	7.25
331.391	7.25
332.181	6.25
332.971	5.25
333.76	5.25
334.55	8.25
335.34	5.25
336.13	8.25
336.919	6.25
337.709	7.25
338.498	6.25
339.287	6.25
340.077	7.25
340.866	6.25
341.655	6.25
342.444	5.25
343.233	4.25
344.022	6.25
344.811	7.25
345.6	7.25
346.388	6.25
347.177	7.25
347.965	8.25
348.754	8.25
349.542	5.25
350.33	5.25
351.119	8.25
351.907	7.25
352.695	3.25
353.483	6.25
354.271	4.25
355.059	5.25
355.846	7.25
356.634	7.25
357.422	4.25
358.209	6.25
358.997	5.25
359.784	3.25
360.571	5.25
361.359	5.25
362.146	6.25
362.933	8.25
363.72	2.25
364.507	5.25
365.294	6.25
366.081	7.25
366.867	5.25
367.654	5.25
368.44	6.25
369.227	3.25
370.013	7.25
370.8	4.25
371.586	4.25
372.372	6.25
373.158	5.25
373.944	4.25
374.73	3.25
375.516	4.25
376.302	4.25
377.088	2.25
377.873	4.25
378.659	3.25
379.445	8.25
380.23	5.25
381.015	5.25
381.801	4.25
382.586	6.25
383.371	5.25
384.156	4.25
384.941	4.25
385.726	5.25
386.511	6.25
387.296	7.25
388.08	5.25
388.865	5.25
389.649	5.25
390.434	5.25
391.218	8.25
392.003	6.25
392.787	5.25
393.571	4.25
394.355	5.25
395.139	5.25
395.923	4.25
396.707	2.25
397.491	5.25
398.274	5.25
399.058	8.25
399.842	6.25
400.625	8.25
401.408	8.25
402.192	7.25
402.975	8.25
403.758	8.25
404.541	8.25
405.324	8.25
406.107	5.25
406.89	8.25
407.673	8.25
408.456	8.25
409.238	6.25
410.021	8.25
410.803	9.25
411.586	10.25
412.368	7.25
413.151	8.25
413.933	8.25
414.715	9.25
415.497	10.25
416.279	9.25
417.061	9.25
417.843	11.25
418.624	7.25
419.406	10.25
420.188	10.25
420.969	11.25
421.751	11.25
422.532	9.25
423.313	11.25
424.095	13.25
424.876	13.25
425.657	8.25
426.438	11.25
427.219	10.25
428	11.25
428.78	15.25
429.561	13.25
430.342	13.25
431.122	14.25
431.903	13.25
432.683	14.25
433.464	15.25
434.244	15.25
435.024	15.25
435.804	19.25
436.584	17.25
437.364	19.25
438.144	19.25
438.924	22.25
439.704	21.25
440.483	20.25
441.263	22.25
442.042	25.25
442.822	26.25
443.601	27.25
444.38	28.25
445.16	32.25
445.939	34.25
446.718	36.25
447.497	41.25
448.276	39.25
449.054	43.25
449.833	45.25
450.612	52.25
451.391	56.25
452.169	58.25
452.948	61.25
453.726	73.25
454.504	81.25
455.282	88.25
456.061	95.25
456.839	110.25
457.617	118.25
458.395	130.25
459.172	143.25
459.95	159.25
460.728	171.25
461.506	195.25
462.283	218.25
463.061	244.25
463.838	279.25
464.615	315.25
465.393	347.25
466.17	385.25
466.947	427.25
467.724	483.25
468.501	539.25
469.278	603.25
470.055	666.25
470.831	748.25
471.608	829.25
472.385	927.25
473.161	1022.25
473.938	1146.25
474.714	1264.25
475.49	1410.25
476.266	1565.25
477.043	1724.25
477.819	1908.25
478.595	2120.25
479.371	2342.25
480.146	2594.25
480.922	2848.25
481.698	3177.25
482.473	3501.25
483.249	3866.25
484.024	4272.25
484.8	4681.25
485.575	5186.25
486.35	5685.25
487.126	6278.25
487.901	6907.25
488.676	7567.25
489.451	8339.25
490.225	9126.25
491	10001.25
491.775	10906.25
492.55	11930.25
493.324	12979.25
494.099	13933.25
494.873	15068.25
495.647	16317.25
496.422	17457.25
497.196	18738.25
497.97	19985.25
498.744	21237.25
499.518	22399.25
500.292	23554.25
501.066	24711.25
501.839	25594.25
502.613	26460.25
503.387	27254.25
504.16	27809.25
504.934	28090.25
505.707	28169.25
506.48	28170.25
507.253	27974.25
508.027	27684.25
508.8	27251.25
509.573	26739.25
510.346	25979.25
511.118	25169.25
511.891	24324.25
512.664	23360.25
513.437	22399.25
514.209	21508.25
514.982	20552.25
515.754	19628.25
516.526	18753.25
517.298	17890.25
518.071	17105.25
518.843	16488.25
519.615	15831.25
520.387	15181.25
521.159	14573.25
521.93	13993.25
522.702	13496.25
523.474	12902.25
524.245	12316.25
525.017	11815.25
525.788	11370.25
526.56	10795.25
527.331	10334.25
528.102	9831.25
528.873	9379.25
529.644	8866.25
530.415	8433.25
531.186	8004.25
531.957	7597.25
532.728	7209.25
533.498	6798.25
534.269	6436.25
535.039	6073.25
535.81	5730.25
536.58	5429.25
537.351	5070.25
538.121	4807.25
538.891	4537.25
539.661	4295.25
540.431	4040.25
541.201	3849.25
541.971	3630.25
542.741	3463.25
543.51	3277.25
544.28	3131.25
545.05	2979.25
545.819	2817.25
546.588	2697.25
547.358	2543.25
548.127	2412.25
548.896	2290.25
549.665	2189.25
550.434	2079.25
551.203	1939.25
551.972	1847.25
552.741	1718.25
553.51	1639.25
554.278	1558.25
555.047	1463.25
555.815	1394.25
556.584	1314.25
557.352	1228.25
558.121	1161.25
558.889	1087.25
559.657	1049.25
560.425	975.25
561.193	918.25
561.961	870.25
562.729	832.25
563.496	776.25
564.264	732.25
565.032	691.25
565.799	656.25
566.567	624.25
567.334	587.25
568.101	566.25
568.869	535.25
569.636	494.25
570.403	465.25
571.17	437.25
571.937	411.25
572.704	393.25
573.471	370.25
574.237	346.25
575.004	329.25
575.771	303.25
576.537	294.25
577.303	269.25
578.07	258.25
578.836	241.25
579.602	224.25
580.368	218.25
581.134	201.25
581.9	198.25
582.666	178.25
583.432	175.25
584.198	165.25
584.964	154.25
585.729	148.25
586.495	143.25
587.26	134.25
588.025	126.25
588.791	125.25
589.556	118.25
590.321	106.25
591.086	101.25
591.851	98.25
592.616	93.25
593.381	88.25
594.146	86.25
594.911	83.25
595.675	79.25
596.44	75.25
597.204	67.25
597.969	69.25
598.733	63.25
599.497	60.25
600.261	55.25
601.025	55.25
601.79	53.25
602.553	50.25
603.317	48.25
604.081	46.25
604.845	42.25
605.609	42.25
606.372	40.25
607.136	41.25
607.899	37.25
608.662	35.25
609.426	37.25
610.189	35.25
610.952	31.25
611.715	29.25
612.478	27.25
613.241	30.25
614.004	27.25
614.767	27.25
615.529	24.25
616.292	21.25
617.055	25.25
617.817	21.25
618.579	24.25
619.342	20.25
620.104	18.25
620.866	20.25
621.628	21.25
622.39	18.25
623.152	18.25
623.914	17.25
624.676	16.25
625.438	17.25
626.199	17.25
626.961	13.25
627.722	17.25
628.484	13.25
629.245	13.25
630.006	15.25
630.768	12.25
631.529	12.25
632.29	13.25
633.051	10.25
633.812	13.25
634.573	9.25
635.333	11.25
636.094	9.25
636.855	11.25
637.615	11.25
638.376	12.25
639.136	9.25
639.896	9.25
640.657	10.25
641.417	9.25
642.177	11.25
642.937	7.25
643.697	7.25
644.457	7.25
645.216	7.25
645.976	9.25
646.736	8.25
647.495	6.25
648.255	5.25
649.014	8.25
649.774	8.25
650.533	7.25
651.292	10.25
652.051	6.25
652.81	5.25
653.569	6.25
654.328	5.25
655.087	7.25
655.846	6.25
656.604	4.25
657.363	7.25
658.121	4.25
658.88	4.25
659.638	4.25
660.397	5.25
661.155	8.25
661.913	4.25
662.671	6.25
663.429	6.25
664.187	6.25
664.945	5.25
665.703	6.25
666.46	4.25
667.218	4.25
667.976	5.25
668.733	4.25
669.49	7.25
670.248	3.25
671.005	5.25
671.762	6.25
672.519	5.25
673.276	2.25
674.033	4.25
674.79	5.25
675.547	6.25
676.304	1.25
677.06	4.25
677.817	6.25
678.574	4.25
679.33	3.25
680.086	3.25
680.843	3.25
681.599	5.25
682.355	5.25
683.111	2.25
683.867	4.25
684.623	4.25
685.379	5.25
686.135	3.25
686.89	4.25
687.646	3.25
688.402	1.25
689.157	3.25
689.912	3.25
690.668	4.25
691.423	4.25
692.178	3.25
692.933	4.25
693.688	5.25
694.443	3.25
695.198	5.25
695.953	5.25
696.708	4.25
697.462	2.25
698.217	4.25
698.972	3.25
699.726	5.25
700.48	4.25
701.235	5.25
701.989	4.25
702.743	3.25
703.497	3.25
704.251	5.25
705.005	1.25
705.759	4.25
706.513	4.25
707.266	4.25
708.02	1.25
708.774	3.25
709.527	3.25
710.28	3.25
711.034	3.25
711.787	5.25
712.54	2.25
713.293	2.25
714.046	3.25
714.799	2.25
715.552	3.25
716.305	3.25
717.058	5.25
717.81	4.25
718.563	4.25
719.315	1.25
720.068	4.25
720.82	3.25
721.573	3.25
722.325	4.25
723.077	2.25
723.829	3.25
724.581	2.25
725.333	4.25
726.085	3.25
726.836	4.25
727.588	1.25
728.34	3.25
729.091	1.25
729.843	4.25
730.594	5.25
731.346	4.25
732.097	3.25
732.848	1.25
733.599	5.25
734.35	5.25
735.101	6.25
735.852	3.25
736.603	4.25
737.354	3.25
738.104	3.25
738.855	4.25
739.605	3.25
740.356	5.25
741.106	5.25
741.856	3.25
742.607	2.25
743.357	2.25
744.107	5.25
744.857	4.25
745.607	3.25
746.357	5.25
747.106	4.25
747.856	3.25
748.606	6.25
749.355	4.25
750.105	5.25
750.854	4.25
751.603	3.25
752.353	6.25
753.102	5.25
753.851	5.25
754.6	5.25
755.349	5.25
756.098	6.25
756.847	3.25
757.595	5.25
758.344	7.25
759.093	7.25
759.841	6.25
760.589	5.25
761.338	8.25
762.086	4.25
762.834	6.25
763.582	6.25
764.331	7.25
765.079	7.25
765.826	6.25
766.574	8.25
767.322	6.25
768.07	8.25
768.817	7.25
769.565	7.25
770.312	7.25
771.06	8.25
771.807	9.25
772.554	6.25
773.302	8.25
774.049	7.25
774.796	8.25
775.543	9.25
776.29	8.25
777.036	9.25
777.783	10.25
778.53	9.25
779.276	8.25
780.023	9.25
780.769	7.25
781.516	11.25
782.262	7.25
783.008	8.25
783.754	9.25
784.5	8.25
785.246	11.25
785.992	9.25
786.738	10.25
787.484	8.25
788.23	9.25
788.975	7.25
789.721	9.25
790.466	8.25
791.212	8.25
791.957	9.25
792.702	7.25
793.447	9.25
794.193	9.25
794.938	10.25
795.683	6.25
796.427	6.25
797.172	7.25
797.917	6.25
798.662	7.25
799.406	7.25
800.151	8.25
800.895	8.25
801.64	6.25
802.384	7.25
803.128	6.25
803.872	8.25
804.616	7.25
805.36	7.25
806.104	7.25
806.848	5.25
807.592	8.25
808.336	5.25
809.079	6.25
809.823	5.25
810.566	5.25
811.31	5.25
812.053	5.25
812.796	6.25
813.539	4.25
814.283	6.25
815.026	6.25
815.769	4.25
816.511	5.25
817.254	2.25
817.997	3.25
818.74	4.25
819.482	6.25
820.225	5.25
820.967	3.25
821.71	7.25
822.452	5.25
823.194	4.25
823.936	4.25
824.678	5.25
825.42	5.25
826.162	4.25
826.904	3.25
827.646	3.25
828.388	0.25
829.129	3.25
829.871	1.25
830.612	4.25
831.354	4.25
832.095	5.25
832.836	4.25
833.577	4.25
834.319	5.25
835.06	4.25
835.801	3.25
836.542	3.25
837.282	4.25
838.023	3.25
838.764	2.25
839.504	4.25
840.245	3.25
840.985	4.25
841.726	2.25
842.466	3.25
843.206	2.25
843.946	2.25
844.687	3.25
845.427	1.25
846.166	4.25
846.906	4.25
847.646	1.25
848.386	3.25
849.125	2.25
849.865	1.25
850.605	3.25
851.344	2.25
852.083	3.25
852.823	3.25
853.562	0.25
854.301	1.25
855.04	3.25
855.779	2.25
856.518	2.25
857.257	3.25
857.995	3.25
858.734	0.25
859.473	2.25
860.211	3.25
860.95	1.25
861.688	2.25
862.426	2.25
863.165	2.25
863.903	2.25
864.641	2.25
865.379	1.25
866.117	3.25
866.855	1.25
867.593	1.25
868.33	1.25
869.068	2.25
869.806	0.25
870.543	-0.75
871.28	4.25
872.018	1.25
872.755	2.25
873.492	1.25
874.229	0.25
874.967	2.25
875.703	0.25
876.44	2.25
877.177	1.25
877.914	-1.75
878.651	0.25
879.387	0.25
880.124	0.25
880.86	1.25
881.597	0.25
882.333	-0.75
883.069	-1.75
883.806	1.25
884.542	-0.75
885.278	2.25
886.014	2.25
886.749	1.25
887.485	1.25
888.221	1.25
888.957	1.25
889.692	0.25
890.428	1.25
891.163	1.25
891.899	-0.75
892.634	3.25
893.369	-0.75
894.104	0.25
894.839	1.25
895.574	0.25
896.309	-0.75
897.044	1.25
897.779	0.25
898.514	-0.75
899.248	2.25
899.983	2.25
900.717	-0.75
901.452	1.25
902.186	-0.75
902.92	1.25
903.654	0.25
904.389	-0.75
905.123	1.25
905.857	1.25
906.59	1.25
907.324	2.25
908.058	-0.75
908.792	0.25
909.525	1.25
910.259	2.25
910.992	-1.75
911.726	0.25
912.459	1.25
913.192	2.25
913.925	-1.75
914.658	1.25
915.391	0.25
916.124	2.25
916.857	1.25
917.59	0.25
918.323	-0.75
919.055	1.25
919.788	-1.75
920.521	1.25
921.253	-2.75
921.985	0.25
922.718	1.25
923.45	0.25
924.182	1.25
924.914	-2.75
925.646	0.25
926.378	-0.75
927.11	0.25
927.841	0.25
928.573	0.25
929.305	1.25
930.036	1.25
930.768	-0.75
931.499	1.25
932.23	0.25
932.962	1.25
933.693	-1.75
934.424	0.25
935.155	1.25
935.886	-2.75
936.617	-0.75
937.348	0.25
938.078	0.25
938.809	1.25
939.54	1.25
940.27	-0.75
941.001	-2.75
941.731	1.25
942.461	-0.75
943.191	0.25
943.922	0.25
944.652	1.25
945.382	1.25
946.112	0.25
946.841	1.25
947.571	1.25
948.301	-0.75
949.031	1.25
949.76	0.25
950.49	4.25
951.219	1.25
951.948	-0.75
952.678	-0.75
953.407	1.25
954.136	1.25
954.865	-1.75
955.594	-0.75
956.323	-1.75
957.052	-0.75
957.78	0.25
958.509	0.25
959.238	-0.75
959.966	-1.75
960.695	-1.75
961.423	-1.75
962.151	0.25
962.88	0.25
963.608	-0.75
964.336	-0.75
965.064	0.25
965.792	1.25
966.52	2.25
967.247	1.25
967.975	1.25
968.703	-0.75
969.43	1.25
970.158	-0.75
970.885	-0.75
971.613	-0.75
972.34	-1.75
973.067	0.25
973.794	0.25
974.521	1.25
975.248	1.25
975.975	-1.75
976.702	1.25
977.429	0.25
978.156	-0.75
978.882	-1.75
979.609	0.25
980.335	-0.75
981.062	0.25
981.788	-0.75
982.514	-1.75
983.24	-1.75
983.967	1.25
984.693	1.25
985.419	1.25
986.144	-0.75
986.87	0.25
987.596	2.25
988.322	-0.75
989.047	1.25
989.773	0.25
990.498	2.25
991.224	0.25
991.949	1.25
992.674	0.25
993.399	0.25
994.124	1.25
994.849	-1.75
995.574	0.25
996.299	-2.75
997.024	1.25
997.749	-2.75
998.473	-0.75
999.198	-1.75
999.922	0.25
1000.647	1.25
1001.371	4.25
1002.095	0.25
1002.82	0.25
1003.544	-3.75
1004.268	1.25
1004.992	2.25
1005.716	-1.75
1006.439	2.25
1007.163	1.25
1007.887	-1.75
1008.611	-0.75
1009.334	1.25
1010.058	0.25
1010.781	-0.75
1011.504	-1.75
1012.228	-0.75
1012.951	-0.75
1013.674	1.25
1014.397	-0.75
1015.12	-0.75
