节点500_285_QEPB04081__567__15-04-59-197.txt的数据

Date: Wed Nov 12 15:04:59 CST 2025
User: PC
Spectrometer: QEPB0408
触发模式: 0
积分时间 (秒): 1.000000E-2
Scans to average: 1
启用暗噪声校正: true
启用非线性校正: false
滑动平均宽度: 0
X轴模式: Wavelengths
Number of Pixels in Spectrum: 1044
>>>>>Begin Spectral Data<<<<<
220.843	1.62
221.644	4.62
222.444	4.62
223.244	2.62
224.045	2.62
224.845	4.62
225.645	0.62
226.445	1.62
227.245	3.62
228.045	2.62
228.845	3.62
229.645	2.62
230.444	1.62
231.244	3.62
232.043	3.62
232.843	4.62
233.642	4.62
234.442	3.62
235.241	3.62
236.04	2.62
236.839	5.62
237.638	3.62
238.437	4.62
239.236	4.62
240.035	4.62
240.833	5.62
241.632	6.62
242.43	6.62
243.229	8.62
244.027	4.62
244.826	7.62
245.624	7.62
246.422	6.62
247.22	6.62
248.018	7.62
248.816	8.62
249.614	6.62
250.412	4.62
251.21	6.62
252.007	7.62
252.805	4.62
253.602	8.62
254.4	7.62
255.197	8.62
255.994	6.62
256.791	6.62
257.589	10.62
258.386	7.62
259.183	9.62
259.979	9.62
260.776	9.62
261.573	10.62
262.37	11.62
263.166	10.62
263.963	10.62
264.759	11.62
265.556	13.62
266.352	9.62
267.148	12.62
267.944	12.62
268.74	12.62
269.536	12.62
270.332	14.62
271.128	16.62
271.924	12.62
272.719	15.62
273.515	14.62
274.311	14.62
275.106	16.62
275.901	17.62
276.697	17.62
277.492	15.62
278.287	17.62
279.082	16.62
279.877	17.62
280.672	20.62
281.467	16.62
282.262	18.62
283.056	17.62
283.851	19.62
284.646	18.62
285.44	18.62
286.234	19.62
287.029	19.62
287.823	19.62
288.617	16.62
289.411	17.62
290.205	17.62
290.999	18.62
291.793	18.62
292.587	19.62
293.381	16.62
294.174	20.62
294.968	15.62
295.761	18.62
296.555	14.62
297.348	13.62
298.141	12.62
298.935	16.62
299.728	16.62
300.521	14.62
301.314	13.62
302.107	14.62
302.899	11.62
303.692	12.62
304.485	10.62
305.277	15.62
306.07	14.62
306.862	14.62
307.655	11.62
308.447	13.62
309.239	10.62
310.031	13.62
310.823	12.62
311.615	10.62
312.407	10.62
313.199	7.62
313.991	9.62
314.783	9.62
315.574	9.62
316.366	12.62
317.157	9.62
317.949	8.62
318.74	9.62
319.531	7.62
320.322	8.62
321.113	7.62
321.904	9.62
322.695	5.62
323.486	6.62
324.277	6.62
325.068	7.62
325.858	8.62
326.649	9.62
327.439	8.62
328.23	5.62
329.02	7.62
329.81	8.62
330.6	9.62
331.391	7.62
332.181	7.62
332.971	7.62
333.76	6.62
334.55	7.62
335.34	6.62
336.13	7.62
336.919	7.62
337.709	5.62
338.498	9.62
339.287	6.62
340.077	7.62
340.866	6.62
341.655	7.62
342.444	5.62
343.233	5.62
344.022	8.62
344.811	5.62
345.6	5.62
346.388	7.62
347.177	6.62
347.965	7.62
348.754	7.62
349.542	5.62
350.33	5.62
351.119	8.62
351.907	5.62
352.695	5.62
353.483	5.62
354.271	7.62
355.059	6.62
355.846	5.62
356.634	4.62
357.422	6.62
358.209	4.62
358.997	6.62
359.784	5.62
360.571	2.62
361.359	8.62
362.146	4.62
362.933	7.62
363.72	8.62
364.507	7.62
365.294	6.62
366.081	3.62
366.867	4.62
367.654	6.62
368.44	6.62
369.227	4.62
370.013	4.62
370.8	5.62
371.586	4.62
372.372	4.62
373.158	4.62
373.944	4.62
374.73	4.62
375.516	4.62
376.302	7.62
377.088	2.62
377.873	4.62
378.659	4.62
379.445	5.62
380.23	4.62
381.015	3.62
381.801	5.62
382.586	4.62
383.371	5.62
384.156	5.62
384.941	7.62
385.726	6.62
386.511	5.62
387.296	6.62
388.08	5.62
388.865	6.62
389.649	8.62
390.434	8.62
391.218	4.62
392.003	5.62
392.787	5.62
393.571	5.62
394.355	7.62
395.139	7.62
395.923	5.62
396.707	6.62
397.491	6.62
398.274	8.62
399.058	6.62
399.842	7.62
400.625	8.62
401.408	10.62
402.192	8.62
402.975	7.62
403.758	9.62
404.541	7.62
405.324	8.62
406.107	10.62
406.89	7.62
407.673	7.62
408.456	8.62
409.238	7.62
410.021	8.62
410.803	11.62
411.586	9.62
412.368	7.62
413.151	11.62
413.933	11.62
414.715	8.62
415.497	8.62
416.279	8.62
417.061	12.62
417.843	8.62
418.624	9.62
419.406	11.62
420.188	8.62
420.969	10.62
421.751	8.62
422.532	12.62
423.313	13.62
424.095	10.62
424.876	13.62
425.657	13.62
426.438	13.62
427.219	10.62
428	11.62
428.78	12.62
429.561	11.62
430.342	12.62
431.122	14.62
431.903	14.62
432.683	16.62
433.464	15.62
434.244	15.62
435.024	19.62
435.804	17.62
436.584	17.62
437.364	17.62
438.144	19.62
438.924	20.62
439.704	23.62
440.483	20.62
441.263	23.62
442.042	25.62
442.822	27.62
443.601	31.62
444.38	30.62
445.16	33.62
445.939	34.62
446.718	35.62
447.497	38.62
448.276	43.62
449.054	47.62
449.833	51.62
450.612	55.62
451.391	59.62
452.169	64.62
452.948	71.62
453.726	79.62
454.504	86.62
455.282	94.62
456.061	109.62
456.839	115.62
457.617	133.62
458.395	147.62
459.172	158.62
459.95	181.62
460.728	199.62
461.506	220.62
462.283	239.62
463.061	273.62
463.838	304.62
464.615	344.62
465.393	379.62
466.17	421.62
466.947	473.62
467.724	519.62
468.501	586.62
469.278	641.62
470.055	723.62
470.831	791.62
471.608	884.62
472.385	983.62
473.161	1081.62
473.938	1203.62
474.714	1324.62
475.49	1452.62
476.266	1611.62
477.043	1784.62
477.819	1956.62
478.595	2138.62
479.371	2335.62
480.146	2592.62
480.922	2836.62
481.698	3122.62
482.473	3411.62
483.249	3731.62
484.024	4115.62
484.8	4502.62
485.575	4918.62
486.35	5376.62
487.126	5886.62
487.901	6428.62
488.676	7041.62
489.451	7673.62
490.225	8399.62
491	9136.62
491.775	9954.62
492.55	10813.62
493.324	11691.62
494.099	12579.62
494.873	13490.62
495.647	14572.62
496.422	15651.62
497.196	16745.62
497.97	17807.62
498.744	18896.62
499.518	20092.62
500.292	21187.62
501.066	22217.62
501.839	23148.62
502.613	24121.62
503.387	24817.62
504.16	25590.62
504.934	25909.62
505.707	26298.62
506.48	26444.62
507.253	26425.62
508.027	26286.62
508.8	26164.62
509.573	25814.62
510.346	25395.62
511.118	24763.62
511.891	24069.62
512.664	23297.62
513.437	22478.62
514.209	21609.62
514.982	20775.62
515.754	19922.62
516.526	19119.62
517.298	18278.62
518.071	17519.62
518.843	16818.62
519.615	16208.62
520.387	15599.62
521.159	14924.62
521.93	14350.62
522.702	13768.62
523.474	13266.62
524.245	12625.62
525.017	12121.62
525.788	11673.62
526.56	11112.62
527.331	10606.62
528.102	10167.62
528.873	9721.62
529.644	9250.62
530.415	8836.62
531.186	8381.62
531.957	7964.62
532.728	7548.62
533.498	7180.62
534.269	6783.62
535.039	6419.62
535.81	6072.62
536.58	5746.62
537.351	5412.62
538.121	5148.62
538.891	4847.62
539.661	4573.62
540.431	4344.62
541.201	4093.62
541.971	3892.62
542.741	3675.62
543.51	3491.62
544.28	3319.62
545.05	3159.62
545.819	3015.62
546.588	2869.62
547.358	2717.62
548.127	2573.62
548.896	2458.62
549.665	2318.62
550.434	2181.62
551.203	2077.62
551.972	1977.62
552.741	1865.62
553.51	1763.62
554.278	1663.62
555.047	1573.62
555.815	1485.62
556.584	1402.62
557.352	1335.62
558.121	1254.62
558.889	1193.62
559.657	1130.62
560.425	1056.62
561.193	991.62
561.961	943.62
562.729	895.62
563.496	849.62
564.264	809.62
565.032	748.62
565.799	708.62
566.567	662.62
567.334	640.62
568.101	595.62
568.869	564.62
569.636	535.62
570.403	507.62
571.17	476.62
571.937	449.62
572.704	424.62
573.471	401.62
574.237	375.62
575.004	357.62
575.771	338.62
576.537	314.62
577.303	297.62
578.07	281.62
578.836	262.62
579.602	250.62
580.368	231.62
581.134	230.62
581.9	209.62
582.666	205.62
583.432	186.62
584.198	180.62
584.964	171.62
585.729	160.62
586.495	150.62
587.26	144.62
588.025	141.62
588.791	128.62
589.556	122.62
590.321	113.62
591.086	108.62
591.851	109.62
592.616	91.62
593.381	93.62
594.146	96.62
594.911	84.62
595.675	80.62
596.44	80.62
597.204	73.62
597.969	68.62
598.733	71.62
599.497	64.62
600.261	62.62
601.025	62.62
601.79	57.62
602.553	54.62
603.317	53.62
604.081	50.62
604.845	47.62
605.609	45.62
606.372	42.62
607.136	39.62
607.899	41.62
608.662	38.62
609.426	35.62
610.189	36.62
610.952	35.62
611.715	37.62
612.478	28.62
613.241	28.62
614.004	30.62
614.767	29.62
615.529	26.62
616.292	26.62
617.055	26.62
617.817	26.62
618.579	24.62
619.342	22.62
620.104	23.62
620.866	20.62
621.628	20.62
622.39	18.62
623.152	20.62
623.914	19.62
624.676	20.62
625.438	19.62
626.199	17.62
626.961	12.62
627.722	12.62
628.484	15.62
629.245	13.62
630.006	13.62
630.768	14.62
631.529	16.62
632.29	13.62
633.051	12.62
633.812	14.62
634.573	14.62
635.333	12.62
636.094	9.62
636.855	12.62
637.615	12.62
638.376	14.62
639.136	11.62
639.896	10.62
640.657	10.62
641.417	9.62
642.177	9.62
642.937	10.62
643.697	10.62
644.457	10.62
645.216	11.62
645.976	9.62
646.736	6.62
647.495	10.62
648.255	6.62
649.014	9.62
649.774	8.62
650.533	6.62
651.292	6.62
652.051	8.62
652.81	8.62
653.569	8.62
654.328	6.62
655.087	8.62
655.846	6.62
656.604	8.62
657.363	8.62
658.121	5.62
658.88	7.62
659.638	6.62
660.397	5.62
661.155	8.62
661.913	6.62
662.671	6.62
663.429	4.62
664.187	6.62
664.945	7.62
665.703	5.62
666.46	6.62
667.218	6.62
667.976	5.62
668.733	5.62
669.49	7.62
670.248	4.62
671.005	6.62
671.762	4.62
672.519	5.62
673.276	4.62
674.033	4.62
674.79	4.62
675.547	4.62
676.304	5.62
677.06	5.62
677.817	5.62
678.574	5.62
679.33	5.62
680.086	5.62
680.843	5.62
681.599	2.62
682.355	4.62
683.111	4.62
683.867	5.62
684.623	4.62
685.379	4.62
686.135	6.62
686.89	5.62
687.646	5.62
688.402	4.62
689.157	5.62
689.912	5.62
690.668	6.62
691.423	2.62
692.178	3.62
692.933	4.62
693.688	2.62
694.443	3.62
695.198	3.62
695.953	3.62
696.708	3.62
697.462	0.62
698.217	4.62
698.972	4.62
699.726	3.62
700.48	3.62
701.235	4.62
701.989	3.62
702.743	1.62
703.497	6.62
704.251	2.62
705.005	5.62
705.759	3.62
706.513	4.62
707.266	4.62
708.02	5.62
708.774	3.62
709.527	3.62
710.28	2.62
711.034	3.62
711.787	2.62
712.54	4.62
713.293	3.62
714.046	5.62
714.799	3.62
715.552	2.62
716.305	1.62
717.058	5.62
717.81	3.62
718.563	4.62
719.315	4.62
720.068	3.62
720.82	4.62
721.573	4.62
722.325	2.62
723.077	4.62
723.829	4.62
724.581	2.62
725.333	5.62
726.085	2.62
726.836	2.62
727.588	1.62
728.34	5.62
729.091	3.62
729.843	4.62
730.594	5.62
731.346	2.62
732.097	5.62
732.848	3.62
733.599	2.62
734.35	5.62
735.101	3.62
735.852	5.62
736.603	4.62
737.354	5.62
738.104	4.62
738.855	4.62
739.605	6.62
740.356	3.62
741.106	5.62
741.856	5.62
742.607	3.62
743.357	2.62
744.107	5.62
744.857	8.62
745.607	5.62
746.357	5.62
747.106	5.62
747.856	6.62
748.606	3.62
749.355	6.62
750.105	5.62
750.854	4.62
751.603	6.62
752.353	4.62
753.102	4.62
753.851	5.62
754.6	4.62
755.349	4.62
756.098	8.62
756.847	7.62
757.595	4.62
758.344	6.62
759.093	5.62
759.841	5.62
760.589	7.62
761.338	5.62
762.086	5.62
762.834	5.62
763.582	7.62
764.331	6.62
765.079	3.62
765.826	6.62
766.574	5.62
767.322	8.62
768.07	4.62
768.817	6.62
769.565	8.62
770.312	4.62
771.06	8.62
771.807	7.62
772.554	7.62
773.302	9.62
774.049	6.62
774.796	8.62
775.543	7.62
776.29	7.62
777.036	7.62
777.783	10.62
778.53	9.62
779.276	7.62
780.023	8.62
780.769	9.62
781.516	8.62
782.262	9.62
783.008	8.62
783.754	9.62
784.5	8.62
785.246	7.62
785.992	7.62
786.738	9.62
787.484	10.62
788.23	11.62
788.975	9.62
789.721	7.62
790.466	9.62
791.212	7.62
791.957	8.62
792.702	9.62
793.447	5.62
794.193	7.62
794.938	7.62
795.683	9.62
796.427	8.62
797.172	6.62
797.917	6.62
798.662	8.62
799.406	7.62
800.151	8.62
800.895	7.62
801.64	7.62
802.384	6.62
803.128	9.62
803.872	7.62
804.616	9.62
805.36	6.62
806.104	5.62
806.848	7.62
807.592	6.62
808.336	6.62
809.079	6.62
809.823	6.62
810.566	8.62
811.31	4.62
812.053	5.62
812.796	6.62
813.539	7.62
814.283	5.62
815.026	5.62
815.769	6.62
816.511	4.62
817.254	3.62
817.997	4.62
818.74	2.62
819.482	6.62
820.225	5.62
820.967	6.62
821.71	2.62
822.452	5.62
823.194	2.62
823.936	4.62
824.678	4.62
825.42	3.62
826.162	4.62
826.904	2.62
827.646	3.62
828.388	3.62
829.129	5.62
829.871	3.62
830.612	3.62
831.354	6.62
832.095	3.62
832.836	2.62
833.577	3.62
834.319	4.62
835.06	3.62
835.801	4.62
836.542	4.62
837.282	2.62
838.023	3.62
838.764	4.62
839.504	4.62
840.245	3.62
840.985	3.62
841.726	1.62
842.466	0.62
843.206	2.62
843.946	5.62
844.687	3.62
845.427	2.62
846.166	4.62
846.906	4.62
847.646	1.62
848.386	5.62
849.125	1.62
849.865	3.62
850.605	5.62
851.344	2.62
852.083	3.62
852.823	2.62
853.562	3.62
854.301	1.62
855.04	1.62
855.779	4.62
856.518	2.62
857.257	1.62
857.995	4.62
858.734	0.62
859.473	1.62
860.211	1.62
860.95	3.62
861.688	0.62
862.426	3.62
863.165	4.62
863.903	1.62
864.641	1.62
865.379	4.62
866.117	0.62
866.855	1.62
867.593	3.62
868.33	0.62
869.068	-0.38
869.806	3.62
870.543	1.62
871.28	4.62
872.018	2.62
872.755	1.62
873.492	2.62
874.229	1.62
874.967	2.62
875.703	2.62
876.44	2.62
877.177	1.62
877.914	0.62
878.651	2.62
879.387	0.62
880.124	2.62
880.86	1.62
881.597	1.62
882.333	1.62
883.069	0.62
883.806	1.62
884.542	1.62
885.278	0.62
886.014	-1.38
886.749	0.62
887.485	0.62
888.221	0.62
888.957	0.62
889.692	-0.38
890.428	3.62
891.163	2.62
891.899	0.62
892.634	0.62
893.369	0.62
894.104	1.62
894.839	1.62
895.574	1.62
896.309	3.62
897.044	0.62
897.779	4.62
898.514	1.62
899.248	0.62
899.983	1.62
900.717	0.62
901.452	2.62
902.186	1.62
902.92	1.62
903.654	1.62
904.389	2.62
905.123	0.62
905.857	-1.38
906.59	3.62
907.324	-1.38
908.058	1.62
908.792	2.62
909.525	1.62
910.259	-0.38
910.992	-0.38
911.726	1.62
912.459	0.62
913.192	1.62
913.925	0.62
914.658	0.62
915.391	1.62
916.124	-1.38
916.857	0.62
917.59	0.62
918.323	0.62
919.055	1.62
919.788	2.62
920.521	-0.38
921.253	1.62
921.985	0.62
922.718	0.62
923.45	2.62
924.182	1.62
924.914	2.62
925.646	2.62
926.378	1.62
927.11	0.62
927.841	0.62
928.573	1.62
929.305	0.62
930.036	2.62
930.768	2.62
931.499	0.62
932.23	1.62
932.962	-0.38
933.693	0.62
934.424	-0.38
935.155	1.62
935.886	-0.38
936.617	1.62
937.348	3.62
938.078	2.62
938.809	-1.38
939.54	-0.38
940.27	-1.38
941.001	0.62
941.731	1.62
942.461	2.62
943.191	1.62
943.922	2.62
944.652	1.62
945.382	-0.38
946.112	2.62
946.841	0.62
947.571	1.62
948.301	0.62
949.031	1.62
949.76	2.62
950.49	1.62
951.219	0.62
951.948	1.62
952.678	1.62
953.407	1.62
954.136	-0.38
954.865	0.62
955.594	1.62
956.323	1.62
957.052	2.62
957.78	-1.38
958.509	1.62
959.238	0.62
959.966	0.62
960.695	-0.38
961.423	0.62
962.151	1.62
962.88	-1.38
963.608	0.62
964.336	-1.38
965.064	-0.38
965.792	-1.38
966.52	1.62
967.247	-1.38
967.975	0.62
968.703	-0.38
969.43	0.62
970.158	2.62
970.885	1.62
971.613	-0.38
972.34	2.62
973.067	2.62
973.794	-0.38
974.521	0.62
975.248	0.62
975.975	2.62
976.702	1.62
977.429	2.62
978.156	0.62
978.882	2.62
979.609	0.62
980.335	-1.38
981.062	0.62
981.788	0.62
982.514	1.62
983.24	1.62
983.967	0.62
984.693	1.62
985.419	0.62
986.144	-0.38
986.87	-1.38
987.596	2.62
988.322	1.62
989.047	-0.38
989.773	0.62
990.498	-2.38
991.224	1.62
991.949	1.62
992.674	0.62
993.399	0.62
994.124	-0.38
994.849	-1.38
995.574	-1.38
996.299	0.62
997.024	-1.38
997.749	-0.38
998.473	1.62
999.198	-1.38
999.922	0.62
1000.647	0.62
1001.371	4.62
1002.095	-0.38
1002.82	-1.38
1003.544	-1.38
1004.268	1.62
1004.992	1.62
1005.716	2.62
1006.439	2.62
1007.163	1.62
1007.887	2.62
1008.611	2.62
1009.334	1.62
1010.058	-1.38
1010.781	0.62
1011.504	-0.38
1012.228	2.62
1012.951	-0.38
1013.674	-1.38
1014.397	0.62
1015.12	-0.38
