节点500_285_QEPB04081__376__15-01-48-660.txt的数据

Date: Wed Nov 12 15:01:48 CST 2025
User: PC
Spectrometer: QEPB0408
触发模式: 0
积分时间 (秒): 1.000000E-2
Scans to average: 1
启用暗噪声校正: true
启用非线性校正: false
滑动平均宽度: 0
X轴模式: Wavelengths
Number of Pixels in Spectrum: 1044
>>>>>Begin Spectral Data<<<<<
220.843	1.88
221.644	0.88
222.444	1.88
223.244	1.88
224.045	0.88
224.845	3.88
225.645	1.88
226.445	-0.12
227.245	4.88
228.045	2.88
228.845	3.88
229.645	1.88
230.444	3.88
231.244	0.88
232.043	4.88
232.843	0.88
233.642	2.88
234.442	4.88
235.241	4.88
236.04	3.88
236.839	1.88
237.638	3.88
238.437	1.88
239.236	3.88
240.035	3.88
240.833	3.88
241.632	5.88
242.43	1.88
243.229	4.88
244.027	4.88
244.826	2.88
245.624	3.88
246.422	4.88
247.22	3.88
248.018	4.88
248.816	6.88
249.614	5.88
250.412	6.88
251.21	7.88
252.007	6.88
252.805	7.88
253.602	6.88
254.4	7.88
255.197	7.88
255.994	5.88
256.791	8.88
257.589	7.88
258.386	8.88
259.183	10.88
259.979	8.88
260.776	10.88
261.573	10.88
262.37	12.88
263.166	11.88
263.963	12.88
264.759	11.88
265.556	10.88
266.352	11.88
267.148	13.88
267.944	13.88
268.74	15.88
269.536	14.88
270.332	16.88
271.128	13.88
271.924	15.88
272.719	13.88
273.515	15.88
274.311	17.88
275.106	15.88
275.901	16.88
276.697	16.88
277.492	16.88
278.287	19.88
279.082	13.88
279.877	19.88
280.672	18.88
281.467	17.88
282.262	19.88
283.056	19.88
283.851	18.88
284.646	19.88
285.44	21.88
286.234	16.88
287.029	18.88
287.823	18.88
288.617	15.88
289.411	17.88
290.205	16.88
290.999	18.88
291.793	17.88
292.587	16.88
293.381	17.88
294.174	17.88
294.968	17.88
295.761	14.88
296.555	14.88
297.348	16.88
298.141	11.88
298.935	18.88
299.728	13.88
300.521	13.88
301.314	11.88
302.107	13.88
302.899	13.88
303.692	11.88
304.485	11.88
305.277	10.88
306.07	13.88
306.862	11.88
307.655	14.88
308.447	12.88
309.239	11.88
310.031	12.88
310.823	8.88
311.615	7.88
312.407	11.88
313.199	11.88
313.991	9.88
314.783	9.88
315.574	9.88
316.366	9.88
317.157	6.88
317.949	7.88
318.74	7.88
319.531	9.88
320.322	6.88
321.113	8.88
321.904	8.88
322.695	9.88
323.486	6.88
324.277	6.88
325.068	6.88
325.858	6.88
326.649	6.88
327.439	9.88
328.23	7.88
329.02	3.88
329.81	6.88
330.6	4.88
331.391	6.88
332.181	7.88
332.971	6.88
333.76	5.88
334.55	4.88
335.34	6.88
336.13	5.88
336.919	6.88
337.709	6.88
338.498	9.88
339.287	7.88
340.077	7.88
340.866	6.88
341.655	6.88
342.444	5.88
343.233	5.88
344.022	7.88
344.811	3.88
345.6	5.88
346.388	8.88
347.177	5.88
347.965	2.88
348.754	6.88
349.542	4.88
350.33	3.88
351.119	6.88
351.907	7.88
352.695	4.88
353.483	6.88
354.271	5.88
355.059	8.88
355.846	7.88
356.634	4.88
357.422	5.88
358.209	4.88
358.997	5.88
359.784	3.88
360.571	5.88
361.359	5.88
362.146	7.88
362.933	5.88
363.72	5.88
364.507	4.88
365.294	4.88
366.081	4.88
366.867	4.88
367.654	4.88
368.44	1.88
369.227	5.88
370.013	4.88
370.8	3.88
371.586	4.88
372.372	4.88
373.158	6.88
373.944	2.88
374.73	5.88
375.516	3.88
376.302	2.88
377.088	4.88
377.873	3.88
378.659	2.88
379.445	4.88
380.23	5.88
381.015	6.88
381.801	4.88
382.586	3.88
383.371	5.88
384.156	3.88
384.941	5.88
385.726	5.88
386.511	4.88
387.296	5.88
388.08	5.88
388.865	6.88
389.649	2.88
390.434	6.88
391.218	7.88
392.003	5.88
392.787	6.88
393.571	3.88
394.355	6.88
395.139	4.88
395.923	8.88
396.707	5.88
397.491	2.88
398.274	4.88
399.058	5.88
399.842	5.88
400.625	8.88
401.408	6.88
402.192	8.88
402.975	6.88
403.758	6.88
404.541	7.88
405.324	7.88
406.107	9.88
406.89	6.88
407.673	9.88
408.456	6.88
409.238	6.88
410.021	7.88
410.803	9.88
411.586	8.88
412.368	7.88
413.151	7.88
413.933	7.88
414.715	9.88
415.497	8.88
416.279	8.88
417.061	8.88
417.843	8.88
418.624	10.88
419.406	7.88
420.188	10.88
420.969	9.88
421.751	9.88
422.532	9.88
423.313	9.88
424.095	9.88
424.876	12.88
425.657	11.88
426.438	11.88
427.219	15.88
428	15.88
428.78	10.88
429.561	13.88
430.342	16.88
431.122	14.88
431.903	13.88
432.683	15.88
433.464	13.88
434.244	15.88
435.024	18.88
435.804	17.88
436.584	19.88
437.364	16.88
438.144	19.88
438.924	20.88
439.704	19.88
440.483	24.88
441.263	26.88
442.042	23.88
442.822	27.88
443.601	29.88
444.38	27.88
445.16	31.88
445.939	32.88
446.718	33.88
447.497	38.88
448.276	42.88
449.054	45.88
449.833	46.88
450.612	50.88
451.391	56.88
452.169	65.88
452.948	67.88
453.726	75.88
454.504	82.88
455.282	91.88
456.061	100.88
456.839	109.88
457.617	125.88
458.395	128.88
459.172	153.88
459.95	168.88
460.728	191.88
461.506	213.88
462.283	235.88
463.061	255.88
463.838	294.88
464.615	326.88
465.393	367.88
466.17	396.88
466.947	449.88
467.724	509.88
468.501	564.88
469.278	621.88
470.055	686.88
470.831	765.88
471.608	862.88
472.385	953.88
473.161	1049.88
473.938	1171.88
474.714	1301.88
475.49	1435.88
476.266	1574.88
477.043	1751.88
477.819	1935.88
478.595	2127.88
479.371	2359.88
480.146	2586.88
480.922	2843.88
481.698	3145.88
482.473	3473.88
483.249	3811.88
484.024	4206.88
484.8	4623.88
485.575	5056.88
486.35	5565.88
487.126	6076.88
487.901	6689.88
488.676	7305.88
489.451	8073.88
490.225	8738.88
491	9532.88
491.775	10432.88
492.55	11391.88
493.324	12344.88
494.099	13299.88
494.873	14293.88
495.647	15477.88
496.422	16592.88
497.196	17719.88
497.97	18963.88
498.744	20122.88
499.518	21312.88
500.292	22387.88
501.066	23519.88
501.839	24446.88
502.613	25353.88
503.387	26128.88
504.16	26725.88
504.934	27137.88
505.707	27325.88
506.48	27384.88
507.253	27248.88
508.027	27116.88
508.8	26680.88
509.573	26276.88
510.346	25760.88
511.118	24979.88
511.891	24221.88
512.664	23340.88
513.437	22573.88
514.209	21531.88
514.982	20685.88
515.754	19768.88
516.526	18985.88
517.298	18073.88
518.071	17283.88
518.843	16631.88
519.615	16005.88
520.387	15403.88
521.159	14757.88
521.93	14177.88
522.702	13617.88
523.474	13040.88
524.245	12483.88
525.017	11929.88
525.788	11448.88
526.56	10969.88
527.331	10427.88
528.102	9988.88
528.873	9507.88
529.644	9050.88
530.415	8616.88
531.186	8186.88
531.957	7746.88
532.728	7364.88
533.498	6962.88
534.269	6569.88
535.039	6219.88
535.81	5877.88
536.58	5575.88
537.351	5210.88
538.121	4941.88
538.891	4688.88
539.661	4449.88
540.431	4196.88
541.201	3935.88
541.971	3747.88
542.741	3544.88
543.51	3370.88
544.28	3219.88
545.05	3059.88
545.819	2929.88
546.588	2769.88
547.358	2634.88
548.127	2489.88
548.896	2366.88
549.665	2229.88
550.434	2105.88
551.203	2027.88
551.972	1880.88
552.741	1794.88
553.51	1710.88
554.278	1608.88
555.047	1522.88
555.815	1434.88
556.584	1341.88
557.352	1274.88
558.121	1202.88
558.889	1139.88
559.657	1076.88
560.425	1011.88
561.193	958.88
561.961	900.88
562.729	848.88
563.496	812.88
564.264	760.88
565.032	718.88
565.799	681.88
566.567	652.88
567.334	603.88
568.101	583.88
568.869	543.88
569.636	517.88
570.403	472.88
571.17	455.88
571.937	432.88
572.704	402.88
573.471	378.88
574.237	360.88
575.004	348.88
575.771	315.88
576.537	304.88
577.303	281.88
578.07	271.88
578.836	253.88
579.602	231.88
580.368	225.88
581.134	214.88
581.9	197.88
582.666	189.88
583.432	173.88
584.198	172.88
584.964	165.88
585.729	158.88
586.495	142.88
587.26	141.88
588.025	131.88
588.791	126.88
589.556	117.88
590.321	109.88
591.086	102.88
591.851	101.88
592.616	94.88
593.381	89.88
594.146	85.88
594.911	86.88
595.675	78.88
596.44	71.88
597.204	69.88
597.969	65.88
598.733	65.88
599.497	65.88
600.261	56.88
601.025	58.88
601.79	52.88
602.553	54.88
603.317	47.88
604.081	48.88
604.845	45.88
605.609	42.88
606.372	45.88
607.136	37.88
607.899	39.88
608.662	38.88
609.426	34.88
610.189	35.88
610.952	31.88
611.715	33.88
612.478	28.88
613.241	28.88
614.004	28.88
614.767	26.88
615.529	28.88
616.292	24.88
617.055	23.88
617.817	22.88
618.579	23.88
619.342	23.88
620.104	19.88
620.866	21.88
621.628	18.88
622.39	17.88
623.152	15.88
623.914	17.88
624.676	16.88
625.438	19.88
626.199	15.88
626.961	13.88
627.722	14.88
628.484	11.88
629.245	14.88
630.006	13.88
630.768	12.88
631.529	13.88
632.29	13.88
633.051	13.88
633.812	12.88
634.573	10.88
635.333	12.88
636.094	11.88
636.855	11.88
637.615	13.88
638.376	7.88
639.136	8.88
639.896	8.88
640.657	10.88
641.417	10.88
642.177	5.88
642.937	6.88
643.697	7.88
644.457	9.88
645.216	8.88
645.976	6.88
646.736	7.88
647.495	7.88
648.255	8.88
649.014	5.88
649.774	7.88
650.533	5.88
651.292	4.88
652.051	6.88
652.81	4.88
653.569	5.88
654.328	7.88
655.087	6.88
655.846	5.88
656.604	4.88
657.363	7.88
658.121	4.88
658.88	5.88
659.638	8.88
660.397	6.88
661.155	5.88
661.913	4.88
662.671	5.88
663.429	5.88
664.187	5.88
664.945	5.88
665.703	5.88
666.46	4.88
667.218	1.88
667.976	7.88
668.733	4.88
669.49	3.88
670.248	4.88
671.005	2.88
671.762	5.88
672.519	4.88
673.276	4.88
674.033	5.88
674.79	4.88
675.547	3.88
676.304	3.88
677.06	3.88
677.817	1.88
678.574	3.88
679.33	3.88
680.086	1.88
680.843	3.88
681.599	4.88
682.355	2.88
683.111	4.88
683.867	3.88
684.623	1.88
685.379	1.88
686.135	4.88
686.89	2.88
687.646	2.88
688.402	0.88
689.157	3.88
689.912	3.88
690.668	1.88
691.423	2.88
692.178	3.88
692.933	3.88
693.688	4.88
694.443	2.88
695.198	3.88
695.953	2.88
696.708	5.88
697.462	4.88
698.217	1.88
698.972	3.88
699.726	1.88
700.48	2.88
701.235	4.88
701.989	2.88
702.743	3.88
703.497	2.88
704.251	3.88
705.005	3.88
705.759	4.88
706.513	2.88
707.266	4.88
708.02	4.88
708.774	3.88
709.527	2.88
710.28	1.88
711.034	2.88
711.787	2.88
712.54	1.88
713.293	3.88
714.046	5.88
714.799	6.88
715.552	1.88
716.305	5.88
717.058	5.88
717.81	3.88
718.563	3.88
719.315	3.88
720.068	4.88
720.82	3.88
721.573	3.88
722.325	3.88
723.077	2.88
723.829	2.88
724.581	4.88
725.333	3.88
726.085	3.88
726.836	2.88
727.588	0.88
728.34	4.88
729.091	4.88
729.843	5.88
730.594	1.88
731.346	4.88
732.097	3.88
732.848	1.88
733.599	3.88
734.35	6.88
735.101	3.88
735.852	2.88
736.603	4.88
737.354	3.88
738.104	4.88
738.855	4.88
739.605	2.88
740.356	5.88
741.106	2.88
741.856	3.88
742.607	4.88
743.357	4.88
744.107	3.88
744.857	5.88
745.607	4.88
746.357	4.88
747.106	6.88
747.856	5.88
748.606	4.88
749.355	2.88
750.105	4.88
750.854	2.88
751.603	3.88
752.353	7.88
753.102	4.88
753.851	6.88
754.6	4.88
755.349	4.88
756.098	1.88
756.847	6.88
757.595	4.88
758.344	7.88
759.093	5.88
759.841	5.88
760.589	4.88
761.338	6.88
762.086	4.88
762.834	5.88
763.582	5.88
764.331	6.88
765.079	8.88
765.826	6.88
766.574	7.88
767.322	8.88
768.07	5.88
768.817	9.88
769.565	7.88
770.312	7.88
771.06	6.88
771.807	7.88
772.554	7.88
773.302	7.88
774.049	7.88
774.796	7.88
775.543	6.88
776.29	8.88
777.036	6.88
777.783	9.88
778.53	7.88
779.276	9.88
780.023	7.88
780.769	11.88
781.516	8.88
782.262	10.88
783.008	9.88
783.754	9.88
784.5	9.88
785.246	7.88
785.992	8.88
786.738	9.88
787.484	9.88
788.23	8.88
788.975	9.88
789.721	9.88
790.466	8.88
791.212	9.88
791.957	9.88
792.702	8.88
793.447	7.88
794.193	7.88
794.938	8.88
795.683	7.88
796.427	8.88
797.172	9.88
797.917	9.88
798.662	7.88
799.406	6.88
800.151	8.88
800.895	7.88
801.64	8.88
802.384	8.88
803.128	7.88
803.872	6.88
804.616	5.88
805.36	5.88
806.104	6.88
806.848	6.88
807.592	5.88
808.336	6.88
809.079	7.88
809.823	10.88
810.566	4.88
811.31	7.88
812.053	4.88
812.796	4.88
813.539	4.88
814.283	6.88
815.026	5.88
815.769	4.88
816.511	5.88
817.254	4.88
817.997	4.88
818.74	4.88
819.482	6.88
820.225	4.88
820.967	2.88
821.71	1.88
822.452	4.88
823.194	3.88
823.936	4.88
824.678	5.88
825.42	5.88
826.162	4.88
826.904	2.88
827.646	2.88
828.388	5.88
829.129	3.88
829.871	3.88
830.612	4.88
831.354	4.88
832.095	3.88
832.836	1.88
833.577	5.88
834.319	2.88
835.06	3.88
835.801	4.88
836.542	1.88
837.282	3.88
838.023	2.88
838.764	3.88
839.504	3.88
840.245	3.88
840.985	4.88
841.726	3.88
842.466	4.88
843.206	3.88
843.946	4.88
844.687	1.88
845.427	2.88
846.166	3.88
846.906	3.88
847.646	4.88
848.386	3.88
849.125	1.88
849.865	0.88
850.605	4.88
851.344	1.88
852.083	1.88
852.823	1.88
853.562	1.88
854.301	-0.12
855.04	1.88
855.779	-0.12
856.518	3.88
857.257	0.88
857.995	2.88
858.734	2.88
859.473	3.88
860.211	3.88
860.95	0.88
861.688	1.88
862.426	1.88
863.165	1.88
863.903	2.88
864.641	2.88
865.379	2.88
866.117	1.88
866.855	0.88
867.593	1.88
868.33	0.88
869.068	1.88
869.806	0.88
870.543	1.88
871.28	0.88
872.018	0.88
872.755	4.88
873.492	3.88
874.229	2.88
874.967	0.88
875.703	1.88
876.44	1.88
877.177	-0.12
877.914	1.88
878.651	1.88
879.387	0.88
880.124	0.88
880.86	0.88
881.597	0.88
882.333	-1.12
883.069	2.88
883.806	-0.12
884.542	-0.12
885.278	-0.12
886.014	-0.12
886.749	0.88
887.485	1.88
888.221	0.88
888.957	-2.12
889.692	0.88
890.428	1.88
891.163	-0.12
891.899	0.88
892.634	0.88
893.369	0.88
894.104	2.88
894.839	-0.12
895.574	-0.12
896.309	-0.12
897.044	1.88
897.779	-0.12
898.514	-0.12
899.248	0.88
899.983	0.88
900.717	0.88
901.452	0.88
902.186	-1.12
902.92	-0.12
903.654	0.88
904.389	2.88
905.123	0.88
905.857	-0.12
906.59	0.88
907.324	-1.12
908.058	-0.12
908.792	-0.12
909.525	-0.12
910.259	-0.12
910.992	-0.12
911.726	-1.12
912.459	0.88
913.192	2.88
913.925	1.88
914.658	1.88
915.391	-0.12
916.124	0.88
916.857	0.88
917.59	-0.12
918.323	1.88
919.055	-0.12
919.788	1.88
920.521	-1.12
921.253	0.88
921.985	2.88
922.718	-1.12
923.45	-0.12
924.182	0.88
924.914	1.88
925.646	-0.12
926.378	0.88
927.11	0.88
927.841	-1.12
928.573	-1.12
929.305	1.88
930.036	-0.12
930.768	-0.12
931.499	1.88
932.23	1.88
932.962	1.88
933.693	-0.12
934.424	-0.12
935.155	-0.12
935.886	-0.12
936.617	-0.12
937.348	0.88
938.078	-1.12
938.809	0.88
939.54	0.88
940.27	0.88
941.001	1.88
941.731	-0.12
942.461	-0.12
943.191	-0.12
943.922	0.88
944.652	-2.12
945.382	-2.12
946.112	1.88
946.841	0.88
947.571	0.88
948.301	0.88
949.031	-0.12
949.76	1.88
950.49	0.88
951.219	0.88
951.948	-1.12
952.678	1.88
953.407	1.88
954.136	3.88
954.865	-0.12
955.594	-0.12
956.323	0.88
957.052	-0.12
957.78	2.88
958.509	-0.12
959.238	-1.12
959.966	-1.12
960.695	-2.12
961.423	-0.12
962.151	0.88
962.88	-0.12
963.608	-0.12
964.336	-0.12
965.064	-0.12
965.792	-1.12
966.52	-0.12
967.247	-0.12
967.975	-0.12
968.703	-0.12
969.43	0.88
970.158	0.88
970.885	-2.12
971.613	0.88
972.34	0.88
973.067	-2.12
973.794	-1.12
974.521	-1.12
975.248	-0.12
975.975	0.88
976.702	2.88
977.429	-0.12
978.156	-0.12
978.882	-0.12
979.609	-1.12
980.335	3.88
981.062	0.88
981.788	1.88
982.514	-0.12
983.24	-0.12
983.967	1.88
984.693	0.88
985.419	0.88
986.144	-0.12
986.87	-0.12
987.596	0.88
988.322	0.88
989.047	-1.12
989.773	-0.12
990.498	-1.12
991.224	0.88
991.949	0.88
992.674	-0.12
993.399	-0.12
994.124	-1.12
994.849	1.88
995.574	0.88
996.299	0.88
997.024	-0.12
997.749	-0.12
998.473	1.88
999.198	-0.12
999.922	-1.12
1000.647	-3.12
1001.371	3.88
1002.095	-0.12
1002.82	-2.12
1003.544	-2.12
1004.268	2.88
1004.992	0.88
1005.716	3.88
1006.439	0.88
1007.163	1.88
1007.887	1.88
1008.611	-1.12
1009.334	0.88
1010.058	-0.12
1010.781	-2.12
1011.504	1.88
1012.228	0.88
1012.951	0.88
1013.674	-0.12
1014.397	-2.12
1015.12	1.88
