节点500_285_QEPB04081__772__15-08-23-797.txt的数据

Date: Wed Nov 12 15:08:23 CST 2025
User: PC
Spectrometer: QEPB0408
触发模式: 0
积分时间 (秒): 1.000000E-2
Scans to average: 1
启用暗噪声校正: true
启用非线性校正: false
滑动平均宽度: 0
X轴模式: Wavelengths
Number of Pixels in Spectrum: 1044
>>>>>Begin Spectral Data<<<<<
220.843	2.12
221.644	1.12
222.444	4.12
223.244	1.12
224.045	2.12
224.845	2.12
225.645	3.12
226.445	0.12
227.245	2.12
228.045	2.12
228.845	0.12
229.645	2.12
230.444	3.12
231.244	3.12
232.043	2.12
232.843	2.12
233.642	4.12
234.442	4.12
235.241	3.12
236.04	3.12
236.839	2.12
237.638	5.12
238.437	3.12
239.236	4.12
240.035	4.12
240.833	5.12
241.632	4.12
242.43	7.12
243.229	6.12
244.027	4.12
244.826	6.12
245.624	5.12
246.422	8.12
247.22	5.12
248.018	5.12
248.816	6.12
249.614	6.12
250.412	6.12
251.21	7.12
252.007	8.12
252.805	6.12
253.602	5.12
254.4	6.12
255.197	6.12
255.994	8.12
256.791	7.12
257.589	7.12
258.386	8.12
259.183	9.12
259.979	10.12
260.776	8.12
261.573	9.12
262.37	12.12
263.166	7.12
263.963	9.12
264.759	9.12
265.556	10.12
266.352	10.12
267.148	14.12
267.944	11.12
268.74	13.12
269.536	12.12
270.332	14.12
271.128	16.12
271.924	14.12
272.719	14.12
273.515	13.12
274.311	14.12
275.106	16.12
275.901	13.12
276.697	15.12
277.492	18.12
278.287	14.12
279.082	16.12
279.877	17.12
280.672	15.12
281.467	17.12
282.262	16.12
283.056	15.12
283.851	17.12
284.646	18.12
285.44	15.12
286.234	15.12
287.029	18.12
287.823	17.12
288.617	17.12
289.411	19.12
290.205	18.12
290.999	14.12
291.793	15.12
292.587	18.12
293.381	18.12
294.174	16.12
294.968	13.12
295.761	17.12
296.555	17.12
297.348	14.12
298.141	16.12
298.935	16.12
299.728	14.12
300.521	15.12
301.314	15.12
302.107	13.12
302.899	13.12
303.692	13.12
304.485	11.12
305.277	12.12
306.07	13.12
306.862	14.12
307.655	12.12
308.447	11.12
309.239	13.12
310.031	12.12
310.823	11.12
311.615	10.12
312.407	11.12
313.199	8.12
313.991	11.12
314.783	11.12
315.574	8.12
316.366	10.12
317.157	8.12
317.949	10.12
318.74	10.12
319.531	6.12
320.322	10.12
321.113	7.12
321.904	9.12
322.695	6.12
323.486	7.12
324.277	7.12
325.068	7.12
325.858	9.12
326.649	9.12
327.439	6.12
328.23	7.12
329.02	8.12
329.81	8.12
330.6	6.12
331.391	7.12
332.181	7.12
332.971	7.12
333.76	8.12
334.55	5.12
335.34	8.12
336.13	6.12
336.919	8.12
337.709	7.12
338.498	5.12
339.287	7.12
340.077	7.12
340.866	7.12
341.655	6.12
342.444	7.12
343.233	6.12
344.022	7.12
344.811	9.12
345.6	4.12
346.388	6.12
347.177	7.12
347.965	4.12
348.754	6.12
349.542	9.12
350.33	3.12
351.119	4.12
351.907	6.12
352.695	3.12
353.483	8.12
354.271	5.12
355.059	2.12
355.846	5.12
356.634	6.12
357.422	7.12
358.209	5.12
358.997	4.12
359.784	6.12
360.571	6.12
361.359	7.12
362.146	3.12
362.933	6.12
363.72	5.12
364.507	5.12
365.294	5.12
366.081	4.12
366.867	5.12
367.654	4.12
368.44	4.12
369.227	4.12
370.013	7.12
370.8	4.12
371.586	5.12
372.372	6.12
373.158	6.12
373.944	4.12
374.73	4.12
375.516	8.12
376.302	6.12
377.088	6.12
377.873	7.12
378.659	7.12
379.445	6.12
380.23	4.12
381.015	7.12
381.801	4.12
382.586	6.12
383.371	7.12
384.156	5.12
384.941	4.12
385.726	5.12
386.511	7.12
387.296	4.12
388.08	6.12
388.865	6.12
389.649	5.12
390.434	6.12
391.218	7.12
392.003	7.12
392.787	8.12
393.571	10.12
394.355	6.12
395.139	5.12
395.923	3.12
396.707	8.12
397.491	6.12
398.274	6.12
399.058	5.12
399.842	6.12
400.625	6.12
401.408	6.12
402.192	7.12
402.975	5.12
403.758	7.12
404.541	5.12
405.324	8.12
406.107	6.12
406.89	7.12
407.673	8.12
408.456	9.12
409.238	8.12
410.021	5.12
410.803	8.12
411.586	8.12
412.368	8.12
413.151	9.12
413.933	10.12
414.715	8.12
415.497	6.12
416.279	7.12
417.061	9.12
417.843	7.12
418.624	10.12
419.406	9.12
420.188	9.12
420.969	9.12
421.751	9.12
422.532	11.12
423.313	11.12
424.095	12.12
424.876	12.12
425.657	11.12
426.438	13.12
427.219	12.12
428	10.12
428.78	11.12
429.561	11.12
430.342	14.12
431.122	16.12
431.903	15.12
432.683	14.12
433.464	16.12
434.244	18.12
435.024	17.12
435.804	17.12
436.584	17.12
437.364	18.12
438.144	22.12
438.924	24.12
439.704	22.12
440.483	22.12
441.263	25.12
442.042	26.12
442.822	26.12
443.601	30.12
444.38	33.12
445.16	34.12
445.939	33.12
446.718	39.12
447.497	41.12
448.276	45.12
449.054	50.12
449.833	52.12
450.612	57.12
451.391	63.12
452.169	69.12
452.948	80.12
453.726	83.12
454.504	88.12
455.282	101.12
456.061	115.12
456.839	123.12
457.617	134.12
458.395	145.12
459.172	166.12
459.95	188.12
460.728	214.12
461.506	231.12
462.283	266.12
463.061	288.12
463.838	321.12
464.615	359.12
465.393	396.12
466.17	445.12
466.947	486.12
467.724	544.12
468.501	591.12
469.278	654.12
470.055	732.12
470.831	828.12
471.608	906.12
472.385	996.12
473.161	1109.12
473.938	1213.12
474.714	1342.12
475.49	1452.12
476.266	1605.12
477.043	1783.12
477.819	1942.12
478.595	2130.12
479.371	2321.12
480.146	2548.12
480.922	2806.12
481.698	3043.12
482.473	3336.12
483.249	3672.12
484.024	3973.12
484.8	4359.12
485.575	4745.12
486.35	5188.12
487.126	5640.12
487.901	6152.12
488.676	6677.12
489.451	7265.12
490.225	7900.12
491	8561.12
491.775	9331.12
492.55	10096.12
493.324	10876.12
494.099	11691.12
494.873	12543.12
495.647	13497.12
496.422	14445.12
497.196	15497.12
497.97	16566.12
498.744	17554.12
499.518	18574.12
500.292	19705.12
501.066	20637.12
501.839	21594.12
502.613	22477.12
503.387	23324.12
504.16	24036.12
504.934	24439.12
505.707	24791.12
506.48	25037.12
507.253	25173.12
508.027	25182.12
508.8	25143.12
509.573	24996.12
510.346	24674.12
511.118	24113.12
511.891	23579.12
512.664	22962.12
513.437	22267.12
514.209	21435.12
514.982	20647.12
515.754	19867.12
516.526	19127.12
517.298	18279.12
518.071	17541.12
518.843	16906.12
519.615	16277.12
520.387	15620.12
521.159	15049.12
521.93	14428.12
522.702	13850.12
523.474	13318.12
524.245	12660.12
525.017	12194.12
525.788	11751.12
526.56	11214.12
527.331	10708.12
528.102	10297.12
528.873	9798.12
529.644	9314.12
530.415	8967.12
531.186	8504.12
531.957	8059.12
532.728	7708.12
533.498	7307.12
534.269	6930.12
535.039	6575.12
535.81	6192.12
536.58	5900.12
537.351	5555.12
538.121	5282.12
538.891	4976.12
539.661	4720.12
540.431	4475.12
541.201	4174.12
541.971	3957.12
542.741	3768.12
543.51	3579.12
544.28	3409.12
545.05	3247.12
545.819	3093.12
546.588	2919.12
547.358	2786.12
548.127	2658.12
548.896	2530.12
549.665	2404.12
550.434	2273.12
551.203	2144.12
551.972	2026.12
552.741	1914.12
553.51	1814.12
554.278	1736.12
555.047	1627.12
555.815	1535.12
556.584	1457.12
557.352	1383.12
558.121	1302.12
558.889	1229.12
559.657	1158.12
560.425	1106.12
561.193	1041.12
561.961	970.12
562.729	922.12
563.496	876.12
564.264	828.12
565.032	783.12
565.799	738.12
566.567	699.12
567.334	670.12
568.101	625.12
568.869	581.12
569.636	554.12
570.403	520.12
571.17	495.12
571.937	461.12
572.704	441.12
573.471	419.12
574.237	385.12
575.004	370.12
575.771	339.12
576.537	328.12
577.303	306.12
578.07	290.12
578.836	273.12
579.602	257.12
580.368	247.12
581.134	232.12
581.9	226.12
582.666	208.12
583.432	197.12
584.198	190.12
584.964	174.12
585.729	169.12
586.495	158.12
587.26	155.12
588.025	145.12
588.791	137.12
589.556	127.12
590.321	122.12
591.086	111.12
591.851	107.12
592.616	103.12
593.381	99.12
594.146	95.12
594.911	90.12
595.675	88.12
596.44	81.12
597.204	79.12
597.969	73.12
598.733	72.12
599.497	67.12
600.261	68.12
601.025	58.12
601.79	61.12
602.553	57.12
603.317	54.12
604.081	49.12
604.845	50.12
605.609	44.12
606.372	44.12
607.136	45.12
607.899	44.12
608.662	37.12
609.426	39.12
610.189	37.12
610.952	33.12
611.715	37.12
612.478	36.12
613.241	31.12
614.004	30.12
614.767	27.12
615.529	28.12
616.292	26.12
617.055	25.12
617.817	28.12
618.579	25.12
619.342	26.12
620.104	26.12
620.866	22.12
621.628	23.12
622.39	18.12
623.152	19.12
623.914	17.12
624.676	17.12
625.438	18.12
626.199	16.12
626.961	18.12
627.722	16.12
628.484	15.12
629.245	14.12
630.006	14.12
630.768	15.12
631.529	15.12
632.29	14.12
633.051	16.12
633.812	12.12
634.573	13.12
635.333	13.12
636.094	12.12
636.855	12.12
637.615	12.12
638.376	11.12
639.136	8.12
639.896	10.12
640.657	7.12
641.417	11.12
642.177	12.12
642.937	7.12
643.697	10.12
644.457	7.12
645.216	9.12
645.976	8.12
646.736	8.12
647.495	7.12
648.255	7.12
649.014	7.12
649.774	6.12
650.533	7.12
651.292	7.12
652.051	8.12
652.81	5.12
653.569	6.12
654.328	9.12
655.087	7.12
655.846	6.12
656.604	4.12
657.363	7.12
658.121	6.12
658.88	6.12
659.638	6.12
660.397	5.12
661.155	4.12
661.913	5.12
662.671	5.12
663.429	5.12
664.187	3.12
664.945	7.12
665.703	5.12
666.46	5.12
667.218	5.12
667.976	3.12
668.733	4.12
669.49	7.12
670.248	6.12
671.005	5.12
671.762	5.12
672.519	3.12
673.276	5.12
674.033	6.12
674.79	6.12
675.547	4.12
676.304	7.12
677.06	4.12
677.817	3.12
678.574	3.12
679.33	6.12
680.086	5.12
680.843	4.12
681.599	6.12
682.355	3.12
683.111	6.12
683.867	2.12
684.623	4.12
685.379	2.12
686.135	6.12
686.89	4.12
687.646	4.12
688.402	6.12
689.157	4.12
689.912	3.12
690.668	5.12
691.423	3.12
692.178	4.12
692.933	3.12
693.688	5.12
694.443	3.12
695.198	3.12
695.953	5.12
696.708	4.12
697.462	2.12
698.217	5.12
698.972	3.12
699.726	3.12
700.48	3.12
701.235	2.12
701.989	2.12
702.743	2.12
703.497	2.12
704.251	3.12
705.005	3.12
705.759	4.12
706.513	2.12
707.266	2.12
708.02	2.12
708.774	6.12
709.527	3.12
710.28	4.12
711.034	2.12
711.787	2.12
712.54	2.12
713.293	5.12
714.046	1.12
714.799	4.12
715.552	5.12
716.305	2.12
717.058	3.12
717.81	3.12
718.563	5.12
719.315	2.12
720.068	3.12
720.82	5.12
721.573	3.12
722.325	5.12
723.077	1.12
723.829	4.12
724.581	2.12
725.333	2.12
726.085	4.12
726.836	2.12
727.588	3.12
728.34	5.12
729.091	4.12
729.843	5.12
730.594	4.12
731.346	4.12
732.097	4.12
732.848	5.12
733.599	6.12
734.35	3.12
735.101	5.12
735.852	5.12
736.603	7.12
737.354	5.12
738.104	6.12
738.855	4.12
739.605	5.12
740.356	5.12
741.106	4.12
741.856	5.12
742.607	5.12
743.357	3.12
744.107	4.12
744.857	5.12
745.607	3.12
746.357	4.12
747.106	5.12
747.856	3.12
748.606	6.12
749.355	4.12
750.105	6.12
750.854	6.12
751.603	4.12
752.353	7.12
753.102	5.12
753.851	4.12
754.6	5.12
755.349	3.12
756.098	3.12
756.847	4.12
757.595	6.12
758.344	7.12
759.093	5.12
759.841	4.12
760.589	2.12
761.338	5.12
762.086	7.12
762.834	7.12
763.582	4.12
764.331	10.12
765.079	7.12
765.826	5.12
766.574	8.12
767.322	6.12
768.07	9.12
768.817	6.12
769.565	6.12
770.312	7.12
771.06	5.12
771.807	7.12
772.554	6.12
773.302	6.12
774.049	7.12
774.796	7.12
775.543	6.12
776.29	7.12
777.036	9.12
777.783	8.12
778.53	9.12
779.276	9.12
780.023	9.12
780.769	9.12
781.516	9.12
782.262	7.12
783.008	9.12
783.754	6.12
784.5	8.12
785.246	5.12
785.992	7.12
786.738	6.12
787.484	8.12
788.23	6.12
788.975	8.12
789.721	10.12
790.466	8.12
791.212	8.12
791.957	8.12
792.702	10.12
793.447	9.12
794.193	7.12
794.938	7.12
795.683	8.12
796.427	10.12
797.172	7.12
797.917	7.12
798.662	4.12
799.406	5.12
800.151	7.12
800.895	8.12
801.64	8.12
802.384	6.12
803.128	7.12
803.872	6.12
804.616	6.12
805.36	6.12
806.104	7.12
806.848	5.12
807.592	7.12
808.336	5.12
809.079	8.12
809.823	4.12
810.566	4.12
811.31	5.12
812.053	6.12
812.796	5.12
813.539	6.12
814.283	5.12
815.026	4.12
815.769	4.12
816.511	4.12
817.254	4.12
817.997	7.12
818.74	4.12
819.482	4.12
820.225	5.12
820.967	5.12
821.71	2.12
822.452	7.12
823.194	4.12
823.936	6.12
824.678	5.12
825.42	5.12
826.162	6.12
826.904	4.12
827.646	5.12
828.388	6.12
829.129	5.12
829.871	4.12
830.612	3.12
831.354	4.12
832.095	4.12
832.836	3.12
833.577	4.12
834.319	2.12
835.06	3.12
835.801	4.12
836.542	3.12
837.282	4.12
838.023	4.12
838.764	3.12
839.504	5.12
840.245	3.12
840.985	3.12
841.726	3.12
842.466	4.12
843.206	4.12
843.946	3.12
844.687	5.12
845.427	3.12
846.166	4.12
846.906	5.12
847.646	4.12
848.386	2.12
849.125	2.12
849.865	3.12
850.605	5.12
851.344	4.12
852.083	4.12
852.823	2.12
853.562	2.12
854.301	3.12
855.04	2.12
855.779	4.12
856.518	1.12
857.257	-0.88
857.995	0.12
858.734	3.12
859.473	6.12
860.211	2.12
860.95	0.12
861.688	1.12
862.426	4.12
863.165	2.12
863.903	0.12
864.641	2.12
865.379	4.12
866.117	2.12
866.855	1.12
867.593	1.12
868.33	2.12
869.068	0.12
869.806	1.12
870.543	3.12
871.28	2.12
872.018	2.12
872.755	0.12
873.492	2.12
874.229	2.12
874.967	2.12
875.703	2.12
876.44	1.12
877.177	-0.88
877.914	2.12
878.651	1.12
879.387	0.12
880.124	2.12
880.86	2.12
881.597	1.12
882.333	5.12
883.069	-0.88
883.806	1.12
884.542	2.12
885.278	1.12
886.014	1.12
886.749	0.12
887.485	0.12
888.221	-1.88
888.957	0.12
889.692	1.12
890.428	3.12
891.163	1.12
891.899	1.12
892.634	-0.88
893.369	1.12
894.104	0.12
894.839	1.12
895.574	1.12
896.309	1.12
897.044	0.12
897.779	-0.88
898.514	-0.88
899.248	2.12
899.983	0.12
900.717	2.12
901.452	1.12
902.186	2.12
902.92	1.12
903.654	3.12
904.389	2.12
905.123	3.12
905.857	-0.88
906.59	2.12
907.324	1.12
908.058	0.12
908.792	0.12
909.525	1.12
910.259	0.12
910.992	-1.88
911.726	1.12
912.459	0.12
913.192	1.12
913.925	0.12
914.658	-1.88
915.391	1.12
916.124	0.12
916.857	0.12
917.59	3.12
918.323	0.12
919.055	1.12
919.788	0.12
920.521	0.12
921.253	0.12
921.985	2.12
922.718	-0.88
923.45	3.12
924.182	1.12
924.914	-0.88
925.646	0.12
926.378	1.12
927.11	0.12
927.841	1.12
928.573	1.12
929.305	0.12
930.036	0.12
930.768	1.12
931.499	1.12
932.23	1.12
932.962	0.12
933.693	1.12
934.424	0.12
935.155	-1.88
935.886	1.12
936.617	-0.88
937.348	-0.88
938.078	-0.88
938.809	1.12
939.54	2.12
940.27	0.12
941.001	0.12
941.731	0.12
942.461	-0.88
943.191	2.12
943.922	0.12
944.652	0.12
945.382	1.12
946.112	2.12
946.841	1.12
947.571	1.12
948.301	-1.88
949.031	-0.88
949.76	2.12
950.49	-1.88
951.219	3.12
951.948	0.12
952.678	1.12
953.407	0.12
954.136	-0.88
954.865	2.12
955.594	1.12
956.323	-1.88
957.052	1.12
957.78	-0.88
958.509	0.12
959.238	-0.88
959.966	2.12
960.695	1.12
961.423	0.12
962.151	1.12
962.88	-1.88
963.608	1.12
964.336	0.12
965.064	3.12
965.792	1.12
966.52	2.12
967.247	0.12
967.975	1.12
968.703	0.12
969.43	-0.88
970.158	1.12
970.885	-0.88
971.613	0.12
972.34	3.12
973.067	-0.88
973.794	1.12
974.521	0.12
975.248	-1.88
975.975	0.12
976.702	0.12
977.429	1.12
978.156	0.12
978.882	1.12
979.609	0.12
980.335	-0.88
981.062	1.12
981.788	0.12
982.514	3.12
983.24	0.12
983.967	0.12
984.693	0.12
985.419	-0.88
986.144	1.12
986.87	-0.88
987.596	2.12
988.322	1.12
989.047	1.12
989.773	1.12
990.498	-0.88
991.224	2.12
991.949	1.12
992.674	3.12
993.399	-0.88
994.124	-0.88
994.849	-0.88
995.574	1.12
996.299	0.12
997.024	0.12
997.749	-3.88
998.473	2.12
999.198	0.12
999.922	0.12
1000.647	0.12
1001.371	4.12
1002.095	-1.88
1002.82	-0.88
1003.544	-1.88
1004.268	-0.88
1004.992	2.12
1005.716	2.12
1006.439	2.12
1007.163	-1.88
1007.887	-1.88
1008.611	0.12
1009.334	-0.88
1010.058	0.12
1010.781	3.12
1011.504	3.12
1012.228	0.12
1012.951	1.12
1013.674	0.12
1014.397	-1.88
1015.12	1.12
