节点500_285_QEPB04081__265__14-59-57-868.txt的数据

Date: Wed Nov 12 14:59:57 CST 2025
User: PC
Spectrometer: QEPB0408
触发模式: 0
积分时间 (秒): 1.000000E-2
Scans to average: 1
启用暗噪声校正: true
启用非线性校正: false
滑动平均宽度: 0
X轴模式: Wavelengths
Number of Pixels in Spectrum: 1044
>>>>>Begin Spectral Data<<<<<
220.843	2.5
221.644	1.5
222.444	0.5
223.244	2.5
224.045	1.5
224.845	1.5
225.645	2.5
226.445	2.5
227.245	4.5
228.045	1.5
228.845	2.5
229.645	3.5
230.444	2.5
231.244	1.5
232.043	2.5
232.843	2.5
233.642	4.5
234.442	4.5
235.241	2.5
236.04	2.5
236.839	5.5
237.638	4.5
238.437	3.5
239.236	4.5
240.035	4.5
240.833	7.5
241.632	5.5
242.43	4.5
243.229	3.5
244.027	5.5
244.826	3.5
245.624	6.5
246.422	7.5
247.22	4.5
248.018	5.5
248.816	7.5
249.614	7.5
250.412	7.5
251.21	4.5
252.007	8.5
252.805	6.5
253.602	8.5
254.4	8.5
255.197	9.5
255.994	6.5
256.791	7.5
257.589	7.5
258.386	8.5
259.183	8.5
259.979	11.5
260.776	11.5
261.573	11.5
262.37	10.5
263.166	10.5
263.963	14.5
264.759	11.5
265.556	11.5
266.352	12.5
267.148	13.5
267.944	13.5
268.74	15.5
269.536	16.5
270.332	15.5
271.128	15.5
271.924	15.5
272.719	17.5
273.515	17.5
274.311	16.5
275.106	15.5
275.901	17.5
276.697	21.5
277.492	18.5
278.287	19.5
279.082	16.5
279.877	19.5
280.672	17.5
281.467	21.5
282.262	18.5
283.056	19.5
283.851	19.5
284.646	21.5
285.44	19.5
286.234	19.5
287.029	17.5
287.823	17.5
288.617	18.5
289.411	18.5
290.205	17.5
290.999	16.5
291.793	19.5
292.587	19.5
293.381	19.5
294.174	16.5
294.968	17.5
295.761	20.5
296.555	10.5
297.348	13.5
298.141	13.5
298.935	16.5
299.728	15.5
300.521	13.5
301.314	13.5
302.107	15.5
302.899	16.5
303.692	13.5
304.485	11.5
305.277	14.5
306.07	11.5
306.862	15.5
307.655	10.5
308.447	12.5
309.239	13.5
310.031	10.5
310.823	13.5
311.615	10.5
312.407	10.5
313.199	11.5
313.991	9.5
314.783	9.5
315.574	9.5
316.366	8.5
317.157	7.5
317.949	8.5
318.74	9.5
319.531	7.5
320.322	8.5
321.113	7.5
321.904	9.5
322.695	8.5
323.486	9.5
324.277	8.5
325.068	5.5
325.858	8.5
326.649	8.5
327.439	9.5
328.23	6.5
329.02	5.5
329.81	5.5
330.6	5.5
331.391	5.5
332.181	7.5
332.971	5.5
333.76	5.5
334.55	6.5
335.34	8.5
336.13	6.5
336.919	7.5
337.709	5.5
338.498	6.5
339.287	6.5
340.077	6.5
340.866	7.5
341.655	7.5
342.444	4.5
343.233	7.5
344.022	5.5
344.811	6.5
345.6	7.5
346.388	7.5
347.177	6.5
347.965	5.5
348.754	9.5
349.542	6.5
350.33	7.5
351.119	6.5
351.907	6.5
352.695	7.5
353.483	5.5
354.271	7.5
355.059	3.5
355.846	5.5
356.634	8.5
357.422	5.5
358.209	3.5
358.997	3.5
359.784	7.5
360.571	7.5
361.359	4.5
362.146	3.5
362.933	5.5
363.72	4.5
364.507	6.5
365.294	6.5
366.081	5.5
366.867	5.5
367.654	4.5
368.44	2.5
369.227	5.5
370.013	6.5
370.8	1.5
371.586	4.5
372.372	4.5
373.158	5.5
373.944	3.5
374.73	6.5
375.516	5.5
376.302	5.5
377.088	5.5
377.873	3.5
378.659	6.5
379.445	5.5
380.23	3.5
381.015	6.5
381.801	4.5
382.586	6.5
383.371	4.5
384.156	5.5
384.941	5.5
385.726	5.5
386.511	7.5
387.296	5.5
388.08	4.5
388.865	4.5
389.649	6.5
390.434	6.5
391.218	6.5
392.003	5.5
392.787	5.5
393.571	8.5
394.355	5.5
395.139	4.5
395.923	7.5
396.707	7.5
397.491	7.5
398.274	5.5
399.058	8.5
399.842	7.5
400.625	8.5
401.408	6.5
402.192	7.5
402.975	7.5
403.758	6.5
404.541	6.5
405.324	7.5
406.107	6.5
406.89	5.5
407.673	7.5
408.456	8.5
409.238	7.5
410.021	7.5
410.803	6.5
411.586	6.5
412.368	8.5
413.151	5.5
413.933	10.5
414.715	8.5
415.497	8.5
416.279	7.5
417.061	6.5
417.843	11.5
418.624	9.5
419.406	9.5
420.188	10.5
420.969	10.5
421.751	8.5
422.532	11.5
423.313	12.5
424.095	11.5
424.876	12.5
425.657	12.5
426.438	10.5
427.219	14.5
428	13.5
428.78	13.5
429.561	13.5
430.342	11.5
431.122	16.5
431.903	13.5
432.683	15.5
433.464	17.5
434.244	17.5
435.024	16.5
435.804	14.5
436.584	17.5
437.364	17.5
438.144	18.5
438.924	21.5
439.704	21.5
440.483	22.5
441.263	24.5
442.042	27.5
442.822	23.5
443.601	30.5
444.38	27.5
445.16	32.5
445.939	35.5
446.718	32.5
447.497	39.5
448.276	42.5
449.054	43.5
449.833	47.5
450.612	49.5
451.391	56.5
452.169	60.5
452.948	69.5
453.726	73.5
454.504	83.5
455.282	84.5
456.061	97.5
456.839	105.5
457.617	118.5
458.395	137.5
459.172	143.5
459.95	162.5
460.728	185.5
461.506	207.5
462.283	225.5
463.061	253.5
463.838	289.5
464.615	321.5
465.393	361.5
466.17	394.5
466.947	438.5
467.724	493.5
468.501	552.5
469.278	599.5
470.055	682.5
470.831	761.5
471.608	845.5
472.385	936.5
473.161	1055.5
473.938	1156.5
474.714	1297.5
475.49	1429.5
476.266	1568.5
477.043	1739.5
477.819	1913.5
478.595	2132.5
479.371	2355.5
480.146	2582.5
480.922	2861.5
481.698	3164.5
482.473	3505.5
483.249	3829.5
484.024	4208.5
484.8	4645.5
485.575	5121.5
486.35	5620.5
487.126	6186.5
487.901	6784.5
488.676	7452.5
489.451	8167.5
490.225	8902.5
491	9778.5
491.775	10719.5
492.55	11681.5
493.324	12674.5
494.099	13650.5
494.873	14733.5
495.647	15859.5
496.422	17074.5
497.196	18221.5
497.97	19493.5
498.744	20669.5
499.518	21859.5
500.292	23041.5
501.066	24148.5
501.839	25138.5
502.613	25995.5
503.387	26776.5
504.16	27305.5
504.934	27609.5
505.707	27786.5
506.48	27723.5
507.253	27629.5
508.027	27358.5
508.8	27071.5
509.573	26510.5
510.346	25918.5
511.118	25033.5
511.891	24185.5
512.664	23376.5
513.437	22435.5
514.209	21522.5
514.982	20632.5
515.754	19730.5
516.526	18853.5
517.298	17971.5
518.071	17136.5
518.843	16549.5
519.615	15920.5
520.387	15329.5
521.159	14698.5
521.93	14115.5
522.702	13544.5
523.474	12961.5
524.245	12397.5
525.017	11878.5
525.788	11424.5
526.56	10905.5
527.331	10418.5
528.102	9887.5
528.873	9456.5
529.644	8974.5
530.415	8503.5
531.186	8094.5
531.957	7667.5
532.728	7272.5
533.498	6887.5
534.269	6498.5
535.039	6159.5
535.81	5809.5
536.58	5509.5
537.351	5149.5
538.121	4872.5
538.891	4611.5
539.661	4370.5
540.431	4133.5
541.201	3901.5
541.971	3689.5
542.741	3512.5
543.51	3329.5
544.28	3190.5
545.05	3017.5
545.819	2843.5
546.588	2702.5
547.358	2593.5
548.127	2450.5
548.896	2331.5
549.665	2239.5
550.434	2105.5
551.203	1980.5
551.972	1885.5
552.741	1767.5
553.51	1671.5
554.278	1578.5
555.047	1488.5
555.815	1396.5
556.584	1325.5
557.352	1254.5
558.121	1178.5
558.889	1110.5
559.657	1057.5
560.425	1000.5
561.193	937.5
561.961	883.5
562.729	831.5
563.496	782.5
564.264	746.5
565.032	708.5
565.799	674.5
566.567	622.5
567.334	595.5
568.101	565.5
568.869	543.5
569.636	503.5
570.403	470.5
571.17	450.5
571.937	423.5
572.704	392.5
573.471	375.5
574.237	359.5
575.004	335.5
575.771	310.5
576.537	295.5
577.303	280.5
578.07	261.5
578.836	242.5
579.602	234.5
580.368	217.5
581.134	208.5
581.9	196.5
582.666	187.5
583.432	177.5
584.198	170.5
584.964	165.5
585.729	150.5
586.495	143.5
587.26	136.5
588.025	130.5
588.791	121.5
589.556	112.5
590.321	111.5
591.086	101.5
591.851	105.5
592.616	94.5
593.381	90.5
594.146	84.5
594.911	81.5
595.675	78.5
596.44	73.5
597.204	70.5
597.969	65.5
598.733	61.5
599.497	62.5
600.261	61.5
601.025	56.5
601.79	55.5
602.553	53.5
603.317	47.5
604.081	48.5
604.845	44.5
605.609	41.5
606.372	42.5
607.136	39.5
607.899	36.5
608.662	37.5
609.426	33.5
610.189	36.5
610.952	28.5
611.715	29.5
612.478	32.5
613.241	29.5
614.004	30.5
614.767	23.5
615.529	27.5
616.292	25.5
617.055	25.5
617.817	25.5
618.579	22.5
619.342	22.5
620.104	19.5
620.866	22.5
621.628	20.5
622.39	20.5
623.152	17.5
623.914	21.5
624.676	17.5
625.438	18.5
626.199	15.5
626.961	16.5
627.722	14.5
628.484	13.5
629.245	13.5
630.006	12.5
630.768	11.5
631.529	13.5
632.29	13.5
633.051	12.5
633.812	13.5
634.573	13.5
635.333	9.5
636.094	11.5
636.855	11.5
637.615	10.5
638.376	9.5
639.136	11.5
639.896	7.5
640.657	9.5
641.417	8.5
642.177	8.5
642.937	7.5
643.697	9.5
644.457	8.5
645.216	7.5
645.976	9.5
646.736	8.5
647.495	8.5
648.255	9.5
649.014	8.5
649.774	6.5
650.533	7.5
651.292	6.5
652.051	7.5
652.81	7.5
653.569	7.5
654.328	7.5
655.087	5.5
655.846	9.5
656.604	5.5
657.363	6.5
658.121	5.5
658.88	6.5
659.638	6.5
660.397	3.5
661.155	6.5
661.913	5.5
662.671	6.5
663.429	5.5
664.187	4.5
664.945	6.5
665.703	5.5
666.46	5.5
667.218	5.5
667.976	6.5
668.733	4.5
669.49	5.5
670.248	5.5
671.005	3.5
671.762	4.5
672.519	3.5
673.276	6.5
674.033	5.5
674.79	3.5
675.547	3.5
676.304	3.5
677.06	5.5
677.817	1.5
678.574	4.5
679.33	3.5
680.086	2.5
680.843	5.5
681.599	5.5
682.355	3.5
683.111	4.5
683.867	6.5
684.623	5.5
685.379	4.5
686.135	5.5
686.89	5.5
687.646	5.5
688.402	3.5
689.157	3.5
689.912	2.5
690.668	1.5
691.423	4.5
692.178	4.5
692.933	3.5
693.688	4.5
694.443	2.5
695.198	3.5
695.953	2.5
696.708	2.5
697.462	4.5
698.217	3.5
698.972	3.5
699.726	2.5
700.48	3.5
701.235	2.5
701.989	5.5
702.743	3.5
703.497	3.5
704.251	3.5
705.005	5.5
705.759	5.5
706.513	6.5
707.266	5.5
708.02	4.5
708.774	4.5
709.527	5.5
710.28	2.5
711.034	4.5
711.787	4.5
712.54	6.5
713.293	2.5
714.046	2.5
714.799	3.5
715.552	4.5
716.305	2.5
717.058	5.5
717.81	3.5
718.563	5.5
719.315	4.5
720.068	3.5
720.82	3.5
721.573	4.5
722.325	5.5
723.077	3.5
723.829	4.5
724.581	2.5
725.333	5.5
726.085	4.5
726.836	4.5
727.588	4.5
728.34	2.5
729.091	3.5
729.843	5.5
730.594	4.5
731.346	4.5
732.097	3.5
732.848	4.5
733.599	1.5
734.35	3.5
735.101	3.5
735.852	3.5
736.603	5.5
737.354	0.5
738.104	5.5
738.855	4.5
739.605	3.5
740.356	6.5
741.106	3.5
741.856	5.5
742.607	3.5
743.357	4.5
744.107	5.5
744.857	3.5
745.607	5.5
746.357	5.5
747.106	4.5
747.856	6.5
748.606	5.5
749.355	3.5
750.105	5.5
750.854	6.5
751.603	6.5
752.353	5.5
753.102	3.5
753.851	5.5
754.6	3.5
755.349	3.5
756.098	5.5
756.847	5.5
757.595	6.5
758.344	4.5
759.093	6.5
759.841	6.5
760.589	3.5
761.338	6.5
762.086	4.5
762.834	8.5
763.582	7.5
764.331	5.5
765.079	6.5
765.826	6.5
766.574	6.5
767.322	6.5
768.07	6.5
768.817	8.5
769.565	6.5
770.312	6.5
771.06	4.5
771.807	9.5
772.554	6.5
773.302	9.5
774.049	7.5
774.796	7.5
775.543	8.5
776.29	9.5
777.036	8.5
777.783	7.5
778.53	8.5
779.276	9.5
780.023	7.5
780.769	10.5
781.516	9.5
782.262	9.5
783.008	8.5
783.754	9.5
784.5	9.5
785.246	7.5
785.992	9.5
786.738	9.5
787.484	7.5
788.23	7.5
788.975	8.5
789.721	11.5
790.466	9.5
791.212	8.5
791.957	7.5
792.702	7.5
793.447	8.5
794.193	7.5
794.938	11.5
795.683	9.5
796.427	7.5
797.172	8.5
797.917	5.5
798.662	7.5
799.406	6.5
800.151	8.5
800.895	7.5
801.64	4.5
802.384	5.5
803.128	9.5
803.872	4.5
804.616	7.5
805.36	7.5
806.104	8.5
806.848	4.5
807.592	5.5
808.336	5.5
809.079	7.5
809.823	6.5
810.566	4.5
811.31	8.5
812.053	6.5
812.796	5.5
813.539	6.5
814.283	5.5
815.026	4.5
815.769	3.5
816.511	5.5
817.254	6.5
817.997	7.5
818.74	6.5
819.482	3.5
820.225	5.5
820.967	2.5
821.71	2.5
822.452	3.5
823.194	4.5
823.936	3.5
824.678	2.5
825.42	5.5
826.162	2.5
826.904	4.5
827.646	4.5
828.388	1.5
829.129	2.5
829.871	3.5
830.612	2.5
831.354	6.5
832.095	5.5
832.836	3.5
833.577	3.5
834.319	1.5
835.06	3.5
835.801	1.5
836.542	3.5
837.282	3.5
838.023	5.5
838.764	1.5
839.504	6.5
840.245	4.5
840.985	2.5
841.726	2.5
842.466	3.5
843.206	3.5
843.946	1.5
844.687	2.5
845.427	1.5
846.166	2.5
846.906	2.5
847.646	1.5
848.386	4.5
849.125	4.5
849.865	0.5
850.605	3.5
851.344	1.5
852.083	4.5
852.823	1.5
853.562	4.5
854.301	2.5
855.04	2.5
855.779	1.5
856.518	2.5
857.257	0.5
857.995	4.5
858.734	1.5
859.473	0.5
860.211	2.5
860.95	1.5
861.688	1.5
862.426	3.5
863.165	-0.5
863.903	2.5
864.641	2.5
865.379	1.5
866.117	1.5
866.855	1.5
867.593	2.5
868.33	1.5
869.068	2.5
869.806	1.5
870.543	1.5
871.28	3.5
872.018	3.5
872.755	2.5
873.492	1.5
874.229	-1.5
874.967	1.5
875.703	-0.5
876.44	1.5
877.177	1.5
877.914	2.5
878.651	1.5
879.387	-0.5
880.124	2.5
880.86	0.5
881.597	3.5
882.333	-0.5
883.069	-1.5
883.806	1.5
884.542	0.5
885.278	1.5
886.014	1.5
886.749	1.5
887.485	1.5
888.221	0.5
888.957	1.5
889.692	1.5
890.428	3.5
891.163	2.5
891.899	0.5
892.634	1.5
893.369	0.5
894.104	1.5
894.839	1.5
895.574	0.5
896.309	0.5
897.044	0.5
897.779	-0.5
898.514	1.5
899.248	1.5
899.983	-0.5
900.717	2.5
901.452	1.5
902.186	-0.5
902.92	-0.5
903.654	1.5
904.389	-0.5
905.123	-1.5
905.857	1.5
906.59	0.5
907.324	-4.5
908.058	0.5
908.792	-0.5
909.525	-0.5
910.259	-1.5
910.992	1.5
911.726	0.5
912.459	-0.5
913.192	2.5
913.925	0.5
914.658	0.5
915.391	-1.5
916.124	-0.5
916.857	-0.5
917.59	2.5
918.323	0.5
919.055	1.5
919.788	1.5
920.521	1.5
921.253	-0.5
921.985	-0.5
922.718	-0.5
923.45	-0.5
924.182	1.5
924.914	-1.5
925.646	3.5
926.378	1.5
927.11	1.5
927.841	0.5
928.573	-0.5
929.305	-0.5
930.036	0.5
930.768	-0.5
931.499	-0.5
932.23	-1.5
932.962	-0.5
933.693	0.5
934.424	-0.5
935.155	0.5
935.886	-0.5
936.617	0.5
937.348	1.5
938.078	-0.5
938.809	-0.5
939.54	1.5
940.27	-0.5
941.001	1.5
941.731	0.5
942.461	-0.5
943.191	0.5
943.922	0.5
944.652	2.5
945.382	1.5
946.112	-2.5
946.841	-0.5
947.571	-1.5
948.301	1.5
949.031	1.5
949.76	0.5
950.49	0.5
951.219	1.5
951.948	0.5
952.678	-1.5
953.407	-0.5
954.136	0.5
954.865	0.5
955.594	-0.5
956.323	1.5
957.052	1.5
957.78	1.5
958.509	-0.5
959.238	-0.5
959.966	0.5
960.695	0.5
961.423	0.5
962.151	0.5
962.88	-0.5
963.608	1.5
964.336	1.5
965.064	1.5
965.792	0.5
966.52	0.5
967.247	1.5
967.975	0.5
968.703	-1.5
969.43	0.5
970.158	-2.5
970.885	1.5
971.613	1.5
972.34	1.5
973.067	1.5
973.794	-0.5
974.521	0.5
975.248	-0.5
975.975	-2.5
976.702	0.5
977.429	0.5
978.156	-2.5
978.882	-0.5
979.609	1.5
980.335	-2.5
981.062	-0.5
981.788	0.5
982.514	-0.5
983.24	-0.5
983.967	-0.5
984.693	0.5
985.419	1.5
986.144	0.5
986.87	2.5
987.596	-0.5
988.322	1.5
989.047	-0.5
989.773	0.5
990.498	1.5
991.224	-2.5
991.949	0.5
992.674	-0.5
993.399	0.5
994.124	0.5
994.849	-1.5
995.574	1.5
996.299	-0.5
997.024	1.5
997.749	0.5
998.473	-0.5
999.198	0.5
999.922	0.5
1000.647	1.5
1001.371	1.5
1002.095	-0.5
1002.82	-1.5
1003.544	0.5
1004.268	1.5
1004.992	0.5
1005.716	1.5
1006.439	2.5
1007.163	0.5
1007.887	2.5
1008.611	0.5
1009.334	0.5
1010.058	-1.5
1010.781	-0.5
1011.504	1.5
1012.228	1.5
1012.951	1.5
1013.674	-1.5
1014.397	0.5
1015.12	-0.5
