节点500_285_QEPB04081__79__14-56-52-330.txt的数据

Date: Wed Nov 12 14:56:52 CST 2025
User: PC
Spectrometer: QEPB0408
触发模式: 0
积分时间 (秒): 1.000000E-2
Scans to average: 1
启用暗噪声校正: true
启用非线性校正: false
滑动平均宽度: 0
X轴模式: Wavelengths
Number of Pixels in Spectrum: 1044
>>>>>Begin Spectral Data<<<<<
220.843	1.25
221.644	1.25
222.444	0.25
223.244	3.25
224.045	2.25
224.845	3.25
225.645	2.25
226.445	2.25
227.245	1.25
228.045	3.25
228.845	3.25
229.645	1.25
230.444	1.25
231.244	3.25
232.043	5.25
232.843	5.25
233.642	3.25
234.442	6.25
235.241	4.25
236.04	2.25
236.839	5.25
237.638	3.25
238.437	5.25
239.236	6.25
240.035	4.25
240.833	4.25
241.632	4.25
242.43	4.25
243.229	6.25
244.027	6.25
244.826	4.25
245.624	6.25
246.422	7.25
247.22	6.25
248.018	5.25
248.816	7.25
249.614	5.25
250.412	4.25
251.21	5.25
252.007	9.25
252.805	9.25
253.602	7.25
254.4	7.25
255.197	8.25
255.994	8.25
256.791	7.25
257.589	9.25
258.386	8.25
259.183	10.25
259.979	10.25
260.776	13.25
261.573	9.25
262.37	12.25
263.166	11.25
263.963	12.25
264.759	12.25
265.556	14.25
266.352	16.25
267.148	16.25
267.944	13.25
268.74	14.25
269.536	17.25
270.332	15.25
271.128	13.25
271.924	14.25
272.719	16.25
273.515	17.25
274.311	20.25
275.106	19.25
275.901	17.25
276.697	19.25
277.492	17.25
278.287	17.25
279.082	20.25
279.877	18.25
280.672	22.25
281.467	19.25
282.262	17.25
283.056	20.25
283.851	20.25
284.646	20.25
285.44	19.25
286.234	18.25
287.029	20.25
287.823	20.25
288.617	21.25
289.411	20.25
290.205	18.25
290.999	17.25
291.793	20.25
292.587	18.25
293.381	15.25
294.174	16.25
294.968	16.25
295.761	17.25
296.555	16.25
297.348	14.25
298.141	17.25
298.935	17.25
299.728	16.25
300.521	15.25
301.314	13.25
302.107	13.25
302.899	12.25
303.692	13.25
304.485	13.25
305.277	11.25
306.07	10.25
306.862	14.25
307.655	13.25
308.447	13.25
309.239	12.25
310.031	11.25
310.823	10.25
311.615	10.25
312.407	8.25
313.199	12.25
313.991	9.25
314.783	10.25
315.574	9.25
316.366	9.25
317.157	8.25
317.949	6.25
318.74	8.25
319.531	6.25
320.322	8.25
321.113	7.25
321.904	7.25
322.695	10.25
323.486	8.25
324.277	7.25
325.068	8.25
325.858	6.25
326.649	6.25
327.439	7.25
328.23	8.25
329.02	9.25
329.81	7.25
330.6	7.25
331.391	7.25
332.181	7.25
332.971	9.25
333.76	8.25
334.55	6.25
335.34	6.25
336.13	8.25
336.919	6.25
337.709	7.25
338.498	7.25
339.287	8.25
340.077	6.25
340.866	6.25
341.655	7.25
342.444	8.25
343.233	8.25
344.022	7.25
344.811	7.25
345.6	9.25
346.388	5.25
347.177	7.25
347.965	7.25
348.754	5.25
349.542	5.25
350.33	5.25
351.119	9.25
351.907	10.25
352.695	7.25
353.483	8.25
354.271	5.25
355.059	6.25
355.846	6.25
356.634	8.25
357.422	5.25
358.209	4.25
358.997	6.25
359.784	7.25
360.571	7.25
361.359	3.25
362.146	5.25
362.933	4.25
363.72	5.25
364.507	7.25
365.294	5.25
366.081	5.25
366.867	5.25
367.654	4.25
368.44	4.25
369.227	7.25
370.013	6.25
370.8	3.25
371.586	5.25
372.372	6.25
373.158	5.25
373.944	7.25
374.73	6.25
375.516	7.25
376.302	8.25
377.088	5.25
377.873	5.25
378.659	3.25
379.445	6.25
380.23	5.25
381.015	4.25
381.801	2.25
382.586	5.25
383.371	6.25
384.156	3.25
384.941	7.25
385.726	5.25
386.511	5.25
387.296	7.25
388.08	6.25
388.865	7.25
389.649	6.25
390.434	6.25
391.218	3.25
392.003	4.25
392.787	8.25
393.571	7.25
394.355	7.25
395.139	6.25
395.923	7.25
396.707	6.25
397.491	5.25
398.274	6.25
399.058	8.25
399.842	3.25
400.625	4.25
401.408	6.25
402.192	9.25
402.975	7.25
403.758	9.25
404.541	7.25
405.324	8.25
406.107	7.25
406.89	8.25
407.673	7.25
408.456	8.25
409.238	5.25
410.021	10.25
410.803	8.25
411.586	8.25
412.368	7.25
413.151	7.25
413.933	8.25
414.715	8.25
415.497	8.25
416.279	9.25
417.061	9.25
417.843	9.25
418.624	9.25
419.406	13.25
420.188	12.25
420.969	11.25
421.751	9.25
422.532	12.25
423.313	11.25
424.095	13.25
424.876	11.25
425.657	12.25
426.438	10.25
427.219	14.25
428	11.25
428.78	15.25
429.561	13.25
430.342	14.25
431.122	13.25
431.903	15.25
432.683	15.25
433.464	13.25
434.244	18.25
435.024	15.25
435.804	17.25
436.584	18.25
437.364	19.25
438.144	24.25
438.924	23.25
439.704	23.25
440.483	21.25
441.263	25.25
442.042	25.25
442.822	25.25
443.601	28.25
444.38	29.25
445.16	32.25
445.939	32.25
446.718	38.25
447.497	38.25
448.276	42.25
449.054	43.25
449.833	45.25
450.612	54.25
451.391	50.25
452.169	57.25
452.948	62.25
453.726	69.25
454.504	76.25
455.282	85.25
456.061	90.25
456.839	103.25
457.617	114.25
458.395	128.25
459.172	140.25
459.95	157.25
460.728	169.25
461.506	186.25
462.283	215.25
463.061	237.25
463.838	267.25
464.615	309.25
465.393	333.25
466.17	378.25
466.947	417.25
467.724	472.25
468.501	528.25
469.278	576.25
470.055	654.25
470.831	735.25
471.608	815.25
472.385	908.25
473.161	1014.25
473.938	1133.25
474.714	1256.25
475.49	1404.25
476.266	1534.25
477.043	1721.25
477.819	1921.25
478.595	2105.25
479.371	2345.25
480.146	2594.25
480.922	2886.25
481.698	3188.25
482.473	3557.25
483.249	3911.25
484.024	4313.25
484.8	4770.25
485.575	5263.25
486.35	5825.25
487.126	6403.25
487.901	7085.25
488.676	7786.25
489.451	8549.25
490.225	9408.25
491	10289.25
491.775	11260.25
492.55	12315.25
493.324	13370.25
494.099	14485.25
494.873	15584.25
495.647	16901.25
496.422	18159.25
497.196	19442.25
497.97	20726.25
498.744	22078.25
499.518	23233.25
500.292	24420.25
501.066	25512.25
501.839	26416.25
502.613	27319.25
503.387	27956.25
504.16	28492.25
504.934	28721.25
505.707	28743.25
506.48	28623.25
507.253	28462.25
508.027	28005.25
508.8	27491.25
509.573	26834.25
510.346	26087.25
511.118	25234.25
511.891	24238.25
512.664	23315.25
513.437	22287.25
514.209	21355.25
514.982	20377.25
515.754	19423.25
516.526	18590.25
517.298	17771.25
518.071	16953.25
518.843	16284.25
519.615	15668.25
520.387	15093.25
521.159	14461.25
521.93	13849.25
522.702	13347.25
523.474	12813.25
524.245	12206.25
525.017	11709.25
525.788	11236.25
526.56	10713.25
527.331	10229.25
528.102	9712.25
528.873	9267.25
529.644	8783.25
530.415	8373.25
531.186	7892.25
531.957	7453.25
532.728	7057.25
533.498	6715.25
534.269	6287.25
535.039	5953.25
535.81	5581.25
536.58	5307.25
537.351	4983.25
538.121	4729.25
538.891	4475.25
539.661	4213.25
540.431	3989.25
541.201	3759.25
541.971	3561.25
542.741	3377.25
543.51	3218.25
544.28	3067.25
545.05	2881.25
545.819	2779.25
546.588	2639.25
547.358	2489.25
548.127	2372.25
548.896	2254.25
549.665	2138.25
550.434	2009.25
551.203	1900.25
551.972	1813.25
552.741	1704.25
553.51	1622.25
554.278	1513.25
555.047	1411.25
555.815	1363.25
556.584	1269.25
557.352	1208.25
558.121	1138.25
558.889	1059.25
559.657	1009.25
560.425	949.25
561.193	888.25
561.961	850.25
562.729	799.25
563.496	758.25
564.264	719.25
565.032	688.25
565.799	646.25
566.567	610.25
567.334	568.25
568.101	547.25
568.869	517.25
569.636	486.25
570.403	448.25
571.17	427.25
571.937	399.25
572.704	381.25
573.471	357.25
574.237	340.25
575.004	310.25
575.771	300.25
576.537	280.25
577.303	269.25
578.07	256.25
578.836	238.25
579.602	223.25
580.368	216.25
581.134	197.25
581.9	186.25
582.666	181.25
583.432	170.25
584.198	160.25
584.964	152.25
585.729	141.25
586.495	142.25
587.26	127.25
588.025	126.25
588.791	119.25
589.556	112.25
590.321	107.25
591.086	101.25
591.851	93.25
592.616	93.25
593.381	84.25
594.146	80.25
594.911	75.25
595.675	74.25
596.44	71.25
597.204	68.25
597.969	63.25
598.733	60.25
599.497	61.25
600.261	59.25
601.025	56.25
601.79	50.25
602.553	50.25
603.317	46.25
604.081	45.25
604.845	49.25
605.609	43.25
606.372	45.25
607.136	39.25
607.899	37.25
608.662	35.25
609.426	32.25
610.189	32.25
610.952	33.25
611.715	33.25
612.478	26.25
613.241	28.25
614.004	28.25
614.767	23.25
615.529	26.25
616.292	26.25
617.055	23.25
617.817	21.25
618.579	22.25
619.342	22.25
620.104	19.25
620.866	18.25
621.628	20.25
622.39	16.25
623.152	17.25
623.914	17.25
624.676	14.25
625.438	17.25
626.199	16.25
626.961	15.25
627.722	16.25
628.484	16.25
629.245	12.25
630.006	12.25
630.768	14.25
631.529	11.25
632.29	13.25
633.051	13.25
633.812	12.25
634.573	13.25
635.333	9.25
636.094	13.25
636.855	13.25
637.615	8.25
638.376	10.25
639.136	11.25
639.896	9.25
640.657	10.25
641.417	11.25
642.177	8.25
642.937	10.25
643.697	10.25
644.457	8.25
645.216	9.25
645.976	9.25
646.736	9.25
647.495	9.25
648.255	7.25
649.014	9.25
649.774	6.25
650.533	9.25
651.292	9.25
652.051	6.25
652.81	8.25
653.569	6.25
654.328	5.25
655.087	7.25
655.846	6.25
656.604	6.25
657.363	5.25
658.121	9.25
658.88	7.25
659.638	6.25
660.397	4.25
661.155	5.25
661.913	5.25
662.671	2.25
663.429	7.25
664.187	6.25
664.945	4.25
665.703	7.25
666.46	4.25
667.218	4.25
667.976	3.25
668.733	6.25
669.49	5.25
670.248	5.25
671.005	4.25
671.762	2.25
672.519	4.25
673.276	6.25
674.033	2.25
674.79	5.25
675.547	4.25
676.304	4.25
677.06	2.25
677.817	3.25
678.574	6.25
679.33	3.25
680.086	4.25
680.843	4.25
681.599	5.25
682.355	3.25
683.111	4.25
683.867	4.25
684.623	3.25
685.379	3.25
686.135	2.25
686.89	5.25
687.646	5.25
688.402	5.25
689.157	7.25
689.912	1.25
690.668	5.25
691.423	3.25
692.178	5.25
692.933	3.25
693.688	5.25
694.443	2.25
695.198	5.25
695.953	5.25
696.708	3.25
697.462	3.25
698.217	5.25
698.972	6.25
699.726	4.25
700.48	3.25
701.235	4.25
701.989	3.25
702.743	5.25
703.497	1.25
704.251	4.25
705.005	5.25
705.759	4.25
706.513	3.25
707.266	1.25
708.02	4.25
708.774	1.25
709.527	5.25
710.28	4.25
711.034	4.25
711.787	4.25
712.54	5.25
713.293	2.25
714.046	4.25
714.799	1.25
715.552	4.25
716.305	4.25
717.058	4.25
717.81	5.25
718.563	4.25
719.315	3.25
720.068	-0.75
720.82	5.25
721.573	5.25
722.325	1.25
723.077	4.25
723.829	3.25
724.581	6.25
725.333	1.25
726.085	1.25
726.836	4.25
727.588	4.25
728.34	4.25
729.091	5.25
729.843	5.25
730.594	7.25
731.346	1.25
732.097	4.25
732.848	4.25
733.599	5.25
734.35	5.25
735.101	5.25
735.852	5.25
736.603	4.25
737.354	4.25
738.104	3.25
738.855	4.25
739.605	6.25
740.356	5.25
741.106	4.25
741.856	6.25
742.607	4.25
743.357	7.25
744.107	3.25
744.857	5.25
745.607	6.25
746.357	5.25
747.106	5.25
747.856	6.25
748.606	5.25
749.355	6.25
750.105	4.25
750.854	6.25
751.603	4.25
752.353	7.25
753.102	6.25
753.851	9.25
754.6	5.25
755.349	6.25
756.098	7.25
756.847	4.25
757.595	6.25
758.344	3.25
759.093	8.25
759.841	5.25
760.589	7.25
761.338	5.25
762.086	7.25
762.834	8.25
763.582	6.25
764.331	9.25
765.079	9.25
765.826	6.25
766.574	9.25
767.322	6.25
768.07	6.25
768.817	9.25
769.565	9.25
770.312	10.25
771.06	8.25
771.807	9.25
772.554	9.25
773.302	11.25
774.049	8.25
774.796	9.25
775.543	7.25
776.29	9.25
777.036	9.25
777.783	8.25
778.53	11.25
779.276	8.25
780.023	8.25
780.769	10.25
781.516	5.25
782.262	9.25
783.008	11.25
783.754	6.25
784.5	9.25
785.246	10.25
785.992	8.25
786.738	10.25
787.484	11.25
788.23	8.25
788.975	11.25
789.721	11.25
790.466	8.25
791.212	9.25
791.957	8.25
792.702	8.25
793.447	7.25
794.193	8.25
794.938	11.25
795.683	8.25
796.427	12.25
797.172	8.25
797.917	7.25
798.662	8.25
799.406	8.25
800.151	9.25
800.895	10.25
801.64	7.25
802.384	9.25
803.128	8.25
803.872	8.25
804.616	7.25
805.36	8.25
806.104	6.25
806.848	5.25
807.592	6.25
808.336	6.25
809.079	7.25
809.823	5.25
810.566	6.25
811.31	5.25
812.053	5.25
812.796	6.25
813.539	8.25
814.283	9.25
815.026	5.25
815.769	5.25
816.511	7.25
817.254	7.25
817.997	7.25
818.74	5.25
819.482	5.25
820.225	4.25
820.967	5.25
821.71	4.25
822.452	5.25
823.194	5.25
823.936	6.25
824.678	2.25
825.42	6.25
826.162	4.25
826.904	5.25
827.646	3.25
828.388	5.25
829.129	4.25
829.871	4.25
830.612	5.25
831.354	5.25
832.095	3.25
832.836	4.25
833.577	3.25
834.319	5.25
835.06	3.25
835.801	3.25
836.542	2.25
837.282	5.25
838.023	4.25
838.764	3.25
839.504	5.25
840.245	2.25
840.985	4.25
841.726	3.25
842.466	1.25
843.206	3.25
843.946	3.25
844.687	4.25
845.427	3.25
846.166	2.25
846.906	4.25
847.646	2.25
848.386	2.25
849.125	1.25
849.865	5.25
850.605	2.25
851.344	2.25
852.083	3.25
852.823	2.25
853.562	5.25
854.301	1.25
855.04	1.25
855.779	1.25
856.518	1.25
857.257	4.25
857.995	1.25
858.734	3.25
859.473	2.25
860.211	3.25
860.95	1.25
861.688	3.25
862.426	3.25
863.165	2.25
863.903	1.25
864.641	2.25
865.379	0.25
866.117	1.25
866.855	2.25
867.593	3.25
868.33	0.25
869.068	1.25
869.806	0.25
870.543	1.25
871.28	2.25
872.018	1.25
872.755	1.25
873.492	3.25
874.229	3.25
874.967	4.25
875.703	0.25
876.44	1.25
877.177	1.25
877.914	1.25
878.651	1.25
879.387	0.25
880.124	1.25
880.86	3.25
881.597	1.25
882.333	1.25
883.069	1.25
883.806	3.25
884.542	-2.75
885.278	1.25
886.014	2.25
886.749	0.25
887.485	1.25
888.221	0.25
888.957	1.25
889.692	0.25
890.428	2.25
891.163	1.25
891.899	0.25
892.634	2.25
893.369	-0.75
894.104	2.25
894.839	2.25
895.574	-0.75
896.309	0.25
897.044	-0.75
897.779	0.25
898.514	0.25
899.248	1.25
899.983	2.25
900.717	-1.75
901.452	2.25
902.186	1.25
902.92	2.25
903.654	-0.75
904.389	-0.75
905.123	1.25
905.857	1.25
906.59	0.25
907.324	-1.75
908.058	1.25
908.792	1.25
909.525	1.25
910.259	-0.75
910.992	0.25
911.726	0.25
912.459	-0.75
913.192	-2.75
913.925	-0.75
914.658	0.25
915.391	2.25
916.124	0.25
916.857	0.25
917.59	1.25
918.323	-0.75
919.055	0.25
919.788	0.25
920.521	0.25
921.253	1.25
921.985	0.25
922.718	-1.75
923.45	1.25
924.182	1.25
924.914	0.25
925.646	-0.75
926.378	1.25
927.11	-2.75
927.841	2.25
928.573	-0.75
929.305	1.25
930.036	1.25
930.768	0.25
931.499	-0.75
932.23	-0.75
932.962	1.25
933.693	-0.75
934.424	-1.75
935.155	-0.75
935.886	-0.75
936.617	1.25
937.348	-0.75
938.078	0.25
938.809	1.25
939.54	-0.75
940.27	-0.75
941.001	1.25
941.731	1.25
942.461	3.25
943.191	0.25
943.922	-0.75
944.652	0.25
945.382	-0.75
946.112	1.25
946.841	0.25
947.571	-0.75
948.301	2.25
949.031	1.25
949.76	-2.75
950.49	1.25
951.219	-0.75
951.948	0.25
952.678	2.25
953.407	3.25
954.136	0.25
954.865	0.25
955.594	-0.75
956.323	2.25
957.052	0.25
957.78	-0.75
958.509	0.25
959.238	0.25
959.966	-1.75
960.695	0.25
961.423	1.25
962.151	-1.75
962.88	0.25
963.608	0.25
964.336	-1.75
965.064	-0.75
965.792	-0.75
966.52	2.25
967.247	-0.75
967.975	0.25
968.703	0.25
969.43	-2.75
970.158	-0.75
970.885	0.25
971.613	1.25
972.34	-0.75
973.067	-1.75
973.794	2.25
974.521	1.25
975.248	0.25
975.975	-0.75
976.702	2.25
977.429	1.25
978.156	2.25
978.882	2.25
979.609	1.25
980.335	1.25
981.062	0.25
981.788	-0.75
982.514	1.25
983.24	1.25
983.967	1.25
984.693	2.25
985.419	-0.75
986.144	-0.75
986.87	0.25
987.596	0.25
988.322	-0.75
989.047	2.25
989.773	0.25
990.498	1.25
991.224	1.25
991.949	1.25
992.674	1.25
993.399	-0.75
994.124	0.25
994.849	1.25
995.574	1.25
996.299	1.25
997.024	1.25
997.749	-0.75
998.473	-1.75
999.198	0.25
999.922	-0.75
1000.647	-0.75
1001.371	1.25
1002.095	-2.75
1002.82	0.25
1003.544	1.25
1004.268	0.25
1004.992	0.25
1005.716	4.25
1006.439	1.25
1007.163	3.25
1007.887	3.25
1008.611	1.25
1009.334	1.25
1010.058	-0.75
1010.781	1.25
1011.504	-0.75
1012.228	2.25
1012.951	0.25
1013.674	0.25
1014.397	0.25
1015.12	-0.75
