节点500_285_QEPB04081__797__15-08-48-757.txt的数据

Date: Wed Nov 12 15:08:48 CST 2025
User: PC
Spectrometer: QEPB0408
触发模式: 0
积分时间 (秒): 1.000000E-2
Scans to average: 1
启用暗噪声校正: true
启用非线性校正: false
滑动平均宽度: 0
X轴模式: Wavelengths
Number of Pixels in Spectrum: 1044
>>>>>Begin Spectral Data<<<<<
220.843	2.75
221.644	2.75
222.444	1.75
223.244	1.75
224.045	0.75
224.845	3.75
225.645	1.75
226.445	2.75
227.245	2.75
228.045	3.75
228.845	2.75
229.645	5.75
230.444	2.75
231.244	3.75
232.043	3.75
232.843	3.75
233.642	1.75
234.442	2.75
235.241	5.75
236.04	3.75
236.839	5.75
237.638	4.75
238.437	4.75
239.236	2.75
240.035	4.75
240.833	5.75
241.632	4.75
242.43	5.75
243.229	8.75
244.027	3.75
244.826	5.75
245.624	5.75
246.422	5.75
247.22	5.75
248.018	5.75
248.816	4.75
249.614	7.75
250.412	9.75
251.21	7.75
252.007	8.75
252.805	4.75
253.602	7.75
254.4	7.75
255.197	7.75
255.994	8.75
256.791	8.75
257.589	9.75
258.386	9.75
259.183	9.75
259.979	12.75
260.776	7.75
261.573	8.75
262.37	11.75
263.166	7.75
263.963	8.75
264.759	9.75
265.556	11.75
266.352	11.75
267.148	11.75
267.944	10.75
268.74	12.75
269.536	11.75
270.332	12.75
271.128	15.75
271.924	12.75
272.719	13.75
273.515	13.75
274.311	15.75
275.106	18.75
275.901	15.75
276.697	15.75
277.492	17.75
278.287	13.75
279.082	15.75
279.877	14.75
280.672	16.75
281.467	18.75
282.262	18.75
283.056	17.75
283.851	18.75
284.646	16.75
285.44	16.75
286.234	16.75
287.029	15.75
287.823	18.75
288.617	17.75
289.411	18.75
290.205	18.75
290.999	16.75
291.793	18.75
292.587	16.75
293.381	14.75
294.174	15.75
294.968	18.75
295.761	16.75
296.555	17.75
297.348	17.75
298.141	15.75
298.935	17.75
299.728	15.75
300.521	15.75
301.314	10.75
302.107	14.75
302.899	13.75
303.692	12.75
304.485	13.75
305.277	15.75
306.07	13.75
306.862	12.75
307.655	14.75
308.447	12.75
309.239	12.75
310.031	13.75
310.823	11.75
311.615	11.75
312.407	11.75
313.199	8.75
313.991	9.75
314.783	11.75
315.574	8.75
316.366	11.75
317.157	8.75
317.949	8.75
318.74	6.75
319.531	8.75
320.322	6.75
321.113	8.75
321.904	8.75
322.695	9.75
323.486	7.75
324.277	9.75
325.068	5.75
325.858	9.75
326.649	5.75
327.439	9.75
328.23	7.75
329.02	6.75
329.81	6.75
330.6	6.75
331.391	8.75
332.181	7.75
332.971	8.75
333.76	7.75
334.55	7.75
335.34	8.75
336.13	6.75
336.919	7.75
337.709	7.75
338.498	7.75
339.287	8.75
340.077	5.75
340.866	6.75
341.655	5.75
342.444	8.75
343.233	4.75
344.022	7.75
344.811	5.75
345.6	5.75
346.388	6.75
347.177	5.75
347.965	5.75
348.754	6.75
349.542	8.75
350.33	7.75
351.119	4.75
351.907	4.75
352.695	6.75
353.483	5.75
354.271	5.75
355.059	7.75
355.846	7.75
356.634	4.75
357.422	7.75
358.209	6.75
358.997	6.75
359.784	5.75
360.571	6.75
361.359	6.75
362.146	4.75
362.933	4.75
363.72	6.75
364.507	4.75
365.294	8.75
366.081	4.75
366.867	7.75
367.654	4.75
368.44	4.75
369.227	6.75
370.013	5.75
370.8	6.75
371.586	2.75
372.372	3.75
373.158	4.75
373.944	4.75
374.73	7.75
375.516	5.75
376.302	5.75
377.088	3.75
377.873	4.75
378.659	5.75
379.445	5.75
380.23	4.75
381.015	3.75
381.801	5.75
382.586	5.75
383.371	5.75
384.156	5.75
384.941	5.75
385.726	5.75
386.511	6.75
387.296	6.75
388.08	4.75
388.865	6.75
389.649	5.75
390.434	2.75
391.218	3.75
392.003	4.75
392.787	5.75
393.571	2.75
394.355	5.75
395.139	7.75
395.923	6.75
396.707	5.75
397.491	6.75
398.274	7.75
399.058	10.75
399.842	8.75
400.625	6.75
401.408	7.75
402.192	10.75
402.975	6.75
403.758	6.75
404.541	2.75
405.324	7.75
406.107	7.75
406.89	7.75
407.673	8.75
408.456	6.75
409.238	5.75
410.021	8.75
410.803	9.75
411.586	10.75
412.368	10.75
413.151	7.75
413.933	8.75
414.715	7.75
415.497	8.75
416.279	10.75
417.061	9.75
417.843	8.75
418.624	11.75
419.406	9.75
420.188	10.75
420.969	10.75
421.751	11.75
422.532	10.75
423.313	11.75
424.095	10.75
424.876	14.75
425.657	11.75
426.438	13.75
427.219	11.75
428	12.75
428.78	9.75
429.561	14.75
430.342	9.75
431.122	12.75
431.903	13.75
432.683	13.75
433.464	14.75
434.244	14.75
435.024	16.75
435.804	18.75
436.584	18.75
437.364	18.75
438.144	20.75
438.924	19.75
439.704	22.75
440.483	22.75
441.263	22.75
442.042	25.75
442.822	29.75
443.601	26.75
444.38	30.75
445.16	33.75
445.939	34.75
446.718	36.75
447.497	39.75
448.276	44.75
449.054	48.75
449.833	52.75
450.612	59.75
451.391	65.75
452.169	67.75
452.948	73.75
453.726	82.75
454.504	92.75
455.282	100.75
456.061	111.75
456.839	121.75
457.617	136.75
458.395	150.75
459.172	170.75
459.95	185.75
460.728	200.75
461.506	227.75
462.283	257.75
463.061	287.75
463.838	326.75
464.615	360.75
465.393	399.75
466.17	443.75
466.947	484.75
467.724	541.75
468.501	610.75
469.278	660.75
470.055	743.75
470.831	812.75
471.608	901.75
472.385	1002.75
473.161	1099.75
473.938	1203.75
474.714	1329.75
475.49	1465.75
476.266	1620.75
477.043	1778.75
477.819	1932.75
478.595	2117.75
479.371	2346.75
480.146	2554.75
480.922	2773.75
481.698	3045.75
482.473	3326.75
483.249	3626.75
484.024	3968.75
484.8	4377.75
485.575	4753.75
486.35	5163.75
487.126	5610.75
487.901	6117.75
488.676	6645.75
489.451	7247.75
490.225	7846.75
491	8506.75
491.775	9272.75
492.55	10030.75
493.324	10858.75
494.099	11655.75
494.873	12480.75
495.647	13450.75
496.422	14395.75
497.196	15426.75
497.97	16477.75
498.744	17440.75
499.518	18488.75
500.292	19472.75
501.066	20485.75
501.839	21484.75
502.613	22336.75
503.387	23135.75
504.16	23864.75
504.934	24330.75
505.707	24670.75
506.48	24927.75
507.253	25126.75
508.027	25097.75
508.8	25079.75
509.573	24914.75
510.346	24546.75
511.118	24089.75
511.891	23491.75
512.664	22820.75
513.437	22190.75
514.209	21428.75
514.982	20625.75
515.754	19816.75
516.526	19045.75
517.298	18284.75
518.071	17505.75
518.843	16825.75
519.615	16272.75
520.387	15609.75
521.159	15002.75
521.93	14382.75
522.702	13868.75
523.474	13257.75
524.245	12676.75
525.017	12153.75
525.788	11716.75
526.56	11217.75
527.331	10663.75
528.102	10265.75
528.873	9783.75
529.644	9380.75
530.415	8926.75
531.186	8500.75
531.957	8098.75
532.728	7729.75
533.498	7313.75
534.269	6917.75
535.039	6589.75
535.81	6226.75
536.58	5853.75
537.351	5537.75
538.121	5262.75
538.891	4976.75
539.661	4700.75
540.431	4450.75
541.201	4228.75
541.971	3998.75
542.741	3764.75
543.51	3581.75
544.28	3436.75
545.05	3217.75
545.819	3111.75
546.588	2930.75
547.358	2798.75
548.127	2636.75
548.896	2525.75
549.665	2400.75
550.434	2261.75
551.203	2131.75
551.972	2050.75
552.741	1929.75
553.51	1816.75
554.278	1729.75
555.047	1628.75
555.815	1561.75
556.584	1465.75
557.352	1378.75
558.121	1294.75
558.889	1226.75
559.657	1167.75
560.425	1108.75
561.193	1033.75
561.961	992.75
562.729	937.75
563.496	881.75
564.264	830.75
565.032	778.75
565.799	752.75
566.567	706.75
567.334	664.75
568.101	620.75
568.869	586.75
569.636	549.75
570.403	519.75
571.17	497.75
571.937	466.75
572.704	440.75
573.471	423.75
574.237	394.75
575.004	367.75
575.771	341.75
576.537	324.75
577.303	312.75
578.07	291.75
578.836	270.75
579.602	258.75
580.368	248.75
581.134	229.75
581.9	218.75
582.666	209.75
583.432	202.75
584.198	190.75
584.964	180.75
585.729	166.75
586.495	157.75
587.26	150.75
588.025	142.75
588.791	134.75
589.556	129.75
590.321	124.75
591.086	120.75
591.851	110.75
592.616	102.75
593.381	100.75
594.146	94.75
594.911	89.75
595.675	84.75
596.44	78.75
597.204	77.75
597.969	72.75
598.733	73.75
599.497	68.75
600.261	66.75
601.025	59.75
601.79	59.75
602.553	56.75
603.317	52.75
604.081	51.75
604.845	50.75
605.609	46.75
606.372	45.75
607.136	46.75
607.899	40.75
608.662	40.75
609.426	38.75
610.189	35.75
610.952	34.75
611.715	33.75
612.478	31.75
613.241	31.75
614.004	31.75
614.767	29.75
615.529	30.75
616.292	28.75
617.055	29.75
617.817	23.75
618.579	23.75
619.342	22.75
620.104	21.75
620.866	23.75
621.628	23.75
622.39	20.75
623.152	21.75
623.914	19.75
624.676	16.75
625.438	19.75
626.199	19.75
626.961	14.75
627.722	14.75
628.484	13.75
629.245	15.75
630.006	14.75
630.768	15.75
631.529	13.75
632.29	12.75
633.051	13.75
633.812	14.75
634.573	11.75
635.333	11.75
636.094	8.75
636.855	11.75
637.615	10.75
638.376	11.75
639.136	10.75
639.896	11.75
640.657	8.75
641.417	9.75
642.177	9.75
642.937	9.75
643.697	9.75
644.457	6.75
645.216	9.75
645.976	9.75
646.736	11.75
647.495	10.75
648.255	5.75
649.014	7.75
649.774	7.75
650.533	6.75
651.292	5.75
652.051	7.75
652.81	6.75
653.569	8.75
654.328	7.75
655.087	5.75
655.846	6.75
656.604	5.75
657.363	8.75
658.121	5.75
658.88	6.75
659.638	6.75
660.397	5.75
661.155	5.75
661.913	5.75
662.671	5.75
663.429	6.75
664.187	6.75
664.945	4.75
665.703	3.75
666.46	4.75
667.218	6.75
667.976	5.75
668.733	6.75
669.49	5.75
670.248	2.75
671.005	4.75
671.762	6.75
672.519	6.75
673.276	5.75
674.033	5.75
674.79	3.75
675.547	5.75
676.304	3.75
677.06	4.75
677.817	4.75
678.574	5.75
679.33	5.75
680.086	2.75
680.843	4.75
681.599	2.75
682.355	4.75
683.111	5.75
683.867	4.75
684.623	4.75
685.379	4.75
686.135	4.75
686.89	4.75
687.646	3.75
688.402	2.75
689.157	5.75
689.912	5.75
690.668	4.75
691.423	5.75
692.178	4.75
692.933	4.75
693.688	4.75
694.443	2.75
695.198	4.75
695.953	2.75
696.708	3.75
697.462	2.75
698.217	2.75
698.972	3.75
699.726	3.75
700.48	5.75
701.235	1.75
701.989	2.75
702.743	4.75
703.497	1.75
704.251	4.75
705.005	4.75
705.759	2.75
706.513	4.75
707.266	1.75
708.02	5.75
708.774	2.75
709.527	4.75
710.28	4.75
711.034	3.75
711.787	2.75
712.54	2.75
713.293	5.75
714.046	4.75
714.799	6.75
715.552	4.75
716.305	3.75
717.058	3.75
717.81	4.75
718.563	4.75
719.315	5.75
720.068	3.75
720.82	4.75
721.573	3.75
722.325	4.75
723.077	3.75
723.829	3.75
724.581	3.75
725.333	1.75
726.085	2.75
726.836	2.75
727.588	2.75
728.34	3.75
729.091	4.75
729.843	3.75
730.594	6.75
731.346	3.75
732.097	5.75
732.848	5.75
733.599	4.75
734.35	3.75
735.101	2.75
735.852	5.75
736.603	3.75
737.354	4.75
738.104	4.75
738.855	5.75
739.605	4.75
740.356	4.75
741.106	6.75
741.856	4.75
742.607	2.75
743.357	5.75
744.107	4.75
744.857	4.75
745.607	4.75
746.357	6.75
747.106	5.75
747.856	4.75
748.606	2.75
749.355	7.75
750.105	3.75
750.854	5.75
751.603	4.75
752.353	4.75
753.102	5.75
753.851	7.75
754.6	4.75
755.349	5.75
756.098	5.75
756.847	6.75
757.595	4.75
758.344	3.75
759.093	4.75
759.841	5.75
760.589	5.75
761.338	6.75
762.086	3.75
762.834	7.75
763.582	6.75
764.331	7.75
765.079	5.75
765.826	4.75
766.574	7.75
767.322	7.75
768.07	6.75
768.817	8.75
769.565	7.75
770.312	5.75
771.06	7.75
771.807	7.75
772.554	4.75
773.302	7.75
774.049	10.75
774.796	8.75
775.543	7.75
776.29	7.75
777.036	8.75
777.783	6.75
778.53	5.75
779.276	6.75
780.023	7.75
780.769	8.75
781.516	7.75
782.262	8.75
783.008	7.75
783.754	6.75
784.5	6.75
785.246	6.75
785.992	8.75
786.738	7.75
787.484	8.75
788.23	6.75
788.975	8.75
789.721	7.75
790.466	5.75
791.212	6.75
791.957	8.75
792.702	8.75
793.447	10.75
794.193	8.75
794.938	8.75
795.683	7.75
796.427	6.75
797.172	10.75
797.917	8.75
798.662	7.75
799.406	7.75
800.151	9.75
800.895	6.75
801.64	7.75
802.384	8.75
803.128	9.75
803.872	7.75
804.616	7.75
805.36	9.75
806.104	6.75
806.848	5.75
807.592	5.75
808.336	5.75
809.079	5.75
809.823	7.75
810.566	5.75
811.31	5.75
812.053	6.75
812.796	7.75
813.539	5.75
814.283	8.75
815.026	4.75
815.769	5.75
816.511	3.75
817.254	4.75
817.997	5.75
818.74	6.75
819.482	7.75
820.225	5.75
820.967	5.75
821.71	2.75
822.452	5.75
823.194	2.75
823.936	3.75
824.678	4.75
825.42	3.75
826.162	6.75
826.904	3.75
827.646	5.75
828.388	3.75
829.129	6.75
829.871	4.75
830.612	3.75
831.354	4.75
832.095	1.75
832.836	6.75
833.577	2.75
834.319	3.75
835.06	5.75
835.801	4.75
836.542	5.75
837.282	3.75
838.023	5.75
838.764	6.75
839.504	4.75
840.245	5.75
840.985	4.75
841.726	4.75
842.466	6.75
843.206	4.75
843.946	2.75
844.687	2.75
845.427	4.75
846.166	4.75
846.906	4.75
847.646	4.75
848.386	2.75
849.125	2.75
849.865	4.75
850.605	3.75
851.344	3.75
852.083	4.75
852.823	5.75
853.562	4.75
854.301	3.75
855.04	5.75
855.779	0.75
856.518	2.75
857.257	2.75
857.995	1.75
858.734	3.75
859.473	3.75
860.211	1.75
860.95	2.75
861.688	2.75
862.426	1.75
863.165	1.75
863.903	2.75
864.641	2.75
865.379	1.75
866.117	2.75
866.855	3.75
867.593	2.75
868.33	2.75
869.068	2.75
869.806	1.75
870.543	1.75
871.28	0.75
872.018	2.75
872.755	1.75
873.492	1.75
874.229	2.75
874.967	0.75
875.703	2.75
876.44	2.75
877.177	0.75
877.914	0.75
878.651	3.75
879.387	1.75
880.124	1.75
880.86	-1.25
881.597	-0.25
882.333	1.75
883.069	3.75
883.806	2.75
884.542	1.75
885.278	1.75
886.014	0.75
886.749	1.75
887.485	2.75
888.221	1.75
888.957	0.75
889.692	1.75
890.428	2.75
891.163	1.75
891.899	-0.25
892.634	1.75
893.369	2.75
894.104	3.75
894.839	2.75
895.574	2.75
896.309	1.75
897.044	-0.25
897.779	2.75
898.514	-0.25
899.248	1.75
899.983	0.75
900.717	-0.25
901.452	0.75
902.186	0.75
902.92	4.75
903.654	1.75
904.389	2.75
905.123	1.75
905.857	1.75
906.59	2.75
907.324	0.75
908.058	0.75
908.792	0.75
909.525	2.75
910.259	2.75
910.992	0.75
911.726	0.75
912.459	-0.25
913.192	-0.25
913.925	1.75
914.658	0.75
915.391	1.75
916.124	-0.25
916.857	1.75
917.59	-0.25
918.323	0.75
919.055	-0.25
919.788	-0.25
920.521	-0.25
921.253	1.75
921.985	1.75
922.718	-1.25
923.45	0.75
924.182	-0.25
924.914	-1.25
925.646	0.75
926.378	0.75
927.11	-0.25
927.841	0.75
928.573	0.75
929.305	0.75
930.036	-0.25
930.768	-1.25
931.499	1.75
932.23	2.75
932.962	-1.25
933.693	2.75
934.424	0.75
935.155	-1.25
935.886	-1.25
936.617	1.75
937.348	-0.25
938.078	1.75
938.809	0.75
939.54	0.75
940.27	1.75
941.001	0.75
941.731	-0.25
942.461	1.75
943.191	1.75
943.922	-0.25
944.652	-0.25
945.382	-1.25
946.112	-1.25
946.841	-0.25
947.571	-0.25
948.301	-1.25
949.031	1.75
949.76	0.75
950.49	-2.25
951.219	1.75
951.948	-1.25
952.678	0.75
953.407	0.75
954.136	0.75
954.865	0.75
955.594	1.75
956.323	1.75
957.052	0.75
957.78	1.75
958.509	-0.25
959.238	2.75
959.966	0.75
960.695	1.75
961.423	-0.25
962.151	1.75
962.88	0.75
963.608	2.75
964.336	0.75
965.064	2.75
965.792	1.75
966.52	-0.25
967.247	0.75
967.975	-0.25
968.703	1.75
969.43	1.75
970.158	2.75
970.885	2.75
971.613	-0.25
972.34	0.75
973.067	-0.25
973.794	-1.25
974.521	0.75
975.248	1.75
975.975	-1.25
976.702	-0.25
977.429	1.75
978.156	-1.25
978.882	0.75
979.609	0.75
980.335	1.75
981.062	1.75
981.788	1.75
982.514	2.75
983.24	1.75
983.967	0.75
984.693	2.75
985.419	1.75
986.144	0.75
986.87	0.75
987.596	0.75
988.322	2.75
989.047	3.75
989.773	0.75
990.498	1.75
991.224	1.75
991.949	-0.25
992.674	2.75
993.399	-1.25
994.124	1.75
994.849	0.75
995.574	0.75
996.299	-0.25
997.024	0.75
997.749	2.75
998.473	0.75
999.198	1.75
999.922	0.75
1000.647	-0.25
1001.371	2.75
1002.095	-0.25
1002.82	0.75
1003.544	-3.25
1004.268	0.75
1004.992	1.75
1005.716	1.75
1006.439	0.75
1007.163	2.75
1007.887	4.75
1008.611	2.75
1009.334	0.75
1010.058	-1.25
1010.781	-0.25
1011.504	1.75
1012.228	0.75
1012.951	-0.25
1013.674	0.75
1014.397	-1.25
1015.12	0.75
