节点500_285_QEPB04081__819__15-09-10-725.txt的数据

Date: Wed Nov 12 15:09:10 CST 2025
User: PC
Spectrometer: QEPB0408
触发模式: 0
积分时间 (秒): 1.000000E-2
Scans to average: 1
启用暗噪声校正: true
启用非线性校正: false
滑动平均宽度: 0
X轴模式: Wavelengths
Number of Pixels in Spectrum: 1044
>>>>>Begin Spectral Data<<<<<
220.843	1
221.644	2
222.444	0
223.244	0
224.045	0
224.845	1
225.645	1
226.445	1
227.245	3
228.045	3
228.845	2
229.645	1
230.444	3
231.244	4
232.043	3
232.843	2
233.642	3
234.442	3
235.241	4
236.04	1
236.839	2
237.638	6
238.437	4
239.236	4
240.035	3
240.833	6
241.632	3
242.43	4
243.229	4
244.027	5
244.826	5
245.624	4
246.422	5
247.22	7
248.018	6
248.816	7
249.614	6
250.412	6
251.21	4
252.007	6
252.805	7
253.602	7
254.4	7
255.197	6
255.994	10
256.791	7
257.589	8
258.386	7
259.183	9
259.979	7
260.776	7
261.573	7
262.37	9
263.166	7
263.963	9
264.759	10
265.556	10
266.352	10
267.148	10
267.944	12
268.74	13
269.536	14
270.332	12
271.128	13
271.924	14
272.719	16
273.515	14
274.311	15
275.106	14
275.901	12
276.697	17
277.492	16
278.287	17
279.082	14
279.877	17
280.672	14
281.467	18
282.262	18
283.056	15
283.851	18
284.646	17
285.44	17
286.234	17
287.029	16
287.823	19
288.617	17
289.411	19
290.205	16
290.999	16
291.793	17
292.587	17
293.381	21
294.174	16
294.968	17
295.761	15
296.555	13
297.348	15
298.141	17
298.935	16
299.728	17
300.521	15
301.314	15
302.107	12
302.899	14
303.692	10
304.485	15
305.277	14
306.07	12
306.862	14
307.655	16
308.447	12
309.239	12
310.031	10
310.823	9
311.615	9
312.407	12
313.199	9
313.991	9
314.783	10
315.574	9
316.366	9
317.157	9
317.949	7
318.74	10
319.531	7
320.322	8
321.113	8
321.904	8
322.695	7
323.486	9
324.277	8
325.068	8
325.858	3
326.649	7
327.439	7
328.23	7
329.02	8
329.81	7
330.6	9
331.391	7
332.181	4
332.971	8
333.76	7
334.55	7
335.34	9
336.13	5
336.919	7
337.709	9
338.498	8
339.287	7
340.077	5
340.866	5
341.655	4
342.444	7
343.233	8
344.022	5
344.811	6
345.6	6
346.388	6
347.177	7
347.965	7
348.754	7
349.542	5
350.33	5
351.119	6
351.907	6
352.695	4
353.483	4
354.271	6
355.059	6
355.846	7
356.634	6
357.422	4
358.209	5
358.997	6
359.784	5
360.571	8
361.359	5
362.146	5
362.933	6
363.72	3
364.507	5
365.294	3
366.081	7
366.867	7
367.654	7
368.44	2
369.227	3
370.013	6
370.8	4
371.586	8
372.372	5
373.158	4
373.944	6
374.73	5
375.516	5
376.302	3
377.088	4
377.873	5
378.659	4
379.445	7
380.23	6
381.015	5
381.801	6
382.586	6
383.371	4
384.156	5
384.941	4
385.726	2
386.511	4
387.296	6
388.08	5
388.865	6
389.649	7
390.434	5
391.218	5
392.003	8
392.787	4
393.571	5
394.355	9
395.139	4
395.923	6
396.707	7
397.491	6
398.274	6
399.058	6
399.842	7
400.625	5
401.408	6
402.192	8
402.975	7
403.758	7
404.541	8
405.324	7
406.107	7
406.89	7
407.673	7
408.456	9
409.238	6
410.021	8
410.803	9
411.586	6
412.368	7
413.151	6
413.933	8
414.715	9
415.497	8
416.279	10
417.061	10
417.843	8
418.624	8
419.406	6
420.188	9
420.969	12
421.751	12
422.532	9
423.313	10
424.095	12
424.876	10
425.657	11
426.438	10
427.219	14
428	14
428.78	13
429.561	13
430.342	12
431.122	16
431.903	16
432.683	14
433.464	15
434.244	14
435.024	17
435.804	16
436.584	20
437.364	19
438.144	21
438.924	20
439.704	25
440.483	22
441.263	25
442.042	29
442.822	26
443.601	32
444.38	32
445.16	32
445.939	39
446.718	39
447.497	40
448.276	44
449.054	49
449.833	52
450.612	55
451.391	60
452.169	69
452.948	73
453.726	81
454.504	94
455.282	99
456.061	115
456.839	123
457.617	136
458.395	156
459.172	172
459.95	193
460.728	217
461.506	233
462.283	261
463.061	285
463.838	328
464.615	360
465.393	391
466.17	437
466.947	494
467.724	548
468.501	610
469.278	671
470.055	733
470.831	816
471.608	896
472.385	1016
473.161	1102
473.938	1209
474.714	1331
475.49	1466
476.266	1602
477.043	1773
477.819	1924
478.595	2113
479.371	2332
480.146	2544
480.922	2801
481.698	3053
482.473	3334
483.249	3649
484.024	3963
484.8	4346
485.575	4744
486.35	5136
487.126	5569
487.901	6090
488.676	6622
489.451	7212
490.225	7873
491	8491
491.775	9230
492.55	9971
493.324	10780
494.099	11545
494.873	12388
495.647	13349
496.422	14300
497.196	15290
497.97	16306
498.744	17323
499.518	18362
500.292	19325
501.066	20355
501.839	21262
502.613	22135
503.387	23010
504.16	23658
504.934	24281
505.707	24570
506.48	24861
507.253	24940
508.027	25011
508.8	24998
509.573	24867
510.346	24532
511.118	24026
511.891	23462
512.664	22859
513.437	22173
514.209	21382
514.982	20687
515.754	19836
516.526	19104
517.298	18289
518.071	17516
518.843	16910
519.615	16336
520.387	15658
521.159	14982
521.93	14397
522.702	13853
523.474	13320
524.245	12738
525.017	12224
525.788	11750
526.56	11235
527.331	10701
528.102	10275
528.873	9840
529.644	9380
530.415	8988
531.186	8520
531.957	8089
532.728	7727
533.498	7352
534.269	6996
535.039	6606
535.81	6257
536.58	5913
537.351	5563
538.121	5256
538.891	4984
539.661	4701
540.431	4485
541.201	4211
541.971	4011
542.741	3785
543.51	3605
544.28	3435
545.05	3242
545.819	3117
546.588	2949
547.358	2793
548.127	2663
548.896	2553
549.665	2399
550.434	2281
551.203	2166
551.972	2044
552.741	1920
553.51	1825
554.278	1740
555.047	1635
555.815	1541
556.584	1459
557.352	1379
558.121	1318
558.889	1244
559.657	1165
560.425	1112
561.193	1034
561.961	993
562.729	929
563.496	885
564.264	828
565.032	798
565.799	748
566.567	700
567.334	660
568.101	633
568.869	593
569.636	562
570.403	524
571.17	498
571.937	469
572.704	434
573.471	417
574.237	401
575.004	371
575.771	349
576.537	322
577.303	312
578.07	296
578.836	278
579.602	260
580.368	244
581.134	239
581.9	220
582.666	209
583.432	194
584.198	192
584.964	177
585.729	169
586.495	159
587.26	152
588.025	141
588.791	133
589.556	128
590.321	119
591.086	114
591.851	110
592.616	103
593.381	96
594.146	96
594.911	90
595.675	87
596.44	83
597.204	79
597.969	74
598.733	69
599.497	68
600.261	65
601.025	59
601.79	59
602.553	55
603.317	54
604.081	50
604.845	50
605.609	48
606.372	47
607.136	44
607.899	42
608.662	44
609.426	40
610.189	39
610.952	36
611.715	37
612.478	33
613.241	32
614.004	34
614.767	26
615.529	29
616.292	24
617.055	28
617.817	23
618.579	23
619.342	23
620.104	22
620.866	21
621.628	22
622.39	21
623.152	21
623.914	18
624.676	19
625.438	19
626.199	16
626.961	16
627.722	15
628.484	17
629.245	14
630.006	14
630.768	13
631.529	14
632.29	15
633.051	14
633.812	13
634.573	13
635.333	11
636.094	10
636.855	11
637.615	11
638.376	10
639.136	11
639.896	10
640.657	11
641.417	8
642.177	9
642.937	10
643.697	7
644.457	9
645.216	8
645.976	11
646.736	9
647.495	9
648.255	8
649.014	9
649.774	8
650.533	6
651.292	8
652.051	4
652.81	3
653.569	6
654.328	7
655.087	8
655.846	6
656.604	7
657.363	7
658.121	7
658.88	7
659.638	5
660.397	7
661.155	2
661.913	5
662.671	7
663.429	3
664.187	4
664.945	4
665.703	5
666.46	5
667.218	6
667.976	4
668.733	6
669.49	6
670.248	6
671.005	2
671.762	5
672.519	3
673.276	4
674.033	2
674.79	5
675.547	4
676.304	5
677.06	4
677.817	6
678.574	5
679.33	1
680.086	4
680.843	2
681.599	5
682.355	3
683.111	3
683.867	6
684.623	4
685.379	5
686.135	3
686.89	4
687.646	4
688.402	3
689.157	6
689.912	1
690.668	3
691.423	3
692.178	3
692.933	4
693.688	5
694.443	6
695.198	5
695.953	6
696.708	5
697.462	4
698.217	3
698.972	3
699.726	5
700.48	4
701.235	5
701.989	3
702.743	1
703.497	5
704.251	5
705.005	2
705.759	5
706.513	4
707.266	4
708.02	3
708.774	2
709.527	2
710.28	4
711.034	5
711.787	3
712.54	6
713.293	3
714.046	3
714.799	3
715.552	6
716.305	3
717.058	5
717.81	2
718.563	2
719.315	3
720.068	2
720.82	4
721.573	6
722.325	4
723.077	3
723.829	5
724.581	2
725.333	4
726.085	5
726.836	5
727.588	5
728.34	2
729.091	2
729.843	4
730.594	5
731.346	3
732.097	4
732.848	4
733.599	5
734.35	5
735.101	4
735.852	3
736.603	3
737.354	2
738.104	5
738.855	7
739.605	4
740.356	4
741.106	1
741.856	3
742.607	4
743.357	6
744.107	5
744.857	3
745.607	6
746.357	5
747.106	4
747.856	6
748.606	7
749.355	6
750.105	4
750.854	3
751.603	4
752.353	4
753.102	7
753.851	6
754.6	9
755.349	5
756.098	5
756.847	5
757.595	5
758.344	3
759.093	5
759.841	4
760.589	6
761.338	8
762.086	5
762.834	7
763.582	6
764.331	7
765.079	5
765.826	5
766.574	9
767.322	8
768.07	6
768.817	7
769.565	4
770.312	6
771.06	7
771.807	7
772.554	7
773.302	6
774.049	8
774.796	7
775.543	7
776.29	7
777.036	5
777.783	6
778.53	9
779.276	9
780.023	8
780.769	9
781.516	9
782.262	8
783.008	10
783.754	9
784.5	7
785.246	8
785.992	6
786.738	8
787.484	9
788.23	7
788.975	7
789.721	8
790.466	5
791.212	6
791.957	8
792.702	7
793.447	6
794.193	4
794.938	7
795.683	8
796.427	6
797.172	8
797.917	7
798.662	7
799.406	6
800.151	8
800.895	6
801.64	8
802.384	9
803.128	6
803.872	6
804.616	6
805.36	5
806.104	5
806.848	6
807.592	5
808.336	6
809.079	6
809.823	6
810.566	4
811.31	8
812.053	5
812.796	5
813.539	5
814.283	7
815.026	5
815.769	4
816.511	6
817.254	5
817.997	4
818.74	3
819.482	5
820.225	5
820.967	4
821.71	4
822.452	2
823.194	2
823.936	6
824.678	2
825.42	4
826.162	2
826.904	5
827.646	3
828.388	1
829.129	4
829.871	4
830.612	5
831.354	4
832.095	3
832.836	5
833.577	2
834.319	4
835.06	2
835.801	3
836.542	2
837.282	3
838.023	2
838.764	4
839.504	5
840.245	3
840.985	3
841.726	2
842.466	5
843.206	3
843.946	3
844.687	5
845.427	2
846.166	6
846.906	2
847.646	2
848.386	2
849.125	2
849.865	5
850.605	4
851.344	2
852.083	3
852.823	3
853.562	3
854.301	4
855.04	2
855.779	4
856.518	3
857.257	5
857.995	1
858.734	2
859.473	2
860.211	2
860.95	2
861.688	4
862.426	4
863.165	1
863.903	1
864.641	2
865.379	3
866.117	-1
866.855	2
867.593	2
868.33	0
869.068	2
869.806	2
870.543	2
871.28	4
872.018	3
872.755	2
873.492	1
874.229	2
874.967	2
875.703	1
876.44	2
877.177	1
877.914	0
878.651	2
879.387	1
880.124	0
880.86	1
881.597	3
882.333	1
883.069	1
883.806	1
884.542	0
885.278	2
886.014	1
886.749	1
887.485	2
888.221	2
888.957	-1
889.692	1
890.428	3
891.163	-1
891.899	0
892.634	0
893.369	2
894.104	-1
894.839	2
895.574	2
896.309	1
897.044	3
897.779	1
898.514	-1
899.248	2
899.983	0
900.717	0
901.452	0
902.186	0
902.92	-2
903.654	0
904.389	0
905.123	0
905.857	0
906.59	0
907.324	1
908.058	0
908.792	1
909.525	0
910.259	0
910.992	-1
911.726	-3
912.459	1
913.192	2
913.925	1
914.658	0
915.391	-1
916.124	1
916.857	-2
917.59	2
918.323	2
919.055	1
919.788	0
920.521	1
921.253	2
921.985	1
922.718	2
923.45	-1
924.182	-2
924.914	0
925.646	-2
926.378	1
927.11	0
927.841	2
928.573	1
929.305	0
930.036	0
930.768	1
931.499	0
932.23	-1
932.962	-1
933.693	1
934.424	1
935.155	2
935.886	0
936.617	-2
937.348	2
938.078	2
938.809	1
939.54	0
940.27	-1
941.001	-2
941.731	0
942.461	1
943.191	1
943.922	2
944.652	-2
945.382	-1
946.112	1
946.841	-1
947.571	0
948.301	0
949.031	1
949.76	0
950.49	0
951.219	-1
951.948	0
952.678	1
953.407	-1
954.136	-1
954.865	-2
955.594	3
956.323	0
957.052	1
957.78	0
958.509	-1
959.238	0
959.966	2
960.695	2
961.423	-1
962.151	1
962.88	1
963.608	2
964.336	0
965.064	-3
965.792	1
966.52	1
967.247	2
967.975	2
968.703	-1
969.43	1
970.158	2
970.885	2
971.613	1
972.34	0
973.067	1
973.794	-1
974.521	2
975.248	2
975.975	0
976.702	0
977.429	0
978.156	3
978.882	-1
979.609	1
980.335	1
981.062	1
981.788	1
982.514	1
983.24	1
983.967	0
984.693	3
985.419	1
986.144	2
986.87	0
987.596	1
988.322	1
989.047	-1
989.773	0
990.498	1
991.224	1
991.949	0
992.674	-1
993.399	1
994.124	0
994.849	1
995.574	-1
996.299	2
997.024	1
997.749	0
998.473	0
999.198	1
999.922	1
1000.647	1
1001.371	5
1002.095	-2
1002.82	0
1003.544	-1
1004.268	1
1004.992	0
1005.716	0
1006.439	1
1007.163	2
1007.887	0
1008.611	1
1009.334	0
1010.058	0
1010.781	2
1011.504	0
1012.228	0
1012.951	2
1013.674	-4
1014.397	2
1015.12	-2
