节点500_285_QEPB04081__769__15-08-20-797.txt的数据

Date: Wed Nov 12 15:08:20 CST 2025
User: PC
Spectrometer: QEPB0408
触发模式: 0
积分时间 (秒): 1.000000E-2
Scans to average: 1
启用暗噪声校正: true
启用非线性校正: false
滑动平均宽度: 0
X轴模式: Wavelengths
Number of Pixels in Spectrum: 1044
>>>>>Begin Spectral Data<<<<<
220.843	0.12
221.644	2.12
222.444	1.12
223.244	1.12
224.045	1.12
224.845	3.12
225.645	1.12
226.445	3.12
227.245	2.12
228.045	4.12
228.845	3.12
229.645	6.12
230.444	2.12
231.244	1.12
232.043	4.12
232.843	3.12
233.642	2.12
234.442	4.12
235.241	2.12
236.04	2.12
236.839	2.12
237.638	7.12
238.437	2.12
239.236	4.12
240.035	2.12
240.833	4.12
241.632	2.12
242.43	4.12
243.229	2.12
244.027	4.12
244.826	7.12
245.624	6.12
246.422	6.12
247.22	7.12
248.018	5.12
248.816	7.12
249.614	6.12
250.412	5.12
251.21	9.12
252.007	6.12
252.805	9.12
253.602	3.12
254.4	6.12
255.197	7.12
255.994	8.12
256.791	8.12
257.589	8.12
258.386	10.12
259.183	8.12
259.979	9.12
260.776	9.12
261.573	10.12
262.37	9.12
263.166	9.12
263.963	10.12
264.759	13.12
265.556	9.12
266.352	12.12
267.148	10.12
267.944	11.12
268.74	10.12
269.536	12.12
270.332	12.12
271.128	11.12
271.924	13.12
272.719	13.12
273.515	14.12
274.311	14.12
275.106	14.12
275.901	17.12
276.697	18.12
277.492	16.12
278.287	14.12
279.082	15.12
279.877	16.12
280.672	18.12
281.467	19.12
282.262	17.12
283.056	17.12
283.851	15.12
284.646	17.12
285.44	21.12
286.234	16.12
287.029	16.12
287.823	18.12
288.617	18.12
289.411	17.12
290.205	17.12
290.999	16.12
291.793	17.12
292.587	17.12
293.381	17.12
294.174	18.12
294.968	11.12
295.761	14.12
296.555	17.12
297.348	16.12
298.141	14.12
298.935	17.12
299.728	16.12
300.521	11.12
301.314	16.12
302.107	15.12
302.899	13.12
303.692	14.12
304.485	13.12
305.277	14.12
306.07	11.12
306.862	13.12
307.655	12.12
308.447	13.12
309.239	12.12
310.031	12.12
310.823	11.12
311.615	11.12
312.407	11.12
313.199	10.12
313.991	7.12
314.783	8.12
315.574	8.12
316.366	10.12
317.157	7.12
317.949	8.12
318.74	10.12
319.531	6.12
320.322	11.12
321.113	8.12
321.904	7.12
322.695	7.12
323.486	8.12
324.277	8.12
325.068	7.12
325.858	6.12
326.649	4.12
327.439	6.12
328.23	7.12
329.02	7.12
329.81	8.12
330.6	5.12
331.391	5.12
332.181	7.12
332.971	6.12
333.76	5.12
334.55	6.12
335.34	6.12
336.13	7.12
336.919	9.12
337.709	10.12
338.498	5.12
339.287	5.12
340.077	7.12
340.866	6.12
341.655	8.12
342.444	6.12
343.233	7.12
344.022	7.12
344.811	7.12
345.6	6.12
346.388	7.12
347.177	5.12
347.965	7.12
348.754	8.12
349.542	7.12
350.33	5.12
351.119	5.12
351.907	4.12
352.695	8.12
353.483	5.12
354.271	5.12
355.059	7.12
355.846	8.12
356.634	6.12
357.422	7.12
358.209	7.12
358.997	4.12
359.784	6.12
360.571	5.12
361.359	7.12
362.146	4.12
362.933	4.12
363.72	6.12
364.507	6.12
365.294	9.12
366.081	4.12
366.867	7.12
367.654	4.12
368.44	5.12
369.227	5.12
370.013	5.12
370.8	3.12
371.586	3.12
372.372	7.12
373.158	6.12
373.944	4.12
374.73	4.12
375.516	5.12
376.302	5.12
377.088	6.12
377.873	4.12
378.659	3.12
379.445	1.12
380.23	5.12
381.015	5.12
381.801	4.12
382.586	4.12
383.371	5.12
384.156	5.12
384.941	5.12
385.726	5.12
386.511	6.12
387.296	8.12
388.08	3.12
388.865	4.12
389.649	6.12
390.434	4.12
391.218	7.12
392.003	7.12
392.787	4.12
393.571	6.12
394.355	7.12
395.139	6.12
395.923	4.12
396.707	4.12
397.491	6.12
398.274	4.12
399.058	7.12
399.842	5.12
400.625	6.12
401.408	6.12
402.192	6.12
402.975	5.12
403.758	9.12
404.541	8.12
405.324	7.12
406.107	9.12
406.89	5.12
407.673	10.12
408.456	7.12
409.238	7.12
410.021	9.12
410.803	7.12
411.586	8.12
412.368	10.12
413.151	7.12
413.933	10.12
414.715	7.12
415.497	9.12
416.279	7.12
417.061	9.12
417.843	11.12
418.624	7.12
419.406	14.12
420.188	10.12
420.969	8.12
421.751	10.12
422.532	10.12
423.313	10.12
424.095	12.12
424.876	10.12
425.657	12.12
426.438	14.12
427.219	12.12
428	12.12
428.78	12.12
429.561	13.12
430.342	14.12
431.122	13.12
431.903	14.12
432.683	17.12
433.464	15.12
434.244	15.12
435.024	15.12
435.804	18.12
436.584	21.12
437.364	20.12
438.144	23.12
438.924	23.12
439.704	23.12
440.483	21.12
441.263	24.12
442.042	26.12
442.822	27.12
443.601	26.12
444.38	30.12
445.16	32.12
445.939	36.12
446.718	36.12
447.497	41.12
448.276	46.12
449.054	50.12
449.833	54.12
450.612	59.12
451.391	64.12
452.169	68.12
452.948	76.12
453.726	86.12
454.504	91.12
455.282	98.12
456.061	109.12
456.839	126.12
457.617	138.12
458.395	149.12
459.172	170.12
459.95	187.12
460.728	209.12
461.506	234.12
462.283	258.12
463.061	286.12
463.838	322.12
464.615	353.12
465.393	402.12
466.17	449.12
466.947	492.12
467.724	538.12
468.501	597.12
469.278	676.12
470.055	741.12
470.831	811.12
471.608	898.12
472.385	1000.12
473.161	1098.12
473.938	1209.12
474.714	1319.12
475.49	1469.12
476.266	1615.12
477.043	1760.12
477.819	1930.12
478.595	2138.12
479.371	2342.12
480.146	2550.12
480.922	2787.12
481.698	3070.12
482.473	3313.12
483.249	3650.12
484.024	3973.12
484.8	4349.12
485.575	4748.12
486.35	5163.12
487.126	5611.12
487.901	6120.12
488.676	6677.12
489.451	7292.12
490.225	7918.12
491	8549.12
491.775	9324.12
492.55	10099.12
493.324	10875.12
494.099	11690.12
494.873	12544.12
495.647	13501.12
496.422	14510.12
497.196	15508.12
497.97	16499.12
498.744	17556.12
499.518	18604.12
500.292	19641.12
501.066	20638.12
501.839	21575.12
502.613	22436.12
503.387	23273.12
504.16	23981.12
504.934	24480.12
505.707	24850.12
506.48	25093.12
507.253	25232.12
508.027	25261.12
508.8	25152.12
509.573	24978.12
510.346	24662.12
511.118	24154.12
511.891	23544.12
512.664	22962.12
513.437	22298.12
514.209	21392.12
514.982	20738.12
515.754	19948.12
516.526	19066.12
517.298	18293.12
518.071	17558.12
518.843	16873.12
519.615	16278.12
520.387	15669.12
521.159	15017.12
521.93	14366.12
522.702	13852.12
523.474	13261.12
524.245	12675.12
525.017	12170.12
525.788	11753.12
526.56	11203.12
527.331	10740.12
528.102	10223.12
528.873	9822.12
529.644	9355.12
530.415	8939.12
531.186	8529.12
531.957	8073.12
532.728	7689.12
533.498	7329.12
534.269	6938.12
535.039	6581.12
535.81	6217.12
536.58	5876.12
537.351	5523.12
538.121	5258.12
538.891	4970.12
539.661	4701.12
540.431	4458.12
541.201	4193.12
541.971	3983.12
542.741	3763.12
543.51	3566.12
544.28	3414.12
545.05	3252.12
545.819	3082.12
546.588	2934.12
547.358	2805.12
548.127	2670.12
548.896	2519.12
549.665	2405.12
550.434	2260.12
551.203	2143.12
551.972	2039.12
552.741	1928.12
553.51	1826.12
554.278	1728.12
555.047	1627.12
555.815	1553.12
556.584	1465.12
557.352	1389.12
558.121	1288.12
558.889	1242.12
559.657	1172.12
560.425	1104.12
561.193	1033.12
561.961	977.12
562.729	925.12
563.496	884.12
564.264	829.12
565.032	773.12
565.799	735.12
566.567	703.12
567.334	662.12
568.101	629.12
568.869	589.12
569.636	550.12
570.403	513.12
571.17	486.12
571.937	465.12
572.704	449.12
573.471	417.12
574.237	393.12
575.004	373.12
575.771	348.12
576.537	326.12
577.303	314.12
578.07	293.12
578.836	271.12
579.602	253.12
580.368	240.12
581.134	233.12
581.9	227.12
582.666	209.12
583.432	191.12
584.198	185.12
584.964	182.12
585.729	170.12
586.495	162.12
587.26	151.12
588.025	146.12
588.791	137.12
589.556	131.12
590.321	119.12
591.086	113.12
591.851	110.12
592.616	98.12
593.381	94.12
594.146	94.12
594.911	87.12
595.675	88.12
596.44	85.12
597.204	78.12
597.969	77.12
598.733	69.12
599.497	67.12
600.261	66.12
601.025	61.12
601.79	56.12
602.553	54.12
603.317	51.12
604.081	53.12
604.845	51.12
605.609	49.12
606.372	44.12
607.136	43.12
607.899	41.12
608.662	40.12
609.426	39.12
610.189	37.12
610.952	36.12
611.715	32.12
612.478	33.12
613.241	35.12
614.004	30.12
614.767	30.12
615.529	29.12
616.292	27.12
617.055	29.12
617.817	25.12
618.579	25.12
619.342	21.12
620.104	24.12
620.866	23.12
621.628	24.12
622.39	21.12
623.152	19.12
623.914	20.12
624.676	18.12
625.438	20.12
626.199	18.12
626.961	14.12
627.722	16.12
628.484	15.12
629.245	17.12
630.006	17.12
630.768	13.12
631.529	13.12
632.29	14.12
633.051	14.12
633.812	11.12
634.573	12.12
635.333	13.12
636.094	10.12
636.855	11.12
637.615	8.12
638.376	11.12
639.136	12.12
639.896	11.12
640.657	13.12
641.417	9.12
642.177	7.12
642.937	9.12
643.697	9.12
644.457	10.12
645.216	9.12
645.976	10.12
646.736	8.12
647.495	8.12
648.255	6.12
649.014	9.12
649.774	8.12
650.533	10.12
651.292	6.12
652.051	7.12
652.81	9.12
653.569	6.12
654.328	6.12
655.087	7.12
655.846	8.12
656.604	6.12
657.363	7.12
658.121	7.12
658.88	6.12
659.638	7.12
660.397	6.12
661.155	4.12
661.913	6.12
662.671	5.12
663.429	6.12
664.187	4.12
664.945	7.12
665.703	6.12
666.46	6.12
667.218	5.12
667.976	4.12
668.733	4.12
669.49	5.12
670.248	4.12
671.005	6.12
671.762	5.12
672.519	3.12
673.276	6.12
674.033	3.12
674.79	6.12
675.547	4.12
676.304	5.12
677.06	5.12
677.817	7.12
678.574	3.12
679.33	5.12
680.086	4.12
680.843	4.12
681.599	6.12
682.355	5.12
683.111	4.12
683.867	5.12
684.623	7.12
685.379	4.12
686.135	6.12
686.89	5.12
687.646	3.12
688.402	6.12
689.157	2.12
689.912	5.12
690.668	6.12
691.423	1.12
692.178	2.12
692.933	4.12
693.688	4.12
694.443	2.12
695.198	3.12
695.953	3.12
696.708	4.12
697.462	4.12
698.217	5.12
698.972	4.12
699.726	4.12
700.48	4.12
701.235	2.12
701.989	1.12
702.743	1.12
703.497	4.12
704.251	4.12
705.005	6.12
705.759	2.12
706.513	6.12
707.266	2.12
708.02	6.12
708.774	2.12
709.527	2.12
710.28	2.12
711.034	4.12
711.787	5.12
712.54	1.12
713.293	5.12
714.046	6.12
714.799	3.12
715.552	3.12
716.305	5.12
717.058	3.12
717.81	3.12
718.563	6.12
719.315	4.12
720.068	3.12
720.82	2.12
721.573	3.12
722.325	4.12
723.077	3.12
723.829	4.12
724.581	4.12
725.333	2.12
726.085	4.12
726.836	2.12
727.588	5.12
728.34	5.12
729.091	4.12
729.843	4.12
730.594	4.12
731.346	3.12
732.097	4.12
732.848	5.12
733.599	5.12
734.35	3.12
735.101	5.12
735.852	1.12
736.603	6.12
737.354	5.12
738.104	3.12
738.855	4.12
739.605	4.12
740.356	4.12
741.106	2.12
741.856	6.12
742.607	4.12
743.357	2.12
744.107	4.12
744.857	5.12
745.607	2.12
746.357	4.12
747.106	4.12
747.856	6.12
748.606	4.12
749.355	7.12
750.105	6.12
750.854	3.12
751.603	4.12
752.353	4.12
753.102	3.12
753.851	5.12
754.6	6.12
755.349	7.12
756.098	6.12
756.847	6.12
757.595	7.12
758.344	4.12
759.093	4.12
759.841	5.12
760.589	3.12
761.338	7.12
762.086	4.12
762.834	8.12
763.582	6.12
764.331	6.12
765.079	5.12
765.826	5.12
766.574	6.12
767.322	6.12
768.07	7.12
768.817	8.12
769.565	9.12
770.312	7.12
771.06	7.12
771.807	9.12
772.554	7.12
773.302	6.12
774.049	7.12
774.796	9.12
775.543	7.12
776.29	6.12
777.036	8.12
777.783	8.12
778.53	8.12
779.276	7.12
780.023	5.12
780.769	9.12
781.516	10.12
782.262	8.12
783.008	9.12
783.754	7.12
784.5	8.12
785.246	7.12
785.992	8.12
786.738	9.12
787.484	9.12
788.23	9.12
788.975	5.12
789.721	7.12
790.466	8.12
791.212	7.12
791.957	11.12
792.702	7.12
793.447	10.12
794.193	7.12
794.938	6.12
795.683	7.12
796.427	8.12
797.172	9.12
797.917	9.12
798.662	7.12
799.406	6.12
800.151	8.12
800.895	6.12
801.64	7.12
802.384	6.12
803.128	3.12
803.872	7.12
804.616	6.12
805.36	7.12
806.104	5.12
806.848	6.12
807.592	7.12
808.336	7.12
809.079	6.12
809.823	4.12
810.566	6.12
811.31	6.12
812.053	4.12
812.796	4.12
813.539	5.12
814.283	6.12
815.026	2.12
815.769	5.12
816.511	7.12
817.254	5.12
817.997	4.12
818.74	4.12
819.482	5.12
820.225	3.12
820.967	5.12
821.71	5.12
822.452	3.12
823.194	6.12
823.936	6.12
824.678	4.12
825.42	3.12
826.162	4.12
826.904	4.12
827.646	4.12
828.388	5.12
829.129	5.12
829.871	4.12
830.612	3.12
831.354	4.12
832.095	5.12
832.836	3.12
833.577	4.12
834.319	3.12
835.06	4.12
835.801	4.12
836.542	4.12
837.282	7.12
838.023	3.12
838.764	5.12
839.504	6.12
840.245	2.12
840.985	2.12
841.726	5.12
842.466	6.12
843.206	1.12
843.946	4.12
844.687	2.12
845.427	1.12
846.166	5.12
846.906	2.12
847.646	6.12
848.386	2.12
849.125	4.12
849.865	3.12
850.605	3.12
851.344	2.12
852.083	4.12
852.823	3.12
853.562	2.12
854.301	4.12
855.04	3.12
855.779	1.12
856.518	4.12
857.257	1.12
857.995	1.12
858.734	2.12
859.473	2.12
860.211	1.12
860.95	3.12
861.688	1.12
862.426	2.12
863.165	2.12
863.903	1.12
864.641	3.12
865.379	3.12
866.117	0.12
866.855	0.12
867.593	2.12
868.33	2.12
869.068	-1.88
869.806	2.12
870.543	3.12
871.28	0.12
872.018	2.12
872.755	-1.88
873.492	2.12
874.229	0.12
874.967	2.12
875.703	5.12
876.44	0.12
877.177	1.12
877.914	3.12
878.651	0.12
879.387	2.12
880.124	-1.88
880.86	2.12
881.597	3.12
882.333	2.12
883.069	1.12
883.806	1.12
884.542	1.12
885.278	0.12
886.014	2.12
886.749	0.12
887.485	2.12
888.221	1.12
888.957	0.12
889.692	1.12
890.428	-0.88
891.163	1.12
891.899	0.12
892.634	-0.88
893.369	1.12
894.104	3.12
894.839	-1.88
895.574	1.12
896.309	0.12
897.044	2.12
897.779	0.12
898.514	0.12
899.248	0.12
899.983	1.12
900.717	1.12
901.452	2.12
902.186	1.12
902.92	2.12
903.654	1.12
904.389	0.12
905.123	0.12
905.857	0.12
906.59	2.12
907.324	0.12
908.058	0.12
908.792	0.12
909.525	1.12
910.259	0.12
910.992	0.12
911.726	0.12
912.459	2.12
913.192	-0.88
913.925	1.12
914.658	0.12
915.391	1.12
916.124	0.12
916.857	-0.88
917.59	1.12
918.323	-1.88
919.055	4.12
919.788	0.12
920.521	1.12
921.253	1.12
921.985	-1.88
922.718	0.12
923.45	1.12
924.182	2.12
924.914	1.12
925.646	2.12
926.378	-2.88
927.11	1.12
927.841	-0.88
928.573	-0.88
929.305	1.12
930.036	1.12
930.768	0.12
931.499	1.12
932.23	1.12
932.962	0.12
933.693	-2.88
934.424	1.12
935.155	0.12
935.886	3.12
936.617	1.12
937.348	1.12
938.078	0.12
938.809	-1.88
939.54	1.12
940.27	1.12
941.001	-1.88
941.731	1.12
942.461	-1.88
943.191	2.12
943.922	2.12
944.652	-0.88
945.382	1.12
946.112	1.12
946.841	3.12
947.571	-1.88
948.301	1.12
949.031	-0.88
949.76	0.12
950.49	0.12
951.219	1.12
951.948	0.12
952.678	0.12
953.407	1.12
954.136	0.12
954.865	0.12
955.594	1.12
956.323	-0.88
957.052	1.12
957.78	1.12
958.509	0.12
959.238	1.12
959.966	1.12
960.695	1.12
961.423	0.12
962.151	1.12
962.88	1.12
963.608	1.12
964.336	0.12
965.064	1.12
965.792	0.12
966.52	1.12
967.247	2.12
967.975	2.12
968.703	-1.88
969.43	1.12
970.158	2.12
970.885	-0.88
971.613	-1.88
972.34	-0.88
973.067	0.12
973.794	1.12
974.521	-0.88
975.248	-0.88
975.975	-1.88
976.702	0.12
977.429	2.12
978.156	-0.88
978.882	-0.88
979.609	0.12
980.335	1.12
981.062	2.12
981.788	0.12
982.514	0.12
983.24	2.12
983.967	-1.88
984.693	2.12
985.419	0.12
986.144	-0.88
986.87	1.12
987.596	0.12
988.322	2.12
989.047	2.12
989.773	0.12
990.498	1.12
991.224	1.12
991.949	0.12
992.674	1.12
993.399	0.12
994.124	-1.88
994.849	1.12
995.574	-0.88
996.299	5.12
997.024	1.12
997.749	-0.88
998.473	1.12
999.198	0.12
999.922	-0.88
1000.647	1.12
1001.371	3.12
1002.095	-0.88
1002.82	-1.88
1003.544	-0.88
1004.268	-1.88
1004.992	2.12
1005.716	1.12
1006.439	2.12
1007.163	2.12
1007.887	1.12
1008.611	-0.88
1009.334	1.12
1010.058	0.12
1010.781	2.12
1011.504	1.12
1012.228	-0.88
1012.951	0.12
1013.674	1.12
1014.397	0.12
1015.12	-0.88
