节点500_285_QEPB04081__184__14-58-37-139.txt的数据

Date: Wed Nov 12 14:58:37 CST 2025
User: PC
Spectrometer: QEPB0408
触发模式: 0
积分时间 (秒): 1.000000E-2
Scans to average: 1
启用暗噪声校正: true
启用非线性校正: false
滑动平均宽度: 0
X轴模式: Wavelengths
Number of Pixels in Spectrum: 1044
>>>>>Begin Spectral Data<<<<<
220.843	0.88
221.644	1.88
222.444	3.88
223.244	-0.12
224.045	0.88
224.845	0.88
225.645	0.88
226.445	1.88
227.245	2.88
228.045	2.88
228.845	0.88
229.645	2.88
230.444	1.88
231.244	3.88
232.043	1.88
232.843	0.88
233.642	1.88
234.442	2.88
235.241	3.88
236.04	2.88
236.839	-0.12
237.638	3.88
238.437	4.88
239.236	3.88
240.035	2.88
240.833	3.88
241.632	3.88
242.43	2.88
243.229	4.88
244.027	4.88
244.826	4.88
245.624	1.88
246.422	4.88
247.22	3.88
248.018	2.88
248.816	4.88
249.614	3.88
250.412	4.88
251.21	7.88
252.007	4.88
252.805	4.88
253.602	5.88
254.4	5.88
255.197	6.88
255.994	6.88
256.791	8.88
257.589	8.88
258.386	10.88
259.183	5.88
259.979	11.88
260.776	6.88
261.573	9.88
262.37	9.88
263.166	8.88
263.963	11.88
264.759	9.88
265.556	13.88
266.352	15.88
267.148	13.88
267.944	16.88
268.74	13.88
269.536	15.88
270.332	12.88
271.128	15.88
271.924	15.88
272.719	17.88
273.515	14.88
274.311	15.88
275.106	16.88
275.901	18.88
276.697	15.88
277.492	14.88
278.287	14.88
279.082	18.88
279.877	18.88
280.672	20.88
281.467	17.88
282.262	19.88
283.056	16.88
283.851	15.88
284.646	17.88
285.44	14.88
286.234	17.88
287.029	20.88
287.823	16.88
288.617	17.88
289.411	18.88
290.205	18.88
290.999	18.88
291.793	17.88
292.587	18.88
293.381	14.88
294.174	15.88
294.968	13.88
295.761	15.88
296.555	18.88
297.348	14.88
298.141	16.88
298.935	15.88
299.728	14.88
300.521	13.88
301.314	12.88
302.107	12.88
302.899	13.88
303.692	12.88
304.485	10.88
305.277	9.88
306.07	12.88
306.862	11.88
307.655	11.88
308.447	7.88
309.239	13.88
310.031	10.88
310.823	10.88
311.615	8.88
312.407	8.88
313.199	8.88
313.991	8.88
314.783	8.88
315.574	8.88
316.366	7.88
317.157	7.88
317.949	4.88
318.74	8.88
319.531	7.88
320.322	5.88
321.113	4.88
321.904	4.88
322.695	8.88
323.486	6.88
324.277	7.88
325.068	7.88
325.858	8.88
326.649	6.88
327.439	5.88
328.23	4.88
329.02	8.88
329.81	6.88
330.6	7.88
331.391	5.88
332.181	3.88
332.971	6.88
333.76	5.88
334.55	5.88
335.34	1.88
336.13	8.88
336.919	6.88
337.709	4.88
338.498	6.88
339.287	6.88
340.077	5.88
340.866	4.88
341.655	4.88
342.444	5.88
343.233	4.88
344.022	4.88
344.811	4.88
345.6	6.88
346.388	4.88
347.177	6.88
347.965	5.88
348.754	7.88
349.542	4.88
350.33	3.88
351.119	3.88
351.907	5.88
352.695	4.88
353.483	6.88
354.271	3.88
355.059	5.88
355.846	4.88
356.634	4.88
357.422	4.88
358.209	5.88
358.997	4.88
359.784	5.88
360.571	6.88
361.359	2.88
362.146	6.88
362.933	4.88
363.72	3.88
364.507	4.88
365.294	0.88
366.081	3.88
366.867	5.88
367.654	6.88
368.44	4.88
369.227	4.88
370.013	4.88
370.8	3.88
371.586	5.88
372.372	4.88
373.158	3.88
373.944	4.88
374.73	2.88
375.516	3.88
376.302	6.88
377.088	2.88
377.873	3.88
378.659	2.88
379.445	5.88
380.23	6.88
381.015	4.88
381.801	4.88
382.586	3.88
383.371	5.88
384.156	4.88
384.941	3.88
385.726	5.88
386.511	4.88
387.296	3.88
388.08	5.88
388.865	2.88
389.649	4.88
390.434	4.88
391.218	7.88
392.003	4.88
392.787	6.88
393.571	3.88
394.355	4.88
395.139	5.88
395.923	3.88
396.707	5.88
397.491	6.88
398.274	5.88
399.058	5.88
399.842	4.88
400.625	6.88
401.408	5.88
402.192	6.88
402.975	6.88
403.758	4.88
404.541	7.88
405.324	7.88
406.107	6.88
406.89	7.88
407.673	7.88
408.456	5.88
409.238	6.88
410.021	7.88
410.803	8.88
411.586	8.88
412.368	5.88
413.151	10.88
413.933	8.88
414.715	6.88
415.497	8.88
416.279	8.88
417.061	8.88
417.843	8.88
418.624	8.88
419.406	9.88
420.188	10.88
420.969	12.88
421.751	12.88
422.532	10.88
423.313	9.88
424.095	10.88
424.876	8.88
425.657	11.88
426.438	10.88
427.219	9.88
428	11.88
428.78	14.88
429.561	12.88
430.342	15.88
431.122	13.88
431.903	16.88
432.683	14.88
433.464	16.88
434.244	13.88
435.024	15.88
435.804	17.88
436.584	18.88
437.364	20.88
438.144	21.88
438.924	18.88
439.704	22.88
440.483	21.88
441.263	20.88
442.042	27.88
442.822	25.88
443.601	30.88
444.38	26.88
445.16	29.88
445.939	32.88
446.718	35.88
447.497	38.88
448.276	40.88
449.054	40.88
449.833	43.88
450.612	55.88
451.391	56.88
452.169	62.88
452.948	66.88
453.726	74.88
454.504	76.88
455.282	88.88
456.061	98.88
456.839	106.88
457.617	116.88
458.395	134.88
459.172	138.88
459.95	157.88
460.728	182.88
461.506	196.88
462.283	219.88
463.061	249.88
463.838	279.88
464.615	309.88
465.393	354.88
466.17	383.88
466.947	434.88
467.724	479.88
468.501	530.88
469.278	604.88
470.055	671.88
470.831	742.88
471.608	836.88
472.385	920.88
473.161	1042.88
473.938	1149.88
474.714	1264.88
475.49	1408.88
476.266	1567.88
477.043	1740.88
477.819	1919.88
478.595	2123.88
479.371	2320.88
480.146	2582.88
480.922	2859.88
481.698	3195.88
482.473	3502.88
483.249	3865.88
484.024	4266.88
484.8	4696.88
485.575	5187.88
486.35	5734.88
487.126	6264.88
487.901	6914.88
488.676	7572.88
489.451	8329.88
490.225	9081.88
491	9968.88
491.775	10936.88
492.55	11900.88
493.324	12950.88
494.099	13957.88
494.873	15066.88
495.647	16258.88
496.422	17432.88
497.196	18681.88
497.97	19979.88
498.744	21183.88
499.518	22433.88
500.292	23504.88
501.066	24640.88
501.839	25557.88
502.613	26470.88
503.387	27217.88
504.16	27768.88
504.934	28054.88
505.707	28192.88
506.48	28143.88
507.253	27990.88
508.027	27619.88
508.8	27190.88
509.573	26711.88
510.346	26001.88
511.118	25153.88
511.891	24264.88
512.664	23388.88
513.437	22431.88
514.209	21486.88
514.982	20444.88
515.754	19639.88
516.526	18709.88
517.298	17908.88
518.071	17136.88
518.843	16469.88
519.615	15809.88
520.387	15253.88
521.159	14616.88
521.93	14011.88
522.702	13454.88
523.474	12933.88
524.245	12361.88
525.017	11801.88
525.788	11362.88
526.56	10807.88
527.331	10323.88
528.102	9839.88
528.873	9360.88
529.644	8883.88
530.415	8470.88
531.186	7997.88
531.957	7598.88
532.728	7216.88
533.498	6840.88
534.269	6458.88
535.039	6071.88
535.81	5717.88
536.58	5426.88
537.351	5107.88
538.121	4818.88
538.891	4571.88
539.661	4299.88
540.431	4081.88
541.201	3842.88
541.971	3638.88
542.741	3454.88
543.51	3272.88
544.28	3122.88
545.05	2977.88
545.819	2811.88
546.588	2678.88
547.358	2557.88
548.127	2429.88
548.896	2306.88
549.665	2197.88
550.434	2078.88
551.203	1951.88
551.972	1840.88
552.741	1742.88
553.51	1656.88
554.278	1567.88
555.047	1477.88
555.815	1399.88
556.584	1296.88
557.352	1226.88
558.121	1171.88
558.889	1101.88
559.657	1043.88
560.425	978.88
561.193	911.88
561.961	872.88
562.729	826.88
563.496	775.88
564.264	743.88
565.032	691.88
565.799	649.88
566.567	619.88
567.334	584.88
568.101	554.88
568.869	523.88
569.636	492.88
570.403	462.88
571.17	436.88
571.937	410.88
572.704	399.88
573.471	361.88
574.237	352.88
575.004	327.88
575.771	305.88
576.537	282.88
577.303	270.88
578.07	261.88
578.836	242.88
579.602	224.88
580.368	217.88
581.134	203.88
581.9	193.88
582.666	184.88
583.432	171.88
584.198	171.88
584.964	158.88
585.729	149.88
586.495	140.88
587.26	130.88
588.025	126.88
588.791	119.88
589.556	112.88
590.321	104.88
591.086	104.88
591.851	99.88
592.616	92.88
593.381	84.88
594.146	79.88
594.911	78.88
595.675	78.88
596.44	70.88
597.204	71.88
597.969	65.88
598.733	61.88
599.497	59.88
600.261	55.88
601.025	53.88
601.79	50.88
602.553	48.88
603.317	46.88
604.081	45.88
604.845	42.88
605.609	37.88
606.372	39.88
607.136	40.88
607.899	36.88
608.662	34.88
609.426	32.88
610.189	30.88
610.952	32.88
611.715	28.88
612.478	29.88
613.241	29.88
614.004	28.88
614.767	24.88
615.529	24.88
616.292	26.88
617.055	24.88
617.817	20.88
618.579	23.88
619.342	19.88
620.104	20.88
620.866	18.88
621.628	19.88
622.39	17.88
623.152	16.88
623.914	18.88
624.676	16.88
625.438	16.88
626.199	12.88
626.961	12.88
627.722	14.88
628.484	13.88
629.245	14.88
630.006	12.88
630.768	12.88
631.529	10.88
632.29	12.88
633.051	8.88
633.812	13.88
634.573	10.88
635.333	10.88
636.094	7.88
636.855	9.88
637.615	8.88
638.376	10.88
639.136	8.88
639.896	7.88
640.657	10.88
641.417	8.88
642.177	7.88
642.937	7.88
643.697	6.88
644.457	7.88
645.216	6.88
645.976	6.88
646.736	10.88
647.495	9.88
648.255	6.88
649.014	7.88
649.774	8.88
650.533	6.88
651.292	7.88
652.051	5.88
652.81	5.88
653.569	4.88
654.328	6.88
655.087	6.88
655.846	2.88
656.604	5.88
657.363	4.88
658.121	2.88
658.88	6.88
659.638	4.88
660.397	5.88
661.155	4.88
661.913	2.88
662.671	5.88
663.429	4.88
664.187	6.88
664.945	3.88
665.703	5.88
666.46	5.88
667.218	2.88
667.976	3.88
668.733	2.88
669.49	3.88
670.248	2.88
671.005	4.88
671.762	3.88
672.519	2.88
673.276	4.88
674.033	4.88
674.79	3.88
675.547	4.88
676.304	1.88
677.06	3.88
677.817	2.88
678.574	3.88
679.33	4.88
680.086	2.88
680.843	3.88
681.599	2.88
682.355	4.88
683.111	5.88
683.867	0.88
684.623	2.88
685.379	4.88
686.135	4.88
686.89	0.88
687.646	5.88
688.402	1.88
689.157	2.88
689.912	3.88
690.668	1.88
691.423	4.88
692.178	3.88
692.933	4.88
693.688	2.88
694.443	2.88
695.198	2.88
695.953	2.88
696.708	4.88
697.462	2.88
698.217	1.88
698.972	2.88
699.726	2.88
700.48	2.88
701.235	1.88
701.989	2.88
702.743	1.88
703.497	1.88
704.251	2.88
705.005	1.88
705.759	0.88
706.513	3.88
707.266	0.88
708.02	4.88
708.774	1.88
709.527	2.88
710.28	1.88
711.034	4.88
711.787	1.88
712.54	0.88
713.293	2.88
714.046	2.88
714.799	2.88
715.552	2.88
716.305	1.88
717.058	2.88
717.81	3.88
718.563	4.88
719.315	1.88
720.068	3.88
720.82	4.88
721.573	2.88
722.325	0.88
723.077	1.88
723.829	3.88
724.581	2.88
725.333	0.88
726.085	2.88
726.836	2.88
727.588	3.88
728.34	2.88
729.091	3.88
729.843	3.88
730.594	4.88
731.346	3.88
732.097	3.88
732.848	2.88
733.599	2.88
734.35	4.88
735.101	4.88
735.852	0.88
736.603	4.88
737.354	2.88
738.104	3.88
738.855	3.88
739.605	-0.12
740.356	1.88
741.106	3.88
741.856	4.88
742.607	3.88
743.357	4.88
744.107	3.88
744.857	3.88
745.607	3.88
746.357	1.88
747.106	5.88
747.856	3.88
748.606	4.88
749.355	4.88
750.105	3.88
750.854	5.88
751.603	3.88
752.353	5.88
753.102	4.88
753.851	6.88
754.6	5.88
755.349	1.88
756.098	5.88
756.847	4.88
757.595	5.88
758.344	5.88
759.093	4.88
759.841	4.88
760.589	6.88
761.338	7.88
762.086	7.88
762.834	5.88
763.582	4.88
764.331	3.88
765.079	7.88
765.826	7.88
766.574	7.88
767.322	7.88
768.07	8.88
768.817	8.88
769.565	5.88
770.312	7.88
771.06	4.88
771.807	6.88
772.554	7.88
773.302	5.88
774.049	5.88
774.796	8.88
775.543	9.88
776.29	4.88
777.036	5.88
777.783	10.88
778.53	8.88
779.276	8.88
780.023	7.88
780.769	6.88
781.516	11.88
782.262	7.88
783.008	8.88
783.754	7.88
784.5	8.88
785.246	6.88
785.992	7.88
786.738	9.88
787.484	5.88
788.23	6.88
788.975	8.88
789.721	7.88
790.466	9.88
791.212	8.88
791.957	10.88
792.702	5.88
793.447	7.88
794.193	10.88
794.938	4.88
795.683	5.88
796.427	7.88
797.172	6.88
797.917	8.88
798.662	6.88
799.406	6.88
800.151	5.88
800.895	6.88
801.64	6.88
802.384	6.88
803.128	6.88
803.872	7.88
804.616	5.88
805.36	6.88
806.104	6.88
806.848	6.88
807.592	6.88
808.336	6.88
809.079	3.88
809.823	6.88
810.566	4.88
811.31	3.88
812.053	3.88
812.796	3.88
813.539	3.88
814.283	3.88
815.026	5.88
815.769	4.88
816.511	3.88
817.254	3.88
817.997	3.88
818.74	2.88
819.482	4.88
820.225	2.88
820.967	3.88
821.71	1.88
822.452	6.88
823.194	3.88
823.936	5.88
824.678	3.88
825.42	2.88
826.162	5.88
826.904	1.88
827.646	2.88
828.388	3.88
829.129	3.88
829.871	3.88
830.612	3.88
831.354	4.88
832.095	2.88
832.836	4.88
833.577	1.88
834.319	3.88
835.06	1.88
835.801	0.88
836.542	1.88
837.282	3.88
838.023	0.88
838.764	5.88
839.504	1.88
840.245	2.88
840.985	1.88
841.726	2.88
842.466	0.88
843.206	0.88
843.946	1.88
844.687	2.88
845.427	1.88
846.166	2.88
846.906	2.88
847.646	1.88
848.386	0.88
849.125	2.88
849.865	2.88
850.605	0.88
851.344	4.88
852.083	1.88
852.823	0.88
853.562	0.88
854.301	0.88
855.04	1.88
855.779	1.88
856.518	-0.12
857.257	2.88
857.995	4.88
858.734	1.88
859.473	0.88
860.211	2.88
860.95	1.88
861.688	-0.12
862.426	2.88
863.165	0.88
863.903	1.88
864.641	0.88
865.379	1.88
866.117	0.88
866.855	1.88
867.593	2.88
868.33	-1.12
869.068	-0.12
869.806	1.88
870.543	-0.12
871.28	1.88
872.018	0.88
872.755	0.88
873.492	-0.12
874.229	1.88
874.967	1.88
875.703	1.88
876.44	1.88
877.177	0.88
877.914	0.88
878.651	1.88
879.387	-0.12
880.124	-1.12
880.86	-0.12
881.597	0.88
882.333	-1.12
883.069	1.88
883.806	-0.12
884.542	1.88
885.278	1.88
886.014	1.88
886.749	-0.12
887.485	0.88
888.221	-2.12
888.957	-0.12
889.692	0.88
890.428	-0.12
891.163	2.88
891.899	0.88
892.634	0.88
893.369	0.88
894.104	0.88
894.839	-0.12
895.574	-0.12
896.309	0.88
897.044	-0.12
897.779	1.88
898.514	0.88
899.248	3.88
899.983	0.88
900.717	0.88
901.452	0.88
902.186	-3.12
902.92	1.88
903.654	0.88
904.389	-3.12
905.123	-0.12
905.857	-1.12
906.59	0.88
907.324	-1.12
908.058	0.88
908.792	0.88
909.525	-1.12
910.259	-1.12
910.992	-0.12
911.726	0.88
912.459	-0.12
913.192	-1.12
913.925	-2.12
914.658	0.88
915.391	-0.12
916.124	-0.12
916.857	0.88
917.59	0.88
918.323	-0.12
919.055	-0.12
919.788	-0.12
920.521	0.88
921.253	0.88
921.985	-0.12
922.718	-0.12
923.45	-0.12
924.182	-0.12
924.914	0.88
925.646	1.88
926.378	-1.12
927.11	-1.12
927.841	0.88
928.573	0.88
929.305	0.88
930.036	-0.12
930.768	-1.12
931.499	-2.12
932.23	-2.12
932.962	-1.12
933.693	-2.12
934.424	-2.12
935.155	0.88
935.886	-0.12
936.617	-1.12
937.348	-3.12
938.078	-0.12
938.809	-3.12
939.54	0.88
940.27	0.88
941.001	0.88
941.731	0.88
942.461	-0.12
943.191	-0.12
943.922	-0.12
944.652	-2.12
945.382	-1.12
946.112	-0.12
946.841	-2.12
947.571	-0.12
948.301	-0.12
949.031	0.88
949.76	-1.12
950.49	-0.12
951.219	-0.12
951.948	-0.12
952.678	-0.12
953.407	1.88
954.136	-1.12
954.865	0.88
955.594	-0.12
956.323	0.88
957.052	0.88
957.78	-0.12
958.509	0.88
959.238	-1.12
959.966	0.88
960.695	-1.12
961.423	0.88
962.151	-0.12
962.88	-2.12
963.608	-1.12
964.336	-1.12
965.064	-0.12
965.792	0.88
966.52	0.88
967.247	-0.12
967.975	-0.12
968.703	-1.12
969.43	-1.12
970.158	-0.12
970.885	-1.12
971.613	-1.12
972.34	-0.12
973.067	-0.12
973.794	-2.12
974.521	0.88
975.248	-1.12
975.975	0.88
976.702	-1.12
977.429	-1.12
978.156	0.88
978.882	-2.12
979.609	-0.12
980.335	-0.12
981.062	-1.12
981.788	0.88
982.514	-0.12
983.24	0.88
983.967	-0.12
984.693	0.88
985.419	0.88
986.144	-0.12
986.87	0.88
987.596	-0.12
988.322	-1.12
989.047	0.88
989.773	0.88
990.498	-1.12
991.224	-1.12
991.949	-0.12
992.674	-1.12
993.399	-0.12
994.124	-3.12
994.849	-2.12
995.574	0.88
996.299	-1.12
997.024	-1.12
997.749	-1.12
998.473	-0.12
999.198	-0.12
999.922	-0.12
1000.647	0.88
1001.371	2.88
1002.095	-1.12
1002.82	-0.12
1003.544	-1.12
1004.268	1.88
1004.992	0.88
1005.716	-1.12
1006.439	0.88
1007.163	0.88
1007.887	3.88
1008.611	-1.12
1009.334	0.88
1010.058	-0.12
1010.781	-1.12
1011.504	0.88
1012.228	-0.12
1012.951	0.88
1013.674	-2.12
1014.397	0.88
1015.12	-0.12
