节点500_285_QEPB04081__649__15-06-21-022.txt的数据

Date: Wed Nov 12 15:06:21 CST 2025
User: PC
Spectrometer: QEPB0408
触发模式: 0
积分时间 (秒): 1.000000E-2
Scans to average: 1
启用暗噪声校正: true
启用非线性校正: false
滑动平均宽度: 0
X轴模式: Wavelengths
Number of Pixels in Spectrum: 1044
>>>>>Begin Spectral Data<<<<<
220.843	2.5
221.644	2.5
222.444	1.5
223.244	2.5
224.045	2.5
224.845	3.5
225.645	1.5
226.445	5.5
227.245	1.5
228.045	2.5
228.845	2.5
229.645	4.5
230.444	3.5
231.244	5.5
232.043	4.5
232.843	3.5
233.642	3.5
234.442	2.5
235.241	3.5
236.04	4.5
236.839	2.5
237.638	4.5
238.437	5.5
239.236	4.5
240.035	4.5
240.833	3.5
241.632	3.5
242.43	2.5
243.229	6.5
244.027	5.5
244.826	5.5
245.624	7.5
246.422	6.5
247.22	3.5
248.018	6.5
248.816	5.5
249.614	5.5
250.412	5.5
251.21	8.5
252.007	5.5
252.805	9.5
253.602	7.5
254.4	5.5
255.197	7.5
255.994	7.5
256.791	7.5
257.589	9.5
258.386	6.5
259.183	7.5
259.979	7.5
260.776	10.5
261.573	8.5
262.37	10.5
263.166	9.5
263.963	9.5
264.759	12.5
265.556	11.5
266.352	12.5
267.148	13.5
267.944	13.5
268.74	13.5
269.536	13.5
270.332	14.5
271.128	16.5
271.924	14.5
272.719	17.5
273.515	18.5
274.311	17.5
275.106	15.5
275.901	16.5
276.697	17.5
277.492	16.5
278.287	18.5
279.082	15.5
279.877	19.5
280.672	17.5
281.467	17.5
282.262	20.5
283.056	19.5
283.851	18.5
284.646	17.5
285.44	20.5
286.234	19.5
287.029	18.5
287.823	16.5
288.617	17.5
289.411	17.5
290.205	18.5
290.999	17.5
291.793	17.5
292.587	16.5
293.381	16.5
294.174	16.5
294.968	17.5
295.761	13.5
296.555	14.5
297.348	14.5
298.141	14.5
298.935	17.5
299.728	15.5
300.521	15.5
301.314	13.5
302.107	12.5
302.899	14.5
303.692	14.5
304.485	12.5
305.277	13.5
306.07	12.5
306.862	12.5
307.655	13.5
308.447	12.5
309.239	10.5
310.031	13.5
310.823	11.5
311.615	10.5
312.407	11.5
313.199	9.5
313.991	10.5
314.783	8.5
315.574	10.5
316.366	8.5
317.157	7.5
317.949	9.5
318.74	8.5
319.531	6.5
320.322	8.5
321.113	9.5
321.904	9.5
322.695	9.5
323.486	5.5
324.277	9.5
325.068	7.5
325.858	9.5
326.649	9.5
327.439	9.5
328.23	7.5
329.02	7.5
329.81	6.5
330.6	8.5
331.391	7.5
332.181	7.5
332.971	5.5
333.76	7.5
334.55	6.5
335.34	7.5
336.13	9.5
336.919	6.5
337.709	8.5
338.498	6.5
339.287	6.5
340.077	2.5
340.866	5.5
341.655	8.5
342.444	5.5
343.233	7.5
344.022	6.5
344.811	6.5
345.6	5.5
346.388	6.5
347.177	8.5
347.965	6.5
348.754	7.5
349.542	6.5
350.33	6.5
351.119	6.5
351.907	5.5
352.695	7.5
353.483	5.5
354.271	5.5
355.059	7.5
355.846	3.5
356.634	6.5
357.422	6.5
358.209	5.5
358.997	6.5
359.784	7.5
360.571	4.5
361.359	6.5
362.146	9.5
362.933	2.5
363.72	7.5
364.507	4.5
365.294	6.5
366.081	7.5
366.867	8.5
367.654	4.5
368.44	4.5
369.227	5.5
370.013	8.5
370.8	6.5
371.586	8.5
372.372	4.5
373.158	6.5
373.944	5.5
374.73	6.5
375.516	7.5
376.302	5.5
377.088	5.5
377.873	4.5
378.659	7.5
379.445	7.5
380.23	6.5
381.015	5.5
381.801	5.5
382.586	6.5
383.371	4.5
384.156	6.5
384.941	6.5
385.726	4.5
386.511	5.5
387.296	5.5
388.08	8.5
388.865	5.5
389.649	5.5
390.434	4.5
391.218	5.5
392.003	7.5
392.787	3.5
393.571	5.5
394.355	5.5
395.139	6.5
395.923	7.5
396.707	5.5
397.491	6.5
398.274	6.5
399.058	5.5
399.842	7.5
400.625	6.5
401.408	6.5
402.192	9.5
402.975	8.5
403.758	8.5
404.541	7.5
405.324	7.5
406.107	9.5
406.89	6.5
407.673	5.5
408.456	8.5
409.238	6.5
410.021	8.5
410.803	7.5
411.586	8.5
412.368	7.5
413.151	6.5
413.933	8.5
414.715	9.5
415.497	9.5
416.279	11.5
417.061	9.5
417.843	8.5
418.624	9.5
419.406	9.5
420.188	12.5
420.969	10.5
421.751	8.5
422.532	8.5
423.313	11.5
424.095	13.5
424.876	11.5
425.657	12.5
426.438	13.5
427.219	12.5
428	11.5
428.78	12.5
429.561	13.5
430.342	14.5
431.122	13.5
431.903	12.5
432.683	16.5
433.464	14.5
434.244	14.5
435.024	14.5
435.804	20.5
436.584	18.5
437.364	17.5
438.144	23.5
438.924	21.5
439.704	25.5
440.483	21.5
441.263	22.5
442.042	26.5
442.822	28.5
443.601	28.5
444.38	31.5
445.16	31.5
445.939	34.5
446.718	39.5
447.497	42.5
448.276	46.5
449.054	49.5
449.833	50.5
450.612	58.5
451.391	61.5
452.169	68.5
452.948	75.5
453.726	80.5
454.504	90.5
455.282	102.5
456.061	101.5
456.839	119.5
457.617	132.5
458.395	147.5
459.172	161.5
459.95	186.5
460.728	206.5
461.506	231.5
462.283	251.5
463.061	277.5
463.838	317.5
464.615	349.5
465.393	382.5
466.17	434.5
466.947	476.5
467.724	531.5
468.501	598.5
469.278	656.5
470.055	729.5
470.831	794.5
471.608	895.5
472.385	988.5
473.161	1098.5
473.938	1200.5
474.714	1326.5
475.49	1458.5
476.266	1604.5
477.043	1754.5
477.819	1936.5
478.595	2134.5
479.371	2351.5
480.146	2562.5
480.922	2808.5
481.698	3084.5
482.473	3386.5
483.249	3725.5
484.024	4052.5
484.8	4434.5
485.575	4865.5
486.35	5292.5
487.126	5744.5
487.901	6290.5
488.676	6833.5
489.451	7490.5
490.225	8132.5
491	8836.5
491.775	9644.5
492.55	10491.5
493.324	11347.5
494.099	12168.5
494.873	13074.5
495.647	14023.5
496.422	15117.5
497.196	16092.5
497.97	17219.5
498.744	18289.5
499.518	19350.5
500.292	20403.5
501.066	21435.5
501.839	22426.5
502.613	23280.5
503.387	24132.5
504.16	24826.5
504.934	25280.5
505.707	25562.5
506.48	25758.5
507.253	25879.5
508.027	25802.5
508.8	25724.5
509.573	25512.5
510.346	25050.5
511.118	24446.5
511.891	23834.5
512.664	23148.5
513.437	22412.5
514.209	21593.5
514.982	20735.5
515.754	19968.5
516.526	19119.5
517.298	18328.5
518.071	17564.5
518.843	16908.5
519.615	16245.5
520.387	15603.5
521.159	14971.5
521.93	14328.5
522.702	13819.5
523.474	13274.5
524.245	12678.5
525.017	12172.5
525.788	11677.5
526.56	11168.5
527.331	10667.5
528.102	10251.5
528.873	9721.5
529.644	9303.5
530.415	8874.5
531.186	8426.5
531.957	8011.5
532.728	7667.5
533.498	7259.5
534.269	6880.5
535.039	6491.5
535.81	6133.5
536.58	5827.5
537.351	5465.5
538.121	5178.5
538.891	4893.5
539.661	4636.5
540.431	4406.5
541.201	4133.5
541.971	3941.5
542.741	3723.5
543.51	3525.5
544.28	3369.5
545.05	3205.5
545.819	3047.5
546.588	2899.5
547.358	2777.5
548.127	2622.5
548.896	2483.5
549.665	2359.5
550.434	2239.5
551.203	2104.5
551.972	2016.5
552.741	1896.5
553.51	1795.5
554.278	1704.5
555.047	1612.5
555.815	1514.5
556.584	1437.5
557.352	1370.5
558.121	1278.5
558.889	1207.5
559.657	1145.5
560.425	1077.5
561.193	1016.5
561.961	950.5
562.729	906.5
563.496	855.5
564.264	819.5
565.032	773.5
565.799	725.5
566.567	692.5
567.334	647.5
568.101	626.5
568.869	577.5
569.636	543.5
570.403	518.5
571.17	477.5
571.937	456.5
572.704	435.5
573.471	404.5
574.237	382.5
575.004	361.5
575.771	339.5
576.537	315.5
577.303	301.5
578.07	291.5
578.836	274.5
579.602	248.5
580.368	246.5
581.134	223.5
581.9	218.5
582.666	207.5
583.432	185.5
584.198	179.5
584.964	177.5
585.729	164.5
586.495	158.5
587.26	150.5
588.025	140.5
588.791	135.5
589.556	125.5
590.321	118.5
591.086	114.5
591.851	108.5
592.616	102.5
593.381	97.5
594.146	90.5
594.911	88.5
595.675	87.5
596.44	83.5
597.204	72.5
597.969	74.5
598.733	68.5
599.497	66.5
600.261	63.5
601.025	59.5
601.79	57.5
602.553	53.5
603.317	51.5
604.081	53.5
604.845	49.5
605.609	44.5
606.372	47.5
607.136	44.5
607.899	42.5
608.662	40.5
609.426	38.5
610.189	37.5
610.952	37.5
611.715	33.5
612.478	34.5
613.241	32.5
614.004	29.5
614.767	30.5
615.529	28.5
616.292	28.5
617.055	29.5
617.817	25.5
618.579	24.5
619.342	21.5
620.104	22.5
620.866	20.5
621.628	19.5
622.39	19.5
623.152	19.5
623.914	17.5
624.676	18.5
625.438	17.5
626.199	16.5
626.961	16.5
627.722	16.5
628.484	15.5
629.245	12.5
630.006	16.5
630.768	11.5
631.529	15.5
632.29	13.5
633.051	13.5
633.812	14.5
634.573	10.5
635.333	13.5
636.094	12.5
636.855	10.5
637.615	11.5
638.376	11.5
639.136	10.5
639.896	10.5
640.657	11.5
641.417	12.5
642.177	9.5
642.937	8.5
643.697	7.5
644.457	10.5
645.216	9.5
645.976	6.5
646.736	9.5
647.495	9.5
648.255	8.5
649.014	8.5
649.774	10.5
650.533	8.5
651.292	9.5
652.051	7.5
652.81	5.5
653.569	8.5
654.328	7.5
655.087	6.5
655.846	8.5
656.604	6.5
657.363	7.5
658.121	6.5
658.88	7.5
659.638	4.5
660.397	7.5
661.155	5.5
661.913	5.5
662.671	6.5
663.429	4.5
664.187	7.5
664.945	4.5
665.703	2.5
666.46	7.5
667.218	7.5
667.976	6.5
668.733	5.5
669.49	6.5
670.248	5.5
671.005	6.5
671.762	8.5
672.519	2.5
673.276	2.5
674.033	4.5
674.79	5.5
675.547	6.5
676.304	3.5
677.06	7.5
677.817	5.5
678.574	4.5
679.33	4.5
680.086	5.5
680.843	4.5
681.599	6.5
682.355	5.5
683.111	1.5
683.867	5.5
684.623	5.5
685.379	2.5
686.135	5.5
686.89	4.5
687.646	3.5
688.402	2.5
689.157	3.5
689.912	2.5
690.668	3.5
691.423	3.5
692.178	4.5
692.933	5.5
693.688	5.5
694.443	6.5
695.198	3.5
695.953	2.5
696.708	5.5
697.462	3.5
698.217	4.5
698.972	3.5
699.726	3.5
700.48	4.5
701.235	5.5
701.989	3.5
702.743	4.5
703.497	6.5
704.251	5.5
705.005	4.5
705.759	2.5
706.513	4.5
707.266	1.5
708.02	3.5
708.774	3.5
709.527	3.5
710.28	5.5
711.034	4.5
711.787	5.5
712.54	5.5
713.293	5.5
714.046	3.5
714.799	4.5
715.552	2.5
716.305	2.5
717.058	4.5
717.81	5.5
718.563	3.5
719.315	4.5
720.068	3.5
720.82	2.5
721.573	5.5
722.325	4.5
723.077	2.5
723.829	5.5
724.581	2.5
725.333	2.5
726.085	4.5
726.836	4.5
727.588	6.5
728.34	5.5
729.091	5.5
729.843	3.5
730.594	3.5
731.346	2.5
732.097	6.5
732.848	5.5
733.599	5.5
734.35	2.5
735.101	2.5
735.852	5.5
736.603	3.5
737.354	5.5
738.104	4.5
738.855	3.5
739.605	5.5
740.356	4.5
741.106	5.5
741.856	4.5
742.607	7.5
743.357	4.5
744.107	5.5
744.857	6.5
745.607	2.5
746.357	4.5
747.106	5.5
747.856	3.5
748.606	6.5
749.355	3.5
750.105	2.5
750.854	4.5
751.603	4.5
752.353	7.5
753.102	6.5
753.851	5.5
754.6	5.5
755.349	5.5
756.098	6.5
756.847	5.5
757.595	5.5
758.344	5.5
759.093	6.5
759.841	6.5
760.589	4.5
761.338	7.5
762.086	4.5
762.834	6.5
763.582	6.5
764.331	8.5
765.079	4.5
765.826	6.5
766.574	5.5
767.322	8.5
768.07	6.5
768.817	7.5
769.565	7.5
770.312	6.5
771.06	6.5
771.807	7.5
772.554	9.5
773.302	8.5
774.049	8.5
774.796	8.5
775.543	8.5
776.29	9.5
777.036	8.5
777.783	8.5
778.53	11.5
779.276	9.5
780.023	9.5
780.769	8.5
781.516	9.5
782.262	9.5
783.008	9.5
783.754	6.5
784.5	7.5
785.246	8.5
785.992	10.5
786.738	9.5
787.484	10.5
788.23	10.5
788.975	7.5
789.721	9.5
790.466	7.5
791.212	9.5
791.957	9.5
792.702	10.5
793.447	8.5
794.193	9.5
794.938	7.5
795.683	9.5
796.427	8.5
797.172	8.5
797.917	8.5
798.662	6.5
799.406	7.5
800.151	8.5
800.895	8.5
801.64	9.5
802.384	6.5
803.128	8.5
803.872	5.5
804.616	6.5
805.36	6.5
806.104	4.5
806.848	7.5
807.592	6.5
808.336	3.5
809.079	6.5
809.823	5.5
810.566	8.5
811.31	4.5
812.053	6.5
812.796	3.5
813.539	5.5
814.283	6.5
815.026	7.5
815.769	7.5
816.511	4.5
817.254	6.5
817.997	5.5
818.74	3.5
819.482	6.5
820.225	4.5
820.967	4.5
821.71	5.5
822.452	6.5
823.194	5.5
823.936	7.5
824.678	5.5
825.42	3.5
826.162	5.5
826.904	2.5
827.646	4.5
828.388	5.5
829.129	3.5
829.871	4.5
830.612	3.5
831.354	4.5
832.095	2.5
832.836	2.5
833.577	5.5
834.319	4.5
835.06	4.5
835.801	4.5
836.542	4.5
837.282	5.5
838.023	2.5
838.764	6.5
839.504	5.5
840.245	5.5
840.985	1.5
841.726	4.5
842.466	3.5
843.206	5.5
843.946	5.5
844.687	3.5
845.427	4.5
846.166	1.5
846.906	3.5
847.646	1.5
848.386	2.5
849.125	5.5
849.865	2.5
850.605	2.5
851.344	0.5
852.083	6.5
852.823	3.5
853.562	2.5
854.301	3.5
855.04	5.5
855.779	1.5
856.518	4.5
857.257	3.5
857.995	1.5
858.734	2.5
859.473	1.5
860.211	1.5
860.95	4.5
861.688	2.5
862.426	0.5
863.165	3.5
863.903	1.5
864.641	2.5
865.379	4.5
866.117	4.5
866.855	1.5
867.593	4.5
868.33	1.5
869.068	-1.5
869.806	1.5
870.543	2.5
871.28	2.5
872.018	2.5
872.755	3.5
873.492	1.5
874.229	0.5
874.967	4.5
875.703	0.5
876.44	1.5
877.177	0.5
877.914	0.5
878.651	2.5
879.387	1.5
880.124	2.5
880.86	2.5
881.597	0.5
882.333	1.5
883.069	3.5
883.806	3.5
884.542	0.5
885.278	1.5
886.014	3.5
886.749	1.5
887.485	0.5
888.221	-0.5
888.957	2.5
889.692	2.5
890.428	1.5
891.163	1.5
891.899	2.5
892.634	1.5
893.369	1.5
894.104	0.5
894.839	0.5
895.574	0.5
896.309	-1.5
897.044	1.5
897.779	0.5
898.514	-1.5
899.248	2.5
899.983	-2.5
900.717	0.5
901.452	0.5
902.186	1.5
902.92	0.5
903.654	0.5
904.389	2.5
905.123	-1.5
905.857	2.5
906.59	2.5
907.324	0.5
908.058	0.5
908.792	0.5
909.525	2.5
910.259	-0.5
910.992	3.5
911.726	2.5
912.459	-0.5
913.192	1.5
913.925	2.5
914.658	0.5
915.391	2.5
916.124	-1.5
916.857	1.5
917.59	-0.5
918.323	0.5
919.055	1.5
919.788	1.5
920.521	1.5
921.253	0.5
921.985	0.5
922.718	-0.5
923.45	1.5
924.182	0.5
924.914	1.5
925.646	0.5
926.378	2.5
927.11	1.5
927.841	0.5
928.573	1.5
929.305	-0.5
930.036	0.5
930.768	2.5
931.499	0.5
932.23	2.5
932.962	-0.5
933.693	5.5
934.424	1.5
935.155	-0.5
935.886	0.5
936.617	-0.5
937.348	1.5
938.078	0.5
938.809	0.5
939.54	-1.5
940.27	0.5
941.001	0.5
941.731	1.5
942.461	1.5
943.191	0.5
943.922	0.5
944.652	0.5
945.382	-0.5
946.112	-0.5
946.841	-1.5
947.571	0.5
948.301	0.5
949.031	1.5
949.76	4.5
950.49	-1.5
951.219	1.5
951.948	1.5
952.678	1.5
953.407	2.5
954.136	1.5
954.865	1.5
955.594	0.5
956.323	0.5
957.052	2.5
957.78	1.5
958.509	0.5
959.238	0.5
959.966	0.5
960.695	0.5
961.423	-0.5
962.151	-0.5
962.88	2.5
963.608	1.5
964.336	-0.5
965.064	1.5
965.792	0.5
966.52	1.5
967.247	1.5
967.975	2.5
968.703	2.5
969.43	1.5
970.158	2.5
970.885	0.5
971.613	1.5
972.34	-0.5
973.067	-1.5
973.794	1.5
974.521	0.5
975.248	2.5
975.975	0.5
976.702	1.5
977.429	1.5
978.156	2.5
978.882	0.5
979.609	1.5
980.335	0.5
981.062	-0.5
981.788	-0.5
982.514	0.5
983.24	0.5
983.967	0.5
984.693	1.5
985.419	0.5
986.144	2.5
986.87	0.5
987.596	0.5
988.322	2.5
989.047	2.5
989.773	0.5
990.498	1.5
991.224	1.5
991.949	1.5
992.674	-0.5
993.399	-0.5
994.124	-0.5
994.849	-0.5
995.574	1.5
996.299	0.5
997.024	2.5
997.749	0.5
998.473	-0.5
999.198	1.5
999.922	-1.5
1000.647	1.5
1001.371	2.5
1002.095	-1.5
1002.82	-3.5
1003.544	-1.5
1004.268	2.5
1004.992	0.5
1005.716	0.5
1006.439	1.5
1007.163	4.5
1007.887	1.5
1008.611	2.5
1009.334	-1.5
1010.058	0.5
1010.781	-1.5
1011.504	2.5
1012.228	0.5
1012.951	2.5
1013.674	1.5
1014.397	-0.5
1015.12	0.5
