节点500_285_QEPB04081__225__14-59-17-990.txt的数据

Date: Wed Nov 12 14:59:17 CST 2025
User: PC
Spectrometer: QEPB0408
触发模式: 0
积分时间 (秒): 1.000000E-2
Scans to average: 1
启用暗噪声校正: true
启用非线性校正: false
滑动平均宽度: 0
X轴模式: Wavelengths
Number of Pixels in Spectrum: 1044
>>>>>Begin Spectral Data<<<<<
220.843	0
221.644	-1
222.444	1
223.244	1
224.045	2
224.845	4
225.645	0
226.445	2
227.245	2
228.045	-1
228.845	4
229.645	4
230.444	3
231.244	2
232.043	5
232.843	4
233.642	6
234.442	3
235.241	4
236.04	1
236.839	4
237.638	4
238.437	3
239.236	4
240.035	5
240.833	4
241.632	7
242.43	4
243.229	4
244.027	5
244.826	6
245.624	4
246.422	6
247.22	5
248.018	5
248.816	6
249.614	6
250.412	7
251.21	6
252.007	6
252.805	9
253.602	6
254.4	5
255.197	8
255.994	7
256.791	8
257.589	8
258.386	10
259.183	10
259.979	8
260.776	8
261.573	8
262.37	10
263.166	11
263.963	13
264.759	13
265.556	13
266.352	13
267.148	13
267.944	15
268.74	14
269.536	14
270.332	13
271.128	17
271.924	15
272.719	18
273.515	17
274.311	13
275.106	18
275.901	17
276.697	18
277.492	17
278.287	18
279.082	18
279.877	20
280.672	18
281.467	20
282.262	16
283.056	19
283.851	18
284.646	19
285.44	18
286.234	17
287.029	18
287.823	17
288.617	19
289.411	19
290.205	16
290.999	19
291.793	18
292.587	17
293.381	16
294.174	18
294.968	18
295.761	17
296.555	16
297.348	15
298.141	13
298.935	15
299.728	13
300.521	15
301.314	13
302.107	16
302.899	15
303.692	15
304.485	13
305.277	14
306.07	15
306.862	10
307.655	13
308.447	11
309.239	11
310.031	11
310.823	9
311.615	11
312.407	9
313.199	8
313.991	9
314.783	9
315.574	10
316.366	9
317.157	8
317.949	9
318.74	6
319.531	7
320.322	7
321.113	8
321.904	9
322.695	4
323.486	7
324.277	6
325.068	8
325.858	6
326.649	6
327.439	6
328.23	5
329.02	7
329.81	6
330.6	6
331.391	3
332.181	6
332.971	8
333.76	4
334.55	5
335.34	6
336.13	7
336.919	7
337.709	8
338.498	5
339.287	4
340.077	6
340.866	6
341.655	6
342.444	7
343.233	7
344.022	5
344.811	5
345.6	6
346.388	6
347.177	5
347.965	9
348.754	5
349.542	6
350.33	7
351.119	6
351.907	5
352.695	6
353.483	7
354.271	7
355.059	6
355.846	4
356.634	6
357.422	6
358.209	6
358.997	5
359.784	4
360.571	6
361.359	5
362.146	7
362.933	5
363.72	5
364.507	3
365.294	4
366.081	4
366.867	3
367.654	5
368.44	5
369.227	4
370.013	7
370.8	4
371.586	6
372.372	3
373.158	4
373.944	4
374.73	4
375.516	6
376.302	5
377.088	3
377.873	6
378.659	6
379.445	5
380.23	3
381.015	3
381.801	5
382.586	6
383.371	5
384.156	3
384.941	3
385.726	6
386.511	5
387.296	7
388.08	6
388.865	7
389.649	6
390.434	5
391.218	6
392.003	3
392.787	5
393.571	3
394.355	7
395.139	7
395.923	9
396.707	5
397.491	7
398.274	4
399.058	7
399.842	7
400.625	7
401.408	7
402.192	6
402.975	8
403.758	8
404.541	6
405.324	7
406.107	6
406.89	9
407.673	8
408.456	4
409.238	7
410.021	7
410.803	8
411.586	11
412.368	8
413.151	8
413.933	7
414.715	10
415.497	9
416.279	6
417.061	8
417.843	9
418.624	10
419.406	8
420.188	10
420.969	11
421.751	10
422.532	12
423.313	12
424.095	10
424.876	11
425.657	11
426.438	11
427.219	12
428	11
428.78	13
429.561	13
430.342	14
431.122	13
431.903	14
432.683	12
433.464	17
434.244	17
435.024	15
435.804	17
436.584	16
437.364	16
438.144	20
438.924	20
439.704	22
440.483	23
441.263	23
442.042	23
442.822	24
443.601	24
444.38	31
445.16	29
445.939	31
446.718	37
447.497	37
448.276	41
449.054	46
449.833	44
450.612	52
451.391	55
452.169	63
452.948	65
453.726	75
454.504	81
455.282	87
456.061	98
456.839	102
457.617	118
458.395	131
459.172	153
459.95	160
460.728	181
461.506	197
462.283	220
463.061	258
463.838	279
464.615	314
465.393	349
466.17	393
466.947	438
467.724	493
468.501	549
469.278	609
470.055	670
470.831	755
471.608	850
472.385	930
473.161	1033
473.938	1142
474.714	1275
475.49	1422
476.266	1572
477.043	1734
477.819	1913
478.595	2117
479.371	2345
480.146	2605
480.922	2878
481.698	3172
482.473	3514
483.249	3857
484.024	4253
484.8	4697
485.575	5165
486.35	5674
487.126	6238
487.901	6855
488.676	7513
489.451	8268
490.225	9041
491	9882
491.775	10824
492.55	11824
493.324	12752
494.099	13792
494.873	14914
495.647	16042
496.422	17300
497.196	18502
497.97	19747
498.744	20933
499.518	22191
500.292	23288
501.066	24428
501.839	25373
502.613	26231
503.387	26983
504.16	27520
504.934	27841
505.707	28008
506.48	28022
507.253	27820
508.027	27562
508.8	27140
509.573	26615
510.346	25910
511.118	25145
511.891	24315
512.664	23413
513.437	22421
514.209	21516
514.982	20583
515.754	19679
516.526	18771
517.298	17984
518.071	17167
518.843	16544
519.615	15845
520.387	15256
521.159	14613
521.93	14065
522.702	13485
523.474	12929
524.245	12380
525.017	11890
525.788	11373
526.56	10860
527.331	10329
528.102	9874
528.873	9407
529.644	8951
530.415	8493
531.186	8012
531.957	7637
532.728	7260
533.498	6855
534.269	6470
535.039	6114
535.81	5752
536.58	5461
537.351	5131
538.121	4846
538.891	4610
539.661	4340
540.431	4090
541.201	3843
541.971	3660
542.741	3471
543.51	3276
544.28	3161
545.05	3022
545.819	2849
546.588	2717
547.358	2568
548.127	2431
548.896	2321
549.665	2205
550.434	2085
551.203	1962
551.972	1863
552.741	1740
553.51	1657
554.278	1590
555.047	1454
555.815	1393
556.584	1327
557.352	1246
558.121	1171
558.889	1116
559.657	1037
560.425	985
561.193	928
561.961	878
562.729	830
563.496	788
564.264	745
565.032	710
565.799	660
566.567	630
567.334	593
568.101	557
568.869	518
569.636	498
570.403	473
571.17	447
571.937	415
572.704	391
573.471	377
574.237	351
575.004	337
575.771	313
576.537	285
577.303	273
578.07	261
578.836	242
579.602	223
580.368	218
581.134	203
581.9	198
582.666	185
583.432	175
584.198	169
584.964	158
585.729	153
586.495	141
587.26	139
588.025	127
588.791	119
589.556	111
590.321	104
591.086	104
591.851	99
592.616	93
593.381	89
594.146	88
594.911	82
595.675	76
596.44	73
597.204	71
597.969	68
598.733	64
599.497	62
600.261	55
601.025	53
601.79	54
602.553	50
603.317	50
604.081	48
604.845	40
605.609	44
606.372	41
607.136	40
607.899	36
608.662	33
609.426	35
610.189	29
610.952	31
611.715	30
612.478	33
613.241	28
614.004	27
614.767	26
615.529	26
616.292	28
617.055	25
617.817	22
618.579	20
619.342	23
620.104	20
620.866	20
621.628	19
622.39	20
623.152	17
623.914	15
624.676	15
625.438	19
626.199	15
626.961	14
627.722	16
628.484	12
629.245	15
630.006	13
630.768	15
631.529	13
632.29	11
633.051	13
633.812	11
634.573	12
635.333	10
636.094	12
636.855	9
637.615	11
638.376	11
639.136	9
639.896	8
640.657	11
641.417	10
642.177	6
642.937	10
643.697	10
644.457	7
645.216	10
645.976	8
646.736	6
647.495	8
648.255	7
649.014	7
649.774	7
650.533	5
651.292	7
652.051	4
652.81	8
653.569	6
654.328	6
655.087	8
655.846	5
656.604	7
657.363	6
658.121	5
658.88	4
659.638	6
660.397	5
661.155	7
661.913	7
662.671	5
663.429	6
664.187	5
664.945	2
665.703	6
666.46	3
667.218	5
667.976	5
668.733	3
669.49	3
670.248	4
671.005	6
671.762	3
672.519	5
673.276	3
674.033	2
674.79	3
675.547	3
676.304	3
677.06	2
677.817	4
678.574	6
679.33	3
680.086	6
680.843	4
681.599	5
682.355	5
683.111	1
683.867	4
684.623	3
685.379	4
686.135	2
686.89	4
687.646	3
688.402	3
689.157	4
689.912	3
690.668	3
691.423	3
692.178	2
692.933	3
693.688	4
694.443	2
695.198	5
695.953	4
696.708	3
697.462	6
698.217	3
698.972	2
699.726	4
700.48	2
701.235	3
701.989	3
702.743	2
703.497	2
704.251	4
705.005	3
705.759	3
706.513	4
707.266	3
708.02	2
708.774	4
709.527	2
710.28	4
711.034	4
711.787	4
712.54	6
713.293	2
714.046	5
714.799	5
715.552	5
716.305	3
717.058	4
717.81	3
718.563	4
719.315	5
720.068	4
720.82	3
721.573	5
722.325	2
723.077	3
723.829	3
724.581	5
725.333	3
726.085	2
726.836	4
727.588	1
728.34	4
729.091	4
729.843	1
730.594	4
731.346	4
732.097	3
732.848	5
733.599	4
734.35	2
735.101	4
735.852	5
736.603	2
737.354	5
738.104	5
738.855	3
739.605	5
740.356	3
741.106	3
741.856	5
742.607	4
743.357	3
744.107	5
744.857	3
745.607	5
746.357	4
747.106	5
747.856	6
748.606	5
749.355	3
750.105	5
750.854	4
751.603	5
752.353	4
753.102	5
753.851	6
754.6	1
755.349	4
756.098	4
756.847	4
757.595	4
758.344	5
759.093	7
759.841	7
760.589	7
761.338	7
762.086	6
762.834	7
763.582	5
764.331	5
765.079	6
765.826	11
766.574	8
767.322	6
768.07	6
768.817	4
769.565	9
770.312	7
771.06	8
771.807	7
772.554	8
773.302	8
774.049	8
774.796	8
775.543	9
776.29	7
777.036	9
777.783	8
778.53	10
779.276	12
780.023	7
780.769	9
781.516	9
782.262	7
783.008	9
783.754	7
784.5	7
785.246	10
785.992	10
786.738	7
787.484	8
788.23	9
788.975	7
789.721	5
790.466	9
791.212	9
791.957	7
792.702	10
793.447	8
794.193	6
794.938	9
795.683	5
796.427	6
797.172	5
797.917	5
798.662	7
799.406	8
800.151	10
800.895	9
801.64	7
802.384	6
803.128	8
803.872	8
804.616	6
805.36	6
806.104	6
806.848	8
807.592	7
808.336	5
809.079	4
809.823	7
810.566	5
811.31	4
812.053	4
812.796	6
813.539	3
814.283	4
815.026	4
815.769	6
816.511	5
817.254	5
817.997	3
818.74	3
819.482	3
820.225	4
820.967	6
821.71	7
822.452	3
823.194	4
823.936	3
824.678	3
825.42	7
826.162	5
826.904	4
827.646	2
828.388	6
829.129	2
829.871	3
830.612	2
831.354	3
832.095	3
832.836	3
833.577	3
834.319	3
835.06	3
835.801	3
836.542	3
837.282	1
838.023	1
838.764	3
839.504	5
840.245	3
840.985	3
841.726	1
842.466	4
843.206	2
843.946	2
844.687	0
845.427	1
846.166	2
846.906	1
847.646	3
848.386	3
849.125	0
849.865	3
850.605	1
851.344	2
852.083	1
852.823	3
853.562	3
854.301	-1
855.04	1
855.779	2
856.518	2
857.257	2
857.995	2
858.734	2
859.473	-1
860.211	3
860.95	2
861.688	3
862.426	1
863.165	1
863.903	1
864.641	2
865.379	2
866.117	1
866.855	3
867.593	1
868.33	1
869.068	1
869.806	0
870.543	3
871.28	1
872.018	1
872.755	2
873.492	2
874.229	2
874.967	-1
875.703	1
876.44	0
877.177	-1
877.914	1
878.651	-1
879.387	-1
880.124	1
880.86	2
881.597	0
882.333	0
883.069	2
883.806	1
884.542	3
885.278	1
886.014	-2
886.749	-1
887.485	0
888.221	1
888.957	1
889.692	3
890.428	0
891.163	-1
891.899	0
892.634	1
893.369	-1
894.104	0
894.839	0
895.574	2
896.309	1
897.044	-1
897.779	-1
898.514	0
899.248	0
899.983	-1
900.717	1
901.452	1
902.186	2
902.92	2
903.654	0
904.389	0
905.123	-1
905.857	0
906.59	-3
907.324	1
908.058	-3
908.792	-1
909.525	3
910.259	-1
910.992	0
911.726	0
912.459	-1
913.192	0
913.925	1
914.658	1
915.391	-2
916.124	0
916.857	0
917.59	0
918.323	2
919.055	-1
919.788	0
920.521	1
921.253	-1
921.985	1
922.718	-1
923.45	0
924.182	-1
924.914	0
925.646	0
926.378	-1
927.11	-1
927.841	-1
928.573	0
929.305	0
930.036	-1
930.768	1
931.499	0
932.23	0
932.962	-2
933.693	-1
934.424	-2
935.155	0
935.886	0
936.617	-2
937.348	-1
938.078	0
938.809	0
939.54	-1
940.27	-1
941.001	1
941.731	0
942.461	0
943.191	-2
943.922	0
944.652	-2
945.382	-1
946.112	2
946.841	0
947.571	-1
948.301	-1
949.031	0
949.76	-1
950.49	-1
951.219	1
951.948	1
952.678	-1
953.407	0
954.136	1
954.865	0
955.594	-1
956.323	-1
957.052	0
957.78	1
958.509	0
959.238	1
959.966	1
960.695	-1
961.423	0
962.151	1
962.88	-1
963.608	-1
964.336	-1
965.064	-2
965.792	0
966.52	-2
967.247	1
967.975	-1
968.703	-1
969.43	-1
970.158	1
970.885	1
971.613	-1
972.34	1
973.067	0
973.794	1
974.521	0
975.248	0
975.975	1
976.702	0
977.429	2
978.156	0
978.882	2
979.609	0
980.335	0
981.062	1
981.788	-2
982.514	0
983.24	-1
983.967	1
984.693	-1
985.419	1
986.144	1
986.87	0
987.596	-1
988.322	-3
989.047	0
989.773	0
990.498	-1
991.224	1
991.949	1
992.674	1
993.399	1
994.124	-1
994.849	-1
995.574	-1
996.299	1
997.024	0
997.749	2
998.473	-3
999.198	1
999.922	1
1000.647	-1
1001.371	4
1002.095	-1
1002.82	1
1003.544	1
1004.268	0
1004.992	2
1005.716	1
1006.439	2
1007.163	1
1007.887	1
1008.611	1
1009.334	0
1010.058	0
1010.781	0
1011.504	-1
1012.228	1
1012.951	-1
1013.674	-1
1014.397	-1
1015.12	-2
