节点500_285_QEPB04081__76__14-56-49-330.txt的数据

Date: Wed Nov 12 14:56:49 CST 2025
User: PC
Spectrometer: QEPB0408
触发模式: 0
积分时间 (秒): 1.000000E-2
Scans to average: 1
启用暗噪声校正: true
启用非线性校正: false
滑动平均宽度: 0
X轴模式: Wavelengths
Number of Pixels in Spectrum: 1044
>>>>>Begin Spectral Data<<<<<
220.843	3.88
221.644	1.88
222.444	2.88
223.244	1.88
224.045	2.88
224.845	4.88
225.645	1.88
226.445	3.88
227.245	1.88
228.045	5.88
228.845	2.88
229.645	2.88
230.444	1.88
231.244	2.88
232.043	2.88
232.843	4.88
233.642	5.88
234.442	2.88
235.241	2.88
236.04	4.88
236.839	5.88
237.638	5.88
238.437	4.88
239.236	2.88
240.035	3.88
240.833	1.88
241.632	5.88
242.43	6.88
243.229	5.88
244.027	5.88
244.826	6.88
245.624	6.88
246.422	7.88
247.22	6.88
248.018	4.88
248.816	9.88
249.614	8.88
250.412	8.88
251.21	7.88
252.007	7.88
252.805	7.88
253.602	7.88
254.4	9.88
255.197	8.88
255.994	9.88
256.791	9.88
257.589	9.88
258.386	9.88
259.183	9.88
259.979	7.88
260.776	11.88
261.573	12.88
262.37	9.88
263.166	11.88
263.963	13.88
264.759	13.88
265.556	12.88
266.352	14.88
267.148	14.88
267.944	14.88
268.74	14.88
269.536	16.88
270.332	14.88
271.128	15.88
271.924	17.88
272.719	17.88
273.515	16.88
274.311	17.88
275.106	16.88
275.901	18.88
276.697	19.88
277.492	20.88
278.287	21.88
279.082	20.88
279.877	19.88
280.672	19.88
281.467	23.88
282.262	19.88
283.056	19.88
283.851	21.88
284.646	18.88
285.44	21.88
286.234	20.88
287.029	19.88
287.823	22.88
288.617	18.88
289.411	21.88
290.205	20.88
290.999	21.88
291.793	20.88
292.587	19.88
293.381	15.88
294.174	19.88
294.968	16.88
295.761	13.88
296.555	16.88
297.348	16.88
298.141	12.88
298.935	13.88
299.728	15.88
300.521	16.88
301.314	13.88
302.107	14.88
302.899	14.88
303.692	11.88
304.485	12.88
305.277	13.88
306.07	14.88
306.862	12.88
307.655	14.88
308.447	11.88
309.239	9.88
310.031	12.88
310.823	10.88
311.615	9.88
312.407	9.88
313.199	9.88
313.991	11.88
314.783	9.88
315.574	11.88
316.366	7.88
317.157	5.88
317.949	11.88
318.74	9.88
319.531	8.88
320.322	10.88
321.113	9.88
321.904	5.88
322.695	7.88
323.486	7.88
324.277	9.88
325.068	5.88
325.858	7.88
326.649	6.88
327.439	8.88
328.23	6.88
329.02	8.88
329.81	7.88
330.6	7.88
331.391	6.88
332.181	6.88
332.971	7.88
333.76	6.88
334.55	6.88
335.34	8.88
336.13	7.88
336.919	9.88
337.709	4.88
338.498	7.88
339.287	5.88
340.077	8.88
340.866	5.88
341.655	5.88
342.444	8.88
343.233	6.88
344.022	8.88
344.811	5.88
345.6	5.88
346.388	7.88
347.177	6.88
347.965	7.88
348.754	5.88
349.542	5.88
350.33	8.88
351.119	7.88
351.907	9.88
352.695	8.88
353.483	7.88
354.271	5.88
355.059	6.88
355.846	5.88
356.634	5.88
357.422	6.88
358.209	6.88
358.997	5.88
359.784	5.88
360.571	7.88
361.359	6.88
362.146	6.88
362.933	6.88
363.72	5.88
364.507	3.88
365.294	5.88
366.081	4.88
366.867	4.88
367.654	5.88
368.44	6.88
369.227	6.88
370.013	7.88
370.8	6.88
371.586	7.88
372.372	6.88
373.158	5.88
373.944	5.88
374.73	5.88
375.516	5.88
376.302	5.88
377.088	3.88
377.873	3.88
378.659	6.88
379.445	4.88
380.23	5.88
381.015	2.88
381.801	6.88
382.586	4.88
383.371	6.88
384.156	7.88
384.941	6.88
385.726	4.88
386.511	7.88
387.296	8.88
388.08	5.88
388.865	5.88
389.649	5.88
390.434	7.88
391.218	5.88
392.003	5.88
392.787	4.88
393.571	9.88
394.355	5.88
395.139	6.88
395.923	7.88
396.707	7.88
397.491	6.88
398.274	6.88
399.058	6.88
399.842	8.88
400.625	6.88
401.408	9.88
402.192	5.88
402.975	9.88
403.758	9.88
404.541	7.88
405.324	5.88
406.107	7.88
406.89	9.88
407.673	8.88
408.456	10.88
409.238	7.88
410.021	9.88
410.803	9.88
411.586	6.88
412.368	8.88
413.151	6.88
413.933	9.88
414.715	9.88
415.497	10.88
416.279	9.88
417.061	8.88
417.843	10.88
418.624	12.88
419.406	9.88
420.188	11.88
420.969	11.88
421.751	12.88
422.532	10.88
423.313	10.88
424.095	11.88
424.876	10.88
425.657	14.88
426.438	13.88
427.219	12.88
428	14.88
428.78	12.88
429.561	13.88
430.342	15.88
431.122	14.88
431.903	15.88
432.683	17.88
433.464	17.88
434.244	16.88
435.024	16.88
435.804	19.88
436.584	17.88
437.364	17.88
438.144	21.88
438.924	22.88
439.704	20.88
440.483	22.88
441.263	22.88
442.042	23.88
442.822	25.88
443.601	29.88
444.38	25.88
445.16	30.88
445.939	33.88
446.718	36.88
447.497	36.88
448.276	41.88
449.054	41.88
449.833	45.88
450.612	49.88
451.391	51.88
452.169	59.88
452.948	62.88
453.726	68.88
454.504	77.88
455.282	86.88
456.061	94.88
456.839	103.88
457.617	113.88
458.395	124.88
459.172	142.88
459.95	153.88
460.728	172.88
461.506	191.88
462.283	214.88
463.061	239.88
463.838	263.88
464.615	297.88
465.393	335.88
466.17	382.88
466.947	423.88
467.724	464.88
468.501	529.88
469.278	592.88
470.055	660.88
470.831	722.88
471.608	812.88
472.385	900.88
473.161	1008.88
473.938	1119.88
474.714	1259.88
475.49	1390.88
476.266	1529.88
477.043	1711.88
477.819	1902.88
478.595	2100.88
479.371	2349.88
480.146	2621.88
480.922	2892.88
481.698	3195.88
482.473	3537.88
483.249	3912.88
484.024	4319.88
484.8	4762.88
485.575	5289.88
486.35	5798.88
487.126	6392.88
487.901	7067.88
488.676	7804.88
489.451	8565.88
490.225	9422.88
491	10302.88
491.775	11320.88
492.55	12328.88
493.324	13405.88
494.099	14452.88
494.873	15677.88
495.647	16891.88
496.422	18145.88
497.196	19457.88
497.97	20816.88
498.744	22037.88
499.518	23290.88
500.292	24468.88
501.066	25488.88
501.839	26447.88
502.613	27354.88
503.387	28011.88
504.16	28578.88
504.934	28745.88
505.707	28768.88
506.48	28679.88
507.253	28466.88
508.027	27999.88
508.8	27451.88
509.573	26833.88
510.346	26039.88
511.118	25169.88
511.891	24289.88
512.664	23344.88
513.437	22320.88
514.209	21287.88
514.982	20396.88
515.754	19402.88
516.526	18548.88
517.298	17772.88
518.071	16932.88
518.843	16312.88
519.615	15686.88
520.387	15091.88
521.159	14455.88
521.93	13870.88
522.702	13356.88
523.474	12775.88
524.245	12253.88
525.017	11714.88
525.788	11257.88
526.56	10713.88
527.331	10207.88
528.102	9744.88
528.873	9252.88
529.644	8750.88
530.415	8360.88
531.186	7876.88
531.957	7433.88
532.728	7057.88
533.498	6671.88
534.269	6299.88
535.039	5916.88
535.81	5608.88
536.58	5313.88
537.351	4984.88
538.121	4714.88
538.891	4459.88
539.661	4213.88
540.431	3984.88
541.201	3760.88
541.971	3562.88
542.741	3388.88
543.51	3206.88
544.28	3070.88
545.05	2906.88
545.819	2771.88
546.588	2624.88
547.358	2493.88
548.127	2367.88
548.896	2248.88
549.665	2146.88
550.434	2023.88
551.203	1894.88
551.972	1803.88
552.741	1704.88
553.51	1606.88
554.278	1485.88
555.047	1427.88
555.815	1336.88
556.584	1276.88
557.352	1197.88
558.121	1130.88
558.889	1070.88
559.657	1013.88
560.425	950.88
561.193	911.88
561.961	844.88
562.729	812.88
563.496	754.88
564.264	710.88
565.032	678.88
565.799	638.88
566.567	603.88
567.334	569.88
568.101	539.88
568.869	512.88
569.636	481.88
570.403	458.88
571.17	431.88
571.937	405.88
572.704	383.88
573.471	357.88
574.237	345.88
575.004	316.88
575.771	303.88
576.537	283.88
577.303	269.88
578.07	245.88
578.836	237.88
579.602	217.88
580.368	210.88
581.134	201.88
581.9	193.88
582.666	175.88
583.432	167.88
584.198	159.88
584.964	155.88
585.729	146.88
586.495	135.88
587.26	129.88
588.025	118.88
588.791	115.88
589.556	106.88
590.321	107.88
591.086	99.88
591.851	94.88
592.616	93.88
593.381	86.88
594.146	83.88
594.911	79.88
595.675	74.88
596.44	69.88
597.204	67.88
597.969	65.88
598.733	64.88
599.497	58.88
600.261	56.88
601.025	53.88
601.79	53.88
602.553	49.88
603.317	48.88
604.081	49.88
604.845	44.88
605.609	41.88
606.372	42.88
607.136	37.88
607.899	36.88
608.662	39.88
609.426	34.88
610.189	33.88
610.952	33.88
611.715	30.88
612.478	29.88
613.241	29.88
614.004	27.88
614.767	26.88
615.529	23.88
616.292	26.88
617.055	24.88
617.817	24.88
618.579	24.88
619.342	20.88
620.104	21.88
620.866	19.88
621.628	19.88
622.39	20.88
623.152	19.88
623.914	19.88
624.676	18.88
625.438	16.88
626.199	15.88
626.961	17.88
627.722	14.88
628.484	14.88
629.245	16.88
630.006	12.88
630.768	11.88
631.529	12.88
632.29	13.88
633.051	13.88
633.812	11.88
634.573	12.88
635.333	10.88
636.094	12.88
636.855	10.88
637.615	9.88
638.376	10.88
639.136	7.88
639.896	11.88
640.657	11.88
641.417	9.88
642.177	9.88
642.937	9.88
643.697	10.88
644.457	8.88
645.216	8.88
645.976	10.88
646.736	9.88
647.495	8.88
648.255	6.88
649.014	7.88
649.774	6.88
650.533	7.88
651.292	7.88
652.051	8.88
652.81	8.88
653.569	7.88
654.328	10.88
655.087	5.88
655.846	4.88
656.604	5.88
657.363	6.88
658.121	5.88
658.88	3.88
659.638	4.88
660.397	7.88
661.155	5.88
661.913	5.88
662.671	7.88
663.429	4.88
664.187	7.88
664.945	6.88
665.703	5.88
666.46	4.88
667.218	6.88
667.976	6.88
668.733	4.88
669.49	6.88
670.248	4.88
671.005	2.88
671.762	6.88
672.519	6.88
673.276	4.88
674.033	3.88
674.79	5.88
675.547	4.88
676.304	3.88
677.06	4.88
677.817	4.88
678.574	3.88
679.33	4.88
680.086	3.88
680.843	5.88
681.599	4.88
682.355	4.88
683.111	6.88
683.867	5.88
684.623	3.88
685.379	4.88
686.135	3.88
686.89	3.88
687.646	3.88
688.402	4.88
689.157	3.88
689.912	1.88
690.668	4.88
691.423	2.88
692.178	1.88
692.933	5.88
693.688	5.88
694.443	4.88
695.198	4.88
695.953	3.88
696.708	3.88
697.462	5.88
698.217	4.88
698.972	3.88
699.726	3.88
700.48	4.88
701.235	3.88
701.989	2.88
702.743	5.88
703.497	6.88
704.251	3.88
705.005	4.88
705.759	3.88
706.513	3.88
707.266	3.88
708.02	3.88
708.774	3.88
709.527	2.88
710.28	3.88
711.034	5.88
711.787	4.88
712.54	3.88
713.293	4.88
714.046	3.88
714.799	5.88
715.552	3.88
716.305	2.88
717.058	4.88
717.81	4.88
718.563	3.88
719.315	2.88
720.068	5.88
720.82	2.88
721.573	3.88
722.325	4.88
723.077	3.88
723.829	2.88
724.581	1.88
725.333	4.88
726.085	5.88
726.836	4.88
727.588	4.88
728.34	3.88
729.091	7.88
729.843	3.88
730.594	4.88
731.346	6.88
732.097	5.88
732.848	5.88
733.599	5.88
734.35	4.88
735.101	5.88
735.852	4.88
736.603	5.88
737.354	4.88
738.104	6.88
738.855	5.88
739.605	5.88
740.356	5.88
741.106	6.88
741.856	5.88
742.607	4.88
743.357	4.88
744.107	7.88
744.857	3.88
745.607	6.88
746.357	7.88
747.106	5.88
747.856	6.88
748.606	7.88
749.355	6.88
750.105	3.88
750.854	5.88
751.603	5.88
752.353	6.88
753.102	4.88
753.851	3.88
754.6	7.88
755.349	6.88
756.098	7.88
756.847	7.88
757.595	6.88
758.344	9.88
759.093	4.88
759.841	9.88
760.589	6.88
761.338	6.88
762.086	8.88
762.834	7.88
763.582	7.88
764.331	8.88
765.079	9.88
765.826	9.88
766.574	9.88
767.322	7.88
768.07	7.88
768.817	9.88
769.565	8.88
770.312	8.88
771.06	7.88
771.807	7.88
772.554	9.88
773.302	8.88
774.049	11.88
774.796	6.88
775.543	8.88
776.29	9.88
777.036	8.88
777.783	8.88
778.53	7.88
779.276	9.88
780.023	8.88
780.769	9.88
781.516	12.88
782.262	8.88
783.008	9.88
783.754	8.88
784.5	9.88
785.246	5.88
785.992	8.88
786.738	7.88
787.484	8.88
788.23	10.88
788.975	10.88
789.721	11.88
790.466	9.88
791.212	8.88
791.957	8.88
792.702	7.88
793.447	8.88
794.193	7.88
794.938	6.88
795.683	7.88
796.427	9.88
797.172	9.88
797.917	9.88
798.662	6.88
799.406	8.88
800.151	8.88
800.895	8.88
801.64	6.88
802.384	10.88
803.128	9.88
803.872	5.88
804.616	8.88
805.36	8.88
806.104	5.88
806.848	6.88
807.592	6.88
808.336	5.88
809.079	7.88
809.823	6.88
810.566	5.88
811.31	4.88
812.053	5.88
812.796	6.88
813.539	5.88
814.283	5.88
815.026	5.88
815.769	5.88
816.511	3.88
817.254	5.88
817.997	6.88
818.74	5.88
819.482	5.88
820.225	6.88
820.967	5.88
821.71	4.88
822.452	3.88
823.194	2.88
823.936	6.88
824.678	5.88
825.42	4.88
826.162	4.88
826.904	5.88
827.646	5.88
828.388	5.88
829.129	1.88
829.871	4.88
830.612	4.88
831.354	6.88
832.095	3.88
832.836	4.88
833.577	3.88
834.319	4.88
835.06	4.88
835.801	4.88
836.542	4.88
837.282	4.88
838.023	4.88
838.764	6.88
839.504	4.88
840.245	3.88
840.985	1.88
841.726	4.88
842.466	4.88
843.206	4.88
843.946	3.88
844.687	2.88
845.427	4.88
846.166	2.88
846.906	3.88
847.646	2.88
848.386	1.88
849.125	4.88
849.865	2.88
850.605	4.88
851.344	3.88
852.083	1.88
852.823	4.88
853.562	1.88
854.301	3.88
855.04	3.88
855.779	2.88
856.518	4.88
857.257	1.88
857.995	4.88
858.734	1.88
859.473	3.88
860.211	2.88
860.95	-0.12
861.688	1.88
862.426	3.88
863.165	3.88
863.903	2.88
864.641	3.88
865.379	1.88
866.117	3.88
866.855	3.88
867.593	2.88
868.33	2.88
869.068	1.88
869.806	0.88
870.543	1.88
871.28	1.88
872.018	0.88
872.755	1.88
873.492	2.88
874.229	2.88
874.967	-0.12
875.703	3.88
876.44	1.88
877.177	2.88
877.914	2.88
878.651	-0.12
879.387	3.88
880.124	1.88
880.86	-2.12
881.597	2.88
882.333	0.88
883.069	2.88
883.806	-2.12
884.542	1.88
885.278	2.88
886.014	2.88
886.749	2.88
887.485	-0.12
888.221	1.88
888.957	1.88
889.692	0.88
890.428	1.88
891.163	2.88
891.899	-0.12
892.634	0.88
893.369	-0.12
894.104	-1.12
894.839	3.88
895.574	-0.12
896.309	-0.12
897.044	2.88
897.779	1.88
898.514	2.88
899.248	3.88
899.983	3.88
900.717	-0.12
901.452	1.88
902.186	0.88
902.92	-0.12
903.654	2.88
904.389	0.88
905.123	1.88
905.857	0.88
906.59	-0.12
907.324	2.88
908.058	1.88
908.792	1.88
909.525	2.88
910.259	1.88
910.992	1.88
911.726	0.88
912.459	0.88
913.192	0.88
913.925	1.88
914.658	1.88
915.391	-0.12
916.124	2.88
916.857	0.88
917.59	1.88
918.323	1.88
919.055	1.88
919.788	0.88
920.521	0.88
921.253	1.88
921.985	0.88
922.718	2.88
923.45	0.88
924.182	0.88
924.914	0.88
925.646	0.88
926.378	-0.12
927.11	-0.12
927.841	-0.12
928.573	-0.12
929.305	-1.12
930.036	0.88
930.768	0.88
931.499	0.88
932.23	3.88
932.962	-1.12
933.693	3.88
934.424	1.88
935.155	3.88
935.886	2.88
936.617	-0.12
937.348	1.88
938.078	1.88
938.809	2.88
939.54	-0.12
940.27	1.88
941.001	1.88
941.731	-0.12
942.461	0.88
943.191	-0.12
943.922	0.88
944.652	1.88
945.382	0.88
946.112	2.88
946.841	-0.12
947.571	0.88
948.301	-0.12
949.031	0.88
949.76	1.88
950.49	-0.12
951.219	1.88
951.948	1.88
952.678	1.88
953.407	0.88
954.136	1.88
954.865	2.88
955.594	0.88
956.323	1.88
957.052	0.88
957.78	1.88
958.509	-0.12
959.238	-0.12
959.966	-1.12
960.695	-0.12
961.423	-0.12
962.151	0.88
962.88	-0.12
963.608	0.88
964.336	-0.12
965.064	3.88
965.792	0.88
966.52	1.88
967.247	0.88
967.975	0.88
968.703	-0.12
969.43	-0.12
970.158	0.88
970.885	1.88
971.613	-0.12
972.34	-0.12
973.067	0.88
973.794	1.88
974.521	0.88
975.248	1.88
975.975	1.88
976.702	0.88
977.429	1.88
978.156	0.88
978.882	-0.12
979.609	-0.12
980.335	-1.12
981.062	1.88
981.788	1.88
982.514	1.88
983.24	0.88
983.967	1.88
984.693	0.88
985.419	-0.12
986.144	2.88
986.87	1.88
987.596	-0.12
988.322	1.88
989.047	0.88
989.773	2.88
990.498	0.88
991.224	0.88
991.949	-0.12
992.674	-0.12
993.399	-0.12
994.124	-0.12
994.849	2.88
995.574	1.88
996.299	2.88
997.024	-1.12
997.749	-0.12
998.473	0.88
999.198	-1.12
999.922	1.88
1000.647	1.88
1001.371	3.88
1002.095	-2.12
1002.82	-3.12
1003.544	-1.12
1004.268	2.88
1004.992	1.88
1005.716	1.88
1006.439	2.88
1007.163	1.88
1007.887	1.88
1008.611	0.88
1009.334	0.88
1010.058	0.88
1010.781	2.88
1011.504	1.88
1012.228	0.88
1012.951	0.88
1013.674	0.88
1014.397	-2.12
1015.12	2.88
