节点500_285_QEPB04081__23__14-55-57-451.txt的数据

Date: Wed Nov 12 14:55:57 CST 2025
User: PC
Spectrometer: QEPB0408
触发模式: 0
积分时间 (秒): 1.000000E-2
Scans to average: 1
启用暗噪声校正: true
启用非线性校正: false
滑动平均宽度: 0
X轴模式: Wavelengths
Number of Pixels in Spectrum: 1044
>>>>>Begin Spectral Data<<<<<
220.843	2.38
221.644	2.38
222.444	1.38
223.244	1.38
224.045	0.38
224.845	4.38
225.645	2.38
226.445	3.38
227.245	4.38
228.045	1.38
228.845	4.38
229.645	1.38
230.444	3.38
231.244	3.38
232.043	3.38
232.843	0.38
233.642	1.38
234.442	3.38
235.241	6.38
236.04	4.38
236.839	5.38
237.638	5.38
238.437	4.38
239.236	4.38
240.035	5.38
240.833	1.38
241.632	1.38
242.43	4.38
243.229	7.38
244.027	4.38
244.826	4.38
245.624	5.38
246.422	6.38
247.22	5.38
248.018	7.38
248.816	6.38
249.614	9.38
250.412	7.38
251.21	7.38
252.007	9.38
252.805	6.38
253.602	7.38
254.4	7.38
255.197	9.38
255.994	9.38
256.791	11.38
257.589	7.38
258.386	13.38
259.183	10.38
259.979	12.38
260.776	12.38
261.573	12.38
262.37	11.38
263.166	13.38
263.963	13.38
264.759	13.38
265.556	14.38
266.352	11.38
267.148	14.38
267.944	15.38
268.74	15.38
269.536	18.38
270.332	17.38
271.128	13.38
271.924	16.38
272.719	19.38
273.515	17.38
274.311	19.38
275.106	16.38
275.901	21.38
276.697	19.38
277.492	20.38
278.287	20.38
279.082	20.38
279.877	20.38
280.672	23.38
281.467	22.38
282.262	19.38
283.056	17.38
283.851	22.38
284.646	18.38
285.44	21.38
286.234	21.38
287.029	20.38
287.823	18.38
288.617	20.38
289.411	21.38
290.205	17.38
290.999	19.38
291.793	18.38
292.587	17.38
293.381	17.38
294.174	20.38
294.968	16.38
295.761	13.38
296.555	16.38
297.348	18.38
298.141	14.38
298.935	14.38
299.728	18.38
300.521	13.38
301.314	15.38
302.107	16.38
302.899	14.38
303.692	15.38
304.485	11.38
305.277	13.38
306.07	13.38
306.862	12.38
307.655	12.38
308.447	12.38
309.239	12.38
310.031	12.38
310.823	10.38
311.615	10.38
312.407	10.38
313.199	11.38
313.991	11.38
314.783	8.38
315.574	9.38
316.366	9.38
317.157	9.38
317.949	7.38
318.74	7.38
319.531	8.38
320.322	10.38
321.113	8.38
321.904	9.38
322.695	9.38
323.486	5.38
324.277	9.38
325.068	7.38
325.858	8.38
326.649	7.38
327.439	7.38
328.23	7.38
329.02	6.38
329.81	9.38
330.6	9.38
331.391	7.38
332.181	6.38
332.971	4.38
333.76	6.38
334.55	6.38
335.34	6.38
336.13	7.38
336.919	5.38
337.709	7.38
338.498	9.38
339.287	8.38
340.077	6.38
340.866	7.38
341.655	6.38
342.444	6.38
343.233	6.38
344.022	5.38
344.811	7.38
345.6	6.38
346.388	5.38
347.177	7.38
347.965	7.38
348.754	6.38
349.542	7.38
350.33	7.38
351.119	5.38
351.907	5.38
352.695	6.38
353.483	5.38
354.271	5.38
355.059	6.38
355.846	7.38
356.634	8.38
357.422	8.38
358.209	6.38
358.997	7.38
359.784	7.38
360.571	7.38
361.359	6.38
362.146	7.38
362.933	4.38
363.72	8.38
364.507	3.38
365.294	4.38
366.081	5.38
366.867	7.38
367.654	4.38
368.44	4.38
369.227	4.38
370.013	6.38
370.8	7.38
371.586	4.38
372.372	6.38
373.158	7.38
373.944	6.38
374.73	4.38
375.516	7.38
376.302	6.38
377.088	6.38
377.873	4.38
378.659	5.38
379.445	6.38
380.23	7.38
381.015	4.38
381.801	4.38
382.586	8.38
383.371	6.38
384.156	6.38
384.941	6.38
385.726	4.38
386.511	9.38
387.296	7.38
388.08	5.38
388.865	7.38
389.649	7.38
390.434	8.38
391.218	5.38
392.003	8.38
392.787	7.38
393.571	6.38
394.355	7.38
395.139	9.38
395.923	6.38
396.707	8.38
397.491	7.38
398.274	6.38
399.058	7.38
399.842	7.38
400.625	7.38
401.408	8.38
402.192	6.38
402.975	7.38
403.758	7.38
404.541	8.38
405.324	7.38
406.107	9.38
406.89	7.38
407.673	8.38
408.456	8.38
409.238	7.38
410.021	6.38
410.803	9.38
411.586	10.38
412.368	7.38
413.151	9.38
413.933	9.38
414.715	8.38
415.497	10.38
416.279	9.38
417.061	10.38
417.843	7.38
418.624	9.38
419.406	9.38
420.188	9.38
420.969	12.38
421.751	10.38
422.532	11.38
423.313	12.38
424.095	10.38
424.876	12.38
425.657	9.38
426.438	13.38
427.219	13.38
428	15.38
428.78	12.38
429.561	12.38
430.342	14.38
431.122	14.38
431.903	16.38
432.683	15.38
433.464	15.38
434.244	17.38
435.024	15.38
435.804	18.38
436.584	17.38
437.364	22.38
438.144	19.38
438.924	19.38
439.704	22.38
440.483	24.38
441.263	24.38
442.042	24.38
442.822	23.38
443.601	26.38
444.38	29.38
445.16	31.38
445.939	33.38
446.718	34.38
447.497	37.38
448.276	39.38
449.054	44.38
449.833	48.38
450.612	49.38
451.391	56.38
452.169	60.38
452.948	63.38
453.726	66.38
454.504	76.38
455.282	85.38
456.061	91.38
456.839	96.38
457.617	112.38
458.395	127.38
459.172	137.38
459.95	150.38
460.728	167.38
461.506	185.38
462.283	209.38
463.061	233.38
463.838	260.38
464.615	296.38
465.393	327.38
466.17	368.38
466.947	413.38
467.724	458.38
468.501	521.38
469.278	571.38
470.055	651.38
470.831	730.38
471.608	805.38
472.385	901.38
473.161	996.38
473.938	1122.38
474.714	1259.38
475.49	1397.38
476.266	1552.38
477.043	1746.38
477.819	1895.38
478.595	2128.38
479.371	2361.38
480.146	2606.38
480.922	2919.38
481.698	3233.38
482.473	3587.38
483.249	3947.38
484.024	4384.38
484.8	4854.38
485.575	5360.38
486.35	5932.38
487.126	6554.38
487.901	7232.38
488.676	7984.38
489.451	8829.38
490.225	9650.38
491	10573.38
491.775	11624.38
492.55	12722.38
493.324	13827.38
494.099	14909.38
494.873	16138.38
495.647	17468.38
496.422	18846.38
497.196	20075.38
497.97	21474.38
498.744	22831.38
499.518	24068.38
500.292	25273.38
501.066	26357.38
501.839	27279.38
502.613	28170.38
503.387	28809.38
504.16	29273.38
504.934	29520.38
505.707	29458.38
506.48	29243.38
507.253	28975.38
508.027	28423.38
508.8	27905.38
509.573	27194.38
510.346	26394.38
511.118	25395.38
511.891	24428.38
512.664	23401.38
513.437	22354.38
514.209	21387.38
514.982	20447.38
515.754	19467.38
516.526	18529.38
517.298	17782.38
518.071	16877.38
518.843	16350.38
519.615	15716.38
520.387	15091.38
521.159	14504.38
521.93	13881.38
522.702	13343.38
523.474	12825.38
524.245	12224.38
525.017	11640.38
525.788	11227.38
526.56	10719.38
527.331	10161.38
528.102	9727.38
528.873	9216.38
529.644	8769.38
530.415	8292.38
531.186	7815.38
531.957	7390.38
532.728	7001.38
533.498	6623.38
534.269	6232.38
535.039	5879.38
535.81	5570.38
536.58	5261.38
537.351	4934.38
538.121	4664.38
538.891	4423.38
539.661	4185.38
540.431	3966.38
541.201	3735.38
541.971	3551.38
542.741	3346.38
543.51	3184.38
544.28	3047.38
545.05	2889.38
545.819	2763.38
546.588	2589.38
547.358	2487.38
548.127	2370.38
548.896	2208.38
549.665	2124.38
550.434	1995.38
551.203	1907.38
551.972	1791.38
552.741	1683.38
553.51	1590.38
554.278	1509.38
555.047	1431.38
555.815	1333.38
556.584	1267.38
557.352	1202.38
558.121	1129.38
558.889	1046.38
559.657	1000.38
560.425	937.38
561.193	891.38
561.961	837.38
562.729	790.38
563.496	744.38
564.264	699.38
565.032	668.38
565.799	634.38
566.567	600.38
567.334	562.38
568.101	531.38
568.869	499.38
569.636	474.38
570.403	435.38
571.17	417.38
571.937	398.38
572.704	372.38
573.471	358.38
574.237	337.38
575.004	313.38
575.771	291.38
576.537	283.38
577.303	264.38
578.07	244.38
578.836	234.38
579.602	215.38
580.368	208.38
581.134	199.38
581.9	188.38
582.666	176.38
583.432	167.38
584.198	164.38
584.964	148.38
585.729	142.38
586.495	137.38
587.26	126.38
588.025	119.38
588.791	115.38
589.556	108.38
590.321	107.38
591.086	98.38
591.851	93.38
592.616	88.38
593.381	85.38
594.146	80.38
594.911	79.38
595.675	73.38
596.44	70.38
597.204	68.38
597.969	61.38
598.733	63.38
599.497	55.38
600.261	58.38
601.025	55.38
601.79	52.38
602.553	48.38
603.317	49.38
604.081	47.38
604.845	41.38
605.609	44.38
606.372	40.38
607.136	38.38
607.899	39.38
608.662	34.38
609.426	34.38
610.189	32.38
610.952	29.38
611.715	29.38
612.478	31.38
613.241	27.38
614.004	27.38
614.767	26.38
615.529	25.38
616.292	26.38
617.055	23.38
617.817	22.38
618.579	23.38
619.342	20.38
620.104	21.38
620.866	17.38
621.628	20.38
622.39	18.38
623.152	17.38
623.914	19.38
624.676	16.38
625.438	14.38
626.199	16.38
626.961	14.38
627.722	16.38
628.484	14.38
629.245	14.38
630.006	15.38
630.768	13.38
631.529	13.38
632.29	12.38
633.051	15.38
633.812	10.38
634.573	13.38
635.333	12.38
636.094	8.38
636.855	10.38
637.615	12.38
638.376	12.38
639.136	9.38
639.896	8.38
640.657	11.38
641.417	8.38
642.177	10.38
642.937	8.38
643.697	9.38
644.457	12.38
645.216	8.38
645.976	7.38
646.736	9.38
647.495	10.38
648.255	9.38
649.014	9.38
649.774	6.38
650.533	6.38
651.292	9.38
652.051	8.38
652.81	8.38
653.569	5.38
654.328	7.38
655.087	6.38
655.846	3.38
656.604	7.38
657.363	7.38
658.121	7.38
658.88	9.38
659.638	6.38
660.397	8.38
661.155	8.38
661.913	5.38
662.671	7.38
663.429	4.38
664.187	4.38
664.945	5.38
665.703	5.38
666.46	3.38
667.218	3.38
667.976	9.38
668.733	2.38
669.49	7.38
670.248	4.38
671.005	6.38
671.762	5.38
672.519	4.38
673.276	4.38
674.033	5.38
674.79	5.38
675.547	7.38
676.304	6.38
677.06	6.38
677.817	4.38
678.574	7.38
679.33	3.38
680.086	4.38
680.843	4.38
681.599	4.38
682.355	6.38
683.111	4.38
683.867	3.38
684.623	6.38
685.379	3.38
686.135	2.38
686.89	4.38
687.646	6.38
688.402	5.38
689.157	5.38
689.912	3.38
690.668	3.38
691.423	4.38
692.178	4.38
692.933	4.38
693.688	3.38
694.443	3.38
695.198	6.38
695.953	2.38
696.708	5.38
697.462	6.38
698.217	3.38
698.972	4.38
699.726	4.38
700.48	4.38
701.235	3.38
701.989	4.38
702.743	4.38
703.497	1.38
704.251	4.38
705.005	5.38
705.759	5.38
706.513	5.38
707.266	3.38
708.02	4.38
708.774	3.38
709.527	4.38
710.28	4.38
711.034	2.38
711.787	3.38
712.54	2.38
713.293	9.38
714.046	2.38
714.799	5.38
715.552	5.38
716.305	3.38
717.058	6.38
717.81	3.38
718.563	5.38
719.315	4.38
720.068	3.38
720.82	3.38
721.573	2.38
722.325	3.38
723.077	5.38
723.829	6.38
724.581	3.38
725.333	4.38
726.085	1.38
726.836	4.38
727.588	3.38
728.34	5.38
729.091	5.38
729.843	3.38
730.594	3.38
731.346	5.38
732.097	3.38
732.848	5.38
733.599	6.38
734.35	7.38
735.101	4.38
735.852	1.38
736.603	3.38
737.354	1.38
738.104	3.38
738.855	6.38
739.605	5.38
740.356	6.38
741.106	4.38
741.856	7.38
742.607	6.38
743.357	4.38
744.107	6.38
744.857	6.38
745.607	6.38
746.357	5.38
747.106	3.38
747.856	7.38
748.606	6.38
749.355	8.38
750.105	6.38
750.854	6.38
751.603	7.38
752.353	4.38
753.102	5.38
753.851	5.38
754.6	6.38
755.349	5.38
756.098	6.38
756.847	6.38
757.595	6.38
758.344	7.38
759.093	5.38
759.841	6.38
760.589	8.38
761.338	4.38
762.086	9.38
762.834	7.38
763.582	10.38
764.331	7.38
765.079	9.38
765.826	7.38
766.574	7.38
767.322	10.38
768.07	10.38
768.817	6.38
769.565	7.38
770.312	8.38
771.06	6.38
771.807	8.38
772.554	9.38
773.302	12.38
774.049	9.38
774.796	11.38
775.543	6.38
776.29	9.38
777.036	8.38
777.783	9.38
778.53	9.38
779.276	9.38
780.023	8.38
780.769	8.38
781.516	10.38
782.262	12.38
783.008	8.38
783.754	10.38
784.5	10.38
785.246	10.38
785.992	10.38
786.738	11.38
787.484	9.38
788.23	6.38
788.975	10.38
789.721	9.38
790.466	11.38
791.212	11.38
791.957	10.38
792.702	9.38
793.447	11.38
794.193	11.38
794.938	9.38
795.683	8.38
796.427	10.38
797.172	8.38
797.917	9.38
798.662	5.38
799.406	9.38
800.151	9.38
800.895	9.38
801.64	8.38
802.384	6.38
803.128	8.38
803.872	7.38
804.616	7.38
805.36	9.38
806.104	6.38
806.848	5.38
807.592	5.38
808.336	7.38
809.079	6.38
809.823	5.38
810.566	5.38
811.31	7.38
812.053	6.38
812.796	4.38
813.539	3.38
814.283	6.38
815.026	3.38
815.769	3.38
816.511	8.38
817.254	6.38
817.997	7.38
818.74	5.38
819.482	5.38
820.225	5.38
820.967	6.38
821.71	4.38
822.452	7.38
823.194	5.38
823.936	5.38
824.678	4.38
825.42	5.38
826.162	2.38
826.904	5.38
827.646	4.38
828.388	6.38
829.129	4.38
829.871	6.38
830.612	3.38
831.354	5.38
832.095	5.38
832.836	5.38
833.577	3.38
834.319	5.38
835.06	2.38
835.801	6.38
836.542	4.38
837.282	3.38
838.023	3.38
838.764	4.38
839.504	2.38
840.245	3.38
840.985	2.38
841.726	2.38
842.466	3.38
843.206	3.38
843.946	2.38
844.687	4.38
845.427	4.38
846.166	5.38
846.906	2.38
847.646	2.38
848.386	4.38
849.125	2.38
849.865	2.38
850.605	3.38
851.344	3.38
852.083	3.38
852.823	2.38
853.562	2.38
854.301	2.38
855.04	5.38
855.779	1.38
856.518	3.38
857.257	2.38
857.995	1.38
858.734	3.38
859.473	3.38
860.211	3.38
860.95	3.38
861.688	-0.62
862.426	1.38
863.165	1.38
863.903	2.38
864.641	2.38
865.379	1.38
866.117	1.38
866.855	2.38
867.593	2.38
868.33	3.38
869.068	1.38
869.806	2.38
870.543	2.38
871.28	2.38
872.018	3.38
872.755	1.38
873.492	1.38
874.229	1.38
874.967	1.38
875.703	1.38
876.44	4.38
877.177	0.38
877.914	1.38
878.651	2.38
879.387	1.38
880.124	0.38
880.86	1.38
881.597	2.38
882.333	1.38
883.069	1.38
883.806	0.38
884.542	0.38
885.278	2.38
886.014	3.38
886.749	-1.62
887.485	3.38
888.221	1.38
888.957	-0.62
889.692	1.38
890.428	0.38
891.163	0.38
891.899	0.38
892.634	2.38
893.369	0.38
894.104	0.38
894.839	1.38
895.574	2.38
896.309	0.38
897.044	-0.62
897.779	2.38
898.514	0.38
899.248	2.38
899.983	3.38
900.717	1.38
901.452	2.38
902.186	2.38
902.92	3.38
903.654	0.38
904.389	1.38
905.123	1.38
905.857	-1.62
906.59	0.38
907.324	0.38
908.058	1.38
908.792	2.38
909.525	3.38
910.259	0.38
910.992	-0.62
911.726	1.38
912.459	1.38
913.192	0.38
913.925	0.38
914.658	-0.62
915.391	0.38
916.124	1.38
916.857	-1.62
917.59	-0.62
918.323	1.38
919.055	1.38
919.788	1.38
920.521	1.38
921.253	1.38
921.985	-0.62
922.718	1.38
923.45	-0.62
924.182	3.38
924.914	3.38
925.646	2.38
926.378	-0.62
927.11	0.38
927.841	-0.62
928.573	1.38
929.305	2.38
930.036	1.38
930.768	1.38
931.499	3.38
932.23	-0.62
932.962	0.38
933.693	2.38
934.424	0.38
935.155	1.38
935.886	2.38
936.617	0.38
937.348	0.38
938.078	1.38
938.809	2.38
939.54	3.38
940.27	2.38
941.001	0.38
941.731	2.38
942.461	1.38
943.191	0.38
943.922	0.38
944.652	-0.62
945.382	0.38
946.112	1.38
946.841	1.38
947.571	-1.62
948.301	0.38
949.031	3.38
949.76	0.38
950.49	3.38
951.219	0.38
951.948	0.38
952.678	-0.62
953.407	1.38
954.136	1.38
954.865	1.38
955.594	0.38
956.323	0.38
957.052	0.38
957.78	2.38
958.509	0.38
959.238	1.38
959.966	0.38
960.695	0.38
961.423	1.38
962.151	2.38
962.88	0.38
963.608	1.38
964.336	-1.62
965.064	0.38
965.792	1.38
966.52	0.38
967.247	-0.62
967.975	0.38
968.703	2.38
969.43	0.38
970.158	0.38
970.885	-0.62
971.613	-0.62
972.34	3.38
973.067	0.38
973.794	1.38
974.521	0.38
975.248	-0.62
975.975	0.38
976.702	0.38
977.429	1.38
978.156	1.38
978.882	1.38
979.609	0.38
980.335	1.38
981.062	1.38
981.788	0.38
982.514	1.38
983.24	-0.62
983.967	0.38
984.693	3.38
985.419	1.38
986.144	-0.62
986.87	0.38
987.596	0.38
988.322	0.38
989.047	1.38
989.773	1.38
990.498	0.38
991.224	3.38
991.949	0.38
992.674	1.38
993.399	1.38
994.124	0.38
994.849	2.38
995.574	1.38
996.299	1.38
997.024	1.38
997.749	1.38
998.473	1.38
999.198	0.38
999.922	4.38
1000.647	-0.62
1001.371	3.38
1002.095	-0.62
1002.82	-2.62
1003.544	-2.62
1004.268	1.38
1004.992	-0.62
1005.716	1.38
1006.439	1.38
1007.163	3.38
1007.887	0.38
1008.611	3.38
1009.334	2.38
1010.058	0.38
1010.781	-0.62
1011.504	2.38
1012.228	-0.62
1012.951	1.38
1013.674	1.38
1014.397	0.38
1015.12	-0.62
