节点500_285_QEPB04081__669__15-06-40-991.txt的数据

Date: Wed Nov 12 15:06:40 CST 2025
User: PC
Spectrometer: QEPB0408
触发模式: 0
积分时间 (秒): 1.000000E-2
Scans to average: 1
启用暗噪声校正: true
启用非线性校正: false
滑动平均宽度: 0
X轴模式: Wavelengths
Number of Pixels in Spectrum: 1044
>>>>>Begin Spectral Data<<<<<
220.843	3.75
221.644	2.75
222.444	0.75
223.244	2.75
224.045	2.75
224.845	2.75
225.645	0.75
226.445	1.75
227.245	1.75
228.045	3.75
228.845	3.75
229.645	1.75
230.444	1.75
231.244	0.75
232.043	4.75
232.843	1.75
233.642	0.75
234.442	4.75
235.241	0.75
236.04	3.75
236.839	3.75
237.638	2.75
238.437	5.75
239.236	2.75
240.035	2.75
240.833	2.75
241.632	2.75
242.43	5.75
243.229	6.75
244.027	3.75
244.826	4.75
245.624	5.75
246.422	4.75
247.22	5.75
248.018	6.75
248.816	5.75
249.614	6.75
250.412	4.75
251.21	5.75
252.007	3.75
252.805	4.75
253.602	3.75
254.4	7.75
255.197	7.75
255.994	6.75
256.791	5.75
257.589	5.75
258.386	11.75
259.183	8.75
259.979	6.75
260.776	9.75
261.573	7.75
262.37	10.75
263.166	8.75
263.963	10.75
264.759	9.75
265.556	13.75
266.352	11.75
267.148	10.75
267.944	9.75
268.74	13.75
269.536	13.75
270.332	12.75
271.128	14.75
271.924	14.75
272.719	13.75
273.515	13.75
274.311	14.75
275.106	14.75
275.901	14.75
276.697	16.75
277.492	14.75
278.287	15.75
279.082	19.75
279.877	19.75
280.672	16.75
281.467	17.75
282.262	16.75
283.056	19.75
283.851	16.75
284.646	16.75
285.44	17.75
286.234	17.75
287.029	17.75
287.823	16.75
288.617	17.75
289.411	18.75
290.205	17.75
290.999	16.75
291.793	16.75
292.587	17.75
293.381	16.75
294.174	16.75
294.968	16.75
295.761	14.75
296.555	14.75
297.348	12.75
298.141	13.75
298.935	15.75
299.728	15.75
300.521	13.75
301.314	13.75
302.107	14.75
302.899	11.75
303.692	14.75
304.485	12.75
305.277	12.75
306.07	10.75
306.862	8.75
307.655	13.75
308.447	12.75
309.239	9.75
310.031	9.75
310.823	11.75
311.615	9.75
312.407	7.75
313.199	10.75
313.991	7.75
314.783	7.75
315.574	7.75
316.366	6.75
317.157	7.75
317.949	6.75
318.74	6.75
319.531	9.75
320.322	7.75
321.113	6.75
321.904	5.75
322.695	8.75
323.486	7.75
324.277	7.75
325.068	8.75
325.858	6.75
326.649	6.75
327.439	6.75
328.23	6.75
329.02	6.75
329.81	6.75
330.6	6.75
331.391	6.75
332.181	7.75
332.971	6.75
333.76	6.75
334.55	7.75
335.34	5.75
336.13	6.75
336.919	5.75
337.709	5.75
338.498	4.75
339.287	5.75
340.077	6.75
340.866	4.75
341.655	5.75
342.444	6.75
343.233	5.75
344.022	5.75
344.811	6.75
345.6	6.75
346.388	6.75
347.177	5.75
347.965	4.75
348.754	4.75
349.542	3.75
350.33	4.75
351.119	5.75
351.907	5.75
352.695	5.75
353.483	4.75
354.271	7.75
355.059	3.75
355.846	4.75
356.634	5.75
357.422	3.75
358.209	6.75
358.997	2.75
359.784	5.75
360.571	6.75
361.359	6.75
362.146	6.75
362.933	4.75
363.72	5.75
364.507	3.75
365.294	4.75
366.081	5.75
366.867	5.75
367.654	5.75
368.44	2.75
369.227	3.75
370.013	5.75
370.8	3.75
371.586	5.75
372.372	2.75
373.158	7.75
373.944	4.75
374.73	3.75
375.516	5.75
376.302	3.75
377.088	6.75
377.873	3.75
378.659	4.75
379.445	4.75
380.23	5.75
381.015	5.75
381.801	1.75
382.586	5.75
383.371	3.75
384.156	3.75
384.941	2.75
385.726	4.75
386.511	5.75
387.296	3.75
388.08	6.75
388.865	7.75
389.649	3.75
390.434	5.75
391.218	4.75
392.003	7.75
392.787	5.75
393.571	6.75
394.355	5.75
395.139	7.75
395.923	6.75
396.707	4.75
397.491	3.75
398.274	5.75
399.058	5.75
399.842	7.75
400.625	4.75
401.408	7.75
402.192	5.75
402.975	6.75
403.758	6.75
404.541	6.75
405.324	7.75
406.107	8.75
406.89	4.75
407.673	7.75
408.456	5.75
409.238	9.75
410.021	6.75
410.803	8.75
411.586	4.75
412.368	9.75
413.151	4.75
413.933	10.75
414.715	8.75
415.497	6.75
416.279	11.75
417.061	8.75
417.843	7.75
418.624	9.75
419.406	9.75
420.188	11.75
420.969	9.75
421.751	9.75
422.532	8.75
423.313	10.75
424.095	10.75
424.876	11.75
425.657	11.75
426.438	10.75
427.219	11.75
428	11.75
428.78	13.75
429.561	16.75
430.342	13.75
431.122	14.75
431.903	13.75
432.683	15.75
433.464	16.75
434.244	15.75
435.024	19.75
435.804	19.75
436.584	17.75
437.364	20.75
438.144	19.75
438.924	20.75
439.704	20.75
440.483	24.75
441.263	25.75
442.042	23.75
442.822	28.75
443.601	26.75
444.38	32.75
445.16	31.75
445.939	34.75
446.718	38.75
447.497	39.75
448.276	43.75
449.054	46.75
449.833	49.75
450.612	57.75
451.391	58.75
452.169	61.75
452.948	76.75
453.726	77.75
454.504	85.75
455.282	99.75
456.061	109.75
456.839	121.75
457.617	133.75
458.395	145.75
459.172	167.75
459.95	185.75
460.728	203.75
461.506	230.75
462.283	252.75
463.061	272.75
463.838	308.75
464.615	354.75
465.393	378.75
466.17	438.75
466.947	478.75
467.724	531.75
468.501	593.75
469.278	655.75
470.055	722.75
470.831	809.75
471.608	891.75
472.385	991.75
473.161	1087.75
473.938	1205.75
474.714	1328.75
475.49	1453.75
476.266	1611.75
477.043	1757.75
477.819	1947.75
478.595	2140.75
479.371	2334.75
480.146	2573.75
480.922	2813.75
481.698	3072.75
482.473	3389.75
483.249	3712.75
484.024	4048.75
484.8	4424.75
485.575	4821.75
486.35	5259.75
487.126	5714.75
487.901	6254.75
488.676	6830.75
489.451	7437.75
490.225	8110.75
491	8779.75
491.775	9563.75
492.55	10393.75
493.324	11218.75
494.099	11997.75
494.873	12943.75
495.647	13925.75
496.422	14928.75
497.196	15980.75
497.97	17048.75
498.744	18191.75
499.518	19155.75
500.292	20212.75
501.066	21226.75
501.839	22257.75
502.613	23109.75
503.387	23934.75
504.16	24673.75
504.934	25106.75
505.707	25496.75
506.48	25623.75
507.253	25743.75
508.027	25726.75
508.8	25604.75
509.573	25387.75
510.346	24965.75
511.118	24404.75
511.891	23822.75
512.664	23112.75
513.437	22401.75
514.209	21598.75
514.982	20730.75
515.754	19977.75
516.526	19092.75
517.298	18346.75
518.071	17559.75
518.843	16873.75
519.615	16258.75
520.387	15602.75
521.159	14981.75
521.93	14340.75
522.702	13801.75
523.474	13273.75
524.245	12696.75
525.017	12175.75
525.788	11748.75
526.56	11182.75
527.331	10658.75
528.102	10234.75
528.873	9785.75
529.644	9307.75
530.415	8893.75
531.186	8493.75
531.957	8033.75
532.728	7646.75
533.498	7285.75
534.269	6886.75
535.039	6524.75
535.81	6132.75
536.58	5833.75
537.351	5467.75
538.121	5216.75
538.891	4922.75
539.661	4662.75
540.431	4402.75
541.201	4130.75
541.971	3920.75
542.741	3726.75
543.51	3543.75
544.28	3374.75
545.05	3229.75
545.819	3055.75
546.588	2876.75
547.358	2729.75
548.127	2627.75
548.896	2497.75
549.665	2355.75
550.434	2250.75
551.203	2112.75
551.972	2012.75
552.741	1887.75
553.51	1798.75
554.278	1690.75
555.047	1614.75
555.815	1512.75
556.584	1421.75
557.352	1344.75
558.121	1290.75
558.889	1223.75
559.657	1149.75
560.425	1082.75
561.193	1019.75
561.961	965.75
562.729	913.75
563.496	867.75
564.264	810.75
565.032	765.75
565.799	722.75
566.567	676.75
567.334	655.75
568.101	625.75
568.869	587.75
569.636	547.75
570.403	505.75
571.17	478.75
571.937	449.75
572.704	429.75
573.471	407.75
574.237	381.75
575.004	358.75
575.771	342.75
576.537	325.75
577.303	301.75
578.07	284.75
578.836	266.75
579.602	255.75
580.368	240.75
581.134	229.75
581.9	210.75
582.666	208.75
583.432	193.75
584.198	185.75
584.964	176.75
585.729	167.75
586.495	160.75
587.26	150.75
588.025	139.75
588.791	133.75
589.556	123.75
590.321	119.75
591.086	112.75
591.851	108.75
592.616	105.75
593.381	97.75
594.146	92.75
594.911	88.75
595.675	84.75
596.44	79.75
597.204	73.75
597.969	71.75
598.733	73.75
599.497	67.75
600.261	65.75
601.025	59.75
601.79	54.75
602.553	56.75
603.317	55.75
604.081	50.75
604.845	48.75
605.609	44.75
606.372	43.75
607.136	40.75
607.899	43.75
608.662	38.75
609.426	38.75
610.189	35.75
610.952	29.75
611.715	33.75
612.478	31.75
613.241	32.75
614.004	31.75
614.767	28.75
615.529	25.75
616.292	25.75
617.055	25.75
617.817	25.75
618.579	23.75
619.342	21.75
620.104	22.75
620.866	21.75
621.628	21.75
622.39	20.75
623.152	18.75
623.914	18.75
624.676	17.75
625.438	17.75
626.199	16.75
626.961	16.75
627.722	16.75
628.484	13.75
629.245	13.75
630.006	14.75
630.768	15.75
631.529	14.75
632.29	15.75
633.051	14.75
633.812	12.75
634.573	11.75
635.333	10.75
636.094	9.75
636.855	12.75
637.615	8.75
638.376	10.75
639.136	9.75
639.896	8.75
640.657	9.75
641.417	10.75
642.177	9.75
642.937	8.75
643.697	9.75
644.457	10.75
645.216	8.75
645.976	6.75
646.736	8.75
647.495	7.75
648.255	6.75
649.014	5.75
649.774	7.75
650.533	4.75
651.292	6.75
652.051	2.75
652.81	6.75
653.569	4.75
654.328	5.75
655.087	9.75
655.846	6.75
656.604	3.75
657.363	3.75
658.121	5.75
658.88	6.75
659.638	6.75
660.397	4.75
661.155	6.75
661.913	4.75
662.671	2.75
663.429	5.75
664.187	4.75
664.945	6.75
665.703	5.75
666.46	2.75
667.218	4.75
667.976	5.75
668.733	4.75
669.49	6.75
670.248	3.75
671.005	4.75
671.762	2.75
672.519	4.75
673.276	4.75
674.033	2.75
674.79	5.75
675.547	2.75
676.304	5.75
677.06	5.75
677.817	3.75
678.574	4.75
679.33	3.75
680.086	4.75
680.843	2.75
681.599	2.75
682.355	2.75
683.111	3.75
683.867	4.75
684.623	1.75
685.379	5.75
686.135	5.75
686.89	5.75
687.646	4.75
688.402	3.75
689.157	5.75
689.912	2.75
690.668	4.75
691.423	3.75
692.178	3.75
692.933	2.75
693.688	3.75
694.443	2.75
695.198	3.75
695.953	4.75
696.708	4.75
697.462	4.75
698.217	4.75
698.972	0.75
699.726	5.75
700.48	3.75
701.235	2.75
701.989	1.75
702.743	4.75
703.497	5.75
704.251	3.75
705.005	5.75
705.759	3.75
706.513	3.75
707.266	4.75
708.02	3.75
708.774	3.75
709.527	2.75
710.28	4.75
711.034	1.75
711.787	3.75
712.54	4.75
713.293	2.75
714.046	3.75
714.799	1.75
715.552	3.75
716.305	4.75
717.058	3.75
717.81	3.75
718.563	2.75
719.315	5.75
720.068	3.75
720.82	4.75
721.573	3.75
722.325	3.75
723.077	3.75
723.829	4.75
724.581	1.75
725.333	1.75
726.085	5.75
726.836	4.75
727.588	4.75
728.34	4.75
729.091	2.75
729.843	3.75
730.594	4.75
731.346	3.75
732.097	5.75
732.848	2.75
733.599	3.75
734.35	5.75
735.101	4.75
735.852	1.75
736.603	4.75
737.354	4.75
738.104	1.75
738.855	3.75
739.605	4.75
740.356	4.75
741.106	3.75
741.856	4.75
742.607	2.75
743.357	1.75
744.107	5.75
744.857	1.75
745.607	3.75
746.357	5.75
747.106	5.75
747.856	3.75
748.606	4.75
749.355	4.75
750.105	2.75
750.854	6.75
751.603	3.75
752.353	3.75
753.102	5.75
753.851	4.75
754.6	4.75
755.349	6.75
756.098	5.75
756.847	7.75
757.595	5.75
758.344	5.75
759.093	4.75
759.841	6.75
760.589	4.75
761.338	4.75
762.086	6.75
762.834	3.75
763.582	4.75
764.331	5.75
765.079	6.75
765.826	6.75
766.574	7.75
767.322	5.75
768.07	5.75
768.817	8.75
769.565	3.75
770.312	8.75
771.06	9.75
771.807	6.75
772.554	5.75
773.302	5.75
774.049	8.75
774.796	5.75
775.543	7.75
776.29	5.75
777.036	5.75
777.783	4.75
778.53	7.75
779.276	7.75
780.023	8.75
780.769	9.75
781.516	9.75
782.262	8.75
783.008	6.75
783.754	6.75
784.5	6.75
785.246	6.75
785.992	9.75
786.738	6.75
787.484	7.75
788.23	8.75
788.975	6.75
789.721	5.75
790.466	8.75
791.212	6.75
791.957	9.75
792.702	7.75
793.447	6.75
794.193	4.75
794.938	6.75
795.683	6.75
796.427	8.75
797.172	4.75
797.917	6.75
798.662	8.75
799.406	6.75
800.151	8.75
800.895	6.75
801.64	4.75
802.384	7.75
803.128	5.75
803.872	7.75
804.616	6.75
805.36	5.75
806.104	8.75
806.848	5.75
807.592	5.75
808.336	7.75
809.079	6.75
809.823	2.75
810.566	6.75
811.31	5.75
812.053	4.75
812.796	3.75
813.539	2.75
814.283	2.75
815.026	5.75
815.769	3.75
816.511	4.75
817.254	4.75
817.997	5.75
818.74	5.75
819.482	4.75
820.225	7.75
820.967	4.75
821.71	3.75
822.452	3.75
823.194	1.75
823.936	3.75
824.678	2.75
825.42	4.75
826.162	4.75
826.904	2.75
827.646	4.75
828.388	3.75
829.129	3.75
829.871	4.75
830.612	5.75
831.354	4.75
832.095	3.75
832.836	3.75
833.577	4.75
834.319	3.75
835.06	1.75
835.801	4.75
836.542	2.75
837.282	1.75
838.023	3.75
838.764	4.75
839.504	3.75
840.245	3.75
840.985	3.75
841.726	2.75
842.466	3.75
843.206	2.75
843.946	4.75
844.687	3.75
845.427	2.75
846.166	0.75
846.906	4.75
847.646	3.75
848.386	1.75
849.125	5.75
849.865	2.75
850.605	3.75
851.344	3.75
852.083	4.75
852.823	-0.25
853.562	1.75
854.301	3.75
855.04	1.75
855.779	1.75
856.518	2.75
857.257	1.75
857.995	2.75
858.734	0.75
859.473	2.75
860.211	0.75
860.95	1.75
861.688	2.75
862.426	1.75
863.165	2.75
863.903	3.75
864.641	-0.25
865.379	0.75
866.117	0.75
866.855	2.75
867.593	-1.25
868.33	3.75
869.068	2.75
869.806	-1.25
870.543	2.75
871.28	3.75
872.018	2.75
872.755	3.75
873.492	-0.25
874.229	0.75
874.967	1.75
875.703	1.75
876.44	0.75
877.177	2.75
877.914	-0.25
878.651	0.75
879.387	0.75
880.124	-0.25
880.86	1.75
881.597	0.75
882.333	-0.25
883.069	0.75
883.806	1.75
884.542	0.75
885.278	-0.25
886.014	4.75
886.749	2.75
887.485	1.75
888.221	-0.25
888.957	0.75
889.692	0.75
890.428	0.75
891.163	0.75
891.899	0.75
892.634	1.75
893.369	2.75
894.104	1.75
894.839	1.75
895.574	-0.25
896.309	2.75
897.044	-0.25
897.779	-0.25
898.514	0.75
899.248	1.75
899.983	3.75
900.717	1.75
901.452	-1.25
902.186	-0.25
902.92	1.75
903.654	1.75
904.389	-0.25
905.123	0.75
905.857	0.75
906.59	1.75
907.324	0.75
908.058	-0.25
908.792	2.75
909.525	0.75
910.259	-2.25
910.992	1.75
911.726	0.75
912.459	-0.25
913.192	0.75
913.925	2.75
914.658	0.75
915.391	1.75
916.124	0.75
916.857	-1.25
917.59	-0.25
918.323	-0.25
919.055	4.75
919.788	-0.25
920.521	0.75
921.253	1.75
921.985	-0.25
922.718	0.75
923.45	-0.25
924.182	0.75
924.914	-2.25
925.646	-0.25
926.378	1.75
927.11	1.75
927.841	1.75
928.573	-0.25
929.305	0.75
930.036	-2.25
930.768	1.75
931.499	-0.25
932.23	-0.25
932.962	0.75
933.693	-1.25
934.424	0.75
935.155	1.75
935.886	-0.25
936.617	0.75
937.348	-0.25
938.078	0.75
938.809	-1.25
939.54	-0.25
940.27	0.75
941.001	0.75
941.731	-0.25
942.461	-0.25
943.191	-1.25
943.922	0.75
944.652	2.75
945.382	-0.25
946.112	-0.25
946.841	-0.25
947.571	-0.25
948.301	-0.25
949.031	1.75
949.76	-0.25
950.49	0.75
951.219	-0.25
951.948	0.75
952.678	1.75
953.407	-0.25
954.136	1.75
954.865	1.75
955.594	-2.25
956.323	-0.25
957.052	1.75
957.78	-2.25
958.509	0.75
959.238	-0.25
959.966	-2.25
960.695	0.75
961.423	-2.25
962.151	2.75
962.88	-0.25
963.608	-0.25
964.336	0.75
965.064	-0.25
965.792	-0.25
966.52	-0.25
967.247	0.75
967.975	-1.25
968.703	0.75
969.43	0.75
970.158	-3.25
970.885	0.75
971.613	2.75
972.34	0.75
973.067	1.75
973.794	0.75
974.521	1.75
975.248	-0.25
975.975	0.75
976.702	0.75
977.429	-1.25
978.156	1.75
978.882	0.75
979.609	0.75
980.335	-0.25
981.062	1.75
981.788	1.75
982.514	-0.25
983.24	-0.25
983.967	0.75
984.693	1.75
985.419	0.75
986.144	-2.25
986.87	-0.25
987.596	-0.25
988.322	-1.25
989.047	0.75
989.773	0.75
990.498	0.75
991.224	-1.25
991.949	0.75
992.674	-0.25
993.399	0.75
994.124	-0.25
994.849	0.75
995.574	1.75
996.299	0.75
997.024	1.75
997.749	0.75
998.473	-0.25
999.198	0.75
999.922	1.75
1000.647	2.75
1001.371	1.75
1002.095	-2.25
1002.82	0.75
1003.544	-2.25
1004.268	1.75
1004.992	0.75
1005.716	-0.25
1006.439	-0.25
1007.163	1.75
1007.887	-0.25
1008.611	0.75
1009.334	0.75
1010.058	-0.25
1010.781	-0.25
1011.504	-1.25
1012.228	0.75
1012.951	0.75
1013.674	-0.25
1014.397	0.75
1015.12	0.75
