节点500_285_QEPB04081__753__15-08-04-804.txt的数据

Date: Wed Nov 12 15:08:04 CST 2025
User: PC
Spectrometer: QEPB0408
触发模式: 0
积分时间 (秒): 1.000000E-2
Scans to average: 1
启用暗噪声校正: true
启用非线性校正: false
滑动平均宽度: 0
X轴模式: Wavelengths
Number of Pixels in Spectrum: 1044
>>>>>Begin Spectral Data<<<<<
220.843	4.38
221.644	2.38
222.444	3.38
223.244	1.38
224.045	3.38
224.845	2.38
225.645	5.38
226.445	1.38
227.245	3.38
228.045	3.38
228.845	2.38
229.645	3.38
230.444	3.38
231.244	1.38
232.043	2.38
232.843	7.38
233.642	3.38
234.442	4.38
235.241	5.38
236.04	3.38
236.839	3.38
237.638	6.38
238.437	5.38
239.236	3.38
240.035	5.38
240.833	4.38
241.632	3.38
242.43	4.38
243.229	4.38
244.027	4.38
244.826	7.38
245.624	4.38
246.422	6.38
247.22	5.38
248.018	5.38
248.816	5.38
249.614	4.38
250.412	5.38
251.21	3.38
252.007	6.38
252.805	4.38
253.602	7.38
254.4	9.38
255.197	8.38
255.994	7.38
256.791	5.38
257.589	11.38
258.386	8.38
259.183	8.38
259.979	9.38
260.776	9.38
261.573	9.38
262.37	10.38
263.166	11.38
263.963	10.38
264.759	11.38
265.556	10.38
266.352	13.38
267.148	14.38
267.944	13.38
268.74	12.38
269.536	12.38
270.332	12.38
271.128	12.38
271.924	13.38
272.719	13.38
273.515	14.38
274.311	13.38
275.106	16.38
275.901	16.38
276.697	16.38
277.492	17.38
278.287	17.38
279.082	16.38
279.877	17.38
280.672	17.38
281.467	14.38
282.262	17.38
283.056	15.38
283.851	16.38
284.646	17.38
285.44	14.38
286.234	18.38
287.029	18.38
287.823	21.38
288.617	18.38
289.411	17.38
290.205	18.38
290.999	18.38
291.793	16.38
292.587	15.38
293.381	16.38
294.174	15.38
294.968	17.38
295.761	15.38
296.555	13.38
297.348	13.38
298.141	14.38
298.935	17.38
299.728	12.38
300.521	13.38
301.314	12.38
302.107	14.38
302.899	15.38
303.692	12.38
304.485	14.38
305.277	11.38
306.07	12.38
306.862	13.38
307.655	9.38
308.447	12.38
309.239	10.38
310.031	13.38
310.823	10.38
311.615	9.38
312.407	9.38
313.199	11.38
313.991	8.38
314.783	9.38
315.574	9.38
316.366	10.38
317.157	7.38
317.949	11.38
318.74	10.38
319.531	7.38
320.322	8.38
321.113	7.38
321.904	8.38
322.695	6.38
323.486	7.38
324.277	8.38
325.068	8.38
325.858	8.38
326.649	5.38
327.439	7.38
328.23	7.38
329.02	6.38
329.81	7.38
330.6	5.38
331.391	7.38
332.181	5.38
332.971	6.38
333.76	7.38
334.55	6.38
335.34	7.38
336.13	5.38
336.919	7.38
337.709	5.38
338.498	10.38
339.287	7.38
340.077	7.38
340.866	7.38
341.655	6.38
342.444	7.38
343.233	5.38
344.022	5.38
344.811	7.38
345.6	6.38
346.388	6.38
347.177	4.38
347.965	6.38
348.754	5.38
349.542	6.38
350.33	6.38
351.119	6.38
351.907	5.38
352.695	4.38
353.483	5.38
354.271	5.38
355.059	7.38
355.846	5.38
356.634	5.38
357.422	5.38
358.209	4.38
358.997	6.38
359.784	6.38
360.571	3.38
361.359	6.38
362.146	4.38
362.933	5.38
363.72	6.38
364.507	7.38
365.294	8.38
366.081	4.38
366.867	5.38
367.654	3.38
368.44	6.38
369.227	5.38
370.013	3.38
370.8	4.38
371.586	6.38
372.372	6.38
373.158	6.38
373.944	9.38
374.73	7.38
375.516	7.38
376.302	4.38
377.088	5.38
377.873	8.38
378.659	4.38
379.445	6.38
380.23	3.38
381.015	5.38
381.801	5.38
382.586	6.38
383.371	5.38
384.156	7.38
384.941	4.38
385.726	6.38
386.511	7.38
387.296	7.38
388.08	5.38
388.865	8.38
389.649	7.38
390.434	7.38
391.218	6.38
392.003	6.38
392.787	8.38
393.571	7.38
394.355	6.38
395.139	5.38
395.923	6.38
396.707	6.38
397.491	5.38
398.274	8.38
399.058	5.38
399.842	6.38
400.625	5.38
401.408	6.38
402.192	8.38
402.975	7.38
403.758	6.38
404.541	7.38
405.324	7.38
406.107	8.38
406.89	7.38
407.673	7.38
408.456	4.38
409.238	10.38
410.021	8.38
410.803	7.38
411.586	8.38
412.368	6.38
413.151	8.38
413.933	9.38
414.715	9.38
415.497	7.38
416.279	10.38
417.061	8.38
417.843	10.38
418.624	9.38
419.406	7.38
420.188	10.38
420.969	10.38
421.751	9.38
422.532	10.38
423.313	12.38
424.095	10.38
424.876	12.38
425.657	12.38
426.438	11.38
427.219	11.38
428	14.38
428.78	12.38
429.561	13.38
430.342	13.38
431.122	13.38
431.903	14.38
432.683	16.38
433.464	15.38
434.244	14.38
435.024	17.38
435.804	16.38
436.584	21.38
437.364	19.38
438.144	18.38
438.924	21.38
439.704	21.38
440.483	24.38
441.263	27.38
442.042	29.38
442.822	26.38
443.601	27.38
444.38	32.38
445.16	34.38
445.939	34.38
446.718	42.38
447.497	40.38
448.276	49.38
449.054	48.38
449.833	52.38
450.612	56.38
451.391	64.38
452.169	67.38
452.948	75.38
453.726	79.38
454.504	94.38
455.282	99.38
456.061	110.38
456.839	120.38
457.617	142.38
458.395	144.38
459.172	166.38
459.95	182.38
460.728	207.38
461.506	229.38
462.283	254.38
463.061	287.38
463.838	315.38
464.615	355.38
465.393	394.38
466.17	442.38
466.947	494.38
467.724	537.38
468.501	607.38
469.278	660.38
470.055	746.38
470.831	806.38
471.608	896.38
472.385	989.38
473.161	1100.38
473.938	1209.38
474.714	1346.38
475.49	1468.38
476.266	1609.38
477.043	1774.38
477.819	1937.38
478.595	2129.38
479.371	2328.38
480.146	2552.38
480.922	2810.38
481.698	3062.38
482.473	3357.38
483.249	3648.38
484.024	3996.38
484.8	4374.38
485.575	4744.38
486.35	5182.38
487.126	5615.38
487.901	6158.38
488.676	6706.38
489.451	7309.38
490.225	7932.38
491	8605.38
491.775	9353.38
492.55	10130.38
493.324	10942.38
494.099	11690.38
494.873	12625.38
495.647	13551.38
496.422	14548.38
497.196	15528.38
497.97	16587.38
498.744	17653.38
499.518	18656.38
500.292	19739.38
501.066	20709.38
501.839	21619.38
502.613	22533.38
503.387	23359.38
504.16	24081.38
504.934	24583.38
505.707	24884.38
506.48	25132.38
507.253	25340.38
508.027	25255.38
508.8	25175.38
509.573	25040.38
510.346	24711.38
511.118	24250.38
511.891	23635.38
512.664	22927.38
513.437	22302.38
514.209	21514.38
514.982	20726.38
515.754	19905.38
516.526	19135.38
517.298	18354.38
518.071	17559.38
518.843	16888.38
519.615	16295.38
520.387	15670.38
521.159	15057.38
521.93	14436.38
522.702	13861.38
523.474	13298.38
524.245	12709.38
525.017	12183.38
525.788	11718.38
526.56	11228.38
527.331	10769.38
528.102	10229.38
528.873	9815.38
529.644	9351.38
530.415	8915.38
531.186	8507.38
531.957	8089.38
532.728	7729.38
533.498	7352.38
534.269	6959.38
535.039	6583.38
535.81	6219.38
536.58	5889.38
537.351	5566.38
538.121	5267.38
538.891	4987.38
539.661	4692.38
540.431	4443.38
541.201	4198.38
541.971	3988.38
542.741	3772.38
543.51	3598.38
544.28	3415.38
545.05	3269.38
545.819	3064.38
546.588	2917.38
547.358	2787.38
548.127	2652.38
548.896	2529.38
549.665	2398.38
550.434	2255.38
551.203	2149.38
551.972	2034.38
552.741	1918.38
553.51	1812.38
554.278	1741.38
555.047	1634.38
555.815	1533.38
556.584	1450.38
557.352	1372.38
558.121	1288.38
558.889	1237.38
559.657	1174.38
560.425	1095.38
561.193	1044.38
561.961	976.38
562.729	921.38
563.496	881.38
564.264	825.38
565.032	781.38
565.799	742.38
566.567	693.38
567.334	665.38
568.101	632.38
568.869	587.38
569.636	552.38
570.403	521.38
571.17	489.38
571.937	472.38
572.704	442.38
573.471	411.38
574.237	388.38
575.004	365.38
575.771	341.38
576.537	326.38
577.303	305.38
578.07	296.38
578.836	269.38
579.602	256.38
580.368	241.38
581.134	230.38
581.9	223.38
582.666	209.38
583.432	199.38
584.198	183.38
584.964	177.38
585.729	167.38
586.495	163.38
587.26	151.38
588.025	147.38
588.791	137.38
589.556	122.38
590.321	116.38
591.086	110.38
591.851	110.38
592.616	102.38
593.381	98.38
594.146	91.38
594.911	91.38
595.675	87.38
596.44	84.38
597.204	77.38
597.969	73.38
598.733	73.38
599.497	70.38
600.261	65.38
601.025	64.38
601.79	57.38
602.553	54.38
603.317	54.38
604.081	54.38
604.845	46.38
605.609	47.38
606.372	46.38
607.136	47.38
607.899	39.38
608.662	40.38
609.426	39.38
610.189	38.38
610.952	33.38
611.715	33.38
612.478	33.38
613.241	35.38
614.004	30.38
614.767	28.38
615.529	28.38
616.292	26.38
617.055	27.38
617.817	25.38
618.579	23.38
619.342	23.38
620.104	26.38
620.866	22.38
621.628	21.38
622.39	23.38
623.152	21.38
623.914	19.38
624.676	19.38
625.438	18.38
626.199	18.38
626.961	18.38
627.722	15.38
628.484	16.38
629.245	15.38
630.006	14.38
630.768	15.38
631.529	17.38
632.29	12.38
633.051	14.38
633.812	11.38
634.573	16.38
635.333	10.38
636.094	12.38
636.855	13.38
637.615	13.38
638.376	10.38
639.136	10.38
639.896	10.38
640.657	9.38
641.417	10.38
642.177	8.38
642.937	9.38
643.697	9.38
644.457	9.38
645.216	9.38
645.976	8.38
646.736	7.38
647.495	9.38
648.255	7.38
649.014	8.38
649.774	6.38
650.533	8.38
651.292	7.38
652.051	8.38
652.81	6.38
653.569	5.38
654.328	4.38
655.087	6.38
655.846	8.38
656.604	4.38
657.363	8.38
658.121	6.38
658.88	4.38
659.638	7.38
660.397	3.38
661.155	7.38
661.913	6.38
662.671	5.38
663.429	5.38
664.187	6.38
664.945	7.38
665.703	7.38
666.46	5.38
667.218	8.38
667.976	4.38
668.733	7.38
669.49	4.38
670.248	8.38
671.005	5.38
671.762	6.38
672.519	5.38
673.276	4.38
674.033	4.38
674.79	4.38
675.547	5.38
676.304	5.38
677.06	4.38
677.817	4.38
678.574	5.38
679.33	6.38
680.086	4.38
680.843	4.38
681.599	4.38
682.355	5.38
683.111	4.38
683.867	4.38
684.623	5.38
685.379	5.38
686.135	2.38
686.89	4.38
687.646	3.38
688.402	4.38
689.157	4.38
689.912	2.38
690.668	4.38
691.423	4.38
692.178	5.38
692.933	4.38
693.688	5.38
694.443	6.38
695.198	5.38
695.953	3.38
696.708	5.38
697.462	5.38
698.217	4.38
698.972	7.38
699.726	3.38
700.48	5.38
701.235	3.38
701.989	2.38
702.743	3.38
703.497	4.38
704.251	2.38
705.005	3.38
705.759	2.38
706.513	4.38
707.266	2.38
708.02	5.38
708.774	1.38
709.527	5.38
710.28	4.38
711.034	6.38
711.787	3.38
712.54	4.38
713.293	3.38
714.046	2.38
714.799	5.38
715.552	3.38
716.305	2.38
717.058	4.38
717.81	5.38
718.563	3.38
719.315	3.38
720.068	4.38
720.82	2.38
721.573	2.38
722.325	4.38
723.077	4.38
723.829	4.38
724.581	4.38
725.333	4.38
726.085	2.38
726.836	3.38
727.588	2.38
728.34	4.38
729.091	2.38
729.843	2.38
730.594	4.38
731.346	3.38
732.097	3.38
732.848	6.38
733.599	3.38
734.35	4.38
735.101	6.38
735.852	3.38
736.603	4.38
737.354	2.38
738.104	3.38
738.855	6.38
739.605	4.38
740.356	3.38
741.106	6.38
741.856	6.38
742.607	4.38
743.357	4.38
744.107	4.38
744.857	7.38
745.607	5.38
746.357	6.38
747.106	3.38
747.856	2.38
748.606	4.38
749.355	7.38
750.105	4.38
750.854	3.38
751.603	2.38
752.353	5.38
753.102	4.38
753.851	9.38
754.6	7.38
755.349	4.38
756.098	2.38
756.847	7.38
757.595	7.38
758.344	5.38
759.093	7.38
759.841	5.38
760.589	3.38
761.338	6.38
762.086	5.38
762.834	9.38
763.582	5.38
764.331	7.38
765.079	10.38
765.826	7.38
766.574	5.38
767.322	6.38
768.07	4.38
768.817	6.38
769.565	8.38
770.312	7.38
771.06	5.38
771.807	8.38
772.554	7.38
773.302	6.38
774.049	6.38
774.796	7.38
775.543	8.38
776.29	8.38
777.036	7.38
777.783	8.38
778.53	8.38
779.276	9.38
780.023	7.38
780.769	5.38
781.516	4.38
782.262	10.38
783.008	8.38
783.754	7.38
784.5	9.38
785.246	7.38
785.992	9.38
786.738	9.38
787.484	8.38
788.23	9.38
788.975	7.38
789.721	8.38
790.466	9.38
791.212	9.38
791.957	10.38
792.702	8.38
793.447	8.38
794.193	8.38
794.938	7.38
795.683	7.38
796.427	9.38
797.172	8.38
797.917	7.38
798.662	7.38
799.406	7.38
800.151	7.38
800.895	5.38
801.64	8.38
802.384	4.38
803.128	7.38
803.872	8.38
804.616	8.38
805.36	7.38
806.104	5.38
806.848	6.38
807.592	7.38
808.336	6.38
809.079	7.38
809.823	6.38
810.566	7.38
811.31	2.38
812.053	6.38
812.796	7.38
813.539	3.38
814.283	7.38
815.026	4.38
815.769	4.38
816.511	4.38
817.254	5.38
817.997	4.38
818.74	2.38
819.482	4.38
820.225	5.38
820.967	6.38
821.71	6.38
822.452	3.38
823.194	5.38
823.936	6.38
824.678	8.38
825.42	3.38
826.162	6.38
826.904	5.38
827.646	2.38
828.388	4.38
829.129	3.38
829.871	4.38
830.612	5.38
831.354	4.38
832.095	4.38
832.836	4.38
833.577	3.38
834.319	3.38
835.06	4.38
835.801	4.38
836.542	3.38
837.282	3.38
838.023	3.38
838.764	3.38
839.504	2.38
840.245	2.38
840.985	5.38
841.726	5.38
842.466	4.38
843.206	2.38
843.946	2.38
844.687	2.38
845.427	4.38
846.166	2.38
846.906	3.38
847.646	4.38
848.386	2.38
849.125	3.38
849.865	2.38
850.605	4.38
851.344	3.38
852.083	4.38
852.823	2.38
853.562	1.38
854.301	2.38
855.04	4.38
855.779	2.38
856.518	2.38
857.257	1.38
857.995	3.38
858.734	4.38
859.473	2.38
860.211	5.38
860.95	5.38
861.688	1.38
862.426	-0.62
863.165	3.38
863.903	1.38
864.641	3.38
865.379	1.38
866.117	2.38
866.855	0.38
867.593	1.38
868.33	2.38
869.068	1.38
869.806	3.38
870.543	0.38
871.28	4.38
872.018	1.38
872.755	2.38
873.492	0.38
874.229	0.38
874.967	2.38
875.703	1.38
876.44	2.38
877.177	2.38
877.914	4.38
878.651	1.38
879.387	1.38
880.124	2.38
880.86	-0.62
881.597	0.38
882.333	5.38
883.069	2.38
883.806	1.38
884.542	3.38
885.278	2.38
886.014	1.38
886.749	2.38
887.485	3.38
888.221	3.38
888.957	2.38
889.692	-0.62
890.428	2.38
891.163	2.38
891.899	-1.62
892.634	1.38
893.369	2.38
894.104	1.38
894.839	0.38
895.574	-0.62
896.309	0.38
897.044	-0.62
897.779	2.38
898.514	-0.62
899.248	0.38
899.983	1.38
900.717	0.38
901.452	1.38
902.186	-1.62
902.92	2.38
903.654	1.38
904.389	0.38
905.123	-0.62
905.857	0.38
906.59	2.38
907.324	0.38
908.058	0.38
908.792	0.38
909.525	0.38
910.259	0.38
910.992	2.38
911.726	1.38
912.459	2.38
913.192	0.38
913.925	2.38
914.658	-0.62
915.391	1.38
916.124	-0.62
916.857	1.38
917.59	0.38
918.323	-0.62
919.055	2.38
919.788	2.38
920.521	0.38
921.253	1.38
921.985	2.38
922.718	0.38
923.45	1.38
924.182	-0.62
924.914	0.38
925.646	-0.62
926.378	-1.62
927.11	3.38
927.841	-0.62
928.573	1.38
929.305	0.38
930.036	2.38
930.768	0.38
931.499	-1.62
932.23	0.38
932.962	1.38
933.693	1.38
934.424	-0.62
935.155	-0.62
935.886	0.38
936.617	1.38
937.348	0.38
938.078	1.38
938.809	0.38
939.54	0.38
940.27	1.38
941.001	2.38
941.731	0.38
942.461	0.38
943.191	0.38
943.922	0.38
944.652	0.38
945.382	0.38
946.112	2.38
946.841	0.38
947.571	3.38
948.301	0.38
949.031	-0.62
949.76	0.38
950.49	1.38
951.219	1.38
951.948	0.38
952.678	1.38
953.407	0.38
954.136	-1.62
954.865	2.38
955.594	-0.62
956.323	2.38
957.052	2.38
957.78	-1.62
958.509	0.38
959.238	1.38
959.966	1.38
960.695	0.38
961.423	-0.62
962.151	1.38
962.88	-1.62
963.608	-0.62
964.336	1.38
965.064	0.38
965.792	0.38
966.52	-2.62
967.247	2.38
967.975	0.38
968.703	1.38
969.43	-1.62
970.158	2.38
970.885	0.38
971.613	1.38
972.34	-0.62
973.067	-1.62
973.794	0.38
974.521	-0.62
975.248	2.38
975.975	2.38
976.702	0.38
977.429	2.38
978.156	-0.62
978.882	2.38
979.609	0.38
980.335	-0.62
981.062	1.38
981.788	0.38
982.514	3.38
983.24	0.38
983.967	-0.62
984.693	-0.62
985.419	1.38
986.144	0.38
986.87	0.38
987.596	-1.62
988.322	0.38
989.047	1.38
989.773	1.38
990.498	0.38
991.224	2.38
991.949	-1.62
992.674	0.38
993.399	1.38
994.124	1.38
994.849	0.38
995.574	-0.62
996.299	1.38
997.024	-0.62
997.749	0.38
998.473	2.38
999.198	1.38
999.922	2.38
1000.647	-0.62
1001.371	2.38
1002.095	-0.62
1002.82	-0.62
1003.544	-1.62
1004.268	1.38
1004.992	0.38
1005.716	0.38
1006.439	1.38
1007.163	1.38
1007.887	2.38
1008.611	1.38
1009.334	-1.62
1010.058	2.38
1010.781	-0.62
1011.504	1.38
1012.228	0.38
1012.951	-1.62
1013.674	-0.62
1014.397	1.38
1015.12	1.38
