节点500_285_QEPB04081__404__15-02-16-631.txt的数据

Date: Wed Nov 12 15:02:16 CST 2025
User: PC
Spectrometer: QEPB0408
触发模式: 0
积分时间 (秒): 1.000000E-2
Scans to average: 1
启用暗噪声校正: true
启用非线性校正: false
滑动平均宽度: 0
X轴模式: Wavelengths
Number of Pixels in Spectrum: 1044
>>>>>Begin Spectral Data<<<<<
220.843	1.25
221.644	2.25
222.444	1.25
223.244	2.25
224.045	1.25
224.845	2.25
225.645	1.25
226.445	2.25
227.245	4.25
228.045	4.25
228.845	4.25
229.645	1.25
230.444	3.25
231.244	2.25
232.043	6.25
232.843	3.25
233.642	4.25
234.442	3.25
235.241	3.25
236.04	7.25
236.839	4.25
237.638	3.25
238.437	3.25
239.236	3.25
240.035	4.25
240.833	2.25
241.632	4.25
242.43	4.25
243.229	3.25
244.027	4.25
244.826	7.25
245.624	5.25
246.422	3.25
247.22	6.25
248.018	3.25
248.816	3.25
249.614	7.25
250.412	5.25
251.21	6.25
252.007	3.25
252.805	8.25
253.602	6.25
254.4	8.25
255.197	6.25
255.994	9.25
256.791	7.25
257.589	9.25
258.386	8.25
259.183	8.25
259.979	8.25
260.776	9.25
261.573	11.25
262.37	9.25
263.166	9.25
263.963	9.25
264.759	10.25
265.556	10.25
266.352	12.25
267.148	11.25
267.944	12.25
268.74	14.25
269.536	11.25
270.332	12.25
271.128	15.25
271.924	16.25
272.719	15.25
273.515	14.25
274.311	14.25
275.106	15.25
275.901	16.25
276.697	14.25
277.492	15.25
278.287	16.25
279.082	17.25
279.877	20.25
280.672	19.25
281.467	18.25
282.262	18.25
283.056	17.25
283.851	19.25
284.646	18.25
285.44	15.25
286.234	18.25
287.029	19.25
287.823	19.25
288.617	19.25
289.411	19.25
290.205	14.25
290.999	17.25
291.793	16.25
292.587	17.25
293.381	18.25
294.174	14.25
294.968	17.25
295.761	18.25
296.555	15.25
297.348	13.25
298.141	13.25
298.935	16.25
299.728	13.25
300.521	14.25
301.314	14.25
302.107	15.25
302.899	13.25
303.692	9.25
304.485	11.25
305.277	15.25
306.07	14.25
306.862	11.25
307.655	14.25
308.447	14.25
309.239	10.25
310.031	11.25
310.823	10.25
311.615	9.25
312.407	9.25
313.199	8.25
313.991	10.25
314.783	6.25
315.574	9.25
316.366	8.25
317.157	9.25
317.949	6.25
318.74	8.25
319.531	12.25
320.322	8.25
321.113	8.25
321.904	5.25
322.695	6.25
323.486	5.25
324.277	7.25
325.068	6.25
325.858	8.25
326.649	8.25
327.439	4.25
328.23	6.25
329.02	7.25
329.81	6.25
330.6	8.25
331.391	6.25
332.181	6.25
332.971	7.25
333.76	6.25
334.55	4.25
335.34	5.25
336.13	4.25
336.919	6.25
337.709	4.25
338.498	6.25
339.287	5.25
340.077	5.25
340.866	4.25
341.655	5.25
342.444	6.25
343.233	4.25
344.022	6.25
344.811	3.25
345.6	3.25
346.388	8.25
347.177	6.25
347.965	6.25
348.754	3.25
349.542	7.25
350.33	6.25
351.119	6.25
351.907	7.25
352.695	6.25
353.483	6.25
354.271	5.25
355.059	4.25
355.846	5.25
356.634	6.25
357.422	5.25
358.209	4.25
358.997	7.25
359.784	4.25
360.571	7.25
361.359	5.25
362.146	4.25
362.933	4.25
363.72	3.25
364.507	7.25
365.294	6.25
366.081	6.25
366.867	4.25
367.654	4.25
368.44	5.25
369.227	6.25
370.013	5.25
370.8	5.25
371.586	3.25
372.372	4.25
373.158	3.25
373.944	6.25
374.73	2.25
375.516	5.25
376.302	5.25
377.088	4.25
377.873	3.25
378.659	5.25
379.445	6.25
380.23	3.25
381.015	6.25
381.801	4.25
382.586	2.25
383.371	6.25
384.156	2.25
384.941	4.25
385.726	4.25
386.511	5.25
387.296	5.25
388.08	4.25
388.865	6.25
389.649	5.25
390.434	5.25
391.218	6.25
392.003	4.25
392.787	5.25
393.571	7.25
394.355	9.25
395.139	5.25
395.923	4.25
396.707	7.25
397.491	4.25
398.274	5.25
399.058	6.25
399.842	7.25
400.625	7.25
401.408	5.25
402.192	5.25
402.975	6.25
403.758	7.25
404.541	6.25
405.324	8.25
406.107	8.25
406.89	5.25
407.673	9.25
408.456	4.25
409.238	9.25
410.021	8.25
410.803	9.25
411.586	9.25
412.368	6.25
413.151	10.25
413.933	9.25
414.715	9.25
415.497	8.25
416.279	8.25
417.061	9.25
417.843	6.25
418.624	7.25
419.406	9.25
420.188	10.25
420.969	8.25
421.751	8.25
422.532	11.25
423.313	7.25
424.095	10.25
424.876	12.25
425.657	13.25
426.438	9.25
427.219	11.25
428	14.25
428.78	9.25
429.561	16.25
430.342	15.25
431.122	13.25
431.903	13.25
432.683	14.25
433.464	17.25
434.244	17.25
435.024	17.25
435.804	19.25
436.584	18.25
437.364	17.25
438.144	20.25
438.924	18.25
439.704	20.25
440.483	23.25
441.263	21.25
442.042	24.25
442.822	25.25
443.601	27.25
444.38	28.25
445.16	33.25
445.939	30.25
446.718	34.25
447.497	41.25
448.276	43.25
449.054	42.25
449.833	50.25
450.612	53.25
451.391	57.25
452.169	62.25
452.948	65.25
453.726	75.25
454.504	82.25
455.282	92.25
456.061	107.25
456.839	112.25
457.617	130.25
458.395	134.25
459.172	154.25
459.95	171.25
460.728	184.25
461.506	213.25
462.283	229.25
463.061	257.25
463.838	292.25
464.615	328.25
465.393	364.25
466.17	410.25
466.947	455.25
467.724	502.25
468.501	566.25
469.278	628.25
470.055	694.25
470.831	764.25
471.608	854.25
472.385	959.25
473.161	1043.25
473.938	1171.25
474.714	1307.25
475.49	1421.25
476.266	1584.25
477.043	1757.25
477.819	1925.25
478.595	2144.25
479.371	2344.25
480.146	2572.25
480.922	2851.25
481.698	3130.25
482.473	3433.25
483.249	3797.25
484.024	4187.25
484.8	4580.25
485.575	5013.25
486.35	5508.25
487.126	6027.25
487.901	6618.25
488.676	7274.25
489.451	7931.25
490.225	8687.25
491	9445.25
491.775	10335.25
492.55	11256.25
493.324	12224.25
494.099	13108.25
494.873	14123.25
495.647	15263.25
496.422	16338.25
497.196	17569.25
497.97	18712.25
498.744	19852.25
499.518	20900.25
500.292	22065.25
501.066	23171.25
501.839	24166.25
502.613	25064.25
503.387	25837.25
504.16	26535.25
504.934	26816.25
505.707	27042.25
506.48	27166.25
507.253	27092.25
508.027	26893.25
508.8	26605.25
509.573	26206.25
510.346	25698.25
511.118	24938.25
511.891	24129.25
512.664	23329.25
513.437	22526.25
514.209	21605.25
514.982	20765.25
515.754	19832.25
516.526	18961.25
517.298	18111.25
518.071	17339.25
518.843	16655.25
519.615	16033.25
520.387	15375.25
521.159	14859.25
521.93	14207.25
522.702	13624.25
523.474	13074.25
524.245	12547.25
525.017	12005.25
525.788	11490.25
526.56	11010.25
527.331	10470.25
528.102	10035.25
528.873	9554.25
529.644	9053.25
530.415	8670.25
531.186	8213.25
531.957	7818.25
532.728	7432.25
533.498	7014.25
534.269	6628.25
535.039	6256.25
535.81	5919.25
536.58	5595.25
537.351	5267.25
538.121	4996.25
538.891	4723.25
539.661	4467.25
540.431	4201.25
541.201	3987.25
541.971	3770.25
542.741	3576.25
543.51	3414.25
544.28	3230.25
545.05	3079.25
545.819	2929.25
546.588	2766.25
547.358	2633.25
548.127	2512.25
548.896	2379.25
549.665	2262.25
550.434	2141.25
551.203	2021.25
551.972	1917.25
552.741	1803.25
553.51	1720.25
554.278	1633.25
555.047	1522.25
555.815	1437.25
556.584	1359.25
557.352	1287.25
558.121	1204.25
558.889	1159.25
559.657	1086.25
560.425	1028.25
561.193	960.25
561.961	907.25
562.729	860.25
563.496	813.25
564.264	771.25
565.032	734.25
565.799	688.25
566.567	647.25
567.334	623.25
568.101	591.25
568.869	544.25
569.636	523.25
570.403	489.25
571.17	462.25
571.937	432.25
572.704	411.25
573.471	382.25
574.237	360.25
575.004	343.25
575.771	319.25
576.537	301.25
577.303	286.25
578.07	269.25
578.836	249.25
579.602	241.25
580.368	223.25
581.134	211.25
581.9	201.25
582.666	196.25
583.432	183.25
584.198	174.25
584.964	163.25
585.729	157.25
586.495	146.25
587.26	141.25
588.025	128.25
588.791	125.25
589.556	117.25
590.321	112.25
591.086	102.25
591.851	99.25
592.616	96.25
593.381	92.25
594.146	88.25
594.911	82.25
595.675	77.25
596.44	79.25
597.204	70.25
597.969	67.25
598.733	67.25
599.497	65.25
600.261	58.25
601.025	61.25
601.79	53.25
602.553	54.25
603.317	51.25
604.081	47.25
604.845	46.25
605.609	41.25
606.372	42.25
607.136	37.25
607.899	40.25
608.662	35.25
609.426	34.25
610.189	34.25
610.952	33.25
611.715	33.25
612.478	29.25
613.241	29.25
614.004	25.25
614.767	27.25
615.529	25.25
616.292	25.25
617.055	24.25
617.817	21.25
618.579	21.25
619.342	22.25
620.104	21.25
620.866	21.25
621.628	21.25
622.39	19.25
623.152	23.25
623.914	18.25
624.676	17.25
625.438	16.25
626.199	13.25
626.961	15.25
627.722	16.25
628.484	17.25
629.245	11.25
630.006	13.25
630.768	12.25
631.529	13.25
632.29	11.25
633.051	11.25
633.812	12.25
634.573	11.25
635.333	12.25
636.094	12.25
636.855	10.25
637.615	10.25
638.376	8.25
639.136	10.25
639.896	10.25
640.657	9.25
641.417	9.25
642.177	8.25
642.937	10.25
643.697	11.25
644.457	9.25
645.216	5.25
645.976	7.25
646.736	8.25
647.495	7.25
648.255	7.25
649.014	7.25
649.774	8.25
650.533	9.25
651.292	9.25
652.051	8.25
652.81	5.25
653.569	7.25
654.328	6.25
655.087	5.25
655.846	5.25
656.604	4.25
657.363	9.25
658.121	4.25
658.88	10.25
659.638	6.25
660.397	3.25
661.155	2.25
661.913	3.25
662.671	4.25
663.429	4.25
664.187	4.25
664.945	4.25
665.703	3.25
666.46	3.25
667.218	4.25
667.976	4.25
668.733	2.25
669.49	5.25
670.248	2.25
671.005	3.25
671.762	4.25
672.519	5.25
673.276	4.25
674.033	2.25
674.79	3.25
675.547	4.25
676.304	5.25
677.06	3.25
677.817	4.25
678.574	3.25
679.33	2.25
680.086	4.25
680.843	4.25
681.599	4.25
682.355	5.25
683.111	0.25
683.867	3.25
684.623	5.25
685.379	5.25
686.135	4.25
686.89	2.25
687.646	3.25
688.402	3.25
689.157	4.25
689.912	4.25
690.668	2.25
691.423	3.25
692.178	4.25
692.933	2.25
693.688	3.25
694.443	4.25
695.198	4.25
695.953	1.25
696.708	2.25
697.462	3.25
698.217	4.25
698.972	3.25
699.726	2.25
700.48	4.25
701.235	3.25
701.989	3.25
702.743	2.25
703.497	3.25
704.251	5.25
705.005	2.25
705.759	3.25
706.513	2.25
707.266	2.25
708.02	2.25
708.774	2.25
709.527	2.25
710.28	1.25
711.034	2.25
711.787	3.25
712.54	4.25
713.293	2.25
714.046	3.25
714.799	3.25
715.552	2.25
716.305	4.25
717.058	3.25
717.81	3.25
718.563	3.25
719.315	4.25
720.068	4.25
720.82	3.25
721.573	4.25
722.325	3.25
723.077	1.25
723.829	6.25
724.581	4.25
725.333	4.25
726.085	4.25
726.836	4.25
727.588	3.25
728.34	3.25
729.091	4.25
729.843	5.25
730.594	3.25
731.346	3.25
732.097	6.25
732.848	4.25
733.599	4.25
734.35	4.25
735.101	5.25
735.852	3.25
736.603	3.25
737.354	4.25
738.104	5.25
738.855	2.25
739.605	4.25
740.356	4.25
741.106	5.25
741.856	2.25
742.607	3.25
743.357	6.25
744.107	5.25
744.857	2.25
745.607	4.25
746.357	4.25
747.106	3.25
747.856	5.25
748.606	3.25
749.355	2.25
750.105	6.25
750.854	7.25
751.603	5.25
752.353	4.25
753.102	4.25
753.851	5.25
754.6	4.25
755.349	6.25
756.098	5.25
756.847	6.25
757.595	7.25
758.344	3.25
759.093	9.25
759.841	5.25
760.589	6.25
761.338	6.25
762.086	4.25
762.834	6.25
763.582	5.25
764.331	2.25
765.079	5.25
765.826	7.25
766.574	7.25
767.322	6.25
768.07	5.25
768.817	6.25
769.565	7.25
770.312	5.25
771.06	7.25
771.807	6.25
772.554	7.25
773.302	5.25
774.049	5.25
774.796	9.25
775.543	9.25
776.29	6.25
777.036	9.25
777.783	8.25
778.53	9.25
779.276	7.25
780.023	7.25
780.769	8.25
781.516	7.25
782.262	10.25
783.008	10.25
783.754	8.25
784.5	9.25
785.246	9.25
785.992	8.25
786.738	9.25
787.484	8.25
788.23	8.25
788.975	7.25
789.721	8.25
790.466	8.25
791.212	8.25
791.957	7.25
792.702	9.25
793.447	8.25
794.193	8.25
794.938	7.25
795.683	7.25
796.427	7.25
797.172	7.25
797.917	7.25
798.662	8.25
799.406	5.25
800.151	7.25
800.895	4.25
801.64	6.25
802.384	3.25
803.128	5.25
803.872	5.25
804.616	5.25
805.36	9.25
806.104	3.25
806.848	7.25
807.592	6.25
808.336	5.25
809.079	6.25
809.823	6.25
810.566	6.25
811.31	4.25
812.053	4.25
812.796	3.25
813.539	5.25
814.283	5.25
815.026	3.25
815.769	4.25
816.511	3.25
817.254	6.25
817.997	4.25
818.74	4.25
819.482	6.25
820.225	4.25
820.967	5.25
821.71	2.25
822.452	5.25
823.194	4.25
823.936	4.25
824.678	4.25
825.42	5.25
826.162	4.25
826.904	5.25
827.646	3.25
828.388	5.25
829.129	3.25
829.871	3.25
830.612	4.25
831.354	2.25
832.095	3.25
832.836	1.25
833.577	5.25
834.319	3.25
835.06	2.25
835.801	2.25
836.542	5.25
837.282	4.25
838.023	2.25
838.764	1.25
839.504	1.25
840.245	3.25
840.985	2.25
841.726	2.25
842.466	5.25
843.206	1.25
843.946	3.25
844.687	3.25
845.427	1.25
846.166	2.25
846.906	-0.75
847.646	1.25
848.386	1.25
849.125	4.25
849.865	3.25
850.605	3.25
851.344	4.25
852.083	3.25
852.823	2.25
853.562	3.25
854.301	1.25
855.04	2.25
855.779	1.25
856.518	2.25
857.257	2.25
857.995	-0.75
858.734	2.25
859.473	0.25
860.211	1.25
860.95	1.25
861.688	1.25
862.426	0.25
863.165	1.25
863.903	1.25
864.641	3.25
865.379	3.25
866.117	3.25
866.855	1.25
867.593	0.25
868.33	1.25
869.068	2.25
869.806	0.25
870.543	2.25
871.28	0.25
872.018	0.25
872.755	1.25
873.492	0.25
874.229	-0.75
874.967	0.25
875.703	1.25
876.44	3.25
877.177	0.25
877.914	2.25
878.651	0.25
879.387	1.25
880.124	0.25
880.86	1.25
881.597	0.25
882.333	-0.75
883.069	1.25
883.806	-0.75
884.542	1.25
885.278	1.25
886.014	2.25
886.749	0.25
887.485	-0.75
888.221	1.25
888.957	-0.75
889.692	-0.75
890.428	0.25
891.163	-1.75
891.899	1.25
892.634	-0.75
893.369	1.25
894.104	0.25
894.839	0.25
895.574	-0.75
896.309	-0.75
897.044	-0.75
897.779	0.25
898.514	1.25
899.248	1.25
899.983	-0.75
900.717	3.25
901.452	-0.75
902.186	0.25
902.92	1.25
903.654	0.25
904.389	3.25
905.123	0.25
905.857	1.25
906.59	-2.75
907.324	0.25
908.058	1.25
908.792	1.25
909.525	0.25
910.259	0.25
910.992	1.25
911.726	-1.75
912.459	1.25
913.192	-1.75
913.925	0.25
914.658	1.25
915.391	0.25
916.124	0.25
916.857	0.25
917.59	-0.75
918.323	0.25
919.055	0.25
919.788	0.25
920.521	-2.75
921.253	-0.75
921.985	1.25
922.718	0.25
923.45	-0.75
924.182	-0.75
924.914	0.25
925.646	-2.75
926.378	1.25
927.11	0.25
927.841	-1.75
928.573	0.25
929.305	0.25
930.036	-0.75
930.768	0.25
931.499	-1.75
932.23	-0.75
932.962	-1.75
933.693	-0.75
934.424	-1.75
935.155	0.25
935.886	-0.75
936.617	-0.75
937.348	-1.75
938.078	-1.75
938.809	-1.75
939.54	-0.75
940.27	-0.75
941.001	-1.75
941.731	0.25
942.461	0.25
943.191	-2.75
943.922	-0.75
944.652	-0.75
945.382	1.25
946.112	1.25
946.841	-0.75
947.571	-0.75
948.301	-0.75
949.031	2.25
949.76	-0.75
950.49	-0.75
951.219	1.25
951.948	-0.75
952.678	1.25
953.407	0.25
954.136	0.25
954.865	-0.75
955.594	-0.75
956.323	2.25
957.052	-2.75
957.78	0.25
958.509	-2.75
959.238	-0.75
959.966	-2.75
960.695	-2.75
961.423	1.25
962.151	-1.75
962.88	0.25
963.608	-1.75
964.336	2.25
965.064	0.25
965.792	0.25
966.52	2.25
967.247	-0.75
967.975	1.25
968.703	-0.75
969.43	-1.75
970.158	0.25
970.885	-0.75
971.613	-0.75
972.34	0.25
973.067	0.25
973.794	0.25
974.521	-0.75
975.248	1.25
975.975	-2.75
976.702	1.25
977.429	-1.75
978.156	1.25
978.882	1.25
979.609	-1.75
980.335	0.25
981.062	0.25
981.788	0.25
982.514	-0.75
983.24	0.25
983.967	1.25
984.693	-1.75
985.419	0.25
986.144	0.25
986.87	-1.75
987.596	-2.75
988.322	0.25
989.047	-0.75
989.773	1.25
990.498	-0.75
991.224	1.25
991.949	-0.75
992.674	-0.75
993.399	-0.75
994.124	0.25
994.849	-0.75
995.574	0.25
996.299	0.25
997.024	0.25
997.749	-0.75
998.473	-1.75
999.198	-1.75
999.922	0.25
1000.647	-0.75
1001.371	1.25
1002.095	1.25
1002.82	-0.75
1003.544	-2.75
1004.268	0.25
1004.992	0.25
1005.716	1.25
1006.439	0.25
1007.163	0.25
1007.887	0.25
1008.611	0.25
1009.334	-0.75
1010.058	0.25
1010.781	0.25
1011.504	0.25
1012.228	0.25
1012.951	1.25
1013.674	-0.75
1014.397	-0.75
1015.12	1.25
