节点500_285_QEPB04081__860__15-09-51-673.txt的数据

Date: Wed Nov 12 15:09:51 CST 2025
User: PC
Spectrometer: QEPB0408
触发模式: 0
积分时间 (秒): 1.000000E-2
Scans to average: 1
启用暗噪声校正: true
启用非线性校正: false
滑动平均宽度: 0
X轴模式: Wavelengths
Number of Pixels in Spectrum: 1044
>>>>>Begin Spectral Data<<<<<
220.843	1.12
221.644	1.12
222.444	0.12
223.244	1.12
224.045	4.12
224.845	1.12
225.645	1.12
226.445	2.12
227.245	3.12
228.045	2.12
228.845	1.12
229.645	-0.88
230.444	1.12
231.244	1.12
232.043	3.12
232.843	2.12
233.642	1.12
234.442	4.12
235.241	2.12
236.04	3.12
236.839	2.12
237.638	5.12
238.437	4.12
239.236	4.12
240.035	3.12
240.833	3.12
241.632	3.12
242.43	5.12
243.229	2.12
244.027	4.12
244.826	5.12
245.624	4.12
246.422	2.12
247.22	4.12
248.018	4.12
248.816	5.12
249.614	6.12
250.412	3.12
251.21	6.12
252.007	3.12
252.805	3.12
253.602	4.12
254.4	4.12
255.197	4.12
255.994	7.12
256.791	9.12
257.589	6.12
258.386	5.12
259.183	7.12
259.979	8.12
260.776	8.12
261.573	7.12
262.37	8.12
263.166	8.12
263.963	9.12
264.759	8.12
265.556	10.12
266.352	9.12
267.148	9.12
267.944	13.12
268.74	12.12
269.536	10.12
270.332	13.12
271.128	8.12
271.924	15.12
272.719	11.12
273.515	12.12
274.311	13.12
275.106	11.12
275.901	15.12
276.697	12.12
277.492	15.12
278.287	15.12
279.082	18.12
279.877	14.12
280.672	15.12
281.467	16.12
282.262	14.12
283.056	15.12
283.851	13.12
284.646	14.12
285.44	15.12
286.234	16.12
287.029	14.12
287.823	16.12
288.617	13.12
289.411	19.12
290.205	16.12
290.999	16.12
291.793	13.12
292.587	15.12
293.381	16.12
294.174	13.12
294.968	14.12
295.761	15.12
296.555	14.12
297.348	12.12
298.141	13.12
298.935	13.12
299.728	13.12
300.521	12.12
301.314	15.12
302.107	13.12
302.899	10.12
303.692	15.12
304.485	12.12
305.277	12.12
306.07	11.12
306.862	10.12
307.655	11.12
308.447	9.12
309.239	10.12
310.031	10.12
310.823	12.12
311.615	10.12
312.407	12.12
313.199	9.12
313.991	11.12
314.783	9.12
315.574	13.12
316.366	7.12
317.157	8.12
317.949	8.12
318.74	9.12
319.531	5.12
320.322	6.12
321.113	7.12
321.904	9.12
322.695	5.12
323.486	7.12
324.277	6.12
325.068	5.12
325.858	7.12
326.649	6.12
327.439	7.12
328.23	5.12
329.02	6.12
329.81	7.12
330.6	7.12
331.391	6.12
332.181	6.12
332.971	3.12
333.76	5.12
334.55	5.12
335.34	5.12
336.13	3.12
336.919	6.12
337.709	7.12
338.498	4.12
339.287	6.12
340.077	2.12
340.866	3.12
341.655	6.12
342.444	5.12
343.233	3.12
344.022	4.12
344.811	5.12
345.6	5.12
346.388	7.12
347.177	2.12
347.965	4.12
348.754	3.12
349.542	6.12
350.33	4.12
351.119	4.12
351.907	7.12
352.695	6.12
353.483	4.12
354.271	4.12
355.059	3.12
355.846	5.12
356.634	5.12
357.422	4.12
358.209	4.12
358.997	3.12
359.784	3.12
360.571	3.12
361.359	4.12
362.146	2.12
362.933	5.12
363.72	6.12
364.507	3.12
365.294	4.12
366.081	2.12
366.867	4.12
367.654	5.12
368.44	3.12
369.227	2.12
370.013	3.12
370.8	3.12
371.586	4.12
372.372	5.12
373.158	3.12
373.944	6.12
374.73	3.12
375.516	3.12
376.302	7.12
377.088	3.12
377.873	3.12
378.659	1.12
379.445	4.12
380.23	7.12
381.015	3.12
381.801	5.12
382.586	3.12
383.371	1.12
384.156	5.12
384.941	3.12
385.726	5.12
386.511	5.12
387.296	7.12
388.08	5.12
388.865	4.12
389.649	6.12
390.434	4.12
391.218	4.12
392.003	5.12
392.787	5.12
393.571	5.12
394.355	6.12
395.139	3.12
395.923	4.12
396.707	5.12
397.491	7.12
398.274	4.12
399.058	8.12
399.842	5.12
400.625	7.12
401.408	2.12
402.192	6.12
402.975	5.12
403.758	6.12
404.541	7.12
405.324	7.12
406.107	9.12
406.89	2.12
407.673	7.12
408.456	6.12
409.238	7.12
410.021	6.12
410.803	6.12
411.586	7.12
412.368	6.12
413.151	6.12
413.933	9.12
414.715	8.12
415.497	6.12
416.279	8.12
417.061	9.12
417.843	9.12
418.624	7.12
419.406	9.12
420.188	9.12
420.969	11.12
421.751	9.12
422.532	8.12
423.313	8.12
424.095	13.12
424.876	12.12
425.657	8.12
426.438	11.12
427.219	10.12
428	13.12
428.78	11.12
429.561	12.12
430.342	11.12
431.122	14.12
431.903	13.12
432.683	12.12
433.464	13.12
434.244	14.12
435.024	14.12
435.804	16.12
436.584	16.12
437.364	20.12
438.144	18.12
438.924	20.12
439.704	19.12
440.483	21.12
441.263	22.12
442.042	26.12
442.822	28.12
443.601	27.12
444.38	33.12
445.16	31.12
445.939	34.12
446.718	34.12
447.497	42.12
448.276	44.12
449.054	49.12
449.833	53.12
450.612	59.12
451.391	62.12
452.169	68.12
452.948	72.12
453.726	86.12
454.504	91.12
455.282	102.12
456.061	112.12
456.839	130.12
457.617	139.12
458.395	153.12
459.172	169.12
459.95	191.12
460.728	208.12
461.506	232.12
462.283	261.12
463.061	292.12
463.838	324.12
464.615	357.12
465.393	397.12
466.17	440.12
466.947	501.12
467.724	555.12
468.501	601.12
469.278	672.12
470.055	733.12
470.831	825.12
471.608	904.12
472.385	989.12
473.161	1098.12
473.938	1220.12
474.714	1346.12
475.49	1476.12
476.266	1617.12
477.043	1769.12
477.819	1940.12
478.595	2140.12
479.371	2313.12
480.146	2532.12
480.922	2788.12
481.698	3050.12
482.473	3305.12
483.249	3636.12
484.024	3953.12
484.8	4321.12
485.575	4695.12
486.35	5137.12
487.126	5560.12
487.901	6047.12
488.676	6560.12
489.451	7164.12
490.225	7724.12
491	8387.12
491.775	9138.12
492.55	9918.12
493.324	10661.12
494.099	11452.12
494.873	12254.12
495.647	13151.12
496.422	14123.12
497.196	15093.12
497.97	16152.12
498.744	17137.12
499.518	18173.12
500.292	19189.12
501.066	20177.12
501.839	21072.12
502.613	21912.12
503.387	22817.12
504.16	23516.12
504.934	24021.12
505.707	24405.12
506.48	24652.12
507.253	24796.12
508.027	24872.12
508.8	24852.12
509.573	24750.12
510.346	24430.12
511.118	23913.12
511.891	23457.12
512.664	22812.12
513.437	22201.12
514.209	21391.12
514.982	20690.12
515.754	19882.12
516.526	19104.12
517.298	18319.12
518.071	17622.12
518.843	16965.12
519.615	16275.12
520.387	15659.12
521.159	15043.12
521.93	14420.12
522.702	13901.12
523.474	13335.12
524.245	12764.12
525.017	12225.12
525.788	11822.12
526.56	11244.12
527.331	10763.12
528.102	10368.12
528.873	9856.12
529.644	9377.12
530.415	9034.12
531.186	8573.12
531.957	8136.12
532.728	7755.12
533.498	7388.12
534.269	6986.12
535.039	6635.12
535.81	6248.12
536.58	5944.12
537.351	5603.12
538.121	5261.12
538.891	5028.12
539.661	4744.12
540.431	4493.12
541.201	4212.12
541.971	4023.12
542.741	3839.12
543.51	3631.12
544.28	3440.12
545.05	3293.12
545.819	3142.12
546.588	2958.12
547.358	2800.12
548.127	2662.12
548.896	2546.12
549.665	2427.12
550.434	2297.12
551.203	2169.12
551.972	2066.12
552.741	1948.12
553.51	1861.12
554.278	1742.12
555.047	1664.12
555.815	1565.12
556.584	1480.12
557.352	1394.12
558.121	1310.12
558.889	1250.12
559.657	1174.12
560.425	1118.12
561.193	1045.12
561.961	990.12
562.729	939.12
563.496	879.12
564.264	843.12
565.032	781.12
565.799	752.12
566.567	724.12
567.334	670.12
568.101	628.12
568.869	602.12
569.636	560.12
570.403	527.12
571.17	498.12
571.937	472.12
572.704	440.12
573.471	413.12
574.237	395.12
575.004	376.12
575.771	352.12
576.537	336.12
577.303	311.12
578.07	293.12
578.836	279.12
579.602	257.12
580.368	253.12
581.134	236.12
581.9	227.12
582.666	209.12
583.432	193.12
584.198	191.12
584.964	178.12
585.729	172.12
586.495	159.12
587.26	153.12
588.025	143.12
588.791	135.12
589.556	134.12
590.321	122.12
591.086	113.12
591.851	110.12
592.616	103.12
593.381	100.12
594.146	90.12
594.911	93.12
595.675	83.12
596.44	84.12
597.204	78.12
597.969	75.12
598.733	71.12
599.497	65.12
600.261	64.12
601.025	62.12
601.79	57.12
602.553	59.12
603.317	52.12
604.081	55.12
604.845	50.12
605.609	51.12
606.372	45.12
607.136	45.12
607.899	40.12
608.662	40.12
609.426	38.12
610.189	34.12
610.952	31.12
611.715	33.12
612.478	30.12
613.241	29.12
614.004	25.12
614.767	29.12
615.529	28.12
616.292	28.12
617.055	24.12
617.817	24.12
618.579	21.12
619.342	24.12
620.104	22.12
620.866	20.12
621.628	20.12
622.39	21.12
623.152	19.12
623.914	17.12
624.676	17.12
625.438	15.12
626.199	16.12
626.961	16.12
627.722	14.12
628.484	15.12
629.245	12.12
630.006	11.12
630.768	13.12
631.529	13.12
632.29	13.12
633.051	9.12
633.812	10.12
634.573	13.12
635.333	11.12
636.094	8.12
636.855	8.12
637.615	11.12
638.376	9.12
639.136	9.12
639.896	10.12
640.657	6.12
641.417	10.12
642.177	10.12
642.937	8.12
643.697	8.12
644.457	7.12
645.216	6.12
645.976	7.12
646.736	10.12
647.495	5.12
648.255	8.12
649.014	7.12
649.774	4.12
650.533	7.12
651.292	6.12
652.051	6.12
652.81	7.12
653.569	4.12
654.328	6.12
655.087	4.12
655.846	6.12
656.604	4.12
657.363	6.12
658.121	3.12
658.88	4.12
659.638	3.12
660.397	5.12
661.155	5.12
661.913	5.12
662.671	5.12
663.429	6.12
664.187	4.12
664.945	2.12
665.703	4.12
666.46	3.12
667.218	6.12
667.976	4.12
668.733	4.12
669.49	4.12
670.248	5.12
671.005	2.12
671.762	3.12
672.519	3.12
673.276	3.12
674.033	3.12
674.79	1.12
675.547	5.12
676.304	6.12
677.06	3.12
677.817	4.12
678.574	4.12
679.33	2.12
680.086	3.12
680.843	3.12
681.599	4.12
682.355	3.12
683.111	5.12
683.867	2.12
684.623	4.12
685.379	1.12
686.135	4.12
686.89	2.12
687.646	5.12
688.402	4.12
689.157	1.12
689.912	2.12
690.668	0.12
691.423	4.12
692.178	5.12
692.933	2.12
693.688	1.12
694.443	2.12
695.198	4.12
695.953	2.12
696.708	2.12
697.462	4.12
698.217	-0.88
698.972	2.12
699.726	0.12
700.48	3.12
701.235	4.12
701.989	1.12
702.743	2.12
703.497	4.12
704.251	2.12
705.005	3.12
705.759	5.12
706.513	0.12
707.266	3.12
708.02	3.12
708.774	1.12
709.527	2.12
710.28	2.12
711.034	4.12
711.787	2.12
712.54	2.12
713.293	0.12
714.046	1.12
714.799	0.12
715.552	1.12
716.305	3.12
717.058	1.12
717.81	2.12
718.563	3.12
719.315	1.12
720.068	4.12
720.82	2.12
721.573	4.12
722.325	3.12
723.077	1.12
723.829	1.12
724.581	1.12
725.333	5.12
726.085	1.12
726.836	4.12
727.588	2.12
728.34	2.12
729.091	4.12
729.843	4.12
730.594	2.12
731.346	6.12
732.097	5.12
732.848	3.12
733.599	1.12
734.35	3.12
735.101	0.12
735.852	4.12
736.603	3.12
737.354	3.12
738.104	3.12
738.855	3.12
739.605	6.12
740.356	2.12
741.106	4.12
741.856	1.12
742.607	4.12
743.357	4.12
744.107	1.12
744.857	6.12
745.607	2.12
746.357	5.12
747.106	3.12
747.856	2.12
748.606	3.12
749.355	5.12
750.105	7.12
750.854	1.12
751.603	4.12
752.353	4.12
753.102	5.12
753.851	5.12
754.6	3.12
755.349	4.12
756.098	4.12
756.847	6.12
757.595	4.12
758.344	5.12
759.093	4.12
759.841	4.12
760.589	5.12
761.338	4.12
762.086	2.12
762.834	8.12
763.582	5.12
764.331	7.12
765.079	2.12
765.826	4.12
766.574	5.12
767.322	7.12
768.07	6.12
768.817	4.12
769.565	7.12
770.312	8.12
771.06	8.12
771.807	7.12
772.554	5.12
773.302	5.12
774.049	4.12
774.796	7.12
775.543	6.12
776.29	6.12
777.036	5.12
777.783	8.12
778.53	6.12
779.276	7.12
780.023	9.12
780.769	7.12
781.516	6.12
782.262	8.12
783.008	6.12
783.754	7.12
784.5	5.12
785.246	6.12
785.992	7.12
786.738	7.12
787.484	6.12
788.23	7.12
788.975	7.12
789.721	7.12
790.466	6.12
791.212	7.12
791.957	4.12
792.702	9.12
793.447	6.12
794.193	6.12
794.938	6.12
795.683	7.12
796.427	7.12
797.172	4.12
797.917	7.12
798.662	4.12
799.406	7.12
800.151	9.12
800.895	7.12
801.64	8.12
802.384	4.12
803.128	8.12
803.872	2.12
804.616	5.12
805.36	7.12
806.104	6.12
806.848	2.12
807.592	4.12
808.336	5.12
809.079	3.12
809.823	4.12
810.566	6.12
811.31	3.12
812.053	6.12
812.796	3.12
813.539	2.12
814.283	3.12
815.026	5.12
815.769	1.12
816.511	5.12
817.254	6.12
817.997	4.12
818.74	4.12
819.482	4.12
820.225	2.12
820.967	4.12
821.71	6.12
822.452	3.12
823.194	3.12
823.936	4.12
824.678	4.12
825.42	4.12
826.162	4.12
826.904	4.12
827.646	3.12
828.388	4.12
829.129	2.12
829.871	3.12
830.612	4.12
831.354	3.12
832.095	1.12
832.836	2.12
833.577	4.12
834.319	4.12
835.06	3.12
835.801	2.12
836.542	2.12
837.282	3.12
838.023	4.12
838.764	2.12
839.504	2.12
840.245	3.12
840.985	1.12
841.726	5.12
842.466	3.12
843.206	2.12
843.946	1.12
844.687	4.12
845.427	2.12
846.166	2.12
846.906	2.12
847.646	1.12
848.386	2.12
849.125	0.12
849.865	0.12
850.605	4.12
851.344	3.12
852.083	0.12
852.823	0.12
853.562	0.12
854.301	2.12
855.04	1.12
855.779	1.12
856.518	0.12
857.257	2.12
857.995	1.12
858.734	1.12
859.473	-0.88
860.211	1.12
860.95	2.12
861.688	0.12
862.426	2.12
863.165	1.12
863.903	0.12
864.641	0.12
865.379	0.12
866.117	1.12
866.855	1.12
867.593	0.12
868.33	0.12
869.068	2.12
869.806	1.12
870.543	1.12
871.28	-2.88
872.018	1.12
872.755	0.12
873.492	1.12
874.229	-0.88
874.967	1.12
875.703	0.12
876.44	1.12
877.177	1.12
877.914	0.12
878.651	0.12
879.387	0.12
880.124	1.12
880.86	1.12
881.597	1.12
882.333	1.12
883.069	1.12
883.806	0.12
884.542	1.12
885.278	2.12
886.014	2.12
886.749	-1.88
887.485	1.12
888.221	-0.88
888.957	1.12
889.692	-0.88
890.428	1.12
891.163	-1.88
891.899	-0.88
892.634	-2.88
893.369	-0.88
894.104	-0.88
894.839	0.12
895.574	2.12
896.309	0.12
897.044	1.12
897.779	-0.88
898.514	0.12
899.248	2.12
899.983	-1.88
900.717	0.12
901.452	0.12
902.186	1.12
902.92	-3.88
903.654	0.12
904.389	1.12
905.123	1.12
905.857	-0.88
906.59	0.12
907.324	-0.88
908.058	0.12
908.792	1.12
909.525	0.12
910.259	0.12
910.992	-0.88
911.726	-0.88
912.459	1.12
913.192	1.12
913.925	-2.88
914.658	0.12
915.391	1.12
916.124	0.12
916.857	1.12
917.59	-0.88
918.323	-0.88
919.055	0.12
919.788	2.12
920.521	0.12
921.253	-0.88
921.985	-0.88
922.718	-0.88
923.45	0.12
924.182	-1.88
924.914	0.12
925.646	-0.88
926.378	-0.88
927.11	1.12
927.841	-2.88
928.573	1.12
929.305	-0.88
930.036	1.12
930.768	0.12
931.499	0.12
932.23	-0.88
932.962	0.12
933.693	-0.88
934.424	-0.88
935.155	-0.88
935.886	1.12
936.617	-0.88
937.348	-1.88
938.078	-0.88
938.809	0.12
939.54	-1.88
940.27	0.12
941.001	-0.88
941.731	-1.88
942.461	-1.88
943.191	-0.88
943.922	0.12
944.652	-2.88
945.382	0.12
946.112	-1.88
946.841	-0.88
947.571	1.12
948.301	-1.88
949.031	-0.88
949.76	-0.88
950.49	0.12
951.219	-1.88
951.948	-0.88
952.678	-1.88
953.407	-0.88
954.136	0.12
954.865	0.12
955.594	-2.88
956.323	-1.88
957.052	-2.88
957.78	-0.88
958.509	-1.88
959.238	-0.88
959.966	1.12
960.695	1.12
961.423	-0.88
962.151	0.12
962.88	-0.88
963.608	0.12
964.336	0.12
965.064	-2.88
965.792	-1.88
966.52	-1.88
967.247	-2.88
967.975	0.12
968.703	0.12
969.43	1.12
970.158	-0.88
970.885	0.12
971.613	-1.88
972.34	-0.88
973.067	0.12
973.794	0.12
974.521	-2.88
975.248	0.12
975.975	-2.88
976.702	-0.88
977.429	0.12
978.156	1.12
978.882	-0.88
979.609	0.12
980.335	-1.88
981.062	0.12
981.788	-0.88
982.514	-0.88
983.24	0.12
983.967	1.12
984.693	1.12
985.419	-2.88
986.144	-2.88
986.87	-1.88
987.596	-1.88
988.322	-0.88
989.047	0.12
989.773	0.12
990.498	0.12
991.224	0.12
991.949	1.12
992.674	-0.88
993.399	-0.88
994.124	-0.88
994.849	-0.88
995.574	-0.88
996.299	-1.88
997.024	-0.88
997.749	-0.88
998.473	-0.88
999.198	0.12
999.922	-1.88
1000.647	0.12
1001.371	3.12
1002.095	-1.88
1002.82	-0.88
1003.544	-0.88
1004.268	0.12
1004.992	-0.88
1005.716	-0.88
1006.439	0.12
1007.163	0.12
1007.887	0.12
1008.611	-0.88
1009.334	2.12
1010.058	-1.88
1010.781	-1.88
1011.504	0.12
1012.228	-0.88
1012.951	0.12
1013.674	-0.88
1014.397	0.12
1015.12	1.12
