节点500_285_QEPB04081__119__14-57-32-255.txt的数据

Date: Wed Nov 12 14:57:32 CST 2025
User: PC
Spectrometer: QEPB0408
触发模式: 0
积分时间 (秒): 1.000000E-2
Scans to average: 1
启用暗噪声校正: true
启用非线性校正: false
滑动平均宽度: 0
X轴模式: Wavelengths
Number of Pixels in Spectrum: 1044
>>>>>Begin Spectral Data<<<<<
220.843	1.25
221.644	0.25
222.444	1.25
223.244	1.25
224.045	1.25
224.845	2.25
225.645	2.25
226.445	1.25
227.245	2.25
228.045	0.25
228.845	4.25
229.645	3.25
230.444	3.25
231.244	5.25
232.043	2.25
232.843	2.25
233.642	4.25
234.442	1.25
235.241	2.25
236.04	2.25
236.839	2.25
237.638	4.25
238.437	5.25
239.236	4.25
240.035	4.25
240.833	5.25
241.632	5.25
242.43	3.25
243.229	5.25
244.027	3.25
244.826	8.25
245.624	3.25
246.422	6.25
247.22	7.25
248.018	6.25
248.816	5.25
249.614	6.25
250.412	8.25
251.21	8.25
252.007	6.25
252.805	8.25
253.602	7.25
254.4	9.25
255.197	5.25
255.994	9.25
256.791	9.25
257.589	10.25
258.386	9.25
259.183	7.25
259.979	7.25
260.776	10.25
261.573	10.25
262.37	13.25
263.166	10.25
263.963	14.25
264.759	12.25
265.556	13.25
266.352	12.25
267.148	15.25
267.944	13.25
268.74	14.25
269.536	19.25
270.332	13.25
271.128	13.25
271.924	17.25
272.719	19.25
273.515	16.25
274.311	18.25
275.106	17.25
275.901	19.25
276.697	17.25
277.492	18.25
278.287	21.25
279.082	19.25
279.877	17.25
280.672	19.25
281.467	19.25
282.262	17.25
283.056	21.25
283.851	18.25
284.646	20.25
285.44	20.25
286.234	16.25
287.029	20.25
287.823	18.25
288.617	19.25
289.411	22.25
290.205	18.25
290.999	19.25
291.793	16.25
292.587	17.25
293.381	18.25
294.174	18.25
294.968	17.25
295.761	17.25
296.555	17.25
297.348	15.25
298.141	16.25
298.935	16.25
299.728	16.25
300.521	14.25
301.314	10.25
302.107	11.25
302.899	14.25
303.692	11.25
304.485	13.25
305.277	12.25
306.07	12.25
306.862	12.25
307.655	12.25
308.447	13.25
309.239	13.25
310.031	10.25
310.823	7.25
311.615	8.25
312.407	9.25
313.199	10.25
313.991	8.25
314.783	9.25
315.574	11.25
316.366	9.25
317.157	10.25
317.949	6.25
318.74	7.25
319.531	7.25
320.322	3.25
321.113	8.25
321.904	6.25
322.695	7.25
323.486	6.25
324.277	7.25
325.068	7.25
325.858	4.25
326.649	7.25
327.439	7.25
328.23	6.25
329.02	7.25
329.81	7.25
330.6	5.25
331.391	6.25
332.181	6.25
332.971	7.25
333.76	6.25
334.55	8.25
335.34	5.25
336.13	5.25
336.919	4.25
337.709	7.25
338.498	6.25
339.287	8.25
340.077	6.25
340.866	5.25
341.655	7.25
342.444	6.25
343.233	7.25
344.022	8.25
344.811	4.25
345.6	5.25
346.388	7.25
347.177	8.25
347.965	6.25
348.754	4.25
349.542	8.25
350.33	3.25
351.119	6.25
351.907	7.25
352.695	4.25
353.483	5.25
354.271	5.25
355.059	7.25
355.846	5.25
356.634	5.25
357.422	6.25
358.209	4.25
358.997	8.25
359.784	6.25
360.571	7.25
361.359	6.25
362.146	6.25
362.933	6.25
363.72	3.25
364.507	4.25
365.294	5.25
366.081	4.25
366.867	5.25
367.654	5.25
368.44	4.25
369.227	4.25
370.013	5.25
370.8	6.25
371.586	5.25
372.372	4.25
373.158	5.25
373.944	5.25
374.73	3.25
375.516	4.25
376.302	4.25
377.088	7.25
377.873	6.25
378.659	3.25
379.445	6.25
380.23	7.25
381.015	6.25
381.801	7.25
382.586	3.25
383.371	7.25
384.156	5.25
384.941	5.25
385.726	6.25
386.511	6.25
387.296	7.25
388.08	5.25
388.865	7.25
389.649	7.25
390.434	3.25
391.218	6.25
392.003	5.25
392.787	5.25
393.571	6.25
394.355	5.25
395.139	5.25
395.923	6.25
396.707	5.25
397.491	6.25
398.274	7.25
399.058	8.25
399.842	9.25
400.625	7.25
401.408	8.25
402.192	8.25
402.975	8.25
403.758	7.25
404.541	7.25
405.324	4.25
406.107	10.25
406.89	7.25
407.673	9.25
408.456	8.25
409.238	6.25
410.021	7.25
410.803	9.25
411.586	7.25
412.368	9.25
413.151	9.25
413.933	8.25
414.715	9.25
415.497	9.25
416.279	9.25
417.061	9.25
417.843	9.25
418.624	10.25
419.406	10.25
420.188	10.25
420.969	13.25
421.751	11.25
422.532	13.25
423.313	11.25
424.095	11.25
424.876	13.25
425.657	13.25
426.438	11.25
427.219	12.25
428	13.25
428.78	14.25
429.561	11.25
430.342	15.25
431.122	15.25
431.903	15.25
432.683	14.25
433.464	14.25
434.244	17.25
435.024	16.25
435.804	19.25
436.584	19.25
437.364	20.25
438.144	22.25
438.924	21.25
439.704	21.25
440.483	25.25
441.263	25.25
442.042	23.25
442.822	27.25
443.601	29.25
444.38	28.25
445.16	31.25
445.939	33.25
446.718	36.25
447.497	37.25
448.276	42.25
449.054	42.25
449.833	46.25
450.612	49.25
451.391	54.25
452.169	56.25
452.948	64.25
453.726	67.25
454.504	77.25
455.282	88.25
456.061	95.25
456.839	102.25
457.617	114.25
458.395	126.25
459.172	142.25
459.95	157.25
460.728	177.25
461.506	195.25
462.283	219.25
463.061	241.25
463.838	271.25
464.615	305.25
465.393	335.25
466.17	361.25
466.947	428.25
467.724	483.25
468.501	530.25
469.278	594.25
470.055	665.25
470.831	728.25
471.608	824.25
472.385	921.25
473.161	1018.25
473.938	1139.25
474.714	1261.25
475.49	1411.25
476.266	1549.25
477.043	1735.25
477.819	1914.25
478.595	2120.25
479.371	2337.25
480.146	2584.25
480.922	2887.25
481.698	3187.25
482.473	3519.25
483.249	3899.25
484.024	4322.25
484.8	4752.25
485.575	5238.25
486.35	5756.25
487.126	6364.25
487.901	7023.25
488.676	7712.25
489.451	8494.25
490.225	9265.25
491	10194.25
491.775	11150.25
492.55	12177.25
493.324	13225.25
494.099	14303.25
494.873	15460.25
495.647	16654.25
496.422	17948.25
497.196	19134.25
497.97	20504.25
498.744	21746.25
499.518	22935.25
500.292	24102.25
501.066	25231.25
501.839	26161.25
502.613	27021.25
503.387	27758.25
504.16	28253.25
504.934	28495.25
505.707	28616.25
506.48	28504.25
507.253	28269.25
508.027	27843.25
508.8	27333.25
509.573	26821.25
510.346	26052.25
511.118	25120.25
511.891	24250.25
512.664	23368.25
513.437	22376.25
514.209	21369.25
514.982	20482.25
515.754	19476.25
516.526	18657.25
517.298	17842.25
518.071	17009.25
518.843	16361.25
519.615	15751.25
520.387	15130.25
521.159	14528.25
521.93	13926.25
522.702	13365.25
523.474	12862.25
524.245	12280.25
525.017	11747.25
525.788	11246.25
526.56	10746.25
527.331	10240.25
528.102	9764.25
528.873	9295.25
529.644	8842.25
530.415	8363.25
531.186	7919.25
531.957	7509.25
532.728	7153.25
533.498	6754.25
534.269	6349.25
535.039	6004.25
535.81	5663.25
536.58	5331.25
537.351	5026.25
538.121	4743.25
538.891	4510.25
539.661	4240.25
540.431	4017.25
541.201	3794.25
541.971	3604.25
542.741	3403.25
543.51	3250.25
544.28	3099.25
545.05	2951.25
545.819	2798.25
546.588	2654.25
547.358	2529.25
548.127	2395.25
548.896	2256.25
549.665	2135.25
550.434	2040.25
551.203	1936.25
551.972	1805.25
552.741	1727.25
553.51	1623.25
554.278	1530.25
555.047	1446.25
555.815	1369.25
556.584	1284.25
557.352	1217.25
558.121	1148.25
558.889	1085.25
559.657	1026.25
560.425	964.25
561.193	907.25
561.961	862.25
562.729	811.25
563.496	759.25
564.264	724.25
565.032	686.25
565.799	642.25
566.567	617.25
567.334	584.25
568.101	543.25
568.869	514.25
569.636	484.25
570.403	447.25
571.17	428.25
571.937	408.25
572.704	387.25
573.471	368.25
574.237	345.25
575.004	325.25
575.771	301.25
576.537	283.25
577.303	267.25
578.07	258.25
578.836	230.25
579.602	221.25
580.368	207.25
581.134	198.25
581.9	185.25
582.666	186.25
583.432	171.25
584.198	164.25
584.964	154.25
585.729	146.25
586.495	140.25
587.26	134.25
588.025	123.25
588.791	122.25
589.556	110.25
590.321	105.25
591.086	99.25
591.851	97.25
592.616	94.25
593.381	84.25
594.146	83.25
594.911	79.25
595.675	73.25
596.44	72.25
597.204	69.25
597.969	62.25
598.733	63.25
599.497	64.25
600.261	58.25
601.025	56.25
601.79	54.25
602.553	51.25
603.317	48.25
604.081	45.25
604.845	42.25
605.609	39.25
606.372	41.25
607.136	40.25
607.899	33.25
608.662	37.25
609.426	33.25
610.189	32.25
610.952	31.25
611.715	29.25
612.478	29.25
613.241	26.25
614.004	27.25
614.767	27.25
615.529	23.25
616.292	23.25
617.055	25.25
617.817	21.25
618.579	21.25
619.342	21.25
620.104	19.25
620.866	21.25
621.628	17.25
622.39	19.25
623.152	17.25
623.914	17.25
624.676	21.25
625.438	16.25
626.199	15.25
626.961	16.25
627.722	15.25
628.484	15.25
629.245	12.25
630.006	15.25
630.768	13.25
631.529	13.25
632.29	13.25
633.051	11.25
633.812	12.25
634.573	10.25
635.333	10.25
636.094	12.25
636.855	9.25
637.615	10.25
638.376	8.25
639.136	11.25
639.896	9.25
640.657	8.25
641.417	9.25
642.177	8.25
642.937	8.25
643.697	8.25
644.457	9.25
645.216	8.25
645.976	7.25
646.736	5.25
647.495	9.25
648.255	5.25
649.014	7.25
649.774	5.25
650.533	7.25
651.292	5.25
652.051	9.25
652.81	6.25
653.569	7.25
654.328	6.25
655.087	2.25
655.846	7.25
656.604	7.25
657.363	6.25
658.121	6.25
658.88	5.25
659.638	6.25
660.397	8.25
661.155	5.25
661.913	4.25
662.671	6.25
663.429	4.25
664.187	3.25
664.945	7.25
665.703	6.25
666.46	5.25
667.218	4.25
667.976	5.25
668.733	4.25
669.49	6.25
670.248	4.25
671.005	5.25
671.762	5.25
672.519	8.25
673.276	3.25
674.033	4.25
674.79	2.25
675.547	4.25
676.304	5.25
677.06	3.25
677.817	3.25
678.574	5.25
679.33	3.25
680.086	3.25
680.843	4.25
681.599	5.25
682.355	2.25
683.111	4.25
683.867	3.25
684.623	4.25
685.379	5.25
686.135	2.25
686.89	3.25
687.646	3.25
688.402	5.25
689.157	6.25
689.912	3.25
690.668	5.25
691.423	3.25
692.178	4.25
692.933	5.25
693.688	4.25
694.443	5.25
695.198	4.25
695.953	4.25
696.708	4.25
697.462	3.25
698.217	1.25
698.972	5.25
699.726	1.25
700.48	3.25
701.235	3.25
701.989	3.25
702.743	5.25
703.497	3.25
704.251	4.25
705.005	4.25
705.759	3.25
706.513	2.25
707.266	2.25
708.02	4.25
708.774	3.25
709.527	3.25
710.28	4.25
711.034	4.25
711.787	2.25
712.54	7.25
713.293	4.25
714.046	3.25
714.799	3.25
715.552	6.25
716.305	4.25
717.058	6.25
717.81	4.25
718.563	2.25
719.315	3.25
720.068	4.25
720.82	5.25
721.573	2.25
722.325	2.25
723.077	3.25
723.829	2.25
724.581	3.25
725.333	4.25
726.085	6.25
726.836	2.25
727.588	4.25
728.34	4.25
729.091	2.25
729.843	4.25
730.594	3.25
731.346	6.25
732.097	2.25
732.848	3.25
733.599	4.25
734.35	4.25
735.101	4.25
735.852	5.25
736.603	3.25
737.354	4.25
738.104	4.25
738.855	8.25
739.605	5.25
740.356	2.25
741.106	2.25
741.856	4.25
742.607	4.25
743.357	3.25
744.107	5.25
744.857	3.25
745.607	6.25
746.357	7.25
747.106	5.25
747.856	8.25
748.606	6.25
749.355	5.25
750.105	4.25
750.854	5.25
751.603	7.25
752.353	6.25
753.102	5.25
753.851	6.25
754.6	5.25
755.349	5.25
756.098	4.25
756.847	6.25
757.595	7.25
758.344	5.25
759.093	4.25
759.841	6.25
760.589	6.25
761.338	3.25
762.086	9.25
762.834	6.25
763.582	6.25
764.331	5.25
765.079	9.25
765.826	6.25
766.574	6.25
767.322	7.25
768.07	6.25
768.817	7.25
769.565	8.25
770.312	7.25
771.06	9.25
771.807	7.25
772.554	7.25
773.302	9.25
774.049	10.25
774.796	10.25
775.543	9.25
776.29	9.25
777.036	7.25
777.783	8.25
778.53	7.25
779.276	9.25
780.023	10.25
780.769	9.25
781.516	10.25
782.262	9.25
783.008	9.25
783.754	9.25
784.5	10.25
785.246	10.25
785.992	10.25
786.738	8.25
787.484	8.25
788.23	7.25
788.975	10.25
789.721	9.25
790.466	9.25
791.212	8.25
791.957	9.25
792.702	9.25
793.447	9.25
794.193	7.25
794.938	5.25
795.683	9.25
796.427	10.25
797.172	6.25
797.917	8.25
798.662	7.25
799.406	7.25
800.151	11.25
800.895	7.25
801.64	10.25
802.384	8.25
803.128	9.25
803.872	9.25
804.616	7.25
805.36	9.25
806.104	6.25
806.848	6.25
807.592	7.25
808.336	5.25
809.079	5.25
809.823	4.25
810.566	6.25
811.31	4.25
812.053	6.25
812.796	5.25
813.539	6.25
814.283	5.25
815.026	6.25
815.769	7.25
816.511	5.25
817.254	6.25
817.997	6.25
818.74	2.25
819.482	6.25
820.225	5.25
820.967	6.25
821.71	3.25
822.452	6.25
823.194	6.25
823.936	4.25
824.678	5.25
825.42	3.25
826.162	4.25
826.904	6.25
827.646	2.25
828.388	7.25
829.129	3.25
829.871	3.25
830.612	4.25
831.354	3.25
832.095	6.25
832.836	2.25
833.577	2.25
834.319	4.25
835.06	1.25
835.801	5.25
836.542	3.25
837.282	6.25
838.023	3.25
838.764	5.25
839.504	3.25
840.245	3.25
840.985	4.25
841.726	4.25
842.466	5.25
843.206	4.25
843.946	3.25
844.687	2.25
845.427	1.25
846.166	5.25
846.906	3.25
847.646	3.25
848.386	1.25
849.125	3.25
849.865	3.25
850.605	3.25
851.344	3.25
852.083	4.25
852.823	4.25
853.562	3.25
854.301	5.25
855.04	3.25
855.779	2.25
856.518	3.25
857.257	3.25
857.995	1.25
858.734	3.25
859.473	5.25
860.211	3.25
860.95	1.25
861.688	2.25
862.426	1.25
863.165	3.25
863.903	2.25
864.641	1.25
865.379	4.25
866.117	2.25
866.855	1.25
867.593	3.25
868.33	2.25
869.068	1.25
869.806	1.25
870.543	0.25
871.28	0.25
872.018	1.25
872.755	1.25
873.492	-0.75
874.229	2.25
874.967	4.25
875.703	0.25
876.44	1.25
877.177	0.25
877.914	1.25
878.651	0.25
879.387	0.25
880.124	1.25
880.86	-0.75
881.597	2.25
882.333	4.25
883.069	1.25
883.806	0.25
884.542	0.25
885.278	1.25
886.014	-0.75
886.749	0.25
887.485	2.25
888.221	-0.75
888.957	2.25
889.692	-0.75
890.428	1.25
891.163	1.25
891.899	3.25
892.634	-0.75
893.369	0.25
894.104	1.25
894.839	1.25
895.574	2.25
896.309	0.25
897.044	-0.75
897.779	-0.75
898.514	3.25
899.248	3.25
899.983	0.25
900.717	2.25
901.452	0.25
902.186	2.25
902.92	1.25
903.654	-0.75
904.389	1.25
905.123	1.25
905.857	-0.75
906.59	1.25
907.324	1.25
908.058	0.25
908.792	0.25
909.525	1.25
910.259	-0.75
910.992	-0.75
911.726	1.25
912.459	0.25
913.192	-0.75
913.925	1.25
914.658	-0.75
915.391	3.25
916.124	1.25
916.857	1.25
917.59	0.25
918.323	0.25
919.055	-0.75
919.788	2.25
920.521	1.25
921.253	-2.75
921.985	0.25
922.718	0.25
923.45	-0.75
924.182	1.25
924.914	0.25
925.646	0.25
926.378	0.25
927.11	0.25
927.841	2.25
928.573	1.25
929.305	2.25
930.036	1.25
930.768	1.25
931.499	-0.75
932.23	-1.75
932.962	2.25
933.693	-0.75
934.424	1.25
935.155	-0.75
935.886	2.25
936.617	0.25
937.348	-1.75
938.078	3.25
938.809	0.25
939.54	2.25
940.27	0.25
941.001	-0.75
941.731	-0.75
942.461	-0.75
943.191	1.25
943.922	0.25
944.652	2.25
945.382	0.25
946.112	1.25
946.841	1.25
947.571	-0.75
948.301	1.25
949.031	1.25
949.76	0.25
950.49	1.25
951.219	0.25
951.948	1.25
952.678	1.25
953.407	1.25
954.136	0.25
954.865	1.25
955.594	0.25
956.323	-0.75
957.052	0.25
957.78	-0.75
958.509	0.25
959.238	1.25
959.966	-1.75
960.695	1.25
961.423	-0.75
962.151	-0.75
962.88	-0.75
963.608	-0.75
964.336	1.25
965.064	0.25
965.792	0.25
966.52	0.25
967.247	-0.75
967.975	0.25
968.703	-0.75
969.43	2.25
970.158	0.25
970.885	0.25
971.613	-0.75
972.34	2.25
973.067	1.25
973.794	0.25
974.521	1.25
975.248	0.25
975.975	-0.75
976.702	0.25
977.429	1.25
978.156	-0.75
978.882	0.25
979.609	1.25
980.335	-0.75
981.062	1.25
981.788	-0.75
982.514	-0.75
983.24	2.25
983.967	0.25
984.693	1.25
985.419	1.25
986.144	-2.75
986.87	-0.75
987.596	0.25
988.322	0.25
989.047	-1.75
989.773	1.25
990.498	1.25
991.224	0.25
991.949	1.25
992.674	0.25
993.399	1.25
994.124	-0.75
994.849	0.25
995.574	1.25
996.299	0.25
997.024	2.25
997.749	-0.75
998.473	1.25
999.198	1.25
999.922	-0.75
1000.647	1.25
1001.371	5.25
1002.095	1.25
1002.82	-0.75
1003.544	-1.75
1004.268	3.25
1004.992	3.25
1005.716	1.25
1006.439	0.25
1007.163	2.25
1007.887	4.25
1008.611	-0.75
1009.334	1.25
1010.058	0.25
1010.781	0.25
1011.504	0.25
1012.228	-0.75
1012.951	-0.75
1013.674	-1.75
1014.397	-0.75
1015.12	-0.75
