节点500_285_QEPB04081__315__15-00-47-742.txt的数据

Date: Wed Nov 12 15:00:47 CST 2025
User: PC
Spectrometer: QEPB0408
触发模式: 0
积分时间 (秒): 1.000000E-2
Scans to average: 1
启用暗噪声校正: true
启用非线性校正: false
滑动平均宽度: 0
X轴模式: Wavelengths
Number of Pixels in Spectrum: 1044
>>>>>Begin Spectral Data<<<<<
220.843	2.38
221.644	0.38
222.444	1.38
223.244	5.38
224.045	2.38
224.845	2.38
225.645	1.38
226.445	4.38
227.245	3.38
228.045	0.38
228.845	3.38
229.645	4.38
230.444	4.38
231.244	1.38
232.043	4.38
232.843	3.38
233.642	2.38
234.442	4.38
235.241	4.38
236.04	4.38
236.839	5.38
237.638	5.38
238.437	3.38
239.236	3.38
240.035	6.38
240.833	4.38
241.632	4.38
242.43	4.38
243.229	4.38
244.027	5.38
244.826	5.38
245.624	7.38
246.422	6.38
247.22	4.38
248.018	5.38
248.816	8.38
249.614	7.38
250.412	8.38
251.21	6.38
252.007	6.38
252.805	10.38
253.602	7.38
254.4	8.38
255.197	8.38
255.994	8.38
256.791	9.38
257.589	8.38
258.386	11.38
259.183	8.38
259.979	10.38
260.776	10.38
261.573	10.38
262.37	9.38
263.166	13.38
263.963	12.38
264.759	14.38
265.556	12.38
266.352	13.38
267.148	14.38
267.944	13.38
268.74	13.38
269.536	11.38
270.332	18.38
271.128	15.38
271.924	15.38
272.719	16.38
273.515	14.38
274.311	19.38
275.106	19.38
275.901	17.38
276.697	21.38
277.492	20.38
278.287	16.38
279.082	15.38
279.877	19.38
280.672	17.38
281.467	21.38
282.262	20.38
283.056	20.38
283.851	21.38
284.646	19.38
285.44	18.38
286.234	18.38
287.029	19.38
287.823	19.38
288.617	19.38
289.411	19.38
290.205	18.38
290.999	17.38
291.793	16.38
292.587	18.38
293.381	16.38
294.174	18.38
294.968	15.38
295.761	18.38
296.555	15.38
297.348	15.38
298.141	17.38
298.935	17.38
299.728	16.38
300.521	14.38
301.314	15.38
302.107	14.38
302.899	17.38
303.692	13.38
304.485	14.38
305.277	14.38
306.07	14.38
306.862	11.38
307.655	14.38
308.447	12.38
309.239	10.38
310.031	12.38
310.823	11.38
311.615	11.38
312.407	10.38
313.199	7.38
313.991	10.38
314.783	8.38
315.574	9.38
316.366	8.38
317.157	8.38
317.949	11.38
318.74	4.38
319.531	7.38
320.322	8.38
321.113	8.38
321.904	8.38
322.695	6.38
323.486	8.38
324.277	7.38
325.068	7.38
325.858	10.38
326.649	8.38
327.439	9.38
328.23	5.38
329.02	6.38
329.81	9.38
330.6	6.38
331.391	9.38
332.181	4.38
332.971	8.38
333.76	7.38
334.55	6.38
335.34	5.38
336.13	7.38
336.919	6.38
337.709	6.38
338.498	8.38
339.287	6.38
340.077	6.38
340.866	5.38
341.655	5.38
342.444	7.38
343.233	5.38
344.022	8.38
344.811	6.38
345.6	7.38
346.388	7.38
347.177	6.38
347.965	5.38
348.754	8.38
349.542	4.38
350.33	8.38
351.119	6.38
351.907	6.38
352.695	5.38
353.483	4.38
354.271	6.38
355.059	7.38
355.846	8.38
356.634	7.38
357.422	8.38
358.209	5.38
358.997	8.38
359.784	4.38
360.571	6.38
361.359	5.38
362.146	6.38
362.933	6.38
363.72	7.38
364.507	7.38
365.294	6.38
366.081	5.38
366.867	6.38
367.654	5.38
368.44	5.38
369.227	6.38
370.013	4.38
370.8	7.38
371.586	6.38
372.372	6.38
373.158	5.38
373.944	5.38
374.73	6.38
375.516	6.38
376.302	5.38
377.088	6.38
377.873	8.38
378.659	5.38
379.445	7.38
380.23	6.38
381.015	4.38
381.801	5.38
382.586	7.38
383.371	8.38
384.156	7.38
384.941	5.38
385.726	5.38
386.511	3.38
387.296	4.38
388.08	7.38
388.865	6.38
389.649	7.38
390.434	6.38
391.218	10.38
392.003	6.38
392.787	8.38
393.571	7.38
394.355	7.38
395.139	7.38
395.923	5.38
396.707	8.38
397.491	8.38
398.274	8.38
399.058	9.38
399.842	8.38
400.625	9.38
401.408	9.38
402.192	9.38
402.975	8.38
403.758	7.38
404.541	9.38
405.324	6.38
406.107	9.38
406.89	7.38
407.673	11.38
408.456	9.38
409.238	11.38
410.021	9.38
410.803	8.38
411.586	9.38
412.368	9.38
413.151	12.38
413.933	8.38
414.715	10.38
415.497	8.38
416.279	9.38
417.061	13.38
417.843	10.38
418.624	8.38
419.406	10.38
420.188	9.38
420.969	10.38
421.751	9.38
422.532	10.38
423.313	9.38
424.095	12.38
424.876	11.38
425.657	13.38
426.438	13.38
427.219	12.38
428	17.38
428.78	12.38
429.561	13.38
430.342	15.38
431.122	14.38
431.903	14.38
432.683	13.38
433.464	16.38
434.244	16.38
435.024	14.38
435.804	18.38
436.584	19.38
437.364	19.38
438.144	20.38
438.924	21.38
439.704	20.38
440.483	25.38
441.263	23.38
442.042	24.38
442.822	28.38
443.601	30.38
444.38	31.38
445.16	30.38
445.939	30.38
446.718	36.38
447.497	39.38
448.276	42.38
449.054	43.38
449.833	45.38
450.612	52.38
451.391	52.38
452.169	62.38
452.948	66.38
453.726	77.38
454.504	84.38
455.282	87.38
456.061	97.38
456.839	110.38
457.617	124.38
458.395	135.38
459.172	148.38
459.95	165.38
460.728	186.38
461.506	205.38
462.283	226.38
463.061	262.38
463.838	288.38
464.615	322.38
465.393	363.38
466.17	394.38
466.947	442.38
467.724	489.38
468.501	560.38
469.278	616.38
470.055	694.38
470.831	754.38
471.608	846.38
472.385	947.38
473.161	1043.38
473.938	1162.38
474.714	1300.38
475.49	1432.38
476.266	1557.38
477.043	1749.38
477.819	1934.38
478.595	2125.38
479.371	2351.38
480.146	2584.38
480.922	2849.38
481.698	3173.38
482.473	3490.38
483.249	3827.38
484.024	4225.38
484.8	4628.38
485.575	5105.38
486.35	5605.38
487.126	6152.38
487.901	6777.38
488.676	7420.38
489.451	8113.38
490.225	8880.38
491	9667.38
491.775	10617.38
492.55	11482.38
493.324	12548.38
494.099	13477.38
494.873	14511.38
495.647	15653.38
496.422	16838.38
497.196	18069.38
497.97	19229.38
498.744	20501.38
499.518	21609.38
500.292	22768.38
501.066	23904.38
501.839	24746.38
502.613	25645.38
503.387	26508.38
504.16	27067.38
504.934	27464.38
505.707	27560.38
506.48	27594.38
507.253	27556.38
508.027	27306.38
508.8	26913.38
509.573	26526.38
510.346	25811.38
511.118	25060.38
511.891	24253.38
512.664	23437.38
513.437	22510.38
514.209	21544.38
514.982	20674.38
515.754	19759.38
516.526	18854.38
517.298	18042.38
518.071	17245.38
518.843	16605.38
519.615	15932.38
520.387	15329.38
521.159	14714.38
521.93	14157.38
522.702	13583.38
523.474	13006.38
524.245	12438.38
525.017	11890.38
525.788	11453.38
526.56	10918.38
527.331	10378.38
528.102	9961.38
528.873	9495.38
529.644	9018.38
530.415	8560.38
531.186	8123.38
531.957	7687.38
532.728	7334.38
533.498	6944.38
534.269	6553.38
535.039	6154.38
535.81	5850.38
536.58	5552.38
537.351	5181.38
538.121	4930.38
538.891	4662.38
539.661	4391.38
540.431	4151.38
541.201	3925.38
541.971	3717.38
542.741	3510.38
543.51	3343.38
544.28	3182.38
545.05	3026.38
545.819	2901.38
546.588	2728.38
547.358	2606.38
548.127	2490.38
548.896	2346.38
549.665	2232.38
550.434	2096.38
551.203	1989.38
551.972	1895.38
552.741	1780.38
553.51	1682.38
554.278	1595.38
555.047	1494.38
555.815	1416.38
556.584	1342.38
557.352	1262.38
558.121	1194.38
558.889	1138.38
559.657	1060.38
560.425	1006.38
561.193	946.38
561.961	891.38
562.729	835.38
563.496	799.38
564.264	749.38
565.032	721.38
565.799	677.38
566.567	633.38
567.334	606.38
568.101	569.38
568.869	530.38
569.636	511.38
570.403	479.38
571.17	447.38
571.937	430.38
572.704	398.38
573.471	385.38
574.237	357.38
575.004	337.38
575.771	323.38
576.537	294.38
577.303	283.38
578.07	269.38
578.836	250.38
579.602	238.38
580.368	216.38
581.134	208.38
581.9	205.38
582.666	190.38
583.432	180.38
584.198	168.38
584.964	158.38
585.729	157.38
586.495	147.38
587.26	141.38
588.025	130.38
588.791	126.38
589.556	116.38
590.321	104.38
591.086	101.38
591.851	103.38
592.616	96.38
593.381	89.38
594.146	88.38
594.911	83.38
595.675	76.38
596.44	77.38
597.204	73.38
597.969	68.38
598.733	62.38
599.497	63.38
600.261	62.38
601.025	57.38
601.79	53.38
602.553	49.38
603.317	50.38
604.081	45.38
604.845	43.38
605.609	42.38
606.372	44.38
607.136	39.38
607.899	39.38
608.662	40.38
609.426	38.38
610.189	34.38
610.952	35.38
611.715	33.38
612.478	28.38
613.241	30.38
614.004	30.38
614.767	29.38
615.529	26.38
616.292	24.38
617.055	22.38
617.817	22.38
618.579	23.38
619.342	24.38
620.104	21.38
620.866	20.38
621.628	20.38
622.39	23.38
623.152	20.38
623.914	20.38
624.676	16.38
625.438	17.38
626.199	19.38
626.961	16.38
627.722	16.38
628.484	16.38
629.245	14.38
630.006	14.38
630.768	13.38
631.529	13.38
632.29	14.38
633.051	11.38
633.812	11.38
634.573	10.38
635.333	11.38
636.094	12.38
636.855	10.38
637.615	11.38
638.376	10.38
639.136	10.38
639.896	9.38
640.657	11.38
641.417	10.38
642.177	9.38
642.937	7.38
643.697	8.38
644.457	10.38
645.216	10.38
645.976	7.38
646.736	10.38
647.495	8.38
648.255	6.38
649.014	9.38
649.774	9.38
650.533	6.38
651.292	6.38
652.051	6.38
652.81	6.38
653.569	5.38
654.328	8.38
655.087	8.38
655.846	6.38
656.604	9.38
657.363	8.38
658.121	7.38
658.88	6.38
659.638	6.38
660.397	5.38
661.155	6.38
661.913	6.38
662.671	6.38
663.429	5.38
664.187	6.38
664.945	7.38
665.703	3.38
666.46	6.38
667.218	6.38
667.976	4.38
668.733	6.38
669.49	4.38
670.248	7.38
671.005	5.38
671.762	6.38
672.519	6.38
673.276	4.38
674.033	4.38
674.79	4.38
675.547	5.38
676.304	5.38
677.06	2.38
677.817	5.38
678.574	5.38
679.33	6.38
680.086	5.38
680.843	6.38
681.599	6.38
682.355	4.38
683.111	5.38
683.867	6.38
684.623	4.38
685.379	3.38
686.135	4.38
686.89	3.38
687.646	4.38
688.402	6.38
689.157	6.38
689.912	3.38
690.668	3.38
691.423	4.38
692.178	5.38
692.933	2.38
693.688	4.38
694.443	2.38
695.198	2.38
695.953	6.38
696.708	5.38
697.462	3.38
698.217	4.38
698.972	3.38
699.726	2.38
700.48	4.38
701.235	5.38
701.989	3.38
702.743	4.38
703.497	4.38
704.251	3.38
705.005	6.38
705.759	2.38
706.513	5.38
707.266	4.38
708.02	6.38
708.774	5.38
709.527	6.38
710.28	1.38
711.034	3.38
711.787	2.38
712.54	2.38
713.293	6.38
714.046	5.38
714.799	6.38
715.552	4.38
716.305	4.38
717.058	5.38
717.81	6.38
718.563	3.38
719.315	3.38
720.068	2.38
720.82	4.38
721.573	2.38
722.325	4.38
723.077	5.38
723.829	3.38
724.581	3.38
725.333	5.38
726.085	6.38
726.836	3.38
727.588	5.38
728.34	3.38
729.091	3.38
729.843	4.38
730.594	4.38
731.346	5.38
732.097	5.38
732.848	5.38
733.599	2.38
734.35	6.38
735.101	6.38
735.852	4.38
736.603	4.38
737.354	4.38
738.104	4.38
738.855	4.38
739.605	4.38
740.356	5.38
741.106	4.38
741.856	6.38
742.607	5.38
743.357	5.38
744.107	5.38
744.857	3.38
745.607	7.38
746.357	5.38
747.106	5.38
747.856	6.38
748.606	5.38
749.355	7.38
750.105	4.38
750.854	6.38
751.603	7.38
752.353	5.38
753.102	4.38
753.851	4.38
754.6	7.38
755.349	8.38
756.098	8.38
756.847	8.38
757.595	6.38
758.344	4.38
759.093	7.38
759.841	8.38
760.589	6.38
761.338	5.38
762.086	7.38
762.834	4.38
763.582	9.38
764.331	6.38
765.079	8.38
765.826	8.38
766.574	6.38
767.322	6.38
768.07	6.38
768.817	9.38
769.565	8.38
770.312	8.38
771.06	10.38
771.807	8.38
772.554	6.38
773.302	6.38
774.049	10.38
774.796	8.38
775.543	9.38
776.29	11.38
777.036	9.38
777.783	8.38
778.53	6.38
779.276	10.38
780.023	9.38
780.769	9.38
781.516	8.38
782.262	10.38
783.008	9.38
783.754	9.38
784.5	10.38
785.246	8.38
785.992	8.38
786.738	9.38
787.484	10.38
788.23	9.38
788.975	10.38
789.721	9.38
790.466	11.38
791.212	9.38
791.957	11.38
792.702	8.38
793.447	11.38
794.193	8.38
794.938	9.38
795.683	9.38
796.427	5.38
797.172	8.38
797.917	7.38
798.662	7.38
799.406	8.38
800.151	7.38
800.895	9.38
801.64	6.38
802.384	8.38
803.128	6.38
803.872	10.38
804.616	7.38
805.36	7.38
806.104	6.38
806.848	5.38
807.592	6.38
808.336	4.38
809.079	3.38
809.823	8.38
810.566	5.38
811.31	9.38
812.053	8.38
812.796	5.38
813.539	5.38
814.283	5.38
815.026	7.38
815.769	4.38
816.511	5.38
817.254	5.38
817.997	5.38
818.74	5.38
819.482	3.38
820.225	5.38
820.967	4.38
821.71	5.38
822.452	4.38
823.194	7.38
823.936	8.38
824.678	4.38
825.42	8.38
826.162	5.38
826.904	5.38
827.646	3.38
828.388	3.38
829.129	5.38
829.871	1.38
830.612	6.38
831.354	4.38
832.095	3.38
832.836	5.38
833.577	0.38
834.319	5.38
835.06	2.38
835.801	5.38
836.542	3.38
837.282	3.38
838.023	3.38
838.764	2.38
839.504	5.38
840.245	4.38
840.985	3.38
841.726	5.38
842.466	3.38
843.206	3.38
843.946	3.38
844.687	3.38
845.427	2.38
846.166	3.38
846.906	2.38
847.646	2.38
848.386	5.38
849.125	5.38
849.865	4.38
850.605	5.38
851.344	4.38
852.083	2.38
852.823	2.38
853.562	3.38
854.301	3.38
855.04	2.38
855.779	5.38
856.518	4.38
857.257	4.38
857.995	2.38
858.734	4.38
859.473	4.38
860.211	2.38
860.95	1.38
861.688	2.38
862.426	1.38
863.165	2.38
863.903	3.38
864.641	2.38
865.379	1.38
866.117	3.38
866.855	0.38
867.593	1.38
868.33	3.38
869.068	1.38
869.806	2.38
870.543	4.38
871.28	2.38
872.018	3.38
872.755	0.38
873.492	2.38
874.229	1.38
874.967	2.38
875.703	3.38
876.44	3.38
877.177	3.38
877.914	0.38
878.651	-0.62
879.387	0.38
880.124	2.38
880.86	3.38
881.597	2.38
882.333	1.38
883.069	1.38
883.806	0.38
884.542	2.38
885.278	2.38
886.014	1.38
886.749	0.38
887.485	1.38
888.221	1.38
888.957	1.38
889.692	0.38
890.428	1.38
891.163	2.38
891.899	1.38
892.634	0.38
893.369	0.38
894.104	2.38
894.839	1.38
895.574	1.38
896.309	2.38
897.044	1.38
897.779	0.38
898.514	1.38
899.248	0.38
899.983	5.38
900.717	-1.62
901.452	1.38
902.186	0.38
902.92	0.38
903.654	1.38
904.389	3.38
905.123	0.38
905.857	1.38
906.59	0.38
907.324	1.38
908.058	1.38
908.792	-0.62
909.525	0.38
910.259	2.38
910.992	0.38
911.726	1.38
912.459	0.38
913.192	1.38
913.925	3.38
914.658	0.38
915.391	2.38
916.124	1.38
916.857	1.38
917.59	1.38
918.323	-0.62
919.055	2.38
919.788	1.38
920.521	1.38
921.253	2.38
921.985	2.38
922.718	0.38
923.45	0.38
924.182	0.38
924.914	0.38
925.646	0.38
926.378	2.38
927.11	1.38
927.841	1.38
928.573	1.38
929.305	2.38
930.036	1.38
930.768	3.38
931.499	0.38
932.23	0.38
932.962	0.38
933.693	3.38
934.424	2.38
935.155	1.38
935.886	1.38
936.617	0.38
937.348	1.38
938.078	1.38
938.809	2.38
939.54	0.38
940.27	4.38
941.001	0.38
941.731	0.38
942.461	1.38
943.191	0.38
943.922	0.38
944.652	2.38
945.382	-1.62
946.112	-1.62
946.841	2.38
947.571	1.38
948.301	1.38
949.031	0.38
949.76	1.38
950.49	1.38
951.219	1.38
951.948	2.38
952.678	2.38
953.407	2.38
954.136	0.38
954.865	3.38
955.594	2.38
956.323	1.38
957.052	2.38
957.78	-0.62
958.509	2.38
959.238	0.38
959.966	2.38
960.695	0.38
961.423	2.38
962.151	3.38
962.88	0.38
963.608	2.38
964.336	1.38
965.064	2.38
965.792	1.38
966.52	1.38
967.247	1.38
967.975	-1.62
968.703	1.38
969.43	2.38
970.158	-1.62
970.885	0.38
971.613	-0.62
972.34	-0.62
973.067	0.38
973.794	-1.62
974.521	0.38
975.248	-0.62
975.975	0.38
976.702	0.38
977.429	0.38
978.156	1.38
978.882	-1.62
979.609	1.38
980.335	-1.62
981.062	0.38
981.788	0.38
982.514	-0.62
983.24	0.38
983.967	1.38
984.693	0.38
985.419	-0.62
986.144	1.38
986.87	1.38
987.596	1.38
988.322	1.38
989.047	0.38
989.773	3.38
990.498	0.38
991.224	2.38
991.949	0.38
992.674	0.38
993.399	0.38
994.124	2.38
994.849	2.38
995.574	0.38
996.299	-1.62
997.024	0.38
997.749	1.38
998.473	1.38
999.198	1.38
999.922	1.38
1000.647	0.38
1001.371	1.38
1002.095	-1.62
1002.82	-1.62
1003.544	0.38
1004.268	3.38
1004.992	-0.62
1005.716	1.38
1006.439	2.38
1007.163	0.38
1007.887	3.38
1008.611	0.38
1009.334	-1.62
1010.058	-0.62
1010.781	1.38
1011.504	0.38
1012.228	1.38
1012.951	2.38
1013.674	-0.62
1014.397	1.38
1015.12	-1.62
