节点500_285_QEPB04081__345__15-01-17-700.txt的数据

Date: Wed Nov 12 15:01:17 CST 2025
User: PC
Spectrometer: QEPB0408
触发模式: 0
积分时间 (秒): 1.000000E-2
Scans to average: 1
启用暗噪声校正: true
启用非线性校正: false
滑动平均宽度: 0
X轴模式: Wavelengths
Number of Pixels in Spectrum: 1044
>>>>>Begin Spectral Data<<<<<
220.843	0.5
221.644	-0.5
222.444	3.5
223.244	3.5
224.045	3.5
224.845	1.5
225.645	1.5
226.445	3.5
227.245	2.5
228.045	2.5
228.845	1.5
229.645	1.5
230.444	1.5
231.244	4.5
232.043	1.5
232.843	1.5
233.642	3.5
234.442	4.5
235.241	1.5
236.04	6.5
236.839	4.5
237.638	5.5
238.437	5.5
239.236	3.5
240.035	3.5
240.833	3.5
241.632	3.5
242.43	3.5
243.229	3.5
244.027	3.5
244.826	1.5
245.624	4.5
246.422	5.5
247.22	5.5
248.018	7.5
248.816	6.5
249.614	5.5
250.412	5.5
251.21	6.5
252.007	7.5
252.805	8.5
253.602	9.5
254.4	5.5
255.197	7.5
255.994	8.5
256.791	8.5
257.589	9.5
258.386	10.5
259.183	9.5
259.979	9.5
260.776	12.5
261.573	9.5
262.37	9.5
263.166	10.5
263.963	13.5
264.759	10.5
265.556	12.5
266.352	12.5
267.148	11.5
267.944	12.5
268.74	11.5
269.536	16.5
270.332	15.5
271.128	13.5
271.924	15.5
272.719	14.5
273.515	15.5
274.311	16.5
275.106	16.5
275.901	16.5
276.697	14.5
277.492	15.5
278.287	17.5
279.082	16.5
279.877	14.5
280.672	16.5
281.467	17.5
282.262	17.5
283.056	20.5
283.851	19.5
284.646	19.5
285.44	16.5
286.234	17.5
287.029	20.5
287.823	20.5
288.617	19.5
289.411	18.5
290.205	20.5
290.999	18.5
291.793	18.5
292.587	18.5
293.381	16.5
294.174	18.5
294.968	15.5
295.761	15.5
296.555	17.5
297.348	14.5
298.141	16.5
298.935	17.5
299.728	14.5
300.521	12.5
301.314	11.5
302.107	15.5
302.899	13.5
303.692	11.5
304.485	13.5
305.277	10.5
306.07	14.5
306.862	11.5
307.655	11.5
308.447	9.5
309.239	13.5
310.031	9.5
310.823	12.5
311.615	12.5
312.407	9.5
313.199	9.5
313.991	8.5
314.783	9.5
315.574	9.5
316.366	8.5
317.157	8.5
317.949	7.5
318.74	8.5
319.531	5.5
320.322	5.5
321.113	8.5
321.904	7.5
322.695	6.5
323.486	7.5
324.277	4.5
325.068	9.5
325.858	3.5
326.649	8.5
327.439	7.5
328.23	4.5
329.02	6.5
329.81	6.5
330.6	6.5
331.391	5.5
332.181	7.5
332.971	6.5
333.76	6.5
334.55	7.5
335.34	5.5
336.13	5.5
336.919	6.5
337.709	4.5
338.498	3.5
339.287	5.5
340.077	7.5
340.866	5.5
341.655	5.5
342.444	4.5
343.233	7.5
344.022	6.5
344.811	6.5
345.6	8.5
346.388	5.5
347.177	5.5
347.965	3.5
348.754	6.5
349.542	7.5
350.33	3.5
351.119	5.5
351.907	6.5
352.695	6.5
353.483	6.5
354.271	4.5
355.059	8.5
355.846	3.5
356.634	6.5
357.422	6.5
358.209	5.5
358.997	6.5
359.784	4.5
360.571	6.5
361.359	3.5
362.146	3.5
362.933	5.5
363.72	4.5
364.507	5.5
365.294	4.5
366.081	4.5
366.867	3.5
367.654	8.5
368.44	6.5
369.227	4.5
370.013	6.5
370.8	6.5
371.586	4.5
372.372	4.5
373.158	4.5
373.944	3.5
374.73	4.5
375.516	4.5
376.302	5.5
377.088	3.5
377.873	5.5
378.659	3.5
379.445	5.5
380.23	4.5
381.015	4.5
381.801	5.5
382.586	3.5
383.371	5.5
384.156	3.5
384.941	3.5
385.726	4.5
386.511	6.5
387.296	5.5
388.08	5.5
388.865	5.5
389.649	4.5
390.434	5.5
391.218	7.5
392.003	5.5
392.787	7.5
393.571	8.5
394.355	6.5
395.139	6.5
395.923	6.5
396.707	4.5
397.491	4.5
398.274	8.5
399.058	5.5
399.842	7.5
400.625	8.5
401.408	3.5
402.192	7.5
402.975	5.5
403.758	7.5
404.541	7.5
405.324	8.5
406.107	5.5
406.89	7.5
407.673	8.5
408.456	8.5
409.238	8.5
410.021	8.5
410.803	6.5
411.586	8.5
412.368	5.5
413.151	10.5
413.933	8.5
414.715	10.5
415.497	7.5
416.279	9.5
417.061	8.5
417.843	9.5
418.624	8.5
419.406	9.5
420.188	11.5
420.969	10.5
421.751	11.5
422.532	9.5
423.313	9.5
424.095	11.5
424.876	10.5
425.657	8.5
426.438	10.5
427.219	10.5
428	11.5
428.78	13.5
429.561	12.5
430.342	15.5
431.122	12.5
431.903	14.5
432.683	15.5
433.464	13.5
434.244	15.5
435.024	17.5
435.804	18.5
436.584	17.5
437.364	19.5
438.144	22.5
438.924	21.5
439.704	20.5
440.483	24.5
441.263	25.5
442.042	25.5
442.822	27.5
443.601	28.5
444.38	27.5
445.16	33.5
445.939	33.5
446.718	36.5
447.497	38.5
448.276	40.5
449.054	48.5
449.833	50.5
450.612	50.5
451.391	58.5
452.169	61.5
452.948	67.5
453.726	77.5
454.504	84.5
455.282	89.5
456.061	96.5
456.839	108.5
457.617	121.5
458.395	133.5
459.172	153.5
459.95	167.5
460.728	190.5
461.506	204.5
462.283	231.5
463.061	262.5
463.838	287.5
464.615	316.5
465.393	364.5
466.17	404.5
466.947	455.5
467.724	496.5
468.501	555.5
469.278	616.5
470.055	686.5
470.831	762.5
471.608	863.5
472.385	943.5
473.161	1050.5
473.938	1175.5
474.714	1293.5
475.49	1432.5
476.266	1574.5
477.043	1757.5
477.819	1927.5
478.595	2128.5
479.371	2348.5
480.146	2594.5
480.922	2848.5
481.698	3137.5
482.473	3481.5
483.249	3801.5
484.024	4212.5
484.8	4634.5
485.575	5095.5
486.35	5595.5
487.126	6143.5
487.901	6688.5
488.676	7373.5
489.451	8077.5
490.225	8812.5
491	9615.5
491.775	10529.5
492.55	11446.5
493.324	12394.5
494.099	13374.5
494.873	14421.5
495.647	15564.5
496.422	16654.5
497.196	17858.5
497.97	19081.5
498.744	20271.5
499.518	21377.5
500.292	22508.5
501.066	23661.5
501.839	24644.5
502.613	25539.5
503.387	26282.5
504.16	26897.5
504.934	27227.5
505.707	27452.5
506.48	27497.5
507.253	27369.5
508.027	27129.5
508.8	26789.5
509.573	26364.5
510.346	25807.5
511.118	24988.5
511.891	24210.5
512.664	23329.5
513.437	22487.5
514.209	21533.5
514.982	20699.5
515.754	19781.5
516.526	18863.5
517.298	18065.5
518.071	17286.5
518.843	16643.5
519.615	15983.5
520.387	15352.5
521.159	14735.5
521.93	14118.5
522.702	13578.5
523.474	13004.5
524.245	12405.5
525.017	11913.5
525.788	11485.5
526.56	10952.5
527.331	10408.5
528.102	10027.5
528.873	9518.5
529.644	9037.5
530.415	8614.5
531.186	8164.5
531.957	7735.5
532.728	7351.5
533.498	6953.5
534.269	6572.5
535.039	6194.5
535.81	5875.5
536.58	5535.5
537.351	5218.5
538.121	4940.5
538.891	4678.5
539.661	4431.5
540.431	4155.5
541.201	3932.5
541.971	3737.5
542.741	3522.5
543.51	3383.5
544.28	3229.5
545.05	3026.5
545.819	2879.5
546.588	2739.5
547.358	2630.5
548.127	2478.5
548.896	2371.5
549.665	2246.5
550.434	2113.5
551.203	2001.5
551.972	1899.5
552.741	1803.5
553.51	1704.5
554.278	1602.5
555.047	1511.5
555.815	1430.5
556.584	1340.5
557.352	1267.5
558.121	1208.5
558.889	1132.5
559.657	1064.5
560.425	1005.5
561.193	940.5
561.961	893.5
562.729	854.5
563.496	795.5
564.264	772.5
565.032	725.5
565.799	681.5
566.567	630.5
567.334	608.5
568.101	581.5
568.869	540.5
569.636	509.5
570.403	482.5
571.17	460.5
571.937	427.5
572.704	401.5
573.471	378.5
574.237	362.5
575.004	345.5
575.771	321.5
576.537	302.5
577.303	283.5
578.07	267.5
578.836	254.5
579.602	239.5
580.368	226.5
581.134	212.5
581.9	202.5
582.666	191.5
583.432	174.5
584.198	171.5
584.964	158.5
585.729	153.5
586.495	149.5
587.26	137.5
588.025	123.5
588.791	123.5
589.556	116.5
590.321	108.5
591.086	100.5
591.851	104.5
592.616	95.5
593.381	91.5
594.146	85.5
594.911	84.5
595.675	83.5
596.44	72.5
597.204	71.5
597.969	70.5
598.733	66.5
599.497	61.5
600.261	61.5
601.025	56.5
601.79	50.5
602.553	52.5
603.317	49.5
604.081	48.5
604.845	47.5
605.609	44.5
606.372	42.5
607.136	40.5
607.899	39.5
608.662	35.5
609.426	36.5
610.189	31.5
610.952	35.5
611.715	33.5
612.478	33.5
613.241	29.5
614.004	32.5
614.767	27.5
615.529	27.5
616.292	25.5
617.055	23.5
617.817	21.5
618.579	21.5
619.342	24.5
620.104	22.5
620.866	20.5
621.628	19.5
622.39	17.5
623.152	17.5
623.914	18.5
624.676	17.5
625.438	17.5
626.199	17.5
626.961	13.5
627.722	16.5
628.484	13.5
629.245	13.5
630.006	16.5
630.768	13.5
631.529	15.5
632.29	15.5
633.051	12.5
633.812	11.5
634.573	10.5
635.333	10.5
636.094	8.5
636.855	9.5
637.615	7.5
638.376	9.5
639.136	11.5
639.896	8.5
640.657	8.5
641.417	6.5
642.177	8.5
642.937	8.5
643.697	6.5
644.457	9.5
645.216	6.5
645.976	7.5
646.736	7.5
647.495	8.5
648.255	7.5
649.014	7.5
649.774	6.5
650.533	6.5
651.292	7.5
652.051	5.5
652.81	5.5
653.569	7.5
654.328	4.5
655.087	5.5
655.846	6.5
656.604	6.5
657.363	7.5
658.121	8.5
658.88	6.5
659.638	6.5
660.397	6.5
661.155	4.5
661.913	5.5
662.671	6.5
663.429	4.5
664.187	3.5
664.945	5.5
665.703	5.5
666.46	7.5
667.218	4.5
667.976	5.5
668.733	4.5
669.49	5.5
670.248	3.5
671.005	4.5
671.762	5.5
672.519	3.5
673.276	3.5
674.033	4.5
674.79	4.5
675.547	4.5
676.304	3.5
677.06	5.5
677.817	3.5
678.574	4.5
679.33	4.5
680.086	2.5
680.843	3.5
681.599	2.5
682.355	4.5
683.111	4.5
683.867	3.5
684.623	2.5
685.379	3.5
686.135	4.5
686.89	2.5
687.646	2.5
688.402	3.5
689.157	0.5
689.912	5.5
690.668	2.5
691.423	3.5
692.178	4.5
692.933	3.5
693.688	1.5
694.443	5.5
695.198	5.5
695.953	2.5
696.708	3.5
697.462	3.5
698.217	2.5
698.972	3.5
699.726	4.5
700.48	2.5
701.235	5.5
701.989	3.5
702.743	3.5
703.497	2.5
704.251	6.5
705.005	3.5
705.759	3.5
706.513	4.5
707.266	3.5
708.02	3.5
708.774	3.5
709.527	3.5
710.28	3.5
711.034	4.5
711.787	0.5
712.54	2.5
713.293	2.5
714.046	3.5
714.799	3.5
715.552	3.5
716.305	4.5
717.058	3.5
717.81	1.5
718.563	3.5
719.315	3.5
720.068	4.5
720.82	2.5
721.573	4.5
722.325	3.5
723.077	5.5
723.829	2.5
724.581	4.5
725.333	4.5
726.085	3.5
726.836	4.5
727.588	2.5
728.34	5.5
729.091	4.5
729.843	4.5
730.594	4.5
731.346	4.5
732.097	3.5
732.848	3.5
733.599	3.5
734.35	7.5
735.101	4.5
735.852	3.5
736.603	6.5
737.354	4.5
738.104	5.5
738.855	2.5
739.605	4.5
740.356	4.5
741.106	3.5
741.856	5.5
742.607	4.5
743.357	5.5
744.107	7.5
744.857	4.5
745.607	4.5
746.357	3.5
747.106	4.5
747.856	2.5
748.606	3.5
749.355	6.5
750.105	6.5
750.854	6.5
751.603	4.5
752.353	4.5
753.102	4.5
753.851	4.5
754.6	7.5
755.349	5.5
756.098	5.5
756.847	3.5
757.595	6.5
758.344	3.5
759.093	8.5
759.841	6.5
760.589	6.5
761.338	4.5
762.086	5.5
762.834	5.5
763.582	7.5
764.331	6.5
765.079	5.5
765.826	6.5
766.574	6.5
767.322	8.5
768.07	8.5
768.817	6.5
769.565	6.5
770.312	6.5
771.06	4.5
771.807	7.5
772.554	8.5
773.302	5.5
774.049	8.5
774.796	4.5
775.543	7.5
776.29	6.5
777.036	8.5
777.783	7.5
778.53	5.5
779.276	9.5
780.023	7.5
780.769	8.5
781.516	10.5
782.262	10.5
783.008	10.5
783.754	7.5
784.5	6.5
785.246	9.5
785.992	9.5
786.738	6.5
787.484	9.5
788.23	7.5
788.975	7.5
789.721	7.5
790.466	7.5
791.212	8.5
791.957	9.5
792.702	9.5
793.447	8.5
794.193	5.5
794.938	9.5
795.683	5.5
796.427	7.5
797.172	8.5
797.917	6.5
798.662	7.5
799.406	6.5
800.151	7.5
800.895	7.5
801.64	6.5
802.384	6.5
803.128	6.5
803.872	7.5
804.616	5.5
805.36	8.5
806.104	5.5
806.848	5.5
807.592	6.5
808.336	6.5
809.079	6.5
809.823	4.5
810.566	3.5
811.31	5.5
812.053	3.5
812.796	5.5
813.539	5.5
814.283	5.5
815.026	6.5
815.769	4.5
816.511	6.5
817.254	4.5
817.997	6.5
818.74	5.5
819.482	4.5
820.225	4.5
820.967	2.5
821.71	5.5
822.452	4.5
823.194	7.5
823.936	5.5
824.678	5.5
825.42	5.5
826.162	4.5
826.904	6.5
827.646	3.5
828.388	4.5
829.129	4.5
829.871	3.5
830.612	4.5
831.354	3.5
832.095	6.5
832.836	2.5
833.577	5.5
834.319	2.5
835.06	3.5
835.801	0.5
836.542	2.5
837.282	2.5
838.023	2.5
838.764	5.5
839.504	4.5
840.245	3.5
840.985	3.5
841.726	1.5
842.466	2.5
843.206	3.5
843.946	0.5
844.687	3.5
845.427	1.5
846.166	0.5
846.906	3.5
847.646	1.5
848.386	3.5
849.125	2.5
849.865	5.5
850.605	2.5
851.344	2.5
852.083	3.5
852.823	4.5
853.562	3.5
854.301	1.5
855.04	4.5
855.779	-0.5
856.518	4.5
857.257	5.5
857.995	1.5
858.734	2.5
859.473	2.5
860.211	3.5
860.95	1.5
861.688	2.5
862.426	0.5
863.165	-0.5
863.903	1.5
864.641	1.5
865.379	2.5
866.117	3.5
866.855	1.5
867.593	2.5
868.33	-0.5
869.068	2.5
869.806	2.5
870.543	1.5
871.28	1.5
872.018	0.5
872.755	1.5
873.492	0.5
874.229	2.5
874.967	2.5
875.703	1.5
876.44	-0.5
877.177	1.5
877.914	0.5
878.651	-0.5
879.387	0.5
880.124	-0.5
880.86	2.5
881.597	0.5
882.333	0.5
883.069	2.5
883.806	-0.5
884.542	0.5
885.278	-0.5
886.014	2.5
886.749	1.5
887.485	0.5
888.221	0.5
888.957	0.5
889.692	0.5
890.428	1.5
891.163	0.5
891.899	1.5
892.634	-0.5
893.369	1.5
894.104	1.5
894.839	-0.5
895.574	1.5
896.309	-0.5
897.044	3.5
897.779	0.5
898.514	0.5
899.248	0.5
899.983	0.5
900.717	-0.5
901.452	0.5
902.186	2.5
902.92	1.5
903.654	0.5
904.389	-0.5
905.123	-1.5
905.857	-0.5
906.59	0.5
907.324	-0.5
908.058	1.5
908.792	-0.5
909.525	1.5
910.259	0.5
910.992	0.5
911.726	0.5
912.459	-0.5
913.192	-0.5
913.925	0.5
914.658	1.5
915.391	-1.5
916.124	0.5
916.857	-0.5
917.59	-0.5
918.323	-0.5
919.055	0.5
919.788	-0.5
920.521	-1.5
921.253	1.5
921.985	0.5
922.718	0.5
923.45	0.5
924.182	0.5
924.914	0.5
925.646	1.5
926.378	-0.5
927.11	0.5
927.841	-0.5
928.573	-0.5
929.305	-0.5
930.036	0.5
930.768	-0.5
931.499	0.5
932.23	1.5
932.962	-0.5
933.693	-0.5
934.424	1.5
935.155	0.5
935.886	-1.5
936.617	-0.5
937.348	0.5
938.078	1.5
938.809	-0.5
939.54	-0.5
940.27	1.5
941.001	0.5
941.731	1.5
942.461	-1.5
943.191	-0.5
943.922	1.5
944.652	0.5
945.382	0.5
946.112	0.5
946.841	0.5
947.571	0.5
948.301	-1.5
949.031	-1.5
949.76	-0.5
950.49	0.5
951.219	0.5
951.948	-1.5
952.678	-0.5
953.407	0.5
954.136	-0.5
954.865	0.5
955.594	-1.5
956.323	-1.5
957.052	1.5
957.78	0.5
958.509	0.5
959.238	-1.5
959.966	-0.5
960.695	-1.5
961.423	0.5
962.151	-0.5
962.88	-0.5
963.608	-1.5
964.336	0.5
965.064	-0.5
965.792	-0.5
966.52	-0.5
967.247	-0.5
967.975	0.5
968.703	0.5
969.43	0.5
970.158	1.5
970.885	-0.5
971.613	1.5
972.34	0.5
973.067	0.5
973.794	0.5
974.521	-1.5
975.248	0.5
975.975	0.5
976.702	-0.5
977.429	-0.5
978.156	-1.5
978.882	-0.5
979.609	-2.5
980.335	0.5
981.062	0.5
981.788	-0.5
982.514	-0.5
983.24	1.5
983.967	1.5
984.693	0.5
985.419	0.5
986.144	-2.5
986.87	-0.5
987.596	0.5
988.322	-0.5
989.047	1.5
989.773	-1.5
990.498	-0.5
991.224	-0.5
991.949	-1.5
992.674	1.5
993.399	-0.5
994.124	1.5
994.849	0.5
995.574	0.5
996.299	2.5
997.024	0.5
997.749	1.5
998.473	-2.5
999.198	0.5
999.922	1.5
1000.647	0.5
1001.371	2.5
1002.095	1.5
1002.82	-2.5
1003.544	-0.5
1004.268	-0.5
1004.992	-1.5
1005.716	0.5
1006.439	1.5
1007.163	1.5
1007.887	2.5
1008.611	1.5
1009.334	1.5
1010.058	-0.5
1010.781	-1.5
1011.504	0.5
1012.228	0.5
1012.951	-1.5
1013.674	0.5
1014.397	0.5
1015.12	-0.5
