节点500_285_QEPB04081__205__14-58-58-069.txt的数据

Date: Wed Nov 12 14:58:58 CST 2025
User: PC
Spectrometer: QEPB0408
触发模式: 0
积分时间 (秒): 1.000000E-2
Scans to average: 1
启用暗噪声校正: true
启用非线性校正: false
滑动平均宽度: 0
X轴模式: Wavelengths
Number of Pixels in Spectrum: 1044
>>>>>Begin Spectral Data<<<<<
220.843	4.38
221.644	3.38
222.444	0.38
223.244	4.38
224.045	2.38
224.845	2.38
225.645	1.38
226.445	-0.62
227.245	1.38
228.045	3.38
228.845	4.38
229.645	0.38
230.444	3.38
231.244	3.38
232.043	3.38
232.843	1.38
233.642	1.38
234.442	6.38
235.241	5.38
236.04	3.38
236.839	5.38
237.638	4.38
238.437	5.38
239.236	-0.62
240.035	5.38
240.833	6.38
241.632	5.38
242.43	2.38
243.229	4.38
244.027	5.38
244.826	2.38
245.624	7.38
246.422	1.38
247.22	6.38
248.018	8.38
248.816	3.38
249.614	6.38
250.412	6.38
251.21	6.38
252.007	6.38
252.805	7.38
253.602	8.38
254.4	4.38
255.197	9.38
255.994	8.38
256.791	7.38
257.589	7.38
258.386	5.38
259.183	9.38
259.979	8.38
260.776	10.38
261.573	11.38
262.37	11.38
263.166	9.38
263.963	10.38
264.759	13.38
265.556	13.38
266.352	15.38
267.148	14.38
267.944	13.38
268.74	15.38
269.536	17.38
270.332	15.38
271.128	16.38
271.924	14.38
272.719	15.38
273.515	13.38
274.311	17.38
275.106	17.38
275.901	21.38
276.697	16.38
277.492	18.38
278.287	19.38
279.082	19.38
279.877	17.38
280.672	18.38
281.467	20.38
282.262	17.38
283.056	16.38
283.851	19.38
284.646	18.38
285.44	18.38
286.234	18.38
287.029	17.38
287.823	18.38
288.617	19.38
289.411	17.38
290.205	21.38
290.999	19.38
291.793	16.38
292.587	17.38
293.381	17.38
294.174	15.38
294.968	14.38
295.761	16.38
296.555	16.38
297.348	14.38
298.141	15.38
298.935	19.38
299.728	13.38
300.521	16.38
301.314	15.38
302.107	14.38
302.899	11.38
303.692	12.38
304.485	13.38
305.277	11.38
306.07	9.38
306.862	11.38
307.655	12.38
308.447	11.38
309.239	12.38
310.031	13.38
310.823	12.38
311.615	11.38
312.407	9.38
313.199	11.38
313.991	10.38
314.783	6.38
315.574	11.38
316.366	6.38
317.157	7.38
317.949	8.38
318.74	9.38
319.531	8.38
320.322	7.38
321.113	8.38
321.904	8.38
322.695	6.38
323.486	8.38
324.277	9.38
325.068	7.38
325.858	7.38
326.649	7.38
327.439	6.38
328.23	6.38
329.02	6.38
329.81	7.38
330.6	5.38
331.391	8.38
332.181	5.38
332.971	5.38
333.76	6.38
334.55	9.38
335.34	6.38
336.13	4.38
336.919	6.38
337.709	7.38
338.498	7.38
339.287	6.38
340.077	6.38
340.866	6.38
341.655	6.38
342.444	3.38
343.233	5.38
344.022	6.38
344.811	3.38
345.6	5.38
346.388	8.38
347.177	3.38
347.965	6.38
348.754	5.38
349.542	6.38
350.33	5.38
351.119	5.38
351.907	5.38
352.695	5.38
353.483	4.38
354.271	5.38
355.059	4.38
355.846	5.38
356.634	5.38
357.422	6.38
358.209	7.38
358.997	5.38
359.784	4.38
360.571	8.38
361.359	6.38
362.146	3.38
362.933	5.38
363.72	3.38
364.507	6.38
365.294	4.38
366.081	5.38
366.867	5.38
367.654	7.38
368.44	7.38
369.227	3.38
370.013	5.38
370.8	8.38
371.586	3.38
372.372	4.38
373.158	5.38
373.944	5.38
374.73	5.38
375.516	5.38
376.302	4.38
377.088	4.38
377.873	5.38
378.659	6.38
379.445	4.38
380.23	4.38
381.015	2.38
381.801	6.38
382.586	6.38
383.371	5.38
384.156	7.38
384.941	4.38
385.726	4.38
386.511	5.38
387.296	7.38
388.08	5.38
388.865	5.38
389.649	5.38
390.434	4.38
391.218	5.38
392.003	3.38
392.787	6.38
393.571	6.38
394.355	6.38
395.139	8.38
395.923	5.38
396.707	6.38
397.491	6.38
398.274	7.38
399.058	4.38
399.842	7.38
400.625	5.38
401.408	5.38
402.192	8.38
402.975	9.38
403.758	8.38
404.541	6.38
405.324	7.38
406.107	7.38
406.89	6.38
407.673	9.38
408.456	8.38
409.238	7.38
410.021	8.38
410.803	7.38
411.586	9.38
412.368	8.38
413.151	7.38
413.933	8.38
414.715	7.38
415.497	9.38
416.279	7.38
417.061	10.38
417.843	10.38
418.624	8.38
419.406	10.38
420.188	7.38
420.969	9.38
421.751	12.38
422.532	9.38
423.313	11.38
424.095	12.38
424.876	14.38
425.657	11.38
426.438	10.38
427.219	15.38
428	13.38
428.78	13.38
429.561	13.38
430.342	12.38
431.122	13.38
431.903	15.38
432.683	17.38
433.464	13.38
434.244	16.38
435.024	18.38
435.804	16.38
436.584	20.38
437.364	19.38
438.144	22.38
438.924	20.38
439.704	20.38
440.483	20.38
441.263	23.38
442.042	24.38
442.822	26.38
443.601	28.38
444.38	29.38
445.16	33.38
445.939	33.38
446.718	33.38
447.497	36.38
448.276	39.38
449.054	43.38
449.833	45.38
450.612	47.38
451.391	55.38
452.169	57.38
452.948	67.38
453.726	72.38
454.504	85.38
455.282	90.38
456.061	97.38
456.839	109.38
457.617	121.38
458.395	128.38
459.172	142.38
459.95	156.38
460.728	178.38
461.506	195.38
462.283	221.38
463.061	247.38
463.838	275.38
464.615	318.38
465.393	347.38
466.17	389.38
466.947	436.38
467.724	485.38
468.501	539.38
469.278	604.38
470.055	675.38
470.831	752.38
471.608	817.38
472.385	942.38
473.161	1033.38
473.938	1152.38
474.714	1274.38
475.49	1415.38
476.266	1544.38
477.043	1741.38
477.819	1920.38
478.595	2122.38
479.371	2355.38
480.146	2587.38
480.922	2876.38
481.698	3175.38
482.473	3493.38
483.249	3871.38
484.024	4256.38
484.8	4686.38
485.575	5147.38
486.35	5688.38
487.126	6247.38
487.901	6865.38
488.676	7546.38
489.451	8262.38
490.225	9085.38
491	9928.38
491.775	10872.38
492.55	11854.38
493.324	12879.38
494.099	13876.38
494.873	14969.38
495.647	16131.38
496.422	17372.38
497.196	18583.38
497.97	19835.38
498.744	21112.38
499.518	22218.38
500.292	23388.38
501.066	24525.38
501.839	25484.38
502.613	26312.38
503.387	27075.38
504.16	27672.38
504.934	27996.38
505.707	28080.38
506.48	27998.38
507.253	27851.38
508.027	27576.38
508.8	27182.38
509.573	26691.38
510.346	25893.38
511.118	25154.38
511.891	24304.38
512.664	23376.38
513.437	22402.38
514.209	21404.38
514.982	20563.38
515.754	19614.38
516.526	18697.38
517.298	17881.38
518.071	17140.38
518.843	16551.38
519.615	15853.38
520.387	15190.38
521.159	14660.38
521.93	14018.38
522.702	13488.38
523.474	12944.38
524.245	12377.38
525.017	11817.38
525.788	11376.38
526.56	10865.38
527.331	10337.38
528.102	9848.38
528.873	9401.38
529.644	8943.38
530.415	8467.38
531.186	8028.38
531.957	7620.38
532.728	7204.38
533.498	6815.38
534.269	6429.38
535.039	6060.38
535.81	5742.38
536.58	5407.38
537.351	5114.38
538.121	4790.38
538.891	4586.38
539.661	4316.38
540.431	4084.38
541.201	3880.38
541.971	3657.38
542.741	3459.38
543.51	3288.38
544.28	3124.38
545.05	2991.38
545.819	2841.38
546.588	2708.38
547.358	2562.38
548.127	2422.38
548.896	2313.38
549.665	2179.38
550.434	2077.38
551.203	1965.38
551.972	1845.38
552.741	1749.38
553.51	1660.38
554.278	1566.38
555.047	1478.38
555.815	1392.38
556.584	1296.38
557.352	1243.38
558.121	1183.38
558.889	1106.38
559.657	1039.38
560.425	979.38
561.193	923.38
561.961	876.38
562.729	831.38
563.496	774.38
564.264	736.38
565.032	705.38
565.799	663.38
566.567	632.38
567.334	595.38
568.101	561.38
568.869	525.38
569.636	500.38
570.403	473.38
571.17	443.38
571.937	414.38
572.704	393.38
573.471	371.38
574.237	348.38
575.004	335.38
575.771	316.38
576.537	289.38
577.303	272.38
578.07	259.38
578.836	249.38
579.602	225.38
580.368	218.38
581.134	208.38
581.9	196.38
582.666	183.38
583.432	175.38
584.198	164.38
584.964	158.38
585.729	145.38
586.495	145.38
587.26	134.38
588.025	125.38
588.791	119.38
589.556	115.38
590.321	105.38
591.086	102.38
591.851	96.38
592.616	91.38
593.381	84.38
594.146	87.38
594.911	77.38
595.675	76.38
596.44	73.38
597.204	69.38
597.969	64.38
598.733	62.38
599.497	63.38
600.261	58.38
601.025	57.38
601.79	51.38
602.553	55.38
603.317	48.38
604.081	47.38
604.845	41.38
605.609	43.38
606.372	41.38
607.136	38.38
607.899	39.38
608.662	36.38
609.426	34.38
610.189	29.38
610.952	31.38
611.715	30.38
612.478	29.38
613.241	28.38
614.004	26.38
614.767	25.38
615.529	27.38
616.292	26.38
617.055	23.38
617.817	21.38
618.579	18.38
619.342	21.38
620.104	20.38
620.866	19.38
621.628	20.38
622.39	17.38
623.152	17.38
623.914	18.38
624.676	17.38
625.438	17.38
626.199	15.38
626.961	13.38
627.722	14.38
628.484	11.38
629.245	11.38
630.006	14.38
630.768	15.38
631.529	12.38
632.29	10.38
633.051	9.38
633.812	12.38
634.573	13.38
635.333	12.38
636.094	10.38
636.855	11.38
637.615	12.38
638.376	6.38
639.136	9.38
639.896	8.38
640.657	6.38
641.417	10.38
642.177	7.38
642.937	8.38
643.697	8.38
644.457	8.38
645.216	6.38
645.976	8.38
646.736	10.38
647.495	6.38
648.255	7.38
649.014	7.38
649.774	8.38
650.533	7.38
651.292	5.38
652.051	9.38
652.81	7.38
653.569	6.38
654.328	6.38
655.087	8.38
655.846	6.38
656.604	4.38
657.363	4.38
658.121	4.38
658.88	5.38
659.638	5.38
660.397	4.38
661.155	5.38
661.913	4.38
662.671	5.38
663.429	3.38
664.187	4.38
664.945	8.38
665.703	2.38
666.46	3.38
667.218	2.38
667.976	7.38
668.733	4.38
669.49	6.38
670.248	4.38
671.005	3.38
671.762	4.38
672.519	4.38
673.276	3.38
674.033	5.38
674.79	4.38
675.547	3.38
676.304	2.38
677.06	5.38
677.817	4.38
678.574	4.38
679.33	4.38
680.086	1.38
680.843	3.38
681.599	2.38
682.355	4.38
683.111	3.38
683.867	5.38
684.623	3.38
685.379	-0.62
686.135	4.38
686.89	1.38
687.646	6.38
688.402	5.38
689.157	3.38
689.912	4.38
690.668	1.38
691.423	5.38
692.178	2.38
692.933	3.38
693.688	2.38
694.443	6.38
695.198	3.38
695.953	2.38
696.708	5.38
697.462	1.38
698.217	1.38
698.972	3.38
699.726	2.38
700.48	1.38
701.235	1.38
701.989	2.38
702.743	3.38
703.497	3.38
704.251	4.38
705.005	3.38
705.759	4.38
706.513	3.38
707.266	1.38
708.02	6.38
708.774	4.38
709.527	3.38
710.28	1.38
711.034	3.38
711.787	2.38
712.54	3.38
713.293	4.38
714.046	3.38
714.799	3.38
715.552	5.38
716.305	1.38
717.058	3.38
717.81	1.38
718.563	2.38
719.315	3.38
720.068	4.38
720.82	3.38
721.573	1.38
722.325	4.38
723.077	4.38
723.829	2.38
724.581	4.38
725.333	2.38
726.085	1.38
726.836	3.38
727.588	5.38
728.34	2.38
729.091	6.38
729.843	1.38
730.594	4.38
731.346	2.38
732.097	3.38
732.848	6.38
733.599	2.38
734.35	4.38
735.101	4.38
735.852	3.38
736.603	5.38
737.354	3.38
738.104	3.38
738.855	4.38
739.605	3.38
740.356	1.38
741.106	6.38
741.856	5.38
742.607	6.38
743.357	5.38
744.107	7.38
744.857	4.38
745.607	6.38
746.357	4.38
747.106	6.38
747.856	4.38
748.606	6.38
749.355	4.38
750.105	6.38
750.854	4.38
751.603	5.38
752.353	8.38
753.102	6.38
753.851	5.38
754.6	6.38
755.349	6.38
756.098	7.38
756.847	5.38
757.595	5.38
758.344	5.38
759.093	8.38
759.841	5.38
760.589	6.38
761.338	7.38
762.086	6.38
762.834	6.38
763.582	7.38
764.331	8.38
765.079	6.38
765.826	7.38
766.574	8.38
767.322	5.38
768.07	10.38
768.817	5.38
769.565	8.38
770.312	7.38
771.06	7.38
771.807	7.38
772.554	9.38
773.302	8.38
774.049	8.38
774.796	8.38
775.543	7.38
776.29	7.38
777.036	9.38
777.783	10.38
778.53	8.38
779.276	8.38
780.023	7.38
780.769	9.38
781.516	8.38
782.262	8.38
783.008	10.38
783.754	8.38
784.5	9.38
785.246	7.38
785.992	8.38
786.738	10.38
787.484	7.38
788.23	9.38
788.975	8.38
789.721	9.38
790.466	7.38
791.212	10.38
791.957	8.38
792.702	8.38
793.447	8.38
794.193	8.38
794.938	8.38
795.683	7.38
796.427	7.38
797.172	9.38
797.917	7.38
798.662	7.38
799.406	7.38
800.151	7.38
800.895	8.38
801.64	6.38
802.384	8.38
803.128	6.38
803.872	7.38
804.616	6.38
805.36	8.38
806.104	7.38
806.848	5.38
807.592	5.38
808.336	6.38
809.079	4.38
809.823	5.38
810.566	7.38
811.31	3.38
812.053	3.38
812.796	5.38
813.539	6.38
814.283	3.38
815.026	6.38
815.769	4.38
816.511	6.38
817.254	4.38
817.997	3.38
818.74	3.38
819.482	2.38
820.225	6.38
820.967	4.38
821.71	6.38
822.452	2.38
823.194	4.38
823.936	4.38
824.678	2.38
825.42	3.38
826.162	2.38
826.904	2.38
827.646	6.38
828.388	5.38
829.129	2.38
829.871	4.38
830.612	4.38
831.354	2.38
832.095	2.38
832.836	4.38
833.577	5.38
834.319	2.38
835.06	3.38
835.801	1.38
836.542	2.38
837.282	2.38
838.023	1.38
838.764	-0.62
839.504	1.38
840.245	4.38
840.985	4.38
841.726	1.38
842.466	0.38
843.206	2.38
843.946	5.38
844.687	1.38
845.427	3.38
846.166	3.38
846.906	2.38
847.646	2.38
848.386	2.38
849.125	3.38
849.865	2.38
850.605	1.38
851.344	3.38
852.083	1.38
852.823	0.38
853.562	3.38
854.301	2.38
855.04	1.38
855.779	2.38
856.518	1.38
857.257	2.38
857.995	1.38
858.734	1.38
859.473	1.38
860.211	-0.62
860.95	1.38
861.688	3.38
862.426	0.38
863.165	1.38
863.903	2.38
864.641	5.38
865.379	1.38
866.117	1.38
866.855	3.38
867.593	4.38
868.33	3.38
869.068	0.38
869.806	0.38
870.543	0.38
871.28	2.38
872.018	-0.62
872.755	0.38
873.492	1.38
874.229	0.38
874.967	3.38
875.703	2.38
876.44	3.38
877.177	1.38
877.914	-1.62
878.651	3.38
879.387	1.38
880.124	0.38
880.86	0.38
881.597	-0.62
882.333	-0.62
883.069	0.38
883.806	0.38
884.542	-0.62
885.278	0.38
886.014	0.38
886.749	-0.62
887.485	2.38
888.221	-0.62
888.957	0.38
889.692	1.38
890.428	0.38
891.163	1.38
891.899	1.38
892.634	1.38
893.369	-1.62
894.104	0.38
894.839	1.38
895.574	2.38
896.309	2.38
897.044	0.38
897.779	-0.62
898.514	-0.62
899.248	-0.62
899.983	1.38
900.717	2.38
901.452	-1.62
902.186	-0.62
902.92	2.38
903.654	-0.62
904.389	1.38
905.123	0.38
905.857	-0.62
906.59	1.38
907.324	2.38
908.058	0.38
908.792	-0.62
909.525	0.38
910.259	0.38
910.992	-0.62
911.726	3.38
912.459	0.38
913.192	3.38
913.925	1.38
914.658	0.38
915.391	-0.62
916.124	-0.62
916.857	1.38
917.59	1.38
918.323	0.38
919.055	1.38
919.788	0.38
920.521	0.38
921.253	-1.62
921.985	1.38
922.718	1.38
923.45	-0.62
924.182	-0.62
924.914	0.38
925.646	1.38
926.378	1.38
927.11	-2.62
927.841	1.38
928.573	-1.62
929.305	-0.62
930.036	-0.62
930.768	1.38
931.499	2.38
932.23	-0.62
932.962	-0.62
933.693	-0.62
934.424	-0.62
935.155	1.38
935.886	0.38
936.617	1.38
937.348	0.38
938.078	1.38
938.809	0.38
939.54	-0.62
940.27	0.38
941.001	-0.62
941.731	1.38
942.461	-2.62
943.191	1.38
943.922	1.38
944.652	1.38
945.382	0.38
946.112	0.38
946.841	0.38
947.571	0.38
948.301	0.38
949.031	-2.62
949.76	0.38
950.49	0.38
951.219	-1.62
951.948	0.38
952.678	-0.62
953.407	-0.62
954.136	0.38
954.865	-0.62
955.594	-0.62
956.323	-1.62
957.052	0.38
957.78	1.38
958.509	0.38
959.238	1.38
959.966	-1.62
960.695	-1.62
961.423	-1.62
962.151	1.38
962.88	-1.62
963.608	1.38
964.336	-0.62
965.064	0.38
965.792	0.38
966.52	-1.62
967.247	0.38
967.975	0.38
968.703	0.38
969.43	1.38
970.158	1.38
970.885	1.38
971.613	0.38
972.34	-0.62
973.067	-0.62
973.794	-1.62
974.521	1.38
975.248	-1.62
975.975	0.38
976.702	1.38
977.429	1.38
978.156	-0.62
978.882	0.38
979.609	0.38
980.335	1.38
981.062	1.38
981.788	0.38
982.514	0.38
983.24	-0.62
983.967	-0.62
984.693	1.38
985.419	-1.62
986.144	-0.62
986.87	-0.62
987.596	0.38
988.322	0.38
989.047	-1.62
989.773	0.38
990.498	1.38
991.224	-1.62
991.949	0.38
992.674	-2.62
993.399	-0.62
994.124	-0.62
994.849	-2.62
995.574	-0.62
996.299	-1.62
997.024	0.38
997.749	0.38
998.473	1.38
999.198	1.38
999.922	-2.62
1000.647	1.38
1001.371	4.38
1002.095	-1.62
1002.82	-2.62
1003.544	-0.62
1004.268	3.38
1004.992	0.38
1005.716	0.38
1006.439	1.38
1007.163	0.38
1007.887	-0.62
1008.611	0.38
1009.334	0.38
1010.058	0.38
1010.781	0.38
1011.504	1.38
1012.228	1.38
1012.951	-0.62
1013.674	0.38
1014.397	-0.62
1015.12	1.38
