节点500_285_QEPB04081__538__15-04-30-305.txt的数据

Date: Wed Nov 12 15:04:30 CST 2025
User: PC
Spectrometer: QEPB0408
触发模式: 0
积分时间 (秒): 1.000000E-2
Scans to average: 1
启用暗噪声校正: true
启用非线性校正: false
滑动平均宽度: 0
X轴模式: Wavelengths
Number of Pixels in Spectrum: 1044
>>>>>Begin Spectral Data<<<<<
220.843	1.88
221.644	0.88
222.444	2.88
223.244	1.88
224.045	0.88
224.845	1.88
225.645	1.88
226.445	1.88
227.245	1.88
228.045	3.88
228.845	0.88
229.645	1.88
230.444	1.88
231.244	3.88
232.043	1.88
232.843	4.88
233.642	2.88
234.442	2.88
235.241	4.88
236.04	1.88
236.839	2.88
237.638	2.88
238.437	2.88
239.236	4.88
240.035	3.88
240.833	4.88
241.632	3.88
242.43	5.88
243.229	5.88
244.027	4.88
244.826	5.88
245.624	4.88
246.422	4.88
247.22	3.88
248.018	5.88
248.816	6.88
249.614	4.88
250.412	4.88
251.21	5.88
252.007	6.88
252.805	7.88
253.602	5.88
254.4	7.88
255.197	8.88
255.994	7.88
256.791	7.88
257.589	10.88
258.386	9.88
259.183	10.88
259.979	7.88
260.776	7.88
261.573	11.88
262.37	10.88
263.166	10.88
263.963	9.88
264.759	10.88
265.556	14.88
266.352	11.88
267.148	13.88
267.944	12.88
268.74	10.88
269.536	14.88
270.332	9.88
271.128	11.88
271.924	14.88
272.719	12.88
273.515	14.88
274.311	17.88
275.106	16.88
275.901	13.88
276.697	19.88
277.492	15.88
278.287	16.88
279.082	19.88
279.877	19.88
280.672	16.88
281.467	16.88
282.262	20.88
283.056	16.88
283.851	16.88
284.646	20.88
285.44	15.88
286.234	18.88
287.029	16.88
287.823	17.88
288.617	17.88
289.411	18.88
290.205	15.88
290.999	19.88
291.793	17.88
292.587	18.88
293.381	15.88
294.174	15.88
294.968	16.88
295.761	15.88
296.555	17.88
297.348	15.88
298.141	11.88
298.935	17.88
299.728	15.88
300.521	11.88
301.314	11.88
302.107	11.88
302.899	14.88
303.692	12.88
304.485	11.88
305.277	13.88
306.07	10.88
306.862	11.88
307.655	11.88
308.447	13.88
309.239	9.88
310.031	11.88
310.823	11.88
311.615	8.88
312.407	9.88
313.199	9.88
313.991	10.88
314.783	8.88
315.574	10.88
316.366	6.88
317.157	7.88
317.949	7.88
318.74	8.88
319.531	5.88
320.322	6.88
321.113	7.88
321.904	7.88
322.695	6.88
323.486	7.88
324.277	7.88
325.068	5.88
325.858	6.88
326.649	3.88
327.439	5.88
328.23	6.88
329.02	6.88
329.81	9.88
330.6	5.88
331.391	5.88
332.181	6.88
332.971	5.88
333.76	7.88
334.55	7.88
335.34	9.88
336.13	6.88
336.919	8.88
337.709	5.88
338.498	7.88
339.287	6.88
340.077	6.88
340.866	5.88
341.655	4.88
342.444	8.88
343.233	4.88
344.022	3.88
344.811	5.88
345.6	4.88
346.388	7.88
347.177	5.88
347.965	9.88
348.754	4.88
349.542	6.88
350.33	5.88
351.119	7.88
351.907	6.88
352.695	4.88
353.483	6.88
354.271	3.88
355.059	4.88
355.846	4.88
356.634	5.88
357.422	4.88
358.209	3.88
358.997	4.88
359.784	3.88
360.571	5.88
361.359	6.88
362.146	4.88
362.933	6.88
363.72	4.88
364.507	7.88
365.294	4.88
366.081	2.88
366.867	4.88
367.654	3.88
368.44	6.88
369.227	3.88
370.013	2.88
370.8	3.88
371.586	4.88
372.372	5.88
373.158	3.88
373.944	4.88
374.73	4.88
375.516	3.88
376.302	5.88
377.088	2.88
377.873	4.88
378.659	7.88
379.445	5.88
380.23	4.88
381.015	5.88
381.801	4.88
382.586	5.88
383.371	4.88
384.156	4.88
384.941	6.88
385.726	6.88
386.511	5.88
387.296	5.88
388.08	5.88
388.865	4.88
389.649	4.88
390.434	4.88
391.218	5.88
392.003	3.88
392.787	6.88
393.571	7.88
394.355	5.88
395.139	7.88
395.923	5.88
396.707	6.88
397.491	4.88
398.274	7.88
399.058	6.88
399.842	3.88
400.625	4.88
401.408	6.88
402.192	6.88
402.975	7.88
403.758	5.88
404.541	8.88
405.324	5.88
406.107	7.88
406.89	8.88
407.673	10.88
408.456	7.88
409.238	5.88
410.021	9.88
410.803	8.88
411.586	7.88
412.368	9.88
413.151	8.88
413.933	8.88
414.715	8.88
415.497	8.88
416.279	6.88
417.061	9.88
417.843	7.88
418.624	10.88
419.406	7.88
420.188	9.88
420.969	9.88
421.751	9.88
422.532	7.88
423.313	11.88
424.095	12.88
424.876	11.88
425.657	8.88
426.438	12.88
427.219	11.88
428	11.88
428.78	11.88
429.561	12.88
430.342	13.88
431.122	13.88
431.903	16.88
432.683	13.88
433.464	13.88
434.244	16.88
435.024	12.88
435.804	15.88
436.584	14.88
437.364	18.88
438.144	19.88
438.924	20.88
439.704	24.88
440.483	22.88
441.263	25.88
442.042	24.88
442.822	29.88
443.601	27.88
444.38	25.88
445.16	29.88
445.939	33.88
446.718	38.88
447.497	36.88
448.276	40.88
449.054	43.88
449.833	46.88
450.612	54.88
451.391	55.88
452.169	65.88
452.948	68.88
453.726	73.88
454.504	80.88
455.282	96.88
456.061	106.88
456.839	115.88
457.617	132.88
458.395	143.88
459.172	158.88
459.95	174.88
460.728	189.88
461.506	219.88
462.283	248.88
463.061	267.88
463.838	303.88
464.615	339.88
465.393	372.88
466.17	414.88
466.947	476.88
467.724	524.88
468.501	578.88
469.278	636.88
470.055	709.88
470.831	784.88
471.608	872.88
472.385	977.88
473.161	1076.88
473.938	1183.88
474.714	1321.88
475.49	1441.88
476.266	1600.88
477.043	1754.88
477.819	1939.88
478.595	2125.88
479.371	2346.88
480.146	2575.88
480.922	2826.88
481.698	3113.88
482.473	3418.88
483.249	3759.88
484.024	4101.88
484.8	4503.88
485.575	4944.88
486.35	5409.88
487.126	5910.88
487.901	6448.88
488.676	7088.88
489.451	7736.88
490.225	8479.88
491	9169.88
491.775	9980.88
492.55	10861.88
493.324	11747.88
494.099	12617.88
494.873	13584.88
495.647	14725.88
496.422	15745.88
497.196	16853.88
497.97	17952.88
498.744	19151.88
499.518	20218.88
500.292	21325.88
501.066	22380.88
501.839	23259.88
502.613	24184.88
503.387	25023.88
504.16	25697.88
504.934	26098.88
505.707	26328.88
506.48	26521.88
507.253	26542.88
508.027	26388.88
508.8	26197.88
509.573	25893.88
510.346	25440.88
511.118	24699.88
511.891	24053.88
512.664	23296.88
513.437	22485.88
514.209	21606.88
514.982	20732.88
515.754	19794.88
516.526	19013.88
517.298	18221.88
518.071	17418.88
518.843	16781.88
519.615	16132.88
520.387	15499.88
521.159	14861.88
521.93	14308.88
522.702	13732.88
523.474	13176.88
524.245	12604.88
525.017	12060.88
525.788	11635.88
526.56	11089.88
527.331	10598.88
528.102	10126.88
528.873	9695.88
529.644	9150.88
530.415	8754.88
531.186	8318.88
531.957	7878.88
532.728	7508.88
533.498	7156.88
534.269	6712.88
535.039	6373.88
535.81	6011.88
536.58	5712.88
537.351	5377.88
538.121	5068.88
538.891	4813.88
539.661	4542.88
540.431	4266.88
541.201	4043.88
541.971	3850.88
542.741	3666.88
543.51	3445.88
544.28	3282.88
545.05	3137.88
545.819	2973.88
546.588	2824.88
547.358	2679.88
548.127	2570.88
548.896	2424.88
549.665	2291.88
550.434	2194.88
551.203	2049.88
551.972	1951.88
552.741	1846.88
553.51	1751.88
554.278	1654.88
555.047	1565.88
555.815	1467.88
556.584	1410.88
557.352	1322.88
558.121	1247.88
558.889	1182.88
559.657	1110.88
560.425	1058.88
561.193	985.88
561.961	925.88
562.729	888.88
563.496	828.88
564.264	784.88
565.032	745.88
565.799	708.88
566.567	662.88
567.334	639.88
568.101	593.88
568.869	555.88
569.636	528.88
570.403	499.88
571.17	472.88
571.937	446.88
572.704	422.88
573.471	394.88
574.237	364.88
575.004	348.88
575.771	335.88
576.537	307.88
577.303	298.88
578.07	280.88
578.836	265.88
579.602	239.88
580.368	233.88
581.134	220.88
581.9	208.88
582.666	199.88
583.432	188.88
584.198	174.88
584.964	167.88
585.729	161.88
586.495	151.88
587.26	137.88
588.025	136.88
588.791	130.88
589.556	122.88
590.321	119.88
591.086	106.88
591.851	103.88
592.616	102.88
593.381	93.88
594.146	90.88
594.911	83.88
595.675	80.88
596.44	77.88
597.204	74.88
597.969	66.88
598.733	63.88
599.497	65.88
600.261	59.88
601.025	57.88
601.79	53.88
602.553	51.88
603.317	49.88
604.081	50.88
604.845	43.88
605.609	45.88
606.372	45.88
607.136	43.88
607.899	36.88
608.662	35.88
609.426	37.88
610.189	39.88
610.952	30.88
611.715	33.88
612.478	31.88
613.241	29.88
614.004	29.88
614.767	28.88
615.529	24.88
616.292	23.88
617.055	24.88
617.817	26.88
618.579	24.88
619.342	22.88
620.104	20.88
620.866	21.88
621.628	18.88
622.39	19.88
623.152	19.88
623.914	18.88
624.676	17.88
625.438	17.88
626.199	18.88
626.961	15.88
627.722	17.88
628.484	15.88
629.245	14.88
630.006	12.88
630.768	11.88
631.529	14.88
632.29	14.88
633.051	11.88
633.812	11.88
634.573	13.88
635.333	9.88
636.094	11.88
636.855	9.88
637.615	13.88
638.376	8.88
639.136	10.88
639.896	8.88
640.657	10.88
641.417	8.88
642.177	9.88
642.937	8.88
643.697	6.88
644.457	7.88
645.216	7.88
645.976	8.88
646.736	6.88
647.495	8.88
648.255	7.88
649.014	7.88
649.774	7.88
650.533	6.88
651.292	8.88
652.051	8.88
652.81	7.88
653.569	6.88
654.328	6.88
655.087	7.88
655.846	4.88
656.604	4.88
657.363	5.88
658.121	6.88
658.88	4.88
659.638	4.88
660.397	4.88
661.155	4.88
661.913	7.88
662.671	5.88
663.429	5.88
664.187	6.88
664.945	2.88
665.703	5.88
666.46	5.88
667.218	3.88
667.976	7.88
668.733	2.88
669.49	5.88
670.248	6.88
671.005	1.88
671.762	3.88
672.519	3.88
673.276	5.88
674.033	3.88
674.79	6.88
675.547	4.88
676.304	1.88
677.06	5.88
677.817	3.88
678.574	3.88
679.33	1.88
680.086	5.88
680.843	5.88
681.599	3.88
682.355	3.88
683.111	0.88
683.867	3.88
684.623	3.88
685.379	2.88
686.135	4.88
686.89	3.88
687.646	3.88
688.402	4.88
689.157	2.88
689.912	2.88
690.668	1.88
691.423	1.88
692.178	3.88
692.933	5.88
693.688	2.88
694.443	3.88
695.198	4.88
695.953	4.88
696.708	3.88
697.462	2.88
698.217	3.88
698.972	2.88
699.726	3.88
700.48	4.88
701.235	5.88
701.989	5.88
702.743	2.88
703.497	2.88
704.251	4.88
705.005	3.88
705.759	5.88
706.513	3.88
707.266	4.88
708.02	3.88
708.774	3.88
709.527	0.88
710.28	1.88
711.034	3.88
711.787	2.88
712.54	4.88
713.293	2.88
714.046	3.88
714.799	2.88
715.552	4.88
716.305	2.88
717.058	3.88
717.81	4.88
718.563	4.88
719.315	3.88
720.068	2.88
720.82	3.88
721.573	2.88
722.325	1.88
723.077	3.88
723.829	3.88
724.581	3.88
725.333	4.88
726.085	1.88
726.836	3.88
727.588	3.88
728.34	2.88
729.091	0.88
729.843	3.88
730.594	3.88
731.346	2.88
732.097	3.88
732.848	1.88
733.599	1.88
734.35	3.88
735.101	3.88
735.852	4.88
736.603	1.88
737.354	3.88
738.104	3.88
738.855	1.88
739.605	4.88
740.356	1.88
741.106	3.88
741.856	4.88
742.607	4.88
743.357	3.88
744.107	5.88
744.857	5.88
745.607	4.88
746.357	5.88
747.106	2.88
747.856	4.88
748.606	5.88
749.355	4.88
750.105	4.88
750.854	3.88
751.603	4.88
752.353	4.88
753.102	6.88
753.851	5.88
754.6	5.88
755.349	4.88
756.098	5.88
756.847	5.88
757.595	4.88
758.344	4.88
759.093	5.88
759.841	4.88
760.589	5.88
761.338	6.88
762.086	3.88
762.834	5.88
763.582	3.88
764.331	7.88
765.079	4.88
765.826	9.88
766.574	8.88
767.322	5.88
768.07	8.88
768.817	5.88
769.565	5.88
770.312	6.88
771.06	4.88
771.807	8.88
772.554	6.88
773.302	6.88
774.049	7.88
774.796	6.88
775.543	7.88
776.29	8.88
777.036	9.88
777.783	8.88
778.53	7.88
779.276	7.88
780.023	7.88
780.769	7.88
781.516	8.88
782.262	7.88
783.008	7.88
783.754	9.88
784.5	7.88
785.246	7.88
785.992	9.88
786.738	8.88
787.484	6.88
788.23	8.88
788.975	8.88
789.721	5.88
790.466	9.88
791.212	6.88
791.957	9.88
792.702	8.88
793.447	7.88
794.193	6.88
794.938	7.88
795.683	6.88
796.427	7.88
797.172	5.88
797.917	6.88
798.662	10.88
799.406	8.88
800.151	6.88
800.895	4.88
801.64	6.88
802.384	4.88
803.128	6.88
803.872	6.88
804.616	6.88
805.36	5.88
806.104	6.88
806.848	7.88
807.592	5.88
808.336	7.88
809.079	6.88
809.823	5.88
810.566	5.88
811.31	3.88
812.053	6.88
812.796	6.88
813.539	6.88
814.283	5.88
815.026	5.88
815.769	4.88
816.511	6.88
817.254	5.88
817.997	4.88
818.74	3.88
819.482	3.88
820.225	2.88
820.967	4.88
821.71	4.88
822.452	3.88
823.194	4.88
823.936	4.88
824.678	4.88
825.42	3.88
826.162	3.88
826.904	2.88
827.646	4.88
828.388	2.88
829.129	4.88
829.871	4.88
830.612	4.88
831.354	4.88
832.095	1.88
832.836	6.88
833.577	3.88
834.319	3.88
835.06	3.88
835.801	1.88
836.542	1.88
837.282	1.88
838.023	3.88
838.764	3.88
839.504	3.88
840.245	5.88
840.985	0.88
841.726	4.88
842.466	2.88
843.206	1.88
843.946	2.88
844.687	1.88
845.427	1.88
846.166	2.88
846.906	2.88
847.646	3.88
848.386	1.88
849.125	2.88
849.865	1.88
850.605	4.88
851.344	1.88
852.083	4.88
852.823	2.88
853.562	3.88
854.301	2.88
855.04	1.88
855.779	1.88
856.518	2.88
857.257	2.88
857.995	1.88
858.734	1.88
859.473	1.88
860.211	-0.12
860.95	2.88
861.688	1.88
862.426	1.88
863.165	1.88
863.903	2.88
864.641	1.88
865.379	1.88
866.117	1.88
866.855	1.88
867.593	4.88
868.33	0.88
869.068	1.88
869.806	0.88
870.543	-0.12
871.28	1.88
872.018	2.88
872.755	1.88
873.492	0.88
874.229	2.88
874.967	2.88
875.703	2.88
876.44	1.88
877.177	1.88
877.914	0.88
878.651	-0.12
879.387	-1.12
880.124	-0.12
880.86	-1.12
881.597	1.88
882.333	-0.12
883.069	2.88
883.806	0.88
884.542	0.88
885.278	2.88
886.014	0.88
886.749	1.88
887.485	-0.12
888.221	-1.12
888.957	-0.12
889.692	-0.12
890.428	-0.12
891.163	-1.12
891.899	0.88
892.634	-0.12
893.369	1.88
894.104	1.88
894.839	1.88
895.574	-1.12
896.309	1.88
897.044	-0.12
897.779	-1.12
898.514	-0.12
899.248	1.88
899.983	-2.12
900.717	1.88
901.452	0.88
902.186	1.88
902.92	1.88
903.654	0.88
904.389	-2.12
905.123	0.88
905.857	0.88
906.59	-0.12
907.324	0.88
908.058	0.88
908.792	-1.12
909.525	1.88
910.259	-0.12
910.992	-0.12
911.726	-0.12
912.459	-0.12
913.192	-0.12
913.925	-2.12
914.658	0.88
915.391	1.88
916.124	1.88
916.857	0.88
917.59	-0.12
918.323	0.88
919.055	-2.12
919.788	-0.12
920.521	1.88
921.253	-1.12
921.985	-2.12
922.718	0.88
923.45	0.88
924.182	0.88
924.914	0.88
925.646	-0.12
926.378	-0.12
927.11	1.88
927.841	0.88
928.573	-0.12
929.305	1.88
930.036	-1.12
930.768	0.88
931.499	-0.12
932.23	2.88
932.962	-0.12
933.693	-2.12
934.424	1.88
935.155	-0.12
935.886	-0.12
936.617	-2.12
937.348	-0.12
938.078	-1.12
938.809	-0.12
939.54	1.88
940.27	0.88
941.001	-0.12
941.731	-0.12
942.461	1.88
943.191	-1.12
943.922	-1.12
944.652	-0.12
945.382	-2.12
946.112	1.88
946.841	-2.12
947.571	-0.12
948.301	-0.12
949.031	-1.12
949.76	-0.12
950.49	-0.12
951.219	0.88
951.948	1.88
952.678	-1.12
953.407	-2.12
954.136	-0.12
954.865	1.88
955.594	-2.12
956.323	-0.12
957.052	-2.12
957.78	-0.12
958.509	0.88
959.238	0.88
959.966	-0.12
960.695	0.88
961.423	2.88
962.151	-1.12
962.88	-1.12
963.608	1.88
964.336	-1.12
965.064	0.88
965.792	-2.12
966.52	-0.12
967.247	-0.12
967.975	-0.12
968.703	0.88
969.43	-2.12
970.158	1.88
970.885	0.88
971.613	-1.12
972.34	1.88
973.067	-1.12
973.794	1.88
974.521	-0.12
975.248	0.88
975.975	0.88
976.702	-0.12
977.429	0.88
978.156	-0.12
978.882	0.88
979.609	0.88
980.335	0.88
981.062	-2.12
981.788	-0.12
982.514	1.88
983.24	0.88
983.967	0.88
984.693	-0.12
985.419	-2.12
986.144	0.88
986.87	0.88
987.596	0.88
988.322	0.88
989.047	-0.12
989.773	-1.12
990.498	-2.12
991.224	1.88
991.949	-1.12
992.674	0.88
993.399	0.88
994.124	-0.12
994.849	-0.12
995.574	0.88
996.299	-0.12
997.024	-0.12
997.749	1.88
998.473	-0.12
999.198	-1.12
999.922	0.88
1000.647	1.88
1001.371	4.88
1002.095	-2.12
1002.82	-0.12
1003.544	-1.12
1004.268	0.88
1004.992	-0.12
1005.716	1.88
1006.439	0.88
1007.163	1.88
1007.887	1.88
1008.611	1.88
1009.334	-0.12
1010.058	0.88
1010.781	-0.12
1011.504	0.88
1012.228	0.88
1012.951	-0.12
1013.674	0.88
1014.397	-1.12
1015.12	-1.12
