节点500_285_QEPB04081__367__15-01-39-668.txt的数据

Date: Wed Nov 12 15:01:39 CST 2025
User: PC
Spectrometer: QEPB0408
触发模式: 0
积分时间 (秒): 1.000000E-2
Scans to average: 1
启用暗噪声校正: true
启用非线性校正: false
滑动平均宽度: 0
X轴模式: Wavelengths
Number of Pixels in Spectrum: 1044
>>>>>Begin Spectral Data<<<<<
220.843	1.12
221.644	-0.88
222.444	2.12
223.244	2.12
224.045	3.12
224.845	-0.88
225.645	4.12
226.445	4.12
227.245	0.12
228.045	2.12
228.845	3.12
229.645	5.12
230.444	3.12
231.244	2.12
232.043	3.12
232.843	3.12
233.642	5.12
234.442	3.12
235.241	5.12
236.04	4.12
236.839	5.12
237.638	3.12
238.437	4.12
239.236	5.12
240.035	3.12
240.833	4.12
241.632	6.12
242.43	7.12
243.229	5.12
244.027	4.12
244.826	6.12
245.624	7.12
246.422	7.12
247.22	6.12
248.018	7.12
248.816	8.12
249.614	5.12
250.412	5.12
251.21	7.12
252.007	7.12
252.805	7.12
253.602	8.12
254.4	8.12
255.197	8.12
255.994	9.12
256.791	9.12
257.589	7.12
258.386	10.12
259.183	9.12
259.979	11.12
260.776	10.12
261.573	13.12
262.37	9.12
263.166	12.12
263.963	13.12
264.759	13.12
265.556	14.12
266.352	14.12
267.148	12.12
267.944	17.12
268.74	11.12
269.536	15.12
270.332	16.12
271.128	14.12
271.924	14.12
272.719	15.12
273.515	17.12
274.311	17.12
275.106	17.12
275.901	17.12
276.697	18.12
277.492	18.12
278.287	17.12
279.082	18.12
279.877	18.12
280.672	17.12
281.467	19.12
282.262	20.12
283.056	19.12
283.851	19.12
284.646	19.12
285.44	21.12
286.234	19.12
287.029	20.12
287.823	16.12
288.617	19.12
289.411	18.12
290.205	19.12
290.999	18.12
291.793	17.12
292.587	18.12
293.381	18.12
294.174	16.12
294.968	16.12
295.761	14.12
296.555	16.12
297.348	15.12
298.141	19.12
298.935	13.12
299.728	17.12
300.521	14.12
301.314	15.12
302.107	14.12
302.899	12.12
303.692	16.12
304.485	13.12
305.277	12.12
306.07	14.12
306.862	12.12
307.655	14.12
308.447	12.12
309.239	12.12
310.031	11.12
310.823	11.12
311.615	11.12
312.407	9.12
313.199	9.12
313.991	8.12
314.783	11.12
315.574	9.12
316.366	7.12
317.157	9.12
317.949	9.12
318.74	9.12
319.531	7.12
320.322	8.12
321.113	7.12
321.904	6.12
322.695	10.12
323.486	9.12
324.277	9.12
325.068	7.12
325.858	6.12
326.649	8.12
327.439	8.12
328.23	5.12
329.02	6.12
329.81	9.12
330.6	7.12
331.391	7.12
332.181	6.12
332.971	7.12
333.76	5.12
334.55	7.12
335.34	8.12
336.13	8.12
336.919	6.12
337.709	7.12
338.498	6.12
339.287	6.12
340.077	6.12
340.866	7.12
341.655	6.12
342.444	7.12
343.233	6.12
344.022	8.12
344.811	8.12
345.6	6.12
346.388	4.12
347.177	5.12
347.965	5.12
348.754	5.12
349.542	7.12
350.33	7.12
351.119	5.12
351.907	7.12
352.695	5.12
353.483	4.12
354.271	6.12
355.059	5.12
355.846	5.12
356.634	6.12
357.422	7.12
358.209	8.12
358.997	3.12
359.784	4.12
360.571	5.12
361.359	6.12
362.146	9.12
362.933	7.12
363.72	4.12
364.507	5.12
365.294	5.12
366.081	4.12
366.867	8.12
367.654	5.12
368.44	2.12
369.227	3.12
370.013	5.12
370.8	5.12
371.586	5.12
372.372	5.12
373.158	5.12
373.944	5.12
374.73	7.12
375.516	5.12
376.302	5.12
377.088	7.12
377.873	3.12
378.659	5.12
379.445	5.12
380.23	4.12
381.015	4.12
381.801	5.12
382.586	5.12
383.371	4.12
384.156	8.12
384.941	4.12
385.726	4.12
386.511	7.12
387.296	6.12
388.08	5.12
388.865	4.12
389.649	4.12
390.434	7.12
391.218	7.12
392.003	4.12
392.787	5.12
393.571	8.12
394.355	5.12
395.139	9.12
395.923	7.12
396.707	5.12
397.491	6.12
398.274	6.12
399.058	9.12
399.842	8.12
400.625	7.12
401.408	8.12
402.192	8.12
402.975	8.12
403.758	9.12
404.541	7.12
405.324	7.12
406.107	8.12
406.89	8.12
407.673	9.12
408.456	10.12
409.238	7.12
410.021	10.12
410.803	11.12
411.586	7.12
412.368	10.12
413.151	9.12
413.933	10.12
414.715	9.12
415.497	9.12
416.279	10.12
417.061	11.12
417.843	11.12
418.624	8.12
419.406	12.12
420.188	9.12
420.969	9.12
421.751	12.12
422.532	12.12
423.313	12.12
424.095	14.12
424.876	11.12
425.657	10.12
426.438	10.12
427.219	13.12
428	14.12
428.78	12.12
429.561	13.12
430.342	14.12
431.122	15.12
431.903	16.12
432.683	18.12
433.464	18.12
434.244	17.12
435.024	17.12
435.804	19.12
436.584	17.12
437.364	19.12
438.144	22.12
438.924	21.12
439.704	22.12
440.483	26.12
441.263	23.12
442.042	26.12
442.822	27.12
443.601	29.12
444.38	28.12
445.16	28.12
445.939	34.12
446.718	34.12
447.497	40.12
448.276	42.12
449.054	46.12
449.833	51.12
450.612	52.12
451.391	59.12
452.169	61.12
452.948	69.12
453.726	75.12
454.504	83.12
455.282	89.12
456.061	101.12
456.839	110.12
457.617	124.12
458.395	139.12
459.172	150.12
459.95	171.12
460.728	188.12
461.506	213.12
462.283	237.12
463.061	264.12
463.838	291.12
464.615	331.12
465.393	355.12
466.17	398.12
466.947	451.12
467.724	502.12
468.501	566.12
469.278	619.12
470.055	691.12
470.831	769.12
471.608	847.12
472.385	955.12
473.161	1055.12
473.938	1162.12
474.714	1291.12
475.49	1420.12
476.266	1586.12
477.043	1747.12
477.819	1920.12
478.595	2127.12
479.371	2345.12
480.146	2593.12
480.922	2872.12
481.698	3137.12
482.473	3452.12
483.249	3816.12
484.024	4193.12
484.8	4608.12
485.575	5042.12
486.35	5562.12
487.126	6090.12
487.901	6675.12
488.676	7313.12
489.451	8027.12
490.225	8797.12
491	9591.12
491.775	10468.12
492.55	11425.12
493.324	12374.12
494.099	13263.12
494.873	14387.12
495.647	15465.12
496.422	16577.12
497.196	17755.12
497.97	19004.12
498.744	20146.12
499.518	21316.12
500.292	22459.12
501.066	23617.12
501.839	24433.12
502.613	25462.12
503.387	26194.12
504.16	26810.12
504.934	27197.12
505.707	27320.12
506.48	27417.12
507.253	27359.12
508.027	26997.12
508.8	26756.12
509.573	26317.12
510.346	25789.12
511.118	24983.12
511.891	24186.12
512.664	23354.12
513.437	22498.12
514.209	21577.12
514.982	20645.12
515.754	19819.12
516.526	18904.12
517.298	18042.12
518.071	17239.12
518.843	16589.12
519.615	15947.12
520.387	15393.12
521.159	14785.12
521.93	14140.12
522.702	13558.12
523.474	13039.12
524.245	12487.12
525.017	11905.12
525.788	11466.12
526.56	10962.12
527.331	10443.12
528.102	9937.12
528.873	9486.12
529.644	9026.12
530.415	8579.12
531.186	8158.12
531.957	7732.12
532.728	7371.12
533.498	6968.12
534.269	6608.12
535.039	6199.12
535.81	5901.12
536.58	5559.12
537.351	5211.12
538.121	4954.12
538.891	4676.12
539.661	4425.12
540.431	4159.12
541.201	3934.12
541.971	3749.12
542.741	3550.12
543.51	3365.12
544.28	3212.12
545.05	3042.12
545.819	2898.12
546.588	2738.12
547.358	2616.12
548.127	2491.12
548.896	2342.12
549.665	2253.12
550.434	2120.12
551.203	2012.12
551.972	1901.12
552.741	1800.12
553.51	1693.12
554.278	1603.12
555.047	1511.12
555.815	1433.12
556.584	1345.12
557.352	1280.12
558.121	1220.12
558.889	1136.12
559.657	1082.12
560.425	1014.12
561.193	964.12
561.961	900.12
562.729	853.12
563.496	807.12
564.264	755.12
565.032	724.12
565.799	681.12
566.567	649.12
567.334	612.12
568.101	576.12
568.869	533.12
569.636	512.12
570.403	483.12
571.17	452.12
571.937	424.12
572.704	395.12
573.471	377.12
574.237	359.12
575.004	332.12
575.771	321.12
576.537	299.12
577.303	285.12
578.07	262.12
578.836	251.12
579.602	233.12
580.368	222.12
581.134	210.12
581.9	206.12
582.666	193.12
583.432	183.12
584.198	173.12
584.964	159.12
585.729	154.12
586.495	143.12
587.26	133.12
588.025	132.12
588.791	125.12
589.556	118.12
590.321	110.12
591.086	102.12
591.851	100.12
592.616	95.12
593.381	90.12
594.146	86.12
594.911	84.12
595.675	77.12
596.44	76.12
597.204	71.12
597.969	66.12
598.733	70.12
599.497	64.12
600.261	60.12
601.025	59.12
601.79	53.12
602.553	54.12
603.317	48.12
604.081	48.12
604.845	44.12
605.609	42.12
606.372	44.12
607.136	44.12
607.899	38.12
608.662	37.12
609.426	38.12
610.189	35.12
610.952	32.12
611.715	32.12
612.478	35.12
613.241	28.12
614.004	25.12
614.767	29.12
615.529	28.12
616.292	25.12
617.055	26.12
617.817	23.12
618.579	24.12
619.342	22.12
620.104	22.12
620.866	20.12
621.628	20.12
622.39	19.12
623.152	17.12
623.914	18.12
624.676	20.12
625.438	17.12
626.199	17.12
626.961	15.12
627.722	15.12
628.484	15.12
629.245	17.12
630.006	17.12
630.768	14.12
631.529	14.12
632.29	12.12
633.051	14.12
633.812	12.12
634.573	12.12
635.333	12.12
636.094	9.12
636.855	10.12
637.615	11.12
638.376	12.12
639.136	9.12
639.896	12.12
640.657	10.12
641.417	10.12
642.177	10.12
642.937	8.12
643.697	12.12
644.457	8.12
645.216	8.12
645.976	10.12
646.736	8.12
647.495	7.12
648.255	7.12
649.014	7.12
649.774	6.12
650.533	5.12
651.292	9.12
652.051	6.12
652.81	8.12
653.569	9.12
654.328	6.12
655.087	5.12
655.846	5.12
656.604	5.12
657.363	6.12
658.121	6.12
658.88	4.12
659.638	5.12
660.397	6.12
661.155	4.12
661.913	7.12
662.671	6.12
663.429	6.12
664.187	7.12
664.945	4.12
665.703	5.12
666.46	6.12
667.218	7.12
667.976	4.12
668.733	4.12
669.49	7.12
670.248	4.12
671.005	8.12
671.762	3.12
672.519	4.12
673.276	4.12
674.033	4.12
674.79	5.12
675.547	2.12
676.304	5.12
677.06	3.12
677.817	7.12
678.574	1.12
679.33	7.12
680.086	1.12
680.843	7.12
681.599	2.12
682.355	5.12
683.111	3.12
683.867	5.12
684.623	5.12
685.379	4.12
686.135	4.12
686.89	4.12
687.646	3.12
688.402	4.12
689.157	3.12
689.912	4.12
690.668	6.12
691.423	4.12
692.178	2.12
692.933	6.12
693.688	2.12
694.443	4.12
695.198	2.12
695.953	3.12
696.708	6.12
697.462	5.12
698.217	5.12
698.972	1.12
699.726	5.12
700.48	2.12
701.235	1.12
701.989	6.12
702.743	3.12
703.497	1.12
704.251	6.12
705.005	5.12
705.759	1.12
706.513	4.12
707.266	5.12
708.02	2.12
708.774	2.12
709.527	1.12
710.28	4.12
711.034	5.12
711.787	4.12
712.54	4.12
713.293	3.12
714.046	5.12
714.799	5.12
715.552	4.12
716.305	3.12
717.058	3.12
717.81	3.12
718.563	5.12
719.315	5.12
720.068	4.12
720.82	3.12
721.573	6.12
722.325	1.12
723.077	2.12
723.829	8.12
724.581	3.12
725.333	3.12
726.085	3.12
726.836	4.12
727.588	4.12
728.34	3.12
729.091	6.12
729.843	5.12
730.594	2.12
731.346	3.12
732.097	6.12
732.848	5.12
733.599	5.12
734.35	2.12
735.101	5.12
735.852	4.12
736.603	5.12
737.354	3.12
738.104	4.12
738.855	3.12
739.605	4.12
740.356	4.12
741.106	5.12
741.856	6.12
742.607	3.12
743.357	2.12
744.107	5.12
744.857	7.12
745.607	2.12
746.357	4.12
747.106	4.12
747.856	7.12
748.606	2.12
749.355	7.12
750.105	5.12
750.854	5.12
751.603	7.12
752.353	6.12
753.102	7.12
753.851	2.12
754.6	5.12
755.349	6.12
756.098	5.12
756.847	7.12
757.595	8.12
758.344	6.12
759.093	6.12
759.841	6.12
760.589	6.12
761.338	7.12
762.086	8.12
762.834	8.12
763.582	8.12
764.331	7.12
765.079	6.12
765.826	8.12
766.574	7.12
767.322	9.12
768.07	5.12
768.817	8.12
769.565	4.12
770.312	9.12
771.06	8.12
771.807	7.12
772.554	9.12
773.302	9.12
774.049	8.12
774.796	8.12
775.543	8.12
776.29	9.12
777.036	9.12
777.783	6.12
778.53	10.12
779.276	9.12
780.023	7.12
780.769	8.12
781.516	9.12
782.262	10.12
783.008	9.12
783.754	10.12
784.5	10.12
785.246	8.12
785.992	8.12
786.738	9.12
787.484	10.12
788.23	10.12
788.975	9.12
789.721	7.12
790.466	10.12
791.212	9.12
791.957	9.12
792.702	5.12
793.447	10.12
794.193	10.12
794.938	9.12
795.683	9.12
796.427	9.12
797.172	9.12
797.917	9.12
798.662	8.12
799.406	7.12
800.151	7.12
800.895	9.12
801.64	8.12
802.384	7.12
803.128	7.12
803.872	5.12
804.616	8.12
805.36	6.12
806.104	7.12
806.848	7.12
807.592	6.12
808.336	6.12
809.079	7.12
809.823	6.12
810.566	2.12
811.31	4.12
812.053	7.12
812.796	7.12
813.539	5.12
814.283	7.12
815.026	6.12
815.769	5.12
816.511	3.12
817.254	6.12
817.997	7.12
818.74	4.12
819.482	6.12
820.225	4.12
820.967	5.12
821.71	5.12
822.452	4.12
823.194	7.12
823.936	4.12
824.678	6.12
825.42	4.12
826.162	4.12
826.904	4.12
827.646	6.12
828.388	5.12
829.129	3.12
829.871	5.12
830.612	3.12
831.354	1.12
832.095	2.12
832.836	7.12
833.577	4.12
834.319	3.12
835.06	3.12
835.801	4.12
836.542	3.12
837.282	5.12
838.023	3.12
838.764	4.12
839.504	2.12
840.245	3.12
840.985	2.12
841.726	4.12
842.466	3.12
843.206	4.12
843.946	3.12
844.687	1.12
845.427	3.12
846.166	5.12
846.906	4.12
847.646	5.12
848.386	4.12
849.125	6.12
849.865	3.12
850.605	2.12
851.344	3.12
852.083	0.12
852.823	4.12
853.562	3.12
854.301	2.12
855.04	3.12
855.779	4.12
856.518	3.12
857.257	2.12
857.995	3.12
858.734	2.12
859.473	5.12
860.211	2.12
860.95	3.12
861.688	-0.88
862.426	2.12
863.165	2.12
863.903	2.12
864.641	5.12
865.379	2.12
866.117	1.12
866.855	1.12
867.593	1.12
868.33	4.12
869.068	0.12
869.806	3.12
870.543	3.12
871.28	1.12
872.018	-0.88
872.755	-0.88
873.492	-0.88
874.229	1.12
874.967	2.12
875.703	0.12
876.44	2.12
877.177	2.12
877.914	0.12
878.651	1.12
879.387	2.12
880.124	2.12
880.86	2.12
881.597	1.12
882.333	3.12
883.069	-0.88
883.806	2.12
884.542	2.12
885.278	2.12
886.014	2.12
886.749	1.12
887.485	0.12
888.221	1.12
888.957	0.12
889.692	0.12
890.428	-0.88
891.163	1.12
891.899	-0.88
892.634	4.12
893.369	0.12
894.104	1.12
894.839	1.12
895.574	1.12
896.309	0.12
897.044	1.12
897.779	3.12
898.514	2.12
899.248	-0.88
899.983	1.12
900.717	-0.88
901.452	2.12
902.186	1.12
902.92	-1.88
903.654	2.12
904.389	2.12
905.123	-0.88
905.857	2.12
906.59	2.12
907.324	-1.88
908.058	2.12
908.792	2.12
909.525	-0.88
910.259	3.12
910.992	2.12
911.726	0.12
912.459	1.12
913.192	3.12
913.925	1.12
914.658	-0.88
915.391	0.12
916.124	0.12
916.857	-0.88
917.59	-1.88
918.323	-0.88
919.055	1.12
919.788	1.12
920.521	0.12
921.253	1.12
921.985	1.12
922.718	1.12
923.45	0.12
924.182	1.12
924.914	2.12
925.646	1.12
926.378	0.12
927.11	0.12
927.841	2.12
928.573	-0.88
929.305	-0.88
930.036	0.12
930.768	0.12
931.499	3.12
932.23	1.12
932.962	1.12
933.693	1.12
934.424	2.12
935.155	0.12
935.886	2.12
936.617	0.12
937.348	-0.88
938.078	0.12
938.809	-1.88
939.54	1.12
940.27	3.12
941.001	0.12
941.731	1.12
942.461	-1.88
943.191	2.12
943.922	0.12
944.652	-1.88
945.382	-0.88
946.112	0.12
946.841	1.12
947.571	-1.88
948.301	0.12
949.031	2.12
949.76	1.12
950.49	2.12
951.219	2.12
951.948	0.12
952.678	2.12
953.407	1.12
954.136	1.12
954.865	2.12
955.594	-1.88
956.323	-1.88
957.052	1.12
957.78	2.12
958.509	1.12
959.238	0.12
959.966	-0.88
960.695	1.12
961.423	-1.88
962.151	1.12
962.88	1.12
963.608	0.12
964.336	-0.88
965.064	2.12
965.792	1.12
966.52	0.12
967.247	2.12
967.975	0.12
968.703	2.12
969.43	1.12
970.158	0.12
970.885	1.12
971.613	0.12
972.34	-0.88
973.067	-1.88
973.794	-0.88
974.521	1.12
975.248	1.12
975.975	1.12
976.702	1.12
977.429	0.12
978.156	0.12
978.882	0.12
979.609	-0.88
980.335	3.12
981.062	0.12
981.788	1.12
982.514	-0.88
983.24	0.12
983.967	1.12
984.693	1.12
985.419	-0.88
986.144	0.12
986.87	3.12
987.596	0.12
988.322	2.12
989.047	1.12
989.773	0.12
990.498	1.12
991.224	1.12
991.949	2.12
992.674	0.12
993.399	0.12
994.124	-0.88
994.849	0.12
995.574	0.12
996.299	1.12
997.024	-0.88
997.749	0.12
998.473	0.12
999.198	0.12
999.922	2.12
1000.647	2.12
1001.371	3.12
1002.095	1.12
1002.82	-0.88
1003.544	-0.88
1004.268	4.12
1004.992	0.12
1005.716	2.12
1006.439	2.12
1007.163	1.12
1007.887	2.12
1008.611	1.12
1009.334	1.12
1010.058	1.12
1010.781	3.12
1011.504	1.12
1012.228	2.12
1012.951	0.12
1013.674	-0.88
1014.397	-0.88
1015.12	-0.88
