节点500_285_QEPB04081__172__14-58-25-143.txt的数据

Date: Wed Nov 12 14:58:25 CST 2025
User: PC
Spectrometer: QEPB0408
触发模式: 0
积分时间 (秒): 1.000000E-2
Scans to average: 1
启用暗噪声校正: true
启用非线性校正: false
滑动平均宽度: 0
X轴模式: Wavelengths
Number of Pixels in Spectrum: 1044
>>>>>Begin Spectral Data<<<<<
220.843	1.25
221.644	1.25
222.444	1.25
223.244	2.25
224.045	0.25
224.845	0.25
225.645	2.25
226.445	3.25
227.245	1.25
228.045	4.25
228.845	2.25
229.645	2.25
230.444	3.25
231.244	3.25
232.043	3.25
232.843	2.25
233.642	4.25
234.442	3.25
235.241	4.25
236.04	3.25
236.839	2.25
237.638	5.25
238.437	4.25
239.236	3.25
240.035	4.25
240.833	5.25
241.632	4.25
242.43	6.25
243.229	4.25
244.027	5.25
244.826	6.25
245.624	3.25
246.422	6.25
247.22	7.25
248.018	4.25
248.816	6.25
249.614	7.25
250.412	7.25
251.21	9.25
252.007	8.25
252.805	6.25
253.602	6.25
254.4	4.25
255.197	9.25
255.994	8.25
256.791	11.25
257.589	10.25
258.386	9.25
259.183	11.25
259.979	8.25
260.776	12.25
261.573	11.25
262.37	8.25
263.166	10.25
263.963	12.25
264.759	12.25
265.556	12.25
266.352	11.25
267.148	13.25
267.944	13.25
268.74	16.25
269.536	13.25
270.332	16.25
271.128	13.25
271.924	14.25
272.719	16.25
273.515	13.25
274.311	19.25
275.106	18.25
275.901	18.25
276.697	17.25
277.492	18.25
278.287	17.25
279.082	21.25
279.877	17.25
280.672	20.25
281.467	18.25
282.262	19.25
283.056	18.25
283.851	21.25
284.646	20.25
285.44	20.25
286.234	17.25
287.029	20.25
287.823	17.25
288.617	19.25
289.411	18.25
290.205	18.25
290.999	19.25
291.793	16.25
292.587	18.25
293.381	17.25
294.174	17.25
294.968	19.25
295.761	13.25
296.555	13.25
297.348	16.25
298.141	17.25
298.935	16.25
299.728	13.25
300.521	13.25
301.314	16.25
302.107	13.25
302.899	13.25
303.692	12.25
304.485	14.25
305.277	14.25
306.07	13.25
306.862	12.25
307.655	10.25
308.447	12.25
309.239	11.25
310.031	11.25
310.823	11.25
311.615	11.25
312.407	9.25
313.199	9.25
313.991	10.25
314.783	9.25
315.574	8.25
316.366	11.25
317.157	11.25
317.949	9.25
318.74	9.25
319.531	6.25
320.322	7.25
321.113	6.25
321.904	7.25
322.695	8.25
323.486	9.25
324.277	6.25
325.068	10.25
325.858	7.25
326.649	8.25
327.439	7.25
328.23	7.25
329.02	8.25
329.81	7.25
330.6	7.25
331.391	6.25
332.181	4.25
332.971	7.25
333.76	3.25
334.55	6.25
335.34	7.25
336.13	6.25
336.919	8.25
337.709	5.25
338.498	7.25
339.287	5.25
340.077	6.25
340.866	6.25
341.655	4.25
342.444	7.25
343.233	7.25
344.022	8.25
344.811	7.25
345.6	6.25
346.388	6.25
347.177	4.25
347.965	7.25
348.754	4.25
349.542	8.25
350.33	7.25
351.119	5.25
351.907	6.25
352.695	5.25
353.483	6.25
354.271	6.25
355.059	7.25
355.846	5.25
356.634	5.25
357.422	6.25
358.209	4.25
358.997	4.25
359.784	5.25
360.571	5.25
361.359	6.25
362.146	4.25
362.933	7.25
363.72	5.25
364.507	1.25
365.294	6.25
366.081	3.25
366.867	5.25
367.654	6.25
368.44	4.25
369.227	4.25
370.013	5.25
370.8	5.25
371.586	5.25
372.372	6.25
373.158	5.25
373.944	7.25
374.73	5.25
375.516	6.25
376.302	3.25
377.088	5.25
377.873	6.25
378.659	6.25
379.445	5.25
380.23	4.25
381.015	5.25
381.801	4.25
382.586	4.25
383.371	5.25
384.156	6.25
384.941	6.25
385.726	5.25
386.511	6.25
387.296	6.25
388.08	6.25
388.865	5.25
389.649	7.25
390.434	5.25
391.218	5.25
392.003	5.25
392.787	5.25
393.571	4.25
394.355	5.25
395.139	9.25
395.923	5.25
396.707	7.25
397.491	6.25
398.274	3.25
399.058	7.25
399.842	6.25
400.625	5.25
401.408	7.25
402.192	6.25
402.975	7.25
403.758	8.25
404.541	7.25
405.324	6.25
406.107	8.25
406.89	10.25
407.673	9.25
408.456	9.25
409.238	7.25
410.021	10.25
410.803	8.25
411.586	10.25
412.368	10.25
413.151	7.25
413.933	8.25
414.715	9.25
415.497	8.25
416.279	9.25
417.061	8.25
417.843	10.25
418.624	10.25
419.406	11.25
420.188	8.25
420.969	10.25
421.751	9.25
422.532	10.25
423.313	13.25
424.095	12.25
424.876	12.25
425.657	13.25
426.438	11.25
427.219	13.25
428	12.25
428.78	15.25
429.561	11.25
430.342	14.25
431.122	14.25
431.903	13.25
432.683	15.25
433.464	13.25
434.244	20.25
435.024	17.25
435.804	17.25
436.584	18.25
437.364	17.25
438.144	19.25
438.924	22.25
439.704	22.25
440.483	20.25
441.263	25.25
442.042	25.25
442.822	23.25
443.601	29.25
444.38	30.25
445.16	32.25
445.939	35.25
446.718	35.25
447.497	38.25
448.276	37.25
449.054	41.25
449.833	49.25
450.612	53.25
451.391	54.25
452.169	58.25
452.948	67.25
453.726	72.25
454.504	78.25
455.282	87.25
456.061	97.25
456.839	105.25
457.617	114.25
458.395	130.25
459.172	145.25
459.95	159.25
460.728	172.25
461.506	201.25
462.283	212.25
463.061	252.25
463.838	280.25
464.615	311.25
465.393	351.25
466.17	386.25
466.947	428.25
467.724	483.25
468.501	548.25
469.278	607.25
470.055	668.25
470.831	745.25
471.608	837.25
472.385	921.25
473.161	1035.25
473.938	1138.25
474.714	1259.25
475.49	1415.25
476.266	1555.25
477.043	1733.25
477.819	1918.25
478.595	2104.25
479.371	2346.25
480.146	2608.25
480.922	2874.25
481.698	3168.25
482.473	3503.25
483.249	3883.25
484.024	4243.25
484.8	4696.25
485.575	5197.25
486.35	5706.25
487.126	6285.25
487.901	6941.25
488.676	7592.25
489.451	8342.25
490.225	9157.25
491	10049.25
491.775	10951.25
492.55	11942.25
493.324	12977.25
494.099	14017.25
494.873	15138.25
495.647	16323.25
496.422	17502.25
497.196	18801.25
497.97	20094.25
498.744	21225.25
499.518	22512.25
500.292	23600.25
501.066	24713.25
501.839	25684.25
502.613	26530.25
503.387	27268.25
504.16	27830.25
504.934	28151.25
505.707	28195.25
506.48	28211.25
507.253	27985.25
508.027	27698.25
508.8	27260.25
509.573	26706.25
510.346	26044.25
511.118	25137.25
511.891	24250.25
512.664	23346.25
513.437	22470.25
514.209	21424.25
514.982	20530.25
515.754	19610.25
516.526	18728.25
517.298	17867.25
518.071	17072.25
518.843	16424.25
519.615	15799.25
520.387	15215.25
521.159	14551.25
521.93	14015.25
522.702	13439.25
523.474	12938.25
524.245	12336.25
525.017	11769.25
525.788	11326.25
526.56	10821.25
527.331	10332.25
528.102	9856.25
528.873	9363.25
529.644	8912.25
530.415	8457.25
531.186	8011.25
531.957	7595.25
532.728	7185.25
533.498	6776.25
534.269	6419.25
535.039	6084.25
535.81	5754.25
536.58	5416.25
537.351	5078.25
538.121	4808.25
538.891	4559.25
539.661	4307.25
540.431	4066.25
541.201	3818.25
541.971	3648.25
542.741	3467.25
543.51	3285.25
544.28	3118.25
545.05	2975.25
545.819	2808.25
546.588	2678.25
547.358	2560.25
548.127	2409.25
548.896	2299.25
549.665	2173.25
550.434	2081.25
551.203	1955.25
551.972	1828.25
552.741	1737.25
553.51	1648.25
554.278	1544.25
555.047	1465.25
555.815	1369.25
556.584	1313.25
557.352	1237.25
558.121	1175.25
558.889	1090.25
559.657	1057.25
560.425	976.25
561.193	910.25
561.961	885.25
562.729	813.25
563.496	795.25
564.264	732.25
565.032	694.25
565.799	666.25
566.567	619.25
567.334	577.25
568.101	560.25
568.869	538.25
569.636	482.25
570.403	461.25
571.17	437.25
571.937	418.25
572.704	386.25
573.471	368.25
574.237	349.25
575.004	331.25
575.771	306.25
576.537	285.25
577.303	273.25
578.07	258.25
578.836	243.25
579.602	226.25
580.368	212.25
581.134	204.25
581.9	192.25
582.666	180.25
583.432	172.25
584.198	163.25
584.964	160.25
585.729	146.25
586.495	143.25
587.26	136.25
588.025	126.25
588.791	117.25
589.556	115.25
590.321	107.25
591.086	101.25
591.851	99.25
592.616	93.25
593.381	88.25
594.146	84.25
594.911	77.25
595.675	78.25
596.44	73.25
597.204	64.25
597.969	64.25
598.733	66.25
599.497	61.25
600.261	59.25
601.025	55.25
601.79	52.25
602.553	48.25
603.317	48.25
604.081	47.25
604.845	45.25
605.609	42.25
606.372	40.25
607.136	40.25
607.899	39.25
608.662	36.25
609.426	34.25
610.189	34.25
610.952	35.25
611.715	31.25
612.478	30.25
613.241	24.25
614.004	28.25
614.767	26.25
615.529	27.25
616.292	25.25
617.055	23.25
617.817	22.25
618.579	21.25
619.342	24.25
620.104	20.25
620.866	21.25
621.628	20.25
622.39	17.25
623.152	21.25
623.914	20.25
624.676	16.25
625.438	16.25
626.199	17.25
626.961	15.25
627.722	15.25
628.484	13.25
629.245	13.25
630.006	12.25
630.768	14.25
631.529	13.25
632.29	13.25
633.051	13.25
633.812	12.25
634.573	11.25
635.333	9.25
636.094	11.25
636.855	11.25
637.615	9.25
638.376	9.25
639.136	8.25
639.896	9.25
640.657	8.25
641.417	10.25
642.177	10.25
642.937	12.25
643.697	8.25
644.457	7.25
645.216	9.25
645.976	8.25
646.736	7.25
647.495	8.25
648.255	12.25
649.014	9.25
649.774	8.25
650.533	7.25
651.292	6.25
652.051	7.25
652.81	6.25
653.569	6.25
654.328	8.25
655.087	6.25
655.846	5.25
656.604	8.25
657.363	4.25
658.121	6.25
658.88	3.25
659.638	4.25
660.397	3.25
661.155	5.25
661.913	4.25
662.671	7.25
663.429	6.25
664.187	6.25
664.945	6.25
665.703	6.25
666.46	6.25
667.218	3.25
667.976	4.25
668.733	4.25
669.49	4.25
670.248	4.25
671.005	5.25
671.762	5.25
672.519	3.25
673.276	5.25
674.033	5.25
674.79	3.25
675.547	5.25
676.304	6.25
677.06	1.25
677.817	5.25
678.574	4.25
679.33	4.25
680.086	3.25
680.843	1.25
681.599	3.25
682.355	4.25
683.111	5.25
683.867	3.25
684.623	2.25
685.379	4.25
686.135	3.25
686.89	2.25
687.646	3.25
688.402	5.25
689.157	3.25
689.912	3.25
690.668	3.25
691.423	3.25
692.178	4.25
692.933	2.25
693.688	6.25
694.443	4.25
695.198	2.25
695.953	5.25
696.708	4.25
697.462	4.25
698.217	1.25
698.972	3.25
699.726	4.25
700.48	3.25
701.235	1.25
701.989	1.25
702.743	5.25
703.497	1.25
704.251	3.25
705.005	2.25
705.759	2.25
706.513	4.25
707.266	1.25
708.02	4.25
708.774	4.25
709.527	1.25
710.28	4.25
711.034	1.25
711.787	1.25
712.54	4.25
713.293	3.25
714.046	3.25
714.799	2.25
715.552	4.25
716.305	2.25
717.058	2.25
717.81	4.25
718.563	5.25
719.315	3.25
720.068	4.25
720.82	2.25
721.573	2.25
722.325	4.25
723.077	5.25
723.829	1.25
724.581	3.25
725.333	3.25
726.085	4.25
726.836	5.25
727.588	5.25
728.34	4.25
729.091	1.25
729.843	3.25
730.594	5.25
731.346	5.25
732.097	5.25
732.848	5.25
733.599	3.25
734.35	0.25
735.101	4.25
735.852	5.25
736.603	4.25
737.354	5.25
738.104	3.25
738.855	4.25
739.605	6.25
740.356	5.25
741.106	6.25
741.856	2.25
742.607	3.25
743.357	5.25
744.107	7.25
744.857	6.25
745.607	3.25
746.357	6.25
747.106	6.25
747.856	4.25
748.606	4.25
749.355	6.25
750.105	1.25
750.854	5.25
751.603	7.25
752.353	5.25
753.102	6.25
753.851	4.25
754.6	5.25
755.349	6.25
756.098	5.25
756.847	5.25
757.595	7.25
758.344	7.25
759.093	3.25
759.841	6.25
760.589	6.25
761.338	6.25
762.086	7.25
762.834	5.25
763.582	6.25
764.331	7.25
765.079	6.25
765.826	8.25
766.574	5.25
767.322	7.25
768.07	6.25
768.817	7.25
769.565	7.25
770.312	8.25
771.06	9.25
771.807	9.25
772.554	8.25
773.302	9.25
774.049	7.25
774.796	8.25
775.543	9.25
776.29	9.25
777.036	8.25
777.783	9.25
778.53	9.25
779.276	6.25
780.023	8.25
780.769	8.25
781.516	8.25
782.262	8.25
783.008	10.25
783.754	7.25
784.5	10.25
785.246	10.25
785.992	10.25
786.738	10.25
787.484	9.25
788.23	9.25
788.975	10.25
789.721	6.25
790.466	10.25
791.212	9.25
791.957	8.25
792.702	9.25
793.447	9.25
794.193	6.25
794.938	7.25
795.683	8.25
796.427	6.25
797.172	7.25
797.917	8.25
798.662	8.25
799.406	8.25
800.151	8.25
800.895	5.25
801.64	6.25
802.384	7.25
803.128	6.25
803.872	4.25
804.616	7.25
805.36	8.25
806.104	5.25
806.848	6.25
807.592	5.25
808.336	5.25
809.079	9.25
809.823	4.25
810.566	5.25
811.31	7.25
812.053	4.25
812.796	4.25
813.539	7.25
814.283	6.25
815.026	6.25
815.769	9.25
816.511	4.25
817.254	7.25
817.997	5.25
818.74	5.25
819.482	5.25
820.225	3.25
820.967	4.25
821.71	3.25
822.452	6.25
823.194	3.25
823.936	4.25
824.678	4.25
825.42	3.25
826.162	3.25
826.904	3.25
827.646	3.25
828.388	4.25
829.129	7.25
829.871	4.25
830.612	3.25
831.354	3.25
832.095	3.25
832.836	2.25
833.577	3.25
834.319	1.25
835.06	3.25
835.801	5.25
836.542	3.25
837.282	3.25
838.023	2.25
838.764	3.25
839.504	1.25
840.245	5.25
840.985	4.25
841.726	5.25
842.466	6.25
843.206	2.25
843.946	3.25
844.687	1.25
845.427	3.25
846.166	3.25
846.906	3.25
847.646	4.25
848.386	1.25
849.125	3.25
849.865	1.25
850.605	1.25
851.344	2.25
852.083	2.25
852.823	3.25
853.562	3.25
854.301	4.25
855.04	1.25
855.779	2.25
856.518	4.25
857.257	1.25
857.995	3.25
858.734	1.25
859.473	3.25
860.211	3.25
860.95	0.25
861.688	2.25
862.426	0.25
863.165	2.25
863.903	1.25
864.641	3.25
865.379	1.25
866.117	0.25
866.855	3.25
867.593	-0.75
868.33	2.25
869.068	1.25
869.806	-0.75
870.543	1.25
871.28	0.25
872.018	2.25
872.755	1.25
873.492	1.25
874.229	3.25
874.967	1.25
875.703	3.25
876.44	2.25
877.177	1.25
877.914	1.25
878.651	1.25
879.387	-0.75
880.124	0.25
880.86	3.25
881.597	1.25
882.333	1.25
883.069	2.25
883.806	0.25
884.542	2.25
885.278	1.25
886.014	1.25
886.749	2.25
887.485	0.25
888.221	3.25
888.957	0.25
889.692	1.25
890.428	0.25
891.163	0.25
891.899	1.25
892.634	0.25
893.369	0.25
894.104	3.25
894.839	1.25
895.574	0.25
896.309	1.25
897.044	3.25
897.779	-0.75
898.514	1.25
899.248	1.25
899.983	1.25
900.717	0.25
901.452	0.25
902.186	1.25
902.92	-0.75
903.654	0.25
904.389	0.25
905.123	1.25
905.857	1.25
906.59	1.25
907.324	1.25
908.058	-0.75
908.792	3.25
909.525	1.25
910.259	0.25
910.992	0.25
911.726	0.25
912.459	-2.75
913.192	1.25
913.925	0.25
914.658	0.25
915.391	-0.75
916.124	1.25
916.857	0.25
917.59	0.25
918.323	-1.75
919.055	-0.75
919.788	-0.75
920.521	0.25
921.253	1.25
921.985	-0.75
922.718	1.25
923.45	-0.75
924.182	-2.75
924.914	1.25
925.646	1.25
926.378	1.25
927.11	-0.75
927.841	-0.75
928.573	1.25
929.305	-0.75
930.036	1.25
930.768	-0.75
931.499	0.25
932.23	0.25
932.962	0.25
933.693	1.25
934.424	2.25
935.155	1.25
935.886	0.25
936.617	1.25
937.348	1.25
938.078	-0.75
938.809	0.25
939.54	0.25
940.27	1.25
941.001	1.25
941.731	0.25
942.461	-0.75
943.191	-1.75
943.922	1.25
944.652	2.25
945.382	-0.75
946.112	0.25
946.841	0.25
947.571	1.25
948.301	-1.75
949.031	2.25
949.76	1.25
950.49	-1.75
951.219	0.25
951.948	1.25
952.678	1.25
953.407	-1.75
954.136	0.25
954.865	-0.75
955.594	0.25
956.323	-0.75
957.052	1.25
957.78	0.25
958.509	-0.75
959.238	-0.75
959.966	1.25
960.695	-0.75
961.423	1.25
962.151	1.25
962.88	-0.75
963.608	1.25
964.336	-0.75
965.064	0.25
965.792	2.25
966.52	1.25
967.247	0.25
967.975	2.25
968.703	-0.75
969.43	0.25
970.158	1.25
970.885	-2.75
971.613	-1.75
972.34	1.25
973.067	-1.75
973.794	1.25
974.521	0.25
975.248	-1.75
975.975	-0.75
976.702	1.25
977.429	2.25
978.156	0.25
978.882	2.25
979.609	-0.75
980.335	-0.75
981.062	1.25
981.788	0.25
982.514	1.25
983.24	-1.75
983.967	1.25
984.693	0.25
985.419	1.25
986.144	1.25
986.87	-1.75
987.596	0.25
988.322	-0.75
989.047	-1.75
989.773	-1.75
990.498	0.25
991.224	-1.75
991.949	-0.75
992.674	3.25
993.399	0.25
994.124	-0.75
994.849	0.25
995.574	-0.75
996.299	2.25
997.024	-0.75
997.749	0.25
998.473	0.25
999.198	-0.75
999.922	0.25
1000.647	0.25
1001.371	5.25
1002.095	0.25
1002.82	-1.75
1003.544	-1.75
1004.268	-0.75
1004.992	2.25
1005.716	1.25
1006.439	3.25
1007.163	2.25
1007.887	2.25
1008.611	1.25
1009.334	-0.75
1010.058	1.25
1010.781	1.25
1011.504	-1.75
1012.228	-1.75
1012.951	-0.75
1013.674	-0.75
1014.397	-0.75
1015.12	0.25
