节点500_285_QEPB04081__856__15-09-47-712.txt的数据

Date: Wed Nov 12 15:09:47 CST 2025
User: PC
Spectrometer: QEPB0408
触发模式: 0
积分时间 (秒): 1.000000E-2
Scans to average: 1
启用暗噪声校正: true
启用非线性校正: false
滑动平均宽度: 0
X轴模式: Wavelengths
Number of Pixels in Spectrum: 1044
>>>>>Begin Spectral Data<<<<<
220.843	3.25
221.644	0.25
222.444	-0.75
223.244	-0.75
224.045	3.25
224.845	0.25
225.645	-0.75
226.445	1.25
227.245	1.25
228.045	3.25
228.845	1.25
229.645	3.25
230.444	2.25
231.244	2.25
232.043	3.25
232.843	2.25
233.642	1.25
234.442	3.25
235.241	2.25
236.04	3.25
236.839	3.25
237.638	3.25
238.437	4.25
239.236	3.25
240.035	2.25
240.833	3.25
241.632	6.25
242.43	2.25
243.229	5.25
244.027	3.25
244.826	3.25
245.624	4.25
246.422	2.25
247.22	2.25
248.018	5.25
248.816	5.25
249.614	6.25
250.412	5.25
251.21	4.25
252.007	3.25
252.805	7.25
253.602	6.25
254.4	5.25
255.197	5.25
255.994	7.25
256.791	7.25
257.589	4.25
258.386	7.25
259.183	6.25
259.979	8.25
260.776	7.25
261.573	9.25
262.37	9.25
263.166	6.25
263.963	8.25
264.759	9.25
265.556	10.25
266.352	9.25
267.148	10.25
267.944	9.25
268.74	11.25
269.536	13.25
270.332	11.25
271.128	13.25
271.924	12.25
272.719	12.25
273.515	13.25
274.311	14.25
275.106	13.25
275.901	14.25
276.697	16.25
277.492	15.25
278.287	15.25
279.082	14.25
279.877	15.25
280.672	15.25
281.467	17.25
282.262	15.25
283.056	14.25
283.851	15.25
284.646	16.25
285.44	15.25
286.234	16.25
287.029	16.25
287.823	17.25
288.617	15.25
289.411	14.25
290.205	16.25
290.999	15.25
291.793	16.25
292.587	18.25
293.381	17.25
294.174	13.25
294.968	13.25
295.761	16.25
296.555	12.25
297.348	13.25
298.141	13.25
298.935	15.25
299.728	13.25
300.521	13.25
301.314	10.25
302.107	11.25
302.899	13.25
303.692	10.25
304.485	10.25
305.277	9.25
306.07	13.25
306.862	9.25
307.655	11.25
308.447	9.25
309.239	8.25
310.031	8.25
310.823	10.25
311.615	9.25
312.407	9.25
313.199	7.25
313.991	8.25
314.783	8.25
315.574	6.25
316.366	7.25
317.157	7.25
317.949	7.25
318.74	8.25
319.531	6.25
320.322	6.25
321.113	9.25
321.904	5.25
322.695	5.25
323.486	7.25
324.277	6.25
325.068	6.25
325.858	6.25
326.649	7.25
327.439	5.25
328.23	6.25
329.02	4.25
329.81	5.25
330.6	4.25
331.391	6.25
332.181	6.25
332.971	2.25
333.76	6.25
334.55	5.25
335.34	4.25
336.13	3.25
336.919	6.25
337.709	2.25
338.498	4.25
339.287	9.25
340.077	3.25
340.866	7.25
341.655	7.25
342.444	6.25
343.233	6.25
344.022	6.25
344.811	6.25
345.6	2.25
346.388	7.25
347.177	4.25
347.965	4.25
348.754	4.25
349.542	5.25
350.33	4.25
351.119	6.25
351.907	4.25
352.695	4.25
353.483	4.25
354.271	4.25
355.059	3.25
355.846	3.25
356.634	4.25
357.422	6.25
358.209	5.25
358.997	6.25
359.784	5.25
360.571	4.25
361.359	4.25
362.146	6.25
362.933	4.25
363.72	4.25
364.507	5.25
365.294	3.25
366.081	3.25
366.867	2.25
367.654	5.25
368.44	3.25
369.227	4.25
370.013	4.25
370.8	2.25
371.586	4.25
372.372	5.25
373.158	4.25
373.944	3.25
374.73	3.25
375.516	3.25
376.302	8.25
377.088	5.25
377.873	4.25
378.659	4.25
379.445	2.25
380.23	4.25
381.015	3.25
381.801	4.25
382.586	4.25
383.371	5.25
384.156	3.25
384.941	3.25
385.726	2.25
386.511	4.25
387.296	3.25
388.08	2.25
388.865	4.25
389.649	5.25
390.434	3.25
391.218	8.25
392.003	6.25
392.787	6.25
393.571	4.25
394.355	5.25
395.139	3.25
395.923	7.25
396.707	7.25
397.491	6.25
398.274	3.25
399.058	5.25
399.842	5.25
400.625	5.25
401.408	3.25
402.192	6.25
402.975	6.25
403.758	7.25
404.541	5.25
405.324	8.25
406.107	6.25
406.89	3.25
407.673	5.25
408.456	8.25
409.238	6.25
410.021	8.25
410.803	5.25
411.586	7.25
412.368	7.25
413.151	6.25
413.933	6.25
414.715	9.25
415.497	8.25
416.279	7.25
417.061	7.25
417.843	7.25
418.624	8.25
419.406	6.25
420.188	8.25
420.969	10.25
421.751	9.25
422.532	9.25
423.313	8.25
424.095	11.25
424.876	9.25
425.657	10.25
426.438	13.25
427.219	10.25
428	10.25
428.78	10.25
429.561	12.25
430.342	13.25
431.122	11.25
431.903	13.25
432.683	15.25
433.464	15.25
434.244	13.25
435.024	16.25
435.804	16.25
436.584	14.25
437.364	20.25
438.144	17.25
438.924	20.25
439.704	22.25
440.483	21.25
441.263	23.25
442.042	25.25
442.822	26.25
443.601	26.25
444.38	32.25
445.16	33.25
445.939	35.25
446.718	40.25
447.497	40.25
448.276	43.25
449.054	50.25
449.833	50.25
450.612	56.25
451.391	62.25
452.169	72.25
452.948	78.25
453.726	86.25
454.504	93.25
455.282	103.25
456.061	111.25
456.839	128.25
457.617	133.25
458.395	155.25
459.172	169.25
459.95	188.25
460.728	211.25
461.506	235.25
462.283	254.25
463.061	291.25
463.838	323.25
464.615	364.25
465.393	391.25
466.17	443.25
466.947	492.25
467.724	541.25
468.501	606.25
469.278	676.25
470.055	742.25
470.831	822.25
471.608	922.25
472.385	993.25
473.161	1085.25
473.938	1211.25
474.714	1341.25
475.49	1465.25
476.266	1605.25
477.043	1767.25
477.819	1923.25
478.595	2108.25
479.371	2320.25
480.146	2545.25
480.922	2789.25
481.698	3028.25
482.473	3305.25
483.249	3636.25
484.024	3933.25
484.8	4298.25
485.575	4698.25
486.35	5092.25
487.126	5538.25
487.901	6047.25
488.676	6565.25
489.451	7179.25
490.225	7746.25
491	8385.25
491.775	9128.25
492.55	9887.25
493.324	10701.25
494.099	11407.25
494.873	12262.25
495.647	13172.25
496.422	14129.25
497.196	15147.25
497.97	16127.25
498.744	17158.25
499.518	18149.25
500.292	19114.25
501.066	20192.25
501.839	21105.25
502.613	21986.25
503.387	22840.25
504.16	23466.25
504.934	24036.25
505.707	24351.25
506.48	24640.25
507.253	24879.25
508.027	24890.25
508.8	24841.25
509.573	24675.25
510.346	24379.25
511.118	23931.25
511.891	23400.25
512.664	22807.25
513.437	22121.25
514.209	21375.25
514.982	20678.25
515.754	19844.25
516.526	19066.25
517.298	18300.25
518.071	17585.25
518.843	16948.25
519.615	16300.25
520.387	15684.25
521.159	15044.25
521.93	14449.25
522.702	13923.25
523.474	13301.25
524.245	12752.25
525.017	12210.25
525.788	11741.25
526.56	11250.25
527.331	10737.25
528.102	10277.25
528.873	9844.25
529.644	9383.25
530.415	9026.25
531.186	8583.25
531.957	8139.25
532.728	7754.25
533.498	7403.25
534.269	6976.25
535.039	6632.25
535.81	6310.25
536.58	5936.25
537.351	5609.25
538.121	5307.25
538.891	5035.25
539.661	4759.25
540.431	4487.25
541.201	4245.25
541.971	4010.25
542.741	3805.25
543.51	3616.25
544.28	3433.25
545.05	3248.25
545.819	3104.25
546.588	2952.25
547.358	2817.25
548.127	2678.25
548.896	2569.25
549.665	2403.25
550.434	2313.25
551.203	2164.25
551.972	2076.25
552.741	1953.25
553.51	1857.25
554.278	1728.25
555.047	1660.25
555.815	1561.25
556.584	1469.25
557.352	1417.25
558.121	1332.25
558.889	1242.25
559.657	1186.25
560.425	1117.25
561.193	1041.25
561.961	988.25
562.729	939.25
563.496	893.25
564.264	839.25
565.032	785.25
565.799	742.25
566.567	713.25
567.334	671.25
568.101	633.25
568.869	598.25
569.636	563.25
570.403	528.25
571.17	507.25
571.937	466.25
572.704	440.25
573.471	427.25
574.237	393.25
575.004	369.25
575.771	351.25
576.537	327.25
577.303	307.25
578.07	297.25
578.836	278.25
579.602	255.25
580.368	251.25
581.134	239.25
581.9	228.25
582.666	205.25
583.432	198.25
584.198	192.25
584.964	184.25
585.729	171.25
586.495	166.25
587.26	155.25
588.025	144.25
588.791	137.25
589.556	124.25
590.321	121.25
591.086	114.25
591.851	110.25
592.616	101.25
593.381	101.25
594.146	95.25
594.911	92.25
595.675	86.25
596.44	80.25
597.204	74.25
597.969	72.25
598.733	67.25
599.497	70.25
600.261	66.25
601.025	63.25
601.79	59.25
602.553	55.25
603.317	55.25
604.081	50.25
604.845	49.25
605.609	45.25
606.372	43.25
607.136	42.25
607.899	40.25
608.662	42.25
609.426	39.25
610.189	37.25
610.952	35.25
611.715	29.25
612.478	31.25
613.241	31.25
614.004	31.25
614.767	28.25
615.529	27.25
616.292	25.25
617.055	24.25
617.817	24.25
618.579	23.25
619.342	23.25
620.104	20.25
620.866	20.25
621.628	20.25
622.39	18.25
623.152	21.25
623.914	18.25
624.676	16.25
625.438	16.25
626.199	17.25
626.961	17.25
627.722	12.25
628.484	16.25
629.245	15.25
630.006	13.25
630.768	14.25
631.529	12.25
632.29	13.25
633.051	13.25
633.812	9.25
634.573	9.25
635.333	12.25
636.094	14.25
636.855	10.25
637.615	9.25
638.376	9.25
639.136	9.25
639.896	10.25
640.657	9.25
641.417	9.25
642.177	9.25
642.937	7.25
643.697	10.25
644.457	6.25
645.216	7.25
645.976	7.25
646.736	8.25
647.495	5.25
648.255	9.25
649.014	7.25
649.774	7.25
650.533	7.25
651.292	6.25
652.051	5.25
652.81	6.25
653.569	4.25
654.328	7.25
655.087	7.25
655.846	5.25
656.604	6.25
657.363	6.25
658.121	4.25
658.88	5.25
659.638	5.25
660.397	3.25
661.155	6.25
661.913	4.25
662.671	3.25
663.429	4.25
664.187	4.25
664.945	5.25
665.703	3.25
666.46	2.25
667.218	2.25
667.976	5.25
668.733	4.25
669.49	6.25
670.248	6.25
671.005	3.25
671.762	2.25
672.519	1.25
673.276	5.25
674.033	4.25
674.79	2.25
675.547	4.25
676.304	1.25
677.06	4.25
677.817	1.25
678.574	3.25
679.33	3.25
680.086	2.25
680.843	3.25
681.599	4.25
682.355	5.25
683.111	4.25
683.867	4.25
684.623	3.25
685.379	3.25
686.135	3.25
686.89	2.25
687.646	3.25
688.402	1.25
689.157	1.25
689.912	0.25
690.668	4.25
691.423	3.25
692.178	2.25
692.933	5.25
693.688	4.25
694.443	3.25
695.198	1.25
695.953	3.25
696.708	4.25
697.462	4.25
698.217	3.25
698.972	4.25
699.726	0.25
700.48	2.25
701.235	2.25
701.989	5.25
702.743	4.25
703.497	4.25
704.251	2.25
705.005	4.25
705.759	2.25
706.513	1.25
707.266	3.25
708.02	1.25
708.774	5.25
709.527	4.25
710.28	4.25
711.034	2.25
711.787	3.25
712.54	2.25
713.293	2.25
714.046	4.25
714.799	1.25
715.552	2.25
716.305	3.25
717.058	2.25
717.81	4.25
718.563	1.25
719.315	2.25
720.068	2.25
720.82	1.25
721.573	5.25
722.325	2.25
723.077	2.25
723.829	2.25
724.581	4.25
725.333	3.25
726.085	2.25
726.836	3.25
727.588	0.25
728.34	3.25
729.091	3.25
729.843	2.25
730.594	1.25
731.346	3.25
732.097	4.25
732.848	2.25
733.599	4.25
734.35	3.25
735.101	0.25
735.852	4.25
736.603	5.25
737.354	4.25
738.104	4.25
738.855	1.25
739.605	3.25
740.356	4.25
741.106	4.25
741.856	4.25
742.607	1.25
743.357	5.25
744.107	2.25
744.857	3.25
745.607	3.25
746.357	5.25
747.106	7.25
747.856	3.25
748.606	5.25
749.355	1.25
750.105	4.25
750.854	1.25
751.603	3.25
752.353	3.25
753.102	4.25
753.851	1.25
754.6	6.25
755.349	4.25
756.098	4.25
756.847	6.25
757.595	4.25
758.344	4.25
759.093	3.25
759.841	6.25
760.589	4.25
761.338	3.25
762.086	4.25
762.834	3.25
763.582	6.25
764.331	5.25
765.079	2.25
765.826	6.25
766.574	7.25
767.322	4.25
768.07	6.25
768.817	6.25
769.565	6.25
770.312	8.25
771.06	6.25
771.807	6.25
772.554	7.25
773.302	7.25
774.049	5.25
774.796	7.25
775.543	5.25
776.29	8.25
777.036	5.25
777.783	6.25
778.53	3.25
779.276	4.25
780.023	6.25
780.769	7.25
781.516	7.25
782.262	5.25
783.008	4.25
783.754	8.25
784.5	7.25
785.246	6.25
785.992	8.25
786.738	7.25
787.484	7.25
788.23	7.25
788.975	5.25
789.721	8.25
790.466	6.25
791.212	6.25
791.957	6.25
792.702	7.25
793.447	6.25
794.193	6.25
794.938	8.25
795.683	7.25
796.427	8.25
797.172	6.25
797.917	6.25
798.662	6.25
799.406	6.25
800.151	5.25
800.895	5.25
801.64	6.25
802.384	5.25
803.128	6.25
803.872	5.25
804.616	8.25
805.36	7.25
806.104	6.25
806.848	4.25
807.592	2.25
808.336	6.25
809.079	6.25
809.823	4.25
810.566	4.25
811.31	6.25
812.053	6.25
812.796	4.25
813.539	3.25
814.283	2.25
815.026	4.25
815.769	5.25
816.511	4.25
817.254	3.25
817.997	3.25
818.74	5.25
819.482	2.25
820.225	3.25
820.967	5.25
821.71	4.25
822.452	3.25
823.194	3.25
823.936	0.25
824.678	2.25
825.42	4.25
826.162	2.25
826.904	3.25
827.646	3.25
828.388	2.25
829.129	5.25
829.871	3.25
830.612	3.25
831.354	4.25
832.095	3.25
832.836	4.25
833.577	4.25
834.319	4.25
835.06	2.25
835.801	1.25
836.542	3.25
837.282	3.25
838.023	3.25
838.764	2.25
839.504	1.25
840.245	2.25
840.985	1.25
841.726	5.25
842.466	3.25
843.206	1.25
843.946	2.25
844.687	3.25
845.427	1.25
846.166	3.25
846.906	4.25
847.646	1.25
848.386	3.25
849.125	1.25
849.865	2.25
850.605	1.25
851.344	3.25
852.083	2.25
852.823	2.25
853.562	2.25
854.301	2.25
855.04	0.25
855.779	1.25
856.518	-0.75
857.257	3.25
857.995	0.25
858.734	-0.75
859.473	0.25
860.211	3.25
860.95	2.25
861.688	1.25
862.426	2.25
863.165	-1.75
863.903	1.25
864.641	1.25
865.379	0.25
866.117	3.25
866.855	0.25
867.593	2.25
868.33	1.25
869.068	0.25
869.806	0.25
870.543	0.25
871.28	1.25
872.018	-2.75
872.755	2.25
873.492	1.25
874.229	2.25
874.967	1.25
875.703	1.25
876.44	-0.75
877.177	1.25
877.914	2.25
878.651	2.25
879.387	1.25
880.124	-0.75
880.86	-0.75
881.597	2.25
882.333	0.25
883.069	1.25
883.806	0.25
884.542	1.25
885.278	1.25
886.014	1.25
886.749	0.25
887.485	-0.75
888.221	-0.75
888.957	0.25
889.692	0.25
890.428	1.25
891.163	-1.75
891.899	0.25
892.634	-1.75
893.369	0.25
894.104	-2.75
894.839	-0.75
895.574	-1.75
896.309	-0.75
897.044	1.25
897.779	0.25
898.514	0.25
899.248	1.25
899.983	0.25
900.717	0.25
901.452	-1.75
902.186	2.25
902.92	0.25
903.654	-0.75
904.389	-0.75
905.123	0.25
905.857	1.25
906.59	0.25
907.324	0.25
908.058	0.25
908.792	-0.75
909.525	1.25
910.259	-0.75
910.992	0.25
911.726	-1.75
912.459	1.25
913.192	0.25
913.925	-0.75
914.658	0.25
915.391	-1.75
916.124	-2.75
916.857	1.25
917.59	2.25
918.323	1.25
919.055	-1.75
919.788	0.25
920.521	-2.75
921.253	0.25
921.985	-0.75
922.718	-2.75
923.45	0.25
924.182	-2.75
924.914	-2.75
925.646	-1.75
926.378	0.25
927.11	-1.75
927.841	-0.75
928.573	-0.75
929.305	-0.75
930.036	-3.75
930.768	0.25
931.499	-0.75
932.23	0.25
932.962	-1.75
933.693	-2.75
934.424	0.25
935.155	1.25
935.886	-0.75
936.617	-0.75
937.348	-2.75
938.078	-2.75
938.809	-0.75
939.54	-0.75
940.27	2.25
941.001	0.25
941.731	-1.75
942.461	-0.75
943.191	-1.75
943.922	0.25
944.652	-0.75
945.382	1.25
946.112	-1.75
946.841	-0.75
947.571	1.25
948.301	0.25
949.031	-1.75
949.76	0.25
950.49	-0.75
951.219	-0.75
951.948	1.25
952.678	-0.75
953.407	-1.75
954.136	-0.75
954.865	-0.75
955.594	-1.75
956.323	-0.75
957.052	-0.75
957.78	-0.75
958.509	0.25
959.238	0.25
959.966	-1.75
960.695	0.25
961.423	-1.75
962.151	-1.75
962.88	-0.75
963.608	-2.75
964.336	0.25
965.064	1.25
965.792	0.25
966.52	1.25
967.247	-1.75
967.975	1.25
968.703	-2.75
969.43	1.25
970.158	-2.75
970.885	-2.75
971.613	-1.75
972.34	-1.75
973.067	-1.75
973.794	-0.75
974.521	-0.75
975.248	1.25
975.975	1.25
976.702	-2.75
977.429	-0.75
978.156	0.25
978.882	-0.75
979.609	0.25
980.335	0.25
981.062	1.25
981.788	0.25
982.514	-2.75
983.24	-0.75
983.967	0.25
984.693	-1.75
985.419	-1.75
986.144	-2.75
986.87	0.25
987.596	-2.75
988.322	0.25
989.047	-1.75
989.773	-2.75
990.498	-0.75
991.224	-3.75
991.949	0.25
992.674	-2.75
993.399	-1.75
994.124	0.25
994.849	-0.75
995.574	-0.75
996.299	0.25
997.024	0.25
997.749	1.25
998.473	1.25
999.198	0.25
999.922	-1.75
1000.647	-0.75
1001.371	3.25
1002.095	-0.75
1002.82	-2.75
1003.544	-1.75
1004.268	0.25
1004.992	0.25
1005.716	-0.75
1006.439	0.25
1007.163	0.25
1007.887	0.25
1008.611	-2.75
1009.334	-0.75
1010.058	-0.75
1010.781	-0.75
1011.504	0.25
1012.228	2.25
1012.951	1.25
1013.674	0.25
1014.397	1.25
1015.12	-0.75
