节点500_285_QEPB04081__536__15-04-28-320.txt的数据

Date: Wed Nov 12 15:04:28 CST 2025
User: PC
Spectrometer: QEPB0408
触发模式: 0
积分时间 (秒): 1.000000E-2
Scans to average: 1
启用暗噪声校正: true
启用非线性校正: false
滑动平均宽度: 0
X轴模式: Wavelengths
Number of Pixels in Spectrum: 1044
>>>>>Begin Spectral Data<<<<<
220.843	0.25
221.644	3.25
222.444	3.25
223.244	3.25
224.045	3.25
224.845	3.25
225.645	0.25
226.445	2.25
227.245	2.25
228.045	4.25
228.845	2.25
229.645	2.25
230.444	1.25
231.244	4.25
232.043	6.25
232.843	4.25
233.642	4.25
234.442	3.25
235.241	3.25
236.04	6.25
236.839	1.25
237.638	5.25
238.437	6.25
239.236	4.25
240.035	5.25
240.833	4.25
241.632	6.25
242.43	4.25
243.229	6.25
244.027	5.25
244.826	5.25
245.624	4.25
246.422	5.25
247.22	5.25
248.018	7.25
248.816	8.25
249.614	8.25
250.412	9.25
251.21	9.25
252.007	7.25
252.805	7.25
253.602	8.25
254.4	7.25
255.197	7.25
255.994	6.25
256.791	7.25
257.589	10.25
258.386	10.25
259.183	12.25
259.979	10.25
260.776	9.25
261.573	10.25
262.37	7.25
263.166	11.25
263.963	11.25
264.759	12.25
265.556	10.25
266.352	15.25
267.148	12.25
267.944	13.25
268.74	12.25
269.536	11.25
270.332	16.25
271.128	14.25
271.924	16.25
272.719	16.25
273.515	14.25
274.311	17.25
275.106	16.25
275.901	18.25
276.697	18.25
277.492	18.25
278.287	21.25
279.082	17.25
279.877	14.25
280.672	18.25
281.467	18.25
282.262	18.25
283.056	18.25
283.851	20.25
284.646	22.25
285.44	21.25
286.234	19.25
287.029	18.25
287.823	20.25
288.617	18.25
289.411	18.25
290.205	17.25
290.999	20.25
291.793	15.25
292.587	16.25
293.381	17.25
294.174	17.25
294.968	17.25
295.761	16.25
296.555	15.25
297.348	18.25
298.141	15.25
298.935	17.25
299.728	14.25
300.521	16.25
301.314	14.25
302.107	13.25
302.899	14.25
303.692	14.25
304.485	15.25
305.277	13.25
306.07	13.25
306.862	14.25
307.655	13.25
308.447	10.25
309.239	13.25
310.031	13.25
310.823	10.25
311.615	11.25
312.407	10.25
313.199	7.25
313.991	9.25
314.783	9.25
315.574	11.25
316.366	9.25
317.157	10.25
317.949	9.25
318.74	7.25
319.531	9.25
320.322	7.25
321.113	7.25
321.904	9.25
322.695	10.25
323.486	8.25
324.277	8.25
325.068	9.25
325.858	8.25
326.649	5.25
327.439	9.25
328.23	5.25
329.02	6.25
329.81	6.25
330.6	5.25
331.391	8.25
332.181	7.25
332.971	9.25
333.76	7.25
334.55	6.25
335.34	6.25
336.13	6.25
336.919	6.25
337.709	6.25
338.498	8.25
339.287	7.25
340.077	8.25
340.866	7.25
341.655	5.25
342.444	7.25
343.233	6.25
344.022	6.25
344.811	6.25
345.6	5.25
346.388	6.25
347.177	7.25
347.965	5.25
348.754	4.25
349.542	4.25
350.33	7.25
351.119	4.25
351.907	7.25
352.695	6.25
353.483	7.25
354.271	5.25
355.059	5.25
355.846	5.25
356.634	7.25
357.422	7.25
358.209	4.25
358.997	6.25
359.784	6.25
360.571	6.25
361.359	7.25
362.146	7.25
362.933	5.25
363.72	4.25
364.507	3.25
365.294	6.25
366.081	6.25
366.867	6.25
367.654	5.25
368.44	5.25
369.227	7.25
370.013	2.25
370.8	7.25
371.586	3.25
372.372	3.25
373.158	7.25
373.944	4.25
374.73	4.25
375.516	4.25
376.302	6.25
377.088	3.25
377.873	6.25
378.659	5.25
379.445	3.25
380.23	5.25
381.015	6.25
381.801	7.25
382.586	7.25
383.371	8.25
384.156	8.25
384.941	6.25
385.726	4.25
386.511	4.25
387.296	6.25
388.08	6.25
388.865	5.25
389.649	8.25
390.434	3.25
391.218	6.25
392.003	9.25
392.787	6.25
393.571	7.25
394.355	9.25
395.139	9.25
395.923	7.25
396.707	8.25
397.491	7.25
398.274	8.25
399.058	8.25
399.842	7.25
400.625	8.25
401.408	6.25
402.192	9.25
402.975	7.25
403.758	6.25
404.541	5.25
405.324	6.25
406.107	8.25
406.89	7.25
407.673	7.25
408.456	7.25
409.238	8.25
410.021	10.25
410.803	7.25
411.586	8.25
412.368	7.25
413.151	10.25
413.933	9.25
414.715	7.25
415.497	11.25
416.279	10.25
417.061	9.25
417.843	8.25
418.624	9.25
419.406	9.25
420.188	11.25
420.969	12.25
421.751	10.25
422.532	12.25
423.313	9.25
424.095	10.25
424.876	12.25
425.657	13.25
426.438	12.25
427.219	13.25
428	16.25
428.78	14.25
429.561	12.25
430.342	14.25
431.122	13.25
431.903	16.25
432.683	15.25
433.464	14.25
434.244	15.25
435.024	19.25
435.804	17.25
436.584	17.25
437.364	19.25
438.144	19.25
438.924	22.25
439.704	23.25
440.483	24.25
441.263	26.25
442.042	24.25
442.822	25.25
443.601	26.25
444.38	30.25
445.16	32.25
445.939	34.25
446.718	39.25
447.497	40.25
448.276	42.25
449.054	48.25
449.833	48.25
450.612	55.25
451.391	62.25
452.169	67.25
452.948	72.25
453.726	81.25
454.504	87.25
455.282	94.25
456.061	103.25
456.839	114.25
457.617	126.25
458.395	141.25
459.172	157.25
459.95	172.25
460.728	197.25
461.506	213.25
462.283	238.25
463.061	279.25
463.838	302.25
464.615	334.25
465.393	377.25
466.17	404.25
466.947	465.25
467.724	516.25
468.501	572.25
469.278	648.25
470.055	708.25
470.831	787.25
471.608	876.25
472.385	961.25
473.161	1087.25
473.938	1176.25
474.714	1304.25
475.49	1450.25
476.266	1595.25
477.043	1769.25
477.819	1931.25
478.595	2143.25
479.371	2344.25
480.146	2581.25
480.922	2830.25
481.698	3127.25
482.473	3422.25
483.249	3749.25
484.024	4111.25
484.8	4502.25
485.575	4970.25
486.35	5440.25
487.126	5901.25
487.901	6476.25
488.676	7068.25
489.451	7701.25
490.225	8431.25
491	9201.25
491.775	10002.25
492.55	10886.25
493.324	11777.25
494.099	12648.25
494.873	13614.25
495.647	14693.25
496.422	15732.25
497.196	16879.25
497.97	18022.25
498.744	19141.25
499.518	20274.25
500.292	21387.25
501.066	22376.25
501.839	23387.25
502.613	24234.25
503.387	25078.25
504.16	25722.25
504.934	26165.25
505.707	26384.25
506.48	26575.25
507.253	26601.25
508.027	26412.25
508.8	26134.25
509.573	25930.25
510.346	25415.25
511.118	24758.25
511.891	24006.25
512.664	23265.25
513.437	22474.25
514.209	21564.25
514.982	20794.25
515.754	19877.25
516.526	19056.25
517.298	18221.25
518.071	17434.25
518.843	16799.25
519.615	16144.25
520.387	15499.25
521.159	14873.25
521.93	14304.25
522.702	13740.25
523.474	13224.25
524.245	12601.25
525.017	12051.25
525.788	11584.25
526.56	11068.25
527.331	10585.25
528.102	10112.25
528.873	9667.25
529.644	9189.25
530.415	8734.25
531.186	8318.25
531.957	7892.25
532.728	7514.25
533.498	7161.25
534.269	6759.25
535.039	6357.25
535.81	6016.25
536.58	5722.25
537.351	5358.25
538.121	5069.25
538.891	4833.25
539.661	4533.25
540.431	4296.25
541.201	4028.25
541.971	3846.25
542.741	3646.25
543.51	3460.25
544.28	3293.25
545.05	3132.25
545.819	2989.25
546.588	2819.25
547.358	2694.25
548.127	2564.25
548.896	2428.25
549.665	2302.25
550.434	2175.25
551.203	2061.25
551.972	1969.25
552.741	1847.25
553.51	1761.25
554.278	1669.25
555.047	1566.25
555.815	1480.25
556.584	1386.25
557.352	1312.25
558.121	1253.25
558.889	1183.25
559.657	1114.25
560.425	1042.25
561.193	993.25
561.961	933.25
562.729	881.25
563.496	833.25
564.264	794.25
565.032	743.25
565.799	710.25
566.567	674.25
567.334	626.25
568.101	592.25
568.869	564.25
569.636	532.25
570.403	495.25
571.17	462.25
571.937	450.25
572.704	422.25
573.471	391.25
574.237	377.25
575.004	349.25
575.771	325.25
576.537	311.25
577.303	292.25
578.07	277.25
578.836	258.25
579.602	249.25
580.368	225.25
581.134	222.25
581.9	208.25
582.666	195.25
583.432	187.25
584.198	175.25
584.964	166.25
585.729	161.25
586.495	153.25
587.26	140.25
588.025	135.25
588.791	129.25
589.556	123.25
590.321	117.25
591.086	110.25
591.851	102.25
592.616	98.25
593.381	98.25
594.146	90.25
594.911	79.25
595.675	84.25
596.44	78.25
597.204	73.25
597.969	69.25
598.733	68.25
599.497	66.25
600.261	64.25
601.025	59.25
601.79	53.25
602.553	56.25
603.317	52.25
604.081	49.25
604.845	50.25
605.609	44.25
606.372	44.25
607.136	41.25
607.899	42.25
608.662	41.25
609.426	37.25
610.189	39.25
610.952	34.25
611.715	34.25
612.478	33.25
613.241	29.25
614.004	27.25
614.767	27.25
615.529	29.25
616.292	28.25
617.055	24.25
617.817	24.25
618.579	24.25
619.342	20.25
620.104	24.25
620.866	23.25
621.628	21.25
622.39	21.25
623.152	19.25
623.914	15.25
624.676	16.25
625.438	17.25
626.199	16.25
626.961	18.25
627.722	16.25
628.484	17.25
629.245	15.25
630.006	17.25
630.768	16.25
631.529	14.25
632.29	9.25
633.051	13.25
633.812	12.25
634.573	12.25
635.333	13.25
636.094	10.25
636.855	14.25
637.615	11.25
638.376	11.25
639.136	12.25
639.896	8.25
640.657	10.25
641.417	9.25
642.177	8.25
642.937	8.25
643.697	10.25
644.457	8.25
645.216	8.25
645.976	9.25
646.736	7.25
647.495	11.25
648.255	8.25
649.014	6.25
649.774	8.25
650.533	6.25
651.292	9.25
652.051	7.25
652.81	6.25
653.569	7.25
654.328	6.25
655.087	7.25
655.846	7.25
656.604	8.25
657.363	8.25
658.121	5.25
658.88	9.25
659.638	3.25
660.397	9.25
661.155	6.25
661.913	7.25
662.671	8.25
663.429	5.25
664.187	8.25
664.945	4.25
665.703	6.25
666.46	6.25
667.218	4.25
667.976	7.25
668.733	3.25
669.49	7.25
670.248	7.25
671.005	6.25
671.762	7.25
672.519	4.25
673.276	4.25
674.033	4.25
674.79	4.25
675.547	4.25
676.304	5.25
677.06	7.25
677.817	2.25
678.574	5.25
679.33	6.25
680.086	4.25
680.843	4.25
681.599	3.25
682.355	3.25
683.111	4.25
683.867	6.25
684.623	3.25
685.379	6.25
686.135	5.25
686.89	4.25
687.646	4.25
688.402	2.25
689.157	5.25
689.912	5.25
690.668	2.25
691.423	5.25
692.178	5.25
692.933	4.25
693.688	5.25
694.443	3.25
695.198	5.25
695.953	4.25
696.708	3.25
697.462	4.25
698.217	3.25
698.972	5.25
699.726	4.25
700.48	2.25
701.235	3.25
701.989	3.25
702.743	3.25
703.497	4.25
704.251	4.25
705.005	3.25
705.759	4.25
706.513	2.25
707.266	4.25
708.02	3.25
708.774	3.25
709.527	5.25
710.28	2.25
711.034	2.25
711.787	2.25
712.54	7.25
713.293	3.25
714.046	2.25
714.799	5.25
715.552	5.25
716.305	7.25
717.058	4.25
717.81	4.25
718.563	4.25
719.315	4.25
720.068	4.25
720.82	4.25
721.573	3.25
722.325	3.25
723.077	2.25
723.829	4.25
724.581	2.25
725.333	6.25
726.085	4.25
726.836	4.25
727.588	4.25
728.34	3.25
729.091	6.25
729.843	5.25
730.594	5.25
731.346	5.25
732.097	5.25
732.848	4.25
733.599	3.25
734.35	5.25
735.101	3.25
735.852	6.25
736.603	4.25
737.354	4.25
738.104	5.25
738.855	6.25
739.605	4.25
740.356	6.25
741.106	5.25
741.856	5.25
742.607	5.25
743.357	5.25
744.107	6.25
744.857	6.25
745.607	4.25
746.357	5.25
747.106	6.25
747.856	4.25
748.606	6.25
749.355	5.25
750.105	7.25
750.854	5.25
751.603	3.25
752.353	6.25
753.102	3.25
753.851	6.25
754.6	5.25
755.349	7.25
756.098	6.25
756.847	6.25
757.595	3.25
758.344	4.25
759.093	7.25
759.841	6.25
760.589	7.25
761.338	8.25
762.086	6.25
762.834	6.25
763.582	6.25
764.331	5.25
765.079	6.25
765.826	7.25
766.574	10.25
767.322	9.25
768.07	10.25
768.817	5.25
769.565	6.25
770.312	8.25
771.06	9.25
771.807	8.25
772.554	6.25
773.302	6.25
774.049	7.25
774.796	6.25
775.543	9.25
776.29	8.25
777.036	8.25
777.783	8.25
778.53	9.25
779.276	9.25
780.023	11.25
780.769	8.25
781.516	8.25
782.262	9.25
783.008	8.25
783.754	7.25
784.5	8.25
785.246	8.25
785.992	9.25
786.738	10.25
787.484	10.25
788.23	7.25
788.975	11.25
789.721	10.25
790.466	9.25
791.212	11.25
791.957	8.25
792.702	8.25
793.447	7.25
794.193	10.25
794.938	9.25
795.683	9.25
796.427	10.25
797.172	7.25
797.917	9.25
798.662	7.25
799.406	7.25
800.151	8.25
800.895	7.25
801.64	7.25
802.384	7.25
803.128	9.25
803.872	4.25
804.616	7.25
805.36	8.25
806.104	7.25
806.848	7.25
807.592	6.25
808.336	7.25
809.079	4.25
809.823	8.25
810.566	5.25
811.31	4.25
812.053	5.25
812.796	4.25
813.539	6.25
814.283	6.25
815.026	4.25
815.769	4.25
816.511	5.25
817.254	6.25
817.997	3.25
818.74	4.25
819.482	5.25
820.225	6.25
820.967	5.25
821.71	3.25
822.452	4.25
823.194	7.25
823.936	6.25
824.678	3.25
825.42	2.25
826.162	6.25
826.904	5.25
827.646	3.25
828.388	3.25
829.129	2.25
829.871	4.25
830.612	5.25
831.354	6.25
832.095	5.25
832.836	6.25
833.577	6.25
834.319	5.25
835.06	4.25
835.801	2.25
836.542	6.25
837.282	3.25
838.023	4.25
838.764	4.25
839.504	3.25
840.245	4.25
840.985	4.25
841.726	4.25
842.466	4.25
843.206	2.25
843.946	5.25
844.687	2.25
845.427	4.25
846.166	4.25
846.906	3.25
847.646	2.25
848.386	2.25
849.125	2.25
849.865	2.25
850.605	1.25
851.344	2.25
852.083	4.25
852.823	2.25
853.562	2.25
854.301	2.25
855.04	3.25
855.779	3.25
856.518	2.25
857.257	3.25
857.995	3.25
858.734	1.25
859.473	5.25
860.211	0.25
860.95	4.25
861.688	2.25
862.426	3.25
863.165	2.25
863.903	1.25
864.641	2.25
865.379	2.25
866.117	2.25
866.855	2.25
867.593	4.25
868.33	3.25
869.068	3.25
869.806	2.25
870.543	2.25
871.28	2.25
872.018	0.25
872.755	3.25
873.492	1.25
874.229	-0.75
874.967	1.25
875.703	2.25
876.44	2.25
877.177	1.25
877.914	1.25
878.651	2.25
879.387	-0.75
880.124	1.25
880.86	0.25
881.597	0.25
882.333	2.25
883.069	1.25
883.806	1.25
884.542	2.25
885.278	3.25
886.014	1.25
886.749	1.25
887.485	2.25
888.221	0.25
888.957	1.25
889.692	1.25
890.428	0.25
891.163	1.25
891.899	0.25
892.634	1.25
893.369	1.25
894.104	2.25
894.839	1.25
895.574	1.25
896.309	3.25
897.044	0.25
897.779	2.25
898.514	-0.75
899.248	1.25
899.983	2.25
900.717	1.25
901.452	0.25
902.186	-0.75
902.92	1.25
903.654	-0.75
904.389	-0.75
905.123	-1.75
905.857	1.25
906.59	0.25
907.324	0.25
908.058	1.25
908.792	1.25
909.525	0.25
910.259	1.25
910.992	1.25
911.726	0.25
912.459	1.25
913.192	0.25
913.925	-0.75
914.658	3.25
915.391	0.25
916.124	0.25
916.857	2.25
917.59	0.25
918.323	1.25
919.055	0.25
919.788	-0.75
920.521	-0.75
921.253	0.25
921.985	2.25
922.718	0.25
923.45	-1.75
924.182	0.25
924.914	0.25
925.646	0.25
926.378	-1.75
927.11	1.25
927.841	1.25
928.573	0.25
929.305	1.25
930.036	3.25
930.768	3.25
931.499	3.25
932.23	-1.75
932.962	-1.75
933.693	-1.75
934.424	1.25
935.155	0.25
935.886	3.25
936.617	1.25
937.348	-0.75
938.078	1.25
938.809	-0.75
939.54	0.25
940.27	1.25
941.001	0.25
941.731	1.25
942.461	-0.75
943.191	1.25
943.922	0.25
944.652	-0.75
945.382	0.25
946.112	1.25
946.841	0.25
947.571	1.25
948.301	0.25
949.031	1.25
949.76	0.25
950.49	1.25
951.219	1.25
951.948	0.25
952.678	4.25
953.407	2.25
954.136	2.25
954.865	1.25
955.594	3.25
956.323	-0.75
957.052	2.25
957.78	-0.75
958.509	1.25
959.238	0.25
959.966	4.25
960.695	0.25
961.423	1.25
962.151	2.25
962.88	-0.75
963.608	1.25
964.336	1.25
965.064	1.25
965.792	0.25
966.52	1.25
967.247	1.25
967.975	0.25
968.703	0.25
969.43	0.25
970.158	0.25
970.885	-0.75
971.613	0.25
972.34	-0.75
973.067	1.25
973.794	-0.75
974.521	-0.75
975.248	1.25
975.975	1.25
976.702	2.25
977.429	0.25
978.156	0.25
978.882	1.25
979.609	0.25
980.335	0.25
981.062	2.25
981.788	2.25
982.514	0.25
983.24	1.25
983.967	1.25
984.693	0.25
985.419	1.25
986.144	1.25
986.87	1.25
987.596	2.25
988.322	1.25
989.047	-1.75
989.773	1.25
990.498	0.25
991.224	-0.75
991.949	0.25
992.674	-0.75
993.399	1.25
994.124	2.25
994.849	1.25
995.574	2.25
996.299	3.25
997.024	0.25
997.749	0.25
998.473	2.25
999.198	1.25
999.922	-0.75
1000.647	0.25
1001.371	3.25
1002.095	-0.75
1002.82	-1.75
1003.544	-1.75
1004.268	2.25
1004.992	0.25
1005.716	3.25
1006.439	2.25
1007.163	0.25
1007.887	2.25
1008.611	1.25
1009.334	1.25
1010.058	-0.75
1010.781	2.25
1011.504	1.25
1012.228	1.25
1012.951	0.25
1013.674	1.25
1014.397	1.25
1015.12	-1.75
