节点500_285_QEPB04081__734__15-07-45-819.txt的数据

Date: Wed Nov 12 15:07:45 CST 2025
User: PC
Spectrometer: QEPB0408
触发模式: 0
积分时间 (秒): 1.000000E-2
Scans to average: 1
启用暗噪声校正: true
启用非线性校正: false
滑动平均宽度: 0
X轴模式: Wavelengths
Number of Pixels in Spectrum: 1044
>>>>>Begin Spectral Data<<<<<
220.843	0.62
221.644	2.62
222.444	3.62
223.244	-1.38
224.045	0.62
224.845	2.62
225.645	1.62
226.445	3.62
227.245	3.62
228.045	1.62
228.845	2.62
229.645	2.62
230.444	1.62
231.244	2.62
232.043	1.62
232.843	3.62
233.642	0.62
234.442	0.62
235.241	2.62
236.04	2.62
236.839	4.62
237.638	4.62
238.437	4.62
239.236	2.62
240.035	3.62
240.833	4.62
241.632	2.62
242.43	5.62
243.229	5.62
244.027	6.62
244.826	5.62
245.624	3.62
246.422	7.62
247.22	4.62
248.018	3.62
248.816	3.62
249.614	6.62
250.412	3.62
251.21	6.62
252.007	6.62
252.805	4.62
253.602	8.62
254.4	6.62
255.197	4.62
255.994	7.62
256.791	6.62
257.589	10.62
258.386	6.62
259.183	8.62
259.979	6.62
260.776	9.62
261.573	8.62
262.37	9.62
263.166	9.62
263.963	9.62
264.759	11.62
265.556	11.62
266.352	10.62
267.148	11.62
267.944	12.62
268.74	10.62
269.536	11.62
270.332	12.62
271.128	13.62
271.924	10.62
272.719	14.62
273.515	12.62
274.311	14.62
275.106	17.62
275.901	11.62
276.697	14.62
277.492	15.62
278.287	13.62
279.082	16.62
279.877	17.62
280.672	16.62
281.467	16.62
282.262	17.62
283.056	14.62
283.851	16.62
284.646	16.62
285.44	18.62
286.234	18.62
287.029	15.62
287.823	14.62
288.617	17.62
289.411	15.62
290.205	17.62
290.999	15.62
291.793	17.62
292.587	16.62
293.381	14.62
294.174	15.62
294.968	13.62
295.761	12.62
296.555	15.62
297.348	11.62
298.141	16.62
298.935	15.62
299.728	15.62
300.521	13.62
301.314	11.62
302.107	14.62
302.899	13.62
303.692	11.62
304.485	12.62
305.277	14.62
306.07	11.62
306.862	13.62
307.655	10.62
308.447	11.62
309.239	12.62
310.031	10.62
310.823	11.62
311.615	11.62
312.407	8.62
313.199	8.62
313.991	9.62
314.783	9.62
315.574	10.62
316.366	11.62
317.157	8.62
317.949	9.62
318.74	8.62
319.531	8.62
320.322	6.62
321.113	6.62
321.904	7.62
322.695	6.62
323.486	8.62
324.277	5.62
325.068	7.62
325.858	5.62
326.649	6.62
327.439	6.62
328.23	5.62
329.02	6.62
329.81	5.62
330.6	4.62
331.391	7.62
332.181	5.62
332.971	5.62
333.76	6.62
334.55	6.62
335.34	8.62
336.13	5.62
336.919	7.62
337.709	3.62
338.498	6.62
339.287	6.62
340.077	8.62
340.866	5.62
341.655	4.62
342.444	3.62
343.233	6.62
344.022	8.62
344.811	6.62
345.6	7.62
346.388	7.62
347.177	6.62
347.965	4.62
348.754	4.62
349.542	5.62
350.33	5.62
351.119	4.62
351.907	5.62
352.695	6.62
353.483	6.62
354.271	6.62
355.059	6.62
355.846	4.62
356.634	5.62
357.422	6.62
358.209	5.62
358.997	5.62
359.784	3.62
360.571	6.62
361.359	5.62
362.146	5.62
362.933	5.62
363.72	5.62
364.507	4.62
365.294	3.62
366.081	4.62
366.867	5.62
367.654	3.62
368.44	4.62
369.227	3.62
370.013	4.62
370.8	4.62
371.586	4.62
372.372	3.62
373.158	4.62
373.944	6.62
374.73	2.62
375.516	4.62
376.302	4.62
377.088	4.62
377.873	4.62
378.659	7.62
379.445	2.62
380.23	1.62
381.015	4.62
381.801	3.62
382.586	2.62
383.371	4.62
384.156	3.62
384.941	5.62
385.726	1.62
386.511	4.62
387.296	5.62
388.08	4.62
388.865	6.62
389.649	5.62
390.434	5.62
391.218	6.62
392.003	3.62
392.787	3.62
393.571	6.62
394.355	4.62
395.139	5.62
395.923	5.62
396.707	7.62
397.491	5.62
398.274	6.62
399.058	4.62
399.842	7.62
400.625	6.62
401.408	6.62
402.192	7.62
402.975	4.62
403.758	5.62
404.541	6.62
405.324	7.62
406.107	6.62
406.89	6.62
407.673	7.62
408.456	5.62
409.238	7.62
410.021	6.62
410.803	9.62
411.586	7.62
412.368	9.62
413.151	8.62
413.933	7.62
414.715	6.62
415.497	7.62
416.279	6.62
417.061	9.62
417.843	10.62
418.624	9.62
419.406	7.62
420.188	9.62
420.969	8.62
421.751	9.62
422.532	9.62
423.313	10.62
424.095	9.62
424.876	9.62
425.657	10.62
426.438	11.62
427.219	11.62
428	12.62
428.78	10.62
429.561	13.62
430.342	14.62
431.122	12.62
431.903	12.62
432.683	14.62
433.464	13.62
434.244	13.62
435.024	15.62
435.804	16.62
436.584	19.62
437.364	20.62
438.144	21.62
438.924	21.62
439.704	20.62
440.483	22.62
441.263	24.62
442.042	25.62
442.822	24.62
443.601	28.62
444.38	29.62
445.16	29.62
445.939	35.62
446.718	35.62
447.497	42.62
448.276	44.62
449.054	48.62
449.833	50.62
450.612	56.62
451.391	59.62
452.169	66.62
452.948	77.62
453.726	80.62
454.504	87.62
455.282	96.62
456.061	112.62
456.839	123.62
457.617	136.62
458.395	146.62
459.172	166.62
459.95	186.62
460.728	204.62
461.506	223.62
462.283	254.62
463.061	286.62
463.838	322.62
464.615	359.62
465.393	393.62
466.17	433.62
466.947	490.62
467.724	541.62
468.501	602.62
469.278	665.62
470.055	733.62
470.831	815.62
471.608	901.62
472.385	989.62
473.161	1094.62
473.938	1228.62
474.714	1333.62
475.49	1463.62
476.266	1609.62
477.043	1768.62
477.819	1948.62
478.595	2116.62
479.371	2326.62
480.146	2558.62
480.922	2812.62
481.698	3051.62
482.473	3359.62
483.249	3649.62
484.024	4001.62
484.8	4355.62
485.575	4765.62
486.35	5173.62
487.126	5669.62
487.901	6168.62
488.676	6721.62
489.451	7302.62
490.225	7925.62
491	8592.62
491.775	9344.62
492.55	10174.62
493.324	10947.62
494.099	11754.62
494.873	12650.62
495.647	13567.62
496.422	14593.62
497.196	15599.62
497.97	16669.62
498.744	17722.62
499.518	18733.62
500.292	19761.62
501.066	20728.62
501.839	21691.62
502.613	22651.62
503.387	23461.62
504.16	24096.62
504.934	24621.62
505.707	24996.62
506.48	25223.62
507.253	25364.62
508.027	25305.62
508.8	25251.62
509.573	25083.62
510.346	24762.62
511.118	24149.62
511.891	23640.62
512.664	23001.62
513.437	22279.62
514.209	21501.62
514.982	20669.62
515.754	19905.62
516.526	19107.62
517.298	18313.62
518.071	17545.62
518.843	16889.62
519.615	16263.62
520.387	15648.62
521.159	14998.62
521.93	14415.62
522.702	13859.62
523.474	13282.62
524.245	12725.62
525.017	12182.62
525.788	11754.62
526.56	11210.62
527.331	10759.62
528.102	10277.62
528.873	9842.62
529.644	9332.62
530.415	8895.62
531.186	8503.62
531.957	8060.62
532.728	7698.62
533.498	7316.62
534.269	6934.62
535.039	6557.62
535.81	6239.62
536.58	5859.62
537.351	5537.62
538.121	5248.62
538.891	4935.62
539.661	4702.62
540.431	4426.62
541.201	4199.62
541.971	3972.62
542.741	3763.62
543.51	3572.62
544.28	3398.62
545.05	3234.62
545.819	3081.62
546.588	2906.62
547.358	2785.62
548.127	2642.62
548.896	2493.62
549.665	2380.62
550.434	2275.62
551.203	2136.62
551.972	2032.62
552.741	1910.62
553.51	1815.62
554.278	1718.62
555.047	1622.62
555.815	1545.62
556.584	1445.62
557.352	1369.62
558.121	1303.62
558.889	1216.62
559.657	1155.62
560.425	1091.62
561.193	1033.62
561.961	976.62
562.729	923.62
563.496	880.62
564.264	827.62
565.032	774.62
565.799	750.62
566.567	692.62
567.334	656.62
568.101	624.62
568.869	585.62
569.636	555.62
570.403	528.62
571.17	490.62
571.937	461.62
572.704	441.62
573.471	409.62
574.237	389.62
575.004	361.62
575.771	348.62
576.537	320.62
577.303	304.62
578.07	288.62
578.836	269.62
579.602	252.62
580.368	239.62
581.134	231.62
581.9	219.62
582.666	206.62
583.432	192.62
584.198	186.62
584.964	177.62
585.729	167.62
586.495	157.62
587.26	155.62
588.025	137.62
588.791	129.62
589.556	131.62
590.321	124.62
591.086	115.62
591.851	109.62
592.616	105.62
593.381	102.62
594.146	95.62
594.911	85.62
595.675	81.62
596.44	81.62
597.204	73.62
597.969	73.62
598.733	73.62
599.497	68.62
600.261	63.62
601.025	59.62
601.79	60.62
602.553	56.62
603.317	52.62
604.081	52.62
604.845	50.62
605.609	47.62
606.372	43.62
607.136	45.62
607.899	38.62
608.662	41.62
609.426	38.62
610.189	33.62
610.952	36.62
611.715	32.62
612.478	33.62
613.241	31.62
614.004	31.62
614.767	32.62
615.529	28.62
616.292	23.62
617.055	25.62
617.817	25.62
618.579	22.62
619.342	23.62
620.104	23.62
620.866	21.62
621.628	18.62
622.39	19.62
623.152	16.62
623.914	17.62
624.676	18.62
625.438	17.62
626.199	15.62
626.961	17.62
627.722	12.62
628.484	12.62
629.245	14.62
630.006	14.62
630.768	11.62
631.529	14.62
632.29	15.62
633.051	10.62
633.812	13.62
634.573	11.62
635.333	9.62
636.094	11.62
636.855	9.62
637.615	11.62
638.376	9.62
639.136	9.62
639.896	9.62
640.657	8.62
641.417	9.62
642.177	5.62
642.937	6.62
643.697	9.62
644.457	7.62
645.216	9.62
645.976	8.62
646.736	7.62
647.495	10.62
648.255	6.62
649.014	8.62
649.774	5.62
650.533	6.62
651.292	5.62
652.051	6.62
652.81	6.62
653.569	5.62
654.328	6.62
655.087	4.62
655.846	6.62
656.604	5.62
657.363	7.62
658.121	5.62
658.88	5.62
659.638	4.62
660.397	7.62
661.155	4.62
661.913	6.62
662.671	3.62
663.429	6.62
664.187	5.62
664.945	2.62
665.703	2.62
666.46	3.62
667.218	4.62
667.976	5.62
668.733	3.62
669.49	4.62
670.248	4.62
671.005	5.62
671.762	4.62
672.519	4.62
673.276	4.62
674.033	3.62
674.79	4.62
675.547	5.62
676.304	4.62
677.06	5.62
677.817	6.62
678.574	3.62
679.33	2.62
680.086	2.62
680.843	3.62
681.599	2.62
682.355	3.62
683.111	3.62
683.867	5.62
684.623	3.62
685.379	1.62
686.135	1.62
686.89	6.62
687.646	4.62
688.402	3.62
689.157	4.62
689.912	3.62
690.668	1.62
691.423	4.62
692.178	0.62
692.933	3.62
693.688	5.62
694.443	2.62
695.198	5.62
695.953	4.62
696.708	1.62
697.462	3.62
698.217	3.62
698.972	5.62
699.726	3.62
700.48	4.62
701.235	1.62
701.989	3.62
702.743	3.62
703.497	1.62
704.251	2.62
705.005	3.62
705.759	4.62
706.513	1.62
707.266	3.62
708.02	2.62
708.774	1.62
709.527	5.62
710.28	1.62
711.034	2.62
711.787	3.62
712.54	3.62
713.293	2.62
714.046	1.62
714.799	2.62
715.552	1.62
716.305	3.62
717.058	5.62
717.81	5.62
718.563	2.62
719.315	4.62
720.068	4.62
720.82	0.62
721.573	4.62
722.325	3.62
723.077	3.62
723.829	3.62
724.581	1.62
725.333	4.62
726.085	3.62
726.836	2.62
727.588	3.62
728.34	1.62
729.091	3.62
729.843	2.62
730.594	3.62
731.346	3.62
732.097	2.62
732.848	4.62
733.599	3.62
734.35	1.62
735.101	1.62
735.852	4.62
736.603	4.62
737.354	1.62
738.104	2.62
738.855	1.62
739.605	4.62
740.356	3.62
741.106	4.62
741.856	5.62
742.607	3.62
743.357	6.62
744.107	2.62
744.857	3.62
745.607	6.62
746.357	5.62
747.106	4.62
747.856	4.62
748.606	3.62
749.355	3.62
750.105	5.62
750.854	2.62
751.603	4.62
752.353	4.62
753.102	4.62
753.851	5.62
754.6	3.62
755.349	4.62
756.098	5.62
756.847	3.62
757.595	6.62
758.344	2.62
759.093	4.62
759.841	5.62
760.589	5.62
761.338	4.62
762.086	2.62
762.834	6.62
763.582	6.62
764.331	6.62
765.079	4.62
765.826	5.62
766.574	4.62
767.322	6.62
768.07	7.62
768.817	4.62
769.565	6.62
770.312	8.62
771.06	5.62
771.807	7.62
772.554	5.62
773.302	6.62
774.049	4.62
774.796	8.62
775.543	6.62
776.29	8.62
777.036	7.62
777.783	8.62
778.53	7.62
779.276	7.62
780.023	9.62
780.769	6.62
781.516	8.62
782.262	7.62
783.008	8.62
783.754	6.62
784.5	7.62
785.246	9.62
785.992	8.62
786.738	6.62
787.484	7.62
788.23	7.62
788.975	7.62
789.721	6.62
790.466	7.62
791.212	6.62
791.957	6.62
792.702	7.62
793.447	6.62
794.193	5.62
794.938	6.62
795.683	7.62
796.427	7.62
797.172	5.62
797.917	6.62
798.662	7.62
799.406	8.62
800.151	7.62
800.895	7.62
801.64	6.62
802.384	7.62
803.128	7.62
803.872	4.62
804.616	6.62
805.36	8.62
806.104	8.62
806.848	2.62
807.592	4.62
808.336	6.62
809.079	4.62
809.823	5.62
810.566	4.62
811.31	5.62
812.053	3.62
812.796	6.62
813.539	6.62
814.283	5.62
815.026	5.62
815.769	2.62
816.511	2.62
817.254	2.62
817.997	4.62
818.74	6.62
819.482	3.62
820.225	4.62
820.967	4.62
821.71	1.62
822.452	4.62
823.194	2.62
823.936	4.62
824.678	5.62
825.42	1.62
826.162	6.62
826.904	5.62
827.646	1.62
828.388	4.62
829.129	4.62
829.871	2.62
830.612	2.62
831.354	3.62
832.095	0.62
832.836	4.62
833.577	5.62
834.319	1.62
835.06	1.62
835.801	2.62
836.542	1.62
837.282	1.62
838.023	2.62
838.764	3.62
839.504	2.62
840.245	3.62
840.985	0.62
841.726	2.62
842.466	3.62
843.206	1.62
843.946	2.62
844.687	4.62
845.427	4.62
846.166	2.62
846.906	3.62
847.646	2.62
848.386	2.62
849.125	1.62
849.865	0.62
850.605	5.62
851.344	3.62
852.083	3.62
852.823	1.62
853.562	1.62
854.301	2.62
855.04	1.62
855.779	1.62
856.518	1.62
857.257	2.62
857.995	-0.38
858.734	0.62
859.473	1.62
860.211	1.62
860.95	3.62
861.688	-0.38
862.426	2.62
863.165	0.62
863.903	0.62
864.641	0.62
865.379	1.62
866.117	1.62
866.855	-1.38
867.593	1.62
868.33	2.62
869.068	0.62
869.806	1.62
870.543	1.62
871.28	2.62
872.018	-0.38
872.755	-1.38
873.492	3.62
874.229	0.62
874.967	3.62
875.703	-1.38
876.44	1.62
877.177	0.62
877.914	-1.38
878.651	0.62
879.387	-2.38
880.124	0.62
880.86	1.62
881.597	2.62
882.333	0.62
883.069	1.62
883.806	-0.38
884.542	0.62
885.278	2.62
886.014	0.62
886.749	1.62
887.485	1.62
888.221	-0.38
888.957	2.62
889.692	0.62
890.428	0.62
891.163	0.62
891.899	0.62
892.634	-1.38
893.369	1.62
894.104	2.62
894.839	0.62
895.574	3.62
896.309	0.62
897.044	0.62
897.779	0.62
898.514	1.62
899.248	1.62
899.983	-0.38
900.717	-0.38
901.452	-1.38
902.186	0.62
902.92	-0.38
903.654	-0.38
904.389	0.62
905.123	1.62
905.857	-0.38
906.59	0.62
907.324	1.62
908.058	3.62
908.792	-0.38
909.525	2.62
910.259	0.62
910.992	2.62
911.726	1.62
912.459	1.62
913.192	1.62
913.925	-1.38
914.658	1.62
915.391	-0.38
916.124	-1.38
916.857	0.62
917.59	-1.38
918.323	0.62
919.055	1.62
919.788	-0.38
920.521	0.62
921.253	-0.38
921.985	-0.38
922.718	-1.38
923.45	0.62
924.182	0.62
924.914	-0.38
925.646	1.62
926.378	0.62
927.11	-0.38
927.841	-1.38
928.573	-0.38
929.305	0.62
930.036	0.62
930.768	-1.38
931.499	0.62
932.23	1.62
932.962	-2.38
933.693	2.62
934.424	0.62
935.155	-1.38
935.886	0.62
936.617	-1.38
937.348	-1.38
938.078	0.62
938.809	-0.38
939.54	-0.38
940.27	0.62
941.001	-0.38
941.731	-1.38
942.461	-0.38
943.191	-0.38
943.922	1.62
944.652	0.62
945.382	0.62
946.112	-0.38
946.841	1.62
947.571	-0.38
948.301	-1.38
949.031	-1.38
949.76	1.62
950.49	-0.38
951.219	-0.38
951.948	-0.38
952.678	0.62
953.407	-2.38
954.136	-0.38
954.865	-0.38
955.594	0.62
956.323	-0.38
957.052	-3.38
957.78	0.62
958.509	0.62
959.238	-2.38
959.966	0.62
960.695	0.62
961.423	-0.38
962.151	-0.38
962.88	-0.38
963.608	0.62
964.336	-1.38
965.064	1.62
965.792	-2.38
966.52	-0.38
967.247	-0.38
967.975	1.62
968.703	0.62
969.43	0.62
970.158	0.62
970.885	1.62
971.613	0.62
972.34	0.62
973.067	0.62
973.794	-1.38
974.521	-0.38
975.248	-0.38
975.975	-0.38
976.702	-0.38
977.429	-2.38
978.156	-0.38
978.882	-0.38
979.609	-0.38
980.335	-2.38
981.062	-1.38
981.788	-0.38
982.514	0.62
983.24	1.62
983.967	1.62
984.693	2.62
985.419	0.62
986.144	-0.38
986.87	-0.38
987.596	-1.38
988.322	-1.38
989.047	1.62
989.773	-0.38
990.498	-0.38
991.224	0.62
991.949	1.62
992.674	-2.38
993.399	-2.38
994.124	0.62
994.849	-2.38
995.574	1.62
996.299	1.62
997.024	0.62
997.749	1.62
998.473	-2.38
999.198	-0.38
999.922	-0.38
1000.647	-0.38
1001.371	4.62
1002.095	-2.38
1002.82	-1.38
1003.544	-2.38
1004.268	0.62
1004.992	1.62
1005.716	2.62
1006.439	-0.38
1007.163	3.62
1007.887	2.62
1008.611	-0.38
1009.334	-1.38
1010.058	0.62
1010.781	-1.38
1011.504	1.62
1012.228	-0.38
1012.951	0.62
1013.674	0.62
1014.397	0.62
1015.12	-0.38
