节点500_285_QEPB04081__791__15-08-42-760.txt的数据

Date: Wed Nov 12 15:08:42 CST 2025
User: PC
Spectrometer: QEPB0408
触发模式: 0
积分时间 (秒): 1.000000E-2
Scans to average: 1
启用暗噪声校正: true
启用非线性校正: false
滑动平均宽度: 0
X轴模式: Wavelengths
Number of Pixels in Spectrum: 1044
>>>>>Begin Spectral Data<<<<<
220.843	3
221.644	2
222.444	2
223.244	0
224.045	3
224.845	4
225.645	0
226.445	3
227.245	2
228.045	4
228.845	2
229.645	4
230.444	3
231.244	5
232.043	2
232.843	2
233.642	5
234.442	3
235.241	3
236.04	4
236.839	3
237.638	1
238.437	2
239.236	2
240.035	5
240.833	4
241.632	6
242.43	2
243.229	5
244.027	2
244.826	5
245.624	5
246.422	5
247.22	4
248.018	4
248.816	6
249.614	4
250.412	7
251.21	7
252.007	4
252.805	7
253.602	5
254.4	6
255.197	8
255.994	9
256.791	6
257.589	6
258.386	8
259.183	7
259.979	7
260.776	9
261.573	6
262.37	10
263.166	9
263.963	10
264.759	9
265.556	10
266.352	8
267.148	9
267.944	14
268.74	8
269.536	11
270.332	13
271.128	14
271.924	10
272.719	11
273.515	13
274.311	12
275.106	14
275.901	10
276.697	15
277.492	14
278.287	15
279.082	15
279.877	17
280.672	16
281.467	14
282.262	14
283.056	16
283.851	15
284.646	16
285.44	16
286.234	14
287.029	16
287.823	15
288.617	16
289.411	14
290.205	17
290.999	14
291.793	17
292.587	16
293.381	15
294.174	15
294.968	14
295.761	14
296.555	12
297.348	12
298.141	10
298.935	13
299.728	13
300.521	12
301.314	14
302.107	11
302.899	14
303.692	11
304.485	11
305.277	13
306.07	12
306.862	12
307.655	12
308.447	11
309.239	12
310.031	10
310.823	11
311.615	9
312.407	8
313.199	9
313.991	8
314.783	11
315.574	7
316.366	9
317.157	9
317.949	7
318.74	9
319.531	8
320.322	6
321.113	5
321.904	7
322.695	6
323.486	8
324.277	5
325.068	5
325.858	8
326.649	6
327.439	7
328.23	5
329.02	7
329.81	5
330.6	7
331.391	8
332.181	6
332.971	6
333.76	7
334.55	3
335.34	6
336.13	7
336.919	7
337.709	5
338.498	5
339.287	5
340.077	4
340.866	6
341.655	6
342.444	3
343.233	6
344.022	7
344.811	4
345.6	3
346.388	6
347.177	4
347.965	7
348.754	6
349.542	4
350.33	6
351.119	7
351.907	7
352.695	2
353.483	7
354.271	5
355.059	3
355.846	7
356.634	5
357.422	5
358.209	6
358.997	5
359.784	4
360.571	4
361.359	3
362.146	4
362.933	7
363.72	5
364.507	3
365.294	4
366.081	4
366.867	5
367.654	3
368.44	4
369.227	2
370.013	3
370.8	2
371.586	5
372.372	6
373.158	6
373.944	7
374.73	5
375.516	2
376.302	4
377.088	2
377.873	4
378.659	5
379.445	4
380.23	3
381.015	6
381.801	5
382.586	3
383.371	5
384.156	5
384.941	3
385.726	6
386.511	2
387.296	5
388.08	6
388.865	6
389.649	5
390.434	5
391.218	4
392.003	6
392.787	7
393.571	5
394.355	4
395.139	6
395.923	3
396.707	6
397.491	5
398.274	8
399.058	7
399.842	6
400.625	5
401.408	7
402.192	7
402.975	6
403.758	7
404.541	7
405.324	6
406.107	6
406.89	4
407.673	7
408.456	8
409.238	5
410.021	10
410.803	9
411.586	7
412.368	6
413.151	8
413.933	6
414.715	7
415.497	8
416.279	7
417.061	8
417.843	7
418.624	7
419.406	8
420.188	9
420.969	6
421.751	7
422.532	10
423.313	11
424.095	9
424.876	10
425.657	7
426.438	10
427.219	9
428	12
428.78	10
429.561	12
430.342	12
431.122	12
431.903	15
432.683	14
433.464	12
434.244	18
435.024	17
435.804	18
436.584	17
437.364	20
438.144	18
438.924	21
439.704	18
440.483	23
441.263	24
442.042	24
442.822	25
443.601	25
444.38	30
445.16	31
445.939	33
446.718	33
447.497	35
448.276	39
449.054	46
449.833	49
450.612	54
451.391	57
452.169	62
452.948	69
453.726	79
454.504	84
455.282	92
456.061	104
456.839	112
457.617	126
458.395	137
459.172	157
459.95	172
460.728	194
461.506	219
462.283	239
463.061	267
463.838	291
464.615	335
465.393	368
466.17	408
466.947	449
467.724	495
468.501	552
469.278	613
470.055	682
470.831	742
471.608	835
472.385	909
473.161	1018
473.938	1127
474.714	1218
475.49	1345
476.266	1482
477.043	1636
477.819	1782
478.595	1955
479.371	2154
480.146	2325
480.922	2576
481.698	2793
482.473	3069
483.249	3364
484.024	3662
484.8	4010
485.575	4374
486.35	4758
487.126	5178
487.901	5634
488.676	6131
489.451	6639
490.225	7243
491	7821
491.775	8545
492.55	9240
493.324	9980
494.099	10713
494.873	11475
495.647	12332
496.422	13266
497.196	14190
497.97	15192
498.744	16126
499.518	17033
500.292	18028
501.066	18890
501.839	19836
502.613	20571
503.387	21374
504.16	22004
504.934	22419
505.707	22760
506.48	22953
507.253	23157
508.027	23164
508.8	23103
509.573	22976
510.346	22673
511.118	22113
511.891	21680
512.664	21064
513.437	20424
514.209	19681
514.982	19005
515.754	18296
516.526	17545
517.298	16855
518.071	16160
518.843	15552
519.615	14989
520.387	14406
521.159	13793
521.93	13215
522.702	12748
523.474	12232
524.245	11699
525.017	11168
525.788	10786
526.56	10297
527.331	9859
528.102	9416
528.873	9017
529.644	8576
530.415	8248
531.186	7806
531.957	7465
532.728	7083
533.498	6753
534.269	6364
535.039	6023
535.81	5723
536.58	5434
537.351	5134
538.121	4825
538.891	4574
539.661	4318
540.431	4110
541.201	3845
541.971	3643
542.741	3473
543.51	3278
544.28	3122
545.05	2966
545.819	2857
546.588	2698
547.358	2549
548.127	2449
548.896	2324
549.665	2222
550.434	2097
551.203	1964
551.972	1900
552.741	1785
553.51	1669
554.278	1593
555.047	1501
555.815	1424
556.584	1359
557.352	1268
558.121	1209
558.889	1141
559.657	1076
560.425	1016
561.193	949
561.961	903
562.729	852
563.496	801
564.264	758
565.032	720
565.799	687
566.567	636
567.334	617
568.101	569
568.869	549
569.636	518
570.403	478
571.17	441
571.937	420
572.704	407
573.471	380
574.237	361
575.004	342
575.771	327
576.537	305
577.303	277
578.07	262
578.836	247
579.602	234
580.368	220
581.134	214
581.9	203
582.666	191
583.432	177
584.198	174
584.964	159
585.729	157
586.495	146
587.26	138
588.025	133
588.791	125
589.556	115
590.321	112
591.086	104
591.851	98
592.616	94
593.381	98
594.146	85
594.911	87
595.675	77
596.44	77
597.204	68
597.969	69
598.733	65
599.497	64
600.261	61
601.025	55
601.79	55
602.553	50
603.317	48
604.081	48
604.845	46
605.609	43
606.372	45
607.136	40
607.899	39
608.662	40
609.426	36
610.189	32
610.952	32
611.715	25
612.478	28
613.241	28
614.004	27
614.767	24
615.529	26
616.292	26
617.055	22
617.817	22
618.579	23
619.342	20
620.104	22
620.866	23
621.628	17
622.39	17
623.152	20
623.914	19
624.676	16
625.438	18
626.199	17
626.961	15
627.722	12
628.484	15
629.245	13
630.006	17
630.768	14
631.529	11
632.29	12
633.051	10
633.812	12
634.573	10
635.333	9
636.094	10
636.855	8
637.615	12
638.376	10
639.136	9
639.896	8
640.657	8
641.417	9
642.177	9
642.937	8
643.697	8
644.457	7
645.216	8
645.976	7
646.736	8
647.495	7
648.255	8
649.014	5
649.774	8
650.533	6
651.292	6
652.051	8
652.81	4
653.569	5
654.328	5
655.087	3
655.846	7
656.604	8
657.363	8
658.121	6
658.88	5
659.638	6
660.397	3
661.155	7
661.913	4
662.671	5
663.429	6
664.187	4
664.945	5
665.703	6
666.46	5
667.218	4
667.976	5
668.733	7
669.49	7
670.248	4
671.005	4
671.762	6
672.519	4
673.276	5
674.033	3
674.79	4
675.547	2
676.304	3
677.06	5
677.817	4
678.574	5
679.33	3
680.086	3
680.843	3
681.599	6
682.355	4
683.111	4
683.867	3
684.623	4
685.379	3
686.135	3
686.89	2
687.646	3
688.402	3
689.157	2
689.912	5
690.668	3
691.423	4
692.178	1
692.933	2
693.688	4
694.443	5
695.198	4
695.953	3
696.708	3
697.462	6
698.217	5
698.972	3
699.726	2
700.48	3
701.235	3
701.989	2
702.743	1
703.497	3
704.251	6
705.005	4
705.759	4
706.513	2
707.266	3
708.02	3
708.774	2
709.527	3
710.28	3
711.034	4
711.787	5
712.54	3
713.293	4
714.046	1
714.799	2
715.552	2
716.305	3
717.058	2
717.81	4
718.563	3
719.315	2
720.068	4
720.82	4
721.573	3
722.325	3
723.077	3
723.829	6
724.581	2
725.333	5
726.085	2
726.836	3
727.588	3
728.34	2
729.091	5
729.843	4
730.594	5
731.346	1
732.097	4
732.848	1
733.599	0
734.35	5
735.101	4
735.852	4
736.603	2
737.354	3
738.104	2
738.855	2
739.605	4
740.356	3
741.106	5
741.856	6
742.607	4
743.357	5
744.107	4
744.857	5
745.607	4
746.357	4
747.106	3
747.856	4
748.606	6
749.355	3
750.105	7
750.854	4
751.603	4
752.353	5
753.102	2
753.851	4
754.6	5
755.349	6
756.098	2
756.847	5
757.595	4
758.344	5
759.093	5
759.841	8
760.589	6
761.338	3
762.086	4
762.834	5
763.582	5
764.331	7
765.079	5
765.826	7
766.574	6
767.322	6
768.07	7
768.817	6
769.565	4
770.312	8
771.06	6
771.807	6
772.554	7
773.302	9
774.049	6
774.796	5
775.543	5
776.29	6
777.036	8
777.783	6
778.53	9
779.276	7
780.023	8
780.769	7
781.516	9
782.262	7
783.008	9
783.754	5
784.5	6
785.246	5
785.992	9
786.738	6
787.484	7
788.23	6
788.975	7
789.721	8
790.466	7
791.212	9
791.957	8
792.702	6
793.447	6
794.193	8
794.938	6
795.683	8
796.427	8
797.172	5
797.917	5
798.662	6
799.406	6
800.151	7
800.895	8
801.64	5
802.384	5
803.128	5
803.872	5
804.616	7
805.36	6
806.104	5
806.848	5
807.592	5
808.336	6
809.079	5
809.823	7
810.566	7
811.31	3
812.053	4
812.796	5
813.539	7
814.283	2
815.026	4
815.769	4
816.511	6
817.254	5
817.997	4
818.74	4
819.482	5
820.225	4
820.967	3
821.71	1
822.452	6
823.194	3
823.936	5
824.678	5
825.42	3
826.162	4
826.904	2
827.646	5
828.388	3
829.129	1
829.871	3
830.612	4
831.354	3
832.095	2
832.836	4
833.577	4
834.319	6
835.06	3
835.801	2
836.542	4
837.282	1
838.023	3
838.764	3
839.504	4
840.245	3
840.985	1
841.726	4
842.466	5
843.206	1
843.946	4
844.687	2
845.427	2
846.166	4
846.906	3
847.646	3
848.386	3
849.125	3
849.865	4
850.605	3
851.344	3
852.083	4
852.823	2
853.562	3
854.301	2
855.04	4
855.779	3
856.518	1
857.257	2
857.995	3
858.734	3
859.473	2
860.211	1
860.95	2
861.688	1
862.426	1
863.165	2
863.903	3
864.641	4
865.379	2
866.117	0
866.855	1
867.593	3
868.33	2
869.068	0
869.806	3
870.543	1
871.28	1
872.018	2
872.755	-1
873.492	1
874.229	2
874.967	-1
875.703	1
876.44	3
877.177	1
877.914	1
878.651	3
879.387	2
880.124	2
880.86	0
881.597	2
882.333	1
883.069	1
883.806	-2
884.542	1
885.278	3
886.014	3
886.749	0
887.485	1
888.221	0
888.957	1
889.692	1
890.428	0
891.163	1
891.899	2
892.634	0
893.369	-1
894.104	0
894.839	0
895.574	1
896.309	3
897.044	1
897.779	-1
898.514	1
899.248	3
899.983	0
900.717	0
901.452	-1
902.186	1
902.92	0
903.654	-1
904.389	2
905.123	0
905.857	2
906.59	1
907.324	0
908.058	1
908.792	0
909.525	2
910.259	0
910.992	1
911.726	1
912.459	1
913.192	0
913.925	-1
914.658	0
915.391	-1
916.124	1
916.857	2
917.59	0
918.323	-2
919.055	0
919.788	1
920.521	1
921.253	0
921.985	1
922.718	0
923.45	2
924.182	0
924.914	0
925.646	-1
926.378	-2
927.11	-1
927.841	2
928.573	2
929.305	-1
930.036	0
930.768	0
931.499	2
932.23	2
932.962	0
933.693	0
934.424	0
935.155	0
935.886	1
936.617	0
937.348	1
938.078	1
938.809	0
939.54	-1
940.27	-1
941.001	1
941.731	1
942.461	1
943.191	-1
943.922	0
944.652	0
945.382	1
946.112	2
946.841	-1
947.571	0
948.301	-3
949.031	0
949.76	1
950.49	-2
951.219	3
951.948	1
952.678	0
953.407	0
954.136	0
954.865	0
955.594	2
956.323	1
957.052	-1
957.78	2
958.509	-1
959.238	0
959.966	1
960.695	0
961.423	1
962.151	2
962.88	0
963.608	0
964.336	-2
965.064	1
965.792	0
966.52	1
967.247	-1
967.975	1
968.703	1
969.43	0
970.158	1
970.885	-1
971.613	1
972.34	-2
973.067	0
973.794	2
974.521	0
975.248	3
975.975	0
976.702	1
977.429	1
978.156	1
978.882	1
979.609	1
980.335	1
981.062	0
981.788	1
982.514	0
983.24	-1
983.967	3
984.693	0
985.419	1
986.144	0
986.87	2
987.596	-2
988.322	0
989.047	2
989.773	0
990.498	2
991.224	0
991.949	1
992.674	3
993.399	-1
994.124	1
994.849	0
995.574	1
996.299	-2
997.024	-1
997.749	0
998.473	1
999.198	1
999.922	0
1000.647	-1
1001.371	4
1002.095	-2
1002.82	0
1003.544	-2
1004.268	1
1004.992	-1
1005.716	-1
1006.439	0
1007.163	1
1007.887	0
1008.611	1
1009.334	1
1010.058	1
1010.781	-1
1011.504	0
1012.228	-2
1012.951	0
1013.674	1
1014.397	-2
1015.12	1
