节点500_285_QEPB04081__389__15-02-01-661.txt的数据

Date: Wed Nov 12 15:02:01 CST 2025
User: PC
Spectrometer: QEPB0408
触发模式: 0
积分时间 (秒): 1.000000E-2
Scans to average: 1
启用暗噪声校正: true
启用非线性校正: false
滑动平均宽度: 0
X轴模式: Wavelengths
Number of Pixels in Spectrum: 1044
>>>>>Begin Spectral Data<<<<<
220.843	2.12
221.644	0.12
222.444	-0.88
223.244	1.12
224.045	2.12
224.845	3.12
225.645	1.12
226.445	2.12
227.245	1.12
228.045	2.12
228.845	0.12
229.645	0.12
230.444	2.12
231.244	5.12
232.043	2.12
232.843	4.12
233.642	2.12
234.442	4.12
235.241	3.12
236.04	1.12
236.839	3.12
237.638	2.12
238.437	3.12
239.236	3.12
240.035	5.12
240.833	6.12
241.632	4.12
242.43	4.12
243.229	4.12
244.027	3.12
244.826	4.12
245.624	5.12
246.422	4.12
247.22	3.12
248.018	4.12
248.816	6.12
249.614	5.12
250.412	5.12
251.21	4.12
252.007	5.12
252.805	8.12
253.602	6.12
254.4	6.12
255.197	7.12
255.994	6.12
256.791	9.12
257.589	9.12
258.386	6.12
259.183	8.12
259.979	8.12
260.776	9.12
261.573	10.12
262.37	9.12
263.166	7.12
263.963	11.12
264.759	12.12
265.556	11.12
266.352	10.12
267.148	11.12
267.944	11.12
268.74	15.12
269.536	13.12
270.332	14.12
271.128	12.12
271.924	13.12
272.719	14.12
273.515	13.12
274.311	14.12
275.106	19.12
275.901	15.12
276.697	13.12
277.492	17.12
278.287	18.12
279.082	16.12
279.877	20.12
280.672	18.12
281.467	18.12
282.262	21.12
283.056	16.12
283.851	19.12
284.646	17.12
285.44	18.12
286.234	16.12
287.029	20.12
287.823	17.12
288.617	18.12
289.411	17.12
290.205	15.12
290.999	17.12
291.793	16.12
292.587	18.12
293.381	15.12
294.174	14.12
294.968	15.12
295.761	13.12
296.555	14.12
297.348	16.12
298.141	13.12
298.935	17.12
299.728	14.12
300.521	13.12
301.314	12.12
302.107	13.12
302.899	12.12
303.692	10.12
304.485	12.12
305.277	13.12
306.07	12.12
306.862	13.12
307.655	12.12
308.447	12.12
309.239	9.12
310.031	11.12
310.823	9.12
311.615	9.12
312.407	12.12
313.199	7.12
313.991	8.12
314.783	9.12
315.574	11.12
316.366	8.12
317.157	9.12
317.949	10.12
318.74	7.12
319.531	9.12
320.322	9.12
321.113	7.12
321.904	7.12
322.695	8.12
323.486	6.12
324.277	8.12
325.068	6.12
325.858	6.12
326.649	8.12
327.439	10.12
328.23	6.12
329.02	6.12
329.81	6.12
330.6	5.12
331.391	8.12
332.181	5.12
332.971	4.12
333.76	8.12
334.55	4.12
335.34	5.12
336.13	8.12
336.919	6.12
337.709	3.12
338.498	6.12
339.287	5.12
340.077	5.12
340.866	8.12
341.655	5.12
342.444	7.12
343.233	4.12
344.022	8.12
344.811	5.12
345.6	7.12
346.388	6.12
347.177	6.12
347.965	5.12
348.754	5.12
349.542	6.12
350.33	5.12
351.119	7.12
351.907	3.12
352.695	3.12
353.483	5.12
354.271	4.12
355.059	5.12
355.846	8.12
356.634	5.12
357.422	5.12
358.209	4.12
358.997	7.12
359.784	4.12
360.571	5.12
361.359	3.12
362.146	6.12
362.933	7.12
363.72	7.12
364.507	6.12
365.294	5.12
366.081	3.12
366.867	6.12
367.654	3.12
368.44	6.12
369.227	4.12
370.013	4.12
370.8	4.12
371.586	3.12
372.372	3.12
373.158	3.12
373.944	5.12
374.73	5.12
375.516	6.12
376.302	3.12
377.088	3.12
377.873	5.12
378.659	3.12
379.445	6.12
380.23	4.12
381.015	2.12
381.801	3.12
382.586	4.12
383.371	4.12
384.156	3.12
384.941	4.12
385.726	5.12
386.511	4.12
387.296	4.12
388.08	5.12
388.865	5.12
389.649	4.12
390.434	4.12
391.218	4.12
392.003	6.12
392.787	5.12
393.571	6.12
394.355	7.12
395.139	5.12
395.923	6.12
396.707	4.12
397.491	6.12
398.274	7.12
399.058	7.12
399.842	5.12
400.625	5.12
401.408	8.12
402.192	7.12
402.975	5.12
403.758	9.12
404.541	7.12
405.324	5.12
406.107	5.12
406.89	6.12
407.673	7.12
408.456	7.12
409.238	6.12
410.021	9.12
410.803	8.12
411.586	5.12
412.368	8.12
413.151	9.12
413.933	6.12
414.715	10.12
415.497	9.12
416.279	8.12
417.061	8.12
417.843	7.12
418.624	10.12
419.406	7.12
420.188	8.12
420.969	9.12
421.751	10.12
422.532	9.12
423.313	9.12
424.095	11.12
424.876	10.12
425.657	10.12
426.438	12.12
427.219	12.12
428	13.12
428.78	12.12
429.561	12.12
430.342	13.12
431.122	14.12
431.903	12.12
432.683	16.12
433.464	16.12
434.244	15.12
435.024	14.12
435.804	16.12
436.584	15.12
437.364	17.12
438.144	20.12
438.924	22.12
439.704	20.12
440.483	20.12
441.263	24.12
442.042	25.12
442.822	26.12
443.601	27.12
444.38	32.12
445.16	30.12
445.939	33.12
446.718	34.12
447.497	39.12
448.276	41.12
449.054	44.12
449.833	50.12
450.612	55.12
451.391	55.12
452.169	62.12
452.948	71.12
453.726	74.12
454.504	80.12
455.282	91.12
456.061	99.12
456.839	109.12
457.617	124.12
458.395	135.12
459.172	149.12
459.95	169.12
460.728	188.12
461.506	211.12
462.283	228.12
463.061	263.12
463.838	289.12
464.615	331.12
465.393	368.12
466.17	407.12
466.947	453.12
467.724	514.12
468.501	569.12
469.278	623.12
470.055	699.12
470.831	771.12
471.608	856.12
472.385	955.12
473.161	1066.12
473.938	1174.12
474.714	1293.12
475.49	1442.12
476.266	1587.12
477.043	1752.12
477.819	1930.12
478.595	2126.12
479.371	2342.12
480.146	2588.12
480.922	2837.12
481.698	3131.12
482.473	3468.12
483.249	3810.12
484.024	4181.12
484.8	4608.12
485.575	5019.12
486.35	5523.12
487.126	6083.12
487.901	6655.12
488.676	7248.12
489.451	7984.12
490.225	8676.12
491	9457.12
491.775	10411.12
492.55	11310.12
493.324	12253.12
494.099	13179.12
494.873	14223.12
495.647	15328.12
496.422	16445.12
497.196	17623.12
497.97	18777.12
498.744	19995.12
499.518	21096.12
500.292	22281.12
501.066	23324.12
501.839	24331.12
502.613	25181.12
503.387	25983.12
504.16	26613.12
504.934	27005.12
505.707	27169.12
506.48	27264.12
507.253	27226.12
508.027	26974.12
508.8	26737.12
509.573	26359.12
510.346	25730.12
511.118	24960.12
511.891	24107.12
512.664	23364.12
513.437	22493.12
514.209	21566.12
514.982	20743.12
515.754	19841.12
516.526	18983.12
517.298	18127.12
518.071	17270.12
518.843	16629.12
519.615	16048.12
520.387	15392.12
521.159	14786.12
521.93	14183.12
522.702	13653.12
523.474	13113.12
524.245	12494.12
525.017	11993.12
525.788	11505.12
526.56	11001.12
527.331	10429.12
528.102	9993.12
528.873	9590.12
529.644	9075.12
530.415	8630.12
531.186	8198.12
531.957	7756.12
532.728	7399.12
533.498	7008.12
534.269	6599.12
535.039	6280.12
535.81	5900.12
536.58	5612.12
537.351	5262.12
538.121	4956.12
538.891	4687.12
539.661	4458.12
540.431	4204.12
541.201	3953.12
541.971	3753.12
542.741	3573.12
543.51	3388.12
544.28	3223.12
545.05	3064.12
545.819	2943.12
546.588	2764.12
547.358	2639.12
548.127	2514.12
548.896	2383.12
549.665	2253.12
550.434	2143.12
551.203	2021.12
551.972	1912.12
552.741	1801.12
553.51	1704.12
554.278	1626.12
555.047	1522.12
555.815	1438.12
556.584	1356.12
557.352	1274.12
558.121	1214.12
558.889	1142.12
559.657	1091.12
560.425	1029.12
561.193	966.12
561.961	898.12
562.729	859.12
563.496	819.12
564.264	761.12
565.032	733.12
565.799	678.12
566.567	652.12
567.334	612.12
568.101	570.12
568.869	555.12
569.636	511.12
570.403	487.12
571.17	452.12
571.937	431.12
572.704	404.12
573.471	378.12
574.237	353.12
575.004	342.12
575.771	320.12
576.537	310.12
577.303	283.12
578.07	270.12
578.836	256.12
579.602	239.12
580.368	225.12
581.134	217.12
581.9	201.12
582.666	188.12
583.432	183.12
584.198	169.12
584.964	165.12
585.729	150.12
586.495	148.12
587.26	135.12
588.025	137.12
588.791	127.12
589.556	115.12
590.321	112.12
591.086	103.12
591.851	101.12
592.616	96.12
593.381	88.12
594.146	86.12
594.911	86.12
595.675	79.12
596.44	73.12
597.204	72.12
597.969	68.12
598.733	68.12
599.497	64.12
600.261	59.12
601.025	60.12
601.79	55.12
602.553	50.12
603.317	50.12
604.081	45.12
604.845	47.12
605.609	44.12
606.372	44.12
607.136	38.12
607.899	39.12
608.662	39.12
609.426	36.12
610.189	33.12
610.952	35.12
611.715	31.12
612.478	29.12
613.241	28.12
614.004	27.12
614.767	26.12
615.529	26.12
616.292	26.12
617.055	26.12
617.817	25.12
618.579	22.12
619.342	23.12
620.104	21.12
620.866	19.12
621.628	20.12
622.39	19.12
623.152	21.12
623.914	18.12
624.676	18.12
625.438	17.12
626.199	17.12
626.961	13.12
627.722	16.12
628.484	14.12
629.245	15.12
630.006	14.12
630.768	13.12
631.529	11.12
632.29	12.12
633.051	12.12
633.812	14.12
634.573	11.12
635.333	10.12
636.094	11.12
636.855	10.12
637.615	11.12
638.376	8.12
639.136	13.12
639.896	7.12
640.657	8.12
641.417	9.12
642.177	7.12
642.937	9.12
643.697	6.12
644.457	6.12
645.216	8.12
645.976	6.12
646.736	7.12
647.495	7.12
648.255	8.12
649.014	5.12
649.774	7.12
650.533	6.12
651.292	6.12
652.051	7.12
652.81	7.12
653.569	5.12
654.328	6.12
655.087	4.12
655.846	5.12
656.604	6.12
657.363	6.12
658.121	3.12
658.88	4.12
659.638	5.12
660.397	5.12
661.155	5.12
661.913	7.12
662.671	7.12
663.429	6.12
664.187	4.12
664.945	5.12
665.703	2.12
666.46	5.12
667.218	4.12
667.976	7.12
668.733	5.12
669.49	5.12
670.248	3.12
671.005	5.12
671.762	5.12
672.519	4.12
673.276	5.12
674.033	5.12
674.79	3.12
675.547	5.12
676.304	2.12
677.06	5.12
677.817	6.12
678.574	2.12
679.33	3.12
680.086	3.12
680.843	3.12
681.599	3.12
682.355	5.12
683.111	4.12
683.867	2.12
684.623	5.12
685.379	3.12
686.135	4.12
686.89	2.12
687.646	4.12
688.402	4.12
689.157	2.12
689.912	4.12
690.668	4.12
691.423	4.12
692.178	4.12
692.933	4.12
693.688	3.12
694.443	2.12
695.198	3.12
695.953	6.12
696.708	2.12
697.462	3.12
698.217	4.12
698.972	3.12
699.726	2.12
700.48	5.12
701.235	1.12
701.989	1.12
702.743	5.12
703.497	1.12
704.251	4.12
705.005	3.12
705.759	3.12
706.513	2.12
707.266	2.12
708.02	4.12
708.774	4.12
709.527	5.12
710.28	4.12
711.034	3.12
711.787	3.12
712.54	2.12
713.293	3.12
714.046	4.12
714.799	4.12
715.552	4.12
716.305	3.12
717.058	2.12
717.81	4.12
718.563	3.12
719.315	3.12
720.068	5.12
720.82	1.12
721.573	1.12
722.325	2.12
723.077	3.12
723.829	5.12
724.581	4.12
725.333	2.12
726.085	4.12
726.836	3.12
727.588	4.12
728.34	3.12
729.091	4.12
729.843	3.12
730.594	4.12
731.346	5.12
732.097	2.12
732.848	2.12
733.599	4.12
734.35	3.12
735.101	3.12
735.852	4.12
736.603	1.12
737.354	3.12
738.104	4.12
738.855	4.12
739.605	3.12
740.356	3.12
741.106	5.12
741.856	5.12
742.607	5.12
743.357	5.12
744.107	4.12
744.857	4.12
745.607	3.12
746.357	4.12
747.106	5.12
747.856	4.12
748.606	2.12
749.355	5.12
750.105	4.12
750.854	4.12
751.603	4.12
752.353	7.12
753.102	5.12
753.851	6.12
754.6	5.12
755.349	2.12
756.098	6.12
756.847	7.12
757.595	5.12
758.344	4.12
759.093	5.12
759.841	6.12
760.589	6.12
761.338	6.12
762.086	6.12
762.834	6.12
763.582	7.12
764.331	6.12
765.079	5.12
765.826	5.12
766.574	11.12
767.322	7.12
768.07	8.12
768.817	5.12
769.565	5.12
770.312	7.12
771.06	7.12
771.807	5.12
772.554	6.12
773.302	9.12
774.049	7.12
774.796	6.12
775.543	11.12
776.29	6.12
777.036	8.12
777.783	6.12
778.53	9.12
779.276	5.12
780.023	8.12
780.769	8.12
781.516	9.12
782.262	7.12
783.008	6.12
783.754	7.12
784.5	8.12
785.246	9.12
785.992	8.12
786.738	9.12
787.484	9.12
788.23	9.12
788.975	8.12
789.721	8.12
790.466	9.12
791.212	8.12
791.957	4.12
792.702	7.12
793.447	7.12
794.193	8.12
794.938	10.12
795.683	8.12
796.427	6.12
797.172	6.12
797.917	6.12
798.662	5.12
799.406	4.12
800.151	6.12
800.895	6.12
801.64	8.12
802.384	8.12
803.128	7.12
803.872	4.12
804.616	6.12
805.36	7.12
806.104	4.12
806.848	6.12
807.592	5.12
808.336	6.12
809.079	4.12
809.823	4.12
810.566	6.12
811.31	5.12
812.053	2.12
812.796	4.12
813.539	4.12
814.283	7.12
815.026	3.12
815.769	6.12
816.511	4.12
817.254	5.12
817.997	5.12
818.74	2.12
819.482	5.12
820.225	2.12
820.967	2.12
821.71	4.12
822.452	4.12
823.194	5.12
823.936	0.12
824.678	2.12
825.42	3.12
826.162	3.12
826.904	3.12
827.646	4.12
828.388	3.12
829.129	2.12
829.871	3.12
830.612	3.12
831.354	2.12
832.095	5.12
832.836	3.12
833.577	3.12
834.319	2.12
835.06	4.12
835.801	2.12
836.542	2.12
837.282	3.12
838.023	2.12
838.764	4.12
839.504	3.12
840.245	2.12
840.985	3.12
841.726	-1.88
842.466	3.12
843.206	4.12
843.946	3.12
844.687	2.12
845.427	3.12
846.166	3.12
846.906	2.12
847.646	4.12
848.386	3.12
849.125	2.12
849.865	1.12
850.605	1.12
851.344	3.12
852.083	4.12
852.823	3.12
853.562	0.12
854.301	2.12
855.04	1.12
855.779	-0.88
856.518	1.12
857.257	1.12
857.995	3.12
858.734	2.12
859.473	0.12
860.211	1.12
860.95	-0.88
861.688	2.12
862.426	1.12
863.165	2.12
863.903	1.12
864.641	-0.88
865.379	2.12
866.117	0.12
866.855	0.12
867.593	0.12
868.33	1.12
869.068	1.12
869.806	1.12
870.543	0.12
871.28	-0.88
872.018	3.12
872.755	1.12
873.492	2.12
874.229	-0.88
874.967	2.12
875.703	1.12
876.44	0.12
877.177	0.12
877.914	3.12
878.651	1.12
879.387	0.12
880.124	1.12
880.86	0.12
881.597	1.12
882.333	2.12
883.069	1.12
883.806	0.12
884.542	0.12
885.278	0.12
886.014	-0.88
886.749	-0.88
887.485	-0.88
888.221	2.12
888.957	1.12
889.692	0.12
890.428	0.12
891.163	0.12
891.899	1.12
892.634	0.12
893.369	0.12
894.104	0.12
894.839	1.12
895.574	1.12
896.309	1.12
897.044	0.12
897.779	1.12
898.514	0.12
899.248	1.12
899.983	1.12
900.717	0.12
901.452	1.12
902.186	0.12
902.92	-2.88
903.654	0.12
904.389	0.12
905.123	0.12
905.857	1.12
906.59	0.12
907.324	0.12
908.058	1.12
908.792	-0.88
909.525	0.12
910.259	1.12
910.992	4.12
911.726	0.12
912.459	-1.88
913.192	-2.88
913.925	0.12
914.658	1.12
915.391	1.12
916.124	0.12
916.857	1.12
917.59	0.12
918.323	-0.88
919.055	0.12
919.788	-0.88
920.521	-0.88
921.253	-2.88
921.985	0.12
922.718	0.12
923.45	-0.88
924.182	-1.88
924.914	0.12
925.646	1.12
926.378	2.12
927.11	-0.88
927.841	-0.88
928.573	-0.88
929.305	-0.88
930.036	3.12
930.768	-0.88
931.499	1.12
932.23	0.12
932.962	0.12
933.693	1.12
934.424	-0.88
935.155	1.12
935.886	1.12
936.617	-0.88
937.348	1.12
938.078	-1.88
938.809	-0.88
939.54	-2.88
940.27	-1.88
941.001	-1.88
941.731	-1.88
942.461	-2.88
943.191	-2.88
943.922	-0.88
944.652	-0.88
945.382	-0.88
946.112	-1.88
946.841	1.12
947.571	2.12
948.301	-1.88
949.031	0.12
949.76	-1.88
950.49	-0.88
951.219	-2.88
951.948	0.12
952.678	-0.88
953.407	0.12
954.136	0.12
954.865	0.12
955.594	-0.88
956.323	0.12
957.052	1.12
957.78	-0.88
958.509	-3.88
959.238	-1.88
959.966	-0.88
960.695	-0.88
961.423	1.12
962.151	-0.88
962.88	1.12
963.608	-0.88
964.336	-0.88
965.064	-0.88
965.792	-1.88
966.52	-2.88
967.247	-0.88
967.975	1.12
968.703	1.12
969.43	-0.88
970.158	-2.88
970.885	-0.88
971.613	0.12
972.34	-2.88
973.067	2.12
973.794	0.12
974.521	2.12
975.248	0.12
975.975	0.12
976.702	0.12
977.429	-2.88
978.156	-1.88
978.882	0.12
979.609	1.12
980.335	0.12
981.062	0.12
981.788	0.12
982.514	-0.88
983.24	0.12
983.967	-2.88
984.693	-2.88
985.419	-0.88
986.144	0.12
986.87	0.12
987.596	1.12
988.322	0.12
989.047	1.12
989.773	1.12
990.498	2.12
991.224	-2.88
991.949	0.12
992.674	1.12
993.399	1.12
994.124	-1.88
994.849	-1.88
995.574	-0.88
996.299	0.12
997.024	1.12
997.749	2.12
998.473	-0.88
999.198	1.12
999.922	0.12
1000.647	-0.88
1001.371	2.12
1002.095	-0.88
1002.82	-1.88
1003.544	-1.88
1004.268	0.12
1004.992	-1.88
1005.716	-1.88
1006.439	-1.88
1007.163	1.12
1007.887	0.12
1008.611	-0.88
1009.334	1.12
1010.058	1.12
1010.781	-0.88
1011.504	0.12
1012.228	0.12
1012.951	0.12
1013.674	1.12
1014.397	1.12
1015.12	0.12
