节点500_285_QEPB04081__178__14-58-31-142.txt的数据

Date: Wed Nov 12 14:58:31 CST 2025
User: PC
Spectrometer: QEPB0408
触发模式: 0
积分时间 (秒): 1.000000E-2
Scans to average: 1
启用暗噪声校正: true
启用非线性校正: false
滑动平均宽度: 0
X轴模式: Wavelengths
Number of Pixels in Spectrum: 1044
>>>>>Begin Spectral Data<<<<<
220.843	0.62
221.644	1.62
222.444	1.62
223.244	1.62
224.045	4.62
224.845	-0.38
225.645	3.62
226.445	2.62
227.245	1.62
228.045	4.62
228.845	3.62
229.645	3.62
230.444	3.62
231.244	4.62
232.043	3.62
232.843	1.62
233.642	2.62
234.442	1.62
235.241	5.62
236.04	3.62
236.839	3.62
237.638	5.62
238.437	2.62
239.236	5.62
240.035	3.62
240.833	4.62
241.632	3.62
242.43	3.62
243.229	8.62
244.027	3.62
244.826	6.62
245.624	5.62
246.422	6.62
247.22	6.62
248.018	6.62
248.816	6.62
249.614	7.62
250.412	4.62
251.21	8.62
252.007	7.62
252.805	8.62
253.602	7.62
254.4	9.62
255.197	9.62
255.994	8.62
256.791	7.62
257.589	7.62
258.386	9.62
259.183	9.62
259.979	11.62
260.776	9.62
261.573	11.62
262.37	11.62
263.166	13.62
263.963	9.62
264.759	10.62
265.556	12.62
266.352	14.62
267.148	14.62
267.944	12.62
268.74	16.62
269.536	15.62
270.332	18.62
271.128	14.62
271.924	17.62
272.719	16.62
273.515	18.62
274.311	16.62
275.106	17.62
275.901	16.62
276.697	18.62
277.492	18.62
278.287	19.62
279.082	19.62
279.877	21.62
280.672	20.62
281.467	21.62
282.262	17.62
283.056	21.62
283.851	22.62
284.646	21.62
285.44	18.62
286.234	19.62
287.029	20.62
287.823	19.62
288.617	18.62
289.411	16.62
290.205	17.62
290.999	20.62
291.793	20.62
292.587	18.62
293.381	17.62
294.174	19.62
294.968	16.62
295.761	15.62
296.555	16.62
297.348	14.62
298.141	14.62
298.935	14.62
299.728	14.62
300.521	15.62
301.314	13.62
302.107	16.62
302.899	15.62
303.692	9.62
304.485	13.62
305.277	11.62
306.07	14.62
306.862	14.62
307.655	11.62
308.447	12.62
309.239	11.62
310.031	14.62
310.823	12.62
311.615	10.62
312.407	12.62
313.199	13.62
313.991	9.62
314.783	10.62
315.574	11.62
316.366	8.62
317.157	8.62
317.949	7.62
318.74	8.62
319.531	8.62
320.322	6.62
321.113	9.62
321.904	8.62
322.695	6.62
323.486	8.62
324.277	7.62
325.068	7.62
325.858	7.62
326.649	5.62
327.439	8.62
328.23	6.62
329.02	6.62
329.81	7.62
330.6	8.62
331.391	7.62
332.181	5.62
332.971	8.62
333.76	6.62
334.55	7.62
335.34	7.62
336.13	7.62
336.919	6.62
337.709	6.62
338.498	7.62
339.287	5.62
340.077	8.62
340.866	6.62
341.655	4.62
342.444	8.62
343.233	4.62
344.022	4.62
344.811	6.62
345.6	6.62
346.388	7.62
347.177	5.62
347.965	6.62
348.754	6.62
349.542	7.62
350.33	6.62
351.119	6.62
351.907	7.62
352.695	7.62
353.483	4.62
354.271	4.62
355.059	9.62
355.846	5.62
356.634	6.62
357.422	6.62
358.209	4.62
358.997	6.62
359.784	7.62
360.571	4.62
361.359	6.62
362.146	7.62
362.933	6.62
363.72	5.62
364.507	7.62
365.294	5.62
366.081	7.62
366.867	6.62
367.654	3.62
368.44	7.62
369.227	5.62
370.013	7.62
370.8	4.62
371.586	6.62
372.372	5.62
373.158	5.62
373.944	6.62
374.73	5.62
375.516	5.62
376.302	5.62
377.088	4.62
377.873	5.62
378.659	6.62
379.445	4.62
380.23	7.62
381.015	6.62
381.801	4.62
382.586	4.62
383.371	6.62
384.156	5.62
384.941	7.62
385.726	5.62
386.511	4.62
387.296	7.62
388.08	7.62
388.865	6.62
389.649	7.62
390.434	5.62
391.218	6.62
392.003	6.62
392.787	6.62
393.571	6.62
394.355	5.62
395.139	8.62
395.923	5.62
396.707	10.62
397.491	7.62
398.274	7.62
399.058	6.62
399.842	7.62
400.625	7.62
401.408	6.62
402.192	6.62
402.975	8.62
403.758	6.62
404.541	7.62
405.324	7.62
406.107	9.62
406.89	7.62
407.673	8.62
408.456	8.62
409.238	9.62
410.021	8.62
410.803	7.62
411.586	9.62
412.368	7.62
413.151	8.62
413.933	8.62
414.715	10.62
415.497	11.62
416.279	8.62
417.061	8.62
417.843	9.62
418.624	12.62
419.406	11.62
420.188	10.62
420.969	10.62
421.751	11.62
422.532	11.62
423.313	11.62
424.095	12.62
424.876	12.62
425.657	11.62
426.438	11.62
427.219	12.62
428	13.62
428.78	13.62
429.561	13.62
430.342	14.62
431.122	11.62
431.903	14.62
432.683	14.62
433.464	14.62
434.244	21.62
435.024	13.62
435.804	20.62
436.584	19.62
437.364	16.62
438.144	20.62
438.924	18.62
439.704	22.62
440.483	21.62
441.263	24.62
442.042	23.62
442.822	28.62
443.601	27.62
444.38	30.62
445.16	31.62
445.939	39.62
446.718	35.62
447.497	35.62
448.276	42.62
449.054	42.62
449.833	45.62
450.612	50.62
451.391	60.62
452.169	57.62
452.948	68.62
453.726	73.62
454.504	80.62
455.282	82.62
456.061	94.62
456.839	100.62
457.617	117.62
458.395	125.62
459.172	145.62
459.95	160.62
460.728	181.62
461.506	198.62
462.283	230.62
463.061	244.62
463.838	281.62
464.615	315.62
465.393	351.62
466.17	389.62
466.947	432.62
467.724	486.62
468.501	534.62
469.278	603.62
470.055	674.62
470.831	738.62
471.608	829.62
472.385	922.62
473.161	1033.62
473.938	1152.62
474.714	1272.62
475.49	1407.62
476.266	1557.62
477.043	1728.62
477.819	1910.62
478.595	2117.62
479.371	2352.62
480.146	2596.62
480.922	2845.62
481.698	3192.62
482.473	3493.62
483.249	3871.62
484.024	4260.62
484.8	4693.62
485.575	5176.62
486.35	5712.62
487.126	6269.62
487.901	6911.62
488.676	7609.62
489.451	8308.62
490.225	9105.62
491	10037.62
491.775	10910.62
492.55	11949.62
493.324	12962.62
494.099	13984.62
494.873	15095.62
495.647	16292.62
496.422	17444.62
497.196	18718.62
497.97	19989.62
498.744	21204.62
499.518	22404.62
500.292	23602.62
501.066	24697.62
501.839	25654.62
502.613	26529.62
503.387	27283.62
504.16	27797.62
504.934	28101.62
505.707	28176.62
506.48	28180.62
507.253	28000.62
508.027	27597.62
508.8	27162.62
509.573	26712.62
510.346	25995.62
511.118	25125.62
511.891	24303.62
512.664	23380.62
513.437	22413.62
514.209	21475.62
514.982	20560.62
515.754	19602.62
516.526	18731.62
517.298	17918.62
518.071	17072.62
518.843	16464.62
519.615	15877.62
520.387	15214.62
521.159	14601.62
521.93	14022.62
522.702	13480.62
523.474	12899.62
524.245	12323.62
525.017	11814.62
525.788	11329.62
526.56	10819.62
527.331	10314.62
528.102	9826.62
528.873	9337.62
529.644	8892.62
530.415	8455.62
531.186	7994.62
531.957	7575.62
532.728	7197.62
533.498	6805.62
534.269	6421.62
535.039	6065.62
535.81	5733.62
536.58	5397.62
537.351	5109.62
538.121	4810.62
538.891	4540.62
539.661	4307.62
540.431	4041.62
541.201	3858.62
541.971	3630.62
542.741	3445.62
543.51	3277.62
544.28	3160.62
545.05	2956.62
545.819	2839.62
546.588	2676.62
547.358	2573.62
548.127	2433.62
548.896	2310.62
549.665	2174.62
550.434	2074.62
551.203	1956.62
551.972	1856.62
552.741	1730.62
553.51	1659.62
554.278	1548.62
555.047	1475.62
555.815	1386.62
556.584	1318.62
557.352	1246.62
558.121	1157.62
558.889	1096.62
559.657	1042.62
560.425	984.62
561.193	923.62
561.961	866.62
562.729	831.62
563.496	772.62
564.264	737.62
565.032	692.62
565.799	662.62
566.567	623.62
567.334	588.62
568.101	552.62
568.869	522.62
569.636	493.62
570.403	462.62
571.17	440.62
571.937	410.62
572.704	392.62
573.471	363.62
574.237	344.62
575.004	325.62
575.771	304.62
576.537	287.62
577.303	269.62
578.07	264.62
578.836	245.62
579.602	227.62
580.368	215.62
581.134	204.62
581.9	197.62
582.666	184.62
583.432	173.62
584.198	157.62
584.964	158.62
585.729	148.62
586.495	143.62
587.26	136.62
588.025	129.62
588.791	121.62
589.556	112.62
590.321	109.62
591.086	99.62
591.851	93.62
592.616	87.62
593.381	94.62
594.146	86.62
594.911	80.62
595.675	77.62
596.44	72.62
597.204	73.62
597.969	66.62
598.733	63.62
599.497	57.62
600.261	56.62
601.025	55.62
601.79	50.62
602.553	49.62
603.317	45.62
604.081	48.62
604.845	47.62
605.609	44.62
606.372	40.62
607.136	38.62
607.899	36.62
608.662	36.62
609.426	35.62
610.189	35.62
610.952	33.62
611.715	32.62
612.478	29.62
613.241	28.62
614.004	28.62
614.767	25.62
615.529	25.62
616.292	22.62
617.055	22.62
617.817	19.62
618.579	21.62
619.342	21.62
620.104	19.62
620.866	20.62
621.628	19.62
622.39	22.62
623.152	21.62
623.914	16.62
624.676	20.62
625.438	14.62
626.199	17.62
626.961	17.62
627.722	14.62
628.484	14.62
629.245	12.62
630.006	13.62
630.768	14.62
631.529	13.62
632.29	13.62
633.051	12.62
633.812	15.62
634.573	10.62
635.333	11.62
636.094	12.62
636.855	11.62
637.615	10.62
638.376	10.62
639.136	7.62
639.896	8.62
640.657	9.62
641.417	9.62
642.177	10.62
642.937	8.62
643.697	5.62
644.457	9.62
645.216	8.62
645.976	8.62
646.736	8.62
647.495	7.62
648.255	8.62
649.014	7.62
649.774	7.62
650.533	7.62
651.292	6.62
652.051	8.62
652.81	6.62
653.569	8.62
654.328	7.62
655.087	3.62
655.846	5.62
656.604	5.62
657.363	6.62
658.121	3.62
658.88	7.62
659.638	6.62
660.397	6.62
661.155	6.62
661.913	4.62
662.671	7.62
663.429	4.62
664.187	4.62
664.945	6.62
665.703	3.62
666.46	4.62
667.218	5.62
667.976	7.62
668.733	4.62
669.49	6.62
670.248	5.62
671.005	4.62
671.762	5.62
672.519	3.62
673.276	3.62
674.033	5.62
674.79	3.62
675.547	3.62
676.304	1.62
677.06	5.62
677.817	3.62
678.574	5.62
679.33	5.62
680.086	3.62
680.843	4.62
681.599	3.62
682.355	5.62
683.111	5.62
683.867	4.62
684.623	3.62
685.379	4.62
686.135	3.62
686.89	4.62
687.646	4.62
688.402	4.62
689.157	2.62
689.912	5.62
690.668	5.62
691.423	5.62
692.178	5.62
692.933	2.62
693.688	4.62
694.443	5.62
695.198	2.62
695.953	3.62
696.708	2.62
697.462	3.62
698.217	2.62
698.972	3.62
699.726	2.62
700.48	5.62
701.235	5.62
701.989	5.62
702.743	3.62
703.497	3.62
704.251	1.62
705.005	3.62
705.759	2.62
706.513	6.62
707.266	3.62
708.02	3.62
708.774	4.62
709.527	4.62
710.28	5.62
711.034	5.62
711.787	2.62
712.54	3.62
713.293	4.62
714.046	3.62
714.799	3.62
715.552	3.62
716.305	4.62
717.058	2.62
717.81	4.62
718.563	1.62
719.315	5.62
720.068	5.62
720.82	5.62
721.573	3.62
722.325	3.62
723.077	3.62
723.829	3.62
724.581	4.62
725.333	5.62
726.085	3.62
726.836	3.62
727.588	5.62
728.34	4.62
729.091	3.62
729.843	4.62
730.594	4.62
731.346	4.62
732.097	2.62
732.848	5.62
733.599	3.62
734.35	5.62
735.101	1.62
735.852	2.62
736.603	5.62
737.354	6.62
738.104	3.62
738.855	3.62
739.605	5.62
740.356	5.62
741.106	2.62
741.856	6.62
742.607	4.62
743.357	6.62
744.107	6.62
744.857	4.62
745.607	6.62
746.357	4.62
747.106	4.62
747.856	4.62
748.606	3.62
749.355	5.62
750.105	4.62
750.854	5.62
751.603	4.62
752.353	4.62
753.102	5.62
753.851	6.62
754.6	7.62
755.349	4.62
756.098	5.62
756.847	3.62
757.595	6.62
758.344	5.62
759.093	6.62
759.841	5.62
760.589	5.62
761.338	5.62
762.086	6.62
762.834	5.62
763.582	7.62
764.331	8.62
765.079	7.62
765.826	8.62
766.574	8.62
767.322	8.62
768.07	7.62
768.817	6.62
769.565	6.62
770.312	8.62
771.06	10.62
771.807	7.62
772.554	6.62
773.302	7.62
774.049	9.62
774.796	11.62
775.543	8.62
776.29	9.62
777.036	7.62
777.783	8.62
778.53	7.62
779.276	10.62
780.023	11.62
780.769	10.62
781.516	6.62
782.262	9.62
783.008	9.62
783.754	8.62
784.5	8.62
785.246	11.62
785.992	8.62
786.738	8.62
787.484	7.62
788.23	7.62
788.975	8.62
789.721	9.62
790.466	8.62
791.212	7.62
791.957	11.62
792.702	8.62
793.447	9.62
794.193	9.62
794.938	5.62
795.683	9.62
796.427	9.62
797.172	9.62
797.917	6.62
798.662	7.62
799.406	8.62
800.151	7.62
800.895	7.62
801.64	7.62
802.384	8.62
803.128	6.62
803.872	6.62
804.616	7.62
805.36	6.62
806.104	7.62
806.848	6.62
807.592	6.62
808.336	5.62
809.079	5.62
809.823	5.62
810.566	5.62
811.31	4.62
812.053	5.62
812.796	3.62
813.539	8.62
814.283	5.62
815.026	5.62
815.769	4.62
816.511	4.62
817.254	4.62
817.997	6.62
818.74	6.62
819.482	2.62
820.225	4.62
820.967	5.62
821.71	3.62
822.452	4.62
823.194	3.62
823.936	4.62
824.678	2.62
825.42	5.62
826.162	6.62
826.904	3.62
827.646	4.62
828.388	2.62
829.129	3.62
829.871	4.62
830.612	1.62
831.354	4.62
832.095	4.62
832.836	4.62
833.577	6.62
834.319	5.62
835.06	5.62
835.801	4.62
836.542	5.62
837.282	3.62
838.023	4.62
838.764	3.62
839.504	5.62
840.245	3.62
840.985	4.62
841.726	4.62
842.466	3.62
843.206	3.62
843.946	3.62
844.687	1.62
845.427	4.62
846.166	3.62
846.906	3.62
847.646	3.62
848.386	1.62
849.125	3.62
849.865	4.62
850.605	2.62
851.344	4.62
852.083	3.62
852.823	4.62
853.562	1.62
854.301	1.62
855.04	2.62
855.779	2.62
856.518	2.62
857.257	0.62
857.995	1.62
858.734	4.62
859.473	2.62
860.211	3.62
860.95	2.62
861.688	3.62
862.426	3.62
863.165	0.62
863.903	1.62
864.641	0.62
865.379	0.62
866.117	2.62
866.855	2.62
867.593	1.62
868.33	1.62
869.068	1.62
869.806	0.62
870.543	0.62
871.28	3.62
872.018	2.62
872.755	1.62
873.492	2.62
874.229	2.62
874.967	-0.38
875.703	2.62
876.44	0.62
877.177	3.62
877.914	0.62
878.651	1.62
879.387	-0.38
880.124	1.62
880.86	1.62
881.597	2.62
882.333	0.62
883.069	0.62
883.806	1.62
884.542	1.62
885.278	-0.38
886.014	3.62
886.749	1.62
887.485	-0.38
888.221	-0.38
888.957	2.62
889.692	1.62
890.428	1.62
891.163	-0.38
891.899	0.62
892.634	-0.38
893.369	1.62
894.104	1.62
894.839	1.62
895.574	0.62
896.309	1.62
897.044	1.62
897.779	0.62
898.514	-0.38
899.248	0.62
899.983	1.62
900.717	0.62
901.452	-0.38
902.186	0.62
902.92	0.62
903.654	-0.38
904.389	-0.38
905.123	3.62
905.857	0.62
906.59	-0.38
907.324	1.62
908.058	-0.38
908.792	0.62
909.525	0.62
910.259	2.62
910.992	2.62
911.726	0.62
912.459	-0.38
913.192	0.62
913.925	0.62
914.658	1.62
915.391	1.62
916.124	0.62
916.857	-2.38
917.59	0.62
918.323	-0.38
919.055	0.62
919.788	2.62
920.521	-1.38
921.253	-0.38
921.985	2.62
922.718	1.62
923.45	0.62
924.182	0.62
924.914	0.62
925.646	0.62
926.378	2.62
927.11	0.62
927.841	1.62
928.573	2.62
929.305	0.62
930.036	2.62
930.768	1.62
931.499	1.62
932.23	-1.38
932.962	0.62
933.693	-0.38
934.424	-1.38
935.155	1.62
935.886	-0.38
936.617	1.62
937.348	0.62
938.078	0.62
938.809	2.62
939.54	0.62
940.27	-0.38
941.001	-0.38
941.731	-1.38
942.461	-0.38
943.191	0.62
943.922	1.62
944.652	-0.38
945.382	2.62
946.112	0.62
946.841	0.62
947.571	0.62
948.301	1.62
949.031	-1.38
949.76	3.62
950.49	1.62
951.219	1.62
951.948	0.62
952.678	2.62
953.407	1.62
954.136	-0.38
954.865	1.62
955.594	0.62
956.323	0.62
957.052	0.62
957.78	2.62
958.509	0.62
959.238	-2.38
959.966	-1.38
960.695	-1.38
961.423	-1.38
962.151	-0.38
962.88	-1.38
963.608	-0.38
964.336	-2.38
965.064	-0.38
965.792	-0.38
966.52	0.62
967.247	-0.38
967.975	1.62
968.703	0.62
969.43	2.62
970.158	1.62
970.885	-0.38
971.613	2.62
972.34	0.62
973.067	1.62
973.794	1.62
974.521	0.62
975.248	0.62
975.975	0.62
976.702	0.62
977.429	1.62
978.156	1.62
978.882	0.62
979.609	1.62
980.335	0.62
981.062	0.62
981.788	-0.38
982.514	1.62
983.24	0.62
983.967	0.62
984.693	-2.38
985.419	-0.38
986.144	1.62
986.87	0.62
987.596	1.62
988.322	-0.38
989.047	1.62
989.773	0.62
990.498	0.62
991.224	2.62
991.949	-0.38
992.674	2.62
993.399	-0.38
994.124	0.62
994.849	1.62
995.574	-0.38
996.299	2.62
997.024	-1.38
997.749	1.62
998.473	0.62
999.198	1.62
999.922	2.62
1000.647	-2.38
1001.371	3.62
1002.095	-1.38
1002.82	-0.38
1003.544	-0.38
1004.268	1.62
1004.992	-0.38
1005.716	-0.38
1006.439	3.62
1007.163	1.62
1007.887	3.62
1008.611	0.62
1009.334	0.62
1010.058	1.62
1010.781	1.62
1011.504	-0.38
1012.228	0.62
1012.951	-0.38
1013.674	-0.38
1014.397	-0.38
1015.12	-0.38
