节点500_285_QEPB04081__855__15-09-46-713.txt的数据

Date: Wed Nov 12 15:09:46 CST 2025
User: PC
Spectrometer: QEPB0408
触发模式: 0
积分时间 (秒): 1.000000E-2
Scans to average: 1
启用暗噪声校正: true
启用非线性校正: false
滑动平均宽度: 0
X轴模式: Wavelengths
Number of Pixels in Spectrum: 1044
>>>>>Begin Spectral Data<<<<<
220.843	1.5
221.644	0.5
222.444	0.5
223.244	0.5
224.045	1.5
224.845	2.5
225.645	-1.5
226.445	1.5
227.245	-0.5
228.045	1.5
228.845	3.5
229.645	1.5
230.444	3.5
231.244	0.5
232.043	1.5
232.843	1.5
233.642	2.5
234.442	4.5
235.241	1.5
236.04	4.5
236.839	0.5
237.638	3.5
238.437	2.5
239.236	0.5
240.035	2.5
240.833	4.5
241.632	2.5
242.43	2.5
243.229	6.5
244.027	4.5
244.826	4.5
245.624	1.5
246.422	2.5
247.22	2.5
248.018	3.5
248.816	3.5
249.614	4.5
250.412	6.5
251.21	5.5
252.007	6.5
252.805	6.5
253.602	2.5
254.4	5.5
255.197	9.5
255.994	6.5
256.791	7.5
257.589	4.5
258.386	7.5
259.183	9.5
259.979	7.5
260.776	6.5
261.573	8.5
262.37	9.5
263.166	7.5
263.963	8.5
264.759	9.5
265.556	11.5
266.352	9.5
267.148	10.5
267.944	10.5
268.74	9.5
269.536	11.5
270.332	11.5
271.128	12.5
271.924	12.5
272.719	10.5
273.515	12.5
274.311	13.5
275.106	16.5
275.901	14.5
276.697	13.5
277.492	14.5
278.287	11.5
279.082	15.5
279.877	14.5
280.672	15.5
281.467	17.5
282.262	12.5
283.056	15.5
283.851	17.5
284.646	15.5
285.44	16.5
286.234	15.5
287.029	19.5
287.823	14.5
288.617	18.5
289.411	16.5
290.205	17.5
290.999	16.5
291.793	14.5
292.587	15.5
293.381	14.5
294.174	16.5
294.968	17.5
295.761	16.5
296.555	15.5
297.348	15.5
298.141	16.5
298.935	16.5
299.728	14.5
300.521	13.5
301.314	13.5
302.107	11.5
302.899	12.5
303.692	12.5
304.485	10.5
305.277	11.5
306.07	11.5
306.862	10.5
307.655	11.5
308.447	12.5
309.239	11.5
310.031	12.5
310.823	9.5
311.615	8.5
312.407	9.5
313.199	12.5
313.991	7.5
314.783	8.5
315.574	8.5
316.366	7.5
317.157	8.5
317.949	5.5
318.74	8.5
319.531	7.5
320.322	8.5
321.113	8.5
321.904	7.5
322.695	8.5
323.486	6.5
324.277	8.5
325.068	5.5
325.858	7.5
326.649	7.5
327.439	4.5
328.23	6.5
329.02	7.5
329.81	4.5
330.6	6.5
331.391	7.5
332.181	6.5
332.971	6.5
333.76	6.5
334.55	5.5
335.34	5.5
336.13	6.5
336.919	6.5
337.709	5.5
338.498	5.5
339.287	4.5
340.077	5.5
340.866	5.5
341.655	4.5
342.444	7.5
343.233	6.5
344.022	5.5
344.811	6.5
345.6	4.5
346.388	7.5
347.177	5.5
347.965	6.5
348.754	4.5
349.542	6.5
350.33	4.5
351.119	5.5
351.907	6.5
352.695	6.5
353.483	6.5
354.271	6.5
355.059	3.5
355.846	6.5
356.634	3.5
357.422	6.5
358.209	1.5
358.997	3.5
359.784	4.5
360.571	4.5
361.359	6.5
362.146	3.5
362.933	6.5
363.72	1.5
364.507	3.5
365.294	5.5
366.081	3.5
366.867	6.5
367.654	3.5
368.44	5.5
369.227	3.5
370.013	3.5
370.8	1.5
371.586	1.5
372.372	4.5
373.158	2.5
373.944	4.5
374.73	3.5
375.516	5.5
376.302	6.5
377.088	5.5
377.873	2.5
378.659	6.5
379.445	4.5
380.23	4.5
381.015	5.5
381.801	3.5
382.586	3.5
383.371	4.5
384.156	4.5
384.941	2.5
385.726	6.5
386.511	2.5
387.296	6.5
388.08	4.5
388.865	4.5
389.649	4.5
390.434	3.5
391.218	4.5
392.003	3.5
392.787	6.5
393.571	6.5
394.355	4.5
395.139	7.5
395.923	2.5
396.707	7.5
397.491	4.5
398.274	6.5
399.058	7.5
399.842	4.5
400.625	6.5
401.408	5.5
402.192	7.5
402.975	6.5
403.758	3.5
404.541	5.5
405.324	7.5
406.107	7.5
406.89	8.5
407.673	5.5
408.456	6.5
409.238	8.5
410.021	6.5
410.803	7.5
411.586	5.5
412.368	6.5
413.151	8.5
413.933	7.5
414.715	5.5
415.497	10.5
416.279	6.5
417.061	9.5
417.843	8.5
418.624	10.5
419.406	7.5
420.188	10.5
420.969	8.5
421.751	10.5
422.532	11.5
423.313	10.5
424.095	7.5
424.876	9.5
425.657	11.5
426.438	11.5
427.219	10.5
428	11.5
428.78	12.5
429.561	14.5
430.342	13.5
431.122	13.5
431.903	15.5
432.683	13.5
433.464	16.5
434.244	16.5
435.024	12.5
435.804	13.5
436.584	15.5
437.364	17.5
438.144	18.5
438.924	23.5
439.704	24.5
440.483	20.5
441.263	24.5
442.042	22.5
442.822	28.5
443.601	26.5
444.38	29.5
445.16	34.5
445.939	35.5
446.718	37.5
447.497	42.5
448.276	45.5
449.054	51.5
449.833	54.5
450.612	57.5
451.391	61.5
452.169	71.5
452.948	74.5
453.726	83.5
454.504	95.5
455.282	100.5
456.061	115.5
456.839	122.5
457.617	138.5
458.395	153.5
459.172	172.5
459.95	193.5
460.728	214.5
461.506	232.5
462.283	263.5
463.061	291.5
463.838	320.5
464.615	363.5
465.393	402.5
466.17	438.5
466.947	497.5
467.724	552.5
468.501	597.5
469.278	671.5
470.055	740.5
470.831	824.5
471.608	902.5
472.385	1003.5
473.161	1101.5
473.938	1220.5
474.714	1340.5
475.49	1461.5
476.266	1601.5
477.043	1765.5
477.819	1954.5
478.595	2122.5
479.371	2331.5
480.146	2531.5
480.922	2783.5
481.698	3056.5
482.473	3331.5
483.249	3619.5
484.024	3959.5
484.8	4314.5
485.575	4672.5
486.35	5110.5
487.126	5582.5
487.901	6041.5
488.676	6581.5
489.451	7121.5
490.225	7783.5
491	8408.5
491.775	9138.5
492.55	9908.5
493.324	10680.5
494.099	11406.5
494.873	12286.5
495.647	13212.5
496.422	14134.5
497.196	15128.5
497.97	16156.5
498.744	17179.5
499.518	18146.5
500.292	19177.5
501.066	20134.5
501.839	21074.5
502.613	21952.5
503.387	22857.5
504.16	23499.5
504.934	24029.5
505.707	24431.5
506.48	24639.5
507.253	24802.5
508.027	24899.5
508.8	24852.5
509.573	24730.5
510.346	24466.5
511.118	23929.5
511.891	23395.5
512.664	22833.5
513.437	22192.5
514.209	21392.5
514.982	20683.5
515.754	19886.5
516.526	19087.5
517.298	18362.5
518.071	17608.5
518.843	16898.5
519.615	16313.5
520.387	15705.5
521.159	15048.5
521.93	14461.5
522.702	13918.5
523.474	13369.5
524.245	12726.5
525.017	12221.5
525.788	11773.5
526.56	11281.5
527.331	10742.5
528.102	10261.5
528.873	9819.5
529.644	9374.5
530.415	8992.5
531.186	8547.5
531.957	8159.5
532.728	7794.5
533.498	7399.5
534.269	6994.5
535.039	6662.5
535.81	6281.5
536.58	5928.5
537.351	5617.5
538.121	5281.5
538.891	5014.5
539.661	4768.5
540.431	4497.5
541.201	4267.5
541.971	4022.5
542.741	3813.5
543.51	3607.5
544.28	3441.5
545.05	3289.5
545.819	3133.5
546.588	2960.5
547.358	2813.5
548.127	2686.5
548.896	2559.5
549.665	2411.5
550.434	2276.5
551.203	2178.5
551.972	2059.5
552.741	1945.5
553.51	1850.5
554.278	1748.5
555.047	1636.5
555.815	1548.5
556.584	1479.5
557.352	1401.5
558.121	1332.5
558.889	1252.5
559.657	1178.5
560.425	1131.5
561.193	1051.5
561.961	997.5
562.729	940.5
563.496	890.5
564.264	845.5
565.032	790.5
565.799	745.5
566.567	707.5
567.334	663.5
568.101	638.5
568.869	605.5
569.636	559.5
570.403	522.5
571.17	501.5
571.937	472.5
572.704	442.5
573.471	421.5
574.237	390.5
575.004	369.5
575.771	351.5
576.537	330.5
577.303	306.5
578.07	299.5
578.836	279.5
579.602	260.5
580.368	248.5
581.134	237.5
581.9	223.5
582.666	206.5
583.432	201.5
584.198	188.5
584.964	175.5
585.729	169.5
586.495	156.5
587.26	155.5
588.025	140.5
588.791	139.5
589.556	130.5
590.321	122.5
591.086	116.5
591.851	106.5
592.616	105.5
593.381	100.5
594.146	93.5
594.911	90.5
595.675	85.5
596.44	80.5
597.204	77.5
597.969	72.5
598.733	69.5
599.497	66.5
600.261	67.5
601.025	65.5
601.79	57.5
602.553	55.5
603.317	52.5
604.081	53.5
604.845	49.5
605.609	45.5
606.372	44.5
607.136	42.5
607.899	40.5
608.662	40.5
609.426	36.5
610.189	36.5
610.952	36.5
611.715	35.5
612.478	30.5
613.241	32.5
614.004	30.5
614.767	26.5
615.529	27.5
616.292	27.5
617.055	23.5
617.817	26.5
618.579	25.5
619.342	22.5
620.104	23.5
620.866	19.5
621.628	21.5
622.39	19.5
623.152	20.5
623.914	18.5
624.676	18.5
625.438	17.5
626.199	12.5
626.961	14.5
627.722	18.5
628.484	14.5
629.245	13.5
630.006	13.5
630.768	10.5
631.529	15.5
632.29	16.5
633.051	12.5
633.812	13.5
634.573	11.5
635.333	7.5
636.094	12.5
636.855	11.5
637.615	10.5
638.376	10.5
639.136	8.5
639.896	9.5
640.657	9.5
641.417	9.5
642.177	9.5
642.937	7.5
643.697	6.5
644.457	8.5
645.216	9.5
645.976	7.5
646.736	8.5
647.495	7.5
648.255	7.5
649.014	9.5
649.774	4.5
650.533	8.5
651.292	5.5
652.051	8.5
652.81	6.5
653.569	8.5
654.328	5.5
655.087	5.5
655.846	6.5
656.604	3.5
657.363	6.5
658.121	5.5
658.88	6.5
659.638	6.5
660.397	5.5
661.155	5.5
661.913	2.5
662.671	4.5
663.429	5.5
664.187	5.5
664.945	4.5
665.703	6.5
666.46	4.5
667.218	2.5
667.976	5.5
668.733	3.5
669.49	3.5
670.248	6.5
671.005	3.5
671.762	3.5
672.519	3.5
673.276	5.5
674.033	4.5
674.79	1.5
675.547	4.5
676.304	3.5
677.06	5.5
677.817	1.5
678.574	4.5
679.33	5.5
680.086	4.5
680.843	1.5
681.599	3.5
682.355	4.5
683.111	2.5
683.867	3.5
684.623	3.5
685.379	2.5
686.135	2.5
686.89	1.5
687.646	3.5
688.402	3.5
689.157	2.5
689.912	3.5
690.668	4.5
691.423	1.5
692.178	1.5
692.933	4.5
693.688	1.5
694.443	3.5
695.198	4.5
695.953	3.5
696.708	3.5
697.462	2.5
698.217	3.5
698.972	3.5
699.726	1.5
700.48	1.5
701.235	2.5
701.989	4.5
702.743	2.5
703.497	5.5
704.251	0.5
705.005	2.5
705.759	2.5
706.513	4.5
707.266	1.5
708.02	2.5
708.774	3.5
709.527	2.5
710.28	0.5
711.034	4.5
711.787	2.5
712.54	4.5
713.293	2.5
714.046	2.5
714.799	4.5
715.552	4.5
716.305	1.5
717.058	4.5
717.81	2.5
718.563	1.5
719.315	6.5
720.068	2.5
720.82	3.5
721.573	1.5
722.325	1.5
723.077	1.5
723.829	2.5
724.581	5.5
725.333	2.5
726.085	2.5
726.836	3.5
727.588	2.5
728.34	1.5
729.091	5.5
729.843	4.5
730.594	3.5
731.346	4.5
732.097	1.5
732.848	1.5
733.599	0.5
734.35	-0.5
735.101	2.5
735.852	1.5
736.603	4.5
737.354	3.5
738.104	2.5
738.855	0.5
739.605	3.5
740.356	2.5
741.106	4.5
741.856	1.5
742.607	3.5
743.357	3.5
744.107	4.5
744.857	5.5
745.607	2.5
746.357	4.5
747.106	3.5
747.856	3.5
748.606	2.5
749.355	4.5
750.105	4.5
750.854	6.5
751.603	3.5
752.353	2.5
753.102	4.5
753.851	5.5
754.6	3.5
755.349	6.5
756.098	4.5
756.847	6.5
757.595	4.5
758.344	6.5
759.093	1.5
759.841	5.5
760.589	4.5
761.338	4.5
762.086	6.5
762.834	5.5
763.582	6.5
764.331	4.5
765.079	7.5
765.826	6.5
766.574	4.5
767.322	4.5
768.07	9.5
768.817	4.5
769.565	9.5
770.312	2.5
771.06	6.5
771.807	5.5
772.554	8.5
773.302	5.5
774.049	5.5
774.796	5.5
775.543	6.5
776.29	4.5
777.036	6.5
777.783	8.5
778.53	8.5
779.276	5.5
780.023	5.5
780.769	5.5
781.516	6.5
782.262	5.5
783.008	7.5
783.754	4.5
784.5	5.5
785.246	6.5
785.992	7.5
786.738	7.5
787.484	9.5
788.23	7.5
788.975	7.5
789.721	7.5
790.466	8.5
791.212	7.5
791.957	9.5
792.702	7.5
793.447	7.5
794.193	6.5
794.938	4.5
795.683	6.5
796.427	6.5
797.172	7.5
797.917	5.5
798.662	7.5
799.406	4.5
800.151	6.5
800.895	7.5
801.64	7.5
802.384	5.5
803.128	5.5
803.872	5.5
804.616	6.5
805.36	6.5
806.104	6.5
806.848	5.5
807.592	6.5
808.336	5.5
809.079	4.5
809.823	6.5
810.566	3.5
811.31	6.5
812.053	3.5
812.796	2.5
813.539	5.5
814.283	3.5
815.026	4.5
815.769	3.5
816.511	1.5
817.254	6.5
817.997	3.5
818.74	3.5
819.482	2.5
820.225	5.5
820.967	1.5
821.71	1.5
822.452	4.5
823.194	4.5
823.936	5.5
824.678	5.5
825.42	2.5
826.162	4.5
826.904	2.5
827.646	3.5
828.388	4.5
829.129	3.5
829.871	1.5
830.612	4.5
831.354	3.5
832.095	3.5
832.836	1.5
833.577	2.5
834.319	2.5
835.06	3.5
835.801	3.5
836.542	4.5
837.282	3.5
838.023	5.5
838.764	2.5
839.504	3.5
840.245	1.5
840.985	2.5
841.726	3.5
842.466	2.5
843.206	4.5
843.946	1.5
844.687	2.5
845.427	3.5
846.166	4.5
846.906	2.5
847.646	1.5
848.386	4.5
849.125	4.5
849.865	2.5
850.605	0.5
851.344	2.5
852.083	3.5
852.823	2.5
853.562	-1.5
854.301	2.5
855.04	1.5
855.779	3.5
856.518	1.5
857.257	2.5
857.995	1.5
858.734	1.5
859.473	0.5
860.211	3.5
860.95	1.5
861.688	1.5
862.426	-0.5
863.165	0.5
863.903	-1.5
864.641	2.5
865.379	-0.5
866.117	1.5
866.855	2.5
867.593	0.5
868.33	0.5
869.068	0.5
869.806	1.5
870.543	-0.5
871.28	0.5
872.018	1.5
872.755	4.5
873.492	-0.5
874.229	3.5
874.967	-0.5
875.703	1.5
876.44	-0.5
877.177	1.5
877.914	1.5
878.651	0.5
879.387	-0.5
880.124	-0.5
880.86	-0.5
881.597	-0.5
882.333	-0.5
883.069	1.5
883.806	-0.5
884.542	1.5
885.278	1.5
886.014	0.5
886.749	0.5
887.485	0.5
888.221	-0.5
888.957	1.5
889.692	1.5
890.428	1.5
891.163	-0.5
891.899	1.5
892.634	-1.5
893.369	0.5
894.104	1.5
894.839	0.5
895.574	0.5
896.309	-2.5
897.044	2.5
897.779	-2.5
898.514	-0.5
899.248	0.5
899.983	0.5
900.717	0.5
901.452	-0.5
902.186	1.5
902.92	0.5
903.654	0.5
904.389	0.5
905.123	0.5
905.857	-1.5
906.59	-0.5
907.324	0.5
908.058	-0.5
908.792	-1.5
909.525	-0.5
910.259	-2.5
910.992	-0.5
911.726	-0.5
912.459	-2.5
913.192	0.5
913.925	-0.5
914.658	0.5
915.391	-0.5
916.124	0.5
916.857	-1.5
917.59	-0.5
918.323	3.5
919.055	0.5
919.788	0.5
920.521	0.5
921.253	-0.5
921.985	0.5
922.718	0.5
923.45	-0.5
924.182	0.5
924.914	1.5
925.646	-3.5
926.378	-0.5
927.11	-0.5
927.841	0.5
928.573	-0.5
929.305	1.5
930.036	0.5
930.768	-0.5
931.499	0.5
932.23	-0.5
932.962	0.5
933.693	1.5
934.424	0.5
935.155	-0.5
935.886	1.5
936.617	2.5
937.348	0.5
938.078	-0.5
938.809	0.5
939.54	-0.5
940.27	-0.5
941.001	1.5
941.731	0.5
942.461	-0.5
943.191	-2.5
943.922	-1.5
944.652	-0.5
945.382	0.5
946.112	1.5
946.841	-0.5
947.571	-1.5
948.301	1.5
949.031	0.5
949.76	-0.5
950.49	-1.5
951.219	-2.5
951.948	0.5
952.678	0.5
953.407	-2.5
954.136	-0.5
954.865	1.5
955.594	-1.5
956.323	0.5
957.052	-1.5
957.78	1.5
958.509	-0.5
959.238	-0.5
959.966	-1.5
960.695	1.5
961.423	-0.5
962.151	0.5
962.88	-0.5
963.608	0.5
964.336	1.5
965.064	0.5
965.792	0.5
966.52	-0.5
967.247	-1.5
967.975	-2.5
968.703	0.5
969.43	1.5
970.158	-1.5
970.885	1.5
971.613	-2.5
972.34	-1.5
973.067	0.5
973.794	-2.5
974.521	-0.5
975.248	1.5
975.975	-0.5
976.702	0.5
977.429	-1.5
978.156	0.5
978.882	-1.5
979.609	-1.5
980.335	0.5
981.062	0.5
981.788	1.5
982.514	-1.5
983.24	-0.5
983.967	0.5
984.693	0.5
985.419	0.5
986.144	-2.5
986.87	-1.5
987.596	-1.5
988.322	0.5
989.047	-1.5
989.773	0.5
990.498	1.5
991.224	-2.5
991.949	-0.5
992.674	-2.5
993.399	-1.5
994.124	-0.5
994.849	0.5
995.574	-0.5
996.299	-1.5
997.024	-2.5
997.749	-0.5
998.473	-3.5
999.198	-0.5
999.922	-0.5
1000.647	0.5
1001.371	3.5
1002.095	-0.5
1002.82	-0.5
1003.544	-0.5
1004.268	0.5
1004.992	-1.5
1005.716	1.5
1006.439	-0.5
1007.163	2.5
1007.887	1.5
1008.611	0.5
1009.334	1.5
1010.058	-2.5
1010.781	0.5
1011.504	-0.5
1012.228	0.5
1012.951	0.5
1013.674	-1.5
1014.397	-1.5
1015.12	0.5
