节点500_285_QEPB04081__110__14-57-23-279.txt的数据

Date: Wed Nov 12 14:57:23 CST 2025
User: PC
Spectrometer: QEPB0408
触发模式: 0
积分时间 (秒): 1.000000E-2
Scans to average: 1
启用暗噪声校正: true
启用非线性校正: false
滑动平均宽度: 0
X轴模式: Wavelengths
Number of Pixels in Spectrum: 1044
>>>>>Begin Spectral Data<<<<<
220.843	-1.12
221.644	0.88
222.444	2.88
223.244	1.88
224.045	1.88
224.845	1.88
225.645	2.88
226.445	-0.12
227.245	-0.12
228.045	3.88
228.845	-0.12
229.645	0.88
230.444	3.88
231.244	3.88
232.043	3.88
232.843	4.88
233.642	4.88
234.442	6.88
235.241	3.88
236.04	3.88
236.839	1.88
237.638	2.88
238.437	0.88
239.236	2.88
240.035	3.88
240.833	6.88
241.632	4.88
242.43	6.88
243.229	4.88
244.027	0.88
244.826	4.88
245.624	7.88
246.422	3.88
247.22	4.88
248.018	5.88
248.816	5.88
249.614	4.88
250.412	5.88
251.21	4.88
252.007	7.88
252.805	7.88
253.602	5.88
254.4	6.88
255.197	9.88
255.994	5.88
256.791	9.88
257.589	7.88
258.386	8.88
259.183	7.88
259.979	8.88
260.776	12.88
261.573	10.88
262.37	11.88
263.166	9.88
263.963	11.88
264.759	9.88
265.556	12.88
266.352	12.88
267.148	12.88
267.944	13.88
268.74	14.88
269.536	12.88
270.332	15.88
271.128	16.88
271.924	13.88
272.719	17.88
273.515	16.88
274.311	15.88
275.106	17.88
275.901	17.88
276.697	17.88
277.492	19.88
278.287	15.88
279.082	16.88
279.877	19.88
280.672	17.88
281.467	19.88
282.262	17.88
283.056	20.88
283.851	20.88
284.646	17.88
285.44	19.88
286.234	19.88
287.029	19.88
287.823	14.88
288.617	19.88
289.411	18.88
290.205	19.88
290.999	18.88
291.793	18.88
292.587	19.88
293.381	16.88
294.174	16.88
294.968	16.88
295.761	13.88
296.555	16.88
297.348	12.88
298.141	15.88
298.935	17.88
299.728	14.88
300.521	14.88
301.314	14.88
302.107	12.88
302.899	11.88
303.692	11.88
304.485	12.88
305.277	12.88
306.07	10.88
306.862	12.88
307.655	12.88
308.447	10.88
309.239	10.88
310.031	9.88
310.823	12.88
311.615	9.88
312.407	10.88
313.199	8.88
313.991	10.88
314.783	9.88
315.574	6.88
316.366	8.88
317.157	6.88
317.949	8.88
318.74	5.88
319.531	7.88
320.322	7.88
321.113	6.88
321.904	8.88
322.695	6.88
323.486	8.88
324.277	5.88
325.068	4.88
325.858	6.88
326.649	4.88
327.439	7.88
328.23	6.88
329.02	7.88
329.81	6.88
330.6	5.88
331.391	6.88
332.181	5.88
332.971	4.88
333.76	5.88
334.55	5.88
335.34	5.88
336.13	4.88
336.919	7.88
337.709	4.88
338.498	6.88
339.287	6.88
340.077	2.88
340.866	7.88
341.655	6.88
342.444	7.88
343.233	7.88
344.022	5.88
344.811	4.88
345.6	3.88
346.388	9.88
347.177	4.88
347.965	5.88
348.754	5.88
349.542	6.88
350.33	8.88
351.119	6.88
351.907	7.88
352.695	7.88
353.483	4.88
354.271	5.88
355.059	5.88
355.846	4.88
356.634	4.88
357.422	3.88
358.209	5.88
358.997	5.88
359.784	2.88
360.571	7.88
361.359	5.88
362.146	3.88
362.933	4.88
363.72	5.88
364.507	5.88
365.294	4.88
366.081	6.88
366.867	6.88
367.654	5.88
368.44	4.88
369.227	4.88
370.013	4.88
370.8	6.88
371.586	2.88
372.372	4.88
373.158	3.88
373.944	3.88
374.73	4.88
375.516	3.88
376.302	4.88
377.088	4.88
377.873	3.88
378.659	5.88
379.445	4.88
380.23	6.88
381.015	3.88
381.801	6.88
382.586	6.88
383.371	2.88
384.156	6.88
384.941	5.88
385.726	4.88
386.511	5.88
387.296	4.88
388.08	6.88
388.865	4.88
389.649	7.88
390.434	4.88
391.218	5.88
392.003	6.88
392.787	5.88
393.571	4.88
394.355	3.88
395.139	6.88
395.923	5.88
396.707	5.88
397.491	6.88
398.274	6.88
399.058	6.88
399.842	5.88
400.625	4.88
401.408	6.88
402.192	4.88
402.975	5.88
403.758	6.88
404.541	5.88
405.324	4.88
406.107	6.88
406.89	8.88
407.673	6.88
408.456	10.88
409.238	7.88
410.021	9.88
410.803	6.88
411.586	8.88
412.368	6.88
413.151	9.88
413.933	9.88
414.715	8.88
415.497	9.88
416.279	8.88
417.061	8.88
417.843	9.88
418.624	9.88
419.406	11.88
420.188	11.88
420.969	8.88
421.751	11.88
422.532	8.88
423.313	10.88
424.095	10.88
424.876	12.88
425.657	10.88
426.438	13.88
427.219	13.88
428	11.88
428.78	11.88
429.561	14.88
430.342	12.88
431.122	11.88
431.903	12.88
432.683	14.88
433.464	15.88
434.244	15.88
435.024	13.88
435.804	15.88
436.584	17.88
437.364	18.88
438.144	19.88
438.924	19.88
439.704	21.88
440.483	23.88
441.263	25.88
442.042	23.88
442.822	24.88
443.601	27.88
444.38	24.88
445.16	29.88
445.939	31.88
446.718	32.88
447.497	37.88
448.276	39.88
449.054	40.88
449.833	47.88
450.612	49.88
451.391	55.88
452.169	57.88
452.948	65.88
453.726	69.88
454.504	75.88
455.282	84.88
456.061	92.88
456.839	103.88
457.617	113.88
458.395	126.88
459.172	142.88
459.95	152.88
460.728	174.88
461.506	191.88
462.283	216.88
463.061	242.88
463.838	266.88
464.615	299.88
465.393	334.88
466.17	374.88
466.947	414.88
467.724	476.88
468.501	535.88
469.278	586.88
470.055	662.88
470.831	734.88
471.608	826.88
472.385	918.88
473.161	1019.88
473.938	1136.88
474.714	1258.88
475.49	1397.88
476.266	1532.88
477.043	1733.88
477.819	1902.88
478.595	2130.88
479.371	2327.88
480.146	2604.88
480.922	2865.88
481.698	3193.88
482.473	3516.88
483.249	3892.88
484.024	4291.88
484.8	4766.88
485.575	5257.88
486.35	5790.88
487.126	6351.88
487.901	7029.88
488.676	7660.88
489.451	8476.88
490.225	9303.88
491	10198.88
491.775	11138.88
492.55	12186.88
493.324	13237.88
494.099	14316.88
494.873	15423.88
495.647	16662.88
496.422	17959.88
497.196	19228.88
497.97	20432.88
498.744	21726.88
499.518	22938.88
500.292	24170.88
501.066	25294.88
501.839	26124.88
502.613	27067.88
503.387	27789.88
504.16	28246.88
504.934	28565.88
505.707	28570.88
506.48	28437.88
507.253	28248.88
508.027	27868.88
508.8	27449.88
509.573	26803.88
510.346	25986.88
511.118	25191.88
511.891	24236.88
512.664	23329.88
513.437	22362.88
514.209	21336.88
514.982	20431.88
515.754	19459.88
516.526	18601.88
517.298	17796.88
518.071	16999.88
518.843	16383.88
519.615	15743.88
520.387	15164.88
521.159	14483.88
521.93	13898.88
522.702	13377.88
523.474	12872.88
524.245	12241.88
525.017	11709.88
525.788	11246.88
526.56	10706.88
527.331	10204.88
528.102	9756.88
528.873	9275.88
529.644	8788.88
530.415	8368.88
531.186	7904.88
531.957	7494.88
532.728	7110.88
533.498	6770.88
534.269	6311.88
535.039	6005.88
535.81	5647.88
536.58	5310.88
537.351	4986.88
538.121	4747.88
538.891	4479.88
539.661	4258.88
540.431	3978.88
541.201	3772.88
541.971	3593.88
542.741	3418.88
543.51	3214.88
544.28	3094.88
545.05	2963.88
545.819	2776.88
546.588	2645.88
547.358	2523.88
548.127	2374.88
548.896	2270.88
549.665	2149.88
550.434	2045.88
551.203	1922.88
551.972	1803.88
552.741	1716.88
553.51	1620.88
554.278	1545.88
555.047	1448.88
555.815	1362.88
556.584	1286.88
557.352	1210.88
558.121	1145.88
558.889	1073.88
559.657	1019.88
560.425	960.88
561.193	902.88
561.961	848.88
562.729	817.88
563.496	760.88
564.264	725.88
565.032	679.88
565.799	647.88
566.567	607.88
567.334	567.88
568.101	542.88
568.869	509.88
569.636	479.88
570.403	451.88
571.17	430.88
571.937	400.88
572.704	388.88
573.471	364.88
574.237	342.88
575.004	318.88
575.771	307.88
576.537	284.88
577.303	263.88
578.07	255.88
578.836	240.88
579.602	223.88
580.368	214.88
581.134	199.88
581.9	188.88
582.666	185.88
583.432	173.88
584.198	161.88
584.964	150.88
585.729	144.88
586.495	135.88
587.26	134.88
588.025	116.88
588.791	113.88
589.556	108.88
590.321	107.88
591.086	101.88
591.851	92.88
592.616	88.88
593.381	85.88
594.146	82.88
594.911	78.88
595.675	75.88
596.44	70.88
597.204	70.88
597.969	68.88
598.733	61.88
599.497	57.88
600.261	60.88
601.025	53.88
601.79	52.88
602.553	48.88
603.317	45.88
604.081	44.88
604.845	39.88
605.609	41.88
606.372	42.88
607.136	38.88
607.899	35.88
608.662	31.88
609.426	34.88
610.189	32.88
610.952	34.88
611.715	32.88
612.478	29.88
613.241	27.88
614.004	24.88
614.767	26.88
615.529	22.88
616.292	23.88
617.055	22.88
617.817	21.88
618.579	23.88
619.342	18.88
620.104	20.88
620.866	19.88
621.628	18.88
622.39	19.88
623.152	15.88
623.914	19.88
624.676	16.88
625.438	17.88
626.199	16.88
626.961	11.88
627.722	14.88
628.484	11.88
629.245	13.88
630.006	14.88
630.768	10.88
631.529	11.88
632.29	10.88
633.051	9.88
633.812	8.88
634.573	10.88
635.333	10.88
636.094	8.88
636.855	10.88
637.615	9.88
638.376	10.88
639.136	9.88
639.896	10.88
640.657	11.88
641.417	9.88
642.177	10.88
642.937	8.88
643.697	8.88
644.457	5.88
645.216	5.88
645.976	6.88
646.736	5.88
647.495	9.88
648.255	7.88
649.014	7.88
649.774	8.88
650.533	6.88
651.292	5.88
652.051	5.88
652.81	5.88
653.569	7.88
654.328	6.88
655.087	7.88
655.846	3.88
656.604	4.88
657.363	4.88
658.121	5.88
658.88	5.88
659.638	5.88
660.397	2.88
661.155	5.88
661.913	4.88
662.671	3.88
663.429	4.88
664.187	6.88
664.945	3.88
665.703	4.88
666.46	4.88
667.218	5.88
667.976	3.88
668.733	6.88
669.49	2.88
670.248	2.88
671.005	2.88
671.762	5.88
672.519	4.88
673.276	5.88
674.033	1.88
674.79	2.88
675.547	3.88
676.304	4.88
677.06	2.88
677.817	3.88
678.574	5.88
679.33	2.88
680.086	4.88
680.843	3.88
681.599	2.88
682.355	2.88
683.111	1.88
683.867	4.88
684.623	4.88
685.379	3.88
686.135	4.88
686.89	2.88
687.646	4.88
688.402	3.88
689.157	2.88
689.912	2.88
690.668	2.88
691.423	5.88
692.178	3.88
692.933	2.88
693.688	3.88
694.443	2.88
695.198	4.88
695.953	3.88
696.708	3.88
697.462	2.88
698.217	3.88
698.972	1.88
699.726	4.88
700.48	4.88
701.235	1.88
701.989	5.88
702.743	3.88
703.497	3.88
704.251	3.88
705.005	2.88
705.759	4.88
706.513	4.88
707.266	4.88
708.02	4.88
708.774	1.88
709.527	4.88
710.28	5.88
711.034	2.88
711.787	1.88
712.54	2.88
713.293	2.88
714.046	4.88
714.799	3.88
715.552	2.88
716.305	3.88
717.058	2.88
717.81	2.88
718.563	3.88
719.315	2.88
720.068	3.88
720.82	3.88
721.573	4.88
722.325	3.88
723.077	2.88
723.829	2.88
724.581	2.88
725.333	3.88
726.085	3.88
726.836	3.88
727.588	3.88
728.34	3.88
729.091	3.88
729.843	2.88
730.594	3.88
731.346	3.88
732.097	2.88
732.848	2.88
733.599	4.88
734.35	4.88
735.101	1.88
735.852	4.88
736.603	3.88
737.354	3.88
738.104	4.88
738.855	2.88
739.605	2.88
740.356	5.88
741.106	4.88
741.856	6.88
742.607	2.88
743.357	3.88
744.107	4.88
744.857	6.88
745.607	5.88
746.357	4.88
747.106	4.88
747.856	3.88
748.606	3.88
749.355	4.88
750.105	5.88
750.854	4.88
751.603	2.88
752.353	3.88
753.102	4.88
753.851	6.88
754.6	3.88
755.349	2.88
756.098	2.88
756.847	7.88
757.595	5.88
758.344	7.88
759.093	8.88
759.841	5.88
760.589	6.88
761.338	8.88
762.086	4.88
762.834	8.88
763.582	5.88
764.331	5.88
765.079	6.88
765.826	5.88
766.574	7.88
767.322	6.88
768.07	6.88
768.817	9.88
769.565	7.88
770.312	8.88
771.06	7.88
771.807	9.88
772.554	7.88
773.302	4.88
774.049	6.88
774.796	6.88
775.543	7.88
776.29	8.88
777.036	11.88
777.783	8.88
778.53	9.88
779.276	7.88
780.023	6.88
780.769	9.88
781.516	9.88
782.262	10.88
783.008	10.88
783.754	7.88
784.5	8.88
785.246	7.88
785.992	11.88
786.738	7.88
787.484	9.88
788.23	8.88
788.975	8.88
789.721	7.88
790.466	7.88
791.212	8.88
791.957	6.88
792.702	7.88
793.447	8.88
794.193	9.88
794.938	7.88
795.683	8.88
796.427	8.88
797.172	6.88
797.917	6.88
798.662	5.88
799.406	6.88
800.151	7.88
800.895	8.88
801.64	4.88
802.384	8.88
803.128	7.88
803.872	8.88
804.616	4.88
805.36	5.88
806.104	6.88
806.848	3.88
807.592	5.88
808.336	5.88
809.079	4.88
809.823	5.88
810.566	3.88
811.31	6.88
812.053	3.88
812.796	5.88
813.539	4.88
814.283	3.88
815.026	4.88
815.769	3.88
816.511	4.88
817.254	5.88
817.997	4.88
818.74	4.88
819.482	5.88
820.225	5.88
820.967	2.88
821.71	2.88
822.452	6.88
823.194	3.88
823.936	4.88
824.678	0.88
825.42	1.88
826.162	5.88
826.904	3.88
827.646	4.88
828.388	3.88
829.129	3.88
829.871	1.88
830.612	4.88
831.354	5.88
832.095	0.88
832.836	2.88
833.577	4.88
834.319	3.88
835.06	4.88
835.801	3.88
836.542	2.88
837.282	0.88
838.023	4.88
838.764	2.88
839.504	3.88
840.245	4.88
840.985	1.88
841.726	2.88
842.466	2.88
843.206	3.88
843.946	3.88
844.687	3.88
845.427	3.88
846.166	0.88
846.906	4.88
847.646	0.88
848.386	3.88
849.125	3.88
849.865	3.88
850.605	4.88
851.344	0.88
852.083	2.88
852.823	2.88
853.562	3.88
854.301	1.88
855.04	1.88
855.779	3.88
856.518	1.88
857.257	1.88
857.995	1.88
858.734	2.88
859.473	2.88
860.211	0.88
860.95	2.88
861.688	0.88
862.426	0.88
863.165	-0.12
863.903	0.88
864.641	0.88
865.379	1.88
866.117	2.88
866.855	2.88
867.593	1.88
868.33	1.88
869.068	-0.12
869.806	2.88
870.543	2.88
871.28	5.88
872.018	1.88
872.755	-1.12
873.492	2.88
874.229	0.88
874.967	1.88
875.703	2.88
876.44	-0.12
877.177	-0.12
877.914	-1.12
878.651	1.88
879.387	-1.12
880.124	1.88
880.86	0.88
881.597	-0.12
882.333	0.88
883.069	-0.12
883.806	0.88
884.542	-0.12
885.278	0.88
886.014	0.88
886.749	0.88
887.485	0.88
888.221	-0.12
888.957	-1.12
889.692	0.88
890.428	-0.12
891.163	1.88
891.899	0.88
892.634	-0.12
893.369	0.88
894.104	-3.12
894.839	-0.12
895.574	1.88
896.309	-0.12
897.044	-1.12
897.779	-0.12
898.514	-1.12
899.248	-0.12
899.983	-0.12
900.717	-1.12
901.452	1.88
902.186	-0.12
902.92	-2.12
903.654	1.88
904.389	-0.12
905.123	0.88
905.857	-0.12
906.59	0.88
907.324	0.88
908.058	-1.12
908.792	1.88
909.525	-1.12
910.259	0.88
910.992	-0.12
911.726	-0.12
912.459	-1.12
913.192	-1.12
913.925	1.88
914.658	0.88
915.391	0.88
916.124	-1.12
916.857	-1.12
917.59	-0.12
918.323	-2.12
919.055	1.88
919.788	-0.12
920.521	-2.12
921.253	0.88
921.985	-1.12
922.718	1.88
923.45	0.88
924.182	1.88
924.914	-0.12
925.646	-0.12
926.378	-0.12
927.11	-2.12
927.841	1.88
928.573	0.88
929.305	-1.12
930.036	-1.12
930.768	1.88
931.499	1.88
932.23	-2.12
932.962	-1.12
933.693	0.88
934.424	-0.12
935.155	0.88
935.886	-1.12
936.617	0.88
937.348	0.88
938.078	0.88
938.809	-0.12
939.54	-2.12
940.27	-0.12
941.001	0.88
941.731	-0.12
942.461	-1.12
943.191	0.88
943.922	-1.12
944.652	-1.12
945.382	1.88
946.112	-2.12
946.841	-0.12
947.571	-0.12
948.301	0.88
949.031	-1.12
949.76	-2.12
950.49	-1.12
951.219	-1.12
951.948	-0.12
952.678	-2.12
953.407	-2.12
954.136	1.88
954.865	-1.12
955.594	-1.12
956.323	-0.12
957.052	0.88
957.78	0.88
958.509	0.88
959.238	0.88
959.966	0.88
960.695	0.88
961.423	0.88
962.151	0.88
962.88	0.88
963.608	-2.12
964.336	-0.12
965.064	-1.12
965.792	-1.12
966.52	1.88
967.247	-0.12
967.975	-0.12
968.703	-0.12
969.43	0.88
970.158	0.88
970.885	-2.12
971.613	0.88
972.34	-1.12
973.067	-0.12
973.794	-2.12
974.521	-0.12
975.248	-4.12
975.975	-0.12
976.702	1.88
977.429	-2.12
978.156	-2.12
978.882	1.88
979.609	-1.12
980.335	0.88
981.062	1.88
981.788	0.88
982.514	0.88
983.24	-1.12
983.967	-2.12
984.693	-0.12
985.419	0.88
986.144	-2.12
986.87	-1.12
987.596	0.88
988.322	-0.12
989.047	0.88
989.773	0.88
990.498	-0.12
991.224	0.88
991.949	-1.12
992.674	0.88
993.399	-1.12
994.124	-0.12
994.849	-0.12
995.574	0.88
996.299	0.88
997.024	-0.12
997.749	0.88
998.473	-0.12
999.198	-1.12
999.922	-0.12
1000.647	0.88
1001.371	5.88
1002.095	-0.12
1002.82	-3.12
1003.544	-0.12
1004.268	-0.12
1004.992	-0.12
1005.716	-1.12
1006.439	1.88
1007.163	1.88
1007.887	0.88
1008.611	0.88
1009.334	-0.12
1010.058	-0.12
1010.781	-1.12
1011.504	0.88
1012.228	-0.12
1012.951	-0.12
1013.674	-0.12
1014.397	-3.12
1015.12	0.88
