节点500_285_QEPB04081__577__15-05-09-187.txt的数据

Date: Wed Nov 12 15:05:09 CST 2025
User: PC
Spectrometer: QEPB0408
触发模式: 0
积分时间 (秒): 1.000000E-2
Scans to average: 1
启用暗噪声校正: true
启用非线性校正: false
滑动平均宽度: 0
X轴模式: Wavelengths
Number of Pixels in Spectrum: 1044
>>>>>Begin Spectral Data<<<<<
220.843	1.62
221.644	3.62
222.444	-1.38
223.244	0.62
224.045	1.62
224.845	3.62
225.645	-0.38
226.445	1.62
227.245	0.62
228.045	0.62
228.845	2.62
229.645	1.62
230.444	3.62
231.244	2.62
232.043	3.62
232.843	2.62
233.642	5.62
234.442	3.62
235.241	1.62
236.04	1.62
236.839	2.62
237.638	5.62
238.437	4.62
239.236	0.62
240.035	4.62
240.833	3.62
241.632	4.62
242.43	1.62
243.229	3.62
244.027	2.62
244.826	5.62
245.624	2.62
246.422	4.62
247.22	4.62
248.018	6.62
248.816	6.62
249.614	3.62
250.412	5.62
251.21	8.62
252.007	5.62
252.805	6.62
253.602	7.62
254.4	5.62
255.197	9.62
255.994	7.62
256.791	8.62
257.589	8.62
258.386	7.62
259.183	6.62
259.979	8.62
260.776	9.62
261.573	9.62
262.37	5.62
263.166	10.62
263.963	9.62
264.759	11.62
265.556	6.62
266.352	12.62
267.148	11.62
267.944	10.62
268.74	11.62
269.536	12.62
270.332	12.62
271.128	12.62
271.924	17.62
272.719	15.62
273.515	13.62
274.311	16.62
275.106	12.62
275.901	17.62
276.697	12.62
277.492	16.62
278.287	17.62
279.082	16.62
279.877	15.62
280.672	17.62
281.467	15.62
282.262	19.62
283.056	17.62
283.851	18.62
284.646	18.62
285.44	18.62
286.234	16.62
287.029	17.62
287.823	17.62
288.617	18.62
289.411	16.62
290.205	16.62
290.999	17.62
291.793	17.62
292.587	14.62
293.381	16.62
294.174	14.62
294.968	16.62
295.761	12.62
296.555	11.62
297.348	16.62
298.141	12.62
298.935	15.62
299.728	12.62
300.521	14.62
301.314	13.62
302.107	12.62
302.899	11.62
303.692	11.62
304.485	12.62
305.277	12.62
306.07	11.62
306.862	13.62
307.655	13.62
308.447	12.62
309.239	10.62
310.031	11.62
310.823	9.62
311.615	10.62
312.407	11.62
313.199	8.62
313.991	9.62
314.783	8.62
315.574	10.62
316.366	6.62
317.157	10.62
317.949	8.62
318.74	6.62
319.531	7.62
320.322	7.62
321.113	6.62
321.904	6.62
322.695	9.62
323.486	7.62
324.277	6.62
325.068	6.62
325.858	7.62
326.649	7.62
327.439	7.62
328.23	6.62
329.02	7.62
329.81	4.62
330.6	8.62
331.391	4.62
332.181	8.62
332.971	4.62
333.76	3.62
334.55	5.62
335.34	7.62
336.13	7.62
336.919	6.62
337.709	5.62
338.498	5.62
339.287	6.62
340.077	6.62
340.866	4.62
341.655	7.62
342.444	6.62
343.233	5.62
344.022	4.62
344.811	6.62
345.6	6.62
346.388	4.62
347.177	3.62
347.965	4.62
348.754	4.62
349.542	5.62
350.33	3.62
351.119	6.62
351.907	5.62
352.695	5.62
353.483	5.62
354.271	2.62
355.059	4.62
355.846	2.62
356.634	4.62
357.422	4.62
358.209	4.62
358.997	4.62
359.784	4.62
360.571	3.62
361.359	4.62
362.146	5.62
362.933	4.62
363.72	3.62
364.507	7.62
365.294	2.62
366.081	5.62
366.867	3.62
367.654	3.62
368.44	3.62
369.227	5.62
370.013	5.62
370.8	5.62
371.586	4.62
372.372	6.62
373.158	5.62
373.944	5.62
374.73	1.62
375.516	4.62
376.302	4.62
377.088	7.62
377.873	1.62
378.659	6.62
379.445	5.62
380.23	4.62
381.015	4.62
381.801	4.62
382.586	5.62
383.371	5.62
384.156	4.62
384.941	5.62
385.726	3.62
386.511	6.62
387.296	4.62
388.08	4.62
388.865	4.62
389.649	4.62
390.434	5.62
391.218	5.62
392.003	6.62
392.787	6.62
393.571	5.62
394.355	7.62
395.139	6.62
395.923	6.62
396.707	7.62
397.491	7.62
398.274	5.62
399.058	5.62
399.842	9.62
400.625	8.62
401.408	7.62
402.192	6.62
402.975	6.62
403.758	5.62
404.541	5.62
405.324	10.62
406.107	5.62
406.89	7.62
407.673	8.62
408.456	7.62
409.238	7.62
410.021	5.62
410.803	8.62
411.586	6.62
412.368	7.62
413.151	7.62
413.933	8.62
414.715	9.62
415.497	9.62
416.279	7.62
417.061	4.62
417.843	9.62
418.624	9.62
419.406	7.62
420.188	11.62
420.969	9.62
421.751	10.62
422.532	10.62
423.313	10.62
424.095	11.62
424.876	8.62
425.657	8.62
426.438	12.62
427.219	10.62
428	14.62
428.78	11.62
429.561	13.62
430.342	12.62
431.122	13.62
431.903	13.62
432.683	13.62
433.464	15.62
434.244	13.62
435.024	17.62
435.804	16.62
436.584	19.62
437.364	17.62
438.144	19.62
438.924	21.62
439.704	22.62
440.483	21.62
441.263	22.62
442.042	24.62
442.822	25.62
443.601	26.62
444.38	29.62
445.16	32.62
445.939	33.62
446.718	38.62
447.497	37.62
448.276	39.62
449.054	43.62
449.833	50.62
450.612	56.62
451.391	61.62
452.169	69.62
452.948	67.62
453.726	77.62
454.504	84.62
455.282	94.62
456.061	102.62
456.839	119.62
457.617	127.62
458.395	145.62
459.172	161.62
459.95	175.62
460.728	203.62
461.506	217.62
462.283	246.62
463.061	274.62
463.838	306.62
464.615	341.62
465.393	389.62
466.17	425.62
466.947	461.62
467.724	522.62
468.501	587.62
469.278	642.62
470.055	712.62
470.831	793.62
471.608	885.62
472.385	991.62
473.161	1090.62
473.938	1190.62
474.714	1324.62
475.49	1449.62
476.266	1590.62
477.043	1759.62
477.819	1947.62
478.595	2126.62
479.371	2337.62
480.146	2575.62
480.922	2828.62
481.698	3110.62
482.473	3412.62
483.249	3751.62
484.024	4103.62
484.8	4502.62
485.575	4907.62
486.35	5380.62
487.126	5869.62
487.901	6435.62
488.676	7016.62
489.451	7688.62
490.225	8348.62
491	9080.62
491.775	9885.62
492.55	10775.62
493.324	11647.62
494.099	12533.62
494.873	13429.62
495.647	14519.62
496.422	15579.62
497.196	16608.62
497.97	17783.62
498.744	18885.62
499.518	20026.62
500.292	21042.62
501.066	22087.62
501.839	23092.62
502.613	23953.62
503.387	24777.62
504.16	25491.62
504.934	25855.62
505.707	26225.62
506.48	26280.62
507.253	26451.62
508.027	26252.62
508.8	26049.62
509.573	25810.62
510.346	25344.62
511.118	24700.62
511.891	23975.62
512.664	23265.62
513.437	22456.62
514.209	21650.62
514.982	20818.62
515.754	19935.62
516.526	19102.62
517.298	18317.62
518.071	17472.62
518.843	16854.62
519.615	16234.62
520.387	15585.62
521.159	14920.62
521.93	14340.62
522.702	13763.62
523.474	13176.62
524.245	12668.62
525.017	12096.62
525.788	11697.62
526.56	11115.62
527.331	10657.62
528.102	10156.62
528.873	9705.62
529.644	9258.62
530.415	8819.62
531.186	8381.62
531.957	7957.62
532.728	7555.62
533.498	7201.62
534.269	6817.62
535.039	6413.62
535.81	6078.62
536.58	5737.62
537.351	5397.62
538.121	5117.62
538.891	4835.62
539.661	4588.62
540.431	4327.62
541.201	4069.62
541.971	3878.62
542.741	3661.62
543.51	3486.62
544.28	3321.62
545.05	3177.62
545.819	3014.62
546.588	2844.62
547.358	2696.62
548.127	2581.62
548.896	2436.62
549.665	2340.62
550.434	2197.62
551.203	2086.62
551.972	1972.62
552.741	1863.62
553.51	1753.62
554.278	1682.62
555.047	1576.62
555.815	1478.62
556.584	1401.62
557.352	1317.62
558.121	1238.62
558.889	1189.62
559.657	1116.62
560.425	1069.62
561.193	993.62
561.961	949.62
562.729	888.62
563.496	847.62
564.264	801.62
565.032	764.62
565.799	708.62
566.567	673.62
567.334	633.62
568.101	607.62
568.869	565.62
569.636	525.62
570.403	505.62
571.17	464.62
571.937	450.62
572.704	420.62
573.471	405.62
574.237	376.62
575.004	356.62
575.771	332.62
576.537	311.62
577.303	296.62
578.07	269.62
578.836	262.62
579.602	245.62
580.368	241.62
581.134	221.62
581.9	217.62
582.666	200.62
583.432	190.62
584.198	175.62
584.964	169.62
585.729	164.62
586.495	148.62
587.26	139.62
588.025	140.62
588.791	126.62
589.556	120.62
590.321	115.62
591.086	104.62
591.851	107.62
592.616	101.62
593.381	95.62
594.146	86.62
594.911	85.62
595.675	80.62
596.44	79.62
597.204	80.62
597.969	71.62
598.733	65.62
599.497	63.62
600.261	57.62
601.025	62.62
601.79	55.62
602.553	54.62
603.317	49.62
604.081	47.62
604.845	46.62
605.609	45.62
606.372	44.62
607.136	41.62
607.899	38.62
608.662	40.62
609.426	38.62
610.189	36.62
610.952	32.62
611.715	30.62
612.478	30.62
613.241	29.62
614.004	26.62
614.767	28.62
615.529	25.62
616.292	25.62
617.055	25.62
617.817	22.62
618.579	23.62
619.342	19.62
620.104	20.62
620.866	20.62
621.628	18.62
622.39	19.62
623.152	19.62
623.914	17.62
624.676	15.62
625.438	17.62
626.199	15.62
626.961	15.62
627.722	13.62
628.484	12.62
629.245	14.62
630.006	14.62
630.768	12.62
631.529	13.62
632.29	10.62
633.051	13.62
633.812	8.62
634.573	12.62
635.333	9.62
636.094	11.62
636.855	9.62
637.615	8.62
638.376	11.62
639.136	8.62
639.896	9.62
640.657	10.62
641.417	9.62
642.177	9.62
642.937	11.62
643.697	10.62
644.457	7.62
645.216	9.62
645.976	9.62
646.736	7.62
647.495	8.62
648.255	5.62
649.014	6.62
649.774	7.62
650.533	5.62
651.292	7.62
652.051	5.62
652.81	6.62
653.569	6.62
654.328	7.62
655.087	5.62
655.846	5.62
656.604	5.62
657.363	4.62
658.121	7.62
658.88	6.62
659.638	6.62
660.397	4.62
661.155	5.62
661.913	4.62
662.671	4.62
663.429	7.62
664.187	5.62
664.945	4.62
665.703	4.62
666.46	0.62
667.218	3.62
667.976	5.62
668.733	3.62
669.49	3.62
670.248	3.62
671.005	3.62
671.762	4.62
672.519	4.62
673.276	1.62
674.033	2.62
674.79	5.62
675.547	4.62
676.304	4.62
677.06	3.62
677.817	4.62
678.574	2.62
679.33	4.62
680.086	5.62
680.843	3.62
681.599	4.62
682.355	4.62
683.111	5.62
683.867	3.62
684.623	2.62
685.379	1.62
686.135	2.62
686.89	1.62
687.646	2.62
688.402	2.62
689.157	4.62
689.912	4.62
690.668	2.62
691.423	2.62
692.178	2.62
692.933	2.62
693.688	2.62
694.443	1.62
695.198	4.62
695.953	4.62
696.708	4.62
697.462	1.62
698.217	1.62
698.972	1.62
699.726	4.62
700.48	3.62
701.235	3.62
701.989	2.62
702.743	3.62
703.497	2.62
704.251	4.62
705.005	1.62
705.759	1.62
706.513	4.62
707.266	4.62
708.02	1.62
708.774	4.62
709.527	2.62
710.28	4.62
711.034	3.62
711.787	3.62
712.54	4.62
713.293	1.62
714.046	1.62
714.799	2.62
715.552	2.62
716.305	2.62
717.058	3.62
717.81	3.62
718.563	2.62
719.315	2.62
720.068	2.62
720.82	4.62
721.573	3.62
722.325	4.62
723.077	4.62
723.829	1.62
724.581	3.62
725.333	2.62
726.085	4.62
726.836	5.62
727.588	1.62
728.34	2.62
729.091	3.62
729.843	4.62
730.594	5.62
731.346	4.62
732.097	3.62
732.848	2.62
733.599	2.62
734.35	6.62
735.101	2.62
735.852	3.62
736.603	3.62
737.354	1.62
738.104	4.62
738.855	6.62
739.605	4.62
740.356	5.62
741.106	5.62
741.856	2.62
742.607	2.62
743.357	4.62
744.107	3.62
744.857	4.62
745.607	5.62
746.357	3.62
747.106	4.62
747.856	4.62
748.606	5.62
749.355	5.62
750.105	3.62
750.854	6.62
751.603	5.62
752.353	6.62
753.102	7.62
753.851	6.62
754.6	3.62
755.349	3.62
756.098	7.62
756.847	3.62
757.595	6.62
758.344	6.62
759.093	4.62
759.841	6.62
760.589	5.62
761.338	5.62
762.086	6.62
762.834	6.62
763.582	7.62
764.331	5.62
765.079	6.62
765.826	5.62
766.574	4.62
767.322	8.62
768.07	4.62
768.817	5.62
769.565	6.62
770.312	5.62
771.06	8.62
771.807	6.62
772.554	5.62
773.302	3.62
774.049	7.62
774.796	5.62
775.543	7.62
776.29	6.62
777.036	6.62
777.783	7.62
778.53	7.62
779.276	9.62
780.023	8.62
780.769	7.62
781.516	8.62
782.262	7.62
783.008	7.62
783.754	7.62
784.5	7.62
785.246	7.62
785.992	7.62
786.738	5.62
787.484	6.62
788.23	9.62
788.975	9.62
789.721	7.62
790.466	6.62
791.212	5.62
791.957	8.62
792.702	8.62
793.447	9.62
794.193	6.62
794.938	5.62
795.683	7.62
796.427	6.62
797.172	6.62
797.917	5.62
798.662	7.62
799.406	6.62
800.151	7.62
800.895	5.62
801.64	6.62
802.384	7.62
803.128	4.62
803.872	7.62
804.616	6.62
805.36	4.62
806.104	4.62
806.848	4.62
807.592	5.62
808.336	3.62
809.079	4.62
809.823	4.62
810.566	4.62
811.31	4.62
812.053	3.62
812.796	6.62
813.539	5.62
814.283	5.62
815.026	4.62
815.769	4.62
816.511	5.62
817.254	4.62
817.997	6.62
818.74	3.62
819.482	4.62
820.225	3.62
820.967	5.62
821.71	5.62
822.452	3.62
823.194	5.62
823.936	4.62
824.678	3.62
825.42	4.62
826.162	2.62
826.904	5.62
827.646	3.62
828.388	5.62
829.129	2.62
829.871	1.62
830.612	1.62
831.354	1.62
832.095	1.62
832.836	0.62
833.577	0.62
834.319	3.62
835.06	4.62
835.801	3.62
836.542	3.62
837.282	2.62
838.023	6.62
838.764	3.62
839.504	2.62
840.245	1.62
840.985	3.62
841.726	3.62
842.466	2.62
843.206	1.62
843.946	2.62
844.687	3.62
845.427	1.62
846.166	1.62
846.906	2.62
847.646	3.62
848.386	2.62
849.125	-0.38
849.865	3.62
850.605	2.62
851.344	1.62
852.083	2.62
852.823	1.62
853.562	1.62
854.301	2.62
855.04	3.62
855.779	0.62
856.518	1.62
857.257	3.62
857.995	0.62
858.734	2.62
859.473	1.62
860.211	1.62
860.95	2.62
861.688	1.62
862.426	2.62
863.165	3.62
863.903	3.62
864.641	0.62
865.379	3.62
866.117	1.62
866.855	0.62
867.593	1.62
868.33	1.62
869.068	2.62
869.806	1.62
870.543	2.62
871.28	1.62
872.018	0.62
872.755	0.62
873.492	2.62
874.229	-0.38
874.967	1.62
875.703	-0.38
876.44	1.62
877.177	0.62
877.914	0.62
878.651	1.62
879.387	0.62
880.124	1.62
880.86	0.62
881.597	-0.38
882.333	-0.38
883.069	1.62
883.806	-0.38
884.542	1.62
885.278	0.62
886.014	-1.38
886.749	1.62
887.485	0.62
888.221	1.62
888.957	0.62
889.692	-0.38
890.428	0.62
891.163	-0.38
891.899	-0.38
892.634	-0.38
893.369	0.62
894.104	1.62
894.839	2.62
895.574	0.62
896.309	-0.38
897.044	0.62
897.779	0.62
898.514	1.62
899.248	1.62
899.983	-0.38
900.717	1.62
901.452	-1.38
902.186	0.62
902.92	-2.38
903.654	-0.38
904.389	0.62
905.123	-2.38
905.857	-0.38
906.59	0.62
907.324	-0.38
908.058	1.62
908.792	-1.38
909.525	1.62
910.259	-0.38
910.992	-0.38
911.726	-0.38
912.459	1.62
913.192	-1.38
913.925	-0.38
914.658	0.62
915.391	-0.38
916.124	0.62
916.857	-1.38
917.59	-2.38
918.323	-1.38
919.055	-0.38
919.788	0.62
920.521	0.62
921.253	0.62
921.985	0.62
922.718	-0.38
923.45	0.62
924.182	-0.38
924.914	0.62
925.646	-0.38
926.378	-3.38
927.11	-0.38
927.841	-2.38
928.573	-2.38
929.305	-1.38
930.036	1.62
930.768	-0.38
931.499	-0.38
932.23	0.62
932.962	-2.38
933.693	1.62
934.424	-2.38
935.155	1.62
935.886	-0.38
936.617	0.62
937.348	-1.38
938.078	-0.38
938.809	0.62
939.54	-1.38
940.27	-0.38
941.001	-0.38
941.731	-1.38
942.461	1.62
943.191	0.62
943.922	-0.38
944.652	0.62
945.382	-2.38
946.112	-1.38
946.841	-0.38
947.571	-0.38
948.301	-1.38
949.031	1.62
949.76	-0.38
950.49	0.62
951.219	1.62
951.948	0.62
952.678	-0.38
953.407	-0.38
954.136	1.62
954.865	-1.38
955.594	-0.38
956.323	-0.38
957.052	-0.38
957.78	-0.38
958.509	-0.38
959.238	-1.38
959.966	2.62
960.695	-2.38
961.423	0.62
962.151	0.62
962.88	-0.38
963.608	0.62
964.336	0.62
965.064	-1.38
965.792	-1.38
966.52	0.62
967.247	-0.38
967.975	-0.38
968.703	0.62
969.43	-0.38
970.158	-0.38
970.885	0.62
971.613	-0.38
972.34	-0.38
973.067	-0.38
973.794	-1.38
974.521	-0.38
975.248	1.62
975.975	-0.38
976.702	-0.38
977.429	0.62
978.156	1.62
978.882	1.62
979.609	-0.38
980.335	-0.38
981.062	-0.38
981.788	-0.38
982.514	-2.38
983.24	-0.38
983.967	-0.38
984.693	0.62
985.419	0.62
986.144	0.62
986.87	-0.38
987.596	0.62
988.322	-0.38
989.047	-0.38
989.773	-0.38
990.498	-0.38
991.224	-1.38
991.949	0.62
992.674	0.62
993.399	-2.38
994.124	-0.38
994.849	-3.38
995.574	0.62
996.299	0.62
997.024	-1.38
997.749	-0.38
998.473	-2.38
999.198	-0.38
999.922	-0.38
1000.647	-0.38
1001.371	5.62
1002.095	-2.38
1002.82	0.62
1003.544	-1.38
1004.268	0.62
1004.992	0.62
1005.716	0.62
1006.439	0.62
1007.163	1.62
1007.887	1.62
1008.611	1.62
1009.334	2.62
1010.058	0.62
1010.781	-0.38
1011.504	-0.38
1012.228	-1.38
1012.951	1.62
1013.674	-0.38
1014.397	-2.38
1015.12	-1.38
