节点500_285_QEPB04081__574__15-05-06-193.txt的数据

Date: Wed Nov 12 15:05:06 CST 2025
User: PC
Spectrometer: QEPB0408
触发模式: 0
积分时间 (秒): 1.000000E-2
Scans to average: 1
启用暗噪声校正: true
启用非线性校正: false
滑动平均宽度: 0
X轴模式: Wavelengths
Number of Pixels in Spectrum: 1044
>>>>>Begin Spectral Data<<<<<
220.843	2.38
221.644	1.38
222.444	3.38
223.244	1.38
224.045	3.38
224.845	1.38
225.645	4.38
226.445	2.38
227.245	4.38
228.045	3.38
228.845	2.38
229.645	3.38
230.444	2.38
231.244	2.38
232.043	5.38
232.843	3.38
233.642	4.38
234.442	2.38
235.241	4.38
236.04	6.38
236.839	3.38
237.638	3.38
238.437	4.38
239.236	5.38
240.035	2.38
240.833	4.38
241.632	5.38
242.43	2.38
243.229	5.38
244.027	4.38
244.826	5.38
245.624	5.38
246.422	4.38
247.22	4.38
248.018	5.38
248.816	7.38
249.614	7.38
250.412	5.38
251.21	5.38
252.007	6.38
252.805	9.38
253.602	6.38
254.4	7.38
255.197	7.38
255.994	6.38
256.791	8.38
257.589	7.38
258.386	10.38
259.183	10.38
259.979	8.38
260.776	10.38
261.573	10.38
262.37	8.38
263.166	12.38
263.963	12.38
264.759	10.38
265.556	11.38
266.352	13.38
267.148	11.38
267.944	15.38
268.74	14.38
269.536	16.38
270.332	13.38
271.128	13.38
271.924	16.38
272.719	14.38
273.515	14.38
274.311	14.38
275.106	16.38
275.901	15.38
276.697	17.38
277.492	18.38
278.287	16.38
279.082	16.38
279.877	19.38
280.672	19.38
281.467	18.38
282.262	17.38
283.056	21.38
283.851	17.38
284.646	17.38
285.44	18.38
286.234	21.38
287.029	21.38
287.823	16.38
288.617	16.38
289.411	16.38
290.205	16.38
290.999	16.38
291.793	16.38
292.587	18.38
293.381	17.38
294.174	16.38
294.968	15.38
295.761	17.38
296.555	12.38
297.348	16.38
298.141	14.38
298.935	16.38
299.728	13.38
300.521	14.38
301.314	14.38
302.107	14.38
302.899	12.38
303.692	12.38
304.485	12.38
305.277	15.38
306.07	11.38
306.862	13.38
307.655	16.38
308.447	9.38
309.239	15.38
310.031	12.38
310.823	12.38
311.615	11.38
312.407	11.38
313.199	9.38
313.991	10.38
314.783	10.38
315.574	8.38
316.366	10.38
317.157	7.38
317.949	8.38
318.74	8.38
319.531	8.38
320.322	7.38
321.113	8.38
321.904	7.38
322.695	9.38
323.486	9.38
324.277	8.38
325.068	8.38
325.858	7.38
326.649	8.38
327.439	8.38
328.23	7.38
329.02	6.38
329.81	6.38
330.6	6.38
331.391	7.38
332.181	8.38
332.971	8.38
333.76	6.38
334.55	6.38
335.34	8.38
336.13	6.38
336.919	6.38
337.709	6.38
338.498	5.38
339.287	4.38
340.077	6.38
340.866	6.38
341.655	5.38
342.444	7.38
343.233	6.38
344.022	6.38
344.811	6.38
345.6	7.38
346.388	6.38
347.177	7.38
347.965	6.38
348.754	7.38
349.542	6.38
350.33	5.38
351.119	6.38
351.907	6.38
352.695	4.38
353.483	4.38
354.271	5.38
355.059	5.38
355.846	4.38
356.634	5.38
357.422	6.38
358.209	2.38
358.997	6.38
359.784	7.38
360.571	4.38
361.359	4.38
362.146	5.38
362.933	4.38
363.72	5.38
364.507	5.38
365.294	5.38
366.081	4.38
366.867	8.38
367.654	5.38
368.44	5.38
369.227	6.38
370.013	6.38
370.8	7.38
371.586	5.38
372.372	6.38
373.158	4.38
373.944	4.38
374.73	7.38
375.516	8.38
376.302	5.38
377.088	4.38
377.873	6.38
378.659	7.38
379.445	3.38
380.23	4.38
381.015	7.38
381.801	5.38
382.586	5.38
383.371	6.38
384.156	6.38
384.941	6.38
385.726	7.38
386.511	7.38
387.296	4.38
388.08	7.38
388.865	8.38
389.649	5.38
390.434	5.38
391.218	7.38
392.003	6.38
392.787	6.38
393.571	6.38
394.355	5.38
395.139	6.38
395.923	5.38
396.707	6.38
397.491	4.38
398.274	7.38
399.058	7.38
399.842	7.38
400.625	8.38
401.408	6.38
402.192	7.38
402.975	7.38
403.758	7.38
404.541	9.38
405.324	7.38
406.107	8.38
406.89	7.38
407.673	10.38
408.456	9.38
409.238	8.38
410.021	6.38
410.803	10.38
411.586	7.38
412.368	8.38
413.151	9.38
413.933	10.38
414.715	9.38
415.497	11.38
416.279	10.38
417.061	10.38
417.843	9.38
418.624	9.38
419.406	10.38
420.188	10.38
420.969	10.38
421.751	12.38
422.532	11.38
423.313	12.38
424.095	10.38
424.876	13.38
425.657	8.38
426.438	12.38
427.219	13.38
428	11.38
428.78	15.38
429.561	13.38
430.342	13.38
431.122	15.38
431.903	17.38
432.683	16.38
433.464	13.38
434.244	14.38
435.024	13.38
435.804	16.38
436.584	19.38
437.364	19.38
438.144	19.38
438.924	21.38
439.704	20.38
440.483	22.38
441.263	25.38
442.042	26.38
442.822	26.38
443.601	28.38
444.38	29.38
445.16	33.38
445.939	34.38
446.718	37.38
447.497	41.38
448.276	44.38
449.054	50.38
449.833	52.38
450.612	55.38
451.391	63.38
452.169	66.38
452.948	72.38
453.726	78.38
454.504	89.38
455.282	91.38
456.061	105.38
456.839	119.38
457.617	134.38
458.395	146.38
459.172	164.38
459.95	180.38
460.728	196.38
461.506	217.38
462.283	242.38
463.061	274.38
463.838	308.38
464.615	339.38
465.393	381.38
466.17	430.38
466.947	469.38
467.724	514.38
468.501	588.38
469.278	653.38
470.055	715.38
470.831	797.38
471.608	888.38
472.385	988.38
473.161	1087.38
473.938	1197.38
474.714	1337.38
475.49	1465.38
476.266	1603.38
477.043	1761.38
477.819	1927.38
478.595	2146.38
479.371	2342.38
480.146	2576.38
480.922	2834.38
481.698	3108.38
482.473	3424.38
483.249	3747.38
484.024	4115.38
484.8	4485.38
485.575	4922.38
486.35	5399.38
487.126	5905.38
487.901	6433.38
488.676	7032.38
489.451	7686.38
490.225	8361.38
491	9080.38
491.775	9936.38
492.55	10790.38
493.324	11662.38
494.099	12546.38
494.873	13529.38
495.647	14565.38
496.422	15576.38
497.196	16697.38
497.97	17806.38
498.744	18918.38
499.518	20061.38
500.292	21053.38
501.066	22202.38
501.839	23110.38
502.613	24002.38
503.387	24870.38
504.16	25431.38
504.934	25960.38
505.707	26197.38
506.48	26378.38
507.253	26359.38
508.027	26325.38
508.8	26097.38
509.573	25878.38
510.346	25368.38
511.118	24723.38
511.891	24040.38
512.664	23334.38
513.437	22488.38
514.209	21634.38
514.982	20806.38
515.754	19924.38
516.526	19132.38
517.298	18290.38
518.071	17476.38
518.843	16872.38
519.615	16256.38
520.387	15528.38
521.159	14945.38
521.93	14358.38
522.702	13769.38
523.474	13196.38
524.245	12655.38
525.017	12102.38
525.788	11680.38
526.56	11141.38
527.331	10632.38
528.102	10179.38
528.873	9710.38
529.644	9209.38
530.415	8828.38
531.186	8366.38
531.957	7940.38
532.728	7557.38
533.498	7209.38
534.269	6762.38
535.039	6449.38
535.81	6113.38
536.58	5759.38
537.351	5421.38
538.121	5117.38
538.891	4853.38
539.661	4585.38
540.431	4329.38
541.201	4078.38
541.971	3873.38
542.741	3655.38
543.51	3479.38
544.28	3314.38
545.05	3165.38
545.819	2995.38
546.588	2848.38
547.358	2727.38
548.127	2591.38
548.896	2456.38
549.665	2330.38
550.434	2193.38
551.203	2074.38
551.972	1984.38
552.741	1874.38
553.51	1761.38
554.278	1675.38
555.047	1568.38
555.815	1500.38
556.584	1415.38
557.352	1331.38
558.121	1257.38
558.889	1175.38
559.657	1130.38
560.425	1064.38
561.193	1006.38
561.961	938.38
562.729	894.38
563.496	837.38
564.264	800.38
565.032	746.38
565.799	711.38
566.567	681.38
567.334	644.38
568.101	603.38
568.869	565.38
569.636	524.38
570.403	498.38
571.17	483.38
571.937	446.38
572.704	421.38
573.471	401.38
574.237	377.38
575.004	355.38
575.771	336.38
576.537	311.38
577.303	296.38
578.07	280.38
578.836	260.38
579.602	248.38
580.368	232.38
581.134	227.38
581.9	210.38
582.666	200.38
583.432	188.38
584.198	178.38
584.964	172.38
585.729	163.38
586.495	156.38
587.26	143.38
588.025	136.38
588.791	129.38
589.556	121.38
590.321	119.38
591.086	110.38
591.851	106.38
592.616	98.38
593.381	93.38
594.146	90.38
594.911	85.38
595.675	83.38
596.44	83.38
597.204	78.38
597.969	69.38
598.733	64.38
599.497	65.38
600.261	62.38
601.025	59.38
601.79	57.38
602.553	53.38
603.317	53.38
604.081	51.38
604.845	46.38
605.609	48.38
606.372	42.38
607.136	44.38
607.899	38.38
608.662	39.38
609.426	37.38
610.189	37.38
610.952	32.38
611.715	34.38
612.478	32.38
613.241	31.38
614.004	29.38
614.767	29.38
615.529	29.38
616.292	27.38
617.055	25.38
617.817	25.38
618.579	23.38
619.342	21.38
620.104	20.38
620.866	22.38
621.628	24.38
622.39	20.38
623.152	18.38
623.914	20.38
624.676	20.38
625.438	15.38
626.199	18.38
626.961	14.38
627.722	14.38
628.484	16.38
629.245	13.38
630.006	16.38
630.768	12.38
631.529	12.38
632.29	13.38
633.051	13.38
633.812	12.38
634.573	14.38
635.333	11.38
636.094	10.38
636.855	9.38
637.615	12.38
638.376	8.38
639.136	11.38
639.896	11.38
640.657	11.38
641.417	5.38
642.177	9.38
642.937	12.38
643.697	6.38
644.457	11.38
645.216	8.38
645.976	8.38
646.736	8.38
647.495	5.38
648.255	9.38
649.014	8.38
649.774	6.38
650.533	7.38
651.292	7.38
652.051	5.38
652.81	7.38
653.569	8.38
654.328	9.38
655.087	6.38
655.846	5.38
656.604	7.38
657.363	8.38
658.121	7.38
658.88	8.38
659.638	6.38
660.397	7.38
661.155	7.38
661.913	7.38
662.671	6.38
663.429	7.38
664.187	7.38
664.945	4.38
665.703	5.38
666.46	8.38
667.218	5.38
667.976	6.38
668.733	7.38
669.49	3.38
670.248	7.38
671.005	5.38
671.762	4.38
672.519	5.38
673.276	6.38
674.033	5.38
674.79	6.38
675.547	5.38
676.304	3.38
677.06	4.38
677.817	5.38
678.574	3.38
679.33	4.38
680.086	4.38
680.843	4.38
681.599	5.38
682.355	4.38
683.111	6.38
683.867	6.38
684.623	6.38
685.379	2.38
686.135	4.38
686.89	3.38
687.646	5.38
688.402	2.38
689.157	6.38
689.912	6.38
690.668	2.38
691.423	4.38
692.178	4.38
692.933	3.38
693.688	6.38
694.443	4.38
695.198	3.38
695.953	6.38
696.708	4.38
697.462	5.38
698.217	7.38
698.972	4.38
699.726	4.38
700.48	5.38
701.235	3.38
701.989	4.38
702.743	4.38
703.497	4.38
704.251	5.38
705.005	2.38
705.759	3.38
706.513	5.38
707.266	3.38
708.02	5.38
708.774	1.38
709.527	3.38
710.28	2.38
711.034	4.38
711.787	2.38
712.54	3.38
713.293	1.38
714.046	4.38
714.799	3.38
715.552	2.38
716.305	3.38
717.058	4.38
717.81	5.38
718.563	3.38
719.315	3.38
720.068	5.38
720.82	1.38
721.573	5.38
722.325	3.38
723.077	6.38
723.829	3.38
724.581	4.38
725.333	4.38
726.085	3.38
726.836	4.38
727.588	5.38
728.34	5.38
729.091	2.38
729.843	3.38
730.594	4.38
731.346	1.38
732.097	6.38
732.848	3.38
733.599	4.38
734.35	5.38
735.101	6.38
735.852	3.38
736.603	5.38
737.354	4.38
738.104	3.38
738.855	5.38
739.605	4.38
740.356	5.38
741.106	6.38
741.856	5.38
742.607	4.38
743.357	5.38
744.107	6.38
744.857	5.38
745.607	7.38
746.357	8.38
747.106	5.38
747.856	5.38
748.606	4.38
749.355	7.38
750.105	5.38
750.854	4.38
751.603	4.38
752.353	3.38
753.102	1.38
753.851	6.38
754.6	5.38
755.349	6.38
756.098	6.38
756.847	7.38
757.595	6.38
758.344	5.38
759.093	5.38
759.841	5.38
760.589	7.38
761.338	8.38
762.086	4.38
762.834	8.38
763.582	6.38
764.331	5.38
765.079	7.38
765.826	6.38
766.574	6.38
767.322	6.38
768.07	9.38
768.817	5.38
769.565	9.38
770.312	10.38
771.06	4.38
771.807	5.38
772.554	7.38
773.302	7.38
774.049	8.38
774.796	8.38
775.543	7.38
776.29	7.38
777.036	7.38
777.783	7.38
778.53	8.38
779.276	8.38
780.023	10.38
780.769	8.38
781.516	9.38
782.262	9.38
783.008	10.38
783.754	8.38
784.5	9.38
785.246	7.38
785.992	9.38
786.738	8.38
787.484	11.38
788.23	10.38
788.975	9.38
789.721	9.38
790.466	6.38
791.212	8.38
791.957	9.38
792.702	7.38
793.447	6.38
794.193	8.38
794.938	8.38
795.683	7.38
796.427	9.38
797.172	8.38
797.917	9.38
798.662	10.38
799.406	7.38
800.151	8.38
800.895	6.38
801.64	7.38
802.384	9.38
803.128	7.38
803.872	6.38
804.616	7.38
805.36	8.38
806.104	7.38
806.848	7.38
807.592	6.38
808.336	6.38
809.079	6.38
809.823	7.38
810.566	7.38
811.31	4.38
812.053	5.38
812.796	4.38
813.539	6.38
814.283	2.38
815.026	6.38
815.769	4.38
816.511	5.38
817.254	4.38
817.997	5.38
818.74	6.38
819.482	5.38
820.225	4.38
820.967	7.38
821.71	3.38
822.452	3.38
823.194	4.38
823.936	5.38
824.678	5.38
825.42	2.38
826.162	3.38
826.904	5.38
827.646	7.38
828.388	4.38
829.129	2.38
829.871	2.38
830.612	5.38
831.354	4.38
832.095	5.38
832.836	3.38
833.577	6.38
834.319	2.38
835.06	7.38
835.801	4.38
836.542	4.38
837.282	2.38
838.023	2.38
838.764	4.38
839.504	4.38
840.245	4.38
840.985	4.38
841.726	4.38
842.466	2.38
843.206	2.38
843.946	4.38
844.687	5.38
845.427	2.38
846.166	3.38
846.906	2.38
847.646	4.38
848.386	3.38
849.125	5.38
849.865	3.38
850.605	5.38
851.344	1.38
852.083	2.38
852.823	6.38
853.562	1.38
854.301	2.38
855.04	3.38
855.779	3.38
856.518	2.38
857.257	1.38
857.995	4.38
858.734	0.38
859.473	2.38
860.211	2.38
860.95	3.38
861.688	3.38
862.426	1.38
863.165	2.38
863.903	4.38
864.641	1.38
865.379	2.38
866.117	1.38
866.855	3.38
867.593	1.38
868.33	2.38
869.068	2.38
869.806	2.38
870.543	2.38
871.28	4.38
872.018	2.38
872.755	1.38
873.492	2.38
874.229	2.38
874.967	1.38
875.703	1.38
876.44	3.38
877.177	4.38
877.914	2.38
878.651	3.38
879.387	1.38
880.124	2.38
880.86	2.38
881.597	0.38
882.333	2.38
883.069	2.38
883.806	1.38
884.542	2.38
885.278	1.38
886.014	1.38
886.749	2.38
887.485	3.38
888.221	0.38
888.957	2.38
889.692	1.38
890.428	0.38
891.163	1.38
891.899	1.38
892.634	1.38
893.369	0.38
894.104	1.38
894.839	4.38
895.574	0.38
896.309	2.38
897.044	2.38
897.779	1.38
898.514	2.38
899.248	0.38
899.983	-0.62
900.717	1.38
901.452	-0.62
902.186	0.38
902.92	1.38
903.654	1.38
904.389	1.38
905.123	2.38
905.857	1.38
906.59	1.38
907.324	2.38
908.058	-0.62
908.792	2.38
909.525	-0.62
910.259	5.38
910.992	1.38
911.726	-0.62
912.459	1.38
913.192	-1.62
913.925	1.38
914.658	-1.62
915.391	2.38
916.124	0.38
916.857	-0.62
917.59	-0.62
918.323	1.38
919.055	1.38
919.788	-1.62
920.521	3.38
921.253	0.38
921.985	0.38
922.718	2.38
923.45	-0.62
924.182	-0.62
924.914	-1.62
925.646	2.38
926.378	1.38
927.11	0.38
927.841	2.38
928.573	-1.62
929.305	2.38
930.036	1.38
930.768	1.38
931.499	1.38
932.23	0.38
932.962	0.38
933.693	-0.62
934.424	4.38
935.155	0.38
935.886	0.38
936.617	0.38
937.348	1.38
938.078	-0.62
938.809	1.38
939.54	0.38
940.27	3.38
941.001	1.38
941.731	1.38
942.461	0.38
943.191	2.38
943.922	0.38
944.652	1.38
945.382	1.38
946.112	0.38
946.841	0.38
947.571	1.38
948.301	1.38
949.031	1.38
949.76	0.38
950.49	0.38
951.219	1.38
951.948	0.38
952.678	0.38
953.407	1.38
954.136	-1.62
954.865	1.38
955.594	1.38
956.323	3.38
957.052	1.38
957.78	-0.62
958.509	1.38
959.238	0.38
959.966	1.38
960.695	0.38
961.423	0.38
962.151	0.38
962.88	0.38
963.608	1.38
964.336	-1.62
965.064	-1.62
965.792	1.38
966.52	1.38
967.247	0.38
967.975	0.38
968.703	0.38
969.43	1.38
970.158	3.38
970.885	2.38
971.613	-1.62
972.34	2.38
973.067	1.38
973.794	0.38
974.521	2.38
975.248	-0.62
975.975	0.38
976.702	0.38
977.429	1.38
978.156	-0.62
978.882	2.38
979.609	1.38
980.335	-0.62
981.062	2.38
981.788	0.38
982.514	1.38
983.24	0.38
983.967	0.38
984.693	1.38
985.419	-0.62
986.144	-0.62
986.87	1.38
987.596	0.38
988.322	2.38
989.047	0.38
989.773	1.38
990.498	1.38
991.224	2.38
991.949	0.38
992.674	0.38
993.399	0.38
994.124	-2.62
994.849	1.38
995.574	1.38
996.299	-0.62
997.024	1.38
997.749	0.38
998.473	2.38
999.198	0.38
999.922	0.38
1000.647	2.38
1001.371	5.38
1002.095	-0.62
1002.82	-0.62
1003.544	-2.62
1004.268	-0.62
1004.992	1.38
1005.716	1.38
1006.439	2.38
1007.163	2.38
1007.887	1.38
1008.611	-0.62
1009.334	1.38
1010.058	0.38
1010.781	0.38
1011.504	-0.62
1012.228	1.38
1012.951	-0.62
1013.674	-0.62
1014.397	-0.62
1015.12	0.38
