节点500_285_QEPB04081__764__15-08-15-799.txt的数据

Date: Wed Nov 12 15:08:15 CST 2025
User: PC
Spectrometer: QEPB0408
触发模式: 0
积分时间 (秒): 1.000000E-2
Scans to average: 1
启用暗噪声校正: true
启用非线性校正: false
滑动平均宽度: 0
X轴模式: Wavelengths
Number of Pixels in Spectrum: 1044
>>>>>Begin Spectral Data<<<<<
220.843	1
221.644	0
222.444	4
223.244	1
224.045	1
224.845	2
225.645	3
226.445	2
227.245	6
228.045	1
228.845	3
229.645	0
230.444	4
231.244	4
232.043	5
232.843	3
233.642	4
234.442	3
235.241	3
236.04	3
236.839	4
237.638	1
238.437	5
239.236	5
240.035	5
240.833	3
241.632	3
242.43	4
243.229	6
244.027	5
244.826	4
245.624	5
246.422	4
247.22	4
248.018	7
248.816	4
249.614	4
250.412	6
251.21	7
252.007	8
252.805	5
253.602	5
254.4	5
255.197	8
255.994	6
256.791	5
257.589	6
258.386	7
259.183	8
259.979	8
260.776	8
261.573	9
262.37	8
263.166	11
263.963	8
264.759	11
265.556	11
266.352	13
267.148	12
267.944	13
268.74	10
269.536	10
270.332	16
271.128	13
271.924	16
272.719	16
273.515	14
274.311	14
275.106	15
275.901	14
276.697	17
277.492	15
278.287	14
279.082	15
279.877	20
280.672	18
281.467	20
282.262	17
283.056	17
283.851	15
284.646	18
285.44	17
286.234	15
287.029	18
287.823	16
288.617	18
289.411	19
290.205	16
290.999	16
291.793	17
292.587	18
293.381	15
294.174	17
294.968	17
295.761	16
296.555	14
297.348	15
298.141	16
298.935	18
299.728	14
300.521	14
301.314	15
302.107	10
302.899	12
303.692	12
304.485	13
305.277	12
306.07	15
306.862	13
307.655	12
308.447	14
309.239	13
310.031	14
310.823	11
311.615	11
312.407	10
313.199	9
313.991	11
314.783	9
315.574	10
316.366	8
317.157	9
317.949	10
318.74	9
319.531	10
320.322	7
321.113	8
321.904	8
322.695	7
323.486	7
324.277	9
325.068	9
325.858	8
326.649	7
327.439	6
328.23	7
329.02	7
329.81	7
330.6	7
331.391	5
332.181	9
332.971	6
333.76	7
334.55	8
335.34	5
336.13	7
336.919	5
337.709	7
338.498	5
339.287	6
340.077	6
340.866	6
341.655	7
342.444	5
343.233	9
344.022	6
344.811	8
345.6	6
346.388	5
347.177	7
347.965	5
348.754	5
349.542	4
350.33	5
351.119	6
351.907	5
352.695	5
353.483	6
354.271	7
355.059	6
355.846	7
356.634	4
357.422	4
358.209	5
358.997	6
359.784	4
360.571	5
361.359	6
362.146	6
362.933	5
363.72	5
364.507	7
365.294	6
366.081	4
366.867	4
367.654	5
368.44	6
369.227	3
370.013	4
370.8	4
371.586	7
372.372	3
373.158	6
373.944	5
374.73	6
375.516	6
376.302	5
377.088	7
377.873	3
378.659	8
379.445	4
380.23	5
381.015	5
381.801	7
382.586	5
383.371	4
384.156	7
384.941	7
385.726	5
386.511	8
387.296	4
388.08	5
388.865	4
389.649	7
390.434	5
391.218	3
392.003	6
392.787	6
393.571	5
394.355	7
395.139	6
395.923	6
396.707	5
397.491	8
398.274	7
399.058	7
399.842	5
400.625	6
401.408	7
402.192	7
402.975	7
403.758	7
404.541	8
405.324	7
406.107	6
406.89	8
407.673	4
408.456	8
409.238	7
410.021	8
410.803	9
411.586	8
412.368	8
413.151	11
413.933	9
414.715	11
415.497	8
416.279	11
417.061	7
417.843	6
418.624	9
419.406	9
420.188	8
420.969	10
421.751	11
422.532	9
423.313	10
424.095	10
424.876	11
425.657	12
426.438	11
427.219	14
428	11
428.78	14
429.561	14
430.342	12
431.122	11
431.903	13
432.683	14
433.464	15
434.244	18
435.024	17
435.804	18
436.584	18
437.364	18
438.144	21
438.924	21
439.704	19
440.483	25
441.263	24
442.042	28
442.822	27
443.601	29
444.38	30
445.16	33
445.939	36
446.718	37
447.497	41
448.276	47
449.054	49
449.833	54
450.612	58
451.391	65
452.169	70
452.948	76
453.726	82
454.504	90
455.282	99
456.061	112
456.839	125
457.617	137
458.395	156
459.172	167
459.95	188
460.728	209
461.506	234
462.283	260
463.061	282
463.838	322
464.615	354
465.393	398
466.17	437
466.947	486
467.724	553
468.501	607
469.278	671
470.055	746
470.831	820
471.608	892
472.385	995
473.161	1103
473.938	1204
474.714	1325
475.49	1465
476.266	1609
477.043	1762
477.819	1939
478.595	2133
479.371	2329
480.146	2545
480.922	2775
481.698	3054
482.473	3337
483.249	3641
484.024	3987
484.8	4351
485.575	4753
486.35	5171
487.126	5632
487.901	6126
488.676	6692
489.451	7268
490.225	7915
491	8570
491.775	9340
492.55	10116
493.324	10935
494.099	11712
494.873	12593
495.647	13540
496.422	14478
497.196	15530
497.97	16570
498.744	17567
499.518	18629
500.292	19637
501.066	20599
501.839	21626
502.613	22542
503.387	23387
504.16	24080
504.934	24439
505.707	24847
506.48	25110
507.253	25258
508.027	25247
508.8	25141
509.573	25018
510.346	24653
511.118	24128
511.891	23583
512.664	22948
513.437	22247
514.209	21497
514.982	20698
515.754	19915
516.526	19118
517.298	18362
518.071	17612
518.843	16950
519.615	16251
520.387	15595
521.159	15023
521.93	14411
522.702	13847
523.474	13282
524.245	12679
525.017	12183
525.788	11738
526.56	11236
527.331	10681
528.102	10256
528.873	9822
529.644	9376
530.415	8933
531.186	8498
531.957	8082
532.728	7721
533.498	7334
534.269	6917
535.039	6584
535.81	6255
536.58	5907
537.351	5560
538.121	5271
538.891	4992
539.661	4684
540.431	4453
541.201	4210
541.971	3965
542.741	3746
543.51	3595
544.28	3441
545.05	3255
545.819	3080
546.588	2918
547.358	2788
548.127	2657
548.896	2526
549.665	2393
550.434	2251
551.203	2157
551.972	2055
552.741	1913
553.51	1816
554.278	1734
555.047	1620
555.815	1539
556.584	1469
557.352	1380
558.121	1303
558.889	1225
559.657	1174
560.425	1101
561.193	1046
561.961	966
562.729	926
563.496	869
564.264	831
565.032	798
565.799	740
566.567	706
567.334	666
568.101	622
568.869	590
569.636	549
570.403	524
571.17	492
571.937	466
572.704	434
573.471	409
574.237	390
575.004	362
575.771	347
576.537	321
577.303	307
578.07	290
578.836	275
579.602	256
580.368	244
581.134	244
581.9	216
582.666	208
583.432	197
584.198	185
584.964	178
585.729	165
586.495	159
587.26	153
588.025	140
588.791	138
589.556	131
590.321	119
591.086	114
591.851	107
592.616	108
593.381	98
594.146	94
594.911	91
595.675	87
596.44	85
597.204	78
597.969	75
598.733	71
599.497	71
600.261	65
601.025	63
601.79	57
602.553	59
603.317	53
604.081	50
604.845	48
605.609	46
606.372	45
607.136	45
607.899	41
608.662	42
609.426	37
610.189	39
610.952	34
611.715	37
612.478	33
613.241	30
614.004	27
614.767	29
615.529	27
616.292	26
617.055	26
617.817	25
618.579	25
619.342	25
620.104	20
620.866	23
621.628	19
622.39	19
623.152	20
623.914	20
624.676	19
625.438	18
626.199	18
626.961	17
627.722	18
628.484	16
629.245	16
630.006	15
630.768	15
631.529	14
632.29	16
633.051	12
633.812	13
634.573	13
635.333	12
636.094	12
636.855	10
637.615	12
638.376	10
639.136	10
639.896	10
640.657	12
641.417	8
642.177	10
642.937	8
643.697	8
644.457	8
645.216	8
645.976	8
646.736	6
647.495	8
648.255	7
649.014	7
649.774	8
650.533	9
651.292	7
652.051	8
652.81	9
653.569	7
654.328	6
655.087	7
655.846	6
656.604	7
657.363	8
658.121	5
658.88	7
659.638	6
660.397	7
661.155	5
661.913	6
662.671	4
663.429	4
664.187	8
664.945	5
665.703	8
666.46	6
667.218	4
667.976	5
668.733	4
669.49	7
670.248	2
671.005	5
671.762	4
672.519	5
673.276	6
674.033	5
674.79	2
675.547	3
676.304	3
677.06	5
677.817	3
678.574	5
679.33	2
680.086	5
680.843	6
681.599	4
682.355	6
683.111	5
683.867	5
684.623	2
685.379	4
686.135	5
686.89	3
687.646	4
688.402	2
689.157	5
689.912	3
690.668	3
691.423	2
692.178	1
692.933	5
693.688	3
694.443	6
695.198	4
695.953	2
696.708	7
697.462	4
698.217	4
698.972	4
699.726	5
700.48	4
701.235	6
701.989	5
702.743	3
703.497	2
704.251	0
705.005	5
705.759	3
706.513	3
707.266	4
708.02	5
708.774	2
709.527	5
710.28	4
711.034	2
711.787	2
712.54	4
713.293	2
714.046	4
714.799	5
715.552	2
716.305	3
717.058	3
717.81	3
718.563	5
719.315	2
720.068	2
720.82	5
721.573	4
722.325	4
723.077	5
723.829	4
724.581	3
725.333	4
726.085	4
726.836	4
727.588	1
728.34	4
729.091	4
729.843	4
730.594	2
731.346	3
732.097	5
732.848	3
733.599	3
734.35	4
735.101	4
735.852	2
736.603	3
737.354	4
738.104	2
738.855	4
739.605	3
740.356	6
741.106	5
741.856	5
742.607	4
743.357	3
744.107	3
744.857	5
745.607	4
746.357	5
747.106	5
747.856	4
748.606	3
749.355	6
750.105	5
750.854	7
751.603	5
752.353	2
753.102	6
753.851	5
754.6	6
755.349	8
756.098	5
756.847	7
757.595	5
758.344	5
759.093	8
759.841	4
760.589	6
761.338	5
762.086	7
762.834	5
763.582	4
764.331	7
765.079	6
765.826	5
766.574	6
767.322	11
768.07	6
768.817	6
769.565	5
770.312	6
771.06	5
771.807	10
772.554	8
773.302	8
774.049	6
774.796	6
775.543	8
776.29	6
777.036	8
777.783	8
778.53	6
779.276	10
780.023	7
780.769	7
781.516	9
782.262	7
783.008	8
783.754	8
784.5	7
785.246	8
785.992	7
786.738	8
787.484	7
788.23	9
788.975	9
789.721	6
790.466	8
791.212	10
791.957	10
792.702	7
793.447	5
794.193	9
794.938	7
795.683	9
796.427	8
797.172	7
797.917	7
798.662	7
799.406	9
800.151	8
800.895	7
801.64	9
802.384	8
803.128	8
803.872	6
804.616	6
805.36	4
806.104	7
806.848	5
807.592	5
808.336	6
809.079	5
809.823	5
810.566	4
811.31	5
812.053	5
812.796	7
813.539	4
814.283	3
815.026	6
815.769	9
816.511	6
817.254	3
817.997	4
818.74	6
819.482	5
820.225	6
820.967	4
821.71	4
822.452	6
823.194	4
823.936	5
824.678	3
825.42	4
826.162	2
826.904	5
827.646	5
828.388	4
829.129	3
829.871	4
830.612	3
831.354	4
832.095	3
832.836	5
833.577	2
834.319	2
835.06	2
835.801	2
836.542	4
837.282	5
838.023	4
838.764	4
839.504	6
840.245	2
840.985	4
841.726	5
842.466	4
843.206	3
843.946	2
844.687	1
845.427	2
846.166	3
846.906	3
847.646	2
848.386	2
849.125	4
849.865	3
850.605	3
851.344	3
852.083	1
852.823	2
853.562	4
854.301	2
855.04	1
855.779	3
856.518	3
857.257	1
857.995	3
858.734	2
859.473	2
860.211	3
860.95	3
861.688	2
862.426	2
863.165	0
863.903	2
864.641	3
865.379	5
866.117	3
866.855	0
867.593	2
868.33	4
869.068	1
869.806	2
870.543	1
871.28	2
872.018	1
872.755	2
873.492	1
874.229	2
874.967	2
875.703	1
876.44	1
877.177	1
877.914	3
878.651	0
879.387	2
880.124	2
880.86	-2
881.597	2
882.333	2
883.069	3
883.806	3
884.542	3
885.278	2
886.014	1
886.749	2
887.485	2
888.221	0
888.957	2
889.692	1
890.428	0
891.163	-2
891.899	1
892.634	0
893.369	4
894.104	0
894.839	3
895.574	1
896.309	3
897.044	2
897.779	0
898.514	0
899.248	0
899.983	1
900.717	1
901.452	-1
902.186	2
902.92	-2
903.654	1
904.389	1
905.123	-1
905.857	0
906.59	1
907.324	2
908.058	1
908.792	1
909.525	1
910.259	1
910.992	0
911.726	1
912.459	1
913.192	1
913.925	0
914.658	1
915.391	-1
916.124	3
916.857	2
917.59	2
918.323	1
919.055	-1
919.788	2
920.521	-1
921.253	2
921.985	1
922.718	2
923.45	0
924.182	1
924.914	1
925.646	2
926.378	1
927.11	1
927.841	0
928.573	0
929.305	2
930.036	4
930.768	-1
931.499	1
932.23	0
932.962	5
933.693	1
934.424	0
935.155	3
935.886	2
936.617	2
937.348	2
938.078	0
938.809	-1
939.54	0
940.27	1
941.001	-1
941.731	0
942.461	2
943.191	1
943.922	2
944.652	0
945.382	0
946.112	0
946.841	1
947.571	0
948.301	0
949.031	0
949.76	0
950.49	0
951.219	0
951.948	1
952.678	1
953.407	0
954.136	0
954.865	1
955.594	1
956.323	0
957.052	0
957.78	-1
958.509	0
959.238	1
959.966	-1
960.695	2
961.423	3
962.151	0
962.88	1
963.608	-1
964.336	-1
965.064	-1
965.792	1
966.52	-2
967.247	-2
967.975	2
968.703	-2
969.43	2
970.158	1
970.885	1
971.613	1
972.34	0
973.067	0
973.794	-1
974.521	1
975.248	-1
975.975	2
976.702	0
977.429	1
978.156	2
978.882	-1
979.609	1
980.335	0
981.062	0
981.788	0
982.514	0
983.24	1
983.967	-2
984.693	0
985.419	0
986.144	0
986.87	-2
987.596	1
988.322	2
989.047	2
989.773	3
990.498	2
991.224	1
991.949	3
992.674	1
993.399	0
994.124	-1
994.849	0
995.574	2
996.299	0
997.024	5
997.749	-1
998.473	1
999.198	0
999.922	1
1000.647	0
1001.371	4
1002.095	0
1002.82	0
1003.544	-2
1004.268	2
1004.992	-2
1005.716	0
1006.439	2
1007.163	1
1007.887	2
1008.611	0
1009.334	1
1010.058	0
1010.781	2
1011.504	1
1012.228	-1
1012.951	0
1013.674	0
1014.397	0
1015.12	-2
