节点500_285_QEPB04081__256__14-59-48-869.txt的数据

Date: Wed Nov 12 14:59:48 CST 2025
User: PC
Spectrometer: QEPB0408
触发模式: 0
积分时间 (秒): 1.000000E-2
Scans to average: 1
启用暗噪声校正: true
启用非线性校正: false
滑动平均宽度: 0
X轴模式: Wavelengths
Number of Pixels in Spectrum: 1044
>>>>>Begin Spectral Data<<<<<
220.843	-0.38
221.644	1.62
222.444	1.62
223.244	1.62
224.045	3.62
224.845	2.62
225.645	2.62
226.445	1.62
227.245	2.62
228.045	1.62
228.845	0.62
229.645	3.62
230.444	2.62
231.244	1.62
232.043	1.62
232.843	2.62
233.642	4.62
234.442	2.62
235.241	1.62
236.04	1.62
236.839	4.62
237.638	3.62
238.437	1.62
239.236	7.62
240.035	3.62
240.833	2.62
241.632	3.62
242.43	1.62
243.229	6.62
244.027	5.62
244.826	6.62
245.624	6.62
246.422	4.62
247.22	5.62
248.018	5.62
248.816	7.62
249.614	5.62
250.412	5.62
251.21	7.62
252.007	5.62
252.805	7.62
253.602	4.62
254.4	5.62
255.197	9.62
255.994	10.62
256.791	7.62
257.589	5.62
258.386	8.62
259.183	9.62
259.979	11.62
260.776	9.62
261.573	10.62
262.37	10.62
263.166	10.62
263.963	13.62
264.759	12.62
265.556	15.62
266.352	12.62
267.148	13.62
267.944	16.62
268.74	13.62
269.536	15.62
270.332	13.62
271.128	16.62
271.924	16.62
272.719	16.62
273.515	17.62
274.311	17.62
275.106	15.62
275.901	17.62
276.697	16.62
277.492	20.62
278.287	13.62
279.082	18.62
279.877	17.62
280.672	19.62
281.467	19.62
282.262	17.62
283.056	20.62
283.851	18.62
284.646	17.62
285.44	17.62
286.234	17.62
287.029	18.62
287.823	16.62
288.617	18.62
289.411	18.62
290.205	20.62
290.999	17.62
291.793	18.62
292.587	17.62
293.381	18.62
294.174	12.62
294.968	17.62
295.761	15.62
296.555	13.62
297.348	16.62
298.141	15.62
298.935	16.62
299.728	15.62
300.521	14.62
301.314	12.62
302.107	14.62
302.899	13.62
303.692	13.62
304.485	11.62
305.277	14.62
306.07	13.62
306.862	11.62
307.655	13.62
308.447	12.62
309.239	12.62
310.031	11.62
310.823	5.62
311.615	9.62
312.407	10.62
313.199	12.62
313.991	10.62
314.783	9.62
315.574	7.62
316.366	9.62
317.157	8.62
317.949	8.62
318.74	9.62
319.531	6.62
320.322	7.62
321.113	6.62
321.904	6.62
322.695	7.62
323.486	6.62
324.277	9.62
325.068	6.62
325.858	5.62
326.649	8.62
327.439	5.62
328.23	7.62
329.02	6.62
329.81	6.62
330.6	5.62
331.391	6.62
332.181	6.62
332.971	5.62
333.76	7.62
334.55	8.62
335.34	7.62
336.13	7.62
336.919	6.62
337.709	6.62
338.498	4.62
339.287	4.62
340.077	7.62
340.866	6.62
341.655	6.62
342.444	4.62
343.233	3.62
344.022	7.62
344.811	6.62
345.6	5.62
346.388	5.62
347.177	5.62
347.965	7.62
348.754	5.62
349.542	5.62
350.33	5.62
351.119	8.62
351.907	4.62
352.695	6.62
353.483	7.62
354.271	5.62
355.059	6.62
355.846	6.62
356.634	6.62
357.422	4.62
358.209	5.62
358.997	5.62
359.784	6.62
360.571	4.62
361.359	4.62
362.146	6.62
362.933	4.62
363.72	4.62
364.507	4.62
365.294	3.62
366.081	6.62
366.867	4.62
367.654	3.62
368.44	2.62
369.227	5.62
370.013	4.62
370.8	5.62
371.586	5.62
372.372	3.62
373.158	4.62
373.944	5.62
374.73	5.62
375.516	4.62
376.302	5.62
377.088	6.62
377.873	3.62
378.659	3.62
379.445	5.62
380.23	3.62
381.015	5.62
381.801	5.62
382.586	2.62
383.371	5.62
384.156	5.62
384.941	5.62
385.726	5.62
386.511	8.62
387.296	6.62
388.08	6.62
388.865	6.62
389.649	6.62
390.434	5.62
391.218	4.62
392.003	5.62
392.787	7.62
393.571	4.62
394.355	8.62
395.139	6.62
395.923	6.62
396.707	5.62
397.491	3.62
398.274	7.62
399.058	7.62
399.842	7.62
400.625	6.62
401.408	5.62
402.192	6.62
402.975	8.62
403.758	8.62
404.541	5.62
405.324	9.62
406.107	6.62
406.89	7.62
407.673	8.62
408.456	7.62
409.238	6.62
410.021	8.62
410.803	10.62
411.586	7.62
412.368	9.62
413.151	9.62
413.933	6.62
414.715	8.62
415.497	9.62
416.279	9.62
417.061	7.62
417.843	8.62
418.624	10.62
419.406	9.62
420.188	9.62
420.969	9.62
421.751	9.62
422.532	8.62
423.313	11.62
424.095	10.62
424.876	10.62
425.657	11.62
426.438	9.62
427.219	15.62
428	12.62
428.78	11.62
429.561	12.62
430.342	14.62
431.122	13.62
431.903	15.62
432.683	14.62
433.464	15.62
434.244	16.62
435.024	19.62
435.804	17.62
436.584	19.62
437.364	19.62
438.144	18.62
438.924	20.62
439.704	23.62
440.483	22.62
441.263	23.62
442.042	24.62
442.822	27.62
443.601	25.62
444.38	29.62
445.16	29.62
445.939	32.62
446.718	35.62
447.497	40.62
448.276	41.62
449.054	45.62
449.833	49.62
450.612	51.62
451.391	57.62
452.169	65.62
452.948	67.62
453.726	73.62
454.504	81.62
455.282	86.62
456.061	93.62
456.839	112.62
457.617	117.62
458.395	131.62
459.172	143.62
459.95	160.62
460.728	181.62
461.506	203.62
462.283	220.62
463.061	257.62
463.838	283.62
464.615	319.62
465.393	352.62
466.17	399.62
466.947	439.62
467.724	496.62
468.501	552.62
469.278	605.62
470.055	676.62
470.831	757.62
471.608	838.62
472.385	943.62
473.161	1046.62
473.938	1161.62
474.714	1288.62
475.49	1414.62
476.266	1579.62
477.043	1740.62
477.819	1923.62
478.595	2125.62
479.371	2350.62
480.146	2584.62
480.922	2854.62
481.698	3152.62
482.473	3480.62
483.249	3847.62
484.024	4228.62
484.8	4669.62
485.575	5118.62
486.35	5642.62
487.126	6200.62
487.901	6828.62
488.676	7457.62
489.451	8174.62
490.225	8977.62
491	9813.62
491.775	10755.62
492.55	11683.62
493.324	12663.62
494.099	13677.62
494.873	14727.62
495.647	15901.62
496.422	17062.62
497.196	18253.62
497.97	19557.62
498.744	20737.62
499.518	21934.62
500.292	23099.62
501.066	24169.62
501.839	25085.62
502.613	26058.62
503.387	26731.62
504.16	27405.62
504.934	27709.62
505.707	27828.62
506.48	27850.62
507.253	27664.62
508.027	27437.62
508.8	26966.62
509.573	26555.62
510.346	25926.62
511.118	25075.62
511.891	24251.62
512.664	23347.62
513.437	22490.62
514.209	21510.62
514.982	20597.62
515.754	19654.62
516.526	18775.62
517.298	17961.62
518.071	17198.62
518.843	16497.62
519.615	15927.62
520.387	15269.62
521.159	14689.62
521.93	14145.62
522.702	13540.62
523.474	12928.62
524.245	12366.62
525.017	11846.62
525.788	11450.62
526.56	10859.62
527.331	10381.62
528.102	9928.62
528.873	9413.62
529.644	8965.62
530.415	8515.62
531.186	8122.62
531.957	7639.62
532.728	7271.62
533.498	6915.62
534.269	6471.62
535.039	6163.62
535.81	5788.62
536.58	5483.62
537.351	5188.62
538.121	4865.62
538.891	4628.62
539.661	4364.62
540.431	4111.62
541.201	3867.62
541.971	3686.62
542.741	3483.62
543.51	3341.62
544.28	3165.62
545.05	3014.62
545.819	2861.62
546.588	2712.62
547.358	2563.62
548.127	2449.62
548.896	2329.62
549.665	2196.62
550.434	2100.62
551.203	1973.62
551.972	1882.62
552.741	1777.62
553.51	1660.62
554.278	1577.62
555.047	1491.62
555.815	1419.62
556.584	1334.62
557.352	1254.62
558.121	1180.62
558.889	1123.62
559.657	1059.62
560.425	997.62
561.193	933.62
561.961	878.62
562.729	831.62
563.496	795.62
564.264	741.62
565.032	709.62
565.799	677.62
566.567	635.62
567.334	587.62
568.101	567.62
568.869	529.62
569.636	500.62
570.403	471.62
571.17	445.62
571.937	411.62
572.704	393.62
573.471	373.62
574.237	356.62
575.004	339.62
575.771	313.62
576.537	292.62
577.303	282.62
578.07	263.62
578.836	247.62
579.602	236.62
580.368	222.62
581.134	209.62
581.9	193.62
582.666	190.62
583.432	173.62
584.198	165.62
584.964	157.62
585.729	153.62
586.495	148.62
587.26	133.62
588.025	130.62
588.791	120.62
589.556	114.62
590.321	112.62
591.086	103.62
591.851	99.62
592.616	91.62
593.381	88.62
594.146	87.62
594.911	87.62
595.675	77.62
596.44	78.62
597.204	69.62
597.969	68.62
598.733	61.62
599.497	64.62
600.261	61.62
601.025	58.62
601.79	54.62
602.553	50.62
603.317	48.62
604.081	47.62
604.845	48.62
605.609	45.62
606.372	39.62
607.136	40.62
607.899	36.62
608.662	41.62
609.426	37.62
610.189	32.62
610.952	33.62
611.715	30.62
612.478	29.62
613.241	31.62
614.004	30.62
614.767	25.62
615.529	27.62
616.292	24.62
617.055	24.62
617.817	21.62
618.579	23.62
619.342	21.62
620.104	21.62
620.866	17.62
621.628	23.62
622.39	18.62
623.152	18.62
623.914	15.62
624.676	17.62
625.438	15.62
626.199	14.62
626.961	16.62
627.722	14.62
628.484	14.62
629.245	13.62
630.006	12.62
630.768	13.62
631.529	12.62
632.29	12.62
633.051	14.62
633.812	13.62
634.573	11.62
635.333	9.62
636.094	12.62
636.855	9.62
637.615	9.62
638.376	11.62
639.136	9.62
639.896	10.62
640.657	9.62
641.417	9.62
642.177	9.62
642.937	8.62
643.697	8.62
644.457	8.62
645.216	7.62
645.976	4.62
646.736	6.62
647.495	7.62
648.255	6.62
649.014	6.62
649.774	7.62
650.533	10.62
651.292	9.62
652.051	8.62
652.81	6.62
653.569	6.62
654.328	7.62
655.087	7.62
655.846	8.62
656.604	5.62
657.363	6.62
658.121	5.62
658.88	6.62
659.638	7.62
660.397	5.62
661.155	6.62
661.913	5.62
662.671	6.62
663.429	4.62
664.187	3.62
664.945	6.62
665.703	5.62
666.46	4.62
667.218	3.62
667.976	7.62
668.733	5.62
669.49	4.62
670.248	5.62
671.005	5.62
671.762	4.62
672.519	7.62
673.276	3.62
674.033	4.62
674.79	4.62
675.547	2.62
676.304	3.62
677.06	1.62
677.817	4.62
678.574	2.62
679.33	3.62
680.086	2.62
680.843	4.62
681.599	3.62
682.355	1.62
683.111	3.62
683.867	3.62
684.623	4.62
685.379	4.62
686.135	1.62
686.89	2.62
687.646	5.62
688.402	3.62
689.157	2.62
689.912	4.62
690.668	5.62
691.423	3.62
692.178	2.62
692.933	2.62
693.688	4.62
694.443	4.62
695.198	3.62
695.953	3.62
696.708	1.62
697.462	4.62
698.217	2.62
698.972	4.62
699.726	3.62
700.48	3.62
701.235	2.62
701.989	2.62
702.743	3.62
703.497	5.62
704.251	2.62
705.005	4.62
705.759	1.62
706.513	4.62
707.266	3.62
708.02	4.62
708.774	5.62
709.527	5.62
710.28	3.62
711.034	3.62
711.787	4.62
712.54	4.62
713.293	3.62
714.046	1.62
714.799	3.62
715.552	4.62
716.305	4.62
717.058	4.62
717.81	1.62
718.563	2.62
719.315	3.62
720.068	1.62
720.82	5.62
721.573	2.62
722.325	3.62
723.077	3.62
723.829	4.62
724.581	1.62
725.333	3.62
726.085	4.62
726.836	1.62
727.588	3.62
728.34	4.62
729.091	3.62
729.843	4.62
730.594	4.62
731.346	4.62
732.097	4.62
732.848	6.62
733.599	5.62
734.35	1.62
735.101	3.62
735.852	0.62
736.603	4.62
737.354	3.62
738.104	3.62
738.855	2.62
739.605	0.62
740.356	7.62
741.106	6.62
741.856	2.62
742.607	4.62
743.357	5.62
744.107	3.62
744.857	5.62
745.607	5.62
746.357	5.62
747.106	4.62
747.856	5.62
748.606	3.62
749.355	5.62
750.105	6.62
750.854	5.62
751.603	5.62
752.353	6.62
753.102	5.62
753.851	4.62
754.6	5.62
755.349	6.62
756.098	4.62
756.847	4.62
757.595	6.62
758.344	6.62
759.093	6.62
759.841	3.62
760.589	4.62
761.338	6.62
762.086	4.62
762.834	6.62
763.582	7.62
764.331	7.62
765.079	6.62
765.826	6.62
766.574	4.62
767.322	7.62
768.07	7.62
768.817	6.62
769.565	5.62
770.312	7.62
771.06	5.62
771.807	8.62
772.554	8.62
773.302	6.62
774.049	7.62
774.796	7.62
775.543	9.62
776.29	10.62
777.036	8.62
777.783	8.62
778.53	11.62
779.276	7.62
780.023	8.62
780.769	8.62
781.516	10.62
782.262	7.62
783.008	9.62
783.754	9.62
784.5	9.62
785.246	10.62
785.992	7.62
786.738	9.62
787.484	8.62
788.23	10.62
788.975	9.62
789.721	8.62
790.466	7.62
791.212	7.62
791.957	7.62
792.702	5.62
793.447	6.62
794.193	8.62
794.938	9.62
795.683	8.62
796.427	7.62
797.172	6.62
797.917	7.62
798.662	5.62
799.406	7.62
800.151	8.62
800.895	7.62
801.64	7.62
802.384	6.62
803.128	9.62
803.872	8.62
804.616	6.62
805.36	6.62
806.104	5.62
806.848	6.62
807.592	5.62
808.336	5.62
809.079	7.62
809.823	6.62
810.566	5.62
811.31	5.62
812.053	5.62
812.796	5.62
813.539	6.62
814.283	6.62
815.026	3.62
815.769	5.62
816.511	4.62
817.254	8.62
817.997	4.62
818.74	5.62
819.482	4.62
820.225	5.62
820.967	4.62
821.71	4.62
822.452	3.62
823.194	3.62
823.936	2.62
824.678	4.62
825.42	4.62
826.162	4.62
826.904	2.62
827.646	5.62
828.388	4.62
829.129	4.62
829.871	3.62
830.612	1.62
831.354	2.62
832.095	5.62
832.836	1.62
833.577	3.62
834.319	2.62
835.06	3.62
835.801	3.62
836.542	4.62
837.282	2.62
838.023	6.62
838.764	5.62
839.504	2.62
840.245	4.62
840.985	6.62
841.726	3.62
842.466	3.62
843.206	2.62
843.946	2.62
844.687	4.62
845.427	4.62
846.166	3.62
846.906	4.62
847.646	4.62
848.386	2.62
849.125	2.62
849.865	2.62
850.605	3.62
851.344	2.62
852.083	2.62
852.823	2.62
853.562	1.62
854.301	2.62
855.04	3.62
855.779	3.62
856.518	0.62
857.257	1.62
857.995	2.62
858.734	2.62
859.473	5.62
860.211	3.62
860.95	0.62
861.688	2.62
862.426	1.62
863.165	2.62
863.903	0.62
864.641	3.62
865.379	-0.38
866.117	2.62
866.855	-0.38
867.593	0.62
868.33	1.62
869.068	1.62
869.806	1.62
870.543	1.62
871.28	1.62
872.018	0.62
872.755	1.62
873.492	0.62
874.229	0.62
874.967	1.62
875.703	0.62
876.44	0.62
877.177	1.62
877.914	0.62
878.651	1.62
879.387	1.62
880.124	0.62
880.86	0.62
881.597	0.62
882.333	0.62
883.069	0.62
883.806	-0.38
884.542	0.62
885.278	-1.38
886.014	0.62
886.749	0.62
887.485	0.62
888.221	2.62
888.957	-0.38
889.692	0.62
890.428	0.62
891.163	0.62
891.899	0.62
892.634	0.62
893.369	2.62
894.104	-0.38
894.839	0.62
895.574	0.62
896.309	0.62
897.044	0.62
897.779	1.62
898.514	2.62
899.248	-0.38
899.983	1.62
900.717	1.62
901.452	0.62
902.186	0.62
902.92	-1.38
903.654	1.62
904.389	1.62
905.123	-0.38
905.857	-1.38
906.59	1.62
907.324	0.62
908.058	0.62
908.792	0.62
909.525	-0.38
910.259	1.62
910.992	-1.38
911.726	0.62
912.459	1.62
913.192	-1.38
913.925	2.62
914.658	2.62
915.391	0.62
916.124	1.62
916.857	-0.38
917.59	-0.38
918.323	-0.38
919.055	-0.38
919.788	0.62
920.521	-1.38
921.253	0.62
921.985	-0.38
922.718	1.62
923.45	-1.38
924.182	0.62
924.914	-1.38
925.646	0.62
926.378	0.62
927.11	0.62
927.841	-0.38
928.573	-0.38
929.305	0.62
930.036	1.62
930.768	-0.38
931.499	0.62
932.23	-2.38
932.962	1.62
933.693	1.62
934.424	0.62
935.155	2.62
935.886	-1.38
936.617	-1.38
937.348	-1.38
938.078	-0.38
938.809	1.62
939.54	2.62
940.27	0.62
941.001	-0.38
941.731	-0.38
942.461	-1.38
943.191	-0.38
943.922	0.62
944.652	1.62
945.382	-0.38
946.112	0.62
946.841	1.62
947.571	0.62
948.301	-0.38
949.031	-0.38
949.76	-1.38
950.49	-0.38
951.219	1.62
951.948	1.62
952.678	1.62
953.407	-1.38
954.136	0.62
954.865	-0.38
955.594	1.62
956.323	0.62
957.052	1.62
957.78	-0.38
958.509	-1.38
959.238	-0.38
959.966	-0.38
960.695	-0.38
961.423	1.62
962.151	0.62
962.88	1.62
963.608	-0.38
964.336	0.62
965.064	-0.38
965.792	0.62
966.52	0.62
967.247	-0.38
967.975	1.62
968.703	-0.38
969.43	-1.38
970.158	0.62
970.885	-0.38
971.613	-1.38
972.34	-2.38
973.067	-2.38
973.794	-0.38
974.521	-0.38
975.248	-1.38
975.975	-0.38
976.702	0.62
977.429	-0.38
978.156	-0.38
978.882	0.62
979.609	1.62
980.335	-0.38
981.062	-0.38
981.788	-0.38
982.514	-0.38
983.24	-1.38
983.967	-1.38
984.693	2.62
985.419	0.62
986.144	0.62
986.87	1.62
987.596	-0.38
988.322	-0.38
989.047	0.62
989.773	-1.38
990.498	-0.38
991.224	-0.38
991.949	1.62
992.674	2.62
993.399	0.62
994.124	-0.38
994.849	-0.38
995.574	0.62
996.299	0.62
997.024	2.62
997.749	1.62
998.473	0.62
999.198	1.62
999.922	0.62
1000.647	-0.38
1001.371	5.62
1002.095	-0.38
1002.82	-0.38
1003.544	-1.38
1004.268	2.62
1004.992	2.62
1005.716	1.62
1006.439	0.62
1007.163	2.62
1007.887	1.62
1008.611	1.62
1009.334	1.62
1010.058	-0.38
1010.781	0.62
1011.504	0.62
1012.228	-1.38
1012.951	-1.38
1013.674	-0.38
1014.397	-1.38
1015.12	-0.38
