节点500_285_QEPB04081__80__14-56-53-339.txt的数据

Date: Wed Nov 12 14:56:53 CST 2025
User: PC
Spectrometer: QEPB0408
触发模式: 0
积分时间 (秒): 1.000000E-2
Scans to average: 1
启用暗噪声校正: true
启用非线性校正: false
滑动平均宽度: 0
X轴模式: Wavelengths
Number of Pixels in Spectrum: 1044
>>>>>Begin Spectral Data<<<<<
220.843	2.5
221.644	1.5
222.444	3.5
223.244	3.5
224.045	5.5
224.845	2.5
225.645	1.5
226.445	1.5
227.245	1.5
228.045	2.5
228.845	2.5
229.645	4.5
230.444	4.5
231.244	3.5
232.043	3.5
232.843	1.5
233.642	5.5
234.442	2.5
235.241	7.5
236.04	3.5
236.839	3.5
237.638	5.5
238.437	3.5
239.236	6.5
240.035	3.5
240.833	5.5
241.632	5.5
242.43	3.5
243.229	5.5
244.027	6.5
244.826	6.5
245.624	5.5
246.422	4.5
247.22	6.5
248.018	3.5
248.816	8.5
249.614	6.5
250.412	6.5
251.21	7.5
252.007	5.5
252.805	8.5
253.602	7.5
254.4	7.5
255.197	7.5
255.994	8.5
256.791	11.5
257.589	9.5
258.386	7.5
259.183	9.5
259.979	11.5
260.776	12.5
261.573	11.5
262.37	13.5
263.166	12.5
263.963	15.5
264.759	9.5
265.556	12.5
266.352	14.5
267.148	17.5
267.944	16.5
268.74	13.5
269.536	13.5
270.332	14.5
271.128	17.5
271.924	17.5
272.719	19.5
273.515	20.5
274.311	14.5
275.106	16.5
275.901	20.5
276.697	19.5
277.492	20.5
278.287	20.5
279.082	18.5
279.877	20.5
280.672	18.5
281.467	24.5
282.262	21.5
283.056	20.5
283.851	21.5
284.646	21.5
285.44	23.5
286.234	17.5
287.029	19.5
287.823	21.5
288.617	18.5
289.411	19.5
290.205	15.5
290.999	21.5
291.793	17.5
292.587	20.5
293.381	18.5
294.174	17.5
294.968	18.5
295.761	16.5
296.555	13.5
297.348	15.5
298.141	15.5
298.935	15.5
299.728	13.5
300.521	14.5
301.314	15.5
302.107	15.5
302.899	15.5
303.692	14.5
304.485	11.5
305.277	11.5
306.07	13.5
306.862	14.5
307.655	11.5
308.447	13.5
309.239	11.5
310.031	11.5
310.823	12.5
311.615	10.5
312.407	10.5
313.199	7.5
313.991	9.5
314.783	10.5
315.574	11.5
316.366	7.5
317.157	10.5
317.949	7.5
318.74	5.5
319.531	10.5
320.322	8.5
321.113	9.5
321.904	4.5
322.695	8.5
323.486	9.5
324.277	5.5
325.068	8.5
325.858	8.5
326.649	6.5
327.439	6.5
328.23	6.5
329.02	7.5
329.81	5.5
330.6	7.5
331.391	8.5
332.181	5.5
332.971	7.5
333.76	5.5
334.55	9.5
335.34	6.5
336.13	6.5
336.919	5.5
337.709	8.5
338.498	6.5
339.287	6.5
340.077	4.5
340.866	7.5
341.655	7.5
342.444	6.5
343.233	8.5
344.022	5.5
344.811	6.5
345.6	7.5
346.388	5.5
347.177	7.5
347.965	9.5
348.754	8.5
349.542	8.5
350.33	6.5
351.119	2.5
351.907	5.5
352.695	2.5
353.483	6.5
354.271	5.5
355.059	2.5
355.846	8.5
356.634	7.5
357.422	4.5
358.209	4.5
358.997	5.5
359.784	6.5
360.571	8.5
361.359	5.5
362.146	6.5
362.933	5.5
363.72	3.5
364.507	6.5
365.294	7.5
366.081	5.5
366.867	7.5
367.654	7.5
368.44	6.5
369.227	7.5
370.013	6.5
370.8	6.5
371.586	7.5
372.372	7.5
373.158	5.5
373.944	3.5
374.73	5.5
375.516	5.5
376.302	5.5
377.088	6.5
377.873	4.5
378.659	7.5
379.445	6.5
380.23	6.5
381.015	7.5
381.801	6.5
382.586	4.5
383.371	5.5
384.156	6.5
384.941	7.5
385.726	7.5
386.511	5.5
387.296	6.5
388.08	7.5
388.865	6.5
389.649	7.5
390.434	6.5
391.218	5.5
392.003	8.5
392.787	4.5
393.571	8.5
394.355	5.5
395.139	6.5
395.923	5.5
396.707	5.5
397.491	6.5
398.274	7.5
399.058	7.5
399.842	8.5
400.625	8.5
401.408	7.5
402.192	5.5
402.975	9.5
403.758	6.5
404.541	6.5
405.324	10.5
406.107	9.5
406.89	11.5
407.673	7.5
408.456	7.5
409.238	8.5
410.021	8.5
410.803	9.5
411.586	8.5
412.368	9.5
413.151	7.5
413.933	9.5
414.715	7.5
415.497	9.5
416.279	9.5
417.061	12.5
417.843	8.5
418.624	11.5
419.406	8.5
420.188	13.5
420.969	8.5
421.751	13.5
422.532	12.5
423.313	13.5
424.095	13.5
424.876	12.5
425.657	11.5
426.438	12.5
427.219	13.5
428	11.5
428.78	14.5
429.561	15.5
430.342	11.5
431.122	16.5
431.903	14.5
432.683	15.5
433.464	15.5
434.244	16.5
435.024	17.5
435.804	18.5
436.584	19.5
437.364	20.5
438.144	21.5
438.924	16.5
439.704	22.5
440.483	25.5
441.263	23.5
442.042	25.5
442.822	28.5
443.601	26.5
444.38	31.5
445.16	30.5
445.939	35.5
446.718	34.5
447.497	37.5
448.276	38.5
449.054	41.5
449.833	47.5
450.612	51.5
451.391	52.5
452.169	61.5
452.948	64.5
453.726	69.5
454.504	74.5
455.282	82.5
456.061	90.5
456.839	103.5
457.617	111.5
458.395	128.5
459.172	145.5
459.95	154.5
460.728	177.5
461.506	193.5
462.283	209.5
463.061	240.5
463.838	270.5
464.615	303.5
465.393	337.5
466.17	372.5
466.947	418.5
467.724	476.5
468.501	523.5
469.278	586.5
470.055	657.5
470.831	723.5
471.608	822.5
472.385	918.5
473.161	1020.5
473.938	1121.5
474.714	1268.5
475.49	1395.5
476.266	1547.5
477.043	1722.5
477.819	1919.5
478.595	2128.5
479.371	2340.5
480.146	2574.5
480.922	2873.5
481.698	3172.5
482.473	3527.5
483.249	3913.5
484.024	4332.5
484.8	4774.5
485.575	5270.5
486.35	5803.5
487.126	6411.5
487.901	7087.5
488.676	7816.5
489.451	8566.5
490.225	9350.5
491	10314.5
491.775	11309.5
492.55	12309.5
493.324	13355.5
494.099	14450.5
494.873	15590.5
495.647	16884.5
496.422	18128.5
497.196	19411.5
497.97	20718.5
498.744	21996.5
499.518	23212.5
500.292	24439.5
501.066	25503.5
501.839	26422.5
502.613	27273.5
503.387	27984.5
504.16	28564.5
504.934	28796.5
505.707	28730.5
506.48	28643.5
507.253	28441.5
508.027	27961.5
508.8	27491.5
509.573	26885.5
510.346	26065.5
511.118	25165.5
511.891	24218.5
512.664	23296.5
513.437	22388.5
514.209	21379.5
514.982	20395.5
515.754	19416.5
516.526	18578.5
517.298	17762.5
518.071	16940.5
518.843	16328.5
519.615	15667.5
520.387	15095.5
521.159	14493.5
521.93	13903.5
522.702	13353.5
523.474	12780.5
524.245	12229.5
525.017	11668.5
525.788	11219.5
526.56	10721.5
527.331	10190.5
528.102	9712.5
528.873	9287.5
529.644	8763.5
530.415	8319.5
531.186	7868.5
531.957	7486.5
532.728	7069.5
533.498	6705.5
534.269	6301.5
535.039	5938.5
535.81	5604.5
536.58	5310.5
537.351	5002.5
538.121	4726.5
538.891	4463.5
539.661	4207.5
540.431	3990.5
541.201	3781.5
541.971	3561.5
542.741	3404.5
543.51	3226.5
544.28	3079.5
545.05	2904.5
545.819	2769.5
546.588	2618.5
547.358	2497.5
548.127	2377.5
548.896	2246.5
549.665	2114.5
550.434	2025.5
551.203	1918.5
551.972	1803.5
552.741	1700.5
553.51	1615.5
554.278	1510.5
555.047	1436.5
555.815	1357.5
556.584	1275.5
557.352	1209.5
558.121	1132.5
558.889	1071.5
559.657	1009.5
560.425	963.5
561.193	890.5
561.961	847.5
562.729	795.5
563.496	758.5
564.264	723.5
565.032	675.5
565.799	641.5
566.567	607.5
567.334	576.5
568.101	542.5
568.869	512.5
569.636	479.5
570.403	457.5
571.17	432.5
571.937	398.5
572.704	379.5
573.471	354.5
574.237	339.5
575.004	323.5
575.771	300.5
576.537	279.5
577.303	263.5
578.07	253.5
578.836	233.5
579.602	225.5
580.368	209.5
581.134	203.5
581.9	194.5
582.666	182.5
583.432	169.5
584.198	158.5
584.964	149.5
585.729	143.5
586.495	138.5
587.26	134.5
588.025	126.5
588.791	119.5
589.556	110.5
590.321	106.5
591.086	100.5
591.851	93.5
592.616	89.5
593.381	87.5
594.146	81.5
594.911	77.5
595.675	76.5
596.44	73.5
597.204	67.5
597.969	67.5
598.733	61.5
599.497	58.5
600.261	54.5
601.025	54.5
601.79	48.5
602.553	50.5
603.317	48.5
604.081	47.5
604.845	43.5
605.609	42.5
606.372	38.5
607.136	41.5
607.899	37.5
608.662	35.5
609.426	35.5
610.189	31.5
610.952	31.5
611.715	29.5
612.478	29.5
613.241	28.5
614.004	26.5
614.767	29.5
615.529	23.5
616.292	22.5
617.055	21.5
617.817	24.5
618.579	23.5
619.342	21.5
620.104	23.5
620.866	22.5
621.628	16.5
622.39	19.5
623.152	17.5
623.914	22.5
624.676	16.5
625.438	16.5
626.199	16.5
626.961	13.5
627.722	13.5
628.484	12.5
629.245	15.5
630.006	15.5
630.768	11.5
631.529	13.5
632.29	11.5
633.051	13.5
633.812	9.5
634.573	12.5
635.333	12.5
636.094	9.5
636.855	13.5
637.615	9.5
638.376	10.5
639.136	13.5
639.896	10.5
640.657	11.5
641.417	6.5
642.177	9.5
642.937	8.5
643.697	9.5
644.457	8.5
645.216	6.5
645.976	9.5
646.736	10.5
647.495	7.5
648.255	6.5
649.014	9.5
649.774	6.5
650.533	6.5
651.292	6.5
652.051	7.5
652.81	8.5
653.569	5.5
654.328	6.5
655.087	7.5
655.846	6.5
656.604	7.5
657.363	7.5
658.121	5.5
658.88	7.5
659.638	5.5
660.397	5.5
661.155	7.5
661.913	4.5
662.671	5.5
663.429	4.5
664.187	6.5
664.945	5.5
665.703	5.5
666.46	6.5
667.218	4.5
667.976	5.5
668.733	5.5
669.49	6.5
670.248	5.5
671.005	5.5
671.762	5.5
672.519	7.5
673.276	7.5
674.033	2.5
674.79	7.5
675.547	4.5
676.304	7.5
677.06	4.5
677.817	5.5
678.574	5.5
679.33	5.5
680.086	4.5
680.843	5.5
681.599	4.5
682.355	4.5
683.111	3.5
683.867	4.5
684.623	3.5
685.379	2.5
686.135	5.5
686.89	4.5
687.646	4.5
688.402	6.5
689.157	5.5
689.912	4.5
690.668	5.5
691.423	4.5
692.178	5.5
692.933	6.5
693.688	3.5
694.443	4.5
695.198	6.5
695.953	4.5
696.708	4.5
697.462	3.5
698.217	4.5
698.972	4.5
699.726	4.5
700.48	6.5
701.235	4.5
701.989	5.5
702.743	3.5
703.497	4.5
704.251	2.5
705.005	1.5
705.759	4.5
706.513	5.5
707.266	3.5
708.02	5.5
708.774	2.5
709.527	3.5
710.28	3.5
711.034	5.5
711.787	3.5
712.54	4.5
713.293	1.5
714.046	2.5
714.799	3.5
715.552	5.5
716.305	3.5
717.058	3.5
717.81	5.5
718.563	4.5
719.315	4.5
720.068	2.5
720.82	3.5
721.573	5.5
722.325	7.5
723.077	1.5
723.829	3.5
724.581	4.5
725.333	5.5
726.085	3.5
726.836	4.5
727.588	3.5
728.34	5.5
729.091	5.5
729.843	4.5
730.594	5.5
731.346	5.5
732.097	1.5
732.848	6.5
733.599	5.5
734.35	6.5
735.101	2.5
735.852	5.5
736.603	4.5
737.354	4.5
738.104	5.5
738.855	6.5
739.605	7.5
740.356	7.5
741.106	5.5
741.856	8.5
742.607	3.5
743.357	5.5
744.107	6.5
744.857	5.5
745.607	5.5
746.357	4.5
747.106	7.5
747.856	5.5
748.606	6.5
749.355	7.5
750.105	3.5
750.854	4.5
751.603	8.5
752.353	4.5
753.102	8.5
753.851	5.5
754.6	8.5
755.349	6.5
756.098	8.5
756.847	7.5
757.595	5.5
758.344	6.5
759.093	5.5
759.841	5.5
760.589	8.5
761.338	7.5
762.086	7.5
762.834	5.5
763.582	6.5
764.331	7.5
765.079	9.5
765.826	7.5
766.574	7.5
767.322	8.5
768.07	7.5
768.817	7.5
769.565	5.5
770.312	5.5
771.06	6.5
771.807	9.5
772.554	7.5
773.302	8.5
774.049	10.5
774.796	9.5
775.543	7.5
776.29	10.5
777.036	7.5
777.783	9.5
778.53	9.5
779.276	9.5
780.023	8.5
780.769	7.5
781.516	11.5
782.262	9.5
783.008	13.5
783.754	7.5
784.5	7.5
785.246	7.5
785.992	7.5
786.738	11.5
787.484	8.5
788.23	9.5
788.975	7.5
789.721	12.5
790.466	10.5
791.212	9.5
791.957	7.5
792.702	7.5
793.447	8.5
794.193	8.5
794.938	6.5
795.683	9.5
796.427	8.5
797.172	8.5
797.917	9.5
798.662	7.5
799.406	7.5
800.151	7.5
800.895	11.5
801.64	7.5
802.384	6.5
803.128	7.5
803.872	7.5
804.616	8.5
805.36	8.5
806.104	6.5
806.848	3.5
807.592	7.5
808.336	6.5
809.079	4.5
809.823	6.5
810.566	8.5
811.31	6.5
812.053	5.5
812.796	8.5
813.539	6.5
814.283	3.5
815.026	7.5
815.769	5.5
816.511	4.5
817.254	4.5
817.997	2.5
818.74	4.5
819.482	5.5
820.225	3.5
820.967	5.5
821.71	3.5
822.452	4.5
823.194	5.5
823.936	5.5
824.678	4.5
825.42	2.5
826.162	4.5
826.904	1.5
827.646	6.5
828.388	5.5
829.129	6.5
829.871	4.5
830.612	3.5
831.354	4.5
832.095	3.5
832.836	5.5
833.577	2.5
834.319	4.5
835.06	5.5
835.801	3.5
836.542	5.5
837.282	4.5
838.023	5.5
838.764	4.5
839.504	3.5
840.245	3.5
840.985	4.5
841.726	4.5
842.466	6.5
843.206	2.5
843.946	4.5
844.687	2.5
845.427	3.5
846.166	3.5
846.906	7.5
847.646	3.5
848.386	2.5
849.125	4.5
849.865	1.5
850.605	3.5
851.344	0.5
852.083	3.5
852.823	3.5
853.562	3.5
854.301	3.5
855.04	3.5
855.779	3.5
856.518	3.5
857.257	2.5
857.995	3.5
858.734	2.5
859.473	2.5
860.211	1.5
860.95	3.5
861.688	-0.5
862.426	3.5
863.165	1.5
863.903	3.5
864.641	3.5
865.379	3.5
866.117	-1.5
866.855	2.5
867.593	-0.5
868.33	3.5
869.068	3.5
869.806	1.5
870.543	3.5
871.28	1.5
872.018	2.5
872.755	4.5
873.492	0.5
874.229	2.5
874.967	1.5
875.703	1.5
876.44	-0.5
877.177	1.5
877.914	1.5
878.651	1.5
879.387	2.5
880.124	0.5
880.86	4.5
881.597	1.5
882.333	2.5
883.069	3.5
883.806	-0.5
884.542	0.5
885.278	1.5
886.014	2.5
886.749	3.5
887.485	-0.5
888.221	0.5
888.957	1.5
889.692	2.5
890.428	0.5
891.163	1.5
891.899	-0.5
892.634	1.5
893.369	2.5
894.104	0.5
894.839	2.5
895.574	1.5
896.309	2.5
897.044	2.5
897.779	-0.5
898.514	1.5
899.248	0.5
899.983	-0.5
900.717	2.5
901.452	-2.5
902.186	-0.5
902.92	1.5
903.654	2.5
904.389	2.5
905.123	-0.5
905.857	-0.5
906.59	0.5
907.324	1.5
908.058	1.5
908.792	-0.5
909.525	1.5
910.259	0.5
910.992	-0.5
911.726	1.5
912.459	1.5
913.192	0.5
913.925	0.5
914.658	3.5
915.391	0.5
916.124	1.5
916.857	1.5
917.59	0.5
918.323	2.5
919.055	0.5
919.788	1.5
920.521	0.5
921.253	1.5
921.985	1.5
922.718	0.5
923.45	0.5
924.182	0.5
924.914	0.5
925.646	-1.5
926.378	-0.5
927.11	0.5
927.841	0.5
928.573	4.5
929.305	1.5
930.036	2.5
930.768	1.5
931.499	2.5
932.23	1.5
932.962	0.5
933.693	0.5
934.424	-0.5
935.155	1.5
935.886	0.5
936.617	-1.5
937.348	-0.5
938.078	-0.5
938.809	2.5
939.54	-0.5
940.27	0.5
941.001	-0.5
941.731	0.5
942.461	-1.5
943.191	0.5
943.922	0.5
944.652	-0.5
945.382	0.5
946.112	-0.5
946.841	1.5
947.571	0.5
948.301	1.5
949.031	2.5
949.76	0.5
950.49	1.5
951.219	-0.5
951.948	0.5
952.678	-3.5
953.407	0.5
954.136	0.5
954.865	1.5
955.594	1.5
956.323	1.5
957.052	0.5
957.78	0.5
958.509	2.5
959.238	-0.5
959.966	0.5
960.695	1.5
961.423	-0.5
962.151	1.5
962.88	-1.5
963.608	-0.5
964.336	-0.5
965.064	0.5
965.792	-0.5
966.52	1.5
967.247	0.5
967.975	0.5
968.703	0.5
969.43	2.5
970.158	-0.5
970.885	-0.5
971.613	-1.5
972.34	1.5
973.067	-0.5
973.794	0.5
974.521	-0.5
975.248	-0.5
975.975	0.5
976.702	1.5
977.429	1.5
978.156	1.5
978.882	1.5
979.609	1.5
980.335	0.5
981.062	1.5
981.788	-0.5
982.514	2.5
983.24	0.5
983.967	0.5
984.693	1.5
985.419	0.5
986.144	-0.5
986.87	2.5
987.596	-0.5
988.322	0.5
989.047	-1.5
989.773	0.5
990.498	0.5
991.224	2.5
991.949	-0.5
992.674	0.5
993.399	4.5
994.124	0.5
994.849	1.5
995.574	-0.5
996.299	2.5
997.024	1.5
997.749	0.5
998.473	-0.5
999.198	0.5
999.922	1.5
1000.647	-0.5
1001.371	3.5
1002.095	-1.5
1002.82	-1.5
1003.544	-0.5
1004.268	2.5
1004.992	2.5
1005.716	-1.5
1006.439	4.5
1007.163	1.5
1007.887	1.5
1008.611	0.5
1009.334	2.5
1010.058	-1.5
1010.781	1.5
1011.504	1.5
1012.228	-0.5
1012.951	0.5
1013.674	-0.5
1014.397	0.5
1015.12	-0.5
