节点500_285_QEPB04081__759__15-08-10-806.txt的数据

Date: Wed Nov 12 15:08:10 CST 2025
User: PC
Spectrometer: QEPB0408
触发模式: 0
积分时间 (秒): 1.000000E-2
Scans to average: 1
启用暗噪声校正: true
启用非线性校正: false
滑动平均宽度: 0
X轴模式: Wavelengths
Number of Pixels in Spectrum: 1044
>>>>>Begin Spectral Data<<<<<
220.843	-0.12
221.644	2.88
222.444	-0.12
223.244	0.88
224.045	1.88
224.845	3.88
225.645	0.88
226.445	1.88
227.245	2.88
228.045	1.88
228.845	2.88
229.645	1.88
230.444	4.88
231.244	2.88
232.043	0.88
232.843	1.88
233.642	3.88
234.442	3.88
235.241	3.88
236.04	0.88
236.839	4.88
237.638	0.88
238.437	3.88
239.236	2.88
240.035	3.88
240.833	4.88
241.632	4.88
242.43	3.88
243.229	5.88
244.027	4.88
244.826	5.88
245.624	4.88
246.422	3.88
247.22	5.88
248.018	7.88
248.816	5.88
249.614	4.88
250.412	5.88
251.21	6.88
252.007	2.88
252.805	6.88
253.602	7.88
254.4	7.88
255.197	7.88
255.994	4.88
256.791	7.88
257.589	6.88
258.386	6.88
259.183	9.88
259.979	7.88
260.776	8.88
261.573	10.88
262.37	10.88
263.166	10.88
263.963	9.88
264.759	10.88
265.556	10.88
266.352	10.88
267.148	13.88
267.944	11.88
268.74	11.88
269.536	12.88
270.332	11.88
271.128	12.88
271.924	14.88
272.719	13.88
273.515	13.88
274.311	13.88
275.106	13.88
275.901	13.88
276.697	14.88
277.492	15.88
278.287	17.88
279.082	13.88
279.877	13.88
280.672	16.88
281.467	16.88
282.262	17.88
283.056	17.88
283.851	15.88
284.646	17.88
285.44	14.88
286.234	17.88
287.029	14.88
287.823	19.88
288.617	16.88
289.411	19.88
290.205	20.88
290.999	16.88
291.793	15.88
292.587	17.88
293.381	13.88
294.174	17.88
294.968	15.88
295.761	14.88
296.555	15.88
297.348	15.88
298.141	9.88
298.935	16.88
299.728	13.88
300.521	15.88
301.314	13.88
302.107	11.88
302.899	11.88
303.692	11.88
304.485	11.88
305.277	11.88
306.07	13.88
306.862	11.88
307.655	11.88
308.447	12.88
309.239	12.88
310.031	11.88
310.823	10.88
311.615	10.88
312.407	8.88
313.199	9.88
313.991	8.88
314.783	7.88
315.574	9.88
316.366	9.88
317.157	8.88
317.949	6.88
318.74	5.88
319.531	8.88
320.322	7.88
321.113	9.88
321.904	6.88
322.695	7.88
323.486	8.88
324.277	5.88
325.068	5.88
325.858	8.88
326.649	6.88
327.439	5.88
328.23	4.88
329.02	7.88
329.81	5.88
330.6	7.88
331.391	6.88
332.181	7.88
332.971	7.88
333.76	5.88
334.55	7.88
335.34	8.88
336.13	5.88
336.919	4.88
337.709	5.88
338.498	7.88
339.287	4.88
340.077	3.88
340.866	7.88
341.655	4.88
342.444	7.88
343.233	5.88
344.022	7.88
344.811	4.88
345.6	6.88
346.388	5.88
347.177	6.88
347.965	6.88
348.754	5.88
349.542	6.88
350.33	4.88
351.119	5.88
351.907	4.88
352.695	7.88
353.483	6.88
354.271	4.88
355.059	5.88
355.846	3.88
356.634	5.88
357.422	4.88
358.209	5.88
358.997	5.88
359.784	4.88
360.571	4.88
361.359	5.88
362.146	6.88
362.933	5.88
363.72	6.88
364.507	4.88
365.294	3.88
366.081	6.88
366.867	4.88
367.654	5.88
368.44	2.88
369.227	3.88
370.013	5.88
370.8	3.88
371.586	5.88
372.372	6.88
373.158	4.88
373.944	1.88
374.73	6.88
375.516	5.88
376.302	6.88
377.088	2.88
377.873	2.88
378.659	5.88
379.445	3.88
380.23	4.88
381.015	2.88
381.801	4.88
382.586	4.88
383.371	4.88
384.156	4.88
384.941	4.88
385.726	4.88
386.511	4.88
387.296	4.88
388.08	4.88
388.865	3.88
389.649	3.88
390.434	4.88
391.218	3.88
392.003	4.88
392.787	3.88
393.571	4.88
394.355	6.88
395.139	3.88
395.923	3.88
396.707	6.88
397.491	6.88
398.274	5.88
399.058	6.88
399.842	6.88
400.625	7.88
401.408	5.88
402.192	6.88
402.975	4.88
403.758	8.88
404.541	5.88
405.324	7.88
406.107	6.88
406.89	8.88
407.673	5.88
408.456	7.88
409.238	7.88
410.021	9.88
410.803	7.88
411.586	7.88
412.368	10.88
413.151	6.88
413.933	9.88
414.715	8.88
415.497	7.88
416.279	8.88
417.061	9.88
417.843	9.88
418.624	9.88
419.406	9.88
420.188	7.88
420.969	7.88
421.751	8.88
422.532	10.88
423.313	11.88
424.095	10.88
424.876	11.88
425.657	10.88
426.438	10.88
427.219	9.88
428	11.88
428.78	13.88
429.561	16.88
430.342	12.88
431.122	16.88
431.903	16.88
432.683	16.88
433.464	13.88
434.244	16.88
435.024	15.88
435.804	18.88
436.584	15.88
437.364	15.88
438.144	18.88
438.924	20.88
439.704	22.88
440.483	19.88
441.263	24.88
442.042	24.88
442.822	29.88
443.601	28.88
444.38	29.88
445.16	32.88
445.939	34.88
446.718	35.88
447.497	39.88
448.276	44.88
449.054	50.88
449.833	49.88
450.612	51.88
451.391	60.88
452.169	64.88
452.948	73.88
453.726	81.88
454.504	91.88
455.282	96.88
456.061	111.88
456.839	123.88
457.617	137.88
458.395	150.88
459.172	170.88
459.95	189.88
460.728	202.88
461.506	232.88
462.283	252.88
463.061	285.88
463.838	322.88
464.615	360.88
465.393	394.88
466.17	438.88
466.947	483.88
467.724	536.88
468.501	608.88
469.278	669.88
470.055	737.88
470.831	818.88
471.608	905.88
472.385	983.88
473.161	1086.88
473.938	1207.88
474.714	1323.88
475.49	1462.88
476.266	1606.88
477.043	1781.88
477.819	1939.88
478.595	2137.88
479.371	2336.88
480.146	2565.88
480.922	2791.88
481.698	3054.88
482.473	3356.88
483.249	3652.88
484.024	3981.88
484.8	4344.88
485.575	4762.88
486.35	5180.88
487.126	5634.88
487.901	6160.88
488.676	6720.88
489.451	7308.88
490.225	7934.88
491	8604.88
491.775	9348.88
492.55	10123.88
493.324	10927.88
494.099	11734.88
494.873	12627.88
495.647	13505.88
496.422	14485.88
497.196	15586.88
497.97	16592.88
498.744	17628.88
499.518	18668.88
500.292	19712.88
501.066	20784.88
501.839	21593.88
502.613	22532.88
503.387	23325.88
504.16	24057.88
504.934	24555.88
505.707	24941.88
506.48	25161.88
507.253	25304.88
508.027	25286.88
508.8	25231.88
509.573	25048.88
510.346	24662.88
511.118	24149.88
511.891	23573.88
512.664	22981.88
513.437	22292.88
514.209	21474.88
514.982	20684.88
515.754	19935.88
516.526	19106.88
517.298	18365.88
518.071	17553.88
518.843	16922.88
519.615	16280.88
520.387	15628.88
521.159	15038.88
521.93	14388.88
522.702	13891.88
523.474	13334.88
524.245	12710.88
525.017	12218.88
525.788	11739.88
526.56	11213.88
527.331	10693.88
528.102	10283.88
528.873	9851.88
529.644	9372.88
530.415	8937.88
531.186	8503.88
531.957	8072.88
532.728	7708.88
533.498	7314.88
534.269	6924.88
535.039	6578.88
535.81	6251.88
536.58	5887.88
537.351	5538.88
538.121	5218.88
538.891	4977.88
539.661	4720.88
540.431	4433.88
541.201	4196.88
541.971	3971.88
542.741	3779.88
543.51	3583.88
544.28	3422.88
545.05	3232.88
545.819	3073.88
546.588	2906.88
547.358	2782.88
548.127	2653.88
548.896	2516.88
549.665	2399.88
550.434	2292.88
551.203	2137.88
551.972	2049.88
552.741	1925.88
553.51	1840.88
554.278	1717.88
555.047	1631.88
555.815	1542.88
556.584	1456.88
557.352	1390.88
558.121	1311.88
558.889	1231.88
559.657	1163.88
560.425	1098.88
561.193	1036.88
561.961	978.88
562.729	924.88
563.496	879.88
564.264	832.88
565.032	776.88
565.799	741.88
566.567	694.88
567.334	655.88
568.101	621.88
568.869	588.88
569.636	555.88
570.403	524.88
571.17	488.88
571.937	461.88
572.704	441.88
573.471	420.88
574.237	389.88
575.004	366.88
575.771	347.88
576.537	326.88
577.303	307.88
578.07	286.88
578.836	270.88
579.602	252.88
580.368	244.88
581.134	228.88
581.9	215.88
582.666	200.88
583.432	194.88
584.198	183.88
584.964	171.88
585.729	168.88
586.495	154.88
587.26	154.88
588.025	143.88
588.791	139.88
589.556	123.88
590.321	119.88
591.086	113.88
591.851	107.88
592.616	104.88
593.381	99.88
594.146	92.88
594.911	88.88
595.675	84.88
596.44	80.88
597.204	81.88
597.969	76.88
598.733	68.88
599.497	66.88
600.261	63.88
601.025	61.88
601.79	55.88
602.553	58.88
603.317	54.88
604.081	51.88
604.845	48.88
605.609	42.88
606.372	45.88
607.136	41.88
607.899	35.88
608.662	39.88
609.426	38.88
610.189	36.88
610.952	34.88
611.715	33.88
612.478	32.88
613.241	29.88
614.004	31.88
614.767	24.88
615.529	28.88
616.292	27.88
617.055	24.88
617.817	24.88
618.579	21.88
619.342	26.88
620.104	19.88
620.866	18.88
621.628	19.88
622.39	20.88
623.152	18.88
623.914	17.88
624.676	19.88
625.438	20.88
626.199	17.88
626.961	14.88
627.722	14.88
628.484	15.88
629.245	12.88
630.006	13.88
630.768	12.88
631.529	13.88
632.29	13.88
633.051	9.88
633.812	13.88
634.573	10.88
635.333	12.88
636.094	11.88
636.855	10.88
637.615	9.88
638.376	10.88
639.136	9.88
639.896	7.88
640.657	9.88
641.417	9.88
642.177	8.88
642.937	9.88
643.697	9.88
644.457	10.88
645.216	7.88
645.976	8.88
646.736	5.88
647.495	6.88
648.255	7.88
649.014	6.88
649.774	7.88
650.533	7.88
651.292	5.88
652.051	8.88
652.81	6.88
653.569	5.88
654.328	6.88
655.087	4.88
655.846	6.88
656.604	5.88
657.363	4.88
658.121	5.88
658.88	7.88
659.638	6.88
660.397	4.88
661.155	6.88
661.913	4.88
662.671	4.88
663.429	5.88
664.187	4.88
664.945	4.88
665.703	6.88
666.46	5.88
667.218	2.88
667.976	4.88
668.733	4.88
669.49	5.88
670.248	3.88
671.005	5.88
671.762	3.88
672.519	3.88
673.276	4.88
674.033	3.88
674.79	4.88
675.547	1.88
676.304	5.88
677.06	4.88
677.817	3.88
678.574	1.88
679.33	3.88
680.086	1.88
680.843	3.88
681.599	2.88
682.355	2.88
683.111	3.88
683.867	3.88
684.623	2.88
685.379	3.88
686.135	4.88
686.89	4.88
687.646	1.88
688.402	4.88
689.157	4.88
689.912	2.88
690.668	4.88
691.423	5.88
692.178	3.88
692.933	3.88
693.688	1.88
694.443	5.88
695.198	2.88
695.953	5.88
696.708	1.88
697.462	3.88
698.217	4.88
698.972	3.88
699.726	4.88
700.48	3.88
701.235	3.88
701.989	1.88
702.743	3.88
703.497	2.88
704.251	3.88
705.005	4.88
705.759	5.88
706.513	0.88
707.266	1.88
708.02	1.88
708.774	3.88
709.527	3.88
710.28	4.88
711.034	4.88
711.787	4.88
712.54	5.88
713.293	1.88
714.046	3.88
714.799	1.88
715.552	1.88
716.305	3.88
717.058	1.88
717.81	1.88
718.563	4.88
719.315	4.88
720.068	1.88
720.82	3.88
721.573	2.88
722.325	0.88
723.077	4.88
723.829	1.88
724.581	1.88
725.333	4.88
726.085	2.88
726.836	3.88
727.588	3.88
728.34	3.88
729.091	1.88
729.843	3.88
730.594	3.88
731.346	3.88
732.097	1.88
732.848	3.88
733.599	5.88
734.35	4.88
735.101	2.88
735.852	5.88
736.603	3.88
737.354	3.88
738.104	5.88
738.855	4.88
739.605	0.88
740.356	3.88
741.106	6.88
741.856	3.88
742.607	4.88
743.357	4.88
744.107	3.88
744.857	2.88
745.607	1.88
746.357	4.88
747.106	4.88
747.856	1.88
748.606	2.88
749.355	4.88
750.105	4.88
750.854	4.88
751.603	3.88
752.353	5.88
753.102	4.88
753.851	4.88
754.6	4.88
755.349	4.88
756.098	4.88
756.847	3.88
757.595	3.88
758.344	8.88
759.093	3.88
759.841	5.88
760.589	4.88
761.338	5.88
762.086	6.88
762.834	5.88
763.582	7.88
764.331	5.88
765.079	6.88
765.826	5.88
766.574	5.88
767.322	6.88
768.07	4.88
768.817	7.88
769.565	7.88
770.312	5.88
771.06	5.88
771.807	6.88
772.554	9.88
773.302	6.88
774.049	6.88
774.796	7.88
775.543	8.88
776.29	6.88
777.036	6.88
777.783	7.88
778.53	7.88
779.276	9.88
780.023	6.88
780.769	4.88
781.516	7.88
782.262	6.88
783.008	8.88
783.754	8.88
784.5	6.88
785.246	9.88
785.992	4.88
786.738	10.88
787.484	5.88
788.23	8.88
788.975	7.88
789.721	10.88
790.466	6.88
791.212	6.88
791.957	7.88
792.702	5.88
793.447	9.88
794.193	4.88
794.938	5.88
795.683	9.88
796.427	8.88
797.172	6.88
797.917	7.88
798.662	7.88
799.406	7.88
800.151	7.88
800.895	6.88
801.64	5.88
802.384	7.88
803.128	4.88
803.872	6.88
804.616	7.88
805.36	5.88
806.104	8.88
806.848	5.88
807.592	6.88
808.336	4.88
809.079	4.88
809.823	4.88
810.566	4.88
811.31	6.88
812.053	7.88
812.796	5.88
813.539	6.88
814.283	5.88
815.026	5.88
815.769	2.88
816.511	5.88
817.254	6.88
817.997	4.88
818.74	5.88
819.482	5.88
820.225	3.88
820.967	4.88
821.71	3.88
822.452	3.88
823.194	3.88
823.936	3.88
824.678	4.88
825.42	5.88
826.162	1.88
826.904	4.88
827.646	3.88
828.388	2.88
829.129	3.88
829.871	1.88
830.612	6.88
831.354	2.88
832.095	3.88
832.836	2.88
833.577	3.88
834.319	3.88
835.06	6.88
835.801	3.88
836.542	3.88
837.282	1.88
838.023	2.88
838.764	3.88
839.504	3.88
840.245	1.88
840.985	3.88
841.726	2.88
842.466	2.88
843.206	5.88
843.946	3.88
844.687	2.88
845.427	2.88
846.166	2.88
846.906	2.88
847.646	2.88
848.386	2.88
849.125	1.88
849.865	1.88
850.605	3.88
851.344	6.88
852.083	3.88
852.823	2.88
853.562	4.88
854.301	-0.12
855.04	3.88
855.779	-0.12
856.518	1.88
857.257	1.88
857.995	1.88
858.734	3.88
859.473	0.88
860.211	1.88
860.95	3.88
861.688	0.88
862.426	3.88
863.165	1.88
863.903	2.88
864.641	0.88
865.379	1.88
866.117	2.88
866.855	1.88
867.593	0.88
868.33	0.88
869.068	2.88
869.806	1.88
870.543	0.88
871.28	0.88
872.018	0.88
872.755	2.88
873.492	-1.12
874.229	2.88
874.967	0.88
875.703	-0.12
876.44	1.88
877.177	1.88
877.914	1.88
878.651	1.88
879.387	-1.12
880.124	0.88
880.86	-0.12
881.597	1.88
882.333	1.88
883.069	1.88
883.806	1.88
884.542	-0.12
885.278	0.88
886.014	-1.12
886.749	3.88
887.485	-0.12
888.221	1.88
888.957	-1.12
889.692	0.88
890.428	0.88
891.163	0.88
891.899	0.88
892.634	0.88
893.369	1.88
894.104	-0.12
894.839	2.88
895.574	-0.12
896.309	-1.12
897.044	1.88
897.779	1.88
898.514	1.88
899.248	-0.12
899.983	-2.12
900.717	1.88
901.452	1.88
902.186	0.88
902.92	-0.12
903.654	0.88
904.389	0.88
905.123	-1.12
905.857	1.88
906.59	1.88
907.324	-0.12
908.058	0.88
908.792	-2.12
909.525	2.88
910.259	0.88
910.992	-2.12
911.726	1.88
912.459	1.88
913.192	0.88
913.925	-0.12
914.658	0.88
915.391	0.88
916.124	-0.12
916.857	1.88
917.59	0.88
918.323	-1.12
919.055	0.88
919.788	-0.12
920.521	-2.12
921.253	-0.12
921.985	-0.12
922.718	3.88
923.45	0.88
924.182	0.88
924.914	-2.12
925.646	1.88
926.378	-0.12
927.11	-1.12
927.841	0.88
928.573	-0.12
929.305	-0.12
930.036	-0.12
930.768	-1.12
931.499	-0.12
932.23	-0.12
932.962	0.88
933.693	1.88
934.424	0.88
935.155	-0.12
935.886	0.88
936.617	-0.12
937.348	-1.12
938.078	0.88
938.809	-2.12
939.54	0.88
940.27	1.88
941.001	-0.12
941.731	1.88
942.461	-1.12
943.191	0.88
943.922	-0.12
944.652	0.88
945.382	0.88
946.112	-0.12
946.841	0.88
947.571	1.88
948.301	-1.12
949.031	0.88
949.76	-3.12
950.49	-0.12
951.219	0.88
951.948	-0.12
952.678	0.88
953.407	-2.12
954.136	-0.12
954.865	1.88
955.594	-0.12
956.323	-0.12
957.052	0.88
957.78	-1.12
958.509	-2.12
959.238	-1.12
959.966	-1.12
960.695	0.88
961.423	0.88
962.151	1.88
962.88	0.88
963.608	-0.12
964.336	-1.12
965.064	1.88
965.792	0.88
966.52	1.88
967.247	1.88
967.975	0.88
968.703	0.88
969.43	0.88
970.158	1.88
970.885	-2.12
971.613	1.88
972.34	-1.12
973.067	-0.12
973.794	-0.12
974.521	-0.12
975.248	0.88
975.975	-0.12
976.702	0.88
977.429	-1.12
978.156	1.88
978.882	-1.12
979.609	0.88
980.335	2.88
981.062	0.88
981.788	0.88
982.514	-0.12
983.24	0.88
983.967	-1.12
984.693	-1.12
985.419	0.88
986.144	-1.12
986.87	-2.12
987.596	-1.12
988.322	-0.12
989.047	-1.12
989.773	0.88
990.498	-2.12
991.224	-2.12
991.949	-0.12
992.674	-1.12
993.399	-1.12
994.124	-0.12
994.849	-0.12
995.574	0.88
996.299	-1.12
997.024	0.88
997.749	-1.12
998.473	0.88
999.198	-0.12
999.922	-0.12
1000.647	1.88
1001.371	3.88
1002.095	-0.12
1002.82	-1.12
1003.544	-2.12
1004.268	1.88
1004.992	-1.12
1005.716	0.88
1006.439	-0.12
1007.163	2.88
1007.887	0.88
1008.611	2.88
1009.334	1.88
1010.058	-1.12
1010.781	1.88
1011.504	0.88
1012.228	-0.12
1012.951	-0.12
1013.674	-3.12
1014.397	2.88
1015.12	-0.12
