节点500_285_QEPB04081__557__15-04-49-259.txt的数据

Date: Wed Nov 12 15:04:49 CST 2025
User: PC
Spectrometer: QEPB0408
触发模式: 0
积分时间 (秒): 1.000000E-2
Scans to average: 1
启用暗噪声校正: true
启用非线性校正: false
滑动平均宽度: 0
X轴模式: Wavelengths
Number of Pixels in Spectrum: 1044
>>>>>Begin Spectral Data<<<<<
220.843	-0.25
221.644	0.75
222.444	2.75
223.244	1.75
224.045	0.75
224.845	1.75
225.645	1.75
226.445	3.75
227.245	-0.25
228.045	1.75
228.845	0.75
229.645	2.75
230.444	1.75
231.244	3.75
232.043	1.75
232.843	4.75
233.642	2.75
234.442	3.75
235.241	4.75
236.04	4.75
236.839	3.75
237.638	2.75
238.437	2.75
239.236	2.75
240.035	2.75
240.833	2.75
241.632	2.75
242.43	4.75
243.229	5.75
244.027	5.75
244.826	4.75
245.624	5.75
246.422	5.75
247.22	4.75
248.018	5.75
248.816	5.75
249.614	6.75
250.412	6.75
251.21	6.75
252.007	8.75
252.805	8.75
253.602	6.75
254.4	2.75
255.197	7.75
255.994	9.75
256.791	7.75
257.589	8.75
258.386	6.75
259.183	8.75
259.979	9.75
260.776	11.75
261.573	7.75
262.37	8.75
263.166	9.75
263.963	11.75
264.759	12.75
265.556	8.75
266.352	11.75
267.148	10.75
267.944	8.75
268.74	10.75
269.536	14.75
270.332	13.75
271.128	13.75
271.924	15.75
272.719	15.75
273.515	15.75
274.311	16.75
275.106	15.75
275.901	15.75
276.697	16.75
277.492	13.75
278.287	18.75
279.082	16.75
279.877	18.75
280.672	17.75
281.467	18.75
282.262	16.75
283.056	16.75
283.851	17.75
284.646	17.75
285.44	16.75
286.234	17.75
287.029	20.75
287.823	17.75
288.617	16.75
289.411	15.75
290.205	17.75
290.999	18.75
291.793	15.75
292.587	15.75
293.381	14.75
294.174	15.75
294.968	18.75
295.761	13.75
296.555	15.75
297.348	16.75
298.141	15.75
298.935	16.75
299.728	12.75
300.521	12.75
301.314	13.75
302.107	13.75
302.899	9.75
303.692	11.75
304.485	11.75
305.277	11.75
306.07	13.75
306.862	12.75
307.655	11.75
308.447	11.75
309.239	8.75
310.031	12.75
310.823	9.75
311.615	10.75
312.407	8.75
313.199	10.75
313.991	9.75
314.783	8.75
315.574	9.75
316.366	7.75
317.157	6.75
317.949	9.75
318.74	7.75
319.531	10.75
320.322	5.75
321.113	7.75
321.904	7.75
322.695	7.75
323.486	7.75
324.277	5.75
325.068	8.75
325.858	2.75
326.649	6.75
327.439	7.75
328.23	3.75
329.02	7.75
329.81	7.75
330.6	6.75
331.391	5.75
332.181	6.75
332.971	6.75
333.76	4.75
334.55	5.75
335.34	5.75
336.13	6.75
336.919	5.75
337.709	6.75
338.498	7.75
339.287	6.75
340.077	5.75
340.866	6.75
341.655	6.75
342.444	4.75
343.233	5.75
344.022	3.75
344.811	3.75
345.6	5.75
346.388	5.75
347.177	4.75
347.965	4.75
348.754	5.75
349.542	6.75
350.33	2.75
351.119	9.75
351.907	4.75
352.695	3.75
353.483	4.75
354.271	4.75
355.059	6.75
355.846	2.75
356.634	4.75
357.422	3.75
358.209	4.75
358.997	4.75
359.784	3.75
360.571	1.75
361.359	5.75
362.146	7.75
362.933	6.75
363.72	5.75
364.507	5.75
365.294	3.75
366.081	5.75
366.867	4.75
367.654	4.75
368.44	4.75
369.227	5.75
370.013	5.75
370.8	2.75
371.586	4.75
372.372	4.75
373.158	6.75
373.944	4.75
374.73	5.75
375.516	4.75
376.302	4.75
377.088	5.75
377.873	6.75
378.659	4.75
379.445	6.75
380.23	4.75
381.015	4.75
381.801	3.75
382.586	6.75
383.371	4.75
384.156	3.75
384.941	7.75
385.726	4.75
386.511	2.75
387.296	4.75
388.08	4.75
388.865	5.75
389.649	2.75
390.434	5.75
391.218	5.75
392.003	5.75
392.787	7.75
393.571	5.75
394.355	7.75
395.139	4.75
395.923	5.75
396.707	4.75
397.491	7.75
398.274	5.75
399.058	4.75
399.842	8.75
400.625	7.75
401.408	7.75
402.192	8.75
402.975	4.75
403.758	6.75
404.541	7.75
405.324	7.75
406.107	5.75
406.89	7.75
407.673	7.75
408.456	7.75
409.238	7.75
410.021	5.75
410.803	6.75
411.586	8.75
412.368	8.75
413.151	7.75
413.933	6.75
414.715	9.75
415.497	5.75
416.279	8.75
417.061	9.75
417.843	9.75
418.624	8.75
419.406	7.75
420.188	8.75
420.969	7.75
421.751	9.75
422.532	9.75
423.313	9.75
424.095	12.75
424.876	9.75
425.657	11.75
426.438	10.75
427.219	11.75
428	10.75
428.78	11.75
429.561	12.75
430.342	11.75
431.122	14.75
431.903	13.75
432.683	16.75
433.464	17.75
434.244	13.75
435.024	17.75
435.804	16.75
436.584	18.75
437.364	18.75
438.144	19.75
438.924	20.75
439.704	23.75
440.483	22.75
441.263	25.75
442.042	25.75
442.822	26.75
443.601	27.75
444.38	31.75
445.16	30.75
445.939	34.75
446.718	38.75
447.497	38.75
448.276	41.75
449.054	43.75
449.833	50.75
450.612	50.75
451.391	61.75
452.169	63.75
452.948	71.75
453.726	77.75
454.504	88.75
455.282	99.75
456.061	105.75
456.839	115.75
457.617	133.75
458.395	142.75
459.172	162.75
459.95	175.75
460.728	195.75
461.506	221.75
462.283	240.75
463.061	272.75
463.838	304.75
464.615	339.75
465.393	382.75
466.17	422.75
466.947	464.75
467.724	524.75
468.501	577.75
469.278	642.75
470.055	726.75
470.831	782.75
471.608	877.75
472.385	982.75
473.161	1085.75
473.938	1197.75
474.714	1325.75
475.49	1454.75
476.266	1608.75
477.043	1753.75
477.819	1938.75
478.595	2138.75
479.371	2338.75
480.146	2589.75
480.922	2825.75
481.698	3108.75
482.473	3407.75
483.249	3753.75
484.024	4123.75
484.8	4523.75
485.575	4926.75
486.35	5411.75
487.126	5915.75
487.901	6454.75
488.676	7069.75
489.451	7722.75
490.225	8452.75
491	9166.75
491.775	9966.75
492.55	10884.75
493.324	11722.75
494.099	12628.75
494.873	13603.75
495.647	14626.75
496.422	15770.75
497.196	16792.75
497.97	17958.75
498.744	19086.75
499.518	20181.75
500.292	21266.75
501.066	22318.75
501.839	23250.75
502.613	24281.75
503.387	25010.75
504.16	25707.75
504.934	26158.75
505.707	26370.75
506.48	26477.75
507.253	26518.75
508.027	26413.75
508.8	26234.75
509.573	25921.75
510.346	25411.75
511.118	24742.75
511.891	24068.75
512.664	23323.75
513.437	22503.75
514.209	21614.75
514.982	20789.75
515.754	19905.75
516.526	19083.75
517.298	18270.75
518.071	17410.75
518.843	16781.75
519.615	16216.75
520.387	15517.75
521.159	14931.75
521.93	14290.75
522.702	13775.75
523.474	13204.75
524.245	12615.75
525.017	12071.75
525.788	11634.75
526.56	11123.75
527.331	10605.75
528.102	10189.75
528.873	9656.75
529.644	9219.75
530.415	8785.75
531.186	8329.75
531.957	7900.75
532.728	7569.75
533.498	7190.75
534.269	6746.75
535.039	6385.75
535.81	6050.75
536.58	5732.75
537.351	5404.75
538.121	5090.75
538.891	4832.75
539.661	4567.75
540.431	4315.75
541.201	4069.75
541.971	3830.75
542.741	3654.75
543.51	3480.75
544.28	3308.75
545.05	3155.75
545.819	2972.75
546.588	2835.75
547.358	2709.75
548.127	2573.75
548.896	2433.75
549.665	2308.75
550.434	2187.75
551.203	2077.75
551.972	1962.75
552.741	1858.75
553.51	1771.75
554.278	1667.75
555.047	1574.75
555.815	1492.75
556.584	1419.75
557.352	1331.75
558.121	1253.75
558.889	1172.75
559.657	1116.75
560.425	1067.75
561.193	981.75
561.961	939.75
562.729	883.75
563.496	837.75
564.264	791.75
565.032	753.75
565.799	720.75
566.567	669.75
567.334	637.75
568.101	607.75
568.869	560.75
569.636	535.75
570.403	494.75
571.17	473.75
571.937	443.75
572.704	418.75
573.471	404.75
574.237	383.75
575.004	360.75
575.771	327.75
576.537	307.75
577.303	290.75
578.07	280.75
578.836	262.75
579.602	248.75
580.368	230.75
581.134	222.75
581.9	209.75
582.666	200.75
583.432	183.75
584.198	182.75
584.964	166.75
585.729	162.75
586.495	153.75
587.26	148.75
588.025	132.75
588.791	125.75
589.556	121.75
590.321	114.75
591.086	109.75
591.851	103.75
592.616	93.75
593.381	95.75
594.146	87.75
594.911	84.75
595.675	82.75
596.44	76.75
597.204	71.75
597.969	68.75
598.733	67.75
599.497	62.75
600.261	61.75
601.025	58.75
601.79	51.75
602.553	54.75
603.317	49.75
604.081	47.75
604.845	44.75
605.609	45.75
606.372	41.75
607.136	41.75
607.899	40.75
608.662	37.75
609.426	34.75
610.189	35.75
610.952	33.75
611.715	32.75
612.478	31.75
613.241	29.75
614.004	25.75
614.767	26.75
615.529	25.75
616.292	25.75
617.055	25.75
617.817	22.75
618.579	22.75
619.342	21.75
620.104	21.75
620.866	20.75
621.628	22.75
622.39	17.75
623.152	19.75
623.914	16.75
624.676	15.75
625.438	16.75
626.199	15.75
626.961	16.75
627.722	15.75
628.484	12.75
629.245	13.75
630.006	16.75
630.768	12.75
631.529	12.75
632.29	11.75
633.051	12.75
633.812	12.75
634.573	10.75
635.333	10.75
636.094	9.75
636.855	10.75
637.615	7.75
638.376	8.75
639.136	6.75
639.896	8.75
640.657	10.75
641.417	9.75
642.177	8.75
642.937	8.75
643.697	9.75
644.457	7.75
645.216	10.75
645.976	8.75
646.736	6.75
647.495	8.75
648.255	5.75
649.014	5.75
649.774	7.75
650.533	7.75
651.292	6.75
652.051	5.75
652.81	7.75
653.569	6.75
654.328	5.75
655.087	6.75
655.846	5.75
656.604	7.75
657.363	5.75
658.121	5.75
658.88	5.75
659.638	6.75
660.397	6.75
661.155	4.75
661.913	7.75
662.671	4.75
663.429	4.75
664.187	3.75
664.945	3.75
665.703	3.75
666.46	3.75
667.218	3.75
667.976	4.75
668.733	7.75
669.49	3.75
670.248	4.75
671.005	5.75
671.762	3.75
672.519	3.75
673.276	4.75
674.033	3.75
674.79	2.75
675.547	3.75
676.304	4.75
677.06	2.75
677.817	3.75
678.574	1.75
679.33	3.75
680.086	4.75
680.843	5.75
681.599	-0.25
682.355	3.75
683.111	6.75
683.867	3.75
684.623	2.75
685.379	3.75
686.135	4.75
686.89	4.75
687.646	4.75
688.402	4.75
689.157	2.75
689.912	4.75
690.668	5.75
691.423	2.75
692.178	2.75
692.933	1.75
693.688	3.75
694.443	2.75
695.198	1.75
695.953	3.75
696.708	2.75
697.462	3.75
698.217	1.75
698.972	5.75
699.726	2.75
700.48	1.75
701.235	2.75
701.989	0.75
702.743	3.75
703.497	1.75
704.251	1.75
705.005	4.75
705.759	1.75
706.513	3.75
707.266	3.75
708.02	3.75
708.774	1.75
709.527	4.75
710.28	2.75
711.034	2.75
711.787	5.75
712.54	3.75
713.293	3.75
714.046	1.75
714.799	4.75
715.552	2.75
716.305	4.75
717.058	2.75
717.81	3.75
718.563	3.75
719.315	4.75
720.068	2.75
720.82	3.75
721.573	2.75
722.325	3.75
723.077	1.75
723.829	2.75
724.581	4.75
725.333	3.75
726.085	2.75
726.836	4.75
727.588	4.75
728.34	3.75
729.091	3.75
729.843	2.75
730.594	1.75
731.346	1.75
732.097	3.75
732.848	5.75
733.599	2.75
734.35	4.75
735.101	4.75
735.852	4.75
736.603	3.75
737.354	3.75
738.104	3.75
738.855	4.75
739.605	4.75
740.356	3.75
741.106	4.75
741.856	4.75
742.607	2.75
743.357	5.75
744.107	5.75
744.857	2.75
745.607	4.75
746.357	4.75
747.106	6.75
747.856	5.75
748.606	3.75
749.355	5.75
750.105	5.75
750.854	3.75
751.603	3.75
752.353	4.75
753.102	2.75
753.851	3.75
754.6	4.75
755.349	4.75
756.098	5.75
756.847	5.75
757.595	3.75
758.344	5.75
759.093	4.75
759.841	5.75
760.589	4.75
761.338	6.75
762.086	5.75
762.834	5.75
763.582	5.75
764.331	4.75
765.079	6.75
765.826	4.75
766.574	5.75
767.322	7.75
768.07	4.75
768.817	5.75
769.565	8.75
770.312	6.75
771.06	5.75
771.807	6.75
772.554	7.75
773.302	5.75
774.049	5.75
774.796	6.75
775.543	6.75
776.29	8.75
777.036	5.75
777.783	8.75
778.53	9.75
779.276	8.75
780.023	8.75
780.769	8.75
781.516	4.75
782.262	8.75
783.008	8.75
783.754	9.75
784.5	7.75
785.246	7.75
785.992	5.75
786.738	6.75
787.484	6.75
788.23	8.75
788.975	8.75
789.721	6.75
790.466	9.75
791.212	6.75
791.957	9.75
792.702	6.75
793.447	6.75
794.193	5.75
794.938	6.75
795.683	7.75
796.427	7.75
797.172	8.75
797.917	5.75
798.662	6.75
799.406	6.75
800.151	7.75
800.895	9.75
801.64	6.75
802.384	5.75
803.128	4.75
803.872	8.75
804.616	4.75
805.36	6.75
806.104	9.75
806.848	3.75
807.592	5.75
808.336	6.75
809.079	6.75
809.823	4.75
810.566	5.75
811.31	5.75
812.053	4.75
812.796	5.75
813.539	4.75
814.283	3.75
815.026	3.75
815.769	2.75
816.511	3.75
817.254	4.75
817.997	4.75
818.74	2.75
819.482	2.75
820.225	4.75
820.967	2.75
821.71	3.75
822.452	1.75
823.194	4.75
823.936	5.75
824.678	4.75
825.42	3.75
826.162	5.75
826.904	3.75
827.646	4.75
828.388	3.75
829.129	1.75
829.871	2.75
830.612	5.75
831.354	1.75
832.095	4.75
832.836	1.75
833.577	3.75
834.319	2.75
835.06	2.75
835.801	2.75
836.542	3.75
837.282	1.75
838.023	3.75
838.764	3.75
839.504	1.75
840.245	1.75
840.985	3.75
841.726	2.75
842.466	1.75
843.206	3.75
843.946	1.75
844.687	2.75
845.427	0.75
846.166	4.75
846.906	1.75
847.646	1.75
848.386	2.75
849.125	2.75
849.865	3.75
850.605	2.75
851.344	2.75
852.083	1.75
852.823	4.75
853.562	1.75
854.301	0.75
855.04	3.75
855.779	1.75
856.518	1.75
857.257	4.75
857.995	0.75
858.734	2.75
859.473	0.75
860.211	0.75
860.95	2.75
861.688	1.75
862.426	0.75
863.165	3.75
863.903	1.75
864.641	-0.25
865.379	2.75
866.117	2.75
866.855	0.75
867.593	1.75
868.33	3.75
869.068	1.75
869.806	0.75
870.543	-0.25
871.28	1.75
872.018	-0.25
872.755	0.75
873.492	-0.25
874.229	1.75
874.967	0.75
875.703	-0.25
876.44	1.75
877.177	-0.25
877.914	-0.25
878.651	0.75
879.387	1.75
880.124	0.75
880.86	1.75
881.597	-3.25
882.333	-0.25
883.069	1.75
883.806	0.75
884.542	0.75
885.278	1.75
886.014	0.75
886.749	3.75
887.485	-0.25
888.221	-1.25
888.957	-0.25
889.692	0.75
890.428	0.75
891.163	1.75
891.899	1.75
892.634	-0.25
893.369	0.75
894.104	-2.25
894.839	0.75
895.574	1.75
896.309	0.75
897.044	2.75
897.779	0.75
898.514	1.75
899.248	-0.25
899.983	-1.25
900.717	1.75
901.452	1.75
902.186	-0.25
902.92	-1.25
903.654	1.75
904.389	0.75
905.123	-0.25
905.857	2.75
906.59	1.75
907.324	-1.25
908.058	1.75
908.792	-0.25
909.525	0.75
910.259	0.75
910.992	0.75
911.726	1.75
912.459	2.75
913.192	0.75
913.925	-0.25
914.658	0.75
915.391	0.75
916.124	-0.25
916.857	-1.25
917.59	0.75
918.323	0.75
919.055	1.75
919.788	1.75
920.521	-0.25
921.253	0.75
921.985	0.75
922.718	0.75
923.45	1.75
924.182	1.75
924.914	-0.25
925.646	-2.25
926.378	-0.25
927.11	-0.25
927.841	-2.25
928.573	-0.25
929.305	0.75
930.036	2.75
930.768	-0.25
931.499	0.75
932.23	0.75
932.962	-0.25
933.693	-0.25
934.424	-2.25
935.155	0.75
935.886	-1.25
936.617	1.75
937.348	0.75
938.078	0.75
938.809	-1.25
939.54	-3.25
940.27	-0.25
941.001	-0.25
941.731	-3.25
942.461	0.75
943.191	-1.25
943.922	-0.25
944.652	-0.25
945.382	0.75
946.112	-2.25
946.841	-0.25
947.571	0.75
948.301	0.75
949.031	-1.25
949.76	-0.25
950.49	-2.25
951.219	-1.25
951.948	-0.25
952.678	0.75
953.407	0.75
954.136	2.75
954.865	-1.25
955.594	-0.25
956.323	0.75
957.052	0.75
957.78	0.75
958.509	-0.25
959.238	-0.25
959.966	0.75
960.695	-0.25
961.423	-1.25
962.151	-1.25
962.88	-0.25
963.608	1.75
964.336	0.75
965.064	0.75
965.792	-1.25
966.52	0.75
967.247	-0.25
967.975	0.75
968.703	-1.25
969.43	-0.25
970.158	0.75
970.885	-1.25
971.613	0.75
972.34	-1.25
973.067	-0.25
973.794	0.75
974.521	-1.25
975.248	0.75
975.975	-2.25
976.702	0.75
977.429	1.75
978.156	0.75
978.882	1.75
979.609	0.75
980.335	-0.25
981.062	-1.25
981.788	-0.25
982.514	-1.25
983.24	-2.25
983.967	0.75
984.693	-0.25
985.419	-1.25
986.144	0.75
986.87	-1.25
987.596	-1.25
988.322	0.75
989.047	-0.25
989.773	-3.25
990.498	-0.25
991.224	-0.25
991.949	-0.25
992.674	-0.25
993.399	0.75
994.124	2.75
994.849	-1.25
995.574	0.75
996.299	-0.25
997.024	-0.25
997.749	-2.25
998.473	-0.25
999.198	0.75
999.922	-1.25
1000.647	0.75
1001.371	2.75
1002.095	-1.25
1002.82	-2.25
1003.544	0.75
1004.268	-0.25
1004.992	0.75
1005.716	0.75
1006.439	0.75
1007.163	3.75
1007.887	0.75
1008.611	0.75
1009.334	1.75
1010.058	-0.25
1010.781	-0.25
1011.504	1.75
1012.228	-0.25
1012.951	0.75
1013.674	2.75
1014.397	-1.25
1015.12	-2.25
