节点500_285_QEPB04081__794__15-08-45-759.txt的数据

Date: Wed Nov 12 15:08:45 CST 2025
User: PC
Spectrometer: QEPB0408
触发模式: 0
积分时间 (秒): 1.000000E-2
Scans to average: 1
启用暗噪声校正: true
启用非线性校正: false
滑动平均宽度: 0
X轴模式: Wavelengths
Number of Pixels in Spectrum: 1044
>>>>>Begin Spectral Data<<<<<
220.843	0.25
221.644	0.25
222.444	0.25
223.244	1.25
224.045	3.25
224.845	2.25
225.645	3.25
226.445	0.25
227.245	5.25
228.045	5.25
228.845	3.25
229.645	2.25
230.444	4.25
231.244	3.25
232.043	2.25
232.843	4.25
233.642	5.25
234.442	3.25
235.241	2.25
236.04	5.25
236.839	5.25
237.638	3.25
238.437	6.25
239.236	5.25
240.035	5.25
240.833	3.25
241.632	4.25
242.43	1.25
243.229	6.25
244.027	7.25
244.826	4.25
245.624	4.25
246.422	7.25
247.22	4.25
248.018	4.25
248.816	5.25
249.614	6.25
250.412	5.25
251.21	4.25
252.007	5.25
252.805	8.25
253.602	9.25
254.4	6.25
255.197	9.25
255.994	5.25
256.791	5.25
257.589	8.25
258.386	8.25
259.183	8.25
259.979	8.25
260.776	9.25
261.573	9.25
262.37	8.25
263.166	9.25
263.963	11.25
264.759	11.25
265.556	13.25
266.352	10.25
267.148	13.25
267.944	9.25
268.74	14.25
269.536	10.25
270.332	13.25
271.128	13.25
271.924	13.25
272.719	13.25
273.515	14.25
274.311	14.25
275.106	13.25
275.901	18.25
276.697	16.25
277.492	13.25
278.287	17.25
279.082	16.25
279.877	17.25
280.672	19.25
281.467	17.25
282.262	17.25
283.056	17.25
283.851	17.25
284.646	16.25
285.44	17.25
286.234	19.25
287.029	17.25
287.823	17.25
288.617	18.25
289.411	15.25
290.205	17.25
290.999	17.25
291.793	17.25
292.587	17.25
293.381	18.25
294.174	13.25
294.968	17.25
295.761	14.25
296.555	16.25
297.348	18.25
298.141	14.25
298.935	16.25
299.728	12.25
300.521	15.25
301.314	17.25
302.107	13.25
302.899	11.25
303.692	13.25
304.485	14.25
305.277	10.25
306.07	13.25
306.862	11.25
307.655	13.25
308.447	14.25
309.239	10.25
310.031	13.25
310.823	12.25
311.615	12.25
312.407	12.25
313.199	10.25
313.991	10.25
314.783	10.25
315.574	9.25
316.366	9.25
317.157	10.25
317.949	8.25
318.74	8.25
319.531	7.25
320.322	6.25
321.113	9.25
321.904	9.25
322.695	8.25
323.486	9.25
324.277	7.25
325.068	9.25
325.858	6.25
326.649	7.25
327.439	9.25
328.23	6.25
329.02	7.25
329.81	8.25
330.6	6.25
331.391	6.25
332.181	5.25
332.971	6.25
333.76	6.25
334.55	8.25
335.34	5.25
336.13	6.25
336.919	7.25
337.709	6.25
338.498	8.25
339.287	5.25
340.077	7.25
340.866	7.25
341.655	8.25
342.444	2.25
343.233	5.25
344.022	7.25
344.811	5.25
345.6	5.25
346.388	7.25
347.177	7.25
347.965	4.25
348.754	4.25
349.542	6.25
350.33	4.25
351.119	7.25
351.907	6.25
352.695	6.25
353.483	7.25
354.271	6.25
355.059	6.25
355.846	3.25
356.634	5.25
357.422	6.25
358.209	6.25
358.997	8.25
359.784	5.25
360.571	5.25
361.359	5.25
362.146	6.25
362.933	5.25
363.72	5.25
364.507	4.25
365.294	4.25
366.081	6.25
366.867	4.25
367.654	7.25
368.44	5.25
369.227	5.25
370.013	5.25
370.8	7.25
371.586	4.25
372.372	6.25
373.158	5.25
373.944	6.25
374.73	6.25
375.516	6.25
376.302	3.25
377.088	5.25
377.873	7.25
378.659	5.25
379.445	6.25
380.23	3.25
381.015	4.25
381.801	4.25
382.586	5.25
383.371	5.25
384.156	5.25
384.941	6.25
385.726	4.25
386.511	7.25
387.296	7.25
388.08	3.25
388.865	6.25
389.649	5.25
390.434	7.25
391.218	6.25
392.003	8.25
392.787	6.25
393.571	6.25
394.355	5.25
395.139	6.25
395.923	3.25
396.707	7.25
397.491	7.25
398.274	7.25
399.058	5.25
399.842	7.25
400.625	8.25
401.408	8.25
402.192	7.25
402.975	6.25
403.758	5.25
404.541	7.25
405.324	7.25
406.107	10.25
406.89	8.25
407.673	9.25
408.456	8.25
409.238	9.25
410.021	7.25
410.803	9.25
411.586	9.25
412.368	7.25
413.151	9.25
413.933	11.25
414.715	10.25
415.497	7.25
416.279	10.25
417.061	11.25
417.843	8.25
418.624	10.25
419.406	7.25
420.188	11.25
420.969	8.25
421.751	12.25
422.532	10.25
423.313	11.25
424.095	11.25
424.876	10.25
425.657	11.25
426.438	14.25
427.219	10.25
428	13.25
428.78	11.25
429.561	14.25
430.342	12.25
431.122	15.25
431.903	12.25
432.683	14.25
433.464	13.25
434.244	17.25
435.024	16.25
435.804	18.25
436.584	21.25
437.364	18.25
438.144	21.25
438.924	22.25
439.704	21.25
440.483	24.25
441.263	25.25
442.042	26.25
442.822	27.25
443.601	27.25
444.38	28.25
445.16	34.25
445.939	34.25
446.718	39.25
447.497	44.25
448.276	43.25
449.054	49.25
449.833	56.25
450.612	54.25
451.391	60.25
452.169	65.25
452.948	73.25
453.726	87.25
454.504	91.25
455.282	99.25
456.061	109.25
456.839	126.25
457.617	136.25
458.395	148.25
459.172	171.25
459.95	188.25
460.728	207.25
461.506	231.25
462.283	251.25
463.061	289.25
463.838	316.25
464.615	356.25
465.393	398.25
466.17	440.25
466.947	485.25
467.724	547.25
468.501	613.25
469.278	654.25
470.055	736.25
470.831	811.25
471.608	893.25
472.385	1003.25
473.161	1089.25
473.938	1214.25
474.714	1322.25
475.49	1447.25
476.266	1617.25
477.043	1757.25
477.819	1932.25
478.595	2104.25
479.371	2314.25
480.146	2537.25
480.922	2784.25
481.698	3047.25
482.473	3340.25
483.249	3631.25
484.024	3970.25
484.8	4334.25
485.575	4745.25
486.35	5143.25
487.126	5586.25
487.901	6120.25
488.676	6618.25
489.451	7244.25
490.225	7816.25
491	8513.25
491.775	9238.25
492.55	10014.25
493.324	10845.25
494.099	11638.25
494.873	12451.25
495.647	13449.25
496.422	14346.25
497.196	15386.25
497.97	16379.25
498.744	17459.25
499.518	18488.25
500.292	19488.25
501.066	20554.25
501.839	21408.25
502.613	22306.25
503.387	23102.25
504.16	23815.25
504.934	24250.25
505.707	24653.25
506.48	24894.25
507.253	25078.25
508.027	25064.25
508.8	25037.25
509.573	24840.25
510.346	24567.25
511.118	24019.25
511.891	23452.25
512.664	22826.25
513.437	22118.25
514.209	21388.25
514.982	20591.25
515.754	19802.25
516.526	19024.25
517.298	18267.25
518.071	17484.25
518.843	16794.25
519.615	16254.25
520.387	15576.25
521.159	14936.25
521.93	14372.25
522.702	13793.25
523.474	13209.25
524.245	12621.25
525.017	12136.25
525.788	11673.25
526.56	11189.25
527.331	10633.25
528.102	10252.25
528.873	9789.25
529.644	9341.25
530.415	8949.25
531.186	8501.25
531.957	8063.25
532.728	7711.25
533.498	7341.25
534.269	6921.25
535.039	6534.25
535.81	6223.25
536.58	5870.25
537.351	5531.25
538.121	5242.25
538.891	4958.25
539.661	4717.25
540.431	4435.25
541.201	4165.25
541.971	3975.25
542.741	3758.25
543.51	3572.25
544.28	3412.25
545.05	3255.25
545.819	3072.25
546.588	2933.25
547.358	2790.25
548.127	2641.25
548.896	2509.25
549.665	2390.25
550.434	2257.25
551.203	2140.25
551.972	2037.25
552.741	1928.25
553.51	1820.25
554.278	1732.25
555.047	1637.25
555.815	1542.25
556.584	1454.25
557.352	1384.25
558.121	1309.25
558.889	1225.25
559.657	1167.25
560.425	1105.25
561.193	1043.25
561.961	976.25
562.729	923.25
563.496	874.25
564.264	825.25
565.032	780.25
565.799	737.25
566.567	707.25
567.334	659.25
568.101	622.25
568.869	588.25
569.636	550.25
570.403	518.25
571.17	486.25
571.937	467.25
572.704	440.25
573.471	415.25
574.237	389.25
575.004	375.25
575.771	345.25
576.537	325.25
577.303	307.25
578.07	293.25
578.836	270.25
579.602	262.25
580.368	251.25
581.134	232.25
581.9	223.25
582.666	208.25
583.432	193.25
584.198	184.25
584.964	177.25
585.729	171.25
586.495	159.25
587.26	153.25
588.025	149.25
588.791	138.25
589.556	130.25
590.321	122.25
591.086	115.25
591.851	112.25
592.616	103.25
593.381	97.25
594.146	96.25
594.911	89.25
595.675	85.25
596.44	80.25
597.204	74.25
597.969	72.25
598.733	71.25
599.497	68.25
600.261	63.25
601.025	60.25
601.79	57.25
602.553	53.25
603.317	53.25
604.081	46.25
604.845	52.25
605.609	45.25
606.372	43.25
607.136	44.25
607.899	41.25
608.662	41.25
609.426	40.25
610.189	39.25
610.952	37.25
611.715	35.25
612.478	32.25
613.241	28.25
614.004	33.25
614.767	28.25
615.529	27.25
616.292	26.25
617.055	25.25
617.817	24.25
618.579	23.25
619.342	22.25
620.104	20.25
620.866	23.25
621.628	21.25
622.39	21.25
623.152	19.25
623.914	19.25
624.676	22.25
625.438	17.25
626.199	16.25
626.961	18.25
627.722	15.25
628.484	16.25
629.245	13.25
630.006	15.25
630.768	13.25
631.529	14.25
632.29	10.25
633.051	13.25
633.812	13.25
634.573	12.25
635.333	14.25
636.094	11.25
636.855	12.25
637.615	10.25
638.376	10.25
639.136	14.25
639.896	10.25
640.657	10.25
641.417	12.25
642.177	10.25
642.937	8.25
643.697	9.25
644.457	9.25
645.216	9.25
645.976	11.25
646.736	8.25
647.495	8.25
648.255	8.25
649.014	8.25
649.774	8.25
650.533	10.25
651.292	6.25
652.051	6.25
652.81	7.25
653.569	7.25
654.328	9.25
655.087	6.25
655.846	7.25
656.604	4.25
657.363	8.25
658.121	7.25
658.88	9.25
659.638	5.25
660.397	6.25
661.155	6.25
661.913	2.25
662.671	7.25
663.429	4.25
664.187	7.25
664.945	5.25
665.703	5.25
666.46	4.25
667.218	5.25
667.976	6.25
668.733	3.25
669.49	5.25
670.248	5.25
671.005	4.25
671.762	7.25
672.519	7.25
673.276	1.25
674.033	5.25
674.79	5.25
675.547	4.25
676.304	6.25
677.06	5.25
677.817	5.25
678.574	4.25
679.33	1.25
680.086	2.25
680.843	3.25
681.599	5.25
682.355	1.25
683.111	2.25
683.867	5.25
684.623	3.25
685.379	4.25
686.135	5.25
686.89	4.25
687.646	4.25
688.402	1.25
689.157	4.25
689.912	3.25
690.668	3.25
691.423	2.25
692.178	2.25
692.933	4.25
693.688	4.25
694.443	5.25
695.198	5.25
695.953	3.25
696.708	5.25
697.462	4.25
698.217	5.25
698.972	3.25
699.726	5.25
700.48	3.25
701.235	4.25
701.989	4.25
702.743	5.25
703.497	6.25
704.251	4.25
705.005	3.25
705.759	5.25
706.513	2.25
707.266	2.25
708.02	5.25
708.774	2.25
709.527	5.25
710.28	2.25
711.034	4.25
711.787	4.25
712.54	5.25
713.293	3.25
714.046	5.25
714.799	4.25
715.552	1.25
716.305	6.25
717.058	5.25
717.81	6.25
718.563	3.25
719.315	5.25
720.068	5.25
720.82	2.25
721.573	3.25
722.325	4.25
723.077	4.25
723.829	3.25
724.581	3.25
725.333	5.25
726.085	3.25
726.836	3.25
727.588	4.25
728.34	4.25
729.091	3.25
729.843	3.25
730.594	5.25
731.346	2.25
732.097	6.25
732.848	3.25
733.599	3.25
734.35	3.25
735.101	4.25
735.852	4.25
736.603	6.25
737.354	5.25
738.104	7.25
738.855	5.25
739.605	5.25
740.356	3.25
741.106	5.25
741.856	5.25
742.607	4.25
743.357	6.25
744.107	5.25
744.857	5.25
745.607	3.25
746.357	5.25
747.106	6.25
747.856	6.25
748.606	4.25
749.355	5.25
750.105	7.25
750.854	6.25
751.603	5.25
752.353	5.25
753.102	6.25
753.851	6.25
754.6	5.25
755.349	7.25
756.098	6.25
756.847	4.25
757.595	5.25
758.344	5.25
759.093	6.25
759.841	9.25
760.589	5.25
761.338	6.25
762.086	7.25
762.834	5.25
763.582	5.25
764.331	8.25
765.079	6.25
765.826	6.25
766.574	6.25
767.322	7.25
768.07	4.25
768.817	6.25
769.565	7.25
770.312	6.25
771.06	7.25
771.807	6.25
772.554	7.25
773.302	7.25
774.049	7.25
774.796	9.25
775.543	7.25
776.29	8.25
777.036	7.25
777.783	8.25
778.53	6.25
779.276	9.25
780.023	10.25
780.769	7.25
781.516	7.25
782.262	9.25
783.008	8.25
783.754	7.25
784.5	9.25
785.246	8.25
785.992	7.25
786.738	6.25
787.484	7.25
788.23	8.25
788.975	8.25
789.721	8.25
790.466	9.25
791.212	9.25
791.957	6.25
792.702	6.25
793.447	10.25
794.193	8.25
794.938	9.25
795.683	9.25
796.427	7.25
797.172	4.25
797.917	7.25
798.662	6.25
799.406	8.25
800.151	6.25
800.895	9.25
801.64	4.25
802.384	8.25
803.128	7.25
803.872	6.25
804.616	5.25
805.36	6.25
806.104	5.25
806.848	6.25
807.592	6.25
808.336	6.25
809.079	5.25
809.823	5.25
810.566	4.25
811.31	5.25
812.053	4.25
812.796	5.25
813.539	5.25
814.283	5.25
815.026	5.25
815.769	3.25
816.511	5.25
817.254	2.25
817.997	6.25
818.74	6.25
819.482	4.25
820.225	4.25
820.967	8.25
821.71	4.25
822.452	6.25
823.194	5.25
823.936	5.25
824.678	3.25
825.42	7.25
826.162	5.25
826.904	5.25
827.646	4.25
828.388	4.25
829.129	5.25
829.871	3.25
830.612	2.25
831.354	4.25
832.095	4.25
832.836	5.25
833.577	3.25
834.319	6.25
835.06	2.25
835.801	3.25
836.542	2.25
837.282	3.25
838.023	4.25
838.764	2.25
839.504	7.25
840.245	2.25
840.985	5.25
841.726	6.25
842.466	2.25
843.206	4.25
843.946	2.25
844.687	4.25
845.427	2.25
846.166	2.25
846.906	3.25
847.646	3.25
848.386	1.25
849.125	0.25
849.865	2.25
850.605	2.25
851.344	4.25
852.083	2.25
852.823	1.25
853.562	3.25
854.301	2.25
855.04	3.25
855.779	3.25
856.518	3.25
857.257	3.25
857.995	2.25
858.734	4.25
859.473	3.25
860.211	5.25
860.95	2.25
861.688	3.25
862.426	3.25
863.165	0.25
863.903	4.25
864.641	1.25
865.379	4.25
866.117	2.25
866.855	4.25
867.593	1.25
868.33	2.25
869.068	3.25
869.806	0.25
870.543	2.25
871.28	2.25
872.018	2.25
872.755	1.25
873.492	0.25
874.229	1.25
874.967	5.25
875.703	4.25
876.44	2.25
877.177	2.25
877.914	2.25
878.651	0.25
879.387	0.25
880.124	2.25
880.86	2.25
881.597	2.25
882.333	3.25
883.069	3.25
883.806	1.25
884.542	2.25
885.278	3.25
886.014	3.25
886.749	0.25
887.485	1.25
888.221	3.25
888.957	-0.75
889.692	-1.75
890.428	1.25
891.163	-0.75
891.899	2.25
892.634	1.25
893.369	2.25
894.104	0.25
894.839	1.25
895.574	2.25
896.309	1.25
897.044	-0.75
897.779	-0.75
898.514	1.25
899.248	2.25
899.983	2.25
900.717	1.25
901.452	0.25
902.186	2.25
902.92	1.25
903.654	1.25
904.389	2.25
905.123	0.25
905.857	2.25
906.59	0.25
907.324	2.25
908.058	1.25
908.792	2.25
909.525	0.25
910.259	0.25
910.992	3.25
911.726	0.25
912.459	0.25
913.192	1.25
913.925	0.25
914.658	-0.75
915.391	1.25
916.124	0.25
916.857	0.25
917.59	2.25
918.323	1.25
919.055	2.25
919.788	4.25
920.521	1.25
921.253	3.25
921.985	1.25
922.718	0.25
923.45	-1.75
924.182	0.25
924.914	1.25
925.646	-0.75
926.378	-0.75
927.11	0.25
927.841	0.25
928.573	0.25
929.305	0.25
930.036	1.25
930.768	-1.75
931.499	1.25
932.23	-1.75
932.962	1.25
933.693	2.25
934.424	-0.75
935.155	-0.75
935.886	-0.75
936.617	0.25
937.348	1.25
938.078	0.25
938.809	-0.75
939.54	1.25
940.27	0.25
941.001	0.25
941.731	0.25
942.461	1.25
943.191	2.25
943.922	0.25
944.652	2.25
945.382	1.25
946.112	-0.75
946.841	1.25
947.571	2.25
948.301	0.25
949.031	-0.75
949.76	1.25
950.49	1.25
951.219	-0.75
951.948	-0.75
952.678	-0.75
953.407	1.25
954.136	1.25
954.865	1.25
955.594	2.25
956.323	2.25
957.052	0.25
957.78	2.25
958.509	2.25
959.238	0.25
959.966	-1.75
960.695	1.25
961.423	1.25
962.151	1.25
962.88	1.25
963.608	-1.75
964.336	-0.75
965.064	-0.75
965.792	2.25
966.52	1.25
967.247	1.25
967.975	-1.75
968.703	-1.75
969.43	2.25
970.158	-2.75
970.885	1.25
971.613	0.25
972.34	0.25
973.067	1.25
973.794	0.25
974.521	-0.75
975.248	0.25
975.975	0.25
976.702	1.25
977.429	1.25
978.156	0.25
978.882	2.25
979.609	2.25
980.335	1.25
981.062	1.25
981.788	2.25
982.514	0.25
983.24	0.25
983.967	0.25
984.693	-0.75
985.419	1.25
986.144	2.25
986.87	0.25
987.596	2.25
988.322	0.25
989.047	1.25
989.773	2.25
990.498	1.25
991.224	-3.75
991.949	-0.75
992.674	1.25
993.399	2.25
994.124	0.25
994.849	-1.75
995.574	2.25
996.299	-1.75
997.024	0.25
997.749	-1.75
998.473	0.25
999.198	2.25
999.922	1.25
1000.647	5.25
1001.371	3.25
1002.095	-1.75
1002.82	0.25
1003.544	-2.75
1004.268	4.25
1004.992	1.25
1005.716	1.25
1006.439	1.25
1007.163	4.25
1007.887	2.25
1008.611	1.25
1009.334	0.25
1010.058	1.25
1010.781	-0.75
1011.504	2.25
1012.228	1.25
1012.951	0.25
1013.674	-1.75
1014.397	0.25
1015.12	2.25
