节点500_285_QEPB04081__535__15-04-27-326.txt的数据

Date: Wed Nov 12 15:04:27 CST 2025
User: PC
Spectrometer: QEPB0408
触发模式: 0
积分时间 (秒): 1.000000E-2
Scans to average: 1
启用暗噪声校正: true
启用非线性校正: false
滑动平均宽度: 0
X轴模式: Wavelengths
Number of Pixels in Spectrum: 1044
>>>>>Begin Spectral Data<<<<<
220.843	1.25
221.644	1.25
222.444	1.25
223.244	1.25
224.045	2.25
224.845	3.25
225.645	0.25
226.445	3.25
227.245	0.25
228.045	2.25
228.845	1.25
229.645	1.25
230.444	2.25
231.244	1.25
232.043	4.25
232.843	2.25
233.642	2.25
234.442	-0.75
235.241	3.25
236.04	3.25
236.839	3.25
237.638	2.25
238.437	2.25
239.236	3.25
240.035	5.25
240.833	4.25
241.632	4.25
242.43	3.25
243.229	4.25
244.027	4.25
244.826	3.25
245.624	5.25
246.422	4.25
247.22	9.25
248.018	5.25
248.816	4.25
249.614	4.25
250.412	6.25
251.21	5.25
252.007	7.25
252.805	4.25
253.602	6.25
254.4	8.25
255.197	6.25
255.994	6.25
256.791	6.25
257.589	6.25
258.386	7.25
259.183	5.25
259.979	8.25
260.776	7.25
261.573	9.25
262.37	10.25
263.166	10.25
263.963	9.25
264.759	10.25
265.556	11.25
266.352	11.25
267.148	9.25
267.944	10.25
268.74	11.25
269.536	14.25
270.332	13.25
271.128	14.25
271.924	16.25
272.719	15.25
273.515	14.25
274.311	15.25
275.106	12.25
275.901	17.25
276.697	15.25
277.492	18.25
278.287	18.25
279.082	17.25
279.877	16.25
280.672	18.25
281.467	15.25
282.262	17.25
283.056	15.25
283.851	17.25
284.646	17.25
285.44	16.25
286.234	17.25
287.029	18.25
287.823	17.25
288.617	14.25
289.411	13.25
290.205	17.25
290.999	17.25
291.793	17.25
292.587	18.25
293.381	14.25
294.174	15.25
294.968	14.25
295.761	17.25
296.555	13.25
297.348	14.25
298.141	16.25
298.935	15.25
299.728	13.25
300.521	14.25
301.314	13.25
302.107	12.25
302.899	10.25
303.692	11.25
304.485	13.25
305.277	11.25
306.07	13.25
306.862	10.25
307.655	11.25
308.447	10.25
309.239	14.25
310.031	12.25
310.823	9.25
311.615	12.25
312.407	9.25
313.199	10.25
313.991	8.25
314.783	9.25
315.574	11.25
316.366	9.25
317.157	7.25
317.949	8.25
318.74	8.25
319.531	7.25
320.322	8.25
321.113	6.25
321.904	9.25
322.695	5.25
323.486	6.25
324.277	6.25
325.068	7.25
325.858	4.25
326.649	10.25
327.439	5.25
328.23	5.25
329.02	7.25
329.81	8.25
330.6	7.25
331.391	7.25
332.181	6.25
332.971	5.25
333.76	6.25
334.55	6.25
335.34	5.25
336.13	5.25
336.919	5.25
337.709	5.25
338.498	3.25
339.287	6.25
340.077	3.25
340.866	7.25
341.655	8.25
342.444	6.25
343.233	4.25
344.022	8.25
344.811	5.25
345.6	6.25
346.388	5.25
347.177	5.25
347.965	4.25
348.754	5.25
349.542	6.25
350.33	4.25
351.119	3.25
351.907	6.25
352.695	6.25
353.483	6.25
354.271	6.25
355.059	2.25
355.846	5.25
356.634	5.25
357.422	7.25
358.209	4.25
358.997	4.25
359.784	6.25
360.571	5.25
361.359	7.25
362.146	4.25
362.933	4.25
363.72	3.25
364.507	1.25
365.294	4.25
366.081	3.25
366.867	3.25
367.654	5.25
368.44	4.25
369.227	6.25
370.013	6.25
370.8	4.25
371.586	3.25
372.372	5.25
373.158	3.25
373.944	6.25
374.73	4.25
375.516	4.25
376.302	3.25
377.088	7.25
377.873	5.25
378.659	5.25
379.445	3.25
380.23	6.25
381.015	0.25
381.801	5.25
382.586	7.25
383.371	4.25
384.156	5.25
384.941	2.25
385.726	5.25
386.511	2.25
387.296	5.25
388.08	6.25
388.865	6.25
389.649	4.25
390.434	4.25
391.218	6.25
392.003	4.25
392.787	5.25
393.571	4.25
394.355	5.25
395.139	4.25
395.923	4.25
396.707	5.25
397.491	5.25
398.274	4.25
399.058	6.25
399.842	6.25
400.625	6.25
401.408	6.25
402.192	7.25
402.975	7.25
403.758	6.25
404.541	4.25
405.324	4.25
406.107	6.25
406.89	5.25
407.673	4.25
408.456	6.25
409.238	8.25
410.021	8.25
410.803	6.25
411.586	9.25
412.368	7.25
413.151	9.25
413.933	8.25
414.715	7.25
415.497	8.25
416.279	8.25
417.061	9.25
417.843	7.25
418.624	7.25
419.406	9.25
420.188	7.25
420.969	10.25
421.751	6.25
422.532	11.25
423.313	9.25
424.095	11.25
424.876	10.25
425.657	11.25
426.438	13.25
427.219	13.25
428	11.25
428.78	10.25
429.561	13.25
430.342	13.25
431.122	15.25
431.903	16.25
432.683	13.25
433.464	16.25
434.244	14.25
435.024	15.25
435.804	17.25
436.584	17.25
437.364	16.25
438.144	18.25
438.924	18.25
439.704	19.25
440.483	19.25
441.263	25.25
442.042	22.25
442.822	25.25
443.601	28.25
444.38	29.25
445.16	30.25
445.939	32.25
446.718	37.25
447.497	41.25
448.276	43.25
449.054	45.25
449.833	47.25
450.612	52.25
451.391	57.25
452.169	60.25
452.948	73.25
453.726	75.25
454.504	87.25
455.282	97.25
456.061	104.25
456.839	115.25
457.617	130.25
458.395	142.25
459.172	158.25
459.95	175.25
460.728	194.25
461.506	217.25
462.283	243.25
463.061	266.25
463.838	297.25
464.615	331.25
465.393	384.25
466.17	415.25
466.947	461.25
467.724	525.25
468.501	583.25
469.278	636.25
470.055	704.25
470.831	793.25
471.608	874.25
472.385	964.25
473.161	1083.25
473.938	1196.25
474.714	1311.25
475.49	1444.25
476.266	1596.25
477.043	1757.25
477.819	1946.25
478.595	2138.25
479.371	2336.25
480.146	2592.25
480.922	2827.25
481.698	3114.25
482.473	3426.25
483.249	3721.25
484.024	4090.25
484.8	4515.25
485.575	4934.25
486.35	5400.25
487.126	5936.25
487.901	6487.25
488.676	7071.25
489.451	7726.25
490.225	8410.25
491	9176.25
491.775	10023.25
492.55	10906.25
493.324	11726.25
494.099	12675.25
494.873	13611.25
495.647	14709.25
496.422	15760.25
497.196	16840.25
497.97	17972.25
498.744	19106.25
499.518	20306.25
500.292	21324.25
501.066	22403.25
501.839	23328.25
502.613	24311.25
503.387	25091.25
504.16	25714.25
504.934	26105.25
505.707	26333.25
506.48	26576.25
507.253	26539.25
508.027	26390.25
508.8	26169.25
509.573	25849.25
510.346	25448.25
511.118	24745.25
511.891	24060.25
512.664	23301.25
513.437	22436.25
514.209	21596.25
514.982	20771.25
515.754	19870.25
516.526	19011.25
517.298	18231.25
518.071	17379.25
518.843	16731.25
519.615	16129.25
520.387	15521.25
521.159	14903.25
521.93	14281.25
522.702	13684.25
523.474	13149.25
524.245	12571.25
525.017	12053.25
525.788	11592.25
526.56	11077.25
527.331	10578.25
528.102	10072.25
528.873	9666.25
529.644	9148.25
530.415	8755.25
531.186	8309.25
531.957	7885.25
532.728	7527.25
533.498	7159.25
534.269	6747.25
535.039	6373.25
535.81	6032.25
536.58	5714.25
537.351	5366.25
538.121	5103.25
538.891	4804.25
539.661	4523.25
540.431	4287.25
541.201	4041.25
541.971	3838.25
542.741	3652.25
543.51	3464.25
544.28	3267.25
545.05	3142.25
545.819	2981.25
546.588	2832.25
547.358	2686.25
548.127	2553.25
548.896	2411.25
549.665	2302.25
550.434	2183.25
551.203	2066.25
551.972	1956.25
552.741	1847.25
553.51	1771.25
554.278	1658.25
555.047	1565.25
555.815	1472.25
556.584	1393.25
557.352	1326.25
558.121	1251.25
558.889	1176.25
559.657	1120.25
560.425	1048.25
561.193	991.25
561.961	928.25
562.729	889.25
563.496	830.25
564.264	776.25
565.032	747.25
565.799	697.25
566.567	669.25
567.334	633.25
568.101	593.25
568.869	564.25
569.636	524.25
570.403	493.25
571.17	471.25
571.937	444.25
572.704	412.25
573.471	389.25
574.237	377.25
575.004	354.25
575.771	324.25
576.537	305.25
577.303	293.25
578.07	281.25
578.836	262.25
579.602	249.25
580.368	237.25
581.134	217.25
581.9	210.25
582.666	193.25
583.432	188.25
584.198	179.25
584.964	168.25
585.729	157.25
586.495	149.25
587.26	141.25
588.025	132.25
588.791	125.25
589.556	123.25
590.321	112.25
591.086	109.25
591.851	102.25
592.616	97.25
593.381	93.25
594.146	88.25
594.911	85.25
595.675	80.25
596.44	75.25
597.204	71.25
597.969	65.25
598.733	68.25
599.497	66.25
600.261	62.25
601.025	60.25
601.79	55.25
602.553	52.25
603.317	50.25
604.081	50.25
604.845	47.25
605.609	44.25
606.372	44.25
607.136	40.25
607.899	38.25
608.662	39.25
609.426	38.25
610.189	33.25
610.952	35.25
611.715	33.25
612.478	30.25
613.241	29.25
614.004	27.25
614.767	27.25
615.529	26.25
616.292	25.25
617.055	23.25
617.817	22.25
618.579	22.25
619.342	24.25
620.104	21.25
620.866	23.25
621.628	20.25
622.39	16.25
623.152	19.25
623.914	17.25
624.676	17.25
625.438	17.25
626.199	13.25
626.961	17.25
627.722	14.25
628.484	14.25
629.245	14.25
630.006	11.25
630.768	13.25
631.529	11.25
632.29	13.25
633.051	12.25
633.812	11.25
634.573	9.25
635.333	9.25
636.094	11.25
636.855	9.25
637.615	9.25
638.376	7.25
639.136	9.25
639.896	9.25
640.657	7.25
641.417	10.25
642.177	8.25
642.937	8.25
643.697	9.25
644.457	9.25
645.216	7.25
645.976	6.25
646.736	9.25
647.495	5.25
648.255	7.25
649.014	8.25
649.774	7.25
650.533	7.25
651.292	4.25
652.051	6.25
652.81	5.25
653.569	6.25
654.328	4.25
655.087	4.25
655.846	6.25
656.604	6.25
657.363	5.25
658.121	7.25
658.88	5.25
659.638	6.25
660.397	3.25
661.155	6.25
661.913	5.25
662.671	3.25
663.429	5.25
664.187	3.25
664.945	4.25
665.703	3.25
666.46	4.25
667.218	3.25
667.976	5.25
668.733	4.25
669.49	4.25
670.248	4.25
671.005	5.25
671.762	6.25
672.519	6.25
673.276	4.25
674.033	3.25
674.79	1.25
675.547	5.25
676.304	2.25
677.06	5.25
677.817	1.25
678.574	3.25
679.33	2.25
680.086	3.25
680.843	4.25
681.599	4.25
682.355	5.25
683.111	3.25
683.867	4.25
684.623	4.25
685.379	3.25
686.135	3.25
686.89	1.25
687.646	5.25
688.402	4.25
689.157	4.25
689.912	4.25
690.668	1.25
691.423	5.25
692.178	1.25
692.933	1.25
693.688	2.25
694.443	4.25
695.198	2.25
695.953	3.25
696.708	4.25
697.462	2.25
698.217	3.25
698.972	4.25
699.726	4.25
700.48	4.25
701.235	2.25
701.989	5.25
702.743	1.25
703.497	2.25
704.251	5.25
705.005	5.25
705.759	5.25
706.513	4.25
707.266	5.25
708.02	3.25
708.774	2.25
709.527	2.25
710.28	2.25
711.034	0.25
711.787	1.25
712.54	2.25
713.293	4.25
714.046	3.25
714.799	1.25
715.552	4.25
716.305	3.25
717.058	1.25
717.81	3.25
718.563	1.25
719.315	3.25
720.068	2.25
720.82	0.25
721.573	4.25
722.325	5.25
723.077	3.25
723.829	0.25
724.581	4.25
725.333	3.25
726.085	3.25
726.836	3.25
727.588	2.25
728.34	3.25
729.091	1.25
729.843	2.25
730.594	3.25
731.346	4.25
732.097	4.25
732.848	4.25
733.599	3.25
734.35	3.25
735.101	3.25
735.852	9.25
736.603	5.25
737.354	2.25
738.104	5.25
738.855	2.25
739.605	4.25
740.356	5.25
741.106	4.25
741.856	1.25
742.607	6.25
743.357	4.25
744.107	5.25
744.857	4.25
745.607	3.25
746.357	0.25
747.106	5.25
747.856	2.25
748.606	3.25
749.355	4.25
750.105	6.25
750.854	3.25
751.603	6.25
752.353	5.25
753.102	4.25
753.851	5.25
754.6	2.25
755.349	4.25
756.098	5.25
756.847	6.25
757.595	4.25
758.344	5.25
759.093	6.25
759.841	4.25
760.589	3.25
761.338	6.25
762.086	5.25
762.834	5.25
763.582	4.25
764.331	6.25
765.079	6.25
765.826	5.25
766.574	6.25
767.322	4.25
768.07	4.25
768.817	6.25
769.565	8.25
770.312	6.25
771.06	6.25
771.807	6.25
772.554	6.25
773.302	7.25
774.049	6.25
774.796	6.25
775.543	7.25
776.29	8.25
777.036	7.25
777.783	8.25
778.53	9.25
779.276	8.25
780.023	7.25
780.769	8.25
781.516	8.25
782.262	9.25
783.008	6.25
783.754	10.25
784.5	7.25
785.246	6.25
785.992	8.25
786.738	7.25
787.484	7.25
788.23	9.25
788.975	10.25
789.721	7.25
790.466	6.25
791.212	8.25
791.957	6.25
792.702	8.25
793.447	7.25
794.193	9.25
794.938	8.25
795.683	6.25
796.427	7.25
797.172	5.25
797.917	7.25
798.662	5.25
799.406	6.25
800.151	4.25
800.895	5.25
801.64	5.25
802.384	6.25
803.128	6.25
803.872	6.25
804.616	5.25
805.36	8.25
806.104	5.25
806.848	6.25
807.592	6.25
808.336	4.25
809.079	6.25
809.823	5.25
810.566	5.25
811.31	4.25
812.053	2.25
812.796	5.25
813.539	2.25
814.283	3.25
815.026	3.25
815.769	5.25
816.511	6.25
817.254	4.25
817.997	3.25
818.74	2.25
819.482	5.25
820.225	2.25
820.967	2.25
821.71	3.25
822.452	2.25
823.194	5.25
823.936	0.25
824.678	5.25
825.42	2.25
826.162	3.25
826.904	1.25
827.646	3.25
828.388	1.25
829.129	4.25
829.871	6.25
830.612	1.25
831.354	3.25
832.095	1.25
832.836	1.25
833.577	2.25
834.319	1.25
835.06	1.25
835.801	2.25
836.542	3.25
837.282	4.25
838.023	2.25
838.764	4.25
839.504	0.25
840.245	3.25
840.985	2.25
841.726	2.25
842.466	2.25
843.206	3.25
843.946	2.25
844.687	0.25
845.427	3.25
846.166	4.25
846.906	2.25
847.646	4.25
848.386	2.25
849.125	2.25
849.865	3.25
850.605	1.25
851.344	5.25
852.083	2.25
852.823	2.25
853.562	0.25
854.301	2.25
855.04	-0.75
855.779	3.25
856.518	0.25
857.257	1.25
857.995	2.25
858.734	0.25
859.473	2.25
860.211	3.25
860.95	2.25
861.688	3.25
862.426	0.25
863.165	1.25
863.903	0.25
864.641	4.25
865.379	1.25
866.117	1.25
866.855	-0.75
867.593	1.25
868.33	1.25
869.068	3.25
869.806	-0.75
870.543	-0.75
871.28	0.25
872.018	0.25
872.755	1.25
873.492	0.25
874.229	0.25
874.967	-1.75
875.703	1.25
876.44	0.25
877.177	1.25
877.914	0.25
878.651	1.25
879.387	1.25
880.124	0.25
880.86	-0.75
881.597	1.25
882.333	0.25
883.069	-0.75
883.806	0.25
884.542	1.25
885.278	-0.75
886.014	-1.75
886.749	-0.75
887.485	0.25
888.221	1.25
888.957	2.25
889.692	-0.75
890.428	-0.75
891.163	2.25
891.899	-0.75
892.634	1.25
893.369	2.25
894.104	-0.75
894.839	0.25
895.574	-1.75
896.309	-1.75
897.044	-0.75
897.779	0.25
898.514	-1.75
899.248	-0.75
899.983	1.25
900.717	-0.75
901.452	0.25
902.186	-0.75
902.92	0.25
903.654	-1.75
904.389	-2.75
905.123	-0.75
905.857	0.25
906.59	-0.75
907.324	1.25
908.058	0.25
908.792	-0.75
909.525	-1.75
910.259	1.25
910.992	0.25
911.726	1.25
912.459	-0.75
913.192	-2.75
913.925	0.25
914.658	-1.75
915.391	2.25
916.124	2.25
916.857	-0.75
917.59	1.25
918.323	0.25
919.055	0.25
919.788	-0.75
920.521	1.25
921.253	-0.75
921.985	0.25
922.718	0.25
923.45	0.25
924.182	0.25
924.914	-1.75
925.646	-1.75
926.378	-2.75
927.11	0.25
927.841	-2.75
928.573	0.25
929.305	2.25
930.036	-0.75
930.768	-1.75
931.499	3.25
932.23	-1.75
932.962	-0.75
933.693	1.25
934.424	0.25
935.155	0.25
935.886	-0.75
936.617	-1.75
937.348	-1.75
938.078	3.25
938.809	-0.75
939.54	0.25
940.27	-1.75
941.001	-0.75
941.731	-2.75
942.461	-0.75
943.191	0.25
943.922	-0.75
944.652	0.25
945.382	-2.75
946.112	0.25
946.841	2.25
947.571	-2.75
948.301	0.25
949.031	0.25
949.76	1.25
950.49	-2.75
951.219	-0.75
951.948	-0.75
952.678	-2.75
953.407	-0.75
954.136	0.25
954.865	-2.75
955.594	-0.75
956.323	-1.75
957.052	-2.75
957.78	-3.75
958.509	0.25
959.238	-0.75
959.966	-2.75
960.695	0.25
961.423	-1.75
962.151	1.25
962.88	1.25
963.608	-0.75
964.336	0.25
965.064	-0.75
965.792	0.25
966.52	-1.75
967.247	0.25
967.975	-0.75
968.703	-1.75
969.43	0.25
970.158	-1.75
970.885	1.25
971.613	1.25
972.34	-1.75
973.067	0.25
973.794	-0.75
974.521	0.25
975.248	-1.75
975.975	-1.75
976.702	1.25
977.429	0.25
978.156	-0.75
978.882	1.25
979.609	0.25
980.335	-1.75
981.062	-1.75
981.788	-1.75
982.514	-1.75
983.24	-2.75
983.967	-2.75
984.693	1.25
985.419	-1.75
986.144	-1.75
986.87	0.25
987.596	1.25
988.322	1.25
989.047	0.25
989.773	-2.75
990.498	0.25
991.224	0.25
991.949	0.25
992.674	-0.75
993.399	2.25
994.124	-2.75
994.849	-0.75
995.574	-0.75
996.299	1.25
997.024	-1.75
997.749	0.25
998.473	-0.75
999.198	-1.75
999.922	-0.75
1000.647	-0.75
1001.371	3.25
1002.095	0.25
1002.82	-2.75
1003.544	-0.75
1004.268	1.25
1004.992	3.25
1005.716	1.25
1006.439	0.25
1007.163	0.25
1007.887	3.25
1008.611	1.25
1009.334	0.25
1010.058	0.25
1010.781	2.25
1011.504	0.25
1012.228	2.25
1012.951	0.25
1013.674	0.25
1014.397	-0.75
1015.12	0.25
