节点500_285_QEPB04081__611__15-05-43-110.txt的数据

Date: Wed Nov 12 15:05:43 CST 2025
User: PC
Spectrometer: QEPB0408
触发模式: 0
积分时间 (秒): 1.000000E-2
Scans to average: 1
启用暗噪声校正: true
启用非线性校正: false
滑动平均宽度: 0
X轴模式: Wavelengths
Number of Pixels in Spectrum: 1044
>>>>>Begin Spectral Data<<<<<
220.843	1.88
221.644	-0.12
222.444	-0.12
223.244	-0.12
224.045	3.88
224.845	2.88
225.645	2.88
226.445	1.88
227.245	2.88
228.045	0.88
228.845	1.88
229.645	0.88
230.444	2.88
231.244	2.88
232.043	0.88
232.843	4.88
233.642	0.88
234.442	2.88
235.241	2.88
236.04	2.88
236.839	0.88
237.638	2.88
238.437	1.88
239.236	4.88
240.035	6.88
240.833	5.88
241.632	4.88
242.43	4.88
243.229	4.88
244.027	5.88
244.826	3.88
245.624	5.88
246.422	4.88
247.22	3.88
248.018	5.88
248.816	6.88
249.614	6.88
250.412	6.88
251.21	5.88
252.007	8.88
252.805	5.88
253.602	8.88
254.4	5.88
255.197	6.88
255.994	6.88
256.791	6.88
257.589	8.88
258.386	7.88
259.183	9.88
259.979	9.88
260.776	10.88
261.573	9.88
262.37	9.88
263.166	9.88
263.963	11.88
264.759	12.88
265.556	9.88
266.352	12.88
267.148	11.88
267.944	13.88
268.74	10.88
269.536	13.88
270.332	12.88
271.128	13.88
271.924	13.88
272.719	16.88
273.515	14.88
274.311	15.88
275.106	15.88
275.901	15.88
276.697	16.88
277.492	18.88
278.287	15.88
279.082	16.88
279.877	16.88
280.672	16.88
281.467	15.88
282.262	16.88
283.056	15.88
283.851	16.88
284.646	17.88
285.44	16.88
286.234	15.88
287.029	15.88
287.823	17.88
288.617	16.88
289.411	16.88
290.205	15.88
290.999	18.88
291.793	17.88
292.587	16.88
293.381	15.88
294.174	14.88
294.968	18.88
295.761	15.88
296.555	15.88
297.348	12.88
298.141	16.88
298.935	16.88
299.728	11.88
300.521	12.88
301.314	13.88
302.107	14.88
302.899	10.88
303.692	11.88
304.485	9.88
305.277	11.88
306.07	11.88
306.862	14.88
307.655	10.88
308.447	10.88
309.239	8.88
310.031	9.88
310.823	9.88
311.615	11.88
312.407	9.88
313.199	9.88
313.991	8.88
314.783	8.88
315.574	9.88
316.366	6.88
317.157	8.88
317.949	8.88
318.74	8.88
319.531	8.88
320.322	6.88
321.113	7.88
321.904	7.88
322.695	6.88
323.486	6.88
324.277	7.88
325.068	7.88
325.858	5.88
326.649	8.88
327.439	6.88
328.23	6.88
329.02	5.88
329.81	5.88
330.6	6.88
331.391	6.88
332.181	3.88
332.971	4.88
333.76	4.88
334.55	5.88
335.34	4.88
336.13	7.88
336.919	7.88
337.709	6.88
338.498	7.88
339.287	6.88
340.077	4.88
340.866	4.88
341.655	6.88
342.444	6.88
343.233	4.88
344.022	8.88
344.811	3.88
345.6	8.88
346.388	4.88
347.177	5.88
347.965	3.88
348.754	4.88
349.542	5.88
350.33	5.88
351.119	7.88
351.907	4.88
352.695	6.88
353.483	4.88
354.271	4.88
355.059	4.88
355.846	4.88
356.634	3.88
357.422	3.88
358.209	5.88
358.997	6.88
359.784	3.88
360.571	7.88
361.359	2.88
362.146	6.88
362.933	7.88
363.72	6.88
364.507	5.88
365.294	1.88
366.081	4.88
366.867	5.88
367.654	3.88
368.44	5.88
369.227	4.88
370.013	6.88
370.8	4.88
371.586	6.88
372.372	5.88
373.158	4.88
373.944	3.88
374.73	4.88
375.516	3.88
376.302	3.88
377.088	3.88
377.873	3.88
378.659	6.88
379.445	4.88
380.23	4.88
381.015	6.88
381.801	3.88
382.586	4.88
383.371	5.88
384.156	3.88
384.941	3.88
385.726	5.88
386.511	4.88
387.296	5.88
388.08	6.88
388.865	5.88
389.649	5.88
390.434	5.88
391.218	1.88
392.003	6.88
392.787	6.88
393.571	5.88
394.355	6.88
395.139	6.88
395.923	4.88
396.707	4.88
397.491	7.88
398.274	3.88
399.058	4.88
399.842	7.88
400.625	7.88
401.408	6.88
402.192	4.88
402.975	6.88
403.758	4.88
404.541	8.88
405.324	5.88
406.107	4.88
406.89	6.88
407.673	8.88
408.456	9.88
409.238	7.88
410.021	6.88
410.803	8.88
411.586	6.88
412.368	9.88
413.151	5.88
413.933	8.88
414.715	7.88
415.497	8.88
416.279	10.88
417.061	9.88
417.843	10.88
418.624	8.88
419.406	10.88
420.188	9.88
420.969	9.88
421.751	10.88
422.532	9.88
423.313	11.88
424.095	9.88
424.876	9.88
425.657	12.88
426.438	8.88
427.219	9.88
428	13.88
428.78	11.88
429.561	16.88
430.342	12.88
431.122	15.88
431.903	13.88
432.683	13.88
433.464	15.88
434.244	14.88
435.024	16.88
435.804	17.88
436.584	17.88
437.364	19.88
438.144	17.88
438.924	20.88
439.704	23.88
440.483	22.88
441.263	24.88
442.042	22.88
442.822	27.88
443.601	28.88
444.38	29.88
445.16	32.88
445.939	35.88
446.718	37.88
447.497	39.88
448.276	44.88
449.054	47.88
449.833	49.88
450.612	54.88
451.391	59.88
452.169	66.88
452.948	72.88
453.726	77.88
454.504	87.88
455.282	92.88
456.061	104.88
456.839	116.88
457.617	126.88
458.395	145.88
459.172	156.88
459.95	179.88
460.728	203.88
461.506	220.88
462.283	250.88
463.061	282.88
463.838	310.88
464.615	337.88
465.393	384.88
466.17	422.88
466.947	469.88
467.724	523.88
468.501	573.88
469.278	645.88
470.055	717.88
470.831	800.88
471.608	879.88
472.385	975.88
473.161	1069.88
473.938	1204.88
474.714	1330.88
475.49	1455.88
476.266	1608.88
477.043	1760.88
477.819	1927.88
478.595	2138.88
479.371	2351.88
480.146	2559.88
480.922	2817.88
481.698	3088.88
482.473	3414.88
483.249	3724.88
484.024	4090.88
484.8	4493.88
485.575	4885.88
486.35	5333.88
487.126	5825.88
487.901	6366.88
488.676	6981.88
489.451	7603.88
490.225	8238.88
491	8974.88
491.775	9790.88
492.55	10648.88
493.324	11550.88
494.099	12366.88
494.873	13273.88
495.647	14270.88
496.422	15328.88
497.196	16413.88
497.97	17521.88
498.744	18678.88
499.518	19694.88
500.292	20781.88
501.066	21798.88
501.839	22786.88
502.613	23682.88
503.387	24480.88
504.16	25185.88
504.934	25642.88
505.707	25868.88
506.48	26020.88
507.253	26237.88
508.027	26086.88
508.8	25917.88
509.573	25678.88
510.346	25110.88
511.118	24485.88
511.891	23949.88
512.664	23148.88
513.437	22447.88
514.209	21580.88
514.982	20785.88
515.754	19933.88
516.526	19081.88
517.298	18292.88
518.071	17471.88
518.843	16808.88
519.615	16183.88
520.387	15525.88
521.159	14907.88
521.93	14309.88
522.702	13749.88
523.474	13210.88
524.245	12639.88
525.017	12095.88
525.788	11676.88
526.56	11133.88
527.331	10651.88
528.102	10162.88
528.873	9734.88
529.644	9216.88
530.415	8847.88
531.186	8397.88
531.957	7950.88
532.728	7602.88
533.498	7208.88
534.269	6804.88
535.039	6439.88
535.81	6098.88
536.58	5762.88
537.351	5418.88
538.121	5140.88
538.891	4867.88
539.661	4598.88
540.431	4356.88
541.201	4085.88
541.971	3885.88
542.741	3677.88
543.51	3506.88
544.28	3341.88
545.05	3161.88
545.819	3005.88
546.588	2848.88
547.358	2728.88
548.127	2571.88
548.896	2480.88
549.665	2342.88
550.434	2207.88
551.203	2090.88
551.972	1986.88
552.741	1875.88
553.51	1782.88
554.278	1679.88
555.047	1596.88
555.815	1508.88
556.584	1417.88
557.352	1343.88
558.121	1259.88
558.889	1208.88
559.657	1114.88
560.425	1062.88
561.193	1005.88
561.961	943.88
562.729	900.88
563.496	856.88
564.264	804.88
565.032	757.88
565.799	724.88
566.567	673.88
567.334	648.88
568.101	600.88
568.869	576.88
569.636	533.88
570.403	498.88
571.17	476.88
571.937	453.88
572.704	426.88
573.471	404.88
574.237	379.88
575.004	355.88
575.771	329.88
576.537	317.88
577.303	304.88
578.07	282.88
578.836	268.88
579.602	247.88
580.368	232.88
581.134	231.88
581.9	208.88
582.666	200.88
583.432	185.88
584.198	179.88
584.964	172.88
585.729	157.88
586.495	152.88
587.26	144.88
588.025	137.88
588.791	134.88
589.556	122.88
590.321	116.88
591.086	113.88
591.851	104.88
592.616	100.88
593.381	93.88
594.146	88.88
594.911	88.88
595.675	84.88
596.44	79.88
597.204	73.88
597.969	72.88
598.733	66.88
599.497	64.88
600.261	60.88
601.025	59.88
601.79	57.88
602.553	56.88
603.317	52.88
604.081	50.88
604.845	45.88
605.609	46.88
606.372	40.88
607.136	41.88
607.899	40.88
608.662	41.88
609.426	38.88
610.189	32.88
610.952	32.88
611.715	33.88
612.478	30.88
613.241	29.88
614.004	29.88
614.767	28.88
615.529	27.88
616.292	27.88
617.055	21.88
617.817	23.88
618.579	23.88
619.342	22.88
620.104	21.88
620.866	22.88
621.628	19.88
622.39	18.88
623.152	18.88
623.914	17.88
624.676	17.88
625.438	15.88
626.199	15.88
626.961	15.88
627.722	14.88
628.484	16.88
629.245	13.88
630.006	13.88
630.768	14.88
631.529	11.88
632.29	13.88
633.051	12.88
633.812	11.88
634.573	11.88
635.333	10.88
636.094	9.88
636.855	10.88
637.615	9.88
638.376	7.88
639.136	10.88
639.896	9.88
640.657	9.88
641.417	10.88
642.177	7.88
642.937	8.88
643.697	9.88
644.457	9.88
645.216	7.88
645.976	6.88
646.736	6.88
647.495	7.88
648.255	7.88
649.014	8.88
649.774	7.88
650.533	6.88
651.292	6.88
652.051	5.88
652.81	6.88
653.569	6.88
654.328	6.88
655.087	5.88
655.846	5.88
656.604	5.88
657.363	7.88
658.121	5.88
658.88	6.88
659.638	7.88
660.397	5.88
661.155	5.88
661.913	4.88
662.671	5.88
663.429	3.88
664.187	5.88
664.945	4.88
665.703	2.88
666.46	5.88
667.218	4.88
667.976	4.88
668.733	5.88
669.49	5.88
670.248	4.88
671.005	4.88
671.762	2.88
672.519	3.88
673.276	4.88
674.033	6.88
674.79	3.88
675.547	2.88
676.304	3.88
677.06	5.88
677.817	5.88
678.574	2.88
679.33	5.88
680.086	3.88
680.843	4.88
681.599	1.88
682.355	5.88
683.111	5.88
683.867	3.88
684.623	1.88
685.379	1.88
686.135	1.88
686.89	4.88
687.646	3.88
688.402	2.88
689.157	2.88
689.912	1.88
690.668	2.88
691.423	2.88
692.178	3.88
692.933	2.88
693.688	3.88
694.443	4.88
695.198	4.88
695.953	1.88
696.708	2.88
697.462	5.88
698.217	1.88
698.972	2.88
699.726	3.88
700.48	0.88
701.235	2.88
701.989	2.88
702.743	1.88
703.497	2.88
704.251	1.88
705.005	2.88
705.759	3.88
706.513	1.88
707.266	2.88
708.02	2.88
708.774	3.88
709.527	4.88
710.28	2.88
711.034	4.88
711.787	2.88
712.54	4.88
713.293	3.88
714.046	1.88
714.799	3.88
715.552	2.88
716.305	3.88
717.058	2.88
717.81	3.88
718.563	2.88
719.315	3.88
720.068	4.88
720.82	1.88
721.573	1.88
722.325	4.88
723.077	1.88
723.829	4.88
724.581	3.88
725.333	3.88
726.085	2.88
726.836	4.88
727.588	2.88
728.34	3.88
729.091	3.88
729.843	2.88
730.594	3.88
731.346	5.88
732.097	4.88
732.848	4.88
733.599	1.88
734.35	4.88
735.101	1.88
735.852	5.88
736.603	1.88
737.354	5.88
738.104	4.88
738.855	1.88
739.605	2.88
740.356	2.88
741.106	5.88
741.856	6.88
742.607	1.88
743.357	3.88
744.107	3.88
744.857	4.88
745.607	4.88
746.357	3.88
747.106	6.88
747.856	3.88
748.606	6.88
749.355	2.88
750.105	5.88
750.854	1.88
751.603	4.88
752.353	4.88
753.102	4.88
753.851	5.88
754.6	5.88
755.349	6.88
756.098	4.88
756.847	6.88
757.595	6.88
758.344	5.88
759.093	5.88
759.841	3.88
760.589	5.88
761.338	5.88
762.086	2.88
762.834	6.88
763.582	6.88
764.331	4.88
765.079	5.88
765.826	4.88
766.574	5.88
767.322	2.88
768.07	3.88
768.817	7.88
769.565	5.88
770.312	6.88
771.06	7.88
771.807	8.88
772.554	6.88
773.302	6.88
774.049	4.88
774.796	7.88
775.543	5.88
776.29	4.88
777.036	9.88
777.783	8.88
778.53	7.88
779.276	8.88
780.023	6.88
780.769	9.88
781.516	7.88
782.262	8.88
783.008	7.88
783.754	8.88
784.5	7.88
785.246	8.88
785.992	8.88
786.738	8.88
787.484	5.88
788.23	7.88
788.975	6.88
789.721	6.88
790.466	5.88
791.212	8.88
791.957	8.88
792.702	7.88
793.447	7.88
794.193	6.88
794.938	7.88
795.683	6.88
796.427	7.88
797.172	7.88
797.917	6.88
798.662	9.88
799.406	6.88
800.151	6.88
800.895	3.88
801.64	7.88
802.384	7.88
803.128	5.88
803.872	9.88
804.616	6.88
805.36	6.88
806.104	4.88
806.848	6.88
807.592	4.88
808.336	4.88
809.079	3.88
809.823	5.88
810.566	6.88
811.31	4.88
812.053	5.88
812.796	5.88
813.539	5.88
814.283	3.88
815.026	3.88
815.769	3.88
816.511	5.88
817.254	4.88
817.997	5.88
818.74	2.88
819.482	1.88
820.225	3.88
820.967	4.88
821.71	4.88
822.452	4.88
823.194	3.88
823.936	2.88
824.678	2.88
825.42	2.88
826.162	3.88
826.904	3.88
827.646	2.88
828.388	3.88
829.129	0.88
829.871	3.88
830.612	1.88
831.354	2.88
832.095	6.88
832.836	3.88
833.577	3.88
834.319	3.88
835.06	4.88
835.801	1.88
836.542	0.88
837.282	3.88
838.023	0.88
838.764	3.88
839.504	4.88
840.245	1.88
840.985	3.88
841.726	2.88
842.466	2.88
843.206	2.88
843.946	2.88
844.687	3.88
845.427	2.88
846.166	2.88
846.906	0.88
847.646	3.88
848.386	3.88
849.125	3.88
849.865	1.88
850.605	4.88
851.344	4.88
852.083	3.88
852.823	1.88
853.562	1.88
854.301	2.88
855.04	0.88
855.779	3.88
856.518	3.88
857.257	1.88
857.995	2.88
858.734	-1.12
859.473	2.88
860.211	0.88
860.95	1.88
861.688	3.88
862.426	0.88
863.165	1.88
863.903	2.88
864.641	2.88
865.379	0.88
866.117	1.88
866.855	1.88
867.593	-0.12
868.33	2.88
869.068	0.88
869.806	1.88
870.543	-1.12
871.28	0.88
872.018	1.88
872.755	1.88
873.492	-0.12
874.229	2.88
874.967	-0.12
875.703	0.88
876.44	0.88
877.177	2.88
877.914	-0.12
878.651	0.88
879.387	1.88
880.124	0.88
880.86	1.88
881.597	-1.12
882.333	1.88
883.069	-0.12
883.806	2.88
884.542	0.88
885.278	-0.12
886.014	0.88
886.749	0.88
887.485	0.88
888.221	-0.12
888.957	-0.12
889.692	-0.12
890.428	0.88
891.163	0.88
891.899	-1.12
892.634	1.88
893.369	1.88
894.104	0.88
894.839	2.88
895.574	-0.12
896.309	0.88
897.044	-2.12
897.779	1.88
898.514	0.88
899.248	0.88
899.983	-0.12
900.717	0.88
901.452	-0.12
902.186	1.88
902.92	-0.12
903.654	0.88
904.389	-0.12
905.123	-1.12
905.857	-0.12
906.59	1.88
907.324	1.88
908.058	-0.12
908.792	-2.12
909.525	-1.12
910.259	0.88
910.992	0.88
911.726	1.88
912.459	-0.12
913.192	0.88
913.925	2.88
914.658	-0.12
915.391	-0.12
916.124	-0.12
916.857	-0.12
917.59	-2.12
918.323	0.88
919.055	1.88
919.788	-1.12
920.521	0.88
921.253	-1.12
921.985	1.88
922.718	-0.12
923.45	0.88
924.182	0.88
924.914	-2.12
925.646	-2.12
926.378	1.88
927.11	-0.12
927.841	-0.12
928.573	-1.12
929.305	0.88
930.036	0.88
930.768	0.88
931.499	-0.12
932.23	3.88
932.962	-1.12
933.693	-3.12
934.424	1.88
935.155	-1.12
935.886	0.88
936.617	-0.12
937.348	1.88
938.078	1.88
938.809	0.88
939.54	0.88
940.27	-2.12
941.001	1.88
941.731	0.88
942.461	-1.12
943.191	0.88
943.922	-1.12
944.652	-0.12
945.382	0.88
946.112	-0.12
946.841	-2.12
947.571	-1.12
948.301	0.88
949.031	-0.12
949.76	0.88
950.49	2.88
951.219	1.88
951.948	-0.12
952.678	-1.12
953.407	0.88
954.136	-3.12
954.865	-1.12
955.594	-0.12
956.323	0.88
957.052	0.88
957.78	0.88
958.509	1.88
959.238	0.88
959.966	0.88
960.695	-1.12
961.423	0.88
962.151	-0.12
962.88	-1.12
963.608	1.88
964.336	-0.12
965.064	-0.12
965.792	0.88
966.52	1.88
967.247	0.88
967.975	-2.12
968.703	3.88
969.43	-2.12
970.158	0.88
970.885	1.88
971.613	-0.12
972.34	0.88
973.067	-0.12
973.794	-1.12
974.521	-2.12
975.248	1.88
975.975	-1.12
976.702	-1.12
977.429	1.88
978.156	1.88
978.882	-0.12
979.609	0.88
980.335	-3.12
981.062	-2.12
981.788	0.88
982.514	0.88
983.24	-0.12
983.967	0.88
984.693	-1.12
985.419	-0.12
986.144	1.88
986.87	-1.12
987.596	1.88
988.322	-0.12
989.047	2.88
989.773	1.88
990.498	0.88
991.224	0.88
991.949	-2.12
992.674	0.88
993.399	-2.12
994.124	-0.12
994.849	-1.12
995.574	-0.12
996.299	-0.12
997.024	-0.12
997.749	0.88
998.473	-0.12
999.198	-1.12
999.922	-0.12
1000.647	-2.12
1001.371	3.88
1002.095	-2.12
1002.82	-0.12
1003.544	0.88
1004.268	-0.12
1004.992	0.88
1005.716	0.88
1006.439	-0.12
1007.163	1.88
1007.887	0.88
1008.611	-0.12
1009.334	-1.12
1010.058	-0.12
1010.781	-1.12
1011.504	0.88
1012.228	2.88
1012.951	-1.12
1013.674	-2.12
1014.397	0.88
1015.12	-0.12
