节点500_285_QEPB04081__115__14-57-28-262.txt的数据

Date: Wed Nov 12 14:57:28 CST 2025
User: PC
Spectrometer: QEPB0408
触发模式: 0
积分时间 (秒): 1.000000E-2
Scans to average: 1
启用暗噪声校正: true
启用非线性校正: false
滑动平均宽度: 0
X轴模式: Wavelengths
Number of Pixels in Spectrum: 1044
>>>>>Begin Spectral Data<<<<<
220.843	0.25
221.644	1.25
222.444	1.25
223.244	1.25
224.045	0.25
224.845	3.25
225.645	2.25
226.445	0.25
227.245	1.25
228.045	5.25
228.845	4.25
229.645	1.25
230.444	1.25
231.244	1.25
232.043	3.25
232.843	4.25
233.642	4.25
234.442	6.25
235.241	3.25
236.04	3.25
236.839	6.25
237.638	3.25
238.437	3.25
239.236	5.25
240.035	6.25
240.833	4.25
241.632	7.25
242.43	4.25
243.229	4.25
244.027	7.25
244.826	5.25
245.624	5.25
246.422	3.25
247.22	5.25
248.018	4.25
248.816	8.25
249.614	4.25
250.412	6.25
251.21	6.25
252.007	5.25
252.805	7.25
253.602	7.25
254.4	8.25
255.197	8.25
255.994	7.25
256.791	9.25
257.589	10.25
258.386	7.25
259.183	9.25
259.979	6.25
260.776	13.25
261.573	10.25
262.37	12.25
263.166	12.25
263.963	12.25
264.759	13.25
265.556	12.25
266.352	15.25
267.148	17.25
267.944	15.25
268.74	15.25
269.536	15.25
270.332	15.25
271.128	19.25
271.924	19.25
272.719	16.25
273.515	17.25
274.311	16.25
275.106	17.25
275.901	19.25
276.697	20.25
277.492	17.25
278.287	18.25
279.082	17.25
279.877	18.25
280.672	21.25
281.467	19.25
282.262	21.25
283.056	18.25
283.851	21.25
284.646	21.25
285.44	22.25
286.234	21.25
287.029	20.25
287.823	22.25
288.617	16.25
289.411	20.25
290.205	18.25
290.999	19.25
291.793	17.25
292.587	13.25
293.381	17.25
294.174	17.25
294.968	17.25
295.761	17.25
296.555	15.25
297.348	13.25
298.141	14.25
298.935	18.25
299.728	16.25
300.521	15.25
301.314	15.25
302.107	15.25
302.899	13.25
303.692	11.25
304.485	13.25
305.277	14.25
306.07	13.25
306.862	13.25
307.655	13.25
308.447	16.25
309.239	12.25
310.031	11.25
310.823	11.25
311.615	12.25
312.407	7.25
313.199	9.25
313.991	10.25
314.783	9.25
315.574	10.25
316.366	8.25
317.157	9.25
317.949	9.25
318.74	8.25
319.531	9.25
320.322	9.25
321.113	8.25
321.904	8.25
322.695	8.25
323.486	6.25
324.277	8.25
325.068	8.25
325.858	6.25
326.649	7.25
327.439	7.25
328.23	7.25
329.02	6.25
329.81	7.25
330.6	6.25
331.391	7.25
332.181	7.25
332.971	8.25
333.76	6.25
334.55	5.25
335.34	7.25
336.13	8.25
336.919	5.25
337.709	7.25
338.498	5.25
339.287	6.25
340.077	7.25
340.866	8.25
341.655	7.25
342.444	8.25
343.233	5.25
344.022	6.25
344.811	7.25
345.6	5.25
346.388	7.25
347.177	5.25
347.965	8.25
348.754	6.25
349.542	4.25
350.33	5.25
351.119	7.25
351.907	7.25
352.695	6.25
353.483	4.25
354.271	6.25
355.059	5.25
355.846	5.25
356.634	5.25
357.422	5.25
358.209	5.25
358.997	6.25
359.784	5.25
360.571	5.25
361.359	6.25
362.146	5.25
362.933	7.25
363.72	6.25
364.507	6.25
365.294	6.25
366.081	8.25
366.867	6.25
367.654	5.25
368.44	5.25
369.227	3.25
370.013	1.25
370.8	5.25
371.586	3.25
372.372	4.25
373.158	5.25
373.944	6.25
374.73	4.25
375.516	5.25
376.302	6.25
377.088	4.25
377.873	7.25
378.659	6.25
379.445	3.25
380.23	5.25
381.015	5.25
381.801	5.25
382.586	7.25
383.371	7.25
384.156	6.25
384.941	6.25
385.726	7.25
386.511	7.25
387.296	6.25
388.08	4.25
388.865	5.25
389.649	6.25
390.434	4.25
391.218	4.25
392.003	6.25
392.787	5.25
393.571	5.25
394.355	7.25
395.139	7.25
395.923	5.25
396.707	7.25
397.491	7.25
398.274	6.25
399.058	7.25
399.842	7.25
400.625	6.25
401.408	7.25
402.192	5.25
402.975	7.25
403.758	8.25
404.541	7.25
405.324	6.25
406.107	8.25
406.89	8.25
407.673	6.25
408.456	7.25
409.238	9.25
410.021	8.25
410.803	10.25
411.586	8.25
412.368	9.25
413.151	8.25
413.933	9.25
414.715	7.25
415.497	9.25
416.279	9.25
417.061	9.25
417.843	9.25
418.624	10.25
419.406	11.25
420.188	10.25
420.969	12.25
421.751	9.25
422.532	12.25
423.313	10.25
424.095	11.25
424.876	13.25
425.657	12.25
426.438	10.25
427.219	12.25
428	14.25
428.78	12.25
429.561	14.25
430.342	11.25
431.122	17.25
431.903	13.25
432.683	15.25
433.464	16.25
434.244	16.25
435.024	16.25
435.804	16.25
436.584	19.25
437.364	19.25
438.144	17.25
438.924	20.25
439.704	18.25
440.483	25.25
441.263	23.25
442.042	26.25
442.822	27.25
443.601	28.25
444.38	29.25
445.16	29.25
445.939	34.25
446.718	35.25
447.497	37.25
448.276	41.25
449.054	39.25
449.833	48.25
450.612	49.25
451.391	55.25
452.169	58.25
452.948	65.25
453.726	67.25
454.504	72.25
455.282	89.25
456.061	95.25
456.839	106.25
457.617	117.25
458.395	129.25
459.172	139.25
459.95	159.25
460.728	173.25
461.506	197.25
462.283	219.25
463.061	247.25
463.838	271.25
464.615	301.25
465.393	339.25
466.17	378.25
466.947	427.25
467.724	477.25
468.501	541.25
469.278	591.25
470.055	665.25
470.831	740.25
471.608	825.25
472.385	925.25
473.161	1011.25
473.938	1132.25
474.714	1262.25
475.49	1387.25
476.266	1552.25
477.043	1719.25
477.819	1916.25
478.595	2122.25
479.371	2342.25
480.146	2597.25
480.922	2868.25
481.698	3181.25
482.473	3521.25
483.249	3894.25
484.024	4307.25
484.8	4759.25
485.575	5235.25
486.35	5759.25
487.126	6388.25
487.901	6976.25
488.676	7697.25
489.451	8442.25
490.225	9295.25
491	10189.25
491.775	11135.25
492.55	12174.25
493.324	13242.25
494.099	14268.25
494.873	15438.25
495.647	16709.25
496.422	17903.25
497.196	19137.25
497.97	20437.25
498.744	21688.25
499.518	22882.25
500.292	24117.25
501.066	25221.25
501.839	26136.25
502.613	26976.25
503.387	27729.25
504.16	28249.25
504.934	28508.25
505.707	28577.25
506.48	28509.25
507.253	28200.25
508.027	27846.25
508.8	27367.25
509.573	26858.25
510.346	26061.25
511.118	25161.25
511.891	24258.25
512.664	23360.25
513.437	22369.25
514.209	21329.25
514.982	20460.25
515.754	19528.25
516.526	18627.25
517.298	17777.25
518.071	17037.25
518.843	16345.25
519.615	15738.25
520.387	15143.25
521.159	14518.25
521.93	13948.25
522.702	13376.25
523.474	12831.25
524.245	12276.25
525.017	11691.25
525.788	11278.25
526.56	10731.25
527.331	10223.25
528.102	9771.25
528.873	9307.25
529.644	8789.25
530.415	8359.25
531.186	7950.25
531.957	7513.25
532.728	7112.25
533.498	6726.25
534.269	6328.25
535.039	5952.25
535.81	5664.25
536.58	5351.25
537.351	5027.25
538.121	4772.25
538.891	4478.25
539.661	4233.25
540.431	3982.25
541.201	3776.25
541.971	3611.25
542.741	3406.25
543.51	3244.25
544.28	3082.25
545.05	2928.25
545.819	2781.25
546.588	2666.25
547.358	2528.25
548.127	2403.25
548.896	2272.25
549.665	2140.25
550.434	2037.25
551.203	1916.25
551.972	1824.25
552.741	1733.25
553.51	1620.25
554.278	1530.25
555.047	1442.25
555.815	1349.25
556.584	1295.25
557.352	1197.25
558.121	1157.25
558.889	1073.25
559.657	1016.25
560.425	951.25
561.193	908.25
561.961	849.25
562.729	818.25
563.496	765.25
564.264	728.25
565.032	687.25
565.799	643.25
566.567	616.25
567.334	575.25
568.101	541.25
568.869	516.25
569.636	488.25
570.403	466.25
571.17	430.25
571.937	406.25
572.704	374.25
573.471	368.25
574.237	345.25
575.004	319.25
575.771	300.25
576.537	280.25
577.303	264.25
578.07	256.25
578.836	232.25
579.602	226.25
580.368	216.25
581.134	197.25
581.9	191.25
582.666	182.25
583.432	169.25
584.198	151.25
584.964	152.25
585.729	144.25
586.495	139.25
587.26	133.25
588.025	123.25
588.791	120.25
589.556	110.25
590.321	106.25
591.086	105.25
591.851	100.25
592.616	90.25
593.381	88.25
594.146	81.25
594.911	80.25
595.675	76.25
596.44	72.25
597.204	65.25
597.969	65.25
598.733	59.25
599.497	59.25
600.261	56.25
601.025	53.25
601.79	51.25
602.553	48.25
603.317	47.25
604.081	47.25
604.845	42.25
605.609	42.25
606.372	40.25
607.136	41.25
607.899	34.25
608.662	33.25
609.426	35.25
610.189	34.25
610.952	32.25
611.715	28.25
612.478	29.25
613.241	27.25
614.004	26.25
614.767	25.25
615.529	27.25
616.292	26.25
617.055	25.25
617.817	24.25
618.579	20.25
619.342	22.25
620.104	22.25
620.866	19.25
621.628	19.25
622.39	19.25
623.152	19.25
623.914	19.25
624.676	18.25
625.438	17.25
626.199	16.25
626.961	13.25
627.722	13.25
628.484	11.25
629.245	13.25
630.006	12.25
630.768	16.25
631.529	13.25
632.29	11.25
633.051	11.25
633.812	12.25
634.573	11.25
635.333	12.25
636.094	12.25
636.855	8.25
637.615	11.25
638.376	10.25
639.136	9.25
639.896	10.25
640.657	9.25
641.417	9.25
642.177	11.25
642.937	6.25
643.697	11.25
644.457	7.25
645.216	9.25
645.976	8.25
646.736	7.25
647.495	9.25
648.255	5.25
649.014	7.25
649.774	6.25
650.533	7.25
651.292	5.25
652.051	7.25
652.81	7.25
653.569	5.25
654.328	9.25
655.087	7.25
655.846	6.25
656.604	6.25
657.363	9.25
658.121	4.25
658.88	7.25
659.638	5.25
660.397	8.25
661.155	5.25
661.913	7.25
662.671	6.25
663.429	5.25
664.187	7.25
664.945	6.25
665.703	3.25
666.46	6.25
667.218	6.25
667.976	6.25
668.733	5.25
669.49	5.25
670.248	4.25
671.005	5.25
671.762	5.25
672.519	4.25
673.276	4.25
674.033	4.25
674.79	3.25
675.547	5.25
676.304	5.25
677.06	5.25
677.817	5.25
678.574	5.25
679.33	3.25
680.086	5.25
680.843	1.25
681.599	3.25
682.355	0.25
683.111	3.25
683.867	3.25
684.623	4.25
685.379	6.25
686.135	4.25
686.89	3.25
687.646	2.25
688.402	5.25
689.157	1.25
689.912	3.25
690.668	3.25
691.423	2.25
692.178	4.25
692.933	4.25
693.688	3.25
694.443	4.25
695.198	3.25
695.953	6.25
696.708	4.25
697.462	1.25
698.217	4.25
698.972	4.25
699.726	3.25
700.48	5.25
701.235	4.25
701.989	3.25
702.743	5.25
703.497	6.25
704.251	3.25
705.005	5.25
705.759	4.25
706.513	2.25
707.266	4.25
708.02	3.25
708.774	4.25
709.527	4.25
710.28	4.25
711.034	3.25
711.787	4.25
712.54	3.25
713.293	5.25
714.046	1.25
714.799	5.25
715.552	2.25
716.305	5.25
717.058	3.25
717.81	3.25
718.563	3.25
719.315	3.25
720.068	5.25
720.82	5.25
721.573	4.25
722.325	1.25
723.077	5.25
723.829	5.25
724.581	1.25
725.333	3.25
726.085	3.25
726.836	3.25
727.588	4.25
728.34	2.25
729.091	4.25
729.843	3.25
730.594	3.25
731.346	4.25
732.097	2.25
732.848	5.25
733.599	3.25
734.35	3.25
735.101	5.25
735.852	6.25
736.603	5.25
737.354	5.25
738.104	5.25
738.855	5.25
739.605	4.25
740.356	6.25
741.106	5.25
741.856	6.25
742.607	4.25
743.357	5.25
744.107	6.25
744.857	5.25
745.607	5.25
746.357	7.25
747.106	4.25
747.856	4.25
748.606	4.25
749.355	6.25
750.105	4.25
750.854	3.25
751.603	6.25
752.353	5.25
753.102	5.25
753.851	6.25
754.6	6.25
755.349	6.25
756.098	6.25
756.847	7.25
757.595	7.25
758.344	5.25
759.093	4.25
759.841	7.25
760.589	5.25
761.338	7.25
762.086	6.25
762.834	7.25
763.582	7.25
764.331	5.25
765.079	7.25
765.826	8.25
766.574	8.25
767.322	5.25
768.07	7.25
768.817	8.25
769.565	6.25
770.312	8.25
771.06	8.25
771.807	8.25
772.554	7.25
773.302	9.25
774.049	7.25
774.796	8.25
775.543	9.25
776.29	8.25
777.036	8.25
777.783	9.25
778.53	7.25
779.276	8.25
780.023	9.25
780.769	11.25
781.516	7.25
782.262	10.25
783.008	9.25
783.754	10.25
784.5	10.25
785.246	10.25
785.992	7.25
786.738	8.25
787.484	8.25
788.23	12.25
788.975	9.25
789.721	10.25
790.466	9.25
791.212	9.25
791.957	10.25
792.702	9.25
793.447	8.25
794.193	7.25
794.938	9.25
795.683	10.25
796.427	8.25
797.172	7.25
797.917	9.25
798.662	8.25
799.406	7.25
800.151	9.25
800.895	7.25
801.64	5.25
802.384	6.25
803.128	5.25
803.872	5.25
804.616	8.25
805.36	6.25
806.104	7.25
806.848	4.25
807.592	5.25
808.336	6.25
809.079	6.25
809.823	8.25
810.566	6.25
811.31	4.25
812.053	3.25
812.796	5.25
813.539	6.25
814.283	5.25
815.026	7.25
815.769	6.25
816.511	5.25
817.254	4.25
817.997	6.25
818.74	5.25
819.482	7.25
820.225	5.25
820.967	4.25
821.71	4.25
822.452	5.25
823.194	1.25
823.936	6.25
824.678	3.25
825.42	4.25
826.162	3.25
826.904	5.25
827.646	1.25
828.388	4.25
829.129	5.25
829.871	3.25
830.612	3.25
831.354	3.25
832.095	3.25
832.836	4.25
833.577	5.25
834.319	1.25
835.06	4.25
835.801	4.25
836.542	5.25
837.282	2.25
838.023	3.25
838.764	3.25
839.504	6.25
840.245	3.25
840.985	1.25
841.726	4.25
842.466	3.25
843.206	4.25
843.946	3.25
844.687	4.25
845.427	4.25
846.166	3.25
846.906	1.25
847.646	2.25
848.386	4.25
849.125	6.25
849.865	0.25
850.605	3.25
851.344	4.25
852.083	1.25
852.823	4.25
853.562	5.25
854.301	4.25
855.04	1.25
855.779	2.25
856.518	4.25
857.257	3.25
857.995	2.25
858.734	0.25
859.473	3.25
860.211	3.25
860.95	2.25
861.688	1.25
862.426	4.25
863.165	1.25
863.903	0.25
864.641	2.25
865.379	1.25
866.117	1.25
866.855	1.25
867.593	2.25
868.33	0.25
869.068	0.25
869.806	2.25
870.543	0.25
871.28	2.25
872.018	1.25
872.755	3.25
873.492	1.25
874.229	2.25
874.967	1.25
875.703	1.25
876.44	3.25
877.177	0.25
877.914	2.25
878.651	1.25
879.387	1.25
880.124	-0.75
880.86	3.25
881.597	1.25
882.333	1.25
883.069	0.25
883.806	1.25
884.542	-1.75
885.278	1.25
886.014	2.25
886.749	2.25
887.485	-0.75
888.221	0.25
888.957	1.25
889.692	0.25
890.428	0.25
891.163	-1.75
891.899	-0.75
892.634	0.25
893.369	2.25
894.104	0.25
894.839	4.25
895.574	2.25
896.309	3.25
897.044	-0.75
897.779	-0.75
898.514	-0.75
899.248	3.25
899.983	0.25
900.717	1.25
901.452	2.25
902.186	-0.75
902.92	1.25
903.654	0.25
904.389	-2.75
905.123	0.25
905.857	1.25
906.59	0.25
907.324	2.25
908.058	3.25
908.792	1.25
909.525	-0.75
910.259	3.25
910.992	-1.75
911.726	1.25
912.459	1.25
913.192	-0.75
913.925	1.25
914.658	-0.75
915.391	-0.75
916.124	1.25
916.857	1.25
917.59	1.25
918.323	0.25
919.055	1.25
919.788	0.25
920.521	2.25
921.253	1.25
921.985	-0.75
922.718	1.25
923.45	-0.75
924.182	0.25
924.914	1.25
925.646	0.25
926.378	-0.75
927.11	-0.75
927.841	1.25
928.573	-1.75
929.305	-0.75
930.036	0.25
930.768	-0.75
931.499	0.25
932.23	-0.75
932.962	1.25
933.693	-0.75
934.424	-0.75
935.155	-1.75
935.886	-2.75
936.617	-0.75
937.348	0.25
938.078	2.25
938.809	-1.75
939.54	-0.75
940.27	1.25
941.001	-1.75
941.731	0.25
942.461	1.25
943.191	2.25
943.922	-0.75
944.652	0.25
945.382	1.25
946.112	-0.75
946.841	0.25
947.571	-0.75
948.301	0.25
949.031	1.25
949.76	0.25
950.49	0.25
951.219	3.25
951.948	0.25
952.678	-0.75
953.407	-0.75
954.136	1.25
954.865	0.25
955.594	1.25
956.323	0.25
957.052	1.25
957.78	2.25
958.509	-1.75
959.238	3.25
959.966	1.25
960.695	0.25
961.423	1.25
962.151	0.25
962.88	1.25
963.608	0.25
964.336	-0.75
965.064	2.25
965.792	-0.75
966.52	-0.75
967.247	-1.75
967.975	2.25
968.703	-0.75
969.43	0.25
970.158	1.25
970.885	-0.75
971.613	4.25
972.34	0.25
973.067	-0.75
973.794	-0.75
974.521	0.25
975.248	1.25
975.975	-1.75
976.702	1.25
977.429	-1.75
978.156	1.25
978.882	1.25
979.609	0.25
980.335	1.25
981.062	0.25
981.788	-0.75
982.514	1.25
983.24	2.25
983.967	-0.75
984.693	-0.75
985.419	1.25
986.144	1.25
986.87	2.25
987.596	0.25
988.322	-0.75
989.047	0.25
989.773	-0.75
990.498	0.25
991.224	-0.75
991.949	0.25
992.674	1.25
993.399	-1.75
994.124	0.25
994.849	-0.75
995.574	2.25
996.299	2.25
997.024	-0.75
997.749	1.25
998.473	2.25
999.198	2.25
999.922	1.25
1000.647	-1.75
1001.371	5.25
1002.095	-1.75
1002.82	-0.75
1003.544	-0.75
1004.268	1.25
1004.992	0.25
1005.716	1.25
1006.439	1.25
1007.163	-0.75
1007.887	2.25
1008.611	0.25
1009.334	0.25
1010.058	-0.75
1010.781	-2.75
1011.504	0.25
1012.228	1.25
1012.951	0.25
1013.674	1.25
1014.397	-1.75
1015.12	-1.75
