节点500_285_QEPB04081__684__15-06-55-903.txt的数据

Date: Wed Nov 12 15:06:55 CST 2025
User: PC
Spectrometer: QEPB0408
触发模式: 0
积分时间 (秒): 1.000000E-2
Scans to average: 1
启用暗噪声校正: true
启用非线性校正: false
滑动平均宽度: 0
X轴模式: Wavelengths
Number of Pixels in Spectrum: 1044
>>>>>Begin Spectral Data<<<<<
220.843	1
221.644	1
222.444	3
223.244	3
224.045	2
224.845	3
225.645	-1
226.445	3
227.245	2
228.045	3
228.845	2
229.645	4
230.444	2
231.244	1
232.043	3
232.843	2
233.642	5
234.442	3
235.241	3
236.04	2
236.839	6
237.638	5
238.437	5
239.236	5
240.035	3
240.833	1
241.632	5
242.43	5
243.229	6
244.027	4
244.826	6
245.624	5
246.422	4
247.22	8
248.018	4
248.816	9
249.614	5
250.412	5
251.21	5
252.007	4
252.805	6
253.602	6
254.4	9
255.197	6
255.994	5
256.791	9
257.589	8
258.386	9
259.183	8
259.979	8
260.776	9
261.573	9
262.37	8
263.166	12
263.963	12
264.759	12
265.556	14
266.352	12
267.148	11
267.944	13
268.74	14
269.536	13
270.332	11
271.128	15
271.924	12
272.719	13
273.515	17
274.311	12
275.106	13
275.901	14
276.697	15
277.492	16
278.287	14
279.082	17
279.877	17
280.672	17
281.467	17
282.262	19
283.056	18
283.851	18
284.646	16
285.44	17
286.234	17
287.029	18
287.823	17
288.617	18
289.411	17
290.205	15
290.999	15
291.793	20
292.587	20
293.381	16
294.174	17
294.968	16
295.761	17
296.555	17
297.348	13
298.141	15
298.935	16
299.728	14
300.521	13
301.314	14
302.107	10
302.899	12
303.692	14
304.485	13
305.277	11
306.07	13
306.862	11
307.655	10
308.447	10
309.239	12
310.031	13
310.823	11
311.615	9
312.407	10
313.199	10
313.991	8
314.783	10
315.574	7
316.366	8
317.157	8
317.949	9
318.74	10
319.531	10
320.322	7
321.113	8
321.904	8
322.695	8
323.486	6
324.277	9
325.068	5
325.858	9
326.649	5
327.439	7
328.23	8
329.02	6
329.81	7
330.6	5
331.391	7
332.181	9
332.971	8
333.76	5
334.55	5
335.34	8
336.13	7
336.919	6
337.709	6
338.498	6
339.287	5
340.077	6
340.866	6
341.655	6
342.444	7
343.233	6
344.022	4
344.811	6
345.6	5
346.388	8
347.177	7
347.965	6
348.754	7
349.542	5
350.33	6
351.119	9
351.907	4
352.695	5
353.483	6
354.271	5
355.059	7
355.846	5
356.634	6
357.422	3
358.209	5
358.997	5
359.784	5
360.571	7
361.359	6
362.146	7
362.933	7
363.72	6
364.507	6
365.294	4
366.081	4
366.867	7
367.654	7
368.44	4
369.227	5
370.013	2
370.8	6
371.586	2
372.372	7
373.158	5
373.944	4
374.73	5
375.516	8
376.302	4
377.088	3
377.873	2
378.659	5
379.445	6
380.23	6
381.015	4
381.801	6
382.586	8
383.371	6
384.156	6
384.941	4
385.726	5
386.511	5
387.296	4
388.08	4
388.865	5
389.649	6
390.434	5
391.218	5
392.003	9
392.787	8
393.571	7
394.355	6
395.139	9
395.923	7
396.707	5
397.491	6
398.274	6
399.058	5
399.842	4
400.625	6
401.408	8
402.192	6
402.975	5
403.758	5
404.541	7
405.324	7
406.107	6
406.89	4
407.673	7
408.456	6
409.238	8
410.021	6
410.803	7
411.586	9
412.368	8
413.151	8
413.933	9
414.715	11
415.497	8
416.279	9
417.061	9
417.843	10
418.624	11
419.406	8
420.188	11
420.969	11
421.751	8
422.532	10
423.313	8
424.095	10
424.876	10
425.657	11
426.438	10
427.219	13
428	10
428.78	12
429.561	14
430.342	10
431.122	12
431.903	14
432.683	15
433.464	16
434.244	15
435.024	17
435.804	17
436.584	16
437.364	19
438.144	20
438.924	21
439.704	22
440.483	19
441.263	25
442.042	25
442.822	27
443.601	30
444.38	30
445.16	36
445.939	34
446.718	39
447.497	42
448.276	42
449.054	47
449.833	57
450.612	56
451.391	59
452.169	69
452.948	76
453.726	81
454.504	92
455.282	102
456.061	110
456.839	122
457.617	131
458.395	144
459.172	158
459.95	184
460.728	198
461.506	227
462.283	256
463.061	278
463.838	315
464.615	350
465.393	385
466.17	433
466.947	487
467.724	532
468.501	590
469.278	651
470.055	717
470.831	801
471.608	890
472.385	977
473.161	1088
473.938	1180
474.714	1335
475.49	1455
476.266	1595
477.043	1756
477.819	1928
478.595	2121
479.371	2326
480.146	2558
480.922	2779
481.698	3061
482.473	3319
483.249	3656
484.024	4011
484.8	4357
485.575	4785
486.35	5209
487.126	5679
487.901	6220
488.676	6751
489.451	7383
490.225	8027
491	8701
491.775	9491
492.55	10262
493.324	11106
494.099	11961
494.873	12850
495.647	13793
496.422	14783
497.196	15861
497.97	16925
498.744	17949
499.518	19014
500.292	20068
501.066	21081
501.839	22011
502.613	22950
503.387	23680
504.16	24442
504.934	24885
505.707	25147
506.48	25442
507.253	25535
508.027	25468
508.8	25342
509.573	25229
510.346	24736
511.118	24187
511.891	23614
512.664	23010
513.437	22158
514.209	21437
514.982	20651
515.754	19872
516.526	18985
517.298	18206
518.071	17449
518.843	16779
519.615	16181
520.387	15548
521.159	14852
521.93	14302
522.702	13729
523.474	13161
524.245	12651
525.017	12086
525.788	11609
526.56	11154
527.331	10612
528.102	10145
528.873	9701
529.644	9303
530.415	8868
531.186	8390
531.957	8018
532.728	7625
533.498	7257
534.269	6842
535.039	6492
535.81	6132
536.58	5785
537.351	5460
538.121	5185
538.891	4892
539.661	4652
540.431	4377
541.201	4145
541.971	3930
542.741	3711
543.51	3532
544.28	3342
545.05	3198
545.819	3036
546.588	2879
547.358	2733
548.127	2597
548.896	2478
549.665	2363
550.434	2237
551.203	2123
551.972	2003
552.741	1889
553.51	1803
554.278	1706
555.047	1601
555.815	1531
556.584	1442
557.352	1345
558.121	1281
558.889	1202
559.657	1147
560.425	1075
561.193	1021
561.961	958
562.729	915
563.496	855
564.264	802
565.032	768
565.799	725
566.567	690
567.334	653
568.101	610
568.869	573
569.636	546
570.403	515
571.17	479
571.937	448
572.704	426
573.471	404
574.237	378
575.004	366
575.771	351
576.537	316
577.303	300
578.07	288
578.836	266
579.602	246
580.368	238
581.134	226
581.9	214
582.666	200
583.432	193
584.198	188
584.964	174
585.729	161
586.495	156
587.26	146
588.025	144
588.791	133
589.556	128
590.321	118
591.086	114
591.851	107
592.616	104
593.381	96
594.146	94
594.911	89
595.675	83
596.44	77
597.204	80
597.969	71
598.733	68
599.497	66
600.261	64
601.025	64
601.79	59
602.553	53
603.317	50
604.081	49
604.845	47
605.609	50
606.372	42
607.136	42
607.899	41
608.662	41
609.426	37
610.189	33
610.952	34
611.715	33
612.478	30
613.241	33
614.004	28
614.767	28
615.529	28
616.292	25
617.055	22
617.817	23
618.579	24
619.342	21
620.104	21
620.866	21
621.628	19
622.39	20
623.152	17
623.914	21
624.676	17
625.438	17
626.199	16
626.961	15
627.722	16
628.484	16
629.245	13
630.006	14
630.768	15
631.529	14
632.29	13
633.051	13
633.812	10
634.573	11
635.333	10
636.094	12
636.855	10
637.615	10
638.376	10
639.136	10
639.896	9
640.657	12
641.417	11
642.177	10
642.937	8
643.697	10
644.457	9
645.216	10
645.976	8
646.736	9
647.495	9
648.255	8
649.014	5
649.774	8
650.533	5
651.292	6
652.051	5
652.81	7
653.569	7
654.328	5
655.087	8
655.846	6
656.604	5
657.363	5
658.121	7
658.88	6
659.638	7
660.397	6
661.155	5
661.913	6
662.671	4
663.429	6
664.187	5
664.945	5
665.703	6
666.46	7
667.218	5
667.976	6
668.733	5
669.49	4
670.248	7
671.005	7
671.762	2
672.519	6
673.276	2
674.033	4
674.79	4
675.547	2
676.304	5
677.06	3
677.817	3
678.574	4
679.33	5
680.086	6
680.843	6
681.599	3
682.355	5
683.111	5
683.867	4
684.623	2
685.379	5
686.135	6
686.89	6
687.646	3
688.402	6
689.157	1
689.912	3
690.668	2
691.423	4
692.178	6
692.933	5
693.688	3
694.443	3
695.198	5
695.953	4
696.708	4
697.462	3
698.217	5
698.972	1
699.726	6
700.48	6
701.235	4
701.989	3
702.743	4
703.497	2
704.251	3
705.005	4
705.759	2
706.513	3
707.266	2
708.02	5
708.774	3
709.527	3
710.28	4
711.034	1
711.787	4
712.54	2
713.293	1
714.046	2
714.799	5
715.552	2
716.305	5
717.058	5
717.81	3
718.563	5
719.315	3
720.068	4
720.82	4
721.573	5
722.325	4
723.077	4
723.829	3
724.581	0
725.333	3
726.085	3
726.836	2
727.588	6
728.34	5
729.091	3
729.843	4
730.594	3
731.346	4
732.097	3
732.848	3
733.599	4
734.35	5
735.101	3
735.852	5
736.603	6
737.354	3
738.104	5
738.855	4
739.605	2
740.356	6
741.106	5
741.856	5
742.607	3
743.357	5
744.107	5
744.857	4
745.607	6
746.357	4
747.106	3
747.856	4
748.606	4
749.355	4
750.105	5
750.854	6
751.603	4
752.353	5
753.102	3
753.851	6
754.6	7
755.349	3
756.098	2
756.847	5
757.595	5
758.344	3
759.093	4
759.841	5
760.589	3
761.338	5
762.086	5
762.834	7
763.582	5
764.331	6
765.079	5
765.826	6
766.574	6
767.322	9
768.07	8
768.817	3
769.565	5
770.312	8
771.06	7
771.807	7
772.554	6
773.302	9
774.049	5
774.796	5
775.543	6
776.29	6
777.036	5
777.783	7
778.53	7
779.276	9
780.023	5
780.769	8
781.516	7
782.262	8
783.008	8
783.754	8
784.5	7
785.246	7
785.992	7
786.738	8
787.484	7
788.23	7
788.975	6
789.721	9
790.466	6
791.212	6
791.957	9
792.702	6
793.447	9
794.193	6
794.938	10
795.683	8
796.427	7
797.172	8
797.917	5
798.662	7
799.406	6
800.151	8
800.895	7
801.64	8
802.384	7
803.128	7
803.872	9
804.616	7
805.36	6
806.104	6
806.848	6
807.592	3
808.336	4
809.079	6
809.823	5
810.566	7
811.31	7
812.053	3
812.796	6
813.539	5
814.283	7
815.026	6
815.769	6
816.511	4
817.254	6
817.997	4
818.74	1
819.482	4
820.225	5
820.967	6
821.71	3
822.452	2
823.194	3
823.936	5
824.678	7
825.42	4
826.162	4
826.904	6
827.646	5
828.388	6
829.129	6
829.871	4
830.612	4
831.354	2
832.095	3
832.836	1
833.577	4
834.319	2
835.06	2
835.801	4
836.542	2
837.282	4
838.023	3
838.764	5
839.504	4
840.245	3
840.985	2
841.726	5
842.466	0
843.206	2
843.946	3
844.687	1
845.427	3
846.166	3
846.906	4
847.646	2
848.386	3
849.125	4
849.865	4
850.605	2
851.344	6
852.083	4
852.823	4
853.562	2
854.301	3
855.04	4
855.779	2
856.518	4
857.257	3
857.995	3
858.734	1
859.473	2
860.211	3
860.95	-1
861.688	2
862.426	4
863.165	2
863.903	3
864.641	2
865.379	1
866.117	1
866.855	1
867.593	1
868.33	4
869.068	2
869.806	1
870.543	1
871.28	2
872.018	3
872.755	4
873.492	2
874.229	2
874.967	1
875.703	3
876.44	1
877.177	0
877.914	1
878.651	2
879.387	0
880.124	0
880.86	0
881.597	0
882.333	2
883.069	0
883.806	-1
884.542	1
885.278	1
886.014	1
886.749	0
887.485	3
888.221	2
888.957	0
889.692	-1
890.428	1
891.163	1
891.899	2
892.634	1
893.369	1
894.104	-1
894.839	1
895.574	1
896.309	2
897.044	1
897.779	-1
898.514	2
899.248	1
899.983	2
900.717	0
901.452	0
902.186	0
902.92	0
903.654	2
904.389	2
905.123	0
905.857	0
906.59	2
907.324	1
908.058	2
908.792	3
909.525	-1
910.259	2
910.992	0
911.726	2
912.459	1
913.192	-1
913.925	1
914.658	0
915.391	1
916.124	0
916.857	0
917.59	0
918.323	0
919.055	1
919.788	0
920.521	0
921.253	-1
921.985	0
922.718	-1
923.45	1
924.182	-1
924.914	0
925.646	1
926.378	0
927.11	0
927.841	1
928.573	4
929.305	1
930.036	0
930.768	2
931.499	0
932.23	-1
932.962	-2
933.693	-2
934.424	1
935.155	1
935.886	-2
936.617	0
937.348	-2
938.078	1
938.809	0
939.54	1
940.27	0
941.001	0
941.731	2
942.461	2
943.191	1
943.922	1
944.652	0
945.382	1
946.112	1
946.841	0
947.571	-1
948.301	0
949.031	1
949.76	0
950.49	-1
951.219	-2
951.948	1
952.678	-1
953.407	0
954.136	2
954.865	1
955.594	-2
956.323	0
957.052	0
957.78	-2
958.509	1
959.238	0
959.966	1
960.695	2
961.423	-2
962.151	-1
962.88	0
963.608	2
964.336	0
965.064	0
965.792	2
966.52	0
967.247	1
967.975	1
968.703	1
969.43	2
970.158	-1
970.885	1
971.613	-1
972.34	1
973.067	-2
973.794	0
974.521	1
975.248	-1
975.975	3
976.702	-1
977.429	-1
978.156	-1
978.882	-1
979.609	1
980.335	2
981.062	-1
981.788	1
982.514	2
983.24	0
983.967	1
984.693	0
985.419	0
986.144	1
986.87	1
987.596	0
988.322	0
989.047	1
989.773	1
990.498	1
991.224	1
991.949	-2
992.674	2
993.399	1
994.124	-2
994.849	3
995.574	1
996.299	0
997.024	1
997.749	1
998.473	1
999.198	-1
999.922	1
1000.647	0
1001.371	3
1002.095	-2
1002.82	-3
1003.544	1
1004.268	-1
1004.992	-1
1005.716	2
1006.439	1
1007.163	1
1007.887	0
1008.611	2
1009.334	0
1010.058	1
1010.781	1
1011.504	1
1012.228	2
1012.951	0
1013.674	2
1014.397	-1
1015.12	0
