节点500_285_QEPB04081__209__14-59-02-069.txt的数据

Date: Wed Nov 12 14:59:02 CST 2025
User: PC
Spectrometer: QEPB0408
触发模式: 0
积分时间 (秒): 1.000000E-2
Scans to average: 1
启用暗噪声校正: true
启用非线性校正: false
滑动平均宽度: 0
X轴模式: Wavelengths
Number of Pixels in Spectrum: 1044
>>>>>Begin Spectral Data<<<<<
220.843	1.5
221.644	0.5
222.444	1.5
223.244	1.5
224.045	-0.5
224.845	3.5
225.645	1.5
226.445	3.5
227.245	3.5
228.045	2.5
228.845	1.5
229.645	1.5
230.444	2.5
231.244	5.5
232.043	2.5
232.843	5.5
233.642	4.5
234.442	3.5
235.241	3.5
236.04	2.5
236.839	6.5
237.638	4.5
238.437	5.5
239.236	3.5
240.035	5.5
240.833	4.5
241.632	3.5
242.43	4.5
243.229	4.5
244.027	6.5
244.826	4.5
245.624	7.5
246.422	6.5
247.22	5.5
248.018	6.5
248.816	7.5
249.614	6.5
250.412	6.5
251.21	4.5
252.007	7.5
252.805	8.5
253.602	9.5
254.4	6.5
255.197	8.5
255.994	8.5
256.791	8.5
257.589	6.5
258.386	7.5
259.183	9.5
259.979	8.5
260.776	9.5
261.573	11.5
262.37	10.5
263.166	11.5
263.963	12.5
264.759	13.5
265.556	13.5
266.352	11.5
267.148	14.5
267.944	13.5
268.74	14.5
269.536	13.5
270.332	15.5
271.128	15.5
271.924	14.5
272.719	13.5
273.515	18.5
274.311	17.5
275.106	19.5
275.901	16.5
276.697	19.5
277.492	18.5
278.287	21.5
279.082	19.5
279.877	15.5
280.672	21.5
281.467	17.5
282.262	19.5
283.056	18.5
283.851	20.5
284.646	20.5
285.44	17.5
286.234	21.5
287.029	19.5
287.823	18.5
288.617	19.5
289.411	16.5
290.205	17.5
290.999	18.5
291.793	19.5
292.587	17.5
293.381	17.5
294.174	16.5
294.968	16.5
295.761	15.5
296.555	17.5
297.348	14.5
298.141	18.5
298.935	17.5
299.728	17.5
300.521	14.5
301.314	14.5
302.107	12.5
302.899	12.5
303.692	13.5
304.485	12.5
305.277	12.5
306.07	11.5
306.862	13.5
307.655	13.5
308.447	16.5
309.239	11.5
310.031	12.5
310.823	12.5
311.615	8.5
312.407	9.5
313.199	10.5
313.991	9.5
314.783	9.5
315.574	8.5
316.366	9.5
317.157	9.5
317.949	7.5
318.74	6.5
319.531	8.5
320.322	9.5
321.113	8.5
321.904	9.5
322.695	6.5
323.486	8.5
324.277	7.5
325.068	5.5
325.858	8.5
326.649	7.5
327.439	7.5
328.23	5.5
329.02	6.5
329.81	6.5
330.6	6.5
331.391	9.5
332.181	6.5
332.971	6.5
333.76	6.5
334.55	3.5
335.34	6.5
336.13	6.5
336.919	5.5
337.709	6.5
338.498	6.5
339.287	6.5
340.077	5.5
340.866	8.5
341.655	6.5
342.444	6.5
343.233	6.5
344.022	6.5
344.811	6.5
345.6	4.5
346.388	7.5
347.177	6.5
347.965	5.5
348.754	7.5
349.542	5.5
350.33	6.5
351.119	6.5
351.907	7.5
352.695	6.5
353.483	4.5
354.271	4.5
355.059	5.5
355.846	6.5
356.634	3.5
357.422	3.5
358.209	6.5
358.997	3.5
359.784	6.5
360.571	3.5
361.359	6.5
362.146	7.5
362.933	3.5
363.72	7.5
364.507	4.5
365.294	4.5
366.081	5.5
366.867	5.5
367.654	3.5
368.44	3.5
369.227	6.5
370.013	4.5
370.8	5.5
371.586	2.5
372.372	5.5
373.158	5.5
373.944	4.5
374.73	5.5
375.516	3.5
376.302	2.5
377.088	5.5
377.873	5.5
378.659	5.5
379.445	4.5
380.23	5.5
381.015	4.5
381.801	6.5
382.586	5.5
383.371	4.5
384.156	4.5
384.941	4.5
385.726	6.5
386.511	6.5
387.296	5.5
388.08	6.5
388.865	5.5
389.649	7.5
390.434	7.5
391.218	5.5
392.003	8.5
392.787	7.5
393.571	8.5
394.355	5.5
395.139	8.5
395.923	7.5
396.707	4.5
397.491	8.5
398.274	5.5
399.058	6.5
399.842	6.5
400.625	6.5
401.408	8.5
402.192	3.5
402.975	7.5
403.758	8.5
404.541	8.5
405.324	6.5
406.107	7.5
406.89	6.5
407.673	6.5
408.456	8.5
409.238	8.5
410.021	7.5
410.803	7.5
411.586	8.5
412.368	9.5
413.151	8.5
413.933	11.5
414.715	8.5
415.497	9.5
416.279	7.5
417.061	11.5
417.843	10.5
418.624	9.5
419.406	10.5
420.188	12.5
420.969	10.5
421.751	7.5
422.532	10.5
423.313	10.5
424.095	11.5
424.876	13.5
425.657	10.5
426.438	11.5
427.219	13.5
428	8.5
428.78	10.5
429.561	16.5
430.342	14.5
431.122	16.5
431.903	14.5
432.683	17.5
433.464	17.5
434.244	16.5
435.024	17.5
435.804	16.5
436.584	20.5
437.364	19.5
438.144	16.5
438.924	19.5
439.704	20.5
440.483	22.5
441.263	21.5
442.042	26.5
442.822	26.5
443.601	24.5
444.38	30.5
445.16	32.5
445.939	31.5
446.718	33.5
447.497	37.5
448.276	41.5
449.054	41.5
449.833	45.5
450.612	52.5
451.391	53.5
452.169	60.5
452.948	61.5
453.726	74.5
454.504	79.5
455.282	87.5
456.061	93.5
456.839	108.5
457.617	117.5
458.395	130.5
459.172	143.5
459.95	159.5
460.728	179.5
461.506	200.5
462.283	225.5
463.061	252.5
463.838	279.5
464.615	308.5
465.393	347.5
466.17	390.5
466.947	435.5
467.724	486.5
468.501	543.5
469.278	601.5
470.055	675.5
470.831	739.5
471.608	841.5
472.385	930.5
473.161	1023.5
473.938	1138.5
474.714	1268.5
475.49	1410.5
476.266	1565.5
477.043	1711.5
477.819	1920.5
478.595	2113.5
479.371	2342.5
480.146	2589.5
480.922	2857.5
481.698	3148.5
482.473	3503.5
483.249	3828.5
484.024	4249.5
484.8	4672.5
485.575	5176.5
486.35	5696.5
487.126	6221.5
487.901	6856.5
488.676	7515.5
489.451	8270.5
490.225	9057.5
491	9900.5
491.775	10844.5
492.55	11875.5
493.324	12853.5
494.099	13820.5
494.873	14934.5
495.647	16123.5
496.422	17279.5
497.196	18569.5
497.97	19790.5
498.744	20995.5
499.518	22228.5
500.292	23404.5
501.066	24467.5
501.839	25424.5
502.613	26248.5
503.387	27003.5
504.16	27586.5
504.934	27924.5
505.707	27963.5
506.48	28008.5
507.253	27797.5
508.027	27499.5
508.8	27108.5
509.573	26593.5
510.346	25911.5
511.118	25076.5
511.891	24229.5
512.664	23326.5
513.437	22410.5
514.209	21427.5
514.982	20473.5
515.754	19623.5
516.526	18735.5
517.298	17903.5
518.071	17096.5
518.843	16469.5
519.615	15741.5
520.387	15206.5
521.159	14568.5
521.93	13993.5
522.702	13480.5
523.474	12878.5
524.245	12264.5
525.017	11782.5
525.788	11332.5
526.56	10812.5
527.331	10283.5
528.102	9821.5
528.873	9404.5
529.644	8902.5
530.415	8471.5
531.186	8055.5
531.957	7609.5
532.728	7242.5
533.498	6840.5
534.269	6455.5
535.039	6059.5
535.81	5741.5
536.58	5411.5
537.351	5088.5
538.121	4832.5
538.891	4563.5
539.661	4300.5
540.431	4091.5
541.201	3863.5
541.971	3654.5
542.741	3465.5
543.51	3279.5
544.28	3156.5
545.05	2967.5
545.819	2845.5
546.588	2690.5
547.358	2555.5
548.127	2428.5
548.896	2317.5
549.665	2179.5
550.434	2083.5
551.203	1943.5
551.972	1851.5
552.741	1741.5
553.51	1655.5
554.278	1553.5
555.047	1473.5
555.815	1375.5
556.584	1293.5
557.352	1227.5
558.121	1165.5
558.889	1108.5
559.657	1040.5
560.425	986.5
561.193	925.5
561.961	867.5
562.729	820.5
563.496	782.5
564.264	737.5
565.032	693.5
565.799	649.5
566.567	617.5
567.334	590.5
568.101	566.5
568.869	529.5
569.636	491.5
570.403	461.5
571.17	433.5
571.937	413.5
572.704	397.5
573.471	368.5
574.237	349.5
575.004	333.5
575.771	297.5
576.537	289.5
577.303	274.5
578.07	263.5
578.836	247.5
579.602	224.5
580.368	215.5
581.134	206.5
581.9	201.5
582.666	189.5
583.432	182.5
584.198	163.5
584.964	153.5
585.729	145.5
586.495	141.5
587.26	132.5
588.025	126.5
588.791	120.5
589.556	116.5
590.321	108.5
591.086	105.5
591.851	94.5
592.616	93.5
593.381	88.5
594.146	83.5
594.911	82.5
595.675	74.5
596.44	75.5
597.204	70.5
597.969	65.5
598.733	59.5
599.497	58.5
600.261	61.5
601.025	57.5
601.79	51.5
602.553	51.5
603.317	52.5
604.081	47.5
604.845	42.5
605.609	43.5
606.372	42.5
607.136	35.5
607.899	35.5
608.662	34.5
609.426	33.5
610.189	33.5
610.952	31.5
611.715	29.5
612.478	28.5
613.241	29.5
614.004	28.5
614.767	27.5
615.529	26.5
616.292	24.5
617.055	23.5
617.817	26.5
618.579	21.5
619.342	22.5
620.104	17.5
620.866	20.5
621.628	19.5
622.39	18.5
623.152	19.5
623.914	16.5
624.676	18.5
625.438	18.5
626.199	18.5
626.961	16.5
627.722	12.5
628.484	15.5
629.245	13.5
630.006	12.5
630.768	14.5
631.529	12.5
632.29	11.5
633.051	11.5
633.812	13.5
634.573	7.5
635.333	10.5
636.094	10.5
636.855	10.5
637.615	10.5
638.376	11.5
639.136	10.5
639.896	9.5
640.657	8.5
641.417	10.5
642.177	7.5
642.937	9.5
643.697	10.5
644.457	8.5
645.216	9.5
645.976	8.5
646.736	9.5
647.495	7.5
648.255	7.5
649.014	5.5
649.774	4.5
650.533	6.5
651.292	6.5
652.051	6.5
652.81	8.5
653.569	7.5
654.328	3.5
655.087	6.5
655.846	6.5
656.604	5.5
657.363	5.5
658.121	6.5
658.88	3.5
659.638	6.5
660.397	6.5
661.155	4.5
661.913	3.5
662.671	5.5
663.429	4.5
664.187	6.5
664.945	4.5
665.703	6.5
666.46	4.5
667.218	5.5
667.976	6.5
668.733	4.5
669.49	5.5
670.248	6.5
671.005	5.5
671.762	3.5
672.519	4.5
673.276	6.5
674.033	5.5
674.79	1.5
675.547	3.5
676.304	4.5
677.06	3.5
677.817	1.5
678.574	4.5
679.33	3.5
680.086	4.5
680.843	5.5
681.599	1.5
682.355	6.5
683.111	4.5
683.867	4.5
684.623	3.5
685.379	3.5
686.135	5.5
686.89	3.5
687.646	4.5
688.402	3.5
689.157	1.5
689.912	3.5
690.668	4.5
691.423	5.5
692.178	3.5
692.933	3.5
693.688	3.5
694.443	3.5
695.198	2.5
695.953	6.5
696.708	3.5
697.462	5.5
698.217	3.5
698.972	4.5
699.726	3.5
700.48	6.5
701.235	2.5
701.989	4.5
702.743	5.5
703.497	2.5
704.251	2.5
705.005	4.5
705.759	2.5
706.513	3.5
707.266	4.5
708.02	5.5
708.774	2.5
709.527	5.5
710.28	4.5
711.034	3.5
711.787	2.5
712.54	1.5
713.293	4.5
714.046	3.5
714.799	4.5
715.552	4.5
716.305	2.5
717.058	2.5
717.81	6.5
718.563	2.5
719.315	4.5
720.068	3.5
720.82	6.5
721.573	4.5
722.325	4.5
723.077	2.5
723.829	1.5
724.581	4.5
725.333	2.5
726.085	3.5
726.836	4.5
727.588	2.5
728.34	2.5
729.091	3.5
729.843	5.5
730.594	3.5
731.346	5.5
732.097	4.5
732.848	1.5
733.599	0.5
734.35	3.5
735.101	3.5
735.852	4.5
736.603	3.5
737.354	5.5
738.104	4.5
738.855	6.5
739.605	3.5
740.356	3.5
741.106	6.5
741.856	3.5
742.607	4.5
743.357	2.5
744.107	3.5
744.857	6.5
745.607	5.5
746.357	6.5
747.106	2.5
747.856	5.5
748.606	4.5
749.355	7.5
750.105	4.5
750.854	6.5
751.603	6.5
752.353	4.5
753.102	4.5
753.851	6.5
754.6	6.5
755.349	6.5
756.098	6.5
756.847	7.5
757.595	5.5
758.344	4.5
759.093	1.5
759.841	6.5
760.589	7.5
761.338	6.5
762.086	6.5
762.834	6.5
763.582	8.5
764.331	5.5
765.079	4.5
765.826	5.5
766.574	7.5
767.322	9.5
768.07	7.5
768.817	5.5
769.565	8.5
770.312	8.5
771.06	5.5
771.807	7.5
772.554	10.5
773.302	8.5
774.049	8.5
774.796	9.5
775.543	8.5
776.29	6.5
777.036	7.5
777.783	8.5
778.53	9.5
779.276	8.5
780.023	8.5
780.769	8.5
781.516	10.5
782.262	7.5
783.008	10.5
783.754	10.5
784.5	8.5
785.246	11.5
785.992	9.5
786.738	10.5
787.484	11.5
788.23	9.5
788.975	9.5
789.721	6.5
790.466	7.5
791.212	6.5
791.957	7.5
792.702	6.5
793.447	7.5
794.193	9.5
794.938	5.5
795.683	8.5
796.427	8.5
797.172	7.5
797.917	6.5
798.662	6.5
799.406	9.5
800.151	9.5
800.895	9.5
801.64	7.5
802.384	6.5
803.128	7.5
803.872	4.5
804.616	8.5
805.36	5.5
806.104	7.5
806.848	5.5
807.592	5.5
808.336	4.5
809.079	4.5
809.823	6.5
810.566	8.5
811.31	3.5
812.053	6.5
812.796	5.5
813.539	7.5
814.283	4.5
815.026	4.5
815.769	5.5
816.511	3.5
817.254	5.5
817.997	5.5
818.74	3.5
819.482	4.5
820.225	4.5
820.967	4.5
821.71	4.5
822.452	2.5
823.194	5.5
823.936	3.5
824.678	5.5
825.42	3.5
826.162	4.5
826.904	4.5
827.646	2.5
828.388	4.5
829.129	3.5
829.871	5.5
830.612	2.5
831.354	5.5
832.095	3.5
832.836	1.5
833.577	5.5
834.319	3.5
835.06	1.5
835.801	4.5
836.542	3.5
837.282	4.5
838.023	3.5
838.764	3.5
839.504	3.5
840.245	4.5
840.985	3.5
841.726	2.5
842.466	4.5
843.206	2.5
843.946	4.5
844.687	2.5
845.427	4.5
846.166	1.5
846.906	4.5
847.646	2.5
848.386	-1.5
849.125	2.5
849.865	1.5
850.605	0.5
851.344	5.5
852.083	0.5
852.823	3.5
853.562	1.5
854.301	1.5
855.04	1.5
855.779	4.5
856.518	-0.5
857.257	2.5
857.995	2.5
858.734	1.5
859.473	2.5
860.211	2.5
860.95	-0.5
861.688	2.5
862.426	1.5
863.165	2.5
863.903	1.5
864.641	1.5
865.379	1.5
866.117	0.5
866.855	0.5
867.593	2.5
868.33	3.5
869.068	3.5
869.806	0.5
870.543	4.5
871.28	3.5
872.018	1.5
872.755	3.5
873.492	1.5
874.229	0.5
874.967	2.5
875.703	2.5
876.44	1.5
877.177	3.5
877.914	1.5
878.651	-0.5
879.387	1.5
880.124	-1.5
880.86	2.5
881.597	0.5
882.333	1.5
883.069	-0.5
883.806	1.5
884.542	1.5
885.278	-0.5
886.014	3.5
886.749	3.5
887.485	1.5
888.221	-0.5
888.957	0.5
889.692	-2.5
890.428	2.5
891.163	-0.5
891.899	1.5
892.634	-0.5
893.369	1.5
894.104	1.5
894.839	0.5
895.574	-0.5
896.309	1.5
897.044	0.5
897.779	-0.5
898.514	0.5
899.248	3.5
899.983	2.5
900.717	-0.5
901.452	1.5
902.186	3.5
902.92	-0.5
903.654	1.5
904.389	-0.5
905.123	-0.5
905.857	3.5
906.59	0.5
907.324	-0.5
908.058	1.5
908.792	-0.5
909.525	0.5
910.259	-0.5
910.992	1.5
911.726	-2.5
912.459	1.5
913.192	3.5
913.925	0.5
914.658	1.5
915.391	-1.5
916.124	1.5
916.857	-0.5
917.59	1.5
918.323	-0.5
919.055	-1.5
919.788	-0.5
920.521	0.5
921.253	0.5
921.985	0.5
922.718	0.5
923.45	1.5
924.182	-0.5
924.914	-0.5
925.646	0.5
926.378	-0.5
927.11	-2.5
927.841	0.5
928.573	-1.5
929.305	-0.5
930.036	1.5
930.768	-1.5
931.499	-0.5
932.23	1.5
932.962	2.5
933.693	0.5
934.424	0.5
935.155	-0.5
935.886	1.5
936.617	-0.5
937.348	0.5
938.078	0.5
938.809	1.5
939.54	-0.5
940.27	-0.5
941.001	-1.5
941.731	-0.5
942.461	0.5
943.191	0.5
943.922	1.5
944.652	-0.5
945.382	-0.5
946.112	0.5
946.841	-0.5
947.571	1.5
948.301	-0.5
949.031	0.5
949.76	1.5
950.49	-0.5
951.219	1.5
951.948	0.5
952.678	1.5
953.407	-2.5
954.136	2.5
954.865	-1.5
955.594	-0.5
956.323	1.5
957.052	-0.5
957.78	-0.5
958.509	1.5
959.238	-1.5
959.966	0.5
960.695	-2.5
961.423	-0.5
962.151	-0.5
962.88	-1.5
963.608	0.5
964.336	-0.5
965.064	0.5
965.792	0.5
966.52	1.5
967.247	0.5
967.975	0.5
968.703	1.5
969.43	-0.5
970.158	0.5
970.885	-0.5
971.613	1.5
972.34	-2.5
973.067	0.5
973.794	-1.5
974.521	0.5
975.248	1.5
975.975	-0.5
976.702	0.5
977.429	0.5
978.156	-0.5
978.882	1.5
979.609	-0.5
980.335	0.5
981.062	0.5
981.788	2.5
982.514	0.5
983.24	1.5
983.967	2.5
984.693	0.5
985.419	1.5
986.144	0.5
986.87	-0.5
987.596	0.5
988.322	-0.5
989.047	2.5
989.773	0.5
990.498	-0.5
991.224	1.5
991.949	1.5
992.674	0.5
993.399	-2.5
994.124	0.5
994.849	-0.5
995.574	-0.5
996.299	0.5
997.024	-0.5
997.749	-1.5
998.473	0.5
999.198	1.5
999.922	0.5
1000.647	-0.5
1001.371	1.5
1002.095	0.5
1002.82	-1.5
1003.544	-0.5
1004.268	1.5
1004.992	1.5
1005.716	-0.5
1006.439	1.5
1007.163	1.5
1007.887	1.5
1008.611	0.5
1009.334	1.5
1010.058	-0.5
1010.781	0.5
1011.504	1.5
1012.228	1.5
1012.951	-0.5
1013.674	-1.5
1014.397	-0.5
1015.12	2.5
