节点500_285_QEPB04081__692__15-07-03-863.txt的数据

Date: Wed Nov 12 15:07:03 CST 2025
User: PC
Spectrometer: QEPB0408
触发模式: 0
积分时间 (秒): 1.000000E-2
Scans to average: 1
启用暗噪声校正: true
启用非线性校正: false
滑动平均宽度: 0
X轴模式: Wavelengths
Number of Pixels in Spectrum: 1044
>>>>>Begin Spectral Data<<<<<
220.843	2.12
221.644	2.12
222.444	3.12
223.244	1.12
224.045	3.12
224.845	3.12
225.645	1.12
226.445	1.12
227.245	1.12
228.045	2.12
228.845	2.12
229.645	2.12
230.444	3.12
231.244	2.12
232.043	3.12
232.843	3.12
233.642	5.12
234.442	3.12
235.241	4.12
236.04	2.12
236.839	3.12
237.638	3.12
238.437	4.12
239.236	4.12
240.035	5.12
240.833	3.12
241.632	5.12
242.43	3.12
243.229	4.12
244.027	3.12
244.826	7.12
245.624	6.12
246.422	3.12
247.22	5.12
248.018	3.12
248.816	5.12
249.614	5.12
250.412	4.12
251.21	6.12
252.007	5.12
252.805	6.12
253.602	6.12
254.4	7.12
255.197	7.12
255.994	7.12
256.791	7.12
257.589	6.12
258.386	10.12
259.183	9.12
259.979	7.12
260.776	10.12
261.573	8.12
262.37	8.12
263.166	9.12
263.963	11.12
264.759	13.12
265.556	9.12
266.352	11.12
267.148	9.12
267.944	13.12
268.74	13.12
269.536	12.12
270.332	12.12
271.128	13.12
271.924	15.12
272.719	12.12
273.515	16.12
274.311	14.12
275.106	14.12
275.901	13.12
276.697	17.12
277.492	16.12
278.287	13.12
279.082	19.12
279.877	15.12
280.672	19.12
281.467	18.12
282.262	17.12
283.056	18.12
283.851	15.12
284.646	17.12
285.44	17.12
286.234	18.12
287.029	17.12
287.823	19.12
288.617	17.12
289.411	19.12
290.205	18.12
290.999	17.12
291.793	20.12
292.587	18.12
293.381	16.12
294.174	16.12
294.968	13.12
295.761	15.12
296.555	17.12
297.348	15.12
298.141	14.12
298.935	14.12
299.728	13.12
300.521	13.12
301.314	13.12
302.107	14.12
302.899	12.12
303.692	14.12
304.485	10.12
305.277	10.12
306.07	14.12
306.862	12.12
307.655	11.12
308.447	10.12
309.239	11.12
310.031	10.12
310.823	13.12
311.615	8.12
312.407	11.12
313.199	9.12
313.991	10.12
314.783	8.12
315.574	11.12
316.366	10.12
317.157	9.12
317.949	8.12
318.74	8.12
319.531	10.12
320.322	8.12
321.113	9.12
321.904	8.12
322.695	9.12
323.486	6.12
324.277	7.12
325.068	5.12
325.858	8.12
326.649	7.12
327.439	5.12
328.23	7.12
329.02	5.12
329.81	6.12
330.6	8.12
331.391	5.12
332.181	8.12
332.971	7.12
333.76	6.12
334.55	5.12
335.34	6.12
336.13	6.12
336.919	7.12
337.709	7.12
338.498	6.12
339.287	5.12
340.077	5.12
340.866	7.12
341.655	7.12
342.444	5.12
343.233	7.12
344.022	2.12
344.811	8.12
345.6	6.12
346.388	7.12
347.177	5.12
347.965	9.12
348.754	4.12
349.542	5.12
350.33	7.12
351.119	5.12
351.907	5.12
352.695	5.12
353.483	4.12
354.271	5.12
355.059	5.12
355.846	6.12
356.634	5.12
357.422	5.12
358.209	5.12
358.997	6.12
359.784	6.12
360.571	2.12
361.359	7.12
362.146	5.12
362.933	4.12
363.72	3.12
364.507	4.12
365.294	6.12
366.081	7.12
366.867	5.12
367.654	7.12
368.44	6.12
369.227	5.12
370.013	2.12
370.8	5.12
371.586	4.12
372.372	5.12
373.158	5.12
373.944	3.12
374.73	4.12
375.516	3.12
376.302	7.12
377.088	5.12
377.873	6.12
378.659	3.12
379.445	3.12
380.23	5.12
381.015	2.12
381.801	5.12
382.586	3.12
383.371	5.12
384.156	4.12
384.941	4.12
385.726	4.12
386.511	6.12
387.296	7.12
388.08	5.12
388.865	6.12
389.649	3.12
390.434	4.12
391.218	5.12
392.003	5.12
392.787	5.12
393.571	5.12
394.355	6.12
395.139	5.12
395.923	6.12
396.707	6.12
397.491	7.12
398.274	5.12
399.058	7.12
399.842	7.12
400.625	5.12
401.408	7.12
402.192	6.12
402.975	8.12
403.758	9.12
404.541	9.12
405.324	7.12
406.107	7.12
406.89	6.12
407.673	7.12
408.456	7.12
409.238	7.12
410.021	8.12
410.803	9.12
411.586	8.12
412.368	10.12
413.151	9.12
413.933	8.12
414.715	9.12
415.497	10.12
416.279	10.12
417.061	8.12
417.843	9.12
418.624	9.12
419.406	9.12
420.188	10.12
420.969	10.12
421.751	12.12
422.532	10.12
423.313	11.12
424.095	10.12
424.876	14.12
425.657	11.12
426.438	12.12
427.219	8.12
428	13.12
428.78	13.12
429.561	14.12
430.342	14.12
431.122	12.12
431.903	16.12
432.683	15.12
433.464	15.12
434.244	16.12
435.024	17.12
435.804	15.12
436.584	18.12
437.364	18.12
438.144	22.12
438.924	23.12
439.704	21.12
440.483	21.12
441.263	23.12
442.042	24.12
442.822	26.12
443.601	27.12
444.38	28.12
445.16	30.12
445.939	33.12
446.718	39.12
447.497	40.12
448.276	44.12
449.054	46.12
449.833	54.12
450.612	55.12
451.391	61.12
452.169	68.12
452.948	72.12
453.726	81.12
454.504	87.12
455.282	99.12
456.061	111.12
456.839	119.12
457.617	136.12
458.395	145.12
459.172	162.12
459.95	185.12
460.728	204.12
461.506	225.12
462.283	256.12
463.061	280.12
463.838	319.12
464.615	353.12
465.393	393.12
466.17	435.12
466.947	483.12
467.724	527.12
468.501	590.12
469.278	654.12
470.055	733.12
470.831	815.12
471.608	885.12
472.385	979.12
473.161	1089.12
473.938	1216.12
474.714	1315.12
475.49	1444.12
476.266	1597.12
477.043	1770.12
477.819	1929.12
478.595	2138.12
479.371	2322.12
480.146	2567.12
480.922	2810.12
481.698	3055.12
482.473	3335.12
483.249	3670.12
484.024	4009.12
484.8	4386.12
485.575	4763.12
486.35	5229.12
487.126	5678.12
487.901	6219.12
488.676	6753.12
489.451	7371.12
490.225	8004.12
491	8712.12
491.775	9490.12
492.55	10256.12
493.324	11117.12
494.099	11985.12
494.873	12791.12
495.647	13863.12
496.422	14828.12
497.196	15840.12
497.97	16894.12
498.744	17969.12
499.518	18955.12
500.292	20056.12
501.066	21089.12
501.839	21983.12
502.613	22972.12
503.387	23704.12
504.16	24478.12
504.934	24874.12
505.707	25226.12
506.48	25479.12
507.253	25505.12
508.027	25503.12
508.8	25445.12
509.573	25181.12
510.346	24757.12
511.118	24262.12
511.891	23674.12
512.664	23000.12
513.437	22250.12
514.209	21457.12
514.982	20667.12
515.754	19806.12
516.526	19026.12
517.298	18274.12
518.071	17516.12
518.843	16859.12
519.615	16220.12
520.387	15618.12
521.159	14964.12
521.93	14351.12
522.702	13808.12
523.474	13231.12
524.245	12616.12
525.017	12097.12
525.788	11692.12
526.56	11166.12
527.331	10651.12
528.102	10195.12
528.873	9729.12
529.644	9297.12
530.415	8896.12
531.186	8414.12
531.957	8018.12
532.728	7656.12
533.498	7272.12
534.269	6841.12
535.039	6524.12
535.81	6189.12
536.58	5811.12
537.351	5472.12
538.121	5200.12
538.891	4908.12
539.661	4664.12
540.431	4388.12
541.201	4154.12
541.971	3916.12
542.741	3715.12
543.51	3529.12
544.28	3412.12
545.05	3182.12
545.819	3042.12
546.588	2893.12
547.358	2736.12
548.127	2620.12
548.896	2495.12
549.665	2362.12
550.434	2240.12
551.203	2108.12
551.972	2012.12
552.741	1888.12
553.51	1790.12
554.278	1719.12
555.047	1621.12
555.815	1522.12
556.584	1425.12
557.352	1363.12
558.121	1271.12
558.889	1222.12
559.657	1150.12
560.425	1081.12
561.193	1026.12
561.961	961.12
562.729	914.12
563.496	868.12
564.264	811.12
565.032	762.12
565.799	716.12
566.567	684.12
567.334	638.12
568.101	613.12
568.869	579.12
569.636	552.12
570.403	508.12
571.17	483.12
571.937	459.12
572.704	427.12
573.471	406.12
574.237	386.12
575.004	368.12
575.771	343.12
576.537	325.12
577.303	299.12
578.07	284.12
578.836	273.12
579.602	248.12
580.368	242.12
581.134	227.12
581.9	213.12
582.666	207.12
583.432	195.12
584.198	183.12
584.964	176.12
585.729	165.12
586.495	157.12
587.26	150.12
588.025	138.12
588.791	135.12
589.556	132.12
590.321	115.12
591.086	112.12
591.851	107.12
592.616	98.12
593.381	96.12
594.146	90.12
594.911	90.12
595.675	82.12
596.44	82.12
597.204	75.12
597.969	70.12
598.733	73.12
599.497	67.12
600.261	67.12
601.025	63.12
601.79	59.12
602.553	55.12
603.317	50.12
604.081	51.12
604.845	50.12
605.609	47.12
606.372	44.12
607.136	43.12
607.899	43.12
608.662	42.12
609.426	40.12
610.189	36.12
610.952	35.12
611.715	34.12
612.478	33.12
613.241	29.12
614.004	29.12
614.767	28.12
615.529	30.12
616.292	30.12
617.055	25.12
617.817	24.12
618.579	25.12
619.342	24.12
620.104	23.12
620.866	23.12
621.628	21.12
622.39	21.12
623.152	21.12
623.914	19.12
624.676	16.12
625.438	16.12
626.199	15.12
626.961	16.12
627.722	16.12
628.484	13.12
629.245	16.12
630.006	14.12
630.768	12.12
631.529	11.12
632.29	11.12
633.051	14.12
633.812	11.12
634.573	10.12
635.333	14.12
636.094	14.12
636.855	10.12
637.615	11.12
638.376	11.12
639.136	13.12
639.896	12.12
640.657	8.12
641.417	10.12
642.177	10.12
642.937	8.12
643.697	6.12
644.457	8.12
645.216	9.12
645.976	11.12
646.736	8.12
647.495	10.12
648.255	8.12
649.014	9.12
649.774	7.12
650.533	6.12
651.292	8.12
652.051	5.12
652.81	8.12
653.569	5.12
654.328	7.12
655.087	5.12
655.846	6.12
656.604	7.12
657.363	7.12
658.121	7.12
658.88	6.12
659.638	6.12
660.397	6.12
661.155	6.12
661.913	6.12
662.671	5.12
663.429	5.12
664.187	4.12
664.945	4.12
665.703	2.12
666.46	6.12
667.218	7.12
667.976	5.12
668.733	3.12
669.49	4.12
670.248	6.12
671.005	5.12
671.762	4.12
672.519	5.12
673.276	4.12
674.033	5.12
674.79	4.12
675.547	4.12
676.304	6.12
677.06	4.12
677.817	4.12
678.574	1.12
679.33	5.12
680.086	5.12
680.843	2.12
681.599	6.12
682.355	2.12
683.111	2.12
683.867	4.12
684.623	3.12
685.379	3.12
686.135	4.12
686.89	5.12
687.646	3.12
688.402	4.12
689.157	4.12
689.912	1.12
690.668	4.12
691.423	4.12
692.178	4.12
692.933	5.12
693.688	5.12
694.443	4.12
695.198	3.12
695.953	4.12
696.708	3.12
697.462	3.12
698.217	4.12
698.972	3.12
699.726	3.12
700.48	3.12
701.235	5.12
701.989	2.12
702.743	2.12
703.497	0.12
704.251	5.12
705.005	4.12
705.759	3.12
706.513	3.12
707.266	3.12
708.02	3.12
708.774	4.12
709.527	6.12
710.28	3.12
711.034	3.12
711.787	5.12
712.54	2.12
713.293	3.12
714.046	1.12
714.799	4.12
715.552	3.12
716.305	1.12
717.058	5.12
717.81	2.12
718.563	4.12
719.315	4.12
720.068	4.12
720.82	2.12
721.573	1.12
722.325	4.12
723.077	4.12
723.829	4.12
724.581	3.12
725.333	3.12
726.085	5.12
726.836	3.12
727.588	4.12
728.34	5.12
729.091	2.12
729.843	5.12
730.594	2.12
731.346	4.12
732.097	4.12
732.848	2.12
733.599	4.12
734.35	2.12
735.101	7.12
735.852	3.12
736.603	4.12
737.354	5.12
738.104	6.12
738.855	3.12
739.605	4.12
740.356	2.12
741.106	3.12
741.856	6.12
742.607	5.12
743.357	3.12
744.107	3.12
744.857	2.12
745.607	5.12
746.357	4.12
747.106	2.12
747.856	4.12
748.606	7.12
749.355	4.12
750.105	3.12
750.854	7.12
751.603	2.12
752.353	5.12
753.102	4.12
753.851	4.12
754.6	7.12
755.349	7.12
756.098	5.12
756.847	3.12
757.595	6.12
758.344	5.12
759.093	5.12
759.841	6.12
760.589	7.12
761.338	6.12
762.086	5.12
762.834	6.12
763.582	6.12
764.331	7.12
765.079	4.12
765.826	5.12
766.574	8.12
767.322	6.12
768.07	6.12
768.817	6.12
769.565	7.12
770.312	7.12
771.06	9.12
771.807	6.12
772.554	7.12
773.302	6.12
774.049	9.12
774.796	7.12
775.543	6.12
776.29	8.12
777.036	9.12
777.783	8.12
778.53	9.12
779.276	7.12
780.023	7.12
780.769	8.12
781.516	8.12
782.262	9.12
783.008	8.12
783.754	8.12
784.5	8.12
785.246	9.12
785.992	9.12
786.738	8.12
787.484	6.12
788.23	10.12
788.975	8.12
789.721	9.12
790.466	7.12
791.212	10.12
791.957	10.12
792.702	8.12
793.447	8.12
794.193	8.12
794.938	6.12
795.683	7.12
796.427	9.12
797.172	8.12
797.917	8.12
798.662	8.12
799.406	6.12
800.151	7.12
800.895	8.12
801.64	7.12
802.384	8.12
803.128	6.12
803.872	8.12
804.616	7.12
805.36	9.12
806.104	6.12
806.848	5.12
807.592	7.12
808.336	4.12
809.079	6.12
809.823	7.12
810.566	6.12
811.31	6.12
812.053	3.12
812.796	8.12
813.539	9.12
814.283	6.12
815.026	5.12
815.769	5.12
816.511	5.12
817.254	4.12
817.997	7.12
818.74	3.12
819.482	4.12
820.225	2.12
820.967	3.12
821.71	4.12
822.452	3.12
823.194	4.12
823.936	1.12
824.678	2.12
825.42	3.12
826.162	4.12
826.904	5.12
827.646	2.12
828.388	4.12
829.129	5.12
829.871	3.12
830.612	0.12
831.354	2.12
832.095	3.12
832.836	5.12
833.577	3.12
834.319	4.12
835.06	4.12
835.801	2.12
836.542	2.12
837.282	5.12
838.023	3.12
838.764	5.12
839.504	3.12
840.245	2.12
840.985	3.12
841.726	3.12
842.466	4.12
843.206	4.12
843.946	4.12
844.687	4.12
845.427	2.12
846.166	3.12
846.906	2.12
847.646	4.12
848.386	1.12
849.125	2.12
849.865	1.12
850.605	2.12
851.344	4.12
852.083	1.12
852.823	4.12
853.562	4.12
854.301	3.12
855.04	2.12
855.779	0.12
856.518	4.12
857.257	2.12
857.995	3.12
858.734	3.12
859.473	2.12
860.211	4.12
860.95	2.12
861.688	3.12
862.426	-0.88
863.165	2.12
863.903	2.12
864.641	2.12
865.379	2.12
866.117	2.12
866.855	3.12
867.593	2.12
868.33	1.12
869.068	0.12
869.806	2.12
870.543	1.12
871.28	2.12
872.018	4.12
872.755	1.12
873.492	1.12
874.229	5.12
874.967	0.12
875.703	3.12
876.44	2.12
877.177	2.12
877.914	-0.88
878.651	0.12
879.387	0.12
880.124	0.12
880.86	1.12
881.597	1.12
882.333	0.12
883.069	1.12
883.806	-0.88
884.542	1.12
885.278	0.12
886.014	1.12
886.749	1.12
887.485	1.12
888.221	1.12
888.957	2.12
889.692	1.12
890.428	1.12
891.163	4.12
891.899	1.12
892.634	2.12
893.369	1.12
894.104	0.12
894.839	0.12
895.574	0.12
896.309	2.12
897.044	0.12
897.779	2.12
898.514	2.12
899.248	-0.88
899.983	-0.88
900.717	2.12
901.452	0.12
902.186	2.12
902.92	-0.88
903.654	1.12
904.389	-0.88
905.123	1.12
905.857	1.12
906.59	3.12
907.324	1.12
908.058	1.12
908.792	1.12
909.525	2.12
910.259	0.12
910.992	0.12
911.726	-2.88
912.459	0.12
913.192	0.12
913.925	0.12
914.658	-1.88
915.391	1.12
916.124	-0.88
916.857	2.12
917.59	2.12
918.323	-1.88
919.055	1.12
919.788	0.12
920.521	0.12
921.253	2.12
921.985	1.12
922.718	2.12
923.45	-0.88
924.182	-0.88
924.914	2.12
925.646	1.12
926.378	1.12
927.11	1.12
927.841	-0.88
928.573	0.12
929.305	1.12
930.036	0.12
930.768	2.12
931.499	1.12
932.23	0.12
932.962	1.12
933.693	-0.88
934.424	0.12
935.155	0.12
935.886	0.12
936.617	1.12
937.348	0.12
938.078	0.12
938.809	-0.88
939.54	1.12
940.27	2.12
941.001	0.12
941.731	1.12
942.461	1.12
943.191	1.12
943.922	0.12
944.652	1.12
945.382	1.12
946.112	0.12
946.841	2.12
947.571	0.12
948.301	1.12
949.031	1.12
949.76	-0.88
950.49	-0.88
951.219	-1.88
951.948	0.12
952.678	1.12
953.407	4.12
954.136	1.12
954.865	1.12
955.594	1.12
956.323	0.12
957.052	0.12
957.78	-1.88
958.509	2.12
959.238	2.12
959.966	1.12
960.695	0.12
961.423	0.12
962.151	0.12
962.88	-1.88
963.608	1.12
964.336	0.12
965.064	-0.88
965.792	0.12
966.52	3.12
967.247	1.12
967.975	0.12
968.703	1.12
969.43	0.12
970.158	1.12
970.885	2.12
971.613	-0.88
972.34	0.12
973.067	-1.88
973.794	1.12
974.521	0.12
975.248	1.12
975.975	2.12
976.702	-0.88
977.429	-0.88
978.156	-1.88
978.882	1.12
979.609	2.12
980.335	2.12
981.062	2.12
981.788	0.12
982.514	1.12
983.24	-0.88
983.967	1.12
984.693	-0.88
985.419	1.12
986.144	0.12
986.87	1.12
987.596	1.12
988.322	1.12
989.047	1.12
989.773	0.12
990.498	-0.88
991.224	3.12
991.949	1.12
992.674	0.12
993.399	2.12
994.124	-0.88
994.849	2.12
995.574	0.12
996.299	0.12
997.024	0.12
997.749	-1.88
998.473	0.12
999.198	-1.88
999.922	2.12
1000.647	1.12
1001.371	3.12
1002.095	-2.88
1002.82	1.12
1003.544	-1.88
1004.268	0.12
1004.992	0.12
1005.716	-0.88
1006.439	3.12
1007.163	3.12
1007.887	2.12
1008.611	2.12
1009.334	1.12
1010.058	0.12
1010.781	-1.88
1011.504	0.12
1012.228	2.12
1012.951	-1.88
1013.674	0.12
1014.397	2.12
1015.12	0.12
