节点500_285_QEPB04081__326__15-00-58-718.txt的数据

Date: Wed Nov 12 15:00:58 CST 2025
User: PC
Spectrometer: QEPB0408
触发模式: 0
积分时间 (秒): 1.000000E-2
Scans to average: 1
启用暗噪声校正: true
启用非线性校正: false
滑动平均宽度: 0
X轴模式: Wavelengths
Number of Pixels in Spectrum: 1044
>>>>>Begin Spectral Data<<<<<
220.843	3.75
221.644	-0.25
222.444	-0.25
223.244	3.75
224.045	0.75
224.845	1.75
225.645	-0.25
226.445	1.75
227.245	0.75
228.045	0.75
228.845	2.75
229.645	1.75
230.444	3.75
231.244	1.75
232.043	1.75
232.843	2.75
233.642	3.75
234.442	2.75
235.241	3.75
236.04	2.75
236.839	3.75
237.638	2.75
238.437	2.75
239.236	4.75
240.035	4.75
240.833	3.75
241.632	3.75
242.43	4.75
243.229	3.75
244.027	5.75
244.826	2.75
245.624	3.75
246.422	3.75
247.22	2.75
248.018	4.75
248.816	6.75
249.614	6.75
250.412	6.75
251.21	5.75
252.007	5.75
252.805	6.75
253.602	7.75
254.4	4.75
255.197	6.75
255.994	6.75
256.791	8.75
257.589	8.75
258.386	8.75
259.183	9.75
259.979	8.75
260.776	7.75
261.573	8.75
262.37	7.75
263.166	12.75
263.963	10.75
264.759	9.75
265.556	10.75
266.352	12.75
267.148	13.75
267.944	11.75
268.74	14.75
269.536	14.75
270.332	14.75
271.128	13.75
271.924	16.75
272.719	15.75
273.515	14.75
274.311	14.75
275.106	16.75
275.901	15.75
276.697	18.75
277.492	17.75
278.287	18.75
279.082	18.75
279.877	15.75
280.672	16.75
281.467	16.75
282.262	17.75
283.056	16.75
283.851	18.75
284.646	16.75
285.44	18.75
286.234	18.75
287.029	17.75
287.823	15.75
288.617	18.75
289.411	18.75
290.205	16.75
290.999	16.75
291.793	14.75
292.587	14.75
293.381	16.75
294.174	17.75
294.968	16.75
295.761	15.75
296.555	12.75
297.348	15.75
298.141	12.75
298.935	16.75
299.728	11.75
300.521	13.75
301.314	12.75
302.107	11.75
302.899	10.75
303.692	12.75
304.485	12.75
305.277	14.75
306.07	13.75
306.862	14.75
307.655	12.75
308.447	11.75
309.239	11.75
310.031	13.75
310.823	10.75
311.615	11.75
312.407	11.75
313.199	11.75
313.991	9.75
314.783	9.75
315.574	8.75
316.366	9.75
317.157	7.75
317.949	7.75
318.74	6.75
319.531	6.75
320.322	6.75
321.113	5.75
321.904	8.75
322.695	5.75
323.486	5.75
324.277	5.75
325.068	5.75
325.858	5.75
326.649	4.75
327.439	7.75
328.23	4.75
329.02	6.75
329.81	5.75
330.6	5.75
331.391	5.75
332.181	4.75
332.971	3.75
333.76	3.75
334.55	7.75
335.34	5.75
336.13	6.75
336.919	4.75
337.709	5.75
338.498	4.75
339.287	6.75
340.077	8.75
340.866	6.75
341.655	5.75
342.444	4.75
343.233	4.75
344.022	6.75
344.811	5.75
345.6	5.75
346.388	3.75
347.177	5.75
347.965	6.75
348.754	4.75
349.542	5.75
350.33	5.75
351.119	6.75
351.907	7.75
352.695	2.75
353.483	5.75
354.271	5.75
355.059	5.75
355.846	4.75
356.634	5.75
357.422	4.75
358.209	3.75
358.997	5.75
359.784	5.75
360.571	5.75
361.359	5.75
362.146	3.75
362.933	6.75
363.72	5.75
364.507	5.75
365.294	5.75
366.081	5.75
366.867	2.75
367.654	5.75
368.44	4.75
369.227	3.75
370.013	3.75
370.8	5.75
371.586	2.75
372.372	4.75
373.158	3.75
373.944	3.75
374.73	2.75
375.516	5.75
376.302	4.75
377.088	5.75
377.873	5.75
378.659	4.75
379.445	4.75
380.23	5.75
381.015	0.75
381.801	3.75
382.586	4.75
383.371	3.75
384.156	3.75
384.941	4.75
385.726	6.75
386.511	4.75
387.296	7.75
388.08	4.75
388.865	6.75
389.649	6.75
390.434	3.75
391.218	5.75
392.003	3.75
392.787	5.75
393.571	4.75
394.355	6.75
395.139	4.75
395.923	5.75
396.707	4.75
397.491	4.75
398.274	4.75
399.058	6.75
399.842	5.75
400.625	7.75
401.408	5.75
402.192	5.75
402.975	6.75
403.758	4.75
404.541	6.75
405.324	6.75
406.107	6.75
406.89	4.75
407.673	7.75
408.456	5.75
409.238	7.75
410.021	8.75
410.803	6.75
411.586	5.75
412.368	6.75
413.151	10.75
413.933	8.75
414.715	7.75
415.497	7.75
416.279	7.75
417.061	9.75
417.843	10.75
418.624	8.75
419.406	9.75
420.188	7.75
420.969	8.75
421.751	11.75
422.532	10.75
423.313	10.75
424.095	10.75
424.876	10.75
425.657	8.75
426.438	14.75
427.219	10.75
428	14.75
428.78	10.75
429.561	11.75
430.342	14.75
431.122	11.75
431.903	12.75
432.683	12.75
433.464	16.75
434.244	12.75
435.024	16.75
435.804	14.75
436.584	15.75
437.364	17.75
438.144	19.75
438.924	17.75
439.704	19.75
440.483	22.75
441.263	22.75
442.042	26.75
442.822	25.75
443.601	27.75
444.38	26.75
445.16	30.75
445.939	31.75
446.718	38.75
447.497	36.75
448.276	40.75
449.054	45.75
449.833	47.75
450.612	51.75
451.391	53.75
452.169	62.75
452.948	65.75
453.726	73.75
454.504	82.75
455.282	88.75
456.061	98.75
456.839	110.75
457.617	120.75
458.395	137.75
459.172	149.75
459.95	160.75
460.728	182.75
461.506	209.75
462.283	230.75
463.061	259.75
463.838	284.75
464.615	312.75
465.393	353.75
466.17	396.75
466.947	448.75
467.724	498.75
468.501	554.75
469.278	618.75
470.055	687.75
470.831	753.75
471.608	842.75
472.385	951.75
473.161	1050.75
473.938	1160.75
474.714	1293.75
475.49	1431.75
476.266	1569.75
477.043	1761.75
477.819	1927.75
478.595	2140.75
479.371	2353.75
480.146	2598.75
480.922	2849.75
481.698	3160.75
482.473	3473.75
483.249	3824.75
484.024	4202.75
484.8	4639.75
485.575	5087.75
486.35	5584.75
487.126	6140.75
487.901	6719.75
488.676	7350.75
489.451	8138.75
490.225	8840.75
491	9629.75
491.775	10528.75
492.55	11471.75
493.324	12457.75
494.099	13461.75
494.873	14460.75
495.647	15628.75
496.422	16781.75
497.196	17972.75
497.97	19164.75
498.744	20384.75
499.518	21508.75
500.292	22700.75
501.066	23775.75
501.839	24703.75
502.613	25568.75
503.387	26358.75
504.16	27009.75
504.934	27349.75
505.707	27526.75
506.48	27569.75
507.253	27491.75
508.027	27243.75
508.8	26946.75
509.573	26425.75
510.346	25804.75
511.118	25057.75
511.891	24190.75
512.664	23350.75
513.437	22480.75
514.209	21593.75
514.982	20683.75
515.754	19779.75
516.526	18896.75
517.298	18072.75
518.071	17251.75
518.843	16627.75
519.615	15924.75
520.387	15389.75
521.159	14753.75
521.93	14103.75
522.702	13587.75
523.474	12988.75
524.245	12460.75
525.017	11943.75
525.788	11462.75
526.56	10937.75
527.331	10411.75
528.102	9944.75
528.873	9511.75
529.644	9025.75
530.415	8565.75
531.186	8134.75
531.957	7734.75
532.728	7327.75
533.498	6934.75
534.269	6592.75
535.039	6184.75
535.81	5862.75
536.58	5538.75
537.351	5210.75
538.121	4894.75
538.891	4637.75
539.661	4406.75
540.431	4151.75
541.201	3906.75
541.971	3733.75
542.741	3531.75
543.51	3350.75
544.28	3203.75
545.05	3031.75
545.819	2878.75
546.588	2741.75
547.358	2607.75
548.127	2474.75
548.896	2358.75
549.665	2225.75
550.434	2109.75
551.203	1998.75
551.972	1878.75
552.741	1790.75
553.51	1690.75
554.278	1591.75
555.047	1498.75
555.815	1411.75
556.584	1341.75
557.352	1274.75
558.121	1181.75
558.889	1133.75
559.657	1058.75
560.425	1011.75
561.193	951.75
561.961	886.75
562.729	847.75
563.496	800.75
564.264	746.75
565.032	710.75
565.799	675.75
566.567	634.75
567.334	610.75
568.101	578.75
568.869	530.75
569.636	498.75
570.403	476.75
571.17	447.75
571.937	426.75
572.704	397.75
573.471	373.75
574.237	357.75
575.004	336.75
575.771	310.75
576.537	304.75
577.303	287.75
578.07	266.75
578.836	246.75
579.602	235.75
580.368	216.75
581.134	211.75
581.9	204.75
582.666	187.75
583.432	174.75
584.198	161.75
584.964	161.75
585.729	152.75
586.495	140.75
587.26	137.75
588.025	125.75
588.791	122.75
589.556	114.75
590.321	108.75
591.086	106.75
591.851	97.75
592.616	93.75
593.381	90.75
594.146	86.75
594.911	83.75
595.675	79.75
596.44	72.75
597.204	68.75
597.969	65.75
598.733	64.75
599.497	57.75
600.261	55.75
601.025	55.75
601.79	53.75
602.553	49.75
603.317	46.75
604.081	44.75
604.845	44.75
605.609	42.75
606.372	39.75
607.136	40.75
607.899	40.75
608.662	37.75
609.426	35.75
610.189	33.75
610.952	31.75
611.715	30.75
612.478	31.75
613.241	28.75
614.004	23.75
614.767	28.75
615.529	24.75
616.292	24.75
617.055	21.75
617.817	20.75
618.579	22.75
619.342	21.75
620.104	20.75
620.866	16.75
621.628	20.75
622.39	17.75
623.152	17.75
623.914	17.75
624.676	16.75
625.438	13.75
626.199	15.75
626.961	15.75
627.722	12.75
628.484	10.75
629.245	11.75
630.006	13.75
630.768	14.75
631.529	10.75
632.29	12.75
633.051	12.75
633.812	12.75
634.573	12.75
635.333	10.75
636.094	11.75
636.855	5.75
637.615	12.75
638.376	8.75
639.136	8.75
639.896	10.75
640.657	10.75
641.417	8.75
642.177	8.75
642.937	8.75
643.697	7.75
644.457	4.75
645.216	6.75
645.976	6.75
646.736	6.75
647.495	5.75
648.255	6.75
649.014	7.75
649.774	6.75
650.533	6.75
651.292	5.75
652.051	7.75
652.81	4.75
653.569	5.75
654.328	5.75
655.087	3.75
655.846	6.75
656.604	5.75
657.363	4.75
658.121	5.75
658.88	3.75
659.638	4.75
660.397	5.75
661.155	2.75
661.913	4.75
662.671	5.75
663.429	4.75
664.187	3.75
664.945	5.75
665.703	4.75
666.46	1.75
667.218	4.75
667.976	2.75
668.733	3.75
669.49	2.75
670.248	2.75
671.005	3.75
671.762	1.75
672.519	4.75
673.276	1.75
674.033	4.75
674.79	2.75
675.547	3.75
676.304	3.75
677.06	2.75
677.817	5.75
678.574	2.75
679.33	1.75
680.086	3.75
680.843	3.75
681.599	2.75
682.355	2.75
683.111	2.75
683.867	4.75
684.623	4.75
685.379	0.75
686.135	1.75
686.89	2.75
687.646	3.75
688.402	2.75
689.157	1.75
689.912	4.75
690.668	2.75
691.423	2.75
692.178	4.75
692.933	2.75
693.688	3.75
694.443	2.75
695.198	4.75
695.953	3.75
696.708	0.75
697.462	3.75
698.217	3.75
698.972	3.75
699.726	0.75
700.48	4.75
701.235	4.75
701.989	0.75
702.743	4.75
703.497	2.75
704.251	1.75
705.005	0.75
705.759	2.75
706.513	4.75
707.266	5.75
708.02	-0.25
708.774	2.75
709.527	0.75
710.28	3.75
711.034	3.75
711.787	3.75
712.54	0.75
713.293	0.75
714.046	2.75
714.799	3.75
715.552	3.75
716.305	2.75
717.058	3.75
717.81	2.75
718.563	1.75
719.315	3.75
720.068	2.75
720.82	4.75
721.573	2.75
722.325	1.75
723.077	2.75
723.829	1.75
724.581	2.75
725.333	4.75
726.085	2.75
726.836	0.75
727.588	3.75
728.34	2.75
729.091	1.75
729.843	1.75
730.594	3.75
731.346	5.75
732.097	2.75
732.848	4.75
733.599	3.75
734.35	4.75
735.101	2.75
735.852	1.75
736.603	2.75
737.354	3.75
738.104	2.75
738.855	4.75
739.605	2.75
740.356	3.75
741.106	5.75
741.856	1.75
742.607	5.75
743.357	4.75
744.107	5.75
744.857	4.75
745.607	3.75
746.357	4.75
747.106	5.75
747.856	4.75
748.606	4.75
749.355	5.75
750.105	2.75
750.854	4.75
751.603	4.75
752.353	4.75
753.102	5.75
753.851	2.75
754.6	4.75
755.349	5.75
756.098	3.75
756.847	5.75
757.595	3.75
758.344	6.75
759.093	4.75
759.841	4.75
760.589	4.75
761.338	0.75
762.086	6.75
762.834	4.75
763.582	4.75
764.331	6.75
765.079	5.75
765.826	5.75
766.574	6.75
767.322	6.75
768.07	6.75
768.817	5.75
769.565	7.75
770.312	7.75
771.06	5.75
771.807	7.75
772.554	6.75
773.302	7.75
774.049	8.75
774.796	7.75
775.543	6.75
776.29	9.75
777.036	8.75
777.783	6.75
778.53	7.75
779.276	7.75
780.023	7.75
780.769	6.75
781.516	8.75
782.262	6.75
783.008	6.75
783.754	7.75
784.5	7.75
785.246	8.75
785.992	4.75
786.738	6.75
787.484	6.75
788.23	7.75
788.975	8.75
789.721	7.75
790.466	6.75
791.212	7.75
791.957	8.75
792.702	7.75
793.447	6.75
794.193	7.75
794.938	6.75
795.683	6.75
796.427	8.75
797.172	4.75
797.917	7.75
798.662	4.75
799.406	5.75
800.151	8.75
800.895	7.75
801.64	5.75
802.384	6.75
803.128	6.75
803.872	5.75
804.616	4.75
805.36	5.75
806.104	5.75
806.848	5.75
807.592	5.75
808.336	6.75
809.079	5.75
809.823	6.75
810.566	3.75
811.31	4.75
812.053	4.75
812.796	5.75
813.539	6.75
814.283	4.75
815.026	4.75
815.769	4.75
816.511	5.75
817.254	5.75
817.997	2.75
818.74	3.75
819.482	1.75
820.225	1.75
820.967	3.75
821.71	3.75
822.452	0.75
823.194	3.75
823.936	3.75
824.678	2.75
825.42	2.75
826.162	3.75
826.904	2.75
827.646	3.75
828.388	4.75
829.129	6.75
829.871	3.75
830.612	0.75
831.354	2.75
832.095	1.75
832.836	2.75
833.577	4.75
834.319	5.75
835.06	1.75
835.801	0.75
836.542	4.75
837.282	1.75
838.023	2.75
838.764	2.75
839.504	-0.25
840.245	1.75
840.985	0.75
841.726	3.75
842.466	2.75
843.206	2.75
843.946	0.75
844.687	2.75
845.427	2.75
846.166	0.75
846.906	2.75
847.646	3.75
848.386	2.75
849.125	1.75
849.865	2.75
850.605	3.75
851.344	2.75
852.083	0.75
852.823	1.75
853.562	1.75
854.301	1.75
855.04	1.75
855.779	0.75
856.518	2.75
857.257	1.75
857.995	-1.25
858.734	1.75
859.473	-0.25
860.211	-0.25
860.95	1.75
861.688	1.75
862.426	1.75
863.165	-0.25
863.903	-0.25
864.641	1.75
865.379	1.75
866.117	1.75
866.855	0.75
867.593	-2.25
868.33	3.75
869.068	0.75
869.806	1.75
870.543	-1.25
871.28	3.75
872.018	0.75
872.755	-0.25
873.492	2.75
874.229	0.75
874.967	-0.25
875.703	-1.25
876.44	-1.25
877.177	0.75
877.914	-1.25
878.651	1.75
879.387	-0.25
880.124	0.75
880.86	0.75
881.597	-1.25
882.333	1.75
883.069	-0.25
883.806	0.75
884.542	-0.25
885.278	0.75
886.014	-0.25
886.749	-0.25
887.485	-0.25
888.221	-0.25
888.957	-1.25
889.692	0.75
890.428	-2.25
891.163	-0.25
891.899	-0.25
892.634	-0.25
893.369	-0.25
894.104	-0.25
894.839	-0.25
895.574	-1.25
896.309	0.75
897.044	-1.25
897.779	1.75
898.514	-1.25
899.248	-1.25
899.983	-0.25
900.717	-1.25
901.452	-2.25
902.186	-0.25
902.92	-1.25
903.654	0.75
904.389	-1.25
905.123	-0.25
905.857	0.75
906.59	-0.25
907.324	0.75
908.058	-1.25
908.792	-0.25
909.525	-3.25
910.259	0.75
910.992	0.75
911.726	-1.25
912.459	-2.25
913.192	-2.25
913.925	1.75
914.658	-1.25
915.391	1.75
916.124	-1.25
916.857	-0.25
917.59	2.75
918.323	-1.25
919.055	-1.25
919.788	-3.25
920.521	2.75
921.253	-1.25
921.985	0.75
922.718	0.75
923.45	-0.25
924.182	0.75
924.914	-2.25
925.646	-1.25
926.378	-0.25
927.11	-1.25
927.841	-1.25
928.573	0.75
929.305	-0.25
930.036	-1.25
930.768	-2.25
931.499	0.75
932.23	-1.25
932.962	1.75
933.693	-1.25
934.424	-1.25
935.155	-2.25
935.886	-1.25
936.617	-1.25
937.348	0.75
938.078	-1.25
938.809	-1.25
939.54	-1.25
940.27	-2.25
941.001	-0.25
941.731	1.75
942.461	-0.25
943.191	0.75
943.922	-1.25
944.652	-0.25
945.382	-1.25
946.112	-2.25
946.841	-0.25
947.571	-2.25
948.301	-1.25
949.031	-0.25
949.76	-1.25
950.49	0.75
951.219	-2.25
951.948	-0.25
952.678	-1.25
953.407	0.75
954.136	0.75
954.865	-1.25
955.594	0.75
956.323	-2.25
957.052	-0.25
957.78	-1.25
958.509	0.75
959.238	-0.25
959.966	-1.25
960.695	-1.25
961.423	-1.25
962.151	-1.25
962.88	-0.25
963.608	-3.25
964.336	-0.25
965.064	-0.25
965.792	0.75
966.52	-1.25
967.247	0.75
967.975	0.75
968.703	-1.25
969.43	-0.25
970.158	-1.25
970.885	-1.25
971.613	-1.25
972.34	-1.25
973.067	-0.25
973.794	0.75
974.521	-0.25
975.248	-2.25
975.975	2.75
976.702	-0.25
977.429	-1.25
978.156	0.75
978.882	-3.25
979.609	-3.25
980.335	0.75
981.062	0.75
981.788	-0.25
982.514	-2.25
983.24	-2.25
983.967	-1.25
984.693	-0.25
985.419	-0.25
986.144	0.75
986.87	-0.25
987.596	0.75
988.322	-0.25
989.047	-1.25
989.773	-0.25
990.498	-1.25
991.224	0.75
991.949	-3.25
992.674	-1.25
993.399	-1.25
994.124	-2.25
994.849	2.75
995.574	0.75
996.299	-1.25
997.024	-0.25
997.749	0.75
998.473	-0.25
999.198	0.75
999.922	-1.25
1000.647	-2.25
1001.371	4.75
1002.095	-1.25
1002.82	-0.25
1003.544	-1.25
1004.268	0.75
1004.992	1.75
1005.716	-1.25
1006.439	0.75
1007.163	2.75
1007.887	0.75
1008.611	-1.25
1009.334	-0.25
1010.058	-0.25
1010.781	-1.25
1011.504	-0.25
1012.228	-0.25
1012.951	1.75
1013.674	-1.25
1014.397	-2.25
1015.12	-0.25
