节点500_285_QEPB04081__417__15-02-29-563.txt的数据

Date: Wed Nov 12 15:02:29 CST 2025
User: PC
Spectrometer: QEPB0408
触发模式: 0
积分时间 (秒): 1.000000E-2
Scans to average: 1
启用暗噪声校正: true
启用非线性校正: false
滑动平均宽度: 0
X轴模式: Wavelengths
Number of Pixels in Spectrum: 1044
>>>>>Begin Spectral Data<<<<<
220.843	2.62
221.644	1.62
222.444	3.62
223.244	0.62
224.045	1.62
224.845	1.62
225.645	1.62
226.445	2.62
227.245	2.62
228.045	0.62
228.845	4.62
229.645	2.62
230.444	4.62
231.244	4.62
232.043	1.62
232.843	1.62
233.642	4.62
234.442	4.62
235.241	4.62
236.04	3.62
236.839	3.62
237.638	2.62
238.437	5.62
239.236	2.62
240.035	4.62
240.833	3.62
241.632	6.62
242.43	1.62
243.229	4.62
244.027	5.62
244.826	6.62
245.624	6.62
246.422	6.62
247.22	2.62
248.018	5.62
248.816	5.62
249.614	6.62
250.412	5.62
251.21	6.62
252.007	3.62
252.805	7.62
253.602	6.62
254.4	5.62
255.197	5.62
255.994	10.62
256.791	7.62
257.589	8.62
258.386	9.62
259.183	8.62
259.979	11.62
260.776	11.62
261.573	11.62
262.37	8.62
263.166	8.62
263.963	11.62
264.759	10.62
265.556	10.62
266.352	12.62
267.148	13.62
267.944	11.62
268.74	12.62
269.536	14.62
270.332	14.62
271.128	13.62
271.924	13.62
272.719	15.62
273.515	15.62
274.311	13.62
275.106	15.62
275.901	12.62
276.697	15.62
277.492	19.62
278.287	17.62
279.082	17.62
279.877	18.62
280.672	17.62
281.467	18.62
282.262	16.62
283.056	18.62
283.851	19.62
284.646	16.62
285.44	19.62
286.234	17.62
287.029	18.62
287.823	17.62
288.617	16.62
289.411	19.62
290.205	17.62
290.999	18.62
291.793	15.62
292.587	18.62
293.381	17.62
294.174	17.62
294.968	18.62
295.761	15.62
296.555	15.62
297.348	15.62
298.141	16.62
298.935	16.62
299.728	13.62
300.521	12.62
301.314	13.62
302.107	14.62
302.899	13.62
303.692	9.62
304.485	12.62
305.277	11.62
306.07	12.62
306.862	12.62
307.655	9.62
308.447	11.62
309.239	10.62
310.031	11.62
310.823	12.62
311.615	11.62
312.407	6.62
313.199	9.62
313.991	11.62
314.783	11.62
315.574	8.62
316.366	9.62
317.157	6.62
317.949	11.62
318.74	6.62
319.531	7.62
320.322	8.62
321.113	8.62
321.904	9.62
322.695	7.62
323.486	5.62
324.277	4.62
325.068	6.62
325.858	10.62
326.649	9.62
327.439	9.62
328.23	4.62
329.02	7.62
329.81	3.62
330.6	7.62
331.391	6.62
332.181	5.62
332.971	7.62
333.76	6.62
334.55	7.62
335.34	5.62
336.13	6.62
336.919	5.62
337.709	5.62
338.498	6.62
339.287	5.62
340.077	6.62
340.866	4.62
341.655	7.62
342.444	6.62
343.233	4.62
344.022	5.62
344.811	6.62
345.6	6.62
346.388	8.62
347.177	4.62
347.965	4.62
348.754	5.62
349.542	6.62
350.33	6.62
351.119	5.62
351.907	6.62
352.695	5.62
353.483	3.62
354.271	6.62
355.059	6.62
355.846	6.62
356.634	2.62
357.422	4.62
358.209	3.62
358.997	6.62
359.784	3.62
360.571	6.62
361.359	3.62
362.146	2.62
362.933	5.62
363.72	3.62
364.507	6.62
365.294	2.62
366.081	3.62
366.867	4.62
367.654	4.62
368.44	7.62
369.227	2.62
370.013	7.62
370.8	4.62
371.586	6.62
372.372	3.62
373.158	5.62
373.944	6.62
374.73	4.62
375.516	4.62
376.302	4.62
377.088	4.62
377.873	7.62
378.659	7.62
379.445	5.62
380.23	5.62
381.015	3.62
381.801	6.62
382.586	4.62
383.371	6.62
384.156	3.62
384.941	5.62
385.726	5.62
386.511	5.62
387.296	3.62
388.08	3.62
388.865	5.62
389.649	5.62
390.434	8.62
391.218	6.62
392.003	5.62
392.787	8.62
393.571	4.62
394.355	5.62
395.139	4.62
395.923	4.62
396.707	4.62
397.491	5.62
398.274	5.62
399.058	6.62
399.842	5.62
400.625	4.62
401.408	8.62
402.192	8.62
402.975	7.62
403.758	6.62
404.541	7.62
405.324	8.62
406.107	9.62
406.89	8.62
407.673	7.62
408.456	8.62
409.238	9.62
410.021	7.62
410.803	7.62
411.586	8.62
412.368	8.62
413.151	9.62
413.933	7.62
414.715	7.62
415.497	7.62
416.279	8.62
417.061	9.62
417.843	8.62
418.624	9.62
419.406	7.62
420.188	11.62
420.969	10.62
421.751	11.62
422.532	11.62
423.313	8.62
424.095	11.62
424.876	11.62
425.657	9.62
426.438	11.62
427.219	12.62
428	11.62
428.78	10.62
429.561	13.62
430.342	13.62
431.122	13.62
431.903	16.62
432.683	12.62
433.464	14.62
434.244	17.62
435.024	14.62
435.804	16.62
436.584	19.62
437.364	17.62
438.144	19.62
438.924	20.62
439.704	22.62
440.483	24.62
441.263	22.62
442.042	24.62
442.822	27.62
443.601	27.62
444.38	30.62
445.16	31.62
445.939	35.62
446.718	34.62
447.497	38.62
448.276	45.62
449.054	43.62
449.833	52.62
450.612	52.62
451.391	57.62
452.169	65.62
452.948	69.62
453.726	75.62
454.504	82.62
455.282	90.62
456.061	101.62
456.839	111.62
457.617	124.62
458.395	140.62
459.172	153.62
459.95	173.62
460.728	194.62
461.506	216.62
462.283	238.62
463.061	264.62
463.838	296.62
464.615	325.62
465.393	368.62
466.17	414.62
466.947	456.62
467.724	502.62
468.501	571.62
469.278	628.62
470.055	693.62
470.831	781.62
471.608	859.62
472.385	955.62
473.161	1049.62
473.938	1168.62
474.714	1305.62
475.49	1434.62
476.266	1573.62
477.043	1764.62
477.819	1932.62
478.595	2132.62
479.371	2341.62
480.146	2592.62
480.922	2861.62
481.698	3127.62
482.473	3452.62
483.249	3807.62
484.024	4161.62
484.8	4606.62
485.575	4995.62
486.35	5511.62
487.126	6026.62
487.901	6603.62
488.676	7194.62
489.451	7909.62
490.225	8649.62
491	9430.62
491.775	10281.62
492.55	11201.62
493.324	12143.62
494.099	13102.62
494.873	14070.62
495.647	15125.62
496.422	16296.62
497.196	17363.62
497.97	18596.62
498.744	19748.62
499.518	20879.62
500.292	22058.62
501.066	23138.62
501.839	24046.62
502.613	24956.62
503.387	25772.62
504.16	26438.62
504.934	26760.62
505.707	26974.62
506.48	27088.62
507.253	27104.62
508.027	26835.62
508.8	26509.62
509.573	26155.62
510.346	25612.62
511.118	24936.62
511.891	24157.62
512.664	23313.62
513.437	22512.62
514.209	21613.62
514.982	20712.62
515.754	19793.62
516.526	18973.62
517.298	18151.62
518.071	17357.62
518.843	16661.62
519.615	16004.62
520.387	15401.62
521.159	14761.62
521.93	14179.62
522.702	13642.62
523.474	13104.62
524.245	12491.62
525.017	11972.62
525.788	11509.62
526.56	11008.62
527.331	10474.62
528.102	10085.62
528.873	9578.62
529.644	9107.62
530.415	8685.62
531.186	8231.62
531.957	7800.62
532.728	7452.62
533.498	7038.62
534.269	6659.62
535.039	6276.62
535.81	5954.62
536.58	5591.62
537.351	5285.62
538.121	4994.62
538.891	4731.62
539.661	4469.62
540.431	4240.62
541.201	3991.62
541.971	3772.62
542.741	3598.62
543.51	3407.62
544.28	3245.62
545.05	3060.62
545.819	2948.62
546.588	2785.62
547.358	2645.62
548.127	2511.62
548.896	2387.62
549.665	2261.62
550.434	2143.62
551.203	2025.62
551.972	1920.62
552.741	1814.62
553.51	1736.62
554.278	1629.62
555.047	1533.62
555.815	1455.62
556.584	1364.62
557.352	1296.62
558.121	1220.62
558.889	1150.62
559.657	1094.62
560.425	1035.62
561.193	978.62
561.961	918.62
562.729	855.62
563.496	818.62
564.264	771.62
565.032	730.62
565.799	683.62
566.567	647.62
567.334	608.62
568.101	592.62
568.869	551.62
569.636	515.62
570.403	485.62
571.17	462.62
571.937	431.62
572.704	400.62
573.471	386.62
574.237	364.62
575.004	345.62
575.771	327.62
576.537	303.62
577.303	288.62
578.07	272.62
578.836	246.62
579.602	239.62
580.368	224.62
581.134	213.62
581.9	204.62
582.666	191.62
583.432	184.62
584.198	177.62
584.964	164.62
585.729	155.62
586.495	143.62
587.26	142.62
588.025	127.62
588.791	126.62
589.556	120.62
590.321	111.62
591.086	111.62
591.851	103.62
592.616	94.62
593.381	92.62
594.146	89.62
594.911	85.62
595.675	86.62
596.44	73.62
597.204	75.62
597.969	70.62
598.733	66.62
599.497	62.62
600.261	61.62
601.025	58.62
601.79	54.62
602.553	55.62
603.317	50.62
604.081	46.62
604.845	43.62
605.609	44.62
606.372	43.62
607.136	41.62
607.899	37.62
608.662	34.62
609.426	36.62
610.189	35.62
610.952	31.62
611.715	32.62
612.478	31.62
613.241	25.62
614.004	25.62
614.767	25.62
615.529	28.62
616.292	25.62
617.055	20.62
617.817	21.62
618.579	20.62
619.342	23.62
620.104	21.62
620.866	20.62
621.628	21.62
622.39	20.62
623.152	21.62
623.914	17.62
624.676	17.62
625.438	19.62
626.199	13.62
626.961	20.62
627.722	15.62
628.484	15.62
629.245	14.62
630.006	13.62
630.768	12.62
631.529	13.62
632.29	12.62
633.051	10.62
633.812	12.62
634.573	10.62
635.333	10.62
636.094	11.62
636.855	10.62
637.615	8.62
638.376	10.62
639.136	9.62
639.896	10.62
640.657	11.62
641.417	9.62
642.177	7.62
642.937	11.62
643.697	9.62
644.457	9.62
645.216	11.62
645.976	8.62
646.736	8.62
647.495	6.62
648.255	7.62
649.014	5.62
649.774	7.62
650.533	6.62
651.292	6.62
652.051	7.62
652.81	5.62
653.569	6.62
654.328	4.62
655.087	6.62
655.846	6.62
656.604	5.62
657.363	7.62
658.121	5.62
658.88	9.62
659.638	6.62
660.397	5.62
661.155	7.62
661.913	5.62
662.671	6.62
663.429	4.62
664.187	7.62
664.945	2.62
665.703	2.62
666.46	5.62
667.218	1.62
667.976	5.62
668.733	5.62
669.49	5.62
670.248	5.62
671.005	2.62
671.762	3.62
672.519	4.62
673.276	3.62
674.033	4.62
674.79	4.62
675.547	4.62
676.304	2.62
677.06	3.62
677.817	5.62
678.574	5.62
679.33	4.62
680.086	3.62
680.843	4.62
681.599	4.62
682.355	3.62
683.111	3.62
683.867	2.62
684.623	4.62
685.379	1.62
686.135	4.62
686.89	1.62
687.646	5.62
688.402	3.62
689.157	3.62
689.912	1.62
690.668	4.62
691.423	4.62
692.178	3.62
692.933	3.62
693.688	4.62
694.443	3.62
695.198	2.62
695.953	4.62
696.708	6.62
697.462	6.62
698.217	2.62
698.972	3.62
699.726	2.62
700.48	5.62
701.235	4.62
701.989	1.62
702.743	1.62
703.497	1.62
704.251	4.62
705.005	2.62
705.759	3.62
706.513	2.62
707.266	4.62
708.02	4.62
708.774	1.62
709.527	4.62
710.28	3.62
711.034	3.62
711.787	6.62
712.54	4.62
713.293	4.62
714.046	3.62
714.799	4.62
715.552	-0.38
716.305	4.62
717.058	3.62
717.81	4.62
718.563	3.62
719.315	4.62
720.068	4.62
720.82	4.62
721.573	3.62
722.325	1.62
723.077	3.62
723.829	1.62
724.581	2.62
725.333	5.62
726.085	1.62
726.836	2.62
727.588	4.62
728.34	2.62
729.091	5.62
729.843	4.62
730.594	6.62
731.346	4.62
732.097	3.62
732.848	4.62
733.599	2.62
734.35	6.62
735.101	5.62
735.852	2.62
736.603	5.62
737.354	2.62
738.104	4.62
738.855	2.62
739.605	4.62
740.356	6.62
741.106	3.62
741.856	4.62
742.607	4.62
743.357	4.62
744.107	2.62
744.857	5.62
745.607	3.62
746.357	5.62
747.106	3.62
747.856	1.62
748.606	4.62
749.355	5.62
750.105	3.62
750.854	3.62
751.603	6.62
752.353	4.62
753.102	5.62
753.851	8.62
754.6	6.62
755.349	3.62
756.098	6.62
756.847	4.62
757.595	4.62
758.344	5.62
759.093	8.62
759.841	5.62
760.589	5.62
761.338	6.62
762.086	5.62
762.834	7.62
763.582	5.62
764.331	6.62
765.079	8.62
765.826	5.62
766.574	6.62
767.322	9.62
768.07	8.62
768.817	7.62
769.565	7.62
770.312	7.62
771.06	5.62
771.807	11.62
772.554	7.62
773.302	7.62
774.049	7.62
774.796	8.62
775.543	6.62
776.29	7.62
777.036	7.62
777.783	7.62
778.53	7.62
779.276	9.62
780.023	5.62
780.769	8.62
781.516	9.62
782.262	7.62
783.008	8.62
783.754	9.62
784.5	9.62
785.246	7.62
785.992	7.62
786.738	7.62
787.484	7.62
788.23	10.62
788.975	6.62
789.721	7.62
790.466	7.62
791.212	9.62
791.957	8.62
792.702	6.62
793.447	9.62
794.193	7.62
794.938	9.62
795.683	7.62
796.427	7.62
797.172	7.62
797.917	6.62
798.662	6.62
799.406	6.62
800.151	7.62
800.895	6.62
801.64	7.62
802.384	8.62
803.128	8.62
803.872	8.62
804.616	6.62
805.36	5.62
806.104	7.62
806.848	3.62
807.592	5.62
808.336	5.62
809.079	4.62
809.823	5.62
810.566	6.62
811.31	6.62
812.053	3.62
812.796	4.62
813.539	5.62
814.283	6.62
815.026	6.62
815.769	3.62
816.511	4.62
817.254	1.62
817.997	5.62
818.74	4.62
819.482	2.62
820.225	2.62
820.967	3.62
821.71	3.62
822.452	1.62
823.194	4.62
823.936	5.62
824.678	0.62
825.42	5.62
826.162	3.62
826.904	5.62
827.646	3.62
828.388	6.62
829.129	4.62
829.871	3.62
830.612	4.62
831.354	1.62
832.095	5.62
832.836	4.62
833.577	3.62
834.319	2.62
835.06	3.62
835.801	4.62
836.542	3.62
837.282	3.62
838.023	4.62
838.764	4.62
839.504	4.62
840.245	1.62
840.985	3.62
841.726	2.62
842.466	2.62
843.206	1.62
843.946	3.62
844.687	4.62
845.427	1.62
846.166	3.62
846.906	1.62
847.646	0.62
848.386	1.62
849.125	1.62
849.865	2.62
850.605	1.62
851.344	3.62
852.083	3.62
852.823	2.62
853.562	2.62
854.301	0.62
855.04	1.62
855.779	1.62
856.518	2.62
857.257	1.62
857.995	0.62
858.734	2.62
859.473	1.62
860.211	2.62
860.95	1.62
861.688	3.62
862.426	0.62
863.165	2.62
863.903	2.62
864.641	1.62
865.379	0.62
866.117	1.62
866.855	0.62
867.593	-0.38
868.33	3.62
869.068	2.62
869.806	-0.38
870.543	-0.38
871.28	0.62
872.018	0.62
872.755	0.62
873.492	-0.38
874.229	2.62
874.967	-1.38
875.703	1.62
876.44	1.62
877.177	-0.38
877.914	2.62
878.651	1.62
879.387	3.62
880.124	1.62
880.86	-0.38
881.597	-0.38
882.333	-0.38
883.069	0.62
883.806	0.62
884.542	1.62
885.278	1.62
886.014	-0.38
886.749	0.62
887.485	2.62
888.221	1.62
888.957	0.62
889.692	0.62
890.428	0.62
891.163	1.62
891.899	0.62
892.634	0.62
893.369	1.62
894.104	0.62
894.839	1.62
895.574	-0.38
896.309	-0.38
897.044	0.62
897.779	-0.38
898.514	1.62
899.248	1.62
899.983	-2.38
900.717	2.62
901.452	-0.38
902.186	0.62
902.92	0.62
903.654	1.62
904.389	1.62
905.123	-0.38
905.857	-0.38
906.59	-2.38
907.324	1.62
908.058	1.62
908.792	0.62
909.525	1.62
910.259	1.62
910.992	1.62
911.726	-1.38
912.459	0.62
913.192	2.62
913.925	0.62
914.658	0.62
915.391	-1.38
916.124	-0.38
916.857	-0.38
917.59	-0.38
918.323	-0.38
919.055	0.62
919.788	1.62
920.521	-1.38
921.253	2.62
921.985	0.62
922.718	-0.38
923.45	0.62
924.182	-2.38
924.914	-0.38
925.646	1.62
926.378	-0.38
927.11	-0.38
927.841	-1.38
928.573	0.62
929.305	0.62
930.036	2.62
930.768	-1.38
931.499	-0.38
932.23	-0.38
932.962	-0.38
933.693	0.62
934.424	-0.38
935.155	1.62
935.886	-0.38
936.617	-0.38
937.348	0.62
938.078	-0.38
938.809	1.62
939.54	0.62
940.27	0.62
941.001	0.62
941.731	0.62
942.461	1.62
943.191	-0.38
943.922	0.62
944.652	0.62
945.382	-0.38
946.112	0.62
946.841	1.62
947.571	1.62
948.301	1.62
949.031	0.62
949.76	0.62
950.49	-0.38
951.219	1.62
951.948	1.62
952.678	-0.38
953.407	0.62
954.136	-0.38
954.865	-1.38
955.594	2.62
956.323	-0.38
957.052	-2.38
957.78	0.62
958.509	0.62
959.238	-2.38
959.966	-0.38
960.695	-0.38
961.423	-1.38
962.151	-0.38
962.88	0.62
963.608	-1.38
964.336	0.62
965.064	0.62
965.792	-1.38
966.52	-0.38
967.247	0.62
967.975	-2.38
968.703	-0.38
969.43	-0.38
970.158	0.62
970.885	-0.38
971.613	1.62
972.34	-0.38
973.067	-1.38
973.794	-0.38
974.521	0.62
975.248	2.62
975.975	-0.38
976.702	1.62
977.429	0.62
978.156	0.62
978.882	1.62
979.609	0.62
980.335	-0.38
981.062	-1.38
981.788	0.62
982.514	0.62
983.24	-1.38
983.967	0.62
984.693	-0.38
985.419	-0.38
986.144	-0.38
986.87	-1.38
987.596	-0.38
988.322	-0.38
989.047	2.62
989.773	0.62
990.498	-0.38
991.224	-0.38
991.949	-0.38
992.674	-0.38
993.399	-0.38
994.124	0.62
994.849	-1.38
995.574	0.62
996.299	-0.38
997.024	-0.38
997.749	0.62
998.473	-2.38
999.198	-0.38
999.922	-0.38
1000.647	-1.38
1001.371	4.62
1002.095	0.62
1002.82	-2.38
1003.544	-0.38
1004.268	1.62
1004.992	1.62
1005.716	-0.38
1006.439	0.62
1007.163	1.62
1007.887	-0.38
1008.611	-0.38
1009.334	1.62
1010.058	1.62
1010.781	0.62
1011.504	0.62
1012.228	1.62
1012.951	0.62
1013.674	-1.38
1014.397	-1.38
1015.12	-0.38
