节点500_285_QEPB04081__269__15-00-01-844.txt的数据

Date: Wed Nov 12 15:00:01 CST 2025
User: PC
Spectrometer: QEPB0408
触发模式: 0
积分时间 (秒): 1.000000E-2
Scans to average: 1
启用暗噪声校正: true
启用非线性校正: false
滑动平均宽度: 0
X轴模式: Wavelengths
Number of Pixels in Spectrum: 1044
>>>>>Begin Spectral Data<<<<<
220.843	3.12
221.644	1.12
222.444	-0.88
223.244	1.12
224.045	2.12
224.845	2.12
225.645	2.12
226.445	2.12
227.245	1.12
228.045	3.12
228.845	2.12
229.645	2.12
230.444	1.12
231.244	5.12
232.043	4.12
232.843	1.12
233.642	2.12
234.442	4.12
235.241	3.12
236.04	1.12
236.839	5.12
237.638	6.12
238.437	5.12
239.236	4.12
240.035	6.12
240.833	3.12
241.632	2.12
242.43	2.12
243.229	5.12
244.027	4.12
244.826	5.12
245.624	5.12
246.422	4.12
247.22	6.12
248.018	3.12
248.816	5.12
249.614	5.12
250.412	8.12
251.21	5.12
252.007	5.12
252.805	6.12
253.602	7.12
254.4	5.12
255.197	6.12
255.994	7.12
256.791	9.12
257.589	7.12
258.386	8.12
259.183	9.12
259.979	8.12
260.776	9.12
261.573	9.12
262.37	9.12
263.166	9.12
263.963	11.12
264.759	11.12
265.556	11.12
266.352	17.12
267.148	14.12
267.944	14.12
268.74	12.12
269.536	13.12
270.332	12.12
271.128	14.12
271.924	14.12
272.719	16.12
273.515	16.12
274.311	19.12
275.106	18.12
275.901	16.12
276.697	16.12
277.492	21.12
278.287	15.12
279.082	19.12
279.877	16.12
280.672	18.12
281.467	20.12
282.262	18.12
283.056	19.12
283.851	21.12
284.646	17.12
285.44	18.12
286.234	14.12
287.029	19.12
287.823	19.12
288.617	18.12
289.411	18.12
290.205	15.12
290.999	16.12
291.793	17.12
292.587	22.12
293.381	20.12
294.174	17.12
294.968	18.12
295.761	13.12
296.555	14.12
297.348	15.12
298.141	14.12
298.935	14.12
299.728	14.12
300.521	11.12
301.314	14.12
302.107	11.12
302.899	11.12
303.692	14.12
304.485	14.12
305.277	10.12
306.07	13.12
306.862	12.12
307.655	13.12
308.447	11.12
309.239	12.12
310.031	13.12
310.823	8.12
311.615	11.12
312.407	9.12
313.199	11.12
313.991	9.12
314.783	8.12
315.574	8.12
316.366	9.12
317.157	9.12
317.949	7.12
318.74	7.12
319.531	7.12
320.322	7.12
321.113	8.12
321.904	8.12
322.695	5.12
323.486	8.12
324.277	7.12
325.068	8.12
325.858	7.12
326.649	4.12
327.439	4.12
328.23	6.12
329.02	7.12
329.81	5.12
330.6	5.12
331.391	6.12
332.181	8.12
332.971	7.12
333.76	4.12
334.55	5.12
335.34	5.12
336.13	7.12
336.919	8.12
337.709	3.12
338.498	4.12
339.287	4.12
340.077	5.12
340.866	6.12
341.655	5.12
342.444	6.12
343.233	6.12
344.022	8.12
344.811	6.12
345.6	5.12
346.388	7.12
347.177	3.12
347.965	6.12
348.754	6.12
349.542	4.12
350.33	5.12
351.119	8.12
351.907	6.12
352.695	6.12
353.483	5.12
354.271	4.12
355.059	7.12
355.846	5.12
356.634	7.12
357.422	5.12
358.209	4.12
358.997	3.12
359.784	2.12
360.571	7.12
361.359	5.12
362.146	5.12
362.933	6.12
363.72	4.12
364.507	7.12
365.294	3.12
366.081	4.12
366.867	5.12
367.654	4.12
368.44	5.12
369.227	5.12
370.013	3.12
370.8	6.12
371.586	6.12
372.372	5.12
373.158	6.12
373.944	6.12
374.73	6.12
375.516	7.12
376.302	5.12
377.088	6.12
377.873	4.12
378.659	5.12
379.445	3.12
380.23	5.12
381.015	2.12
381.801	5.12
382.586	6.12
383.371	4.12
384.156	5.12
384.941	6.12
385.726	6.12
386.511	6.12
387.296	3.12
388.08	4.12
388.865	4.12
389.649	4.12
390.434	4.12
391.218	6.12
392.003	7.12
392.787	5.12
393.571	4.12
394.355	7.12
395.139	4.12
395.923	6.12
396.707	6.12
397.491	5.12
398.274	7.12
399.058	6.12
399.842	5.12
400.625	9.12
401.408	6.12
402.192	6.12
402.975	6.12
403.758	7.12
404.541	6.12
405.324	7.12
406.107	7.12
406.89	7.12
407.673	7.12
408.456	6.12
409.238	8.12
410.021	9.12
410.803	8.12
411.586	8.12
412.368	8.12
413.151	10.12
413.933	7.12
414.715	9.12
415.497	9.12
416.279	7.12
417.061	10.12
417.843	7.12
418.624	11.12
419.406	8.12
420.188	9.12
420.969	11.12
421.751	8.12
422.532	11.12
423.313	8.12
424.095	11.12
424.876	10.12
425.657	10.12
426.438	12.12
427.219	12.12
428	11.12
428.78	12.12
429.561	14.12
430.342	12.12
431.122	13.12
431.903	15.12
432.683	14.12
433.464	18.12
434.244	15.12
435.024	16.12
435.804	19.12
436.584	16.12
437.364	16.12
438.144	18.12
438.924	17.12
439.704	20.12
440.483	21.12
441.263	22.12
442.042	21.12
442.822	26.12
443.601	25.12
444.38	30.12
445.16	29.12
445.939	33.12
446.718	37.12
447.497	38.12
448.276	43.12
449.054	43.12
449.833	47.12
450.612	54.12
451.391	50.12
452.169	61.12
452.948	64.12
453.726	76.12
454.504	81.12
455.282	88.12
456.061	98.12
456.839	110.12
457.617	125.12
458.395	127.12
459.172	148.12
459.95	165.12
460.728	180.12
461.506	203.12
462.283	225.12
463.061	253.12
463.838	289.12
464.615	318.12
465.393	352.12
466.17	396.12
466.947	437.12
467.724	491.12
468.501	559.12
469.278	608.12
470.055	676.12
470.831	749.12
471.608	845.12
472.385	937.12
473.161	1033.12
473.938	1157.12
474.714	1279.12
475.49	1423.12
476.266	1578.12
477.043	1728.12
477.819	1920.12
478.595	2108.12
479.371	2349.12
480.146	2596.12
480.922	2833.12
481.698	3142.12
482.473	3468.12
483.249	3846.12
484.024	4215.12
484.8	4649.12
485.575	5133.12
486.35	5632.12
487.126	6184.12
487.901	6789.12
488.676	7431.12
489.451	8184.12
490.225	8933.12
491	9752.12
491.775	10679.12
492.55	11698.12
493.324	12641.12
494.099	13642.12
494.873	14689.12
495.647	15860.12
496.422	17097.12
497.196	18241.12
497.97	19443.12
498.744	20661.12
499.518	21816.12
500.292	22974.12
501.066	24050.12
501.839	25030.12
502.613	25949.12
503.387	26641.12
504.16	27291.12
504.934	27671.12
505.707	27845.12
506.48	27784.12
507.253	27631.12
508.027	27376.12
508.8	27061.12
509.573	26550.12
510.346	25862.12
511.118	25091.12
511.891	24231.12
512.664	23338.12
513.437	22434.12
514.209	21502.12
514.982	20628.12
515.754	19696.12
516.526	18757.12
517.298	18006.12
518.071	17211.12
518.843	16543.12
519.615	15909.12
520.387	15286.12
521.159	14676.12
521.93	14034.12
522.702	13524.12
523.474	12946.12
524.245	12423.12
525.017	11866.12
525.788	11403.12
526.56	10886.12
527.331	10397.12
528.102	9872.12
528.873	9437.12
529.644	8979.12
530.415	8537.12
531.186	8102.12
531.957	7661.12
532.728	7288.12
533.498	6889.12
534.269	6479.12
535.039	6165.12
535.81	5797.12
536.58	5472.12
537.351	5167.12
538.121	4890.12
538.891	4604.12
539.661	4383.12
540.431	4118.12
541.201	3877.12
541.971	3679.12
542.741	3494.12
543.51	3313.12
544.28	3173.12
545.05	3036.12
545.819	2864.12
546.588	2746.12
547.358	2578.12
548.127	2466.12
548.896	2346.12
549.665	2218.12
550.434	2096.12
551.203	1971.12
551.972	1866.12
552.741	1764.12
553.51	1688.12
554.278	1585.12
555.047	1492.12
555.815	1413.12
556.584	1326.12
557.352	1258.12
558.121	1189.12
558.889	1113.12
559.657	1062.12
560.425	1000.12
561.193	936.12
561.961	890.12
562.729	832.12
563.496	792.12
564.264	753.12
565.032	711.12
565.799	676.12
566.567	631.12
567.334	596.12
568.101	565.12
568.869	528.12
569.636	505.12
570.403	470.12
571.17	443.12
571.937	427.12
572.704	403.12
573.471	369.12
574.237	353.12
575.004	331.12
575.771	321.12
576.537	299.12
577.303	272.12
578.07	262.12
578.836	245.12
579.602	225.12
580.368	227.12
581.134	205.12
581.9	198.12
582.666	190.12
583.432	170.12
584.198	169.12
584.964	158.12
585.729	155.12
586.495	138.12
587.26	133.12
588.025	125.12
588.791	126.12
589.556	116.12
590.321	103.12
591.086	102.12
591.851	96.12
592.616	93.12
593.381	85.12
594.146	83.12
594.911	80.12
595.675	79.12
596.44	75.12
597.204	66.12
597.969	68.12
598.733	63.12
599.497	57.12
600.261	60.12
601.025	57.12
601.79	54.12
602.553	48.12
603.317	47.12
604.081	45.12
604.845	45.12
605.609	42.12
606.372	40.12
607.136	38.12
607.899	38.12
608.662	35.12
609.426	39.12
610.189	31.12
610.952	33.12
611.715	32.12
612.478	30.12
613.241	29.12
614.004	29.12
614.767	27.12
615.529	25.12
616.292	25.12
617.055	23.12
617.817	24.12
618.579	22.12
619.342	21.12
620.104	20.12
620.866	20.12
621.628	19.12
622.39	21.12
623.152	17.12
623.914	17.12
624.676	17.12
625.438	16.12
626.199	16.12
626.961	16.12
627.722	15.12
628.484	14.12
629.245	13.12
630.006	16.12
630.768	12.12
631.529	12.12
632.29	11.12
633.051	11.12
633.812	9.12
634.573	12.12
635.333	9.12
636.094	10.12
636.855	9.12
637.615	12.12
638.376	9.12
639.136	7.12
639.896	8.12
640.657	7.12
641.417	9.12
642.177	6.12
642.937	5.12
643.697	9.12
644.457	6.12
645.216	8.12
645.976	7.12
646.736	6.12
647.495	6.12
648.255	9.12
649.014	7.12
649.774	7.12
650.533	8.12
651.292	6.12
652.051	6.12
652.81	7.12
653.569	6.12
654.328	6.12
655.087	8.12
655.846	5.12
656.604	6.12
657.363	4.12
658.121	4.12
658.88	3.12
659.638	5.12
660.397	3.12
661.155	5.12
661.913	5.12
662.671	4.12
663.429	6.12
664.187	5.12
664.945	5.12
665.703	5.12
666.46	5.12
667.218	4.12
667.976	3.12
668.733	6.12
669.49	2.12
670.248	5.12
671.005	4.12
671.762	4.12
672.519	5.12
673.276	5.12
674.033	3.12
674.79	4.12
675.547	3.12
676.304	1.12
677.06	2.12
677.817	4.12
678.574	4.12
679.33	4.12
680.086	4.12
680.843	5.12
681.599	3.12
682.355	3.12
683.111	4.12
683.867	7.12
684.623	4.12
685.379	5.12
686.135	6.12
686.89	4.12
687.646	2.12
688.402	2.12
689.157	5.12
689.912	3.12
690.668	4.12
691.423	3.12
692.178	4.12
692.933	4.12
693.688	4.12
694.443	6.12
695.198	4.12
695.953	5.12
696.708	0.12
697.462	5.12
698.217	3.12
698.972	4.12
699.726	3.12
700.48	3.12
701.235	3.12
701.989	3.12
702.743	3.12
703.497	3.12
704.251	5.12
705.005	2.12
705.759	3.12
706.513	4.12
707.266	4.12
708.02	4.12
708.774	2.12
709.527	3.12
710.28	4.12
711.034	2.12
711.787	0.12
712.54	2.12
713.293	3.12
714.046	2.12
714.799	1.12
715.552	3.12
716.305	3.12
717.058	3.12
717.81	4.12
718.563	1.12
719.315	1.12
720.068	2.12
720.82	3.12
721.573	3.12
722.325	2.12
723.077	5.12
723.829	4.12
724.581	5.12
725.333	1.12
726.085	3.12
726.836	1.12
727.588	2.12
728.34	4.12
729.091	5.12
729.843	4.12
730.594	2.12
731.346	4.12
732.097	3.12
732.848	2.12
733.599	2.12
734.35	4.12
735.101	4.12
735.852	3.12
736.603	4.12
737.354	3.12
738.104	2.12
738.855	3.12
739.605	4.12
740.356	5.12
741.106	4.12
741.856	4.12
742.607	7.12
743.357	3.12
744.107	5.12
744.857	4.12
745.607	3.12
746.357	4.12
747.106	4.12
747.856	3.12
748.606	6.12
749.355	6.12
750.105	7.12
750.854	6.12
751.603	5.12
752.353	3.12
753.102	5.12
753.851	7.12
754.6	7.12
755.349	5.12
756.098	6.12
756.847	5.12
757.595	3.12
758.344	6.12
759.093	6.12
759.841	6.12
760.589	6.12
761.338	5.12
762.086	4.12
762.834	4.12
763.582	8.12
764.331	9.12
765.079	6.12
765.826	5.12
766.574	5.12
767.322	5.12
768.07	8.12
768.817	9.12
769.565	9.12
770.312	6.12
771.06	7.12
771.807	6.12
772.554	8.12
773.302	9.12
774.049	8.12
774.796	9.12
775.543	8.12
776.29	7.12
777.036	7.12
777.783	8.12
778.53	8.12
779.276	9.12
780.023	9.12
780.769	8.12
781.516	10.12
782.262	8.12
783.008	5.12
783.754	9.12
784.5	10.12
785.246	6.12
785.992	8.12
786.738	8.12
787.484	8.12
788.23	8.12
788.975	11.12
789.721	6.12
790.466	9.12
791.212	6.12
791.957	11.12
792.702	9.12
793.447	8.12
794.193	8.12
794.938	4.12
795.683	10.12
796.427	8.12
797.172	7.12
797.917	6.12
798.662	8.12
799.406	8.12
800.151	7.12
800.895	7.12
801.64	6.12
802.384	5.12
803.128	9.12
803.872	7.12
804.616	6.12
805.36	6.12
806.104	7.12
806.848	6.12
807.592	5.12
808.336	6.12
809.079	3.12
809.823	4.12
810.566	4.12
811.31	5.12
812.053	2.12
812.796	4.12
813.539	3.12
814.283	2.12
815.026	8.12
815.769	1.12
816.511	2.12
817.254	7.12
817.997	3.12
818.74	4.12
819.482	4.12
820.225	2.12
820.967	3.12
821.71	2.12
822.452	3.12
823.194	3.12
823.936	4.12
824.678	4.12
825.42	2.12
826.162	3.12
826.904	1.12
827.646	4.12
828.388	2.12
829.129	3.12
829.871	5.12
830.612	3.12
831.354	4.12
832.095	5.12
832.836	4.12
833.577	2.12
834.319	6.12
835.06	2.12
835.801	1.12
836.542	4.12
837.282	3.12
838.023	3.12
838.764	4.12
839.504	4.12
840.245	3.12
840.985	2.12
841.726	4.12
842.466	2.12
843.206	5.12
843.946	3.12
844.687	1.12
845.427	4.12
846.166	2.12
846.906	3.12
847.646	4.12
848.386	3.12
849.125	2.12
849.865	1.12
850.605	4.12
851.344	3.12
852.083	2.12
852.823	4.12
853.562	0.12
854.301	2.12
855.04	0.12
855.779	1.12
856.518	2.12
857.257	-0.88
857.995	4.12
858.734	2.12
859.473	2.12
860.211	5.12
860.95	2.12
861.688	0.12
862.426	1.12
863.165	2.12
863.903	0.12
864.641	1.12
865.379	4.12
866.117	3.12
866.855	0.12
867.593	0.12
868.33	-0.88
869.068	-0.88
869.806	1.12
870.543	2.12
871.28	0.12
872.018	3.12
872.755	-0.88
873.492	3.12
874.229	-0.88
874.967	1.12
875.703	-0.88
876.44	-0.88
877.177	1.12
877.914	1.12
878.651	2.12
879.387	0.12
880.124	0.12
880.86	0.12
881.597	0.12
882.333	4.12
883.069	1.12
883.806	3.12
884.542	3.12
885.278	0.12
886.014	1.12
886.749	-0.88
887.485	-0.88
888.221	0.12
888.957	-0.88
889.692	0.12
890.428	-0.88
891.163	0.12
891.899	-0.88
892.634	1.12
893.369	-2.88
894.104	2.12
894.839	-0.88
895.574	1.12
896.309	1.12
897.044	1.12
897.779	-0.88
898.514	1.12
899.248	-1.88
899.983	1.12
900.717	-3.88
901.452	1.12
902.186	0.12
902.92	1.12
903.654	0.12
904.389	1.12
905.123	0.12
905.857	-1.88
906.59	-0.88
907.324	1.12
908.058	1.12
908.792	1.12
909.525	-1.88
910.259	1.12
910.992	1.12
911.726	0.12
912.459	0.12
913.192	-0.88
913.925	-0.88
914.658	0.12
915.391	0.12
916.124	0.12
916.857	-0.88
917.59	-0.88
918.323	-0.88
919.055	0.12
919.788	1.12
920.521	-0.88
921.253	1.12
921.985	-1.88
922.718	0.12
923.45	0.12
924.182	1.12
924.914	-0.88
925.646	0.12
926.378	0.12
927.11	-1.88
927.841	-2.88
928.573	-1.88
929.305	2.12
930.036	0.12
930.768	-1.88
931.499	0.12
932.23	1.12
932.962	0.12
933.693	-0.88
934.424	0.12
935.155	0.12
935.886	-2.88
936.617	0.12
937.348	0.12
938.078	1.12
938.809	0.12
939.54	-1.88
940.27	-2.88
941.001	1.12
941.731	1.12
942.461	1.12
943.191	1.12
943.922	1.12
944.652	-1.88
945.382	0.12
946.112	1.12
946.841	0.12
947.571	0.12
948.301	0.12
949.031	-1.88
949.76	-0.88
950.49	-0.88
951.219	-0.88
951.948	0.12
952.678	-0.88
953.407	-0.88
954.136	-0.88
954.865	0.12
955.594	-1.88
956.323	0.12
957.052	-0.88
957.78	-0.88
958.509	0.12
959.238	-1.88
959.966	-0.88
960.695	1.12
961.423	1.12
962.151	-1.88
962.88	0.12
963.608	-0.88
964.336	1.12
965.064	1.12
965.792	1.12
966.52	-1.88
967.247	-0.88
967.975	-0.88
968.703	-0.88
969.43	-0.88
970.158	-0.88
970.885	2.12
971.613	-0.88
972.34	-1.88
973.067	0.12
973.794	0.12
974.521	0.12
975.248	-0.88
975.975	2.12
976.702	1.12
977.429	-0.88
978.156	0.12
978.882	1.12
979.609	-1.88
980.335	0.12
981.062	-2.88
981.788	0.12
982.514	1.12
983.24	0.12
983.967	-2.88
984.693	-1.88
985.419	0.12
986.144	-1.88
986.87	0.12
987.596	1.12
988.322	1.12
989.047	2.12
989.773	-0.88
990.498	1.12
991.224	0.12
991.949	0.12
992.674	-0.88
993.399	1.12
994.124	0.12
994.849	0.12
995.574	-1.88
996.299	-0.88
997.024	0.12
997.749	1.12
998.473	-0.88
999.198	0.12
999.922	-0.88
1000.647	2.12
1001.371	2.12
1002.095	0.12
1002.82	0.12
1003.544	-1.88
1004.268	0.12
1004.992	1.12
1005.716	0.12
1006.439	2.12
1007.163	0.12
1007.887	-0.88
1008.611	-1.88
1009.334	0.12
1010.058	-1.88
1010.781	0.12
1011.504	-0.88
1012.228	0.12
1012.951	0.12
1013.674	-0.88
1014.397	0.12
1015.12	0.12
