节点500_285_QEPB04081__600__15-05-32-191.txt的数据

Date: Wed Nov 12 15:05:32 CST 2025
User: PC
Spectrometer: QEPB0408
触发模式: 0
积分时间 (秒): 1.000000E-2
Scans to average: 1
启用暗噪声校正: true
启用非线性校正: false
滑动平均宽度: 0
X轴模式: Wavelengths
Number of Pixels in Spectrum: 1044
>>>>>Begin Spectral Data<<<<<
220.843	3.75
221.644	1.75
222.444	-0.25
223.244	1.75
224.045	2.75
224.845	0.75
225.645	2.75
226.445	3.75
227.245	4.75
228.045	2.75
228.845	2.75
229.645	3.75
230.444	2.75
231.244	3.75
232.043	2.75
232.843	1.75
233.642	3.75
234.442	3.75
235.241	4.75
236.04	6.75
236.839	4.75
237.638	5.75
238.437	4.75
239.236	7.75
240.035	4.75
240.833	3.75
241.632	6.75
242.43	5.75
243.229	5.75
244.027	4.75
244.826	7.75
245.624	1.75
246.422	6.75
247.22	6.75
248.018	6.75
248.816	7.75
249.614	5.75
250.412	8.75
251.21	8.75
252.007	7.75
252.805	8.75
253.602	7.75
254.4	8.75
255.197	7.75
255.994	8.75
256.791	7.75
257.589	9.75
258.386	8.75
259.183	11.75
259.979	8.75
260.776	11.75
261.573	10.75
262.37	7.75
263.166	9.75
263.963	8.75
264.759	10.75
265.556	10.75
266.352	13.75
267.148	13.75
267.944	13.75
268.74	12.75
269.536	12.75
270.332	14.75
271.128	13.75
271.924	13.75
272.719	17.75
273.515	15.75
274.311	14.75
275.106	18.75
275.901	15.75
276.697	18.75
277.492	16.75
278.287	17.75
279.082	17.75
279.877	17.75
280.672	17.75
281.467	19.75
282.262	17.75
283.056	16.75
283.851	17.75
284.646	17.75
285.44	16.75
286.234	20.75
287.029	19.75
287.823	21.75
288.617	18.75
289.411	17.75
290.205	16.75
290.999	18.75
291.793	18.75
292.587	18.75
293.381	16.75
294.174	17.75
294.968	17.75
295.761	13.75
296.555	14.75
297.348	16.75
298.141	14.75
298.935	17.75
299.728	14.75
300.521	16.75
301.314	17.75
302.107	12.75
302.899	12.75
303.692	14.75
304.485	14.75
305.277	13.75
306.07	11.75
306.862	12.75
307.655	14.75
308.447	12.75
309.239	12.75
310.031	12.75
310.823	14.75
311.615	8.75
312.407	11.75
313.199	11.75
313.991	8.75
314.783	13.75
315.574	9.75
316.366	8.75
317.157	7.75
317.949	8.75
318.74	9.75
319.531	10.75
320.322	9.75
321.113	9.75
321.904	9.75
322.695	6.75
323.486	7.75
324.277	7.75
325.068	7.75
325.858	8.75
326.649	8.75
327.439	9.75
328.23	6.75
329.02	7.75
329.81	8.75
330.6	6.75
331.391	7.75
332.181	6.75
332.971	8.75
333.76	5.75
334.55	5.75
335.34	8.75
336.13	7.75
336.919	8.75
337.709	6.75
338.498	8.75
339.287	7.75
340.077	6.75
340.866	8.75
341.655	5.75
342.444	8.75
343.233	7.75
344.022	7.75
344.811	9.75
345.6	6.75
346.388	5.75
347.177	7.75
347.965	5.75
348.754	8.75
349.542	8.75
350.33	6.75
351.119	3.75
351.907	6.75
352.695	6.75
353.483	7.75
354.271	7.75
355.059	8.75
355.846	7.75
356.634	6.75
357.422	2.75
358.209	7.75
358.997	9.75
359.784	6.75
360.571	5.75
361.359	6.75
362.146	3.75
362.933	5.75
363.72	4.75
364.507	5.75
365.294	6.75
366.081	5.75
366.867	7.75
367.654	5.75
368.44	3.75
369.227	4.75
370.013	5.75
370.8	7.75
371.586	5.75
372.372	7.75
373.158	5.75
373.944	5.75
374.73	5.75
375.516	6.75
376.302	5.75
377.088	5.75
377.873	5.75
378.659	4.75
379.445	6.75
380.23	3.75
381.015	2.75
381.801	7.75
382.586	4.75
383.371	5.75
384.156	6.75
384.941	6.75
385.726	4.75
386.511	5.75
387.296	7.75
388.08	8.75
388.865	7.75
389.649	6.75
390.434	9.75
391.218	6.75
392.003	5.75
392.787	9.75
393.571	7.75
394.355	6.75
395.139	7.75
395.923	6.75
396.707	8.75
397.491	6.75
398.274	9.75
399.058	6.75
399.842	9.75
400.625	8.75
401.408	8.75
402.192	7.75
402.975	7.75
403.758	7.75
404.541	9.75
405.324	7.75
406.107	11.75
406.89	10.75
407.673	8.75
408.456	6.75
409.238	8.75
410.021	8.75
410.803	6.75
411.586	8.75
412.368	7.75
413.151	10.75
413.933	10.75
414.715	9.75
415.497	6.75
416.279	7.75
417.061	10.75
417.843	8.75
418.624	9.75
419.406	11.75
420.188	9.75
420.969	10.75
421.751	12.75
422.532	10.75
423.313	10.75
424.095	11.75
424.876	10.75
425.657	10.75
426.438	12.75
427.219	9.75
428	12.75
428.78	15.75
429.561	15.75
430.342	15.75
431.122	13.75
431.903	14.75
432.683	15.75
433.464	16.75
434.244	17.75
435.024	17.75
435.804	19.75
436.584	21.75
437.364	17.75
438.144	19.75
438.924	24.75
439.704	19.75
440.483	24.75
441.263	26.75
442.042	23.75
442.822	30.75
443.601	26.75
444.38	32.75
445.16	31.75
445.939	34.75
446.718	38.75
447.497	36.75
448.276	46.75
449.054	49.75
449.833	53.75
450.612	53.75
451.391	62.75
452.169	66.75
452.948	73.75
453.726	79.75
454.504	88.75
455.282	98.75
456.061	109.75
456.839	116.75
457.617	134.75
458.395	148.75
459.172	160.75
459.95	180.75
460.728	201.75
461.506	219.75
462.283	246.75
463.061	277.75
463.838	309.75
464.615	345.75
465.393	380.75
466.17	415.75
466.947	472.75
467.724	531.75
468.501	587.75
469.278	645.75
470.055	720.75
470.831	802.75
471.608	878.75
472.385	987.75
473.161	1098.75
473.938	1197.75
474.714	1326.75
475.49	1456.75
476.266	1602.75
477.043	1784.75
477.819	1940.75
478.595	2142.75
479.371	2351.75
480.146	2588.75
480.922	2833.75
481.698	3104.75
482.473	3404.75
483.249	3732.75
484.024	4090.75
484.8	4507.75
485.575	4898.75
486.35	5342.75
487.126	5840.75
487.901	6409.75
488.676	6971.75
489.451	7616.75
490.225	8330.75
491	9033.75
491.775	9817.75
492.55	10702.75
493.324	11544.75
494.099	12420.75
494.873	13377.75
495.647	14399.75
496.422	15456.75
497.196	16544.75
497.97	17630.75
498.744	18746.75
499.518	19766.75
500.292	20882.75
501.066	21954.75
501.839	22895.75
502.613	23848.75
503.387	24579.75
504.16	25316.75
504.934	25740.75
505.707	26032.75
506.48	26233.75
507.253	26249.75
508.027	26149.75
508.8	25963.75
509.573	25694.75
510.346	25236.75
511.118	24645.75
511.891	23967.75
512.664	23232.75
513.437	22458.75
514.209	21610.75
514.982	20825.75
515.754	19951.75
516.526	19124.75
517.298	18271.75
518.071	17562.75
518.843	16872.75
519.615	16256.75
520.387	15610.75
521.159	14972.75
521.93	14361.75
522.702	13793.75
523.474	13241.75
524.245	12659.75
525.017	12118.75
525.788	11724.75
526.56	11164.75
527.331	10645.75
528.102	10180.75
528.873	9734.75
529.644	9287.75
530.415	8856.75
531.186	8400.75
531.957	7961.75
532.728	7641.75
533.498	7218.75
534.269	6795.75
535.039	6432.75
535.81	6066.75
536.58	5790.75
537.351	5433.75
538.121	5112.75
538.891	4873.75
539.661	4612.75
540.431	4338.75
541.201	4073.75
541.971	3877.75
542.741	3688.75
543.51	3501.75
544.28	3340.75
545.05	3166.75
545.819	3010.75
546.588	2856.75
547.358	2727.75
548.127	2591.75
548.896	2461.75
549.665	2342.75
550.434	2222.75
551.203	2107.75
551.972	2005.75
552.741	1863.75
553.51	1766.75
554.278	1705.75
555.047	1585.75
555.815	1515.75
556.584	1412.75
557.352	1356.75
558.121	1256.75
558.889	1192.75
559.657	1129.75
560.425	1068.75
561.193	1003.75
561.961	959.75
562.729	890.75
563.496	855.75
564.264	802.75
565.032	754.75
565.799	723.75
566.567	673.75
567.334	639.75
568.101	605.75
568.869	573.75
569.636	538.75
570.403	503.75
571.17	485.75
571.937	444.75
572.704	428.75
573.471	398.75
574.237	379.75
575.004	364.75
575.771	337.75
576.537	312.75
577.303	300.75
578.07	285.75
578.836	265.75
579.602	245.75
580.368	245.75
581.134	229.75
581.9	219.75
582.666	200.75
583.432	188.75
584.198	186.75
584.964	177.75
585.729	163.75
586.495	155.75
587.26	149.75
588.025	141.75
588.791	130.75
589.556	123.75
590.321	113.75
591.086	115.75
591.851	108.75
592.616	103.75
593.381	98.75
594.146	90.75
594.911	87.75
595.675	82.75
596.44	79.75
597.204	77.75
597.969	73.75
598.733	68.75
599.497	66.75
600.261	64.75
601.025	58.75
601.79	57.75
602.553	53.75
603.317	54.75
604.081	50.75
604.845	49.75
605.609	45.75
606.372	46.75
607.136	43.75
607.899	41.75
608.662	37.75
609.426	38.75
610.189	34.75
610.952	33.75
611.715	33.75
612.478	35.75
613.241	31.75
614.004	28.75
614.767	30.75
615.529	28.75
616.292	25.75
617.055	28.75
617.817	23.75
618.579	23.75
619.342	23.75
620.104	20.75
620.866	21.75
621.628	19.75
622.39	18.75
623.152	18.75
623.914	20.75
624.676	19.75
625.438	17.75
626.199	17.75
626.961	16.75
627.722	13.75
628.484	15.75
629.245	17.75
630.006	14.75
630.768	10.75
631.529	14.75
632.29	15.75
633.051	14.75
633.812	12.75
634.573	14.75
635.333	14.75
636.094	11.75
636.855	9.75
637.615	10.75
638.376	12.75
639.136	11.75
639.896	11.75
640.657	12.75
641.417	9.75
642.177	9.75
642.937	9.75
643.697	9.75
644.457	8.75
645.216	7.75
645.976	11.75
646.736	6.75
647.495	6.75
648.255	5.75
649.014	7.75
649.774	8.75
650.533	6.75
651.292	8.75
652.051	6.75
652.81	6.75
653.569	8.75
654.328	7.75
655.087	8.75
655.846	5.75
656.604	5.75
657.363	4.75
658.121	7.75
658.88	8.75
659.638	7.75
660.397	7.75
661.155	6.75
661.913	6.75
662.671	5.75
663.429	4.75
664.187	6.75
664.945	5.75
665.703	2.75
666.46	4.75
667.218	5.75
667.976	6.75
668.733	6.75
669.49	4.75
670.248	6.75
671.005	5.75
671.762	2.75
672.519	5.75
673.276	5.75
674.033	5.75
674.79	4.75
675.547	5.75
676.304	4.75
677.06	4.75
677.817	5.75
678.574	4.75
679.33	4.75
680.086	5.75
680.843	3.75
681.599	4.75
682.355	4.75
683.111	2.75
683.867	4.75
684.623	3.75
685.379	5.75
686.135	4.75
686.89	6.75
687.646	4.75
688.402	5.75
689.157	2.75
689.912	2.75
690.668	6.75
691.423	4.75
692.178	5.75
692.933	4.75
693.688	4.75
694.443	6.75
695.198	6.75
695.953	2.75
696.708	4.75
697.462	3.75
698.217	5.75
698.972	3.75
699.726	2.75
700.48	2.75
701.235	4.75
701.989	5.75
702.743	3.75
703.497	3.75
704.251	7.75
705.005	3.75
705.759	4.75
706.513	4.75
707.266	3.75
708.02	4.75
708.774	3.75
709.527	3.75
710.28	3.75
711.034	5.75
711.787	2.75
712.54	3.75
713.293	5.75
714.046	1.75
714.799	6.75
715.552	2.75
716.305	5.75
717.058	5.75
717.81	4.75
718.563	4.75
719.315	5.75
720.068	3.75
720.82	5.75
721.573	2.75
722.325	4.75
723.077	4.75
723.829	6.75
724.581	4.75
725.333	5.75
726.085	6.75
726.836	5.75
727.588	4.75
728.34	5.75
729.091	3.75
729.843	6.75
730.594	1.75
731.346	6.75
732.097	5.75
732.848	5.75
733.599	4.75
734.35	3.75
735.101	4.75
735.852	5.75
736.603	5.75
737.354	6.75
738.104	5.75
738.855	5.75
739.605	2.75
740.356	3.75
741.106	5.75
741.856	5.75
742.607	3.75
743.357	6.75
744.107	6.75
744.857	4.75
745.607	4.75
746.357	5.75
747.106	6.75
747.856	5.75
748.606	5.75
749.355	3.75
750.105	7.75
750.854	6.75
751.603	5.75
752.353	7.75
753.102	6.75
753.851	2.75
754.6	7.75
755.349	7.75
756.098	5.75
756.847	5.75
757.595	5.75
758.344	7.75
759.093	5.75
759.841	6.75
760.589	6.75
761.338	7.75
762.086	6.75
762.834	6.75
763.582	6.75
764.331	7.75
765.079	8.75
765.826	9.75
766.574	6.75
767.322	7.75
768.07	5.75
768.817	7.75
769.565	4.75
770.312	9.75
771.06	7.75
771.807	8.75
772.554	7.75
773.302	8.75
774.049	8.75
774.796	7.75
775.543	8.75
776.29	9.75
777.036	8.75
777.783	8.75
778.53	9.75
779.276	11.75
780.023	7.75
780.769	7.75
781.516	11.75
782.262	8.75
783.008	7.75
783.754	9.75
784.5	9.75
785.246	9.75
785.992	9.75
786.738	9.75
787.484	10.75
788.23	10.75
788.975	7.75
789.721	9.75
790.466	9.75
791.212	8.75
791.957	9.75
792.702	8.75
793.447	8.75
794.193	7.75
794.938	7.75
795.683	7.75
796.427	9.75
797.172	8.75
797.917	8.75
798.662	9.75
799.406	8.75
800.151	8.75
800.895	9.75
801.64	8.75
802.384	8.75
803.128	8.75
803.872	8.75
804.616	6.75
805.36	5.75
806.104	8.75
806.848	5.75
807.592	7.75
808.336	6.75
809.079	3.75
809.823	7.75
810.566	4.75
811.31	7.75
812.053	4.75
812.796	6.75
813.539	4.75
814.283	5.75
815.026	5.75
815.769	8.75
816.511	6.75
817.254	5.75
817.997	5.75
818.74	4.75
819.482	4.75
820.225	6.75
820.967	4.75
821.71	5.75
822.452	4.75
823.194	5.75
823.936	6.75
824.678	3.75
825.42	5.75
826.162	6.75
826.904	5.75
827.646	4.75
828.388	3.75
829.129	5.75
829.871	5.75
830.612	2.75
831.354	2.75
832.095	4.75
832.836	5.75
833.577	4.75
834.319	5.75
835.06	4.75
835.801	5.75
836.542	1.75
837.282	3.75
838.023	4.75
838.764	3.75
839.504	3.75
840.245	4.75
840.985	3.75
841.726	5.75
842.466	3.75
843.206	4.75
843.946	3.75
844.687	3.75
845.427	0.75
846.166	3.75
846.906	5.75
847.646	2.75
848.386	4.75
849.125	2.75
849.865	4.75
850.605	5.75
851.344	2.75
852.083	4.75
852.823	4.75
853.562	2.75
854.301	0.75
855.04	4.75
855.779	3.75
856.518	2.75
857.257	1.75
857.995	0.75
858.734	2.75
859.473	3.75
860.211	3.75
860.95	3.75
861.688	2.75
862.426	3.75
863.165	2.75
863.903	4.75
864.641	0.75
865.379	3.75
866.117	3.75
866.855	2.75
867.593	4.75
868.33	1.75
869.068	2.75
869.806	0.75
870.543	1.75
871.28	0.75
872.018	0.75
872.755	1.75
873.492	2.75
874.229	3.75
874.967	1.75
875.703	2.75
876.44	2.75
877.177	0.75
877.914	1.75
878.651	2.75
879.387	1.75
880.124	1.75
880.86	1.75
881.597	1.75
882.333	2.75
883.069	3.75
883.806	1.75
884.542	2.75
885.278	3.75
886.014	2.75
886.749	1.75
887.485	0.75
888.221	4.75
888.957	-0.25
889.692	1.75
890.428	4.75
891.163	1.75
891.899	1.75
892.634	1.75
893.369	2.75
894.104	0.75
894.839	2.75
895.574	2.75
896.309	1.75
897.044	1.75
897.779	0.75
898.514	2.75
899.248	-0.25
899.983	0.75
900.717	2.75
901.452	-1.25
902.186	2.75
902.92	1.75
903.654	1.75
904.389	0.75
905.123	2.75
905.857	1.75
906.59	2.75
907.324	1.75
908.058	0.75
908.792	1.75
909.525	1.75
910.259	0.75
910.992	2.75
911.726	0.75
912.459	2.75
913.192	-1.25
913.925	0.75
914.658	1.75
915.391	-0.25
916.124	0.75
916.857	1.75
917.59	2.75
918.323	1.75
919.055	1.75
919.788	3.75
920.521	1.75
921.253	0.75
921.985	1.75
922.718	1.75
923.45	0.75
924.182	0.75
924.914	3.75
925.646	0.75
926.378	1.75
927.11	1.75
927.841	-0.25
928.573	2.75
929.305	1.75
930.036	1.75
930.768	1.75
931.499	2.75
932.23	2.75
932.962	3.75
933.693	0.75
934.424	0.75
935.155	3.75
935.886	0.75
936.617	-1.25
937.348	1.75
938.078	-0.25
938.809	1.75
939.54	0.75
940.27	0.75
941.001	-0.25
941.731	4.75
942.461	0.75
943.191	0.75
943.922	-0.25
944.652	-0.25
945.382	1.75
946.112	0.75
946.841	0.75
947.571	0.75
948.301	-1.25
949.031	0.75
949.76	0.75
950.49	2.75
951.219	2.75
951.948	1.75
952.678	2.75
953.407	-0.25
954.136	1.75
954.865	1.75
955.594	1.75
956.323	0.75
957.052	0.75
957.78	0.75
958.509	0.75
959.238	2.75
959.966	-1.25
960.695	1.75
961.423	0.75
962.151	1.75
962.88	0.75
963.608	0.75
964.336	0.75
965.064	2.75
965.792	1.75
966.52	0.75
967.247	1.75
967.975	1.75
968.703	0.75
969.43	-0.25
970.158	-2.25
970.885	2.75
971.613	-1.25
972.34	0.75
973.067	2.75
973.794	-0.25
974.521	-0.25
975.248	-1.25
975.975	0.75
976.702	-0.25
977.429	-0.25
978.156	1.75
978.882	0.75
979.609	0.75
980.335	1.75
981.062	0.75
981.788	2.75
982.514	-0.25
983.24	1.75
983.967	-0.25
984.693	2.75
985.419	1.75
986.144	0.75
986.87	2.75
987.596	2.75
988.322	2.75
989.047	2.75
989.773	1.75
990.498	1.75
991.224	0.75
991.949	3.75
992.674	0.75
993.399	0.75
994.124	2.75
994.849	1.75
995.574	1.75
996.299	1.75
997.024	1.75
997.749	1.75
998.473	1.75
999.198	2.75
999.922	-0.25
1000.647	2.75
1001.371	3.75
1002.095	-1.25
1002.82	-0.25
1003.544	-1.25
1004.268	2.75
1004.992	1.75
1005.716	2.75
1006.439	1.75
1007.163	2.75
1007.887	2.75
1008.611	0.75
1009.334	2.75
1010.058	2.75
1010.781	-1.25
1011.504	2.75
1012.228	2.75
1012.951	0.75
1013.674	-0.25
1014.397	-0.25
1015.12	-1.25
