节点500_285_QEPB04081__858__15-09-49-690.txt的数据

Date: Wed Nov 12 15:09:49 CST 2025
User: PC
Spectrometer: QEPB0408
触发模式: 0
积分时间 (秒): 1.000000E-2
Scans to average: 1
启用暗噪声校正: true
启用非线性校正: false
滑动平均宽度: 0
X轴模式: Wavelengths
Number of Pixels in Spectrum: 1044
>>>>>Begin Spectral Data<<<<<
220.843	-0.25
221.644	1.75
222.444	2.75
223.244	1.75
224.045	0.75
224.845	0.75
225.645	1.75
226.445	-0.25
227.245	0.75
228.045	1.75
228.845	1.75
229.645	0.75
230.444	3.75
231.244	2.75
232.043	3.75
232.843	1.75
233.642	2.75
234.442	2.75
235.241	1.75
236.04	1.75
236.839	2.75
237.638	2.75
238.437	3.75
239.236	3.75
240.035	4.75
240.833	0.75
241.632	2.75
242.43	2.75
243.229	5.75
244.027	2.75
244.826	4.75
245.624	5.75
246.422	4.75
247.22	5.75
248.018	2.75
248.816	4.75
249.614	5.75
250.412	5.75
251.21	2.75
252.007	3.75
252.805	6.75
253.602	6.75
254.4	5.75
255.197	5.75
255.994	4.75
256.791	7.75
257.589	5.75
258.386	8.75
259.183	8.75
259.979	8.75
260.776	8.75
261.573	6.75
262.37	9.75
263.166	6.75
263.963	10.75
264.759	8.75
265.556	9.75
266.352	9.75
267.148	9.75
267.944	10.75
268.74	11.75
269.536	11.75
270.332	13.75
271.128	12.75
271.924	15.75
272.719	12.75
273.515	14.75
274.311	12.75
275.106	13.75
275.901	15.75
276.697	15.75
277.492	14.75
278.287	12.75
279.082	15.75
279.877	14.75
280.672	13.75
281.467	16.75
282.262	13.75
283.056	16.75
283.851	13.75
284.646	14.75
285.44	13.75
286.234	15.75
287.029	17.75
287.823	12.75
288.617	13.75
289.411	17.75
290.205	16.75
290.999	15.75
291.793	14.75
292.587	15.75
293.381	17.75
294.174	16.75
294.968	17.75
295.761	12.75
296.555	14.75
297.348	13.75
298.141	16.75
298.935	13.75
299.728	12.75
300.521	12.75
301.314	12.75
302.107	12.75
302.899	9.75
303.692	11.75
304.485	12.75
305.277	11.75
306.07	11.75
306.862	14.75
307.655	11.75
308.447	11.75
309.239	11.75
310.031	12.75
310.823	11.75
311.615	8.75
312.407	9.75
313.199	10.75
313.991	9.75
314.783	9.75
315.574	6.75
316.366	9.75
317.157	6.75
317.949	8.75
318.74	8.75
319.531	7.75
320.322	6.75
321.113	6.75
321.904	7.75
322.695	5.75
323.486	7.75
324.277	8.75
325.068	4.75
325.858	7.75
326.649	9.75
327.439	6.75
328.23	5.75
329.02	4.75
329.81	7.75
330.6	6.75
331.391	7.75
332.181	4.75
332.971	5.75
333.76	4.75
334.55	4.75
335.34	5.75
336.13	6.75
336.919	5.75
337.709	6.75
338.498	5.75
339.287	4.75
340.077	6.75
340.866	6.75
341.655	5.75
342.444	2.75
343.233	5.75
344.022	4.75
344.811	8.75
345.6	4.75
346.388	7.75
347.177	4.75
347.965	6.75
348.754	5.75
349.542	4.75
350.33	7.75
351.119	1.75
351.907	4.75
352.695	4.75
353.483	6.75
354.271	3.75
355.059	3.75
355.846	5.75
356.634	5.75
357.422	3.75
358.209	3.75
358.997	4.75
359.784	3.75
360.571	3.75
361.359	4.75
362.146	3.75
362.933	4.75
363.72	4.75
364.507	4.75
365.294	5.75
366.081	5.75
366.867	4.75
367.654	1.75
368.44	4.75
369.227	3.75
370.013	1.75
370.8	4.75
371.586	4.75
372.372	5.75
373.158	3.75
373.944	3.75
374.73	5.75
375.516	2.75
376.302	4.75
377.088	3.75
377.873	5.75
378.659	5.75
379.445	3.75
380.23	4.75
381.015	4.75
381.801	5.75
382.586	5.75
383.371	5.75
384.156	3.75
384.941	4.75
385.726	6.75
386.511	2.75
387.296	3.75
388.08	6.75
388.865	5.75
389.649	4.75
390.434	3.75
391.218	4.75
392.003	5.75
392.787	6.75
393.571	5.75
394.355	5.75
395.139	4.75
395.923	6.75
396.707	5.75
397.491	4.75
398.274	5.75
399.058	7.75
399.842	5.75
400.625	6.75
401.408	6.75
402.192	6.75
402.975	4.75
403.758	7.75
404.541	6.75
405.324	8.75
406.107	6.75
406.89	7.75
407.673	4.75
408.456	8.75
409.238	6.75
410.021	7.75
410.803	6.75
411.586	7.75
412.368	6.75
413.151	6.75
413.933	7.75
414.715	9.75
415.497	7.75
416.279	7.75
417.061	6.75
417.843	9.75
418.624	7.75
419.406	8.75
420.188	9.75
420.969	9.75
421.751	9.75
422.532	11.75
423.313	10.75
424.095	9.75
424.876	12.75
425.657	7.75
426.438	10.75
427.219	13.75
428	10.75
428.78	11.75
429.561	11.75
430.342	11.75
431.122	13.75
431.903	15.75
432.683	15.75
433.464	13.75
434.244	15.75
435.024	15.75
435.804	17.75
436.584	17.75
437.364	16.75
438.144	18.75
438.924	18.75
439.704	22.75
440.483	22.75
441.263	22.75
442.042	24.75
442.822	27.75
443.601	25.75
444.38	29.75
445.16	31.75
445.939	37.75
446.718	37.75
447.497	40.75
448.276	42.75
449.054	48.75
449.833	54.75
450.612	53.75
451.391	61.75
452.169	70.75
452.948	70.75
453.726	88.75
454.504	92.75
455.282	100.75
456.061	113.75
456.839	130.75
457.617	138.75
458.395	157.75
459.172	169.75
459.95	196.75
460.728	214.75
461.506	237.75
462.283	261.75
463.061	287.75
463.838	321.75
464.615	359.75
465.393	399.75
466.17	443.75
466.947	495.75
467.724	551.75
468.501	614.75
469.278	681.75
470.055	738.75
470.831	830.75
471.608	899.75
472.385	989.75
473.161	1093.75
473.938	1225.75
474.714	1334.75
475.49	1460.75
476.266	1634.75
477.043	1779.75
477.819	1937.75
478.595	2143.75
479.371	2312.75
480.146	2559.75
480.922	2771.75
481.698	3033.75
482.473	3321.75
483.249	3618.75
484.024	3962.75
484.8	4282.75
485.575	4717.75
486.35	5109.75
487.126	5539.75
487.901	6060.75
488.676	6580.75
489.451	7129.75
490.225	7729.75
491	8381.75
491.775	9157.75
492.55	9919.75
493.324	10667.75
494.099	11455.75
494.873	12245.75
495.647	13155.75
496.422	14127.75
497.196	15069.75
497.97	16103.75
498.744	17151.75
499.518	18125.75
500.292	19152.75
501.066	20153.75
501.839	21059.75
502.613	21960.75
503.387	22806.75
504.16	23461.75
504.934	23985.75
505.707	24444.75
506.48	24663.75
507.253	24816.75
508.027	24879.75
508.8	24801.75
509.573	24688.75
510.346	24438.75
511.118	23915.75
511.891	23448.75
512.664	22791.75
513.437	22098.75
514.209	21435.75
514.982	20705.75
515.754	19888.75
516.526	19107.75
517.298	18301.75
518.071	17617.75
518.843	16901.75
519.615	16305.75
520.387	15687.75
521.159	15032.75
521.93	14481.75
522.702	13874.75
523.474	13341.75
524.245	12762.75
525.017	12224.75
525.788	11798.75
526.56	11293.75
527.331	10755.75
528.102	10289.75
528.873	9842.75
529.644	9401.75
530.415	8976.75
531.186	8552.75
531.957	8133.75
532.728	7785.75
533.498	7382.75
534.269	6984.75
535.039	6625.75
535.81	6293.75
536.58	5920.75
537.351	5592.75
538.121	5296.75
538.891	4983.75
539.661	4765.75
540.431	4496.75
541.201	4230.75
541.971	4018.75
542.741	3783.75
543.51	3620.75
544.28	3429.75
545.05	3282.75
545.819	3119.75
546.588	2953.75
547.358	2818.75
548.127	2664.75
548.896	2549.75
549.665	2426.75
550.434	2298.75
551.203	2177.75
551.972	2050.75
552.741	1947.75
553.51	1847.75
554.278	1749.75
555.047	1656.75
555.815	1576.75
556.584	1480.75
557.352	1402.75
558.121	1325.75
558.889	1252.75
559.657	1190.75
560.425	1125.75
561.193	1049.75
561.961	995.75
562.729	945.75
563.496	885.75
564.264	839.75
565.032	784.75
565.799	749.75
566.567	700.75
567.334	674.75
568.101	627.75
568.869	601.75
569.636	558.75
570.403	526.75
571.17	497.75
571.937	470.75
572.704	446.75
573.471	419.75
574.237	393.75
575.004	374.75
575.771	347.75
576.537	332.75
577.303	313.75
578.07	295.75
578.836	282.75
579.602	264.75
580.368	247.75
581.134	233.75
581.9	218.75
582.666	204.75
583.432	205.75
584.198	186.75
584.964	178.75
585.729	174.75
586.495	163.75
587.26	153.75
588.025	145.75
588.791	137.75
589.556	128.75
590.321	124.75
591.086	116.75
591.851	108.75
592.616	106.75
593.381	96.75
594.146	92.75
594.911	88.75
595.675	83.75
596.44	80.75
597.204	74.75
597.969	75.75
598.733	66.75
599.497	68.75
600.261	65.75
601.025	63.75
601.79	58.75
602.553	58.75
603.317	52.75
604.081	53.75
604.845	47.75
605.609	48.75
606.372	46.75
607.136	44.75
607.899	38.75
608.662	38.75
609.426	37.75
610.189	41.75
610.952	35.75
611.715	32.75
612.478	32.75
613.241	31.75
614.004	33.75
614.767	29.75
615.529	26.75
616.292	27.75
617.055	25.75
617.817	22.75
618.579	21.75
619.342	24.75
620.104	18.75
620.866	19.75
621.628	20.75
622.39	20.75
623.152	19.75
623.914	21.75
624.676	17.75
625.438	16.75
626.199	15.75
626.961	17.75
627.722	16.75
628.484	14.75
629.245	14.75
630.006	11.75
630.768	17.75
631.529	10.75
632.29	11.75
633.051	14.75
633.812	11.75
634.573	11.75
635.333	11.75
636.094	13.75
636.855	9.75
637.615	10.75
638.376	8.75
639.136	9.75
639.896	9.75
640.657	9.75
641.417	8.75
642.177	8.75
642.937	8.75
643.697	5.75
644.457	7.75
645.216	9.75
645.976	8.75
646.736	8.75
647.495	6.75
648.255	6.75
649.014	4.75
649.774	4.75
650.533	5.75
651.292	5.75
652.051	7.75
652.81	5.75
653.569	6.75
654.328	5.75
655.087	6.75
655.846	6.75
656.604	4.75
657.363	5.75
658.121	4.75
658.88	3.75
659.638	8.75
660.397	5.75
661.155	4.75
661.913	6.75
662.671	8.75
663.429	1.75
664.187	3.75
664.945	3.75
665.703	3.75
666.46	6.75
667.218	4.75
667.976	4.75
668.733	3.75
669.49	4.75
670.248	3.75
671.005	5.75
671.762	3.75
672.519	2.75
673.276	4.75
674.033	2.75
674.79	1.75
675.547	4.75
676.304	4.75
677.06	1.75
677.817	4.75
678.574	3.75
679.33	5.75
680.086	2.75
680.843	4.75
681.599	1.75
682.355	4.75
683.111	4.75
683.867	3.75
684.623	3.75
685.379	2.75
686.135	3.75
686.89	3.75
687.646	4.75
688.402	3.75
689.157	1.75
689.912	5.75
690.668	2.75
691.423	2.75
692.178	3.75
692.933	5.75
693.688	2.75
694.443	5.75
695.198	1.75
695.953	2.75
696.708	2.75
697.462	1.75
698.217	3.75
698.972	3.75
699.726	0.75
700.48	1.75
701.235	1.75
701.989	3.75
702.743	0.75
703.497	6.75
704.251	2.75
705.005	0.75
705.759	3.75
706.513	3.75
707.266	1.75
708.02	5.75
708.774	2.75
709.527	2.75
710.28	1.75
711.034	2.75
711.787	1.75
712.54	2.75
713.293	1.75
714.046	5.75
714.799	2.75
715.552	0.75
716.305	1.75
717.058	0.75
717.81	2.75
718.563	2.75
719.315	5.75
720.068	1.75
720.82	3.75
721.573	4.75
722.325	0.75
723.077	1.75
723.829	3.75
724.581	2.75
725.333	3.75
726.085	1.75
726.836	0.75
727.588	-0.25
728.34	3.75
729.091	4.75
729.843	2.75
730.594	2.75
731.346	4.75
732.097	5.75
732.848	4.75
733.599	4.75
734.35	5.75
735.101	2.75
735.852	4.75
736.603	3.75
737.354	4.75
738.104	7.75
738.855	3.75
739.605	4.75
740.356	2.75
741.106	3.75
741.856	3.75
742.607	4.75
743.357	4.75
744.107	4.75
744.857	3.75
745.607	4.75
746.357	5.75
747.106	4.75
747.856	1.75
748.606	4.75
749.355	1.75
750.105	6.75
750.854	2.75
751.603	4.75
752.353	2.75
753.102	3.75
753.851	3.75
754.6	4.75
755.349	5.75
756.098	4.75
756.847	5.75
757.595	4.75
758.344	3.75
759.093	4.75
759.841	3.75
760.589	7.75
761.338	4.75
762.086	7.75
762.834	6.75
763.582	4.75
764.331	3.75
765.079	3.75
765.826	4.75
766.574	3.75
767.322	7.75
768.07	3.75
768.817	4.75
769.565	5.75
770.312	3.75
771.06	4.75
771.807	6.75
772.554	5.75
773.302	3.75
774.049	6.75
774.796	3.75
775.543	5.75
776.29	7.75
777.036	4.75
777.783	6.75
778.53	6.75
779.276	4.75
780.023	7.75
780.769	11.75
781.516	5.75
782.262	4.75
783.008	7.75
783.754	3.75
784.5	4.75
785.246	5.75
785.992	6.75
786.738	6.75
787.484	8.75
788.23	7.75
788.975	9.75
789.721	9.75
790.466	7.75
791.212	6.75
791.957	6.75
792.702	5.75
793.447	6.75
794.193	7.75
794.938	5.75
795.683	7.75
796.427	6.75
797.172	7.75
797.917	5.75
798.662	5.75
799.406	4.75
800.151	7.75
800.895	5.75
801.64	6.75
802.384	7.75
803.128	7.75
803.872	7.75
804.616	5.75
805.36	5.75
806.104	6.75
806.848	5.75
807.592	4.75
808.336	5.75
809.079	6.75
809.823	3.75
810.566	5.75
811.31	3.75
812.053	4.75
812.796	4.75
813.539	4.75
814.283	1.75
815.026	4.75
815.769	6.75
816.511	5.75
817.254	4.75
817.997	6.75
818.74	4.75
819.482	5.75
820.225	6.75
820.967	1.75
821.71	5.75
822.452	4.75
823.194	1.75
823.936	2.75
824.678	6.75
825.42	2.75
826.162	2.75
826.904	4.75
827.646	2.75
828.388	0.75
829.129	3.75
829.871	1.75
830.612	2.75
831.354	2.75
832.095	2.75
832.836	3.75
833.577	3.75
834.319	1.75
835.06	2.75
835.801	2.75
836.542	4.75
837.282	3.75
838.023	5.75
838.764	1.75
839.504	2.75
840.245	3.75
840.985	1.75
841.726	1.75
842.466	1.75
843.206	2.75
843.946	3.75
844.687	2.75
845.427	1.75
846.166	2.75
846.906	4.75
847.646	1.75
848.386	0.75
849.125	3.75
849.865	3.75
850.605	1.75
851.344	3.75
852.083	1.75
852.823	1.75
853.562	2.75
854.301	2.75
855.04	2.75
855.779	1.75
856.518	-0.25
857.257	0.75
857.995	-0.25
858.734	2.75
859.473	0.75
860.211	-0.25
860.95	2.75
861.688	1.75
862.426	0.75
863.165	3.75
863.903	0.75
864.641	1.75
865.379	-0.25
866.117	-0.25
866.855	0.75
867.593	2.75
868.33	0.75
869.068	0.75
869.806	1.75
870.543	0.75
871.28	2.75
872.018	-1.25
872.755	0.75
873.492	1.75
874.229	0.75
874.967	1.75
875.703	1.75
876.44	-0.25
877.177	1.75
877.914	-0.25
878.651	1.75
879.387	0.75
880.124	1.75
880.86	1.75
881.597	0.75
882.333	1.75
883.069	0.75
883.806	1.75
884.542	2.75
885.278	0.75
886.014	-0.25
886.749	1.75
887.485	1.75
888.221	-2.25
888.957	-0.25
889.692	-2.25
890.428	0.75
891.163	2.75
891.899	1.75
892.634	0.75
893.369	0.75
894.104	1.75
894.839	0.75
895.574	1.75
896.309	-0.25
897.044	-0.25
897.779	1.75
898.514	-0.25
899.248	0.75
899.983	-0.25
900.717	1.75
901.452	1.75
902.186	-1.25
902.92	-1.25
903.654	-2.25
904.389	0.75
905.123	-0.25
905.857	-0.25
906.59	-0.25
907.324	0.75
908.058	-0.25
908.792	-2.25
909.525	-0.25
910.259	0.75
910.992	1.75
911.726	0.75
912.459	-1.25
913.192	-1.25
913.925	1.75
914.658	-1.25
915.391	-0.25
916.124	1.75
916.857	0.75
917.59	0.75
918.323	0.75
919.055	-2.25
919.788	-0.25
920.521	-1.25
921.253	-2.25
921.985	1.75
922.718	-0.25
923.45	0.75
924.182	-1.25
924.914	-0.25
925.646	-1.25
926.378	0.75
927.11	-1.25
927.841	-2.25
928.573	-1.25
929.305	-1.25
930.036	1.75
930.768	-1.25
931.499	-0.25
932.23	1.75
932.962	0.75
933.693	-0.25
934.424	-2.25
935.155	-0.25
935.886	-0.25
936.617	-0.25
937.348	1.75
938.078	1.75
938.809	-0.25
939.54	-0.25
940.27	1.75
941.001	-0.25
941.731	1.75
942.461	0.75
943.191	-1.25
943.922	0.75
944.652	-0.25
945.382	-0.25
946.112	-1.25
946.841	-2.25
947.571	0.75
948.301	-1.25
949.031	-0.25
949.76	-1.25
950.49	0.75
951.219	-0.25
951.948	-0.25
952.678	0.75
953.407	-1.25
954.136	1.75
954.865	-2.25
955.594	-1.25
956.323	1.75
957.052	-0.25
957.78	1.75
958.509	-0.25
959.238	-1.25
959.966	-1.25
960.695	0.75
961.423	0.75
962.151	-0.25
962.88	-2.25
963.608	1.75
964.336	-0.25
965.064	-2.25
965.792	1.75
966.52	1.75
967.247	1.75
967.975	0.75
968.703	-0.25
969.43	1.75
970.158	1.75
970.885	-0.25
971.613	-1.25
972.34	-0.25
973.067	-2.25
973.794	-1.25
974.521	0.75
975.248	1.75
975.975	1.75
976.702	-0.25
977.429	0.75
978.156	0.75
978.882	0.75
979.609	-2.25
980.335	-0.25
981.062	-0.25
981.788	1.75
982.514	-1.25
983.24	-0.25
983.967	-0.25
984.693	1.75
985.419	-0.25
986.144	-1.25
986.87	-0.25
987.596	-0.25
988.322	1.75
989.047	-1.25
989.773	-0.25
990.498	-0.25
991.224	-2.25
991.949	-0.25
992.674	-0.25
993.399	1.75
994.124	-0.25
994.849	-0.25
995.574	0.75
996.299	-0.25
997.024	-1.25
997.749	0.75
998.473	0.75
999.198	1.75
999.922	-0.25
1000.647	-0.25
1001.371	3.75
1002.095	-2.25
1002.82	-1.25
1003.544	-0.25
1004.268	1.75
1004.992	1.75
1005.716	0.75
1006.439	0.75
1007.163	-0.25
1007.887	0.75
1008.611	-0.25
1009.334	1.75
1010.058	-0.25
1010.781	-0.25
1011.504	0.75
1012.228	-2.25
1012.951	-0.25
1013.674	-2.25
1014.397	0.75
1015.12	1.75
