节点500_285_QEPB04081__58__14-56-31-351.txt的数据

Date: Wed Nov 12 14:56:31 CST 2025
User: PC
Spectrometer: QEPB0408
触发模式: 0
积分时间 (秒): 1.000000E-2
Scans to average: 1
启用暗噪声校正: true
启用非线性校正: false
滑动平均宽度: 0
X轴模式: Wavelengths
Number of Pixels in Spectrum: 1044
>>>>>Begin Spectral Data<<<<<
220.843	1.25
221.644	3.25
222.444	3.25
223.244	1.25
224.045	4.25
224.845	4.25
225.645	2.25
226.445	2.25
227.245	2.25
228.045	5.25
228.845	2.25
229.645	4.25
230.444	1.25
231.244	4.25
232.043	6.25
232.843	5.25
233.642	6.25
234.442	2.25
235.241	5.25
236.04	3.25
236.839	5.25
237.638	5.25
238.437	4.25
239.236	5.25
240.035	5.25
240.833	4.25
241.632	6.25
242.43	4.25
243.229	5.25
244.027	6.25
244.826	5.25
245.624	6.25
246.422	4.25
247.22	7.25
248.018	6.25
248.816	7.25
249.614	7.25
250.412	7.25
251.21	8.25
252.007	6.25
252.805	8.25
253.602	8.25
254.4	7.25
255.197	7.25
255.994	8.25
256.791	9.25
257.589	8.25
258.386	10.25
259.183	11.25
259.979	10.25
260.776	9.25
261.573	9.25
262.37	11.25
263.166	12.25
263.963	13.25
264.759	14.25
265.556	14.25
266.352	9.25
267.148	12.25
267.944	16.25
268.74	13.25
269.536	19.25
270.332	17.25
271.128	13.25
271.924	15.25
272.719	17.25
273.515	17.25
274.311	16.25
275.106	20.25
275.901	20.25
276.697	19.25
277.492	19.25
278.287	20.25
279.082	20.25
279.877	19.25
280.672	18.25
281.467	21.25
282.262	20.25
283.056	20.25
283.851	20.25
284.646	20.25
285.44	19.25
286.234	19.25
287.029	22.25
287.823	20.25
288.617	20.25
289.411	18.25
290.205	18.25
290.999	17.25
291.793	19.25
292.587	19.25
293.381	20.25
294.174	17.25
294.968	18.25
295.761	15.25
296.555	17.25
297.348	15.25
298.141	16.25
298.935	17.25
299.728	15.25
300.521	17.25
301.314	12.25
302.107	12.25
302.899	13.25
303.692	13.25
304.485	14.25
305.277	14.25
306.07	14.25
306.862	14.25
307.655	8.25
308.447	11.25
309.239	9.25
310.031	12.25
310.823	9.25
311.615	10.25
312.407	8.25
313.199	9.25
313.991	9.25
314.783	10.25
315.574	13.25
316.366	9.25
317.157	7.25
317.949	10.25
318.74	8.25
319.531	7.25
320.322	8.25
321.113	8.25
321.904	8.25
322.695	8.25
323.486	9.25
324.277	8.25
325.068	9.25
325.858	6.25
326.649	6.25
327.439	7.25
328.23	5.25
329.02	9.25
329.81	5.25
330.6	8.25
331.391	6.25
332.181	7.25
332.971	6.25
333.76	6.25
334.55	6.25
335.34	6.25
336.13	8.25
336.919	7.25
337.709	5.25
338.498	7.25
339.287	7.25
340.077	7.25
340.866	9.25
341.655	9.25
342.444	5.25
343.233	6.25
344.022	6.25
344.811	5.25
345.6	6.25
346.388	4.25
347.177	5.25
347.965	6.25
348.754	7.25
349.542	7.25
350.33	8.25
351.119	7.25
351.907	6.25
352.695	4.25
353.483	7.25
354.271	5.25
355.059	6.25
355.846	9.25
356.634	6.25
357.422	7.25
358.209	6.25
358.997	7.25
359.784	4.25
360.571	5.25
361.359	7.25
362.146	5.25
362.933	5.25
363.72	6.25
364.507	6.25
365.294	6.25
366.081	3.25
366.867	4.25
367.654	7.25
368.44	4.25
369.227	4.25
370.013	7.25
370.8	5.25
371.586	5.25
372.372	6.25
373.158	7.25
373.944	3.25
374.73	6.25
375.516	6.25
376.302	6.25
377.088	5.25
377.873	6.25
378.659	5.25
379.445	4.25
380.23	5.25
381.015	4.25
381.801	5.25
382.586	7.25
383.371	4.25
384.156	5.25
384.941	5.25
385.726	7.25
386.511	6.25
387.296	6.25
388.08	5.25
388.865	6.25
389.649	6.25
390.434	6.25
391.218	7.25
392.003	6.25
392.787	6.25
393.571	6.25
394.355	4.25
395.139	9.25
395.923	6.25
396.707	9.25
397.491	6.25
398.274	8.25
399.058	9.25
399.842	6.25
400.625	6.25
401.408	8.25
402.192	8.25
402.975	7.25
403.758	3.25
404.541	7.25
405.324	6.25
406.107	7.25
406.89	7.25
407.673	8.25
408.456	7.25
409.238	9.25
410.021	7.25
410.803	8.25
411.586	6.25
412.368	9.25
413.151	6.25
413.933	11.25
414.715	8.25
415.497	10.25
416.279	11.25
417.061	9.25
417.843	7.25
418.624	12.25
419.406	10.25
420.188	11.25
420.969	13.25
421.751	10.25
422.532	12.25
423.313	11.25
424.095	11.25
424.876	13.25
425.657	13.25
426.438	13.25
427.219	13.25
428	12.25
428.78	14.25
429.561	11.25
430.342	17.25
431.122	17.25
431.903	15.25
432.683	19.25
433.464	16.25
434.244	17.25
435.024	19.25
435.804	17.25
436.584	18.25
437.364	19.25
438.144	22.25
438.924	19.25
439.704	24.25
440.483	25.25
441.263	24.25
442.042	26.25
442.822	28.25
443.601	26.25
444.38	29.25
445.16	29.25
445.939	34.25
446.718	37.25
447.497	36.25
448.276	38.25
449.054	41.25
449.833	49.25
450.612	48.25
451.391	56.25
452.169	60.25
452.948	64.25
453.726	70.25
454.504	72.25
455.282	83.25
456.061	96.25
456.839	104.25
457.617	113.25
458.395	120.25
459.172	143.25
459.95	157.25
460.728	167.25
461.506	191.25
462.283	210.25
463.061	237.25
463.838	265.25
464.615	297.25
465.393	329.25
466.17	372.25
466.947	413.25
467.724	449.25
468.501	520.25
469.278	578.25
470.055	645.25
470.831	720.25
471.608	810.25
472.385	898.25
473.161	1007.25
473.938	1118.25
474.714	1257.25
475.49	1380.25
476.266	1527.25
477.043	1702.25
477.819	1905.25
478.595	2127.25
479.371	2351.25
480.146	2587.25
480.922	2873.25
481.698	3218.25
482.473	3540.25
483.249	3895.25
484.024	4353.25
484.8	4790.25
485.575	5264.25
486.35	5856.25
487.126	6473.25
487.901	7108.25
488.676	7837.25
489.451	8665.25
490.225	9542.25
491	10400.25
491.775	11404.25
492.55	12486.25
493.324	13571.25
494.099	14617.25
494.873	15803.25
495.647	17149.25
496.422	18443.25
497.196	19676.25
497.97	20984.25
498.744	22318.25
499.518	23528.25
500.292	24732.25
501.066	25829.25
501.839	26723.25
502.613	27656.25
503.387	28305.25
504.16	28818.25
504.934	29039.25
505.707	28944.25
506.48	28878.25
507.253	28598.25
508.027	28150.25
508.8	27561.25
509.573	26946.25
510.346	26138.25
511.118	25176.25
511.891	24250.25
512.664	23298.25
513.437	22288.25
514.209	21292.25
514.982	20334.25
515.754	19354.25
516.526	18469.25
517.298	17706.25
518.071	16945.25
518.843	16275.25
519.615	15614.25
520.387	15021.25
521.159	14387.25
521.93	13814.25
522.702	13322.25
523.474	12720.25
524.245	12205.25
525.017	11643.25
525.788	11143.25
526.56	10690.25
527.331	10151.25
528.102	9672.25
528.873	9207.25
529.644	8728.25
530.415	8261.25
531.186	7823.25
531.957	7404.25
532.728	6998.25
533.498	6630.25
534.269	6248.25
535.039	5906.25
535.81	5550.25
536.58	5252.25
537.351	4920.25
538.121	4676.25
538.891	4417.25
539.661	4172.25
540.431	3930.25
541.201	3759.25
541.971	3548.25
542.741	3378.25
543.51	3205.25
544.28	3031.25
545.05	2892.25
545.819	2742.25
546.588	2610.25
547.358	2477.25
548.127	2365.25
548.896	2219.25
549.665	2125.25
550.434	2019.25
551.203	1899.25
551.972	1793.25
552.741	1671.25
553.51	1581.25
554.278	1512.25
555.047	1422.25
555.815	1331.25
556.584	1250.25
557.352	1178.25
558.121	1128.25
558.889	1054.25
559.657	1000.25
560.425	940.25
561.193	892.25
561.961	847.25
562.729	788.25
563.496	761.25
564.264	711.25
565.032	670.25
565.799	638.25
566.567	609.25
567.334	556.25
568.101	535.25
568.869	507.25
569.636	475.25
570.403	449.25
571.17	421.25
571.937	405.25
572.704	370.25
573.471	357.25
574.237	331.25
575.004	319.25
575.771	297.25
576.537	280.25
577.303	269.25
578.07	255.25
578.836	232.25
579.602	217.25
580.368	209.25
581.134	198.25
581.9	185.25
582.666	177.25
583.432	166.25
584.198	157.25
584.964	145.25
585.729	141.25
586.495	136.25
587.26	128.25
588.025	121.25
588.791	120.25
589.556	111.25
590.321	106.25
591.086	98.25
591.851	95.25
592.616	93.25
593.381	83.25
594.146	82.25
594.911	77.25
595.675	73.25
596.44	71.25
597.204	69.25
597.969	64.25
598.733	65.25
599.497	61.25
600.261	57.25
601.025	55.25
601.79	51.25
602.553	47.25
603.317	47.25
604.081	44.25
604.845	42.25
605.609	41.25
606.372	39.25
607.136	35.25
607.899	37.25
608.662	37.25
609.426	34.25
610.189	34.25
610.952	29.25
611.715	29.25
612.478	29.25
613.241	30.25
614.004	24.25
614.767	27.25
615.529	27.25
616.292	27.25
617.055	19.25
617.817	23.25
618.579	21.25
619.342	20.25
620.104	22.25
620.866	19.25
621.628	19.25
622.39	19.25
623.152	17.25
623.914	15.25
624.676	17.25
625.438	15.25
626.199	13.25
626.961	17.25
627.722	14.25
628.484	14.25
629.245	13.25
630.006	13.25
630.768	12.25
631.529	13.25
632.29	11.25
633.051	13.25
633.812	13.25
634.573	13.25
635.333	14.25
636.094	10.25
636.855	13.25
637.615	11.25
638.376	10.25
639.136	8.25
639.896	10.25
640.657	11.25
641.417	10.25
642.177	10.25
642.937	8.25
643.697	11.25
644.457	9.25
645.216	6.25
645.976	9.25
646.736	9.25
647.495	9.25
648.255	7.25
649.014	7.25
649.774	6.25
650.533	7.25
651.292	9.25
652.051	7.25
652.81	7.25
653.569	7.25
654.328	5.25
655.087	9.25
655.846	7.25
656.604	6.25
657.363	7.25
658.121	6.25
658.88	8.25
659.638	7.25
660.397	6.25
661.155	7.25
661.913	6.25
662.671	3.25
663.429	4.25
664.187	6.25
664.945	8.25
665.703	7.25
666.46	8.25
667.218	5.25
667.976	3.25
668.733	3.25
669.49	7.25
670.248	6.25
671.005	6.25
671.762	5.25
672.519	4.25
673.276	6.25
674.033	5.25
674.79	5.25
675.547	4.25
676.304	4.25
677.06	5.25
677.817	3.25
678.574	3.25
679.33	4.25
680.086	5.25
680.843	3.25
681.599	3.25
682.355	5.25
683.111	3.25
683.867	3.25
684.623	6.25
685.379	5.25
686.135	4.25
686.89	4.25
687.646	5.25
688.402	5.25
689.157	4.25
689.912	5.25
690.668	2.25
691.423	5.25
692.178	4.25
692.933	5.25
693.688	7.25
694.443	5.25
695.198	4.25
695.953	3.25
696.708	4.25
697.462	4.25
698.217	3.25
698.972	5.25
699.726	4.25
700.48	3.25
701.235	3.25
701.989	2.25
702.743	4.25
703.497	2.25
704.251	5.25
705.005	2.25
705.759	5.25
706.513	6.25
707.266	5.25
708.02	4.25
708.774	5.25
709.527	4.25
710.28	5.25
711.034	1.25
711.787	4.25
712.54	4.25
713.293	3.25
714.046	3.25
714.799	3.25
715.552	2.25
716.305	4.25
717.058	5.25
717.81	3.25
718.563	5.25
719.315	4.25
720.068	3.25
720.82	4.25
721.573	3.25
722.325	5.25
723.077	3.25
723.829	5.25
724.581	5.25
725.333	5.25
726.085	4.25
726.836	3.25
727.588	6.25
728.34	5.25
729.091	6.25
729.843	3.25
730.594	3.25
731.346	5.25
732.097	3.25
732.848	6.25
733.599	4.25
734.35	4.25
735.101	7.25
735.852	2.25
736.603	5.25
737.354	6.25
738.104	5.25
738.855	4.25
739.605	4.25
740.356	6.25
741.106	3.25
741.856	5.25
742.607	6.25
743.357	5.25
744.107	5.25
744.857	5.25
745.607	6.25
746.357	5.25
747.106	5.25
747.856	4.25
748.606	3.25
749.355	7.25
750.105	6.25
750.854	6.25
751.603	6.25
752.353	8.25
753.102	6.25
753.851	5.25
754.6	8.25
755.349	3.25
756.098	7.25
756.847	5.25
757.595	8.25
758.344	7.25
759.093	6.25
759.841	8.25
760.589	6.25
761.338	6.25
762.086	6.25
762.834	5.25
763.582	9.25
764.331	6.25
765.079	6.25
765.826	7.25
766.574	9.25
767.322	8.25
768.07	7.25
768.817	7.25
769.565	8.25
770.312	8.25
771.06	10.25
771.807	7.25
772.554	8.25
773.302	7.25
774.049	8.25
774.796	9.25
775.543	8.25
776.29	11.25
777.036	8.25
777.783	11.25
778.53	7.25
779.276	7.25
780.023	9.25
780.769	8.25
781.516	10.25
782.262	10.25
783.008	8.25
783.754	7.25
784.5	9.25
785.246	9.25
785.992	12.25
786.738	9.25
787.484	11.25
788.23	9.25
788.975	8.25
789.721	12.25
790.466	8.25
791.212	10.25
791.957	8.25
792.702	11.25
793.447	7.25
794.193	11.25
794.938	8.25
795.683	10.25
796.427	9.25
797.172	5.25
797.917	7.25
798.662	7.25
799.406	8.25
800.151	10.25
800.895	7.25
801.64	10.25
802.384	8.25
803.128	7.25
803.872	6.25
804.616	7.25
805.36	6.25
806.104	6.25
806.848	6.25
807.592	7.25
808.336	8.25
809.079	7.25
809.823	7.25
810.566	5.25
811.31	1.25
812.053	5.25
812.796	5.25
813.539	7.25
814.283	6.25
815.026	5.25
815.769	4.25
816.511	6.25
817.254	4.25
817.997	7.25
818.74	4.25
819.482	6.25
820.225	4.25
820.967	6.25
821.71	4.25
822.452	4.25
823.194	4.25
823.936	5.25
824.678	6.25
825.42	5.25
826.162	6.25
826.904	3.25
827.646	5.25
828.388	6.25
829.129	4.25
829.871	6.25
830.612	1.25
831.354	4.25
832.095	4.25
832.836	3.25
833.577	2.25
834.319	1.25
835.06	2.25
835.801	3.25
836.542	5.25
837.282	5.25
838.023	3.25
838.764	3.25
839.504	3.25
840.245	3.25
840.985	4.25
841.726	5.25
842.466	3.25
843.206	2.25
843.946	4.25
844.687	3.25
845.427	2.25
846.166	3.25
846.906	2.25
847.646	3.25
848.386	3.25
849.125	3.25
849.865	3.25
850.605	1.25
851.344	3.25
852.083	3.25
852.823	3.25
853.562	3.25
854.301	3.25
855.04	3.25
855.779	1.25
856.518	1.25
857.257	1.25
857.995	4.25
858.734	1.25
859.473	2.25
860.211	1.25
860.95	2.25
861.688	1.25
862.426	-0.75
863.165	1.25
863.903	4.25
864.641	1.25
865.379	3.25
866.117	2.25
866.855	2.25
867.593	3.25
868.33	0.25
869.068	0.25
869.806	1.25
870.543	1.25
871.28	0.25
872.018	0.25
872.755	2.25
873.492	2.25
874.229	2.25
874.967	3.25
875.703	4.25
876.44	1.25
877.177	1.25
877.914	2.25
878.651	1.25
879.387	1.25
880.124	2.25
880.86	-0.75
881.597	1.25
882.333	1.25
883.069	2.25
883.806	2.25
884.542	3.25
885.278	1.25
886.014	1.25
886.749	2.25
887.485	0.25
888.221	1.25
888.957	1.25
889.692	4.25
890.428	3.25
891.163	0.25
891.899	2.25
892.634	2.25
893.369	1.25
894.104	2.25
894.839	1.25
895.574	2.25
896.309	2.25
897.044	0.25
897.779	3.25
898.514	1.25
899.248	1.25
899.983	1.25
900.717	0.25
901.452	1.25
902.186	1.25
902.92	2.25
903.654	0.25
904.389	1.25
905.123	0.25
905.857	0.25
906.59	-0.75
907.324	1.25
908.058	1.25
908.792	1.25
909.525	2.25
910.259	1.25
910.992	0.25
911.726	0.25
912.459	0.25
913.192	1.25
913.925	0.25
914.658	2.25
915.391	1.25
916.124	1.25
916.857	1.25
917.59	-0.75
918.323	1.25
919.055	1.25
919.788	-0.75
920.521	1.25
921.253	0.25
921.985	1.25
922.718	1.25
923.45	3.25
924.182	1.25
924.914	0.25
925.646	0.25
926.378	-0.75
927.11	2.25
927.841	0.25
928.573	2.25
929.305	1.25
930.036	0.25
930.768	0.25
931.499	3.25
932.23	0.25
932.962	-0.75
933.693	-0.75
934.424	2.25
935.155	-0.75
935.886	3.25
936.617	2.25
937.348	-0.75
938.078	2.25
938.809	-2.75
939.54	-0.75
940.27	0.25
941.001	0.25
941.731	0.25
942.461	0.25
943.191	-0.75
943.922	0.25
944.652	2.25
945.382	1.25
946.112	3.25
946.841	0.25
947.571	1.25
948.301	1.25
949.031	-2.75
949.76	3.25
950.49	1.25
951.219	-0.75
951.948	2.25
952.678	1.25
953.407	0.25
954.136	2.25
954.865	1.25
955.594	2.25
956.323	1.25
957.052	2.25
957.78	1.25
958.509	2.25
959.238	1.25
959.966	0.25
960.695	2.25
961.423	-0.75
962.151	3.25
962.88	1.25
963.608	-0.75
964.336	-0.75
965.064	1.25
965.792	1.25
966.52	1.25
967.247	1.25
967.975	1.25
968.703	1.25
969.43	3.25
970.158	-0.75
970.885	0.25
971.613	1.25
972.34	3.25
973.067	1.25
973.794	0.25
974.521	1.25
975.248	-1.75
975.975	0.25
976.702	0.25
977.429	1.25
978.156	0.25
978.882	0.25
979.609	3.25
980.335	0.25
981.062	1.25
981.788	0.25
982.514	-0.75
983.24	1.25
983.967	1.25
984.693	0.25
985.419	-0.75
986.144	1.25
986.87	1.25
987.596	-1.75
988.322	0.25
989.047	0.25
989.773	0.25
990.498	0.25
991.224	-0.75
991.949	-0.75
992.674	-0.75
993.399	3.25
994.124	-0.75
994.849	2.25
995.574	1.25
996.299	-2.75
997.024	2.25
997.749	0.25
998.473	1.25
999.198	-0.75
999.922	1.25
1000.647	2.25
1001.371	4.25
1002.095	-1.75
1002.82	-0.75
1003.544	-2.75
1004.268	0.25
1004.992	-0.75
1005.716	0.25
1006.439	0.25
1007.163	1.25
1007.887	1.25
1008.611	1.25
1009.334	1.25
1010.058	1.25
1010.781	0.25
1011.504	1.25
1012.228	-0.75
1012.951	1.25
1013.674	-1.75
1014.397	1.25
1015.12	0.25
