节点500_285_QEPB04081__238__14-59-30-941.txt的数据

Date: Wed Nov 12 14:59:30 CST 2025
User: PC
Spectrometer: QEPB0408
触发模式: 0
积分时间 (秒): 1.000000E-2
Scans to average: 1
启用暗噪声校正: true
启用非线性校正: false
滑动平均宽度: 0
X轴模式: Wavelengths
Number of Pixels in Spectrum: 1044
>>>>>Begin Spectral Data<<<<<
220.843	1.62
221.644	2.62
222.444	3.62
223.244	0.62
224.045	2.62
224.845	5.62
225.645	1.62
226.445	2.62
227.245	1.62
228.045	2.62
228.845	1.62
229.645	2.62
230.444	2.62
231.244	2.62
232.043	5.62
232.843	1.62
233.642	0.62
234.442	3.62
235.241	3.62
236.04	2.62
236.839	2.62
237.638	4.62
238.437	4.62
239.236	3.62
240.035	4.62
240.833	4.62
241.632	5.62
242.43	3.62
243.229	5.62
244.027	4.62
244.826	4.62
245.624	3.62
246.422	5.62
247.22	6.62
248.018	7.62
248.816	5.62
249.614	6.62
250.412	5.62
251.21	5.62
252.007	5.62
252.805	8.62
253.602	7.62
254.4	5.62
255.197	7.62
255.994	7.62
256.791	10.62
257.589	9.62
258.386	10.62
259.183	10.62
259.979	8.62
260.776	10.62
261.573	9.62
262.37	12.62
263.166	9.62
263.963	12.62
264.759	12.62
265.556	12.62
266.352	12.62
267.148	12.62
267.944	13.62
268.74	13.62
269.536	15.62
270.332	16.62
271.128	15.62
271.924	17.62
272.719	15.62
273.515	15.62
274.311	17.62
275.106	16.62
275.901	15.62
276.697	17.62
277.492	17.62
278.287	17.62
279.082	21.62
279.877	18.62
280.672	19.62
281.467	18.62
282.262	17.62
283.056	17.62
283.851	20.62
284.646	16.62
285.44	18.62
286.234	18.62
287.029	17.62
287.823	17.62
288.617	16.62
289.411	15.62
290.205	16.62
290.999	17.62
291.793	16.62
292.587	18.62
293.381	16.62
294.174	19.62
294.968	16.62
295.761	17.62
296.555	16.62
297.348	15.62
298.141	14.62
298.935	18.62
299.728	13.62
300.521	16.62
301.314	16.62
302.107	15.62
302.899	13.62
303.692	12.62
304.485	14.62
305.277	11.62
306.07	14.62
306.862	13.62
307.655	11.62
308.447	11.62
309.239	13.62
310.031	12.62
310.823	10.62
311.615	12.62
312.407	11.62
313.199	8.62
313.991	9.62
314.783	8.62
315.574	9.62
316.366	6.62
317.157	8.62
317.949	8.62
318.74	7.62
319.531	6.62
320.322	7.62
321.113	8.62
321.904	6.62
322.695	6.62
323.486	9.62
324.277	6.62
325.068	8.62
325.858	8.62
326.649	5.62
327.439	6.62
328.23	5.62
329.02	6.62
329.81	6.62
330.6	9.62
331.391	6.62
332.181	4.62
332.971	6.62
333.76	6.62
334.55	7.62
335.34	5.62
336.13	4.62
336.919	6.62
337.709	8.62
338.498	7.62
339.287	6.62
340.077	5.62
340.866	6.62
341.655	4.62
342.444	6.62
343.233	7.62
344.022	3.62
344.811	4.62
345.6	5.62
346.388	5.62
347.177	6.62
347.965	6.62
348.754	5.62
349.542	5.62
350.33	8.62
351.119	5.62
351.907	7.62
352.695	6.62
353.483	4.62
354.271	5.62
355.059	7.62
355.846	2.62
356.634	8.62
357.422	5.62
358.209	4.62
358.997	7.62
359.784	4.62
360.571	6.62
361.359	5.62
362.146	6.62
362.933	6.62
363.72	3.62
364.507	6.62
365.294	3.62
366.081	7.62
366.867	5.62
367.654	2.62
368.44	6.62
369.227	6.62
370.013	5.62
370.8	3.62
371.586	2.62
372.372	5.62
373.158	4.62
373.944	1.62
374.73	4.62
375.516	3.62
376.302	5.62
377.088	4.62
377.873	5.62
378.659	2.62
379.445	5.62
380.23	4.62
381.015	6.62
381.801	5.62
382.586	3.62
383.371	7.62
384.156	5.62
384.941	4.62
385.726	7.62
386.511	4.62
387.296	6.62
388.08	6.62
388.865	5.62
389.649	4.62
390.434	5.62
391.218	4.62
392.003	6.62
392.787	8.62
393.571	6.62
394.355	5.62
395.139	7.62
395.923	6.62
396.707	6.62
397.491	4.62
398.274	6.62
399.058	5.62
399.842	6.62
400.625	5.62
401.408	6.62
402.192	9.62
402.975	5.62
403.758	9.62
404.541	6.62
405.324	7.62
406.107	8.62
406.89	5.62
407.673	7.62
408.456	6.62
409.238	6.62
410.021	8.62
410.803	8.62
411.586	10.62
412.368	8.62
413.151	9.62
413.933	8.62
414.715	9.62
415.497	10.62
416.279	9.62
417.061	9.62
417.843	8.62
418.624	9.62
419.406	9.62
420.188	10.62
420.969	10.62
421.751	9.62
422.532	10.62
423.313	11.62
424.095	10.62
424.876	14.62
425.657	10.62
426.438	14.62
427.219	10.62
428	14.62
428.78	14.62
429.561	12.62
430.342	15.62
431.122	12.62
431.903	14.62
432.683	14.62
433.464	15.62
434.244	16.62
435.024	18.62
435.804	16.62
436.584	16.62
437.364	17.62
438.144	20.62
438.924	22.62
439.704	25.62
440.483	21.62
441.263	23.62
442.042	26.62
442.822	27.62
443.601	27.62
444.38	30.62
445.16	31.62
445.939	32.62
446.718	35.62
447.497	37.62
448.276	39.62
449.054	44.62
449.833	48.62
450.612	50.62
451.391	55.62
452.169	61.62
452.948	65.62
453.726	73.62
454.504	76.62
455.282	86.62
456.061	96.62
456.839	105.62
457.617	113.62
458.395	133.62
459.172	149.62
459.95	168.62
460.728	175.62
461.506	202.62
462.283	223.62
463.061	246.62
463.838	281.62
464.615	313.62
465.393	347.62
466.17	397.62
466.947	438.62
467.724	485.62
468.501	544.62
469.278	613.62
470.055	674.62
470.831	747.62
471.608	846.62
472.385	935.62
473.161	1038.62
473.938	1148.62
474.714	1279.62
475.49	1419.62
476.266	1559.62
477.043	1747.62
477.819	1899.62
478.595	2109.62
479.371	2343.62
480.146	2600.62
480.922	2864.62
481.698	3161.62
482.473	3493.62
483.249	3849.62
484.024	4232.62
484.8	4675.62
485.575	5126.62
486.35	5653.62
487.126	6200.62
487.901	6839.62
488.676	7462.62
489.451	8228.62
490.225	9033.62
491	9839.62
491.775	10769.62
492.55	11729.62
493.324	12785.62
494.099	13745.62
494.873	14761.62
495.647	15949.62
496.422	17156.62
497.196	18354.62
497.97	19605.62
498.744	20818.62
499.518	21990.62
500.292	23145.62
501.066	24272.62
501.839	25245.62
502.613	26089.62
503.387	26845.62
504.16	27483.62
504.934	27743.62
505.707	27988.62
506.48	27886.62
507.253	27767.62
508.027	27454.62
508.8	27067.62
509.573	26539.62
510.346	25907.62
511.118	25136.62
511.891	24273.62
512.664	23454.62
513.437	22436.62
514.209	21433.62
514.982	20627.62
515.754	19711.62
516.526	18793.62
517.298	17968.62
518.071	17220.62
518.843	16577.62
519.615	15915.62
520.387	15285.62
521.159	14663.62
521.93	14078.62
522.702	13521.62
523.474	12952.62
524.245	12383.62
525.017	11860.62
525.788	11383.62
526.56	10882.62
527.331	10386.62
528.102	9904.62
528.873	9431.62
529.644	8923.62
530.415	8555.62
531.186	8060.62
531.957	7665.62
532.728	7233.62
533.498	6867.62
534.269	6526.62
535.039	6138.62
535.81	5784.62
536.58	5460.62
537.351	5114.62
538.121	4831.62
538.891	4624.62
539.661	4337.62
540.431	4113.62
541.201	3887.62
541.971	3696.62
542.741	3490.62
543.51	3304.62
544.28	3183.62
545.05	3001.62
545.819	2847.62
546.588	2712.62
547.358	2582.62
548.127	2441.62
548.896	2310.62
549.665	2212.62
550.434	2082.62
551.203	1983.62
551.972	1864.62
552.741	1760.62
553.51	1661.62
554.278	1579.62
555.047	1488.62
555.815	1409.62
556.584	1328.62
557.352	1244.62
558.121	1179.62
558.889	1108.62
559.657	1070.62
560.425	993.62
561.193	937.62
561.961	872.62
562.729	832.62
563.496	800.62
564.264	741.62
565.032	714.62
565.799	669.62
566.567	624.62
567.334	600.62
568.101	555.62
568.869	521.62
569.636	508.62
570.403	467.62
571.17	453.62
571.937	415.62
572.704	396.62
573.471	367.62
574.237	346.62
575.004	338.62
575.771	311.62
576.537	293.62
577.303	276.62
578.07	258.62
578.836	239.62
579.602	232.62
580.368	217.62
581.134	210.62
581.9	204.62
582.666	187.62
583.432	177.62
584.198	168.62
584.964	161.62
585.729	147.62
586.495	140.62
587.26	139.62
588.025	130.62
588.791	119.62
589.556	113.62
590.321	103.62
591.086	108.62
591.851	101.62
592.616	93.62
593.381	93.62
594.146	84.62
594.911	80.62
595.675	78.62
596.44	72.62
597.204	73.62
597.969	61.62
598.733	61.62
599.497	64.62
600.261	56.62
601.025	51.62
601.79	56.62
602.553	48.62
603.317	46.62
604.081	43.62
604.845	42.62
605.609	45.62
606.372	38.62
607.136	41.62
607.899	32.62
608.662	33.62
609.426	35.62
610.189	34.62
610.952	31.62
611.715	30.62
612.478	32.62
613.241	26.62
614.004	27.62
614.767	28.62
615.529	23.62
616.292	26.62
617.055	20.62
617.817	21.62
618.579	23.62
619.342	21.62
620.104	19.62
620.866	22.62
621.628	19.62
622.39	19.62
623.152	17.62
623.914	17.62
624.676	16.62
625.438	17.62
626.199	15.62
626.961	15.62
627.722	15.62
628.484	15.62
629.245	15.62
630.006	12.62
630.768	14.62
631.529	13.62
632.29	12.62
633.051	13.62
633.812	12.62
634.573	11.62
635.333	9.62
636.094	12.62
636.855	10.62
637.615	10.62
638.376	11.62
639.136	9.62
639.896	10.62
640.657	10.62
641.417	8.62
642.177	9.62
642.937	9.62
643.697	9.62
644.457	9.62
645.216	7.62
645.976	6.62
646.736	7.62
647.495	8.62
648.255	7.62
649.014	7.62
649.774	8.62
650.533	5.62
651.292	7.62
652.051	7.62
652.81	7.62
653.569	6.62
654.328	6.62
655.087	4.62
655.846	6.62
656.604	4.62
657.363	6.62
658.121	6.62
658.88	6.62
659.638	5.62
660.397	5.62
661.155	6.62
661.913	4.62
662.671	8.62
663.429	4.62
664.187	7.62
664.945	7.62
665.703	5.62
666.46	3.62
667.218	2.62
667.976	5.62
668.733	4.62
669.49	3.62
670.248	4.62
671.005	4.62
671.762	4.62
672.519	4.62
673.276	3.62
674.033	7.62
674.79	4.62
675.547	3.62
676.304	4.62
677.06	5.62
677.817	2.62
678.574	3.62
679.33	5.62
680.086	3.62
680.843	5.62
681.599	3.62
682.355	4.62
683.111	3.62
683.867	3.62
684.623	4.62
685.379	7.62
686.135	1.62
686.89	3.62
687.646	4.62
688.402	5.62
689.157	4.62
689.912	3.62
690.668	6.62
691.423	4.62
692.178	5.62
692.933	3.62
693.688	4.62
694.443	4.62
695.198	1.62
695.953	4.62
696.708	3.62
697.462	1.62
698.217	3.62
698.972	5.62
699.726	4.62
700.48	4.62
701.235	4.62
701.989	4.62
702.743	4.62
703.497	4.62
704.251	1.62
705.005	3.62
705.759	3.62
706.513	3.62
707.266	3.62
708.02	2.62
708.774	1.62
709.527	4.62
710.28	3.62
711.034	3.62
711.787	3.62
712.54	4.62
713.293	1.62
714.046	1.62
714.799	3.62
715.552	2.62
716.305	4.62
717.058	3.62
717.81	3.62
718.563	5.62
719.315	5.62
720.068	6.62
720.82	4.62
721.573	3.62
722.325	3.62
723.077	4.62
723.829	4.62
724.581	2.62
725.333	3.62
726.085	3.62
726.836	4.62
727.588	4.62
728.34	6.62
729.091	3.62
729.843	5.62
730.594	6.62
731.346	5.62
732.097	3.62
732.848	2.62
733.599	3.62
734.35	6.62
735.101	4.62
735.852	5.62
736.603	4.62
737.354	3.62
738.104	4.62
738.855	4.62
739.605	2.62
740.356	3.62
741.106	4.62
741.856	4.62
742.607	5.62
743.357	6.62
744.107	4.62
744.857	3.62
745.607	3.62
746.357	5.62
747.106	6.62
747.856	7.62
748.606	6.62
749.355	5.62
750.105	5.62
750.854	4.62
751.603	6.62
752.353	6.62
753.102	4.62
753.851	6.62
754.6	5.62
755.349	5.62
756.098	1.62
756.847	3.62
757.595	5.62
758.344	5.62
759.093	8.62
759.841	6.62
760.589	5.62
761.338	5.62
762.086	7.62
762.834	8.62
763.582	4.62
764.331	7.62
765.079	6.62
765.826	7.62
766.574	8.62
767.322	6.62
768.07	7.62
768.817	7.62
769.565	7.62
770.312	9.62
771.06	9.62
771.807	9.62
772.554	8.62
773.302	6.62
774.049	6.62
774.796	7.62
775.543	7.62
776.29	8.62
777.036	9.62
777.783	9.62
778.53	11.62
779.276	8.62
780.023	9.62
780.769	8.62
781.516	9.62
782.262	8.62
783.008	8.62
783.754	9.62
784.5	11.62
785.246	7.62
785.992	8.62
786.738	9.62
787.484	8.62
788.23	9.62
788.975	11.62
789.721	9.62
790.466	7.62
791.212	6.62
791.957	8.62
792.702	9.62
793.447	9.62
794.193	8.62
794.938	8.62
795.683	9.62
796.427	9.62
797.172	8.62
797.917	9.62
798.662	9.62
799.406	7.62
800.151	8.62
800.895	6.62
801.64	10.62
802.384	8.62
803.128	7.62
803.872	8.62
804.616	6.62
805.36	6.62
806.104	5.62
806.848	6.62
807.592	8.62
808.336	6.62
809.079	4.62
809.823	4.62
810.566	6.62
811.31	4.62
812.053	4.62
812.796	6.62
813.539	2.62
814.283	4.62
815.026	6.62
815.769	6.62
816.511	4.62
817.254	5.62
817.997	5.62
818.74	5.62
819.482	4.62
820.225	2.62
820.967	4.62
821.71	4.62
822.452	2.62
823.194	6.62
823.936	3.62
824.678	2.62
825.42	5.62
826.162	4.62
826.904	4.62
827.646	2.62
828.388	6.62
829.129	4.62
829.871	5.62
830.612	3.62
831.354	5.62
832.095	2.62
832.836	3.62
833.577	2.62
834.319	3.62
835.06	4.62
835.801	1.62
836.542	1.62
837.282	3.62
838.023	1.62
838.764	5.62
839.504	3.62
840.245	2.62
840.985	3.62
841.726	3.62
842.466	4.62
843.206	2.62
843.946	3.62
844.687	3.62
845.427	1.62
846.166	2.62
846.906	2.62
847.646	3.62
848.386	-0.38
849.125	3.62
849.865	1.62
850.605	3.62
851.344	2.62
852.083	2.62
852.823	2.62
853.562	1.62
854.301	2.62
855.04	2.62
855.779	1.62
856.518	3.62
857.257	1.62
857.995	2.62
858.734	0.62
859.473	2.62
860.211	0.62
860.95	3.62
861.688	3.62
862.426	-0.38
863.165	3.62
863.903	0.62
864.641	1.62
865.379	1.62
866.117	0.62
866.855	0.62
867.593	-0.38
868.33	-0.38
869.068	0.62
869.806	1.62
870.543	1.62
871.28	0.62
872.018	2.62
872.755	2.62
873.492	0.62
874.229	1.62
874.967	-0.38
875.703	2.62
876.44	2.62
877.177	1.62
877.914	2.62
878.651	2.62
879.387	2.62
880.124	1.62
880.86	2.62
881.597	1.62
882.333	1.62
883.069	0.62
883.806	0.62
884.542	1.62
885.278	-1.38
886.014	1.62
886.749	0.62
887.485	0.62
888.221	3.62
888.957	-0.38
889.692	2.62
890.428	0.62
891.163	1.62
891.899	-0.38
892.634	-0.38
893.369	4.62
894.104	-2.38
894.839	1.62
895.574	0.62
896.309	1.62
897.044	0.62
897.779	1.62
898.514	1.62
899.248	0.62
899.983	1.62
900.717	0.62
901.452	0.62
902.186	1.62
902.92	0.62
903.654	0.62
904.389	1.62
905.123	0.62
905.857	1.62
906.59	0.62
907.324	-1.38
908.058	-0.38
908.792	1.62
909.525	-1.38
910.259	0.62
910.992	1.62
911.726	1.62
912.459	-0.38
913.192	1.62
913.925	1.62
914.658	1.62
915.391	-0.38
916.124	0.62
916.857	-0.38
917.59	0.62
918.323	1.62
919.055	-1.38
919.788	2.62
920.521	-1.38
921.253	1.62
921.985	2.62
922.718	-0.38
923.45	1.62
924.182	1.62
924.914	-1.38
925.646	0.62
926.378	1.62
927.11	-2.38
927.841	0.62
928.573	2.62
929.305	0.62
930.036	-1.38
930.768	-1.38
931.499	1.62
932.23	0.62
932.962	-0.38
933.693	0.62
934.424	-0.38
935.155	1.62
935.886	-0.38
936.617	1.62
937.348	-0.38
938.078	-2.38
938.809	1.62
939.54	-0.38
940.27	1.62
941.001	-0.38
941.731	-1.38
942.461	1.62
943.191	1.62
943.922	-0.38
944.652	-0.38
945.382	-1.38
946.112	-0.38
946.841	0.62
947.571	-1.38
948.301	0.62
949.031	1.62
949.76	-0.38
950.49	0.62
951.219	0.62
951.948	-0.38
952.678	0.62
953.407	-0.38
954.136	-0.38
954.865	-0.38
955.594	0.62
956.323	-1.38
957.052	-1.38
957.78	1.62
958.509	0.62
959.238	0.62
959.966	-0.38
960.695	-1.38
961.423	-0.38
962.151	0.62
962.88	0.62
963.608	2.62
964.336	1.62
965.064	0.62
965.792	0.62
966.52	0.62
967.247	0.62
967.975	4.62
968.703	0.62
969.43	-1.38
970.158	-0.38
970.885	-1.38
971.613	1.62
972.34	-0.38
973.067	1.62
973.794	-1.38
974.521	0.62
975.248	0.62
975.975	-0.38
976.702	0.62
977.429	2.62
978.156	0.62
978.882	0.62
979.609	-2.38
980.335	-0.38
981.062	1.62
981.788	0.62
982.514	1.62
983.24	0.62
983.967	1.62
984.693	-1.38
985.419	0.62
986.144	-0.38
986.87	-1.38
987.596	-0.38
988.322	-1.38
989.047	0.62
989.773	-0.38
990.498	-0.38
991.224	-0.38
991.949	-1.38
992.674	2.62
993.399	1.62
994.124	-1.38
994.849	-0.38
995.574	-2.38
996.299	0.62
997.024	0.62
997.749	1.62
998.473	1.62
999.198	0.62
999.922	0.62
1000.647	-0.38
1001.371	5.62
1002.095	-2.38
1002.82	-1.38
1003.544	-0.38
1004.268	1.62
1004.992	2.62
1005.716	1.62
1006.439	1.62
1007.163	2.62
1007.887	2.62
1008.611	0.62
1009.334	-0.38
1010.058	-0.38
1010.781	-0.38
1011.504	-0.38
1012.228	-0.38
1012.951	-2.38
1013.674	-1.38
1014.397	-0.38
1015.12	2.62
