节点500_285_QEPB04081__583__15-05-15-201.txt的数据

Date: Wed Nov 12 15:05:15 CST 2025
User: PC
Spectrometer: QEPB0408
触发模式: 0
积分时间 (秒): 1.000000E-2
Scans to average: 1
启用暗噪声校正: true
启用非线性校正: false
滑动平均宽度: 0
X轴模式: Wavelengths
Number of Pixels in Spectrum: 1044
>>>>>Begin Spectral Data<<<<<
220.843	2.38
221.644	1.38
222.444	3.38
223.244	2.38
224.045	2.38
224.845	3.38
225.645	2.38
226.445	1.38
227.245	1.38
228.045	2.38
228.845	2.38
229.645	4.38
230.444	0.38
231.244	2.38
232.043	1.38
232.843	2.38
233.642	5.38
234.442	4.38
235.241	3.38
236.04	3.38
236.839	4.38
237.638	4.38
238.437	4.38
239.236	4.38
240.035	5.38
240.833	3.38
241.632	6.38
242.43	3.38
243.229	6.38
244.027	7.38
244.826	4.38
245.624	7.38
246.422	6.38
247.22	7.38
248.018	6.38
248.816	6.38
249.614	7.38
250.412	5.38
251.21	5.38
252.007	5.38
252.805	5.38
253.602	7.38
254.4	6.38
255.197	6.38
255.994	7.38
256.791	9.38
257.589	7.38
258.386	8.38
259.183	8.38
259.979	9.38
260.776	9.38
261.573	9.38
262.37	10.38
263.166	10.38
263.963	10.38
264.759	12.38
265.556	12.38
266.352	8.38
267.148	9.38
267.944	11.38
268.74	10.38
269.536	17.38
270.332	13.38
271.128	14.38
271.924	15.38
272.719	17.38
273.515	14.38
274.311	15.38
275.106	17.38
275.901	14.38
276.697	17.38
277.492	17.38
278.287	18.38
279.082	18.38
279.877	20.38
280.672	16.38
281.467	19.38
282.262	16.38
283.056	20.38
283.851	17.38
284.646	16.38
285.44	20.38
286.234	19.38
287.029	20.38
287.823	19.38
288.617	18.38
289.411	18.38
290.205	19.38
290.999	19.38
291.793	18.38
292.587	21.38
293.381	17.38
294.174	16.38
294.968	17.38
295.761	17.38
296.555	14.38
297.348	14.38
298.141	14.38
298.935	15.38
299.728	14.38
300.521	13.38
301.314	15.38
302.107	14.38
302.899	11.38
303.692	14.38
304.485	14.38
305.277	12.38
306.07	13.38
306.862	11.38
307.655	11.38
308.447	12.38
309.239	11.38
310.031	13.38
310.823	11.38
311.615	10.38
312.407	10.38
313.199	11.38
313.991	9.38
314.783	10.38
315.574	10.38
316.366	9.38
317.157	9.38
317.949	8.38
318.74	9.38
319.531	7.38
320.322	7.38
321.113	10.38
321.904	7.38
322.695	7.38
323.486	6.38
324.277	7.38
325.068	8.38
325.858	6.38
326.649	7.38
327.439	8.38
328.23	9.38
329.02	4.38
329.81	7.38
330.6	5.38
331.391	7.38
332.181	7.38
332.971	6.38
333.76	9.38
334.55	5.38
335.34	7.38
336.13	9.38
336.919	6.38
337.709	7.38
338.498	7.38
339.287	7.38
340.077	5.38
340.866	6.38
341.655	6.38
342.444	5.38
343.233	7.38
344.022	9.38
344.811	6.38
345.6	6.38
346.388	6.38
347.177	5.38
347.965	4.38
348.754	9.38
349.542	6.38
350.33	7.38
351.119	7.38
351.907	8.38
352.695	6.38
353.483	4.38
354.271	6.38
355.059	6.38
355.846	5.38
356.634	4.38
357.422	8.38
358.209	8.38
358.997	4.38
359.784	6.38
360.571	6.38
361.359	5.38
362.146	6.38
362.933	4.38
363.72	6.38
364.507	6.38
365.294	5.38
366.081	5.38
366.867	4.38
367.654	5.38
368.44	2.38
369.227	7.38
370.013	4.38
370.8	5.38
371.586	6.38
372.372	5.38
373.158	6.38
373.944	3.38
374.73	5.38
375.516	7.38
376.302	6.38
377.088	5.38
377.873	4.38
378.659	5.38
379.445	4.38
380.23	5.38
381.015	5.38
381.801	4.38
382.586	4.38
383.371	5.38
384.156	6.38
384.941	5.38
385.726	5.38
386.511	3.38
387.296	4.38
388.08	5.38
388.865	4.38
389.649	6.38
390.434	6.38
391.218	5.38
392.003	6.38
392.787	7.38
393.571	5.38
394.355	6.38
395.139	6.38
395.923	5.38
396.707	6.38
397.491	6.38
398.274	4.38
399.058	5.38
399.842	6.38
400.625	7.38
401.408	5.38
402.192	6.38
402.975	7.38
403.758	5.38
404.541	9.38
405.324	9.38
406.107	5.38
406.89	9.38
407.673	9.38
408.456	7.38
409.238	8.38
410.021	6.38
410.803	9.38
411.586	8.38
412.368	8.38
413.151	10.38
413.933	10.38
414.715	8.38
415.497	10.38
416.279	12.38
417.061	11.38
417.843	12.38
418.624	9.38
419.406	8.38
420.188	9.38
420.969	10.38
421.751	11.38
422.532	12.38
423.313	10.38
424.095	11.38
424.876	13.38
425.657	12.38
426.438	13.38
427.219	12.38
428	14.38
428.78	15.38
429.561	12.38
430.342	13.38
431.122	14.38
431.903	13.38
432.683	17.38
433.464	17.38
434.244	16.38
435.024	19.38
435.804	18.38
436.584	17.38
437.364	19.38
438.144	20.38
438.924	21.38
439.704	22.38
440.483	22.38
441.263	22.38
442.042	25.38
442.822	25.38
443.601	30.38
444.38	29.38
445.16	32.38
445.939	36.38
446.718	36.38
447.497	40.38
448.276	43.38
449.054	47.38
449.833	51.38
450.612	56.38
451.391	62.38
452.169	65.38
452.948	70.38
453.726	79.38
454.504	87.38
455.282	96.38
456.061	107.38
456.839	122.38
457.617	130.38
458.395	142.38
459.172	158.38
459.95	179.38
460.728	201.38
461.506	218.38
462.283	247.38
463.061	276.38
463.838	302.38
464.615	349.38
465.393	378.38
466.17	425.38
466.947	468.38
467.724	531.38
468.501	579.38
469.278	647.38
470.055	722.38
470.831	790.38
471.608	884.38
472.385	980.38
473.161	1092.38
473.938	1205.38
474.714	1317.38
475.49	1464.38
476.266	1601.38
477.043	1777.38
477.819	1950.38
478.595	2149.38
479.371	2336.38
480.146	2586.38
480.922	2834.38
481.698	3118.38
482.473	3393.38
483.249	3732.38
484.024	4101.38
484.8	4511.38
485.575	4912.38
486.35	5394.38
487.126	5870.38
487.901	6404.38
488.676	7034.38
489.451	7656.38
490.225	8338.38
491	9104.38
491.775	9933.38
492.55	10774.38
493.324	11672.38
494.099	12494.38
494.873	13464.38
495.647	14481.38
496.422	15528.38
497.196	16644.38
497.97	17732.38
498.744	18840.38
499.518	20026.38
500.292	21092.38
501.066	22110.38
501.839	23036.38
502.613	23957.38
503.387	24758.38
504.16	25429.38
504.934	25928.38
505.707	26167.38
506.48	26292.38
507.253	26377.38
508.027	26249.38
508.8	26041.38
509.573	25791.38
510.346	25364.38
511.118	24696.38
511.891	24068.38
512.664	23238.38
513.437	22541.38
514.209	21628.38
514.982	20790.38
515.754	19956.38
516.526	19104.38
517.298	18298.38
518.071	17525.38
518.843	16874.38
519.615	16205.38
520.387	15609.38
521.159	14913.38
521.93	14340.38
522.702	13809.38
523.474	13215.38
524.245	12676.38
525.017	12102.38
525.788	11674.38
526.56	11141.38
527.331	10607.38
528.102	10156.38
528.873	9673.38
529.644	9216.38
530.415	8797.38
531.186	8369.38
531.957	7991.38
532.728	7571.38
533.498	7175.38
534.269	6820.38
535.039	6464.38
535.81	6087.38
536.58	5739.38
537.351	5414.38
538.121	5122.38
538.891	4860.38
539.661	4582.38
540.431	4334.38
541.201	4089.38
541.971	3885.38
542.741	3679.38
543.51	3501.38
544.28	3318.38
545.05	3168.38
545.819	2990.38
546.588	2849.38
547.358	2748.38
548.127	2578.38
548.896	2464.38
549.665	2320.38
550.434	2182.38
551.203	2096.38
551.972	1971.38
552.741	1877.38
553.51	1783.38
554.278	1680.38
555.047	1580.38
555.815	1484.38
556.584	1408.38
557.352	1342.38
558.121	1255.38
558.889	1209.38
559.657	1120.38
560.425	1060.38
561.193	1010.38
561.961	946.38
562.729	894.38
563.496	842.38
564.264	800.38
565.032	756.38
565.799	723.38
566.567	682.38
567.334	644.38
568.101	601.38
568.869	565.38
569.636	532.38
570.403	505.38
571.17	476.38
571.937	454.38
572.704	420.38
573.471	401.38
574.237	378.38
575.004	360.38
575.771	335.38
576.537	319.38
577.303	300.38
578.07	282.38
578.836	265.38
579.602	247.38
580.368	229.38
581.134	226.38
581.9	216.38
582.666	197.38
583.432	188.38
584.198	181.38
584.964	173.38
585.729	160.38
586.495	153.38
587.26	145.38
588.025	136.38
588.791	128.38
589.556	122.38
590.321	114.38
591.086	108.38
591.851	105.38
592.616	100.38
593.381	95.38
594.146	91.38
594.911	84.38
595.675	80.38
596.44	80.38
597.204	73.38
597.969	69.38
598.733	68.38
599.497	68.38
600.261	63.38
601.025	60.38
601.79	55.38
602.553	53.38
603.317	54.38
604.081	51.38
604.845	52.38
605.609	46.38
606.372	45.38
607.136	43.38
607.899	42.38
608.662	38.38
609.426	35.38
610.189	37.38
610.952	37.38
611.715	32.38
612.478	32.38
613.241	28.38
614.004	31.38
614.767	29.38
615.529	28.38
616.292	27.38
617.055	26.38
617.817	26.38
618.579	23.38
619.342	24.38
620.104	24.38
620.866	21.38
621.628	23.38
622.39	20.38
623.152	19.38
623.914	18.38
624.676	18.38
625.438	19.38
626.199	17.38
626.961	17.38
627.722	14.38
628.484	15.38
629.245	14.38
630.006	16.38
630.768	14.38
631.529	12.38
632.29	14.38
633.051	14.38
633.812	14.38
634.573	13.38
635.333	14.38
636.094	11.38
636.855	12.38
637.615	10.38
638.376	10.38
639.136	8.38
639.896	11.38
640.657	9.38
641.417	9.38
642.177	11.38
642.937	8.38
643.697	10.38
644.457	9.38
645.216	8.38
645.976	8.38
646.736	5.38
647.495	7.38
648.255	7.38
649.014	9.38
649.774	10.38
650.533	5.38
651.292	6.38
652.051	7.38
652.81	5.38
653.569	7.38
654.328	9.38
655.087	6.38
655.846	9.38
656.604	5.38
657.363	7.38
658.121	4.38
658.88	7.38
659.638	6.38
660.397	6.38
661.155	8.38
661.913	6.38
662.671	7.38
663.429	5.38
664.187	4.38
664.945	3.38
665.703	4.38
666.46	5.38
667.218	4.38
667.976	7.38
668.733	3.38
669.49	3.38
670.248	6.38
671.005	2.38
671.762	5.38
672.519	1.38
673.276	3.38
674.033	4.38
674.79	5.38
675.547	4.38
676.304	2.38
677.06	5.38
677.817	5.38
678.574	6.38
679.33	5.38
680.086	5.38
680.843	4.38
681.599	5.38
682.355	6.38
683.111	4.38
683.867	4.38
684.623	2.38
685.379	2.38
686.135	5.38
686.89	3.38
687.646	6.38
688.402	3.38
689.157	2.38
689.912	4.38
690.668	4.38
691.423	4.38
692.178	2.38
692.933	6.38
693.688	2.38
694.443	3.38
695.198	4.38
695.953	5.38
696.708	6.38
697.462	3.38
698.217	4.38
698.972	4.38
699.726	2.38
700.48	4.38
701.235	2.38
701.989	5.38
702.743	5.38
703.497	5.38
704.251	4.38
705.005	3.38
705.759	4.38
706.513	3.38
707.266	2.38
708.02	5.38
708.774	1.38
709.527	3.38
710.28	5.38
711.034	4.38
711.787	5.38
712.54	4.38
713.293	3.38
714.046	4.38
714.799	2.38
715.552	3.38
716.305	3.38
717.058	3.38
717.81	5.38
718.563	3.38
719.315	4.38
720.068	7.38
720.82	3.38
721.573	4.38
722.325	5.38
723.077	3.38
723.829	3.38
724.581	3.38
725.333	6.38
726.085	3.38
726.836	3.38
727.588	5.38
728.34	2.38
729.091	2.38
729.843	3.38
730.594	4.38
731.346	5.38
732.097	4.38
732.848	2.38
733.599	3.38
734.35	2.38
735.101	3.38
735.852	6.38
736.603	5.38
737.354	4.38
738.104	3.38
738.855	3.38
739.605	6.38
740.356	3.38
741.106	6.38
741.856	4.38
742.607	6.38
743.357	5.38
744.107	5.38
744.857	6.38
745.607	5.38
746.357	4.38
747.106	6.38
747.856	5.38
748.606	5.38
749.355	4.38
750.105	3.38
750.854	6.38
751.603	7.38
752.353	4.38
753.102	5.38
753.851	6.38
754.6	6.38
755.349	5.38
756.098	5.38
756.847	4.38
757.595	8.38
758.344	7.38
759.093	6.38
759.841	6.38
760.589	7.38
761.338	6.38
762.086	6.38
762.834	6.38
763.582	4.38
764.331	5.38
765.079	7.38
765.826	6.38
766.574	6.38
767.322	6.38
768.07	8.38
768.817	7.38
769.565	6.38
770.312	8.38
771.06	5.38
771.807	7.38
772.554	9.38
773.302	9.38
774.049	7.38
774.796	9.38
775.543	7.38
776.29	8.38
777.036	6.38
777.783	9.38
778.53	9.38
779.276	8.38
780.023	9.38
780.769	7.38
781.516	8.38
782.262	8.38
783.008	9.38
783.754	9.38
784.5	11.38
785.246	9.38
785.992	8.38
786.738	8.38
787.484	8.38
788.23	7.38
788.975	7.38
789.721	10.38
790.466	9.38
791.212	7.38
791.957	9.38
792.702	9.38
793.447	8.38
794.193	8.38
794.938	8.38
795.683	7.38
796.427	8.38
797.172	6.38
797.917	10.38
798.662	8.38
799.406	9.38
800.151	8.38
800.895	6.38
801.64	9.38
802.384	9.38
803.128	7.38
803.872	7.38
804.616	7.38
805.36	6.38
806.104	5.38
806.848	7.38
807.592	7.38
808.336	5.38
809.079	8.38
809.823	6.38
810.566	7.38
811.31	5.38
812.053	5.38
812.796	6.38
813.539	5.38
814.283	5.38
815.026	6.38
815.769	6.38
816.511	6.38
817.254	4.38
817.997	7.38
818.74	4.38
819.482	4.38
820.225	6.38
820.967	4.38
821.71	6.38
822.452	7.38
823.194	6.38
823.936	6.38
824.678	5.38
825.42	5.38
826.162	5.38
826.904	4.38
827.646	4.38
828.388	3.38
829.129	3.38
829.871	5.38
830.612	2.38
831.354	3.38
832.095	4.38
832.836	4.38
833.577	4.38
834.319	2.38
835.06	4.38
835.801	1.38
836.542	4.38
837.282	4.38
838.023	2.38
838.764	3.38
839.504	4.38
840.245	4.38
840.985	4.38
841.726	3.38
842.466	5.38
843.206	3.38
843.946	2.38
844.687	3.38
845.427	5.38
846.166	3.38
846.906	3.38
847.646	3.38
848.386	4.38
849.125	5.38
849.865	4.38
850.605	3.38
851.344	2.38
852.083	4.38
852.823	2.38
853.562	5.38
854.301	4.38
855.04	4.38
855.779	4.38
856.518	1.38
857.257	2.38
857.995	3.38
858.734	0.38
859.473	2.38
860.211	1.38
860.95	3.38
861.688	2.38
862.426	2.38
863.165	3.38
863.903	2.38
864.641	1.38
865.379	1.38
866.117	2.38
866.855	2.38
867.593	2.38
868.33	3.38
869.068	1.38
869.806	3.38
870.543	2.38
871.28	2.38
872.018	1.38
872.755	-0.62
873.492	1.38
874.229	1.38
874.967	2.38
875.703	2.38
876.44	2.38
877.177	0.38
877.914	0.38
878.651	1.38
879.387	0.38
880.124	2.38
880.86	2.38
881.597	0.38
882.333	0.38
883.069	0.38
883.806	3.38
884.542	1.38
885.278	1.38
886.014	0.38
886.749	1.38
887.485	0.38
888.221	0.38
888.957	2.38
889.692	0.38
890.428	0.38
891.163	3.38
891.899	0.38
892.634	-0.62
893.369	1.38
894.104	1.38
894.839	2.38
895.574	1.38
896.309	1.38
897.044	2.38
897.779	-1.62
898.514	1.38
899.248	1.38
899.983	3.38
900.717	2.38
901.452	-1.62
902.186	-1.62
902.92	0.38
903.654	-0.62
904.389	1.38
905.123	0.38
905.857	1.38
906.59	0.38
907.324	-0.62
908.058	1.38
908.792	2.38
909.525	0.38
910.259	-0.62
910.992	0.38
911.726	4.38
912.459	0.38
913.192	-1.62
913.925	2.38
914.658	-0.62
915.391	1.38
916.124	0.38
916.857	0.38
917.59	2.38
918.323	0.38
919.055	1.38
919.788	-0.62
920.521	1.38
921.253	1.38
921.985	2.38
922.718	0.38
923.45	-0.62
924.182	1.38
924.914	-0.62
925.646	0.38
926.378	-2.62
927.11	2.38
927.841	2.38
928.573	0.38
929.305	1.38
930.036	-0.62
930.768	0.38
931.499	0.38
932.23	1.38
932.962	0.38
933.693	2.38
934.424	2.38
935.155	-0.62
935.886	2.38
936.617	0.38
937.348	-0.62
938.078	0.38
938.809	-0.62
939.54	0.38
940.27	0.38
941.001	0.38
941.731	0.38
942.461	1.38
943.191	0.38
943.922	-0.62
944.652	1.38
945.382	1.38
946.112	0.38
946.841	0.38
947.571	1.38
948.301	1.38
949.031	-1.62
949.76	0.38
950.49	1.38
951.219	2.38
951.948	1.38
952.678	-0.62
953.407	3.38
954.136	-0.62
954.865	-1.62
955.594	1.38
956.323	1.38
957.052	2.38
957.78	1.38
958.509	2.38
959.238	1.38
959.966	2.38
960.695	0.38
961.423	-1.62
962.151	2.38
962.88	0.38
963.608	2.38
964.336	0.38
965.064	1.38
965.792	-0.62
966.52	1.38
967.247	-1.62
967.975	-0.62
968.703	0.38
969.43	2.38
970.158	0.38
970.885	1.38
971.613	-0.62
972.34	0.38
973.067	0.38
973.794	0.38
974.521	0.38
975.248	0.38
975.975	1.38
976.702	0.38
977.429	0.38
978.156	-1.62
978.882	0.38
979.609	-0.62
980.335	-1.62
981.062	2.38
981.788	0.38
982.514	0.38
983.24	1.38
983.967	0.38
984.693	0.38
985.419	-0.62
986.144	-0.62
986.87	1.38
987.596	0.38
988.322	1.38
989.047	0.38
989.773	1.38
990.498	2.38
991.224	1.38
991.949	-1.62
992.674	-0.62
993.399	0.38
994.124	1.38
994.849	-0.62
995.574	-1.62
996.299	1.38
997.024	-0.62
997.749	0.38
998.473	-0.62
999.198	-1.62
999.922	2.38
1000.647	2.38
1001.371	3.38
1002.095	-2.62
1002.82	1.38
1003.544	-0.62
1004.268	3.38
1004.992	1.38
1005.716	0.38
1006.439	1.38
1007.163	2.38
1007.887	2.38
1008.611	-0.62
1009.334	1.38
1010.058	1.38
1010.781	-1.62
1011.504	0.38
1012.228	0.38
1012.951	0.38
1013.674	-0.62
1014.397	0.38
1015.12	-1.62
