节点500_285_QEPB04081__210__14-59-03-080.txt的数据

Date: Wed Nov 12 14:59:03 CST 2025
User: PC
Spectrometer: QEPB0408
触发模式: 0
积分时间 (秒): 1.000000E-2
Scans to average: 1
启用暗噪声校正: true
启用非线性校正: false
滑动平均宽度: 0
X轴模式: Wavelengths
Number of Pixels in Spectrum: 1044
>>>>>Begin Spectral Data<<<<<
220.843	2
221.644	-1
222.444	3
223.244	2
224.045	3
224.845	2
225.645	3
226.445	5
227.245	2
228.045	3
228.845	3
229.645	5
230.444	1
231.244	3
232.043	4
232.843	3
233.642	6
234.442	6
235.241	4
236.04	4
236.839	8
237.638	6
238.437	4
239.236	4
240.035	5
240.833	6
241.632	6
242.43	1
243.229	5
244.027	5
244.826	4
245.624	6
246.422	6
247.22	5
248.018	7
248.816	8
249.614	9
250.412	8
251.21	6
252.007	7
252.805	10
253.602	7
254.4	9
255.197	10
255.994	8
256.791	7
257.589	8
258.386	10
259.183	12
259.979	12
260.776	11
261.573	10
262.37	11
263.166	12
263.963	15
264.759	13
265.556	12
266.352	14
267.148	14
267.944	16
268.74	14
269.536	15
270.332	16
271.128	12
271.924	14
272.719	13
273.515	16
274.311	18
275.106	21
275.901	18
276.697	18
277.492	18
278.287	22
279.082	18
279.877	19
280.672	19
281.467	19
282.262	18
283.056	21
283.851	22
284.646	20
285.44	20
286.234	18
287.029	20
287.823	19
288.617	20
289.411	20
290.205	20
290.999	18
291.793	19
292.587	18
293.381	18
294.174	19
294.968	18
295.761	19
296.555	17
297.348	20
298.141	17
298.935	20
299.728	18
300.521	16
301.314	14
302.107	12
302.899	13
303.692	13
304.485	13
305.277	14
306.07	16
306.862	14
307.655	13
308.447	13
309.239	12
310.031	12
310.823	10
311.615	10
312.407	11
313.199	10
313.991	10
314.783	10
315.574	9
316.366	12
317.157	8
317.949	10
318.74	8
319.531	9
320.322	7
321.113	11
321.904	8
322.695	7
323.486	6
324.277	7
325.068	8
325.858	9
326.649	9
327.439	7
328.23	6
329.02	8
329.81	7
330.6	8
331.391	5
332.181	7
332.971	5
333.76	6
334.55	8
335.34	7
336.13	8
336.919	8
337.709	5
338.498	8
339.287	6
340.077	9
340.866	9
341.655	6
342.444	7
343.233	8
344.022	7
344.811	6
345.6	8
346.388	6
347.177	6
347.965	7
348.754	7
349.542	8
350.33	7
351.119	7
351.907	6
352.695	5
353.483	6
354.271	3
355.059	4
355.846	6
356.634	7
357.422	6
358.209	7
358.997	7
359.784	3
360.571	5
361.359	7
362.146	7
362.933	7
363.72	6
364.507	7
365.294	7
366.081	7
366.867	7
367.654	6
368.44	6
369.227	7
370.013	6
370.8	6
371.586	5
372.372	6
373.158	7
373.944	8
374.73	7
375.516	6
376.302	6
377.088	6
377.873	8
378.659	8
379.445	7
380.23	7
381.015	6
381.801	5
382.586	8
383.371	7
384.156	5
384.941	6
385.726	8
386.511	5
387.296	7
388.08	4
388.865	8
389.649	6
390.434	6
391.218	6
392.003	6
392.787	8
393.571	7
394.355	7
395.139	7
395.923	4
396.707	5
397.491	7
398.274	6
399.058	8
399.842	6
400.625	10
401.408	8
402.192	10
402.975	8
403.758	9
404.541	8
405.324	5
406.107	8
406.89	8
407.673	10
408.456	10
409.238	8
410.021	12
410.803	7
411.586	9
412.368	11
413.151	8
413.933	11
414.715	10
415.497	10
416.279	12
417.061	10
417.843	11
418.624	12
419.406	11
420.188	11
420.969	12
421.751	12
422.532	10
423.313	14
424.095	10
424.876	13
425.657	12
426.438	12
427.219	14
428	14
428.78	14
429.561	13
430.342	16
431.122	14
431.903	14
432.683	16
433.464	16
434.244	17
435.024	18
435.804	17
436.584	20
437.364	21
438.144	22
438.924	18
439.704	23
440.483	23
441.263	24
442.042	26
442.822	26
443.601	28
444.38	30
445.16	33
445.939	32
446.718	34
447.497	38
448.276	44
449.054	45
449.833	45
450.612	55
451.391	55
452.169	61
452.948	67
453.726	74
454.504	77
455.282	89
456.061	95
456.839	106
457.617	118
458.395	132
459.172	147
459.95	163
460.728	178
461.506	203
462.283	220
463.061	246
463.838	283
464.615	319
465.393	355
466.17	389
466.947	433
467.724	479
468.501	545
469.278	602
470.055	677
470.831	750
471.608	838
472.385	934
473.161	1032
473.938	1154
474.714	1274
475.49	1419
476.266	1552
477.043	1732
477.819	1916
478.595	2116
479.371	2354
480.146	2590
480.922	2844
481.698	3179
482.473	3485
483.249	3836
484.024	4235
484.8	4661
485.575	5179
486.35	5653
487.126	6241
487.901	6848
488.676	7561
489.451	8286
490.225	9065
491	9957
491.775	10837
492.55	11833
493.324	12830
494.099	13824
494.873	14946
495.647	16134
496.422	17330
497.196	18519
497.97	19800
498.744	21029
499.518	22219
500.292	23380
501.066	24490
501.839	25412
502.613	26251
503.387	27056
504.16	27630
504.934	27915
505.707	28020
506.48	28059
507.253	27849
508.027	27515
508.8	27120
509.573	26633
510.346	25909
511.118	25031
511.891	24198
512.664	23358
513.437	22382
514.209	21435
514.982	20513
515.754	19603
516.526	18719
517.298	17946
518.071	17157
518.843	16454
519.615	15850
520.387	15154
521.159	14561
521.93	14017
522.702	13524
523.474	12889
524.245	12355
525.017	11807
525.788	11315
526.56	10816
527.331	10300
528.102	9879
528.873	9371
529.644	8951
530.415	8449
531.186	8016
531.957	7622
532.728	7215
533.498	6852
534.269	6413
535.039	6096
535.81	5767
536.58	5421
537.351	5130
538.121	4832
538.891	4577
539.661	4322
540.431	4089
541.201	3844
541.971	3624
542.741	3469
543.51	3292
544.28	3128
545.05	2989
545.819	2814
546.588	2681
547.358	2569
548.127	2443
548.896	2304
549.665	2190
550.434	2069
551.203	1958
551.972	1850
552.741	1743
553.51	1657
554.278	1560
555.047	1470
555.815	1380
556.584	1309
557.352	1250
558.121	1165
558.889	1092
559.657	1044
560.425	990
561.193	921
561.961	870
562.729	832
563.496	783
564.264	749
565.032	703
565.799	664
566.567	622
567.334	586
568.101	563
568.869	523
569.636	498
570.403	468
571.17	445
571.937	409
572.704	394
573.471	368
574.237	346
575.004	332
575.771	314
576.537	295
577.303	275
578.07	260
578.836	242
579.602	223
580.368	222
581.134	207
581.9	188
582.666	183
583.432	174
584.198	165
584.964	164
585.729	149
586.495	143
587.26	130
588.025	128
588.791	125
589.556	117
590.321	109
591.086	103
591.851	96
592.616	89
593.381	88
594.146	88
594.911	83
595.675	78
596.44	74
597.204	68
597.969	67
598.733	63
599.497	61
600.261	58
601.025	56
601.79	54
602.553	52
603.317	49
604.081	49
604.845	46
605.609	40
606.372	44
607.136	41
607.899	39
608.662	35
609.426	37
610.189	32
610.952	33
611.715	35
612.478	30
613.241	31
614.004	28
614.767	28
615.529	26
616.292	26
617.055	24
617.817	24
618.579	24
619.342	24
620.104	20
620.866	21
621.628	19
622.39	20
623.152	20
623.914	17
624.676	19
625.438	17
626.199	17
626.961	15
627.722	14
628.484	14
629.245	17
630.006	16
630.768	11
631.529	17
632.29	13
633.051	14
633.812	11
634.573	12
635.333	15
636.094	10
636.855	11
637.615	13
638.376	11
639.136	10
639.896	10
640.657	10
641.417	9
642.177	12
642.937	11
643.697	7
644.457	11
645.216	9
645.976	6
646.736	9
647.495	7
648.255	10
649.014	9
649.774	9
650.533	7
651.292	6
652.051	6
652.81	6
653.569	6
654.328	7
655.087	8
655.846	6
656.604	6
657.363	6
658.121	8
658.88	6
659.638	7
660.397	7
661.155	5
661.913	7
662.671	5
663.429	7
664.187	7
664.945	5
665.703	5
666.46	7
667.218	6
667.976	6
668.733	5
669.49	5
670.248	5
671.005	3
671.762	6
672.519	6
673.276	4
674.033	5
674.79	5
675.547	4
676.304	2
677.06	5
677.817	2
678.574	5
679.33	3
680.086	4
680.843	5
681.599	4
682.355	6
683.111	5
683.867	3
684.623	4
685.379	4
686.135	5
686.89	5
687.646	5
688.402	5
689.157	4
689.912	3
690.668	4
691.423	5
692.178	5
692.933	6
693.688	4
694.443	3
695.198	7
695.953	4
696.708	6
697.462	4
698.217	4
698.972	4
699.726	5
700.48	5
701.235	4
701.989	6
702.743	2
703.497	4
704.251	6
705.005	5
705.759	3
706.513	6
707.266	4
708.02	5
708.774	0
709.527	5
710.28	4
711.034	5
711.787	5
712.54	5
713.293	4
714.046	2
714.799	5
715.552	7
716.305	7
717.058	5
717.81	4
718.563	2
719.315	4
720.068	5
720.82	7
721.573	2
722.325	5
723.077	4
723.829	5
724.581	2
725.333	7
726.085	6
726.836	6
727.588	5
728.34	5
729.091	7
729.843	2
730.594	4
731.346	6
732.097	4
732.848	7
733.599	5
734.35	4
735.101	7
735.852	5
736.603	7
737.354	5
738.104	4
738.855	7
739.605	3
740.356	7
741.106	4
741.856	6
742.607	6
743.357	5
744.107	5
744.857	6
745.607	5
746.357	8
747.106	9
747.856	7
748.606	6
749.355	7
750.105	5
750.854	7
751.603	5
752.353	7
753.102	7
753.851	6
754.6	6
755.349	6
756.098	6
756.847	4
757.595	7
758.344	6
759.093	6
759.841	9
760.589	7
761.338	5
762.086	8
762.834	8
763.582	6
764.331	7
765.079	10
765.826	7
766.574	8
767.322	7
768.07	7
768.817	9
769.565	6
770.312	8
771.06	9
771.807	9
772.554	9
773.302	8
774.049	10
774.796	8
775.543	9
776.29	10
777.036	10
777.783	11
778.53	7
779.276	9
780.023	10
780.769	7
781.516	10
782.262	8
783.008	10
783.754	9
784.5	10
785.246	8
785.992	9
786.738	11
787.484	11
788.23	8
788.975	6
789.721	9
790.466	10
791.212	11
791.957	9
792.702	8
793.447	10
794.193	8
794.938	9
795.683	9
796.427	8
797.172	9
797.917	10
798.662	11
799.406	9
800.151	10
800.895	8
801.64	10
802.384	10
803.128	9
803.872	6
804.616	5
805.36	8
806.104	8
806.848	6
807.592	7
808.336	5
809.079	8
809.823	7
810.566	5
811.31	7
812.053	5
812.796	7
813.539	7
814.283	6
815.026	7
815.769	5
816.511	6
817.254	5
817.997	8
818.74	7
819.482	5
820.225	5
820.967	2
821.71	6
822.452	5
823.194	5
823.936	6
824.678	2
825.42	5
826.162	6
826.904	5
827.646	5
828.388	2
829.129	4
829.871	4
830.612	3
831.354	7
832.095	5
832.836	3
833.577	2
834.319	6
835.06	2
835.801	3
836.542	4
837.282	3
838.023	3
838.764	3
839.504	6
840.245	4
840.985	4
841.726	3
842.466	4
843.206	6
843.946	4
844.687	4
845.427	4
846.166	4
846.906	4
847.646	5
848.386	4
849.125	2
849.865	4
850.605	4
851.344	3
852.083	4
852.823	2
853.562	3
854.301	5
855.04	3
855.779	3
856.518	3
857.257	2
857.995	4
858.734	4
859.473	6
860.211	3
860.95	4
861.688	4
862.426	3
863.165	2
863.903	3
864.641	1
865.379	4
866.117	4
866.855	3
867.593	5
868.33	3
869.068	0
869.806	2
870.543	2
871.28	3
872.018	0
872.755	0
873.492	1
874.229	4
874.967	-1
875.703	2
876.44	4
877.177	1
877.914	1
878.651	3
879.387	1
880.124	3
880.86	1
881.597	0
882.333	1
883.069	1
883.806	2
884.542	2
885.278	4
886.014	2
886.749	1
887.485	1
888.221	2
888.957	1
889.692	1
890.428	2
891.163	3
891.899	2
892.634	1
893.369	0
894.104	1
894.839	2
895.574	0
896.309	2
897.044	1
897.779	3
898.514	-2
899.248	0
899.983	-1
900.717	3
901.452	1
902.186	1
902.92	-1
903.654	2
904.389	2
905.123	1
905.857	2
906.59	2
907.324	0
908.058	0
908.792	1
909.525	2
910.259	1
910.992	1
911.726	2
912.459	0
913.192	2
913.925	2
914.658	0
915.391	0
916.124	1
916.857	1
917.59	3
918.323	2
919.055	0
919.788	0
920.521	2
921.253	0
921.985	1
922.718	3
923.45	1
924.182	1
924.914	1
925.646	2
926.378	0
927.11	1
927.841	1
928.573	1
929.305	0
930.036	2
930.768	0
931.499	0
932.23	2
932.962	3
933.693	0
934.424	0
935.155	-1
935.886	0
936.617	0
937.348	2
938.078	2
938.809	0
939.54	2
940.27	2
941.001	-1
941.731	1
942.461	1
943.191	1
943.922	0
944.652	1
945.382	1
946.112	0
946.841	1
947.571	0
948.301	0
949.031	1
949.76	1
950.49	1
951.219	0
951.948	3
952.678	1
953.407	2
954.136	1
954.865	2
955.594	2
956.323	3
957.052	2
957.78	0
958.509	1
959.238	2
959.966	-1
960.695	1
961.423	1
962.151	0
962.88	1
963.608	2
964.336	0
965.064	1
965.792	1
966.52	1
967.247	1
967.975	2
968.703	0
969.43	2
970.158	-2
970.885	0
971.613	0
972.34	1
973.067	-1
973.794	1
974.521	2
975.248	1
975.975	3
976.702	1
977.429	2
978.156	1
978.882	-1
979.609	1
980.335	2
981.062	3
981.788	0
982.514	0
983.24	2
983.967	2
984.693	2
985.419	1
986.144	1
986.87	1
987.596	0
988.322	1
989.047	0
989.773	2
990.498	2
991.224	0
991.949	-1
992.674	1
993.399	0
994.124	0
994.849	0
995.574	2
996.299	0
997.024	1
997.749	-2
998.473	2
999.198	-2
999.922	1
1000.647	-1
1001.371	5
1002.095	0
1002.82	-1
1003.544	-2
1004.268	0
1004.992	2
1005.716	2
1006.439	5
1007.163	4
1007.887	3
1008.611	-2
1009.334	1
1010.058	0
1010.781	1
1011.504	2
1012.228	1
1012.951	0
1013.674	-1
1014.397	0
1015.12	-1
