节点500_285_QEPB04081__525__15-04-17-321.txt的数据

Date: Wed Nov 12 15:04:17 CST 2025
User: PC
Spectrometer: QEPB0408
触发模式: 0
积分时间 (秒): 1.000000E-2
Scans to average: 1
启用暗噪声校正: true
启用非线性校正: false
滑动平均宽度: 0
X轴模式: Wavelengths
Number of Pixels in Spectrum: 1044
>>>>>Begin Spectral Data<<<<<
220.843	0.12
221.644	2.12
222.444	1.12
223.244	1.12
224.045	2.12
224.845	2.12
225.645	2.12
226.445	4.12
227.245	3.12
228.045	1.12
228.845	2.12
229.645	2.12
230.444	3.12
231.244	1.12
232.043	2.12
232.843	4.12
233.642	2.12
234.442	6.12
235.241	5.12
236.04	6.12
236.839	4.12
237.638	1.12
238.437	5.12
239.236	5.12
240.035	5.12
240.833	4.12
241.632	4.12
242.43	4.12
243.229	3.12
244.027	6.12
244.826	5.12
245.624	4.12
246.422	5.12
247.22	5.12
248.018	5.12
248.816	5.12
249.614	7.12
250.412	7.12
251.21	7.12
252.007	7.12
252.805	5.12
253.602	8.12
254.4	6.12
255.197	8.12
255.994	6.12
256.791	8.12
257.589	8.12
258.386	7.12
259.183	9.12
259.979	9.12
260.776	9.12
261.573	9.12
262.37	12.12
263.166	11.12
263.963	8.12
264.759	11.12
265.556	10.12
266.352	10.12
267.148	13.12
267.944	11.12
268.74	14.12
269.536	14.12
270.332	16.12
271.128	16.12
271.924	15.12
272.719	14.12
273.515	14.12
274.311	18.12
275.106	18.12
275.901	16.12
276.697	17.12
277.492	18.12
278.287	17.12
279.082	17.12
279.877	18.12
280.672	16.12
281.467	17.12
282.262	18.12
283.056	19.12
283.851	21.12
284.646	18.12
285.44	17.12
286.234	18.12
287.029	18.12
287.823	20.12
288.617	18.12
289.411	20.12
290.205	16.12
290.999	21.12
291.793	19.12
292.587	17.12
293.381	17.12
294.174	14.12
294.968	15.12
295.761	14.12
296.555	14.12
297.348	17.12
298.141	15.12
298.935	18.12
299.728	16.12
300.521	14.12
301.314	14.12
302.107	14.12
302.899	11.12
303.692	11.12
304.485	12.12
305.277	13.12
306.07	12.12
306.862	13.12
307.655	12.12
308.447	13.12
309.239	12.12
310.031	11.12
310.823	12.12
311.615	10.12
312.407	12.12
313.199	9.12
313.991	11.12
314.783	8.12
315.574	9.12
316.366	9.12
317.157	8.12
317.949	7.12
318.74	7.12
319.531	8.12
320.322	7.12
321.113	6.12
321.904	10.12
322.695	7.12
323.486	10.12
324.277	9.12
325.068	6.12
325.858	8.12
326.649	7.12
327.439	8.12
328.23	9.12
329.02	8.12
329.81	8.12
330.6	8.12
331.391	8.12
332.181	7.12
332.971	6.12
333.76	7.12
334.55	6.12
335.34	6.12
336.13	8.12
336.919	7.12
337.709	7.12
338.498	9.12
339.287	7.12
340.077	4.12
340.866	7.12
341.655	8.12
342.444	5.12
343.233	8.12
344.022	6.12
344.811	6.12
345.6	7.12
346.388	6.12
347.177	8.12
347.965	7.12
348.754	5.12
349.542	8.12
350.33	6.12
351.119	7.12
351.907	5.12
352.695	4.12
353.483	8.12
354.271	6.12
355.059	7.12
355.846	7.12
356.634	8.12
357.422	9.12
358.209	5.12
358.997	6.12
359.784	7.12
360.571	6.12
361.359	6.12
362.146	8.12
362.933	6.12
363.72	2.12
364.507	5.12
365.294	2.12
366.081	4.12
366.867	7.12
367.654	6.12
368.44	5.12
369.227	6.12
370.013	3.12
370.8	5.12
371.586	6.12
372.372	6.12
373.158	4.12
373.944	3.12
374.73	3.12
375.516	9.12
376.302	6.12
377.088	5.12
377.873	5.12
378.659	6.12
379.445	4.12
380.23	6.12
381.015	5.12
381.801	4.12
382.586	6.12
383.371	7.12
384.156	4.12
384.941	5.12
385.726	7.12
386.511	7.12
387.296	4.12
388.08	6.12
388.865	6.12
389.649	6.12
390.434	7.12
391.218	6.12
392.003	4.12
392.787	7.12
393.571	5.12
394.355	7.12
395.139	5.12
395.923	7.12
396.707	7.12
397.491	5.12
398.274	5.12
399.058	6.12
399.842	7.12
400.625	8.12
401.408	5.12
402.192	7.12
402.975	7.12
403.758	6.12
404.541	7.12
405.324	10.12
406.107	7.12
406.89	7.12
407.673	7.12
408.456	7.12
409.238	7.12
410.021	8.12
410.803	10.12
411.586	6.12
412.368	9.12
413.151	12.12
413.933	10.12
414.715	9.12
415.497	9.12
416.279	9.12
417.061	10.12
417.843	10.12
418.624	9.12
419.406	8.12
420.188	8.12
420.969	11.12
421.751	11.12
422.532	10.12
423.313	10.12
424.095	13.12
424.876	10.12
425.657	13.12
426.438	11.12
427.219	10.12
428	13.12
428.78	13.12
429.561	12.12
430.342	10.12
431.122	11.12
431.903	14.12
432.683	13.12
433.464	15.12
434.244	17.12
435.024	16.12
435.804	20.12
436.584	19.12
437.364	17.12
438.144	19.12
438.924	21.12
439.704	20.12
440.483	23.12
441.263	23.12
442.042	25.12
442.822	25.12
443.601	28.12
444.38	34.12
445.16	30.12
445.939	36.12
446.718	36.12
447.497	41.12
448.276	43.12
449.054	46.12
449.833	52.12
450.612	54.12
451.391	57.12
452.169	63.12
452.948	69.12
453.726	74.12
454.504	84.12
455.282	95.12
456.061	105.12
456.839	114.12
457.617	128.12
458.395	142.12
459.172	162.12
459.95	180.12
460.728	193.12
461.506	215.12
462.283	240.12
463.061	276.12
463.838	295.12
464.615	338.12
465.393	377.12
466.17	422.12
466.947	467.12
467.724	516.12
468.501	575.12
469.278	632.12
470.055	712.12
470.831	792.12
471.608	875.12
472.385	974.12
473.161	1071.12
473.938	1184.12
474.714	1313.12
475.49	1437.12
476.266	1590.12
477.043	1760.12
477.819	1952.12
478.595	2153.12
479.371	2350.12
480.146	2570.12
480.922	2850.12
481.698	3115.12
482.473	3426.12
483.249	3751.12
484.024	4116.12
484.8	4535.12
485.575	4935.12
486.35	5396.12
487.126	5916.12
487.901	6477.12
488.676	7100.12
489.451	7753.12
490.225	8498.12
491	9223.12
491.775	10022.12
492.55	10906.12
493.324	11806.12
494.099	12661.12
494.873	13704.12
495.647	14718.12
496.422	15855.12
497.196	16973.12
497.97	18045.12
498.744	19194.12
499.518	20284.12
500.292	21388.12
501.066	22457.12
501.839	23448.12
502.613	24351.12
503.387	25110.12
504.16	25773.12
504.934	26166.12
505.707	26429.12
506.48	26540.12
507.253	26642.12
508.027	26515.12
508.8	26250.12
509.573	25932.12
510.346	25394.12
511.118	24726.12
511.891	24023.12
512.664	23389.12
513.437	22482.12
514.209	21579.12
514.982	20795.12
515.754	19888.12
516.526	19055.12
517.298	18274.12
518.071	17449.12
518.843	16783.12
519.615	16191.12
520.387	15489.12
521.159	14830.12
521.93	14272.12
522.702	13718.12
523.474	13184.12
524.245	12610.12
525.017	12059.12
525.788	11648.12
526.56	11082.12
527.331	10586.12
528.102	10108.12
528.873	9663.12
529.644	9157.12
530.415	8768.12
531.186	8285.12
531.957	7900.12
532.728	7526.12
533.498	7118.12
534.269	6703.12
535.039	6355.12
535.81	5999.12
536.58	5713.12
537.351	5341.12
538.121	5065.12
538.891	4789.12
539.661	4560.12
540.431	4274.12
541.201	4052.12
541.971	3854.12
542.741	3641.12
543.51	3442.12
544.28	3286.12
545.05	3136.12
545.819	2982.12
546.588	2828.12
547.358	2692.12
548.127	2549.12
548.896	2417.12
549.665	2293.12
550.434	2166.12
551.203	2083.12
551.972	1950.12
552.741	1850.12
553.51	1748.12
554.278	1654.12
555.047	1555.12
555.815	1473.12
556.584	1391.12
557.352	1311.12
558.121	1259.12
558.889	1174.12
559.657	1110.12
560.425	1054.12
561.193	996.12
561.961	933.12
562.729	877.12
563.496	835.12
564.264	780.12
565.032	741.12
565.799	715.12
566.567	667.12
567.334	629.12
568.101	597.12
568.869	561.12
569.636	528.12
570.403	497.12
571.17	467.12
571.937	442.12
572.704	424.12
573.471	392.12
574.237	378.12
575.004	352.12
575.771	325.12
576.537	309.12
577.303	290.12
578.07	280.12
578.836	264.12
579.602	244.12
580.368	228.12
581.134	222.12
581.9	212.12
582.666	196.12
583.432	188.12
584.198	176.12
584.964	170.12
585.729	154.12
586.495	150.12
587.26	145.12
588.025	136.12
588.791	126.12
589.556	117.12
590.321	114.12
591.086	104.12
591.851	106.12
592.616	98.12
593.381	95.12
594.146	90.12
594.911	86.12
595.675	82.12
596.44	78.12
597.204	74.12
597.969	67.12
598.733	67.12
599.497	62.12
600.261	62.12
601.025	57.12
601.79	55.12
602.553	55.12
603.317	54.12
604.081	45.12
604.845	50.12
605.609	46.12
606.372	42.12
607.136	42.12
607.899	40.12
608.662	37.12
609.426	37.12
610.189	35.12
610.952	33.12
611.715	34.12
612.478	32.12
613.241	30.12
614.004	30.12
614.767	27.12
615.529	28.12
616.292	23.12
617.055	26.12
617.817	24.12
618.579	23.12
619.342	22.12
620.104	21.12
620.866	20.12
621.628	21.12
622.39	20.12
623.152	19.12
623.914	20.12
624.676	19.12
625.438	18.12
626.199	18.12
626.961	17.12
627.722	16.12
628.484	13.12
629.245	14.12
630.006	17.12
630.768	13.12
631.529	14.12
632.29	14.12
633.051	15.12
633.812	13.12
634.573	14.12
635.333	12.12
636.094	8.12
636.855	12.12
637.615	9.12
638.376	11.12
639.136	9.12
639.896	11.12
640.657	12.12
641.417	11.12
642.177	9.12
642.937	8.12
643.697	7.12
644.457	10.12
645.216	9.12
645.976	10.12
646.736	8.12
647.495	7.12
648.255	6.12
649.014	11.12
649.774	8.12
650.533	7.12
651.292	8.12
652.051	6.12
652.81	7.12
653.569	9.12
654.328	7.12
655.087	7.12
655.846	7.12
656.604	6.12
657.363	6.12
658.121	6.12
658.88	6.12
659.638	8.12
660.397	4.12
661.155	7.12
661.913	5.12
662.671	6.12
663.429	4.12
664.187	4.12
664.945	7.12
665.703	5.12
666.46	6.12
667.218	6.12
667.976	6.12
668.733	5.12
669.49	6.12
670.248	5.12
671.005	5.12
671.762	5.12
672.519	7.12
673.276	3.12
674.033	5.12
674.79	6.12
675.547	3.12
676.304	5.12
677.06	4.12
677.817	7.12
678.574	2.12
679.33	4.12
680.086	4.12
680.843	4.12
681.599	4.12
682.355	6.12
683.111	4.12
683.867	3.12
684.623	2.12
685.379	7.12
686.135	5.12
686.89	3.12
687.646	2.12
688.402	2.12
689.157	4.12
689.912	4.12
690.668	5.12
691.423	4.12
692.178	3.12
692.933	5.12
693.688	4.12
694.443	4.12
695.198	2.12
695.953	5.12
696.708	4.12
697.462	4.12
698.217	4.12
698.972	2.12
699.726	7.12
700.48	3.12
701.235	3.12
701.989	6.12
702.743	6.12
703.497	5.12
704.251	4.12
705.005	3.12
705.759	5.12
706.513	2.12
707.266	4.12
708.02	5.12
708.774	3.12
709.527	3.12
710.28	2.12
711.034	5.12
711.787	5.12
712.54	3.12
713.293	3.12
714.046	3.12
714.799	3.12
715.552	5.12
716.305	2.12
717.058	3.12
717.81	3.12
718.563	3.12
719.315	4.12
720.068	2.12
720.82	3.12
721.573	3.12
722.325	3.12
723.077	2.12
723.829	2.12
724.581	4.12
725.333	5.12
726.085	5.12
726.836	4.12
727.588	3.12
728.34	5.12
729.091	4.12
729.843	6.12
730.594	2.12
731.346	4.12
732.097	3.12
732.848	3.12
733.599	5.12
734.35	5.12
735.101	4.12
735.852	4.12
736.603	5.12
737.354	4.12
738.104	5.12
738.855	1.12
739.605	6.12
740.356	4.12
741.106	6.12
741.856	3.12
742.607	2.12
743.357	5.12
744.107	5.12
744.857	5.12
745.607	5.12
746.357	4.12
747.106	4.12
747.856	5.12
748.606	4.12
749.355	4.12
750.105	6.12
750.854	7.12
751.603	5.12
752.353	4.12
753.102	4.12
753.851	5.12
754.6	3.12
755.349	5.12
756.098	6.12
756.847	6.12
757.595	6.12
758.344	6.12
759.093	5.12
759.841	7.12
760.589	8.12
761.338	4.12
762.086	5.12
762.834	6.12
763.582	6.12
764.331	6.12
765.079	7.12
765.826	7.12
766.574	6.12
767.322	9.12
768.07	8.12
768.817	6.12
769.565	7.12
770.312	9.12
771.06	7.12
771.807	8.12
772.554	9.12
773.302	7.12
774.049	9.12
774.796	6.12
775.543	8.12
776.29	8.12
777.036	9.12
777.783	10.12
778.53	7.12
779.276	6.12
780.023	9.12
780.769	7.12
781.516	10.12
782.262	8.12
783.008	11.12
783.754	9.12
784.5	10.12
785.246	9.12
785.992	7.12
786.738	9.12
787.484	6.12
788.23	9.12
788.975	8.12
789.721	10.12
790.466	11.12
791.212	6.12
791.957	11.12
792.702	10.12
793.447	8.12
794.193	9.12
794.938	8.12
795.683	10.12
796.427	9.12
797.172	8.12
797.917	8.12
798.662	9.12
799.406	8.12
800.151	6.12
800.895	6.12
801.64	7.12
802.384	6.12
803.128	7.12
803.872	7.12
804.616	6.12
805.36	5.12
806.104	8.12
806.848	7.12
807.592	9.12
808.336	6.12
809.079	7.12
809.823	5.12
810.566	6.12
811.31	7.12
812.053	5.12
812.796	7.12
813.539	5.12
814.283	5.12
815.026	7.12
815.769	7.12
816.511	4.12
817.254	6.12
817.997	4.12
818.74	5.12
819.482	4.12
820.225	7.12
820.967	6.12
821.71	3.12
822.452	3.12
823.194	4.12
823.936	6.12
824.678	4.12
825.42	6.12
826.162	7.12
826.904	3.12
827.646	2.12
828.388	3.12
829.129	4.12
829.871	2.12
830.612	2.12
831.354	2.12
832.095	3.12
832.836	5.12
833.577	4.12
834.319	1.12
835.06	4.12
835.801	1.12
836.542	3.12
837.282	4.12
838.023	7.12
838.764	4.12
839.504	4.12
840.245	6.12
840.985	4.12
841.726	4.12
842.466	5.12
843.206	3.12
843.946	5.12
844.687	2.12
845.427	4.12
846.166	5.12
846.906	3.12
847.646	1.12
848.386	3.12
849.125	2.12
849.865	4.12
850.605	3.12
851.344	0.12
852.083	3.12
852.823	5.12
853.562	2.12
854.301	3.12
855.04	2.12
855.779	2.12
856.518	3.12
857.257	4.12
857.995	2.12
858.734	2.12
859.473	1.12
860.211	4.12
860.95	2.12
861.688	1.12
862.426	3.12
863.165	0.12
863.903	3.12
864.641	0.12
865.379	2.12
866.117	3.12
866.855	0.12
867.593	4.12
868.33	2.12
869.068	3.12
869.806	2.12
870.543	1.12
871.28	1.12
872.018	1.12
872.755	1.12
873.492	1.12
874.229	3.12
874.967	2.12
875.703	0.12
876.44	1.12
877.177	0.12
877.914	2.12
878.651	2.12
879.387	0.12
880.124	2.12
880.86	2.12
881.597	3.12
882.333	2.12
883.069	1.12
883.806	2.12
884.542	2.12
885.278	2.12
886.014	1.12
886.749	2.12
887.485	1.12
888.221	3.12
888.957	0.12
889.692	1.12
890.428	-0.88
891.163	1.12
891.899	0.12
892.634	1.12
893.369	0.12
894.104	0.12
894.839	0.12
895.574	0.12
896.309	1.12
897.044	1.12
897.779	0.12
898.514	-0.88
899.248	-0.88
899.983	-0.88
900.717	1.12
901.452	-1.88
902.186	1.12
902.92	2.12
903.654	1.12
904.389	0.12
905.123	3.12
905.857	0.12
906.59	0.12
907.324	0.12
908.058	1.12
908.792	-0.88
909.525	1.12
910.259	0.12
910.992	0.12
911.726	0.12
912.459	0.12
913.192	0.12
913.925	0.12
914.658	-1.88
915.391	0.12
916.124	0.12
916.857	-0.88
917.59	0.12
918.323	1.12
919.055	2.12
919.788	2.12
920.521	1.12
921.253	0.12
921.985	-0.88
922.718	0.12
923.45	2.12
924.182	0.12
924.914	1.12
925.646	-0.88
926.378	1.12
927.11	1.12
927.841	2.12
928.573	0.12
929.305	1.12
930.036	2.12
930.768	0.12
931.499	0.12
932.23	2.12
932.962	-1.88
933.693	0.12
934.424	1.12
935.155	1.12
935.886	0.12
936.617	1.12
937.348	0.12
938.078	0.12
938.809	1.12
939.54	0.12
940.27	-1.88
941.001	1.12
941.731	-0.88
942.461	3.12
943.191	-0.88
943.922	1.12
944.652	-1.88
945.382	0.12
946.112	-1.88
946.841	1.12
947.571	0.12
948.301	-0.88
949.031	-1.88
949.76	0.12
950.49	-0.88
951.219	1.12
951.948	3.12
952.678	1.12
953.407	3.12
954.136	1.12
954.865	0.12
955.594	-0.88
956.323	1.12
957.052	-1.88
957.78	-0.88
958.509	0.12
959.238	-0.88
959.966	0.12
960.695	1.12
961.423	0.12
962.151	-0.88
962.88	-1.88
963.608	-0.88
964.336	-0.88
965.064	0.12
965.792	-0.88
966.52	2.12
967.247	0.12
967.975	-1.88
968.703	1.12
969.43	0.12
970.158	1.12
970.885	0.12
971.613	1.12
972.34	1.12
973.067	0.12
973.794	-1.88
974.521	0.12
975.248	-0.88
975.975	1.12
976.702	0.12
977.429	2.12
978.156	1.12
978.882	1.12
979.609	-1.88
980.335	-2.88
981.062	2.12
981.788	1.12
982.514	0.12
983.24	0.12
983.967	1.12
984.693	-1.88
985.419	-0.88
986.144	1.12
986.87	2.12
987.596	-0.88
988.322	0.12
989.047	-0.88
989.773	0.12
990.498	2.12
991.224	0.12
991.949	1.12
992.674	1.12
993.399	-0.88
994.124	0.12
994.849	0.12
995.574	-0.88
996.299	2.12
997.024	0.12
997.749	2.12
998.473	-0.88
999.198	-0.88
999.922	0.12
1000.647	1.12
1001.371	3.12
1002.095	-1.88
1002.82	-1.88
1003.544	-0.88
1004.268	2.12
1004.992	2.12
1005.716	1.12
1006.439	2.12
1007.163	2.12
1007.887	3.12
1008.611	1.12
1009.334	2.12
1010.058	-0.88
1010.781	-0.88
1011.504	0.12
1012.228	0.12
1012.951	-1.88
1013.674	1.12
1014.397	1.12
1015.12	1.12
