节点500_285_QEPB04081__601__15-05-33-193.txt的数据

Date: Wed Nov 12 15:05:33 CST 2025
User: PC
Spectrometer: QEPB0408
触发模式: 0
积分时间 (秒): 1.000000E-2
Scans to average: 1
启用暗噪声校正: true
启用非线性校正: false
滑动平均宽度: 0
X轴模式: Wavelengths
Number of Pixels in Spectrum: 1044
>>>>>Begin Spectral Data<<<<<
220.843	1.75
221.644	1.75
222.444	-0.25
223.244	0.75
224.045	1.75
224.845	1.75
225.645	4.75
226.445	0.75
227.245	2.75
228.045	0.75
228.845	1.75
229.645	3.75
230.444	1.75
231.244	2.75
232.043	0.75
232.843	3.75
233.642	3.75
234.442	-0.25
235.241	3.75
236.04	1.75
236.839	2.75
237.638	1.75
238.437	4.75
239.236	4.75
240.035	4.75
240.833	3.75
241.632	4.75
242.43	2.75
243.229	4.75
244.027	1.75
244.826	5.75
245.624	1.75
246.422	5.75
247.22	5.75
248.018	5.75
248.816	5.75
249.614	8.75
250.412	4.75
251.21	5.75
252.007	6.75
252.805	6.75
253.602	6.75
254.4	7.75
255.197	6.75
255.994	7.75
256.791	5.75
257.589	7.75
258.386	8.75
259.183	7.75
259.979	9.75
260.776	8.75
261.573	8.75
262.37	9.75
263.166	8.75
263.963	9.75
264.759	8.75
265.556	10.75
266.352	9.75
267.148	10.75
267.944	11.75
268.74	14.75
269.536	12.75
270.332	14.75
271.128	13.75
271.924	12.75
272.719	14.75
273.515	16.75
274.311	14.75
275.106	16.75
275.901	15.75
276.697	15.75
277.492	17.75
278.287	17.75
279.082	15.75
279.877	16.75
280.672	16.75
281.467	15.75
282.262	18.75
283.056	15.75
283.851	20.75
284.646	20.75
285.44	15.75
286.234	17.75
287.029	17.75
287.823	15.75
288.617	15.75
289.411	20.75
290.205	17.75
290.999	17.75
291.793	17.75
292.587	15.75
293.381	15.75
294.174	17.75
294.968	14.75
295.761	16.75
296.555	12.75
297.348	12.75
298.141	13.75
298.935	16.75
299.728	16.75
300.521	14.75
301.314	15.75
302.107	11.75
302.899	11.75
303.692	11.75
304.485	11.75
305.277	13.75
306.07	15.75
306.862	11.75
307.655	12.75
308.447	12.75
309.239	11.75
310.031	10.75
310.823	9.75
311.615	9.75
312.407	10.75
313.199	8.75
313.991	9.75
314.783	8.75
315.574	5.75
316.366	9.75
317.157	7.75
317.949	8.75
318.74	7.75
319.531	9.75
320.322	8.75
321.113	6.75
321.904	9.75
322.695	6.75
323.486	7.75
324.277	8.75
325.068	8.75
325.858	8.75
326.649	8.75
327.439	7.75
328.23	6.75
329.02	5.75
329.81	6.75
330.6	5.75
331.391	7.75
332.181	6.75
332.971	6.75
333.76	4.75
334.55	7.75
335.34	5.75
336.13	6.75
336.919	7.75
337.709	4.75
338.498	4.75
339.287	5.75
340.077	4.75
340.866	5.75
341.655	4.75
342.444	5.75
343.233	5.75
344.022	6.75
344.811	4.75
345.6	5.75
346.388	6.75
347.177	3.75
347.965	6.75
348.754	8.75
349.542	5.75
350.33	5.75
351.119	4.75
351.907	6.75
352.695	2.75
353.483	5.75
354.271	3.75
355.059	5.75
355.846	4.75
356.634	4.75
357.422	7.75
358.209	5.75
358.997	6.75
359.784	6.75
360.571	5.75
361.359	4.75
362.146	5.75
362.933	6.75
363.72	7.75
364.507	4.75
365.294	4.75
366.081	4.75
366.867	2.75
367.654	5.75
368.44	2.75
369.227	3.75
370.013	3.75
370.8	5.75
371.586	4.75
372.372	4.75
373.158	3.75
373.944	3.75
374.73	5.75
375.516	3.75
376.302	5.75
377.088	5.75
377.873	4.75
378.659	3.75
379.445	8.75
380.23	5.75
381.015	5.75
381.801	5.75
382.586	3.75
383.371	5.75
384.156	4.75
384.941	4.75
385.726	2.75
386.511	3.75
387.296	5.75
388.08	4.75
388.865	3.75
389.649	3.75
390.434	4.75
391.218	4.75
392.003	3.75
392.787	7.75
393.571	6.75
394.355	5.75
395.139	7.75
395.923	2.75
396.707	9.75
397.491	4.75
398.274	5.75
399.058	6.75
399.842	3.75
400.625	7.75
401.408	4.75
402.192	5.75
402.975	3.75
403.758	6.75
404.541	7.75
405.324	7.75
406.107	6.75
406.89	7.75
407.673	8.75
408.456	4.75
409.238	8.75
410.021	8.75
410.803	7.75
411.586	8.75
412.368	7.75
413.151	5.75
413.933	9.75
414.715	9.75
415.497	8.75
416.279	5.75
417.061	9.75
417.843	6.75
418.624	11.75
419.406	3.75
420.188	7.75
420.969	8.75
421.751	8.75
422.532	11.75
423.313	10.75
424.095	10.75
424.876	12.75
425.657	10.75
426.438	10.75
427.219	9.75
428	11.75
428.78	11.75
429.561	12.75
430.342	13.75
431.122	17.75
431.903	12.75
432.683	13.75
433.464	16.75
434.244	16.75
435.024	16.75
435.804	18.75
436.584	18.75
437.364	18.75
438.144	20.75
438.924	19.75
439.704	21.75
440.483	20.75
441.263	24.75
442.042	25.75
442.822	28.75
443.601	29.75
444.38	29.75
445.16	29.75
445.939	34.75
446.718	37.75
447.497	37.75
448.276	45.75
449.054	45.75
449.833	52.75
450.612	54.75
451.391	58.75
452.169	63.75
452.948	69.75
453.726	82.75
454.504	91.75
455.282	99.75
456.061	106.75
456.839	117.75
457.617	132.75
458.395	148.75
459.172	164.75
459.95	177.75
460.728	197.75
461.506	221.75
462.283	241.75
463.061	274.75
463.838	309.75
464.615	339.75
465.393	377.75
466.17	424.75
466.947	470.75
467.724	525.75
468.501	580.75
469.278	643.75
470.055	714.75
470.831	799.75
471.608	900.75
472.385	985.75
473.161	1082.75
473.938	1215.75
474.714	1325.75
475.49	1440.75
476.266	1595.75
477.043	1767.75
477.819	1930.75
478.595	2159.75
479.371	2365.75
480.146	2598.75
480.922	2811.75
481.698	3112.75
482.473	3400.75
483.249	3713.75
484.024	4091.75
484.8	4468.75
485.575	4878.75
486.35	5372.75
487.126	5850.75
487.901	6409.75
488.676	7007.75
489.451	7606.75
490.225	8330.75
491	9010.75
491.775	9823.75
492.55	10685.75
493.324	11543.75
494.099	12416.75
494.873	13368.75
495.647	14404.75
496.422	15449.75
497.196	16483.75
497.97	17612.75
498.744	18719.75
499.518	19848.75
500.292	20968.75
501.066	21950.75
501.839	22876.75
502.613	23827.75
503.387	24669.75
504.16	25341.75
504.934	25714.75
505.707	26062.75
506.48	26232.75
507.253	26242.75
508.027	26134.75
508.8	26056.75
509.573	25715.75
510.346	25231.75
511.118	24657.75
511.891	23984.75
512.664	23280.75
513.437	22466.75
514.209	21585.75
514.982	20829.75
515.754	19915.75
516.526	19132.75
517.298	18293.75
518.071	17483.75
518.843	16854.75
519.615	16196.75
520.387	15600.75
521.159	14997.75
521.93	14327.75
522.702	13805.75
523.474	13210.75
524.245	12648.75
525.017	12119.75
525.788	11655.75
526.56	11171.75
527.331	10622.75
528.102	10169.75
528.873	9757.75
529.644	9272.75
530.415	8809.75
531.186	8398.75
531.957	7974.75
532.728	7590.75
533.498	7244.75
534.269	6795.75
535.039	6441.75
535.81	6107.75
536.58	5760.75
537.351	5420.75
538.121	5104.75
538.891	4854.75
539.661	4615.75
540.431	4356.75
541.201	4103.75
541.971	3895.75
542.741	3679.75
543.51	3496.75
544.28	3338.75
545.05	3190.75
545.819	3012.75
546.588	2882.75
547.358	2722.75
548.127	2604.75
548.896	2465.75
549.665	2352.75
550.434	2199.75
551.203	2092.75
551.972	1986.75
552.741	1875.75
553.51	1777.75
554.278	1682.75
555.047	1584.75
555.815	1493.75
556.584	1418.75
557.352	1339.75
558.121	1260.75
558.889	1189.75
559.657	1129.75
560.425	1062.75
561.193	1007.75
561.961	950.75
562.729	898.75
563.496	856.75
564.264	797.75
565.032	754.75
565.799	718.75
566.567	678.75
567.334	648.75
568.101	606.75
568.869	573.75
569.636	531.75
570.403	506.75
571.17	469.75
571.937	445.75
572.704	427.75
573.471	400.75
574.237	378.75
575.004	361.75
575.771	339.75
576.537	316.75
577.303	296.75
578.07	279.75
578.836	266.75
579.602	240.75
580.368	241.75
581.134	230.75
581.9	213.75
582.666	203.75
583.432	183.75
584.198	177.75
584.964	166.75
585.729	157.75
586.495	155.75
587.26	145.75
588.025	142.75
588.791	131.75
589.556	128.75
590.321	115.75
591.086	109.75
591.851	108.75
592.616	100.75
593.381	94.75
594.146	87.75
594.911	83.75
595.675	77.75
596.44	75.75
597.204	78.75
597.969	67.75
598.733	67.75
599.497	61.75
600.261	61.75
601.025	58.75
601.79	54.75
602.553	55.75
603.317	47.75
604.081	49.75
604.845	44.75
605.609	44.75
606.372	45.75
607.136	42.75
607.899	38.75
608.662	37.75
609.426	35.75
610.189	33.75
610.952	36.75
611.715	33.75
612.478	30.75
613.241	29.75
614.004	28.75
614.767	28.75
615.529	25.75
616.292	28.75
617.055	23.75
617.817	22.75
618.579	21.75
619.342	22.75
620.104	22.75
620.866	21.75
621.628	21.75
622.39	20.75
623.152	19.75
623.914	15.75
624.676	17.75
625.438	15.75
626.199	15.75
626.961	17.75
627.722	11.75
628.484	14.75
629.245	11.75
630.006	12.75
630.768	10.75
631.529	14.75
632.29	11.75
633.051	12.75
633.812	11.75
634.573	11.75
635.333	9.75
636.094	9.75
636.855	11.75
637.615	11.75
638.376	9.75
639.136	11.75
639.896	10.75
640.657	8.75
641.417	9.75
642.177	11.75
642.937	8.75
643.697	9.75
644.457	8.75
645.216	9.75
645.976	8.75
646.736	9.75
647.495	7.75
648.255	7.75
649.014	7.75
649.774	6.75
650.533	4.75
651.292	5.75
652.051	8.75
652.81	7.75
653.569	3.75
654.328	6.75
655.087	7.75
655.846	8.75
656.604	7.75
657.363	5.75
658.121	2.75
658.88	4.75
659.638	5.75
660.397	6.75
661.155	4.75
661.913	7.75
662.671	3.75
663.429	5.75
664.187	4.75
664.945	4.75
665.703	4.75
666.46	6.75
667.218	2.75
667.976	4.75
668.733	4.75
669.49	6.75
670.248	4.75
671.005	5.75
671.762	1.75
672.519	5.75
673.276	4.75
674.033	4.75
674.79	5.75
675.547	1.75
676.304	3.75
677.06	4.75
677.817	3.75
678.574	1.75
679.33	3.75
680.086	5.75
680.843	4.75
681.599	3.75
682.355	2.75
683.111	1.75
683.867	3.75
684.623	3.75
685.379	2.75
686.135	4.75
686.89	4.75
687.646	3.75
688.402	4.75
689.157	3.75
689.912	1.75
690.668	0.75
691.423	2.75
692.178	1.75
692.933	1.75
693.688	4.75
694.443	2.75
695.198	1.75
695.953	3.75
696.708	3.75
697.462	4.75
698.217	5.75
698.972	2.75
699.726	3.75
700.48	3.75
701.235	3.75
701.989	3.75
702.743	2.75
703.497	3.75
704.251	1.75
705.005	3.75
705.759	3.75
706.513	1.75
707.266	3.75
708.02	1.75
708.774	5.75
709.527	3.75
710.28	2.75
711.034	3.75
711.787	3.75
712.54	3.75
713.293	3.75
714.046	2.75
714.799	1.75
715.552	1.75
716.305	3.75
717.058	3.75
717.81	4.75
718.563	1.75
719.315	3.75
720.068	5.75
720.82	5.75
721.573	4.75
722.325	0.75
723.077	3.75
723.829	3.75
724.581	3.75
725.333	4.75
726.085	2.75
726.836	4.75
727.588	1.75
728.34	1.75
729.091	0.75
729.843	3.75
730.594	4.75
731.346	3.75
732.097	1.75
732.848	5.75
733.599	2.75
734.35	3.75
735.101	6.75
735.852	3.75
736.603	3.75
737.354	3.75
738.104	4.75
738.855	2.75
739.605	1.75
740.356	3.75
741.106	3.75
741.856	4.75
742.607	5.75
743.357	4.75
744.107	6.75
744.857	4.75
745.607	3.75
746.357	4.75
747.106	4.75
747.856	3.75
748.606	4.75
749.355	2.75
750.105	4.75
750.854	2.75
751.603	6.75
752.353	5.75
753.102	3.75
753.851	5.75
754.6	5.75
755.349	6.75
756.098	3.75
756.847	2.75
757.595	1.75
758.344	4.75
759.093	5.75
759.841	6.75
760.589	7.75
761.338	5.75
762.086	5.75
762.834	6.75
763.582	6.75
764.331	6.75
765.079	6.75
765.826	6.75
766.574	4.75
767.322	6.75
768.07	5.75
768.817	6.75
769.565	7.75
770.312	5.75
771.06	4.75
771.807	5.75
772.554	8.75
773.302	6.75
774.049	6.75
774.796	6.75
775.543	6.75
776.29	6.75
777.036	8.75
777.783	7.75
778.53	7.75
779.276	6.75
780.023	5.75
780.769	6.75
781.516	8.75
782.262	5.75
783.008	7.75
783.754	10.75
784.5	6.75
785.246	8.75
785.992	4.75
786.738	8.75
787.484	7.75
788.23	8.75
788.975	7.75
789.721	7.75
790.466	8.75
791.212	7.75
791.957	10.75
792.702	7.75
793.447	6.75
794.193	7.75
794.938	8.75
795.683	7.75
796.427	7.75
797.172	6.75
797.917	7.75
798.662	6.75
799.406	8.75
800.151	4.75
800.895	7.75
801.64	9.75
802.384	8.75
803.128	7.75
803.872	5.75
804.616	6.75
805.36	5.75
806.104	3.75
806.848	4.75
807.592	6.75
808.336	5.75
809.079	4.75
809.823	7.75
810.566	4.75
811.31	5.75
812.053	6.75
812.796	1.75
813.539	7.75
814.283	5.75
815.026	4.75
815.769	2.75
816.511	6.75
817.254	2.75
817.997	2.75
818.74	3.75
819.482	5.75
820.225	3.75
820.967	4.75
821.71	2.75
822.452	4.75
823.194	4.75
823.936	4.75
824.678	4.75
825.42	6.75
826.162	1.75
826.904	3.75
827.646	4.75
828.388	1.75
829.129	3.75
829.871	3.75
830.612	2.75
831.354	2.75
832.095	4.75
832.836	5.75
833.577	1.75
834.319	2.75
835.06	1.75
835.801	5.75
836.542	4.75
837.282	3.75
838.023	4.75
838.764	3.75
839.504	3.75
840.245	2.75
840.985	3.75
841.726	1.75
842.466	4.75
843.206	0.75
843.946	2.75
844.687	4.75
845.427	1.75
846.166	2.75
846.906	3.75
847.646	-0.25
848.386	3.75
849.125	1.75
849.865	0.75
850.605	1.75
851.344	2.75
852.083	3.75
852.823	0.75
853.562	3.75
854.301	1.75
855.04	1.75
855.779	2.75
856.518	1.75
857.257	1.75
857.995	0.75
858.734	3.75
859.473	4.75
860.211	-0.25
860.95	0.75
861.688	1.75
862.426	1.75
863.165	1.75
863.903	3.75
864.641	1.75
865.379	2.75
866.117	-0.25
866.855	1.75
867.593	1.75
868.33	3.75
869.068	1.75
869.806	1.75
870.543	0.75
871.28	1.75
872.018	-0.25
872.755	1.75
873.492	2.75
874.229	-0.25
874.967	1.75
875.703	-0.25
876.44	1.75
877.177	-0.25
877.914	0.75
878.651	-0.25
879.387	0.75
880.124	0.75
880.86	-0.25
881.597	0.75
882.333	-0.25
883.069	0.75
883.806	-0.25
884.542	1.75
885.278	-1.25
886.014	-0.25
886.749	-0.25
887.485	0.75
888.221	-2.25
888.957	-0.25
889.692	0.75
890.428	-0.25
891.163	-0.25
891.899	2.75
892.634	3.75
893.369	0.75
894.104	0.75
894.839	-0.25
895.574	0.75
896.309	-0.25
897.044	0.75
897.779	-1.25
898.514	-0.25
899.248	1.75
899.983	-0.25
900.717	-0.25
901.452	-0.25
902.186	-1.25
902.92	1.75
903.654	0.75
904.389	2.75
905.123	1.75
905.857	0.75
906.59	-1.25
907.324	1.75
908.058	-0.25
908.792	-0.25
909.525	0.75
910.259	-1.25
910.992	1.75
911.726	0.75
912.459	-1.25
913.192	0.75
913.925	-1.25
914.658	1.75
915.391	-0.25
916.124	1.75
916.857	-0.25
917.59	-0.25
918.323	-1.25
919.055	0.75
919.788	0.75
920.521	-1.25
921.253	-0.25
921.985	0.75
922.718	0.75
923.45	0.75
924.182	-0.25
924.914	-1.25
925.646	1.75
926.378	1.75
927.11	-0.25
927.841	-0.25
928.573	1.75
929.305	-2.25
930.036	0.75
930.768	-0.25
931.499	2.75
932.23	1.75
932.962	0.75
933.693	2.75
934.424	0.75
935.155	-0.25
935.886	0.75
936.617	-0.25
937.348	-2.25
938.078	-0.25
938.809	0.75
939.54	-1.25
940.27	1.75
941.001	-0.25
941.731	-2.25
942.461	0.75
943.191	-1.25
943.922	-2.25
944.652	0.75
945.382	-0.25
946.112	1.75
946.841	-1.25
947.571	0.75
948.301	0.75
949.031	-0.25
949.76	-1.25
950.49	0.75
951.219	0.75
951.948	-1.25
952.678	-0.25
953.407	0.75
954.136	2.75
954.865	-0.25
955.594	-1.25
956.323	0.75
957.052	-0.25
957.78	-1.25
958.509	-0.25
959.238	1.75
959.966	-0.25
960.695	-1.25
961.423	0.75
962.151	-0.25
962.88	1.75
963.608	-1.25
964.336	-0.25
965.064	1.75
965.792	0.75
966.52	-0.25
967.247	1.75
967.975	-1.25
968.703	-1.25
969.43	-0.25
970.158	0.75
970.885	-0.25
971.613	-1.25
972.34	-0.25
973.067	0.75
973.794	-0.25
974.521	-0.25
975.248	-0.25
975.975	-0.25
976.702	-0.25
977.429	0.75
978.156	0.75
978.882	0.75
979.609	-1.25
980.335	-0.25
981.062	0.75
981.788	0.75
982.514	-0.25
983.24	0.75
983.967	-0.25
984.693	-1.25
985.419	1.75
986.144	-1.25
986.87	0.75
987.596	0.75
988.322	1.75
989.047	-0.25
989.773	-0.25
990.498	0.75
991.224	0.75
991.949	-0.25
992.674	1.75
993.399	0.75
994.124	-1.25
994.849	-0.25
995.574	-0.25
996.299	-1.25
997.024	-0.25
997.749	-1.25
998.473	-2.25
999.198	1.75
999.922	0.75
1000.647	1.75
1001.371	2.75
1002.095	-1.25
1002.82	0.75
1003.544	-2.25
1004.268	-0.25
1004.992	-1.25
1005.716	-2.25
1006.439	0.75
1007.163	0.75
1007.887	1.75
1008.611	-0.25
1009.334	0.75
1010.058	0.75
1010.781	-0.25
1011.504	1.75
1012.228	1.75
1012.951	0.75
1013.674	-0.25
1014.397	-1.25
1015.12	0.75
