节点500_285_QEPB04081__374__15-01-46-662.txt的数据

Date: Wed Nov 12 15:01:46 CST 2025
User: PC
Spectrometer: QEPB0408
触发模式: 0
积分时间 (秒): 1.000000E-2
Scans to average: 1
启用暗噪声校正: true
启用非线性校正: false
滑动平均宽度: 0
X轴模式: Wavelengths
Number of Pixels in Spectrum: 1044
>>>>>Begin Spectral Data<<<<<
220.843	3
221.644	-2
222.444	0
223.244	2
224.045	3
224.845	2
225.645	2
226.445	0
227.245	2
228.045	2
228.845	4
229.645	3
230.444	5
231.244	1
232.043	3
232.843	3
233.642	4
234.442	4
235.241	3
236.04	3
236.839	5
237.638	3
238.437	4
239.236	5
240.035	3
240.833	6
241.632	4
242.43	3
243.229	5
244.027	3
244.826	4
245.624	7
246.422	6
247.22	6
248.018	6
248.816	6
249.614	7
250.412	4
251.21	9
252.007	6
252.805	7
253.602	8
254.4	6
255.197	8
255.994	6
256.791	6
257.589	11
258.386	7
259.183	10
259.979	8
260.776	8
261.573	10
262.37	10
263.166	12
263.963	12
264.759	13
265.556	13
266.352	11
267.148	14
267.944	12
268.74	16
269.536	14
270.332	16
271.128	14
271.924	16
272.719	19
273.515	14
274.311	16
275.106	17
275.901	17
276.697	17
277.492	20
278.287	20
279.082	19
279.877	18
280.672	19
281.467	19
282.262	18
283.056	20
283.851	19
284.646	20
285.44	17
286.234	18
287.029	19
287.823	18
288.617	17
289.411	19
290.205	20
290.999	16
291.793	17
292.587	15
293.381	20
294.174	18
294.968	18
295.761	15
296.555	14
297.348	16
298.141	14
298.935	18
299.728	15
300.521	15
301.314	14
302.107	14
302.899	15
303.692	10
304.485	14
305.277	13
306.07	13
306.862	10
307.655	12
308.447	12
309.239	12
310.031	16
310.823	10
311.615	12
312.407	8
313.199	11
313.991	8
314.783	10
315.574	11
316.366	8
317.157	10
317.949	8
318.74	7
319.531	9
320.322	6
321.113	8
321.904	7
322.695	9
323.486	9
324.277	8
325.068	8
325.858	7
326.649	7
327.439	6
328.23	8
329.02	8
329.81	4
330.6	6
331.391	8
332.181	8
332.971	9
333.76	5
334.55	7
335.34	6
336.13	7
336.919	8
337.709	6
338.498	5
339.287	5
340.077	5
340.866	8
341.655	7
342.444	5
343.233	7
344.022	7
344.811	4
345.6	5
346.388	5
347.177	5
347.965	5
348.754	6
349.542	7
350.33	6
351.119	5
351.907	6
352.695	5
353.483	6
354.271	6
355.059	6
355.846	5
356.634	6
357.422	8
358.209	4
358.997	7
359.784	6
360.571	5
361.359	5
362.146	7
362.933	5
363.72	5
364.507	6
365.294	7
366.081	5
366.867	5
367.654	7
368.44	5
369.227	4
370.013	7
370.8	6
371.586	4
372.372	6
373.158	3
373.944	8
374.73	3
375.516	5
376.302	7
377.088	5
377.873	5
378.659	2
379.445	5
380.23	3
381.015	5
381.801	5
382.586	5
383.371	5
384.156	6
384.941	8
385.726	6
386.511	5
387.296	6
388.08	6
388.865	7
389.649	9
390.434	7
391.218	8
392.003	5
392.787	7
393.571	8
394.355	6
395.139	6
395.923	7
396.707	8
397.491	8
398.274	8
399.058	7
399.842	8
400.625	9
401.408	5
402.192	7
402.975	10
403.758	4
404.541	9
405.324	7
406.107	8
406.89	6
407.673	8
408.456	9
409.238	9
410.021	9
410.803	6
411.586	9
412.368	8
413.151	9
413.933	10
414.715	11
415.497	10
416.279	9
417.061	11
417.843	9
418.624	7
419.406	10
420.188	10
420.969	11
421.751	11
422.532	11
423.313	9
424.095	12
424.876	11
425.657	10
426.438	14
427.219	14
428	13
428.78	16
429.561	14
430.342	13
431.122	15
431.903	16
432.683	13
433.464	14
434.244	15
435.024	16
435.804	20
436.584	17
437.364	23
438.144	18
438.924	22
439.704	21
440.483	23
441.263	23
442.042	26
442.822	27
443.601	29
444.38	29
445.16	30
445.939	36
446.718	34
447.497	36
448.276	43
449.054	45
449.833	48
450.612	53
451.391	57
452.169	63
452.948	67
453.726	76
454.504	86
455.282	92
456.061	100
456.839	109
457.617	125
458.395	138
459.172	153
459.95	168
460.728	190
461.506	207
462.283	236
463.061	257
463.838	290
464.615	317
465.393	358
466.17	394
466.947	454
467.724	507
468.501	561
469.278	624
470.055	689
470.831	773
471.608	861
472.385	952
473.161	1050
473.938	1179
474.714	1290
475.49	1425
476.266	1569
477.043	1741
477.819	1933
478.595	2120
479.371	2342
480.146	2574
480.922	2865
481.698	3134
482.473	3474
483.249	3808
484.024	4204
484.8	4631
485.575	5046
486.35	5527
487.126	6070
487.901	6668
488.676	7301
489.451	8034
490.225	8747
491	9565
491.775	10478
492.55	11360
493.324	12351
494.099	13283
494.873	14258
495.647	15457
496.422	16608
497.196	17819
497.97	18970
498.744	20132
499.518	21269
500.292	22434
501.066	23473
501.839	24450
502.613	25326
503.387	26120
504.16	26845
504.934	27046
505.707	27286
506.48	27381
507.253	27236
508.027	27010
508.8	26716
509.573	26295
510.346	25792
511.118	24967
511.891	24162
512.664	23354
513.437	22480
514.209	21576
514.982	20691
515.754	19777
516.526	18907
517.298	18083
518.071	17212
518.843	16603
519.615	15990
520.387	15417
521.159	14755
521.93	14180
522.702	13567
523.474	13047
524.245	12428
525.017	11909
525.788	11489
526.56	10964
527.331	10431
528.102	10003
528.873	9508
529.644	9091
530.415	8603
531.186	8163
531.957	7743
532.728	7391
533.498	6962
534.269	6591
535.039	6247
535.81	5879
536.58	5544
537.351	5216
538.121	4946
538.891	4672
539.661	4421
540.431	4197
541.201	3950
541.971	3728
542.741	3559
543.51	3376
544.28	3224
545.05	3058
545.819	2896
546.588	2768
547.358	2640
548.127	2495
548.896	2371
549.665	2242
550.434	2119
551.203	2005
551.972	1896
552.741	1788
553.51	1702
554.278	1622
555.047	1526
555.815	1432
556.584	1351
557.352	1272
558.121	1202
558.889	1132
559.657	1077
560.425	1008
561.193	963
561.961	890
562.729	857
563.496	802
564.264	764
565.032	715
565.799	692
566.567	650
567.334	610
568.101	579
568.869	550
569.636	508
570.403	477
571.17	455
571.937	430
572.704	404
573.471	379
574.237	366
575.004	351
575.771	322
576.537	297
577.303	284
578.07	267
578.836	252
579.602	237
580.368	226
581.134	221
581.9	198
582.666	189
583.432	177
584.198	173
584.964	161
585.729	151
586.495	154
587.26	136
588.025	136
588.791	125
589.556	117
590.321	113
591.086	107
591.851	106
592.616	91
593.381	89
594.146	86
594.911	86
595.675	81
596.44	76
597.204	70
597.969	75
598.733	67
599.497	65
600.261	58
601.025	54
601.79	55
602.553	54
603.317	52
604.081	48
604.845	48
605.609	45
606.372	40
607.136	38
607.899	38
608.662	38
609.426	34
610.189	34
610.952	33
611.715	34
612.478	30
613.241	29
614.004	30
614.767	27
615.529	24
616.292	25
617.055	26
617.817	24
618.579	23
619.342	22
620.104	20
620.866	22
621.628	19
622.39	19
623.152	18
623.914	18
624.676	17
625.438	17
626.199	17
626.961	14
627.722	15
628.484	14
629.245	13
630.006	17
630.768	17
631.529	13
632.29	13
633.051	13
633.812	10
634.573	12
635.333	10
636.094	11
636.855	8
637.615	12
638.376	10
639.136	8
639.896	11
640.657	8
641.417	12
642.177	9
642.937	10
643.697	9
644.457	7
645.216	10
645.976	8
646.736	10
647.495	9
648.255	9
649.014	5
649.774	10
650.533	9
651.292	8
652.051	6
652.81	9
653.569	4
654.328	6
655.087	7
655.846	8
656.604	5
657.363	9
658.121	5
658.88	7
659.638	8
660.397	5
661.155	7
661.913	7
662.671	7
663.429	5
664.187	5
664.945	6
665.703	5
666.46	8
667.218	6
667.976	3
668.733	8
669.49	5
670.248	3
671.005	7
671.762	5
672.519	4
673.276	4
674.033	4
674.79	3
675.547	4
676.304	4
677.06	3
677.817	4
678.574	5
679.33	3
680.086	6
680.843	2
681.599	5
682.355	5
683.111	4
683.867	7
684.623	4
685.379	1
686.135	3
686.89	5
687.646	4
688.402	5
689.157	3
689.912	2
690.668	2
691.423	4
692.178	5
692.933	2
693.688	5
694.443	1
695.198	6
695.953	3
696.708	3
697.462	5
698.217	6
698.972	5
699.726	3
700.48	4
701.235	5
701.989	5
702.743	2
703.497	5
704.251	6
705.005	1
705.759	4
706.513	6
707.266	2
708.02	5
708.774	5
709.527	2
710.28	5
711.034	3
711.787	0
712.54	3
713.293	4
714.046	3
714.799	5
715.552	5
716.305	3
717.058	2
717.81	5
718.563	6
719.315	2
720.068	5
720.82	4
721.573	4
722.325	5
723.077	3
723.829	7
724.581	4
725.333	3
726.085	5
726.836	4
727.588	4
728.34	6
729.091	3
729.843	5
730.594	3
731.346	4
732.097	3
732.848	5
733.599	3
734.35	3
735.101	5
735.852	3
736.603	6
737.354	5
738.104	4
738.855	4
739.605	5
740.356	5
741.106	5
741.856	7
742.607	5
743.357	6
744.107	3
744.857	5
745.607	4
746.357	7
747.106	6
747.856	7
748.606	6
749.355	3
750.105	5
750.854	4
751.603	5
752.353	6
753.102	5
753.851	6
754.6	6
755.349	5
756.098	6
756.847	4
757.595	8
758.344	8
759.093	8
759.841	7
760.589	6
761.338	7
762.086	6
762.834	5
763.582	7
764.331	7
765.079	9
765.826	7
766.574	6
767.322	5
768.07	5
768.817	8
769.565	7
770.312	9
771.06	8
771.807	8
772.554	10
773.302	9
774.049	8
774.796	9
775.543	9
776.29	8
777.036	9
777.783	10
778.53	7
779.276	9
780.023	9
780.769	8
781.516	10
782.262	9
783.008	8
783.754	8
784.5	10
785.246	10
785.992	10
786.738	9
787.484	8
788.23	9
788.975	10
789.721	8
790.466	8
791.212	10
791.957	11
792.702	8
793.447	7
794.193	10
794.938	8
795.683	9
796.427	9
797.172	6
797.917	4
798.662	8
799.406	7
800.151	7
800.895	7
801.64	8
802.384	7
803.128	9
803.872	7
804.616	6
805.36	8
806.104	9
806.848	8
807.592	8
808.336	5
809.079	7
809.823	6
810.566	5
811.31	6
812.053	4
812.796	6
813.539	4
814.283	7
815.026	3
815.769	4
816.511	5
817.254	5
817.997	4
818.74	3
819.482	7
820.225	5
820.967	5
821.71	4
822.452	4
823.194	8
823.936	4
824.678	6
825.42	5
826.162	6
826.904	4
827.646	4
828.388	8
829.129	4
829.871	4
830.612	4
831.354	2
832.095	4
832.836	2
833.577	4
834.319	3
835.06	8
835.801	4
836.542	2
837.282	4
838.023	4
838.764	3
839.504	2
840.245	5
840.985	4
841.726	3
842.466	5
843.206	3
843.946	4
844.687	2
845.427	3
846.166	2
846.906	2
847.646	2
848.386	2
849.125	3
849.865	2
850.605	3
851.344	5
852.083	3
852.823	3
853.562	3
854.301	1
855.04	2
855.779	1
856.518	5
857.257	2
857.995	2
858.734	2
859.473	3
860.211	2
860.95	2
861.688	1
862.426	2
863.165	-1
863.903	4
864.641	3
865.379	3
866.117	1
866.855	1
867.593	3
868.33	2
869.068	0
869.806	1
870.543	2
871.28	2
872.018	3
872.755	1
873.492	-1
874.229	3
874.967	1
875.703	2
876.44	-1
877.177	0
877.914	1
878.651	-1
879.387	2
880.124	4
880.86	1
881.597	0
882.333	1
883.069	2
883.806	0
884.542	3
885.278	2
886.014	1
886.749	2
887.485	2
888.221	1
888.957	2
889.692	1
890.428	0
891.163	2
891.899	1
892.634	-1
893.369	5
894.104	1
894.839	0
895.574	1
896.309	3
897.044	0
897.779	1
898.514	2
899.248	0
899.983	2
900.717	2
901.452	0
902.186	3
902.92	0
903.654	2
904.389	0
905.123	3
905.857	2
906.59	0
907.324	1
908.058	3
908.792	1
909.525	1
910.259	0
910.992	1
911.726	2
912.459	1
913.192	-1
913.925	-1
914.658	1
915.391	-2
916.124	1
916.857	2
917.59	0
918.323	2
919.055	1
919.788	2
920.521	2
921.253	-2
921.985	0
922.718	1
923.45	1
924.182	1
924.914	0
925.646	1
926.378	-1
927.11	1
927.841	2
928.573	0
929.305	2
930.036	1
930.768	0
931.499	0
932.23	0
932.962	0
933.693	-1
934.424	-1
935.155	0
935.886	1
936.617	-2
937.348	0
938.078	-1
938.809	2
939.54	0
940.27	2
941.001	0
941.731	0
942.461	0
943.191	1
943.922	2
944.652	2
945.382	0
946.112	1
946.841	-1
947.571	2
948.301	0
949.031	0
949.76	1
950.49	-1
951.219	0
951.948	-1
952.678	0
953.407	0
954.136	3
954.865	0
955.594	0
956.323	-1
957.052	-1
957.78	1
958.509	-1
959.238	1
959.966	2
960.695	0
961.423	0
962.151	-2
962.88	0
963.608	3
964.336	1
965.064	0
965.792	-2
966.52	1
967.247	-2
967.975	-1
968.703	1
969.43	0
970.158	1
970.885	1
971.613	0
972.34	2
973.067	2
973.794	2
974.521	1
975.248	2
975.975	0
976.702	2
977.429	0
978.156	-2
978.882	3
979.609	0
980.335	0
981.062	0
981.788	0
982.514	2
983.24	1
983.967	0
984.693	0
985.419	3
986.144	0
986.87	0
987.596	2
988.322	0
989.047	0
989.773	-2
990.498	2
991.224	2
991.949	1
992.674	4
993.399	-2
994.124	0
994.849	-1
995.574	0
996.299	0
997.024	0
997.749	1
998.473	0
999.198	0
999.922	0
1000.647	0
1001.371	4
1002.095	0
1002.82	-1
1003.544	0
1004.268	2
1004.992	1
1005.716	0
1006.439	0
1007.163	2
1007.887	2
1008.611	0
1009.334	-2
1010.058	2
1010.781	1
1011.504	1
1012.228	2
1012.951	-2
1013.674	0
1014.397	-1
1015.12	0
