节点500_285_QEPB04081__719__15-07-30-795.txt的数据

Date: Wed Nov 12 15:07:30 CST 2025
User: PC
Spectrometer: QEPB0408
触发模式: 0
积分时间 (秒): 1.000000E-2
Scans to average: 1
启用暗噪声校正: true
启用非线性校正: false
滑动平均宽度: 0
X轴模式: Wavelengths
Number of Pixels in Spectrum: 1044
>>>>>Begin Spectral Data<<<<<
220.843	1.38
221.644	-1.62
222.444	2.38
223.244	3.38
224.045	1.38
224.845	2.38
225.645	2.38
226.445	1.38
227.245	0.38
228.045	2.38
228.845	3.38
229.645	1.38
230.444	3.38
231.244	3.38
232.043	3.38
232.843	1.38
233.642	3.38
234.442	1.38
235.241	1.38
236.04	2.38
236.839	4.38
237.638	3.38
238.437	2.38
239.236	0.38
240.035	4.38
240.833	2.38
241.632	7.38
242.43	1.38
243.229	6.38
244.027	6.38
244.826	3.38
245.624	6.38
246.422	4.38
247.22	4.38
248.018	5.38
248.816	5.38
249.614	2.38
250.412	6.38
251.21	5.38
252.007	5.38
252.805	8.38
253.602	3.38
254.4	4.38
255.197	7.38
255.994	6.38
256.791	8.38
257.589	7.38
258.386	9.38
259.183	7.38
259.979	6.38
260.776	5.38
261.573	8.38
262.37	6.38
263.166	9.38
263.963	11.38
264.759	9.38
265.556	8.38
266.352	10.38
267.148	11.38
267.944	13.38
268.74	8.38
269.536	11.38
270.332	12.38
271.128	14.38
271.924	11.38
272.719	12.38
273.515	17.38
274.311	13.38
275.106	13.38
275.901	14.38
276.697	16.38
277.492	16.38
278.287	14.38
279.082	14.38
279.877	16.38
280.672	17.38
281.467	16.38
282.262	14.38
283.056	18.38
283.851	19.38
284.646	17.38
285.44	16.38
286.234	14.38
287.029	19.38
287.823	16.38
288.617	17.38
289.411	14.38
290.205	17.38
290.999	15.38
291.793	16.38
292.587	16.38
293.381	16.38
294.174	15.38
294.968	14.38
295.761	14.38
296.555	11.38
297.348	13.38
298.141	11.38
298.935	17.38
299.728	13.38
300.521	13.38
301.314	14.38
302.107	12.38
302.899	12.38
303.692	13.38
304.485	12.38
305.277	12.38
306.07	12.38
306.862	10.38
307.655	13.38
308.447	9.38
309.239	11.38
310.031	11.38
310.823	10.38
311.615	9.38
312.407	6.38
313.199	10.38
313.991	9.38
314.783	7.38
315.574	7.38
316.366	8.38
317.157	9.38
317.949	7.38
318.74	6.38
319.531	7.38
320.322	9.38
321.113	7.38
321.904	6.38
322.695	7.38
323.486	6.38
324.277	6.38
325.068	6.38
325.858	5.38
326.649	5.38
327.439	6.38
328.23	6.38
329.02	8.38
329.81	6.38
330.6	7.38
331.391	6.38
332.181	6.38
332.971	4.38
333.76	7.38
334.55	4.38
335.34	6.38
336.13	3.38
336.919	6.38
337.709	7.38
338.498	6.38
339.287	7.38
340.077	7.38
340.866	4.38
341.655	5.38
342.444	5.38
343.233	7.38
344.022	6.38
344.811	6.38
345.6	6.38
346.388	6.38
347.177	5.38
347.965	5.38
348.754	6.38
349.542	5.38
350.33	4.38
351.119	4.38
351.907	6.38
352.695	3.38
353.483	3.38
354.271	6.38
355.059	5.38
355.846	5.38
356.634	5.38
357.422	3.38
358.209	6.38
358.997	4.38
359.784	6.38
360.571	5.38
361.359	5.38
362.146	7.38
362.933	5.38
363.72	6.38
364.507	6.38
365.294	3.38
366.081	3.38
366.867	4.38
367.654	3.38
368.44	4.38
369.227	2.38
370.013	3.38
370.8	4.38
371.586	3.38
372.372	4.38
373.158	5.38
373.944	3.38
374.73	6.38
375.516	3.38
376.302	4.38
377.088	4.38
377.873	3.38
378.659	3.38
379.445	3.38
380.23	5.38
381.015	3.38
381.801	5.38
382.586	3.38
383.371	4.38
384.156	5.38
384.941	4.38
385.726	2.38
386.511	5.38
387.296	4.38
388.08	5.38
388.865	5.38
389.649	4.38
390.434	4.38
391.218	3.38
392.003	5.38
392.787	5.38
393.571	4.38
394.355	3.38
395.139	5.38
395.923	4.38
396.707	6.38
397.491	7.38
398.274	4.38
399.058	6.38
399.842	6.38
400.625	6.38
401.408	5.38
402.192	5.38
402.975	6.38
403.758	4.38
404.541	7.38
405.324	7.38
406.107	7.38
406.89	5.38
407.673	6.38
408.456	7.38
409.238	5.38
410.021	7.38
410.803	7.38
411.586	7.38
412.368	9.38
413.151	5.38
413.933	8.38
414.715	8.38
415.497	7.38
416.279	7.38
417.061	9.38
417.843	9.38
418.624	8.38
419.406	9.38
420.188	10.38
420.969	10.38
421.751	12.38
422.532	9.38
423.313	10.38
424.095	10.38
424.876	10.38
425.657	10.38
426.438	11.38
427.219	13.38
428	11.38
428.78	13.38
429.561	12.38
430.342	11.38
431.122	12.38
431.903	14.38
432.683	13.38
433.464	15.38
434.244	15.38
435.024	14.38
435.804	16.38
436.584	18.38
437.364	20.38
438.144	16.38
438.924	20.38
439.704	21.38
440.483	23.38
441.263	22.38
442.042	22.38
442.822	24.38
443.601	31.38
444.38	28.38
445.16	34.38
445.939	34.38
446.718	39.38
447.497	39.38
448.276	44.38
449.054	47.38
449.833	51.38
450.612	58.38
451.391	61.38
452.169	64.38
452.948	74.38
453.726	78.38
454.504	91.38
455.282	98.38
456.061	108.38
456.839	121.38
457.617	133.38
458.395	152.38
459.172	162.38
459.95	189.38
460.728	207.38
461.506	226.38
462.283	260.38
463.061	285.38
463.838	320.38
464.615	349.38
465.393	394.38
466.17	432.38
466.947	477.38
467.724	542.38
468.501	615.38
469.278	661.38
470.055	727.38
470.831	821.38
471.608	894.38
472.385	991.38
473.161	1093.38
473.938	1201.38
474.714	1337.38
475.49	1474.38
476.266	1601.38
477.043	1746.38
477.819	1944.38
478.595	2131.38
479.371	2305.38
480.146	2540.38
480.922	2793.38
481.698	3041.38
482.473	3325.38
483.249	3653.38
484.024	3978.38
484.8	4354.38
485.575	4761.38
486.35	5186.38
487.126	5642.38
487.901	6166.38
488.676	6701.38
489.451	7311.38
490.225	7952.38
491	8641.38
491.775	9358.38
492.55	10169.38
493.324	10950.38
494.099	11766.38
494.873	12658.38
495.647	13628.38
496.422	14594.38
497.196	15622.38
497.97	16669.38
498.744	17730.38
499.518	18777.38
500.292	19730.38
501.066	20869.38
501.839	21751.38
502.613	22628.38
503.387	23471.38
504.16	24128.38
504.934	24612.38
505.707	24962.38
506.48	25218.38
507.253	25379.38
508.027	25325.38
508.8	25297.38
509.573	25085.38
510.346	24704.38
511.118	24181.38
511.891	23646.38
512.664	22976.38
513.437	22221.38
514.209	21439.38
514.982	20723.38
515.754	19896.38
516.526	19072.38
517.298	18341.38
518.071	17544.38
518.843	16828.38
519.615	16266.38
520.387	15602.38
521.159	14974.38
521.93	14379.38
522.702	13853.38
523.474	13289.38
524.245	12681.38
525.017	12163.38
525.788	11719.38
526.56	11226.38
527.331	10694.38
528.102	10240.38
528.873	9772.38
529.644	9332.38
530.415	8899.38
531.186	8468.38
531.957	8043.38
532.728	7672.38
533.498	7290.38
534.269	6871.38
535.039	6534.38
535.81	6196.38
536.58	5849.38
537.351	5520.38
538.121	5223.38
538.891	4941.38
539.661	4704.38
540.431	4423.38
541.201	4185.38
541.971	3953.38
542.741	3740.38
543.51	3550.38
544.28	3394.38
545.05	3232.38
545.819	3069.38
546.588	2903.38
547.358	2785.38
548.127	2651.38
548.896	2489.38
549.665	2355.38
550.434	2227.38
551.203	2125.38
551.972	2031.38
552.741	1908.38
553.51	1817.38
554.278	1716.38
555.047	1613.38
555.815	1521.38
556.584	1440.38
557.352	1357.38
558.121	1293.38
558.889	1219.38
559.657	1171.38
560.425	1096.38
561.193	1023.38
561.961	971.38
562.729	919.38
563.496	865.38
564.264	818.38
565.032	772.38
565.799	732.38
566.567	686.38
567.334	645.38
568.101	616.38
568.869	578.38
569.636	549.38
570.403	513.38
571.17	482.38
571.937	457.38
572.704	438.38
573.471	412.38
574.237	388.38
575.004	366.38
575.771	345.38
576.537	319.38
577.303	304.38
578.07	284.38
578.836	274.38
579.602	259.38
580.368	231.38
581.134	231.38
581.9	216.38
582.666	210.38
583.432	196.38
584.198	181.38
584.964	179.38
585.729	166.38
586.495	160.38
587.26	150.38
588.025	140.38
588.791	132.38
589.556	125.38
590.321	119.38
591.086	116.38
591.851	109.38
592.616	101.38
593.381	97.38
594.146	93.38
594.911	96.38
595.675	82.38
596.44	81.38
597.204	78.38
597.969	71.38
598.733	71.38
599.497	66.38
600.261	60.38
601.025	61.38
601.79	57.38
602.553	55.38
603.317	49.38
604.081	51.38
604.845	49.38
605.609	46.38
606.372	44.38
607.136	41.38
607.899	39.38
608.662	39.38
609.426	36.38
610.189	36.38
610.952	33.38
611.715	33.38
612.478	34.38
613.241	32.38
614.004	32.38
614.767	30.38
615.529	28.38
616.292	27.38
617.055	26.38
617.817	25.38
618.579	24.38
619.342	23.38
620.104	20.38
620.866	21.38
621.628	17.38
622.39	20.38
623.152	19.38
623.914	16.38
624.676	19.38
625.438	15.38
626.199	18.38
626.961	13.38
627.722	15.38
628.484	12.38
629.245	13.38
630.006	14.38
630.768	13.38
631.529	14.38
632.29	13.38
633.051	11.38
633.812	11.38
634.573	12.38
635.333	12.38
636.094	9.38
636.855	12.38
637.615	11.38
638.376	9.38
639.136	8.38
639.896	5.38
640.657	9.38
641.417	9.38
642.177	8.38
642.937	10.38
643.697	7.38
644.457	7.38
645.216	6.38
645.976	8.38
646.736	9.38
647.495	6.38
648.255	7.38
649.014	7.38
649.774	8.38
650.533	7.38
651.292	7.38
652.051	5.38
652.81	8.38
653.569	7.38
654.328	5.38
655.087	6.38
655.846	6.38
656.604	5.38
657.363	5.38
658.121	6.38
658.88	4.38
659.638	3.38
660.397	4.38
661.155	6.38
661.913	3.38
662.671	2.38
663.429	4.38
664.187	5.38
664.945	5.38
665.703	4.38
666.46	4.38
667.218	4.38
667.976	4.38
668.733	3.38
669.49	3.38
670.248	3.38
671.005	3.38
671.762	6.38
672.519	3.38
673.276	4.38
674.033	4.38
674.79	6.38
675.547	1.38
676.304	5.38
677.06	4.38
677.817	3.38
678.574	3.38
679.33	3.38
680.086	2.38
680.843	1.38
681.599	4.38
682.355	4.38
683.111	3.38
683.867	4.38
684.623	2.38
685.379	6.38
686.135	4.38
686.89	3.38
687.646	2.38
688.402	2.38
689.157	4.38
689.912	3.38
690.668	2.38
691.423	3.38
692.178	4.38
692.933	2.38
693.688	1.38
694.443	4.38
695.198	1.38
695.953	2.38
696.708	0.38
697.462	3.38
698.217	2.38
698.972	4.38
699.726	5.38
700.48	3.38
701.235	3.38
701.989	3.38
702.743	2.38
703.497	0.38
704.251	1.38
705.005	2.38
705.759	5.38
706.513	2.38
707.266	2.38
708.02	4.38
708.774	3.38
709.527	3.38
710.28	4.38
711.034	3.38
711.787	4.38
712.54	1.38
713.293	4.38
714.046	3.38
714.799	6.38
715.552	3.38
716.305	3.38
717.058	3.38
717.81	4.38
718.563	1.38
719.315	2.38
720.068	0.38
720.82	2.38
721.573	1.38
722.325	1.38
723.077	2.38
723.829	3.38
724.581	4.38
725.333	5.38
726.085	2.38
726.836	5.38
727.588	2.38
728.34	3.38
729.091	3.38
729.843	2.38
730.594	3.38
731.346	3.38
732.097	4.38
732.848	3.38
733.599	5.38
734.35	2.38
735.101	4.38
735.852	3.38
736.603	4.38
737.354	4.38
738.104	3.38
738.855	3.38
739.605	1.38
740.356	1.38
741.106	4.38
741.856	5.38
742.607	2.38
743.357	3.38
744.107	3.38
744.857	4.38
745.607	3.38
746.357	5.38
747.106	4.38
747.856	4.38
748.606	1.38
749.355	4.38
750.105	4.38
750.854	6.38
751.603	2.38
752.353	4.38
753.102	3.38
753.851	5.38
754.6	3.38
755.349	3.38
756.098	6.38
756.847	1.38
757.595	6.38
758.344	4.38
759.093	5.38
759.841	4.38
760.589	6.38
761.338	5.38
762.086	6.38
762.834	3.38
763.582	4.38
764.331	4.38
765.079	5.38
765.826	6.38
766.574	3.38
767.322	4.38
768.07	7.38
768.817	5.38
769.565	5.38
770.312	6.38
771.06	4.38
771.807	3.38
772.554	5.38
773.302	7.38
774.049	6.38
774.796	7.38
775.543	5.38
776.29	6.38
777.036	7.38
777.783	8.38
778.53	4.38
779.276	8.38
780.023	8.38
780.769	8.38
781.516	5.38
782.262	7.38
783.008	7.38
783.754	9.38
784.5	9.38
785.246	6.38
785.992	6.38
786.738	8.38
787.484	9.38
788.23	8.38
788.975	5.38
789.721	5.38
790.466	6.38
791.212	8.38
791.957	4.38
792.702	7.38
793.447	8.38
794.193	6.38
794.938	7.38
795.683	9.38
796.427	7.38
797.172	7.38
797.917	5.38
798.662	7.38
799.406	5.38
800.151	4.38
800.895	7.38
801.64	6.38
802.384	5.38
803.128	5.38
803.872	7.38
804.616	6.38
805.36	5.38
806.104	6.38
806.848	4.38
807.592	5.38
808.336	3.38
809.079	7.38
809.823	3.38
810.566	5.38
811.31	5.38
812.053	3.38
812.796	5.38
813.539	5.38
814.283	5.38
815.026	3.38
815.769	2.38
816.511	4.38
817.254	5.38
817.997	4.38
818.74	4.38
819.482	3.38
820.225	2.38
820.967	3.38
821.71	3.38
822.452	0.38
823.194	3.38
823.936	3.38
824.678	2.38
825.42	3.38
826.162	5.38
826.904	3.38
827.646	2.38
828.388	4.38
829.129	3.38
829.871	3.38
830.612	0.38
831.354	5.38
832.095	2.38
832.836	3.38
833.577	2.38
834.319	3.38
835.06	2.38
835.801	5.38
836.542	3.38
837.282	2.38
838.023	2.38
838.764	3.38
839.504	4.38
840.245	1.38
840.985	3.38
841.726	1.38
842.466	4.38
843.206	4.38
843.946	3.38
844.687	1.38
845.427	2.38
846.166	1.38
846.906	1.38
847.646	6.38
848.386	4.38
849.125	1.38
849.865	0.38
850.605	1.38
851.344	1.38
852.083	2.38
852.823	3.38
853.562	1.38
854.301	-0.62
855.04	3.38
855.779	1.38
856.518	3.38
857.257	1.38
857.995	0.38
858.734	2.38
859.473	1.38
860.211	1.38
860.95	0.38
861.688	2.38
862.426	2.38
863.165	2.38
863.903	4.38
864.641	0.38
865.379	4.38
866.117	-0.62
866.855	0.38
867.593	0.38
868.33	0.38
869.068	0.38
869.806	3.38
870.543	2.38
871.28	1.38
872.018	-0.62
872.755	2.38
873.492	1.38
874.229	1.38
874.967	-0.62
875.703	2.38
876.44	3.38
877.177	1.38
877.914	-0.62
878.651	-0.62
879.387	0.38
880.124	-0.62
880.86	-0.62
881.597	-0.62
882.333	1.38
883.069	0.38
883.806	0.38
884.542	0.38
885.278	1.38
886.014	1.38
886.749	1.38
887.485	1.38
888.221	3.38
888.957	2.38
889.692	-0.62
890.428	0.38
891.163	-0.62
891.899	1.38
892.634	0.38
893.369	1.38
894.104	-0.62
894.839	1.38
895.574	-1.62
896.309	0.38
897.044	1.38
897.779	-2.62
898.514	-1.62
899.248	1.38
899.983	1.38
900.717	0.38
901.452	-0.62
902.186	0.38
902.92	0.38
903.654	1.38
904.389	1.38
905.123	1.38
905.857	-1.62
906.59	-2.62
907.324	1.38
908.058	1.38
908.792	0.38
909.525	2.38
910.259	-1.62
910.992	-0.62
911.726	-0.62
912.459	-0.62
913.192	-0.62
913.925	-0.62
914.658	0.38
915.391	-2.62
916.124	1.38
916.857	0.38
917.59	1.38
918.323	-0.62
919.055	2.38
919.788	1.38
920.521	1.38
921.253	0.38
921.985	-0.62
922.718	-0.62
923.45	1.38
924.182	-2.62
924.914	-1.62
925.646	-1.62
926.378	-0.62
927.11	0.38
927.841	1.38
928.573	-0.62
929.305	-0.62
930.036	-0.62
930.768	0.38
931.499	-1.62
932.23	0.38
932.962	1.38
933.693	0.38
934.424	-2.62
935.155	0.38
935.886	-0.62
936.617	-0.62
937.348	-0.62
938.078	0.38
938.809	4.38
939.54	0.38
940.27	-0.62
941.001	-0.62
941.731	2.38
942.461	-3.62
943.191	-0.62
943.922	1.38
944.652	0.38
945.382	0.38
946.112	3.38
946.841	0.38
947.571	0.38
948.301	0.38
949.031	1.38
949.76	-2.62
950.49	-0.62
951.219	2.38
951.948	-1.62
952.678	-2.62
953.407	-0.62
954.136	0.38
954.865	-0.62
955.594	-0.62
956.323	1.38
957.052	-0.62
957.78	-0.62
958.509	-0.62
959.238	-0.62
959.966	0.38
960.695	0.38
961.423	-0.62
962.151	-0.62
962.88	1.38
963.608	-0.62
964.336	0.38
965.064	-0.62
965.792	-1.62
966.52	-0.62
967.247	0.38
967.975	1.38
968.703	-0.62
969.43	-0.62
970.158	-1.62
970.885	-1.62
971.613	-0.62
972.34	-0.62
973.067	-0.62
973.794	-3.62
974.521	-0.62
975.248	-0.62
975.975	-0.62
976.702	-2.62
977.429	-0.62
978.156	0.38
978.882	-2.62
979.609	0.38
980.335	0.38
981.062	0.38
981.788	-0.62
982.514	0.38
983.24	-0.62
983.967	2.38
984.693	1.38
985.419	1.38
986.144	-2.62
986.87	0.38
987.596	-1.62
988.322	0.38
989.047	-0.62
989.773	-0.62
990.498	2.38
991.224	-2.62
991.949	1.38
992.674	0.38
993.399	-1.62
994.124	-0.62
994.849	-2.62
995.574	0.38
996.299	-1.62
997.024	1.38
997.749	-0.62
998.473	0.38
999.198	0.38
999.922	0.38
1000.647	-0.62
1001.371	4.38
1002.095	-0.62
1002.82	-2.62
1003.544	-0.62
1004.268	0.38
1004.992	-0.62
1005.716	-0.62
1006.439	0.38
1007.163	2.38
1007.887	-1.62
1008.611	-0.62
1009.334	0.38
1010.058	0.38
1010.781	-2.62
1011.504	1.38
1012.228	-0.62
1012.951	-0.62
1013.674	-0.62
1014.397	1.38
1015.12	-0.62
