节点500_285_QEPB04081__170__14-58-23-150.txt的数据

Date: Wed Nov 12 14:58:23 CST 2025
User: PC
Spectrometer: QEPB0408
触发模式: 0
积分时间 (秒): 1.000000E-2
Scans to average: 1
启用暗噪声校正: true
启用非线性校正: false
滑动平均宽度: 0
X轴模式: Wavelengths
Number of Pixels in Spectrum: 1044
>>>>>Begin Spectral Data<<<<<
220.843	0.25
221.644	1.25
222.444	1.25
223.244	2.25
224.045	2.25
224.845	1.25
225.645	2.25
226.445	2.25
227.245	2.25
228.045	3.25
228.845	3.25
229.645	4.25
230.444	5.25
231.244	1.25
232.043	2.25
232.843	1.25
233.642	2.25
234.442	1.25
235.241	5.25
236.04	3.25
236.839	3.25
237.638	6.25
238.437	7.25
239.236	3.25
240.035	6.25
240.833	6.25
241.632	4.25
242.43	5.25
243.229	1.25
244.027	4.25
244.826	6.25
245.624	5.25
246.422	6.25
247.22	5.25
248.018	4.25
248.816	3.25
249.614	6.25
250.412	5.25
251.21	7.25
252.007	5.25
252.805	7.25
253.602	7.25
254.4	6.25
255.197	8.25
255.994	7.25
256.791	8.25
257.589	8.25
258.386	8.25
259.183	9.25
259.979	10.25
260.776	10.25
261.573	10.25
262.37	9.25
263.166	11.25
263.963	11.25
264.759	13.25
265.556	11.25
266.352	13.25
267.148	12.25
267.944	11.25
268.74	16.25
269.536	15.25
270.332	14.25
271.128	17.25
271.924	15.25
272.719	16.25
273.515	17.25
274.311	19.25
275.106	19.25
275.901	17.25
276.697	18.25
277.492	20.25
278.287	17.25
279.082	19.25
279.877	20.25
280.672	17.25
281.467	17.25
282.262	21.25
283.056	19.25
283.851	21.25
284.646	20.25
285.44	19.25
286.234	18.25
287.029	16.25
287.823	20.25
288.617	19.25
289.411	21.25
290.205	20.25
290.999	17.25
291.793	16.25
292.587	20.25
293.381	19.25
294.174	18.25
294.968	16.25
295.761	14.25
296.555	14.25
297.348	15.25
298.141	17.25
298.935	19.25
299.728	16.25
300.521	16.25
301.314	16.25
302.107	14.25
302.899	12.25
303.692	13.25
304.485	12.25
305.277	12.25
306.07	13.25
306.862	13.25
307.655	13.25
308.447	10.25
309.239	12.25
310.031	13.25
310.823	11.25
311.615	11.25
312.407	11.25
313.199	12.25
313.991	7.25
314.783	10.25
315.574	9.25
316.366	9.25
317.157	8.25
317.949	7.25
318.74	7.25
319.531	8.25
320.322	7.25
321.113	6.25
321.904	9.25
322.695	6.25
323.486	7.25
324.277	9.25
325.068	7.25
325.858	7.25
326.649	6.25
327.439	7.25
328.23	10.25
329.02	6.25
329.81	6.25
330.6	2.25
331.391	8.25
332.181	5.25
332.971	7.25
333.76	6.25
334.55	6.25
335.34	8.25
336.13	7.25
336.919	6.25
337.709	8.25
338.498	6.25
339.287	6.25
340.077	7.25
340.866	7.25
341.655	8.25
342.444	7.25
343.233	6.25
344.022	4.25
344.811	8.25
345.6	6.25
346.388	6.25
347.177	6.25
347.965	6.25
348.754	5.25
349.542	5.25
350.33	5.25
351.119	5.25
351.907	6.25
352.695	7.25
353.483	4.25
354.271	6.25
355.059	6.25
355.846	7.25
356.634	6.25
357.422	3.25
358.209	2.25
358.997	5.25
359.784	5.25
360.571	6.25
361.359	6.25
362.146	6.25
362.933	6.25
363.72	6.25
364.507	5.25
365.294	5.25
366.081	5.25
366.867	5.25
367.654	3.25
368.44	6.25
369.227	5.25
370.013	5.25
370.8	5.25
371.586	4.25
372.372	4.25
373.158	6.25
373.944	5.25
374.73	5.25
375.516	7.25
376.302	5.25
377.088	5.25
377.873	5.25
378.659	6.25
379.445	4.25
380.23	6.25
381.015	4.25
381.801	2.25
382.586	3.25
383.371	4.25
384.156	5.25
384.941	5.25
385.726	7.25
386.511	6.25
387.296	3.25
388.08	5.25
388.865	7.25
389.649	8.25
390.434	5.25
391.218	4.25
392.003	8.25
392.787	4.25
393.571	8.25
394.355	6.25
395.139	8.25
395.923	5.25
396.707	7.25
397.491	7.25
398.274	7.25
399.058	10.25
399.842	8.25
400.625	6.25
401.408	10.25
402.192	7.25
402.975	10.25
403.758	9.25
404.541	6.25
405.324	6.25
406.107	8.25
406.89	6.25
407.673	8.25
408.456	9.25
409.238	9.25
410.021	9.25
410.803	6.25
411.586	7.25
412.368	11.25
413.151	7.25
413.933	9.25
414.715	10.25
415.497	9.25
416.279	10.25
417.061	9.25
417.843	11.25
418.624	11.25
419.406	8.25
420.188	11.25
420.969	10.25
421.751	11.25
422.532	11.25
423.313	13.25
424.095	9.25
424.876	8.25
425.657	10.25
426.438	13.25
427.219	14.25
428	12.25
428.78	13.25
429.561	13.25
430.342	12.25
431.122	15.25
431.903	13.25
432.683	15.25
433.464	16.25
434.244	14.25
435.024	17.25
435.804	17.25
436.584	19.25
437.364	18.25
438.144	20.25
438.924	21.25
439.704	19.25
440.483	26.25
441.263	24.25
442.042	25.25
442.822	26.25
443.601	28.25
444.38	28.25
445.16	31.25
445.939	37.25
446.718	35.25
447.497	39.25
448.276	41.25
449.054	45.25
449.833	45.25
450.612	48.25
451.391	53.25
452.169	62.25
452.948	62.25
453.726	73.25
454.504	76.25
455.282	83.25
456.061	92.25
456.839	107.25
457.617	116.25
458.395	131.25
459.172	143.25
459.95	163.25
460.728	177.25
461.506	195.25
462.283	223.25
463.061	246.25
463.838	289.25
464.615	313.25
465.393	344.25
466.17	386.25
466.947	422.25
467.724	487.25
468.501	541.25
469.278	595.25
470.055	675.25
470.831	747.25
471.608	839.25
472.385	928.25
473.161	1029.25
473.938	1138.25
474.714	1269.25
475.49	1411.25
476.266	1573.25
477.043	1735.25
477.819	1911.25
478.595	2138.25
479.371	2348.25
480.146	2580.25
480.922	2872.25
481.698	3171.25
482.473	3517.25
483.249	3854.25
484.024	4280.25
484.8	4719.25
485.575	5188.25
486.35	5686.25
487.126	6267.25
487.901	6943.25
488.676	7582.25
489.451	8345.25
490.225	9117.25
491	10006.25
491.775	10977.25
492.55	11923.25
493.324	12982.25
494.099	14012.25
494.873	15097.25
495.647	16290.25
496.422	17529.25
497.196	18764.25
497.97	20068.25
498.744	21284.25
499.518	22477.25
500.292	23653.25
501.066	24758.25
501.839	25653.25
502.613	26572.25
503.387	27326.25
504.16	27887.25
504.934	28100.25
505.707	28240.25
506.48	28150.25
507.253	28031.25
508.027	27645.25
508.8	27203.25
509.573	26683.25
510.346	25951.25
511.118	25206.25
511.891	24265.25
512.664	23437.25
513.437	22450.25
514.209	21505.25
514.982	20522.25
515.754	19583.25
516.526	18712.25
517.298	17920.25
518.071	17095.25
518.843	16457.25
519.615	15836.25
520.387	15173.25
521.159	14618.25
521.93	14035.25
522.702	13389.25
523.474	12902.25
524.245	12308.25
525.017	11788.25
525.788	11325.25
526.56	10827.25
527.331	10286.25
528.102	9837.25
528.873	9341.25
529.644	8875.25
530.415	8410.25
531.186	8029.25
531.957	7550.25
532.728	7163.25
533.498	6802.25
534.269	6416.25
535.039	6080.25
535.81	5733.25
536.58	5406.25
537.351	5066.25
538.121	4819.25
538.891	4564.25
539.661	4318.25
540.431	4070.25
541.201	3857.25
541.971	3648.25
542.741	3440.25
543.51	3262.25
544.28	3121.25
545.05	2958.25
545.819	2821.25
546.588	2682.25
547.358	2548.25
548.127	2407.25
548.896	2280.25
549.665	2192.25
550.434	2062.25
551.203	1949.25
551.972	1846.25
552.741	1745.25
553.51	1645.25
554.278	1554.25
555.047	1457.25
555.815	1385.25
556.584	1291.25
557.352	1233.25
558.121	1153.25
558.889	1093.25
559.657	1039.25
560.425	985.25
561.193	921.25
561.961	875.25
562.729	816.25
563.496	783.25
564.264	737.25
565.032	694.25
565.799	656.25
566.567	633.25
567.334	594.25
568.101	551.25
568.869	524.25
569.636	491.25
570.403	461.25
571.17	438.25
571.937	409.25
572.704	386.25
573.471	372.25
574.237	352.25
575.004	322.25
575.771	307.25
576.537	295.25
577.303	273.25
578.07	253.25
578.836	242.25
579.602	222.25
580.368	215.25
581.134	205.25
581.9	191.25
582.666	185.25
583.432	171.25
584.198	160.25
584.964	153.25
585.729	153.25
586.495	139.25
587.26	137.25
588.025	125.25
588.791	119.25
589.556	112.25
590.321	107.25
591.086	105.25
591.851	95.25
592.616	92.25
593.381	87.25
594.146	84.25
594.911	83.25
595.675	77.25
596.44	74.25
597.204	70.25
597.969	68.25
598.733	63.25
599.497	59.25
600.261	55.25
601.025	54.25
601.79	54.25
602.553	46.25
603.317	47.25
604.081	47.25
604.845	40.25
605.609	43.25
606.372	39.25
607.136	38.25
607.899	37.25
608.662	37.25
609.426	36.25
610.189	33.25
610.952	32.25
611.715	28.25
612.478	29.25
613.241	29.25
614.004	29.25
614.767	26.25
615.529	25.25
616.292	28.25
617.055	22.25
617.817	23.25
618.579	23.25
619.342	20.25
620.104	19.25
620.866	20.25
621.628	21.25
622.39	17.25
623.152	21.25
623.914	16.25
624.676	17.25
625.438	16.25
626.199	15.25
626.961	16.25
627.722	15.25
628.484	16.25
629.245	13.25
630.006	13.25
630.768	13.25
631.529	14.25
632.29	12.25
633.051	13.25
633.812	9.25
634.573	13.25
635.333	8.25
636.094	10.25
636.855	11.25
637.615	11.25
638.376	9.25
639.136	10.25
639.896	9.25
640.657	9.25
641.417	9.25
642.177	7.25
642.937	5.25
643.697	10.25
644.457	11.25
645.216	9.25
645.976	9.25
646.736	8.25
647.495	8.25
648.255	6.25
649.014	7.25
649.774	6.25
650.533	7.25
651.292	8.25
652.051	6.25
652.81	10.25
653.569	6.25
654.328	8.25
655.087	6.25
655.846	7.25
656.604	3.25
657.363	5.25
658.121	7.25
658.88	5.25
659.638	6.25
660.397	5.25
661.155	5.25
661.913	7.25
662.671	4.25
663.429	5.25
664.187	6.25
664.945	5.25
665.703	5.25
666.46	4.25
667.218	4.25
667.976	3.25
668.733	6.25
669.49	5.25
670.248	4.25
671.005	4.25
671.762	5.25
672.519	1.25
673.276	4.25
674.033	1.25
674.79	3.25
675.547	5.25
676.304	5.25
677.06	5.25
677.817	7.25
678.574	3.25
679.33	3.25
680.086	7.25
680.843	3.25
681.599	5.25
682.355	1.25
683.111	2.25
683.867	3.25
684.623	4.25
685.379	3.25
686.135	1.25
686.89	4.25
687.646	5.25
688.402	4.25
689.157	5.25
689.912	3.25
690.668	5.25
691.423	3.25
692.178	5.25
692.933	4.25
693.688	5.25
694.443	6.25
695.198	5.25
695.953	3.25
696.708	4.25
697.462	2.25
698.217	5.25
698.972	2.25
699.726	3.25
700.48	5.25
701.235	4.25
701.989	5.25
702.743	2.25
703.497	2.25
704.251	4.25
705.005	4.25
705.759	4.25
706.513	3.25
707.266	3.25
708.02	5.25
708.774	7.25
709.527	3.25
710.28	2.25
711.034	-0.75
711.787	2.25
712.54	4.25
713.293	3.25
714.046	5.25
714.799	3.25
715.552	3.25
716.305	4.25
717.058	3.25
717.81	2.25
718.563	1.25
719.315	5.25
720.068	4.25
720.82	3.25
721.573	3.25
722.325	3.25
723.077	3.25
723.829	5.25
724.581	4.25
725.333	5.25
726.085	4.25
726.836	1.25
727.588	4.25
728.34	5.25
729.091	1.25
729.843	5.25
730.594	4.25
731.346	3.25
732.097	4.25
732.848	3.25
733.599	4.25
734.35	3.25
735.101	3.25
735.852	4.25
736.603	3.25
737.354	4.25
738.104	4.25
738.855	8.25
739.605	3.25
740.356	4.25
741.106	6.25
741.856	1.25
742.607	4.25
743.357	4.25
744.107	5.25
744.857	3.25
745.607	7.25
746.357	4.25
747.106	5.25
747.856	6.25
748.606	5.25
749.355	6.25
750.105	4.25
750.854	5.25
751.603	5.25
752.353	5.25
753.102	5.25
753.851	3.25
754.6	4.25
755.349	5.25
756.098	6.25
756.847	6.25
757.595	6.25
758.344	6.25
759.093	5.25
759.841	6.25
760.589	6.25
761.338	4.25
762.086	7.25
762.834	6.25
763.582	6.25
764.331	8.25
765.079	6.25
765.826	5.25
766.574	7.25
767.322	9.25
768.07	7.25
768.817	8.25
769.565	7.25
770.312	7.25
771.06	7.25
771.807	7.25
772.554	5.25
773.302	8.25
774.049	6.25
774.796	6.25
775.543	7.25
776.29	8.25
777.036	9.25
777.783	8.25
778.53	8.25
779.276	10.25
780.023	10.25
780.769	7.25
781.516	8.25
782.262	8.25
783.008	5.25
783.754	7.25
784.5	10.25
785.246	11.25
785.992	9.25
786.738	7.25
787.484	7.25
788.23	11.25
788.975	9.25
789.721	10.25
790.466	10.25
791.212	7.25
791.957	10.25
792.702	11.25
793.447	8.25
794.193	8.25
794.938	8.25
795.683	8.25
796.427	9.25
797.172	7.25
797.917	7.25
798.662	9.25
799.406	8.25
800.151	9.25
800.895	6.25
801.64	8.25
802.384	8.25
803.128	9.25
803.872	6.25
804.616	8.25
805.36	9.25
806.104	8.25
806.848	5.25
807.592	3.25
808.336	6.25
809.079	4.25
809.823	4.25
810.566	6.25
811.31	4.25
812.053	6.25
812.796	6.25
813.539	7.25
814.283	6.25
815.026	5.25
815.769	4.25
816.511	4.25
817.254	5.25
817.997	4.25
818.74	4.25
819.482	5.25
820.225	5.25
820.967	3.25
821.71	6.25
822.452	4.25
823.194	3.25
823.936	2.25
824.678	1.25
825.42	3.25
826.162	4.25
826.904	5.25
827.646	1.25
828.388	4.25
829.129	2.25
829.871	2.25
830.612	1.25
831.354	3.25
832.095	5.25
832.836	3.25
833.577	5.25
834.319	6.25
835.06	4.25
835.801	3.25
836.542	3.25
837.282	4.25
838.023	2.25
838.764	3.25
839.504	6.25
840.245	5.25
840.985	3.25
841.726	3.25
842.466	3.25
843.206	4.25
843.946	1.25
844.687	5.25
845.427	3.25
846.166	3.25
846.906	1.25
847.646	5.25
848.386	0.25
849.125	4.25
849.865	4.25
850.605	3.25
851.344	3.25
852.083	0.25
852.823	1.25
853.562	4.25
854.301	2.25
855.04	3.25
855.779	0.25
856.518	2.25
857.257	1.25
857.995	3.25
858.734	1.25
859.473	1.25
860.211	2.25
860.95	3.25
861.688	3.25
862.426	2.25
863.165	0.25
863.903	1.25
864.641	1.25
865.379	3.25
866.117	1.25
866.855	4.25
867.593	2.25
868.33	1.25
869.068	1.25
869.806	1.25
870.543	1.25
871.28	2.25
872.018	3.25
872.755	2.25
873.492	0.25
874.229	2.25
874.967	1.25
875.703	1.25
876.44	1.25
877.177	1.25
877.914	2.25
878.651	1.25
879.387	0.25
880.124	-1.75
880.86	0.25
881.597	1.25
882.333	0.25
883.069	2.25
883.806	0.25
884.542	2.25
885.278	-0.75
886.014	1.25
886.749	2.25
887.485	0.25
888.221	-0.75
888.957	-0.75
889.692	2.25
890.428	1.25
891.163	1.25
891.899	2.25
892.634	1.25
893.369	2.25
894.104	0.25
894.839	1.25
895.574	0.25
896.309	-1.75
897.044	0.25
897.779	0.25
898.514	-0.75
899.248	-0.75
899.983	1.25
900.717	0.25
901.452	2.25
902.186	2.25
902.92	1.25
903.654	2.25
904.389	-1.75
905.123	0.25
905.857	1.25
906.59	1.25
907.324	0.25
908.058	-0.75
908.792	1.25
909.525	0.25
910.259	1.25
910.992	1.25
911.726	-0.75
912.459	-1.75
913.192	0.25
913.925	-1.75
914.658	0.25
915.391	1.25
916.124	-0.75
916.857	2.25
917.59	-0.75
918.323	1.25
919.055	1.25
919.788	0.25
920.521	1.25
921.253	-0.75
921.985	1.25
922.718	0.25
923.45	2.25
924.182	0.25
924.914	-0.75
925.646	0.25
926.378	0.25
927.11	1.25
927.841	2.25
928.573	1.25
929.305	2.25
930.036	-0.75
930.768	-0.75
931.499	-0.75
932.23	0.25
932.962	-0.75
933.693	1.25
934.424	0.25
935.155	0.25
935.886	0.25
936.617	0.25
937.348	1.25
938.078	0.25
938.809	2.25
939.54	0.25
940.27	-0.75
941.001	-0.75
941.731	1.25
942.461	0.25
943.191	1.25
943.922	-0.75
944.652	-0.75
945.382	0.25
946.112	1.25
946.841	0.25
947.571	0.25
948.301	0.25
949.031	1.25
949.76	1.25
950.49	-0.75
951.219	0.25
951.948	1.25
952.678	0.25
953.407	0.25
954.136	-2.75
954.865	1.25
955.594	1.25
956.323	-1.75
957.052	0.25
957.78	0.25
958.509	2.25
959.238	1.25
959.966	1.25
960.695	2.25
961.423	-0.75
962.151	0.25
962.88	0.25
963.608	0.25
964.336	-0.75
965.064	0.25
965.792	0.25
966.52	0.25
967.247	0.25
967.975	2.25
968.703	-1.75
969.43	1.25
970.158	-0.75
970.885	-0.75
971.613	-1.75
972.34	0.25
973.067	-1.75
973.794	1.25
974.521	-1.75
975.248	-0.75
975.975	1.25
976.702	0.25
977.429	0.25
978.156	1.25
978.882	-1.75
979.609	1.25
980.335	-1.75
981.062	1.25
981.788	-0.75
982.514	-0.75
983.24	-1.75
983.967	1.25
984.693	0.25
985.419	0.25
986.144	-0.75
986.87	1.25
987.596	1.25
988.322	-2.75
989.047	0.25
989.773	0.25
990.498	1.25
991.224	1.25
991.949	-0.75
992.674	2.25
993.399	1.25
994.124	0.25
994.849	0.25
995.574	-1.75
996.299	1.25
997.024	0.25
997.749	3.25
998.473	0.25
999.198	0.25
999.922	2.25
1000.647	-0.75
1001.371	3.25
1002.095	-0.75
1002.82	-0.75
1003.544	-2.75
1004.268	2.25
1004.992	4.25
1005.716	0.25
1006.439	1.25
1007.163	3.25
1007.887	2.25
1008.611	1.25
1009.334	1.25
1010.058	1.25
1010.781	1.25
1011.504	-0.75
1012.228	-0.75
1012.951	1.25
1013.674	-0.75
1014.397	1.25
1015.12	-0.75
