节点500_285_QEPB04081__815__15-09-06-733.txt的数据

Date: Wed Nov 12 15:09:06 CST 2025
User: PC
Spectrometer: QEPB0408
触发模式: 0
积分时间 (秒): 1.000000E-2
Scans to average: 1
启用暗噪声校正: true
启用非线性校正: false
滑动平均宽度: 0
X轴模式: Wavelengths
Number of Pixels in Spectrum: 1044
>>>>>Begin Spectral Data<<<<<
220.843	2.25
221.644	3.25
222.444	3.25
223.244	3.25
224.045	1.25
224.845	2.25
225.645	2.25
226.445	2.25
227.245	2.25
228.045	2.25
228.845	3.25
229.645	3.25
230.444	1.25
231.244	4.25
232.043	5.25
232.843	4.25
233.642	5.25
234.442	3.25
235.241	4.25
236.04	3.25
236.839	4.25
237.638	4.25
238.437	3.25
239.236	5.25
240.035	4.25
240.833	2.25
241.632	2.25
242.43	5.25
243.229	6.25
244.027	4.25
244.826	5.25
245.624	6.25
246.422	6.25
247.22	4.25
248.018	6.25
248.816	3.25
249.614	5.25
250.412	6.25
251.21	3.25
252.007	5.25
252.805	5.25
253.602	5.25
254.4	7.25
255.197	7.25
255.994	5.25
256.791	9.25
257.589	9.25
258.386	8.25
259.183	6.25
259.979	9.25
260.776	8.25
261.573	10.25
262.37	9.25
263.166	9.25
263.963	8.25
264.759	12.25
265.556	9.25
266.352	12.25
267.148	15.25
267.944	12.25
268.74	13.25
269.536	12.25
270.332	12.25
271.128	12.25
271.924	13.25
272.719	12.25
273.515	14.25
274.311	15.25
275.106	13.25
275.901	17.25
276.697	17.25
277.492	16.25
278.287	16.25
279.082	14.25
279.877	17.25
280.672	18.25
281.467	18.25
282.262	17.25
283.056	17.25
283.851	16.25
284.646	19.25
285.44	16.25
286.234	17.25
287.029	15.25
287.823	16.25
288.617	18.25
289.411	16.25
290.205	16.25
290.999	17.25
291.793	17.25
292.587	17.25
293.381	16.25
294.174	13.25
294.968	16.25
295.761	17.25
296.555	14.25
297.348	17.25
298.141	14.25
298.935	15.25
299.728	12.25
300.521	11.25
301.314	14.25
302.107	14.25
302.899	14.25
303.692	13.25
304.485	13.25
305.277	10.25
306.07	13.25
306.862	14.25
307.655	15.25
308.447	14.25
309.239	10.25
310.031	13.25
310.823	10.25
311.615	14.25
312.407	10.25
313.199	10.25
313.991	9.25
314.783	9.25
315.574	9.25
316.366	8.25
317.157	7.25
317.949	9.25
318.74	9.25
319.531	8.25
320.322	8.25
321.113	9.25
321.904	8.25
322.695	6.25
323.486	5.25
324.277	7.25
325.068	7.25
325.858	7.25
326.649	7.25
327.439	6.25
328.23	7.25
329.02	6.25
329.81	6.25
330.6	9.25
331.391	8.25
332.181	6.25
332.971	3.25
333.76	7.25
334.55	5.25
335.34	6.25
336.13	5.25
336.919	5.25
337.709	8.25
338.498	8.25
339.287	5.25
340.077	4.25
340.866	8.25
341.655	7.25
342.444	5.25
343.233	8.25
344.022	3.25
344.811	6.25
345.6	7.25
346.388	4.25
347.177	7.25
347.965	5.25
348.754	5.25
349.542	6.25
350.33	7.25
351.119	6.25
351.907	5.25
352.695	7.25
353.483	2.25
354.271	5.25
355.059	6.25
355.846	2.25
356.634	6.25
357.422	4.25
358.209	7.25
358.997	7.25
359.784	4.25
360.571	6.25
361.359	4.25
362.146	4.25
362.933	7.25
363.72	4.25
364.507	5.25
365.294	2.25
366.081	7.25
366.867	4.25
367.654	5.25
368.44	7.25
369.227	5.25
370.013	7.25
370.8	3.25
371.586	5.25
372.372	5.25
373.158	4.25
373.944	3.25
374.73	5.25
375.516	6.25
376.302	4.25
377.088	7.25
377.873	5.25
378.659	4.25
379.445	2.25
380.23	6.25
381.015	6.25
381.801	6.25
382.586	6.25
383.371	4.25
384.156	6.25
384.941	4.25
385.726	7.25
386.511	5.25
387.296	4.25
388.08	6.25
388.865	6.25
389.649	6.25
390.434	6.25
391.218	6.25
392.003	4.25
392.787	6.25
393.571	6.25
394.355	7.25
395.139	6.25
395.923	7.25
396.707	5.25
397.491	5.25
398.274	4.25
399.058	7.25
399.842	5.25
400.625	7.25
401.408	7.25
402.192	5.25
402.975	8.25
403.758	7.25
404.541	8.25
405.324	7.25
406.107	8.25
406.89	8.25
407.673	4.25
408.456	6.25
409.238	6.25
410.021	8.25
410.803	6.25
411.586	8.25
412.368	9.25
413.151	7.25
413.933	11.25
414.715	8.25
415.497	10.25
416.279	11.25
417.061	9.25
417.843	8.25
418.624	9.25
419.406	11.25
420.188	10.25
420.969	12.25
421.751	11.25
422.532	11.25
423.313	11.25
424.095	10.25
424.876	11.25
425.657	12.25
426.438	11.25
427.219	13.25
428	14.25
428.78	13.25
429.561	13.25
430.342	14.25
431.122	14.25
431.903	12.25
432.683	14.25
433.464	14.25
434.244	16.25
435.024	16.25
435.804	19.25
436.584	14.25
437.364	18.25
438.144	20.25
438.924	23.25
439.704	20.25
440.483	22.25
441.263	25.25
442.042	24.25
442.822	26.25
443.601	29.25
444.38	29.25
445.16	33.25
445.939	34.25
446.718	37.25
447.497	41.25
448.276	45.25
449.054	46.25
449.833	55.25
450.612	55.25
451.391	65.25
452.169	70.25
452.948	74.25
453.726	78.25
454.504	91.25
455.282	105.25
456.061	111.25
456.839	124.25
457.617	135.25
458.395	150.25
459.172	168.25
459.95	190.25
460.728	209.25
461.506	233.25
462.283	256.25
463.061	286.25
463.838	316.25
464.615	356.25
465.393	392.25
466.17	441.25
466.947	494.25
467.724	543.25
468.501	593.25
469.278	666.25
470.055	738.25
470.831	812.25
471.608	906.25
472.385	1000.25
473.161	1106.25
473.938	1196.25
474.714	1330.25
475.49	1469.25
476.266	1613.25
477.043	1768.25
477.819	1925.25
478.595	2126.25
479.371	2319.25
480.146	2549.25
480.922	2779.25
481.698	3016.25
482.473	3322.25
483.249	3618.25
484.024	3971.25
484.8	4325.25
485.575	4714.25
486.35	5130.25
487.126	5589.25
487.901	6095.25
488.676	6614.25
489.451	7190.25
490.225	7817.25
491	8476.25
491.775	9233.25
492.55	9996.25
493.324	10807.25
494.099	11543.25
494.873	12439.25
495.647	13354.25
496.422	14297.25
497.196	15235.25
497.97	16348.25
498.744	17325.25
499.518	18342.25
500.292	19336.25
501.066	20337.25
501.839	21260.25
502.613	22156.25
503.387	23026.25
504.16	23722.25
504.934	24210.25
505.707	24507.25
506.48	24779.25
507.253	24994.25
508.027	25065.25
508.8	25034.25
509.573	24802.25
510.346	24423.25
511.118	23942.25
511.891	23428.25
512.664	22818.25
513.437	22181.25
514.209	21365.25
514.982	20654.25
515.754	19799.25
516.526	19061.25
517.298	18293.25
518.071	17559.25
518.843	16859.25
519.615	16301.25
520.387	15627.25
521.159	15025.25
521.93	14385.25
522.702	13869.25
523.474	13296.25
524.245	12689.25
525.017	12180.25
525.788	11696.25
526.56	11228.25
527.331	10714.25
528.102	10262.25
528.873	9804.25
529.644	9361.25
530.415	8956.25
531.186	8523.25
531.957	8124.25
532.728	7755.25
533.498	7333.25
534.269	6937.25
535.039	6602.25
535.81	6223.25
536.58	5912.25
537.351	5572.25
538.121	5243.25
538.891	4977.25
539.661	4741.25
540.431	4466.25
541.201	4217.25
541.971	4005.25
542.741	3798.25
543.51	3586.25
544.28	3423.25
545.05	3266.25
545.819	3064.25
546.588	2954.25
547.358	2813.25
548.127	2662.25
548.896	2528.25
549.665	2393.25
550.434	2282.25
551.203	2152.25
551.972	2049.25
552.741	1939.25
553.51	1834.25
554.278	1729.25
555.047	1633.25
555.815	1546.25
556.584	1472.25
557.352	1393.25
558.121	1310.25
558.889	1226.25
559.657	1169.25
560.425	1106.25
561.193	1032.25
561.961	983.25
562.729	936.25
563.496	883.25
564.264	834.25
565.032	790.25
565.799	752.25
566.567	703.25
567.334	664.25
568.101	630.25
568.869	594.25
569.636	550.25
570.403	516.25
571.17	495.25
571.937	467.25
572.704	437.25
573.471	420.25
574.237	391.25
575.004	371.25
575.771	349.25
576.537	329.25
577.303	312.25
578.07	291.25
578.836	273.25
579.602	252.25
580.368	241.25
581.134	233.25
581.9	220.25
582.666	214.25
583.432	200.25
584.198	191.25
584.964	181.25
585.729	168.25
586.495	160.25
587.26	147.25
588.025	143.25
588.791	138.25
589.556	134.25
590.321	127.25
591.086	116.25
591.851	106.25
592.616	104.25
593.381	98.25
594.146	94.25
594.911	89.25
595.675	86.25
596.44	85.25
597.204	79.25
597.969	73.25
598.733	73.25
599.497	70.25
600.261	65.25
601.025	63.25
601.79	57.25
602.553	58.25
603.317	55.25
604.081	50.25
604.845	47.25
605.609	48.25
606.372	49.25
607.136	44.25
607.899	41.25
608.662	41.25
609.426	39.25
610.189	35.25
610.952	34.25
611.715	33.25
612.478	33.25
613.241	32.25
614.004	28.25
614.767	30.25
615.529	27.25
616.292	26.25
617.055	27.25
617.817	26.25
618.579	23.25
619.342	24.25
620.104	23.25
620.866	23.25
621.628	20.25
622.39	22.25
623.152	20.25
623.914	20.25
624.676	16.25
625.438	17.25
626.199	17.25
626.961	15.25
627.722	17.25
628.484	13.25
629.245	12.25
630.006	15.25
630.768	13.25
631.529	15.25
632.29	13.25
633.051	12.25
633.812	12.25
634.573	12.25
635.333	10.25
636.094	14.25
636.855	12.25
637.615	10.25
638.376	10.25
639.136	12.25
639.896	10.25
640.657	10.25
641.417	9.25
642.177	8.25
642.937	10.25
643.697	8.25
644.457	9.25
645.216	7.25
645.976	10.25
646.736	9.25
647.495	10.25
648.255	6.25
649.014	5.25
649.774	8.25
650.533	6.25
651.292	9.25
652.051	7.25
652.81	5.25
653.569	4.25
654.328	7.25
655.087	7.25
655.846	5.25
656.604	6.25
657.363	5.25
658.121	6.25
658.88	5.25
659.638	5.25
660.397	6.25
661.155	5.25
661.913	4.25
662.671	3.25
663.429	5.25
664.187	3.25
664.945	8.25
665.703	6.25
666.46	4.25
667.218	6.25
667.976	7.25
668.733	3.25
669.49	5.25
670.248	1.25
671.005	1.25
671.762	4.25
672.519	7.25
673.276	4.25
674.033	3.25
674.79	4.25
675.547	3.25
676.304	7.25
677.06	4.25
677.817	6.25
678.574	5.25
679.33	4.25
680.086	4.25
680.843	2.25
681.599	5.25
682.355	5.25
683.111	3.25
683.867	6.25
684.623	5.25
685.379	4.25
686.135	2.25
686.89	7.25
687.646	2.25
688.402	0.25
689.157	5.25
689.912	2.25
690.668	2.25
691.423	2.25
692.178	4.25
692.933	5.25
693.688	4.25
694.443	3.25
695.198	5.25
695.953	4.25
696.708	2.25
697.462	4.25
698.217	4.25
698.972	1.25
699.726	3.25
700.48	2.25
701.235	3.25
701.989	2.25
702.743	3.25
703.497	1.25
704.251	3.25
705.005	4.25
705.759	2.25
706.513	3.25
707.266	3.25
708.02	4.25
708.774	4.25
709.527	1.25
710.28	4.25
711.034	1.25
711.787	2.25
712.54	2.25
713.293	4.25
714.046	5.25
714.799	3.25
715.552	2.25
716.305	4.25
717.058	2.25
717.81	4.25
718.563	3.25
719.315	5.25
720.068	2.25
720.82	3.25
721.573	2.25
722.325	3.25
723.077	3.25
723.829	5.25
724.581	4.25
725.333	0.25
726.085	3.25
726.836	2.25
727.588	3.25
728.34	4.25
729.091	3.25
729.843	4.25
730.594	2.25
731.346	6.25
732.097	3.25
732.848	3.25
733.599	6.25
734.35	1.25
735.101	4.25
735.852	5.25
736.603	4.25
737.354	3.25
738.104	5.25
738.855	4.25
739.605	3.25
740.356	7.25
741.106	2.25
741.856	4.25
742.607	5.25
743.357	4.25
744.107	6.25
744.857	4.25
745.607	6.25
746.357	5.25
747.106	6.25
747.856	6.25
748.606	5.25
749.355	6.25
750.105	5.25
750.854	2.25
751.603	5.25
752.353	6.25
753.102	3.25
753.851	4.25
754.6	5.25
755.349	6.25
756.098	7.25
756.847	3.25
757.595	6.25
758.344	6.25
759.093	6.25
759.841	5.25
760.589	5.25
761.338	6.25
762.086	5.25
762.834	5.25
763.582	7.25
764.331	6.25
765.079	6.25
765.826	6.25
766.574	8.25
767.322	7.25
768.07	9.25
768.817	5.25
769.565	8.25
770.312	5.25
771.06	6.25
771.807	5.25
772.554	6.25
773.302	6.25
774.049	6.25
774.796	6.25
775.543	8.25
776.29	7.25
777.036	9.25
777.783	8.25
778.53	6.25
779.276	6.25
780.023	9.25
780.769	8.25
781.516	6.25
782.262	7.25
783.008	11.25
783.754	7.25
784.5	9.25
785.246	8.25
785.992	7.25
786.738	5.25
787.484	6.25
788.23	9.25
788.975	6.25
789.721	9.25
790.466	7.25
791.212	7.25
791.957	7.25
792.702	7.25
793.447	7.25
794.193	9.25
794.938	9.25
795.683	9.25
796.427	7.25
797.172	6.25
797.917	5.25
798.662	7.25
799.406	7.25
800.151	8.25
800.895	7.25
801.64	5.25
802.384	7.25
803.128	9.25
803.872	6.25
804.616	7.25
805.36	7.25
806.104	4.25
806.848	6.25
807.592	5.25
808.336	6.25
809.079	5.25
809.823	7.25
810.566	6.25
811.31	5.25
812.053	5.25
812.796	5.25
813.539	5.25
814.283	6.25
815.026	6.25
815.769	5.25
816.511	5.25
817.254	3.25
817.997	7.25
818.74	4.25
819.482	2.25
820.225	4.25
820.967	6.25
821.71	5.25
822.452	5.25
823.194	5.25
823.936	4.25
824.678	6.25
825.42	5.25
826.162	4.25
826.904	5.25
827.646	2.25
828.388	5.25
829.129	3.25
829.871	5.25
830.612	4.25
831.354	4.25
832.095	5.25
832.836	5.25
833.577	3.25
834.319	4.25
835.06	3.25
835.801	7.25
836.542	4.25
837.282	6.25
838.023	5.25
838.764	4.25
839.504	2.25
840.245	4.25
840.985	5.25
841.726	3.25
842.466	3.25
843.206	3.25
843.946	4.25
844.687	2.25
845.427	3.25
846.166	4.25
846.906	2.25
847.646	1.25
848.386	2.25
849.125	3.25
849.865	4.25
850.605	2.25
851.344	3.25
852.083	2.25
852.823	4.25
853.562	3.25
854.301	3.25
855.04	2.25
855.779	3.25
856.518	2.25
857.257	3.25
857.995	1.25
858.734	2.25
859.473	3.25
860.211	5.25
860.95	3.25
861.688	2.25
862.426	0.25
863.165	3.25
863.903	3.25
864.641	0.25
865.379	2.25
866.117	3.25
866.855	3.25
867.593	1.25
868.33	4.25
869.068	2.25
869.806	0.25
870.543	0.25
871.28	-0.75
872.018	-0.75
872.755	1.25
873.492	0.25
874.229	2.25
874.967	1.25
875.703	2.25
876.44	2.25
877.177	2.25
877.914	0.25
878.651	1.25
879.387	0.25
880.124	1.25
880.86	2.25
881.597	0.25
882.333	1.25
883.069	4.25
883.806	2.25
884.542	3.25
885.278	0.25
886.014	1.25
886.749	0.25
887.485	2.25
888.221	2.25
888.957	-0.75
889.692	1.25
890.428	1.25
891.163	1.25
891.899	3.25
892.634	2.25
893.369	0.25
894.104	1.25
894.839	0.25
895.574	0.25
896.309	0.25
897.044	-1.75
897.779	-1.75
898.514	1.25
899.248	-1.75
899.983	1.25
900.717	2.25
901.452	2.25
902.186	1.25
902.92	2.25
903.654	1.25
904.389	1.25
905.123	1.25
905.857	1.25
906.59	2.25
907.324	-0.75
908.058	-1.75
908.792	2.25
909.525	0.25
910.259	2.25
910.992	0.25
911.726	-0.75
912.459	-0.75
913.192	0.25
913.925	0.25
914.658	0.25
915.391	0.25
916.124	0.25
916.857	-0.75
917.59	2.25
918.323	2.25
919.055	0.25
919.788	0.25
920.521	1.25
921.253	-0.75
921.985	1.25
922.718	0.25
923.45	0.25
924.182	2.25
924.914	1.25
925.646	1.25
926.378	2.25
927.11	1.25
927.841	0.25
928.573	-2.75
929.305	-1.75
930.036	0.25
930.768	1.25
931.499	0.25
932.23	-1.75
932.962	0.25
933.693	-0.75
934.424	1.25
935.155	1.25
935.886	-0.75
936.617	0.25
937.348	-1.75
938.078	1.25
938.809	1.25
939.54	-0.75
940.27	0.25
941.001	0.25
941.731	1.25
942.461	2.25
943.191	2.25
943.922	-0.75
944.652	3.25
945.382	0.25
946.112	1.25
946.841	0.25
947.571	-1.75
948.301	0.25
949.031	0.25
949.76	3.25
950.49	-0.75
951.219	1.25
951.948	-0.75
952.678	0.25
953.407	0.25
954.136	-0.75
954.865	-1.75
955.594	2.25
956.323	2.25
957.052	1.25
957.78	0.25
958.509	2.25
959.238	0.25
959.966	2.25
960.695	-2.75
961.423	0.25
962.151	2.25
962.88	-1.75
963.608	-1.75
964.336	-0.75
965.064	1.25
965.792	4.25
966.52	0.25
967.247	0.25
967.975	0.25
968.703	1.25
969.43	-1.75
970.158	1.25
970.885	1.25
971.613	0.25
972.34	2.25
973.067	1.25
973.794	0.25
974.521	-0.75
975.248	-1.75
975.975	-1.75
976.702	-1.75
977.429	1.25
978.156	-0.75
978.882	2.25
979.609	1.25
980.335	0.25
981.062	1.25
981.788	1.25
982.514	-0.75
983.24	-0.75
983.967	2.25
984.693	-0.75
985.419	0.25
986.144	2.25
986.87	-1.75
987.596	0.25
988.322	-0.75
989.047	1.25
989.773	-0.75
990.498	-0.75
991.224	1.25
991.949	1.25
992.674	0.25
993.399	-1.75
994.124	-0.75
994.849	1.25
995.574	-0.75
996.299	2.25
997.024	-0.75
997.749	1.25
998.473	1.25
999.198	-1.75
999.922	0.25
1000.647	1.25
1001.371	3.25
1002.095	-0.75
1002.82	-0.75
1003.544	-1.75
1004.268	-1.75
1004.992	0.25
1005.716	0.25
1006.439	1.25
1007.163	0.25
1007.887	2.25
1008.611	2.25
1009.334	-1.75
1010.058	0.25
1010.781	0.25
1011.504	-1.75
1012.228	0.25
1012.951	-0.75
1013.674	2.25
1014.397	0.25
1015.12	-1.75
