节点500_285_QEPB04081__135__14-57-48-201.txt的数据

Date: Wed Nov 12 14:57:48 CST 2025
User: PC
Spectrometer: QEPB0408
触发模式: 0
积分时间 (秒): 1.000000E-2
Scans to average: 1
启用暗噪声校正: true
启用非线性校正: false
滑动平均宽度: 0
X轴模式: Wavelengths
Number of Pixels in Spectrum: 1044
>>>>>Begin Spectral Data<<<<<
220.843	3.5
221.644	2.5
222.444	2.5
223.244	2.5
224.045	1.5
224.845	1.5
225.645	1.5
226.445	2.5
227.245	2.5
228.045	3.5
228.845	2.5
229.645	1.5
230.444	4.5
231.244	1.5
232.043	4.5
232.843	2.5
233.642	2.5
234.442	2.5
235.241	3.5
236.04	6.5
236.839	3.5
237.638	4.5
238.437	4.5
239.236	5.5
240.035	4.5
240.833	4.5
241.632	4.5
242.43	4.5
243.229	4.5
244.027	4.5
244.826	6.5
245.624	6.5
246.422	6.5
247.22	7.5
248.018	7.5
248.816	6.5
249.614	7.5
250.412	5.5
251.21	7.5
252.007	7.5
252.805	9.5
253.602	6.5
254.4	7.5
255.197	9.5
255.994	9.5
256.791	7.5
257.589	11.5
258.386	10.5
259.183	9.5
259.979	8.5
260.776	10.5
261.573	9.5
262.37	11.5
263.166	9.5
263.963	11.5
264.759	14.5
265.556	14.5
266.352	13.5
267.148	13.5
267.944	14.5
268.74	13.5
269.536	14.5
270.332	15.5
271.128	14.5
271.924	17.5
272.719	15.5
273.515	16.5
274.311	17.5
275.106	17.5
275.901	18.5
276.697	17.5
277.492	17.5
278.287	18.5
279.082	19.5
279.877	22.5
280.672	17.5
281.467	20.5
282.262	19.5
283.056	18.5
283.851	17.5
284.646	20.5
285.44	16.5
286.234	19.5
287.029	18.5
287.823	21.5
288.617	19.5
289.411	18.5
290.205	16.5
290.999	20.5
291.793	17.5
292.587	18.5
293.381	19.5
294.174	16.5
294.968	18.5
295.761	14.5
296.555	15.5
297.348	15.5
298.141	15.5
298.935	17.5
299.728	13.5
300.521	17.5
301.314	15.5
302.107	16.5
302.899	11.5
303.692	11.5
304.485	13.5
305.277	11.5
306.07	12.5
306.862	12.5
307.655	12.5
308.447	12.5
309.239	13.5
310.031	13.5
310.823	11.5
311.615	11.5
312.407	11.5
313.199	9.5
313.991	8.5
314.783	11.5
315.574	10.5
316.366	8.5
317.157	9.5
317.949	9.5
318.74	10.5
319.531	11.5
320.322	7.5
321.113	9.5
321.904	8.5
322.695	6.5
323.486	7.5
324.277	6.5
325.068	7.5
325.858	6.5
326.649	6.5
327.439	8.5
328.23	5.5
329.02	5.5
329.81	7.5
330.6	6.5
331.391	6.5
332.181	5.5
332.971	7.5
333.76	5.5
334.55	7.5
335.34	8.5
336.13	5.5
336.919	7.5
337.709	6.5
338.498	6.5
339.287	6.5
340.077	7.5
340.866	7.5
341.655	3.5
342.444	7.5
343.233	5.5
344.022	7.5
344.811	5.5
345.6	8.5
346.388	7.5
347.177	5.5
347.965	6.5
348.754	6.5
349.542	5.5
350.33	4.5
351.119	6.5
351.907	6.5
352.695	2.5
353.483	6.5
354.271	3.5
355.059	6.5
355.846	4.5
356.634	5.5
357.422	6.5
358.209	6.5
358.997	4.5
359.784	3.5
360.571	5.5
361.359	6.5
362.146	4.5
362.933	6.5
363.72	4.5
364.507	4.5
365.294	5.5
366.081	4.5
366.867	5.5
367.654	5.5
368.44	6.5
369.227	5.5
370.013	7.5
370.8	4.5
371.586	5.5
372.372	6.5
373.158	5.5
373.944	4.5
374.73	5.5
375.516	5.5
376.302	5.5
377.088	6.5
377.873	7.5
378.659	5.5
379.445	4.5
380.23	4.5
381.015	2.5
381.801	6.5
382.586	6.5
383.371	5.5
384.156	5.5
384.941	7.5
385.726	6.5
386.511	7.5
387.296	4.5
388.08	2.5
388.865	4.5
389.649	4.5
390.434	4.5
391.218	7.5
392.003	4.5
392.787	6.5
393.571	7.5
394.355	4.5
395.139	5.5
395.923	5.5
396.707	7.5
397.491	6.5
398.274	4.5
399.058	5.5
399.842	6.5
400.625	6.5
401.408	5.5
402.192	9.5
402.975	7.5
403.758	6.5
404.541	8.5
405.324	6.5
406.107	8.5
406.89	5.5
407.673	9.5
408.456	8.5
409.238	9.5
410.021	7.5
410.803	11.5
411.586	8.5
412.368	9.5
413.151	8.5
413.933	9.5
414.715	7.5
415.497	11.5
416.279	9.5
417.061	8.5
417.843	9.5
418.624	7.5
419.406	11.5
420.188	11.5
420.969	12.5
421.751	13.5
422.532	10.5
423.313	13.5
424.095	9.5
424.876	11.5
425.657	11.5
426.438	12.5
427.219	13.5
428	10.5
428.78	14.5
429.561	14.5
430.342	12.5
431.122	17.5
431.903	12.5
432.683	15.5
433.464	17.5
434.244	16.5
435.024	15.5
435.804	18.5
436.584	18.5
437.364	16.5
438.144	20.5
438.924	17.5
439.704	22.5
440.483	24.5
441.263	23.5
442.042	25.5
442.822	25.5
443.601	25.5
444.38	29.5
445.16	33.5
445.939	31.5
446.718	37.5
447.497	39.5
448.276	38.5
449.054	45.5
449.833	46.5
450.612	51.5
451.391	54.5
452.169	60.5
452.948	61.5
453.726	69.5
454.504	75.5
455.282	87.5
456.061	89.5
456.839	105.5
457.617	111.5
458.395	128.5
459.172	139.5
459.95	157.5
460.728	179.5
461.506	191.5
462.283	219.5
463.061	236.5
463.838	266.5
464.615	304.5
465.393	338.5
466.17	381.5
466.947	434.5
467.724	477.5
468.501	537.5
469.278	592.5
470.055	663.5
470.831	738.5
471.608	813.5
472.385	925.5
473.161	1011.5
473.938	1140.5
474.714	1268.5
475.49	1410.5
476.266	1559.5
477.043	1726.5
477.819	1904.5
478.595	2105.5
479.371	2340.5
480.146	2579.5
480.922	2867.5
481.698	3177.5
482.473	3521.5
483.249	3909.5
484.024	4268.5
484.8	4720.5
485.575	5191.5
486.35	5776.5
487.126	6337.5
487.901	6939.5
488.676	7671.5
489.451	8398.5
490.225	9259.5
491	10160.5
491.775	11086.5
492.55	12155.5
493.324	13211.5
494.099	14218.5
494.873	15317.5
495.647	16592.5
496.422	17723.5
497.196	19117.5
497.97	20373.5
498.744	21597.5
499.518	22813.5
500.292	23955.5
501.066	25100.5
501.839	25991.5
502.613	26865.5
503.387	27572.5
504.16	28152.5
504.934	28383.5
505.707	28515.5
506.48	28444.5
507.253	28203.5
508.027	27795.5
508.8	27363.5
509.573	26813.5
510.346	25978.5
511.118	25190.5
511.891	24227.5
512.664	23353.5
513.437	22413.5
514.209	21328.5
514.982	20517.5
515.754	19455.5
516.526	18607.5
517.298	17814.5
518.071	17043.5
518.843	16364.5
519.615	15709.5
520.387	15096.5
521.159	14544.5
521.93	13966.5
522.702	13412.5
523.474	12877.5
524.245	12263.5
525.017	11762.5
525.788	11279.5
526.56	10762.5
527.331	10225.5
528.102	9763.5
528.873	9316.5
529.644	8799.5
530.415	8362.5
531.186	7962.5
531.957	7513.5
532.728	7173.5
533.498	6745.5
534.269	6360.5
535.039	6001.5
535.81	5656.5
536.58	5350.5
537.351	5055.5
538.121	4769.5
538.891	4518.5
539.661	4273.5
540.431	4025.5
541.201	3793.5
541.971	3615.5
542.741	3409.5
543.51	3253.5
544.28	3096.5
545.05	2933.5
545.819	2792.5
546.588	2664.5
547.358	2508.5
548.127	2373.5
548.896	2269.5
549.665	2148.5
550.434	2027.5
551.203	1919.5
551.972	1804.5
552.741	1726.5
553.51	1629.5
554.278	1535.5
555.047	1451.5
555.815	1371.5
556.584	1275.5
557.352	1212.5
558.121	1152.5
558.889	1084.5
559.657	1028.5
560.425	973.5
561.193	911.5
561.961	873.5
562.729	809.5
563.496	759.5
564.264	731.5
565.032	691.5
565.799	649.5
566.567	618.5
567.334	582.5
568.101	545.5
568.869	519.5
569.636	483.5
570.403	457.5
571.17	434.5
571.937	409.5
572.704	386.5
573.471	362.5
574.237	336.5
575.004	324.5
575.771	307.5
576.537	284.5
577.303	265.5
578.07	254.5
578.836	239.5
579.602	223.5
580.368	213.5
581.134	196.5
581.9	192.5
582.666	177.5
583.432	173.5
584.198	161.5
584.964	151.5
585.729	139.5
586.495	137.5
587.26	129.5
588.025	124.5
588.791	122.5
589.556	111.5
590.321	102.5
591.086	100.5
591.851	93.5
592.616	90.5
593.381	85.5
594.146	80.5
594.911	82.5
595.675	76.5
596.44	72.5
597.204	69.5
597.969	63.5
598.733	61.5
599.497	60.5
600.261	57.5
601.025	56.5
601.79	53.5
602.553	48.5
603.317	45.5
604.081	45.5
604.845	43.5
605.609	40.5
606.372	42.5
607.136	40.5
607.899	37.5
608.662	36.5
609.426	33.5
610.189	35.5
610.952	33.5
611.715	29.5
612.478	28.5
613.241	28.5
614.004	31.5
614.767	25.5
615.529	27.5
616.292	24.5
617.055	25.5
617.817	21.5
618.579	21.5
619.342	23.5
620.104	19.5
620.866	19.5
621.628	21.5
622.39	16.5
623.152	18.5
623.914	13.5
624.676	16.5
625.438	17.5
626.199	15.5
626.961	16.5
627.722	15.5
628.484	15.5
629.245	12.5
630.006	12.5
630.768	11.5
631.529	12.5
632.29	13.5
633.051	11.5
633.812	11.5
634.573	8.5
635.333	12.5
636.094	11.5
636.855	9.5
637.615	8.5
638.376	11.5
639.136	9.5
639.896	11.5
640.657	7.5
641.417	9.5
642.177	8.5
642.937	11.5
643.697	10.5
644.457	6.5
645.216	9.5
645.976	9.5
646.736	7.5
647.495	7.5
648.255	6.5
649.014	8.5
649.774	5.5
650.533	7.5
651.292	5.5
652.051	6.5
652.81	8.5
653.569	3.5
654.328	7.5
655.087	5.5
655.846	6.5
656.604	4.5
657.363	9.5
658.121	7.5
658.88	3.5
659.638	7.5
660.397	6.5
661.155	4.5
661.913	6.5
662.671	4.5
663.429	5.5
664.187	6.5
664.945	8.5
665.703	5.5
666.46	6.5
667.218	6.5
667.976	4.5
668.733	4.5
669.49	3.5
670.248	4.5
671.005	3.5
671.762	3.5
672.519	4.5
673.276	2.5
674.033	4.5
674.79	4.5
675.547	2.5
676.304	5.5
677.06	2.5
677.817	2.5
678.574	3.5
679.33	4.5
680.086	4.5
680.843	4.5
681.599	5.5
682.355	5.5
683.111	5.5
683.867	1.5
684.623	6.5
685.379	4.5
686.135	3.5
686.89	4.5
687.646	4.5
688.402	3.5
689.157	4.5
689.912	2.5
690.668	1.5
691.423	4.5
692.178	4.5
692.933	5.5
693.688	3.5
694.443	3.5
695.198	3.5
695.953	1.5
696.708	3.5
697.462	4.5
698.217	5.5
698.972	3.5
699.726	3.5
700.48	4.5
701.235	3.5
701.989	3.5
702.743	2.5
703.497	2.5
704.251	1.5
705.005	4.5
705.759	3.5
706.513	5.5
707.266	3.5
708.02	2.5
708.774	3.5
709.527	2.5
710.28	1.5
711.034	4.5
711.787	5.5
712.54	4.5
713.293	3.5
714.046	4.5
714.799	2.5
715.552	5.5
716.305	1.5
717.058	3.5
717.81	3.5
718.563	4.5
719.315	3.5
720.068	5.5
720.82	2.5
721.573	5.5
722.325	3.5
723.077	5.5
723.829	4.5
724.581	1.5
725.333	1.5
726.085	4.5
726.836	4.5
727.588	5.5
728.34	3.5
729.091	3.5
729.843	4.5
730.594	3.5
731.346	5.5
732.097	4.5
732.848	5.5
733.599	3.5
734.35	4.5
735.101	4.5
735.852	5.5
736.603	5.5
737.354	3.5
738.104	3.5
738.855	4.5
739.605	3.5
740.356	3.5
741.106	6.5
741.856	5.5
742.607	5.5
743.357	4.5
744.107	5.5
744.857	6.5
745.607	5.5
746.357	3.5
747.106	6.5
747.856	5.5
748.606	7.5
749.355	3.5
750.105	7.5
750.854	5.5
751.603	5.5
752.353	8.5
753.102	5.5
753.851	7.5
754.6	4.5
755.349	6.5
756.098	6.5
756.847	5.5
757.595	5.5
758.344	3.5
759.093	4.5
759.841	6.5
760.589	6.5
761.338	7.5
762.086	5.5
762.834	7.5
763.582	6.5
764.331	8.5
765.079	8.5
765.826	4.5
766.574	6.5
767.322	6.5
768.07	6.5
768.817	7.5
769.565	10.5
770.312	8.5
771.06	8.5
771.807	8.5
772.554	7.5
773.302	7.5
774.049	7.5
774.796	8.5
775.543	9.5
776.29	9.5
777.036	8.5
777.783	8.5
778.53	11.5
779.276	10.5
780.023	10.5
780.769	8.5
781.516	9.5
782.262	7.5
783.008	8.5
783.754	10.5
784.5	8.5
785.246	11.5
785.992	10.5
786.738	8.5
787.484	9.5
788.23	11.5
788.975	6.5
789.721	8.5
790.466	6.5
791.212	7.5
791.957	9.5
792.702	9.5
793.447	9.5
794.193	9.5
794.938	9.5
795.683	7.5
796.427	9.5
797.172	9.5
797.917	9.5
798.662	9.5
799.406	6.5
800.151	8.5
800.895	7.5
801.64	6.5
802.384	6.5
803.128	7.5
803.872	6.5
804.616	7.5
805.36	7.5
806.104	6.5
806.848	6.5
807.592	7.5
808.336	4.5
809.079	5.5
809.823	5.5
810.566	7.5
811.31	6.5
812.053	6.5
812.796	7.5
813.539	4.5
814.283	7.5
815.026	6.5
815.769	6.5
816.511	3.5
817.254	6.5
817.997	5.5
818.74	7.5
819.482	4.5
820.225	5.5
820.967	5.5
821.71	3.5
822.452	2.5
823.194	4.5
823.936	5.5
824.678	4.5
825.42	3.5
826.162	2.5
826.904	5.5
827.646	5.5
828.388	7.5
829.129	5.5
829.871	3.5
830.612	4.5
831.354	3.5
832.095	2.5
832.836	3.5
833.577	3.5
834.319	5.5
835.06	1.5
835.801	5.5
836.542	4.5
837.282	4.5
838.023	3.5
838.764	3.5
839.504	3.5
840.245	4.5
840.985	5.5
841.726	3.5
842.466	3.5
843.206	2.5
843.946	3.5
844.687	3.5
845.427	3.5
846.166	3.5
846.906	2.5
847.646	2.5
848.386	0.5
849.125	4.5
849.865	4.5
850.605	3.5
851.344	2.5
852.083	3.5
852.823	2.5
853.562	4.5
854.301	2.5
855.04	1.5
855.779	1.5
856.518	1.5
857.257	1.5
857.995	1.5
858.734	3.5
859.473	1.5
860.211	0.5
860.95	6.5
861.688	0.5
862.426	1.5
863.165	0.5
863.903	-0.5
864.641	0.5
865.379	2.5
866.117	1.5
866.855	1.5
867.593	1.5
868.33	2.5
869.068	-0.5
869.806	3.5
870.543	0.5
871.28	2.5
872.018	0.5
872.755	4.5
873.492	1.5
874.229	2.5
874.967	-1.5
875.703	1.5
876.44	0.5
877.177	1.5
877.914	1.5
878.651	3.5
879.387	0.5
880.124	2.5
880.86	-0.5
881.597	5.5
882.333	0.5
883.069	0.5
883.806	2.5
884.542	2.5
885.278	2.5
886.014	1.5
886.749	2.5
887.485	0.5
888.221	1.5
888.957	2.5
889.692	-0.5
890.428	3.5
891.163	2.5
891.899	0.5
892.634	1.5
893.369	-0.5
894.104	1.5
894.839	-0.5
895.574	0.5
896.309	0.5
897.044	1.5
897.779	1.5
898.514	0.5
899.248	4.5
899.983	-0.5
900.717	0.5
901.452	-0.5
902.186	-2.5
902.92	3.5
903.654	0.5
904.389	1.5
905.123	1.5
905.857	0.5
906.59	1.5
907.324	-1.5
908.058	-0.5
908.792	0.5
909.525	-1.5
910.259	0.5
910.992	0.5
911.726	1.5
912.459	-1.5
913.192	0.5
913.925	-0.5
914.658	-1.5
915.391	1.5
916.124	0.5
916.857	3.5
917.59	-1.5
918.323	-1.5
919.055	0.5
919.788	0.5
920.521	2.5
921.253	0.5
921.985	0.5
922.718	1.5
923.45	1.5
924.182	2.5
924.914	0.5
925.646	-0.5
926.378	0.5
927.11	1.5
927.841	1.5
928.573	0.5
929.305	-0.5
930.036	-2.5
930.768	1.5
931.499	-0.5
932.23	0.5
932.962	-0.5
933.693	-1.5
934.424	3.5
935.155	0.5
935.886	1.5
936.617	-0.5
937.348	1.5
938.078	1.5
938.809	-0.5
939.54	2.5
940.27	-0.5
941.001	1.5
941.731	1.5
942.461	-0.5
943.191	2.5
943.922	-0.5
944.652	1.5
945.382	1.5
946.112	0.5
946.841	2.5
947.571	-0.5
948.301	1.5
949.031	-2.5
949.76	2.5
950.49	-0.5
951.219	0.5
951.948	-0.5
952.678	1.5
953.407	2.5
954.136	0.5
954.865	0.5
955.594	-0.5
956.323	1.5
957.052	2.5
957.78	0.5
958.509	2.5
959.238	-0.5
959.966	0.5
960.695	-0.5
961.423	-0.5
962.151	0.5
962.88	-0.5
963.608	0.5
964.336	-0.5
965.064	1.5
965.792	-1.5
966.52	0.5
967.247	1.5
967.975	1.5
968.703	-0.5
969.43	1.5
970.158	-0.5
970.885	-0.5
971.613	0.5
972.34	-0.5
973.067	0.5
973.794	-0.5
974.521	-0.5
975.248	0.5
975.975	1.5
976.702	-0.5
977.429	0.5
978.156	2.5
978.882	1.5
979.609	0.5
980.335	-1.5
981.062	-0.5
981.788	0.5
982.514	-1.5
983.24	0.5
983.967	-0.5
984.693	1.5
985.419	0.5
986.144	0.5
986.87	1.5
987.596	0.5
988.322	-2.5
989.047	0.5
989.773	-0.5
990.498	-1.5
991.224	-0.5
991.949	0.5
992.674	-0.5
993.399	1.5
994.124	0.5
994.849	-0.5
995.574	3.5
996.299	1.5
997.024	-0.5
997.749	0.5
998.473	-0.5
999.198	-0.5
999.922	2.5
1000.647	1.5
1001.371	4.5
1002.095	0.5
1002.82	-2.5
1003.544	-0.5
1004.268	-2.5
1004.992	0.5
1005.716	1.5
1006.439	3.5
1007.163	0.5
1007.887	1.5
1008.611	1.5
1009.334	0.5
1010.058	-0.5
1010.781	0.5
1011.504	-0.5
1012.228	1.5
1012.951	1.5
1013.674	0.5
1014.397	-2.5
1015.12	-1.5
