节点500_285_QEPB04081__390__15-02-02-658.txt的数据

Date: Wed Nov 12 15:02:02 CST 2025
User: PC
Spectrometer: QEPB0408
触发模式: 0
积分时间 (秒): 1.000000E-2
Scans to average: 1
启用暗噪声校正: true
启用非线性校正: false
滑动平均宽度: 0
X轴模式: Wavelengths
Number of Pixels in Spectrum: 1044
>>>>>Begin Spectral Data<<<<<
220.843	2.38
221.644	0.38
222.444	1.38
223.244	2.38
224.045	3.38
224.845	2.38
225.645	2.38
226.445	0.38
227.245	4.38
228.045	2.38
228.845	4.38
229.645	3.38
230.444	3.38
231.244	0.38
232.043	3.38
232.843	3.38
233.642	4.38
234.442	5.38
235.241	4.38
236.04	4.38
236.839	4.38
237.638	4.38
238.437	4.38
239.236	4.38
240.035	4.38
240.833	3.38
241.632	5.38
242.43	6.38
243.229	3.38
244.027	6.38
244.826	4.38
245.624	7.38
246.422	6.38
247.22	6.38
248.018	6.38
248.816	7.38
249.614	7.38
250.412	6.38
251.21	8.38
252.007	6.38
252.805	6.38
253.602	7.38
254.4	8.38
255.197	9.38
255.994	9.38
256.791	10.38
257.589	8.38
258.386	8.38
259.183	9.38
259.979	11.38
260.776	9.38
261.573	10.38
262.37	9.38
263.166	11.38
263.963	10.38
264.759	12.38
265.556	13.38
266.352	13.38
267.148	12.38
267.944	12.38
268.74	12.38
269.536	13.38
270.332	16.38
271.128	16.38
271.924	17.38
272.719	14.38
273.515	16.38
274.311	16.38
275.106	17.38
275.901	14.38
276.697	18.38
277.492	16.38
278.287	19.38
279.082	20.38
279.877	20.38
280.672	18.38
281.467	20.38
282.262	20.38
283.056	16.38
283.851	16.38
284.646	18.38
285.44	19.38
286.234	19.38
287.029	20.38
287.823	19.38
288.617	17.38
289.411	17.38
290.205	17.38
290.999	18.38
291.793	16.38
292.587	18.38
293.381	17.38
294.174	18.38
294.968	18.38
295.761	17.38
296.555	14.38
297.348	15.38
298.141	14.38
298.935	18.38
299.728	13.38
300.521	17.38
301.314	14.38
302.107	13.38
302.899	11.38
303.692	14.38
304.485	14.38
305.277	11.38
306.07	13.38
306.862	12.38
307.655	12.38
308.447	13.38
309.239	13.38
310.031	12.38
310.823	10.38
311.615	13.38
312.407	11.38
313.199	10.38
313.991	12.38
314.783	10.38
315.574	13.38
316.366	8.38
317.157	7.38
317.949	10.38
318.74	7.38
319.531	9.38
320.322	7.38
321.113	6.38
321.904	8.38
322.695	9.38
323.486	10.38
324.277	7.38
325.068	6.38
325.858	7.38
326.649	7.38
327.439	5.38
328.23	6.38
329.02	5.38
329.81	7.38
330.6	7.38
331.391	8.38
332.181	5.38
332.971	7.38
333.76	7.38
334.55	8.38
335.34	7.38
336.13	6.38
336.919	8.38
337.709	6.38
338.498	8.38
339.287	5.38
340.077	8.38
340.866	4.38
341.655	7.38
342.444	6.38
343.233	6.38
344.022	5.38
344.811	6.38
345.6	7.38
346.388	7.38
347.177	5.38
347.965	6.38
348.754	7.38
349.542	7.38
350.33	3.38
351.119	7.38
351.907	6.38
352.695	7.38
353.483	6.38
354.271	5.38
355.059	5.38
355.846	7.38
356.634	5.38
357.422	4.38
358.209	6.38
358.997	5.38
359.784	5.38
360.571	7.38
361.359	8.38
362.146	6.38
362.933	7.38
363.72	6.38
364.507	7.38
365.294	6.38
366.081	6.38
366.867	5.38
367.654	4.38
368.44	7.38
369.227	4.38
370.013	5.38
370.8	8.38
371.586	7.38
372.372	6.38
373.158	5.38
373.944	4.38
374.73	6.38
375.516	6.38
376.302	6.38
377.088	5.38
377.873	5.38
378.659	4.38
379.445	5.38
380.23	1.38
381.015	3.38
381.801	6.38
382.586	6.38
383.371	5.38
384.156	7.38
384.941	5.38
385.726	7.38
386.511	5.38
387.296	7.38
388.08	4.38
388.865	7.38
389.649	7.38
390.434	5.38
391.218	7.38
392.003	7.38
392.787	6.38
393.571	6.38
394.355	7.38
395.139	6.38
395.923	6.38
396.707	8.38
397.491	5.38
398.274	7.38
399.058	6.38
399.842	9.38
400.625	8.38
401.408	7.38
402.192	4.38
402.975	7.38
403.758	11.38
404.541	5.38
405.324	8.38
406.107	7.38
406.89	7.38
407.673	8.38
408.456	6.38
409.238	6.38
410.021	6.38
410.803	6.38
411.586	10.38
412.368	7.38
413.151	10.38
413.933	8.38
414.715	8.38
415.497	9.38
416.279	11.38
417.061	8.38
417.843	9.38
418.624	8.38
419.406	10.38
420.188	9.38
420.969	7.38
421.751	11.38
422.532	13.38
423.313	12.38
424.095	8.38
424.876	13.38
425.657	13.38
426.438	12.38
427.219	10.38
428	12.38
428.78	13.38
429.561	14.38
430.342	15.38
431.122	14.38
431.903	14.38
432.683	12.38
433.464	15.38
434.244	15.38
435.024	18.38
435.804	19.38
436.584	21.38
437.364	17.38
438.144	21.38
438.924	23.38
439.704	25.38
440.483	23.38
441.263	24.38
442.042	24.38
442.822	29.38
443.601	30.38
444.38	31.38
445.16	30.38
445.939	33.38
446.718	38.38
447.497	37.38
448.276	44.38
449.054	45.38
449.833	48.38
450.612	57.38
451.391	59.38
452.169	62.38
452.948	71.38
453.726	80.38
454.504	80.38
455.282	92.38
456.061	102.38
456.839	108.38
457.617	122.38
458.395	141.38
459.172	154.38
459.95	176.38
460.728	182.38
461.506	212.38
462.283	243.38
463.061	266.38
463.838	295.38
464.615	327.38
465.393	362.38
466.17	404.38
466.947	453.38
467.724	505.38
468.501	563.38
469.278	630.38
470.055	698.38
470.831	779.38
471.608	858.38
472.385	943.38
473.161	1062.38
473.938	1185.38
474.714	1309.38
475.49	1441.38
476.266	1582.38
477.043	1757.38
477.819	1934.38
478.595	2140.38
479.371	2357.38
480.146	2588.38
480.922	2848.38
481.698	3125.38
482.473	3476.38
483.249	3785.38
484.024	4166.38
484.8	4568.38
485.575	5022.38
486.35	5544.38
487.126	6036.38
487.901	6652.38
488.676	7255.38
489.451	7957.38
490.225	8729.38
491	9493.38
491.775	10424.38
492.55	11304.38
493.324	12224.38
494.099	13201.38
494.873	14196.38
495.647	15346.38
496.422	16412.38
497.196	17607.38
497.97	18761.38
498.744	19974.38
499.518	21194.38
500.292	22217.38
501.066	23324.38
501.839	24245.38
502.613	25156.38
503.387	25929.38
504.16	26596.38
504.934	27003.38
505.707	27147.38
506.48	27251.38
507.253	27192.38
508.027	26919.38
508.8	26742.38
509.573	26274.38
510.346	25708.38
511.118	24931.38
511.891	24142.38
512.664	23364.38
513.437	22427.38
514.209	21580.38
514.982	20686.38
515.754	19802.38
516.526	18887.38
517.298	18044.38
518.071	17253.38
518.843	16672.38
519.615	16010.38
520.387	15365.38
521.159	14795.38
521.93	14175.38
522.702	13619.38
523.474	13035.38
524.245	12455.38
525.017	11923.38
525.788	11526.38
526.56	10960.38
527.331	10452.38
528.102	10000.38
528.873	9520.38
529.644	9076.38
530.415	8645.38
531.186	8223.38
531.957	7738.38
532.728	7451.38
533.498	7020.38
534.269	6623.38
535.039	6249.38
535.81	5922.38
536.58	5597.38
537.351	5250.38
538.121	4969.38
538.891	4699.38
539.661	4450.38
540.431	4197.38
541.201	3938.38
541.971	3766.38
542.741	3575.38
543.51	3394.38
544.28	3216.38
545.05	3061.38
545.819	2928.38
546.588	2780.38
547.358	2662.38
548.127	2498.38
548.896	2362.38
549.665	2248.38
550.434	2123.38
551.203	2017.38
551.972	1912.38
552.741	1813.38
553.51	1714.38
554.278	1612.38
555.047	1533.38
555.815	1436.38
556.584	1367.38
557.352	1279.38
558.121	1201.38
558.889	1132.38
559.657	1066.38
560.425	1021.38
561.193	960.38
561.961	910.38
562.729	861.38
563.496	815.38
564.264	771.38
565.032	725.38
565.799	688.38
566.567	649.38
567.334	619.38
568.101	575.38
568.869	546.38
569.636	510.38
570.403	477.38
571.17	457.38
571.937	440.38
572.704	410.38
573.471	397.38
574.237	369.38
575.004	340.38
575.771	325.38
576.537	299.38
577.303	291.38
578.07	267.38
578.836	256.38
579.602	242.38
580.368	234.38
581.134	212.38
581.9	200.38
582.666	188.38
583.432	187.38
584.198	172.38
584.964	159.38
585.729	152.38
586.495	149.38
587.26	138.38
588.025	136.38
588.791	124.38
589.556	120.38
590.321	111.38
591.086	105.38
591.851	98.38
592.616	102.38
593.381	89.38
594.146	84.38
594.911	85.38
595.675	77.38
596.44	74.38
597.204	70.38
597.969	72.38
598.733	64.38
599.497	65.38
600.261	61.38
601.025	61.38
601.79	55.38
602.553	54.38
603.317	51.38
604.081	48.38
604.845	46.38
605.609	46.38
606.372	43.38
607.136	37.38
607.899	39.38
608.662	40.38
609.426	40.38
610.189	34.38
610.952	31.38
611.715	33.38
612.478	34.38
613.241	29.38
614.004	29.38
614.767	28.38
615.529	26.38
616.292	28.38
617.055	24.38
617.817	22.38
618.579	22.38
619.342	25.38
620.104	22.38
620.866	21.38
621.628	20.38
622.39	19.38
623.152	22.38
623.914	19.38
624.676	18.38
625.438	16.38
626.199	17.38
626.961	16.38
627.722	15.38
628.484	12.38
629.245	15.38
630.006	14.38
630.768	13.38
631.529	12.38
632.29	14.38
633.051	15.38
633.812	13.38
634.573	13.38
635.333	13.38
636.094	11.38
636.855	11.38
637.615	11.38
638.376	6.38
639.136	13.38
639.896	9.38
640.657	9.38
641.417	10.38
642.177	9.38
642.937	9.38
643.697	8.38
644.457	8.38
645.216	8.38
645.976	8.38
646.736	8.38
647.495	9.38
648.255	7.38
649.014	8.38
649.774	7.38
650.533	4.38
651.292	7.38
652.051	6.38
652.81	8.38
653.569	8.38
654.328	6.38
655.087	4.38
655.846	7.38
656.604	6.38
657.363	7.38
658.121	6.38
658.88	6.38
659.638	7.38
660.397	6.38
661.155	5.38
661.913	5.38
662.671	4.38
663.429	6.38
664.187	5.38
664.945	6.38
665.703	4.38
666.46	5.38
667.218	6.38
667.976	5.38
668.733	5.38
669.49	7.38
670.248	5.38
671.005	5.38
671.762	7.38
672.519	5.38
673.276	6.38
674.033	8.38
674.79	5.38
675.547	3.38
676.304	4.38
677.06	5.38
677.817	2.38
678.574	5.38
679.33	6.38
680.086	4.38
680.843	5.38
681.599	5.38
682.355	5.38
683.111	4.38
683.867	5.38
684.623	3.38
685.379	4.38
686.135	4.38
686.89	2.38
687.646	2.38
688.402	5.38
689.157	6.38
689.912	5.38
690.668	4.38
691.423	4.38
692.178	1.38
692.933	3.38
693.688	2.38
694.443	5.38
695.198	6.38
695.953	6.38
696.708	5.38
697.462	4.38
698.217	4.38
698.972	5.38
699.726	5.38
700.48	2.38
701.235	4.38
701.989	6.38
702.743	6.38
703.497	3.38
704.251	2.38
705.005	4.38
705.759	4.38
706.513	3.38
707.266	4.38
708.02	2.38
708.774	1.38
709.527	4.38
710.28	4.38
711.034	3.38
711.787	4.38
712.54	1.38
713.293	6.38
714.046	1.38
714.799	5.38
715.552	3.38
716.305	4.38
717.058	4.38
717.81	5.38
718.563	6.38
719.315	3.38
720.068	5.38
720.82	4.38
721.573	4.38
722.325	3.38
723.077	6.38
723.829	3.38
724.581	3.38
725.333	7.38
726.085	4.38
726.836	4.38
727.588	5.38
728.34	2.38
729.091	3.38
729.843	4.38
730.594	3.38
731.346	4.38
732.097	3.38
732.848	5.38
733.599	2.38
734.35	7.38
735.101	2.38
735.852	5.38
736.603	3.38
737.354	5.38
738.104	4.38
738.855	6.38
739.605	6.38
740.356	1.38
741.106	7.38
741.856	6.38
742.607	4.38
743.357	6.38
744.107	5.38
744.857	7.38
745.607	3.38
746.357	4.38
747.106	6.38
747.856	3.38
748.606	6.38
749.355	5.38
750.105	5.38
750.854	6.38
751.603	4.38
752.353	4.38
753.102	5.38
753.851	6.38
754.6	3.38
755.349	5.38
756.098	7.38
756.847	6.38
757.595	7.38
758.344	4.38
759.093	7.38
759.841	6.38
760.589	2.38
761.338	8.38
762.086	6.38
762.834	8.38
763.582	6.38
764.331	6.38
765.079	7.38
765.826	5.38
766.574	8.38
767.322	7.38
768.07	9.38
768.817	8.38
769.565	5.38
770.312	8.38
771.06	5.38
771.807	6.38
772.554	7.38
773.302	7.38
774.049	7.38
774.796	10.38
775.543	8.38
776.29	9.38
777.036	7.38
777.783	11.38
778.53	8.38
779.276	10.38
780.023	8.38
780.769	8.38
781.516	9.38
782.262	9.38
783.008	8.38
783.754	12.38
784.5	12.38
785.246	5.38
785.992	9.38
786.738	11.38
787.484	10.38
788.23	10.38
788.975	10.38
789.721	9.38
790.466	7.38
791.212	8.38
791.957	10.38
792.702	9.38
793.447	8.38
794.193	7.38
794.938	8.38
795.683	9.38
796.427	8.38
797.172	8.38
797.917	8.38
798.662	7.38
799.406	7.38
800.151	10.38
800.895	7.38
801.64	9.38
802.384	10.38
803.128	8.38
803.872	11.38
804.616	4.38
805.36	7.38
806.104	4.38
806.848	5.38
807.592	4.38
808.336	6.38
809.079	6.38
809.823	5.38
810.566	5.38
811.31	7.38
812.053	3.38
812.796	6.38
813.539	6.38
814.283	8.38
815.026	7.38
815.769	5.38
816.511	6.38
817.254	5.38
817.997	5.38
818.74	4.38
819.482	5.38
820.225	6.38
820.967	5.38
821.71	5.38
822.452	5.38
823.194	5.38
823.936	5.38
824.678	4.38
825.42	6.38
826.162	3.38
826.904	4.38
827.646	1.38
828.388	3.38
829.129	4.38
829.871	5.38
830.612	4.38
831.354	4.38
832.095	3.38
832.836	4.38
833.577	5.38
834.319	3.38
835.06	5.38
835.801	2.38
836.542	2.38
837.282	5.38
838.023	5.38
838.764	6.38
839.504	3.38
840.245	2.38
840.985	4.38
841.726	5.38
842.466	2.38
843.206	5.38
843.946	4.38
844.687	4.38
845.427	2.38
846.166	4.38
846.906	2.38
847.646	5.38
848.386	4.38
849.125	3.38
849.865	0.38
850.605	2.38
851.344	3.38
852.083	1.38
852.823	4.38
853.562	4.38
854.301	2.38
855.04	1.38
855.779	2.38
856.518	1.38
857.257	1.38
857.995	2.38
858.734	1.38
859.473	2.38
860.211	4.38
860.95	2.38
861.688	4.38
862.426	2.38
863.165	4.38
863.903	5.38
864.641	2.38
865.379	2.38
866.117	-0.62
866.855	3.38
867.593	3.38
868.33	2.38
869.068	2.38
869.806	0.38
870.543	2.38
871.28	0.38
872.018	2.38
872.755	4.38
873.492	1.38
874.229	3.38
874.967	1.38
875.703	1.38
876.44	0.38
877.177	2.38
877.914	2.38
878.651	0.38
879.387	2.38
880.124	-0.62
880.86	0.38
881.597	2.38
882.333	2.38
883.069	1.38
883.806	2.38
884.542	3.38
885.278	2.38
886.014	0.38
886.749	0.38
887.485	1.38
888.221	3.38
888.957	1.38
889.692	2.38
890.428	0.38
891.163	3.38
891.899	2.38
892.634	1.38
893.369	2.38
894.104	-1.62
894.839	1.38
895.574	1.38
896.309	2.38
897.044	0.38
897.779	1.38
898.514	2.38
899.248	3.38
899.983	1.38
900.717	0.38
901.452	0.38
902.186	1.38
902.92	2.38
903.654	3.38
904.389	2.38
905.123	3.38
905.857	1.38
906.59	2.38
907.324	2.38
908.058	0.38
908.792	3.38
909.525	1.38
910.259	-1.62
910.992	-0.62
911.726	1.38
912.459	2.38
913.192	-0.62
913.925	2.38
914.658	0.38
915.391	1.38
916.124	-0.62
916.857	1.38
917.59	1.38
918.323	1.38
919.055	-1.62
919.788	2.38
920.521	2.38
921.253	1.38
921.985	0.38
922.718	3.38
923.45	-0.62
924.182	0.38
924.914	1.38
925.646	0.38
926.378	3.38
927.11	-0.62
927.841	1.38
928.573	2.38
929.305	0.38
930.036	3.38
930.768	-0.62
931.499	0.38
932.23	-0.62
932.962	0.38
933.693	-0.62
934.424	0.38
935.155	2.38
935.886	1.38
936.617	1.38
937.348	0.38
938.078	0.38
938.809	2.38
939.54	0.38
940.27	1.38
941.001	0.38
941.731	0.38
942.461	0.38
943.191	0.38
943.922	3.38
944.652	-0.62
945.382	2.38
946.112	-0.62
946.841	0.38
947.571	2.38
948.301	0.38
949.031	1.38
949.76	2.38
950.49	1.38
951.219	-1.62
951.948	0.38
952.678	1.38
953.407	2.38
954.136	2.38
954.865	0.38
955.594	0.38
956.323	1.38
957.052	1.38
957.78	-0.62
958.509	-1.62
959.238	1.38
959.966	-1.62
960.695	2.38
961.423	1.38
962.151	2.38
962.88	1.38
963.608	-0.62
964.336	0.38
965.064	-0.62
965.792	1.38
966.52	1.38
967.247	1.38
967.975	0.38
968.703	-1.62
969.43	0.38
970.158	-1.62
970.885	-0.62
971.613	0.38
972.34	1.38
973.067	0.38
973.794	0.38
974.521	0.38
975.248	-0.62
975.975	1.38
976.702	2.38
977.429	0.38
978.156	-0.62
978.882	-0.62
979.609	-0.62
980.335	2.38
981.062	2.38
981.788	0.38
982.514	1.38
983.24	1.38
983.967	1.38
984.693	1.38
985.419	0.38
986.144	1.38
986.87	0.38
987.596	4.38
988.322	0.38
989.047	0.38
989.773	1.38
990.498	1.38
991.224	1.38
991.949	0.38
992.674	-0.62
993.399	-0.62
994.124	1.38
994.849	2.38
995.574	1.38
996.299	0.38
997.024	1.38
997.749	1.38
998.473	3.38
999.198	0.38
999.922	1.38
1000.647	1.38
1001.371	3.38
1002.095	-1.62
1002.82	-0.62
1003.544	-1.62
1004.268	2.38
1004.992	3.38
1005.716	4.38
1006.439	2.38
1007.163	2.38
1007.887	1.38
1008.611	1.38
1009.334	0.38
1010.058	-1.62
1010.781	0.38
1011.504	0.38
1012.228	-1.62
1012.951	1.38
1013.674	0.38
1014.397	-1.62
1015.12	0.38
