节点500_285_QEPB04081__580__15-05-12-203.txt的数据

Date: Wed Nov 12 15:05:12 CST 2025
User: PC
Spectrometer: QEPB0408
触发模式: 0
积分时间 (秒): 1.000000E-2
Scans to average: 1
启用暗噪声校正: true
启用非线性校正: false
滑动平均宽度: 0
X轴模式: Wavelengths
Number of Pixels in Spectrum: 1044
>>>>>Begin Spectral Data<<<<<
220.843	1.88
221.644	0.88
222.444	3.88
223.244	1.88
224.045	2.88
224.845	3.88
225.645	2.88
226.445	0.88
227.245	0.88
228.045	3.88
228.845	0.88
229.645	2.88
230.444	3.88
231.244	0.88
232.043	4.88
232.843	2.88
233.642	1.88
234.442	3.88
235.241	1.88
236.04	3.88
236.839	2.88
237.638	4.88
238.437	2.88
239.236	4.88
240.035	3.88
240.833	3.88
241.632	4.88
242.43	1.88
243.229	5.88
244.027	4.88
244.826	5.88
245.624	5.88
246.422	5.88
247.22	4.88
248.018	4.88
248.816	7.88
249.614	3.88
250.412	5.88
251.21	7.88
252.007	5.88
252.805	5.88
253.602	6.88
254.4	8.88
255.197	6.88
255.994	6.88
256.791	7.88
257.589	9.88
258.386	8.88
259.183	7.88
259.979	8.88
260.776	7.88
261.573	7.88
262.37	9.88
263.166	7.88
263.963	9.88
264.759	9.88
265.556	9.88
266.352	7.88
267.148	11.88
267.944	13.88
268.74	9.88
269.536	12.88
270.332	12.88
271.128	12.88
271.924	15.88
272.719	11.88
273.515	13.88
274.311	12.88
275.106	13.88
275.901	15.88
276.697	16.88
277.492	15.88
278.287	15.88
279.082	16.88
279.877	16.88
280.672	17.88
281.467	17.88
282.262	16.88
283.056	17.88
283.851	16.88
284.646	19.88
285.44	18.88
286.234	18.88
287.029	17.88
287.823	18.88
288.617	19.88
289.411	14.88
290.205	19.88
290.999	16.88
291.793	17.88
292.587	17.88
293.381	13.88
294.174	15.88
294.968	15.88
295.761	15.88
296.555	16.88
297.348	14.88
298.141	15.88
298.935	15.88
299.728	14.88
300.521	13.88
301.314	13.88
302.107	12.88
302.899	9.88
303.692	11.88
304.485	8.88
305.277	13.88
306.07	12.88
306.862	13.88
307.655	13.88
308.447	11.88
309.239	12.88
310.031	9.88
310.823	11.88
311.615	9.88
312.407	12.88
313.199	10.88
313.991	8.88
314.783	9.88
315.574	7.88
316.366	6.88
317.157	9.88
317.949	8.88
318.74	9.88
319.531	7.88
320.322	9.88
321.113	7.88
321.904	6.88
322.695	6.88
323.486	6.88
324.277	6.88
325.068	6.88
325.858	6.88
326.649	7.88
327.439	6.88
328.23	8.88
329.02	5.88
329.81	7.88
330.6	6.88
331.391	7.88
332.181	6.88
332.971	6.88
333.76	6.88
334.55	4.88
335.34	7.88
336.13	4.88
336.919	5.88
337.709	6.88
338.498	4.88
339.287	6.88
340.077	4.88
340.866	6.88
341.655	5.88
342.444	8.88
343.233	7.88
344.022	5.88
344.811	3.88
345.6	4.88
346.388	4.88
347.177	7.88
347.965	1.88
348.754	6.88
349.542	6.88
350.33	9.88
351.119	3.88
351.907	5.88
352.695	4.88
353.483	4.88
354.271	4.88
355.059	3.88
355.846	6.88
356.634	5.88
357.422	6.88
358.209	4.88
358.997	2.88
359.784	6.88
360.571	3.88
361.359	5.88
362.146	2.88
362.933	5.88
363.72	5.88
364.507	4.88
365.294	5.88
366.081	4.88
366.867	4.88
367.654	5.88
368.44	4.88
369.227	4.88
370.013	2.88
370.8	4.88
371.586	4.88
372.372	5.88
373.158	3.88
373.944	3.88
374.73	5.88
375.516	4.88
376.302	4.88
377.088	3.88
377.873	3.88
378.659	5.88
379.445	3.88
380.23	6.88
381.015	3.88
381.801	4.88
382.586	5.88
383.371	5.88
384.156	2.88
384.941	3.88
385.726	6.88
386.511	4.88
387.296	3.88
388.08	6.88
388.865	3.88
389.649	3.88
390.434	4.88
391.218	4.88
392.003	7.88
392.787	4.88
393.571	6.88
394.355	7.88
395.139	8.88
395.923	6.88
396.707	6.88
397.491	8.88
398.274	6.88
399.058	7.88
399.842	6.88
400.625	5.88
401.408	3.88
402.192	4.88
402.975	7.88
403.758	4.88
404.541	7.88
405.324	5.88
406.107	6.88
406.89	5.88
407.673	5.88
408.456	8.88
409.238	7.88
410.021	9.88
410.803	5.88
411.586	8.88
412.368	5.88
413.151	9.88
413.933	9.88
414.715	9.88
415.497	10.88
416.279	9.88
417.061	9.88
417.843	9.88
418.624	6.88
419.406	8.88
420.188	8.88
420.969	10.88
421.751	8.88
422.532	10.88
423.313	9.88
424.095	10.88
424.876	13.88
425.657	10.88
426.438	10.88
427.219	11.88
428	12.88
428.78	11.88
429.561	12.88
430.342	13.88
431.122	15.88
431.903	14.88
432.683	15.88
433.464	15.88
434.244	13.88
435.024	17.88
435.804	18.88
436.584	15.88
437.364	18.88
438.144	21.88
438.924	22.88
439.704	25.88
440.483	22.88
441.263	24.88
442.042	25.88
442.822	27.88
443.601	29.88
444.38	28.88
445.16	32.88
445.939	36.88
446.718	37.88
447.497	39.88
448.276	40.88
449.054	47.88
449.833	52.88
450.612	52.88
451.391	58.88
452.169	65.88
452.948	68.88
453.726	75.88
454.504	90.88
455.282	94.88
456.061	107.88
456.839	116.88
457.617	135.88
458.395	144.88
459.172	159.88
459.95	183.88
460.728	198.88
461.506	218.88
462.283	245.88
463.061	270.88
463.838	302.88
464.615	336.88
465.393	380.88
466.17	427.88
466.947	469.88
467.724	521.88
468.501	591.88
469.278	640.88
470.055	725.88
470.831	795.88
471.608	884.88
472.385	989.88
473.161	1074.88
473.938	1194.88
474.714	1321.88
475.49	1447.88
476.266	1598.88
477.043	1771.88
477.819	1957.88
478.595	2141.88
479.371	2343.88
480.146	2583.88
480.922	2844.88
481.698	3113.88
482.473	3414.88
483.249	3756.88
484.024	4086.88
484.8	4495.88
485.575	4910.88
486.35	5392.88
487.126	5894.88
487.901	6435.88
488.676	6994.88
489.451	7640.88
490.225	8367.88
491	9090.88
491.775	9939.88
492.55	10749.88
493.324	11592.88
494.099	12541.88
494.873	13448.88
495.647	14514.88
496.422	15531.88
497.196	16659.88
497.97	17734.88
498.744	18890.88
499.518	19994.88
500.292	21082.88
501.066	22109.88
501.839	23068.88
502.613	23979.88
503.387	24816.88
504.16	25464.88
504.934	25905.88
505.707	26189.88
506.48	26305.88
507.253	26432.88
508.027	26219.88
508.8	26055.88
509.573	25805.88
510.346	25326.88
511.118	24690.88
511.891	24031.88
512.664	23334.88
513.437	22521.88
514.209	21643.88
514.982	20813.88
515.754	19974.88
516.526	19103.88
517.298	18280.88
518.071	17470.88
518.843	16800.88
519.615	16183.88
520.387	15553.88
521.159	14977.88
521.93	14366.88
522.702	13773.88
523.474	13250.88
524.245	12635.88
525.017	12123.88
525.788	11660.88
526.56	11116.88
527.331	10645.88
528.102	10161.88
528.873	9714.88
529.644	9270.88
530.415	8826.88
531.186	8382.88
531.957	7928.88
532.728	7563.88
533.498	7208.88
534.269	6805.88
535.039	6451.88
535.81	6065.88
536.58	5780.88
537.351	5417.88
538.121	5116.88
538.891	4842.88
539.661	4590.88
540.431	4309.88
541.201	4075.88
541.971	3871.88
542.741	3690.88
543.51	3495.88
544.28	3330.88
545.05	3153.88
545.819	3014.88
546.588	2849.88
547.358	2715.88
548.127	2577.88
548.896	2449.88
549.665	2333.88
550.434	2201.88
551.203	2083.88
551.972	1965.88
552.741	1866.88
553.51	1762.88
554.278	1671.88
555.047	1588.88
555.815	1484.88
556.584	1411.88
557.352	1342.88
558.121	1262.88
558.889	1189.88
559.657	1137.88
560.425	1069.88
561.193	992.88
561.961	939.88
562.729	896.88
563.496	845.88
564.264	803.88
565.032	756.88
565.799	712.88
566.567	673.88
567.334	637.88
568.101	603.88
568.869	564.88
569.636	533.88
570.403	498.88
571.17	484.88
571.937	444.88
572.704	418.88
573.471	392.88
574.237	375.88
575.004	360.88
575.771	339.88
576.537	319.88
577.303	296.88
578.07	278.88
578.836	265.88
579.602	248.88
580.368	231.88
581.134	225.88
581.9	212.88
582.666	201.88
583.432	193.88
584.198	189.88
584.964	166.88
585.729	164.88
586.495	149.88
587.26	143.88
588.025	137.88
588.791	125.88
589.556	123.88
590.321	117.88
591.086	111.88
591.851	103.88
592.616	97.88
593.381	92.88
594.146	87.88
594.911	87.88
595.675	78.88
596.44	79.88
597.204	74.88
597.969	69.88
598.733	68.88
599.497	67.88
600.261	63.88
601.025	60.88
601.79	55.88
602.553	53.88
603.317	49.88
604.081	45.88
604.845	51.88
605.609	42.88
606.372	40.88
607.136	37.88
607.899	39.88
608.662	38.88
609.426	36.88
610.189	36.88
610.952	32.88
611.715	33.88
612.478	32.88
613.241	29.88
614.004	29.88
614.767	26.88
615.529	26.88
616.292	24.88
617.055	25.88
617.817	23.88
618.579	24.88
619.342	21.88
620.104	19.88
620.866	20.88
621.628	20.88
622.39	19.88
623.152	19.88
623.914	17.88
624.676	17.88
625.438	17.88
626.199	16.88
626.961	13.88
627.722	14.88
628.484	13.88
629.245	9.88
630.006	13.88
630.768	13.88
631.529	14.88
632.29	12.88
633.051	10.88
633.812	12.88
634.573	13.88
635.333	11.88
636.094	10.88
636.855	11.88
637.615	10.88
638.376	9.88
639.136	12.88
639.896	9.88
640.657	8.88
641.417	7.88
642.177	8.88
642.937	10.88
643.697	8.88
644.457	8.88
645.216	10.88
645.976	11.88
646.736	7.88
647.495	9.88
648.255	8.88
649.014	8.88
649.774	9.88
650.533	7.88
651.292	5.88
652.051	6.88
652.81	5.88
653.569	7.88
654.328	6.88
655.087	7.88
655.846	6.88
656.604	4.88
657.363	5.88
658.121	3.88
658.88	5.88
659.638	6.88
660.397	5.88
661.155	4.88
661.913	6.88
662.671	5.88
663.429	6.88
664.187	4.88
664.945	3.88
665.703	4.88
666.46	4.88
667.218	3.88
667.976	2.88
668.733	4.88
669.49	4.88
670.248	5.88
671.005	5.88
671.762	5.88
672.519	2.88
673.276	4.88
674.033	3.88
674.79	4.88
675.547	3.88
676.304	3.88
677.06	3.88
677.817	3.88
678.574	2.88
679.33	3.88
680.086	5.88
680.843	4.88
681.599	3.88
682.355	3.88
683.111	3.88
683.867	4.88
684.623	2.88
685.379	4.88
686.135	4.88
686.89	4.88
687.646	1.88
688.402	3.88
689.157	0.88
689.912	3.88
690.668	3.88
691.423	2.88
692.178	4.88
692.933	3.88
693.688	2.88
694.443	2.88
695.198	3.88
695.953	3.88
696.708	3.88
697.462	3.88
698.217	4.88
698.972	4.88
699.726	2.88
700.48	1.88
701.235	1.88
701.989	2.88
702.743	3.88
703.497	1.88
704.251	4.88
705.005	2.88
705.759	3.88
706.513	3.88
707.266	3.88
708.02	4.88
708.774	4.88
709.527	2.88
710.28	1.88
711.034	3.88
711.787	2.88
712.54	3.88
713.293	3.88
714.046	4.88
714.799	4.88
715.552	3.88
716.305	3.88
717.058	3.88
717.81	3.88
718.563	4.88
719.315	4.88
720.068	5.88
720.82	2.88
721.573	4.88
722.325	4.88
723.077	2.88
723.829	5.88
724.581	2.88
725.333	4.88
726.085	2.88
726.836	1.88
727.588	2.88
728.34	2.88
729.091	3.88
729.843	2.88
730.594	3.88
731.346	1.88
732.097	5.88
732.848	3.88
733.599	2.88
734.35	5.88
735.101	4.88
735.852	0.88
736.603	6.88
737.354	5.88
738.104	5.88
738.855	6.88
739.605	5.88
740.356	3.88
741.106	3.88
741.856	3.88
742.607	4.88
743.357	4.88
744.107	3.88
744.857	2.88
745.607	3.88
746.357	2.88
747.106	3.88
747.856	4.88
748.606	4.88
749.355	2.88
750.105	6.88
750.854	4.88
751.603	3.88
752.353	5.88
753.102	4.88
753.851	5.88
754.6	5.88
755.349	4.88
756.098	5.88
756.847	5.88
757.595	6.88
758.344	2.88
759.093	8.88
759.841	5.88
760.589	4.88
761.338	5.88
762.086	6.88
762.834	8.88
763.582	6.88
764.331	4.88
765.079	5.88
765.826	7.88
766.574	7.88
767.322	6.88
768.07	6.88
768.817	7.88
769.565	7.88
770.312	5.88
771.06	6.88
771.807	10.88
772.554	7.88
773.302	7.88
774.049	6.88
774.796	7.88
775.543	9.88
776.29	8.88
777.036	5.88
777.783	8.88
778.53	7.88
779.276	6.88
780.023	7.88
780.769	7.88
781.516	7.88
782.262	9.88
783.008	8.88
783.754	6.88
784.5	8.88
785.246	8.88
785.992	10.88
786.738	9.88
787.484	9.88
788.23	7.88
788.975	10.88
789.721	6.88
790.466	7.88
791.212	7.88
791.957	7.88
792.702	10.88
793.447	7.88
794.193	6.88
794.938	7.88
795.683	5.88
796.427	9.88
797.172	6.88
797.917	6.88
798.662	8.88
799.406	6.88
800.151	7.88
800.895	6.88
801.64	7.88
802.384	7.88
803.128	6.88
803.872	6.88
804.616	4.88
805.36	6.88
806.104	5.88
806.848	7.88
807.592	5.88
808.336	6.88
809.079	7.88
809.823	4.88
810.566	4.88
811.31	3.88
812.053	2.88
812.796	3.88
813.539	6.88
814.283	5.88
815.026	3.88
815.769	4.88
816.511	4.88
817.254	8.88
817.997	3.88
818.74	1.88
819.482	3.88
820.225	2.88
820.967	4.88
821.71	3.88
822.452	4.88
823.194	2.88
823.936	4.88
824.678	3.88
825.42	2.88
826.162	4.88
826.904	3.88
827.646	3.88
828.388	3.88
829.129	2.88
829.871	3.88
830.612	2.88
831.354	2.88
832.095	4.88
832.836	2.88
833.577	3.88
834.319	3.88
835.06	4.88
835.801	1.88
836.542	3.88
837.282	1.88
838.023	2.88
838.764	2.88
839.504	4.88
840.245	1.88
840.985	2.88
841.726	0.88
842.466	3.88
843.206	1.88
843.946	1.88
844.687	3.88
845.427	2.88
846.166	3.88
846.906	2.88
847.646	1.88
848.386	0.88
849.125	3.88
849.865	1.88
850.605	1.88
851.344	4.88
852.083	1.88
852.823	3.88
853.562	1.88
854.301	1.88
855.04	3.88
855.779	3.88
856.518	1.88
857.257	1.88
857.995	1.88
858.734	0.88
859.473	1.88
860.211	3.88
860.95	0.88
861.688	2.88
862.426	1.88
863.165	4.88
863.903	1.88
864.641	1.88
865.379	0.88
866.117	1.88
866.855	-0.12
867.593	-0.12
868.33	1.88
869.068	2.88
869.806	0.88
870.543	0.88
871.28	0.88
872.018	3.88
872.755	0.88
873.492	1.88
874.229	1.88
874.967	3.88
875.703	0.88
876.44	2.88
877.177	0.88
877.914	1.88
878.651	1.88
879.387	0.88
880.124	-0.12
880.86	2.88
881.597	-1.12
882.333	3.88
883.069	0.88
883.806	0.88
884.542	-1.12
885.278	0.88
886.014	0.88
886.749	-0.12
887.485	1.88
888.221	0.88
888.957	1.88
889.692	-0.12
890.428	0.88
891.163	0.88
891.899	1.88
892.634	-0.12
893.369	1.88
894.104	0.88
894.839	1.88
895.574	-0.12
896.309	1.88
897.044	0.88
897.779	0.88
898.514	0.88
899.248	-0.12
899.983	1.88
900.717	0.88
901.452	1.88
902.186	0.88
902.92	0.88
903.654	0.88
904.389	1.88
905.123	1.88
905.857	0.88
906.59	0.88
907.324	-0.12
908.058	0.88
908.792	0.88
909.525	-0.12
910.259	1.88
910.992	-0.12
911.726	1.88
912.459	-3.12
913.192	0.88
913.925	0.88
914.658	-1.12
915.391	0.88
916.124	0.88
916.857	0.88
917.59	-2.12
918.323	-0.12
919.055	0.88
919.788	-0.12
920.521	1.88
921.253	0.88
921.985	1.88
922.718	-0.12
923.45	-1.12
924.182	-0.12
924.914	0.88
925.646	-0.12
926.378	0.88
927.11	-0.12
927.841	-0.12
928.573	-1.12
929.305	-1.12
930.036	-1.12
930.768	-2.12
931.499	-1.12
932.23	1.88
932.962	-0.12
933.693	-0.12
934.424	-1.12
935.155	-0.12
935.886	0.88
936.617	0.88
937.348	1.88
938.078	1.88
938.809	-0.12
939.54	-0.12
940.27	-0.12
941.001	1.88
941.731	1.88
942.461	0.88
943.191	0.88
943.922	1.88
944.652	-0.12
945.382	-0.12
946.112	-1.12
946.841	-0.12
947.571	-2.12
948.301	1.88
949.031	-2.12
949.76	0.88
950.49	-1.12
951.219	-0.12
951.948	-0.12
952.678	0.88
953.407	-2.12
954.136	-0.12
954.865	-0.12
955.594	-0.12
956.323	0.88
957.052	0.88
957.78	-2.12
958.509	2.88
959.238	-1.12
959.966	0.88
960.695	-0.12
961.423	-2.12
962.151	0.88
962.88	-0.12
963.608	0.88
964.336	-1.12
965.064	-0.12
965.792	0.88
966.52	-1.12
967.247	1.88
967.975	-0.12
968.703	-1.12
969.43	-1.12
970.158	-1.12
970.885	1.88
971.613	-0.12
972.34	0.88
973.067	-2.12
973.794	-0.12
974.521	-2.12
975.248	-0.12
975.975	2.88
976.702	1.88
977.429	0.88
978.156	-0.12
978.882	0.88
979.609	-0.12
980.335	0.88
981.062	-0.12
981.788	0.88
982.514	0.88
983.24	1.88
983.967	0.88
984.693	1.88
985.419	0.88
986.144	-1.12
986.87	0.88
987.596	-0.12
988.322	-1.12
989.047	0.88
989.773	1.88
990.498	-1.12
991.224	0.88
991.949	-0.12
992.674	-0.12
993.399	1.88
994.124	1.88
994.849	0.88
995.574	-0.12
996.299	0.88
997.024	-1.12
997.749	-0.12
998.473	-1.12
999.198	-2.12
999.922	-1.12
1000.647	0.88
1001.371	3.88
1002.095	-2.12
1002.82	-2.12
1003.544	0.88
1004.268	0.88
1004.992	0.88
1005.716	-1.12
1006.439	1.88
1007.163	0.88
1007.887	1.88
1008.611	-1.12
1009.334	1.88
1010.058	-0.12
1010.781	1.88
1011.504	-0.12
1012.228	2.88
1012.951	-0.12
1013.674	0.88
1014.397	-1.12
1015.12	-0.12
