节点500_285_QEPB04081__43__14-56-16-404.txt的数据

Date: Wed Nov 12 14:56:16 CST 2025
User: PC
Spectrometer: QEPB0408
触发模式: 0
积分时间 (秒): 1.000000E-2
Scans to average: 1
启用暗噪声校正: true
启用非线性校正: false
滑动平均宽度: 0
X轴模式: Wavelengths
Number of Pixels in Spectrum: 1044
>>>>>Begin Spectral Data<<<<<
220.843	2.62
221.644	1.62
222.444	1.62
223.244	0.62
224.045	2.62
224.845	3.62
225.645	1.62
226.445	3.62
227.245	2.62
228.045	4.62
228.845	1.62
229.645	3.62
230.444	7.62
231.244	3.62
232.043	4.62
232.843	4.62
233.642	3.62
234.442	4.62
235.241	3.62
236.04	6.62
236.839	6.62
237.638	6.62
238.437	4.62
239.236	5.62
240.035	5.62
240.833	5.62
241.632	5.62
242.43	4.62
243.229	7.62
244.027	7.62
244.826	4.62
245.624	7.62
246.422	6.62
247.22	6.62
248.018	6.62
248.816	6.62
249.614	7.62
250.412	8.62
251.21	8.62
252.007	5.62
252.805	8.62
253.602	6.62
254.4	7.62
255.197	8.62
255.994	10.62
256.791	10.62
257.589	10.62
258.386	7.62
259.183	13.62
259.979	11.62
260.776	12.62
261.573	12.62
262.37	11.62
263.166	10.62
263.963	12.62
264.759	14.62
265.556	13.62
266.352	13.62
267.148	13.62
267.944	13.62
268.74	16.62
269.536	16.62
270.332	17.62
271.128	20.62
271.924	17.62
272.719	16.62
273.515	19.62
274.311	21.62
275.106	20.62
275.901	20.62
276.697	17.62
277.492	20.62
278.287	16.62
279.082	19.62
279.877	16.62
280.672	22.62
281.467	18.62
282.262	18.62
283.056	20.62
283.851	19.62
284.646	24.62
285.44	20.62
286.234	20.62
287.029	18.62
287.823	20.62
288.617	19.62
289.411	21.62
290.205	19.62
290.999	17.62
291.793	19.62
292.587	20.62
293.381	21.62
294.174	15.62
294.968	18.62
295.761	18.62
296.555	14.62
297.348	16.62
298.141	16.62
298.935	16.62
299.728	15.62
300.521	13.62
301.314	13.62
302.107	10.62
302.899	15.62
303.692	13.62
304.485	12.62
305.277	12.62
306.07	12.62
306.862	13.62
307.655	11.62
308.447	12.62
309.239	14.62
310.031	11.62
310.823	9.62
311.615	8.62
312.407	7.62
313.199	11.62
313.991	9.62
314.783	8.62
315.574	8.62
316.366	9.62
317.157	8.62
317.949	6.62
318.74	8.62
319.531	9.62
320.322	8.62
321.113	7.62
321.904	10.62
322.695	8.62
323.486	10.62
324.277	8.62
325.068	5.62
325.858	7.62
326.649	7.62
327.439	6.62
328.23	6.62
329.02	8.62
329.81	6.62
330.6	5.62
331.391	6.62
332.181	7.62
332.971	7.62
333.76	8.62
334.55	5.62
335.34	7.62
336.13	6.62
336.919	6.62
337.709	7.62
338.498	5.62
339.287	6.62
340.077	8.62
340.866	5.62
341.655	8.62
342.444	5.62
343.233	7.62
344.022	7.62
344.811	6.62
345.6	6.62
346.388	6.62
347.177	5.62
347.965	6.62
348.754	7.62
349.542	6.62
350.33	7.62
351.119	9.62
351.907	6.62
352.695	8.62
353.483	7.62
354.271	7.62
355.059	7.62
355.846	8.62
356.634	7.62
357.422	4.62
358.209	5.62
358.997	6.62
359.784	8.62
360.571	6.62
361.359	3.62
362.146	6.62
362.933	5.62
363.72	8.62
364.507	6.62
365.294	5.62
366.081	5.62
366.867	4.62
367.654	5.62
368.44	4.62
369.227	5.62
370.013	5.62
370.8	4.62
371.586	7.62
372.372	3.62
373.158	5.62
373.944	8.62
374.73	5.62
375.516	6.62
376.302	4.62
377.088	5.62
377.873	7.62
378.659	3.62
379.445	6.62
380.23	5.62
381.015	5.62
381.801	6.62
382.586	7.62
383.371	6.62
384.156	5.62
384.941	6.62
385.726	6.62
386.511	5.62
387.296	5.62
388.08	5.62
388.865	5.62
389.649	8.62
390.434	6.62
391.218	6.62
392.003	9.62
392.787	7.62
393.571	5.62
394.355	5.62
395.139	6.62
395.923	7.62
396.707	8.62
397.491	9.62
398.274	6.62
399.058	7.62
399.842	8.62
400.625	5.62
401.408	6.62
402.192	8.62
402.975	6.62
403.758	7.62
404.541	4.62
405.324	7.62
406.107	9.62
406.89	7.62
407.673	8.62
408.456	10.62
409.238	8.62
410.021	8.62
410.803	9.62
411.586	9.62
412.368	9.62
413.151	10.62
413.933	8.62
414.715	9.62
415.497	11.62
416.279	10.62
417.061	11.62
417.843	9.62
418.624	10.62
419.406	9.62
420.188	10.62
420.969	10.62
421.751	12.62
422.532	11.62
423.313	11.62
424.095	12.62
424.876	13.62
425.657	11.62
426.438	14.62
427.219	11.62
428	14.62
428.78	9.62
429.561	13.62
430.342	16.62
431.122	16.62
431.903	17.62
432.683	17.62
433.464	17.62
434.244	16.62
435.024	16.62
435.804	15.62
436.584	19.62
437.364	19.62
438.144	20.62
438.924	23.62
439.704	24.62
440.483	22.62
441.263	25.62
442.042	25.62
442.822	25.62
443.601	26.62
444.38	28.62
445.16	31.62
445.939	32.62
446.718	35.62
447.497	39.62
448.276	38.62
449.054	39.62
449.833	45.62
450.612	49.62
451.391	54.62
452.169	59.62
452.948	66.62
453.726	69.62
454.504	76.62
455.282	84.62
456.061	92.62
456.839	103.62
457.617	108.62
458.395	121.62
459.172	136.62
459.95	148.62
460.728	173.62
461.506	186.62
462.283	211.62
463.061	230.62
463.838	259.62
464.615	292.62
465.393	326.62
466.17	363.62
466.947	400.62
467.724	456.62
468.501	501.62
469.278	576.62
470.055	641.62
470.831	711.62
471.608	798.62
472.385	891.62
473.161	998.62
473.938	1116.62
474.714	1227.62
475.49	1375.62
476.266	1525.62
477.043	1708.62
477.819	1893.62
478.595	2094.62
479.371	2337.62
480.146	2569.62
480.922	2862.62
481.698	3184.62
482.473	3529.62
483.249	3917.62
484.024	4344.62
484.8	4811.62
485.575	5318.62
486.35	5855.62
487.126	6424.62
487.901	7154.62
488.676	7871.62
489.451	8667.62
490.225	9537.62
491	10451.62
491.775	11466.62
492.55	12567.62
493.324	13665.62
494.099	14762.62
494.873	15979.62
495.647	17217.62
496.422	18553.62
497.196	19824.62
497.97	21219.62
498.744	22469.62
499.518	23761.62
500.292	24920.62
501.066	26007.62
501.839	26941.62
502.613	27797.62
503.387	28458.62
504.16	28963.62
504.934	29101.62
505.707	29063.62
506.48	29009.62
507.253	28598.62
508.027	28100.62
508.8	27556.62
509.573	26876.62
510.346	25986.62
511.118	25117.62
511.891	24127.62
512.664	23204.62
513.437	22163.62
514.209	21227.62
514.982	20236.62
515.754	19210.62
516.526	18372.62
517.298	17586.62
518.071	16750.62
518.843	16152.62
519.615	15575.62
520.387	14942.62
521.159	14265.62
521.93	13754.62
522.702	13216.62
523.474	12658.62
524.245	12092.62
525.017	11539.62
525.788	11095.62
526.56	10584.62
527.331	10076.62
528.102	9597.62
528.873	9107.62
529.644	8650.62
530.415	8183.62
531.186	7782.62
531.957	7348.62
532.728	6936.62
533.498	6559.62
534.269	6195.62
535.039	5836.62
535.81	5501.62
536.58	5207.62
537.351	4869.62
538.121	4601.62
538.891	4361.62
539.661	4135.62
540.431	3908.62
541.201	3704.62
541.971	3509.62
542.741	3308.62
543.51	3149.62
544.28	3001.62
545.05	2866.62
545.819	2721.62
546.588	2598.62
547.358	2450.62
548.127	2327.62
548.896	2194.62
549.665	2079.62
550.434	1983.62
551.203	1876.62
551.972	1769.62
552.741	1662.62
553.51	1573.62
554.278	1477.62
555.047	1396.62
555.815	1317.62
556.584	1246.62
557.352	1176.62
558.121	1119.62
558.889	1044.62
559.657	993.62
560.425	928.62
561.193	873.62
561.961	825.62
562.729	785.62
563.496	749.62
564.264	698.62
565.032	664.62
565.799	628.62
566.567	593.62
567.334	560.62
568.101	534.62
568.869	503.62
569.636	469.62
570.403	440.62
571.17	413.62
571.937	394.62
572.704	377.62
573.471	355.62
574.237	332.62
575.004	315.62
575.771	288.62
576.537	276.62
577.303	258.62
578.07	248.62
578.836	230.62
579.602	217.62
580.368	205.62
581.134	195.62
581.9	182.62
582.666	174.62
583.432	166.62
584.198	151.62
584.964	148.62
585.729	137.62
586.495	136.62
587.26	127.62
588.025	122.62
588.791	118.62
589.556	108.62
590.321	103.62
591.086	94.62
591.851	95.62
592.616	90.62
593.381	86.62
594.146	80.62
594.911	77.62
595.675	80.62
596.44	72.62
597.204	63.62
597.969	62.62
598.733	61.62
599.497	59.62
600.261	58.62
601.025	52.62
601.79	50.62
602.553	51.62
603.317	47.62
604.081	42.62
604.845	41.62
605.609	40.62
606.372	41.62
607.136	38.62
607.899	38.62
608.662	33.62
609.426	32.62
610.189	35.62
610.952	29.62
611.715	30.62
612.478	27.62
613.241	26.62
614.004	25.62
614.767	24.62
615.529	27.62
616.292	25.62
617.055	20.62
617.817	21.62
618.579	22.62
619.342	22.62
620.104	19.62
620.866	20.62
621.628	19.62
622.39	18.62
623.152	16.62
623.914	17.62
624.676	17.62
625.438	16.62
626.199	16.62
626.961	14.62
627.722	13.62
628.484	17.62
629.245	15.62
630.006	13.62
630.768	12.62
631.529	13.62
632.29	11.62
633.051	12.62
633.812	10.62
634.573	13.62
635.333	9.62
636.094	12.62
636.855	9.62
637.615	11.62
638.376	9.62
639.136	9.62
639.896	11.62
640.657	9.62
641.417	11.62
642.177	9.62
642.937	10.62
643.697	9.62
644.457	5.62
645.216	9.62
645.976	7.62
646.736	9.62
647.495	7.62
648.255	7.62
649.014	10.62
649.774	6.62
650.533	9.62
651.292	7.62
652.051	6.62
652.81	7.62
653.569	6.62
654.328	11.62
655.087	9.62
655.846	7.62
656.604	5.62
657.363	7.62
658.121	7.62
658.88	5.62
659.638	4.62
660.397	5.62
661.155	5.62
661.913	7.62
662.671	3.62
663.429	5.62
664.187	5.62
664.945	6.62
665.703	7.62
666.46	6.62
667.218	6.62
667.976	5.62
668.733	2.62
669.49	4.62
670.248	6.62
671.005	6.62
671.762	5.62
672.519	6.62
673.276	8.62
674.033	4.62
674.79	4.62
675.547	4.62
676.304	4.62
677.06	3.62
677.817	5.62
678.574	4.62
679.33	3.62
680.086	4.62
680.843	3.62
681.599	3.62
682.355	4.62
683.111	3.62
683.867	4.62
684.623	3.62
685.379	5.62
686.135	1.62
686.89	4.62
687.646	6.62
688.402	3.62
689.157	4.62
689.912	4.62
690.668	5.62
691.423	4.62
692.178	4.62
692.933	3.62
693.688	3.62
694.443	5.62
695.198	3.62
695.953	4.62
696.708	6.62
697.462	3.62
698.217	5.62
698.972	5.62
699.726	3.62
700.48	6.62
701.235	4.62
701.989	4.62
702.743	4.62
703.497	4.62
704.251	4.62
705.005	6.62
705.759	6.62
706.513	3.62
707.266	7.62
708.02	4.62
708.774	4.62
709.527	4.62
710.28	3.62
711.034	4.62
711.787	5.62
712.54	6.62
713.293	1.62
714.046	4.62
714.799	5.62
715.552	2.62
716.305	6.62
717.058	5.62
717.81	7.62
718.563	5.62
719.315	3.62
720.068	6.62
720.82	4.62
721.573	6.62
722.325	5.62
723.077	4.62
723.829	5.62
724.581	4.62
725.333	5.62
726.085	5.62
726.836	5.62
727.588	5.62
728.34	5.62
729.091	5.62
729.843	4.62
730.594	5.62
731.346	6.62
732.097	3.62
732.848	7.62
733.599	4.62
734.35	5.62
735.101	4.62
735.852	5.62
736.603	4.62
737.354	4.62
738.104	4.62
738.855	3.62
739.605	7.62
740.356	4.62
741.106	5.62
741.856	5.62
742.607	1.62
743.357	5.62
744.107	8.62
744.857	4.62
745.607	3.62
746.357	4.62
747.106	5.62
747.856	4.62
748.606	5.62
749.355	6.62
750.105	4.62
750.854	5.62
751.603	6.62
752.353	6.62
753.102	6.62
753.851	6.62
754.6	6.62
755.349	6.62
756.098	8.62
756.847	5.62
757.595	5.62
758.344	4.62
759.093	4.62
759.841	6.62
760.589	6.62
761.338	8.62
762.086	6.62
762.834	5.62
763.582	9.62
764.331	8.62
765.079	7.62
765.826	7.62
766.574	7.62
767.322	8.62
768.07	8.62
768.817	10.62
769.565	9.62
770.312	11.62
771.06	9.62
771.807	8.62
772.554	6.62
773.302	7.62
774.049	11.62
774.796	10.62
775.543	7.62
776.29	10.62
777.036	9.62
777.783	13.62
778.53	9.62
779.276	9.62
780.023	9.62
780.769	12.62
781.516	10.62
782.262	8.62
783.008	9.62
783.754	11.62
784.5	9.62
785.246	8.62
785.992	9.62
786.738	11.62
787.484	11.62
788.23	12.62
788.975	10.62
789.721	12.62
790.466	10.62
791.212	7.62
791.957	10.62
792.702	6.62
793.447	9.62
794.193	11.62
794.938	8.62
795.683	7.62
796.427	8.62
797.172	9.62
797.917	9.62
798.662	6.62
799.406	9.62
800.151	7.62
800.895	9.62
801.64	8.62
802.384	7.62
803.128	6.62
803.872	7.62
804.616	7.62
805.36	7.62
806.104	7.62
806.848	4.62
807.592	7.62
808.336	9.62
809.079	6.62
809.823	6.62
810.566	6.62
811.31	3.62
812.053	7.62
812.796	3.62
813.539	6.62
814.283	4.62
815.026	7.62
815.769	5.62
816.511	7.62
817.254	5.62
817.997	2.62
818.74	8.62
819.482	7.62
820.225	6.62
820.967	4.62
821.71	4.62
822.452	4.62
823.194	3.62
823.936	5.62
824.678	2.62
825.42	2.62
826.162	5.62
826.904	3.62
827.646	7.62
828.388	3.62
829.129	5.62
829.871	4.62
830.612	4.62
831.354	4.62
832.095	5.62
832.836	4.62
833.577	3.62
834.319	2.62
835.06	5.62
835.801	3.62
836.542	6.62
837.282	3.62
838.023	4.62
838.764	6.62
839.504	4.62
840.245	4.62
840.985	3.62
841.726	3.62
842.466	4.62
843.206	3.62
843.946	1.62
844.687	2.62
845.427	2.62
846.166	2.62
846.906	5.62
847.646	3.62
848.386	4.62
849.125	4.62
849.865	0.62
850.605	4.62
851.344	3.62
852.083	3.62
852.823	1.62
853.562	3.62
854.301	2.62
855.04	1.62
855.779	4.62
856.518	3.62
857.257	2.62
857.995	1.62
858.734	2.62
859.473	4.62
860.211	1.62
860.95	0.62
861.688	3.62
862.426	3.62
863.165	2.62
863.903	0.62
864.641	2.62
865.379	3.62
866.117	-0.38
866.855	1.62
867.593	2.62
868.33	1.62
869.068	0.62
869.806	3.62
870.543	1.62
871.28	0.62
872.018	2.62
872.755	0.62
873.492	1.62
874.229	1.62
874.967	0.62
875.703	-0.38
876.44	1.62
877.177	2.62
877.914	-1.38
878.651	0.62
879.387	1.62
880.124	2.62
880.86	4.62
881.597	0.62
882.333	1.62
883.069	1.62
883.806	0.62
884.542	1.62
885.278	-0.38
886.014	3.62
886.749	1.62
887.485	0.62
888.221	1.62
888.957	-0.38
889.692	2.62
890.428	-1.38
891.163	1.62
891.899	-0.38
892.634	0.62
893.369	2.62
894.104	0.62
894.839	2.62
895.574	0.62
896.309	-0.38
897.044	2.62
897.779	1.62
898.514	1.62
899.248	1.62
899.983	-0.38
900.717	4.62
901.452	1.62
902.186	3.62
902.92	1.62
903.654	2.62
904.389	-0.38
905.123	0.62
905.857	-1.38
906.59	1.62
907.324	1.62
908.058	3.62
908.792	1.62
909.525	1.62
910.259	1.62
910.992	1.62
911.726	0.62
912.459	3.62
913.192	-0.38
913.925	3.62
914.658	1.62
915.391	-0.38
916.124	1.62
916.857	1.62
917.59	0.62
918.323	2.62
919.055	-1.38
919.788	0.62
920.521	1.62
921.253	1.62
921.985	1.62
922.718	0.62
923.45	1.62
924.182	-0.38
924.914	0.62
925.646	1.62
926.378	1.62
927.11	2.62
927.841	0.62
928.573	1.62
929.305	0.62
930.036	2.62
930.768	0.62
931.499	0.62
932.23	2.62
932.962	1.62
933.693	0.62
934.424	0.62
935.155	2.62
935.886	1.62
936.617	2.62
937.348	1.62
938.078	2.62
938.809	2.62
939.54	0.62
940.27	-0.38
941.001	1.62
941.731	1.62
942.461	0.62
943.191	1.62
943.922	0.62
944.652	1.62
945.382	1.62
946.112	1.62
946.841	2.62
947.571	2.62
948.301	1.62
949.031	1.62
949.76	1.62
950.49	0.62
951.219	1.62
951.948	-0.38
952.678	0.62
953.407	2.62
954.136	1.62
954.865	2.62
955.594	0.62
956.323	0.62
957.052	0.62
957.78	-0.38
958.509	-0.38
959.238	0.62
959.966	2.62
960.695	2.62
961.423	-0.38
962.151	1.62
962.88	1.62
963.608	2.62
964.336	1.62
965.064	1.62
965.792	1.62
966.52	0.62
967.247	0.62
967.975	0.62
968.703	0.62
969.43	1.62
970.158	2.62
970.885	0.62
971.613	0.62
972.34	0.62
973.067	-2.38
973.794	2.62
974.521	-1.38
975.248	-0.38
975.975	1.62
976.702	-0.38
977.429	1.62
978.156	1.62
978.882	-0.38
979.609	1.62
980.335	1.62
981.062	-0.38
981.788	-0.38
982.514	0.62
983.24	-2.38
983.967	0.62
984.693	3.62
985.419	-0.38
986.144	-1.38
986.87	0.62
987.596	-1.38
988.322	1.62
989.047	0.62
989.773	2.62
990.498	-0.38
991.224	2.62
991.949	1.62
992.674	-1.38
993.399	1.62
994.124	1.62
994.849	1.62
995.574	0.62
996.299	0.62
997.024	0.62
997.749	1.62
998.473	3.62
999.198	1.62
999.922	1.62
1000.647	2.62
1001.371	1.62
1002.095	0.62
1002.82	-2.38
1003.544	-1.38
1004.268	1.62
1004.992	0.62
1005.716	1.62
1006.439	-0.38
1007.163	2.62
1007.887	2.62
1008.611	0.62
1009.334	1.62
1010.058	2.62
1010.781	1.62
1011.504	0.62
1012.228	0.62
1012.951	-0.38
1013.674	0.62
1014.397	1.62
1015.12	-0.38
