节点500_285_QEPB04081__837__15-09-28-738.txt的数据

Date: Wed Nov 12 15:09:28 CST 2025
User: PC
Spectrometer: QEPB0408
触发模式: 0
积分时间 (秒): 1.000000E-2
Scans to average: 1
启用暗噪声校正: true
启用非线性校正: false
滑动平均宽度: 0
X轴模式: Wavelengths
Number of Pixels in Spectrum: 1044
>>>>>Begin Spectral Data<<<<<
220.843	2.5
221.644	2.5
222.444	1.5
223.244	3.5
224.045	2.5
224.845	0.5
225.645	1.5
226.445	3.5
227.245	2.5
228.045	2.5
228.845	0.5
229.645	3.5
230.444	3.5
231.244	3.5
232.043	1.5
232.843	1.5
233.642	2.5
234.442	1.5
235.241	6.5
236.04	4.5
236.839	2.5
237.638	5.5
238.437	4.5
239.236	4.5
240.035	4.5
240.833	5.5
241.632	3.5
242.43	5.5
243.229	5.5
244.027	5.5
244.826	4.5
245.624	4.5
246.422	7.5
247.22	3.5
248.018	4.5
248.816	4.5
249.614	4.5
250.412	3.5
251.21	7.5
252.007	7.5
252.805	5.5
253.602	6.5
254.4	7.5
255.197	4.5
255.994	8.5
256.791	7.5
257.589	8.5
258.386	7.5
259.183	9.5
259.979	8.5
260.776	9.5
261.573	8.5
262.37	8.5
263.166	11.5
263.963	10.5
264.759	9.5
265.556	9.5
266.352	11.5
267.148	13.5
267.944	9.5
268.74	11.5
269.536	12.5
270.332	12.5
271.128	14.5
271.924	12.5
272.719	15.5
273.515	12.5
274.311	16.5
275.106	14.5
275.901	13.5
276.697	14.5
277.492	14.5
278.287	15.5
279.082	18.5
279.877	16.5
280.672	17.5
281.467	16.5
282.262	14.5
283.056	15.5
283.851	16.5
284.646	17.5
285.44	19.5
286.234	18.5
287.029	20.5
287.823	17.5
288.617	14.5
289.411	16.5
290.205	17.5
290.999	18.5
291.793	18.5
292.587	17.5
293.381	16.5
294.174	14.5
294.968	17.5
295.761	13.5
296.555	17.5
297.348	14.5
298.141	14.5
298.935	16.5
299.728	14.5
300.521	14.5
301.314	12.5
302.107	10.5
302.899	13.5
303.692	13.5
304.485	11.5
305.277	12.5
306.07	11.5
306.862	10.5
307.655	11.5
308.447	12.5
309.239	10.5
310.031	12.5
310.823	12.5
311.615	11.5
312.407	8.5
313.199	9.5
313.991	9.5
314.783	9.5
315.574	8.5
316.366	9.5
317.157	7.5
317.949	8.5
318.74	8.5
319.531	9.5
320.322	5.5
321.113	7.5
321.904	6.5
322.695	9.5
323.486	7.5
324.277	8.5
325.068	9.5
325.858	6.5
326.649	9.5
327.439	8.5
328.23	8.5
329.02	6.5
329.81	5.5
330.6	5.5
331.391	9.5
332.181	7.5
332.971	5.5
333.76	7.5
334.55	7.5
335.34	4.5
336.13	7.5
336.919	7.5
337.709	7.5
338.498	5.5
339.287	5.5
340.077	6.5
340.866	5.5
341.655	7.5
342.444	7.5
343.233	7.5
344.022	5.5
344.811	7.5
345.6	5.5
346.388	7.5
347.177	6.5
347.965	7.5
348.754	5.5
349.542	7.5
350.33	6.5
351.119	6.5
351.907	5.5
352.695	6.5
353.483	6.5
354.271	5.5
355.059	7.5
355.846	5.5
356.634	6.5
357.422	5.5
358.209	3.5
358.997	4.5
359.784	3.5
360.571	7.5
361.359	4.5
362.146	7.5
362.933	5.5
363.72	4.5
364.507	5.5
365.294	3.5
366.081	4.5
366.867	5.5
367.654	5.5
368.44	5.5
369.227	3.5
370.013	7.5
370.8	5.5
371.586	7.5
372.372	6.5
373.158	5.5
373.944	5.5
374.73	3.5
375.516	3.5
376.302	5.5
377.088	5.5
377.873	5.5
378.659	4.5
379.445	4.5
380.23	5.5
381.015	6.5
381.801	6.5
382.586	3.5
383.371	7.5
384.156	4.5
384.941	5.5
385.726	5.5
386.511	5.5
387.296	7.5
388.08	4.5
388.865	6.5
389.649	6.5
390.434	6.5
391.218	4.5
392.003	5.5
392.787	6.5
393.571	5.5
394.355	7.5
395.139	5.5
395.923	6.5
396.707	5.5
397.491	5.5
398.274	6.5
399.058	8.5
399.842	9.5
400.625	7.5
401.408	6.5
402.192	4.5
402.975	8.5
403.758	8.5
404.541	7.5
405.324	8.5
406.107	10.5
406.89	9.5
407.673	7.5
408.456	6.5
409.238	8.5
410.021	10.5
410.803	10.5
411.586	7.5
412.368	10.5
413.151	10.5
413.933	8.5
414.715	7.5
415.497	8.5
416.279	7.5
417.061	9.5
417.843	8.5
418.624	9.5
419.406	9.5
420.188	8.5
420.969	10.5
421.751	12.5
422.532	10.5
423.313	10.5
424.095	8.5
424.876	13.5
425.657	11.5
426.438	10.5
427.219	10.5
428	12.5
428.78	14.5
429.561	14.5
430.342	11.5
431.122	14.5
431.903	12.5
432.683	13.5
433.464	13.5
434.244	17.5
435.024	17.5
435.804	16.5
436.584	18.5
437.364	18.5
438.144	21.5
438.924	18.5
439.704	20.5
440.483	25.5
441.263	24.5
442.042	26.5
442.822	29.5
443.601	32.5
444.38	32.5
445.16	34.5
445.939	39.5
446.718	39.5
447.497	42.5
448.276	46.5
449.054	53.5
449.833	54.5
450.612	61.5
451.391	63.5
452.169	66.5
452.948	76.5
453.726	83.5
454.504	94.5
455.282	105.5
456.061	117.5
456.839	125.5
457.617	141.5
458.395	161.5
459.172	167.5
459.95	190.5
460.728	206.5
461.506	229.5
462.283	259.5
463.061	286.5
463.838	325.5
464.615	359.5
465.393	400.5
466.17	442.5
466.947	482.5
467.724	543.5
468.501	607.5
469.278	670.5
470.055	734.5
470.831	828.5
471.608	910.5
472.385	1011.5
473.161	1089.5
473.938	1212.5
474.714	1338.5
475.49	1450.5
476.266	1609.5
477.043	1771.5
477.819	1941.5
478.595	2125.5
479.371	2323.5
480.146	2544.5
480.922	2797.5
481.698	3021.5
482.473	3334.5
483.249	3642.5
484.024	3950.5
484.8	4294.5
485.575	4719.5
486.35	5107.5
487.126	5567.5
487.901	6050.5
488.676	6579.5
489.451	7166.5
490.225	7773.5
491	8410.5
491.775	9171.5
492.55	9955.5
493.324	10711.5
494.099	11436.5
494.873	12350.5
495.647	13219.5
496.422	14183.5
497.196	15185.5
497.97	16168.5
498.744	17202.5
499.518	18254.5
500.292	19239.5
501.066	20248.5
501.839	21123.5
502.613	22073.5
503.387	22887.5
504.16	23600.5
504.934	24128.5
505.707	24492.5
506.48	24680.5
507.253	24909.5
508.027	24967.5
508.8	24961.5
509.573	24804.5
510.346	24460.5
511.118	23979.5
511.891	23479.5
512.664	22802.5
513.437	22153.5
514.209	21370.5
514.982	20658.5
515.754	19861.5
516.526	19090.5
517.298	18342.5
518.071	17613.5
518.843	16894.5
519.615	16308.5
520.387	15614.5
521.159	15004.5
521.93	14427.5
522.702	13896.5
523.474	13335.5
524.245	12705.5
525.017	12221.5
525.788	11773.5
526.56	11249.5
527.331	10715.5
528.102	10318.5
528.873	9828.5
529.644	9424.5
530.415	8988.5
531.186	8530.5
531.957	8124.5
532.728	7734.5
533.498	7389.5
534.269	6989.5
535.039	6641.5
535.81	6283.5
536.58	5920.5
537.351	5585.5
538.121	5299.5
538.891	5009.5
539.661	4750.5
540.431	4486.5
541.201	4233.5
541.971	3998.5
542.741	3797.5
543.51	3619.5
544.28	3417.5
545.05	3281.5
545.819	3113.5
546.588	2943.5
547.358	2816.5
548.127	2666.5
548.896	2543.5
549.665	2423.5
550.434	2293.5
551.203	2173.5
551.972	2058.5
552.741	1931.5
553.51	1834.5
554.278	1740.5
555.047	1637.5
555.815	1554.5
556.584	1477.5
557.352	1391.5
558.121	1322.5
558.889	1249.5
559.657	1174.5
560.425	1117.5
561.193	1041.5
561.961	987.5
562.729	947.5
563.496	898.5
564.264	840.5
565.032	795.5
565.799	746.5
566.567	707.5
567.334	664.5
568.101	635.5
568.869	599.5
569.636	561.5
570.403	531.5
571.17	495.5
571.937	477.5
572.704	449.5
573.471	420.5
574.237	394.5
575.004	376.5
575.771	348.5
576.537	331.5
577.303	308.5
578.07	287.5
578.836	279.5
579.602	265.5
580.368	247.5
581.134	229.5
581.9	217.5
582.666	213.5
583.432	197.5
584.198	190.5
584.964	181.5
585.729	167.5
586.495	162.5
587.26	156.5
588.025	148.5
588.791	139.5
589.556	128.5
590.321	126.5
591.086	113.5
591.851	113.5
592.616	105.5
593.381	104.5
594.146	91.5
594.911	91.5
595.675	86.5
596.44	83.5
597.204	78.5
597.969	74.5
598.733	70.5
599.497	68.5
600.261	62.5
601.025	58.5
601.79	58.5
602.553	58.5
603.317	53.5
604.081	51.5
604.845	51.5
605.609	47.5
606.372	46.5
607.136	42.5
607.899	42.5
608.662	39.5
609.426	40.5
610.189	34.5
610.952	36.5
611.715	34.5
612.478	33.5
613.241	35.5
614.004	29.5
614.767	28.5
615.529	30.5
616.292	27.5
617.055	25.5
617.817	23.5
618.579	22.5
619.342	25.5
620.104	22.5
620.866	23.5
621.628	21.5
622.39	23.5
623.152	18.5
623.914	18.5
624.676	18.5
625.438	20.5
626.199	17.5
626.961	17.5
627.722	17.5
628.484	17.5
629.245	16.5
630.006	12.5
630.768	15.5
631.529	16.5
632.29	15.5
633.051	15.5
633.812	13.5
634.573	10.5
635.333	12.5
636.094	10.5
636.855	11.5
637.615	10.5
638.376	12.5
639.136	9.5
639.896	10.5
640.657	11.5
641.417	5.5
642.177	10.5
642.937	9.5
643.697	7.5
644.457	7.5
645.216	9.5
645.976	10.5
646.736	7.5
647.495	8.5
648.255	6.5
649.014	9.5
649.774	7.5
650.533	9.5
651.292	9.5
652.051	6.5
652.81	7.5
653.569	7.5
654.328	7.5
655.087	3.5
655.846	7.5
656.604	9.5
657.363	6.5
658.121	7.5
658.88	6.5
659.638	7.5
660.397	8.5
661.155	4.5
661.913	4.5
662.671	5.5
663.429	6.5
664.187	5.5
664.945	5.5
665.703	5.5
666.46	5.5
667.218	4.5
667.976	5.5
668.733	5.5
669.49	2.5
670.248	3.5
671.005	6.5
671.762	5.5
672.519	4.5
673.276	6.5
674.033	3.5
674.79	3.5
675.547	6.5
676.304	5.5
677.06	2.5
677.817	6.5
678.574	3.5
679.33	5.5
680.086	5.5
680.843	1.5
681.599	3.5
682.355	3.5
683.111	4.5
683.867	3.5
684.623	4.5
685.379	5.5
686.135	3.5
686.89	6.5
687.646	3.5
688.402	2.5
689.157	4.5
689.912	2.5
690.668	4.5
691.423	4.5
692.178	5.5
692.933	3.5
693.688	4.5
694.443	2.5
695.198	4.5
695.953	4.5
696.708	7.5
697.462	5.5
698.217	4.5
698.972	3.5
699.726	2.5
700.48	3.5
701.235	4.5
701.989	3.5
702.743	3.5
703.497	3.5
704.251	5.5
705.005	3.5
705.759	2.5
706.513	5.5
707.266	5.5
708.02	3.5
708.774	1.5
709.527	2.5
710.28	3.5
711.034	2.5
711.787	4.5
712.54	1.5
713.293	2.5
714.046	1.5
714.799	3.5
715.552	3.5
716.305	3.5
717.058	4.5
717.81	2.5
718.563	1.5
719.315	4.5
720.068	4.5
720.82	4.5
721.573	4.5
722.325	4.5
723.077	2.5
723.829	1.5
724.581	5.5
725.333	3.5
726.085	3.5
726.836	0.5
727.588	2.5
728.34	1.5
729.091	3.5
729.843	6.5
730.594	4.5
731.346	2.5
732.097	2.5
732.848	3.5
733.599	5.5
734.35	5.5
735.101	3.5
735.852	3.5
736.603	5.5
737.354	3.5
738.104	5.5
738.855	4.5
739.605	6.5
740.356	6.5
741.106	5.5
741.856	3.5
742.607	3.5
743.357	3.5
744.107	6.5
744.857	6.5
745.607	5.5
746.357	6.5
747.106	3.5
747.856	5.5
748.606	6.5
749.355	5.5
750.105	4.5
750.854	5.5
751.603	4.5
752.353	4.5
753.102	5.5
753.851	4.5
754.6	4.5
755.349	7.5
756.098	5.5
756.847	5.5
757.595	7.5
758.344	7.5
759.093	6.5
759.841	3.5
760.589	6.5
761.338	4.5
762.086	6.5
762.834	5.5
763.582	7.5
764.331	4.5
765.079	4.5
765.826	7.5
766.574	6.5
767.322	6.5
768.07	6.5
768.817	4.5
769.565	5.5
770.312	9.5
771.06	9.5
771.807	5.5
772.554	7.5
773.302	6.5
774.049	6.5
774.796	7.5
775.543	5.5
776.29	8.5
777.036	7.5
777.783	9.5
778.53	6.5
779.276	8.5
780.023	6.5
780.769	8.5
781.516	10.5
782.262	7.5
783.008	7.5
783.754	8.5
784.5	8.5
785.246	9.5
785.992	8.5
786.738	7.5
787.484	9.5
788.23	8.5
788.975	5.5
789.721	8.5
790.466	9.5
791.212	8.5
791.957	10.5
792.702	7.5
793.447	8.5
794.193	5.5
794.938	8.5
795.683	7.5
796.427	8.5
797.172	8.5
797.917	6.5
798.662	6.5
799.406	8.5
800.151	6.5
800.895	9.5
801.64	9.5
802.384	7.5
803.128	5.5
803.872	8.5
804.616	6.5
805.36	5.5
806.104	6.5
806.848	3.5
807.592	6.5
808.336	5.5
809.079	6.5
809.823	5.5
810.566	4.5
811.31	4.5
812.053	3.5
812.796	7.5
813.539	5.5
814.283	6.5
815.026	4.5
815.769	3.5
816.511	6.5
817.254	6.5
817.997	5.5
818.74	3.5
819.482	4.5
820.225	6.5
820.967	5.5
821.71	5.5
822.452	5.5
823.194	4.5
823.936	5.5
824.678	3.5
825.42	3.5
826.162	3.5
826.904	4.5
827.646	2.5
828.388	4.5
829.129	4.5
829.871	2.5
830.612	2.5
831.354	3.5
832.095	5.5
832.836	3.5
833.577	5.5
834.319	2.5
835.06	4.5
835.801	4.5
836.542	2.5
837.282	5.5
838.023	4.5
838.764	3.5
839.504	2.5
840.245	2.5
840.985	2.5
841.726	3.5
842.466	2.5
843.206	2.5
843.946	3.5
844.687	4.5
845.427	1.5
846.166	3.5
846.906	1.5
847.646	3.5
848.386	3.5
849.125	1.5
849.865	4.5
850.605	2.5
851.344	2.5
852.083	3.5
852.823	3.5
853.562	4.5
854.301	2.5
855.04	4.5
855.779	2.5
856.518	2.5
857.257	1.5
857.995	3.5
858.734	2.5
859.473	2.5
860.211	3.5
860.95	1.5
861.688	3.5
862.426	0.5
863.165	0.5
863.903	1.5
864.641	3.5
865.379	1.5
866.117	3.5
866.855	1.5
867.593	0.5
868.33	2.5
869.068	2.5
869.806	1.5
870.543	0.5
871.28	2.5
872.018	2.5
872.755	-0.5
873.492	1.5
874.229	1.5
874.967	3.5
875.703	0.5
876.44	0.5
877.177	1.5
877.914	2.5
878.651	-0.5
879.387	2.5
880.124	0.5
880.86	2.5
881.597	0.5
882.333	3.5
883.069	2.5
883.806	2.5
884.542	3.5
885.278	0.5
886.014	3.5
886.749	-0.5
887.485	2.5
888.221	1.5
888.957	1.5
889.692	0.5
890.428	1.5
891.163	-0.5
891.899	-0.5
892.634	1.5
893.369	0.5
894.104	-0.5
894.839	1.5
895.574	3.5
896.309	0.5
897.044	-0.5
897.779	2.5
898.514	1.5
899.248	3.5
899.983	0.5
900.717	-1.5
901.452	1.5
902.186	2.5
902.92	0.5
903.654	1.5
904.389	-0.5
905.123	1.5
905.857	-0.5
906.59	-0.5
907.324	0.5
908.058	-0.5
908.792	1.5
909.525	0.5
910.259	0.5
910.992	-1.5
911.726	0.5
912.459	1.5
913.192	0.5
913.925	2.5
914.658	-1.5
915.391	1.5
916.124	-0.5
916.857	-0.5
917.59	1.5
918.323	1.5
919.055	0.5
919.788	0.5
920.521	-0.5
921.253	2.5
921.985	0.5
922.718	-0.5
923.45	1.5
924.182	0.5
924.914	2.5
925.646	3.5
926.378	-0.5
927.11	2.5
927.841	-1.5
928.573	-0.5
929.305	0.5
930.036	0.5
930.768	0.5
931.499	0.5
932.23	-1.5
932.962	1.5
933.693	-1.5
934.424	0.5
935.155	-0.5
935.886	0.5
936.617	0.5
937.348	1.5
938.078	-0.5
938.809	1.5
939.54	-1.5
940.27	-0.5
941.001	-0.5
941.731	2.5
942.461	1.5
943.191	0.5
943.922	1.5
944.652	1.5
945.382	-1.5
946.112	0.5
946.841	1.5
947.571	0.5
948.301	-0.5
949.031	0.5
949.76	1.5
950.49	1.5
951.219	-0.5
951.948	0.5
952.678	-1.5
953.407	2.5
954.136	-1.5
954.865	-0.5
955.594	1.5
956.323	-0.5
957.052	1.5
957.78	-1.5
958.509	2.5
959.238	1.5
959.966	-1.5
960.695	0.5
961.423	1.5
962.151	1.5
962.88	0.5
963.608	0.5
964.336	1.5
965.064	1.5
965.792	-0.5
966.52	-1.5
967.247	1.5
967.975	1.5
968.703	1.5
969.43	2.5
970.158	-0.5
970.885	1.5
971.613	-1.5
972.34	1.5
973.067	-0.5
973.794	0.5
974.521	1.5
975.248	1.5
975.975	1.5
976.702	0.5
977.429	2.5
978.156	-1.5
978.882	1.5
979.609	0.5
980.335	0.5
981.062	0.5
981.788	0.5
982.514	2.5
983.24	-1.5
983.967	0.5
984.693	1.5
985.419	0.5
986.144	-2.5
986.87	-1.5
987.596	0.5
988.322	-0.5
989.047	0.5
989.773	0.5
990.498	0.5
991.224	0.5
991.949	1.5
992.674	0.5
993.399	2.5
994.124	-1.5
994.849	-1.5
995.574	2.5
996.299	2.5
997.024	0.5
997.749	-0.5
998.473	-0.5
999.198	0.5
999.922	0.5
1000.647	-1.5
1001.371	2.5
1002.095	-1.5
1002.82	-1.5
1003.544	0.5
1004.268	2.5
1004.992	-2.5
1005.716	-0.5
1006.439	0.5
1007.163	1.5
1007.887	2.5
1008.611	0.5
1009.334	1.5
1010.058	0.5
1010.781	0.5
1011.504	1.5
1012.228	2.5
1012.951	-1.5
1013.674	0.5
1014.397	-0.5
1015.12	1.5
