节点500_285_QEPB04081__568__15-05-00-207.txt的数据

Date: Wed Nov 12 15:05:00 CST 2025
User: PC
Spectrometer: QEPB0408
触发模式: 0
积分时间 (秒): 1.000000E-2
Scans to average: 1
启用暗噪声校正: true
启用非线性校正: false
滑动平均宽度: 0
X轴模式: Wavelengths
Number of Pixels in Spectrum: 1044
>>>>>Begin Spectral Data<<<<<
220.843	1.12
221.644	1.12
222.444	2.12
223.244	1.12
224.045	2.12
224.845	2.12
225.645	3.12
226.445	1.12
227.245	2.12
228.045	4.12
228.845	0.12
229.645	3.12
230.444	4.12
231.244	4.12
232.043	2.12
232.843	5.12
233.642	4.12
234.442	4.12
235.241	5.12
236.04	4.12
236.839	5.12
237.638	4.12
238.437	6.12
239.236	5.12
240.035	3.12
240.833	6.12
241.632	3.12
242.43	4.12
243.229	6.12
244.027	5.12
244.826	4.12
245.624	4.12
246.422	6.12
247.22	4.12
248.018	5.12
248.816	8.12
249.614	5.12
250.412	5.12
251.21	3.12
252.007	7.12
252.805	6.12
253.602	7.12
254.4	9.12
255.197	6.12
255.994	9.12
256.791	7.12
257.589	7.12
258.386	8.12
259.183	11.12
259.979	9.12
260.776	9.12
261.573	11.12
262.37	11.12
263.166	9.12
263.963	12.12
264.759	13.12
265.556	11.12
266.352	10.12
267.148	13.12
267.944	11.12
268.74	16.12
269.536	12.12
270.332	14.12
271.128	16.12
271.924	16.12
272.719	15.12
273.515	16.12
274.311	13.12
275.106	17.12
275.901	14.12
276.697	18.12
277.492	15.12
278.287	18.12
279.082	18.12
279.877	16.12
280.672	18.12
281.467	17.12
282.262	19.12
283.056	19.12
283.851	19.12
284.646	19.12
285.44	16.12
286.234	20.12
287.029	18.12
287.823	18.12
288.617	19.12
289.411	17.12
290.205	20.12
290.999	18.12
291.793	18.12
292.587	17.12
293.381	17.12
294.174	15.12
294.968	14.12
295.761	14.12
296.555	14.12
297.348	16.12
298.141	16.12
298.935	19.12
299.728	14.12
300.521	10.12
301.314	14.12
302.107	14.12
302.899	15.12
303.692	14.12
304.485	14.12
305.277	12.12
306.07	13.12
306.862	14.12
307.655	11.12
308.447	14.12
309.239	12.12
310.031	9.12
310.823	10.12
311.615	9.12
312.407	10.12
313.199	12.12
313.991	9.12
314.783	9.12
315.574	10.12
316.366	10.12
317.157	6.12
317.949	11.12
318.74	10.12
319.531	8.12
320.322	8.12
321.113	7.12
321.904	8.12
322.695	5.12
323.486	7.12
324.277	8.12
325.068	8.12
325.858	10.12
326.649	6.12
327.439	8.12
328.23	7.12
329.02	7.12
329.81	8.12
330.6	5.12
331.391	8.12
332.181	6.12
332.971	10.12
333.76	6.12
334.55	7.12
335.34	7.12
336.13	6.12
336.919	8.12
337.709	4.12
338.498	7.12
339.287	6.12
340.077	4.12
340.866	7.12
341.655	6.12
342.444	6.12
343.233	7.12
344.022	6.12
344.811	6.12
345.6	7.12
346.388	7.12
347.177	5.12
347.965	7.12
348.754	6.12
349.542	3.12
350.33	9.12
351.119	7.12
351.907	5.12
352.695	6.12
353.483	5.12
354.271	5.12
355.059	6.12
355.846	6.12
356.634	7.12
357.422	5.12
358.209	6.12
358.997	4.12
359.784	7.12
360.571	4.12
361.359	7.12
362.146	5.12
362.933	6.12
363.72	5.12
364.507	5.12
365.294	4.12
366.081	6.12
366.867	5.12
367.654	4.12
368.44	5.12
369.227	5.12
370.013	5.12
370.8	5.12
371.586	6.12
372.372	5.12
373.158	5.12
373.944	4.12
374.73	5.12
375.516	5.12
376.302	6.12
377.088	3.12
377.873	5.12
378.659	5.12
379.445	5.12
380.23	5.12
381.015	6.12
381.801	7.12
382.586	4.12
383.371	7.12
384.156	7.12
384.941	6.12
385.726	5.12
386.511	6.12
387.296	5.12
388.08	5.12
388.865	5.12
389.649	8.12
390.434	5.12
391.218	6.12
392.003	7.12
392.787	3.12
393.571	6.12
394.355	8.12
395.139	7.12
395.923	6.12
396.707	7.12
397.491	4.12
398.274	8.12
399.058	6.12
399.842	9.12
400.625	6.12
401.408	7.12
402.192	7.12
402.975	7.12
403.758	7.12
404.541	7.12
405.324	9.12
406.107	8.12
406.89	6.12
407.673	8.12
408.456	7.12
409.238	9.12
410.021	9.12
410.803	7.12
411.586	7.12
412.368	9.12
413.151	8.12
413.933	11.12
414.715	10.12
415.497	9.12
416.279	7.12
417.061	11.12
417.843	10.12
418.624	10.12
419.406	12.12
420.188	11.12
420.969	10.12
421.751	8.12
422.532	12.12
423.313	11.12
424.095	11.12
424.876	13.12
425.657	11.12
426.438	11.12
427.219	12.12
428	12.12
428.78	14.12
429.561	14.12
430.342	11.12
431.122	13.12
431.903	16.12
432.683	14.12
433.464	15.12
434.244	17.12
435.024	17.12
435.804	18.12
436.584	18.12
437.364	21.12
438.144	17.12
438.924	20.12
439.704	24.12
440.483	20.12
441.263	23.12
442.042	24.12
442.822	29.12
443.601	30.12
444.38	31.12
445.16	34.12
445.939	31.12
446.718	37.12
447.497	39.12
448.276	45.12
449.054	48.12
449.833	52.12
450.612	54.12
451.391	61.12
452.169	66.12
452.948	71.12
453.726	80.12
454.504	86.12
455.282	97.12
456.061	113.12
456.839	117.12
457.617	133.12
458.395	145.12
459.172	161.12
459.95	175.12
460.728	194.12
461.506	220.12
462.283	237.12
463.061	272.12
463.838	312.12
464.615	339.12
465.393	380.12
466.17	427.12
466.947	475.12
467.724	526.12
468.501	586.12
469.278	641.12
470.055	721.12
470.831	810.12
471.608	893.12
472.385	983.12
473.161	1079.12
473.938	1213.12
474.714	1331.12
475.49	1450.12
476.266	1607.12
477.043	1761.12
477.819	1942.12
478.595	2148.12
479.371	2355.12
480.146	2568.12
480.922	2845.12
481.698	3144.12
482.473	3406.12
483.249	3774.12
484.024	4104.12
484.8	4503.12
485.575	4928.12
486.35	5396.12
487.126	5917.12
487.901	6429.12
488.676	7041.12
489.451	7693.12
490.225	8426.12
491	9108.12
491.775	9934.12
492.55	10824.12
493.324	11682.12
494.099	12554.12
494.873	13500.12
495.647	14533.12
496.422	15664.12
497.196	16694.12
497.97	17832.12
498.744	19006.12
499.518	20079.12
500.292	21172.12
501.066	22209.12
501.839	23190.12
502.613	24084.12
503.387	24929.12
504.16	25583.12
504.934	25948.12
505.707	26222.12
506.48	26484.12
507.253	26477.12
508.027	26333.12
508.8	26171.12
509.573	25892.12
510.346	25363.12
511.118	24697.12
511.891	24058.12
512.664	23334.12
513.437	22474.12
514.209	21629.12
514.982	20809.12
515.754	19996.12
516.526	19112.12
517.298	18285.12
518.071	17484.12
518.843	16786.12
519.615	16179.12
520.387	15566.12
521.159	14969.12
521.93	14378.12
522.702	13803.12
523.474	13241.12
524.245	12634.12
525.017	12134.12
525.788	11657.12
526.56	11139.12
527.331	10623.12
528.102	10186.12
528.873	9677.12
529.644	9246.12
530.415	8818.12
531.186	8347.12
531.957	7920.12
532.728	7565.12
533.498	7214.12
534.269	6764.12
535.039	6435.12
535.81	6073.12
536.58	5751.12
537.351	5412.12
538.121	5104.12
538.891	4882.12
539.661	4622.12
540.431	4320.12
541.201	4074.12
541.971	3886.12
542.741	3690.12
543.51	3486.12
544.28	3304.12
545.05	3168.12
545.819	2991.12
546.588	2848.12
547.358	2698.12
548.127	2584.12
548.896	2433.12
549.665	2338.12
550.434	2222.12
551.203	2081.12
551.972	1988.12
552.741	1872.12
553.51	1780.12
554.278	1663.12
555.047	1585.12
555.815	1478.12
556.584	1405.12
557.352	1340.12
558.121	1266.12
558.889	1198.12
559.657	1129.12
560.425	1058.12
561.193	1008.12
561.961	938.12
562.729	887.12
563.496	839.12
564.264	791.12
565.032	757.12
565.799	725.12
566.567	671.12
567.334	624.12
568.101	603.12
568.869	564.12
569.636	535.12
570.403	511.12
571.17	464.12
571.937	447.12
572.704	424.12
573.471	405.12
574.237	376.12
575.004	364.12
575.771	333.12
576.537	310.12
577.303	298.12
578.07	282.12
578.836	264.12
579.602	251.12
580.368	237.12
581.134	222.12
581.9	213.12
582.666	201.12
583.432	191.12
584.198	185.12
584.964	170.12
585.729	157.12
586.495	154.12
587.26	148.12
588.025	137.12
588.791	129.12
589.556	122.12
590.321	117.12
591.086	114.12
591.851	106.12
592.616	102.12
593.381	95.12
594.146	91.12
594.911	87.12
595.675	80.12
596.44	77.12
597.204	75.12
597.969	72.12
598.733	71.12
599.497	65.12
600.261	63.12
601.025	63.12
601.79	60.12
602.553	56.12
603.317	52.12
604.081	53.12
604.845	46.12
605.609	47.12
606.372	47.12
607.136	44.12
607.899	39.12
608.662	37.12
609.426	34.12
610.189	38.12
610.952	33.12
611.715	34.12
612.478	34.12
613.241	31.12
614.004	28.12
614.767	29.12
615.529	29.12
616.292	26.12
617.055	25.12
617.817	23.12
618.579	24.12
619.342	22.12
620.104	20.12
620.866	23.12
621.628	21.12
622.39	20.12
623.152	22.12
623.914	20.12
624.676	15.12
625.438	18.12
626.199	17.12
626.961	16.12
627.722	15.12
628.484	14.12
629.245	12.12
630.006	15.12
630.768	11.12
631.529	15.12
632.29	14.12
633.051	13.12
633.812	10.12
634.573	13.12
635.333	13.12
636.094	14.12
636.855	12.12
637.615	11.12
638.376	10.12
639.136	10.12
639.896	9.12
640.657	10.12
641.417	10.12
642.177	10.12
642.937	10.12
643.697	11.12
644.457	9.12
645.216	7.12
645.976	9.12
646.736	10.12
647.495	8.12
648.255	8.12
649.014	8.12
649.774	8.12
650.533	8.12
651.292	7.12
652.051	9.12
652.81	6.12
653.569	6.12
654.328	8.12
655.087	8.12
655.846	8.12
656.604	5.12
657.363	8.12
658.121	6.12
658.88	5.12
659.638	5.12
660.397	8.12
661.155	4.12
661.913	5.12
662.671	2.12
663.429	5.12
664.187	7.12
664.945	3.12
665.703	5.12
666.46	6.12
667.218	5.12
667.976	8.12
668.733	6.12
669.49	5.12
670.248	5.12
671.005	5.12
671.762	7.12
672.519	6.12
673.276	4.12
674.033	5.12
674.79	5.12
675.547	3.12
676.304	3.12
677.06	6.12
677.817	4.12
678.574	5.12
679.33	4.12
680.086	4.12
680.843	2.12
681.599	5.12
682.355	5.12
683.111	2.12
683.867	5.12
684.623	5.12
685.379	5.12
686.135	5.12
686.89	4.12
687.646	5.12
688.402	4.12
689.157	5.12
689.912	4.12
690.668	0.12
691.423	6.12
692.178	4.12
692.933	4.12
693.688	3.12
694.443	5.12
695.198	6.12
695.953	4.12
696.708	6.12
697.462	4.12
698.217	2.12
698.972	4.12
699.726	4.12
700.48	4.12
701.235	2.12
701.989	3.12
702.743	1.12
703.497	5.12
704.251	4.12
705.005	2.12
705.759	3.12
706.513	4.12
707.266	5.12
708.02	3.12
708.774	4.12
709.527	4.12
710.28	5.12
711.034	6.12
711.787	2.12
712.54	3.12
713.293	3.12
714.046	4.12
714.799	6.12
715.552	3.12
716.305	5.12
717.058	2.12
717.81	5.12
718.563	2.12
719.315	5.12
720.068	3.12
720.82	3.12
721.573	4.12
722.325	5.12
723.077	6.12
723.829	4.12
724.581	2.12
725.333	7.12
726.085	2.12
726.836	4.12
727.588	3.12
728.34	5.12
729.091	5.12
729.843	5.12
730.594	5.12
731.346	5.12
732.097	5.12
732.848	2.12
733.599	4.12
734.35	3.12
735.101	5.12
735.852	4.12
736.603	4.12
737.354	5.12
738.104	3.12
738.855	5.12
739.605	5.12
740.356	4.12
741.106	3.12
741.856	3.12
742.607	5.12
743.357	5.12
744.107	4.12
744.857	4.12
745.607	5.12
746.357	3.12
747.106	3.12
747.856	4.12
748.606	6.12
749.355	8.12
750.105	5.12
750.854	6.12
751.603	5.12
752.353	4.12
753.102	5.12
753.851	6.12
754.6	5.12
755.349	5.12
756.098	3.12
756.847	6.12
757.595	5.12
758.344	5.12
759.093	5.12
759.841	4.12
760.589	7.12
761.338	5.12
762.086	4.12
762.834	7.12
763.582	6.12
764.331	6.12
765.079	6.12
765.826	9.12
766.574	5.12
767.322	8.12
768.07	6.12
768.817	4.12
769.565	7.12
770.312	9.12
771.06	6.12
771.807	7.12
772.554	7.12
773.302	6.12
774.049	7.12
774.796	9.12
775.543	9.12
776.29	9.12
777.036	9.12
777.783	8.12
778.53	9.12
779.276	8.12
780.023	7.12
780.769	8.12
781.516	7.12
782.262	9.12
783.008	8.12
783.754	10.12
784.5	8.12
785.246	9.12
785.992	10.12
786.738	7.12
787.484	6.12
788.23	9.12
788.975	11.12
789.721	7.12
790.466	10.12
791.212	10.12
791.957	7.12
792.702	7.12
793.447	9.12
794.193	8.12
794.938	9.12
795.683	8.12
796.427	10.12
797.172	7.12
797.917	10.12
798.662	6.12
799.406	9.12
800.151	8.12
800.895	9.12
801.64	6.12
802.384	6.12
803.128	9.12
803.872	8.12
804.616	7.12
805.36	6.12
806.104	6.12
806.848	7.12
807.592	4.12
808.336	5.12
809.079	4.12
809.823	5.12
810.566	5.12
811.31	3.12
812.053	5.12
812.796	5.12
813.539	7.12
814.283	5.12
815.026	4.12
815.769	6.12
816.511	5.12
817.254	5.12
817.997	3.12
818.74	7.12
819.482	4.12
820.225	5.12
820.967	5.12
821.71	2.12
822.452	7.12
823.194	2.12
823.936	4.12
824.678	3.12
825.42	4.12
826.162	2.12
826.904	4.12
827.646	5.12
828.388	3.12
829.129	4.12
829.871	5.12
830.612	3.12
831.354	4.12
832.095	2.12
832.836	5.12
833.577	4.12
834.319	7.12
835.06	4.12
835.801	4.12
836.542	4.12
837.282	3.12
838.023	4.12
838.764	3.12
839.504	4.12
840.245	2.12
840.985	4.12
841.726	5.12
842.466	2.12
843.206	3.12
843.946	5.12
844.687	2.12
845.427	4.12
846.166	3.12
846.906	4.12
847.646	2.12
848.386	5.12
849.125	3.12
849.865	3.12
850.605	2.12
851.344	2.12
852.083	4.12
852.823	3.12
853.562	3.12
854.301	3.12
855.04	4.12
855.779	3.12
856.518	2.12
857.257	3.12
857.995	3.12
858.734	3.12
859.473	1.12
860.211	1.12
860.95	2.12
861.688	1.12
862.426	2.12
863.165	1.12
863.903	3.12
864.641	1.12
865.379	0.12
866.117	0.12
866.855	3.12
867.593	1.12
868.33	3.12
869.068	1.12
869.806	2.12
870.543	2.12
871.28	2.12
872.018	0.12
872.755	2.12
873.492	3.12
874.229	0.12
874.967	3.12
875.703	0.12
876.44	2.12
877.177	3.12
877.914	1.12
878.651	2.12
879.387	1.12
880.124	5.12
880.86	2.12
881.597	2.12
882.333	2.12
883.069	3.12
883.806	1.12
884.542	2.12
885.278	4.12
886.014	1.12
886.749	2.12
887.485	2.12
888.221	2.12
888.957	2.12
889.692	1.12
890.428	2.12
891.163	1.12
891.899	1.12
892.634	1.12
893.369	1.12
894.104	2.12
894.839	0.12
895.574	1.12
896.309	1.12
897.044	3.12
897.779	2.12
898.514	0.12
899.248	-0.88
899.983	0.12
900.717	1.12
901.452	1.12
902.186	2.12
902.92	1.12
903.654	0.12
904.389	2.12
905.123	0.12
905.857	1.12
906.59	2.12
907.324	-1.88
908.058	4.12
908.792	2.12
909.525	-0.88
910.259	-0.88
910.992	0.12
911.726	1.12
912.459	0.12
913.192	1.12
913.925	1.12
914.658	0.12
915.391	2.12
916.124	-1.88
916.857	0.12
917.59	2.12
918.323	0.12
919.055	-0.88
919.788	0.12
920.521	1.12
921.253	0.12
921.985	1.12
922.718	2.12
923.45	2.12
924.182	1.12
924.914	-1.88
925.646	1.12
926.378	0.12
927.11	0.12
927.841	1.12
928.573	-0.88
929.305	0.12
930.036	-1.88
930.768	2.12
931.499	0.12
932.23	0.12
932.962	-1.88
933.693	1.12
934.424	1.12
935.155	-0.88
935.886	1.12
936.617	0.12
937.348	0.12
938.078	0.12
938.809	0.12
939.54	2.12
940.27	2.12
941.001	2.12
941.731	-0.88
942.461	0.12
943.191	2.12
943.922	-1.88
944.652	0.12
945.382	0.12
946.112	-0.88
946.841	1.12
947.571	3.12
948.301	-1.88
949.031	-1.88
949.76	0.12
950.49	1.12
951.219	-0.88
951.948	2.12
952.678	1.12
953.407	0.12
954.136	1.12
954.865	1.12
955.594	1.12
956.323	0.12
957.052	-0.88
957.78	0.12
958.509	2.12
959.238	2.12
959.966	-0.88
960.695	0.12
961.423	0.12
962.151	1.12
962.88	1.12
963.608	0.12
964.336	3.12
965.064	1.12
965.792	-1.88
966.52	0.12
967.247	1.12
967.975	1.12
968.703	1.12
969.43	-0.88
970.158	0.12
970.885	2.12
971.613	1.12
972.34	1.12
973.067	0.12
973.794	1.12
974.521	-1.88
975.248	2.12
975.975	2.12
976.702	0.12
977.429	0.12
978.156	1.12
978.882	2.12
979.609	0.12
980.335	0.12
981.062	2.12
981.788	0.12
982.514	-0.88
983.24	-1.88
983.967	0.12
984.693	0.12
985.419	1.12
986.144	2.12
986.87	-0.88
987.596	0.12
988.322	-1.88
989.047	0.12
989.773	0.12
990.498	-0.88
991.224	3.12
991.949	0.12
992.674	0.12
993.399	0.12
994.124	0.12
994.849	2.12
995.574	1.12
996.299	2.12
997.024	-1.88
997.749	0.12
998.473	0.12
999.198	1.12
999.922	0.12
1000.647	-1.88
1001.371	2.12
1002.095	-0.88
1002.82	-1.88
1003.544	-1.88
1004.268	1.12
1004.992	0.12
1005.716	3.12
1006.439	1.12
1007.163	0.12
1007.887	2.12
1008.611	3.12
1009.334	0.12
1010.058	1.12
1010.781	1.12
1011.504	1.12
1012.228	1.12
1012.951	1.12
1013.674	1.12
1014.397	1.12
1015.12	-0.88
