节点500_285_QEPB04081__202__14-58-55-085.txt的数据

Date: Wed Nov 12 14:58:55 CST 2025
User: PC
Spectrometer: QEPB0408
触发模式: 0
积分时间 (秒): 1.000000E-2
Scans to average: 1
启用暗噪声校正: true
启用非线性校正: false
滑动平均宽度: 0
X轴模式: Wavelengths
Number of Pixels in Spectrum: 1044
>>>>>Begin Spectral Data<<<<<
220.843	2.88
221.644	0.88
222.444	1.88
223.244	2.88
224.045	1.88
224.845	2.88
225.645	1.88
226.445	1.88
227.245	1.88
228.045	3.88
228.845	2.88
229.645	1.88
230.444	1.88
231.244	4.88
232.043	4.88
232.843	2.88
233.642	3.88
234.442	2.88
235.241	2.88
236.04	5.88
236.839	4.88
237.638	6.88
238.437	3.88
239.236	4.88
240.035	5.88
240.833	5.88
241.632	4.88
242.43	5.88
243.229	5.88
244.027	5.88
244.826	4.88
245.624	6.88
246.422	5.88
247.22	5.88
248.018	9.88
248.816	6.88
249.614	4.88
250.412	6.88
251.21	6.88
252.007	5.88
252.805	5.88
253.602	8.88
254.4	8.88
255.197	6.88
255.994	9.88
256.791	8.88
257.589	8.88
258.386	9.88
259.183	11.88
259.979	8.88
260.776	9.88
261.573	12.88
262.37	11.88
263.166	9.88
263.963	10.88
264.759	13.88
265.556	13.88
266.352	12.88
267.148	15.88
267.944	13.88
268.74	17.88
269.536	15.88
270.332	17.88
271.128	16.88
271.924	17.88
272.719	16.88
273.515	17.88
274.311	18.88
275.106	17.88
275.901	19.88
276.697	17.88
277.492	18.88
278.287	15.88
279.082	20.88
279.877	18.88
280.672	17.88
281.467	19.88
282.262	16.88
283.056	18.88
283.851	17.88
284.646	21.88
285.44	20.88
286.234	19.88
287.029	18.88
287.823	19.88
288.617	17.88
289.411	19.88
290.205	17.88
290.999	17.88
291.793	18.88
292.587	21.88
293.381	17.88
294.174	19.88
294.968	15.88
295.761	16.88
296.555	15.88
297.348	14.88
298.141	14.88
298.935	16.88
299.728	14.88
300.521	15.88
301.314	13.88
302.107	15.88
302.899	12.88
303.692	11.88
304.485	14.88
305.277	13.88
306.07	9.88
306.862	12.88
307.655	11.88
308.447	13.88
309.239	13.88
310.031	11.88
310.823	11.88
311.615	11.88
312.407	8.88
313.199	9.88
313.991	9.88
314.783	10.88
315.574	8.88
316.366	10.88
317.157	9.88
317.949	10.88
318.74	9.88
319.531	7.88
320.322	7.88
321.113	6.88
321.904	8.88
322.695	11.88
323.486	5.88
324.277	7.88
325.068	7.88
325.858	8.88
326.649	6.88
327.439	7.88
328.23	5.88
329.02	7.88
329.81	6.88
330.6	5.88
331.391	6.88
332.181	7.88
332.971	6.88
333.76	6.88
334.55	6.88
335.34	7.88
336.13	7.88
336.919	6.88
337.709	5.88
338.498	4.88
339.287	9.88
340.077	6.88
340.866	7.88
341.655	7.88
342.444	5.88
343.233	8.88
344.022	6.88
344.811	6.88
345.6	4.88
346.388	4.88
347.177	5.88
347.965	3.88
348.754	6.88
349.542	5.88
350.33	5.88
351.119	6.88
351.907	6.88
352.695	8.88
353.483	5.88
354.271	7.88
355.059	7.88
355.846	6.88
356.634	5.88
357.422	5.88
358.209	6.88
358.997	5.88
359.784	5.88
360.571	4.88
361.359	6.88
362.146	7.88
362.933	4.88
363.72	6.88
364.507	5.88
365.294	3.88
366.081	6.88
366.867	4.88
367.654	4.88
368.44	4.88
369.227	6.88
370.013	3.88
370.8	4.88
371.586	7.88
372.372	4.88
373.158	6.88
373.944	4.88
374.73	4.88
375.516	7.88
376.302	8.88
377.088	6.88
377.873	6.88
378.659	4.88
379.445	5.88
380.23	4.88
381.015	3.88
381.801	5.88
382.586	5.88
383.371	6.88
384.156	5.88
384.941	5.88
385.726	6.88
386.511	4.88
387.296	4.88
388.08	8.88
388.865	8.88
389.649	5.88
390.434	6.88
391.218	3.88
392.003	5.88
392.787	8.88
393.571	8.88
394.355	6.88
395.139	7.88
395.923	7.88
396.707	6.88
397.491	6.88
398.274	7.88
399.058	4.88
399.842	7.88
400.625	6.88
401.408	9.88
402.192	5.88
402.975	8.88
403.758	8.88
404.541	7.88
405.324	8.88
406.107	8.88
406.89	8.88
407.673	8.88
408.456	6.88
409.238	9.88
410.021	6.88
410.803	8.88
411.586	7.88
412.368	7.88
413.151	6.88
413.933	8.88
414.715	7.88
415.497	10.88
416.279	10.88
417.061	12.88
417.843	9.88
418.624	9.88
419.406	8.88
420.188	12.88
420.969	7.88
421.751	9.88
422.532	9.88
423.313	11.88
424.095	10.88
424.876	12.88
425.657	9.88
426.438	12.88
427.219	13.88
428	12.88
428.78	12.88
429.561	11.88
430.342	12.88
431.122	16.88
431.903	14.88
432.683	14.88
433.464	16.88
434.244	15.88
435.024	16.88
435.804	17.88
436.584	16.88
437.364	17.88
438.144	18.88
438.924	19.88
439.704	21.88
440.483	20.88
441.263	24.88
442.042	25.88
442.822	26.88
443.601	27.88
444.38	31.88
445.16	29.88
445.939	34.88
446.718	38.88
447.497	35.88
448.276	39.88
449.054	44.88
449.833	50.88
450.612	54.88
451.391	54.88
452.169	60.88
452.948	65.88
453.726	70.88
454.504	83.88
455.282	89.88
456.061	97.88
456.839	105.88
457.617	118.88
458.395	129.88
459.172	144.88
459.95	166.88
460.728	174.88
461.506	199.88
462.283	226.88
463.061	253.88
463.838	278.88
464.615	310.88
465.393	346.88
466.17	394.88
466.947	439.88
467.724	484.88
468.501	545.88
469.278	598.88
470.055	679.88
470.831	744.88
471.608	840.88
472.385	924.88
473.161	1031.88
473.938	1156.88
474.714	1272.88
475.49	1400.88
476.266	1564.88
477.043	1733.88
477.819	1930.88
478.595	2128.88
479.371	2359.88
480.146	2589.88
480.922	2885.88
481.698	3163.88
482.473	3513.88
483.249	3865.88
484.024	4252.88
484.8	4674.88
485.575	5164.88
486.35	5671.88
487.126	6248.88
487.901	6912.88
488.676	7560.88
489.451	8285.88
490.225	9074.88
491	9935.88
491.775	10923.88
492.55	11866.88
493.324	12911.88
494.099	13912.88
494.873	14969.88
495.647	16162.88
496.422	17318.88
497.196	18621.88
497.97	19876.88
498.744	21071.88
499.518	22289.88
500.292	23457.88
501.066	24502.88
501.839	25499.88
502.613	26362.88
503.387	27108.88
504.16	27728.88
504.934	27947.88
505.707	28085.88
506.48	28098.88
507.253	27870.88
508.027	27522.88
508.8	27209.88
509.573	26671.88
510.346	25996.88
511.118	25121.88
511.891	24212.88
512.664	23476.88
513.437	22490.88
514.209	21474.88
514.982	20512.88
515.754	19589.88
516.526	18759.88
517.298	17924.88
518.071	17140.88
518.843	16520.88
519.615	15842.88
520.387	15239.88
521.159	14573.88
521.93	14031.88
522.702	13475.88
523.474	12872.88
524.245	12329.88
525.017	11837.88
525.788	11357.88
526.56	10869.88
527.331	10337.88
528.102	9877.88
528.873	9374.88
529.644	8946.88
530.415	8445.88
531.186	8002.88
531.957	7621.88
532.728	7224.88
533.498	6854.88
534.269	6436.88
535.039	6082.88
535.81	5756.88
536.58	5427.88
537.351	5114.88
538.121	4817.88
538.891	4585.88
539.661	4314.88
540.431	4060.88
541.201	3861.88
541.971	3666.88
542.741	3456.88
543.51	3282.88
544.28	3127.88
545.05	3006.88
545.819	2825.88
546.588	2690.88
547.358	2585.88
548.127	2441.88
548.896	2317.88
549.665	2187.88
550.434	2073.88
551.203	1969.88
551.972	1856.88
552.741	1744.88
553.51	1643.88
554.278	1563.88
555.047	1481.88
555.815	1395.88
556.584	1315.88
557.352	1244.88
558.121	1174.88
558.889	1099.88
559.657	1040.88
560.425	987.88
561.193	921.88
561.961	883.88
562.729	815.88
563.496	775.88
564.264	738.88
565.032	699.88
565.799	659.88
566.567	628.88
567.334	585.88
568.101	564.88
568.869	523.88
569.636	501.88
570.403	465.88
571.17	445.88
571.937	415.88
572.704	384.88
573.471	371.88
574.237	350.88
575.004	335.88
575.771	307.88
576.537	290.88
577.303	273.88
578.07	257.88
578.836	240.88
579.602	232.88
580.368	213.88
581.134	209.88
581.9	193.88
582.666	186.88
583.432	177.88
584.198	167.88
584.964	155.88
585.729	153.88
586.495	145.88
587.26	132.88
588.025	128.88
588.791	119.88
589.556	113.88
590.321	109.88
591.086	101.88
591.851	97.88
592.616	92.88
593.381	87.88
594.146	85.88
594.911	76.88
595.675	78.88
596.44	72.88
597.204	69.88
597.969	64.88
598.733	64.88
599.497	64.88
600.261	57.88
601.025	54.88
601.79	55.88
602.553	50.88
603.317	47.88
604.081	44.88
604.845	42.88
605.609	43.88
606.372	40.88
607.136	40.88
607.899	36.88
608.662	37.88
609.426	34.88
610.189	33.88
610.952	32.88
611.715	30.88
612.478	30.88
613.241	27.88
614.004	28.88
614.767	28.88
615.529	24.88
616.292	24.88
617.055	24.88
617.817	24.88
618.579	22.88
619.342	21.88
620.104	21.88
620.866	16.88
621.628	17.88
622.39	19.88
623.152	17.88
623.914	17.88
624.676	16.88
625.438	17.88
626.199	14.88
626.961	14.88
627.722	13.88
628.484	16.88
629.245	13.88
630.006	14.88
630.768	16.88
631.529	14.88
632.29	12.88
633.051	13.88
633.812	9.88
634.573	12.88
635.333	10.88
636.094	12.88
636.855	12.88
637.615	11.88
638.376	9.88
639.136	8.88
639.896	11.88
640.657	10.88
641.417	8.88
642.177	7.88
642.937	9.88
643.697	9.88
644.457	8.88
645.216	7.88
645.976	7.88
646.736	5.88
647.495	7.88
648.255	4.88
649.014	8.88
649.774	5.88
650.533	9.88
651.292	6.88
652.051	6.88
652.81	5.88
653.569	4.88
654.328	6.88
655.087	3.88
655.846	7.88
656.604	5.88
657.363	3.88
658.121	6.88
658.88	4.88
659.638	8.88
660.397	5.88
661.155	6.88
661.913	5.88
662.671	3.88
663.429	6.88
664.187	3.88
664.945	6.88
665.703	4.88
666.46	4.88
667.218	4.88
667.976	5.88
668.733	5.88
669.49	5.88
670.248	3.88
671.005	5.88
671.762	1.88
672.519	5.88
673.276	3.88
674.033	6.88
674.79	5.88
675.547	4.88
676.304	5.88
677.06	4.88
677.817	4.88
678.574	4.88
679.33	1.88
680.086	3.88
680.843	4.88
681.599	2.88
682.355	3.88
683.111	6.88
683.867	5.88
684.623	1.88
685.379	5.88
686.135	5.88
686.89	2.88
687.646	3.88
688.402	2.88
689.157	3.88
689.912	1.88
690.668	3.88
691.423	1.88
692.178	4.88
692.933	1.88
693.688	6.88
694.443	3.88
695.198	2.88
695.953	2.88
696.708	3.88
697.462	3.88
698.217	4.88
698.972	1.88
699.726	5.88
700.48	3.88
701.235	2.88
701.989	2.88
702.743	3.88
703.497	4.88
704.251	4.88
705.005	5.88
705.759	3.88
706.513	5.88
707.266	4.88
708.02	2.88
708.774	6.88
709.527	3.88
710.28	3.88
711.034	3.88
711.787	4.88
712.54	3.88
713.293	3.88
714.046	3.88
714.799	2.88
715.552	3.88
716.305	4.88
717.058	1.88
717.81	5.88
718.563	4.88
719.315	4.88
720.068	1.88
720.82	5.88
721.573	4.88
722.325	3.88
723.077	4.88
723.829	3.88
724.581	3.88
725.333	3.88
726.085	4.88
726.836	4.88
727.588	2.88
728.34	3.88
729.091	6.88
729.843	2.88
730.594	4.88
731.346	4.88
732.097	6.88
732.848	5.88
733.599	6.88
734.35	5.88
735.101	5.88
735.852	2.88
736.603	5.88
737.354	5.88
738.104	1.88
738.855	4.88
739.605	4.88
740.356	5.88
741.106	5.88
741.856	4.88
742.607	4.88
743.357	5.88
744.107	5.88
744.857	4.88
745.607	6.88
746.357	3.88
747.106	3.88
747.856	6.88
748.606	5.88
749.355	5.88
750.105	4.88
750.854	3.88
751.603	3.88
752.353	6.88
753.102	3.88
753.851	6.88
754.6	7.88
755.349	5.88
756.098	4.88
756.847	5.88
757.595	5.88
758.344	5.88
759.093	6.88
759.841	4.88
760.589	7.88
761.338	6.88
762.086	7.88
762.834	5.88
763.582	7.88
764.331	6.88
765.079	4.88
765.826	7.88
766.574	4.88
767.322	7.88
768.07	8.88
768.817	5.88
769.565	10.88
770.312	6.88
771.06	5.88
771.807	7.88
772.554	10.88
773.302	8.88
774.049	8.88
774.796	8.88
775.543	6.88
776.29	7.88
777.036	10.88
777.783	7.88
778.53	9.88
779.276	8.88
780.023	8.88
780.769	7.88
781.516	7.88
782.262	9.88
783.008	9.88
783.754	10.88
784.5	8.88
785.246	10.88
785.992	8.88
786.738	8.88
787.484	9.88
788.23	6.88
788.975	7.88
789.721	10.88
790.466	9.88
791.212	9.88
791.957	7.88
792.702	7.88
793.447	6.88
794.193	9.88
794.938	5.88
795.683	7.88
796.427	6.88
797.172	8.88
797.917	6.88
798.662	8.88
799.406	9.88
800.151	5.88
800.895	8.88
801.64	8.88
802.384	7.88
803.128	6.88
803.872	8.88
804.616	5.88
805.36	7.88
806.104	5.88
806.848	5.88
807.592	4.88
808.336	4.88
809.079	7.88
809.823	5.88
810.566	3.88
811.31	7.88
812.053	6.88
812.796	4.88
813.539	7.88
814.283	7.88
815.026	5.88
815.769	3.88
816.511	4.88
817.254	4.88
817.997	4.88
818.74	6.88
819.482	4.88
820.225	2.88
820.967	6.88
821.71	3.88
822.452	4.88
823.194	4.88
823.936	5.88
824.678	4.88
825.42	3.88
826.162	6.88
826.904	4.88
827.646	4.88
828.388	6.88
829.129	4.88
829.871	4.88
830.612	2.88
831.354	4.88
832.095	1.88
832.836	2.88
833.577	3.88
834.319	4.88
835.06	4.88
835.801	3.88
836.542	4.88
837.282	1.88
838.023	4.88
838.764	3.88
839.504	4.88
840.245	4.88
840.985	2.88
841.726	1.88
842.466	3.88
843.206	5.88
843.946	3.88
844.687	3.88
845.427	2.88
846.166	2.88
846.906	4.88
847.646	4.88
848.386	4.88
849.125	6.88
849.865	3.88
850.605	1.88
851.344	3.88
852.083	3.88
852.823	2.88
853.562	0.88
854.301	1.88
855.04	4.88
855.779	1.88
856.518	3.88
857.257	0.88
857.995	4.88
858.734	2.88
859.473	0.88
860.211	4.88
860.95	2.88
861.688	-0.12
862.426	2.88
863.165	2.88
863.903	2.88
864.641	0.88
865.379	2.88
866.117	0.88
866.855	1.88
867.593	0.88
868.33	3.88
869.068	1.88
869.806	-0.12
870.543	3.88
871.28	2.88
872.018	1.88
872.755	-0.12
873.492	0.88
874.229	3.88
874.967	-0.12
875.703	1.88
876.44	0.88
877.177	1.88
877.914	1.88
878.651	0.88
879.387	3.88
880.124	-2.12
880.86	-0.12
881.597	1.88
882.333	-1.12
883.069	1.88
883.806	1.88
884.542	2.88
885.278	3.88
886.014	1.88
886.749	1.88
887.485	1.88
888.221	2.88
888.957	0.88
889.692	0.88
890.428	2.88
891.163	1.88
891.899	2.88
892.634	-1.12
893.369	1.88
894.104	1.88
894.839	-0.12
895.574	2.88
896.309	0.88
897.044	-0.12
897.779	0.88
898.514	1.88
899.248	-0.12
899.983	-1.12
900.717	0.88
901.452	-0.12
902.186	0.88
902.92	0.88
903.654	1.88
904.389	1.88
905.123	-0.12
905.857	1.88
906.59	0.88
907.324	-0.12
908.058	0.88
908.792	1.88
909.525	1.88
910.259	1.88
910.992	1.88
911.726	0.88
912.459	1.88
913.192	0.88
913.925	0.88
914.658	-0.12
915.391	-1.12
916.124	0.88
916.857	-0.12
917.59	-0.12
918.323	-2.12
919.055	0.88
919.788	0.88
920.521	-1.12
921.253	0.88
921.985	0.88
922.718	1.88
923.45	-0.12
924.182	-0.12
924.914	1.88
925.646	1.88
926.378	-0.12
927.11	0.88
927.841	1.88
928.573	0.88
929.305	-1.12
930.036	1.88
930.768	-0.12
931.499	0.88
932.23	1.88
932.962	-0.12
933.693	1.88
934.424	1.88
935.155	1.88
935.886	0.88
936.617	0.88
937.348	3.88
938.078	-2.12
938.809	0.88
939.54	-0.12
940.27	0.88
941.001	0.88
941.731	-0.12
942.461	2.88
943.191	-0.12
943.922	-0.12
944.652	-0.12
945.382	0.88
946.112	-0.12
946.841	-1.12
947.571	2.88
948.301	-1.12
949.031	-0.12
949.76	2.88
950.49	-1.12
951.219	1.88
951.948	0.88
952.678	-0.12
953.407	-0.12
954.136	1.88
954.865	1.88
955.594	-1.12
956.323	0.88
957.052	0.88
957.78	-0.12
958.509	-0.12
959.238	-0.12
959.966	-1.12
960.695	0.88
961.423	0.88
962.151	-1.12
962.88	0.88
963.608	-0.12
964.336	0.88
965.064	0.88
965.792	-2.12
966.52	0.88
967.247	1.88
967.975	-0.12
968.703	-1.12
969.43	1.88
970.158	-0.12
970.885	-0.12
971.613	1.88
972.34	1.88
973.067	-0.12
973.794	0.88
974.521	-0.12
975.248	0.88
975.975	0.88
976.702	1.88
977.429	0.88
978.156	1.88
978.882	0.88
979.609	-0.12
980.335	0.88
981.062	0.88
981.788	0.88
982.514	1.88
983.24	1.88
983.967	0.88
984.693	-0.12
985.419	1.88
986.144	-0.12
986.87	0.88
987.596	-0.12
988.322	2.88
989.047	0.88
989.773	0.88
990.498	-0.12
991.224	0.88
991.949	-1.12
992.674	3.88
993.399	0.88
994.124	0.88
994.849	-0.12
995.574	1.88
996.299	1.88
997.024	0.88
997.749	1.88
998.473	0.88
999.198	0.88
999.922	1.88
1000.647	-0.12
1001.371	4.88
1002.095	-2.12
1002.82	-1.12
1003.544	-2.12
1004.268	4.88
1004.992	0.88
1005.716	2.88
1006.439	1.88
1007.163	1.88
1007.887	0.88
1008.611	2.88
1009.334	-1.12
1010.058	2.88
1010.781	0.88
1011.504	-1.12
1012.228	-0.12
1012.951	-0.12
1013.674	0.88
1014.397	-0.12
1015.12	-0.12
