节点500_285_QEPB04081__303__15-00-35-770.txt的数据

Date: Wed Nov 12 15:00:35 CST 2025
User: PC
Spectrometer: QEPB0408
触发模式: 0
积分时间 (秒): 1.000000E-2
Scans to average: 1
启用暗噪声校正: true
启用非线性校正: false
滑动平均宽度: 0
X轴模式: Wavelengths
Number of Pixels in Spectrum: 1044
>>>>>Begin Spectral Data<<<<<
220.843	4
221.644	0
222.444	0
223.244	3
224.045	2
224.845	2
225.645	1
226.445	4
227.245	2
228.045	4
228.845	4
229.645	1
230.444	2
231.244	2
232.043	2
232.843	4
233.642	4
234.442	3
235.241	3
236.04	4
236.839	5
237.638	2
238.437	6
239.236	5
240.035	3
240.833	2
241.632	5
242.43	3
243.229	4
244.027	7
244.826	4
245.624	5
246.422	5
247.22	5
248.018	6
248.816	6
249.614	7
250.412	8
251.21	7
252.007	4
252.805	10
253.602	7
254.4	9
255.197	8
255.994	7
256.791	7
257.589	6
258.386	8
259.183	8
259.979	11
260.776	10
261.573	10
262.37	10
263.166	8
263.963	14
264.759	14
265.556	9
266.352	12
267.148	14
267.944	15
268.74	15
269.536	13
270.332	13
271.128	14
271.924	17
272.719	17
273.515	17
274.311	17
275.106	21
275.901	19
276.697	17
277.492	18
278.287	19
279.082	19
279.877	21
280.672	17
281.467	18
282.262	20
283.056	20
283.851	21
284.646	17
285.44	18
286.234	20
287.029	21
287.823	17
288.617	22
289.411	20
290.205	19
290.999	18
291.793	18
292.587	19
293.381	17
294.174	19
294.968	17
295.761	16
296.555	17
297.348	16
298.141	16
298.935	15
299.728	17
300.521	16
301.314	12
302.107	13
302.899	15
303.692	14
304.485	14
305.277	13
306.07	14
306.862	12
307.655	11
308.447	13
309.239	14
310.031	12
310.823	7
311.615	10
312.407	10
313.199	10
313.991	11
314.783	11
315.574	9
316.366	8
317.157	10
317.949	9
318.74	10
319.531	9
320.322	10
321.113	9
321.904	8
322.695	9
323.486	9
324.277	8
325.068	8
325.858	6
326.649	7
327.439	7
328.23	10
329.02	9
329.81	6
330.6	8
331.391	7
332.181	6
332.971	7
333.76	8
334.55	7
335.34	6
336.13	7
336.919	8
337.709	8
338.498	5
339.287	5
340.077	6
340.866	6
341.655	6
342.444	6
343.233	6
344.022	6
344.811	5
345.6	7
346.388	6
347.177	8
347.965	5
348.754	8
349.542	6
350.33	6
351.119	6
351.907	5
352.695	5
353.483	6
354.271	5
355.059	6
355.846	4
356.634	6
357.422	7
358.209	5
358.997	4
359.784	7
360.571	6
361.359	6
362.146	8
362.933	5
363.72	5
364.507	5
365.294	5
366.081	3
366.867	5
367.654	4
368.44	2
369.227	5
370.013	6
370.8	4
371.586	5
372.372	6
373.158	5
373.944	4
374.73	3
375.516	5
376.302	6
377.088	7
377.873	4
378.659	7
379.445	5
380.23	5
381.015	5
381.801	5
382.586	2
383.371	5
384.156	3
384.941	5
385.726	5
386.511	7
387.296	4
388.08	6
388.865	8
389.649	5
390.434	10
391.218	7
392.003	6
392.787	7
393.571	4
394.355	7
395.139	7
395.923	9
396.707	7
397.491	7
398.274	8
399.058	4
399.842	9
400.625	6
401.408	10
402.192	10
402.975	7
403.758	7
404.541	8
405.324	7
406.107	5
406.89	9
407.673	9
408.456	9
409.238	8
410.021	9
410.803	9
411.586	9
412.368	7
413.151	10
413.933	7
414.715	9
415.497	8
416.279	9
417.061	10
417.843	7
418.624	10
419.406	9
420.188	9
420.969	10
421.751	10
422.532	10
423.313	13
424.095	12
424.876	9
425.657	13
426.438	15
427.219	12
428	14
428.78	13
429.561	15
430.342	15
431.122	15
431.903	14
432.683	15
433.464	16
434.244	15
435.024	19
435.804	16
436.584	14
437.364	22
438.144	21
438.924	23
439.704	23
440.483	22
441.263	23
442.042	27
442.822	30
443.601	29
444.38	32
445.16	35
445.939	35
446.718	37
447.497	37
448.276	39
449.054	43
449.833	45
450.612	51
451.391	59
452.169	63
452.948	64
453.726	71
454.504	75
455.282	90
456.061	100
456.839	108
457.617	121
458.395	129
459.172	145
459.95	166
460.728	182
461.506	206
462.283	231
463.061	259
463.838	282
464.615	319
465.393	357
466.17	404
466.947	441
467.724	501
468.501	559
469.278	611
470.055	676
470.831	765
471.608	844
472.385	951
473.161	1049
473.938	1174
474.714	1288
475.49	1418
476.266	1578
477.043	1726
477.819	1931
478.595	2130
479.371	2360
480.146	2595
480.922	2857
481.698	3180
482.473	3468
483.249	3865
484.024	4180
484.8	4636
485.575	5117
486.35	5649
487.126	6161
487.901	6783
488.676	7438
489.451	8171
490.225	8889
491	9756
491.775	10661
492.55	11621
493.324	12571
494.099	13547
494.873	14667
495.647	15777
496.422	16937
497.196	18151
497.97	19317
498.744	20510
499.518	21722
500.292	22868
501.066	23966
501.839	24865
502.613	25847
503.387	26559
504.16	27217
504.934	27567
505.707	27653
506.48	27700
507.253	27534
508.027	27259
508.8	26979
509.573	26540
510.346	25837
511.118	24967
511.891	24180
512.664	23365
513.437	22393
514.209	21467
514.982	20586
515.754	19712
516.526	18873
517.298	18031
518.071	17216
518.843	16569
519.615	15945
520.387	15270
521.159	14656
521.93	14121
522.702	13460
523.474	12961
524.245	12381
525.017	11901
525.788	11445
526.56	10928
527.331	10364
528.102	9898
528.873	9456
529.644	9016
530.415	8529
531.186	8156
531.957	7714
532.728	7287
533.498	6923
534.269	6524
535.039	6197
535.81	5821
536.58	5522
537.351	5186
538.121	4908
538.891	4637
539.661	4383
540.431	4133
541.201	3905
541.971	3702
542.741	3498
543.51	3328
544.28	3182
545.05	3024
545.819	2870
546.588	2732
547.358	2574
548.127	2475
548.896	2345
549.665	2215
550.434	2092
551.203	1993
551.972	1866
552.741	1766
553.51	1688
554.278	1590
555.047	1506
555.815	1414
556.584	1334
557.352	1267
558.121	1187
558.889	1123
559.657	1060
560.425	1007
561.193	944
561.961	892
562.729	840
563.496	786
564.264	755
565.032	713
565.799	675
566.567	627
567.334	608
568.101	571
568.869	539
569.636	506
570.403	476
571.17	453
571.937	422
572.704	400
573.471	377
574.237	360
575.004	333
575.771	321
576.537	292
577.303	284
578.07	264
578.836	255
579.602	231
580.368	217
581.134	209
581.9	199
582.666	187
583.432	177
584.198	166
584.964	166
585.729	148
586.495	143
587.26	136
588.025	127
588.791	123
589.556	118
590.321	110
591.086	102
591.851	98
592.616	96
593.381	88
594.146	87
594.911	79
595.675	80
596.44	76
597.204	69
597.969	71
598.733	67
599.497	63
600.261	59
601.025	54
601.79	53
602.553	51
603.317	52
604.081	46
604.845	45
605.609	46
606.372	42
607.136	39
607.899	40
608.662	36
609.426	37
610.189	36
610.952	39
611.715	30
612.478	30
613.241	29
614.004	29
614.767	25
615.529	28
616.292	26
617.055	23
617.817	21
618.579	20
619.342	21
620.104	21
620.866	19
621.628	23
622.39	20
623.152	19
623.914	17
624.676	18
625.438	14
626.199	17
626.961	15
627.722	16
628.484	16
629.245	13
630.006	16
630.768	16
631.529	14
632.29	12
633.051	14
633.812	13
634.573	10
635.333	11
636.094	11
636.855	11
637.615	11
638.376	9
639.136	11
639.896	8
640.657	10
641.417	10
642.177	10
642.937	8
643.697	8
644.457	6
645.216	8
645.976	6
646.736	7
647.495	7
648.255	8
649.014	8
649.774	7
650.533	6
651.292	7
652.051	9
652.81	6
653.569	7
654.328	6
655.087	7
655.846	8
656.604	6
657.363	8
658.121	6
658.88	8
659.638	8
660.397	6
661.155	7
661.913	4
662.671	7
663.429	6
664.187	8
664.945	5
665.703	4
666.46	2
667.218	6
667.976	3
668.733	5
669.49	3
670.248	7
671.005	4
671.762	5
672.519	6
673.276	4
674.033	4
674.79	4
675.547	4
676.304	3
677.06	5
677.817	6
678.574	4
679.33	3
680.086	5
680.843	4
681.599	4
682.355	4
683.111	3
683.867	2
684.623	5
685.379	3
686.135	5
686.89	4
687.646	4
688.402	5
689.157	4
689.912	7
690.668	3
691.423	4
692.178	3
692.933	6
693.688	5
694.443	4
695.198	6
695.953	6
696.708	2
697.462	4
698.217	4
698.972	4
699.726	3
700.48	4
701.235	2
701.989	6
702.743	7
703.497	5
704.251	5
705.005	4
705.759	5
706.513	4
707.266	5
708.02	4
708.774	5
709.527	4
710.28	3
711.034	4
711.787	5
712.54	4
713.293	7
714.046	2
714.799	4
715.552	2
716.305	3
717.058	5
717.81	4
718.563	4
719.315	3
720.068	4
720.82	4
721.573	2
722.325	8
723.077	2
723.829	3
724.581	6
725.333	5
726.085	3
726.836	5
727.588	3
728.34	5
729.091	6
729.843	3
730.594	3
731.346	4
732.097	2
732.848	6
733.599	4
734.35	2
735.101	5
735.852	4
736.603	6
737.354	3
738.104	5
738.855	6
739.605	5
740.356	5
741.106	6
741.856	4
742.607	1
743.357	5
744.107	5
744.857	5
745.607	4
746.357	5
747.106	5
747.856	5
748.606	5
749.355	6
750.105	4
750.854	7
751.603	7
752.353	7
753.102	7
753.851	7
754.6	6
755.349	7
756.098	8
756.847	4
757.595	8
758.344	5
759.093	8
759.841	6
760.589	6
761.338	9
762.086	8
762.834	6
763.582	4
764.331	8
765.079	8
765.826	7
766.574	7
767.322	8
768.07	9
768.817	8
769.565	10
770.312	6
771.06	8
771.807	9
772.554	6
773.302	8
774.049	7
774.796	8
775.543	11
776.29	8
777.036	9
777.783	7
778.53	8
779.276	8
780.023	8
780.769	10
781.516	8
782.262	6
783.008	8
783.754	8
784.5	10
785.246	9
785.992	9
786.738	10
787.484	8
788.23	12
788.975	6
789.721	9
790.466	10
791.212	9
791.957	10
792.702	9
793.447	8
794.193	6
794.938	10
795.683	10
796.427	8
797.172	9
797.917	8
798.662	8
799.406	8
800.151	8
800.895	8
801.64	8
802.384	8
803.128	7
803.872	7
804.616	9
805.36	6
806.104	7
806.848	8
807.592	4
808.336	7
809.079	6
809.823	4
810.566	5
811.31	6
812.053	4
812.796	7
813.539	6
814.283	3
815.026	5
815.769	3
816.511	6
817.254	4
817.997	4
818.74	4
819.482	3
820.225	3
820.967	6
821.71	8
822.452	5
823.194	5
823.936	4
824.678	5
825.42	6
826.162	3
826.904	7
827.646	4
828.388	5
829.129	6
829.871	1
830.612	5
831.354	5
832.095	4
832.836	4
833.577	4
834.319	4
835.06	5
835.801	3
836.542	3
837.282	4
838.023	3
838.764	4
839.504	4
840.245	2
840.985	3
841.726	6
842.466	3
843.206	2
843.946	1
844.687	2
845.427	4
846.166	5
846.906	2
847.646	3
848.386	4
849.125	3
849.865	3
850.605	3
851.344	4
852.083	3
852.823	2
853.562	1
854.301	2
855.04	4
855.779	3
856.518	3
857.257	3
857.995	3
858.734	2
859.473	3
860.211	4
860.95	2
861.688	3
862.426	2
863.165	2
863.903	5
864.641	1
865.379	2
866.117	1
866.855	2
867.593	3
868.33	1
869.068	2
869.806	2
870.543	-1
871.28	2
872.018	1
872.755	2
873.492	1
874.229	4
874.967	2
875.703	2
876.44	1
877.177	0
877.914	1
878.651	1
879.387	2
880.124	2
880.86	1
881.597	0
882.333	3
883.069	1
883.806	2
884.542	0
885.278	4
886.014	-2
886.749	1
887.485	2
888.221	3
888.957	1
889.692	4
890.428	0
891.163	2
891.899	3
892.634	1
893.369	-1
894.104	2
894.839	-1
895.574	1
896.309	1
897.044	1
897.779	0
898.514	1
899.248	1
899.983	0
900.717	0
901.452	0
902.186	1
902.92	0
903.654	2
904.389	-1
905.123	1
905.857	1
906.59	0
907.324	3
908.058	1
908.792	2
909.525	2
910.259	2
910.992	2
911.726	0
912.459	2
913.192	1
913.925	-2
914.658	1
915.391	0
916.124	2
916.857	1
917.59	1
918.323	2
919.055	0
919.788	2
920.521	2
921.253	0
921.985	0
922.718	1
923.45	3
924.182	1
924.914	0
925.646	-1
926.378	1
927.11	1
927.841	2
928.573	-1
929.305	3
930.036	2
930.768	-2
931.499	-1
932.23	0
932.962	-2
933.693	2
934.424	1
935.155	2
935.886	0
936.617	0
937.348	4
938.078	-1
938.809	1
939.54	2
940.27	0
941.001	2
941.731	1
942.461	0
943.191	0
943.922	-1
944.652	1
945.382	1
946.112	2
946.841	2
947.571	0
948.301	0
949.031	1
949.76	0
950.49	-1
951.219	1
951.948	-1
952.678	0
953.407	1
954.136	1
954.865	0
955.594	1
956.323	3
957.052	-2
957.78	2
958.509	2
959.238	-1
959.966	2
960.695	0
961.423	1
962.151	1
962.88	0
963.608	-1
964.336	2
965.064	1
965.792	0
966.52	0
967.247	1
967.975	1
968.703	-1
969.43	3
970.158	3
970.885	0
971.613	-2
972.34	2
973.067	2
973.794	2
974.521	0
975.248	1
975.975	2
976.702	1
977.429	2
978.156	0
978.882	2
979.609	2
980.335	1
981.062	2
981.788	-2
982.514	0
983.24	-1
983.967	1
984.693	2
985.419	2
986.144	3
986.87	-1
987.596	0
988.322	1
989.047	2
989.773	1
990.498	1
991.224	5
991.949	-1
992.674	-1
993.399	0
994.124	3
994.849	1
995.574	-2
996.299	0
997.024	1
997.749	-1
998.473	0
999.198	1
999.922	0
1000.647	-1
1001.371	3
1002.095	1
1002.82	0
1003.544	-2
1004.268	1
1004.992	0
1005.716	1
1006.439	1
1007.163	3
1007.887	1
1008.611	1
1009.334	-1
1010.058	1
1010.781	2
1011.504	-1
1012.228	0
1012.951	0
1013.674	1
1014.397	-1
1015.12	-2
