节点500_285_QEPB04081__187__14-58-40-142.txt的数据

Date: Wed Nov 12 14:58:40 CST 2025
User: PC
Spectrometer: QEPB0408
触发模式: 0
积分时间 (秒): 1.000000E-2
Scans to average: 1
启用暗噪声校正: true
启用非线性校正: false
滑动平均宽度: 0
X轴模式: Wavelengths
Number of Pixels in Spectrum: 1044
>>>>>Begin Spectral Data<<<<<
220.843	5
221.644	2
222.444	2
223.244	6
224.045	2
224.845	4
225.645	2
226.445	2
227.245	3
228.045	3
228.845	6
229.645	2
230.444	5
231.244	4
232.043	4
232.843	4
233.642	4
234.442	6
235.241	2
236.04	4
236.839	7
237.638	5
238.437	4
239.236	4
240.035	8
240.833	4
241.632	6
242.43	6
243.229	4
244.027	5
244.826	7
245.624	8
246.422	4
247.22	7
248.018	8
248.816	5
249.614	7
250.412	8
251.21	6
252.007	9
252.805	8
253.602	10
254.4	9
255.197	9
255.994	10
256.791	7
257.589	10
258.386	7
259.183	10
259.979	10
260.776	12
261.573	11
262.37	10
263.166	10
263.963	9
264.759	12
265.556	13
266.352	11
267.148	14
267.944	12
268.74	15
269.536	15
270.332	16
271.128	16
271.924	17
272.719	16
273.515	16
274.311	15
275.106	18
275.901	17
276.697	17
277.492	17
278.287	20
279.082	22
279.877	19
280.672	22
281.467	19
282.262	20
283.056	21
283.851	20
284.646	21
285.44	19
286.234	20
287.029	19
287.823	23
288.617	20
289.411	17
290.205	22
290.999	20
291.793	18
292.587	18
293.381	21
294.174	18
294.968	17
295.761	18
296.555	14
297.348	18
298.141	13
298.935	19
299.728	16
300.521	16
301.314	13
302.107	13
302.899	15
303.692	12
304.485	13
305.277	14
306.07	11
306.862	14
307.655	13
308.447	13
309.239	11
310.031	11
310.823	10
311.615	9
312.407	10
313.199	11
313.991	10
314.783	12
315.574	8
316.366	12
317.157	9
317.949	9
318.74	10
319.531	9
320.322	12
321.113	9
321.904	9
322.695	7
323.486	10
324.277	8
325.068	8
325.858	6
326.649	8
327.439	8
328.23	9
329.02	7
329.81	6
330.6	8
331.391	7
332.181	5
332.971	9
333.76	9
334.55	6
335.34	7
336.13	6
336.919	7
337.709	8
338.498	6
339.287	5
340.077	7
340.866	4
341.655	6
342.444	7
343.233	8
344.022	7
344.811	10
345.6	4
346.388	9
347.177	8
347.965	7
348.754	8
349.542	7
350.33	5
351.119	7
351.907	7
352.695	6
353.483	4
354.271	7
355.059	6
355.846	6
356.634	5
357.422	7
358.209	9
358.997	6
359.784	7
360.571	7
361.359	7
362.146	5
362.933	8
363.72	5
364.507	4
365.294	6
366.081	8
366.867	6
367.654	6
368.44	4
369.227	5
370.013	5
370.8	8
371.586	6
372.372	3
373.158	3
373.944	5
374.73	7
375.516	6
376.302	5
377.088	4
377.873	8
378.659	5
379.445	5
380.23	6
381.015	5
381.801	5
382.586	6
383.371	6
384.156	6
384.941	5
385.726	5
386.511	8
387.296	8
388.08	6
388.865	6
389.649	7
390.434	6
391.218	7
392.003	6
392.787	4
393.571	7
394.355	7
395.139	8
395.923	7
396.707	6
397.491	9
398.274	7
399.058	7
399.842	10
400.625	7
401.408	6
402.192	7
402.975	9
403.758	8
404.541	8
405.324	7
406.107	6
406.89	7
407.673	6
408.456	10
409.238	9
410.021	9
410.803	9
411.586	10
412.368	9
413.151	9
413.933	12
414.715	10
415.497	10
416.279	13
417.061	8
417.843	7
418.624	11
419.406	10
420.188	10
420.969	9
421.751	12
422.532	10
423.313	10
424.095	11
424.876	13
425.657	14
426.438	12
427.219	14
428	14
428.78	13
429.561	14
430.342	14
431.122	15
431.903	15
432.683	17
433.464	17
434.244	17
435.024	18
435.804	18
436.584	20
437.364	20
438.144	19
438.924	19
439.704	24
440.483	24
441.263	26
442.042	24
442.822	26
443.601	26
444.38	30
445.16	32
445.939	37
446.718	36
447.497	42
448.276	45
449.054	44
449.833	49
450.612	49
451.391	58
452.169	59
452.948	67
453.726	71
454.504	75
455.282	89
456.061	95
456.839	106
457.617	117
458.395	129
459.172	148
459.95	162
460.728	180
461.506	205
462.283	225
463.061	251
463.838	279
464.615	308
465.393	344
466.17	386
466.947	438
467.724	490
468.501	534
469.278	602
470.055	679
470.831	751
471.608	833
472.385	938
473.161	1039
473.938	1155
474.714	1276
475.49	1390
476.266	1571
477.043	1723
477.819	1924
478.595	2127
479.371	2355
480.146	2589
480.922	2888
481.698	3171
482.473	3493
483.249	3861
484.024	4271
484.8	4701
485.575	5176
486.35	5714
487.126	6291
487.901	6869
488.676	7548
489.451	8321
490.225	9166
491	9970
491.775	10946
492.55	11912
493.324	12913
494.099	13948
494.873	15052
495.647	16233
496.422	17396
497.196	18687
497.97	19932
498.744	21206
499.518	22384
500.292	23528
501.066	24632
501.839	25595
502.613	26433
503.387	27207
504.16	27745
504.934	28061
505.707	28149
506.48	28125
507.253	27888
508.027	27601
508.8	27234
509.573	26657
510.346	25941
511.118	25194
511.891	24255
512.664	23307
513.437	22471
514.209	21459
514.982	20615
515.754	19611
516.526	18762
517.298	17919
518.071	17138
518.843	16474
519.615	15808
520.387	15225
521.159	14577
521.93	14022
522.702	13487
523.474	12938
524.245	12322
525.017	11833
525.788	11324
526.56	10838
527.331	10312
528.102	9817
528.873	9380
529.644	8889
530.415	8458
531.186	8021
531.957	7598
532.728	7242
533.498	6838
534.269	6428
535.039	6059
535.81	5762
536.58	5416
537.351	5111
538.121	4799
538.891	4585
539.661	4325
540.431	4090
541.201	3836
541.971	3644
542.741	3478
543.51	3282
544.28	3135
545.05	2967
545.819	2840
546.588	2678
547.358	2563
548.127	2425
548.896	2289
549.665	2174
550.434	2060
551.203	1957
551.972	1842
552.741	1750
553.51	1646
554.278	1553
555.047	1479
555.815	1382
556.584	1303
557.352	1226
558.121	1160
558.889	1104
559.657	1054
560.425	989
561.193	930
561.961	872
562.729	817
563.496	785
564.264	743
565.032	694
565.799	664
566.567	634
567.334	581
568.101	560
568.869	516
569.636	489
570.403	460
571.17	437
571.937	419
572.704	390
573.471	379
574.237	349
575.004	333
575.771	311
576.537	286
577.303	272
578.07	257
578.836	249
579.602	228
580.368	211
581.134	211
581.9	193
582.666	184
583.432	177
584.198	167
584.964	156
585.729	152
586.495	139
587.26	137
588.025	126
588.791	122
589.556	116
590.321	111
591.086	101
591.851	101
592.616	91
593.381	90
594.146	84
594.911	78
595.675	77
596.44	74
597.204	71
597.969	66
598.733	59
599.497	64
600.261	58
601.025	57
601.79	54
602.553	51
603.317	51
604.081	46
604.845	43
605.609	41
606.372	43
607.136	40
607.899	36
608.662	40
609.426	33
610.189	34
610.952	30
611.715	29
612.478	30
613.241	28
614.004	30
614.767	27
615.529	23
616.292	26
617.055	23
617.817	24
618.579	23
619.342	23
620.104	22
620.866	22
621.628	20
622.39	18
623.152	16
623.914	20
624.676	18
625.438	18
626.199	17
626.961	17
627.722	15
628.484	15
629.245	14
630.006	15
630.768	14
631.529	12
632.29	14
633.051	12
633.812	16
634.573	12
635.333	10
636.094	14
636.855	11
637.615	11
638.376	13
639.136	12
639.896	10
640.657	9
641.417	11
642.177	10
642.937	11
643.697	10
644.457	10
645.216	8
645.976	7
646.736	8
647.495	11
648.255	8
649.014	8
649.774	8
650.533	8
651.292	7
652.051	7
652.81	8
653.569	7
654.328	8
655.087	7
655.846	6
656.604	6
657.363	7
658.121	6
658.88	5
659.638	5
660.397	6
661.155	5
661.913	6
662.671	7
663.429	6
664.187	6
664.945	5
665.703	7
666.46	4
667.218	7
667.976	3
668.733	6
669.49	7
670.248	4
671.005	7
671.762	6
672.519	5
673.276	6
674.033	4
674.79	2
675.547	6
676.304	6
677.06	4
677.817	4
678.574	3
679.33	6
680.086	6
680.843	4
681.599	6
682.355	5
683.111	7
683.867	2
684.623	5
685.379	4
686.135	4
686.89	6
687.646	4
688.402	2
689.157	4
689.912	3
690.668	3
691.423	3
692.178	6
692.933	4
693.688	7
694.443	5
695.198	3
695.953	2
696.708	4
697.462	3
698.217	6
698.972	4
699.726	8
700.48	4
701.235	6
701.989	5
702.743	4
703.497	3
704.251	5
705.005	4
705.759	5
706.513	5
707.266	6
708.02	2
708.774	4
709.527	3
710.28	6
711.034	3
711.787	5
712.54	2
713.293	3
714.046	3
714.799	5
715.552	4
716.305	3
717.058	5
717.81	4
718.563	3
719.315	4
720.068	3
720.82	4
721.573	7
722.325	5
723.077	5
723.829	4
724.581	6
725.333	3
726.085	3
726.836	5
727.588	4
728.34	5
729.091	6
729.843	5
730.594	1
731.346	3
732.097	5
732.848	2
733.599	5
734.35	7
735.101	6
735.852	5
736.603	5
737.354	6
738.104	4
738.855	4
739.605	5
740.356	5
741.106	6
741.856	7
742.607	5
743.357	6
744.107	4
744.857	7
745.607	4
746.357	6
747.106	6
747.856	6
748.606	7
749.355	5
750.105	5
750.854	7
751.603	6
752.353	6
753.102	7
753.851	4
754.6	7
755.349	6
756.098	5
756.847	8
757.595	7
758.344	6
759.093	7
759.841	7
760.589	8
761.338	6
762.086	7
762.834	6
763.582	6
764.331	8
765.079	8
765.826	9
766.574	8
767.322	7
768.07	9
768.817	9
769.565	9
770.312	9
771.06	6
771.807	10
772.554	7
773.302	9
774.049	9
774.796	10
775.543	10
776.29	6
777.036	10
777.783	11
778.53	11
779.276	10
780.023	10
780.769	8
781.516	8
782.262	10
783.008	10
783.754	10
784.5	11
785.246	10
785.992	11
786.738	10
787.484	8
788.23	10
788.975	12
789.721	9
790.466	8
791.212	10
791.957	7
792.702	11
793.447	8
794.193	7
794.938	10
795.683	8
796.427	7
797.172	10
797.917	8
798.662	10
799.406	7
800.151	7
800.895	9
801.64	9
802.384	8
803.128	7
803.872	10
804.616	6
805.36	7
806.104	8
806.848	6
807.592	8
808.336	8
809.079	8
809.823	6
810.566	6
811.31	5
812.053	4
812.796	7
813.539	7
814.283	5
815.026	4
815.769	5
816.511	5
817.254	5
817.997	6
818.74	4
819.482	4
820.225	7
820.967	4
821.71	4
822.452	5
823.194	5
823.936	3
824.678	6
825.42	4
826.162	4
826.904	4
827.646	5
828.388	6
829.129	6
829.871	4
830.612	3
831.354	5
832.095	4
832.836	6
833.577	4
834.319	5
835.06	3
835.801	5
836.542	4
837.282	5
838.023	6
838.764	2
839.504	4
840.245	7
840.985	3
841.726	3
842.466	5
843.206	4
843.946	3
844.687	3
845.427	4
846.166	6
846.906	3
847.646	4
848.386	3
849.125	3
849.865	4
850.605	3
851.344	7
852.083	3
852.823	4
853.562	5
854.301	0
855.04	5
855.779	1
856.518	4
857.257	4
857.995	3
858.734	1
859.473	4
860.211	3
860.95	4
861.688	2
862.426	5
863.165	2
863.903	3
864.641	1
865.379	2
866.117	2
866.855	2
867.593	4
868.33	2
869.068	2
869.806	2
870.543	3
871.28	2
872.018	2
872.755	2
873.492	3
874.229	3
874.967	1
875.703	4
876.44	3
877.177	1
877.914	1
878.651	3
879.387	0
880.124	2
880.86	0
881.597	2
882.333	2
883.069	1
883.806	3
884.542	2
885.278	2
886.014	3
886.749	2
887.485	2
888.221	1
888.957	1
889.692	2
890.428	1
891.163	0
891.899	0
892.634	0
893.369	2
894.104	0
894.839	2
895.574	2
896.309	1
897.044	1
897.779	0
898.514	2
899.248	2
899.983	-1
900.717	0
901.452	-2
902.186	1
902.92	0
903.654	2
904.389	2
905.123	0
905.857	2
906.59	0
907.324	1
908.058	0
908.792	0
909.525	0
910.259	2
910.992	4
911.726	2
912.459	0
913.192	2
913.925	2
914.658	4
915.391	2
916.124	1
916.857	0
917.59	1
918.323	0
919.055	0
919.788	0
920.521	0
921.253	1
921.985	0
922.718	1
923.45	2
924.182	0
924.914	0
925.646	0
926.378	2
927.11	2
927.841	2
928.573	1
929.305	2
930.036	0
930.768	2
931.499	0
932.23	1
932.962	0
933.693	0
934.424	2
935.155	1
935.886	1
936.617	2
937.348	2
938.078	0
938.809	-1
939.54	4
940.27	1
941.001	-1
941.731	-1
942.461	1
943.191	2
943.922	2
944.652	2
945.382	0
946.112	1
946.841	0
947.571	2
948.301	2
949.031	0
949.76	0
950.49	0
951.219	1
951.948	1
952.678	1
953.407	1
954.136	-1
954.865	0
955.594	1
956.323	3
957.052	3
957.78	2
958.509	3
959.238	0
959.966	0
960.695	0
961.423	2
962.151	2
962.88	1
963.608	4
964.336	0
965.064	0
965.792	1
966.52	0
967.247	2
967.975	1
968.703	0
969.43	1
970.158	1
970.885	-2
971.613	0
972.34	0
973.067	1
973.794	-2
974.521	2
975.248	0
975.975	1
976.702	1
977.429	2
978.156	2
978.882	2
979.609	2
980.335	2
981.062	0
981.788	1
982.514	3
983.24	1
983.967	3
984.693	2
985.419	1
986.144	2
986.87	-1
987.596	1
988.322	0
989.047	0
989.773	2
990.498	-2
991.224	1
991.949	0
992.674	2
993.399	1
994.124	1
994.849	0
995.574	1
996.299	1
997.024	2
997.749	1
998.473	2
999.198	0
999.922	1
1000.647	2
1001.371	2
1002.095	0
1002.82	-1
1003.544	-3
1004.268	2
1004.992	1
1005.716	1
1006.439	0
1007.163	2
1007.887	0
1008.611	0
1009.334	2
1010.058	1
1010.781	1
1011.504	1
1012.228	2
1012.951	0
1013.674	0
1014.397	1
1015.12	1
