节点500_285_QEPB04081__294__15-00-26-775.txt的数据

Date: Wed Nov 12 15:00:26 CST 2025
User: PC
Spectrometer: QEPB0408
触发模式: 0
积分时间 (秒): 1.000000E-2
Scans to average: 1
启用暗噪声校正: true
启用非线性校正: false
滑动平均宽度: 0
X轴模式: Wavelengths
Number of Pixels in Spectrum: 1044
>>>>>Begin Spectral Data<<<<<
220.843	1.25
221.644	0.25
222.444	2.25
223.244	0.25
224.045	3.25
224.845	1.25
225.645	2.25
226.445	2.25
227.245	1.25
228.045	2.25
228.845	1.25
229.645	3.25
230.444	1.25
231.244	1.25
232.043	2.25
232.843	2.25
233.642	2.25
234.442	1.25
235.241	3.25
236.04	3.25
236.839	1.25
237.638	4.25
238.437	5.25
239.236	4.25
240.035	4.25
240.833	3.25
241.632	3.25
242.43	4.25
243.229	5.25
244.027	3.25
244.826	4.25
245.624	7.25
246.422	6.25
247.22	6.25
248.018	4.25
248.816	5.25
249.614	5.25
250.412	5.25
251.21	7.25
252.007	7.25
252.805	6.25
253.602	5.25
254.4	7.25
255.197	6.25
255.994	7.25
256.791	9.25
257.589	10.25
258.386	9.25
259.183	8.25
259.979	10.25
260.776	11.25
261.573	10.25
262.37	12.25
263.166	10.25
263.963	11.25
264.759	11.25
265.556	9.25
266.352	13.25
267.148	12.25
267.944	13.25
268.74	13.25
269.536	15.25
270.332	12.25
271.128	16.25
271.924	13.25
272.719	15.25
273.515	16.25
274.311	18.25
275.106	17.25
275.901	16.25
276.697	19.25
277.492	17.25
278.287	17.25
279.082	15.25
279.877	19.25
280.672	20.25
281.467	17.25
282.262	20.25
283.056	22.25
283.851	15.25
284.646	18.25
285.44	18.25
286.234	18.25
287.029	18.25
287.823	18.25
288.617	21.25
289.411	19.25
290.205	19.25
290.999	19.25
291.793	17.25
292.587	16.25
293.381	17.25
294.174	19.25
294.968	19.25
295.761	16.25
296.555	16.25
297.348	13.25
298.141	14.25
298.935	15.25
299.728	16.25
300.521	13.25
301.314	12.25
302.107	13.25
302.899	12.25
303.692	13.25
304.485	9.25
305.277	11.25
306.07	13.25
306.862	12.25
307.655	11.25
308.447	8.25
309.239	11.25
310.031	11.25
310.823	11.25
311.615	11.25
312.407	7.25
313.199	10.25
313.991	8.25
314.783	9.25
315.574	9.25
316.366	5.25
317.157	12.25
317.949	8.25
318.74	7.25
319.531	9.25
320.322	5.25
321.113	10.25
321.904	9.25
322.695	7.25
323.486	6.25
324.277	9.25
325.068	4.25
325.858	8.25
326.649	6.25
327.439	7.25
328.23	8.25
329.02	6.25
329.81	5.25
330.6	5.25
331.391	6.25
332.181	7.25
332.971	4.25
333.76	5.25
334.55	8.25
335.34	5.25
336.13	5.25
336.919	6.25
337.709	8.25
338.498	6.25
339.287	4.25
340.077	4.25
340.866	2.25
341.655	7.25
342.444	3.25
343.233	5.25
344.022	6.25
344.811	9.25
345.6	5.25
346.388	6.25
347.177	5.25
347.965	5.25
348.754	6.25
349.542	8.25
350.33	5.25
351.119	6.25
351.907	5.25
352.695	3.25
353.483	5.25
354.271	6.25
355.059	7.25
355.846	3.25
356.634	6.25
357.422	6.25
358.209	5.25
358.997	5.25
359.784	3.25
360.571	7.25
361.359	4.25
362.146	5.25
362.933	5.25
363.72	4.25
364.507	3.25
365.294	5.25
366.081	6.25
366.867	5.25
367.654	7.25
368.44	3.25
369.227	5.25
370.013	4.25
370.8	3.25
371.586	5.25
372.372	4.25
373.158	4.25
373.944	5.25
374.73	5.25
375.516	5.25
376.302	3.25
377.088	5.25
377.873	2.25
378.659	4.25
379.445	5.25
380.23	5.25
381.015	5.25
381.801	6.25
382.586	4.25
383.371	4.25
384.156	4.25
384.941	8.25
385.726	4.25
386.511	5.25
387.296	5.25
388.08	3.25
388.865	6.25
389.649	4.25
390.434	7.25
391.218	7.25
392.003	5.25
392.787	6.25
393.571	4.25
394.355	4.25
395.139	4.25
395.923	7.25
396.707	6.25
397.491	5.25
398.274	6.25
399.058	8.25
399.842	7.25
400.625	6.25
401.408	6.25
402.192	6.25
402.975	4.25
403.758	9.25
404.541	5.25
405.324	7.25
406.107	7.25
406.89	6.25
407.673	8.25
408.456	6.25
409.238	8.25
410.021	8.25
410.803	8.25
411.586	7.25
412.368	9.25
413.151	5.25
413.933	9.25
414.715	8.25
415.497	9.25
416.279	10.25
417.061	10.25
417.843	10.25
418.624	9.25
419.406	10.25
420.188	10.25
420.969	9.25
421.751	12.25
422.532	16.25
423.313	9.25
424.095	11.25
424.876	10.25
425.657	12.25
426.438	11.25
427.219	11.25
428	12.25
428.78	11.25
429.561	13.25
430.342	14.25
431.122	13.25
431.903	13.25
432.683	15.25
433.464	15.25
434.244	15.25
435.024	17.25
435.804	19.25
436.584	17.25
437.364	18.25
438.144	20.25
438.924	19.25
439.704	21.25
440.483	22.25
441.263	22.25
442.042	24.25
442.822	22.25
443.601	26.25
444.38	26.25
445.16	29.25
445.939	34.25
446.718	37.25
447.497	35.25
448.276	41.25
449.054	40.25
449.833	44.25
450.612	55.25
451.391	56.25
452.169	57.25
452.948	68.25
453.726	75.25
454.504	81.25
455.282	86.25
456.061	95.25
456.839	109.25
457.617	122.25
458.395	131.25
459.172	145.25
459.95	159.25
460.728	185.25
461.506	204.25
462.283	230.25
463.061	256.25
463.838	285.25
464.615	317.25
465.393	345.25
466.17	391.25
466.947	449.25
467.724	496.25
468.501	543.25
469.278	610.25
470.055	676.25
470.831	749.25
471.608	844.25
472.385	936.25
473.161	1029.25
473.938	1148.25
474.714	1289.25
475.49	1406.25
476.266	1581.25
477.043	1732.25
477.819	1922.25
478.595	2119.25
479.371	2353.25
480.146	2595.25
480.922	2878.25
481.698	3157.25
482.473	3482.25
483.249	3819.25
484.024	4219.25
484.8	4664.25
485.575	5097.25
486.35	5606.25
487.126	6192.25
487.901	6778.25
488.676	7417.25
489.451	8115.25
490.225	8891.25
491	9752.25
491.775	10669.25
492.55	11586.25
493.324	12562.25
494.099	13561.25
494.873	14648.25
495.647	15812.25
496.422	16957.25
497.196	18209.25
497.97	19386.25
498.744	20573.25
499.518	21787.25
500.292	22899.25
501.066	24031.25
501.839	25023.25
502.613	25816.25
503.387	26623.25
504.16	27219.25
504.934	27540.25
505.707	27695.25
506.48	27706.25
507.253	27572.25
508.027	27354.25
508.8	26927.25
509.573	26487.25
510.346	25855.25
511.118	24966.25
511.891	24192.25
512.664	23270.25
513.437	22413.25
514.209	21447.25
514.982	20584.25
515.754	19691.25
516.526	18746.25
517.298	17988.25
518.071	17140.25
518.843	16523.25
519.615	15897.25
520.387	15232.25
521.159	14600.25
521.93	14064.25
522.702	13496.25
523.474	13008.25
524.245	12381.25
525.017	11881.25
525.788	11407.25
526.56	10897.25
527.331	10377.25
528.102	9933.25
528.873	9435.25
529.644	8975.25
530.415	8523.25
531.186	8131.25
531.957	7678.25
532.728	7292.25
533.498	6921.25
534.269	6498.25
535.039	6131.25
535.81	5794.25
536.58	5470.25
537.351	5169.25
538.121	4852.25
538.891	4614.25
539.661	4347.25
540.431	4119.25
541.201	3908.25
541.971	3684.25
542.741	3495.25
543.51	3341.25
544.28	3150.25
545.05	3014.25
545.819	2870.25
546.588	2713.25
547.358	2587.25
548.127	2464.25
548.896	2335.25
549.665	2214.25
550.434	2095.25
551.203	1987.25
551.972	1883.25
552.741	1757.25
553.51	1675.25
554.278	1587.25
555.047	1502.25
555.815	1419.25
556.584	1340.25
557.352	1256.25
558.121	1192.25
558.889	1121.25
559.657	1065.25
560.425	991.25
561.193	944.25
561.961	888.25
562.729	843.25
563.496	800.25
564.264	747.25
565.032	714.25
565.799	665.25
566.567	637.25
567.334	599.25
568.101	566.25
568.869	539.25
569.636	496.25
570.403	463.25
571.17	442.25
571.937	409.25
572.704	398.25
573.471	376.25
574.237	361.25
575.004	329.25
575.771	311.25
576.537	293.25
577.303	275.25
578.07	255.25
578.836	242.25
579.602	227.25
580.368	220.25
581.134	212.25
581.9	199.25
582.666	185.25
583.432	182.25
584.198	168.25
584.964	159.25
585.729	144.25
586.495	145.25
587.26	139.25
588.025	132.25
588.791	120.25
589.556	112.25
590.321	107.25
591.086	102.25
591.851	98.25
592.616	94.25
593.381	91.25
594.146	86.25
594.911	77.25
595.675	76.25
596.44	75.25
597.204	73.25
597.969	67.25
598.733	63.25
599.497	64.25
600.261	56.25
601.025	55.25
601.79	55.25
602.553	45.25
603.317	47.25
604.081	41.25
604.845	47.25
605.609	45.25
606.372	41.25
607.136	38.25
607.899	38.25
608.662	37.25
609.426	33.25
610.189	33.25
610.952	31.25
611.715	29.25
612.478	32.25
613.241	26.25
614.004	26.25
614.767	28.25
615.529	22.25
616.292	21.25
617.055	24.25
617.817	21.25
618.579	21.25
619.342	21.25
620.104	18.25
620.866	20.25
621.628	21.25
622.39	18.25
623.152	18.25
623.914	17.25
624.676	18.25
625.438	17.25
626.199	14.25
626.961	15.25
627.722	17.25
628.484	15.25
629.245	15.25
630.006	14.25
630.768	14.25
631.529	15.25
632.29	12.25
633.051	13.25
633.812	10.25
634.573	11.25
635.333	10.25
636.094	9.25
636.855	8.25
637.615	8.25
638.376	11.25
639.136	11.25
639.896	9.25
640.657	8.25
641.417	8.25
642.177	8.25
642.937	9.25
643.697	7.25
644.457	7.25
645.216	9.25
645.976	8.25
646.736	7.25
647.495	5.25
648.255	7.25
649.014	6.25
649.774	6.25
650.533	7.25
651.292	8.25
652.051	5.25
652.81	6.25
653.569	6.25
654.328	6.25
655.087	7.25
655.846	5.25
656.604	5.25
657.363	6.25
658.121	7.25
658.88	6.25
659.638	7.25
660.397	4.25
661.155	7.25
661.913	4.25
662.671	6.25
663.429	4.25
664.187	3.25
664.945	5.25
665.703	3.25
666.46	4.25
667.218	3.25
667.976	4.25
668.733	4.25
669.49	3.25
670.248	4.25
671.005	4.25
671.762	5.25
672.519	5.25
673.276	4.25
674.033	4.25
674.79	3.25
675.547	7.25
676.304	5.25
677.06	3.25
677.817	3.25
678.574	3.25
679.33	6.25
680.086	5.25
680.843	4.25
681.599	2.25
682.355	3.25
683.111	1.25
683.867	5.25
684.623	4.25
685.379	4.25
686.135	0.25
686.89	3.25
687.646	2.25
688.402	4.25
689.157	4.25
689.912	2.25
690.668	5.25
691.423	1.25
692.178	4.25
692.933	1.25
693.688	3.25
694.443	1.25
695.198	3.25
695.953	3.25
696.708	3.25
697.462	4.25
698.217	4.25
698.972	1.25
699.726	3.25
700.48	3.25
701.235	5.25
701.989	1.25
702.743	4.25
703.497	2.25
704.251	3.25
705.005	2.25
705.759	3.25
706.513	5.25
707.266	3.25
708.02	5.25
708.774	5.25
709.527	2.25
710.28	2.25
711.034	3.25
711.787	6.25
712.54	4.25
713.293	5.25
714.046	2.25
714.799	4.25
715.552	3.25
716.305	1.25
717.058	3.25
717.81	5.25
718.563	3.25
719.315	2.25
720.068	2.25
720.82	3.25
721.573	1.25
722.325	3.25
723.077	5.25
723.829	2.25
724.581	3.25
725.333	2.25
726.085	5.25
726.836	3.25
727.588	6.25
728.34	6.25
729.091	1.25
729.843	1.25
730.594	4.25
731.346	4.25
732.097	3.25
732.848	5.25
733.599	3.25
734.35	2.25
735.101	3.25
735.852	1.25
736.603	4.25
737.354	4.25
738.104	3.25
738.855	3.25
739.605	2.25
740.356	5.25
741.106	3.25
741.856	4.25
742.607	3.25
743.357	3.25
744.107	4.25
744.857	5.25
745.607	6.25
746.357	4.25
747.106	4.25
747.856	4.25
748.606	2.25
749.355	6.25
750.105	3.25
750.854	4.25
751.603	5.25
752.353	3.25
753.102	7.25
753.851	5.25
754.6	7.25
755.349	5.25
756.098	9.25
756.847	4.25
757.595	3.25
758.344	7.25
759.093	3.25
759.841	4.25
760.589	5.25
761.338	5.25
762.086	7.25
762.834	6.25
763.582	5.25
764.331	8.25
765.079	4.25
765.826	8.25
766.574	6.25
767.322	10.25
768.07	5.25
768.817	7.25
769.565	4.25
770.312	5.25
771.06	4.25
771.807	7.25
772.554	7.25
773.302	5.25
774.049	8.25
774.796	6.25
775.543	9.25
776.29	7.25
777.036	7.25
777.783	6.25
778.53	7.25
779.276	7.25
780.023	7.25
780.769	10.25
781.516	9.25
782.262	6.25
783.008	8.25
783.754	8.25
784.5	7.25
785.246	8.25
785.992	8.25
786.738	11.25
787.484	7.25
788.23	10.25
788.975	8.25
789.721	9.25
790.466	9.25
791.212	7.25
791.957	8.25
792.702	8.25
793.447	8.25
794.193	6.25
794.938	7.25
795.683	9.25
796.427	7.25
797.172	7.25
797.917	8.25
798.662	7.25
799.406	9.25
800.151	7.25
800.895	6.25
801.64	6.25
802.384	4.25
803.128	5.25
803.872	6.25
804.616	7.25
805.36	4.25
806.104	6.25
806.848	8.25
807.592	9.25
808.336	5.25
809.079	6.25
809.823	7.25
810.566	7.25
811.31	5.25
812.053	6.25
812.796	4.25
813.539	7.25
814.283	3.25
815.026	6.25
815.769	4.25
816.511	4.25
817.254	3.25
817.997	3.25
818.74	5.25
819.482	4.25
820.225	4.25
820.967	7.25
821.71	3.25
822.452	5.25
823.194	3.25
823.936	4.25
824.678	3.25
825.42	5.25
826.162	2.25
826.904	5.25
827.646	3.25
828.388	3.25
829.129	3.25
829.871	4.25
830.612	3.25
831.354	3.25
832.095	1.25
832.836	4.25
833.577	1.25
834.319	4.25
835.06	2.25
835.801	4.25
836.542	2.25
837.282	1.25
838.023	3.25
838.764	4.25
839.504	3.25
840.245	2.25
840.985	3.25
841.726	3.25
842.466	4.25
843.206	5.25
843.946	0.25
844.687	1.25
845.427	2.25
846.166	1.25
846.906	1.25
847.646	1.25
848.386	3.25
849.125	0.25
849.865	2.25
850.605	5.25
851.344	3.25
852.083	3.25
852.823	1.25
853.562	2.25
854.301	1.25
855.04	2.25
855.779	4.25
856.518	3.25
857.257	2.25
857.995	2.25
858.734	2.25
859.473	2.25
860.211	3.25
860.95	1.25
861.688	3.25
862.426	1.25
863.165	1.25
863.903	2.25
864.641	1.25
865.379	2.25
866.117	1.25
866.855	2.25
867.593	1.25
868.33	1.25
869.068	-0.75
869.806	-0.75
870.543	1.25
871.28	1.25
872.018	2.25
872.755	2.25
873.492	2.25
874.229	0.25
874.967	2.25
875.703	-0.75
876.44	1.25
877.177	3.25
877.914	0.25
878.651	0.25
879.387	1.25
880.124	0.25
880.86	1.25
881.597	-0.75
882.333	1.25
883.069	0.25
883.806	0.25
884.542	1.25
885.278	-0.75
886.014	-0.75
886.749	0.25
887.485	1.25
888.221	1.25
888.957	0.25
889.692	-0.75
890.428	0.25
891.163	1.25
891.899	-0.75
892.634	-1.75
893.369	3.25
894.104	-0.75
894.839	2.25
895.574	0.25
896.309	1.25
897.044	-0.75
897.779	1.25
898.514	0.25
899.248	-2.75
899.983	0.25
900.717	0.25
901.452	2.25
902.186	-0.75
902.92	-0.75
903.654	0.25
904.389	1.25
905.123	1.25
905.857	-1.75
906.59	0.25
907.324	2.25
908.058	0.25
908.792	0.25
909.525	-0.75
910.259	1.25
910.992	1.25
911.726	1.25
912.459	-1.75
913.192	0.25
913.925	0.25
914.658	-1.75
915.391	1.25
916.124	-1.75
916.857	1.25
917.59	1.25
918.323	-1.75
919.055	2.25
919.788	-0.75
920.521	0.25
921.253	-1.75
921.985	-0.75
922.718	0.25
923.45	-0.75
924.182	1.25
924.914	-0.75
925.646	0.25
926.378	-0.75
927.11	-0.75
927.841	0.25
928.573	0.25
929.305	-1.75
930.036	0.25
930.768	0.25
931.499	1.25
932.23	0.25
932.962	-0.75
933.693	-0.75
934.424	1.25
935.155	1.25
935.886	0.25
936.617	-1.75
937.348	0.25
938.078	1.25
938.809	0.25
939.54	-0.75
940.27	0.25
941.001	-0.75
941.731	-0.75
942.461	0.25
943.191	1.25
943.922	-0.75
944.652	0.25
945.382	1.25
946.112	-0.75
946.841	-1.75
947.571	-1.75
948.301	0.25
949.031	0.25
949.76	-1.75
950.49	-0.75
951.219	-0.75
951.948	1.25
952.678	-1.75
953.407	-1.75
954.136	1.25
954.865	-0.75
955.594	0.25
956.323	1.25
957.052	0.25
957.78	-0.75
958.509	-0.75
959.238	-0.75
959.966	-0.75
960.695	-1.75
961.423	-0.75
962.151	1.25
962.88	1.25
963.608	0.25
964.336	1.25
965.064	2.25
965.792	0.25
966.52	1.25
967.247	-0.75
967.975	0.25
968.703	0.25
969.43	0.25
970.158	-2.75
970.885	1.25
971.613	1.25
972.34	0.25
973.067	-3.75
973.794	0.25
974.521	1.25
975.248	-1.75
975.975	-2.75
976.702	-1.75
977.429	0.25
978.156	1.25
978.882	-0.75
979.609	0.25
980.335	1.25
981.062	2.25
981.788	0.25
982.514	-0.75
983.24	-1.75
983.967	0.25
984.693	1.25
985.419	1.25
986.144	-1.75
986.87	0.25
987.596	1.25
988.322	1.25
989.047	0.25
989.773	0.25
990.498	1.25
991.224	-0.75
991.949	-0.75
992.674	-1.75
993.399	-0.75
994.124	-1.75
994.849	1.25
995.574	0.25
996.299	-0.75
997.024	-0.75
997.749	-0.75
998.473	1.25
999.198	1.25
999.922	1.25
1000.647	-2.75
1001.371	4.25
1002.095	-2.75
1002.82	-3.75
1003.544	0.25
1004.268	0.25
1004.992	1.25
1005.716	0.25
1006.439	3.25
1007.163	2.25
1007.887	0.25
1008.611	-0.75
1009.334	0.25
1010.058	0.25
1010.781	0.25
1011.504	0.25
1012.228	-0.75
1012.951	0.25
1013.674	0.25
1014.397	1.25
1015.12	0.25
