节点500_285_QEPB04081__818__15-09-09-730.txt的数据

Date: Wed Nov 12 15:09:09 CST 2025
User: PC
Spectrometer: QEPB0408
触发模式: 0
积分时间 (秒): 1.000000E-2
Scans to average: 1
启用暗噪声校正: true
启用非线性校正: false
滑动平均宽度: 0
X轴模式: Wavelengths
Number of Pixels in Spectrum: 1044
>>>>>Begin Spectral Data<<<<<
220.843	2
221.644	0
222.444	1
223.244	2
224.045	0
224.845	3
225.645	0
226.445	2
227.245	2
228.045	0
228.845	2
229.645	5
230.444	1
231.244	4
232.043	1
232.843	1
233.642	4
234.442	6
235.241	4
236.04	0
236.839	2
237.638	4
238.437	6
239.236	4
240.035	5
240.833	4
241.632	5
242.43	3
243.229	4
244.027	6
244.826	5
245.624	7
246.422	6
247.22	6
248.018	3
248.816	4
249.614	6
250.412	6
251.21	5
252.007	5
252.805	7
253.602	7
254.4	5
255.197	7
255.994	8
256.791	9
257.589	8
258.386	7
259.183	8
259.979	7
260.776	7
261.573	9
262.37	9
263.166	11
263.963	10
264.759	11
265.556	10
266.352	12
267.148	14
267.944	11
268.74	12
269.536	14
270.332	15
271.128	13
271.924	17
272.719	13
273.515	13
274.311	15
275.106	16
275.901	16
276.697	16
277.492	16
278.287	17
279.082	14
279.877	19
280.672	18
281.467	18
282.262	16
283.056	15
283.851	18
284.646	18
285.44	17
286.234	17
287.029	17
287.823	18
288.617	16
289.411	18
290.205	18
290.999	18
291.793	17
292.587	17
293.381	14
294.174	18
294.968	16
295.761	15
296.555	15
297.348	15
298.141	14
298.935	16
299.728	14
300.521	14
301.314	13
302.107	12
302.899	14
303.692	13
304.485	11
305.277	12
306.07	14
306.862	12
307.655	11
308.447	12
309.239	10
310.031	13
310.823	10
311.615	9
312.407	9
313.199	10
313.991	7
314.783	8
315.574	8
316.366	8
317.157	10
317.949	8
318.74	8
319.531	11
320.322	8
321.113	7
321.904	7
322.695	10
323.486	8
324.277	7
325.068	9
325.858	7
326.649	7
327.439	8
328.23	4
329.02	5
329.81	7
330.6	6
331.391	7
332.181	8
332.971	7
333.76	6
334.55	9
335.34	5
336.13	5
336.919	5
337.709	8
338.498	5
339.287	7
340.077	4
340.866	7
341.655	7
342.444	7
343.233	5
344.022	5
344.811	6
345.6	5
346.388	4
347.177	4
347.965	4
348.754	9
349.542	7
350.33	5
351.119	10
351.907	4
352.695	6
353.483	6
354.271	5
355.059	3
355.846	4
356.634	6
357.422	4
358.209	3
358.997	4
359.784	6
360.571	4
361.359	6
362.146	8
362.933	2
363.72	7
364.507	5
365.294	4
366.081	3
366.867	4
367.654	6
368.44	3
369.227	6
370.013	5
370.8	4
371.586	6
372.372	5
373.158	6
373.944	5
374.73	7
375.516	5
376.302	5
377.088	4
377.873	6
378.659	4
379.445	6
380.23	4
381.015	8
381.801	4
382.586	6
383.371	4
384.156	5
384.941	2
385.726	4
386.511	7
387.296	7
388.08	5
388.865	5
389.649	2
390.434	5
391.218	5
392.003	4
392.787	4
393.571	8
394.355	4
395.139	6
395.923	7
396.707	6
397.491	7
398.274	7
399.058	7
399.842	7
400.625	6
401.408	6
402.192	7
402.975	6
403.758	7
404.541	6
405.324	6
406.107	9
406.89	8
407.673	6
408.456	9
409.238	7
410.021	7
410.803	10
411.586	6
412.368	10
413.151	8
413.933	11
414.715	10
415.497	8
416.279	8
417.061	10
417.843	7
418.624	7
419.406	12
420.188	6
420.969	11
421.751	10
422.532	9
423.313	12
424.095	7
424.876	12
425.657	12
426.438	13
427.219	12
428	11
428.78	13
429.561	14
430.342	14
431.122	14
431.903	15
432.683	14
433.464	14
434.244	14
435.024	17
435.804	14
436.584	17
437.364	20
438.144	18
438.924	21
439.704	22
440.483	23
441.263	25
442.042	29
442.822	31
443.601	30
444.38	30
445.16	35
445.939	35
446.718	41
447.497	45
448.276	47
449.054	50
449.833	53
450.612	60
451.391	63
452.169	68
452.948	74
453.726	79
454.504	90
455.282	103
456.061	108
456.839	124
457.617	134
458.395	152
459.172	171
459.95	185
460.728	214
461.506	234
462.283	257
463.061	285
463.838	322
464.615	357
465.393	402
466.17	439
466.947	484
467.724	553
468.501	605
469.278	667
470.055	747
470.831	819
471.608	910
472.385	1001
473.161	1108
473.938	1227
474.714	1346
475.49	1462
476.266	1607
477.043	1773
477.819	1939
478.595	2126
479.371	2331
480.146	2538
480.922	2796
481.698	3056
482.473	3315
483.249	3626
484.024	3973
484.8	4328
485.575	4728
486.35	5139
487.126	5585
487.901	6076
488.676	6620
489.451	7196
490.225	7824
491	8475
491.775	9240
492.55	9952
493.324	10759
494.099	11539
494.873	12376
495.647	13343
496.422	14295
497.196	15300
497.97	16263
498.744	17319
499.518	18382
500.292	19378
501.066	20351
501.839	21262
502.613	22208
503.387	23007
504.16	23710
504.934	24211
505.707	24611
506.48	24831
507.253	24977
508.027	25035
508.8	25016
509.573	24911
510.346	24499
511.118	23992
511.891	23472
512.664	22864
513.437	22200
514.209	21313
514.982	20674
515.754	19879
516.526	19104
517.298	18326
518.071	17618
518.843	16853
519.615	16269
520.387	15667
521.159	15026
521.93	14453
522.702	13853
523.474	13303
524.245	12685
525.017	12194
525.788	11791
526.56	11252
527.331	10707
528.102	10253
528.873	9842
529.644	9383
530.415	8992
531.186	8516
531.957	8109
532.728	7753
533.498	7328
534.269	6943
535.039	6604
535.81	6251
536.58	5895
537.351	5565
538.121	5279
538.891	4979
539.661	4714
540.431	4461
541.201	4234
541.971	3983
542.741	3795
543.51	3612
544.28	3411
545.05	3251
545.819	3107
546.588	2954
547.358	2801
548.127	2664
548.896	2527
549.665	2392
550.434	2284
551.203	2152
551.972	2056
552.741	1944
553.51	1833
554.278	1738
555.047	1647
555.815	1554
556.584	1475
557.352	1393
558.121	1308
558.889	1252
559.657	1166
560.425	1115
561.193	1044
561.961	985
562.729	935
563.496	881
564.264	822
565.032	794
565.799	746
566.567	695
567.334	671
568.101	635
568.869	602
569.636	549
570.403	533
571.17	496
571.937	464
572.704	441
573.471	413
574.237	389
575.004	369
575.771	342
576.537	326
577.303	317
578.07	291
578.836	273
579.602	256
580.368	243
581.134	233
581.9	218
582.666	203
583.432	190
584.198	190
584.964	183
585.729	162
586.495	159
587.26	151
588.025	142
588.791	138
589.556	128
590.321	119
591.086	113
591.851	107
592.616	103
593.381	100
594.146	90
594.911	91
595.675	89
596.44	81
597.204	77
597.969	76
598.733	73
599.497	70
600.261	66
601.025	61
601.79	59
602.553	56
603.317	54
604.081	51
604.845	51
605.609	50
606.372	46
607.136	44
607.899	43
608.662	38
609.426	37
610.189	39
610.952	36
611.715	36
612.478	34
613.241	30
614.004	32
614.767	31
615.529	27
616.292	26
617.055	26
617.817	26
618.579	24
619.342	25
620.104	21
620.866	24
621.628	22
622.39	21
623.152	21
623.914	21
624.676	17
625.438	19
626.199	16
626.961	16
627.722	16
628.484	14
629.245	13
630.006	16
630.768	16
631.529	13
632.29	10
633.051	12
633.812	14
634.573	12
635.333	11
636.094	11
636.855	11
637.615	11
638.376	10
639.136	9
639.896	11
640.657	11
641.417	9
642.177	10
642.937	6
643.697	9
644.457	10
645.216	8
645.976	10
646.736	7
647.495	8
648.255	8
649.014	8
649.774	6
650.533	7
651.292	8
652.051	8
652.81	6
653.569	5
654.328	7
655.087	7
655.846	5
656.604	7
657.363	8
658.121	6
658.88	6
659.638	6
660.397	9
661.155	4
661.913	9
662.671	7
663.429	5
664.187	4
664.945	4
665.703	4
666.46	2
667.218	6
667.976	5
668.733	5
669.49	5
670.248	3
671.005	5
671.762	4
672.519	4
673.276	4
674.033	6
674.79	6
675.547	5
676.304	4
677.06	4
677.817	4
678.574	2
679.33	4
680.086	5
680.843	5
681.599	4
682.355	7
683.111	6
683.867	7
684.623	4
685.379	4
686.135	4
686.89	4
687.646	3
688.402	5
689.157	3
689.912	2
690.668	5
691.423	3
692.178	4
692.933	5
693.688	2
694.443	3
695.198	2
695.953	2
696.708	5
697.462	3
698.217	5
698.972	2
699.726	3
700.48	3
701.235	5
701.989	3
702.743	0
703.497	6
704.251	3
705.005	4
705.759	3
706.513	4
707.266	5
708.02	2
708.774	4
709.527	0
710.28	2
711.034	4
711.787	2
712.54	2
713.293	2
714.046	4
714.799	5
715.552	5
716.305	6
717.058	3
717.81	4
718.563	2
719.315	3
720.068	4
720.82	3
721.573	3
722.325	3
723.077	4
723.829	1
724.581	2
725.333	6
726.085	4
726.836	2
727.588	3
728.34	2
729.091	6
729.843	3
730.594	4
731.346	3
732.097	4
732.848	3
733.599	5
734.35	5
735.101	4
735.852	2
736.603	5
737.354	4
738.104	3
738.855	2
739.605	1
740.356	5
741.106	7
741.856	4
742.607	6
743.357	4
744.107	4
744.857	6
745.607	4
746.357	5
747.106	3
747.856	7
748.606	3
749.355	7
750.105	4
750.854	3
751.603	6
752.353	4
753.102	5
753.851	4
754.6	4
755.349	6
756.098	6
756.847	6
757.595	5
758.344	9
759.093	5
759.841	4
760.589	5
761.338	6
762.086	6
762.834	3
763.582	5
764.331	7
765.079	5
765.826	7
766.574	5
767.322	7
768.07	7
768.817	6
769.565	5
770.312	5
771.06	7
771.807	6
772.554	7
773.302	7
774.049	5
774.796	6
775.543	8
776.29	8
777.036	7
777.783	6
778.53	9
779.276	8
780.023	8
780.769	6
781.516	8
782.262	6
783.008	7
783.754	8
784.5	7
785.246	6
785.992	6
786.738	8
787.484	7
788.23	8
788.975	8
789.721	8
790.466	8
791.212	9
791.957	7
792.702	7
793.447	9
794.193	5
794.938	9
795.683	8
796.427	9
797.172	7
797.917	7
798.662	4
799.406	8
800.151	6
800.895	7
801.64	6
802.384	7
803.128	9
803.872	3
804.616	6
805.36	5
806.104	6
806.848	6
807.592	6
808.336	5
809.079	3
809.823	7
810.566	6
811.31	4
812.053	5
812.796	6
813.539	6
814.283	5
815.026	6
815.769	5
816.511	7
817.254	5
817.997	7
818.74	6
819.482	5
820.225	7
820.967	8
821.71	4
822.452	6
823.194	4
823.936	5
824.678	4
825.42	3
826.162	3
826.904	5
827.646	3
828.388	4
829.129	2
829.871	2
830.612	5
831.354	5
832.095	5
832.836	2
833.577	3
834.319	5
835.06	2
835.801	5
836.542	1
837.282	3
838.023	5
838.764	3
839.504	5
840.245	4
840.985	5
841.726	5
842.466	3
843.206	5
843.946	4
844.687	5
845.427	3
846.166	4
846.906	4
847.646	5
848.386	4
849.125	2
849.865	5
850.605	2
851.344	4
852.083	4
852.823	1
853.562	3
854.301	3
855.04	4
855.779	3
856.518	2
857.257	1
857.995	0
858.734	3
859.473	2
860.211	3
860.95	2
861.688	3
862.426	1
863.165	2
863.903	2
864.641	2
865.379	2
866.117	0
866.855	4
867.593	0
868.33	1
869.068	2
869.806	2
870.543	1
871.28	-1
872.018	1
872.755	3
873.492	2
874.229	3
874.967	1
875.703	2
876.44	2
877.177	1
877.914	2
878.651	0
879.387	1
880.124	2
880.86	0
881.597	0
882.333	3
883.069	0
883.806	2
884.542	2
885.278	0
886.014	1
886.749	0
887.485	2
888.221	2
888.957	0
889.692	0
890.428	0
891.163	1
891.899	0
892.634	-1
893.369	1
894.104	-2
894.839	2
895.574	2
896.309	2
897.044	0
897.779	0
898.514	2
899.248	0
899.983	2
900.717	2
901.452	1
902.186	0
902.92	-1
903.654	2
904.389	1
905.123	1
905.857	1
906.59	0
907.324	2
908.058	3
908.792	2
909.525	0
910.259	0
910.992	1
911.726	1
912.459	-1
913.192	1
913.925	2
914.658	1
915.391	2
916.124	0
916.857	0
917.59	0
918.323	1
919.055	0
919.788	0
920.521	1
921.253	3
921.985	-1
922.718	1
923.45	-2
924.182	0
924.914	-1
925.646	-2
926.378	0
927.11	-3
927.841	1
928.573	-2
929.305	1
930.036	2
930.768	1
931.499	0
932.23	0
932.962	-1
933.693	-1
934.424	2
935.155	0
935.886	1
936.617	1
937.348	0
938.078	-1
938.809	3
939.54	-2
940.27	-1
941.001	0
941.731	2
942.461	-2
943.191	0
943.922	0
944.652	-3
945.382	1
946.112	0
946.841	1
947.571	-1
948.301	-1
949.031	0
949.76	0
950.49	2
951.219	-1
951.948	2
952.678	1
953.407	0
954.136	-1
954.865	2
955.594	1
956.323	1
957.052	2
957.78	1
958.509	-2
959.238	0
959.966	1
960.695	1
961.423	1
962.151	1
962.88	0
963.608	1
964.336	0
965.064	0
965.792	2
966.52	2
967.247	0
967.975	-1
968.703	1
969.43	0
970.158	1
970.885	2
971.613	1
972.34	-1
973.067	0
973.794	-1
974.521	-1
975.248	0
975.975	0
976.702	1
977.429	-1
978.156	1
978.882	1
979.609	0
980.335	1
981.062	0
981.788	0
982.514	0
983.24	2
983.967	1
984.693	0
985.419	0
986.144	1
986.87	0
987.596	-1
988.322	3
989.047	1
989.773	0
990.498	0
991.224	-1
991.949	0
992.674	1
993.399	1
994.124	2
994.849	2
995.574	0
996.299	-2
997.024	0
997.749	-4
998.473	1
999.198	-1
999.922	1
1000.647	1
1001.371	4
1002.095	1
1002.82	-1
1003.544	-2
1004.268	2
1004.992	0
1005.716	-1
1006.439	0
1007.163	3
1007.887	2
1008.611	0
1009.334	-2
1010.058	-2
1010.781	0
1011.504	-2
1012.228	0
1012.951	0
1013.674	-2
1014.397	1
1015.12	-1
