节点500_285_QEPB04081__241__14-59-33-931.txt的数据

Date: Wed Nov 12 14:59:33 CST 2025
User: PC
Spectrometer: QEPB0408
触发模式: 0
积分时间 (秒): 1.000000E-2
Scans to average: 1
启用暗噪声校正: true
启用非线性校正: false
滑动平均宽度: 0
X轴模式: Wavelengths
Number of Pixels in Spectrum: 1044
>>>>>Begin Spectral Data<<<<<
220.843	0.5
221.644	0.5
222.444	0.5
223.244	2.5
224.045	2.5
224.845	3.5
225.645	-0.5
226.445	2.5
227.245	1.5
228.045	2.5
228.845	1.5
229.645	-0.5
230.444	1.5
231.244	2.5
232.043	0.5
232.843	3.5
233.642	2.5
234.442	0.5
235.241	2.5
236.04	1.5
236.839	5.5
237.638	3.5
238.437	4.5
239.236	4.5
240.035	5.5
240.833	3.5
241.632	1.5
242.43	4.5
243.229	5.5
244.027	2.5
244.826	3.5
245.624	5.5
246.422	1.5
247.22	5.5
248.018	6.5
248.816	6.5
249.614	3.5
250.412	5.5
251.21	5.5
252.007	5.5
252.805	5.5
253.602	4.5
254.4	7.5
255.197	6.5
255.994	6.5
256.791	10.5
257.589	10.5
258.386	8.5
259.183	11.5
259.979	8.5
260.776	8.5
261.573	9.5
262.37	10.5
263.166	9.5
263.963	12.5
264.759	10.5
265.556	11.5
266.352	10.5
267.148	12.5
267.944	10.5
268.74	12.5
269.536	12.5
270.332	11.5
271.128	10.5
271.924	16.5
272.719	13.5
273.515	14.5
274.311	15.5
275.106	16.5
275.901	17.5
276.697	16.5
277.492	17.5
278.287	18.5
279.082	17.5
279.877	17.5
280.672	15.5
281.467	18.5
282.262	19.5
283.056	17.5
283.851	19.5
284.646	18.5
285.44	18.5
286.234	16.5
287.029	19.5
287.823	18.5
288.617	17.5
289.411	16.5
290.205	18.5
290.999	14.5
291.793	16.5
292.587	17.5
293.381	16.5
294.174	11.5
294.968	14.5
295.761	15.5
296.555	14.5
297.348	11.5
298.141	15.5
298.935	14.5
299.728	14.5
300.521	12.5
301.314	12.5
302.107	15.5
302.899	13.5
303.692	11.5
304.485	12.5
305.277	10.5
306.07	12.5
306.862	13.5
307.655	11.5
308.447	8.5
309.239	10.5
310.031	9.5
310.823	9.5
311.615	9.5
312.407	8.5
313.199	8.5
313.991	7.5
314.783	7.5
315.574	7.5
316.366	7.5
317.157	8.5
317.949	10.5
318.74	8.5
319.531	9.5
320.322	6.5
321.113	7.5
321.904	6.5
322.695	5.5
323.486	4.5
324.277	5.5
325.068	6.5
325.858	4.5
326.649	5.5
327.439	6.5
328.23	5.5
329.02	4.5
329.81	7.5
330.6	6.5
331.391	5.5
332.181	5.5
332.971	4.5
333.76	4.5
334.55	4.5
335.34	3.5
336.13	4.5
336.919	5.5
337.709	6.5
338.498	6.5
339.287	1.5
340.077	6.5
340.866	3.5
341.655	6.5
342.444	7.5
343.233	3.5
344.022	4.5
344.811	5.5
345.6	4.5
346.388	5.5
347.177	3.5
347.965	5.5
348.754	3.5
349.542	6.5
350.33	6.5
351.119	5.5
351.907	4.5
352.695	3.5
353.483	5.5
354.271	3.5
355.059	5.5
355.846	5.5
356.634	4.5
357.422	4.5
358.209	3.5
358.997	7.5
359.784	4.5
360.571	4.5
361.359	4.5
362.146	4.5
362.933	4.5
363.72	3.5
364.507	5.5
365.294	4.5
366.081	5.5
366.867	4.5
367.654	4.5
368.44	4.5
369.227	5.5
370.013	2.5
370.8	4.5
371.586	2.5
372.372	5.5
373.158	2.5
373.944	4.5
374.73	5.5
375.516	3.5
376.302	3.5
377.088	3.5
377.873	4.5
378.659	5.5
379.445	3.5
380.23	5.5
381.015	6.5
381.801	6.5
382.586	3.5
383.371	6.5
384.156	5.5
384.941	3.5
385.726	6.5
386.511	2.5
387.296	5.5
388.08	4.5
388.865	4.5
389.649	5.5
390.434	2.5
391.218	5.5
392.003	5.5
392.787	4.5
393.571	4.5
394.355	5.5
395.139	6.5
395.923	3.5
396.707	4.5
397.491	4.5
398.274	5.5
399.058	6.5
399.842	5.5
400.625	5.5
401.408	4.5
402.192	6.5
402.975	5.5
403.758	6.5
404.541	6.5
405.324	5.5
406.107	8.5
406.89	6.5
407.673	6.5
408.456	6.5
409.238	6.5
410.021	3.5
410.803	7.5
411.586	8.5
412.368	8.5
413.151	6.5
413.933	8.5
414.715	7.5
415.497	8.5
416.279	8.5
417.061	8.5
417.843	6.5
418.624	7.5
419.406	8.5
420.188	8.5
420.969	7.5
421.751	9.5
422.532	10.5
423.313	10.5
424.095	9.5
424.876	10.5
425.657	10.5
426.438	9.5
427.219	12.5
428	12.5
428.78	11.5
429.561	12.5
430.342	12.5
431.122	15.5
431.903	13.5
432.683	15.5
433.464	14.5
434.244	17.5
435.024	15.5
435.804	17.5
436.584	17.5
437.364	19.5
438.144	17.5
438.924	19.5
439.704	19.5
440.483	20.5
441.263	21.5
442.042	23.5
442.822	23.5
443.601	26.5
444.38	28.5
445.16	32.5
445.939	34.5
446.718	36.5
447.497	35.5
448.276	42.5
449.054	43.5
449.833	49.5
450.612	53.5
451.391	54.5
452.169	58.5
452.948	60.5
453.726	70.5
454.504	80.5
455.282	81.5
456.061	94.5
456.839	108.5
457.617	116.5
458.395	130.5
459.172	141.5
459.95	164.5
460.728	177.5
461.506	201.5
462.283	228.5
463.061	246.5
463.838	278.5
464.615	319.5
465.393	348.5
466.17	386.5
466.947	441.5
467.724	486.5
468.501	550.5
469.278	607.5
470.055	691.5
470.831	753.5
471.608	835.5
472.385	920.5
473.161	1027.5
473.938	1145.5
474.714	1287.5
475.49	1406.5
476.266	1586.5
477.043	1750.5
477.819	1932.5
478.595	2109.5
479.371	2351.5
480.146	2582.5
480.922	2847.5
481.698	3163.5
482.473	3467.5
483.249	3867.5
484.024	4233.5
484.8	4678.5
485.575	5135.5
486.35	5671.5
487.126	6215.5
487.901	6849.5
488.676	7461.5
489.451	8197.5
490.225	8959.5
491	9791.5
491.775	10747.5
492.55	11719.5
493.324	12704.5
494.099	13788.5
494.873	14791.5
495.647	15946.5
496.422	17168.5
497.196	18371.5
497.97	19593.5
498.744	20801.5
499.518	22049.5
500.292	23112.5
501.066	24252.5
501.839	25187.5
502.613	26052.5
503.387	26816.5
504.16	27454.5
504.934	27712.5
505.707	27911.5
506.48	27871.5
507.253	27791.5
508.027	27403.5
508.8	27086.5
509.573	26623.5
510.346	25940.5
511.118	25088.5
511.891	24236.5
512.664	23403.5
513.437	22521.5
514.209	21491.5
514.982	20614.5
515.754	19670.5
516.526	18778.5
517.298	17953.5
518.071	17165.5
518.843	16572.5
519.615	15888.5
520.387	15303.5
521.159	14624.5
521.93	14045.5
522.702	13545.5
523.474	12946.5
524.245	12403.5
525.017	11836.5
525.788	11373.5
526.56	10845.5
527.331	10343.5
528.102	9919.5
528.873	9444.5
529.644	8997.5
530.415	8534.5
531.186	8072.5
531.957	7664.5
532.728	7259.5
533.498	6857.5
534.269	6480.5
535.039	6107.5
535.81	5770.5
536.58	5463.5
537.351	5155.5
538.121	4881.5
538.891	4601.5
539.661	4362.5
540.431	4111.5
541.201	3862.5
541.971	3693.5
542.741	3488.5
543.51	3308.5
544.28	3153.5
545.05	2993.5
545.819	2853.5
546.588	2716.5
547.358	2573.5
548.127	2447.5
548.896	2322.5
549.665	2207.5
550.434	2093.5
551.203	1962.5
551.972	1882.5
552.741	1772.5
553.51	1660.5
554.278	1581.5
555.047	1504.5
555.815	1395.5
556.584	1327.5
557.352	1249.5
558.121	1189.5
558.889	1100.5
559.657	1046.5
560.425	996.5
561.193	936.5
561.961	884.5
562.729	835.5
563.496	798.5
564.264	744.5
565.032	702.5
565.799	667.5
566.567	635.5
567.334	603.5
568.101	554.5
568.869	532.5
569.636	494.5
570.403	463.5
571.17	431.5
571.937	426.5
572.704	391.5
573.471	367.5
574.237	351.5
575.004	331.5
575.771	313.5
576.537	299.5
577.303	269.5
578.07	260.5
578.836	240.5
579.602	230.5
580.368	220.5
581.134	209.5
581.9	198.5
582.666	182.5
583.432	174.5
584.198	167.5
584.964	153.5
585.729	147.5
586.495	143.5
587.26	131.5
588.025	126.5
588.791	118.5
589.556	114.5
590.321	106.5
591.086	101.5
591.851	100.5
592.616	94.5
593.381	86.5
594.146	81.5
594.911	79.5
595.675	76.5
596.44	75.5
597.204	67.5
597.969	69.5
598.733	61.5
599.497	60.5
600.261	56.5
601.025	54.5
601.79	51.5
602.553	49.5
603.317	47.5
604.081	45.5
604.845	42.5
605.609	40.5
606.372	40.5
607.136	38.5
607.899	37.5
608.662	36.5
609.426	34.5
610.189	35.5
610.952	33.5
611.715	31.5
612.478	29.5
613.241	28.5
614.004	28.5
614.767	28.5
615.529	24.5
616.292	24.5
617.055	22.5
617.817	22.5
618.579	23.5
619.342	20.5
620.104	17.5
620.866	18.5
621.628	17.5
622.39	17.5
623.152	16.5
623.914	14.5
624.676	18.5
625.438	14.5
626.199	15.5
626.961	15.5
627.722	13.5
628.484	12.5
629.245	14.5
630.006	12.5
630.768	11.5
631.529	12.5
632.29	11.5
633.051	11.5
633.812	11.5
634.573	10.5
635.333	10.5
636.094	11.5
636.855	7.5
637.615	10.5
638.376	11.5
639.136	7.5
639.896	7.5
640.657	7.5
641.417	7.5
642.177	6.5
642.937	7.5
643.697	9.5
644.457	7.5
645.216	6.5
645.976	8.5
646.736	6.5
647.495	8.5
648.255	6.5
649.014	6.5
649.774	5.5
650.533	6.5
651.292	6.5
652.051	5.5
652.81	7.5
653.569	5.5
654.328	5.5
655.087	4.5
655.846	6.5
656.604	6.5
657.363	3.5
658.121	4.5
658.88	5.5
659.638	7.5
660.397	4.5
661.155	5.5
661.913	2.5
662.671	6.5
663.429	5.5
664.187	3.5
664.945	4.5
665.703	1.5
666.46	4.5
667.218	4.5
667.976	6.5
668.733	4.5
669.49	5.5
670.248	4.5
671.005	4.5
671.762	5.5
672.519	4.5
673.276	2.5
674.033	4.5
674.79	3.5
675.547	2.5
676.304	2.5
677.06	2.5
677.817	2.5
678.574	3.5
679.33	4.5
680.086	3.5
680.843	4.5
681.599	4.5
682.355	2.5
683.111	3.5
683.867	4.5
684.623	2.5
685.379	5.5
686.135	2.5
686.89	3.5
687.646	3.5
688.402	3.5
689.157	0.5
689.912	2.5
690.668	1.5
691.423	2.5
692.178	2.5
692.933	2.5
693.688	1.5
694.443	3.5
695.198	4.5
695.953	4.5
696.708	5.5
697.462	1.5
698.217	4.5
698.972	1.5
699.726	3.5
700.48	1.5
701.235	3.5
701.989	2.5
702.743	4.5
703.497	2.5
704.251	1.5
705.005	3.5
705.759	4.5
706.513	2.5
707.266	2.5
708.02	2.5
708.774	2.5
709.527	3.5
710.28	3.5
711.034	1.5
711.787	0.5
712.54	2.5
713.293	1.5
714.046	0.5
714.799	1.5
715.552	2.5
716.305	2.5
717.058	3.5
717.81	0.5
718.563	5.5
719.315	-0.5
720.068	3.5
720.82	3.5
721.573	2.5
722.325	2.5
723.077	1.5
723.829	4.5
724.581	3.5
725.333	3.5
726.085	2.5
726.836	0.5
727.588	2.5
728.34	3.5
729.091	1.5
729.843	2.5
730.594	3.5
731.346	3.5
732.097	2.5
732.848	4.5
733.599	1.5
734.35	3.5
735.101	2.5
735.852	5.5
736.603	3.5
737.354	2.5
738.104	0.5
738.855	2.5
739.605	4.5
740.356	2.5
741.106	2.5
741.856	3.5
742.607	3.5
743.357	5.5
744.107	5.5
744.857	4.5
745.607	2.5
746.357	4.5
747.106	3.5
747.856	1.5
748.606	3.5
749.355	3.5
750.105	5.5
750.854	4.5
751.603	3.5
752.353	3.5
753.102	5.5
753.851	3.5
754.6	3.5
755.349	5.5
756.098	4.5
756.847	6.5
757.595	5.5
758.344	4.5
759.093	5.5
759.841	2.5
760.589	4.5
761.338	5.5
762.086	3.5
762.834	4.5
763.582	4.5
764.331	7.5
765.079	2.5
765.826	6.5
766.574	5.5
767.322	6.5
768.07	7.5
768.817	5.5
769.565	6.5
770.312	6.5
771.06	6.5
771.807	9.5
772.554	6.5
773.302	6.5
774.049	7.5
774.796	7.5
775.543	7.5
776.29	7.5
777.036	7.5
777.783	8.5
778.53	9.5
779.276	10.5
780.023	7.5
780.769	8.5
781.516	7.5
782.262	8.5
783.008	8.5
783.754	8.5
784.5	7.5
785.246	6.5
785.992	6.5
786.738	6.5
787.484	10.5
788.23	6.5
788.975	7.5
789.721	7.5
790.466	7.5
791.212	7.5
791.957	8.5
792.702	7.5
793.447	7.5
794.193	8.5
794.938	6.5
795.683	7.5
796.427	7.5
797.172	7.5
797.917	5.5
798.662	4.5
799.406	4.5
800.151	7.5
800.895	6.5
801.64	6.5
802.384	6.5
803.128	9.5
803.872	6.5
804.616	5.5
805.36	4.5
806.104	5.5
806.848	4.5
807.592	5.5
808.336	6.5
809.079	6.5
809.823	6.5
810.566	5.5
811.31	3.5
812.053	5.5
812.796	3.5
813.539	4.5
814.283	4.5
815.026	1.5
815.769	4.5
816.511	4.5
817.254	5.5
817.997	1.5
818.74	3.5
819.482	5.5
820.225	2.5
820.967	2.5
821.71	3.5
822.452	2.5
823.194	3.5
823.936	2.5
824.678	3.5
825.42	3.5
826.162	3.5
826.904	5.5
827.646	4.5
828.388	4.5
829.129	2.5
829.871	2.5
830.612	2.5
831.354	1.5
832.095	2.5
832.836	3.5
833.577	3.5
834.319	2.5
835.06	2.5
835.801	4.5
836.542	3.5
837.282	3.5
838.023	2.5
838.764	4.5
839.504	2.5
840.245	2.5
840.985	2.5
841.726	3.5
842.466	3.5
843.206	1.5
843.946	0.5
844.687	2.5
845.427	2.5
846.166	0.5
846.906	1.5
847.646	2.5
848.386	0.5
849.125	2.5
849.865	2.5
850.605	2.5
851.344	2.5
852.083	-0.5
852.823	2.5
853.562	2.5
854.301	-0.5
855.04	1.5
855.779	1.5
856.518	2.5
857.257	1.5
857.995	2.5
858.734	2.5
859.473	3.5
860.211	-0.5
860.95	0.5
861.688	2.5
862.426	1.5
863.165	2.5
863.903	1.5
864.641	2.5
865.379	0.5
866.117	-0.5
866.855	1.5
867.593	0.5
868.33	0.5
869.068	0.5
869.806	0.5
870.543	0.5
871.28	2.5
872.018	0.5
872.755	-1.5
873.492	2.5
874.229	0.5
874.967	-1.5
875.703	0.5
876.44	-0.5
877.177	-1.5
877.914	-1.5
878.651	-1.5
879.387	0.5
880.124	2.5
880.86	-0.5
881.597	0.5
882.333	-1.5
883.069	-0.5
883.806	-1.5
884.542	1.5
885.278	1.5
886.014	0.5
886.749	0.5
887.485	-1.5
888.221	-0.5
888.957	0.5
889.692	-0.5
890.428	0.5
891.163	-0.5
891.899	-3.5
892.634	-0.5
893.369	0.5
894.104	-0.5
894.839	3.5
895.574	-1.5
896.309	-0.5
897.044	-0.5
897.779	1.5
898.514	-0.5
899.248	0.5
899.983	-1.5
900.717	-0.5
901.452	-1.5
902.186	1.5
902.92	0.5
903.654	1.5
904.389	-0.5
905.123	-0.5
905.857	1.5
906.59	-2.5
907.324	0.5
908.058	-0.5
908.792	0.5
909.525	-0.5
910.259	-1.5
910.992	0.5
911.726	-0.5
912.459	-0.5
913.192	-2.5
913.925	-3.5
914.658	1.5
915.391	-1.5
916.124	0.5
916.857	0.5
917.59	-0.5
918.323	-1.5
919.055	0.5
919.788	-0.5
920.521	-0.5
921.253	0.5
921.985	-0.5
922.718	-1.5
923.45	-0.5
924.182	0.5
924.914	-1.5
925.646	-1.5
926.378	-1.5
927.11	0.5
927.841	-2.5
928.573	0.5
929.305	1.5
930.036	-1.5
930.768	-1.5
931.499	0.5
932.23	-1.5
932.962	0.5
933.693	-0.5
934.424	-0.5
935.155	-0.5
935.886	-0.5
936.617	-1.5
937.348	-1.5
938.078	-3.5
938.809	0.5
939.54	-1.5
940.27	-1.5
941.001	-1.5
941.731	-1.5
942.461	0.5
943.191	-3.5
943.922	-0.5
944.652	0.5
945.382	-0.5
946.112	0.5
946.841	-0.5
947.571	-0.5
948.301	-3.5
949.031	-1.5
949.76	-1.5
950.49	-1.5
951.219	-0.5
951.948	-1.5
952.678	0.5
953.407	-0.5
954.136	-0.5
954.865	-2.5
955.594	-1.5
956.323	1.5
957.052	-0.5
957.78	0.5
958.509	-1.5
959.238	-1.5
959.966	0.5
960.695	-1.5
961.423	-2.5
962.151	-0.5
962.88	-0.5
963.608	-0.5
964.336	-1.5
965.064	0.5
965.792	-1.5
966.52	-0.5
967.247	1.5
967.975	0.5
968.703	-1.5
969.43	-2.5
970.158	0.5
970.885	0.5
971.613	-0.5
972.34	2.5
973.067	-1.5
973.794	-0.5
974.521	-1.5
975.248	-0.5
975.975	1.5
976.702	-0.5
977.429	-0.5
978.156	-3.5
978.882	-1.5
979.609	-0.5
980.335	0.5
981.062	1.5
981.788	-2.5
982.514	-1.5
983.24	-0.5
983.967	-1.5
984.693	-2.5
985.419	-1.5
986.144	-0.5
986.87	-1.5
987.596	-1.5
988.322	-1.5
989.047	-2.5
989.773	-0.5
990.498	0.5
991.224	0.5
991.949	-0.5
992.674	-0.5
993.399	-2.5
994.124	0.5
994.849	0.5
995.574	-1.5
996.299	-1.5
997.024	-0.5
997.749	-0.5
998.473	-2.5
999.198	0.5
999.922	0.5
1000.647	0.5
1001.371	2.5
1002.095	-0.5
1002.82	0.5
1003.544	-0.5
1004.268	-1.5
1004.992	1.5
1005.716	-2.5
1006.439	0.5
1007.163	0.5
1007.887	0.5
1008.611	1.5
1009.334	-0.5
1010.058	-0.5
1010.781	-0.5
1011.504	-0.5
1012.228	0.5
1012.951	1.5
1013.674	-2.5
1014.397	-0.5
1015.12	-0.5
