节点500_285_QEPB04081__77__14-56-50-326.txt的数据

Date: Wed Nov 12 14:56:50 CST 2025
User: PC
Spectrometer: QEPB0408
触发模式: 0
积分时间 (秒): 1.000000E-2
Scans to average: 1
启用暗噪声校正: true
启用非线性校正: false
滑动平均宽度: 0
X轴模式: Wavelengths
Number of Pixels in Spectrum: 1044
>>>>>Begin Spectral Data<<<<<
220.843	2.5
221.644	0.5
222.444	2.5
223.244	2.5
224.045	5.5
224.845	3.5
225.645	2.5
226.445	1.5
227.245	2.5
228.045	2.5
228.845	3.5
229.645	6.5
230.444	4.5
231.244	2.5
232.043	3.5
232.843	3.5
233.642	2.5
234.442	4.5
235.241	3.5
236.04	3.5
236.839	4.5
237.638	5.5
238.437	2.5
239.236	5.5
240.035	4.5
240.833	3.5
241.632	5.5
242.43	4.5
243.229	5.5
244.027	6.5
244.826	5.5
245.624	6.5
246.422	5.5
247.22	5.5
248.018	7.5
248.816	8.5
249.614	7.5
250.412	6.5
251.21	8.5
252.007	6.5
252.805	7.5
253.602	7.5
254.4	9.5
255.197	10.5
255.994	9.5
256.791	9.5
257.589	10.5
258.386	9.5
259.183	11.5
259.979	12.5
260.776	13.5
261.573	9.5
262.37	11.5
263.166	11.5
263.963	15.5
264.759	11.5
265.556	11.5
266.352	13.5
267.148	12.5
267.944	14.5
268.74	15.5
269.536	16.5
270.332	13.5
271.128	16.5
271.924	17.5
272.719	16.5
273.515	17.5
274.311	18.5
275.106	16.5
275.901	19.5
276.697	17.5
277.492	20.5
278.287	21.5
279.082	20.5
279.877	20.5
280.672	18.5
281.467	21.5
282.262	21.5
283.056	22.5
283.851	17.5
284.646	19.5
285.44	20.5
286.234	19.5
287.029	19.5
287.823	21.5
288.617	18.5
289.411	21.5
290.205	20.5
290.999	17.5
291.793	20.5
292.587	17.5
293.381	17.5
294.174	17.5
294.968	20.5
295.761	17.5
296.555	15.5
297.348	18.5
298.141	14.5
298.935	18.5
299.728	17.5
300.521	16.5
301.314	17.5
302.107	14.5
302.899	10.5
303.692	16.5
304.485	15.5
305.277	11.5
306.07	13.5
306.862	13.5
307.655	13.5
308.447	13.5
309.239	13.5
310.031	10.5
310.823	12.5
311.615	12.5
312.407	11.5
313.199	9.5
313.991	7.5
314.783	9.5
315.574	10.5
316.366	9.5
317.157	8.5
317.949	10.5
318.74	8.5
319.531	9.5
320.322	9.5
321.113	9.5
321.904	7.5
322.695	8.5
323.486	8.5
324.277	8.5
325.068	7.5
325.858	8.5
326.649	5.5
327.439	8.5
328.23	6.5
329.02	7.5
329.81	4.5
330.6	9.5
331.391	5.5
332.181	6.5
332.971	7.5
333.76	6.5
334.55	6.5
335.34	7.5
336.13	8.5
336.919	5.5
337.709	7.5
338.498	9.5
339.287	6.5
340.077	5.5
340.866	5.5
341.655	5.5
342.444	5.5
343.233	6.5
344.022	5.5
344.811	9.5
345.6	5.5
346.388	7.5
347.177	5.5
347.965	10.5
348.754	8.5
349.542	6.5
350.33	8.5
351.119	6.5
351.907	4.5
352.695	6.5
353.483	7.5
354.271	5.5
355.059	4.5
355.846	6.5
356.634	6.5
357.422	7.5
358.209	7.5
358.997	6.5
359.784	5.5
360.571	4.5
361.359	7.5
362.146	6.5
362.933	6.5
363.72	8.5
364.507	3.5
365.294	7.5
366.081	5.5
366.867	5.5
367.654	5.5
368.44	5.5
369.227	6.5
370.013	6.5
370.8	5.5
371.586	6.5
372.372	7.5
373.158	5.5
373.944	4.5
374.73	6.5
375.516	3.5
376.302	7.5
377.088	5.5
377.873	5.5
378.659	6.5
379.445	4.5
380.23	4.5
381.015	4.5
381.801	5.5
382.586	5.5
383.371	5.5
384.156	7.5
384.941	5.5
385.726	5.5
386.511	7.5
387.296	6.5
388.08	7.5
388.865	4.5
389.649	6.5
390.434	4.5
391.218	7.5
392.003	6.5
392.787	5.5
393.571	5.5
394.355	6.5
395.139	6.5
395.923	9.5
396.707	6.5
397.491	7.5
398.274	9.5
399.058	7.5
399.842	7.5
400.625	9.5
401.408	4.5
402.192	8.5
402.975	7.5
403.758	6.5
404.541	9.5
405.324	8.5
406.107	9.5
406.89	7.5
407.673	6.5
408.456	8.5
409.238	8.5
410.021	10.5
410.803	6.5
411.586	11.5
412.368	8.5
413.151	6.5
413.933	7.5
414.715	9.5
415.497	8.5
416.279	9.5
417.061	10.5
417.843	9.5
418.624	11.5
419.406	10.5
420.188	10.5
420.969	11.5
421.751	12.5
422.532	9.5
423.313	12.5
424.095	14.5
424.876	12.5
425.657	12.5
426.438	12.5
427.219	12.5
428	12.5
428.78	14.5
429.561	13.5
430.342	13.5
431.122	13.5
431.903	15.5
432.683	16.5
433.464	15.5
434.244	16.5
435.024	16.5
435.804	18.5
436.584	18.5
437.364	19.5
438.144	17.5
438.924	23.5
439.704	23.5
440.483	26.5
441.263	22.5
442.042	24.5
442.822	25.5
443.601	27.5
444.38	32.5
445.16	27.5
445.939	36.5
446.718	33.5
447.497	36.5
448.276	41.5
449.054	44.5
449.833	49.5
450.612	50.5
451.391	56.5
452.169	59.5
452.948	62.5
453.726	71.5
454.504	78.5
455.282	82.5
456.061	94.5
456.839	100.5
457.617	110.5
458.395	125.5
459.172	139.5
459.95	155.5
460.728	177.5
461.506	190.5
462.283	219.5
463.061	240.5
463.838	262.5
464.615	308.5
465.393	332.5
466.17	377.5
466.947	419.5
467.724	478.5
468.501	524.5
469.278	592.5
470.055	654.5
470.831	727.5
471.608	811.5
472.385	914.5
473.161	1008.5
473.938	1130.5
474.714	1262.5
475.49	1391.5
476.266	1549.5
477.043	1718.5
477.819	1911.5
478.595	2104.5
479.371	2359.5
480.146	2605.5
480.922	2881.5
481.698	3179.5
482.473	3527.5
483.249	3904.5
484.024	4301.5
484.8	4775.5
485.575	5266.5
486.35	5800.5
487.126	6430.5
487.901	7080.5
488.676	7787.5
489.451	8578.5
490.225	9403.5
491	10281.5
491.775	11268.5
492.55	12353.5
493.324	13407.5
494.099	14511.5
494.873	15621.5
495.647	16938.5
496.422	18237.5
497.196	19450.5
497.97	20722.5
498.744	22052.5
499.518	23317.5
500.292	24437.5
501.066	25533.5
501.839	26460.5
502.613	27323.5
503.387	27986.5
504.16	28509.5
504.934	28755.5
505.707	28820.5
506.48	28790.5
507.253	28460.5
508.027	27981.5
508.8	27484.5
509.573	26904.5
510.346	26111.5
511.118	25190.5
511.891	24266.5
512.664	23315.5
513.437	22325.5
514.209	21348.5
514.982	20442.5
515.754	19496.5
516.526	18595.5
517.298	17743.5
518.071	16975.5
518.843	16298.5
519.615	15716.5
520.387	15043.5
521.159	14476.5
521.93	13903.5
522.702	13372.5
523.474	12793.5
524.245	12243.5
525.017	11719.5
525.788	11253.5
526.56	10699.5
527.331	10158.5
528.102	9720.5
528.873	9262.5
529.644	8756.5
530.415	8305.5
531.186	7882.5
531.957	7442.5
532.728	7045.5
533.498	6701.5
534.269	6298.5
535.039	5961.5
535.81	5623.5
536.58	5297.5
537.351	4976.5
538.121	4725.5
538.891	4452.5
539.661	4222.5
540.431	3972.5
541.201	3767.5
541.971	3574.5
542.741	3369.5
543.51	3222.5
544.28	3057.5
545.05	2933.5
545.819	2755.5
546.588	2627.5
547.358	2503.5
548.127	2359.5
548.896	2248.5
549.665	2110.5
550.434	2040.5
551.203	1909.5
551.972	1797.5
552.741	1691.5
553.51	1621.5
554.278	1516.5
555.047	1428.5
555.815	1346.5
556.584	1270.5
557.352	1209.5
558.121	1128.5
558.889	1058.5
559.657	1012.5
560.425	957.5
561.193	893.5
561.961	839.5
562.729	799.5
563.496	760.5
564.264	721.5
565.032	669.5
565.799	646.5
566.567	606.5
567.334	574.5
568.101	537.5
568.869	511.5
569.636	480.5
570.403	454.5
571.17	424.5
571.937	401.5
572.704	383.5
573.471	356.5
574.237	342.5
575.004	321.5
575.771	301.5
576.537	288.5
577.303	261.5
578.07	253.5
578.836	231.5
579.602	222.5
580.368	213.5
581.134	196.5
581.9	189.5
582.666	174.5
583.432	173.5
584.198	159.5
584.964	154.5
585.729	151.5
586.495	136.5
587.26	134.5
588.025	123.5
588.791	114.5
589.556	114.5
590.321	107.5
591.086	101.5
591.851	93.5
592.616	91.5
593.381	88.5
594.146	81.5
594.911	79.5
595.675	72.5
596.44	71.5
597.204	68.5
597.969	63.5
598.733	61.5
599.497	59.5
600.261	56.5
601.025	53.5
601.79	50.5
602.553	48.5
603.317	47.5
604.081	44.5
604.845	41.5
605.609	40.5
606.372	35.5
607.136	40.5
607.899	38.5
608.662	39.5
609.426	35.5
610.189	33.5
610.952	30.5
611.715	31.5
612.478	29.5
613.241	27.5
614.004	26.5
614.767	25.5
615.529	23.5
616.292	25.5
617.055	24.5
617.817	21.5
618.579	23.5
619.342	23.5
620.104	20.5
620.866	22.5
621.628	21.5
622.39	19.5
623.152	17.5
623.914	17.5
624.676	16.5
625.438	18.5
626.199	16.5
626.961	13.5
627.722	15.5
628.484	15.5
629.245	13.5
630.006	13.5
630.768	12.5
631.529	13.5
632.29	13.5
633.051	10.5
633.812	9.5
634.573	12.5
635.333	11.5
636.094	11.5
636.855	10.5
637.615	11.5
638.376	13.5
639.136	10.5
639.896	10.5
640.657	10.5
641.417	8.5
642.177	9.5
642.937	6.5
643.697	10.5
644.457	7.5
645.216	7.5
645.976	8.5
646.736	6.5
647.495	7.5
648.255	6.5
649.014	6.5
649.774	7.5
650.533	8.5
651.292	9.5
652.051	4.5
652.81	8.5
653.569	7.5
654.328	7.5
655.087	6.5
655.846	5.5
656.604	6.5
657.363	8.5
658.121	7.5
658.88	7.5
659.638	7.5
660.397	5.5
661.155	3.5
661.913	7.5
662.671	7.5
663.429	3.5
664.187	4.5
664.945	5.5
665.703	5.5
666.46	5.5
667.218	7.5
667.976	4.5
668.733	3.5
669.49	5.5
670.248	4.5
671.005	3.5
671.762	5.5
672.519	5.5
673.276	4.5
674.033	4.5
674.79	3.5
675.547	6.5
676.304	5.5
677.06	3.5
677.817	2.5
678.574	4.5
679.33	0.5
680.086	4.5
680.843	7.5
681.599	5.5
682.355	4.5
683.111	3.5
683.867	7.5
684.623	4.5
685.379	2.5
686.135	4.5
686.89	2.5
687.646	3.5
688.402	4.5
689.157	6.5
689.912	5.5
690.668	-0.5
691.423	4.5
692.178	2.5
692.933	1.5
693.688	3.5
694.443	6.5
695.198	3.5
695.953	3.5
696.708	4.5
697.462	2.5
698.217	5.5
698.972	4.5
699.726	2.5
700.48	4.5
701.235	2.5
701.989	5.5
702.743	4.5
703.497	3.5
704.251	5.5
705.005	3.5
705.759	5.5
706.513	3.5
707.266	4.5
708.02	3.5
708.774	4.5
709.527	6.5
710.28	2.5
711.034	3.5
711.787	3.5
712.54	3.5
713.293	4.5
714.046	2.5
714.799	2.5
715.552	3.5
716.305	6.5
717.058	3.5
717.81	2.5
718.563	5.5
719.315	3.5
720.068	1.5
720.82	3.5
721.573	4.5
722.325	5.5
723.077	4.5
723.829	4.5
724.581	3.5
725.333	5.5
726.085	4.5
726.836	1.5
727.588	7.5
728.34	1.5
729.091	6.5
729.843	4.5
730.594	3.5
731.346	2.5
732.097	4.5
732.848	3.5
733.599	3.5
734.35	5.5
735.101	3.5
735.852	5.5
736.603	5.5
737.354	4.5
738.104	3.5
738.855	6.5
739.605	4.5
740.356	4.5
741.106	5.5
741.856	5.5
742.607	6.5
743.357	6.5
744.107	4.5
744.857	3.5
745.607	6.5
746.357	6.5
747.106	5.5
747.856	5.5
748.606	7.5
749.355	5.5
750.105	6.5
750.854	6.5
751.603	6.5
752.353	4.5
753.102	6.5
753.851	6.5
754.6	6.5
755.349	5.5
756.098	4.5
756.847	7.5
757.595	5.5
758.344	4.5
759.093	7.5
759.841	9.5
760.589	6.5
761.338	9.5
762.086	6.5
762.834	7.5
763.582	8.5
764.331	5.5
765.079	7.5
765.826	7.5
766.574	9.5
767.322	8.5
768.07	8.5
768.817	9.5
769.565	6.5
770.312	10.5
771.06	9.5
771.807	8.5
772.554	9.5
773.302	6.5
774.049	7.5
774.796	9.5
775.543	10.5
776.29	10.5
777.036	8.5
777.783	9.5
778.53	11.5
779.276	9.5
780.023	9.5
780.769	6.5
781.516	10.5
782.262	10.5
783.008	9.5
783.754	9.5
784.5	10.5
785.246	9.5
785.992	9.5
786.738	10.5
787.484	8.5
788.23	9.5
788.975	10.5
789.721	10.5
790.466	10.5
791.212	11.5
791.957	8.5
792.702	9.5
793.447	8.5
794.193	8.5
794.938	7.5
795.683	10.5
796.427	7.5
797.172	9.5
797.917	7.5
798.662	5.5
799.406	11.5
800.151	8.5
800.895	8.5
801.64	7.5
802.384	7.5
803.128	6.5
803.872	7.5
804.616	8.5
805.36	5.5
806.104	8.5
806.848	6.5
807.592	6.5
808.336	7.5
809.079	7.5
809.823	8.5
810.566	5.5
811.31	6.5
812.053	4.5
812.796	5.5
813.539	5.5
814.283	6.5
815.026	7.5
815.769	5.5
816.511	5.5
817.254	6.5
817.997	3.5
818.74	5.5
819.482	6.5
820.225	6.5
820.967	4.5
821.71	5.5
822.452	4.5
823.194	2.5
823.936	5.5
824.678	3.5
825.42	4.5
826.162	5.5
826.904	5.5
827.646	4.5
828.388	3.5
829.129	5.5
829.871	1.5
830.612	3.5
831.354	3.5
832.095	2.5
832.836	7.5
833.577	2.5
834.319	2.5
835.06	3.5
835.801	4.5
836.542	3.5
837.282	2.5
838.023	4.5
838.764	1.5
839.504	2.5
840.245	2.5
840.985	2.5
841.726	4.5
842.466	2.5
843.206	2.5
843.946	2.5
844.687	1.5
845.427	4.5
846.166	3.5
846.906	1.5
847.646	2.5
848.386	3.5
849.125	1.5
849.865	2.5
850.605	1.5
851.344	1.5
852.083	4.5
852.823	4.5
853.562	0.5
854.301	1.5
855.04	1.5
855.779	1.5
856.518	3.5
857.257	2.5
857.995	2.5
858.734	0.5
859.473	3.5
860.211	0.5
860.95	0.5
861.688	3.5
862.426	1.5
863.165	2.5
863.903	1.5
864.641	0.5
865.379	3.5
866.117	3.5
866.855	0.5
867.593	2.5
868.33	4.5
869.068	1.5
869.806	1.5
870.543	3.5
871.28	2.5
872.018	1.5
872.755	1.5
873.492	1.5
874.229	2.5
874.967	1.5
875.703	1.5
876.44	1.5
877.177	1.5
877.914	-0.5
878.651	-0.5
879.387	1.5
880.124	1.5
880.86	2.5
881.597	1.5
882.333	1.5
883.069	2.5
883.806	1.5
884.542	1.5
885.278	3.5
886.014	1.5
886.749	1.5
887.485	1.5
888.221	2.5
888.957	3.5
889.692	1.5
890.428	1.5
891.163	0.5
891.899	1.5
892.634	1.5
893.369	0.5
894.104	2.5
894.839	0.5
895.574	-0.5
896.309	2.5
897.044	1.5
897.779	0.5
898.514	1.5
899.248	0.5
899.983	1.5
900.717	0.5
901.452	0.5
902.186	0.5
902.92	1.5
903.654	3.5
904.389	1.5
905.123	-0.5
905.857	3.5
906.59	-0.5
907.324	2.5
908.058	1.5
908.792	-0.5
909.525	2.5
910.259	0.5
910.992	1.5
911.726	-0.5
912.459	1.5
913.192	-0.5
913.925	0.5
914.658	0.5
915.391	0.5
916.124	3.5
916.857	-0.5
917.59	-0.5
918.323	1.5
919.055	-0.5
919.788	1.5
920.521	-0.5
921.253	0.5
921.985	-1.5
922.718	1.5
923.45	-0.5
924.182	1.5
924.914	1.5
925.646	-0.5
926.378	-0.5
927.11	-0.5
927.841	1.5
928.573	-0.5
929.305	-1.5
930.036	1.5
930.768	0.5
931.499	0.5
932.23	0.5
932.962	0.5
933.693	-0.5
934.424	0.5
935.155	-0.5
935.886	-0.5
936.617	1.5
937.348	-0.5
938.078	-0.5
938.809	2.5
939.54	1.5
940.27	1.5
941.001	2.5
941.731	0.5
942.461	2.5
943.191	0.5
943.922	1.5
944.652	0.5
945.382	2.5
946.112	0.5
946.841	1.5
947.571	1.5
948.301	-1.5
949.031	0.5
949.76	0.5
950.49	-1.5
951.219	0.5
951.948	-0.5
952.678	0.5
953.407	1.5
954.136	2.5
954.865	2.5
955.594	0.5
956.323	1.5
957.052	-1.5
957.78	1.5
958.509	-0.5
959.238	0.5
959.966	0.5
960.695	-0.5
961.423	0.5
962.151	0.5
962.88	-1.5
963.608	1.5
964.336	-0.5
965.064	2.5
965.792	1.5
966.52	-1.5
967.247	1.5
967.975	0.5
968.703	0.5
969.43	1.5
970.158	1.5
970.885	0.5
971.613	1.5
972.34	1.5
973.067	1.5
973.794	1.5
974.521	0.5
975.248	0.5
975.975	-0.5
976.702	-0.5
977.429	2.5
978.156	-0.5
978.882	1.5
979.609	1.5
980.335	-0.5
981.062	2.5
981.788	0.5
982.514	0.5
983.24	0.5
983.967	0.5
984.693	1.5
985.419	1.5
986.144	1.5
986.87	0.5
987.596	1.5
988.322	0.5
989.047	2.5
989.773	2.5
990.498	-0.5
991.224	-1.5
991.949	-0.5
992.674	1.5
993.399	0.5
994.124	-0.5
994.849	1.5
995.574	0.5
996.299	-0.5
997.024	1.5
997.749	-0.5
998.473	1.5
999.198	-0.5
999.922	0.5
1000.647	0.5
1001.371	5.5
1002.095	-0.5
1002.82	-0.5
1003.544	-0.5
1004.268	2.5
1004.992	1.5
1005.716	0.5
1006.439	-0.5
1007.163	1.5
1007.887	0.5
1008.611	1.5
1009.334	0.5
1010.058	-1.5
1010.781	2.5
1011.504	1.5
1012.228	-0.5
1012.951	0.5
1013.674	-1.5
1014.397	-1.5
1015.12	-1.5
