节点500_285_QEPB04081__687__15-06-58-889.txt的数据

Date: Wed Nov 12 15:06:58 CST 2025
User: PC
Spectrometer: QEPB0408
触发模式: 0
积分时间 (秒): 1.000000E-2
Scans to average: 1
启用暗噪声校正: true
启用非线性校正: false
滑动平均宽度: 0
X轴模式: Wavelengths
Number of Pixels in Spectrum: 1044
>>>>>Begin Spectral Data<<<<<
220.843	2.25
221.644	3.25
222.444	0.25
223.244	2.25
224.045	4.25
224.845	2.25
225.645	2.25
226.445	1.25
227.245	2.25
228.045	3.25
228.845	2.25
229.645	3.25
230.444	1.25
231.244	5.25
232.043	3.25
232.843	2.25
233.642	2.25
234.442	1.25
235.241	3.25
236.04	3.25
236.839	6.25
237.638	5.25
238.437	5.25
239.236	2.25
240.035	4.25
240.833	4.25
241.632	4.25
242.43	5.25
243.229	5.25
244.027	4.25
244.826	3.25
245.624	5.25
246.422	5.25
247.22	7.25
248.018	5.25
248.816	7.25
249.614	4.25
250.412	9.25
251.21	7.25
252.007	6.25
252.805	7.25
253.602	6.25
254.4	6.25
255.197	9.25
255.994	8.25
256.791	7.25
257.589	8.25
258.386	9.25
259.183	8.25
259.979	9.25
260.776	9.25
261.573	13.25
262.37	10.25
263.166	7.25
263.963	9.25
264.759	9.25
265.556	11.25
266.352	11.25
267.148	12.25
267.944	11.25
268.74	12.25
269.536	12.25
270.332	11.25
271.128	13.25
271.924	13.25
272.719	17.25
273.515	14.25
274.311	12.25
275.106	15.25
275.901	15.25
276.697	16.25
277.492	15.25
278.287	15.25
279.082	16.25
279.877	17.25
280.672	19.25
281.467	18.25
282.262	15.25
283.056	18.25
283.851	17.25
284.646	14.25
285.44	21.25
286.234	16.25
287.029	18.25
287.823	16.25
288.617	18.25
289.411	17.25
290.205	18.25
290.999	16.25
291.793	16.25
292.587	18.25
293.381	15.25
294.174	16.25
294.968	15.25
295.761	17.25
296.555	12.25
297.348	14.25
298.141	14.25
298.935	14.25
299.728	16.25
300.521	16.25
301.314	13.25
302.107	13.25
302.899	12.25
303.692	14.25
304.485	12.25
305.277	13.25
306.07	8.25
306.862	13.25
307.655	12.25
308.447	12.25
309.239	11.25
310.031	12.25
310.823	9.25
311.615	10.25
312.407	10.25
313.199	9.25
313.991	11.25
314.783	9.25
315.574	9.25
316.366	9.25
317.157	7.25
317.949	9.25
318.74	9.25
319.531	9.25
320.322	7.25
321.113	8.25
321.904	9.25
322.695	8.25
323.486	9.25
324.277	7.25
325.068	8.25
325.858	6.25
326.649	9.25
327.439	10.25
328.23	7.25
329.02	7.25
329.81	5.25
330.6	7.25
331.391	8.25
332.181	5.25
332.971	6.25
333.76	6.25
334.55	8.25
335.34	6.25
336.13	5.25
336.919	7.25
337.709	7.25
338.498	8.25
339.287	5.25
340.077	6.25
340.866	6.25
341.655	8.25
342.444	4.25
343.233	4.25
344.022	5.25
344.811	6.25
345.6	5.25
346.388	6.25
347.177	5.25
347.965	6.25
348.754	4.25
349.542	8.25
350.33	5.25
351.119	6.25
351.907	6.25
352.695	6.25
353.483	7.25
354.271	5.25
355.059	4.25
355.846	4.25
356.634	6.25
357.422	7.25
358.209	4.25
358.997	4.25
359.784	7.25
360.571	6.25
361.359	7.25
362.146	4.25
362.933	6.25
363.72	3.25
364.507	5.25
365.294	4.25
366.081	5.25
366.867	5.25
367.654	2.25
368.44	4.25
369.227	5.25
370.013	6.25
370.8	5.25
371.586	4.25
372.372	5.25
373.158	4.25
373.944	4.25
374.73	4.25
375.516	4.25
376.302	7.25
377.088	7.25
377.873	5.25
378.659	1.25
379.445	4.25
380.23	4.25
381.015	4.25
381.801	5.25
382.586	5.25
383.371	6.25
384.156	7.25
384.941	5.25
385.726	2.25
386.511	5.25
387.296	4.25
388.08	4.25
388.865	5.25
389.649	8.25
390.434	4.25
391.218	5.25
392.003	6.25
392.787	4.25
393.571	5.25
394.355	8.25
395.139	5.25
395.923	6.25
396.707	7.25
397.491	4.25
398.274	7.25
399.058	6.25
399.842	7.25
400.625	7.25
401.408	5.25
402.192	7.25
402.975	4.25
403.758	8.25
404.541	7.25
405.324	8.25
406.107	7.25
406.89	7.25
407.673	7.25
408.456	7.25
409.238	8.25
410.021	9.25
410.803	9.25
411.586	10.25
412.368	9.25
413.151	8.25
413.933	10.25
414.715	8.25
415.497	10.25
416.279	10.25
417.061	11.25
417.843	8.25
418.624	9.25
419.406	8.25
420.188	9.25
420.969	9.25
421.751	12.25
422.532	13.25
423.313	9.25
424.095	11.25
424.876	10.25
425.657	11.25
426.438	15.25
427.219	10.25
428	12.25
428.78	12.25
429.561	16.25
430.342	14.25
431.122	14.25
431.903	18.25
432.683	15.25
433.464	14.25
434.244	14.25
435.024	14.25
435.804	17.25
436.584	22.25
437.364	18.25
438.144	18.25
438.924	21.25
439.704	22.25
440.483	23.25
441.263	23.25
442.042	25.25
442.822	26.25
443.601	29.25
444.38	30.25
445.16	31.25
445.939	36.25
446.718	38.25
447.497	41.25
448.276	44.25
449.054	44.25
449.833	54.25
450.612	55.25
451.391	60.25
452.169	69.25
452.948	68.25
453.726	80.25
454.504	89.25
455.282	99.25
456.061	112.25
456.839	119.25
457.617	137.25
458.395	150.25
459.172	164.25
459.95	183.25
460.728	204.25
461.506	226.25
462.283	255.25
463.061	279.25
463.838	312.25
464.615	348.25
465.393	384.25
466.17	426.25
466.947	475.25
467.724	537.25
468.501	597.25
469.278	656.25
470.055	729.25
470.831	794.25
471.608	892.25
472.385	970.25
473.161	1081.25
473.938	1206.25
474.714	1315.25
475.49	1443.25
476.266	1616.25
477.043	1761.25
477.819	1929.25
478.595	2126.25
479.371	2336.25
480.146	2554.25
480.922	2796.25
481.698	3059.25
482.473	3341.25
483.249	3673.25
484.024	4039.25
484.8	4392.25
485.575	4788.25
486.35	5250.25
487.126	5682.25
487.901	6203.25
488.676	6788.25
489.451	7366.25
490.225	8026.25
491	8699.25
491.775	9508.25
492.55	10295.25
493.324	11164.25
494.099	11990.25
494.873	12858.25
495.647	13804.25
496.422	14840.25
497.196	15852.25
497.97	16943.25
498.744	18010.25
499.518	19023.25
500.292	20099.25
501.066	21110.25
501.839	22041.25
502.613	22951.25
503.387	23798.25
504.16	24504.25
504.934	24986.25
505.707	25250.25
506.48	25479.25
507.253	25554.25
508.027	25604.25
508.8	25442.25
509.573	25208.25
510.346	24830.25
511.118	24310.25
511.891	23664.25
512.664	22989.25
513.437	22329.25
514.209	21415.25
514.982	20663.25
515.754	19857.25
516.526	19023.25
517.298	18239.25
518.071	17480.25
518.843	16886.25
519.615	16190.25
520.387	15584.25
521.159	15007.25
521.93	14300.25
522.702	13804.25
523.474	13208.25
524.245	12626.25
525.017	12117.25
525.788	11688.25
526.56	11150.25
527.331	10655.25
528.102	10166.25
528.873	9745.25
529.644	9280.25
530.415	8898.25
531.186	8441.25
531.957	7990.25
532.728	7637.25
533.498	7265.25
534.269	6833.25
535.039	6514.25
535.81	6147.25
536.58	5810.25
537.351	5441.25
538.121	5178.25
538.891	4916.25
539.661	4633.25
540.431	4365.25
541.201	4136.25
541.971	3927.25
542.741	3720.25
543.51	3538.25
544.28	3359.25
545.05	3213.25
545.819	3046.25
546.588	2869.25
547.358	2749.25
548.127	2609.25
548.896	2496.25
549.665	2372.25
550.434	2234.25
551.203	2104.25
551.972	2014.25
552.741	1916.25
553.51	1793.25
554.278	1711.25
555.047	1610.25
555.815	1518.25
556.584	1436.25
557.352	1355.25
558.121	1286.25
558.889	1226.25
559.657	1135.25
560.425	1085.25
561.193	1018.25
561.961	946.25
562.729	902.25
563.496	855.25
564.264	811.25
565.032	781.25
565.799	720.25
566.567	694.25
567.334	650.25
568.101	613.25
568.869	573.25
569.636	549.25
570.403	508.25
571.17	481.25
571.937	459.25
572.704	430.25
573.471	405.25
574.237	388.25
575.004	364.25
575.771	346.25
576.537	329.25
577.303	301.25
578.07	286.25
578.836	267.25
579.602	252.25
580.368	237.25
581.134	228.25
581.9	219.25
582.666	201.25
583.432	186.25
584.198	184.25
584.964	179.25
585.729	165.25
586.495	160.25
587.26	150.25
588.025	143.25
588.791	131.25
589.556	129.25
590.321	120.25
591.086	114.25
591.851	105.25
592.616	105.25
593.381	98.25
594.146	93.25
594.911	89.25
595.675	84.25
596.44	78.25
597.204	76.25
597.969	73.25
598.733	73.25
599.497	68.25
600.261	64.25
601.025	59.25
601.79	60.25
602.553	57.25
603.317	52.25
604.081	52.25
604.845	45.25
605.609	45.25
606.372	47.25
607.136	44.25
607.899	39.25
608.662	39.25
609.426	38.25
610.189	37.25
610.952	35.25
611.715	33.25
612.478	31.25
613.241	32.25
614.004	30.25
614.767	28.25
615.529	26.25
616.292	26.25
617.055	28.25
617.817	26.25
618.579	22.25
619.342	25.25
620.104	23.25
620.866	21.25
621.628	20.25
622.39	19.25
623.152	18.25
623.914	18.25
624.676	17.25
625.438	18.25
626.199	18.25
626.961	17.25
627.722	16.25
628.484	15.25
629.245	13.25
630.006	14.25
630.768	13.25
631.529	14.25
632.29	11.25
633.051	14.25
633.812	10.25
634.573	10.25
635.333	13.25
636.094	12.25
636.855	10.25
637.615	10.25
638.376	10.25
639.136	10.25
639.896	10.25
640.657	10.25
641.417	9.25
642.177	9.25
642.937	9.25
643.697	10.25
644.457	8.25
645.216	10.25
645.976	9.25
646.736	7.25
647.495	8.25
648.255	7.25
649.014	7.25
649.774	6.25
650.533	10.25
651.292	9.25
652.051	6.25
652.81	7.25
653.569	5.25
654.328	8.25
655.087	6.25
655.846	9.25
656.604	7.25
657.363	6.25
658.121	5.25
658.88	5.25
659.638	8.25
660.397	6.25
661.155	6.25
661.913	5.25
662.671	5.25
663.429	6.25
664.187	5.25
664.945	4.25
665.703	2.25
666.46	5.25
667.218	5.25
667.976	5.25
668.733	7.25
669.49	5.25
670.248	5.25
671.005	6.25
671.762	4.25
672.519	4.25
673.276	2.25
674.033	3.25
674.79	4.25
675.547	4.25
676.304	2.25
677.06	6.25
677.817	6.25
678.574	3.25
679.33	5.25
680.086	4.25
680.843	6.25
681.599	4.25
682.355	4.25
683.111	4.25
683.867	3.25
684.623	5.25
685.379	4.25
686.135	4.25
686.89	4.25
687.646	5.25
688.402	4.25
689.157	3.25
689.912	3.25
690.668	3.25
691.423	4.25
692.178	2.25
692.933	4.25
693.688	5.25
694.443	4.25
695.198	4.25
695.953	4.25
696.708	3.25
697.462	3.25
698.217	5.25
698.972	3.25
699.726	4.25
700.48	4.25
701.235	3.25
701.989	4.25
702.743	5.25
703.497	4.25
704.251	5.25
705.005	3.25
705.759	4.25
706.513	2.25
707.266	2.25
708.02	4.25
708.774	2.25
709.527	3.25
710.28	5.25
711.034	4.25
711.787	2.25
712.54	3.25
713.293	4.25
714.046	2.25
714.799	3.25
715.552	3.25
716.305	4.25
717.058	3.25
717.81	4.25
718.563	2.25
719.315	3.25
720.068	3.25
720.82	4.25
721.573	4.25
722.325	5.25
723.077	4.25
723.829	5.25
724.581	4.25
725.333	3.25
726.085	4.25
726.836	5.25
727.588	5.25
728.34	5.25
729.091	4.25
729.843	4.25
730.594	2.25
731.346	3.25
732.097	4.25
732.848	2.25
733.599	2.25
734.35	4.25
735.101	6.25
735.852	3.25
736.603	3.25
737.354	4.25
738.104	5.25
738.855	4.25
739.605	5.25
740.356	3.25
741.106	6.25
741.856	4.25
742.607	3.25
743.357	3.25
744.107	5.25
744.857	4.25
745.607	4.25
746.357	4.25
747.106	3.25
747.856	3.25
748.606	5.25
749.355	4.25
750.105	5.25
750.854	5.25
751.603	6.25
752.353	6.25
753.102	4.25
753.851	5.25
754.6	5.25
755.349	2.25
756.098	6.25
756.847	3.25
757.595	5.25
758.344	6.25
759.093	6.25
759.841	4.25
760.589	5.25
761.338	5.25
762.086	6.25
762.834	7.25
763.582	5.25
764.331	7.25
765.079	4.25
765.826	5.25
766.574	7.25
767.322	6.25
768.07	8.25
768.817	6.25
769.565	7.25
770.312	4.25
771.06	5.25
771.807	6.25
772.554	7.25
773.302	6.25
774.049	7.25
774.796	8.25
775.543	8.25
776.29	7.25
777.036	8.25
777.783	11.25
778.53	7.25
779.276	9.25
780.023	10.25
780.769	11.25
781.516	9.25
782.262	9.25
783.008	6.25
783.754	8.25
784.5	8.25
785.246	7.25
785.992	9.25
786.738	7.25
787.484	12.25
788.23	8.25
788.975	8.25
789.721	8.25
790.466	7.25
791.212	10.25
791.957	6.25
792.702	8.25
793.447	7.25
794.193	6.25
794.938	6.25
795.683	8.25
796.427	7.25
797.172	8.25
797.917	7.25
798.662	8.25
799.406	8.25
800.151	7.25
800.895	6.25
801.64	7.25
802.384	7.25
803.128	7.25
803.872	7.25
804.616	6.25
805.36	6.25
806.104	5.25
806.848	6.25
807.592	7.25
808.336	6.25
809.079	4.25
809.823	5.25
810.566	6.25
811.31	6.25
812.053	5.25
812.796	7.25
813.539	4.25
814.283	5.25
815.026	3.25
815.769	4.25
816.511	6.25
817.254	6.25
817.997	6.25
818.74	5.25
819.482	5.25
820.225	4.25
820.967	5.25
821.71	4.25
822.452	4.25
823.194	4.25
823.936	2.25
824.678	6.25
825.42	3.25
826.162	4.25
826.904	3.25
827.646	7.25
828.388	1.25
829.129	3.25
829.871	4.25
830.612	2.25
831.354	4.25
832.095	6.25
832.836	5.25
833.577	4.25
834.319	2.25
835.06	3.25
835.801	3.25
836.542	5.25
837.282	4.25
838.023	4.25
838.764	5.25
839.504	6.25
840.245	5.25
840.985	4.25
841.726	3.25
842.466	4.25
843.206	2.25
843.946	3.25
844.687	3.25
845.427	5.25
846.166	3.25
846.906	3.25
847.646	2.25
848.386	3.25
849.125	3.25
849.865	2.25
850.605	4.25
851.344	2.25
852.083	1.25
852.823	2.25
853.562	1.25
854.301	2.25
855.04	2.25
855.779	3.25
856.518	3.25
857.257	2.25
857.995	3.25
858.734	3.25
859.473	2.25
860.211	2.25
860.95	2.25
861.688	1.25
862.426	3.25
863.165	2.25
863.903	2.25
864.641	2.25
865.379	4.25
866.117	-1.75
866.855	2.25
867.593	1.25
868.33	2.25
869.068	1.25
869.806	3.25
870.543	2.25
871.28	1.25
872.018	3.25
872.755	2.25
873.492	3.25
874.229	1.25
874.967	2.25
875.703	2.25
876.44	2.25
877.177	2.25
877.914	1.25
878.651	2.25
879.387	2.25
880.124	3.25
880.86	1.25
881.597	0.25
882.333	3.25
883.069	0.25
883.806	3.25
884.542	2.25
885.278	1.25
886.014	1.25
886.749	1.25
887.485	-0.75
888.221	2.25
888.957	1.25
889.692	0.25
890.428	-0.75
891.163	1.25
891.899	1.25
892.634	2.25
893.369	0.25
894.104	-0.75
894.839	2.25
895.574	1.25
896.309	0.25
897.044	1.25
897.779	0.25
898.514	1.25
899.248	1.25
899.983	2.25
900.717	1.25
901.452	2.25
902.186	-0.75
902.92	0.25
903.654	1.25
904.389	-1.75
905.123	1.25
905.857	1.25
906.59	1.25
907.324	3.25
908.058	2.25
908.792	2.25
909.525	-0.75
910.259	2.25
910.992	0.25
911.726	-0.75
912.459	0.25
913.192	0.25
913.925	2.25
914.658	1.25
915.391	0.25
916.124	1.25
916.857	4.25
917.59	-0.75
918.323	0.25
919.055	0.25
919.788	-0.75
920.521	2.25
921.253	0.25
921.985	-0.75
922.718	0.25
923.45	0.25
924.182	0.25
924.914	-1.75
925.646	1.25
926.378	0.25
927.11	1.25
927.841	0.25
928.573	-0.75
929.305	2.25
930.036	-1.75
930.768	1.25
931.499	2.25
932.23	0.25
932.962	0.25
933.693	2.25
934.424	1.25
935.155	1.25
935.886	0.25
936.617	0.25
937.348	-1.75
938.078	2.25
938.809	0.25
939.54	1.25
940.27	1.25
941.001	-0.75
941.731	2.25
942.461	0.25
943.191	1.25
943.922	-1.75
944.652	0.25
945.382	0.25
946.112	1.25
946.841	1.25
947.571	-0.75
948.301	0.25
949.031	-0.75
949.76	0.25
950.49	1.25
951.219	2.25
951.948	0.25
952.678	-0.75
953.407	1.25
954.136	0.25
954.865	2.25
955.594	1.25
956.323	1.25
957.052	0.25
957.78	-0.75
958.509	-0.75
959.238	0.25
959.966	1.25
960.695	-1.75
961.423	-0.75
962.151	0.25
962.88	0.25
963.608	2.25
964.336	-0.75
965.064	1.25
965.792	0.25
966.52	0.25
967.247	3.25
967.975	0.25
968.703	3.25
969.43	-1.75
970.158	0.25
970.885	1.25
971.613	0.25
972.34	1.25
973.067	0.25
973.794	0.25
974.521	0.25
975.248	-0.75
975.975	1.25
976.702	1.25
977.429	-1.75
978.156	0.25
978.882	0.25
979.609	0.25
980.335	-0.75
981.062	0.25
981.788	1.25
982.514	1.25
983.24	-0.75
983.967	0.25
984.693	0.25
985.419	0.25
986.144	1.25
986.87	-1.75
987.596	1.25
988.322	-1.75
989.047	1.25
989.773	0.25
990.498	1.25
991.224	2.25
991.949	-1.75
992.674	2.25
993.399	1.25
994.124	-1.75
994.849	0.25
995.574	2.25
996.299	1.25
997.024	-0.75
997.749	0.25
998.473	-1.75
999.198	-0.75
999.922	2.25
1000.647	-0.75
1001.371	2.25
1002.095	-1.75
1002.82	0.25
1003.544	-0.75
1004.268	2.25
1004.992	2.25
1005.716	-0.75
1006.439	0.25
1007.163	0.25
1007.887	3.25
1008.611	0.25
1009.334	-1.75
1010.058	0.25
1010.781	0.25
1011.504	0.25
1012.228	-0.75
1012.951	-0.75
1013.674	0.25
1014.397	0.25
1015.12	0.25
