节点500_285_QEPB04081__816__15-09-07-728.txt的数据

Date: Wed Nov 12 15:09:07 CST 2025
User: PC
Spectrometer: QEPB0408
触发模式: 0
积分时间 (秒): 1.000000E-2
Scans to average: 1
启用暗噪声校正: true
启用非线性校正: false
滑动平均宽度: 0
X轴模式: Wavelengths
Number of Pixels in Spectrum: 1044
>>>>>Begin Spectral Data<<<<<
220.843	3.12
221.644	2.12
222.444	1.12
223.244	3.12
224.045	3.12
224.845	-0.88
225.645	3.12
226.445	4.12
227.245	1.12
228.045	4.12
228.845	3.12
229.645	1.12
230.444	3.12
231.244	2.12
232.043	2.12
232.843	3.12
233.642	4.12
234.442	2.12
235.241	2.12
236.04	3.12
236.839	4.12
237.638	4.12
238.437	5.12
239.236	3.12
240.035	5.12
240.833	3.12
241.632	4.12
242.43	5.12
243.229	3.12
244.027	6.12
244.826	5.12
245.624	6.12
246.422	3.12
247.22	4.12
248.018	4.12
248.816	5.12
249.614	7.12
250.412	5.12
251.21	5.12
252.007	6.12
252.805	6.12
253.602	6.12
254.4	6.12
255.197	6.12
255.994	5.12
256.791	8.12
257.589	7.12
258.386	10.12
259.183	9.12
259.979	9.12
260.776	7.12
261.573	8.12
262.37	10.12
263.166	9.12
263.963	13.12
264.759	11.12
265.556	12.12
266.352	10.12
267.148	11.12
267.944	13.12
268.74	10.12
269.536	12.12
270.332	12.12
271.128	14.12
271.924	13.12
272.719	15.12
273.515	14.12
274.311	17.12
275.106	18.12
275.901	13.12
276.697	13.12
277.492	13.12
278.287	14.12
279.082	14.12
279.877	17.12
280.672	14.12
281.467	15.12
282.262	15.12
283.056	16.12
283.851	17.12
284.646	19.12
285.44	17.12
286.234	15.12
287.029	19.12
287.823	19.12
288.617	18.12
289.411	19.12
290.205	17.12
290.999	20.12
291.793	16.12
292.587	19.12
293.381	17.12
294.174	17.12
294.968	16.12
295.761	14.12
296.555	14.12
297.348	12.12
298.141	17.12
298.935	16.12
299.728	14.12
300.521	14.12
301.314	13.12
302.107	11.12
302.899	15.12
303.692	11.12
304.485	14.12
305.277	14.12
306.07	13.12
306.862	12.12
307.655	11.12
308.447	10.12
309.239	13.12
310.031	12.12
310.823	10.12
311.615	10.12
312.407	10.12
313.199	9.12
313.991	11.12
314.783	9.12
315.574	10.12
316.366	9.12
317.157	9.12
317.949	9.12
318.74	8.12
319.531	7.12
320.322	9.12
321.113	10.12
321.904	5.12
322.695	8.12
323.486	7.12
324.277	6.12
325.068	7.12
325.858	8.12
326.649	6.12
327.439	8.12
328.23	6.12
329.02	7.12
329.81	7.12
330.6	8.12
331.391	7.12
332.181	5.12
332.971	6.12
333.76	7.12
334.55	7.12
335.34	7.12
336.13	7.12
336.919	6.12
337.709	6.12
338.498	4.12
339.287	6.12
340.077	6.12
340.866	6.12
341.655	5.12
342.444	7.12
343.233	9.12
344.022	7.12
344.811	7.12
345.6	5.12
346.388	7.12
347.177	6.12
347.965	7.12
348.754	5.12
349.542	7.12
350.33	4.12
351.119	4.12
351.907	6.12
352.695	4.12
353.483	5.12
354.271	7.12
355.059	7.12
355.846	5.12
356.634	5.12
357.422	6.12
358.209	4.12
358.997	6.12
359.784	7.12
360.571	5.12
361.359	6.12
362.146	4.12
362.933	5.12
363.72	6.12
364.507	6.12
365.294	5.12
366.081	5.12
366.867	5.12
367.654	6.12
368.44	3.12
369.227	5.12
370.013	5.12
370.8	4.12
371.586	4.12
372.372	6.12
373.158	6.12
373.944	3.12
374.73	4.12
375.516	2.12
376.302	7.12
377.088	4.12
377.873	7.12
378.659	4.12
379.445	7.12
380.23	5.12
381.015	3.12
381.801	4.12
382.586	7.12
383.371	6.12
384.156	4.12
384.941	5.12
385.726	5.12
386.511	4.12
387.296	6.12
388.08	3.12
388.865	5.12
389.649	5.12
390.434	3.12
391.218	5.12
392.003	4.12
392.787	8.12
393.571	6.12
394.355	7.12
395.139	5.12
395.923	6.12
396.707	7.12
397.491	6.12
398.274	6.12
399.058	7.12
399.842	5.12
400.625	6.12
401.408	7.12
402.192	8.12
402.975	7.12
403.758	6.12
404.541	7.12
405.324	7.12
406.107	10.12
406.89	6.12
407.673	7.12
408.456	7.12
409.238	7.12
410.021	8.12
410.803	8.12
411.586	7.12
412.368	8.12
413.151	8.12
413.933	9.12
414.715	7.12
415.497	10.12
416.279	7.12
417.061	8.12
417.843	11.12
418.624	10.12
419.406	11.12
420.188	9.12
420.969	10.12
421.751	9.12
422.532	10.12
423.313	9.12
424.095	10.12
424.876	9.12
425.657	13.12
426.438	12.12
427.219	11.12
428	13.12
428.78	12.12
429.561	13.12
430.342	14.12
431.122	14.12
431.903	16.12
432.683	14.12
433.464	15.12
434.244	15.12
435.024	20.12
435.804	16.12
436.584	18.12
437.364	19.12
438.144	20.12
438.924	21.12
439.704	20.12
440.483	21.12
441.263	24.12
442.042	24.12
442.822	26.12
443.601	27.12
444.38	29.12
445.16	29.12
445.939	35.12
446.718	39.12
447.497	42.12
448.276	46.12
449.054	48.12
449.833	52.12
450.612	57.12
451.391	61.12
452.169	68.12
452.948	76.12
453.726	80.12
454.504	90.12
455.282	101.12
456.061	113.12
456.839	123.12
457.617	142.12
458.395	153.12
459.172	167.12
459.95	192.12
460.728	205.12
461.506	230.12
462.283	259.12
463.061	294.12
463.838	317.12
464.615	368.12
465.393	397.12
466.17	437.12
466.947	491.12
467.724	541.12
468.501	609.12
469.278	667.12
470.055	757.12
470.831	810.12
471.608	901.12
472.385	1004.12
473.161	1109.12
473.938	1228.12
474.714	1339.12
475.49	1468.12
476.266	1617.12
477.043	1764.12
477.819	1941.12
478.595	2128.12
479.371	2286.12
480.146	2552.12
480.922	2784.12
481.698	3050.12
482.473	3340.12
483.249	3653.12
484.024	3960.12
484.8	4336.12
485.575	4713.12
486.35	5145.12
487.126	5611.12
487.901	6123.12
488.676	6637.12
489.451	7222.12
490.225	7821.12
491	8492.12
491.775	9236.12
492.55	9998.12
493.324	10787.12
494.099	11544.12
494.873	12421.12
495.647	13378.12
496.422	14274.12
497.196	15254.12
497.97	16302.12
498.744	17384.12
499.518	18356.12
500.292	19409.12
501.066	20402.12
501.839	21254.12
502.613	22222.12
503.387	23004.12
504.16	23748.12
504.934	24288.12
505.707	24550.12
506.48	24803.12
507.253	25062.12
508.027	25071.12
508.8	25019.12
509.573	24883.12
510.346	24464.12
511.118	24025.12
511.891	23445.12
512.664	22922.12
513.437	22152.12
514.209	21461.12
514.982	20640.12
515.754	19871.12
516.526	19054.12
517.298	18293.12
518.071	17560.12
518.843	16911.12
519.615	16285.12
520.387	15654.12
521.159	15065.12
521.93	14377.12
522.702	13877.12
523.474	13282.12
524.245	12686.12
525.017	12223.12
525.788	11786.12
526.56	11233.12
527.331	10723.12
528.102	10295.12
528.873	9802.12
529.644	9386.12
530.415	8969.12
531.186	8543.12
531.957	8079.12
532.728	7755.12
533.498	7360.12
534.269	6970.12
535.039	6623.12
535.81	6236.12
536.58	5911.12
537.351	5560.12
538.121	5257.12
538.891	5003.12
539.661	4711.12
540.431	4493.12
541.201	4202.12
541.971	3972.12
542.741	3806.12
543.51	3569.12
544.28	3415.12
545.05	3275.12
545.819	3106.12
546.588	2937.12
547.358	2792.12
548.127	2668.12
548.896	2521.12
549.665	2419.12
550.434	2283.12
551.203	2149.12
551.972	2042.12
552.741	1924.12
553.51	1841.12
554.278	1729.12
555.047	1639.12
555.815	1536.12
556.584	1474.12
557.352	1381.12
558.121	1330.12
558.889	1249.12
559.657	1172.12
560.425	1103.12
561.193	1026.12
561.961	990.12
562.729	931.12
563.496	879.12
564.264	830.12
565.032	780.12
565.799	744.12
566.567	699.12
567.334	671.12
568.101	630.12
568.869	590.12
569.636	562.12
570.403	530.12
571.17	491.12
571.937	464.12
572.704	432.12
573.471	419.12
574.237	397.12
575.004	376.12
575.771	346.12
576.537	328.12
577.303	313.12
578.07	293.12
578.836	279.12
579.602	252.12
580.368	247.12
581.134	235.12
581.9	220.12
582.666	203.12
583.432	200.12
584.198	193.12
584.964	177.12
585.729	168.12
586.495	158.12
587.26	153.12
588.025	146.12
588.791	137.12
589.556	130.12
590.321	121.12
591.086	113.12
591.851	112.12
592.616	104.12
593.381	100.12
594.146	96.12
594.911	92.12
595.675	84.12
596.44	79.12
597.204	75.12
597.969	74.12
598.733	70.12
599.497	68.12
600.261	65.12
601.025	60.12
601.79	60.12
602.553	55.12
603.317	53.12
604.081	51.12
604.845	51.12
605.609	48.12
606.372	43.12
607.136	46.12
607.899	43.12
608.662	42.12
609.426	39.12
610.189	36.12
610.952	37.12
611.715	36.12
612.478	32.12
613.241	32.12
614.004	30.12
614.767	27.12
615.529	30.12
616.292	24.12
617.055	25.12
617.817	27.12
618.579	24.12
619.342	23.12
620.104	24.12
620.866	22.12
621.628	21.12
622.39	18.12
623.152	18.12
623.914	21.12
624.676	19.12
625.438	16.12
626.199	14.12
626.961	17.12
627.722	16.12
628.484	15.12
629.245	14.12
630.006	14.12
630.768	16.12
631.529	13.12
632.29	14.12
633.051	14.12
633.812	14.12
634.573	10.12
635.333	12.12
636.094	11.12
636.855	10.12
637.615	11.12
638.376	11.12
639.136	10.12
639.896	13.12
640.657	9.12
641.417	7.12
642.177	8.12
642.937	8.12
643.697	9.12
644.457	9.12
645.216	9.12
645.976	8.12
646.736	10.12
647.495	7.12
648.255	7.12
649.014	7.12
649.774	7.12
650.533	7.12
651.292	7.12
652.051	9.12
652.81	6.12
653.569	7.12
654.328	8.12
655.087	3.12
655.846	7.12
656.604	4.12
657.363	6.12
658.121	7.12
658.88	6.12
659.638	5.12
660.397	6.12
661.155	5.12
661.913	5.12
662.671	5.12
663.429	5.12
664.187	4.12
664.945	6.12
665.703	4.12
666.46	4.12
667.218	5.12
667.976	5.12
668.733	5.12
669.49	3.12
670.248	7.12
671.005	5.12
671.762	4.12
672.519	7.12
673.276	4.12
674.033	5.12
674.79	4.12
675.547	6.12
676.304	2.12
677.06	5.12
677.817	3.12
678.574	3.12
679.33	5.12
680.086	4.12
680.843	5.12
681.599	1.12
682.355	1.12
683.111	5.12
683.867	3.12
684.623	3.12
685.379	1.12
686.135	4.12
686.89	3.12
687.646	5.12
688.402	6.12
689.157	3.12
689.912	5.12
690.668	3.12
691.423	5.12
692.178	2.12
692.933	3.12
693.688	3.12
694.443	4.12
695.198	4.12
695.953	2.12
696.708	4.12
697.462	3.12
698.217	3.12
698.972	2.12
699.726	2.12
700.48	2.12
701.235	3.12
701.989	3.12
702.743	4.12
703.497	4.12
704.251	4.12
705.005	3.12
705.759	2.12
706.513	2.12
707.266	2.12
708.02	2.12
708.774	3.12
709.527	1.12
710.28	1.12
711.034	4.12
711.787	5.12
712.54	2.12
713.293	5.12
714.046	4.12
714.799	5.12
715.552	2.12
716.305	5.12
717.058	5.12
717.81	5.12
718.563	3.12
719.315	5.12
720.068	2.12
720.82	4.12
721.573	6.12
722.325	3.12
723.077	4.12
723.829	6.12
724.581	1.12
725.333	2.12
726.085	3.12
726.836	4.12
727.588	4.12
728.34	4.12
729.091	3.12
729.843	2.12
730.594	6.12
731.346	3.12
732.097	4.12
732.848	4.12
733.599	2.12
734.35	3.12
735.101	2.12
735.852	5.12
736.603	3.12
737.354	6.12
738.104	2.12
738.855	2.12
739.605	5.12
740.356	4.12
741.106	5.12
741.856	5.12
742.607	3.12
743.357	4.12
744.107	4.12
744.857	3.12
745.607	3.12
746.357	5.12
747.106	5.12
747.856	5.12
748.606	3.12
749.355	4.12
750.105	5.12
750.854	4.12
751.603	5.12
752.353	4.12
753.102	4.12
753.851	3.12
754.6	5.12
755.349	6.12
756.098	5.12
756.847	3.12
757.595	6.12
758.344	6.12
759.093	5.12
759.841	5.12
760.589	5.12
761.338	7.12
762.086	4.12
762.834	4.12
763.582	2.12
764.331	9.12
765.079	7.12
765.826	5.12
766.574	6.12
767.322	6.12
768.07	5.12
768.817	6.12
769.565	5.12
770.312	6.12
771.06	6.12
771.807	8.12
772.554	7.12
773.302	8.12
774.049	9.12
774.796	7.12
775.543	7.12
776.29	6.12
777.036	7.12
777.783	9.12
778.53	10.12
779.276	6.12
780.023	8.12
780.769	6.12
781.516	8.12
782.262	9.12
783.008	8.12
783.754	7.12
784.5	9.12
785.246	7.12
785.992	6.12
786.738	8.12
787.484	6.12
788.23	6.12
788.975	8.12
789.721	10.12
790.466	7.12
791.212	9.12
791.957	9.12
792.702	8.12
793.447	7.12
794.193	8.12
794.938	8.12
795.683	10.12
796.427	8.12
797.172	8.12
797.917	7.12
798.662	6.12
799.406	8.12
800.151	7.12
800.895	7.12
801.64	7.12
802.384	7.12
803.128	7.12
803.872	7.12
804.616	6.12
805.36	6.12
806.104	7.12
806.848	6.12
807.592	7.12
808.336	5.12
809.079	2.12
809.823	5.12
810.566	6.12
811.31	4.12
812.053	5.12
812.796	4.12
813.539	7.12
814.283	6.12
815.026	4.12
815.769	3.12
816.511	6.12
817.254	7.12
817.997	6.12
818.74	5.12
819.482	5.12
820.225	4.12
820.967	4.12
821.71	3.12
822.452	6.12
823.194	6.12
823.936	5.12
824.678	4.12
825.42	2.12
826.162	4.12
826.904	4.12
827.646	5.12
828.388	3.12
829.129	1.12
829.871	4.12
830.612	3.12
831.354	3.12
832.095	2.12
832.836	3.12
833.577	4.12
834.319	2.12
835.06	3.12
835.801	3.12
836.542	5.12
837.282	4.12
838.023	4.12
838.764	4.12
839.504	5.12
840.245	4.12
840.985	5.12
841.726	2.12
842.466	4.12
843.206	3.12
843.946	4.12
844.687	3.12
845.427	4.12
846.166	3.12
846.906	4.12
847.646	4.12
848.386	4.12
849.125	0.12
849.865	3.12
850.605	3.12
851.344	4.12
852.083	3.12
852.823	2.12
853.562	1.12
854.301	1.12
855.04	2.12
855.779	2.12
856.518	-0.88
857.257	4.12
857.995	3.12
858.734	3.12
859.473	2.12
860.211	2.12
860.95	4.12
861.688	3.12
862.426	2.12
863.165	4.12
863.903	2.12
864.641	5.12
865.379	0.12
866.117	0.12
866.855	2.12
867.593	-0.88
868.33	1.12
869.068	2.12
869.806	3.12
870.543	-0.88
871.28	2.12
872.018	-1.88
872.755	3.12
873.492	1.12
874.229	3.12
874.967	0.12
875.703	1.12
876.44	1.12
877.177	0.12
877.914	0.12
878.651	3.12
879.387	1.12
880.124	4.12
880.86	1.12
881.597	1.12
882.333	2.12
883.069	1.12
883.806	-0.88
884.542	1.12
885.278	0.12
886.014	0.12
886.749	-0.88
887.485	2.12
888.221	1.12
888.957	1.12
889.692	-1.88
890.428	1.12
891.163	1.12
891.899	0.12
892.634	-0.88
893.369	0.12
894.104	1.12
894.839	1.12
895.574	3.12
896.309	0.12
897.044	2.12
897.779	-0.88
898.514	0.12
899.248	1.12
899.983	1.12
900.717	2.12
901.452	2.12
902.186	1.12
902.92	1.12
903.654	0.12
904.389	1.12
905.123	1.12
905.857	-0.88
906.59	1.12
907.324	1.12
908.058	1.12
908.792	0.12
909.525	-1.88
910.259	0.12
910.992	1.12
911.726	2.12
912.459	0.12
913.192	0.12
913.925	-0.88
914.658	2.12
915.391	-0.88
916.124	0.12
916.857	1.12
917.59	0.12
918.323	1.12
919.055	2.12
919.788	0.12
920.521	1.12
921.253	1.12
921.985	2.12
922.718	-0.88
923.45	0.12
924.182	-0.88
924.914	-0.88
925.646	-0.88
926.378	1.12
927.11	1.12
927.841	-1.88
928.573	2.12
929.305	0.12
930.036	1.12
930.768	-1.88
931.499	1.12
932.23	1.12
932.962	0.12
933.693	0.12
934.424	0.12
935.155	0.12
935.886	0.12
936.617	0.12
937.348	0.12
938.078	-0.88
938.809	0.12
939.54	2.12
940.27	0.12
941.001	1.12
941.731	0.12
942.461	2.12
943.191	0.12
943.922	2.12
944.652	2.12
945.382	0.12
946.112	1.12
946.841	0.12
947.571	-1.88
948.301	-0.88
949.031	0.12
949.76	-0.88
950.49	0.12
951.219	2.12
951.948	1.12
952.678	-0.88
953.407	1.12
954.136	-0.88
954.865	1.12
955.594	-1.88
956.323	-1.88
957.052	1.12
957.78	2.12
958.509	0.12
959.238	2.12
959.966	1.12
960.695	-0.88
961.423	0.12
962.151	-1.88
962.88	0.12
963.608	0.12
964.336	-0.88
965.064	1.12
965.792	0.12
966.52	1.12
967.247	-0.88
967.975	2.12
968.703	1.12
969.43	-0.88
970.158	-0.88
970.885	1.12
971.613	1.12
972.34	1.12
973.067	0.12
973.794	1.12
974.521	-0.88
975.248	-0.88
975.975	-0.88
976.702	0.12
977.429	3.12
978.156	1.12
978.882	1.12
979.609	2.12
980.335	1.12
981.062	0.12
981.788	-0.88
982.514	0.12
983.24	-1.88
983.967	1.12
984.693	-0.88
985.419	2.12
986.144	-1.88
986.87	1.12
987.596	0.12
988.322	3.12
989.047	1.12
989.773	0.12
990.498	-1.88
991.224	1.12
991.949	2.12
992.674	0.12
993.399	3.12
994.124	0.12
994.849	-0.88
995.574	-1.88
996.299	0.12
997.024	1.12
997.749	1.12
998.473	1.12
999.198	-0.88
999.922	-0.88
1000.647	2.12
1001.371	3.12
1002.095	-1.88
1002.82	-1.88
1003.544	0.12
1004.268	1.12
1004.992	2.12
1005.716	1.12
1006.439	1.12
1007.163	1.12
1007.887	1.12
1008.611	0.12
1009.334	-0.88
1010.058	-0.88
1010.781	-0.88
1011.504	2.12
1012.228	1.12
1012.951	1.12
1013.674	-0.88
1014.397	0.12
1015.12	0.12
