节点500_285_QEPB04081__33__14-56-07-414.txt的数据

Date: Wed Nov 12 14:56:07 CST 2025
User: PC
Spectrometer: QEPB0408
触发模式: 0
积分时间 (秒): 1.000000E-2
Scans to average: 1
启用暗噪声校正: true
启用非线性校正: false
滑动平均宽度: 0
X轴模式: Wavelengths
Number of Pixels in Spectrum: 1044
>>>>>Begin Spectral Data<<<<<
220.843	1.25
221.644	1.25
222.444	4.25
223.244	1.25
224.045	3.25
224.845	2.25
225.645	1.25
226.445	2.25
227.245	2.25
228.045	3.25
228.845	5.25
229.645	3.25
230.444	2.25
231.244	4.25
232.043	4.25
232.843	3.25
233.642	1.25
234.442	5.25
235.241	4.25
236.04	4.25
236.839	4.25
237.638	4.25
238.437	1.25
239.236	4.25
240.035	6.25
240.833	4.25
241.632	5.25
242.43	2.25
243.229	6.25
244.027	7.25
244.826	3.25
245.624	5.25
246.422	8.25
247.22	6.25
248.018	6.25
248.816	7.25
249.614	8.25
250.412	6.25
251.21	7.25
252.007	7.25
252.805	6.25
253.602	6.25
254.4	9.25
255.197	8.25
255.994	8.25
256.791	9.25
257.589	9.25
258.386	10.25
259.183	9.25
259.979	9.25
260.776	13.25
261.573	11.25
262.37	10.25
263.166	12.25
263.963	12.25
264.759	11.25
265.556	13.25
266.352	10.25
267.148	13.25
267.944	15.25
268.74	15.25
269.536	15.25
270.332	17.25
271.128	15.25
271.924	15.25
272.719	17.25
273.515	17.25
274.311	17.25
275.106	17.25
275.901	17.25
276.697	17.25
277.492	18.25
278.287	19.25
279.082	19.25
279.877	21.25
280.672	21.25
281.467	19.25
282.262	20.25
283.056	17.25
283.851	19.25
284.646	21.25
285.44	19.25
286.234	20.25
287.029	20.25
287.823	17.25
288.617	18.25
289.411	19.25
290.205	17.25
290.999	19.25
291.793	18.25
292.587	18.25
293.381	19.25
294.174	17.25
294.968	19.25
295.761	15.25
296.555	16.25
297.348	17.25
298.141	11.25
298.935	19.25
299.728	14.25
300.521	13.25
301.314	14.25
302.107	13.25
302.899	13.25
303.692	13.25
304.485	15.25
305.277	11.25
306.07	13.25
306.862	12.25
307.655	13.25
308.447	11.25
309.239	13.25
310.031	11.25
310.823	12.25
311.615	9.25
312.407	11.25
313.199	9.25
313.991	11.25
314.783	9.25
315.574	7.25
316.366	11.25
317.157	7.25
317.949	9.25
318.74	8.25
319.531	8.25
320.322	8.25
321.113	7.25
321.904	7.25
322.695	9.25
323.486	6.25
324.277	7.25
325.068	6.25
325.858	8.25
326.649	6.25
327.439	7.25
328.23	6.25
329.02	4.25
329.81	5.25
330.6	6.25
331.391	7.25
332.181	6.25
332.971	5.25
333.76	8.25
334.55	4.25
335.34	6.25
336.13	6.25
336.919	8.25
337.709	7.25
338.498	5.25
339.287	7.25
340.077	4.25
340.866	7.25
341.655	6.25
342.444	6.25
343.233	7.25
344.022	5.25
344.811	7.25
345.6	6.25
346.388	8.25
347.177	7.25
347.965	7.25
348.754	8.25
349.542	7.25
350.33	4.25
351.119	6.25
351.907	4.25
352.695	5.25
353.483	3.25
354.271	7.25
355.059	5.25
355.846	5.25
356.634	5.25
357.422	3.25
358.209	6.25
358.997	5.25
359.784	5.25
360.571	6.25
361.359	6.25
362.146	7.25
362.933	7.25
363.72	7.25
364.507	5.25
365.294	5.25
366.081	7.25
366.867	3.25
367.654	6.25
368.44	4.25
369.227	6.25
370.013	5.25
370.8	4.25
371.586	6.25
372.372	6.25
373.158	7.25
373.944	7.25
374.73	7.25
375.516	3.25
376.302	3.25
377.088	5.25
377.873	2.25
378.659	6.25
379.445	7.25
380.23	5.25
381.015	6.25
381.801	7.25
382.586	6.25
383.371	5.25
384.156	7.25
384.941	3.25
385.726	6.25
386.511	6.25
387.296	7.25
388.08	7.25
388.865	6.25
389.649	2.25
390.434	7.25
391.218	4.25
392.003	6.25
392.787	5.25
393.571	8.25
394.355	7.25
395.139	8.25
395.923	9.25
396.707	7.25
397.491	6.25
398.274	6.25
399.058	7.25
399.842	9.25
400.625	5.25
401.408	8.25
402.192	6.25
402.975	7.25
403.758	7.25
404.541	8.25
405.324	7.25
406.107	7.25
406.89	8.25
407.673	7.25
408.456	7.25
409.238	9.25
410.021	6.25
410.803	9.25
411.586	9.25
412.368	6.25
413.151	9.25
413.933	8.25
414.715	9.25
415.497	9.25
416.279	8.25
417.061	10.25
417.843	9.25
418.624	12.25
419.406	10.25
420.188	12.25
420.969	11.25
421.751	10.25
422.532	11.25
423.313	9.25
424.095	13.25
424.876	11.25
425.657	10.25
426.438	11.25
427.219	13.25
428	11.25
428.78	11.25
429.561	15.25
430.342	12.25
431.122	13.25
431.903	14.25
432.683	14.25
433.464	17.25
434.244	16.25
435.024	16.25
435.804	16.25
436.584	17.25
437.364	16.25
438.144	19.25
438.924	20.25
439.704	20.25
440.483	23.25
441.263	23.25
442.042	23.25
442.822	25.25
443.601	28.25
444.38	28.25
445.16	31.25
445.939	30.25
446.718	36.25
447.497	35.25
448.276	39.25
449.054	41.25
449.833	44.25
450.612	47.25
451.391	51.25
452.169	57.25
452.948	60.25
453.726	66.25
454.504	67.25
455.282	78.25
456.061	87.25
456.839	97.25
457.617	104.25
458.395	116.25
459.172	124.25
459.95	148.25
460.728	160.25
461.506	183.25
462.283	202.25
463.061	227.25
463.838	257.25
464.615	280.25
465.393	311.25
466.17	352.25
466.947	389.25
467.724	436.25
468.501	482.25
469.278	545.25
470.055	617.25
470.831	683.25
471.608	768.25
472.385	859.25
473.161	954.25
473.938	1062.25
474.714	1193.25
475.49	1321.25
476.266	1470.25
477.043	1632.25
477.819	1824.25
478.595	2024.25
479.371	2236.25
480.146	2492.25
480.922	2760.25
481.698	3056.25
482.473	3404.25
483.249	3748.25
484.024	4168.25
484.8	4627.25
485.575	5077.25
486.35	5652.25
487.126	6228.25
487.901	6869.25
488.676	7583.25
489.451	8375.25
490.225	9244.25
491	10057.25
491.775	11050.25
492.55	12116.25
493.324	13154.25
494.099	14212.25
494.873	15360.25
495.647	16625.25
496.422	17860.25
497.196	19129.25
497.97	20362.25
498.744	21670.25
499.518	22761.25
500.292	24015.25
501.066	24995.25
501.839	25887.25
502.613	26707.25
503.387	27351.25
504.16	27847.25
504.934	27993.25
505.707	28012.25
506.48	27843.25
507.253	27484.25
508.027	27013.25
508.8	26573.25
509.573	25877.25
510.346	25073.25
511.118	24075.25
511.891	23220.25
512.664	22259.25
513.437	21270.25
514.209	20365.25
514.982	19457.25
515.754	18528.25
516.526	17669.25
517.298	16913.25
518.071	16155.25
518.843	15504.25
519.615	14913.25
520.387	14394.25
521.159	13737.25
521.93	13217.25
522.702	12680.25
523.474	12212.25
524.245	11621.25
525.017	11104.25
525.788	10669.25
526.56	10166.25
527.331	9652.25
528.102	9210.25
528.873	8703.25
529.644	8310.25
530.415	7909.25
531.186	7473.25
531.957	7031.25
532.728	6693.25
533.498	6311.25
534.269	5942.25
535.039	5587.25
535.81	5268.25
536.58	4999.25
537.351	4692.25
538.121	4435.25
538.891	4204.25
539.661	3993.25
540.431	3759.25
541.201	3541.25
541.971	3339.25
542.741	3207.25
543.51	3029.25
544.28	2899.25
545.05	2744.25
545.819	2605.25
546.588	2458.25
547.358	2358.25
548.127	2228.25
548.896	2117.25
549.665	2013.25
550.434	1894.25
551.203	1813.25
551.972	1676.25
552.741	1613.25
553.51	1520.25
554.278	1432.25
555.047	1349.25
555.815	1268.25
556.584	1183.25
557.352	1131.25
558.121	1052.25
558.889	1001.25
559.657	937.25
560.425	896.25
561.193	847.25
561.961	789.25
562.729	763.25
563.496	707.25
564.264	670.25
565.032	633.25
565.799	591.25
566.567	569.25
567.334	536.25
568.101	499.25
568.869	475.25
569.636	464.25
570.403	421.25
571.17	402.25
571.937	374.25
572.704	352.25
573.471	337.25
574.237	324.25
575.004	299.25
575.771	283.25
576.537	264.25
577.303	250.25
578.07	240.25
578.836	221.25
579.602	211.25
580.368	199.25
581.134	192.25
581.9	179.25
582.666	174.25
583.432	159.25
584.198	154.25
584.964	146.25
585.729	139.25
586.495	132.25
587.26	122.25
588.025	118.25
588.791	113.25
589.556	104.25
590.321	96.25
591.086	96.25
591.851	86.25
592.616	83.25
593.381	79.25
594.146	79.25
594.911	71.25
595.675	72.25
596.44	66.25
597.204	62.25
597.969	64.25
598.733	57.25
599.497	54.25
600.261	52.25
601.025	50.25
601.79	47.25
602.553	46.25
603.317	44.25
604.081	42.25
604.845	40.25
605.609	37.25
606.372	36.25
607.136	33.25
607.899	34.25
608.662	35.25
609.426	33.25
610.189	28.25
610.952	32.25
611.715	30.25
612.478	25.25
613.241	25.25
614.004	24.25
614.767	25.25
615.529	24.25
616.292	23.25
617.055	23.25
617.817	20.25
618.579	19.25
619.342	20.25
620.104	19.25
620.866	22.25
621.628	21.25
622.39	19.25
623.152	15.25
623.914	16.25
624.676	15.25
625.438	17.25
626.199	14.25
626.961	17.25
627.722	15.25
628.484	13.25
629.245	12.25
630.006	11.25
630.768	15.25
631.529	8.25
632.29	11.25
633.051	11.25
633.812	10.25
634.573	11.25
635.333	9.25
636.094	9.25
636.855	11.25
637.615	11.25
638.376	8.25
639.136	7.25
639.896	10.25
640.657	10.25
641.417	9.25
642.177	8.25
642.937	8.25
643.697	9.25
644.457	9.25
645.216	8.25
645.976	7.25
646.736	8.25
647.495	9.25
648.255	7.25
649.014	8.25
649.774	5.25
650.533	8.25
651.292	8.25
652.051	5.25
652.81	6.25
653.569	7.25
654.328	7.25
655.087	7.25
655.846	6.25
656.604	7.25
657.363	5.25
658.121	7.25
658.88	6.25
659.638	4.25
660.397	5.25
661.155	3.25
661.913	5.25
662.671	5.25
663.429	5.25
664.187	5.25
664.945	5.25
665.703	5.25
666.46	5.25
667.218	6.25
667.976	5.25
668.733	4.25
669.49	6.25
670.248	4.25
671.005	5.25
671.762	5.25
672.519	5.25
673.276	5.25
674.033	6.25
674.79	4.25
675.547	4.25
676.304	5.25
677.06	2.25
677.817	4.25
678.574	5.25
679.33	5.25
680.086	6.25
680.843	3.25
681.599	7.25
682.355	5.25
683.111	4.25
683.867	4.25
684.623	4.25
685.379	3.25
686.135	3.25
686.89	1.25
687.646	3.25
688.402	2.25
689.157	3.25
689.912	3.25
690.668	5.25
691.423	5.25
692.178	2.25
692.933	3.25
693.688	6.25
694.443	4.25
695.198	3.25
695.953	3.25
696.708	7.25
697.462	4.25
698.217	4.25
698.972	3.25
699.726	2.25
700.48	2.25
701.235	2.25
701.989	5.25
702.743	4.25
703.497	2.25
704.251	2.25
705.005	4.25
705.759	4.25
706.513	2.25
707.266	4.25
708.02	3.25
708.774	5.25
709.527	5.25
710.28	5.25
711.034	4.25
711.787	2.25
712.54	3.25
713.293	3.25
714.046	4.25
714.799	5.25
715.552	4.25
716.305	5.25
717.058	6.25
717.81	3.25
718.563	5.25
719.315	2.25
720.068	4.25
720.82	3.25
721.573	4.25
722.325	3.25
723.077	5.25
723.829	6.25
724.581	3.25
725.333	4.25
726.085	1.25
726.836	5.25
727.588	5.25
728.34	4.25
729.091	3.25
729.843	4.25
730.594	5.25
731.346	3.25
732.097	4.25
732.848	4.25
733.599	3.25
734.35	2.25
735.101	1.25
735.852	3.25
736.603	5.25
737.354	6.25
738.104	5.25
738.855	3.25
739.605	2.25
740.356	4.25
741.106	5.25
741.856	5.25
742.607	3.25
743.357	4.25
744.107	6.25
744.857	6.25
745.607	5.25
746.357	5.25
747.106	5.25
747.856	4.25
748.606	7.25
749.355	6.25
750.105	5.25
750.854	5.25
751.603	3.25
752.353	3.25
753.102	4.25
753.851	6.25
754.6	4.25
755.349	6.25
756.098	7.25
756.847	5.25
757.595	6.25
758.344	6.25
759.093	7.25
759.841	5.25
760.589	5.25
761.338	11.25
762.086	8.25
762.834	9.25
763.582	5.25
764.331	7.25
765.079	8.25
765.826	6.25
766.574	8.25
767.322	6.25
768.07	8.25
768.817	9.25
769.565	7.25
770.312	4.25
771.06	6.25
771.807	7.25
772.554	9.25
773.302	7.25
774.049	9.25
774.796	8.25
775.543	9.25
776.29	10.25
777.036	8.25
777.783	8.25
778.53	8.25
779.276	11.25
780.023	10.25
780.769	12.25
781.516	11.25
782.262	11.25
783.008	9.25
783.754	9.25
784.5	11.25
785.246	7.25
785.992	10.25
786.738	14.25
787.484	10.25
788.23	9.25
788.975	7.25
789.721	9.25
790.466	11.25
791.212	7.25
791.957	7.25
792.702	10.25
793.447	9.25
794.193	7.25
794.938	8.25
795.683	8.25
796.427	6.25
797.172	7.25
797.917	8.25
798.662	6.25
799.406	8.25
800.151	8.25
800.895	7.25
801.64	8.25
802.384	7.25
803.128	6.25
803.872	7.25
804.616	6.25
805.36	5.25
806.104	7.25
806.848	7.25
807.592	6.25
808.336	6.25
809.079	4.25
809.823	6.25
810.566	5.25
811.31	8.25
812.053	5.25
812.796	4.25
813.539	3.25
814.283	4.25
815.026	5.25
815.769	5.25
816.511	5.25
817.254	7.25
817.997	5.25
818.74	5.25
819.482	5.25
820.225	3.25
820.967	5.25
821.71	6.25
822.452	4.25
823.194	3.25
823.936	4.25
824.678	5.25
825.42	6.25
826.162	5.25
826.904	4.25
827.646	4.25
828.388	3.25
829.129	3.25
829.871	6.25
830.612	4.25
831.354	6.25
832.095	3.25
832.836	4.25
833.577	2.25
834.319	3.25
835.06	3.25
835.801	4.25
836.542	5.25
837.282	4.25
838.023	4.25
838.764	2.25
839.504	2.25
840.245	5.25
840.985	2.25
841.726	2.25
842.466	4.25
843.206	3.25
843.946	3.25
844.687	2.25
845.427	3.25
846.166	3.25
846.906	4.25
847.646	4.25
848.386	2.25
849.125	3.25
849.865	0.25
850.605	4.25
851.344	2.25
852.083	4.25
852.823	6.25
853.562	3.25
854.301	3.25
855.04	1.25
855.779	4.25
856.518	1.25
857.257	5.25
857.995	2.25
858.734	2.25
859.473	1.25
860.211	2.25
860.95	1.25
861.688	3.25
862.426	0.25
863.165	1.25
863.903	1.25
864.641	1.25
865.379	1.25
866.117	1.25
866.855	2.25
867.593	0.25
868.33	4.25
869.068	2.25
869.806	2.25
870.543	2.25
871.28	3.25
872.018	3.25
872.755	2.25
873.492	1.25
874.229	1.25
874.967	2.25
875.703	3.25
876.44	0.25
877.177	4.25
877.914	0.25
878.651	1.25
879.387	1.25
880.124	3.25
880.86	2.25
881.597	0.25
882.333	3.25
883.069	1.25
883.806	-0.75
884.542	3.25
885.278	1.25
886.014	1.25
886.749	1.25
887.485	0.25
888.221	1.25
888.957	1.25
889.692	-0.75
890.428	1.25
891.163	1.25
891.899	0.25
892.634	0.25
893.369	1.25
894.104	0.25
894.839	1.25
895.574	1.25
896.309	1.25
897.044	2.25
897.779	0.25
898.514	1.25
899.248	2.25
899.983	2.25
900.717	-0.75
901.452	0.25
902.186	0.25
902.92	1.25
903.654	0.25
904.389	-0.75
905.123	1.25
905.857	2.25
906.59	-2.75
907.324	-0.75
908.058	0.25
908.792	2.25
909.525	2.25
910.259	1.25
910.992	1.25
911.726	0.25
912.459	2.25
913.192	0.25
913.925	0.25
914.658	3.25
915.391	1.25
916.124	1.25
916.857	0.25
917.59	0.25
918.323	2.25
919.055	1.25
919.788	1.25
920.521	-0.75
921.253	2.25
921.985	2.25
922.718	1.25
923.45	1.25
924.182	2.25
924.914	0.25
925.646	0.25
926.378	0.25
927.11	0.25
927.841	1.25
928.573	1.25
929.305	1.25
930.036	1.25
930.768	0.25
931.499	1.25
932.23	2.25
932.962	-0.75
933.693	1.25
934.424	1.25
935.155	1.25
935.886	0.25
936.617	-0.75
937.348	3.25
938.078	1.25
938.809	0.25
939.54	0.25
940.27	2.25
941.001	2.25
941.731	0.25
942.461	0.25
943.191	1.25
943.922	0.25
944.652	0.25
945.382	2.25
946.112	1.25
946.841	0.25
947.571	0.25
948.301	1.25
949.031	-0.75
949.76	3.25
950.49	0.25
951.219	1.25
951.948	1.25
952.678	1.25
953.407	0.25
954.136	1.25
954.865	1.25
955.594	0.25
956.323	2.25
957.052	-0.75
957.78	-0.75
958.509	1.25
959.238	0.25
959.966	2.25
960.695	1.25
961.423	1.25
962.151	0.25
962.88	1.25
963.608	1.25
964.336	-0.75
965.064	2.25
965.792	0.25
966.52	-2.75
967.247	-0.75
967.975	-0.75
968.703	2.25
969.43	1.25
970.158	0.25
970.885	1.25
971.613	0.25
972.34	0.25
973.067	1.25
973.794	0.25
974.521	-0.75
975.248	0.25
975.975	0.25
976.702	-1.75
977.429	-0.75
978.156	2.25
978.882	0.25
979.609	3.25
980.335	-0.75
981.062	1.25
981.788	0.25
982.514	0.25
983.24	0.25
983.967	-0.75
984.693	0.25
985.419	0.25
986.144	-0.75
986.87	1.25
987.596	-2.75
988.322	1.25
989.047	0.25
989.773	4.25
990.498	0.25
991.224	-0.75
991.949	2.25
992.674	-0.75
993.399	1.25
994.124	1.25
994.849	1.25
995.574	1.25
996.299	0.25
997.024	2.25
997.749	-0.75
998.473	1.25
999.198	-1.75
999.922	2.25
1000.647	1.25
1001.371	4.25
1002.095	-1.75
1002.82	-0.75
1003.544	-0.75
1004.268	1.25
1004.992	0.25
1005.716	2.25
1006.439	3.25
1007.163	1.25
1007.887	0.25
1008.611	-0.75
1009.334	-0.75
1010.058	-2.75
1010.781	1.25
1011.504	0.25
1012.228	1.25
1012.951	-0.75
1013.674	-0.75
1014.397	0.25
1015.12	0.25
