节点500_285_QEPB04081__682__15-06-53-914.txt的数据

Date: Wed Nov 12 15:06:53 CST 2025
User: PC
Spectrometer: QEPB0408
触发模式: 0
积分时间 (秒): 1.000000E-2
Scans to average: 1
启用暗噪声校正: true
启用非线性校正: false
滑动平均宽度: 0
X轴模式: Wavelengths
Number of Pixels in Spectrum: 1044
>>>>>Begin Spectral Data<<<<<
220.843	2.5
221.644	1.5
222.444	1.5
223.244	3.5
224.045	2.5
224.845	4.5
225.645	3.5
226.445	2.5
227.245	1.5
228.045	1.5
228.845	4.5
229.645	4.5
230.444	4.5
231.244	4.5
232.043	3.5
232.843	5.5
233.642	2.5
234.442	3.5
235.241	2.5
236.04	2.5
236.839	2.5
237.638	2.5
238.437	3.5
239.236	2.5
240.035	3.5
240.833	1.5
241.632	7.5
242.43	6.5
243.229	3.5
244.027	7.5
244.826	5.5
245.624	4.5
246.422	6.5
247.22	4.5
248.018	4.5
248.816	4.5
249.614	5.5
250.412	5.5
251.21	8.5
252.007	9.5
252.805	9.5
253.602	7.5
254.4	7.5
255.197	8.5
255.994	7.5
256.791	8.5
257.589	7.5
258.386	8.5
259.183	10.5
259.979	8.5
260.776	9.5
261.573	9.5
262.37	7.5
263.166	9.5
263.963	10.5
264.759	14.5
265.556	10.5
266.352	10.5
267.148	13.5
267.944	13.5
268.74	10.5
269.536	11.5
270.332	15.5
271.128	17.5
271.924	15.5
272.719	15.5
273.515	12.5
274.311	17.5
275.106	14.5
275.901	13.5
276.697	14.5
277.492	15.5
278.287	18.5
279.082	16.5
279.877	19.5
280.672	14.5
281.467	15.5
282.262	15.5
283.056	18.5
283.851	17.5
284.646	17.5
285.44	18.5
286.234	14.5
287.029	15.5
287.823	17.5
288.617	18.5
289.411	17.5
290.205	15.5
290.999	18.5
291.793	16.5
292.587	14.5
293.381	18.5
294.174	14.5
294.968	17.5
295.761	15.5
296.555	14.5
297.348	13.5
298.141	14.5
298.935	18.5
299.728	14.5
300.521	15.5
301.314	13.5
302.107	13.5
302.899	12.5
303.692	13.5
304.485	11.5
305.277	11.5
306.07	14.5
306.862	11.5
307.655	13.5
308.447	11.5
309.239	10.5
310.031	13.5
310.823	9.5
311.615	11.5
312.407	10.5
313.199	9.5
313.991	11.5
314.783	13.5
315.574	10.5
316.366	9.5
317.157	8.5
317.949	7.5
318.74	7.5
319.531	9.5
320.322	8.5
321.113	7.5
321.904	10.5
322.695	9.5
323.486	6.5
324.277	6.5
325.068	8.5
325.858	6.5
326.649	8.5
327.439	8.5
328.23	7.5
329.02	6.5
329.81	7.5
330.6	9.5
331.391	7.5
332.181	8.5
332.971	8.5
333.76	7.5
334.55	7.5
335.34	6.5
336.13	6.5
336.919	8.5
337.709	7.5
338.498	6.5
339.287	6.5
340.077	6.5
340.866	6.5
341.655	5.5
342.444	8.5
343.233	8.5
344.022	8.5
344.811	5.5
345.6	5.5
346.388	4.5
347.177	6.5
347.965	6.5
348.754	5.5
349.542	6.5
350.33	4.5
351.119	6.5
351.907	3.5
352.695	3.5
353.483	6.5
354.271	5.5
355.059	6.5
355.846	7.5
356.634	5.5
357.422	5.5
358.209	9.5
358.997	3.5
359.784	5.5
360.571	6.5
361.359	5.5
362.146	6.5
362.933	5.5
363.72	5.5
364.507	6.5
365.294	4.5
366.081	4.5
366.867	6.5
367.654	5.5
368.44	3.5
369.227	7.5
370.013	3.5
370.8	4.5
371.586	5.5
372.372	2.5
373.158	5.5
373.944	5.5
374.73	4.5
375.516	5.5
376.302	4.5
377.088	6.5
377.873	6.5
378.659	5.5
379.445	8.5
380.23	6.5
381.015	5.5
381.801	5.5
382.586	6.5
383.371	7.5
384.156	6.5
384.941	7.5
385.726	6.5
386.511	5.5
387.296	4.5
388.08	8.5
388.865	4.5
389.649	4.5
390.434	6.5
391.218	4.5
392.003	5.5
392.787	4.5
393.571	6.5
394.355	5.5
395.139	7.5
395.923	7.5
396.707	5.5
397.491	7.5
398.274	5.5
399.058	6.5
399.842	7.5
400.625	6.5
401.408	5.5
402.192	4.5
402.975	7.5
403.758	8.5
404.541	7.5
405.324	7.5
406.107	6.5
406.89	9.5
407.673	6.5
408.456	8.5
409.238	7.5
410.021	8.5
410.803	6.5
411.586	7.5
412.368	6.5
413.151	6.5
413.933	9.5
414.715	9.5
415.497	8.5
416.279	9.5
417.061	9.5
417.843	9.5
418.624	8.5
419.406	9.5
420.188	10.5
420.969	11.5
421.751	12.5
422.532	10.5
423.313	13.5
424.095	9.5
424.876	10.5
425.657	11.5
426.438	10.5
427.219	13.5
428	13.5
428.78	11.5
429.561	10.5
430.342	15.5
431.122	14.5
431.903	13.5
432.683	15.5
433.464	13.5
434.244	18.5
435.024	16.5
435.804	17.5
436.584	18.5
437.364	19.5
438.144	19.5
438.924	21.5
439.704	25.5
440.483	23.5
441.263	27.5
442.042	26.5
442.822	26.5
443.601	30.5
444.38	31.5
445.16	34.5
445.939	32.5
446.718	38.5
447.497	42.5
448.276	43.5
449.054	48.5
449.833	54.5
450.612	53.5
451.391	59.5
452.169	67.5
452.948	73.5
453.726	83.5
454.504	87.5
455.282	99.5
456.061	108.5
456.839	118.5
457.617	136.5
458.395	149.5
459.172	166.5
459.95	183.5
460.728	207.5
461.506	232.5
462.283	250.5
463.061	281.5
463.838	314.5
464.615	353.5
465.393	387.5
466.17	427.5
466.947	474.5
467.724	526.5
468.501	591.5
469.278	654.5
470.055	727.5
470.831	803.5
471.608	883.5
472.385	987.5
473.161	1101.5
473.938	1192.5
474.714	1326.5
475.49	1460.5
476.266	1607.5
477.043	1746.5
477.819	1922.5
478.595	2096.5
479.371	2305.5
480.146	2537.5
480.922	2791.5
481.698	3062.5
482.473	3361.5
483.249	3650.5
484.024	4004.5
484.8	4377.5
485.575	4777.5
486.35	5193.5
487.126	5707.5
487.901	6219.5
488.676	6757.5
489.451	7369.5
490.225	8009.5
491	8708.5
491.775	9473.5
492.55	10306.5
493.324	11112.5
494.099	11916.5
494.873	12790.5
495.647	13747.5
496.422	14783.5
497.196	15772.5
497.97	16862.5
498.744	17934.5
499.518	18972.5
500.292	20038.5
501.066	21041.5
501.839	21975.5
502.613	22883.5
503.387	23681.5
504.16	24452.5
504.934	24855.5
505.707	25193.5
506.48	25464.5
507.253	25489.5
508.027	25491.5
508.8	25395.5
509.573	25110.5
510.346	24817.5
511.118	24196.5
511.891	23580.5
512.664	22929.5
513.437	22184.5
514.209	21365.5
514.982	20584.5
515.754	19727.5
516.526	18957.5
517.298	18196.5
518.071	17441.5
518.843	16767.5
519.615	16189.5
520.387	15506.5
521.159	14903.5
521.93	14258.5
522.702	13726.5
523.474	13211.5
524.245	12545.5
525.017	12120.5
525.788	11651.5
526.56	11141.5
527.331	10624.5
528.102	10121.5
528.873	9709.5
529.644	9232.5
530.415	8812.5
531.186	8410.5
531.957	7994.5
532.728	7637.5
533.498	7211.5
534.269	6806.5
535.039	6478.5
535.81	6115.5
536.58	5842.5
537.351	5478.5
538.121	5166.5
538.891	4875.5
539.661	4638.5
540.431	4384.5
541.201	4119.5
541.971	3873.5
542.741	3693.5
543.51	3521.5
544.28	3366.5
545.05	3189.5
545.819	3034.5
546.588	2861.5
547.358	2741.5
548.127	2596.5
548.896	2499.5
549.665	2370.5
550.434	2220.5
551.203	2098.5
551.972	1985.5
552.741	1902.5
553.51	1797.5
554.278	1690.5
555.047	1594.5
555.815	1507.5
556.584	1428.5
557.352	1359.5
558.121	1275.5
558.889	1211.5
559.657	1133.5
560.425	1080.5
561.193	1014.5
561.961	965.5
562.729	899.5
563.496	863.5
564.264	808.5
565.032	770.5
565.799	724.5
566.567	683.5
567.334	651.5
568.101	617.5
568.869	578.5
569.636	535.5
570.403	506.5
571.17	484.5
571.937	454.5
572.704	425.5
573.471	408.5
574.237	381.5
575.004	364.5
575.771	337.5
576.537	320.5
577.303	305.5
578.07	284.5
578.836	266.5
579.602	249.5
580.368	240.5
581.134	224.5
581.9	215.5
582.666	196.5
583.432	196.5
584.198	178.5
584.964	178.5
585.729	165.5
586.495	155.5
587.26	148.5
588.025	138.5
588.791	131.5
589.556	122.5
590.321	118.5
591.086	108.5
591.851	107.5
592.616	100.5
593.381	100.5
594.146	91.5
594.911	89.5
595.675	85.5
596.44	82.5
597.204	76.5
597.969	73.5
598.733	71.5
599.497	67.5
600.261	63.5
601.025	57.5
601.79	57.5
602.553	53.5
603.317	53.5
604.081	51.5
604.845	52.5
605.609	46.5
606.372	44.5
607.136	42.5
607.899	41.5
608.662	40.5
609.426	38.5
610.189	37.5
610.952	35.5
611.715	35.5
612.478	33.5
613.241	29.5
614.004	28.5
614.767	28.5
615.529	26.5
616.292	26.5
617.055	26.5
617.817	26.5
618.579	21.5
619.342	27.5
620.104	22.5
620.866	21.5
621.628	20.5
622.39	20.5
623.152	21.5
623.914	17.5
624.676	18.5
625.438	18.5
626.199	17.5
626.961	16.5
627.722	15.5
628.484	16.5
629.245	14.5
630.006	16.5
630.768	14.5
631.529	14.5
632.29	16.5
633.051	14.5
633.812	17.5
634.573	11.5
635.333	11.5
636.094	11.5
636.855	10.5
637.615	13.5
638.376	8.5
639.136	12.5
639.896	7.5
640.657	8.5
641.417	10.5
642.177	10.5
642.937	9.5
643.697	9.5
644.457	8.5
645.216	7.5
645.976	8.5
646.736	9.5
647.495	6.5
648.255	8.5
649.014	7.5
649.774	9.5
650.533	6.5
651.292	6.5
652.051	6.5
652.81	7.5
653.569	5.5
654.328	5.5
655.087	6.5
655.846	5.5
656.604	7.5
657.363	5.5
658.121	7.5
658.88	7.5
659.638	9.5
660.397	6.5
661.155	7.5
661.913	6.5
662.671	5.5
663.429	4.5
664.187	5.5
664.945	5.5
665.703	5.5
666.46	4.5
667.218	7.5
667.976	8.5
668.733	5.5
669.49	4.5
670.248	5.5
671.005	3.5
671.762	5.5
672.519	4.5
673.276	5.5
674.033	5.5
674.79	4.5
675.547	5.5
676.304	5.5
677.06	5.5
677.817	2.5
678.574	4.5
679.33	6.5
680.086	6.5
680.843	3.5
681.599	3.5
682.355	5.5
683.111	3.5
683.867	5.5
684.623	3.5
685.379	6.5
686.135	5.5
686.89	4.5
687.646	4.5
688.402	5.5
689.157	5.5
689.912	5.5
690.668	5.5
691.423	7.5
692.178	5.5
692.933	5.5
693.688	5.5
694.443	3.5
695.198	3.5
695.953	3.5
696.708	5.5
697.462	4.5
698.217	5.5
698.972	2.5
699.726	4.5
700.48	3.5
701.235	4.5
701.989	3.5
702.743	3.5
703.497	5.5
704.251	3.5
705.005	4.5
705.759	2.5
706.513	5.5
707.266	4.5
708.02	1.5
708.774	2.5
709.527	2.5
710.28	4.5
711.034	4.5
711.787	3.5
712.54	3.5
713.293	0.5
714.046	5.5
714.799	4.5
715.552	3.5
716.305	2.5
717.058	3.5
717.81	4.5
718.563	6.5
719.315	5.5
720.068	2.5
720.82	5.5
721.573	5.5
722.325	4.5
723.077	5.5
723.829	4.5
724.581	3.5
725.333	3.5
726.085	3.5
726.836	2.5
727.588	2.5
728.34	2.5
729.091	5.5
729.843	4.5
730.594	3.5
731.346	4.5
732.097	7.5
732.848	3.5
733.599	5.5
734.35	4.5
735.101	4.5
735.852	4.5
736.603	5.5
737.354	4.5
738.104	2.5
738.855	5.5
739.605	5.5
740.356	2.5
741.106	2.5
741.856	4.5
742.607	4.5
743.357	3.5
744.107	7.5
744.857	4.5
745.607	4.5
746.357	4.5
747.106	5.5
747.856	5.5
748.606	5.5
749.355	7.5
750.105	6.5
750.854	6.5
751.603	6.5
752.353	4.5
753.102	4.5
753.851	4.5
754.6	7.5
755.349	5.5
756.098	5.5
756.847	7.5
757.595	4.5
758.344	7.5
759.093	6.5
759.841	7.5
760.589	6.5
761.338	5.5
762.086	6.5
762.834	4.5
763.582	5.5
764.331	6.5
765.079	6.5
765.826	7.5
766.574	9.5
767.322	9.5
768.07	6.5
768.817	6.5
769.565	7.5
770.312	4.5
771.06	4.5
771.807	7.5
772.554	6.5
773.302	7.5
774.049	6.5
774.796	9.5
775.543	7.5
776.29	8.5
777.036	12.5
777.783	6.5
778.53	5.5
779.276	5.5
780.023	9.5
780.769	7.5
781.516	7.5
782.262	7.5
783.008	7.5
783.754	9.5
784.5	7.5
785.246	7.5
785.992	6.5
786.738	9.5
787.484	8.5
788.23	7.5
788.975	9.5
789.721	7.5
790.466	8.5
791.212	7.5
791.957	8.5
792.702	8.5
793.447	8.5
794.193	8.5
794.938	8.5
795.683	9.5
796.427	7.5
797.172	9.5
797.917	9.5
798.662	4.5
799.406	8.5
800.151	7.5
800.895	7.5
801.64	7.5
802.384	9.5
803.128	3.5
803.872	6.5
804.616	7.5
805.36	7.5
806.104	6.5
806.848	3.5
807.592	4.5
808.336	4.5
809.079	4.5
809.823	6.5
810.566	5.5
811.31	8.5
812.053	6.5
812.796	4.5
813.539	5.5
814.283	5.5
815.026	5.5
815.769	5.5
816.511	5.5
817.254	6.5
817.997	4.5
818.74	5.5
819.482	4.5
820.225	4.5
820.967	3.5
821.71	4.5
822.452	4.5
823.194	4.5
823.936	5.5
824.678	3.5
825.42	5.5
826.162	4.5
826.904	3.5
827.646	5.5
828.388	1.5
829.129	4.5
829.871	2.5
830.612	3.5
831.354	4.5
832.095	1.5
832.836	2.5
833.577	2.5
834.319	6.5
835.06	3.5
835.801	4.5
836.542	5.5
837.282	2.5
838.023	2.5
838.764	3.5
839.504	6.5
840.245	3.5
840.985	6.5
841.726	4.5
842.466	2.5
843.206	2.5
843.946	2.5
844.687	2.5
845.427	3.5
846.166	4.5
846.906	3.5
847.646	5.5
848.386	5.5
849.125	3.5
849.865	3.5
850.605	2.5
851.344	2.5
852.083	2.5
852.823	2.5
853.562	2.5
854.301	5.5
855.04	4.5
855.779	-0.5
856.518	1.5
857.257	4.5
857.995	2.5
858.734	2.5
859.473	4.5
860.211	3.5
860.95	3.5
861.688	2.5
862.426	3.5
863.165	2.5
863.903	2.5
864.641	2.5
865.379	2.5
866.117	2.5
866.855	0.5
867.593	1.5
868.33	1.5
869.068	1.5
869.806	1.5
870.543	2.5
871.28	1.5
872.018	-0.5
872.755	4.5
873.492	3.5
874.229	1.5
874.967	-0.5
875.703	0.5
876.44	1.5
877.177	1.5
877.914	0.5
878.651	-0.5
879.387	0.5
880.124	2.5
880.86	1.5
881.597	3.5
882.333	2.5
883.069	1.5
883.806	2.5
884.542	1.5
885.278	2.5
886.014	1.5
886.749	2.5
887.485	2.5
888.221	0.5
888.957	1.5
889.692	-0.5
890.428	0.5
891.163	1.5
891.899	0.5
892.634	2.5
893.369	-0.5
894.104	2.5
894.839	1.5
895.574	0.5
896.309	1.5
897.044	1.5
897.779	1.5
898.514	0.5
899.248	0.5
899.983	0.5
900.717	0.5
901.452	0.5
902.186	2.5
902.92	1.5
903.654	-0.5
904.389	1.5
905.123	1.5
905.857	1.5
906.59	0.5
907.324	2.5
908.058	2.5
908.792	2.5
909.525	0.5
910.259	1.5
910.992	0.5
911.726	1.5
912.459	0.5
913.192	0.5
913.925	1.5
914.658	1.5
915.391	1.5
916.124	0.5
916.857	2.5
917.59	0.5
918.323	2.5
919.055	0.5
919.788	1.5
920.521	0.5
921.253	1.5
921.985	-0.5
922.718	1.5
923.45	3.5
924.182	-1.5
924.914	2.5
925.646	1.5
926.378	0.5
927.11	0.5
927.841	-0.5
928.573	-0.5
929.305	1.5
930.036	1.5
930.768	0.5
931.499	2.5
932.23	0.5
932.962	-0.5
933.693	2.5
934.424	0.5
935.155	-0.5
935.886	1.5
936.617	2.5
937.348	1.5
938.078	-0.5
938.809	-0.5
939.54	-1.5
940.27	0.5
941.001	-0.5
941.731	1.5
942.461	1.5
943.191	1.5
943.922	1.5
944.652	-1.5
945.382	1.5
946.112	1.5
946.841	0.5
947.571	2.5
948.301	1.5
949.031	-1.5
949.76	0.5
950.49	-0.5
951.219	-1.5
951.948	-0.5
952.678	0.5
953.407	0.5
954.136	1.5
954.865	1.5
955.594	-0.5
956.323	2.5
957.052	-2.5
957.78	2.5
958.509	1.5
959.238	-0.5
959.966	-0.5
960.695	3.5
961.423	0.5
962.151	1.5
962.88	1.5
963.608	1.5
964.336	1.5
965.064	2.5
965.792	1.5
966.52	-0.5
967.247	-0.5
967.975	2.5
968.703	0.5
969.43	0.5
970.158	-0.5
970.885	1.5
971.613	-0.5
972.34	1.5
973.067	-1.5
973.794	0.5
974.521	0.5
975.248	0.5
975.975	-1.5
976.702	-1.5
977.429	1.5
978.156	-0.5
978.882	1.5
979.609	1.5
980.335	1.5
981.062	-0.5
981.788	1.5
982.514	1.5
983.24	0.5
983.967	0.5
984.693	0.5
985.419	0.5
986.144	-0.5
986.87	1.5
987.596	-1.5
988.322	1.5
989.047	1.5
989.773	1.5
990.498	-0.5
991.224	0.5
991.949	0.5
992.674	0.5
993.399	-0.5
994.124	-0.5
994.849	2.5
995.574	0.5
996.299	0.5
997.024	0.5
997.749	2.5
998.473	-0.5
999.198	2.5
999.922	-1.5
1000.647	0.5
1001.371	2.5
1002.095	-2.5
1002.82	1.5
1003.544	-0.5
1004.268	2.5
1004.992	0.5
1005.716	0.5
1006.439	3.5
1007.163	6.5
1007.887	1.5
1008.611	0.5
1009.334	1.5
1010.058	0.5
1010.781	1.5
1011.504	0.5
1012.228	0.5
1012.951	-0.5
1013.674	-1.5
1014.397	-0.5
1015.12	1.5
