节点500_285_QEPB04081__53__14-56-26-343.txt的数据

Date: Wed Nov 12 14:56:26 CST 2025
User: PC
Spectrometer: QEPB0408
触发模式: 0
积分时间 (秒): 1.000000E-2
Scans to average: 1
启用暗噪声校正: true
启用非线性校正: false
滑动平均宽度: 0
X轴模式: Wavelengths
Number of Pixels in Spectrum: 1044
>>>>>Begin Spectral Data<<<<<
220.843	1.62
221.644	0.62
222.444	3.62
223.244	2.62
224.045	4.62
224.845	1.62
225.645	3.62
226.445	2.62
227.245	3.62
228.045	1.62
228.845	4.62
229.645	3.62
230.444	2.62
231.244	2.62
232.043	3.62
232.843	1.62
233.642	3.62
234.442	3.62
235.241	5.62
236.04	3.62
236.839	4.62
237.638	3.62
238.437	3.62
239.236	4.62
240.035	4.62
240.833	4.62
241.632	6.62
242.43	4.62
243.229	6.62
244.027	3.62
244.826	4.62
245.624	4.62
246.422	5.62
247.22	4.62
248.018	2.62
248.816	3.62
249.614	6.62
250.412	4.62
251.21	6.62
252.007	9.62
252.805	7.62
253.602	9.62
254.4	8.62
255.197	7.62
255.994	10.62
256.791	11.62
257.589	8.62
258.386	11.62
259.183	8.62
259.979	11.62
260.776	12.62
261.573	9.62
262.37	13.62
263.166	12.62
263.963	13.62
264.759	12.62
265.556	12.62
266.352	13.62
267.148	13.62
267.944	16.62
268.74	16.62
269.536	17.62
270.332	16.62
271.128	17.62
271.924	16.62
272.719	17.62
273.515	19.62
274.311	17.62
275.106	18.62
275.901	18.62
276.697	17.62
277.492	20.62
278.287	16.62
279.082	18.62
279.877	19.62
280.672	21.62
281.467	17.62
282.262	19.62
283.056	21.62
283.851	19.62
284.646	22.62
285.44	22.62
286.234	20.62
287.029	19.62
287.823	20.62
288.617	20.62
289.411	21.62
290.205	19.62
290.999	22.62
291.793	18.62
292.587	17.62
293.381	18.62
294.174	20.62
294.968	15.62
295.761	16.62
296.555	17.62
297.348	16.62
298.141	16.62
298.935	17.62
299.728	16.62
300.521	15.62
301.314	13.62
302.107	13.62
302.899	12.62
303.692	13.62
304.485	13.62
305.277	13.62
306.07	12.62
306.862	12.62
307.655	12.62
308.447	12.62
309.239	13.62
310.031	13.62
310.823	10.62
311.615	10.62
312.407	10.62
313.199	11.62
313.991	9.62
314.783	10.62
315.574	11.62
316.366	7.62
317.157	9.62
317.949	9.62
318.74	5.62
319.531	7.62
320.322	7.62
321.113	7.62
321.904	8.62
322.695	8.62
323.486	9.62
324.277	7.62
325.068	7.62
325.858	6.62
326.649	8.62
327.439	6.62
328.23	7.62
329.02	7.62
329.81	8.62
330.6	4.62
331.391	5.62
332.181	6.62
332.971	5.62
333.76	7.62
334.55	9.62
335.34	5.62
336.13	5.62
336.919	7.62
337.709	3.62
338.498	4.62
339.287	6.62
340.077	7.62
340.866	8.62
341.655	6.62
342.444	9.62
343.233	4.62
344.022	5.62
344.811	4.62
345.6	8.62
346.388	6.62
347.177	8.62
347.965	7.62
348.754	6.62
349.542	6.62
350.33	5.62
351.119	6.62
351.907	5.62
352.695	6.62
353.483	8.62
354.271	5.62
355.059	4.62
355.846	5.62
356.634	7.62
357.422	6.62
358.209	5.62
358.997	6.62
359.784	6.62
360.571	7.62
361.359	3.62
362.146	5.62
362.933	7.62
363.72	7.62
364.507	5.62
365.294	6.62
366.081	7.62
366.867	4.62
367.654	3.62
368.44	6.62
369.227	4.62
370.013	6.62
370.8	6.62
371.586	5.62
372.372	5.62
373.158	7.62
373.944	6.62
374.73	5.62
375.516	4.62
376.302	7.62
377.088	4.62
377.873	2.62
378.659	7.62
379.445	5.62
380.23	4.62
381.015	5.62
381.801	6.62
382.586	7.62
383.371	5.62
384.156	5.62
384.941	6.62
385.726	6.62
386.511	5.62
387.296	6.62
388.08	6.62
388.865	7.62
389.649	6.62
390.434	6.62
391.218	6.62
392.003	7.62
392.787	8.62
393.571	8.62
394.355	6.62
395.139	5.62
395.923	6.62
396.707	7.62
397.491	7.62
398.274	7.62
399.058	8.62
399.842	9.62
400.625	9.62
401.408	8.62
402.192	7.62
402.975	9.62
403.758	8.62
404.541	8.62
405.324	5.62
406.107	11.62
406.89	7.62
407.673	8.62
408.456	8.62
409.238	10.62
410.021	9.62
410.803	7.62
411.586	8.62
412.368	9.62
413.151	8.62
413.933	9.62
414.715	8.62
415.497	9.62
416.279	9.62
417.061	9.62
417.843	11.62
418.624	10.62
419.406	11.62
420.188	9.62
420.969	10.62
421.751	12.62
422.532	10.62
423.313	11.62
424.095	11.62
424.876	11.62
425.657	13.62
426.438	13.62
427.219	12.62
428	14.62
428.78	12.62
429.561	9.62
430.342	16.62
431.122	14.62
431.903	12.62
432.683	15.62
433.464	17.62
434.244	16.62
435.024	18.62
435.804	18.62
436.584	16.62
437.364	17.62
438.144	20.62
438.924	20.62
439.704	19.62
440.483	21.62
441.263	20.62
442.042	22.62
442.822	26.62
443.601	29.62
444.38	29.62
445.16	29.62
445.939	34.62
446.718	33.62
447.497	39.62
448.276	39.62
449.054	43.62
449.833	43.62
450.612	47.62
451.391	55.62
452.169	59.62
452.948	64.62
453.726	68.62
454.504	74.62
455.282	80.62
456.061	92.62
456.839	97.62
457.617	108.62
458.395	124.62
459.172	137.62
459.95	149.62
460.728	164.62
461.506	187.62
462.283	212.62
463.061	234.62
463.838	259.62
464.615	301.62
465.393	334.62
466.17	370.62
466.947	408.62
467.724	458.62
468.501	513.62
469.278	577.62
470.055	641.62
470.831	725.62
471.608	811.62
472.385	891.62
473.161	997.62
473.938	1118.62
474.714	1238.62
475.49	1379.62
476.266	1537.62
477.043	1712.62
477.819	1891.62
478.595	2109.62
479.371	2326.62
480.146	2603.62
480.922	2873.62
481.698	3189.62
482.473	3537.62
483.249	3919.62
484.024	4331.62
484.8	4804.62
485.575	5329.62
486.35	5877.62
487.126	6477.62
487.901	7147.62
488.676	7870.62
489.451	8653.62
490.225	9547.62
491	10480.62
491.775	11478.62
492.55	12538.62
493.324	13645.62
494.099	14732.62
494.873	15927.62
495.647	17211.62
496.422	18472.62
497.196	19806.62
497.97	21135.62
498.744	22482.62
499.518	23659.62
500.292	24891.62
501.066	25998.62
501.839	26895.62
502.613	27758.62
503.387	28421.62
504.16	28934.62
504.934	29131.62
505.707	29053.62
506.48	28950.62
507.253	28655.62
508.027	28185.62
508.8	27676.62
509.573	26982.62
510.346	26103.62
511.118	25223.62
511.891	24206.62
512.664	23277.62
513.437	22250.62
514.209	21256.62
514.982	20335.62
515.754	19372.62
516.526	18485.62
517.298	17647.62
518.071	16856.62
518.843	16252.62
519.615	15574.62
520.387	14980.62
521.159	14404.62
521.93	13842.62
522.702	13268.62
523.474	12709.62
524.245	12174.62
525.017	11589.62
525.788	11133.62
526.56	10639.62
527.331	10103.62
528.102	9641.62
528.873	9207.62
529.644	8688.62
530.415	8271.62
531.186	7789.62
531.957	7343.62
532.728	7013.62
533.498	6600.62
534.269	6207.62
535.039	5879.62
535.81	5533.62
536.58	5229.62
537.351	4934.62
538.121	4670.62
538.891	4425.62
539.661	4169.62
540.431	3957.62
541.201	3735.62
541.971	3513.62
542.741	3346.62
543.51	3181.62
544.28	3029.62
545.05	2867.62
545.819	2745.62
546.588	2600.62
547.358	2472.62
548.127	2340.62
548.896	2217.62
549.665	2098.62
550.434	2010.62
551.203	1898.62
551.972	1771.62
552.741	1677.62
553.51	1580.62
554.278	1489.62
555.047	1429.62
555.815	1329.62
556.584	1251.62
557.352	1180.62
558.121	1128.62
558.889	1035.62
559.657	994.62
560.425	938.62
561.193	885.62
561.961	832.62
562.729	777.62
563.496	744.62
564.264	699.62
565.032	673.62
565.799	633.62
566.567	600.62
567.334	565.62
568.101	526.62
568.869	501.62
569.636	468.62
570.403	451.62
571.17	423.62
571.937	397.62
572.704	374.62
573.471	360.62
574.237	338.62
575.004	313.62
575.771	293.62
576.537	283.62
577.303	265.62
578.07	244.62
578.836	235.62
579.602	216.62
580.368	202.62
581.134	190.62
581.9	187.62
582.666	172.62
583.432	165.62
584.198	157.62
584.964	151.62
585.729	142.62
586.495	136.62
587.26	137.62
588.025	119.62
588.791	114.62
589.556	109.62
590.321	105.62
591.086	99.62
591.851	94.62
592.616	89.62
593.381	84.62
594.146	81.62
594.911	79.62
595.675	74.62
596.44	68.62
597.204	70.62
597.969	63.62
598.733	61.62
599.497	56.62
600.261	57.62
601.025	53.62
601.79	51.62
602.553	51.62
603.317	45.62
604.081	46.62
604.845	43.62
605.609	44.62
606.372	42.62
607.136	37.62
607.899	37.62
608.662	35.62
609.426	33.62
610.189	35.62
610.952	31.62
611.715	34.62
612.478	29.62
613.241	27.62
614.004	25.62
614.767	25.62
615.529	27.62
616.292	22.62
617.055	20.62
617.817	21.62
618.579	20.62
619.342	21.62
620.104	19.62
620.866	18.62
621.628	19.62
622.39	21.62
623.152	19.62
623.914	19.62
624.676	16.62
625.438	15.62
626.199	17.62
626.961	15.62
627.722	14.62
628.484	15.62
629.245	13.62
630.006	14.62
630.768	14.62
631.529	13.62
632.29	12.62
633.051	12.62
633.812	11.62
634.573	11.62
635.333	9.62
636.094	11.62
636.855	11.62
637.615	13.62
638.376	13.62
639.136	9.62
639.896	10.62
640.657	12.62
641.417	8.62
642.177	8.62
642.937	9.62
643.697	8.62
644.457	7.62
645.216	7.62
645.976	7.62
646.736	8.62
647.495	7.62
648.255	9.62
649.014	8.62
649.774	7.62
650.533	8.62
651.292	10.62
652.051	7.62
652.81	5.62
653.569	6.62
654.328	6.62
655.087	8.62
655.846	9.62
656.604	6.62
657.363	6.62
658.121	6.62
658.88	8.62
659.638	4.62
660.397	4.62
661.155	5.62
661.913	6.62
662.671	5.62
663.429	4.62
664.187	5.62
664.945	4.62
665.703	6.62
666.46	5.62
667.218	4.62
667.976	7.62
668.733	5.62
669.49	4.62
670.248	6.62
671.005	5.62
671.762	6.62
672.519	6.62
673.276	5.62
674.033	4.62
674.79	3.62
675.547	5.62
676.304	3.62
677.06	3.62
677.817	5.62
678.574	5.62
679.33	4.62
680.086	4.62
680.843	4.62
681.599	1.62
682.355	4.62
683.111	3.62
683.867	6.62
684.623	5.62
685.379	4.62
686.135	4.62
686.89	3.62
687.646	6.62
688.402	2.62
689.157	3.62
689.912	6.62
690.668	4.62
691.423	4.62
692.178	2.62
692.933	4.62
693.688	2.62
694.443	4.62
695.198	5.62
695.953	3.62
696.708	3.62
697.462	4.62
698.217	4.62
698.972	3.62
699.726	3.62
700.48	4.62
701.235	6.62
701.989	4.62
702.743	3.62
703.497	4.62
704.251	2.62
705.005	3.62
705.759	2.62
706.513	5.62
707.266	3.62
708.02	3.62
708.774	5.62
709.527	5.62
710.28	3.62
711.034	1.62
711.787	3.62
712.54	4.62
713.293	3.62
714.046	5.62
714.799	6.62
715.552	3.62
716.305	2.62
717.058	4.62
717.81	4.62
718.563	6.62
719.315	4.62
720.068	4.62
720.82	3.62
721.573	5.62
722.325	6.62
723.077	3.62
723.829	6.62
724.581	2.62
725.333	3.62
726.085	4.62
726.836	3.62
727.588	3.62
728.34	3.62
729.091	4.62
729.843	2.62
730.594	3.62
731.346	3.62
732.097	4.62
732.848	5.62
733.599	2.62
734.35	6.62
735.101	4.62
735.852	3.62
736.603	4.62
737.354	5.62
738.104	3.62
738.855	5.62
739.605	5.62
740.356	6.62
741.106	6.62
741.856	5.62
742.607	6.62
743.357	6.62
744.107	4.62
744.857	5.62
745.607	5.62
746.357	6.62
747.106	5.62
747.856	6.62
748.606	6.62
749.355	7.62
750.105	6.62
750.854	7.62
751.603	6.62
752.353	6.62
753.102	6.62
753.851	6.62
754.6	6.62
755.349	6.62
756.098	7.62
756.847	7.62
757.595	5.62
758.344	7.62
759.093	6.62
759.841	7.62
760.589	6.62
761.338	6.62
762.086	6.62
762.834	8.62
763.582	8.62
764.331	8.62
765.079	5.62
765.826	7.62
766.574	8.62
767.322	7.62
768.07	8.62
768.817	9.62
769.565	9.62
770.312	8.62
771.06	7.62
771.807	6.62
772.554	9.62
773.302	9.62
774.049	9.62
774.796	10.62
775.543	7.62
776.29	8.62
777.036	8.62
777.783	10.62
778.53	8.62
779.276	10.62
780.023	9.62
780.769	7.62
781.516	12.62
782.262	9.62
783.008	10.62
783.754	9.62
784.5	11.62
785.246	8.62
785.992	8.62
786.738	11.62
787.484	8.62
788.23	10.62
788.975	11.62
789.721	9.62
790.466	10.62
791.212	9.62
791.957	9.62
792.702	9.62
793.447	7.62
794.193	9.62
794.938	6.62
795.683	9.62
796.427	7.62
797.172	9.62
797.917	9.62
798.662	9.62
799.406	10.62
800.151	9.62
800.895	6.62
801.64	7.62
802.384	8.62
803.128	9.62
803.872	8.62
804.616	7.62
805.36	6.62
806.104	5.62
806.848	6.62
807.592	6.62
808.336	5.62
809.079	4.62
809.823	5.62
810.566	7.62
811.31	5.62
812.053	5.62
812.796	6.62
813.539	4.62
814.283	5.62
815.026	4.62
815.769	5.62
816.511	7.62
817.254	5.62
817.997	5.62
818.74	4.62
819.482	5.62
820.225	6.62
820.967	4.62
821.71	6.62
822.452	5.62
823.194	6.62
823.936	2.62
824.678	6.62
825.42	3.62
826.162	5.62
826.904	3.62
827.646	5.62
828.388	5.62
829.129	4.62
829.871	4.62
830.612	4.62
831.354	5.62
832.095	3.62
832.836	4.62
833.577	4.62
834.319	3.62
835.06	3.62
835.801	5.62
836.542	4.62
837.282	5.62
838.023	4.62
838.764	6.62
839.504	4.62
840.245	1.62
840.985	6.62
841.726	4.62
842.466	0.62
843.206	2.62
843.946	4.62
844.687	2.62
845.427	2.62
846.166	4.62
846.906	2.62
847.646	3.62
848.386	3.62
849.125	2.62
849.865	2.62
850.605	3.62
851.344	5.62
852.083	3.62
852.823	3.62
853.562	3.62
854.301	4.62
855.04	3.62
855.779	2.62
856.518	4.62
857.257	1.62
857.995	2.62
858.734	3.62
859.473	4.62
860.211	5.62
860.95	1.62
861.688	3.62
862.426	4.62
863.165	2.62
863.903	2.62
864.641	1.62
865.379	3.62
866.117	3.62
866.855	2.62
867.593	1.62
868.33	1.62
869.068	3.62
869.806	1.62
870.543	1.62
871.28	3.62
872.018	3.62
872.755	2.62
873.492	2.62
874.229	1.62
874.967	2.62
875.703	4.62
876.44	0.62
877.177	1.62
877.914	3.62
878.651	1.62
879.387	0.62
880.124	1.62
880.86	0.62
881.597	2.62
882.333	-0.38
883.069	3.62
883.806	1.62
884.542	1.62
885.278	2.62
886.014	2.62
886.749	1.62
887.485	-0.38
888.221	0.62
888.957	2.62
889.692	-0.38
890.428	3.62
891.163	-1.38
891.899	2.62
892.634	-1.38
893.369	0.62
894.104	0.62
894.839	1.62
895.574	1.62
896.309	1.62
897.044	2.62
897.779	0.62
898.514	-0.38
899.248	2.62
899.983	1.62
900.717	1.62
901.452	0.62
902.186	0.62
902.92	0.62
903.654	-0.38
904.389	2.62
905.123	0.62
905.857	1.62
906.59	3.62
907.324	0.62
908.058	1.62
908.792	0.62
909.525	-0.38
910.259	-0.38
910.992	1.62
911.726	1.62
912.459	1.62
913.192	2.62
913.925	-1.38
914.658	2.62
915.391	1.62
916.124	-0.38
916.857	-0.38
917.59	1.62
918.323	-0.38
919.055	0.62
919.788	1.62
920.521	1.62
921.253	0.62
921.985	-1.38
922.718	2.62
923.45	-0.38
924.182	3.62
924.914	-0.38
925.646	3.62
926.378	-0.38
927.11	1.62
927.841	0.62
928.573	-0.38
929.305	0.62
930.036	2.62
930.768	0.62
931.499	0.62
932.23	0.62
932.962	1.62
933.693	-1.38
934.424	1.62
935.155	0.62
935.886	-1.38
936.617	-0.38
937.348	-0.38
938.078	1.62
938.809	0.62
939.54	1.62
940.27	1.62
941.001	2.62
941.731	1.62
942.461	-1.38
943.191	2.62
943.922	1.62
944.652	0.62
945.382	0.62
946.112	0.62
946.841	0.62
947.571	-1.38
948.301	0.62
949.031	-0.38
949.76	-0.38
950.49	1.62
951.219	1.62
951.948	1.62
952.678	0.62
953.407	0.62
954.136	-1.38
954.865	-0.38
955.594	2.62
956.323	0.62
957.052	1.62
957.78	-0.38
958.509	1.62
959.238	-0.38
959.966	-1.38
960.695	1.62
961.423	0.62
962.151	0.62
962.88	-0.38
963.608	1.62
964.336	2.62
965.064	-0.38
965.792	2.62
966.52	0.62
967.247	0.62
967.975	2.62
968.703	-0.38
969.43	2.62
970.158	2.62
970.885	1.62
971.613	1.62
972.34	0.62
973.067	-1.38
973.794	1.62
974.521	0.62
975.248	1.62
975.975	0.62
976.702	1.62
977.429	0.62
978.156	1.62
978.882	-2.38
979.609	1.62
980.335	1.62
981.062	1.62
981.788	-0.38
982.514	-0.38
983.24	0.62
983.967	1.62
984.693	0.62
985.419	0.62
986.144	0.62
986.87	1.62
987.596	0.62
988.322	1.62
989.047	2.62
989.773	1.62
990.498	4.62
991.224	1.62
991.949	1.62
992.674	0.62
993.399	0.62
994.124	1.62
994.849	-0.38
995.574	1.62
996.299	-0.38
997.024	0.62
997.749	0.62
998.473	0.62
999.198	1.62
999.922	1.62
1000.647	0.62
1001.371	4.62
1002.095	-2.38
1002.82	-1.38
1003.544	-2.38
1004.268	1.62
1004.992	0.62
1005.716	1.62
1006.439	3.62
1007.163	0.62
1007.887	2.62
1008.611	0.62
1009.334	2.62
1010.058	1.62
1010.781	1.62
1011.504	2.62
1012.228	-0.38
1012.951	0.62
1013.674	2.62
1014.397	-1.38
1015.12	-0.38
