节点500_285_QEPB04081__385__15-01-57-666.txt的数据

Date: Wed Nov 12 15:01:57 CST 2025
User: PC
Spectrometer: QEPB0408
触发模式: 0
积分时间 (秒): 1.000000E-2
Scans to average: 1
启用暗噪声校正: true
启用非线性校正: false
滑动平均宽度: 0
X轴模式: Wavelengths
Number of Pixels in Spectrum: 1044
>>>>>Begin Spectral Data<<<<<
220.843	2
221.644	1
222.444	2
223.244	2
224.045	1
224.845	3
225.645	3
226.445	3
227.245	2
228.045	2
228.845	3
229.645	2
230.444	3
231.244	0
232.043	4
232.843	3
233.642	4
234.442	4
235.241	4
236.04	3
236.839	5
237.638	3
238.437	4
239.236	4
240.035	4
240.833	2
241.632	4
242.43	4
243.229	4
244.027	3
244.826	8
245.624	3
246.422	6
247.22	6
248.018	7
248.816	6
249.614	6
250.412	3
251.21	6
252.007	8
252.805	7
253.602	7
254.4	8
255.197	8
255.994	10
256.791	9
257.589	6
258.386	9
259.183	8
259.979	9
260.776	9
261.573	11
262.37	9
263.166	9
263.963	12
264.759	12
265.556	14
266.352	14
267.148	13
267.944	13
268.74	14
269.536	14
270.332	13
271.128	14
271.924	16
272.719	18
273.515	18
274.311	18
275.106	16
275.901	17
276.697	16
277.492	17
278.287	16
279.082	17
279.877	18
280.672	16
281.467	19
282.262	17
283.056	17
283.851	19
284.646	18
285.44	18
286.234	20
287.029	19
287.823	18
288.617	18
289.411	20
290.205	19
290.999	19
291.793	15
292.587	18
293.381	18
294.174	17
294.968	17
295.761	17
296.555	14
297.348	17
298.141	16
298.935	15
299.728	16
300.521	14
301.314	14
302.107	14
302.899	13
303.692	14
304.485	12
305.277	14
306.07	13
306.862	14
307.655	13
308.447	15
309.239	11
310.031	11
310.823	12
311.615	11
312.407	10
313.199	12
313.991	9
314.783	10
315.574	8
316.366	9
317.157	10
317.949	9
318.74	8
319.531	8
320.322	8
321.113	5
321.904	7
322.695	8
323.486	9
324.277	10
325.068	7
325.858	8
326.649	8
327.439	11
328.23	6
329.02	8
329.81	7
330.6	9
331.391	9
332.181	3
332.971	6
333.76	5
334.55	6
335.34	7
336.13	7
336.919	6
337.709	7
338.498	8
339.287	8
340.077	4
340.866	9
341.655	6
342.444	5
343.233	3
344.022	7
344.811	8
345.6	5
346.388	7
347.177	5
347.965	8
348.754	7
349.542	8
350.33	7
351.119	6
351.907	7
352.695	5
353.483	5
354.271	7
355.059	6
355.846	5
356.634	4
357.422	7
358.209	5
358.997	5
359.784	3
360.571	7
361.359	6
362.146	4
362.933	5
363.72	7
364.507	4
365.294	3
366.081	3
366.867	5
367.654	4
368.44	5
369.227	6
370.013	6
370.8	5
371.586	4
372.372	6
373.158	5
373.944	4
374.73	5
375.516	7
376.302	5
377.088	2
377.873	7
378.659	5
379.445	4
380.23	7
381.015	5
381.801	7
382.586	7
383.371	7
384.156	6
384.941	6
385.726	6
386.511	6
387.296	8
388.08	5
388.865	8
389.649	8
390.434	7
391.218	7
392.003	5
392.787	7
393.571	6
394.355	6
395.139	9
395.923	5
396.707	8
397.491	9
398.274	5
399.058	6
399.842	7
400.625	7
401.408	9
402.192	7
402.975	7
403.758	10
404.541	10
405.324	8
406.107	9
406.89	8
407.673	9
408.456	10
409.238	8
410.021	10
410.803	7
411.586	8
412.368	10
413.151	12
413.933	10
414.715	12
415.497	9
416.279	9
417.061	12
417.843	11
418.624	10
419.406	11
420.188	8
420.969	13
421.751	12
422.532	10
423.313	12
424.095	10
424.876	12
425.657	12
426.438	13
427.219	14
428	12
428.78	13
429.561	10
430.342	16
431.122	12
431.903	15
432.683	13
433.464	16
434.244	17
435.024	16
435.804	18
436.584	18
437.364	19
438.144	18
438.924	20
439.704	24
440.483	22
441.263	24
442.042	24
442.822	26
443.601	28
444.38	30
445.16	30
445.939	31
446.718	38
447.497	40
448.276	41
449.054	46
449.833	48
450.612	53
451.391	58
452.169	62
452.948	71
453.726	76
454.504	85
455.282	88
456.061	100
456.839	113
457.617	127
458.395	131
459.172	153
459.95	170
460.728	188
461.506	206
462.283	238
463.061	254
463.838	293
464.615	330
465.393	366
466.17	409
466.947	453
467.724	509
468.501	559
469.278	628
470.055	701
470.831	778
471.608	845
472.385	955
473.161	1062
473.938	1171
474.714	1296
475.49	1432
476.266	1598
477.043	1761
477.819	1933
478.595	2140
479.371	2334
480.146	2587
480.922	2856
481.698	3173
482.473	3453
483.249	3791
484.024	4193
484.8	4608
485.575	5050
486.35	5554
487.126	6070
487.901	6678
488.676	7305
489.451	7993
490.225	8746
491	9560
491.775	10386
492.55	11308
493.324	12266
494.099	13235
494.873	14282
495.647	15373
496.422	16480
497.196	17662
497.97	18834
498.744	20019
499.518	21155
500.292	22286
501.066	23384
501.839	24339
502.613	25248
503.387	26057
504.16	26721
504.934	27044
505.707	27242
506.48	27266
507.253	27245
508.027	27010
508.8	26721
509.573	26305
510.346	25698
511.118	24943
511.891	24169
512.664	23374
513.437	22474
514.209	21592
514.982	20712
515.754	19756
516.526	18977
517.298	18123
518.071	17285
518.843	16621
519.615	16045
520.387	15375
521.159	14750
521.93	14222
522.702	13591
523.474	13085
524.245	12502
525.017	11957
525.788	11525
526.56	10980
527.331	10460
528.102	9985
528.873	9558
529.644	9061
530.415	8665
531.186	8212
531.957	7783
532.728	7388
533.498	6995
534.269	6602
535.039	6274
535.81	5917
536.58	5581
537.351	5247
538.121	4958
538.891	4705
539.661	4456
540.431	4207
541.201	3956
541.971	3744
542.741	3541
543.51	3391
544.28	3222
545.05	3065
545.819	2900
546.588	2771
547.358	2615
548.127	2497
548.896	2369
549.665	2252
550.434	2146
551.203	2012
551.972	1908
552.741	1813
553.51	1712
554.278	1611
555.047	1521
555.815	1445
556.584	1343
557.352	1297
558.121	1220
558.889	1138
559.657	1085
560.425	1020
561.193	963
561.961	910
562.729	856
563.496	800
564.264	756
565.032	729
565.799	686
566.567	642
567.334	612
568.101	586
568.869	540
569.636	509
570.403	489
571.17	452
571.937	433
572.704	414
573.471	392
574.237	359
575.004	341
575.771	324
576.537	301
577.303	287
578.07	270
578.836	250
579.602	238
580.368	223
581.134	218
581.9	204
582.666	195
583.432	181
584.198	171
584.964	167
585.729	157
586.495	150
587.26	142
588.025	132
588.791	126
589.556	117
590.321	113
591.086	104
591.851	96
592.616	95
593.381	93
594.146	89
594.911	84
595.675	79
596.44	77
597.204	71
597.969	68
598.733	68
599.497	63
600.261	61
601.025	59
601.79	55
602.553	50
603.317	50
604.081	48
604.845	44
605.609	46
606.372	44
607.136	41
607.899	40
608.662	37
609.426	35
610.189	35
610.952	32
611.715	32
612.478	33
613.241	30
614.004	30
614.767	28
615.529	27
616.292	26
617.055	27
617.817	23
618.579	24
619.342	22
620.104	22
620.866	18
621.628	23
622.39	20
623.152	23
623.914	21
624.676	15
625.438	19
626.199	15
626.961	16
627.722	16
628.484	16
629.245	13
630.006	15
630.768	15
631.529	13
632.29	14
633.051	12
633.812	13
634.573	12
635.333	11
636.094	11
636.855	11
637.615	14
638.376	8
639.136	11
639.896	12
640.657	10
641.417	11
642.177	10
642.937	10
643.697	11
644.457	10
645.216	8
645.976	6
646.736	9
647.495	6
648.255	8
649.014	10
649.774	8
650.533	7
651.292	7
652.051	6
652.81	8
653.569	8
654.328	8
655.087	5
655.846	7
656.604	7
657.363	7
658.121	6
658.88	6
659.638	5
660.397	6
661.155	7
661.913	5
662.671	7
663.429	5
664.187	4
664.945	7
665.703	5
666.46	7
667.218	6
667.976	3
668.733	5
669.49	6
670.248	4
671.005	6
671.762	5
672.519	4
673.276	6
674.033	4
674.79	4
675.547	5
676.304	6
677.06	5
677.817	3
678.574	3
679.33	3
680.086	4
680.843	3
681.599	5
682.355	4
683.111	7
683.867	4
684.623	2
685.379	4
686.135	3
686.89	4
687.646	5
688.402	5
689.157	3
689.912	4
690.668	5
691.423	2
692.178	6
692.933	3
693.688	4
694.443	3
695.198	5
695.953	3
696.708	2
697.462	5
698.217	5
698.972	4
699.726	3
700.48	4
701.235	3
701.989	4
702.743	2
703.497	5
704.251	6
705.005	4
705.759	5
706.513	5
707.266	4
708.02	5
708.774	4
709.527	3
710.28	5
711.034	4
711.787	7
712.54	3
713.293	4
714.046	4
714.799	4
715.552	4
716.305	5
717.058	3
717.81	5
718.563	5
719.315	3
720.068	2
720.82	2
721.573	2
722.325	5
723.077	2
723.829	5
724.581	6
725.333	5
726.085	5
726.836	3
727.588	7
728.34	5
729.091	3
729.843	5
730.594	5
731.346	4
732.097	6
732.848	6
733.599	6
734.35	5
735.101	6
735.852	4
736.603	5
737.354	4
738.104	4
738.855	5
739.605	6
740.356	6
741.106	5
741.856	6
742.607	6
743.357	4
744.107	5
744.857	3
745.607	5
746.357	4
747.106	5
747.856	6
748.606	7
749.355	3
750.105	5
750.854	6
751.603	6
752.353	4
753.102	6
753.851	5
754.6	6
755.349	4
756.098	7
756.847	7
757.595	7
758.344	6
759.093	5
759.841	8
760.589	7
761.338	6
762.086	7
762.834	7
763.582	8
764.331	3
765.079	8
765.826	7
766.574	8
767.322	8
768.07	6
768.817	8
769.565	7
770.312	10
771.06	6
771.807	5
772.554	8
773.302	7
774.049	8
774.796	9
775.543	8
776.29	9
777.036	9
777.783	11
778.53	9
779.276	9
780.023	9
780.769	8
781.516	7
782.262	9
783.008	8
783.754	10
784.5	8
785.246	9
785.992	10
786.738	10
787.484	8
788.23	9
788.975	13
789.721	7
790.466	8
791.212	8
791.957	10
792.702	8
793.447	10
794.193	8
794.938	8
795.683	8
796.427	10
797.172	7
797.917	8
798.662	9
799.406	8
800.151	9
800.895	8
801.64	6
802.384	8
803.128	7
803.872	4
804.616	7
805.36	6
806.104	5
806.848	7
807.592	7
808.336	7
809.079	5
809.823	4
810.566	5
811.31	6
812.053	7
812.796	7
813.539	7
814.283	4
815.026	5
815.769	3
816.511	5
817.254	4
817.997	6
818.74	5
819.482	4
820.225	6
820.967	4
821.71	5
822.452	4
823.194	6
823.936	7
824.678	3
825.42	6
826.162	3
826.904	4
827.646	4
828.388	5
829.129	7
829.871	4
830.612	3
831.354	4
832.095	6
832.836	5
833.577	4
834.319	4
835.06	5
835.801	6
836.542	2
837.282	4
838.023	2
838.764	4
839.504	4
840.245	2
840.985	6
841.726	5
842.466	3
843.206	4
843.946	2
844.687	2
845.427	1
846.166	1
846.906	3
847.646	4
848.386	3
849.125	3
849.865	5
850.605	4
851.344	4
852.083	4
852.823	5
853.562	5
854.301	2
855.04	3
855.779	4
856.518	2
857.257	3
857.995	2
858.734	2
859.473	1
860.211	2
860.95	2
861.688	3
862.426	4
863.165	1
863.903	3
864.641	4
865.379	2
866.117	2
866.855	3
867.593	2
868.33	1
869.068	2
869.806	4
870.543	1
871.28	3
872.018	1
872.755	2
873.492	2
874.229	3
874.967	1
875.703	1
876.44	1
877.177	1
877.914	6
878.651	2
879.387	1
880.124	1
880.86	-2
881.597	2
882.333	3
883.069	4
883.806	3
884.542	0
885.278	0
886.014	1
886.749	2
887.485	2
888.221	2
888.957	0
889.692	0
890.428	2
891.163	0
891.899	1
892.634	0
893.369	2
894.104	1
894.839	1
895.574	3
896.309	1
897.044	2
897.779	1
898.514	-2
899.248	1
899.983	1
900.717	2
901.452	0
902.186	2
902.92	1
903.654	-2
904.389	0
905.123	0
905.857	2
906.59	2
907.324	3
908.058	0
908.792	2
909.525	2
910.259	-1
910.992	2
911.726	2
912.459	-1
913.192	1
913.925	1
914.658	3
915.391	2
916.124	2
916.857	1
917.59	-2
918.323	2
919.055	1
919.788	2
920.521	2
921.253	0
921.985	0
922.718	-1
923.45	0
924.182	1
924.914	0
925.646	1
926.378	-1
927.11	1
927.841	0
928.573	2
929.305	2
930.036	0
930.768	1
931.499	0
932.23	1
932.962	0
933.693	1
934.424	0
935.155	2
935.886	2
936.617	0
937.348	2
938.078	0
938.809	1
939.54	0
940.27	0
941.001	-1
941.731	0
942.461	1
943.191	2
943.922	1
944.652	2
945.382	0
946.112	2
946.841	0
947.571	3
948.301	0
949.031	0
949.76	2
950.49	-2
951.219	2
951.948	0
952.678	2
953.407	0
954.136	0
954.865	0
955.594	2
956.323	1
957.052	0
957.78	2
958.509	0
959.238	1
959.966	2
960.695	2
961.423	-1
962.151	4
962.88	0
963.608	-1
964.336	2
965.064	0
965.792	1
966.52	1
967.247	0
967.975	1
968.703	0
969.43	2
970.158	-1
970.885	1
971.613	2
972.34	-1
973.067	0
973.794	1
974.521	0
975.248	2
975.975	-1
976.702	3
977.429	1
978.156	0
978.882	2
979.609	1
980.335	0
981.062	0
981.788	0
982.514	1
983.24	0
983.967	0
984.693	-2
985.419	-1
986.144	2
986.87	-1
987.596	0
988.322	1
989.047	0
989.773	2
990.498	1
991.224	1
991.949	-1
992.674	2
993.399	0
994.124	0
994.849	0
995.574	-1
996.299	0
997.024	-1
997.749	0
998.473	1
999.198	1
999.922	1
1000.647	1
1001.371	4
1002.095	-1
1002.82	-3
1003.544	-3
1004.268	2
1004.992	2
1005.716	2
1006.439	-1
1007.163	1
1007.887	0
1008.611	2
1009.334	2
1010.058	2
1010.781	1
1011.504	-1
1012.228	2
1012.951	0
1013.674	1
1014.397	1
1015.12	1
