节点500_285_QEPB04081__840__15-09-31-721.txt的数据

Date: Wed Nov 12 15:09:31 CST 2025
User: PC
Spectrometer: QEPB0408
触发模式: 0
积分时间 (秒): 1.000000E-2
Scans to average: 1
启用暗噪声校正: true
启用非线性校正: false
滑动平均宽度: 0
X轴模式: Wavelengths
Number of Pixels in Spectrum: 1044
>>>>>Begin Spectral Data<<<<<
220.843	1.75
221.644	1.75
222.444	1.75
223.244	1.75
224.045	1.75
224.845	2.75
225.645	1.75
226.445	2.75
227.245	3.75
228.045	3.75
228.845	1.75
229.645	2.75
230.444	2.75
231.244	0.75
232.043	4.75
232.843	4.75
233.642	3.75
234.442	2.75
235.241	3.75
236.04	2.75
236.839	4.75
237.638	5.75
238.437	2.75
239.236	3.75
240.035	3.75
240.833	4.75
241.632	5.75
242.43	4.75
243.229	4.75
244.027	4.75
244.826	6.75
245.624	6.75
246.422	4.75
247.22	6.75
248.018	3.75
248.816	5.75
249.614	4.75
250.412	7.75
251.21	6.75
252.007	7.75
252.805	6.75
253.602	4.75
254.4	5.75
255.197	9.75
255.994	5.75
256.791	7.75
257.589	7.75
258.386	8.75
259.183	8.75
259.979	10.75
260.776	8.75
261.573	7.75
262.37	11.75
263.166	10.75
263.963	12.75
264.759	14.75
265.556	9.75
266.352	11.75
267.148	11.75
267.944	13.75
268.74	14.75
269.536	14.75
270.332	11.75
271.128	14.75
271.924	13.75
272.719	14.75
273.515	14.75
274.311	14.75
275.106	16.75
275.901	14.75
276.697	13.75
277.492	16.75
278.287	16.75
279.082	16.75
279.877	15.75
280.672	18.75
281.467	18.75
282.262	14.75
283.056	16.75
283.851	15.75
284.646	19.75
285.44	18.75
286.234	18.75
287.029	17.75
287.823	15.75
288.617	17.75
289.411	14.75
290.205	15.75
290.999	18.75
291.793	16.75
292.587	17.75
293.381	18.75
294.174	18.75
294.968	14.75
295.761	16.75
296.555	15.75
297.348	15.75
298.141	14.75
298.935	15.75
299.728	14.75
300.521	13.75
301.314	13.75
302.107	12.75
302.899	13.75
303.692	15.75
304.485	11.75
305.277	13.75
306.07	12.75
306.862	14.75
307.655	11.75
308.447	13.75
309.239	13.75
310.031	11.75
310.823	13.75
311.615	6.75
312.407	11.75
313.199	8.75
313.991	10.75
314.783	12.75
315.574	9.75
316.366	10.75
317.157	7.75
317.949	10.75
318.74	9.75
319.531	7.75
320.322	8.75
321.113	10.75
321.904	8.75
322.695	8.75
323.486	8.75
324.277	7.75
325.068	5.75
325.858	7.75
326.649	8.75
327.439	5.75
328.23	5.75
329.02	6.75
329.81	7.75
330.6	5.75
331.391	6.75
332.181	7.75
332.971	5.75
333.76	6.75
334.55	6.75
335.34	7.75
336.13	9.75
336.919	6.75
337.709	5.75
338.498	7.75
339.287	7.75
340.077	4.75
340.866	8.75
341.655	3.75
342.444	7.75
343.233	6.75
344.022	6.75
344.811	8.75
345.6	5.75
346.388	5.75
347.177	6.75
347.965	6.75
348.754	7.75
349.542	4.75
350.33	7.75
351.119	4.75
351.907	6.75
352.695	4.75
353.483	5.75
354.271	7.75
355.059	4.75
355.846	6.75
356.634	4.75
357.422	8.75
358.209	6.75
358.997	8.75
359.784	9.75
360.571	3.75
361.359	5.75
362.146	6.75
362.933	5.75
363.72	7.75
364.507	5.75
365.294	7.75
366.081	3.75
366.867	6.75
367.654	7.75
368.44	5.75
369.227	6.75
370.013	5.75
370.8	7.75
371.586	7.75
372.372	3.75
373.158	5.75
373.944	5.75
374.73	3.75
375.516	5.75
376.302	5.75
377.088	3.75
377.873	6.75
378.659	4.75
379.445	4.75
380.23	5.75
381.015	5.75
381.801	4.75
382.586	4.75
383.371	4.75
384.156	5.75
384.941	5.75
385.726	7.75
386.511	5.75
387.296	6.75
388.08	5.75
388.865	4.75
389.649	7.75
390.434	3.75
391.218	5.75
392.003	5.75
392.787	4.75
393.571	5.75
394.355	6.75
395.139	7.75
395.923	5.75
396.707	7.75
397.491	5.75
398.274	6.75
399.058	9.75
399.842	6.75
400.625	7.75
401.408	5.75
402.192	6.75
402.975	4.75
403.758	9.75
404.541	8.75
405.324	7.75
406.107	4.75
406.89	7.75
407.673	7.75
408.456	7.75
409.238	8.75
410.021	7.75
410.803	9.75
411.586	4.75
412.368	8.75
413.151	8.75
413.933	7.75
414.715	8.75
415.497	7.75
416.279	9.75
417.061	10.75
417.843	9.75
418.624	12.75
419.406	8.75
420.188	9.75
420.969	10.75
421.751	9.75
422.532	9.75
423.313	8.75
424.095	10.75
424.876	10.75
425.657	12.75
426.438	10.75
427.219	11.75
428	14.75
428.78	11.75
429.561	13.75
430.342	13.75
431.122	13.75
431.903	14.75
432.683	15.75
433.464	16.75
434.244	17.75
435.024	15.75
435.804	16.75
436.584	18.75
437.364	19.75
438.144	21.75
438.924	24.75
439.704	20.75
440.483	23.75
441.263	24.75
442.042	24.75
442.822	28.75
443.601	29.75
444.38	33.75
445.16	31.75
445.939	34.75
446.718	39.75
447.497	46.75
448.276	43.75
449.054	51.75
449.833	55.75
450.612	58.75
451.391	62.75
452.169	71.75
452.948	76.75
453.726	87.75
454.504	91.75
455.282	100.75
456.061	116.75
456.839	129.75
457.617	139.75
458.395	152.75
459.172	167.75
459.95	194.75
460.728	213.75
461.506	232.75
462.283	266.75
463.061	299.75
463.838	330.75
464.615	364.75
465.393	402.75
466.17	447.75
466.947	492.75
467.724	546.75
468.501	602.75
469.278	669.75
470.055	740.75
470.831	828.75
471.608	894.75
472.385	1006.75
473.161	1105.75
473.938	1215.75
474.714	1339.75
475.49	1466.75
476.266	1640.75
477.043	1758.75
477.819	1941.75
478.595	2125.75
479.371	2316.75
480.146	2540.75
480.922	2777.75
481.698	3034.75
482.473	3322.75
483.249	3614.75
484.024	3958.75
484.8	4294.75
485.575	4704.75
486.35	5130.75
487.126	5569.75
487.901	6048.75
488.676	6553.75
489.451	7148.75
490.225	7780.75
491	8453.75
491.775	9142.75
492.55	9932.75
493.324	10689.75
494.099	11414.75
494.873	12282.75
495.647	13207.75
496.422	14178.75
497.196	15165.75
497.97	16161.75
498.744	17175.75
499.518	18212.75
500.292	19224.75
501.066	20204.75
501.839	21122.75
502.613	22025.75
503.387	22954.75
504.16	23558.75
504.934	24074.75
505.707	24471.75
506.48	24723.75
507.253	24865.75
508.027	24971.75
508.8	24919.75
509.573	24791.75
510.346	24456.75
511.118	23991.75
511.891	23331.75
512.664	22791.75
513.437	22184.75
514.209	21368.75
514.982	20708.75
515.754	19855.75
516.526	19107.75
517.298	18372.75
518.071	17581.75
518.843	16939.75
519.615	16294.75
520.387	15622.75
521.159	15035.75
521.93	14374.75
522.702	13868.75
523.474	13275.75
524.245	12726.75
525.017	12175.75
525.788	11767.75
526.56	11250.75
527.331	10735.75
528.102	10273.75
528.873	9856.75
529.644	9394.75
530.415	9010.75
531.186	8561.75
531.957	8143.75
532.728	7775.75
533.498	7364.75
534.269	6971.75
535.039	6624.75
535.81	6288.75
536.58	5922.75
537.351	5594.75
538.121	5273.75
538.891	5040.75
539.661	4755.75
540.431	4470.75
541.201	4218.75
541.971	4015.75
542.741	3786.75
543.51	3617.75
544.28	3470.75
545.05	3273.75
545.819	3118.75
546.588	2970.75
547.358	2802.75
548.127	2677.75
548.896	2566.75
549.665	2413.75
550.434	2280.75
551.203	2165.75
551.972	2047.75
552.741	1954.75
553.51	1850.75
554.278	1737.75
555.047	1636.75
555.815	1549.75
556.584	1470.75
557.352	1386.75
558.121	1325.75
558.889	1241.75
559.657	1174.75
560.425	1111.75
561.193	1041.75
561.961	989.75
562.729	933.75
563.496	876.75
564.264	834.75
565.032	794.75
565.799	753.75
566.567	702.75
567.334	674.75
568.101	635.75
568.869	595.75
569.636	561.75
570.403	528.75
571.17	499.75
571.937	468.75
572.704	444.75
573.471	418.75
574.237	396.75
575.004	372.75
575.771	347.75
576.537	327.75
577.303	318.75
578.07	293.75
578.836	277.75
579.602	265.75
580.368	249.75
581.134	235.75
581.9	222.75
582.666	212.75
583.432	199.75
584.198	191.75
584.964	178.75
585.729	172.75
586.495	157.75
587.26	151.75
588.025	144.75
588.791	140.75
589.556	133.75
590.321	123.75
591.086	116.75
591.851	108.75
592.616	103.75
593.381	98.75
594.146	96.75
594.911	93.75
595.675	87.75
596.44	83.75
597.204	73.75
597.969	74.75
598.733	72.75
599.497	67.75
600.261	68.75
601.025	64.75
601.79	57.75
602.553	58.75
603.317	56.75
604.081	51.75
604.845	48.75
605.609	51.75
606.372	46.75
607.136	40.75
607.899	45.75
608.662	41.75
609.426	38.75
610.189	39.75
610.952	38.75
611.715	33.75
612.478	34.75
613.241	31.75
614.004	29.75
614.767	30.75
615.529	27.75
616.292	30.75
617.055	25.75
617.817	25.75
618.579	24.75
619.342	23.75
620.104	24.75
620.866	20.75
621.628	26.75
622.39	20.75
623.152	18.75
623.914	20.75
624.676	17.75
625.438	17.75
626.199	18.75
626.961	15.75
627.722	17.75
628.484	17.75
629.245	13.75
630.006	15.75
630.768	14.75
631.529	12.75
632.29	13.75
633.051	13.75
633.812	12.75
634.573	12.75
635.333	10.75
636.094	13.75
636.855	11.75
637.615	10.75
638.376	6.75
639.136	11.75
639.896	9.75
640.657	9.75
641.417	11.75
642.177	9.75
642.937	10.75
643.697	6.75
644.457	8.75
645.216	8.75
645.976	8.75
646.736	8.75
647.495	5.75
648.255	10.75
649.014	8.75
649.774	7.75
650.533	7.75
651.292	7.75
652.051	5.75
652.81	5.75
653.569	8.75
654.328	5.75
655.087	7.75
655.846	8.75
656.604	6.75
657.363	7.75
658.121	7.75
658.88	5.75
659.638	7.75
660.397	4.75
661.155	6.75
661.913	3.75
662.671	6.75
663.429	6.75
664.187	5.75
664.945	4.75
665.703	5.75
666.46	4.75
667.218	5.75
667.976	3.75
668.733	4.75
669.49	4.75
670.248	5.75
671.005	4.75
671.762	2.75
672.519	5.75
673.276	6.75
674.033	5.75
674.79	2.75
675.547	1.75
676.304	2.75
677.06	7.75
677.817	4.75
678.574	5.75
679.33	4.75
680.086	5.75
680.843	2.75
681.599	5.75
682.355	3.75
683.111	4.75
683.867	4.75
684.623	6.75
685.379	2.75
686.135	4.75
686.89	3.75
687.646	2.75
688.402	4.75
689.157	3.75
689.912	3.75
690.668	3.75
691.423	3.75
692.178	6.75
692.933	5.75
693.688	5.75
694.443	5.75
695.198	2.75
695.953	3.75
696.708	4.75
697.462	3.75
698.217	4.75
698.972	4.75
699.726	0.75
700.48	5.75
701.235	1.75
701.989	5.75
702.743	4.75
703.497	4.75
704.251	4.75
705.005	3.75
705.759	4.75
706.513	2.75
707.266	2.75
708.02	4.75
708.774	4.75
709.527	4.75
710.28	2.75
711.034	4.75
711.787	3.75
712.54	5.75
713.293	2.75
714.046	5.75
714.799	6.75
715.552	3.75
716.305	4.75
717.058	2.75
717.81	4.75
718.563	3.75
719.315	1.75
720.068	2.75
720.82	3.75
721.573	5.75
722.325	1.75
723.077	4.75
723.829	1.75
724.581	3.75
725.333	3.75
726.085	5.75
726.836	3.75
727.588	2.75
728.34	1.75
729.091	1.75
729.843	4.75
730.594	5.75
731.346	2.75
732.097	4.75
732.848	4.75
733.599	8.75
734.35	3.75
735.101	5.75
735.852	5.75
736.603	2.75
737.354	4.75
738.104	5.75
738.855	1.75
739.605	4.75
740.356	2.75
741.106	2.75
741.856	6.75
742.607	5.75
743.357	2.75
744.107	4.75
744.857	6.75
745.607	4.75
746.357	6.75
747.106	5.75
747.856	3.75
748.606	5.75
749.355	3.75
750.105	5.75
750.854	3.75
751.603	3.75
752.353	5.75
753.102	7.75
753.851	5.75
754.6	5.75
755.349	6.75
756.098	6.75
756.847	4.75
757.595	5.75
758.344	4.75
759.093	3.75
759.841	5.75
760.589	6.75
761.338	2.75
762.086	7.75
762.834	7.75
763.582	6.75
764.331	6.75
765.079	6.75
765.826	6.75
766.574	4.75
767.322	6.75
768.07	6.75
768.817	8.75
769.565	7.75
770.312	7.75
771.06	5.75
771.807	6.75
772.554	7.75
773.302	6.75
774.049	4.75
774.796	5.75
775.543	8.75
776.29	5.75
777.036	7.75
777.783	8.75
778.53	7.75
779.276	7.75
780.023	10.75
780.769	7.75
781.516	8.75
782.262	9.75
783.008	6.75
783.754	8.75
784.5	8.75
785.246	7.75
785.992	6.75
786.738	8.75
787.484	8.75
788.23	8.75
788.975	8.75
789.721	9.75
790.466	9.75
791.212	7.75
791.957	9.75
792.702	8.75
793.447	7.75
794.193	7.75
794.938	7.75
795.683	10.75
796.427	8.75
797.172	8.75
797.917	7.75
798.662	7.75
799.406	6.75
800.151	8.75
800.895	6.75
801.64	7.75
802.384	4.75
803.128	7.75
803.872	8.75
804.616	7.75
805.36	5.75
806.104	7.75
806.848	7.75
807.592	5.75
808.336	6.75
809.079	4.75
809.823	5.75
810.566	7.75
811.31	6.75
812.053	6.75
812.796	7.75
813.539	7.75
814.283	5.75
815.026	3.75
815.769	7.75
816.511	4.75
817.254	4.75
817.997	5.75
818.74	5.75
819.482	4.75
820.225	4.75
820.967	2.75
821.71	6.75
822.452	5.75
823.194	5.75
823.936	4.75
824.678	5.75
825.42	2.75
826.162	4.75
826.904	4.75
827.646	4.75
828.388	4.75
829.129	3.75
829.871	1.75
830.612	3.75
831.354	4.75
832.095	3.75
832.836	5.75
833.577	4.75
834.319	3.75
835.06	5.75
835.801	4.75
836.542	4.75
837.282	4.75
838.023	3.75
838.764	3.75
839.504	5.75
840.245	3.75
840.985	2.75
841.726	5.75
842.466	2.75
843.206	5.75
843.946	2.75
844.687	4.75
845.427	2.75
846.166	3.75
846.906	5.75
847.646	3.75
848.386	6.75
849.125	3.75
849.865	3.75
850.605	4.75
851.344	3.75
852.083	1.75
852.823	1.75
853.562	3.75
854.301	2.75
855.04	1.75
855.779	2.75
856.518	2.75
857.257	1.75
857.995	2.75
858.734	3.75
859.473	2.75
860.211	3.75
860.95	2.75
861.688	2.75
862.426	3.75
863.165	0.75
863.903	3.75
864.641	1.75
865.379	1.75
866.117	2.75
866.855	0.75
867.593	2.75
868.33	3.75
869.068	2.75
869.806	2.75
870.543	1.75
871.28	2.75
872.018	1.75
872.755	0.75
873.492	2.75
874.229	2.75
874.967	1.75
875.703	0.75
876.44	1.75
877.177	1.75
877.914	2.75
878.651	1.75
879.387	0.75
880.124	0.75
880.86	-1.25
881.597	0.75
882.333	1.75
883.069	-0.25
883.806	1.75
884.542	2.75
885.278	3.75
886.014	1.75
886.749	1.75
887.485	1.75
888.221	1.75
888.957	0.75
889.692	2.75
890.428	0.75
891.163	1.75
891.899	0.75
892.634	3.75
893.369	1.75
894.104	0.75
894.839	0.75
895.574	1.75
896.309	2.75
897.044	0.75
897.779	2.75
898.514	0.75
899.248	-0.25
899.983	1.75
900.717	2.75
901.452	0.75
902.186	0.75
902.92	1.75
903.654	0.75
904.389	0.75
905.123	0.75
905.857	1.75
906.59	-1.25
907.324	3.75
908.058	-0.25
908.792	0.75
909.525	0.75
910.259	0.75
910.992	1.75
911.726	0.75
912.459	0.75
913.192	0.75
913.925	-0.25
914.658	-0.25
915.391	1.75
916.124	1.75
916.857	0.75
917.59	2.75
918.323	2.75
919.055	2.75
919.788	-0.25
920.521	0.75
921.253	1.75
921.985	0.75
922.718	0.75
923.45	1.75
924.182	0.75
924.914	-0.25
925.646	3.75
926.378	-1.25
927.11	2.75
927.841	2.75
928.573	0.75
929.305	0.75
930.036	2.75
930.768	-1.25
931.499	0.75
932.23	-0.25
932.962	0.75
933.693	-1.25
934.424	0.75
935.155	2.75
935.886	-1.25
936.617	1.75
937.348	1.75
938.078	0.75
938.809	1.75
939.54	0.75
940.27	-1.25
941.001	1.75
941.731	1.75
942.461	-0.25
943.191	1.75
943.922	2.75
944.652	0.75
945.382	0.75
946.112	1.75
946.841	1.75
947.571	0.75
948.301	-0.25
949.031	0.75
949.76	-2.25
950.49	1.75
951.219	2.75
951.948	0.75
952.678	0.75
953.407	-2.25
954.136	2.75
954.865	-0.25
955.594	0.75
956.323	0.75
957.052	-0.25
957.78	1.75
958.509	1.75
959.238	0.75
959.966	-1.25
960.695	0.75
961.423	0.75
962.151	-1.25
962.88	0.75
963.608	-1.25
964.336	1.75
965.064	1.75
965.792	1.75
966.52	0.75
967.247	1.75
967.975	-1.25
968.703	-0.25
969.43	1.75
970.158	-1.25
970.885	0.75
971.613	-2.25
972.34	-1.25
973.067	2.75
973.794	-0.25
974.521	1.75
975.248	-1.25
975.975	3.75
976.702	1.75
977.429	1.75
978.156	1.75
978.882	-0.25
979.609	0.75
980.335	1.75
981.062	1.75
981.788	1.75
982.514	0.75
983.24	-0.25
983.967	0.75
984.693	1.75
985.419	-0.25
986.144	2.75
986.87	0.75
987.596	2.75
988.322	0.75
989.047	-0.25
989.773	1.75
990.498	-1.25
991.224	0.75
991.949	0.75
992.674	-2.25
993.399	0.75
994.124	-0.25
994.849	0.75
995.574	-2.25
996.299	0.75
997.024	1.75
997.749	0.75
998.473	0.75
999.198	0.75
999.922	0.75
1000.647	0.75
1001.371	2.75
1002.095	0.75
1002.82	0.75
1003.544	-1.25
1004.268	1.75
1004.992	1.75
1005.716	0.75
1006.439	-0.25
1007.163	-0.25
1007.887	0.75
1008.611	0.75
1009.334	2.75
1010.058	2.75
1010.781	1.75
1011.504	0.75
1012.228	0.75
1012.951	-1.25
1013.674	-0.25
1014.397	-1.25
1015.12	-0.25
