节点500_285_QEPB04081__662__15-06-33-984.txt的数据

Date: Wed Nov 12 15:06:33 CST 2025
User: PC
Spectrometer: QEPB0408
触发模式: 0
积分时间 (秒): 1.000000E-2
Scans to average: 1
启用暗噪声校正: true
启用非线性校正: false
滑动平均宽度: 0
X轴模式: Wavelengths
Number of Pixels in Spectrum: 1044
>>>>>Begin Spectral Data<<<<<
220.843	1.25
221.644	0.25
222.444	3.25
223.244	5.25
224.045	2.25
224.845	1.25
225.645	2.25
226.445	2.25
227.245	4.25
228.045	1.25
228.845	2.25
229.645	2.25
230.444	3.25
231.244	2.25
232.043	4.25
232.843	2.25
233.642	3.25
234.442	5.25
235.241	3.25
236.04	4.25
236.839	5.25
237.638	3.25
238.437	4.25
239.236	3.25
240.035	4.25
240.833	6.25
241.632	3.25
242.43	7.25
243.229	5.25
244.027	7.25
244.826	3.25
245.624	3.25
246.422	6.25
247.22	6.25
248.018	4.25
248.816	7.25
249.614	7.25
250.412	5.25
251.21	7.25
252.007	6.25
252.805	5.25
253.602	7.25
254.4	5.25
255.197	7.25
255.994	7.25
256.791	7.25
257.589	9.25
258.386	8.25
259.183	8.25
259.979	7.25
260.776	9.25
261.573	11.25
262.37	8.25
263.166	7.25
263.963	10.25
264.759	11.25
265.556	12.25
266.352	12.25
267.148	12.25
267.944	12.25
268.74	14.25
269.536	14.25
270.332	14.25
271.128	14.25
271.924	15.25
272.719	14.25
273.515	17.25
274.311	14.25
275.106	16.25
275.901	19.25
276.697	16.25
277.492	14.25
278.287	16.25
279.082	15.25
279.877	18.25
280.672	14.25
281.467	17.25
282.262	18.25
283.056	18.25
283.851	19.25
284.646	18.25
285.44	16.25
286.234	17.25
287.029	18.25
287.823	18.25
288.617	17.25
289.411	19.25
290.205	17.25
290.999	19.25
291.793	18.25
292.587	18.25
293.381	17.25
294.174	15.25
294.968	15.25
295.761	14.25
296.555	13.25
297.348	17.25
298.141	18.25
298.935	16.25
299.728	14.25
300.521	15.25
301.314	12.25
302.107	14.25
302.899	17.25
303.692	12.25
304.485	13.25
305.277	12.25
306.07	13.25
306.862	12.25
307.655	14.25
308.447	11.25
309.239	11.25
310.031	11.25
310.823	11.25
311.615	11.25
312.407	9.25
313.199	11.25
313.991	13.25
314.783	10.25
315.574	10.25
316.366	8.25
317.157	8.25
317.949	9.25
318.74	7.25
319.531	7.25
320.322	8.25
321.113	7.25
321.904	6.25
322.695	9.25
323.486	7.25
324.277	8.25
325.068	9.25
325.858	7.25
326.649	8.25
327.439	8.25
328.23	7.25
329.02	7.25
329.81	5.25
330.6	7.25
331.391	7.25
332.181	6.25
332.971	7.25
333.76	5.25
334.55	6.25
335.34	4.25
336.13	6.25
336.919	5.25
337.709	7.25
338.498	7.25
339.287	6.25
340.077	4.25
340.866	5.25
341.655	8.25
342.444	4.25
343.233	5.25
344.022	7.25
344.811	5.25
345.6	6.25
346.388	5.25
347.177	7.25
347.965	5.25
348.754	8.25
349.542	5.25
350.33	5.25
351.119	7.25
351.907	6.25
352.695	7.25
353.483	7.25
354.271	7.25
355.059	7.25
355.846	4.25
356.634	5.25
357.422	4.25
358.209	4.25
358.997	4.25
359.784	5.25
360.571	4.25
361.359	5.25
362.146	6.25
362.933	5.25
363.72	8.25
364.507	4.25
365.294	6.25
366.081	7.25
366.867	4.25
367.654	5.25
368.44	4.25
369.227	1.25
370.013	4.25
370.8	3.25
371.586	5.25
372.372	5.25
373.158	4.25
373.944	2.25
374.73	4.25
375.516	4.25
376.302	2.25
377.088	6.25
377.873	5.25
378.659	5.25
379.445	4.25
380.23	5.25
381.015	5.25
381.801	4.25
382.586	5.25
383.371	7.25
384.156	5.25
384.941	6.25
385.726	5.25
386.511	6.25
387.296	5.25
388.08	5.25
388.865	6.25
389.649	4.25
390.434	5.25
391.218	5.25
392.003	7.25
392.787	8.25
393.571	6.25
394.355	7.25
395.139	5.25
395.923	5.25
396.707	6.25
397.491	7.25
398.274	4.25
399.058	6.25
399.842	8.25
400.625	6.25
401.408	9.25
402.192	8.25
402.975	8.25
403.758	9.25
404.541	7.25
405.324	6.25
406.107	8.25
406.89	7.25
407.673	6.25
408.456	7.25
409.238	8.25
410.021	5.25
410.803	8.25
411.586	8.25
412.368	9.25
413.151	7.25
413.933	6.25
414.715	8.25
415.497	7.25
416.279	7.25
417.061	12.25
417.843	12.25
418.624	6.25
419.406	7.25
420.188	8.25
420.969	11.25
421.751	10.25
422.532	11.25
423.313	10.25
424.095	10.25
424.876	8.25
425.657	10.25
426.438	11.25
427.219	12.25
428	12.25
428.78	13.25
429.561	12.25
430.342	14.25
431.122	14.25
431.903	13.25
432.683	17.25
433.464	14.25
434.244	17.25
435.024	16.25
435.804	16.25
436.584	18.25
437.364	18.25
438.144	22.25
438.924	20.25
439.704	22.25
440.483	23.25
441.263	24.25
442.042	27.25
442.822	26.25
443.601	30.25
444.38	32.25
445.16	34.25
445.939	33.25
446.718	39.25
447.497	44.25
448.276	42.25
449.054	48.25
449.833	50.25
450.612	58.25
451.391	62.25
452.169	70.25
452.948	70.25
453.726	80.25
454.504	91.25
455.282	99.25
456.061	106.25
456.839	123.25
457.617	135.25
458.395	153.25
459.172	167.25
459.95	182.25
460.728	201.25
461.506	225.25
462.283	249.25
463.061	282.25
463.838	313.25
464.615	347.25
465.393	387.25
466.17	430.25
466.947	480.25
467.724	536.25
468.501	584.25
469.278	648.25
470.055	723.25
470.831	805.25
471.608	892.25
472.385	995.25
473.161	1085.25
473.938	1205.25
474.714	1334.25
475.49	1470.25
476.266	1621.25
477.043	1771.25
477.819	1954.25
478.595	2139.25
479.371	2346.25
480.146	2543.25
480.922	2834.25
481.698	3069.25
482.473	3374.25
483.249	3687.25
484.024	4051.25
484.8	4439.25
485.575	4813.25
486.35	5284.25
487.126	5724.25
487.901	6260.25
488.676	6837.25
489.451	7429.25
490.225	8135.25
491	8779.25
491.775	9561.25
492.55	10401.25
493.324	11250.25
494.099	12104.25
494.873	12997.25
495.647	13959.25
496.422	14922.25
497.196	16018.25
497.97	17049.25
498.744	18182.25
499.518	19205.25
500.292	20251.25
501.066	21318.25
501.839	22281.25
502.613	23160.25
503.387	24049.25
504.16	24698.25
504.934	25186.25
505.707	25440.25
506.48	25711.25
507.253	25751.25
508.027	25728.25
508.8	25657.25
509.573	25411.25
510.346	25034.25
511.118	24489.25
511.891	23729.25
512.664	23091.25
513.437	22363.25
514.209	21535.25
514.982	20690.25
515.754	19932.25
516.526	19112.25
517.298	18318.25
518.071	17596.25
518.843	16844.25
519.615	16304.25
520.387	15626.25
521.159	14991.25
521.93	14352.25
522.702	13840.25
523.474	13269.25
524.245	12676.25
525.017	12142.25
525.788	11722.25
526.56	11171.25
527.331	10679.25
528.102	10213.25
528.873	9768.25
529.644	9285.25
530.415	8893.25
531.186	8413.25
531.957	8033.25
532.728	7660.25
533.498	7285.25
534.269	6854.25
535.039	6500.25
535.81	6156.25
536.58	5836.25
537.351	5501.25
538.121	5194.25
538.891	4902.25
539.661	4642.25
540.431	4404.25
541.201	4148.25
541.971	3924.25
542.741	3714.25
543.51	3549.25
544.28	3374.25
545.05	3205.25
545.819	3053.25
546.588	2901.25
547.358	2753.25
548.127	2617.25
548.896	2501.25
549.665	2373.25
550.434	2228.25
551.203	2124.25
551.972	2028.25
552.741	1903.25
553.51	1807.25
554.278	1711.25
555.047	1609.25
555.815	1521.25
556.584	1435.25
557.352	1346.25
558.121	1294.25
558.889	1210.25
559.657	1139.25
560.425	1090.25
561.193	1020.25
561.961	970.25
562.729	911.25
563.496	847.25
564.264	802.25
565.032	766.25
565.799	723.25
566.567	688.25
567.334	649.25
568.101	625.25
568.869	584.25
569.636	544.25
570.403	504.25
571.17	485.25
571.937	449.25
572.704	435.25
573.471	412.25
574.237	377.25
575.004	363.25
575.771	338.25
576.537	322.25
577.303	303.25
578.07	282.25
578.836	266.25
579.602	255.25
580.368	244.25
581.134	229.25
581.9	217.25
582.666	204.25
583.432	185.25
584.198	183.25
584.964	172.25
585.729	164.25
586.495	159.25
587.26	145.25
588.025	144.25
588.791	134.25
589.556	126.25
590.321	121.25
591.086	115.25
591.851	108.25
592.616	103.25
593.381	94.25
594.146	88.25
594.911	88.25
595.675	84.25
596.44	82.25
597.204	73.25
597.969	74.25
598.733	70.25
599.497	66.25
600.261	65.25
601.025	56.25
601.79	58.25
602.553	56.25
603.317	50.25
604.081	49.25
604.845	47.25
605.609	48.25
606.372	43.25
607.136	41.25
607.899	44.25
608.662	40.25
609.426	35.25
610.189	36.25
610.952	32.25
611.715	35.25
612.478	34.25
613.241	30.25
614.004	29.25
614.767	27.25
615.529	28.25
616.292	28.25
617.055	26.25
617.817	22.25
618.579	25.25
619.342	24.25
620.104	23.25
620.866	22.25
621.628	21.25
622.39	20.25
623.152	20.25
623.914	18.25
624.676	19.25
625.438	20.25
626.199	18.25
626.961	16.25
627.722	15.25
628.484	16.25
629.245	14.25
630.006	13.25
630.768	16.25
631.529	15.25
632.29	14.25
633.051	13.25
633.812	14.25
634.573	10.25
635.333	13.25
636.094	13.25
636.855	11.25
637.615	10.25
638.376	9.25
639.136	9.25
639.896	11.25
640.657	10.25
641.417	11.25
642.177	9.25
642.937	10.25
643.697	9.25
644.457	7.25
645.216	9.25
645.976	9.25
646.736	8.25
647.495	10.25
648.255	9.25
649.014	7.25
649.774	8.25
650.533	7.25
651.292	8.25
652.051	9.25
652.81	5.25
653.569	7.25
654.328	9.25
655.087	4.25
655.846	7.25
656.604	4.25
657.363	7.25
658.121	5.25
658.88	5.25
659.638	7.25
660.397	6.25
661.155	4.25
661.913	5.25
662.671	7.25
663.429	5.25
664.187	5.25
664.945	4.25
665.703	5.25
666.46	4.25
667.218	6.25
667.976	5.25
668.733	6.25
669.49	6.25
670.248	5.25
671.005	4.25
671.762	6.25
672.519	6.25
673.276	5.25
674.033	4.25
674.79	3.25
675.547	6.25
676.304	4.25
677.06	6.25
677.817	4.25
678.574	4.25
679.33	3.25
680.086	6.25
680.843	6.25
681.599	4.25
682.355	5.25
683.111	6.25
683.867	3.25
684.623	6.25
685.379	5.25
686.135	5.25
686.89	5.25
687.646	8.25
688.402	5.25
689.157	3.25
689.912	3.25
690.668	3.25
691.423	3.25
692.178	4.25
692.933	4.25
693.688	5.25
694.443	4.25
695.198	1.25
695.953	2.25
696.708	4.25
697.462	2.25
698.217	5.25
698.972	3.25
699.726	2.25
700.48	6.25
701.235	3.25
701.989	4.25
702.743	4.25
703.497	2.25
704.251	3.25
705.005	4.25
705.759	7.25
706.513	3.25
707.266	4.25
708.02	4.25
708.774	3.25
709.527	5.25
710.28	3.25
711.034	4.25
711.787	4.25
712.54	6.25
713.293	2.25
714.046	3.25
714.799	1.25
715.552	2.25
716.305	4.25
717.058	1.25
717.81	4.25
718.563	5.25
719.315	3.25
720.068	5.25
720.82	2.25
721.573	3.25
722.325	4.25
723.077	3.25
723.829	3.25
724.581	1.25
725.333	2.25
726.085	2.25
726.836	3.25
727.588	4.25
728.34	4.25
729.091	3.25
729.843	4.25
730.594	4.25
731.346	6.25
732.097	4.25
732.848	5.25
733.599	4.25
734.35	4.25
735.101	3.25
735.852	2.25
736.603	4.25
737.354	4.25
738.104	5.25
738.855	4.25
739.605	4.25
740.356	5.25
741.106	3.25
741.856	5.25
742.607	7.25
743.357	7.25
744.107	4.25
744.857	6.25
745.607	5.25
746.357	4.25
747.106	3.25
747.856	5.25
748.606	4.25
749.355	3.25
750.105	6.25
750.854	6.25
751.603	4.25
752.353	5.25
753.102	6.25
753.851	3.25
754.6	4.25
755.349	6.25
756.098	5.25
756.847	6.25
757.595	6.25
758.344	5.25
759.093	6.25
759.841	5.25
760.589	7.25
761.338	6.25
762.086	8.25
762.834	5.25
763.582	6.25
764.331	7.25
765.079	7.25
765.826	5.25
766.574	8.25
767.322	8.25
768.07	7.25
768.817	8.25
769.565	8.25
770.312	7.25
771.06	7.25
771.807	8.25
772.554	6.25
773.302	7.25
774.049	6.25
774.796	7.25
775.543	5.25
776.29	9.25
777.036	5.25
777.783	6.25
778.53	8.25
779.276	8.25
780.023	9.25
780.769	6.25
781.516	9.25
782.262	8.25
783.008	7.25
783.754	10.25
784.5	7.25
785.246	6.25
785.992	7.25
786.738	6.25
787.484	8.25
788.23	8.25
788.975	12.25
789.721	8.25
790.466	8.25
791.212	9.25
791.957	9.25
792.702	7.25
793.447	9.25
794.193	9.25
794.938	8.25
795.683	8.25
796.427	7.25
797.172	6.25
797.917	8.25
798.662	8.25
799.406	8.25
800.151	6.25
800.895	7.25
801.64	8.25
802.384	7.25
803.128	5.25
803.872	8.25
804.616	7.25
805.36	7.25
806.104	7.25
806.848	6.25
807.592	7.25
808.336	6.25
809.079	5.25
809.823	7.25
810.566	4.25
811.31	7.25
812.053	7.25
812.796	5.25
813.539	6.25
814.283	3.25
815.026	7.25
815.769	3.25
816.511	4.25
817.254	6.25
817.997	5.25
818.74	4.25
819.482	5.25
820.225	3.25
820.967	8.25
821.71	3.25
822.452	6.25
823.194	4.25
823.936	4.25
824.678	6.25
825.42	4.25
826.162	6.25
826.904	5.25
827.646	5.25
828.388	4.25
829.129	5.25
829.871	4.25
830.612	3.25
831.354	4.25
832.095	1.25
832.836	4.25
833.577	6.25
834.319	2.25
835.06	3.25
835.801	5.25
836.542	3.25
837.282	2.25
838.023	5.25
838.764	5.25
839.504	4.25
840.245	3.25
840.985	2.25
841.726	3.25
842.466	3.25
843.206	3.25
843.946	3.25
844.687	3.25
845.427	4.25
846.166	1.25
846.906	5.25
847.646	1.25
848.386	4.25
849.125	3.25
849.865	6.25
850.605	6.25
851.344	1.25
852.083	4.25
852.823	3.25
853.562	4.25
854.301	2.25
855.04	3.25
855.779	4.25
856.518	1.25
857.257	1.25
857.995	3.25
858.734	2.25
859.473	2.25
860.211	4.25
860.95	3.25
861.688	2.25
862.426	2.25
863.165	1.25
863.903	1.25
864.641	0.25
865.379	2.25
866.117	2.25
866.855	1.25
867.593	2.25
868.33	2.25
869.068	1.25
869.806	0.25
870.543	0.25
871.28	-0.75
872.018	-0.75
872.755	4.25
873.492	2.25
874.229	0.25
874.967	2.25
875.703	1.25
876.44	1.25
877.177	1.25
877.914	0.25
878.651	0.25
879.387	3.25
880.124	0.25
880.86	1.25
881.597	0.25
882.333	0.25
883.069	2.25
883.806	0.25
884.542	-1.75
885.278	0.25
886.014	3.25
886.749	2.25
887.485	2.25
888.221	1.25
888.957	-0.75
889.692	1.25
890.428	1.25
891.163	1.25
891.899	2.25
892.634	2.25
893.369	0.25
894.104	1.25
894.839	2.25
895.574	0.25
896.309	-1.75
897.044	1.25
897.779	0.25
898.514	-1.75
899.248	2.25
899.983	1.25
900.717	0.25
901.452	2.25
902.186	1.25
902.92	3.25
903.654	1.25
904.389	0.25
905.123	2.25
905.857	-0.75
906.59	1.25
907.324	2.25
908.058	2.25
908.792	1.25
909.525	0.25
910.259	-0.75
910.992	0.25
911.726	0.25
912.459	1.25
913.192	1.25
913.925	0.25
914.658	-1.75
915.391	-0.75
916.124	2.25
916.857	1.25
917.59	1.25
918.323	0.25
919.055	0.25
919.788	2.25
920.521	1.25
921.253	1.25
921.985	-0.75
922.718	1.25
923.45	1.25
924.182	1.25
924.914	-0.75
925.646	-0.75
926.378	0.25
927.11	1.25
927.841	0.25
928.573	2.25
929.305	0.25
930.036	0.25
930.768	2.25
931.499	2.25
932.23	0.25
932.962	-1.75
933.693	1.25
934.424	1.25
935.155	1.25
935.886	0.25
936.617	0.25
937.348	-0.75
938.078	0.25
938.809	-0.75
939.54	1.25
940.27	-1.75
941.001	4.25
941.731	-1.75
942.461	0.25
943.191	1.25
943.922	2.25
944.652	-0.75
945.382	0.25
946.112	1.25
946.841	-1.75
947.571	1.25
948.301	-0.75
949.031	-0.75
949.76	-0.75
950.49	0.25
951.219	0.25
951.948	1.25
952.678	1.25
953.407	3.25
954.136	3.25
954.865	2.25
955.594	0.25
956.323	2.25
957.052	2.25
957.78	1.25
958.509	0.25
959.238	0.25
959.966	2.25
960.695	-2.75
961.423	0.25
962.151	1.25
962.88	2.25
963.608	0.25
964.336	-0.75
965.064	4.25
965.792	1.25
966.52	2.25
967.247	0.25
967.975	1.25
968.703	-1.75
969.43	2.25
970.158	3.25
970.885	-1.75
971.613	1.25
972.34	1.25
973.067	0.25
973.794	2.25
974.521	-0.75
975.248	2.25
975.975	-0.75
976.702	0.25
977.429	1.25
978.156	1.25
978.882	0.25
979.609	1.25
980.335	0.25
981.062	1.25
981.788	0.25
982.514	1.25
983.24	-1.75
983.967	1.25
984.693	2.25
985.419	1.25
986.144	-1.75
986.87	1.25
987.596	0.25
988.322	1.25
989.047	2.25
989.773	2.25
990.498	-1.75
991.224	0.25
991.949	-0.75
992.674	2.25
993.399	-1.75
994.124	1.25
994.849	1.25
995.574	0.25
996.299	1.25
997.024	-0.75
997.749	1.25
998.473	-0.75
999.198	2.25
999.922	-1.75
1000.647	1.25
1001.371	3.25
1002.095	2.25
1002.82	0.25
1003.544	-0.75
1004.268	1.25
1004.992	4.25
1005.716	2.25
1006.439	2.25
1007.163	2.25
1007.887	2.25
1008.611	3.25
1009.334	-1.75
1010.058	1.25
1010.781	-1.75
1011.504	1.25
1012.228	0.25
1012.951	-1.75
1013.674	-1.75
1014.397	-1.75
1015.12	0.25
