节点500_285_QEPB04081__489__15-03-41-427.txt的数据

Date: Wed Nov 12 15:03:41 CST 2025
User: PC
Spectrometer: QEPB0408
触发模式: 0
积分时间 (秒): 1.000000E-2
Scans to average: 1
启用暗噪声校正: true
启用非线性校正: false
滑动平均宽度: 0
X轴模式: Wavelengths
Number of Pixels in Spectrum: 1044
>>>>>Begin Spectral Data<<<<<
220.843	2.5
221.644	1.5
222.444	4.5
223.244	1.5
224.045	1.5
224.845	1.5
225.645	1.5
226.445	2.5
227.245	1.5
228.045	1.5
228.845	1.5
229.645	1.5
230.444	2.5
231.244	3.5
232.043	5.5
232.843	3.5
233.642	4.5
234.442	1.5
235.241	5.5
236.04	3.5
236.839	2.5
237.638	1.5
238.437	1.5
239.236	4.5
240.035	2.5
240.833	4.5
241.632	5.5
242.43	6.5
243.229	3.5
244.027	3.5
244.826	4.5
245.624	2.5
246.422	6.5
247.22	6.5
248.018	3.5
248.816	8.5
249.614	3.5
250.412	7.5
251.21	4.5
252.007	4.5
252.805	6.5
253.602	5.5
254.4	7.5
255.197	5.5
255.994	8.5
256.791	8.5
257.589	8.5
258.386	9.5
259.183	7.5
259.979	8.5
260.776	11.5
261.573	8.5
262.37	9.5
263.166	10.5
263.963	12.5
264.759	10.5
265.556	14.5
266.352	9.5
267.148	12.5
267.944	12.5
268.74	13.5
269.536	13.5
270.332	15.5
271.128	14.5
271.924	14.5
272.719	14.5
273.515	13.5
274.311	14.5
275.106	15.5
275.901	16.5
276.697	18.5
277.492	19.5
278.287	16.5
279.082	16.5
279.877	15.5
280.672	19.5
281.467	15.5
282.262	17.5
283.056	14.5
283.851	15.5
284.646	19.5
285.44	16.5
286.234	17.5
287.029	17.5
287.823	17.5
288.617	15.5
289.411	19.5
290.205	19.5
290.999	17.5
291.793	18.5
292.587	15.5
293.381	14.5
294.174	16.5
294.968	13.5
295.761	16.5
296.555	13.5
297.348	12.5
298.141	12.5
298.935	15.5
299.728	15.5
300.521	12.5
301.314	16.5
302.107	13.5
302.899	11.5
303.692	11.5
304.485	11.5
305.277	10.5
306.07	12.5
306.862	12.5
307.655	11.5
308.447	8.5
309.239	12.5
310.031	9.5
310.823	11.5
311.615	8.5
312.407	9.5
313.199	7.5
313.991	9.5
314.783	11.5
315.574	7.5
316.366	6.5
317.157	7.5
317.949	7.5
318.74	9.5
319.531	6.5
320.322	8.5
321.113	5.5
321.904	7.5
322.695	6.5
323.486	5.5
324.277	4.5
325.068	3.5
325.858	7.5
326.649	4.5
327.439	4.5
328.23	5.5
329.02	8.5
329.81	5.5
330.6	5.5
331.391	8.5
332.181	6.5
332.971	7.5
333.76	6.5
334.55	5.5
335.34	5.5
336.13	7.5
336.919	5.5
337.709	7.5
338.498	8.5
339.287	8.5
340.077	5.5
340.866	6.5
341.655	5.5
342.444	5.5
343.233	6.5
344.022	4.5
344.811	5.5
345.6	8.5
346.388	6.5
347.177	4.5
347.965	5.5
348.754	7.5
349.542	4.5
350.33	6.5
351.119	8.5
351.907	5.5
352.695	6.5
353.483	3.5
354.271	3.5
355.059	3.5
355.846	4.5
356.634	8.5
357.422	4.5
358.209	3.5
358.997	5.5
359.784	2.5
360.571	4.5
361.359	6.5
362.146	4.5
362.933	6.5
363.72	6.5
364.507	1.5
365.294	8.5
366.081	3.5
366.867	7.5
367.654	2.5
368.44	4.5
369.227	5.5
370.013	4.5
370.8	4.5
371.586	3.5
372.372	6.5
373.158	6.5
373.944	4.5
374.73	5.5
375.516	2.5
376.302	3.5
377.088	5.5
377.873	6.5
378.659	7.5
379.445	4.5
380.23	5.5
381.015	3.5
381.801	7.5
382.586	5.5
383.371	3.5
384.156	4.5
384.941	5.5
385.726	2.5
386.511	5.5
387.296	4.5
388.08	5.5
388.865	6.5
389.649	5.5
390.434	5.5
391.218	4.5
392.003	4.5
392.787	6.5
393.571	6.5
394.355	3.5
395.139	7.5
395.923	4.5
396.707	4.5
397.491	5.5
398.274	5.5
399.058	3.5
399.842	6.5
400.625	8.5
401.408	6.5
402.192	7.5
402.975	6.5
403.758	8.5
404.541	9.5
405.324	9.5
406.107	9.5
406.89	8.5
407.673	9.5
408.456	6.5
409.238	8.5
410.021	7.5
410.803	9.5
411.586	8.5
412.368	9.5
413.151	7.5
413.933	11.5
414.715	7.5
415.497	9.5
416.279	7.5
417.061	7.5
417.843	9.5
418.624	9.5
419.406	9.5
420.188	9.5
420.969	13.5
421.751	10.5
422.532	9.5
423.313	11.5
424.095	10.5
424.876	12.5
425.657	12.5
426.438	9.5
427.219	11.5
428	8.5
428.78	11.5
429.561	12.5
430.342	12.5
431.122	13.5
431.903	13.5
432.683	15.5
433.464	12.5
434.244	15.5
435.024	14.5
435.804	16.5
436.584	18.5
437.364	19.5
438.144	20.5
438.924	20.5
439.704	22.5
440.483	20.5
441.263	23.5
442.042	24.5
442.822	24.5
443.601	31.5
444.38	28.5
445.16	29.5
445.939	35.5
446.718	34.5
447.497	41.5
448.276	40.5
449.054	44.5
449.833	45.5
450.612	52.5
451.391	58.5
452.169	64.5
452.948	70.5
453.726	73.5
454.504	86.5
455.282	93.5
456.061	99.5
456.839	115.5
457.617	124.5
458.395	143.5
459.172	154.5
459.95	172.5
460.728	189.5
461.506	213.5
462.283	237.5
463.061	265.5
463.838	297.5
464.615	332.5
465.393	369.5
466.17	405.5
466.947	466.5
467.724	516.5
468.501	580.5
469.278	633.5
470.055	699.5
470.831	782.5
471.608	863.5
472.385	975.5
473.161	1058.5
473.938	1186.5
474.714	1313.5
475.49	1446.5
476.266	1587.5
477.043	1754.5
477.819	1944.5
478.595	2119.5
479.371	2341.5
480.146	2600.5
480.922	2832.5
481.698	3117.5
482.473	3424.5
483.249	3732.5
484.024	4143.5
484.8	4555.5
485.575	4953.5
486.35	5459.5
487.126	5984.5
487.901	6563.5
488.676	7157.5
489.451	7857.5
490.225	8517.5
491	9314.5
491.775	10127.5
492.55	11057.5
493.324	11933.5
494.099	12855.5
494.873	13810.5
495.647	14975.5
496.422	16120.5
497.196	17136.5
497.97	18302.5
498.744	19453.5
499.518	20601.5
500.292	21688.5
501.066	22744.5
501.839	23672.5
502.613	24618.5
503.387	25407.5
504.16	26059.5
504.934	26434.5
505.707	26719.5
506.48	26884.5
507.253	26894.5
508.027	26624.5
508.8	26397.5
509.573	26041.5
510.346	25491.5
511.118	24851.5
511.891	24111.5
512.664	23363.5
513.437	22487.5
514.209	21614.5
514.982	20782.5
515.754	19832.5
516.526	18943.5
517.298	18150.5
518.071	17367.5
518.843	16661.5
519.615	16108.5
520.387	15437.5
521.159	14816.5
521.93	14259.5
522.702	13735.5
523.474	13105.5
524.245	12552.5
525.017	12033.5
525.788	11587.5
526.56	11092.5
527.331	10527.5
528.102	10078.5
528.873	9591.5
529.644	9150.5
530.415	8701.5
531.186	8272.5
531.957	7864.5
532.728	7461.5
533.498	7073.5
534.269	6680.5
535.039	6330.5
535.81	5993.5
536.58	5660.5
537.351	5318.5
538.121	5015.5
538.891	4773.5
539.661	4502.5
540.431	4231.5
541.201	4009.5
541.971	3832.5
542.741	3622.5
543.51	3440.5
544.28	3281.5
545.05	3127.5
545.819	2941.5
546.588	2820.5
547.358	2649.5
548.127	2519.5
548.896	2395.5
549.665	2285.5
550.434	2145.5
551.203	2052.5
551.972	1945.5
552.741	1819.5
553.51	1724.5
554.278	1639.5
555.047	1541.5
555.815	1462.5
556.584	1378.5
557.352	1310.5
558.121	1236.5
558.889	1160.5
559.657	1094.5
560.425	1034.5
561.193	976.5
561.961	922.5
562.729	873.5
563.496	816.5
564.264	775.5
565.032	741.5
565.799	708.5
566.567	650.5
567.334	624.5
568.101	592.5
568.869	560.5
569.636	523.5
570.403	484.5
571.17	469.5
571.937	443.5
572.704	407.5
573.471	386.5
574.237	369.5
575.004	348.5
575.771	322.5
576.537	310.5
577.303	292.5
578.07	277.5
578.836	251.5
579.602	240.5
580.368	223.5
581.134	218.5
581.9	207.5
582.666	196.5
583.432	187.5
584.198	174.5
584.964	165.5
585.729	158.5
586.495	148.5
587.26	142.5
588.025	135.5
588.791	125.5
589.556	123.5
590.321	114.5
591.086	110.5
591.851	102.5
592.616	96.5
593.381	93.5
594.146	82.5
594.911	80.5
595.675	83.5
596.44	73.5
597.204	70.5
597.969	69.5
598.733	69.5
599.497	63.5
600.261	61.5
601.025	61.5
601.79	55.5
602.553	55.5
603.317	50.5
604.081	47.5
604.845	48.5
605.609	45.5
606.372	36.5
607.136	41.5
607.899	40.5
608.662	35.5
609.426	35.5
610.189	36.5
610.952	31.5
611.715	33.5
612.478	32.5
613.241	28.5
614.004	31.5
614.767	25.5
615.529	25.5
616.292	27.5
617.055	22.5
617.817	23.5
618.579	22.5
619.342	19.5
620.104	17.5
620.866	21.5
621.628	22.5
622.39	17.5
623.152	18.5
623.914	13.5
624.676	17.5
625.438	14.5
626.199	13.5
626.961	17.5
627.722	14.5
628.484	15.5
629.245	16.5
630.006	13.5
630.768	13.5
631.529	9.5
632.29	12.5
633.051	10.5
633.812	12.5
634.573	11.5
635.333	9.5
636.094	11.5
636.855	10.5
637.615	10.5
638.376	9.5
639.136	9.5
639.896	9.5
640.657	9.5
641.417	9.5
642.177	8.5
642.937	10.5
643.697	7.5
644.457	5.5
645.216	7.5
645.976	7.5
646.736	6.5
647.495	6.5
648.255	8.5
649.014	8.5
649.774	6.5
650.533	9.5
651.292	5.5
652.051	7.5
652.81	6.5
653.569	5.5
654.328	5.5
655.087	5.5
655.846	7.5
656.604	6.5
657.363	6.5
658.121	6.5
658.88	4.5
659.638	7.5
660.397	4.5
661.155	8.5
661.913	3.5
662.671	4.5
663.429	7.5
664.187	3.5
664.945	5.5
665.703	5.5
666.46	5.5
667.218	3.5
667.976	5.5
668.733	5.5
669.49	3.5
670.248	4.5
671.005	3.5
671.762	3.5
672.519	4.5
673.276	6.5
674.033	4.5
674.79	4.5
675.547	5.5
676.304	3.5
677.06	3.5
677.817	4.5
678.574	4.5
679.33	3.5
680.086	4.5
680.843	3.5
681.599	2.5
682.355	6.5
683.111	4.5
683.867	4.5
684.623	2.5
685.379	0.5
686.135	5.5
686.89	3.5
687.646	5.5
688.402	0.5
689.157	3.5
689.912	6.5
690.668	2.5
691.423	3.5
692.178	5.5
692.933	4.5
693.688	4.5
694.443	3.5
695.198	3.5
695.953	4.5
696.708	3.5
697.462	2.5
698.217	2.5
698.972	2.5
699.726	2.5
700.48	3.5
701.235	3.5
701.989	3.5
702.743	3.5
703.497	2.5
704.251	3.5
705.005	1.5
705.759	5.5
706.513	2.5
707.266	0.5
708.02	4.5
708.774	1.5
709.527	1.5
710.28	1.5
711.034	3.5
711.787	4.5
712.54	1.5
713.293	1.5
714.046	1.5
714.799	1.5
715.552	4.5
716.305	1.5
717.058	2.5
717.81	3.5
718.563	4.5
719.315	3.5
720.068	6.5
720.82	4.5
721.573	1.5
722.325	1.5
723.077	3.5
723.829	3.5
724.581	3.5
725.333	1.5
726.085	4.5
726.836	2.5
727.588	2.5
728.34	3.5
729.091	5.5
729.843	3.5
730.594	4.5
731.346	4.5
732.097	3.5
732.848	4.5
733.599	3.5
734.35	2.5
735.101	2.5
735.852	3.5
736.603	4.5
737.354	4.5
738.104	4.5
738.855	5.5
739.605	3.5
740.356	4.5
741.106	4.5
741.856	3.5
742.607	3.5
743.357	5.5
744.107	2.5
744.857	4.5
745.607	4.5
746.357	2.5
747.106	4.5
747.856	5.5
748.606	4.5
749.355	5.5
750.105	4.5
750.854	5.5
751.603	1.5
752.353	6.5
753.102	1.5
753.851	3.5
754.6	2.5
755.349	6.5
756.098	4.5
756.847	4.5
757.595	3.5
758.344	4.5
759.093	4.5
759.841	3.5
760.589	8.5
761.338	6.5
762.086	4.5
762.834	5.5
763.582	8.5
764.331	4.5
765.079	4.5
765.826	2.5
766.574	6.5
767.322	7.5
768.07	7.5
768.817	6.5
769.565	8.5
770.312	5.5
771.06	6.5
771.807	5.5
772.554	6.5
773.302	6.5
774.049	7.5
774.796	8.5
775.543	9.5
776.29	8.5
777.036	10.5
777.783	7.5
778.53	6.5
779.276	7.5
780.023	7.5
780.769	8.5
781.516	6.5
782.262	8.5
783.008	5.5
783.754	7.5
784.5	9.5
785.246	7.5
785.992	9.5
786.738	8.5
787.484	8.5
788.23	7.5
788.975	6.5
789.721	9.5
790.466	7.5
791.212	7.5
791.957	7.5
792.702	6.5
793.447	6.5
794.193	6.5
794.938	9.5
795.683	8.5
796.427	7.5
797.172	8.5
797.917	9.5
798.662	5.5
799.406	6.5
800.151	7.5
800.895	7.5
801.64	8.5
802.384	8.5
803.128	8.5
803.872	6.5
804.616	6.5
805.36	8.5
806.104	6.5
806.848	4.5
807.592	5.5
808.336	6.5
809.079	5.5
809.823	5.5
810.566	4.5
811.31	7.5
812.053	4.5
812.796	6.5
813.539	3.5
814.283	5.5
815.026	5.5
815.769	3.5
816.511	2.5
817.254	3.5
817.997	5.5
818.74	3.5
819.482	5.5
820.225	4.5
820.967	4.5
821.71	5.5
822.452	3.5
823.194	2.5
823.936	3.5
824.678	3.5
825.42	5.5
826.162	4.5
826.904	6.5
827.646	2.5
828.388	4.5
829.129	1.5
829.871	3.5
830.612	5.5
831.354	0.5
832.095	3.5
832.836	4.5
833.577	2.5
834.319	1.5
835.06	0.5
835.801	2.5
836.542	0.5
837.282	1.5
838.023	3.5
838.764	5.5
839.504	4.5
840.245	2.5
840.985	1.5
841.726	0.5
842.466	3.5
843.206	3.5
843.946	4.5
844.687	0.5
845.427	3.5
846.166	2.5
846.906	3.5
847.646	1.5
848.386	2.5
849.125	1.5
849.865	3.5
850.605	2.5
851.344	3.5
852.083	1.5
852.823	3.5
853.562	3.5
854.301	1.5
855.04	1.5
855.779	0.5
856.518	2.5
857.257	2.5
857.995	-0.5
858.734	4.5
859.473	3.5
860.211	4.5
860.95	3.5
861.688	2.5
862.426	3.5
863.165	0.5
863.903	1.5
864.641	0.5
865.379	-0.5
866.117	2.5
866.855	-0.5
867.593	1.5
868.33	-0.5
869.068	2.5
869.806	0.5
870.543	2.5
871.28	2.5
872.018	2.5
872.755	2.5
873.492	1.5
874.229	2.5
874.967	-0.5
875.703	0.5
876.44	-0.5
877.177	-0.5
877.914	-1.5
878.651	1.5
879.387	1.5
880.124	0.5
880.86	0.5
881.597	1.5
882.333	0.5
883.069	-0.5
883.806	-0.5
884.542	1.5
885.278	-0.5
886.014	0.5
886.749	2.5
887.485	0.5
888.221	1.5
888.957	1.5
889.692	0.5
890.428	1.5
891.163	-0.5
891.899	-2.5
892.634	0.5
893.369	1.5
894.104	1.5
894.839	0.5
895.574	1.5
896.309	-0.5
897.044	0.5
897.779	1.5
898.514	-2.5
899.248	2.5
899.983	-0.5
900.717	0.5
901.452	1.5
902.186	0.5
902.92	-1.5
903.654	1.5
904.389	1.5
905.123	-0.5
905.857	-1.5
906.59	-1.5
907.324	-0.5
908.058	0.5
908.792	0.5
909.525	0.5
910.259	0.5
910.992	1.5
911.726	-0.5
912.459	-0.5
913.192	-1.5
913.925	0.5
914.658	-1.5
915.391	-2.5
916.124	-0.5
916.857	-1.5
917.59	0.5
918.323	1.5
919.055	0.5
919.788	0.5
920.521	-1.5
921.253	-0.5
921.985	-0.5
922.718	1.5
923.45	-0.5
924.182	-0.5
924.914	1.5
925.646	-1.5
926.378	-1.5
927.11	-1.5
927.841	1.5
928.573	-0.5
929.305	-0.5
930.036	-0.5
930.768	0.5
931.499	0.5
932.23	-0.5
932.962	0.5
933.693	-0.5
934.424	1.5
935.155	-0.5
935.886	-1.5
936.617	0.5
937.348	-1.5
938.078	0.5
938.809	0.5
939.54	-0.5
940.27	-0.5
941.001	-1.5
941.731	2.5
942.461	-0.5
943.191	1.5
943.922	-0.5
944.652	0.5
945.382	0.5
946.112	-0.5
946.841	-0.5
947.571	2.5
948.301	1.5
949.031	1.5
949.76	-1.5
950.49	-0.5
951.219	1.5
951.948	0.5
952.678	1.5
953.407	0.5
954.136	1.5
954.865	0.5
955.594	0.5
956.323	0.5
957.052	-1.5
957.78	0.5
958.509	1.5
959.238	-0.5
959.966	-1.5
960.695	0.5
961.423	1.5
962.151	0.5
962.88	-0.5
963.608	-1.5
964.336	-2.5
965.064	-1.5
965.792	1.5
966.52	1.5
967.247	-1.5
967.975	-0.5
968.703	-0.5
969.43	-1.5
970.158	1.5
970.885	-0.5
971.613	0.5
972.34	0.5
973.067	1.5
973.794	-0.5
974.521	0.5
975.248	0.5
975.975	-1.5
976.702	-1.5
977.429	-0.5
978.156	2.5
978.882	0.5
979.609	0.5
980.335	0.5
981.062	-2.5
981.788	-0.5
982.514	-0.5
983.24	0.5
983.967	-2.5
984.693	0.5
985.419	-2.5
986.144	0.5
986.87	1.5
987.596	-2.5
988.322	-0.5
989.047	1.5
989.773	-0.5
990.498	-1.5
991.224	-1.5
991.949	0.5
992.674	-0.5
993.399	-0.5
994.124	-1.5
994.849	0.5
995.574	1.5
996.299	2.5
997.024	0.5
997.749	-0.5
998.473	-0.5
999.198	1.5
999.922	1.5
1000.647	0.5
1001.371	5.5
1002.095	-2.5
1002.82	-1.5
1003.544	-1.5
1004.268	0.5
1004.992	-1.5
1005.716	-0.5
1006.439	2.5
1007.163	-0.5
1007.887	0.5
1008.611	1.5
1009.334	-0.5
1010.058	-0.5
1010.781	0.5
1011.504	1.5
1012.228	-1.5
1012.951	-0.5
1013.674	1.5
1014.397	-0.5
1015.12	-0.5
