节点500_285_QEPB04081__530__15-04-22-327.txt的数据

Date: Wed Nov 12 15:04:22 CST 2025
User: PC
Spectrometer: QEPB0408
触发模式: 0
积分时间 (秒): 1.000000E-2
Scans to average: 1
启用暗噪声校正: true
启用非线性校正: false
滑动平均宽度: 0
X轴模式: Wavelengths
Number of Pixels in Spectrum: 1044
>>>>>Begin Spectral Data<<<<<
220.843	1.38
221.644	0.38
222.444	0.38
223.244	1.38
224.045	0.38
224.845	3.38
225.645	2.38
226.445	3.38
227.245	2.38
228.045	3.38
228.845	2.38
229.645	1.38
230.444	1.38
231.244	2.38
232.043	3.38
232.843	2.38
233.642	2.38
234.442	4.38
235.241	4.38
236.04	3.38
236.839	3.38
237.638	1.38
238.437	2.38
239.236	5.38
240.035	3.38
240.833	4.38
241.632	2.38
242.43	3.38
243.229	3.38
244.027	1.38
244.826	6.38
245.624	6.38
246.422	4.38
247.22	8.38
248.018	6.38
248.816	6.38
249.614	3.38
250.412	5.38
251.21	4.38
252.007	4.38
252.805	4.38
253.602	6.38
254.4	8.38
255.197	7.38
255.994	6.38
256.791	7.38
257.589	9.38
258.386	9.38
259.183	7.38
259.979	9.38
260.776	8.38
261.573	8.38
262.37	9.38
263.166	7.38
263.963	9.38
264.759	10.38
265.556	10.38
266.352	12.38
267.148	11.38
267.944	12.38
268.74	10.38
269.536	15.38
270.332	13.38
271.128	13.38
271.924	13.38
272.719	16.38
273.515	16.38
274.311	14.38
275.106	15.38
275.901	16.38
276.697	16.38
277.492	17.38
278.287	15.38
279.082	17.38
279.877	18.38
280.672	15.38
281.467	18.38
282.262	18.38
283.056	18.38
283.851	14.38
284.646	20.38
285.44	18.38
286.234	19.38
287.029	18.38
287.823	17.38
288.617	18.38
289.411	17.38
290.205	19.38
290.999	19.38
291.793	17.38
292.587	18.38
293.381	14.38
294.174	17.38
294.968	15.38
295.761	16.38
296.555	16.38
297.348	14.38
298.141	12.38
298.935	18.38
299.728	14.38
300.521	13.38
301.314	13.38
302.107	12.38
302.899	13.38
303.692	13.38
304.485	11.38
305.277	12.38
306.07	11.38
306.862	11.38
307.655	11.38
308.447	9.38
309.239	10.38
310.031	11.38
310.823	9.38
311.615	10.38
312.407	9.38
313.199	9.38
313.991	8.38
314.783	8.38
315.574	10.38
316.366	9.38
317.157	9.38
317.949	6.38
318.74	6.38
319.531	7.38
320.322	6.38
321.113	6.38
321.904	7.38
322.695	6.38
323.486	6.38
324.277	7.38
325.068	5.38
325.858	6.38
326.649	7.38
327.439	6.38
328.23	5.38
329.02	6.38
329.81	5.38
330.6	5.38
331.391	7.38
332.181	5.38
332.971	5.38
333.76	6.38
334.55	3.38
335.34	7.38
336.13	5.38
336.919	6.38
337.709	6.38
338.498	5.38
339.287	5.38
340.077	6.38
340.866	7.38
341.655	4.38
342.444	4.38
343.233	4.38
344.022	5.38
344.811	5.38
345.6	7.38
346.388	3.38
347.177	3.38
347.965	7.38
348.754	4.38
349.542	6.38
350.33	7.38
351.119	6.38
351.907	3.38
352.695	5.38
353.483	4.38
354.271	6.38
355.059	4.38
355.846	4.38
356.634	6.38
357.422	4.38
358.209	5.38
358.997	5.38
359.784	5.38
360.571	6.38
361.359	4.38
362.146	7.38
362.933	5.38
363.72	4.38
364.507	2.38
365.294	4.38
366.081	3.38
366.867	7.38
367.654	5.38
368.44	2.38
369.227	5.38
370.013	5.38
370.8	3.38
371.586	4.38
372.372	4.38
373.158	5.38
373.944	7.38
374.73	5.38
375.516	4.38
376.302	7.38
377.088	3.38
377.873	4.38
378.659	4.38
379.445	2.38
380.23	4.38
381.015	5.38
381.801	4.38
382.586	1.38
383.371	5.38
384.156	6.38
384.941	4.38
385.726	5.38
386.511	4.38
387.296	2.38
388.08	8.38
388.865	6.38
389.649	5.38
390.434	6.38
391.218	6.38
392.003	3.38
392.787	4.38
393.571	4.38
394.355	3.38
395.139	5.38
395.923	5.38
396.707	7.38
397.491	6.38
398.274	6.38
399.058	4.38
399.842	8.38
400.625	6.38
401.408	7.38
402.192	7.38
402.975	7.38
403.758	4.38
404.541	7.38
405.324	4.38
406.107	6.38
406.89	7.38
407.673	7.38
408.456	7.38
409.238	9.38
410.021	8.38
410.803	9.38
411.586	8.38
412.368	5.38
413.151	8.38
413.933	11.38
414.715	9.38
415.497	7.38
416.279	8.38
417.061	8.38
417.843	7.38
418.624	9.38
419.406	10.38
420.188	9.38
420.969	9.38
421.751	7.38
422.532	9.38
423.313	11.38
424.095	11.38
424.876	10.38
425.657	12.38
426.438	12.38
427.219	9.38
428	12.38
428.78	12.38
429.561	12.38
430.342	13.38
431.122	14.38
431.903	13.38
432.683	14.38
433.464	14.38
434.244	16.38
435.024	16.38
435.804	20.38
436.584	18.38
437.364	18.38
438.144	16.38
438.924	20.38
439.704	21.38
440.483	19.38
441.263	22.38
442.042	23.38
442.822	27.38
443.601	27.38
444.38	27.38
445.16	31.38
445.939	35.38
446.718	39.38
447.497	39.38
448.276	40.38
449.054	48.38
449.833	47.38
450.612	55.38
451.391	60.38
452.169	62.38
452.948	69.38
453.726	77.38
454.504	85.38
455.282	94.38
456.061	102.38
456.839	115.38
457.617	132.38
458.395	138.38
459.172	156.38
459.95	177.38
460.728	193.38
461.506	219.38
462.283	243.38
463.061	273.38
463.838	303.38
464.615	336.38
465.393	374.38
466.17	423.38
466.947	463.38
467.724	510.38
468.501	584.38
469.278	641.38
470.055	713.38
470.831	797.38
471.608	869.38
472.385	958.38
473.161	1062.38
473.938	1180.38
474.714	1309.38
475.49	1445.38
476.266	1588.38
477.043	1752.38
477.819	1932.38
478.595	2129.38
479.371	2369.38
480.146	2580.38
480.922	2814.38
481.698	3100.38
482.473	3414.38
483.249	3730.38
484.024	4125.38
484.8	4515.38
485.575	4921.38
486.35	5403.38
487.126	5900.38
487.901	6455.38
488.676	7062.38
489.451	7733.38
490.225	8431.38
491	9210.38
491.775	10038.38
492.55	10890.38
493.324	11775.38
494.099	12668.38
494.873	13626.38
495.647	14708.38
496.422	15823.38
497.196	16936.38
497.97	17993.38
498.744	19207.38
499.518	20255.38
500.292	21336.38
501.066	22381.38
501.839	23304.38
502.613	24325.38
503.387	25113.38
504.16	25713.38
504.934	26165.38
505.707	26371.38
506.48	26576.38
507.253	26582.38
508.027	26460.38
508.8	26167.38
509.573	25851.38
510.346	25359.38
511.118	24723.38
511.891	24067.38
512.664	23278.38
513.437	22459.38
514.209	21544.38
514.982	20785.38
515.754	19876.38
516.526	18970.38
517.298	18216.38
518.071	17389.38
518.843	16763.38
519.615	16181.38
520.387	15486.38
521.159	14851.38
521.93	14267.38
522.702	13748.38
523.474	13135.38
524.245	12587.38
525.017	12042.38
525.788	11629.38
526.56	11103.38
527.331	10561.38
528.102	10112.38
528.873	9642.38
529.644	9160.38
530.415	8746.38
531.186	8304.38
531.957	7874.38
532.728	7505.38
533.498	7129.38
534.269	6727.38
535.039	6366.38
535.81	6029.38
536.58	5687.38
537.351	5339.38
538.121	5092.38
538.891	4803.38
539.661	4541.38
540.431	4280.38
541.201	4044.38
541.971	3835.38
542.741	3622.38
543.51	3456.38
544.28	3281.38
545.05	3126.38
545.819	2970.38
546.588	2814.38
547.358	2699.38
548.127	2578.38
548.896	2421.38
549.665	2301.38
550.434	2175.38
551.203	2069.38
551.972	1947.38
552.741	1854.38
553.51	1741.38
554.278	1650.38
555.047	1555.38
555.815	1463.38
556.584	1397.38
557.352	1306.38
558.121	1248.38
558.889	1161.38
559.657	1123.38
560.425	1049.38
561.193	984.38
561.961	924.38
562.729	887.38
563.496	826.38
564.264	774.38
565.032	746.38
565.799	700.38
566.567	667.38
567.334	636.38
568.101	604.38
568.869	555.38
569.636	523.38
570.403	502.38
571.17	465.38
571.937	442.38
572.704	417.38
573.471	396.38
574.237	370.38
575.004	355.38
575.771	323.38
576.537	306.38
577.303	292.38
578.07	272.38
578.836	262.38
579.602	234.38
580.368	229.38
581.134	218.38
581.9	207.38
582.666	199.38
583.432	187.38
584.198	175.38
584.964	169.38
585.729	160.38
586.495	145.38
587.26	144.38
588.025	136.38
588.791	132.38
589.556	120.38
590.321	118.38
591.086	109.38
591.851	105.38
592.616	100.38
593.381	94.38
594.146	90.38
594.911	83.38
595.675	80.38
596.44	81.38
597.204	71.38
597.969	69.38
598.733	69.38
599.497	63.38
600.261	58.38
601.025	58.38
601.79	53.38
602.553	52.38
603.317	50.38
604.081	47.38
604.845	47.38
605.609	45.38
606.372	40.38
607.136	42.38
607.899	37.38
608.662	36.38
609.426	38.38
610.189	33.38
610.952	32.38
611.715	30.38
612.478	34.38
613.241	28.38
614.004	26.38
614.767	27.38
615.529	25.38
616.292	28.38
617.055	23.38
617.817	23.38
618.579	24.38
619.342	20.38
620.104	19.38
620.866	19.38
621.628	19.38
622.39	16.38
623.152	19.38
623.914	18.38
624.676	16.38
625.438	16.38
626.199	13.38
626.961	14.38
627.722	16.38
628.484	16.38
629.245	13.38
630.006	13.38
630.768	13.38
631.529	13.38
632.29	11.38
633.051	13.38
633.812	13.38
634.573	13.38
635.333	9.38
636.094	13.38
636.855	9.38
637.615	11.38
638.376	7.38
639.136	10.38
639.896	8.38
640.657	10.38
641.417	9.38
642.177	8.38
642.937	7.38
643.697	9.38
644.457	6.38
645.216	8.38
645.976	7.38
646.736	7.38
647.495	5.38
648.255	9.38
649.014	5.38
649.774	8.38
650.533	7.38
651.292	4.38
652.051	5.38
652.81	5.38
653.569	5.38
654.328	8.38
655.087	2.38
655.846	7.38
656.604	6.38
657.363	6.38
658.121	4.38
658.88	3.38
659.638	5.38
660.397	3.38
661.155	5.38
661.913	6.38
662.671	5.38
663.429	6.38
664.187	4.38
664.945	5.38
665.703	4.38
666.46	3.38
667.218	4.38
667.976	4.38
668.733	4.38
669.49	3.38
670.248	4.38
671.005	2.38
671.762	2.38
672.519	4.38
673.276	3.38
674.033	5.38
674.79	3.38
675.547	3.38
676.304	4.38
677.06	4.38
677.817	5.38
678.574	4.38
679.33	2.38
680.086	3.38
680.843	3.38
681.599	4.38
682.355	3.38
683.111	5.38
683.867	3.38
684.623	3.38
685.379	4.38
686.135	4.38
686.89	4.38
687.646	2.38
688.402	4.38
689.157	0.38
689.912	5.38
690.668	-0.62
691.423	3.38
692.178	3.38
692.933	3.38
693.688	4.38
694.443	4.38
695.198	4.38
695.953	1.38
696.708	3.38
697.462	1.38
698.217	5.38
698.972	3.38
699.726	4.38
700.48	3.38
701.235	2.38
701.989	1.38
702.743	3.38
703.497	0.38
704.251	3.38
705.005	1.38
705.759	3.38
706.513	1.38
707.266	3.38
708.02	3.38
708.774	2.38
709.527	5.38
710.28	5.38
711.034	1.38
711.787	3.38
712.54	3.38
713.293	5.38
714.046	3.38
714.799	5.38
715.552	2.38
716.305	1.38
717.058	3.38
717.81	4.38
718.563	3.38
719.315	1.38
720.068	4.38
720.82	5.38
721.573	3.38
722.325	3.38
723.077	4.38
723.829	5.38
724.581	2.38
725.333	4.38
726.085	2.38
726.836	1.38
727.588	3.38
728.34	2.38
729.091	3.38
729.843	3.38
730.594	3.38
731.346	5.38
732.097	6.38
732.848	4.38
733.599	4.38
734.35	3.38
735.101	4.38
735.852	1.38
736.603	4.38
737.354	3.38
738.104	2.38
738.855	3.38
739.605	4.38
740.356	4.38
741.106	3.38
741.856	3.38
742.607	3.38
743.357	4.38
744.107	3.38
744.857	4.38
745.607	3.38
746.357	4.38
747.106	5.38
747.856	6.38
748.606	3.38
749.355	5.38
750.105	6.38
750.854	4.38
751.603	4.38
752.353	4.38
753.102	4.38
753.851	5.38
754.6	5.38
755.349	5.38
756.098	6.38
756.847	2.38
757.595	6.38
758.344	5.38
759.093	6.38
759.841	4.38
760.589	5.38
761.338	6.38
762.086	6.38
762.834	7.38
763.582	7.38
764.331	7.38
765.079	5.38
765.826	7.38
766.574	5.38
767.322	6.38
768.07	5.38
768.817	5.38
769.565	6.38
770.312	8.38
771.06	7.38
771.807	8.38
772.554	5.38
773.302	7.38
774.049	8.38
774.796	6.38
775.543	9.38
776.29	5.38
777.036	5.38
777.783	7.38
778.53	7.38
779.276	8.38
780.023	8.38
780.769	8.38
781.516	5.38
782.262	11.38
783.008	11.38
783.754	8.38
784.5	5.38
785.246	7.38
785.992	7.38
786.738	6.38
787.484	9.38
788.23	8.38
788.975	8.38
789.721	10.38
790.466	9.38
791.212	7.38
791.957	6.38
792.702	10.38
793.447	8.38
794.193	7.38
794.938	8.38
795.683	8.38
796.427	7.38
797.172	6.38
797.917	6.38
798.662	9.38
799.406	7.38
800.151	6.38
800.895	6.38
801.64	8.38
802.384	7.38
803.128	6.38
803.872	7.38
804.616	5.38
805.36	7.38
806.104	9.38
806.848	7.38
807.592	5.38
808.336	5.38
809.079	6.38
809.823	6.38
810.566	6.38
811.31	5.38
812.053	1.38
812.796	6.38
813.539	4.38
814.283	5.38
815.026	6.38
815.769	6.38
816.511	4.38
817.254	2.38
817.997	4.38
818.74	4.38
819.482	7.38
820.225	4.38
820.967	3.38
821.71	3.38
822.452	4.38
823.194	4.38
823.936	3.38
824.678	4.38
825.42	3.38
826.162	2.38
826.904	4.38
827.646	2.38
828.388	4.38
829.129	3.38
829.871	4.38
830.612	5.38
831.354	3.38
832.095	2.38
832.836	1.38
833.577	0.38
834.319	3.38
835.06	6.38
835.801	2.38
836.542	1.38
837.282	4.38
838.023	2.38
838.764	4.38
839.504	2.38
840.245	0.38
840.985	4.38
841.726	3.38
842.466	2.38
843.206	1.38
843.946	3.38
844.687	-0.62
845.427	2.38
846.166	2.38
846.906	1.38
847.646	2.38
848.386	0.38
849.125	0.38
849.865	1.38
850.605	2.38
851.344	1.38
852.083	3.38
852.823	3.38
853.562	2.38
854.301	3.38
855.04	1.38
855.779	1.38
856.518	2.38
857.257	3.38
857.995	4.38
858.734	1.38
859.473	2.38
860.211	1.38
860.95	1.38
861.688	0.38
862.426	2.38
863.165	2.38
863.903	3.38
864.641	-3.62
865.379	3.38
866.117	-0.62
866.855	2.38
867.593	1.38
868.33	2.38
869.068	-0.62
869.806	1.38
870.543	-0.62
871.28	1.38
872.018	1.38
872.755	1.38
873.492	1.38
874.229	4.38
874.967	-1.62
875.703	1.38
876.44	-2.62
877.177	-0.62
877.914	2.38
878.651	-0.62
879.387	2.38
880.124	1.38
880.86	2.38
881.597	0.38
882.333	-1.62
883.069	1.38
883.806	0.38
884.542	1.38
885.278	1.38
886.014	1.38
886.749	1.38
887.485	0.38
888.221	-0.62
888.957	0.38
889.692	-0.62
890.428	1.38
891.163	-0.62
891.899	1.38
892.634	0.38
893.369	2.38
894.104	0.38
894.839	1.38
895.574	1.38
896.309	1.38
897.044	-0.62
897.779	-1.62
898.514	1.38
899.248	-1.62
899.983	1.38
900.717	0.38
901.452	0.38
902.186	0.38
902.92	1.38
903.654	-0.62
904.389	0.38
905.123	1.38
905.857	1.38
906.59	0.38
907.324	-0.62
908.058	1.38
908.792	1.38
909.525	1.38
910.259	0.38
910.992	1.38
911.726	-1.62
912.459	-1.62
913.192	0.38
913.925	-1.62
914.658	0.38
915.391	0.38
916.124	0.38
916.857	-1.62
917.59	0.38
918.323	-1.62
919.055	-0.62
919.788	-0.62
920.521	-2.62
921.253	0.38
921.985	-3.62
922.718	2.38
923.45	-1.62
924.182	0.38
924.914	-1.62
925.646	-0.62
926.378	-0.62
927.11	-1.62
927.841	0.38
928.573	0.38
929.305	-2.62
930.036	-0.62
930.768	-0.62
931.499	-2.62
932.23	0.38
932.962	0.38
933.693	-0.62
934.424	0.38
935.155	-0.62
935.886	-0.62
936.617	0.38
937.348	-0.62
938.078	-1.62
938.809	0.38
939.54	-1.62
940.27	-1.62
941.001	-0.62
941.731	-1.62
942.461	-0.62
943.191	-1.62
943.922	0.38
944.652	-3.62
945.382	-0.62
946.112	-1.62
946.841	-0.62
947.571	0.38
948.301	-1.62
949.031	0.38
949.76	-1.62
950.49	-0.62
951.219	-1.62
951.948	0.38
952.678	-0.62
953.407	0.38
954.136	-0.62
954.865	-0.62
955.594	-0.62
956.323	-0.62
957.052	-1.62
957.78	0.38
958.509	1.38
959.238	-1.62
959.966	-0.62
960.695	-1.62
961.423	-3.62
962.151	-0.62
962.88	0.38
963.608	-1.62
964.336	0.38
965.064	1.38
965.792	-1.62
966.52	1.38
967.247	0.38
967.975	0.38
968.703	1.38
969.43	0.38
970.158	-0.62
970.885	0.38
971.613	0.38
972.34	-0.62
973.067	1.38
973.794	-1.62
974.521	-0.62
975.248	-0.62
975.975	-2.62
976.702	1.38
977.429	-2.62
978.156	-1.62
978.882	-0.62
979.609	2.38
980.335	-0.62
981.062	0.38
981.788	2.38
982.514	-0.62
983.24	0.38
983.967	0.38
984.693	-1.62
985.419	0.38
986.144	1.38
986.87	1.38
987.596	1.38
988.322	0.38
989.047	-0.62
989.773	-1.62
990.498	0.38
991.224	-2.62
991.949	3.38
992.674	-0.62
993.399	-0.62
994.124	0.38
994.849	-1.62
995.574	1.38
996.299	-0.62
997.024	0.38
997.749	-0.62
998.473	-0.62
999.198	-2.62
999.922	-1.62
1000.647	-0.62
1001.371	2.38
1002.095	0.38
1002.82	1.38
1003.544	-0.62
1004.268	1.38
1004.992	1.38
1005.716	0.38
1006.439	0.38
1007.163	1.38
1007.887	2.38
1008.611	-2.62
1009.334	0.38
1010.058	0.38
1010.781	0.38
1011.504	1.38
1012.228	0.38
1012.951	-1.62
1013.674	-1.62
1014.397	-1.62
1015.12	1.38
