节点500_285_QEPB04081__564__15-04-56-209.txt的数据

Date: Wed Nov 12 15:04:56 CST 2025
User: PC
Spectrometer: QEPB0408
触发模式: 0
积分时间 (秒): 1.000000E-2
Scans to average: 1
启用暗噪声校正: true
启用非线性校正: false
滑动平均宽度: 0
X轴模式: Wavelengths
Number of Pixels in Spectrum: 1044
>>>>>Begin Spectral Data<<<<<
220.843	1
221.644	2
222.444	3
223.244	1
224.045	1
224.845	1
225.645	2
226.445	3
227.245	1
228.045	4
228.845	2
229.645	2
230.444	3
231.244	2
232.043	4
232.843	3
233.642	2
234.442	2
235.241	5
236.04	4
236.839	5
237.638	5
238.437	3
239.236	5
240.035	3
240.833	2
241.632	3
242.43	4
243.229	2
244.027	4
244.826	6
245.624	3
246.422	7
247.22	2
248.018	6
248.816	7
249.614	8
250.412	9
251.21	6
252.007	7
252.805	7
253.602	10
254.4	7
255.197	4
255.994	8
256.791	8
257.589	10
258.386	9
259.183	10
259.979	11
260.776	8
261.573	9
262.37	9
263.166	10
263.963	12
264.759	13
265.556	11
266.352	11
267.148	14
267.944	12
268.74	13
269.536	13
270.332	14
271.128	12
271.924	17
272.719	17
273.515	17
274.311	15
275.106	16
275.901	17
276.697	14
277.492	19
278.287	17
279.082	17
279.877	17
280.672	18
281.467	15
282.262	14
283.056	18
283.851	17
284.646	17
285.44	20
286.234	16
287.029	16
287.823	17
288.617	17
289.411	15
290.205	19
290.999	17
291.793	18
292.587	17
293.381	17
294.174	17
294.968	15
295.761	17
296.555	14
297.348	15
298.141	17
298.935	17
299.728	14
300.521	16
301.314	15
302.107	13
302.899	15
303.692	13
304.485	15
305.277	13
306.07	12
306.862	12
307.655	11
308.447	14
309.239	13
310.031	11
310.823	12
311.615	8
312.407	11
313.199	10
313.991	11
314.783	8
315.574	9
316.366	6
317.157	9
317.949	11
318.74	9
319.531	7
320.322	6
321.113	8
321.904	7
322.695	8
323.486	8
324.277	6
325.068	9
325.858	7
326.649	5
327.439	7
328.23	9
329.02	9
329.81	7
330.6	7
331.391	8
332.181	7
332.971	9
333.76	8
334.55	7
335.34	5
336.13	7
336.919	5
337.709	7
338.498	5
339.287	6
340.077	4
340.866	7
341.655	5
342.444	8
343.233	7
344.022	5
344.811	5
345.6	5
346.388	9
347.177	6
347.965	6
348.754	7
349.542	6
350.33	6
351.119	5
351.907	8
352.695	6
353.483	6
354.271	5
355.059	3
355.846	7
356.634	5
357.422	3
358.209	5
358.997	5
359.784	8
360.571	5
361.359	7
362.146	4
362.933	7
363.72	7
364.507	5
365.294	4
366.081	4
366.867	2
367.654	3
368.44	4
369.227	4
370.013	5
370.8	5
371.586	5
372.372	7
373.158	6
373.944	8
374.73	7
375.516	6
376.302	2
377.088	7
377.873	6
378.659	3
379.445	7
380.23	5
381.015	5
381.801	6
382.586	2
383.371	5
384.156	6
384.941	4
385.726	6
386.511	7
387.296	5
388.08	6
388.865	6
389.649	6
390.434	7
391.218	4
392.003	6
392.787	5
393.571	6
394.355	6
395.139	5
395.923	5
396.707	7
397.491	5
398.274	6
399.058	7
399.842	6
400.625	7
401.408	6
402.192	7
402.975	7
403.758	8
404.541	8
405.324	7
406.107	8
406.89	9
407.673	8
408.456	9
409.238	9
410.021	10
410.803	5
411.586	7
412.368	7
413.151	8
413.933	9
414.715	10
415.497	10
416.279	10
417.061	9
417.843	10
418.624	11
419.406	11
420.188	11
420.969	11
421.751	10
422.532	11
423.313	9
424.095	10
424.876	11
425.657	11
426.438	12
427.219	12
428	12
428.78	10
429.561	14
430.342	15
431.122	14
431.903	14
432.683	16
433.464	16
434.244	17
435.024	15
435.804	19
436.584	18
437.364	22
438.144	19
438.924	18
439.704	23
440.483	23
441.263	25
442.042	24
442.822	26
443.601	30
444.38	31
445.16	33
445.939	34
446.718	40
447.497	39
448.276	44
449.054	49
449.833	53
450.612	55
451.391	60
452.169	69
452.948	71
453.726	78
454.504	90
455.282	97
456.061	107
456.839	114
457.617	130
458.395	144
459.172	158
459.95	179
460.728	193
461.506	220
462.283	241
463.061	270
463.838	305
464.615	341
465.393	375
466.17	424
466.947	466
467.724	516
468.501	585
469.278	641
470.055	716
470.831	803
471.608	882
472.385	982
473.161	1084
473.938	1203
474.714	1316
475.49	1457
476.266	1605
477.043	1762
477.819	1924
478.595	2167
479.371	2356
480.146	2574
480.922	2842
481.698	3111
482.473	3424
483.249	3735
484.024	4114
484.8	4509
485.575	4928
486.35	5408
487.126	5920
487.901	6471
488.676	7038
489.451	7718
490.225	8437
491	9148
491.775	9964
492.55	10836
493.324	11706
494.099	12613
494.873	13549
495.647	14629
496.422	15684
497.196	16765
497.97	17905
498.744	19066
499.518	20090
500.292	21229
501.066	22294
501.839	23192
502.613	24133
503.387	25004
504.16	25586
504.934	26062
505.707	26303
506.48	26485
507.253	26501
508.027	26354
508.8	26180
509.573	25929
510.346	25424
511.118	24763
511.891	24036
512.664	23384
513.437	22552
514.209	21649
514.982	20778
515.754	19950
516.526	19132
517.298	18294
518.071	17498
518.843	16859
519.615	16156
520.387	15591
521.159	14954
521.93	14325
522.702	13786
523.474	13237
524.245	12683
525.017	12112
525.788	11655
526.56	11134
527.331	10591
528.102	10126
528.873	9715
529.644	9224
530.415	8847
531.186	8326
531.957	7913
532.728	7575
533.498	7223
534.269	6755
535.039	6420
535.81	6071
536.58	5745
537.351	5412
538.121	5100
538.891	4837
539.661	4588
540.431	4330
541.201	4086
541.971	3854
542.741	3678
543.51	3475
544.28	3332
545.05	3156
545.819	3000
546.588	2870
547.358	2697
548.127	2577
548.896	2443
549.665	2325
550.434	2199
551.203	2082
551.972	1978
552.741	1882
553.51	1755
554.278	1675
555.047	1560
555.815	1494
556.584	1410
557.352	1336
558.121	1252
558.889	1191
559.657	1118
560.425	1045
561.193	991
561.961	940
562.729	891
563.496	843
564.264	798
565.032	745
565.799	712
566.567	676
567.334	636
568.101	597
568.869	563
569.636	533
570.403	504
571.17	474
571.937	441
572.704	426
573.471	398
574.237	373
575.004	359
575.771	329
576.537	309
577.303	300
578.07	277
578.836	263
579.602	248
580.368	231
581.134	219
581.9	208
582.666	197
583.432	187
584.198	178
584.964	168
585.729	159
586.495	153
587.26	143
588.025	138
588.791	132
589.556	121
590.321	117
591.086	110
591.851	104
592.616	99
593.381	95
594.146	93
594.911	86
595.675	83
596.44	74
597.204	76
597.969	69
598.733	68
599.497	68
600.261	61
601.025	58
601.79	58
602.553	52
603.317	53
604.081	51
604.845	45
605.609	47
606.372	44
607.136	37
607.899	40
608.662	38
609.426	39
610.189	37
610.952	33
611.715	33
612.478	35
613.241	30
614.004	30
614.767	25
615.529	27
616.292	26
617.055	25
617.817	23
618.579	22
619.342	22
620.104	20
620.866	20
621.628	19
622.39	22
623.152	20
623.914	22
624.676	22
625.438	19
626.199	18
626.961	18
627.722	17
628.484	13
629.245	15
630.006	17
630.768	11
631.529	13
632.29	11
633.051	13
633.812	11
634.573	14
635.333	14
636.094	11
636.855	13
637.615	10
638.376	9
639.136	10
639.896	9
640.657	9
641.417	8
642.177	9
642.937	9
643.697	10
644.457	7
645.216	8
645.976	8
646.736	7
647.495	7
648.255	8
649.014	8
649.774	7
650.533	7
651.292	7
652.051	8
652.81	7
653.569	7
654.328	6
655.087	6
655.846	7
656.604	8
657.363	6
658.121	6
658.88	9
659.638	7
660.397	6
661.155	3
661.913	8
662.671	7
663.429	6
664.187	4
664.945	7
665.703	7
666.46	5
667.218	6
667.976	5
668.733	5
669.49	4
670.248	4
671.005	5
671.762	3
672.519	4
673.276	6
674.033	5
674.79	4
675.547	2
676.304	4
677.06	4
677.817	6
678.574	4
679.33	6
680.086	4
680.843	4
681.599	5
682.355	3
683.111	3
683.867	4
684.623	6
685.379	4
686.135	2
686.89	5
687.646	5
688.402	7
689.157	4
689.912	4
690.668	4
691.423	5
692.178	2
692.933	4
693.688	3
694.443	3
695.198	2
695.953	4
696.708	4
697.462	6
698.217	5
698.972	3
699.726	5
700.48	3
701.235	3
701.989	5
702.743	1
703.497	4
704.251	2
705.005	2
705.759	2
706.513	7
707.266	2
708.02	2
708.774	3
709.527	6
710.28	4
711.034	4
711.787	3
712.54	6
713.293	4
714.046	3
714.799	5
715.552	5
716.305	5
717.058	3
717.81	4
718.563	5
719.315	6
720.068	4
720.82	3
721.573	4
722.325	2
723.077	2
723.829	5
724.581	5
725.333	4
726.085	5
726.836	4
727.588	3
728.34	5
729.091	3
729.843	4
730.594	2
731.346	3
732.097	2
732.848	4
733.599	3
734.35	3
735.101	3
735.852	5
736.603	4
737.354	5
738.104	5
738.855	3
739.605	3
740.356	5
741.106	5
741.856	4
742.607	4
743.357	4
744.107	4
744.857	4
745.607	7
746.357	5
747.106	6
747.856	5
748.606	5
749.355	6
750.105	5
750.854	6
751.603	5
752.353	4
753.102	5
753.851	4
754.6	8
755.349	6
756.098	5
756.847	6
757.595	3
758.344	6
759.093	5
759.841	7
760.589	7
761.338	5
762.086	8
762.834	4
763.582	8
764.331	7
765.079	5
765.826	7
766.574	7
767.322	6
768.07	7
768.817	9
769.565	7
770.312	7
771.06	8
771.807	9
772.554	9
773.302	8
774.049	7
774.796	6
775.543	8
776.29	9
777.036	7
777.783	9
778.53	5
779.276	8
780.023	9
780.769	7
781.516	11
782.262	8
783.008	10
783.754	11
784.5	12
785.246	8
785.992	8
786.738	7
787.484	8
788.23	8
788.975	7
789.721	8
790.466	7
791.212	8
791.957	10
792.702	8
793.447	8
794.193	6
794.938	8
795.683	10
796.427	9
797.172	8
797.917	7
798.662	9
799.406	6
800.151	8
800.895	7
801.64	7
802.384	8
803.128	7
803.872	8
804.616	6
805.36	7
806.104	6
806.848	9
807.592	6
808.336	6
809.079	5
809.823	5
810.566	2
811.31	6
812.053	4
812.796	4
813.539	5
814.283	4
815.026	5
815.769	4
816.511	9
817.254	2
817.997	6
818.74	4
819.482	3
820.225	6
820.967	6
821.71	6
822.452	3
823.194	3
823.936	5
824.678	3
825.42	5
826.162	5
826.904	4
827.646	4
828.388	5
829.129	6
829.871	3
830.612	5
831.354	3
832.095	5
832.836	4
833.577	2
834.319	5
835.06	3
835.801	6
836.542	4
837.282	5
838.023	3
838.764	4
839.504	5
840.245	4
840.985	4
841.726	2
842.466	2
843.206	2
843.946	3
844.687	2
845.427	2
846.166	5
846.906	4
847.646	4
848.386	4
849.125	3
849.865	3
850.605	3
851.344	4
852.083	3
852.823	4
853.562	2
854.301	2
855.04	5
855.779	3
856.518	3
857.257	2
857.995	1
858.734	4
859.473	5
860.211	4
860.95	1
861.688	1
862.426	5
863.165	1
863.903	4
864.641	2
865.379	2
866.117	4
866.855	1
867.593	2
868.33	0
869.068	2
869.806	0
870.543	3
871.28	2
872.018	1
872.755	0
873.492	3
874.229	2
874.967	3
875.703	0
876.44	2
877.177	1
877.914	1
878.651	2
879.387	3
880.124	1
880.86	1
881.597	2
882.333	0
883.069	2
883.806	1
884.542	-2
885.278	0
886.014	2
886.749	1
887.485	1
888.221	2
888.957	2
889.692	2
890.428	2
891.163	2
891.899	0
892.634	1
893.369	1
894.104	1
894.839	3
895.574	2
896.309	0
897.044	1
897.779	-1
898.514	2
899.248	1
899.983	-1
900.717	2
901.452	0
902.186	3
902.92	2
903.654	1
904.389	2
905.123	-1
905.857	1
906.59	0
907.324	2
908.058	2
908.792	2
909.525	0
910.259	1
910.992	2
911.726	1
912.459	2
913.192	1
913.925	0
914.658	1
915.391	0
916.124	1
916.857	3
917.59	2
918.323	1
919.055	1
919.788	3
920.521	1
921.253	-1
921.985	1
922.718	2
923.45	2
924.182	-1
924.914	0
925.646	0
926.378	5
927.11	0
927.841	0
928.573	2
929.305	-1
930.036	-1
930.768	1
931.499	1
932.23	-1
932.962	2
933.693	2
934.424	-2
935.155	1
935.886	-2
936.617	1
937.348	0
938.078	1
938.809	1
939.54	0
940.27	0
941.001	0
941.731	-1
942.461	1
943.191	-1
943.922	3
944.652	0
945.382	2
946.112	0
946.841	1
947.571	-1
948.301	2
949.031	1
949.76	2
950.49	1
951.219	-1
951.948	0
952.678	0
953.407	0
954.136	0
954.865	-2
955.594	-1
956.323	1
957.052	0
957.78	1
958.509	1
959.238	0
959.966	3
960.695	1
961.423	1
962.151	0
962.88	2
963.608	1
964.336	-1
965.064	1
965.792	1
966.52	-1
967.247	1
967.975	1
968.703	1
969.43	-1
970.158	0
970.885	1
971.613	2
972.34	1
973.067	1
973.794	-1
974.521	-3
975.248	-1
975.975	1
976.702	0
977.429	-1
978.156	2
978.882	1
979.609	1
980.335	0
981.062	0
981.788	2
982.514	3
983.24	0
983.967	0
984.693	1
985.419	0
986.144	0
986.87	0
987.596	0
988.322	0
989.047	0
989.773	0
990.498	1
991.224	0
991.949	0
992.674	0
993.399	0
994.124	2
994.849	0
995.574	2
996.299	0
997.024	-1
997.749	1
998.473	1
999.198	2
999.922	1
1000.647	2
1001.371	2
1002.095	-3
1002.82	0
1003.544	-3
1004.268	2
1004.992	2
1005.716	1
1006.439	1
1007.163	1
1007.887	3
1008.611	2
1009.334	1
1010.058	1
1010.781	1
1011.504	0
1012.228	1
1012.951	0
1013.674	1
1014.397	1
1015.12	2
