节点500_285_QEPB04081__38__14-56-11-424.txt的数据

Date: Wed Nov 12 14:56:11 CST 2025
User: PC
Spectrometer: QEPB0408
触发模式: 0
积分时间 (秒): 1.000000E-2
Scans to average: 1
启用暗噪声校正: true
启用非线性校正: false
滑动平均宽度: 0
X轴模式: Wavelengths
Number of Pixels in Spectrum: 1044
>>>>>Begin Spectral Data<<<<<
220.843	2.88
221.644	-0.12
222.444	1.88
223.244	-0.12
224.045	3.88
224.845	0.88
225.645	1.88
226.445	0.88
227.245	-0.12
228.045	2.88
228.845	4.88
229.645	-0.12
230.444	2.88
231.244	0.88
232.043	1.88
232.843	5.88
233.642	3.88
234.442	3.88
235.241	3.88
236.04	3.88
236.839	0.88
237.638	2.88
238.437	3.88
239.236	3.88
240.035	0.88
240.833	3.88
241.632	5.88
242.43	3.88
243.229	5.88
244.027	6.88
244.826	2.88
245.624	4.88
246.422	2.88
247.22	3.88
248.018	7.88
248.816	4.88
249.614	6.88
250.412	5.88
251.21	7.88
252.007	5.88
252.805	8.88
253.602	6.88
254.4	5.88
255.197	6.88
255.994	6.88
256.791	10.88
257.589	7.88
258.386	8.88
259.183	10.88
259.979	8.88
260.776	10.88
261.573	8.88
262.37	10.88
263.166	11.88
263.963	11.88
264.759	13.88
265.556	11.88
266.352	11.88
267.148	12.88
267.944	12.88
268.74	13.88
269.536	13.88
270.332	13.88
271.128	13.88
271.924	12.88
272.719	17.88
273.515	15.88
274.311	16.88
275.106	14.88
275.901	14.88
276.697	16.88
277.492	15.88
278.287	18.88
279.082	17.88
279.877	17.88
280.672	15.88
281.467	15.88
282.262	17.88
283.056	18.88
283.851	19.88
284.646	16.88
285.44	18.88
286.234	18.88
287.029	18.88
287.823	18.88
288.617	15.88
289.411	15.88
290.205	16.88
290.999	15.88
291.793	16.88
292.587	15.88
293.381	20.88
294.174	15.88
294.968	15.88
295.761	16.88
296.555	14.88
297.348	14.88
298.141	12.88
298.935	15.88
299.728	10.88
300.521	12.88
301.314	12.88
302.107	10.88
302.899	9.88
303.692	8.88
304.485	10.88
305.277	13.88
306.07	10.88
306.862	10.88
307.655	9.88
308.447	10.88
309.239	10.88
310.031	11.88
310.823	8.88
311.615	7.88
312.407	8.88
313.199	6.88
313.991	7.88
314.783	7.88
315.574	6.88
316.366	6.88
317.157	6.88
317.949	9.88
318.74	6.88
319.531	4.88
320.322	5.88
321.113	5.88
321.904	5.88
322.695	4.88
323.486	6.88
324.277	7.88
325.068	4.88
325.858	3.88
326.649	5.88
327.439	6.88
328.23	8.88
329.02	2.88
329.81	5.88
330.6	7.88
331.391	3.88
332.181	7.88
332.971	3.88
333.76	6.88
334.55	4.88
335.34	6.88
336.13	3.88
336.919	7.88
337.709	3.88
338.498	6.88
339.287	5.88
340.077	3.88
340.866	5.88
341.655	5.88
342.444	3.88
343.233	2.88
344.022	6.88
344.811	4.88
345.6	5.88
346.388	5.88
347.177	5.88
347.965	2.88
348.754	3.88
349.542	8.88
350.33	5.88
351.119	2.88
351.907	4.88
352.695	6.88
353.483	3.88
354.271	5.88
355.059	3.88
355.846	6.88
356.634	7.88
357.422	2.88
358.209	3.88
358.997	3.88
359.784	3.88
360.571	2.88
361.359	3.88
362.146	2.88
362.933	4.88
363.72	5.88
364.507	5.88
365.294	4.88
366.081	4.88
366.867	2.88
367.654	4.88
368.44	3.88
369.227	3.88
370.013	3.88
370.8	2.88
371.586	4.88
372.372	2.88
373.158	3.88
373.944	5.88
374.73	5.88
375.516	5.88
376.302	4.88
377.088	3.88
377.873	4.88
378.659	5.88
379.445	4.88
380.23	3.88
381.015	6.88
381.801	3.88
382.586	6.88
383.371	4.88
384.156	3.88
384.941	3.88
385.726	4.88
386.511	8.88
387.296	6.88
388.08	3.88
388.865	4.88
389.649	3.88
390.434	5.88
391.218	4.88
392.003	6.88
392.787	3.88
393.571	4.88
394.355	6.88
395.139	4.88
395.923	6.88
396.707	4.88
397.491	5.88
398.274	6.88
399.058	7.88
399.842	7.88
400.625	7.88
401.408	6.88
402.192	7.88
402.975	7.88
403.758	6.88
404.541	7.88
405.324	4.88
406.107	5.88
406.89	8.88
407.673	6.88
408.456	5.88
409.238	8.88
410.021	4.88
410.803	8.88
411.586	8.88
412.368	6.88
413.151	9.88
413.933	6.88
414.715	9.88
415.497	10.88
416.279	8.88
417.061	7.88
417.843	7.88
418.624	9.88
419.406	6.88
420.188	9.88
420.969	8.88
421.751	8.88
422.532	9.88
423.313	9.88
424.095	12.88
424.876	10.88
425.657	10.88
426.438	11.88
427.219	10.88
428	10.88
428.78	9.88
429.561	10.88
430.342	11.88
431.122	11.88
431.903	13.88
432.683	13.88
433.464	16.88
434.244	13.88
435.024	14.88
435.804	18.88
436.584	15.88
437.364	14.88
438.144	18.88
438.924	14.88
439.704	17.88
440.483	18.88
441.263	20.88
442.042	24.88
442.822	24.88
443.601	25.88
444.38	25.88
445.16	27.88
445.939	28.88
446.718	28.88
447.497	31.88
448.276	36.88
449.054	35.88
449.833	41.88
450.612	41.88
451.391	48.88
452.169	52.88
452.948	57.88
453.726	59.88
454.504	67.88
455.282	72.88
456.061	79.88
456.839	90.88
457.617	97.88
458.395	106.88
459.172	120.88
459.95	133.88
460.728	152.88
461.506	168.88
462.283	193.88
463.061	208.88
463.838	235.88
464.615	266.88
465.393	290.88
466.17	329.88
466.947	364.88
467.724	412.88
468.501	452.88
469.278	516.88
470.055	579.88
470.831	638.88
471.608	718.88
472.385	798.88
473.161	904.88
473.938	1009.88
474.714	1116.88
475.49	1233.88
476.266	1373.88
477.043	1528.88
477.819	1696.88
478.595	1887.88
479.371	2104.88
480.146	2320.88
480.922	2582.88
481.698	2858.88
482.473	3183.88
483.249	3500.88
484.024	3925.88
484.8	4316.88
485.575	4792.88
486.35	5320.88
487.126	5812.88
487.901	6432.88
488.676	7100.88
489.451	7797.88
490.225	8633.88
491	9438.88
491.775	10346.88
492.55	11360.88
493.324	12299.88
494.099	13309.88
494.873	14458.88
495.647	15588.88
496.422	16773.88
497.196	17892.88
497.97	19091.88
498.744	20277.88
499.518	21374.88
500.292	22433.88
501.066	23437.88
501.839	24247.88
502.613	24979.88
503.387	25647.88
504.16	26156.88
504.934	26236.88
505.707	26176.88
506.48	26062.88
507.253	25831.88
508.027	25306.88
508.8	24880.88
509.573	24158.88
510.346	23514.88
511.118	22585.88
511.891	21739.88
512.664	20871.88
513.437	19944.88
514.209	19027.88
514.982	18184.88
515.754	17318.88
516.526	16491.88
517.298	15820.88
518.071	15122.88
518.843	14530.88
519.615	13946.88
520.387	13433.88
521.159	12890.88
521.93	12390.88
522.702	11938.88
523.474	11446.88
524.245	10866.88
525.017	10399.88
525.788	9990.88
526.56	9482.88
527.331	9069.88
528.102	8608.88
528.873	8203.88
529.644	7751.88
530.415	7398.88
531.186	6981.88
531.957	6593.88
532.728	6250.88
533.498	5922.88
534.269	5565.88
535.039	5221.88
535.81	4972.88
536.58	4667.88
537.351	4387.88
538.121	4157.88
538.891	3933.88
539.661	3711.88
540.431	3509.88
541.201	3335.88
541.971	3139.88
542.741	2991.88
543.51	2838.88
544.28	2704.88
545.05	2587.88
545.819	2458.88
546.588	2320.88
547.358	2212.88
548.127	2093.88
548.896	1973.88
549.665	1899.88
550.434	1776.88
551.203	1693.88
551.972	1586.88
552.741	1500.88
553.51	1426.88
554.278	1333.88
555.047	1268.88
555.815	1187.88
556.584	1123.88
557.352	1065.88
558.121	989.88
558.889	937.88
559.657	894.88
560.425	841.88
561.193	791.88
561.961	746.88
562.729	698.88
563.496	668.88
564.264	630.88
565.032	596.88
565.799	562.88
566.567	537.88
567.334	501.88
568.101	474.88
568.869	451.88
569.636	423.88
570.403	397.88
571.17	370.88
571.937	350.88
572.704	336.88
573.471	314.88
574.237	301.88
575.004	282.88
575.771	259.88
576.537	245.88
577.303	228.88
578.07	224.88
578.836	210.88
579.602	195.88
580.368	177.88
581.134	180.88
581.9	163.88
582.666	152.88
583.432	150.88
584.198	139.88
584.964	128.88
585.729	124.88
586.495	123.88
587.26	122.88
588.025	111.88
588.791	101.88
589.556	97.88
590.321	93.88
591.086	83.88
591.851	78.88
592.616	78.88
593.381	72.88
594.146	73.88
594.911	68.88
595.675	65.88
596.44	64.88
597.204	59.88
597.969	55.88
598.733	57.88
599.497	49.88
600.261	48.88
601.025	47.88
601.79	43.88
602.553	46.88
603.317	40.88
604.081	38.88
604.845	38.88
605.609	32.88
606.372	34.88
607.136	32.88
607.899	31.88
608.662	30.88
609.426	28.88
610.189	26.88
610.952	27.88
611.715	21.88
612.478	24.88
613.241	22.88
614.004	22.88
614.767	23.88
615.529	21.88
616.292	20.88
617.055	21.88
617.817	20.88
618.579	18.88
619.342	20.88
620.104	19.88
620.866	19.88
621.628	14.88
622.39	12.88
623.152	14.88
623.914	15.88
624.676	13.88
625.438	15.88
626.199	12.88
626.961	15.88
627.722	15.88
628.484	14.88
629.245	11.88
630.006	15.88
630.768	11.88
631.529	8.88
632.29	10.88
633.051	10.88
633.812	9.88
634.573	9.88
635.333	9.88
636.094	10.88
636.855	10.88
637.615	9.88
638.376	8.88
639.136	6.88
639.896	7.88
640.657	8.88
641.417	6.88
642.177	8.88
642.937	6.88
643.697	8.88
644.457	7.88
645.216	7.88
645.976	6.88
646.736	8.88
647.495	6.88
648.255	6.88
649.014	4.88
649.774	3.88
650.533	5.88
651.292	7.88
652.051	5.88
652.81	5.88
653.569	3.88
654.328	5.88
655.087	6.88
655.846	5.88
656.604	6.88
657.363	3.88
658.121	3.88
658.88	3.88
659.638	5.88
660.397	7.88
661.155	7.88
661.913	5.88
662.671	2.88
663.429	5.88
664.187	3.88
664.945	3.88
665.703	4.88
666.46	2.88
667.218	5.88
667.976	5.88
668.733	4.88
669.49	4.88
670.248	3.88
671.005	4.88
671.762	1.88
672.519	3.88
673.276	3.88
674.033	4.88
674.79	2.88
675.547	3.88
676.304	4.88
677.06	4.88
677.817	5.88
678.574	5.88
679.33	2.88
680.086	5.88
680.843	0.88
681.599	5.88
682.355	2.88
683.111	4.88
683.867	4.88
684.623	2.88
685.379	3.88
686.135	2.88
686.89	3.88
687.646	3.88
688.402	2.88
689.157	3.88
689.912	0.88
690.668	4.88
691.423	5.88
692.178	3.88
692.933	1.88
693.688	1.88
694.443	3.88
695.198	2.88
695.953	4.88
696.708	2.88
697.462	2.88
698.217	3.88
698.972	2.88
699.726	2.88
700.48	2.88
701.235	-0.12
701.989	5.88
702.743	2.88
703.497	5.88
704.251	3.88
705.005	5.88
705.759	2.88
706.513	3.88
707.266	1.88
708.02	3.88
708.774	3.88
709.527	4.88
710.28	2.88
711.034	1.88
711.787	3.88
712.54	2.88
713.293	2.88
714.046	4.88
714.799	2.88
715.552	3.88
716.305	5.88
717.058	1.88
717.81	0.88
718.563	2.88
719.315	2.88
720.068	4.88
720.82	2.88
721.573	0.88
722.325	2.88
723.077	0.88
723.829	2.88
724.581	3.88
725.333	3.88
726.085	2.88
726.836	1.88
727.588	2.88
728.34	0.88
729.091	2.88
729.843	2.88
730.594	2.88
731.346	4.88
732.097	2.88
732.848	2.88
733.599	2.88
734.35	3.88
735.101	3.88
735.852	5.88
736.603	2.88
737.354	3.88
738.104	2.88
738.855	3.88
739.605	4.88
740.356	3.88
741.106	4.88
741.856	2.88
742.607	5.88
743.357	4.88
744.107	4.88
744.857	4.88
745.607	2.88
746.357	6.88
747.106	0.88
747.856	4.88
748.606	4.88
749.355	3.88
750.105	5.88
750.854	3.88
751.603	3.88
752.353	3.88
753.102	4.88
753.851	5.88
754.6	4.88
755.349	2.88
756.098	4.88
756.847	6.88
757.595	5.88
758.344	5.88
759.093	3.88
759.841	5.88
760.589	3.88
761.338	6.88
762.086	6.88
762.834	4.88
763.582	5.88
764.331	5.88
765.079	6.88
765.826	6.88
766.574	8.88
767.322	6.88
768.07	7.88
768.817	6.88
769.565	4.88
770.312	6.88
771.06	6.88
771.807	6.88
772.554	4.88
773.302	7.88
774.049	6.88
774.796	6.88
775.543	6.88
776.29	7.88
777.036	5.88
777.783	8.88
778.53	8.88
779.276	9.88
780.023	6.88
780.769	5.88
781.516	8.88
782.262	9.88
783.008	8.88
783.754	8.88
784.5	7.88
785.246	9.88
785.992	8.88
786.738	8.88
787.484	8.88
788.23	8.88
788.975	8.88
789.721	7.88
790.466	8.88
791.212	8.88
791.957	8.88
792.702	7.88
793.447	7.88
794.193	7.88
794.938	7.88
795.683	8.88
796.427	6.88
797.172	6.88
797.917	4.88
798.662	6.88
799.406	7.88
800.151	5.88
800.895	8.88
801.64	8.88
802.384	7.88
803.128	5.88
803.872	5.88
804.616	5.88
805.36	3.88
806.104	5.88
806.848	4.88
807.592	5.88
808.336	5.88
809.079	4.88
809.823	4.88
810.566	4.88
811.31	3.88
812.053	5.88
812.796	2.88
813.539	5.88
814.283	4.88
815.026	6.88
815.769	3.88
816.511	4.88
817.254	3.88
817.997	3.88
818.74	2.88
819.482	4.88
820.225	2.88
820.967	4.88
821.71	3.88
822.452	2.88
823.194	4.88
823.936	3.88
824.678	3.88
825.42	1.88
826.162	5.88
826.904	3.88
827.646	4.88
828.388	3.88
829.129	1.88
829.871	5.88
830.612	3.88
831.354	4.88
832.095	3.88
832.836	4.88
833.577	2.88
834.319	0.88
835.06	2.88
835.801	2.88
836.542	1.88
837.282	3.88
838.023	1.88
838.764	3.88
839.504	3.88
840.245	2.88
840.985	2.88
841.726	2.88
842.466	1.88
843.206	1.88
843.946	1.88
844.687	0.88
845.427	-1.12
846.166	2.88
846.906	1.88
847.646	2.88
848.386	2.88
849.125	0.88
849.865	-0.12
850.605	0.88
851.344	2.88
852.083	0.88
852.823	5.88
853.562	0.88
854.301	2.88
855.04	3.88
855.779	2.88
856.518	3.88
857.257	1.88
857.995	-1.12
858.734	2.88
859.473	1.88
860.211	2.88
860.95	3.88
861.688	2.88
862.426	-0.12
863.165	2.88
863.903	1.88
864.641	-1.12
865.379	2.88
866.117	-0.12
866.855	0.88
867.593	0.88
868.33	2.88
869.068	3.88
869.806	3.88
870.543	0.88
871.28	2.88
872.018	-0.12
872.755	0.88
873.492	0.88
874.229	0.88
874.967	0.88
875.703	1.88
876.44	-1.12
877.177	1.88
877.914	-0.12
878.651	1.88
879.387	-0.12
880.124	0.88
880.86	-0.12
881.597	-1.12
882.333	0.88
883.069	0.88
883.806	-1.12
884.542	2.88
885.278	0.88
886.014	2.88
886.749	0.88
887.485	0.88
888.221	0.88
888.957	0.88
889.692	-0.12
890.428	1.88
891.163	1.88
891.899	0.88
892.634	-0.12
893.369	0.88
894.104	-0.12
894.839	1.88
895.574	0.88
896.309	1.88
897.044	0.88
897.779	0.88
898.514	2.88
899.248	0.88
899.983	0.88
900.717	1.88
901.452	0.88
902.186	-0.12
902.92	1.88
903.654	-0.12
904.389	0.88
905.123	-0.12
905.857	0.88
906.59	-3.12
907.324	0.88
908.058	1.88
908.792	-0.12
909.525	-0.12
910.259	1.88
910.992	-0.12
911.726	0.88
912.459	-1.12
913.192	0.88
913.925	1.88
914.658	2.88
915.391	0.88
916.124	1.88
916.857	-1.12
917.59	-0.12
918.323	0.88
919.055	-0.12
919.788	0.88
920.521	0.88
921.253	0.88
921.985	-0.12
922.718	-0.12
923.45	1.88
924.182	-0.12
924.914	0.88
925.646	0.88
926.378	-0.12
927.11	0.88
927.841	-1.12
928.573	1.88
929.305	-1.12
930.036	0.88
930.768	-0.12
931.499	-2.12
932.23	1.88
932.962	-0.12
933.693	-0.12
934.424	-0.12
935.155	0.88
935.886	-0.12
936.617	-2.12
937.348	0.88
938.078	-0.12
938.809	1.88
939.54	-1.12
940.27	-2.12
941.001	0.88
941.731	0.88
942.461	0.88
943.191	-0.12
943.922	0.88
944.652	-0.12
945.382	-1.12
946.112	2.88
946.841	0.88
947.571	0.88
948.301	0.88
949.031	-1.12
949.76	-0.12
950.49	0.88
951.219	0.88
951.948	2.88
952.678	-0.12
953.407	-0.12
954.136	-0.12
954.865	2.88
955.594	1.88
956.323	1.88
957.052	-1.12
957.78	-1.12
958.509	3.88
959.238	0.88
959.966	1.88
960.695	0.88
961.423	-1.12
962.151	0.88
962.88	-1.12
963.608	0.88
964.336	1.88
965.064	-0.12
965.792	-0.12
966.52	-1.12
967.247	0.88
967.975	0.88
968.703	0.88
969.43	-1.12
970.158	-0.12
970.885	0.88
971.613	-1.12
972.34	-1.12
973.067	0.88
973.794	-1.12
974.521	-0.12
975.248	-0.12
975.975	-1.12
976.702	-0.12
977.429	-0.12
978.156	-1.12
978.882	-3.12
979.609	-1.12
980.335	-0.12
981.062	0.88
981.788	0.88
982.514	-0.12
983.24	-0.12
983.967	-0.12
984.693	-0.12
985.419	-2.12
986.144	-0.12
986.87	-1.12
987.596	-2.12
988.322	-0.12
989.047	-1.12
989.773	-1.12
990.498	-0.12
991.224	1.88
991.949	-1.12
992.674	-1.12
993.399	-0.12
994.124	-0.12
994.849	-1.12
995.574	1.88
996.299	-1.12
997.024	0.88
997.749	-1.12
998.473	-0.12
999.198	0.88
999.922	-2.12
1000.647	0.88
1001.371	4.88
1002.095	-1.12
1002.82	-1.12
1003.544	-3.12
1004.268	1.88
1004.992	1.88
1005.716	-1.12
1006.439	1.88
1007.163	-0.12
1007.887	0.88
1008.611	-1.12
1009.334	-1.12
1010.058	-1.12
1010.781	1.88
1011.504	-1.12
1012.228	-1.12
1012.951	2.88
1013.674	-1.12
1014.397	-1.12
1015.12	-0.12
