节点500_285_QEPB04081__386__15-01-58-655.txt的数据

Date: Wed Nov 12 15:01:58 CST 2025
User: PC
Spectrometer: QEPB0408
触发模式: 0
积分时间 (秒): 1.000000E-2
Scans to average: 1
启用暗噪声校正: true
启用非线性校正: false
滑动平均宽度: 0
X轴模式: Wavelengths
Number of Pixels in Spectrum: 1044
>>>>>Begin Spectral Data<<<<<
220.843	1
221.644	2
222.444	3
223.244	2
224.045	4
224.845	4
225.645	2
226.445	2
227.245	2
228.045	1
228.845	2
229.645	3
230.444	2
231.244	3
232.043	3
232.843	2
233.642	4
234.442	1
235.241	5
236.04	6
236.839	5
237.638	5
238.437	5
239.236	7
240.035	6
240.833	7
241.632	7
242.43	4
243.229	6
244.027	4
244.826	5
245.624	5
246.422	6
247.22	7
248.018	6
248.816	4
249.614	6
250.412	7
251.21	8
252.007	8
252.805	10
253.602	7
254.4	9
255.197	7
255.994	8
256.791	9
257.589	7
258.386	10
259.183	8
259.979	9
260.776	8
261.573	13
262.37	11
263.166	12
263.963	12
264.759	11
265.556	14
266.352	14
267.148	14
267.944	15
268.74	13
269.536	15
270.332	12
271.128	14
271.924	15
272.719	17
273.515	14
274.311	14
275.106	17
275.901	17
276.697	17
277.492	16
278.287	20
279.082	18
279.877	18
280.672	19
281.467	17
282.262	21
283.056	21
283.851	21
284.646	17
285.44	19
286.234	18
287.029	19
287.823	18
288.617	22
289.411	16
290.205	16
290.999	17
291.793	22
292.587	15
293.381	15
294.174	17
294.968	17
295.761	17
296.555	19
297.348	16
298.141	14
298.935	17
299.728	16
300.521	16
301.314	12
302.107	11
302.899	12
303.692	14
304.485	15
305.277	14
306.07	12
306.862	13
307.655	14
308.447	11
309.239	13
310.031	10
310.823	14
311.615	13
312.407	8
313.199	10
313.991	10
314.783	10
315.574	11
316.366	8
317.157	11
317.949	8
318.74	8
319.531	6
320.322	10
321.113	11
321.904	7
322.695	8
323.486	9
324.277	9
325.068	8
325.858	9
326.649	6
327.439	6
328.23	8
329.02	7
329.81	6
330.6	7
331.391	6
332.181	8
332.971	5
333.76	10
334.55	5
335.34	8
336.13	6
336.919	9
337.709	7
338.498	5
339.287	7
340.077	7
340.866	9
341.655	6
342.444	7
343.233	5
344.022	7
344.811	3
345.6	7
346.388	7
347.177	7
347.965	7
348.754	7
349.542	5
350.33	5
351.119	4
351.907	6
352.695	7
353.483	4
354.271	4
355.059	2
355.846	7
356.634	5
357.422	5
358.209	5
358.997	6
359.784	7
360.571	6
361.359	6
362.146	8
362.933	4
363.72	4
364.507	6
365.294	6
366.081	6
366.867	4
367.654	6
368.44	6
369.227	8
370.013	3
370.8	6
371.586	7
372.372	5
373.158	5
373.944	3
374.73	4
375.516	5
376.302	6
377.088	5
377.873	5
378.659	5
379.445	7
380.23	6
381.015	6
381.801	6
382.586	3
383.371	5
384.156	5
384.941	7
385.726	4
386.511	4
387.296	6
388.08	7
388.865	5
389.649	6
390.434	7
391.218	5
392.003	7
392.787	4
393.571	7
394.355	5
395.139	8
395.923	7
396.707	9
397.491	7
398.274	6
399.058	10
399.842	8
400.625	8
401.408	8
402.192	9
402.975	9
403.758	9
404.541	7
405.324	6
406.107	9
406.89	5
407.673	6
408.456	8
409.238	6
410.021	9
410.803	9
411.586	7
412.368	10
413.151	7
413.933	9
414.715	10
415.497	6
416.279	10
417.061	11
417.843	8
418.624	9
419.406	10
420.188	10
420.969	8
421.751	12
422.532	10
423.313	15
424.095	10
424.876	11
425.657	9
426.438	12
427.219	10
428	13
428.78	13
429.561	15
430.342	13
431.122	16
431.903	15
432.683	16
433.464	16
434.244	14
435.024	16
435.804	19
436.584	19
437.364	20
438.144	18
438.924	22
439.704	22
440.483	21
441.263	23
442.042	28
442.822	28
443.601	30
444.38	30
445.16	31
445.939	33
446.718	34
447.497	41
448.276	43
449.054	47
449.833	50
450.612	53
451.391	60
452.169	63
452.948	68
453.726	74
454.504	86
455.282	87
456.061	102
456.839	110
457.617	123
458.395	135
459.172	151
459.95	165
460.728	191
461.506	209
462.283	233
463.061	262
463.838	298
464.615	327
465.393	363
466.17	407
466.947	455
467.724	506
468.501	557
469.278	628
470.055	699
470.831	773
471.608	854
472.385	949
473.161	1066
473.938	1175
474.714	1280
475.49	1441
476.266	1587
477.043	1748
477.819	1936
478.595	2139
479.371	2337
480.146	2588
480.922	2857
481.698	3139
482.473	3454
483.249	3783
484.024	4189
484.8	4598
485.575	5030
486.35	5537
487.126	6075
487.901	6649
488.676	7262
489.451	8005
490.225	8721
491	9533
491.775	10410
492.55	11297
493.324	12226
494.099	13212
494.873	14211
495.647	15362
496.422	16508
497.196	17617
497.97	18855
498.744	20094
499.518	21128
500.292	22320
501.066	23366
501.839	24311
502.613	25245
503.387	26030
504.16	26584
504.934	27008
505.707	27187
506.48	27283
507.253	27230
508.027	26982
508.8	26665
509.573	26350
510.346	25744
511.118	24926
511.891	24136
512.664	23328
513.437	22478
514.209	21559
514.982	20667
515.754	19824
516.526	18910
517.298	18087
518.071	17315
518.843	16596
519.615	16009
520.387	15429
521.159	14762
521.93	14160
522.702	13605
523.474	13116
524.245	12489
525.017	11974
525.788	11524
526.56	10973
527.331	10478
528.102	9998
528.873	9567
529.644	9090
530.415	8616
531.186	8192
531.957	7769
532.728	7393
533.498	7006
534.269	6621
535.039	6240
535.81	5904
536.58	5578
537.351	5287
538.121	4958
538.891	4731
539.661	4453
540.431	4181
541.201	3948
541.971	3764
542.741	3578
543.51	3410
544.28	3236
545.05	3051
545.819	2913
546.588	2767
547.358	2633
548.127	2510
548.896	2373
549.665	2250
550.434	2128
551.203	2032
551.972	1908
552.741	1797
553.51	1705
554.278	1618
555.047	1516
555.815	1443
556.584	1357
557.352	1274
558.121	1218
558.889	1154
559.657	1094
560.425	1016
561.193	968
561.961	912
562.729	852
563.496	812
564.264	768
565.032	722
565.799	682
566.567	644
567.334	617
568.101	580
568.869	544
569.636	510
570.403	484
571.17	457
571.937	427
572.704	407
573.471	388
574.237	363
575.004	345
575.771	329
576.537	305
577.303	288
578.07	265
578.836	250
579.602	233
580.368	224
581.134	211
581.9	211
582.666	192
583.432	184
584.198	172
584.964	164
585.729	154
586.495	154
587.26	142
588.025	128
588.791	122
589.556	121
590.321	113
591.086	111
591.851	98
592.616	99
593.381	92
594.146	87
594.911	84
595.675	78
596.44	75
597.204	71
597.969	67
598.733	68
599.497	65
600.261	62
601.025	57
601.79	57
602.553	54
603.317	52
604.081	49
604.845	45
605.609	45
606.372	39
607.136	40
607.899	41
608.662	37
609.426	35
610.189	35
610.952	34
611.715	34
612.478	28
613.241	31
614.004	31
614.767	28
615.529	26
616.292	27
617.055	22
617.817	22
618.579	25
619.342	21
620.104	24
620.866	21
621.628	21
622.39	23
623.152	18
623.914	21
624.676	16
625.438	18
626.199	16
626.961	14
627.722	15
628.484	14
629.245	16
630.006	14
630.768	14
631.529	17
632.29	12
633.051	13
633.812	13
634.573	12
635.333	11
636.094	13
636.855	11
637.615	11
638.376	10
639.136	9
639.896	11
640.657	12
641.417	11
642.177	8
642.937	8
643.697	10
644.457	7
645.216	7
645.976	8
646.736	9
647.495	8
648.255	7
649.014	8
649.774	6
650.533	8
651.292	9
652.051	6
652.81	6
653.569	9
654.328	7
655.087	6
655.846	5
656.604	6
657.363	5
658.121	6
658.88	6
659.638	6
660.397	5
661.155	7
661.913	5
662.671	5
663.429	6
664.187	6
664.945	8
665.703	6
666.46	5
667.218	3
667.976	4
668.733	8
669.49	6
670.248	4
671.005	7
671.762	4
672.519	4
673.276	6
674.033	4
674.79	6
675.547	4
676.304	5
677.06	3
677.817	6
678.574	5
679.33	3
680.086	6
680.843	5
681.599	4
682.355	4
683.111	5
683.867	3
684.623	5
685.379	2
686.135	3
686.89	5
687.646	5
688.402	2
689.157	6
689.912	2
690.668	5
691.423	3
692.178	5
692.933	4
693.688	3
694.443	4
695.198	3
695.953	6
696.708	5
697.462	4
698.217	4
698.972	3
699.726	3
700.48	2
701.235	5
701.989	5
702.743	3
703.497	3
704.251	1
705.005	3
705.759	4
706.513	4
707.266	6
708.02	4
708.774	4
709.527	7
710.28	3
711.034	4
711.787	5
712.54	3
713.293	6
714.046	3
714.799	3
715.552	4
716.305	5
717.058	5
717.81	4
718.563	2
719.315	5
720.068	4
720.82	6
721.573	6
722.325	4
723.077	4
723.829	4
724.581	4
725.333	6
726.085	3
726.836	2
727.588	2
728.34	6
729.091	4
729.843	4
730.594	4
731.346	5
732.097	3
732.848	3
733.599	5
734.35	6
735.101	5
735.852	2
736.603	3
737.354	4
738.104	5
738.855	5
739.605	4
740.356	3
741.106	5
741.856	5
742.607	4
743.357	4
744.107	1
744.857	7
745.607	5
746.357	5
747.106	3
747.856	7
748.606	3
749.355	5
750.105	4
750.854	5
751.603	7
752.353	5
753.102	6
753.851	5
754.6	7
755.349	7
756.098	3
756.847	8
757.595	5
758.344	6
759.093	6
759.841	7
760.589	5
761.338	7
762.086	7
762.834	5
763.582	7
764.331	7
765.079	7
765.826	6
766.574	8
767.322	11
768.07	6
768.817	9
769.565	7
770.312	7
771.06	9
771.807	9
772.554	7
773.302	9
774.049	8
774.796	10
775.543	9
776.29	9
777.036	8
777.783	9
778.53	12
779.276	9
780.023	8
780.769	11
781.516	8
782.262	10
783.008	7
783.754	9
784.5	7
785.246	9
785.992	10
786.738	11
787.484	10
788.23	7
788.975	9
789.721	7
790.466	10
791.212	11
791.957	10
792.702	8
793.447	5
794.193	9
794.938	10
795.683	8
796.427	8
797.172	7
797.917	12
798.662	6
799.406	9
800.151	7
800.895	8
801.64	9
802.384	8
803.128	9
803.872	6
804.616	8
805.36	5
806.104	8
806.848	5
807.592	4
808.336	7
809.079	9
809.823	6
810.566	8
811.31	7
812.053	4
812.796	6
813.539	5
814.283	5
815.026	6
815.769	4
816.511	5
817.254	5
817.997	5
818.74	5
819.482	5
820.225	5
820.967	4
821.71	3
822.452	8
823.194	4
823.936	6
824.678	6
825.42	4
826.162	3
826.904	2
827.646	6
828.388	4
829.129	5
829.871	4
830.612	2
831.354	6
832.095	2
832.836	6
833.577	4
834.319	4
835.06	6
835.801	1
836.542	3
837.282	2
838.023	4
838.764	4
839.504	4
840.245	2
840.985	3
841.726	2
842.466	2
843.206	1
843.946	3
844.687	3
845.427	4
846.166	0
846.906	3
847.646	2
848.386	4
849.125	2
849.865	2
850.605	4
851.344	3
852.083	2
852.823	4
853.562	1
854.301	2
855.04	2
855.779	1
856.518	4
857.257	3
857.995	2
858.734	2
859.473	3
860.211	4
860.95	2
861.688	2
862.426	2
863.165	2
863.903	1
864.641	3
865.379	4
866.117	2
866.855	1
867.593	3
868.33	1
869.068	3
869.806	1
870.543	2
871.28	3
872.018	1
872.755	2
873.492	2
874.229	0
874.967	3
875.703	1
876.44	0
877.177	1
877.914	0
878.651	1
879.387	-1
880.124	2
880.86	0
881.597	1
882.333	3
883.069	3
883.806	1
884.542	2
885.278	5
886.014	2
886.749	4
887.485	1
888.221	0
888.957	2
889.692	3
890.428	1
891.163	0
891.899	1
892.634	1
893.369	-2
894.104	3
894.839	1
895.574	0
896.309	-1
897.044	1
897.779	2
898.514	1
899.248	0
899.983	1
900.717	1
901.452	4
902.186	1
902.92	-1
903.654	1
904.389	1
905.123	2
905.857	-1
906.59	3
907.324	1
908.058	3
908.792	3
909.525	0
910.259	1
910.992	1
911.726	2
912.459	1
913.192	1
913.925	0
914.658	0
915.391	2
916.124	0
916.857	1
917.59	-1
918.323	2
919.055	-1
919.788	2
920.521	-1
921.253	1
921.985	-1
922.718	0
923.45	2
924.182	2
924.914	0
925.646	1
926.378	-2
927.11	2
927.841	0
928.573	1
929.305	-2
930.036	-1
930.768	0
931.499	0
932.23	2
932.962	4
933.693	2
934.424	1
935.155	0
935.886	2
936.617	-1
937.348	-1
938.078	1
938.809	3
939.54	2
940.27	1
941.001	1
941.731	1
942.461	2
943.191	1
943.922	-1
944.652	1
945.382	2
946.112	0
946.841	1
947.571	0
948.301	1
949.031	1
949.76	0
950.49	-1
951.219	-1
951.948	1
952.678	-3
953.407	0
954.136	-1
954.865	1
955.594	2
956.323	2
957.052	0
957.78	1
958.509	0
959.238	0
959.966	0
960.695	0
961.423	-1
962.151	-1
962.88	0
963.608	1
964.336	1
965.064	0
965.792	-1
966.52	2
967.247	2
967.975	-1
968.703	-2
969.43	1
970.158	0
970.885	1
971.613	0
972.34	3
973.067	-1
973.794	0
974.521	-2
975.248	-1
975.975	1
976.702	0
977.429	5
978.156	2
978.882	0
979.609	0
980.335	1
981.062	0
981.788	-1
982.514	-1
983.24	0
983.967	0
984.693	1
985.419	1
986.144	2
986.87	1
987.596	1
988.322	2
989.047	1
989.773	0
990.498	0
991.224	1
991.949	2
992.674	2
993.399	2
994.124	0
994.849	2
995.574	2
996.299	2
997.024	-2
997.749	-1
998.473	2
999.198	0
999.922	0
1000.647	0
1001.371	4
1002.095	0
1002.82	-1
1003.544	0
1004.268	1
1004.992	2
1005.716	0
1006.439	3
1007.163	2
1007.887	1
1008.611	1
1009.334	1
1010.058	1
1010.781	1
1011.504	-1
1012.228	0
1012.951	0
1013.674	-2
1014.397	1
1015.12	-2
