节点500_285_QEPB04081__859__15-09-50-679.txt的数据

Date: Wed Nov 12 15:09:50 CST 2025
User: PC
Spectrometer: QEPB0408
触发模式: 0
积分时间 (秒): 1.000000E-2
Scans to average: 1
启用暗噪声校正: true
启用非线性校正: false
滑动平均宽度: 0
X轴模式: Wavelengths
Number of Pixels in Spectrum: 1044
>>>>>Begin Spectral Data<<<<<
220.843	2.88
221.644	1.88
222.444	2.88
223.244	3.88
224.045	1.88
224.845	1.88
225.645	4.88
226.445	1.88
227.245	0.88
228.045	3.88
228.845	1.88
229.645	1.88
230.444	1.88
231.244	6.88
232.043	2.88
232.843	1.88
233.642	3.88
234.442	2.88
235.241	2.88
236.04	2.88
236.839	4.88
237.638	4.88
238.437	3.88
239.236	3.88
240.035	3.88
240.833	4.88
241.632	4.88
242.43	4.88
243.229	4.88
244.027	1.88
244.826	2.88
245.624	5.88
246.422	5.88
247.22	2.88
248.018	3.88
248.816	5.88
249.614	3.88
250.412	8.88
251.21	6.88
252.007	6.88
252.805	6.88
253.602	4.88
254.4	6.88
255.197	7.88
255.994	7.88
256.791	6.88
257.589	7.88
258.386	7.88
259.183	9.88
259.979	9.88
260.776	7.88
261.573	9.88
262.37	9.88
263.166	8.88
263.963	8.88
264.759	9.88
265.556	9.88
266.352	9.88
267.148	11.88
267.944	9.88
268.74	12.88
269.536	13.88
270.332	11.88
271.128	11.88
271.924	12.88
272.719	13.88
273.515	14.88
274.311	12.88
275.106	14.88
275.901	11.88
276.697	12.88
277.492	14.88
278.287	15.88
279.082	16.88
279.877	17.88
280.672	16.88
281.467	17.88
282.262	14.88
283.056	18.88
283.851	18.88
284.646	17.88
285.44	15.88
286.234	15.88
287.029	15.88
287.823	16.88
288.617	15.88
289.411	14.88
290.205	14.88
290.999	15.88
291.793	15.88
292.587	13.88
293.381	18.88
294.174	13.88
294.968	13.88
295.761	14.88
296.555	12.88
297.348	12.88
298.141	14.88
298.935	18.88
299.728	14.88
300.521	11.88
301.314	13.88
302.107	13.88
302.899	13.88
303.692	10.88
304.485	15.88
305.277	14.88
306.07	12.88
306.862	11.88
307.655	7.88
308.447	11.88
309.239	10.88
310.031	10.88
310.823	10.88
311.615	9.88
312.407	8.88
313.199	7.88
313.991	9.88
314.783	6.88
315.574	7.88
316.366	8.88
317.157	7.88
317.949	9.88
318.74	6.88
319.531	5.88
320.322	7.88
321.113	6.88
321.904	4.88
322.695	6.88
323.486	8.88
324.277	9.88
325.068	5.88
325.858	6.88
326.649	5.88
327.439	6.88
328.23	5.88
329.02	5.88
329.81	6.88
330.6	5.88
331.391	5.88
332.181	5.88
332.971	5.88
333.76	5.88
334.55	6.88
335.34	6.88
336.13	5.88
336.919	6.88
337.709	6.88
338.498	6.88
339.287	6.88
340.077	6.88
340.866	7.88
341.655	4.88
342.444	6.88
343.233	5.88
344.022	6.88
344.811	7.88
345.6	3.88
346.388	8.88
347.177	4.88
347.965	6.88
348.754	4.88
349.542	4.88
350.33	1.88
351.119	6.88
351.907	5.88
352.695	1.88
353.483	4.88
354.271	4.88
355.059	6.88
355.846	5.88
356.634	7.88
357.422	6.88
358.209	4.88
358.997	6.88
359.784	6.88
360.571	5.88
361.359	5.88
362.146	5.88
362.933	6.88
363.72	4.88
364.507	4.88
365.294	2.88
366.081	4.88
366.867	7.88
367.654	4.88
368.44	4.88
369.227	4.88
370.013	4.88
370.8	3.88
371.586	6.88
372.372	5.88
373.158	6.88
373.944	6.88
374.73	3.88
375.516	2.88
376.302	5.88
377.088	3.88
377.873	6.88
378.659	3.88
379.445	6.88
380.23	4.88
381.015	3.88
381.801	3.88
382.586	5.88
383.371	5.88
384.156	6.88
384.941	4.88
385.726	5.88
386.511	6.88
387.296	3.88
388.08	4.88
388.865	5.88
389.649	2.88
390.434	4.88
391.218	3.88
392.003	4.88
392.787	5.88
393.571	6.88
394.355	6.88
395.139	3.88
395.923	7.88
396.707	4.88
397.491	6.88
398.274	7.88
399.058	6.88
399.842	8.88
400.625	4.88
401.408	5.88
402.192	8.88
402.975	6.88
403.758	6.88
404.541	4.88
405.324	7.88
406.107	7.88
406.89	7.88
407.673	7.88
408.456	7.88
409.238	5.88
410.021	6.88
410.803	6.88
411.586	7.88
412.368	7.88
413.151	8.88
413.933	6.88
414.715	9.88
415.497	9.88
416.279	6.88
417.061	7.88
417.843	5.88
418.624	9.88
419.406	9.88
420.188	8.88
420.969	9.88
421.751	11.88
422.532	9.88
423.313	9.88
424.095	10.88
424.876	10.88
425.657	7.88
426.438	11.88
427.219	12.88
428	12.88
428.78	9.88
429.561	12.88
430.342	11.88
431.122	15.88
431.903	14.88
432.683	15.88
433.464	16.88
434.244	14.88
435.024	17.88
435.804	13.88
436.584	19.88
437.364	18.88
438.144	17.88
438.924	19.88
439.704	19.88
440.483	22.88
441.263	22.88
442.042	26.88
442.822	29.88
443.601	26.88
444.38	31.88
445.16	32.88
445.939	37.88
446.718	37.88
447.497	41.88
448.276	46.88
449.054	42.88
449.833	54.88
450.612	55.88
451.391	63.88
452.169	66.88
452.948	74.88
453.726	83.88
454.504	94.88
455.282	98.88
456.061	114.88
456.839	127.88
457.617	139.88
458.395	151.88
459.172	171.88
459.95	192.88
460.728	210.88
461.506	237.88
462.283	264.88
463.061	289.88
463.838	324.88
464.615	350.88
465.393	399.88
466.17	442.88
466.947	493.88
467.724	549.88
468.501	602.88
469.278	670.88
470.055	742.88
470.831	827.88
471.608	906.88
472.385	1008.88
473.161	1112.88
473.938	1199.88
474.714	1330.88
475.49	1471.88
476.266	1595.88
477.043	1776.88
477.819	1925.88
478.595	2130.88
479.371	2332.88
480.146	2525.88
480.922	2777.88
481.698	3064.88
482.473	3315.88
483.249	3624.88
484.024	3965.88
484.8	4308.88
485.575	4697.88
486.35	5089.88
487.126	5560.88
487.901	6040.88
488.676	6601.88
489.451	7152.88
490.225	7729.88
491	8376.88
491.775	9105.88
492.55	9888.88
493.324	10656.88
494.099	11450.88
494.873	12256.88
495.647	13201.88
496.422	14144.88
497.196	15130.88
497.97	16067.88
498.744	17128.88
499.518	18144.88
500.292	19190.88
501.066	20137.88
501.839	21096.88
502.613	21984.88
503.387	22769.88
504.16	23556.88
504.934	23965.88
505.707	24415.88
506.48	24713.88
507.253	24902.88
508.027	24877.88
508.8	24859.88
509.573	24806.88
510.346	24379.88
511.118	23939.88
511.891	23408.88
512.664	22821.88
513.437	22207.88
514.209	21329.88
514.982	20630.88
515.754	19900.88
516.526	19099.88
517.298	18306.88
518.071	17633.88
518.843	16922.88
519.615	16307.88
520.387	15676.88
521.159	15096.88
521.93	14410.88
522.702	13919.88
523.474	13367.88
524.245	12765.88
525.017	12209.88
525.788	11798.88
526.56	11263.88
527.331	10759.88
528.102	10292.88
528.873	9889.88
529.644	9444.88
530.415	9039.88
531.186	8573.88
531.957	8155.88
532.728	7805.88
533.498	7386.88
534.269	6989.88
535.039	6638.88
535.81	6265.88
536.58	5951.88
537.351	5586.88
538.121	5285.88
538.891	5033.88
539.661	4777.88
540.431	4481.88
541.201	4259.88
541.971	3996.88
542.741	3821.88
543.51	3622.88
544.28	3475.88
545.05	3283.88
545.819	3104.88
546.588	2956.88
547.358	2838.88
548.127	2645.88
548.896	2561.88
549.665	2427.88
550.434	2302.88
551.203	2155.88
551.972	2069.88
552.741	1948.88
553.51	1836.88
554.278	1742.88
555.047	1649.88
555.815	1562.88
556.584	1482.88
557.352	1395.88
558.121	1328.88
558.889	1242.88
559.657	1192.88
560.425	1130.88
561.193	1052.88
561.961	992.88
562.729	938.88
563.496	886.88
564.264	835.88
565.032	796.88
565.799	748.88
566.567	712.88
567.334	673.88
568.101	621.88
568.869	598.88
569.636	561.88
570.403	532.88
571.17	499.88
571.937	468.88
572.704	441.88
573.471	415.88
574.237	393.88
575.004	372.88
575.771	356.88
576.537	336.88
577.303	308.88
578.07	297.88
578.836	277.88
579.602	263.88
580.368	251.88
581.134	228.88
581.9	222.88
582.666	212.88
583.432	191.88
584.198	191.88
584.964	177.88
585.729	173.88
586.495	162.88
587.26	158.88
588.025	144.88
588.791	142.88
589.556	125.88
590.321	123.88
591.086	121.88
591.851	101.88
592.616	99.88
593.381	96.88
594.146	92.88
594.911	90.88
595.675	84.88
596.44	80.88
597.204	79.88
597.969	76.88
598.733	74.88
599.497	72.88
600.261	63.88
601.025	60.88
601.79	59.88
602.553	56.88
603.317	52.88
604.081	51.88
604.845	46.88
605.609	45.88
606.372	45.88
607.136	43.88
607.899	39.88
608.662	37.88
609.426	39.88
610.189	36.88
610.952	34.88
611.715	31.88
612.478	31.88
613.241	29.88
614.004	32.88
614.767	30.88
615.529	30.88
616.292	26.88
617.055	25.88
617.817	27.88
618.579	23.88
619.342	22.88
620.104	22.88
620.866	20.88
621.628	17.88
622.39	19.88
623.152	21.88
623.914	17.88
624.676	21.88
625.438	17.88
626.199	15.88
626.961	17.88
627.722	13.88
628.484	13.88
629.245	13.88
630.006	12.88
630.768	12.88
631.529	14.88
632.29	12.88
633.051	12.88
633.812	11.88
634.573	10.88
635.333	10.88
636.094	12.88
636.855	9.88
637.615	10.88
638.376	10.88
639.136	11.88
639.896	9.88
640.657	9.88
641.417	11.88
642.177	9.88
642.937	7.88
643.697	9.88
644.457	9.88
645.216	7.88
645.976	7.88
646.736	8.88
647.495	8.88
648.255	6.88
649.014	6.88
649.774	7.88
650.533	8.88
651.292	7.88
652.051	4.88
652.81	8.88
653.569	6.88
654.328	4.88
655.087	7.88
655.846	5.88
656.604	5.88
657.363	5.88
658.121	7.88
658.88	3.88
659.638	6.88
660.397	2.88
661.155	4.88
661.913	7.88
662.671	3.88
663.429	4.88
664.187	5.88
664.945	5.88
665.703	2.88
666.46	2.88
667.218	4.88
667.976	4.88
668.733	2.88
669.49	3.88
670.248	2.88
671.005	5.88
671.762	3.88
672.519	2.88
673.276	5.88
674.033	4.88
674.79	4.88
675.547	4.88
676.304	5.88
677.06	4.88
677.817	1.88
678.574	3.88
679.33	2.88
680.086	2.88
680.843	5.88
681.599	1.88
682.355	1.88
683.111	1.88
683.867	5.88
684.623	5.88
685.379	2.88
686.135	4.88
686.89	4.88
687.646	4.88
688.402	1.88
689.157	1.88
689.912	3.88
690.668	3.88
691.423	1.88
692.178	2.88
692.933	2.88
693.688	3.88
694.443	4.88
695.198	1.88
695.953	3.88
696.708	2.88
697.462	2.88
698.217	4.88
698.972	3.88
699.726	2.88
700.48	2.88
701.235	4.88
701.989	4.88
702.743	3.88
703.497	3.88
704.251	3.88
705.005	3.88
705.759	3.88
706.513	4.88
707.266	2.88
708.02	2.88
708.774	5.88
709.527	2.88
710.28	3.88
711.034	2.88
711.787	1.88
712.54	2.88
713.293	0.88
714.046	3.88
714.799	2.88
715.552	1.88
716.305	2.88
717.058	3.88
717.81	2.88
718.563	3.88
719.315	4.88
720.068	3.88
720.82	2.88
721.573	3.88
722.325	2.88
723.077	6.88
723.829	2.88
724.581	2.88
725.333	3.88
726.085	3.88
726.836	3.88
727.588	1.88
728.34	3.88
729.091	2.88
729.843	5.88
730.594	2.88
731.346	2.88
732.097	4.88
732.848	1.88
733.599	4.88
734.35	5.88
735.101	2.88
735.852	6.88
736.603	2.88
737.354	6.88
738.104	2.88
738.855	3.88
739.605	4.88
740.356	3.88
741.106	4.88
741.856	4.88
742.607	4.88
743.357	3.88
744.107	3.88
744.857	4.88
745.607	4.88
746.357	2.88
747.106	4.88
747.856	3.88
748.606	4.88
749.355	2.88
750.105	3.88
750.854	5.88
751.603	5.88
752.353	3.88
753.102	3.88
753.851	4.88
754.6	3.88
755.349	4.88
756.098	5.88
756.847	6.88
757.595	4.88
758.344	5.88
759.093	3.88
759.841	4.88
760.589	3.88
761.338	3.88
762.086	6.88
762.834	6.88
763.582	3.88
764.331	4.88
765.079	5.88
765.826	5.88
766.574	5.88
767.322	6.88
768.07	3.88
768.817	6.88
769.565	7.88
770.312	6.88
771.06	5.88
771.807	7.88
772.554	6.88
773.302	7.88
774.049	6.88
774.796	8.88
775.543	4.88
776.29	6.88
777.036	7.88
777.783	8.88
778.53	7.88
779.276	5.88
780.023	8.88
780.769	6.88
781.516	5.88
782.262	6.88
783.008	3.88
783.754	5.88
784.5	7.88
785.246	6.88
785.992	7.88
786.738	5.88
787.484	8.88
788.23	6.88
788.975	8.88
789.721	4.88
790.466	8.88
791.212	7.88
791.957	6.88
792.702	7.88
793.447	4.88
794.193	7.88
794.938	6.88
795.683	6.88
796.427	9.88
797.172	7.88
797.917	7.88
798.662	6.88
799.406	5.88
800.151	5.88
800.895	5.88
801.64	7.88
802.384	6.88
803.128	6.88
803.872	4.88
804.616	7.88
805.36	4.88
806.104	5.88
806.848	3.88
807.592	3.88
808.336	5.88
809.079	3.88
809.823	5.88
810.566	4.88
811.31	2.88
812.053	2.88
812.796	2.88
813.539	4.88
814.283	4.88
815.026	5.88
815.769	4.88
816.511	4.88
817.254	6.88
817.997	4.88
818.74	5.88
819.482	4.88
820.225	3.88
820.967	3.88
821.71	1.88
822.452	3.88
823.194	2.88
823.936	4.88
824.678	4.88
825.42	6.88
826.162	3.88
826.904	2.88
827.646	3.88
828.388	1.88
829.129	4.88
829.871	1.88
830.612	3.88
831.354	2.88
832.095	1.88
832.836	5.88
833.577	2.88
834.319	3.88
835.06	1.88
835.801	2.88
836.542	4.88
837.282	4.88
838.023	3.88
838.764	3.88
839.504	3.88
840.245	2.88
840.985	4.88
841.726	2.88
842.466	1.88
843.206	1.88
843.946	0.88
844.687	2.88
845.427	4.88
846.166	1.88
846.906	1.88
847.646	2.88
848.386	1.88
849.125	4.88
849.865	2.88
850.605	2.88
851.344	2.88
852.083	3.88
852.823	1.88
853.562	2.88
854.301	3.88
855.04	2.88
855.779	1.88
856.518	1.88
857.257	0.88
857.995	3.88
858.734	1.88
859.473	1.88
860.211	1.88
860.95	2.88
861.688	1.88
862.426	1.88
863.165	1.88
863.903	3.88
864.641	1.88
865.379	3.88
866.117	3.88
866.855	3.88
867.593	0.88
868.33	1.88
869.068	4.88
869.806	-0.12
870.543	2.88
871.28	3.88
872.018	2.88
872.755	2.88
873.492	0.88
874.229	1.88
874.967	0.88
875.703	0.88
876.44	-0.12
877.177	1.88
877.914	-0.12
878.651	1.88
879.387	0.88
880.124	0.88
880.86	-0.12
881.597	1.88
882.333	2.88
883.069	0.88
883.806	0.88
884.542	-2.12
885.278	0.88
886.014	0.88
886.749	-1.12
887.485	-0.12
888.221	0.88
888.957	0.88
889.692	-0.12
890.428	2.88
891.163	-1.12
891.899	-0.12
892.634	0.88
893.369	-1.12
894.104	0.88
894.839	-0.12
895.574	-0.12
896.309	0.88
897.044	2.88
897.779	-0.12
898.514	0.88
899.248	0.88
899.983	-2.12
900.717	-0.12
901.452	-0.12
902.186	-0.12
902.92	0.88
903.654	0.88
904.389	0.88
905.123	-2.12
905.857	0.88
906.59	-1.12
907.324	-0.12
908.058	0.88
908.792	0.88
909.525	0.88
910.259	-0.12
910.992	0.88
911.726	1.88
912.459	0.88
913.192	-0.12
913.925	-0.12
914.658	0.88
915.391	-0.12
916.124	0.88
916.857	0.88
917.59	0.88
918.323	-0.12
919.055	0.88
919.788	0.88
920.521	-0.12
921.253	-0.12
921.985	-2.12
922.718	1.88
923.45	1.88
924.182	-0.12
924.914	-1.12
925.646	-1.12
926.378	-0.12
927.11	-0.12
927.841	-1.12
928.573	-0.12
929.305	-0.12
930.036	-1.12
930.768	-2.12
931.499	0.88
932.23	-2.12
932.962	-2.12
933.693	0.88
934.424	-1.12
935.155	3.88
935.886	-0.12
936.617	-0.12
937.348	-0.12
938.078	-1.12
938.809	1.88
939.54	-0.12
940.27	1.88
941.001	-2.12
941.731	1.88
942.461	-2.12
943.191	0.88
943.922	-1.12
944.652	-2.12
945.382	-0.12
946.112	-2.12
946.841	-0.12
947.571	-0.12
948.301	0.88
949.031	1.88
949.76	-1.12
950.49	-0.12
951.219	-0.12
951.948	1.88
952.678	1.88
953.407	-0.12
954.136	0.88
954.865	-0.12
955.594	1.88
956.323	0.88
957.052	-0.12
957.78	-0.12
958.509	-2.12
959.238	-1.12
959.966	-1.12
960.695	-0.12
961.423	1.88
962.151	2.88
962.88	0.88
963.608	-1.12
964.336	-1.12
965.064	0.88
965.792	-1.12
966.52	0.88
967.247	0.88
967.975	0.88
968.703	-1.12
969.43	0.88
970.158	0.88
970.885	0.88
971.613	-0.12
972.34	-3.12
973.067	-0.12
973.794	0.88
974.521	-0.12
975.248	-1.12
975.975	-3.12
976.702	-1.12
977.429	-1.12
978.156	-0.12
978.882	2.88
979.609	0.88
980.335	-0.12
981.062	0.88
981.788	0.88
982.514	0.88
983.24	1.88
983.967	-0.12
984.693	0.88
985.419	-1.12
986.144	-0.12
986.87	0.88
987.596	0.88
988.322	-0.12
989.047	-1.12
989.773	-0.12
990.498	-2.12
991.224	0.88
991.949	0.88
992.674	-2.12
993.399	0.88
994.124	-0.12
994.849	-0.12
995.574	-0.12
996.299	-2.12
997.024	0.88
997.749	-2.12
998.473	-1.12
999.198	-0.12
999.922	0.88
1000.647	-0.12
1001.371	3.88
1002.095	-1.12
1002.82	-2.12
1003.544	-2.12
1004.268	-0.12
1004.992	-0.12
1005.716	0.88
1006.439	0.88
1007.163	0.88
1007.887	3.88
1008.611	0.88
1009.334	-0.12
1010.058	-0.12
1010.781	3.88
1011.504	-0.12
1012.228	-1.12
1012.951	0.88
1013.674	-1.12
1014.397	-0.12
1015.12	1.88
