节点500_285_QEPB04081__86__14-56-59-300.txt的数据

Date: Wed Nov 12 14:56:59 CST 2025
User: PC
Spectrometer: QEPB0408
触发模式: 0
积分时间 (秒): 1.000000E-2
Scans to average: 1
启用暗噪声校正: true
启用非线性校正: false
滑动平均宽度: 0
X轴模式: Wavelengths
Number of Pixels in Spectrum: 1044
>>>>>Begin Spectral Data<<<<<
220.843	4.5
221.644	2.5
222.444	2.5
223.244	1.5
224.045	3.5
224.845	-0.5
225.645	1.5
226.445	1.5
227.245	4.5
228.045	3.5
228.845	4.5
229.645	4.5
230.444	2.5
231.244	3.5
232.043	3.5
232.843	5.5
233.642	5.5
234.442	4.5
235.241	4.5
236.04	4.5
236.839	3.5
237.638	4.5
238.437	6.5
239.236	4.5
240.035	7.5
240.833	3.5
241.632	5.5
242.43	3.5
243.229	6.5
244.027	5.5
244.826	3.5
245.624	6.5
246.422	6.5
247.22	5.5
248.018	7.5
248.816	5.5
249.614	9.5
250.412	6.5
251.21	8.5
252.007	8.5
252.805	8.5
253.602	7.5
254.4	6.5
255.197	7.5
255.994	8.5
256.791	9.5
257.589	9.5
258.386	9.5
259.183	10.5
259.979	11.5
260.776	11.5
261.573	11.5
262.37	10.5
263.166	11.5
263.963	8.5
264.759	13.5
265.556	13.5
266.352	12.5
267.148	14.5
267.944	13.5
268.74	15.5
269.536	15.5
270.332	14.5
271.128	16.5
271.924	16.5
272.719	20.5
273.515	17.5
274.311	17.5
275.106	17.5
275.901	17.5
276.697	20.5
277.492	15.5
278.287	21.5
279.082	19.5
279.877	17.5
280.672	21.5
281.467	19.5
282.262	21.5
283.056	19.5
283.851	19.5
284.646	21.5
285.44	21.5
286.234	23.5
287.029	17.5
287.823	24.5
288.617	23.5
289.411	17.5
290.205	21.5
290.999	20.5
291.793	17.5
292.587	19.5
293.381	18.5
294.174	19.5
294.968	15.5
295.761	17.5
296.555	15.5
297.348	13.5
298.141	14.5
298.935	18.5
299.728	13.5
300.521	14.5
301.314	15.5
302.107	13.5
302.899	11.5
303.692	13.5
304.485	15.5
305.277	13.5
306.07	11.5
306.862	13.5
307.655	11.5
308.447	13.5
309.239	12.5
310.031	12.5
310.823	12.5
311.615	8.5
312.407	10.5
313.199	8.5
313.991	9.5
314.783	10.5
315.574	8.5
316.366	11.5
317.157	10.5
317.949	7.5
318.74	9.5
319.531	8.5
320.322	8.5
321.113	8.5
321.904	6.5
322.695	8.5
323.486	5.5
324.277	6.5
325.068	8.5
325.858	8.5
326.649	7.5
327.439	8.5
328.23	7.5
329.02	7.5
329.81	9.5
330.6	7.5
331.391	4.5
332.181	7.5
332.971	5.5
333.76	8.5
334.55	5.5
335.34	7.5
336.13	6.5
336.919	8.5
337.709	5.5
338.498	6.5
339.287	6.5
340.077	7.5
340.866	6.5
341.655	5.5
342.444	9.5
343.233	8.5
344.022	8.5
344.811	7.5
345.6	4.5
346.388	5.5
347.177	7.5
347.965	8.5
348.754	7.5
349.542	5.5
350.33	8.5
351.119	5.5
351.907	5.5
352.695	6.5
353.483	3.5
354.271	7.5
355.059	7.5
355.846	6.5
356.634	5.5
357.422	4.5
358.209	6.5
358.997	4.5
359.784	7.5
360.571	6.5
361.359	3.5
362.146	6.5
362.933	6.5
363.72	7.5
364.507	4.5
365.294	6.5
366.081	6.5
366.867	4.5
367.654	5.5
368.44	4.5
369.227	4.5
370.013	4.5
370.8	5.5
371.586	6.5
372.372	7.5
373.158	5.5
373.944	6.5
374.73	6.5
375.516	6.5
376.302	3.5
377.088	7.5
377.873	4.5
378.659	4.5
379.445	4.5
380.23	6.5
381.015	6.5
381.801	3.5
382.586	6.5
383.371	5.5
384.156	5.5
384.941	5.5
385.726	6.5
386.511	5.5
387.296	5.5
388.08	7.5
388.865	5.5
389.649	7.5
390.434	6.5
391.218	7.5
392.003	6.5
392.787	6.5
393.571	4.5
394.355	5.5
395.139	9.5
395.923	7.5
396.707	8.5
397.491	7.5
398.274	6.5
399.058	8.5
399.842	6.5
400.625	9.5
401.408	7.5
402.192	8.5
402.975	6.5
403.758	7.5
404.541	5.5
405.324	8.5
406.107	7.5
406.89	7.5
407.673	9.5
408.456	8.5
409.238	10.5
410.021	5.5
410.803	8.5
411.586	9.5
412.368	9.5
413.151	9.5
413.933	7.5
414.715	8.5
415.497	9.5
416.279	8.5
417.061	9.5
417.843	9.5
418.624	11.5
419.406	9.5
420.188	11.5
420.969	9.5
421.751	12.5
422.532	13.5
423.313	10.5
424.095	10.5
424.876	12.5
425.657	14.5
426.438	12.5
427.219	10.5
428	12.5
428.78	15.5
429.561	15.5
430.342	14.5
431.122	16.5
431.903	14.5
432.683	14.5
433.464	17.5
434.244	16.5
435.024	18.5
435.804	18.5
436.584	15.5
437.364	19.5
438.144	18.5
438.924	21.5
439.704	24.5
440.483	24.5
441.263	23.5
442.042	24.5
442.822	27.5
443.601	28.5
444.38	28.5
445.16	33.5
445.939	33.5
446.718	38.5
447.497	34.5
448.276	42.5
449.054	46.5
449.833	48.5
450.612	48.5
451.391	54.5
452.169	57.5
452.948	61.5
453.726	67.5
454.504	74.5
455.282	83.5
456.061	88.5
456.839	96.5
457.617	116.5
458.395	123.5
459.172	143.5
459.95	157.5
460.728	172.5
461.506	192.5
462.283	214.5
463.061	233.5
463.838	271.5
464.615	298.5
465.393	336.5
466.17	379.5
466.947	423.5
467.724	467.5
468.501	527.5
469.278	589.5
470.055	650.5
470.831	730.5
471.608	822.5
472.385	904.5
473.161	1009.5
473.938	1127.5
474.714	1257.5
475.49	1389.5
476.266	1557.5
477.043	1719.5
477.819	1901.5
478.595	2102.5
479.371	2337.5
480.146	2625.5
480.922	2861.5
481.698	3190.5
482.473	3555.5
483.249	3890.5
484.024	4318.5
484.8	4761.5
485.575	5237.5
486.35	5824.5
487.126	6415.5
487.901	7053.5
488.676	7781.5
489.451	8519.5
490.225	9402.5
491	10260.5
491.775	11251.5
492.55	12287.5
493.324	13394.5
494.099	14407.5
494.873	15559.5
495.647	16815.5
496.422	18083.5
497.196	19338.5
497.97	20619.5
498.744	21963.5
499.518	23135.5
500.292	24340.5
501.066	25468.5
501.839	26410.5
502.613	27265.5
503.387	27901.5
504.16	28457.5
504.934	28686.5
505.707	28696.5
506.48	28598.5
507.253	28418.5
508.027	27903.5
508.8	27499.5
509.573	26808.5
510.346	26069.5
511.118	25190.5
511.891	24256.5
512.664	23389.5
513.437	22282.5
514.209	21335.5
514.982	20428.5
515.754	19498.5
516.526	18557.5
517.298	17752.5
518.071	17011.5
518.843	16349.5
519.615	15709.5
520.387	15075.5
521.159	14492.5
521.93	13852.5
522.702	13344.5
523.474	12788.5
524.245	12259.5
525.017	11721.5
525.788	11214.5
526.56	10689.5
527.331	10245.5
528.102	9744.5
528.873	9275.5
529.644	8801.5
530.415	8354.5
531.186	7917.5
531.957	7476.5
532.728	7080.5
533.498	6683.5
534.269	6309.5
535.039	5964.5
535.81	5638.5
536.58	5320.5
537.351	5000.5
538.121	4733.5
538.891	4481.5
539.661	4238.5
540.431	3998.5
541.201	3809.5
541.971	3569.5
542.741	3400.5
543.51	3217.5
544.28	3076.5
545.05	2911.5
545.819	2774.5
546.588	2637.5
547.358	2507.5
548.127	2369.5
548.896	2258.5
549.665	2145.5
550.434	2037.5
551.203	1914.5
551.972	1816.5
552.741	1728.5
553.51	1601.5
554.278	1517.5
555.047	1417.5
555.815	1361.5
556.584	1284.5
557.352	1213.5
558.121	1139.5
558.889	1075.5
559.657	1011.5
560.425	957.5
561.193	906.5
561.961	848.5
562.729	795.5
563.496	757.5
564.264	721.5
565.032	677.5
565.799	637.5
566.567	599.5
567.334	574.5
568.101	547.5
568.869	503.5
569.636	481.5
570.403	446.5
571.17	423.5
571.937	405.5
572.704	380.5
573.471	361.5
574.237	342.5
575.004	320.5
575.771	300.5
576.537	288.5
577.303	271.5
578.07	254.5
578.836	239.5
579.602	223.5
580.368	217.5
581.134	204.5
581.9	186.5
582.666	178.5
583.432	166.5
584.198	166.5
584.964	149.5
585.729	147.5
586.495	138.5
587.26	129.5
588.025	123.5
588.791	114.5
589.556	109.5
590.321	105.5
591.086	96.5
591.851	95.5
592.616	88.5
593.381	86.5
594.146	83.5
594.911	81.5
595.675	75.5
596.44	70.5
597.204	68.5
597.969	61.5
598.733	62.5
599.497	56.5
600.261	57.5
601.025	54.5
601.79	52.5
602.553	53.5
603.317	47.5
604.081	47.5
604.845	44.5
605.609	41.5
606.372	41.5
607.136	39.5
607.899	37.5
608.662	38.5
609.426	36.5
610.189	35.5
610.952	29.5
611.715	31.5
612.478	27.5
613.241	29.5
614.004	25.5
614.767	26.5
615.529	25.5
616.292	23.5
617.055	24.5
617.817	23.5
618.579	20.5
619.342	20.5
620.104	22.5
620.866	18.5
621.628	20.5
622.39	18.5
623.152	18.5
623.914	17.5
624.676	18.5
625.438	15.5
626.199	17.5
626.961	18.5
627.722	14.5
628.484	15.5
629.245	15.5
630.006	14.5
630.768	13.5
631.529	11.5
632.29	12.5
633.051	12.5
633.812	15.5
634.573	11.5
635.333	13.5
636.094	10.5
636.855	9.5
637.615	9.5
638.376	9.5
639.136	9.5
639.896	13.5
640.657	7.5
641.417	10.5
642.177	11.5
642.937	11.5
643.697	8.5
644.457	9.5
645.216	9.5
645.976	8.5
646.736	6.5
647.495	8.5
648.255	8.5
649.014	7.5
649.774	7.5
650.533	8.5
651.292	7.5
652.051	8.5
652.81	3.5
653.569	8.5
654.328	8.5
655.087	7.5
655.846	6.5
656.604	7.5
657.363	9.5
658.121	5.5
658.88	6.5
659.638	9.5
660.397	3.5
661.155	6.5
661.913	7.5
662.671	4.5
663.429	4.5
664.187	6.5
664.945	4.5
665.703	7.5
666.46	6.5
667.218	5.5
667.976	5.5
668.733	4.5
669.49	6.5
670.248	5.5
671.005	5.5
671.762	5.5
672.519	4.5
673.276	5.5
674.033	5.5
674.79	5.5
675.547	6.5
676.304	5.5
677.06	5.5
677.817	4.5
678.574	4.5
679.33	6.5
680.086	4.5
680.843	6.5
681.599	3.5
682.355	2.5
683.111	4.5
683.867	3.5
684.623	4.5
685.379	3.5
686.135	6.5
686.89	3.5
687.646	4.5
688.402	4.5
689.157	5.5
689.912	3.5
690.668	5.5
691.423	4.5
692.178	4.5
692.933	1.5
693.688	3.5
694.443	4.5
695.198	3.5
695.953	3.5
696.708	4.5
697.462	5.5
698.217	5.5
698.972	7.5
699.726	4.5
700.48	1.5
701.235	1.5
701.989	1.5
702.743	2.5
703.497	3.5
704.251	3.5
705.005	3.5
705.759	4.5
706.513	3.5
707.266	4.5
708.02	4.5
708.774	4.5
709.527	1.5
710.28	4.5
711.034	3.5
711.787	3.5
712.54	6.5
713.293	4.5
714.046	3.5
714.799	4.5
715.552	3.5
716.305	1.5
717.058	7.5
717.81	4.5
718.563	3.5
719.315	4.5
720.068	4.5
720.82	3.5
721.573	2.5
722.325	6.5
723.077	4.5
723.829	4.5
724.581	4.5
725.333	5.5
726.085	6.5
726.836	6.5
727.588	3.5
728.34	5.5
729.091	3.5
729.843	4.5
730.594	4.5
731.346	5.5
732.097	5.5
732.848	4.5
733.599	5.5
734.35	5.5
735.101	7.5
735.852	4.5
736.603	2.5
737.354	6.5
738.104	5.5
738.855	5.5
739.605	4.5
740.356	6.5
741.106	3.5
741.856	6.5
742.607	5.5
743.357	3.5
744.107	5.5
744.857	6.5
745.607	5.5
746.357	8.5
747.106	3.5
747.856	5.5
748.606	4.5
749.355	7.5
750.105	3.5
750.854	4.5
751.603	5.5
752.353	6.5
753.102	4.5
753.851	5.5
754.6	5.5
755.349	9.5
756.098	5.5
756.847	7.5
757.595	5.5
758.344	6.5
759.093	4.5
759.841	4.5
760.589	8.5
761.338	3.5
762.086	7.5
762.834	8.5
763.582	7.5
764.331	8.5
765.079	5.5
765.826	9.5
766.574	9.5
767.322	7.5
768.07	8.5
768.817	10.5
769.565	10.5
770.312	9.5
771.06	9.5
771.807	9.5
772.554	9.5
773.302	10.5
774.049	6.5
774.796	7.5
775.543	6.5
776.29	11.5
777.036	10.5
777.783	10.5
778.53	11.5
779.276	11.5
780.023	7.5
780.769	7.5
781.516	9.5
782.262	12.5
783.008	7.5
783.754	10.5
784.5	8.5
785.246	8.5
785.992	9.5
786.738	10.5
787.484	6.5
788.23	7.5
788.975	9.5
789.721	9.5
790.466	9.5
791.212	10.5
791.957	8.5
792.702	8.5
793.447	6.5
794.193	8.5
794.938	8.5
795.683	7.5
796.427	8.5
797.172	7.5
797.917	8.5
798.662	8.5
799.406	7.5
800.151	8.5
800.895	8.5
801.64	6.5
802.384	6.5
803.128	5.5
803.872	7.5
804.616	8.5
805.36	5.5
806.104	8.5
806.848	7.5
807.592	7.5
808.336	6.5
809.079	5.5
809.823	6.5
810.566	7.5
811.31	8.5
812.053	7.5
812.796	6.5
813.539	8.5
814.283	4.5
815.026	6.5
815.769	7.5
816.511	5.5
817.254	5.5
817.997	5.5
818.74	7.5
819.482	3.5
820.225	4.5
820.967	5.5
821.71	3.5
822.452	4.5
823.194	5.5
823.936	4.5
824.678	6.5
825.42	5.5
826.162	3.5
826.904	1.5
827.646	4.5
828.388	6.5
829.129	5.5
829.871	4.5
830.612	4.5
831.354	2.5
832.095	3.5
832.836	3.5
833.577	6.5
834.319	3.5
835.06	2.5
835.801	3.5
836.542	4.5
837.282	2.5
838.023	5.5
838.764	3.5
839.504	3.5
840.245	3.5
840.985	4.5
841.726	4.5
842.466	3.5
843.206	2.5
843.946	3.5
844.687	4.5
845.427	4.5
846.166	4.5
846.906	0.5
847.646	1.5
848.386	4.5
849.125	3.5
849.865	3.5
850.605	3.5
851.344	5.5
852.083	3.5
852.823	2.5
853.562	3.5
854.301	2.5
855.04	5.5
855.779	3.5
856.518	3.5
857.257	3.5
857.995	3.5
858.734	2.5
859.473	3.5
860.211	4.5
860.95	2.5
861.688	2.5
862.426	5.5
863.165	1.5
863.903	4.5
864.641	1.5
865.379	1.5
866.117	-0.5
866.855	3.5
867.593	1.5
868.33	0.5
869.068	1.5
869.806	2.5
870.543	1.5
871.28	2.5
872.018	1.5
872.755	1.5
873.492	0.5
874.229	2.5
874.967	-0.5
875.703	0.5
876.44	0.5
877.177	0.5
877.914	3.5
878.651	0.5
879.387	2.5
880.124	2.5
880.86	2.5
881.597	1.5
882.333	1.5
883.069	1.5
883.806	3.5
884.542	1.5
885.278	-2.5
886.014	2.5
886.749	1.5
887.485	1.5
888.221	3.5
888.957	2.5
889.692	1.5
890.428	1.5
891.163	1.5
891.899	2.5
892.634	2.5
893.369	0.5
894.104	0.5
894.839	2.5
895.574	0.5
896.309	0.5
897.044	2.5
897.779	3.5
898.514	1.5
899.248	2.5
899.983	-0.5
900.717	0.5
901.452	-1.5
902.186	1.5
902.92	1.5
903.654	-1.5
904.389	1.5
905.123	0.5
905.857	1.5
906.59	1.5
907.324	1.5
908.058	0.5
908.792	1.5
909.525	1.5
910.259	0.5
910.992	2.5
911.726	1.5
912.459	1.5
913.192	-0.5
913.925	0.5
914.658	2.5
915.391	1.5
916.124	-0.5
916.857	-0.5
917.59	1.5
918.323	-0.5
919.055	2.5
919.788	2.5
920.521	2.5
921.253	0.5
921.985	0.5
922.718	1.5
923.45	-0.5
924.182	-0.5
924.914	0.5
925.646	0.5
926.378	0.5
927.11	1.5
927.841	1.5
928.573	0.5
929.305	2.5
930.036	2.5
930.768	2.5
931.499	0.5
932.23	-0.5
932.962	1.5
933.693	-0.5
934.424	2.5
935.155	1.5
935.886	-0.5
936.617	0.5
937.348	0.5
938.078	4.5
938.809	1.5
939.54	0.5
940.27	0.5
941.001	0.5
941.731	0.5
942.461	1.5
943.191	2.5
943.922	-0.5
944.652	1.5
945.382	2.5
946.112	1.5
946.841	0.5
947.571	0.5
948.301	-0.5
949.031	1.5
949.76	0.5
950.49	-0.5
951.219	1.5
951.948	0.5
952.678	-2.5
953.407	2.5
954.136	3.5
954.865	1.5
955.594	1.5
956.323	0.5
957.052	0.5
957.78	0.5
958.509	1.5
959.238	-1.5
959.966	1.5
960.695	1.5
961.423	0.5
962.151	1.5
962.88	1.5
963.608	-2.5
964.336	-0.5
965.064	-0.5
965.792	1.5
966.52	0.5
967.247	0.5
967.975	2.5
968.703	0.5
969.43	2.5
970.158	0.5
970.885	2.5
971.613	0.5
972.34	2.5
973.067	0.5
973.794	0.5
974.521	1.5
975.248	0.5
975.975	0.5
976.702	1.5
977.429	-0.5
978.156	0.5
978.882	1.5
979.609	1.5
980.335	1.5
981.062	-2.5
981.788	1.5
982.514	-0.5
983.24	1.5
983.967	-1.5
984.693	-0.5
985.419	1.5
986.144	2.5
986.87	2.5
987.596	-0.5
988.322	-2.5
989.047	-0.5
989.773	2.5
990.498	0.5
991.224	0.5
991.949	1.5
992.674	-0.5
993.399	1.5
994.124	1.5
994.849	1.5
995.574	1.5
996.299	0.5
997.024	0.5
997.749	-0.5
998.473	0.5
999.198	1.5
999.922	-0.5
1000.647	-0.5
1001.371	2.5
1002.095	1.5
1002.82	-2.5
1003.544	-1.5
1004.268	1.5
1004.992	2.5
1005.716	0.5
1006.439	0.5
1007.163	1.5
1007.887	2.5
1008.611	1.5
1009.334	-1.5
1010.058	-0.5
1010.781	0.5
1011.504	0.5
1012.228	-0.5
1012.951	0.5
1013.674	-0.5
1014.397	0.5
1015.12	-0.5
