节点500_285_QEPB04081__582__15-05-14-200.txt的数据

Date: Wed Nov 12 15:05:14 CST 2025
User: PC
Spectrometer: QEPB0408
触发模式: 0
积分时间 (秒): 1.000000E-2
Scans to average: 1
启用暗噪声校正: true
启用非线性校正: false
滑动平均宽度: 0
X轴模式: Wavelengths
Number of Pixels in Spectrum: 1044
>>>>>Begin Spectral Data<<<<<
220.843	0.25
221.644	3.25
222.444	3.25
223.244	3.25
224.045	2.25
224.845	2.25
225.645	2.25
226.445	2.25
227.245	3.25
228.045	2.25
228.845	2.25
229.645	4.25
230.444	2.25
231.244	3.25
232.043	4.25
232.843	6.25
233.642	3.25
234.442	2.25
235.241	2.25
236.04	1.25
236.839	5.25
237.638	3.25
238.437	2.25
239.236	4.25
240.035	2.25
240.833	4.25
241.632	7.25
242.43	4.25
243.229	5.25
244.027	5.25
244.826	3.25
245.624	5.25
246.422	3.25
247.22	7.25
248.018	8.25
248.816	4.25
249.614	7.25
250.412	7.25
251.21	7.25
252.007	6.25
252.805	7.25
253.602	6.25
254.4	8.25
255.197	6.25
255.994	8.25
256.791	7.25
257.589	8.25
258.386	9.25
259.183	9.25
259.979	9.25
260.776	10.25
261.573	9.25
262.37	9.25
263.166	9.25
263.963	11.25
264.759	12.25
265.556	10.25
266.352	12.25
267.148	16.25
267.944	15.25
268.74	14.25
269.536	16.25
270.332	14.25
271.128	15.25
271.924	14.25
272.719	15.25
273.515	15.25
274.311	13.25
275.106	16.25
275.901	16.25
276.697	16.25
277.492	14.25
278.287	16.25
279.082	19.25
279.877	17.25
280.672	19.25
281.467	16.25
282.262	18.25
283.056	18.25
283.851	20.25
284.646	18.25
285.44	18.25
286.234	21.25
287.029	20.25
287.823	16.25
288.617	18.25
289.411	18.25
290.205	22.25
290.999	17.25
291.793	21.25
292.587	18.25
293.381	18.25
294.174	15.25
294.968	18.25
295.761	14.25
296.555	16.25
297.348	15.25
298.141	16.25
298.935	14.25
299.728	18.25
300.521	15.25
301.314	15.25
302.107	14.25
302.899	16.25
303.692	14.25
304.485	14.25
305.277	14.25
306.07	13.25
306.862	13.25
307.655	14.25
308.447	13.25
309.239	12.25
310.031	14.25
310.823	14.25
311.615	10.25
312.407	8.25
313.199	11.25
313.991	7.25
314.783	10.25
315.574	8.25
316.366	10.25
317.157	8.25
317.949	9.25
318.74	9.25
319.531	8.25
320.322	9.25
321.113	6.25
321.904	9.25
322.695	9.25
323.486	10.25
324.277	10.25
325.068	7.25
325.858	8.25
326.649	4.25
327.439	9.25
328.23	7.25
329.02	7.25
329.81	6.25
330.6	6.25
331.391	8.25
332.181	4.25
332.971	5.25
333.76	4.25
334.55	6.25
335.34	8.25
336.13	6.25
336.919	7.25
337.709	7.25
338.498	7.25
339.287	7.25
340.077	4.25
340.866	7.25
341.655	7.25
342.444	6.25
343.233	8.25
344.022	8.25
344.811	8.25
345.6	5.25
346.388	7.25
347.177	6.25
347.965	6.25
348.754	8.25
349.542	6.25
350.33	5.25
351.119	7.25
351.907	6.25
352.695	6.25
353.483	7.25
354.271	6.25
355.059	5.25
355.846	7.25
356.634	4.25
357.422	5.25
358.209	5.25
358.997	6.25
359.784	6.25
360.571	3.25
361.359	5.25
362.146	4.25
362.933	6.25
363.72	6.25
364.507	7.25
365.294	6.25
366.081	5.25
366.867	4.25
367.654	5.25
368.44	6.25
369.227	6.25
370.013	4.25
370.8	4.25
371.586	5.25
372.372	6.25
373.158	4.25
373.944	5.25
374.73	2.25
375.516	3.25
376.302	9.25
377.088	5.25
377.873	4.25
378.659	7.25
379.445	6.25
380.23	4.25
381.015	5.25
381.801	5.25
382.586	5.25
383.371	5.25
384.156	4.25
384.941	5.25
385.726	4.25
386.511	5.25
387.296	7.25
388.08	5.25
388.865	5.25
389.649	4.25
390.434	6.25
391.218	5.25
392.003	6.25
392.787	4.25
393.571	5.25
394.355	7.25
395.139	7.25
395.923	6.25
396.707	9.25
397.491	6.25
398.274	5.25
399.058	6.25
399.842	8.25
400.625	7.25
401.408	7.25
402.192	9.25
402.975	5.25
403.758	8.25
404.541	7.25
405.324	7.25
406.107	6.25
406.89	7.25
407.673	9.25
408.456	7.25
409.238	5.25
410.021	8.25
410.803	5.25
411.586	8.25
412.368	7.25
413.151	11.25
413.933	10.25
414.715	9.25
415.497	10.25
416.279	9.25
417.061	12.25
417.843	10.25
418.624	9.25
419.406	10.25
420.188	11.25
420.969	9.25
421.751	11.25
422.532	10.25
423.313	11.25
424.095	10.25
424.876	12.25
425.657	10.25
426.438	11.25
427.219	11.25
428	14.25
428.78	13.25
429.561	12.25
430.342	14.25
431.122	15.25
431.903	13.25
432.683	15.25
433.464	15.25
434.244	15.25
435.024	15.25
435.804	16.25
436.584	18.25
437.364	19.25
438.144	21.25
438.924	20.25
439.704	22.25
440.483	23.25
441.263	23.25
442.042	28.25
442.822	28.25
443.601	28.25
444.38	32.25
445.16	30.25
445.939	34.25
446.718	37.25
447.497	42.25
448.276	43.25
449.054	46.25
449.833	51.25
450.612	56.25
451.391	61.25
452.169	70.25
452.948	71.25
453.726	81.25
454.504	89.25
455.282	98.25
456.061	106.25
456.839	115.25
457.617	133.25
458.395	147.25
459.172	160.25
459.95	176.25
460.728	197.25
461.506	221.25
462.283	247.25
463.061	280.25
463.838	313.25
464.615	339.25
465.393	380.25
466.17	426.25
466.947	471.25
467.724	534.25
468.501	591.25
469.278	646.25
470.055	724.25
470.831	801.25
471.608	884.25
472.385	984.25
473.161	1079.25
473.938	1204.25
474.714	1311.25
475.49	1446.25
476.266	1586.25
477.043	1774.25
477.819	1949.25
478.595	2146.25
479.371	2350.25
480.146	2567.25
480.922	2840.25
481.698	3131.25
482.473	3427.25
483.249	3754.25
484.024	4113.25
484.8	4511.25
485.575	4913.25
486.35	5396.25
487.126	5891.25
487.901	6429.25
488.676	7003.25
489.451	7689.25
490.225	8330.25
491	9123.25
491.775	9931.25
492.55	10748.25
493.324	11649.25
494.099	12489.25
494.873	13449.25
495.647	14491.25
496.422	15581.25
497.196	16617.25
497.97	17748.25
498.744	18829.25
499.518	19991.25
500.292	21076.25
501.066	22154.25
501.839	23025.25
502.613	23976.25
503.387	24801.25
504.16	25511.25
504.934	25929.25
505.707	26184.25
506.48	26334.25
507.253	26405.25
508.027	26193.25
508.8	26026.25
509.573	25831.25
510.346	25367.25
511.118	24739.25
511.891	24051.25
512.664	23340.25
513.437	22583.25
514.209	21651.25
514.982	20806.25
515.754	19942.25
516.526	19067.25
517.298	18295.25
518.071	17510.25
518.843	16807.25
519.615	16249.25
520.387	15569.25
521.159	14950.25
521.93	14351.25
522.702	13801.25
523.474	13220.25
524.245	12686.25
525.017	12126.25
525.788	11681.25
526.56	11139.25
527.331	10622.25
528.102	10180.25
528.873	9716.25
529.644	9209.25
530.415	8806.25
531.186	8385.25
531.957	7951.25
532.728	7567.25
533.498	7221.25
534.269	6816.25
535.039	6434.25
535.81	6094.25
536.58	5775.25
537.351	5422.25
538.121	5119.25
538.891	4864.25
539.661	4601.25
540.431	4354.25
541.201	4133.25
541.971	3885.25
542.741	3673.25
543.51	3482.25
544.28	3321.25
545.05	3174.25
545.819	3013.25
546.588	2860.25
547.358	2699.25
548.127	2605.25
548.896	2466.25
549.665	2327.25
550.434	2230.25
551.203	2105.25
551.972	1982.25
552.741	1869.25
553.51	1763.25
554.278	1683.25
555.047	1582.25
555.815	1486.25
556.584	1406.25
557.352	1346.25
558.121	1262.25
558.889	1183.25
559.657	1132.25
560.425	1069.25
561.193	1004.25
561.961	942.25
562.729	894.25
563.496	853.25
564.264	798.25
565.032	748.25
565.799	713.25
566.567	682.25
567.334	653.25
568.101	593.25
568.869	572.25
569.636	534.25
570.403	503.25
571.17	479.25
571.937	446.25
572.704	422.25
573.471	404.25
574.237	379.25
575.004	356.25
575.771	342.25
576.537	316.25
577.303	300.25
578.07	282.25
578.836	264.25
579.602	250.25
580.368	233.25
581.134	229.25
581.9	211.25
582.666	201.25
583.432	183.25
584.198	179.25
584.964	177.25
585.729	162.25
586.495	157.25
587.26	143.25
588.025	134.25
588.791	129.25
589.556	126.25
590.321	112.25
591.086	113.25
591.851	107.25
592.616	101.25
593.381	95.25
594.146	91.25
594.911	86.25
595.675	81.25
596.44	82.25
597.204	75.25
597.969	68.25
598.733	70.25
599.497	68.25
600.261	62.25
601.025	58.25
601.79	58.25
602.553	49.25
603.317	54.25
604.081	49.25
604.845	51.25
605.609	45.25
606.372	47.25
607.136	44.25
607.899	43.25
608.662	41.25
609.426	34.25
610.189	35.25
610.952	33.25
611.715	33.25
612.478	34.25
613.241	33.25
614.004	29.25
614.767	26.25
615.529	27.25
616.292	27.25
617.055	23.25
617.817	21.25
618.579	23.25
619.342	25.25
620.104	21.25
620.866	21.25
621.628	22.25
622.39	22.25
623.152	16.25
623.914	16.25
624.676	16.25
625.438	15.25
626.199	15.25
626.961	15.25
627.722	15.25
628.484	14.25
629.245	15.25
630.006	16.25
630.768	14.25
631.529	14.25
632.29	14.25
633.051	12.25
633.812	14.25
634.573	11.25
635.333	13.25
636.094	11.25
636.855	11.25
637.615	8.25
638.376	10.25
639.136	13.25
639.896	12.25
640.657	11.25
641.417	10.25
642.177	10.25
642.937	11.25
643.697	8.25
644.457	11.25
645.216	8.25
645.976	9.25
646.736	9.25
647.495	9.25
648.255	9.25
649.014	6.25
649.774	8.25
650.533	9.25
651.292	7.25
652.051	6.25
652.81	8.25
653.569	7.25
654.328	6.25
655.087	6.25
655.846	6.25
656.604	5.25
657.363	5.25
658.121	7.25
658.88	7.25
659.638	4.25
660.397	4.25
661.155	8.25
661.913	5.25
662.671	6.25
663.429	5.25
664.187	7.25
664.945	4.25
665.703	7.25
666.46	4.25
667.218	5.25
667.976	5.25
668.733	5.25
669.49	4.25
670.248	5.25
671.005	8.25
671.762	6.25
672.519	5.25
673.276	4.25
674.033	3.25
674.79	4.25
675.547	3.25
676.304	4.25
677.06	5.25
677.817	2.25
678.574	7.25
679.33	5.25
680.086	4.25
680.843	2.25
681.599	5.25
682.355	5.25
683.111	2.25
683.867	3.25
684.623	3.25
685.379	2.25
686.135	5.25
686.89	4.25
687.646	5.25
688.402	4.25
689.157	5.25
689.912	3.25
690.668	4.25
691.423	3.25
692.178	3.25
692.933	6.25
693.688	3.25
694.443	5.25
695.198	4.25
695.953	4.25
696.708	4.25
697.462	5.25
698.217	5.25
698.972	3.25
699.726	6.25
700.48	6.25
701.235	4.25
701.989	4.25
702.743	5.25
703.497	5.25
704.251	4.25
705.005	5.25
705.759	4.25
706.513	5.25
707.266	3.25
708.02	3.25
708.774	2.25
709.527	3.25
710.28	5.25
711.034	4.25
711.787	5.25
712.54	4.25
713.293	4.25
714.046	5.25
714.799	4.25
715.552	3.25
716.305	4.25
717.058	3.25
717.81	4.25
718.563	3.25
719.315	5.25
720.068	3.25
720.82	5.25
721.573	7.25
722.325	1.25
723.077	6.25
723.829	6.25
724.581	7.25
725.333	4.25
726.085	2.25
726.836	4.25
727.588	5.25
728.34	6.25
729.091	3.25
729.843	3.25
730.594	5.25
731.346	3.25
732.097	5.25
732.848	5.25
733.599	4.25
734.35	2.25
735.101	3.25
735.852	4.25
736.603	4.25
737.354	2.25
738.104	4.25
738.855	4.25
739.605	1.25
740.356	5.25
741.106	4.25
741.856	2.25
742.607	2.25
743.357	6.25
744.107	2.25
744.857	6.25
745.607	3.25
746.357	4.25
747.106	5.25
747.856	7.25
748.606	4.25
749.355	5.25
750.105	5.25
750.854	3.25
751.603	7.25
752.353	3.25
753.102	4.25
753.851	6.25
754.6	5.25
755.349	7.25
756.098	7.25
756.847	5.25
757.595	5.25
758.344	6.25
759.093	7.25
759.841	5.25
760.589	5.25
761.338	4.25
762.086	7.25
762.834	5.25
763.582	6.25
764.331	6.25
765.079	7.25
765.826	6.25
766.574	7.25
767.322	10.25
768.07	8.25
768.817	7.25
769.565	6.25
770.312	9.25
771.06	8.25
771.807	6.25
772.554	9.25
773.302	6.25
774.049	9.25
774.796	10.25
775.543	6.25
776.29	10.25
777.036	7.25
777.783	9.25
778.53	7.25
779.276	10.25
780.023	8.25
780.769	7.25
781.516	9.25
782.262	8.25
783.008	10.25
783.754	10.25
784.5	7.25
785.246	8.25
785.992	7.25
786.738	8.25
787.484	8.25
788.23	9.25
788.975	12.25
789.721	10.25
790.466	8.25
791.212	6.25
791.957	9.25
792.702	8.25
793.447	7.25
794.193	9.25
794.938	7.25
795.683	8.25
796.427	9.25
797.172	8.25
797.917	8.25
798.662	7.25
799.406	7.25
800.151	7.25
800.895	7.25
801.64	8.25
802.384	8.25
803.128	7.25
803.872	7.25
804.616	8.25
805.36	7.25
806.104	6.25
806.848	7.25
807.592	7.25
808.336	8.25
809.079	6.25
809.823	6.25
810.566	5.25
811.31	7.25
812.053	6.25
812.796	3.25
813.539	6.25
814.283	7.25
815.026	6.25
815.769	5.25
816.511	5.25
817.254	4.25
817.997	4.25
818.74	5.25
819.482	7.25
820.225	5.25
820.967	4.25
821.71	4.25
822.452	4.25
823.194	5.25
823.936	5.25
824.678	3.25
825.42	6.25
826.162	6.25
826.904	5.25
827.646	3.25
828.388	5.25
829.129	4.25
829.871	3.25
830.612	2.25
831.354	4.25
832.095	1.25
832.836	3.25
833.577	3.25
834.319	4.25
835.06	4.25
835.801	4.25
836.542	4.25
837.282	3.25
838.023	5.25
838.764	2.25
839.504	2.25
840.245	1.25
840.985	3.25
841.726	4.25
842.466	3.25
843.206	4.25
843.946	4.25
844.687	3.25
845.427	4.25
846.166	3.25
846.906	5.25
847.646	5.25
848.386	3.25
849.125	3.25
849.865	3.25
850.605	2.25
851.344	1.25
852.083	3.25
852.823	2.25
853.562	2.25
854.301	2.25
855.04	2.25
855.779	1.25
856.518	3.25
857.257	5.25
857.995	3.25
858.734	3.25
859.473	4.25
860.211	4.25
860.95	3.25
861.688	4.25
862.426	2.25
863.165	1.25
863.903	3.25
864.641	2.25
865.379	0.25
866.117	3.25
866.855	0.25
867.593	1.25
868.33	2.25
869.068	2.25
869.806	1.25
870.543	-1.75
871.28	1.25
872.018	3.25
872.755	1.25
873.492	1.25
874.229	3.25
874.967	2.25
875.703	1.25
876.44	2.25
877.177	4.25
877.914	1.25
878.651	0.25
879.387	1.25
880.124	1.25
880.86	1.25
881.597	1.25
882.333	1.25
883.069	2.25
883.806	2.25
884.542	1.25
885.278	0.25
886.014	1.25
886.749	0.25
887.485	0.25
888.221	0.25
888.957	1.25
889.692	1.25
890.428	2.25
891.163	0.25
891.899	2.25
892.634	0.25
893.369	1.25
894.104	0.25
894.839	1.25
895.574	2.25
896.309	1.25
897.044	0.25
897.779	0.25
898.514	2.25
899.248	-0.75
899.983	0.25
900.717	2.25
901.452	1.25
902.186	1.25
902.92	0.25
903.654	1.25
904.389	3.25
905.123	-0.75
905.857	1.25
906.59	3.25
907.324	2.25
908.058	1.25
908.792	0.25
909.525	2.25
910.259	-0.75
910.992	2.25
911.726	-0.75
912.459	-0.75
913.192	2.25
913.925	-0.75
914.658	1.25
915.391	2.25
916.124	1.25
916.857	0.25
917.59	-0.75
918.323	1.25
919.055	1.25
919.788	1.25
920.521	0.25
921.253	2.25
921.985	0.25
922.718	-1.75
923.45	3.25
924.182	0.25
924.914	0.25
925.646	2.25
926.378	0.25
927.11	-1.75
927.841	2.25
928.573	2.25
929.305	0.25
930.036	2.25
930.768	1.25
931.499	0.25
932.23	1.25
932.962	-0.75
933.693	3.25
934.424	0.25
935.155	0.25
935.886	-0.75
936.617	1.25
937.348	1.25
938.078	0.25
938.809	-0.75
939.54	2.25
940.27	-0.75
941.001	-0.75
941.731	0.25
942.461	1.25
943.191	-0.75
943.922	1.25
944.652	1.25
945.382	0.25
946.112	1.25
946.841	-1.75
947.571	1.25
948.301	0.25
949.031	2.25
949.76	-0.75
950.49	0.25
951.219	-0.75
951.948	0.25
952.678	1.25
953.407	2.25
954.136	0.25
954.865	2.25
955.594	-0.75
956.323	0.25
957.052	2.25
957.78	2.25
958.509	-0.75
959.238	0.25
959.966	0.25
960.695	1.25
961.423	-0.75
962.151	-1.75
962.88	-0.75
963.608	1.25
964.336	-0.75
965.064	1.25
965.792	2.25
966.52	1.25
967.247	-0.75
967.975	0.25
968.703	-0.75
969.43	2.25
970.158	-0.75
970.885	0.25
971.613	-0.75
972.34	-0.75
973.067	0.25
973.794	1.25
974.521	0.25
975.248	1.25
975.975	0.25
976.702	0.25
977.429	1.25
978.156	2.25
978.882	1.25
979.609	-0.75
980.335	2.25
981.062	1.25
981.788	1.25
982.514	-0.75
983.24	-1.75
983.967	0.25
984.693	0.25
985.419	1.25
986.144	0.25
986.87	0.25
987.596	1.25
988.322	1.25
989.047	2.25
989.773	-0.75
990.498	1.25
991.224	2.25
991.949	-0.75
992.674	0.25
993.399	-2.75
994.124	0.25
994.849	0.25
995.574	1.25
996.299	1.25
997.024	-0.75
997.749	2.25
998.473	0.25
999.198	3.25
999.922	-1.75
1000.647	0.25
1001.371	3.25
1002.095	-0.75
1002.82	-1.75
1003.544	-1.75
1004.268	0.25
1004.992	1.25
1005.716	1.25
1006.439	2.25
1007.163	0.25
1007.887	1.25
1008.611	0.25
1009.334	1.25
1010.058	2.25
1010.781	0.25
1011.504	0.25
1012.228	1.25
1012.951	-0.75
1013.674	0.25
1014.397	0.25
1015.12	1.25
