节点500_285_QEPB04081__614__15-05-46-104.txt的数据

Date: Wed Nov 12 15:05:46 CST 2025
User: PC
Spectrometer: QEPB0408
触发模式: 0
积分时间 (秒): 1.000000E-2
Scans to average: 1
启用暗噪声校正: true
启用非线性校正: false
滑动平均宽度: 0
X轴模式: Wavelengths
Number of Pixels in Spectrum: 1044
>>>>>Begin Spectral Data<<<<<
220.843	1.38
221.644	2.38
222.444	1.38
223.244	2.38
224.045	1.38
224.845	3.38
225.645	1.38
226.445	3.38
227.245	0.38
228.045	4.38
228.845	4.38
229.645	3.38
230.444	1.38
231.244	5.38
232.043	5.38
232.843	4.38
233.642	2.38
234.442	1.38
235.241	5.38
236.04	5.38
236.839	1.38
237.638	3.38
238.437	5.38
239.236	7.38
240.035	4.38
240.833	3.38
241.632	3.38
242.43	7.38
243.229	7.38
244.027	6.38
244.826	5.38
245.624	4.38
246.422	6.38
247.22	7.38
248.018	8.38
248.816	6.38
249.614	3.38
250.412	3.38
251.21	6.38
252.007	7.38
252.805	6.38
253.602	6.38
254.4	6.38
255.197	6.38
255.994	8.38
256.791	5.38
257.589	8.38
258.386	6.38
259.183	9.38
259.979	8.38
260.776	10.38
261.573	10.38
262.37	8.38
263.166	11.38
263.963	10.38
264.759	14.38
265.556	10.38
266.352	13.38
267.148	13.38
267.944	13.38
268.74	14.38
269.536	15.38
270.332	12.38
271.128	14.38
271.924	13.38
272.719	19.38
273.515	17.38
274.311	14.38
275.106	21.38
275.901	14.38
276.697	17.38
277.492	17.38
278.287	17.38
279.082	16.38
279.877	17.38
280.672	15.38
281.467	19.38
282.262	18.38
283.056	14.38
283.851	21.38
284.646	16.38
285.44	19.38
286.234	17.38
287.029	16.38
287.823	20.38
288.617	19.38
289.411	18.38
290.205	16.38
290.999	14.38
291.793	16.38
292.587	15.38
293.381	18.38
294.174	16.38
294.968	14.38
295.761	16.38
296.555	14.38
297.348	14.38
298.141	15.38
298.935	17.38
299.728	14.38
300.521	12.38
301.314	12.38
302.107	16.38
302.899	13.38
303.692	13.38
304.485	12.38
305.277	13.38
306.07	13.38
306.862	13.38
307.655	10.38
308.447	13.38
309.239	13.38
310.031	11.38
310.823	10.38
311.615	10.38
312.407	12.38
313.199	11.38
313.991	9.38
314.783	9.38
315.574	10.38
316.366	8.38
317.157	10.38
317.949	10.38
318.74	6.38
319.531	6.38
320.322	7.38
321.113	5.38
321.904	11.38
322.695	9.38
323.486	7.38
324.277	9.38
325.068	7.38
325.858	7.38
326.649	6.38
327.439	7.38
328.23	7.38
329.02	6.38
329.81	6.38
330.6	4.38
331.391	7.38
332.181	6.38
332.971	8.38
333.76	7.38
334.55	7.38
335.34	6.38
336.13	7.38
336.919	8.38
337.709	7.38
338.498	5.38
339.287	7.38
340.077	7.38
340.866	8.38
341.655	6.38
342.444	7.38
343.233	5.38
344.022	5.38
344.811	6.38
345.6	6.38
346.388	6.38
347.177	6.38
347.965	8.38
348.754	6.38
349.542	7.38
350.33	7.38
351.119	4.38
351.907	7.38
352.695	3.38
353.483	3.38
354.271	9.38
355.059	5.38
355.846	7.38
356.634	5.38
357.422	7.38
358.209	5.38
358.997	6.38
359.784	7.38
360.571	5.38
361.359	5.38
362.146	6.38
362.933	3.38
363.72	6.38
364.507	6.38
365.294	7.38
366.081	5.38
366.867	5.38
367.654	3.38
368.44	5.38
369.227	4.38
370.013	6.38
370.8	8.38
371.586	6.38
372.372	5.38
373.158	7.38
373.944	6.38
374.73	5.38
375.516	5.38
376.302	7.38
377.088	4.38
377.873	4.38
378.659	5.38
379.445	4.38
380.23	7.38
381.015	4.38
381.801	6.38
382.586	4.38
383.371	6.38
384.156	4.38
384.941	6.38
385.726	5.38
386.511	5.38
387.296	3.38
388.08	7.38
388.865	6.38
389.649	7.38
390.434	5.38
391.218	5.38
392.003	4.38
392.787	7.38
393.571	5.38
394.355	5.38
395.139	6.38
395.923	8.38
396.707	4.38
397.491	8.38
398.274	6.38
399.058	6.38
399.842	6.38
400.625	7.38
401.408	6.38
402.192	7.38
402.975	7.38
403.758	9.38
404.541	8.38
405.324	6.38
406.107	6.38
406.89	8.38
407.673	8.38
408.456	8.38
409.238	7.38
410.021	10.38
410.803	9.38
411.586	8.38
412.368	6.38
413.151	8.38
413.933	8.38
414.715	9.38
415.497	7.38
416.279	8.38
417.061	9.38
417.843	10.38
418.624	9.38
419.406	10.38
420.188	10.38
420.969	11.38
421.751	11.38
422.532	10.38
423.313	12.38
424.095	14.38
424.876	11.38
425.657	10.38
426.438	13.38
427.219	9.38
428	14.38
428.78	13.38
429.561	13.38
430.342	13.38
431.122	15.38
431.903	14.38
432.683	15.38
433.464	18.38
434.244	15.38
435.024	14.38
435.804	18.38
436.584	17.38
437.364	18.38
438.144	19.38
438.924	19.38
439.704	20.38
440.483	21.38
441.263	27.38
442.042	23.38
442.822	28.38
443.601	26.38
444.38	33.38
445.16	30.38
445.939	36.38
446.718	38.38
447.497	39.38
448.276	42.38
449.054	48.38
449.833	50.38
450.612	55.38
451.391	61.38
452.169	65.38
452.948	70.38
453.726	80.38
454.504	87.38
455.282	95.38
456.061	105.38
456.839	118.38
457.617	128.38
458.395	144.38
459.172	162.38
459.95	180.38
460.728	201.38
461.506	222.38
462.283	245.38
463.061	279.38
463.838	316.38
464.615	349.38
465.393	388.38
466.17	431.38
466.947	476.38
467.724	529.38
468.501	592.38
469.278	656.38
470.055	720.38
470.831	786.38
471.608	889.38
472.385	969.38
473.161	1103.38
473.938	1188.38
474.714	1309.38
475.49	1446.38
476.266	1615.38
477.043	1762.38
477.819	1938.38
478.595	2134.38
479.371	2333.38
480.146	2579.38
480.922	2818.38
481.698	3110.38
482.473	3396.38
483.249	3723.38
484.024	4102.38
484.8	4460.38
485.575	4884.38
486.35	5334.38
487.126	5796.38
487.901	6349.38
488.676	6970.38
489.451	7572.38
490.225	8242.38
491	8979.38
491.775	9791.38
492.55	10611.38
493.324	11502.38
494.099	12336.38
494.873	13317.38
495.647	14249.38
496.422	15319.38
497.196	16363.38
497.97	17485.38
498.744	18616.38
499.518	19689.38
500.292	20809.38
501.066	21849.38
501.839	22741.38
502.613	23675.38
503.387	24493.38
504.16	25170.38
504.934	25596.38
505.707	25938.38
506.48	26093.38
507.253	26150.38
508.027	26006.38
508.8	25938.38
509.573	25682.38
510.346	25200.38
511.118	24546.38
511.891	23978.38
512.664	23156.38
513.437	22420.38
514.209	21610.38
514.982	20838.38
515.754	19933.38
516.526	19075.38
517.298	18287.38
518.071	17452.38
518.843	16814.38
519.615	16213.38
520.387	15555.38
521.159	14941.38
521.93	14351.38
522.702	13836.38
523.474	13221.38
524.245	12612.38
525.017	12121.38
525.788	11642.38
526.56	11133.38
527.331	10615.38
528.102	10187.38
528.873	9701.38
529.644	9257.38
530.415	8865.38
531.186	8414.38
531.957	7975.38
532.728	7578.38
533.498	7218.38
534.269	6827.38
535.039	6467.38
535.81	6096.38
536.58	5748.38
537.351	5445.38
538.121	5110.38
538.891	4852.38
539.661	4606.38
540.431	4353.38
541.201	4104.38
541.971	3887.38
542.741	3672.38
543.51	3491.38
544.28	3348.38
545.05	3174.38
545.819	3031.38
546.588	2865.38
547.358	2731.38
548.127	2598.38
548.896	2458.38
549.665	2335.38
550.434	2213.38
551.203	2095.38
551.972	2000.38
552.741	1872.38
553.51	1790.38
554.278	1695.38
555.047	1588.38
555.815	1494.38
556.584	1428.38
557.352	1329.38
558.121	1261.38
558.889	1203.38
559.657	1139.38
560.425	1077.38
561.193	1003.38
561.961	947.38
562.729	896.38
563.496	843.38
564.264	800.38
565.032	755.38
565.799	718.38
566.567	676.38
567.334	634.38
568.101	609.38
568.869	577.38
569.636	534.38
570.403	505.38
571.17	477.38
571.937	446.38
572.704	431.38
573.471	399.38
574.237	383.38
575.004	353.38
575.771	341.38
576.537	318.38
577.303	292.38
578.07	282.38
578.836	262.38
579.602	247.38
580.368	231.38
581.134	224.38
581.9	212.38
582.666	203.38
583.432	192.38
584.198	182.38
584.964	171.38
585.729	169.38
586.495	155.38
587.26	147.38
588.025	142.38
588.791	128.38
589.556	129.38
590.321	122.38
591.086	109.38
591.851	106.38
592.616	97.38
593.381	102.38
594.146	92.38
594.911	90.38
595.675	82.38
596.44	75.38
597.204	78.38
597.969	74.38
598.733	69.38
599.497	65.38
600.261	63.38
601.025	61.38
601.79	54.38
602.553	52.38
603.317	52.38
604.081	50.38
604.845	49.38
605.609	46.38
606.372	47.38
607.136	41.38
607.899	42.38
608.662	37.38
609.426	37.38
610.189	38.38
610.952	35.38
611.715	31.38
612.478	32.38
613.241	30.38
614.004	30.38
614.767	30.38
615.529	27.38
616.292	25.38
617.055	28.38
617.817	22.38
618.579	23.38
619.342	24.38
620.104	21.38
620.866	23.38
621.628	21.38
622.39	20.38
623.152	21.38
623.914	19.38
624.676	20.38
625.438	16.38
626.199	19.38
626.961	15.38
627.722	21.38
628.484	14.38
629.245	14.38
630.006	14.38
630.768	13.38
631.529	13.38
632.29	12.38
633.051	12.38
633.812	15.38
634.573	13.38
635.333	10.38
636.094	11.38
636.855	10.38
637.615	10.38
638.376	11.38
639.136	8.38
639.896	9.38
640.657	13.38
641.417	7.38
642.177	10.38
642.937	9.38
643.697	8.38
644.457	8.38
645.216	5.38
645.976	10.38
646.736	9.38
647.495	9.38
648.255	6.38
649.014	7.38
649.774	7.38
650.533	11.38
651.292	6.38
652.051	8.38
652.81	5.38
653.569	5.38
654.328	7.38
655.087	7.38
655.846	2.38
656.604	9.38
657.363	7.38
658.121	5.38
658.88	6.38
659.638	6.38
660.397	4.38
661.155	7.38
661.913	9.38
662.671	7.38
663.429	5.38
664.187	5.38
664.945	3.38
665.703	5.38
666.46	4.38
667.218	6.38
667.976	5.38
668.733	5.38
669.49	3.38
670.248	4.38
671.005	8.38
671.762	3.38
672.519	4.38
673.276	6.38
674.033	5.38
674.79	5.38
675.547	2.38
676.304	5.38
677.06	2.38
677.817	4.38
678.574	3.38
679.33	5.38
680.086	5.38
680.843	4.38
681.599	4.38
682.355	6.38
683.111	4.38
683.867	2.38
684.623	3.38
685.379	4.38
686.135	4.38
686.89	3.38
687.646	1.38
688.402	3.38
689.157	3.38
689.912	4.38
690.668	2.38
691.423	5.38
692.178	6.38
692.933	2.38
693.688	4.38
694.443	4.38
695.198	1.38
695.953	4.38
696.708	6.38
697.462	4.38
698.217	5.38
698.972	4.38
699.726	6.38
700.48	4.38
701.235	5.38
701.989	4.38
702.743	5.38
703.497	3.38
704.251	1.38
705.005	3.38
705.759	5.38
706.513	4.38
707.266	5.38
708.02	1.38
708.774	5.38
709.527	3.38
710.28	4.38
711.034	2.38
711.787	3.38
712.54	5.38
713.293	2.38
714.046	5.38
714.799	4.38
715.552	5.38
716.305	2.38
717.058	3.38
717.81	3.38
718.563	2.38
719.315	5.38
720.068	3.38
720.82	3.38
721.573	5.38
722.325	2.38
723.077	3.38
723.829	4.38
724.581	2.38
725.333	2.38
726.085	4.38
726.836	4.38
727.588	3.38
728.34	3.38
729.091	2.38
729.843	5.38
730.594	3.38
731.346	5.38
732.097	4.38
732.848	2.38
733.599	8.38
734.35	4.38
735.101	6.38
735.852	4.38
736.603	3.38
737.354	2.38
738.104	5.38
738.855	3.38
739.605	1.38
740.356	6.38
741.106	3.38
741.856	3.38
742.607	5.38
743.357	5.38
744.107	7.38
744.857	4.38
745.607	5.38
746.357	3.38
747.106	2.38
747.856	6.38
748.606	5.38
749.355	7.38
750.105	5.38
750.854	6.38
751.603	7.38
752.353	4.38
753.102	7.38
753.851	4.38
754.6	5.38
755.349	3.38
756.098	4.38
756.847	7.38
757.595	6.38
758.344	6.38
759.093	3.38
759.841	6.38
760.589	6.38
761.338	6.38
762.086	7.38
762.834	6.38
763.582	6.38
764.331	4.38
765.079	6.38
765.826	6.38
766.574	6.38
767.322	6.38
768.07	7.38
768.817	8.38
769.565	10.38
770.312	6.38
771.06	5.38
771.807	5.38
772.554	9.38
773.302	5.38
774.049	10.38
774.796	9.38
775.543	6.38
776.29	8.38
777.036	9.38
777.783	8.38
778.53	7.38
779.276	9.38
780.023	8.38
780.769	7.38
781.516	9.38
782.262	8.38
783.008	8.38
783.754	6.38
784.5	8.38
785.246	8.38
785.992	9.38
786.738	7.38
787.484	7.38
788.23	10.38
788.975	8.38
789.721	7.38
790.466	10.38
791.212	10.38
791.957	8.38
792.702	6.38
793.447	8.38
794.193	7.38
794.938	7.38
795.683	5.38
796.427	8.38
797.172	10.38
797.917	7.38
798.662	5.38
799.406	9.38
800.151	9.38
800.895	9.38
801.64	6.38
802.384	8.38
803.128	7.38
803.872	9.38
804.616	7.38
805.36	7.38
806.104	8.38
806.848	7.38
807.592	6.38
808.336	6.38
809.079	7.38
809.823	8.38
810.566	5.38
811.31	6.38
812.053	3.38
812.796	5.38
813.539	4.38
814.283	4.38
815.026	6.38
815.769	3.38
816.511	4.38
817.254	6.38
817.997	6.38
818.74	4.38
819.482	6.38
820.225	4.38
820.967	3.38
821.71	5.38
822.452	4.38
823.194	4.38
823.936	4.38
824.678	4.38
825.42	5.38
826.162	6.38
826.904	4.38
827.646	3.38
828.388	4.38
829.129	4.38
829.871	3.38
830.612	4.38
831.354	4.38
832.095	5.38
832.836	4.38
833.577	2.38
834.319	2.38
835.06	3.38
835.801	4.38
836.542	3.38
837.282	5.38
838.023	5.38
838.764	4.38
839.504	4.38
840.245	2.38
840.985	4.38
841.726	4.38
842.466	2.38
843.206	4.38
843.946	4.38
844.687	4.38
845.427	2.38
846.166	4.38
846.906	4.38
847.646	5.38
848.386	6.38
849.125	4.38
849.865	2.38
850.605	2.38
851.344	3.38
852.083	3.38
852.823	5.38
853.562	2.38
854.301	1.38
855.04	2.38
855.779	4.38
856.518	4.38
857.257	3.38
857.995	5.38
858.734	4.38
859.473	2.38
860.211	2.38
860.95	1.38
861.688	4.38
862.426	4.38
863.165	2.38
863.903	4.38
864.641	3.38
865.379	3.38
866.117	2.38
866.855	1.38
867.593	2.38
868.33	2.38
869.068	2.38
869.806	3.38
870.543	1.38
871.28	0.38
872.018	0.38
872.755	3.38
873.492	1.38
874.229	2.38
874.967	0.38
875.703	1.38
876.44	0.38
877.177	1.38
877.914	2.38
878.651	1.38
879.387	3.38
880.124	2.38
880.86	0.38
881.597	4.38
882.333	1.38
883.069	1.38
883.806	2.38
884.542	2.38
885.278	1.38
886.014	4.38
886.749	1.38
887.485	1.38
888.221	2.38
888.957	2.38
889.692	4.38
890.428	1.38
891.163	-1.62
891.899	0.38
892.634	0.38
893.369	2.38
894.104	-0.62
894.839	2.38
895.574	0.38
896.309	0.38
897.044	0.38
897.779	1.38
898.514	2.38
899.248	3.38
899.983	1.38
900.717	0.38
901.452	1.38
902.186	2.38
902.92	1.38
903.654	-0.62
904.389	1.38
905.123	1.38
905.857	0.38
906.59	0.38
907.324	1.38
908.058	-0.62
908.792	1.38
909.525	2.38
910.259	2.38
910.992	1.38
911.726	0.38
912.459	2.38
913.192	0.38
913.925	2.38
914.658	0.38
915.391	0.38
916.124	2.38
916.857	-2.62
917.59	-0.62
918.323	0.38
919.055	-0.62
919.788	0.38
920.521	0.38
921.253	0.38
921.985	-0.62
922.718	0.38
923.45	1.38
924.182	1.38
924.914	1.38
925.646	-0.62
926.378	0.38
927.11	0.38
927.841	1.38
928.573	1.38
929.305	-0.62
930.036	-0.62
930.768	1.38
931.499	0.38
932.23	1.38
932.962	-1.62
933.693	1.38
934.424	-0.62
935.155	2.38
935.886	-1.62
936.617	1.38
937.348	0.38
938.078	1.38
938.809	2.38
939.54	0.38
940.27	0.38
941.001	0.38
941.731	0.38
942.461	0.38
943.191	0.38
943.922	0.38
944.652	0.38
945.382	1.38
946.112	2.38
946.841	1.38
947.571	1.38
948.301	-0.62
949.031	-0.62
949.76	-1.62
950.49	1.38
951.219	1.38
951.948	-0.62
952.678	1.38
953.407	-0.62
954.136	2.38
954.865	2.38
955.594	-0.62
956.323	1.38
957.052	0.38
957.78	-0.62
958.509	0.38
959.238	2.38
959.966	-1.62
960.695	0.38
961.423	0.38
962.151	0.38
962.88	-0.62
963.608	1.38
964.336	-0.62
965.064	1.38
965.792	0.38
966.52	0.38
967.247	-0.62
967.975	-0.62
968.703	2.38
969.43	1.38
970.158	0.38
970.885	0.38
971.613	2.38
972.34	0.38
973.067	1.38
973.794	0.38
974.521	1.38
975.248	1.38
975.975	1.38
976.702	1.38
977.429	0.38
978.156	-0.62
978.882	-0.62
979.609	-1.62
980.335	0.38
981.062	-0.62
981.788	1.38
982.514	-1.62
983.24	-0.62
983.967	3.38
984.693	0.38
985.419	3.38
986.144	2.38
986.87	1.38
987.596	0.38
988.322	-2.62
989.047	2.38
989.773	1.38
990.498	0.38
991.224	0.38
991.949	2.38
992.674	0.38
993.399	2.38
994.124	1.38
994.849	0.38
995.574	-0.62
996.299	0.38
997.024	0.38
997.749	1.38
998.473	2.38
999.198	-0.62
999.922	2.38
1000.647	2.38
1001.371	2.38
1002.095	0.38
1002.82	-1.62
1003.544	-0.62
1004.268	0.38
1004.992	1.38
1005.716	0.38
1006.439	3.38
1007.163	3.38
1007.887	2.38
1008.611	0.38
1009.334	0.38
1010.058	1.38
1010.781	0.38
1011.504	3.38
1012.228	-0.62
1012.951	0.38
1013.674	-1.62
1014.397	0.38
1015.12	0.38
