节点500_285_QEPB04081__254__14-59-46-880.txt的数据

Date: Wed Nov 12 14:59:46 CST 2025
User: PC
Spectrometer: QEPB0408
触发模式: 0
积分时间 (秒): 1.000000E-2
Scans to average: 1
启用暗噪声校正: true
启用非线性校正: false
滑动平均宽度: 0
X轴模式: Wavelengths
Number of Pixels in Spectrum: 1044
>>>>>Begin Spectral Data<<<<<
220.843	3
221.644	1
222.444	3
223.244	1
224.045	3
224.845	4
225.645	2
226.445	1
227.245	2
228.045	3
228.845	4
229.645	4
230.444	3
231.244	5
232.043	2
232.843	4
233.642	4
234.442	5
235.241	4
236.04	3
236.839	6
237.638	3
238.437	5
239.236	5
240.035	4
240.833	5
241.632	6
242.43	6
243.229	5
244.027	5
244.826	6
245.624	3
246.422	7
247.22	6
248.018	6
248.816	8
249.614	9
250.412	7
251.21	6
252.007	6
252.805	7
253.602	7
254.4	9
255.197	8
255.994	10
256.791	8
257.589	9
258.386	12
259.183	9
259.979	11
260.776	13
261.573	10
262.37	10
263.166	9
263.963	13
264.759	9
265.556	14
266.352	12
267.148	16
267.944	14
268.74	16
269.536	15
270.332	15
271.128	16
271.924	15
272.719	15
273.515	15
274.311	17
275.106	18
275.901	16
276.697	17
277.492	18
278.287	18
279.082	18
279.877	15
280.672	17
281.467	19
282.262	16
283.056	21
283.851	21
284.646	20
285.44	20
286.234	20
287.029	21
287.823	20
288.617	19
289.411	15
290.205	20
290.999	20
291.793	22
292.587	16
293.381	18
294.174	17
294.968	14
295.761	19
296.555	17
297.348	13
298.141	14
298.935	15
299.728	14
300.521	16
301.314	16
302.107	15
302.899	11
303.692	16
304.485	13
305.277	15
306.07	13
306.862	10
307.655	13
308.447	10
309.239	12
310.031	11
310.823	10
311.615	10
312.407	10
313.199	11
313.991	8
314.783	9
315.574	9
316.366	9
317.157	10
317.949	11
318.74	7
319.531	10
320.322	8
321.113	8
321.904	8
322.695	9
323.486	4
324.277	9
325.068	7
325.858	5
326.649	7
327.439	6
328.23	6
329.02	7
329.81	5
330.6	7
331.391	9
332.181	7
332.971	7
333.76	8
334.55	8
335.34	8
336.13	7
336.919	7
337.709	8
338.498	8
339.287	6
340.077	7
340.866	7
341.655	7
342.444	6
343.233	7
344.022	9
344.811	8
345.6	8
346.388	6
347.177	8
347.965	7
348.754	7
349.542	9
350.33	8
351.119	8
351.907	5
352.695	8
353.483	5
354.271	7
355.059	7
355.846	5
356.634	6
357.422	6
358.209	5
358.997	5
359.784	7
360.571	6
361.359	4
362.146	7
362.933	6
363.72	7
364.507	3
365.294	6
366.081	7
366.867	6
367.654	6
368.44	7
369.227	7
370.013	6
370.8	5
371.586	8
372.372	3
373.158	7
373.944	5
374.73	7
375.516	5
376.302	6
377.088	5
377.873	6
378.659	6
379.445	6
380.23	7
381.015	6
381.801	7
382.586	7
383.371	6
384.156	6
384.941	5
385.726	7
386.511	8
387.296	6
388.08	6
388.865	6
389.649	6
390.434	6
391.218	3
392.003	6
392.787	8
393.571	6
394.355	6
395.139	6
395.923	7
396.707	9
397.491	6
398.274	7
399.058	7
399.842	8
400.625	6
401.408	10
402.192	7
402.975	7
403.758	7
404.541	7
405.324	9
406.107	6
406.89	10
407.673	7
408.456	8
409.238	9
410.021	10
410.803	10
411.586	9
412.368	11
413.151	8
413.933	8
414.715	10
415.497	6
416.279	10
417.061	11
417.843	10
418.624	10
419.406	10
420.188	9
420.969	9
421.751	14
422.532	10
423.313	11
424.095	12
424.876	10
425.657	11
426.438	14
427.219	10
428	12
428.78	13
429.561	16
430.342	14
431.122	13
431.903	14
432.683	15
433.464	17
434.244	15
435.024	16
435.804	16
436.584	21
437.364	19
438.144	20
438.924	22
439.704	20
440.483	26
441.263	23
442.042	29
442.822	27
443.601	30
444.38	30
445.16	30
445.939	33
446.718	35
447.497	40
448.276	41
449.054	44
449.833	50
450.612	49
451.391	58
452.169	62
452.948	68
453.726	74
454.504	81
455.282	90
456.061	97
456.839	104
457.617	123
458.395	130
459.172	148
459.95	164
460.728	187
461.506	204
462.283	226
463.061	258
463.838	293
464.615	317
465.393	345
466.17	389
466.947	441
467.724	490
468.501	553
469.278	606
470.055	681
470.831	760
471.608	843
472.385	942
473.161	1034
473.938	1164
474.714	1283
475.49	1426
476.266	1569
477.043	1744
477.819	1913
478.595	2123
479.371	2336
480.146	2601
480.922	2857
481.698	3160
482.473	3462
483.249	3858
484.024	4232
484.8	4672
485.575	5151
486.35	5627
487.126	6213
487.901	6824
488.676	7465
489.451	8204
490.225	8963
491	9834
491.775	10780
492.55	11728
493.324	12662
494.099	13640
494.873	14758
495.647	15929
496.422	17098
497.196	18276
497.97	19528
498.744	20735
499.518	21908
500.292	23040
501.066	24164
501.839	25114
502.613	25958
503.387	26780
504.16	27340
504.934	27680
505.707	27812
506.48	27820
507.253	27728
508.027	27429
508.8	27015
509.573	26570
510.346	25878
511.118	25062
511.891	24225
512.664	23399
513.437	22477
514.209	21500
514.982	20600
515.754	19668
516.526	18802
517.298	17992
518.071	17182
518.843	16539
519.615	15879
520.387	15282
521.159	14637
521.93	14118
522.702	13446
523.474	12982
524.245	12416
525.017	11835
525.788	11374
526.56	10852
527.331	10340
528.102	9861
528.873	9442
529.644	8989
530.415	8523
531.186	8101
531.957	7649
532.728	7300
533.498	6903
534.269	6505
535.039	6126
535.81	5804
536.58	5469
537.351	5141
538.121	4861
538.891	4617
539.661	4385
540.431	4112
541.201	3908
541.971	3697
542.741	3514
543.51	3322
544.28	3161
545.05	2991
545.819	2867
546.588	2718
547.358	2567
548.127	2466
548.896	2334
549.665	2203
550.434	2098
551.203	1985
551.972	1872
552.741	1752
553.51	1686
554.278	1572
555.047	1488
555.815	1398
556.584	1334
557.352	1249
558.121	1184
558.889	1110
559.657	1045
560.425	984
561.193	940
561.961	887
562.729	847
563.496	797
564.264	754
565.032	705
565.799	677
566.567	629
567.334	595
568.101	570
568.869	543
569.636	498
570.403	466
571.17	442
571.937	419
572.704	395
573.471	371
574.237	353
575.004	337
575.771	312
576.537	293
577.303	278
578.07	264
578.836	247
579.602	234
580.368	215
581.134	210
581.9	199
582.666	187
583.432	172
584.198	167
584.964	156
585.729	150
586.495	143
587.26	141
588.025	134
588.791	119
589.556	116
590.321	109
591.086	105
591.851	101
592.616	91
593.381	94
594.146	86
594.911	84
595.675	77
596.44	74
597.204	71
597.969	75
598.733	63
599.497	59
600.261	61
601.025	57
601.79	54
602.553	52
603.317	51
604.081	44
604.845	48
605.609	43
606.372	42
607.136	42
607.899	40
608.662	39
609.426	35
610.189	36
610.952	36
611.715	30
612.478	32
613.241	29
614.004	27
614.767	26
615.529	27
616.292	25
617.055	26
617.817	23
618.579	22
619.342	20
620.104	24
620.866	22
621.628	20
622.39	20
623.152	21
623.914	18
624.676	18
625.438	16
626.199	14
626.961	18
627.722	13
628.484	16
629.245	15
630.006	16
630.768	14
631.529	13
632.29	13
633.051	12
633.812	14
634.573	12
635.333	10
636.094	12
636.855	13
637.615	13
638.376	11
639.136	9
639.896	11
640.657	10
641.417	10
642.177	9
642.937	10
643.697	8
644.457	11
645.216	10
645.976	9
646.736	9
647.495	10
648.255	10
649.014	6
649.774	6
650.533	8
651.292	6
652.051	8
652.81	7
653.569	7
654.328	5
655.087	7
655.846	7
656.604	5
657.363	6
658.121	6
658.88	8
659.638	7
660.397	7
661.155	7
661.913	6
662.671	5
663.429	5
664.187	4
664.945	7
665.703	4
666.46	5
667.218	6
667.976	6
668.733	6
669.49	3
670.248	5
671.005	5
671.762	2
672.519	6
673.276	5
674.033	4
674.79	4
675.547	7
676.304	6
677.06	4
677.817	3
678.574	6
679.33	2
680.086	4
680.843	5
681.599	4
682.355	5
683.111	5
683.867	4
684.623	6
685.379	3
686.135	4
686.89	4
687.646	4
688.402	6
689.157	5
689.912	4
690.668	3
691.423	6
692.178	4
692.933	6
693.688	4
694.443	4
695.198	4
695.953	6
696.708	3
697.462	5
698.217	4
698.972	4
699.726	5
700.48	7
701.235	4
701.989	3
702.743	5
703.497	4
704.251	2
705.005	5
705.759	5
706.513	5
707.266	2
708.02	2
708.774	6
709.527	3
710.28	5
711.034	5
711.787	3
712.54	3
713.293	5
714.046	5
714.799	3
715.552	5
716.305	3
717.058	5
717.81	3
718.563	6
719.315	3
720.068	4
720.82	4
721.573	4
722.325	6
723.077	3
723.829	4
724.581	4
725.333	5
726.085	7
726.836	5
727.588	4
728.34	5
729.091	2
729.843	2
730.594	4
731.346	4
732.097	6
732.848	4
733.599	5
734.35	3
735.101	6
735.852	6
736.603	7
737.354	7
738.104	5
738.855	3
739.605	7
740.356	6
741.106	3
741.856	8
742.607	6
743.357	5
744.107	4
744.857	7
745.607	6
746.357	6
747.106	6
747.856	3
748.606	6
749.355	7
750.105	6
750.854	7
751.603	6
752.353	6
753.102	6
753.851	7
754.6	6
755.349	9
756.098	4
756.847	6
757.595	5
758.344	6
759.093	8
759.841	6
760.589	9
761.338	7
762.086	7
762.834	7
763.582	2
764.331	9
765.079	8
765.826	7
766.574	7
767.322	8
768.07	9
768.817	7
769.565	9
770.312	7
771.06	8
771.807	9
772.554	5
773.302	9
774.049	7
774.796	6
775.543	8
776.29	10
777.036	7
777.783	10
778.53	8
779.276	10
780.023	10
780.769	10
781.516	11
782.262	11
783.008	8
783.754	9
784.5	10
785.246	10
785.992	9
786.738	10
787.484	9
788.23	11
788.975	9
789.721	10
790.466	9
791.212	8
791.957	11
792.702	9
793.447	9
794.193	9
794.938	9
795.683	9
796.427	9
797.172	10
797.917	8
798.662	7
799.406	7
800.151	9
800.895	7
801.64	9
802.384	7
803.128	7
803.872	7
804.616	8
805.36	6
806.104	9
806.848	5
807.592	7
808.336	8
809.079	4
809.823	6
810.566	6
811.31	7
812.053	6
812.796	4
813.539	5
814.283	5
815.026	7
815.769	6
816.511	9
817.254	6
817.997	6
818.74	5
819.482	2
820.225	4
820.967	4
821.71	6
822.452	3
823.194	4
823.936	7
824.678	4
825.42	4
826.162	5
826.904	5
827.646	3
828.388	4
829.129	7
829.871	5
830.612	5
831.354	6
832.095	4
832.836	4
833.577	5
834.319	5
835.06	3
835.801	2
836.542	4
837.282	4
838.023	3
838.764	5
839.504	5
840.245	5
840.985	3
841.726	5
842.466	4
843.206	2
843.946	5
844.687	2
845.427	4
846.166	3
846.906	2
847.646	5
848.386	3
849.125	2
849.865	3
850.605	2
851.344	2
852.083	2
852.823	4
853.562	4
854.301	5
855.04	0
855.779	2
856.518	2
857.257	4
857.995	4
858.734	3
859.473	4
860.211	3
860.95	4
861.688	0
862.426	1
863.165	2
863.903	1
864.641	2
865.379	3
866.117	2
866.855	1
867.593	0
868.33	4
869.068	1
869.806	1
870.543	1
871.28	2
872.018	3
872.755	1
873.492	2
874.229	4
874.967	1
875.703	1
876.44	0
877.177	2
877.914	2
878.651	2
879.387	1
880.124	3
880.86	2
881.597	0
882.333	2
883.069	1
883.806	2
884.542	2
885.278	1
886.014	1
886.749	2
887.485	2
888.221	1
888.957	1
889.692	0
890.428	2
891.163	0
891.899	1
892.634	3
893.369	2
894.104	2
894.839	1
895.574	0
896.309	3
897.044	2
897.779	2
898.514	2
899.248	-1
899.983	4
900.717	1
901.452	2
902.186	1
902.92	0
903.654	2
904.389	-1
905.123	2
905.857	1
906.59	2
907.324	3
908.058	1
908.792	3
909.525	1
910.259	1
910.992	1
911.726	2
912.459	1
913.192	0
913.925	0
914.658	2
915.391	0
916.124	1
916.857	0
917.59	-1
918.323	1
919.055	1
919.788	3
920.521	-2
921.253	-2
921.985	0
922.718	1
923.45	0
924.182	1
924.914	-1
925.646	1
926.378	1
927.11	2
927.841	2
928.573	2
929.305	1
930.036	1
930.768	0
931.499	1
932.23	0
932.962	1
933.693	0
934.424	1
935.155	0
935.886	-1
936.617	3
937.348	0
938.078	1
938.809	-2
939.54	0
940.27	1
941.001	3
941.731	2
942.461	2
943.191	1
943.922	0
944.652	1
945.382	0
946.112	0
946.841	2
947.571	2
948.301	1
949.031	2
949.76	-1
950.49	1
951.219	1
951.948	3
952.678	2
953.407	0
954.136	1
954.865	2
955.594	0
956.323	0
957.052	0
957.78	0
958.509	-1
959.238	0
959.966	1
960.695	0
961.423	0
962.151	0
962.88	1
963.608	-3
964.336	0
965.064	-1
965.792	-1
966.52	1
967.247	0
967.975	0
968.703	-1
969.43	2
970.158	2
970.885	0
971.613	2
972.34	0
973.067	0
973.794	0
974.521	0
975.248	1
975.975	-1
976.702	1
977.429	1
978.156	2
978.882	0
979.609	1
980.335	2
981.062	0
981.788	2
982.514	0
983.24	0
983.967	0
984.693	1
985.419	1
986.144	0
986.87	1
987.596	0
988.322	2
989.047	0
989.773	2
990.498	2
991.224	1
991.949	1
992.674	1
993.399	1
994.124	1
994.849	1
995.574	1
996.299	-1
997.024	2
997.749	2
998.473	2
999.198	1
999.922	1
1000.647	2
1001.371	2
1002.095	-1
1002.82	-1
1003.544	-2
1004.268	3
1004.992	3
1005.716	2
1006.439	3
1007.163	1
1007.887	2
1008.611	0
1009.334	1
1010.058	2
1010.781	-1
1011.504	1
1012.228	-1
1012.951	2
1013.674	1
1014.397	0
1015.12	-1
