节点500_285_QEPB04081__143__14-57-56-191.txt的数据

Date: Wed Nov 12 14:57:56 CST 2025
User: PC
Spectrometer: QEPB0408
触发模式: 0
积分时间 (秒): 1.000000E-2
Scans to average: 1
启用暗噪声校正: true
启用非线性校正: false
滑动平均宽度: 0
X轴模式: Wavelengths
Number of Pixels in Spectrum: 1044
>>>>>Begin Spectral Data<<<<<
220.843	-1.25
221.644	-0.25
222.444	-0.25
223.244	3.75
224.045	1.75
224.845	0.75
225.645	3.75
226.445	2.75
227.245	3.75
228.045	3.75
228.845	1.75
229.645	2.75
230.444	0.75
231.244	2.75
232.043	1.75
232.843	3.75
233.642	1.75
234.442	3.75
235.241	0.75
236.04	1.75
236.839	4.75
237.638	3.75
238.437	4.75
239.236	3.75
240.035	3.75
240.833	4.75
241.632	2.75
242.43	5.75
243.229	4.75
244.027	5.75
244.826	3.75
245.624	5.75
246.422	6.75
247.22	4.75
248.018	4.75
248.816	7.75
249.614	3.75
250.412	5.75
251.21	4.75
252.007	6.75
252.805	7.75
253.602	9.75
254.4	6.75
255.197	6.75
255.994	8.75
256.791	8.75
257.589	8.75
258.386	10.75
259.183	6.75
259.979	11.75
260.776	9.75
261.573	10.75
262.37	8.75
263.166	11.75
263.963	10.75
264.759	12.75
265.556	15.75
266.352	12.75
267.148	12.75
267.944	13.75
268.74	15.75
269.536	11.75
270.332	12.75
271.128	12.75
271.924	15.75
272.719	15.75
273.515	14.75
274.311	16.75
275.106	17.75
275.901	15.75
276.697	18.75
277.492	17.75
278.287	18.75
279.082	20.75
279.877	16.75
280.672	18.75
281.467	16.75
282.262	16.75
283.056	17.75
283.851	20.75
284.646	17.75
285.44	18.75
286.234	18.75
287.029	16.75
287.823	16.75
288.617	20.75
289.411	17.75
290.205	20.75
290.999	16.75
291.793	18.75
292.587	18.75
293.381	14.75
294.174	17.75
294.968	14.75
295.761	16.75
296.555	14.75
297.348	16.75
298.141	15.75
298.935	15.75
299.728	12.75
300.521	11.75
301.314	12.75
302.107	12.75
302.899	12.75
303.692	14.75
304.485	9.75
305.277	11.75
306.07	10.75
306.862	12.75
307.655	12.75
308.447	12.75
309.239	10.75
310.031	7.75
310.823	9.75
311.615	12.75
312.407	8.75
313.199	10.75
313.991	8.75
314.783	8.75
315.574	8.75
316.366	8.75
317.157	11.75
317.949	6.75
318.74	7.75
319.531	6.75
320.322	7.75
321.113	7.75
321.904	8.75
322.695	7.75
323.486	5.75
324.277	6.75
325.068	6.75
325.858	7.75
326.649	7.75
327.439	4.75
328.23	7.75
329.02	5.75
329.81	7.75
330.6	5.75
331.391	4.75
332.181	4.75
332.971	5.75
333.76	5.75
334.55	5.75
335.34	5.75
336.13	5.75
336.919	6.75
337.709	5.75
338.498	4.75
339.287	7.75
340.077	5.75
340.866	6.75
341.655	4.75
342.444	3.75
343.233	5.75
344.022	5.75
344.811	6.75
345.6	5.75
346.388	5.75
347.177	5.75
347.965	3.75
348.754	4.75
349.542	4.75
350.33	4.75
351.119	6.75
351.907	4.75
352.695	5.75
353.483	2.75
354.271	7.75
355.059	4.75
355.846	4.75
356.634	6.75
357.422	2.75
358.209	5.75
358.997	4.75
359.784	4.75
360.571	5.75
361.359	4.75
362.146	3.75
362.933	6.75
363.72	5.75
364.507	3.75
365.294	5.75
366.081	4.75
366.867	3.75
367.654	4.75
368.44	4.75
369.227	4.75
370.013	6.75
370.8	0.75
371.586	6.75
372.372	2.75
373.158	2.75
373.944	5.75
374.73	3.75
375.516	5.75
376.302	4.75
377.088	5.75
377.873	4.75
378.659	5.75
379.445	4.75
380.23	4.75
381.015	3.75
381.801	2.75
382.586	5.75
383.371	3.75
384.156	6.75
384.941	3.75
385.726	3.75
386.511	7.75
387.296	2.75
388.08	6.75
388.865	5.75
389.649	3.75
390.434	5.75
391.218	2.75
392.003	5.75
392.787	3.75
393.571	5.75
394.355	6.75
395.139	5.75
395.923	5.75
396.707	4.75
397.491	5.75
398.274	6.75
399.058	7.75
399.842	5.75
400.625	3.75
401.408	4.75
402.192	6.75
402.975	5.75
403.758	8.75
404.541	6.75
405.324	6.75
406.107	8.75
406.89	8.75
407.673	6.75
408.456	5.75
409.238	7.75
410.021	7.75
410.803	8.75
411.586	2.75
412.368	9.75
413.151	6.75
413.933	5.75
414.715	8.75
415.497	9.75
416.279	6.75
417.061	5.75
417.843	5.75
418.624	11.75
419.406	8.75
420.188	11.75
420.969	10.75
421.751	11.75
422.532	11.75
423.313	9.75
424.095	12.75
424.876	10.75
425.657	9.75
426.438	11.75
427.219	9.75
428	11.75
428.78	14.75
429.561	14.75
430.342	10.75
431.122	12.75
431.903	13.75
432.683	13.75
433.464	17.75
434.244	14.75
435.024	17.75
435.804	17.75
436.584	18.75
437.364	16.75
438.144	18.75
438.924	18.75
439.704	20.75
440.483	20.75
441.263	22.75
442.042	22.75
442.822	26.75
443.601	29.75
444.38	26.75
445.16	30.75
445.939	30.75
446.718	31.75
447.497	37.75
448.276	39.75
449.054	42.75
449.833	44.75
450.612	50.75
451.391	55.75
452.169	57.75
452.948	62.75
453.726	68.75
454.504	75.75
455.282	83.75
456.061	96.75
456.839	102.75
457.617	118.75
458.395	122.75
459.172	138.75
459.95	160.75
460.728	173.75
461.506	199.75
462.283	217.75
463.061	244.75
463.838	270.75
464.615	302.75
465.393	339.75
466.17	377.75
466.947	422.75
467.724	473.75
468.501	542.75
469.278	593.75
470.055	662.75
470.831	731.75
471.608	822.75
472.385	917.75
473.161	1021.75
473.938	1140.75
474.714	1268.75
475.49	1402.75
476.266	1559.75
477.043	1726.75
477.819	1905.75
478.595	2115.75
479.371	2336.75
480.146	2597.75
480.922	2872.75
481.698	3166.75
482.473	3522.75
483.249	3882.75
484.024	4256.75
484.8	4757.75
485.575	5212.75
486.35	5755.75
487.126	6323.75
487.901	6996.75
488.676	7630.75
489.451	8431.75
490.225	9247.75
491	10060.75
491.775	11045.75
492.55	12055.75
493.324	13112.75
494.099	14152.75
494.873	15268.75
495.647	16523.75
496.422	17743.75
497.196	18982.75
497.97	20271.75
498.744	21468.75
499.518	22674.75
500.292	23970.75
501.066	25025.75
501.839	25937.75
502.613	26808.75
503.387	27548.75
504.16	28091.75
504.934	28396.75
505.707	28449.75
506.48	28405.75
507.253	28155.75
508.027	27780.75
508.8	27342.75
509.573	26822.75
510.346	26035.75
511.118	25116.75
511.891	24249.75
512.664	23320.75
513.437	22428.75
514.209	21501.75
514.982	20537.75
515.754	19535.75
516.526	18722.75
517.298	17843.75
518.071	17095.75
518.843	16369.75
519.615	15770.75
520.387	15140.75
521.159	14547.75
521.93	13977.75
522.702	13393.75
523.474	12904.75
524.245	12266.75
525.017	11757.75
525.788	11290.75
526.56	10770.75
527.331	10241.75
528.102	9772.75
528.873	9333.75
529.644	8847.75
530.415	8386.75
531.186	7966.75
531.957	7511.75
532.728	7164.75
533.498	6780.75
534.269	6351.75
535.039	5992.75
535.81	5686.75
536.58	5357.75
537.351	5031.75
538.121	4790.75
538.891	4520.75
539.661	4268.75
540.431	4025.75
541.201	3809.75
541.971	3595.75
542.741	3447.75
543.51	3255.75
544.28	3100.75
545.05	2953.75
545.819	2812.75
546.588	2673.75
547.358	2524.75
548.127	2408.75
548.896	2299.75
549.665	2158.75
550.434	2048.75
551.203	1937.75
551.972	1834.75
552.741	1720.75
553.51	1638.75
554.278	1538.75
555.047	1458.75
555.815	1372.75
556.584	1295.75
557.352	1220.75
558.121	1150.75
558.889	1088.75
559.657	1018.75
560.425	972.75
561.193	901.75
561.961	862.75
562.729	810.75
563.496	774.75
564.264	735.75
565.032	694.75
565.799	652.75
566.567	617.75
567.334	584.75
568.101	543.75
568.869	513.75
569.636	481.75
570.403	465.75
571.17	427.75
571.937	409.75
572.704	386.75
573.471	363.75
574.237	345.75
575.004	322.75
575.771	298.75
576.537	288.75
577.303	268.75
578.07	257.75
578.836	235.75
579.602	218.75
580.368	213.75
581.134	198.75
581.9	191.75
582.666	183.75
583.432	170.75
584.198	167.75
584.964	157.75
585.729	142.75
586.495	139.75
587.26	133.75
588.025	125.75
588.791	117.75
589.556	109.75
590.321	103.75
591.086	102.75
591.851	92.75
592.616	88.75
593.381	81.75
594.146	78.75
594.911	80.75
595.675	74.75
596.44	71.75
597.204	69.75
597.969	67.75
598.733	59.75
599.497	59.75
600.261	58.75
601.025	56.75
601.79	54.75
602.553	51.75
603.317	45.75
604.081	42.75
604.845	43.75
605.609	40.75
606.372	38.75
607.136	37.75
607.899	39.75
608.662	36.75
609.426	34.75
610.189	32.75
610.952	30.75
611.715	31.75
612.478	28.75
613.241	24.75
614.004	26.75
614.767	26.75
615.529	25.75
616.292	25.75
617.055	19.75
617.817	21.75
618.579	19.75
619.342	21.75
620.104	21.75
620.866	19.75
621.628	17.75
622.39	16.75
623.152	17.75
623.914	18.75
624.676	15.75
625.438	15.75
626.199	16.75
626.961	16.75
627.722	13.75
628.484	15.75
629.245	13.75
630.006	10.75
630.768	12.75
631.529	9.75
632.29	12.75
633.051	10.75
633.812	10.75
634.573	10.75
635.333	9.75
636.094	9.75
636.855	10.75
637.615	7.75
638.376	9.75
639.136	8.75
639.896	8.75
640.657	9.75
641.417	8.75
642.177	8.75
642.937	6.75
643.697	6.75
644.457	10.75
645.216	6.75
645.976	8.75
646.736	4.75
647.495	5.75
648.255	7.75
649.014	5.75
649.774	6.75
650.533	6.75
651.292	8.75
652.051	5.75
652.81	6.75
653.569	6.75
654.328	3.75
655.087	6.75
655.846	3.75
656.604	2.75
657.363	4.75
658.121	5.75
658.88	4.75
659.638	6.75
660.397	5.75
661.155	4.75
661.913	6.75
662.671	5.75
663.429	2.75
664.187	5.75
664.945	5.75
665.703	7.75
666.46	3.75
667.218	3.75
667.976	1.75
668.733	4.75
669.49	3.75
670.248	2.75
671.005	4.75
671.762	5.75
672.519	2.75
673.276	4.75
674.033	3.75
674.79	2.75
675.547	5.75
676.304	4.75
677.06	4.75
677.817	3.75
678.574	4.75
679.33	2.75
680.086	5.75
680.843	2.75
681.599	1.75
682.355	0.75
683.111	3.75
683.867	3.75
684.623	3.75
685.379	3.75
686.135	2.75
686.89	2.75
687.646	1.75
688.402	1.75
689.157	2.75
689.912	5.75
690.668	2.75
691.423	3.75
692.178	1.75
692.933	3.75
693.688	1.75
694.443	2.75
695.198	2.75
695.953	3.75
696.708	1.75
697.462	3.75
698.217	2.75
698.972	2.75
699.726	2.75
700.48	0.75
701.235	2.75
701.989	1.75
702.743	2.75
703.497	2.75
704.251	3.75
705.005	2.75
705.759	0.75
706.513	3.75
707.266	3.75
708.02	2.75
708.774	1.75
709.527	4.75
710.28	2.75
711.034	1.75
711.787	0.75
712.54	2.75
713.293	0.75
714.046	3.75
714.799	4.75
715.552	0.75
716.305	3.75
717.058	3.75
717.81	0.75
718.563	2.75
719.315	2.75
720.068	3.75
720.82	2.75
721.573	3.75
722.325	1.75
723.077	0.75
723.829	2.75
724.581	1.75
725.333	5.75
726.085	4.75
726.836	4.75
727.588	3.75
728.34	4.75
729.091	4.75
729.843	3.75
730.594	4.75
731.346	2.75
732.097	4.75
732.848	2.75
733.599	2.75
734.35	5.75
735.101	3.75
735.852	3.75
736.603	3.75
737.354	2.75
738.104	4.75
738.855	3.75
739.605	0.75
740.356	3.75
741.106	3.75
741.856	3.75
742.607	2.75
743.357	5.75
744.107	5.75
744.857	2.75
745.607	3.75
746.357	3.75
747.106	3.75
747.856	3.75
748.606	2.75
749.355	2.75
750.105	6.75
750.854	4.75
751.603	4.75
752.353	3.75
753.102	4.75
753.851	5.75
754.6	6.75
755.349	2.75
756.098	6.75
756.847	7.75
757.595	5.75
758.344	6.75
759.093	5.75
759.841	5.75
760.589	4.75
761.338	6.75
762.086	6.75
762.834	6.75
763.582	5.75
764.331	1.75
765.079	5.75
765.826	7.75
766.574	6.75
767.322	4.75
768.07	8.75
768.817	8.75
769.565	7.75
770.312	7.75
771.06	8.75
771.807	4.75
772.554	8.75
773.302	6.75
774.049	7.75
774.796	7.75
775.543	8.75
776.29	7.75
777.036	7.75
777.783	8.75
778.53	6.75
779.276	9.75
780.023	6.75
780.769	8.75
781.516	7.75
782.262	6.75
783.008	7.75
783.754	8.75
784.5	6.75
785.246	7.75
785.992	8.75
786.738	7.75
787.484	6.75
788.23	9.75
788.975	8.75
789.721	6.75
790.466	6.75
791.212	7.75
791.957	5.75
792.702	6.75
793.447	8.75
794.193	7.75
794.938	4.75
795.683	9.75
796.427	7.75
797.172	6.75
797.917	7.75
798.662	6.75
799.406	7.75
800.151	4.75
800.895	9.75
801.64	6.75
802.384	8.75
803.128	6.75
803.872	4.75
804.616	6.75
805.36	6.75
806.104	6.75
806.848	6.75
807.592	4.75
808.336	7.75
809.079	3.75
809.823	6.75
810.566	5.75
811.31	5.75
812.053	7.75
812.796	4.75
813.539	4.75
814.283	4.75
815.026	4.75
815.769	2.75
816.511	5.75
817.254	5.75
817.997	2.75
818.74	2.75
819.482	3.75
820.225	2.75
820.967	4.75
821.71	4.75
822.452	4.75
823.194	3.75
823.936	4.75
824.678	2.75
825.42	0.75
826.162	4.75
826.904	2.75
827.646	5.75
828.388	2.75
829.129	2.75
829.871	4.75
830.612	2.75
831.354	3.75
832.095	0.75
832.836	1.75
833.577	4.75
834.319	1.75
835.06	3.75
835.801	3.75
836.542	3.75
837.282	4.75
838.023	1.75
838.764	1.75
839.504	0.75
840.245	3.75
840.985	1.75
841.726	4.75
842.466	3.75
843.206	1.75
843.946	2.75
844.687	0.75
845.427	2.75
846.166	2.75
846.906	2.75
847.646	2.75
848.386	2.75
849.125	2.75
849.865	3.75
850.605	3.75
851.344	3.75
852.083	2.75
852.823	0.75
853.562	2.75
854.301	0.75
855.04	0.75
855.779	1.75
856.518	-0.25
857.257	1.75
857.995	0.75
858.734	0.75
859.473	1.75
860.211	1.75
860.95	3.75
861.688	2.75
862.426	-1.25
863.165	2.75
863.903	2.75
864.641	2.75
865.379	-0.25
866.117	-0.25
866.855	0.75
867.593	0.75
868.33	0.75
869.068	0.75
869.806	3.75
870.543	2.75
871.28	0.75
872.018	1.75
872.755	-0.25
873.492	2.75
874.229	-0.25
874.967	-0.25
875.703	0.75
876.44	2.75
877.177	-0.25
877.914	1.75
878.651	0.75
879.387	-1.25
880.124	1.75
880.86	-1.25
881.597	1.75
882.333	-0.25
883.069	0.75
883.806	-0.25
884.542	0.75
885.278	-0.25
886.014	-0.25
886.749	0.75
887.485	0.75
888.221	0.75
888.957	-0.25
889.692	-1.25
890.428	0.75
891.163	-1.25
891.899	-1.25
892.634	-0.25
893.369	-0.25
894.104	-1.25
894.839	1.75
895.574	-1.25
896.309	2.75
897.044	-1.25
897.779	0.75
898.514	-0.25
899.248	-1.25
899.983	-1.25
900.717	-2.25
901.452	1.75
902.186	-1.25
902.92	0.75
903.654	-3.25
904.389	-0.25
905.123	0.75
905.857	-1.25
906.59	1.75
907.324	-0.25
908.058	1.75
908.792	0.75
909.525	-0.25
910.259	-0.25
910.992	0.75
911.726	-0.25
912.459	2.75
913.192	0.75
913.925	0.75
914.658	-1.25
915.391	1.75
916.124	-0.25
916.857	-1.25
917.59	-3.25
918.323	-0.25
919.055	-0.25
919.788	0.75
920.521	1.75
921.253	-2.25
921.985	-0.25
922.718	-1.25
923.45	-2.25
924.182	0.75
924.914	0.75
925.646	0.75
926.378	-0.25
927.11	0.75
927.841	-1.25
928.573	-0.25
929.305	2.75
930.036	0.75
930.768	-3.25
931.499	0.75
932.23	-0.25
932.962	-0.25
933.693	-2.25
934.424	-1.25
935.155	0.75
935.886	-1.25
936.617	0.75
937.348	2.75
938.078	2.75
938.809	0.75
939.54	-2.25
940.27	0.75
941.001	0.75
941.731	0.75
942.461	-2.25
943.191	-1.25
943.922	-0.25
944.652	-0.25
945.382	-0.25
946.112	0.75
946.841	2.75
947.571	1.75
948.301	-2.25
949.031	-1.25
949.76	-0.25
950.49	-0.25
951.219	-0.25
951.948	0.75
952.678	-1.25
953.407	0.75
954.136	0.75
954.865	-0.25
955.594	0.75
956.323	2.75
957.052	-3.25
957.78	-1.25
958.509	-3.25
959.238	-0.25
959.966	-0.25
960.695	-1.25
961.423	1.75
962.151	-3.25
962.88	0.75
963.608	-0.25
964.336	-1.25
965.064	-0.25
965.792	1.75
966.52	-1.25
967.247	-0.25
967.975	0.75
968.703	-0.25
969.43	0.75
970.158	0.75
970.885	-1.25
971.613	0.75
972.34	-1.25
973.067	-1.25
973.794	-0.25
974.521	-0.25
975.248	-1.25
975.975	-2.25
976.702	0.75
977.429	-0.25
978.156	0.75
978.882	-0.25
979.609	-0.25
980.335	2.75
981.062	0.75
981.788	0.75
982.514	-2.25
983.24	0.75
983.967	-1.25
984.693	-0.25
985.419	0.75
986.144	-1.25
986.87	0.75
987.596	-1.25
988.322	-1.25
989.047	-1.25
989.773	-1.25
990.498	0.75
991.224	1.75
991.949	-1.25
992.674	-1.25
993.399	-0.25
994.124	-1.25
994.849	0.75
995.574	0.75
996.299	-0.25
997.024	-2.25
997.749	-1.25
998.473	-0.25
999.198	-1.25
999.922	0.75
1000.647	-3.25
1001.371	3.75
1002.095	-2.25
1002.82	-1.25
1003.544	-0.25
1004.268	0.75
1004.992	-0.25
1005.716	-0.25
1006.439	0.75
1007.163	1.75
1007.887	0.75
1008.611	-0.25
1009.334	-0.25
1010.058	-1.25
1010.781	-2.25
1011.504	-0.25
1012.228	-1.25
1012.951	-0.25
1013.674	-0.25
1014.397	0.75
1015.12	-0.25
