节点500_285_QEPB04081__365__15-01-37-656.txt的数据

Date: Wed Nov 12 15:01:37 CST 2025
User: PC
Spectrometer: QEPB0408
触发模式: 0
积分时间 (秒): 1.000000E-2
Scans to average: 1
启用暗噪声校正: true
启用非线性校正: false
滑动平均宽度: 0
X轴模式: Wavelengths
Number of Pixels in Spectrum: 1044
>>>>>Begin Spectral Data<<<<<
220.843	2.12
221.644	2.12
222.444	2.12
223.244	4.12
224.045	2.12
224.845	1.12
225.645	2.12
226.445	1.12
227.245	3.12
228.045	1.12
228.845	2.12
229.645	3.12
230.444	4.12
231.244	3.12
232.043	5.12
232.843	4.12
233.642	4.12
234.442	6.12
235.241	3.12
236.04	4.12
236.839	7.12
237.638	5.12
238.437	5.12
239.236	4.12
240.035	6.12
240.833	5.12
241.632	6.12
242.43	5.12
243.229	5.12
244.027	7.12
244.826	4.12
245.624	6.12
246.422	4.12
247.22	5.12
248.018	7.12
248.816	7.12
249.614	6.12
250.412	8.12
251.21	6.12
252.007	8.12
252.805	7.12
253.602	6.12
254.4	3.12
255.197	8.12
255.994	9.12
256.791	11.12
257.589	9.12
258.386	8.12
259.183	9.12
259.979	11.12
260.776	12.12
261.573	13.12
262.37	11.12
263.166	13.12
263.963	10.12
264.759	13.12
265.556	13.12
266.352	13.12
267.148	13.12
267.944	14.12
268.74	12.12
269.536	17.12
270.332	12.12
271.128	15.12
271.924	16.12
272.719	16.12
273.515	14.12
274.311	18.12
275.106	17.12
275.901	17.12
276.697	18.12
277.492	18.12
278.287	19.12
279.082	18.12
279.877	17.12
280.672	20.12
281.467	19.12
282.262	18.12
283.056	18.12
283.851	21.12
284.646	19.12
285.44	18.12
286.234	17.12
287.029	19.12
287.823	20.12
288.617	17.12
289.411	19.12
290.205	20.12
290.999	20.12
291.793	19.12
292.587	18.12
293.381	19.12
294.174	16.12
294.968	17.12
295.761	13.12
296.555	15.12
297.348	15.12
298.141	14.12
298.935	18.12
299.728	15.12
300.521	17.12
301.314	16.12
302.107	11.12
302.899	14.12
303.692	11.12
304.485	14.12
305.277	12.12
306.07	15.12
306.862	16.12
307.655	12.12
308.447	15.12
309.239	11.12
310.031	14.12
310.823	12.12
311.615	13.12
312.407	10.12
313.199	10.12
313.991	8.12
314.783	10.12
315.574	8.12
316.366	7.12
317.157	8.12
317.949	9.12
318.74	8.12
319.531	8.12
320.322	6.12
321.113	9.12
321.904	8.12
322.695	8.12
323.486	8.12
324.277	9.12
325.068	8.12
325.858	8.12
326.649	7.12
327.439	4.12
328.23	8.12
329.02	9.12
329.81	6.12
330.6	8.12
331.391	7.12
332.181	7.12
332.971	7.12
333.76	6.12
334.55	8.12
335.34	8.12
336.13	6.12
336.919	6.12
337.709	5.12
338.498	7.12
339.287	8.12
340.077	8.12
340.866	7.12
341.655	5.12
342.444	4.12
343.233	6.12
344.022	7.12
344.811	7.12
345.6	7.12
346.388	7.12
347.177	5.12
347.965	5.12
348.754	6.12
349.542	7.12
350.33	8.12
351.119	7.12
351.907	5.12
352.695	5.12
353.483	6.12
354.271	6.12
355.059	7.12
355.846	5.12
356.634	7.12
357.422	4.12
358.209	7.12
358.997	6.12
359.784	7.12
360.571	4.12
361.359	5.12
362.146	5.12
362.933	4.12
363.72	1.12
364.507	6.12
365.294	7.12
366.081	5.12
366.867	6.12
367.654	6.12
368.44	7.12
369.227	4.12
370.013	5.12
370.8	6.12
371.586	4.12
372.372	4.12
373.158	5.12
373.944	3.12
374.73	4.12
375.516	6.12
376.302	8.12
377.088	6.12
377.873	6.12
378.659	4.12
379.445	5.12
380.23	4.12
381.015	2.12
381.801	4.12
382.586	6.12
383.371	4.12
384.156	9.12
384.941	7.12
385.726	2.12
386.511	4.12
387.296	8.12
388.08	5.12
388.865	5.12
389.649	4.12
390.434	7.12
391.218	6.12
392.003	5.12
392.787	6.12
393.571	6.12
394.355	9.12
395.139	8.12
395.923	8.12
396.707	7.12
397.491	6.12
398.274	9.12
399.058	6.12
399.842	5.12
400.625	9.12
401.408	9.12
402.192	4.12
402.975	7.12
403.758	8.12
404.541	7.12
405.324	5.12
406.107	6.12
406.89	6.12
407.673	11.12
408.456	9.12
409.238	7.12
410.021	8.12
410.803	9.12
411.586	7.12
412.368	7.12
413.151	10.12
413.933	10.12
414.715	11.12
415.497	8.12
416.279	12.12
417.061	10.12
417.843	9.12
418.624	12.12
419.406	10.12
420.188	10.12
420.969	12.12
421.751	10.12
422.532	13.12
423.313	10.12
424.095	12.12
424.876	13.12
425.657	13.12
426.438	13.12
427.219	12.12
428	14.12
428.78	13.12
429.561	13.12
430.342	15.12
431.122	13.12
431.903	14.12
432.683	16.12
433.464	17.12
434.244	14.12
435.024	17.12
435.804	19.12
436.584	19.12
437.364	21.12
438.144	21.12
438.924	23.12
439.704	20.12
440.483	21.12
441.263	24.12
442.042	25.12
442.822	25.12
443.601	30.12
444.38	32.12
445.16	36.12
445.939	34.12
446.718	39.12
447.497	39.12
448.276	42.12
449.054	46.12
449.833	52.12
450.612	55.12
451.391	58.12
452.169	61.12
452.948	69.12
453.726	78.12
454.504	84.12
455.282	91.12
456.061	100.12
456.839	113.12
457.617	125.12
458.395	136.12
459.172	150.12
459.95	169.12
460.728	188.12
461.506	212.12
462.283	229.12
463.061	264.12
463.838	281.12
464.615	328.12
465.393	363.12
466.17	410.12
466.947	452.12
467.724	496.12
468.501	560.12
469.278	617.12
470.055	690.12
470.831	771.12
471.608	858.12
472.385	958.12
473.161	1050.12
473.938	1166.12
474.714	1287.12
475.49	1426.12
476.266	1573.12
477.043	1733.12
477.819	1916.12
478.595	2129.12
479.371	2368.12
480.146	2571.12
480.922	2853.12
481.698	3154.12
482.473	3470.12
483.249	3798.12
484.024	4188.12
484.8	4620.12
485.575	5054.12
486.35	5550.12
487.126	6093.12
487.901	6682.12
488.676	7321.12
489.451	8013.12
490.225	8781.12
491	9598.12
491.775	10450.12
492.55	11403.12
493.324	12366.12
494.099	13307.12
494.873	14369.12
495.647	15429.12
496.422	16623.12
497.196	17804.12
497.97	18994.12
498.744	20156.12
499.518	21299.12
500.292	22462.12
501.066	23519.12
501.839	24497.12
502.613	25332.12
503.387	26188.12
504.16	26746.12
504.934	27119.12
505.707	27253.12
506.48	27351.12
507.253	27277.12
508.027	27046.12
508.8	26766.12
509.573	26318.12
510.346	25712.12
511.118	24953.12
511.891	24175.12
512.664	23335.12
513.437	22480.12
514.209	21550.12
514.982	20659.12
515.754	19748.12
516.526	18922.12
517.298	18057.12
518.071	17220.12
518.843	16569.12
519.615	15989.12
520.387	15382.12
521.159	14735.12
521.93	14157.12
522.702	13564.12
523.474	13026.12
524.245	12462.12
525.017	11912.12
525.788	11454.12
526.56	10943.12
527.331	10417.12
528.102	9969.12
528.873	9506.12
529.644	9016.12
530.415	8615.12
531.186	8165.12
531.957	7717.12
532.728	7354.12
533.498	6953.12
534.269	6551.12
535.039	6175.12
535.81	5904.12
536.58	5536.12
537.351	5235.12
538.121	4932.12
538.891	4696.12
539.661	4423.12
540.431	4177.12
541.201	3933.12
541.971	3700.12
542.741	3540.12
543.51	3366.12
544.28	3191.12
545.05	3062.12
545.819	2902.12
546.588	2754.12
547.358	2605.12
548.127	2470.12
548.896	2370.12
549.665	2226.12
550.434	2117.12
551.203	2025.12
551.972	1914.12
552.741	1786.12
553.51	1697.12
554.278	1616.12
555.047	1510.12
555.815	1433.12
556.584	1337.12
557.352	1270.12
558.121	1208.12
558.889	1132.12
559.657	1077.12
560.425	1026.12
561.193	961.12
561.961	895.12
562.729	850.12
563.496	802.12
564.264	759.12
565.032	714.12
565.799	685.12
566.567	653.12
567.334	600.12
568.101	578.12
568.869	545.12
569.636	510.12
570.403	488.12
571.17	453.12
571.937	425.12
572.704	404.12
573.471	378.12
574.237	366.12
575.004	338.12
575.771	322.12
576.537	298.12
577.303	282.12
578.07	265.12
578.836	244.12
579.602	239.12
580.368	218.12
581.134	210.12
581.9	202.12
582.666	193.12
583.432	181.12
584.198	169.12
584.964	161.12
585.729	158.12
586.495	143.12
587.26	139.12
588.025	131.12
588.791	124.12
589.556	117.12
590.321	116.12
591.086	99.12
591.851	100.12
592.616	99.12
593.381	88.12
594.146	87.12
594.911	81.12
595.675	78.12
596.44	72.12
597.204	75.12
597.969	69.12
598.733	63.12
599.497	63.12
600.261	61.12
601.025	59.12
601.79	51.12
602.553	51.12
603.317	52.12
604.081	49.12
604.845	46.12
605.609	43.12
606.372	44.12
607.136	43.12
607.899	40.12
608.662	38.12
609.426	35.12
610.189	35.12
610.952	33.12
611.715	31.12
612.478	29.12
613.241	29.12
614.004	30.12
614.767	27.12
615.529	27.12
616.292	28.12
617.055	25.12
617.817	25.12
618.579	25.12
619.342	22.12
620.104	23.12
620.866	18.12
621.628	21.12
622.39	18.12
623.152	19.12
623.914	19.12
624.676	18.12
625.438	16.12
626.199	15.12
626.961	17.12
627.722	14.12
628.484	17.12
629.245	13.12
630.006	14.12
630.768	14.12
631.529	10.12
632.29	13.12
633.051	14.12
633.812	11.12
634.573	13.12
635.333	10.12
636.094	11.12
636.855	11.12
637.615	12.12
638.376	10.12
639.136	12.12
639.896	9.12
640.657	9.12
641.417	11.12
642.177	8.12
642.937	10.12
643.697	8.12
644.457	9.12
645.216	8.12
645.976	7.12
646.736	8.12
647.495	9.12
648.255	10.12
649.014	8.12
649.774	7.12
650.533	7.12
651.292	7.12
652.051	8.12
652.81	7.12
653.569	8.12
654.328	6.12
655.087	7.12
655.846	7.12
656.604	5.12
657.363	6.12
658.121	6.12
658.88	5.12
659.638	7.12
660.397	6.12
661.155	6.12
661.913	4.12
662.671	7.12
663.429	8.12
664.187	4.12
664.945	3.12
665.703	6.12
666.46	5.12
667.218	5.12
667.976	7.12
668.733	5.12
669.49	4.12
670.248	4.12
671.005	4.12
671.762	5.12
672.519	4.12
673.276	5.12
674.033	3.12
674.79	4.12
675.547	5.12
676.304	5.12
677.06	4.12
677.817	4.12
678.574	5.12
679.33	6.12
680.086	4.12
680.843	7.12
681.599	4.12
682.355	3.12
683.111	4.12
683.867	3.12
684.623	5.12
685.379	4.12
686.135	3.12
686.89	5.12
687.646	6.12
688.402	2.12
689.157	3.12
689.912	4.12
690.668	5.12
691.423	5.12
692.178	5.12
692.933	2.12
693.688	4.12
694.443	3.12
695.198	3.12
695.953	3.12
696.708	3.12
697.462	5.12
698.217	5.12
698.972	3.12
699.726	2.12
700.48	4.12
701.235	5.12
701.989	3.12
702.743	6.12
703.497	3.12
704.251	4.12
705.005	2.12
705.759	4.12
706.513	4.12
707.266	3.12
708.02	4.12
708.774	6.12
709.527	4.12
710.28	3.12
711.034	6.12
711.787	3.12
712.54	3.12
713.293	8.12
714.046	1.12
714.799	5.12
715.552	5.12
716.305	5.12
717.058	3.12
717.81	3.12
718.563	2.12
719.315	3.12
720.068	2.12
720.82	4.12
721.573	2.12
722.325	4.12
723.077	2.12
723.829	5.12
724.581	3.12
725.333	4.12
726.085	6.12
726.836	4.12
727.588	2.12
728.34	4.12
729.091	8.12
729.843	5.12
730.594	5.12
731.346	4.12
732.097	5.12
732.848	5.12
733.599	6.12
734.35	5.12
735.101	2.12
735.852	2.12
736.603	6.12
737.354	3.12
738.104	4.12
738.855	4.12
739.605	5.12
740.356	4.12
741.106	4.12
741.856	4.12
742.607	3.12
743.357	6.12
744.107	7.12
744.857	5.12
745.607	5.12
746.357	5.12
747.106	5.12
747.856	4.12
748.606	4.12
749.355	8.12
750.105	4.12
750.854	5.12
751.603	5.12
752.353	5.12
753.102	6.12
753.851	2.12
754.6	6.12
755.349	2.12
756.098	7.12
756.847	6.12
757.595	8.12
758.344	7.12
759.093	6.12
759.841	6.12
760.589	5.12
761.338	5.12
762.086	7.12
762.834	6.12
763.582	7.12
764.331	6.12
765.079	6.12
765.826	7.12
766.574	9.12
767.322	7.12
768.07	8.12
768.817	7.12
769.565	7.12
770.312	8.12
771.06	8.12
771.807	8.12
772.554	7.12
773.302	9.12
774.049	9.12
774.796	8.12
775.543	9.12
776.29	8.12
777.036	8.12
777.783	9.12
778.53	9.12
779.276	11.12
780.023	8.12
780.769	8.12
781.516	9.12
782.262	6.12
783.008	9.12
783.754	7.12
784.5	10.12
785.246	9.12
785.992	10.12
786.738	11.12
787.484	10.12
788.23	10.12
788.975	10.12
789.721	7.12
790.466	9.12
791.212	9.12
791.957	10.12
792.702	9.12
793.447	8.12
794.193	7.12
794.938	7.12
795.683	8.12
796.427	6.12
797.172	8.12
797.917	8.12
798.662	9.12
799.406	10.12
800.151	7.12
800.895	9.12
801.64	7.12
802.384	8.12
803.128	8.12
803.872	8.12
804.616	8.12
805.36	8.12
806.104	7.12
806.848	6.12
807.592	7.12
808.336	6.12
809.079	5.12
809.823	8.12
810.566	6.12
811.31	7.12
812.053	7.12
812.796	7.12
813.539	4.12
814.283	6.12
815.026	4.12
815.769	0.12
816.511	5.12
817.254	6.12
817.997	3.12
818.74	6.12
819.482	5.12
820.225	7.12
820.967	5.12
821.71	5.12
822.452	6.12
823.194	5.12
823.936	4.12
824.678	4.12
825.42	3.12
826.162	4.12
826.904	4.12
827.646	4.12
828.388	6.12
829.129	3.12
829.871	4.12
830.612	5.12
831.354	3.12
832.095	2.12
832.836	7.12
833.577	1.12
834.319	5.12
835.06	3.12
835.801	6.12
836.542	2.12
837.282	3.12
838.023	2.12
838.764	2.12
839.504	5.12
840.245	4.12
840.985	6.12
841.726	5.12
842.466	3.12
843.206	4.12
843.946	1.12
844.687	3.12
845.427	4.12
846.166	3.12
846.906	2.12
847.646	1.12
848.386	2.12
849.125	2.12
849.865	3.12
850.605	5.12
851.344	2.12
852.083	3.12
852.823	1.12
853.562	4.12
854.301	2.12
855.04	3.12
855.779	2.12
856.518	2.12
857.257	2.12
857.995	4.12
858.734	2.12
859.473	1.12
860.211	2.12
860.95	1.12
861.688	2.12
862.426	2.12
863.165	2.12
863.903	2.12
864.641	2.12
865.379	3.12
866.117	2.12
866.855	3.12
867.593	2.12
868.33	1.12
869.068	2.12
869.806	0.12
870.543	0.12
871.28	0.12
872.018	-1.88
872.755	2.12
873.492	2.12
874.229	2.12
874.967	2.12
875.703	1.12
876.44	2.12
877.177	0.12
877.914	4.12
878.651	2.12
879.387	1.12
880.124	1.12
880.86	1.12
881.597	1.12
882.333	0.12
883.069	2.12
883.806	0.12
884.542	2.12
885.278	3.12
886.014	0.12
886.749	1.12
887.485	0.12
888.221	1.12
888.957	1.12
889.692	1.12
890.428	4.12
891.163	1.12
891.899	1.12
892.634	2.12
893.369	2.12
894.104	-0.88
894.839	2.12
895.574	2.12
896.309	1.12
897.044	2.12
897.779	2.12
898.514	1.12
899.248	1.12
899.983	2.12
900.717	1.12
901.452	0.12
902.186	0.12
902.92	1.12
903.654	0.12
904.389	1.12
905.123	2.12
905.857	2.12
906.59	1.12
907.324	1.12
908.058	2.12
908.792	0.12
909.525	-0.88
910.259	1.12
910.992	2.12
911.726	1.12
912.459	-0.88
913.192	0.12
913.925	0.12
914.658	2.12
915.391	0.12
916.124	-0.88
916.857	2.12
917.59	-0.88
918.323	1.12
919.055	2.12
919.788	1.12
920.521	1.12
921.253	1.12
921.985	1.12
922.718	-0.88
923.45	0.12
924.182	1.12
924.914	0.12
925.646	2.12
926.378	0.12
927.11	0.12
927.841	1.12
928.573	1.12
929.305	-0.88
930.036	0.12
930.768	2.12
931.499	-0.88
932.23	0.12
932.962	1.12
933.693	0.12
934.424	1.12
935.155	-1.88
935.886	1.12
936.617	1.12
937.348	2.12
938.078	0.12
938.809	0.12
939.54	-0.88
940.27	0.12
941.001	2.12
941.731	-0.88
942.461	3.12
943.191	-0.88
943.922	0.12
944.652	-0.88
945.382	0.12
946.112	0.12
946.841	0.12
947.571	2.12
948.301	0.12
949.031	2.12
949.76	4.12
950.49	1.12
951.219	-0.88
951.948	-2.88
952.678	0.12
953.407	3.12
954.136	0.12
954.865	0.12
955.594	0.12
956.323	1.12
957.052	1.12
957.78	2.12
958.509	2.12
959.238	-0.88
959.966	1.12
960.695	0.12
961.423	1.12
962.151	2.12
962.88	0.12
963.608	-0.88
964.336	-0.88
965.064	2.12
965.792	1.12
966.52	2.12
967.247	-1.88
967.975	0.12
968.703	1.12
969.43	0.12
970.158	2.12
970.885	0.12
971.613	1.12
972.34	1.12
973.067	-0.88
973.794	2.12
974.521	-0.88
975.248	-0.88
975.975	0.12
976.702	-0.88
977.429	0.12
978.156	0.12
978.882	0.12
979.609	-0.88
980.335	-0.88
981.062	2.12
981.788	1.12
982.514	1.12
983.24	1.12
983.967	2.12
984.693	1.12
985.419	0.12
986.144	2.12
986.87	-1.88
987.596	0.12
988.322	-0.88
989.047	0.12
989.773	-0.88
990.498	1.12
991.224	0.12
991.949	-0.88
992.674	1.12
993.399	0.12
994.124	2.12
994.849	2.12
995.574	1.12
996.299	2.12
997.024	0.12
997.749	0.12
998.473	0.12
999.198	1.12
999.922	2.12
1000.647	1.12
1001.371	2.12
1002.095	-0.88
1002.82	0.12
1003.544	0.12
1004.268	3.12
1004.992	-1.88
1005.716	4.12
1006.439	0.12
1007.163	2.12
1007.887	0.12
1008.611	-0.88
1009.334	0.12
1010.058	-0.88
1010.781	-0.88
1011.504	1.12
1012.228	1.12
1012.951	-0.88
1013.674	0.12
1014.397	-0.88
1015.12	0.12
