节点500_285_QEPB04081__632__15-06-04-081.txt的数据

Date: Wed Nov 12 15:06:04 CST 2025
User: PC
Spectrometer: QEPB0408
触发模式: 0
积分时间 (秒): 1.000000E-2
Scans to average: 1
启用暗噪声校正: true
启用非线性校正: false
滑动平均宽度: 0
X轴模式: Wavelengths
Number of Pixels in Spectrum: 1044
>>>>>Begin Spectral Data<<<<<
220.843	2
221.644	1
222.444	2
223.244	1
224.045	0
224.845	1
225.645	2
226.445	2
227.245	1
228.045	2
228.845	4
229.645	4
230.444	0
231.244	4
232.043	4
232.843	0
233.642	5
234.442	3
235.241	3
236.04	5
236.839	3
237.638	3
238.437	7
239.236	2
240.035	2
240.833	5
241.632	2
242.43	2
243.229	5
244.027	7
244.826	5
245.624	4
246.422	6
247.22	4
248.018	9
248.816	5
249.614	4
250.412	4
251.21	7
252.007	8
252.805	7
253.602	7
254.4	6
255.197	7
255.994	6
256.791	8
257.589	10
258.386	6
259.183	7
259.979	9
260.776	6
261.573	10
262.37	9
263.166	12
263.963	12
264.759	10
265.556	11
266.352	9
267.148	14
267.944	11
268.74	12
269.536	11
270.332	14
271.128	15
271.924	14
272.719	15
273.515	16
274.311	15
275.106	16
275.901	15
276.697	17
277.492	18
278.287	19
279.082	17
279.877	13
280.672	17
281.467	16
282.262	17
283.056	19
283.851	17
284.646	18
285.44	17
286.234	18
287.029	17
287.823	16
288.617	21
289.411	16
290.205	16
290.999	15
291.793	18
292.587	19
293.381	18
294.174	17
294.968	16
295.761	14
296.555	15
297.348	17
298.141	14
298.935	16
299.728	14
300.521	18
301.314	15
302.107	14
302.899	12
303.692	14
304.485	15
305.277	12
306.07	13
306.862	13
307.655	13
308.447	11
309.239	11
310.031	10
310.823	10
311.615	13
312.407	9
313.199	9
313.991	11
314.783	10
315.574	8
316.366	9
317.157	7
317.949	9
318.74	9
319.531	5
320.322	10
321.113	9
321.904	9
322.695	9
323.486	5
324.277	6
325.068	6
325.858	9
326.649	7
327.439	6
328.23	7
329.02	5
329.81	7
330.6	4
331.391	6
332.181	9
332.971	7
333.76	8
334.55	6
335.34	7
336.13	7
336.919	8
337.709	4
338.498	6
339.287	6
340.077	6
340.866	7
341.655	6
342.444	9
343.233	7
344.022	2
344.811	6
345.6	6
346.388	5
347.177	6
347.965	7
348.754	5
349.542	4
350.33	4
351.119	7
351.907	5
352.695	6
353.483	5
354.271	6
355.059	4
355.846	5
356.634	6
357.422	7
358.209	6
358.997	5
359.784	5
360.571	5
361.359	6
362.146	5
362.933	5
363.72	7
364.507	7
365.294	6
366.081	5
366.867	2
367.654	4
368.44	4
369.227	7
370.013	4
370.8	6
371.586	3
372.372	6
373.158	5
373.944	4
374.73	5
375.516	5
376.302	5
377.088	5
377.873	5
378.659	5
379.445	5
380.23	6
381.015	4
381.801	4
382.586	6
383.371	5
384.156	6
384.941	8
385.726	5
386.511	6
387.296	4
388.08	3
388.865	5
389.649	5
390.434	5
391.218	6
392.003	5
392.787	8
393.571	5
394.355	7
395.139	7
395.923	4
396.707	7
397.491	6
398.274	5
399.058	8
399.842	4
400.625	6
401.408	6
402.192	7
402.975	7
403.758	5
404.541	6
405.324	7
406.107	6
406.89	3
407.673	8
408.456	8
409.238	8
410.021	7
410.803	8
411.586	9
412.368	9
413.151	7
413.933	8
414.715	9
415.497	10
416.279	10
417.061	10
417.843	9
418.624	9
419.406	11
420.188	10
420.969	11
421.751	8
422.532	10
423.313	11
424.095	11
424.876	12
425.657	13
426.438	11
427.219	10
428	12
428.78	14
429.561	13
430.342	15
431.122	15
431.903	16
432.683	13
433.464	16
434.244	17
435.024	18
435.804	18
436.584	18
437.364	18
438.144	18
438.924	23
439.704	25
440.483	21
441.263	24
442.042	25
442.822	29
443.601	30
444.38	33
445.16	32
445.939	35
446.718	40
447.497	38
448.276	42
449.054	49
449.833	46
450.612	56
451.391	61
452.169	68
452.948	75
453.726	78
454.504	91
455.282	100
456.061	109
456.839	122
457.617	134
458.395	144
459.172	163
459.95	185
460.728	205
461.506	226
462.283	247
463.061	285
463.838	315
464.615	352
465.393	385
466.17	426
466.947	474
467.724	527
468.501	598
469.278	666
470.055	720
470.831	800
471.608	875
472.385	985
473.161	1103
473.938	1203
474.714	1341
475.49	1456
476.266	1610
477.043	1758
477.819	1938
478.595	2141
479.371	2340
480.146	2604
480.922	2815
481.698	3079
482.473	3394
483.249	3728
484.024	4087
484.8	4446
485.575	4873
486.35	5300
487.126	5821
487.901	6309
488.676	6910
489.451	7512
490.225	8189
491	8913
491.775	9698
492.55	10557
493.324	11424
494.099	12224
494.873	13172
495.647	14187
496.422	15228
497.196	16277
497.97	17335
498.744	18530
499.518	19497
500.292	20587
501.066	21656
501.839	22578
502.613	23513
503.387	24323
504.16	25004
504.934	25503
505.707	25775
506.48	25966
507.253	26045
508.027	25969
508.8	25806
509.573	25598
510.346	25205
511.118	24541
511.891	23874
512.664	23212
513.437	22403
514.209	21603
514.982	20778
515.754	19953
516.526	19061
517.298	18316
518.071	17587
518.843	16888
519.615	16254
520.387	15652
521.159	14993
521.93	14374
522.702	13831
523.474	13245
524.245	12696
525.017	12172
525.788	11677
526.56	11188
527.331	10659
528.102	10210
528.873	9763
529.644	9323
530.415	8855
531.186	8435
531.957	8021
532.728	7624
533.498	7259
534.269	6835
535.039	6496
535.81	6145
536.58	5809
537.351	5462
538.121	5169
538.891	4895
539.661	4580
540.431	4355
541.201	4125
541.971	3920
542.741	3708
543.51	3522
544.28	3344
545.05	3206
545.819	3028
546.588	2886
547.358	2738
548.127	2624
548.896	2500
549.665	2372
550.434	2237
551.203	2122
551.972	2000
552.741	1890
553.51	1784
554.278	1698
555.047	1608
555.815	1519
556.584	1433
557.352	1354
558.121	1275
558.889	1221
559.657	1146
560.425	1074
561.193	1012
561.961	964
562.729	906
563.496	855
564.264	808
565.032	772
565.799	725
566.567	690
567.334	642
568.101	607
568.869	568
569.636	549
570.403	519
571.17	479
571.937	448
572.704	436
573.471	406
574.237	385
575.004	361
575.771	336
576.537	319
577.303	301
578.07	286
578.836	270
579.602	249
580.368	240
581.134	231
581.9	212
582.666	204
583.432	190
584.198	187
584.964	176
585.729	160
586.495	154
587.26	148
588.025	143
588.791	132
589.556	128
590.321	119
591.086	111
591.851	107
592.616	99
593.381	94
594.146	91
594.911	87
595.675	84
596.44	81
597.204	81
597.969	73
598.733	70
599.497	63
600.261	65
601.025	60
601.79	57
602.553	56
603.317	52
604.081	52
604.845	49
605.609	45
606.372	46
607.136	43
607.899	41
608.662	39
609.426	36
610.189	37
610.952	32
611.715	37
612.478	30
613.241	31
614.004	30
614.767	29
615.529	28
616.292	24
617.055	25
617.817	25
618.579	24
619.342	23
620.104	23
620.866	22
621.628	19
622.39	20
623.152	18
623.914	19
624.676	19
625.438	18
626.199	18
626.961	14
627.722	15
628.484	17
629.245	15
630.006	14
630.768	13
631.529	14
632.29	13
633.051	13
633.812	12
634.573	14
635.333	10
636.094	13
636.855	12
637.615	11
638.376	11
639.136	10
639.896	9
640.657	10
641.417	9
642.177	6
642.937	8
643.697	7
644.457	9
645.216	6
645.976	10
646.736	7
647.495	8
648.255	8
649.014	8
649.774	7
650.533	6
651.292	9
652.051	6
652.81	7
653.569	6
654.328	7
655.087	6
655.846	6
656.604	7
657.363	5
658.121	4
658.88	7
659.638	5
660.397	5
661.155	7
661.913	8
662.671	8
663.429	5
664.187	2
664.945	2
665.703	5
666.46	5
667.218	6
667.976	6
668.733	6
669.49	4
670.248	3
671.005	4
671.762	4
672.519	5
673.276	4
674.033	4
674.79	5
675.547	2
676.304	5
677.06	5
677.817	5
678.574	4
679.33	1
680.086	5
680.843	3
681.599	4
682.355	4
683.111	5
683.867	3
684.623	6
685.379	6
686.135	5
686.89	5
687.646	3
688.402	2
689.157	3
689.912	3
690.668	2
691.423	5
692.178	4
692.933	4
693.688	6
694.443	5
695.198	6
695.953	6
696.708	3
697.462	2
698.217	4
698.972	2
699.726	6
700.48	1
701.235	3
701.989	3
702.743	4
703.497	4
704.251	3
705.005	6
705.759	4
706.513	3
707.266	4
708.02	3
708.774	4
709.527	1
710.28	6
711.034	1
711.787	4
712.54	5
713.293	4
714.046	3
714.799	2
715.552	2
716.305	2
717.058	4
717.81	4
718.563	2
719.315	4
720.068	2
720.82	4
721.573	2
722.325	4
723.077	4
723.829	3
724.581	5
725.333	5
726.085	4
726.836	4
727.588	2
728.34	6
729.091	3
729.843	4
730.594	2
731.346	4
732.097	5
732.848	6
733.599	5
734.35	3
735.101	4
735.852	3
736.603	2
737.354	6
738.104	3
738.855	5
739.605	7
740.356	7
741.106	2
741.856	3
742.607	7
743.357	4
744.107	5
744.857	4
745.607	5
746.357	5
747.106	6
747.856	3
748.606	5
749.355	6
750.105	1
750.854	5
751.603	5
752.353	6
753.102	7
753.851	4
754.6	6
755.349	4
756.098	5
756.847	6
757.595	5
758.344	8
759.093	5
759.841	6
760.589	6
761.338	8
762.086	5
762.834	5
763.582	6
764.331	6
765.079	6
765.826	7
766.574	6
767.322	7
768.07	4
768.817	7
769.565	7
770.312	4
771.06	8
771.807	6
772.554	6
773.302	8
774.049	7
774.796	7
775.543	9
776.29	9
777.036	8
777.783	8
778.53	4
779.276	7
780.023	7
780.769	9
781.516	9
782.262	9
783.008	9
783.754	6
784.5	7
785.246	7
785.992	8
786.738	8
787.484	7
788.23	10
788.975	8
789.721	7
790.466	7
791.212	8
791.957	10
792.702	6
793.447	9
794.193	7
794.938	7
795.683	8
796.427	7
797.172	8
797.917	7
798.662	6
799.406	7
800.151	5
800.895	7
801.64	8
802.384	5
803.128	6
803.872	7
804.616	7
805.36	5
806.104	5
806.848	6
807.592	9
808.336	4
809.079	6
809.823	8
810.566	6
811.31	5
812.053	7
812.796	6
813.539	2
814.283	2
815.026	7
815.769	5
816.511	6
817.254	6
817.997	5
818.74	5
819.482	5
820.225	2
820.967	4
821.71	4
822.452	6
823.194	4
823.936	6
824.678	1
825.42	5
826.162	3
826.904	4
827.646	2
828.388	3
829.129	5
829.871	6
830.612	4
831.354	4
832.095	5
832.836	3
833.577	4
834.319	4
835.06	1
835.801	3
836.542	5
837.282	3
838.023	2
838.764	2
839.504	4
840.245	6
840.985	4
841.726	4
842.466	2
843.206	4
843.946	3
844.687	2
845.427	2
846.166	2
846.906	4
847.646	4
848.386	5
849.125	3
849.865	5
850.605	3
851.344	3
852.083	3
852.823	2
853.562	4
854.301	3
855.04	4
855.779	3
856.518	1
857.257	4
857.995	2
858.734	4
859.473	0
860.211	1
860.95	3
861.688	3
862.426	4
863.165	1
863.903	2
864.641	4
865.379	1
866.117	1
866.855	1
867.593	1
868.33	1
869.068	3
869.806	2
870.543	2
871.28	2
872.018	1
872.755	3
873.492	2
874.229	3
874.967	0
875.703	1
876.44	4
877.177	1
877.914	4
878.651	2
879.387	2
880.124	1
880.86	1
881.597	-1
882.333	2
883.069	1
883.806	2
884.542	-1
885.278	1
886.014	1
886.749	2
887.485	0
888.221	2
888.957	1
889.692	1
890.428	2
891.163	0
891.899	0
892.634	2
893.369	2
894.104	2
894.839	0
895.574	0
896.309	-2
897.044	0
897.779	2
898.514	2
899.248	0
899.983	0
900.717	1
901.452	0
902.186	0
902.92	0
903.654	0
904.389	0
905.123	1
905.857	1
906.59	-1
907.324	0
908.058	1
908.792	0
909.525	3
910.259	0
910.992	0
911.726	1
912.459	2
913.192	2
913.925	1
914.658	0
915.391	-1
916.124	0
916.857	1
917.59	0
918.323	1
919.055	1
919.788	1
920.521	1
921.253	1
921.985	-1
922.718	1
923.45	2
924.182	0
924.914	1
925.646	0
926.378	0
927.11	2
927.841	2
928.573	-1
929.305	0
930.036	1
930.768	-1
931.499	0
932.23	0
932.962	1
933.693	0
934.424	2
935.155	2
935.886	3
936.617	1
937.348	1
938.078	0
938.809	2
939.54	-1
940.27	1
941.001	0
941.731	0
942.461	-1
943.191	1
943.922	0
944.652	0
945.382	1
946.112	-1
946.841	-2
947.571	0
948.301	0
949.031	0
949.76	-1
950.49	1
951.219	-1
951.948	0
952.678	0
953.407	2
954.136	-2
954.865	2
955.594	-3
956.323	0
957.052	0
957.78	-1
958.509	1
959.238	1
959.966	0
960.695	-1
961.423	0
962.151	-1
962.88	-1
963.608	3
964.336	-1
965.064	1
965.792	-1
966.52	2
967.247	0
967.975	-2
968.703	-1
969.43	-1
970.158	2
970.885	0
971.613	2
972.34	0
973.067	1
973.794	2
974.521	-1
975.248	1
975.975	2
976.702	2
977.429	-2
978.156	0
978.882	0
979.609	-2
980.335	2
981.062	-1
981.788	1
982.514	2
983.24	0
983.967	1
984.693	-2
985.419	0
986.144	-1
986.87	1
987.596	1
988.322	0
989.047	0
989.773	1
990.498	1
991.224	0
991.949	1
992.674	1
993.399	-2
994.124	0
994.849	0
995.574	1
996.299	0
997.024	0
997.749	1
998.473	1
999.198	-1
999.922	-1
1000.647	-2
1001.371	3
1002.095	-1
1002.82	0
1003.544	-3
1004.268	3
1004.992	0
1005.716	0
1006.439	3
1007.163	1
1007.887	2
1008.611	0
1009.334	-2
1010.058	-1
1010.781	0
1011.504	-1
1012.228	-2
1012.951	-1
1013.674	1
1014.397	0
1015.12	1
