节点500_285_QEPB04081__539__15-04-31-295.txt的数据

Date: Wed Nov 12 15:04:31 CST 2025
User: PC
Spectrometer: QEPB0408
触发模式: 0
积分时间 (秒): 1.000000E-2
Scans to average: 1
启用暗噪声校正: true
启用非线性校正: false
滑动平均宽度: 0
X轴模式: Wavelengths
Number of Pixels in Spectrum: 1044
>>>>>Begin Spectral Data<<<<<
220.843	0.5
221.644	0.5
222.444	3.5
223.244	0.5
224.045	2.5
224.845	1.5
225.645	1.5
226.445	0.5
227.245	1.5
228.045	0.5
228.845	-0.5
229.645	2.5
230.444	1.5
231.244	2.5
232.043	4.5
232.843	1.5
233.642	1.5
234.442	4.5
235.241	1.5
236.04	2.5
236.839	1.5
237.638	3.5
238.437	3.5
239.236	3.5
240.035	3.5
240.833	6.5
241.632	2.5
242.43	4.5
243.229	4.5
244.027	3.5
244.826	6.5
245.624	4.5
246.422	3.5
247.22	6.5
248.018	4.5
248.816	4.5
249.614	6.5
250.412	2.5
251.21	5.5
252.007	4.5
252.805	4.5
253.602	5.5
254.4	5.5
255.197	7.5
255.994	9.5
256.791	7.5
257.589	8.5
258.386	6.5
259.183	7.5
259.979	9.5
260.776	8.5
261.573	8.5
262.37	9.5
263.166	9.5
263.963	7.5
264.759	10.5
265.556	9.5
266.352	14.5
267.148	12.5
267.944	13.5
268.74	13.5
269.536	11.5
270.332	13.5
271.128	12.5
271.924	16.5
272.719	16.5
273.515	13.5
274.311	14.5
275.106	14.5
275.901	15.5
276.697	16.5
277.492	17.5
278.287	16.5
279.082	14.5
279.877	16.5
280.672	19.5
281.467	18.5
282.262	17.5
283.056	18.5
283.851	14.5
284.646	17.5
285.44	17.5
286.234	18.5
287.029	20.5
287.823	18.5
288.617	19.5
289.411	15.5
290.205	16.5
290.999	15.5
291.793	19.5
292.587	17.5
293.381	14.5
294.174	18.5
294.968	14.5
295.761	15.5
296.555	14.5
297.348	13.5
298.141	15.5
298.935	17.5
299.728	12.5
300.521	14.5
301.314	14.5
302.107	13.5
302.899	11.5
303.692	13.5
304.485	11.5
305.277	12.5
306.07	12.5
306.862	13.5
307.655	13.5
308.447	11.5
309.239	13.5
310.031	10.5
310.823	9.5
311.615	9.5
312.407	8.5
313.199	9.5
313.991	8.5
314.783	10.5
315.574	8.5
316.366	7.5
317.157	9.5
317.949	7.5
318.74	6.5
319.531	6.5
320.322	7.5
321.113	6.5
321.904	6.5
322.695	8.5
323.486	7.5
324.277	7.5
325.068	5.5
325.858	5.5
326.649	4.5
327.439	6.5
328.23	7.5
329.02	4.5
329.81	4.5
330.6	5.5
331.391	6.5
332.181	8.5
332.971	6.5
333.76	7.5
334.55	8.5
335.34	7.5
336.13	6.5
336.919	6.5
337.709	4.5
338.498	7.5
339.287	6.5
340.077	3.5
340.866	6.5
341.655	8.5
342.444	2.5
343.233	9.5
344.022	4.5
344.811	5.5
345.6	7.5
346.388	5.5
347.177	5.5
347.965	6.5
348.754	6.5
349.542	5.5
350.33	4.5
351.119	5.5
351.907	7.5
352.695	4.5
353.483	3.5
354.271	4.5
355.059	4.5
355.846	6.5
356.634	4.5
357.422	4.5
358.209	2.5
358.997	5.5
359.784	6.5
360.571	4.5
361.359	4.5
362.146	6.5
362.933	5.5
363.72	3.5
364.507	4.5
365.294	6.5
366.081	2.5
366.867	6.5
367.654	2.5
368.44	3.5
369.227	4.5
370.013	4.5
370.8	6.5
371.586	3.5
372.372	4.5
373.158	6.5
373.944	3.5
374.73	4.5
375.516	1.5
376.302	4.5
377.088	6.5
377.873	7.5
378.659	6.5
379.445	3.5
380.23	4.5
381.015	2.5
381.801	2.5
382.586	4.5
383.371	6.5
384.156	4.5
384.941	4.5
385.726	5.5
386.511	5.5
387.296	4.5
388.08	5.5
388.865	6.5
389.649	6.5
390.434	5.5
391.218	6.5
392.003	5.5
392.787	5.5
393.571	4.5
394.355	3.5
395.139	6.5
395.923	4.5
396.707	7.5
397.491	6.5
398.274	4.5
399.058	7.5
399.842	7.5
400.625	6.5
401.408	5.5
402.192	4.5
402.975	5.5
403.758	5.5
404.541	8.5
405.324	5.5
406.107	7.5
406.89	6.5
407.673	6.5
408.456	7.5
409.238	8.5
410.021	10.5
410.803	9.5
411.586	10.5
412.368	7.5
413.151	10.5
413.933	7.5
414.715	8.5
415.497	8.5
416.279	8.5
417.061	10.5
417.843	8.5
418.624	7.5
419.406	11.5
420.188	9.5
420.969	8.5
421.751	9.5
422.532	9.5
423.313	9.5
424.095	9.5
424.876	11.5
425.657	9.5
426.438	13.5
427.219	12.5
428	11.5
428.78	13.5
429.561	9.5
430.342	12.5
431.122	12.5
431.903	13.5
432.683	12.5
433.464	12.5
434.244	15.5
435.024	14.5
435.804	18.5
436.584	19.5
437.364	17.5
438.144	17.5
438.924	19.5
439.704	19.5
440.483	21.5
441.263	21.5
442.042	22.5
442.822	26.5
443.601	28.5
444.38	28.5
445.16	32.5
445.939	33.5
446.718	39.5
447.497	40.5
448.276	41.5
449.054	45.5
449.833	48.5
450.612	53.5
451.391	57.5
452.169	62.5
452.948	70.5
453.726	74.5
454.504	85.5
455.282	92.5
456.061	103.5
456.839	116.5
457.617	131.5
458.395	142.5
459.172	153.5
459.95	172.5
460.728	194.5
461.506	217.5
462.283	242.5
463.061	267.5
463.838	307.5
464.615	334.5
465.393	370.5
466.17	417.5
466.947	464.5
467.724	513.5
468.501	572.5
469.278	649.5
470.055	706.5
470.831	789.5
471.608	862.5
472.385	982.5
473.161	1078.5
473.938	1185.5
474.714	1309.5
475.49	1452.5
476.266	1602.5
477.043	1739.5
477.819	1921.5
478.595	2118.5
479.371	2346.5
480.146	2581.5
480.922	2818.5
481.698	3088.5
482.473	3414.5
483.249	3764.5
484.024	4127.5
484.8	4536.5
485.575	4926.5
486.35	5427.5
487.126	5907.5
487.901	6441.5
488.676	7063.5
489.451	7722.5
490.225	8448.5
491	9156.5
491.775	10031.5
492.55	10846.5
493.324	11760.5
494.099	12658.5
494.873	13607.5
495.647	14667.5
496.422	15786.5
497.196	16845.5
497.97	17963.5
498.744	19098.5
499.518	20220.5
500.292	21304.5
501.066	22339.5
501.839	23310.5
502.613	24230.5
503.387	25009.5
504.16	25710.5
504.934	26079.5
505.707	26333.5
506.48	26471.5
507.253	26569.5
508.027	26473.5
508.8	26192.5
509.573	25896.5
510.346	25358.5
511.118	24766.5
511.891	24091.5
512.664	23292.5
513.437	22452.5
514.209	21669.5
514.982	20718.5
515.754	19827.5
516.526	19061.5
517.298	18255.5
518.071	17483.5
518.843	16756.5
519.615	16189.5
520.387	15474.5
521.159	14869.5
521.93	14297.5
522.702	13760.5
523.474	13144.5
524.245	12600.5
525.017	12007.5
525.788	11586.5
526.56	11098.5
527.331	10562.5
528.102	10132.5
528.873	9673.5
529.644	9169.5
530.415	8733.5
531.186	8318.5
531.957	7909.5
532.728	7515.5
533.498	7138.5
534.269	6716.5
535.039	6374.5
535.81	6024.5
536.58	5694.5
537.351	5361.5
538.121	5063.5
538.891	4810.5
539.661	4544.5
540.431	4317.5
541.201	4060.5
541.971	3864.5
542.741	3639.5
543.51	3454.5
544.28	3308.5
545.05	3145.5
545.819	2998.5
546.588	2833.5
547.358	2696.5
548.127	2540.5
548.896	2431.5
549.665	2305.5
550.434	2180.5
551.203	2079.5
551.972	1965.5
552.741	1871.5
553.51	1739.5
554.278	1658.5
555.047	1553.5
555.815	1463.5
556.584	1388.5
557.352	1308.5
558.121	1253.5
558.889	1175.5
559.657	1109.5
560.425	1047.5
561.193	995.5
561.961	932.5
562.729	888.5
563.496	831.5
564.264	782.5
565.032	738.5
565.799	711.5
566.567	661.5
567.334	624.5
568.101	592.5
568.869	555.5
569.636	528.5
570.403	500.5
571.17	467.5
571.937	445.5
572.704	417.5
573.471	386.5
574.237	372.5
575.004	345.5
575.771	339.5
576.537	310.5
577.303	293.5
578.07	269.5
578.836	262.5
579.602	247.5
580.368	226.5
581.134	221.5
581.9	209.5
582.666	197.5
583.432	187.5
584.198	174.5
584.964	166.5
585.729	164.5
586.495	150.5
587.26	141.5
588.025	132.5
588.791	130.5
589.556	121.5
590.321	112.5
591.086	113.5
591.851	100.5
592.616	97.5
593.381	92.5
594.146	89.5
594.911	84.5
595.675	81.5
596.44	77.5
597.204	75.5
597.969	72.5
598.733	66.5
599.497	61.5
600.261	63.5
601.025	60.5
601.79	56.5
602.553	54.5
603.317	51.5
604.081	48.5
604.845	47.5
605.609	44.5
606.372	44.5
607.136	41.5
607.899	38.5
608.662	37.5
609.426	36.5
610.189	37.5
610.952	33.5
611.715	30.5
612.478	31.5
613.241	29.5
614.004	25.5
614.767	27.5
615.529	29.5
616.292	26.5
617.055	22.5
617.817	23.5
618.579	20.5
619.342	22.5
620.104	20.5
620.866	21.5
621.628	18.5
622.39	17.5
623.152	17.5
623.914	17.5
624.676	18.5
625.438	15.5
626.199	14.5
626.961	12.5
627.722	14.5
628.484	14.5
629.245	12.5
630.006	14.5
630.768	10.5
631.529	11.5
632.29	11.5
633.051	11.5
633.812	11.5
634.573	11.5
635.333	12.5
636.094	8.5
636.855	7.5
637.615	11.5
638.376	9.5
639.136	9.5
639.896	9.5
640.657	11.5
641.417	9.5
642.177	8.5
642.937	7.5
643.697	6.5
644.457	9.5
645.216	7.5
645.976	7.5
646.736	8.5
647.495	8.5
648.255	9.5
649.014	6.5
649.774	10.5
650.533	5.5
651.292	7.5
652.051	7.5
652.81	6.5
653.569	9.5
654.328	6.5
655.087	5.5
655.846	6.5
656.604	5.5
657.363	8.5
658.121	4.5
658.88	7.5
659.638	6.5
660.397	3.5
661.155	5.5
661.913	6.5
662.671	5.5
663.429	5.5
664.187	3.5
664.945	4.5
665.703	3.5
666.46	3.5
667.218	3.5
667.976	7.5
668.733	6.5
669.49	3.5
670.248	4.5
671.005	5.5
671.762	2.5
672.519	2.5
673.276	3.5
674.033	6.5
674.79	4.5
675.547	5.5
676.304	2.5
677.06	2.5
677.817	3.5
678.574	4.5
679.33	2.5
680.086	4.5
680.843	2.5
681.599	2.5
682.355	5.5
683.111	2.5
683.867	5.5
684.623	2.5
685.379	1.5
686.135	4.5
686.89	1.5
687.646	4.5
688.402	2.5
689.157	3.5
689.912	0.5
690.668	3.5
691.423	4.5
692.178	1.5
692.933	3.5
693.688	4.5
694.443	3.5
695.198	1.5
695.953	1.5
696.708	3.5
697.462	2.5
698.217	3.5
698.972	3.5
699.726	1.5
700.48	2.5
701.235	2.5
701.989	2.5
702.743	2.5
703.497	6.5
704.251	3.5
705.005	1.5
705.759	1.5
706.513	3.5
707.266	3.5
708.02	2.5
708.774	2.5
709.527	2.5
710.28	1.5
711.034	4.5
711.787	1.5
712.54	4.5
713.293	2.5
714.046	1.5
714.799	3.5
715.552	1.5
716.305	4.5
717.058	2.5
717.81	1.5
718.563	3.5
719.315	2.5
720.068	2.5
720.82	0.5
721.573	7.5
722.325	3.5
723.077	4.5
723.829	2.5
724.581	1.5
725.333	3.5
726.085	2.5
726.836	1.5
727.588	4.5
728.34	4.5
729.091	1.5
729.843	4.5
730.594	4.5
731.346	3.5
732.097	2.5
732.848	3.5
733.599	2.5
734.35	3.5
735.101	1.5
735.852	3.5
736.603	2.5
737.354	3.5
738.104	5.5
738.855	4.5
739.605	3.5
740.356	3.5
741.106	3.5
741.856	4.5
742.607	3.5
743.357	6.5
744.107	4.5
744.857	1.5
745.607	2.5
746.357	5.5
747.106	5.5
747.856	3.5
748.606	4.5
749.355	3.5
750.105	4.5
750.854	2.5
751.603	5.5
752.353	4.5
753.102	4.5
753.851	6.5
754.6	1.5
755.349	4.5
756.098	4.5
756.847	3.5
757.595	5.5
758.344	3.5
759.093	5.5
759.841	6.5
760.589	4.5
761.338	5.5
762.086	5.5
762.834	5.5
763.582	7.5
764.331	6.5
765.079	5.5
765.826	5.5
766.574	4.5
767.322	6.5
768.07	6.5
768.817	5.5
769.565	6.5
770.312	7.5
771.06	6.5
771.807	7.5
772.554	5.5
773.302	7.5
774.049	4.5
774.796	8.5
775.543	5.5
776.29	9.5
777.036	8.5
777.783	7.5
778.53	9.5
779.276	4.5
780.023	9.5
780.769	8.5
781.516	5.5
782.262	8.5
783.008	8.5
783.754	8.5
784.5	7.5
785.246	5.5
785.992	9.5
786.738	5.5
787.484	9.5
788.23	7.5
788.975	11.5
789.721	9.5
790.466	5.5
791.212	7.5
791.957	8.5
792.702	8.5
793.447	5.5
794.193	7.5
794.938	9.5
795.683	5.5
796.427	8.5
797.172	6.5
797.917	7.5
798.662	8.5
799.406	6.5
800.151	6.5
800.895	7.5
801.64	8.5
802.384	5.5
803.128	9.5
803.872	7.5
804.616	4.5
805.36	7.5
806.104	8.5
806.848	6.5
807.592	5.5
808.336	4.5
809.079	6.5
809.823	5.5
810.566	6.5
811.31	3.5
812.053	4.5
812.796	5.5
813.539	3.5
814.283	5.5
815.026	4.5
815.769	4.5
816.511	5.5
817.254	5.5
817.997	6.5
818.74	5.5
819.482	2.5
820.225	3.5
820.967	4.5
821.71	5.5
822.452	5.5
823.194	4.5
823.936	1.5
824.678	1.5
825.42	2.5
826.162	4.5
826.904	3.5
827.646	4.5
828.388	3.5
829.129	3.5
829.871	3.5
830.612	3.5
831.354	3.5
832.095	4.5
832.836	3.5
833.577	3.5
834.319	1.5
835.06	5.5
835.801	2.5
836.542	5.5
837.282	3.5
838.023	4.5
838.764	4.5
839.504	2.5
840.245	3.5
840.985	0.5
841.726	3.5
842.466	3.5
843.206	2.5
843.946	3.5
844.687	2.5
845.427	0.5
846.166	2.5
846.906	0.5
847.646	5.5
848.386	1.5
849.125	6.5
849.865	0.5
850.605	3.5
851.344	1.5
852.083	-0.5
852.823	1.5
853.562	0.5
854.301	5.5
855.04	2.5
855.779	2.5
856.518	3.5
857.257	0.5
857.995	1.5
858.734	1.5
859.473	2.5
860.211	1.5
860.95	3.5
861.688	1.5
862.426	0.5
863.165	1.5
863.903	2.5
864.641	1.5
865.379	-0.5
866.117	1.5
866.855	2.5
867.593	1.5
868.33	3.5
869.068	-1.5
869.806	-0.5
870.543	1.5
871.28	1.5
872.018	0.5
872.755	1.5
873.492	-0.5
874.229	3.5
874.967	0.5
875.703	-0.5
876.44	-1.5
877.177	2.5
877.914	0.5
878.651	2.5
879.387	0.5
880.124	-0.5
880.86	0.5
881.597	0.5
882.333	1.5
883.069	-0.5
883.806	0.5
884.542	1.5
885.278	0.5
886.014	4.5
886.749	0.5
887.485	2.5
888.221	3.5
888.957	-1.5
889.692	1.5
890.428	-0.5
891.163	0.5
891.899	0.5
892.634	-0.5
893.369	1.5
894.104	-2.5
894.839	-0.5
895.574	-0.5
896.309	1.5
897.044	-1.5
897.779	1.5
898.514	0.5
899.248	-0.5
899.983	-0.5
900.717	0.5
901.452	-0.5
902.186	0.5
902.92	1.5
903.654	-1.5
904.389	-0.5
905.123	1.5
905.857	0.5
906.59	0.5
907.324	-0.5
908.058	1.5
908.792	1.5
909.525	1.5
910.259	2.5
910.992	-1.5
911.726	1.5
912.459	-0.5
913.192	-2.5
913.925	0.5
914.658	-1.5
915.391	0.5
916.124	-0.5
916.857	-0.5
917.59	0.5
918.323	-0.5
919.055	-0.5
919.788	0.5
920.521	0.5
921.253	1.5
921.985	-2.5
922.718	-1.5
923.45	0.5
924.182	1.5
924.914	-2.5
925.646	-2.5
926.378	0.5
927.11	-2.5
927.841	-1.5
928.573	-0.5
929.305	0.5
930.036	-0.5
930.768	1.5
931.499	-1.5
932.23	-1.5
932.962	-0.5
933.693	-0.5
934.424	1.5
935.155	0.5
935.886	-0.5
936.617	2.5
937.348	-0.5
938.078	-2.5
938.809	0.5
939.54	0.5
940.27	-0.5
941.001	0.5
941.731	0.5
942.461	0.5
943.191	-0.5
943.922	-1.5
944.652	-1.5
945.382	0.5
946.112	-1.5
946.841	-0.5
947.571	1.5
948.301	0.5
949.031	-1.5
949.76	1.5
950.49	1.5
951.219	0.5
951.948	0.5
952.678	-3.5
953.407	0.5
954.136	0.5
954.865	-0.5
955.594	-0.5
956.323	-2.5
957.052	0.5
957.78	-0.5
958.509	-0.5
959.238	0.5
959.966	0.5
960.695	0.5
961.423	-1.5
962.151	0.5
962.88	-0.5
963.608	-0.5
964.336	0.5
965.064	-0.5
965.792	-0.5
966.52	-0.5
967.247	0.5
967.975	0.5
968.703	-0.5
969.43	-0.5
970.158	-1.5
970.885	-0.5
971.613	-0.5
972.34	0.5
973.067	0.5
973.794	-0.5
974.521	-0.5
975.248	0.5
975.975	1.5
976.702	0.5
977.429	0.5
978.156	0.5
978.882	1.5
979.609	-2.5
980.335	-1.5
981.062	-0.5
981.788	-1.5
982.514	-2.5
983.24	-2.5
983.967	-1.5
984.693	0.5
985.419	-2.5
986.144	-1.5
986.87	0.5
987.596	-1.5
988.322	0.5
989.047	-2.5
989.773	1.5
990.498	-2.5
991.224	2.5
991.949	-0.5
992.674	1.5
993.399	0.5
994.124	-1.5
994.849	-0.5
995.574	0.5
996.299	0.5
997.024	1.5
997.749	-0.5
998.473	1.5
999.198	-1.5
999.922	-0.5
1000.647	0.5
1001.371	4.5
1002.095	-0.5
1002.82	-1.5
1003.544	-1.5
1004.268	0.5
1004.992	-1.5
1005.716	-0.5
1006.439	0.5
1007.163	0.5
1007.887	1.5
1008.611	-2.5
1009.334	-0.5
1010.058	-1.5
1010.781	-0.5
1011.504	-1.5
1012.228	0.5
1012.951	1.5
1013.674	-0.5
1014.397	-1.5
1015.12	-0.5
