节点500_285_QEPB04081__188__14-58-41-134.txt的数据

Date: Wed Nov 12 14:58:41 CST 2025
User: PC
Spectrometer: QEPB0408
触发模式: 0
积分时间 (秒): 1.000000E-2
Scans to average: 1
启用暗噪声校正: true
启用非线性校正: false
滑动平均宽度: 0
X轴模式: Wavelengths
Number of Pixels in Spectrum: 1044
>>>>>Begin Spectral Data<<<<<
220.843	4.12
221.644	4.12
222.444	2.12
223.244	1.12
224.045	3.12
224.845	3.12
225.645	2.12
226.445	3.12
227.245	4.12
228.045	2.12
228.845	2.12
229.645	4.12
230.444	2.12
231.244	3.12
232.043	3.12
232.843	5.12
233.642	4.12
234.442	3.12
235.241	4.12
236.04	2.12
236.839	6.12
237.638	2.12
238.437	2.12
239.236	2.12
240.035	2.12
240.833	5.12
241.632	6.12
242.43	5.12
243.229	5.12
244.027	5.12
244.826	6.12
245.624	7.12
246.422	8.12
247.22	5.12
248.018	5.12
248.816	7.12
249.614	6.12
250.412	9.12
251.21	8.12
252.007	6.12
252.805	6.12
253.602	7.12
254.4	8.12
255.197	8.12
255.994	10.12
256.791	9.12
257.589	10.12
258.386	7.12
259.183	9.12
259.979	11.12
260.776	12.12
261.573	11.12
262.37	10.12
263.166	12.12
263.963	13.12
264.759	12.12
265.556	12.12
266.352	15.12
267.148	12.12
267.944	13.12
268.74	13.12
269.536	16.12
270.332	14.12
271.128	16.12
271.924	15.12
272.719	16.12
273.515	16.12
274.311	19.12
275.106	20.12
275.901	17.12
276.697	21.12
277.492	18.12
278.287	19.12
279.082	22.12
279.877	17.12
280.672	18.12
281.467	21.12
282.262	18.12
283.056	21.12
283.851	18.12
284.646	20.12
285.44	19.12
286.234	19.12
287.029	21.12
287.823	20.12
288.617	19.12
289.411	15.12
290.205	20.12
290.999	20.12
291.793	19.12
292.587	20.12
293.381	19.12
294.174	20.12
294.968	14.12
295.761	19.12
296.555	18.12
297.348	15.12
298.141	17.12
298.935	17.12
299.728	15.12
300.521	14.12
301.314	15.12
302.107	13.12
302.899	13.12
303.692	12.12
304.485	13.12
305.277	16.12
306.07	14.12
306.862	12.12
307.655	14.12
308.447	15.12
309.239	10.12
310.031	13.12
310.823	11.12
311.615	12.12
312.407	11.12
313.199	10.12
313.991	8.12
314.783	10.12
315.574	10.12
316.366	9.12
317.157	9.12
317.949	10.12
318.74	9.12
319.531	7.12
320.322	6.12
321.113	8.12
321.904	9.12
322.695	11.12
323.486	7.12
324.277	8.12
325.068	6.12
325.858	8.12
326.649	10.12
327.439	7.12
328.23	9.12
329.02	7.12
329.81	6.12
330.6	11.12
331.391	6.12
332.181	9.12
332.971	8.12
333.76	8.12
334.55	8.12
335.34	7.12
336.13	8.12
336.919	7.12
337.709	7.12
338.498	6.12
339.287	7.12
340.077	6.12
340.866	6.12
341.655	7.12
342.444	7.12
343.233	8.12
344.022	7.12
344.811	7.12
345.6	5.12
346.388	7.12
347.177	7.12
347.965	2.12
348.754	8.12
349.542	6.12
350.33	7.12
351.119	5.12
351.907	8.12
352.695	7.12
353.483	7.12
354.271	3.12
355.059	7.12
355.846	6.12
356.634	8.12
357.422	7.12
358.209	7.12
358.997	8.12
359.784	5.12
360.571	7.12
361.359	6.12
362.146	7.12
362.933	7.12
363.72	7.12
364.507	7.12
365.294	6.12
366.081	5.12
366.867	5.12
367.654	8.12
368.44	4.12
369.227	3.12
370.013	8.12
370.8	4.12
371.586	6.12
372.372	7.12
373.158	5.12
373.944	5.12
374.73	6.12
375.516	8.12
376.302	4.12
377.088	5.12
377.873	5.12
378.659	7.12
379.445	6.12
380.23	5.12
381.015	4.12
381.801	6.12
382.586	6.12
383.371	4.12
384.156	7.12
384.941	8.12
385.726	6.12
386.511	5.12
387.296	7.12
388.08	4.12
388.865	5.12
389.649	5.12
390.434	8.12
391.218	7.12
392.003	8.12
392.787	4.12
393.571	8.12
394.355	6.12
395.139	6.12
395.923	9.12
396.707	8.12
397.491	6.12
398.274	7.12
399.058	7.12
399.842	9.12
400.625	9.12
401.408	9.12
402.192	9.12
402.975	7.12
403.758	7.12
404.541	7.12
405.324	9.12
406.107	9.12
406.89	6.12
407.673	7.12
408.456	9.12
409.238	12.12
410.021	10.12
410.803	8.12
411.586	11.12
412.368	11.12
413.151	10.12
413.933	10.12
414.715	10.12
415.497	8.12
416.279	10.12
417.061	12.12
417.843	8.12
418.624	10.12
419.406	8.12
420.188	11.12
420.969	11.12
421.751	11.12
422.532	12.12
423.313	13.12
424.095	11.12
424.876	11.12
425.657	12.12
426.438	13.12
427.219	12.12
428	15.12
428.78	12.12
429.561	15.12
430.342	14.12
431.122	17.12
431.903	16.12
432.683	13.12
433.464	16.12
434.244	16.12
435.024	19.12
435.804	17.12
436.584	21.12
437.364	19.12
438.144	20.12
438.924	20.12
439.704	21.12
440.483	23.12
441.263	24.12
442.042	24.12
442.822	29.12
443.601	28.12
444.38	29.12
445.16	34.12
445.939	34.12
446.718	34.12
447.497	40.12
448.276	42.12
449.054	44.12
449.833	49.12
450.612	52.12
451.391	52.12
452.169	60.12
452.948	64.12
453.726	74.12
454.504	79.12
455.282	88.12
456.061	98.12
456.839	106.12
457.617	121.12
458.395	132.12
459.172	146.12
459.95	164.12
460.728	183.12
461.506	205.12
462.283	223.12
463.061	247.12
463.838	283.12
464.615	317.12
465.393	358.12
466.17	394.12
466.947	429.12
467.724	491.12
468.501	546.12
469.278	602.12
470.055	672.12
470.831	750.12
471.608	824.12
472.385	934.12
473.161	1025.12
473.938	1147.12
474.714	1271.12
475.49	1412.12
476.266	1569.12
477.043	1748.12
477.819	1933.12
478.595	2132.12
479.371	2343.12
480.146	2590.12
480.922	2865.12
481.698	3184.12
482.473	3517.12
483.249	3876.12
484.024	4256.12
484.8	4706.12
485.575	5181.12
486.35	5691.12
487.126	6254.12
487.901	6931.12
488.676	7601.12
489.451	8280.12
490.225	9086.12
491	9949.12
491.775	10897.12
492.55	11906.12
493.324	12915.12
494.099	13917.12
494.873	15028.12
495.647	16242.12
496.422	17428.12
497.196	18688.12
497.97	19913.12
498.744	21168.12
499.518	22339.12
500.292	23513.12
501.066	24598.12
501.839	25586.12
502.613	26489.12
503.387	27168.12
504.16	27780.12
504.934	28010.12
505.707	28156.12
506.48	28114.12
507.253	27925.12
508.027	27609.12
508.8	27246.12
509.573	26790.12
510.346	26027.12
511.118	25185.12
511.891	24262.12
512.664	23329.12
513.437	22468.12
514.209	21480.12
514.982	20510.12
515.754	19628.12
516.526	18745.12
517.298	17901.12
518.071	17131.12
518.843	16437.12
519.615	15821.12
520.387	15218.12
521.159	14605.12
521.93	13990.12
522.702	13458.12
523.474	12883.12
524.245	12360.12
525.017	11803.12
525.788	11339.12
526.56	10823.12
527.331	10316.12
528.102	9843.12
528.873	9370.12
529.644	8901.12
530.415	8468.12
531.186	8033.12
531.957	7618.12
532.728	7198.12
533.498	6822.12
534.269	6407.12
535.039	6093.12
535.81	5716.12
536.58	5413.12
537.351	5094.12
538.121	4808.12
538.891	4564.12
539.661	4334.12
540.431	4063.12
541.201	3856.12
541.971	3632.12
542.741	3470.12
543.51	3304.12
544.28	3131.12
545.05	2977.12
545.819	2834.12
546.588	2674.12
547.358	2555.12
548.127	2430.12
548.896	2319.12
549.665	2182.12
550.434	2080.12
551.203	1952.12
551.972	1871.12
552.741	1743.12
553.51	1653.12
554.278	1565.12
555.047	1469.12
555.815	1396.12
556.584	1314.12
557.352	1235.12
558.121	1165.12
558.889	1098.12
559.657	1046.12
560.425	976.12
561.193	915.12
561.961	873.12
562.729	824.12
563.496	774.12
564.264	736.12
565.032	695.12
565.799	665.12
566.567	631.12
567.334	594.12
568.101	560.12
568.869	519.12
569.636	490.12
570.403	472.12
571.17	442.12
571.937	408.12
572.704	400.12
573.471	372.12
574.237	356.12
575.004	330.12
575.771	320.12
576.537	288.12
577.303	275.12
578.07	257.12
578.836	244.12
579.602	229.12
580.368	217.12
581.134	208.12
581.9	193.12
582.666	183.12
583.432	179.12
584.198	173.12
584.964	157.12
585.729	152.12
586.495	139.12
587.26	135.12
588.025	128.12
588.791	124.12
589.556	114.12
590.321	109.12
591.086	103.12
591.851	93.12
592.616	91.12
593.381	90.12
594.146	89.12
594.911	84.12
595.675	75.12
596.44	75.12
597.204	68.12
597.969	66.12
598.733	66.12
599.497	60.12
600.261	61.12
601.025	55.12
601.79	52.12
602.553	52.12
603.317	47.12
604.081	49.12
604.845	42.12
605.609	42.12
606.372	44.12
607.136	41.12
607.899	36.12
608.662	34.12
609.426	37.12
610.189	34.12
610.952	33.12
611.715	34.12
612.478	31.12
613.241	31.12
614.004	26.12
614.767	25.12
615.529	25.12
616.292	25.12
617.055	25.12
617.817	21.12
618.579	25.12
619.342	24.12
620.104	23.12
620.866	20.12
621.628	16.12
622.39	19.12
623.152	18.12
623.914	17.12
624.676	18.12
625.438	18.12
626.199	16.12
626.961	17.12
627.722	15.12
628.484	16.12
629.245	17.12
630.006	15.12
630.768	12.12
631.529	15.12
632.29	13.12
633.051	16.12
633.812	14.12
634.573	10.12
635.333	11.12
636.094	13.12
636.855	12.12
637.615	11.12
638.376	10.12
639.136	11.12
639.896	11.12
640.657	10.12
641.417	7.12
642.177	11.12
642.937	9.12
643.697	9.12
644.457	10.12
645.216	9.12
645.976	9.12
646.736	9.12
647.495	8.12
648.255	8.12
649.014	6.12
649.774	8.12
650.533	9.12
651.292	9.12
652.051	8.12
652.81	7.12
653.569	6.12
654.328	4.12
655.087	10.12
655.846	6.12
656.604	6.12
657.363	9.12
658.121	7.12
658.88	8.12
659.638	4.12
660.397	7.12
661.155	7.12
661.913	6.12
662.671	6.12
663.429	3.12
664.187	5.12
664.945	5.12
665.703	6.12
666.46	5.12
667.218	7.12
667.976	5.12
668.733	6.12
669.49	7.12
670.248	5.12
671.005	7.12
671.762	6.12
672.519	5.12
673.276	8.12
674.033	4.12
674.79	4.12
675.547	7.12
676.304	5.12
677.06	5.12
677.817	5.12
678.574	7.12
679.33	3.12
680.086	4.12
680.843	5.12
681.599	5.12
682.355	4.12
683.111	3.12
683.867	4.12
684.623	4.12
685.379	4.12
686.135	3.12
686.89	4.12
687.646	7.12
688.402	4.12
689.157	5.12
689.912	5.12
690.668	5.12
691.423	7.12
692.178	4.12
692.933	6.12
693.688	5.12
694.443	2.12
695.198	4.12
695.953	6.12
696.708	4.12
697.462	4.12
698.217	6.12
698.972	3.12
699.726	5.12
700.48	5.12
701.235	4.12
701.989	3.12
702.743	7.12
703.497	4.12
704.251	4.12
705.005	3.12
705.759	4.12
706.513	6.12
707.266	4.12
708.02	3.12
708.774	7.12
709.527	6.12
710.28	2.12
711.034	4.12
711.787	5.12
712.54	4.12
713.293	4.12
714.046	3.12
714.799	3.12
715.552	5.12
716.305	4.12
717.058	3.12
717.81	4.12
718.563	4.12
719.315	5.12
720.068	7.12
720.82	5.12
721.573	3.12
722.325	4.12
723.077	7.12
723.829	4.12
724.581	4.12
725.333	4.12
726.085	7.12
726.836	5.12
727.588	5.12
728.34	4.12
729.091	6.12
729.843	7.12
730.594	4.12
731.346	6.12
732.097	6.12
732.848	4.12
733.599	3.12
734.35	4.12
735.101	4.12
735.852	5.12
736.603	6.12
737.354	3.12
738.104	4.12
738.855	4.12
739.605	5.12
740.356	6.12
741.106	5.12
741.856	6.12
742.607	7.12
743.357	5.12
744.107	4.12
744.857	6.12
745.607	6.12
746.357	7.12
747.106	7.12
747.856	5.12
748.606	7.12
749.355	7.12
750.105	4.12
750.854	5.12
751.603	6.12
752.353	6.12
753.102	4.12
753.851	6.12
754.6	5.12
755.349	7.12
756.098	5.12
756.847	4.12
757.595	7.12
758.344	7.12
759.093	7.12
759.841	5.12
760.589	5.12
761.338	10.12
762.086	7.12
762.834	10.12
763.582	8.12
764.331	8.12
765.079	7.12
765.826	7.12
766.574	8.12
767.322	7.12
768.07	8.12
768.817	9.12
769.565	9.12
770.312	8.12
771.06	7.12
771.807	8.12
772.554	10.12
773.302	9.12
774.049	10.12
774.796	7.12
775.543	9.12
776.29	8.12
777.036	10.12
777.783	9.12
778.53	10.12
779.276	9.12
780.023	10.12
780.769	11.12
781.516	7.12
782.262	11.12
783.008	7.12
783.754	9.12
784.5	10.12
785.246	10.12
785.992	12.12
786.738	10.12
787.484	8.12
788.23	8.12
788.975	10.12
789.721	10.12
790.466	9.12
791.212	8.12
791.957	10.12
792.702	9.12
793.447	10.12
794.193	10.12
794.938	10.12
795.683	10.12
796.427	8.12
797.172	9.12
797.917	8.12
798.662	9.12
799.406	8.12
800.151	7.12
800.895	9.12
801.64	5.12
802.384	9.12
803.128	10.12
803.872	6.12
804.616	10.12
805.36	10.12
806.104	9.12
806.848	7.12
807.592	7.12
808.336	6.12
809.079	9.12
809.823	5.12
810.566	7.12
811.31	6.12
812.053	6.12
812.796	8.12
813.539	7.12
814.283	5.12
815.026	8.12
815.769	6.12
816.511	6.12
817.254	6.12
817.997	5.12
818.74	2.12
819.482	3.12
820.225	7.12
820.967	2.12
821.71	7.12
822.452	7.12
823.194	4.12
823.936	4.12
824.678	7.12
825.42	7.12
826.162	3.12
826.904	6.12
827.646	4.12
828.388	6.12
829.129	4.12
829.871	2.12
830.612	4.12
831.354	6.12
832.095	4.12
832.836	5.12
833.577	3.12
834.319	4.12
835.06	3.12
835.801	5.12
836.542	4.12
837.282	6.12
838.023	5.12
838.764	4.12
839.504	5.12
840.245	3.12
840.985	5.12
841.726	4.12
842.466	1.12
843.206	5.12
843.946	4.12
844.687	3.12
845.427	3.12
846.166	4.12
846.906	4.12
847.646	3.12
848.386	6.12
849.125	4.12
849.865	6.12
850.605	4.12
851.344	2.12
852.083	3.12
852.823	3.12
853.562	5.12
854.301	2.12
855.04	1.12
855.779	3.12
856.518	0.12
857.257	2.12
857.995	3.12
858.734	4.12
859.473	2.12
860.211	2.12
860.95	2.12
861.688	2.12
862.426	5.12
863.165	4.12
863.903	1.12
864.641	2.12
865.379	0.12
866.117	2.12
866.855	3.12
867.593	3.12
868.33	0.12
869.068	1.12
869.806	3.12
870.543	2.12
871.28	3.12
872.018	1.12
872.755	2.12
873.492	1.12
874.229	5.12
874.967	1.12
875.703	1.12
876.44	1.12
877.177	2.12
877.914	0.12
878.651	0.12
879.387	2.12
880.124	2.12
880.86	0.12
881.597	-0.88
882.333	2.12
883.069	2.12
883.806	2.12
884.542	1.12
885.278	2.12
886.014	2.12
886.749	1.12
887.485	2.12
888.221	0.12
888.957	1.12
889.692	-0.88
890.428	2.12
891.163	0.12
891.899	1.12
892.634	2.12
893.369	1.12
894.104	2.12
894.839	0.12
895.574	3.12
896.309	2.12
897.044	0.12
897.779	2.12
898.514	0.12
899.248	1.12
899.983	1.12
900.717	2.12
901.452	0.12
902.186	2.12
902.92	2.12
903.654	0.12
904.389	0.12
905.123	1.12
905.857	2.12
906.59	2.12
907.324	1.12
908.058	2.12
908.792	1.12
909.525	2.12
910.259	0.12
910.992	0.12
911.726	3.12
912.459	1.12
913.192	0.12
913.925	0.12
914.658	0.12
915.391	1.12
916.124	1.12
916.857	0.12
917.59	1.12
918.323	2.12
919.055	4.12
919.788	0.12
920.521	2.12
921.253	1.12
921.985	1.12
922.718	0.12
923.45	1.12
924.182	2.12
924.914	0.12
925.646	4.12
926.378	1.12
927.11	4.12
927.841	1.12
928.573	2.12
929.305	0.12
930.036	3.12
930.768	2.12
931.499	1.12
932.23	0.12
932.962	2.12
933.693	0.12
934.424	1.12
935.155	1.12
935.886	0.12
936.617	1.12
937.348	0.12
938.078	0.12
938.809	1.12
939.54	2.12
940.27	-0.88
941.001	-1.88
941.731	2.12
942.461	2.12
943.191	2.12
943.922	0.12
944.652	0.12
945.382	2.12
946.112	1.12
946.841	2.12
947.571	2.12
948.301	2.12
949.031	2.12
949.76	0.12
950.49	2.12
951.219	2.12
951.948	0.12
952.678	1.12
953.407	0.12
954.136	0.12
954.865	2.12
955.594	3.12
956.323	3.12
957.052	2.12
957.78	3.12
958.509	-0.88
959.238	1.12
959.966	-0.88
960.695	1.12
961.423	0.12
962.151	0.12
962.88	1.12
963.608	2.12
964.336	1.12
965.064	2.12
965.792	2.12
966.52	1.12
967.247	-0.88
967.975	0.12
968.703	-0.88
969.43	3.12
970.158	0.12
970.885	1.12
971.613	0.12
972.34	2.12
973.067	4.12
973.794	2.12
974.521	2.12
975.248	0.12
975.975	1.12
976.702	1.12
977.429	-0.88
978.156	1.12
978.882	2.12
979.609	1.12
980.335	-0.88
981.062	-0.88
981.788	2.12
982.514	1.12
983.24	0.12
983.967	1.12
984.693	0.12
985.419	1.12
986.144	0.12
986.87	4.12
987.596	1.12
988.322	0.12
989.047	1.12
989.773	1.12
990.498	2.12
991.224	-0.88
991.949	1.12
992.674	1.12
993.399	0.12
994.124	-0.88
994.849	-1.88
995.574	2.12
996.299	0.12
997.024	1.12
997.749	1.12
998.473	2.12
999.198	2.12
999.922	1.12
1000.647	0.12
1001.371	3.12
1002.095	-0.88
1002.82	-1.88
1003.544	-1.88
1004.268	2.12
1004.992	1.12
1005.716	2.12
1006.439	0.12
1007.163	2.12
1007.887	2.12
1008.611	0.12
1009.334	1.12
1010.058	1.12
1010.781	-1.88
1011.504	2.12
1012.228	1.12
1012.951	1.12
1013.674	-0.88
1014.397	0.12
1015.12	1.12
