节点500_285_QEPB04081__514__15-04-06-329.txt的数据

Date: Wed Nov 12 15:04:06 CST 2025
User: PC
Spectrometer: QEPB0408
触发模式: 0
积分时间 (秒): 1.000000E-2
Scans to average: 1
启用暗噪声校正: true
启用非线性校正: false
滑动平均宽度: 0
X轴模式: Wavelengths
Number of Pixels in Spectrum: 1044
>>>>>Begin Spectral Data<<<<<
220.843	1
221.644	3
222.444	1
223.244	1
224.045	3
224.845	3
225.645	3
226.445	2
227.245	2
228.045	4
228.845	3
229.645	5
230.444	3
231.244	5
232.043	6
232.843	5
233.642	6
234.442	3
235.241	6
236.04	5
236.839	4
237.638	7
238.437	3
239.236	6
240.035	6
240.833	4
241.632	7
242.43	6
243.229	7
244.027	7
244.826	7
245.624	6
246.422	9
247.22	7
248.018	6
248.816	8
249.614	6
250.412	7
251.21	8
252.007	7
252.805	7
253.602	8
254.4	7
255.197	9
255.994	10
256.791	8
257.589	9
258.386	10
259.183	11
259.979	9
260.776	11
261.573	10
262.37	10
263.166	12
263.963	13
264.759	13
265.556	13
266.352	11
267.148	15
267.944	13
268.74	14
269.536	18
270.332	15
271.128	14
271.924	16
272.719	14
273.515	16
274.311	16
275.106	14
275.901	16
276.697	15
277.492	17
278.287	17
279.082	19
279.877	15
280.672	19
281.467	18
282.262	18
283.056	18
283.851	19
284.646	21
285.44	19
286.234	17
287.029	18
287.823	19
288.617	19
289.411	18
290.205	21
290.999	19
291.793	18
292.587	18
293.381	21
294.174	18
294.968	18
295.761	16
296.555	16
297.348	17
298.141	15
298.935	18
299.728	16
300.521	14
301.314	15
302.107	16
302.899	14
303.692	15
304.485	14
305.277	14
306.07	14
306.862	14
307.655	13
308.447	12
309.239	14
310.031	12
310.823	12
311.615	12
312.407	14
313.199	11
313.991	10
314.783	9
315.574	10
316.366	11
317.157	9
317.949	10
318.74	9
319.531	9
320.322	8
321.113	6
321.904	9
322.695	8
323.486	9
324.277	9
325.068	6
325.858	7
326.649	8
327.439	7
328.23	6
329.02	7
329.81	7
330.6	9
331.391	9
332.181	8
332.971	8
333.76	8
334.55	7
335.34	8
336.13	6
336.919	7
337.709	9
338.498	8
339.287	7
340.077	5
340.866	5
341.655	7
342.444	10
343.233	7
344.022	8
344.811	9
345.6	8
346.388	7
347.177	7
347.965	7
348.754	8
349.542	8
350.33	8
351.119	8
351.907	6
352.695	5
353.483	6
354.271	6
355.059	4
355.846	8
356.634	6
357.422	5
358.209	8
358.997	6
359.784	9
360.571	8
361.359	6
362.146	7
362.933	6
363.72	6
364.507	5
365.294	8
366.081	8
366.867	6
367.654	7
368.44	6
369.227	6
370.013	5
370.8	5
371.586	5
372.372	6
373.158	6
373.944	6
374.73	6
375.516	6
376.302	8
377.088	7
377.873	7
378.659	6
379.445	7
380.23	8
381.015	6
381.801	6
382.586	6
383.371	6
384.156	6
384.941	6
385.726	7
386.511	5
387.296	7
388.08	7
388.865	7
389.649	8
390.434	5
391.218	6
392.003	5
392.787	8
393.571	6
394.355	7
395.139	9
395.923	8
396.707	8
397.491	7
398.274	9
399.058	10
399.842	7
400.625	10
401.408	5
402.192	9
402.975	8
403.758	8
404.541	8
405.324	9
406.107	8
406.89	8
407.673	9
408.456	9
409.238	8
410.021	11
410.803	8
411.586	8
412.368	7
413.151	9
413.933	8
414.715	9
415.497	11
416.279	9
417.061	9
417.843	13
418.624	11
419.406	11
420.188	9
420.969	11
421.751	13
422.532	11
423.313	13
424.095	14
424.876	12
425.657	11
426.438	13
427.219	10
428	13
428.78	13
429.561	15
430.342	14
431.122	16
431.903	18
432.683	15
433.464	17
434.244	18
435.024	16
435.804	19
436.584	19
437.364	21
438.144	20
438.924	23
439.704	22
440.483	24
441.263	25
442.042	29
442.822	29
443.601	29
444.38	31
445.16	32
445.939	36
446.718	40
447.497	40
448.276	43
449.054	46
449.833	52
450.612	55
451.391	61
452.169	67
452.948	73
453.726	77
454.504	84
455.282	97
456.061	105
456.839	114
457.617	129
458.395	141
459.172	154
459.95	173
460.728	194
461.506	219
462.283	245
463.061	269
463.838	305
464.615	334
465.393	373
466.17	421
466.947	464
467.724	518
468.501	577
469.278	642
470.055	703
470.831	779
471.608	873
472.385	965
473.161	1071
473.938	1185
474.714	1311
475.49	1452
476.266	1603
477.043	1749
477.819	1932
478.595	2125
479.371	2337
480.146	2600
480.922	2823
481.698	3123
482.473	3433
483.249	3746
484.024	4118
484.8	4557
485.575	4946
486.35	5436
487.126	5949
487.901	6518
488.676	7149
489.451	7779
490.225	8490
491	9245
491.775	10051
492.55	10983
493.324	11811
494.099	12739
494.873	13731
495.647	14835
496.422	15951
497.196	16958
497.97	18085
498.744	19294
499.518	20327
500.292	21499
501.066	22542
501.839	23516
502.613	24408
503.387	25221
504.16	25836
504.934	26237
505.707	26547
506.48	26712
507.253	26670
508.027	26484
508.8	26307
509.573	25995
510.346	25429
511.118	24775
511.891	24045
512.664	23350
513.437	22523
514.209	21563
514.982	20774
515.754	19853
516.526	19011
517.298	18164
518.071	17421
518.843	16744
519.615	16145
520.387	15551
521.159	14919
521.93	14304
522.702	13746
523.474	13170
524.245	12564
525.017	12070
525.788	11597
526.56	11100
527.331	10545
528.102	10137
528.873	9619
529.644	9179
530.415	8769
531.186	8286
531.957	7922
532.728	7496
533.498	7138
534.269	6731
535.039	6388
535.81	6020
536.58	5687
537.351	5363
538.121	5056
538.891	4813
539.661	4527
540.431	4256
541.201	4027
541.971	3851
542.741	3637
543.51	3455
544.28	3294
545.05	3127
545.819	2979
546.588	2831
547.358	2681
548.127	2560
548.896	2427
549.665	2303
550.434	2161
551.203	2053
551.972	1955
552.741	1855
553.51	1747
554.278	1629
555.047	1560
555.815	1474
556.584	1395
557.352	1314
558.121	1236
558.889	1165
559.657	1113
560.425	1053
561.193	987
561.961	930
562.729	879
563.496	831
564.264	781
565.032	741
565.799	711
566.567	667
567.334	630
568.101	595
568.869	559
569.636	538
570.403	491
571.17	473
571.937	443
572.704	422
573.471	393
574.237	376
575.004	347
575.771	338
576.537	306
577.303	296
578.07	278
578.836	259
579.602	245
580.368	230
581.134	220
581.9	212
582.666	195
583.432	186
584.198	177
584.964	169
585.729	156
586.495	157
587.26	141
588.025	138
588.791	128
589.556	123
590.321	116
591.086	108
591.851	100
592.616	99
593.381	90
594.146	91
594.911	87
595.675	84
596.44	77
597.204	75
597.969	79
598.733	66
599.497	69
600.261	62
601.025	60
601.79	57
602.553	56
603.317	53
604.081	52
604.845	47
605.609	47
606.372	44
607.136	46
607.899	39
608.662	40
609.426	36
610.189	35
610.952	35
611.715	35
612.478	31
613.241	33
614.004	28
614.767	29
615.529	27
616.292	27
617.055	26
617.817	21
618.579	26
619.342	23
620.104	22
620.866	21
621.628	24
622.39	19
623.152	21
623.914	20
624.676	20
625.438	19
626.199	18
626.961	19
627.722	17
628.484	17
629.245	14
630.006	15
630.768	15
631.529	16
632.29	14
633.051	15
633.812	15
634.573	12
635.333	14
636.094	11
636.855	11
637.615	12
638.376	10
639.136	12
639.896	11
640.657	12
641.417	10
642.177	9
642.937	11
643.697	8
644.457	11
645.216	10
645.976	9
646.736	10
647.495	10
648.255	8
649.014	5
649.774	10
650.533	7
651.292	7
652.051	7
652.81	5
653.569	9
654.328	8
655.087	8
655.846	10
656.604	7
657.363	8
658.121	7
658.88	7
659.638	7
660.397	7
661.155	5
661.913	7
662.671	8
663.429	8
664.187	5
664.945	6
665.703	7
666.46	5
667.218	4
667.976	7
668.733	5
669.49	7
670.248	5
671.005	5
671.762	6
672.519	4
673.276	6
674.033	7
674.79	6
675.547	5
676.304	5
677.06	2
677.817	4
678.574	5
679.33	3
680.086	7
680.843	4
681.599	5
682.355	5
683.111	4
683.867	7
684.623	4
685.379	3
686.135	5
686.89	3
687.646	5
688.402	6
689.157	5
689.912	6
690.668	6
691.423	7
692.178	6
692.933	7
693.688	5
694.443	4
695.198	6
695.953	5
696.708	5
697.462	3
698.217	4
698.972	4
699.726	5
700.48	6
701.235	4
701.989	5
702.743	6
703.497	6
704.251	6
705.005	5
705.759	4
706.513	3
707.266	7
708.02	4
708.774	5
709.527	5
710.28	5
711.034	5
711.787	4
712.54	8
713.293	5
714.046	4
714.799	6
715.552	5
716.305	3
717.058	6
717.81	5
718.563	4
719.315	4
720.068	5
720.82	3
721.573	5
722.325	5
723.077	5
723.829	6
724.581	3
725.333	6
726.085	4
726.836	6
727.588	3
728.34	4
729.091	6
729.843	7
730.594	4
731.346	4
732.097	5
732.848	8
733.599	6
734.35	4
735.101	6
735.852	6
736.603	4
737.354	7
738.104	3
738.855	6
739.605	5
740.356	4
741.106	6
741.856	6
742.607	7
743.357	6
744.107	4
744.857	4
745.607	7
746.357	5
747.106	6
747.856	6
748.606	7
749.355	8
750.105	6
750.854	6
751.603	10
752.353	5
753.102	6
753.851	6
754.6	6
755.349	6
756.098	7
756.847	3
757.595	8
758.344	5
759.093	8
759.841	6
760.589	8
761.338	7
762.086	6
762.834	7
763.582	7
764.331	9
765.079	6
765.826	7
766.574	8
767.322	9
768.07	7
768.817	5
769.565	11
770.312	9
771.06	8
771.807	8
772.554	8
773.302	8
774.049	7
774.796	9
775.543	8
776.29	7
777.036	8
777.783	8
778.53	9
779.276	9
780.023	9
780.769	7
781.516	10
782.262	8
783.008	11
783.754	8
784.5	9
785.246	10
785.992	11
786.738	9
787.484	8
788.23	7
788.975	9
789.721	10
790.466	10
791.212	10
791.957	7
792.702	10
793.447	10
794.193	9
794.938	11
795.683	8
796.427	9
797.172	12
797.917	7
798.662	8
799.406	8
800.151	8
800.895	7
801.64	9
802.384	9
803.128	8
803.872	8
804.616	5
805.36	9
806.104	8
806.848	9
807.592	7
808.336	8
809.079	6
809.823	5
810.566	6
811.31	7
812.053	9
812.796	10
813.539	5
814.283	8
815.026	4
815.769	5
816.511	5
817.254	6
817.997	3
818.74	5
819.482	6
820.225	6
820.967	7
821.71	6
822.452	5
823.194	5
823.936	4
824.678	7
825.42	4
826.162	7
826.904	5
827.646	5
828.388	5
829.129	6
829.871	3
830.612	4
831.354	5
832.095	6
832.836	4
833.577	3
834.319	4
835.06	6
835.801	4
836.542	4
837.282	4
838.023	4
838.764	4
839.504	3
840.245	4
840.985	2
841.726	4
842.466	5
843.206	3
843.946	4
844.687	1
845.427	6
846.166	7
846.906	3
847.646	4
848.386	3
849.125	7
849.865	5
850.605	5
851.344	4
852.083	1
852.823	3
853.562	4
854.301	3
855.04	1
855.779	2
856.518	3
857.257	2
857.995	4
858.734	2
859.473	3
860.211	3
860.95	5
861.688	5
862.426	2
863.165	4
863.903	4
864.641	2
865.379	4
866.117	4
866.855	4
867.593	3
868.33	2
869.068	1
869.806	4
870.543	5
871.28	2
872.018	3
872.755	1
873.492	3
874.229	2
874.967	1
875.703	3
876.44	3
877.177	5
877.914	1
878.651	3
879.387	3
880.124	2
880.86	2
881.597	1
882.333	3
883.069	0
883.806	2
884.542	1
885.278	1
886.014	3
886.749	1
887.485	4
888.221	3
888.957	0
889.692	3
890.428	-1
891.163	2
891.899	4
892.634	2
893.369	1
894.104	2
894.839	4
895.574	2
896.309	2
897.044	2
897.779	1
898.514	2
899.248	2
899.983	2
900.717	2
901.452	3
902.186	2
902.92	-1
903.654	2
904.389	0
905.123	3
905.857	0
906.59	2
907.324	2
908.058	1
908.792	3
909.525	1
910.259	1
910.992	1
911.726	2
912.459	3
913.192	1
913.925	4
914.658	0
915.391	3
916.124	2
916.857	1
917.59	1
918.323	1
919.055	3
919.788	2
920.521	3
921.253	1
921.985	-1
922.718	2
923.45	-1
924.182	3
924.914	4
925.646	3
926.378	1
927.11	1
927.841	3
928.573	0
929.305	3
930.036	1
930.768	-1
931.499	1
932.23	2
932.962	2
933.693	1
934.424	2
935.155	1
935.886	2
936.617	1
937.348	-1
938.078	1
938.809	2
939.54	1
940.27	3
941.001	2
941.731	1
942.461	1
943.191	2
943.922	0
944.652	3
945.382	1
946.112	-1
946.841	2
947.571	0
948.301	1
949.031	2
949.76	1
950.49	1
951.219	2
951.948	2
952.678	1
953.407	2
954.136	3
954.865	0
955.594	2
956.323	2
957.052	1
957.78	3
958.509	3
959.238	2
959.966	2
960.695	0
961.423	2
962.151	-1
962.88	2
963.608	1
964.336	2
965.064	1
965.792	1
966.52	1
967.247	1
967.975	3
968.703	0
969.43	4
970.158	1
970.885	4
971.613	1
972.34	3
973.067	3
973.794	1
974.521	3
975.248	-1
975.975	2
976.702	0
977.429	2
978.156	3
978.882	0
979.609	1
980.335	-1
981.062	1
981.788	3
982.514	-1
983.24	1
983.967	2
984.693	2
985.419	1
986.144	1
986.87	3
987.596	2
988.322	1
989.047	1
989.773	1
990.498	1
991.224	1
991.949	2
992.674	2
993.399	2
994.124	-1
994.849	0
995.574	1
996.299	3
997.024	1
997.749	-1
998.473	2
999.198	0
999.922	2
1000.647	0
1001.371	5
1002.095	-3
1002.82	1
1003.544	-1
1004.268	3
1004.992	0
1005.716	2
1006.439	3
1007.163	3
1007.887	5
1008.611	2
1009.334	2
1010.058	3
1010.781	2
1011.504	1
1012.228	-1
1012.951	0
1013.674	-1
1014.397	0
1015.12	-1
