节点500_285_QEPB04081__621__15-05-53-086.txt的数据

Date: Wed Nov 12 15:05:53 CST 2025
User: PC
Spectrometer: QEPB0408
触发模式: 0
积分时间 (秒): 1.000000E-2
Scans to average: 1
启用暗噪声校正: true
启用非线性校正: false
滑动平均宽度: 0
X轴模式: Wavelengths
Number of Pixels in Spectrum: 1044
>>>>>Begin Spectral Data<<<<<
220.843	0.88
221.644	0.88
222.444	2.88
223.244	1.88
224.045	2.88
224.845	0.88
225.645	1.88
226.445	-1.12
227.245	1.88
228.045	2.88
228.845	0.88
229.645	3.88
230.444	1.88
231.244	4.88
232.043	0.88
232.843	2.88
233.642	2.88
234.442	2.88
235.241	4.88
236.04	2.88
236.839	3.88
237.638	2.88
238.437	3.88
239.236	1.88
240.035	2.88
240.833	4.88
241.632	2.88
242.43	3.88
243.229	6.88
244.027	2.88
244.826	1.88
245.624	4.88
246.422	4.88
247.22	2.88
248.018	4.88
248.816	4.88
249.614	6.88
250.412	6.88
251.21	4.88
252.007	6.88
252.805	5.88
253.602	6.88
254.4	6.88
255.197	7.88
255.994	7.88
256.791	7.88
257.589	6.88
258.386	7.88
259.183	8.88
259.979	6.88
260.776	9.88
261.573	9.88
262.37	12.88
263.166	8.88
263.963	10.88
264.759	7.88
265.556	9.88
266.352	11.88
267.148	11.88
267.944	11.88
268.74	11.88
269.536	11.88
270.332	15.88
271.128	12.88
271.924	13.88
272.719	13.88
273.515	15.88
274.311	15.88
275.106	13.88
275.901	15.88
276.697	16.88
277.492	16.88
278.287	16.88
279.082	16.88
279.877	16.88
280.672	15.88
281.467	16.88
282.262	17.88
283.056	15.88
283.851	16.88
284.646	16.88
285.44	18.88
286.234	16.88
287.029	15.88
287.823	17.88
288.617	16.88
289.411	16.88
290.205	15.88
290.999	15.88
291.793	17.88
292.587	15.88
293.381	16.88
294.174	15.88
294.968	17.88
295.761	16.88
296.555	15.88
297.348	14.88
298.141	13.88
298.935	17.88
299.728	12.88
300.521	15.88
301.314	14.88
302.107	13.88
302.899	12.88
303.692	12.88
304.485	13.88
305.277	11.88
306.07	11.88
306.862	13.88
307.655	12.88
308.447	13.88
309.239	10.88
310.031	10.88
310.823	9.88
311.615	9.88
312.407	9.88
313.199	9.88
313.991	8.88
314.783	5.88
315.574	11.88
316.366	8.88
317.157	7.88
317.949	6.88
318.74	8.88
319.531	5.88
320.322	6.88
321.113	6.88
321.904	9.88
322.695	7.88
323.486	7.88
324.277	3.88
325.068	6.88
325.858	6.88
326.649	7.88
327.439	6.88
328.23	7.88
329.02	4.88
329.81	4.88
330.6	8.88
331.391	5.88
332.181	5.88
332.971	7.88
333.76	4.88
334.55	6.88
335.34	6.88
336.13	5.88
336.919	7.88
337.709	4.88
338.498	4.88
339.287	1.88
340.077	7.88
340.866	5.88
341.655	4.88
342.444	5.88
343.233	8.88
344.022	5.88
344.811	4.88
345.6	2.88
346.388	4.88
347.177	4.88
347.965	5.88
348.754	4.88
349.542	5.88
350.33	6.88
351.119	6.88
351.907	3.88
352.695	5.88
353.483	3.88
354.271	2.88
355.059	7.88
355.846	3.88
356.634	5.88
357.422	3.88
358.209	4.88
358.997	3.88
359.784	3.88
360.571	5.88
361.359	3.88
362.146	5.88
362.933	3.88
363.72	2.88
364.507	3.88
365.294	5.88
366.081	4.88
366.867	4.88
367.654	5.88
368.44	4.88
369.227	6.88
370.013	3.88
370.8	4.88
371.586	5.88
372.372	5.88
373.158	4.88
373.944	3.88
374.73	4.88
375.516	8.88
376.302	3.88
377.088	3.88
377.873	3.88
378.659	5.88
379.445	6.88
380.23	4.88
381.015	5.88
381.801	6.88
382.586	5.88
383.371	3.88
384.156	5.88
384.941	4.88
385.726	7.88
386.511	4.88
387.296	5.88
388.08	2.88
388.865	3.88
389.649	6.88
390.434	6.88
391.218	4.88
392.003	5.88
392.787	5.88
393.571	4.88
394.355	6.88
395.139	3.88
395.923	6.88
396.707	4.88
397.491	5.88
398.274	6.88
399.058	4.88
399.842	7.88
400.625	6.88
401.408	4.88
402.192	6.88
402.975	6.88
403.758	6.88
404.541	5.88
405.324	8.88
406.107	5.88
406.89	9.88
407.673	2.88
408.456	5.88
409.238	6.88
410.021	7.88
410.803	6.88
411.586	5.88
412.368	7.88
413.151	10.88
413.933	10.88
414.715	9.88
415.497	6.88
416.279	9.88
417.061	8.88
417.843	9.88
418.624	9.88
419.406	8.88
420.188	8.88
420.969	7.88
421.751	12.88
422.532	10.88
423.313	10.88
424.095	12.88
424.876	10.88
425.657	12.88
426.438	11.88
427.219	11.88
428	13.88
428.78	10.88
429.561	15.88
430.342	13.88
431.122	12.88
431.903	14.88
432.683	13.88
433.464	16.88
434.244	17.88
435.024	15.88
435.804	16.88
436.584	18.88
437.364	18.88
438.144	18.88
438.924	21.88
439.704	21.88
440.483	22.88
441.263	24.88
442.042	25.88
442.822	28.88
443.601	26.88
444.38	29.88
445.16	32.88
445.939	33.88
446.718	34.88
447.497	41.88
448.276	39.88
449.054	42.88
449.833	47.88
450.612	53.88
451.391	60.88
452.169	65.88
452.948	74.88
453.726	78.88
454.504	87.88
455.282	96.88
456.061	105.88
456.839	116.88
457.617	138.88
458.395	148.88
459.172	164.88
459.95	177.88
460.728	205.88
461.506	221.88
462.283	246.88
463.061	278.88
463.838	312.88
464.615	349.88
465.393	383.88
466.17	428.88
466.947	476.88
467.724	523.88
468.501	596.88
469.278	656.88
470.055	714.88
470.831	799.88
471.608	878.88
472.385	982.88
473.161	1092.88
473.938	1198.88
474.714	1326.88
475.49	1452.88
476.266	1605.88
477.043	1764.88
477.819	1925.88
478.595	2137.88
479.371	2359.88
480.146	2569.88
480.922	2823.88
481.698	3092.88
482.473	3390.88
483.249	3708.88
484.024	4074.88
484.8	4461.88
485.575	4863.88
486.35	5340.88
487.126	5819.88
487.901	6330.88
488.676	6913.88
489.451	7560.88
490.225	8250.88
491	8970.88
491.775	9754.88
492.55	10587.88
493.324	11456.88
494.099	12295.88
494.873	13255.88
495.647	14262.88
496.422	15288.88
497.196	16343.88
497.97	17403.88
498.744	18545.88
499.518	19567.88
500.292	20728.88
501.066	21803.88
501.839	22661.88
502.613	23587.88
503.387	24433.88
504.16	25155.88
504.934	25604.88
505.707	25834.88
506.48	26055.88
507.253	26075.88
508.027	25985.88
508.8	25897.88
509.573	25667.88
510.346	25128.88
511.118	24540.88
511.891	23963.88
512.664	23197.88
513.437	22441.88
514.209	21576.88
514.982	20789.88
515.754	19917.88
516.526	19085.88
517.298	18257.88
518.071	17500.88
518.843	16845.88
519.615	16196.88
520.387	15570.88
521.159	15006.88
521.93	14294.88
522.702	13815.88
523.474	13221.88
524.245	12627.88
525.017	12149.88
525.788	11700.88
526.56	11159.88
527.331	10652.88
528.102	10163.88
528.873	9737.88
529.644	9233.88
530.415	8876.88
531.186	8438.88
531.957	7993.88
532.728	7645.88
533.498	7254.88
534.269	6814.88
535.039	6455.88
535.81	6112.88
536.58	5792.88
537.351	5433.88
538.121	5120.88
538.891	4859.88
539.661	4605.88
540.431	4347.88
541.201	4124.88
541.971	3884.88
542.741	3699.88
543.51	3509.88
544.28	3334.88
545.05	3161.88
545.819	3011.88
546.588	2865.88
547.358	2739.88
548.127	2609.88
548.896	2476.88
549.665	2337.88
550.434	2238.88
551.203	2113.88
551.972	1996.88
552.741	1889.88
553.51	1776.88
554.278	1693.88
555.047	1591.88
555.815	1522.88
556.584	1416.88
557.352	1347.88
558.121	1265.88
558.889	1202.88
559.657	1130.88
560.425	1068.88
561.193	998.88
561.961	943.88
562.729	900.88
563.496	849.88
564.264	790.88
565.032	760.88
565.799	716.88
566.567	677.88
567.334	652.88
568.101	602.88
568.869	571.88
569.636	537.88
570.403	504.88
571.17	481.88
571.937	453.88
572.704	423.88
573.471	400.88
574.237	378.88
575.004	360.88
575.771	340.88
576.537	312.88
577.303	301.88
578.07	286.88
578.836	264.88
579.602	247.88
580.368	235.88
581.134	223.88
581.9	213.88
582.666	199.88
583.432	187.88
584.198	181.88
584.964	170.88
585.729	163.88
586.495	151.88
587.26	145.88
588.025	133.88
588.791	130.88
589.556	121.88
590.321	116.88
591.086	110.88
591.851	100.88
592.616	98.88
593.381	90.88
594.146	90.88
594.911	87.88
595.675	81.88
596.44	76.88
597.204	78.88
597.969	72.88
598.733	71.88
599.497	67.88
600.261	61.88
601.025	60.88
601.79	58.88
602.553	53.88
603.317	48.88
604.081	47.88
604.845	49.88
605.609	43.88
606.372	42.88
607.136	40.88
607.899	38.88
608.662	39.88
609.426	35.88
610.189	37.88
610.952	34.88
611.715	31.88
612.478	32.88
613.241	28.88
614.004	29.88
614.767	29.88
615.529	27.88
616.292	24.88
617.055	23.88
617.817	23.88
618.579	25.88
619.342	24.88
620.104	22.88
620.866	20.88
621.628	21.88
622.39	21.88
623.152	18.88
623.914	15.88
624.676	17.88
625.438	15.88
626.199	15.88
626.961	17.88
627.722	13.88
628.484	13.88
629.245	14.88
630.006	13.88
630.768	13.88
631.529	12.88
632.29	13.88
633.051	11.88
633.812	12.88
634.573	13.88
635.333	11.88
636.094	9.88
636.855	9.88
637.615	8.88
638.376	11.88
639.136	10.88
639.896	10.88
640.657	9.88
641.417	9.88
642.177	11.88
642.937	7.88
643.697	9.88
644.457	5.88
645.216	9.88
645.976	5.88
646.736	6.88
647.495	9.88
648.255	7.88
649.014	7.88
649.774	7.88
650.533	9.88
651.292	6.88
652.051	6.88
652.81	5.88
653.569	3.88
654.328	5.88
655.087	3.88
655.846	3.88
656.604	4.88
657.363	3.88
658.121	3.88
658.88	5.88
659.638	4.88
660.397	4.88
661.155	6.88
661.913	5.88
662.671	4.88
663.429	4.88
664.187	4.88
664.945	5.88
665.703	4.88
666.46	5.88
667.218	5.88
667.976	2.88
668.733	6.88
669.49	4.88
670.248	5.88
671.005	3.88
671.762	3.88
672.519	2.88
673.276	3.88
674.033	3.88
674.79	1.88
675.547	4.88
676.304	4.88
677.06	1.88
677.817	6.88
678.574	2.88
679.33	1.88
680.086	2.88
680.843	4.88
681.599	3.88
682.355	3.88
683.111	4.88
683.867	1.88
684.623	4.88
685.379	5.88
686.135	4.88
686.89	3.88
687.646	1.88
688.402	1.88
689.157	1.88
689.912	6.88
690.668	2.88
691.423	3.88
692.178	3.88
692.933	4.88
693.688	1.88
694.443	3.88
695.198	2.88
695.953	3.88
696.708	3.88
697.462	4.88
698.217	2.88
698.972	4.88
699.726	1.88
700.48	2.88
701.235	3.88
701.989	3.88
702.743	3.88
703.497	2.88
704.251	1.88
705.005	2.88
705.759	3.88
706.513	4.88
707.266	3.88
708.02	3.88
708.774	0.88
709.527	3.88
710.28	3.88
711.034	3.88
711.787	2.88
712.54	2.88
713.293	3.88
714.046	2.88
714.799	1.88
715.552	3.88
716.305	3.88
717.058	4.88
717.81	0.88
718.563	4.88
719.315	3.88
720.068	4.88
720.82	3.88
721.573	4.88
722.325	3.88
723.077	3.88
723.829	2.88
724.581	2.88
725.333	3.88
726.085	3.88
726.836	3.88
727.588	4.88
728.34	3.88
729.091	5.88
729.843	3.88
730.594	3.88
731.346	3.88
732.097	4.88
732.848	4.88
733.599	4.88
734.35	4.88
735.101	3.88
735.852	2.88
736.603	4.88
737.354	3.88
738.104	4.88
738.855	4.88
739.605	2.88
740.356	3.88
741.106	5.88
741.856	3.88
742.607	2.88
743.357	3.88
744.107	5.88
744.857	2.88
745.607	3.88
746.357	4.88
747.106	1.88
747.856	3.88
748.606	5.88
749.355	4.88
750.105	4.88
750.854	4.88
751.603	3.88
752.353	6.88
753.102	6.88
753.851	7.88
754.6	2.88
755.349	6.88
756.098	6.88
756.847	5.88
757.595	5.88
758.344	6.88
759.093	4.88
759.841	5.88
760.589	3.88
761.338	5.88
762.086	5.88
762.834	6.88
763.582	6.88
764.331	4.88
765.079	3.88
765.826	3.88
766.574	7.88
767.322	6.88
768.07	7.88
768.817	6.88
769.565	2.88
770.312	5.88
771.06	4.88
771.807	6.88
772.554	7.88
773.302	6.88
774.049	6.88
774.796	4.88
775.543	9.88
776.29	6.88
777.036	7.88
777.783	8.88
778.53	8.88
779.276	5.88
780.023	7.88
780.769	5.88
781.516	6.88
782.262	9.88
783.008	8.88
783.754	8.88
784.5	8.88
785.246	7.88
785.992	10.88
786.738	7.88
787.484	8.88
788.23	9.88
788.975	5.88
789.721	6.88
790.466	7.88
791.212	8.88
791.957	9.88
792.702	9.88
793.447	6.88
794.193	5.88
794.938	7.88
795.683	8.88
796.427	9.88
797.172	7.88
797.917	8.88
798.662	7.88
799.406	5.88
800.151	6.88
800.895	6.88
801.64	6.88
802.384	7.88
803.128	7.88
803.872	6.88
804.616	5.88
805.36	6.88
806.104	6.88
806.848	6.88
807.592	6.88
808.336	5.88
809.079	4.88
809.823	5.88
810.566	4.88
811.31	4.88
812.053	6.88
812.796	5.88
813.539	4.88
814.283	5.88
815.026	3.88
815.769	3.88
816.511	4.88
817.254	3.88
817.997	4.88
818.74	3.88
819.482	4.88
820.225	3.88
820.967	4.88
821.71	6.88
822.452	2.88
823.194	3.88
823.936	2.88
824.678	4.88
825.42	5.88
826.162	4.88
826.904	5.88
827.646	2.88
828.388	6.88
829.129	3.88
829.871	3.88
830.612	7.88
831.354	2.88
832.095	3.88
832.836	2.88
833.577	2.88
834.319	2.88
835.06	2.88
835.801	4.88
836.542	3.88
837.282	4.88
838.023	3.88
838.764	4.88
839.504	3.88
840.245	3.88
840.985	3.88
841.726	1.88
842.466	-0.12
843.206	-0.12
843.946	3.88
844.687	3.88
845.427	4.88
846.166	2.88
846.906	2.88
847.646	1.88
848.386	2.88
849.125	4.88
849.865	-0.12
850.605	2.88
851.344	2.88
852.083	1.88
852.823	3.88
853.562	3.88
854.301	2.88
855.04	1.88
855.779	1.88
856.518	0.88
857.257	2.88
857.995	0.88
858.734	1.88
859.473	1.88
860.211	1.88
860.95	1.88
861.688	2.88
862.426	-0.12
863.165	1.88
863.903	-0.12
864.641	1.88
865.379	0.88
866.117	-0.12
866.855	0.88
867.593	-0.12
868.33	0.88
869.068	2.88
869.806	0.88
870.543	0.88
871.28	0.88
872.018	1.88
872.755	0.88
873.492	0.88
874.229	-0.12
874.967	-2.12
875.703	0.88
876.44	2.88
877.177	2.88
877.914	0.88
878.651	0.88
879.387	1.88
880.124	-0.12
880.86	0.88
881.597	1.88
882.333	-0.12
883.069	1.88
883.806	0.88
884.542	-0.12
885.278	-0.12
886.014	0.88
886.749	3.88
887.485	1.88
888.221	-1.12
888.957	-0.12
889.692	-1.12
890.428	-1.12
891.163	0.88
891.899	-0.12
892.634	1.88
893.369	0.88
894.104	-2.12
894.839	-0.12
895.574	1.88
896.309	1.88
897.044	1.88
897.779	-0.12
898.514	-1.12
899.248	0.88
899.983	-2.12
900.717	-0.12
901.452	0.88
902.186	0.88
902.92	-2.12
903.654	0.88
904.389	0.88
905.123	1.88
905.857	-1.12
906.59	1.88
907.324	0.88
908.058	-1.12
908.792	1.88
909.525	0.88
910.259	1.88
910.992	0.88
911.726	1.88
912.459	-0.12
913.192	-0.12
913.925	0.88
914.658	0.88
915.391	0.88
916.124	-0.12
916.857	-0.12
917.59	0.88
918.323	-0.12
919.055	-1.12
919.788	0.88
920.521	-0.12
921.253	1.88
921.985	-0.12
922.718	-0.12
923.45	-0.12
924.182	-0.12
924.914	-1.12
925.646	0.88
926.378	1.88
927.11	-0.12
927.841	-0.12
928.573	0.88
929.305	1.88
930.036	2.88
930.768	-1.12
931.499	-0.12
932.23	-1.12
932.962	0.88
933.693	-2.12
934.424	-0.12
935.155	1.88
935.886	0.88
936.617	1.88
937.348	-1.12
938.078	-0.12
938.809	-1.12
939.54	1.88
940.27	0.88
941.001	-0.12
941.731	0.88
942.461	0.88
943.191	-1.12
943.922	-0.12
944.652	1.88
945.382	-1.12
946.112	2.88
946.841	0.88
947.571	0.88
948.301	-0.12
949.031	-1.12
949.76	-0.12
950.49	-0.12
951.219	-0.12
951.948	-0.12
952.678	0.88
953.407	-0.12
954.136	0.88
954.865	-0.12
955.594	-0.12
956.323	-0.12
957.052	0.88
957.78	-2.12
958.509	0.88
959.238	0.88
959.966	-2.12
960.695	-0.12
961.423	0.88
962.151	-0.12
962.88	0.88
963.608	-2.12
964.336	-1.12
965.064	0.88
965.792	0.88
966.52	0.88
967.247	-0.12
967.975	1.88
968.703	-2.12
969.43	-1.12
970.158	-0.12
970.885	-0.12
971.613	-0.12
972.34	-1.12
973.067	-0.12
973.794	-0.12
974.521	-0.12
975.248	0.88
975.975	0.88
976.702	-1.12
977.429	0.88
978.156	0.88
978.882	-3.12
979.609	1.88
980.335	-1.12
981.062	-0.12
981.788	-2.12
982.514	-1.12
983.24	2.88
983.967	-2.12
984.693	1.88
985.419	-1.12
986.144	0.88
986.87	0.88
987.596	-2.12
988.322	0.88
989.047	-1.12
989.773	1.88
990.498	-2.12
991.224	-0.12
991.949	-1.12
992.674	-1.12
993.399	-2.12
994.124	0.88
994.849	2.88
995.574	0.88
996.299	1.88
997.024	-0.12
997.749	1.88
998.473	0.88
999.198	-2.12
999.922	0.88
1000.647	-0.12
1001.371	2.88
1002.095	-2.12
1002.82	-3.12
1003.544	0.88
1004.268	-0.12
1004.992	-0.12
1005.716	0.88
1006.439	0.88
1007.163	0.88
1007.887	-0.12
1008.611	-0.12
1009.334	-0.12
1010.058	-1.12
1010.781	1.88
1011.504	0.88
1012.228	-1.12
1012.951	-0.12
1013.674	0.88
1014.397	0.88
1015.12	-0.12
