节点500_285_QEPB04081__266__14-59-58-859.txt的数据

Date: Wed Nov 12 14:59:58 CST 2025
User: PC
Spectrometer: QEPB0408
触发模式: 0
积分时间 (秒): 1.000000E-2
Scans to average: 1
启用暗噪声校正: true
启用非线性校正: false
滑动平均宽度: 0
X轴模式: Wavelengths
Number of Pixels in Spectrum: 1044
>>>>>Begin Spectral Data<<<<<
220.843	4.5
221.644	1.5
222.444	5.5
223.244	4.5
224.045	2.5
224.845	2.5
225.645	2.5
226.445	4.5
227.245	3.5
228.045	4.5
228.845	7.5
229.645	3.5
230.444	3.5
231.244	3.5
232.043	5.5
232.843	6.5
233.642	3.5
234.442	5.5
235.241	3.5
236.04	5.5
236.839	4.5
237.638	2.5
238.437	5.5
239.236	3.5
240.035	4.5
240.833	4.5
241.632	5.5
242.43	4.5
243.229	7.5
244.027	6.5
244.826	4.5
245.624	6.5
246.422	3.5
247.22	7.5
248.018	10.5
248.816	5.5
249.614	7.5
250.412	6.5
251.21	8.5
252.007	8.5
252.805	7.5
253.602	5.5
254.4	7.5
255.197	8.5
255.994	7.5
256.791	10.5
257.589	11.5
258.386	10.5
259.183	10.5
259.979	10.5
260.776	9.5
261.573	9.5
262.37	13.5
263.166	11.5
263.963	12.5
264.759	12.5
265.556	13.5
266.352	12.5
267.148	14.5
267.944	14.5
268.74	13.5
269.536	14.5
270.332	14.5
271.128	15.5
271.924	17.5
272.719	15.5
273.515	18.5
274.311	19.5
275.106	18.5
275.901	17.5
276.697	18.5
277.492	17.5
278.287	22.5
279.082	19.5
279.877	20.5
280.672	19.5
281.467	18.5
282.262	18.5
283.056	19.5
283.851	22.5
284.646	21.5
285.44	19.5
286.234	20.5
287.029	21.5
287.823	21.5
288.617	19.5
289.411	18.5
290.205	20.5
290.999	20.5
291.793	17.5
292.587	18.5
293.381	19.5
294.174	16.5
294.968	19.5
295.761	16.5
296.555	17.5
297.348	16.5
298.141	15.5
298.935	17.5
299.728	15.5
300.521	15.5
301.314	12.5
302.107	14.5
302.899	16.5
303.692	10.5
304.485	14.5
305.277	13.5
306.07	12.5
306.862	15.5
307.655	12.5
308.447	12.5
309.239	14.5
310.031	13.5
310.823	9.5
311.615	11.5
312.407	11.5
313.199	10.5
313.991	11.5
314.783	9.5
315.574	10.5
316.366	9.5
317.157	8.5
317.949	10.5
318.74	10.5
319.531	10.5
320.322	7.5
321.113	7.5
321.904	8.5
322.695	9.5
323.486	8.5
324.277	8.5
325.068	6.5
325.858	7.5
326.649	8.5
327.439	7.5
328.23	5.5
329.02	6.5
329.81	7.5
330.6	6.5
331.391	7.5
332.181	4.5
332.971	8.5
333.76	6.5
334.55	7.5
335.34	9.5
336.13	9.5
336.919	8.5
337.709	8.5
338.498	6.5
339.287	7.5
340.077	9.5
340.866	8.5
341.655	8.5
342.444	9.5
343.233	6.5
344.022	8.5
344.811	6.5
345.6	7.5
346.388	6.5
347.177	7.5
347.965	8.5
348.754	6.5
349.542	5.5
350.33	7.5
351.119	6.5
351.907	8.5
352.695	5.5
353.483	6.5
354.271	6.5
355.059	7.5
355.846	7.5
356.634	8.5
357.422	9.5
358.209	7.5
358.997	5.5
359.784	6.5
360.571	7.5
361.359	7.5
362.146	6.5
362.933	8.5
363.72	8.5
364.507	8.5
365.294	7.5
366.081	6.5
366.867	7.5
367.654	7.5
368.44	6.5
369.227	8.5
370.013	4.5
370.8	4.5
371.586	5.5
372.372	6.5
373.158	3.5
373.944	5.5
374.73	8.5
375.516	3.5
376.302	6.5
377.088	7.5
377.873	5.5
378.659	5.5
379.445	6.5
380.23	8.5
381.015	5.5
381.801	5.5
382.586	5.5
383.371	4.5
384.156	8.5
384.941	7.5
385.726	7.5
386.511	7.5
387.296	9.5
388.08	6.5
388.865	6.5
389.649	7.5
390.434	8.5
391.218	8.5
392.003	6.5
392.787	7.5
393.571	7.5
394.355	6.5
395.139	8.5
395.923	7.5
396.707	7.5
397.491	7.5
398.274	5.5
399.058	6.5
399.842	7.5
400.625	6.5
401.408	7.5
402.192	6.5
402.975	8.5
403.758	9.5
404.541	9.5
405.324	8.5
406.107	9.5
406.89	8.5
407.673	8.5
408.456	12.5
409.238	8.5
410.021	8.5
410.803	9.5
411.586	10.5
412.368	8.5
413.151	8.5
413.933	8.5
414.715	7.5
415.497	10.5
416.279	9.5
417.061	8.5
417.843	9.5
418.624	10.5
419.406	10.5
420.188	10.5
420.969	8.5
421.751	11.5
422.532	10.5
423.313	10.5
424.095	12.5
424.876	14.5
425.657	12.5
426.438	15.5
427.219	13.5
428	10.5
428.78	13.5
429.561	13.5
430.342	12.5
431.122	14.5
431.903	12.5
432.683	17.5
433.464	14.5
434.244	18.5
435.024	16.5
435.804	17.5
436.584	20.5
437.364	18.5
438.144	20.5
438.924	21.5
439.704	22.5
440.483	25.5
441.263	25.5
442.042	27.5
442.822	26.5
443.601	30.5
444.38	31.5
445.16	33.5
445.939	33.5
446.718	34.5
447.497	41.5
448.276	43.5
449.054	44.5
449.833	47.5
450.612	52.5
451.391	57.5
452.169	59.5
452.948	68.5
453.726	74.5
454.504	79.5
455.282	83.5
456.061	96.5
456.839	109.5
457.617	118.5
458.395	131.5
459.172	142.5
459.95	168.5
460.728	182.5
461.506	202.5
462.283	232.5
463.061	250.5
463.838	287.5
464.615	318.5
465.393	354.5
466.17	395.5
466.947	441.5
467.724	487.5
468.501	555.5
469.278	606.5
470.055	685.5
470.831	759.5
471.608	839.5
472.385	939.5
473.161	1040.5
473.938	1163.5
474.714	1287.5
475.49	1429.5
476.266	1596.5
477.043	1741.5
477.819	1943.5
478.595	2113.5
479.371	2336.5
480.146	2597.5
480.922	2882.5
481.698	3160.5
482.473	3484.5
483.249	3825.5
484.024	4233.5
484.8	4658.5
485.575	5103.5
486.35	5649.5
487.126	6154.5
487.901	6802.5
488.676	7432.5
489.451	8193.5
490.225	8976.5
491	9805.5
491.775	10721.5
492.55	11681.5
493.324	12702.5
494.099	13617.5
494.873	14684.5
495.647	15908.5
496.422	17043.5
497.196	18279.5
497.97	19491.5
498.744	20712.5
499.518	21871.5
500.292	23001.5
501.066	24128.5
501.839	25004.5
502.613	25902.5
503.387	26734.5
504.16	27328.5
504.934	27690.5
505.707	27769.5
506.48	27783.5
507.253	27599.5
508.027	27361.5
508.8	27064.5
509.573	26534.5
510.346	25857.5
511.118	25050.5
511.891	24243.5
512.664	23415.5
513.437	22488.5
514.209	21497.5
514.982	20615.5
515.754	19738.5
516.526	18796.5
517.298	17982.5
518.071	17230.5
518.843	16544.5
519.615	15935.5
520.387	15232.5
521.159	14704.5
521.93	14103.5
522.702	13554.5
523.474	12987.5
524.245	12401.5
525.017	11862.5
525.788	11421.5
526.56	10859.5
527.331	10367.5
528.102	9915.5
528.873	9478.5
529.644	8966.5
530.415	8572.5
531.186	8124.5
531.957	7672.5
532.728	7292.5
533.498	6910.5
534.269	6530.5
535.039	6149.5
535.81	5797.5
536.58	5502.5
537.351	5132.5
538.121	4872.5
538.891	4622.5
539.661	4411.5
540.431	4088.5
541.201	3889.5
541.971	3695.5
542.741	3506.5
543.51	3318.5
544.28	3166.5
545.05	3010.5
545.819	2864.5
546.588	2729.5
547.358	2595.5
548.127	2473.5
548.896	2327.5
549.665	2211.5
550.434	2094.5
551.203	1976.5
551.972	1879.5
552.741	1757.5
553.51	1672.5
554.278	1592.5
555.047	1490.5
555.815	1413.5
556.584	1329.5
557.352	1256.5
558.121	1176.5
558.889	1116.5
559.657	1064.5
560.425	988.5
561.193	941.5
561.961	886.5
562.729	827.5
563.496	795.5
564.264	749.5
565.032	701.5
565.799	677.5
566.567	640.5
567.334	599.5
568.101	569.5
568.869	536.5
569.636	496.5
570.403	469.5
571.17	441.5
571.937	422.5
572.704	393.5
573.471	380.5
574.237	359.5
575.004	332.5
575.771	313.5
576.537	301.5
577.303	279.5
578.07	268.5
578.836	242.5
579.602	234.5
580.368	223.5
581.134	210.5
581.9	196.5
582.666	190.5
583.432	174.5
584.198	164.5
584.964	162.5
585.729	149.5
586.495	144.5
587.26	137.5
588.025	127.5
588.791	124.5
589.556	111.5
590.321	113.5
591.086	105.5
591.851	102.5
592.616	93.5
593.381	92.5
594.146	85.5
594.911	86.5
595.675	76.5
596.44	74.5
597.204	73.5
597.969	68.5
598.733	69.5
599.497	61.5
600.261	59.5
601.025	57.5
601.79	55.5
602.553	53.5
603.317	48.5
604.081	44.5
604.845	46.5
605.609	43.5
606.372	42.5
607.136	39.5
607.899	39.5
608.662	34.5
609.426	36.5
610.189	36.5
610.952	31.5
611.715	33.5
612.478	29.5
613.241	28.5
614.004	30.5
614.767	27.5
615.529	27.5
616.292	27.5
617.055	24.5
617.817	24.5
618.579	24.5
619.342	22.5
620.104	20.5
620.866	22.5
621.628	18.5
622.39	21.5
623.152	16.5
623.914	18.5
624.676	18.5
625.438	16.5
626.199	18.5
626.961	15.5
627.722	17.5
628.484	14.5
629.245	16.5
630.006	15.5
630.768	12.5
631.529	13.5
632.29	11.5
633.051	16.5
633.812	11.5
634.573	10.5
635.333	11.5
636.094	9.5
636.855	10.5
637.615	10.5
638.376	10.5
639.136	13.5
639.896	11.5
640.657	10.5
641.417	10.5
642.177	10.5
642.937	10.5
643.697	10.5
644.457	7.5
645.216	9.5
645.976	10.5
646.736	9.5
647.495	10.5
648.255	9.5
649.014	6.5
649.774	7.5
650.533	8.5
651.292	8.5
652.051	8.5
652.81	8.5
653.569	6.5
654.328	5.5
655.087	8.5
655.846	6.5
656.604	7.5
657.363	7.5
658.121	4.5
658.88	6.5
659.638	4.5
660.397	5.5
661.155	5.5
661.913	7.5
662.671	7.5
663.429	3.5
664.187	3.5
664.945	4.5
665.703	6.5
666.46	3.5
667.218	4.5
667.976	5.5
668.733	5.5
669.49	6.5
670.248	5.5
671.005	6.5
671.762	4.5
672.519	6.5
673.276	7.5
674.033	4.5
674.79	7.5
675.547	8.5
676.304	3.5
677.06	5.5
677.817	4.5
678.574	6.5
679.33	2.5
680.086	4.5
680.843	4.5
681.599	4.5
682.355	4.5
683.111	3.5
683.867	7.5
684.623	6.5
685.379	7.5
686.135	5.5
686.89	4.5
687.646	6.5
688.402	4.5
689.157	5.5
689.912	2.5
690.668	2.5
691.423	4.5
692.178	3.5
692.933	6.5
693.688	4.5
694.443	3.5
695.198	3.5
695.953	5.5
696.708	7.5
697.462	5.5
698.217	2.5
698.972	4.5
699.726	1.5
700.48	6.5
701.235	4.5
701.989	2.5
702.743	4.5
703.497	7.5
704.251	5.5
705.005	2.5
705.759	2.5
706.513	4.5
707.266	5.5
708.02	3.5
708.774	5.5
709.527	6.5
710.28	4.5
711.034	4.5
711.787	4.5
712.54	2.5
713.293	4.5
714.046	3.5
714.799	4.5
715.552	5.5
716.305	5.5
717.058	4.5
717.81	4.5
718.563	4.5
719.315	4.5
720.068	6.5
720.82	3.5
721.573	4.5
722.325	4.5
723.077	3.5
723.829	4.5
724.581	2.5
725.333	3.5
726.085	3.5
726.836	6.5
727.588	5.5
728.34	4.5
729.091	6.5
729.843	4.5
730.594	3.5
731.346	2.5
732.097	3.5
732.848	5.5
733.599	7.5
734.35	4.5
735.101	5.5
735.852	5.5
736.603	4.5
737.354	4.5
738.104	7.5
738.855	3.5
739.605	5.5
740.356	5.5
741.106	2.5
741.856	7.5
742.607	4.5
743.357	8.5
744.107	5.5
744.857	4.5
745.607	6.5
746.357	6.5
747.106	5.5
747.856	4.5
748.606	6.5
749.355	5.5
750.105	7.5
750.854	5.5
751.603	4.5
752.353	7.5
753.102	5.5
753.851	5.5
754.6	5.5
755.349	7.5
756.098	6.5
756.847	7.5
757.595	7.5
758.344	6.5
759.093	6.5
759.841	7.5
760.589	7.5
761.338	9.5
762.086	6.5
762.834	8.5
763.582	7.5
764.331	9.5
765.079	8.5
765.826	7.5
766.574	7.5
767.322	7.5
768.07	7.5
768.817	7.5
769.565	7.5
770.312	7.5
771.06	4.5
771.807	7.5
772.554	8.5
773.302	9.5
774.049	9.5
774.796	9.5
775.543	8.5
776.29	7.5
777.036	9.5
777.783	9.5
778.53	9.5
779.276	10.5
780.023	10.5
780.769	10.5
781.516	7.5
782.262	8.5
783.008	9.5
783.754	10.5
784.5	8.5
785.246	11.5
785.992	11.5
786.738	9.5
787.484	9.5
788.23	12.5
788.975	9.5
789.721	8.5
790.466	9.5
791.212	9.5
791.957	8.5
792.702	8.5
793.447	8.5
794.193	10.5
794.938	9.5
795.683	8.5
796.427	8.5
797.172	8.5
797.917	7.5
798.662	8.5
799.406	8.5
800.151	8.5
800.895	8.5
801.64	8.5
802.384	6.5
803.128	7.5
803.872	8.5
804.616	4.5
805.36	6.5
806.104	5.5
806.848	9.5
807.592	6.5
808.336	4.5
809.079	6.5
809.823	7.5
810.566	7.5
811.31	7.5
812.053	6.5
812.796	7.5
813.539	5.5
814.283	7.5
815.026	3.5
815.769	4.5
816.511	5.5
817.254	3.5
817.997	8.5
818.74	4.5
819.482	4.5
820.225	5.5
820.967	5.5
821.71	3.5
822.452	6.5
823.194	5.5
823.936	4.5
824.678	5.5
825.42	5.5
826.162	4.5
826.904	4.5
827.646	4.5
828.388	4.5
829.129	4.5
829.871	4.5
830.612	5.5
831.354	6.5
832.095	2.5
832.836	4.5
833.577	5.5
834.319	6.5
835.06	5.5
835.801	4.5
836.542	5.5
837.282	5.5
838.023	3.5
838.764	3.5
839.504	4.5
840.245	5.5
840.985	3.5
841.726	0.5
842.466	2.5
843.206	6.5
843.946	3.5
844.687	4.5
845.427	4.5
846.166	4.5
846.906	3.5
847.646	4.5
848.386	5.5
849.125	4.5
849.865	1.5
850.605	2.5
851.344	2.5
852.083	4.5
852.823	4.5
853.562	5.5
854.301	1.5
855.04	4.5
855.779	1.5
856.518	3.5
857.257	2.5
857.995	2.5
858.734	4.5
859.473	3.5
860.211	4.5
860.95	3.5
861.688	2.5
862.426	2.5
863.165	1.5
863.903	3.5
864.641	4.5
865.379	3.5
866.117	4.5
866.855	2.5
867.593	1.5
868.33	1.5
869.068	2.5
869.806	4.5
870.543	3.5
871.28	2.5
872.018	-0.5
872.755	3.5
873.492	0.5
874.229	3.5
874.967	-1.5
875.703	2.5
876.44	3.5
877.177	-1.5
877.914	2.5
878.651	1.5
879.387	2.5
880.124	2.5
880.86	1.5
881.597	2.5
882.333	0.5
883.069	3.5
883.806	1.5
884.542	4.5
885.278	2.5
886.014	3.5
886.749	0.5
887.485	0.5
888.221	2.5
888.957	0.5
889.692	0.5
890.428	2.5
891.163	2.5
891.899	2.5
892.634	1.5
893.369	2.5
894.104	1.5
894.839	2.5
895.574	2.5
896.309	0.5
897.044	1.5
897.779	0.5
898.514	1.5
899.248	2.5
899.983	3.5
900.717	3.5
901.452	1.5
902.186	1.5
902.92	2.5
903.654	2.5
904.389	2.5
905.123	1.5
905.857	1.5
906.59	4.5
907.324	1.5
908.058	1.5
908.792	0.5
909.525	2.5
910.259	-0.5
910.992	1.5
911.726	2.5
912.459	2.5
913.192	2.5
913.925	0.5
914.658	-0.5
915.391	0.5
916.124	1.5
916.857	1.5
917.59	-0.5
918.323	3.5
919.055	-1.5
919.788	2.5
920.521	-1.5
921.253	3.5
921.985	0.5
922.718	1.5
923.45	1.5
924.182	0.5
924.914	0.5
925.646	1.5
926.378	0.5
927.11	2.5
927.841	1.5
928.573	0.5
929.305	2.5
930.036	2.5
930.768	1.5
931.499	0.5
932.23	0.5
932.962	0.5
933.693	1.5
934.424	2.5
935.155	0.5
935.886	0.5
936.617	0.5
937.348	3.5
938.078	2.5
938.809	3.5
939.54	0.5
940.27	0.5
941.001	-0.5
941.731	0.5
942.461	1.5
943.191	-0.5
943.922	2.5
944.652	2.5
945.382	1.5
946.112	1.5
946.841	1.5
947.571	1.5
948.301	-1.5
949.031	-0.5
949.76	1.5
950.49	1.5
951.219	1.5
951.948	1.5
952.678	2.5
953.407	-0.5
954.136	0.5
954.865	0.5
955.594	0.5
956.323	-0.5
957.052	1.5
957.78	0.5
958.509	1.5
959.238	-0.5
959.966	1.5
960.695	-1.5
961.423	2.5
962.151	0.5
962.88	0.5
963.608	2.5
964.336	1.5
965.064	-0.5
965.792	0.5
966.52	-0.5
967.247	2.5
967.975	-0.5
968.703	0.5
969.43	2.5
970.158	-0.5
970.885	2.5
971.613	2.5
972.34	1.5
973.067	1.5
973.794	1.5
974.521	1.5
975.248	2.5
975.975	0.5
976.702	0.5
977.429	1.5
978.156	0.5
978.882	0.5
979.609	2.5
980.335	-0.5
981.062	1.5
981.788	-1.5
982.514	1.5
983.24	2.5
983.967	1.5
984.693	1.5
985.419	2.5
986.144	1.5
986.87	0.5
987.596	0.5
988.322	1.5
989.047	0.5
989.773	1.5
990.498	2.5
991.224	2.5
991.949	0.5
992.674	2.5
993.399	1.5
994.124	1.5
994.849	0.5
995.574	1.5
996.299	0.5
997.024	0.5
997.749	-0.5
998.473	-0.5
999.198	0.5
999.922	2.5
1000.647	-0.5
1001.371	2.5
1002.095	0.5
1002.82	-2.5
1003.544	-2.5
1004.268	0.5
1004.992	2.5
1005.716	1.5
1006.439	1.5
1007.163	3.5
1007.887	2.5
1008.611	2.5
1009.334	3.5
1010.058	2.5
1010.781	2.5
1011.504	0.5
1012.228	0.5
1012.951	0.5
1013.674	1.5
1014.397	1.5
1015.12	-1.5
