节点500_285_QEPB04081__300__15-00-32-770.txt的数据

Date: Wed Nov 12 15:00:32 CST 2025
User: PC
Spectrometer: QEPB0408
触发模式: 0
积分时间 (秒): 1.000000E-2
Scans to average: 1
启用暗噪声校正: true
启用非线性校正: false
滑动平均宽度: 0
X轴模式: Wavelengths
Number of Pixels in Spectrum: 1044
>>>>>Begin Spectral Data<<<<<
220.843	0.88
221.644	0.88
222.444	0.88
223.244	1.88
224.045	1.88
224.845	1.88
225.645	0.88
226.445	2.88
227.245	1.88
228.045	3.88
228.845	-1.12
229.645	0.88
230.444	3.88
231.244	2.88
232.043	4.88
232.843	1.88
233.642	4.88
234.442	1.88
235.241	4.88
236.04	5.88
236.839	1.88
237.638	1.88
238.437	3.88
239.236	1.88
240.035	4.88
240.833	4.88
241.632	3.88
242.43	2.88
243.229	3.88
244.027	4.88
244.826	4.88
245.624	6.88
246.422	3.88
247.22	5.88
248.018	5.88
248.816	4.88
249.614	6.88
250.412	6.88
251.21	8.88
252.007	5.88
252.805	7.88
253.602	8.88
254.4	8.88
255.197	7.88
255.994	5.88
256.791	7.88
257.589	11.88
258.386	8.88
259.183	9.88
259.979	8.88
260.776	11.88
261.573	9.88
262.37	11.88
263.166	13.88
263.963	11.88
264.759	11.88
265.556	11.88
266.352	11.88
267.148	15.88
267.944	12.88
268.74	13.88
269.536	13.88
270.332	15.88
271.128	12.88
271.924	15.88
272.719	15.88
273.515	18.88
274.311	17.88
275.106	15.88
275.901	16.88
276.697	21.88
277.492	18.88
278.287	18.88
279.082	17.88
279.877	15.88
280.672	18.88
281.467	19.88
282.262	15.88
283.056	20.88
283.851	18.88
284.646	19.88
285.44	19.88
286.234	15.88
287.029	18.88
287.823	19.88
288.617	19.88
289.411	20.88
290.205	16.88
290.999	19.88
291.793	19.88
292.587	18.88
293.381	17.88
294.174	17.88
294.968	18.88
295.761	16.88
296.555	14.88
297.348	15.88
298.141	15.88
298.935	19.88
299.728	14.88
300.521	13.88
301.314	11.88
302.107	13.88
302.899	11.88
303.692	13.88
304.485	12.88
305.277	13.88
306.07	13.88
306.862	13.88
307.655	11.88
308.447	12.88
309.239	13.88
310.031	9.88
310.823	11.88
311.615	9.88
312.407	9.88
313.199	10.88
313.991	9.88
314.783	9.88
315.574	9.88
316.366	8.88
317.157	8.88
317.949	8.88
318.74	6.88
319.531	8.88
320.322	6.88
321.113	7.88
321.904	7.88
322.695	6.88
323.486	8.88
324.277	8.88
325.068	5.88
325.858	8.88
326.649	7.88
327.439	5.88
328.23	7.88
329.02	6.88
329.81	7.88
330.6	6.88
331.391	6.88
332.181	5.88
332.971	7.88
333.76	3.88
334.55	6.88
335.34	6.88
336.13	6.88
336.919	6.88
337.709	5.88
338.498	8.88
339.287	8.88
340.077	8.88
340.866	7.88
341.655	5.88
342.444	6.88
343.233	6.88
344.022	7.88
344.811	4.88
345.6	6.88
346.388	6.88
347.177	8.88
347.965	6.88
348.754	2.88
349.542	7.88
350.33	5.88
351.119	9.88
351.907	6.88
352.695	4.88
353.483	6.88
354.271	7.88
355.059	4.88
355.846	5.88
356.634	5.88
357.422	4.88
358.209	4.88
358.997	7.88
359.784	3.88
360.571	3.88
361.359	4.88
362.146	6.88
362.933	5.88
363.72	5.88
364.507	5.88
365.294	5.88
366.081	6.88
366.867	5.88
367.654	5.88
368.44	4.88
369.227	4.88
370.013	4.88
370.8	7.88
371.586	4.88
372.372	5.88
373.158	3.88
373.944	4.88
374.73	1.88
375.516	5.88
376.302	4.88
377.088	7.88
377.873	7.88
378.659	6.88
379.445	5.88
380.23	4.88
381.015	5.88
381.801	6.88
382.586	4.88
383.371	7.88
384.156	6.88
384.941	5.88
385.726	7.88
386.511	5.88
387.296	7.88
388.08	5.88
388.865	6.88
389.649	6.88
390.434	6.88
391.218	7.88
392.003	6.88
392.787	7.88
393.571	7.88
394.355	5.88
395.139	7.88
395.923	6.88
396.707	4.88
397.491	6.88
398.274	7.88
399.058	7.88
399.842	7.88
400.625	8.88
401.408	7.88
402.192	5.88
402.975	7.88
403.758	10.88
404.541	9.88
405.324	7.88
406.107	8.88
406.89	7.88
407.673	8.88
408.456	9.88
409.238	9.88
410.021	7.88
410.803	9.88
411.586	8.88
412.368	5.88
413.151	9.88
413.933	7.88
414.715	7.88
415.497	9.88
416.279	10.88
417.061	10.88
417.843	9.88
418.624	10.88
419.406	9.88
420.188	9.88
420.969	10.88
421.751	10.88
422.532	12.88
423.313	9.88
424.095	10.88
424.876	12.88
425.657	10.88
426.438	15.88
427.219	12.88
428	15.88
428.78	13.88
429.561	13.88
430.342	11.88
431.122	13.88
431.903	13.88
432.683	13.88
433.464	16.88
434.244	15.88
435.024	13.88
435.804	17.88
436.584	16.88
437.364	20.88
438.144	20.88
438.924	19.88
439.704	23.88
440.483	22.88
441.263	24.88
442.042	25.88
442.822	23.88
443.601	25.88
444.38	29.88
445.16	33.88
445.939	33.88
446.718	36.88
447.497	38.88
448.276	42.88
449.054	43.88
449.833	48.88
450.612	51.88
451.391	57.88
452.169	62.88
452.948	68.88
453.726	75.88
454.504	81.88
455.282	84.88
456.061	97.88
456.839	111.88
457.617	122.88
458.395	133.88
459.172	150.88
459.95	165.88
460.728	186.88
461.506	202.88
462.283	227.88
463.061	253.88
463.838	284.88
464.615	317.88
465.393	363.88
466.17	385.88
466.947	440.88
467.724	489.88
468.501	550.88
469.278	612.88
470.055	681.88
470.831	760.88
471.608	840.88
472.385	939.88
473.161	1047.88
473.938	1153.88
474.714	1281.88
475.49	1434.88
476.266	1554.88
477.043	1737.88
477.819	1922.88
478.595	2115.88
479.371	2351.88
480.146	2595.88
480.922	2852.88
481.698	3148.88
482.473	3470.88
483.249	3850.88
484.024	4221.88
484.8	4647.88
485.575	5110.88
486.35	5617.88
487.126	6174.88
487.901	6789.88
488.676	7425.88
489.451	8124.88
490.225	8927.88
491	9735.88
491.775	10645.88
492.55	11654.88
493.324	12535.88
494.099	13608.88
494.873	14645.88
495.647	15808.88
496.422	16913.88
497.196	18129.88
497.97	19370.88
498.744	20615.88
499.518	21710.88
500.292	22912.88
501.066	23978.88
501.839	24934.88
502.613	25715.88
503.387	26637.88
504.16	27218.88
504.934	27529.88
505.707	27688.88
506.48	27711.88
507.253	27541.88
508.027	27339.88
508.8	26955.88
509.573	26510.88
510.346	25801.88
511.118	25093.88
511.891	24233.88
512.664	23293.88
513.437	22510.88
514.209	21493.88
514.982	20609.88
515.754	19696.88
516.526	18797.88
517.298	18011.88
518.071	17199.88
518.843	16509.88
519.615	15948.88
520.387	15281.88
521.159	14674.88
521.93	14049.88
522.702	13546.88
523.474	12952.88
524.245	12373.88
525.017	11891.88
525.788	11447.88
526.56	10923.88
527.331	10394.88
528.102	9921.88
528.873	9457.88
529.644	8967.88
530.415	8553.88
531.186	8104.88
531.957	7701.88
532.728	7287.88
533.498	6946.88
534.269	6486.88
535.039	6164.88
535.81	5819.88
536.58	5486.88
537.351	5172.88
538.121	4874.88
538.891	4622.88
539.661	4384.88
540.431	4132.88
541.201	3915.88
541.971	3710.88
542.741	3522.88
543.51	3333.88
544.28	3168.88
545.05	3032.88
545.819	2875.88
546.588	2726.88
547.358	2575.88
548.127	2474.88
548.896	2338.88
549.665	2216.88
550.434	2101.88
551.203	1990.88
551.972	1883.88
552.741	1771.88
553.51	1676.88
554.278	1587.88
555.047	1496.88
555.815	1423.88
556.584	1322.88
557.352	1255.88
558.121	1196.88
558.889	1122.88
559.657	1053.88
560.425	994.88
561.193	940.88
561.961	881.88
562.729	839.88
563.496	793.88
564.264	751.88
565.032	709.88
565.799	680.88
566.567	636.88
567.334	605.88
568.101	570.88
568.869	536.88
569.636	502.88
570.403	471.88
571.17	448.88
571.937	424.88
572.704	392.88
573.471	375.88
574.237	355.88
575.004	339.88
575.771	321.88
576.537	298.88
577.303	268.88
578.07	260.88
578.836	246.88
579.602	230.88
580.368	220.88
581.134	210.88
581.9	200.88
582.666	182.88
583.432	176.88
584.198	170.88
584.964	157.88
585.729	156.88
586.495	141.88
587.26	138.88
588.025	128.88
588.791	122.88
589.556	112.88
590.321	108.88
591.086	104.88
591.851	98.88
592.616	95.88
593.381	91.88
594.146	85.88
594.911	82.88
595.675	78.88
596.44	80.88
597.204	69.88
597.969	63.88
598.733	60.88
599.497	63.88
600.261	58.88
601.025	56.88
601.79	54.88
602.553	52.88
603.317	51.88
604.081	47.88
604.845	43.88
605.609	45.88
606.372	40.88
607.136	38.88
607.899	38.88
608.662	38.88
609.426	33.88
610.189	33.88
610.952	31.88
611.715	31.88
612.478	29.88
613.241	29.88
614.004	29.88
614.767	27.88
615.529	23.88
616.292	25.88
617.055	24.88
617.817	25.88
618.579	22.88
619.342	23.88
620.104	20.88
620.866	19.88
621.628	19.88
622.39	19.88
623.152	18.88
623.914	19.88
624.676	16.88
625.438	17.88
626.199	15.88
626.961	14.88
627.722	15.88
628.484	16.88
629.245	11.88
630.006	11.88
630.768	13.88
631.529	13.88
632.29	13.88
633.051	13.88
633.812	13.88
634.573	10.88
635.333	9.88
636.094	11.88
636.855	11.88
637.615	13.88
638.376	9.88
639.136	6.88
639.896	11.88
640.657	9.88
641.417	8.88
642.177	8.88
642.937	7.88
643.697	9.88
644.457	7.88
645.216	10.88
645.976	6.88
646.736	7.88
647.495	7.88
648.255	8.88
649.014	8.88
649.774	4.88
650.533	8.88
651.292	7.88
652.051	8.88
652.81	6.88
653.569	5.88
654.328	5.88
655.087	4.88
655.846	7.88
656.604	6.88
657.363	6.88
658.121	3.88
658.88	6.88
659.638	6.88
660.397	3.88
661.155	6.88
661.913	6.88
662.671	5.88
663.429	3.88
664.187	3.88
664.945	6.88
665.703	7.88
666.46	4.88
667.218	3.88
667.976	3.88
668.733	5.88
669.49	3.88
670.248	4.88
671.005	3.88
671.762	6.88
672.519	6.88
673.276	5.88
674.033	4.88
674.79	4.88
675.547	4.88
676.304	2.88
677.06	3.88
677.817	3.88
678.574	4.88
679.33	4.88
680.086	5.88
680.843	4.88
681.599	3.88
682.355	4.88
683.111	5.88
683.867	3.88
684.623	4.88
685.379	3.88
686.135	4.88
686.89	2.88
687.646	2.88
688.402	4.88
689.157	4.88
689.912	3.88
690.668	4.88
691.423	4.88
692.178	1.88
692.933	4.88
693.688	2.88
694.443	4.88
695.198	1.88
695.953	5.88
696.708	4.88
697.462	4.88
698.217	5.88
698.972	2.88
699.726	3.88
700.48	3.88
701.235	4.88
701.989	0.88
702.743	2.88
703.497	6.88
704.251	3.88
705.005	4.88
705.759	1.88
706.513	2.88
707.266	4.88
708.02	3.88
708.774	3.88
709.527	4.88
710.28	5.88
711.034	0.88
711.787	2.88
712.54	2.88
713.293	3.88
714.046	3.88
714.799	4.88
715.552	3.88
716.305	2.88
717.058	4.88
717.81	2.88
718.563	2.88
719.315	2.88
720.068	2.88
720.82	3.88
721.573	3.88
722.325	4.88
723.077	3.88
723.829	3.88
724.581	2.88
725.333	0.88
726.085	4.88
726.836	4.88
727.588	1.88
728.34	5.88
729.091	-0.12
729.843	4.88
730.594	3.88
731.346	5.88
732.097	2.88
732.848	3.88
733.599	4.88
734.35	4.88
735.101	4.88
735.852	5.88
736.603	3.88
737.354	5.88
738.104	4.88
738.855	5.88
739.605	6.88
740.356	7.88
741.106	4.88
741.856	3.88
742.607	2.88
743.357	4.88
744.107	8.88
744.857	3.88
745.607	3.88
746.357	5.88
747.106	3.88
747.856	4.88
748.606	5.88
749.355	3.88
750.105	4.88
750.854	4.88
751.603	5.88
752.353	3.88
753.102	7.88
753.851	4.88
754.6	5.88
755.349	6.88
756.098	4.88
756.847	3.88
757.595	6.88
758.344	5.88
759.093	4.88
759.841	5.88
760.589	5.88
761.338	5.88
762.086	3.88
762.834	6.88
763.582	3.88
764.331	6.88
765.079	9.88
765.826	6.88
766.574	5.88
767.322	8.88
768.07	4.88
768.817	9.88
769.565	5.88
770.312	7.88
771.06	6.88
771.807	6.88
772.554	7.88
773.302	8.88
774.049	10.88
774.796	8.88
775.543	6.88
776.29	7.88
777.036	5.88
777.783	10.88
778.53	7.88
779.276	8.88
780.023	9.88
780.769	8.88
781.516	8.88
782.262	7.88
783.008	10.88
783.754	9.88
784.5	9.88
785.246	10.88
785.992	8.88
786.738	9.88
787.484	8.88
788.23	7.88
788.975	9.88
789.721	8.88
790.466	8.88
791.212	8.88
791.957	10.88
792.702	9.88
793.447	9.88
794.193	8.88
794.938	7.88
795.683	10.88
796.427	6.88
797.172	8.88
797.917	7.88
798.662	9.88
799.406	8.88
800.151	6.88
800.895	6.88
801.64	4.88
802.384	8.88
803.128	5.88
803.872	6.88
804.616	6.88
805.36	6.88
806.104	8.88
806.848	7.88
807.592	4.88
808.336	3.88
809.079	5.88
809.823	7.88
810.566	5.88
811.31	3.88
812.053	6.88
812.796	5.88
813.539	7.88
814.283	6.88
815.026	4.88
815.769	6.88
816.511	7.88
817.254	4.88
817.997	4.88
818.74	3.88
819.482	5.88
820.225	8.88
820.967	4.88
821.71	4.88
822.452	3.88
823.194	4.88
823.936	5.88
824.678	3.88
825.42	5.88
826.162	6.88
826.904	4.88
827.646	1.88
828.388	1.88
829.129	5.88
829.871	3.88
830.612	3.88
831.354	4.88
832.095	2.88
832.836	3.88
833.577	3.88
834.319	5.88
835.06	3.88
835.801	2.88
836.542	4.88
837.282	3.88
838.023	3.88
838.764	0.88
839.504	1.88
840.245	2.88
840.985	4.88
841.726	5.88
842.466	1.88
843.206	3.88
843.946	3.88
844.687	3.88
845.427	3.88
846.166	0.88
846.906	2.88
847.646	1.88
848.386	2.88
849.125	1.88
849.865	2.88
850.605	4.88
851.344	0.88
852.083	1.88
852.823	0.88
853.562	2.88
854.301	3.88
855.04	3.88
855.779	2.88
856.518	2.88
857.257	3.88
857.995	1.88
858.734	3.88
859.473	3.88
860.211	3.88
860.95	1.88
861.688	0.88
862.426	1.88
863.165	3.88
863.903	2.88
864.641	3.88
865.379	-0.12
866.117	1.88
866.855	1.88
867.593	4.88
868.33	1.88
869.068	1.88
869.806	0.88
870.543	1.88
871.28	1.88
872.018	3.88
872.755	1.88
873.492	1.88
874.229	0.88
874.967	1.88
875.703	1.88
876.44	0.88
877.177	0.88
877.914	0.88
878.651	-1.12
879.387	2.88
880.124	2.88
880.86	2.88
881.597	0.88
882.333	0.88
883.069	0.88
883.806	0.88
884.542	0.88
885.278	-0.12
886.014	1.88
886.749	-0.12
887.485	1.88
888.221	0.88
888.957	0.88
889.692	-0.12
890.428	-0.12
891.163	1.88
891.899	0.88
892.634	0.88
893.369	0.88
894.104	-1.12
894.839	-1.12
895.574	-0.12
896.309	-0.12
897.044	-1.12
897.779	1.88
898.514	-0.12
899.248	-0.12
899.983	-0.12
900.717	-1.12
901.452	-0.12
902.186	-0.12
902.92	0.88
903.654	0.88
904.389	-0.12
905.123	-0.12
905.857	-1.12
906.59	0.88
907.324	-1.12
908.058	-0.12
908.792	-0.12
909.525	1.88
910.259	0.88
910.992	1.88
911.726	1.88
912.459	1.88
913.192	-0.12
913.925	0.88
914.658	-1.12
915.391	-0.12
916.124	-0.12
916.857	2.88
917.59	0.88
918.323	0.88
919.055	1.88
919.788	0.88
920.521	-0.12
921.253	0.88
921.985	0.88
922.718	-0.12
923.45	1.88
924.182	1.88
924.914	0.88
925.646	-0.12
926.378	0.88
927.11	0.88
927.841	0.88
928.573	-0.12
929.305	-0.12
930.036	-0.12
930.768	0.88
931.499	0.88
932.23	-0.12
932.962	3.88
933.693	0.88
934.424	-1.12
935.155	1.88
935.886	1.88
936.617	0.88
937.348	-1.12
938.078	-1.12
938.809	1.88
939.54	-0.12
940.27	0.88
941.001	-0.12
941.731	0.88
942.461	-1.12
943.191	-0.12
943.922	-0.12
944.652	2.88
945.382	-0.12
946.112	1.88
946.841	0.88
947.571	-0.12
948.301	-0.12
949.031	-0.12
949.76	-1.12
950.49	0.88
951.219	-0.12
951.948	2.88
952.678	-0.12
953.407	2.88
954.136	0.88
954.865	2.88
955.594	0.88
956.323	-0.12
957.052	0.88
957.78	-0.12
958.509	0.88
959.238	0.88
959.966	0.88
960.695	-0.12
961.423	-1.12
962.151	1.88
962.88	0.88
963.608	-1.12
964.336	0.88
965.064	0.88
965.792	-0.12
966.52	0.88
967.247	-0.12
967.975	1.88
968.703	-0.12
969.43	-0.12
970.158	0.88
970.885	0.88
971.613	1.88
972.34	0.88
973.067	-0.12
973.794	2.88
974.521	0.88
975.248	1.88
975.975	0.88
976.702	-0.12
977.429	-1.12
978.156	-0.12
978.882	-1.12
979.609	1.88
980.335	0.88
981.062	-2.12
981.788	0.88
982.514	-2.12
983.24	1.88
983.967	-0.12
984.693	-0.12
985.419	1.88
986.144	-0.12
986.87	0.88
987.596	-0.12
988.322	0.88
989.047	-2.12
989.773	1.88
990.498	-0.12
991.224	0.88
991.949	-0.12
992.674	-1.12
993.399	1.88
994.124	0.88
994.849	0.88
995.574	0.88
996.299	1.88
997.024	0.88
997.749	1.88
998.473	2.88
999.198	1.88
999.922	-1.12
1000.647	-1.12
1001.371	2.88
1002.095	-2.12
1002.82	0.88
1003.544	-0.12
1004.268	0.88
1004.992	0.88
1005.716	0.88
1006.439	1.88
1007.163	1.88
1007.887	-0.12
1008.611	-0.12
1009.334	0.88
1010.058	-0.12
1010.781	0.88
1011.504	0.88
1012.228	0.88
1012.951	1.88
1013.674	-3.12
1014.397	-0.12
1015.12	-0.12
