节点500_285_QEPB04081__352__15-01-24-689.txt的数据

Date: Wed Nov 12 15:01:24 CST 2025
User: PC
Spectrometer: QEPB0408
触发模式: 0
积分时间 (秒): 1.000000E-2
Scans to average: 1
启用暗噪声校正: true
启用非线性校正: false
滑动平均宽度: 0
X轴模式: Wavelengths
Number of Pixels in Spectrum: 1044
>>>>>Begin Spectral Data<<<<<
220.843	2.75
221.644	2.75
222.444	0.75
223.244	1.75
224.045	0.75
224.845	2.75
225.645	0.75
226.445	1.75
227.245	3.75
228.045	0.75
228.845	0.75
229.645	1.75
230.444	4.75
231.244	0.75
232.043	0.75
232.843	3.75
233.642	3.75
234.442	3.75
235.241	5.75
236.04	4.75
236.839	3.75
237.638	2.75
238.437	5.75
239.236	3.75
240.035	2.75
240.833	2.75
241.632	4.75
242.43	6.75
243.229	3.75
244.027	3.75
244.826	4.75
245.624	4.75
246.422	6.75
247.22	6.75
248.018	6.75
248.816	3.75
249.614	7.75
250.412	5.75
251.21	5.75
252.007	5.75
252.805	4.75
253.602	6.75
254.4	8.75
255.197	6.75
255.994	8.75
256.791	8.75
257.589	7.75
258.386	8.75
259.183	9.75
259.979	9.75
260.776	8.75
261.573	9.75
262.37	10.75
263.166	8.75
263.963	8.75
264.759	9.75
265.556	10.75
266.352	13.75
267.148	10.75
267.944	11.75
268.74	14.75
269.536	13.75
270.332	15.75
271.128	12.75
271.924	17.75
272.719	13.75
273.515	15.75
274.311	13.75
275.106	17.75
275.901	16.75
276.697	18.75
277.492	14.75
278.287	17.75
279.082	16.75
279.877	17.75
280.672	19.75
281.467	17.75
282.262	19.75
283.056	16.75
283.851	18.75
284.646	21.75
285.44	15.75
286.234	16.75
287.029	17.75
287.823	19.75
288.617	18.75
289.411	16.75
290.205	18.75
290.999	18.75
291.793	18.75
292.587	16.75
293.381	16.75
294.174	17.75
294.968	15.75
295.761	17.75
296.555	14.75
297.348	15.75
298.141	13.75
298.935	17.75
299.728	16.75
300.521	16.75
301.314	13.75
302.107	10.75
302.899	13.75
303.692	13.75
304.485	12.75
305.277	13.75
306.07	11.75
306.862	13.75
307.655	10.75
308.447	14.75
309.239	11.75
310.031	12.75
310.823	11.75
311.615	9.75
312.407	10.75
313.199	9.75
313.991	7.75
314.783	7.75
315.574	9.75
316.366	9.75
317.157	9.75
317.949	7.75
318.74	5.75
319.531	8.75
320.322	7.75
321.113	6.75
321.904	9.75
322.695	5.75
323.486	9.75
324.277	6.75
325.068	5.75
325.858	6.75
326.649	4.75
327.439	4.75
328.23	6.75
329.02	6.75
329.81	5.75
330.6	7.75
331.391	6.75
332.181	5.75
332.971	5.75
333.76	6.75
334.55	6.75
335.34	7.75
336.13	6.75
336.919	4.75
337.709	6.75
338.498	6.75
339.287	5.75
340.077	7.75
340.866	6.75
341.655	6.75
342.444	7.75
343.233	4.75
344.022	8.75
344.811	5.75
345.6	6.75
346.388	5.75
347.177	5.75
347.965	8.75
348.754	5.75
349.542	7.75
350.33	5.75
351.119	6.75
351.907	7.75
352.695	6.75
353.483	7.75
354.271	5.75
355.059	2.75
355.846	4.75
356.634	3.75
357.422	5.75
358.209	4.75
358.997	6.75
359.784	3.75
360.571	4.75
361.359	4.75
362.146	4.75
362.933	6.75
363.72	3.75
364.507	6.75
365.294	6.75
366.081	4.75
366.867	4.75
367.654	4.75
368.44	4.75
369.227	4.75
370.013	2.75
370.8	5.75
371.586	2.75
372.372	5.75
373.158	5.75
373.944	5.75
374.73	3.75
375.516	4.75
376.302	5.75
377.088	4.75
377.873	4.75
378.659	4.75
379.445	5.75
380.23	3.75
381.015	4.75
381.801	5.75
382.586	5.75
383.371	4.75
384.156	4.75
384.941	6.75
385.726	5.75
386.511	5.75
387.296	4.75
388.08	4.75
388.865	7.75
389.649	5.75
390.434	6.75
391.218	5.75
392.003	3.75
392.787	6.75
393.571	6.75
394.355	3.75
395.139	5.75
395.923	4.75
396.707	5.75
397.491	5.75
398.274	7.75
399.058	5.75
399.842	3.75
400.625	5.75
401.408	7.75
402.192	5.75
402.975	4.75
403.758	7.75
404.541	9.75
405.324	6.75
406.107	8.75
406.89	8.75
407.673	6.75
408.456	6.75
409.238	9.75
410.021	9.75
410.803	9.75
411.586	7.75
412.368	7.75
413.151	8.75
413.933	9.75
414.715	7.75
415.497	9.75
416.279	9.75
417.061	8.75
417.843	9.75
418.624	7.75
419.406	11.75
420.188	6.75
420.969	9.75
421.751	9.75
422.532	11.75
423.313	9.75
424.095	9.75
424.876	12.75
425.657	10.75
426.438	14.75
427.219	10.75
428	11.75
428.78	13.75
429.561	11.75
430.342	12.75
431.122	12.75
431.903	16.75
432.683	15.75
433.464	16.75
434.244	17.75
435.024	16.75
435.804	19.75
436.584	14.75
437.364	16.75
438.144	19.75
438.924	19.75
439.704	21.75
440.483	22.75
441.263	22.75
442.042	24.75
442.822	25.75
443.601	27.75
444.38	29.75
445.16	29.75
445.939	35.75
446.718	38.75
447.497	33.75
448.276	42.75
449.054	45.75
449.833	45.75
450.612	50.75
451.391	55.75
452.169	62.75
452.948	69.75
453.726	76.75
454.504	81.75
455.282	83.75
456.061	101.75
456.839	111.75
457.617	121.75
458.395	137.75
459.172	153.75
459.95	168.75
460.728	184.75
461.506	208.75
462.283	234.75
463.061	264.75
463.838	291.75
464.615	320.75
465.393	362.75
466.17	412.75
466.947	451.75
467.724	506.75
468.501	549.75
469.278	618.75
470.055	681.75
470.831	764.75
471.608	853.75
472.385	947.75
473.161	1051.75
473.938	1162.75
474.714	1293.75
475.49	1420.75
476.266	1588.75
477.043	1742.75
477.819	1924.75
478.595	2127.75
479.371	2357.75
480.146	2603.75
480.922	2860.75
481.698	3137.75
482.473	3460.75
483.249	3809.75
484.024	4193.75
484.8	4625.75
485.575	5076.75
486.35	5578.75
487.126	6139.75
487.901	6695.75
488.676	7374.75
489.451	8025.75
490.225	8808.75
491	9623.75
491.775	10516.75
492.55	11446.75
493.324	12414.75
494.099	13347.75
494.873	14374.75
495.647	15539.75
496.422	16674.75
497.196	17920.75
497.97	19043.75
498.744	20251.75
499.518	21421.75
500.292	22572.75
501.066	23689.75
501.839	24566.75
502.613	25467.75
503.387	26234.75
504.16	26806.75
504.934	27231.75
505.707	27394.75
506.48	27495.75
507.253	27407.75
508.027	27144.75
508.8	26821.75
509.573	26439.75
510.346	25829.75
511.118	24969.75
511.891	24228.75
512.664	23354.75
513.437	22469.75
514.209	21541.75
514.982	20690.75
515.754	19783.75
516.526	18898.75
517.298	18075.75
518.071	17236.75
518.843	16585.75
519.615	15949.75
520.387	15373.75
521.159	14717.75
521.93	14137.75
522.702	13629.75
523.474	13041.75
524.245	12478.75
525.017	11943.75
525.788	11452.75
526.56	10978.75
527.331	10394.75
528.102	9982.75
528.873	9523.75
529.644	9013.75
530.415	8593.75
531.186	8187.75
531.957	7748.75
532.728	7364.75
533.498	6994.75
534.269	6591.75
535.039	6236.75
535.81	5888.75
536.58	5544.75
537.351	5213.75
538.121	4933.75
538.891	4654.75
539.661	4417.75
540.431	4171.75
541.201	3915.75
541.971	3731.75
542.741	3549.75
543.51	3355.75
544.28	3208.75
545.05	3061.75
545.819	2884.75
546.588	2771.75
547.358	2608.75
548.127	2477.75
548.896	2361.75
549.665	2233.75
550.434	2117.75
551.203	2012.75
551.972	1917.75
552.741	1780.75
553.51	1699.75
554.278	1615.75
555.047	1500.75
555.815	1421.75
556.584	1348.75
557.352	1275.75
558.121	1192.75
558.889	1138.75
559.657	1076.75
560.425	996.75
561.193	962.75
561.961	906.75
562.729	848.75
563.496	806.75
564.264	762.75
565.032	720.75
565.799	679.75
566.567	647.75
567.334	608.75
568.101	580.75
568.869	545.75
569.636	513.75
570.403	482.75
571.17	457.75
571.937	433.75
572.704	414.75
573.471	372.75
574.237	361.75
575.004	336.75
575.771	315.75
576.537	297.75
577.303	289.75
578.07	269.75
578.836	247.75
579.602	239.75
580.368	219.75
581.134	213.75
581.9	206.75
582.666	188.75
583.432	184.75
584.198	167.75
584.964	157.75
585.729	150.75
586.495	150.75
587.26	136.75
588.025	130.75
588.791	127.75
589.556	114.75
590.321	113.75
591.086	100.75
591.851	100.75
592.616	94.75
593.381	90.75
594.146	87.75
594.911	80.75
595.675	79.75
596.44	75.75
597.204	70.75
597.969	71.75
598.733	67.75
599.497	61.75
600.261	61.75
601.025	55.75
601.79	55.75
602.553	50.75
603.317	48.75
604.081	48.75
604.845	46.75
605.609	42.75
606.372	41.75
607.136	37.75
607.899	38.75
608.662	37.75
609.426	33.75
610.189	36.75
610.952	31.75
611.715	29.75
612.478	30.75
613.241	27.75
614.004	31.75
614.767	27.75
615.529	26.75
616.292	26.75
617.055	22.75
617.817	24.75
618.579	21.75
619.342	20.75
620.104	20.75
620.866	18.75
621.628	20.75
622.39	19.75
623.152	17.75
623.914	20.75
624.676	14.75
625.438	18.75
626.199	15.75
626.961	15.75
627.722	13.75
628.484	15.75
629.245	14.75
630.006	9.75
630.768	14.75
631.529	13.75
632.29	13.75
633.051	12.75
633.812	12.75
634.573	12.75
635.333	11.75
636.094	11.75
636.855	9.75
637.615	10.75
638.376	7.75
639.136	8.75
639.896	9.75
640.657	8.75
641.417	11.75
642.177	7.75
642.937	11.75
643.697	7.75
644.457	5.75
645.216	9.75
645.976	7.75
646.736	9.75
647.495	9.75
648.255	8.75
649.014	8.75
649.774	6.75
650.533	7.75
651.292	6.75
652.051	4.75
652.81	6.75
653.569	5.75
654.328	6.75
655.087	5.75
655.846	6.75
656.604	5.75
657.363	5.75
658.121	4.75
658.88	5.75
659.638	6.75
660.397	8.75
661.155	5.75
661.913	5.75
662.671	5.75
663.429	5.75
664.187	5.75
664.945	3.75
665.703	3.75
666.46	6.75
667.218	6.75
667.976	4.75
668.733	5.75
669.49	4.75
670.248	5.75
671.005	7.75
671.762	6.75
672.519	7.75
673.276	5.75
674.033	2.75
674.79	2.75
675.547	5.75
676.304	4.75
677.06	3.75
677.817	1.75
678.574	2.75
679.33	3.75
680.086	1.75
680.843	4.75
681.599	4.75
682.355	3.75
683.111	5.75
683.867	2.75
684.623	3.75
685.379	3.75
686.135	3.75
686.89	5.75
687.646	4.75
688.402	4.75
689.157	4.75
689.912	3.75
690.668	3.75
691.423	5.75
692.178	3.75
692.933	2.75
693.688	3.75
694.443	1.75
695.198	5.75
695.953	3.75
696.708	4.75
697.462	3.75
698.217	2.75
698.972	4.75
699.726	3.75
700.48	2.75
701.235	1.75
701.989	1.75
702.743	3.75
703.497	2.75
704.251	1.75
705.005	1.75
705.759	3.75
706.513	5.75
707.266	2.75
708.02	4.75
708.774	3.75
709.527	4.75
710.28	4.75
711.034	3.75
711.787	1.75
712.54	3.75
713.293	1.75
714.046	2.75
714.799	3.75
715.552	2.75
716.305	5.75
717.058	2.75
717.81	0.75
718.563	3.75
719.315	2.75
720.068	4.75
720.82	4.75
721.573	1.75
722.325	3.75
723.077	6.75
723.829	5.75
724.581	3.75
725.333	4.75
726.085	4.75
726.836	5.75
727.588	2.75
728.34	2.75
729.091	3.75
729.843	4.75
730.594	4.75
731.346	4.75
732.097	4.75
732.848	2.75
733.599	2.75
734.35	2.75
735.101	2.75
735.852	4.75
736.603	4.75
737.354	4.75
738.104	3.75
738.855	3.75
739.605	5.75
740.356	6.75
741.106	4.75
741.856	5.75
742.607	4.75
743.357	4.75
744.107	5.75
744.857	3.75
745.607	4.75
746.357	3.75
747.106	7.75
747.856	5.75
748.606	4.75
749.355	3.75
750.105	3.75
750.854	7.75
751.603	6.75
752.353	4.75
753.102	5.75
753.851	4.75
754.6	6.75
755.349	7.75
756.098	5.75
756.847	5.75
757.595	6.75
758.344	2.75
759.093	4.75
759.841	5.75
760.589	7.75
761.338	6.75
762.086	6.75
762.834	3.75
763.582	4.75
764.331	5.75
765.079	4.75
765.826	5.75
766.574	7.75
767.322	6.75
768.07	6.75
768.817	7.75
769.565	6.75
770.312	9.75
771.06	6.75
771.807	7.75
772.554	8.75
773.302	8.75
774.049	6.75
774.796	7.75
775.543	7.75
776.29	6.75
777.036	7.75
777.783	7.75
778.53	8.75
779.276	8.75
780.023	9.75
780.769	9.75
781.516	8.75
782.262	6.75
783.008	11.75
783.754	7.75
784.5	9.75
785.246	8.75
785.992	7.75
786.738	7.75
787.484	8.75
788.23	7.75
788.975	9.75
789.721	8.75
790.466	8.75
791.212	9.75
791.957	7.75
792.702	7.75
793.447	8.75
794.193	7.75
794.938	8.75
795.683	7.75
796.427	8.75
797.172	8.75
797.917	9.75
798.662	8.75
799.406	6.75
800.151	5.75
800.895	6.75
801.64	7.75
802.384	7.75
803.128	4.75
803.872	7.75
804.616	8.75
805.36	5.75
806.104	7.75
806.848	4.75
807.592	4.75
808.336	4.75
809.079	5.75
809.823	6.75
810.566	4.75
811.31	6.75
812.053	5.75
812.796	5.75
813.539	6.75
814.283	4.75
815.026	6.75
815.769	3.75
816.511	5.75
817.254	3.75
817.997	4.75
818.74	6.75
819.482	4.75
820.225	4.75
820.967	4.75
821.71	5.75
822.452	2.75
823.194	2.75
823.936	2.75
824.678	3.75
825.42	4.75
826.162	4.75
826.904	5.75
827.646	4.75
828.388	4.75
829.129	3.75
829.871	3.75
830.612	4.75
831.354	3.75
832.095	2.75
832.836	4.75
833.577	1.75
834.319	4.75
835.06	3.75
835.801	1.75
836.542	3.75
837.282	3.75
838.023	5.75
838.764	1.75
839.504	3.75
840.245	1.75
840.985	2.75
841.726	4.75
842.466	1.75
843.206	3.75
843.946	1.75
844.687	3.75
845.427	4.75
846.166	3.75
846.906	3.75
847.646	2.75
848.386	2.75
849.125	1.75
849.865	2.75
850.605	1.75
851.344	4.75
852.083	5.75
852.823	2.75
853.562	3.75
854.301	0.75
855.04	2.75
855.779	1.75
856.518	1.75
857.257	1.75
857.995	-1.25
858.734	2.75
859.473	1.75
860.211	1.75
860.95	1.75
861.688	2.75
862.426	1.75
863.165	0.75
863.903	3.75
864.641	-0.25
865.379	0.75
866.117	0.75
866.855	-0.25
867.593	1.75
868.33	1.75
869.068	1.75
869.806	1.75
870.543	1.75
871.28	1.75
872.018	-1.25
872.755	1.75
873.492	1.75
874.229	0.75
874.967	0.75
875.703	2.75
876.44	2.75
877.177	0.75
877.914	1.75
878.651	1.75
879.387	2.75
880.124	0.75
880.86	-1.25
881.597	1.75
882.333	2.75
883.069	-0.25
883.806	-0.25
884.542	-1.25
885.278	1.75
886.014	0.75
886.749	-0.25
887.485	1.75
888.221	0.75
888.957	2.75
889.692	0.75
890.428	0.75
891.163	1.75
891.899	3.75
892.634	0.75
893.369	-2.25
894.104	1.75
894.839	1.75
895.574	1.75
896.309	-1.25
897.044	0.75
897.779	-1.25
898.514	0.75
899.248	1.75
899.983	-2.25
900.717	-0.25
901.452	0.75
902.186	1.75
902.92	-0.25
903.654	0.75
904.389	1.75
905.123	0.75
905.857	-0.25
906.59	-0.25
907.324	-1.25
908.058	0.75
908.792	0.75
909.525	-1.25
910.259	-0.25
910.992	0.75
911.726	-0.25
912.459	0.75
913.192	0.75
913.925	-2.25
914.658	0.75
915.391	1.75
916.124	-2.25
916.857	-0.25
917.59	0.75
918.323	1.75
919.055	-0.25
919.788	1.75
920.521	-0.25
921.253	-0.25
921.985	-0.25
922.718	-0.25
923.45	-0.25
924.182	2.75
924.914	-0.25
925.646	2.75
926.378	-0.25
927.11	1.75
927.841	0.75
928.573	1.75
929.305	-0.25
930.036	0.75
930.768	1.75
931.499	-2.25
932.23	0.75
932.962	1.75
933.693	0.75
934.424	2.75
935.155	-1.25
935.886	-0.25
936.617	-0.25
937.348	-1.25
938.078	1.75
938.809	0.75
939.54	-0.25
940.27	-0.25
941.001	1.75
941.731	1.75
942.461	1.75
943.191	-0.25
943.922	0.75
944.652	1.75
945.382	0.75
946.112	2.75
946.841	-1.25
947.571	0.75
948.301	-0.25
949.031	-0.25
949.76	1.75
950.49	-2.25
951.219	0.75
951.948	-1.25
952.678	-0.25
953.407	0.75
954.136	0.75
954.865	1.75
955.594	1.75
956.323	2.75
957.052	1.75
957.78	-0.25
958.509	1.75
959.238	0.75
959.966	1.75
960.695	2.75
961.423	0.75
962.151	2.75
962.88	0.75
963.608	0.75
964.336	-0.25
965.064	-0.25
965.792	-1.25
966.52	-0.25
967.247	0.75
967.975	0.75
968.703	0.75
969.43	0.75
970.158	-2.25
970.885	0.75
971.613	-0.25
972.34	1.75
973.067	-0.25
973.794	-0.25
974.521	-0.25
975.248	0.75
975.975	1.75
976.702	-0.25
977.429	-1.25
978.156	-2.25
978.882	-2.25
979.609	-0.25
980.335	0.75
981.062	1.75
981.788	1.75
982.514	-2.25
983.24	1.75
983.967	1.75
984.693	0.75
985.419	-1.25
986.144	-0.25
986.87	0.75
987.596	0.75
988.322	1.75
989.047	-0.25
989.773	1.75
990.498	1.75
991.224	0.75
991.949	-1.25
992.674	1.75
993.399	0.75
994.124	1.75
994.849	-0.25
995.574	-0.25
996.299	0.75
997.024	-1.25
997.749	0.75
998.473	0.75
999.198	-1.25
999.922	-2.25
1000.647	-1.25
1001.371	1.75
1002.095	-0.25
1002.82	-3.25
1003.544	-1.25
1004.268	0.75
1004.992	0.75
1005.716	0.75
1006.439	1.75
1007.163	0.75
1007.887	-1.25
1008.611	1.75
1009.334	0.75
1010.058	0.75
1010.781	-0.25
1011.504	0.75
1012.228	0.75
1012.951	-0.25
1013.674	2.75
1014.397	0.75
1015.12	-0.25
