节点500_285_QEPB04081__631__15-06-03-086.txt的数据

Date: Wed Nov 12 15:06:03 CST 2025
User: PC
Spectrometer: QEPB0408
触发模式: 0
积分时间 (秒): 1.000000E-2
Scans to average: 1
启用暗噪声校正: true
启用非线性校正: false
滑动平均宽度: 0
X轴模式: Wavelengths
Number of Pixels in Spectrum: 1044
>>>>>Begin Spectral Data<<<<<
220.843	1.75
221.644	0.75
222.444	2.75
223.244	1.75
224.045	2.75
224.845	-0.25
225.645	1.75
226.445	2.75
227.245	2.75
228.045	2.75
228.845	1.75
229.645	4.75
230.444	3.75
231.244	4.75
232.043	3.75
232.843	3.75
233.642	6.75
234.442	5.75
235.241	3.75
236.04	2.75
236.839	2.75
237.638	5.75
238.437	4.75
239.236	1.75
240.035	2.75
240.833	4.75
241.632	2.75
242.43	5.75
243.229	4.75
244.027	4.75
244.826	6.75
245.624	4.75
246.422	6.75
247.22	5.75
248.018	7.75
248.816	6.75
249.614	5.75
250.412	7.75
251.21	7.75
252.007	9.75
252.805	7.75
253.602	8.75
254.4	7.75
255.197	6.75
255.994	7.75
256.791	9.75
257.589	8.75
258.386	7.75
259.183	8.75
259.979	7.75
260.776	8.75
261.573	10.75
262.37	9.75
263.166	9.75
263.963	9.75
264.759	11.75
265.556	9.75
266.352	9.75
267.148	10.75
267.944	12.75
268.74	12.75
269.536	13.75
270.332	14.75
271.128	15.75
271.924	16.75
272.719	14.75
273.515	14.75
274.311	14.75
275.106	14.75
275.901	15.75
276.697	16.75
277.492	16.75
278.287	14.75
279.082	20.75
279.877	14.75
280.672	16.75
281.467	18.75
282.262	19.75
283.056	17.75
283.851	19.75
284.646	18.75
285.44	16.75
286.234	16.75
287.029	15.75
287.823	16.75
288.617	20.75
289.411	18.75
290.205	15.75
290.999	17.75
291.793	19.75
292.587	18.75
293.381	17.75
294.174	17.75
294.968	15.75
295.761	17.75
296.555	12.75
297.348	14.75
298.141	15.75
298.935	16.75
299.728	16.75
300.521	14.75
301.314	12.75
302.107	12.75
302.899	13.75
303.692	16.75
304.485	12.75
305.277	13.75
306.07	10.75
306.862	11.75
307.655	11.75
308.447	12.75
309.239	10.75
310.031	10.75
310.823	10.75
311.615	11.75
312.407	10.75
313.199	10.75
313.991	8.75
314.783	8.75
315.574	6.75
316.366	9.75
317.157	7.75
317.949	7.75
318.74	9.75
319.531	8.75
320.322	9.75
321.113	6.75
321.904	7.75
322.695	7.75
323.486	8.75
324.277	7.75
325.068	7.75
325.858	8.75
326.649	4.75
327.439	7.75
328.23	7.75
329.02	8.75
329.81	5.75
330.6	6.75
331.391	7.75
332.181	6.75
332.971	6.75
333.76	5.75
334.55	6.75
335.34	6.75
336.13	7.75
336.919	4.75
337.709	4.75
338.498	7.75
339.287	5.75
340.077	9.75
340.866	5.75
341.655	7.75
342.444	6.75
343.233	5.75
344.022	5.75
344.811	6.75
345.6	5.75
346.388	7.75
347.177	6.75
347.965	6.75
348.754	5.75
349.542	4.75
350.33	6.75
351.119	4.75
351.907	7.75
352.695	3.75
353.483	5.75
354.271	9.75
355.059	2.75
355.846	6.75
356.634	7.75
357.422	7.75
358.209	4.75
358.997	7.75
359.784	3.75
360.571	7.75
361.359	6.75
362.146	7.75
362.933	5.75
363.72	2.75
364.507	6.75
365.294	6.75
366.081	5.75
366.867	8.75
367.654	5.75
368.44	6.75
369.227	6.75
370.013	4.75
370.8	2.75
371.586	5.75
372.372	6.75
373.158	5.75
373.944	6.75
374.73	6.75
375.516	5.75
376.302	5.75
377.088	5.75
377.873	5.75
378.659	4.75
379.445	7.75
380.23	2.75
381.015	3.75
381.801	5.75
382.586	4.75
383.371	5.75
384.156	6.75
384.941	7.75
385.726	7.75
386.511	6.75
387.296	6.75
388.08	3.75
388.865	7.75
389.649	6.75
390.434	6.75
391.218	6.75
392.003	6.75
392.787	6.75
393.571	5.75
394.355	5.75
395.139	8.75
395.923	5.75
396.707	5.75
397.491	5.75
398.274	6.75
399.058	6.75
399.842	6.75
400.625	6.75
401.408	7.75
402.192	10.75
402.975	8.75
403.758	8.75
404.541	6.75
405.324	8.75
406.107	5.75
406.89	7.75
407.673	9.75
408.456	7.75
409.238	9.75
410.021	8.75
410.803	6.75
411.586	9.75
412.368	8.75
413.151	9.75
413.933	10.75
414.715	6.75
415.497	9.75
416.279	9.75
417.061	13.75
417.843	6.75
418.624	11.75
419.406	9.75
420.188	10.75
420.969	11.75
421.751	11.75
422.532	10.75
423.313	12.75
424.095	12.75
424.876	12.75
425.657	10.75
426.438	13.75
427.219	11.75
428	12.75
428.78	15.75
429.561	14.75
430.342	14.75
431.122	14.75
431.903	15.75
432.683	14.75
433.464	13.75
434.244	17.75
435.024	17.75
435.804	19.75
436.584	17.75
437.364	20.75
438.144	20.75
438.924	22.75
439.704	22.75
440.483	22.75
441.263	25.75
442.042	24.75
442.822	29.75
443.601	29.75
444.38	30.75
445.16	32.75
445.939	32.75
446.718	39.75
447.497	40.75
448.276	44.75
449.054	48.75
449.833	54.75
450.612	58.75
451.391	57.75
452.169	68.75
452.948	73.75
453.726	83.75
454.504	87.75
455.282	97.75
456.061	109.75
456.839	118.75
457.617	137.75
458.395	153.75
459.172	161.75
459.95	181.75
460.728	198.75
461.506	221.75
462.283	249.75
463.061	276.75
463.838	310.75
464.615	342.75
465.393	381.75
466.17	427.75
466.947	487.75
467.724	532.75
468.501	588.75
469.278	641.75
470.055	730.75
470.831	803.75
471.608	893.75
472.385	990.75
473.161	1079.75
473.938	1207.75
474.714	1328.75
475.49	1445.75
476.266	1605.75
477.043	1763.75
477.819	1942.75
478.595	2125.75
479.371	2348.75
480.146	2565.75
480.922	2810.75
481.698	3094.75
482.473	3386.75
483.249	3695.75
484.024	4082.75
484.8	4461.75
485.575	4872.75
486.35	5304.75
487.126	5799.75
487.901	6343.75
488.676	6882.75
489.451	7525.75
490.225	8198.75
491	8911.75
491.775	9686.75
492.55	10523.75
493.324	11386.75
494.099	12252.75
494.873	13160.75
495.647	14160.75
496.422	15199.75
497.196	16276.75
497.97	17370.75
498.744	18442.75
499.518	19505.75
500.292	20548.75
501.066	21574.75
501.839	22583.75
502.613	23429.75
503.387	24276.75
504.16	24944.75
504.934	25462.75
505.707	25723.75
506.48	25931.75
507.253	25998.75
508.027	25944.75
508.8	25802.75
509.573	25587.75
510.346	25116.75
511.118	24525.75
511.891	23872.75
512.664	23176.75
513.437	22373.75
514.209	21552.75
514.982	20766.75
515.754	19938.75
516.526	19071.75
517.298	18302.75
518.071	17516.75
518.843	16901.75
519.615	16248.75
520.387	15583.75
521.159	14946.75
521.93	14414.75
522.702	13760.75
523.474	13254.75
524.245	12696.75
525.017	12142.75
525.788	11654.75
526.56	11134.75
527.331	10674.75
528.102	10209.75
528.873	9716.75
529.644	9266.75
530.415	8898.75
531.186	8438.75
531.957	7977.75
532.728	7664.75
533.498	7260.75
534.269	6854.75
535.039	6448.75
535.81	6113.75
536.58	5780.75
537.351	5454.75
538.121	5133.75
538.891	4881.75
539.661	4626.75
540.431	4364.75
541.201	4107.75
541.971	3908.75
542.741	3698.75
543.51	3518.75
544.28	3365.75
545.05	3188.75
545.819	3034.75
546.588	2883.75
547.358	2754.75
548.127	2613.75
548.896	2473.75
549.665	2350.75
550.434	2211.75
551.203	2101.75
551.972	1993.75
552.741	1881.75
553.51	1783.75
554.278	1698.75
555.047	1611.75
555.815	1508.75
556.584	1430.75
557.352	1339.75
558.121	1282.75
558.889	1218.75
559.657	1144.75
560.425	1068.75
561.193	1015.75
561.961	959.75
562.729	895.75
563.496	850.75
564.264	803.75
565.032	763.75
565.799	725.75
566.567	692.75
567.334	650.75
568.101	607.75
568.869	577.75
569.636	531.75
570.403	499.75
571.17	474.75
571.937	453.75
572.704	428.75
573.471	404.75
574.237	385.75
575.004	358.75
575.771	335.75
576.537	318.75
577.303	299.75
578.07	283.75
578.836	273.75
579.602	250.75
580.368	236.75
581.134	226.75
581.9	212.75
582.666	197.75
583.432	183.75
584.198	185.75
584.964	171.75
585.729	165.75
586.495	152.75
587.26	148.75
588.025	136.75
588.791	127.75
589.556	123.75
590.321	117.75
591.086	118.75
591.851	108.75
592.616	103.75
593.381	97.75
594.146	89.75
594.911	90.75
595.675	78.75
596.44	79.75
597.204	77.75
597.969	65.75
598.733	69.75
599.497	69.75
600.261	62.75
601.025	63.75
601.79	54.75
602.553	57.75
603.317	52.75
604.081	50.75
604.845	48.75
605.609	45.75
606.372	44.75
607.136	41.75
607.899	40.75
608.662	39.75
609.426	38.75
610.189	39.75
610.952	35.75
611.715	36.75
612.478	31.75
613.241	33.75
614.004	28.75
614.767	29.75
615.529	26.75
616.292	27.75
617.055	24.75
617.817	25.75
618.579	23.75
619.342	24.75
620.104	23.75
620.866	19.75
621.628	19.75
622.39	21.75
623.152	17.75
623.914	18.75
624.676	17.75
625.438	16.75
626.199	18.75
626.961	15.75
627.722	16.75
628.484	14.75
629.245	13.75
630.006	14.75
630.768	14.75
631.529	13.75
632.29	10.75
633.051	15.75
633.812	13.75
634.573	11.75
635.333	13.75
636.094	11.75
636.855	12.75
637.615	9.75
638.376	9.75
639.136	12.75
639.896	9.75
640.657	10.75
641.417	8.75
642.177	8.75
642.937	8.75
643.697	11.75
644.457	9.75
645.216	9.75
645.976	10.75
646.736	7.75
647.495	9.75
648.255	7.75
649.014	7.75
649.774	7.75
650.533	8.75
651.292	9.75
652.051	8.75
652.81	8.75
653.569	7.75
654.328	6.75
655.087	7.75
655.846	6.75
656.604	6.75
657.363	6.75
658.121	7.75
658.88	8.75
659.638	7.75
660.397	5.75
661.155	6.75
661.913	7.75
662.671	4.75
663.429	4.75
664.187	5.75
664.945	6.75
665.703	5.75
666.46	7.75
667.218	4.75
667.976	4.75
668.733	7.75
669.49	7.75
670.248	4.75
671.005	4.75
671.762	2.75
672.519	6.75
673.276	4.75
674.033	4.75
674.79	4.75
675.547	6.75
676.304	4.75
677.06	5.75
677.817	4.75
678.574	2.75
679.33	4.75
680.086	5.75
680.843	2.75
681.599	4.75
682.355	5.75
683.111	4.75
683.867	4.75
684.623	5.75
685.379	4.75
686.135	4.75
686.89	1.75
687.646	2.75
688.402	4.75
689.157	1.75
689.912	3.75
690.668	2.75
691.423	5.75
692.178	3.75
692.933	2.75
693.688	3.75
694.443	5.75
695.198	2.75
695.953	2.75
696.708	3.75
697.462	5.75
698.217	1.75
698.972	2.75
699.726	4.75
700.48	1.75
701.235	5.75
701.989	2.75
702.743	3.75
703.497	5.75
704.251	5.75
705.005	1.75
705.759	4.75
706.513	3.75
707.266	1.75
708.02	4.75
708.774	4.75
709.527	5.75
710.28	6.75
711.034	2.75
711.787	3.75
712.54	1.75
713.293	6.75
714.046	3.75
714.799	5.75
715.552	4.75
716.305	3.75
717.058	4.75
717.81	5.75
718.563	5.75
719.315	3.75
720.068	4.75
720.82	6.75
721.573	3.75
722.325	5.75
723.077	6.75
723.829	2.75
724.581	4.75
725.333	2.75
726.085	3.75
726.836	3.75
727.588	2.75
728.34	5.75
729.091	4.75
729.843	4.75
730.594	2.75
731.346	5.75
732.097	5.75
732.848	5.75
733.599	6.75
734.35	2.75
735.101	4.75
735.852	3.75
736.603	5.75
737.354	5.75
738.104	4.75
738.855	4.75
739.605	2.75
740.356	4.75
741.106	6.75
741.856	4.75
742.607	4.75
743.357	4.75
744.107	7.75
744.857	2.75
745.607	5.75
746.357	2.75
747.106	4.75
747.856	4.75
748.606	3.75
749.355	4.75
750.105	5.75
750.854	5.75
751.603	4.75
752.353	7.75
753.102	7.75
753.851	7.75
754.6	5.75
755.349	4.75
756.098	6.75
756.847	7.75
757.595	5.75
758.344	4.75
759.093	5.75
759.841	6.75
760.589	6.75
761.338	8.75
762.086	5.75
762.834	6.75
763.582	7.75
764.331	7.75
765.079	8.75
765.826	8.75
766.574	8.75
767.322	7.75
768.07	7.75
768.817	7.75
769.565	6.75
770.312	8.75
771.06	6.75
771.807	7.75
772.554	6.75
773.302	8.75
774.049	8.75
774.796	9.75
775.543	7.75
776.29	6.75
777.036	7.75
777.783	7.75
778.53	8.75
779.276	8.75
780.023	8.75
780.769	7.75
781.516	8.75
782.262	6.75
783.008	10.75
783.754	7.75
784.5	6.75
785.246	7.75
785.992	9.75
786.738	8.75
787.484	8.75
788.23	8.75
788.975	8.75
789.721	8.75
790.466	9.75
791.212	6.75
791.957	10.75
792.702	8.75
793.447	7.75
794.193	8.75
794.938	9.75
795.683	8.75
796.427	5.75
797.172	5.75
797.917	6.75
798.662	8.75
799.406	7.75
800.151	7.75
800.895	9.75
801.64	8.75
802.384	7.75
803.128	6.75
803.872	9.75
804.616	8.75
805.36	6.75
806.104	8.75
806.848	4.75
807.592	5.75
808.336	6.75
809.079	3.75
809.823	5.75
810.566	7.75
811.31	9.75
812.053	6.75
812.796	5.75
813.539	7.75
814.283	3.75
815.026	8.75
815.769	5.75
816.511	7.75
817.254	3.75
817.997	4.75
818.74	3.75
819.482	3.75
820.225	7.75
820.967	6.75
821.71	4.75
822.452	2.75
823.194	4.75
823.936	5.75
824.678	4.75
825.42	2.75
826.162	5.75
826.904	6.75
827.646	3.75
828.388	4.75
829.129	5.75
829.871	2.75
830.612	3.75
831.354	5.75
832.095	3.75
832.836	5.75
833.577	1.75
834.319	5.75
835.06	2.75
835.801	5.75
836.542	5.75
837.282	3.75
838.023	4.75
838.764	4.75
839.504	2.75
840.245	3.75
840.985	4.75
841.726	2.75
842.466	3.75
843.206	6.75
843.946	1.75
844.687	4.75
845.427	3.75
846.166	4.75
846.906	4.75
847.646	4.75
848.386	4.75
849.125	3.75
849.865	6.75
850.605	3.75
851.344	3.75
852.083	5.75
852.823	3.75
853.562	1.75
854.301	4.75
855.04	4.75
855.779	3.75
856.518	2.75
857.257	2.75
857.995	1.75
858.734	4.75
859.473	2.75
860.211	1.75
860.95	2.75
861.688	4.75
862.426	2.75
863.165	1.75
863.903	5.75
864.641	2.75
865.379	3.75
866.117	0.75
866.855	2.75
867.593	1.75
868.33	1.75
869.068	1.75
869.806	0.75
870.543	2.75
871.28	1.75
872.018	-1.25
872.755	1.75
873.492	1.75
874.229	3.75
874.967	2.75
875.703	2.75
876.44	1.75
877.177	0.75
877.914	3.75
878.651	3.75
879.387	-1.25
880.124	4.75
880.86	0.75
881.597	0.75
882.333	2.75
883.069	2.75
883.806	-1.25
884.542	2.75
885.278	2.75
886.014	2.75
886.749	0.75
887.485	2.75
888.221	1.75
888.957	1.75
889.692	3.75
890.428	2.75
891.163	1.75
891.899	2.75
892.634	0.75
893.369	1.75
894.104	2.75
894.839	1.75
895.574	2.75
896.309	1.75
897.044	2.75
897.779	0.75
898.514	0.75
899.248	0.75
899.983	1.75
900.717	1.75
901.452	0.75
902.186	0.75
902.92	0.75
903.654	1.75
904.389	0.75
905.123	2.75
905.857	1.75
906.59	0.75
907.324	0.75
908.058	0.75
908.792	1.75
909.525	1.75
910.259	1.75
910.992	-0.25
911.726	-0.25
912.459	1.75
913.192	1.75
913.925	1.75
914.658	0.75
915.391	0.75
916.124	-0.25
916.857	1.75
917.59	2.75
918.323	-1.25
919.055	0.75
919.788	0.75
920.521	0.75
921.253	1.75
921.985	1.75
922.718	1.75
923.45	1.75
924.182	-1.25
924.914	1.75
925.646	1.75
926.378	1.75
927.11	2.75
927.841	-0.25
928.573	1.75
929.305	1.75
930.036	2.75
930.768	-0.25
931.499	2.75
932.23	1.75
932.962	1.75
933.693	0.75
934.424	-0.25
935.155	-1.25
935.886	1.75
936.617	0.75
937.348	2.75
938.078	-1.25
938.809	-0.25
939.54	1.75
940.27	1.75
941.001	1.75
941.731	1.75
942.461	0.75
943.191	1.75
943.922	0.75
944.652	1.75
945.382	0.75
946.112	-1.25
946.841	1.75
947.571	-1.25
948.301	1.75
949.031	2.75
949.76	0.75
950.49	0.75
951.219	2.75
951.948	3.75
952.678	0.75
953.407	1.75
954.136	1.75
954.865	1.75
955.594	1.75
956.323	-0.25
957.052	0.75
957.78	2.75
958.509	0.75
959.238	2.75
959.966	0.75
960.695	1.75
961.423	1.75
962.151	-0.25
962.88	0.75
963.608	1.75
964.336	0.75
965.064	0.75
965.792	0.75
966.52	0.75
967.247	0.75
967.975	3.75
968.703	0.75
969.43	2.75
970.158	-1.25
970.885	1.75
971.613	-0.25
972.34	-0.25
973.067	2.75
973.794	-0.25
974.521	-1.25
975.248	1.75
975.975	-0.25
976.702	0.75
977.429	-1.25
978.156	1.75
978.882	-0.25
979.609	0.75
980.335	0.75
981.062	0.75
981.788	1.75
982.514	-0.25
983.24	-0.25
983.967	2.75
984.693	2.75
985.419	0.75
986.144	3.75
986.87	0.75
987.596	-0.25
988.322	-0.25
989.047	1.75
989.773	-2.25
990.498	1.75
991.224	-1.25
991.949	0.75
992.674	-0.25
993.399	0.75
994.124	1.75
994.849	-0.25
995.574	0.75
996.299	2.75
997.024	0.75
997.749	0.75
998.473	1.75
999.198	1.75
999.922	0.75
1000.647	0.75
1001.371	2.75
1002.095	-0.25
1002.82	-0.25
1003.544	-1.25
1004.268	2.75
1004.992	2.75
1005.716	1.75
1006.439	2.75
1007.163	-0.25
1007.887	2.75
1008.611	-0.25
1009.334	1.75
1010.058	-1.25
1010.781	1.75
1011.504	1.75
1012.228	0.75
1012.951	0.75
1013.674	-1.25
1014.397	-0.25
1015.12	-0.25
