节点500_285_QEPB04081__212__14-59-05-072.txt的数据

Date: Wed Nov 12 14:59:05 CST 2025
User: PC
Spectrometer: QEPB0408
触发模式: 0
积分时间 (秒): 1.000000E-2
Scans to average: 1
启用暗噪声校正: true
启用非线性校正: false
滑动平均宽度: 0
X轴模式: Wavelengths
Number of Pixels in Spectrum: 1044
>>>>>Begin Spectral Data<<<<<
220.843	1.5
221.644	1.5
222.444	1.5
223.244	0.5
224.045	0.5
224.845	2.5
225.645	3.5
226.445	4.5
227.245	1.5
228.045	1.5
228.845	2.5
229.645	4.5
230.444	5.5
231.244	4.5
232.043	2.5
232.843	2.5
233.642	3.5
234.442	5.5
235.241	4.5
236.04	3.5
236.839	4.5
237.638	3.5
238.437	5.5
239.236	3.5
240.035	5.5
240.833	6.5
241.632	4.5
242.43	5.5
243.229	4.5
244.027	4.5
244.826	5.5
245.624	7.5
246.422	4.5
247.22	4.5
248.018	6.5
248.816	6.5
249.614	7.5
250.412	5.5
251.21	8.5
252.007	6.5
252.805	3.5
253.602	6.5
254.4	6.5
255.197	7.5
255.994	7.5
256.791	8.5
257.589	6.5
258.386	8.5
259.183	9.5
259.979	7.5
260.776	10.5
261.573	6.5
262.37	12.5
263.166	13.5
263.963	10.5
264.759	13.5
265.556	9.5
266.352	13.5
267.148	14.5
267.944	11.5
268.74	14.5
269.536	14.5
270.332	16.5
271.128	13.5
271.924	11.5
272.719	15.5
273.515	17.5
274.311	16.5
275.106	15.5
275.901	16.5
276.697	19.5
277.492	16.5
278.287	16.5
279.082	19.5
279.877	20.5
280.672	21.5
281.467	17.5
282.262	17.5
283.056	20.5
283.851	19.5
284.646	20.5
285.44	18.5
286.234	17.5
287.029	18.5
287.823	18.5
288.617	21.5
289.411	19.5
290.205	17.5
290.999	20.5
291.793	17.5
292.587	16.5
293.381	17.5
294.174	17.5
294.968	16.5
295.761	18.5
296.555	15.5
297.348	15.5
298.141	13.5
298.935	17.5
299.728	14.5
300.521	13.5
301.314	16.5
302.107	12.5
302.899	13.5
303.692	13.5
304.485	12.5
305.277	12.5
306.07	10.5
306.862	10.5
307.655	12.5
308.447	12.5
309.239	13.5
310.031	13.5
310.823	12.5
311.615	7.5
312.407	12.5
313.199	8.5
313.991	9.5
314.783	8.5
315.574	9.5
316.366	9.5
317.157	10.5
317.949	8.5
318.74	8.5
319.531	6.5
320.322	9.5
321.113	4.5
321.904	6.5
322.695	7.5
323.486	9.5
324.277	8.5
325.068	6.5
325.858	7.5
326.649	4.5
327.439	7.5
328.23	6.5
329.02	7.5
329.81	8.5
330.6	4.5
331.391	5.5
332.181	7.5
332.971	7.5
333.76	7.5
334.55	7.5
335.34	6.5
336.13	7.5
336.919	7.5
337.709	6.5
338.498	7.5
339.287	7.5
340.077	6.5
340.866	5.5
341.655	5.5
342.444	6.5
343.233	7.5
344.022	8.5
344.811	4.5
345.6	6.5
346.388	5.5
347.177	7.5
347.965	6.5
348.754	6.5
349.542	3.5
350.33	6.5
351.119	4.5
351.907	8.5
352.695	7.5
353.483	5.5
354.271	4.5
355.059	4.5
355.846	5.5
356.634	3.5
357.422	1.5
358.209	6.5
358.997	4.5
359.784	4.5
360.571	3.5
361.359	5.5
362.146	6.5
362.933	2.5
363.72	8.5
364.507	6.5
365.294	5.5
366.081	5.5
366.867	5.5
367.654	5.5
368.44	4.5
369.227	6.5
370.013	3.5
370.8	6.5
371.586	5.5
372.372	4.5
373.158	4.5
373.944	5.5
374.73	5.5
375.516	5.5
376.302	5.5
377.088	4.5
377.873	6.5
378.659	7.5
379.445	4.5
380.23	4.5
381.015	5.5
381.801	5.5
382.586	5.5
383.371	6.5
384.156	2.5
384.941	2.5
385.726	4.5
386.511	4.5
387.296	5.5
388.08	5.5
388.865	6.5
389.649	5.5
390.434	6.5
391.218	4.5
392.003	5.5
392.787	5.5
393.571	5.5
394.355	5.5
395.139	4.5
395.923	5.5
396.707	6.5
397.491	6.5
398.274	4.5
399.058	7.5
399.842	5.5
400.625	4.5
401.408	8.5
402.192	7.5
402.975	6.5
403.758	7.5
404.541	10.5
405.324	7.5
406.107	6.5
406.89	6.5
407.673	6.5
408.456	7.5
409.238	8.5
410.021	9.5
410.803	6.5
411.586	9.5
412.368	9.5
413.151	10.5
413.933	9.5
414.715	7.5
415.497	8.5
416.279	9.5
417.061	8.5
417.843	9.5
418.624	8.5
419.406	12.5
420.188	9.5
420.969	12.5
421.751	10.5
422.532	9.5
423.313	11.5
424.095	12.5
424.876	10.5
425.657	10.5
426.438	11.5
427.219	13.5
428	13.5
428.78	14.5
429.561	12.5
430.342	13.5
431.122	15.5
431.903	14.5
432.683	16.5
433.464	14.5
434.244	14.5
435.024	17.5
435.804	17.5
436.584	20.5
437.364	15.5
438.144	18.5
438.924	20.5
439.704	20.5
440.483	22.5
441.263	21.5
442.042	26.5
442.822	28.5
443.601	26.5
444.38	28.5
445.16	29.5
445.939	31.5
446.718	36.5
447.497	36.5
448.276	37.5
449.054	43.5
449.833	48.5
450.612	50.5
451.391	57.5
452.169	60.5
452.948	65.5
453.726	71.5
454.504	75.5
455.282	85.5
456.061	92.5
456.839	109.5
457.617	118.5
458.395	127.5
459.172	146.5
459.95	159.5
460.728	179.5
461.506	200.5
462.283	224.5
463.061	248.5
463.838	283.5
464.615	308.5
465.393	345.5
466.17	394.5
466.947	429.5
467.724	498.5
468.501	542.5
469.278	607.5
470.055	684.5
470.831	740.5
471.608	842.5
472.385	930.5
473.161	1025.5
473.938	1147.5
474.714	1274.5
475.49	1410.5
476.266	1583.5
477.043	1745.5
477.819	1919.5
478.595	2148.5
479.371	2333.5
480.146	2588.5
480.922	2866.5
481.698	3174.5
482.473	3501.5
483.249	3859.5
484.024	4236.5
484.8	4692.5
485.575	5172.5
486.35	5696.5
487.126	6251.5
487.901	6869.5
488.676	7542.5
489.451	8276.5
490.225	9042.5
491	9885.5
491.775	10880.5
492.55	11860.5
493.324	12850.5
494.099	13832.5
494.873	14980.5
495.647	16077.5
496.422	17339.5
497.196	18554.5
497.97	19821.5
498.744	21001.5
499.518	22228.5
500.292	23417.5
501.066	24464.5
501.839	25436.5
502.613	26322.5
503.387	27087.5
504.16	27639.5
504.934	28011.5
505.707	27999.5
506.48	28015.5
507.253	27832.5
508.027	27562.5
508.8	27186.5
509.573	26619.5
510.346	25916.5
511.118	25127.5
511.891	24210.5
512.664	23366.5
513.437	22492.5
514.209	21481.5
514.982	20590.5
515.754	19602.5
516.526	18717.5
517.298	17928.5
518.071	17138.5
518.843	16467.5
519.615	15844.5
520.387	15263.5
521.159	14574.5
521.93	14002.5
522.702	13464.5
523.474	12941.5
524.245	12343.5
525.017	11824.5
525.788	11324.5
526.56	10789.5
527.331	10298.5
528.102	9821.5
528.873	9389.5
529.644	8925.5
530.415	8458.5
531.186	8050.5
531.957	7598.5
532.728	7229.5
533.498	6814.5
534.269	6447.5
535.039	6070.5
535.81	5744.5
536.58	5444.5
537.351	5126.5
538.121	4827.5
538.891	4601.5
539.661	4330.5
540.431	4059.5
541.201	3860.5
541.971	3645.5
542.741	3466.5
543.51	3284.5
544.28	3167.5
545.05	2988.5
545.819	2838.5
546.588	2704.5
547.358	2569.5
548.127	2432.5
548.896	2322.5
549.665	2208.5
550.434	2072.5
551.203	1973.5
551.972	1857.5
552.741	1752.5
553.51	1652.5
554.278	1549.5
555.047	1474.5
555.815	1385.5
556.584	1310.5
557.352	1236.5
558.121	1166.5
558.889	1102.5
559.657	1039.5
560.425	981.5
561.193	923.5
561.961	877.5
562.729	822.5
563.496	776.5
564.264	737.5
565.032	707.5
565.799	667.5
566.567	620.5
567.334	596.5
568.101	559.5
568.869	518.5
569.636	495.5
570.403	459.5
571.17	437.5
571.937	419.5
572.704	390.5
573.471	374.5
574.237	345.5
575.004	327.5
575.771	311.5
576.537	285.5
577.303	275.5
578.07	258.5
578.836	247.5
579.602	229.5
580.368	216.5
581.134	203.5
581.9	198.5
582.666	186.5
583.432	176.5
584.198	165.5
584.964	160.5
585.729	151.5
586.495	139.5
587.26	133.5
588.025	130.5
588.791	116.5
589.556	113.5
590.321	109.5
591.086	106.5
591.851	96.5
592.616	93.5
593.381	89.5
594.146	80.5
594.911	79.5
595.675	75.5
596.44	72.5
597.204	73.5
597.969	65.5
598.733	70.5
599.497	61.5
600.261	57.5
601.025	51.5
601.79	54.5
602.553	51.5
603.317	48.5
604.081	46.5
604.845	43.5
605.609	46.5
606.372	38.5
607.136	35.5
607.899	40.5
608.662	35.5
609.426	36.5
610.189	33.5
610.952	31.5
611.715	31.5
612.478	31.5
613.241	29.5
614.004	27.5
614.767	25.5
615.529	28.5
616.292	25.5
617.055	23.5
617.817	19.5
618.579	22.5
619.342	25.5
620.104	18.5
620.866	18.5
621.628	18.5
622.39	19.5
623.152	19.5
623.914	18.5
624.676	19.5
625.438	13.5
626.199	18.5
626.961	13.5
627.722	14.5
628.484	13.5
629.245	15.5
630.006	13.5
630.768	9.5
631.529	12.5
632.29	10.5
633.051	13.5
633.812	12.5
634.573	12.5
635.333	10.5
636.094	9.5
636.855	12.5
637.615	10.5
638.376	10.5
639.136	9.5
639.896	7.5
640.657	9.5
641.417	8.5
642.177	8.5
642.937	8.5
643.697	5.5
644.457	9.5
645.216	7.5
645.976	9.5
646.736	9.5
647.495	6.5
648.255	9.5
649.014	8.5
649.774	7.5
650.533	7.5
651.292	4.5
652.051	7.5
652.81	7.5
653.569	8.5
654.328	2.5
655.087	6.5
655.846	4.5
656.604	6.5
657.363	6.5
658.121	3.5
658.88	5.5
659.638	5.5
660.397	5.5
661.155	4.5
661.913	6.5
662.671	8.5
663.429	1.5
664.187	9.5
664.945	3.5
665.703	2.5
666.46	3.5
667.218	4.5
667.976	3.5
668.733	3.5
669.49	6.5
670.248	3.5
671.005	3.5
671.762	4.5
672.519	4.5
673.276	7.5
674.033	4.5
674.79	4.5
675.547	3.5
676.304	2.5
677.06	2.5
677.817	2.5
678.574	4.5
679.33	3.5
680.086	3.5
680.843	3.5
681.599	5.5
682.355	5.5
683.111	5.5
683.867	2.5
684.623	3.5
685.379	4.5
686.135	3.5
686.89	5.5
687.646	4.5
688.402	5.5
689.157	4.5
689.912	5.5
690.668	3.5
691.423	5.5
692.178	4.5
692.933	2.5
693.688	4.5
694.443	2.5
695.198	4.5
695.953	5.5
696.708	3.5
697.462	5.5
698.217	2.5
698.972	1.5
699.726	3.5
700.48	3.5
701.235	2.5
701.989	4.5
702.743	2.5
703.497	3.5
704.251	4.5
705.005	3.5
705.759	5.5
706.513	1.5
707.266	3.5
708.02	3.5
708.774	3.5
709.527	3.5
710.28	2.5
711.034	3.5
711.787	5.5
712.54	3.5
713.293	3.5
714.046	2.5
714.799	3.5
715.552	1.5
716.305	1.5
717.058	1.5
717.81	1.5
718.563	2.5
719.315	4.5
720.068	3.5
720.82	3.5
721.573	2.5
722.325	3.5
723.077	4.5
723.829	2.5
724.581	3.5
725.333	2.5
726.085	3.5
726.836	5.5
727.588	6.5
728.34	1.5
729.091	5.5
729.843	6.5
730.594	3.5
731.346	2.5
732.097	4.5
732.848	3.5
733.599	5.5
734.35	3.5
735.101	4.5
735.852	5.5
736.603	6.5
737.354	4.5
738.104	3.5
738.855	2.5
739.605	1.5
740.356	3.5
741.106	4.5
741.856	6.5
742.607	5.5
743.357	3.5
744.107	6.5
744.857	5.5
745.607	4.5
746.357	3.5
747.106	5.5
747.856	3.5
748.606	3.5
749.355	5.5
750.105	4.5
750.854	3.5
751.603	4.5
752.353	6.5
753.102	6.5
753.851	4.5
754.6	4.5
755.349	6.5
756.098	7.5
756.847	6.5
757.595	6.5
758.344	5.5
759.093	9.5
759.841	4.5
760.589	6.5
761.338	5.5
762.086	6.5
762.834	9.5
763.582	5.5
764.331	4.5
765.079	9.5
765.826	6.5
766.574	7.5
767.322	7.5
768.07	5.5
768.817	8.5
769.565	6.5
770.312	8.5
771.06	7.5
771.807	8.5
772.554	7.5
773.302	7.5
774.049	8.5
774.796	6.5
775.543	7.5
776.29	7.5
777.036	9.5
777.783	8.5
778.53	9.5
779.276	9.5
780.023	9.5
780.769	9.5
781.516	7.5
782.262	7.5
783.008	11.5
783.754	8.5
784.5	9.5
785.246	10.5
785.992	8.5
786.738	11.5
787.484	9.5
788.23	9.5
788.975	9.5
789.721	7.5
790.466	8.5
791.212	6.5
791.957	11.5
792.702	6.5
793.447	7.5
794.193	8.5
794.938	5.5
795.683	6.5
796.427	7.5
797.172	6.5
797.917	9.5
798.662	6.5
799.406	9.5
800.151	8.5
800.895	9.5
801.64	7.5
802.384	8.5
803.128	8.5
803.872	6.5
804.616	8.5
805.36	6.5
806.104	8.5
806.848	8.5
807.592	6.5
808.336	5.5
809.079	5.5
809.823	3.5
810.566	6.5
811.31	4.5
812.053	6.5
812.796	4.5
813.539	6.5
814.283	6.5
815.026	6.5
815.769	5.5
816.511	5.5
817.254	4.5
817.997	3.5
818.74	3.5
819.482	2.5
820.225	5.5
820.967	3.5
821.71	4.5
822.452	2.5
823.194	3.5
823.936	4.5
824.678	3.5
825.42	4.5
826.162	4.5
826.904	5.5
827.646	1.5
828.388	3.5
829.129	4.5
829.871	1.5
830.612	4.5
831.354	3.5
832.095	4.5
832.836	2.5
833.577	-0.5
834.319	4.5
835.06	3.5
835.801	3.5
836.542	2.5
837.282	4.5
838.023	2.5
838.764	1.5
839.504	6.5
840.245	3.5
840.985	4.5
841.726	2.5
842.466	2.5
843.206	3.5
843.946	1.5
844.687	3.5
845.427	4.5
846.166	3.5
846.906	2.5
847.646	1.5
848.386	2.5
849.125	2.5
849.865	2.5
850.605	2.5
851.344	1.5
852.083	4.5
852.823	5.5
853.562	1.5
854.301	2.5
855.04	3.5
855.779	4.5
856.518	2.5
857.257	2.5
857.995	2.5
858.734	4.5
859.473	3.5
860.211	2.5
860.95	0.5
861.688	1.5
862.426	2.5
863.165	2.5
863.903	2.5
864.641	1.5
865.379	1.5
866.117	2.5
866.855	-0.5
867.593	0.5
868.33	2.5
869.068	-0.5
869.806	2.5
870.543	1.5
871.28	1.5
872.018	1.5
872.755	3.5
873.492	2.5
874.229	-0.5
874.967	-0.5
875.703	0.5
876.44	0.5
877.177	1.5
877.914	-0.5
878.651	1.5
879.387	2.5
880.124	0.5
880.86	1.5
881.597	1.5
882.333	0.5
883.069	0.5
883.806	1.5
884.542	-0.5
885.278	1.5
886.014	1.5
886.749	1.5
887.485	1.5
888.221	1.5
888.957	1.5
889.692	-0.5
890.428	1.5
891.163	1.5
891.899	-0.5
892.634	-0.5
893.369	-0.5
894.104	0.5
894.839	2.5
895.574	-0.5
896.309	1.5
897.044	1.5
897.779	0.5
898.514	2.5
899.248	3.5
899.983	-0.5
900.717	1.5
901.452	0.5
902.186	-0.5
902.92	1.5
903.654	-1.5
904.389	1.5
905.123	1.5
905.857	-0.5
906.59	-0.5
907.324	1.5
908.058	1.5
908.792	-0.5
909.525	0.5
910.259	2.5
910.992	-1.5
911.726	0.5
912.459	0.5
913.192	0.5
913.925	2.5
914.658	-0.5
915.391	-0.5
916.124	1.5
916.857	-0.5
917.59	-0.5
918.323	1.5
919.055	2.5
919.788	-1.5
920.521	1.5
921.253	1.5
921.985	-0.5
922.718	0.5
923.45	0.5
924.182	-0.5
924.914	0.5
925.646	-1.5
926.378	-2.5
927.11	2.5
927.841	2.5
928.573	-0.5
929.305	-0.5
930.036	0.5
930.768	-0.5
931.499	2.5
932.23	-0.5
932.962	0.5
933.693	1.5
934.424	1.5
935.155	-0.5
935.886	0.5
936.617	0.5
937.348	1.5
938.078	1.5
938.809	2.5
939.54	-0.5
940.27	-0.5
941.001	0.5
941.731	-1.5
942.461	-1.5
943.191	1.5
943.922	-0.5
944.652	-0.5
945.382	0.5
946.112	1.5
946.841	3.5
947.571	0.5
948.301	1.5
949.031	1.5
949.76	-1.5
950.49	0.5
951.219	-0.5
951.948	2.5
952.678	-1.5
953.407	1.5
954.136	0.5
954.865	-2.5
955.594	0.5
956.323	-1.5
957.052	1.5
957.78	1.5
958.509	1.5
959.238	2.5
959.966	-0.5
960.695	-1.5
961.423	-1.5
962.151	0.5
962.88	0.5
963.608	3.5
964.336	0.5
965.064	-0.5
965.792	0.5
966.52	-1.5
967.247	0.5
967.975	-0.5
968.703	-1.5
969.43	1.5
970.158	-0.5
970.885	1.5
971.613	-0.5
972.34	0.5
973.067	-0.5
973.794	-1.5
974.521	-0.5
975.248	1.5
975.975	1.5
976.702	-1.5
977.429	-1.5
978.156	-0.5
978.882	-2.5
979.609	1.5
980.335	1.5
981.062	-1.5
981.788	1.5
982.514	-0.5
983.24	0.5
983.967	2.5
984.693	1.5
985.419	1.5
986.144	0.5
986.87	-1.5
987.596	-0.5
988.322	2.5
989.047	-0.5
989.773	0.5
990.498	-0.5
991.224	-0.5
991.949	2.5
992.674	-0.5
993.399	-1.5
994.124	-0.5
994.849	-0.5
995.574	-0.5
996.299	-1.5
997.024	1.5
997.749	-0.5
998.473	1.5
999.198	-2.5
999.922	-0.5
1000.647	1.5
1001.371	4.5
1002.095	-1.5
1002.82	-1.5
1003.544	-2.5
1004.268	2.5
1004.992	-2.5
1005.716	0.5
1006.439	1.5
1007.163	1.5
1007.887	2.5
1008.611	1.5
1009.334	2.5
1010.058	0.5
1010.781	-1.5
1011.504	1.5
1012.228	1.5
1012.951	-1.5
1013.674	0.5
1014.397	0.5
1015.12	1.5
