节点500_285_QEPB04081__800__15-08-51-743.txt的数据

Date: Wed Nov 12 15:08:51 CST 2025
User: PC
Spectrometer: QEPB0408
触发模式: 0
积分时间 (秒): 1.000000E-2
Scans to average: 1
启用暗噪声校正: true
启用非线性校正: false
滑动平均宽度: 0
X轴模式: Wavelengths
Number of Pixels in Spectrum: 1044
>>>>>Begin Spectral Data<<<<<
220.843	2.88
221.644	2.88
222.444	1.88
223.244	2.88
224.045	1.88
224.845	2.88
225.645	0.88
226.445	2.88
227.245	3.88
228.045	3.88
228.845	2.88
229.645	2.88
230.444	0.88
231.244	1.88
232.043	4.88
232.843	3.88
233.642	3.88
234.442	5.88
235.241	4.88
236.04	1.88
236.839	4.88
237.638	2.88
238.437	4.88
239.236	2.88
240.035	3.88
240.833	3.88
241.632	6.88
242.43	5.88
243.229	4.88
244.027	6.88
244.826	2.88
245.624	5.88
246.422	4.88
247.22	5.88
248.018	5.88
248.816	4.88
249.614	6.88
250.412	5.88
251.21	6.88
252.007	4.88
252.805	7.88
253.602	7.88
254.4	8.88
255.197	7.88
255.994	7.88
256.791	8.88
257.589	7.88
258.386	10.88
259.183	8.88
259.979	9.88
260.776	6.88
261.573	10.88
262.37	9.88
263.166	11.88
263.963	11.88
264.759	10.88
265.556	7.88
266.352	11.88
267.148	6.88
267.944	14.88
268.74	10.88
269.536	13.88
270.332	14.88
271.128	14.88
271.924	13.88
272.719	15.88
273.515	13.88
274.311	13.88
275.106	16.88
275.901	14.88
276.697	14.88
277.492	16.88
278.287	14.88
279.082	16.88
279.877	17.88
280.672	17.88
281.467	17.88
282.262	17.88
283.056	16.88
283.851	17.88
284.646	18.88
285.44	17.88
286.234	18.88
287.029	20.88
287.823	16.88
288.617	17.88
289.411	13.88
290.205	16.88
290.999	16.88
291.793	15.88
292.587	16.88
293.381	17.88
294.174	15.88
294.968	17.88
295.761	15.88
296.555	17.88
297.348	17.88
298.141	13.88
298.935	15.88
299.728	14.88
300.521	14.88
301.314	14.88
302.107	14.88
302.899	14.88
303.692	12.88
304.485	12.88
305.277	13.88
306.07	14.88
306.862	11.88
307.655	13.88
308.447	11.88
309.239	12.88
310.031	10.88
310.823	11.88
311.615	10.88
312.407	10.88
313.199	10.88
313.991	11.88
314.783	12.88
315.574	10.88
316.366	5.88
317.157	8.88
317.949	8.88
318.74	9.88
319.531	6.88
320.322	9.88
321.113	8.88
321.904	8.88
322.695	6.88
323.486	5.88
324.277	10.88
325.068	9.88
325.858	7.88
326.649	6.88
327.439	7.88
328.23	7.88
329.02	7.88
329.81	4.88
330.6	4.88
331.391	7.88
332.181	7.88
332.971	7.88
333.76	6.88
334.55	5.88
335.34	6.88
336.13	6.88
336.919	6.88
337.709	6.88
338.498	7.88
339.287	7.88
340.077	6.88
340.866	6.88
341.655	6.88
342.444	8.88
343.233	6.88
344.022	5.88
344.811	6.88
345.6	3.88
346.388	5.88
347.177	5.88
347.965	5.88
348.754	5.88
349.542	5.88
350.33	5.88
351.119	5.88
351.907	8.88
352.695	5.88
353.483	5.88
354.271	6.88
355.059	6.88
355.846	8.88
356.634	3.88
357.422	5.88
358.209	5.88
358.997	5.88
359.784	5.88
360.571	3.88
361.359	6.88
362.146	5.88
362.933	7.88
363.72	4.88
364.507	7.88
365.294	5.88
366.081	5.88
366.867	6.88
367.654	5.88
368.44	4.88
369.227	4.88
370.013	4.88
370.8	4.88
371.586	3.88
372.372	5.88
373.158	4.88
373.944	5.88
374.73	4.88
375.516	5.88
376.302	7.88
377.088	3.88
377.873	7.88
378.659	3.88
379.445	4.88
380.23	5.88
381.015	5.88
381.801	6.88
382.586	6.88
383.371	2.88
384.156	7.88
384.941	6.88
385.726	7.88
386.511	7.88
387.296	7.88
388.08	3.88
388.865	6.88
389.649	5.88
390.434	3.88
391.218	5.88
392.003	6.88
392.787	7.88
393.571	5.88
394.355	7.88
395.139	6.88
395.923	5.88
396.707	6.88
397.491	6.88
398.274	6.88
399.058	6.88
399.842	6.88
400.625	7.88
401.408	4.88
402.192	4.88
402.975	8.88
403.758	8.88
404.541	6.88
405.324	7.88
406.107	9.88
406.89	6.88
407.673	10.88
408.456	8.88
409.238	8.88
410.021	9.88
410.803	8.88
411.586	9.88
412.368	10.88
413.151	8.88
413.933	9.88
414.715	9.88
415.497	11.88
416.279	9.88
417.061	9.88
417.843	9.88
418.624	9.88
419.406	10.88
420.188	11.88
420.969	10.88
421.751	12.88
422.532	9.88
423.313	8.88
424.095	12.88
424.876	10.88
425.657	11.88
426.438	13.88
427.219	14.88
428	14.88
428.78	10.88
429.561	13.88
430.342	13.88
431.122	16.88
431.903	16.88
432.683	13.88
433.464	15.88
434.244	16.88
435.024	16.88
435.804	18.88
436.584	18.88
437.364	19.88
438.144	19.88
438.924	17.88
439.704	20.88
440.483	22.88
441.263	22.88
442.042	25.88
442.822	25.88
443.601	25.88
444.38	32.88
445.16	30.88
445.939	33.88
446.718	41.88
447.497	40.88
448.276	47.88
449.054	48.88
449.833	52.88
450.612	57.88
451.391	65.88
452.169	71.88
452.948	75.88
453.726	80.88
454.504	90.88
455.282	101.88
456.061	112.88
456.839	124.88
457.617	138.88
458.395	153.88
459.172	167.88
459.95	186.88
460.728	208.88
461.506	232.88
462.283	252.88
463.061	286.88
463.838	324.88
464.615	357.88
465.393	398.88
466.17	441.88
466.947	489.88
467.724	541.88
468.501	608.88
469.278	661.88
470.055	733.88
470.831	813.88
471.608	900.88
472.385	992.88
473.161	1088.88
473.938	1215.88
474.714	1342.88
475.49	1470.88
476.266	1609.88
477.043	1748.88
477.819	1929.88
478.595	2137.88
479.371	2333.88
480.146	2555.88
480.922	2786.88
481.698	3044.88
482.473	3339.88
483.249	3654.88
484.024	3981.88
484.8	4330.88
485.575	4733.88
486.35	5137.88
487.126	5611.88
487.901	6122.88
488.676	6675.88
489.451	7246.88
490.225	7838.88
491	8511.88
491.775	9266.88
492.55	10055.88
493.324	10853.88
494.099	11657.88
494.873	12478.88
495.647	13381.88
496.422	14420.88
497.196	15414.88
497.97	16389.88
498.744	17503.88
499.518	18506.88
500.292	19529.88
501.066	20497.88
501.839	21397.88
502.613	22298.88
503.387	23162.88
504.16	23824.88
504.934	24390.88
505.707	24739.88
506.48	24937.88
507.253	25117.88
508.027	25120.88
508.8	24992.88
509.573	24937.88
510.346	24513.88
511.118	24042.88
511.891	23485.88
512.664	22877.88
513.437	22192.88
514.209	21404.88
514.982	20618.88
515.754	19818.88
516.526	19025.88
517.298	18303.88
518.071	17521.88
518.843	16891.88
519.615	16266.88
520.387	15635.88
521.159	15013.88
521.93	14397.88
522.702	13856.88
523.474	13240.88
524.245	12676.88
525.017	12182.88
525.788	11749.88
526.56	11172.88
527.331	10737.88
528.102	10234.88
528.873	9801.88
529.644	9386.88
530.415	8930.88
531.186	8501.88
531.957	8084.88
532.728	7700.88
533.498	7317.88
534.269	6953.88
535.039	6592.88
535.81	6223.88
536.58	5861.88
537.351	5534.88
538.121	5256.88
538.891	4961.88
539.661	4691.88
540.431	4428.88
541.201	4199.88
541.971	3960.88
542.741	3765.88
543.51	3598.88
544.28	3413.88
545.05	3255.88
545.819	3075.88
546.588	2921.88
547.358	2799.88
548.127	2670.88
548.896	2522.88
549.665	2394.88
550.434	2260.88
551.203	2148.88
551.972	2040.88
552.741	1930.88
553.51	1826.88
554.278	1719.88
555.047	1632.88
555.815	1549.88
556.584	1449.88
557.352	1371.88
558.121	1324.88
558.889	1235.88
559.657	1159.88
560.425	1104.88
561.193	1028.88
561.961	993.88
562.729	932.88
563.496	866.88
564.264	831.88
565.032	781.88
565.799	738.88
566.567	711.88
567.334	662.88
568.101	625.88
568.869	595.88
569.636	555.88
570.403	517.88
571.17	494.88
571.937	469.88
572.704	444.88
573.471	416.88
574.237	393.88
575.004	371.88
575.771	343.88
576.537	331.88
577.303	307.88
578.07	295.88
578.836	276.88
579.602	257.88
580.368	242.88
581.134	234.88
581.9	222.88
582.666	204.88
583.432	200.88
584.198	189.88
584.964	182.88
585.729	168.88
586.495	159.88
587.26	152.88
588.025	142.88
588.791	136.88
589.556	133.88
590.321	117.88
591.086	118.88
591.851	108.88
592.616	105.88
593.381	98.88
594.146	91.88
594.911	91.88
595.675	81.88
596.44	84.88
597.204	78.88
597.969	70.88
598.733	70.88
599.497	71.88
600.261	65.88
601.025	62.88
601.79	58.88
602.553	54.88
603.317	53.88
604.081	53.88
604.845	46.88
605.609	47.88
606.372	44.88
607.136	45.88
607.899	40.88
608.662	39.88
609.426	41.88
610.189	34.88
610.952	35.88
611.715	33.88
612.478	34.88
613.241	31.88
614.004	30.88
614.767	30.88
615.529	26.88
616.292	28.88
617.055	25.88
617.817	22.88
618.579	25.88
619.342	23.88
620.104	23.88
620.866	22.88
621.628	22.88
622.39	19.88
623.152	19.88
623.914	18.88
624.676	16.88
625.438	19.88
626.199	14.88
626.961	17.88
627.722	17.88
628.484	14.88
629.245	16.88
630.006	14.88
630.768	12.88
631.529	14.88
632.29	13.88
633.051	13.88
633.812	14.88
634.573	13.88
635.333	10.88
636.094	11.88
636.855	12.88
637.615	11.88
638.376	11.88
639.136	9.88
639.896	9.88
640.657	8.88
641.417	10.88
642.177	10.88
642.937	8.88
643.697	12.88
644.457	9.88
645.216	9.88
645.976	7.88
646.736	8.88
647.495	7.88
648.255	7.88
649.014	6.88
649.774	8.88
650.533	9.88
651.292	9.88
652.051	8.88
652.81	8.88
653.569	4.88
654.328	7.88
655.087	6.88
655.846	9.88
656.604	7.88
657.363	8.88
658.121	6.88
658.88	5.88
659.638	5.88
660.397	5.88
661.155	6.88
661.913	6.88
662.671	7.88
663.429	4.88
664.187	5.88
664.945	5.88
665.703	3.88
666.46	5.88
667.218	4.88
667.976	6.88
668.733	4.88
669.49	5.88
670.248	5.88
671.005	6.88
671.762	3.88
672.519	6.88
673.276	4.88
674.033	5.88
674.79	4.88
675.547	3.88
676.304	5.88
677.06	5.88
677.817	4.88
678.574	3.88
679.33	5.88
680.086	5.88
680.843	6.88
681.599	5.88
682.355	5.88
683.111	3.88
683.867	4.88
684.623	5.88
685.379	4.88
686.135	2.88
686.89	3.88
687.646	5.88
688.402	3.88
689.157	2.88
689.912	4.88
690.668	1.88
691.423	4.88
692.178	5.88
692.933	4.88
693.688	4.88
694.443	4.88
695.198	4.88
695.953	2.88
696.708	3.88
697.462	5.88
698.217	2.88
698.972	3.88
699.726	2.88
700.48	4.88
701.235	5.88
701.989	2.88
702.743	5.88
703.497	4.88
704.251	5.88
705.005	3.88
705.759	4.88
706.513	3.88
707.266	4.88
708.02	6.88
708.774	2.88
709.527	4.88
710.28	3.88
711.034	4.88
711.787	1.88
712.54	1.88
713.293	4.88
714.046	4.88
714.799	3.88
715.552	1.88
716.305	2.88
717.058	4.88
717.81	3.88
718.563	5.88
719.315	1.88
720.068	5.88
720.82	5.88
721.573	5.88
722.325	5.88
723.077	4.88
723.829	2.88
724.581	4.88
725.333	5.88
726.085	3.88
726.836	2.88
727.588	3.88
728.34	3.88
729.091	3.88
729.843	4.88
730.594	4.88
731.346	5.88
732.097	5.88
732.848	4.88
733.599	3.88
734.35	8.88
735.101	2.88
735.852	2.88
736.603	5.88
737.354	2.88
738.104	4.88
738.855	2.88
739.605	4.88
740.356	4.88
741.106	6.88
741.856	4.88
742.607	3.88
743.357	4.88
744.107	2.88
744.857	5.88
745.607	2.88
746.357	4.88
747.106	4.88
747.856	6.88
748.606	2.88
749.355	3.88
750.105	3.88
750.854	5.88
751.603	5.88
752.353	6.88
753.102	6.88
753.851	6.88
754.6	4.88
755.349	6.88
756.098	6.88
756.847	2.88
757.595	5.88
758.344	5.88
759.093	7.88
759.841	6.88
760.589	6.88
761.338	7.88
762.086	7.88
762.834	10.88
763.582	3.88
764.331	6.88
765.079	4.88
765.826	7.88
766.574	7.88
767.322	5.88
768.07	6.88
768.817	8.88
769.565	7.88
770.312	7.88
771.06	6.88
771.807	6.88
772.554	6.88
773.302	9.88
774.049	7.88
774.796	7.88
775.543	7.88
776.29	6.88
777.036	9.88
777.783	6.88
778.53	7.88
779.276	9.88
780.023	9.88
780.769	5.88
781.516	7.88
782.262	8.88
783.008	8.88
783.754	9.88
784.5	8.88
785.246	7.88
785.992	9.88
786.738	7.88
787.484	9.88
788.23	6.88
788.975	5.88
789.721	6.88
790.466	9.88
791.212	8.88
791.957	7.88
792.702	7.88
793.447	9.88
794.193	9.88
794.938	7.88
795.683	6.88
796.427	7.88
797.172	9.88
797.917	9.88
798.662	7.88
799.406	7.88
800.151	7.88
800.895	5.88
801.64	8.88
802.384	5.88
803.128	7.88
803.872	9.88
804.616	7.88
805.36	7.88
806.104	2.88
806.848	6.88
807.592	4.88
808.336	6.88
809.079	5.88
809.823	4.88
810.566	7.88
811.31	7.88
812.053	6.88
812.796	6.88
813.539	7.88
814.283	4.88
815.026	6.88
815.769	4.88
816.511	5.88
817.254	7.88
817.997	5.88
818.74	7.88
819.482	3.88
820.225	2.88
820.967	2.88
821.71	3.88
822.452	5.88
823.194	4.88
823.936	3.88
824.678	4.88
825.42	4.88
826.162	4.88
826.904	2.88
827.646	5.88
828.388	3.88
829.129	2.88
829.871	5.88
830.612	3.88
831.354	5.88
832.095	5.88
832.836	3.88
833.577	6.88
834.319	3.88
835.06	3.88
835.801	1.88
836.542	4.88
837.282	4.88
838.023	4.88
838.764	4.88
839.504	3.88
840.245	4.88
840.985	1.88
841.726	1.88
842.466	4.88
843.206	3.88
843.946	2.88
844.687	4.88
845.427	3.88
846.166	2.88
846.906	3.88
847.646	4.88
848.386	1.88
849.125	2.88
849.865	1.88
850.605	3.88
851.344	4.88
852.083	2.88
852.823	4.88
853.562	1.88
854.301	2.88
855.04	-0.12
855.779	4.88
856.518	0.88
857.257	2.88
857.995	3.88
858.734	1.88
859.473	0.88
860.211	3.88
860.95	2.88
861.688	0.88
862.426	2.88
863.165	2.88
863.903	-0.12
864.641	2.88
865.379	1.88
866.117	2.88
866.855	1.88
867.593	3.88
868.33	1.88
869.068	1.88
869.806	2.88
870.543	2.88
871.28	2.88
872.018	3.88
872.755	1.88
873.492	0.88
874.229	1.88
874.967	2.88
875.703	2.88
876.44	1.88
877.177	2.88
877.914	0.88
878.651	1.88
879.387	3.88
880.124	2.88
880.86	2.88
881.597	0.88
882.333	2.88
883.069	-0.12
883.806	2.88
884.542	3.88
885.278	2.88
886.014	2.88
886.749	-1.12
887.485	4.88
888.221	1.88
888.957	1.88
889.692	0.88
890.428	0.88
891.163	2.88
891.899	0.88
892.634	0.88
893.369	1.88
894.104	1.88
894.839	0.88
895.574	1.88
896.309	1.88
897.044	0.88
897.779	1.88
898.514	0.88
899.248	0.88
899.983	0.88
900.717	1.88
901.452	2.88
902.186	-1.12
902.92	1.88
903.654	-1.12
904.389	0.88
905.123	0.88
905.857	2.88
906.59	1.88
907.324	-0.12
908.058	1.88
908.792	1.88
909.525	0.88
910.259	-0.12
910.992	1.88
911.726	2.88
912.459	-0.12
913.192	1.88
913.925	-0.12
914.658	-0.12
915.391	0.88
916.124	-0.12
916.857	1.88
917.59	1.88
918.323	2.88
919.055	-0.12
919.788	-1.12
920.521	0.88
921.253	0.88
921.985	0.88
922.718	-1.12
923.45	1.88
924.182	0.88
924.914	2.88
925.646	2.88
926.378	-0.12
927.11	0.88
927.841	-0.12
928.573	2.88
929.305	0.88
930.036	0.88
930.768	0.88
931.499	1.88
932.23	0.88
932.962	-0.12
933.693	-0.12
934.424	-0.12
935.155	0.88
935.886	1.88
936.617	-0.12
937.348	0.88
938.078	0.88
938.809	2.88
939.54	1.88
940.27	-1.12
941.001	2.88
941.731	1.88
942.461	0.88
943.191	0.88
943.922	1.88
944.652	0.88
945.382	1.88
946.112	0.88
946.841	-2.12
947.571	0.88
948.301	1.88
949.031	0.88
949.76	1.88
950.49	-0.12
951.219	1.88
951.948	1.88
952.678	1.88
953.407	-1.12
954.136	2.88
954.865	0.88
955.594	-1.12
956.323	2.88
957.052	0.88
957.78	2.88
958.509	-0.12
959.238	2.88
959.966	-1.12
960.695	-1.12
961.423	1.88
962.151	-0.12
962.88	1.88
963.608	-1.12
964.336	-1.12
965.064	0.88
965.792	0.88
966.52	0.88
967.247	-1.12
967.975	-0.12
968.703	-1.12
969.43	-0.12
970.158	-1.12
970.885	0.88
971.613	-0.12
972.34	1.88
973.067	-1.12
973.794	-0.12
974.521	0.88
975.248	-0.12
975.975	-1.12
976.702	-0.12
977.429	1.88
978.156	0.88
978.882	0.88
979.609	-0.12
980.335	0.88
981.062	0.88
981.788	2.88
982.514	2.88
983.24	-0.12
983.967	1.88
984.693	0.88
985.419	1.88
986.144	0.88
986.87	0.88
987.596	1.88
988.322	-1.12
989.047	0.88
989.773	-0.12
990.498	2.88
991.224	0.88
991.949	2.88
992.674	1.88
993.399	1.88
994.124	-1.12
994.849	1.88
995.574	0.88
996.299	0.88
997.024	1.88
997.749	2.88
998.473	-0.12
999.198	-0.12
999.922	1.88
1000.647	1.88
1001.371	2.88
1002.095	-0.12
1002.82	-3.12
1003.544	0.88
1004.268	3.88
1004.992	1.88
1005.716	2.88
1006.439	2.88
1007.163	1.88
1007.887	1.88
1008.611	-0.12
1009.334	0.88
1010.058	2.88
1010.781	1.88
1011.504	1.88
1012.228	-0.12
1012.951	-1.12
1013.674	-0.12
1014.397	-0.12
1015.12	0.88
