节点500_285_QEPB04081__804__15-08-55-741.txt的数据

Date: Wed Nov 12 15:08:55 CST 2025
User: PC
Spectrometer: QEPB0408
触发模式: 0
积分时间 (秒): 1.000000E-2
Scans to average: 1
启用暗噪声校正: true
启用非线性校正: false
滑动平均宽度: 0
X轴模式: Wavelengths
Number of Pixels in Spectrum: 1044
>>>>>Begin Spectral Data<<<<<
220.843	1.12
221.644	2.12
222.444	1.12
223.244	1.12
224.045	-0.88
224.845	1.12
225.645	1.12
226.445	2.12
227.245	2.12
228.045	3.12
228.845	5.12
229.645	3.12
230.444	3.12
231.244	2.12
232.043	0.12
232.843	6.12
233.642	4.12
234.442	6.12
235.241	5.12
236.04	5.12
236.839	3.12
237.638	2.12
238.437	4.12
239.236	2.12
240.035	7.12
240.833	4.12
241.632	2.12
242.43	6.12
243.229	3.12
244.027	3.12
244.826	3.12
245.624	4.12
246.422	4.12
247.22	7.12
248.018	5.12
248.816	5.12
249.614	5.12
250.412	6.12
251.21	5.12
252.007	8.12
252.805	5.12
253.602	5.12
254.4	8.12
255.197	9.12
255.994	6.12
256.791	7.12
257.589	8.12
258.386	5.12
259.183	10.12
259.979	8.12
260.776	9.12
261.573	9.12
262.37	10.12
263.166	9.12
263.963	11.12
264.759	12.12
265.556	9.12
266.352	12.12
267.148	13.12
267.944	12.12
268.74	12.12
269.536	11.12
270.332	13.12
271.128	13.12
271.924	15.12
272.719	13.12
273.515	12.12
274.311	13.12
275.106	16.12
275.901	18.12
276.697	16.12
277.492	19.12
278.287	13.12
279.082	17.12
279.877	16.12
280.672	14.12
281.467	16.12
282.262	16.12
283.056	16.12
283.851	16.12
284.646	18.12
285.44	16.12
286.234	18.12
287.029	16.12
287.823	17.12
288.617	19.12
289.411	17.12
290.205	19.12
290.999	18.12
291.793	18.12
292.587	18.12
293.381	18.12
294.174	14.12
294.968	19.12
295.761	16.12
296.555	14.12
297.348	18.12
298.141	12.12
298.935	18.12
299.728	13.12
300.521	13.12
301.314	15.12
302.107	14.12
302.899	14.12
303.692	11.12
304.485	14.12
305.277	14.12
306.07	12.12
306.862	12.12
307.655	14.12
308.447	13.12
309.239	12.12
310.031	11.12
310.823	11.12
311.615	12.12
312.407	10.12
313.199	10.12
313.991	9.12
314.783	10.12
315.574	7.12
316.366	9.12
317.157	10.12
317.949	5.12
318.74	7.12
319.531	11.12
320.322	7.12
321.113	10.12
321.904	8.12
322.695	8.12
323.486	7.12
324.277	8.12
325.068	8.12
325.858	8.12
326.649	8.12
327.439	7.12
328.23	6.12
329.02	8.12
329.81	5.12
330.6	6.12
331.391	5.12
332.181	6.12
332.971	6.12
333.76	8.12
334.55	7.12
335.34	7.12
336.13	6.12
336.919	5.12
337.709	5.12
338.498	8.12
339.287	6.12
340.077	8.12
340.866	4.12
341.655	8.12
342.444	6.12
343.233	5.12
344.022	8.12
344.811	6.12
345.6	6.12
346.388	6.12
347.177	7.12
347.965	5.12
348.754	6.12
349.542	5.12
350.33	6.12
351.119	5.12
351.907	6.12
352.695	4.12
353.483	5.12
354.271	4.12
355.059	6.12
355.846	8.12
356.634	6.12
357.422	5.12
358.209	5.12
358.997	9.12
359.784	4.12
360.571	5.12
361.359	3.12
362.146	4.12
362.933	6.12
363.72	3.12
364.507	4.12
365.294	5.12
366.081	7.12
366.867	4.12
367.654	6.12
368.44	6.12
369.227	4.12
370.013	5.12
370.8	4.12
371.586	6.12
372.372	7.12
373.158	7.12
373.944	6.12
374.73	3.12
375.516	4.12
376.302	4.12
377.088	5.12
377.873	5.12
378.659	3.12
379.445	5.12
380.23	5.12
381.015	3.12
381.801	6.12
382.586	5.12
383.371	5.12
384.156	5.12
384.941	5.12
385.726	3.12
386.511	8.12
387.296	4.12
388.08	5.12
388.865	5.12
389.649	5.12
390.434	6.12
391.218	4.12
392.003	5.12
392.787	6.12
393.571	5.12
394.355	5.12
395.139	6.12
395.923	5.12
396.707	3.12
397.491	7.12
398.274	7.12
399.058	5.12
399.842	8.12
400.625	6.12
401.408	6.12
402.192	4.12
402.975	7.12
403.758	7.12
404.541	6.12
405.324	8.12
406.107	7.12
406.89	6.12
407.673	6.12
408.456	7.12
409.238	7.12
410.021	8.12
410.803	9.12
411.586	8.12
412.368	7.12
413.151	9.12
413.933	9.12
414.715	8.12
415.497	10.12
416.279	9.12
417.061	5.12
417.843	11.12
418.624	9.12
419.406	9.12
420.188	10.12
420.969	9.12
421.751	10.12
422.532	9.12
423.313	11.12
424.095	12.12
424.876	10.12
425.657	13.12
426.438	11.12
427.219	10.12
428	13.12
428.78	10.12
429.561	11.12
430.342	14.12
431.122	15.12
431.903	13.12
432.683	16.12
433.464	14.12
434.244	16.12
435.024	18.12
435.804	18.12
436.584	17.12
437.364	18.12
438.144	20.12
438.924	21.12
439.704	19.12
440.483	22.12
441.263	24.12
442.042	27.12
442.822	27.12
443.601	29.12
444.38	33.12
445.16	33.12
445.939	36.12
446.718	40.12
447.497	41.12
448.276	44.12
449.054	48.12
449.833	50.12
450.612	56.12
451.391	62.12
452.169	71.12
452.948	73.12
453.726	81.12
454.504	87.12
455.282	100.12
456.061	112.12
456.839	125.12
457.617	141.12
458.395	160.12
459.172	168.12
459.95	190.12
460.728	206.12
461.506	237.12
462.283	259.12
463.061	299.12
463.838	327.12
464.615	350.12
465.393	395.12
466.17	439.12
466.947	478.12
467.724	545.12
468.501	598.12
469.278	672.12
470.055	746.12
470.831	815.12
471.608	902.12
472.385	992.12
473.161	1094.12
473.938	1207.12
474.714	1331.12
475.49	1456.12
476.266	1607.12
477.043	1769.12
477.819	1953.12
478.595	2117.12
479.371	2319.12
480.146	2526.12
480.922	2816.12
481.698	3052.12
482.473	3315.12
483.249	3641.12
484.024	3984.12
484.8	4350.12
485.575	4725.12
486.35	5144.12
487.126	5621.12
487.901	6131.12
488.676	6625.12
489.451	7225.12
490.225	7840.12
491	8499.12
491.775	9251.12
492.55	10066.12
493.324	10831.12
494.099	11603.12
494.873	12491.12
495.647	13397.12
496.422	14375.12
497.196	15412.12
497.97	16410.12
498.744	17428.12
499.518	18413.12
500.292	19495.12
501.066	20525.12
501.839	21445.12
502.613	22298.12
503.387	23118.12
504.16	23924.12
504.934	24359.12
505.707	24734.12
506.48	24924.12
507.253	25106.12
508.027	25096.12
508.8	24997.12
509.573	24909.12
510.346	24576.12
511.118	24039.12
511.891	23523.12
512.664	22857.12
513.437	22170.12
514.209	21397.12
514.982	20661.12
515.754	19839.12
516.526	19044.12
517.298	18309.12
518.071	17493.12
518.843	16882.12
519.615	16219.12
520.387	15627.12
521.159	15006.12
521.93	14368.12
522.702	13853.12
523.474	13319.12
524.245	12712.12
525.017	12152.12
525.788	11741.12
526.56	11241.12
527.331	10740.12
528.102	10272.12
528.873	9812.12
529.644	9334.12
530.415	8921.12
531.186	8512.12
531.957	8100.12
532.728	7713.12
533.498	7317.12
534.269	6952.12
535.039	6586.12
535.81	6206.12
536.58	5890.12
537.351	5553.12
538.121	5243.12
538.891	4979.12
539.661	4682.12
540.431	4448.12
541.201	4222.12
541.971	3983.12
542.741	3784.12
543.51	3618.12
544.28	3407.12
545.05	3254.12
545.819	3058.12
546.588	2957.12
547.358	2793.12
548.127	2675.12
548.896	2536.12
549.665	2392.12
550.434	2253.12
551.203	2154.12
551.972	2040.12
552.741	1923.12
553.51	1832.12
554.278	1722.12
555.047	1624.12
555.815	1539.12
556.584	1465.12
557.352	1366.12
558.121	1313.12
558.889	1231.12
559.657	1166.12
560.425	1108.12
561.193	1027.12
561.961	981.12
562.729	934.12
563.496	888.12
564.264	822.12
565.032	773.12
565.799	743.12
566.567	694.12
567.334	661.12
568.101	626.12
568.869	595.12
569.636	556.12
570.403	520.12
571.17	494.12
571.937	462.12
572.704	438.12
573.471	427.12
574.237	390.12
575.004	366.12
575.771	350.12
576.537	325.12
577.303	310.12
578.07	293.12
578.836	276.12
579.602	257.12
580.368	241.12
581.134	230.12
581.9	217.12
582.666	208.12
583.432	202.12
584.198	189.12
584.964	170.12
585.729	171.12
586.495	162.12
587.26	152.12
588.025	142.12
588.791	137.12
589.556	129.12
590.321	122.12
591.086	116.12
591.851	108.12
592.616	101.12
593.381	97.12
594.146	94.12
594.911	89.12
595.675	85.12
596.44	85.12
597.204	75.12
597.969	76.12
598.733	69.12
599.497	69.12
600.261	58.12
601.025	66.12
601.79	53.12
602.553	57.12
603.317	55.12
604.081	50.12
604.845	52.12
605.609	45.12
606.372	46.12
607.136	42.12
607.899	41.12
608.662	43.12
609.426	38.12
610.189	38.12
610.952	36.12
611.715	34.12
612.478	33.12
613.241	31.12
614.004	32.12
614.767	31.12
615.529	30.12
616.292	25.12
617.055	26.12
617.817	26.12
618.579	24.12
619.342	21.12
620.104	23.12
620.866	24.12
621.628	20.12
622.39	21.12
623.152	20.12
623.914	16.12
624.676	19.12
625.438	18.12
626.199	17.12
626.961	17.12
627.722	15.12
628.484	15.12
629.245	14.12
630.006	15.12
630.768	14.12
631.529	13.12
632.29	13.12
633.051	12.12
633.812	14.12
634.573	12.12
635.333	10.12
636.094	14.12
636.855	14.12
637.615	14.12
638.376	10.12
639.136	13.12
639.896	11.12
640.657	8.12
641.417	9.12
642.177	7.12
642.937	11.12
643.697	9.12
644.457	10.12
645.216	8.12
645.976	10.12
646.736	8.12
647.495	8.12
648.255	8.12
649.014	8.12
649.774	6.12
650.533	8.12
651.292	6.12
652.051	6.12
652.81	6.12
653.569	6.12
654.328	7.12
655.087	7.12
655.846	8.12
656.604	7.12
657.363	6.12
658.121	7.12
658.88	5.12
659.638	6.12
660.397	5.12
661.155	5.12
661.913	6.12
662.671	8.12
663.429	5.12
664.187	7.12
664.945	7.12
665.703	7.12
666.46	5.12
667.218	3.12
667.976	7.12
668.733	5.12
669.49	5.12
670.248	7.12
671.005	5.12
671.762	5.12
672.519	3.12
673.276	5.12
674.033	4.12
674.79	3.12
675.547	6.12
676.304	5.12
677.06	2.12
677.817	2.12
678.574	4.12
679.33	4.12
680.086	4.12
680.843	4.12
681.599	4.12
682.355	4.12
683.111	5.12
683.867	5.12
684.623	4.12
685.379	6.12
686.135	5.12
686.89	2.12
687.646	5.12
688.402	5.12
689.157	6.12
689.912	4.12
690.668	5.12
691.423	5.12
692.178	5.12
692.933	4.12
693.688	2.12
694.443	4.12
695.198	2.12
695.953	5.12
696.708	3.12
697.462	4.12
698.217	4.12
698.972	2.12
699.726	3.12
700.48	2.12
701.235	5.12
701.989	3.12
702.743	4.12
703.497	5.12
704.251	4.12
705.005	3.12
705.759	5.12
706.513	3.12
707.266	2.12
708.02	1.12
708.774	4.12
709.527	3.12
710.28	4.12
711.034	4.12
711.787	5.12
712.54	3.12
713.293	2.12
714.046	4.12
714.799	4.12
715.552	4.12
716.305	4.12
717.058	1.12
717.81	4.12
718.563	2.12
719.315	4.12
720.068	5.12
720.82	2.12
721.573	4.12
722.325	4.12
723.077	2.12
723.829	4.12
724.581	5.12
725.333	4.12
726.085	3.12
726.836	5.12
727.588	4.12
728.34	2.12
729.091	4.12
729.843	6.12
730.594	4.12
731.346	3.12
732.097	6.12
732.848	3.12
733.599	4.12
734.35	2.12
735.101	4.12
735.852	5.12
736.603	3.12
737.354	5.12
738.104	2.12
738.855	5.12
739.605	5.12
740.356	4.12
741.106	3.12
741.856	4.12
742.607	4.12
743.357	5.12
744.107	3.12
744.857	5.12
745.607	5.12
746.357	6.12
747.106	3.12
747.856	6.12
748.606	7.12
749.355	6.12
750.105	5.12
750.854	4.12
751.603	5.12
752.353	3.12
753.102	7.12
753.851	6.12
754.6	5.12
755.349	8.12
756.098	4.12
756.847	8.12
757.595	4.12
758.344	6.12
759.093	5.12
759.841	5.12
760.589	6.12
761.338	6.12
762.086	5.12
762.834	6.12
763.582	5.12
764.331	2.12
765.079	5.12
765.826	7.12
766.574	4.12
767.322	2.12
768.07	9.12
768.817	7.12
769.565	6.12
770.312	6.12
771.06	7.12
771.807	6.12
772.554	8.12
773.302	7.12
774.049	8.12
774.796	8.12
775.543	7.12
776.29	8.12
777.036	9.12
777.783	7.12
778.53	9.12
779.276	8.12
780.023	7.12
780.769	8.12
781.516	9.12
782.262	5.12
783.008	8.12
783.754	8.12
784.5	8.12
785.246	6.12
785.992	7.12
786.738	7.12
787.484	3.12
788.23	9.12
788.975	7.12
789.721	10.12
790.466	8.12
791.212	9.12
791.957	9.12
792.702	8.12
793.447	9.12
794.193	10.12
794.938	9.12
795.683	9.12
796.427	7.12
797.172	8.12
797.917	7.12
798.662	6.12
799.406	6.12
800.151	6.12
800.895	8.12
801.64	4.12
802.384	7.12
803.128	3.12
803.872	7.12
804.616	8.12
805.36	6.12
806.104	7.12
806.848	7.12
807.592	6.12
808.336	7.12
809.079	9.12
809.823	5.12
810.566	6.12
811.31	8.12
812.053	3.12
812.796	7.12
813.539	4.12
814.283	4.12
815.026	4.12
815.769	6.12
816.511	3.12
817.254	5.12
817.997	5.12
818.74	4.12
819.482	5.12
820.225	5.12
820.967	2.12
821.71	5.12
822.452	7.12
823.194	3.12
823.936	2.12
824.678	4.12
825.42	5.12
826.162	3.12
826.904	5.12
827.646	5.12
828.388	5.12
829.129	5.12
829.871	4.12
830.612	6.12
831.354	3.12
832.095	5.12
832.836	2.12
833.577	4.12
834.319	2.12
835.06	4.12
835.801	5.12
836.542	6.12
837.282	5.12
838.023	2.12
838.764	5.12
839.504	6.12
840.245	2.12
840.985	3.12
841.726	5.12
842.466	2.12
843.206	3.12
843.946	3.12
844.687	4.12
845.427	2.12
846.166	3.12
846.906	2.12
847.646	2.12
848.386	3.12
849.125	2.12
849.865	4.12
850.605	3.12
851.344	4.12
852.083	4.12
852.823	3.12
853.562	3.12
854.301	4.12
855.04	5.12
855.779	2.12
856.518	4.12
857.257	3.12
857.995	2.12
858.734	4.12
859.473	2.12
860.211	4.12
860.95	2.12
861.688	3.12
862.426	0.12
863.165	1.12
863.903	2.12
864.641	2.12
865.379	2.12
866.117	2.12
866.855	0.12
867.593	4.12
868.33	3.12
869.068	1.12
869.806	2.12
870.543	2.12
871.28	3.12
872.018	2.12
872.755	2.12
873.492	0.12
874.229	3.12
874.967	2.12
875.703	1.12
876.44	2.12
877.177	-0.88
877.914	2.12
878.651	3.12
879.387	-0.88
880.124	2.12
880.86	0.12
881.597	0.12
882.333	4.12
883.069	2.12
883.806	-0.88
884.542	0.12
885.278	1.12
886.014	2.12
886.749	-0.88
887.485	0.12
888.221	0.12
888.957	2.12
889.692	2.12
890.428	1.12
891.163	0.12
891.899	2.12
892.634	0.12
893.369	1.12
894.104	-1.88
894.839	0.12
895.574	1.12
896.309	2.12
897.044	-0.88
897.779	-1.88
898.514	1.12
899.248	1.12
899.983	3.12
900.717	0.12
901.452	0.12
902.186	2.12
902.92	-1.88
903.654	0.12
904.389	0.12
905.123	0.12
905.857	-0.88
906.59	-1.88
907.324	0.12
908.058	1.12
908.792	1.12
909.525	1.12
910.259	-1.88
910.992	0.12
911.726	1.12
912.459	0.12
913.192	0.12
913.925	1.12
914.658	3.12
915.391	1.12
916.124	1.12
916.857	0.12
917.59	0.12
918.323	-0.88
919.055	0.12
919.788	0.12
920.521	1.12
921.253	1.12
921.985	0.12
922.718	1.12
923.45	1.12
924.182	0.12
924.914	-1.88
925.646	-0.88
926.378	-0.88
927.11	1.12
927.841	0.12
928.573	1.12
929.305	-0.88
930.036	2.12
930.768	0.12
931.499	1.12
932.23	2.12
932.962	0.12
933.693	-0.88
934.424	0.12
935.155	0.12
935.886	-0.88
936.617	0.12
937.348	1.12
938.078	2.12
938.809	2.12
939.54	-0.88
940.27	1.12
941.001	0.12
941.731	0.12
942.461	2.12
943.191	0.12
943.922	1.12
944.652	0.12
945.382	4.12
946.112	-0.88
946.841	1.12
947.571	1.12
948.301	-0.88
949.031	3.12
949.76	0.12
950.49	2.12
951.219	-0.88
951.948	3.12
952.678	-0.88
953.407	1.12
954.136	0.12
954.865	2.12
955.594	-0.88
956.323	0.12
957.052	0.12
957.78	1.12
958.509	-2.88
959.238	0.12
959.966	1.12
960.695	1.12
961.423	-0.88
962.151	0.12
962.88	-0.88
963.608	1.12
964.336	0.12
965.064	1.12
965.792	-0.88
966.52	0.12
967.247	0.12
967.975	3.12
968.703	0.12
969.43	1.12
970.158	-1.88
970.885	3.12
971.613	0.12
972.34	1.12
973.067	1.12
973.794	-1.88
974.521	0.12
975.248	-0.88
975.975	-0.88
976.702	1.12
977.429	-1.88
978.156	1.12
978.882	0.12
979.609	0.12
980.335	0.12
981.062	1.12
981.788	-0.88
982.514	0.12
983.24	-0.88
983.967	-1.88
984.693	1.12
985.419	0.12
986.144	1.12
986.87	0.12
987.596	0.12
988.322	1.12
989.047	0.12
989.773	-0.88
990.498	0.12
991.224	2.12
991.949	2.12
992.674	-1.88
993.399	0.12
994.124	1.12
994.849	0.12
995.574	-0.88
996.299	-0.88
997.024	0.12
997.749	-0.88
998.473	0.12
999.198	0.12
999.922	1.12
1000.647	1.12
1001.371	3.12
1002.095	0.12
1002.82	1.12
1003.544	0.12
1004.268	1.12
1004.992	1.12
1005.716	3.12
1006.439	-0.88
1007.163	2.12
1007.887	1.12
1008.611	0.12
1009.334	3.12
1010.058	1.12
1010.781	-0.88
1011.504	2.12
1012.228	0.12
1012.951	-0.88
1013.674	-0.88
1014.397	-0.88
1015.12	-1.88
