节点500_285_QEPB04081__485__15-03-37-437.txt的数据

Date: Wed Nov 12 15:03:37 CST 2025
User: PC
Spectrometer: QEPB0408
触发模式: 0
积分时间 (秒): 1.000000E-2
Scans to average: 1
启用暗噪声校正: true
启用非线性校正: false
滑动平均宽度: 0
X轴模式: Wavelengths
Number of Pixels in Spectrum: 1044
>>>>>Begin Spectral Data<<<<<
220.843	1.88
221.644	2.88
222.444	2.88
223.244	1.88
224.045	1.88
224.845	0.88
225.645	1.88
226.445	1.88
227.245	0.88
228.045	4.88
228.845	3.88
229.645	1.88
230.444	1.88
231.244	4.88
232.043	2.88
232.843	2.88
233.642	1.88
234.442	2.88
235.241	3.88
236.04	2.88
236.839	3.88
237.638	3.88
238.437	2.88
239.236	6.88
240.035	3.88
240.833	3.88
241.632	3.88
242.43	4.88
243.229	6.88
244.027	4.88
244.826	5.88
245.624	3.88
246.422	7.88
247.22	6.88
248.018	5.88
248.816	5.88
249.614	5.88
250.412	7.88
251.21	6.88
252.007	5.88
252.805	7.88
253.602	7.88
254.4	5.88
255.197	7.88
255.994	6.88
256.791	6.88
257.589	5.88
258.386	7.88
259.183	9.88
259.979	9.88
260.776	8.88
261.573	10.88
262.37	9.88
263.166	11.88
263.963	9.88
264.759	13.88
265.556	11.88
266.352	13.88
267.148	12.88
267.944	11.88
268.74	10.88
269.536	13.88
270.332	11.88
271.128	14.88
271.924	12.88
272.719	12.88
273.515	13.88
274.311	15.88
275.106	16.88
275.901	17.88
276.697	15.88
277.492	18.88
278.287	16.88
279.082	17.88
279.877	20.88
280.672	18.88
281.467	15.88
282.262	18.88
283.056	17.88
283.851	18.88
284.646	20.88
285.44	16.88
286.234	17.88
287.029	17.88
287.823	17.88
288.617	16.88
289.411	18.88
290.205	16.88
290.999	17.88
291.793	15.88
292.587	13.88
293.381	16.88
294.174	15.88
294.968	16.88
295.761	13.88
296.555	15.88
297.348	14.88
298.141	14.88
298.935	15.88
299.728	13.88
300.521	17.88
301.314	11.88
302.107	13.88
302.899	13.88
303.692	12.88
304.485	9.88
305.277	11.88
306.07	13.88
306.862	12.88
307.655	12.88
308.447	10.88
309.239	10.88
310.031	13.88
310.823	12.88
311.615	10.88
312.407	8.88
313.199	8.88
313.991	10.88
314.783	6.88
315.574	8.88
316.366	8.88
317.157	7.88
317.949	8.88
318.74	5.88
319.531	9.88
320.322	7.88
321.113	5.88
321.904	5.88
322.695	5.88
323.486	8.88
324.277	7.88
325.068	6.88
325.858	4.88
326.649	5.88
327.439	7.88
328.23	7.88
329.02	7.88
329.81	7.88
330.6	7.88
331.391	4.88
332.181	6.88
332.971	6.88
333.76	4.88
334.55	7.88
335.34	6.88
336.13	6.88
336.919	9.88
337.709	6.88
338.498	4.88
339.287	7.88
340.077	4.88
340.866	4.88
341.655	6.88
342.444	6.88
343.233	3.88
344.022	5.88
344.811	6.88
345.6	5.88
346.388	6.88
347.177	5.88
347.965	4.88
348.754	5.88
349.542	7.88
350.33	4.88
351.119	5.88
351.907	4.88
352.695	4.88
353.483	5.88
354.271	4.88
355.059	4.88
355.846	6.88
356.634	5.88
357.422	3.88
358.209	4.88
358.997	5.88
359.784	5.88
360.571	5.88
361.359	4.88
362.146	5.88
362.933	4.88
363.72	4.88
364.507	4.88
365.294	4.88
366.081	6.88
366.867	5.88
367.654	5.88
368.44	6.88
369.227	3.88
370.013	6.88
370.8	5.88
371.586	5.88
372.372	3.88
373.158	4.88
373.944	1.88
374.73	3.88
375.516	6.88
376.302	5.88
377.088	3.88
377.873	1.88
378.659	5.88
379.445	5.88
380.23	4.88
381.015	3.88
381.801	1.88
382.586	4.88
383.371	5.88
384.156	4.88
384.941	4.88
385.726	8.88
386.511	7.88
387.296	6.88
388.08	5.88
388.865	6.88
389.649	6.88
390.434	5.88
391.218	7.88
392.003	8.88
392.787	3.88
393.571	6.88
394.355	3.88
395.139	4.88
395.923	7.88
396.707	7.88
397.491	2.88
398.274	7.88
399.058	4.88
399.842	7.88
400.625	5.88
401.408	5.88
402.192	7.88
402.975	7.88
403.758	5.88
404.541	5.88
405.324	5.88
406.107	9.88
406.89	6.88
407.673	5.88
408.456	5.88
409.238	7.88
410.021	7.88
410.803	9.88
411.586	9.88
412.368	8.88
413.151	9.88
413.933	8.88
414.715	8.88
415.497	9.88
416.279	7.88
417.061	9.88
417.843	10.88
418.624	9.88
419.406	8.88
420.188	11.88
420.969	9.88
421.751	10.88
422.532	10.88
423.313	7.88
424.095	12.88
424.876	11.88
425.657	10.88
426.438	10.88
427.219	10.88
428	11.88
428.78	8.88
429.561	13.88
430.342	13.88
431.122	15.88
431.903	11.88
432.683	12.88
433.464	13.88
434.244	19.88
435.024	17.88
435.804	18.88
436.584	16.88
437.364	15.88
438.144	20.88
438.924	20.88
439.704	19.88
440.483	23.88
441.263	25.88
442.042	24.88
442.822	27.88
443.601	28.88
444.38	28.88
445.16	33.88
445.939	34.88
446.718	32.88
447.497	39.88
448.276	42.88
449.054	43.88
449.833	47.88
450.612	53.88
451.391	56.88
452.169	62.88
452.948	71.88
453.726	77.88
454.504	81.88
455.282	92.88
456.061	106.88
456.839	114.88
457.617	129.88
458.395	139.88
459.172	157.88
459.95	173.88
460.728	193.88
461.506	212.88
462.283	235.88
463.061	265.88
463.838	289.88
464.615	334.88
465.393	370.88
466.17	408.88
466.947	457.88
467.724	514.88
468.501	566.88
469.278	631.88
470.055	708.88
470.831	782.88
471.608	862.88
472.385	962.88
473.161	1068.88
473.938	1178.88
474.714	1293.88
475.49	1429.88
476.266	1584.88
477.043	1753.88
477.819	1946.88
478.595	2115.88
479.371	2350.88
480.146	2577.88
480.922	2838.88
481.698	3120.88
482.473	3450.88
483.249	3779.88
484.024	4147.88
484.8	4549.88
485.575	4999.88
486.35	5466.88
487.126	5970.88
487.901	6568.88
488.676	7162.88
489.451	7824.88
490.225	8588.88
491	9319.88
491.775	10186.88
492.55	11065.88
493.324	11967.88
494.099	12918.88
494.873	13921.88
495.647	14962.88
496.422	16054.88
497.196	17209.88
497.97	18408.88
498.744	19577.88
499.518	20607.88
500.292	21702.88
501.066	22816.88
501.839	23742.88
502.613	24651.88
503.387	25457.88
504.16	26223.88
504.934	26528.88
505.707	26814.88
506.48	26908.88
507.253	26886.88
508.027	26725.88
508.8	26461.88
509.573	26016.88
510.346	25524.88
511.118	24800.88
511.891	24175.88
512.664	23312.88
513.437	22525.88
514.209	21578.88
514.982	20811.88
515.754	19823.88
516.526	18986.88
517.298	18128.88
518.071	17335.88
518.843	16717.88
519.615	16033.88
520.387	15472.88
521.159	14832.88
521.93	14228.88
522.702	13697.88
523.474	13088.88
524.245	12562.88
525.017	12031.88
525.788	11556.88
526.56	11044.88
527.331	10551.88
528.102	10076.88
528.873	9601.88
529.644	9134.88
530.415	8695.88
531.186	8260.88
531.957	7832.88
532.728	7505.88
533.498	7068.88
534.269	6685.88
535.039	6309.88
535.81	5951.88
536.58	5632.88
537.351	5348.88
538.121	5032.88
538.891	4745.88
539.661	4480.88
540.431	4245.88
541.201	4034.88
541.971	3803.88
542.741	3608.88
543.51	3428.88
544.28	3273.88
545.05	3104.88
545.819	2949.88
546.588	2808.88
547.358	2668.88
548.127	2505.88
548.896	2388.88
549.665	2271.88
550.434	2161.88
551.203	2037.88
551.972	1943.88
552.741	1823.88
553.51	1732.88
554.278	1634.88
555.047	1531.88
555.815	1443.88
556.584	1381.88
557.352	1302.88
558.121	1244.88
558.889	1169.88
559.657	1083.88
560.425	1033.88
561.193	972.88
561.961	922.88
562.729	890.88
563.496	821.88
564.264	773.88
565.032	728.88
565.799	693.88
566.567	664.88
567.334	618.88
568.101	591.88
568.869	549.88
569.636	513.88
570.403	494.88
571.17	463.88
571.937	440.88
572.704	416.88
573.471	388.88
574.237	366.88
575.004	348.88
575.771	328.88
576.537	305.88
577.303	288.88
578.07	273.88
578.836	258.88
579.602	238.88
580.368	226.88
581.134	213.88
581.9	202.88
582.666	194.88
583.432	182.88
584.198	176.88
584.964	164.88
585.729	155.88
586.495	151.88
587.26	144.88
588.025	127.88
588.791	126.88
589.556	124.88
590.321	116.88
591.086	106.88
591.851	103.88
592.616	95.88
593.381	91.88
594.146	85.88
594.911	83.88
595.675	78.88
596.44	75.88
597.204	70.88
597.969	70.88
598.733	67.88
599.497	65.88
600.261	64.88
601.025	57.88
601.79	54.88
602.553	53.88
603.317	47.88
604.081	48.88
604.845	47.88
605.609	41.88
606.372	41.88
607.136	39.88
607.899	37.88
608.662	37.88
609.426	36.88
610.189	35.88
610.952	30.88
611.715	34.88
612.478	29.88
613.241	30.88
614.004	29.88
614.767	24.88
615.529	27.88
616.292	24.88
617.055	23.88
617.817	22.88
618.579	22.88
619.342	23.88
620.104	19.88
620.866	21.88
621.628	19.88
622.39	20.88
623.152	22.88
623.914	17.88
624.676	17.88
625.438	15.88
626.199	15.88
626.961	15.88
627.722	16.88
628.484	14.88
629.245	13.88
630.006	14.88
630.768	11.88
631.529	12.88
632.29	11.88
633.051	12.88
633.812	12.88
634.573	11.88
635.333	10.88
636.094	9.88
636.855	8.88
637.615	8.88
638.376	7.88
639.136	11.88
639.896	7.88
640.657	8.88
641.417	7.88
642.177	9.88
642.937	8.88
643.697	7.88
644.457	8.88
645.216	8.88
645.976	7.88
646.736	7.88
647.495	5.88
648.255	7.88
649.014	6.88
649.774	9.88
650.533	8.88
651.292	9.88
652.051	3.88
652.81	6.88
653.569	5.88
654.328	8.88
655.087	9.88
655.846	6.88
656.604	7.88
657.363	6.88
658.121	3.88
658.88	8.88
659.638	4.88
660.397	6.88
661.155	5.88
661.913	5.88
662.671	6.88
663.429	7.88
664.187	3.88
664.945	6.88
665.703	2.88
666.46	5.88
667.218	4.88
667.976	4.88
668.733	3.88
669.49	5.88
670.248	3.88
671.005	4.88
671.762	3.88
672.519	2.88
673.276	3.88
674.033	3.88
674.79	2.88
675.547	3.88
676.304	2.88
677.06	5.88
677.817	5.88
678.574	6.88
679.33	4.88
680.086	3.88
680.843	4.88
681.599	4.88
682.355	4.88
683.111	1.88
683.867	3.88
684.623	1.88
685.379	6.88
686.135	2.88
686.89	4.88
687.646	6.88
688.402	3.88
689.157	3.88
689.912	2.88
690.668	3.88
691.423	1.88
692.178	2.88
692.933	3.88
693.688	2.88
694.443	3.88
695.198	1.88
695.953	3.88
696.708	3.88
697.462	2.88
698.217	3.88
698.972	3.88
699.726	2.88
700.48	2.88
701.235	3.88
701.989	1.88
702.743	3.88
703.497	1.88
704.251	3.88
705.005	4.88
705.759	3.88
706.513	2.88
707.266	3.88
708.02	1.88
708.774	3.88
709.527	3.88
710.28	2.88
711.034	4.88
711.787	3.88
712.54	3.88
713.293	0.88
714.046	2.88
714.799	4.88
715.552	3.88
716.305	5.88
717.058	1.88
717.81	3.88
718.563	4.88
719.315	1.88
720.068	1.88
720.82	5.88
721.573	3.88
722.325	4.88
723.077	4.88
723.829	4.88
724.581	5.88
725.333	3.88
726.085	2.88
726.836	4.88
727.588	1.88
728.34	5.88
729.091	3.88
729.843	1.88
730.594	3.88
731.346	3.88
732.097	3.88
732.848	4.88
733.599	4.88
734.35	5.88
735.101	5.88
735.852	4.88
736.603	5.88
737.354	3.88
738.104	4.88
738.855	4.88
739.605	4.88
740.356	3.88
741.106	5.88
741.856	3.88
742.607	3.88
743.357	5.88
744.107	2.88
744.857	4.88
745.607	1.88
746.357	3.88
747.106	3.88
747.856	3.88
748.606	4.88
749.355	5.88
750.105	5.88
750.854	3.88
751.603	6.88
752.353	4.88
753.102	3.88
753.851	7.88
754.6	6.88
755.349	3.88
756.098	4.88
756.847	5.88
757.595	3.88
758.344	7.88
759.093	7.88
759.841	4.88
760.589	5.88
761.338	4.88
762.086	4.88
762.834	6.88
763.582	4.88
764.331	8.88
765.079	4.88
765.826	7.88
766.574	6.88
767.322	4.88
768.07	6.88
768.817	5.88
769.565	6.88
770.312	4.88
771.06	7.88
771.807	7.88
772.554	5.88
773.302	7.88
774.049	7.88
774.796	8.88
775.543	7.88
776.29	8.88
777.036	9.88
777.783	6.88
778.53	6.88
779.276	7.88
780.023	9.88
780.769	6.88
781.516	9.88
782.262	6.88
783.008	8.88
783.754	7.88
784.5	8.88
785.246	8.88
785.992	8.88
786.738	9.88
787.484	6.88
788.23	8.88
788.975	10.88
789.721	8.88
790.466	10.88
791.212	4.88
791.957	8.88
792.702	9.88
793.447	6.88
794.193	8.88
794.938	9.88
795.683	7.88
796.427	7.88
797.172	9.88
797.917	8.88
798.662	7.88
799.406	9.88
800.151	7.88
800.895	6.88
801.64	6.88
802.384	3.88
803.128	4.88
803.872	5.88
804.616	5.88
805.36	5.88
806.104	6.88
806.848	6.88
807.592	4.88
808.336	8.88
809.079	6.88
809.823	4.88
810.566	5.88
811.31	5.88
812.053	3.88
812.796	5.88
813.539	6.88
814.283	2.88
815.026	2.88
815.769	3.88
816.511	4.88
817.254	3.88
817.997	4.88
818.74	4.88
819.482	4.88
820.225	5.88
820.967	6.88
821.71	4.88
822.452	4.88
823.194	3.88
823.936	3.88
824.678	3.88
825.42	5.88
826.162	4.88
826.904	3.88
827.646	3.88
828.388	4.88
829.129	4.88
829.871	3.88
830.612	4.88
831.354	3.88
832.095	3.88
832.836	2.88
833.577	4.88
834.319	4.88
835.06	2.88
835.801	5.88
836.542	5.88
837.282	3.88
838.023	4.88
838.764	3.88
839.504	5.88
840.245	3.88
840.985	1.88
841.726	3.88
842.466	3.88
843.206	4.88
843.946	5.88
844.687	3.88
845.427	3.88
846.166	1.88
846.906	3.88
847.646	3.88
848.386	2.88
849.125	3.88
849.865	4.88
850.605	3.88
851.344	0.88
852.083	2.88
852.823	4.88
853.562	0.88
854.301	2.88
855.04	1.88
855.779	0.88
856.518	3.88
857.257	1.88
857.995	3.88
858.734	0.88
859.473	1.88
860.211	0.88
860.95	2.88
861.688	3.88
862.426	0.88
863.165	3.88
863.903	1.88
864.641	-0.12
865.379	1.88
866.117	4.88
866.855	1.88
867.593	-0.12
868.33	1.88
869.068	-1.12
869.806	2.88
870.543	4.88
871.28	1.88
872.018	3.88
872.755	-0.12
873.492	2.88
874.229	2.88
874.967	1.88
875.703	0.88
876.44	-1.12
877.177	0.88
877.914	-0.12
878.651	1.88
879.387	0.88
880.124	-0.12
880.86	0.88
881.597	0.88
882.333	1.88
883.069	0.88
883.806	2.88
884.542	1.88
885.278	-0.12
886.014	-0.12
886.749	-0.12
887.485	-0.12
888.221	0.88
888.957	-1.12
889.692	1.88
890.428	1.88
891.163	-0.12
891.899	-0.12
892.634	-2.12
893.369	1.88
894.104	0.88
894.839	1.88
895.574	-1.12
896.309	-0.12
897.044	-1.12
897.779	-1.12
898.514	0.88
899.248	-0.12
899.983	-1.12
900.717	0.88
901.452	1.88
902.186	-0.12
902.92	1.88
903.654	0.88
904.389	-0.12
905.123	-0.12
905.857	-0.12
906.59	1.88
907.324	0.88
908.058	0.88
908.792	1.88
909.525	0.88
910.259	-0.12
910.992	-1.12
911.726	0.88
912.459	1.88
913.192	-0.12
913.925	-1.12
914.658	0.88
915.391	1.88
916.124	0.88
916.857	0.88
917.59	0.88
918.323	0.88
919.055	-0.12
919.788	-1.12
920.521	0.88
921.253	-2.12
921.985	-1.12
922.718	-0.12
923.45	1.88
924.182	0.88
924.914	-0.12
925.646	2.88
926.378	0.88
927.11	-0.12
927.841	0.88
928.573	-1.12
929.305	0.88
930.036	0.88
930.768	0.88
931.499	1.88
932.23	0.88
932.962	0.88
933.693	-3.12
934.424	0.88
935.155	-0.12
935.886	-1.12
936.617	1.88
937.348	-0.12
938.078	0.88
938.809	-0.12
939.54	-1.12
940.27	0.88
941.001	-0.12
941.731	1.88
942.461	0.88
943.191	3.88
943.922	3.88
944.652	0.88
945.382	-0.12
946.112	-0.12
946.841	-1.12
947.571	1.88
948.301	-0.12
949.031	2.88
949.76	-0.12
950.49	-1.12
951.219	-1.12
951.948	-1.12
952.678	1.88
953.407	-0.12
954.136	-1.12
954.865	2.88
955.594	-0.12
956.323	-0.12
957.052	-0.12
957.78	-0.12
958.509	0.88
959.238	0.88
959.966	1.88
960.695	0.88
961.423	1.88
962.151	-0.12
962.88	-0.12
963.608	-0.12
964.336	0.88
965.064	-1.12
965.792	-0.12
966.52	1.88
967.247	-0.12
967.975	0.88
968.703	0.88
969.43	-0.12
970.158	-0.12
970.885	-2.12
971.613	1.88
972.34	-0.12
973.067	-0.12
973.794	-0.12
974.521	0.88
975.248	0.88
975.975	0.88
976.702	-0.12
977.429	-2.12
978.156	-0.12
978.882	0.88
979.609	-1.12
980.335	-0.12
981.062	0.88
981.788	0.88
982.514	-0.12
983.24	0.88
983.967	-0.12
984.693	1.88
985.419	-1.12
986.144	-0.12
986.87	0.88
987.596	0.88
988.322	0.88
989.047	-0.12
989.773	0.88
990.498	-2.12
991.224	0.88
991.949	-1.12
992.674	0.88
993.399	0.88
994.124	-0.12
994.849	-1.12
995.574	-0.12
996.299	-0.12
997.024	1.88
997.749	-0.12
998.473	-2.12
999.198	-0.12
999.922	-0.12
1000.647	-2.12
1001.371	1.88
1002.095	-0.12
1002.82	-2.12
1003.544	-1.12
1004.268	3.88
1004.992	1.88
1005.716	0.88
1006.439	0.88
1007.163	1.88
1007.887	1.88
1008.611	0.88
1009.334	1.88
1010.058	0.88
1010.781	-0.12
1011.504	-1.12
1012.228	-0.12
1012.951	-0.12
1013.674	1.88
1014.397	-0.12
1015.12	-0.12
