节点500_285_QEPB04081__21__14-55-55-458.txt的数据

Date: Wed Nov 12 14:55:55 CST 2025
User: PC
Spectrometer: QEPB0408
触发模式: 0
积分时间 (秒): 1.000000E-2
Scans to average: 1
启用暗噪声校正: true
启用非线性校正: false
滑动平均宽度: 0
X轴模式: Wavelengths
Number of Pixels in Spectrum: 1044
>>>>>Begin Spectral Data<<<<<
220.843	1.62
221.644	2.62
222.444	1.62
223.244	2.62
224.045	2.62
224.845	2.62
225.645	2.62
226.445	2.62
227.245	4.62
228.045	6.62
228.845	0.62
229.645	4.62
230.444	2.62
231.244	2.62
232.043	2.62
232.843	4.62
233.642	2.62
234.442	4.62
235.241	4.62
236.04	2.62
236.839	3.62
237.638	3.62
238.437	4.62
239.236	4.62
240.035	1.62
240.833	3.62
241.632	4.62
242.43	3.62
243.229	2.62
244.027	5.62
244.826	7.62
245.624	5.62
246.422	6.62
247.22	6.62
248.018	4.62
248.816	6.62
249.614	6.62
250.412	7.62
251.21	7.62
252.007	5.62
252.805	9.62
253.602	8.62
254.4	8.62
255.197	9.62
255.994	9.62
256.791	8.62
257.589	7.62
258.386	8.62
259.183	9.62
259.979	11.62
260.776	10.62
261.573	10.62
262.37	9.62
263.166	10.62
263.963	12.62
264.759	12.62
265.556	11.62
266.352	15.62
267.148	12.62
267.944	16.62
268.74	14.62
269.536	15.62
270.332	13.62
271.128	16.62
271.924	16.62
272.719	16.62
273.515	15.62
274.311	18.62
275.106	19.62
275.901	20.62
276.697	19.62
277.492	18.62
278.287	19.62
279.082	17.62
279.877	21.62
280.672	17.62
281.467	20.62
282.262	18.62
283.056	20.62
283.851	18.62
284.646	20.62
285.44	18.62
286.234	20.62
287.029	20.62
287.823	16.62
288.617	19.62
289.411	20.62
290.205	21.62
290.999	19.62
291.793	18.62
292.587	17.62
293.381	19.62
294.174	19.62
294.968	17.62
295.761	15.62
296.555	15.62
297.348	15.62
298.141	16.62
298.935	16.62
299.728	16.62
300.521	15.62
301.314	13.62
302.107	12.62
302.899	12.62
303.692	10.62
304.485	14.62
305.277	12.62
306.07	12.62
306.862	15.62
307.655	10.62
308.447	11.62
309.239	12.62
310.031	12.62
310.823	8.62
311.615	11.62
312.407	10.62
313.199	11.62
313.991	11.62
314.783	9.62
315.574	7.62
316.366	9.62
317.157	8.62
317.949	9.62
318.74	6.62
319.531	8.62
320.322	6.62
321.113	7.62
321.904	6.62
322.695	6.62
323.486	5.62
324.277	6.62
325.068	8.62
325.858	6.62
326.649	6.62
327.439	6.62
328.23	6.62
329.02	8.62
329.81	3.62
330.6	5.62
331.391	5.62
332.181	6.62
332.971	8.62
333.76	6.62
334.55	7.62
335.34	8.62
336.13	6.62
336.919	4.62
337.709	6.62
338.498	7.62
339.287	6.62
340.077	4.62
340.866	5.62
341.655	4.62
342.444	7.62
343.233	5.62
344.022	6.62
344.811	8.62
345.6	8.62
346.388	6.62
347.177	5.62
347.965	7.62
348.754	4.62
349.542	6.62
350.33	6.62
351.119	5.62
351.907	4.62
352.695	4.62
353.483	5.62
354.271	7.62
355.059	4.62
355.846	4.62
356.634	4.62
357.422	7.62
358.209	6.62
358.997	7.62
359.784	5.62
360.571	5.62
361.359	3.62
362.146	5.62
362.933	5.62
363.72	4.62
364.507	5.62
365.294	5.62
366.081	4.62
366.867	3.62
367.654	5.62
368.44	2.62
369.227	6.62
370.013	7.62
370.8	5.62
371.586	4.62
372.372	5.62
373.158	5.62
373.944	4.62
374.73	3.62
375.516	3.62
376.302	4.62
377.088	3.62
377.873	5.62
378.659	4.62
379.445	3.62
380.23	4.62
381.015	4.62
381.801	5.62
382.586	3.62
383.371	3.62
384.156	4.62
384.941	4.62
385.726	4.62
386.511	5.62
387.296	4.62
388.08	4.62
388.865	7.62
389.649	5.62
390.434	5.62
391.218	5.62
392.003	6.62
392.787	7.62
393.571	6.62
394.355	4.62
395.139	4.62
395.923	4.62
396.707	6.62
397.491	8.62
398.274	3.62
399.058	7.62
399.842	6.62
400.625	4.62
401.408	8.62
402.192	7.62
402.975	7.62
403.758	8.62
404.541	8.62
405.324	4.62
406.107	6.62
406.89	8.62
407.673	6.62
408.456	8.62
409.238	7.62
410.021	6.62
410.803	8.62
411.586	7.62
412.368	10.62
413.151	6.62
413.933	7.62
414.715	8.62
415.497	8.62
416.279	9.62
417.061	8.62
417.843	8.62
418.624	7.62
419.406	10.62
420.188	10.62
420.969	9.62
421.751	10.62
422.532	11.62
423.313	14.62
424.095	11.62
424.876	10.62
425.657	11.62
426.438	11.62
427.219	14.62
428	12.62
428.78	13.62
429.561	12.62
430.342	11.62
431.122	11.62
431.903	16.62
432.683	16.62
433.464	15.62
434.244	15.62
435.024	16.62
435.804	17.62
436.584	18.62
437.364	18.62
438.144	20.62
438.924	20.62
439.704	20.62
440.483	22.62
441.263	22.62
442.042	20.62
442.822	26.62
443.601	25.62
444.38	28.62
445.16	32.62
445.939	32.62
446.718	36.62
447.497	33.62
448.276	41.62
449.054	41.62
449.833	48.62
450.612	48.62
451.391	51.62
452.169	58.62
452.948	65.62
453.726	67.62
454.504	75.62
455.282	83.62
456.061	92.62
456.839	100.62
457.617	112.62
458.395	123.62
459.172	136.62
459.95	152.62
460.728	170.62
461.506	192.62
462.283	206.62
463.061	229.62
463.838	260.62
464.615	291.62
465.393	333.62
466.17	375.62
466.947	413.62
467.724	458.62
468.501	519.62
469.278	575.62
470.055	639.62
470.831	728.62
471.608	799.62
472.385	905.62
473.161	1010.62
473.938	1121.62
474.714	1254.62
475.49	1391.62
476.266	1558.62
477.043	1720.62
477.819	1922.62
478.595	2114.62
479.371	2340.62
480.146	2628.62
480.922	2913.62
481.698	3221.62
482.473	3597.62
483.249	3956.62
484.024	4378.62
484.8	4859.62
485.575	5374.62
486.35	5937.62
487.126	6532.62
487.901	7244.62
488.676	7967.62
489.451	8799.62
490.225	9682.62
491	10579.62
491.775	11621.62
492.55	12714.62
493.324	13832.62
494.099	14954.62
494.873	16194.62
495.647	17465.62
496.422	18774.62
497.196	20106.62
497.97	21470.62
498.744	22791.62
499.518	24066.62
500.292	25262.62
501.066	26327.62
501.839	27259.62
502.613	28175.62
503.387	28810.62
504.16	29262.62
504.934	29407.62
505.707	29410.62
506.48	29292.62
507.253	28951.62
508.027	28462.62
508.8	27920.62
509.573	27178.62
510.346	26361.62
511.118	25380.62
511.891	24396.62
512.664	23443.62
513.437	22404.62
514.209	21396.62
514.982	20476.62
515.754	19477.62
516.526	18549.62
517.298	17742.62
518.071	16907.62
518.843	16350.62
519.615	15686.62
520.387	15125.62
521.159	14483.62
521.93	13887.62
522.702	13324.62
523.474	12819.62
524.245	12223.62
525.017	11740.62
525.788	11229.62
526.56	10703.62
527.331	10205.62
528.102	9701.62
528.873	9212.62
529.644	8699.62
530.415	8272.62
531.186	7852.62
531.957	7418.62
532.728	7027.62
533.498	6617.62
534.269	6237.62
535.039	5881.62
535.81	5547.62
536.58	5256.62
537.351	4934.62
538.121	4676.62
538.891	4408.62
539.661	4183.62
540.431	3941.62
541.201	3747.62
541.971	3536.62
542.741	3375.62
543.51	3179.62
544.28	3024.62
545.05	2888.62
545.819	2748.62
546.588	2616.62
547.358	2463.62
548.127	2340.62
548.896	2235.62
549.665	2118.62
550.434	2001.62
551.203	1894.62
551.972	1779.62
552.741	1685.62
553.51	1603.62
554.278	1488.62
555.047	1398.62
555.815	1332.62
556.584	1248.62
557.352	1201.62
558.121	1107.62
558.889	1052.62
559.657	992.62
560.425	954.62
561.193	883.62
561.961	833.62
562.729	805.62
563.496	751.62
564.264	704.62
565.032	666.62
565.799	637.62
566.567	603.62
567.334	565.62
568.101	524.62
568.869	498.62
569.636	476.62
570.403	446.62
571.17	424.62
571.937	404.62
572.704	372.62
573.471	354.62
574.237	338.62
575.004	312.62
575.771	292.62
576.537	280.62
577.303	260.62
578.07	246.62
578.836	239.62
579.602	214.62
580.368	208.62
581.134	202.62
581.9	189.62
582.666	175.62
583.432	165.62
584.198	154.62
584.964	150.62
585.729	145.62
586.495	134.62
587.26	126.62
588.025	119.62
588.791	113.62
589.556	106.62
590.321	101.62
591.086	100.62
591.851	93.62
592.616	91.62
593.381	86.62
594.146	79.62
594.911	77.62
595.675	76.62
596.44	66.62
597.204	66.62
597.969	61.62
598.733	62.62
599.497	56.62
600.261	52.62
601.025	51.62
601.79	52.62
602.553	49.62
603.317	44.62
604.081	45.62
604.845	41.62
605.609	37.62
606.372	40.62
607.136	35.62
607.899	34.62
608.662	35.62
609.426	32.62
610.189	33.62
610.952	27.62
611.715	29.62
612.478	30.62
613.241	27.62
614.004	26.62
614.767	25.62
615.529	27.62
616.292	24.62
617.055	23.62
617.817	22.62
618.579	20.62
619.342	22.62
620.104	18.62
620.866	20.62
621.628	15.62
622.39	15.62
623.152	18.62
623.914	17.62
624.676	17.62
625.438	15.62
626.199	16.62
626.961	12.62
627.722	12.62
628.484	14.62
629.245	11.62
630.006	15.62
630.768	12.62
631.529	13.62
632.29	10.62
633.051	12.62
633.812	11.62
634.573	11.62
635.333	10.62
636.094	9.62
636.855	11.62
637.615	12.62
638.376	8.62
639.136	10.62
639.896	8.62
640.657	10.62
641.417	6.62
642.177	8.62
642.937	8.62
643.697	6.62
644.457	7.62
645.216	8.62
645.976	6.62
646.736	8.62
647.495	6.62
648.255	7.62
649.014	9.62
649.774	6.62
650.533	7.62
651.292	5.62
652.051	6.62
652.81	6.62
653.569	5.62
654.328	7.62
655.087	4.62
655.846	8.62
656.604	5.62
657.363	6.62
658.121	6.62
658.88	6.62
659.638	5.62
660.397	4.62
661.155	6.62
661.913	2.62
662.671	7.62
663.429	4.62
664.187	4.62
664.945	4.62
665.703	3.62
666.46	3.62
667.218	5.62
667.976	3.62
668.733	4.62
669.49	6.62
670.248	3.62
671.005	3.62
671.762	5.62
672.519	3.62
673.276	4.62
674.033	3.62
674.79	2.62
675.547	4.62
676.304	5.62
677.06	2.62
677.817	5.62
678.574	0.62
679.33	3.62
680.086	1.62
680.843	1.62
681.599	3.62
682.355	2.62
683.111	5.62
683.867	4.62
684.623	0.62
685.379	3.62
686.135	5.62
686.89	4.62
687.646	4.62
688.402	3.62
689.157	2.62
689.912	4.62
690.668	3.62
691.423	2.62
692.178	2.62
692.933	2.62
693.688	0.62
694.443	4.62
695.198	2.62
695.953	3.62
696.708	3.62
697.462	3.62
698.217	4.62
698.972	3.62
699.726	5.62
700.48	4.62
701.235	0.62
701.989	2.62
702.743	4.62
703.497	5.62
704.251	2.62
705.005	3.62
705.759	4.62
706.513	2.62
707.266	5.62
708.02	2.62
708.774	6.62
709.527	2.62
710.28	2.62
711.034	2.62
711.787	4.62
712.54	4.62
713.293	2.62
714.046	2.62
714.799	4.62
715.552	0.62
716.305	3.62
717.058	4.62
717.81	2.62
718.563	4.62
719.315	2.62
720.068	2.62
720.82	2.62
721.573	4.62
722.325	3.62
723.077	3.62
723.829	6.62
724.581	3.62
725.333	2.62
726.085	1.62
726.836	2.62
727.588	4.62
728.34	2.62
729.091	2.62
729.843	1.62
730.594	4.62
731.346	2.62
732.097	4.62
732.848	4.62
733.599	2.62
734.35	6.62
735.101	1.62
735.852	3.62
736.603	4.62
737.354	4.62
738.104	6.62
738.855	3.62
739.605	3.62
740.356	4.62
741.106	2.62
741.856	3.62
742.607	3.62
743.357	3.62
744.107	5.62
744.857	5.62
745.607	2.62
746.357	4.62
747.106	6.62
747.856	3.62
748.606	6.62
749.355	3.62
750.105	4.62
750.854	5.62
751.603	5.62
752.353	4.62
753.102	6.62
753.851	6.62
754.6	5.62
755.349	4.62
756.098	5.62
756.847	6.62
757.595	6.62
758.344	7.62
759.093	4.62
759.841	6.62
760.589	6.62
761.338	7.62
762.086	7.62
762.834	5.62
763.582	4.62
764.331	6.62
765.079	8.62
765.826	4.62
766.574	6.62
767.322	6.62
768.07	5.62
768.817	9.62
769.565	8.62
770.312	5.62
771.06	6.62
771.807	7.62
772.554	7.62
773.302	8.62
774.049	10.62
774.796	9.62
775.543	11.62
776.29	7.62
777.036	6.62
777.783	6.62
778.53	8.62
779.276	10.62
780.023	11.62
780.769	9.62
781.516	9.62
782.262	9.62
783.008	9.62
783.754	6.62
784.5	10.62
785.246	11.62
785.992	8.62
786.738	10.62
787.484	7.62
788.23	8.62
788.975	9.62
789.721	8.62
790.466	7.62
791.212	5.62
791.957	10.62
792.702	7.62
793.447	6.62
794.193	7.62
794.938	6.62
795.683	7.62
796.427	10.62
797.172	8.62
797.917	7.62
798.662	7.62
799.406	8.62
800.151	8.62
800.895	8.62
801.64	6.62
802.384	6.62
803.128	6.62
803.872	5.62
804.616	5.62
805.36	6.62
806.104	4.62
806.848	6.62
807.592	7.62
808.336	6.62
809.079	3.62
809.823	4.62
810.566	5.62
811.31	5.62
812.053	5.62
812.796	3.62
813.539	4.62
814.283	5.62
815.026	4.62
815.769	6.62
816.511	2.62
817.254	6.62
817.997	5.62
818.74	2.62
819.482	3.62
820.225	6.62
820.967	5.62
821.71	3.62
822.452	2.62
823.194	4.62
823.936	2.62
824.678	5.62
825.42	3.62
826.162	4.62
826.904	1.62
827.646	4.62
828.388	4.62
829.129	5.62
829.871	3.62
830.612	2.62
831.354	4.62
832.095	3.62
832.836	1.62
833.577	3.62
834.319	4.62
835.06	3.62
835.801	2.62
836.542	2.62
837.282	2.62
838.023	1.62
838.764	2.62
839.504	2.62
840.245	3.62
840.985	3.62
841.726	3.62
842.466	2.62
843.206	1.62
843.946	0.62
844.687	1.62
845.427	3.62
846.166	1.62
846.906	2.62
847.646	4.62
848.386	0.62
849.125	3.62
849.865	4.62
850.605	3.62
851.344	4.62
852.083	3.62
852.823	2.62
853.562	2.62
854.301	3.62
855.04	1.62
855.779	1.62
856.518	2.62
857.257	2.62
857.995	4.62
858.734	3.62
859.473	2.62
860.211	1.62
860.95	2.62
861.688	2.62
862.426	0.62
863.165	2.62
863.903	0.62
864.641	3.62
865.379	0.62
866.117	2.62
866.855	0.62
867.593	0.62
868.33	1.62
869.068	3.62
869.806	0.62
870.543	0.62
871.28	-0.38
872.018	1.62
872.755	0.62
873.492	1.62
874.229	0.62
874.967	-0.38
875.703	1.62
876.44	-0.38
877.177	1.62
877.914	-0.38
878.651	3.62
879.387	1.62
880.124	0.62
880.86	1.62
881.597	0.62
882.333	0.62
883.069	3.62
883.806	1.62
884.542	-0.38
885.278	-1.38
886.014	0.62
886.749	2.62
887.485	2.62
888.221	3.62
888.957	0.62
889.692	0.62
890.428	0.62
891.163	0.62
891.899	-0.38
892.634	0.62
893.369	1.62
894.104	0.62
894.839	0.62
895.574	1.62
896.309	0.62
897.044	0.62
897.779	0.62
898.514	0.62
899.248	-2.38
899.983	-0.38
900.717	0.62
901.452	-2.38
902.186	-0.38
902.92	0.62
903.654	-1.38
904.389	0.62
905.123	-0.38
905.857	0.62
906.59	-0.38
907.324	-2.38
908.058	-0.38
908.792	-0.38
909.525	0.62
910.259	-0.38
910.992	1.62
911.726	0.62
912.459	0.62
913.192	0.62
913.925	0.62
914.658	0.62
915.391	2.62
916.124	-0.38
916.857	-1.38
917.59	-2.38
918.323	0.62
919.055	-1.38
919.788	-0.38
920.521	-1.38
921.253	-2.38
921.985	0.62
922.718	0.62
923.45	1.62
924.182	-2.38
924.914	-0.38
925.646	0.62
926.378	-2.38
927.11	-0.38
927.841	-2.38
928.573	-2.38
929.305	-1.38
930.036	1.62
930.768	0.62
931.499	-0.38
932.23	-0.38
932.962	0.62
933.693	-1.38
934.424	-1.38
935.155	-1.38
935.886	0.62
936.617	0.62
937.348	-1.38
938.078	-1.38
938.809	-0.38
939.54	0.62
940.27	0.62
941.001	0.62
941.731	0.62
942.461	0.62
943.191	-0.38
943.922	-1.38
944.652	1.62
945.382	0.62
946.112	-0.38
946.841	1.62
947.571	-1.38
948.301	-0.38
949.031	-2.38
949.76	-1.38
950.49	1.62
951.219	-0.38
951.948	-0.38
952.678	-1.38
953.407	0.62
954.136	-1.38
954.865	-1.38
955.594	0.62
956.323	-2.38
957.052	-0.38
957.78	0.62
958.509	-0.38
959.238	-1.38
959.966	0.62
960.695	-0.38
961.423	-2.38
962.151	0.62
962.88	-1.38
963.608	-0.38
964.336	-1.38
965.064	-0.38
965.792	0.62
966.52	0.62
967.247	0.62
967.975	0.62
968.703	-3.38
969.43	0.62
970.158	0.62
970.885	0.62
971.613	-2.38
972.34	-1.38
973.067	-2.38
973.794	-1.38
974.521	-0.38
975.248	-0.38
975.975	-0.38
976.702	0.62
977.429	1.62
978.156	0.62
978.882	0.62
979.609	-0.38
980.335	0.62
981.062	-0.38
981.788	-1.38
982.514	-1.38
983.24	0.62
983.967	-1.38
984.693	0.62
985.419	-1.38
986.144	-0.38
986.87	0.62
987.596	-0.38
988.322	0.62
989.047	0.62
989.773	-0.38
990.498	-0.38
991.224	1.62
991.949	0.62
992.674	2.62
993.399	0.62
994.124	-0.38
994.849	0.62
995.574	-0.38
996.299	0.62
997.024	-2.38
997.749	-1.38
998.473	-0.38
999.198	0.62
999.922	-2.38
1000.647	0.62
1001.371	2.62
1002.095	0.62
1002.82	-0.38
1003.544	-1.38
1004.268	2.62
1004.992	0.62
1005.716	0.62
1006.439	0.62
1007.163	-0.38
1007.887	-0.38
1008.611	-1.38
1009.334	0.62
1010.058	-0.38
1010.781	0.62
1011.504	2.62
1012.228	0.62
1012.951	-0.38
1013.674	-0.38
1014.397	-1.38
1015.12	0.62
