节点500_285_QEPB04081__4__14-55-39-506.txt的数据

Date: Wed Nov 12 14:55:39 CST 2025
User: PC
Spectrometer: QEPB0408
触发模式: 0
积分时间 (秒): 1.000000E-2
Scans to average: 1
启用暗噪声校正: true
启用非线性校正: false
滑动平均宽度: 0
X轴模式: Wavelengths
Number of Pixels in Spectrum: 1044
>>>>>Begin Spectral Data<<<<<
220.843	-0.88
221.644	-3.88
222.444	-1.88
223.244	0.12
224.045	-3.88
224.845	-1.88
225.645	-0.88
226.445	-2.88
227.245	-0.88
228.045	-3.88
228.845	-0.88
229.645	-3.88
230.444	-4.88
231.244	-0.88
232.043	-0.88
232.843	-1.88
233.642	-1.88
234.442	-2.88
235.241	-1.88
236.04	-1.88
236.839	-2.88
237.638	-0.88
238.437	0.12
239.236	-1.88
240.035	-0.88
240.833	-0.88
241.632	-0.88
242.43	-0.88
243.229	-4.88
244.027	-0.88
244.826	-2.88
245.624	-3.88
246.422	-1.88
247.22	-0.88
248.018	-2.88
248.816	-1.88
249.614	-1.88
250.412	-4.88
251.21	-3.88
252.007	-0.88
252.805	-2.88
253.602	-1.88
254.4	-1.88
255.197	-2.88
255.994	-2.88
256.791	-3.88
257.589	-0.88
258.386	-2.88
259.183	-1.88
259.979	-1.88
260.776	-0.88
261.573	-2.88
262.37	-0.88
263.166	0.12
263.963	-3.88
264.759	-1.88
265.556	-1.88
266.352	-2.88
267.148	-0.88
267.944	-0.88
268.74	-0.88
269.536	-1.88
270.332	-0.88
271.128	-0.88
271.924	-0.88
272.719	-3.88
273.515	-0.88
274.311	-1.88
275.106	0.12
275.901	-1.88
276.697	-0.88
277.492	-1.88
278.287	-2.88
279.082	-0.88
279.877	0.12
280.672	-0.88
281.467	-2.88
282.262	-1.88
283.056	0.12
283.851	0.12
284.646	0.12
285.44	-0.88
286.234	-2.88
287.029	-0.88
287.823	-0.88
288.617	0.12
289.411	-1.88
290.205	-0.88
290.999	-1.88
291.793	-2.88
292.587	0.12
293.381	-1.88
294.174	0.12
294.968	0.12
295.761	-0.88
296.555	-0.88
297.348	-0.88
298.141	-1.88
298.935	-1.88
299.728	-1.88
300.521	-1.88
301.314	-0.88
302.107	-0.88
302.899	-2.88
303.692	0.12
304.485	-0.88
305.277	-1.88
306.07	-0.88
306.862	-1.88
307.655	-0.88
308.447	0.12
309.239	-0.88
310.031	-1.88
310.823	-1.88
311.615	0.12
312.407	-1.88
313.199	0.12
313.991	-0.88
314.783	-1.88
315.574	0.12
316.366	-1.88
317.157	0.12
317.949	0.12
318.74	-3.88
319.531	-0.88
320.322	-1.88
321.113	-0.88
321.904	-2.88
322.695	-2.88
323.486	0.12
324.277	-0.88
325.068	0.12
325.858	1.12
326.649	0.12
327.439	0.12
328.23	-0.88
329.02	-1.88
329.81	-1.88
330.6	1.12
331.391	1.12
332.181	-1.88
332.971	0.12
333.76	-1.88
334.55	1.12
335.34	-2.88
336.13	1.12
336.919	0.12
337.709	2.12
338.498	-0.88
339.287	-1.88
340.077	-0.88
340.866	-1.88
341.655	-0.88
342.444	-0.88
343.233	0.12
344.022	0.12
344.811	0.12
345.6	0.12
346.388	-0.88
347.177	0.12
347.965	0.12
348.754	0.12
349.542	0.12
350.33	-0.88
351.119	-1.88
351.907	-0.88
352.695	0.12
353.483	0.12
354.271	1.12
355.059	1.12
355.846	2.12
356.634	-3.88
357.422	2.12
358.209	-2.88
358.997	-0.88
359.784	1.12
360.571	-0.88
361.359	0.12
362.146	2.12
362.933	-1.88
363.72	1.12
364.507	0.12
365.294	0.12
366.081	2.12
366.867	2.12
367.654	-2.88
368.44	0.12
369.227	0.12
370.013	0.12
370.8	-0.88
371.586	0.12
372.372	-0.88
373.158	1.12
373.944	0.12
374.73	-1.88
375.516	-0.88
376.302	0.12
377.088	-2.88
377.873	-1.88
378.659	0.12
379.445	-0.88
380.23	-2.88
381.015	-0.88
381.801	-0.88
382.586	-0.88
383.371	-0.88
384.156	0.12
384.941	-1.88
385.726	1.12
386.511	-1.88
387.296	0.12
388.08	1.12
388.865	-1.88
389.649	-1.88
390.434	-0.88
391.218	-0.88
392.003	-0.88
392.787	-1.88
393.571	-1.88
394.355	0.12
395.139	-1.88
395.923	-0.88
396.707	0.12
397.491	0.12
398.274	-0.88
399.058	1.12
399.842	-0.88
400.625	-0.88
401.408	-2.88
402.192	-1.88
402.975	-0.88
403.758	-2.88
404.541	-0.88
405.324	-1.88
406.107	0.12
406.89	-1.88
407.673	-2.88
408.456	-0.88
409.238	-1.88
410.021	-1.88
410.803	-0.88
411.586	-1.88
412.368	0.12
413.151	-1.88
413.933	0.12
414.715	-1.88
415.497	-1.88
416.279	0.12
417.061	-0.88
417.843	2.12
418.624	0.12
419.406	-0.88
420.188	0.12
420.969	0.12
421.751	0.12
422.532	-0.88
423.313	1.12
424.095	0.12
424.876	-1.88
425.657	0.12
426.438	-1.88
427.219	2.12
428	0.12
428.78	-1.88
429.561	0.12
430.342	1.12
431.122	-0.88
431.903	-0.88
432.683	-0.88
433.464	0.12
434.244	0.12
435.024	-1.88
435.804	-2.88
436.584	0.12
437.364	0.12
438.144	0.12
438.924	-1.88
439.704	-1.88
440.483	-0.88
441.263	-1.88
442.042	0.12
442.822	-0.88
443.601	1.12
444.38	0.12
445.16	-0.88
445.939	-0.88
446.718	0.12
447.497	-0.88
448.276	-1.88
449.054	0.12
449.833	0.12
450.612	0.12
451.391	-1.88
452.169	0.12
452.948	-0.88
453.726	0.12
454.504	1.12
455.282	0.12
456.061	0.12
456.839	-0.88
457.617	0.12
458.395	-0.88
459.172	0.12
459.95	-0.88
460.728	-3.88
461.506	0.12
462.283	-0.88
463.061	2.12
463.838	0.12
464.615	0.12
465.393	-0.88
466.17	-0.88
466.947	-2.88
467.724	-2.88
468.501	1.12
469.278	1.12
470.055	-0.88
470.831	1.12
471.608	-3.88
472.385	0.12
473.161	1.12
473.938	0.12
474.714	1.12
475.49	-2.88
476.266	-1.88
477.043	-0.88
477.819	0.12
478.595	0.12
479.371	-0.88
480.146	0.12
480.922	-1.88
481.698	-1.88
482.473	-0.88
483.249	-1.88
484.024	0.12
484.8	0.12
485.575	1.12
486.35	1.12
487.126	1.12
487.901	-1.88
488.676	-0.88
489.451	-1.88
490.225	-0.88
491	2.12
491.775	-0.88
492.55	-1.88
493.324	0.12
494.099	-1.88
494.873	0.12
495.647	-0.88
496.422	0.12
497.196	0.12
497.97	-0.88
498.744	-1.88
499.518	-2.88
500.292	-0.88
501.066	0.12
501.839	0.12
502.613	-0.88
503.387	-1.88
504.16	1.12
504.934	0.12
505.707	-0.88
506.48	0.12
507.253	-1.88
508.027	-0.88
508.8	-0.88
509.573	-1.88
510.346	-0.88
511.118	-1.88
511.891	2.12
512.664	0.12
513.437	1.12
514.209	0.12
514.982	1.12
515.754	-0.88
516.526	-0.88
517.298	-1.88
518.071	1.12
518.843	1.12
519.615	-0.88
520.387	-0.88
521.159	1.12
521.93	-0.88
522.702	1.12
523.474	-1.88
524.245	-0.88
525.017	1.12
525.788	-0.88
526.56	0.12
527.331	0.12
528.102	0.12
528.873	-0.88
529.644	-1.88
530.415	1.12
531.186	0.12
531.957	0.12
532.728	0.12
533.498	-0.88
534.269	-0.88
535.039	-2.88
535.81	-0.88
536.58	-1.88
537.351	-1.88
538.121	2.12
538.891	-1.88
539.661	0.12
540.431	-1.88
541.201	4.12
541.971	-0.88
542.741	-0.88
543.51	1.12
544.28	1.12
545.05	0.12
545.819	-0.88
546.588	0.12
547.358	1.12
548.127	-0.88
548.896	-0.88
549.665	-0.88
550.434	1.12
551.203	0.12
551.972	-0.88
552.741	-0.88
553.51	-0.88
554.278	-1.88
555.047	1.12
555.815	2.12
556.584	0.12
557.352	-0.88
558.121	0.12
558.889	1.12
559.657	-0.88
560.425	-1.88
561.193	1.12
561.961	-0.88
562.729	1.12
563.496	0.12
564.264	0.12
565.032	-0.88
565.799	2.12
566.567	-0.88
567.334	2.12
568.101	0.12
568.869	0.12
569.636	0.12
570.403	-0.88
571.17	-0.88
571.937	0.12
572.704	-1.88
573.471	-1.88
574.237	-1.88
575.004	0.12
575.771	-1.88
576.537	-0.88
577.303	-0.88
578.07	-1.88
578.836	0.12
579.602	0.12
580.368	-0.88
581.134	1.12
581.9	0.12
582.666	2.12
583.432	-0.88
584.198	2.12
584.964	-0.88
585.729	-1.88
586.495	0.12
587.26	-0.88
588.025	0.12
588.791	-1.88
589.556	-1.88
590.321	0.12
591.086	-0.88
591.851	0.12
592.616	2.12
593.381	2.12
594.146	-2.88
594.911	-1.88
595.675	2.12
596.44	-0.88
597.204	2.12
597.969	-0.88
598.733	1.12
599.497	0.12
600.261	-1.88
601.025	0.12
601.79	-0.88
602.553	-1.88
603.317	2.12
604.081	1.12
604.845	-0.88
605.609	-2.88
606.372	0.12
607.136	0.12
607.899	-0.88
608.662	0.12
609.426	0.12
610.189	0.12
610.952	-0.88
611.715	-1.88
612.478	0.12
613.241	2.12
614.004	0.12
614.767	1.12
615.529	-0.88
616.292	0.12
617.055	0.12
617.817	0.12
618.579	0.12
619.342	-0.88
620.104	0.12
620.866	-2.88
621.628	0.12
622.39	-1.88
623.152	-1.88
623.914	0.12
624.676	0.12
625.438	2.12
626.199	-1.88
626.961	0.12
627.722	0.12
628.484	0.12
629.245	-0.88
630.006	-1.88
630.768	2.12
631.529	-0.88
632.29	0.12
633.051	1.12
633.812	-0.88
634.573	2.12
635.333	-0.88
636.094	2.12
636.855	-1.88
637.615	0.12
638.376	-0.88
639.136	-0.88
639.896	0.12
640.657	-1.88
641.417	1.12
642.177	0.12
642.937	-0.88
643.697	1.12
644.457	-0.88
645.216	0.12
645.976	0.12
646.736	-1.88
647.495	0.12
648.255	0.12
649.014	0.12
649.774	-1.88
650.533	1.12
651.292	0.12
652.051	-1.88
652.81	1.12
653.569	0.12
654.328	-0.88
655.087	-0.88
655.846	1.12
656.604	0.12
657.363	0.12
658.121	-2.88
658.88	-0.88
659.638	0.12
660.397	1.12
661.155	-1.88
661.913	0.12
662.671	-0.88
663.429	1.12
664.187	0.12
664.945	0.12
665.703	1.12
666.46	-0.88
667.218	1.12
667.976	-1.88
668.733	0.12
669.49	2.12
670.248	0.12
671.005	1.12
671.762	-0.88
672.519	0.12
673.276	0.12
674.033	-0.88
674.79	0.12
675.547	-0.88
676.304	1.12
677.06	-0.88
677.817	1.12
678.574	-1.88
679.33	0.12
680.086	1.12
680.843	-1.88
681.599	-0.88
682.355	0.12
683.111	0.12
683.867	-0.88
684.623	-3.88
685.379	0.12
686.135	-1.88
686.89	-0.88
687.646	-1.88
688.402	-0.88
689.157	2.12
689.912	0.12
690.668	-2.88
691.423	0.12
692.178	-0.88
692.933	-0.88
693.688	-1.88
694.443	0.12
695.198	-0.88
695.953	-1.88
696.708	-1.88
697.462	-1.88
698.217	-0.88
698.972	-0.88
699.726	0.12
700.48	-1.88
701.235	-1.88
701.989	0.12
702.743	-0.88
703.497	-0.88
704.251	0.12
705.005	-1.88
705.759	-1.88
706.513	0.12
707.266	1.12
708.02	-1.88
708.774	-1.88
709.527	0.12
710.28	0.12
711.034	0.12
711.787	0.12
712.54	-0.88
713.293	1.12
714.046	0.12
714.799	-1.88
715.552	-1.88
716.305	1.12
717.058	0.12
717.81	0.12
718.563	0.12
719.315	-1.88
720.068	1.12
720.82	0.12
721.573	3.12
722.325	-0.88
723.077	-1.88
723.829	0.12
724.581	-1.88
725.333	-0.88
726.085	0.12
726.836	0.12
727.588	-1.88
728.34	-0.88
729.091	1.12
729.843	0.12
730.594	-0.88
731.346	1.12
732.097	-0.88
732.848	-0.88
733.599	-0.88
734.35	-0.88
735.101	1.12
735.852	1.12
736.603	-1.88
737.354	1.12
738.104	-1.88
738.855	0.12
739.605	-0.88
740.356	-0.88
741.106	-0.88
741.856	0.12
742.607	-0.88
743.357	0.12
744.107	0.12
744.857	1.12
745.607	-1.88
746.357	0.12
747.106	0.12
747.856	0.12
748.606	0.12
749.355	0.12
750.105	0.12
750.854	0.12
751.603	-1.88
752.353	-0.88
753.102	-0.88
753.851	0.12
754.6	0.12
755.349	1.12
756.098	0.12
756.847	0.12
757.595	0.12
758.344	0.12
759.093	-0.88
759.841	-1.88
760.589	0.12
761.338	-0.88
762.086	0.12
762.834	-0.88
763.582	-0.88
764.331	0.12
765.079	0.12
765.826	-2.88
766.574	-0.88
767.322	0.12
768.07	0.12
768.817	0.12
769.565	-1.88
770.312	2.12
771.06	0.12
771.807	1.12
772.554	0.12
773.302	-1.88
774.049	-0.88
774.796	-0.88
775.543	-0.88
776.29	-0.88
777.036	-1.88
777.783	-0.88
778.53	-1.88
779.276	-1.88
780.023	-1.88
780.769	-0.88
781.516	0.12
782.262	-3.88
783.008	2.12
783.754	0.12
784.5	1.12
785.246	-0.88
785.992	-0.88
786.738	-1.88
787.484	-1.88
788.23	-1.88
788.975	1.12
789.721	0.12
790.466	0.12
791.212	0.12
791.957	-0.88
792.702	0.12
793.447	-0.88
794.193	0.12
794.938	-1.88
795.683	-1.88
796.427	0.12
797.172	0.12
797.917	-0.88
798.662	-0.88
799.406	0.12
800.151	-0.88
800.895	-0.88
801.64	0.12
802.384	-0.88
803.128	-1.88
803.872	-1.88
804.616	0.12
805.36	-0.88
806.104	-0.88
806.848	1.12
807.592	0.12
808.336	1.12
809.079	0.12
809.823	1.12
810.566	0.12
811.31	-0.88
812.053	1.12
812.796	-0.88
813.539	-0.88
814.283	1.12
815.026	1.12
815.769	0.12
816.511	0.12
817.254	0.12
817.997	0.12
818.74	-0.88
819.482	-2.88
820.225	-0.88
820.967	0.12
821.71	-1.88
822.452	-0.88
823.194	0.12
823.936	-0.88
824.678	0.12
825.42	-1.88
826.162	0.12
826.904	2.12
827.646	0.12
828.388	-2.88
829.129	-0.88
829.871	0.12
830.612	-0.88
831.354	-0.88
832.095	0.12
832.836	-0.88
833.577	0.12
834.319	-3.88
835.06	0.12
835.801	0.12
836.542	-0.88
837.282	1.12
838.023	0.12
838.764	-1.88
839.504	-0.88
840.245	-1.88
840.985	1.12
841.726	-1.88
842.466	0.12
843.206	0.12
843.946	-0.88
844.687	0.12
845.427	1.12
846.166	-0.88
846.906	-1.88
847.646	0.12
848.386	-0.88
849.125	0.12
849.865	-0.88
850.605	-2.88
851.344	1.12
852.083	0.12
852.823	1.12
853.562	0.12
854.301	-1.88
855.04	-1.88
855.779	0.12
856.518	-0.88
857.257	0.12
857.995	-0.88
858.734	-0.88
859.473	-2.88
860.211	0.12
860.95	0.12
861.688	0.12
862.426	2.12
863.165	-0.88
863.903	-1.88
864.641	-0.88
865.379	0.12
866.117	0.12
866.855	0.12
867.593	1.12
868.33	-4.88
869.068	1.12
869.806	-0.88
870.543	1.12
871.28	-1.88
872.018	-1.88
872.755	-1.88
873.492	1.12
874.229	1.12
874.967	0.12
875.703	-1.88
876.44	0.12
877.177	0.12
877.914	-0.88
878.651	-0.88
879.387	-0.88
880.124	0.12
880.86	-1.88
881.597	0.12
882.333	-1.88
883.069	-0.88
883.806	0.12
884.542	-1.88
885.278	-0.88
886.014	-1.88
886.749	0.12
887.485	-1.88
888.221	-0.88
888.957	-1.88
889.692	0.12
890.428	1.12
891.163	1.12
891.899	1.12
892.634	0.12
893.369	0.12
894.104	-1.88
894.839	-1.88
895.574	1.12
896.309	3.12
897.044	0.12
897.779	2.12
898.514	-0.88
899.248	0.12
899.983	-2.88
900.717	0.12
901.452	-1.88
902.186	-0.88
902.92	2.12
903.654	1.12
904.389	0.12
905.123	2.12
905.857	-0.88
906.59	-0.88
907.324	0.12
908.058	0.12
908.792	-2.88
909.525	0.12
910.259	0.12
910.992	-1.88
911.726	0.12
912.459	0.12
913.192	0.12
913.925	0.12
914.658	0.12
915.391	0.12
916.124	0.12
916.857	0.12
917.59	-0.88
918.323	0.12
919.055	-0.88
919.788	-0.88
920.521	0.12
921.253	-0.88
921.985	-0.88
922.718	1.12
923.45	2.12
924.182	0.12
924.914	-0.88
925.646	0.12
926.378	0.12
927.11	0.12
927.841	-0.88
928.573	-1.88
929.305	0.12
930.036	-0.88
930.768	0.12
931.499	1.12
932.23	-0.88
932.962	2.12
933.693	0.12
934.424	0.12
935.155	1.12
935.886	-0.88
936.617	2.12
937.348	-1.88
938.078	0.12
938.809	0.12
939.54	-0.88
940.27	-1.88
941.001	-0.88
941.731	-0.88
942.461	-0.88
943.191	0.12
943.922	1.12
944.652	-0.88
945.382	1.12
946.112	-0.88
946.841	0.12
947.571	-0.88
948.301	-3.88
949.031	-1.88
949.76	0.12
950.49	0.12
951.219	-0.88
951.948	-1.88
952.678	-0.88
953.407	0.12
954.136	0.12
954.865	0.12
955.594	1.12
956.323	-1.88
957.052	0.12
957.78	-0.88
958.509	-0.88
959.238	-1.88
959.966	0.12
960.695	-1.88
961.423	0.12
962.151	-0.88
962.88	0.12
963.608	0.12
964.336	0.12
965.064	-0.88
965.792	1.12
966.52	-1.88
967.247	-0.88
967.975	1.12
968.703	3.12
969.43	-0.88
970.158	0.12
970.885	0.12
971.613	0.12
972.34	0.12
973.067	1.12
973.794	-2.88
974.521	-3.88
975.248	1.12
975.975	-4.88
976.702	1.12
977.429	0.12
978.156	-0.88
978.882	1.12
979.609	0.12
980.335	-1.88
981.062	1.12
981.788	0.12
982.514	-0.88
983.24	1.12
983.967	0.12
984.693	0.12
985.419	0.12
986.144	0.12
986.87	-0.88
987.596	-0.88
988.322	1.12
989.047	0.12
989.773	-0.88
990.498	0.12
991.224	1.12
991.949	-0.88
992.674	1.12
993.399	-0.88
994.124	-2.88
994.849	-0.88
995.574	-1.88
996.299	1.12
997.024	-0.88
997.749	0.12
998.473	-0.88
999.198	-1.88
999.922	0.12
1000.647	-1.88
1001.371	5.12
1002.095	-0.88
1002.82	-1.88
1003.544	-1.88
1004.268	-1.88
1004.992	-2.88
1005.716	-0.88
1006.439	-1.88
1007.163	-2.88
1007.887	-0.88
1008.611	-0.88
1009.334	0.12
1010.058	0.12
1010.781	-2.88
1011.504	1.12
1012.228	0.12
1012.951	0.12
1013.674	1.12
1014.397	-0.88
1015.12	-0.88
