节点500_285_QEPB04081__220__14-59-13-026.txt的数据

Date: Wed Nov 12 14:59:13 CST 2025
User: PC
Spectrometer: QEPB0408
触发模式: 0
积分时间 (秒): 1.000000E-2
Scans to average: 1
启用暗噪声校正: true
启用非线性校正: false
滑动平均宽度: 0
X轴模式: Wavelengths
Number of Pixels in Spectrum: 1044
>>>>>Begin Spectral Data<<<<<
220.843	3.25
221.644	2.25
222.444	4.25
223.244	0.25
224.045	1.25
224.845	3.25
225.645	5.25
226.445	3.25
227.245	1.25
228.045	4.25
228.845	3.25
229.645	5.25
230.444	5.25
231.244	3.25
232.043	4.25
232.843	5.25
233.642	2.25
234.442	3.25
235.241	4.25
236.04	5.25
236.839	3.25
237.638	4.25
238.437	5.25
239.236	4.25
240.035	5.25
240.833	5.25
241.632	5.25
242.43	6.25
243.229	6.25
244.027	6.25
244.826	5.25
245.624	5.25
246.422	7.25
247.22	8.25
248.018	9.25
248.816	8.25
249.614	8.25
250.412	3.25
251.21	9.25
252.007	8.25
252.805	9.25
253.602	6.25
254.4	5.25
255.197	7.25
255.994	11.25
256.791	9.25
257.589	8.25
258.386	12.25
259.183	9.25
259.979	9.25
260.776	11.25
261.573	10.25
262.37	11.25
263.166	10.25
263.963	13.25
264.759	17.25
265.556	14.25
266.352	12.25
267.148	14.25
267.944	16.25
268.74	16.25
269.536	16.25
270.332	15.25
271.128	15.25
271.924	17.25
272.719	17.25
273.515	17.25
274.311	16.25
275.106	19.25
275.901	19.25
276.697	18.25
277.492	22.25
278.287	19.25
279.082	18.25
279.877	19.25
280.672	20.25
281.467	18.25
282.262	18.25
283.056	21.25
283.851	19.25
284.646	19.25
285.44	18.25
286.234	21.25
287.029	20.25
287.823	18.25
288.617	21.25
289.411	21.25
290.205	22.25
290.999	21.25
291.793	18.25
292.587	19.25
293.381	18.25
294.174	19.25
294.968	15.25
295.761	16.25
296.555	19.25
297.348	14.25
298.141	16.25
298.935	19.25
299.728	17.25
300.521	14.25
301.314	15.25
302.107	14.25
302.899	14.25
303.692	14.25
304.485	13.25
305.277	17.25
306.07	13.25
306.862	12.25
307.655	13.25
308.447	12.25
309.239	13.25
310.031	11.25
310.823	9.25
311.615	11.25
312.407	10.25
313.199	10.25
313.991	9.25
314.783	9.25
315.574	10.25
316.366	8.25
317.157	10.25
317.949	10.25
318.74	9.25
319.531	9.25
320.322	7.25
321.113	6.25
321.904	9.25
322.695	9.25
323.486	6.25
324.277	7.25
325.068	9.25
325.858	6.25
326.649	7.25
327.439	7.25
328.23	8.25
329.02	5.25
329.81	7.25
330.6	6.25
331.391	7.25
332.181	8.25
332.971	5.25
333.76	7.25
334.55	8.25
335.34	7.25
336.13	7.25
336.919	7.25
337.709	8.25
338.498	5.25
339.287	7.25
340.077	8.25
340.866	5.25
341.655	7.25
342.444	9.25
343.233	7.25
344.022	7.25
344.811	8.25
345.6	7.25
346.388	5.25
347.177	7.25
347.965	7.25
348.754	7.25
349.542	6.25
350.33	4.25
351.119	6.25
351.907	7.25
352.695	6.25
353.483	8.25
354.271	8.25
355.059	7.25
355.846	4.25
356.634	6.25
357.422	7.25
358.209	5.25
358.997	9.25
359.784	5.25
360.571	6.25
361.359	4.25
362.146	8.25
362.933	7.25
363.72	6.25
364.507	6.25
365.294	6.25
366.081	5.25
366.867	7.25
367.654	7.25
368.44	4.25
369.227	6.25
370.013	7.25
370.8	5.25
371.586	7.25
372.372	7.25
373.158	4.25
373.944	7.25
374.73	6.25
375.516	6.25
376.302	4.25
377.088	4.25
377.873	5.25
378.659	7.25
379.445	6.25
380.23	3.25
381.015	5.25
381.801	6.25
382.586	4.25
383.371	6.25
384.156	6.25
384.941	7.25
385.726	5.25
386.511	6.25
387.296	6.25
388.08	3.25
388.865	7.25
389.649	2.25
390.434	6.25
391.218	6.25
392.003	6.25
392.787	8.25
393.571	6.25
394.355	7.25
395.139	7.25
395.923	6.25
396.707	9.25
397.491	6.25
398.274	8.25
399.058	6.25
399.842	5.25
400.625	9.25
401.408	6.25
402.192	8.25
402.975	5.25
403.758	8.25
404.541	7.25
405.324	8.25
406.107	8.25
406.89	7.25
407.673	7.25
408.456	9.25
409.238	9.25
410.021	8.25
410.803	8.25
411.586	9.25
412.368	9.25
413.151	10.25
413.933	8.25
414.715	10.25
415.497	8.25
416.279	9.25
417.061	11.25
417.843	11.25
418.624	9.25
419.406	12.25
420.188	9.25
420.969	10.25
421.751	9.25
422.532	13.25
423.313	11.25
424.095	9.25
424.876	12.25
425.657	14.25
426.438	14.25
427.219	14.25
428	13.25
428.78	16.25
429.561	14.25
430.342	14.25
431.122	12.25
431.903	15.25
432.683	19.25
433.464	15.25
434.244	18.25
435.024	15.25
435.804	20.25
436.584	20.25
437.364	21.25
438.144	19.25
438.924	22.25
439.704	25.25
440.483	21.25
441.263	26.25
442.042	25.25
442.822	27.25
443.601	31.25
444.38	29.25
445.16	37.25
445.939	33.25
446.718	36.25
447.497	41.25
448.276	42.25
449.054	44.25
449.833	47.25
450.612	53.25
451.391	57.25
452.169	65.25
452.948	69.25
453.726	75.25
454.504	83.25
455.282	85.25
456.061	96.25
456.839	103.25
457.617	117.25
458.395	132.25
459.172	145.25
459.95	164.25
460.728	180.25
461.506	199.25
462.283	223.25
463.061	251.25
463.838	283.25
464.615	314.25
465.393	363.25
466.17	389.25
466.947	430.25
467.724	492.25
468.501	542.25
469.278	601.25
470.055	678.25
470.831	746.25
471.608	845.25
472.385	928.25
473.161	1038.25
473.938	1145.25
474.714	1276.25
475.49	1414.25
476.266	1564.25
477.043	1741.25
477.819	1929.25
478.595	2114.25
479.371	2334.25
480.146	2572.25
480.922	2850.25
481.698	3155.25
482.473	3487.25
483.249	3863.25
484.024	4249.25
484.8	4694.25
485.575	5170.25
486.35	5696.25
487.126	6248.25
487.901	6846.25
488.676	7536.25
489.451	8275.25
490.225	9074.25
491	9904.25
491.775	10831.25
492.55	11825.25
493.324	12800.25
494.099	13849.25
494.873	14869.25
495.647	16112.25
496.422	17309.25
497.196	18466.25
497.97	19764.25
498.744	21067.25
499.518	22192.25
500.292	23339.25
501.066	24513.25
501.839	25373.25
502.613	26247.25
503.387	27057.25
504.16	27579.25
504.934	27881.25
505.707	28018.25
506.48	28003.25
507.253	27807.25
508.027	27474.25
508.8	27108.25
509.573	26632.25
510.346	25925.25
511.118	25112.25
511.891	24274.25
512.664	23371.25
513.437	22369.25
514.209	21536.25
514.982	20586.25
515.754	19632.25
516.526	18745.25
517.298	17970.25
518.071	17151.25
518.843	16464.25
519.615	15837.25
520.387	15208.25
521.159	14614.25
521.93	14082.25
522.702	13484.25
523.474	12950.25
524.245	12344.25
525.017	11840.25
525.788	11387.25
526.56	10835.25
527.331	10311.25
528.102	9901.25
528.873	9413.25
529.644	8909.25
530.415	8497.25
531.186	8065.25
531.957	7602.25
532.728	7220.25
533.498	6846.25
534.269	6474.25
535.039	6085.25
535.81	5768.25
536.58	5435.25
537.351	5103.25
538.121	4849.25
538.891	4571.25
539.661	4325.25
540.431	4083.25
541.201	3885.25
541.971	3668.25
542.741	3490.25
543.51	3311.25
544.28	3161.25
545.05	2993.25
545.819	2842.25
546.588	2696.25
547.358	2546.25
548.127	2439.25
548.896	2301.25
549.665	2197.25
550.434	2074.25
551.203	1971.25
551.972	1863.25
552.741	1758.25
553.51	1650.25
554.278	1572.25
555.047	1467.25
555.815	1384.25
556.584	1312.25
557.352	1242.25
558.121	1171.25
558.889	1093.25
559.657	1054.25
560.425	987.25
561.193	931.25
561.961	874.25
562.729	837.25
563.496	778.25
564.264	742.25
565.032	701.25
565.799	665.25
566.567	619.25
567.334	603.25
568.101	552.25
568.869	523.25
569.636	499.25
570.403	461.25
571.17	439.25
571.937	418.25
572.704	385.25
573.471	367.25
574.237	352.25
575.004	330.25
575.771	312.25
576.537	282.25
577.303	282.25
578.07	265.25
578.836	250.25
579.602	229.25
580.368	218.25
581.134	207.25
581.9	197.25
582.666	191.25
583.432	173.25
584.198	170.25
584.964	162.25
585.729	152.25
586.495	137.25
587.26	140.25
588.025	129.25
588.791	117.25
589.556	116.25
590.321	113.25
591.086	102.25
591.851	99.25
592.616	93.25
593.381	86.25
594.146	85.25
594.911	78.25
595.675	75.25
596.44	73.25
597.204	72.25
597.969	70.25
598.733	66.25
599.497	66.25
600.261	58.25
601.025	58.25
601.79	56.25
602.553	53.25
603.317	49.25
604.081	48.25
604.845	44.25
605.609	45.25
606.372	42.25
607.136	39.25
607.899	41.25
608.662	39.25
609.426	36.25
610.189	34.25
610.952	34.25
611.715	32.25
612.478	32.25
613.241	30.25
614.004	28.25
614.767	24.25
615.529	25.25
616.292	28.25
617.055	24.25
617.817	22.25
618.579	22.25
619.342	21.25
620.104	23.25
620.866	21.25
621.628	20.25
622.39	20.25
623.152	20.25
623.914	16.25
624.676	19.25
625.438	19.25
626.199	18.25
626.961	15.25
627.722	16.25
628.484	12.25
629.245	15.25
630.006	14.25
630.768	15.25
631.529	13.25
632.29	10.25
633.051	13.25
633.812	13.25
634.573	15.25
635.333	11.25
636.094	10.25
636.855	13.25
637.615	10.25
638.376	10.25
639.136	10.25
639.896	10.25
640.657	9.25
641.417	10.25
642.177	9.25
642.937	7.25
643.697	10.25
644.457	9.25
645.216	8.25
645.976	11.25
646.736	8.25
647.495	8.25
648.255	10.25
649.014	9.25
649.774	8.25
650.533	9.25
651.292	7.25
652.051	7.25
652.81	8.25
653.569	8.25
654.328	5.25
655.087	5.25
655.846	6.25
656.604	8.25
657.363	10.25
658.121	7.25
658.88	5.25
659.638	7.25
660.397	7.25
661.155	7.25
661.913	5.25
662.671	8.25
663.429	5.25
664.187	7.25
664.945	6.25
665.703	4.25
666.46	5.25
667.218	4.25
667.976	4.25
668.733	7.25
669.49	5.25
670.248	4.25
671.005	5.25
671.762	5.25
672.519	4.25
673.276	6.25
674.033	4.25
674.79	7.25
675.547	4.25
676.304	4.25
677.06	5.25
677.817	6.25
678.574	8.25
679.33	4.25
680.086	6.25
680.843	4.25
681.599	5.25
682.355	6.25
683.111	6.25
683.867	4.25
684.623	6.25
685.379	7.25
686.135	4.25
686.89	5.25
687.646	2.25
688.402	4.25
689.157	7.25
689.912	6.25
690.668	4.25
691.423	4.25
692.178	2.25
692.933	7.25
693.688	2.25
694.443	6.25
695.198	5.25
695.953	3.25
696.708	6.25
697.462	2.25
698.217	4.25
698.972	5.25
699.726	5.25
700.48	6.25
701.235	2.25
701.989	5.25
702.743	5.25
703.497	3.25
704.251	4.25
705.005	2.25
705.759	4.25
706.513	2.25
707.266	5.25
708.02	4.25
708.774	5.25
709.527	5.25
710.28	2.25
711.034	5.25
711.787	5.25
712.54	3.25
713.293	3.25
714.046	3.25
714.799	5.25
715.552	5.25
716.305	3.25
717.058	5.25
717.81	4.25
718.563	7.25
719.315	2.25
720.068	2.25
720.82	5.25
721.573	4.25
722.325	5.25
723.077	5.25
723.829	4.25
724.581	6.25
725.333	5.25
726.085	3.25
726.836	4.25
727.588	5.25
728.34	5.25
729.091	4.25
729.843	5.25
730.594	5.25
731.346	4.25
732.097	6.25
732.848	4.25
733.599	6.25
734.35	6.25
735.101	6.25
735.852	5.25
736.603	5.25
737.354	3.25
738.104	3.25
738.855	4.25
739.605	5.25
740.356	4.25
741.106	5.25
741.856	5.25
742.607	3.25
743.357	6.25
744.107	7.25
744.857	4.25
745.607	5.25
746.357	5.25
747.106	5.25
747.856	6.25
748.606	4.25
749.355	7.25
750.105	7.25
750.854	6.25
751.603	5.25
752.353	5.25
753.102	6.25
753.851	5.25
754.6	6.25
755.349	7.25
756.098	6.25
756.847	6.25
757.595	7.25
758.344	7.25
759.093	7.25
759.841	8.25
760.589	7.25
761.338	6.25
762.086	6.25
762.834	8.25
763.582	7.25
764.331	7.25
765.079	8.25
765.826	6.25
766.574	8.25
767.322	6.25
768.07	6.25
768.817	9.25
769.565	8.25
770.312	7.25
771.06	6.25
771.807	8.25
772.554	10.25
773.302	7.25
774.049	9.25
774.796	9.25
775.543	10.25
776.29	8.25
777.036	12.25
777.783	6.25
778.53	10.25
779.276	9.25
780.023	8.25
780.769	10.25
781.516	9.25
782.262	10.25
783.008	10.25
783.754	9.25
784.5	10.25
785.246	8.25
785.992	11.25
786.738	10.25
787.484	8.25
788.23	11.25
788.975	7.25
789.721	10.25
790.466	9.25
791.212	9.25
791.957	9.25
792.702	9.25
793.447	9.25
794.193	5.25
794.938	10.25
795.683	8.25
796.427	8.25
797.172	7.25
797.917	4.25
798.662	7.25
799.406	9.25
800.151	9.25
800.895	8.25
801.64	7.25
802.384	9.25
803.128	5.25
803.872	5.25
804.616	9.25
805.36	8.25
806.104	5.25
806.848	6.25
807.592	8.25
808.336	6.25
809.079	6.25
809.823	7.25
810.566	8.25
811.31	5.25
812.053	5.25
812.796	7.25
813.539	8.25
814.283	8.25
815.026	5.25
815.769	5.25
816.511	7.25
817.254	5.25
817.997	7.25
818.74	5.25
819.482	6.25
820.225	5.25
820.967	5.25
821.71	6.25
822.452	5.25
823.194	4.25
823.936	6.25
824.678	5.25
825.42	4.25
826.162	2.25
826.904	5.25
827.646	4.25
828.388	5.25
829.129	5.25
829.871	2.25
830.612	4.25
831.354	3.25
832.095	6.25
832.836	3.25
833.577	2.25
834.319	3.25
835.06	3.25
835.801	4.25
836.542	2.25
837.282	4.25
838.023	5.25
838.764	4.25
839.504	4.25
840.245	5.25
840.985	2.25
841.726	4.25
842.466	4.25
843.206	4.25
843.946	4.25
844.687	6.25
845.427	6.25
846.166	5.25
846.906	4.25
847.646	5.25
848.386	4.25
849.125	3.25
849.865	4.25
850.605	3.25
851.344	4.25
852.083	3.25
852.823	3.25
853.562	3.25
854.301	3.25
855.04	4.25
855.779	5.25
856.518	2.25
857.257	4.25
857.995	3.25
858.734	5.25
859.473	4.25
860.211	2.25
860.95	2.25
861.688	4.25
862.426	2.25
863.165	2.25
863.903	3.25
864.641	3.25
865.379	0.25
866.117	2.25
866.855	2.25
867.593	4.25
868.33	4.25
869.068	3.25
869.806	2.25
870.543	2.25
871.28	4.25
872.018	4.25
872.755	3.25
873.492	3.25
874.229	1.25
874.967	2.25
875.703	1.25
876.44	3.25
877.177	1.25
877.914	0.25
878.651	3.25
879.387	0.25
880.124	0.25
880.86	2.25
881.597	1.25
882.333	1.25
883.069	0.25
883.806	2.25
884.542	0.25
885.278	1.25
886.014	1.25
886.749	2.25
887.485	0.25
888.221	2.25
888.957	0.25
889.692	-0.75
890.428	4.25
891.163	2.25
891.899	1.25
892.634	3.25
893.369	-0.75
894.104	2.25
894.839	2.25
895.574	0.25
896.309	-0.75
897.044	3.25
897.779	2.25
898.514	1.25
899.248	3.25
899.983	0.25
900.717	1.25
901.452	1.25
902.186	1.25
902.92	0.25
903.654	0.25
904.389	1.25
905.123	1.25
905.857	2.25
906.59	2.25
907.324	0.25
908.058	2.25
908.792	2.25
909.525	0.25
910.259	3.25
910.992	1.25
911.726	1.25
912.459	0.25
913.192	1.25
913.925	2.25
914.658	1.25
915.391	0.25
916.124	-0.75
916.857	3.25
917.59	0.25
918.323	1.25
919.055	2.25
919.788	0.25
920.521	0.25
921.253	3.25
921.985	0.25
922.718	2.25
923.45	2.25
924.182	0.25
924.914	1.25
925.646	0.25
926.378	2.25
927.11	3.25
927.841	-1.75
928.573	3.25
929.305	0.25
930.036	1.25
930.768	2.25
931.499	1.25
932.23	1.25
932.962	1.25
933.693	0.25
934.424	3.25
935.155	-0.75
935.886	1.25
936.617	-0.75
937.348	1.25
938.078	1.25
938.809	2.25
939.54	0.25
940.27	-0.75
941.001	1.25
941.731	1.25
942.461	0.25
943.191	0.25
943.922	1.25
944.652	2.25
945.382	1.25
946.112	1.25
946.841	2.25
947.571	-0.75
948.301	1.25
949.031	0.25
949.76	0.25
950.49	-0.75
951.219	0.25
951.948	1.25
952.678	-0.75
953.407	1.25
954.136	-0.75
954.865	1.25
955.594	1.25
956.323	0.25
957.052	2.25
957.78	1.25
958.509	1.25
959.238	2.25
959.966	3.25
960.695	1.25
961.423	2.25
962.151	2.25
962.88	1.25
963.608	2.25
964.336	1.25
965.064	1.25
965.792	-0.75
966.52	-0.75
967.247	1.25
967.975	-0.75
968.703	2.25
969.43	1.25
970.158	-0.75
970.885	1.25
971.613	-1.75
972.34	2.25
973.067	-1.75
973.794	0.25
974.521	5.25
975.248	-1.75
975.975	2.25
976.702	1.25
977.429	3.25
978.156	2.25
978.882	0.25
979.609	1.25
980.335	2.25
981.062	1.25
981.788	0.25
982.514	0.25
983.24	2.25
983.967	-0.75
984.693	-0.75
985.419	-0.75
986.144	1.25
986.87	1.25
987.596	1.25
988.322	0.25
989.047	1.25
989.773	2.25
990.498	1.25
991.224	2.25
991.949	1.25
992.674	3.25
993.399	1.25
994.124	1.25
994.849	0.25
995.574	2.25
996.299	1.25
997.024	0.25
997.749	0.25
998.473	0.25
999.198	1.25
999.922	1.25
1000.647	0.25
1001.371	4.25
1002.095	0.25
1002.82	-1.75
1003.544	-0.75
1004.268	1.25
1004.992	2.25
1005.716	2.25
1006.439	1.25
1007.163	3.25
1007.887	4.25
1008.611	0.25
1009.334	3.25
1010.058	0.25
1010.781	0.25
1011.504	1.25
1012.228	2.25
1012.951	-0.75
1013.674	-2.75
1014.397	0.25
1015.12	1.25
