节点500_285_QEPB04081__441__15-02-53-536.txt的数据

Date: Wed Nov 12 15:02:53 CST 2025
User: PC
Spectrometer: QEPB0408
触发模式: 0
积分时间 (秒): 1.000000E-2
Scans to average: 1
启用暗噪声校正: true
启用非线性校正: false
滑动平均宽度: 0
X轴模式: Wavelengths
Number of Pixels in Spectrum: 1044
>>>>>Begin Spectral Data<<<<<
220.843	0.5
221.644	-0.5
222.444	2.5
223.244	2.5
224.045	0.5
224.845	0.5
225.645	1.5
226.445	1.5
227.245	0.5
228.045	4.5
228.845	1.5
229.645	5.5
230.444	0.5
231.244	1.5
232.043	1.5
232.843	4.5
233.642	2.5
234.442	4.5
235.241	6.5
236.04	3.5
236.839	3.5
237.638	2.5
238.437	1.5
239.236	1.5
240.035	2.5
240.833	7.5
241.632	3.5
242.43	5.5
243.229	5.5
244.027	3.5
244.826	4.5
245.624	4.5
246.422	5.5
247.22	3.5
248.018	7.5
248.816	4.5
249.614	5.5
250.412	7.5
251.21	5.5
252.007	7.5
252.805	3.5
253.602	4.5
254.4	5.5
255.197	6.5
255.994	9.5
256.791	7.5
257.589	6.5
258.386	9.5
259.183	6.5
259.979	9.5
260.776	9.5
261.573	10.5
262.37	8.5
263.166	9.5
263.963	13.5
264.759	9.5
265.556	12.5
266.352	16.5
267.148	13.5
267.944	14.5
268.74	11.5
269.536	13.5
270.332	13.5
271.128	15.5
271.924	16.5
272.719	13.5
273.515	14.5
274.311	16.5
275.106	16.5
275.901	17.5
276.697	19.5
277.492	17.5
278.287	16.5
279.082	15.5
279.877	18.5
280.672	16.5
281.467	16.5
282.262	19.5
283.056	16.5
283.851	15.5
284.646	17.5
285.44	19.5
286.234	18.5
287.029	19.5
287.823	16.5
288.617	20.5
289.411	18.5
290.205	18.5
290.999	14.5
291.793	19.5
292.587	17.5
293.381	15.5
294.174	15.5
294.968	16.5
295.761	16.5
296.555	13.5
297.348	15.5
298.141	18.5
298.935	15.5
299.728	13.5
300.521	12.5
301.314	15.5
302.107	9.5
302.899	13.5
303.692	13.5
304.485	11.5
305.277	12.5
306.07	10.5
306.862	9.5
307.655	13.5
308.447	9.5
309.239	12.5
310.031	10.5
310.823	9.5
311.615	9.5
312.407	12.5
313.199	11.5
313.991	9.5
314.783	10.5
315.574	5.5
316.366	7.5
317.157	6.5
317.949	6.5
318.74	8.5
319.531	6.5
320.322	9.5
321.113	6.5
321.904	6.5
322.695	7.5
323.486	5.5
324.277	8.5
325.068	8.5
325.858	5.5
326.649	6.5
327.439	6.5
328.23	6.5
329.02	4.5
329.81	7.5
330.6	5.5
331.391	7.5
332.181	5.5
332.971	4.5
333.76	5.5
334.55	4.5
335.34	6.5
336.13	6.5
336.919	5.5
337.709	5.5
338.498	6.5
339.287	4.5
340.077	4.5
340.866	3.5
341.655	5.5
342.444	6.5
343.233	6.5
344.022	5.5
344.811	4.5
345.6	6.5
346.388	4.5
347.177	6.5
347.965	7.5
348.754	5.5
349.542	4.5
350.33	5.5
351.119	6.5
351.907	5.5
352.695	3.5
353.483	6.5
354.271	6.5
355.059	3.5
355.846	7.5
356.634	7.5
357.422	5.5
358.209	6.5
358.997	5.5
359.784	4.5
360.571	4.5
361.359	1.5
362.146	4.5
362.933	5.5
363.72	6.5
364.507	3.5
365.294	5.5
366.081	6.5
366.867	3.5
367.654	8.5
368.44	4.5
369.227	3.5
370.013	5.5
370.8	5.5
371.586	6.5
372.372	5.5
373.158	4.5
373.944	3.5
374.73	4.5
375.516	4.5
376.302	3.5
377.088	6.5
377.873	5.5
378.659	4.5
379.445	5.5
380.23	3.5
381.015	4.5
381.801	8.5
382.586	4.5
383.371	5.5
384.156	4.5
384.941	3.5
385.726	5.5
386.511	6.5
387.296	5.5
388.08	6.5
388.865	6.5
389.649	4.5
390.434	5.5
391.218	5.5
392.003	6.5
392.787	5.5
393.571	6.5
394.355	4.5
395.139	6.5
395.923	8.5
396.707	6.5
397.491	5.5
398.274	4.5
399.058	7.5
399.842	5.5
400.625	6.5
401.408	5.5
402.192	5.5
402.975	4.5
403.758	6.5
404.541	8.5
405.324	8.5
406.107	6.5
406.89	8.5
407.673	7.5
408.456	5.5
409.238	7.5
410.021	8.5
410.803	6.5
411.586	8.5
412.368	6.5
413.151	9.5
413.933	7.5
414.715	6.5
415.497	12.5
416.279	8.5
417.061	9.5
417.843	8.5
418.624	8.5
419.406	11.5
420.188	10.5
420.969	8.5
421.751	10.5
422.532	10.5
423.313	12.5
424.095	8.5
424.876	13.5
425.657	8.5
426.438	12.5
427.219	10.5
428	12.5
428.78	12.5
429.561	13.5
430.342	13.5
431.122	13.5
431.903	13.5
432.683	13.5
433.464	13.5
434.244	14.5
435.024	12.5
435.804	17.5
436.584	20.5
437.364	15.5
438.144	21.5
438.924	20.5
439.704	22.5
440.483	21.5
441.263	24.5
442.042	24.5
442.822	26.5
443.601	28.5
444.38	29.5
445.16	31.5
445.939	37.5
446.718	34.5
447.497	38.5
448.276	40.5
449.054	46.5
449.833	45.5
450.612	55.5
451.391	54.5
452.169	64.5
452.948	69.5
453.726	73.5
454.504	87.5
455.282	95.5
456.061	100.5
456.839	112.5
457.617	124.5
458.395	139.5
459.172	154.5
459.95	170.5
460.728	187.5
461.506	207.5
462.283	240.5
463.061	267.5
463.838	289.5
464.615	321.5
465.393	372.5
466.17	415.5
466.947	449.5
467.724	514.5
468.501	572.5
469.278	633.5
470.055	697.5
470.831	785.5
471.608	871.5
472.385	951.5
473.161	1073.5
473.938	1174.5
474.714	1294.5
475.49	1436.5
476.266	1594.5
477.043	1745.5
477.819	1921.5
478.595	2125.5
479.371	2349.5
480.146	2575.5
480.922	2844.5
481.698	3152.5
482.473	3447.5
483.249	3792.5
484.024	4163.5
484.8	4549.5
485.575	5009.5
486.35	5525.5
487.126	5995.5
487.901	6578.5
488.676	7217.5
489.451	7904.5
490.225	8603.5
491	9394.5
491.775	10251.5
492.55	11195.5
493.324	12054.5
494.099	13009.5
494.873	14022.5
495.647	15110.5
496.422	16183.5
497.196	17366.5
497.97	18569.5
498.744	19697.5
499.518	20852.5
500.292	21933.5
501.066	22998.5
501.839	23996.5
502.613	24889.5
503.387	25724.5
504.16	26359.5
504.934	26651.5
505.707	26921.5
506.48	27022.5
507.253	27025.5
508.027	26813.5
508.8	26538.5
509.573	26105.5
510.346	25615.5
511.118	24910.5
511.891	24128.5
512.664	23288.5
513.437	22505.5
514.209	21625.5
514.982	20726.5
515.754	19850.5
516.526	18956.5
517.298	18105.5
518.071	17355.5
518.843	16630.5
519.615	16024.5
520.387	15407.5
521.159	14842.5
521.93	14229.5
522.702	13643.5
523.474	13087.5
524.245	12535.5
525.017	11929.5
525.788	11568.5
526.56	11031.5
527.331	10509.5
528.102	10028.5
528.873	9577.5
529.644	9102.5
530.415	8664.5
531.186	8247.5
531.957	7822.5
532.728	7471.5
533.498	7049.5
534.269	6653.5
535.039	6286.5
535.81	5971.5
536.58	5610.5
537.351	5303.5
538.121	4995.5
538.891	4761.5
539.661	4480.5
540.431	4232.5
541.201	3996.5
541.971	3776.5
542.741	3593.5
543.51	3416.5
544.28	3232.5
545.05	3084.5
545.819	2940.5
546.588	2811.5
547.358	2652.5
548.127	2509.5
548.896	2400.5
549.665	2278.5
550.434	2146.5
551.203	2033.5
551.972	1927.5
552.741	1828.5
553.51	1728.5
554.278	1630.5
555.047	1552.5
555.815	1460.5
556.584	1370.5
557.352	1305.5
558.121	1219.5
558.889	1158.5
559.657	1097.5
560.425	1037.5
561.193	969.5
561.961	920.5
562.729	869.5
563.496	818.5
564.264	774.5
565.032	727.5
565.799	694.5
566.567	657.5
567.334	613.5
568.101	580.5
568.869	559.5
569.636	524.5
570.403	484.5
571.17	468.5
571.937	429.5
572.704	412.5
573.471	378.5
574.237	370.5
575.004	343.5
575.771	322.5
576.537	304.5
577.303	291.5
578.07	272.5
578.836	248.5
579.602	240.5
580.368	224.5
581.134	216.5
581.9	199.5
582.666	195.5
583.432	179.5
584.198	171.5
584.964	164.5
585.729	150.5
586.495	149.5
587.26	141.5
588.025	132.5
588.791	122.5
589.556	116.5
590.321	111.5
591.086	109.5
591.851	102.5
592.616	98.5
593.381	94.5
594.146	90.5
594.911	85.5
595.675	80.5
596.44	80.5
597.204	71.5
597.969	68.5
598.733	66.5
599.497	63.5
600.261	62.5
601.025	57.5
601.79	53.5
602.553	52.5
603.317	47.5
604.081	46.5
604.845	46.5
605.609	41.5
606.372	40.5
607.136	43.5
607.899	39.5
608.662	37.5
609.426	33.5
610.189	33.5
610.952	36.5
611.715	33.5
612.478	29.5
613.241	29.5
614.004	26.5
614.767	28.5
615.529	23.5
616.292	24.5
617.055	24.5
617.817	23.5
618.579	22.5
619.342	20.5
620.104	20.5
620.866	20.5
621.628	18.5
622.39	19.5
623.152	19.5
623.914	15.5
624.676	17.5
625.438	17.5
626.199	15.5
626.961	16.5
627.722	15.5
628.484	14.5
629.245	13.5
630.006	14.5
630.768	13.5
631.529	10.5
632.29	14.5
633.051	11.5
633.812	11.5
634.573	10.5
635.333	8.5
636.094	9.5
636.855	11.5
637.615	10.5
638.376	10.5
639.136	8.5
639.896	10.5
640.657	9.5
641.417	9.5
642.177	8.5
642.937	9.5
643.697	9.5
644.457	7.5
645.216	7.5
645.976	7.5
646.736	8.5
647.495	7.5
648.255	6.5
649.014	5.5
649.774	5.5
650.533	6.5
651.292	3.5
652.051	6.5
652.81	6.5
653.569	8.5
654.328	6.5
655.087	5.5
655.846	5.5
656.604	5.5
657.363	6.5
658.121	5.5
658.88	5.5
659.638	7.5
660.397	6.5
661.155	6.5
661.913	4.5
662.671	1.5
663.429	5.5
664.187	2.5
664.945	4.5
665.703	5.5
666.46	4.5
667.218	6.5
667.976	4.5
668.733	4.5
669.49	5.5
670.248	5.5
671.005	4.5
671.762	5.5
672.519	5.5
673.276	3.5
674.033	3.5
674.79	6.5
675.547	5.5
676.304	2.5
677.06	4.5
677.817	3.5
678.574	6.5
679.33	3.5
680.086	1.5
680.843	3.5
681.599	1.5
682.355	3.5
683.111	2.5
683.867	1.5
684.623	3.5
685.379	3.5
686.135	2.5
686.89	2.5
687.646	5.5
688.402	1.5
689.157	3.5
689.912	2.5
690.668	2.5
691.423	4.5
692.178	5.5
692.933	1.5
693.688	5.5
694.443	3.5
695.198	6.5
695.953	2.5
696.708	5.5
697.462	4.5
698.217	4.5
698.972	5.5
699.726	3.5
700.48	0.5
701.235	5.5
701.989	3.5
702.743	4.5
703.497	2.5
704.251	5.5
705.005	1.5
705.759	3.5
706.513	3.5
707.266	2.5
708.02	2.5
708.774	1.5
709.527	4.5
710.28	3.5
711.034	-0.5
711.787	5.5
712.54	3.5
713.293	6.5
714.046	1.5
714.799	2.5
715.552	0.5
716.305	3.5
717.058	3.5
717.81	1.5
718.563	4.5
719.315	4.5
720.068	3.5
720.82	3.5
721.573	1.5
722.325	4.5
723.077	4.5
723.829	4.5
724.581	2.5
725.333	0.5
726.085	3.5
726.836	0.5
727.588	4.5
728.34	2.5
729.091	1.5
729.843	2.5
730.594	4.5
731.346	2.5
732.097	4.5
732.848	2.5
733.599	4.5
734.35	3.5
735.101	4.5
735.852	3.5
736.603	5.5
737.354	3.5
738.104	3.5
738.855	3.5
739.605	2.5
740.356	5.5
741.106	3.5
741.856	4.5
742.607	5.5
743.357	5.5
744.107	2.5
744.857	3.5
745.607	1.5
746.357	5.5
747.106	4.5
747.856	5.5
748.606	4.5
749.355	5.5
750.105	5.5
750.854	4.5
751.603	4.5
752.353	5.5
753.102	7.5
753.851	4.5
754.6	4.5
755.349	4.5
756.098	3.5
756.847	3.5
757.595	7.5
758.344	5.5
759.093	6.5
759.841	6.5
760.589	5.5
761.338	6.5
762.086	5.5
762.834	5.5
763.582	5.5
764.331	5.5
765.079	6.5
765.826	4.5
766.574	6.5
767.322	7.5
768.07	5.5
768.817	5.5
769.565	6.5
770.312	7.5
771.06	5.5
771.807	6.5
772.554	8.5
773.302	7.5
774.049	9.5
774.796	7.5
775.543	6.5
776.29	8.5
777.036	6.5
777.783	7.5
778.53	6.5
779.276	8.5
780.023	8.5
780.769	6.5
781.516	5.5
782.262	7.5
783.008	7.5
783.754	7.5
784.5	9.5
785.246	8.5
785.992	6.5
786.738	8.5
787.484	7.5
788.23	9.5
788.975	8.5
789.721	8.5
790.466	8.5
791.212	6.5
791.957	9.5
792.702	6.5
793.447	8.5
794.193	5.5
794.938	8.5
795.683	7.5
796.427	9.5
797.172	8.5
797.917	7.5
798.662	7.5
799.406	4.5
800.151	7.5
800.895	7.5
801.64	7.5
802.384	7.5
803.128	5.5
803.872	6.5
804.616	6.5
805.36	5.5
806.104	5.5
806.848	4.5
807.592	4.5
808.336	6.5
809.079	6.5
809.823	8.5
810.566	4.5
811.31	6.5
812.053	5.5
812.796	8.5
813.539	4.5
814.283	6.5
815.026	6.5
815.769	3.5
816.511	5.5
817.254	4.5
817.997	5.5
818.74	5.5
819.482	1.5
820.225	4.5
820.967	1.5
821.71	5.5
822.452	4.5
823.194	3.5
823.936	4.5
824.678	3.5
825.42	2.5
826.162	4.5
826.904	2.5
827.646	5.5
828.388	2.5
829.129	4.5
829.871	2.5
830.612	8.5
831.354	1.5
832.095	3.5
832.836	5.5
833.577	2.5
834.319	4.5
835.06	1.5
835.801	3.5
836.542	4.5
837.282	2.5
838.023	1.5
838.764	5.5
839.504	4.5
840.245	3.5
840.985	3.5
841.726	1.5
842.466	3.5
843.206	2.5
843.946	0.5
844.687	3.5
845.427	3.5
846.166	2.5
846.906	5.5
847.646	2.5
848.386	4.5
849.125	2.5
849.865	2.5
850.605	2.5
851.344	1.5
852.083	0.5
852.823	2.5
853.562	3.5
854.301	1.5
855.04	0.5
855.779	1.5
856.518	3.5
857.257	4.5
857.995	1.5
858.734	2.5
859.473	-0.5
860.211	0.5
860.95	1.5
861.688	0.5
862.426	0.5
863.165	-0.5
863.903	2.5
864.641	1.5
865.379	2.5
866.117	1.5
866.855	1.5
867.593	1.5
868.33	2.5
869.068	1.5
869.806	1.5
870.543	1.5
871.28	1.5
872.018	0.5
872.755	1.5
873.492	2.5
874.229	2.5
874.967	0.5
875.703	-2.5
876.44	1.5
877.177	1.5
877.914	2.5
878.651	0.5
879.387	1.5
880.124	1.5
880.86	-0.5
881.597	1.5
882.333	-0.5
883.069	1.5
883.806	2.5
884.542	-0.5
885.278	0.5
886.014	-0.5
886.749	3.5
887.485	-0.5
888.221	0.5
888.957	1.5
889.692	0.5
890.428	-1.5
891.163	-0.5
891.899	0.5
892.634	-0.5
893.369	0.5
894.104	2.5
894.839	-0.5
895.574	-2.5
896.309	0.5
897.044	2.5
897.779	0.5
898.514	1.5
899.248	-0.5
899.983	-0.5
900.717	1.5
901.452	-0.5
902.186	0.5
902.92	0.5
903.654	-0.5
904.389	1.5
905.123	0.5
905.857	0.5
906.59	1.5
907.324	0.5
908.058	0.5
908.792	2.5
909.525	-1.5
910.259	0.5
910.992	1.5
911.726	1.5
912.459	1.5
913.192	0.5
913.925	-2.5
914.658	-0.5
915.391	0.5
916.124	0.5
916.857	-1.5
917.59	0.5
918.323	0.5
919.055	0.5
919.788	-1.5
920.521	2.5
921.253	-0.5
921.985	-0.5
922.718	1.5
923.45	2.5
924.182	0.5
924.914	-0.5
925.646	-1.5
926.378	-0.5
927.11	1.5
927.841	0.5
928.573	-0.5
929.305	0.5
930.036	-2.5
930.768	-1.5
931.499	1.5
932.23	2.5
932.962	-0.5
933.693	1.5
934.424	1.5
935.155	-1.5
935.886	-1.5
936.617	-1.5
937.348	-0.5
938.078	-0.5
938.809	-0.5
939.54	-0.5
940.27	0.5
941.001	0.5
941.731	-2.5
942.461	-0.5
943.191	1.5
943.922	-0.5
944.652	-1.5
945.382	0.5
946.112	-0.5
946.841	-0.5
947.571	0.5
948.301	0.5
949.031	0.5
949.76	0.5
950.49	-1.5
951.219	-0.5
951.948	-0.5
952.678	0.5
953.407	0.5
954.136	-0.5
954.865	-0.5
955.594	0.5
956.323	1.5
957.052	-0.5
957.78	-1.5
958.509	-0.5
959.238	-0.5
959.966	-0.5
960.695	0.5
961.423	-0.5
962.151	-0.5
962.88	0.5
963.608	-0.5
964.336	-0.5
965.064	0.5
965.792	0.5
966.52	-0.5
967.247	0.5
967.975	0.5
968.703	1.5
969.43	-0.5
970.158	0.5
970.885	0.5
971.613	-0.5
972.34	-2.5
973.067	-0.5
973.794	-0.5
974.521	-1.5
975.248	-3.5
975.975	0.5
976.702	0.5
977.429	0.5
978.156	0.5
978.882	0.5
979.609	0.5
980.335	-0.5
981.062	0.5
981.788	-0.5
982.514	-0.5
983.24	0.5
983.967	-0.5
984.693	-0.5
985.419	-0.5
986.144	-0.5
986.87	-1.5
987.596	1.5
988.322	-1.5
989.047	-0.5
989.773	0.5
990.498	-0.5
991.224	-0.5
991.949	-0.5
992.674	0.5
993.399	0.5
994.124	0.5
994.849	-2.5
995.574	1.5
996.299	1.5
997.024	-1.5
997.749	1.5
998.473	-0.5
999.198	-0.5
999.922	0.5
1000.647	-0.5
1001.371	4.5
1002.095	-0.5
1002.82	-1.5
1003.544	-1.5
1004.268	0.5
1004.992	1.5
1005.716	0.5
1006.439	1.5
1007.163	0.5
1007.887	1.5
1008.611	-2.5
1009.334	0.5
1010.058	-0.5
1010.781	0.5
1011.504	-0.5
1012.228	0.5
1012.951	1.5
1013.674	-0.5
1014.397	-1.5
1015.12	-0.5
