节点500_285_QEPB04081__435__15-02-47-539.txt的数据

Date: Wed Nov 12 15:02:47 CST 2025
User: PC
Spectrometer: QEPB0408
触发模式: 0
积分时间 (秒): 1.000000E-2
Scans to average: 1
启用暗噪声校正: true
启用非线性校正: false
滑动平均宽度: 0
X轴模式: Wavelengths
Number of Pixels in Spectrum: 1044
>>>>>Begin Spectral Data<<<<<
220.843	0.88
221.644	1.88
222.444	-0.12
223.244	2.88
224.045	1.88
224.845	4.88
225.645	-0.12
226.445	3.88
227.245	4.88
228.045	0.88
228.845	3.88
229.645	1.88
230.444	3.88
231.244	-0.12
232.043	2.88
232.843	0.88
233.642	2.88
234.442	2.88
235.241	4.88
236.04	3.88
236.839	5.88
237.638	5.88
238.437	5.88
239.236	5.88
240.035	5.88
240.833	4.88
241.632	3.88
242.43	4.88
243.229	3.88
244.027	5.88
244.826	4.88
245.624	5.88
246.422	5.88
247.22	5.88
248.018	5.88
248.816	3.88
249.614	6.88
250.412	7.88
251.21	6.88
252.007	5.88
252.805	6.88
253.602	6.88
254.4	6.88
255.197	8.88
255.994	5.88
256.791	7.88
257.589	7.88
258.386	9.88
259.183	6.88
259.979	6.88
260.776	11.88
261.573	9.88
262.37	9.88
263.166	9.88
263.963	9.88
264.759	11.88
265.556	9.88
266.352	12.88
267.148	12.88
267.944	11.88
268.74	12.88
269.536	12.88
270.332	13.88
271.128	13.88
271.924	14.88
272.719	13.88
273.515	14.88
274.311	13.88
275.106	15.88
275.901	17.88
276.697	14.88
277.492	17.88
278.287	16.88
279.082	18.88
279.877	18.88
280.672	16.88
281.467	17.88
282.262	19.88
283.056	19.88
283.851	18.88
284.646	19.88
285.44	20.88
286.234	16.88
287.029	18.88
287.823	17.88
288.617	16.88
289.411	16.88
290.205	15.88
290.999	19.88
291.793	17.88
292.587	17.88
293.381	15.88
294.174	16.88
294.968	13.88
295.761	14.88
296.555	17.88
297.348	17.88
298.141	16.88
298.935	13.88
299.728	12.88
300.521	12.88
301.314	12.88
302.107	12.88
302.899	15.88
303.692	15.88
304.485	11.88
305.277	10.88
306.07	11.88
306.862	10.88
307.655	14.88
308.447	11.88
309.239	13.88
310.031	8.88
310.823	9.88
311.615	12.88
312.407	9.88
313.199	8.88
313.991	9.88
314.783	9.88
315.574	6.88
316.366	6.88
317.157	8.88
317.949	6.88
318.74	7.88
319.531	6.88
320.322	7.88
321.113	7.88
321.904	5.88
322.695	6.88
323.486	5.88
324.277	5.88
325.068	7.88
325.858	6.88
326.649	8.88
327.439	5.88
328.23	6.88
329.02	6.88
329.81	6.88
330.6	6.88
331.391	5.88
332.181	5.88
332.971	5.88
333.76	6.88
334.55	5.88
335.34	6.88
336.13	4.88
336.919	7.88
337.709	9.88
338.498	6.88
339.287	3.88
340.077	8.88
340.866	5.88
341.655	8.88
342.444	6.88
343.233	4.88
344.022	6.88
344.811	6.88
345.6	8.88
346.388	1.88
347.177	6.88
347.965	2.88
348.754	5.88
349.542	6.88
350.33	5.88
351.119	5.88
351.907	3.88
352.695	5.88
353.483	5.88
354.271	3.88
355.059	5.88
355.846	3.88
356.634	6.88
357.422	4.88
358.209	6.88
358.997	5.88
359.784	5.88
360.571	6.88
361.359	5.88
362.146	5.88
362.933	6.88
363.72	3.88
364.507	5.88
365.294	3.88
366.081	7.88
366.867	2.88
367.654	7.88
368.44	3.88
369.227	5.88
370.013	5.88
370.8	4.88
371.586	5.88
372.372	2.88
373.158	5.88
373.944	4.88
374.73	3.88
375.516	5.88
376.302	2.88
377.088	5.88
377.873	3.88
378.659	3.88
379.445	4.88
380.23	3.88
381.015	4.88
381.801	4.88
382.586	4.88
383.371	5.88
384.156	4.88
384.941	5.88
385.726	3.88
386.511	5.88
387.296	5.88
388.08	4.88
388.865	6.88
389.649	8.88
390.434	6.88
391.218	3.88
392.003	7.88
392.787	6.88
393.571	5.88
394.355	5.88
395.139	5.88
395.923	6.88
396.707	2.88
397.491	5.88
398.274	7.88
399.058	6.88
399.842	7.88
400.625	5.88
401.408	6.88
402.192	7.88
402.975	7.88
403.758	4.88
404.541	7.88
405.324	7.88
406.107	8.88
406.89	7.88
407.673	8.88
408.456	7.88
409.238	8.88
410.021	8.88
410.803	7.88
411.586	5.88
412.368	9.88
413.151	8.88
413.933	7.88
414.715	10.88
415.497	8.88
416.279	10.88
417.061	8.88
417.843	8.88
418.624	11.88
419.406	9.88
420.188	10.88
420.969	11.88
421.751	11.88
422.532	11.88
423.313	8.88
424.095	11.88
424.876	11.88
425.657	9.88
426.438	13.88
427.219	11.88
428	14.88
428.78	11.88
429.561	12.88
430.342	11.88
431.122	13.88
431.903	13.88
432.683	11.88
433.464	13.88
434.244	14.88
435.024	15.88
435.804	19.88
436.584	18.88
437.364	18.88
438.144	21.88
438.924	20.88
439.704	22.88
440.483	22.88
441.263	23.88
442.042	24.88
442.822	26.88
443.601	26.88
444.38	30.88
445.16	32.88
445.939	38.88
446.718	36.88
447.497	36.88
448.276	44.88
449.054	44.88
449.833	49.88
450.612	52.88
451.391	61.88
452.169	60.88
452.948	69.88
453.726	74.88
454.504	80.88
455.282	93.88
456.061	100.88
456.839	115.88
457.617	128.88
458.395	131.88
459.172	153.88
459.95	166.88
460.728	192.88
461.506	208.88
462.283	236.88
463.061	267.88
463.838	291.88
464.615	336.88
465.393	367.88
466.17	410.88
466.947	459.88
467.724	508.88
468.501	572.88
469.278	632.88
470.055	695.88
470.831	778.88
471.608	865.88
472.385	956.88
473.161	1056.88
473.938	1180.88
474.714	1299.88
475.49	1423.88
476.266	1586.88
477.043	1762.88
477.819	1936.88
478.595	2117.88
479.371	2369.88
480.146	2604.88
480.922	2843.88
481.698	3147.88
482.473	3427.88
483.249	3771.88
484.024	4164.88
484.8	4556.88
485.575	5011.88
486.35	5498.88
487.126	6005.88
487.901	6613.88
488.676	7216.88
489.451	7880.88
490.225	8639.88
491	9400.88
491.775	10260.88
492.55	11209.88
493.324	12107.88
494.099	12986.88
494.873	14038.88
495.647	15103.88
496.422	16159.88
497.196	17399.88
497.97	18585.88
498.744	19703.88
499.518	20830.88
500.292	21988.88
501.066	23010.88
501.839	23942.88
502.613	24905.88
503.387	25677.88
504.16	26305.88
504.934	26643.88
505.707	26907.88
506.48	27090.88
507.253	27001.88
508.027	26799.88
508.8	26467.88
509.573	26196.88
510.346	25565.88
511.118	24909.88
511.891	24169.88
512.664	23328.88
513.437	22515.88
514.209	21571.88
514.982	20755.88
515.754	19799.88
516.526	18930.88
517.298	18136.88
518.071	17349.88
518.843	16691.88
519.615	16047.88
520.387	15435.88
521.159	14806.88
521.93	14202.88
522.702	13639.88
523.474	13103.88
524.245	12543.88
525.017	11978.88
525.788	11518.88
526.56	11019.88
527.331	10494.88
528.102	10053.88
528.873	9577.88
529.644	9104.88
530.415	8636.88
531.186	8233.88
531.957	7821.88
532.728	7464.88
533.498	7036.88
534.269	6665.88
535.039	6281.88
535.81	5963.88
536.58	5636.88
537.351	5275.88
538.121	4987.88
538.891	4743.88
539.661	4481.88
540.431	4239.88
541.201	3996.88
541.971	3782.88
542.741	3597.88
543.51	3408.88
544.28	3274.88
545.05	3090.88
545.819	2938.88
546.588	2793.88
547.358	2647.88
548.127	2517.88
548.896	2406.88
549.665	2257.88
550.434	2150.88
551.203	2047.88
551.972	1919.88
552.741	1845.88
553.51	1727.88
554.278	1614.88
555.047	1522.88
555.815	1446.88
556.584	1369.88
557.352	1298.88
558.121	1210.88
558.889	1158.88
559.657	1091.88
560.425	1028.88
561.193	971.88
561.961	923.88
562.729	861.88
563.496	811.88
564.264	768.88
565.032	730.88
565.799	682.88
566.567	653.88
567.334	624.88
568.101	585.88
568.869	547.88
569.636	508.88
570.403	491.88
571.17	459.88
571.937	436.88
572.704	408.88
573.471	396.88
574.237	361.88
575.004	337.88
575.771	326.88
576.537	304.88
577.303	289.88
578.07	273.88
578.836	255.88
579.602	242.88
580.368	222.88
581.134	212.88
581.9	205.88
582.666	196.88
583.432	180.88
584.198	171.88
584.964	162.88
585.729	154.88
586.495	151.88
587.26	138.88
588.025	138.88
588.791	123.88
589.556	115.88
590.321	117.88
591.086	102.88
591.851	100.88
592.616	94.88
593.381	97.88
594.146	86.88
594.911	84.88
595.675	82.88
596.44	74.88
597.204	74.88
597.969	69.88
598.733	67.88
599.497	59.88
600.261	59.88
601.025	58.88
601.79	49.88
602.553	53.88
603.317	52.88
604.081	48.88
604.845	47.88
605.609	41.88
606.372	40.88
607.136	38.88
607.899	40.88
608.662	38.88
609.426	34.88
610.189	33.88
610.952	32.88
611.715	33.88
612.478	29.88
613.241	31.88
614.004	29.88
614.767	26.88
615.529	28.88
616.292	25.88
617.055	25.88
617.817	22.88
618.579	24.88
619.342	24.88
620.104	21.88
620.866	20.88
621.628	19.88
622.39	18.88
623.152	18.88
623.914	17.88
624.676	16.88
625.438	16.88
626.199	15.88
626.961	13.88
627.722	15.88
628.484	14.88
629.245	13.88
630.006	12.88
630.768	13.88
631.529	13.88
632.29	12.88
633.051	13.88
633.812	13.88
634.573	13.88
635.333	10.88
636.094	11.88
636.855	12.88
637.615	7.88
638.376	11.88
639.136	11.88
639.896	8.88
640.657	9.88
641.417	8.88
642.177	7.88
642.937	6.88
643.697	8.88
644.457	9.88
645.216	7.88
645.976	7.88
646.736	6.88
647.495	10.88
648.255	6.88
649.014	5.88
649.774	8.88
650.533	5.88
651.292	6.88
652.051	7.88
652.81	6.88
653.569	4.88
654.328	6.88
655.087	6.88
655.846	4.88
656.604	5.88
657.363	3.88
658.121	5.88
658.88	4.88
659.638	6.88
660.397	7.88
661.155	5.88
661.913	6.88
662.671	3.88
663.429	6.88
664.187	6.88
664.945	2.88
665.703	5.88
666.46	4.88
667.218	4.88
667.976	4.88
668.733	4.88
669.49	4.88
670.248	3.88
671.005	3.88
671.762	5.88
672.519	4.88
673.276	3.88
674.033	4.88
674.79	3.88
675.547	1.88
676.304	4.88
677.06	4.88
677.817	3.88
678.574	3.88
679.33	3.88
680.086	4.88
680.843	2.88
681.599	5.88
682.355	2.88
683.111	2.88
683.867	3.88
684.623	3.88
685.379	5.88
686.135	3.88
686.89	3.88
687.646	4.88
688.402	2.88
689.157	3.88
689.912	3.88
690.668	4.88
691.423	4.88
692.178	4.88
692.933	4.88
693.688	4.88
694.443	1.88
695.198	1.88
695.953	3.88
696.708	4.88
697.462	4.88
698.217	3.88
698.972	4.88
699.726	2.88
700.48	3.88
701.235	2.88
701.989	4.88
702.743	2.88
703.497	4.88
704.251	1.88
705.005	4.88
705.759	2.88
706.513	2.88
707.266	3.88
708.02	3.88
708.774	2.88
709.527	5.88
710.28	5.88
711.034	2.88
711.787	3.88
712.54	4.88
713.293	1.88
714.046	4.88
714.799	4.88
715.552	1.88
716.305	3.88
717.058	3.88
717.81	2.88
718.563	1.88
719.315	6.88
720.068	2.88
720.82	5.88
721.573	5.88
722.325	0.88
723.077	4.88
723.829	4.88
724.581	3.88
725.333	1.88
726.085	1.88
726.836	2.88
727.588	1.88
728.34	1.88
729.091	4.88
729.843	1.88
730.594	3.88
731.346	2.88
732.097	4.88
732.848	4.88
733.599	3.88
734.35	5.88
735.101	1.88
735.852	2.88
736.603	3.88
737.354	5.88
738.104	2.88
738.855	3.88
739.605	4.88
740.356	3.88
741.106	4.88
741.856	3.88
742.607	4.88
743.357	5.88
744.107	4.88
744.857	5.88
745.607	3.88
746.357	4.88
747.106	3.88
747.856	4.88
748.606	5.88
749.355	3.88
750.105	4.88
750.854	4.88
751.603	6.88
752.353	4.88
753.102	5.88
753.851	3.88
754.6	4.88
755.349	3.88
756.098	6.88
756.847	6.88
757.595	5.88
758.344	5.88
759.093	5.88
759.841	6.88
760.589	4.88
761.338	6.88
762.086	5.88
762.834	4.88
763.582	7.88
764.331	7.88
765.079	6.88
765.826	4.88
766.574	7.88
767.322	4.88
768.07	5.88
768.817	5.88
769.565	7.88
770.312	8.88
771.06	6.88
771.807	9.88
772.554	6.88
773.302	8.88
774.049	6.88
774.796	7.88
775.543	7.88
776.29	7.88
777.036	5.88
777.783	6.88
778.53	7.88
779.276	8.88
780.023	9.88
780.769	9.88
781.516	5.88
782.262	9.88
783.008	5.88
783.754	7.88
784.5	6.88
785.246	9.88
785.992	7.88
786.738	6.88
787.484	8.88
788.23	7.88
788.975	9.88
789.721	7.88
790.466	10.88
791.212	9.88
791.957	8.88
792.702	8.88
793.447	7.88
794.193	7.88
794.938	7.88
795.683	9.88
796.427	8.88
797.172	7.88
797.917	8.88
798.662	5.88
799.406	6.88
800.151	6.88
800.895	6.88
801.64	9.88
802.384	6.88
803.128	5.88
803.872	8.88
804.616	7.88
805.36	8.88
806.104	7.88
806.848	6.88
807.592	5.88
808.336	5.88
809.079	7.88
809.823	4.88
810.566	7.88
811.31	5.88
812.053	3.88
812.796	7.88
813.539	5.88
814.283	3.88
815.026	4.88
815.769	3.88
816.511	4.88
817.254	6.88
817.997	3.88
818.74	3.88
819.482	2.88
820.225	2.88
820.967	4.88
821.71	3.88
822.452	4.88
823.194	3.88
823.936	4.88
824.678	4.88
825.42	5.88
826.162	2.88
826.904	3.88
827.646	3.88
828.388	5.88
829.129	4.88
829.871	2.88
830.612	2.88
831.354	3.88
832.095	4.88
832.836	4.88
833.577	4.88
834.319	2.88
835.06	3.88
835.801	1.88
836.542	3.88
837.282	2.88
838.023	4.88
838.764	1.88
839.504	1.88
840.245	4.88
840.985	1.88
841.726	2.88
842.466	5.88
843.206	2.88
843.946	2.88
844.687	1.88
845.427	2.88
846.166	2.88
846.906	5.88
847.646	1.88
848.386	2.88
849.125	2.88
849.865	3.88
850.605	3.88
851.344	1.88
852.083	3.88
852.823	0.88
853.562	2.88
854.301	0.88
855.04	3.88
855.779	2.88
856.518	4.88
857.257	0.88
857.995	1.88
858.734	2.88
859.473	1.88
860.211	2.88
860.95	3.88
861.688	1.88
862.426	1.88
863.165	3.88
863.903	1.88
864.641	2.88
865.379	2.88
866.117	1.88
866.855	-0.12
867.593	0.88
868.33	1.88
869.068	2.88
869.806	3.88
870.543	-0.12
871.28	0.88
872.018	0.88
872.755	3.88
873.492	-0.12
874.229	1.88
874.967	1.88
875.703	0.88
876.44	1.88
877.177	3.88
877.914	-1.12
878.651	0.88
879.387	1.88
880.124	1.88
880.86	1.88
881.597	0.88
882.333	0.88
883.069	-0.12
883.806	0.88
884.542	-0.12
885.278	-0.12
886.014	0.88
886.749	1.88
887.485	1.88
888.221	2.88
888.957	-0.12
889.692	0.88
890.428	1.88
891.163	3.88
891.899	-1.12
892.634	0.88
893.369	-0.12
894.104	2.88
894.839	0.88
895.574	0.88
896.309	-0.12
897.044	0.88
897.779	1.88
898.514	2.88
899.248	-0.12
899.983	-0.12
900.717	-1.12
901.452	-0.12
902.186	-0.12
902.92	-0.12
903.654	-0.12
904.389	0.88
905.123	-1.12
905.857	-1.12
906.59	0.88
907.324	0.88
908.058	1.88
908.792	2.88
909.525	1.88
910.259	-0.12
910.992	2.88
911.726	0.88
912.459	-1.12
913.192	1.88
913.925	1.88
914.658	1.88
915.391	0.88
916.124	-1.12
916.857	0.88
917.59	-0.12
918.323	0.88
919.055	1.88
919.788	-1.12
920.521	-1.12
921.253	1.88
921.985	2.88
922.718	1.88
923.45	0.88
924.182	-0.12
924.914	-0.12
925.646	1.88
926.378	-1.12
927.11	0.88
927.841	1.88
928.573	1.88
929.305	-0.12
930.036	-0.12
930.768	0.88
931.499	0.88
932.23	1.88
932.962	0.88
933.693	-0.12
934.424	-0.12
935.155	0.88
935.886	-2.12
936.617	-2.12
937.348	-0.12
938.078	1.88
938.809	1.88
939.54	1.88
940.27	-2.12
941.001	1.88
941.731	-2.12
942.461	-0.12
943.191	1.88
943.922	0.88
944.652	0.88
945.382	0.88
946.112	-1.12
946.841	-0.12
947.571	-1.12
948.301	-1.12
949.031	-0.12
949.76	0.88
950.49	1.88
951.219	-1.12
951.948	1.88
952.678	-0.12
953.407	1.88
954.136	-1.12
954.865	-0.12
955.594	-2.12
956.323	-0.12
957.052	1.88
957.78	-0.12
958.509	1.88
959.238	-0.12
959.966	-1.12
960.695	0.88
961.423	-0.12
962.151	-0.12
962.88	-0.12
963.608	0.88
964.336	-2.12
965.064	-2.12
965.792	0.88
966.52	-1.12
967.247	0.88
967.975	-0.12
968.703	-2.12
969.43	-0.12
970.158	-0.12
970.885	1.88
971.613	-2.12
972.34	-1.12
973.067	-0.12
973.794	-2.12
974.521	-3.12
975.248	-0.12
975.975	1.88
976.702	-0.12
977.429	-0.12
978.156	1.88
978.882	-1.12
979.609	0.88
980.335	0.88
981.062	-0.12
981.788	2.88
982.514	-1.12
983.24	1.88
983.967	-0.12
984.693	-0.12
985.419	-2.12
986.144	-0.12
986.87	1.88
987.596	-0.12
988.322	-1.12
989.047	0.88
989.773	-1.12
990.498	-2.12
991.224	0.88
991.949	-0.12
992.674	-2.12
993.399	-0.12
994.124	-1.12
994.849	-0.12
995.574	-1.12
996.299	-0.12
997.024	-2.12
997.749	0.88
998.473	0.88
999.198	-1.12
999.922	0.88
1000.647	-0.12
1001.371	2.88
1002.095	-0.12
1002.82	-1.12
1003.544	0.88
1004.268	2.88
1004.992	0.88
1005.716	0.88
1006.439	-2.12
1007.163	-0.12
1007.887	1.88
1008.611	-0.12
1009.334	-0.12
1010.058	-0.12
1010.781	-0.12
1011.504	-0.12
1012.228	1.88
1012.951	-4.12
1013.674	-0.12
1014.397	1.88
1015.12	-0.12
