节点500_285_QEPB04081__459__15-03-11-525.txt的数据

Date: Wed Nov 12 15:03:11 CST 2025
User: PC
Spectrometer: QEPB0408
触发模式: 0
积分时间 (秒): 1.000000E-2
Scans to average: 1
启用暗噪声校正: true
启用非线性校正: false
滑动平均宽度: 0
X轴模式: Wavelengths
Number of Pixels in Spectrum: 1044
>>>>>Begin Spectral Data<<<<<
220.843	3.12
221.644	4.12
222.444	2.12
223.244	4.12
224.045	0.12
224.845	1.12
225.645	3.12
226.445	5.12
227.245	2.12
228.045	5.12
228.845	1.12
229.645	2.12
230.444	2.12
231.244	4.12
232.043	3.12
232.843	2.12
233.642	3.12
234.442	4.12
235.241	2.12
236.04	4.12
236.839	3.12
237.638	5.12
238.437	5.12
239.236	2.12
240.035	3.12
240.833	7.12
241.632	5.12
242.43	4.12
243.229	6.12
244.027	6.12
244.826	6.12
245.624	6.12
246.422	4.12
247.22	6.12
248.018	8.12
248.816	5.12
249.614	6.12
250.412	4.12
251.21	6.12
252.007	6.12
252.805	4.12
253.602	5.12
254.4	7.12
255.197	9.12
255.994	9.12
256.791	7.12
257.589	9.12
258.386	10.12
259.183	11.12
259.979	10.12
260.776	11.12
261.573	9.12
262.37	10.12
263.166	8.12
263.963	12.12
264.759	13.12
265.556	14.12
266.352	13.12
267.148	14.12
267.944	12.12
268.74	13.12
269.536	12.12
270.332	15.12
271.128	16.12
271.924	15.12
272.719	14.12
273.515	16.12
274.311	16.12
275.106	19.12
275.901	17.12
276.697	15.12
277.492	17.12
278.287	18.12
279.082	20.12
279.877	19.12
280.672	21.12
281.467	17.12
282.262	22.12
283.056	18.12
283.851	19.12
284.646	22.12
285.44	20.12
286.234	21.12
287.029	21.12
287.823	18.12
288.617	18.12
289.411	22.12
290.205	19.12
290.999	18.12
291.793	15.12
292.587	16.12
293.381	18.12
294.174	16.12
294.968	21.12
295.761	14.12
296.555	15.12
297.348	15.12
298.141	17.12
298.935	19.12
299.728	17.12
300.521	15.12
301.314	13.12
302.107	15.12
302.899	13.12
303.692	14.12
304.485	13.12
305.277	9.12
306.07	14.12
306.862	12.12
307.655	11.12
308.447	11.12
309.239	13.12
310.031	14.12
310.823	12.12
311.615	12.12
312.407	9.12
313.199	9.12
313.991	11.12
314.783	10.12
315.574	9.12
316.366	9.12
317.157	8.12
317.949	8.12
318.74	7.12
319.531	10.12
320.322	8.12
321.113	8.12
321.904	6.12
322.695	7.12
323.486	11.12
324.277	8.12
325.068	7.12
325.858	5.12
326.649	7.12
327.439	5.12
328.23	6.12
329.02	7.12
329.81	7.12
330.6	5.12
331.391	7.12
332.181	5.12
332.971	4.12
333.76	4.12
334.55	7.12
335.34	3.12
336.13	6.12
336.919	7.12
337.709	7.12
338.498	6.12
339.287	5.12
340.077	8.12
340.866	5.12
341.655	8.12
342.444	6.12
343.233	7.12
344.022	7.12
344.811	8.12
345.6	9.12
346.388	7.12
347.177	9.12
347.965	6.12
348.754	4.12
349.542	8.12
350.33	7.12
351.119	7.12
351.907	4.12
352.695	6.12
353.483	8.12
354.271	6.12
355.059	8.12
355.846	5.12
356.634	5.12
357.422	6.12
358.209	5.12
358.997	7.12
359.784	6.12
360.571	7.12
361.359	5.12
362.146	5.12
362.933	5.12
363.72	7.12
364.507	5.12
365.294	5.12
366.081	5.12
366.867	3.12
367.654	5.12
368.44	6.12
369.227	4.12
370.013	7.12
370.8	7.12
371.586	3.12
372.372	6.12
373.158	5.12
373.944	6.12
374.73	2.12
375.516	5.12
376.302	5.12
377.088	5.12
377.873	6.12
378.659	6.12
379.445	5.12
380.23	6.12
381.015	7.12
381.801	7.12
382.586	6.12
383.371	4.12
384.156	5.12
384.941	5.12
385.726	7.12
386.511	6.12
387.296	6.12
388.08	8.12
388.865	7.12
389.649	6.12
390.434	6.12
391.218	4.12
392.003	7.12
392.787	8.12
393.571	6.12
394.355	8.12
395.139	6.12
395.923	8.12
396.707	7.12
397.491	8.12
398.274	7.12
399.058	7.12
399.842	9.12
400.625	8.12
401.408	8.12
402.192	6.12
402.975	7.12
403.758	6.12
404.541	7.12
405.324	9.12
406.107	10.12
406.89	9.12
407.673	5.12
408.456	8.12
409.238	8.12
410.021	8.12
410.803	11.12
411.586	10.12
412.368	12.12
413.151	9.12
413.933	6.12
414.715	10.12
415.497	9.12
416.279	9.12
417.061	9.12
417.843	10.12
418.624	8.12
419.406	8.12
420.188	10.12
420.969	9.12
421.751	12.12
422.532	12.12
423.313	11.12
424.095	13.12
424.876	12.12
425.657	14.12
426.438	13.12
427.219	14.12
428	13.12
428.78	14.12
429.561	13.12
430.342	14.12
431.122	14.12
431.903	14.12
432.683	14.12
433.464	15.12
434.244	16.12
435.024	17.12
435.804	16.12
436.584	19.12
437.364	17.12
438.144	22.12
438.924	19.12
439.704	22.12
440.483	25.12
441.263	27.12
442.042	28.12
442.822	25.12
443.601	27.12
444.38	30.12
445.16	32.12
445.939	32.12
446.718	38.12
447.497	38.12
448.276	41.12
449.054	47.12
449.833	54.12
450.612	49.12
451.391	62.12
452.169	64.12
452.948	65.12
453.726	78.12
454.504	81.12
455.282	93.12
456.061	108.12
456.839	113.12
457.617	125.12
458.395	144.12
459.172	158.12
459.95	168.12
460.728	191.12
461.506	214.12
462.283	240.12
463.061	262.12
463.838	296.12
464.615	334.12
465.393	371.12
466.17	411.12
466.947	463.12
467.724	507.12
468.501	578.12
469.278	639.12
470.055	695.12
470.831	778.12
471.608	869.12
472.385	968.12
473.161	1062.12
473.938	1187.12
474.714	1293.12
475.49	1452.12
476.266	1587.12
477.043	1758.12
477.819	1935.12
478.595	2149.12
479.371	2356.12
480.146	2590.12
480.922	2840.12
481.698	3140.12
482.473	3443.12
483.249	3765.12
484.024	4134.12
484.8	4557.12
485.575	5005.12
486.35	5498.12
487.126	5999.12
487.901	6594.12
488.676	7195.12
489.451	7879.12
490.225	8630.12
491	9389.12
491.775	10243.12
492.55	11141.12
493.324	12111.12
494.099	12974.12
494.873	14020.12
495.647	15059.12
496.422	16220.12
497.196	17333.12
497.97	18481.12
498.744	19643.12
499.518	20760.12
500.292	21880.12
501.066	22881.12
501.839	23875.12
502.613	24827.12
503.387	25658.12
504.16	26255.12
504.934	26686.12
505.707	26872.12
506.48	26959.12
507.253	26984.12
508.027	26776.12
508.8	26505.12
509.573	26110.12
510.346	25642.12
511.118	24881.12
511.891	24156.12
512.664	23378.12
513.437	22520.12
514.209	21615.12
514.982	20748.12
515.754	19865.12
516.526	19018.12
517.298	18123.12
518.071	17413.12
518.843	16680.12
519.615	16066.12
520.387	15476.12
521.159	14830.12
521.93	14237.12
522.702	13684.12
523.474	13090.12
524.245	12523.12
525.017	11961.12
525.788	11562.12
526.56	11010.12
527.331	10513.12
528.102	10040.12
528.873	9588.12
529.644	9131.12
530.415	8674.12
531.186	8269.12
531.957	7870.12
532.728	7469.12
533.498	7035.12
534.269	6644.12
535.039	6300.12
535.81	5941.12
536.58	5644.12
537.351	5328.12
538.121	5010.12
538.891	4733.12
539.661	4493.12
540.431	4224.12
541.201	3992.12
541.971	3794.12
542.741	3595.12
543.51	3431.12
544.28	3259.12
545.05	3100.12
545.819	2950.12
546.588	2785.12
547.358	2697.12
548.127	2516.12
548.896	2397.12
549.665	2273.12
550.434	2153.12
551.203	2038.12
551.972	1930.12
552.741	1825.12
553.51	1743.12
554.278	1621.12
555.047	1536.12
555.815	1463.12
556.584	1370.12
557.352	1303.12
558.121	1222.12
558.889	1152.12
559.657	1094.12
560.425	1027.12
561.193	975.12
561.961	930.12
562.729	873.12
563.496	821.12
564.264	776.12
565.032	732.12
565.799	695.12
566.567	655.12
567.334	623.12
568.101	588.12
568.869	547.12
569.636	523.12
570.403	487.12
571.17	473.12
571.937	440.12
572.704	406.12
573.471	391.12
574.237	362.12
575.004	348.12
575.771	324.12
576.537	308.12
577.303	293.12
578.07	275.12
578.836	251.12
579.602	242.12
580.368	237.12
581.134	215.12
581.9	203.12
582.666	192.12
583.432	181.12
584.198	175.12
584.964	162.12
585.729	157.12
586.495	150.12
587.26	139.12
588.025	137.12
588.791	129.12
589.556	117.12
590.321	111.12
591.086	100.12
591.851	100.12
592.616	101.12
593.381	94.12
594.146	89.12
594.911	87.12
595.675	75.12
596.44	80.12
597.204	73.12
597.969	66.12
598.733	68.12
599.497	63.12
600.261	62.12
601.025	59.12
601.79	57.12
602.553	53.12
603.317	51.12
604.081	47.12
604.845	46.12
605.609	45.12
606.372	44.12
607.136	39.12
607.899	38.12
608.662	39.12
609.426	36.12
610.189	35.12
610.952	35.12
611.715	34.12
612.478	31.12
613.241	32.12
614.004	30.12
614.767	28.12
615.529	28.12
616.292	25.12
617.055	27.12
617.817	24.12
618.579	22.12
619.342	22.12
620.104	21.12
620.866	24.12
621.628	20.12
622.39	19.12
623.152	22.12
623.914	19.12
624.676	19.12
625.438	14.12
626.199	18.12
626.961	14.12
627.722	16.12
628.484	15.12
629.245	14.12
630.006	12.12
630.768	16.12
631.529	13.12
632.29	12.12
633.051	14.12
633.812	12.12
634.573	11.12
635.333	14.12
636.094	11.12
636.855	12.12
637.615	11.12
638.376	10.12
639.136	8.12
639.896	10.12
640.657	9.12
641.417	9.12
642.177	11.12
642.937	10.12
643.697	8.12
644.457	8.12
645.216	5.12
645.976	10.12
646.736	9.12
647.495	7.12
648.255	10.12
649.014	7.12
649.774	9.12
650.533	6.12
651.292	7.12
652.051	7.12
652.81	9.12
653.569	7.12
654.328	8.12
655.087	6.12
655.846	5.12
656.604	8.12
657.363	6.12
658.121	6.12
658.88	9.12
659.638	5.12
660.397	5.12
661.155	4.12
661.913	5.12
662.671	4.12
663.429	4.12
664.187	7.12
664.945	5.12
665.703	5.12
666.46	4.12
667.218	5.12
667.976	7.12
668.733	6.12
669.49	5.12
670.248	7.12
671.005	4.12
671.762	6.12
672.519	4.12
673.276	6.12
674.033	4.12
674.79	7.12
675.547	4.12
676.304	4.12
677.06	6.12
677.817	4.12
678.574	4.12
679.33	5.12
680.086	4.12
680.843	5.12
681.599	5.12
682.355	4.12
683.111	4.12
683.867	6.12
684.623	5.12
685.379	7.12
686.135	2.12
686.89	3.12
687.646	5.12
688.402	4.12
689.157	4.12
689.912	4.12
690.668	4.12
691.423	3.12
692.178	5.12
692.933	3.12
693.688	2.12
694.443	3.12
695.198	3.12
695.953	4.12
696.708	5.12
697.462	2.12
698.217	5.12
698.972	4.12
699.726	3.12
700.48	5.12
701.235	2.12
701.989	1.12
702.743	4.12
703.497	5.12
704.251	3.12
705.005	2.12
705.759	3.12
706.513	4.12
707.266	2.12
708.02	2.12
708.774	4.12
709.527	5.12
710.28	4.12
711.034	5.12
711.787	3.12
712.54	3.12
713.293	3.12
714.046	2.12
714.799	4.12
715.552	3.12
716.305	3.12
717.058	4.12
717.81	5.12
718.563	4.12
719.315	6.12
720.068	3.12
720.82	5.12
721.573	5.12
722.325	4.12
723.077	4.12
723.829	6.12
724.581	4.12
725.333	2.12
726.085	2.12
726.836	6.12
727.588	2.12
728.34	6.12
729.091	3.12
729.843	6.12
730.594	4.12
731.346	4.12
732.097	7.12
732.848	3.12
733.599	2.12
734.35	2.12
735.101	4.12
735.852	3.12
736.603	3.12
737.354	7.12
738.104	4.12
738.855	4.12
739.605	3.12
740.356	2.12
741.106	5.12
741.856	2.12
742.607	5.12
743.357	4.12
744.107	4.12
744.857	4.12
745.607	5.12
746.357	6.12
747.106	6.12
747.856	6.12
748.606	4.12
749.355	6.12
750.105	5.12
750.854	5.12
751.603	6.12
752.353	5.12
753.102	4.12
753.851	7.12
754.6	7.12
755.349	6.12
756.098	6.12
756.847	4.12
757.595	5.12
758.344	7.12
759.093	5.12
759.841	3.12
760.589	9.12
761.338	5.12
762.086	7.12
762.834	5.12
763.582	6.12
764.331	8.12
765.079	7.12
765.826	7.12
766.574	7.12
767.322	8.12
768.07	8.12
768.817	8.12
769.565	9.12
770.312	7.12
771.06	7.12
771.807	8.12
772.554	8.12
773.302	8.12
774.049	9.12
774.796	7.12
775.543	7.12
776.29	8.12
777.036	7.12
777.783	7.12
778.53	7.12
779.276	8.12
780.023	9.12
780.769	8.12
781.516	10.12
782.262	6.12
783.008	8.12
783.754	8.12
784.5	9.12
785.246	10.12
785.992	8.12
786.738	9.12
787.484	10.12
788.23	11.12
788.975	10.12
789.721	7.12
790.466	11.12
791.212	8.12
791.957	9.12
792.702	8.12
793.447	7.12
794.193	10.12
794.938	9.12
795.683	10.12
796.427	9.12
797.172	6.12
797.917	8.12
798.662	8.12
799.406	9.12
800.151	6.12
800.895	6.12
801.64	8.12
802.384	9.12
803.128	5.12
803.872	5.12
804.616	7.12
805.36	8.12
806.104	6.12
806.848	7.12
807.592	6.12
808.336	6.12
809.079	6.12
809.823	6.12
810.566	8.12
811.31	8.12
812.053	7.12
812.796	5.12
813.539	6.12
814.283	3.12
815.026	6.12
815.769	5.12
816.511	6.12
817.254	7.12
817.997	8.12
818.74	6.12
819.482	5.12
820.225	6.12
820.967	6.12
821.71	5.12
822.452	5.12
823.194	4.12
823.936	4.12
824.678	5.12
825.42	3.12
826.162	5.12
826.904	6.12
827.646	7.12
828.388	3.12
829.129	4.12
829.871	4.12
830.612	3.12
831.354	5.12
832.095	3.12
832.836	2.12
833.577	5.12
834.319	3.12
835.06	5.12
835.801	4.12
836.542	6.12
837.282	2.12
838.023	5.12
838.764	3.12
839.504	2.12
840.245	6.12
840.985	4.12
841.726	5.12
842.466	4.12
843.206	3.12
843.946	4.12
844.687	2.12
845.427	3.12
846.166	3.12
846.906	3.12
847.646	5.12
848.386	4.12
849.125	4.12
849.865	2.12
850.605	5.12
851.344	2.12
852.083	2.12
852.823	2.12
853.562	1.12
854.301	3.12
855.04	3.12
855.779	2.12
856.518	3.12
857.257	3.12
857.995	2.12
858.734	2.12
859.473	3.12
860.211	2.12
860.95	4.12
861.688	3.12
862.426	4.12
863.165	3.12
863.903	-1.88
864.641	3.12
865.379	1.12
866.117	1.12
866.855	2.12
867.593	2.12
868.33	3.12
869.068	1.12
869.806	2.12
870.543	2.12
871.28	3.12
872.018	2.12
872.755	3.12
873.492	2.12
874.229	2.12
874.967	2.12
875.703	3.12
876.44	1.12
877.177	2.12
877.914	-0.88
878.651	0.12
879.387	2.12
880.124	3.12
880.86	3.12
881.597	0.12
882.333	1.12
883.069	-0.88
883.806	2.12
884.542	3.12
885.278	0.12
886.014	0.12
886.749	1.12
887.485	1.12
888.221	0.12
888.957	-0.88
889.692	3.12
890.428	2.12
891.163	1.12
891.899	-1.88
892.634	0.12
893.369	1.12
894.104	0.12
894.839	2.12
895.574	1.12
896.309	2.12
897.044	0.12
897.779	1.12
898.514	2.12
899.248	2.12
899.983	1.12
900.717	1.12
901.452	0.12
902.186	1.12
902.92	0.12
903.654	-0.88
904.389	-0.88
905.123	1.12
905.857	0.12
906.59	0.12
907.324	2.12
908.058	3.12
908.792	0.12
909.525	1.12
910.259	2.12
910.992	0.12
911.726	1.12
912.459	0.12
913.192	1.12
913.925	1.12
914.658	-1.88
915.391	4.12
916.124	0.12
916.857	1.12
917.59	-0.88
918.323	0.12
919.055	2.12
919.788	2.12
920.521	1.12
921.253	2.12
921.985	4.12
922.718	0.12
923.45	1.12
924.182	-0.88
924.914	1.12
925.646	-0.88
926.378	0.12
927.11	0.12
927.841	0.12
928.573	1.12
929.305	0.12
930.036	1.12
930.768	1.12
931.499	3.12
932.23	0.12
932.962	1.12
933.693	0.12
934.424	1.12
935.155	1.12
935.886	0.12
936.617	-1.88
937.348	1.12
938.078	1.12
938.809	-1.88
939.54	2.12
940.27	-0.88
941.001	-1.88
941.731	1.12
942.461	0.12
943.191	1.12
943.922	3.12
944.652	2.12
945.382	1.12
946.112	2.12
946.841	0.12
947.571	0.12
948.301	1.12
949.031	3.12
949.76	1.12
950.49	-0.88
951.219	2.12
951.948	-1.88
952.678	2.12
953.407	1.12
954.136	-0.88
954.865	0.12
955.594	1.12
956.323	-0.88
957.052	2.12
957.78	2.12
958.509	0.12
959.238	3.12
959.966	-0.88
960.695	0.12
961.423	2.12
962.151	-1.88
962.88	2.12
963.608	0.12
964.336	1.12
965.064	0.12
965.792	3.12
966.52	1.12
967.247	0.12
967.975	2.12
968.703	-0.88
969.43	2.12
970.158	0.12
970.885	0.12
971.613	-0.88
972.34	1.12
973.067	0.12
973.794	1.12
974.521	1.12
975.248	0.12
975.975	1.12
976.702	1.12
977.429	0.12
978.156	0.12
978.882	0.12
979.609	3.12
980.335	-1.88
981.062	-0.88
981.788	1.12
982.514	1.12
983.24	-0.88
983.967	0.12
984.693	2.12
985.419	2.12
986.144	1.12
986.87	0.12
987.596	0.12
988.322	-0.88
989.047	1.12
989.773	0.12
990.498	2.12
991.224	1.12
991.949	1.12
992.674	-1.88
993.399	0.12
994.124	1.12
994.849	0.12
995.574	1.12
996.299	0.12
997.024	1.12
997.749	0.12
998.473	0.12
999.198	0.12
999.922	1.12
1000.647	1.12
1001.371	4.12
1002.095	0.12
1002.82	-2.88
1003.544	-1.88
1004.268	0.12
1004.992	2.12
1005.716	0.12
1006.439	2.12
1007.163	1.12
1007.887	2.12
1008.611	0.12
1009.334	1.12
1010.058	-0.88
1010.781	0.12
1011.504	1.12
1012.228	0.12
1012.951	1.12
1013.674	-0.88
1014.397	-0.88
1015.12	1.12
