节点500_285_QEPB04081__308__15-00-40-750.txt的数据

Date: Wed Nov 12 15:00:40 CST 2025
User: PC
Spectrometer: QEPB0408
触发模式: 0
积分时间 (秒): 1.000000E-2
Scans to average: 1
启用暗噪声校正: true
启用非线性校正: false
滑动平均宽度: 0
X轴模式: Wavelengths
Number of Pixels in Spectrum: 1044
>>>>>Begin Spectral Data<<<<<
220.843	2.75
221.644	2.75
222.444	-0.25
223.244	3.75
224.045	2.75
224.845	3.75
225.645	1.75
226.445	1.75
227.245	0.75
228.045	2.75
228.845	4.75
229.645	1.75
230.444	4.75
231.244	1.75
232.043	4.75
232.843	3.75
233.642	2.75
234.442	2.75
235.241	2.75
236.04	2.75
236.839	4.75
237.638	3.75
238.437	4.75
239.236	4.75
240.035	4.75
240.833	5.75
241.632	4.75
242.43	5.75
243.229	2.75
244.027	5.75
244.826	7.75
245.624	4.75
246.422	3.75
247.22	4.75
248.018	5.75
248.816	3.75
249.614	5.75
250.412	5.75
251.21	8.75
252.007	7.75
252.805	6.75
253.602	8.75
254.4	6.75
255.197	6.75
255.994	8.75
256.791	9.75
257.589	7.75
258.386	7.75
259.183	8.75
259.979	9.75
260.776	9.75
261.573	10.75
262.37	10.75
263.166	11.75
263.963	10.75
264.759	10.75
265.556	11.75
266.352	11.75
267.148	11.75
267.944	11.75
268.74	16.75
269.536	13.75
270.332	13.75
271.128	15.75
271.924	13.75
272.719	16.75
273.515	15.75
274.311	17.75
275.106	18.75
275.901	16.75
276.697	16.75
277.492	16.75
278.287	19.75
279.082	16.75
279.877	18.75
280.672	17.75
281.467	21.75
282.262	17.75
283.056	16.75
283.851	21.75
284.646	20.75
285.44	20.75
286.234	20.75
287.029	17.75
287.823	19.75
288.617	19.75
289.411	17.75
290.205	18.75
290.999	17.75
291.793	18.75
292.587	19.75
293.381	17.75
294.174	19.75
294.968	16.75
295.761	17.75
296.555	15.75
297.348	16.75
298.141	17.75
298.935	15.75
299.728	15.75
300.521	12.75
301.314	13.75
302.107	11.75
302.899	13.75
303.692	11.75
304.485	11.75
305.277	12.75
306.07	11.75
306.862	9.75
307.655	10.75
308.447	11.75
309.239	11.75
310.031	12.75
310.823	11.75
311.615	10.75
312.407	12.75
313.199	8.75
313.991	9.75
314.783	9.75
315.574	9.75
316.366	8.75
317.157	8.75
317.949	6.75
318.74	5.75
319.531	6.75
320.322	8.75
321.113	6.75
321.904	8.75
322.695	8.75
323.486	8.75
324.277	4.75
325.068	7.75
325.858	8.75
326.649	5.75
327.439	7.75
328.23	7.75
329.02	8.75
329.81	7.75
330.6	5.75
331.391	5.75
332.181	6.75
332.971	6.75
333.76	6.75
334.55	6.75
335.34	5.75
336.13	7.75
336.919	6.75
337.709	6.75
338.498	5.75
339.287	7.75
340.077	6.75
340.866	6.75
341.655	8.75
342.444	6.75
343.233	6.75
344.022	5.75
344.811	7.75
345.6	6.75
346.388	5.75
347.177	4.75
347.965	7.75
348.754	4.75
349.542	6.75
350.33	6.75
351.119	5.75
351.907	4.75
352.695	5.75
353.483	7.75
354.271	5.75
355.059	3.75
355.846	6.75
356.634	5.75
357.422	6.75
358.209	4.75
358.997	4.75
359.784	4.75
360.571	4.75
361.359	6.75
362.146	5.75
362.933	6.75
363.72	7.75
364.507	3.75
365.294	4.75
366.081	3.75
366.867	6.75
367.654	4.75
368.44	6.75
369.227	6.75
370.013	5.75
370.8	3.75
371.586	4.75
372.372	3.75
373.158	4.75
373.944	6.75
374.73	4.75
375.516	4.75
376.302	5.75
377.088	5.75
377.873	6.75
378.659	5.75
379.445	4.75
380.23	7.75
381.015	5.75
381.801	5.75
382.586	4.75
383.371	6.75
384.156	6.75
384.941	7.75
385.726	8.75
386.511	3.75
387.296	5.75
388.08	4.75
388.865	4.75
389.649	7.75
390.434	6.75
391.218	5.75
392.003	3.75
392.787	4.75
393.571	5.75
394.355	7.75
395.139	4.75
395.923	6.75
396.707	7.75
397.491	8.75
398.274	5.75
399.058	5.75
399.842	4.75
400.625	7.75
401.408	5.75
402.192	7.75
402.975	7.75
403.758	7.75
404.541	6.75
405.324	7.75
406.107	7.75
406.89	6.75
407.673	8.75
408.456	8.75
409.238	8.75
410.021	8.75
410.803	6.75
411.586	8.75
412.368	8.75
413.151	9.75
413.933	8.75
414.715	8.75
415.497	7.75
416.279	6.75
417.061	11.75
417.843	8.75
418.624	10.75
419.406	13.75
420.188	10.75
420.969	13.75
421.751	11.75
422.532	12.75
423.313	9.75
424.095	9.75
424.876	10.75
425.657	13.75
426.438	12.75
427.219	11.75
428	13.75
428.78	11.75
429.561	14.75
430.342	15.75
431.122	12.75
431.903	13.75
432.683	12.75
433.464	16.75
434.244	15.75
435.024	14.75
435.804	16.75
436.584	19.75
437.364	17.75
438.144	20.75
438.924	20.75
439.704	24.75
440.483	21.75
441.263	23.75
442.042	25.75
442.822	26.75
443.601	30.75
444.38	28.75
445.16	30.75
445.939	33.75
446.718	33.75
447.497	39.75
448.276	40.75
449.054	45.75
449.833	45.75
450.612	53.75
451.391	58.75
452.169	59.75
452.948	66.75
453.726	73.75
454.504	76.75
455.282	90.75
456.061	96.75
456.839	107.75
457.617	116.75
458.395	130.75
459.172	147.75
459.95	158.75
460.728	182.75
461.506	208.75
462.283	233.75
463.061	260.75
463.838	284.75
464.615	318.75
465.393	355.75
466.17	396.75
466.947	442.75
467.724	501.75
468.501	556.75
469.278	612.75
470.055	685.75
470.831	761.75
471.608	848.75
472.385	932.75
473.161	1048.75
473.938	1165.75
474.714	1297.75
475.49	1430.75
476.266	1562.75
477.043	1731.75
477.819	1919.75
478.595	2141.75
479.371	2352.75
480.146	2581.75
480.922	2867.75
481.698	3150.75
482.473	3482.75
483.249	3821.75
484.024	4229.75
484.8	4642.75
485.575	5071.75
486.35	5628.75
487.126	6175.75
487.901	6775.75
488.676	7421.75
489.451	8121.75
490.225	8869.75
491	9736.75
491.775	10573.75
492.55	11554.75
493.324	12571.75
494.099	13541.75
494.873	14552.75
495.647	15695.75
496.422	16868.75
497.196	18108.75
497.97	19315.75
498.744	20519.75
499.518	21658.75
500.292	22875.75
501.066	23908.75
501.839	24883.75
502.613	25702.75
503.387	26556.75
504.16	27163.75
504.934	27481.75
505.707	27645.75
506.48	27684.75
507.253	27553.75
508.027	27260.75
508.8	26973.75
509.573	26497.75
510.346	25842.75
511.118	25076.75
511.891	24248.75
512.664	23374.75
513.437	22469.75
514.209	21560.75
514.982	20672.75
515.754	19704.75
516.526	18848.75
517.298	18013.75
518.071	17189.75
518.843	16536.75
519.615	15981.75
520.387	15334.75
521.159	14735.75
521.93	14076.75
522.702	13553.75
523.474	12961.75
524.245	12452.75
525.017	11869.75
525.788	11479.75
526.56	10956.75
527.331	10373.75
528.102	9955.75
528.873	9452.75
529.644	9020.75
530.415	8558.75
531.186	8134.75
531.957	7686.75
532.728	7305.75
533.498	6945.75
534.269	6540.75
535.039	6206.75
535.81	5839.75
536.58	5538.75
537.351	5178.75
538.121	4870.75
538.891	4654.75
539.661	4387.75
540.431	4155.75
541.201	3901.75
541.971	3705.75
542.741	3521.75
543.51	3336.75
544.28	3190.75
545.05	3024.75
545.819	2869.75
546.588	2733.75
547.358	2589.75
548.127	2482.75
548.896	2330.75
549.665	2233.75
550.434	2094.75
551.203	1995.75
551.972	1880.75
552.741	1790.75
553.51	1675.75
554.278	1583.75
555.047	1497.75
555.815	1399.75
556.584	1319.75
557.352	1263.75
558.121	1195.75
558.889	1114.75
559.657	1066.75
560.425	1003.75
561.193	941.75
561.961	892.75
562.729	841.75
563.496	797.75
564.264	749.75
565.032	708.75
565.799	681.75
566.567	642.75
567.334	591.75
568.101	570.75
568.869	536.75
569.636	505.75
570.403	478.75
571.17	448.75
571.937	424.75
572.704	404.75
573.471	377.75
574.237	355.75
575.004	338.75
575.771	315.75
576.537	292.75
577.303	277.75
578.07	264.75
578.836	243.75
579.602	231.75
580.368	219.75
581.134	200.75
581.9	201.75
582.666	190.75
583.432	177.75
584.198	167.75
584.964	158.75
585.729	153.75
586.495	146.75
587.26	133.75
588.025	127.75
588.791	121.75
589.556	120.75
590.321	112.75
591.086	102.75
591.851	93.75
592.616	94.75
593.381	89.75
594.146	85.75
594.911	82.75
595.675	74.75
596.44	74.75
597.204	76.75
597.969	64.75
598.733	64.75
599.497	61.75
600.261	57.75
601.025	54.75
601.79	54.75
602.553	50.75
603.317	46.75
604.081	45.75
604.845	46.75
605.609	41.75
606.372	41.75
607.136	41.75
607.899	37.75
608.662	38.75
609.426	36.75
610.189	35.75
610.952	29.75
611.715	30.75
612.478	32.75
613.241	28.75
614.004	26.75
614.767	27.75
615.529	26.75
616.292	26.75
617.055	24.75
617.817	21.75
618.579	20.75
619.342	19.75
620.104	19.75
620.866	17.75
621.628	22.75
622.39	18.75
623.152	18.75
623.914	19.75
624.676	16.75
625.438	17.75
626.199	18.75
626.961	15.75
627.722	15.75
628.484	13.75
629.245	11.75
630.006	11.75
630.768	12.75
631.529	10.75
632.29	14.75
633.051	11.75
633.812	10.75
634.573	9.75
635.333	10.75
636.094	15.75
636.855	11.75
637.615	11.75
638.376	10.75
639.136	9.75
639.896	9.75
640.657	8.75
641.417	10.75
642.177	7.75
642.937	10.75
643.697	10.75
644.457	6.75
645.216	6.75
645.976	8.75
646.736	8.75
647.495	6.75
648.255	7.75
649.014	5.75
649.774	4.75
650.533	6.75
651.292	7.75
652.051	6.75
652.81	5.75
653.569	6.75
654.328	6.75
655.087	6.75
655.846	5.75
656.604	6.75
657.363	7.75
658.121	4.75
658.88	3.75
659.638	5.75
660.397	5.75
661.155	4.75
661.913	7.75
662.671	5.75
663.429	6.75
664.187	6.75
664.945	4.75
665.703	4.75
666.46	5.75
667.218	5.75
667.976	5.75
668.733	5.75
669.49	5.75
670.248	6.75
671.005	5.75
671.762	4.75
672.519	5.75
673.276	1.75
674.033	5.75
674.79	3.75
675.547	4.75
676.304	5.75
677.06	2.75
677.817	6.75
678.574	3.75
679.33	5.75
680.086	2.75
680.843	6.75
681.599	3.75
682.355	2.75
683.111	5.75
683.867	4.75
684.623	5.75
685.379	2.75
686.135	3.75
686.89	3.75
687.646	3.75
688.402	4.75
689.157	3.75
689.912	3.75
690.668	3.75
691.423	5.75
692.178	4.75
692.933	3.75
693.688	1.75
694.443	2.75
695.198	3.75
695.953	4.75
696.708	3.75
697.462	3.75
698.217	5.75
698.972	5.75
699.726	4.75
700.48	4.75
701.235	3.75
701.989	2.75
702.743	6.75
703.497	3.75
704.251	6.75
705.005	4.75
705.759	4.75
706.513	3.75
707.266	2.75
708.02	5.75
708.774	2.75
709.527	2.75
710.28	3.75
711.034	4.75
711.787	2.75
712.54	5.75
713.293	2.75
714.046	3.75
714.799	4.75
715.552	4.75
716.305	2.75
717.058	4.75
717.81	2.75
718.563	2.75
719.315	1.75
720.068	3.75
720.82	3.75
721.573	4.75
722.325	1.75
723.077	1.75
723.829	2.75
724.581	1.75
725.333	5.75
726.085	3.75
726.836	2.75
727.588	3.75
728.34	3.75
729.091	5.75
729.843	3.75
730.594	3.75
731.346	2.75
732.097	6.75
732.848	5.75
733.599	3.75
734.35	4.75
735.101	4.75
735.852	3.75
736.603	4.75
737.354	6.75
738.104	4.75
738.855	5.75
739.605	4.75
740.356	4.75
741.106	3.75
741.856	5.75
742.607	6.75
743.357	4.75
744.107	3.75
744.857	1.75
745.607	5.75
746.357	4.75
747.106	6.75
747.856	5.75
748.606	5.75
749.355	4.75
750.105	2.75
750.854	6.75
751.603	5.75
752.353	6.75
753.102	4.75
753.851	6.75
754.6	5.75
755.349	4.75
756.098	6.75
756.847	7.75
757.595	4.75
758.344	3.75
759.093	3.75
759.841	6.75
760.589	8.75
761.338	6.75
762.086	5.75
762.834	5.75
763.582	7.75
764.331	6.75
765.079	6.75
765.826	7.75
766.574	5.75
767.322	7.75
768.07	7.75
768.817	7.75
769.565	7.75
770.312	5.75
771.06	7.75
771.807	6.75
772.554	5.75
773.302	6.75
774.049	7.75
774.796	8.75
775.543	6.75
776.29	12.75
777.036	8.75
777.783	7.75
778.53	7.75
779.276	9.75
780.023	9.75
780.769	9.75
781.516	8.75
782.262	9.75
783.008	11.75
783.754	7.75
784.5	8.75
785.246	8.75
785.992	10.75
786.738	10.75
787.484	7.75
788.23	7.75
788.975	7.75
789.721	9.75
790.466	10.75
791.212	8.75
791.957	7.75
792.702	9.75
793.447	8.75
794.193	8.75
794.938	6.75
795.683	7.75
796.427	8.75
797.172	5.75
797.917	8.75
798.662	4.75
799.406	11.75
800.151	7.75
800.895	6.75
801.64	9.75
802.384	8.75
803.128	8.75
803.872	8.75
804.616	8.75
805.36	7.75
806.104	7.75
806.848	3.75
807.592	5.75
808.336	6.75
809.079	6.75
809.823	8.75
810.566	4.75
811.31	5.75
812.053	6.75
812.796	3.75
813.539	5.75
814.283	6.75
815.026	5.75
815.769	5.75
816.511	1.75
817.254	3.75
817.997	3.75
818.74	3.75
819.482	4.75
820.225	5.75
820.967	5.75
821.71	4.75
822.452	4.75
823.194	2.75
823.936	4.75
824.678	3.75
825.42	5.75
826.162	5.75
826.904	4.75
827.646	5.75
828.388	2.75
829.129	4.75
829.871	3.75
830.612	3.75
831.354	3.75
832.095	2.75
832.836	5.75
833.577	4.75
834.319	5.75
835.06	3.75
835.801	4.75
836.542	1.75
837.282	4.75
838.023	3.75
838.764	2.75
839.504	4.75
840.245	3.75
840.985	2.75
841.726	3.75
842.466	2.75
843.206	4.75
843.946	1.75
844.687	3.75
845.427	1.75
846.166	-0.25
846.906	1.75
847.646	3.75
848.386	2.75
849.125	2.75
849.865	2.75
850.605	2.75
851.344	1.75
852.083	4.75
852.823	2.75
853.562	4.75
854.301	3.75
855.04	1.75
855.779	1.75
856.518	0.75
857.257	2.75
857.995	1.75
858.734	1.75
859.473	1.75
860.211	2.75
860.95	3.75
861.688	1.75
862.426	0.75
863.165	-0.25
863.903	2.75
864.641	3.75
865.379	0.75
866.117	2.75
866.855	3.75
867.593	2.75
868.33	1.75
869.068	0.75
869.806	3.75
870.543	1.75
871.28	1.75
872.018	0.75
872.755	1.75
873.492	1.75
874.229	-0.25
874.967	2.75
875.703	2.75
876.44	2.75
877.177	1.75
877.914	1.75
878.651	3.75
879.387	-0.25
880.124	1.75
880.86	1.75
881.597	0.75
882.333	1.75
883.069	-1.25
883.806	2.75
884.542	-0.25
885.278	0.75
886.014	3.75
886.749	0.75
887.485	3.75
888.221	-0.25
888.957	0.75
889.692	0.75
890.428	1.75
891.163	2.75
891.899	1.75
892.634	0.75
893.369	-0.25
894.104	1.75
894.839	2.75
895.574	0.75
896.309	0.75
897.044	2.75
897.779	0.75
898.514	1.75
899.248	0.75
899.983	2.75
900.717	0.75
901.452	0.75
902.186	-0.25
902.92	-0.25
903.654	-0.25
904.389	0.75
905.123	0.75
905.857	1.75
906.59	0.75
907.324	0.75
908.058	1.75
908.792	1.75
909.525	0.75
910.259	2.75
910.992	-2.25
911.726	0.75
912.459	-0.25
913.192	0.75
913.925	-0.25
914.658	-0.25
915.391	2.75
916.124	1.75
916.857	1.75
917.59	-1.25
918.323	-0.25
919.055	1.75
919.788	-2.25
920.521	0.75
921.253	0.75
921.985	-0.25
922.718	1.75
923.45	0.75
924.182	2.75
924.914	-0.25
925.646	0.75
926.378	-0.25
927.11	1.75
927.841	0.75
928.573	-0.25
929.305	1.75
930.036	0.75
930.768	-1.25
931.499	0.75
932.23	1.75
932.962	0.75
933.693	-1.25
934.424	-1.25
935.155	1.75
935.886	-0.25
936.617	0.75
937.348	-0.25
938.078	1.75
938.809	0.75
939.54	1.75
940.27	0.75
941.001	-2.25
941.731	-0.25
942.461	-1.25
943.191	-2.25
943.922	1.75
944.652	-1.25
945.382	-2.25
946.112	-0.25
946.841	0.75
947.571	-1.25
948.301	1.75
949.031	-0.25
949.76	-0.25
950.49	-0.25
951.219	0.75
951.948	0.75
952.678	0.75
953.407	0.75
954.136	0.75
954.865	-0.25
955.594	1.75
956.323	-0.25
957.052	2.75
957.78	-1.25
958.509	1.75
959.238	1.75
959.966	-1.25
960.695	-0.25
961.423	-0.25
962.151	1.75
962.88	-0.25
963.608	-0.25
964.336	-0.25
965.064	-1.25
965.792	0.75
966.52	-1.25
967.247	-0.25
967.975	-0.25
968.703	-0.25
969.43	0.75
970.158	0.75
970.885	-0.25
971.613	-1.25
972.34	1.75
973.067	-0.25
973.794	-2.25
974.521	-0.25
975.248	-0.25
975.975	1.75
976.702	1.75
977.429	-1.25
978.156	-0.25
978.882	-1.25
979.609	0.75
980.335	0.75
981.062	0.75
981.788	-2.25
982.514	-0.25
983.24	0.75
983.967	-0.25
984.693	-1.25
985.419	2.75
986.144	-0.25
986.87	-0.25
987.596	1.75
988.322	-1.25
989.047	-1.25
989.773	0.75
990.498	0.75
991.224	0.75
991.949	0.75
992.674	0.75
993.399	-0.25
994.124	-0.25
994.849	1.75
995.574	-0.25
996.299	-0.25
997.024	1.75
997.749	0.75
998.473	0.75
999.198	-1.25
999.922	0.75
1000.647	-0.25
1001.371	3.75
1002.095	-0.25
1002.82	-0.25
1003.544	-0.25
1004.268	1.75
1004.992	1.75
1005.716	0.75
1006.439	0.75
1007.163	2.75
1007.887	3.75
1008.611	-2.25
1009.334	0.75
1010.058	-0.25
1010.781	0.75
1011.504	0.75
1012.228	-0.25
1012.951	-0.25
1013.674	-1.25
1014.397	0.75
1015.12	-2.25
