节点500_285_QEPB04081__96__14-57-09-290.txt的数据

Date: Wed Nov 12 14:57:09 CST 2025
User: PC
Spectrometer: QEPB0408
触发模式: 0
积分时间 (秒): 1.000000E-2
Scans to average: 1
启用暗噪声校正: true
启用非线性校正: false
滑动平均宽度: 0
X轴模式: Wavelengths
Number of Pixels in Spectrum: 1044
>>>>>Begin Spectral Data<<<<<
220.843	0.62
221.644	-0.38
222.444	-0.38
223.244	0.62
224.045	1.62
224.845	-1.38
225.645	1.62
226.445	1.62
227.245	1.62
228.045	1.62
228.845	1.62
229.645	-0.38
230.444	3.62
231.244	1.62
232.043	1.62
232.843	4.62
233.642	2.62
234.442	4.62
235.241	2.62
236.04	0.62
236.839	5.62
237.638	3.62
238.437	3.62
239.236	0.62
240.035	1.62
240.833	4.62
241.632	1.62
242.43	5.62
243.229	6.62
244.027	2.62
244.826	3.62
245.624	5.62
246.422	6.62
247.22	3.62
248.018	4.62
248.816	6.62
249.614	6.62
250.412	5.62
251.21	3.62
252.007	5.62
252.805	6.62
253.602	6.62
254.4	5.62
255.197	7.62
255.994	8.62
256.791	7.62
257.589	7.62
258.386	7.62
259.183	9.62
259.979	12.62
260.776	9.62
261.573	9.62
262.37	12.62
263.166	10.62
263.963	11.62
264.759	14.62
265.556	12.62
266.352	14.62
267.148	14.62
267.944	14.62
268.74	14.62
269.536	13.62
270.332	14.62
271.128	15.62
271.924	14.62
272.719	16.62
273.515	17.62
274.311	17.62
275.106	16.62
275.901	19.62
276.697	17.62
277.492	18.62
278.287	16.62
279.082	16.62
279.877	17.62
280.672	18.62
281.467	18.62
282.262	20.62
283.056	21.62
283.851	20.62
284.646	21.62
285.44	19.62
286.234	20.62
287.029	18.62
287.823	20.62
288.617	15.62
289.411	17.62
290.205	18.62
290.999	18.62
291.793	19.62
292.587	16.62
293.381	17.62
294.174	14.62
294.968	16.62
295.761	12.62
296.555	15.62
297.348	15.62
298.141	12.62
298.935	16.62
299.728	15.62
300.521	12.62
301.314	12.62
302.107	10.62
302.899	12.62
303.692	12.62
304.485	12.62
305.277	12.62
306.07	10.62
306.862	11.62
307.655	14.62
308.447	10.62
309.239	9.62
310.031	13.62
310.823	10.62
311.615	10.62
312.407	9.62
313.199	8.62
313.991	7.62
314.783	10.62
315.574	5.62
316.366	8.62
317.157	10.62
317.949	7.62
318.74	9.62
319.531	8.62
320.322	6.62
321.113	7.62
321.904	5.62
322.695	7.62
323.486	5.62
324.277	10.62
325.068	4.62
325.858	6.62
326.649	8.62
327.439	4.62
328.23	5.62
329.02	7.62
329.81	5.62
330.6	7.62
331.391	7.62
332.181	6.62
332.971	5.62
333.76	7.62
334.55	4.62
335.34	6.62
336.13	7.62
336.919	6.62
337.709	6.62
338.498	6.62
339.287	4.62
340.077	7.62
340.866	6.62
341.655	4.62
342.444	5.62
343.233	6.62
344.022	5.62
344.811	6.62
345.6	4.62
346.388	3.62
347.177	6.62
347.965	5.62
348.754	3.62
349.542	6.62
350.33	5.62
351.119	6.62
351.907	4.62
352.695	6.62
353.483	4.62
354.271	3.62
355.059	3.62
355.846	5.62
356.634	4.62
357.422	3.62
358.209	5.62
358.997	4.62
359.784	5.62
360.571	7.62
361.359	3.62
362.146	3.62
362.933	5.62
363.72	5.62
364.507	7.62
365.294	3.62
366.081	6.62
366.867	2.62
367.654	3.62
368.44	4.62
369.227	3.62
370.013	3.62
370.8	6.62
371.586	4.62
372.372	4.62
373.158	4.62
373.944	6.62
374.73	2.62
375.516	6.62
376.302	4.62
377.088	4.62
377.873	5.62
378.659	3.62
379.445	6.62
380.23	6.62
381.015	5.62
381.801	3.62
382.586	1.62
383.371	3.62
384.156	6.62
384.941	4.62
385.726	3.62
386.511	5.62
387.296	6.62
388.08	5.62
388.865	5.62
389.649	5.62
390.434	5.62
391.218	5.62
392.003	6.62
392.787	7.62
393.571	5.62
394.355	4.62
395.139	4.62
395.923	3.62
396.707	8.62
397.491	5.62
398.274	6.62
399.058	7.62
399.842	9.62
400.625	6.62
401.408	8.62
402.192	7.62
402.975	7.62
403.758	7.62
404.541	6.62
405.324	5.62
406.107	6.62
406.89	6.62
407.673	6.62
408.456	6.62
409.238	6.62
410.021	6.62
410.803	7.62
411.586	8.62
412.368	6.62
413.151	9.62
413.933	8.62
414.715	8.62
415.497	8.62
416.279	8.62
417.061	9.62
417.843	6.62
418.624	7.62
419.406	9.62
420.188	10.62
420.969	12.62
421.751	10.62
422.532	10.62
423.313	11.62
424.095	11.62
424.876	10.62
425.657	9.62
426.438	10.62
427.219	11.62
428	11.62
428.78	12.62
429.561	13.62
430.342	12.62
431.122	12.62
431.903	14.62
432.683	12.62
433.464	15.62
434.244	16.62
435.024	15.62
435.804	18.62
436.584	18.62
437.364	17.62
438.144	17.62
438.924	19.62
439.704	20.62
440.483	21.62
441.263	22.62
442.042	23.62
442.822	27.62
443.601	24.62
444.38	25.62
445.16	27.62
445.939	30.62
446.718	34.62
447.497	37.62
448.276	42.62
449.054	39.62
449.833	45.62
450.612	48.62
451.391	52.62
452.169	56.62
452.948	68.62
453.726	67.62
454.504	77.62
455.282	85.62
456.061	89.62
456.839	102.62
457.617	112.62
458.395	130.62
459.172	140.62
459.95	158.62
460.728	171.62
461.506	193.62
462.283	216.62
463.061	248.62
463.838	279.62
464.615	305.62
465.393	340.62
466.17	383.62
466.947	423.62
467.724	464.62
468.501	529.62
469.278	577.62
470.055	652.62
470.831	729.62
471.608	827.62
472.385	905.62
473.161	1024.62
473.938	1130.62
474.714	1258.62
475.49	1381.62
476.266	1555.62
477.043	1719.62
477.819	1908.62
478.595	2120.62
479.371	2343.62
480.146	2597.62
480.922	2866.62
481.698	3176.62
482.473	3523.62
483.249	3909.62
484.024	4298.62
484.8	4752.62
485.575	5242.62
486.35	5799.62
487.126	6364.62
487.901	7036.62
488.676	7750.62
489.451	8536.62
490.225	9354.62
491	10213.62
491.775	11265.62
492.55	12233.62
493.324	13283.62
494.099	14377.62
494.873	15465.62
495.647	16746.62
496.422	18066.62
497.196	19228.62
497.97	20615.62
498.744	21891.62
499.518	23072.62
500.292	24235.62
501.066	25344.62
501.839	26241.62
502.613	27129.62
503.387	27825.62
504.16	28390.62
504.934	28601.62
505.707	28667.62
506.48	28524.62
507.253	28346.62
508.027	27913.62
508.8	27430.62
509.573	26789.62
510.346	26062.62
511.118	25204.62
511.891	24264.62
512.664	23322.62
513.437	22392.62
514.209	21370.62
514.982	20493.62
515.754	19466.62
516.526	18574.62
517.298	17780.62
518.071	16998.62
518.843	16301.62
519.615	15687.62
520.387	15068.62
521.159	14517.62
521.93	13875.62
522.702	13350.62
523.474	12849.62
524.245	12207.62
525.017	11693.62
525.788	11261.62
526.56	10716.62
527.331	10208.62
528.102	9758.62
528.873	9296.62
529.644	8808.62
530.415	8344.62
531.186	7895.62
531.957	7496.62
532.728	7108.62
533.498	6703.62
534.269	6350.62
535.039	5957.62
535.81	5634.62
536.58	5322.62
537.351	5007.62
538.121	4742.62
538.891	4464.62
539.661	4239.62
540.431	4023.62
541.201	3789.62
541.971	3573.62
542.741	3384.62
543.51	3228.62
544.28	3091.62
545.05	2929.62
545.819	2763.62
546.588	2652.62
547.358	2495.62
548.127	2390.62
548.896	2246.62
549.665	2134.62
550.434	2018.62
551.203	1941.62
551.972	1804.62
552.741	1706.62
553.51	1618.62
554.278	1517.62
555.047	1440.62
555.815	1354.62
556.584	1295.62
557.352	1210.62
558.121	1130.62
558.889	1069.62
559.657	1002.62
560.425	961.62
561.193	915.62
561.961	853.62
562.729	800.62
563.496	762.62
564.264	721.62
565.032	681.62
565.799	640.62
566.567	598.62
567.334	584.62
568.101	545.62
568.869	515.62
569.636	477.62
570.403	446.62
571.17	429.62
571.937	403.62
572.704	378.62
573.471	360.62
574.237	341.62
575.004	323.62
575.771	305.62
576.537	278.62
577.303	262.62
578.07	247.62
578.836	234.62
579.602	220.62
580.368	215.62
581.134	203.62
581.9	183.62
582.666	175.62
583.432	168.62
584.198	161.62
584.964	156.62
585.729	142.62
586.495	137.62
587.26	130.62
588.025	123.62
588.791	110.62
589.556	113.62
590.321	104.62
591.086	99.62
591.851	94.62
592.616	84.62
593.381	85.62
594.146	83.62
594.911	79.62
595.675	76.62
596.44	71.62
597.204	70.62
597.969	62.62
598.733	59.62
599.497	60.62
600.261	53.62
601.025	55.62
601.79	53.62
602.553	46.62
603.317	46.62
604.081	46.62
604.845	42.62
605.609	39.62
606.372	37.62
607.136	36.62
607.899	35.62
608.662	34.62
609.426	34.62
610.189	35.62
610.952	31.62
611.715	32.62
612.478	31.62
613.241	28.62
614.004	29.62
614.767	21.62
615.529	26.62
616.292	22.62
617.055	22.62
617.817	19.62
618.579	20.62
619.342	21.62
620.104	20.62
620.866	19.62
621.628	16.62
622.39	13.62
623.152	15.62
623.914	17.62
624.676	17.62
625.438	15.62
626.199	10.62
626.961	16.62
627.722	13.62
628.484	14.62
629.245	14.62
630.006	12.62
630.768	12.62
631.529	12.62
632.29	13.62
633.051	11.62
633.812	13.62
634.573	9.62
635.333	10.62
636.094	10.62
636.855	8.62
637.615	9.62
638.376	10.62
639.136	7.62
639.896	9.62
640.657	10.62
641.417	7.62
642.177	7.62
642.937	7.62
643.697	7.62
644.457	8.62
645.216	8.62
645.976	8.62
646.736	10.62
647.495	8.62
648.255	7.62
649.014	5.62
649.774	4.62
650.533	6.62
651.292	7.62
652.051	6.62
652.81	8.62
653.569	6.62
654.328	4.62
655.087	4.62
655.846	5.62
656.604	6.62
657.363	6.62
658.121	7.62
658.88	5.62
659.638	6.62
660.397	4.62
661.155	5.62
661.913	4.62
662.671	2.62
663.429	5.62
664.187	4.62
664.945	4.62
665.703	4.62
666.46	4.62
667.218	3.62
667.976	5.62
668.733	5.62
669.49	4.62
670.248	3.62
671.005	2.62
671.762	5.62
672.519	3.62
673.276	3.62
674.033	6.62
674.79	4.62
675.547	2.62
676.304	5.62
677.06	5.62
677.817	2.62
678.574	3.62
679.33	4.62
680.086	2.62
680.843	4.62
681.599	2.62
682.355	3.62
683.111	3.62
683.867	0.62
684.623	4.62
685.379	2.62
686.135	3.62
686.89	3.62
687.646	1.62
688.402	3.62
689.157	3.62
689.912	2.62
690.668	3.62
691.423	2.62
692.178	2.62
692.933	2.62
693.688	1.62
694.443	0.62
695.198	1.62
695.953	3.62
696.708	3.62
697.462	2.62
698.217	2.62
698.972	1.62
699.726	4.62
700.48	2.62
701.235	3.62
701.989	3.62
702.743	3.62
703.497	2.62
704.251	3.62
705.005	3.62
705.759	2.62
706.513	1.62
707.266	1.62
708.02	3.62
708.774	2.62
709.527	2.62
710.28	5.62
711.034	1.62
711.787	2.62
712.54	2.62
713.293	3.62
714.046	1.62
714.799	1.62
715.552	4.62
716.305	4.62
717.058	4.62
717.81	2.62
718.563	3.62
719.315	2.62
720.068	1.62
720.82	3.62
721.573	4.62
722.325	4.62
723.077	3.62
723.829	5.62
724.581	3.62
725.333	4.62
726.085	3.62
726.836	2.62
727.588	2.62
728.34	3.62
729.091	2.62
729.843	5.62
730.594	2.62
731.346	1.62
732.097	1.62
732.848	2.62
733.599	6.62
734.35	4.62
735.101	3.62
735.852	3.62
736.603	1.62
737.354	3.62
738.104	3.62
738.855	5.62
739.605	3.62
740.356	5.62
741.106	2.62
741.856	2.62
742.607	5.62
743.357	4.62
744.107	3.62
744.857	5.62
745.607	2.62
746.357	4.62
747.106	3.62
747.856	4.62
748.606	8.62
749.355	2.62
750.105	4.62
750.854	5.62
751.603	2.62
752.353	4.62
753.102	4.62
753.851	5.62
754.6	5.62
755.349	6.62
756.098	5.62
756.847	7.62
757.595	5.62
758.344	4.62
759.093	6.62
759.841	4.62
760.589	7.62
761.338	6.62
762.086	6.62
762.834	4.62
763.582	6.62
764.331	6.62
765.079	5.62
765.826	4.62
766.574	4.62
767.322	5.62
768.07	4.62
768.817	7.62
769.565	5.62
770.312	6.62
771.06	6.62
771.807	6.62
772.554	6.62
773.302	7.62
774.049	6.62
774.796	8.62
775.543	5.62
776.29	8.62
777.036	8.62
777.783	7.62
778.53	6.62
779.276	8.62
780.023	6.62
780.769	11.62
781.516	7.62
782.262	8.62
783.008	8.62
783.754	7.62
784.5	6.62
785.246	8.62
785.992	9.62
786.738	10.62
787.484	9.62
788.23	8.62
788.975	9.62
789.721	8.62
790.466	8.62
791.212	7.62
791.957	7.62
792.702	8.62
793.447	9.62
794.193	7.62
794.938	7.62
795.683	7.62
796.427	8.62
797.172	6.62
797.917	7.62
798.662	7.62
799.406	5.62
800.151	5.62
800.895	4.62
801.64	5.62
802.384	6.62
803.128	6.62
803.872	4.62
804.616	6.62
805.36	6.62
806.104	4.62
806.848	8.62
807.592	4.62
808.336	6.62
809.079	4.62
809.823	4.62
810.566	3.62
811.31	4.62
812.053	3.62
812.796	4.62
813.539	3.62
814.283	7.62
815.026	5.62
815.769	5.62
816.511	4.62
817.254	5.62
817.997	2.62
818.74	2.62
819.482	5.62
820.225	2.62
820.967	2.62
821.71	3.62
822.452	2.62
823.194	4.62
823.936	0.62
824.678	3.62
825.42	1.62
826.162	3.62
826.904	4.62
827.646	2.62
828.388	2.62
829.129	2.62
829.871	4.62
830.612	5.62
831.354	2.62
832.095	5.62
832.836	2.62
833.577	3.62
834.319	3.62
835.06	3.62
835.801	4.62
836.542	1.62
837.282	2.62
838.023	2.62
838.764	2.62
839.504	0.62
840.245	2.62
840.985	4.62
841.726	1.62
842.466	2.62
843.206	2.62
843.946	2.62
844.687	2.62
845.427	2.62
846.166	2.62
846.906	2.62
847.646	4.62
848.386	0.62
849.125	1.62
849.865	1.62
850.605	2.62
851.344	3.62
852.083	1.62
852.823	1.62
853.562	2.62
854.301	0.62
855.04	1.62
855.779	1.62
856.518	2.62
857.257	2.62
857.995	0.62
858.734	1.62
859.473	1.62
860.211	2.62
860.95	0.62
861.688	2.62
862.426	2.62
863.165	0.62
863.903	2.62
864.641	0.62
865.379	-1.38
866.117	1.62
866.855	1.62
867.593	-0.38
868.33	1.62
869.068	1.62
869.806	-0.38
870.543	0.62
871.28	1.62
872.018	-0.38
872.755	-0.38
873.492	3.62
874.229	-1.38
874.967	0.62
875.703	-0.38
876.44	0.62
877.177	0.62
877.914	2.62
878.651	1.62
879.387	-0.38
880.124	2.62
880.86	-0.38
881.597	0.62
882.333	0.62
883.069	-0.38
883.806	0.62
884.542	-0.38
885.278	-1.38
886.014	-3.38
886.749	-0.38
887.485	-0.38
888.221	1.62
888.957	1.62
889.692	-1.38
890.428	-1.38
891.163	0.62
891.899	-0.38
892.634	1.62
893.369	-0.38
894.104	1.62
894.839	0.62
895.574	-0.38
896.309	1.62
897.044	-0.38
897.779	-0.38
898.514	-1.38
899.248	0.62
899.983	-0.38
900.717	-1.38
901.452	1.62
902.186	1.62
902.92	1.62
903.654	0.62
904.389	-1.38
905.123	-0.38
905.857	-0.38
906.59	0.62
907.324	-2.38
908.058	1.62
908.792	-1.38
909.525	2.62
910.259	0.62
910.992	2.62
911.726	0.62
912.459	-1.38
913.192	0.62
913.925	-1.38
914.658	-0.38
915.391	0.62
916.124	-0.38
916.857	0.62
917.59	1.62
918.323	-0.38
919.055	-0.38
919.788	-0.38
920.521	0.62
921.253	-3.38
921.985	1.62
922.718	-0.38
923.45	0.62
924.182	0.62
924.914	-0.38
925.646	0.62
926.378	-1.38
927.11	2.62
927.841	0.62
928.573	0.62
929.305	0.62
930.036	0.62
930.768	1.62
931.499	-1.38
932.23	-0.38
932.962	-1.38
933.693	-1.38
934.424	0.62
935.155	-0.38
935.886	-1.38
936.617	2.62
937.348	-0.38
938.078	-2.38
938.809	-1.38
939.54	1.62
940.27	0.62
941.001	-1.38
941.731	1.62
942.461	-2.38
943.191	0.62
943.922	-1.38
944.652	-0.38
945.382	-1.38
946.112	-1.38
946.841	-1.38
947.571	0.62
948.301	0.62
949.031	-1.38
949.76	-2.38
950.49	-0.38
951.219	-0.38
951.948	-1.38
952.678	0.62
953.407	-0.38
954.136	-2.38
954.865	-1.38
955.594	0.62
956.323	-0.38
957.052	-1.38
957.78	-2.38
958.509	0.62
959.238	0.62
959.966	-1.38
960.695	-0.38
961.423	-2.38
962.151	-1.38
962.88	0.62
963.608	-0.38
964.336	-1.38
965.064	-1.38
965.792	-0.38
966.52	0.62
967.247	-0.38
967.975	-0.38
968.703	0.62
969.43	-0.38
970.158	-0.38
970.885	-1.38
971.613	0.62
972.34	0.62
973.067	0.62
973.794	-1.38
974.521	-1.38
975.248	-1.38
975.975	-0.38
976.702	1.62
977.429	-1.38
978.156	0.62
978.882	-1.38
979.609	-1.38
980.335	0.62
981.062	-0.38
981.788	0.62
982.514	0.62
983.24	-0.38
983.967	0.62
984.693	-1.38
985.419	0.62
986.144	-0.38
986.87	-0.38
987.596	-1.38
988.322	1.62
989.047	0.62
989.773	-1.38
990.498	-0.38
991.224	-0.38
991.949	1.62
992.674	0.62
993.399	0.62
994.124	0.62
994.849	2.62
995.574	-0.38
996.299	-0.38
997.024	-0.38
997.749	-0.38
998.473	-0.38
999.198	-1.38
999.922	-1.38
1000.647	0.62
1001.371	2.62
1002.095	-0.38
1002.82	-0.38
1003.544	-1.38
1004.268	1.62
1004.992	-1.38
1005.716	0.62
1006.439	0.62
1007.163	0.62
1007.887	0.62
1008.611	-0.38
1009.334	-1.38
1010.058	-1.38
1010.781	1.62
1011.504	0.62
1012.228	-0.38
1012.951	0.62
1013.674	0.62
1014.397	-0.38
1015.12	-1.38
