节点500_285_QEPB04081__133__14-57-46-209.txt的数据

Date: Wed Nov 12 14:57:46 CST 2025
User: PC
Spectrometer: QEPB0408
触发模式: 0
积分时间 (秒): 1.000000E-2
Scans to average: 1
启用暗噪声校正: true
启用非线性校正: false
滑动平均宽度: 0
X轴模式: Wavelengths
Number of Pixels in Spectrum: 1044
>>>>>Begin Spectral Data<<<<<
220.843	3.25
221.644	2.25
222.444	3.25
223.244	-0.75
224.045	0.25
224.845	2.25
225.645	2.25
226.445	4.25
227.245	2.25
228.045	3.25
228.845	-0.75
229.645	1.25
230.444	3.25
231.244	5.25
232.043	0.25
232.843	4.25
233.642	1.25
234.442	5.25
235.241	2.25
236.04	3.25
236.839	2.25
237.638	3.25
238.437	3.25
239.236	3.25
240.035	3.25
240.833	5.25
241.632	5.25
242.43	4.25
243.229	4.25
244.027	6.25
244.826	5.25
245.624	7.25
246.422	5.25
247.22	5.25
248.018	5.25
248.816	4.25
249.614	6.25
250.412	7.25
251.21	6.25
252.007	6.25
252.805	7.25
253.602	9.25
254.4	8.25
255.197	7.25
255.994	6.25
256.791	7.25
257.589	8.25
258.386	9.25
259.183	8.25
259.979	10.25
260.776	11.25
261.573	11.25
262.37	8.25
263.166	12.25
263.963	12.25
264.759	14.25
265.556	13.25
266.352	12.25
267.148	13.25
267.944	15.25
268.74	15.25
269.536	15.25
270.332	14.25
271.128	16.25
271.924	16.25
272.719	16.25
273.515	15.25
274.311	18.25
275.106	17.25
275.901	17.25
276.697	17.25
277.492	19.25
278.287	18.25
279.082	20.25
279.877	18.25
280.672	17.25
281.467	15.25
282.262	22.25
283.056	19.25
283.851	22.25
284.646	20.25
285.44	22.25
286.234	19.25
287.029	19.25
287.823	17.25
288.617	22.25
289.411	17.25
290.205	17.25
290.999	16.25
291.793	20.25
292.587	18.25
293.381	17.25
294.174	18.25
294.968	17.25
295.761	17.25
296.555	14.25
297.348	18.25
298.141	13.25
298.935	17.25
299.728	15.25
300.521	15.25
301.314	13.25
302.107	12.25
302.899	15.25
303.692	16.25
304.485	11.25
305.277	12.25
306.07	11.25
306.862	11.25
307.655	14.25
308.447	11.25
309.239	12.25
310.031	12.25
310.823	11.25
311.615	8.25
312.407	8.25
313.199	9.25
313.991	11.25
314.783	9.25
315.574	9.25
316.366	10.25
317.157	9.25
317.949	9.25
318.74	9.25
319.531	5.25
320.322	6.25
321.113	8.25
321.904	7.25
322.695	9.25
323.486	9.25
324.277	7.25
325.068	7.25
325.858	8.25
326.649	8.25
327.439	7.25
328.23	8.25
329.02	6.25
329.81	6.25
330.6	3.25
331.391	4.25
332.181	5.25
332.971	6.25
333.76	6.25
334.55	6.25
335.34	6.25
336.13	6.25
336.919	6.25
337.709	7.25
338.498	4.25
339.287	8.25
340.077	6.25
340.866	8.25
341.655	7.25
342.444	7.25
343.233	7.25
344.022	6.25
344.811	7.25
345.6	7.25
346.388	5.25
347.177	6.25
347.965	6.25
348.754	6.25
349.542	5.25
350.33	5.25
351.119	5.25
351.907	6.25
352.695	6.25
353.483	5.25
354.271	6.25
355.059	5.25
355.846	5.25
356.634	6.25
357.422	7.25
358.209	5.25
358.997	8.25
359.784	5.25
360.571	5.25
361.359	6.25
362.146	4.25
362.933	4.25
363.72	5.25
364.507	6.25
365.294	4.25
366.081	5.25
366.867	5.25
367.654	5.25
368.44	2.25
369.227	3.25
370.013	4.25
370.8	6.25
371.586	4.25
372.372	3.25
373.158	3.25
373.944	3.25
374.73	6.25
375.516	4.25
376.302	6.25
377.088	5.25
377.873	3.25
378.659	6.25
379.445	3.25
380.23	5.25
381.015	3.25
381.801	4.25
382.586	5.25
383.371	3.25
384.156	6.25
384.941	7.25
385.726	4.25
386.511	5.25
387.296	6.25
388.08	7.25
388.865	3.25
389.649	6.25
390.434	5.25
391.218	5.25
392.003	6.25
392.787	7.25
393.571	5.25
394.355	6.25
395.139	7.25
395.923	5.25
396.707	7.25
397.491	5.25
398.274	8.25
399.058	8.25
399.842	6.25
400.625	8.25
401.408	7.25
402.192	7.25
402.975	8.25
403.758	7.25
404.541	8.25
405.324	8.25
406.107	7.25
406.89	8.25
407.673	7.25
408.456	8.25
409.238	9.25
410.021	8.25
410.803	8.25
411.586	9.25
412.368	9.25
413.151	8.25
413.933	10.25
414.715	7.25
415.497	8.25
416.279	9.25
417.061	9.25
417.843	9.25
418.624	9.25
419.406	9.25
420.188	9.25
420.969	9.25
421.751	9.25
422.532	11.25
423.313	10.25
424.095	13.25
424.876	11.25
425.657	12.25
426.438	11.25
427.219	13.25
428	10.25
428.78	11.25
429.561	14.25
430.342	14.25
431.122	15.25
431.903	14.25
432.683	16.25
433.464	15.25
434.244	15.25
435.024	17.25
435.804	17.25
436.584	20.25
437.364	18.25
438.144	20.25
438.924	23.25
439.704	21.25
440.483	21.25
441.263	22.25
442.042	23.25
442.822	26.25
443.601	27.25
444.38	29.25
445.16	30.25
445.939	32.25
446.718	32.25
447.497	37.25
448.276	43.25
449.054	43.25
449.833	47.25
450.612	48.25
451.391	55.25
452.169	57.25
452.948	64.25
453.726	67.25
454.504	76.25
455.282	88.25
456.061	91.25
456.839	105.25
457.617	116.25
458.395	130.25
459.172	136.25
459.95	158.25
460.728	179.25
461.506	193.25
462.283	216.25
463.061	244.25
463.838	271.25
464.615	305.25
465.393	346.25
466.17	383.25
466.947	426.25
467.724	472.25
468.501	532.25
469.278	598.25
470.055	666.25
470.831	732.25
471.608	824.25
472.385	912.25
473.161	1023.25
473.938	1141.25
474.714	1276.25
475.49	1404.25
476.266	1562.25
477.043	1725.25
477.819	1900.25
478.595	2115.25
479.371	2367.25
480.146	2588.25
480.922	2865.25
481.698	3166.25
482.473	3530.25
483.249	3903.25
484.024	4288.25
484.8	4748.25
485.575	5200.25
486.35	5761.25
487.126	6351.25
487.901	7003.25
488.676	7683.25
489.451	8433.25
490.225	9247.25
491	10144.25
491.775	11095.25
492.55	12119.25
493.324	13163.25
494.099	14225.25
494.873	15338.25
495.647	16596.25
496.422	17819.25
497.196	19057.25
497.97	20377.25
498.744	21637.25
499.518	22795.25
500.292	24053.25
501.066	25069.25
501.839	26061.25
502.613	26977.25
503.387	27641.25
504.16	28187.25
504.934	28447.25
505.707	28453.25
506.48	28394.25
507.253	28180.25
508.027	27801.25
508.8	27383.25
509.573	26805.25
510.346	26050.25
511.118	25134.25
511.891	24241.25
512.664	23383.25
513.437	22279.25
514.209	21342.25
514.982	20443.25
515.754	19488.25
516.526	18625.25
517.298	17796.25
518.071	17011.25
518.843	16338.25
519.615	15701.25
520.387	15083.25
521.159	14512.25
521.93	13932.25
522.702	13386.25
523.474	12848.25
524.245	12249.25
525.017	11699.25
525.788	11307.25
526.56	10735.25
527.331	10299.25
528.102	9765.25
528.873	9299.25
529.644	8836.25
530.415	8401.25
531.186	7925.25
531.957	7506.25
532.728	7133.25
533.498	6768.25
534.269	6351.25
535.039	6012.25
535.81	5674.25
536.58	5329.25
537.351	5037.25
538.121	4768.25
538.891	4493.25
539.661	4222.25
540.431	3984.25
541.201	3799.25
541.971	3587.25
542.741	3434.25
543.51	3240.25
544.28	3091.25
545.05	2929.25
545.819	2790.25
546.588	2651.25
547.358	2509.25
548.127	2411.25
548.896	2260.25
549.665	2152.25
550.434	2023.25
551.203	1942.25
551.972	1837.25
552.741	1731.25
553.51	1619.25
554.278	1543.25
555.047	1435.25
555.815	1360.25
556.584	1288.25
557.352	1220.25
558.121	1143.25
558.889	1074.25
559.657	1016.25
560.425	962.25
561.193	906.25
561.961	857.25
562.729	803.25
563.496	764.25
564.264	731.25
565.032	685.25
565.799	643.25
566.567	620.25
567.334	583.25
568.101	542.25
568.869	514.25
569.636	480.25
570.403	466.25
571.17	430.25
571.937	405.25
572.704	384.25
573.471	367.25
574.237	343.25
575.004	321.25
575.771	307.25
576.537	283.25
577.303	270.25
578.07	247.25
578.836	244.25
579.602	225.25
580.368	209.25
581.134	205.25
581.9	186.25
582.666	181.25
583.432	169.25
584.198	157.25
584.964	153.25
585.729	144.25
586.495	133.25
587.26	127.25
588.025	122.25
588.791	114.25
589.556	113.25
590.321	108.25
591.086	98.25
591.851	97.25
592.616	96.25
593.381	88.25
594.146	83.25
594.911	75.25
595.675	75.25
596.44	72.25
597.204	67.25
597.969	65.25
598.733	62.25
599.497	62.25
600.261	55.25
601.025	53.25
601.79	50.25
602.553	51.25
603.317	48.25
604.081	46.25
604.845	44.25
605.609	44.25
606.372	38.25
607.136	40.25
607.899	38.25
608.662	33.25
609.426	34.25
610.189	31.25
610.952	32.25
611.715	30.25
612.478	31.25
613.241	28.25
614.004	25.25
614.767	26.25
615.529	25.25
616.292	22.25
617.055	23.25
617.817	26.25
618.579	20.25
619.342	21.25
620.104	20.25
620.866	20.25
621.628	20.25
622.39	20.25
623.152	19.25
623.914	17.25
624.676	17.25
625.438	17.25
626.199	16.25
626.961	15.25
627.722	14.25
628.484	15.25
629.245	13.25
630.006	14.25
630.768	14.25
631.529	13.25
632.29	12.25
633.051	13.25
633.812	9.25
634.573	9.25
635.333	12.25
636.094	9.25
636.855	9.25
637.615	10.25
638.376	12.25
639.136	8.25
639.896	12.25
640.657	8.25
641.417	12.25
642.177	10.25
642.937	7.25
643.697	9.25
644.457	6.25
645.216	8.25
645.976	8.25
646.736	8.25
647.495	9.25
648.255	6.25
649.014	8.25
649.774	8.25
650.533	6.25
651.292	6.25
652.051	6.25
652.81	8.25
653.569	7.25
654.328	7.25
655.087	6.25
655.846	7.25
656.604	9.25
657.363	5.25
658.121	6.25
658.88	5.25
659.638	5.25
660.397	4.25
661.155	6.25
661.913	3.25
662.671	3.25
663.429	5.25
664.187	4.25
664.945	4.25
665.703	5.25
666.46	6.25
667.218	4.25
667.976	4.25
668.733	4.25
669.49	4.25
670.248	5.25
671.005	4.25
671.762	2.25
672.519	5.25
673.276	3.25
674.033	4.25
674.79	4.25
675.547	2.25
676.304	5.25
677.06	1.25
677.817	4.25
678.574	4.25
679.33	5.25
680.086	2.25
680.843	3.25
681.599	6.25
682.355	3.25
683.111	3.25
683.867	2.25
684.623	4.25
685.379	6.25
686.135	1.25
686.89	3.25
687.646	2.25
688.402	4.25
689.157	2.25
689.912	3.25
690.668	5.25
691.423	3.25
692.178	5.25
692.933	3.25
693.688	5.25
694.443	3.25
695.198	5.25
695.953	3.25
696.708	6.25
697.462	3.25
698.217	4.25
698.972	1.25
699.726	2.25
700.48	3.25
701.235	3.25
701.989	4.25
702.743	1.25
703.497	4.25
704.251	1.25
705.005	2.25
705.759	4.25
706.513	2.25
707.266	2.25
708.02	5.25
708.774	4.25
709.527	3.25
710.28	2.25
711.034	3.25
711.787	2.25
712.54	5.25
713.293	3.25
714.046	6.25
714.799	4.25
715.552	3.25
716.305	3.25
717.058	3.25
717.81	5.25
718.563	3.25
719.315	5.25
720.068	5.25
720.82	4.25
721.573	6.25
722.325	3.25
723.077	1.25
723.829	3.25
724.581	2.25
725.333	3.25
726.085	6.25
726.836	4.25
727.588	2.25
728.34	3.25
729.091	1.25
729.843	5.25
730.594	3.25
731.346	3.25
732.097	3.25
732.848	4.25
733.599	5.25
734.35	3.25
735.101	5.25
735.852	4.25
736.603	5.25
737.354	6.25
738.104	4.25
738.855	4.25
739.605	5.25
740.356	4.25
741.106	5.25
741.856	2.25
742.607	5.25
743.357	5.25
744.107	6.25
744.857	5.25
745.607	1.25
746.357	8.25
747.106	6.25
747.856	2.25
748.606	5.25
749.355	6.25
750.105	4.25
750.854	6.25
751.603	6.25
752.353	5.25
753.102	6.25
753.851	4.25
754.6	5.25
755.349	6.25
756.098	5.25
756.847	8.25
757.595	7.25
758.344	5.25
759.093	4.25
759.841	4.25
760.589	6.25
761.338	6.25
762.086	7.25
762.834	5.25
763.582	6.25
764.331	7.25
765.079	8.25
765.826	8.25
766.574	9.25
767.322	7.25
768.07	8.25
768.817	6.25
769.565	7.25
770.312	7.25
771.06	7.25
771.807	6.25
772.554	7.25
773.302	9.25
774.049	9.25
774.796	8.25
775.543	8.25
776.29	8.25
777.036	8.25
777.783	6.25
778.53	8.25
779.276	8.25
780.023	9.25
780.769	8.25
781.516	8.25
782.262	12.25
783.008	8.25
783.754	10.25
784.5	10.25
785.246	7.25
785.992	8.25
786.738	9.25
787.484	11.25
788.23	9.25
788.975	8.25
789.721	7.25
790.466	7.25
791.212	6.25
791.957	10.25
792.702	9.25
793.447	9.25
794.193	8.25
794.938	7.25
795.683	8.25
796.427	10.25
797.172	7.25
797.917	7.25
798.662	9.25
799.406	7.25
800.151	6.25
800.895	6.25
801.64	5.25
802.384	9.25
803.128	6.25
803.872	6.25
804.616	5.25
805.36	9.25
806.104	3.25
806.848	7.25
807.592	5.25
808.336	7.25
809.079	6.25
809.823	6.25
810.566	6.25
811.31	6.25
812.053	4.25
812.796	8.25
813.539	5.25
814.283	8.25
815.026	3.25
815.769	7.25
816.511	3.25
817.254	4.25
817.997	6.25
818.74	4.25
819.482	5.25
820.225	4.25
820.967	5.25
821.71	6.25
822.452	3.25
823.194	4.25
823.936	3.25
824.678	4.25
825.42	2.25
826.162	4.25
826.904	4.25
827.646	1.25
828.388	6.25
829.129	3.25
829.871	3.25
830.612	5.25
831.354	1.25
832.095	5.25
832.836	3.25
833.577	3.25
834.319	5.25
835.06	3.25
835.801	2.25
836.542	3.25
837.282	5.25
838.023	0.25
838.764	5.25
839.504	2.25
840.245	3.25
840.985	1.25
841.726	2.25
842.466	1.25
843.206	2.25
843.946	0.25
844.687	1.25
845.427	2.25
846.166	2.25
846.906	3.25
847.646	4.25
848.386	3.25
849.125	1.25
849.865	5.25
850.605	2.25
851.344	3.25
852.083	2.25
852.823	2.25
853.562	1.25
854.301	1.25
855.04	5.25
855.779	1.25
856.518	1.25
857.257	3.25
857.995	3.25
858.734	2.25
859.473	1.25
860.211	3.25
860.95	3.25
861.688	1.25
862.426	1.25
863.165	3.25
863.903	2.25
864.641	3.25
865.379	2.25
866.117	1.25
866.855	-0.75
867.593	2.25
868.33	2.25
869.068	2.25
869.806	-0.75
870.543	1.25
871.28	1.25
872.018	-1.75
872.755	1.25
873.492	1.25
874.229	0.25
874.967	1.25
875.703	-0.75
876.44	2.25
877.177	0.25
877.914	1.25
878.651	2.25
879.387	2.25
880.124	1.25
880.86	1.25
881.597	2.25
882.333	1.25
883.069	0.25
883.806	0.25
884.542	1.25
885.278	1.25
886.014	0.25
886.749	1.25
887.485	-2.75
888.221	1.25
888.957	1.25
889.692	-0.75
890.428	2.25
891.163	1.25
891.899	2.25
892.634	-0.75
893.369	-1.75
894.104	4.25
894.839	0.25
895.574	0.25
896.309	0.25
897.044	0.25
897.779	0.25
898.514	1.25
899.248	0.25
899.983	-0.75
900.717	-0.75
901.452	-0.75
902.186	0.25
902.92	1.25
903.654	0.25
904.389	-0.75
905.123	0.25
905.857	0.25
906.59	0.25
907.324	0.25
908.058	1.25
908.792	2.25
909.525	1.25
910.259	0.25
910.992	1.25
911.726	0.25
912.459	-0.75
913.192	2.25
913.925	0.25
914.658	0.25
915.391	-0.75
916.124	1.25
916.857	-0.75
917.59	1.25
918.323	-1.75
919.055	0.25
919.788	1.25
920.521	1.25
921.253	0.25
921.985	2.25
922.718	-0.75
923.45	-1.75
924.182	0.25
924.914	2.25
925.646	0.25
926.378	-0.75
927.11	-0.75
927.841	0.25
928.573	1.25
929.305	0.25
930.036	-1.75
930.768	0.25
931.499	0.25
932.23	-0.75
932.962	0.25
933.693	-0.75
934.424	-0.75
935.155	-1.75
935.886	1.25
936.617	-0.75
937.348	0.25
938.078	1.25
938.809	0.25
939.54	1.25
940.27	0.25
941.001	-0.75
941.731	2.25
942.461	0.25
943.191	-1.75
943.922	-2.75
944.652	0.25
945.382	-1.75
946.112	-0.75
946.841	-1.75
947.571	0.25
948.301	-1.75
949.031	0.25
949.76	0.25
950.49	-0.75
951.219	0.25
951.948	0.25
952.678	-1.75
953.407	-0.75
954.136	-0.75
954.865	0.25
955.594	-2.75
956.323	-0.75
957.052	2.25
957.78	-0.75
958.509	1.25
959.238	-0.75
959.966	1.25
960.695	-0.75
961.423	-0.75
962.151	1.25
962.88	1.25
963.608	2.25
964.336	2.25
965.064	1.25
965.792	1.25
966.52	0.25
967.247	1.25
967.975	0.25
968.703	1.25
969.43	2.25
970.158	1.25
970.885	-1.75
971.613	0.25
972.34	0.25
973.067	-0.75
973.794	-0.75
974.521	0.25
975.248	0.25
975.975	-0.75
976.702	0.25
977.429	0.25
978.156	0.25
978.882	0.25
979.609	1.25
980.335	1.25
981.062	0.25
981.788	0.25
982.514	-1.75
983.24	2.25
983.967	-1.75
984.693	1.25
985.419	0.25
986.144	1.25
986.87	0.25
987.596	-0.75
988.322	-0.75
989.047	-2.75
989.773	0.25
990.498	1.25
991.224	3.25
991.949	0.25
992.674	-2.75
993.399	0.25
994.124	1.25
994.849	0.25
995.574	1.25
996.299	-0.75
997.024	-0.75
997.749	-2.75
998.473	0.25
999.198	0.25
999.922	-0.75
1000.647	0.25
1001.371	3.25
1002.095	-0.75
1002.82	-0.75
1003.544	-0.75
1004.268	-0.75
1004.992	2.25
1005.716	1.25
1006.439	3.25
1007.163	2.25
1007.887	1.25
1008.611	0.25
1009.334	-1.75
1010.058	1.25
1010.781	-2.75
1011.504	-0.75
1012.228	-0.75
1012.951	0.25
1013.674	-0.75
1014.397	0.25
1015.12	-0.75
