节点500_285_QEPB04081__267__14-59-59-862.txt的数据

Date: Wed Nov 12 14:59:59 CST 2025
User: PC
Spectrometer: QEPB0408
触发模式: 0
积分时间 (秒): 1.000000E-2
Scans to average: 1
启用暗噪声校正: true
启用非线性校正: false
滑动平均宽度: 0
X轴模式: Wavelengths
Number of Pixels in Spectrum: 1044
>>>>>Begin Spectral Data<<<<<
220.843	1.38
221.644	0.38
222.444	3.38
223.244	0.38
224.045	1.38
224.845	3.38
225.645	1.38
226.445	1.38
227.245	1.38
228.045	0.38
228.845	2.38
229.645	3.38
230.444	2.38
231.244	1.38
232.043	0.38
232.843	4.38
233.642	4.38
234.442	2.38
235.241	5.38
236.04	3.38
236.839	1.38
237.638	4.38
238.437	4.38
239.236	4.38
240.035	2.38
240.833	6.38
241.632	6.38
242.43	3.38
243.229	5.38
244.027	4.38
244.826	6.38
245.624	3.38
246.422	5.38
247.22	5.38
248.018	6.38
248.816	6.38
249.614	6.38
250.412	6.38
251.21	8.38
252.007	6.38
252.805	7.38
253.602	7.38
254.4	8.38
255.197	4.38
255.994	7.38
256.791	6.38
257.589	10.38
258.386	10.38
259.183	9.38
259.979	10.38
260.776	11.38
261.573	8.38
262.37	13.38
263.166	10.38
263.963	9.38
264.759	11.38
265.556	12.38
266.352	10.38
267.148	15.38
267.944	12.38
268.74	13.38
269.536	14.38
270.332	17.38
271.128	15.38
271.924	13.38
272.719	15.38
273.515	14.38
274.311	19.38
275.106	19.38
275.901	16.38
276.697	16.38
277.492	19.38
278.287	16.38
279.082	18.38
279.877	17.38
280.672	18.38
281.467	19.38
282.262	17.38
283.056	18.38
283.851	17.38
284.646	20.38
285.44	19.38
286.234	21.38
287.029	19.38
287.823	19.38
288.617	17.38
289.411	18.38
290.205	16.38
290.999	19.38
291.793	17.38
292.587	17.38
293.381	18.38
294.174	16.38
294.968	17.38
295.761	13.38
296.555	13.38
297.348	16.38
298.141	14.38
298.935	17.38
299.728	17.38
300.521	13.38
301.314	14.38
302.107	14.38
302.899	12.38
303.692	13.38
304.485	13.38
305.277	12.38
306.07	12.38
306.862	15.38
307.655	13.38
308.447	11.38
309.239	11.38
310.031	11.38
310.823	8.38
311.615	10.38
312.407	11.38
313.199	8.38
313.991	9.38
314.783	9.38
315.574	9.38
316.366	9.38
317.157	9.38
317.949	8.38
318.74	7.38
319.531	8.38
320.322	5.38
321.113	7.38
321.904	7.38
322.695	7.38
323.486	6.38
324.277	6.38
325.068	7.38
325.858	10.38
326.649	8.38
327.439	8.38
328.23	5.38
329.02	7.38
329.81	4.38
330.6	6.38
331.391	5.38
332.181	5.38
332.971	5.38
333.76	7.38
334.55	7.38
335.34	4.38
336.13	5.38
336.919	6.38
337.709	6.38
338.498	5.38
339.287	6.38
340.077	6.38
340.866	6.38
341.655	5.38
342.444	6.38
343.233	7.38
344.022	6.38
344.811	7.38
345.6	6.38
346.388	6.38
347.177	6.38
347.965	5.38
348.754	6.38
349.542	5.38
350.33	5.38
351.119	7.38
351.907	6.38
352.695	7.38
353.483	5.38
354.271	7.38
355.059	6.38
355.846	7.38
356.634	8.38
357.422	4.38
358.209	4.38
358.997	6.38
359.784	3.38
360.571	6.38
361.359	5.38
362.146	5.38
362.933	4.38
363.72	4.38
364.507	4.38
365.294	4.38
366.081	6.38
366.867	4.38
367.654	6.38
368.44	6.38
369.227	4.38
370.013	6.38
370.8	6.38
371.586	4.38
372.372	5.38
373.158	2.38
373.944	6.38
374.73	5.38
375.516	3.38
376.302	4.38
377.088	5.38
377.873	5.38
378.659	3.38
379.445	6.38
380.23	4.38
381.015	4.38
381.801	3.38
382.586	6.38
383.371	4.38
384.156	3.38
384.941	5.38
385.726	6.38
386.511	5.38
387.296	8.38
388.08	6.38
388.865	8.38
389.649	4.38
390.434	5.38
391.218	3.38
392.003	5.38
392.787	3.38
393.571	5.38
394.355	8.38
395.139	6.38
395.923	5.38
396.707	7.38
397.491	3.38
398.274	5.38
399.058	6.38
399.842	8.38
400.625	6.38
401.408	6.38
402.192	7.38
402.975	5.38
403.758	7.38
404.541	7.38
405.324	8.38
406.107	7.38
406.89	10.38
407.673	7.38
408.456	5.38
409.238	9.38
410.021	5.38
410.803	9.38
411.586	7.38
412.368	9.38
413.151	9.38
413.933	9.38
414.715	12.38
415.497	9.38
416.279	8.38
417.061	8.38
417.843	7.38
418.624	10.38
419.406	8.38
420.188	10.38
420.969	10.38
421.751	9.38
422.532	11.38
423.313	9.38
424.095	12.38
424.876	11.38
425.657	13.38
426.438	13.38
427.219	11.38
428	14.38
428.78	12.38
429.561	10.38
430.342	12.38
431.122	13.38
431.903	16.38
432.683	16.38
433.464	17.38
434.244	16.38
435.024	17.38
435.804	18.38
436.584	17.38
437.364	20.38
438.144	20.38
438.924	19.38
439.704	21.38
440.483	25.38
441.263	21.38
442.042	25.38
442.822	25.38
443.601	29.38
444.38	28.38
445.16	31.38
445.939	29.38
446.718	35.38
447.497	39.38
448.276	41.38
449.054	43.38
449.833	50.38
450.612	52.38
451.391	57.38
452.169	61.38
452.948	68.38
453.726	73.38
454.504	81.38
455.282	86.38
456.061	98.38
456.839	107.38
457.617	119.38
458.395	133.38
459.172	148.38
459.95	166.38
460.728	179.38
461.506	203.38
462.283	226.38
463.061	254.38
463.838	284.38
464.615	317.38
465.393	350.38
466.17	397.38
466.947	450.38
467.724	489.38
468.501	553.38
469.278	605.38
470.055	686.38
470.831	758.38
471.608	840.38
472.385	937.38
473.161	1057.38
473.938	1156.38
474.714	1280.38
475.49	1416.38
476.266	1579.38
477.043	1728.38
477.819	1924.38
478.595	2120.38
479.371	2347.38
480.146	2593.38
480.922	2881.38
481.698	3151.38
482.473	3459.38
483.249	3850.38
484.024	4230.38
484.8	4667.38
485.575	5122.38
486.35	5628.38
487.126	6209.38
487.901	6809.38
488.676	7446.38
489.451	8183.38
490.225	8961.38
491	9784.38
491.775	10681.38
492.55	11706.38
493.324	12664.38
494.099	13634.38
494.873	14676.38
495.647	15862.38
496.422	17068.38
497.196	18279.38
497.97	19467.38
498.744	20687.38
499.518	21867.38
500.292	23007.38
501.066	24109.38
501.839	25065.38
502.613	25905.38
503.387	26712.38
504.16	27341.38
504.934	27622.38
505.707	27828.38
506.48	27839.38
507.253	27623.38
508.027	27348.38
508.8	26985.38
509.573	26554.38
510.346	25867.38
511.118	25024.38
511.891	24193.38
512.664	23350.38
513.437	22485.38
514.209	21587.38
514.982	20597.38
515.754	19689.38
516.526	18817.38
517.298	17975.38
518.071	17200.38
518.843	16539.38
519.615	15952.38
520.387	15258.38
521.159	14699.38
521.93	14060.38
522.702	13495.38
523.474	12952.38
524.245	12413.38
525.017	11830.38
525.788	11436.38
526.56	10863.38
527.331	10345.38
528.102	9892.38
528.873	9402.38
529.644	8992.38
530.415	8548.38
531.186	8091.38
531.957	7653.38
532.728	7252.38
533.498	6882.38
534.269	6504.38
535.039	6118.38
535.81	5803.38
536.58	5502.38
537.351	5153.38
538.121	4899.38
538.891	4626.38
539.661	4356.38
540.431	4125.38
541.201	3880.38
541.971	3690.38
542.741	3500.38
543.51	3317.38
544.28	3147.38
545.05	3011.38
545.819	2858.38
546.588	2717.38
547.358	2588.38
548.127	2465.38
548.896	2325.38
549.665	2236.38
550.434	2097.38
551.203	1957.38
551.972	1885.38
552.741	1763.38
553.51	1672.38
554.278	1584.38
555.047	1493.38
555.815	1416.38
556.584	1330.38
557.352	1258.38
558.121	1199.38
558.889	1117.38
559.657	1060.38
560.425	994.38
561.193	932.38
561.961	874.38
562.729	835.38
563.496	792.38
564.264	751.38
565.032	699.38
565.799	666.38
566.567	636.38
567.334	595.38
568.101	560.38
568.869	534.38
569.636	499.38
570.403	476.38
571.17	442.38
571.937	417.38
572.704	394.38
573.471	376.38
574.237	352.38
575.004	339.38
575.771	306.38
576.537	287.38
577.303	276.38
578.07	264.38
578.836	245.38
579.602	234.38
580.368	227.38
581.134	207.38
581.9	199.38
582.666	187.38
583.432	176.38
584.198	166.38
584.964	161.38
585.729	156.38
586.495	144.38
587.26	139.38
588.025	127.38
588.791	123.38
589.556	117.38
590.321	111.38
591.086	102.38
591.851	99.38
592.616	94.38
593.381	87.38
594.146	84.38
594.911	82.38
595.675	80.38
596.44	73.38
597.204	72.38
597.969	67.38
598.733	65.38
599.497	64.38
600.261	59.38
601.025	54.38
601.79	55.38
602.553	51.38
603.317	51.38
604.081	47.38
604.845	45.38
605.609	45.38
606.372	40.38
607.136	42.38
607.899	36.38
608.662	37.38
609.426	36.38
610.189	36.38
610.952	32.38
611.715	29.38
612.478	31.38
613.241	28.38
614.004	29.38
614.767	28.38
615.529	23.38
616.292	27.38
617.055	21.38
617.817	23.38
618.579	24.38
619.342	21.38
620.104	19.38
620.866	19.38
621.628	20.38
622.39	20.38
623.152	19.38
623.914	16.38
624.676	17.38
625.438	16.38
626.199	14.38
626.961	15.38
627.722	13.38
628.484	13.38
629.245	13.38
630.006	15.38
630.768	13.38
631.529	12.38
632.29	9.38
633.051	13.38
633.812	11.38
634.573	12.38
635.333	11.38
636.094	13.38
636.855	10.38
637.615	12.38
638.376	10.38
639.136	10.38
639.896	7.38
640.657	8.38
641.417	9.38
642.177	7.38
642.937	9.38
643.697	6.38
644.457	8.38
645.216	7.38
645.976	10.38
646.736	10.38
647.495	7.38
648.255	6.38
649.014	7.38
649.774	8.38
650.533	6.38
651.292	5.38
652.051	4.38
652.81	6.38
653.569	6.38
654.328	6.38
655.087	5.38
655.846	7.38
656.604	9.38
657.363	6.38
658.121	7.38
658.88	6.38
659.638	9.38
660.397	5.38
661.155	4.38
661.913	3.38
662.671	4.38
663.429	5.38
664.187	5.38
664.945	5.38
665.703	4.38
666.46	3.38
667.218	8.38
667.976	3.38
668.733	1.38
669.49	4.38
670.248	4.38
671.005	5.38
671.762	6.38
672.519	4.38
673.276	5.38
674.033	6.38
674.79	5.38
675.547	5.38
676.304	5.38
677.06	4.38
677.817	4.38
678.574	3.38
679.33	3.38
680.086	3.38
680.843	4.38
681.599	3.38
682.355	3.38
683.111	3.38
683.867	3.38
684.623	4.38
685.379	1.38
686.135	3.38
686.89	5.38
687.646	3.38
688.402	4.38
689.157	3.38
689.912	4.38
690.668	3.38
691.423	3.38
692.178	5.38
692.933	1.38
693.688	4.38
694.443	3.38
695.198	4.38
695.953	4.38
696.708	1.38
697.462	3.38
698.217	4.38
698.972	4.38
699.726	1.38
700.48	1.38
701.235	3.38
701.989	4.38
702.743	3.38
703.497	3.38
704.251	3.38
705.005	3.38
705.759	6.38
706.513	2.38
707.266	2.38
708.02	3.38
708.774	3.38
709.527	3.38
710.28	3.38
711.034	3.38
711.787	3.38
712.54	2.38
713.293	3.38
714.046	3.38
714.799	3.38
715.552	3.38
716.305	4.38
717.058	3.38
717.81	3.38
718.563	7.38
719.315	4.38
720.068	0.38
720.82	5.38
721.573	4.38
722.325	3.38
723.077	2.38
723.829	3.38
724.581	4.38
725.333	4.38
726.085	5.38
726.836	3.38
727.588	2.38
728.34	4.38
729.091	4.38
729.843	4.38
730.594	3.38
731.346	2.38
732.097	4.38
732.848	5.38
733.599	4.38
734.35	5.38
735.101	3.38
735.852	4.38
736.603	5.38
737.354	6.38
738.104	2.38
738.855	4.38
739.605	4.38
740.356	4.38
741.106	6.38
741.856	5.38
742.607	6.38
743.357	6.38
744.107	2.38
744.857	3.38
745.607	3.38
746.357	5.38
747.106	4.38
747.856	6.38
748.606	3.38
749.355	6.38
750.105	6.38
750.854	5.38
751.603	6.38
752.353	6.38
753.102	5.38
753.851	5.38
754.6	7.38
755.349	5.38
756.098	4.38
756.847	3.38
757.595	5.38
758.344	7.38
759.093	5.38
759.841	7.38
760.589	3.38
761.338	5.38
762.086	7.38
762.834	6.38
763.582	5.38
764.331	6.38
765.079	7.38
765.826	7.38
766.574	5.38
767.322	8.38
768.07	6.38
768.817	9.38
769.565	5.38
770.312	7.38
771.06	5.38
771.807	9.38
772.554	10.38
773.302	5.38
774.049	7.38
774.796	7.38
775.543	7.38
776.29	9.38
777.036	7.38
777.783	7.38
778.53	9.38
779.276	8.38
780.023	7.38
780.769	6.38
781.516	9.38
782.262	8.38
783.008	9.38
783.754	9.38
784.5	8.38
785.246	9.38
785.992	7.38
786.738	8.38
787.484	9.38
788.23	11.38
788.975	8.38
789.721	7.38
790.466	10.38
791.212	7.38
791.957	10.38
792.702	8.38
793.447	7.38
794.193	8.38
794.938	8.38
795.683	10.38
796.427	6.38
797.172	9.38
797.917	6.38
798.662	8.38
799.406	7.38
800.151	6.38
800.895	5.38
801.64	5.38
802.384	6.38
803.128	6.38
803.872	8.38
804.616	8.38
805.36	6.38
806.104	8.38
806.848	6.38
807.592	4.38
808.336	7.38
809.079	5.38
809.823	6.38
810.566	5.38
811.31	6.38
812.053	7.38
812.796	5.38
813.539	7.38
814.283	4.38
815.026	7.38
815.769	4.38
816.511	4.38
817.254	3.38
817.997	3.38
818.74	7.38
819.482	6.38
820.225	2.38
820.967	5.38
821.71	2.38
822.452	3.38
823.194	5.38
823.936	2.38
824.678	2.38
825.42	5.38
826.162	5.38
826.904	3.38
827.646	5.38
828.388	4.38
829.129	2.38
829.871	5.38
830.612	2.38
831.354	5.38
832.095	3.38
832.836	5.38
833.577	2.38
834.319	3.38
835.06	3.38
835.801	2.38
836.542	3.38
837.282	2.38
838.023	3.38
838.764	4.38
839.504	2.38
840.245	3.38
840.985	3.38
841.726	3.38
842.466	2.38
843.206	5.38
843.946	2.38
844.687	1.38
845.427	5.38
846.166	2.38
846.906	2.38
847.646	4.38
848.386	2.38
849.125	1.38
849.865	1.38
850.605	2.38
851.344	2.38
852.083	2.38
852.823	0.38
853.562	0.38
854.301	2.38
855.04	2.38
855.779	1.38
856.518	6.38
857.257	5.38
857.995	4.38
858.734	1.38
859.473	2.38
860.211	1.38
860.95	1.38
861.688	2.38
862.426	2.38
863.165	3.38
863.903	3.38
864.641	2.38
865.379	1.38
866.117	2.38
866.855	5.38
867.593	-0.62
868.33	1.38
869.068	0.38
869.806	2.38
870.543	1.38
871.28	4.38
872.018	2.38
872.755	2.38
873.492	-0.62
874.229	1.38
874.967	-0.62
875.703	1.38
876.44	-0.62
877.177	0.38
877.914	0.38
878.651	1.38
879.387	1.38
880.124	1.38
880.86	0.38
881.597	0.38
882.333	2.38
883.069	1.38
883.806	-0.62
884.542	1.38
885.278	0.38
886.014	2.38
886.749	0.38
887.485	1.38
888.221	-0.62
888.957	2.38
889.692	1.38
890.428	0.38
891.163	3.38
891.899	0.38
892.634	1.38
893.369	-0.62
894.104	-0.62
894.839	1.38
895.574	-2.62
896.309	0.38
897.044	0.38
897.779	-0.62
898.514	-0.62
899.248	-1.62
899.983	2.38
900.717	-0.62
901.452	1.38
902.186	1.38
902.92	-0.62
903.654	1.38
904.389	1.38
905.123	0.38
905.857	-0.62
906.59	0.38
907.324	2.38
908.058	0.38
908.792	0.38
909.525	1.38
910.259	-1.62
910.992	0.38
911.726	-0.62
912.459	0.38
913.192	-0.62
913.925	0.38
914.658	-2.62
915.391	0.38
916.124	-0.62
916.857	-0.62
917.59	1.38
918.323	0.38
919.055	0.38
919.788	-0.62
920.521	0.38
921.253	0.38
921.985	0.38
922.718	1.38
923.45	0.38
924.182	0.38
924.914	-1.62
925.646	2.38
926.378	1.38
927.11	-0.62
927.841	-1.62
928.573	0.38
929.305	4.38
930.036	1.38
930.768	-1.62
931.499	0.38
932.23	0.38
932.962	1.38
933.693	-0.62
934.424	0.38
935.155	-0.62
935.886	0.38
936.617	1.38
937.348	-1.62
938.078	1.38
938.809	2.38
939.54	-0.62
940.27	0.38
941.001	-2.62
941.731	1.38
942.461	0.38
943.191	1.38
943.922	-0.62
944.652	-0.62
945.382	-1.62
946.112	-2.62
946.841	0.38
947.571	-2.62
948.301	1.38
949.031	0.38
949.76	1.38
950.49	-0.62
951.219	0.38
951.948	-0.62
952.678	0.38
953.407	1.38
954.136	-0.62
954.865	-0.62
955.594	0.38
956.323	0.38
957.052	-0.62
957.78	2.38
958.509	-1.62
959.238	-0.62
959.966	-3.62
960.695	1.38
961.423	1.38
962.151	2.38
962.88	1.38
963.608	-0.62
964.336	2.38
965.064	-1.62
965.792	1.38
966.52	1.38
967.247	-1.62
967.975	0.38
968.703	-0.62
969.43	1.38
970.158	0.38
970.885	-0.62
971.613	-0.62
972.34	0.38
973.067	-0.62
973.794	-0.62
974.521	0.38
975.248	-0.62
975.975	1.38
976.702	-1.62
977.429	1.38
978.156	2.38
978.882	-0.62
979.609	0.38
980.335	0.38
981.062	-1.62
981.788	0.38
982.514	0.38
983.24	-0.62
983.967	-2.62
984.693	-0.62
985.419	1.38
986.144	-1.62
986.87	-0.62
987.596	-0.62
988.322	-2.62
989.047	0.38
989.773	-1.62
990.498	2.38
991.224	1.38
991.949	2.38
992.674	-2.62
993.399	-0.62
994.124	0.38
994.849	-0.62
995.574	-1.62
996.299	-0.62
997.024	0.38
997.749	0.38
998.473	-0.62
999.198	0.38
999.922	-1.62
1000.647	0.38
1001.371	4.38
1002.095	-1.62
1002.82	0.38
1003.544	-1.62
1004.268	0.38
1004.992	0.38
1005.716	0.38
1006.439	-0.62
1007.163	2.38
1007.887	3.38
1008.611	-2.62
1009.334	1.38
1010.058	-0.62
1010.781	0.38
1011.504	-0.62
1012.228	0.38
1012.951	0.38
1013.674	-1.62
1014.397	0.38
1015.12	-0.62
