节点500_285_QEPB04081__841__15-09-32-737.txt的数据

Date: Wed Nov 12 15:09:32 CST 2025
User: PC
Spectrometer: QEPB0408
触发模式: 0
积分时间 (秒): 1.000000E-2
Scans to average: 1
启用暗噪声校正: true
启用非线性校正: false
滑动平均宽度: 0
X轴模式: Wavelengths
Number of Pixels in Spectrum: 1044
>>>>>Begin Spectral Data<<<<<
220.843	1.5
221.644	-0.5
222.444	1.5
223.244	0.5
224.045	3.5
224.845	1.5
225.645	0.5
226.445	-0.5
227.245	0.5
228.045	2.5
228.845	3.5
229.645	1.5
230.444	4.5
231.244	1.5
232.043	2.5
232.843	2.5
233.642	5.5
234.442	1.5
235.241	0.5
236.04	4.5
236.839	3.5
237.638	1.5
238.437	1.5
239.236	3.5
240.035	3.5
240.833	3.5
241.632	2.5
242.43	2.5
243.229	4.5
244.027	1.5
244.826	4.5
245.624	3.5
246.422	3.5
247.22	6.5
248.018	4.5
248.816	5.5
249.614	6.5
250.412	4.5
251.21	2.5
252.007	4.5
252.805	6.5
253.602	4.5
254.4	5.5
255.197	8.5
255.994	5.5
256.791	6.5
257.589	5.5
258.386	5.5
259.183	5.5
259.979	8.5
260.776	8.5
261.573	7.5
262.37	6.5
263.166	8.5
263.963	8.5
264.759	9.5
265.556	12.5
266.352	9.5
267.148	12.5
267.944	11.5
268.74	10.5
269.536	12.5
270.332	11.5
271.128	13.5
271.924	11.5
272.719	12.5
273.515	10.5
274.311	15.5
275.106	11.5
275.901	13.5
276.697	15.5
277.492	15.5
278.287	14.5
279.082	16.5
279.877	14.5
280.672	17.5
281.467	13.5
282.262	16.5
283.056	15.5
283.851	14.5
284.646	17.5
285.44	13.5
286.234	17.5
287.029	19.5
287.823	16.5
288.617	16.5
289.411	16.5
290.205	18.5
290.999	15.5
291.793	16.5
292.587	16.5
293.381	15.5
294.174	16.5
294.968	16.5
295.761	14.5
296.555	13.5
297.348	15.5
298.141	14.5
298.935	16.5
299.728	11.5
300.521	13.5
301.314	12.5
302.107	11.5
302.899	13.5
303.692	14.5
304.485	14.5
305.277	15.5
306.07	10.5
306.862	11.5
307.655	11.5
308.447	12.5
309.239	13.5
310.031	10.5
310.823	11.5
311.615	9.5
312.407	9.5
313.199	7.5
313.991	6.5
314.783	11.5
315.574	8.5
316.366	10.5
317.157	8.5
317.949	8.5
318.74	5.5
319.531	6.5
320.322	6.5
321.113	5.5
321.904	8.5
322.695	9.5
323.486	6.5
324.277	7.5
325.068	6.5
325.858	6.5
326.649	6.5
327.439	7.5
328.23	6.5
329.02	5.5
329.81	7.5
330.6	6.5
331.391	4.5
332.181	5.5
332.971	5.5
333.76	3.5
334.55	7.5
335.34	5.5
336.13	4.5
336.919	5.5
337.709	5.5
338.498	7.5
339.287	6.5
340.077	5.5
340.866	6.5
341.655	5.5
342.444	6.5
343.233	4.5
344.022	5.5
344.811	6.5
345.6	4.5
346.388	7.5
347.177	6.5
347.965	4.5
348.754	4.5
349.542	5.5
350.33	5.5
351.119	6.5
351.907	5.5
352.695	5.5
353.483	5.5
354.271	6.5
355.059	6.5
355.846	1.5
356.634	4.5
357.422	6.5
358.209	2.5
358.997	6.5
359.784	6.5
360.571	3.5
361.359	5.5
362.146	3.5
362.933	4.5
363.72	3.5
364.507	2.5
365.294	6.5
366.081	2.5
366.867	6.5
367.654	4.5
368.44	6.5
369.227	2.5
370.013	2.5
370.8	4.5
371.586	3.5
372.372	6.5
373.158	4.5
373.944	4.5
374.73	2.5
375.516	4.5
376.302	4.5
377.088	1.5
377.873	4.5
378.659	3.5
379.445	5.5
380.23	4.5
381.015	4.5
381.801	5.5
382.586	4.5
383.371	4.5
384.156	2.5
384.941	3.5
385.726	4.5
386.511	5.5
387.296	5.5
388.08	3.5
388.865	5.5
389.649	5.5
390.434	7.5
391.218	3.5
392.003	4.5
392.787	5.5
393.571	4.5
394.355	3.5
395.139	6.5
395.923	4.5
396.707	7.5
397.491	4.5
398.274	8.5
399.058	3.5
399.842	8.5
400.625	4.5
401.408	6.5
402.192	9.5
402.975	6.5
403.758	7.5
404.541	5.5
405.324	7.5
406.107	6.5
406.89	6.5
407.673	9.5
408.456	8.5
409.238	7.5
410.021	8.5
410.803	8.5
411.586	4.5
412.368	9.5
413.151	8.5
413.933	7.5
414.715	10.5
415.497	7.5
416.279	8.5
417.061	9.5
417.843	7.5
418.624	9.5
419.406	8.5
420.188	11.5
420.969	7.5
421.751	9.5
422.532	8.5
423.313	10.5
424.095	11.5
424.876	9.5
425.657	13.5
426.438	12.5
427.219	11.5
428	11.5
428.78	9.5
429.561	12.5
430.342	11.5
431.122	14.5
431.903	15.5
432.683	12.5
433.464	13.5
434.244	14.5
435.024	15.5
435.804	15.5
436.584	17.5
437.364	19.5
438.144	18.5
438.924	20.5
439.704	21.5
440.483	23.5
441.263	22.5
442.042	25.5
442.822	27.5
443.601	28.5
444.38	31.5
445.16	29.5
445.939	33.5
446.718	38.5
447.497	42.5
448.276	45.5
449.054	47.5
449.833	51.5
450.612	54.5
451.391	64.5
452.169	66.5
452.948	78.5
453.726	80.5
454.504	89.5
455.282	102.5
456.061	108.5
456.839	124.5
457.617	141.5
458.395	150.5
459.172	171.5
459.95	188.5
460.728	211.5
461.506	233.5
462.283	259.5
463.061	282.5
463.838	328.5
464.615	361.5
465.393	400.5
466.17	440.5
466.947	499.5
467.724	552.5
468.501	597.5
469.278	673.5
470.055	737.5
470.831	823.5
471.608	905.5
472.385	1000.5
473.161	1106.5
473.938	1203.5
474.714	1338.5
475.49	1445.5
476.266	1597.5
477.043	1768.5
477.819	1954.5
478.595	2120.5
479.371	2313.5
480.146	2543.5
480.922	2793.5
481.698	3021.5
482.473	3322.5
483.249	3618.5
484.024	3964.5
484.8	4313.5
485.575	4703.5
486.35	5125.5
487.126	5542.5
487.901	6048.5
488.676	6565.5
489.451	7130.5
490.225	7769.5
491	8407.5
491.775	9177.5
492.55	9928.5
493.324	10660.5
494.099	11480.5
494.873	12281.5
495.647	13225.5
496.422	14132.5
497.196	15171.5
497.97	16163.5
498.744	17211.5
499.518	18202.5
500.292	19143.5
501.066	20232.5
501.839	21126.5
502.613	22060.5
503.387	22858.5
504.16	23581.5
504.934	24080.5
505.707	24427.5
506.48	24676.5
507.253	24822.5
508.027	24872.5
508.8	24846.5
509.573	24749.5
510.346	24468.5
511.118	23926.5
511.891	23441.5
512.664	22832.5
513.437	22185.5
514.209	21389.5
514.982	20681.5
515.754	19916.5
516.526	19024.5
517.298	18396.5
518.071	17562.5
518.843	16912.5
519.615	16301.5
520.387	15671.5
521.159	15089.5
521.93	14396.5
522.702	13886.5
523.474	13312.5
524.245	12713.5
525.017	12204.5
525.788	11744.5
526.56	11241.5
527.331	10735.5
528.102	10259.5
528.873	9837.5
529.644	9393.5
530.415	9014.5
531.186	8549.5
531.957	8146.5
532.728	7769.5
533.498	7369.5
534.269	6960.5
535.039	6635.5
535.81	6290.5
536.58	5908.5
537.351	5608.5
538.121	5281.5
538.891	4998.5
539.661	4735.5
540.431	4477.5
541.201	4250.5
541.971	4013.5
542.741	3809.5
543.51	3618.5
544.28	3436.5
545.05	3284.5
545.819	3080.5
546.588	2953.5
547.358	2809.5
548.127	2673.5
548.896	2539.5
549.665	2400.5
550.434	2278.5
551.203	2159.5
551.972	2057.5
552.741	1963.5
553.51	1863.5
554.278	1745.5
555.047	1659.5
555.815	1571.5
556.584	1473.5
557.352	1388.5
558.121	1319.5
558.889	1245.5
559.657	1178.5
560.425	1119.5
561.193	1040.5
561.961	989.5
562.729	937.5
563.496	884.5
564.264	837.5
565.032	780.5
565.799	756.5
566.567	717.5
567.334	664.5
568.101	637.5
568.869	588.5
569.636	555.5
570.403	527.5
571.17	500.5
571.937	466.5
572.704	433.5
573.471	415.5
574.237	397.5
575.004	376.5
575.771	345.5
576.537	326.5
577.303	307.5
578.07	293.5
578.836	276.5
579.602	254.5
580.368	248.5
581.134	232.5
581.9	226.5
582.666	213.5
583.432	199.5
584.198	192.5
584.964	172.5
585.729	173.5
586.495	157.5
587.26	152.5
588.025	147.5
588.791	138.5
589.556	129.5
590.321	123.5
591.086	120.5
591.851	108.5
592.616	105.5
593.381	97.5
594.146	92.5
594.911	88.5
595.675	81.5
596.44	80.5
597.204	75.5
597.969	74.5
598.733	68.5
599.497	66.5
600.261	68.5
601.025	61.5
601.79	61.5
602.553	53.5
603.317	51.5
604.081	54.5
604.845	45.5
605.609	45.5
606.372	43.5
607.136	45.5
607.899	38.5
608.662	40.5
609.426	38.5
610.189	41.5
610.952	35.5
611.715	33.5
612.478	32.5
613.241	28.5
614.004	28.5
614.767	27.5
615.529	25.5
616.292	26.5
617.055	25.5
617.817	27.5
618.579	22.5
619.342	21.5
620.104	24.5
620.866	22.5
621.628	20.5
622.39	20.5
623.152	21.5
623.914	16.5
624.676	18.5
625.438	16.5
626.199	18.5
626.961	16.5
627.722	15.5
628.484	18.5
629.245	17.5
630.006	13.5
630.768	13.5
631.529	14.5
632.29	12.5
633.051	11.5
633.812	12.5
634.573	11.5
635.333	12.5
636.094	9.5
636.855	11.5
637.615	11.5
638.376	11.5
639.136	9.5
639.896	11.5
640.657	9.5
641.417	9.5
642.177	9.5
642.937	7.5
643.697	9.5
644.457	9.5
645.216	8.5
645.976	7.5
646.736	8.5
647.495	7.5
648.255	6.5
649.014	8.5
649.774	4.5
650.533	5.5
651.292	7.5
652.051	7.5
652.81	4.5
653.569	7.5
654.328	8.5
655.087	7.5
655.846	7.5
656.604	5.5
657.363	4.5
658.121	6.5
658.88	6.5
659.638	5.5
660.397	7.5
661.155	8.5
661.913	2.5
662.671	5.5
663.429	5.5
664.187	2.5
664.945	6.5
665.703	4.5
666.46	4.5
667.218	3.5
667.976	5.5
668.733	3.5
669.49	3.5
670.248	3.5
671.005	5.5
671.762	4.5
672.519	3.5
673.276	4.5
674.033	3.5
674.79	1.5
675.547	4.5
676.304	3.5
677.06	5.5
677.817	4.5
678.574	4.5
679.33	3.5
680.086	3.5
680.843	4.5
681.599	2.5
682.355	5.5
683.111	2.5
683.867	5.5
684.623	1.5
685.379	3.5
686.135	3.5
686.89	0.5
687.646	1.5
688.402	1.5
689.157	5.5
689.912	3.5
690.668	0.5
691.423	5.5
692.178	3.5
692.933	3.5
693.688	5.5
694.443	2.5
695.198	5.5
695.953	2.5
696.708	2.5
697.462	1.5
698.217	4.5
698.972	3.5
699.726	1.5
700.48	1.5
701.235	4.5
701.989	3.5
702.743	2.5
703.497	3.5
704.251	1.5
705.005	2.5
705.759	2.5
706.513	4.5
707.266	2.5
708.02	1.5
708.774	4.5
709.527	2.5
710.28	3.5
711.034	4.5
711.787	1.5
712.54	2.5
713.293	1.5
714.046	3.5
714.799	1.5
715.552	1.5
716.305	3.5
717.058	4.5
717.81	2.5
718.563	1.5
719.315	3.5
720.068	2.5
720.82	1.5
721.573	3.5
722.325	2.5
723.077	2.5
723.829	0.5
724.581	5.5
725.333	4.5
726.085	0.5
726.836	3.5
727.588	0.5
728.34	6.5
729.091	2.5
729.843	4.5
730.594	2.5
731.346	2.5
732.097	3.5
732.848	4.5
733.599	3.5
734.35	2.5
735.101	3.5
735.852	3.5
736.603	2.5
737.354	3.5
738.104	0.5
738.855	4.5
739.605	5.5
740.356	3.5
741.106	3.5
741.856	2.5
742.607	5.5
743.357	2.5
744.107	5.5
744.857	5.5
745.607	2.5
746.357	6.5
747.106	3.5
747.856	2.5
748.606	3.5
749.355	5.5
750.105	4.5
750.854	2.5
751.603	4.5
752.353	2.5
753.102	4.5
753.851	4.5
754.6	5.5
755.349	5.5
756.098	3.5
756.847	4.5
757.595	4.5
758.344	4.5
759.093	6.5
759.841	4.5
760.589	4.5
761.338	3.5
762.086	6.5
762.834	4.5
763.582	4.5
764.331	5.5
765.079	4.5
765.826	4.5
766.574	3.5
767.322	5.5
768.07	4.5
768.817	6.5
769.565	6.5
770.312	7.5
771.06	4.5
771.807	6.5
772.554	5.5
773.302	8.5
774.049	5.5
774.796	7.5
775.543	5.5
776.29	8.5
777.036	5.5
777.783	6.5
778.53	9.5
779.276	5.5
780.023	6.5
780.769	6.5
781.516	7.5
782.262	6.5
783.008	7.5
783.754	7.5
784.5	8.5
785.246	8.5
785.992	6.5
786.738	8.5
787.484	7.5
788.23	6.5
788.975	6.5
789.721	5.5
790.466	7.5
791.212	9.5
791.957	6.5
792.702	7.5
793.447	8.5
794.193	5.5
794.938	6.5
795.683	7.5
796.427	7.5
797.172	4.5
797.917	6.5
798.662	8.5
799.406	8.5
800.151	8.5
800.895	7.5
801.64	6.5
802.384	7.5
803.128	8.5
803.872	7.5
804.616	7.5
805.36	4.5
806.104	4.5
806.848	6.5
807.592	5.5
808.336	4.5
809.079	3.5
809.823	4.5
810.566	4.5
811.31	5.5
812.053	5.5
812.796	3.5
813.539	2.5
814.283	2.5
815.026	6.5
815.769	3.5
816.511	4.5
817.254	7.5
817.997	4.5
818.74	5.5
819.482	4.5
820.225	2.5
820.967	2.5
821.71	3.5
822.452	3.5
823.194	3.5
823.936	4.5
824.678	0.5
825.42	5.5
826.162	3.5
826.904	3.5
827.646	5.5
828.388	2.5
829.129	1.5
829.871	4.5
830.612	4.5
831.354	4.5
832.095	2.5
832.836	1.5
833.577	2.5
834.319	4.5
835.06	2.5
835.801	3.5
836.542	3.5
837.282	4.5
838.023	1.5
838.764	2.5
839.504	4.5
840.245	2.5
840.985	4.5
841.726	3.5
842.466	3.5
843.206	3.5
843.946	3.5
844.687	3.5
845.427	0.5
846.166	3.5
846.906	2.5
847.646	0.5
848.386	1.5
849.125	0.5
849.865	2.5
850.605	2.5
851.344	1.5
852.083	1.5
852.823	1.5
853.562	1.5
854.301	1.5
855.04	2.5
855.779	1.5
856.518	1.5
857.257	0.5
857.995	-0.5
858.734	2.5
859.473	2.5
860.211	5.5
860.95	0.5
861.688	-1.5
862.426	2.5
863.165	1.5
863.903	2.5
864.641	-0.5
865.379	0.5
866.117	2.5
866.855	1.5
867.593	2.5
868.33	-0.5
869.068	1.5
869.806	0.5
870.543	-3.5
871.28	1.5
872.018	1.5
872.755	3.5
873.492	1.5
874.229	3.5
874.967	-0.5
875.703	-0.5
876.44	1.5
877.177	0.5
877.914	1.5
878.651	3.5
879.387	0.5
880.124	1.5
880.86	0.5
881.597	0.5
882.333	0.5
883.069	1.5
883.806	-1.5
884.542	-1.5
885.278	0.5
886.014	-0.5
886.749	-1.5
887.485	-1.5
888.221	2.5
888.957	1.5
889.692	-0.5
890.428	1.5
891.163	-1.5
891.899	0.5
892.634	-0.5
893.369	-0.5
894.104	-0.5
894.839	1.5
895.574	0.5
896.309	0.5
897.044	0.5
897.779	-2.5
898.514	1.5
899.248	1.5
899.983	-1.5
900.717	-0.5
901.452	1.5
902.186	3.5
902.92	-1.5
903.654	1.5
904.389	0.5
905.123	-0.5
905.857	0.5
906.59	0.5
907.324	0.5
908.058	0.5
908.792	0.5
909.525	-2.5
910.259	0.5
910.992	0.5
911.726	-2.5
912.459	1.5
913.192	-2.5
913.925	0.5
914.658	-1.5
915.391	-0.5
916.124	0.5
916.857	-2.5
917.59	0.5
918.323	-0.5
919.055	0.5
919.788	0.5
920.521	-0.5
921.253	1.5
921.985	-0.5
922.718	2.5
923.45	-1.5
924.182	-0.5
924.914	-1.5
925.646	-3.5
926.378	-0.5
927.11	0.5
927.841	1.5
928.573	0.5
929.305	-1.5
930.036	-0.5
930.768	0.5
931.499	0.5
932.23	1.5
932.962	-0.5
933.693	-1.5
934.424	-1.5
935.155	0.5
935.886	-1.5
936.617	0.5
937.348	-0.5
938.078	-1.5
938.809	1.5
939.54	-1.5
940.27	0.5
941.001	-1.5
941.731	0.5
942.461	0.5
943.191	0.5
943.922	-0.5
944.652	-0.5
945.382	0.5
946.112	-0.5
946.841	0.5
947.571	-1.5
948.301	0.5
949.031	-0.5
949.76	1.5
950.49	-0.5
951.219	-1.5
951.948	-0.5
952.678	-0.5
953.407	0.5
954.136	0.5
954.865	0.5
955.594	0.5
956.323	0.5
957.052	-0.5
957.78	-0.5
958.509	-1.5
959.238	-0.5
959.966	-2.5
960.695	0.5
961.423	-1.5
962.151	-1.5
962.88	0.5
963.608	-1.5
964.336	0.5
965.064	-0.5
965.792	-0.5
966.52	-1.5
967.247	-2.5
967.975	0.5
968.703	-1.5
969.43	-1.5
970.158	-1.5
970.885	-2.5
971.613	-0.5
972.34	0.5
973.067	1.5
973.794	-2.5
974.521	-0.5
975.248	-0.5
975.975	0.5
976.702	1.5
977.429	1.5
978.156	0.5
978.882	0.5
979.609	1.5
980.335	-0.5
981.062	0.5
981.788	0.5
982.514	0.5
983.24	0.5
983.967	-0.5
984.693	-0.5
985.419	0.5
986.144	0.5
986.87	0.5
987.596	1.5
988.322	-1.5
989.047	0.5
989.773	1.5
990.498	-1.5
991.224	-0.5
991.949	-0.5
992.674	-1.5
993.399	-1.5
994.124	-0.5
994.849	0.5
995.574	-2.5
996.299	-1.5
997.024	0.5
997.749	-0.5
998.473	0.5
999.198	-1.5
999.922	0.5
1000.647	0.5
1001.371	2.5
1002.095	-0.5
1002.82	-0.5
1003.544	-1.5
1004.268	0.5
1004.992	2.5
1005.716	0.5
1006.439	0.5
1007.163	0.5
1007.887	3.5
1008.611	-0.5
1009.334	0.5
1010.058	0.5
1010.781	-0.5
1011.504	1.5
1012.228	-0.5
1012.951	0.5
1013.674	0.5
1014.397	0.5
1015.12	-1.5
