节点500_285_QEPB04081__714__15-07-25-818.txt的数据

Date: Wed Nov 12 15:07:25 CST 2025
User: PC
Spectrometer: QEPB0408
触发模式: 0
积分时间 (秒): 1.000000E-2
Scans to average: 1
启用暗噪声校正: true
启用非线性校正: false
滑动平均宽度: 0
X轴模式: Wavelengths
Number of Pixels in Spectrum: 1044
>>>>>Begin Spectral Data<<<<<
220.843	2
221.644	1
222.444	3
223.244	2
224.045	5
224.845	1
225.645	0
226.445	2
227.245	3
228.045	5
228.845	1
229.645	2
230.444	2
231.244	3
232.043	2
232.843	2
233.642	3
234.442	4
235.241	5
236.04	5
236.839	0
237.638	5
238.437	1
239.236	3
240.035	2
240.833	4
241.632	3
242.43	4
243.229	6
244.027	5
244.826	3
245.624	6
246.422	5
247.22	6
248.018	7
248.816	7
249.614	6
250.412	5
251.21	9
252.007	5
252.805	5
253.602	8
254.4	8
255.197	6
255.994	5
256.791	10
257.589	6
258.386	8
259.183	8
259.979	10
260.776	8
261.573	9
262.37	7
263.166	7
263.963	11
264.759	11
265.556	10
266.352	12
267.148	12
267.944	13
268.74	9
269.536	13
270.332	11
271.128	14
271.924	12
272.719	16
273.515	17
274.311	16
275.106	17
275.901	13
276.697	14
277.492	16
278.287	18
279.082	15
279.877	16
280.672	15
281.467	17
282.262	17
283.056	18
283.851	14
284.646	18
285.44	16
286.234	20
287.029	19
287.823	17
288.617	19
289.411	17
290.205	17
290.999	16
291.793	19
292.587	13
293.381	15
294.174	15
294.968	18
295.761	13
296.555	17
297.348	14
298.141	16
298.935	14
299.728	13
300.521	14
301.314	13
302.107	13
302.899	12
303.692	10
304.485	13
305.277	13
306.07	12
306.862	14
307.655	15
308.447	12
309.239	14
310.031	12
310.823	9
311.615	10
312.407	11
313.199	9
313.991	8
314.783	9
315.574	7
316.366	9
317.157	9
317.949	7
318.74	9
319.531	9
320.322	9
321.113	7
321.904	8
322.695	6
323.486	9
324.277	7
325.068	7
325.858	9
326.649	6
327.439	7
328.23	6
329.02	7
329.81	7
330.6	9
331.391	7
332.181	6
332.971	7
333.76	8
334.55	5
335.34	9
336.13	7
336.919	5
337.709	6
338.498	7
339.287	9
340.077	2
340.866	4
341.655	5
342.444	7
343.233	6
344.022	8
344.811	5
345.6	6
346.388	6
347.177	6
347.965	7
348.754	6
349.542	7
350.33	5
351.119	5
351.907	6
352.695	4
353.483	4
354.271	6
355.059	7
355.846	5
356.634	7
357.422	6
358.209	4
358.997	4
359.784	6
360.571	4
361.359	8
362.146	3
362.933	6
363.72	6
364.507	4
365.294	4
366.081	5
366.867	4
367.654	5
368.44	5
369.227	6
370.013	5
370.8	5
371.586	4
372.372	4
373.158	5
373.944	3
374.73	6
375.516	5
376.302	6
377.088	3
377.873	3
378.659	7
379.445	4
380.23	6
381.015	7
381.801	7
382.586	3
383.371	6
384.156	4
384.941	4
385.726	4
386.511	7
387.296	5
388.08	6
388.865	4
389.649	7
390.434	5
391.218	4
392.003	3
392.787	6
393.571	4
394.355	6
395.139	6
395.923	4
396.707	6
397.491	4
398.274	8
399.058	6
399.842	5
400.625	4
401.408	5
402.192	8
402.975	4
403.758	8
404.541	8
405.324	6
406.107	6
406.89	6
407.673	7
408.456	9
409.238	6
410.021	11
410.803	9
411.586	10
412.368	7
413.151	11
413.933	10
414.715	6
415.497	13
416.279	7
417.061	9
417.843	9
418.624	10
419.406	8
420.188	10
420.969	10
421.751	8
422.532	14
423.313	9
424.095	11
424.876	9
425.657	9
426.438	12
427.219	10
428	13
428.78	10
429.561	11
430.342	12
431.122	12
431.903	15
432.683	12
433.464	18
434.244	17
435.024	15
435.804	20
436.584	19
437.364	18
438.144	20
438.924	20
439.704	22
440.483	25
441.263	24
442.042	22
442.822	30
443.601	28
444.38	28
445.16	33
445.939	34
446.718	38
447.497	44
448.276	45
449.054	47
449.833	50
450.612	56
451.391	64
452.169	69
452.948	73
453.726	83
454.504	90
455.282	96
456.061	112
456.839	121
457.617	137
458.395	153
459.172	168
459.95	185
460.728	204
461.506	233
462.283	252
463.061	286
463.838	318
464.615	354
465.393	401
466.17	428
466.947	481
467.724	537
468.501	603
469.278	658
470.055	723
470.831	810
471.608	893
472.385	998
473.161	1087
473.938	1208
474.714	1326
475.49	1461
476.266	1593
477.043	1760
477.819	1938
478.595	2119
479.371	2320
480.146	2533
480.922	2797
481.698	3085
482.473	3356
483.249	3654
484.024	4015
484.8	4362
485.575	4752
486.35	5195
487.126	5662
487.901	6138
488.676	6706
489.451	7310
490.225	7950
491	8609
491.775	9388
492.55	10202
493.324	10976
494.099	11809
494.873	12649
495.647	13644
496.422	14618
497.196	15624
497.97	16734
498.744	17733
499.518	18774
500.292	19862
501.066	20872
501.839	21826
502.613	22700
503.387	23452
504.16	24204
504.934	24726
505.707	25013
506.48	25226
507.253	25401
508.027	25330
508.8	25207
509.573	25115
510.346	24778
511.118	24176
511.891	23657
512.664	22912
513.437	22279
514.209	21448
514.982	20711
515.754	19891
516.526	19043
517.298	18255
518.071	17535
518.843	16875
519.615	16262
520.387	15580
521.159	14995
521.93	14392
522.702	13834
523.474	13278
524.245	12684
525.017	12148
525.788	11751
526.56	11210
527.331	10658
528.102	10272
528.873	9790
529.644	9302
530.415	8920
531.186	8489
531.957	8053
532.728	7695
533.498	7292
534.269	6900
535.039	6521
535.81	6215
536.58	5848
537.351	5504
538.121	5212
538.891	4961
539.661	4695
540.431	4411
541.201	4162
541.971	3958
542.741	3746
543.51	3550
544.28	3394
545.05	3236
545.819	3052
546.588	2919
547.358	2768
548.127	2633
548.896	2509
549.665	2380
550.434	2252
551.203	2154
551.972	2032
552.741	1918
553.51	1814
554.278	1710
555.047	1626
555.815	1524
556.584	1455
557.352	1365
558.121	1300
558.889	1221
559.657	1158
560.425	1097
561.193	1029
561.961	977
562.729	927
563.496	870
564.264	812
565.032	784
565.799	735
566.567	686
567.334	652
568.101	624
568.869	585
569.636	555
570.403	519
571.17	490
571.937	459
572.704	435
573.471	411
574.237	392
575.004	374
575.771	345
576.537	326
577.303	305
578.07	293
578.836	276
579.602	253
580.368	248
581.134	235
581.9	221
582.666	205
583.432	196
584.198	184
584.964	177
585.729	163
586.495	158
587.26	147
588.025	144
588.791	134
589.556	129
590.321	121
591.086	116
591.851	105
592.616	104
593.381	97
594.146	91
594.911	90
595.675	85
596.44	84
597.204	78
597.969	76
598.733	73
599.497	67
600.261	66
601.025	61
601.79	60
602.553	57
603.317	53
604.081	53
604.845	49
605.609	46
606.372	46
607.136	41
607.899	43
608.662	37
609.426	36
610.189	33
610.952	35
611.715	34
612.478	32
613.241	29
614.004	30
614.767	31
615.529	26
616.292	28
617.055	26
617.817	24
618.579	24
619.342	26
620.104	24
620.866	23
621.628	22
622.39	20
623.152	18
623.914	18
624.676	20
625.438	18
626.199	18
626.961	17
627.722	16
628.484	17
629.245	14
630.006	14
630.768	13
631.529	13
632.29	13
633.051	14
633.812	13
634.573	12
635.333	12
636.094	11
636.855	11
637.615	11
638.376	12
639.136	12
639.896	11
640.657	11
641.417	7
642.177	12
642.937	9
643.697	8
644.457	7
645.216	8
645.976	9
646.736	10
647.495	9
648.255	8
649.014	8
649.774	9
650.533	7
651.292	6
652.051	6
652.81	4
653.569	8
654.328	7
655.087	5
655.846	5
656.604	6
657.363	7
658.121	7
658.88	5
659.638	5
660.397	7
661.155	6
661.913	7
662.671	5
663.429	4
664.187	4
664.945	4
665.703	4
666.46	5
667.218	6
667.976	4
668.733	7
669.49	6
670.248	6
671.005	6
671.762	5
672.519	5
673.276	2
674.033	4
674.79	5
675.547	5
676.304	4
677.06	5
677.817	5
678.574	5
679.33	2
680.086	6
680.843	5
681.599	3
682.355	4
683.111	6
683.867	4
684.623	4
685.379	4
686.135	5
686.89	5
687.646	3
688.402	3
689.157	5
689.912	5
690.668	4
691.423	3
692.178	5
692.933	2
693.688	5
694.443	3
695.198	5
695.953	4
696.708	4
697.462	4
698.217	3
698.972	3
699.726	3
700.48	5
701.235	4
701.989	2
702.743	1
703.497	3
704.251	5
705.005	4
705.759	4
706.513	3
707.266	4
708.02	3
708.774	3
709.527	5
710.28	5
711.034	2
711.787	3
712.54	4
713.293	3
714.046	5
714.799	4
715.552	2
716.305	2
717.058	2
717.81	3
718.563	4
719.315	3
720.068	4
720.82	4
721.573	2
722.325	5
723.077	1
723.829	4
724.581	4
725.333	1
726.085	4
726.836	4
727.588	6
728.34	4
729.091	6
729.843	5
730.594	2
731.346	3
732.097	2
732.848	3
733.599	2
734.35	4
735.101	4
735.852	2
736.603	4
737.354	4
738.104	5
738.855	3
739.605	5
740.356	6
741.106	5
741.856	4
742.607	4
743.357	3
744.107	4
744.857	7
745.607	6
746.357	4
747.106	7
747.856	4
748.606	6
749.355	3
750.105	6
750.854	7
751.603	5
752.353	4
753.102	6
753.851	5
754.6	5
755.349	4
756.098	6
756.847	5
757.595	10
758.344	5
759.093	4
759.841	7
760.589	5
761.338	8
762.086	5
762.834	6
763.582	6
764.331	6
765.079	7
765.826	6
766.574	7
767.322	7
768.07	7
768.817	5
769.565	4
770.312	7
771.06	9
771.807	6
772.554	7
773.302	8
774.049	4
774.796	8
775.543	8
776.29	7
777.036	8
777.783	8
778.53	8
779.276	9
780.023	6
780.769	8
781.516	9
782.262	7
783.008	8
783.754	6
784.5	7
785.246	6
785.992	8
786.738	7
787.484	8
788.23	9
788.975	8
789.721	9
790.466	7
791.212	8
791.957	7
792.702	8
793.447	8
794.193	8
794.938	8
795.683	7
796.427	7
797.172	6
797.917	7
798.662	6
799.406	7
800.151	8
800.895	7
801.64	6
802.384	9
803.128	9
803.872	7
804.616	7
805.36	6
806.104	6
806.848	7
807.592	6
808.336	7
809.079	7
809.823	5
810.566	6
811.31	6
812.053	2
812.796	7
813.539	5
814.283	6
815.026	4
815.769	7
816.511	7
817.254	3
817.997	2
818.74	4
819.482	4
820.225	5
820.967	6
821.71	6
822.452	4
823.194	4
823.936	2
824.678	4
825.42	4
826.162	5
826.904	2
827.646	4
828.388	4
829.129	4
829.871	2
830.612	3
831.354	3
832.095	6
832.836	3
833.577	4
834.319	4
835.06	5
835.801	3
836.542	4
837.282	3
838.023	0
838.764	5
839.504	2
840.245	3
840.985	2
841.726	1
842.466	2
843.206	5
843.946	2
844.687	3
845.427	2
846.166	3
846.906	6
847.646	3
848.386	4
849.125	4
849.865	3
850.605	0
851.344	4
852.083	1
852.823	4
853.562	2
854.301	4
855.04	2
855.779	1
856.518	3
857.257	2
857.995	1
858.734	2
859.473	2
860.211	2
860.95	3
861.688	3
862.426	0
863.165	1
863.903	3
864.641	3
865.379	1
866.117	0
866.855	1
867.593	3
868.33	0
869.068	1
869.806	1
870.543	2
871.28	-2
872.018	3
872.755	1
873.492	3
874.229	1
874.967	3
875.703	2
876.44	1
877.177	0
877.914	1
878.651	-1
879.387	2
880.124	1
880.86	0
881.597	-2
882.333	1
883.069	2
883.806	2
884.542	2
885.278	-3
886.014	2
886.749	0
887.485	2
888.221	2
888.957	0
889.692	0
890.428	1
891.163	3
891.899	1
892.634	0
893.369	0
894.104	3
894.839	0
895.574	0
896.309	1
897.044	0
897.779	1
898.514	1
899.248	2
899.983	1
900.717	1
901.452	1
902.186	0
902.92	1
903.654	0
904.389	-1
905.123	2
905.857	0
906.59	1
907.324	1
908.058	0
908.792	1
909.525	-1
910.259	1
910.992	1
911.726	2
912.459	-1
913.192	1
913.925	-1
914.658	2
915.391	0
916.124	0
916.857	-2
917.59	0
918.323	-1
919.055	3
919.788	0
920.521	2
921.253	2
921.985	1
922.718	0
923.45	0
924.182	2
924.914	2
925.646	1
926.378	-1
927.11	1
927.841	1
928.573	0
929.305	-1
930.036	-2
930.768	-2
931.499	2
932.23	1
932.962	-1
933.693	0
934.424	0
935.155	0
935.886	-1
936.617	-1
937.348	0
938.078	1
938.809	2
939.54	1
940.27	1
941.001	1
941.731	3
942.461	0
943.191	1
943.922	1
944.652	0
945.382	0
946.112	1
946.841	-1
947.571	-2
948.301	1
949.031	-2
949.76	3
950.49	1
951.219	0
951.948	2
952.678	0
953.407	1
954.136	-1
954.865	0
955.594	1
956.323	2
957.052	1
957.78	-2
958.509	1
959.238	0
959.966	0
960.695	2
961.423	1
962.151	0
962.88	-2
963.608	2
964.336	0
965.064	2
965.792	-1
966.52	-1
967.247	0
967.975	-2
968.703	-2
969.43	1
970.158	0
970.885	-1
971.613	0
972.34	1
973.067	0
973.794	3
974.521	1
975.248	-1
975.975	2
976.702	-1
977.429	0
978.156	-2
978.882	0
979.609	-1
980.335	0
981.062	3
981.788	2
982.514	1
983.24	-1
983.967	1
984.693	-1
985.419	-2
986.144	1
986.87	-1
987.596	0
988.322	0
989.047	0
989.773	1
990.498	2
991.224	2
991.949	0
992.674	1
993.399	0
994.124	-1
994.849	-1
995.574	0
996.299	1
997.024	0
997.749	1
998.473	1
999.198	0
999.922	1
1000.647	0
1001.371	5
1002.095	-1
1002.82	-1
1003.544	-2
1004.268	1
1004.992	2
1005.716	0
1006.439	2
1007.163	2
1007.887	3
1008.611	0
1009.334	-1
1010.058	-1
1010.781	1
1011.504	0
1012.228	0
1012.951	0
1013.674	1
1014.397	-1
1015.12	-1
