节点500_285_QEPB04081__527__15-04-19-326.txt的数据

Date: Wed Nov 12 15:04:19 CST 2025
User: PC
Spectrometer: QEPB0408
触发模式: 0
积分时间 (秒): 1.000000E-2
Scans to average: 1
启用暗噪声校正: true
启用非线性校正: false
滑动平均宽度: 0
X轴模式: Wavelengths
Number of Pixels in Spectrum: 1044
>>>>>Begin Spectral Data<<<<<
220.843	3.88
221.644	3.88
222.444	0.88
223.244	2.88
224.045	3.88
224.845	1.88
225.645	0.88
226.445	2.88
227.245	1.88
228.045	2.88
228.845	4.88
229.645	0.88
230.444	3.88
231.244	2.88
232.043	5.88
232.843	5.88
233.642	2.88
234.442	5.88
235.241	3.88
236.04	4.88
236.839	4.88
237.638	5.88
238.437	2.88
239.236	4.88
240.035	5.88
240.833	6.88
241.632	4.88
242.43	5.88
243.229	5.88
244.027	4.88
244.826	3.88
245.624	6.88
246.422	5.88
247.22	6.88
248.018	6.88
248.816	6.88
249.614	5.88
250.412	5.88
251.21	8.88
252.007	6.88
252.805	5.88
253.602	8.88
254.4	8.88
255.197	9.88
255.994	6.88
256.791	10.88
257.589	10.88
258.386	10.88
259.183	9.88
259.979	8.88
260.776	11.88
261.573	7.88
262.37	12.88
263.166	11.88
263.963	11.88
264.759	13.88
265.556	11.88
266.352	11.88
267.148	13.88
267.944	13.88
268.74	16.88
269.536	15.88
270.332	16.88
271.128	13.88
271.924	14.88
272.719	13.88
273.515	13.88
274.311	16.88
275.106	18.88
275.901	18.88
276.697	18.88
277.492	16.88
278.287	17.88
279.082	16.88
279.877	18.88
280.672	17.88
281.467	17.88
282.262	18.88
283.056	18.88
283.851	20.88
284.646	19.88
285.44	21.88
286.234	17.88
287.029	17.88
287.823	18.88
288.617	17.88
289.411	18.88
290.205	18.88
290.999	18.88
291.793	18.88
292.587	15.88
293.381	18.88
294.174	18.88
294.968	18.88
295.761	13.88
296.555	15.88
297.348	14.88
298.141	17.88
298.935	15.88
299.728	17.88
300.521	14.88
301.314	13.88
302.107	13.88
302.899	13.88
303.692	13.88
304.485	11.88
305.277	14.88
306.07	13.88
306.862	12.88
307.655	13.88
308.447	12.88
309.239	13.88
310.031	15.88
310.823	11.88
311.615	12.88
312.407	9.88
313.199	11.88
313.991	10.88
314.783	10.88
315.574	13.88
316.366	10.88
317.157	7.88
317.949	7.88
318.74	9.88
319.531	9.88
320.322	8.88
321.113	8.88
321.904	8.88
322.695	9.88
323.486	9.88
324.277	7.88
325.068	8.88
325.858	6.88
326.649	9.88
327.439	7.88
328.23	6.88
329.02	9.88
329.81	8.88
330.6	5.88
331.391	7.88
332.181	8.88
332.971	5.88
333.76	10.88
334.55	7.88
335.34	7.88
336.13	8.88
336.919	4.88
337.709	7.88
338.498	6.88
339.287	9.88
340.077	4.88
340.866	7.88
341.655	6.88
342.444	5.88
343.233	8.88
344.022	7.88
344.811	5.88
345.6	4.88
346.388	5.88
347.177	6.88
347.965	5.88
348.754	6.88
349.542	6.88
350.33	4.88
351.119	6.88
351.907	4.88
352.695	7.88
353.483	7.88
354.271	5.88
355.059	7.88
355.846	4.88
356.634	5.88
357.422	4.88
358.209	6.88
358.997	7.88
359.784	5.88
360.571	7.88
361.359	6.88
362.146	4.88
362.933	3.88
363.72	7.88
364.507	7.88
365.294	4.88
366.081	7.88
366.867	3.88
367.654	5.88
368.44	4.88
369.227	5.88
370.013	6.88
370.8	4.88
371.586	6.88
372.372	4.88
373.158	5.88
373.944	2.88
374.73	5.88
375.516	9.88
376.302	8.88
377.088	4.88
377.873	5.88
378.659	4.88
379.445	4.88
380.23	5.88
381.015	3.88
381.801	7.88
382.586	6.88
383.371	5.88
384.156	4.88
384.941	7.88
385.726	6.88
386.511	6.88
387.296	5.88
388.08	3.88
388.865	4.88
389.649	4.88
390.434	7.88
391.218	9.88
392.003	7.88
392.787	4.88
393.571	6.88
394.355	6.88
395.139	7.88
395.923	5.88
396.707	7.88
397.491	7.88
398.274	7.88
399.058	8.88
399.842	7.88
400.625	6.88
401.408	6.88
402.192	6.88
402.975	9.88
403.758	7.88
404.541	8.88
405.324	7.88
406.107	7.88
406.89	8.88
407.673	9.88
408.456	6.88
409.238	8.88
410.021	10.88
410.803	6.88
411.586	7.88
412.368	8.88
413.151	11.88
413.933	8.88
414.715	8.88
415.497	11.88
416.279	7.88
417.061	10.88
417.843	10.88
418.624	7.88
419.406	13.88
420.188	11.88
420.969	11.88
421.751	10.88
422.532	10.88
423.313	10.88
424.095	11.88
424.876	11.88
425.657	12.88
426.438	13.88
427.219	12.88
428	12.88
428.78	12.88
429.561	13.88
430.342	13.88
431.122	14.88
431.903	14.88
432.683	18.88
433.464	14.88
434.244	14.88
435.024	15.88
435.804	16.88
436.584	18.88
437.364	20.88
438.144	21.88
438.924	20.88
439.704	23.88
440.483	22.88
441.263	22.88
442.042	25.88
442.822	27.88
443.601	27.88
444.38	32.88
445.16	33.88
445.939	33.88
446.718	37.88
447.497	39.88
448.276	41.88
449.054	49.88
449.833	49.88
450.612	57.88
451.391	59.88
452.169	63.88
452.948	74.88
453.726	78.88
454.504	86.88
455.282	92.88
456.061	106.88
456.839	111.88
457.617	125.88
458.395	145.88
459.172	159.88
459.95	175.88
460.728	201.88
461.506	214.88
462.283	244.88
463.061	267.88
463.838	303.88
464.615	337.88
465.393	377.88
466.17	413.88
466.947	465.88
467.724	522.88
468.501	574.88
469.278	636.88
470.055	722.88
470.831	784.88
471.608	889.88
472.385	972.88
473.161	1062.88
473.938	1186.88
474.714	1319.88
475.49	1459.88
476.266	1591.88
477.043	1749.88
477.819	1939.88
478.595	2117.88
479.371	2345.88
480.146	2569.88
480.922	2835.88
481.698	3110.88
482.473	3415.88
483.249	3751.88
484.024	4125.88
484.8	4522.88
485.575	4945.88
486.35	5391.88
487.126	5915.88
487.901	6470.88
488.676	7102.88
489.451	7717.88
490.225	8454.88
491	9159.88
491.775	10050.88
492.55	10929.88
493.324	11810.88
494.099	12656.88
494.873	13659.88
495.647	14730.88
496.422	15813.88
497.196	16909.88
497.97	18104.88
498.744	19158.88
499.518	20283.88
500.292	21447.88
501.066	22466.88
501.839	23404.88
502.613	24354.88
503.387	25104.88
504.16	25765.88
504.934	26165.88
505.707	26426.88
506.48	26609.88
507.253	26595.88
508.027	26336.88
508.8	26192.88
509.573	25920.88
510.346	25375.88
511.118	24747.88
511.891	24038.88
512.664	23379.88
513.437	22511.88
514.209	21624.88
514.982	20791.88
515.754	19872.88
516.526	18998.88
517.298	18219.88
518.071	17397.88
518.843	16755.88
519.615	16101.88
520.387	15566.88
521.159	14838.88
521.93	14288.88
522.702	13705.88
523.474	13166.88
524.245	12542.88
525.017	12114.88
525.788	11595.88
526.56	11063.88
527.331	10568.88
528.102	10095.88
528.873	9691.88
529.644	9203.88
530.415	8743.88
531.186	8320.88
531.957	7920.88
532.728	7514.88
533.498	7150.88
534.269	6726.88
535.039	6386.88
535.81	6034.88
536.58	5705.88
537.351	5362.88
538.121	5068.88
538.891	4803.88
539.661	4536.88
540.431	4282.88
541.201	4053.88
541.971	3826.88
542.741	3629.88
543.51	3456.88
544.28	3293.88
545.05	3134.88
545.819	2966.88
546.588	2814.88
547.358	2678.88
548.127	2547.88
548.896	2429.88
549.665	2307.88
550.434	2168.88
551.203	2056.88
551.972	1969.88
552.741	1852.88
553.51	1754.88
554.278	1651.88
555.047	1564.88
555.815	1465.88
556.584	1392.88
557.352	1314.88
558.121	1236.88
558.889	1174.88
559.657	1119.88
560.425	1054.88
561.193	978.88
561.961	940.88
562.729	886.88
563.496	829.88
564.264	784.88
565.032	752.88
565.799	706.88
566.567	674.88
567.334	628.88
568.101	598.88
568.869	563.88
569.636	521.88
570.403	494.88
571.17	470.88
571.937	442.88
572.704	422.88
573.471	395.88
574.237	370.88
575.004	351.88
575.771	332.88
576.537	310.88
577.303	288.88
578.07	278.88
578.836	255.88
579.602	248.88
580.368	226.88
581.134	216.88
581.9	208.88
582.666	200.88
583.432	189.88
584.198	174.88
584.964	168.88
585.729	162.88
586.495	145.88
587.26	149.88
588.025	135.88
588.791	127.88
589.556	124.88
590.321	115.88
591.086	108.88
591.851	101.88
592.616	96.88
593.381	90.88
594.146	87.88
594.911	84.88
595.675	82.88
596.44	79.88
597.204	77.88
597.969	72.88
598.733	69.88
599.497	63.88
600.261	60.88
601.025	57.88
601.79	54.88
602.553	52.88
603.317	50.88
604.081	46.88
604.845	50.88
605.609	45.88
606.372	42.88
607.136	41.88
607.899	44.88
608.662	40.88
609.426	34.88
610.189	34.88
610.952	32.88
611.715	34.88
612.478	33.88
613.241	30.88
614.004	26.88
614.767	30.88
615.529	26.88
616.292	28.88
617.055	21.88
617.817	25.88
618.579	26.88
619.342	24.88
620.104	24.88
620.866	23.88
621.628	20.88
622.39	18.88
623.152	20.88
623.914	19.88
624.676	18.88
625.438	18.88
626.199	17.88
626.961	15.88
627.722	16.88
628.484	18.88
629.245	15.88
630.006	16.88
630.768	13.88
631.529	15.88
632.29	13.88
633.051	12.88
633.812	14.88
634.573	13.88
635.333	11.88
636.094	11.88
636.855	11.88
637.615	11.88
638.376	10.88
639.136	12.88
639.896	10.88
640.657	12.88
641.417	12.88
642.177	8.88
642.937	11.88
643.697	8.88
644.457	8.88
645.216	8.88
645.976	8.88
646.736	8.88
647.495	9.88
648.255	8.88
649.014	9.88
649.774	6.88
650.533	10.88
651.292	7.88
652.051	8.88
652.81	6.88
653.569	8.88
654.328	5.88
655.087	7.88
655.846	9.88
656.604	6.88
657.363	5.88
658.121	7.88
658.88	7.88
659.638	6.88
660.397	4.88
661.155	8.88
661.913	5.88
662.671	5.88
663.429	5.88
664.187	6.88
664.945	5.88
665.703	4.88
666.46	6.88
667.218	4.88
667.976	5.88
668.733	5.88
669.49	4.88
670.248	5.88
671.005	3.88
671.762	7.88
672.519	1.88
673.276	4.88
674.033	4.88
674.79	2.88
675.547	5.88
676.304	5.88
677.06	7.88
677.817	5.88
678.574	6.88
679.33	5.88
680.086	3.88
680.843	5.88
681.599	5.88
682.355	6.88
683.111	3.88
683.867	3.88
684.623	2.88
685.379	4.88
686.135	5.88
686.89	2.88
687.646	5.88
688.402	4.88
689.157	5.88
689.912	4.88
690.668	2.88
691.423	4.88
692.178	4.88
692.933	5.88
693.688	3.88
694.443	3.88
695.198	3.88
695.953	3.88
696.708	5.88
697.462	5.88
698.217	2.88
698.972	2.88
699.726	3.88
700.48	2.88
701.235	5.88
701.989	2.88
702.743	3.88
703.497	2.88
704.251	3.88
705.005	5.88
705.759	4.88
706.513	5.88
707.266	6.88
708.02	5.88
708.774	3.88
709.527	5.88
710.28	4.88
711.034	4.88
711.787	5.88
712.54	3.88
713.293	4.88
714.046	2.88
714.799	3.88
715.552	4.88
716.305	5.88
717.058	4.88
717.81	3.88
718.563	4.88
719.315	5.88
720.068	3.88
720.82	4.88
721.573	5.88
722.325	2.88
723.077	5.88
723.829	3.88
724.581	4.88
725.333	3.88
726.085	2.88
726.836	1.88
727.588	6.88
728.34	4.88
729.091	5.88
729.843	4.88
730.594	2.88
731.346	4.88
732.097	4.88
732.848	2.88
733.599	4.88
734.35	7.88
735.101	3.88
735.852	5.88
736.603	6.88
737.354	4.88
738.104	6.88
738.855	4.88
739.605	3.88
740.356	5.88
741.106	5.88
741.856	5.88
742.607	4.88
743.357	6.88
744.107	6.88
744.857	6.88
745.607	5.88
746.357	5.88
747.106	6.88
747.856	6.88
748.606	5.88
749.355	5.88
750.105	5.88
750.854	6.88
751.603	6.88
752.353	4.88
753.102	6.88
753.851	7.88
754.6	5.88
755.349	8.88
756.098	5.88
756.847	6.88
757.595	4.88
758.344	7.88
759.093	6.88
759.841	4.88
760.589	5.88
761.338	5.88
762.086	5.88
762.834	4.88
763.582	6.88
764.331	6.88
765.079	8.88
765.826	7.88
766.574	6.88
767.322	6.88
768.07	8.88
768.817	9.88
769.565	7.88
770.312	8.88
771.06	5.88
771.807	7.88
772.554	7.88
773.302	6.88
774.049	8.88
774.796	6.88
775.543	6.88
776.29	6.88
777.036	8.88
777.783	9.88
778.53	11.88
779.276	9.88
780.023	8.88
780.769	9.88
781.516	6.88
782.262	11.88
783.008	9.88
783.754	8.88
784.5	10.88
785.246	8.88
785.992	8.88
786.738	11.88
787.484	10.88
788.23	9.88
788.975	9.88
789.721	9.88
790.466	9.88
791.212	10.88
791.957	8.88
792.702	11.88
793.447	9.88
794.193	7.88
794.938	9.88
795.683	8.88
796.427	10.88
797.172	9.88
797.917	10.88
798.662	7.88
799.406	9.88
800.151	6.88
800.895	4.88
801.64	8.88
802.384	7.88
803.128	8.88
803.872	7.88
804.616	6.88
805.36	7.88
806.104	6.88
806.848	7.88
807.592	5.88
808.336	7.88
809.079	6.88
809.823	5.88
810.566	6.88
811.31	8.88
812.053	8.88
812.796	7.88
813.539	4.88
814.283	3.88
815.026	6.88
815.769	6.88
816.511	5.88
817.254	5.88
817.997	4.88
818.74	2.88
819.482	7.88
820.225	2.88
820.967	5.88
821.71	5.88
822.452	4.88
823.194	8.88
823.936	3.88
824.678	6.88
825.42	4.88
826.162	5.88
826.904	4.88
827.646	3.88
828.388	5.88
829.129	3.88
829.871	3.88
830.612	8.88
831.354	5.88
832.095	2.88
832.836	3.88
833.577	5.88
834.319	3.88
835.06	4.88
835.801	3.88
836.542	3.88
837.282	5.88
838.023	4.88
838.764	5.88
839.504	3.88
840.245	2.88
840.985	2.88
841.726	1.88
842.466	2.88
843.206	3.88
843.946	2.88
844.687	1.88
845.427	5.88
846.166	4.88
846.906	2.88
847.646	4.88
848.386	5.88
849.125	3.88
849.865	2.88
850.605	5.88
851.344	2.88
852.083	2.88
852.823	6.88
853.562	4.88
854.301	3.88
855.04	3.88
855.779	0.88
856.518	2.88
857.257	1.88
857.995	3.88
858.734	3.88
859.473	2.88
860.211	4.88
860.95	2.88
861.688	1.88
862.426	2.88
863.165	4.88
863.903	2.88
864.641	2.88
865.379	2.88
866.117	0.88
866.855	0.88
867.593	3.88
868.33	0.88
869.068	1.88
869.806	2.88
870.543	4.88
871.28	-1.12
872.018	2.88
872.755	1.88
873.492	0.88
874.229	2.88
874.967	2.88
875.703	2.88
876.44	2.88
877.177	4.88
877.914	3.88
878.651	1.88
879.387	0.88
880.124	1.88
880.86	1.88
881.597	0.88
882.333	2.88
883.069	0.88
883.806	0.88
884.542	2.88
885.278	0.88
886.014	2.88
886.749	2.88
887.485	2.88
888.221	1.88
888.957	2.88
889.692	3.88
890.428	0.88
891.163	1.88
891.899	1.88
892.634	0.88
893.369	2.88
894.104	2.88
894.839	3.88
895.574	1.88
896.309	1.88
897.044	2.88
897.779	0.88
898.514	1.88
899.248	0.88
899.983	1.88
900.717	0.88
901.452	0.88
902.186	-1.12
902.92	1.88
903.654	-0.12
904.389	-0.12
905.123	0.88
905.857	1.88
906.59	0.88
907.324	1.88
908.058	-0.12
908.792	2.88
909.525	0.88
910.259	0.88
910.992	-1.12
911.726	2.88
912.459	0.88
913.192	0.88
913.925	0.88
914.658	1.88
915.391	0.88
916.124	1.88
916.857	1.88
917.59	-1.12
918.323	-1.12
919.055	1.88
919.788	0.88
920.521	1.88
921.253	1.88
921.985	-0.12
922.718	-1.12
923.45	0.88
924.182	1.88
924.914	1.88
925.646	2.88
926.378	0.88
927.11	0.88
927.841	1.88
928.573	-1.12
929.305	0.88
930.036	0.88
930.768	-0.12
931.499	0.88
932.23	0.88
932.962	1.88
933.693	1.88
934.424	0.88
935.155	0.88
935.886	0.88
936.617	-0.12
937.348	2.88
938.078	1.88
938.809	0.88
939.54	-0.12
940.27	0.88
941.001	0.88
941.731	0.88
942.461	2.88
943.191	0.88
943.922	0.88
944.652	1.88
945.382	0.88
946.112	-0.12
946.841	0.88
947.571	1.88
948.301	1.88
949.031	2.88
949.76	-0.12
950.49	1.88
951.219	-0.12
951.948	0.88
952.678	1.88
953.407	2.88
954.136	0.88
954.865	2.88
955.594	-0.12
956.323	-1.12
957.052	-0.12
957.78	0.88
958.509	-0.12
959.238	-0.12
959.966	2.88
960.695	2.88
961.423	-1.12
962.151	1.88
962.88	-0.12
963.608	1.88
964.336	1.88
965.064	1.88
965.792	1.88
966.52	0.88
967.247	0.88
967.975	-1.12
968.703	0.88
969.43	2.88
970.158	-0.12
970.885	2.88
971.613	1.88
972.34	0.88
973.067	0.88
973.794	1.88
974.521	0.88
975.248	0.88
975.975	1.88
976.702	2.88
977.429	-0.12
978.156	-0.12
978.882	1.88
979.609	-0.12
980.335	0.88
981.062	0.88
981.788	-0.12
982.514	-1.12
983.24	2.88
983.967	-2.12
984.693	2.88
985.419	0.88
986.144	1.88
986.87	0.88
987.596	1.88
988.322	0.88
989.047	0.88
989.773	-0.12
990.498	1.88
991.224	1.88
991.949	1.88
992.674	2.88
993.399	2.88
994.124	1.88
994.849	0.88
995.574	1.88
996.299	2.88
997.024	-0.12
997.749	0.88
998.473	0.88
999.198	-0.12
999.922	1.88
1000.647	1.88
1001.371	1.88
1002.095	-1.12
1002.82	-0.12
1003.544	0.88
1004.268	3.88
1004.992	1.88
1005.716	2.88
1006.439	1.88
1007.163	2.88
1007.887	2.88
1008.611	0.88
1009.334	1.88
1010.058	0.88
1010.781	0.88
1011.504	1.88
1012.228	1.88
1012.951	-1.12
1013.674	1.88
1014.397	-0.12
1015.12	-2.12
