节点500_285_QEPB04081__637__15-06-09-060.txt的数据

Date: Wed Nov 12 15:06:09 CST 2025
User: PC
Spectrometer: QEPB0408
触发模式: 0
积分时间 (秒): 1.000000E-2
Scans to average: 1
启用暗噪声校正: true
启用非线性校正: false
滑动平均宽度: 0
X轴模式: Wavelengths
Number of Pixels in Spectrum: 1044
>>>>>Begin Spectral Data<<<<<
220.843	4.38
221.644	2.38
222.444	1.38
223.244	4.38
224.045	1.38
224.845	3.38
225.645	1.38
226.445	1.38
227.245	2.38
228.045	1.38
228.845	2.38
229.645	2.38
230.444	5.38
231.244	6.38
232.043	2.38
232.843	4.38
233.642	2.38
234.442	2.38
235.241	3.38
236.04	4.38
236.839	7.38
237.638	3.38
238.437	7.38
239.236	6.38
240.035	5.38
240.833	4.38
241.632	2.38
242.43	5.38
243.229	5.38
244.027	4.38
244.826	5.38
245.624	5.38
246.422	6.38
247.22	6.38
248.018	7.38
248.816	4.38
249.614	6.38
250.412	5.38
251.21	7.38
252.007	5.38
252.805	6.38
253.602	8.38
254.4	8.38
255.197	6.38
255.994	7.38
256.791	8.38
257.589	7.38
258.386	5.38
259.183	8.38
259.979	9.38
260.776	10.38
261.573	10.38
262.37	9.38
263.166	10.38
263.963	9.38
264.759	12.38
265.556	9.38
266.352	10.38
267.148	10.38
267.944	10.38
268.74	10.38
269.536	13.38
270.332	13.38
271.128	13.38
271.924	14.38
272.719	14.38
273.515	18.38
274.311	13.38
275.106	15.38
275.901	17.38
276.697	17.38
277.492	16.38
278.287	15.38
279.082	14.38
279.877	16.38
280.672	18.38
281.467	16.38
282.262	14.38
283.056	20.38
283.851	18.38
284.646	18.38
285.44	19.38
286.234	16.38
287.029	17.38
287.823	18.38
288.617	21.38
289.411	19.38
290.205	17.38
290.999	17.38
291.793	17.38
292.587	17.38
293.381	16.38
294.174	15.38
294.968	14.38
295.761	17.38
296.555	13.38
297.348	13.38
298.141	16.38
298.935	15.38
299.728	16.38
300.521	15.38
301.314	14.38
302.107	15.38
302.899	13.38
303.692	11.38
304.485	12.38
305.277	12.38
306.07	14.38
306.862	12.38
307.655	13.38
308.447	15.38
309.239	13.38
310.031	12.38
310.823	10.38
311.615	10.38
312.407	10.38
313.199	8.38
313.991	7.38
314.783	10.38
315.574	9.38
316.366	9.38
317.157	9.38
317.949	10.38
318.74	11.38
319.531	7.38
320.322	7.38
321.113	8.38
321.904	8.38
322.695	7.38
323.486	7.38
324.277	9.38
325.068	6.38
325.858	6.38
326.649	8.38
327.439	8.38
328.23	5.38
329.02	6.38
329.81	6.38
330.6	6.38
331.391	5.38
332.181	7.38
332.971	7.38
333.76	9.38
334.55	6.38
335.34	6.38
336.13	6.38
336.919	7.38
337.709	6.38
338.498	6.38
339.287	8.38
340.077	6.38
340.866	6.38
341.655	4.38
342.444	6.38
343.233	6.38
344.022	8.38
344.811	6.38
345.6	7.38
346.388	3.38
347.177	5.38
347.965	8.38
348.754	5.38
349.542	6.38
350.33	7.38
351.119	6.38
351.907	5.38
352.695	8.38
353.483	6.38
354.271	5.38
355.059	8.38
355.846	5.38
356.634	6.38
357.422	3.38
358.209	5.38
358.997	6.38
359.784	6.38
360.571	6.38
361.359	6.38
362.146	6.38
362.933	4.38
363.72	6.38
364.507	7.38
365.294	5.38
366.081	5.38
366.867	3.38
367.654	6.38
368.44	5.38
369.227	5.38
370.013	5.38
370.8	5.38
371.586	7.38
372.372	5.38
373.158	5.38
373.944	4.38
374.73	5.38
375.516	6.38
376.302	7.38
377.088	5.38
377.873	4.38
378.659	4.38
379.445	5.38
380.23	3.38
381.015	5.38
381.801	5.38
382.586	7.38
383.371	4.38
384.156	7.38
384.941	7.38
385.726	7.38
386.511	5.38
387.296	4.38
388.08	6.38
388.865	8.38
389.649	5.38
390.434	5.38
391.218	7.38
392.003	4.38
392.787	5.38
393.571	7.38
394.355	6.38
395.139	7.38
395.923	7.38
396.707	7.38
397.491	8.38
398.274	8.38
399.058	8.38
399.842	8.38
400.625	6.38
401.408	7.38
402.192	7.38
402.975	9.38
403.758	6.38
404.541	3.38
405.324	7.38
406.107	5.38
406.89	5.38
407.673	7.38
408.456	7.38
409.238	8.38
410.021	7.38
410.803	7.38
411.586	6.38
412.368	9.38
413.151	8.38
413.933	11.38
414.715	9.38
415.497	9.38
416.279	7.38
417.061	7.38
417.843	9.38
418.624	9.38
419.406	10.38
420.188	8.38
420.969	9.38
421.751	10.38
422.532	11.38
423.313	13.38
424.095	8.38
424.876	13.38
425.657	12.38
426.438	10.38
427.219	14.38
428	10.38
428.78	14.38
429.561	13.38
430.342	12.38
431.122	15.38
431.903	13.38
432.683	15.38
433.464	11.38
434.244	18.38
435.024	16.38
435.804	18.38
436.584	20.38
437.364	18.38
438.144	21.38
438.924	21.38
439.704	21.38
440.483	24.38
441.263	24.38
442.042	24.38
442.822	25.38
443.601	30.38
444.38	29.38
445.16	35.38
445.939	37.38
446.718	38.38
447.497	40.38
448.276	40.38
449.054	49.38
449.833	48.38
450.612	57.38
451.391	60.38
452.169	69.38
452.948	74.38
453.726	79.38
454.504	88.38
455.282	99.38
456.061	107.38
456.839	124.38
457.617	130.38
458.395	148.38
459.172	160.38
459.95	189.38
460.728	200.38
461.506	227.38
462.283	253.38
463.061	281.38
463.838	313.38
464.615	344.38
465.393	386.38
466.17	430.38
466.947	478.38
467.724	528.38
468.501	586.38
469.278	653.38
470.055	720.38
470.831	801.38
471.608	879.38
472.385	985.38
473.161	1076.38
473.938	1196.38
474.714	1318.38
475.49	1467.38
476.266	1601.38
477.043	1754.38
477.819	1942.38
478.595	2142.38
479.371	2362.38
480.146	2571.38
480.922	2823.38
481.698	3096.38
482.473	3384.38
483.249	3710.38
484.024	4055.38
484.8	4454.38
485.575	4844.38
486.35	5295.38
487.126	5794.38
487.901	6328.38
488.676	6880.38
489.451	7502.38
490.225	8196.38
491	8892.38
491.775	9698.38
492.55	10499.38
493.324	11365.38
494.099	12225.38
494.873	13078.38
495.647	14111.38
496.422	15143.38
497.196	16233.38
497.97	17282.38
498.744	18368.38
499.518	19445.38
500.292	20547.38
501.066	21548.38
501.839	22513.38
502.613	23393.38
503.387	24309.38
504.16	24904.38
504.934	25477.38
505.707	25720.38
506.48	25819.38
507.253	26042.38
508.027	25901.38
508.8	25770.38
509.573	25566.38
510.346	25112.38
511.118	24468.38
511.891	23902.38
512.664	23181.38
513.437	22420.38
514.209	21579.38
514.982	20791.38
515.754	19906.38
516.526	19071.38
517.298	18314.38
518.071	17545.38
518.843	16858.38
519.615	16214.38
520.387	15645.38
521.159	15011.38
521.93	14367.38
522.702	13783.38
523.474	13260.38
524.245	12671.38
525.017	12110.38
525.788	11709.38
526.56	11166.38
527.331	10657.38
528.102	10211.38
528.873	9769.38
529.644	9275.38
530.415	8906.38
531.186	8431.38
531.957	8021.38
532.728	7615.38
533.498	7290.38
534.269	6845.38
535.039	6527.38
535.81	6142.38
536.58	5809.38
537.351	5478.38
538.121	5177.38
538.891	4896.38
539.661	4651.38
540.431	4384.38
541.201	4124.38
541.971	3907.38
542.741	3697.38
543.51	3523.38
544.28	3361.38
545.05	3200.38
545.819	3032.38
546.588	2875.38
547.358	2753.38
548.127	2618.38
548.896	2475.38
549.665	2356.38
550.434	2236.38
551.203	2116.38
551.972	1987.38
552.741	1898.38
553.51	1803.38
554.278	1697.38
555.047	1612.38
555.815	1509.38
556.584	1430.38
557.352	1355.38
558.121	1259.38
558.889	1203.38
559.657	1133.38
560.425	1089.38
561.193	1002.38
561.961	949.38
562.729	908.38
563.496	851.38
564.264	802.38
565.032	770.38
565.799	716.38
566.567	690.38
567.334	645.38
568.101	611.38
568.869	580.38
569.636	535.38
570.403	513.38
571.17	481.38
571.937	458.38
572.704	437.38
573.471	402.38
574.237	379.38
575.004	366.38
575.771	342.38
576.537	318.38
577.303	304.38
578.07	294.38
578.836	264.38
579.602	252.38
580.368	235.38
581.134	226.38
581.9	218.38
582.666	202.38
583.432	191.38
584.198	184.38
584.964	174.38
585.729	160.38
586.495	162.38
587.26	148.38
588.025	137.38
588.791	131.38
589.556	128.38
590.321	117.38
591.086	111.38
591.851	105.38
592.616	105.38
593.381	98.38
594.146	87.38
594.911	85.38
595.675	85.38
596.44	83.38
597.204	75.38
597.969	73.38
598.733	66.38
599.497	66.38
600.261	64.38
601.025	61.38
601.79	58.38
602.553	55.38
603.317	56.38
604.081	48.38
604.845	46.38
605.609	45.38
606.372	42.38
607.136	43.38
607.899	41.38
608.662	38.38
609.426	41.38
610.189	37.38
610.952	38.38
611.715	33.38
612.478	28.38
613.241	30.38
614.004	31.38
614.767	28.38
615.529	29.38
616.292	27.38
617.055	25.38
617.817	26.38
618.579	21.38
619.342	26.38
620.104	25.38
620.866	25.38
621.628	21.38
622.39	20.38
623.152	22.38
623.914	19.38
624.676	18.38
625.438	15.38
626.199	17.38
626.961	15.38
627.722	18.38
628.484	19.38
629.245	13.38
630.006	13.38
630.768	14.38
631.529	12.38
632.29	13.38
633.051	14.38
633.812	12.38
634.573	10.38
635.333	12.38
636.094	13.38
636.855	10.38
637.615	10.38
638.376	11.38
639.136	10.38
639.896	11.38
640.657	9.38
641.417	8.38
642.177	8.38
642.937	12.38
643.697	8.38
644.457	9.38
645.216	8.38
645.976	7.38
646.736	8.38
647.495	8.38
648.255	8.38
649.014	5.38
649.774	8.38
650.533	7.38
651.292	7.38
652.051	7.38
652.81	5.38
653.569	7.38
654.328	5.38
655.087	7.38
655.846	5.38
656.604	4.38
657.363	6.38
658.121	4.38
658.88	7.38
659.638	6.38
660.397	6.38
661.155	4.38
661.913	6.38
662.671	6.38
663.429	5.38
664.187	5.38
664.945	7.38
665.703	7.38
666.46	4.38
667.218	4.38
667.976	6.38
668.733	4.38
669.49	7.38
670.248	5.38
671.005	6.38
671.762	4.38
672.519	3.38
673.276	6.38
674.033	5.38
674.79	5.38
675.547	3.38
676.304	2.38
677.06	5.38
677.817	5.38
678.574	6.38
679.33	4.38
680.086	3.38
680.843	7.38
681.599	4.38
682.355	6.38
683.111	5.38
683.867	5.38
684.623	6.38
685.379	4.38
686.135	4.38
686.89	5.38
687.646	4.38
688.402	3.38
689.157	5.38
689.912	4.38
690.668	5.38
691.423	2.38
692.178	4.38
692.933	5.38
693.688	5.38
694.443	3.38
695.198	4.38
695.953	4.38
696.708	2.38
697.462	3.38
698.217	6.38
698.972	4.38
699.726	3.38
700.48	3.38
701.235	4.38
701.989	4.38
702.743	3.38
703.497	4.38
704.251	3.38
705.005	2.38
705.759	4.38
706.513	4.38
707.266	4.38
708.02	4.38
708.774	5.38
709.527	3.38
710.28	4.38
711.034	4.38
711.787	1.38
712.54	3.38
713.293	3.38
714.046	2.38
714.799	5.38
715.552	1.38
716.305	4.38
717.058	4.38
717.81	4.38
718.563	3.38
719.315	3.38
720.068	5.38
720.82	3.38
721.573	5.38
722.325	4.38
723.077	4.38
723.829	3.38
724.581	1.38
725.333	6.38
726.085	3.38
726.836	1.38
727.588	2.38
728.34	6.38
729.091	4.38
729.843	5.38
730.594	7.38
731.346	3.38
732.097	5.38
732.848	3.38
733.599	3.38
734.35	3.38
735.101	5.38
735.852	2.38
736.603	4.38
737.354	4.38
738.104	3.38
738.855	5.38
739.605	6.38
740.356	5.38
741.106	5.38
741.856	8.38
742.607	4.38
743.357	5.38
744.107	2.38
744.857	7.38
745.607	2.38
746.357	5.38
747.106	0.38
747.856	5.38
748.606	4.38
749.355	6.38
750.105	4.38
750.854	5.38
751.603	5.38
752.353	6.38
753.102	4.38
753.851	6.38
754.6	6.38
755.349	6.38
756.098	5.38
756.847	5.38
757.595	5.38
758.344	5.38
759.093	8.38
759.841	4.38
760.589	6.38
761.338	6.38
762.086	5.38
762.834	7.38
763.582	3.38
764.331	8.38
765.079	7.38
765.826	6.38
766.574	6.38
767.322	4.38
768.07	6.38
768.817	7.38
769.565	7.38
770.312	6.38
771.06	8.38
771.807	8.38
772.554	8.38
773.302	7.38
774.049	6.38
774.796	7.38
775.543	9.38
776.29	8.38
777.036	8.38
777.783	7.38
778.53	9.38
779.276	6.38
780.023	8.38
780.769	9.38
781.516	9.38
782.262	6.38
783.008	8.38
783.754	8.38
784.5	9.38
785.246	7.38
785.992	8.38
786.738	8.38
787.484	7.38
788.23	9.38
788.975	6.38
789.721	7.38
790.466	8.38
791.212	8.38
791.957	8.38
792.702	7.38
793.447	7.38
794.193	10.38
794.938	5.38
795.683	8.38
796.427	5.38
797.172	8.38
797.917	8.38
798.662	5.38
799.406	7.38
800.151	7.38
800.895	7.38
801.64	7.38
802.384	9.38
803.128	8.38
803.872	8.38
804.616	6.38
805.36	7.38
806.104	6.38
806.848	4.38
807.592	8.38
808.336	7.38
809.079	6.38
809.823	5.38
810.566	4.38
811.31	5.38
812.053	6.38
812.796	5.38
813.539	6.38
814.283	6.38
815.026	3.38
815.769	5.38
816.511	6.38
817.254	6.38
817.997	6.38
818.74	5.38
819.482	5.38
820.225	5.38
820.967	5.38
821.71	4.38
822.452	7.38
823.194	3.38
823.936	5.38
824.678	5.38
825.42	3.38
826.162	5.38
826.904	6.38
827.646	4.38
828.388	4.38
829.129	5.38
829.871	3.38
830.612	4.38
831.354	6.38
832.095	2.38
832.836	6.38
833.577	5.38
834.319	1.38
835.06	4.38
835.801	4.38
836.542	2.38
837.282	4.38
838.023	4.38
838.764	2.38
839.504	2.38
840.245	4.38
840.985	3.38
841.726	6.38
842.466	4.38
843.206	3.38
843.946	4.38
844.687	2.38
845.427	4.38
846.166	4.38
846.906	2.38
847.646	2.38
848.386	3.38
849.125	2.38
849.865	3.38
850.605	5.38
851.344	4.38
852.083	4.38
852.823	2.38
853.562	2.38
854.301	2.38
855.04	3.38
855.779	4.38
856.518	2.38
857.257	3.38
857.995	2.38
858.734	2.38
859.473	4.38
860.211	3.38
860.95	4.38
861.688	0.38
862.426	2.38
863.165	2.38
863.903	4.38
864.641	2.38
865.379	3.38
866.117	0.38
866.855	0.38
867.593	3.38
868.33	3.38
869.068	2.38
869.806	2.38
870.543	1.38
871.28	2.38
872.018	2.38
872.755	0.38
873.492	1.38
874.229	-0.62
874.967	2.38
875.703	0.38
876.44	3.38
877.177	1.38
877.914	0.38
878.651	5.38
879.387	0.38
880.124	4.38
880.86	1.38
881.597	2.38
882.333	2.38
883.069	-0.62
883.806	2.38
884.542	0.38
885.278	2.38
886.014	2.38
886.749	0.38
887.485	1.38
888.221	2.38
888.957	1.38
889.692	1.38
890.428	2.38
891.163	1.38
891.899	2.38
892.634	2.38
893.369	0.38
894.104	1.38
894.839	0.38
895.574	1.38
896.309	-0.62
897.044	1.38
897.779	0.38
898.514	2.38
899.248	2.38
899.983	1.38
900.717	2.38
901.452	1.38
902.186	3.38
902.92	2.38
903.654	-0.62
904.389	1.38
905.123	1.38
905.857	1.38
906.59	2.38
907.324	0.38
908.058	0.38
908.792	3.38
909.525	2.38
910.259	2.38
910.992	3.38
911.726	2.38
912.459	0.38
913.192	2.38
913.925	1.38
914.658	-0.62
915.391	-0.62
916.124	0.38
916.857	1.38
917.59	-0.62
918.323	1.38
919.055	3.38
919.788	1.38
920.521	0.38
921.253	-1.62
921.985	0.38
922.718	1.38
923.45	5.38
924.182	0.38
924.914	-1.62
925.646	1.38
926.378	0.38
927.11	1.38
927.841	2.38
928.573	2.38
929.305	1.38
930.036	2.38
930.768	0.38
931.499	-0.62
932.23	3.38
932.962	-0.62
933.693	1.38
934.424	1.38
935.155	0.38
935.886	2.38
936.617	-1.62
937.348	2.38
938.078	1.38
938.809	2.38
939.54	3.38
940.27	1.38
941.001	-0.62
941.731	0.38
942.461	1.38
943.191	0.38
943.922	0.38
944.652	2.38
945.382	-1.62
946.112	0.38
946.841	1.38
947.571	0.38
948.301	2.38
949.031	1.38
949.76	-0.62
950.49	0.38
951.219	2.38
951.948	0.38
952.678	-1.62
953.407	1.38
954.136	0.38
954.865	2.38
955.594	0.38
956.323	1.38
957.052	1.38
957.78	1.38
958.509	0.38
959.238	0.38
959.966	1.38
960.695	-1.62
961.423	1.38
962.151	0.38
962.88	0.38
963.608	0.38
964.336	-0.62
965.064	0.38
965.792	-1.62
966.52	0.38
967.247	-0.62
967.975	1.38
968.703	0.38
969.43	-0.62
970.158	-0.62
970.885	0.38
971.613	-0.62
972.34	0.38
973.067	-0.62
973.794	1.38
974.521	0.38
975.248	0.38
975.975	-0.62
976.702	1.38
977.429	2.38
978.156	1.38
978.882	1.38
979.609	1.38
980.335	0.38
981.062	1.38
981.788	0.38
982.514	1.38
983.24	0.38
983.967	0.38
984.693	1.38
985.419	2.38
986.144	0.38
986.87	-0.62
987.596	1.38
988.322	-3.62
989.047	1.38
989.773	1.38
990.498	1.38
991.224	-0.62
991.949	-0.62
992.674	2.38
993.399	0.38
994.124	1.38
994.849	0.38
995.574	2.38
996.299	0.38
997.024	-1.62
997.749	-2.62
998.473	2.38
999.198	-2.62
999.922	1.38
1000.647	1.38
1001.371	4.38
1002.095	-0.62
1002.82	-1.62
1003.544	1.38
1004.268	2.38
1004.992	2.38
1005.716	2.38
1006.439	2.38
1007.163	5.38
1007.887	0.38
1008.611	0.38
1009.334	-1.62
1010.058	1.38
1010.781	-1.62
1011.504	2.38
1012.228	-0.62
1012.951	-0.62
1013.674	-0.62
1014.397	-1.62
1015.12	-0.62
