节点500_285_QEPB04081__359__15-01-31-681.txt的数据

Date: Wed Nov 12 15:01:31 CST 2025
User: PC
Spectrometer: QEPB0408
触发模式: 0
积分时间 (秒): 1.000000E-2
Scans to average: 1
启用暗噪声校正: true
启用非线性校正: false
滑动平均宽度: 0
X轴模式: Wavelengths
Number of Pixels in Spectrum: 1044
>>>>>Begin Spectral Data<<<<<
220.843	0.25
221.644	1.25
222.444	0.25
223.244	1.25
224.045	0.25
224.845	1.25
225.645	0.25
226.445	1.25
227.245	3.25
228.045	3.25
228.845	3.25
229.645	2.25
230.444	3.25
231.244	3.25
232.043	1.25
232.843	1.25
233.642	3.25
234.442	1.25
235.241	4.25
236.04	2.25
236.839	5.25
237.638	2.25
238.437	3.25
239.236	4.25
240.035	4.25
240.833	4.25
241.632	4.25
242.43	2.25
243.229	5.25
244.027	2.25
244.826	6.25
245.624	5.25
246.422	6.25
247.22	6.25
248.018	5.25
248.816	4.25
249.614	6.25
250.412	7.25
251.21	6.25
252.007	7.25
252.805	6.25
253.602	7.25
254.4	8.25
255.197	7.25
255.994	7.25
256.791	9.25
257.589	10.25
258.386	8.25
259.183	12.25
259.979	9.25
260.776	9.25
261.573	11.25
262.37	12.25
263.166	10.25
263.963	10.25
264.759	12.25
265.556	9.25
266.352	10.25
267.148	14.25
267.944	16.25
268.74	13.25
269.536	13.25
270.332	13.25
271.128	13.25
271.924	16.25
272.719	14.25
273.515	15.25
274.311	16.25
275.106	19.25
275.901	15.25
276.697	16.25
277.492	15.25
278.287	16.25
279.082	18.25
279.877	16.25
280.672	18.25
281.467	17.25
282.262	18.25
283.056	18.25
283.851	19.25
284.646	15.25
285.44	19.25
286.234	16.25
287.029	18.25
287.823	22.25
288.617	15.25
289.411	18.25
290.205	17.25
290.999	17.25
291.793	18.25
292.587	17.25
293.381	19.25
294.174	15.25
294.968	17.25
295.761	17.25
296.555	14.25
297.348	13.25
298.141	13.25
298.935	16.25
299.728	14.25
300.521	16.25
301.314	12.25
302.107	12.25
302.899	14.25
303.692	12.25
304.485	15.25
305.277	10.25
306.07	13.25
306.862	12.25
307.655	10.25
308.447	13.25
309.239	9.25
310.031	12.25
310.823	11.25
311.615	9.25
312.407	8.25
313.199	8.25
313.991	8.25
314.783	7.25
315.574	8.25
316.366	8.25
317.157	7.25
317.949	6.25
318.74	12.25
319.531	8.25
320.322	8.25
321.113	7.25
321.904	9.25
322.695	4.25
323.486	9.25
324.277	6.25
325.068	9.25
325.858	5.25
326.649	6.25
327.439	8.25
328.23	8.25
329.02	6.25
329.81	7.25
330.6	4.25
331.391	6.25
332.181	8.25
332.971	6.25
333.76	5.25
334.55	8.25
335.34	6.25
336.13	6.25
336.919	4.25
337.709	3.25
338.498	3.25
339.287	5.25
340.077	8.25
340.866	5.25
341.655	7.25
342.444	5.25
343.233	4.25
344.022	8.25
344.811	5.25
345.6	4.25
346.388	7.25
347.177	3.25
347.965	8.25
348.754	5.25
349.542	6.25
350.33	6.25
351.119	3.25
351.907	5.25
352.695	4.25
353.483	4.25
354.271	5.25
355.059	4.25
355.846	7.25
356.634	4.25
357.422	6.25
358.209	6.25
358.997	5.25
359.784	4.25
360.571	5.25
361.359	5.25
362.146	5.25
362.933	6.25
363.72	5.25
364.507	3.25
365.294	5.25
366.081	3.25
366.867	4.25
367.654	4.25
368.44	5.25
369.227	5.25
370.013	5.25
370.8	5.25
371.586	4.25
372.372	7.25
373.158	5.25
373.944	3.25
374.73	5.25
375.516	3.25
376.302	6.25
377.088	3.25
377.873	4.25
378.659	3.25
379.445	3.25
380.23	4.25
381.015	5.25
381.801	6.25
382.586	6.25
383.371	5.25
384.156	6.25
384.941	4.25
385.726	6.25
386.511	3.25
387.296	6.25
388.08	4.25
388.865	4.25
389.649	3.25
390.434	3.25
391.218	6.25
392.003	3.25
392.787	6.25
393.571	6.25
394.355	5.25
395.139	6.25
395.923	3.25
396.707	6.25
397.491	4.25
398.274	6.25
399.058	6.25
399.842	5.25
400.625	5.25
401.408	5.25
402.192	6.25
402.975	6.25
403.758	5.25
404.541	7.25
405.324	8.25
406.107	8.25
406.89	4.25
407.673	5.25
408.456	9.25
409.238	8.25
410.021	7.25
410.803	7.25
411.586	8.25
412.368	5.25
413.151	9.25
413.933	8.25
414.715	6.25
415.497	7.25
416.279	9.25
417.061	7.25
417.843	11.25
418.624	9.25
419.406	8.25
420.188	10.25
420.969	11.25
421.751	8.25
422.532	9.25
423.313	8.25
424.095	11.25
424.876	12.25
425.657	10.25
426.438	12.25
427.219	10.25
428	12.25
428.78	9.25
429.561	13.25
430.342	15.25
431.122	14.25
431.903	13.25
432.683	14.25
433.464	12.25
434.244	16.25
435.024	14.25
435.804	16.25
436.584	17.25
437.364	20.25
438.144	17.25
438.924	21.25
439.704	21.25
440.483	21.25
441.263	23.25
442.042	24.25
442.822	27.25
443.601	30.25
444.38	28.25
445.16	32.25
445.939	30.25
446.718	33.25
447.497	39.25
448.276	42.25
449.054	44.25
449.833	50.25
450.612	54.25
451.391	59.25
452.169	61.25
452.948	69.25
453.726	73.25
454.504	82.25
455.282	89.25
456.061	102.25
456.839	111.25
457.617	124.25
458.395	135.25
459.172	146.25
459.95	163.25
460.728	183.25
461.506	202.25
462.283	225.25
463.061	257.25
463.838	289.25
464.615	329.25
465.393	362.25
466.17	401.25
466.947	444.25
467.724	505.25
468.501	564.25
469.278	621.25
470.055	686.25
470.831	762.25
471.608	848.25
472.385	947.25
473.161	1058.25
473.938	1170.25
474.714	1293.25
475.49	1426.25
476.266	1576.25
477.043	1751.25
477.819	1933.25
478.595	2128.25
479.371	2347.25
480.146	2604.25
480.922	2864.25
481.698	3161.25
482.473	3464.25
483.249	3794.25
484.024	4168.25
484.8	4602.25
485.575	5039.25
486.35	5577.25
487.126	6098.25
487.901	6705.25
488.676	7324.25
489.451	8023.25
490.225	8771.25
491	9581.25
491.775	10502.25
492.55	11412.25
493.324	12367.25
494.099	13315.25
494.873	14411.25
495.647	15501.25
496.422	16650.25
497.196	17780.25
497.97	19031.25
498.744	20212.25
499.518	21347.25
500.292	22526.25
501.066	23504.25
501.839	24558.25
502.613	25449.25
503.387	26206.25
504.16	26831.25
504.934	27176.25
505.707	27349.25
506.48	27394.25
507.253	27348.25
508.027	27104.25
508.8	26790.25
509.573	26342.25
510.346	25783.25
511.118	25033.25
511.891	24148.25
512.664	23405.25
513.437	22484.25
514.209	21537.25
514.982	20677.25
515.754	19774.25
516.526	18900.25
517.298	18017.25
518.071	17214.25
518.843	16594.25
519.615	15969.25
520.387	15334.25
521.159	14712.25
521.93	14153.25
522.702	13589.25
523.474	13023.25
524.245	12456.25
525.017	11972.25
525.788	11493.25
526.56	10957.25
527.331	10484.25
528.102	9974.25
528.873	9520.25
529.644	9026.25
530.415	8602.25
531.186	8148.25
531.957	7723.25
532.728	7391.25
533.498	6962.25
534.269	6583.25
535.039	6239.25
535.81	5906.25
536.58	5536.25
537.351	5232.25
538.121	4941.25
538.891	4689.25
539.661	4429.25
540.431	4164.25
541.201	3942.25
541.971	3730.25
542.741	3546.25
543.51	3391.25
544.28	3196.25
545.05	3059.25
545.819	2902.25
546.588	2756.25
547.358	2623.25
548.127	2491.25
548.896	2365.25
549.665	2227.25
550.434	2129.25
551.203	2024.25
551.972	1901.25
552.741	1785.25
553.51	1698.25
554.278	1603.25
555.047	1511.25
555.815	1426.25
556.584	1357.25
557.352	1283.25
558.121	1208.25
558.889	1128.25
559.657	1072.25
560.425	1015.25
561.193	949.25
561.961	899.25
562.729	848.25
563.496	797.25
564.264	760.25
565.032	716.25
565.799	689.25
566.567	637.25
567.334	603.25
568.101	574.25
568.869	553.25
569.636	518.25
570.403	475.25
571.17	461.25
571.937	432.25
572.704	404.25
573.471	381.25
574.237	355.25
575.004	340.25
575.771	318.25
576.537	298.25
577.303	277.25
578.07	269.25
578.836	249.25
579.602	234.25
580.368	226.25
581.134	211.25
581.9	198.25
582.666	189.25
583.432	172.25
584.198	167.25
584.964	159.25
585.729	154.25
586.495	147.25
587.26	134.25
588.025	130.25
588.791	126.25
589.556	119.25
590.321	109.25
591.086	108.25
591.851	101.25
592.616	94.25
593.381	89.25
594.146	87.25
594.911	84.25
595.675	78.25
596.44	74.25
597.204	70.25
597.969	69.25
598.733	66.25
599.497	63.25
600.261	60.25
601.025	56.25
601.79	55.25
602.553	51.25
603.317	51.25
604.081	48.25
604.845	47.25
605.609	42.25
606.372	40.25
607.136	40.25
607.899	37.25
608.662	36.25
609.426	35.25
610.189	32.25
610.952	33.25
611.715	29.25
612.478	29.25
613.241	27.25
614.004	28.25
614.767	28.25
615.529	25.25
616.292	26.25
617.055	24.25
617.817	22.25
618.579	23.25
619.342	21.25
620.104	23.25
620.866	18.25
621.628	17.25
622.39	20.25
623.152	15.25
623.914	17.25
624.676	18.25
625.438	19.25
626.199	16.25
626.961	13.25
627.722	15.25
628.484	14.25
629.245	13.25
630.006	13.25
630.768	12.25
631.529	12.25
632.29	12.25
633.051	13.25
633.812	11.25
634.573	12.25
635.333	10.25
636.094	10.25
636.855	13.25
637.615	10.25
638.376	7.25
639.136	9.25
639.896	9.25
640.657	8.25
641.417	8.25
642.177	8.25
642.937	8.25
643.697	9.25
644.457	8.25
645.216	7.25
645.976	8.25
646.736	7.25
647.495	8.25
648.255	5.25
649.014	7.25
649.774	5.25
650.533	9.25
651.292	5.25
652.051	5.25
652.81	9.25
653.569	7.25
654.328	6.25
655.087	6.25
655.846	6.25
656.604	6.25
657.363	5.25
658.121	5.25
658.88	6.25
659.638	6.25
660.397	5.25
661.155	7.25
661.913	5.25
662.671	4.25
663.429	5.25
664.187	6.25
664.945	4.25
665.703	5.25
666.46	4.25
667.218	3.25
667.976	3.25
668.733	1.25
669.49	2.25
670.248	3.25
671.005	4.25
671.762	3.25
672.519	5.25
673.276	4.25
674.033	5.25
674.79	4.25
675.547	1.25
676.304	2.25
677.06	4.25
677.817	3.25
678.574	4.25
679.33	4.25
680.086	5.25
680.843	3.25
681.599	6.25
682.355	4.25
683.111	4.25
683.867	3.25
684.623	3.25
685.379	5.25
686.135	2.25
686.89	4.25
687.646	3.25
688.402	4.25
689.157	3.25
689.912	1.25
690.668	2.25
691.423	1.25
692.178	3.25
692.933	2.25
693.688	4.25
694.443	3.25
695.198	2.25
695.953	4.25
696.708	4.25
697.462	1.25
698.217	1.25
698.972	1.25
699.726	2.25
700.48	0.25
701.235	5.25
701.989	3.25
702.743	2.25
703.497	3.25
704.251	5.25
705.005	2.25
705.759	3.25
706.513	3.25
707.266	4.25
708.02	4.25
708.774	4.25
709.527	1.25
710.28	3.25
711.034	1.25
711.787	3.25
712.54	4.25
713.293	5.25
714.046	3.25
714.799	1.25
715.552	3.25
716.305	3.25
717.058	1.25
717.81	2.25
718.563	1.25
719.315	3.25
720.068	1.25
720.82	3.25
721.573	4.25
722.325	5.25
723.077	2.25
723.829	3.25
724.581	3.25
725.333	5.25
726.085	3.25
726.836	7.25
727.588	4.25
728.34	5.25
729.091	2.25
729.843	4.25
730.594	4.25
731.346	1.25
732.097	4.25
732.848	3.25
733.599	5.25
734.35	3.25
735.101	5.25
735.852	3.25
736.603	4.25
737.354	3.25
738.104	4.25
738.855	4.25
739.605	4.25
740.356	2.25
741.106	2.25
741.856	5.25
742.607	6.25
743.357	4.25
744.107	4.25
744.857	5.25
745.607	4.25
746.357	4.25
747.106	1.25
747.856	2.25
748.606	3.25
749.355	3.25
750.105	3.25
750.854	3.25
751.603	6.25
752.353	4.25
753.102	6.25
753.851	2.25
754.6	5.25
755.349	2.25
756.098	3.25
756.847	3.25
757.595	4.25
758.344	5.25
759.093	6.25
759.841	4.25
760.589	5.25
761.338	4.25
762.086	7.25
762.834	6.25
763.582	6.25
764.331	6.25
765.079	7.25
765.826	7.25
766.574	6.25
767.322	9.25
768.07	6.25
768.817	9.25
769.565	5.25
770.312	8.25
771.06	6.25
771.807	9.25
772.554	8.25
773.302	5.25
774.049	7.25
774.796	9.25
775.543	8.25
776.29	8.25
777.036	8.25
777.783	7.25
778.53	8.25
779.276	8.25
780.023	7.25
780.769	8.25
781.516	10.25
782.262	9.25
783.008	11.25
783.754	8.25
784.5	8.25
785.246	9.25
785.992	8.25
786.738	9.25
787.484	8.25
788.23	8.25
788.975	10.25
789.721	6.25
790.466	8.25
791.212	10.25
791.957	8.25
792.702	9.25
793.447	5.25
794.193	8.25
794.938	6.25
795.683	7.25
796.427	8.25
797.172	8.25
797.917	6.25
798.662	4.25
799.406	8.25
800.151	6.25
800.895	8.25
801.64	7.25
802.384	4.25
803.128	8.25
803.872	8.25
804.616	8.25
805.36	6.25
806.104	4.25
806.848	5.25
807.592	6.25
808.336	6.25
809.079	4.25
809.823	7.25
810.566	5.25
811.31	3.25
812.053	8.25
812.796	4.25
813.539	4.25
814.283	5.25
815.026	3.25
815.769	3.25
816.511	3.25
817.254	3.25
817.997	3.25
818.74	4.25
819.482	3.25
820.225	2.25
820.967	1.25
821.71	4.25
822.452	4.25
823.194	3.25
823.936	2.25
824.678	4.25
825.42	4.25
826.162	1.25
826.904	4.25
827.646	4.25
828.388	4.25
829.129	3.25
829.871	5.25
830.612	3.25
831.354	4.25
832.095	5.25
832.836	2.25
833.577	3.25
834.319	1.25
835.06	0.25
835.801	1.25
836.542	5.25
837.282	5.25
838.023	4.25
838.764	4.25
839.504	4.25
840.245	3.25
840.985	1.25
841.726	5.25
842.466	3.25
843.206	3.25
843.946	3.25
844.687	3.25
845.427	1.25
846.166	0.25
846.906	1.25
847.646	2.25
848.386	2.25
849.125	3.25
849.865	1.25
850.605	3.25
851.344	0.25
852.083	1.25
852.823	0.25
853.562	1.25
854.301	1.25
855.04	2.25
855.779	4.25
856.518	3.25
857.257	0.25
857.995	3.25
858.734	0.25
859.473	2.25
860.211	-0.75
860.95	0.25
861.688	2.25
862.426	3.25
863.165	2.25
863.903	-0.75
864.641	5.25
865.379	0.25
866.117	2.25
866.855	3.25
867.593	1.25
868.33	3.25
869.068	0.25
869.806	1.25
870.543	-0.75
871.28	-1.75
872.018	2.25
872.755	0.25
873.492	2.25
874.229	1.25
874.967	0.25
875.703	0.25
876.44	-0.75
877.177	2.25
877.914	0.25
878.651	2.25
879.387	-0.75
880.124	1.25
880.86	1.25
881.597	-2.75
882.333	-1.75
883.069	0.25
883.806	-2.75
884.542	0.25
885.278	1.25
886.014	4.25
886.749	-0.75
887.485	1.25
888.221	0.25
888.957	0.25
889.692	0.25
890.428	-0.75
891.163	0.25
891.899	0.25
892.634	1.25
893.369	-2.75
894.104	3.25
894.839	-0.75
895.574	-0.75
896.309	-0.75
897.044	0.25
897.779	0.25
898.514	0.25
899.248	0.25
899.983	-0.75
900.717	1.25
901.452	1.25
902.186	0.25
902.92	0.25
903.654	0.25
904.389	1.25
905.123	1.25
905.857	-0.75
906.59	3.25
907.324	0.25
908.058	1.25
908.792	-1.75
909.525	-1.75
910.259	0.25
910.992	1.25
911.726	1.25
912.459	0.25
913.192	0.25
913.925	0.25
914.658	-0.75
915.391	0.25
916.124	1.25
916.857	0.25
917.59	-0.75
918.323	1.25
919.055	1.25
919.788	0.25
920.521	1.25
921.253	0.25
921.985	-0.75
922.718	-0.75
923.45	-0.75
924.182	-0.75
924.914	-1.75
925.646	2.25
926.378	0.25
927.11	0.25
927.841	0.25
928.573	-0.75
929.305	0.25
930.036	-0.75
930.768	-1.75
931.499	1.25
932.23	1.25
932.962	0.25
933.693	-0.75
934.424	2.25
935.155	-1.75
935.886	1.25
936.617	-0.75
937.348	1.25
938.078	-1.75
938.809	-0.75
939.54	-0.75
940.27	1.25
941.001	-2.75
941.731	-0.75
942.461	-0.75
943.191	2.25
943.922	0.25
944.652	2.25
945.382	-0.75
946.112	-2.75
946.841	0.25
947.571	-0.75
948.301	-0.75
949.031	-2.75
949.76	1.25
950.49	-0.75
951.219	0.25
951.948	0.25
952.678	0.25
953.407	0.25
954.136	-1.75
954.865	-0.75
955.594	1.25
956.323	-0.75
957.052	0.25
957.78	2.25
958.509	0.25
959.238	-0.75
959.966	-0.75
960.695	1.25
961.423	-2.75
962.151	-0.75
962.88	-2.75
963.608	2.25
964.336	0.25
965.064	-1.75
965.792	-0.75
966.52	-1.75
967.247	-1.75
967.975	0.25
968.703	0.25
969.43	-0.75
970.158	1.25
970.885	-0.75
971.613	0.25
972.34	2.25
973.067	-1.75
973.794	-3.75
974.521	-0.75
975.248	-0.75
975.975	-1.75
976.702	1.25
977.429	0.25
978.156	1.25
978.882	-0.75
979.609	-0.75
980.335	-0.75
981.062	-0.75
981.788	-0.75
982.514	-1.75
983.24	-1.75
983.967	-1.75
984.693	0.25
985.419	0.25
986.144	-1.75
986.87	-1.75
987.596	-1.75
988.322	0.25
989.047	-0.75
989.773	1.25
990.498	-1.75
991.224	-1.75
991.949	1.25
992.674	-1.75
993.399	-0.75
994.124	3.25
994.849	-0.75
995.574	1.25
996.299	-1.75
997.024	0.25
997.749	-2.75
998.473	-0.75
999.198	0.25
999.922	0.25
1000.647	1.25
1001.371	5.25
1002.095	-0.75
1002.82	-3.75
1003.544	-3.75
1004.268	1.25
1004.992	1.25
1005.716	1.25
1006.439	-0.75
1007.163	2.25
1007.887	1.25
1008.611	1.25
1009.334	0.25
1010.058	-2.75
1010.781	0.25
1011.504	1.25
1012.228	-0.75
1012.951	0.25
1013.674	0.25
1014.397	2.25
1015.12	0.25
