节点500_285_QEPB04081__469__15-03-21-511.txt的数据

Date: Wed Nov 12 15:03:21 CST 2025
User: PC
Spectrometer: QEPB0408
触发模式: 0
积分时间 (秒): 1.000000E-2
Scans to average: 1
启用暗噪声校正: true
启用非线性校正: false
滑动平均宽度: 0
X轴模式: Wavelengths
Number of Pixels in Spectrum: 1044
>>>>>Begin Spectral Data<<<<<
220.843	2.12
221.644	1.12
222.444	1.12
223.244	2.12
224.045	4.12
224.845	1.12
225.645	1.12
226.445	2.12
227.245	3.12
228.045	2.12
228.845	3.12
229.645	4.12
230.444	1.12
231.244	3.12
232.043	3.12
232.843	4.12
233.642	4.12
234.442	4.12
235.241	2.12
236.04	2.12
236.839	5.12
237.638	5.12
238.437	6.12
239.236	5.12
240.035	3.12
240.833	4.12
241.632	3.12
242.43	5.12
243.229	6.12
244.027	3.12
244.826	7.12
245.624	6.12
246.422	6.12
247.22	6.12
248.018	4.12
248.816	7.12
249.614	6.12
250.412	6.12
251.21	6.12
252.007	6.12
252.805	6.12
253.602	7.12
254.4	6.12
255.197	8.12
255.994	8.12
256.791	7.12
257.589	11.12
258.386	10.12
259.183	9.12
259.979	9.12
260.776	8.12
261.573	11.12
262.37	8.12
263.166	10.12
263.963	11.12
264.759	12.12
265.556	13.12
266.352	12.12
267.148	11.12
267.944	15.12
268.74	14.12
269.536	12.12
270.332	15.12
271.128	16.12
271.924	13.12
272.719	17.12
273.515	13.12
274.311	14.12
275.106	14.12
275.901	16.12
276.697	16.12
277.492	18.12
278.287	22.12
279.082	15.12
279.877	17.12
280.672	20.12
281.467	18.12
282.262	21.12
283.056	20.12
283.851	18.12
284.646	20.12
285.44	17.12
286.234	19.12
287.029	19.12
287.823	18.12
288.617	18.12
289.411	17.12
290.205	19.12
290.999	18.12
291.793	18.12
292.587	18.12
293.381	17.12
294.174	18.12
294.968	18.12
295.761	15.12
296.555	14.12
297.348	16.12
298.141	15.12
298.935	17.12
299.728	18.12
300.521	14.12
301.314	16.12
302.107	14.12
302.899	14.12
303.692	14.12
304.485	16.12
305.277	11.12
306.07	12.12
306.862	14.12
307.655	13.12
308.447	12.12
309.239	15.12
310.031	14.12
310.823	10.12
311.615	7.12
312.407	11.12
313.199	9.12
313.991	8.12
314.783	9.12
315.574	9.12
316.366	8.12
317.157	8.12
317.949	8.12
318.74	8.12
319.531	9.12
320.322	8.12
321.113	8.12
321.904	9.12
322.695	6.12
323.486	8.12
324.277	9.12
325.068	8.12
325.858	6.12
326.649	7.12
327.439	8.12
328.23	6.12
329.02	10.12
329.81	6.12
330.6	6.12
331.391	7.12
332.181	6.12
332.971	8.12
333.76	9.12
334.55	6.12
335.34	6.12
336.13	7.12
336.919	7.12
337.709	6.12
338.498	5.12
339.287	8.12
340.077	7.12
340.866	8.12
341.655	7.12
342.444	10.12
343.233	7.12
344.022	5.12
344.811	7.12
345.6	7.12
346.388	6.12
347.177	8.12
347.965	8.12
348.754	9.12
349.542	4.12
350.33	4.12
351.119	6.12
351.907	6.12
352.695	8.12
353.483	5.12
354.271	7.12
355.059	6.12
355.846	6.12
356.634	4.12
357.422	6.12
358.209	5.12
358.997	6.12
359.784	6.12
360.571	4.12
361.359	7.12
362.146	5.12
362.933	5.12
363.72	7.12
364.507	5.12
365.294	7.12
366.081	5.12
366.867	7.12
367.654	5.12
368.44	5.12
369.227	8.12
370.013	3.12
370.8	4.12
371.586	4.12
372.372	5.12
373.158	5.12
373.944	6.12
374.73	5.12
375.516	5.12
376.302	8.12
377.088	3.12
377.873	6.12
378.659	6.12
379.445	4.12
380.23	4.12
381.015	6.12
381.801	5.12
382.586	5.12
383.371	5.12
384.156	6.12
384.941	4.12
385.726	7.12
386.511	6.12
387.296	6.12
388.08	5.12
388.865	7.12
389.649	6.12
390.434	6.12
391.218	8.12
392.003	6.12
392.787	5.12
393.571	6.12
394.355	6.12
395.139	6.12
395.923	6.12
396.707	6.12
397.491	4.12
398.274	6.12
399.058	7.12
399.842	9.12
400.625	7.12
401.408	7.12
402.192	5.12
402.975	9.12
403.758	7.12
404.541	6.12
405.324	9.12
406.107	6.12
406.89	9.12
407.673	9.12
408.456	8.12
409.238	7.12
410.021	9.12
410.803	10.12
411.586	9.12
412.368	9.12
413.151	8.12
413.933	10.12
414.715	10.12
415.497	11.12
416.279	7.12
417.061	7.12
417.843	10.12
418.624	9.12
419.406	9.12
420.188	11.12
420.969	10.12
421.751	13.12
422.532	13.12
423.313	10.12
424.095	12.12
424.876	11.12
425.657	11.12
426.438	14.12
427.219	10.12
428	13.12
428.78	10.12
429.561	12.12
430.342	15.12
431.122	13.12
431.903	14.12
432.683	14.12
433.464	16.12
434.244	18.12
435.024	16.12
435.804	18.12
436.584	17.12
437.364	21.12
438.144	21.12
438.924	22.12
439.704	21.12
440.483	25.12
441.263	25.12
442.042	24.12
442.822	28.12
443.601	29.12
444.38	30.12
445.16	35.12
445.939	34.12
446.718	38.12
447.497	39.12
448.276	41.12
449.054	47.12
449.833	54.12
450.612	58.12
451.391	59.12
452.169	63.12
452.948	71.12
453.726	75.12
454.504	83.12
455.282	97.12
456.061	102.12
456.839	107.12
457.617	127.12
458.395	135.12
459.172	162.12
459.95	168.12
460.728	186.12
461.506	213.12
462.283	239.12
463.061	262.12
463.838	295.12
464.615	338.12
465.393	368.12
466.17	414.12
466.947	454.12
467.724	510.12
468.501	574.12
469.278	634.12
470.055	696.12
470.831	771.12
471.608	869.12
472.385	972.12
473.161	1074.12
473.938	1170.12
474.714	1303.12
475.49	1447.12
476.266	1574.12
477.043	1741.12
477.819	1941.12
478.595	2149.12
479.371	2338.12
480.146	2589.12
480.922	2854.12
481.698	3125.12
482.473	3441.12
483.249	3772.12
484.024	4160.12
484.8	4542.12
485.575	4982.12
486.35	5484.12
487.126	6001.12
487.901	6550.12
488.676	7177.12
489.451	7855.12
490.225	8601.12
491	9377.12
491.775	10189.12
492.55	11103.12
493.324	11985.12
494.099	12993.12
494.873	13985.12
495.647	15052.12
496.422	16116.12
497.196	17281.12
497.97	18457.12
498.744	19615.12
499.518	20716.12
500.292	21857.12
501.066	22890.12
501.839	23915.12
502.613	24790.12
503.387	25577.12
504.16	26266.12
504.934	26622.12
505.707	26838.12
506.48	27004.12
507.253	26972.12
508.027	26730.12
508.8	26467.12
509.573	26078.12
510.346	25526.12
511.118	24875.12
511.891	24114.12
512.664	23370.12
513.437	22463.12
514.209	21661.12
514.982	20723.12
515.754	19844.12
516.526	19009.12
517.298	18169.12
518.071	17328.12
518.843	16731.12
519.615	16071.12
520.387	15475.12
521.159	14839.12
521.93	14261.12
522.702	13627.12
523.474	13092.12
524.245	12512.12
525.017	12002.12
525.788	11581.12
526.56	11059.12
527.331	10531.12
528.102	10076.12
528.873	9593.12
529.644	9116.12
530.415	8671.12
531.186	8239.12
531.957	7828.12
532.728	7451.12
533.498	7064.12
534.269	6669.12
535.039	6294.12
535.81	5954.12
536.58	5662.12
537.351	5302.12
538.121	5032.12
538.891	4743.12
539.661	4490.12
540.431	4244.12
541.201	3989.12
541.971	3804.12
542.741	3608.12
543.51	3406.12
544.28	3268.12
545.05	3089.12
545.819	2964.12
546.588	2805.12
547.358	2638.12
548.127	2519.12
548.896	2398.12
549.665	2278.12
550.434	2147.12
551.203	2048.12
551.972	1928.12
552.741	1842.12
553.51	1732.12
554.278	1633.12
555.047	1539.12
555.815	1455.12
556.584	1380.12
557.352	1300.12
558.121	1225.12
558.889	1148.12
559.657	1097.12
560.425	1026.12
561.193	976.12
561.961	921.12
562.729	878.12
563.496	816.12
564.264	775.12
565.032	729.12
565.799	698.12
566.567	653.12
567.334	619.12
568.101	584.12
568.869	564.12
569.636	523.12
570.403	487.12
571.17	458.12
571.937	440.12
572.704	411.12
573.471	390.12
574.237	377.12
575.004	342.12
575.771	331.12
576.537	304.12
577.303	287.12
578.07	274.12
578.836	254.12
579.602	239.12
580.368	230.12
581.134	215.12
581.9	206.12
582.666	193.12
583.432	184.12
584.198	175.12
584.964	171.12
585.729	163.12
586.495	149.12
587.26	140.12
588.025	132.12
588.791	129.12
589.556	119.12
590.321	113.12
591.086	109.12
591.851	107.12
592.616	99.12
593.381	90.12
594.146	89.12
594.911	86.12
595.675	81.12
596.44	79.12
597.204	74.12
597.969	68.12
598.733	68.12
599.497	66.12
600.261	58.12
601.025	57.12
601.79	58.12
602.553	51.12
603.317	50.12
604.081	51.12
604.845	45.12
605.609	46.12
606.372	44.12
607.136	44.12
607.899	39.12
608.662	40.12
609.426	36.12
610.189	35.12
610.952	34.12
611.715	31.12
612.478	32.12
613.241	29.12
614.004	28.12
614.767	26.12
615.529	26.12
616.292	25.12
617.055	22.12
617.817	23.12
618.579	22.12
619.342	23.12
620.104	20.12
620.866	21.12
621.628	20.12
622.39	18.12
623.152	18.12
623.914	17.12
624.676	18.12
625.438	16.12
626.199	16.12
626.961	16.12
627.722	16.12
628.484	16.12
629.245	14.12
630.006	14.12
630.768	15.12
631.529	11.12
632.29	14.12
633.051	14.12
633.812	14.12
634.573	11.12
635.333	11.12
636.094	12.12
636.855	9.12
637.615	10.12
638.376	10.12
639.136	10.12
639.896	9.12
640.657	7.12
641.417	12.12
642.177	10.12
642.937	11.12
643.697	9.12
644.457	6.12
645.216	9.12
645.976	8.12
646.736	10.12
647.495	6.12
648.255	11.12
649.014	9.12
649.774	5.12
650.533	9.12
651.292	9.12
652.051	8.12
652.81	5.12
653.569	8.12
654.328	7.12
655.087	6.12
655.846	10.12
656.604	6.12
657.363	5.12
658.121	7.12
658.88	7.12
659.638	6.12
660.397	5.12
661.155	6.12
661.913	5.12
662.671	4.12
663.429	4.12
664.187	5.12
664.945	6.12
665.703	4.12
666.46	6.12
667.218	3.12
667.976	4.12
668.733	6.12
669.49	7.12
670.248	3.12
671.005	6.12
671.762	7.12
672.519	6.12
673.276	5.12
674.033	6.12
674.79	6.12
675.547	3.12
676.304	3.12
677.06	6.12
677.817	4.12
678.574	5.12
679.33	4.12
680.086	3.12
680.843	4.12
681.599	2.12
682.355	4.12
683.111	4.12
683.867	4.12
684.623	4.12
685.379	4.12
686.135	5.12
686.89	3.12
687.646	3.12
688.402	7.12
689.157	4.12
689.912	3.12
690.668	5.12
691.423	5.12
692.178	5.12
692.933	3.12
693.688	3.12
694.443	3.12
695.198	5.12
695.953	5.12
696.708	5.12
697.462	4.12
698.217	5.12
698.972	4.12
699.726	2.12
700.48	3.12
701.235	4.12
701.989	2.12
702.743	4.12
703.497	3.12
704.251	3.12
705.005	5.12
705.759	5.12
706.513	3.12
707.266	4.12
708.02	2.12
708.774	3.12
709.527	2.12
710.28	3.12
711.034	4.12
711.787	4.12
712.54	5.12
713.293	4.12
714.046	2.12
714.799	2.12
715.552	3.12
716.305	4.12
717.058	4.12
717.81	3.12
718.563	2.12
719.315	3.12
720.068	6.12
720.82	4.12
721.573	6.12
722.325	4.12
723.077	4.12
723.829	4.12
724.581	4.12
725.333	4.12
726.085	3.12
726.836	5.12
727.588	2.12
728.34	4.12
729.091	6.12
729.843	5.12
730.594	4.12
731.346	5.12
732.097	4.12
732.848	2.12
733.599	4.12
734.35	4.12
735.101	4.12
735.852	3.12
736.603	4.12
737.354	4.12
738.104	5.12
738.855	4.12
739.605	7.12
740.356	6.12
741.106	6.12
741.856	4.12
742.607	5.12
743.357	5.12
744.107	3.12
744.857	5.12
745.607	5.12
746.357	4.12
747.106	5.12
747.856	2.12
748.606	7.12
749.355	4.12
750.105	6.12
750.854	4.12
751.603	4.12
752.353	4.12
753.102	6.12
753.851	7.12
754.6	2.12
755.349	5.12
756.098	7.12
756.847	5.12
757.595	4.12
758.344	4.12
759.093	7.12
759.841	4.12
760.589	4.12
761.338	7.12
762.086	6.12
762.834	6.12
763.582	5.12
764.331	9.12
765.079	6.12
765.826	4.12
766.574	6.12
767.322	8.12
768.07	8.12
768.817	7.12
769.565	7.12
770.312	9.12
771.06	9.12
771.807	10.12
772.554	8.12
773.302	8.12
774.049	8.12
774.796	7.12
775.543	8.12
776.29	7.12
777.036	10.12
777.783	7.12
778.53	8.12
779.276	9.12
780.023	7.12
780.769	8.12
781.516	7.12
782.262	8.12
783.008	4.12
783.754	8.12
784.5	11.12
785.246	9.12
785.992	9.12
786.738	8.12
787.484	6.12
788.23	8.12
788.975	7.12
789.721	7.12
790.466	9.12
791.212	9.12
791.957	6.12
792.702	9.12
793.447	9.12
794.193	9.12
794.938	9.12
795.683	9.12
796.427	8.12
797.172	6.12
797.917	7.12
798.662	7.12
799.406	7.12
800.151	9.12
800.895	7.12
801.64	9.12
802.384	7.12
803.128	8.12
803.872	6.12
804.616	6.12
805.36	8.12
806.104	5.12
806.848	8.12
807.592	6.12
808.336	7.12
809.079	8.12
809.823	5.12
810.566	4.12
811.31	4.12
812.053	6.12
812.796	5.12
813.539	5.12
814.283	4.12
815.026	3.12
815.769	7.12
816.511	3.12
817.254	6.12
817.997	6.12
818.74	2.12
819.482	3.12
820.225	3.12
820.967	4.12
821.71	4.12
822.452	4.12
823.194	4.12
823.936	5.12
824.678	3.12
825.42	5.12
826.162	4.12
826.904	3.12
827.646	2.12
828.388	5.12
829.129	3.12
829.871	3.12
830.612	5.12
831.354	5.12
832.095	4.12
832.836	2.12
833.577	4.12
834.319	5.12
835.06	4.12
835.801	4.12
836.542	2.12
837.282	5.12
838.023	2.12
838.764	4.12
839.504	4.12
840.245	4.12
840.985	2.12
841.726	2.12
842.466	5.12
843.206	3.12
843.946	4.12
844.687	4.12
845.427	4.12
846.166	3.12
846.906	5.12
847.646	3.12
848.386	2.12
849.125	4.12
849.865	5.12
850.605	2.12
851.344	2.12
852.083	4.12
852.823	3.12
853.562	4.12
854.301	4.12
855.04	4.12
855.779	2.12
856.518	3.12
857.257	1.12
857.995	3.12
858.734	0.12
859.473	1.12
860.211	1.12
860.95	2.12
861.688	2.12
862.426	4.12
863.165	2.12
863.903	2.12
864.641	3.12
865.379	2.12
866.117	2.12
866.855	2.12
867.593	1.12
868.33	3.12
869.068	3.12
869.806	1.12
870.543	2.12
871.28	1.12
872.018	1.12
872.755	0.12
873.492	0.12
874.229	0.12
874.967	1.12
875.703	2.12
876.44	1.12
877.177	3.12
877.914	4.12
878.651	1.12
879.387	0.12
880.124	3.12
880.86	1.12
881.597	0.12
882.333	3.12
883.069	3.12
883.806	4.12
884.542	2.12
885.278	2.12
886.014	0.12
886.749	2.12
887.485	-0.88
888.221	2.12
888.957	1.12
889.692	-0.88
890.428	0.12
891.163	-0.88
891.899	0.12
892.634	0.12
893.369	0.12
894.104	0.12
894.839	1.12
895.574	1.12
896.309	0.12
897.044	1.12
897.779	1.12
898.514	3.12
899.248	0.12
899.983	2.12
900.717	1.12
901.452	-0.88
902.186	-0.88
902.92	2.12
903.654	1.12
904.389	0.12
905.123	2.12
905.857	1.12
906.59	0.12
907.324	-0.88
908.058	-1.88
908.792	1.12
909.525	2.12
910.259	1.12
910.992	2.12
911.726	0.12
912.459	1.12
913.192	-1.88
913.925	0.12
914.658	1.12
915.391	-0.88
916.124	-0.88
916.857	0.12
917.59	0.12
918.323	2.12
919.055	2.12
919.788	-0.88
920.521	0.12
921.253	0.12
921.985	-1.88
922.718	2.12
923.45	1.12
924.182	-0.88
924.914	1.12
925.646	-1.88
926.378	1.12
927.11	2.12
927.841	3.12
928.573	3.12
929.305	2.12
930.036	-0.88
930.768	1.12
931.499	2.12
932.23	2.12
932.962	-0.88
933.693	-1.88
934.424	-0.88
935.155	0.12
935.886	1.12
936.617	0.12
937.348	0.12
938.078	0.12
938.809	2.12
939.54	-0.88
940.27	-0.88
941.001	0.12
941.731	0.12
942.461	0.12
943.191	0.12
943.922	0.12
944.652	0.12
945.382	1.12
946.112	1.12
946.841	2.12
947.571	1.12
948.301	-0.88
949.031	1.12
949.76	0.12
950.49	0.12
951.219	-0.88
951.948	-1.88
952.678	1.12
953.407	0.12
954.136	-1.88
954.865	1.12
955.594	0.12
956.323	-1.88
957.052	0.12
957.78	1.12
958.509	0.12
959.238	1.12
959.966	1.12
960.695	-1.88
961.423	-0.88
962.151	1.12
962.88	0.12
963.608	1.12
964.336	2.12
965.064	-0.88
965.792	2.12
966.52	2.12
967.247	-0.88
967.975	0.12
968.703	-0.88
969.43	2.12
970.158	0.12
970.885	1.12
971.613	0.12
972.34	0.12
973.067	0.12
973.794	1.12
974.521	2.12
975.248	0.12
975.975	0.12
976.702	0.12
977.429	0.12
978.156	3.12
978.882	2.12
979.609	0.12
980.335	2.12
981.062	0.12
981.788	0.12
982.514	0.12
983.24	2.12
983.967	1.12
984.693	2.12
985.419	0.12
986.144	-1.88
986.87	2.12
987.596	0.12
988.322	1.12
989.047	-0.88
989.773	2.12
990.498	2.12
991.224	-1.88
991.949	0.12
992.674	0.12
993.399	0.12
994.124	-1.88
994.849	0.12
995.574	-1.88
996.299	1.12
997.024	-0.88
997.749	-0.88
998.473	0.12
999.198	1.12
999.922	0.12
1000.647	1.12
1001.371	4.12
1002.095	-0.88
1002.82	-1.88
1003.544	-3.88
1004.268	3.12
1004.992	3.12
1005.716	2.12
1006.439	-0.88
1007.163	4.12
1007.887	1.12
1008.611	-0.88
1009.334	0.12
1010.058	0.12
1010.781	2.12
1011.504	1.12
1012.228	-0.88
1012.951	1.12
1013.674	1.12
1014.397	1.12
1015.12	-0.88
