节点500_285_QEPB04081__847__15-09-38-725.txt的数据

Date: Wed Nov 12 15:09:38 CST 2025
User: PC
Spectrometer: QEPB0408
触发模式: 0
积分时间 (秒): 1.000000E-2
Scans to average: 1
启用暗噪声校正: true
启用非线性校正: false
滑动平均宽度: 0
X轴模式: Wavelengths
Number of Pixels in Spectrum: 1044
>>>>>Begin Spectral Data<<<<<
220.843	0.88
221.644	2.88
222.444	1.88
223.244	1.88
224.045	0.88
224.845	1.88
225.645	0.88
226.445	-1.12
227.245	0.88
228.045	4.88
228.845	2.88
229.645	2.88
230.444	2.88
231.244	1.88
232.043	3.88
232.843	3.88
233.642	2.88
234.442	4.88
235.241	3.88
236.04	5.88
236.839	5.88
237.638	3.88
238.437	5.88
239.236	4.88
240.035	3.88
240.833	6.88
241.632	4.88
242.43	3.88
243.229	4.88
244.027	5.88
244.826	2.88
245.624	5.88
246.422	2.88
247.22	5.88
248.018	8.88
248.816	6.88
249.614	6.88
250.412	5.88
251.21	5.88
252.007	6.88
252.805	7.88
253.602	5.88
254.4	5.88
255.197	8.88
255.994	5.88
256.791	10.88
257.589	7.88
258.386	11.88
259.183	6.88
259.979	5.88
260.776	8.88
261.573	8.88
262.37	9.88
263.166	11.88
263.963	8.88
264.759	6.88
265.556	10.88
266.352	10.88
267.148	12.88
267.944	14.88
268.74	11.88
269.536	10.88
270.332	14.88
271.128	14.88
271.924	15.88
272.719	15.88
273.515	15.88
274.311	14.88
275.106	14.88
275.901	14.88
276.697	15.88
277.492	16.88
278.287	15.88
279.082	17.88
279.877	17.88
280.672	16.88
281.467	15.88
282.262	15.88
283.056	16.88
283.851	17.88
284.646	15.88
285.44	15.88
286.234	15.88
287.029	17.88
287.823	17.88
288.617	18.88
289.411	18.88
290.205	18.88
290.999	17.88
291.793	15.88
292.587	15.88
293.381	18.88
294.174	16.88
294.968	16.88
295.761	15.88
296.555	12.88
297.348	15.88
298.141	13.88
298.935	15.88
299.728	13.88
300.521	13.88
301.314	14.88
302.107	15.88
302.899	13.88
303.692	15.88
304.485	12.88
305.277	12.88
306.07	14.88
306.862	11.88
307.655	14.88
308.447	11.88
309.239	13.88
310.031	10.88
310.823	11.88
311.615	11.88
312.407	12.88
313.199	10.88
313.991	9.88
314.783	8.88
315.574	6.88
316.366	8.88
317.157	9.88
317.949	8.88
318.74	10.88
319.531	9.88
320.322	5.88
321.113	8.88
321.904	10.88
322.695	7.88
323.486	5.88
324.277	7.88
325.068	9.88
325.858	7.88
326.649	9.88
327.439	6.88
328.23	9.88
329.02	7.88
329.81	5.88
330.6	5.88
331.391	7.88
332.181	6.88
332.971	3.88
333.76	5.88
334.55	7.88
335.34	5.88
336.13	7.88
336.919	6.88
337.709	8.88
338.498	7.88
339.287	5.88
340.077	7.88
340.866	7.88
341.655	8.88
342.444	8.88
343.233	5.88
344.022	7.88
344.811	7.88
345.6	6.88
346.388	8.88
347.177	5.88
347.965	2.88
348.754	4.88
349.542	5.88
350.33	7.88
351.119	7.88
351.907	7.88
352.695	6.88
353.483	7.88
354.271	7.88
355.059	5.88
355.846	4.88
356.634	6.88
357.422	5.88
358.209	4.88
358.997	3.88
359.784	6.88
360.571	5.88
361.359	4.88
362.146	5.88
362.933	8.88
363.72	6.88
364.507	5.88
365.294	5.88
366.081	4.88
366.867	5.88
367.654	4.88
368.44	6.88
369.227	5.88
370.013	4.88
370.8	4.88
371.586	5.88
372.372	6.88
373.158	4.88
373.944	5.88
374.73	5.88
375.516	4.88
376.302	5.88
377.088	5.88
377.873	5.88
378.659	4.88
379.445	5.88
380.23	4.88
381.015	7.88
381.801	5.88
382.586	7.88
383.371	3.88
384.156	5.88
384.941	6.88
385.726	5.88
386.511	4.88
387.296	5.88
388.08	5.88
388.865	3.88
389.649	7.88
390.434	7.88
391.218	6.88
392.003	5.88
392.787	4.88
393.571	3.88
394.355	5.88
395.139	4.88
395.923	5.88
396.707	7.88
397.491	7.88
398.274	5.88
399.058	7.88
399.842	5.88
400.625	5.88
401.408	7.88
402.192	9.88
402.975	8.88
403.758	7.88
404.541	4.88
405.324	8.88
406.107	8.88
406.89	7.88
407.673	7.88
408.456	7.88
409.238	7.88
410.021	7.88
410.803	8.88
411.586	8.88
412.368	8.88
413.151	10.88
413.933	9.88
414.715	9.88
415.497	9.88
416.279	8.88
417.061	10.88
417.843	9.88
418.624	9.88
419.406	8.88
420.188	9.88
420.969	10.88
421.751	8.88
422.532	11.88
423.313	10.88
424.095	7.88
424.876	10.88
425.657	9.88
426.438	11.88
427.219	13.88
428	13.88
428.78	12.88
429.561	13.88
430.342	14.88
431.122	15.88
431.903	13.88
432.683	13.88
433.464	17.88
434.244	18.88
435.024	15.88
435.804	17.88
436.584	17.88
437.364	20.88
438.144	23.88
438.924	20.88
439.704	23.88
440.483	23.88
441.263	26.88
442.042	25.88
442.822	26.88
443.601	30.88
444.38	29.88
445.16	34.88
445.939	33.88
446.718	38.88
447.497	40.88
448.276	47.88
449.054	50.88
449.833	53.88
450.612	56.88
451.391	64.88
452.169	69.88
452.948	75.88
453.726	81.88
454.504	96.88
455.282	97.88
456.061	110.88
456.839	122.88
457.617	144.88
458.395	149.88
459.172	173.88
459.95	195.88
460.728	208.88
461.506	231.88
462.283	263.88
463.061	296.88
463.838	324.88
464.615	354.88
465.393	406.88
466.17	449.88
466.947	495.88
467.724	547.88
468.501	602.88
469.278	677.88
470.055	743.88
470.831	819.88
471.608	908.88
472.385	995.88
473.161	1100.88
473.938	1227.88
474.714	1333.88
475.49	1460.88
476.266	1609.88
477.043	1766.88
477.819	1926.88
478.595	2113.88
479.371	2336.88
480.146	2538.88
480.922	2782.88
481.698	3057.88
482.473	3311.88
483.249	3629.88
484.024	3939.88
484.8	4295.88
485.575	4678.88
486.35	5116.88
487.126	5536.88
487.901	6029.88
488.676	6573.88
489.451	7144.88
490.225	7756.88
491	8440.88
491.775	9157.88
492.55	9888.88
493.324	10672.88
494.099	11445.88
494.873	12308.88
495.647	13157.88
496.422	14183.88
497.196	15131.88
497.97	16140.88
498.744	17205.88
499.518	18178.88
500.292	19178.88
501.066	20225.88
501.839	21068.88
502.613	21998.88
503.387	22815.88
504.16	23494.88
504.934	24003.88
505.707	24373.88
506.48	24615.88
507.253	24826.88
508.027	24918.88
508.8	24900.88
509.573	24773.88
510.346	24419.88
511.118	23958.88
511.891	23404.88
512.664	22893.88
513.437	22147.88
514.209	21390.88
514.982	20622.88
515.754	19881.88
516.526	19039.88
517.298	18346.88
518.071	17581.88
518.843	16932.88
519.615	16324.88
520.387	15627.88
521.159	15053.88
521.93	14424.88
522.702	13860.88
523.474	13303.88
524.245	12772.88
525.017	12219.88
525.788	11775.88
526.56	11277.88
527.331	10750.88
528.102	10256.88
528.873	9869.88
529.644	9374.88
530.415	8958.88
531.186	8563.88
531.957	8134.88
532.728	7763.88
533.498	7396.88
534.269	6972.88
535.039	6636.88
535.81	6264.88
536.58	5952.88
537.351	5570.88
538.121	5281.88
538.891	5020.88
539.661	4754.88
540.431	4490.88
541.201	4243.88
541.971	3984.88
542.741	3806.88
543.51	3641.88
544.28	3434.88
545.05	3284.88
545.819	3116.88
546.588	2949.88
547.358	2820.88
548.127	2679.88
548.896	2534.88
549.665	2414.88
550.434	2305.88
551.203	2166.88
551.972	2068.88
552.741	1950.88
553.51	1844.88
554.278	1752.88
555.047	1653.88
555.815	1548.88
556.584	1482.88
557.352	1400.88
558.121	1325.88
558.889	1242.88
559.657	1179.88
560.425	1112.88
561.193	1053.88
561.961	990.88
562.729	938.88
563.496	885.88
564.264	834.88
565.032	781.88
565.799	759.88
566.567	710.88
567.334	670.88
568.101	632.88
568.869	598.88
569.636	558.88
570.403	531.88
571.17	495.88
571.937	467.88
572.704	435.88
573.471	427.88
574.237	386.88
575.004	376.88
575.771	352.88
576.537	333.88
577.303	312.88
578.07	292.88
578.836	276.88
579.602	260.88
580.368	249.88
581.134	234.88
581.9	226.88
582.666	205.88
583.432	198.88
584.198	186.88
584.964	176.88
585.729	166.88
586.495	163.88
587.26	152.88
588.025	144.88
588.791	138.88
589.556	127.88
590.321	121.88
591.086	119.88
591.851	109.88
592.616	102.88
593.381	102.88
594.146	93.88
594.911	89.88
595.675	88.88
596.44	81.88
597.204	78.88
597.969	73.88
598.733	72.88
599.497	69.88
600.261	67.88
601.025	63.88
601.79	57.88
602.553	54.88
603.317	51.88
604.081	51.88
604.845	47.88
605.609	47.88
606.372	45.88
607.136	45.88
607.899	42.88
608.662	39.88
609.426	37.88
610.189	35.88
610.952	34.88
611.715	34.88
612.478	34.88
613.241	30.88
614.004	31.88
614.767	29.88
615.529	26.88
616.292	26.88
617.055	25.88
617.817	25.88
618.579	24.88
619.342	26.88
620.104	23.88
620.866	20.88
621.628	22.88
622.39	18.88
623.152	20.88
623.914	18.88
624.676	17.88
625.438	15.88
626.199	15.88
626.961	14.88
627.722	14.88
628.484	18.88
629.245	18.88
630.006	15.88
630.768	14.88
631.529	14.88
632.29	14.88
633.051	13.88
633.812	12.88
634.573	13.88
635.333	12.88
636.094	12.88
636.855	11.88
637.615	12.88
638.376	12.88
639.136	11.88
639.896	11.88
640.657	10.88
641.417	10.88
642.177	8.88
642.937	9.88
643.697	11.88
644.457	11.88
645.216	7.88
645.976	8.88
646.736	8.88
647.495	8.88
648.255	7.88
649.014	8.88
649.774	5.88
650.533	8.88
651.292	7.88
652.051	6.88
652.81	7.88
653.569	6.88
654.328	7.88
655.087	4.88
655.846	6.88
656.604	4.88
657.363	6.88
658.121	5.88
658.88	5.88
659.638	9.88
660.397	5.88
661.155	6.88
661.913	4.88
662.671	5.88
663.429	6.88
664.187	6.88
664.945	7.88
665.703	4.88
666.46	4.88
667.218	6.88
667.976	3.88
668.733	6.88
669.49	6.88
670.248	8.88
671.005	4.88
671.762	6.88
672.519	3.88
673.276	4.88
674.033	2.88
674.79	5.88
675.547	2.88
676.304	5.88
677.06	6.88
677.817	5.88
678.574	4.88
679.33	5.88
680.086	4.88
680.843	2.88
681.599	5.88
682.355	4.88
683.111	4.88
683.867	4.88
684.623	4.88
685.379	4.88
686.135	5.88
686.89	4.88
687.646	2.88
688.402	4.88
689.157	2.88
689.912	4.88
690.668	1.88
691.423	4.88
692.178	4.88
692.933	4.88
693.688	5.88
694.443	4.88
695.198	5.88
695.953	5.88
696.708	5.88
697.462	3.88
698.217	5.88
698.972	2.88
699.726	5.88
700.48	5.88
701.235	4.88
701.989	4.88
702.743	4.88
703.497	5.88
704.251	1.88
705.005	5.88
705.759	4.88
706.513	2.88
707.266	3.88
708.02	4.88
708.774	2.88
709.527	2.88
710.28	1.88
711.034	4.88
711.787	4.88
712.54	4.88
713.293	2.88
714.046	2.88
714.799	4.88
715.552	6.88
716.305	3.88
717.058	4.88
717.81	1.88
718.563	2.88
719.315	1.88
720.068	3.88
720.82	3.88
721.573	2.88
722.325	2.88
723.077	3.88
723.829	2.88
724.581	2.88
725.333	3.88
726.085	3.88
726.836	3.88
727.588	2.88
728.34	3.88
729.091	3.88
729.843	5.88
730.594	6.88
731.346	5.88
732.097	3.88
732.848	4.88
733.599	4.88
734.35	5.88
735.101	3.88
735.852	2.88
736.603	3.88
737.354	2.88
738.104	6.88
738.855	2.88
739.605	4.88
740.356	5.88
741.106	6.88
741.856	4.88
742.607	6.88
743.357	6.88
744.107	3.88
744.857	4.88
745.607	5.88
746.357	5.88
747.106	4.88
747.856	3.88
748.606	4.88
749.355	5.88
750.105	3.88
750.854	3.88
751.603	4.88
752.353	4.88
753.102	4.88
753.851	5.88
754.6	4.88
755.349	6.88
756.098	4.88
756.847	5.88
757.595	2.88
758.344	6.88
759.093	6.88
759.841	3.88
760.589	5.88
761.338	4.88
762.086	4.88
762.834	6.88
763.582	7.88
764.331	7.88
765.079	5.88
765.826	4.88
766.574	7.88
767.322	4.88
768.07	8.88
768.817	5.88
769.565	7.88
770.312	7.88
771.06	5.88
771.807	6.88
772.554	6.88
773.302	5.88
774.049	6.88
774.796	7.88
775.543	7.88
776.29	7.88
777.036	8.88
777.783	7.88
778.53	7.88
779.276	7.88
780.023	8.88
780.769	8.88
781.516	8.88
782.262	10.88
783.008	7.88
783.754	8.88
784.5	7.88
785.246	9.88
785.992	9.88
786.738	8.88
787.484	9.88
788.23	9.88
788.975	9.88
789.721	7.88
790.466	7.88
791.212	9.88
791.957	10.88
792.702	8.88
793.447	5.88
794.193	7.88
794.938	6.88
795.683	7.88
796.427	7.88
797.172	7.88
797.917	8.88
798.662	7.88
799.406	7.88
800.151	8.88
800.895	5.88
801.64	6.88
802.384	5.88
803.128	7.88
803.872	8.88
804.616	6.88
805.36	6.88
806.104	5.88
806.848	7.88
807.592	4.88
808.336	7.88
809.079	6.88
809.823	7.88
810.566	7.88
811.31	5.88
812.053	6.88
812.796	6.88
813.539	4.88
814.283	4.88
815.026	5.88
815.769	6.88
816.511	4.88
817.254	4.88
817.997	7.88
818.74	5.88
819.482	5.88
820.225	4.88
820.967	6.88
821.71	2.88
822.452	5.88
823.194	5.88
823.936	2.88
824.678	5.88
825.42	2.88
826.162	3.88
826.904	3.88
827.646	6.88
828.388	3.88
829.129	3.88
829.871	6.88
830.612	4.88
831.354	4.88
832.095	1.88
832.836	2.88
833.577	2.88
834.319	4.88
835.06	2.88
835.801	5.88
836.542	4.88
837.282	2.88
838.023	4.88
838.764	4.88
839.504	4.88
840.245	7.88
840.985	2.88
841.726	3.88
842.466	5.88
843.206	3.88
843.946	2.88
844.687	2.88
845.427	3.88
846.166	1.88
846.906	4.88
847.646	2.88
848.386	5.88
849.125	3.88
849.865	3.88
850.605	2.88
851.344	3.88
852.083	2.88
852.823	3.88
853.562	3.88
854.301	0.88
855.04	2.88
855.779	4.88
856.518	2.88
857.257	2.88
857.995	3.88
858.734	2.88
859.473	2.88
860.211	4.88
860.95	2.88
861.688	4.88
862.426	0.88
863.165	2.88
863.903	3.88
864.641	2.88
865.379	0.88
866.117	1.88
866.855	2.88
867.593	2.88
868.33	0.88
869.068	2.88
869.806	1.88
870.543	1.88
871.28	2.88
872.018	1.88
872.755	2.88
873.492	2.88
874.229	0.88
874.967	1.88
875.703	1.88
876.44	2.88
877.177	1.88
877.914	0.88
878.651	3.88
879.387	-0.12
880.124	0.88
880.86	2.88
881.597	2.88
882.333	2.88
883.069	2.88
883.806	1.88
884.542	1.88
885.278	1.88
886.014	2.88
886.749	0.88
887.485	0.88
888.221	2.88
888.957	0.88
889.692	0.88
890.428	-0.12
891.163	1.88
891.899	2.88
892.634	1.88
893.369	0.88
894.104	2.88
894.839	0.88
895.574	1.88
896.309	0.88
897.044	1.88
897.779	1.88
898.514	-0.12
899.248	-0.12
899.983	0.88
900.717	-0.12
901.452	1.88
902.186	2.88
902.92	1.88
903.654	1.88
904.389	2.88
905.123	1.88
905.857	-0.12
906.59	0.88
907.324	-0.12
908.058	2.88
908.792	0.88
909.525	0.88
910.259	2.88
910.992	1.88
911.726	0.88
912.459	-0.12
913.192	3.88
913.925	0.88
914.658	0.88
915.391	0.88
916.124	2.88
916.857	0.88
917.59	1.88
918.323	1.88
919.055	0.88
919.788	1.88
920.521	-0.12
921.253	1.88
921.985	1.88
922.718	-0.12
923.45	0.88
924.182	-0.12
924.914	1.88
925.646	0.88
926.378	1.88
927.11	-1.12
927.841	-0.12
928.573	-1.12
929.305	-1.12
930.036	0.88
930.768	0.88
931.499	0.88
932.23	1.88
932.962	0.88
933.693	1.88
934.424	0.88
935.155	0.88
935.886	0.88
936.617	1.88
937.348	-0.12
938.078	-0.12
938.809	1.88
939.54	-1.12
940.27	1.88
941.001	0.88
941.731	1.88
942.461	0.88
943.191	0.88
943.922	1.88
944.652	0.88
945.382	2.88
946.112	1.88
946.841	1.88
947.571	0.88
948.301	1.88
949.031	0.88
949.76	2.88
950.49	2.88
951.219	1.88
951.948	0.88
952.678	-0.12
953.407	-0.12
954.136	1.88
954.865	1.88
955.594	-0.12
956.323	0.88
957.052	-0.12
957.78	-0.12
958.509	-0.12
959.238	2.88
959.966	1.88
960.695	1.88
961.423	1.88
962.151	-1.12
962.88	2.88
963.608	2.88
964.336	1.88
965.064	-1.12
965.792	0.88
966.52	1.88
967.247	0.88
967.975	1.88
968.703	-1.12
969.43	0.88
970.158	1.88
970.885	-0.12
971.613	1.88
972.34	1.88
973.067	0.88
973.794	0.88
974.521	0.88
975.248	1.88
975.975	0.88
976.702	1.88
977.429	0.88
978.156	0.88
978.882	1.88
979.609	0.88
980.335	1.88
981.062	-1.12
981.788	0.88
982.514	0.88
983.24	1.88
983.967	0.88
984.693	0.88
985.419	0.88
986.144	0.88
986.87	1.88
987.596	0.88
988.322	2.88
989.047	0.88
989.773	1.88
990.498	0.88
991.224	-0.12
991.949	1.88
992.674	-0.12
993.399	-1.12
994.124	-1.12
994.849	-0.12
995.574	-0.12
996.299	0.88
997.024	2.88
997.749	0.88
998.473	1.88
999.198	1.88
999.922	0.88
1000.647	0.88
1001.371	3.88
1002.095	-0.12
1002.82	-2.12
1003.544	-1.12
1004.268	1.88
1004.992	1.88
1005.716	1.88
1006.439	1.88
1007.163	2.88
1007.887	2.88
1008.611	1.88
1009.334	2.88
1010.058	1.88
1010.781	-0.12
1011.504	-0.12
1012.228	0.88
1012.951	0.88
1013.674	-0.12
1014.397	0.88
1015.12	-2.12
