节点500_285_QEPB04081__224__14-59-16-997.txt的数据

Date: Wed Nov 12 14:59:16 CST 2025
User: PC
Spectrometer: QEPB0408
触发模式: 0
积分时间 (秒): 1.000000E-2
Scans to average: 1
启用暗噪声校正: true
启用非线性校正: false
滑动平均宽度: 0
X轴模式: Wavelengths
Number of Pixels in Spectrum: 1044
>>>>>Begin Spectral Data<<<<<
220.843	1.62
221.644	0.62
222.444	2.62
223.244	1.62
224.045	2.62
224.845	3.62
225.645	1.62
226.445	2.62
227.245	1.62
228.045	4.62
228.845	3.62
229.645	1.62
230.444	5.62
231.244	3.62
232.043	3.62
232.843	3.62
233.642	0.62
234.442	5.62
235.241	3.62
236.04	3.62
236.839	3.62
237.638	3.62
238.437	4.62
239.236	3.62
240.035	5.62
240.833	4.62
241.632	4.62
242.43	4.62
243.229	5.62
244.027	3.62
244.826	3.62
245.624	7.62
246.422	4.62
247.22	5.62
248.018	8.62
248.816	5.62
249.614	9.62
250.412	6.62
251.21	7.62
252.007	9.62
252.805	9.62
253.602	7.62
254.4	4.62
255.197	7.62
255.994	7.62
256.791	6.62
257.589	7.62
258.386	7.62
259.183	8.62
259.979	9.62
260.776	10.62
261.573	9.62
262.37	8.62
263.166	11.62
263.963	11.62
264.759	10.62
265.556	13.62
266.352	11.62
267.148	11.62
267.944	13.62
268.74	14.62
269.536	12.62
270.332	14.62
271.128	16.62
271.924	14.62
272.719	16.62
273.515	15.62
274.311	18.62
275.106	18.62
275.901	18.62
276.697	18.62
277.492	17.62
278.287	17.62
279.082	18.62
279.877	18.62
280.672	15.62
281.467	18.62
282.262	19.62
283.056	19.62
283.851	23.62
284.646	19.62
285.44	23.62
286.234	17.62
287.029	19.62
287.823	17.62
288.617	17.62
289.411	18.62
290.205	18.62
290.999	19.62
291.793	17.62
292.587	17.62
293.381	16.62
294.174	17.62
294.968	17.62
295.761	16.62
296.555	15.62
297.348	16.62
298.141	16.62
298.935	18.62
299.728	13.62
300.521	14.62
301.314	14.62
302.107	12.62
302.899	13.62
303.692	8.62
304.485	14.62
305.277	13.62
306.07	11.62
306.862	13.62
307.655	12.62
308.447	11.62
309.239	13.62
310.031	13.62
310.823	9.62
311.615	8.62
312.407	11.62
313.199	10.62
313.991	8.62
314.783	9.62
315.574	6.62
316.366	8.62
317.157	9.62
317.949	8.62
318.74	10.62
319.531	6.62
320.322	9.62
321.113	6.62
321.904	8.62
322.695	8.62
323.486	7.62
324.277	9.62
325.068	8.62
325.858	7.62
326.649	5.62
327.439	7.62
328.23	3.62
329.02	8.62
329.81	8.62
330.6	6.62
331.391	5.62
332.181	6.62
332.971	9.62
333.76	4.62
334.55	6.62
335.34	7.62
336.13	8.62
336.919	5.62
337.709	4.62
338.498	6.62
339.287	7.62
340.077	7.62
340.866	6.62
341.655	6.62
342.444	7.62
343.233	6.62
344.022	8.62
344.811	9.62
345.6	7.62
346.388	5.62
347.177	8.62
347.965	4.62
348.754	4.62
349.542	6.62
350.33	5.62
351.119	7.62
351.907	6.62
352.695	4.62
353.483	5.62
354.271	5.62
355.059	5.62
355.846	6.62
356.634	4.62
357.422	5.62
358.209	7.62
358.997	3.62
359.784	4.62
360.571	5.62
361.359	5.62
362.146	7.62
362.933	6.62
363.72	7.62
364.507	5.62
365.294	4.62
366.081	3.62
366.867	5.62
367.654	5.62
368.44	4.62
369.227	5.62
370.013	1.62
370.8	6.62
371.586	6.62
372.372	4.62
373.158	4.62
373.944	4.62
374.73	5.62
375.516	4.62
376.302	4.62
377.088	5.62
377.873	3.62
378.659	4.62
379.445	6.62
380.23	6.62
381.015	4.62
381.801	5.62
382.586	4.62
383.371	4.62
384.156	6.62
384.941	4.62
385.726	6.62
386.511	4.62
387.296	5.62
388.08	7.62
388.865	5.62
389.649	7.62
390.434	4.62
391.218	6.62
392.003	5.62
392.787	8.62
393.571	8.62
394.355	7.62
395.139	7.62
395.923	6.62
396.707	6.62
397.491	7.62
398.274	5.62
399.058	8.62
399.842	8.62
400.625	6.62
401.408	7.62
402.192	6.62
402.975	7.62
403.758	8.62
404.541	8.62
405.324	8.62
406.107	8.62
406.89	7.62
407.673	5.62
408.456	5.62
409.238	8.62
410.021	8.62
410.803	10.62
411.586	7.62
412.368	8.62
413.151	9.62
413.933	7.62
414.715	7.62
415.497	11.62
416.279	11.62
417.061	8.62
417.843	10.62
418.624	7.62
419.406	10.62
420.188	10.62
420.969	9.62
421.751	8.62
422.532	10.62
423.313	10.62
424.095	13.62
424.876	11.62
425.657	11.62
426.438	13.62
427.219	11.62
428	10.62
428.78	15.62
429.561	12.62
430.342	13.62
431.122	12.62
431.903	17.62
432.683	11.62
433.464	16.62
434.244	15.62
435.024	17.62
435.804	20.62
436.584	15.62
437.364	17.62
438.144	20.62
438.924	19.62
439.704	22.62
440.483	23.62
441.263	25.62
442.042	25.62
442.822	25.62
443.601	26.62
444.38	30.62
445.16	34.62
445.939	34.62
446.718	35.62
447.497	40.62
448.276	42.62
449.054	44.62
449.833	45.62
450.612	53.62
451.391	54.62
452.169	62.62
452.948	70.62
453.726	72.62
454.504	79.62
455.282	86.62
456.061	97.62
456.839	109.62
457.617	118.62
458.395	128.62
459.172	145.62
459.95	162.62
460.728	181.62
461.506	203.62
462.283	222.62
463.061	252.62
463.838	283.62
464.615	313.62
465.393	354.62
466.17	402.62
466.947	439.62
467.724	482.62
468.501	544.62
469.278	607.62
470.055	675.62
470.831	753.62
471.608	833.62
472.385	920.62
473.161	1037.62
473.938	1156.62
474.714	1280.62
475.49	1409.62
476.266	1563.62
477.043	1735.62
477.819	1904.62
478.595	2115.62
479.371	2352.62
480.146	2615.62
480.922	2877.62
481.698	3166.62
482.473	3520.62
483.249	3844.62
484.024	4252.62
484.8	4640.62
485.575	5173.62
486.35	5665.62
487.126	6236.62
487.901	6864.62
488.676	7518.62
489.451	8255.62
490.225	9068.62
491	9888.62
491.775	10849.62
492.55	11799.62
493.324	12829.62
494.099	13836.62
494.873	14847.62
495.647	16101.62
496.422	17269.62
497.196	18472.62
497.97	19795.62
498.744	20981.62
499.518	22143.62
500.292	23359.62
501.066	24444.62
501.839	25287.62
502.613	26193.62
503.387	27012.62
504.16	27586.62
504.934	27907.62
505.707	28006.62
506.48	28029.62
507.253	27740.62
508.027	27554.62
508.8	27185.62
509.573	26690.62
510.346	26003.62
511.118	25077.62
511.891	24314.62
512.664	23389.62
513.437	22476.62
514.209	21457.62
514.982	20613.62
515.754	19685.62
516.526	18803.62
517.298	17935.62
518.071	17149.62
518.843	16496.62
519.615	15885.62
520.387	15191.62
521.159	14611.62
521.93	14080.62
522.702	13521.62
523.474	12929.62
524.245	12386.62
525.017	11824.62
525.788	11379.62
526.56	10844.62
527.331	10313.62
528.102	9856.62
528.873	9415.62
529.644	8915.62
530.415	8484.62
531.186	8059.62
531.957	7619.62
532.728	7234.62
533.498	6866.62
534.269	6496.62
535.039	6100.62
535.81	5770.62
536.58	5422.62
537.351	5122.62
538.121	4863.62
538.891	4609.62
539.661	4333.62
540.431	4079.62
541.201	3852.62
541.971	3663.62
542.741	3471.62
543.51	3305.62
544.28	3145.62
545.05	2995.62
545.819	2831.62
546.588	2699.62
547.358	2561.62
548.127	2443.62
548.896	2313.62
549.665	2209.62
550.434	2080.62
551.203	1963.62
551.972	1855.62
552.741	1758.62
553.51	1666.62
554.278	1564.62
555.047	1477.62
555.815	1389.62
556.584	1315.62
557.352	1251.62
558.121	1169.62
558.889	1094.62
559.657	1045.62
560.425	980.62
561.193	904.62
561.961	884.62
562.729	825.62
563.496	790.62
564.264	731.62
565.032	706.62
565.799	671.62
566.567	626.62
567.334	598.62
568.101	554.62
568.869	537.62
569.636	501.62
570.403	457.62
571.17	439.62
571.937	413.62
572.704	388.62
573.471	371.62
574.237	347.62
575.004	330.62
575.771	311.62
576.537	285.62
577.303	276.62
578.07	261.62
578.836	242.62
579.602	225.62
580.368	219.62
581.134	204.62
581.9	200.62
582.666	184.62
583.432	177.62
584.198	168.62
584.964	154.62
585.729	155.62
586.495	139.62
587.26	132.62
588.025	126.62
588.791	121.62
589.556	112.62
590.321	109.62
591.086	101.62
591.851	96.62
592.616	90.62
593.381	88.62
594.146	87.62
594.911	81.62
595.675	77.62
596.44	71.62
597.204	67.62
597.969	65.62
598.733	64.62
599.497	65.62
600.261	57.62
601.025	54.62
601.79	50.62
602.553	52.62
603.317	49.62
604.081	48.62
604.845	43.62
605.609	41.62
606.372	43.62
607.136	38.62
607.899	35.62
608.662	37.62
609.426	32.62
610.189	33.62
610.952	33.62
611.715	33.62
612.478	28.62
613.241	27.62
614.004	29.62
614.767	29.62
615.529	24.62
616.292	21.62
617.055	24.62
617.817	22.62
618.579	21.62
619.342	23.62
620.104	19.62
620.866	18.62
621.628	19.62
622.39	15.62
623.152	18.62
623.914	16.62
624.676	17.62
625.438	16.62
626.199	14.62
626.961	14.62
627.722	12.62
628.484	13.62
629.245	14.62
630.006	12.62
630.768	12.62
631.529	16.62
632.29	10.62
633.051	12.62
633.812	12.62
634.573	10.62
635.333	11.62
636.094	10.62
636.855	13.62
637.615	10.62
638.376	12.62
639.136	9.62
639.896	8.62
640.657	11.62
641.417	9.62
642.177	8.62
642.937	9.62
643.697	7.62
644.457	8.62
645.216	7.62
645.976	10.62
646.736	6.62
647.495	7.62
648.255	9.62
649.014	8.62
649.774	7.62
650.533	7.62
651.292	7.62
652.051	7.62
652.81	6.62
653.569	7.62
654.328	5.62
655.087	6.62
655.846	6.62
656.604	6.62
657.363	6.62
658.121	2.62
658.88	5.62
659.638	2.62
660.397	4.62
661.155	6.62
661.913	4.62
662.671	5.62
663.429	5.62
664.187	5.62
664.945	7.62
665.703	5.62
666.46	5.62
667.218	3.62
667.976	6.62
668.733	3.62
669.49	3.62
670.248	5.62
671.005	4.62
671.762	3.62
672.519	4.62
673.276	6.62
674.033	3.62
674.79	3.62
675.547	1.62
676.304	3.62
677.06	3.62
677.817	2.62
678.574	4.62
679.33	3.62
680.086	4.62
680.843	4.62
681.599	3.62
682.355	3.62
683.111	4.62
683.867	6.62
684.623	4.62
685.379	3.62
686.135	2.62
686.89	1.62
687.646	3.62
688.402	1.62
689.157	4.62
689.912	4.62
690.668	4.62
691.423	5.62
692.178	4.62
692.933	4.62
693.688	5.62
694.443	5.62
695.198	4.62
695.953	3.62
696.708	3.62
697.462	3.62
698.217	5.62
698.972	1.62
699.726	4.62
700.48	4.62
701.235	3.62
701.989	3.62
702.743	4.62
703.497	3.62
704.251	3.62
705.005	3.62
705.759	3.62
706.513	3.62
707.266	7.62
708.02	3.62
708.774	3.62
709.527	4.62
710.28	1.62
711.034	3.62
711.787	3.62
712.54	4.62
713.293	0.62
714.046	5.62
714.799	3.62
715.552	2.62
716.305	2.62
717.058	3.62
717.81	2.62
718.563	4.62
719.315	4.62
720.068	6.62
720.82	3.62
721.573	5.62
722.325	3.62
723.077	1.62
723.829	3.62
724.581	4.62
725.333	6.62
726.085	6.62
726.836	5.62
727.588	3.62
728.34	3.62
729.091	5.62
729.843	2.62
730.594	3.62
731.346	3.62
732.097	3.62
732.848	4.62
733.599	2.62
734.35	6.62
735.101	3.62
735.852	4.62
736.603	4.62
737.354	1.62
738.104	4.62
738.855	3.62
739.605	5.62
740.356	4.62
741.106	3.62
741.856	4.62
742.607	5.62
743.357	6.62
744.107	4.62
744.857	4.62
745.607	4.62
746.357	4.62
747.106	7.62
747.856	5.62
748.606	5.62
749.355	5.62
750.105	4.62
750.854	5.62
751.603	5.62
752.353	4.62
753.102	3.62
753.851	6.62
754.6	1.62
755.349	5.62
756.098	4.62
756.847	6.62
757.595	7.62
758.344	4.62
759.093	7.62
759.841	5.62
760.589	6.62
761.338	7.62
762.086	6.62
762.834	5.62
763.582	6.62
764.331	5.62
765.079	8.62
765.826	6.62
766.574	8.62
767.322	4.62
768.07	6.62
768.817	7.62
769.565	6.62
770.312	7.62
771.06	6.62
771.807	7.62
772.554	4.62
773.302	7.62
774.049	8.62
774.796	5.62
775.543	9.62
776.29	8.62
777.036	8.62
777.783	8.62
778.53	8.62
779.276	9.62
780.023	7.62
780.769	9.62
781.516	10.62
782.262	9.62
783.008	9.62
783.754	7.62
784.5	8.62
785.246	7.62
785.992	8.62
786.738	6.62
787.484	11.62
788.23	9.62
788.975	8.62
789.721	8.62
790.466	9.62
791.212	7.62
791.957	9.62
792.702	10.62
793.447	7.62
794.193	7.62
794.938	10.62
795.683	7.62
796.427	7.62
797.172	8.62
797.917	8.62
798.662	5.62
799.406	6.62
800.151	6.62
800.895	7.62
801.64	6.62
802.384	6.62
803.128	9.62
803.872	7.62
804.616	7.62
805.36	7.62
806.104	5.62
806.848	6.62
807.592	6.62
808.336	6.62
809.079	5.62
809.823	5.62
810.566	7.62
811.31	7.62
812.053	5.62
812.796	5.62
813.539	1.62
814.283	4.62
815.026	5.62
815.769	3.62
816.511	4.62
817.254	6.62
817.997	3.62
818.74	5.62
819.482	5.62
820.225	5.62
820.967	4.62
821.71	6.62
822.452	3.62
823.194	3.62
823.936	2.62
824.678	2.62
825.42	3.62
826.162	4.62
826.904	4.62
827.646	3.62
828.388	4.62
829.129	5.62
829.871	3.62
830.612	3.62
831.354	4.62
832.095	2.62
832.836	5.62
833.577	3.62
834.319	3.62
835.06	2.62
835.801	3.62
836.542	0.62
837.282	3.62
838.023	4.62
838.764	3.62
839.504	4.62
840.245	4.62
840.985	3.62
841.726	3.62
842.466	4.62
843.206	1.62
843.946	4.62
844.687	2.62
845.427	4.62
846.166	3.62
846.906	3.62
847.646	1.62
848.386	3.62
849.125	4.62
849.865	1.62
850.605	3.62
851.344	4.62
852.083	1.62
852.823	2.62
853.562	5.62
854.301	3.62
855.04	4.62
855.779	1.62
856.518	2.62
857.257	2.62
857.995	-0.38
858.734	4.62
859.473	3.62
860.211	4.62
860.95	2.62
861.688	2.62
862.426	1.62
863.165	1.62
863.903	1.62
864.641	2.62
865.379	1.62
866.117	0.62
866.855	0.62
867.593	2.62
868.33	1.62
869.068	-0.38
869.806	1.62
870.543	0.62
871.28	1.62
872.018	3.62
872.755	1.62
873.492	0.62
874.229	-1.38
874.967	0.62
875.703	2.62
876.44	2.62
877.177	1.62
877.914	-0.38
878.651	-0.38
879.387	-0.38
880.124	3.62
880.86	0.62
881.597	3.62
882.333	1.62
883.069	-1.38
883.806	1.62
884.542	2.62
885.278	-0.38
886.014	0.62
886.749	1.62
887.485	2.62
888.221	0.62
888.957	0.62
889.692	1.62
890.428	0.62
891.163	3.62
891.899	-0.38
892.634	-0.38
893.369	-0.38
894.104	3.62
894.839	0.62
895.574	0.62
896.309	1.62
897.044	0.62
897.779	3.62
898.514	0.62
899.248	1.62
899.983	1.62
900.717	-0.38
901.452	-0.38
902.186	-1.38
902.92	0.62
903.654	0.62
904.389	0.62
905.123	-2.38
905.857	1.62
906.59	1.62
907.324	-0.38
908.058	0.62
908.792	1.62
909.525	-2.38
910.259	-0.38
910.992	-1.38
911.726	3.62
912.459	-1.38
913.192	-0.38
913.925	-0.38
914.658	0.62
915.391	-0.38
916.124	-0.38
916.857	1.62
917.59	1.62
918.323	3.62
919.055	1.62
919.788	-0.38
920.521	-0.38
921.253	1.62
921.985	1.62
922.718	1.62
923.45	0.62
924.182	1.62
924.914	-0.38
925.646	2.62
926.378	1.62
927.11	0.62
927.841	0.62
928.573	-2.38
929.305	1.62
930.036	1.62
930.768	1.62
931.499	2.62
932.23	0.62
932.962	0.62
933.693	-0.38
934.424	-0.38
935.155	-1.38
935.886	0.62
936.617	0.62
937.348	-1.38
938.078	1.62
938.809	-0.38
939.54	0.62
940.27	-0.38
941.001	0.62
941.731	0.62
942.461	0.62
943.191	1.62
943.922	-0.38
944.652	-1.38
945.382	-1.38
946.112	-1.38
946.841	-0.38
947.571	-0.38
948.301	-0.38
949.031	-0.38
949.76	-0.38
950.49	0.62
951.219	-1.38
951.948	2.62
952.678	0.62
953.407	-0.38
954.136	1.62
954.865	-0.38
955.594	-0.38
956.323	-1.38
957.052	1.62
957.78	0.62
958.509	0.62
959.238	-0.38
959.966	-0.38
960.695	2.62
961.423	-0.38
962.151	-0.38
962.88	0.62
963.608	0.62
964.336	-0.38
965.064	-0.38
965.792	0.62
966.52	-0.38
967.247	-0.38
967.975	0.62
968.703	0.62
969.43	0.62
970.158	0.62
970.885	0.62
971.613	1.62
972.34	1.62
973.067	3.62
973.794	-0.38
974.521	-0.38
975.248	0.62
975.975	-0.38
976.702	0.62
977.429	1.62
978.156	0.62
978.882	-0.38
979.609	1.62
980.335	-1.38
981.062	1.62
981.788	0.62
982.514	0.62
983.24	0.62
983.967	-0.38
984.693	0.62
985.419	0.62
986.144	-1.38
986.87	1.62
987.596	-0.38
988.322	0.62
989.047	1.62
989.773	0.62
990.498	-1.38
991.224	-1.38
991.949	1.62
992.674	0.62
993.399	0.62
994.124	-2.38
994.849	1.62
995.574	1.62
996.299	-0.38
997.024	-1.38
997.749	-1.38
998.473	-1.38
999.198	1.62
999.922	-1.38
1000.647	0.62
1001.371	3.62
1002.095	1.62
1002.82	-1.38
1003.544	-0.38
1004.268	1.62
1004.992	1.62
1005.716	1.62
1006.439	3.62
1007.163	0.62
1007.887	-1.38
1008.611	-1.38
1009.334	-0.38
1010.058	-1.38
1010.781	1.62
1011.504	1.62
1012.228	1.62
1012.951	-3.38
1013.674	-0.38
1014.397	-0.38
1015.12	0.62
