节点500_285_QEPB04081__805__15-08-56-732.txt的数据

Date: Wed Nov 12 15:08:56 CST 2025
User: PC
Spectrometer: QEPB0408
触发模式: 0
积分时间 (秒): 1.000000E-2
Scans to average: 1
启用暗噪声校正: true
启用非线性校正: false
滑动平均宽度: 0
X轴模式: Wavelengths
Number of Pixels in Spectrum: 1044
>>>>>Begin Spectral Data<<<<<
220.843	2.12
221.644	1.12
222.444	1.12
223.244	0.12
224.045	3.12
224.845	2.12
225.645	2.12
226.445	3.12
227.245	3.12
228.045	3.12
228.845	3.12
229.645	2.12
230.444	4.12
231.244	4.12
232.043	4.12
232.843	4.12
233.642	4.12
234.442	1.12
235.241	4.12
236.04	4.12
236.839	4.12
237.638	4.12
238.437	3.12
239.236	4.12
240.035	3.12
240.833	3.12
241.632	4.12
242.43	4.12
243.229	4.12
244.027	3.12
244.826	7.12
245.624	4.12
246.422	7.12
247.22	5.12
248.018	4.12
248.816	6.12
249.614	5.12
250.412	4.12
251.21	6.12
252.007	5.12
252.805	5.12
253.602	6.12
254.4	8.12
255.197	6.12
255.994	7.12
256.791	6.12
257.589	7.12
258.386	8.12
259.183	8.12
259.979	8.12
260.776	8.12
261.573	10.12
262.37	11.12
263.166	10.12
263.963	12.12
264.759	9.12
265.556	12.12
266.352	8.12
267.148	13.12
267.944	10.12
268.74	12.12
269.536	13.12
270.332	15.12
271.128	12.12
271.924	11.12
272.719	13.12
273.515	14.12
274.311	10.12
275.106	12.12
275.901	16.12
276.697	16.12
277.492	13.12
278.287	16.12
279.082	17.12
279.877	16.12
280.672	17.12
281.467	17.12
282.262	16.12
283.056	18.12
283.851	14.12
284.646	19.12
285.44	14.12
286.234	17.12
287.029	16.12
287.823	17.12
288.617	17.12
289.411	16.12
290.205	16.12
290.999	19.12
291.793	18.12
292.587	14.12
293.381	14.12
294.174	16.12
294.968	16.12
295.761	16.12
296.555	16.12
297.348	14.12
298.141	16.12
298.935	17.12
299.728	14.12
300.521	12.12
301.314	16.12
302.107	13.12
302.899	14.12
303.692	13.12
304.485	13.12
305.277	14.12
306.07	13.12
306.862	11.12
307.655	12.12
308.447	10.12
309.239	12.12
310.031	13.12
310.823	10.12
311.615	11.12
312.407	14.12
313.199	10.12
313.991	11.12
314.783	12.12
315.574	8.12
316.366	10.12
317.157	10.12
317.949	10.12
318.74	9.12
319.531	9.12
320.322	8.12
321.113	8.12
321.904	9.12
322.695	9.12
323.486	7.12
324.277	9.12
325.068	6.12
325.858	7.12
326.649	4.12
327.439	5.12
328.23	6.12
329.02	8.12
329.81	8.12
330.6	8.12
331.391	5.12
332.181	6.12
332.971	5.12
333.76	8.12
334.55	7.12
335.34	7.12
336.13	7.12
336.919	8.12
337.709	7.12
338.498	5.12
339.287	7.12
340.077	9.12
340.866	9.12
341.655	5.12
342.444	6.12
343.233	7.12
344.022	5.12
344.811	7.12
345.6	5.12
346.388	5.12
347.177	7.12
347.965	5.12
348.754	5.12
349.542	4.12
350.33	6.12
351.119	8.12
351.907	6.12
352.695	8.12
353.483	6.12
354.271	7.12
355.059	4.12
355.846	4.12
356.634	5.12
357.422	8.12
358.209	5.12
358.997	6.12
359.784	5.12
360.571	6.12
361.359	8.12
362.146	3.12
362.933	5.12
363.72	6.12
364.507	4.12
365.294	5.12
366.081	1.12
366.867	5.12
367.654	6.12
368.44	4.12
369.227	6.12
370.013	5.12
370.8	4.12
371.586	5.12
372.372	5.12
373.158	4.12
373.944	6.12
374.73	5.12
375.516	5.12
376.302	5.12
377.088	4.12
377.873	8.12
378.659	4.12
379.445	6.12
380.23	6.12
381.015	6.12
381.801	5.12
382.586	6.12
383.371	4.12
384.156	6.12
384.941	3.12
385.726	3.12
386.511	3.12
387.296	9.12
388.08	4.12
388.865	5.12
389.649	5.12
390.434	4.12
391.218	9.12
392.003	6.12
392.787	7.12
393.571	3.12
394.355	5.12
395.139	7.12
395.923	4.12
396.707	7.12
397.491	6.12
398.274	6.12
399.058	6.12
399.842	7.12
400.625	8.12
401.408	6.12
402.192	7.12
402.975	5.12
403.758	7.12
404.541	7.12
405.324	8.12
406.107	8.12
406.89	8.12
407.673	9.12
408.456	6.12
409.238	9.12
410.021	5.12
410.803	7.12
411.586	7.12
412.368	10.12
413.151	8.12
413.933	8.12
414.715	7.12
415.497	8.12
416.279	10.12
417.061	10.12
417.843	8.12
418.624	9.12
419.406	8.12
420.188	8.12
420.969	9.12
421.751	8.12
422.532	12.12
423.313	9.12
424.095	11.12
424.876	11.12
425.657	8.12
426.438	13.12
427.219	12.12
428	13.12
428.78	12.12
429.561	14.12
430.342	14.12
431.122	11.12
431.903	13.12
432.683	16.12
433.464	15.12
434.244	16.12
435.024	18.12
435.804	16.12
436.584	19.12
437.364	18.12
438.144	21.12
438.924	20.12
439.704	22.12
440.483	22.12
441.263	23.12
442.042	25.12
442.822	27.12
443.601	29.12
444.38	30.12
445.16	34.12
445.939	34.12
446.718	38.12
447.497	39.12
448.276	44.12
449.054	47.12
449.833	53.12
450.612	56.12
451.391	61.12
452.169	67.12
452.948	74.12
453.726	84.12
454.504	92.12
455.282	101.12
456.061	109.12
456.839	124.12
457.617	138.12
458.395	155.12
459.172	169.12
459.95	187.12
460.728	204.12
461.506	231.12
462.283	256.12
463.061	286.12
463.838	321.12
464.615	358.12
465.393	397.12
466.17	437.12
466.947	488.12
467.724	544.12
468.501	602.12
469.278	665.12
470.055	747.12
470.831	805.12
471.608	904.12
472.385	994.12
473.161	1091.12
473.938	1212.12
474.714	1324.12
475.49	1460.12
476.266	1606.12
477.043	1765.12
477.819	1936.12
478.595	2126.12
479.371	2327.12
480.146	2522.12
480.922	2808.12
481.698	3031.12
482.473	3326.12
483.249	3641.12
484.024	3937.12
484.8	4315.12
485.575	4718.12
486.35	5144.12
487.126	5612.12
487.901	6127.12
488.676	6637.12
489.451	7214.12
490.225	7875.12
491	8481.12
491.775	9278.12
492.55	10026.12
493.324	10825.12
494.099	11616.12
494.873	12478.12
495.647	13360.12
496.422	14340.12
497.196	15329.12
497.97	16400.12
498.744	17400.12
499.518	18463.12
500.292	19476.12
501.066	20483.12
501.839	21393.12
502.613	22271.12
503.387	23108.12
504.16	23894.12
504.934	24237.12
505.707	24701.12
506.48	24915.12
507.253	25087.12
508.027	25066.12
508.8	25094.12
509.573	24893.12
510.346	24557.12
511.118	24041.12
511.891	23459.12
512.664	22896.12
513.437	22185.12
514.209	21409.12
514.982	20656.12
515.754	19857.12
516.526	19040.12
517.298	18262.12
518.071	17521.12
518.843	16850.12
519.615	16300.12
520.387	15619.12
521.159	14969.12
521.93	14366.12
522.702	13831.12
523.474	13241.12
524.245	12692.12
525.017	12170.12
525.788	11728.12
526.56	11227.12
527.331	10722.12
528.102	10245.12
528.873	9776.12
529.644	9332.12
530.415	8956.12
531.186	8507.12
531.957	8078.12
532.728	7730.12
533.498	7336.12
534.269	6931.12
535.039	6563.12
535.81	6235.12
536.58	5873.12
537.351	5556.12
538.121	5263.12
538.891	4973.12
539.661	4728.12
540.431	4448.12
541.201	4207.12
541.971	3996.12
542.741	3757.12
543.51	3608.12
544.28	3428.12
545.05	3267.12
545.819	3089.12
546.588	2925.12
547.358	2792.12
548.127	2661.12
548.896	2520.12
549.665	2392.12
550.434	2278.12
551.203	2152.12
551.972	2036.12
552.741	1940.12
553.51	1837.12
554.278	1736.12
555.047	1634.12
555.815	1537.12
556.584	1465.12
557.352	1384.12
558.121	1307.12
558.889	1234.12
559.657	1165.12
560.425	1104.12
561.193	1041.12
561.961	986.12
562.729	918.12
563.496	884.12
564.264	824.12
565.032	788.12
565.799	735.12
566.567	702.12
567.334	664.12
568.101	628.12
568.869	596.12
569.636	556.12
570.403	526.12
571.17	494.12
571.937	465.12
572.704	443.12
573.471	411.12
574.237	389.12
575.004	372.12
575.771	349.12
576.537	329.12
577.303	303.12
578.07	292.12
578.836	272.12
579.602	262.12
580.368	248.12
581.134	232.12
581.9	226.12
582.666	209.12
583.432	197.12
584.198	183.12
584.964	179.12
585.729	169.12
586.495	159.12
587.26	149.12
588.025	140.12
588.791	132.12
589.556	130.12
590.321	120.12
591.086	114.12
591.851	105.12
592.616	102.12
593.381	101.12
594.146	94.12
594.911	92.12
595.675	85.12
596.44	81.12
597.204	77.12
597.969	75.12
598.733	71.12
599.497	68.12
600.261	62.12
601.025	62.12
601.79	58.12
602.553	55.12
603.317	54.12
604.081	54.12
604.845	46.12
605.609	49.12
606.372	44.12
607.136	42.12
607.899	44.12
608.662	43.12
609.426	38.12
610.189	38.12
610.952	36.12
611.715	33.12
612.478	29.12
613.241	30.12
614.004	30.12
614.767	32.12
615.529	31.12
616.292	26.12
617.055	23.12
617.817	23.12
618.579	25.12
619.342	24.12
620.104	23.12
620.866	19.12
621.628	21.12
622.39	21.12
623.152	19.12
623.914	19.12
624.676	19.12
625.438	16.12
626.199	16.12
626.961	17.12
627.722	16.12
628.484	16.12
629.245	13.12
630.006	15.12
630.768	13.12
631.529	13.12
632.29	11.12
633.051	14.12
633.812	13.12
634.573	13.12
635.333	11.12
636.094	10.12
636.855	10.12
637.615	12.12
638.376	10.12
639.136	10.12
639.896	10.12
640.657	7.12
641.417	10.12
642.177	12.12
642.937	8.12
643.697	10.12
644.457	7.12
645.216	9.12
645.976	7.12
646.736	10.12
647.495	7.12
648.255	6.12
649.014	8.12
649.774	7.12
650.533	5.12
651.292	8.12
652.051	5.12
652.81	7.12
653.569	6.12
654.328	7.12
655.087	4.12
655.846	7.12
656.604	6.12
657.363	7.12
658.121	7.12
658.88	3.12
659.638	6.12
660.397	7.12
661.155	6.12
661.913	6.12
662.671	6.12
663.429	7.12
664.187	5.12
664.945	8.12
665.703	3.12
666.46	6.12
667.218	7.12
667.976	5.12
668.733	3.12
669.49	4.12
670.248	4.12
671.005	5.12
671.762	6.12
672.519	5.12
673.276	4.12
674.033	6.12
674.79	5.12
675.547	6.12
676.304	4.12
677.06	5.12
677.817	3.12
678.574	5.12
679.33	4.12
680.086	5.12
680.843	5.12
681.599	5.12
682.355	4.12
683.111	5.12
683.867	5.12
684.623	5.12
685.379	7.12
686.135	4.12
686.89	4.12
687.646	1.12
688.402	4.12
689.157	2.12
689.912	3.12
690.668	1.12
691.423	5.12
692.178	4.12
692.933	5.12
693.688	4.12
694.443	3.12
695.198	6.12
695.953	2.12
696.708	6.12
697.462	3.12
698.217	3.12
698.972	5.12
699.726	3.12
700.48	4.12
701.235	2.12
701.989	3.12
702.743	4.12
703.497	4.12
704.251	4.12
705.005	2.12
705.759	5.12
706.513	2.12
707.266	2.12
708.02	3.12
708.774	2.12
709.527	4.12
710.28	4.12
711.034	3.12
711.787	4.12
712.54	3.12
713.293	4.12
714.046	4.12
714.799	5.12
715.552	2.12
716.305	3.12
717.058	5.12
717.81	3.12
718.563	4.12
719.315	4.12
720.068	4.12
720.82	2.12
721.573	4.12
722.325	2.12
723.077	2.12
723.829	5.12
724.581	4.12
725.333	4.12
726.085	5.12
726.836	4.12
727.588	6.12
728.34	3.12
729.091	5.12
729.843	3.12
730.594	5.12
731.346	4.12
732.097	3.12
732.848	4.12
733.599	3.12
734.35	6.12
735.101	3.12
735.852	6.12
736.603	3.12
737.354	3.12
738.104	6.12
738.855	2.12
739.605	2.12
740.356	4.12
741.106	5.12
741.856	5.12
742.607	6.12
743.357	4.12
744.107	6.12
744.857	4.12
745.607	3.12
746.357	5.12
747.106	2.12
747.856	5.12
748.606	6.12
749.355	5.12
750.105	2.12
750.854	8.12
751.603	4.12
752.353	5.12
753.102	4.12
753.851	6.12
754.6	5.12
755.349	6.12
756.098	4.12
756.847	9.12
757.595	4.12
758.344	2.12
759.093	7.12
759.841	5.12
760.589	6.12
761.338	5.12
762.086	4.12
762.834	2.12
763.582	5.12
764.331	4.12
765.079	6.12
765.826	8.12
766.574	6.12
767.322	6.12
768.07	8.12
768.817	5.12
769.565	7.12
770.312	6.12
771.06	9.12
771.807	5.12
772.554	5.12
773.302	8.12
774.049	7.12
774.796	6.12
775.543	8.12
776.29	7.12
777.036	8.12
777.783	9.12
778.53	10.12
779.276	8.12
780.023	10.12
780.769	8.12
781.516	6.12
782.262	8.12
783.008	7.12
783.754	8.12
784.5	9.12
785.246	8.12
785.992	8.12
786.738	8.12
787.484	10.12
788.23	6.12
788.975	8.12
789.721	8.12
790.466	9.12
791.212	8.12
791.957	7.12
792.702	8.12
793.447	7.12
794.193	8.12
794.938	8.12
795.683	7.12
796.427	8.12
797.172	6.12
797.917	8.12
798.662	5.12
799.406	6.12
800.151	7.12
800.895	7.12
801.64	4.12
802.384	7.12
803.128	8.12
803.872	4.12
804.616	8.12
805.36	7.12
806.104	4.12
806.848	7.12
807.592	3.12
808.336	4.12
809.079	7.12
809.823	6.12
810.566	5.12
811.31	5.12
812.053	8.12
812.796	4.12
813.539	5.12
814.283	6.12
815.026	4.12
815.769	3.12
816.511	5.12
817.254	5.12
817.997	3.12
818.74	5.12
819.482	4.12
820.225	5.12
820.967	2.12
821.71	5.12
822.452	4.12
823.194	3.12
823.936	2.12
824.678	4.12
825.42	4.12
826.162	2.12
826.904	4.12
827.646	5.12
828.388	5.12
829.129	4.12
829.871	2.12
830.612	4.12
831.354	4.12
832.095	4.12
832.836	4.12
833.577	5.12
834.319	4.12
835.06	2.12
835.801	3.12
836.542	2.12
837.282	2.12
838.023	1.12
838.764	2.12
839.504	4.12
840.245	4.12
840.985	4.12
841.726	3.12
842.466	5.12
843.206	4.12
843.946	1.12
844.687	2.12
845.427	2.12
846.166	3.12
846.906	1.12
847.646	4.12
848.386	3.12
849.125	3.12
849.865	3.12
850.605	4.12
851.344	6.12
852.083	4.12
852.823	1.12
853.562	2.12
854.301	3.12
855.04	2.12
855.779	1.12
856.518	2.12
857.257	3.12
857.995	2.12
858.734	1.12
859.473	2.12
860.211	1.12
860.95	4.12
861.688	3.12
862.426	2.12
863.165	3.12
863.903	2.12
864.641	3.12
865.379	2.12
866.117	1.12
866.855	1.12
867.593	0.12
868.33	2.12
869.068	0.12
869.806	5.12
870.543	0.12
871.28	0.12
872.018	2.12
872.755	0.12
873.492	1.12
874.229	1.12
874.967	2.12
875.703	2.12
876.44	2.12
877.177	1.12
877.914	1.12
878.651	1.12
879.387	-0.88
880.124	2.12
880.86	1.12
881.597	1.12
882.333	0.12
883.069	1.12
883.806	0.12
884.542	0.12
885.278	0.12
886.014	2.12
886.749	1.12
887.485	0.12
888.221	0.12
888.957	2.12
889.692	1.12
890.428	0.12
891.163	-0.88
891.899	2.12
892.634	-0.88
893.369	4.12
894.104	3.12
894.839	1.12
895.574	2.12
896.309	0.12
897.044	-0.88
897.779	2.12
898.514	2.12
899.248	2.12
899.983	-1.88
900.717	1.12
901.452	-0.88
902.186	2.12
902.92	1.12
903.654	0.12
904.389	2.12
905.123	-1.88
905.857	1.12
906.59	1.12
907.324	2.12
908.058	4.12
908.792	0.12
909.525	1.12
910.259	2.12
910.992	2.12
911.726	0.12
912.459	0.12
913.192	2.12
913.925	-0.88
914.658	2.12
915.391	3.12
916.124	0.12
916.857	0.12
917.59	1.12
918.323	0.12
919.055	1.12
919.788	1.12
920.521	0.12
921.253	1.12
921.985	2.12
922.718	1.12
923.45	0.12
924.182	1.12
924.914	-0.88
925.646	1.12
926.378	1.12
927.11	1.12
927.841	-1.88
928.573	2.12
929.305	-2.88
930.036	2.12
930.768	2.12
931.499	0.12
932.23	0.12
932.962	1.12
933.693	-1.88
934.424	0.12
935.155	2.12
935.886	-1.88
936.617	1.12
937.348	-1.88
938.078	0.12
938.809	0.12
939.54	-1.88
940.27	-0.88
941.001	-1.88
941.731	-0.88
942.461	1.12
943.191	0.12
943.922	1.12
944.652	1.12
945.382	-1.88
946.112	3.12
946.841	0.12
947.571	1.12
948.301	1.12
949.031	2.12
949.76	0.12
950.49	0.12
951.219	1.12
951.948	1.12
952.678	-0.88
953.407	0.12
954.136	0.12
954.865	2.12
955.594	-1.88
956.323	0.12
957.052	-0.88
957.78	0.12
958.509	0.12
959.238	2.12
959.966	1.12
960.695	0.12
961.423	0.12
962.151	2.12
962.88	-0.88
963.608	1.12
964.336	0.12
965.064	1.12
965.792	0.12
966.52	1.12
967.247	0.12
967.975	-0.88
968.703	2.12
969.43	0.12
970.158	1.12
970.885	2.12
971.613	0.12
972.34	-0.88
973.067	1.12
973.794	0.12
974.521	-0.88
975.248	0.12
975.975	-0.88
976.702	-0.88
977.429	1.12
978.156	0.12
978.882	-0.88
979.609	-1.88
980.335	0.12
981.062	2.12
981.788	1.12
982.514	0.12
983.24	-1.88
983.967	1.12
984.693	-1.88
985.419	-0.88
986.144	-0.88
986.87	1.12
987.596	1.12
988.322	-0.88
989.047	0.12
989.773	1.12
990.498	1.12
991.224	0.12
991.949	1.12
992.674	1.12
993.399	2.12
994.124	0.12
994.849	1.12
995.574	0.12
996.299	0.12
997.024	2.12
997.749	2.12
998.473	-0.88
999.198	2.12
999.922	-0.88
1000.647	0.12
1001.371	3.12
1002.095	-0.88
1002.82	-1.88
1003.544	0.12
1004.268	1.12
1004.992	1.12
1005.716	0.12
1006.439	1.12
1007.163	0.12
1007.887	2.12
1008.611	1.12
1009.334	-0.88
1010.058	0.12
1010.781	1.12
1011.504	1.12
1012.228	0.12
1012.951	-0.88
1013.674	0.12
1014.397	0.12
1015.12	0.12
