节点500_285_QEPB04081__715__15-07-26-810.txt的数据

Date: Wed Nov 12 15:07:26 CST 2025
User: PC
Spectrometer: QEPB0408
触发模式: 0
积分时间 (秒): 1.000000E-2
Scans to average: 1
启用暗噪声校正: true
启用非线性校正: false
滑动平均宽度: 0
X轴模式: Wavelengths
Number of Pixels in Spectrum: 1044
>>>>>Begin Spectral Data<<<<<
220.843	0.25
221.644	-0.75
222.444	-3.75
223.244	0.25
224.045	1.25
224.845	2.25
225.645	2.25
226.445	1.25
227.245	3.25
228.045	0.25
228.845	2.25
229.645	3.25
230.444	2.25
231.244	4.25
232.043	3.25
232.843	3.25
233.642	1.25
234.442	5.25
235.241	1.25
236.04	5.25
236.839	2.25
237.638	2.25
238.437	2.25
239.236	4.25
240.035	2.25
240.833	3.25
241.632	1.25
242.43	2.25
243.229	3.25
244.027	4.25
244.826	6.25
245.624	3.25
246.422	4.25
247.22	4.25
248.018	8.25
248.816	5.25
249.614	3.25
250.412	2.25
251.21	6.25
252.007	5.25
252.805	7.25
253.602	6.25
254.4	3.25
255.197	6.25
255.994	6.25
256.791	7.25
257.589	5.25
258.386	5.25
259.183	7.25
259.979	8.25
260.776	8.25
261.573	8.25
262.37	12.25
263.166	8.25
263.963	7.25
264.759	12.25
265.556	10.25
266.352	10.25
267.148	10.25
267.944	7.25
268.74	12.25
269.536	12.25
270.332	13.25
271.128	13.25
271.924	11.25
272.719	15.25
273.515	14.25
274.311	14.25
275.106	15.25
275.901	15.25
276.697	16.25
277.492	14.25
278.287	16.25
279.082	16.25
279.877	14.25
280.672	18.25
281.467	17.25
282.262	16.25
283.056	15.25
283.851	16.25
284.646	17.25
285.44	17.25
286.234	16.25
287.029	15.25
287.823	17.25
288.617	16.25
289.411	17.25
290.205	17.25
290.999	14.25
291.793	13.25
292.587	13.25
293.381	14.25
294.174	12.25
294.968	14.25
295.761	13.25
296.555	18.25
297.348	13.25
298.141	13.25
298.935	16.25
299.728	15.25
300.521	11.25
301.314	13.25
302.107	13.25
302.899	12.25
303.692	11.25
304.485	13.25
305.277	9.25
306.07	11.25
306.862	12.25
307.655	13.25
308.447	13.25
309.239	12.25
310.031	9.25
310.823	10.25
311.615	12.25
312.407	8.25
313.199	8.25
313.991	6.25
314.783	9.25
315.574	11.25
316.366	8.25
317.157	7.25
317.949	8.25
318.74	8.25
319.531	8.25
320.322	4.25
321.113	7.25
321.904	5.25
322.695	7.25
323.486	6.25
324.277	6.25
325.068	5.25
325.858	6.25
326.649	6.25
327.439	5.25
328.23	8.25
329.02	4.25
329.81	3.25
330.6	5.25
331.391	3.25
332.181	5.25
332.971	6.25
333.76	6.25
334.55	4.25
335.34	6.25
336.13	7.25
336.919	5.25
337.709	4.25
338.498	5.25
339.287	5.25
340.077	6.25
340.866	3.25
341.655	9.25
342.444	6.25
343.233	4.25
344.022	6.25
344.811	6.25
345.6	7.25
346.388	4.25
347.177	6.25
347.965	4.25
348.754	6.25
349.542	4.25
350.33	5.25
351.119	5.25
351.907	6.25
352.695	5.25
353.483	5.25
354.271	5.25
355.059	4.25
355.846	6.25
356.634	3.25
357.422	6.25
358.209	5.25
358.997	7.25
359.784	4.25
360.571	6.25
361.359	3.25
362.146	3.25
362.933	7.25
363.72	5.25
364.507	4.25
365.294	4.25
366.081	3.25
366.867	5.25
367.654	4.25
368.44	4.25
369.227	4.25
370.013	6.25
370.8	5.25
371.586	4.25
372.372	5.25
373.158	3.25
373.944	4.25
374.73	4.25
375.516	6.25
376.302	2.25
377.088	6.25
377.873	3.25
378.659	3.25
379.445	5.25
380.23	5.25
381.015	3.25
381.801	6.25
382.586	3.25
383.371	3.25
384.156	4.25
384.941	4.25
385.726	4.25
386.511	3.25
387.296	5.25
388.08	4.25
388.865	3.25
389.649	4.25
390.434	3.25
391.218	4.25
392.003	5.25
392.787	5.25
393.571	5.25
394.355	6.25
395.139	5.25
395.923	4.25
396.707	5.25
397.491	6.25
398.274	3.25
399.058	7.25
399.842	7.25
400.625	3.25
401.408	6.25
402.192	6.25
402.975	8.25
403.758	8.25
404.541	7.25
405.324	6.25
406.107	6.25
406.89	9.25
407.673	5.25
408.456	7.25
409.238	8.25
410.021	6.25
410.803	8.25
411.586	6.25
412.368	7.25
413.151	8.25
413.933	5.25
414.715	9.25
415.497	5.25
416.279	9.25
417.061	9.25
417.843	8.25
418.624	8.25
419.406	8.25
420.188	9.25
420.969	9.25
421.751	11.25
422.532	8.25
423.313	9.25
424.095	9.25
424.876	10.25
425.657	7.25
426.438	11.25
427.219	12.25
428	9.25
428.78	13.25
429.561	10.25
430.342	14.25
431.122	15.25
431.903	13.25
432.683	14.25
433.464	13.25
434.244	17.25
435.024	16.25
435.804	15.25
436.584	19.25
437.364	13.25
438.144	19.25
438.924	19.25
439.704	22.25
440.483	25.25
441.263	23.25
442.042	24.25
442.822	25.25
443.601	28.25
444.38	29.25
445.16	32.25
445.939	35.25
446.718	35.25
447.497	43.25
448.276	41.25
449.054	46.25
449.833	54.25
450.612	60.25
451.391	62.25
452.169	65.25
452.948	75.25
453.726	78.25
454.504	92.25
455.282	98.25
456.061	108.25
456.839	123.25
457.617	134.25
458.395	143.25
459.172	165.25
459.95	188.25
460.728	208.25
461.506	229.25
462.283	253.25
463.061	283.25
463.838	314.25
464.615	354.25
465.393	395.25
466.17	433.25
466.947	488.25
467.724	541.25
468.501	598.25
469.278	656.25
470.055	737.25
470.831	808.25
471.608	911.25
472.385	981.25
473.161	1106.25
473.938	1198.25
474.714	1323.25
475.49	1464.25
476.266	1612.25
477.043	1750.25
477.819	1946.25
478.595	2106.25
479.371	2321.25
480.146	2569.25
480.922	2802.25
481.698	3060.25
482.473	3332.25
483.249	3646.25
484.024	3995.25
484.8	4360.25
485.575	4765.25
486.35	5205.25
487.126	5656.25
487.901	6176.25
488.676	6710.25
489.451	7310.25
490.225	7952.25
491	8626.25
491.775	9381.25
492.55	10199.25
493.324	10974.25
494.099	11773.25
494.873	12646.25
495.647	13621.25
496.422	14578.25
497.196	15594.25
497.97	16719.25
498.744	17750.25
499.518	18807.25
500.292	19828.25
501.066	20754.25
501.839	21730.25
502.613	22667.25
503.387	23511.25
504.16	24115.25
504.934	24685.25
505.707	24963.25
506.48	25198.25
507.253	25366.25
508.027	25305.25
508.8	25281.25
509.573	25081.25
510.346	24721.25
511.118	24238.25
511.891	23609.25
512.664	22942.25
513.437	22259.25
514.209	21495.25
514.982	20665.25
515.754	19870.25
516.526	19080.25
517.298	18282.25
518.071	17540.25
518.843	16874.25
519.615	16240.25
520.387	15643.25
521.159	14988.25
521.93	14358.25
522.702	13852.25
523.474	13272.25
524.245	12702.25
525.017	12141.25
525.788	11693.25
526.56	11173.25
527.331	10651.25
528.102	10228.25
528.873	9791.25
529.644	9311.25
530.415	8912.25
531.186	8493.25
531.957	8052.25
532.728	7651.25
533.498	7303.25
534.269	6929.25
535.039	6524.25
535.81	6173.25
536.58	5859.25
537.351	5498.25
538.121	5215.25
538.891	4957.25
539.661	4682.25
540.431	4442.25
541.201	4175.25
541.971	3936.25
542.741	3743.25
543.51	3544.25
544.28	3380.25
545.05	3231.25
545.819	3048.25
546.588	2916.25
547.358	2777.25
548.127	2655.25
548.896	2513.25
549.665	2386.25
550.434	2240.25
551.203	2133.25
551.972	2029.25
552.741	1930.25
553.51	1807.25
554.278	1716.25
555.047	1623.25
555.815	1531.25
556.584	1448.25
557.352	1386.25
558.121	1280.25
558.889	1216.25
559.657	1153.25
560.425	1096.25
561.193	1027.25
561.961	971.25
562.729	920.25
563.496	864.25
564.264	808.25
565.032	773.25
565.799	734.25
566.567	698.25
567.334	657.25
568.101	611.25
568.869	582.25
569.636	545.25
570.403	511.25
571.17	491.25
571.937	454.25
572.704	437.25
573.471	408.25
574.237	382.25
575.004	363.25
575.771	346.25
576.537	321.25
577.303	305.25
578.07	287.25
578.836	278.25
579.602	255.25
580.368	237.25
581.134	231.25
581.9	217.25
582.666	211.25
583.432	192.25
584.198	188.25
584.964	177.25
585.729	165.25
586.495	158.25
587.26	146.25
588.025	144.25
588.791	131.25
589.556	127.25
590.321	121.25
591.086	112.25
591.851	109.25
592.616	102.25
593.381	97.25
594.146	93.25
594.911	85.25
595.675	85.25
596.44	79.25
597.204	79.25
597.969	73.25
598.733	70.25
599.497	67.25
600.261	64.25
601.025	60.25
601.79	57.25
602.553	55.25
603.317	53.25
604.081	48.25
604.845	48.25
605.609	44.25
606.372	45.25
607.136	38.25
607.899	42.25
608.662	39.25
609.426	34.25
610.189	38.25
610.952	34.25
611.715	32.25
612.478	30.25
613.241	32.25
614.004	30.25
614.767	29.25
615.529	23.25
616.292	25.25
617.055	26.25
617.817	24.25
618.579	21.25
619.342	23.25
620.104	22.25
620.866	20.25
621.628	20.25
622.39	18.25
623.152	19.25
623.914	16.25
624.676	16.25
625.438	16.25
626.199	17.25
626.961	15.25
627.722	14.25
628.484	15.25
629.245	10.25
630.006	14.25
630.768	15.25
631.529	11.25
632.29	12.25
633.051	9.25
633.812	13.25
634.573	10.25
635.333	12.25
636.094	10.25
636.855	8.25
637.615	8.25
638.376	9.25
639.136	8.25
639.896	8.25
640.657	10.25
641.417	8.25
642.177	7.25
642.937	7.25
643.697	8.25
644.457	10.25
645.216	7.25
645.976	5.25
646.736	8.25
647.495	6.25
648.255	7.25
649.014	6.25
649.774	8.25
650.533	7.25
651.292	6.25
652.051	7.25
652.81	5.25
653.569	6.25
654.328	3.25
655.087	6.25
655.846	6.25
656.604	4.25
657.363	7.25
658.121	6.25
658.88	7.25
659.638	6.25
660.397	6.25
661.155	5.25
661.913	2.25
662.671	5.25
663.429	4.25
664.187	6.25
664.945	4.25
665.703	4.25
666.46	4.25
667.218	5.25
667.976	4.25
668.733	2.25
669.49	6.25
670.248	4.25
671.005	4.25
671.762	5.25
672.519	4.25
673.276	4.25
674.033	3.25
674.79	4.25
675.547	5.25
676.304	3.25
677.06	3.25
677.817	3.25
678.574	2.25
679.33	4.25
680.086	3.25
680.843	3.25
681.599	4.25
682.355	3.25
683.111	4.25
683.867	3.25
684.623	2.25
685.379	3.25
686.135	3.25
686.89	1.25
687.646	3.25
688.402	2.25
689.157	1.25
689.912	3.25
690.668	3.25
691.423	4.25
692.178	3.25
692.933	2.25
693.688	2.25
694.443	3.25
695.198	3.25
695.953	4.25
696.708	3.25
697.462	2.25
698.217	4.25
698.972	1.25
699.726	7.25
700.48	5.25
701.235	3.25
701.989	2.25
702.743	3.25
703.497	2.25
704.251	1.25
705.005	4.25
705.759	5.25
706.513	3.25
707.266	3.25
708.02	3.25
708.774	3.25
709.527	2.25
710.28	2.25
711.034	5.25
711.787	2.25
712.54	2.25
713.293	1.25
714.046	4.25
714.799	5.25
715.552	2.25
716.305	4.25
717.058	-0.75
717.81	5.25
718.563	4.25
719.315	2.25
720.068	2.25
720.82	3.25
721.573	5.25
722.325	1.25
723.077	3.25
723.829	3.25
724.581	2.25
725.333	3.25
726.085	1.25
726.836	5.25
727.588	4.25
728.34	5.25
729.091	2.25
729.843	3.25
730.594	2.25
731.346	4.25
732.097	0.25
732.848	4.25
733.599	3.25
734.35	4.25
735.101	1.25
735.852	2.25
736.603	1.25
737.354	5.25
738.104	5.25
738.855	3.25
739.605	3.25
740.356	2.25
741.106	2.25
741.856	3.25
742.607	4.25
743.357	2.25
744.107	3.25
744.857	6.25
745.607	3.25
746.357	2.25
747.106	1.25
747.856	3.25
748.606	4.25
749.355	5.25
750.105	3.25
750.854	3.25
751.603	4.25
752.353	3.25
753.102	4.25
753.851	4.25
754.6	1.25
755.349	5.25
756.098	3.25
756.847	4.25
757.595	6.25
758.344	3.25
759.093	4.25
759.841	6.25
760.589	5.25
761.338	5.25
762.086	4.25
762.834	4.25
763.582	5.25
764.331	5.25
765.079	4.25
765.826	5.25
766.574	5.25
767.322	7.25
768.07	5.25
768.817	7.25
769.565	5.25
770.312	6.25
771.06	7.25
771.807	6.25
772.554	5.25
773.302	6.25
774.049	7.25
774.796	6.25
775.543	6.25
776.29	7.25
777.036	8.25
777.783	9.25
778.53	8.25
779.276	4.25
780.023	8.25
780.769	7.25
781.516	6.25
782.262	7.25
783.008	8.25
783.754	6.25
784.5	8.25
785.246	7.25
785.992	6.25
786.738	8.25
787.484	8.25
788.23	6.25
788.975	7.25
789.721	9.25
790.466	9.25
791.212	8.25
791.957	5.25
792.702	7.25
793.447	6.25
794.193	8.25
794.938	6.25
795.683	8.25
796.427	5.25
797.172	6.25
797.917	6.25
798.662	7.25
799.406	7.25
800.151	5.25
800.895	9.25
801.64	8.25
802.384	6.25
803.128	4.25
803.872	8.25
804.616	6.25
805.36	6.25
806.104	6.25
806.848	5.25
807.592	5.25
808.336	6.25
809.079	5.25
809.823	7.25
810.566	4.25
811.31	4.25
812.053	4.25
812.796	4.25
813.539	4.25
814.283	5.25
815.026	4.25
815.769	4.25
816.511	3.25
817.254	3.25
817.997	2.25
818.74	5.25
819.482	2.25
820.225	4.25
820.967	2.25
821.71	2.25
822.452	5.25
823.194	3.25
823.936	3.25
824.678	1.25
825.42	5.25
826.162	3.25
826.904	5.25
827.646	-0.75
828.388	6.25
829.129	2.25
829.871	1.25
830.612	5.25
831.354	2.25
832.095	5.25
832.836	4.25
833.577	0.25
834.319	2.25
835.06	2.25
835.801	4.25
836.542	5.25
837.282	2.25
838.023	1.25
838.764	1.25
839.504	3.25
840.245	1.25
840.985	2.25
841.726	0.25
842.466	1.25
843.206	2.25
843.946	1.25
844.687	1.25
845.427	2.25
846.166	2.25
846.906	5.25
847.646	1.25
848.386	2.25
849.125	2.25
849.865	2.25
850.605	1.25
851.344	2.25
852.083	2.25
852.823	0.25
853.562	2.25
854.301	1.25
855.04	0.25
855.779	0.25
856.518	2.25
857.257	4.25
857.995	-0.75
858.734	0.25
859.473	2.25
860.211	2.25
860.95	-0.75
861.688	0.25
862.426	2.25
863.165	-0.75
863.903	0.25
864.641	1.25
865.379	2.25
866.117	4.25
866.855	1.25
867.593	1.25
868.33	-0.75
869.068	1.25
869.806	1.25
870.543	2.25
871.28	1.25
872.018	1.25
872.755	-0.75
873.492	0.25
874.229	-0.75
874.967	2.25
875.703	1.25
876.44	1.25
877.177	1.25
877.914	2.25
878.651	-0.75
879.387	0.25
880.124	0.25
880.86	0.25
881.597	1.25
882.333	-0.75
883.069	0.25
883.806	-0.75
884.542	-0.75
885.278	0.25
886.014	0.25
886.749	2.25
887.485	0.25
888.221	0.25
888.957	-0.75
889.692	2.25
890.428	1.25
891.163	0.25
891.899	1.25
892.634	1.25
893.369	0.25
894.104	0.25
894.839	0.25
895.574	0.25
896.309	0.25
897.044	0.25
897.779	1.25
898.514	0.25
899.248	1.25
899.983	-0.75
900.717	1.25
901.452	-0.75
902.186	0.25
902.92	1.25
903.654	-0.75
904.389	-0.75
905.123	-0.75
905.857	-0.75
906.59	-1.75
907.324	-0.75
908.058	-1.75
908.792	0.25
909.525	2.25
910.259	-0.75
910.992	-0.75
911.726	-0.75
912.459	-1.75
913.192	0.25
913.925	0.25
914.658	0.25
915.391	-1.75
916.124	0.25
916.857	-0.75
917.59	-0.75
918.323	0.25
919.055	0.25
919.788	-0.75
920.521	0.25
921.253	-0.75
921.985	0.25
922.718	-1.75
923.45	2.25
924.182	-0.75
924.914	1.25
925.646	-0.75
926.378	-0.75
927.11	1.25
927.841	-1.75
928.573	0.25
929.305	0.25
930.036	2.25
930.768	0.25
931.499	-0.75
932.23	-0.75
932.962	-0.75
933.693	0.25
934.424	-1.75
935.155	0.25
935.886	-0.75
936.617	-0.75
937.348	-0.75
938.078	-2.75
938.809	1.25
939.54	-0.75
940.27	1.25
941.001	1.25
941.731	0.25
942.461	-2.75
943.191	-0.75
943.922	-0.75
944.652	-0.75
945.382	-0.75
946.112	0.25
946.841	-0.75
947.571	1.25
948.301	-1.75
949.031	-1.75
949.76	-0.75
950.49	1.25
951.219	-1.75
951.948	-1.75
952.678	-0.75
953.407	-0.75
954.136	0.25
954.865	-0.75
955.594	-1.75
956.323	-1.75
957.052	-0.75
957.78	1.25
958.509	1.25
959.238	-1.75
959.966	0.25
960.695	-0.75
961.423	0.25
962.151	-0.75
962.88	-1.75
963.608	-0.75
964.336	0.25
965.064	-0.75
965.792	-0.75
966.52	1.25
967.247	-1.75
967.975	0.25
968.703	0.25
969.43	-0.75
970.158	-1.75
970.885	1.25
971.613	-0.75
972.34	-0.75
973.067	-2.75
973.794	-0.75
974.521	-1.75
975.248	-0.75
975.975	-0.75
976.702	-1.75
977.429	-2.75
978.156	-1.75
978.882	-0.75
979.609	-1.75
980.335	-1.75
981.062	-1.75
981.788	1.25
982.514	-1.75
983.24	-0.75
983.967	2.25
984.693	-2.75
985.419	-0.75
986.144	-0.75
986.87	-1.75
987.596	0.25
988.322	-1.75
989.047	-1.75
989.773	-1.75
990.498	1.25
991.224	-1.75
991.949	0.25
992.674	-0.75
993.399	-0.75
994.124	1.25
994.849	-0.75
995.574	2.25
996.299	0.25
997.024	0.25
997.749	1.25
998.473	0.25
999.198	0.25
999.922	-0.75
1000.647	0.25
1001.371	1.25
1002.095	-1.75
1002.82	-2.75
1003.544	0.25
1004.268	-0.75
1004.992	-0.75
1005.716	-0.75
1006.439	2.25
1007.163	3.25
1007.887	3.25
1008.611	-2.75
1009.334	-0.75
1010.058	0.25
1010.781	-0.75
1011.504	0.25
1012.228	1.25
1012.951	0.25
1013.674	0.25
1014.397	0.25
1015.12	2.25
