节点500_285_QEPB04081__560__15-04-52-235.txt的数据

Date: Wed Nov 12 15:04:52 CST 2025
User: PC
Spectrometer: QEPB0408
触发模式: 0
积分时间 (秒): 1.000000E-2
Scans to average: 1
启用暗噪声校正: true
启用非线性校正: false
滑动平均宽度: 0
X轴模式: Wavelengths
Number of Pixels in Spectrum: 1044
>>>>>Begin Spectral Data<<<<<
220.843	2.75
221.644	1.75
222.444	1.75
223.244	0.75
224.045	1.75
224.845	1.75
225.645	2.75
226.445	0.75
227.245	2.75
228.045	4.75
228.845	0.75
229.645	0.75
230.444	1.75
231.244	3.75
232.043	2.75
232.843	3.75
233.642	2.75
234.442	3.75
235.241	4.75
236.04	5.75
236.839	4.75
237.638	2.75
238.437	2.75
239.236	4.75
240.035	6.75
240.833	3.75
241.632	3.75
242.43	4.75
243.229	5.75
244.027	2.75
244.826	3.75
245.624	6.75
246.422	4.75
247.22	7.75
248.018	3.75
248.816	5.75
249.614	6.75
250.412	5.75
251.21	4.75
252.007	5.75
252.805	5.75
253.602	6.75
254.4	9.75
255.197	9.75
255.994	8.75
256.791	8.75
257.589	8.75
258.386	9.75
259.183	8.75
259.979	7.75
260.776	9.75
261.573	6.75
262.37	8.75
263.166	8.75
263.963	8.75
264.759	9.75
265.556	8.75
266.352	10.75
267.148	12.75
267.944	10.75
268.74	11.75
269.536	11.75
270.332	14.75
271.128	15.75
271.924	14.75
272.719	13.75
273.515	12.75
274.311	14.75
275.106	15.75
275.901	17.75
276.697	16.75
277.492	16.75
278.287	15.75
279.082	17.75
279.877	15.75
280.672	19.75
281.467	17.75
282.262	17.75
283.056	20.75
283.851	18.75
284.646	17.75
285.44	18.75
286.234	15.75
287.029	17.75
287.823	17.75
288.617	18.75
289.411	16.75
290.205	15.75
290.999	18.75
291.793	16.75
292.587	15.75
293.381	17.75
294.174	16.75
294.968	17.75
295.761	16.75
296.555	15.75
297.348	14.75
298.141	15.75
298.935	15.75
299.728	15.75
300.521	13.75
301.314	15.75
302.107	12.75
302.899	13.75
303.692	11.75
304.485	10.75
305.277	11.75
306.07	10.75
306.862	9.75
307.655	13.75
308.447	11.75
309.239	11.75
310.031	12.75
310.823	10.75
311.615	9.75
312.407	8.75
313.199	11.75
313.991	7.75
314.783	9.75
315.574	9.75
316.366	7.75
317.157	8.75
317.949	8.75
318.74	6.75
319.531	6.75
320.322	7.75
321.113	8.75
321.904	6.75
322.695	6.75
323.486	7.75
324.277	7.75
325.068	6.75
325.858	5.75
326.649	5.75
327.439	5.75
328.23	7.75
329.02	7.75
329.81	7.75
330.6	2.75
331.391	4.75
332.181	7.75
332.971	8.75
333.76	3.75
334.55	7.75
335.34	8.75
336.13	6.75
336.919	5.75
337.709	7.75
338.498	5.75
339.287	6.75
340.077	4.75
340.866	7.75
341.655	5.75
342.444	5.75
343.233	6.75
344.022	5.75
344.811	6.75
345.6	8.75
346.388	4.75
347.177	6.75
347.965	5.75
348.754	5.75
349.542	6.75
350.33	6.75
351.119	5.75
351.907	5.75
352.695	4.75
353.483	1.75
354.271	5.75
355.059	6.75
355.846	7.75
356.634	4.75
357.422	4.75
358.209	7.75
358.997	4.75
359.784	5.75
360.571	6.75
361.359	5.75
362.146	5.75
362.933	6.75
363.72	5.75
364.507	4.75
365.294	2.75
366.081	4.75
366.867	4.75
367.654	5.75
368.44	2.75
369.227	4.75
370.013	2.75
370.8	4.75
371.586	3.75
372.372	3.75
373.158	3.75
373.944	6.75
374.73	2.75
375.516	3.75
376.302	5.75
377.088	6.75
377.873	2.75
378.659	5.75
379.445	5.75
380.23	5.75
381.015	4.75
381.801	2.75
382.586	4.75
383.371	3.75
384.156	4.75
384.941	4.75
385.726	3.75
386.511	6.75
387.296	1.75
388.08	7.75
388.865	5.75
389.649	5.75
390.434	6.75
391.218	5.75
392.003	4.75
392.787	7.75
393.571	4.75
394.355	3.75
395.139	4.75
395.923	5.75
396.707	5.75
397.491	9.75
398.274	6.75
399.058	6.75
399.842	8.75
400.625	8.75
401.408	7.75
402.192	5.75
402.975	5.75
403.758	6.75
404.541	7.75
405.324	6.75
406.107	6.75
406.89	6.75
407.673	6.75
408.456	6.75
409.238	7.75
410.021	6.75
410.803	7.75
411.586	7.75
412.368	8.75
413.151	9.75
413.933	7.75
414.715	6.75
415.497	7.75
416.279	11.75
417.061	11.75
417.843	9.75
418.624	7.75
419.406	8.75
420.188	12.75
420.969	8.75
421.751	9.75
422.532	9.75
423.313	11.75
424.095	11.75
424.876	12.75
425.657	13.75
426.438	11.75
427.219	11.75
428	11.75
428.78	13.75
429.561	13.75
430.342	11.75
431.122	14.75
431.903	13.75
432.683	13.75
433.464	15.75
434.244	12.75
435.024	18.75
435.804	16.75
436.584	15.75
437.364	16.75
438.144	21.75
438.924	20.75
439.704	22.75
440.483	23.75
441.263	22.75
442.042	23.75
442.822	29.75
443.601	25.75
444.38	28.75
445.16	33.75
445.939	37.75
446.718	36.75
447.497	41.75
448.276	43.75
449.054	46.75
449.833	51.75
450.612	55.75
451.391	55.75
452.169	64.75
452.948	77.75
453.726	77.75
454.504	87.75
455.282	94.75
456.061	103.75
456.839	119.75
457.617	127.75
458.395	139.75
459.172	156.75
459.95	174.75
460.728	198.75
461.506	211.75
462.283	244.75
463.061	272.75
463.838	306.75
464.615	331.75
465.393	380.75
466.17	426.75
466.947	467.75
467.724	528.75
468.501	580.75
469.278	642.75
470.055	711.75
470.831	792.75
471.608	879.75
472.385	968.75
473.161	1085.75
473.938	1202.75
474.714	1322.75
475.49	1448.75
476.266	1593.75
477.043	1777.75
477.819	1946.75
478.595	2152.75
479.371	2342.75
480.146	2580.75
480.922	2846.75
481.698	3129.75
482.473	3434.75
483.249	3732.75
484.024	4093.75
484.8	4513.75
485.575	4934.75
486.35	5404.75
487.126	5884.75
487.901	6443.75
488.676	7058.75
489.451	7705.75
490.225	8413.75
491	9158.75
491.775	9992.75
492.55	10860.75
493.324	11744.75
494.099	12609.75
494.873	13579.75
495.647	14658.75
496.422	15691.75
497.196	16788.75
497.97	17928.75
498.744	19005.75
499.518	20166.75
500.292	21305.75
501.066	22280.75
501.839	23179.75
502.613	24186.75
503.387	24968.75
504.16	25641.75
504.934	26087.75
505.707	26353.75
506.48	26512.75
507.253	26538.75
508.027	26392.75
508.8	26209.75
509.573	25904.75
510.346	25403.75
511.118	24737.75
511.891	24077.75
512.664	23353.75
513.437	22584.75
514.209	21653.75
514.982	20806.75
515.754	19960.75
516.526	19094.75
517.298	18295.75
518.071	17502.75
518.843	16798.75
519.615	16172.75
520.387	15577.75
521.159	14967.75
521.93	14347.75
522.702	13776.75
523.474	13207.75
524.245	12579.75
525.017	12119.75
525.788	11668.75
526.56	11110.75
527.331	10582.75
528.102	10203.75
528.873	9712.75
529.644	9248.75
530.415	8798.75
531.186	8368.75
531.957	7942.75
532.728	7579.75
533.498	7177.75
534.269	6767.75
535.039	6417.75
535.81	6046.75
536.58	5712.75
537.351	5370.75
538.121	5110.75
538.891	4819.75
539.661	4582.75
540.431	4324.75
541.201	4071.75
541.971	3873.75
542.741	3688.75
543.51	3484.75
544.28	3305.75
545.05	3147.75
545.819	3006.75
546.588	2845.75
547.358	2692.75
548.127	2573.75
548.896	2446.75
549.665	2313.75
550.434	2189.75
551.203	2087.75
551.972	1964.75
552.741	1856.75
553.51	1776.75
554.278	1657.75
555.047	1568.75
555.815	1473.75
556.584	1403.75
557.352	1333.75
558.121	1253.75
558.889	1175.75
559.657	1113.75
560.425	1053.75
561.193	993.75
561.961	941.75
562.729	868.75
563.496	830.75
564.264	801.75
565.032	741.75
565.799	707.75
566.567	673.75
567.334	625.75
568.101	596.75
568.869	571.75
569.636	533.75
570.403	503.75
571.17	476.75
571.937	446.75
572.704	420.75
573.471	384.75
574.237	370.75
575.004	353.75
575.771	328.75
576.537	310.75
577.303	292.75
578.07	282.75
578.836	262.75
579.602	248.75
580.368	234.75
581.134	226.75
581.9	213.75
582.666	202.75
583.432	192.75
584.198	188.75
584.964	171.75
585.729	160.75
586.495	155.75
587.26	139.75
588.025	133.75
588.791	129.75
589.556	121.75
590.321	108.75
591.086	109.75
591.851	102.75
592.616	94.75
593.381	93.75
594.146	87.75
594.911	84.75
595.675	77.75
596.44	78.75
597.204	70.75
597.969	73.75
598.733	67.75
599.497	67.75
600.261	61.75
601.025	58.75
601.79	56.75
602.553	54.75
603.317	50.75
604.081	49.75
604.845	49.75
605.609	45.75
606.372	42.75
607.136	42.75
607.899	36.75
608.662	38.75
609.426	37.75
610.189	32.75
610.952	35.75
611.715	33.75
612.478	31.75
613.241	28.75
614.004	26.75
614.767	24.75
615.529	27.75
616.292	27.75
617.055	23.75
617.817	23.75
618.579	23.75
619.342	23.75
620.104	21.75
620.866	20.75
621.628	21.75
622.39	16.75
623.152	19.75
623.914	18.75
624.676	17.75
625.438	15.75
626.199	15.75
626.961	16.75
627.722	13.75
628.484	11.75
629.245	13.75
630.006	12.75
630.768	12.75
631.529	12.75
632.29	13.75
633.051	10.75
633.812	10.75
634.573	12.75
635.333	9.75
636.094	12.75
636.855	9.75
637.615	10.75
638.376	9.75
639.136	8.75
639.896	10.75
640.657	8.75
641.417	9.75
642.177	9.75
642.937	9.75
643.697	9.75
644.457	8.75
645.216	8.75
645.976	6.75
646.736	6.75
647.495	7.75
648.255	8.75
649.014	6.75
649.774	6.75
650.533	8.75
651.292	7.75
652.051	7.75
652.81	6.75
653.569	5.75
654.328	4.75
655.087	5.75
655.846	5.75
656.604	3.75
657.363	5.75
658.121	6.75
658.88	5.75
659.638	8.75
660.397	4.75
661.155	6.75
661.913	3.75
662.671	5.75
663.429	3.75
664.187	3.75
664.945	7.75
665.703	2.75
666.46	6.75
667.218	3.75
667.976	5.75
668.733	6.75
669.49	4.75
670.248	3.75
671.005	4.75
671.762	6.75
672.519	7.75
673.276	3.75
674.033	3.75
674.79	3.75
675.547	4.75
676.304	3.75
677.06	4.75
677.817	2.75
678.574	3.75
679.33	5.75
680.086	3.75
680.843	4.75
681.599	4.75
682.355	4.75
683.111	2.75
683.867	4.75
684.623	3.75
685.379	4.75
686.135	3.75
686.89	3.75
687.646	2.75
688.402	4.75
689.157	2.75
689.912	3.75
690.668	3.75
691.423	5.75
692.178	4.75
692.933	4.75
693.688	3.75
694.443	5.75
695.198	4.75
695.953	2.75
696.708	0.75
697.462	5.75
698.217	0.75
698.972	3.75
699.726	3.75
700.48	5.75
701.235	-0.25
701.989	2.75
702.743	3.75
703.497	2.75
704.251	4.75
705.005	0.75
705.759	2.75
706.513	2.75
707.266	2.75
708.02	3.75
708.774	4.75
709.527	2.75
710.28	2.75
711.034	1.75
711.787	1.75
712.54	1.75
713.293	3.75
714.046	2.75
714.799	2.75
715.552	1.75
716.305	2.75
717.058	3.75
717.81	3.75
718.563	3.75
719.315	2.75
720.068	3.75
720.82	2.75
721.573	1.75
722.325	3.75
723.077	2.75
723.829	2.75
724.581	2.75
725.333	3.75
726.085	4.75
726.836	1.75
727.588	3.75
728.34	1.75
729.091	4.75
729.843	4.75
730.594	3.75
731.346	3.75
732.097	3.75
732.848	4.75
733.599	4.75
734.35	3.75
735.101	3.75
735.852	3.75
736.603	6.75
737.354	2.75
738.104	4.75
738.855	1.75
739.605	2.75
740.356	3.75
741.106	2.75
741.856	6.75
742.607	4.75
743.357	5.75
744.107	4.75
744.857	3.75
745.607	5.75
746.357	3.75
747.106	4.75
747.856	2.75
748.606	2.75
749.355	5.75
750.105	4.75
750.854	3.75
751.603	3.75
752.353	4.75
753.102	6.75
753.851	5.75
754.6	5.75
755.349	6.75
756.098	5.75
756.847	4.75
757.595	4.75
758.344	5.75
759.093	2.75
759.841	5.75
760.589	3.75
761.338	3.75
762.086	4.75
762.834	5.75
763.582	7.75
764.331	6.75
765.079	5.75
765.826	6.75
766.574	6.75
767.322	6.75
768.07	5.75
768.817	6.75
769.565	6.75
770.312	6.75
771.06	6.75
771.807	7.75
772.554	6.75
773.302	7.75
774.049	8.75
774.796	6.75
775.543	7.75
776.29	6.75
777.036	10.75
777.783	7.75
778.53	8.75
779.276	9.75
780.023	5.75
780.769	6.75
781.516	8.75
782.262	7.75
783.008	9.75
783.754	7.75
784.5	6.75
785.246	8.75
785.992	6.75
786.738	9.75
787.484	6.75
788.23	7.75
788.975	5.75
789.721	8.75
790.466	8.75
791.212	7.75
791.957	9.75
792.702	7.75
793.447	8.75
794.193	9.75
794.938	9.75
795.683	7.75
796.427	6.75
797.172	7.75
797.917	6.75
798.662	8.75
799.406	5.75
800.151	8.75
800.895	6.75
801.64	7.75
802.384	7.75
803.128	5.75
803.872	6.75
804.616	6.75
805.36	8.75
806.104	7.75
806.848	5.75
807.592	5.75
808.336	4.75
809.079	6.75
809.823	3.75
810.566	6.75
811.31	7.75
812.053	4.75
812.796	3.75
813.539	3.75
814.283	5.75
815.026	6.75
815.769	4.75
816.511	4.75
817.254	3.75
817.997	3.75
818.74	4.75
819.482	3.75
820.225	6.75
820.967	2.75
821.71	2.75
822.452	3.75
823.194	3.75
823.936	3.75
824.678	5.75
825.42	1.75
826.162	4.75
826.904	4.75
827.646	3.75
828.388	3.75
829.129	5.75
829.871	2.75
830.612	1.75
831.354	2.75
832.095	3.75
832.836	3.75
833.577	4.75
834.319	4.75
835.06	1.75
835.801	1.75
836.542	0.75
837.282	3.75
838.023	2.75
838.764	3.75
839.504	4.75
840.245	4.75
840.985	2.75
841.726	0.75
842.466	3.75
843.206	5.75
843.946	0.75
844.687	3.75
845.427	3.75
846.166	3.75
846.906	3.75
847.646	1.75
848.386	1.75
849.125	1.75
849.865	-0.25
850.605	1.75
851.344	4.75
852.083	3.75
852.823	1.75
853.562	1.75
854.301	0.75
855.04	3.75
855.779	0.75
856.518	1.75
857.257	2.75
857.995	2.75
858.734	6.75
859.473	-0.25
860.211	3.75
860.95	1.75
861.688	3.75
862.426	2.75
863.165	0.75
863.903	3.75
864.641	3.75
865.379	0.75
866.117	0.75
866.855	2.75
867.593	0.75
868.33	0.75
869.068	1.75
869.806	1.75
870.543	0.75
871.28	-1.25
872.018	-0.25
872.755	1.75
873.492	-0.25
874.229	2.75
874.967	0.75
875.703	2.75
876.44	3.75
877.177	-0.25
877.914	-0.25
878.651	1.75
879.387	0.75
880.124	-1.25
880.86	2.75
881.597	0.75
882.333	-0.25
883.069	0.75
883.806	1.75
884.542	1.75
885.278	0.75
886.014	1.75
886.749	3.75
887.485	-0.25
888.221	2.75
888.957	-0.25
889.692	2.75
890.428	0.75
891.163	1.75
891.899	1.75
892.634	1.75
893.369	-0.25
894.104	-2.25
894.839	-2.25
895.574	1.75
896.309	-0.25
897.044	0.75
897.779	0.75
898.514	0.75
899.248	-2.25
899.983	1.75
900.717	-1.25
901.452	-0.25
902.186	-0.25
902.92	-2.25
903.654	-0.25
904.389	-0.25
905.123	2.75
905.857	1.75
906.59	0.75
907.324	-0.25
908.058	-0.25
908.792	1.75
909.525	-0.25
910.259	2.75
910.992	-2.25
911.726	-1.25
912.459	0.75
913.192	-2.25
913.925	1.75
914.658	0.75
915.391	0.75
916.124	0.75
916.857	0.75
917.59	0.75
918.323	0.75
919.055	1.75
919.788	1.75
920.521	0.75
921.253	0.75
921.985	-0.25
922.718	-0.25
923.45	-2.25
924.182	1.75
924.914	-0.25
925.646	-0.25
926.378	0.75
927.11	-1.25
927.841	0.75
928.573	1.75
929.305	0.75
930.036	0.75
930.768	-1.25
931.499	1.75
932.23	-2.25
932.962	-2.25
933.693	-0.25
934.424	-0.25
935.155	-0.25
935.886	-1.25
936.617	1.75
937.348	0.75
938.078	0.75
938.809	-1.25
939.54	-1.25
940.27	-0.25
941.001	-0.25
941.731	0.75
942.461	-0.25
943.191	0.75
943.922	-0.25
944.652	-2.25
945.382	1.75
946.112	0.75
946.841	0.75
947.571	-0.25
948.301	-0.25
949.031	-0.25
949.76	-0.25
950.49	1.75
951.219	-2.25
951.948	-0.25
952.678	1.75
953.407	-1.25
954.136	-0.25
954.865	-2.25
955.594	0.75
956.323	-3.25
957.052	1.75
957.78	0.75
958.509	-1.25
959.238	-1.25
959.966	-0.25
960.695	0.75
961.423	-0.25
962.151	0.75
962.88	0.75
963.608	-0.25
964.336	-1.25
965.064	-0.25
965.792	-2.25
966.52	-0.25
967.247	-0.25
967.975	-0.25
968.703	0.75
969.43	-0.25
970.158	0.75
970.885	-0.25
971.613	0.75
972.34	1.75
973.067	-0.25
973.794	1.75
974.521	1.75
975.248	-0.25
975.975	1.75
976.702	-2.25
977.429	-0.25
978.156	-0.25
978.882	-0.25
979.609	0.75
980.335	-0.25
981.062	0.75
981.788	0.75
982.514	-1.25
983.24	-2.25
983.967	-0.25
984.693	0.75
985.419	-2.25
986.144	0.75
986.87	1.75
987.596	0.75
988.322	0.75
989.047	0.75
989.773	-0.25
990.498	2.75
991.224	-0.25
991.949	-0.25
992.674	0.75
993.399	-0.25
994.124	0.75
994.849	-0.25
995.574	0.75
996.299	-0.25
997.024	1.75
997.749	-0.25
998.473	-0.25
999.198	1.75
999.922	1.75
1000.647	1.75
1001.371	1.75
1002.095	-0.25
1002.82	-2.25
1003.544	-1.25
1004.268	-0.25
1004.992	0.75
1005.716	-0.25
1006.439	1.75
1007.163	-1.25
1007.887	0.75
1008.611	-2.25
1009.334	1.75
1010.058	1.75
1010.781	-0.25
1011.504	-0.25
1012.228	-0.25
1012.951	-0.25
1013.674	1.75
1014.397	-0.25
1015.12	0.75
