节点500_285_QEPB04081__271__15-00-03-825.txt的数据

Date: Wed Nov 12 15:00:03 CST 2025
User: PC
Spectrometer: QEPB0408
触发模式: 0
积分时间 (秒): 1.000000E-2
Scans to average: 1
启用暗噪声校正: true
启用非线性校正: false
滑动平均宽度: 0
X轴模式: Wavelengths
Number of Pixels in Spectrum: 1044
>>>>>Begin Spectral Data<<<<<
220.843	1.62
221.644	1.62
222.444	4.62
223.244	1.62
224.045	-0.38
224.845	0.62
225.645	0.62
226.445	0.62
227.245	0.62
228.045	3.62
228.845	1.62
229.645	0.62
230.444	0.62
231.244	3.62
232.043	4.62
232.843	0.62
233.642	1.62
234.442	3.62
235.241	2.62
236.04	5.62
236.839	2.62
237.638	4.62
238.437	2.62
239.236	4.62
240.035	4.62
240.833	3.62
241.632	5.62
242.43	1.62
243.229	4.62
244.027	5.62
244.826	3.62
245.624	6.62
246.422	4.62
247.22	6.62
248.018	4.62
248.816	5.62
249.614	4.62
250.412	6.62
251.21	6.62
252.007	4.62
252.805	6.62
253.602	6.62
254.4	7.62
255.197	8.62
255.994	6.62
256.791	7.62
257.589	6.62
258.386	11.62
259.183	8.62
259.979	8.62
260.776	10.62
261.573	9.62
262.37	11.62
263.166	11.62
263.963	13.62
264.759	12.62
265.556	10.62
266.352	11.62
267.148	11.62
267.944	13.62
268.74	15.62
269.536	14.62
270.332	15.62
271.128	15.62
271.924	16.62
272.719	16.62
273.515	13.62
274.311	16.62
275.106	17.62
275.901	17.62
276.697	17.62
277.492	17.62
278.287	16.62
279.082	15.62
279.877	20.62
280.672	15.62
281.467	19.62
282.262	18.62
283.056	21.62
283.851	19.62
284.646	19.62
285.44	19.62
286.234	17.62
287.029	20.62
287.823	18.62
288.617	16.62
289.411	17.62
290.205	18.62
290.999	17.62
291.793	17.62
292.587	17.62
293.381	18.62
294.174	17.62
294.968	16.62
295.761	14.62
296.555	16.62
297.348	15.62
298.141	12.62
298.935	17.62
299.728	15.62
300.521	13.62
301.314	14.62
302.107	13.62
302.899	12.62
303.692	14.62
304.485	15.62
305.277	11.62
306.07	13.62
306.862	10.62
307.655	10.62
308.447	11.62
309.239	10.62
310.031	9.62
310.823	9.62
311.615	11.62
312.407	9.62
313.199	8.62
313.991	10.62
314.783	4.62
315.574	8.62
316.366	7.62
317.157	8.62
317.949	8.62
318.74	6.62
319.531	6.62
320.322	6.62
321.113	7.62
321.904	8.62
322.695	7.62
323.486	8.62
324.277	7.62
325.068	7.62
325.858	8.62
326.649	4.62
327.439	6.62
328.23	5.62
329.02	8.62
329.81	7.62
330.6	7.62
331.391	5.62
332.181	6.62
332.971	5.62
333.76	4.62
334.55	8.62
335.34	5.62
336.13	3.62
336.919	8.62
337.709	6.62
338.498	5.62
339.287	4.62
340.077	4.62
340.866	5.62
341.655	5.62
342.444	5.62
343.233	4.62
344.022	7.62
344.811	5.62
345.6	8.62
346.388	7.62
347.177	4.62
347.965	6.62
348.754	7.62
349.542	6.62
350.33	5.62
351.119	7.62
351.907	6.62
352.695	5.62
353.483	5.62
354.271	4.62
355.059	6.62
355.846	5.62
356.634	8.62
357.422	7.62
358.209	5.62
358.997	3.62
359.784	5.62
360.571	6.62
361.359	5.62
362.146	5.62
362.933	6.62
363.72	4.62
364.507	3.62
365.294	3.62
366.081	5.62
366.867	5.62
367.654	3.62
368.44	3.62
369.227	6.62
370.013	6.62
370.8	5.62
371.586	5.62
372.372	7.62
373.158	4.62
373.944	6.62
374.73	4.62
375.516	3.62
376.302	4.62
377.088	5.62
377.873	5.62
378.659	5.62
379.445	3.62
380.23	6.62
381.015	5.62
381.801	4.62
382.586	3.62
383.371	6.62
384.156	4.62
384.941	6.62
385.726	6.62
386.511	4.62
387.296	6.62
388.08	3.62
388.865	7.62
389.649	4.62
390.434	8.62
391.218	6.62
392.003	6.62
392.787	7.62
393.571	4.62
394.355	5.62
395.139	7.62
395.923	7.62
396.707	6.62
397.491	1.62
398.274	4.62
399.058	8.62
399.842	6.62
400.625	6.62
401.408	5.62
402.192	6.62
402.975	6.62
403.758	6.62
404.541	6.62
405.324	6.62
406.107	7.62
406.89	8.62
407.673	8.62
408.456	7.62
409.238	7.62
410.021	8.62
410.803	8.62
411.586	8.62
412.368	5.62
413.151	7.62
413.933	9.62
414.715	11.62
415.497	10.62
416.279	7.62
417.061	9.62
417.843	7.62
418.624	9.62
419.406	9.62
420.188	7.62
420.969	10.62
421.751	9.62
422.532	10.62
423.313	11.62
424.095	14.62
424.876	12.62
425.657	10.62
426.438	11.62
427.219	11.62
428	11.62
428.78	11.62
429.561	14.62
430.342	12.62
431.122	15.62
431.903	15.62
432.683	15.62
433.464	15.62
434.244	16.62
435.024	14.62
435.804	19.62
436.584	17.62
437.364	19.62
438.144	19.62
438.924	21.62
439.704	24.62
440.483	23.62
441.263	23.62
442.042	23.62
442.822	26.62
443.601	26.62
444.38	29.62
445.16	30.62
445.939	34.62
446.718	38.62
447.497	35.62
448.276	41.62
449.054	43.62
449.833	45.62
450.612	48.62
451.391	54.62
452.169	64.62
452.948	65.62
453.726	74.62
454.504	78.62
455.282	88.62
456.061	99.62
456.839	109.62
457.617	122.62
458.395	133.62
459.172	144.62
459.95	165.62
460.728	183.62
461.506	201.62
462.283	224.62
463.061	260.62
463.838	285.62
464.615	313.62
465.393	354.62
466.17	396.62
466.947	441.62
467.724	496.62
468.501	544.62
469.278	612.62
470.055	678.62
470.831	754.62
471.608	842.62
472.385	933.62
473.161	1039.62
473.938	1147.62
474.714	1275.62
475.49	1416.62
476.266	1577.62
477.043	1745.62
477.819	1917.62
478.595	2116.62
479.371	2342.62
480.146	2571.62
480.922	2861.62
481.698	3170.62
482.473	3478.62
483.249	3843.62
484.024	4217.62
484.8	4637.62
485.575	5135.62
486.35	5632.62
487.126	6176.62
487.901	6796.62
488.676	7432.62
489.451	8147.62
490.225	8955.62
491	9762.62
491.775	10698.62
492.55	11665.62
493.324	12625.62
494.099	13619.62
494.873	14679.62
495.647	15851.62
496.422	17060.62
497.196	18245.62
497.97	19474.62
498.744	20666.62
499.518	21859.62
500.292	23021.62
501.066	24058.62
501.839	25007.62
502.613	25897.62
503.387	26667.62
504.16	27290.62
504.934	27587.62
505.707	27773.62
506.48	27785.62
507.253	27608.62
508.027	27355.62
508.8	27022.62
509.573	26490.62
510.346	25892.62
511.118	25047.62
511.891	24258.62
512.664	23368.62
513.437	22440.62
514.209	21512.62
514.982	20624.62
515.754	19657.62
516.526	18760.62
517.298	17961.62
518.071	17232.62
518.843	16559.62
519.615	15952.62
520.387	15265.62
521.159	14686.62
521.93	14057.62
522.702	13509.62
523.474	12981.62
524.245	12431.62
525.017	11843.62
525.788	11386.62
526.56	10889.62
527.331	10363.62
528.102	9893.62
528.873	9484.62
529.644	8954.62
530.415	8546.62
531.186	8113.62
531.957	7672.62
532.728	7334.62
533.498	6923.62
534.269	6518.62
535.039	6141.62
535.81	5814.62
536.58	5515.62
537.351	5154.62
538.121	4889.62
538.891	4632.62
539.661	4389.62
540.431	4122.62
541.201	3887.62
541.971	3688.62
542.741	3499.62
543.51	3326.62
544.28	3164.62
545.05	3027.62
545.819	2881.62
546.588	2715.62
547.358	2581.62
548.127	2444.62
548.896	2329.62
549.665	2200.62
550.434	2105.62
551.203	1970.62
551.972	1882.62
552.741	1775.62
553.51	1672.62
554.278	1579.62
555.047	1495.62
555.815	1398.62
556.584	1323.62
557.352	1260.62
558.121	1174.62
558.889	1117.62
559.657	1068.62
560.425	1004.62
561.193	932.62
561.961	878.62
562.729	834.62
563.496	800.62
564.264	751.62
565.032	713.62
565.799	668.62
566.567	638.62
567.334	603.62
568.101	568.62
568.869	534.62
569.636	498.62
570.403	465.62
571.17	445.62
571.937	425.62
572.704	401.62
573.471	373.62
574.237	357.62
575.004	331.62
575.771	316.62
576.537	297.62
577.303	277.62
578.07	268.62
578.836	244.62
579.602	229.62
580.368	217.62
581.134	206.62
581.9	201.62
582.666	188.62
583.432	175.62
584.198	172.62
584.964	160.62
585.729	151.62
586.495	140.62
587.26	134.62
588.025	126.62
588.791	124.62
589.556	113.62
590.321	106.62
591.086	100.62
591.851	97.62
592.616	95.62
593.381	89.62
594.146	83.62
594.911	77.62
595.675	78.62
596.44	74.62
597.204	72.62
597.969	67.62
598.733	64.62
599.497	62.62
600.261	58.62
601.025	55.62
601.79	51.62
602.553	50.62
603.317	46.62
604.081	47.62
604.845	46.62
605.609	44.62
606.372	43.62
607.136	41.62
607.899	37.62
608.662	37.62
609.426	33.62
610.189	33.62
610.952	33.62
611.715	31.62
612.478	29.62
613.241	30.62
614.004	25.62
614.767	27.62
615.529	22.62
616.292	26.62
617.055	25.62
617.817	23.62
618.579	22.62
619.342	21.62
620.104	20.62
620.866	22.62
621.628	22.62
622.39	16.62
623.152	20.62
623.914	19.62
624.676	15.62
625.438	18.62
626.199	16.62
626.961	15.62
627.722	13.62
628.484	14.62
629.245	15.62
630.006	12.62
630.768	13.62
631.529	11.62
632.29	13.62
633.051	13.62
633.812	9.62
634.573	12.62
635.333	13.62
636.094	12.62
636.855	10.62
637.615	10.62
638.376	11.62
639.136	9.62
639.896	7.62
640.657	9.62
641.417	10.62
642.177	11.62
642.937	9.62
643.697	8.62
644.457	8.62
645.216	6.62
645.976	7.62
646.736	9.62
647.495	7.62
648.255	5.62
649.014	6.62
649.774	6.62
650.533	6.62
651.292	8.62
652.051	8.62
652.81	7.62
653.569	6.62
654.328	8.62
655.087	5.62
655.846	6.62
656.604	8.62
657.363	5.62
658.121	5.62
658.88	7.62
659.638	7.62
660.397	4.62
661.155	6.62
661.913	5.62
662.671	3.62
663.429	5.62
664.187	6.62
664.945	4.62
665.703	3.62
666.46	7.62
667.218	5.62
667.976	3.62
668.733	7.62
669.49	5.62
670.248	4.62
671.005	4.62
671.762	5.62
672.519	5.62
673.276	3.62
674.033	4.62
674.79	5.62
675.547	4.62
676.304	6.62
677.06	3.62
677.817	3.62
678.574	4.62
679.33	3.62
680.086	4.62
680.843	2.62
681.599	4.62
682.355	3.62
683.111	3.62
683.867	6.62
684.623	5.62
685.379	2.62
686.135	4.62
686.89	3.62
687.646	4.62
688.402	4.62
689.157	4.62
689.912	3.62
690.668	3.62
691.423	2.62
692.178	1.62
692.933	2.62
693.688	2.62
694.443	3.62
695.198	2.62
695.953	4.62
696.708	3.62
697.462	5.62
698.217	2.62
698.972	2.62
699.726	2.62
700.48	3.62
701.235	3.62
701.989	0.62
702.743	4.62
703.497	3.62
704.251	3.62
705.005	2.62
705.759	2.62
706.513	5.62
707.266	3.62
708.02	1.62
708.774	5.62
709.527	2.62
710.28	5.62
711.034	2.62
711.787	4.62
712.54	2.62
713.293	3.62
714.046	3.62
714.799	3.62
715.552	4.62
716.305	3.62
717.058	4.62
717.81	2.62
718.563	1.62
719.315	4.62
720.068	4.62
720.82	5.62
721.573	4.62
722.325	3.62
723.077	3.62
723.829	4.62
724.581	3.62
725.333	5.62
726.085	2.62
726.836	2.62
727.588	2.62
728.34	4.62
729.091	1.62
729.843	4.62
730.594	1.62
731.346	4.62
732.097	2.62
732.848	3.62
733.599	4.62
734.35	3.62
735.101	4.62
735.852	4.62
736.603	3.62
737.354	4.62
738.104	2.62
738.855	1.62
739.605	6.62
740.356	4.62
741.106	6.62
741.856	5.62
742.607	5.62
743.357	5.62
744.107	5.62
744.857	3.62
745.607	4.62
746.357	6.62
747.106	3.62
747.856	5.62
748.606	5.62
749.355	5.62
750.105	5.62
750.854	4.62
751.603	5.62
752.353	4.62
753.102	6.62
753.851	5.62
754.6	6.62
755.349	4.62
756.098	4.62
756.847	8.62
757.595	5.62
758.344	6.62
759.093	5.62
759.841	6.62
760.589	5.62
761.338	6.62
762.086	5.62
762.834	5.62
763.582	6.62
764.331	7.62
765.079	5.62
765.826	7.62
766.574	8.62
767.322	7.62
768.07	8.62
768.817	8.62
769.565	7.62
770.312	8.62
771.06	9.62
771.807	5.62
772.554	9.62
773.302	7.62
774.049	7.62
774.796	7.62
775.543	7.62
776.29	13.62
777.036	6.62
777.783	7.62
778.53	10.62
779.276	7.62
780.023	7.62
780.769	7.62
781.516	8.62
782.262	6.62
783.008	7.62
783.754	8.62
784.5	8.62
785.246	7.62
785.992	7.62
786.738	7.62
787.484	8.62
788.23	9.62
788.975	8.62
789.721	9.62
790.466	11.62
791.212	9.62
791.957	9.62
792.702	9.62
793.447	7.62
794.193	8.62
794.938	9.62
795.683	7.62
796.427	7.62
797.172	8.62
797.917	6.62
798.662	7.62
799.406	8.62
800.151	6.62
800.895	7.62
801.64	6.62
802.384	8.62
803.128	7.62
803.872	7.62
804.616	9.62
805.36	7.62
806.104	7.62
806.848	7.62
807.592	4.62
808.336	9.62
809.079	8.62
809.823	5.62
810.566	5.62
811.31	3.62
812.053	7.62
812.796	4.62
813.539	5.62
814.283	5.62
815.026	6.62
815.769	6.62
816.511	3.62
817.254	3.62
817.997	6.62
818.74	1.62
819.482	7.62
820.225	2.62
820.967	5.62
821.71	3.62
822.452	5.62
823.194	4.62
823.936	4.62
824.678	4.62
825.42	4.62
826.162	6.62
826.904	2.62
827.646	4.62
828.388	3.62
829.129	2.62
829.871	4.62
830.612	3.62
831.354	4.62
832.095	4.62
832.836	7.62
833.577	4.62
834.319	3.62
835.06	3.62
835.801	3.62
836.542	2.62
837.282	3.62
838.023	4.62
838.764	3.62
839.504	3.62
840.245	3.62
840.985	5.62
841.726	1.62
842.466	3.62
843.206	4.62
843.946	2.62
844.687	1.62
845.427	2.62
846.166	3.62
846.906	3.62
847.646	2.62
848.386	3.62
849.125	3.62
849.865	3.62
850.605	3.62
851.344	4.62
852.083	2.62
852.823	2.62
853.562	0.62
854.301	2.62
855.04	1.62
855.779	2.62
856.518	2.62
857.257	1.62
857.995	4.62
858.734	3.62
859.473	1.62
860.211	3.62
860.95	3.62
861.688	4.62
862.426	3.62
863.165	1.62
863.903	2.62
864.641	2.62
865.379	4.62
866.117	1.62
866.855	1.62
867.593	0.62
868.33	2.62
869.068	1.62
869.806	1.62
870.543	0.62
871.28	0.62
872.018	1.62
872.755	0.62
873.492	1.62
874.229	4.62
874.967	0.62
875.703	2.62
876.44	2.62
877.177	1.62
877.914	-0.38
878.651	2.62
879.387	-1.38
880.124	-0.38
880.86	2.62
881.597	0.62
882.333	1.62
883.069	1.62
883.806	2.62
884.542	0.62
885.278	1.62
886.014	2.62
886.749	-0.38
887.485	1.62
888.221	2.62
888.957	1.62
889.692	2.62
890.428	-0.38
891.163	1.62
891.899	1.62
892.634	-1.38
893.369	1.62
894.104	-1.38
894.839	-0.38
895.574	0.62
896.309	1.62
897.044	0.62
897.779	0.62
898.514	0.62
899.248	-0.38
899.983	1.62
900.717	-1.38
901.452	-0.38
902.186	-0.38
902.92	1.62
903.654	1.62
904.389	-0.38
905.123	0.62
905.857	-0.38
906.59	2.62
907.324	-0.38
908.058	-1.38
908.792	-0.38
909.525	-2.38
910.259	-0.38
910.992	1.62
911.726	0.62
912.459	0.62
913.192	2.62
913.925	0.62
914.658	0.62
915.391	-0.38
916.124	0.62
916.857	-0.38
917.59	0.62
918.323	0.62
919.055	1.62
919.788	0.62
920.521	0.62
921.253	2.62
921.985	0.62
922.718	-0.38
923.45	0.62
924.182	0.62
924.914	-0.38
925.646	-0.38
926.378	-0.38
927.11	-1.38
927.841	1.62
928.573	-1.38
929.305	0.62
930.036	0.62
930.768	-1.38
931.499	1.62
932.23	-0.38
932.962	1.62
933.693	0.62
934.424	-0.38
935.155	2.62
935.886	0.62
936.617	2.62
937.348	1.62
938.078	0.62
938.809	0.62
939.54	-0.38
940.27	0.62
941.001	-0.38
941.731	-0.38
942.461	-0.38
943.191	1.62
943.922	-1.38
944.652	-2.38
945.382	1.62
946.112	-1.38
946.841	0.62
947.571	1.62
948.301	-0.38
949.031	-0.38
949.76	0.62
950.49	-0.38
951.219	0.62
951.948	0.62
952.678	-1.38
953.407	2.62
954.136	0.62
954.865	-0.38
955.594	-0.38
956.323	0.62
957.052	3.62
957.78	1.62
958.509	1.62
959.238	-0.38
959.966	1.62
960.695	1.62
961.423	0.62
962.151	0.62
962.88	-1.38
963.608	0.62
964.336	-0.38
965.064	-0.38
965.792	-0.38
966.52	-0.38
967.247	0.62
967.975	-0.38
968.703	0.62
969.43	1.62
970.158	-0.38
970.885	0.62
971.613	-0.38
972.34	-1.38
973.067	0.62
973.794	2.62
974.521	0.62
975.248	-0.38
975.975	-0.38
976.702	1.62
977.429	0.62
978.156	0.62
978.882	0.62
979.609	1.62
980.335	-1.38
981.062	0.62
981.788	-0.38
982.514	0.62
983.24	-1.38
983.967	-0.38
984.693	1.62
985.419	2.62
986.144	0.62
986.87	0.62
987.596	0.62
988.322	-1.38
989.047	-0.38
989.773	0.62
990.498	0.62
991.224	0.62
991.949	-0.38
992.674	-1.38
993.399	-0.38
994.124	1.62
994.849	-0.38
995.574	1.62
996.299	-0.38
997.024	1.62
997.749	2.62
998.473	0.62
999.198	0.62
999.922	-0.38
1000.647	-0.38
1001.371	3.62
1002.095	-2.38
1002.82	-1.38
1003.544	-0.38
1004.268	2.62
1004.992	-0.38
1005.716	0.62
1006.439	0.62
1007.163	2.62
1007.887	1.62
1008.611	-0.38
1009.334	0.62
1010.058	0.62
1010.781	-0.38
1011.504	2.62
1012.228	-1.38
1012.951	0.62
1013.674	-0.38
1014.397	0.62
1015.12	-0.38
