节点500_285_QEPB04081__169__14-58-22-141.txt的数据

Date: Wed Nov 12 14:58:22 CST 2025
User: PC
Spectrometer: QEPB0408
触发模式: 0
积分时间 (秒): 1.000000E-2
Scans to average: 1
启用暗噪声校正: true
启用非线性校正: false
滑动平均宽度: 0
X轴模式: Wavelengths
Number of Pixels in Spectrum: 1044
>>>>>Begin Spectral Data<<<<<
220.843	2
221.644	3
222.444	2
223.244	6
224.045	3
224.845	2
225.645	3
226.445	5
227.245	4
228.045	4
228.845	3
229.645	2
230.444	5
231.244	4
232.043	3
232.843	7
233.642	4
234.442	6
235.241	2
236.04	5
236.839	5
237.638	4
238.437	5
239.236	5
240.035	4
240.833	4
241.632	3
242.43	5
243.229	3
244.027	4
244.826	6
245.624	7
246.422	7
247.22	5
248.018	7
248.816	8
249.614	7
250.412	7
251.21	7
252.007	7
252.805	8
253.602	7
254.4	8
255.197	9
255.994	8
256.791	7
257.589	6
258.386	9
259.183	11
259.979	11
260.776	12
261.573	10
262.37	11
263.166	14
263.963	12
264.759	15
265.556	14
266.352	12
267.148	14
267.944	12
268.74	14
269.536	16
270.332	18
271.128	16
271.924	18
272.719	19
273.515	18
274.311	17
275.106	18
275.901	15
276.697	16
277.492	18
278.287	20
279.082	15
279.877	20
280.672	21
281.467	22
282.262	22
283.056	20
283.851	22
284.646	18
285.44	20
286.234	20
287.029	19
287.823	21
288.617	21
289.411	19
290.205	19
290.999	20
291.793	20
292.587	20
293.381	18
294.174	18
294.968	21
295.761	17
296.555	15
297.348	16
298.141	17
298.935	17
299.728	16
300.521	14
301.314	18
302.107	13
302.899	13
303.692	14
304.485	13
305.277	13
306.07	13
306.862	13
307.655	13
308.447	12
309.239	15
310.031	10
310.823	13
311.615	11
312.407	9
313.199	13
313.991	10
314.783	10
315.574	10
316.366	9
317.157	8
317.949	8
318.74	11
319.531	7
320.322	8
321.113	8
321.904	9
322.695	10
323.486	8
324.277	7
325.068	5
325.858	8
326.649	8
327.439	7
328.23	8
329.02	6
329.81	8
330.6	8
331.391	9
332.181	6
332.971	6
333.76	4
334.55	6
335.34	8
336.13	7
336.919	6
337.709	9
338.498	7
339.287	8
340.077	8
340.866	8
341.655	5
342.444	6
343.233	7
344.022	5
344.811	7
345.6	6
346.388	7
347.177	9
347.965	8
348.754	6
349.542	6
350.33	6
351.119	8
351.907	6
352.695	5
353.483	6
354.271	6
355.059	6
355.846	8
356.634	6
357.422	4
358.209	7
358.997	6
359.784	7
360.571	6
361.359	7
362.146	8
362.933	4
363.72	7
364.507	5
365.294	6
366.081	5
366.867	4
367.654	5
368.44	7
369.227	7
370.013	5
370.8	5
371.586	7
372.372	7
373.158	4
373.944	4
374.73	5
375.516	6
376.302	4
377.088	6
377.873	6
378.659	4
379.445	6
380.23	4
381.015	8
381.801	7
382.586	6
383.371	5
384.156	7
384.941	6
385.726	6
386.511	8
387.296	6
388.08	8
388.865	5
389.649	6
390.434	4
391.218	5
392.003	6
392.787	6
393.571	7
394.355	5
395.139	6
395.923	10
396.707	6
397.491	10
398.274	7
399.058	8
399.842	7
400.625	5
401.408	10
402.192	9
402.975	7
403.758	8
404.541	8
405.324	7
406.107	7
406.89	8
407.673	9
408.456	7
409.238	9
410.021	10
410.803	10
411.586	8
412.368	12
413.151	9
413.933	10
414.715	10
415.497	9
416.279	10
417.061	9
417.843	10
418.624	10
419.406	10
420.188	11
420.969	10
421.751	10
422.532	11
423.313	13
424.095	15
424.876	12
425.657	13
426.438	14
427.219	16
428	12
428.78	13
429.561	17
430.342	14
431.122	14
431.903	16
432.683	18
433.464	17
434.244	15
435.024	16
435.804	18
436.584	18
437.364	20
438.144	20
438.924	23
439.704	24
440.483	23
441.263	23
442.042	26
442.822	32
443.601	28
444.38	30
445.16	33
445.939	33
446.718	36
447.497	41
448.276	39
449.054	46
449.833	51
450.612	49
451.391	55
452.169	62
452.948	65
453.726	70
454.504	78
455.282	89
456.061	98
456.839	102
457.617	113
458.395	133
459.172	149
459.95	163
460.728	177
461.506	202
462.283	228
463.061	243
463.838	280
464.615	315
465.393	350
466.17	382
466.947	434
467.724	490
468.501	547
469.278	604
470.055	672
470.831	742
471.608	847
472.385	935
473.161	1026
473.938	1145
474.714	1275
475.49	1408
476.266	1558
477.043	1736
477.819	1929
478.595	2112
479.371	2333
480.146	2608
480.922	2892
481.698	3168
482.473	3507
483.249	3888
484.024	4273
484.8	4712
485.575	5193
486.35	5714
487.126	6302
487.901	6946
488.676	7602
489.451	8375
490.225	9159
491	9957
491.775	10950
492.55	11939
493.324	12990
494.099	13998
494.873	15119
495.647	16324
496.422	17613
497.196	18776
497.97	20012
498.744	21289
499.518	22478
500.292	23642
501.066	24723
501.839	25652
502.613	26637
503.387	27277
504.16	27910
504.934	28214
505.707	28236
506.48	28242
507.253	27983
508.027	27680
508.8	27268
509.573	26678
510.346	25990
511.118	25195
511.891	24278
512.664	23380
513.437	22499
514.209	21473
514.982	20510
515.754	19568
516.526	18643
517.298	17834
518.071	17080
518.843	16441
519.615	15877
520.387	15188
521.159	14601
521.93	14002
522.702	13398
523.474	12849
524.245	12346
525.017	11792
525.788	11356
526.56	10834
527.331	10264
528.102	9856
528.873	9361
529.644	8887
530.415	8446
531.186	8001
531.957	7589
532.728	7180
533.498	6779
534.269	6423
535.039	6078
535.81	5741
536.58	5400
537.351	5062
538.121	4798
538.891	4536
539.661	4304
540.431	4069
541.201	3830
541.971	3630
542.741	3462
543.51	3272
544.28	3135
545.05	2970
545.819	2821
546.588	2693
547.358	2565
548.127	2407
548.896	2317
549.665	2185
550.434	2078
551.203	1965
551.972	1838
552.741	1730
553.51	1655
554.278	1557
555.047	1476
555.815	1379
556.584	1298
557.352	1246
558.121	1152
558.889	1092
559.657	1034
560.425	978
561.193	921
561.961	883
562.729	810
563.496	773
564.264	740
565.032	703
565.799	648
566.567	622
567.334	583
568.101	549
568.869	525
569.636	487
570.403	465
571.17	432
571.937	409
572.704	391
573.471	375
574.237	346
575.004	328
575.771	312
576.537	283
577.303	275
578.07	258
578.836	239
579.602	227
580.368	217
581.134	207
581.9	195
582.666	190
583.432	172
584.198	163
584.964	156
585.729	145
586.495	142
587.26	137
588.025	127
588.791	121
589.556	116
590.321	111
591.086	101
591.851	96
592.616	94
593.381	86
594.146	84
594.911	78
595.675	80
596.44	73
597.204	72
597.969	66
598.733	59
599.497	57
600.261	58
601.025	58
601.79	52
602.553	50
603.317	50
604.081	47
604.845	47
605.609	43
606.372	38
607.136	42
607.899	40
608.662	34
609.426	34
610.189	32
610.952	32
611.715	33
612.478	30
613.241	28
614.004	31
614.767	26
615.529	26
616.292	26
617.055	22
617.817	24
618.579	26
619.342	23
620.104	22
620.866	17
621.628	20
622.39	20
623.152	22
623.914	19
624.676	19
625.438	17
626.199	14
626.961	15
627.722	15
628.484	14
629.245	16
630.006	13
630.768	11
631.529	14
632.29	13
633.051	14
633.812	10
634.573	13
635.333	13
636.094	13
636.855	16
637.615	9
638.376	10
639.136	9
639.896	9
640.657	12
641.417	12
642.177	9
642.937	9
643.697	9
644.457	8
645.216	11
645.976	10
646.736	7
647.495	7
648.255	8
649.014	11
649.774	8
650.533	6
651.292	6
652.051	9
652.81	7
653.569	4
654.328	6
655.087	8
655.846	7
656.604	10
657.363	7
658.121	7
658.88	5
659.638	6
660.397	7
661.155	7
661.913	7
662.671	6
663.429	7
664.187	5
664.945	8
665.703	4
666.46	6
667.218	5
667.976	8
668.733	6
669.49	3
670.248	4
671.005	4
671.762	6
672.519	5
673.276	5
674.033	5
674.79	6
675.547	5
676.304	4
677.06	3
677.817	6
678.574	4
679.33	4
680.086	3
680.843	3
681.599	6
682.355	4
683.111	3
683.867	4
684.623	4
685.379	5
686.135	5
686.89	5
687.646	3
688.402	5
689.157	3
689.912	4
690.668	5
691.423	5
692.178	5
692.933	3
693.688	2
694.443	6
695.198	5
695.953	4
696.708	2
697.462	5
698.217	3
698.972	0
699.726	5
700.48	5
701.235	5
701.989	4
702.743	4
703.497	4
704.251	4
705.005	6
705.759	3
706.513	6
707.266	5
708.02	4
708.774	4
709.527	4
710.28	2
711.034	6
711.787	2
712.54	3
713.293	3
714.046	5
714.799	5
715.552	3
716.305	3
717.058	1
717.81	5
718.563	5
719.315	4
720.068	6
720.82	6
721.573	5
722.325	3
723.077	5
723.829	4
724.581	4
725.333	4
726.085	5
726.836	4
727.588	5
728.34	7
729.091	6
729.843	5
730.594	6
731.346	4
732.097	4
732.848	5
733.599	7
734.35	5
735.101	4
735.852	5
736.603	3
737.354	4
738.104	5
738.855	5
739.605	4
740.356	5
741.106	4
741.856	5
742.607	7
743.357	6
744.107	4
744.857	7
745.607	5
746.357	6
747.106	8
747.856	4
748.606	4
749.355	4
750.105	6
750.854	5
751.603	6
752.353	4
753.102	7
753.851	7
754.6	6
755.349	7
756.098	5
756.847	8
757.595	8
758.344	7
759.093	6
759.841	7
760.589	6
761.338	6
762.086	8
762.834	4
763.582	8
764.331	7
765.079	7
765.826	8
766.574	9
767.322	9
768.07	8
768.817	9
769.565	8
770.312	8
771.06	9
771.807	10
772.554	9
773.302	9
774.049	8
774.796	7
775.543	9
776.29	9
777.036	10
777.783	9
778.53	9
779.276	10
780.023	11
780.769	10
781.516	8
782.262	9
783.008	8
783.754	10
784.5	10
785.246	7
785.992	9
786.738	11
787.484	8
788.23	8
788.975	9
789.721	12
790.466	6
791.212	10
791.957	10
792.702	10
793.447	11
794.193	7
794.938	10
795.683	11
796.427	11
797.172	7
797.917	8
798.662	8
799.406	9
800.151	9
800.895	6
801.64	8
802.384	8
803.128	8
803.872	8
804.616	7
805.36	5
806.104	4
806.848	7
807.592	6
808.336	6
809.079	8
809.823	7
810.566	5
811.31	7
812.053	5
812.796	5
813.539	5
814.283	5
815.026	8
815.769	8
816.511	5
817.254	5
817.997	5
818.74	5
819.482	7
820.225	2
820.967	5
821.71	8
822.452	5
823.194	5
823.936	2
824.678	4
825.42	5
826.162	4
826.904	5
827.646	3
828.388	6
829.129	4
829.871	4
830.612	4
831.354	4
832.095	4
832.836	3
833.577	6
834.319	5
835.06	5
835.801	5
836.542	3
837.282	6
838.023	3
838.764	4
839.504	5
840.245	2
840.985	5
841.726	3
842.466	4
843.206	0
843.946	5
844.687	5
845.427	2
846.166	3
846.906	1
847.646	4
848.386	3
849.125	5
849.865	4
850.605	2
851.344	4
852.083	2
852.823	5
853.562	3
854.301	3
855.04	2
855.779	2
856.518	4
857.257	1
857.995	4
858.734	2
859.473	1
860.211	3
860.95	2
861.688	4
862.426	2
863.165	2
863.903	2
864.641	4
865.379	4
866.117	4
866.855	2
867.593	2
868.33	1
869.068	4
869.806	1
870.543	2
871.28	1
872.018	3
872.755	3
873.492	1
874.229	0
874.967	2
875.703	3
876.44	1
877.177	2
877.914	1
878.651	1
879.387	6
880.124	1
880.86	1
881.597	3
882.333	-2
883.069	1
883.806	0
884.542	3
885.278	0
886.014	1
886.749	3
887.485	1
888.221	4
888.957	4
889.692	-2
890.428	0
891.163	-2
891.899	2
892.634	1
893.369	0
894.104	2
894.839	0
895.574	0
896.309	2
897.044	2
897.779	0
898.514	2
899.248	2
899.983	1
900.717	1
901.452	3
902.186	0
902.92	2
903.654	-1
904.389	2
905.123	2
905.857	3
906.59	2
907.324	0
908.058	0
908.792	0
909.525	0
910.259	2
910.992	0
911.726	2
912.459	-2
913.192	2
913.925	0
914.658	2
915.391	2
916.124	2
916.857	0
917.59	0
918.323	1
919.055	2
919.788	1
920.521	-1
921.253	3
921.985	1
922.718	0
923.45	0
924.182	1
924.914	1
925.646	1
926.378	-1
927.11	3
927.841	1
928.573	-1
929.305	0
930.036	-1
930.768	2
931.499	3
932.23	4
932.962	2
933.693	1
934.424	1
935.155	1
935.886	3
936.617	0
937.348	0
938.078	2
938.809	1
939.54	4
940.27	1
941.001	1
941.731	2
942.461	1
943.191	2
943.922	0
944.652	0
945.382	3
946.112	0
946.841	0
947.571	0
948.301	1
949.031	-1
949.76	2
950.49	2
951.219	0
951.948	1
952.678	1
953.407	2
954.136	-1
954.865	1
955.594	0
956.323	0
957.052	-1
957.78	0
958.509	0
959.238	2
959.966	1
960.695	0
961.423	0
962.151	-1
962.88	-2
963.608	2
964.336	0
965.064	-1
965.792	2
966.52	2
967.247	0
967.975	1
968.703	1
969.43	-1
970.158	0
970.885	0
971.613	-1
972.34	2
973.067	-1
973.794	0
974.521	1
975.248	1
975.975	1
976.702	0
977.429	2
978.156	1
978.882	2
979.609	0
980.335	0
981.062	0
981.788	1
982.514	0
983.24	3
983.967	2
984.693	1
985.419	1
986.144	1
986.87	-1
987.596	2
988.322	2
989.047	0
989.773	1
990.498	1
991.224	2
991.949	2
992.674	0
993.399	2
994.124	0
994.849	0
995.574	0
996.299	2
997.024	2
997.749	2
998.473	0
999.198	-1
999.922	1
1000.647	1
1001.371	2
1002.095	-2
1002.82	-3
1003.544	1
1004.268	4
1004.992	0
1005.716	2
1006.439	-1
1007.163	1
1007.887	2
1008.611	0
1009.334	2
1010.058	-1
1010.781	0
1011.504	-1
1012.228	1
1012.951	-1
1013.674	1
1014.397	2
1015.12	0
