节点500_285_QEPB04081__243__14-59-35-924.txt的数据

Date: Wed Nov 12 14:59:35 CST 2025
User: PC
Spectrometer: QEPB0408
触发模式: 0
积分时间 (秒): 1.000000E-2
Scans to average: 1
启用暗噪声校正: true
启用非线性校正: false
滑动平均宽度: 0
X轴模式: Wavelengths
Number of Pixels in Spectrum: 1044
>>>>>Begin Spectral Data<<<<<
220.843	3.5
221.644	-0.5
222.444	4.5
223.244	2.5
224.045	-0.5
224.845	1.5
225.645	1.5
226.445	2.5
227.245	-0.5
228.045	2.5
228.845	2.5
229.645	0.5
230.444	2.5
231.244	0.5
232.043	2.5
232.843	4.5
233.642	1.5
234.442	5.5
235.241	4.5
236.04	4.5
236.839	2.5
237.638	4.5
238.437	4.5
239.236	2.5
240.035	6.5
240.833	2.5
241.632	4.5
242.43	1.5
243.229	6.5
244.027	4.5
244.826	3.5
245.624	5.5
246.422	7.5
247.22	9.5
248.018	6.5
248.816	5.5
249.614	6.5
250.412	3.5
251.21	5.5
252.007	6.5
252.805	4.5
253.602	8.5
254.4	6.5
255.197	7.5
255.994	7.5
256.791	9.5
257.589	8.5
258.386	10.5
259.183	10.5
259.979	9.5
260.776	11.5
261.573	11.5
262.37	9.5
263.166	9.5
263.963	8.5
264.759	12.5
265.556	12.5
266.352	11.5
267.148	12.5
267.944	13.5
268.74	13.5
269.536	12.5
270.332	15.5
271.128	17.5
271.924	16.5
272.719	14.5
273.515	14.5
274.311	16.5
275.106	15.5
275.901	19.5
276.697	19.5
277.492	17.5
278.287	18.5
279.082	17.5
279.877	18.5
280.672	19.5
281.467	16.5
282.262	19.5
283.056	20.5
283.851	22.5
284.646	17.5
285.44	20.5
286.234	20.5
287.029	18.5
287.823	17.5
288.617	17.5
289.411	20.5
290.205	21.5
290.999	16.5
291.793	17.5
292.587	15.5
293.381	15.5
294.174	13.5
294.968	18.5
295.761	14.5
296.555	19.5
297.348	15.5
298.141	15.5
298.935	15.5
299.728	15.5
300.521	14.5
301.314	15.5
302.107	12.5
302.899	12.5
303.692	12.5
304.485	13.5
305.277	10.5
306.07	13.5
306.862	11.5
307.655	12.5
308.447	14.5
309.239	10.5
310.031	12.5
310.823	10.5
311.615	9.5
312.407	9.5
313.199	10.5
313.991	11.5
314.783	9.5
315.574	10.5
316.366	9.5
317.157	8.5
317.949	8.5
318.74	8.5
319.531	7.5
320.322	7.5
321.113	4.5
321.904	6.5
322.695	6.5
323.486	6.5
324.277	5.5
325.068	7.5
325.858	7.5
326.649	6.5
327.439	5.5
328.23	3.5
329.02	8.5
329.81	7.5
330.6	5.5
331.391	3.5
332.181	6.5
332.971	7.5
333.76	7.5
334.55	6.5
335.34	5.5
336.13	5.5
336.919	7.5
337.709	3.5
338.498	6.5
339.287	4.5
340.077	3.5
340.866	4.5
341.655	6.5
342.444	6.5
343.233	5.5
344.022	4.5
344.811	6.5
345.6	4.5
346.388	7.5
347.177	5.5
347.965	4.5
348.754	6.5
349.542	6.5
350.33	5.5
351.119	6.5
351.907	6.5
352.695	3.5
353.483	7.5
354.271	6.5
355.059	4.5
355.846	6.5
356.634	5.5
357.422	6.5
358.209	4.5
358.997	4.5
359.784	4.5
360.571	4.5
361.359	6.5
362.146	3.5
362.933	6.5
363.72	5.5
364.507	3.5
365.294	6.5
366.081	3.5
366.867	5.5
367.654	4.5
368.44	5.5
369.227	4.5
370.013	1.5
370.8	6.5
371.586	6.5
372.372	6.5
373.158	5.5
373.944	5.5
374.73	6.5
375.516	3.5
376.302	4.5
377.088	3.5
377.873	4.5
378.659	5.5
379.445	2.5
380.23	4.5
381.015	3.5
381.801	5.5
382.586	3.5
383.371	6.5
384.156	7.5
384.941	4.5
385.726	5.5
386.511	6.5
387.296	5.5
388.08	4.5
388.865	4.5
389.649	6.5
390.434	7.5
391.218	5.5
392.003	3.5
392.787	5.5
393.571	7.5
394.355	4.5
395.139	5.5
395.923	4.5
396.707	8.5
397.491	5.5
398.274	8.5
399.058	6.5
399.842	6.5
400.625	9.5
401.408	8.5
402.192	6.5
402.975	8.5
403.758	5.5
404.541	6.5
405.324	6.5
406.107	5.5
406.89	6.5
407.673	9.5
408.456	8.5
409.238	9.5
410.021	8.5
410.803	7.5
411.586	8.5
412.368	9.5
413.151	6.5
413.933	9.5
414.715	7.5
415.497	10.5
416.279	7.5
417.061	9.5
417.843	8.5
418.624	8.5
419.406	8.5
420.188	11.5
420.969	11.5
421.751	11.5
422.532	9.5
423.313	7.5
424.095	10.5
424.876	11.5
425.657	10.5
426.438	10.5
427.219	11.5
428	12.5
428.78	13.5
429.561	12.5
430.342	13.5
431.122	15.5
431.903	16.5
432.683	17.5
433.464	15.5
434.244	18.5
435.024	16.5
435.804	14.5
436.584	16.5
437.364	18.5
438.144	19.5
438.924	20.5
439.704	21.5
440.483	21.5
441.263	23.5
442.042	24.5
442.822	27.5
443.601	27.5
444.38	27.5
445.16	33.5
445.939	35.5
446.718	40.5
447.497	38.5
448.276	40.5
449.054	44.5
449.833	45.5
450.612	51.5
451.391	53.5
452.169	59.5
452.948	66.5
453.726	76.5
454.504	77.5
455.282	85.5
456.061	97.5
456.839	104.5
457.617	120.5
458.395	131.5
459.172	147.5
459.95	165.5
460.728	177.5
461.506	207.5
462.283	221.5
463.061	257.5
463.838	281.5
464.615	316.5
465.393	347.5
466.17	383.5
466.947	440.5
467.724	487.5
468.501	541.5
469.278	606.5
470.055	678.5
470.831	753.5
471.608	832.5
472.385	925.5
473.161	1034.5
473.938	1157.5
474.714	1286.5
475.49	1416.5
476.266	1565.5
477.043	1733.5
477.819	1912.5
478.595	2116.5
479.371	2342.5
480.146	2588.5
480.922	2873.5
481.698	3167.5
482.473	3514.5
483.249	3815.5
484.024	4223.5
484.8	4647.5
485.575	5132.5
486.35	5659.5
487.126	6247.5
487.901	6791.5
488.676	7494.5
489.451	8188.5
490.225	8930.5
491	9802.5
491.775	10760.5
492.55	11681.5
493.324	12736.5
494.099	13683.5
494.873	14804.5
495.647	15956.5
496.422	17123.5
497.196	18345.5
497.97	19595.5
498.744	20718.5
499.518	22002.5
500.292	23157.5
501.066	24241.5
501.839	25184.5
502.613	26052.5
503.387	26790.5
504.16	27434.5
504.934	27707.5
505.707	27897.5
506.48	27878.5
507.253	27673.5
508.027	27371.5
508.8	27080.5
509.573	26572.5
510.346	25901.5
511.118	25098.5
511.891	24252.5
512.664	23352.5
513.437	22460.5
514.209	21482.5
514.982	20606.5
515.754	19633.5
516.526	18819.5
517.298	17908.5
518.071	17210.5
518.843	16492.5
519.615	15937.5
520.387	15229.5
521.159	14627.5
521.93	14115.5
522.702	13484.5
523.474	12983.5
524.245	12357.5
525.017	11825.5
525.788	11411.5
526.56	10918.5
527.331	10333.5
528.102	9865.5
528.873	9430.5
529.644	8953.5
530.415	8501.5
531.186	8099.5
531.957	7657.5
532.728	7284.5
533.498	6888.5
534.269	6465.5
535.039	6135.5
535.81	5784.5
536.58	5475.5
537.351	5140.5
538.121	4853.5
538.891	4632.5
539.661	4347.5
540.431	4120.5
541.201	3874.5
541.971	3678.5
542.741	3487.5
543.51	3301.5
544.28	3158.5
545.05	3013.5
545.819	2857.5
546.588	2710.5
547.358	2573.5
548.127	2449.5
548.896	2321.5
549.665	2203.5
550.434	2074.5
551.203	1986.5
551.972	1859.5
552.741	1760.5
553.51	1687.5
554.278	1582.5
555.047	1471.5
555.815	1391.5
556.584	1327.5
557.352	1251.5
558.121	1173.5
558.889	1118.5
559.657	1055.5
560.425	1007.5
561.193	936.5
561.961	877.5
562.729	841.5
563.496	787.5
564.264	746.5
565.032	709.5
565.799	668.5
566.567	630.5
567.334	599.5
568.101	568.5
568.869	525.5
569.636	493.5
570.403	462.5
571.17	435.5
571.937	421.5
572.704	396.5
573.471	379.5
574.237	353.5
575.004	340.5
575.771	309.5
576.537	295.5
577.303	269.5
578.07	264.5
578.836	245.5
579.602	227.5
580.368	219.5
581.134	205.5
581.9	201.5
582.666	187.5
583.432	180.5
584.198	165.5
584.964	157.5
585.729	150.5
586.495	144.5
587.26	137.5
588.025	126.5
588.791	123.5
589.556	118.5
590.321	109.5
591.086	104.5
591.851	97.5
592.616	93.5
593.381	86.5
594.146	80.5
594.911	77.5
595.675	75.5
596.44	75.5
597.204	69.5
597.969	65.5
598.733	62.5
599.497	60.5
600.261	57.5
601.025	54.5
601.79	52.5
602.553	49.5
603.317	50.5
604.081	49.5
604.845	43.5
605.609	42.5
606.372	41.5
607.136	38.5
607.899	39.5
608.662	35.5
609.426	36.5
610.189	33.5
610.952	31.5
611.715	32.5
612.478	28.5
613.241	31.5
614.004	26.5
614.767	25.5
615.529	21.5
616.292	24.5
617.055	25.5
617.817	21.5
618.579	21.5
619.342	20.5
620.104	20.5
620.866	20.5
621.628	18.5
622.39	20.5
623.152	19.5
623.914	17.5
624.676	18.5
625.438	13.5
626.199	18.5
626.961	15.5
627.722	16.5
628.484	14.5
629.245	11.5
630.006	15.5
630.768	13.5
631.529	12.5
632.29	11.5
633.051	14.5
633.812	11.5
634.573	12.5
635.333	11.5
636.094	10.5
636.855	10.5
637.615	8.5
638.376	9.5
639.136	10.5
639.896	9.5
640.657	9.5
641.417	9.5
642.177	10.5
642.937	6.5
643.697	8.5
644.457	9.5
645.216	12.5
645.976	9.5
646.736	9.5
647.495	10.5
648.255	8.5
649.014	5.5
649.774	8.5
650.533	6.5
651.292	6.5
652.051	7.5
652.81	6.5
653.569	6.5
654.328	4.5
655.087	5.5
655.846	7.5
656.604	5.5
657.363	6.5
658.121	5.5
658.88	6.5
659.638	6.5
660.397	7.5
661.155	6.5
661.913	5.5
662.671	5.5
663.429	3.5
664.187	6.5
664.945	6.5
665.703	3.5
666.46	4.5
667.218	4.5
667.976	5.5
668.733	6.5
669.49	5.5
670.248	7.5
671.005	6.5
671.762	6.5
672.519	2.5
673.276	3.5
674.033	1.5
674.79	3.5
675.547	4.5
676.304	5.5
677.06	2.5
677.817	1.5
678.574	6.5
679.33	4.5
680.086	3.5
680.843	4.5
681.599	1.5
682.355	4.5
683.111	3.5
683.867	3.5
684.623	3.5
685.379	3.5
686.135	3.5
686.89	3.5
687.646	5.5
688.402	3.5
689.157	5.5
689.912	4.5
690.668	2.5
691.423	2.5
692.178	2.5
692.933	2.5
693.688	4.5
694.443	3.5
695.198	4.5
695.953	2.5
696.708	3.5
697.462	2.5
698.217	3.5
698.972	2.5
699.726	3.5
700.48	1.5
701.235	4.5
701.989	3.5
702.743	4.5
703.497	1.5
704.251	3.5
705.005	5.5
705.759	2.5
706.513	2.5
707.266	4.5
708.02	5.5
708.774	2.5
709.527	2.5
710.28	1.5
711.034	5.5
711.787	3.5
712.54	3.5
713.293	5.5
714.046	3.5
714.799	1.5
715.552	2.5
716.305	4.5
717.058	2.5
717.81	3.5
718.563	4.5
719.315	4.5
720.068	4.5
720.82	4.5
721.573	2.5
722.325	2.5
723.077	3.5
723.829	5.5
724.581	2.5
725.333	5.5
726.085	3.5
726.836	5.5
727.588	3.5
728.34	1.5
729.091	3.5
729.843	4.5
730.594	4.5
731.346	4.5
732.097	4.5
732.848	5.5
733.599	4.5
734.35	6.5
735.101	1.5
735.852	4.5
736.603	5.5
737.354	4.5
738.104	3.5
738.855	2.5
739.605	4.5
740.356	6.5
741.106	5.5
741.856	4.5
742.607	4.5
743.357	7.5
744.107	2.5
744.857	5.5
745.607	5.5
746.357	5.5
747.106	3.5
747.856	5.5
748.606	5.5
749.355	4.5
750.105	3.5
750.854	6.5
751.603	4.5
752.353	5.5
753.102	3.5
753.851	6.5
754.6	4.5
755.349	4.5
756.098	5.5
756.847	5.5
757.595	6.5
758.344	5.5
759.093	6.5
759.841	4.5
760.589	8.5
761.338	7.5
762.086	5.5
762.834	6.5
763.582	6.5
764.331	6.5
765.079	6.5
765.826	6.5
766.574	8.5
767.322	6.5
768.07	7.5
768.817	4.5
769.565	6.5
770.312	6.5
771.06	6.5
771.807	7.5
772.554	5.5
773.302	5.5
774.049	8.5
774.796	7.5
775.543	7.5
776.29	9.5
777.036	8.5
777.783	8.5
778.53	8.5
779.276	7.5
780.023	7.5
780.769	10.5
781.516	7.5
782.262	7.5
783.008	8.5
783.754	7.5
784.5	9.5
785.246	10.5
785.992	10.5
786.738	7.5
787.484	8.5
788.23	9.5
788.975	6.5
789.721	10.5
790.466	10.5
791.212	6.5
791.957	7.5
792.702	10.5
793.447	11.5
794.193	6.5
794.938	7.5
795.683	6.5
796.427	8.5
797.172	6.5
797.917	7.5
798.662	7.5
799.406	5.5
800.151	8.5
800.895	6.5
801.64	7.5
802.384	6.5
803.128	7.5
803.872	7.5
804.616	6.5
805.36	5.5
806.104	7.5
806.848	8.5
807.592	5.5
808.336	6.5
809.079	6.5
809.823	6.5
810.566	6.5
811.31	4.5
812.053	5.5
812.796	5.5
813.539	6.5
814.283	3.5
815.026	4.5
815.769	4.5
816.511	4.5
817.254	4.5
817.997	6.5
818.74	2.5
819.482	5.5
820.225	4.5
820.967	5.5
821.71	5.5
822.452	3.5
823.194	3.5
823.936	4.5
824.678	1.5
825.42	6.5
826.162	3.5
826.904	4.5
827.646	3.5
828.388	5.5
829.129	3.5
829.871	1.5
830.612	3.5
831.354	3.5
832.095	3.5
832.836	3.5
833.577	3.5
834.319	2.5
835.06	2.5
835.801	4.5
836.542	4.5
837.282	3.5
838.023	0.5
838.764	3.5
839.504	5.5
840.245	1.5
840.985	1.5
841.726	3.5
842.466	2.5
843.206	2.5
843.946	2.5
844.687	3.5
845.427	1.5
846.166	1.5
846.906	2.5
847.646	2.5
848.386	2.5
849.125	3.5
849.865	2.5
850.605	6.5
851.344	1.5
852.083	2.5
852.823	1.5
853.562	2.5
854.301	2.5
855.04	1.5
855.779	3.5
856.518	2.5
857.257	1.5
857.995	0.5
858.734	-0.5
859.473	3.5
860.211	1.5
860.95	2.5
861.688	3.5
862.426	1.5
863.165	-2.5
863.903	0.5
864.641	1.5
865.379	3.5
866.117	1.5
866.855	0.5
867.593	3.5
868.33	1.5
869.068	2.5
869.806	1.5
870.543	1.5
871.28	4.5
872.018	1.5
872.755	2.5
873.492	-1.5
874.229	2.5
874.967	1.5
875.703	-0.5
876.44	1.5
877.177	-0.5
877.914	1.5
878.651	0.5
879.387	1.5
880.124	0.5
880.86	0.5
881.597	1.5
882.333	3.5
883.069	2.5
883.806	2.5
884.542	0.5
885.278	-0.5
886.014	-0.5
886.749	0.5
887.485	0.5
888.221	-0.5
888.957	2.5
889.692	-0.5
890.428	1.5
891.163	0.5
891.899	1.5
892.634	0.5
893.369	1.5
894.104	-1.5
894.839	1.5
895.574	1.5
896.309	-0.5
897.044	1.5
897.779	1.5
898.514	-0.5
899.248	1.5
899.983	-0.5
900.717	1.5
901.452	-0.5
902.186	-1.5
902.92	-0.5
903.654	0.5
904.389	0.5
905.123	-0.5
905.857	0.5
906.59	1.5
907.324	-0.5
908.058	2.5
908.792	1.5
909.525	3.5
910.259	0.5
910.992	1.5
911.726	-1.5
912.459	-0.5
913.192	1.5
913.925	1.5
914.658	-0.5
915.391	-0.5
916.124	-0.5
916.857	1.5
917.59	1.5
918.323	0.5
919.055	1.5
919.788	-0.5
920.521	0.5
921.253	0.5
921.985	1.5
922.718	1.5
923.45	0.5
924.182	-0.5
924.914	-0.5
925.646	1.5
926.378	0.5
927.11	-0.5
927.841	-0.5
928.573	1.5
929.305	-0.5
930.036	0.5
930.768	-0.5
931.499	-1.5
932.23	0.5
932.962	-0.5
933.693	-0.5
934.424	0.5
935.155	-2.5
935.886	2.5
936.617	0.5
937.348	-2.5
938.078	0.5
938.809	-1.5
939.54	0.5
940.27	-1.5
941.001	1.5
941.731	-0.5
942.461	-0.5
943.191	-0.5
943.922	0.5
944.652	1.5
945.382	0.5
946.112	1.5
946.841	3.5
947.571	-1.5
948.301	-0.5
949.031	0.5
949.76	1.5
950.49	0.5
951.219	1.5
951.948	-0.5
952.678	-0.5
953.407	0.5
954.136	-1.5
954.865	1.5
955.594	-0.5
956.323	-1.5
957.052	0.5
957.78	-1.5
958.509	1.5
959.238	-0.5
959.966	0.5
960.695	0.5
961.423	1.5
962.151	-0.5
962.88	0.5
963.608	0.5
964.336	-0.5
965.064	-0.5
965.792	0.5
966.52	0.5
967.247	2.5
967.975	0.5
968.703	0.5
969.43	0.5
970.158	-0.5
970.885	1.5
971.613	-0.5
972.34	0.5
973.067	0.5
973.794	1.5
974.521	0.5
975.248	-0.5
975.975	3.5
976.702	0.5
977.429	-1.5
978.156	-0.5
978.882	1.5
979.609	-0.5
980.335	-0.5
981.062	1.5
981.788	-0.5
982.514	1.5
983.24	2.5
983.967	1.5
984.693	0.5
985.419	0.5
986.144	0.5
986.87	-0.5
987.596	-0.5
988.322	-0.5
989.047	-0.5
989.773	1.5
990.498	-2.5
991.224	0.5
991.949	0.5
992.674	1.5
993.399	1.5
994.124	-0.5
994.849	-0.5
995.574	-0.5
996.299	0.5
997.024	1.5
997.749	-0.5
998.473	0.5
999.198	1.5
999.922	1.5
1000.647	0.5
1001.371	3.5
1002.095	-0.5
1002.82	-0.5
1003.544	1.5
1004.268	2.5
1004.992	0.5
1005.716	2.5
1006.439	1.5
1007.163	3.5
1007.887	2.5
1008.611	2.5
1009.334	-1.5
1010.058	-0.5
1010.781	0.5
1011.504	-0.5
1012.228	0.5
1012.951	-2.5
1013.674	-1.5
1014.397	1.5
1015.12	-1.5
