节点500_285_QEPB04081__460__15-03-12-543.txt的数据

Date: Wed Nov 12 15:03:12 CST 2025
User: PC
Spectrometer: QEPB0408
触发模式: 0
积分时间 (秒): 1.000000E-2
Scans to average: 1
启用暗噪声校正: true
启用非线性校正: false
滑动平均宽度: 0
X轴模式: Wavelengths
Number of Pixels in Spectrum: 1044
>>>>>Begin Spectral Data<<<<<
220.843	1.88
221.644	0.88
222.444	0.88
223.244	1.88
224.045	4.88
224.845	0.88
225.645	3.88
226.445	0.88
227.245	1.88
228.045	1.88
228.845	3.88
229.645	-0.12
230.444	1.88
231.244	4.88
232.043	1.88
232.843	3.88
233.642	4.88
234.442	2.88
235.241	3.88
236.04	2.88
236.839	4.88
237.638	4.88
238.437	4.88
239.236	3.88
240.035	3.88
240.833	5.88
241.632	2.88
242.43	3.88
243.229	3.88
244.027	6.88
244.826	6.88
245.624	3.88
246.422	6.88
247.22	3.88
248.018	5.88
248.816	6.88
249.614	6.88
250.412	5.88
251.21	5.88
252.007	5.88
252.805	4.88
253.602	8.88
254.4	6.88
255.197	8.88
255.994	6.88
256.791	4.88
257.589	9.88
258.386	10.88
259.183	9.88
259.979	8.88
260.776	9.88
261.573	10.88
262.37	11.88
263.166	8.88
263.963	10.88
264.759	11.88
265.556	14.88
266.352	9.88
267.148	13.88
267.944	11.88
268.74	12.88
269.536	13.88
270.332	13.88
271.128	17.88
271.924	14.88
272.719	15.88
273.515	15.88
274.311	16.88
275.106	15.88
275.901	16.88
276.697	15.88
277.492	18.88
278.287	20.88
279.082	19.88
279.877	17.88
280.672	18.88
281.467	17.88
282.262	17.88
283.056	18.88
283.851	17.88
284.646	18.88
285.44	16.88
286.234	15.88
287.029	15.88
287.823	18.88
288.617	20.88
289.411	19.88
290.205	17.88
290.999	18.88
291.793	17.88
292.587	18.88
293.381	17.88
294.174	19.88
294.968	16.88
295.761	14.88
296.555	10.88
297.348	15.88
298.141	13.88
298.935	16.88
299.728	14.88
300.521	12.88
301.314	13.88
302.107	13.88
302.899	12.88
303.692	12.88
304.485	13.88
305.277	13.88
306.07	12.88
306.862	14.88
307.655	12.88
308.447	11.88
309.239	12.88
310.031	9.88
310.823	11.88
311.615	11.88
312.407	8.88
313.199	11.88
313.991	8.88
314.783	11.88
315.574	7.88
316.366	8.88
317.157	8.88
317.949	7.88
318.74	7.88
319.531	5.88
320.322	7.88
321.113	5.88
321.904	5.88
322.695	8.88
323.486	6.88
324.277	8.88
325.068	7.88
325.858	7.88
326.649	6.88
327.439	6.88
328.23	6.88
329.02	5.88
329.81	5.88
330.6	6.88
331.391	7.88
332.181	7.88
332.971	6.88
333.76	7.88
334.55	4.88
335.34	8.88
336.13	6.88
336.919	5.88
337.709	6.88
338.498	4.88
339.287	5.88
340.077	5.88
340.866	7.88
341.655	4.88
342.444	5.88
343.233	4.88
344.022	5.88
344.811	5.88
345.6	6.88
346.388	6.88
347.177	6.88
347.965	8.88
348.754	4.88
349.542	6.88
350.33	8.88
351.119	5.88
351.907	5.88
352.695	3.88
353.483	5.88
354.271	7.88
355.059	4.88
355.846	4.88
356.634	5.88
357.422	7.88
358.209	5.88
358.997	5.88
359.784	5.88
360.571	3.88
361.359	4.88
362.146	6.88
362.933	4.88
363.72	6.88
364.507	5.88
365.294	6.88
366.081	5.88
366.867	4.88
367.654	4.88
368.44	4.88
369.227	3.88
370.013	4.88
370.8	4.88
371.586	8.88
372.372	3.88
373.158	3.88
373.944	4.88
374.73	7.88
375.516	4.88
376.302	4.88
377.088	4.88
377.873	6.88
378.659	4.88
379.445	4.88
380.23	5.88
381.015	2.88
381.801	5.88
382.586	4.88
383.371	6.88
384.156	5.88
384.941	3.88
385.726	4.88
386.511	3.88
387.296	6.88
388.08	3.88
388.865	4.88
389.649	4.88
390.434	2.88
391.218	8.88
392.003	4.88
392.787	6.88
393.571	4.88
394.355	6.88
395.139	5.88
395.923	4.88
396.707	6.88
397.491	6.88
398.274	5.88
399.058	7.88
399.842	4.88
400.625	5.88
401.408	5.88
402.192	6.88
402.975	6.88
403.758	5.88
404.541	6.88
405.324	8.88
406.107	8.88
406.89	8.88
407.673	8.88
408.456	6.88
409.238	7.88
410.021	8.88
410.803	8.88
411.586	6.88
412.368	9.88
413.151	9.88
413.933	8.88
414.715	10.88
415.497	8.88
416.279	8.88
417.061	10.88
417.843	9.88
418.624	9.88
419.406	8.88
420.188	7.88
420.969	10.88
421.751	11.88
422.532	11.88
423.313	10.88
424.095	9.88
424.876	11.88
425.657	9.88
426.438	11.88
427.219	12.88
428	13.88
428.78	13.88
429.561	11.88
430.342	13.88
431.122	12.88
431.903	17.88
432.683	13.88
433.464	16.88
434.244	16.88
435.024	15.88
435.804	18.88
436.584	17.88
437.364	17.88
438.144	19.88
438.924	20.88
439.704	20.88
440.483	22.88
441.263	24.88
442.042	23.88
442.822	27.88
443.601	26.88
444.38	30.88
445.16	31.88
445.939	33.88
446.718	38.88
447.497	39.88
448.276	42.88
449.054	43.88
449.833	47.88
450.612	52.88
451.391	55.88
452.169	64.88
452.948	69.88
453.726	75.88
454.504	84.88
455.282	98.88
456.061	102.88
456.839	112.88
457.617	132.88
458.395	138.88
459.172	156.88
459.95	171.88
460.728	187.88
461.506	213.88
462.283	248.88
463.061	262.88
463.838	294.88
464.615	332.88
465.393	374.88
466.17	414.88
466.947	459.88
467.724	512.88
468.501	563.88
469.278	632.88
470.055	706.88
470.831	768.88
471.608	863.88
472.385	952.88
473.161	1069.88
473.938	1167.88
474.714	1300.88
475.49	1443.88
476.266	1583.88
477.043	1760.88
477.819	1926.88
478.595	2140.88
479.371	2335.88
480.146	2594.88
480.922	2870.88
481.698	3110.88
482.473	3440.88
483.249	3807.88
484.024	4141.88
484.8	4556.88
485.575	4985.88
486.35	5494.88
487.126	6003.88
487.901	6581.88
488.676	7204.88
489.451	7842.88
490.225	8602.88
491	9389.88
491.775	10247.88
492.55	11109.88
493.324	12045.88
494.099	12998.88
494.873	13950.88
495.647	15112.88
496.422	16164.88
497.196	17296.88
497.97	18516.88
498.744	19650.88
499.518	20800.88
500.292	21928.88
501.066	22988.88
501.839	23881.88
502.613	24810.88
503.387	25626.88
504.16	26273.88
504.934	26621.88
505.707	26874.88
506.48	27039.88
507.253	26949.88
508.027	26797.88
508.8	26490.88
509.573	26180.88
510.346	25637.88
511.118	24872.88
511.891	24098.88
512.664	23356.88
513.437	22437.88
514.209	21606.88
514.982	20731.88
515.754	19860.88
516.526	19019.88
517.298	18137.88
518.071	17381.88
518.843	16706.88
519.615	16050.88
520.387	15452.88
521.159	14806.88
521.93	14251.88
522.702	13696.88
523.474	13136.88
524.245	12547.88
525.017	11975.88
525.788	11560.88
526.56	11009.88
527.331	10542.88
528.102	10045.88
528.873	9580.88
529.644	9128.88
530.415	8678.88
531.186	8259.88
531.957	7835.88
532.728	7422.88
533.498	7069.88
534.269	6660.88
535.039	6304.88
535.81	5994.88
536.58	5638.88
537.351	5319.88
538.121	5011.88
538.891	4738.88
539.661	4486.88
540.431	4213.88
541.201	4000.88
541.971	3798.88
542.741	3618.88
543.51	3436.88
544.28	3260.88
545.05	3126.88
545.819	2950.88
546.588	2806.88
547.358	2665.88
548.127	2507.88
548.896	2423.88
549.665	2257.88
550.434	2144.88
551.203	2049.88
551.972	1919.88
552.741	1802.88
553.51	1744.88
554.278	1624.88
555.047	1553.88
555.815	1457.88
556.584	1385.88
557.352	1297.88
558.121	1216.88
558.889	1157.88
559.657	1098.88
560.425	1031.88
561.193	969.88
561.961	909.88
562.729	877.88
563.496	822.88
564.264	778.88
565.032	735.88
565.799	692.88
566.567	650.88
567.334	617.88
568.101	585.88
568.869	552.88
569.636	517.88
570.403	495.88
571.17	461.88
571.937	436.88
572.704	407.88
573.471	392.88
574.237	358.88
575.004	341.88
575.771	327.88
576.537	301.88
577.303	290.88
578.07	268.88
578.836	256.88
579.602	247.88
580.368	225.88
581.134	220.88
581.9	205.88
582.666	198.88
583.432	186.88
584.198	175.88
584.964	167.88
585.729	158.88
586.495	147.88
587.26	140.88
588.025	133.88
588.791	126.88
589.556	119.88
590.321	114.88
591.086	106.88
591.851	103.88
592.616	94.88
593.381	87.88
594.146	88.88
594.911	80.88
595.675	78.88
596.44	72.88
597.204	71.88
597.969	65.88
598.733	68.88
599.497	64.88
600.261	62.88
601.025	55.88
601.79	58.88
602.553	52.88
603.317	48.88
604.081	48.88
604.845	47.88
605.609	42.88
606.372	43.88
607.136	41.88
607.899	37.88
608.662	39.88
609.426	37.88
610.189	34.88
610.952	36.88
611.715	32.88
612.478	34.88
613.241	27.88
614.004	24.88
614.767	27.88
615.529	24.88
616.292	23.88
617.055	21.88
617.817	25.88
618.579	22.88
619.342	24.88
620.104	17.88
620.866	20.88
621.628	21.88
622.39	20.88
623.152	20.88
623.914	19.88
624.676	17.88
625.438	15.88
626.199	13.88
626.961	16.88
627.722	14.88
628.484	15.88
629.245	11.88
630.006	15.88
630.768	14.88
631.529	15.88
632.29	12.88
633.051	13.88
633.812	11.88
634.573	11.88
635.333	10.88
636.094	12.88
636.855	5.88
637.615	9.88
638.376	9.88
639.136	9.88
639.896	8.88
640.657	8.88
641.417	8.88
642.177	7.88
642.937	8.88
643.697	8.88
644.457	9.88
645.216	9.88
645.976	7.88
646.736	9.88
647.495	7.88
648.255	9.88
649.014	5.88
649.774	5.88
650.533	7.88
651.292	6.88
652.051	9.88
652.81	6.88
653.569	7.88
654.328	6.88
655.087	6.88
655.846	6.88
656.604	3.88
657.363	3.88
658.121	2.88
658.88	7.88
659.638	5.88
660.397	5.88
661.155	3.88
661.913	4.88
662.671	5.88
663.429	5.88
664.187	5.88
664.945	5.88
665.703	2.88
666.46	4.88
667.218	4.88
667.976	4.88
668.733	4.88
669.49	4.88
670.248	4.88
671.005	5.88
671.762	7.88
672.519	5.88
673.276	2.88
674.033	4.88
674.79	4.88
675.547	2.88
676.304	1.88
677.06	3.88
677.817	3.88
678.574	1.88
679.33	5.88
680.086	2.88
680.843	2.88
681.599	3.88
682.355	4.88
683.111	3.88
683.867	3.88
684.623	5.88
685.379	2.88
686.135	4.88
686.89	3.88
687.646	2.88
688.402	4.88
689.157	3.88
689.912	3.88
690.668	4.88
691.423	5.88
692.178	4.88
692.933	4.88
693.688	5.88
694.443	1.88
695.198	4.88
695.953	1.88
696.708	4.88
697.462	1.88
698.217	2.88
698.972	2.88
699.726	0.88
700.48	5.88
701.235	4.88
701.989	4.88
702.743	4.88
703.497	2.88
704.251	2.88
705.005	1.88
705.759	3.88
706.513	1.88
707.266	0.88
708.02	3.88
708.774	3.88
709.527	1.88
710.28	1.88
711.034	4.88
711.787	2.88
712.54	2.88
713.293	2.88
714.046	4.88
714.799	3.88
715.552	2.88
716.305	3.88
717.058	3.88
717.81	4.88
718.563	3.88
719.315	5.88
720.068	3.88
720.82	3.88
721.573	4.88
722.325	2.88
723.077	1.88
723.829	4.88
724.581	1.88
725.333	5.88
726.085	2.88
726.836	0.88
727.588	3.88
728.34	3.88
729.091	4.88
729.843	4.88
730.594	4.88
731.346	5.88
732.097	1.88
732.848	5.88
733.599	4.88
734.35	3.88
735.101	4.88
735.852	3.88
736.603	4.88
737.354	2.88
738.104	5.88
738.855	2.88
739.605	5.88
740.356	4.88
741.106	4.88
741.856	5.88
742.607	0.88
743.357	5.88
744.107	4.88
744.857	6.88
745.607	4.88
746.357	5.88
747.106	4.88
747.856	5.88
748.606	4.88
749.355	4.88
750.105	3.88
750.854	5.88
751.603	4.88
752.353	4.88
753.102	5.88
753.851	3.88
754.6	5.88
755.349	5.88
756.098	5.88
756.847	4.88
757.595	7.88
758.344	5.88
759.093	3.88
759.841	4.88
760.589	3.88
761.338	7.88
762.086	6.88
762.834	5.88
763.582	6.88
764.331	5.88
765.079	7.88
765.826	6.88
766.574	9.88
767.322	9.88
768.07	5.88
768.817	8.88
769.565	6.88
770.312	7.88
771.06	4.88
771.807	6.88
772.554	6.88
773.302	5.88
774.049	8.88
774.796	8.88
775.543	7.88
776.29	4.88
777.036	9.88
777.783	8.88
778.53	8.88
779.276	9.88
780.023	8.88
780.769	8.88
781.516	8.88
782.262	6.88
783.008	8.88
783.754	10.88
784.5	7.88
785.246	9.88
785.992	10.88
786.738	9.88
787.484	7.88
788.23	11.88
788.975	8.88
789.721	8.88
790.466	6.88
791.212	7.88
791.957	7.88
792.702	7.88
793.447	9.88
794.193	7.88
794.938	7.88
795.683	8.88
796.427	7.88
797.172	5.88
797.917	7.88
798.662	8.88
799.406	4.88
800.151	6.88
800.895	6.88
801.64	7.88
802.384	9.88
803.128	8.88
803.872	8.88
804.616	5.88
805.36	6.88
806.104	4.88
806.848	8.88
807.592	8.88
808.336	3.88
809.079	5.88
809.823	5.88
810.566	7.88
811.31	8.88
812.053	6.88
812.796	3.88
813.539	3.88
814.283	4.88
815.026	4.88
815.769	4.88
816.511	5.88
817.254	4.88
817.997	6.88
818.74	4.88
819.482	3.88
820.225	2.88
820.967	5.88
821.71	4.88
822.452	4.88
823.194	4.88
823.936	3.88
824.678	3.88
825.42	6.88
826.162	4.88
826.904	3.88
827.646	2.88
828.388	3.88
829.129	4.88
829.871	3.88
830.612	1.88
831.354	1.88
832.095	4.88
832.836	3.88
833.577	5.88
834.319	2.88
835.06	1.88
835.801	3.88
836.542	1.88
837.282	2.88
838.023	2.88
838.764	6.88
839.504	1.88
840.245	2.88
840.985	2.88
841.726	3.88
842.466	3.88
843.206	4.88
843.946	4.88
844.687	4.88
845.427	0.88
846.166	2.88
846.906	2.88
847.646	5.88
848.386	3.88
849.125	3.88
849.865	3.88
850.605	1.88
851.344	4.88
852.083	4.88
852.823	2.88
853.562	2.88
854.301	-0.12
855.04	0.88
855.779	1.88
856.518	1.88
857.257	2.88
857.995	2.88
858.734	1.88
859.473	1.88
860.211	1.88
860.95	-0.12
861.688	1.88
862.426	1.88
863.165	1.88
863.903	1.88
864.641	1.88
865.379	3.88
866.117	1.88
866.855	2.88
867.593	1.88
868.33	0.88
869.068	1.88
869.806	0.88
870.543	0.88
871.28	2.88
872.018	-0.12
872.755	1.88
873.492	1.88
874.229	3.88
874.967	1.88
875.703	-0.12
876.44	-0.12
877.177	-0.12
877.914	0.88
878.651	0.88
879.387	1.88
880.124	0.88
880.86	-0.12
881.597	0.88
882.333	0.88
883.069	0.88
883.806	0.88
884.542	-1.12
885.278	0.88
886.014	1.88
886.749	-0.12
887.485	-0.12
888.221	2.88
888.957	0.88
889.692	-0.12
890.428	1.88
891.163	-0.12
891.899	2.88
892.634	-0.12
893.369	-0.12
894.104	0.88
894.839	0.88
895.574	-0.12
896.309	-0.12
897.044	-1.12
897.779	1.88
898.514	0.88
899.248	-1.12
899.983	-0.12
900.717	0.88
901.452	-2.12
902.186	1.88
902.92	0.88
903.654	-0.12
904.389	-0.12
905.123	-0.12
905.857	1.88
906.59	-1.12
907.324	-0.12
908.058	-2.12
908.792	0.88
909.525	-1.12
910.259	0.88
910.992	-0.12
911.726	0.88
912.459	-0.12
913.192	1.88
913.925	0.88
914.658	-0.12
915.391	0.88
916.124	0.88
916.857	-0.12
917.59	1.88
918.323	0.88
919.055	2.88
919.788	0.88
920.521	0.88
921.253	0.88
921.985	-1.12
922.718	-0.12
923.45	1.88
924.182	-0.12
924.914	1.88
925.646	0.88
926.378	0.88
927.11	0.88
927.841	0.88
928.573	0.88
929.305	1.88
930.036	-0.12
930.768	-0.12
931.499	2.88
932.23	-1.12
932.962	0.88
933.693	1.88
934.424	-2.12
935.155	0.88
935.886	-1.12
936.617	-0.12
937.348	-0.12
938.078	-2.12
938.809	0.88
939.54	-0.12
940.27	1.88
941.001	-2.12
941.731	-1.12
942.461	1.88
943.191	-2.12
943.922	-1.12
944.652	0.88
945.382	1.88
946.112	0.88
946.841	1.88
947.571	-0.12
948.301	-0.12
949.031	-2.12
949.76	-1.12
950.49	0.88
951.219	0.88
951.948	-0.12
952.678	0.88
953.407	-0.12
954.136	-0.12
954.865	0.88
955.594	-2.12
956.323	0.88
957.052	0.88
957.78	-0.12
958.509	-0.12
959.238	-0.12
959.966	0.88
960.695	-0.12
961.423	0.88
962.151	-0.12
962.88	1.88
963.608	1.88
964.336	-0.12
965.064	-0.12
965.792	-0.12
966.52	0.88
967.247	-0.12
967.975	1.88
968.703	-0.12
969.43	-2.12
970.158	-2.12
970.885	-0.12
971.613	0.88
972.34	-0.12
973.067	-0.12
973.794	1.88
974.521	0.88
975.248	0.88
975.975	-0.12
976.702	1.88
977.429	-2.12
978.156	-0.12
978.882	0.88
979.609	-1.12
980.335	-0.12
981.062	1.88
981.788	-1.12
982.514	0.88
983.24	2.88
983.967	-0.12
984.693	1.88
985.419	-0.12
986.144	-1.12
986.87	1.88
987.596	2.88
988.322	-0.12
989.047	1.88
989.773	0.88
990.498	1.88
991.224	-1.12
991.949	-0.12
992.674	-0.12
993.399	-1.12
994.124	0.88
994.849	0.88
995.574	-0.12
996.299	-0.12
997.024	-0.12
997.749	-0.12
998.473	0.88
999.198	0.88
999.922	0.88
1000.647	-1.12
1001.371	3.88
1002.095	-0.12
1002.82	-2.12
1003.544	-3.12
1004.268	-0.12
1004.992	0.88
1005.716	-0.12
1006.439	1.88
1007.163	3.88
1007.887	1.88
1008.611	1.88
1009.334	-1.12
1010.058	-0.12
1010.781	0.88
1011.504	0.88
1012.228	-0.12
1012.951	0.88
1013.674	0.88
1014.397	-2.12
1015.12	1.88
