节点500_285_QEPB04081__700__15-07-11-846.txt的数据

Date: Wed Nov 12 15:07:11 CST 2025
User: PC
Spectrometer: QEPB0408
触发模式: 0
积分时间 (秒): 1.000000E-2
Scans to average: 1
启用暗噪声校正: true
启用非线性校正: false
滑动平均宽度: 0
X轴模式: Wavelengths
Number of Pixels in Spectrum: 1044
>>>>>Begin Spectral Data<<<<<
220.843	1.75
221.644	0.75
222.444	0.75
223.244	1.75
224.045	1.75
224.845	1.75
225.645	2.75
226.445	0.75
227.245	0.75
228.045	1.75
228.845	3.75
229.645	3.75
230.444	3.75
231.244	1.75
232.043	1.75
232.843	4.75
233.642	3.75
234.442	3.75
235.241	3.75
236.04	1.75
236.839	1.75
237.638	2.75
238.437	1.75
239.236	3.75
240.035	4.75
240.833	6.75
241.632	2.75
242.43	2.75
243.229	3.75
244.027	4.75
244.826	4.75
245.624	5.75
246.422	3.75
247.22	6.75
248.018	6.75
248.816	5.75
249.614	6.75
250.412	7.75
251.21	3.75
252.007	8.75
252.805	8.75
253.602	6.75
254.4	7.75
255.197	7.75
255.994	6.75
256.791	9.75
257.589	7.75
258.386	7.75
259.183	8.75
259.979	8.75
260.776	7.75
261.573	12.75
262.37	6.75
263.166	9.75
263.963	9.75
264.759	8.75
265.556	10.75
266.352	9.75
267.148	11.75
267.944	7.75
268.74	12.75
269.536	10.75
270.332	14.75
271.128	12.75
271.924	11.75
272.719	15.75
273.515	14.75
274.311	14.75
275.106	15.75
275.901	13.75
276.697	15.75
277.492	15.75
278.287	16.75
279.082	16.75
279.877	14.75
280.672	15.75
281.467	16.75
282.262	16.75
283.056	17.75
283.851	18.75
284.646	17.75
285.44	18.75
286.234	17.75
287.029	16.75
287.823	16.75
288.617	15.75
289.411	16.75
290.205	15.75
290.999	17.75
291.793	17.75
292.587	16.75
293.381	17.75
294.174	15.75
294.968	13.75
295.761	13.75
296.555	16.75
297.348	15.75
298.141	16.75
298.935	16.75
299.728	11.75
300.521	12.75
301.314	12.75
302.107	12.75
302.899	13.75
303.692	9.75
304.485	12.75
305.277	12.75
306.07	11.75
306.862	12.75
307.655	9.75
308.447	11.75
309.239	11.75
310.031	10.75
310.823	8.75
311.615	7.75
312.407	10.75
313.199	10.75
313.991	9.75
314.783	9.75
315.574	8.75
316.366	9.75
317.157	8.75
317.949	8.75
318.74	6.75
319.531	7.75
320.322	6.75
321.113	7.75
321.904	8.75
322.695	3.75
323.486	8.75
324.277	7.75
325.068	8.75
325.858	6.75
326.649	5.75
327.439	7.75
328.23	6.75
329.02	8.75
329.81	4.75
330.6	8.75
331.391	7.75
332.181	5.75
332.971	8.75
333.76	3.75
334.55	6.75
335.34	4.75
336.13	6.75
336.919	6.75
337.709	5.75
338.498	6.75
339.287	5.75
340.077	5.75
340.866	6.75
341.655	7.75
342.444	6.75
343.233	4.75
344.022	6.75
344.811	5.75
345.6	3.75
346.388	5.75
347.177	6.75
347.965	6.75
348.754	2.75
349.542	6.75
350.33	4.75
351.119	5.75
351.907	6.75
352.695	5.75
353.483	5.75
354.271	4.75
355.059	6.75
355.846	7.75
356.634	3.75
357.422	6.75
358.209	3.75
358.997	6.75
359.784	3.75
360.571	6.75
361.359	6.75
362.146	4.75
362.933	5.75
363.72	4.75
364.507	6.75
365.294	6.75
366.081	4.75
366.867	5.75
367.654	2.75
368.44	4.75
369.227	4.75
370.013	3.75
370.8	4.75
371.586	2.75
372.372	4.75
373.158	4.75
373.944	5.75
374.73	6.75
375.516	6.75
376.302	5.75
377.088	3.75
377.873	3.75
378.659	3.75
379.445	6.75
380.23	5.75
381.015	4.75
381.801	5.75
382.586	3.75
383.371	2.75
384.156	5.75
384.941	3.75
385.726	6.75
386.511	5.75
387.296	5.75
388.08	5.75
388.865	5.75
389.649	5.75
390.434	5.75
391.218	5.75
392.003	6.75
392.787	5.75
393.571	3.75
394.355	4.75
395.139	7.75
395.923	8.75
396.707	6.75
397.491	5.75
398.274	7.75
399.058	6.75
399.842	6.75
400.625	6.75
401.408	5.75
402.192	6.75
402.975	6.75
403.758	5.75
404.541	5.75
405.324	9.75
406.107	7.75
406.89	7.75
407.673	8.75
408.456	7.75
409.238	8.75
410.021	4.75
410.803	8.75
411.586	8.75
412.368	6.75
413.151	7.75
413.933	6.75
414.715	10.75
415.497	7.75
416.279	10.75
417.061	8.75
417.843	7.75
418.624	7.75
419.406	10.75
420.188	10.75
420.969	8.75
421.751	10.75
422.532	9.75
423.313	11.75
424.095	9.75
424.876	11.75
425.657	10.75
426.438	8.75
427.219	12.75
428	13.75
428.78	10.75
429.561	13.75
430.342	12.75
431.122	13.75
431.903	14.75
432.683	15.75
433.464	13.75
434.244	16.75
435.024	16.75
435.804	14.75
436.584	18.75
437.364	15.75
438.144	18.75
438.924	20.75
439.704	20.75
440.483	21.75
441.263	23.75
442.042	25.75
442.822	27.75
443.601	27.75
444.38	29.75
445.16	31.75
445.939	36.75
446.718	36.75
447.497	42.75
448.276	41.75
449.054	48.75
449.833	49.75
450.612	57.75
451.391	58.75
452.169	69.75
452.948	72.75
453.726	80.75
454.504	90.75
455.282	101.75
456.061	103.75
456.839	118.75
457.617	135.75
458.395	148.75
459.172	165.75
459.95	182.75
460.728	208.75
461.506	227.75
462.283	256.75
463.061	287.75
463.838	322.75
464.615	351.75
465.393	385.75
466.17	431.75
466.947	479.75
467.724	519.75
468.501	593.75
469.278	647.75
470.055	728.75
470.831	809.75
471.608	894.75
472.385	988.75
473.161	1085.75
473.938	1214.75
474.714	1328.75
475.49	1457.75
476.266	1614.75
477.043	1760.75
477.819	1933.75
478.595	2135.75
479.371	2331.75
480.146	2557.75
480.922	2792.75
481.698	3066.75
482.473	3369.75
483.249	3661.75
484.024	3978.75
484.8	4385.75
485.575	4767.75
486.35	5231.75
487.126	5675.75
487.901	6203.75
488.676	6742.75
489.451	7349.75
490.225	7972.75
491	8696.75
491.775	9423.75
492.55	10267.75
493.324	11065.75
494.099	11876.75
494.873	12736.75
495.647	13731.75
496.422	14692.75
497.196	15747.75
497.97	16810.75
498.744	17832.75
499.518	18910.75
500.292	19939.75
501.066	20970.75
501.839	21890.75
502.613	22802.75
503.387	23629.75
504.16	24376.75
504.934	24795.75
505.707	25129.75
506.48	25332.75
507.253	25486.75
508.027	25451.75
508.8	25405.75
509.573	25185.75
510.346	24777.75
511.118	24219.75
511.891	23641.75
512.664	22981.75
513.437	22331.75
514.209	21503.75
514.982	20661.75
515.754	19854.75
516.526	19024.75
517.298	18261.75
518.071	17485.75
518.843	16857.75
519.615	16211.75
520.387	15565.75
521.159	14949.75
521.93	14368.75
522.702	13791.75
523.474	13233.75
524.245	12640.75
525.017	12133.75
525.788	11699.75
526.56	11202.75
527.331	10685.75
528.102	10222.75
528.873	9764.75
529.644	9314.75
530.415	8879.75
531.186	8482.75
531.957	8037.75
532.728	7647.75
533.498	7292.75
534.269	6896.75
535.039	6481.75
535.81	6175.75
536.58	5842.75
537.351	5501.75
538.121	5178.75
538.891	4920.75
539.661	4680.75
540.431	4375.75
541.201	4155.75
541.971	3929.75
542.741	3735.75
543.51	3543.75
544.28	3375.75
545.05	3218.75
545.819	3055.75
546.588	2902.75
547.358	2768.75
548.127	2627.75
548.896	2498.75
549.665	2369.75
550.434	2238.75
551.203	2132.75
551.972	2023.75
552.741	1901.75
553.51	1810.75
554.278	1707.75
555.047	1618.75
555.815	1516.75
556.584	1445.75
557.352	1364.75
558.121	1286.75
558.889	1213.75
559.657	1139.75
560.425	1083.75
561.193	1027.75
561.961	956.75
562.729	918.75
563.496	862.75
564.264	822.75
565.032	782.75
565.799	728.75
566.567	689.75
567.334	651.75
568.101	613.75
568.869	590.75
569.636	548.75
570.403	506.75
571.17	481.75
571.937	451.75
572.704	432.75
573.471	404.75
574.237	396.75
575.004	362.75
575.771	338.75
576.537	331.75
577.303	306.75
578.07	291.75
578.836	277.75
579.602	255.75
580.368	243.75
581.134	225.75
581.9	212.75
582.666	205.75
583.432	194.75
584.198	184.75
584.964	173.75
585.729	161.75
586.495	157.75
587.26	152.75
588.025	139.75
588.791	133.75
589.556	127.75
590.321	116.75
591.086	112.75
591.851	108.75
592.616	102.75
593.381	95.75
594.146	90.75
594.911	89.75
595.675	83.75
596.44	83.75
597.204	78.75
597.969	78.75
598.733	72.75
599.497	64.75
600.261	61.75
601.025	61.75
601.79	58.75
602.553	49.75
603.317	52.75
604.081	51.75
604.845	46.75
605.609	49.75
606.372	46.75
607.136	43.75
607.899	38.75
608.662	40.75
609.426	37.75
610.189	33.75
610.952	34.75
611.715	32.75
612.478	32.75
613.241	29.75
614.004	29.75
614.767	27.75
615.529	27.75
616.292	26.75
617.055	24.75
617.817	27.75
618.579	22.75
619.342	23.75
620.104	24.75
620.866	23.75
621.628	20.75
622.39	20.75
623.152	19.75
623.914	21.75
624.676	16.75
625.438	17.75
626.199	16.75
626.961	17.75
627.722	16.75
628.484	12.75
629.245	14.75
630.006	16.75
630.768	13.75
631.529	13.75
632.29	13.75
633.051	12.75
633.812	8.75
634.573	10.75
635.333	10.75
636.094	11.75
636.855	9.75
637.615	9.75
638.376	9.75
639.136	9.75
639.896	9.75
640.657	8.75
641.417	9.75
642.177	8.75
642.937	8.75
643.697	8.75
644.457	6.75
645.216	4.75
645.976	6.75
646.736	5.75
647.495	6.75
648.255	9.75
649.014	7.75
649.774	7.75
650.533	6.75
651.292	6.75
652.051	5.75
652.81	6.75
653.569	6.75
654.328	5.75
655.087	4.75
655.846	8.75
656.604	5.75
657.363	4.75
658.121	6.75
658.88	7.75
659.638	4.75
660.397	4.75
661.155	6.75
661.913	5.75
662.671	7.75
663.429	4.75
664.187	7.75
664.945	2.75
665.703	3.75
666.46	5.75
667.218	4.75
667.976	6.75
668.733	5.75
669.49	4.75
670.248	4.75
671.005	4.75
671.762	6.75
672.519	3.75
673.276	3.75
674.033	5.75
674.79	4.75
675.547	3.75
676.304	1.75
677.06	1.75
677.817	3.75
678.574	2.75
679.33	3.75
680.086	2.75
680.843	6.75
681.599	3.75
682.355	3.75
683.111	3.75
683.867	1.75
684.623	5.75
685.379	4.75
686.135	2.75
686.89	2.75
687.646	3.75
688.402	1.75
689.157	2.75
689.912	2.75
690.668	3.75
691.423	3.75
692.178	3.75
692.933	2.75
693.688	6.75
694.443	3.75
695.198	1.75
695.953	1.75
696.708	2.75
697.462	3.75
698.217	6.75
698.972	3.75
699.726	2.75
700.48	3.75
701.235	3.75
701.989	3.75
702.743	2.75
703.497	3.75
704.251	3.75
705.005	1.75
705.759	4.75
706.513	4.75
707.266	3.75
708.02	3.75
708.774	-0.25
709.527	3.75
710.28	2.75
711.034	4.75
711.787	2.75
712.54	3.75
713.293	3.75
714.046	3.75
714.799	5.75
715.552	3.75
716.305	3.75
717.058	3.75
717.81	3.75
718.563	2.75
719.315	1.75
720.068	3.75
720.82	4.75
721.573	3.75
722.325	1.75
723.077	3.75
723.829	1.75
724.581	1.75
725.333	2.75
726.085	1.75
726.836	4.75
727.588	3.75
728.34	4.75
729.091	3.75
729.843	2.75
730.594	4.75
731.346	4.75
732.097	2.75
732.848	1.75
733.599	3.75
734.35	5.75
735.101	3.75
735.852	4.75
736.603	5.75
737.354	3.75
738.104	4.75
738.855	4.75
739.605	4.75
740.356	3.75
741.106	5.75
741.856	4.75
742.607	7.75
743.357	3.75
744.107	4.75
744.857	5.75
745.607	4.75
746.357	2.75
747.106	7.75
747.856	4.75
748.606	5.75
749.355	1.75
750.105	5.75
750.854	4.75
751.603	5.75
752.353	4.75
753.102	4.75
753.851	6.75
754.6	5.75
755.349	6.75
756.098	5.75
756.847	6.75
757.595	4.75
758.344	5.75
759.093	4.75
759.841	2.75
760.589	5.75
761.338	4.75
762.086	5.75
762.834	5.75
763.582	4.75
764.331	8.75
765.079	3.75
765.826	5.75
766.574	8.75
767.322	5.75
768.07	6.75
768.817	4.75
769.565	5.75
770.312	6.75
771.06	6.75
771.807	5.75
772.554	6.75
773.302	8.75
774.049	7.75
774.796	6.75
775.543	6.75
776.29	7.75
777.036	9.75
777.783	9.75
778.53	6.75
779.276	8.75
780.023	9.75
780.769	7.75
781.516	8.75
782.262	8.75
783.008	8.75
783.754	6.75
784.5	8.75
785.246	7.75
785.992	9.75
786.738	7.75
787.484	7.75
788.23	9.75
788.975	8.75
789.721	8.75
790.466	8.75
791.212	8.75
791.957	6.75
792.702	7.75
793.447	6.75
794.193	8.75
794.938	7.75
795.683	7.75
796.427	7.75
797.172	4.75
797.917	7.75
798.662	5.75
799.406	6.75
800.151	5.75
800.895	5.75
801.64	8.75
802.384	7.75
803.128	5.75
803.872	6.75
804.616	7.75
805.36	8.75
806.104	7.75
806.848	6.75
807.592	5.75
808.336	5.75
809.079	4.75
809.823	3.75
810.566	4.75
811.31	3.75
812.053	6.75
812.796	5.75
813.539	6.75
814.283	4.75
815.026	4.75
815.769	5.75
816.511	3.75
817.254	1.75
817.997	5.75
818.74	7.75
819.482	4.75
820.225	1.75
820.967	4.75
821.71	3.75
822.452	4.75
823.194	5.75
823.936	4.75
824.678	3.75
825.42	3.75
826.162	3.75
826.904	2.75
827.646	3.75
828.388	3.75
829.129	1.75
829.871	5.75
830.612	1.75
831.354	2.75
832.095	2.75
832.836	1.75
833.577	2.75
834.319	1.75
835.06	5.75
835.801	2.75
836.542	4.75
837.282	1.75
838.023	3.75
838.764	5.75
839.504	4.75
840.245	2.75
840.985	2.75
841.726	3.75
842.466	4.75
843.206	3.75
843.946	4.75
844.687	2.75
845.427	4.75
846.166	3.75
846.906	3.75
847.646	3.75
848.386	-0.25
849.125	3.75
849.865	0.75
850.605	4.75
851.344	1.75
852.083	2.75
852.823	-0.25
853.562	4.75
854.301	-0.25
855.04	2.75
855.779	2.75
856.518	0.75
857.257	1.75
857.995	3.75
858.734	1.75
859.473	0.75
860.211	0.75
860.95	2.75
861.688	0.75
862.426	1.75
863.165	0.75
863.903	1.75
864.641	2.75
865.379	4.75
866.117	1.75
866.855	3.75
867.593	2.75
868.33	1.75
869.068	1.75
869.806	1.75
870.543	1.75
871.28	0.75
872.018	1.75
872.755	1.75
873.492	0.75
874.229	0.75
874.967	2.75
875.703	4.75
876.44	2.75
877.177	-0.25
877.914	-0.25
878.651	0.75
879.387	-0.25
880.124	1.75
880.86	0.75
881.597	0.75
882.333	1.75
883.069	-1.25
883.806	-0.25
884.542	-1.25
885.278	-0.25
886.014	-0.25
886.749	1.75
887.485	0.75
888.221	-1.25
888.957	2.75
889.692	-0.25
890.428	0.75
891.163	1.75
891.899	-0.25
892.634	0.75
893.369	-0.25
894.104	0.75
894.839	1.75
895.574	0.75
896.309	0.75
897.044	1.75
897.779	0.75
898.514	0.75
899.248	0.75
899.983	1.75
900.717	2.75
901.452	-0.25
902.186	1.75
902.92	1.75
903.654	-0.25
904.389	-0.25
905.123	1.75
905.857	2.75
906.59	-0.25
907.324	0.75
908.058	1.75
908.792	0.75
909.525	0.75
910.259	-0.25
910.992	1.75
911.726	1.75
912.459	-0.25
913.192	-1.25
913.925	2.75
914.658	-0.25
915.391	-0.25
916.124	1.75
916.857	0.75
917.59	1.75
918.323	2.75
919.055	1.75
919.788	-0.25
920.521	-0.25
921.253	0.75
921.985	-0.25
922.718	1.75
923.45	-0.25
924.182	1.75
924.914	0.75
925.646	0.75
926.378	-0.25
927.11	2.75
927.841	-2.25
928.573	-0.25
929.305	-0.25
930.036	0.75
930.768	0.75
931.499	-0.25
932.23	-0.25
932.962	0.75
933.693	0.75
934.424	-2.25
935.155	1.75
935.886	-0.25
936.617	-0.25
937.348	0.75
938.078	-2.25
938.809	-0.25
939.54	1.75
940.27	1.75
941.001	1.75
941.731	0.75
942.461	-0.25
943.191	1.75
943.922	1.75
944.652	3.75
945.382	-0.25
946.112	3.75
946.841	0.75
947.571	-1.25
948.301	-0.25
949.031	0.75
949.76	-0.25
950.49	-1.25
951.219	-0.25
951.948	1.75
952.678	-1.25
953.407	-0.25
954.136	-1.25
954.865	0.75
955.594	-1.25
956.323	-0.25
957.052	2.75
957.78	-0.25
958.509	-0.25
959.238	0.75
959.966	-2.25
960.695	0.75
961.423	-0.25
962.151	-0.25
962.88	-1.25
963.608	1.75
964.336	-0.25
965.064	1.75
965.792	0.75
966.52	-0.25
967.247	1.75
967.975	0.75
968.703	-0.25
969.43	0.75
970.158	1.75
970.885	0.75
971.613	1.75
972.34	-2.25
973.067	0.75
973.794	1.75
974.521	-0.25
975.248	1.75
975.975	-1.25
976.702	0.75
977.429	0.75
978.156	1.75
978.882	0.75
979.609	2.75
980.335	0.75
981.062	1.75
981.788	-1.25
982.514	0.75
983.24	-1.25
983.967	0.75
984.693	-2.25
985.419	-0.25
986.144	1.75
986.87	-1.25
987.596	0.75
988.322	-0.25
989.047	-0.25
989.773	-1.25
990.498	-2.25
991.224	0.75
991.949	-1.25
992.674	1.75
993.399	-0.25
994.124	-0.25
994.849	0.75
995.574	-0.25
996.299	-3.25
997.024	-1.25
997.749	0.75
998.473	-1.25
999.198	0.75
999.922	-2.25
1000.647	-1.25
1001.371	3.75
1002.095	-1.25
1002.82	-0.25
1003.544	-2.25
1004.268	0.75
1004.992	-1.25
1005.716	2.75
1006.439	-0.25
1007.163	-0.25
1007.887	2.75
1008.611	0.75
1009.334	-0.25
1010.058	-2.25
1010.781	0.75
1011.504	-0.25
1012.228	-0.25
1012.951	1.75
1013.674	-0.25
1014.397	-0.25
1015.12	-1.25
