节点500_285_QEPB04081__8__14-55-43-501.txt的数据

Date: Wed Nov 12 14:55:43 CST 2025
User: PC
Spectrometer: QEPB0408
触发模式: 0
积分时间 (秒): 1.000000E-2
Scans to average: 1
启用暗噪声校正: true
启用非线性校正: false
滑动平均宽度: 0
X轴模式: Wavelengths
Number of Pixels in Spectrum: 1044
>>>>>Begin Spectral Data<<<<<
220.843	3.12
221.644	2.12
222.444	3.12
223.244	2.12
224.045	4.12
224.845	3.12
225.645	1.12
226.445	1.12
227.245	4.12
228.045	2.12
228.845	3.12
229.645	2.12
230.444	5.12
231.244	5.12
232.043	3.12
232.843	3.12
233.642	5.12
234.442	5.12
235.241	1.12
236.04	4.12
236.839	1.12
237.638	7.12
238.437	6.12
239.236	3.12
240.035	5.12
240.833	3.12
241.632	5.12
242.43	7.12
243.229	4.12
244.027	6.12
244.826	7.12
245.624	5.12
246.422	6.12
247.22	7.12
248.018	7.12
248.816	6.12
249.614	9.12
250.412	6.12
251.21	7.12
252.007	6.12
252.805	8.12
253.602	8.12
254.4	9.12
255.197	10.12
255.994	8.12
256.791	9.12
257.589	8.12
258.386	9.12
259.183	11.12
259.979	10.12
260.776	12.12
261.573	13.12
262.37	9.12
263.166	14.12
263.963	13.12
264.759	11.12
265.556	16.12
266.352	16.12
267.148	15.12
267.944	13.12
268.74	16.12
269.536	16.12
270.332	17.12
271.128	18.12
271.924	16.12
272.719	22.12
273.515	19.12
274.311	17.12
275.106	18.12
275.901	20.12
276.697	21.12
277.492	17.12
278.287	21.12
279.082	21.12
279.877	21.12
280.672	21.12
281.467	19.12
282.262	20.12
283.056	21.12
283.851	21.12
284.646	22.12
285.44	22.12
286.234	23.12
287.029	23.12
287.823	19.12
288.617	21.12
289.411	19.12
290.205	21.12
290.999	19.12
291.793	20.12
292.587	19.12
293.381	18.12
294.174	20.12
294.968	15.12
295.761	15.12
296.555	15.12
297.348	17.12
298.141	16.12
298.935	17.12
299.728	19.12
300.521	15.12
301.314	16.12
302.107	13.12
302.899	13.12
303.692	15.12
304.485	14.12
305.277	16.12
306.07	13.12
306.862	13.12
307.655	11.12
308.447	13.12
309.239	15.12
310.031	10.12
310.823	13.12
311.615	12.12
312.407	9.12
313.199	11.12
313.991	11.12
314.783	9.12
315.574	9.12
316.366	9.12
317.157	9.12
317.949	9.12
318.74	9.12
319.531	7.12
320.322	6.12
321.113	9.12
321.904	6.12
322.695	13.12
323.486	7.12
324.277	7.12
325.068	10.12
325.858	7.12
326.649	8.12
327.439	6.12
328.23	8.12
329.02	7.12
329.81	7.12
330.6	8.12
331.391	8.12
332.181	7.12
332.971	6.12
333.76	7.12
334.55	7.12
335.34	7.12
336.13	9.12
336.919	7.12
337.709	6.12
338.498	6.12
339.287	7.12
340.077	8.12
340.866	8.12
341.655	6.12
342.444	6.12
343.233	8.12
344.022	7.12
344.811	8.12
345.6	7.12
346.388	6.12
347.177	6.12
347.965	5.12
348.754	7.12
349.542	4.12
350.33	5.12
351.119	6.12
351.907	6.12
352.695	6.12
353.483	6.12
354.271	6.12
355.059	7.12
355.846	6.12
356.634	6.12
357.422	8.12
358.209	6.12
358.997	7.12
359.784	8.12
360.571	6.12
361.359	6.12
362.146	7.12
362.933	5.12
363.72	7.12
364.507	7.12
365.294	4.12
366.081	4.12
366.867	6.12
367.654	6.12
368.44	7.12
369.227	6.12
370.013	3.12
370.8	3.12
371.586	7.12
372.372	3.12
373.158	5.12
373.944	6.12
374.73	4.12
375.516	6.12
376.302	4.12
377.088	6.12
377.873	7.12
378.659	5.12
379.445	5.12
380.23	7.12
381.015	4.12
381.801	6.12
382.586	6.12
383.371	8.12
384.156	6.12
384.941	6.12
385.726	8.12
386.511	4.12
387.296	6.12
388.08	5.12
388.865	4.12
389.649	4.12
390.434	6.12
391.218	5.12
392.003	7.12
392.787	6.12
393.571	7.12
394.355	9.12
395.139	8.12
395.923	7.12
396.707	9.12
397.491	6.12
398.274	7.12
399.058	7.12
399.842	6.12
400.625	9.12
401.408	9.12
402.192	5.12
402.975	8.12
403.758	7.12
404.541	9.12
405.324	8.12
406.107	10.12
406.89	8.12
407.673	9.12
408.456	9.12
409.238	10.12
410.021	9.12
410.803	11.12
411.586	9.12
412.368	10.12
413.151	10.12
413.933	8.12
414.715	10.12
415.497	8.12
416.279	7.12
417.061	10.12
417.843	11.12
418.624	11.12
419.406	9.12
420.188	11.12
420.969	12.12
421.751	11.12
422.532	11.12
423.313	11.12
424.095	8.12
424.876	14.12
425.657	13.12
426.438	11.12
427.219	13.12
428	14.12
428.78	13.12
429.561	12.12
430.342	14.12
431.122	15.12
431.903	12.12
432.683	14.12
433.464	18.12
434.244	18.12
435.024	18.12
435.804	19.12
436.584	21.12
437.364	20.12
438.144	21.12
438.924	19.12
439.704	23.12
440.483	24.12
441.263	24.12
442.042	25.12
442.822	30.12
443.601	29.12
444.38	31.12
445.16	31.12
445.939	36.12
446.718	37.12
447.497	37.12
448.276	41.12
449.054	45.12
449.833	47.12
450.612	49.12
451.391	52.12
452.169	56.12
452.948	60.12
453.726	69.12
454.504	72.12
455.282	84.12
456.061	92.12
456.839	101.12
457.617	112.12
458.395	119.12
459.172	138.12
459.95	153.12
460.728	170.12
461.506	185.12
462.283	212.12
463.061	238.12
463.838	263.12
464.615	294.12
465.393	333.12
466.17	368.12
466.947	416.12
467.724	462.12
468.501	525.12
469.278	571.12
470.055	647.12
470.831	721.12
471.608	808.12
472.385	914.12
473.161	994.12
473.938	1133.12
474.714	1243.12
475.49	1395.12
476.266	1543.12
477.043	1714.12
477.819	1913.12
478.595	2145.12
479.371	2389.12
480.146	2622.12
480.922	2902.12
481.698	3223.12
482.473	3587.12
483.249	3968.12
484.024	4421.12
484.8	4859.12
485.575	5382.12
486.35	5948.12
487.126	6629.12
487.901	7260.12
488.676	8000.12
489.451	8850.12
490.225	9743.12
491	10682.12
491.775	11699.12
492.55	12800.12
493.324	13921.12
494.099	15037.12
494.873	16243.12
495.647	17554.12
496.422	18882.12
497.196	20187.12
497.97	21542.12
498.744	22914.12
499.518	24198.12
500.292	25369.12
501.066	26478.12
501.839	27422.12
502.613	28303.12
503.387	28926.12
504.16	29393.12
504.934	29647.12
505.707	29561.12
506.48	29426.12
507.253	29034.12
508.027	28581.12
508.8	27928.12
509.573	27297.12
510.346	26416.12
511.118	25456.12
511.891	24446.12
512.664	23510.12
513.437	22451.12
514.209	21465.12
514.982	20475.12
515.754	19496.12
516.526	18593.12
517.298	17746.12
518.071	16961.12
518.843	16349.12
519.615	15715.12
520.387	15150.12
521.159	14523.12
521.93	13922.12
522.702	13343.12
523.474	12789.12
524.245	12248.12
525.017	11711.12
525.788	11267.12
526.56	10728.12
527.331	10155.12
528.102	9737.12
528.873	9208.12
529.644	8723.12
530.415	8286.12
531.186	7869.12
531.957	7429.12
532.728	7011.12
533.498	6600.12
534.269	6247.12
535.039	5912.12
535.81	5558.12
536.58	5247.12
537.351	4945.12
538.121	4661.12
538.891	4438.12
539.661	4203.12
540.431	3947.12
541.201	3755.12
541.971	3536.12
542.741	3361.12
543.51	3189.12
544.28	3044.12
545.05	2907.12
545.819	2745.12
546.588	2618.12
547.358	2499.12
548.127	2349.12
548.896	2227.12
549.665	2115.12
550.434	2007.12
551.203	1911.12
551.972	1769.12
552.741	1671.12
553.51	1596.12
554.278	1483.12
555.047	1416.12
555.815	1337.12
556.584	1260.12
557.352	1190.12
558.121	1132.12
558.889	1062.12
559.657	999.12
560.425	938.12
561.193	887.12
561.961	842.12
562.729	797.12
563.496	749.12
564.264	705.12
565.032	676.12
565.799	628.12
566.567	610.12
567.334	565.12
568.101	534.12
568.869	503.12
569.636	476.12
570.403	441.12
571.17	425.12
571.937	397.12
572.704	372.12
573.471	349.12
574.237	336.12
575.004	319.12
575.771	294.12
576.537	275.12
577.303	262.12
578.07	249.12
578.836	231.12
579.602	219.12
580.368	210.12
581.134	195.12
581.9	182.12
582.666	183.12
583.432	167.12
584.198	158.12
584.964	149.12
585.729	142.12
586.495	137.12
587.26	128.12
588.025	120.12
588.791	114.12
589.556	109.12
590.321	104.12
591.086	96.12
591.851	98.12
592.616	92.12
593.381	88.12
594.146	78.12
594.911	79.12
595.675	70.12
596.44	68.12
597.204	66.12
597.969	62.12
598.733	62.12
599.497	58.12
600.261	58.12
601.025	57.12
601.79	54.12
602.553	49.12
603.317	47.12
604.081	44.12
604.845	43.12
605.609	40.12
606.372	40.12
607.136	38.12
607.899	38.12
608.662	35.12
609.426	35.12
610.189	35.12
610.952	29.12
611.715	29.12
612.478	27.12
613.241	25.12
614.004	27.12
614.767	25.12
615.529	28.12
616.292	25.12
617.055	24.12
617.817	22.12
618.579	22.12
619.342	23.12
620.104	19.12
620.866	20.12
621.628	20.12
622.39	21.12
623.152	21.12
623.914	17.12
624.676	21.12
625.438	16.12
626.199	14.12
626.961	15.12
627.722	17.12
628.484	15.12
629.245	15.12
630.006	13.12
630.768	13.12
631.529	13.12
632.29	13.12
633.051	10.12
633.812	13.12
634.573	13.12
635.333	11.12
636.094	11.12
636.855	11.12
637.615	11.12
638.376	10.12
639.136	10.12
639.896	11.12
640.657	10.12
641.417	12.12
642.177	9.12
642.937	9.12
643.697	7.12
644.457	7.12
645.216	11.12
645.976	6.12
646.736	8.12
647.495	9.12
648.255	8.12
649.014	7.12
649.774	6.12
650.533	7.12
651.292	9.12
652.051	7.12
652.81	5.12
653.569	7.12
654.328	8.12
655.087	7.12
655.846	7.12
656.604	5.12
657.363	7.12
658.121	6.12
658.88	6.12
659.638	5.12
660.397	6.12
661.155	7.12
661.913	8.12
662.671	5.12
663.429	8.12
664.187	7.12
664.945	4.12
665.703	4.12
666.46	7.12
667.218	4.12
667.976	5.12
668.733	5.12
669.49	4.12
670.248	5.12
671.005	5.12
671.762	6.12
672.519	6.12
673.276	4.12
674.033	7.12
674.79	5.12
675.547	8.12
676.304	7.12
677.06	5.12
677.817	5.12
678.574	4.12
679.33	5.12
680.086	7.12
680.843	5.12
681.599	6.12
682.355	3.12
683.111	4.12
683.867	8.12
684.623	5.12
685.379	4.12
686.135	5.12
686.89	3.12
687.646	3.12
688.402	3.12
689.157	5.12
689.912	3.12
690.668	5.12
691.423	2.12
692.178	3.12
692.933	4.12
693.688	3.12
694.443	4.12
695.198	5.12
695.953	6.12
696.708	3.12
697.462	3.12
698.217	4.12
698.972	5.12
699.726	5.12
700.48	6.12
701.235	5.12
701.989	3.12
702.743	3.12
703.497	3.12
704.251	2.12
705.005	5.12
705.759	3.12
706.513	2.12
707.266	4.12
708.02	4.12
708.774	7.12
709.527	3.12
710.28	3.12
711.034	5.12
711.787	4.12
712.54	3.12
713.293	3.12
714.046	4.12
714.799	6.12
715.552	5.12
716.305	4.12
717.058	4.12
717.81	6.12
718.563	4.12
719.315	5.12
720.068	7.12
720.82	5.12
721.573	4.12
722.325	3.12
723.077	6.12
723.829	5.12
724.581	5.12
725.333	4.12
726.085	3.12
726.836	4.12
727.588	1.12
728.34	5.12
729.091	4.12
729.843	6.12
730.594	4.12
731.346	4.12
732.097	4.12
732.848	3.12
733.599	5.12
734.35	6.12
735.101	3.12
735.852	5.12
736.603	6.12
737.354	4.12
738.104	5.12
738.855	6.12
739.605	6.12
740.356	5.12
741.106	5.12
741.856	4.12
742.607	6.12
743.357	2.12
744.107	6.12
744.857	6.12
745.607	7.12
746.357	5.12
747.106	6.12
747.856	6.12
748.606	5.12
749.355	5.12
750.105	7.12
750.854	7.12
751.603	8.12
752.353	6.12
753.102	5.12
753.851	7.12
754.6	7.12
755.349	4.12
756.098	7.12
756.847	8.12
757.595	7.12
758.344	7.12
759.093	9.12
759.841	8.12
760.589	7.12
761.338	6.12
762.086	5.12
762.834	8.12
763.582	7.12
764.331	6.12
765.079	9.12
765.826	6.12
766.574	7.12
767.322	5.12
768.07	10.12
768.817	11.12
769.565	7.12
770.312	7.12
771.06	6.12
771.807	10.12
772.554	10.12
773.302	7.12
774.049	7.12
774.796	10.12
775.543	8.12
776.29	9.12
777.036	8.12
777.783	8.12
778.53	8.12
779.276	9.12
780.023	9.12
780.769	9.12
781.516	8.12
782.262	10.12
783.008	11.12
783.754	9.12
784.5	10.12
785.246	11.12
785.992	9.12
786.738	9.12
787.484	12.12
788.23	10.12
788.975	11.12
789.721	11.12
790.466	7.12
791.212	6.12
791.957	11.12
792.702	10.12
793.447	11.12
794.193	9.12
794.938	9.12
795.683	9.12
796.427	6.12
797.172	9.12
797.917	8.12
798.662	8.12
799.406	10.12
800.151	8.12
800.895	10.12
801.64	7.12
802.384	8.12
803.128	6.12
803.872	6.12
804.616	9.12
805.36	7.12
806.104	8.12
806.848	8.12
807.592	8.12
808.336	6.12
809.079	7.12
809.823	4.12
810.566	6.12
811.31	7.12
812.053	8.12
812.796	6.12
813.539	5.12
814.283	6.12
815.026	6.12
815.769	7.12
816.511	3.12
817.254	4.12
817.997	4.12
818.74	5.12
819.482	6.12
820.225	5.12
820.967	3.12
821.71	4.12
822.452	5.12
823.194	5.12
823.936	6.12
824.678	5.12
825.42	6.12
826.162	4.12
826.904	3.12
827.646	6.12
828.388	3.12
829.129	3.12
829.871	4.12
830.612	3.12
831.354	5.12
832.095	5.12
832.836	3.12
833.577	4.12
834.319	5.12
835.06	6.12
835.801	4.12
836.542	6.12
837.282	2.12
838.023	4.12
838.764	5.12
839.504	2.12
840.245	5.12
840.985	3.12
841.726	4.12
842.466	3.12
843.206	4.12
843.946	4.12
844.687	3.12
845.427	2.12
846.166	3.12
846.906	4.12
847.646	3.12
848.386	2.12
849.125	3.12
849.865	5.12
850.605	3.12
851.344	2.12
852.083	3.12
852.823	5.12
853.562	1.12
854.301	3.12
855.04	3.12
855.779	3.12
856.518	1.12
857.257	2.12
857.995	5.12
858.734	2.12
859.473	1.12
860.211	3.12
860.95	3.12
861.688	4.12
862.426	4.12
863.165	2.12
863.903	3.12
864.641	4.12
865.379	1.12
866.117	1.12
866.855	1.12
867.593	3.12
868.33	2.12
869.068	4.12
869.806	1.12
870.543	3.12
871.28	1.12
872.018	2.12
872.755	5.12
873.492	2.12
874.229	4.12
874.967	3.12
875.703	4.12
876.44	4.12
877.177	0.12
877.914	1.12
878.651	1.12
879.387	1.12
880.124	0.12
880.86	1.12
881.597	3.12
882.333	1.12
883.069	3.12
883.806	1.12
884.542	3.12
885.278	1.12
886.014	0.12
886.749	1.12
887.485	1.12
888.221	1.12
888.957	1.12
889.692	-0.88
890.428	2.12
891.163	-0.88
891.899	2.12
892.634	1.12
893.369	2.12
894.104	1.12
894.839	0.12
895.574	1.12
896.309	1.12
897.044	1.12
897.779	3.12
898.514	0.12
899.248	1.12
899.983	1.12
900.717	1.12
901.452	1.12
902.186	2.12
902.92	0.12
903.654	1.12
904.389	0.12
905.123	2.12
905.857	1.12
906.59	0.12
907.324	2.12
908.058	1.12
908.792	1.12
909.525	0.12
910.259	1.12
910.992	0.12
911.726	2.12
912.459	-0.88
913.192	0.12
913.925	1.12
914.658	0.12
915.391	1.12
916.124	1.12
916.857	2.12
917.59	0.12
918.323	0.12
919.055	0.12
919.788	0.12
920.521	0.12
921.253	0.12
921.985	3.12
922.718	1.12
923.45	2.12
924.182	1.12
924.914	-0.88
925.646	2.12
926.378	-0.88
927.11	-0.88
927.841	0.12
928.573	1.12
929.305	1.12
930.036	1.12
930.768	1.12
931.499	-0.88
932.23	1.12
932.962	2.12
933.693	-0.88
934.424	0.12
935.155	1.12
935.886	1.12
936.617	2.12
937.348	1.12
938.078	0.12
938.809	0.12
939.54	-0.88
940.27	1.12
941.001	0.12
941.731	0.12
942.461	-0.88
943.191	3.12
943.922	0.12
944.652	0.12
945.382	1.12
946.112	-1.88
946.841	1.12
947.571	0.12
948.301	3.12
949.031	1.12
949.76	0.12
950.49	0.12
951.219	1.12
951.948	1.12
952.678	0.12
953.407	0.12
954.136	1.12
954.865	0.12
955.594	1.12
956.323	0.12
957.052	1.12
957.78	2.12
958.509	-0.88
959.238	1.12
959.966	-0.88
960.695	2.12
961.423	1.12
962.151	1.12
962.88	1.12
963.608	1.12
964.336	3.12
965.064	1.12
965.792	2.12
966.52	2.12
967.247	2.12
967.975	2.12
968.703	1.12
969.43	1.12
970.158	1.12
970.885	0.12
971.613	1.12
972.34	1.12
973.067	-0.88
973.794	1.12
974.521	1.12
975.248	1.12
975.975	1.12
976.702	1.12
977.429	0.12
978.156	1.12
978.882	1.12
979.609	1.12
980.335	-0.88
981.062	1.12
981.788	0.12
982.514	1.12
983.24	3.12
983.967	1.12
984.693	1.12
985.419	1.12
986.144	-2.88
986.87	-0.88
987.596	1.12
988.322	1.12
989.047	0.12
989.773	1.12
990.498	1.12
991.224	0.12
991.949	2.12
992.674	1.12
993.399	1.12
994.124	1.12
994.849	1.12
995.574	1.12
996.299	0.12
997.024	0.12
997.749	0.12
998.473	-0.88
999.198	0.12
999.922	0.12
1000.647	1.12
1001.371	5.12
1002.095	0.12
1002.82	-2.88
1003.544	-0.88
1004.268	2.12
1004.992	1.12
1005.716	1.12
1006.439	1.12
1007.163	3.12
1007.887	2.12
1008.611	1.12
1009.334	-0.88
1010.058	2.12
1010.781	1.12
1011.504	2.12
1012.228	1.12
1012.951	-1.88
1013.674	-0.88
1014.397	0.12
1015.12	1.12
