节点500_285_QEPB04081__200__14-58-53-090.txt的数据

Date: Wed Nov 12 14:58:53 CST 2025
User: PC
Spectrometer: QEPB0408
触发模式: 0
积分时间 (秒): 1.000000E-2
Scans to average: 1
启用暗噪声校正: true
启用非线性校正: false
滑动平均宽度: 0
X轴模式: Wavelengths
Number of Pixels in Spectrum: 1044
>>>>>Begin Spectral Data<<<<<
220.843	3.12
221.644	2.12
222.444	3.12
223.244	3.12
224.045	1.12
224.845	3.12
225.645	3.12
226.445	2.12
227.245	3.12
228.045	7.12
228.845	2.12
229.645	4.12
230.444	2.12
231.244	3.12
232.043	6.12
232.843	2.12
233.642	4.12
234.442	5.12
235.241	4.12
236.04	3.12
236.839	4.12
237.638	5.12
238.437	5.12
239.236	1.12
240.035	3.12
240.833	6.12
241.632	7.12
242.43	6.12
243.229	4.12
244.027	5.12
244.826	7.12
245.624	7.12
246.422	7.12
247.22	8.12
248.018	6.12
248.816	8.12
249.614	5.12
250.412	7.12
251.21	6.12
252.007	7.12
252.805	8.12
253.602	7.12
254.4	8.12
255.197	8.12
255.994	8.12
256.791	8.12
257.589	10.12
258.386	8.12
259.183	11.12
259.979	11.12
260.776	8.12
261.573	13.12
262.37	12.12
263.166	9.12
263.963	14.12
264.759	10.12
265.556	18.12
266.352	14.12
267.148	17.12
267.944	15.12
268.74	14.12
269.536	14.12
270.332	13.12
271.128	18.12
271.924	15.12
272.719	17.12
273.515	18.12
274.311	18.12
275.106	19.12
275.901	17.12
276.697	19.12
277.492	21.12
278.287	20.12
279.082	19.12
279.877	18.12
280.672	18.12
281.467	21.12
282.262	20.12
283.056	19.12
283.851	20.12
284.646	22.12
285.44	22.12
286.234	21.12
287.029	19.12
287.823	22.12
288.617	20.12
289.411	21.12
290.205	21.12
290.999	18.12
291.793	21.12
292.587	20.12
293.381	20.12
294.174	20.12
294.968	18.12
295.761	18.12
296.555	16.12
297.348	15.12
298.141	17.12
298.935	17.12
299.728	19.12
300.521	13.12
301.314	18.12
302.107	14.12
302.899	13.12
303.692	14.12
304.485	12.12
305.277	13.12
306.07	13.12
306.862	12.12
307.655	12.12
308.447	12.12
309.239	14.12
310.031	10.12
310.823	11.12
311.615	9.12
312.407	13.12
313.199	10.12
313.991	10.12
314.783	8.12
315.574	11.12
316.366	10.12
317.157	10.12
317.949	7.12
318.74	5.12
319.531	8.12
320.322	9.12
321.113	7.12
321.904	6.12
322.695	8.12
323.486	6.12
324.277	10.12
325.068	6.12
325.858	8.12
326.649	8.12
327.439	7.12
328.23	8.12
329.02	6.12
329.81	9.12
330.6	7.12
331.391	8.12
332.181	7.12
332.971	5.12
333.76	5.12
334.55	7.12
335.34	6.12
336.13	8.12
336.919	7.12
337.709	7.12
338.498	5.12
339.287	7.12
340.077	7.12
340.866	9.12
341.655	10.12
342.444	5.12
343.233	8.12
344.022	5.12
344.811	6.12
345.6	7.12
346.388	5.12
347.177	7.12
347.965	5.12
348.754	7.12
349.542	8.12
350.33	8.12
351.119	5.12
351.907	7.12
352.695	8.12
353.483	6.12
354.271	8.12
355.059	9.12
355.846	5.12
356.634	6.12
357.422	5.12
358.209	3.12
358.997	7.12
359.784	4.12
360.571	5.12
361.359	5.12
362.146	7.12
362.933	5.12
363.72	6.12
364.507	8.12
365.294	3.12
366.081	7.12
366.867	6.12
367.654	4.12
368.44	4.12
369.227	4.12
370.013	5.12
370.8	4.12
371.586	7.12
372.372	6.12
373.158	7.12
373.944	8.12
374.73	7.12
375.516	7.12
376.302	6.12
377.088	6.12
377.873	7.12
378.659	6.12
379.445	4.12
380.23	7.12
381.015	8.12
381.801	7.12
382.586	6.12
383.371	7.12
384.156	5.12
384.941	4.12
385.726	6.12
386.511	2.12
387.296	8.12
388.08	6.12
388.865	4.12
389.649	5.12
390.434	7.12
391.218	5.12
392.003	7.12
392.787	6.12
393.571	7.12
394.355	7.12
395.139	7.12
395.923	10.12
396.707	6.12
397.491	8.12
398.274	8.12
399.058	8.12
399.842	8.12
400.625	8.12
401.408	6.12
402.192	11.12
402.975	7.12
403.758	8.12
404.541	9.12
405.324	7.12
406.107	8.12
406.89	8.12
407.673	7.12
408.456	5.12
409.238	10.12
410.021	8.12
410.803	10.12
411.586	10.12
412.368	8.12
413.151	9.12
413.933	9.12
414.715	10.12
415.497	10.12
416.279	10.12
417.061	7.12
417.843	10.12
418.624	12.12
419.406	12.12
420.188	14.12
420.969	11.12
421.751	10.12
422.532	13.12
423.313	9.12
424.095	10.12
424.876	14.12
425.657	10.12
426.438	13.12
427.219	14.12
428	13.12
428.78	14.12
429.561	17.12
430.342	14.12
431.122	14.12
431.903	17.12
432.683	14.12
433.464	20.12
434.244	14.12
435.024	20.12
435.804	17.12
436.584	19.12
437.364	20.12
438.144	20.12
438.924	21.12
439.704	24.12
440.483	23.12
441.263	24.12
442.042	25.12
442.822	26.12
443.601	29.12
444.38	30.12
445.16	29.12
445.939	32.12
446.718	37.12
447.497	38.12
448.276	45.12
449.054	42.12
449.833	45.12
450.612	53.12
451.391	54.12
452.169	62.12
452.948	64.12
453.726	73.12
454.504	79.12
455.282	89.12
456.061	97.12
456.839	105.12
457.617	122.12
458.395	129.12
459.172	148.12
459.95	163.12
460.728	179.12
461.506	200.12
462.283	222.12
463.061	251.12
463.838	275.12
464.615	313.12
465.393	350.12
466.17	398.12
466.947	438.12
467.724	485.12
468.501	543.12
469.278	606.12
470.055	676.12
470.831	751.12
471.608	831.12
472.385	926.12
473.161	1044.12
473.938	1145.12
474.714	1291.12
475.49	1405.12
476.266	1583.12
477.043	1729.12
477.819	1918.12
478.595	2121.12
479.371	2354.12
480.146	2617.12
480.922	2878.12
481.698	3171.12
482.473	3507.12
483.249	3859.12
484.024	4240.12
484.8	4708.12
485.575	5204.12
486.35	5684.12
487.126	6245.12
487.901	6902.12
488.676	7561.12
489.451	8284.12
490.225	9084.12
491	9948.12
491.775	10899.12
492.55	11893.12
493.324	12901.12
494.099	13928.12
494.873	14988.12
495.647	16181.12
496.422	17393.12
497.196	18626.12
497.97	19831.12
498.744	21115.12
499.518	22304.12
500.292	23437.12
501.066	24578.12
501.839	25467.12
502.613	26340.12
503.387	27208.12
504.16	27687.12
504.934	27967.12
505.707	28071.12
506.48	28074.12
507.253	27878.12
508.027	27572.12
508.8	27243.12
509.573	26667.12
510.346	26041.12
511.118	25199.12
511.891	24235.12
512.664	23380.12
513.437	22432.12
514.209	21472.12
514.982	20530.12
515.754	19612.12
516.526	18718.12
517.298	17857.12
518.071	17121.12
518.843	16508.12
519.615	15844.12
520.387	15233.12
521.159	14583.12
521.93	14017.12
522.702	13455.12
523.474	12921.12
524.245	12378.12
525.017	11831.12
525.788	11381.12
526.56	10845.12
527.331	10303.12
528.102	9848.12
528.873	9392.12
529.644	8908.12
530.415	8482.12
531.186	8056.12
531.957	7621.12
532.728	7213.12
533.498	6847.12
534.269	6425.12
535.039	6104.12
535.81	5777.12
536.58	5444.12
537.351	5111.12
538.121	4823.12
538.891	4570.12
539.661	4323.12
540.431	4091.12
541.201	3859.12
541.971	3634.12
542.741	3454.12
543.51	3287.12
544.28	3140.12
545.05	2987.12
545.819	2816.12
546.588	2703.12
547.358	2548.12
548.127	2443.12
548.896	2311.12
549.665	2179.12
550.434	2071.12
551.203	1951.12
551.972	1858.12
552.741	1752.12
553.51	1655.12
554.278	1581.12
555.047	1465.12
555.815	1391.12
556.584	1303.12
557.352	1242.12
558.121	1171.12
558.889	1104.12
559.657	1032.12
560.425	978.12
561.193	922.12
561.961	882.12
562.729	835.12
563.496	779.12
564.264	734.12
565.032	706.12
565.799	651.12
566.567	631.12
567.334	584.12
568.101	556.12
568.869	533.12
569.636	490.12
570.403	468.12
571.17	440.12
571.937	410.12
572.704	393.12
573.471	375.12
574.237	349.12
575.004	334.12
575.771	306.12
576.537	288.12
577.303	277.12
578.07	261.12
578.836	243.12
579.602	234.12
580.368	215.12
581.134	212.12
581.9	190.12
582.666	186.12
583.432	179.12
584.198	166.12
584.964	160.12
585.729	153.12
586.495	142.12
587.26	135.12
588.025	123.12
588.791	119.12
589.556	113.12
590.321	110.12
591.086	105.12
591.851	96.12
592.616	95.12
593.381	89.12
594.146	84.12
594.911	84.12
595.675	79.12
596.44	77.12
597.204	69.12
597.969	68.12
598.733	66.12
599.497	62.12
600.261	57.12
601.025	56.12
601.79	54.12
602.553	51.12
603.317	52.12
604.081	44.12
604.845	44.12
605.609	45.12
606.372	42.12
607.136	38.12
607.899	39.12
608.662	38.12
609.426	37.12
610.189	35.12
610.952	33.12
611.715	31.12
612.478	30.12
613.241	30.12
614.004	29.12
614.767	26.12
615.529	25.12
616.292	27.12
617.055	25.12
617.817	24.12
618.579	20.12
619.342	22.12
620.104	23.12
620.866	20.12
621.628	21.12
622.39	17.12
623.152	18.12
623.914	23.12
624.676	15.12
625.438	20.12
626.199	17.12
626.961	17.12
627.722	14.12
628.484	14.12
629.245	16.12
630.006	15.12
630.768	15.12
631.529	14.12
632.29	14.12
633.051	12.12
633.812	13.12
634.573	11.12
635.333	11.12
636.094	10.12
636.855	11.12
637.615	10.12
638.376	10.12
639.136	10.12
639.896	9.12
640.657	9.12
641.417	9.12
642.177	9.12
642.937	9.12
643.697	11.12
644.457	10.12
645.216	8.12
645.976	8.12
646.736	8.12
647.495	11.12
648.255	7.12
649.014	8.12
649.774	6.12
650.533	7.12
651.292	8.12
652.051	6.12
652.81	8.12
653.569	8.12
654.328	9.12
655.087	5.12
655.846	7.12
656.604	8.12
657.363	8.12
658.121	5.12
658.88	7.12
659.638	7.12
660.397	6.12
661.155	5.12
661.913	7.12
662.671	7.12
663.429	8.12
664.187	6.12
664.945	4.12
665.703	8.12
666.46	5.12
667.218	5.12
667.976	7.12
668.733	7.12
669.49	4.12
670.248	4.12
671.005	4.12
671.762	6.12
672.519	7.12
673.276	8.12
674.033	5.12
674.79	6.12
675.547	4.12
676.304	5.12
677.06	4.12
677.817	6.12
678.574	5.12
679.33	5.12
680.086	5.12
680.843	4.12
681.599	3.12
682.355	4.12
683.111	5.12
683.867	7.12
684.623	5.12
685.379	6.12
686.135	2.12
686.89	4.12
687.646	4.12
688.402	3.12
689.157	2.12
689.912	4.12
690.668	4.12
691.423	4.12
692.178	4.12
692.933	5.12
693.688	3.12
694.443	5.12
695.198	4.12
695.953	5.12
696.708	5.12
697.462	4.12
698.217	6.12
698.972	4.12
699.726	6.12
700.48	5.12
701.235	4.12
701.989	2.12
702.743	4.12
703.497	4.12
704.251	4.12
705.005	3.12
705.759	5.12
706.513	4.12
707.266	3.12
708.02	4.12
708.774	4.12
709.527	3.12
710.28	4.12
711.034	6.12
711.787	4.12
712.54	4.12
713.293	4.12
714.046	6.12
714.799	6.12
715.552	3.12
716.305	3.12
717.058	4.12
717.81	5.12
718.563	4.12
719.315	5.12
720.068	2.12
720.82	4.12
721.573	5.12
722.325	4.12
723.077	4.12
723.829	3.12
724.581	3.12
725.333	4.12
726.085	4.12
726.836	4.12
727.588	5.12
728.34	5.12
729.091	6.12
729.843	6.12
730.594	6.12
731.346	4.12
732.097	4.12
732.848	5.12
733.599	2.12
734.35	4.12
735.101	5.12
735.852	4.12
736.603	4.12
737.354	5.12
738.104	6.12
738.855	5.12
739.605	7.12
740.356	4.12
741.106	6.12
741.856	5.12
742.607	5.12
743.357	4.12
744.107	3.12
744.857	6.12
745.607	4.12
746.357	9.12
747.106	6.12
747.856	6.12
748.606	8.12
749.355	5.12
750.105	5.12
750.854	7.12
751.603	6.12
752.353	6.12
753.102	5.12
753.851	7.12
754.6	7.12
755.349	4.12
756.098	8.12
756.847	6.12
757.595	6.12
758.344	7.12
759.093	7.12
759.841	7.12
760.589	9.12
761.338	8.12
762.086	8.12
762.834	8.12
763.582	7.12
764.331	9.12
765.079	8.12
765.826	8.12
766.574	8.12
767.322	9.12
768.07	7.12
768.817	9.12
769.565	7.12
770.312	9.12
771.06	9.12
771.807	8.12
772.554	8.12
773.302	9.12
774.049	11.12
774.796	10.12
775.543	10.12
776.29	9.12
777.036	9.12
777.783	9.12
778.53	12.12
779.276	9.12
780.023	13.12
780.769	10.12
781.516	8.12
782.262	12.12
783.008	8.12
783.754	10.12
784.5	12.12
785.246	9.12
785.992	11.12
786.738	10.12
787.484	10.12
788.23	9.12
788.975	9.12
789.721	9.12
790.466	10.12
791.212	9.12
791.957	7.12
792.702	12.12
793.447	9.12
794.193	9.12
794.938	9.12
795.683	10.12
796.427	9.12
797.172	11.12
797.917	7.12
798.662	7.12
799.406	5.12
800.151	8.12
800.895	4.12
801.64	9.12
802.384	8.12
803.128	7.12
803.872	6.12
804.616	7.12
805.36	5.12
806.104	7.12
806.848	7.12
807.592	8.12
808.336	6.12
809.079	6.12
809.823	6.12
810.566	7.12
811.31	6.12
812.053	4.12
812.796	7.12
813.539	5.12
814.283	7.12
815.026	4.12
815.769	6.12
816.511	4.12
817.254	6.12
817.997	5.12
818.74	4.12
819.482	5.12
820.225	6.12
820.967	4.12
821.71	4.12
822.452	6.12
823.194	5.12
823.936	6.12
824.678	5.12
825.42	2.12
826.162	5.12
826.904	2.12
827.646	4.12
828.388	7.12
829.129	5.12
829.871	4.12
830.612	6.12
831.354	4.12
832.095	6.12
832.836	3.12
833.577	4.12
834.319	2.12
835.06	2.12
835.801	7.12
836.542	5.12
837.282	5.12
838.023	4.12
838.764	4.12
839.504	4.12
840.245	4.12
840.985	5.12
841.726	5.12
842.466	5.12
843.206	4.12
843.946	5.12
844.687	3.12
845.427	5.12
846.166	5.12
846.906	4.12
847.646	6.12
848.386	3.12
849.125	3.12
849.865	4.12
850.605	4.12
851.344	1.12
852.083	3.12
852.823	3.12
853.562	4.12
854.301	4.12
855.04	4.12
855.779	2.12
856.518	4.12
857.257	3.12
857.995	3.12
858.734	5.12
859.473	2.12
860.211	5.12
860.95	3.12
861.688	3.12
862.426	4.12
863.165	0.12
863.903	5.12
864.641	1.12
865.379	4.12
866.117	2.12
866.855	1.12
867.593	3.12
868.33	2.12
869.068	2.12
869.806	0.12
870.543	2.12
871.28	5.12
872.018	1.12
872.755	2.12
873.492	1.12
874.229	4.12
874.967	1.12
875.703	3.12
876.44	3.12
877.177	2.12
877.914	1.12
878.651	1.12
879.387	2.12
880.124	1.12
880.86	1.12
881.597	3.12
882.333	2.12
883.069	2.12
883.806	1.12
884.542	2.12
885.278	3.12
886.014	0.12
886.749	1.12
887.485	0.12
888.221	3.12
888.957	1.12
889.692	1.12
890.428	2.12
891.163	2.12
891.899	2.12
892.634	1.12
893.369	1.12
894.104	0.12
894.839	1.12
895.574	3.12
896.309	-1.88
897.044	3.12
897.779	2.12
898.514	1.12
899.248	-0.88
899.983	0.12
900.717	1.12
901.452	0.12
902.186	3.12
902.92	2.12
903.654	0.12
904.389	2.12
905.123	-0.88
905.857	1.12
906.59	2.12
907.324	1.12
908.058	0.12
908.792	0.12
909.525	3.12
910.259	0.12
910.992	2.12
911.726	-1.88
912.459	0.12
913.192	2.12
913.925	2.12
914.658	3.12
915.391	0.12
916.124	-0.88
916.857	2.12
917.59	2.12
918.323	0.12
919.055	-0.88
919.788	3.12
920.521	2.12
921.253	0.12
921.985	1.12
922.718	-1.88
923.45	3.12
924.182	1.12
924.914	-0.88
925.646	1.12
926.378	1.12
927.11	0.12
927.841	2.12
928.573	1.12
929.305	2.12
930.036	0.12
930.768	2.12
931.499	-0.88
932.23	1.12
932.962	1.12
933.693	0.12
934.424	1.12
935.155	-0.88
935.886	1.12
936.617	1.12
937.348	3.12
938.078	2.12
938.809	-1.88
939.54	1.12
940.27	1.12
941.001	3.12
941.731	0.12
942.461	2.12
943.191	0.12
943.922	3.12
944.652	2.12
945.382	2.12
946.112	0.12
946.841	-0.88
947.571	0.12
948.301	3.12
949.031	0.12
949.76	3.12
950.49	1.12
951.219	1.12
951.948	1.12
952.678	2.12
953.407	2.12
954.136	1.12
954.865	0.12
955.594	4.12
956.323	3.12
957.052	2.12
957.78	2.12
958.509	1.12
959.238	0.12
959.966	3.12
960.695	0.12
961.423	1.12
962.151	0.12
962.88	-1.88
963.608	1.12
964.336	0.12
965.064	3.12
965.792	2.12
966.52	2.12
967.247	1.12
967.975	0.12
968.703	-0.88
969.43	3.12
970.158	1.12
970.885	0.12
971.613	2.12
972.34	1.12
973.067	1.12
973.794	1.12
974.521	1.12
975.248	1.12
975.975	1.12
976.702	-1.88
977.429	1.12
978.156	1.12
978.882	1.12
979.609	-2.88
980.335	1.12
981.062	0.12
981.788	2.12
982.514	0.12
983.24	2.12
983.967	-1.88
984.693	4.12
985.419	-1.88
986.144	-0.88
986.87	1.12
987.596	3.12
988.322	0.12
989.047	0.12
989.773	0.12
990.498	0.12
991.224	2.12
991.949	2.12
992.674	0.12
993.399	1.12
994.124	0.12
994.849	0.12
995.574	2.12
996.299	2.12
997.024	1.12
997.749	0.12
998.473	2.12
999.198	2.12
999.922	3.12
1000.647	0.12
1001.371	1.12
1002.095	1.12
1002.82	-1.88
1003.544	-1.88
1004.268	6.12
1004.992	2.12
1005.716	1.12
1006.439	2.12
1007.163	3.12
1007.887	3.12
1008.611	0.12
1009.334	-0.88
1010.058	1.12
1010.781	1.12
1011.504	1.12
1012.228	1.12
1012.951	1.12
1013.674	-0.88
1014.397	2.12
1015.12	-0.88
