节点500_285_QEPB04081__11__14-55-46-490.txt的数据

Date: Wed Nov 12 14:55:46 CST 2025
User: PC
Spectrometer: QEPB0408
触发模式: 0
积分时间 (秒): 1.000000E-2
Scans to average: 1
启用暗噪声校正: true
启用非线性校正: false
滑动平均宽度: 0
X轴模式: Wavelengths
Number of Pixels in Spectrum: 1044
>>>>>Begin Spectral Data<<<<<
220.843	2
221.644	6
222.444	3
223.244	3
224.045	5
224.845	0
225.645	2
226.445	4
227.245	4
228.045	3
228.845	3
229.645	1
230.444	3
231.244	3
232.043	6
232.843	5
233.642	7
234.442	5
235.241	1
236.04	5
236.839	4
237.638	4
238.437	5
239.236	1
240.035	6
240.833	5
241.632	6
242.43	3
243.229	4
244.027	6
244.826	6
245.624	6
246.422	4
247.22	7
248.018	10
248.816	8
249.614	8
250.412	6
251.21	8
252.007	8
252.805	8
253.602	9
254.4	6
255.197	9
255.994	6
256.791	7
257.589	11
258.386	9
259.183	9
259.979	11
260.776	11
261.573	13
262.37	10
263.166	13
263.963	14
264.759	12
265.556	12
266.352	13
267.148	15
267.944	14
268.74	17
269.536	15
270.332	14
271.128	19
271.924	19
272.719	17
273.515	19
274.311	19
275.106	21
275.901	18
276.697	21
277.492	18
278.287	19
279.082	25
279.877	17
280.672	19
281.467	18
282.262	20
283.056	23
283.851	20
284.646	20
285.44	21
286.234	22
287.029	21
287.823	20
288.617	20
289.411	21
290.205	21
290.999	20
291.793	22
292.587	21
293.381	20
294.174	18
294.968	16
295.761	17
296.555	16
297.348	14
298.141	17
298.935	18
299.728	15
300.521	16
301.314	13
302.107	14
302.899	15
303.692	15
304.485	13
305.277	16
306.07	14
306.862	12
307.655	13
308.447	11
309.239	13
310.031	12
310.823	11
311.615	12
312.407	8
313.199	12
313.991	10
314.783	11
315.574	9
316.366	9
317.157	10
317.949	9
318.74	10
319.531	8
320.322	7
321.113	10
321.904	11
322.695	11
323.486	6
324.277	9
325.068	10
325.858	6
326.649	8
327.439	7
328.23	7
329.02	9
329.81	7
330.6	6
331.391	6
332.181	8
332.971	7
333.76	10
334.55	8
335.34	6
336.13	8
336.919	7
337.709	6
338.498	7
339.287	7
340.077	8
340.866	6
341.655	5
342.444	7
343.233	4
344.022	8
344.811	6
345.6	7
346.388	6
347.177	6
347.965	6
348.754	5
349.542	9
350.33	8
351.119	9
351.907	6
352.695	7
353.483	7
354.271	6
355.059	5
355.846	5
356.634	6
357.422	6
358.209	3
358.997	6
359.784	5
360.571	8
361.359	6
362.146	5
362.933	7
363.72	2
364.507	6
365.294	4
366.081	6
366.867	5
367.654	5
368.44	5
369.227	6
370.013	6
370.8	3
371.586	8
372.372	6
373.158	5
373.944	6
374.73	4
375.516	6
376.302	6
377.088	3
377.873	4
378.659	8
379.445	5
380.23	6
381.015	6
381.801	6
382.586	6
383.371	5
384.156	6
384.941	5
385.726	8
386.511	7
387.296	9
388.08	5
388.865	5
389.649	7
390.434	6
391.218	6
392.003	7
392.787	5
393.571	8
394.355	5
395.139	7
395.923	5
396.707	7
397.491	8
398.274	9
399.058	10
399.842	5
400.625	7
401.408	6
402.192	8
402.975	10
403.758	7
404.541	8
405.324	10
406.107	9
406.89	7
407.673	8
408.456	10
409.238	11
410.021	10
410.803	9
411.586	10
412.368	9
413.151	6
413.933	11
414.715	11
415.497	10
416.279	13
417.061	9
417.843	9
418.624	9
419.406	10
420.188	13
420.969	10
421.751	9
422.532	11
423.313	14
424.095	11
424.876	11
425.657	13
426.438	13
427.219	13
428	14
428.78	13
429.561	14
430.342	14
431.122	18
431.903	15
432.683	13
433.464	15
434.244	14
435.024	17
435.804	17
436.584	19
437.364	21
438.144	21
438.924	22
439.704	24
440.483	23
441.263	22
442.042	27
442.822	27
443.601	30
444.38	29
445.16	32
445.939	35
446.718	35
447.497	39
448.276	42
449.054	42
449.833	43
450.612	48
451.391	57
452.169	58
452.948	65
453.726	69
454.504	76
455.282	84
456.061	87
456.839	104
457.617	113
458.395	123
459.172	135
459.95	156
460.728	165
461.506	187
462.283	205
463.061	231
463.838	265
464.615	294
465.393	337
466.17	367
466.947	409
467.724	455
468.501	524
469.278	571
470.055	638
470.831	715
471.608	811
472.385	901
473.161	1010
473.938	1119
474.714	1236
475.49	1386
476.266	1542
477.043	1715
477.819	1894
478.595	2132
479.371	2348
480.146	2624
480.922	2912
481.698	3235
482.473	3572
483.249	3978
484.024	4393
484.8	4865
485.575	5406
486.35	5944
487.126	6580
487.901	7268
488.676	7999
489.451	8841
490.225	9683
491	10612
491.775	11672
492.55	12723
493.324	13860
494.099	15028
494.873	16209
495.647	17576
496.422	18896
497.196	20177
497.97	21571
498.744	22847
499.518	24145
500.292	25347
501.066	26368
501.839	27352
502.613	28157
503.387	28867
504.16	29384
504.934	29503
505.707	29509
506.48	29366
507.253	28950
508.027	28501
508.8	27932
509.573	27258
510.346	26353
511.118	25432
511.891	24354
512.664	23426
513.437	22360
514.209	21379
514.982	20462
515.754	19449
516.526	18539
517.298	17798
518.071	16954
518.843	16329
519.615	15701
520.387	15119
521.159	14489
521.93	13945
522.702	13373
523.474	12785
524.245	12190
525.017	11716
525.788	11239
526.56	10688
527.331	10214
528.102	9731
528.873	9191
529.644	8714
530.415	8263
531.186	7867
531.957	7391
532.728	7041
533.498	6606
534.269	6249
535.039	5886
535.81	5560
536.58	5261
537.351	4951
538.121	4659
538.891	4410
539.661	4199
540.431	3945
541.201	3733
541.971	3536
542.741	3384
543.51	3193
544.28	3037
545.05	2884
545.819	2754
546.588	2619
547.358	2486
548.127	2351
548.896	2236
549.665	2094
550.434	1998
551.203	1893
551.972	1796
552.741	1686
553.51	1595
554.278	1512
555.047	1403
555.815	1328
556.584	1260
557.352	1192
558.121	1118
558.889	1054
559.657	989
560.425	944
561.193	884
561.961	836
562.729	802
563.496	744
564.264	700
565.032	664
565.799	637
566.567	595
567.334	566
568.101	535
568.869	493
569.636	477
570.403	439
571.17	422
571.937	399
572.704	380
573.471	353
574.237	336
575.004	317
575.771	296
576.537	278
577.303	260
578.07	247
578.836	231
579.602	214
580.368	206
581.134	197
581.9	183
582.666	171
583.432	167
584.198	160
584.964	149
585.729	148
586.495	135
587.26	127
588.025	122
588.791	114
589.556	112
590.321	101
591.086	101
591.851	96
592.616	88
593.381	84
594.146	83
594.911	78
595.675	73
596.44	71
597.204	67
597.969	63
598.733	63
599.497	60
600.261	56
601.025	55
601.79	53
602.553	48
603.317	48
604.081	46
604.845	43
605.609	46
606.372	40
607.136	40
607.899	40
608.662	37
609.426	36
610.189	35
610.952	30
611.715	32
612.478	31
613.241	26
614.004	27
614.767	27
615.529	24
616.292	24
617.055	22
617.817	23
618.579	21
619.342	22
620.104	17
620.866	20
621.628	18
622.39	21
623.152	20
623.914	17
624.676	17
625.438	16
626.199	16
626.961	13
627.722	13
628.484	14
629.245	16
630.006	15
630.768	13
631.529	12
632.29	14
633.051	12
633.812	13
634.573	14
635.333	12
636.094	12
636.855	8
637.615	12
638.376	9
639.136	12
639.896	11
640.657	10
641.417	11
642.177	9
642.937	9
643.697	8
644.457	9
645.216	9
645.976	7
646.736	10
647.495	7
648.255	11
649.014	5
649.774	7
650.533	8
651.292	8
652.051	7
652.81	5
653.569	8
654.328	8
655.087	6
655.846	7
656.604	7
657.363	7
658.121	6
658.88	5
659.638	5
660.397	6
661.155	7
661.913	7
662.671	5
663.429	5
664.187	6
664.945	5
665.703	5
666.46	5
667.218	6
667.976	4
668.733	5
669.49	6
670.248	6
671.005	6
671.762	6
672.519	6
673.276	5
674.033	7
674.79	4
675.547	6
676.304	4
677.06	5
677.817	6
678.574	3
679.33	1
680.086	4
680.843	6
681.599	5
682.355	4
683.111	5
683.867	4
684.623	4
685.379	5
686.135	5
686.89	4
687.646	6
688.402	4
689.157	5
689.912	4
690.668	6
691.423	4
692.178	5
692.933	6
693.688	4
694.443	5
695.198	6
695.953	3
696.708	4
697.462	3
698.217	7
698.972	4
699.726	6
700.48	4
701.235	4
701.989	4
702.743	4
703.497	3
704.251	3
705.005	4
705.759	5
706.513	3
707.266	7
708.02	4
708.774	6
709.527	6
710.28	3
711.034	4
711.787	3
712.54	5
713.293	5
714.046	6
714.799	6
715.552	3
716.305	4
717.058	2
717.81	2
718.563	5
719.315	7
720.068	5
720.82	4
721.573	4
722.325	3
723.077	5
723.829	6
724.581	4
725.333	4
726.085	3
726.836	6
727.588	7
728.34	5
729.091	5
729.843	4
730.594	6
731.346	4
732.097	5
732.848	5
733.599	3
734.35	5
735.101	3
735.852	5
736.603	4
737.354	3
738.104	5
738.855	5
739.605	6
740.356	5
741.106	4
741.856	7
742.607	4
743.357	8
744.107	5
744.857	3
745.607	3
746.357	4
747.106	5
747.856	6
748.606	6
749.355	7
750.105	6
750.854	9
751.603	6
752.353	6
753.102	7
753.851	5
754.6	8
755.349	7
756.098	8
756.847	8
757.595	8
758.344	8
759.093	5
759.841	7
760.589	8
761.338	5
762.086	8
762.834	7
763.582	8
764.331	9
765.079	10
765.826	8
766.574	9
767.322	5
768.07	4
768.817	9
769.565	8
770.312	9
771.06	9
771.807	7
772.554	9
773.302	9
774.049	10
774.796	9
775.543	11
776.29	10
777.036	11
777.783	9
778.53	10
779.276	11
780.023	9
780.769	10
781.516	8
782.262	7
783.008	10
783.754	8
784.5	10
785.246	11
785.992	9
786.738	11
787.484	10
788.23	11
788.975	8
789.721	9
790.466	9
791.212	10
791.957	10
792.702	10
793.447	8
794.193	9
794.938	10
795.683	10
796.427	9
797.172	9
797.917	9
798.662	8
799.406	7
800.151	8
800.895	9
801.64	7
802.384	6
803.128	7
803.872	6
804.616	8
805.36	8
806.104	5
806.848	6
807.592	7
808.336	5
809.079	5
809.823	7
810.566	4
811.31	5
812.053	7
812.796	7
813.539	7
814.283	7
815.026	5
815.769	4
816.511	5
817.254	5
817.997	5
818.74	5
819.482	4
820.225	4
820.967	5
821.71	3
822.452	5
823.194	5
823.936	5
824.678	4
825.42	6
826.162	4
826.904	6
827.646	4
828.388	4
829.129	4
829.871	5
830.612	6
831.354	6
832.095	3
832.836	3
833.577	5
834.319	5
835.06	4
835.801	4
836.542	5
837.282	3
838.023	1
838.764	5
839.504	1
840.245	6
840.985	3
841.726	3
842.466	4
843.206	3
843.946	5
844.687	3
845.427	3
846.166	5
846.906	5
847.646	4
848.386	5
849.125	4
849.865	3
850.605	4
851.344	2
852.083	3
852.823	4
853.562	1
854.301	3
855.04	5
855.779	1
856.518	4
857.257	2
857.995	3
858.734	3
859.473	1
860.211	3
860.95	3
861.688	1
862.426	3
863.165	2
863.903	1
864.641	1
865.379	3
866.117	1
866.855	1
867.593	1
868.33	1
869.068	1
869.806	1
870.543	2
871.28	2
872.018	2
872.755	3
873.492	0
874.229	3
874.967	2
875.703	4
876.44	3
877.177	0
877.914	3
878.651	0
879.387	3
880.124	5
880.86	2
881.597	1
882.333	1
883.069	3
883.806	3
884.542	2
885.278	1
886.014	1
886.749	2
887.485	1
888.221	1
888.957	-1
889.692	2
890.428	3
891.163	0
891.899	2
892.634	-1
893.369	2
894.104	2
894.839	1
895.574	-1
896.309	-1
897.044	1
897.779	0
898.514	-2
899.248	0
899.983	-1
900.717	3
901.452	-1
902.186	0
902.92	-1
903.654	1
904.389	1
905.123	3
905.857	4
906.59	2
907.324	1
908.058	1
908.792	1
909.525	4
910.259	0
910.992	0
911.726	1
912.459	1
913.192	1
913.925	1
914.658	2
915.391	0
916.124	3
916.857	1
917.59	1
918.323	2
919.055	1
919.788	1
920.521	0
921.253	2
921.985	1
922.718	2
923.45	-1
924.182	1
924.914	1
925.646	0
926.378	0
927.11	3
927.841	0
928.573	-1
929.305	-1
930.036	0
930.768	1
931.499	0
932.23	-1
932.962	3
933.693	-1
934.424	1
935.155	-1
935.886	2
936.617	1
937.348	-1
938.078	1
938.809	1
939.54	1
940.27	3
941.001	0
941.731	3
942.461	-2
943.191	1
943.922	0
944.652	1
945.382	0
946.112	0
946.841	1
947.571	2
948.301	-1
949.031	3
949.76	-1
950.49	1
951.219	-1
951.948	1
952.678	1
953.407	0
954.136	-2
954.865	1
955.594	1
956.323	1
957.052	0
957.78	1
958.509	1
959.238	1
959.966	0
960.695	1
961.423	1
962.151	1
962.88	1
963.608	-1
964.336	2
965.064	-1
965.792	1
966.52	1
967.247	1
967.975	0
968.703	0
969.43	1
970.158	1
970.885	0
971.613	1
972.34	1
973.067	2
973.794	0
974.521	1
975.248	1
975.975	0
976.702	1
977.429	1
978.156	0
978.882	2
979.609	1
980.335	1
981.062	1
981.788	1
982.514	-1
983.24	1
983.967	0
984.693	0
985.419	2
986.144	1
986.87	1
987.596	1
988.322	1
989.047	1
989.773	1
990.498	2
991.224	0
991.949	1
992.674	-1
993.399	-2
994.124	1
994.849	0
995.574	2
996.299	1
997.024	1
997.749	2
998.473	0
999.198	1
999.922	1
1000.647	0
1001.371	3
1002.095	-1
1002.82	0
1003.544	-1
1004.268	1
1004.992	1
1005.716	3
1006.439	1
1007.163	2
1007.887	3
1008.611	2
1009.334	-1
1010.058	3
1010.781	2
1011.504	2
1012.228	1
1012.951	0
1013.674	1
1014.397	-2
1015.12	0
