节点500_285_QEPB04081__100__14-57-13-298.txt的数据

Date: Wed Nov 12 14:57:13 CST 2025
User: PC
Spectrometer: QEPB0408
触发模式: 0
积分时间 (秒): 1.000000E-2
Scans to average: 1
启用暗噪声校正: true
启用非线性校正: false
滑动平均宽度: 0
X轴模式: Wavelengths
Number of Pixels in Spectrum: 1044
>>>>>Begin Spectral Data<<<<<
220.843	3.5
221.644	1.5
222.444	1.5
223.244	1.5
224.045	3.5
224.845	4.5
225.645	2.5
226.445	3.5
227.245	2.5
228.045	3.5
228.845	4.5
229.645	3.5
230.444	3.5
231.244	2.5
232.043	3.5
232.843	4.5
233.642	3.5
234.442	2.5
235.241	3.5
236.04	0.5
236.839	4.5
237.638	5.5
238.437	5.5
239.236	4.5
240.035	6.5
240.833	5.5
241.632	6.5
242.43	2.5
243.229	4.5
244.027	5.5
244.826	4.5
245.624	5.5
246.422	7.5
247.22	4.5
248.018	5.5
248.816	6.5
249.614	7.5
250.412	8.5
251.21	6.5
252.007	7.5
252.805	7.5
253.602	6.5
254.4	9.5
255.197	9.5
255.994	8.5
256.791	6.5
257.589	9.5
258.386	10.5
259.183	12.5
259.979	10.5
260.776	9.5
261.573	8.5
262.37	11.5
263.166	13.5
263.963	13.5
264.759	13.5
265.556	13.5
266.352	14.5
267.148	13.5
267.944	15.5
268.74	14.5
269.536	14.5
270.332	15.5
271.128	18.5
271.924	18.5
272.719	17.5
273.515	17.5
274.311	19.5
275.106	17.5
275.901	17.5
276.697	16.5
277.492	16.5
278.287	18.5
279.082	20.5
279.877	19.5
280.672	19.5
281.467	22.5
282.262	21.5
283.056	20.5
283.851	19.5
284.646	21.5
285.44	20.5
286.234	20.5
287.029	20.5
287.823	20.5
288.617	17.5
289.411	22.5
290.205	22.5
290.999	17.5
291.793	19.5
292.587	19.5
293.381	17.5
294.174	19.5
294.968	17.5
295.761	17.5
296.555	12.5
297.348	17.5
298.141	14.5
298.935	16.5
299.728	15.5
300.521	15.5
301.314	14.5
302.107	13.5
302.899	14.5
303.692	15.5
304.485	12.5
305.277	14.5
306.07	13.5
306.862	13.5
307.655	11.5
308.447	11.5
309.239	10.5
310.031	10.5
310.823	11.5
311.615	10.5
312.407	9.5
313.199	12.5
313.991	8.5
314.783	9.5
315.574	9.5
316.366	9.5
317.157	7.5
317.949	8.5
318.74	7.5
319.531	7.5
320.322	7.5
321.113	8.5
321.904	9.5
322.695	8.5
323.486	7.5
324.277	9.5
325.068	7.5
325.858	9.5
326.649	8.5
327.439	5.5
328.23	7.5
329.02	5.5
329.81	8.5
330.6	7.5
331.391	6.5
332.181	7.5
332.971	7.5
333.76	7.5
334.55	6.5
335.34	7.5
336.13	6.5
336.919	7.5
337.709	7.5
338.498	7.5
339.287	7.5
340.077	4.5
340.866	7.5
341.655	4.5
342.444	6.5
343.233	6.5
344.022	6.5
344.811	4.5
345.6	5.5
346.388	6.5
347.177	5.5
347.965	7.5
348.754	6.5
349.542	5.5
350.33	5.5
351.119	7.5
351.907	5.5
352.695	6.5
353.483	4.5
354.271	7.5
355.059	7.5
355.846	4.5
356.634	5.5
357.422	6.5
358.209	6.5
358.997	6.5
359.784	5.5
360.571	7.5
361.359	6.5
362.146	4.5
362.933	4.5
363.72	5.5
364.507	5.5
365.294	8.5
366.081	5.5
366.867	4.5
367.654	6.5
368.44	4.5
369.227	3.5
370.013	6.5
370.8	5.5
371.586	5.5
372.372	4.5
373.158	6.5
373.944	4.5
374.73	7.5
375.516	7.5
376.302	5.5
377.088	6.5
377.873	5.5
378.659	6.5
379.445	4.5
380.23	2.5
381.015	4.5
381.801	4.5
382.586	6.5
383.371	6.5
384.156	6.5
384.941	5.5
385.726	6.5
386.511	5.5
387.296	7.5
388.08	6.5
388.865	7.5
389.649	5.5
390.434	7.5
391.218	6.5
392.003	8.5
392.787	5.5
393.571	7.5
394.355	7.5
395.139	8.5
395.923	6.5
396.707	5.5
397.491	8.5
398.274	7.5
399.058	8.5
399.842	6.5
400.625	7.5
401.408	9.5
402.192	7.5
402.975	8.5
403.758	5.5
404.541	7.5
405.324	7.5
406.107	5.5
406.89	9.5
407.673	9.5
408.456	8.5
409.238	8.5
410.021	7.5
410.803	7.5
411.586	8.5
412.368	11.5
413.151	10.5
413.933	9.5
414.715	10.5
415.497	12.5
416.279	9.5
417.061	10.5
417.843	10.5
418.624	11.5
419.406	11.5
420.188	11.5
420.969	11.5
421.751	9.5
422.532	10.5
423.313	11.5
424.095	10.5
424.876	12.5
425.657	13.5
426.438	12.5
427.219	10.5
428	14.5
428.78	10.5
429.561	11.5
430.342	13.5
431.122	14.5
431.903	13.5
432.683	16.5
433.464	17.5
434.244	15.5
435.024	17.5
435.804	19.5
436.584	18.5
437.364	17.5
438.144	18.5
438.924	20.5
439.704	20.5
440.483	25.5
441.263	24.5
442.042	22.5
442.822	27.5
443.601	27.5
444.38	29.5
445.16	30.5
445.939	29.5
446.718	36.5
447.497	37.5
448.276	40.5
449.054	39.5
449.833	46.5
450.612	49.5
451.391	56.5
452.169	61.5
452.948	66.5
453.726	69.5
454.504	79.5
455.282	83.5
456.061	96.5
456.839	97.5
457.617	117.5
458.395	123.5
459.172	143.5
459.95	157.5
460.728	179.5
461.506	196.5
462.283	224.5
463.061	247.5
463.838	265.5
464.615	298.5
465.393	345.5
466.17	371.5
466.947	416.5
467.724	481.5
468.501	534.5
469.278	589.5
470.055	662.5
470.831	725.5
471.608	814.5
472.385	911.5
473.161	1026.5
473.938	1122.5
474.714	1261.5
475.49	1400.5
476.266	1544.5
477.043	1714.5
477.819	1918.5
478.595	2104.5
479.371	2326.5
480.146	2605.5
480.922	2876.5
481.698	3188.5
482.473	3502.5
483.249	3927.5
484.024	4314.5
484.8	4756.5
485.575	5262.5
486.35	5791.5
487.126	6374.5
487.901	7029.5
488.676	7753.5
489.451	8501.5
490.225	9324.5
491	10234.5
491.775	11229.5
492.55	12247.5
493.324	13266.5
494.099	14330.5
494.873	15453.5
495.647	16786.5
496.422	18009.5
497.196	19265.5
497.97	20579.5
498.744	21827.5
499.518	23020.5
500.292	24211.5
501.066	25314.5
501.839	26258.5
502.613	27096.5
503.387	27781.5
504.16	28450.5
504.934	28546.5
505.707	28577.5
506.48	28565.5
507.253	28342.5
508.027	27904.5
508.8	27507.5
509.573	26850.5
510.346	26078.5
511.118	25183.5
511.891	24239.5
512.664	23324.5
513.437	22429.5
514.209	21374.5
514.982	20395.5
515.754	19487.5
516.526	18608.5
517.298	17795.5
518.071	16969.5
518.843	16390.5
519.615	15669.5
520.387	15144.5
521.159	14499.5
521.93	13913.5
522.702	13342.5
523.474	12804.5
524.245	12288.5
525.017	11724.5
525.788	11273.5
526.56	10751.5
527.331	10217.5
528.102	9720.5
528.873	9320.5
529.644	8805.5
530.415	8349.5
531.186	7889.5
531.957	7511.5
532.728	7086.5
533.498	6711.5
534.269	6336.5
535.039	5931.5
535.81	5655.5
536.58	5320.5
537.351	5031.5
538.121	4739.5
538.891	4484.5
539.661	4217.5
540.431	3990.5
541.201	3793.5
541.971	3587.5
542.741	3392.5
543.51	3239.5
544.28	3081.5
545.05	2943.5
545.819	2784.5
546.588	2652.5
547.358	2526.5
548.127	2399.5
548.896	2252.5
549.665	2148.5
550.434	2038.5
551.203	1929.5
551.972	1820.5
552.741	1701.5
553.51	1619.5
554.278	1526.5
555.047	1435.5
555.815	1353.5
556.584	1297.5
557.352	1220.5
558.121	1141.5
558.889	1089.5
559.657	1023.5
560.425	958.5
561.193	899.5
561.961	845.5
562.729	809.5
563.496	769.5
564.264	711.5
565.032	689.5
565.799	637.5
566.567	619.5
567.334	573.5
568.101	542.5
568.869	516.5
569.636	480.5
570.403	460.5
571.17	428.5
571.937	400.5
572.704	383.5
573.471	362.5
574.237	343.5
575.004	325.5
575.771	306.5
576.537	283.5
577.303	267.5
578.07	251.5
578.836	238.5
579.602	220.5
580.368	213.5
581.134	199.5
581.9	192.5
582.666	177.5
583.432	169.5
584.198	160.5
584.964	151.5
585.729	147.5
586.495	137.5
587.26	129.5
588.025	120.5
588.791	113.5
589.556	115.5
590.321	107.5
591.086	97.5
591.851	98.5
592.616	87.5
593.381	87.5
594.146	82.5
594.911	81.5
595.675	75.5
596.44	73.5
597.204	72.5
597.969	66.5
598.733	61.5
599.497	60.5
600.261	58.5
601.025	55.5
601.79	50.5
602.553	48.5
603.317	46.5
604.081	47.5
604.845	42.5
605.609	43.5
606.372	40.5
607.136	42.5
607.899	36.5
608.662	37.5
609.426	35.5
610.189	33.5
610.952	33.5
611.715	29.5
612.478	28.5
613.241	27.5
614.004	25.5
614.767	26.5
615.529	25.5
616.292	24.5
617.055	24.5
617.817	21.5
618.579	26.5
619.342	22.5
620.104	21.5
620.866	21.5
621.628	18.5
622.39	19.5
623.152	19.5
623.914	17.5
624.676	15.5
625.438	17.5
626.199	16.5
626.961	16.5
627.722	16.5
628.484	14.5
629.245	12.5
630.006	15.5
630.768	12.5
631.529	11.5
632.29	13.5
633.051	10.5
633.812	11.5
634.573	13.5
635.333	11.5
636.094	9.5
636.855	8.5
637.615	9.5
638.376	8.5
639.136	9.5
639.896	9.5
640.657	9.5
641.417	9.5
642.177	11.5
642.937	9.5
643.697	7.5
644.457	9.5
645.216	9.5
645.976	8.5
646.736	8.5
647.495	8.5
648.255	8.5
649.014	7.5
649.774	7.5
650.533	5.5
651.292	8.5
652.051	7.5
652.81	8.5
653.569	5.5
654.328	8.5
655.087	7.5
655.846	6.5
656.604	6.5
657.363	7.5
658.121	4.5
658.88	5.5
659.638	7.5
660.397	5.5
661.155	5.5
661.913	4.5
662.671	9.5
663.429	4.5
664.187	5.5
664.945	6.5
665.703	5.5
666.46	6.5
667.218	6.5
667.976	5.5
668.733	5.5
669.49	7.5
670.248	5.5
671.005	6.5
671.762	3.5
672.519	3.5
673.276	4.5
674.033	3.5
674.79	5.5
675.547	5.5
676.304	3.5
677.06	3.5
677.817	5.5
678.574	3.5
679.33	2.5
680.086	1.5
680.843	5.5
681.599	4.5
682.355	5.5
683.111	6.5
683.867	3.5
684.623	5.5
685.379	4.5
686.135	1.5
686.89	4.5
687.646	7.5
688.402	4.5
689.157	4.5
689.912	4.5
690.668	5.5
691.423	3.5
692.178	3.5
692.933	4.5
693.688	2.5
694.443	3.5
695.198	3.5
695.953	4.5
696.708	3.5
697.462	3.5
698.217	3.5
698.972	3.5
699.726	3.5
700.48	7.5
701.235	4.5
701.989	1.5
702.743	4.5
703.497	4.5
704.251	5.5
705.005	5.5
705.759	4.5
706.513	4.5
707.266	3.5
708.02	5.5
708.774	6.5
709.527	5.5
710.28	6.5
711.034	4.5
711.787	5.5
712.54	3.5
713.293	4.5
714.046	4.5
714.799	5.5
715.552	2.5
716.305	3.5
717.058	5.5
717.81	3.5
718.563	3.5
719.315	6.5
720.068	2.5
720.82	6.5
721.573	3.5
722.325	4.5
723.077	4.5
723.829	4.5
724.581	4.5
725.333	4.5
726.085	2.5
726.836	5.5
727.588	6.5
728.34	4.5
729.091	4.5
729.843	4.5
730.594	4.5
731.346	7.5
732.097	4.5
732.848	6.5
733.599	3.5
734.35	4.5
735.101	4.5
735.852	4.5
736.603	3.5
737.354	2.5
738.104	3.5
738.855	5.5
739.605	5.5
740.356	8.5
741.106	4.5
741.856	6.5
742.607	4.5
743.357	6.5
744.107	3.5
744.857	4.5
745.607	5.5
746.357	6.5
747.106	3.5
747.856	8.5
748.606	6.5
749.355	5.5
750.105	4.5
750.854	7.5
751.603	7.5
752.353	6.5
753.102	5.5
753.851	3.5
754.6	7.5
755.349	5.5
756.098	5.5
756.847	7.5
757.595	7.5
758.344	7.5
759.093	6.5
759.841	7.5
760.589	6.5
761.338	7.5
762.086	6.5
762.834	5.5
763.582	7.5
764.331	5.5
765.079	7.5
765.826	8.5
766.574	7.5
767.322	10.5
768.07	9.5
768.817	6.5
769.565	6.5
770.312	10.5
771.06	7.5
771.807	6.5
772.554	7.5
773.302	7.5
774.049	7.5
774.796	9.5
775.543	8.5
776.29	8.5
777.036	10.5
777.783	7.5
778.53	10.5
779.276	12.5
780.023	10.5
780.769	8.5
781.516	10.5
782.262	8.5
783.008	8.5
783.754	10.5
784.5	10.5
785.246	9.5
785.992	9.5
786.738	8.5
787.484	8.5
788.23	7.5
788.975	7.5
789.721	11.5
790.466	9.5
791.212	8.5
791.957	7.5
792.702	10.5
793.447	9.5
794.193	9.5
794.938	8.5
795.683	10.5
796.427	8.5
797.172	8.5
797.917	10.5
798.662	7.5
799.406	8.5
800.151	8.5
800.895	9.5
801.64	8.5
802.384	7.5
803.128	8.5
803.872	7.5
804.616	5.5
805.36	6.5
806.104	5.5
806.848	6.5
807.592	7.5
808.336	8.5
809.079	5.5
809.823	7.5
810.566	8.5
811.31	4.5
812.053	8.5
812.796	4.5
813.539	7.5
814.283	6.5
815.026	7.5
815.769	4.5
816.511	4.5
817.254	4.5
817.997	6.5
818.74	7.5
819.482	4.5
820.225	6.5
820.967	5.5
821.71	5.5
822.452	7.5
823.194	5.5
823.936	7.5
824.678	3.5
825.42	2.5
826.162	4.5
826.904	3.5
827.646	5.5
828.388	5.5
829.129	4.5
829.871	2.5
830.612	3.5
831.354	4.5
832.095	5.5
832.836	6.5
833.577	4.5
834.319	5.5
835.06	3.5
835.801	3.5
836.542	4.5
837.282	4.5
838.023	1.5
838.764	2.5
839.504	5.5
840.245	3.5
840.985	3.5
841.726	4.5
842.466	1.5
843.206	1.5
843.946	4.5
844.687	2.5
845.427	4.5
846.166	4.5
846.906	1.5
847.646	4.5
848.386	1.5
849.125	4.5
849.865	4.5
850.605	4.5
851.344	2.5
852.083	2.5
852.823	4.5
853.562	3.5
854.301	3.5
855.04	3.5
855.779	0.5
856.518	1.5
857.257	1.5
857.995	5.5
858.734	2.5
859.473	1.5
860.211	2.5
860.95	0.5
861.688	5.5
862.426	2.5
863.165	3.5
863.903	1.5
864.641	-0.5
865.379	1.5
866.117	0.5
866.855	1.5
867.593	0.5
868.33	2.5
869.068	1.5
869.806	0.5
870.543	1.5
871.28	0.5
872.018	3.5
872.755	1.5
873.492	2.5
874.229	2.5
874.967	1.5
875.703	3.5
876.44	0.5
877.177	0.5
877.914	1.5
878.651	1.5
879.387	2.5
880.124	1.5
880.86	2.5
881.597	2.5
882.333	1.5
883.069	1.5
883.806	0.5
884.542	3.5
885.278	2.5
886.014	2.5
886.749	2.5
887.485	4.5
888.221	1.5
888.957	0.5
889.692	-0.5
890.428	1.5
891.163	0.5
891.899	0.5
892.634	0.5
893.369	0.5
894.104	1.5
894.839	1.5
895.574	1.5
896.309	0.5
897.044	1.5
897.779	1.5
898.514	0.5
899.248	1.5
899.983	-0.5
900.717	0.5
901.452	0.5
902.186	2.5
902.92	1.5
903.654	1.5
904.389	0.5
905.123	0.5
905.857	1.5
906.59	0.5
907.324	-0.5
908.058	2.5
908.792	-2.5
909.525	1.5
910.259	0.5
910.992	1.5
911.726	1.5
912.459	1.5
913.192	2.5
913.925	-0.5
914.658	-0.5
915.391	-0.5
916.124	0.5
916.857	1.5
917.59	-2.5
918.323	1.5
919.055	-0.5
919.788	2.5
920.521	0.5
921.253	-1.5
921.985	4.5
922.718	1.5
923.45	1.5
924.182	1.5
924.914	0.5
925.646	-0.5
926.378	3.5
927.11	1.5
927.841	-0.5
928.573	2.5
929.305	0.5
930.036	0.5
930.768	1.5
931.499	1.5
932.23	0.5
932.962	3.5
933.693	2.5
934.424	1.5
935.155	0.5
935.886	0.5
936.617	0.5
937.348	3.5
938.078	1.5
938.809	2.5
939.54	0.5
940.27	0.5
941.001	-0.5
941.731	1.5
942.461	1.5
943.191	0.5
943.922	2.5
944.652	2.5
945.382	0.5
946.112	-0.5
946.841	0.5
947.571	1.5
948.301	-0.5
949.031	0.5
949.76	-1.5
950.49	1.5
951.219	0.5
951.948	0.5
952.678	0.5
953.407	1.5
954.136	0.5
954.865	1.5
955.594	2.5
956.323	2.5
957.052	0.5
957.78	-0.5
958.509	-0.5
959.238	-1.5
959.966	1.5
960.695	-0.5
961.423	2.5
962.151	0.5
962.88	0.5
963.608	2.5
964.336	1.5
965.064	2.5
965.792	-0.5
966.52	1.5
967.247	1.5
967.975	0.5
968.703	1.5
969.43	1.5
970.158	-1.5
970.885	-1.5
971.613	-0.5
972.34	2.5
973.067	-1.5
973.794	1.5
974.521	1.5
975.248	-0.5
975.975	2.5
976.702	-0.5
977.429	1.5
978.156	-1.5
978.882	-0.5
979.609	1.5
980.335	-0.5
981.062	1.5
981.788	-0.5
982.514	1.5
983.24	0.5
983.967	1.5
984.693	3.5
985.419	0.5
986.144	0.5
986.87	-0.5
987.596	-0.5
988.322	-0.5
989.047	-0.5
989.773	0.5
990.498	-0.5
991.224	1.5
991.949	1.5
992.674	0.5
993.399	-0.5
994.124	-0.5
994.849	1.5
995.574	0.5
996.299	2.5
997.024	1.5
997.749	-0.5
998.473	1.5
999.198	-0.5
999.922	3.5
1000.647	0.5
1001.371	1.5
1002.095	-1.5
1002.82	-1.5
1003.544	-0.5
1004.268	2.5
1004.992	1.5
1005.716	2.5
1006.439	0.5
1007.163	4.5
1007.887	0.5
1008.611	-2.5
1009.334	-0.5
1010.058	0.5
1010.781	-0.5
1011.504	1.5
1012.228	2.5
1012.951	0.5
1013.674	-0.5
1014.397	1.5
1015.12	0.5
