节点500_285_QEPB04081__81__14-56-54-333.txt的数据

Date: Wed Nov 12 14:56:54 CST 2025
User: PC
Spectrometer: QEPB0408
触发模式: 0
积分时间 (秒): 1.000000E-2
Scans to average: 1
启用暗噪声校正: true
启用非线性校正: false
滑动平均宽度: 0
X轴模式: Wavelengths
Number of Pixels in Spectrum: 1044
>>>>>Begin Spectral Data<<<<<
220.843	1.12
221.644	1.12
222.444	1.12
223.244	3.12
224.045	3.12
224.845	1.12
225.645	3.12
226.445	1.12
227.245	4.12
228.045	1.12
228.845	2.12
229.645	4.12
230.444	4.12
231.244	3.12
232.043	3.12
232.843	2.12
233.642	1.12
234.442	3.12
235.241	3.12
236.04	1.12
236.839	3.12
237.638	5.12
238.437	4.12
239.236	4.12
240.035	3.12
240.833	4.12
241.632	3.12
242.43	6.12
243.229	5.12
244.027	3.12
244.826	3.12
245.624	3.12
246.422	7.12
247.22	6.12
248.018	7.12
248.816	6.12
249.614	7.12
250.412	6.12
251.21	7.12
252.007	6.12
252.805	6.12
253.602	9.12
254.4	6.12
255.197	7.12
255.994	8.12
256.791	7.12
257.589	7.12
258.386	12.12
259.183	8.12
259.979	7.12
260.776	11.12
261.573	13.12
262.37	14.12
263.166	14.12
263.963	13.12
264.759	12.12
265.556	16.12
266.352	9.12
267.148	13.12
267.944	12.12
268.74	13.12
269.536	17.12
270.332	13.12
271.128	16.12
271.924	19.12
272.719	15.12
273.515	15.12
274.311	14.12
275.106	19.12
275.901	20.12
276.697	20.12
277.492	17.12
278.287	20.12
279.082	18.12
279.877	17.12
280.672	18.12
281.467	21.12
282.262	20.12
283.056	20.12
283.851	18.12
284.646	21.12
285.44	20.12
286.234	23.12
287.029	21.12
287.823	19.12
288.617	20.12
289.411	18.12
290.205	19.12
290.999	19.12
291.793	18.12
292.587	17.12
293.381	17.12
294.174	20.12
294.968	17.12
295.761	15.12
296.555	18.12
297.348	17.12
298.141	15.12
298.935	14.12
299.728	13.12
300.521	12.12
301.314	14.12
302.107	13.12
302.899	14.12
303.692	14.12
304.485	13.12
305.277	11.12
306.07	13.12
306.862	13.12
307.655	12.12
308.447	10.12
309.239	10.12
310.031	11.12
310.823	11.12
311.615	9.12
312.407	10.12
313.199	12.12
313.991	10.12
314.783	9.12
315.574	10.12
316.366	10.12
317.157	8.12
317.949	8.12
318.74	8.12
319.531	7.12
320.322	4.12
321.113	8.12
321.904	8.12
322.695	7.12
323.486	7.12
324.277	9.12
325.068	7.12
325.858	9.12
326.649	6.12
327.439	7.12
328.23	5.12
329.02	9.12
329.81	8.12
330.6	7.12
331.391	6.12
332.181	6.12
332.971	6.12
333.76	7.12
334.55	6.12
335.34	5.12
336.13	5.12
336.919	6.12
337.709	7.12
338.498	7.12
339.287	6.12
340.077	6.12
340.866	5.12
341.655	6.12
342.444	6.12
343.233	7.12
344.022	6.12
344.811	8.12
345.6	6.12
346.388	6.12
347.177	5.12
347.965	7.12
348.754	6.12
349.542	5.12
350.33	7.12
351.119	6.12
351.907	4.12
352.695	6.12
353.483	4.12
354.271	6.12
355.059	5.12
355.846	6.12
356.634	5.12
357.422	5.12
358.209	7.12
358.997	6.12
359.784	4.12
360.571	8.12
361.359	4.12
362.146	3.12
362.933	6.12
363.72	2.12
364.507	5.12
365.294	5.12
366.081	2.12
366.867	5.12
367.654	2.12
368.44	6.12
369.227	6.12
370.013	7.12
370.8	6.12
371.586	6.12
372.372	4.12
373.158	6.12
373.944	7.12
374.73	8.12
375.516	5.12
376.302	5.12
377.088	4.12
377.873	5.12
378.659	4.12
379.445	6.12
380.23	7.12
381.015	7.12
381.801	6.12
382.586	8.12
383.371	5.12
384.156	7.12
384.941	5.12
385.726	6.12
386.511	7.12
387.296	5.12
388.08	5.12
388.865	7.12
389.649	5.12
390.434	5.12
391.218	5.12
392.003	6.12
392.787	6.12
393.571	6.12
394.355	7.12
395.139	6.12
395.923	7.12
396.707	3.12
397.491	7.12
398.274	6.12
399.058	6.12
399.842	8.12
400.625	7.12
401.408	6.12
402.192	7.12
402.975	7.12
403.758	9.12
404.541	9.12
405.324	9.12
406.107	9.12
406.89	8.12
407.673	9.12
408.456	8.12
409.238	8.12
410.021	12.12
410.803	7.12
411.586	9.12
412.368	6.12
413.151	8.12
413.933	10.12
414.715	8.12
415.497	9.12
416.279	7.12
417.061	9.12
417.843	9.12
418.624	8.12
419.406	11.12
420.188	9.12
420.969	7.12
421.751	10.12
422.532	12.12
423.313	9.12
424.095	13.12
424.876	11.12
425.657	11.12
426.438	12.12
427.219	13.12
428	13.12
428.78	11.12
429.561	13.12
430.342	13.12
431.122	10.12
431.903	15.12
432.683	16.12
433.464	14.12
434.244	17.12
435.024	16.12
435.804	20.12
436.584	20.12
437.364	21.12
438.144	20.12
438.924	19.12
439.704	22.12
440.483	21.12
441.263	26.12
442.042	26.12
442.822	28.12
443.601	29.12
444.38	29.12
445.16	31.12
445.939	34.12
446.718	38.12
447.497	37.12
448.276	39.12
449.054	47.12
449.833	48.12
450.612	49.12
451.391	52.12
452.169	57.12
452.948	65.12
453.726	69.12
454.504	77.12
455.282	85.12
456.061	98.12
456.839	100.12
457.617	108.12
458.395	123.12
459.172	139.12
459.95	159.12
460.728	171.12
461.506	192.12
462.283	217.12
463.061	241.12
463.838	264.12
464.615	299.12
465.393	336.12
466.17	377.12
466.947	429.12
467.724	466.12
468.501	532.12
469.278	585.12
470.055	651.12
470.831	734.12
471.608	819.12
472.385	905.12
473.161	1009.12
473.938	1133.12
474.714	1261.12
475.49	1397.12
476.266	1553.12
477.043	1717.12
477.819	1920.12
478.595	2120.12
479.371	2353.12
480.146	2603.12
480.922	2875.12
481.698	3191.12
482.473	3539.12
483.249	3916.12
484.024	4292.12
484.8	4768.12
485.575	5263.12
486.35	5827.12
487.126	6381.12
487.901	7056.12
488.676	7789.12
489.451	8553.12
490.225	9391.12
491	10314.12
491.775	11308.12
492.55	12313.12
493.324	13359.12
494.099	14423.12
494.873	15608.12
495.647	16907.12
496.422	18105.12
497.196	19364.12
497.97	20742.12
498.744	22022.12
499.518	23238.12
500.292	24438.12
501.066	25486.12
501.839	26430.12
502.613	27289.12
503.387	28006.12
504.16	28525.12
504.934	28732.12
505.707	28763.12
506.48	28756.12
507.253	28426.12
508.027	28007.12
508.8	27558.12
509.573	26829.12
510.346	26056.12
511.118	25134.12
511.891	24281.12
512.664	23319.12
513.437	22360.12
514.209	21419.12
514.982	20341.12
515.754	19488.12
516.526	18561.12
517.298	17741.12
518.071	16958.12
518.843	16308.12
519.615	15690.12
520.387	15100.12
521.159	14475.12
521.93	13902.12
522.702	13376.12
523.474	12817.12
524.245	12251.12
525.017	11676.12
525.788	11259.12
526.56	10703.12
527.331	10185.12
528.102	9742.12
528.873	9266.12
529.644	8777.12
530.415	8325.12
531.186	7896.12
531.957	7446.12
532.728	7068.12
533.498	6708.12
534.269	6284.12
535.039	5947.12
535.81	5628.12
536.58	5296.12
537.351	5010.12
538.121	4722.12
538.891	4458.12
539.661	4226.12
540.431	4005.12
541.201	3746.12
541.971	3584.12
542.741	3392.12
543.51	3199.12
544.28	3072.12
545.05	2921.12
545.819	2784.12
546.588	2638.12
547.358	2483.12
548.127	2349.12
548.896	2266.12
549.665	2122.12
550.434	2024.12
551.203	1921.12
551.972	1822.12
552.741	1706.12
553.51	1611.12
554.278	1517.12
555.047	1429.12
555.815	1356.12
556.584	1279.12
557.352	1213.12
558.121	1128.12
558.889	1067.12
559.657	1011.12
560.425	949.12
561.193	893.12
561.961	851.12
562.729	803.12
563.496	759.12
564.264	722.12
565.032	674.12
565.799	643.12
566.567	611.12
567.334	571.12
568.101	539.12
568.869	508.12
569.636	482.12
570.403	449.12
571.17	424.12
571.937	403.12
572.704	383.12
573.471	360.12
574.237	342.12
575.004	315.12
575.771	297.12
576.537	286.12
577.303	263.12
578.07	246.12
578.836	229.12
579.602	221.12
580.368	212.12
581.134	201.12
581.9	186.12
582.666	176.12
583.432	167.12
584.198	160.12
584.964	155.12
585.729	147.12
586.495	135.12
587.26	134.12
588.025	119.12
588.791	117.12
589.556	113.12
590.321	107.12
591.086	101.12
591.851	97.12
592.616	89.12
593.381	87.12
594.146	77.12
594.911	78.12
595.675	72.12
596.44	68.12
597.204	70.12
597.969	68.12
598.733	58.12
599.497	61.12
600.261	56.12
601.025	52.12
601.79	53.12
602.553	48.12
603.317	46.12
604.081	46.12
604.845	43.12
605.609	41.12
606.372	43.12
607.136	37.12
607.899	37.12
608.662	35.12
609.426	32.12
610.189	33.12
610.952	29.12
611.715	31.12
612.478	27.12
613.241	27.12
614.004	27.12
614.767	28.12
615.529	25.12
616.292	25.12
617.055	22.12
617.817	22.12
618.579	23.12
619.342	20.12
620.104	20.12
620.866	18.12
621.628	18.12
622.39	19.12
623.152	22.12
623.914	16.12
624.676	13.12
625.438	17.12
626.199	16.12
626.961	15.12
627.722	14.12
628.484	17.12
629.245	13.12
630.006	15.12
630.768	11.12
631.529	11.12
632.29	13.12
633.051	12.12
633.812	9.12
634.573	12.12
635.333	12.12
636.094	11.12
636.855	9.12
637.615	10.12
638.376	9.12
639.136	11.12
639.896	7.12
640.657	10.12
641.417	9.12
642.177	9.12
642.937	8.12
643.697	10.12
644.457	10.12
645.216	9.12
645.976	10.12
646.736	9.12
647.495	6.12
648.255	10.12
649.014	8.12
649.774	7.12
650.533	7.12
651.292	8.12
652.051	8.12
652.81	7.12
653.569	6.12
654.328	6.12
655.087	7.12
655.846	9.12
656.604	7.12
657.363	5.12
658.121	5.12
658.88	3.12
659.638	6.12
660.397	6.12
661.155	5.12
661.913	7.12
662.671	5.12
663.429	4.12
664.187	2.12
664.945	7.12
665.703	4.12
666.46	4.12
667.218	3.12
667.976	5.12
668.733	7.12
669.49	5.12
670.248	5.12
671.005	5.12
671.762	4.12
672.519	3.12
673.276	7.12
674.033	6.12
674.79	3.12
675.547	5.12
676.304	4.12
677.06	4.12
677.817	4.12
678.574	5.12
679.33	3.12
680.086	5.12
680.843	4.12
681.599	3.12
682.355	3.12
683.111	6.12
683.867	2.12
684.623	6.12
685.379	3.12
686.135	4.12
686.89	2.12
687.646	3.12
688.402	5.12
689.157	3.12
689.912	3.12
690.668	3.12
691.423	1.12
692.178	3.12
692.933	4.12
693.688	3.12
694.443	3.12
695.198	4.12
695.953	4.12
696.708	5.12
697.462	4.12
698.217	4.12
698.972	0.12
699.726	4.12
700.48	3.12
701.235	3.12
701.989	2.12
702.743	2.12
703.497	2.12
704.251	3.12
705.005	4.12
705.759	6.12
706.513	3.12
707.266	5.12
708.02	4.12
708.774	2.12
709.527	4.12
710.28	4.12
711.034	1.12
711.787	3.12
712.54	2.12
713.293	1.12
714.046	4.12
714.799	3.12
715.552	2.12
716.305	0.12
717.058	2.12
717.81	3.12
718.563	4.12
719.315	4.12
720.068	2.12
720.82	3.12
721.573	5.12
722.325	4.12
723.077	5.12
723.829	2.12
724.581	2.12
725.333	4.12
726.085	4.12
726.836	5.12
727.588	3.12
728.34	5.12
729.091	4.12
729.843	4.12
730.594	5.12
731.346	6.12
732.097	4.12
732.848	3.12
733.599	6.12
734.35	2.12
735.101	4.12
735.852	3.12
736.603	6.12
737.354	5.12
738.104	5.12
738.855	3.12
739.605	7.12
740.356	3.12
741.106	7.12
741.856	4.12
742.607	4.12
743.357	5.12
744.107	2.12
744.857	5.12
745.607	6.12
746.357	5.12
747.106	5.12
747.856	4.12
748.606	5.12
749.355	5.12
750.105	7.12
750.854	4.12
751.603	5.12
752.353	4.12
753.102	5.12
753.851	6.12
754.6	3.12
755.349	6.12
756.098	4.12
756.847	7.12
757.595	5.12
758.344	4.12
759.093	7.12
759.841	9.12
760.589	5.12
761.338	8.12
762.086	6.12
762.834	7.12
763.582	6.12
764.331	9.12
765.079	8.12
765.826	9.12
766.574	8.12
767.322	8.12
768.07	7.12
768.817	7.12
769.565	6.12
770.312	8.12
771.06	8.12
771.807	6.12
772.554	11.12
773.302	9.12
774.049	9.12
774.796	9.12
775.543	9.12
776.29	10.12
777.036	9.12
777.783	10.12
778.53	10.12
779.276	12.12
780.023	8.12
780.769	10.12
781.516	8.12
782.262	10.12
783.008	9.12
783.754	9.12
784.5	10.12
785.246	9.12
785.992	10.12
786.738	7.12
787.484	10.12
788.23	9.12
788.975	8.12
789.721	8.12
790.466	10.12
791.212	9.12
791.957	8.12
792.702	7.12
793.447	10.12
794.193	8.12
794.938	9.12
795.683	8.12
796.427	9.12
797.172	8.12
797.917	10.12
798.662	8.12
799.406	8.12
800.151	8.12
800.895	6.12
801.64	9.12
802.384	6.12
803.128	7.12
803.872	9.12
804.616	7.12
805.36	6.12
806.104	5.12
806.848	6.12
807.592	6.12
808.336	6.12
809.079	7.12
809.823	6.12
810.566	6.12
811.31	5.12
812.053	6.12
812.796	5.12
813.539	4.12
814.283	6.12
815.026	5.12
815.769	5.12
816.511	6.12
817.254	7.12
817.997	3.12
818.74	4.12
819.482	5.12
820.225	3.12
820.967	6.12
821.71	4.12
822.452	3.12
823.194	2.12
823.936	4.12
824.678	2.12
825.42	5.12
826.162	3.12
826.904	6.12
827.646	4.12
828.388	5.12
829.129	2.12
829.871	3.12
830.612	4.12
831.354	5.12
832.095	1.12
832.836	4.12
833.577	3.12
834.319	3.12
835.06	1.12
835.801	2.12
836.542	1.12
837.282	3.12
838.023	3.12
838.764	3.12
839.504	6.12
840.245	5.12
840.985	4.12
841.726	4.12
842.466	5.12
843.206	3.12
843.946	1.12
844.687	3.12
845.427	1.12
846.166	2.12
846.906	3.12
847.646	2.12
848.386	3.12
849.125	1.12
849.865	3.12
850.605	3.12
851.344	2.12
852.083	1.12
852.823	0.12
853.562	3.12
854.301	3.12
855.04	3.12
855.779	4.12
856.518	1.12
857.257	6.12
857.995	3.12
858.734	1.12
859.473	2.12
860.211	3.12
860.95	1.12
861.688	0.12
862.426	1.12
863.165	1.12
863.903	2.12
864.641	2.12
865.379	1.12
866.117	1.12
866.855	1.12
867.593	1.12
868.33	2.12
869.068	0.12
869.806	-0.88
870.543	1.12
871.28	1.12
872.018	5.12
872.755	3.12
873.492	3.12
874.229	1.12
874.967	2.12
875.703	0.12
876.44	0.12
877.177	4.12
877.914	3.12
878.651	1.12
879.387	0.12
880.124	0.12
880.86	0.12
881.597	3.12
882.333	1.12
883.069	1.12
883.806	0.12
884.542	2.12
885.278	0.12
886.014	1.12
886.749	-0.88
887.485	4.12
888.221	1.12
888.957	1.12
889.692	0.12
890.428	0.12
891.163	0.12
891.899	1.12
892.634	0.12
893.369	0.12
894.104	2.12
894.839	3.12
895.574	1.12
896.309	2.12
897.044	1.12
897.779	1.12
898.514	0.12
899.248	2.12
899.983	2.12
900.717	1.12
901.452	-1.88
902.186	0.12
902.92	0.12
903.654	0.12
904.389	0.12
905.123	1.12
905.857	0.12
906.59	-1.88
907.324	2.12
908.058	1.12
908.792	1.12
909.525	1.12
910.259	2.12
910.992	0.12
911.726	1.12
912.459	0.12
913.192	-1.88
913.925	-0.88
914.658	-0.88
915.391	2.12
916.124	-0.88
916.857	0.12
917.59	1.12
918.323	1.12
919.055	0.12
919.788	1.12
920.521	1.12
921.253	2.12
921.985	-0.88
922.718	0.12
923.45	1.12
924.182	2.12
924.914	-0.88
925.646	1.12
926.378	0.12
927.11	1.12
927.841	0.12
928.573	-0.88
929.305	0.12
930.036	-0.88
930.768	-0.88
931.499	0.12
932.23	-0.88
932.962	1.12
933.693	-0.88
934.424	1.12
935.155	0.12
935.886	1.12
936.617	1.12
937.348	-0.88
938.078	-0.88
938.809	0.12
939.54	0.12
940.27	0.12
941.001	0.12
941.731	1.12
942.461	-2.88
943.191	1.12
943.922	2.12
944.652	-0.88
945.382	1.12
946.112	-1.88
946.841	1.12
947.571	-1.88
948.301	1.12
949.031	1.12
949.76	-0.88
950.49	1.12
951.219	0.12
951.948	0.12
952.678	-0.88
953.407	2.12
954.136	-1.88
954.865	-0.88
955.594	1.12
956.323	-0.88
957.052	2.12
957.78	0.12
958.509	1.12
959.238	0.12
959.966	-0.88
960.695	0.12
961.423	1.12
962.151	3.12
962.88	-0.88
963.608	-2.88
964.336	0.12
965.064	-1.88
965.792	2.12
966.52	0.12
967.247	1.12
967.975	-1.88
968.703	0.12
969.43	0.12
970.158	1.12
970.885	0.12
971.613	-0.88
972.34	-0.88
973.067	1.12
973.794	0.12
974.521	1.12
975.248	1.12
975.975	-1.88
976.702	2.12
977.429	-0.88
978.156	0.12
978.882	-0.88
979.609	1.12
980.335	1.12
981.062	-0.88
981.788	2.12
982.514	2.12
983.24	0.12
983.967	1.12
984.693	-0.88
985.419	1.12
986.144	0.12
986.87	3.12
987.596	0.12
988.322	1.12
989.047	1.12
989.773	0.12
990.498	-1.88
991.224	-1.88
991.949	0.12
992.674	-0.88
993.399	-0.88
994.124	1.12
994.849	-2.88
995.574	2.12
996.299	1.12
997.024	2.12
997.749	0.12
998.473	-0.88
999.198	1.12
999.922	0.12
1000.647	-0.88
1001.371	4.12
1002.095	0.12
1002.82	0.12
1003.544	-0.88
1004.268	2.12
1004.992	1.12
1005.716	2.12
1006.439	0.12
1007.163	0.12
1007.887	2.12
1008.611	-0.88
1009.334	-0.88
1010.058	1.12
1010.781	-0.88
1011.504	1.12
1012.228	0.12
1012.951	-1.88
1013.674	0.12
1014.397	-1.88
1015.12	0.12
