节点500_285_QEPB04081__703__15-07-14-841.txt的数据

Date: Wed Nov 12 15:07:14 CST 2025
User: PC
Spectrometer: QEPB0408
触发模式: 0
积分时间 (秒): 1.000000E-2
Scans to average: 1
启用暗噪声校正: true
启用非线性校正: false
滑动平均宽度: 0
X轴模式: Wavelengths
Number of Pixels in Spectrum: 1044
>>>>>Begin Spectral Data<<<<<
220.843	2.25
221.644	1.25
222.444	3.25
223.244	0.25
224.045	0.25
224.845	3.25
225.645	1.25
226.445	1.25
227.245	4.25
228.045	3.25
228.845	2.25
229.645	3.25
230.444	2.25
231.244	2.25
232.043	4.25
232.843	3.25
233.642	1.25
234.442	4.25
235.241	5.25
236.04	2.25
236.839	5.25
237.638	3.25
238.437	4.25
239.236	3.25
240.035	3.25
240.833	4.25
241.632	4.25
242.43	4.25
243.229	5.25
244.027	4.25
244.826	3.25
245.624	4.25
246.422	7.25
247.22	6.25
248.018	5.25
248.816	5.25
249.614	6.25
250.412	5.25
251.21	6.25
252.007	5.25
252.805	5.25
253.602	5.25
254.4	5.25
255.197	9.25
255.994	7.25
256.791	9.25
257.589	7.25
258.386	9.25
259.183	7.25
259.979	9.25
260.776	9.25
261.573	9.25
262.37	10.25
263.166	11.25
263.963	8.25
264.759	10.25
265.556	11.25
266.352	9.25
267.148	11.25
267.944	12.25
268.74	11.25
269.536	11.25
270.332	12.25
271.128	12.25
271.924	13.25
272.719	14.25
273.515	12.25
274.311	16.25
275.106	16.25
275.901	14.25
276.697	17.25
277.492	14.25
278.287	18.25
279.082	13.25
279.877	15.25
280.672	17.25
281.467	17.25
282.262	19.25
283.056	17.25
283.851	19.25
284.646	18.25
285.44	16.25
286.234	17.25
287.029	17.25
287.823	16.25
288.617	14.25
289.411	16.25
290.205	19.25
290.999	18.25
291.793	19.25
292.587	15.25
293.381	18.25
294.174	16.25
294.968	15.25
295.761	16.25
296.555	13.25
297.348	14.25
298.141	14.25
298.935	16.25
299.728	14.25
300.521	16.25
301.314	15.25
302.107	14.25
302.899	13.25
303.692	13.25
304.485	13.25
305.277	13.25
306.07	12.25
306.862	15.25
307.655	10.25
308.447	10.25
309.239	13.25
310.031	13.25
310.823	9.25
311.615	10.25
312.407	11.25
313.199	7.25
313.991	11.25
314.783	10.25
315.574	10.25
316.366	9.25
317.157	6.25
317.949	7.25
318.74	5.25
319.531	9.25
320.322	5.25
321.113	7.25
321.904	8.25
322.695	7.25
323.486	7.25
324.277	6.25
325.068	10.25
325.858	7.25
326.649	9.25
327.439	8.25
328.23	6.25
329.02	4.25
329.81	5.25
330.6	6.25
331.391	7.25
332.181	6.25
332.971	7.25
333.76	4.25
334.55	9.25
335.34	5.25
336.13	7.25
336.919	9.25
337.709	5.25
338.498	7.25
339.287	4.25
340.077	8.25
340.866	7.25
341.655	8.25
342.444	5.25
343.233	6.25
344.022	5.25
344.811	7.25
345.6	6.25
346.388	6.25
347.177	5.25
347.965	8.25
348.754	4.25
349.542	7.25
350.33	5.25
351.119	7.25
351.907	6.25
352.695	4.25
353.483	6.25
354.271	5.25
355.059	7.25
355.846	6.25
356.634	4.25
357.422	6.25
358.209	6.25
358.997	5.25
359.784	2.25
360.571	4.25
361.359	5.25
362.146	7.25
362.933	6.25
363.72	2.25
364.507	6.25
365.294	3.25
366.081	5.25
366.867	6.25
367.654	3.25
368.44	6.25
369.227	4.25
370.013	6.25
370.8	6.25
371.586	6.25
372.372	6.25
373.158	3.25
373.944	5.25
374.73	5.25
375.516	3.25
376.302	2.25
377.088	4.25
377.873	6.25
378.659	3.25
379.445	6.25
380.23	7.25
381.015	4.25
381.801	3.25
382.586	5.25
383.371	6.25
384.156	4.25
384.941	6.25
385.726	5.25
386.511	5.25
387.296	7.25
388.08	5.25
388.865	5.25
389.649	7.25
390.434	7.25
391.218	5.25
392.003	5.25
392.787	7.25
393.571	3.25
394.355	7.25
395.139	6.25
395.923	7.25
396.707	7.25
397.491	5.25
398.274	7.25
399.058	7.25
399.842	5.25
400.625	4.25
401.408	7.25
402.192	6.25
402.975	7.25
403.758	8.25
404.541	8.25
405.324	5.25
406.107	4.25
406.89	5.25
407.673	6.25
408.456	8.25
409.238	6.25
410.021	6.25
410.803	7.25
411.586	8.25
412.368	7.25
413.151	10.25
413.933	9.25
414.715	9.25
415.497	9.25
416.279	8.25
417.061	10.25
417.843	5.25
418.624	9.25
419.406	7.25
420.188	10.25
420.969	9.25
421.751	8.25
422.532	9.25
423.313	11.25
424.095	11.25
424.876	10.25
425.657	13.25
426.438	12.25
427.219	12.25
428	13.25
428.78	13.25
429.561	14.25
430.342	14.25
431.122	15.25
431.903	14.25
432.683	15.25
433.464	16.25
434.244	16.25
435.024	18.25
435.804	17.25
436.584	19.25
437.364	19.25
438.144	19.25
438.924	20.25
439.704	22.25
440.483	20.25
441.263	24.25
442.042	27.25
442.822	28.25
443.601	27.25
444.38	32.25
445.16	31.25
445.939	34.25
446.718	38.25
447.497	41.25
448.276	46.25
449.054	49.25
449.833	49.25
450.612	59.25
451.391	63.25
452.169	69.25
452.948	74.25
453.726	80.25
454.504	88.25
455.282	99.25
456.061	109.25
456.839	120.25
457.617	132.25
458.395	157.25
459.172	170.25
459.95	188.25
460.728	208.25
461.506	227.25
462.283	254.25
463.061	285.25
463.838	322.25
464.615	353.25
465.393	389.25
466.17	434.25
466.947	481.25
467.724	532.25
468.501	590.25
469.278	666.25
470.055	732.25
470.831	805.25
471.608	896.25
472.385	990.25
473.161	1088.25
473.938	1206.25
474.714	1324.25
475.49	1455.25
476.266	1605.25
477.043	1759.25
477.819	1936.25
478.595	2134.25
479.371	2326.25
480.146	2552.25
480.922	2788.25
481.698	3073.25
482.473	3359.25
483.249	3636.25
484.024	4019.25
484.8	4370.25
485.575	4749.25
486.35	5213.25
487.126	5678.25
487.901	6213.25
488.676	6756.25
489.451	7337.25
490.225	7976.25
491	8664.25
491.775	9433.25
492.55	10190.25
493.324	11077.25
494.099	11873.25
494.873	12741.25
495.647	13710.25
496.422	14716.25
497.196	15726.25
497.97	16771.25
498.744	17841.25
499.518	18873.25
500.292	19940.25
501.066	20997.25
501.839	21867.25
502.613	22800.25
503.387	23646.25
504.16	24241.25
504.934	24779.25
505.707	25153.25
506.48	25326.25
507.253	25462.25
508.027	25403.25
508.8	25397.25
509.573	25203.25
510.346	24724.25
511.118	24192.25
511.891	23620.25
512.664	23048.25
513.437	22334.25
514.209	21479.25
514.982	20714.25
515.754	19934.25
516.526	19081.25
517.298	18298.25
518.071	17498.25
518.843	16857.25
519.615	16265.25
520.387	15602.25
521.159	14982.25
521.93	14386.25
522.702	13847.25
523.474	13289.25
524.245	12684.25
525.017	12146.25
525.788	11674.25
526.56	11212.25
527.331	10695.25
528.102	10223.25
528.873	9746.25
529.644	9313.25
530.415	8926.25
531.186	8469.25
531.957	8049.25
532.728	7706.25
533.498	7286.25
534.269	6881.25
535.039	6480.25
535.81	6198.25
536.58	5826.25
537.351	5489.25
538.121	5200.25
538.891	4939.25
539.661	4670.25
540.431	4408.25
541.201	4177.25
541.971	3962.25
542.741	3744.25
543.51	3558.25
544.28	3387.25
545.05	3213.25
545.819	3054.25
546.588	2903.25
547.358	2738.25
548.127	2625.25
548.896	2510.25
549.665	2386.25
550.434	2211.25
551.203	2150.25
551.972	2007.25
552.741	1900.25
553.51	1790.25
554.278	1713.25
555.047	1642.25
555.815	1543.25
556.584	1449.25
557.352	1358.25
558.121	1295.25
558.889	1223.25
559.657	1155.25
560.425	1092.25
561.193	1027.25
561.961	987.25
562.729	901.25
563.496	862.25
564.264	815.25
565.032	765.25
565.799	746.25
566.567	699.25
567.334	662.25
568.101	620.25
568.869	583.25
569.636	550.25
570.403	510.25
571.17	475.25
571.937	459.25
572.704	436.25
573.471	406.25
574.237	386.25
575.004	366.25
575.771	341.25
576.537	322.25
577.303	313.25
578.07	281.25
578.836	275.25
579.602	257.25
580.368	246.25
581.134	227.25
581.9	219.25
582.666	205.25
583.432	192.25
584.198	188.25
584.964	172.25
585.729	169.25
586.495	163.25
587.26	150.25
588.025	139.25
588.791	134.25
589.556	128.25
590.321	120.25
591.086	115.25
591.851	108.25
592.616	103.25
593.381	92.25
594.146	91.25
594.911	89.25
595.675	85.25
596.44	78.25
597.204	77.25
597.969	77.25
598.733	72.25
599.497	68.25
600.261	66.25
601.025	58.25
601.79	59.25
602.553	55.25
603.317	55.25
604.081	54.25
604.845	49.25
605.609	50.25
606.372	44.25
607.136	43.25
607.899	39.25
608.662	42.25
609.426	37.25
610.189	34.25
610.952	34.25
611.715	34.25
612.478	33.25
613.241	34.25
614.004	30.25
614.767	30.25
615.529	27.25
616.292	28.25
617.055	25.25
617.817	26.25
618.579	24.25
619.342	22.25
620.104	25.25
620.866	22.25
621.628	22.25
622.39	20.25
623.152	21.25
623.914	18.25
624.676	19.25
625.438	16.25
626.199	17.25
626.961	18.25
627.722	14.25
628.484	15.25
629.245	14.25
630.006	18.25
630.768	14.25
631.529	12.25
632.29	12.25
633.051	14.25
633.812	13.25
634.573	14.25
635.333	10.25
636.094	9.25
636.855	11.25
637.615	8.25
638.376	9.25
639.136	10.25
639.896	10.25
640.657	10.25
641.417	10.25
642.177	9.25
642.937	10.25
643.697	8.25
644.457	8.25
645.216	9.25
645.976	8.25
646.736	9.25
647.495	6.25
648.255	9.25
649.014	8.25
649.774	6.25
650.533	7.25
651.292	8.25
652.051	7.25
652.81	6.25
653.569	8.25
654.328	4.25
655.087	5.25
655.846	7.25
656.604	5.25
657.363	7.25
658.121	7.25
658.88	4.25
659.638	8.25
660.397	6.25
661.155	4.25
661.913	5.25
662.671	6.25
663.429	6.25
664.187	6.25
664.945	6.25
665.703	5.25
666.46	4.25
667.218	3.25
667.976	2.25
668.733	5.25
669.49	5.25
670.248	4.25
671.005	5.25
671.762	4.25
672.519	2.25
673.276	4.25
674.033	5.25
674.79	4.25
675.547	5.25
676.304	5.25
677.06	4.25
677.817	5.25
678.574	4.25
679.33	7.25
680.086	5.25
680.843	4.25
681.599	3.25
682.355	5.25
683.111	5.25
683.867	5.25
684.623	3.25
685.379	5.25
686.135	2.25
686.89	6.25
687.646	2.25
688.402	6.25
689.157	4.25
689.912	5.25
690.668	5.25
691.423	2.25
692.178	4.25
692.933	2.25
693.688	2.25
694.443	2.25
695.198	4.25
695.953	1.25
696.708	4.25
697.462	5.25
698.217	4.25
698.972	2.25
699.726	5.25
700.48	4.25
701.235	2.25
701.989	3.25
702.743	3.25
703.497	4.25
704.251	4.25
705.005	3.25
705.759	2.25
706.513	3.25
707.266	2.25
708.02	5.25
708.774	4.25
709.527	2.25
710.28	4.25
711.034	4.25
711.787	5.25
712.54	4.25
713.293	4.25
714.046	4.25
714.799	4.25
715.552	1.25
716.305	2.25
717.058	0.25
717.81	5.25
718.563	6.25
719.315	5.25
720.068	4.25
720.82	3.25
721.573	4.25
722.325	3.25
723.077	2.25
723.829	4.25
724.581	2.25
725.333	5.25
726.085	2.25
726.836	4.25
727.588	3.25
728.34	3.25
729.091	3.25
729.843	1.25
730.594	5.25
731.346	6.25
732.097	2.25
732.848	6.25
733.599	5.25
734.35	2.25
735.101	5.25
735.852	7.25
736.603	5.25
737.354	3.25
738.104	4.25
738.855	5.25
739.605	4.25
740.356	3.25
741.106	5.25
741.856	6.25
742.607	4.25
743.357	4.25
744.107	5.25
744.857	4.25
745.607	4.25
746.357	4.25
747.106	2.25
747.856	4.25
748.606	4.25
749.355	5.25
750.105	7.25
750.854	5.25
751.603	3.25
752.353	5.25
753.102	3.25
753.851	4.25
754.6	3.25
755.349	6.25
756.098	4.25
756.847	5.25
757.595	5.25
758.344	3.25
759.093	7.25
759.841	4.25
760.589	4.25
761.338	7.25
762.086	7.25
762.834	6.25
763.582	5.25
764.331	7.25
765.079	5.25
765.826	6.25
766.574	8.25
767.322	6.25
768.07	8.25
768.817	6.25
769.565	5.25
770.312	7.25
771.06	5.25
771.807	8.25
772.554	8.25
773.302	8.25
774.049	8.25
774.796	4.25
775.543	5.25
776.29	9.25
777.036	10.25
777.783	9.25
778.53	6.25
779.276	7.25
780.023	6.25
780.769	7.25
781.516	8.25
782.262	9.25
783.008	6.25
783.754	6.25
784.5	7.25
785.246	7.25
785.992	8.25
786.738	8.25
787.484	9.25
788.23	6.25
788.975	9.25
789.721	8.25
790.466	6.25
791.212	9.25
791.957	8.25
792.702	11.25
793.447	6.25
794.193	8.25
794.938	9.25
795.683	6.25
796.427	8.25
797.172	5.25
797.917	9.25
798.662	8.25
799.406	7.25
800.151	7.25
800.895	7.25
801.64	8.25
802.384	5.25
803.128	8.25
803.872	6.25
804.616	8.25
805.36	6.25
806.104	7.25
806.848	6.25
807.592	5.25
808.336	4.25
809.079	5.25
809.823	3.25
810.566	6.25
811.31	5.25
812.053	9.25
812.796	6.25
813.539	7.25
814.283	6.25
815.026	5.25
815.769	5.25
816.511	1.25
817.254	3.25
817.997	3.25
818.74	7.25
819.482	5.25
820.225	5.25
820.967	4.25
821.71	2.25
822.452	6.25
823.194	5.25
823.936	5.25
824.678	4.25
825.42	3.25
826.162	3.25
826.904	5.25
827.646	6.25
828.388	3.25
829.129	4.25
829.871	2.25
830.612	3.25
831.354	5.25
832.095	4.25
832.836	3.25
833.577	6.25
834.319	4.25
835.06	1.25
835.801	2.25
836.542	4.25
837.282	5.25
838.023	2.25
838.764	2.25
839.504	2.25
840.245	4.25
840.985	3.25
841.726	4.25
842.466	3.25
843.206	3.25
843.946	5.25
844.687	1.25
845.427	3.25
846.166	1.25
846.906	3.25
847.646	5.25
848.386	2.25
849.125	3.25
849.865	5.25
850.605	4.25
851.344	2.25
852.083	2.25
852.823	1.25
853.562	2.25
854.301	3.25
855.04	1.25
855.779	4.25
856.518	1.25
857.257	4.25
857.995	2.25
858.734	6.25
859.473	3.25
860.211	1.25
860.95	3.25
861.688	2.25
862.426	1.25
863.165	3.25
863.903	2.25
864.641	3.25
865.379	3.25
866.117	1.25
866.855	2.25
867.593	2.25
868.33	1.25
869.068	-1.75
869.806	1.25
870.543	1.25
871.28	2.25
872.018	5.25
872.755	1.25
873.492	1.25
874.229	2.25
874.967	2.25
875.703	0.25
876.44	1.25
877.177	2.25
877.914	1.25
878.651	0.25
879.387	0.25
880.124	1.25
880.86	0.25
881.597	1.25
882.333	2.25
883.069	2.25
883.806	1.25
884.542	1.25
885.278	2.25
886.014	0.25
886.749	0.25
887.485	0.25
888.221	-0.75
888.957	2.25
889.692	0.25
890.428	2.25
891.163	0.25
891.899	1.25
892.634	1.25
893.369	0.25
894.104	1.25
894.839	0.25
895.574	1.25
896.309	1.25
897.044	1.25
897.779	2.25
898.514	-0.75
899.248	1.25
899.983	0.25
900.717	0.25
901.452	2.25
902.186	-0.75
902.92	2.25
903.654	-1.75
904.389	0.25
905.123	-0.75
905.857	1.25
906.59	1.25
907.324	-1.75
908.058	0.25
908.792	-1.75
909.525	1.25
910.259	1.25
910.992	2.25
911.726	0.25
912.459	-1.75
913.192	1.25
913.925	0.25
914.658	2.25
915.391	1.25
916.124	0.25
916.857	-0.75
917.59	-0.75
918.323	0.25
919.055	1.25
919.788	1.25
920.521	0.25
921.253	-0.75
921.985	0.25
922.718	1.25
923.45	2.25
924.182	0.25
924.914	2.25
925.646	1.25
926.378	-0.75
927.11	3.25
927.841	2.25
928.573	0.25
929.305	-1.75
930.036	0.25
930.768	-0.75
931.499	-0.75
932.23	2.25
932.962	-1.75
933.693	2.25
934.424	-0.75
935.155	1.25
935.886	1.25
936.617	0.25
937.348	2.25
938.078	0.25
938.809	0.25
939.54	1.25
940.27	0.25
941.001	0.25
941.731	1.25
942.461	1.25
943.191	0.25
943.922	1.25
944.652	1.25
945.382	3.25
946.112	1.25
946.841	0.25
947.571	1.25
948.301	0.25
949.031	2.25
949.76	-0.75
950.49	-1.75
951.219	2.25
951.948	0.25
952.678	3.25
953.407	0.25
954.136	1.25
954.865	0.25
955.594	-0.75
956.323	0.25
957.052	0.25
957.78	1.25
958.509	0.25
959.238	0.25
959.966	0.25
960.695	-1.75
961.423	3.25
962.151	0.25
962.88	1.25
963.608	2.25
964.336	-1.75
965.064	2.25
965.792	1.25
966.52	2.25
967.247	-0.75
967.975	1.25
968.703	0.25
969.43	0.25
970.158	1.25
970.885	-1.75
971.613	2.25
972.34	1.25
973.067	0.25
973.794	1.25
974.521	1.25
975.248	-0.75
975.975	1.25
976.702	2.25
977.429	0.25
978.156	-0.75
978.882	3.25
979.609	-1.75
980.335	1.25
981.062	1.25
981.788	0.25
982.514	1.25
983.24	1.25
983.967	2.25
984.693	1.25
985.419	0.25
986.144	-0.75
986.87	-0.75
987.596	1.25
988.322	-0.75
989.047	0.25
989.773	1.25
990.498	2.25
991.224	-1.75
991.949	-0.75
992.674	0.25
993.399	-0.75
994.124	2.25
994.849	0.25
995.574	1.25
996.299	2.25
997.024	0.25
997.749	1.25
998.473	1.25
999.198	1.25
999.922	1.25
1000.647	2.25
1001.371	5.25
1002.095	-1.75
1002.82	-1.75
1003.544	-0.75
1004.268	4.25
1004.992	0.25
1005.716	3.25
1006.439	1.25
1007.163	1.25
1007.887	1.25
1008.611	0.25
1009.334	1.25
1010.058	-0.75
1010.781	1.25
1011.504	1.25
1012.228	-0.75
1012.951	0.25
1013.674	0.25
1014.397	-0.75
1015.12	-0.75
