节点500_285_QEPB04081__104__14-57-17-291.txt的数据

Date: Wed Nov 12 14:57:17 CST 2025
User: PC
Spectrometer: QEPB0408
触发模式: 0
积分时间 (秒): 1.000000E-2
Scans to average: 1
启用暗噪声校正: true
启用非线性校正: false
滑动平均宽度: 0
X轴模式: Wavelengths
Number of Pixels in Spectrum: 1044
>>>>>Begin Spectral Data<<<<<
220.843	1.12
221.644	-0.88
222.444	4.12
223.244	2.12
224.045	3.12
224.845	4.12
225.645	2.12
226.445	1.12
227.245	3.12
228.045	2.12
228.845	3.12
229.645	2.12
230.444	2.12
231.244	5.12
232.043	3.12
232.843	4.12
233.642	1.12
234.442	3.12
235.241	4.12
236.04	3.12
236.839	1.12
237.638	6.12
238.437	3.12
239.236	3.12
240.035	4.12
240.833	2.12
241.632	5.12
242.43	6.12
243.229	4.12
244.027	4.12
244.826	3.12
245.624	6.12
246.422	8.12
247.22	8.12
248.018	6.12
248.816	6.12
249.614	7.12
250.412	8.12
251.21	7.12
252.007	8.12
252.805	5.12
253.602	6.12
254.4	6.12
255.197	9.12
255.994	6.12
256.791	11.12
257.589	8.12
258.386	7.12
259.183	7.12
259.979	7.12
260.776	9.12
261.573	10.12
262.37	9.12
263.166	11.12
263.963	12.12
264.759	13.12
265.556	11.12
266.352	12.12
267.148	14.12
267.944	14.12
268.74	13.12
269.536	13.12
270.332	15.12
271.128	17.12
271.924	16.12
272.719	16.12
273.515	15.12
274.311	20.12
275.106	19.12
275.901	18.12
276.697	20.12
277.492	18.12
278.287	20.12
279.082	18.12
279.877	21.12
280.672	20.12
281.467	17.12
282.262	19.12
283.056	19.12
283.851	22.12
284.646	24.12
285.44	19.12
286.234	19.12
287.029	19.12
287.823	21.12
288.617	17.12
289.411	20.12
290.205	18.12
290.999	20.12
291.793	17.12
292.587	19.12
293.381	19.12
294.174	16.12
294.968	19.12
295.761	17.12
296.555	15.12
297.348	17.12
298.141	15.12
298.935	16.12
299.728	15.12
300.521	14.12
301.314	13.12
302.107	12.12
302.899	11.12
303.692	13.12
304.485	14.12
305.277	13.12
306.07	12.12
306.862	13.12
307.655	14.12
308.447	13.12
309.239	13.12
310.031	11.12
310.823	10.12
311.615	10.12
312.407	9.12
313.199	9.12
313.991	10.12
314.783	8.12
315.574	11.12
316.366	8.12
317.157	8.12
317.949	8.12
318.74	9.12
319.531	8.12
320.322	11.12
321.113	6.12
321.904	9.12
322.695	6.12
323.486	6.12
324.277	8.12
325.068	7.12
325.858	7.12
326.649	6.12
327.439	7.12
328.23	9.12
329.02	6.12
329.81	6.12
330.6	6.12
331.391	6.12
332.181	8.12
332.971	8.12
333.76	6.12
334.55	5.12
335.34	5.12
336.13	3.12
336.919	5.12
337.709	6.12
338.498	7.12
339.287	7.12
340.077	5.12
340.866	7.12
341.655	8.12
342.444	10.12
343.233	6.12
344.022	5.12
344.811	6.12
345.6	6.12
346.388	4.12
347.177	6.12
347.965	6.12
348.754	8.12
349.542	4.12
350.33	9.12
351.119	6.12
351.907	5.12
352.695	8.12
353.483	6.12
354.271	5.12
355.059	5.12
355.846	7.12
356.634	6.12
357.422	7.12
358.209	8.12
358.997	4.12
359.784	6.12
360.571	8.12
361.359	7.12
362.146	6.12
362.933	3.12
363.72	3.12
364.507	5.12
365.294	5.12
366.081	7.12
366.867	6.12
367.654	6.12
368.44	6.12
369.227	6.12
370.013	4.12
370.8	6.12
371.586	4.12
372.372	1.12
373.158	5.12
373.944	4.12
374.73	5.12
375.516	5.12
376.302	5.12
377.088	3.12
377.873	4.12
378.659	5.12
379.445	5.12
380.23	3.12
381.015	4.12
381.801	5.12
382.586	6.12
383.371	6.12
384.156	6.12
384.941	6.12
385.726	5.12
386.511	5.12
387.296	5.12
388.08	3.12
388.865	5.12
389.649	5.12
390.434	8.12
391.218	6.12
392.003	4.12
392.787	6.12
393.571	7.12
394.355	6.12
395.139	6.12
395.923	5.12
396.707	5.12
397.491	6.12
398.274	9.12
399.058	3.12
399.842	7.12
400.625	5.12
401.408	6.12
402.192	7.12
402.975	7.12
403.758	9.12
404.541	7.12
405.324	7.12
406.107	5.12
406.89	6.12
407.673	6.12
408.456	11.12
409.238	9.12
410.021	8.12
410.803	9.12
411.586	9.12
412.368	6.12
413.151	7.12
413.933	9.12
414.715	9.12
415.497	7.12
416.279	10.12
417.061	10.12
417.843	10.12
418.624	9.12
419.406	9.12
420.188	10.12
420.969	11.12
421.751	13.12
422.532	11.12
423.313	12.12
424.095	9.12
424.876	13.12
425.657	12.12
426.438	12.12
427.219	12.12
428	14.12
428.78	13.12
429.561	11.12
430.342	16.12
431.122	13.12
431.903	14.12
432.683	18.12
433.464	16.12
434.244	14.12
435.024	17.12
435.804	16.12
436.584	19.12
437.364	19.12
438.144	16.12
438.924	21.12
439.704	22.12
440.483	23.12
441.263	25.12
442.042	26.12
442.822	27.12
443.601	30.12
444.38	28.12
445.16	31.12
445.939	32.12
446.718	36.12
447.497	38.12
448.276	38.12
449.054	42.12
449.833	47.12
450.612	49.12
451.391	58.12
452.169	61.12
452.948	63.12
453.726	74.12
454.504	73.12
455.282	85.12
456.061	93.12
456.839	99.12
457.617	113.12
458.395	122.12
459.172	135.12
459.95	156.12
460.728	173.12
461.506	191.12
462.283	221.12
463.061	241.12
463.838	276.12
464.615	300.12
465.393	343.12
466.17	380.12
466.947	427.12
467.724	473.12
468.501	524.12
469.278	598.12
470.055	653.12
470.831	725.12
471.608	817.12
472.385	909.12
473.161	1013.12
473.938	1131.12
474.714	1251.12
475.49	1402.12
476.266	1562.12
477.043	1730.12
477.819	1909.12
478.595	2119.12
479.371	2348.12
480.146	2609.12
480.922	2868.12
481.698	3171.12
482.473	3514.12
483.249	3905.12
484.024	4240.12
484.8	4760.12
485.575	5251.12
486.35	5777.12
487.126	6382.12
487.901	6997.12
488.676	7712.12
489.451	8484.12
490.225	9329.12
491	10174.12
491.775	11205.12
492.55	12209.12
493.324	13280.12
494.099	14374.12
494.873	15469.12
495.647	16730.12
496.422	17981.12
497.196	19241.12
497.97	20497.12
498.744	21777.12
499.518	23002.12
500.292	24194.12
501.066	25243.12
501.839	26157.12
502.613	27023.12
503.387	27763.12
504.16	28304.12
504.934	28538.12
505.707	28647.12
506.48	28472.12
507.253	28302.12
508.027	27909.12
508.8	27457.12
509.573	26802.12
510.346	26088.12
511.118	25207.12
511.891	24239.12
512.664	23389.12
513.437	22369.12
514.209	21374.12
514.982	20456.12
515.754	19463.12
516.526	18623.12
517.298	17794.12
518.071	16972.12
518.843	16365.12
519.615	15724.12
520.387	15073.12
521.159	14484.12
521.93	13893.12
522.702	13379.12
523.474	12822.12
524.245	12271.12
525.017	11744.12
525.788	11267.12
526.56	10705.12
527.331	10202.12
528.102	9748.12
528.873	9243.12
529.644	8798.12
530.415	8358.12
531.186	7921.12
531.957	7462.12
532.728	7088.12
533.498	6738.12
534.269	6320.12
535.039	6009.12
535.81	5625.12
536.58	5352.12
537.351	5010.12
538.121	4732.12
538.891	4466.12
539.661	4241.12
540.431	4003.12
541.201	3794.12
541.971	3585.12
542.741	3390.12
543.51	3244.12
544.28	3068.12
545.05	2920.12
545.819	2785.12
546.588	2648.12
547.358	2515.12
548.127	2376.12
548.896	2273.12
549.665	2150.12
550.434	2041.12
551.203	1911.12
551.972	1824.12
552.741	1714.12
553.51	1632.12
554.278	1526.12
555.047	1450.12
555.815	1365.12
556.584	1280.12
557.352	1217.12
558.121	1144.12
558.889	1084.12
559.657	1023.12
560.425	959.12
561.193	912.12
561.961	855.12
562.729	797.12
563.496	761.12
564.264	726.12
565.032	687.12
565.799	642.12
566.567	616.12
567.334	569.12
568.101	548.12
568.869	520.12
569.636	481.12
570.403	461.12
571.17	433.12
571.937	401.12
572.704	377.12
573.471	363.12
574.237	340.12
575.004	325.12
575.771	300.12
576.537	287.12
577.303	272.12
578.07	254.12
578.836	239.12
579.602	225.12
580.368	208.12
581.134	200.12
581.9	189.12
582.666	180.12
583.432	172.12
584.198	162.12
584.964	153.12
585.729	148.12
586.495	133.12
587.26	131.12
588.025	123.12
588.791	123.12
589.556	111.12
590.321	101.12
591.086	101.12
591.851	94.12
592.616	90.12
593.381	88.12
594.146	82.12
594.911	77.12
595.675	72.12
596.44	68.12
597.204	69.12
597.969	64.12
598.733	63.12
599.497	60.12
600.261	58.12
601.025	53.12
601.79	52.12
602.553	49.12
603.317	47.12
604.081	45.12
604.845	43.12
605.609	42.12
606.372	37.12
607.136	38.12
607.899	37.12
608.662	37.12
609.426	37.12
610.189	29.12
610.952	35.12
611.715	30.12
612.478	31.12
613.241	25.12
614.004	24.12
614.767	28.12
615.529	25.12
616.292	26.12
617.055	22.12
617.817	23.12
618.579	23.12
619.342	19.12
620.104	19.12
620.866	19.12
621.628	22.12
622.39	16.12
623.152	18.12
623.914	20.12
624.676	18.12
625.438	16.12
626.199	16.12
626.961	14.12
627.722	15.12
628.484	13.12
629.245	12.12
630.006	13.12
630.768	12.12
631.529	11.12
632.29	11.12
633.051	12.12
633.812	10.12
634.573	11.12
635.333	15.12
636.094	11.12
636.855	11.12
637.615	7.12
638.376	9.12
639.136	9.12
639.896	10.12
640.657	7.12
641.417	9.12
642.177	11.12
642.937	9.12
643.697	9.12
644.457	8.12
645.216	7.12
645.976	9.12
646.736	7.12
647.495	7.12
648.255	7.12
649.014	7.12
649.774	7.12
650.533	9.12
651.292	8.12
652.051	8.12
652.81	7.12
653.569	8.12
654.328	6.12
655.087	7.12
655.846	6.12
656.604	5.12
657.363	6.12
658.121	5.12
658.88	4.12
659.638	6.12
660.397	3.12
661.155	4.12
661.913	6.12
662.671	5.12
663.429	4.12
664.187	5.12
664.945	6.12
665.703	4.12
666.46	4.12
667.218	6.12
667.976	3.12
668.733	4.12
669.49	4.12
670.248	5.12
671.005	4.12
671.762	5.12
672.519	4.12
673.276	4.12
674.033	4.12
674.79	6.12
675.547	6.12
676.304	5.12
677.06	4.12
677.817	3.12
678.574	7.12
679.33	4.12
680.086	3.12
680.843	3.12
681.599	4.12
682.355	4.12
683.111	4.12
683.867	3.12
684.623	5.12
685.379	4.12
686.135	3.12
686.89	3.12
687.646	5.12
688.402	3.12
689.157	5.12
689.912	1.12
690.668	6.12
691.423	4.12
692.178	3.12
692.933	3.12
693.688	5.12
694.443	4.12
695.198	4.12
695.953	4.12
696.708	5.12
697.462	0.12
698.217	5.12
698.972	5.12
699.726	3.12
700.48	4.12
701.235	2.12
701.989	5.12
702.743	3.12
703.497	3.12
704.251	5.12
705.005	2.12
705.759	2.12
706.513	5.12
707.266	4.12
708.02	3.12
708.774	2.12
709.527	3.12
710.28	2.12
711.034	4.12
711.787	4.12
712.54	4.12
713.293	3.12
714.046	1.12
714.799	4.12
715.552	5.12
716.305	2.12
717.058	3.12
717.81	3.12
718.563	3.12
719.315	3.12
720.068	5.12
720.82	3.12
721.573	4.12
722.325	3.12
723.077	4.12
723.829	2.12
724.581	5.12
725.333	4.12
726.085	3.12
726.836	4.12
727.588	3.12
728.34	3.12
729.091	2.12
729.843	4.12
730.594	6.12
731.346	4.12
732.097	2.12
732.848	5.12
733.599	4.12
734.35	4.12
735.101	3.12
735.852	4.12
736.603	4.12
737.354	4.12
738.104	4.12
738.855	3.12
739.605	4.12
740.356	6.12
741.106	4.12
741.856	8.12
742.607	5.12
743.357	5.12
744.107	4.12
744.857	4.12
745.607	6.12
746.357	3.12
747.106	4.12
747.856	7.12
748.606	4.12
749.355	3.12
750.105	5.12
750.854	4.12
751.603	5.12
752.353	5.12
753.102	6.12
753.851	6.12
754.6	6.12
755.349	4.12
756.098	7.12
756.847	6.12
757.595	5.12
758.344	7.12
759.093	7.12
759.841	7.12
760.589	6.12
761.338	5.12
762.086	5.12
762.834	7.12
763.582	7.12
764.331	4.12
765.079	6.12
765.826	6.12
766.574	7.12
767.322	6.12
768.07	9.12
768.817	8.12
769.565	7.12
770.312	9.12
771.06	6.12
771.807	6.12
772.554	8.12
773.302	6.12
774.049	8.12
774.796	8.12
775.543	9.12
776.29	5.12
777.036	10.12
777.783	8.12
778.53	9.12
779.276	9.12
780.023	9.12
780.769	8.12
781.516	9.12
782.262	9.12
783.008	10.12
783.754	10.12
784.5	11.12
785.246	8.12
785.992	11.12
786.738	9.12
787.484	10.12
788.23	9.12
788.975	8.12
789.721	10.12
790.466	8.12
791.212	7.12
791.957	7.12
792.702	7.12
793.447	11.12
794.193	7.12
794.938	7.12
795.683	7.12
796.427	10.12
797.172	7.12
797.917	7.12
798.662	9.12
799.406	7.12
800.151	6.12
800.895	6.12
801.64	8.12
802.384	8.12
803.128	6.12
803.872	7.12
804.616	4.12
805.36	7.12
806.104	6.12
806.848	5.12
807.592	7.12
808.336	5.12
809.079	7.12
809.823	7.12
810.566	5.12
811.31	6.12
812.053	6.12
812.796	4.12
813.539	4.12
814.283	4.12
815.026	5.12
815.769	3.12
816.511	5.12
817.254	5.12
817.997	6.12
818.74	5.12
819.482	3.12
820.225	4.12
820.967	4.12
821.71	5.12
822.452	5.12
823.194	3.12
823.936	5.12
824.678	5.12
825.42	4.12
826.162	5.12
826.904	4.12
827.646	4.12
828.388	4.12
829.129	3.12
829.871	3.12
830.612	1.12
831.354	6.12
832.095	5.12
832.836	4.12
833.577	4.12
834.319	4.12
835.06	3.12
835.801	2.12
836.542	3.12
837.282	3.12
838.023	4.12
838.764	2.12
839.504	3.12
840.245	3.12
840.985	3.12
841.726	2.12
842.466	2.12
843.206	2.12
843.946	3.12
844.687	4.12
845.427	3.12
846.166	4.12
846.906	5.12
847.646	5.12
848.386	1.12
849.125	2.12
849.865	3.12
850.605	1.12
851.344	2.12
852.083	3.12
852.823	4.12
853.562	1.12
854.301	2.12
855.04	1.12
855.779	4.12
856.518	0.12
857.257	2.12
857.995	2.12
858.734	1.12
859.473	3.12
860.211	0.12
860.95	4.12
861.688	2.12
862.426	0.12
863.165	3.12
863.903	2.12
864.641	2.12
865.379	2.12
866.117	2.12
866.855	3.12
867.593	0.12
868.33	3.12
869.068	2.12
869.806	0.12
870.543	1.12
871.28	4.12
872.018	1.12
872.755	-0.88
873.492	1.12
874.229	1.12
874.967	1.12
875.703	1.12
876.44	0.12
877.177	2.12
877.914	0.12
878.651	1.12
879.387	2.12
880.124	1.12
880.86	1.12
881.597	0.12
882.333	2.12
883.069	1.12
883.806	1.12
884.542	2.12
885.278	0.12
886.014	0.12
886.749	-0.88
887.485	2.12
888.221	0.12
888.957	0.12
889.692	0.12
890.428	-0.88
891.163	1.12
891.899	3.12
892.634	-0.88
893.369	3.12
894.104	-0.88
894.839	1.12
895.574	0.12
896.309	0.12
897.044	1.12
897.779	1.12
898.514	1.12
899.248	1.12
899.983	1.12
900.717	0.12
901.452	-0.88
902.186	3.12
902.92	3.12
903.654	0.12
904.389	1.12
905.123	1.12
905.857	0.12
906.59	2.12
907.324	0.12
908.058	1.12
908.792	1.12
909.525	2.12
910.259	-0.88
910.992	1.12
911.726	1.12
912.459	1.12
913.192	1.12
913.925	1.12
914.658	0.12
915.391	1.12
916.124	-0.88
916.857	-0.88
917.59	0.12
918.323	0.12
919.055	2.12
919.788	1.12
920.521	0.12
921.253	2.12
921.985	1.12
922.718	-0.88
923.45	1.12
924.182	2.12
924.914	-0.88
925.646	-0.88
926.378	0.12
927.11	0.12
927.841	1.12
928.573	0.12
929.305	0.12
930.036	1.12
930.768	-0.88
931.499	0.12
932.23	0.12
932.962	-0.88
933.693	2.12
934.424	1.12
935.155	3.12
935.886	-0.88
936.617	1.12
937.348	-1.88
938.078	-2.88
938.809	1.12
939.54	-0.88
940.27	1.12
941.001	1.12
941.731	1.12
942.461	0.12
943.191	0.12
943.922	-0.88
944.652	0.12
945.382	1.12
946.112	1.12
946.841	-0.88
947.571	-0.88
948.301	-0.88
949.031	-0.88
949.76	1.12
950.49	1.12
951.219	1.12
951.948	-0.88
952.678	3.12
953.407	1.12
954.136	0.12
954.865	0.12
955.594	-0.88
956.323	1.12
957.052	1.12
957.78	3.12
958.509	1.12
959.238	-0.88
959.966	0.12
960.695	2.12
961.423	-0.88
962.151	-0.88
962.88	2.12
963.608	-0.88
964.336	-1.88
965.064	0.12
965.792	-0.88
966.52	0.12
967.247	2.12
967.975	-0.88
968.703	1.12
969.43	0.12
970.158	1.12
970.885	-0.88
971.613	1.12
972.34	1.12
973.067	-0.88
973.794	-0.88
974.521	-1.88
975.248	1.12
975.975	-0.88
976.702	2.12
977.429	-0.88
978.156	0.12
978.882	2.12
979.609	0.12
980.335	1.12
981.062	1.12
981.788	0.12
982.514	-0.88
983.24	2.12
983.967	1.12
984.693	0.12
985.419	0.12
986.144	-1.88
986.87	-0.88
987.596	1.12
988.322	-1.88
989.047	1.12
989.773	1.12
990.498	0.12
991.224	1.12
991.949	0.12
992.674	2.12
993.399	0.12
994.124	0.12
994.849	-0.88
995.574	-0.88
996.299	1.12
997.024	0.12
997.749	1.12
998.473	1.12
999.198	0.12
999.922	-0.88
1000.647	0.12
1001.371	2.12
1002.095	-2.88
1002.82	-0.88
1003.544	0.12
1004.268	0.12
1004.992	-0.88
1005.716	1.12
1006.439	2.12
1007.163	2.12
1007.887	1.12
1008.611	0.12
1009.334	2.12
1010.058	-0.88
1010.781	1.12
1011.504	-0.88
1012.228	0.12
1012.951	-0.88
1013.674	2.12
1014.397	-0.88
1015.12	1.12
