节点500_285_QEPB04081__813__15-09-04-736.txt的数据

Date: Wed Nov 12 15:09:04 CST 2025
User: PC
Spectrometer: QEPB0408
触发模式: 0
积分时间 (秒): 1.000000E-2
Scans to average: 1
启用暗噪声校正: true
启用非线性校正: false
滑动平均宽度: 0
X轴模式: Wavelengths
Number of Pixels in Spectrum: 1044
>>>>>Begin Spectral Data<<<<<
220.843	0
221.644	2
222.444	1
223.244	0
224.045	0
224.845	2
225.645	2
226.445	2
227.245	2
228.045	2
228.845	0
229.645	1
230.444	2
231.244	2
232.043	4
232.843	4
233.642	2
234.442	2
235.241	7
236.04	4
236.839	4
237.638	5
238.437	2
239.236	2
240.035	5
240.833	4
241.632	4
242.43	2
243.229	3
244.027	6
244.826	2
245.624	5
246.422	6
247.22	6
248.018	6
248.816	7
249.614	5
250.412	4
251.21	5
252.007	4
252.805	6
253.602	4
254.4	8
255.197	6
255.994	5
256.791	7
257.589	8
258.386	8
259.183	8
259.979	11
260.776	7
261.573	8
262.37	9
263.166	11
263.963	9
264.759	10
265.556	9
266.352	8
267.148	10
267.944	10
268.74	12
269.536	13
270.332	12
271.128	14
271.924	14
272.719	14
273.515	15
274.311	14
275.106	13
275.901	14
276.697	17
277.492	15
278.287	16
279.082	15
279.877	15
280.672	14
281.467	17
282.262	17
283.056	14
283.851	16
284.646	17
285.44	17
286.234	18
287.029	17
287.823	15
288.617	17
289.411	14
290.205	17
290.999	16
291.793	15
292.587	15
293.381	16
294.174	18
294.968	14
295.761	14
296.555	17
297.348	15
298.141	14
298.935	16
299.728	15
300.521	13
301.314	15
302.107	14
302.899	11
303.692	14
304.485	13
305.277	13
306.07	12
306.862	12
307.655	13
308.447	11
309.239	11
310.031	10
310.823	11
311.615	10
312.407	10
313.199	9
313.991	8
314.783	10
315.574	9
316.366	10
317.157	9
317.949	7
318.74	9
319.531	5
320.322	9
321.113	7
321.904	11
322.695	8
323.486	7
324.277	7
325.068	6
325.858	8
326.649	7
327.439	8
328.23	6
329.02	6
329.81	8
330.6	6
331.391	5
332.181	7
332.971	9
333.76	7
334.55	7
335.34	7
336.13	5
336.919	6
337.709	8
338.498	8
339.287	6
340.077	4
340.866	7
341.655	6
342.444	8
343.233	6
344.022	6
344.811	6
345.6	4
346.388	6
347.177	4
347.965	7
348.754	8
349.542	6
350.33	7
351.119	6
351.907	6
352.695	7
353.483	6
354.271	5
355.059	9
355.846	4
356.634	6
357.422	6
358.209	7
358.997	5
359.784	6
360.571	6
361.359	5
362.146	7
362.933	4
363.72	5
364.507	7
365.294	3
366.081	4
366.867	5
367.654	6
368.44	6
369.227	5
370.013	4
370.8	3
371.586	4
372.372	6
373.158	2
373.944	5
374.73	5
375.516	6
376.302	3
377.088	5
377.873	7
378.659	4
379.445	5
380.23	3
381.015	4
381.801	5
382.586	4
383.371	4
384.156	5
384.941	4
385.726	4
386.511	3
387.296	5
388.08	6
388.865	5
389.649	5
390.434	3
391.218	7
392.003	4
392.787	7
393.571	4
394.355	6
395.139	7
395.923	6
396.707	6
397.491	4
398.274	8
399.058	8
399.842	6
400.625	6
401.408	5
402.192	9
402.975	7
403.758	7
404.541	7
405.324	7
406.107	9
406.89	7
407.673	7
408.456	6
409.238	8
410.021	7
410.803	7
411.586	9
412.368	6
413.151	6
413.933	8
414.715	8
415.497	9
416.279	9
417.061	9
417.843	8
418.624	8
419.406	9
420.188	8
420.969	10
421.751	11
422.532	10
423.313	10
424.095	12
424.876	10
425.657	12
426.438	12
427.219	13
428	12
428.78	12
429.561	12
430.342	12
431.122	10
431.903	14
432.683	13
433.464	16
434.244	16
435.024	17
435.804	18
436.584	18
437.364	22
438.144	20
438.924	21
439.704	26
440.483	22
441.263	23
442.042	25
442.822	29
443.601	30
444.38	30
445.16	34
445.939	33
446.718	38
447.497	39
448.276	45
449.054	48
449.833	51
450.612	58
451.391	61
452.169	66
452.948	73
453.726	83
454.504	91
455.282	102
456.061	114
456.839	124
457.617	138
458.395	152
459.172	172
459.95	188
460.728	210
461.506	235
462.283	262
463.061	292
463.838	321
464.615	354
465.393	390
466.17	454
466.947	487
467.724	538
468.501	597
469.278	670
470.055	744
470.831	816
471.608	913
472.385	1002
473.161	1094
473.938	1200
474.714	1342
475.49	1471
476.266	1615
477.043	1785
477.819	1957
478.595	2124
479.371	2329
480.146	2542
480.922	2805
481.698	3055
482.473	3320
483.249	3663
484.024	3978
484.8	4350
485.575	4745
486.35	5115
487.126	5614
487.901	6111
488.676	6626
489.451	7221
490.225	7849
491	8483
491.775	9257
492.55	10023
493.324	10758
494.099	11623
494.873	12417
495.647	13393
496.422	14307
497.196	15305
497.97	16322
498.744	17452
499.518	18449
500.292	19414
501.066	20428
501.839	21306
502.613	22198
503.387	23103
504.16	23695
504.934	24240
505.707	24669
506.48	24938
507.253	25060
508.027	24980
508.8	25041
509.573	24845
510.346	24563
511.118	23991
511.891	23517
512.664	22910
513.437	22215
514.209	21484
514.982	20714
515.754	19924
516.526	19054
517.298	18376
518.071	17569
518.843	16893
519.615	16312
520.387	15633
521.159	14999
521.93	14391
522.702	13873
523.474	13278
524.245	12724
525.017	12186
525.788	11713
526.56	11229
527.331	10699
528.102	10258
528.873	9821
529.644	9359
530.415	8951
531.186	8564
531.957	8115
532.728	7775
533.498	7365
534.269	6937
535.039	6564
535.81	6238
536.58	5891
537.351	5549
538.121	5260
538.891	4982
539.661	4753
540.431	4479
541.201	4220
541.971	3976
542.741	3786
543.51	3615
544.28	3428
545.05	3265
545.819	3090
546.588	2932
547.358	2818
548.127	2667
548.896	2536
549.665	2401
550.434	2287
551.203	2160
551.972	2049
552.741	1929
553.51	1828
554.278	1725
555.047	1631
555.815	1546
556.584	1474
557.352	1395
558.121	1305
558.889	1250
559.657	1180
560.425	1103
561.193	1041
561.961	974
562.729	944
563.496	877
564.264	839
565.032	779
565.799	748
566.567	707
567.334	670
568.101	633
568.869	591
569.636	555
570.403	526
571.17	487
571.937	470
572.704	443
573.471	421
574.237	396
575.004	376
575.771	354
576.537	324
577.303	311
578.07	291
578.836	272
579.602	256
580.368	242
581.134	236
581.9	223
582.666	211
583.432	198
584.198	186
584.964	178
585.729	170
586.495	159
587.26	147
588.025	142
588.791	136
589.556	128
590.321	121
591.086	117
591.851	108
592.616	102
593.381	99
594.146	91
594.911	86
595.675	83
596.44	85
597.204	80
597.969	72
598.733	72
599.497	70
600.261	62
601.025	62
601.79	60
602.553	55
603.317	54
604.081	52
604.845	47
605.609	46
606.372	48
607.136	44
607.899	42
608.662	42
609.426	39
610.189	37
610.952	38
611.715	32
612.478	34
613.241	31
614.004	28
614.767	29
615.529	28
616.292	25
617.055	27
617.817	26
618.579	22
619.342	24
620.104	22
620.866	21
621.628	21
622.39	20
623.152	18
623.914	20
624.676	17
625.438	17
626.199	16
626.961	17
627.722	17
628.484	17
629.245	14
630.006	13
630.768	16
631.529	15
632.29	11
633.051	13
633.812	12
634.573	11
635.333	11
636.094	9
636.855	9
637.615	12
638.376	10
639.136	10
639.896	11
640.657	9
641.417	12
642.177	10
642.937	7
643.697	10
644.457	10
645.216	9
645.976	9
646.736	7
647.495	9
648.255	7
649.014	9
649.774	8
650.533	8
651.292	8
652.051	8
652.81	6
653.569	5
654.328	9
655.087	7
655.846	4
656.604	8
657.363	6
658.121	5
658.88	7
659.638	4
660.397	7
661.155	8
661.913	6
662.671	6
663.429	4
664.187	6
664.945	5
665.703	6
666.46	7
667.218	5
667.976	4
668.733	5
669.49	5
670.248	5
671.005	6
671.762	5
672.519	7
673.276	5
674.033	5
674.79	3
675.547	4
676.304	2
677.06	5
677.817	4
678.574	2
679.33	3
680.086	4
680.843	5
681.599	5
682.355	3
683.111	4
683.867	3
684.623	3
685.379	4
686.135	7
686.89	5
687.646	2
688.402	4
689.157	5
689.912	4
690.668	5
691.423	2
692.178	3
692.933	3
693.688	5
694.443	3
695.198	3
695.953	5
696.708	2
697.462	4
698.217	5
698.972	4
699.726	4
700.48	6
701.235	4
701.989	5
702.743	3
703.497	3
704.251	4
705.005	2
705.759	4
706.513	2
707.266	3
708.02	4
708.774	4
709.527	4
710.28	4
711.034	5
711.787	5
712.54	2
713.293	5
714.046	2
714.799	4
715.552	2
716.305	3
717.058	2
717.81	5
718.563	6
719.315	4
720.068	5
720.82	1
721.573	4
722.325	6
723.077	2
723.829	3
724.581	5
725.333	2
726.085	3
726.836	5
727.588	3
728.34	5
729.091	6
729.843	2
730.594	3
731.346	7
732.097	5
732.848	4
733.599	4
734.35	5
735.101	4
735.852	3
736.603	4
737.354	3
738.104	4
738.855	2
739.605	5
740.356	4
741.106	3
741.856	3
742.607	0
743.357	5
744.107	3
744.857	5
745.607	3
746.357	2
747.106	5
747.856	6
748.606	3
749.355	4
750.105	6
750.854	5
751.603	6
752.353	4
753.102	5
753.851	3
754.6	4
755.349	4
756.098	8
756.847	4
757.595	7
758.344	5
759.093	4
759.841	5
760.589	4
761.338	6
762.086	5
762.834	7
763.582	3
764.331	5
765.079	8
765.826	6
766.574	4
767.322	7
768.07	5
768.817	7
769.565	5
770.312	7
771.06	6
771.807	9
772.554	6
773.302	6
774.049	8
774.796	8
775.543	6
776.29	7
777.036	8
777.783	9
778.53	7
779.276	7
780.023	6
780.769	8
781.516	8
782.262	7
783.008	6
783.754	10
784.5	11
785.246	8
785.992	9
786.738	7
787.484	5
788.23	9
788.975	9
789.721	7
790.466	7
791.212	8
791.957	7
792.702	7
793.447	9
794.193	7
794.938	6
795.683	8
796.427	7
797.172	8
797.917	9
798.662	6
799.406	8
800.151	9
800.895	9
801.64	8
802.384	7
803.128	8
803.872	7
804.616	6
805.36	7
806.104	5
806.848	8
807.592	6
808.336	4
809.079	6
809.823	6
810.566	6
811.31	5
812.053	8
812.796	6
813.539	3
814.283	3
815.026	4
815.769	7
816.511	5
817.254	5
817.997	5
818.74	4
819.482	2
820.225	4
820.967	5
821.71	4
822.452	4
823.194	6
823.936	3
824.678	5
825.42	4
826.162	5
826.904	5
827.646	2
828.388	2
829.129	6
829.871	3
830.612	3
831.354	4
832.095	3
832.836	2
833.577	3
834.319	3
835.06	4
835.801	1
836.542	6
837.282	3
838.023	4
838.764	5
839.504	2
840.245	4
840.985	2
841.726	3
842.466	3
843.206	4
843.946	4
844.687	3
845.427	5
846.166	3
846.906	3
847.646	4
848.386	4
849.125	2
849.865	4
850.605	3
851.344	2
852.083	2
852.823	2
853.562	0
854.301	5
855.04	1
855.779	2
856.518	2
857.257	2
857.995	3
858.734	3
859.473	2
860.211	3
860.95	3
861.688	3
862.426	2
863.165	1
863.903	2
864.641	2
865.379	2
866.117	2
866.855	0
867.593	1
868.33	2
869.068	1
869.806	2
870.543	2
871.28	2
872.018	0
872.755	2
873.492	2
874.229	-1
874.967	4
875.703	0
876.44	2
877.177	0
877.914	3
878.651	2
879.387	1
880.124	4
880.86	0
881.597	0
882.333	2
883.069	0
883.806	1
884.542	2
885.278	2
886.014	1
886.749	0
887.485	1
888.221	0
888.957	1
889.692	1
890.428	-1
891.163	3
891.899	0
892.634	3
893.369	0
894.104	2
894.839	3
895.574	1
896.309	0
897.044	2
897.779	0
898.514	-1
899.248	3
899.983	0
900.717	1
901.452	2
902.186	-3
902.92	2
903.654	-2
904.389	3
905.123	1
905.857	1
906.59	0
907.324	0
908.058	-1
908.792	-1
909.525	1
910.259	1
910.992	-2
911.726	1
912.459	0
913.192	1
913.925	0
914.658	1
915.391	0
916.124	2
916.857	-1
917.59	-1
918.323	2
919.055	0
919.788	-2
920.521	2
921.253	1
921.985	1
922.718	-1
923.45	-1
924.182	-2
924.914	1
925.646	2
926.378	1
927.11	1
927.841	0
928.573	1
929.305	-2
930.036	0
930.768	0
931.499	-2
932.23	2
932.962	0
933.693	1
934.424	-1
935.155	1
935.886	1
936.617	-1
937.348	-2
938.078	1
938.809	0
939.54	0
940.27	0
941.001	-1
941.731	0
942.461	2
943.191	-2
943.922	2
944.652	1
945.382	-1
946.112	1
946.841	1
947.571	0
948.301	2
949.031	-2
949.76	1
950.49	2
951.219	-1
951.948	0
952.678	2
953.407	0
954.136	0
954.865	1
955.594	1
956.323	0
957.052	-1
957.78	0
958.509	0
959.238	-2
959.966	1
960.695	0
961.423	0
962.151	-2
962.88	1
963.608	0
964.336	0
965.064	1
965.792	1
966.52	0
967.247	1
967.975	0
968.703	3
969.43	-1
970.158	-1
970.885	0
971.613	-1
972.34	1
973.067	1
973.794	-2
974.521	0
975.248	2
975.975	1
976.702	-1
977.429	1
978.156	-1
978.882	0
979.609	0
980.335	1
981.062	-2
981.788	0
982.514	1
983.24	-2
983.967	1
984.693	0
985.419	1
986.144	0
986.87	-2
987.596	-1
988.322	0
989.047	0
989.773	-2
990.498	2
991.224	0
991.949	-1
992.674	1
993.399	-1
994.124	0
994.849	-1
995.574	0
996.299	0
997.024	0
997.749	-1
998.473	0
999.198	3
999.922	0
1000.647	-1
1001.371	3
1002.095	-1
1002.82	-2
1003.544	0
1004.268	-1
1004.992	2
1005.716	0
1006.439	-1
1007.163	3
1007.887	0
1008.611	2
1009.334	1
1010.058	1
1010.781	0
1011.504	-1
1012.228	-1
1012.951	1
1013.674	0
1014.397	-1
1015.12	0
