节点500_285_QEPB04081__647__15-06-19-017.txt的数据

Date: Wed Nov 12 15:06:19 CST 2025
User: PC
Spectrometer: QEPB0408
触发模式: 0
积分时间 (秒): 1.000000E-2
Scans to average: 1
启用暗噪声校正: true
启用非线性校正: false
滑动平均宽度: 0
X轴模式: Wavelengths
Number of Pixels in Spectrum: 1044
>>>>>Begin Spectral Data<<<<<
220.843	-0.88
221.644	0.12
222.444	1.12
223.244	0.12
224.045	1.12
224.845	1.12
225.645	0.12
226.445	0.12
227.245	2.12
228.045	2.12
228.845	4.12
229.645	0.12
230.444	0.12
231.244	1.12
232.043	3.12
232.843	4.12
233.642	4.12
234.442	1.12
235.241	4.12
236.04	2.12
236.839	4.12
237.638	2.12
238.437	4.12
239.236	0.12
240.035	4.12
240.833	4.12
241.632	1.12
242.43	3.12
243.229	4.12
244.027	4.12
244.826	3.12
245.624	7.12
246.422	4.12
247.22	3.12
248.018	5.12
248.816	4.12
249.614	5.12
250.412	3.12
251.21	5.12
252.007	6.12
252.805	5.12
253.602	5.12
254.4	3.12
255.197	5.12
255.994	6.12
256.791	5.12
257.589	7.12
258.386	8.12
259.183	7.12
259.979	11.12
260.776	8.12
261.573	10.12
262.37	11.12
263.166	9.12
263.963	12.12
264.759	11.12
265.556	7.12
266.352	10.12
267.148	13.12
267.944	11.12
268.74	13.12
269.536	11.12
270.332	14.12
271.128	15.12
271.924	13.12
272.719	14.12
273.515	14.12
274.311	14.12
275.106	15.12
275.901	16.12
276.697	15.12
277.492	18.12
278.287	14.12
279.082	14.12
279.877	18.12
280.672	13.12
281.467	15.12
282.262	15.12
283.056	20.12
283.851	14.12
284.646	17.12
285.44	18.12
286.234	17.12
287.029	17.12
287.823	18.12
288.617	14.12
289.411	16.12
290.205	14.12
290.999	17.12
291.793	17.12
292.587	16.12
293.381	15.12
294.174	16.12
294.968	16.12
295.761	14.12
296.555	15.12
297.348	15.12
298.141	13.12
298.935	13.12
299.728	14.12
300.521	14.12
301.314	12.12
302.107	12.12
302.899	10.12
303.692	11.12
304.485	13.12
305.277	11.12
306.07	13.12
306.862	12.12
307.655	11.12
308.447	11.12
309.239	12.12
310.031	12.12
310.823	11.12
311.615	11.12
312.407	10.12
313.199	9.12
313.991	10.12
314.783	6.12
315.574	13.12
316.366	9.12
317.157	9.12
317.949	7.12
318.74	6.12
319.531	9.12
320.322	4.12
321.113	6.12
321.904	8.12
322.695	7.12
323.486	8.12
324.277	6.12
325.068	6.12
325.858	5.12
326.649	7.12
327.439	6.12
328.23	6.12
329.02	6.12
329.81	7.12
330.6	6.12
331.391	9.12
332.181	5.12
332.971	5.12
333.76	6.12
334.55	6.12
335.34	3.12
336.13	6.12
336.919	6.12
337.709	4.12
338.498	7.12
339.287	4.12
340.077	5.12
340.866	4.12
341.655	7.12
342.444	5.12
343.233	5.12
344.022	8.12
344.811	4.12
345.6	3.12
346.388	5.12
347.177	6.12
347.965	6.12
348.754	6.12
349.542	7.12
350.33	5.12
351.119	5.12
351.907	3.12
352.695	3.12
353.483	6.12
354.271	3.12
355.059	6.12
355.846	2.12
356.634	3.12
357.422	5.12
358.209	5.12
358.997	5.12
359.784	6.12
360.571	5.12
361.359	4.12
362.146	4.12
362.933	1.12
363.72	3.12
364.507	6.12
365.294	3.12
366.081	6.12
366.867	3.12
367.654	4.12
368.44	4.12
369.227	3.12
370.013	5.12
370.8	1.12
371.586	4.12
372.372	3.12
373.158	3.12
373.944	5.12
374.73	4.12
375.516	4.12
376.302	4.12
377.088	6.12
377.873	4.12
378.659	2.12
379.445	3.12
380.23	3.12
381.015	3.12
381.801	4.12
382.586	5.12
383.371	4.12
384.156	5.12
384.941	4.12
385.726	4.12
386.511	2.12
387.296	4.12
388.08	5.12
388.865	4.12
389.649	5.12
390.434	7.12
391.218	3.12
392.003	5.12
392.787	5.12
393.571	5.12
394.355	5.12
395.139	5.12
395.923	5.12
396.707	5.12
397.491	4.12
398.274	5.12
399.058	3.12
399.842	4.12
400.625	6.12
401.408	7.12
402.192	4.12
402.975	5.12
403.758	6.12
404.541	4.12
405.324	7.12
406.107	8.12
406.89	9.12
407.673	8.12
408.456	7.12
409.238	8.12
410.021	8.12
410.803	7.12
411.586	5.12
412.368	7.12
413.151	4.12
413.933	7.12
414.715	9.12
415.497	6.12
416.279	11.12
417.061	8.12
417.843	8.12
418.624	5.12
419.406	8.12
420.188	9.12
420.969	9.12
421.751	9.12
422.532	12.12
423.313	9.12
424.095	10.12
424.876	9.12
425.657	11.12
426.438	11.12
427.219	12.12
428	12.12
428.78	9.12
429.561	12.12
430.342	13.12
431.122	14.12
431.903	13.12
432.683	18.12
433.464	15.12
434.244	14.12
435.024	18.12
435.804	16.12
436.584	17.12
437.364	19.12
438.144	18.12
438.924	20.12
439.704	20.12
440.483	21.12
441.263	20.12
442.042	26.12
442.822	28.12
443.601	29.12
444.38	29.12
445.16	34.12
445.939	35.12
446.718	38.12
447.497	40.12
448.276	42.12
449.054	45.12
449.833	51.12
450.612	54.12
451.391	60.12
452.169	70.12
452.948	70.12
453.726	78.12
454.504	86.12
455.282	97.12
456.061	107.12
456.839	115.12
457.617	131.12
458.395	150.12
459.172	163.12
459.95	181.12
460.728	201.12
461.506	218.12
462.283	249.12
463.061	285.12
463.838	313.12
464.615	346.12
465.393	378.12
466.17	432.12
466.947	482.12
467.724	533.12
468.501	589.12
469.278	643.12
470.055	731.12
470.831	796.12
471.608	882.12
472.385	986.12
473.161	1092.12
473.938	1207.12
474.714	1325.12
475.49	1481.12
476.266	1607.12
477.043	1784.12
477.819	1944.12
478.595	2127.12
479.371	2355.12
480.146	2577.12
480.922	2814.12
481.698	3091.12
482.473	3381.12
483.249	3707.12
484.024	4042.12
484.8	4430.12
485.575	4822.12
486.35	5311.12
487.126	5797.12
487.901	6299.12
488.676	6858.12
489.451	7459.12
490.225	8150.12
491	8848.12
491.775	9656.12
492.55	10457.12
493.324	11321.12
494.099	12143.12
494.873	13032.12
495.647	14078.12
496.422	15073.12
497.196	16156.12
497.97	17237.12
498.744	18310.12
499.518	19360.12
500.292	20431.12
501.066	21437.12
501.839	22422.12
502.613	23326.12
503.387	24186.12
504.16	24831.12
504.934	25293.12
505.707	25676.12
506.48	25802.12
507.253	25832.12
508.027	25843.12
508.8	25748.12
509.573	25524.12
510.346	25052.12
511.118	24428.12
511.891	23846.12
512.664	23134.12
513.437	22383.12
514.209	21496.12
514.982	20746.12
515.754	19917.12
516.526	19052.12
517.298	18368.12
518.071	17542.12
518.843	16901.12
519.615	16274.12
520.387	15632.12
521.159	14949.12
521.93	14311.12
522.702	13805.12
523.474	13256.12
524.245	12670.12
525.017	12139.12
525.788	11673.12
526.56	11171.12
527.331	10636.12
528.102	10203.12
528.873	9793.12
529.644	9277.12
530.415	8877.12
531.186	8434.12
531.957	8016.12
532.728	7674.12
533.498	7262.12
534.269	6851.12
535.039	6473.12
535.81	6155.12
536.58	5793.12
537.351	5458.12
538.121	5154.12
538.891	4892.12
539.661	4635.12
540.431	4382.12
541.201	4147.12
541.971	3912.12
542.741	3694.12
543.51	3554.12
544.28	3358.12
545.05	3195.12
545.819	3053.12
546.588	2900.12
547.358	2744.12
548.127	2607.12
548.896	2488.12
549.665	2353.12
550.434	2234.12
551.203	2102.12
551.972	2016.12
552.741	1904.12
553.51	1799.12
554.278	1684.12
555.047	1597.12
555.815	1503.12
556.584	1434.12
557.352	1370.12
558.121	1275.12
558.889	1209.12
559.657	1147.12
560.425	1088.12
561.193	1007.12
561.961	957.12
562.729	912.12
563.496	860.12
564.264	822.12
565.032	767.12
565.799	729.12
566.567	677.12
567.334	649.12
568.101	604.12
568.869	576.12
569.636	544.12
570.403	505.12
571.17	479.12
571.937	452.12
572.704	428.12
573.471	409.12
574.237	390.12
575.004	357.12
575.771	336.12
576.537	313.12
577.303	297.12
578.07	287.12
578.836	268.12
579.602	248.12
580.368	239.12
581.134	226.12
581.9	213.12
582.666	200.12
583.432	195.12
584.198	181.12
584.964	169.12
585.729	166.12
586.495	154.12
587.26	149.12
588.025	134.12
588.791	134.12
589.556	128.12
590.321	116.12
591.086	111.12
591.851	103.12
592.616	100.12
593.381	94.12
594.146	92.12
594.911	87.12
595.675	85.12
596.44	80.12
597.204	75.12
597.969	72.12
598.733	68.12
599.497	67.12
600.261	64.12
601.025	58.12
601.79	56.12
602.553	54.12
603.317	54.12
604.081	44.12
604.845	48.12
605.609	48.12
606.372	44.12
607.136	43.12
607.899	40.12
608.662	36.12
609.426	37.12
610.189	35.12
610.952	33.12
611.715	33.12
612.478	31.12
613.241	27.12
614.004	28.12
614.767	27.12
615.529	24.12
616.292	23.12
617.055	24.12
617.817	22.12
618.579	24.12
619.342	22.12
620.104	21.12
620.866	20.12
621.628	20.12
622.39	21.12
623.152	20.12
623.914	17.12
624.676	18.12
625.438	17.12
626.199	14.12
626.961	17.12
627.722	14.12
628.484	15.12
629.245	15.12
630.006	15.12
630.768	13.12
631.529	17.12
632.29	14.12
633.051	13.12
633.812	15.12
634.573	11.12
635.333	12.12
636.094	11.12
636.855	9.12
637.615	12.12
638.376	11.12
639.136	8.12
639.896	10.12
640.657	9.12
641.417	9.12
642.177	9.12
642.937	8.12
643.697	9.12
644.457	9.12
645.216	7.12
645.976	9.12
646.736	7.12
647.495	7.12
648.255	7.12
649.014	7.12
649.774	9.12
650.533	7.12
651.292	8.12
652.051	6.12
652.81	7.12
653.569	8.12
654.328	7.12
655.087	5.12
655.846	6.12
656.604	5.12
657.363	4.12
658.121	5.12
658.88	5.12
659.638	4.12
660.397	6.12
661.155	5.12
661.913	6.12
662.671	6.12
663.429	3.12
664.187	4.12
664.945	4.12
665.703	1.12
666.46	5.12
667.218	3.12
667.976	5.12
668.733	5.12
669.49	5.12
670.248	7.12
671.005	3.12
671.762	2.12
672.519	6.12
673.276	3.12
674.033	3.12
674.79	4.12
675.547	3.12
676.304	2.12
677.06	6.12
677.817	5.12
678.574	3.12
679.33	3.12
680.086	2.12
680.843	2.12
681.599	2.12
682.355	5.12
683.111	5.12
683.867	3.12
684.623	4.12
685.379	1.12
686.135	4.12
686.89	6.12
687.646	4.12
688.402	3.12
689.157	3.12
689.912	3.12
690.668	2.12
691.423	5.12
692.178	3.12
692.933	2.12
693.688	3.12
694.443	1.12
695.198	4.12
695.953	2.12
696.708	5.12
697.462	4.12
698.217	1.12
698.972	3.12
699.726	2.12
700.48	3.12
701.235	3.12
701.989	3.12
702.743	5.12
703.497	2.12
704.251	6.12
705.005	2.12
705.759	4.12
706.513	3.12
707.266	2.12
708.02	4.12
708.774	6.12
709.527	3.12
710.28	3.12
711.034	3.12
711.787	3.12
712.54	4.12
713.293	2.12
714.046	1.12
714.799	3.12
715.552	2.12
716.305	1.12
717.058	1.12
717.81	4.12
718.563	3.12
719.315	3.12
720.068	3.12
720.82	4.12
721.573	5.12
722.325	4.12
723.077	0.12
723.829	3.12
724.581	1.12
725.333	4.12
726.085	3.12
726.836	0.12
727.588	1.12
728.34	3.12
729.091	3.12
729.843	4.12
730.594	5.12
731.346	3.12
732.097	1.12
732.848	2.12
733.599	2.12
734.35	4.12
735.101	4.12
735.852	3.12
736.603	1.12
737.354	3.12
738.104	5.12
738.855	3.12
739.605	6.12
740.356	5.12
741.106	3.12
741.856	5.12
742.607	4.12
743.357	5.12
744.107	3.12
744.857	7.12
745.607	3.12
746.357	4.12
747.106	3.12
747.856	5.12
748.606	4.12
749.355	5.12
750.105	3.12
750.854	5.12
751.603	6.12
752.353	7.12
753.102	4.12
753.851	7.12
754.6	4.12
755.349	3.12
756.098	4.12
756.847	4.12
757.595	4.12
758.344	3.12
759.093	3.12
759.841	6.12
760.589	4.12
761.338	7.12
762.086	5.12
762.834	7.12
763.582	3.12
764.331	9.12
765.079	7.12
765.826	5.12
766.574	8.12
767.322	6.12
768.07	5.12
768.817	5.12
769.565	6.12
770.312	5.12
771.06	5.12
771.807	6.12
772.554	4.12
773.302	8.12
774.049	7.12
774.796	5.12
775.543	6.12
776.29	7.12
777.036	4.12
777.783	6.12
778.53	7.12
779.276	8.12
780.023	6.12
780.769	8.12
781.516	9.12
782.262	7.12
783.008	6.12
783.754	10.12
784.5	7.12
785.246	8.12
785.992	8.12
786.738	7.12
787.484	8.12
788.23	6.12
788.975	6.12
789.721	6.12
790.466	6.12
791.212	7.12
791.957	9.12
792.702	8.12
793.447	6.12
794.193	6.12
794.938	6.12
795.683	3.12
796.427	7.12
797.172	6.12
797.917	7.12
798.662	4.12
799.406	6.12
800.151	6.12
800.895	5.12
801.64	6.12
802.384	7.12
803.128	8.12
803.872	4.12
804.616	4.12
805.36	7.12
806.104	5.12
806.848	6.12
807.592	6.12
808.336	5.12
809.079	5.12
809.823	4.12
810.566	4.12
811.31	5.12
812.053	3.12
812.796	3.12
813.539	6.12
814.283	5.12
815.026	3.12
815.769	4.12
816.511	3.12
817.254	2.12
817.997	4.12
818.74	4.12
819.482	4.12
820.225	3.12
820.967	6.12
821.71	3.12
822.452	5.12
823.194	3.12
823.936	4.12
824.678	1.12
825.42	3.12
826.162	2.12
826.904	2.12
827.646	4.12
828.388	2.12
829.129	1.12
829.871	5.12
830.612	3.12
831.354	3.12
832.095	3.12
832.836	3.12
833.577	4.12
834.319	2.12
835.06	3.12
835.801	4.12
836.542	3.12
837.282	2.12
838.023	1.12
838.764	1.12
839.504	2.12
840.245	4.12
840.985	4.12
841.726	1.12
842.466	3.12
843.206	3.12
843.946	3.12
844.687	2.12
845.427	1.12
846.166	3.12
846.906	3.12
847.646	5.12
848.386	0.12
849.125	3.12
849.865	1.12
850.605	2.12
851.344	0.12
852.083	1.12
852.823	2.12
853.562	1.12
854.301	2.12
855.04	3.12
855.779	2.12
856.518	1.12
857.257	0.12
857.995	1.12
858.734	1.12
859.473	4.12
860.211	0.12
860.95	2.12
861.688	1.12
862.426	2.12
863.165	1.12
863.903	0.12
864.641	-0.88
865.379	0.12
866.117	1.12
866.855	2.12
867.593	2.12
868.33	1.12
869.068	2.12
869.806	-0.88
870.543	1.12
871.28	0.12
872.018	0.12
872.755	-0.88
873.492	3.12
874.229	0.12
874.967	0.12
875.703	0.12
876.44	0.12
877.177	0.12
877.914	0.12
878.651	1.12
879.387	1.12
880.124	3.12
880.86	0.12
881.597	1.12
882.333	-0.88
883.069	0.12
883.806	0.12
884.542	-0.88
885.278	1.12
886.014	0.12
886.749	0.12
887.485	0.12
888.221	1.12
888.957	-0.88
889.692	-0.88
890.428	0.12
891.163	0.12
891.899	0.12
892.634	-1.88
893.369	1.12
894.104	0.12
894.839	0.12
895.574	1.12
896.309	0.12
897.044	-2.88
897.779	1.12
898.514	1.12
899.248	-0.88
899.983	-0.88
900.717	-0.88
901.452	-1.88
902.186	1.12
902.92	1.12
903.654	-2.88
904.389	-0.88
905.123	1.12
905.857	-0.88
906.59	0.12
907.324	-2.88
908.058	1.12
908.792	0.12
909.525	1.12
910.259	1.12
910.992	-1.88
911.726	-1.88
912.459	-0.88
913.192	-0.88
913.925	2.12
914.658	-0.88
915.391	0.12
916.124	-1.88
916.857	-0.88
917.59	-0.88
918.323	-0.88
919.055	0.12
919.788	-2.88
920.521	-0.88
921.253	0.12
921.985	0.12
922.718	1.12
923.45	-0.88
924.182	-0.88
924.914	-0.88
925.646	-1.88
926.378	-0.88
927.11	3.12
927.841	1.12
928.573	-0.88
929.305	1.12
930.036	1.12
930.768	-0.88
931.499	0.12
932.23	0.12
932.962	1.12
933.693	0.12
934.424	-0.88
935.155	-1.88
935.886	-0.88
936.617	1.12
937.348	0.12
938.078	-0.88
938.809	-1.88
939.54	-1.88
940.27	-1.88
941.001	-0.88
941.731	-0.88
942.461	0.12
943.191	-1.88
943.922	-1.88
944.652	-0.88
945.382	-2.88
946.112	-0.88
946.841	-0.88
947.571	-0.88
948.301	-0.88
949.031	-1.88
949.76	0.12
950.49	-0.88
951.219	-2.88
951.948	0.12
952.678	-1.88
953.407	0.12
954.136	-0.88
954.865	-0.88
955.594	-0.88
956.323	0.12
957.052	-1.88
957.78	-1.88
958.509	1.12
959.238	0.12
959.966	0.12
960.695	-0.88
961.423	0.12
962.151	0.12
962.88	-0.88
963.608	-0.88
964.336	-0.88
965.064	0.12
965.792	1.12
966.52	-2.88
967.247	1.12
967.975	-0.88
968.703	0.12
969.43	-1.88
970.158	-0.88
970.885	2.12
971.613	-1.88
972.34	0.12
973.067	-0.88
973.794	-0.88
974.521	-0.88
975.248	1.12
975.975	-0.88
976.702	-0.88
977.429	0.12
978.156	-1.88
978.882	-1.88
979.609	1.12
980.335	1.12
981.062	1.12
981.788	2.12
982.514	1.12
983.24	0.12
983.967	0.12
984.693	-0.88
985.419	-1.88
986.144	0.12
986.87	-2.88
987.596	-1.88
988.322	0.12
989.047	-2.88
989.773	-0.88
990.498	-0.88
991.224	0.12
991.949	-0.88
992.674	-2.88
993.399	0.12
994.124	0.12
994.849	0.12
995.574	-1.88
996.299	1.12
997.024	0.12
997.749	0.12
998.473	-1.88
999.198	0.12
999.922	1.12
1000.647	0.12
1001.371	5.12
1002.095	-0.88
1002.82	-1.88
1003.544	-2.88
1004.268	0.12
1004.992	0.12
1005.716	0.12
1006.439	-0.88
1007.163	-0.88
1007.887	2.12
1008.611	-0.88
1009.334	1.12
1010.058	-0.88
1010.781	-0.88
1011.504	-1.88
1012.228	-0.88
1012.951	0.12
1013.674	0.12
1014.397	0.12
1015.12	0.12
