节点500_285_QEPB04081__317__15-00-49-749.txt的数据

Date: Wed Nov 12 15:00:49 CST 2025
User: PC
Spectrometer: QEPB0408
触发模式: 0
积分时间 (秒): 1.000000E-2
Scans to average: 1
启用暗噪声校正: true
启用非线性校正: false
滑动平均宽度: 0
X轴模式: Wavelengths
Number of Pixels in Spectrum: 1044
>>>>>Begin Spectral Data<<<<<
220.843	0.38
221.644	0.38
222.444	2.38
223.244	1.38
224.045	2.38
224.845	2.38
225.645	5.38
226.445	3.38
227.245	2.38
228.045	2.38
228.845	4.38
229.645	2.38
230.444	2.38
231.244	2.38
232.043	3.38
232.843	2.38
233.642	5.38
234.442	6.38
235.241	5.38
236.04	2.38
236.839	5.38
237.638	4.38
238.437	4.38
239.236	3.38
240.035	1.38
240.833	5.38
241.632	6.38
242.43	6.38
243.229	4.38
244.027	7.38
244.826	8.38
245.624	5.38
246.422	6.38
247.22	6.38
248.018	6.38
248.816	6.38
249.614	7.38
250.412	4.38
251.21	5.38
252.007	6.38
252.805	7.38
253.602	8.38
254.4	9.38
255.197	8.38
255.994	6.38
256.791	6.38
257.589	9.38
258.386	9.38
259.183	13.38
259.979	9.38
260.776	9.38
261.573	12.38
262.37	9.38
263.166	9.38
263.963	12.38
264.759	13.38
265.556	12.38
266.352	13.38
267.148	12.38
267.944	13.38
268.74	14.38
269.536	14.38
270.332	15.38
271.128	17.38
271.924	17.38
272.719	15.38
273.515	17.38
274.311	19.38
275.106	18.38
275.901	16.38
276.697	19.38
277.492	19.38
278.287	18.38
279.082	18.38
279.877	19.38
280.672	21.38
281.467	16.38
282.262	20.38
283.056	19.38
283.851	19.38
284.646	18.38
285.44	23.38
286.234	20.38
287.029	18.38
287.823	22.38
288.617	18.38
289.411	18.38
290.205	18.38
290.999	20.38
291.793	21.38
292.587	18.38
293.381	19.38
294.174	17.38
294.968	17.38
295.761	17.38
296.555	14.38
297.348	17.38
298.141	14.38
298.935	18.38
299.728	15.38
300.521	14.38
301.314	14.38
302.107	14.38
302.899	13.38
303.692	15.38
304.485	13.38
305.277	14.38
306.07	12.38
306.862	14.38
307.655	11.38
308.447	14.38
309.239	13.38
310.031	12.38
310.823	11.38
311.615	10.38
312.407	10.38
313.199	9.38
313.991	10.38
314.783	12.38
315.574	8.38
316.366	9.38
317.157	10.38
317.949	10.38
318.74	9.38
319.531	9.38
320.322	9.38
321.113	6.38
321.904	8.38
322.695	8.38
323.486	8.38
324.277	10.38
325.068	7.38
325.858	8.38
326.649	7.38
327.439	6.38
328.23	5.38
329.02	9.38
329.81	8.38
330.6	5.38
331.391	7.38
332.181	5.38
332.971	6.38
333.76	8.38
334.55	7.38
335.34	8.38
336.13	7.38
336.919	8.38
337.709	8.38
338.498	6.38
339.287	8.38
340.077	10.38
340.866	7.38
341.655	7.38
342.444	7.38
343.233	6.38
344.022	8.38
344.811	8.38
345.6	9.38
346.388	6.38
347.177	6.38
347.965	7.38
348.754	4.38
349.542	6.38
350.33	5.38
351.119	6.38
351.907	6.38
352.695	6.38
353.483	4.38
354.271	6.38
355.059	4.38
355.846	6.38
356.634	4.38
357.422	8.38
358.209	7.38
358.997	6.38
359.784	5.38
360.571	6.38
361.359	7.38
362.146	4.38
362.933	7.38
363.72	7.38
364.507	4.38
365.294	6.38
366.081	4.38
366.867	4.38
367.654	4.38
368.44	7.38
369.227	6.38
370.013	6.38
370.8	6.38
371.586	6.38
372.372	7.38
373.158	5.38
373.944	6.38
374.73	4.38
375.516	5.38
376.302	8.38
377.088	6.38
377.873	9.38
378.659	5.38
379.445	3.38
380.23	6.38
381.015	5.38
381.801	6.38
382.586	7.38
383.371	4.38
384.156	5.38
384.941	5.38
385.726	5.38
386.511	5.38
387.296	6.38
388.08	5.38
388.865	7.38
389.649	6.38
390.434	3.38
391.218	8.38
392.003	5.38
392.787	7.38
393.571	10.38
394.355	7.38
395.139	6.38
395.923	5.38
396.707	8.38
397.491	6.38
398.274	5.38
399.058	7.38
399.842	4.38
400.625	7.38
401.408	8.38
402.192	6.38
402.975	8.38
403.758	9.38
404.541	10.38
405.324	7.38
406.107	7.38
406.89	10.38
407.673	8.38
408.456	7.38
409.238	8.38
410.021	9.38
410.803	9.38
411.586	9.38
412.368	9.38
413.151	8.38
413.933	8.38
414.715	6.38
415.497	11.38
416.279	10.38
417.061	7.38
417.843	11.38
418.624	10.38
419.406	12.38
420.188	9.38
420.969	15.38
421.751	10.38
422.532	8.38
423.313	13.38
424.095	10.38
424.876	13.38
425.657	10.38
426.438	10.38
427.219	10.38
428	13.38
428.78	12.38
429.561	13.38
430.342	13.38
431.122	13.38
431.903	15.38
432.683	14.38
433.464	14.38
434.244	19.38
435.024	15.38
435.804	20.38
436.584	20.38
437.364	21.38
438.144	20.38
438.924	19.38
439.704	24.38
440.483	23.38
441.263	26.38
442.042	26.38
442.822	26.38
443.601	30.38
444.38	30.38
445.16	30.38
445.939	36.38
446.718	41.38
447.497	43.38
448.276	44.38
449.054	45.38
449.833	49.38
450.612	51.38
451.391	54.38
452.169	58.38
452.948	66.38
453.726	76.38
454.504	83.38
455.282	88.38
456.061	98.38
456.839	109.38
457.617	117.38
458.395	135.38
459.172	150.38
459.95	164.38
460.728	184.38
461.506	198.38
462.283	237.38
463.061	256.38
463.838	293.38
464.615	318.38
465.393	363.38
466.17	393.38
466.947	452.38
467.724	504.38
468.501	553.38
469.278	620.38
470.055	692.38
470.831	763.38
471.608	842.38
472.385	961.38
473.161	1050.38
473.938	1165.38
474.714	1294.38
475.49	1432.38
476.266	1576.38
477.043	1742.38
477.819	1924.38
478.595	2139.38
479.371	2350.38
480.146	2606.38
480.922	2861.38
481.698	3146.38
482.473	3455.38
483.249	3823.38
484.024	4205.38
484.8	4636.38
485.575	5118.38
486.35	5600.38
487.126	6117.38
487.901	6801.38
488.676	7366.38
489.451	8089.38
490.225	8848.38
491	9666.38
491.775	10591.38
492.55	11588.38
493.324	12484.38
494.099	13520.38
494.873	14517.38
495.647	15647.38
496.422	16818.38
497.196	18010.38
497.97	19275.38
498.744	20469.38
499.518	21635.38
500.292	22731.38
501.066	23812.38
501.839	24778.38
502.613	25730.38
503.387	26383.38
504.16	27124.38
504.934	27472.38
505.707	27513.38
506.48	27602.38
507.253	27445.38
508.027	27184.38
508.8	26952.38
509.573	26427.38
510.346	25852.38
511.118	24992.38
511.891	24263.38
512.664	23282.38
513.437	22469.38
514.209	21545.38
514.982	20662.38
515.754	19725.38
516.526	18804.38
517.298	17993.38
518.071	17205.38
518.843	16557.38
519.615	15967.38
520.387	15371.38
521.159	14714.38
521.93	14135.38
522.702	13611.38
523.474	13019.38
524.245	12436.38
525.017	11881.38
525.788	11479.38
526.56	10895.38
527.331	10413.38
528.102	9976.38
528.873	9497.38
529.644	8998.38
530.415	8618.38
531.186	8115.38
531.957	7719.38
532.728	7341.38
533.498	6930.38
534.269	6541.38
535.039	6205.38
535.81	5838.38
536.58	5525.38
537.351	5192.38
538.121	4899.38
538.891	4633.38
539.661	4368.38
540.431	4133.38
541.201	3912.38
541.971	3700.38
542.741	3539.38
543.51	3350.38
544.28	3192.38
545.05	3049.38
545.819	2890.38
546.588	2734.38
547.358	2606.38
548.127	2476.38
548.896	2346.38
549.665	2225.38
550.434	2129.38
551.203	1993.38
551.972	1889.38
552.741	1784.38
553.51	1697.38
554.278	1594.38
555.047	1505.38
555.815	1431.38
556.584	1337.38
557.352	1277.38
558.121	1205.38
558.889	1128.38
559.657	1067.38
560.425	1011.38
561.193	940.38
561.961	892.38
562.729	845.38
563.496	797.38
564.264	757.38
565.032	708.38
565.799	690.38
566.567	637.38
567.334	609.38
568.101	578.38
568.869	536.38
569.636	513.38
570.403	472.38
571.17	448.38
571.937	420.38
572.704	402.38
573.471	382.38
574.237	361.38
575.004	343.38
575.771	322.38
576.537	298.38
577.303	277.38
578.07	268.38
578.836	248.38
579.602	231.38
580.368	218.38
581.134	210.38
581.9	204.38
582.666	191.38
583.432	178.38
584.198	171.38
584.964	162.38
585.729	157.38
586.495	142.38
587.26	142.38
588.025	130.38
588.791	125.38
589.556	121.38
590.321	109.38
591.086	104.38
591.851	102.38
592.616	95.38
593.381	92.38
594.146	85.38
594.911	83.38
595.675	79.38
596.44	75.38
597.204	67.38
597.969	71.38
598.733	66.38
599.497	65.38
600.261	57.38
601.025	56.38
601.79	53.38
602.553	51.38
603.317	48.38
604.081	48.38
604.845	44.38
605.609	41.38
606.372	40.38
607.136	41.38
607.899	40.38
608.662	36.38
609.426	36.38
610.189	34.38
610.952	34.38
611.715	30.38
612.478	33.38
613.241	28.38
614.004	26.38
614.767	27.38
615.529	26.38
616.292	25.38
617.055	25.38
617.817	23.38
618.579	22.38
619.342	22.38
620.104	20.38
620.866	18.38
621.628	20.38
622.39	20.38
623.152	19.38
623.914	21.38
624.676	16.38
625.438	18.38
626.199	17.38
626.961	17.38
627.722	15.38
628.484	15.38
629.245	12.38
630.006	13.38
630.768	13.38
631.529	13.38
632.29	12.38
633.051	11.38
633.812	14.38
634.573	13.38
635.333	12.38
636.094	12.38
636.855	13.38
637.615	11.38
638.376	10.38
639.136	11.38
639.896	10.38
640.657	11.38
641.417	9.38
642.177	10.38
642.937	10.38
643.697	11.38
644.457	11.38
645.216	7.38
645.976	8.38
646.736	8.38
647.495	9.38
648.255	8.38
649.014	9.38
649.774	7.38
650.533	7.38
651.292	9.38
652.051	7.38
652.81	4.38
653.569	7.38
654.328	7.38
655.087	6.38
655.846	7.38
656.604	6.38
657.363	4.38
658.121	6.38
658.88	5.38
659.638	7.38
660.397	6.38
661.155	5.38
661.913	6.38
662.671	4.38
663.429	4.38
664.187	3.38
664.945	6.38
665.703	4.38
666.46	6.38
667.218	5.38
667.976	4.38
668.733	7.38
669.49	7.38
670.248	5.38
671.005	7.38
671.762	2.38
672.519	3.38
673.276	6.38
674.033	4.38
674.79	4.38
675.547	5.38
676.304	5.38
677.06	5.38
677.817	3.38
678.574	3.38
679.33	4.38
680.086	3.38
680.843	3.38
681.599	5.38
682.355	2.38
683.111	5.38
683.867	3.38
684.623	4.38
685.379	4.38
686.135	6.38
686.89	4.38
687.646	4.38
688.402	4.38
689.157	5.38
689.912	4.38
690.668	6.38
691.423	2.38
692.178	4.38
692.933	4.38
693.688	5.38
694.443	6.38
695.198	5.38
695.953	6.38
696.708	5.38
697.462	1.38
698.217	5.38
698.972	1.38
699.726	4.38
700.48	4.38
701.235	3.38
701.989	2.38
702.743	4.38
703.497	4.38
704.251	2.38
705.005	6.38
705.759	2.38
706.513	6.38
707.266	4.38
708.02	3.38
708.774	3.38
709.527	3.38
710.28	4.38
711.034	2.38
711.787	3.38
712.54	1.38
713.293	2.38
714.046	4.38
714.799	2.38
715.552	4.38
716.305	5.38
717.058	3.38
717.81	3.38
718.563	1.38
719.315	5.38
720.068	2.38
720.82	4.38
721.573	4.38
722.325	2.38
723.077	6.38
723.829	3.38
724.581	4.38
725.333	4.38
726.085	4.38
726.836	5.38
727.588	3.38
728.34	3.38
729.091	2.38
729.843	2.38
730.594	4.38
731.346	4.38
732.097	5.38
732.848	3.38
733.599	4.38
734.35	4.38
735.101	4.38
735.852	4.38
736.603	5.38
737.354	5.38
738.104	6.38
738.855	3.38
739.605	5.38
740.356	4.38
741.106	5.38
741.856	3.38
742.607	6.38
743.357	3.38
744.107	7.38
744.857	4.38
745.607	3.38
746.357	6.38
747.106	2.38
747.856	2.38
748.606	4.38
749.355	6.38
750.105	5.38
750.854	5.38
751.603	6.38
752.353	6.38
753.102	4.38
753.851	4.38
754.6	5.38
755.349	8.38
756.098	5.38
756.847	7.38
757.595	5.38
758.344	5.38
759.093	7.38
759.841	6.38
760.589	6.38
761.338	7.38
762.086	5.38
762.834	5.38
763.582	7.38
764.331	7.38
765.079	7.38
765.826	8.38
766.574	9.38
767.322	9.38
768.07	8.38
768.817	8.38
769.565	9.38
770.312	8.38
771.06	7.38
771.807	7.38
772.554	9.38
773.302	8.38
774.049	8.38
774.796	7.38
775.543	9.38
776.29	8.38
777.036	7.38
777.783	11.38
778.53	8.38
779.276	8.38
780.023	10.38
780.769	10.38
781.516	10.38
782.262	7.38
783.008	6.38
783.754	10.38
784.5	9.38
785.246	11.38
785.992	10.38
786.738	9.38
787.484	8.38
788.23	10.38
788.975	11.38
789.721	7.38
790.466	11.38
791.212	8.38
791.957	7.38
792.702	10.38
793.447	10.38
794.193	10.38
794.938	9.38
795.683	10.38
796.427	11.38
797.172	9.38
797.917	7.38
798.662	9.38
799.406	7.38
800.151	5.38
800.895	9.38
801.64	8.38
802.384	7.38
803.128	8.38
803.872	8.38
804.616	8.38
805.36	7.38
806.104	9.38
806.848	8.38
807.592	6.38
808.336	6.38
809.079	8.38
809.823	5.38
810.566	4.38
811.31	5.38
812.053	7.38
812.796	5.38
813.539	5.38
814.283	6.38
815.026	4.38
815.769	7.38
816.511	3.38
817.254	4.38
817.997	4.38
818.74	3.38
819.482	6.38
820.225	5.38
820.967	5.38
821.71	6.38
822.452	6.38
823.194	5.38
823.936	5.38
824.678	3.38
825.42	5.38
826.162	6.38
826.904	6.38
827.646	4.38
828.388	6.38
829.129	4.38
829.871	7.38
830.612	3.38
831.354	4.38
832.095	5.38
832.836	5.38
833.577	5.38
834.319	2.38
835.06	6.38
835.801	2.38
836.542	4.38
837.282	5.38
838.023	4.38
838.764	2.38
839.504	4.38
840.245	1.38
840.985	4.38
841.726	4.38
842.466	4.38
843.206	4.38
843.946	4.38
844.687	4.38
845.427	6.38
846.166	3.38
846.906	5.38
847.646	4.38
848.386	3.38
849.125	2.38
849.865	3.38
850.605	4.38
851.344	3.38
852.083	4.38
852.823	1.38
853.562	4.38
854.301	2.38
855.04	2.38
855.779	4.38
856.518	2.38
857.257	2.38
857.995	2.38
858.734	2.38
859.473	2.38
860.211	3.38
860.95	2.38
861.688	2.38
862.426	3.38
863.165	3.38
863.903	1.38
864.641	2.38
865.379	5.38
866.117	1.38
866.855	2.38
867.593	1.38
868.33	2.38
869.068	2.38
869.806	3.38
870.543	2.38
871.28	1.38
872.018	2.38
872.755	1.38
873.492	2.38
874.229	2.38
874.967	1.38
875.703	0.38
876.44	3.38
877.177	1.38
877.914	2.38
878.651	1.38
879.387	1.38
880.124	2.38
880.86	1.38
881.597	2.38
882.333	2.38
883.069	2.38
883.806	2.38
884.542	1.38
885.278	0.38
886.014	0.38
886.749	1.38
887.485	3.38
888.221	1.38
888.957	3.38
889.692	1.38
890.428	1.38
891.163	3.38
891.899	-1.62
892.634	0.38
893.369	2.38
894.104	0.38
894.839	2.38
895.574	-1.62
896.309	2.38
897.044	2.38
897.779	2.38
898.514	0.38
899.248	-0.62
899.983	2.38
900.717	-1.62
901.452	0.38
902.186	2.38
902.92	0.38
903.654	1.38
904.389	0.38
905.123	0.38
905.857	0.38
906.59	1.38
907.324	2.38
908.058	2.38
908.792	0.38
909.525	0.38
910.259	2.38
910.992	1.38
911.726	1.38
912.459	0.38
913.192	1.38
913.925	3.38
914.658	-0.62
915.391	1.38
916.124	0.38
916.857	-1.62
917.59	1.38
918.323	-0.62
919.055	0.38
919.788	-0.62
920.521	0.38
921.253	1.38
921.985	0.38
922.718	2.38
923.45	1.38
924.182	0.38
924.914	0.38
925.646	0.38
926.378	2.38
927.11	2.38
927.841	3.38
928.573	1.38
929.305	-1.62
930.036	-0.62
930.768	2.38
931.499	1.38
932.23	-0.62
932.962	2.38
933.693	0.38
934.424	-0.62
935.155	3.38
935.886	1.38
936.617	2.38
937.348	0.38
938.078	0.38
938.809	2.38
939.54	1.38
940.27	-1.62
941.001	-0.62
941.731	3.38
942.461	2.38
943.191	-0.62
943.922	0.38
944.652	0.38
945.382	2.38
946.112	2.38
946.841	2.38
947.571	2.38
948.301	-0.62
949.031	2.38
949.76	-0.62
950.49	2.38
951.219	0.38
951.948	1.38
952.678	1.38
953.407	0.38
954.136	0.38
954.865	0.38
955.594	1.38
956.323	2.38
957.052	0.38
957.78	0.38
958.509	0.38
959.238	1.38
959.966	1.38
960.695	1.38
961.423	0.38
962.151	0.38
962.88	-1.62
963.608	1.38
964.336	0.38
965.064	2.38
965.792	0.38
966.52	1.38
967.247	2.38
967.975	-1.62
968.703	0.38
969.43	1.38
970.158	3.38
970.885	-0.62
971.613	1.38
972.34	-1.62
973.067	-0.62
973.794	-1.62
974.521	2.38
975.248	-1.62
975.975	2.38
976.702	2.38
977.429	-2.62
978.156	0.38
978.882	0.38
979.609	0.38
980.335	-1.62
981.062	1.38
981.788	2.38
982.514	0.38
983.24	0.38
983.967	-0.62
984.693	2.38
985.419	0.38
986.144	-2.62
986.87	0.38
987.596	0.38
988.322	0.38
989.047	2.38
989.773	0.38
990.498	1.38
991.224	0.38
991.949	1.38
992.674	-0.62
993.399	1.38
994.124	2.38
994.849	1.38
995.574	1.38
996.299	2.38
997.024	1.38
997.749	1.38
998.473	1.38
999.198	0.38
999.922	-1.62
1000.647	2.38
1001.371	3.38
1002.095	-0.62
1002.82	-0.62
1003.544	-1.62
1004.268	2.38
1004.992	0.38
1005.716	3.38
1006.439	2.38
1007.163	2.38
1007.887	1.38
1008.611	-1.62
1009.334	2.38
1010.058	2.38
1010.781	-1.62
1011.504	2.38
1012.228	1.38
1012.951	0.38
1013.674	-0.62
1014.397	-0.62
1015.12	0.38
