节点500_285_QEPB04081__145__14-57-58-176.txt的数据

Date: Wed Nov 12 14:57:58 CST 2025
User: PC
Spectrometer: QEPB0408
触发模式: 0
积分时间 (秒): 1.000000E-2
Scans to average: 1
启用暗噪声校正: true
启用非线性校正: false
滑动平均宽度: 0
X轴模式: Wavelengths
Number of Pixels in Spectrum: 1044
>>>>>Begin Spectral Data<<<<<
220.843	2
221.644	4
222.444	1
223.244	4
224.045	-1
224.845	4
225.645	4
226.445	4
227.245	4
228.045	3
228.845	4
229.645	2
230.444	3
231.244	6
232.043	5
232.843	4
233.642	6
234.442	5
235.241	2
236.04	3
236.839	5
237.638	4
238.437	4
239.236	6
240.035	4
240.833	3
241.632	5
242.43	8
243.229	7
244.027	5
244.826	5
245.624	7
246.422	4
247.22	6
248.018	8
248.816	8
249.614	6
250.412	9
251.21	5
252.007	8
252.805	10
253.602	9
254.4	9
255.197	9
255.994	11
256.791	8
257.589	10
258.386	10
259.183	8
259.979	10
260.776	10
261.573	10
262.37	11
263.166	13
263.963	11
264.759	12
265.556	13
266.352	12
267.148	16
267.944	14
268.74	15
269.536	16
270.332	15
271.128	17
271.924	17
272.719	16
273.515	19
274.311	17
275.106	19
275.901	18
276.697	18
277.492	18
278.287	18
279.082	22
279.877	21
280.672	23
281.467	22
282.262	18
283.056	18
283.851	20
284.646	20
285.44	20
286.234	21
287.029	23
287.823	19
288.617	21
289.411	17
290.205	18
290.999	20
291.793	21
292.587	18
293.381	21
294.174	19
294.968	18
295.761	19
296.555	16
297.348	16
298.141	15
298.935	17
299.728	17
300.521	15
301.314	14
302.107	15
302.899	13
303.692	14
304.485	16
305.277	14
306.07	12
306.862	12
307.655	13
308.447	12
309.239	13
310.031	13
310.823	12
311.615	10
312.407	11
313.199	12
313.991	11
314.783	11
315.574	9
316.366	9
317.157	9
317.949	8
318.74	8
319.531	10
320.322	10
321.113	10
321.904	9
322.695	8
323.486	8
324.277	7
325.068	10
325.858	9
326.649	8
327.439	8
328.23	8
329.02	7
329.81	7
330.6	7
331.391	9
332.181	8
332.971	7
333.76	8
334.55	8
335.34	7
336.13	9
336.919	8
337.709	5
338.498	9
339.287	9
340.077	5
340.866	5
341.655	6
342.444	9
343.233	8
344.022	6
344.811	9
345.6	8
346.388	6
347.177	8
347.965	10
348.754	9
349.542	5
350.33	4
351.119	8
351.907	7
352.695	7
353.483	7
354.271	6
355.059	8
355.846	6
356.634	10
357.422	8
358.209	7
358.997	5
359.784	6
360.571	8
361.359	6
362.146	7
362.933	5
363.72	7
364.507	9
365.294	5
366.081	7
366.867	6
367.654	7
368.44	4
369.227	5
370.013	7
370.8	6
371.586	7
372.372	6
373.158	4
373.944	4
374.73	4
375.516	5
376.302	5
377.088	7
377.873	7
378.659	4
379.445	4
380.23	6
381.015	4
381.801	6
382.586	7
383.371	5
384.156	8
384.941	7
385.726	7
386.511	6
387.296	8
388.08	5
388.865	8
389.649	5
390.434	8
391.218	7
392.003	6
392.787	8
393.571	7
394.355	8
395.139	8
395.923	6
396.707	7
397.491	6
398.274	8
399.058	8
399.842	7
400.625	10
401.408	7
402.192	8
402.975	8
403.758	8
404.541	6
405.324	7
406.107	8
406.89	7
407.673	8
408.456	9
409.238	9
410.021	8
410.803	8
411.586	8
412.368	8
413.151	11
413.933	12
414.715	11
415.497	7
416.279	9
417.061	10
417.843	10
418.624	10
419.406	11
420.188	11
420.969	12
421.751	10
422.532	9
423.313	13
424.095	14
424.876	15
425.657	11
426.438	14
427.219	12
428	15
428.78	13
429.561	14
430.342	14
431.122	13
431.903	16
432.683	14
433.464	17
434.244	16
435.024	18
435.804	17
436.584	18
437.364	24
438.144	20
438.924	23
439.704	21
440.483	24
441.263	25
442.042	22
442.822	26
443.601	28
444.38	26
445.16	31
445.939	29
446.718	34
447.497	38
448.276	43
449.054	41
449.833	49
450.612	54
451.391	53
452.169	62
452.948	64
453.726	72
454.504	75
455.282	87
456.061	93
456.839	106
457.617	121
458.395	127
459.172	142
459.95	162
460.728	180
461.506	202
462.283	218
463.061	239
463.838	279
464.615	307
465.393	345
466.17	387
466.947	431
467.724	479
468.501	533
469.278	600
470.055	664
470.831	745
471.608	828
472.385	929
473.161	1022
473.938	1137
474.714	1258
475.49	1394
476.266	1560
477.043	1723
477.819	1918
478.595	2146
479.371	2345
480.146	2589
480.922	2886
481.698	3201
482.473	3516
483.249	3878
484.024	4295
484.8	4730
485.575	5215
486.35	5736
487.126	6310
487.901	6938
488.676	7644
489.451	8422
490.225	9182
491	10110
491.775	11052
492.55	12052
493.324	13112
494.099	14184
494.873	15310
495.647	16527
496.422	17799
497.196	18984
497.97	20261
498.744	21517
499.518	22659
500.292	23904
501.066	25012
501.839	25923
502.613	26814
503.387	27477
504.16	28049
504.934	28326
505.707	28388
506.48	28301
507.253	28185
508.027	27812
508.8	27363
509.573	26754
510.346	26085
511.118	25204
511.891	24291
512.664	23376
513.437	22408
514.209	21412
514.982	20518
515.754	19540
516.526	18688
517.298	17882
518.071	17075
518.843	16412
519.615	15749
520.387	15154
521.159	14590
521.93	13957
522.702	13399
523.474	12900
524.245	12307
525.017	11770
525.788	11309
526.56	10791
527.331	10249
528.102	9824
528.873	9317
529.644	8852
530.415	8411
531.186	7986
531.957	7549
532.728	7173
533.498	6742
534.269	6414
535.039	6011
535.81	5692
536.58	5365
537.351	5045
538.121	4773
538.891	4514
539.661	4276
540.431	4034
541.201	3817
541.971	3619
542.741	3433
543.51	3255
544.28	3094
545.05	2955
545.819	2815
546.588	2657
547.358	2534
548.127	2417
548.896	2281
549.665	2175
550.434	2055
551.203	1921
551.972	1842
552.741	1738
553.51	1649
554.278	1550
555.047	1452
555.815	1373
556.584	1304
557.352	1234
558.121	1159
558.889	1082
559.657	1042
560.425	986
561.193	904
561.961	861
562.729	818
563.496	772
564.264	727
565.032	696
565.799	664
566.567	622
567.334	582
568.101	551
568.869	520
569.636	484
570.403	461
571.17	435
571.937	411
572.704	390
573.471	360
574.237	350
575.004	320
575.771	307
576.537	286
577.303	270
578.07	254
578.836	241
579.602	228
580.368	213
581.134	209
581.9	188
582.666	184
583.432	170
584.198	161
584.964	154
585.729	144
586.495	142
587.26	133
588.025	127
588.791	119
589.556	114
590.321	108
591.086	104
591.851	97
592.616	92
593.381	87
594.146	84
594.911	81
595.675	78
596.44	72
597.204	68
597.969	68
598.733	61
599.497	61
600.261	59
601.025	57
601.79	48
602.553	54
603.317	46
604.081	47
604.845	46
605.609	43
606.372	40
607.136	39
607.899	39
608.662	35
609.426	36
610.189	32
610.952	32
611.715	30
612.478	27
613.241	30
614.004	28
614.767	28
615.529	26
616.292	24
617.055	24
617.817	24
618.579	24
619.342	22
620.104	20
620.866	20
621.628	19
622.39	21
623.152	18
623.914	18
624.676	18
625.438	20
626.199	14
626.961	14
627.722	15
628.484	16
629.245	17
630.006	13
630.768	14
631.529	14
632.29	12
633.051	12
633.812	15
634.573	12
635.333	14
636.094	12
636.855	11
637.615	11
638.376	8
639.136	11
639.896	9
640.657	10
641.417	9
642.177	10
642.937	5
643.697	11
644.457	9
645.216	7
645.976	8
646.736	8
647.495	7
648.255	8
649.014	6
649.774	9
650.533	7
651.292	4
652.051	11
652.81	7
653.569	7
654.328	8
655.087	9
655.846	6
656.604	7
657.363	7
658.121	7
658.88	8
659.638	8
660.397	5
661.155	6
661.913	6
662.671	5
663.429	5
664.187	5
664.945	7
665.703	6
666.46	6
667.218	4
667.976	6
668.733	5
669.49	8
670.248	7
671.005	5
671.762	6
672.519	7
673.276	7
674.033	6
674.79	5
675.547	4
676.304	4
677.06	5
677.817	6
678.574	3
679.33	4
680.086	5
680.843	3
681.599	4
682.355	4
683.111	6
683.867	6
684.623	6
685.379	4
686.135	5
686.89	6
687.646	6
688.402	4
689.157	2
689.912	7
690.668	5
691.423	7
692.178	4
692.933	5
693.688	3
694.443	2
695.198	6
695.953	4
696.708	4
697.462	5
698.217	4
698.972	4
699.726	4
700.48	6
701.235	4
701.989	5
702.743	4
703.497	4
704.251	4
705.005	6
705.759	2
706.513	5
707.266	1
708.02	5
708.774	5
709.527	3
710.28	5
711.034	2
711.787	3
712.54	4
713.293	6
714.046	4
714.799	5
715.552	5
716.305	5
717.058	3
717.81	7
718.563	6
719.315	5
720.068	4
720.82	6
721.573	4
722.325	3
723.077	2
723.829	6
724.581	5
725.333	5
726.085	4
726.836	4
727.588	7
728.34	5
729.091	5
729.843	4
730.594	4
731.346	5
732.097	4
732.848	5
733.599	6
734.35	5
735.101	4
735.852	5
736.603	7
737.354	4
738.104	4
738.855	7
739.605	7
740.356	7
741.106	7
741.856	5
742.607	5
743.357	7
744.107	5
744.857	4
745.607	8
746.357	6
747.106	5
747.856	7
748.606	4
749.355	4
750.105	6
750.854	6
751.603	6
752.353	7
753.102	6
753.851	7
754.6	7
755.349	8
756.098	6
756.847	7
757.595	4
758.344	5
759.093	7
759.841	6
760.589	9
761.338	9
762.086	6
762.834	6
763.582	7
764.331	9
765.079	7
765.826	8
766.574	5
767.322	8
768.07	8
768.817	10
769.565	8
770.312	9
771.06	9
771.807	8
772.554	10
773.302	9
774.049	9
774.796	9
775.543	8
776.29	12
777.036	8
777.783	9
778.53	11
779.276	9
780.023	8
780.769	10
781.516	8
782.262	9
783.008	8
783.754	8
784.5	13
785.246	10
785.992	10
786.738	10
787.484	8
788.23	10
788.975	9
789.721	9
790.466	10
791.212	10
791.957	10
792.702	9
793.447	11
794.193	8
794.938	7
795.683	12
796.427	9
797.172	9
797.917	10
798.662	8
799.406	7
800.151	6
800.895	9
801.64	7
802.384	9
803.128	9
803.872	7
804.616	7
805.36	5
806.104	7
806.848	6
807.592	8
808.336	6
809.079	7
809.823	8
810.566	6
811.31	6
812.053	6
812.796	5
813.539	8
814.283	5
815.026	7
815.769	3
816.511	5
817.254	7
817.997	5
818.74	8
819.482	6
820.225	8
820.967	4
821.71	6
822.452	8
823.194	7
823.936	7
824.678	4
825.42	4
826.162	7
826.904	5
827.646	4
828.388	7
829.129	2
829.871	3
830.612	6
831.354	5
832.095	5
832.836	5
833.577	3
834.319	3
835.06	4
835.801	4
836.542	3
837.282	6
838.023	6
838.764	4
839.504	3
840.245	4
840.985	4
841.726	5
842.466	4
843.206	5
843.946	4
844.687	3
845.427	5
846.166	6
846.906	1
847.646	4
848.386	3
849.125	4
849.865	5
850.605	7
851.344	3
852.083	2
852.823	4
853.562	2
854.301	3
855.04	6
855.779	2
856.518	5
857.257	4
857.995	2
858.734	2
859.473	4
860.211	2
860.95	4
861.688	2
862.426	4
863.165	4
863.903	3
864.641	4
865.379	3
866.117	2
866.855	2
867.593	2
868.33	4
869.068	-2
869.806	1
870.543	2
871.28	2
872.018	4
872.755	0
873.492	3
874.229	2
874.967	3
875.703	3
876.44	1
877.177	4
877.914	1
878.651	0
879.387	0
880.124	2
880.86	1
881.597	2
882.333	2
883.069	3
883.806	2
884.542	1
885.278	1
886.014	4
886.749	1
887.485	3
888.221	3
888.957	1
889.692	2
890.428	1
891.163	0
891.899	0
892.634	1
893.369	1
894.104	2
894.839	3
895.574	1
896.309	1
897.044	2
897.779	1
898.514	3
899.248	4
899.983	2
900.717	2
901.452	0
902.186	2
902.92	0
903.654	0
904.389	0
905.123	0
905.857	0
906.59	2
907.324	1
908.058	0
908.792	2
909.525	0
910.259	2
910.992	2
911.726	1
912.459	3
913.192	-1
913.925	-1
914.658	1
915.391	1
916.124	2
916.857	1
917.59	0
918.323	2
919.055	2
919.788	2
920.521	0
921.253	3
921.985	-1
922.718	0
923.45	-1
924.182	1
924.914	3
925.646	1
926.378	2
927.11	2
927.841	0
928.573	2
929.305	0
930.036	1
930.768	-1
931.499	2
932.23	0
932.962	-1
933.693	2
934.424	0
935.155	0
935.886	1
936.617	3
937.348	2
938.078	-1
938.809	3
939.54	-2
940.27	2
941.001	-2
941.731	0
942.461	0
943.191	1
943.922	1
944.652	2
945.382	0
946.112	4
946.841	1
947.571	2
948.301	2
949.031	-1
949.76	1
950.49	-2
951.219	2
951.948	1
952.678	1
953.407	3
954.136	3
954.865	2
955.594	2
956.323	1
957.052	0
957.78	1
958.509	2
959.238	1
959.966	1
960.695	-1
961.423	1
962.151	0
962.88	1
963.608	0
964.336	0
965.064	2
965.792	-1
966.52	1
967.247	1
967.975	-2
968.703	1
969.43	-1
970.158	2
970.885	1
971.613	2
972.34	2
973.067	1
973.794	2
974.521	0
975.248	1
975.975	0
976.702	2
977.429	0
978.156	0
978.882	3
979.609	0
980.335	2
981.062	0
981.788	1
982.514	1
983.24	0
983.967	2
984.693	1
985.419	3
986.144	1
986.87	2
987.596	2
988.322	0
989.047	1
989.773	2
990.498	0
991.224	2
991.949	0
992.674	-1
993.399	1
994.124	0
994.849	-1
995.574	1
996.299	0
997.024	0
997.749	-1
998.473	1
999.198	1
999.922	1
1000.647	0
1001.371	5
1002.095	-2
1002.82	-2
1003.544	-2
1004.268	4
1004.992	-1
1005.716	3
1006.439	1
1007.163	2
1007.887	1
1008.611	0
1009.334	-1
1010.058	2
1010.781	0
1011.504	-1
1012.228	1
1012.951	0
1013.674	0
1014.397	1
1015.12	0
