节点500_285_QEPB04081__696__15-07-07-848.txt的数据

Date: Wed Nov 12 15:07:07 CST 2025
User: PC
Spectrometer: QEPB0408
触发模式: 0
积分时间 (秒): 1.000000E-2
Scans to average: 1
启用暗噪声校正: true
启用非线性校正: false
滑动平均宽度: 0
X轴模式: Wavelengths
Number of Pixels in Spectrum: 1044
>>>>>Begin Spectral Data<<<<<
220.843	1.75
221.644	2.75
222.444	0.75
223.244	-0.25
224.045	3.75
224.845	1.75
225.645	-1.25
226.445	2.75
227.245	0.75
228.045	1.75
228.845	4.75
229.645	0.75
230.444	1.75
231.244	4.75
232.043	1.75
232.843	0.75
233.642	1.75
234.442	1.75
235.241	3.75
236.04	3.75
236.839	3.75
237.638	1.75
238.437	6.75
239.236	0.75
240.035	3.75
240.833	4.75
241.632	4.75
242.43	4.75
243.229	5.75
244.027	2.75
244.826	4.75
245.624	3.75
246.422	5.75
247.22	6.75
248.018	4.75
248.816	4.75
249.614	6.75
250.412	1.75
251.21	4.75
252.007	4.75
252.805	5.75
253.602	2.75
254.4	5.75
255.197	6.75
255.994	4.75
256.791	6.75
257.589	6.75
258.386	6.75
259.183	7.75
259.979	9.75
260.776	7.75
261.573	7.75
262.37	11.75
263.166	9.75
263.963	8.75
264.759	10.75
265.556	11.75
266.352	9.75
267.148	11.75
267.944	10.75
268.74	11.75
269.536	12.75
270.332	12.75
271.128	12.75
271.924	13.75
272.719	12.75
273.515	11.75
274.311	12.75
275.106	15.75
275.901	15.75
276.697	13.75
277.492	16.75
278.287	15.75
279.082	16.75
279.877	15.75
280.672	16.75
281.467	17.75
282.262	15.75
283.056	15.75
283.851	17.75
284.646	14.75
285.44	18.75
286.234	16.75
287.029	16.75
287.823	17.75
288.617	15.75
289.411	14.75
290.205	15.75
290.999	17.75
291.793	16.75
292.587	17.75
293.381	18.75
294.174	15.75
294.968	14.75
295.761	13.75
296.555	15.75
297.348	14.75
298.141	13.75
298.935	12.75
299.728	13.75
300.521	11.75
301.314	12.75
302.107	12.75
302.899	13.75
303.692	11.75
304.485	11.75
305.277	14.75
306.07	13.75
306.862	11.75
307.655	10.75
308.447	11.75
309.239	10.75
310.031	9.75
310.823	12.75
311.615	10.75
312.407	9.75
313.199	8.75
313.991	8.75
314.783	8.75
315.574	7.75
316.366	7.75
317.157	9.75
317.949	10.75
318.74	7.75
319.531	9.75
320.322	8.75
321.113	7.75
321.904	3.75
322.695	8.75
323.486	7.75
324.277	5.75
325.068	3.75
325.858	5.75
326.649	4.75
327.439	4.75
328.23	7.75
329.02	4.75
329.81	5.75
330.6	5.75
331.391	4.75
332.181	3.75
332.971	4.75
333.76	4.75
334.55	5.75
335.34	3.75
336.13	8.75
336.919	5.75
337.709	4.75
338.498	7.75
339.287	5.75
340.077	8.75
340.866	5.75
341.655	8.75
342.444	6.75
343.233	5.75
344.022	6.75
344.811	5.75
345.6	5.75
346.388	4.75
347.177	5.75
347.965	4.75
348.754	6.75
349.542	6.75
350.33	4.75
351.119	7.75
351.907	6.75
352.695	3.75
353.483	3.75
354.271	4.75
355.059	3.75
355.846	6.75
356.634	6.75
357.422	5.75
358.209	4.75
358.997	4.75
359.784	4.75
360.571	4.75
361.359	1.75
362.146	5.75
362.933	5.75
363.72	3.75
364.507	4.75
365.294	4.75
366.081	4.75
366.867	3.75
367.654	4.75
368.44	4.75
369.227	2.75
370.013	4.75
370.8	6.75
371.586	5.75
372.372	3.75
373.158	4.75
373.944	3.75
374.73	5.75
375.516	7.75
376.302	4.75
377.088	3.75
377.873	4.75
378.659	4.75
379.445	3.75
380.23	5.75
381.015	1.75
381.801	4.75
382.586	5.75
383.371	7.75
384.156	4.75
384.941	3.75
385.726	5.75
386.511	7.75
387.296	6.75
388.08	4.75
388.865	5.75
389.649	5.75
390.434	5.75
391.218	4.75
392.003	3.75
392.787	4.75
393.571	4.75
394.355	5.75
395.139	4.75
395.923	6.75
396.707	5.75
397.491	5.75
398.274	6.75
399.058	4.75
399.842	5.75
400.625	4.75
401.408	6.75
402.192	7.75
402.975	3.75
403.758	4.75
404.541	5.75
405.324	6.75
406.107	6.75
406.89	6.75
407.673	8.75
408.456	6.75
409.238	8.75
410.021	5.75
410.803	8.75
411.586	8.75
412.368	7.75
413.151	6.75
413.933	9.75
414.715	9.75
415.497	10.75
416.279	8.75
417.061	10.75
417.843	8.75
418.624	9.75
419.406	8.75
420.188	6.75
420.969	9.75
421.751	9.75
422.532	11.75
423.313	12.75
424.095	7.75
424.876	11.75
425.657	10.75
426.438	10.75
427.219	11.75
428	11.75
428.78	11.75
429.561	12.75
430.342	15.75
431.122	14.75
431.903	13.75
432.683	14.75
433.464	13.75
434.244	16.75
435.024	16.75
435.804	16.75
436.584	17.75
437.364	15.75
438.144	19.75
438.924	19.75
439.704	21.75
440.483	22.75
441.263	24.75
442.042	26.75
442.822	28.75
443.601	26.75
444.38	27.75
445.16	35.75
445.939	34.75
446.718	36.75
447.497	41.75
448.276	42.75
449.054	48.75
449.833	48.75
450.612	55.75
451.391	67.75
452.169	65.75
452.948	70.75
453.726	78.75
454.504	93.75
455.282	97.75
456.061	108.75
456.839	122.75
457.617	135.75
458.395	150.75
459.172	164.75
459.95	186.75
460.728	209.75
461.506	224.75
462.283	253.75
463.061	283.75
463.838	321.75
464.615	356.75
465.393	386.75
466.17	428.75
466.947	491.75
467.724	537.75
468.501	596.75
469.278	664.75
470.055	723.75
470.831	804.75
471.608	889.75
472.385	988.75
473.161	1082.75
473.938	1201.75
474.714	1320.75
475.49	1471.75
476.266	1616.75
477.043	1753.75
477.819	1929.75
478.595	2127.75
479.371	2325.75
480.146	2557.75
480.922	2811.75
481.698	3059.75
482.473	3357.75
483.249	3639.75
484.024	4008.75
484.8	4392.75
485.575	4784.75
486.35	5240.75
487.126	5678.75
487.901	6193.75
488.676	6783.75
489.451	7369.75
490.225	7993.75
491	8658.75
491.775	9448.75
492.55	10284.75
493.324	11052.75
494.099	11915.75
494.873	12792.75
495.647	13783.75
496.422	14755.75
497.196	15769.75
497.97	16851.75
498.744	17900.75
499.518	18963.75
500.292	20020.75
501.066	21027.75
501.839	22000.75
502.613	22860.75
503.387	23710.75
504.16	24438.75
504.934	24858.75
505.707	25172.75
506.48	25358.75
507.253	25497.75
508.027	25497.75
508.8	25413.75
509.573	25222.75
510.346	24778.75
511.118	24253.75
511.891	23661.75
512.664	22998.75
513.437	22288.75
514.209	21469.75
514.982	20688.75
515.754	19876.75
516.526	19061.75
517.298	18274.75
518.071	17538.75
518.843	16814.75
519.615	16245.75
520.387	15619.75
521.159	15002.75
521.93	14361.75
522.702	13808.75
523.474	13274.75
524.245	12608.75
525.017	12149.75
525.788	11668.75
526.56	11171.75
527.331	10693.75
528.102	10228.75
528.873	9762.75
529.644	9342.75
530.415	8863.75
531.186	8455.75
531.957	8016.75
532.728	7675.75
533.498	7297.75
534.269	6906.75
535.039	6513.75
535.81	6186.75
536.58	5824.75
537.351	5521.75
538.121	5200.75
538.891	4920.75
539.661	4650.75
540.431	4419.75
541.201	4152.75
541.971	3937.75
542.741	3725.75
543.51	3554.75
544.28	3393.75
545.05	3216.75
545.819	3065.75
546.588	2902.75
547.358	2754.75
548.127	2618.75
548.896	2506.75
549.665	2365.75
550.434	2252.75
551.203	2117.75
551.972	2009.75
552.741	1900.75
553.51	1819.75
554.278	1709.75
555.047	1627.75
555.815	1511.75
556.584	1440.75
557.352	1363.75
558.121	1285.75
558.889	1212.75
559.657	1158.75
560.425	1092.75
561.193	1036.75
561.961	964.75
562.729	909.75
563.496	857.75
564.264	814.75
565.032	771.75
565.799	737.75
566.567	692.75
567.334	651.75
568.101	608.75
568.869	577.75
569.636	551.75
570.403	523.75
571.17	481.75
571.937	462.75
572.704	435.75
573.471	412.75
574.237	396.75
575.004	364.75
575.771	336.75
576.537	315.75
577.303	302.75
578.07	286.75
578.836	266.75
579.602	253.75
580.368	232.75
581.134	227.75
581.9	212.75
582.666	204.75
583.432	191.75
584.198	183.75
584.964	172.75
585.729	163.75
586.495	155.75
587.26	147.75
588.025	140.75
588.791	130.75
589.556	124.75
590.321	120.75
591.086	110.75
591.851	103.75
592.616	97.75
593.381	94.75
594.146	89.75
594.911	86.75
595.675	86.75
596.44	79.75
597.204	78.75
597.969	75.75
598.733	72.75
599.497	71.75
600.261	59.75
601.025	61.75
601.79	52.75
602.553	56.75
603.317	51.75
604.081	53.75
604.845	46.75
605.609	44.75
606.372	43.75
607.136	43.75
607.899	42.75
608.662	41.75
609.426	35.75
610.189	38.75
610.952	32.75
611.715	34.75
612.478	32.75
613.241	31.75
614.004	32.75
614.767	27.75
615.529	27.75
616.292	25.75
617.055	26.75
617.817	26.75
618.579	24.75
619.342	23.75
620.104	21.75
620.866	21.75
621.628	19.75
622.39	19.75
623.152	19.75
623.914	18.75
624.676	19.75
625.438	16.75
626.199	16.75
626.961	13.75
627.722	16.75
628.484	12.75
629.245	10.75
630.006	14.75
630.768	12.75
631.529	14.75
632.29	11.75
633.051	11.75
633.812	11.75
634.573	12.75
635.333	11.75
636.094	10.75
636.855	11.75
637.615	9.75
638.376	11.75
639.136	9.75
639.896	8.75
640.657	9.75
641.417	9.75
642.177	7.75
642.937	8.75
643.697	9.75
644.457	9.75
645.216	7.75
645.976	8.75
646.736	5.75
647.495	8.75
648.255	7.75
649.014	7.75
649.774	9.75
650.533	5.75
651.292	8.75
652.051	6.75
652.81	7.75
653.569	6.75
654.328	4.75
655.087	5.75
655.846	2.75
656.604	6.75
657.363	3.75
658.121	4.75
658.88	7.75
659.638	3.75
660.397	4.75
661.155	4.75
661.913	6.75
662.671	6.75
663.429	4.75
664.187	4.75
664.945	4.75
665.703	3.75
666.46	5.75
667.218	7.75
667.976	3.75
668.733	5.75
669.49	5.75
670.248	5.75
671.005	4.75
671.762	3.75
672.519	4.75
673.276	3.75
674.033	2.75
674.79	3.75
675.547	1.75
676.304	4.75
677.06	3.75
677.817	2.75
678.574	3.75
679.33	1.75
680.086	6.75
680.843	1.75
681.599	4.75
682.355	3.75
683.111	3.75
683.867	4.75
684.623	1.75
685.379	4.75
686.135	2.75
686.89	3.75
687.646	4.75
688.402	3.75
689.157	1.75
689.912	2.75
690.668	2.75
691.423	2.75
692.178	4.75
692.933	2.75
693.688	1.75
694.443	3.75
695.198	2.75
695.953	3.75
696.708	2.75
697.462	2.75
698.217	1.75
698.972	1.75
699.726	3.75
700.48	2.75
701.235	2.75
701.989	1.75
702.743	4.75
703.497	2.75
704.251	3.75
705.005	4.75
705.759	1.75
706.513	3.75
707.266	3.75
708.02	3.75
708.774	2.75
709.527	1.75
710.28	2.75
711.034	3.75
711.787	2.75
712.54	3.75
713.293	3.75
714.046	4.75
714.799	2.75
715.552	2.75
716.305	2.75
717.058	3.75
717.81	1.75
718.563	0.75
719.315	5.75
720.068	1.75
720.82	4.75
721.573	3.75
722.325	2.75
723.077	3.75
723.829	1.75
724.581	3.75
725.333	1.75
726.085	0.75
726.836	1.75
727.588	4.75
728.34	3.75
729.091	2.75
729.843	4.75
730.594	3.75
731.346	1.75
732.097	3.75
732.848	5.75
733.599	2.75
734.35	4.75
735.101	1.75
735.852	2.75
736.603	6.75
737.354	2.75
738.104	3.75
738.855	4.75
739.605	0.75
740.356	2.75
741.106	3.75
741.856	4.75
742.607	5.75
743.357	4.75
744.107	2.75
744.857	3.75
745.607	3.75
746.357	3.75
747.106	6.75
747.856	2.75
748.606	2.75
749.355	3.75
750.105	4.75
750.854	2.75
751.603	4.75
752.353	1.75
753.102	4.75
753.851	4.75
754.6	7.75
755.349	4.75
756.098	4.75
756.847	5.75
757.595	4.75
758.344	5.75
759.093	6.75
759.841	4.75
760.589	4.75
761.338	5.75
762.086	4.75
762.834	4.75
763.582	6.75
764.331	6.75
765.079	6.75
765.826	5.75
766.574	5.75
767.322	7.75
768.07	6.75
768.817	5.75
769.565	5.75
770.312	6.75
771.06	4.75
771.807	7.75
772.554	6.75
773.302	3.75
774.049	8.75
774.796	5.75
775.543	7.75
776.29	8.75
777.036	6.75
777.783	5.75
778.53	6.75
779.276	7.75
780.023	9.75
780.769	8.75
781.516	8.75
782.262	6.75
783.008	9.75
783.754	8.75
784.5	8.75
785.246	5.75
785.992	6.75
786.738	7.75
787.484	6.75
788.23	9.75
788.975	4.75
789.721	8.75
790.466	7.75
791.212	7.75
791.957	6.75
792.702	6.75
793.447	7.75
794.193	5.75
794.938	7.75
795.683	7.75
796.427	6.75
797.172	6.75
797.917	8.75
798.662	8.75
799.406	6.75
800.151	7.75
800.895	6.75
801.64	5.75
802.384	5.75
803.128	6.75
803.872	6.75
804.616	6.75
805.36	4.75
806.104	7.75
806.848	5.75
807.592	4.75
808.336	3.75
809.079	6.75
809.823	5.75
810.566	6.75
811.31	3.75
812.053	5.75
812.796	5.75
813.539	4.75
814.283	7.75
815.026	4.75
815.769	3.75
816.511	4.75
817.254	2.75
817.997	5.75
818.74	4.75
819.482	2.75
820.225	5.75
820.967	4.75
821.71	3.75
822.452	2.75
823.194	3.75
823.936	3.75
824.678	0.75
825.42	2.75
826.162	3.75
826.904	4.75
827.646	1.75
828.388	2.75
829.129	0.75
829.871	1.75
830.612	1.75
831.354	2.75
832.095	3.75
832.836	1.75
833.577	0.75
834.319	5.75
835.06	2.75
835.801	1.75
836.542	3.75
837.282	2.75
838.023	5.75
838.764	3.75
839.504	1.75
840.245	0.75
840.985	4.75
841.726	1.75
842.466	4.75
843.206	2.75
843.946	3.75
844.687	3.75
845.427	1.75
846.166	3.75
846.906	2.75
847.646	3.75
848.386	1.75
849.125	0.75
849.865	1.75
850.605	1.75
851.344	3.75
852.083	2.75
852.823	0.75
853.562	1.75
854.301	2.75
855.04	2.75
855.779	0.75
856.518	2.75
857.257	1.75
857.995	2.75
858.734	2.75
859.473	1.75
860.211	1.75
860.95	1.75
861.688	1.75
862.426	1.75
863.165	2.75
863.903	1.75
864.641	0.75
865.379	3.75
866.117	0.75
866.855	1.75
867.593	1.75
868.33	1.75
869.068	1.75
869.806	-0.25
870.543	2.75
871.28	-1.25
872.018	-0.25
872.755	0.75
873.492	1.75
874.229	1.75
874.967	1.75
875.703	1.75
876.44	1.75
877.177	-0.25
877.914	-1.25
878.651	0.75
879.387	2.75
880.124	-1.25
880.86	-2.25
881.597	0.75
882.333	0.75
883.069	0.75
883.806	-0.25
884.542	-1.25
885.278	0.75
886.014	-0.25
886.749	-0.25
887.485	-0.25
888.221	-0.25
888.957	-0.25
889.692	-0.25
890.428	1.75
891.163	0.75
891.899	0.75
892.634	-0.25
893.369	-2.25
894.104	0.75
894.839	0.75
895.574	0.75
896.309	-0.25
897.044	2.75
897.779	-0.25
898.514	-0.25
899.248	-0.25
899.983	0.75
900.717	1.75
901.452	-1.25
902.186	-0.25
902.92	0.75
903.654	-0.25
904.389	-0.25
905.123	-2.25
905.857	-0.25
906.59	-1.25
907.324	-0.25
908.058	-1.25
908.792	-0.25
909.525	-1.25
910.259	-0.25
910.992	-2.25
911.726	2.75
912.459	-0.25
913.192	-0.25
913.925	-0.25
914.658	-1.25
915.391	-2.25
916.124	-1.25
916.857	0.75
917.59	0.75
918.323	-2.25
919.055	0.75
919.788	-1.25
920.521	1.75
921.253	-2.25
921.985	-1.25
922.718	0.75
923.45	-0.25
924.182	0.75
924.914	0.75
925.646	-0.25
926.378	-1.25
927.11	0.75
927.841	0.75
928.573	-2.25
929.305	-0.25
930.036	1.75
930.768	-1.25
931.499	-3.25
932.23	-2.25
932.962	-0.25
933.693	0.75
934.424	-1.25
935.155	0.75
935.886	-0.25
936.617	0.75
937.348	0.75
938.078	0.75
938.809	-0.25
939.54	0.75
940.27	0.75
941.001	-2.25
941.731	0.75
942.461	-1.25
943.191	-1.25
943.922	1.75
944.652	-0.25
945.382	1.75
946.112	-0.25
946.841	0.75
947.571	-1.25
948.301	-0.25
949.031	-0.25
949.76	-0.25
950.49	1.75
951.219	-1.25
951.948	0.75
952.678	-0.25
953.407	-2.25
954.136	-0.25
954.865	-1.25
955.594	0.75
956.323	-0.25
957.052	-0.25
957.78	-0.25
958.509	-1.25
959.238	-1.25
959.966	-2.25
960.695	-1.25
961.423	0.75
962.151	1.75
962.88	-0.25
963.608	0.75
964.336	1.75
965.064	-0.25
965.792	-2.25
966.52	2.75
967.247	-1.25
967.975	-0.25
968.703	0.75
969.43	-0.25
970.158	-1.25
970.885	-2.25
971.613	-1.25
972.34	-1.25
973.067	0.75
973.794	-2.25
974.521	0.75
975.248	-0.25
975.975	0.75
976.702	0.75
977.429	-0.25
978.156	-2.25
978.882	0.75
979.609	-1.25
980.335	-0.25
981.062	0.75
981.788	0.75
982.514	0.75
983.24	-1.25
983.967	-0.25
984.693	-0.25
985.419	-1.25
986.144	-0.25
986.87	-0.25
987.596	-0.25
988.322	-0.25
989.047	0.75
989.773	-1.25
990.498	1.75
991.224	1.75
991.949	-0.25
992.674	-0.25
993.399	-0.25
994.124	-0.25
994.849	0.75
995.574	2.75
996.299	0.75
997.024	-0.25
997.749	-0.25
998.473	-0.25
999.198	-0.25
999.922	-0.25
1000.647	-1.25
1001.371	3.75
1002.095	-0.25
1002.82	-1.25
1003.544	-1.25
1004.268	-0.25
1004.992	1.75
1005.716	-0.25
1006.439	0.75
1007.163	1.75
1007.887	0.75
1008.611	-0.25
1009.334	0.75
1010.058	-1.25
1010.781	1.75
1011.504	-0.25
1012.228	0.75
1012.951	-0.25
1013.674	-0.25
1014.397	-0.25
1015.12	-0.25
