节点500_285_QEPB04081__824__15-09-15-728.txt的数据

Date: Wed Nov 12 15:09:15 CST 2025
User: PC
Spectrometer: QEPB0408
触发模式: 0
积分时间 (秒): 1.000000E-2
Scans to average: 1
启用暗噪声校正: true
启用非线性校正: false
滑动平均宽度: 0
X轴模式: Wavelengths
Number of Pixels in Spectrum: 1044
>>>>>Begin Spectral Data<<<<<
220.843	2.38
221.644	-1.62
222.444	0.38
223.244	2.38
224.045	4.38
224.845	2.38
225.645	1.38
226.445	2.38
227.245	4.38
228.045	2.38
228.845	2.38
229.645	1.38
230.444	2.38
231.244	3.38
232.043	1.38
232.843	9.38
233.642	4.38
234.442	2.38
235.241	4.38
236.04	4.38
236.839	2.38
237.638	5.38
238.437	5.38
239.236	4.38
240.035	6.38
240.833	4.38
241.632	3.38
242.43	3.38
243.229	5.38
244.027	3.38
244.826	8.38
245.624	4.38
246.422	5.38
247.22	4.38
248.018	7.38
248.816	6.38
249.614	6.38
250.412	5.38
251.21	4.38
252.007	7.38
252.805	6.38
253.602	7.38
254.4	8.38
255.197	4.38
255.994	8.38
256.791	7.38
257.589	8.38
258.386	8.38
259.183	8.38
259.979	7.38
260.776	8.38
261.573	8.38
262.37	7.38
263.166	9.38
263.963	10.38
264.759	11.38
265.556	12.38
266.352	10.38
267.148	10.38
267.944	8.38
268.74	14.38
269.536	12.38
270.332	13.38
271.128	11.38
271.924	14.38
272.719	13.38
273.515	14.38
274.311	14.38
275.106	17.38
275.901	15.38
276.697	15.38
277.492	12.38
278.287	15.38
279.082	15.38
279.877	14.38
280.672	13.38
281.467	18.38
282.262	17.38
283.056	15.38
283.851	14.38
284.646	17.38
285.44	16.38
286.234	15.38
287.029	18.38
287.823	17.38
288.617	17.38
289.411	17.38
290.205	17.38
290.999	16.38
291.793	17.38
292.587	17.38
293.381	14.38
294.174	16.38
294.968	19.38
295.761	15.38
296.555	14.38
297.348	13.38
298.141	12.38
298.935	14.38
299.728	16.38
300.521	14.38
301.314	14.38
302.107	13.38
302.899	10.38
303.692	10.38
304.485	13.38
305.277	12.38
306.07	10.38
306.862	13.38
307.655	14.38
308.447	11.38
309.239	7.38
310.031	14.38
310.823	11.38
311.615	10.38
312.407	12.38
313.199	11.38
313.991	10.38
314.783	9.38
315.574	9.38
316.366	10.38
317.157	8.38
317.949	7.38
318.74	7.38
319.531	9.38
320.322	7.38
321.113	5.38
321.904	10.38
322.695	7.38
323.486	7.38
324.277	6.38
325.068	8.38
325.858	8.38
326.649	6.38
327.439	5.38
328.23	6.38
329.02	7.38
329.81	7.38
330.6	9.38
331.391	5.38
332.181	8.38
332.971	7.38
333.76	5.38
334.55	6.38
335.34	7.38
336.13	7.38
336.919	10.38
337.709	6.38
338.498	6.38
339.287	4.38
340.077	5.38
340.866	5.38
341.655	8.38
342.444	5.38
343.233	7.38
344.022	5.38
344.811	5.38
345.6	4.38
346.388	7.38
347.177	5.38
347.965	7.38
348.754	5.38
349.542	7.38
350.33	5.38
351.119	5.38
351.907	5.38
352.695	5.38
353.483	5.38
354.271	7.38
355.059	7.38
355.846	4.38
356.634	6.38
357.422	5.38
358.209	5.38
358.997	5.38
359.784	5.38
360.571	7.38
361.359	5.38
362.146	8.38
362.933	3.38
363.72	4.38
364.507	6.38
365.294	5.38
366.081	3.38
366.867	5.38
367.654	7.38
368.44	5.38
369.227	6.38
370.013	7.38
370.8	3.38
371.586	6.38
372.372	6.38
373.158	4.38
373.944	6.38
374.73	5.38
375.516	6.38
376.302	6.38
377.088	4.38
377.873	5.38
378.659	5.38
379.445	4.38
380.23	5.38
381.015	5.38
381.801	3.38
382.586	4.38
383.371	3.38
384.156	4.38
384.941	6.38
385.726	3.38
386.511	4.38
387.296	5.38
388.08	4.38
388.865	5.38
389.649	3.38
390.434	7.38
391.218	3.38
392.003	5.38
392.787	3.38
393.571	5.38
394.355	6.38
395.139	6.38
395.923	6.38
396.707	7.38
397.491	7.38
398.274	7.38
399.058	6.38
399.842	5.38
400.625	6.38
401.408	8.38
402.192	6.38
402.975	5.38
403.758	7.38
404.541	7.38
405.324	9.38
406.107	7.38
406.89	8.38
407.673	7.38
408.456	6.38
409.238	7.38
410.021	8.38
410.803	8.38
411.586	5.38
412.368	11.38
413.151	9.38
413.933	8.38
414.715	9.38
415.497	9.38
416.279	10.38
417.061	9.38
417.843	9.38
418.624	8.38
419.406	9.38
420.188	8.38
420.969	8.38
421.751	11.38
422.532	10.38
423.313	12.38
424.095	10.38
424.876	11.38
425.657	12.38
426.438	9.38
427.219	12.38
428	12.38
428.78	13.38
429.561	14.38
430.342	12.38
431.122	12.38
431.903	17.38
432.683	16.38
433.464	14.38
434.244	16.38
435.024	18.38
435.804	16.38
436.584	19.38
437.364	20.38
438.144	17.38
438.924	22.38
439.704	22.38
440.483	24.38
441.263	22.38
442.042	26.38
442.822	28.38
443.601	29.38
444.38	33.38
445.16	33.38
445.939	34.38
446.718	39.38
447.497	38.38
448.276	46.38
449.054	49.38
449.833	54.38
450.612	59.38
451.391	64.38
452.169	70.38
452.948	79.38
453.726	85.38
454.504	89.38
455.282	100.38
456.061	115.38
456.839	123.38
457.617	141.38
458.395	158.38
459.172	167.38
459.95	190.38
460.728	210.38
461.506	232.38
462.283	262.38
463.061	283.38
463.838	321.38
464.615	360.38
465.393	394.38
466.17	439.38
466.947	491.38
467.724	544.38
468.501	605.38
469.278	670.38
470.055	733.38
470.831	819.38
471.608	902.38
472.385	995.38
473.161	1107.38
473.938	1205.38
474.714	1333.38
475.49	1471.38
476.266	1610.38
477.043	1774.38
477.819	1946.38
478.595	2129.38
479.371	2331.38
480.146	2538.38
480.922	2802.38
481.698	3046.38
482.473	3323.38
483.249	3640.38
484.024	3952.38
484.8	4312.38
485.575	4721.38
486.35	5114.38
487.126	5566.38
487.901	6090.38
488.676	6614.38
489.451	7189.38
490.225	7803.38
491	8474.38
491.775	9201.38
492.55	9954.38
493.324	10794.38
494.099	11566.38
494.873	12368.38
495.647	13292.38
496.422	14266.38
497.196	15268.38
497.97	16262.38
498.744	17352.38
499.518	18313.38
500.292	19358.38
501.066	20350.38
501.839	21284.38
502.613	22222.38
503.387	23001.38
504.16	23670.38
504.934	24173.38
505.707	24554.38
506.48	24807.38
507.253	24978.38
508.027	25018.38
508.8	24976.38
509.573	24851.38
510.346	24513.38
511.118	23957.38
511.891	23391.38
512.664	22838.38
513.437	22212.38
514.209	21406.38
514.982	20730.38
515.754	19852.38
516.526	19107.38
517.298	18340.38
518.071	17545.38
518.843	16902.38
519.615	16339.38
520.387	15630.38
521.159	15007.38
521.93	14378.38
522.702	13860.38
523.474	13303.38
524.245	12734.38
525.017	12193.38
525.788	11795.38
526.56	11255.38
527.331	10749.38
528.102	10264.38
528.873	9811.38
529.644	9331.38
530.415	8977.38
531.186	8525.38
531.957	8122.38
532.728	7747.38
533.498	7352.38
534.269	6938.38
535.039	6626.38
535.81	6235.38
536.58	5934.38
537.351	5596.38
538.121	5284.38
538.891	4986.38
539.661	4720.38
540.431	4465.38
541.201	4223.38
541.971	3986.38
542.741	3787.38
543.51	3620.38
544.28	3423.38
545.05	3282.38
545.819	3099.38
546.588	2934.38
547.358	2812.38
548.127	2679.38
548.896	2537.38
549.665	2420.38
550.434	2268.38
551.203	2166.38
551.972	2052.38
552.741	1935.38
553.51	1837.38
554.278	1734.38
555.047	1650.38
555.815	1548.38
556.584	1474.38
557.352	1390.38
558.121	1316.38
558.889	1241.38
559.657	1175.38
560.425	1119.38
561.193	1050.38
561.961	988.38
562.729	932.38
563.496	894.38
564.264	847.38
565.032	792.38
565.799	747.38
566.567	703.38
567.334	668.38
568.101	633.38
568.869	594.38
569.636	553.38
570.403	524.38
571.17	497.38
571.937	471.38
572.704	446.38
573.471	422.38
574.237	397.38
575.004	374.38
575.771	355.38
576.537	322.38
577.303	311.38
578.07	297.38
578.836	274.38
579.602	263.38
580.368	246.38
581.134	237.38
581.9	221.38
582.666	211.38
583.432	196.38
584.198	187.38
584.964	178.38
585.729	171.38
586.495	160.38
587.26	150.38
588.025	145.38
588.791	140.38
589.556	130.38
590.321	119.38
591.086	116.38
591.851	105.38
592.616	102.38
593.381	101.38
594.146	94.38
594.911	91.38
595.675	88.38
596.44	81.38
597.204	78.38
597.969	72.38
598.733	72.38
599.497	67.38
600.261	64.38
601.025	60.38
601.79	60.38
602.553	58.38
603.317	55.38
604.081	52.38
604.845	49.38
605.609	49.38
606.372	43.38
607.136	43.38
607.899	40.38
608.662	41.38
609.426	37.38
610.189	36.38
610.952	34.38
611.715	32.38
612.478	35.38
613.241	33.38
614.004	31.38
614.767	29.38
615.529	28.38
616.292	27.38
617.055	28.38
617.817	25.38
618.579	24.38
619.342	24.38
620.104	20.38
620.866	24.38
621.628	20.38
622.39	19.38
623.152	21.38
623.914	18.38
624.676	20.38
625.438	17.38
626.199	20.38
626.961	14.38
627.722	16.38
628.484	18.38
629.245	17.38
630.006	16.38
630.768	15.38
631.529	15.38
632.29	14.38
633.051	12.38
633.812	13.38
634.573	11.38
635.333	14.38
636.094	12.38
636.855	10.38
637.615	9.38
638.376	10.38
639.136	7.38
639.896	8.38
640.657	10.38
641.417	8.38
642.177	10.38
642.937	7.38
643.697	10.38
644.457	6.38
645.216	7.38
645.976	9.38
646.736	8.38
647.495	8.38
648.255	9.38
649.014	9.38
649.774	6.38
650.533	8.38
651.292	8.38
652.051	9.38
652.81	4.38
653.569	6.38
654.328	6.38
655.087	7.38
655.846	8.38
656.604	6.38
657.363	5.38
658.121	5.38
658.88	6.38
659.638	5.38
660.397	6.38
661.155	5.38
661.913	7.38
662.671	5.38
663.429	5.38
664.187	6.38
664.945	4.38
665.703	6.38
666.46	5.38
667.218	6.38
667.976	6.38
668.733	4.38
669.49	4.38
670.248	5.38
671.005	6.38
671.762	7.38
672.519	3.38
673.276	5.38
674.033	5.38
674.79	7.38
675.547	5.38
676.304	3.38
677.06	5.38
677.817	5.38
678.574	5.38
679.33	3.38
680.086	7.38
680.843	6.38
681.599	4.38
682.355	0.38
683.111	3.38
683.867	5.38
684.623	5.38
685.379	4.38
686.135	6.38
686.89	5.38
687.646	5.38
688.402	1.38
689.157	4.38
689.912	4.38
690.668	5.38
691.423	5.38
692.178	3.38
692.933	5.38
693.688	3.38
694.443	1.38
695.198	5.38
695.953	4.38
696.708	2.38
697.462	6.38
698.217	1.38
698.972	4.38
699.726	4.38
700.48	3.38
701.235	4.38
701.989	4.38
702.743	3.38
703.497	6.38
704.251	3.38
705.005	3.38
705.759	3.38
706.513	5.38
707.266	3.38
708.02	3.38
708.774	3.38
709.527	5.38
710.28	5.38
711.034	4.38
711.787	2.38
712.54	4.38
713.293	0.38
714.046	2.38
714.799	4.38
715.552	5.38
716.305	4.38
717.058	2.38
717.81	1.38
718.563	0.38
719.315	5.38
720.068	3.38
720.82	4.38
721.573	0.38
722.325	3.38
723.077	2.38
723.829	5.38
724.581	6.38
725.333	1.38
726.085	2.38
726.836	3.38
727.588	3.38
728.34	6.38
729.091	2.38
729.843	5.38
730.594	3.38
731.346	6.38
732.097	4.38
732.848	4.38
733.599	4.38
734.35	3.38
735.101	4.38
735.852	4.38
736.603	3.38
737.354	5.38
738.104	6.38
738.855	7.38
739.605	3.38
740.356	2.38
741.106	2.38
741.856	3.38
742.607	6.38
743.357	2.38
744.107	4.38
744.857	4.38
745.607	6.38
746.357	5.38
747.106	3.38
747.856	4.38
748.606	5.38
749.355	2.38
750.105	4.38
750.854	6.38
751.603	5.38
752.353	5.38
753.102	7.38
753.851	5.38
754.6	5.38
755.349	6.38
756.098	4.38
756.847	5.38
757.595	6.38
758.344	4.38
759.093	6.38
759.841	6.38
760.589	5.38
761.338	7.38
762.086	5.38
762.834	4.38
763.582	5.38
764.331	5.38
765.079	6.38
765.826	6.38
766.574	5.38
767.322	5.38
768.07	3.38
768.817	5.38
769.565	5.38
770.312	6.38
771.06	5.38
771.807	8.38
772.554	9.38
773.302	5.38
774.049	7.38
774.796	7.38
775.543	6.38
776.29	5.38
777.036	7.38
777.783	8.38
778.53	8.38
779.276	8.38
780.023	8.38
780.769	9.38
781.516	4.38
782.262	7.38
783.008	9.38
783.754	10.38
784.5	7.38
785.246	8.38
785.992	7.38
786.738	7.38
787.484	6.38
788.23	8.38
788.975	8.38
789.721	8.38
790.466	10.38
791.212	8.38
791.957	5.38
792.702	7.38
793.447	10.38
794.193	10.38
794.938	7.38
795.683	8.38
796.427	8.38
797.172	9.38
797.917	7.38
798.662	7.38
799.406	7.38
800.151	6.38
800.895	8.38
801.64	5.38
802.384	7.38
803.128	7.38
803.872	6.38
804.616	7.38
805.36	4.38
806.104	8.38
806.848	4.38
807.592	6.38
808.336	7.38
809.079	6.38
809.823	6.38
810.566	5.38
811.31	5.38
812.053	7.38
812.796	4.38
813.539	7.38
814.283	2.38
815.026	6.38
815.769	4.38
816.511	5.38
817.254	5.38
817.997	7.38
818.74	5.38
819.482	6.38
820.225	4.38
820.967	3.38
821.71	5.38
822.452	4.38
823.194	2.38
823.936	4.38
824.678	5.38
825.42	2.38
826.162	4.38
826.904	1.38
827.646	4.38
828.388	2.38
829.129	4.38
829.871	5.38
830.612	4.38
831.354	3.38
832.095	5.38
832.836	5.38
833.577	3.38
834.319	5.38
835.06	2.38
835.801	5.38
836.542	5.38
837.282	4.38
838.023	6.38
838.764	5.38
839.504	5.38
840.245	2.38
840.985	4.38
841.726	2.38
842.466	5.38
843.206	4.38
843.946	1.38
844.687	3.38
845.427	2.38
846.166	5.38
846.906	5.38
847.646	5.38
848.386	2.38
849.125	2.38
849.865	4.38
850.605	4.38
851.344	3.38
852.083	4.38
852.823	1.38
853.562	2.38
854.301	3.38
855.04	2.38
855.779	2.38
856.518	2.38
857.257	2.38
857.995	1.38
858.734	2.38
859.473	2.38
860.211	2.38
860.95	2.38
861.688	3.38
862.426	4.38
863.165	2.38
863.903	2.38
864.641	1.38
865.379	3.38
866.117	0.38
866.855	3.38
867.593	2.38
868.33	1.38
869.068	3.38
869.806	0.38
870.543	1.38
871.28	4.38
872.018	1.38
872.755	2.38
873.492	1.38
874.229	2.38
874.967	1.38
875.703	1.38
876.44	2.38
877.177	2.38
877.914	1.38
878.651	2.38
879.387	2.38
880.124	2.38
880.86	3.38
881.597	0.38
882.333	-0.62
883.069	0.38
883.806	1.38
884.542	3.38
885.278	0.38
886.014	0.38
886.749	0.38
887.485	1.38
888.221	0.38
888.957	2.38
889.692	-0.62
890.428	0.38
891.163	1.38
891.899	-1.62
892.634	-0.62
893.369	0.38
894.104	-0.62
894.839	1.38
895.574	1.38
896.309	1.38
897.044	3.38
897.779	0.38
898.514	0.38
899.248	1.38
899.983	1.38
900.717	0.38
901.452	0.38
902.186	0.38
902.92	-2.62
903.654	2.38
904.389	-2.62
905.123	2.38
905.857	1.38
906.59	2.38
907.324	-0.62
908.058	0.38
908.792	1.38
909.525	1.38
910.259	-0.62
910.992	3.38
911.726	-1.62
912.459	-1.62
913.192	-0.62
913.925	-1.62
914.658	-0.62
915.391	0.38
916.124	1.38
916.857	1.38
917.59	0.38
918.323	-1.62
919.055	2.38
919.788	-0.62
920.521	1.38
921.253	1.38
921.985	1.38
922.718	1.38
923.45	-2.62
924.182	0.38
924.914	-0.62
925.646	2.38
926.378	4.38
927.11	0.38
927.841	1.38
928.573	-0.62
929.305	-0.62
930.036	1.38
930.768	0.38
931.499	-0.62
932.23	1.38
932.962	2.38
933.693	-1.62
934.424	0.38
935.155	-0.62
935.886	0.38
936.617	-1.62
937.348	0.38
938.078	2.38
938.809	-1.62
939.54	0.38
940.27	-0.62
941.001	-0.62
941.731	2.38
942.461	-0.62
943.191	3.38
943.922	1.38
944.652	0.38
945.382	2.38
946.112	0.38
946.841	0.38
947.571	0.38
948.301	1.38
949.031	1.38
949.76	-0.62
950.49	0.38
951.219	1.38
951.948	1.38
952.678	0.38
953.407	-0.62
954.136	1.38
954.865	0.38
955.594	-0.62
956.323	-0.62
957.052	1.38
957.78	0.38
958.509	-1.62
959.238	1.38
959.966	0.38
960.695	1.38
961.423	0.38
962.151	-0.62
962.88	0.38
963.608	0.38
964.336	1.38
965.064	0.38
965.792	-1.62
966.52	-0.62
967.247	0.38
967.975	2.38
968.703	2.38
969.43	1.38
970.158	-1.62
970.885	-0.62
971.613	-1.62
972.34	1.38
973.067	1.38
973.794	-0.62
974.521	-0.62
975.248	1.38
975.975	0.38
976.702	-1.62
977.429	1.38
978.156	1.38
978.882	0.38
979.609	-0.62
980.335	-1.62
981.062	0.38
981.788	-0.62
982.514	1.38
983.24	1.38
983.967	1.38
984.693	0.38
985.419	-1.62
986.144	0.38
986.87	1.38
987.596	0.38
988.322	0.38
989.047	0.38
989.773	1.38
990.498	-1.62
991.224	3.38
991.949	-1.62
992.674	0.38
993.399	1.38
994.124	-1.62
994.849	1.38
995.574	0.38
996.299	-0.62
997.024	0.38
997.749	1.38
998.473	1.38
999.198	-1.62
999.922	0.38
1000.647	0.38
1001.371	3.38
1002.095	0.38
1002.82	1.38
1003.544	-1.62
1004.268	1.38
1004.992	1.38
1005.716	0.38
1006.439	1.38
1007.163	0.38
1007.887	0.38
1008.611	-0.62
1009.334	1.38
1010.058	1.38
1010.781	0.38
1011.504	-0.62
1012.228	1.38
1012.951	-0.62
1013.674	-0.62
1014.397	-0.62
1015.12	-1.62
