节点500_285_QEPB04081__657__15-06-28-992.txt的数据

Date: Wed Nov 12 15:06:28 CST 2025
User: PC
Spectrometer: QEPB0408
触发模式: 0
积分时间 (秒): 1.000000E-2
Scans to average: 1
启用暗噪声校正: true
启用非线性校正: false
滑动平均宽度: 0
X轴模式: Wavelengths
Number of Pixels in Spectrum: 1044
>>>>>Begin Spectral Data<<<<<
220.843	2.12
221.644	1.12
222.444	4.12
223.244	2.12
224.045	3.12
224.845	3.12
225.645	3.12
226.445	0.12
227.245	3.12
228.045	5.12
228.845	4.12
229.645	2.12
230.444	2.12
231.244	3.12
232.043	4.12
232.843	3.12
233.642	5.12
234.442	5.12
235.241	4.12
236.04	2.12
236.839	1.12
237.638	5.12
238.437	2.12
239.236	4.12
240.035	4.12
240.833	7.12
241.632	4.12
242.43	3.12
243.229	3.12
244.027	5.12
244.826	5.12
245.624	5.12
246.422	6.12
247.22	5.12
248.018	6.12
248.816	4.12
249.614	6.12
250.412	8.12
251.21	9.12
252.007	7.12
252.805	8.12
253.602	5.12
254.4	8.12
255.197	9.12
255.994	7.12
256.791	7.12
257.589	7.12
258.386	8.12
259.183	9.12
259.979	9.12
260.776	9.12
261.573	10.12
262.37	9.12
263.166	11.12
263.963	11.12
264.759	9.12
265.556	11.12
266.352	11.12
267.148	12.12
267.944	12.12
268.74	13.12
269.536	12.12
270.332	14.12
271.128	14.12
271.924	15.12
272.719	16.12
273.515	14.12
274.311	14.12
275.106	19.12
275.901	14.12
276.697	14.12
277.492	14.12
278.287	18.12
279.082	16.12
279.877	16.12
280.672	18.12
281.467	18.12
282.262	17.12
283.056	18.12
283.851	18.12
284.646	17.12
285.44	19.12
286.234	16.12
287.029	14.12
287.823	17.12
288.617	19.12
289.411	16.12
290.205	14.12
290.999	15.12
291.793	15.12
292.587	17.12
293.381	15.12
294.174	15.12
294.968	16.12
295.761	15.12
296.555	15.12
297.348	13.12
298.141	13.12
298.935	15.12
299.728	13.12
300.521	14.12
301.314	14.12
302.107	13.12
302.899	11.12
303.692	13.12
304.485	13.12
305.277	11.12
306.07	12.12
306.862	13.12
307.655	12.12
308.447	12.12
309.239	13.12
310.031	11.12
310.823	11.12
311.615	11.12
312.407	12.12
313.199	11.12
313.991	7.12
314.783	8.12
315.574	10.12
316.366	12.12
317.157	6.12
317.949	8.12
318.74	8.12
319.531	7.12
320.322	8.12
321.113	9.12
321.904	5.12
322.695	9.12
323.486	8.12
324.277	8.12
325.068	7.12
325.858	7.12
326.649	7.12
327.439	7.12
328.23	7.12
329.02	6.12
329.81	6.12
330.6	6.12
331.391	6.12
332.181	7.12
332.971	6.12
333.76	6.12
334.55	5.12
335.34	7.12
336.13	7.12
336.919	7.12
337.709	6.12
338.498	5.12
339.287	4.12
340.077	5.12
340.866	6.12
341.655	6.12
342.444	6.12
343.233	6.12
344.022	6.12
344.811	7.12
345.6	7.12
346.388	6.12
347.177	6.12
347.965	9.12
348.754	5.12
349.542	5.12
350.33	7.12
351.119	6.12
351.907	6.12
352.695	7.12
353.483	5.12
354.271	7.12
355.059	6.12
355.846	7.12
356.634	6.12
357.422	4.12
358.209	7.12
358.997	4.12
359.784	7.12
360.571	3.12
361.359	7.12
362.146	6.12
362.933	7.12
363.72	3.12
364.507	5.12
365.294	6.12
366.081	5.12
366.867	5.12
367.654	7.12
368.44	4.12
369.227	8.12
370.013	1.12
370.8	4.12
371.586	2.12
372.372	5.12
373.158	7.12
373.944	4.12
374.73	7.12
375.516	5.12
376.302	6.12
377.088	5.12
377.873	7.12
378.659	7.12
379.445	3.12
380.23	6.12
381.015	3.12
381.801	7.12
382.586	6.12
383.371	5.12
384.156	6.12
384.941	2.12
385.726	6.12
386.511	5.12
387.296	6.12
388.08	6.12
388.865	6.12
389.649	6.12
390.434	5.12
391.218	7.12
392.003	5.12
392.787	5.12
393.571	5.12
394.355	5.12
395.139	8.12
395.923	4.12
396.707	7.12
397.491	5.12
398.274	10.12
399.058	8.12
399.842	6.12
400.625	8.12
401.408	7.12
402.192	6.12
402.975	7.12
403.758	9.12
404.541	5.12
405.324	6.12
406.107	9.12
406.89	8.12
407.673	7.12
408.456	6.12
409.238	6.12
410.021	6.12
410.803	6.12
411.586	9.12
412.368	12.12
413.151	9.12
413.933	8.12
414.715	10.12
415.497	8.12
416.279	5.12
417.061	9.12
417.843	9.12
418.624	9.12
419.406	10.12
420.188	7.12
420.969	9.12
421.751	10.12
422.532	11.12
423.313	10.12
424.095	10.12
424.876	11.12
425.657	10.12
426.438	13.12
427.219	11.12
428	14.12
428.78	13.12
429.561	14.12
430.342	11.12
431.122	14.12
431.903	15.12
432.683	13.12
433.464	14.12
434.244	16.12
435.024	17.12
435.804	17.12
436.584	18.12
437.364	19.12
438.144	19.12
438.924	21.12
439.704	21.12
440.483	25.12
441.263	28.12
442.042	26.12
442.822	25.12
443.601	29.12
444.38	27.12
445.16	34.12
445.939	34.12
446.718	38.12
447.497	42.12
448.276	44.12
449.054	44.12
449.833	52.12
450.612	56.12
451.391	63.12
452.169	70.12
452.948	75.12
453.726	82.12
454.504	92.12
455.282	97.12
456.061	107.12
456.839	117.12
457.617	135.12
458.395	145.12
459.172	162.12
459.95	184.12
460.728	208.12
461.506	225.12
462.283	254.12
463.061	279.12
463.838	307.12
464.615	352.12
465.393	390.12
466.17	426.12
466.947	469.12
467.724	536.12
468.501	598.12
469.278	653.12
470.055	722.12
470.831	810.12
471.608	894.12
472.385	993.12
473.161	1084.12
473.938	1211.12
474.714	1325.12
475.49	1452.12
476.266	1596.12
477.043	1759.12
477.819	1940.12
478.595	2134.12
479.371	2318.12
480.146	2565.12
480.922	2830.12
481.698	3076.12
482.473	3368.12
483.249	3698.12
484.024	4056.12
484.8	4431.12
485.575	4826.12
486.35	5288.12
487.126	5710.12
487.901	6246.12
488.676	6851.12
489.451	7465.12
490.225	8089.12
491	8803.12
491.775	9564.12
492.55	10413.12
493.324	11223.12
494.099	12094.12
494.873	12959.12
495.647	13975.12
496.422	15004.12
497.196	16012.12
497.97	17138.12
498.744	18181.12
499.518	19236.12
500.292	20329.12
501.066	21358.12
501.839	22318.12
502.613	23210.12
503.387	24009.12
504.16	24729.12
504.934	25149.12
505.707	25457.12
506.48	25647.12
507.253	25769.12
508.027	25744.12
508.8	25608.12
509.573	25444.12
510.346	24914.12
511.118	24437.12
511.891	23842.12
512.664	23084.12
513.437	22357.12
514.209	21475.12
514.982	20758.12
515.754	19869.12
516.526	19097.12
517.298	18293.12
518.071	17574.12
518.843	16888.12
519.615	16252.12
520.387	15568.12
521.159	14989.12
521.93	14341.12
522.702	13843.12
523.474	13278.12
524.245	12715.12
525.017	12121.12
525.788	11701.12
526.56	11171.12
527.331	10698.12
528.102	10236.12
528.873	9751.12
529.644	9292.12
530.415	8894.12
531.186	8438.12
531.957	8014.12
532.728	7697.12
533.498	7289.12
534.269	6838.12
535.039	6523.12
535.81	6150.12
536.58	5788.12
537.351	5446.12
538.121	5161.12
538.891	4885.12
539.661	4653.12
540.431	4404.12
541.201	4125.12
541.971	3911.12
542.741	3710.12
543.51	3516.12
544.28	3356.12
545.05	3205.12
545.819	3055.12
546.588	2910.12
547.358	2750.12
548.127	2623.12
548.896	2483.12
549.665	2365.12
550.434	2248.12
551.203	2113.12
551.972	2007.12
552.741	1895.12
553.51	1801.12
554.278	1686.12
555.047	1620.12
555.815	1509.12
556.584	1441.12
557.352	1357.12
558.121	1279.12
558.889	1210.12
559.657	1145.12
560.425	1089.12
561.193	1021.12
561.961	960.12
562.729	913.12
563.496	861.12
564.264	802.12
565.032	775.12
565.799	733.12
566.567	695.12
567.334	658.12
568.101	609.12
568.869	569.12
569.636	540.12
570.403	509.12
571.17	476.12
571.937	460.12
572.704	430.12
573.471	407.12
574.237	385.12
575.004	365.12
575.771	338.12
576.537	328.12
577.303	296.12
578.07	290.12
578.836	272.12
579.602	252.12
580.368	236.12
581.134	228.12
581.9	210.12
582.666	204.12
583.432	192.12
584.198	184.12
584.964	172.12
585.729	165.12
586.495	159.12
587.26	150.12
588.025	134.12
588.791	132.12
589.556	128.12
590.321	122.12
591.086	110.12
591.851	110.12
592.616	106.12
593.381	96.12
594.146	89.12
594.911	88.12
595.675	84.12
596.44	81.12
597.204	75.12
597.969	69.12
598.733	71.12
599.497	68.12
600.261	62.12
601.025	60.12
601.79	59.12
602.553	54.12
603.317	54.12
604.081	50.12
604.845	48.12
605.609	44.12
606.372	43.12
607.136	43.12
607.899	45.12
608.662	39.12
609.426	36.12
610.189	34.12
610.952	37.12
611.715	34.12
612.478	30.12
613.241	31.12
614.004	30.12
614.767	29.12
615.529	26.12
616.292	26.12
617.055	28.12
617.817	24.12
618.579	24.12
619.342	22.12
620.104	23.12
620.866	22.12
621.628	21.12
622.39	19.12
623.152	18.12
623.914	19.12
624.676	20.12
625.438	15.12
626.199	18.12
626.961	18.12
627.722	15.12
628.484	16.12
629.245	16.12
630.006	14.12
630.768	10.12
631.529	14.12
632.29	16.12
633.051	14.12
633.812	11.12
634.573	12.12
635.333	12.12
636.094	14.12
636.855	11.12
637.615	10.12
638.376	12.12
639.136	10.12
639.896	12.12
640.657	10.12
641.417	10.12
642.177	7.12
642.937	10.12
643.697	8.12
644.457	8.12
645.216	7.12
645.976	10.12
646.736	7.12
647.495	6.12
648.255	10.12
649.014	9.12
649.774	10.12
650.533	7.12
651.292	8.12
652.051	7.12
652.81	9.12
653.569	6.12
654.328	6.12
655.087	10.12
655.846	6.12
656.604	6.12
657.363	7.12
658.121	4.12
658.88	4.12
659.638	6.12
660.397	7.12
661.155	3.12
661.913	8.12
662.671	3.12
663.429	7.12
664.187	4.12
664.945	5.12
665.703	5.12
666.46	8.12
667.218	3.12
667.976	4.12
668.733	9.12
669.49	6.12
670.248	7.12
671.005	5.12
671.762	6.12
672.519	5.12
673.276	4.12
674.033	5.12
674.79	3.12
675.547	7.12
676.304	6.12
677.06	5.12
677.817	5.12
678.574	2.12
679.33	3.12
680.086	6.12
680.843	3.12
681.599	2.12
682.355	5.12
683.111	5.12
683.867	4.12
684.623	3.12
685.379	4.12
686.135	2.12
686.89	4.12
687.646	3.12
688.402	5.12
689.157	4.12
689.912	2.12
690.668	2.12
691.423	1.12
692.178	4.12
692.933	2.12
693.688	5.12
694.443	3.12
695.198	3.12
695.953	2.12
696.708	3.12
697.462	5.12
698.217	6.12
698.972	4.12
699.726	4.12
700.48	1.12
701.235	2.12
701.989	6.12
702.743	3.12
703.497	2.12
704.251	4.12
705.005	1.12
705.759	3.12
706.513	3.12
707.266	4.12
708.02	2.12
708.774	5.12
709.527	5.12
710.28	6.12
711.034	3.12
711.787	5.12
712.54	5.12
713.293	4.12
714.046	5.12
714.799	2.12
715.552	6.12
716.305	3.12
717.058	4.12
717.81	4.12
718.563	2.12
719.315	2.12
720.068	3.12
720.82	5.12
721.573	4.12
722.325	2.12
723.077	2.12
723.829	6.12
724.581	4.12
725.333	4.12
726.085	4.12
726.836	3.12
727.588	2.12
728.34	3.12
729.091	2.12
729.843	5.12
730.594	2.12
731.346	5.12
732.097	3.12
732.848	8.12
733.599	6.12
734.35	0.12
735.101	6.12
735.852	6.12
736.603	4.12
737.354	2.12
738.104	3.12
738.855	5.12
739.605	4.12
740.356	5.12
741.106	5.12
741.856	5.12
742.607	5.12
743.357	3.12
744.107	5.12
744.857	4.12
745.607	6.12
746.357	4.12
747.106	5.12
747.856	6.12
748.606	3.12
749.355	6.12
750.105	4.12
750.854	6.12
751.603	5.12
752.353	5.12
753.102	5.12
753.851	5.12
754.6	5.12
755.349	4.12
756.098	7.12
756.847	6.12
757.595	3.12
758.344	7.12
759.093	6.12
759.841	7.12
760.589	3.12
761.338	7.12
762.086	7.12
762.834	6.12
763.582	6.12
764.331	5.12
765.079	5.12
765.826	6.12
766.574	7.12
767.322	7.12
768.07	6.12
768.817	10.12
769.565	5.12
770.312	5.12
771.06	5.12
771.807	6.12
772.554	7.12
773.302	5.12
774.049	7.12
774.796	8.12
775.543	7.12
776.29	8.12
777.036	7.12
777.783	7.12
778.53	9.12
779.276	9.12
780.023	7.12
780.769	8.12
781.516	7.12
782.262	6.12
783.008	11.12
783.754	8.12
784.5	8.12
785.246	9.12
785.992	8.12
786.738	9.12
787.484	5.12
788.23	10.12
788.975	8.12
789.721	10.12
790.466	9.12
791.212	10.12
791.957	8.12
792.702	7.12
793.447	10.12
794.193	8.12
794.938	10.12
795.683	7.12
796.427	7.12
797.172	7.12
797.917	6.12
798.662	7.12
799.406	6.12
800.151	8.12
800.895	7.12
801.64	6.12
802.384	7.12
803.128	6.12
803.872	9.12
804.616	5.12
805.36	8.12
806.104	6.12
806.848	7.12
807.592	6.12
808.336	5.12
809.079	5.12
809.823	5.12
810.566	5.12
811.31	5.12
812.053	5.12
812.796	7.12
813.539	5.12
814.283	7.12
815.026	3.12
815.769	4.12
816.511	5.12
817.254	3.12
817.997	5.12
818.74	6.12
819.482	5.12
820.225	3.12
820.967	3.12
821.71	6.12
822.452	5.12
823.194	5.12
823.936	4.12
824.678	5.12
825.42	3.12
826.162	3.12
826.904	5.12
827.646	4.12
828.388	5.12
829.129	5.12
829.871	1.12
830.612	3.12
831.354	4.12
832.095	4.12
832.836	3.12
833.577	5.12
834.319	4.12
835.06	2.12
835.801	6.12
836.542	2.12
837.282	5.12
838.023	3.12
838.764	5.12
839.504	5.12
840.245	2.12
840.985	5.12
841.726	3.12
842.466	4.12
843.206	4.12
843.946	4.12
844.687	4.12
845.427	4.12
846.166	4.12
846.906	4.12
847.646	0.12
848.386	3.12
849.125	2.12
849.865	3.12
850.605	2.12
851.344	1.12
852.083	3.12
852.823	4.12
853.562	4.12
854.301	1.12
855.04	5.12
855.779	3.12
856.518	3.12
857.257	2.12
857.995	1.12
858.734	2.12
859.473	2.12
860.211	2.12
860.95	4.12
861.688	1.12
862.426	2.12
863.165	2.12
863.903	3.12
864.641	1.12
865.379	4.12
866.117	1.12
866.855	3.12
867.593	3.12
868.33	3.12
869.068	2.12
869.806	2.12
870.543	1.12
871.28	3.12
872.018	1.12
872.755	1.12
873.492	0.12
874.229	2.12
874.967	1.12
875.703	2.12
876.44	2.12
877.177	0.12
877.914	2.12
878.651	2.12
879.387	2.12
880.124	2.12
880.86	1.12
881.597	2.12
882.333	-0.88
883.069	1.12
883.806	0.12
884.542	2.12
885.278	1.12
886.014	2.12
886.749	1.12
887.485	1.12
888.221	0.12
888.957	1.12
889.692	-0.88
890.428	0.12
891.163	2.12
891.899	2.12
892.634	-0.88
893.369	1.12
894.104	-1.88
894.839	1.12
895.574	1.12
896.309	2.12
897.044	0.12
897.779	-0.88
898.514	0.12
899.248	1.12
899.983	1.12
900.717	1.12
901.452	0.12
902.186	2.12
902.92	1.12
903.654	2.12
904.389	-0.88
905.123	2.12
905.857	2.12
906.59	1.12
907.324	2.12
908.058	2.12
908.792	1.12
909.525	0.12
910.259	0.12
910.992	2.12
911.726	1.12
912.459	0.12
913.192	-0.88
913.925	-0.88
914.658	3.12
915.391	0.12
916.124	-0.88
916.857	0.12
917.59	4.12
918.323	2.12
919.055	1.12
919.788	1.12
920.521	1.12
921.253	0.12
921.985	1.12
922.718	1.12
923.45	-0.88
924.182	0.12
924.914	2.12
925.646	0.12
926.378	2.12
927.11	0.12
927.841	2.12
928.573	1.12
929.305	-0.88
930.036	1.12
930.768	1.12
931.499	0.12
932.23	1.12
932.962	0.12
933.693	1.12
934.424	2.12
935.155	1.12
935.886	0.12
936.617	2.12
937.348	2.12
938.078	1.12
938.809	0.12
939.54	0.12
940.27	1.12
941.001	-1.88
941.731	-0.88
942.461	0.12
943.191	-0.88
943.922	1.12
944.652	-0.88
945.382	0.12
946.112	-1.88
946.841	-1.88
947.571	0.12
948.301	0.12
949.031	-0.88
949.76	0.12
950.49	2.12
951.219	0.12
951.948	2.12
952.678	0.12
953.407	1.12
954.136	1.12
954.865	-0.88
955.594	0.12
956.323	1.12
957.052	0.12
957.78	2.12
958.509	0.12
959.238	0.12
959.966	1.12
960.695	2.12
961.423	1.12
962.151	1.12
962.88	1.12
963.608	1.12
964.336	-0.88
965.064	0.12
965.792	-0.88
966.52	2.12
967.247	1.12
967.975	1.12
968.703	0.12
969.43	-0.88
970.158	1.12
970.885	0.12
971.613	0.12
972.34	-0.88
973.067	1.12
973.794	0.12
974.521	2.12
975.248	-1.88
975.975	0.12
976.702	2.12
977.429	0.12
978.156	1.12
978.882	-1.88
979.609	2.12
980.335	1.12
981.062	-1.88
981.788	-0.88
982.514	0.12
983.24	1.12
983.967	0.12
984.693	0.12
985.419	0.12
986.144	0.12
986.87	2.12
987.596	-1.88
988.322	1.12
989.047	3.12
989.773	2.12
990.498	1.12
991.224	0.12
991.949	2.12
992.674	-1.88
993.399	0.12
994.124	1.12
994.849	-1.88
995.574	0.12
996.299	1.12
997.024	2.12
997.749	0.12
998.473	0.12
999.198	0.12
999.922	1.12
1000.647	1.12
1001.371	5.12
1002.095	-1.88
1002.82	-1.88
1003.544	-1.88
1004.268	2.12
1004.992	2.12
1005.716	-0.88
1006.439	-0.88
1007.163	3.12
1007.887	2.12
1008.611	-1.88
1009.334	4.12
1010.058	1.12
1010.781	-0.88
1011.504	1.12
1012.228	-1.88
1012.951	1.12
1013.674	-0.88
1014.397	0.12
1015.12	0.12
