节点500_285_QEPB04081__74__14-56-47-320.txt的数据

Date: Wed Nov 12 14:56:47 CST 2025
User: PC
Spectrometer: QEPB0408
触发模式: 0
积分时间 (秒): 1.000000E-2
Scans to average: 1
启用暗噪声校正: true
启用非线性校正: false
滑动平均宽度: 0
X轴模式: Wavelengths
Number of Pixels in Spectrum: 1044
>>>>>Begin Spectral Data<<<<<
220.843	1.12
221.644	-0.88
222.444	0.12
223.244	2.12
224.045	1.12
224.845	0.12
225.645	2.12
226.445	3.12
227.245	3.12
228.045	5.12
228.845	2.12
229.645	2.12
230.444	4.12
231.244	1.12
232.043	6.12
232.843	0.12
233.642	5.12
234.442	4.12
235.241	2.12
236.04	6.12
236.839	3.12
237.638	5.12
238.437	4.12
239.236	4.12
240.035	5.12
240.833	3.12
241.632	4.12
242.43	6.12
243.229	7.12
244.027	6.12
244.826	6.12
245.624	7.12
246.422	4.12
247.22	5.12
248.018	5.12
248.816	6.12
249.614	6.12
250.412	7.12
251.21	8.12
252.007	5.12
252.805	5.12
253.602	7.12
254.4	5.12
255.197	9.12
255.994	8.12
256.791	7.12
257.589	10.12
258.386	13.12
259.183	9.12
259.979	11.12
260.776	13.12
261.573	9.12
262.37	13.12
263.166	11.12
263.963	10.12
264.759	13.12
265.556	14.12
266.352	12.12
267.148	14.12
267.944	15.12
268.74	15.12
269.536	11.12
270.332	15.12
271.128	17.12
271.924	18.12
272.719	16.12
273.515	17.12
274.311	15.12
275.106	18.12
275.901	17.12
276.697	18.12
277.492	20.12
278.287	20.12
279.082	22.12
279.877	20.12
280.672	20.12
281.467	21.12
282.262	19.12
283.056	18.12
283.851	21.12
284.646	19.12
285.44	19.12
286.234	19.12
287.029	20.12
287.823	22.12
288.617	16.12
289.411	18.12
290.205	17.12
290.999	20.12
291.793	18.12
292.587	16.12
293.381	17.12
294.174	17.12
294.968	15.12
295.761	15.12
296.555	14.12
297.348	15.12
298.141	13.12
298.935	18.12
299.728	15.12
300.521	16.12
301.314	15.12
302.107	13.12
302.899	13.12
303.692	11.12
304.485	14.12
305.277	12.12
306.07	14.12
306.862	11.12
307.655	11.12
308.447	13.12
309.239	11.12
310.031	11.12
310.823	12.12
311.615	10.12
312.407	8.12
313.199	6.12
313.991	11.12
314.783	9.12
315.574	7.12
316.366	9.12
317.157	7.12
317.949	8.12
318.74	8.12
319.531	6.12
320.322	9.12
321.113	9.12
321.904	7.12
322.695	5.12
323.486	9.12
324.277	9.12
325.068	9.12
325.858	9.12
326.649	5.12
327.439	8.12
328.23	8.12
329.02	6.12
329.81	6.12
330.6	7.12
331.391	6.12
332.181	7.12
332.971	8.12
333.76	7.12
334.55	7.12
335.34	4.12
336.13	5.12
336.919	6.12
337.709	5.12
338.498	8.12
339.287	6.12
340.077	5.12
340.866	8.12
341.655	6.12
342.444	5.12
343.233	6.12
344.022	7.12
344.811	5.12
345.6	4.12
346.388	7.12
347.177	5.12
347.965	7.12
348.754	5.12
349.542	8.12
350.33	7.12
351.119	7.12
351.907	5.12
352.695	7.12
353.483	6.12
354.271	5.12
355.059	6.12
355.846	8.12
356.634	5.12
357.422	7.12
358.209	6.12
358.997	7.12
359.784	7.12
360.571	5.12
361.359	7.12
362.146	5.12
362.933	7.12
363.72	4.12
364.507	5.12
365.294	6.12
366.081	6.12
366.867	7.12
367.654	3.12
368.44	5.12
369.227	6.12
370.013	5.12
370.8	7.12
371.586	4.12
372.372	5.12
373.158	3.12
373.944	5.12
374.73	8.12
375.516	5.12
376.302	9.12
377.088	8.12
377.873	7.12
378.659	5.12
379.445	4.12
380.23	6.12
381.015	6.12
381.801	5.12
382.586	5.12
383.371	5.12
384.156	7.12
384.941	6.12
385.726	7.12
386.511	6.12
387.296	4.12
388.08	5.12
388.865	6.12
389.649	5.12
390.434	6.12
391.218	5.12
392.003	6.12
392.787	5.12
393.571	4.12
394.355	4.12
395.139	8.12
395.923	8.12
396.707	6.12
397.491	7.12
398.274	6.12
399.058	7.12
399.842	6.12
400.625	7.12
401.408	6.12
402.192	5.12
402.975	6.12
403.758	8.12
404.541	6.12
405.324	10.12
406.107	7.12
406.89	10.12
407.673	5.12
408.456	7.12
409.238	9.12
410.021	9.12
410.803	10.12
411.586	11.12
412.368	8.12
413.151	7.12
413.933	9.12
414.715	8.12
415.497	10.12
416.279	9.12
417.061	11.12
417.843	13.12
418.624	9.12
419.406	10.12
420.188	12.12
420.969	11.12
421.751	10.12
422.532	12.12
423.313	12.12
424.095	9.12
424.876	12.12
425.657	12.12
426.438	8.12
427.219	16.12
428	15.12
428.78	11.12
429.561	16.12
430.342	15.12
431.122	13.12
431.903	13.12
432.683	12.12
433.464	16.12
434.244	15.12
435.024	17.12
435.804	17.12
436.584	17.12
437.364	19.12
438.144	17.12
438.924	24.12
439.704	18.12
440.483	25.12
441.263	22.12
442.042	24.12
442.822	25.12
443.601	26.12
444.38	26.12
445.16	30.12
445.939	35.12
446.718	36.12
447.497	36.12
448.276	40.12
449.054	41.12
449.833	48.12
450.612	47.12
451.391	53.12
452.169	57.12
452.948	63.12
453.726	71.12
454.504	79.12
455.282	81.12
456.061	93.12
456.839	99.12
457.617	114.12
458.395	129.12
459.172	143.12
459.95	150.12
460.728	177.12
461.506	193.12
462.283	209.12
463.061	241.12
463.838	264.12
464.615	303.12
465.393	331.12
466.17	373.12
466.947	427.12
467.724	466.12
468.501	528.12
469.278	576.12
470.055	669.12
470.831	724.12
471.608	809.12
472.385	911.12
473.161	1007.12
473.938	1132.12
474.714	1258.12
475.49	1389.12
476.266	1551.12
477.043	1724.12
477.819	1912.12
478.595	2103.12
479.371	2333.12
480.146	2587.12
480.922	2886.12
481.698	3168.12
482.473	3529.12
483.249	3924.12
484.024	4294.12
484.8	4770.12
485.575	5276.12
486.35	5798.12
487.126	6426.12
487.901	7068.12
488.676	7780.12
489.451	8562.12
490.225	9417.12
491	10356.12
491.775	11273.12
492.55	12358.12
493.324	13479.12
494.099	14485.12
494.873	15654.12
495.647	16969.12
496.422	18200.12
497.196	19458.12
497.97	20779.12
498.744	22021.12
499.518	23243.12
500.292	24467.12
501.066	25587.12
501.839	26520.12
502.613	27332.12
503.387	28063.12
504.16	28594.12
504.934	28804.12
505.707	28803.12
506.48	28718.12
507.253	28384.12
508.027	28065.12
508.8	27485.12
509.573	26829.12
510.346	26131.12
511.118	25125.12
511.891	24253.12
512.664	23340.12
513.437	22365.12
514.209	21340.12
514.982	20377.12
515.754	19476.12
516.526	18538.12
517.298	17718.12
518.071	16959.12
518.843	16293.12
519.615	15677.12
520.387	15060.12
521.159	14459.12
521.93	13883.12
522.702	13382.12
523.474	12835.12
524.245	12229.12
525.017	11700.12
525.788	11208.12
526.56	10761.12
527.331	10210.12
528.102	9743.12
528.873	9239.12
529.644	8753.12
530.415	8336.12
531.186	7890.12
531.957	7454.12
532.728	7091.12
533.498	6690.12
534.269	6285.12
535.039	5920.12
535.81	5626.12
536.58	5275.12
537.351	4986.12
538.121	4705.12
538.891	4445.12
539.661	4244.12
540.431	3984.12
541.201	3754.12
541.971	3556.12
542.741	3371.12
543.51	3198.12
544.28	3068.12
545.05	2907.12
545.819	2769.12
546.588	2640.12
547.358	2498.12
548.127	2372.12
548.896	2231.12
549.665	2166.12
550.434	2026.12
551.203	1898.12
551.972	1808.12
552.741	1691.12
553.51	1610.12
554.278	1529.12
555.047	1427.12
555.815	1334.12
556.584	1266.12
557.352	1194.12
558.121	1144.12
558.889	1062.12
559.657	1008.12
560.425	954.12
561.193	892.12
561.961	853.12
562.729	797.12
563.496	758.12
564.264	721.12
565.032	677.12
565.799	635.12
566.567	605.12
567.334	572.12
568.101	546.12
568.869	518.12
569.636	486.12
570.403	457.12
571.17	427.12
571.937	412.12
572.704	384.12
573.471	358.12
574.237	342.12
575.004	317.12
575.771	312.12
576.537	281.12
577.303	262.12
578.07	247.12
578.836	235.12
579.602	218.12
580.368	210.12
581.134	196.12
581.9	185.12
582.666	178.12
583.432	170.12
584.198	160.12
584.964	148.12
585.729	148.12
586.495	136.12
587.26	131.12
588.025	125.12
588.791	118.12
589.556	114.12
590.321	103.12
591.086	103.12
591.851	92.12
592.616	90.12
593.381	85.12
594.146	82.12
594.911	78.12
595.675	76.12
596.44	71.12
597.204	67.12
597.969	64.12
598.733	63.12
599.497	58.12
600.261	56.12
601.025	54.12
601.79	52.12
602.553	49.12
603.317	49.12
604.081	46.12
604.845	44.12
605.609	44.12
606.372	39.12
607.136	39.12
607.899	35.12
608.662	33.12
609.426	36.12
610.189	33.12
610.952	32.12
611.715	29.12
612.478	27.12
613.241	25.12
614.004	24.12
614.767	27.12
615.529	25.12
616.292	23.12
617.055	23.12
617.817	22.12
618.579	21.12
619.342	21.12
620.104	20.12
620.866	19.12
621.628	19.12
622.39	16.12
623.152	20.12
623.914	19.12
624.676	17.12
625.438	18.12
626.199	18.12
626.961	13.12
627.722	14.12
628.484	14.12
629.245	15.12
630.006	16.12
630.768	11.12
631.529	12.12
632.29	12.12
633.051	12.12
633.812	13.12
634.573	11.12
635.333	11.12
636.094	10.12
636.855	10.12
637.615	11.12
638.376	10.12
639.136	9.12
639.896	7.12
640.657	9.12
641.417	9.12
642.177	9.12
642.937	8.12
643.697	7.12
644.457	8.12
645.216	8.12
645.976	9.12
646.736	8.12
647.495	8.12
648.255	7.12
649.014	6.12
649.774	6.12
650.533	7.12
651.292	8.12
652.051	5.12
652.81	7.12
653.569	7.12
654.328	5.12
655.087	4.12
655.846	6.12
656.604	6.12
657.363	6.12
658.121	7.12
658.88	4.12
659.638	7.12
660.397	6.12
661.155	7.12
661.913	8.12
662.671	6.12
663.429	3.12
664.187	4.12
664.945	6.12
665.703	5.12
666.46	3.12
667.218	5.12
667.976	5.12
668.733	5.12
669.49	5.12
670.248	5.12
671.005	5.12
671.762	4.12
672.519	5.12
673.276	6.12
674.033	3.12
674.79	5.12
675.547	6.12
676.304	3.12
677.06	5.12
677.817	5.12
678.574	5.12
679.33	3.12
680.086	5.12
680.843	4.12
681.599	3.12
682.355	6.12
683.111	4.12
683.867	4.12
684.623	3.12
685.379	4.12
686.135	3.12
686.89	3.12
687.646	4.12
688.402	2.12
689.157	5.12
689.912	3.12
690.668	4.12
691.423	3.12
692.178	4.12
692.933	3.12
693.688	3.12
694.443	3.12
695.198	3.12
695.953	3.12
696.708	1.12
697.462	3.12
698.217	4.12
698.972	4.12
699.726	1.12
700.48	4.12
701.235	5.12
701.989	4.12
702.743	4.12
703.497	4.12
704.251	4.12
705.005	3.12
705.759	4.12
706.513	5.12
707.266	3.12
708.02	5.12
708.774	2.12
709.527	4.12
710.28	4.12
711.034	3.12
711.787	3.12
712.54	1.12
713.293	5.12
714.046	4.12
714.799	4.12
715.552	2.12
716.305	3.12
717.058	3.12
717.81	3.12
718.563	5.12
719.315	3.12
720.068	5.12
720.82	3.12
721.573	2.12
722.325	5.12
723.077	3.12
723.829	5.12
724.581	3.12
725.333	3.12
726.085	4.12
726.836	1.12
727.588	4.12
728.34	3.12
729.091	3.12
729.843	4.12
730.594	2.12
731.346	6.12
732.097	2.12
732.848	4.12
733.599	4.12
734.35	5.12
735.101	5.12
735.852	3.12
736.603	4.12
737.354	3.12
738.104	7.12
738.855	5.12
739.605	3.12
740.356	5.12
741.106	4.12
741.856	3.12
742.607	5.12
743.357	5.12
744.107	6.12
744.857	4.12
745.607	9.12
746.357	4.12
747.106	6.12
747.856	8.12
748.606	6.12
749.355	4.12
750.105	3.12
750.854	4.12
751.603	6.12
752.353	6.12
753.102	5.12
753.851	5.12
754.6	6.12
755.349	8.12
756.098	6.12
756.847	7.12
757.595	7.12
758.344	5.12
759.093	4.12
759.841	7.12
760.589	7.12
761.338	6.12
762.086	7.12
762.834	6.12
763.582	8.12
764.331	7.12
765.079	6.12
765.826	8.12
766.574	6.12
767.322	7.12
768.07	8.12
768.817	8.12
769.565	10.12
770.312	10.12
771.06	10.12
771.807	7.12
772.554	9.12
773.302	8.12
774.049	8.12
774.796	9.12
775.543	7.12
776.29	10.12
777.036	7.12
777.783	9.12
778.53	9.12
779.276	10.12
780.023	10.12
780.769	9.12
781.516	9.12
782.262	9.12
783.008	7.12
783.754	11.12
784.5	8.12
785.246	11.12
785.992	9.12
786.738	11.12
787.484	9.12
788.23	10.12
788.975	10.12
789.721	10.12
790.466	9.12
791.212	9.12
791.957	8.12
792.702	8.12
793.447	6.12
794.193	10.12
794.938	8.12
795.683	10.12
796.427	6.12
797.172	9.12
797.917	6.12
798.662	7.12
799.406	10.12
800.151	8.12
800.895	7.12
801.64	8.12
802.384	7.12
803.128	7.12
803.872	7.12
804.616	8.12
805.36	6.12
806.104	9.12
806.848	4.12
807.592	5.12
808.336	5.12
809.079	6.12
809.823	5.12
810.566	6.12
811.31	3.12
812.053	6.12
812.796	7.12
813.539	5.12
814.283	5.12
815.026	6.12
815.769	6.12
816.511	3.12
817.254	4.12
817.997	6.12
818.74	2.12
819.482	5.12
820.225	5.12
820.967	4.12
821.71	3.12
822.452	7.12
823.194	3.12
823.936	4.12
824.678	4.12
825.42	3.12
826.162	5.12
826.904	6.12
827.646	3.12
828.388	3.12
829.129	4.12
829.871	5.12
830.612	1.12
831.354	3.12
832.095	4.12
832.836	3.12
833.577	3.12
834.319	1.12
835.06	5.12
835.801	1.12
836.542	4.12
837.282	4.12
838.023	5.12
838.764	4.12
839.504	4.12
840.245	4.12
840.985	3.12
841.726	4.12
842.466	1.12
843.206	3.12
843.946	4.12
844.687	2.12
845.427	1.12
846.166	1.12
846.906	1.12
847.646	4.12
848.386	3.12
849.125	5.12
849.865	4.12
850.605	3.12
851.344	1.12
852.083	4.12
852.823	2.12
853.562	1.12
854.301	4.12
855.04	1.12
855.779	1.12
856.518	3.12
857.257	3.12
857.995	2.12
858.734	2.12
859.473	2.12
860.211	3.12
860.95	1.12
861.688	2.12
862.426	1.12
863.165	1.12
863.903	3.12
864.641	1.12
865.379	2.12
866.117	2.12
866.855	-0.88
867.593	1.12
868.33	2.12
869.068	1.12
869.806	0.12
870.543	3.12
871.28	0.12
872.018	0.12
872.755	1.12
873.492	2.12
874.229	2.12
874.967	0.12
875.703	3.12
876.44	2.12
877.177	1.12
877.914	1.12
878.651	-0.88
879.387	4.12
880.124	2.12
880.86	-0.88
881.597	0.12
882.333	1.12
883.069	1.12
883.806	1.12
884.542	1.12
885.278	1.12
886.014	1.12
886.749	-1.88
887.485	-2.88
888.221	1.12
888.957	2.12
889.692	1.12
890.428	1.12
891.163	0.12
891.899	1.12
892.634	-1.88
893.369	1.12
894.104	-0.88
894.839	2.12
895.574	-0.88
896.309	1.12
897.044	1.12
897.779	1.12
898.514	1.12
899.248	-0.88
899.983	-0.88
900.717	1.12
901.452	0.12
902.186	1.12
902.92	0.12
903.654	0.12
904.389	2.12
905.123	0.12
905.857	1.12
906.59	1.12
907.324	-0.88
908.058	1.12
908.792	1.12
909.525	2.12
910.259	1.12
910.992	2.12
911.726	-0.88
912.459	-0.88
913.192	2.12
913.925	1.12
914.658	2.12
915.391	0.12
916.124	2.12
916.857	-0.88
917.59	-0.88
918.323	0.12
919.055	0.12
919.788	1.12
920.521	4.12
921.253	1.12
921.985	1.12
922.718	0.12
923.45	0.12
924.182	0.12
924.914	-0.88
925.646	3.12
926.378	-0.88
927.11	0.12
927.841	0.12
928.573	0.12
929.305	0.12
930.036	1.12
930.768	1.12
931.499	-0.88
932.23	1.12
932.962	0.12
933.693	-0.88
934.424	1.12
935.155	1.12
935.886	1.12
936.617	0.12
937.348	0.12
938.078	-0.88
938.809	1.12
939.54	-2.88
940.27	0.12
941.001	1.12
941.731	-1.88
942.461	0.12
943.191	-1.88
943.922	1.12
944.652	2.12
945.382	-0.88
946.112	0.12
946.841	1.12
947.571	-0.88
948.301	-1.88
949.031	-0.88
949.76	1.12
950.49	-2.88
951.219	4.12
951.948	2.12
952.678	-0.88
953.407	2.12
954.136	3.12
954.865	3.12
955.594	1.12
956.323	0.12
957.052	0.12
957.78	1.12
958.509	1.12
959.238	1.12
959.966	-0.88
960.695	2.12
961.423	1.12
962.151	0.12
962.88	0.12
963.608	2.12
964.336	0.12
965.064	0.12
965.792	0.12
966.52	-0.88
967.247	2.12
967.975	0.12
968.703	-0.88
969.43	0.12
970.158	1.12
970.885	0.12
971.613	-1.88
972.34	2.12
973.067	1.12
973.794	1.12
974.521	-1.88
975.248	1.12
975.975	-0.88
976.702	0.12
977.429	0.12
978.156	1.12
978.882	3.12
979.609	1.12
980.335	0.12
981.062	1.12
981.788	1.12
982.514	-2.88
983.24	2.12
983.967	-0.88
984.693	0.12
985.419	2.12
986.144	-0.88
986.87	-0.88
987.596	0.12
988.322	0.12
989.047	2.12
989.773	0.12
990.498	0.12
991.224	0.12
991.949	1.12
992.674	-0.88
993.399	0.12
994.124	1.12
994.849	-0.88
995.574	0.12
996.299	1.12
997.024	2.12
997.749	0.12
998.473	-0.88
999.198	1.12
999.922	1.12
1000.647	1.12
1001.371	3.12
1002.095	-0.88
1002.82	1.12
1003.544	-2.88
1004.268	1.12
1004.992	0.12
1005.716	0.12
1006.439	1.12
1007.163	2.12
1007.887	3.12
1008.611	-2.88
1009.334	1.12
1010.058	0.12
1010.781	-1.88
1011.504	2.12
1012.228	0.12
1012.951	1.12
1013.674	-1.88
1014.397	0.12
1015.12	0.12
