节点500_285_QEPB04081__817__15-09-08-727.txt的数据

Date: Wed Nov 12 15:09:08 CST 2025
User: PC
Spectrometer: QEPB0408
触发模式: 0
积分时间 (秒): 1.000000E-2
Scans to average: 1
启用暗噪声校正: true
启用非线性校正: false
滑动平均宽度: 0
X轴模式: Wavelengths
Number of Pixels in Spectrum: 1044
>>>>>Begin Spectral Data<<<<<
220.843	1.62
221.644	2.62
222.444	2.62
223.244	0.62
224.045	2.62
224.845	3.62
225.645	2.62
226.445	1.62
227.245	-1.38
228.045	2.62
228.845	-0.38
229.645	1.62
230.444	2.62
231.244	1.62
232.043	3.62
232.843	2.62
233.642	2.62
234.442	3.62
235.241	3.62
236.04	2.62
236.839	1.62
237.638	1.62
238.437	4.62
239.236	2.62
240.035	3.62
240.833	4.62
241.632	3.62
242.43	-0.38
243.229	3.62
244.027	6.62
244.826	5.62
245.624	3.62
246.422	5.62
247.22	3.62
248.018	4.62
248.816	6.62
249.614	4.62
250.412	8.62
251.21	7.62
252.007	6.62
252.805	6.62
253.602	6.62
254.4	6.62
255.197	8.62
255.994	6.62
256.791	6.62
257.589	5.62
258.386	7.62
259.183	6.62
259.979	8.62
260.776	8.62
261.573	7.62
262.37	11.62
263.166	6.62
263.963	8.62
264.759	10.62
265.556	9.62
266.352	10.62
267.148	10.62
267.944	11.62
268.74	9.62
269.536	12.62
270.332	11.62
271.128	12.62
271.924	12.62
272.719	13.62
273.515	13.62
274.311	13.62
275.106	14.62
275.901	15.62
276.697	13.62
277.492	15.62
278.287	13.62
279.082	15.62
279.877	16.62
280.672	17.62
281.467	15.62
282.262	15.62
283.056	16.62
283.851	15.62
284.646	19.62
285.44	13.62
286.234	14.62
287.029	13.62
287.823	18.62
288.617	17.62
289.411	17.62
290.205	15.62
290.999	13.62
291.793	18.62
292.587	15.62
293.381	14.62
294.174	16.62
294.968	13.62
295.761	13.62
296.555	14.62
297.348	13.62
298.141	13.62
298.935	15.62
299.728	14.62
300.521	12.62
301.314	14.62
302.107	13.62
302.899	11.62
303.692	14.62
304.485	10.62
305.277	11.62
306.07	13.62
306.862	13.62
307.655	13.62
308.447	12.62
309.239	12.62
310.031	10.62
310.823	12.62
311.615	10.62
312.407	7.62
313.199	10.62
313.991	7.62
314.783	8.62
315.574	6.62
316.366	9.62
317.157	7.62
317.949	9.62
318.74	7.62
319.531	7.62
320.322	9.62
321.113	9.62
321.904	9.62
322.695	7.62
323.486	7.62
324.277	7.62
325.068	6.62
325.858	7.62
326.649	7.62
327.439	7.62
328.23	4.62
329.02	5.62
329.81	5.62
330.6	5.62
331.391	6.62
332.181	5.62
332.971	4.62
333.76	7.62
334.55	4.62
335.34	6.62
336.13	4.62
336.919	5.62
337.709	5.62
338.498	6.62
339.287	5.62
340.077	4.62
340.866	4.62
341.655	3.62
342.444	6.62
343.233	7.62
344.022	6.62
344.811	5.62
345.6	4.62
346.388	3.62
347.177	4.62
347.965	5.62
348.754	5.62
349.542	3.62
350.33	7.62
351.119	5.62
351.907	5.62
352.695	6.62
353.483	6.62
354.271	1.62
355.059	5.62
355.846	6.62
356.634	4.62
357.422	6.62
358.209	6.62
358.997	5.62
359.784	4.62
360.571	2.62
361.359	3.62
362.146	2.62
362.933	3.62
363.72	4.62
364.507	3.62
365.294	3.62
366.081	2.62
366.867	3.62
367.654	3.62
368.44	4.62
369.227	4.62
370.013	3.62
370.8	4.62
371.586	4.62
372.372	4.62
373.158	3.62
373.944	4.62
374.73	7.62
375.516	5.62
376.302	4.62
377.088	4.62
377.873	4.62
378.659	4.62
379.445	4.62
380.23	6.62
381.015	2.62
381.801	6.62
382.586	1.62
383.371	3.62
384.156	5.62
384.941	5.62
385.726	5.62
386.511	4.62
387.296	4.62
388.08	5.62
388.865	3.62
389.649	5.62
390.434	2.62
391.218	4.62
392.003	5.62
392.787	6.62
393.571	3.62
394.355	7.62
395.139	7.62
395.923	7.62
396.707	7.62
397.491	7.62
398.274	6.62
399.058	5.62
399.842	7.62
400.625	6.62
401.408	5.62
402.192	6.62
402.975	3.62
403.758	7.62
404.541	6.62
405.324	8.62
406.107	5.62
406.89	8.62
407.673	5.62
408.456	6.62
409.238	9.62
410.021	7.62
410.803	8.62
411.586	5.62
412.368	6.62
413.151	7.62
413.933	9.62
414.715	7.62
415.497	9.62
416.279	8.62
417.061	8.62
417.843	9.62
418.624	9.62
419.406	8.62
420.188	8.62
420.969	10.62
421.751	9.62
422.532	9.62
423.313	9.62
424.095	10.62
424.876	11.62
425.657	10.62
426.438	11.62
427.219	11.62
428	10.62
428.78	12.62
429.561	13.62
430.342	12.62
431.122	14.62
431.903	15.62
432.683	12.62
433.464	16.62
434.244	11.62
435.024	15.62
435.804	16.62
436.584	18.62
437.364	17.62
438.144	16.62
438.924	20.62
439.704	22.62
440.483	19.62
441.263	23.62
442.042	22.62
442.822	25.62
443.601	28.62
444.38	30.62
445.16	33.62
445.939	33.62
446.718	38.62
447.497	40.62
448.276	44.62
449.054	52.62
449.833	52.62
450.612	60.62
451.391	63.62
452.169	71.62
452.948	73.62
453.726	81.62
454.504	91.62
455.282	102.62
456.061	109.62
456.839	123.62
457.617	138.62
458.395	153.62
459.172	172.62
459.95	189.62
460.728	209.62
461.506	230.62
462.283	254.62
463.061	283.62
463.838	326.62
464.615	361.62
465.393	402.62
466.17	434.62
466.947	487.62
467.724	542.62
468.501	598.62
469.278	674.62
470.055	738.62
470.831	811.62
471.608	913.62
472.385	1008.62
473.161	1098.62
473.938	1207.62
474.714	1335.62
475.49	1470.62
476.266	1624.62
477.043	1777.62
477.819	1935.62
478.595	2134.62
479.371	2323.62
480.146	2534.62
480.922	2775.62
481.698	3036.62
482.473	3327.62
483.249	3641.62
484.024	3964.62
484.8	4322.62
485.575	4698.62
486.35	5151.62
487.126	5575.62
487.901	6082.62
488.676	6602.62
489.451	7246.62
490.225	7837.62
491	8506.62
491.775	9213.62
492.55	9984.62
493.324	10768.62
494.099	11545.62
494.873	12430.62
495.647	13369.62
496.422	14265.62
497.196	15265.62
497.97	16318.62
498.744	17311.62
499.518	18336.62
500.292	19393.62
501.066	20328.62
501.839	21256.62
502.613	22164.62
503.387	22961.62
504.16	23799.62
504.934	24153.62
505.707	24541.62
506.48	24814.62
507.253	25015.62
508.027	25062.62
508.8	24996.62
509.573	24800.62
510.346	24464.62
511.118	23975.62
511.891	23490.62
512.664	22887.62
513.437	22170.62
514.209	21387.62
514.982	20692.62
515.754	19832.62
516.526	19038.62
517.298	18296.62
518.071	17576.62
518.843	16919.62
519.615	16306.62
520.387	15653.62
521.159	15021.62
521.93	14409.62
522.702	13845.62
523.474	13280.62
524.245	12693.62
525.017	12206.62
525.788	11759.62
526.56	11228.62
527.331	10701.62
528.102	10253.62
528.873	9806.62
529.644	9344.62
530.415	8928.62
531.186	8557.62
531.957	8119.62
532.728	7731.62
533.498	7347.62
534.269	6956.62
535.039	6562.62
535.81	6270.62
536.58	5900.62
537.351	5552.62
538.121	5249.62
538.891	4965.62
539.661	4740.62
540.431	4418.62
541.201	4205.62
541.971	4009.62
542.741	3769.62
543.51	3575.62
544.28	3420.62
545.05	3229.62
545.819	3105.62
546.588	2941.62
547.358	2805.62
548.127	2648.62
548.896	2533.62
549.665	2405.62
550.434	2297.62
551.203	2166.62
551.972	2056.62
552.741	1927.62
553.51	1839.62
554.278	1728.62
555.047	1645.62
555.815	1567.62
556.584	1464.62
557.352	1379.62
558.121	1290.62
558.889	1224.62
559.657	1163.62
560.425	1105.62
561.193	1041.62
561.961	984.62
562.729	936.62
563.496	877.62
564.264	830.62
565.032	782.62
565.799	749.62
566.567	708.62
567.334	672.62
568.101	625.62
568.869	589.62
569.636	556.62
570.403	525.62
571.17	495.62
571.937	471.62
572.704	441.62
573.471	411.62
574.237	395.62
575.004	377.62
575.771	345.62
576.537	323.62
577.303	309.62
578.07	292.62
578.836	273.62
579.602	261.62
580.368	248.62
581.134	229.62
581.9	222.62
582.666	210.62
583.432	199.62
584.198	188.62
584.964	175.62
585.729	166.62
586.495	161.62
587.26	151.62
588.025	141.62
588.791	137.62
589.556	130.62
590.321	118.62
591.086	116.62
591.851	107.62
592.616	103.62
593.381	99.62
594.146	94.62
594.911	88.62
595.675	83.62
596.44	81.62
597.204	77.62
597.969	71.62
598.733	68.62
599.497	65.62
600.261	65.62
601.025	60.62
601.79	58.62
602.553	52.62
603.317	53.62
604.081	54.62
604.845	45.62
605.609	43.62
606.372	45.62
607.136	42.62
607.899	39.62
608.662	36.62
609.426	37.62
610.189	33.62
610.952	38.62
611.715	31.62
612.478	32.62
613.241	30.62
614.004	29.62
614.767	27.62
615.529	27.62
616.292	25.62
617.055	24.62
617.817	24.62
618.579	24.62
619.342	24.62
620.104	23.62
620.866	20.62
621.628	20.62
622.39	19.62
623.152	20.62
623.914	18.62
624.676	17.62
625.438	18.62
626.199	17.62
626.961	15.62
627.722	14.62
628.484	15.62
629.245	14.62
630.006	11.62
630.768	13.62
631.529	11.62
632.29	14.62
633.051	15.62
633.812	11.62
634.573	12.62
635.333	11.62
636.094	9.62
636.855	9.62
637.615	11.62
638.376	7.62
639.136	7.62
639.896	9.62
640.657	9.62
641.417	10.62
642.177	6.62
642.937	7.62
643.697	9.62
644.457	8.62
645.216	7.62
645.976	6.62
646.736	8.62
647.495	7.62
648.255	8.62
649.014	5.62
649.774	5.62
650.533	8.62
651.292	7.62
652.051	6.62
652.81	6.62
653.569	8.62
654.328	5.62
655.087	6.62
655.846	5.62
656.604	5.62
657.363	5.62
658.121	5.62
658.88	5.62
659.638	6.62
660.397	4.62
661.155	5.62
661.913	4.62
662.671	5.62
663.429	6.62
664.187	3.62
664.945	6.62
665.703	3.62
666.46	5.62
667.218	6.62
667.976	5.62
668.733	3.62
669.49	2.62
670.248	3.62
671.005	1.62
671.762	6.62
672.519	5.62
673.276	5.62
674.033	5.62
674.79	2.62
675.547	5.62
676.304	3.62
677.06	5.62
677.817	3.62
678.574	4.62
679.33	3.62
680.086	0.62
680.843	4.62
681.599	5.62
682.355	4.62
683.111	4.62
683.867	2.62
684.623	1.62
685.379	4.62
686.135	3.62
686.89	2.62
687.646	4.62
688.402	3.62
689.157	3.62
689.912	3.62
690.668	1.62
691.423	5.62
692.178	1.62
692.933	0.62
693.688	2.62
694.443	3.62
695.198	1.62
695.953	1.62
696.708	2.62
697.462	1.62
698.217	2.62
698.972	3.62
699.726	3.62
700.48	3.62
701.235	1.62
701.989	3.62
702.743	2.62
703.497	1.62
704.251	5.62
705.005	2.62
705.759	2.62
706.513	2.62
707.266	2.62
708.02	3.62
708.774	1.62
709.527	2.62
710.28	2.62
711.034	4.62
711.787	2.62
712.54	5.62
713.293	2.62
714.046	4.62
714.799	4.62
715.552	3.62
716.305	3.62
717.058	2.62
717.81	2.62
718.563	0.62
719.315	1.62
720.068	3.62
720.82	3.62
721.573	3.62
722.325	1.62
723.077	4.62
723.829	4.62
724.581	3.62
725.333	1.62
726.085	3.62
726.836	5.62
727.588	2.62
728.34	1.62
729.091	2.62
729.843	2.62
730.594	4.62
731.346	5.62
732.097	6.62
732.848	2.62
733.599	4.62
734.35	2.62
735.101	3.62
735.852	4.62
736.603	1.62
737.354	5.62
738.104	4.62
738.855	1.62
739.605	6.62
740.356	2.62
741.106	3.62
741.856	5.62
742.607	4.62
743.357	3.62
744.107	1.62
744.857	5.62
745.607	3.62
746.357	6.62
747.106	4.62
747.856	2.62
748.606	6.62
749.355	2.62
750.105	3.62
750.854	4.62
751.603	6.62
752.353	1.62
753.102	3.62
753.851	2.62
754.6	3.62
755.349	7.62
756.098	5.62
756.847	3.62
757.595	5.62
758.344	1.62
759.093	3.62
759.841	4.62
760.589	4.62
761.338	3.62
762.086	5.62
762.834	4.62
763.582	5.62
764.331	5.62
765.079	2.62
765.826	5.62
766.574	6.62
767.322	5.62
768.07	5.62
768.817	7.62
769.565	5.62
770.312	6.62
771.06	6.62
771.807	7.62
772.554	6.62
773.302	7.62
774.049	4.62
774.796	4.62
775.543	6.62
776.29	7.62
777.036	7.62
777.783	5.62
778.53	7.62
779.276	6.62
780.023	10.62
780.769	6.62
781.516	5.62
782.262	5.62
783.008	8.62
783.754	7.62
784.5	7.62
785.246	9.62
785.992	8.62
786.738	6.62
787.484	6.62
788.23	5.62
788.975	6.62
789.721	5.62
790.466	8.62
791.212	6.62
791.957	6.62
792.702	7.62
793.447	6.62
794.193	5.62
794.938	9.62
795.683	6.62
796.427	5.62
797.172	7.62
797.917	6.62
798.662	3.62
799.406	7.62
800.151	4.62
800.895	6.62
801.64	6.62
802.384	4.62
803.128	6.62
803.872	5.62
804.616	6.62
805.36	6.62
806.104	6.62
806.848	7.62
807.592	2.62
808.336	4.62
809.079	3.62
809.823	6.62
810.566	5.62
811.31	5.62
812.053	3.62
812.796	5.62
813.539	5.62
814.283	4.62
815.026	4.62
815.769	1.62
816.511	1.62
817.254	4.62
817.997	2.62
818.74	5.62
819.482	5.62
820.225	5.62
820.967	3.62
821.71	2.62
822.452	6.62
823.194	2.62
823.936	0.62
824.678	3.62
825.42	4.62
826.162	3.62
826.904	4.62
827.646	3.62
828.388	3.62
829.129	3.62
829.871	3.62
830.612	3.62
831.354	2.62
832.095	2.62
832.836	-0.38
833.577	3.62
834.319	4.62
835.06	3.62
835.801	2.62
836.542	3.62
837.282	1.62
838.023	3.62
838.764	1.62
839.504	3.62
840.245	2.62
840.985	2.62
841.726	2.62
842.466	2.62
843.206	2.62
843.946	1.62
844.687	4.62
845.427	4.62
846.166	2.62
846.906	1.62
847.646	2.62
848.386	1.62
849.125	1.62
849.865	3.62
850.605	1.62
851.344	3.62
852.083	1.62
852.823	1.62
853.562	4.62
854.301	3.62
855.04	2.62
855.779	1.62
856.518	1.62
857.257	3.62
857.995	2.62
858.734	3.62
859.473	3.62
860.211	1.62
860.95	2.62
861.688	1.62
862.426	1.62
863.165	1.62
863.903	1.62
864.641	3.62
865.379	0.62
866.117	0.62
866.855	0.62
867.593	0.62
868.33	0.62
869.068	0.62
869.806	-2.38
870.543	0.62
871.28	3.62
872.018	0.62
872.755	1.62
873.492	2.62
874.229	0.62
874.967	0.62
875.703	-1.38
876.44	-1.38
877.177	1.62
877.914	2.62
878.651	1.62
879.387	0.62
880.124	-0.38
880.86	0.62
881.597	0.62
882.333	0.62
883.069	1.62
883.806	-0.38
884.542	0.62
885.278	1.62
886.014	1.62
886.749	-0.38
887.485	0.62
888.221	0.62
888.957	-2.38
889.692	-0.38
890.428	0.62
891.163	-0.38
891.899	0.62
892.634	0.62
893.369	-1.38
894.104	-0.38
894.839	-0.38
895.574	1.62
896.309	1.62
897.044	-2.38
897.779	2.62
898.514	-0.38
899.248	0.62
899.983	-1.38
900.717	0.62
901.452	-1.38
902.186	1.62
902.92	-1.38
903.654	-1.38
904.389	0.62
905.123	0.62
905.857	-0.38
906.59	-1.38
907.324	0.62
908.058	-1.38
908.792	-0.38
909.525	0.62
910.259	-2.38
910.992	0.62
911.726	-1.38
912.459	1.62
913.192	0.62
913.925	-1.38
914.658	0.62
915.391	-1.38
916.124	2.62
916.857	1.62
917.59	0.62
918.323	-0.38
919.055	1.62
919.788	-0.38
920.521	-2.38
921.253	-0.38
921.985	0.62
922.718	-1.38
923.45	-0.38
924.182	-3.38
924.914	0.62
925.646	-0.38
926.378	1.62
927.11	0.62
927.841	0.62
928.573	-0.38
929.305	-2.38
930.036	0.62
930.768	1.62
931.499	0.62
932.23	-2.38
932.962	-0.38
933.693	0.62
934.424	1.62
935.155	-0.38
935.886	-0.38
936.617	-0.38
937.348	0.62
938.078	-1.38
938.809	0.62
939.54	-2.38
940.27	-1.38
941.001	1.62
941.731	0.62
942.461	-0.38
943.191	0.62
943.922	0.62
944.652	0.62
945.382	-0.38
946.112	-1.38
946.841	-0.38
947.571	-2.38
948.301	0.62
949.031	0.62
949.76	-0.38
950.49	0.62
951.219	1.62
951.948	-0.38
952.678	-2.38
953.407	-2.38
954.136	1.62
954.865	-1.38
955.594	-0.38
956.323	-0.38
957.052	-1.38
957.78	-1.38
958.509	0.62
959.238	-1.38
959.966	2.62
960.695	-2.38
961.423	-0.38
962.151	-2.38
962.88	0.62
963.608	-0.38
964.336	0.62
965.064	1.62
965.792	-1.38
966.52	0.62
967.247	-0.38
967.975	1.62
968.703	0.62
969.43	-0.38
970.158	1.62
970.885	-1.38
971.613	0.62
972.34	-1.38
973.067	-0.38
973.794	-2.38
974.521	-1.38
975.248	-0.38
975.975	-2.38
976.702	0.62
977.429	0.62
978.156	-0.38
978.882	-1.38
979.609	0.62
980.335	1.62
981.062	-2.38
981.788	1.62
982.514	-0.38
983.24	0.62
983.967	-0.38
984.693	-2.38
985.419	-0.38
986.144	-1.38
986.87	0.62
987.596	-1.38
988.322	-0.38
989.047	-0.38
989.773	-0.38
990.498	-1.38
991.224	-1.38
991.949	-0.38
992.674	-1.38
993.399	-0.38
994.124	0.62
994.849	0.62
995.574	1.62
996.299	0.62
997.024	-0.38
997.749	-1.38
998.473	-1.38
999.198	-0.38
999.922	-0.38
1000.647	2.62
1001.371	4.62
1002.095	-1.38
1002.82	-0.38
1003.544	-0.38
1004.268	1.62
1004.992	-1.38
1005.716	0.62
1006.439	-0.38
1007.163	-0.38
1007.887	2.62
1008.611	0.62
1009.334	-2.38
1010.058	-0.38
1010.781	0.62
1011.504	0.62
1012.228	-2.38
1012.951	0.62
1013.674	-0.38
1014.397	-0.38
1015.12	-2.38
