节点500_285_QEPB04081__67__14-56-40-350.txt的数据

Date: Wed Nov 12 14:56:40 CST 2025
User: PC
Spectrometer: QEPB0408
触发模式: 0
积分时间 (秒): 1.000000E-2
Scans to average: 1
启用暗噪声校正: true
启用非线性校正: false
滑动平均宽度: 0
X轴模式: Wavelengths
Number of Pixels in Spectrum: 1044
>>>>>Begin Spectral Data<<<<<
220.843	2.5
221.644	1.5
222.444	2.5
223.244	1.5
224.045	3.5
224.845	2.5
225.645	2.5
226.445	0.5
227.245	2.5
228.045	0.5
228.845	1.5
229.645	2.5
230.444	5.5
231.244	1.5
232.043	2.5
232.843	4.5
233.642	1.5
234.442	4.5
235.241	2.5
236.04	2.5
236.839	1.5
237.638	4.5
238.437	4.5
239.236	5.5
240.035	3.5
240.833	5.5
241.632	0.5
242.43	3.5
243.229	3.5
244.027	4.5
244.826	5.5
245.624	5.5
246.422	6.5
247.22	5.5
248.018	6.5
248.816	6.5
249.614	4.5
250.412	5.5
251.21	6.5
252.007	8.5
252.805	8.5
253.602	6.5
254.4	6.5
255.197	5.5
255.994	6.5
256.791	6.5
257.589	9.5
258.386	8.5
259.183	10.5
259.979	8.5
260.776	8.5
261.573	10.5
262.37	9.5
263.166	13.5
263.963	9.5
264.759	10.5
265.556	14.5
266.352	13.5
267.148	15.5
267.944	15.5
268.74	15.5
269.536	12.5
270.332	15.5
271.128	16.5
271.924	14.5
272.719	18.5
273.515	16.5
274.311	14.5
275.106	19.5
275.901	18.5
276.697	18.5
277.492	18.5
278.287	18.5
279.082	17.5
279.877	18.5
280.672	17.5
281.467	19.5
282.262	20.5
283.056	20.5
283.851	19.5
284.646	20.5
285.44	18.5
286.234	20.5
287.029	19.5
287.823	20.5
288.617	19.5
289.411	18.5
290.205	17.5
290.999	16.5
291.793	18.5
292.587	19.5
293.381	18.5
294.174	16.5
294.968	17.5
295.761	16.5
296.555	16.5
297.348	16.5
298.141	15.5
298.935	16.5
299.728	16.5
300.521	14.5
301.314	14.5
302.107	11.5
302.899	11.5
303.692	12.5
304.485	10.5
305.277	12.5
306.07	12.5
306.862	12.5
307.655	13.5
308.447	12.5
309.239	11.5
310.031	11.5
310.823	9.5
311.615	9.5
312.407	8.5
313.199	10.5
313.991	8.5
314.783	8.5
315.574	9.5
316.366	8.5
317.157	6.5
317.949	6.5
318.74	6.5
319.531	9.5
320.322	6.5
321.113	8.5
321.904	6.5
322.695	6.5
323.486	7.5
324.277	6.5
325.068	6.5
325.858	4.5
326.649	7.5
327.439	6.5
328.23	4.5
329.02	6.5
329.81	6.5
330.6	7.5
331.391	3.5
332.181	8.5
332.971	5.5
333.76	5.5
334.55	6.5
335.34	5.5
336.13	5.5
336.919	7.5
337.709	5.5
338.498	5.5
339.287	2.5
340.077	4.5
340.866	5.5
341.655	5.5
342.444	6.5
343.233	6.5
344.022	7.5
344.811	6.5
345.6	5.5
346.388	6.5
347.177	6.5
347.965	6.5
348.754	7.5
349.542	3.5
350.33	5.5
351.119	4.5
351.907	8.5
352.695	5.5
353.483	4.5
354.271	4.5
355.059	5.5
355.846	4.5
356.634	5.5
357.422	3.5
358.209	6.5
358.997	3.5
359.784	5.5
360.571	5.5
361.359	3.5
362.146	5.5
362.933	7.5
363.72	3.5
364.507	6.5
365.294	5.5
366.081	4.5
366.867	6.5
367.654	4.5
368.44	4.5
369.227	4.5
370.013	5.5
370.8	4.5
371.586	4.5
372.372	3.5
373.158	3.5
373.944	6.5
374.73	6.5
375.516	2.5
376.302	5.5
377.088	4.5
377.873	5.5
378.659	6.5
379.445	7.5
380.23	2.5
381.015	5.5
381.801	6.5
382.586	4.5
383.371	3.5
384.156	6.5
384.941	5.5
385.726	7.5
386.511	4.5
387.296	5.5
388.08	4.5
388.865	5.5
389.649	5.5
390.434	5.5
391.218	5.5
392.003	5.5
392.787	4.5
393.571	3.5
394.355	4.5
395.139	6.5
395.923	7.5
396.707	5.5
397.491	8.5
398.274	9.5
399.058	6.5
399.842	6.5
400.625	6.5
401.408	4.5
402.192	7.5
402.975	8.5
403.758	9.5
404.541	6.5
405.324	6.5
406.107	6.5
406.89	8.5
407.673	6.5
408.456	9.5
409.238	7.5
410.021	8.5
410.803	4.5
411.586	9.5
412.368	7.5
413.151	7.5
413.933	11.5
414.715	8.5
415.497	10.5
416.279	9.5
417.061	10.5
417.843	11.5
418.624	9.5
419.406	10.5
420.188	10.5
420.969	12.5
421.751	10.5
422.532	8.5
423.313	11.5
424.095	10.5
424.876	12.5
425.657	10.5
426.438	11.5
427.219	10.5
428	13.5
428.78	11.5
429.561	11.5
430.342	14.5
431.122	14.5
431.903	12.5
432.683	15.5
433.464	12.5
434.244	16.5
435.024	18.5
435.804	17.5
436.584	17.5
437.364	18.5
438.144	18.5
438.924	19.5
439.704	24.5
440.483	22.5
441.263	22.5
442.042	25.5
442.822	26.5
443.601	28.5
444.38	28.5
445.16	28.5
445.939	33.5
446.718	35.5
447.497	35.5
448.276	35.5
449.054	41.5
449.833	43.5
450.612	48.5
451.391	50.5
452.169	59.5
452.948	61.5
453.726	70.5
454.504	74.5
455.282	80.5
456.061	91.5
456.839	100.5
457.617	112.5
458.395	121.5
459.172	136.5
459.95	150.5
460.728	172.5
461.506	189.5
462.283	212.5
463.061	239.5
463.838	266.5
464.615	294.5
465.393	331.5
466.17	370.5
466.947	414.5
467.724	461.5
468.501	534.5
469.278	591.5
470.055	649.5
470.831	719.5
471.608	806.5
472.385	909.5
473.161	1002.5
473.938	1127.5
474.714	1250.5
475.49	1377.5
476.266	1554.5
477.043	1723.5
477.819	1900.5
478.595	2114.5
479.371	2349.5
480.146	2604.5
480.922	2877.5
481.698	3175.5
482.473	3538.5
483.249	3925.5
484.024	4288.5
484.8	4774.5
485.575	5262.5
486.35	5824.5
487.126	6391.5
487.901	7080.5
488.676	7814.5
489.451	8545.5
490.225	9415.5
491	10342.5
491.775	11370.5
492.55	12354.5
493.324	13455.5
494.099	14520.5
494.873	15682.5
495.647	17062.5
496.422	18229.5
497.196	19493.5
497.97	20841.5
498.744	22125.5
499.518	23278.5
500.292	24587.5
501.066	25644.5
501.839	26544.5
502.613	27436.5
503.387	28130.5
504.16	28552.5
504.934	28955.5
505.707	28832.5
506.48	28773.5
507.253	28517.5
508.027	28031.5
508.8	27470.5
509.573	26846.5
510.346	26097.5
511.118	25174.5
511.891	24265.5
512.664	23295.5
513.437	22286.5
514.209	21288.5
514.982	20366.5
515.754	19404.5
516.526	18580.5
517.298	17735.5
518.071	16900.5
518.843	16290.5
519.615	15652.5
520.387	15066.5
521.159	14464.5
521.93	13828.5
522.702	13314.5
523.474	12801.5
524.245	12180.5
525.017	11670.5
525.788	11192.5
526.56	10691.5
527.331	10224.5
528.102	9713.5
528.873	9253.5
529.644	8730.5
530.415	8341.5
531.186	7871.5
531.957	7449.5
532.728	7091.5
533.498	6659.5
534.269	6271.5
535.039	5919.5
535.81	5578.5
536.58	5274.5
537.351	4983.5
538.121	4665.5
538.891	4464.5
539.661	4192.5
540.431	3957.5
541.201	3740.5
541.971	3566.5
542.741	3375.5
543.51	3206.5
544.28	3038.5
545.05	2900.5
545.819	2776.5
546.588	2625.5
547.358	2497.5
548.127	2357.5
548.896	2251.5
549.665	2133.5
550.434	2018.5
551.203	1902.5
551.972	1813.5
552.741	1707.5
553.51	1615.5
554.278	1516.5
555.047	1420.5
555.815	1333.5
556.584	1276.5
557.352	1204.5
558.121	1115.5
558.889	1057.5
559.657	1000.5
560.425	935.5
561.193	895.5
561.961	846.5
562.729	797.5
563.496	749.5
564.264	711.5
565.032	680.5
565.799	632.5
566.567	610.5
567.334	573.5
568.101	542.5
568.869	510.5
569.636	480.5
570.403	459.5
571.17	414.5
571.937	400.5
572.704	371.5
573.471	357.5
574.237	338.5
575.004	319.5
575.771	303.5
576.537	274.5
577.303	268.5
578.07	254.5
578.836	235.5
579.602	212.5
580.368	210.5
581.134	198.5
581.9	186.5
582.666	172.5
583.432	169.5
584.198	159.5
584.964	152.5
585.729	140.5
586.495	135.5
587.26	126.5
588.025	124.5
588.791	117.5
589.556	110.5
590.321	108.5
591.086	98.5
591.851	94.5
592.616	87.5
593.381	84.5
594.146	84.5
594.911	77.5
595.675	73.5
596.44	68.5
597.204	66.5
597.969	63.5
598.733	60.5
599.497	61.5
600.261	58.5
601.025	52.5
601.79	50.5
602.553	48.5
603.317	50.5
604.081	44.5
604.845	45.5
605.609	38.5
606.372	38.5
607.136	38.5
607.899	39.5
608.662	35.5
609.426	32.5
610.189	32.5
610.952	30.5
611.715	28.5
612.478	31.5
613.241	26.5
614.004	25.5
614.767	26.5
615.529	23.5
616.292	23.5
617.055	22.5
617.817	20.5
618.579	20.5
619.342	21.5
620.104	20.5
620.866	19.5
621.628	20.5
622.39	19.5
623.152	17.5
623.914	18.5
624.676	16.5
625.438	14.5
626.199	16.5
626.961	14.5
627.722	17.5
628.484	14.5
629.245	12.5
630.006	11.5
630.768	13.5
631.529	12.5
632.29	12.5
633.051	10.5
633.812	12.5
634.573	8.5
635.333	9.5
636.094	10.5
636.855	9.5
637.615	10.5
638.376	9.5
639.136	8.5
639.896	10.5
640.657	9.5
641.417	5.5
642.177	6.5
642.937	5.5
643.697	8.5
644.457	7.5
645.216	7.5
645.976	7.5
646.736	8.5
647.495	6.5
648.255	7.5
649.014	6.5
649.774	7.5
650.533	7.5
651.292	7.5
652.051	5.5
652.81	6.5
653.569	5.5
654.328	5.5
655.087	6.5
655.846	8.5
656.604	6.5
657.363	5.5
658.121	6.5
658.88	7.5
659.638	7.5
660.397	3.5
661.155	6.5
661.913	6.5
662.671	5.5
663.429	4.5
664.187	5.5
664.945	6.5
665.703	4.5
666.46	2.5
667.218	6.5
667.976	5.5
668.733	5.5
669.49	5.5
670.248	4.5
671.005	4.5
671.762	2.5
672.519	4.5
673.276	3.5
674.033	4.5
674.79	4.5
675.547	4.5
676.304	4.5
677.06	4.5
677.817	1.5
678.574	2.5
679.33	3.5
680.086	3.5
680.843	5.5
681.599	4.5
682.355	2.5
683.111	2.5
683.867	4.5
684.623	3.5
685.379	4.5
686.135	3.5
686.89	4.5
687.646	1.5
688.402	3.5
689.157	3.5
689.912	3.5
690.668	5.5
691.423	4.5
692.178	4.5
692.933	4.5
693.688	4.5
694.443	2.5
695.198	4.5
695.953	2.5
696.708	2.5
697.462	2.5
698.217	3.5
698.972	2.5
699.726	4.5
700.48	4.5
701.235	2.5
701.989	6.5
702.743	2.5
703.497	3.5
704.251	2.5
705.005	5.5
705.759	2.5
706.513	3.5
707.266	2.5
708.02	2.5
708.774	2.5
709.527	1.5
710.28	3.5
711.034	3.5
711.787	2.5
712.54	1.5
713.293	1.5
714.046	3.5
714.799	1.5
715.552	3.5
716.305	2.5
717.058	1.5
717.81	3.5
718.563	4.5
719.315	3.5
720.068	5.5
720.82	4.5
721.573	4.5
722.325	4.5
723.077	1.5
723.829	3.5
724.581	3.5
725.333	2.5
726.085	1.5
726.836	4.5
727.588	2.5
728.34	3.5
729.091	6.5
729.843	4.5
730.594	6.5
731.346	2.5
732.097	2.5
732.848	4.5
733.599	4.5
734.35	6.5
735.101	5.5
735.852	3.5
736.603	4.5
737.354	5.5
738.104	4.5
738.855	2.5
739.605	5.5
740.356	4.5
741.106	4.5
741.856	4.5
742.607	5.5
743.357	4.5
744.107	3.5
744.857	5.5
745.607	5.5
746.357	2.5
747.106	5.5
747.856	4.5
748.606	4.5
749.355	4.5
750.105	4.5
750.854	5.5
751.603	3.5
752.353	5.5
753.102	4.5
753.851	5.5
754.6	4.5
755.349	8.5
756.098	5.5
756.847	5.5
757.595	4.5
758.344	6.5
759.093	6.5
759.841	5.5
760.589	4.5
761.338	6.5
762.086	6.5
762.834	4.5
763.582	6.5
764.331	6.5
765.079	6.5
765.826	5.5
766.574	7.5
767.322	5.5
768.07	5.5
768.817	7.5
769.565	5.5
770.312	8.5
771.06	4.5
771.807	7.5
772.554	6.5
773.302	7.5
774.049	9.5
774.796	7.5
775.543	6.5
776.29	8.5
777.036	9.5
777.783	9.5
778.53	10.5
779.276	7.5
780.023	7.5
780.769	8.5
781.516	7.5
782.262	8.5
783.008	10.5
783.754	8.5
784.5	10.5
785.246	8.5
785.992	9.5
786.738	9.5
787.484	7.5
788.23	10.5
788.975	9.5
789.721	10.5
790.466	8.5
791.212	9.5
791.957	9.5
792.702	6.5
793.447	9.5
794.193	7.5
794.938	7.5
795.683	7.5
796.427	6.5
797.172	8.5
797.917	6.5
798.662	8.5
799.406	6.5
800.151	7.5
800.895	8.5
801.64	6.5
802.384	8.5
803.128	7.5
803.872	7.5
804.616	7.5
805.36	6.5
806.104	4.5
806.848	4.5
807.592	6.5
808.336	5.5
809.079	5.5
809.823	7.5
810.566	4.5
811.31	2.5
812.053	3.5
812.796	4.5
813.539	6.5
814.283	6.5
815.026	6.5
815.769	4.5
816.511	5.5
817.254	4.5
817.997	3.5
818.74	5.5
819.482	0.5
820.225	2.5
820.967	4.5
821.71	5.5
822.452	4.5
823.194	1.5
823.936	3.5
824.678	1.5
825.42	3.5
826.162	3.5
826.904	2.5
827.646	2.5
828.388	3.5
829.129	3.5
829.871	0.5
830.612	2.5
831.354	2.5
832.095	4.5
832.836	2.5
833.577	4.5
834.319	3.5
835.06	4.5
835.801	3.5
836.542	4.5
837.282	1.5
838.023	2.5
838.764	4.5
839.504	2.5
840.245	1.5
840.985	4.5
841.726	2.5
842.466	0.5
843.206	4.5
843.946	1.5
844.687	2.5
845.427	1.5
846.166	3.5
846.906	3.5
847.646	4.5
848.386	0.5
849.125	2.5
849.865	1.5
850.605	1.5
851.344	0.5
852.083	1.5
852.823	2.5
853.562	2.5
854.301	2.5
855.04	1.5
855.779	2.5
856.518	-0.5
857.257	2.5
857.995	0.5
858.734	1.5
859.473	2.5
860.211	1.5
860.95	3.5
861.688	1.5
862.426	0.5
863.165	2.5
863.903	2.5
864.641	2.5
865.379	2.5
866.117	2.5
866.855	1.5
867.593	0.5
868.33	1.5
869.068	-0.5
869.806	2.5
870.543	0.5
871.28	-0.5
872.018	0.5
872.755	-0.5
873.492	-0.5
874.229	2.5
874.967	0.5
875.703	1.5
876.44	-0.5
877.177	-0.5
877.914	-0.5
878.651	2.5
879.387	0.5
880.124	3.5
880.86	-1.5
881.597	0.5
882.333	-0.5
883.069	1.5
883.806	-0.5
884.542	-0.5
885.278	0.5
886.014	0.5
886.749	-3.5
887.485	0.5
888.221	0.5
888.957	-1.5
889.692	0.5
890.428	-0.5
891.163	-0.5
891.899	-1.5
892.634	-0.5
893.369	0.5
894.104	-0.5
894.839	1.5
895.574	0.5
896.309	1.5
897.044	1.5
897.779	0.5
898.514	1.5
899.248	-1.5
899.983	2.5
900.717	-1.5
901.452	-1.5
902.186	0.5
902.92	-1.5
903.654	0.5
904.389	0.5
905.123	2.5
905.857	-0.5
906.59	-2.5
907.324	0.5
908.058	-1.5
908.792	0.5
909.525	-0.5
910.259	1.5
910.992	-0.5
911.726	0.5
912.459	-1.5
913.192	-0.5
913.925	-0.5
914.658	-1.5
915.391	0.5
916.124	2.5
916.857	0.5
917.59	1.5
918.323	0.5
919.055	0.5
919.788	-0.5
920.521	0.5
921.253	1.5
921.985	-0.5
922.718	-0.5
923.45	0.5
924.182	2.5
924.914	-0.5
925.646	-0.5
926.378	-1.5
927.11	-2.5
927.841	-0.5
928.573	-1.5
929.305	-0.5
930.036	0.5
930.768	-0.5
931.499	1.5
932.23	1.5
932.962	0.5
933.693	-0.5
934.424	-0.5
935.155	-1.5
935.886	-0.5
936.617	1.5
937.348	0.5
938.078	-0.5
938.809	0.5
939.54	-1.5
940.27	-0.5
941.001	0.5
941.731	-2.5
942.461	-1.5
943.191	-0.5
943.922	-1.5
944.652	1.5
945.382	-1.5
946.112	2.5
946.841	0.5
947.571	0.5
948.301	-3.5
949.031	0.5
949.76	-0.5
950.49	-1.5
951.219	0.5
951.948	-0.5
952.678	0.5
953.407	-2.5
954.136	-1.5
954.865	0.5
955.594	-1.5
956.323	0.5
957.052	-0.5
957.78	0.5
958.509	-1.5
959.238	-1.5
959.966	1.5
960.695	-0.5
961.423	-1.5
962.151	-1.5
962.88	-1.5
963.608	-0.5
964.336	-1.5
965.064	1.5
965.792	-0.5
966.52	-1.5
967.247	0.5
967.975	0.5
968.703	-1.5
969.43	0.5
970.158	0.5
970.885	1.5
971.613	-2.5
972.34	-0.5
973.067	-0.5
973.794	0.5
974.521	-1.5
975.248	-1.5
975.975	1.5
976.702	-0.5
977.429	-1.5
978.156	-0.5
978.882	-0.5
979.609	-1.5
980.335	0.5
981.062	1.5
981.788	-1.5
982.514	-0.5
983.24	0.5
983.967	-0.5
984.693	-0.5
985.419	-0.5
986.144	0.5
986.87	-0.5
987.596	-1.5
988.322	-1.5
989.047	-2.5
989.773	0.5
990.498	-1.5
991.224	0.5
991.949	0.5
992.674	0.5
993.399	0.5
994.124	0.5
994.849	-0.5
995.574	-0.5
996.299	-0.5
997.024	0.5
997.749	-0.5
998.473	-0.5
999.198	-0.5
999.922	1.5
1000.647	0.5
1001.371	4.5
1002.095	-1.5
1002.82	0.5
1003.544	-3.5
1004.268	0.5
1004.992	3.5
1005.716	0.5
1006.439	-0.5
1007.163	2.5
1007.887	0.5
1008.611	-0.5
1009.334	0.5
1010.058	-1.5
1010.781	-0.5
1011.504	0.5
1012.228	1.5
1012.951	-0.5
1013.674	0.5
1014.397	-0.5
1015.12	0.5
