节点500_285_QEPB04081__762__15-08-13-793.txt的数据

Date: Wed Nov 12 15:08:13 CST 2025
User: PC
Spectrometer: QEPB0408
触发模式: 0
积分时间 (秒): 1.000000E-2
Scans to average: 1
启用暗噪声校正: true
启用非线性校正: false
滑动平均宽度: 0
X轴模式: Wavelengths
Number of Pixels in Spectrum: 1044
>>>>>Begin Spectral Data<<<<<
220.843	-2.62
221.644	-0.62
222.444	1.38
223.244	1.38
224.045	2.38
224.845	-0.62
225.645	4.38
226.445	1.38
227.245	0.38
228.045	3.38
228.845	0.38
229.645	1.38
230.444	1.38
231.244	3.38
232.043	0.38
232.843	2.38
233.642	1.38
234.442	3.38
235.241	2.38
236.04	3.38
236.839	5.38
237.638	3.38
238.437	4.38
239.236	2.38
240.035	4.38
240.833	4.38
241.632	4.38
242.43	4.38
243.229	2.38
244.027	3.38
244.826	4.38
245.624	5.38
246.422	4.38
247.22	4.38
248.018	5.38
248.816	2.38
249.614	5.38
250.412	5.38
251.21	4.38
252.007	5.38
252.805	7.38
253.602	4.38
254.4	6.38
255.197	6.38
255.994	7.38
256.791	5.38
257.589	7.38
258.386	6.38
259.183	4.38
259.979	7.38
260.776	9.38
261.573	8.38
262.37	6.38
263.166	11.38
263.963	8.38
264.759	8.38
265.556	9.38
266.352	9.38
267.148	10.38
267.944	9.38
268.74	9.38
269.536	13.38
270.332	14.38
271.128	10.38
271.924	12.38
272.719	14.38
273.515	12.38
274.311	12.38
275.106	15.38
275.901	13.38
276.697	14.38
277.492	16.38
278.287	15.38
279.082	17.38
279.877	16.38
280.672	13.38
281.467	14.38
282.262	15.38
283.056	13.38
283.851	16.38
284.646	16.38
285.44	16.38
286.234	17.38
287.029	18.38
287.823	17.38
288.617	16.38
289.411	17.38
290.205	14.38
290.999	18.38
291.793	13.38
292.587	15.38
293.381	14.38
294.174	14.38
294.968	15.38
295.761	13.38
296.555	13.38
297.348	13.38
298.141	13.38
298.935	17.38
299.728	12.38
300.521	15.38
301.314	10.38
302.107	12.38
302.899	12.38
303.692	10.38
304.485	12.38
305.277	11.38
306.07	11.38
306.862	13.38
307.655	10.38
308.447	13.38
309.239	11.38
310.031	10.38
310.823	10.38
311.615	9.38
312.407	10.38
313.199	8.38
313.991	8.38
314.783	6.38
315.574	8.38
316.366	7.38
317.157	6.38
317.949	9.38
318.74	8.38
319.531	9.38
320.322	7.38
321.113	8.38
321.904	7.38
322.695	8.38
323.486	5.38
324.277	5.38
325.068	6.38
325.858	6.38
326.649	6.38
327.439	5.38
328.23	4.38
329.02	8.38
329.81	5.38
330.6	8.38
331.391	6.38
332.181	6.38
332.971	6.38
333.76	5.38
334.55	4.38
335.34	4.38
336.13	6.38
336.919	6.38
337.709	6.38
338.498	3.38
339.287	5.38
340.077	6.38
340.866	4.38
341.655	5.38
342.444	6.38
343.233	4.38
344.022	6.38
344.811	4.38
345.6	4.38
346.388	3.38
347.177	4.38
347.965	2.38
348.754	6.38
349.542	5.38
350.33	3.38
351.119	7.38
351.907	3.38
352.695	5.38
353.483	4.38
354.271	4.38
355.059	3.38
355.846	5.38
356.634	2.38
357.422	2.38
358.209	4.38
358.997	5.38
359.784	4.38
360.571	7.38
361.359	6.38
362.146	4.38
362.933	2.38
363.72	3.38
364.507	5.38
365.294	5.38
366.081	6.38
366.867	3.38
367.654	2.38
368.44	3.38
369.227	4.38
370.013	2.38
370.8	3.38
371.586	7.38
372.372	3.38
373.158	2.38
373.944	5.38
374.73	3.38
375.516	5.38
376.302	2.38
377.088	2.38
377.873	4.38
378.659	2.38
379.445	3.38
380.23	4.38
381.015	3.38
381.801	4.38
382.586	4.38
383.371	5.38
384.156	4.38
384.941	3.38
385.726	4.38
386.511	5.38
387.296	6.38
388.08	4.38
388.865	4.38
389.649	2.38
390.434	5.38
391.218	4.38
392.003	5.38
392.787	5.38
393.571	5.38
394.355	6.38
395.139	3.38
395.923	4.38
396.707	4.38
397.491	5.38
398.274	4.38
399.058	4.38
399.842	5.38
400.625	5.38
401.408	7.38
402.192	8.38
402.975	6.38
403.758	3.38
404.541	5.38
405.324	6.38
406.107	6.38
406.89	6.38
407.673	5.38
408.456	8.38
409.238	8.38
410.021	7.38
410.803	8.38
411.586	5.38
412.368	8.38
413.151	9.38
413.933	7.38
414.715	6.38
415.497	9.38
416.279	8.38
417.061	8.38
417.843	9.38
418.624	8.38
419.406	8.38
420.188	8.38
420.969	9.38
421.751	9.38
422.532	10.38
423.313	8.38
424.095	12.38
424.876	8.38
425.657	10.38
426.438	8.38
427.219	10.38
428	11.38
428.78	13.38
429.561	13.38
430.342	11.38
431.122	14.38
431.903	12.38
432.683	11.38
433.464	13.38
434.244	13.38
435.024	15.38
435.804	17.38
436.584	20.38
437.364	17.38
438.144	19.38
438.924	23.38
439.704	21.38
440.483	23.38
441.263	22.38
442.042	26.38
442.822	25.38
443.601	26.38
444.38	32.38
445.16	32.38
445.939	33.38
446.718	35.38
447.497	39.38
448.276	42.38
449.054	47.38
449.833	52.38
450.612	53.38
451.391	61.38
452.169	67.38
452.948	80.38
453.726	81.38
454.504	92.38
455.282	100.38
456.061	104.38
456.839	121.38
457.617	138.38
458.395	155.38
459.172	169.38
459.95	187.38
460.728	203.38
461.506	229.38
462.283	257.38
463.061	282.38
463.838	320.38
464.615	357.38
465.393	393.38
466.17	427.38
466.947	485.38
467.724	540.38
468.501	609.38
469.278	660.38
470.055	741.38
470.831	812.38
471.608	912.38
472.385	994.38
473.161	1098.38
473.938	1221.38
474.714	1327.38
475.49	1479.38
476.266	1600.38
477.043	1775.38
477.819	1940.38
478.595	2118.38
479.371	2325.38
480.146	2549.38
480.922	2808.38
481.698	3068.38
482.473	3342.38
483.249	3648.38
484.024	3999.38
484.8	4347.38
485.575	4736.38
486.35	5189.38
487.126	5624.38
487.901	6151.38
488.676	6677.38
489.451	7292.38
490.225	7895.38
491	8559.38
491.775	9304.38
492.55	10140.38
493.324	10911.38
494.099	11683.38
494.873	12588.38
495.647	13546.38
496.422	14531.38
497.196	15506.38
497.97	16529.38
498.744	17600.38
499.518	18637.38
500.292	19632.38
501.066	20692.38
501.839	21588.38
502.613	22451.38
503.387	23379.38
504.16	24047.38
504.934	24532.38
505.707	24845.38
506.48	25144.38
507.253	25202.38
508.027	25258.38
508.8	25209.38
509.573	25000.38
510.346	24663.38
511.118	24198.38
511.891	23610.38
512.664	22976.38
513.437	22271.38
514.209	21441.38
514.982	20735.38
515.754	19889.38
516.526	19076.38
517.298	18252.38
518.071	17575.38
518.843	16924.38
519.615	16242.38
520.387	15638.38
521.159	15051.38
521.93	14392.38
522.702	13829.38
523.474	13323.38
524.245	12748.38
525.017	12193.38
525.788	11737.38
526.56	11237.38
527.331	10723.38
528.102	10282.38
528.873	9832.38
529.644	9345.38
530.415	8944.38
531.186	8500.38
531.957	8095.38
532.728	7695.38
533.498	7291.38
534.269	6913.38
535.039	6573.38
535.81	6225.38
536.58	5887.38
537.351	5520.38
538.121	5236.38
538.891	4982.38
539.661	4714.38
540.431	4455.38
541.201	4206.38
541.971	3975.38
542.741	3789.38
543.51	3596.38
544.28	3426.38
545.05	3234.38
545.819	3081.38
546.588	2938.38
547.358	2795.38
548.127	2648.38
548.896	2523.38
549.665	2391.38
550.434	2266.38
551.203	2128.38
551.972	2038.38
552.741	1938.38
553.51	1827.38
554.278	1734.38
555.047	1639.38
555.815	1546.38
556.584	1454.38
557.352	1381.38
558.121	1314.38
558.889	1229.38
559.657	1162.38
560.425	1102.38
561.193	1033.38
561.961	974.38
562.729	915.38
563.496	882.38
564.264	830.38
565.032	773.38
565.799	732.38
566.567	700.38
567.334	656.38
568.101	622.38
568.869	591.38
569.636	550.38
570.403	521.38
571.17	500.38
571.937	466.38
572.704	435.38
573.471	417.38
574.237	385.38
575.004	363.38
575.771	343.38
576.537	328.38
577.303	304.38
578.07	289.38
578.836	268.38
579.602	252.38
580.368	240.38
581.134	230.38
581.9	217.38
582.666	203.38
583.432	195.38
584.198	184.38
584.964	171.38
585.729	165.38
586.495	161.38
587.26	152.38
588.025	138.38
588.791	133.38
589.556	128.38
590.321	118.38
591.086	110.38
591.851	114.38
592.616	98.38
593.381	97.38
594.146	93.38
594.911	90.38
595.675	86.38
596.44	86.38
597.204	77.38
597.969	75.38
598.733	67.38
599.497	65.38
600.261	66.38
601.025	60.38
601.79	58.38
602.553	53.38
603.317	52.38
604.081	47.38
604.845	47.38
605.609	42.38
606.372	46.38
607.136	43.38
607.899	39.38
608.662	41.38
609.426	39.38
610.189	37.38
610.952	38.38
611.715	31.38
612.478	34.38
613.241	29.38
614.004	31.38
614.767	27.38
615.529	26.38
616.292	24.38
617.055	26.38
617.817	24.38
618.579	25.38
619.342	21.38
620.104	23.38
620.866	20.38
621.628	19.38
622.39	20.38
623.152	16.38
623.914	17.38
624.676	18.38
625.438	15.38
626.199	13.38
626.961	16.38
627.722	13.38
628.484	16.38
629.245	15.38
630.006	13.38
630.768	13.38
631.529	16.38
632.29	13.38
633.051	11.38
633.812	11.38
634.573	12.38
635.333	11.38
636.094	9.38
636.855	11.38
637.615	10.38
638.376	8.38
639.136	9.38
639.896	7.38
640.657	10.38
641.417	11.38
642.177	8.38
642.937	10.38
643.697	9.38
644.457	9.38
645.216	8.38
645.976	8.38
646.736	10.38
647.495	6.38
648.255	5.38
649.014	5.38
649.774	7.38
650.533	7.38
651.292	7.38
652.051	6.38
652.81	5.38
653.569	8.38
654.328	6.38
655.087	5.38
655.846	5.38
656.604	6.38
657.363	5.38
658.121	5.38
658.88	6.38
659.638	4.38
660.397	5.38
661.155	3.38
661.913	5.38
662.671	5.38
663.429	2.38
664.187	2.38
664.945	4.38
665.703	4.38
666.46	3.38
667.218	5.38
667.976	7.38
668.733	4.38
669.49	3.38
670.248	2.38
671.005	4.38
671.762	4.38
672.519	3.38
673.276	4.38
674.033	4.38
674.79	2.38
675.547	3.38
676.304	2.38
677.06	3.38
677.817	2.38
678.574	3.38
679.33	4.38
680.086	3.38
680.843	0.38
681.599	2.38
682.355	4.38
683.111	4.38
683.867	1.38
684.623	3.38
685.379	2.38
686.135	4.38
686.89	3.38
687.646	3.38
688.402	1.38
689.157	5.38
689.912	2.38
690.668	2.38
691.423	3.38
692.178	2.38
692.933	3.38
693.688	2.38
694.443	3.38
695.198	2.38
695.953	3.38
696.708	1.38
697.462	2.38
698.217	3.38
698.972	2.38
699.726	1.38
700.48	1.38
701.235	2.38
701.989	0.38
702.743	2.38
703.497	3.38
704.251	1.38
705.005	1.38
705.759	0.38
706.513	4.38
707.266	3.38
708.02	2.38
708.774	3.38
709.527	1.38
710.28	3.38
711.034	3.38
711.787	4.38
712.54	3.38
713.293	2.38
714.046	1.38
714.799	3.38
715.552	2.38
716.305	5.38
717.058	3.38
717.81	3.38
718.563	1.38
719.315	5.38
720.068	2.38
720.82	4.38
721.573	2.38
722.325	2.38
723.077	2.38
723.829	2.38
724.581	1.38
725.333	4.38
726.085	4.38
726.836	2.38
727.588	4.38
728.34	5.38
729.091	1.38
729.843	4.38
730.594	4.38
731.346	2.38
732.097	4.38
732.848	3.38
733.599	3.38
734.35	3.38
735.101	2.38
735.852	1.38
736.603	1.38
737.354	1.38
738.104	4.38
738.855	2.38
739.605	4.38
740.356	4.38
741.106	2.38
741.856	4.38
742.607	3.38
743.357	3.38
744.107	3.38
744.857	5.38
745.607	2.38
746.357	4.38
747.106	2.38
747.856	3.38
748.606	6.38
749.355	4.38
750.105	7.38
750.854	2.38
751.603	2.38
752.353	2.38
753.102	5.38
753.851	3.38
754.6	3.38
755.349	5.38
756.098	4.38
756.847	6.38
757.595	5.38
758.344	6.38
759.093	2.38
759.841	6.38
760.589	2.38
761.338	3.38
762.086	6.38
762.834	4.38
763.582	5.38
764.331	7.38
765.079	3.38
765.826	5.38
766.574	5.38
767.322	7.38
768.07	5.38
768.817	5.38
769.565	8.38
770.312	7.38
771.06	9.38
771.807	6.38
772.554	5.38
773.302	5.38
774.049	6.38
774.796	7.38
775.543	4.38
776.29	6.38
777.036	8.38
777.783	7.38
778.53	6.38
779.276	5.38
780.023	7.38
780.769	8.38
781.516	7.38
782.262	6.38
783.008	7.38
783.754	7.38
784.5	5.38
785.246	8.38
785.992	6.38
786.738	8.38
787.484	7.38
788.23	9.38
788.975	6.38
789.721	5.38
790.466	5.38
791.212	6.38
791.957	9.38
792.702	9.38
793.447	8.38
794.193	6.38
794.938	7.38
795.683	8.38
796.427	6.38
797.172	6.38
797.917	5.38
798.662	7.38
799.406	6.38
800.151	4.38
800.895	6.38
801.64	6.38
802.384	3.38
803.128	7.38
803.872	3.38
804.616	7.38
805.36	6.38
806.104	6.38
806.848	5.38
807.592	4.38
808.336	4.38
809.079	3.38
809.823	6.38
810.566	5.38
811.31	3.38
812.053	4.38
812.796	4.38
813.539	4.38
814.283	2.38
815.026	4.38
815.769	5.38
816.511	2.38
817.254	3.38
817.997	3.38
818.74	3.38
819.482	1.38
820.225	3.38
820.967	4.38
821.71	3.38
822.452	3.38
823.194	1.38
823.936	5.38
824.678	2.38
825.42	1.38
826.162	3.38
826.904	4.38
827.646	3.38
828.388	2.38
829.129	3.38
829.871	5.38
830.612	2.38
831.354	4.38
832.095	1.38
832.836	3.38
833.577	1.38
834.319	3.38
835.06	2.38
835.801	4.38
836.542	3.38
837.282	2.38
838.023	4.38
838.764	3.38
839.504	4.38
840.245	3.38
840.985	0.38
841.726	3.38
842.466	3.38
843.206	3.38
843.946	1.38
844.687	3.38
845.427	2.38
846.166	1.38
846.906	4.38
847.646	3.38
848.386	1.38
849.125	2.38
849.865	1.38
850.605	3.38
851.344	0.38
852.083	0.38
852.823	1.38
853.562	2.38
854.301	1.38
855.04	0.38
855.779	2.38
856.518	-0.62
857.257	4.38
857.995	2.38
858.734	2.38
859.473	1.38
860.211	1.38
860.95	3.38
861.688	1.38
862.426	2.38
863.165	2.38
863.903	2.38
864.641	1.38
865.379	1.38
866.117	1.38
866.855	0.38
867.593	1.38
868.33	1.38
869.068	-0.62
869.806	0.38
870.543	1.38
871.28	1.38
872.018	-1.62
872.755	1.38
873.492	0.38
874.229	1.38
874.967	-0.62
875.703	1.38
876.44	1.38
877.177	-1.62
877.914	2.38
878.651	0.38
879.387	2.38
880.124	1.38
880.86	-0.62
881.597	-1.62
882.333	0.38
883.069	-0.62
883.806	-0.62
884.542	1.38
885.278	1.38
886.014	-2.62
886.749	-0.62
887.485	0.38
888.221	1.38
888.957	0.38
889.692	-2.62
890.428	1.38
891.163	0.38
891.899	3.38
892.634	-0.62
893.369	2.38
894.104	-2.62
894.839	1.38
895.574	-1.62
896.309	1.38
897.044	-1.62
897.779	0.38
898.514	2.38
899.248	-0.62
899.983	-0.62
900.717	2.38
901.452	-0.62
902.186	0.38
902.92	-0.62
903.654	-0.62
904.389	-1.62
905.123	-0.62
905.857	1.38
906.59	3.38
907.324	0.38
908.058	1.38
908.792	0.38
909.525	0.38
910.259	1.38
910.992	0.38
911.726	0.38
912.459	-0.62
913.192	1.38
913.925	-2.62
914.658	-2.62
915.391	0.38
916.124	1.38
916.857	-2.62
917.59	0.38
918.323	-0.62
919.055	-0.62
919.788	1.38
920.521	-1.62
921.253	-0.62
921.985	0.38
922.718	-0.62
923.45	0.38
924.182	1.38
924.914	-1.62
925.646	-0.62
926.378	-0.62
927.11	0.38
927.841	-2.62
928.573	-1.62
929.305	-1.62
930.036	0.38
930.768	0.38
931.499	0.38
932.23	0.38
932.962	0.38
933.693	-0.62
934.424	0.38
935.155	1.38
935.886	-0.62
936.617	-0.62
937.348	-0.62
938.078	-0.62
938.809	2.38
939.54	-0.62
940.27	-3.62
941.001	-0.62
941.731	-0.62
942.461	-0.62
943.191	-0.62
943.922	-0.62
944.652	-1.62
945.382	-2.62
946.112	-0.62
946.841	0.38
947.571	-0.62
948.301	-2.62
949.031	0.38
949.76	-3.62
950.49	-0.62
951.219	0.38
951.948	-1.62
952.678	0.38
953.407	0.38
954.136	0.38
954.865	-0.62
955.594	0.38
956.323	-1.62
957.052	-1.62
957.78	0.38
958.509	-0.62
959.238	1.38
959.966	-0.62
960.695	-0.62
961.423	0.38
962.151	-2.62
962.88	2.38
963.608	1.38
964.336	-0.62
965.064	0.38
965.792	-3.62
966.52	0.38
967.247	-1.62
967.975	-0.62
968.703	-0.62
969.43	-1.62
970.158	0.38
970.885	-1.62
971.613	-1.62
972.34	1.38
973.067	0.38
973.794	0.38
974.521	-0.62
975.248	-2.62
975.975	-1.62
976.702	0.38
977.429	-2.62
978.156	0.38
978.882	-0.62
979.609	-0.62
980.335	0.38
981.062	1.38
981.788	0.38
982.514	-0.62
983.24	0.38
983.967	1.38
984.693	-3.62
985.419	1.38
986.144	-0.62
986.87	1.38
987.596	-2.62
988.322	0.38
989.047	0.38
989.773	0.38
990.498	-0.62
991.224	-1.62
991.949	0.38
992.674	-0.62
993.399	0.38
994.124	1.38
994.849	-1.62
995.574	-0.62
996.299	2.38
997.024	-1.62
997.749	-2.62
998.473	-0.62
999.198	1.38
999.922	-0.62
1000.647	0.38
1001.371	4.38
1002.095	1.38
1002.82	-3.62
1003.544	-3.62
1004.268	1.38
1004.992	-0.62
1005.716	1.38
1006.439	1.38
1007.163	3.38
1007.887	0.38
1008.611	-0.62
1009.334	-0.62
1010.058	0.38
1010.781	-1.62
1011.504	-0.62
1012.228	0.38
1012.951	1.38
1013.674	0.38
1014.397	-0.62
1015.12	0.38
