节点500_285_QEPB04081__103__14-57-16-293.txt的数据

Date: Wed Nov 12 14:57:16 CST 2025
User: PC
Spectrometer: QEPB0408
触发模式: 0
积分时间 (秒): 1.000000E-2
Scans to average: 1
启用暗噪声校正: true
启用非线性校正: false
滑动平均宽度: 0
X轴模式: Wavelengths
Number of Pixels in Spectrum: 1044
>>>>>Begin Spectral Data<<<<<
220.843	1.88
221.644	1.88
222.444	-0.12
223.244	0.88
224.045	2.88
224.845	0.88
225.645	2.88
226.445	1.88
227.245	2.88
228.045	1.88
228.845	2.88
229.645	2.88
230.444	-0.12
231.244	2.88
232.043	-1.12
232.843	3.88
233.642	2.88
234.442	3.88
235.241	2.88
236.04	3.88
236.839	2.88
237.638	4.88
238.437	4.88
239.236	3.88
240.035	3.88
240.833	3.88
241.632	2.88
242.43	6.88
243.229	4.88
244.027	6.88
244.826	5.88
245.624	4.88
246.422	4.88
247.22	5.88
248.018	4.88
248.816	7.88
249.614	5.88
250.412	6.88
251.21	4.88
252.007	8.88
252.805	6.88
253.602	5.88
254.4	7.88
255.197	6.88
255.994	7.88
256.791	5.88
257.589	9.88
258.386	9.88
259.183	10.88
259.979	6.88
260.776	8.88
261.573	8.88
262.37	10.88
263.166	12.88
263.963	8.88
264.759	10.88
265.556	12.88
266.352	12.88
267.148	13.88
267.944	11.88
268.74	13.88
269.536	13.88
270.332	14.88
271.128	17.88
271.924	16.88
272.719	16.88
273.515	19.88
274.311	16.88
275.106	16.88
275.901	18.88
276.697	20.88
277.492	20.88
278.287	18.88
279.082	18.88
279.877	16.88
280.672	18.88
281.467	17.88
282.262	17.88
283.056	21.88
283.851	18.88
284.646	20.88
285.44	18.88
286.234	20.88
287.029	18.88
287.823	15.88
288.617	16.88
289.411	16.88
290.205	16.88
290.999	14.88
291.793	20.88
292.587	19.88
293.381	16.88
294.174	17.88
294.968	13.88
295.761	17.88
296.555	14.88
297.348	13.88
298.141	12.88
298.935	14.88
299.728	13.88
300.521	16.88
301.314	14.88
302.107	14.88
302.899	8.88
303.692	13.88
304.485	9.88
305.277	10.88
306.07	13.88
306.862	11.88
307.655	9.88
308.447	10.88
309.239	12.88
310.031	11.88
310.823	11.88
311.615	9.88
312.407	10.88
313.199	10.88
313.991	8.88
314.783	11.88
315.574	7.88
316.366	8.88
317.157	7.88
317.949	6.88
318.74	8.88
319.531	7.88
320.322	8.88
321.113	7.88
321.904	5.88
322.695	8.88
323.486	5.88
324.277	9.88
325.068	6.88
325.858	8.88
326.649	6.88
327.439	5.88
328.23	5.88
329.02	4.88
329.81	5.88
330.6	4.88
331.391	3.88
332.181	6.88
332.971	6.88
333.76	6.88
334.55	4.88
335.34	6.88
336.13	9.88
336.919	4.88
337.709	7.88
338.498	5.88
339.287	6.88
340.077	4.88
340.866	4.88
341.655	5.88
342.444	6.88
343.233	6.88
344.022	4.88
344.811	5.88
345.6	4.88
346.388	5.88
347.177	6.88
347.965	4.88
348.754	7.88
349.542	5.88
350.33	6.88
351.119	4.88
351.907	5.88
352.695	5.88
353.483	6.88
354.271	6.88
355.059	5.88
355.846	4.88
356.634	5.88
357.422	4.88
358.209	4.88
358.997	4.88
359.784	4.88
360.571	7.88
361.359	3.88
362.146	3.88
362.933	7.88
363.72	6.88
364.507	7.88
365.294	2.88
366.081	2.88
366.867	1.88
367.654	5.88
368.44	5.88
369.227	3.88
370.013	4.88
370.8	1.88
371.586	6.88
372.372	5.88
373.158	4.88
373.944	3.88
374.73	5.88
375.516	5.88
376.302	4.88
377.088	4.88
377.873	4.88
378.659	2.88
379.445	3.88
380.23	2.88
381.015	3.88
381.801	2.88
382.586	3.88
383.371	2.88
384.156	4.88
384.941	5.88
385.726	4.88
386.511	6.88
387.296	3.88
388.08	5.88
388.865	2.88
389.649	6.88
390.434	4.88
391.218	5.88
392.003	7.88
392.787	5.88
393.571	7.88
394.355	6.88
395.139	5.88
395.923	6.88
396.707	6.88
397.491	5.88
398.274	7.88
399.058	5.88
399.842	6.88
400.625	5.88
401.408	6.88
402.192	8.88
402.975	8.88
403.758	5.88
404.541	6.88
405.324	6.88
406.107	8.88
406.89	6.88
407.673	7.88
408.456	6.88
409.238	7.88
410.021	7.88
410.803	7.88
411.586	8.88
412.368	8.88
413.151	6.88
413.933	6.88
414.715	10.88
415.497	7.88
416.279	10.88
417.061	9.88
417.843	8.88
418.624	12.88
419.406	7.88
420.188	8.88
420.969	10.88
421.751	8.88
422.532	9.88
423.313	8.88
424.095	10.88
424.876	10.88
425.657	10.88
426.438	12.88
427.219	12.88
428	13.88
428.78	12.88
429.561	14.88
430.342	14.88
431.122	13.88
431.903	12.88
432.683	18.88
433.464	16.88
434.244	16.88
435.024	16.88
435.804	15.88
436.584	16.88
437.364	21.88
438.144	19.88
438.924	20.88
439.704	20.88
440.483	21.88
441.263	23.88
442.042	26.88
442.822	25.88
443.601	27.88
444.38	30.88
445.16	30.88
445.939	30.88
446.718	31.88
447.497	34.88
448.276	39.88
449.054	42.88
449.833	44.88
450.612	48.88
451.391	50.88
452.169	58.88
452.948	66.88
453.726	68.88
454.504	78.88
455.282	84.88
456.061	91.88
456.839	100.88
457.617	116.88
458.395	119.88
459.172	136.88
459.95	158.88
460.728	171.88
461.506	193.88
462.283	218.88
463.061	241.88
463.838	266.88
464.615	304.88
465.393	344.88
466.17	374.88
466.947	421.88
467.724	470.88
468.501	529.88
469.278	600.88
470.055	664.88
470.831	730.88
471.608	812.88
472.385	916.88
473.161	1008.88
473.938	1128.88
474.714	1258.88
475.49	1412.88
476.266	1558.88
477.043	1713.88
477.819	1906.88
478.595	2101.88
479.371	2351.88
480.146	2588.88
480.922	2869.88
481.698	3172.88
482.473	3516.88
483.249	3898.88
484.024	4312.88
484.8	4747.88
485.575	5265.88
486.35	5784.88
487.126	6391.88
487.901	6998.88
488.676	7748.88
489.451	8486.88
490.225	9346.88
491	10228.88
491.775	11196.88
492.55	12201.88
493.324	13233.88
494.099	14351.88
494.873	15461.88
495.647	16699.88
496.422	17970.88
497.196	19247.88
497.97	20463.88
498.744	21790.88
499.518	23041.88
500.292	24197.88
501.066	25275.88
501.839	26225.88
502.613	27102.88
503.387	27822.88
504.16	28370.88
504.934	28531.88
505.707	28596.88
506.48	28525.88
507.253	28340.88
508.027	27963.88
508.8	27443.88
509.573	26827.88
510.346	26035.88
511.118	25146.88
511.891	24239.88
512.664	23302.88
513.437	22339.88
514.209	21353.88
514.982	20418.88
515.754	19492.88
516.526	18629.88
517.298	17753.88
518.071	17015.88
518.843	16369.88
519.615	15713.88
520.387	15089.88
521.159	14477.88
521.93	13898.88
522.702	13363.88
523.474	12831.88
524.245	12262.88
525.017	11687.88
525.788	11285.88
526.56	10741.88
527.331	10217.88
528.102	9759.88
528.873	9280.88
529.644	8781.88
530.415	8377.88
531.186	7899.88
531.957	7492.88
532.728	7096.88
533.498	6714.88
534.269	6347.88
535.039	5976.88
535.81	5667.88
536.58	5340.88
537.351	5010.88
538.121	4762.88
538.891	4489.88
539.661	4218.88
540.431	4021.88
541.201	3802.88
541.971	3581.88
542.741	3389.88
543.51	3230.88
544.28	3103.88
545.05	2922.88
545.819	2775.88
546.588	2648.88
547.358	2503.88
548.127	2376.88
548.896	2259.88
549.665	2149.88
550.434	2016.88
551.203	1929.88
551.972	1808.88
552.741	1713.88
553.51	1600.88
554.278	1525.88
555.047	1440.88
555.815	1350.88
556.584	1286.88
557.352	1208.88
558.121	1147.88
558.889	1070.88
559.657	1017.88
560.425	962.88
561.193	902.88
561.961	859.88
562.729	804.88
563.496	759.88
564.264	722.88
565.032	679.88
565.799	647.88
566.567	614.88
567.334	581.88
568.101	542.88
568.869	512.88
569.636	477.88
570.403	447.88
571.17	420.88
571.937	404.88
572.704	387.88
573.471	366.88
574.237	332.88
575.004	325.88
575.771	299.88
576.537	281.88
577.303	266.88
578.07	250.88
578.836	238.88
579.602	224.88
580.368	208.88
581.134	201.88
581.9	191.88
582.666	182.88
583.432	171.88
584.198	157.88
584.964	149.88
585.729	147.88
586.495	142.88
587.26	133.88
588.025	123.88
588.791	114.88
589.556	115.88
590.321	105.88
591.086	101.88
591.851	92.88
592.616	87.88
593.381	84.88
594.146	81.88
594.911	78.88
595.675	71.88
596.44	75.88
597.204	65.88
597.969	67.88
598.733	66.88
599.497	58.88
600.261	55.88
601.025	52.88
601.79	50.88
602.553	50.88
603.317	45.88
604.081	47.88
604.845	43.88
605.609	40.88
606.372	40.88
607.136	39.88
607.899	38.88
608.662	37.88
609.426	31.88
610.189	34.88
610.952	31.88
611.715	29.88
612.478	27.88
613.241	27.88
614.004	24.88
614.767	24.88
615.529	24.88
616.292	24.88
617.055	25.88
617.817	20.88
618.579	18.88
619.342	20.88
620.104	21.88
620.866	20.88
621.628	17.88
622.39	18.88
623.152	18.88
623.914	19.88
624.676	18.88
625.438	15.88
626.199	13.88
626.961	12.88
627.722	14.88
628.484	16.88
629.245	12.88
630.006	13.88
630.768	10.88
631.529	15.88
632.29	12.88
633.051	11.88
633.812	10.88
634.573	10.88
635.333	11.88
636.094	10.88
636.855	8.88
637.615	8.88
638.376	6.88
639.136	8.88
639.896	8.88
640.657	8.88
641.417	8.88
642.177	8.88
642.937	8.88
643.697	7.88
644.457	8.88
645.216	9.88
645.976	8.88
646.736	6.88
647.495	6.88
648.255	6.88
649.014	6.88
649.774	6.88
650.533	7.88
651.292	6.88
652.051	4.88
652.81	3.88
653.569	8.88
654.328	3.88
655.087	7.88
655.846	7.88
656.604	2.88
657.363	6.88
658.121	4.88
658.88	7.88
659.638	3.88
660.397	6.88
661.155	4.88
661.913	5.88
662.671	5.88
663.429	4.88
664.187	4.88
664.945	7.88
665.703	5.88
666.46	2.88
667.218	3.88
667.976	4.88
668.733	5.88
669.49	5.88
670.248	0.88
671.005	3.88
671.762	3.88
672.519	4.88
673.276	5.88
674.033	4.88
674.79	2.88
675.547	4.88
676.304	4.88
677.06	4.88
677.817	3.88
678.574	4.88
679.33	5.88
680.086	2.88
680.843	3.88
681.599	2.88
682.355	6.88
683.111	4.88
683.867	1.88
684.623	1.88
685.379	3.88
686.135	4.88
686.89	3.88
687.646	3.88
688.402	2.88
689.157	5.88
689.912	5.88
690.668	1.88
691.423	0.88
692.178	3.88
692.933	1.88
693.688	2.88
694.443	5.88
695.198	1.88
695.953	4.88
696.708	4.88
697.462	2.88
698.217	4.88
698.972	3.88
699.726	2.88
700.48	4.88
701.235	2.88
701.989	1.88
702.743	4.88
703.497	3.88
704.251	3.88
705.005	1.88
705.759	2.88
706.513	3.88
707.266	2.88
708.02	5.88
708.774	1.88
709.527	4.88
710.28	2.88
711.034	1.88
711.787	2.88
712.54	3.88
713.293	2.88
714.046	2.88
714.799	2.88
715.552	1.88
716.305	1.88
717.058	2.88
717.81	0.88
718.563	1.88
719.315	5.88
720.068	1.88
720.82	3.88
721.573	3.88
722.325	3.88
723.077	4.88
723.829	3.88
724.581	2.88
725.333	4.88
726.085	4.88
726.836	1.88
727.588	2.88
728.34	4.88
729.091	3.88
729.843	3.88
730.594	2.88
731.346	3.88
732.097	1.88
732.848	3.88
733.599	4.88
734.35	2.88
735.101	2.88
735.852	-0.12
736.603	3.88
737.354	4.88
738.104	1.88
738.855	5.88
739.605	3.88
740.356	4.88
741.106	3.88
741.856	4.88
742.607	1.88
743.357	2.88
744.107	3.88
744.857	1.88
745.607	4.88
746.357	2.88
747.106	1.88
747.856	4.88
748.606	2.88
749.355	6.88
750.105	4.88
750.854	7.88
751.603	4.88
752.353	5.88
753.102	6.88
753.851	4.88
754.6	5.88
755.349	6.88
756.098	5.88
756.847	6.88
757.595	5.88
758.344	4.88
759.093	7.88
759.841	7.88
760.589	6.88
761.338	7.88
762.086	8.88
762.834	4.88
763.582	7.88
764.331	7.88
765.079	3.88
765.826	7.88
766.574	2.88
767.322	6.88
768.07	9.88
768.817	6.88
769.565	5.88
770.312	6.88
771.06	5.88
771.807	5.88
772.554	6.88
773.302	8.88
774.049	9.88
774.796	6.88
775.543	5.88
776.29	7.88
777.036	8.88
777.783	9.88
778.53	10.88
779.276	6.88
780.023	8.88
780.769	7.88
781.516	10.88
782.262	8.88
783.008	8.88
783.754	10.88
784.5	8.88
785.246	9.88
785.992	8.88
786.738	9.88
787.484	6.88
788.23	9.88
788.975	8.88
789.721	7.88
790.466	8.88
791.212	8.88
791.957	7.88
792.702	7.88
793.447	9.88
794.193	9.88
794.938	7.88
795.683	6.88
796.427	4.88
797.172	6.88
797.917	6.88
798.662	6.88
799.406	5.88
800.151	5.88
800.895	6.88
801.64	6.88
802.384	5.88
803.128	6.88
803.872	4.88
804.616	5.88
805.36	5.88
806.104	6.88
806.848	4.88
807.592	7.88
808.336	6.88
809.079	4.88
809.823	2.88
810.566	3.88
811.31	3.88
812.053	6.88
812.796	5.88
813.539	5.88
814.283	3.88
815.026	6.88
815.769	2.88
816.511	5.88
817.254	5.88
817.997	5.88
818.74	1.88
819.482	4.88
820.225	3.88
820.967	5.88
821.71	3.88
822.452	4.88
823.194	3.88
823.936	2.88
824.678	3.88
825.42	2.88
826.162	3.88
826.904	2.88
827.646	2.88
828.388	3.88
829.129	2.88
829.871	1.88
830.612	3.88
831.354	4.88
832.095	2.88
832.836	3.88
833.577	2.88
834.319	1.88
835.06	0.88
835.801	2.88
836.542	1.88
837.282	3.88
838.023	2.88
838.764	5.88
839.504	0.88
840.245	2.88
840.985	0.88
841.726	3.88
842.466	3.88
843.206	2.88
843.946	5.88
844.687	3.88
845.427	0.88
846.166	2.88
846.906	3.88
847.646	3.88
848.386	2.88
849.125	1.88
849.865	2.88
850.605	1.88
851.344	2.88
852.083	2.88
852.823	2.88
853.562	2.88
854.301	-0.12
855.04	1.88
855.779	1.88
856.518	1.88
857.257	3.88
857.995	0.88
858.734	1.88
859.473	2.88
860.211	2.88
860.95	1.88
861.688	3.88
862.426	1.88
863.165	0.88
863.903	1.88
864.641	0.88
865.379	1.88
866.117	0.88
866.855	2.88
867.593	0.88
868.33	0.88
869.068	2.88
869.806	0.88
870.543	0.88
871.28	1.88
872.018	1.88
872.755	0.88
873.492	-1.12
874.229	3.88
874.967	-1.12
875.703	0.88
876.44	-0.12
877.177	0.88
877.914	2.88
878.651	-0.12
879.387	1.88
880.124	0.88
880.86	0.88
881.597	-0.12
882.333	0.88
883.069	-0.12
883.806	0.88
884.542	-1.12
885.278	-0.12
886.014	0.88
886.749	-0.12
887.485	1.88
888.221	1.88
888.957	-0.12
889.692	-0.12
890.428	0.88
891.163	-0.12
891.899	0.88
892.634	0.88
893.369	-1.12
894.104	1.88
894.839	1.88
895.574	-0.12
896.309	-0.12
897.044	-0.12
897.779	0.88
898.514	0.88
899.248	1.88
899.983	0.88
900.717	1.88
901.452	-0.12
902.186	1.88
902.92	0.88
903.654	0.88
904.389	0.88
905.123	-1.12
905.857	0.88
906.59	2.88
907.324	-1.12
908.058	1.88
908.792	0.88
909.525	3.88
910.259	-1.12
910.992	0.88
911.726	-1.12
912.459	-0.12
913.192	-0.12
913.925	-0.12
914.658	0.88
915.391	1.88
916.124	-0.12
916.857	-0.12
917.59	-1.12
918.323	-1.12
919.055	-0.12
919.788	0.88
920.521	-0.12
921.253	-0.12
921.985	-2.12
922.718	-0.12
923.45	-0.12
924.182	-2.12
924.914	0.88
925.646	-1.12
926.378	-1.12
927.11	-0.12
927.841	-1.12
928.573	-0.12
929.305	-1.12
930.036	-2.12
930.768	-1.12
931.499	0.88
932.23	-0.12
932.962	-1.12
933.693	-1.12
934.424	-1.12
935.155	-1.12
935.886	0.88
936.617	-2.12
937.348	-0.12
938.078	0.88
938.809	-0.12
939.54	0.88
940.27	-1.12
941.001	0.88
941.731	-0.12
942.461	0.88
943.191	-1.12
943.922	-1.12
944.652	0.88
945.382	-0.12
946.112	-0.12
946.841	0.88
947.571	-0.12
948.301	-0.12
949.031	-0.12
949.76	-1.12
950.49	-1.12
951.219	-3.12
951.948	-1.12
952.678	-1.12
953.407	0.88
954.136	-1.12
954.865	2.88
955.594	-0.12
956.323	-1.12
957.052	0.88
957.78	-0.12
958.509	-1.12
959.238	-1.12
959.966	0.88
960.695	0.88
961.423	1.88
962.151	0.88
962.88	-0.12
963.608	0.88
964.336	-0.12
965.064	1.88
965.792	0.88
966.52	2.88
967.247	-2.12
967.975	-0.12
968.703	-1.12
969.43	-0.12
970.158	0.88
970.885	0.88
971.613	-1.12
972.34	0.88
973.067	-2.12
973.794	0.88
974.521	-1.12
975.248	0.88
975.975	0.88
976.702	-0.12
977.429	0.88
978.156	-0.12
978.882	-1.12
979.609	-1.12
980.335	-0.12
981.062	1.88
981.788	-2.12
982.514	2.88
983.24	0.88
983.967	-0.12
984.693	-1.12
985.419	-0.12
986.144	0.88
986.87	-0.12
987.596	0.88
988.322	1.88
989.047	-2.12
989.773	0.88
990.498	-2.12
991.224	0.88
991.949	-0.12
992.674	-0.12
993.399	-0.12
994.124	-0.12
994.849	-1.12
995.574	1.88
996.299	1.88
997.024	-1.12
997.749	-0.12
998.473	0.88
999.198	-1.12
999.922	0.88
1000.647	2.88
1001.371	3.88
1002.095	-2.12
1002.82	-0.12
1003.544	-1.12
1004.268	4.88
1004.992	3.88
1005.716	2.88
1006.439	-0.12
1007.163	2.88
1007.887	-1.12
1008.611	-0.12
1009.334	-0.12
1010.058	-0.12
1010.781	0.88
1011.504	-0.12
1012.228	0.88
1012.951	0.88
1013.674	-1.12
1014.397	-1.12
1015.12	0.88
