节点500_285_QEPB04081__397__15-02-09-636.txt的数据

Date: Wed Nov 12 15:02:09 CST 2025
User: PC
Spectrometer: QEPB0408
触发模式: 0
积分时间 (秒): 1.000000E-2
Scans to average: 1
启用暗噪声校正: true
启用非线性校正: false
滑动平均宽度: 0
X轴模式: Wavelengths
Number of Pixels in Spectrum: 1044
>>>>>Begin Spectral Data<<<<<
220.843	0.62
221.644	0.62
222.444	4.62
223.244	1.62
224.045	3.62
224.845	2.62
225.645	5.62
226.445	6.62
227.245	2.62
228.045	2.62
228.845	2.62
229.645	4.62
230.444	2.62
231.244	5.62
232.043	4.62
232.843	4.62
233.642	3.62
234.442	2.62
235.241	6.62
236.04	5.62
236.839	3.62
237.638	7.62
238.437	2.62
239.236	5.62
240.035	3.62
240.833	6.62
241.632	5.62
242.43	4.62
243.229	6.62
244.027	4.62
244.826	6.62
245.624	7.62
246.422	6.62
247.22	6.62
248.018	3.62
248.816	7.62
249.614	6.62
250.412	6.62
251.21	5.62
252.007	6.62
252.805	8.62
253.602	6.62
254.4	9.62
255.197	8.62
255.994	9.62
256.791	9.62
257.589	9.62
258.386	10.62
259.183	8.62
259.979	9.62
260.776	11.62
261.573	11.62
262.37	11.62
263.166	13.62
263.963	10.62
264.759	10.62
265.556	14.62
266.352	12.62
267.148	14.62
267.944	13.62
268.74	14.62
269.536	16.62
270.332	14.62
271.128	15.62
271.924	16.62
272.719	14.62
273.515	16.62
274.311	17.62
275.106	19.62
275.901	16.62
276.697	17.62
277.492	18.62
278.287	19.62
279.082	18.62
279.877	17.62
280.672	18.62
281.467	20.62
282.262	21.62
283.056	19.62
283.851	16.62
284.646	21.62
285.44	18.62
286.234	20.62
287.029	18.62
287.823	19.62
288.617	19.62
289.411	18.62
290.205	19.62
290.999	18.62
291.793	18.62
292.587	19.62
293.381	17.62
294.174	17.62
294.968	15.62
295.761	17.62
296.555	18.62
297.348	14.62
298.141	17.62
298.935	17.62
299.728	16.62
300.521	15.62
301.314	15.62
302.107	13.62
302.899	14.62
303.692	14.62
304.485	12.62
305.277	14.62
306.07	12.62
306.862	14.62
307.655	11.62
308.447	14.62
309.239	11.62
310.031	13.62
310.823	13.62
311.615	12.62
312.407	9.62
313.199	10.62
313.991	9.62
314.783	10.62
315.574	11.62
316.366	9.62
317.157	10.62
317.949	8.62
318.74	8.62
319.531	5.62
320.322	8.62
321.113	7.62
321.904	8.62
322.695	7.62
323.486	5.62
324.277	9.62
325.068	7.62
325.858	7.62
326.649	7.62
327.439	9.62
328.23	8.62
329.02	7.62
329.81	5.62
330.6	6.62
331.391	8.62
332.181	6.62
332.971	7.62
333.76	9.62
334.55	6.62
335.34	7.62
336.13	6.62
336.919	7.62
337.709	8.62
338.498	4.62
339.287	8.62
340.077	4.62
340.866	6.62
341.655	6.62
342.444	5.62
343.233	5.62
344.022	3.62
344.811	8.62
345.6	7.62
346.388	5.62
347.177	6.62
347.965	4.62
348.754	6.62
349.542	5.62
350.33	7.62
351.119	7.62
351.907	5.62
352.695	6.62
353.483	4.62
354.271	8.62
355.059	7.62
355.846	7.62
356.634	6.62
357.422	4.62
358.209	7.62
358.997	8.62
359.784	3.62
360.571	7.62
361.359	4.62
362.146	8.62
362.933	4.62
363.72	5.62
364.507	4.62
365.294	5.62
366.081	6.62
366.867	5.62
367.654	6.62
368.44	4.62
369.227	4.62
370.013	4.62
370.8	5.62
371.586	6.62
372.372	5.62
373.158	6.62
373.944	3.62
374.73	5.62
375.516	6.62
376.302	6.62
377.088	7.62
377.873	6.62
378.659	5.62
379.445	5.62
380.23	6.62
381.015	6.62
381.801	5.62
382.586	5.62
383.371	4.62
384.156	7.62
384.941	6.62
385.726	7.62
386.511	8.62
387.296	4.62
388.08	5.62
388.865	7.62
389.649	7.62
390.434	6.62
391.218	5.62
392.003	8.62
392.787	4.62
393.571	7.62
394.355	4.62
395.139	6.62
395.923	5.62
396.707	7.62
397.491	8.62
398.274	7.62
399.058	9.62
399.842	6.62
400.625	9.62
401.408	9.62
402.192	7.62
402.975	8.62
403.758	7.62
404.541	7.62
405.324	7.62
406.107	8.62
406.89	8.62
407.673	7.62
408.456	10.62
409.238	9.62
410.021	8.62
410.803	8.62
411.586	9.62
412.368	9.62
413.151	8.62
413.933	9.62
414.715	9.62
415.497	10.62
416.279	10.62
417.061	12.62
417.843	10.62
418.624	9.62
419.406	11.62
420.188	10.62
420.969	10.62
421.751	12.62
422.532	11.62
423.313	8.62
424.095	12.62
424.876	12.62
425.657	13.62
426.438	12.62
427.219	13.62
428	12.62
428.78	14.62
429.561	14.62
430.342	14.62
431.122	14.62
431.903	16.62
432.683	16.62
433.464	16.62
434.244	18.62
435.024	15.62
435.804	16.62
436.584	18.62
437.364	20.62
438.144	20.62
438.924	20.62
439.704	20.62
440.483	24.62
441.263	22.62
442.042	23.62
442.822	29.62
443.601	30.62
444.38	28.62
445.16	31.62
445.939	35.62
446.718	37.62
447.497	41.62
448.276	38.62
449.054	44.62
449.833	49.62
450.612	54.62
451.391	59.62
452.169	66.62
452.948	69.62
453.726	72.62
454.504	77.62
455.282	91.62
456.061	101.62
456.839	116.62
457.617	128.62
458.395	138.62
459.172	156.62
459.95	172.62
460.728	189.62
461.506	214.62
462.283	239.62
463.061	268.62
463.838	290.62
464.615	326.62
465.393	370.62
466.17	404.62
466.947	460.62
467.724	499.62
468.501	561.62
469.278	625.62
470.055	688.62
470.831	760.62
471.608	869.62
472.385	957.62
473.161	1065.62
473.938	1176.62
474.714	1301.62
475.49	1432.62
476.266	1581.62
477.043	1761.62
477.819	1930.62
478.595	2142.62
479.371	2343.62
480.146	2592.62
480.922	2858.62
481.698	3157.62
482.473	3449.62
483.249	3792.62
484.024	4172.62
484.8	4588.62
485.575	5041.62
486.35	5545.62
487.126	6044.62
487.901	6635.62
488.676	7282.62
489.451	7946.62
490.225	8682.62
491	9473.62
491.775	10356.62
492.55	11234.62
493.324	12247.62
494.099	13156.62
494.873	14203.62
495.647	15273.62
496.422	16421.62
497.196	17563.62
497.97	18767.62
498.744	19960.62
499.518	21026.62
500.292	22177.62
501.066	23250.62
501.839	24313.62
502.613	25130.62
503.387	25950.62
504.16	26596.62
504.934	26915.62
505.707	27146.62
506.48	27172.62
507.253	27184.62
508.027	26962.62
508.8	26586.62
509.573	26236.62
510.346	25694.62
511.118	24966.62
511.891	24160.62
512.664	23380.62
513.437	22525.62
514.209	21601.62
514.982	20720.62
515.754	19854.62
516.526	18898.62
517.298	18102.62
518.071	17349.62
518.843	16630.62
519.615	16033.62
520.387	15405.62
521.159	14789.62
521.93	14180.62
522.702	13615.62
523.474	13099.62
524.245	12543.62
525.017	11981.62
525.788	11527.62
526.56	10980.62
527.331	10468.62
528.102	9994.62
528.873	9570.62
529.644	9101.62
530.415	8654.62
531.186	8206.62
531.957	7781.62
532.728	7426.62
533.498	7031.62
534.269	6640.62
535.039	6252.62
535.81	5881.62
536.58	5593.62
537.351	5278.62
538.121	4968.62
538.891	4703.62
539.661	4489.62
540.431	4187.62
541.201	3983.62
541.971	3769.62
542.741	3571.62
543.51	3398.62
544.28	3219.62
545.05	3064.62
545.819	2932.62
546.588	2775.62
547.358	2653.62
548.127	2512.62
548.896	2383.62
549.665	2239.62
550.434	2146.62
551.203	2031.62
551.972	1913.62
552.741	1812.62
553.51	1710.62
554.278	1616.62
555.047	1530.62
555.815	1457.62
556.584	1371.62
557.352	1291.62
558.121	1222.62
558.889	1149.62
559.657	1078.62
560.425	1020.62
561.193	973.62
561.961	903.62
562.729	870.62
563.496	811.62
564.264	768.62
565.032	726.62
565.799	699.62
566.567	646.62
567.334	617.62
568.101	577.62
568.869	543.62
569.636	514.62
570.403	488.62
571.17	457.62
571.937	436.62
572.704	406.62
573.471	381.62
574.237	361.62
575.004	338.62
575.771	323.62
576.537	310.62
577.303	289.62
578.07	271.62
578.836	256.62
579.602	238.62
580.368	227.62
581.134	211.62
581.9	203.62
582.666	183.62
583.432	183.62
584.198	174.62
584.964	167.62
585.729	160.62
586.495	147.62
587.26	138.62
588.025	134.62
588.791	122.62
589.556	123.62
590.321	109.62
591.086	108.62
591.851	103.62
592.616	97.62
593.381	95.62
594.146	86.62
594.911	87.62
595.675	78.62
596.44	76.62
597.204	70.62
597.969	67.62
598.733	65.62
599.497	64.62
600.261	58.62
601.025	59.62
601.79	53.62
602.553	55.62
603.317	49.62
604.081	46.62
604.845	47.62
605.609	47.62
606.372	39.62
607.136	43.62
607.899	40.62
608.662	37.62
609.426	35.62
610.189	36.62
610.952	33.62
611.715	32.62
612.478	31.62
613.241	32.62
614.004	27.62
614.767	27.62
615.529	24.62
616.292	24.62
617.055	23.62
617.817	26.62
618.579	23.62
619.342	25.62
620.104	23.62
620.866	21.62
621.628	22.62
622.39	19.62
623.152	18.62
623.914	20.62
624.676	17.62
625.438	16.62
626.199	16.62
626.961	15.62
627.722	17.62
628.484	12.62
629.245	14.62
630.006	14.62
630.768	15.62
631.529	14.62
632.29	13.62
633.051	14.62
633.812	13.62
634.573	14.62
635.333	14.62
636.094	12.62
636.855	11.62
637.615	11.62
638.376	11.62
639.136	10.62
639.896	11.62
640.657	10.62
641.417	8.62
642.177	12.62
642.937	10.62
643.697	9.62
644.457	9.62
645.216	8.62
645.976	8.62
646.736	5.62
647.495	10.62
648.255	10.62
649.014	7.62
649.774	8.62
650.533	8.62
651.292	8.62
652.051	7.62
652.81	7.62
653.569	9.62
654.328	9.62
655.087	6.62
655.846	7.62
656.604	9.62
657.363	5.62
658.121	6.62
658.88	6.62
659.638	7.62
660.397	6.62
661.155	5.62
661.913	5.62
662.671	4.62
663.429	6.62
664.187	5.62
664.945	7.62
665.703	4.62
666.46	4.62
667.218	6.62
667.976	5.62
668.733	4.62
669.49	5.62
670.248	4.62
671.005	5.62
671.762	5.62
672.519	5.62
673.276	5.62
674.033	4.62
674.79	5.62
675.547	3.62
676.304	7.62
677.06	5.62
677.817	4.62
678.574	5.62
679.33	3.62
680.086	6.62
680.843	5.62
681.599	3.62
682.355	6.62
683.111	6.62
683.867	4.62
684.623	4.62
685.379	4.62
686.135	6.62
686.89	5.62
687.646	5.62
688.402	4.62
689.157	5.62
689.912	1.62
690.668	5.62
691.423	4.62
692.178	3.62
692.933	4.62
693.688	3.62
694.443	5.62
695.198	4.62
695.953	5.62
696.708	4.62
697.462	5.62
698.217	3.62
698.972	3.62
699.726	4.62
700.48	4.62
701.235	7.62
701.989	5.62
702.743	4.62
703.497	6.62
704.251	5.62
705.005	4.62
705.759	2.62
706.513	5.62
707.266	4.62
708.02	5.62
708.774	5.62
709.527	3.62
710.28	5.62
711.034	4.62
711.787	5.62
712.54	5.62
713.293	4.62
714.046	5.62
714.799	4.62
715.552	3.62
716.305	2.62
717.058	3.62
717.81	2.62
718.563	4.62
719.315	4.62
720.068	2.62
720.82	3.62
721.573	5.62
722.325	5.62
723.077	3.62
723.829	5.62
724.581	2.62
725.333	4.62
726.085	4.62
726.836	3.62
727.588	4.62
728.34	6.62
729.091	5.62
729.843	3.62
730.594	4.62
731.346	4.62
732.097	6.62
732.848	7.62
733.599	4.62
734.35	4.62
735.101	6.62
735.852	6.62
736.603	4.62
737.354	4.62
738.104	4.62
738.855	6.62
739.605	6.62
740.356	3.62
741.106	4.62
741.856	8.62
742.607	5.62
743.357	3.62
744.107	5.62
744.857	6.62
745.607	5.62
746.357	8.62
747.106	5.62
747.856	5.62
748.606	4.62
749.355	7.62
750.105	5.62
750.854	7.62
751.603	6.62
752.353	6.62
753.102	5.62
753.851	5.62
754.6	6.62
755.349	7.62
756.098	5.62
756.847	5.62
757.595	4.62
758.344	6.62
759.093	5.62
759.841	9.62
760.589	6.62
761.338	3.62
762.086	6.62
762.834	6.62
763.582	8.62
764.331	7.62
765.079	6.62
765.826	6.62
766.574	5.62
767.322	7.62
768.07	6.62
768.817	7.62
769.565	7.62
770.312	8.62
771.06	9.62
771.807	10.62
772.554	7.62
773.302	8.62
774.049	9.62
774.796	8.62
775.543	7.62
776.29	8.62
777.036	8.62
777.783	9.62
778.53	11.62
779.276	7.62
780.023	10.62
780.769	9.62
781.516	10.62
782.262	7.62
783.008	9.62
783.754	9.62
784.5	8.62
785.246	12.62
785.992	8.62
786.738	10.62
787.484	9.62
788.23	8.62
788.975	11.62
789.721	11.62
790.466	10.62
791.212	9.62
791.957	9.62
792.702	10.62
793.447	7.62
794.193	9.62
794.938	9.62
795.683	8.62
796.427	8.62
797.172	8.62
797.917	9.62
798.662	7.62
799.406	7.62
800.151	7.62
800.895	7.62
801.64	8.62
802.384	5.62
803.128	7.62
803.872	4.62
804.616	7.62
805.36	6.62
806.104	6.62
806.848	7.62
807.592	6.62
808.336	3.62
809.079	8.62
809.823	8.62
810.566	7.62
811.31	6.62
812.053	5.62
812.796	5.62
813.539	5.62
814.283	4.62
815.026	5.62
815.769	5.62
816.511	5.62
817.254	6.62
817.997	8.62
818.74	4.62
819.482	4.62
820.225	5.62
820.967	4.62
821.71	5.62
822.452	7.62
823.194	4.62
823.936	7.62
824.678	5.62
825.42	4.62
826.162	4.62
826.904	4.62
827.646	4.62
828.388	5.62
829.129	4.62
829.871	3.62
830.612	4.62
831.354	4.62
832.095	1.62
832.836	3.62
833.577	5.62
834.319	3.62
835.06	3.62
835.801	5.62
836.542	4.62
837.282	4.62
838.023	6.62
838.764	5.62
839.504	3.62
840.245	2.62
840.985	3.62
841.726	4.62
842.466	4.62
843.206	5.62
843.946	4.62
844.687	5.62
845.427	4.62
846.166	2.62
846.906	2.62
847.646	4.62
848.386	5.62
849.125	6.62
849.865	3.62
850.605	2.62
851.344	4.62
852.083	5.62
852.823	6.62
853.562	3.62
854.301	3.62
855.04	2.62
855.779	5.62
856.518	3.62
857.257	4.62
857.995	4.62
858.734	2.62
859.473	1.62
860.211	2.62
860.95	4.62
861.688	3.62
862.426	4.62
863.165	5.62
863.903	0.62
864.641	3.62
865.379	2.62
866.117	1.62
866.855	2.62
867.593	3.62
868.33	1.62
869.068	1.62
869.806	4.62
870.543	2.62
871.28	2.62
872.018	0.62
872.755	4.62
873.492	3.62
874.229	1.62
874.967	4.62
875.703	2.62
876.44	3.62
877.177	0.62
877.914	-0.38
878.651	2.62
879.387	1.62
880.124	3.62
880.86	0.62
881.597	2.62
882.333	0.62
883.069	2.62
883.806	0.62
884.542	3.62
885.278	3.62
886.014	2.62
886.749	1.62
887.485	2.62
888.221	-0.38
888.957	2.62
889.692	1.62
890.428	2.62
891.163	2.62
891.899	0.62
892.634	2.62
893.369	-1.38
894.104	0.62
894.839	3.62
895.574	1.62
896.309	-0.38
897.044	1.62
897.779	0.62
898.514	1.62
899.248	1.62
899.983	1.62
900.717	0.62
901.452	-0.38
902.186	2.62
902.92	2.62
903.654	0.62
904.389	1.62
905.123	2.62
905.857	0.62
906.59	-0.38
907.324	0.62
908.058	3.62
908.792	2.62
909.525	2.62
910.259	1.62
910.992	0.62
911.726	2.62
912.459	2.62
913.192	1.62
913.925	-0.38
914.658	1.62
915.391	0.62
916.124	-0.38
916.857	2.62
917.59	1.62
918.323	3.62
919.055	0.62
919.788	1.62
920.521	1.62
921.253	-0.38
921.985	1.62
922.718	1.62
923.45	2.62
924.182	0.62
924.914	1.62
925.646	1.62
926.378	0.62
927.11	2.62
927.841	1.62
928.573	0.62
929.305	1.62
930.036	-0.38
930.768	0.62
931.499	1.62
932.23	2.62
932.962	-0.38
933.693	-0.38
934.424	2.62
935.155	0.62
935.886	1.62
936.617	1.62
937.348	3.62
938.078	0.62
938.809	-0.38
939.54	1.62
940.27	1.62
941.001	1.62
941.731	-0.38
942.461	1.62
943.191	-0.38
943.922	1.62
944.652	2.62
945.382	1.62
946.112	2.62
946.841	1.62
947.571	2.62
948.301	1.62
949.031	-0.38
949.76	0.62
950.49	2.62
951.219	3.62
951.948	1.62
952.678	-0.38
953.407	3.62
954.136	1.62
954.865	2.62
955.594	0.62
956.323	-0.38
957.052	0.62
957.78	-1.38
958.509	-0.38
959.238	1.62
959.966	0.62
960.695	2.62
961.423	1.62
962.151	2.62
962.88	1.62
963.608	-0.38
964.336	1.62
965.064	2.62
965.792	1.62
966.52	0.62
967.247	0.62
967.975	1.62
968.703	0.62
969.43	0.62
970.158	1.62
970.885	2.62
971.613	-0.38
972.34	1.62
973.067	0.62
973.794	0.62
974.521	0.62
975.248	0.62
975.975	1.62
976.702	-0.38
977.429	-0.38
978.156	-1.38
978.882	3.62
979.609	2.62
980.335	0.62
981.062	3.62
981.788	-0.38
982.514	0.62
983.24	0.62
983.967	2.62
984.693	1.62
985.419	-0.38
986.144	1.62
986.87	2.62
987.596	0.62
988.322	2.62
989.047	0.62
989.773	1.62
990.498	1.62
991.224	4.62
991.949	1.62
992.674	1.62
993.399	-1.38
994.124	2.62
994.849	0.62
995.574	1.62
996.299	2.62
997.024	1.62
997.749	-0.38
998.473	0.62
999.198	-1.38
999.922	1.62
1000.647	2.62
1001.371	3.62
1002.095	0.62
1002.82	-0.38
1003.544	-1.38
1004.268	2.62
1004.992	2.62
1005.716	0.62
1006.439	-0.38
1007.163	1.62
1007.887	3.62
1008.611	1.62
1009.334	2.62
1010.058	1.62
1010.781	1.62
1011.504	1.62
1012.228	2.62
1012.951	0.62
1013.674	0.62
1014.397	-1.38
1015.12	-2.38
