节点500_285_QEPB04081__559__15-04-51-247.txt的数据

Date: Wed Nov 12 15:04:51 CST 2025
User: PC
Spectrometer: QEPB0408
触发模式: 0
积分时间 (秒): 1.000000E-2
Scans to average: 1
启用暗噪声校正: true
启用非线性校正: false
滑动平均宽度: 0
X轴模式: Wavelengths
Number of Pixels in Spectrum: 1044
>>>>>Begin Spectral Data<<<<<
220.843	1.12
221.644	-0.88
222.444	2.12
223.244	2.12
224.045	1.12
224.845	4.12
225.645	2.12
226.445	0.12
227.245	2.12
228.045	-0.88
228.845	3.12
229.645	2.12
230.444	4.12
231.244	1.12
232.043	3.12
232.843	1.12
233.642	5.12
234.442	1.12
235.241	4.12
236.04	2.12
236.839	3.12
237.638	3.12
238.437	4.12
239.236	2.12
240.035	4.12
240.833	2.12
241.632	5.12
242.43	3.12
243.229	4.12
244.027	4.12
244.826	4.12
245.624	4.12
246.422	4.12
247.22	5.12
248.018	4.12
248.816	4.12
249.614	4.12
250.412	5.12
251.21	6.12
252.007	4.12
252.805	3.12
253.602	3.12
254.4	6.12
255.197	6.12
255.994	7.12
256.791	7.12
257.589	10.12
258.386	6.12
259.183	10.12
259.979	8.12
260.776	7.12
261.573	9.12
262.37	11.12
263.166	8.12
263.963	10.12
264.759	9.12
265.556	8.12
266.352	10.12
267.148	11.12
267.944	12.12
268.74	13.12
269.536	13.12
270.332	11.12
271.128	10.12
271.924	14.12
272.719	12.12
273.515	14.12
274.311	16.12
275.106	13.12
275.901	15.12
276.697	17.12
277.492	16.12
278.287	17.12
279.082	14.12
279.877	14.12
280.672	16.12
281.467	17.12
282.262	19.12
283.056	16.12
283.851	17.12
284.646	18.12
285.44	21.12
286.234	19.12
287.029	17.12
287.823	19.12
288.617	17.12
289.411	17.12
290.205	16.12
290.999	16.12
291.793	17.12
292.587	15.12
293.381	18.12
294.174	17.12
294.968	15.12
295.761	16.12
296.555	14.12
297.348	12.12
298.141	16.12
298.935	14.12
299.728	13.12
300.521	11.12
301.314	13.12
302.107	11.12
302.899	12.12
303.692	13.12
304.485	12.12
305.277	12.12
306.07	12.12
306.862	14.12
307.655	13.12
308.447	12.12
309.239	11.12
310.031	9.12
310.823	8.12
311.615	11.12
312.407	7.12
313.199	11.12
313.991	7.12
314.783	9.12
315.574	7.12
316.366	9.12
317.157	8.12
317.949	7.12
318.74	10.12
319.531	7.12
320.322	4.12
321.113	6.12
321.904	6.12
322.695	8.12
323.486	6.12
324.277	6.12
325.068	6.12
325.858	6.12
326.649	7.12
327.439	5.12
328.23	4.12
329.02	8.12
329.81	4.12
330.6	8.12
331.391	4.12
332.181	4.12
332.971	7.12
333.76	5.12
334.55	5.12
335.34	9.12
336.13	5.12
336.919	5.12
337.709	6.12
338.498	7.12
339.287	3.12
340.077	4.12
340.866	4.12
341.655	6.12
342.444	4.12
343.233	6.12
344.022	7.12
344.811	6.12
345.6	5.12
346.388	6.12
347.177	5.12
347.965	4.12
348.754	3.12
349.542	7.12
350.33	3.12
351.119	4.12
351.907	2.12
352.695	8.12
353.483	3.12
354.271	3.12
355.059	5.12
355.846	6.12
356.634	6.12
357.422	5.12
358.209	4.12
358.997	5.12
359.784	4.12
360.571	4.12
361.359	3.12
362.146	3.12
362.933	4.12
363.72	4.12
364.507	3.12
365.294	2.12
366.081	5.12
366.867	3.12
367.654	4.12
368.44	3.12
369.227	2.12
370.013	4.12
370.8	3.12
371.586	5.12
372.372	4.12
373.158	6.12
373.944	3.12
374.73	4.12
375.516	5.12
376.302	5.12
377.088	4.12
377.873	4.12
378.659	6.12
379.445	1.12
380.23	5.12
381.015	5.12
381.801	2.12
382.586	6.12
383.371	4.12
384.156	2.12
384.941	2.12
385.726	7.12
386.511	5.12
387.296	4.12
388.08	5.12
388.865	3.12
389.649	6.12
390.434	8.12
391.218	4.12
392.003	5.12
392.787	5.12
393.571	6.12
394.355	5.12
395.139	3.12
395.923	5.12
396.707	5.12
397.491	5.12
398.274	4.12
399.058	6.12
399.842	9.12
400.625	6.12
401.408	10.12
402.192	4.12
402.975	5.12
403.758	9.12
404.541	4.12
405.324	6.12
406.107	5.12
406.89	5.12
407.673	8.12
408.456	9.12
409.238	8.12
410.021	7.12
410.803	7.12
411.586	9.12
412.368	7.12
413.151	8.12
413.933	8.12
414.715	8.12
415.497	7.12
416.279	8.12
417.061	6.12
417.843	7.12
418.624	8.12
419.406	10.12
420.188	9.12
420.969	9.12
421.751	12.12
422.532	8.12
423.313	8.12
424.095	11.12
424.876	10.12
425.657	10.12
426.438	10.12
427.219	10.12
428	13.12
428.78	12.12
429.561	14.12
430.342	14.12
431.122	15.12
431.903	15.12
432.683	17.12
433.464	14.12
434.244	15.12
435.024	17.12
435.804	16.12
436.584	18.12
437.364	18.12
438.144	18.12
438.924	21.12
439.704	16.12
440.483	21.12
441.263	23.12
442.042	24.12
442.822	27.12
443.601	28.12
444.38	31.12
445.16	29.12
445.939	33.12
446.718	36.12
447.497	40.12
448.276	42.12
449.054	43.12
449.833	49.12
450.612	53.12
451.391	60.12
452.169	63.12
452.948	70.12
453.726	73.12
454.504	88.12
455.282	90.12
456.061	102.12
456.839	116.12
457.617	124.12
458.395	142.12
459.172	161.12
459.95	177.12
460.728	196.12
461.506	221.12
462.283	244.12
463.061	271.12
463.838	294.12
464.615	336.12
465.393	378.12
466.17	420.12
466.947	467.12
467.724	522.12
468.501	576.12
469.278	654.12
470.055	711.12
470.831	806.12
471.608	877.12
472.385	975.12
473.161	1084.12
473.938	1195.12
474.714	1308.12
475.49	1465.12
476.266	1609.12
477.043	1775.12
477.819	1935.12
478.595	2132.12
479.371	2346.12
480.146	2584.12
480.922	2844.12
481.698	3124.12
482.473	3444.12
483.249	3769.12
484.024	4109.12
484.8	4530.12
485.575	4939.12
486.35	5404.12
487.126	5900.12
487.901	6460.12
488.676	7056.12
489.451	7750.12
490.225	8430.12
491	9157.12
491.775	10014.12
492.55	10829.12
493.324	11713.12
494.099	12616.12
494.873	13622.12
495.647	14639.12
496.422	15684.12
497.196	16792.12
497.97	17902.12
498.744	19030.12
499.518	20105.12
500.292	21324.12
501.066	22252.12
501.839	23240.12
502.613	24152.12
503.387	25047.12
504.16	25616.12
504.934	26019.12
505.707	26259.12
506.48	26434.12
507.253	26551.12
508.027	26397.12
508.8	26165.12
509.573	25895.12
510.346	25431.12
511.118	24797.12
511.891	24077.12
512.664	23329.12
513.437	22499.12
514.209	21595.12
514.982	20796.12
515.754	19921.12
516.526	19077.12
517.298	18280.12
518.071	17501.12
518.843	16765.12
519.615	16155.12
520.387	15524.12
521.159	14885.12
521.93	14345.12
522.702	13784.12
523.474	13215.12
524.245	12616.12
525.017	12081.12
525.788	11638.12
526.56	11108.12
527.331	10598.12
528.102	10163.12
528.873	9709.12
529.644	9204.12
530.415	8754.12
531.186	8344.12
531.957	7926.12
532.728	7567.12
533.498	7159.12
534.269	6761.12
535.039	6419.12
535.81	6054.12
536.58	5717.12
537.351	5403.12
538.121	5110.12
538.891	4822.12
539.661	4570.12
540.431	4303.12
541.201	4052.12
541.971	3864.12
542.741	3662.12
543.51	3472.12
544.28	3302.12
545.05	3123.12
545.819	3007.12
546.588	2855.12
547.358	2694.12
548.127	2568.12
548.896	2437.12
549.665	2292.12
550.434	2189.12
551.203	2092.12
551.972	1969.12
552.741	1861.12
553.51	1757.12
554.278	1667.12
555.047	1568.12
555.815	1487.12
556.584	1400.12
557.352	1332.12
558.121	1269.12
558.889	1182.12
559.657	1116.12
560.425	1065.12
561.193	998.12
561.961	945.12
562.729	878.12
563.496	835.12
564.264	787.12
565.032	752.12
565.799	701.12
566.567	671.12
567.334	637.12
568.101	592.12
568.869	569.12
569.636	529.12
570.403	490.12
571.17	476.12
571.937	448.12
572.704	414.12
573.471	394.12
574.237	377.12
575.004	349.12
575.771	324.12
576.537	307.12
577.303	293.12
578.07	279.12
578.836	260.12
579.602	241.12
580.368	233.12
581.134	218.12
581.9	214.12
582.666	197.12
583.432	189.12
584.198	176.12
584.964	166.12
585.729	157.12
586.495	150.12
587.26	146.12
588.025	139.12
588.791	129.12
589.556	124.12
590.321	120.12
591.086	106.12
591.851	103.12
592.616	99.12
593.381	93.12
594.146	90.12
594.911	84.12
595.675	82.12
596.44	77.12
597.204	74.12
597.969	67.12
598.733	65.12
599.497	65.12
600.261	63.12
601.025	57.12
601.79	55.12
602.553	55.12
603.317	50.12
604.081	48.12
604.845	47.12
605.609	44.12
606.372	42.12
607.136	41.12
607.899	38.12
608.662	36.12
609.426	35.12
610.189	33.12
610.952	33.12
611.715	32.12
612.478	29.12
613.241	30.12
614.004	27.12
614.767	28.12
615.529	26.12
616.292	28.12
617.055	25.12
617.817	21.12
618.579	20.12
619.342	23.12
620.104	21.12
620.866	18.12
621.628	21.12
622.39	20.12
623.152	17.12
623.914	17.12
624.676	18.12
625.438	17.12
626.199	13.12
626.961	16.12
627.722	16.12
628.484	10.12
629.245	16.12
630.006	13.12
630.768	13.12
631.529	14.12
632.29	12.12
633.051	13.12
633.812	11.12
634.573	12.12
635.333	9.12
636.094	9.12
636.855	9.12
637.615	10.12
638.376	9.12
639.136	9.12
639.896	9.12
640.657	8.12
641.417	8.12
642.177	9.12
642.937	7.12
643.697	9.12
644.457	7.12
645.216	7.12
645.976	7.12
646.736	4.12
647.495	6.12
648.255	9.12
649.014	8.12
649.774	7.12
650.533	7.12
651.292	8.12
652.051	5.12
652.81	5.12
653.569	8.12
654.328	6.12
655.087	5.12
655.846	4.12
656.604	6.12
657.363	6.12
658.121	3.12
658.88	3.12
659.638	6.12
660.397	3.12
661.155	6.12
661.913	5.12
662.671	4.12
663.429	8.12
664.187	5.12
664.945	5.12
665.703	6.12
666.46	4.12
667.218	5.12
667.976	3.12
668.733	4.12
669.49	2.12
670.248	5.12
671.005	3.12
671.762	2.12
672.519	4.12
673.276	4.12
674.033	4.12
674.79	5.12
675.547	6.12
676.304	3.12
677.06	4.12
677.817	2.12
678.574	2.12
679.33	1.12
680.086	3.12
680.843	3.12
681.599	3.12
682.355	2.12
683.111	3.12
683.867	3.12
684.623	6.12
685.379	3.12
686.135	3.12
686.89	4.12
687.646	2.12
688.402	5.12
689.157	1.12
689.912	3.12
690.668	1.12
691.423	3.12
692.178	1.12
692.933	4.12
693.688	4.12
694.443	0.12
695.198	3.12
695.953	3.12
696.708	4.12
697.462	3.12
698.217	2.12
698.972	4.12
699.726	4.12
700.48	1.12
701.235	4.12
701.989	3.12
702.743	4.12
703.497	1.12
704.251	5.12
705.005	0.12
705.759	4.12
706.513	5.12
707.266	1.12
708.02	2.12
708.774	0.12
709.527	3.12
710.28	1.12
711.034	3.12
711.787	1.12
712.54	1.12
713.293	4.12
714.046	4.12
714.799	3.12
715.552	2.12
716.305	5.12
717.058	3.12
717.81	1.12
718.563	3.12
719.315	5.12
720.068	4.12
720.82	2.12
721.573	4.12
722.325	1.12
723.077	2.12
723.829	3.12
724.581	3.12
725.333	2.12
726.085	1.12
726.836	3.12
727.588	3.12
728.34	1.12
729.091	4.12
729.843	1.12
730.594	4.12
731.346	1.12
732.097	4.12
732.848	7.12
733.599	1.12
734.35	6.12
735.101	1.12
735.852	3.12
736.603	4.12
737.354	0.12
738.104	5.12
738.855	3.12
739.605	2.12
740.356	3.12
741.106	1.12
741.856	4.12
742.607	2.12
743.357	3.12
744.107	2.12
744.857	6.12
745.607	5.12
746.357	4.12
747.106	4.12
747.856	4.12
748.606	3.12
749.355	3.12
750.105	4.12
750.854	7.12
751.603	0.12
752.353	4.12
753.102	4.12
753.851	5.12
754.6	4.12
755.349	5.12
756.098	6.12
756.847	4.12
757.595	5.12
758.344	7.12
759.093	3.12
759.841	7.12
760.589	5.12
761.338	7.12
762.086	6.12
762.834	6.12
763.582	2.12
764.331	3.12
765.079	6.12
765.826	6.12
766.574	5.12
767.322	6.12
768.07	6.12
768.817	7.12
769.565	7.12
770.312	8.12
771.06	7.12
771.807	3.12
772.554	6.12
773.302	7.12
774.049	7.12
774.796	7.12
775.543	8.12
776.29	9.12
777.036	7.12
777.783	5.12
778.53	8.12
779.276	8.12
780.023	7.12
780.769	7.12
781.516	7.12
782.262	8.12
783.008	6.12
783.754	9.12
784.5	11.12
785.246	7.12
785.992	8.12
786.738	8.12
787.484	9.12
788.23	5.12
788.975	9.12
789.721	9.12
790.466	6.12
791.212	9.12
791.957	7.12
792.702	7.12
793.447	9.12
794.193	7.12
794.938	9.12
795.683	6.12
796.427	7.12
797.172	7.12
797.917	6.12
798.662	8.12
799.406	7.12
800.151	6.12
800.895	7.12
801.64	7.12
802.384	8.12
803.128	7.12
803.872	6.12
804.616	6.12
805.36	6.12
806.104	4.12
806.848	3.12
807.592	6.12
808.336	6.12
809.079	6.12
809.823	5.12
810.566	5.12
811.31	4.12
812.053	3.12
812.796	5.12
813.539	4.12
814.283	3.12
815.026	5.12
815.769	6.12
816.511	5.12
817.254	2.12
817.997	5.12
818.74	3.12
819.482	4.12
820.225	3.12
820.967	5.12
821.71	5.12
822.452	5.12
823.194	2.12
823.936	6.12
824.678	1.12
825.42	3.12
826.162	2.12
826.904	2.12
827.646	2.12
828.388	4.12
829.129	4.12
829.871	2.12
830.612	4.12
831.354	5.12
832.095	3.12
832.836	1.12
833.577	4.12
834.319	3.12
835.06	1.12
835.801	1.12
836.542	1.12
837.282	3.12
838.023	2.12
838.764	1.12
839.504	5.12
840.245	2.12
840.985	5.12
841.726	2.12
842.466	0.12
843.206	2.12
843.946	0.12
844.687	2.12
845.427	4.12
846.166	1.12
846.906	2.12
847.646	4.12
848.386	2.12
849.125	2.12
849.865	3.12
850.605	1.12
851.344	4.12
852.083	1.12
852.823	3.12
853.562	1.12
854.301	0.12
855.04	1.12
855.779	2.12
856.518	1.12
857.257	1.12
857.995	2.12
858.734	0.12
859.473	0.12
860.211	2.12
860.95	1.12
861.688	1.12
862.426	1.12
863.165	1.12
863.903	0.12
864.641	2.12
865.379	1.12
866.117	2.12
866.855	1.12
867.593	3.12
868.33	1.12
869.068	0.12
869.806	0.12
870.543	0.12
871.28	-0.88
872.018	0.12
872.755	3.12
873.492	-2.88
874.229	1.12
874.967	0.12
875.703	0.12
876.44	1.12
877.177	-0.88
877.914	0.12
878.651	-0.88
879.387	-0.88
880.124	0.12
880.86	-1.88
881.597	1.12
882.333	1.12
883.069	1.12
883.806	-2.88
884.542	0.12
885.278	2.12
886.014	0.12
886.749	-1.88
887.485	0.12
888.221	2.12
888.957	1.12
889.692	2.12
890.428	0.12
891.163	0.12
891.899	0.12
892.634	0.12
893.369	-0.88
894.104	1.12
894.839	-1.88
895.574	-0.88
896.309	-1.88
897.044	0.12
897.779	0.12
898.514	2.12
899.248	1.12
899.983	-0.88
900.717	-0.88
901.452	0.12
902.186	1.12
902.92	1.12
903.654	-0.88
904.389	-1.88
905.123	-0.88
905.857	-2.88
906.59	-0.88
907.324	-1.88
908.058	-0.88
908.792	0.12
909.525	0.12
910.259	0.12
910.992	1.12
911.726	-1.88
912.459	1.12
913.192	0.12
913.925	1.12
914.658	1.12
915.391	-0.88
916.124	-0.88
916.857	-0.88
917.59	0.12
918.323	-1.88
919.055	-1.88
919.788	1.12
920.521	-1.88
921.253	1.12
921.985	-0.88
922.718	0.12
923.45	1.12
924.182	-1.88
924.914	-2.88
925.646	2.12
926.378	0.12
927.11	-1.88
927.841	1.12
928.573	1.12
929.305	-3.88
930.036	0.12
930.768	-0.88
931.499	-2.88
932.23	0.12
932.962	1.12
933.693	0.12
934.424	-0.88
935.155	-0.88
935.886	0.12
936.617	0.12
937.348	-0.88
938.078	-0.88
938.809	-1.88
939.54	0.12
940.27	1.12
941.001	-1.88
941.731	0.12
942.461	0.12
943.191	-0.88
943.922	0.12
944.652	0.12
945.382	-0.88
946.112	-0.88
946.841	-0.88
947.571	-2.88
948.301	-2.88
949.031	-0.88
949.76	-1.88
950.49	-1.88
951.219	0.12
951.948	-0.88
952.678	0.12
953.407	-0.88
954.136	0.12
954.865	-0.88
955.594	-2.88
956.323	0.12
957.052	-0.88
957.78	-0.88
958.509	-3.88
959.238	0.12
959.966	-1.88
960.695	-0.88
961.423	-0.88
962.151	-0.88
962.88	-0.88
963.608	-1.88
964.336	2.12
965.064	2.12
965.792	0.12
966.52	0.12
967.247	0.12
967.975	-0.88
968.703	-1.88
969.43	-1.88
970.158	1.12
970.885	1.12
971.613	-0.88
972.34	-0.88
973.067	1.12
973.794	1.12
974.521	-0.88
975.248	1.12
975.975	-2.88
976.702	-0.88
977.429	-2.88
978.156	0.12
978.882	-0.88
979.609	-0.88
980.335	1.12
981.062	0.12
981.788	1.12
982.514	-1.88
983.24	1.12
983.967	-0.88
984.693	0.12
985.419	1.12
986.144	0.12
986.87	0.12
987.596	-2.88
988.322	1.12
989.047	0.12
989.773	-3.88
990.498	1.12
991.224	-1.88
991.949	0.12
992.674	-1.88
993.399	0.12
994.124	0.12
994.849	-0.88
995.574	1.12
996.299	-1.88
997.024	-0.88
997.749	-0.88
998.473	1.12
999.198	-1.88
999.922	-0.88
1000.647	-1.88
1001.371	2.12
1002.095	-1.88
1002.82	-0.88
1003.544	-0.88
1004.268	0.12
1004.992	1.12
1005.716	-2.88
1006.439	1.12
1007.163	0.12
1007.887	1.12
1008.611	-0.88
1009.334	-0.88
1010.058	1.12
1010.781	-0.88
1011.504	0.12
1012.228	0.12
1012.951	1.12
1013.674	0.12
1014.397	0.12
1015.12	0.12
