节点500_285_QEPB04081__284__15-00-16-797.txt的数据

Date: Wed Nov 12 15:00:16 CST 2025
User: PC
Spectrometer: QEPB0408
触发模式: 0
积分时间 (秒): 1.000000E-2
Scans to average: 1
启用暗噪声校正: true
启用非线性校正: false
滑动平均宽度: 0
X轴模式: Wavelengths
Number of Pixels in Spectrum: 1044
>>>>>Begin Spectral Data<<<<<
220.843	1
221.644	1
222.444	0
223.244	1
224.045	0
224.845	0
225.645	-1
226.445	2
227.245	0
228.045	2
228.845	3
229.645	4
230.444	3
231.244	2
232.043	4
232.843	5
233.642	1
234.442	5
235.241	2
236.04	3
236.839	3
237.638	3
238.437	4
239.236	2
240.035	5
240.833	4
241.632	3
242.43	4
243.229	5
244.027	5
244.826	4
245.624	2
246.422	3
247.22	5
248.018	6
248.816	8
249.614	7
250.412	7
251.21	4
252.007	8
252.805	6
253.602	5
254.4	6
255.197	6
255.994	6
256.791	8
257.589	8
258.386	8
259.183	8
259.979	13
260.776	12
261.573	8
262.37	10
263.166	9
263.963	11
264.759	13
265.556	12
266.352	9
267.148	12
267.944	11
268.74	14
269.536	14
270.332	15
271.128	14
271.924	16
272.719	12
273.515	16
274.311	16
275.106	16
275.901	16
276.697	17
277.492	15
278.287	17
279.082	16
279.877	19
280.672	17
281.467	22
282.262	19
283.056	19
283.851	17
284.646	18
285.44	18
286.234	19
287.029	16
287.823	17
288.617	20
289.411	18
290.205	18
290.999	17
291.793	18
292.587	17
293.381	18
294.174	18
294.968	15
295.761	13
296.555	16
297.348	14
298.141	13
298.935	15
299.728	13
300.521	13
301.314	12
302.107	12
302.899	13
303.692	12
304.485	11
305.277	14
306.07	10
306.862	15
307.655	12
308.447	11
309.239	12
310.031	12
310.823	10
311.615	9
312.407	10
313.199	7
313.991	10
314.783	8
315.574	7
316.366	7
317.157	8
317.949	9
318.74	8
319.531	6
320.322	7
321.113	7
321.904	8
322.695	8
323.486	8
324.277	8
325.068	7
325.858	9
326.649	8
327.439	7
328.23	6
329.02	6
329.81	9
330.6	5
331.391	6
332.181	6
332.971	7
333.76	6
334.55	5
335.34	5
336.13	5
336.919	6
337.709	8
338.498	9
339.287	7
340.077	6
340.866	5
341.655	5
342.444	7
343.233	6
344.022	4
344.811	6
345.6	5
346.388	6
347.177	7
347.965	7
348.754	5
349.542	6
350.33	5
351.119	5
351.907	8
352.695	4
353.483	4
354.271	5
355.059	4
355.846	8
356.634	6
357.422	6
358.209	4
358.997	5
359.784	5
360.571	4
361.359	4
362.146	4
362.933	7
363.72	6
364.507	5
365.294	4
366.081	4
366.867	6
367.654	3
368.44	5
369.227	2
370.013	3
370.8	7
371.586	6
372.372	6
373.158	6
373.944	3
374.73	5
375.516	3
376.302	5
377.088	4
377.873	5
378.659	5
379.445	6
380.23	4
381.015	3
381.801	6
382.586	6
383.371	3
384.156	5
384.941	3
385.726	5
386.511	5
387.296	6
388.08	4
388.865	3
389.649	7
390.434	6
391.218	6
392.003	4
392.787	5
393.571	5
394.355	5
395.139	7
395.923	6
396.707	7
397.491	7
398.274	4
399.058	6
399.842	6
400.625	4
401.408	7
402.192	6
402.975	9
403.758	5
404.541	7
405.324	6
406.107	7
406.89	7
407.673	8
408.456	7
409.238	7
410.021	7
410.803	7
411.586	5
412.368	7
413.151	9
413.933	9
414.715	8
415.497	8
416.279	8
417.061	11
417.843	7
418.624	8
419.406	10
420.188	12
420.969	9
421.751	11
422.532	9
423.313	9
424.095	10
424.876	12
425.657	11
426.438	9
427.219	13
428	11
428.78	15
429.561	13
430.342	11
431.122	14
431.903	14
432.683	13
433.464	13
434.244	14
435.024	17
435.804	16
436.584	20
437.364	19
438.144	17
438.924	19
439.704	23
440.483	22
441.263	21
442.042	24
442.822	27
443.601	27
444.38	27
445.16	31
445.939	32
446.718	36
447.497	38
448.276	40
449.054	48
449.833	49
450.612	50
451.391	55
452.169	60
452.948	66
453.726	75
454.504	78
455.282	88
456.061	97
456.839	106
457.617	120
458.395	135
459.172	147
459.95	166
460.728	186
461.506	201
462.283	236
463.061	251
463.838	283
464.615	315
465.393	359
466.17	396
466.947	448
467.724	494
468.501	550
469.278	614
470.055	671
470.831	758
471.608	843
472.385	936
473.161	1037
473.938	1156
474.714	1282
475.49	1424
476.266	1571
477.043	1743
477.819	1928
478.595	2145
479.371	2321
480.146	2605
480.922	2877
481.698	3171
482.473	3471
483.249	3853
484.024	4217
484.8	4665
485.575	5113
486.35	5603
487.126	6180
487.901	6795
488.676	7419
489.451	8186
490.225	8911
491	9781
491.775	10701
492.55	11674
493.324	12603
494.099	13671
494.873	14696
495.647	15848
496.422	17037
497.196	18191
497.97	19438
498.744	20667
499.518	21852
500.292	22991
501.066	24105
501.839	25015
502.613	25927
503.387	26662
504.16	27270
504.934	27555
505.707	27751
506.48	27798
507.253	27618
508.027	27293
508.8	27031
509.573	26498
510.346	25901
511.118	25007
511.891	24280
512.664	23393
513.437	22529
514.209	21516
514.982	20648
515.754	19678
516.526	18807
517.298	18046
518.071	17165
518.843	16550
519.615	15952
520.387	15283
521.159	14678
521.93	14055
522.702	13558
523.474	12962
524.245	12351
525.017	11852
525.788	11377
526.56	10907
527.331	10395
528.102	9919
528.873	9512
529.644	8979
530.415	8549
531.186	8075
531.957	7680
532.728	7270
533.498	6934
534.269	6504
535.039	6161
535.81	5821
536.58	5519
537.351	5164
538.121	4884
538.891	4634
539.661	4389
540.431	4121
541.201	3896
541.971	3712
542.741	3512
543.51	3321
544.28	3168
545.05	3014
545.819	2859
546.588	2712
547.358	2594
548.127	2465
548.896	2330
549.665	2209
550.434	2106
551.203	1998
551.972	1875
552.741	1788
553.51	1664
554.278	1605
555.047	1505
555.815	1411
556.584	1332
557.352	1253
558.121	1186
558.889	1120
559.657	1055
560.425	1002
561.193	944
561.961	881
562.729	840
563.496	803
564.264	745
565.032	712
565.799	681
566.567	635
567.334	592
568.101	567
568.869	541
569.636	510
570.403	472
571.17	445
571.937	418
572.704	389
573.471	377
574.237	355
575.004	331
575.771	315
576.537	293
577.303	280
578.07	262
578.836	244
579.602	235
580.368	220
581.134	209
581.9	200
582.666	191
583.432	175
584.198	174
584.964	158
585.729	160
586.495	142
587.26	135
588.025	132
588.791	119
589.556	111
590.321	108
591.086	103
591.851	104
592.616	94
593.381	89
594.146	86
594.911	84
595.675	77
596.44	71
597.204	65
597.969	66
598.733	67
599.497	65
600.261	58
601.025	57
601.79	55
602.553	53
603.317	48
604.081	46
604.845	50
605.609	45
606.372	40
607.136	38
607.899	36
608.662	33
609.426	34
610.189	31
610.952	31
611.715	29
612.478	28
613.241	27
614.004	26
614.767	28
615.529	24
616.292	23
617.055	25
617.817	24
618.579	23
619.342	20
620.104	22
620.866	21
621.628	17
622.39	19
623.152	17
623.914	17
624.676	17
625.438	15
626.199	14
626.961	13
627.722	16
628.484	16
629.245	13
630.006	13
630.768	11
631.529	12
632.29	9
633.051	14
633.812	11
634.573	8
635.333	10
636.094	9
636.855	13
637.615	12
638.376	10
639.136	9
639.896	9
640.657	11
641.417	8
642.177	10
642.937	9
643.697	9
644.457	9
645.216	5
645.976	9
646.736	6
647.495	9
648.255	7
649.014	7
649.774	8
650.533	4
651.292	7
652.051	8
652.81	6
653.569	6
654.328	5
655.087	7
655.846	3
656.604	6
657.363	7
658.121	6
658.88	7
659.638	6
660.397	4
661.155	6
661.913	6
662.671	6
663.429	5
664.187	7
664.945	4
665.703	4
666.46	5
667.218	4
667.976	4
668.733	4
669.49	5
670.248	6
671.005	5
671.762	3
672.519	6
673.276	3
674.033	3
674.79	4
675.547	7
676.304	2
677.06	3
677.817	1
678.574	5
679.33	4
680.086	5
680.843	4
681.599	3
682.355	5
683.111	2
683.867	3
684.623	7
685.379	2
686.135	3
686.89	2
687.646	5
688.402	5
689.157	3
689.912	4
690.668	4
691.423	2
692.178	2
692.933	2
693.688	4
694.443	4
695.198	4
695.953	4
696.708	4
697.462	4
698.217	3
698.972	3
699.726	4
700.48	3
701.235	5
701.989	2
702.743	1
703.497	3
704.251	3
705.005	2
705.759	5
706.513	1
707.266	4
708.02	2
708.774	3
709.527	3
710.28	2
711.034	2
711.787	2
712.54	3
713.293	3
714.046	1
714.799	3
715.552	1
716.305	5
717.058	2
717.81	4
718.563	4
719.315	5
720.068	4
720.82	4
721.573	7
722.325	4
723.077	3
723.829	2
724.581	1
725.333	5
726.085	1
726.836	3
727.588	1
728.34	5
729.091	3
729.843	2
730.594	3
731.346	3
732.097	5
732.848	3
733.599	4
734.35	4
735.101	3
735.852	3
736.603	3
737.354	2
738.104	4
738.855	4
739.605	2
740.356	3
741.106	4
741.856	4
742.607	3
743.357	4
744.107	3
744.857	4
745.607	5
746.357	7
747.106	3
747.856	2
748.606	4
749.355	6
750.105	4
750.854	3
751.603	3
752.353	5
753.102	5
753.851	4
754.6	5
755.349	3
756.098	6
756.847	6
757.595	6
758.344	7
759.093	4
759.841	6
760.589	6
761.338	6
762.086	5
762.834	6
763.582	5
764.331	7
765.079	7
765.826	7
766.574	3
767.322	7
768.07	7
768.817	6
769.565	10
770.312	7
771.06	7
771.807	5
772.554	8
773.302	8
774.049	6
774.796	8
775.543	5
776.29	9
777.036	7
777.783	7
778.53	8
779.276	8
780.023	8
780.769	9
781.516	7
782.262	9
783.008	7
783.754	10
784.5	9
785.246	9
785.992	8
786.738	6
787.484	11
788.23	9
788.975	6
789.721	9
790.466	7
791.212	9
791.957	8
792.702	10
793.447	7
794.193	6
794.938	9
795.683	5
796.427	7
797.172	6
797.917	10
798.662	7
799.406	7
800.151	8
800.895	6
801.64	8
802.384	4
803.128	9
803.872	5
804.616	3
805.36	6
806.104	5
806.848	6
807.592	5
808.336	6
809.079	6
809.823	4
810.566	3
811.31	8
812.053	7
812.796	6
813.539	3
814.283	6
815.026	6
815.769	6
816.511	4
817.254	6
817.997	5
818.74	4
819.482	4
820.225	7
820.967	6
821.71	2
822.452	4
823.194	5
823.936	3
824.678	4
825.42	5
826.162	1
826.904	5
827.646	2
828.388	4
829.129	2
829.871	2
830.612	4
831.354	2
832.095	2
832.836	3
833.577	6
834.319	3
835.06	0
835.801	3
836.542	2
837.282	5
838.023	2
838.764	4
839.504	4
840.245	1
840.985	4
841.726	3
842.466	3
843.206	2
843.946	3
844.687	2
845.427	1
846.166	3
846.906	0
847.646	2
848.386	4
849.125	1
849.865	2
850.605	2
851.344	2
852.083	3
852.823	3
853.562	4
854.301	1
855.04	1
855.779	1
856.518	2
857.257	1
857.995	1
858.734	3
859.473	2
860.211	3
860.95	-1
861.688	2
862.426	-1
863.165	1
863.903	0
864.641	1
865.379	2
866.117	2
866.855	0
867.593	0
868.33	2
869.068	4
869.806	-1
870.543	1
871.28	3
872.018	1
872.755	1
873.492	1
874.229	1
874.967	2
875.703	0
876.44	0
877.177	0
877.914	2
878.651	0
879.387	0
880.124	1
880.86	-2
881.597	0
882.333	0
883.069	1
883.806	-1
884.542	0
885.278	1
886.014	3
886.749	1
887.485	0
888.221	3
888.957	1
889.692	1
890.428	1
891.163	0
891.899	4
892.634	1
893.369	1
894.104	2
894.839	2
895.574	2
896.309	1
897.044	0
897.779	-1
898.514	-1
899.248	0
899.983	0
900.717	1
901.452	0
902.186	1
902.92	1
903.654	-1
904.389	0
905.123	0
905.857	1
906.59	-1
907.324	1
908.058	1
908.792	-1
909.525	-1
910.259	-1
910.992	0
911.726	1
912.459	1
913.192	0
913.925	0
914.658	1
915.391	-1
916.124	-1
916.857	0
917.59	-1
918.323	1
919.055	-1
919.788	2
920.521	0
921.253	1
921.985	0
922.718	0
923.45	1
924.182	0
924.914	1
925.646	0
926.378	-1
927.11	0
927.841	2
928.573	0
929.305	-2
930.036	-1
930.768	0
931.499	0
932.23	0
932.962	0
933.693	2
934.424	-1
935.155	-1
935.886	0
936.617	0
937.348	-1
938.078	-1
938.809	-1
939.54	-1
940.27	1
941.001	0
941.731	-1
942.461	1
943.191	0
943.922	1
944.652	1
945.382	-1
946.112	1
946.841	-2
947.571	0
948.301	1
949.031	0
949.76	-1
950.49	-2
951.219	-1
951.948	-1
952.678	0
953.407	1
954.136	0
954.865	0
955.594	-2
956.323	1
957.052	-1
957.78	-1
958.509	-2
959.238	-1
959.966	1
960.695	0
961.423	0
962.151	-1
962.88	1
963.608	-2
964.336	0
965.064	0
965.792	1
966.52	1
967.247	-1
967.975	-1
968.703	-1
969.43	0
970.158	0
970.885	0
971.613	-2
972.34	-1
973.067	-1
973.794	-1
974.521	-1
975.248	-1
975.975	2
976.702	0
977.429	-1
978.156	-1
978.882	3
979.609	0
980.335	-2
981.062	-3
981.788	-1
982.514	0
983.24	1
983.967	0
984.693	-1
985.419	-2
986.144	0
986.87	-3
987.596	0
988.322	-1
989.047	-1
989.773	1
990.498	0
991.224	-1
991.949	0
992.674	1
993.399	-4
994.124	1
994.849	-1
995.574	-1
996.299	3
997.024	0
997.749	-1
998.473	0
999.198	0
999.922	1
1000.647	0
1001.371	2
1002.095	0
1002.82	-2
1003.544	0
1004.268	2
1004.992	0
1005.716	1
1006.439	1
1007.163	2
1007.887	1
1008.611	0
1009.334	0
1010.058	-1
1010.781	-1
1011.504	0
1012.228	1
1012.951	0
1013.674	1
1014.397	0
1015.12	-1
