节点500_285_QEPB04081__245__14-59-37-915.txt的数据

Date: Wed Nov 12 14:59:37 CST 2025
User: PC
Spectrometer: QEPB0408
触发模式: 0
积分时间 (秒): 1.000000E-2
Scans to average: 1
启用暗噪声校正: true
启用非线性校正: false
滑动平均宽度: 0
X轴模式: Wavelengths
Number of Pixels in Spectrum: 1044
>>>>>Begin Spectral Data<<<<<
220.843	1.38
221.644	1.38
222.444	3.38
223.244	1.38
224.045	1.38
224.845	1.38
225.645	2.38
226.445	1.38
227.245	1.38
228.045	4.38
228.845	2.38
229.645	1.38
230.444	2.38
231.244	3.38
232.043	4.38
232.843	3.38
233.642	2.38
234.442	4.38
235.241	3.38
236.04	3.38
236.839	4.38
237.638	4.38
238.437	4.38
239.236	1.38
240.035	3.38
240.833	6.38
241.632	3.38
242.43	4.38
243.229	3.38
244.027	4.38
244.826	4.38
245.624	7.38
246.422	5.38
247.22	6.38
248.018	4.38
248.816	7.38
249.614	6.38
250.412	5.38
251.21	7.38
252.007	9.38
252.805	7.38
253.602	8.38
254.4	6.38
255.197	7.38
255.994	11.38
256.791	8.38
257.589	8.38
258.386	8.38
259.183	9.38
259.979	9.38
260.776	8.38
261.573	11.38
262.37	7.38
263.166	11.38
263.963	14.38
264.759	13.38
265.556	12.38
266.352	13.38
267.148	14.38
267.944	14.38
268.74	11.38
269.536	13.38
270.332	13.38
271.128	16.38
271.924	16.38
272.719	16.38
273.515	16.38
274.311	17.38
275.106	16.38
275.901	16.38
276.697	19.38
277.492	19.38
278.287	18.38
279.082	16.38
279.877	17.38
280.672	21.38
281.467	17.38
282.262	20.38
283.056	19.38
283.851	20.38
284.646	20.38
285.44	20.38
286.234	20.38
287.029	20.38
287.823	16.38
288.617	20.38
289.411	16.38
290.205	17.38
290.999	16.38
291.793	20.38
292.587	17.38
293.381	14.38
294.174	16.38
294.968	16.38
295.761	16.38
296.555	16.38
297.348	13.38
298.141	15.38
298.935	15.38
299.728	18.38
300.521	12.38
301.314	15.38
302.107	13.38
302.899	12.38
303.692	12.38
304.485	13.38
305.277	14.38
306.07	10.38
306.862	11.38
307.655	11.38
308.447	14.38
309.239	11.38
310.031	8.38
310.823	11.38
311.615	9.38
312.407	11.38
313.199	9.38
313.991	10.38
314.783	9.38
315.574	11.38
316.366	12.38
317.157	6.38
317.949	9.38
318.74	7.38
319.531	6.38
320.322	7.38
321.113	7.38
321.904	7.38
322.695	8.38
323.486	5.38
324.277	5.38
325.068	8.38
325.858	6.38
326.649	7.38
327.439	8.38
328.23	7.38
329.02	4.38
329.81	7.38
330.6	5.38
331.391	6.38
332.181	5.38
332.971	5.38
333.76	5.38
334.55	6.38
335.34	7.38
336.13	6.38
336.919	9.38
337.709	7.38
338.498	6.38
339.287	4.38
340.077	7.38
340.866	9.38
341.655	7.38
342.444	5.38
343.233	5.38
344.022	6.38
344.811	5.38
345.6	6.38
346.388	5.38
347.177	4.38
347.965	6.38
348.754	6.38
349.542	5.38
350.33	7.38
351.119	7.38
351.907	4.38
352.695	6.38
353.483	6.38
354.271	7.38
355.059	2.38
355.846	6.38
356.634	5.38
357.422	2.38
358.209	7.38
358.997	5.38
359.784	7.38
360.571	5.38
361.359	7.38
362.146	6.38
362.933	4.38
363.72	6.38
364.507	6.38
365.294	4.38
366.081	4.38
366.867	5.38
367.654	6.38
368.44	5.38
369.227	5.38
370.013	3.38
370.8	2.38
371.586	5.38
372.372	6.38
373.158	6.38
373.944	6.38
374.73	5.38
375.516	6.38
376.302	2.38
377.088	1.38
377.873	4.38
378.659	6.38
379.445	6.38
380.23	4.38
381.015	5.38
381.801	5.38
382.586	5.38
383.371	3.38
384.156	4.38
384.941	3.38
385.726	6.38
386.511	4.38
387.296	4.38
388.08	6.38
388.865	7.38
389.649	4.38
390.434	5.38
391.218	5.38
392.003	5.38
392.787	6.38
393.571	4.38
394.355	8.38
395.139	7.38
395.923	6.38
396.707	5.38
397.491	6.38
398.274	7.38
399.058	8.38
399.842	8.38
400.625	6.38
401.408	7.38
402.192	10.38
402.975	6.38
403.758	7.38
404.541	5.38
405.324	8.38
406.107	7.38
406.89	7.38
407.673	8.38
408.456	7.38
409.238	7.38
410.021	6.38
410.803	8.38
411.586	8.38
412.368	10.38
413.151	9.38
413.933	10.38
414.715	9.38
415.497	9.38
416.279	13.38
417.061	10.38
417.843	9.38
418.624	11.38
419.406	10.38
420.188	8.38
420.969	9.38
421.751	11.38
422.532	13.38
423.313	9.38
424.095	10.38
424.876	11.38
425.657	12.38
426.438	14.38
427.219	14.38
428	11.38
428.78	10.38
429.561	13.38
430.342	11.38
431.122	14.38
431.903	15.38
432.683	16.38
433.464	17.38
434.244	17.38
435.024	15.38
435.804	20.38
436.584	17.38
437.364	18.38
438.144	17.38
438.924	20.38
439.704	22.38
440.483	25.38
441.263	22.38
442.042	24.38
442.822	27.38
443.601	28.38
444.38	32.38
445.16	32.38
445.939	34.38
446.718	37.38
447.497	38.38
448.276	41.38
449.054	43.38
449.833	45.38
450.612	51.38
451.391	56.38
452.169	61.38
452.948	65.38
453.726	72.38
454.504	79.38
455.282	85.38
456.061	100.38
456.839	106.38
457.617	122.38
458.395	128.38
459.172	148.38
459.95	160.38
460.728	183.38
461.506	201.38
462.283	223.38
463.061	253.38
463.838	280.38
464.615	316.38
465.393	345.38
466.17	386.38
466.947	441.38
467.724	489.38
468.501	547.38
469.278	603.38
470.055	673.38
470.831	755.38
471.608	839.38
472.385	943.38
473.161	1036.38
473.938	1161.38
474.714	1293.38
475.49	1419.38
476.266	1573.38
477.043	1728.38
477.819	1919.38
478.595	2130.38
479.371	2337.38
480.146	2580.38
480.922	2855.38
481.698	3177.38
482.473	3487.38
483.249	3832.38
484.024	4216.38
484.8	4661.38
485.575	5136.38
486.35	5622.38
487.126	6202.38
487.901	6857.38
488.676	7469.38
489.451	8202.38
490.225	8985.38
491	9836.38
491.775	10748.38
492.55	11690.38
493.324	12718.38
494.099	13725.38
494.873	14774.38
495.647	15980.38
496.422	17110.38
497.196	18361.38
497.97	19636.38
498.744	20752.38
499.518	21953.38
500.292	23102.38
501.066	24243.38
501.839	25185.38
502.613	26034.38
503.387	26810.38
504.16	27432.38
504.934	27725.38
505.707	27853.38
506.48	27885.38
507.253	27698.38
508.027	27353.38
508.8	27094.38
509.573	26545.38
510.346	25936.38
511.118	25127.38
511.891	24272.38
512.664	23345.38
513.437	22449.38
514.209	21452.38
514.982	20566.38
515.754	19671.38
516.526	18761.38
517.298	18025.38
518.071	17186.38
518.843	16519.38
519.615	15956.38
520.387	15217.38
521.159	14611.38
521.93	14038.38
522.702	13522.38
523.474	12957.38
524.245	12377.38
525.017	11856.38
525.788	11407.38
526.56	10880.38
527.331	10353.38
528.102	9894.38
528.873	9456.38
529.644	8906.38
530.415	8485.38
531.186	8105.38
531.957	7639.38
532.728	7272.38
533.498	6865.38
534.269	6487.38
535.039	6123.38
535.81	5807.38
536.58	5489.38
537.351	5126.38
538.121	4861.38
538.891	4614.38
539.661	4347.38
540.431	4094.38
541.201	3888.38
541.971	3678.38
542.741	3490.38
543.51	3307.38
544.28	3171.38
545.05	2997.38
545.819	2862.38
546.588	2712.38
547.358	2571.38
548.127	2453.38
548.896	2322.38
549.665	2205.38
550.434	2088.38
551.203	1984.38
551.972	1867.38
552.741	1770.38
553.51	1661.38
554.278	1562.38
555.047	1482.38
555.815	1403.38
556.584	1321.38
557.352	1246.38
558.121	1184.38
558.889	1109.38
559.657	1058.38
560.425	990.38
561.193	929.38
561.961	884.38
562.729	843.38
563.496	795.38
564.264	742.38
565.032	702.38
565.799	666.38
566.567	632.38
567.334	589.38
568.101	561.38
568.869	531.38
569.636	499.38
570.403	466.38
571.17	447.38
571.937	424.38
572.704	393.38
573.471	375.38
574.237	352.38
575.004	327.38
575.771	312.38
576.537	295.38
577.303	281.38
578.07	262.38
578.836	250.38
579.602	230.38
580.368	220.38
581.134	206.38
581.9	196.38
582.666	182.38
583.432	177.38
584.198	167.38
584.964	162.38
585.729	146.38
586.495	144.38
587.26	134.38
588.025	127.38
588.791	123.38
589.556	115.38
590.321	108.38
591.086	102.38
591.851	94.38
592.616	92.38
593.381	90.38
594.146	86.38
594.911	79.38
595.675	76.38
596.44	71.38
597.204	65.38
597.969	65.38
598.733	63.38
599.497	60.38
600.261	58.38
601.025	56.38
601.79	55.38
602.553	52.38
603.317	44.38
604.081	49.38
604.845	42.38
605.609	43.38
606.372	41.38
607.136	39.38
607.899	40.38
608.662	33.38
609.426	35.38
610.189	33.38
610.952	35.38
611.715	31.38
612.478	29.38
613.241	31.38
614.004	28.38
614.767	30.38
615.529	26.38
616.292	26.38
617.055	21.38
617.817	26.38
618.579	22.38
619.342	22.38
620.104	20.38
620.866	17.38
621.628	21.38
622.39	18.38
623.152	18.38
623.914	19.38
624.676	17.38
625.438	18.38
626.199	15.38
626.961	15.38
627.722	14.38
628.484	13.38
629.245	14.38
630.006	12.38
630.768	14.38
631.529	12.38
632.29	11.38
633.051	11.38
633.812	11.38
634.573	11.38
635.333	10.38
636.094	9.38
636.855	9.38
637.615	10.38
638.376	6.38
639.136	11.38
639.896	9.38
640.657	9.38
641.417	9.38
642.177	8.38
642.937	10.38
643.697	8.38
644.457	8.38
645.216	9.38
645.976	7.38
646.736	8.38
647.495	6.38
648.255	8.38
649.014	7.38
649.774	8.38
650.533	7.38
651.292	6.38
652.051	6.38
652.81	7.38
653.569	7.38
654.328	7.38
655.087	7.38
655.846	6.38
656.604	5.38
657.363	5.38
658.121	7.38
658.88	6.38
659.638	5.38
660.397	4.38
661.155	7.38
661.913	5.38
662.671	6.38
663.429	5.38
664.187	5.38
664.945	4.38
665.703	4.38
666.46	6.38
667.218	5.38
667.976	6.38
668.733	3.38
669.49	4.38
670.248	6.38
671.005	3.38
671.762	6.38
672.519	6.38
673.276	6.38
674.033	5.38
674.79	7.38
675.547	5.38
676.304	2.38
677.06	2.38
677.817	5.38
678.574	2.38
679.33	5.38
680.086	3.38
680.843	5.38
681.599	1.38
682.355	1.38
683.111	6.38
683.867	3.38
684.623	5.38
685.379	4.38
686.135	2.38
686.89	2.38
687.646	2.38
688.402	5.38
689.157	3.38
689.912	4.38
690.668	3.38
691.423	2.38
692.178	2.38
692.933	4.38
693.688	5.38
694.443	1.38
695.198	4.38
695.953	3.38
696.708	2.38
697.462	4.38
698.217	3.38
698.972	2.38
699.726	2.38
700.48	5.38
701.235	2.38
701.989	3.38
702.743	1.38
703.497	3.38
704.251	3.38
705.005	3.38
705.759	3.38
706.513	3.38
707.266	1.38
708.02	3.38
708.774	3.38
709.527	3.38
710.28	3.38
711.034	2.38
711.787	4.38
712.54	4.38
713.293	3.38
714.046	6.38
714.799	2.38
715.552	4.38
716.305	1.38
717.058	2.38
717.81	3.38
718.563	5.38
719.315	3.38
720.068	1.38
720.82	2.38
721.573	4.38
722.325	4.38
723.077	2.38
723.829	3.38
724.581	3.38
725.333	3.38
726.085	3.38
726.836	3.38
727.588	5.38
728.34	3.38
729.091	2.38
729.843	3.38
730.594	3.38
731.346	2.38
732.097	3.38
732.848	4.38
733.599	4.38
734.35	0.38
735.101	5.38
735.852	4.38
736.603	4.38
737.354	3.38
738.104	2.38
738.855	4.38
739.605	2.38
740.356	3.38
741.106	4.38
741.856	2.38
742.607	5.38
743.357	4.38
744.107	4.38
744.857	4.38
745.607	3.38
746.357	4.38
747.106	5.38
747.856	4.38
748.606	5.38
749.355	7.38
750.105	5.38
750.854	6.38
751.603	6.38
752.353	3.38
753.102	8.38
753.851	6.38
754.6	6.38
755.349	5.38
756.098	5.38
756.847	5.38
757.595	2.38
758.344	5.38
759.093	6.38
759.841	7.38
760.589	6.38
761.338	6.38
762.086	7.38
762.834	8.38
763.582	7.38
764.331	6.38
765.079	7.38
765.826	7.38
766.574	4.38
767.322	7.38
768.07	8.38
768.817	6.38
769.565	5.38
770.312	7.38
771.06	7.38
771.807	5.38
772.554	8.38
773.302	9.38
774.049	8.38
774.796	8.38
775.543	9.38
776.29	7.38
777.036	9.38
777.783	11.38
778.53	7.38
779.276	8.38
780.023	8.38
780.769	9.38
781.516	10.38
782.262	9.38
783.008	10.38
783.754	8.38
784.5	11.38
785.246	10.38
785.992	8.38
786.738	8.38
787.484	9.38
788.23	8.38
788.975	9.38
789.721	8.38
790.466	10.38
791.212	10.38
791.957	7.38
792.702	8.38
793.447	7.38
794.193	9.38
794.938	5.38
795.683	7.38
796.427	5.38
797.172	8.38
797.917	8.38
798.662	7.38
799.406	8.38
800.151	7.38
800.895	8.38
801.64	5.38
802.384	8.38
803.128	6.38
803.872	7.38
804.616	6.38
805.36	5.38
806.104	7.38
806.848	6.38
807.592	6.38
808.336	6.38
809.079	7.38
809.823	6.38
810.566	5.38
811.31	7.38
812.053	3.38
812.796	7.38
813.539	5.38
814.283	4.38
815.026	5.38
815.769	6.38
816.511	3.38
817.254	3.38
817.997	3.38
818.74	4.38
819.482	3.38
820.225	4.38
820.967	3.38
821.71	3.38
822.452	3.38
823.194	3.38
823.936	2.38
824.678	6.38
825.42	3.38
826.162	3.38
826.904	4.38
827.646	4.38
828.388	3.38
829.129	3.38
829.871	4.38
830.612	5.38
831.354	2.38
832.095	2.38
832.836	4.38
833.577	5.38
834.319	2.38
835.06	3.38
835.801	4.38
836.542	4.38
837.282	2.38
838.023	3.38
838.764	5.38
839.504	4.38
840.245	3.38
840.985	4.38
841.726	6.38
842.466	2.38
843.206	3.38
843.946	3.38
844.687	2.38
845.427	5.38
846.166	1.38
846.906	2.38
847.646	3.38
848.386	0.38
849.125	2.38
849.865	-0.62
850.605	3.38
851.344	0.38
852.083	2.38
852.823	2.38
853.562	1.38
854.301	4.38
855.04	4.38
855.779	2.38
856.518	2.38
857.257	2.38
857.995	3.38
858.734	0.38
859.473	4.38
860.211	1.38
860.95	4.38
861.688	2.38
862.426	0.38
863.165	0.38
863.903	4.38
864.641	2.38
865.379	0.38
866.117	1.38
866.855	2.38
867.593	1.38
868.33	2.38
869.068	1.38
869.806	1.38
870.543	2.38
871.28	1.38
872.018	3.38
872.755	0.38
873.492	0.38
874.229	2.38
874.967	1.38
875.703	0.38
876.44	1.38
877.177	0.38
877.914	-0.62
878.651	-0.62
879.387	0.38
880.124	1.38
880.86	1.38
881.597	1.38
882.333	0.38
883.069	-2.62
883.806	1.38
884.542	3.38
885.278	0.38
886.014	-0.62
886.749	0.38
887.485	1.38
888.221	1.38
888.957	2.38
889.692	2.38
890.428	0.38
891.163	2.38
891.899	-0.62
892.634	3.38
893.369	-0.62
894.104	0.38
894.839	-0.62
895.574	2.38
896.309	-0.62
897.044	-0.62
897.779	-0.62
898.514	0.38
899.248	0.38
899.983	1.38
900.717	-1.62
901.452	-0.62
902.186	0.38
902.92	1.38
903.654	1.38
904.389	-0.62
905.123	0.38
905.857	-0.62
906.59	1.38
907.324	1.38
908.058	-0.62
908.792	0.38
909.525	-1.62
910.259	-0.62
910.992	-0.62
911.726	1.38
912.459	-0.62
913.192	-0.62
913.925	0.38
914.658	-0.62
915.391	-1.62
916.124	1.38
916.857	0.38
917.59	1.38
918.323	-0.62
919.055	2.38
919.788	2.38
920.521	2.38
921.253	2.38
921.985	0.38
922.718	1.38
923.45	-0.62
924.182	1.38
924.914	0.38
925.646	0.38
926.378	-2.62
927.11	-1.62
927.841	1.38
928.573	1.38
929.305	1.38
930.036	0.38
930.768	-0.62
931.499	-0.62
932.23	-0.62
932.962	-0.62
933.693	1.38
934.424	0.38
935.155	0.38
935.886	-1.62
936.617	-0.62
937.348	-0.62
938.078	1.38
938.809	-1.62
939.54	-2.62
940.27	-0.62
941.001	0.38
941.731	0.38
942.461	-0.62
943.191	1.38
943.922	0.38
944.652	-0.62
945.382	-0.62
946.112	-1.62
946.841	-1.62
947.571	0.38
948.301	0.38
949.031	-0.62
949.76	-0.62
950.49	-0.62
951.219	1.38
951.948	1.38
952.678	1.38
953.407	1.38
954.136	1.38
954.865	2.38
955.594	-0.62
956.323	1.38
957.052	1.38
957.78	1.38
958.509	1.38
959.238	1.38
959.966	0.38
960.695	2.38
961.423	1.38
962.151	-0.62
962.88	1.38
963.608	-0.62
964.336	1.38
965.064	-2.62
965.792	1.38
966.52	-0.62
967.247	-0.62
967.975	0.38
968.703	-0.62
969.43	1.38
970.158	0.38
970.885	-1.62
971.613	-2.62
972.34	0.38
973.067	1.38
973.794	-0.62
974.521	0.38
975.248	1.38
975.975	-0.62
976.702	-0.62
977.429	-0.62
978.156	-0.62
978.882	0.38
979.609	-0.62
980.335	-0.62
981.062	0.38
981.788	-0.62
982.514	1.38
983.24	-0.62
983.967	1.38
984.693	1.38
985.419	-0.62
986.144	-1.62
986.87	1.38
987.596	-0.62
988.322	0.38
989.047	0.38
989.773	-2.62
990.498	0.38
991.224	2.38
991.949	0.38
992.674	0.38
993.399	1.38
994.124	0.38
994.849	-0.62
995.574	1.38
996.299	1.38
997.024	1.38
997.749	-1.62
998.473	1.38
999.198	1.38
999.922	1.38
1000.647	0.38
1001.371	2.38
1002.095	0.38
1002.82	-0.62
1003.544	-0.62
1004.268	1.38
1004.992	1.38
1005.716	1.38
1006.439	1.38
1007.163	2.38
1007.887	1.38
1008.611	-0.62
1009.334	2.38
1010.058	1.38
1010.781	-2.62
1011.504	1.38
1012.228	2.38
1012.951	0.38
1013.674	-0.62
1014.397	-0.62
1015.12	-0.62
