节点500_285_QEPB04081__749__15-08-00-806.txt的数据

Date: Wed Nov 12 15:08:00 CST 2025
User: PC
Spectrometer: QEPB0408
触发模式: 0
积分时间 (秒): 1.000000E-2
Scans to average: 1
启用暗噪声校正: true
启用非线性校正: false
滑动平均宽度: 0
X轴模式: Wavelengths
Number of Pixels in Spectrum: 1044
>>>>>Begin Spectral Data<<<<<
220.843	3.12
221.644	-0.88
222.444	2.12
223.244	3.12
224.045	2.12
224.845	1.12
225.645	2.12
226.445	4.12
227.245	2.12
228.045	4.12
228.845	3.12
229.645	2.12
230.444	2.12
231.244	1.12
232.043	4.12
232.843	2.12
233.642	4.12
234.442	1.12
235.241	2.12
236.04	2.12
236.839	6.12
237.638	5.12
238.437	5.12
239.236	2.12
240.035	4.12
240.833	4.12
241.632	5.12
242.43	3.12
243.229	5.12
244.027	4.12
244.826	5.12
245.624	5.12
246.422	4.12
247.22	6.12
248.018	5.12
248.816	8.12
249.614	8.12
250.412	4.12
251.21	7.12
252.007	5.12
252.805	5.12
253.602	5.12
254.4	7.12
255.197	5.12
255.994	6.12
256.791	8.12
257.589	6.12
258.386	10.12
259.183	8.12
259.979	8.12
260.776	10.12
261.573	10.12
262.37	8.12
263.166	9.12
263.963	10.12
264.759	10.12
265.556	10.12
266.352	10.12
267.148	10.12
267.944	14.12
268.74	13.12
269.536	14.12
270.332	10.12
271.128	14.12
271.924	15.12
272.719	15.12
273.515	13.12
274.311	12.12
275.106	17.12
275.901	13.12
276.697	16.12
277.492	17.12
278.287	15.12
279.082	16.12
279.877	14.12
280.672	14.12
281.467	19.12
282.262	15.12
283.056	14.12
283.851	14.12
284.646	18.12
285.44	18.12
286.234	18.12
287.029	16.12
287.823	18.12
288.617	19.12
289.411	18.12
290.205	17.12
290.999	16.12
291.793	15.12
292.587	16.12
293.381	14.12
294.174	15.12
294.968	16.12
295.761	14.12
296.555	13.12
297.348	13.12
298.141	14.12
298.935	18.12
299.728	14.12
300.521	16.12
301.314	12.12
302.107	14.12
302.899	13.12
303.692	13.12
304.485	11.12
305.277	10.12
306.07	12.12
306.862	15.12
307.655	13.12
308.447	13.12
309.239	16.12
310.031	12.12
310.823	11.12
311.615	11.12
312.407	13.12
313.199	11.12
313.991	9.12
314.783	10.12
315.574	8.12
316.366	9.12
317.157	9.12
317.949	7.12
318.74	8.12
319.531	7.12
320.322	8.12
321.113	9.12
321.904	7.12
322.695	6.12
323.486	7.12
324.277	7.12
325.068	6.12
325.858	8.12
326.649	8.12
327.439	7.12
328.23	8.12
329.02	8.12
329.81	7.12
330.6	8.12
331.391	3.12
332.181	7.12
332.971	9.12
333.76	7.12
334.55	5.12
335.34	8.12
336.13	6.12
336.919	3.12
337.709	9.12
338.498	6.12
339.287	8.12
340.077	6.12
340.866	6.12
341.655	7.12
342.444	5.12
343.233	6.12
344.022	7.12
344.811	7.12
345.6	6.12
346.388	6.12
347.177	4.12
347.965	7.12
348.754	4.12
349.542	6.12
350.33	4.12
351.119	5.12
351.907	9.12
352.695	5.12
353.483	2.12
354.271	4.12
355.059	1.12
355.846	4.12
356.634	6.12
357.422	4.12
358.209	5.12
358.997	4.12
359.784	4.12
360.571	2.12
361.359	7.12
362.146	6.12
362.933	5.12
363.72	4.12
364.507	5.12
365.294	7.12
366.081	4.12
366.867	4.12
367.654	2.12
368.44	7.12
369.227	5.12
370.013	4.12
370.8	5.12
371.586	5.12
372.372	5.12
373.158	5.12
373.944	2.12
374.73	7.12
375.516	5.12
376.302	7.12
377.088	5.12
377.873	5.12
378.659	7.12
379.445	4.12
380.23	4.12
381.015	4.12
381.801	6.12
382.586	6.12
383.371	7.12
384.156	5.12
384.941	3.12
385.726	4.12
386.511	5.12
387.296	7.12
388.08	4.12
388.865	6.12
389.649	7.12
390.434	5.12
391.218	9.12
392.003	4.12
392.787	6.12
393.571	6.12
394.355	4.12
395.139	4.12
395.923	8.12
396.707	6.12
397.491	6.12
398.274	6.12
399.058	6.12
399.842	4.12
400.625	6.12
401.408	7.12
402.192	7.12
402.975	5.12
403.758	9.12
404.541	6.12
405.324	6.12
406.107	7.12
406.89	6.12
407.673	7.12
408.456	6.12
409.238	7.12
410.021	5.12
410.803	7.12
411.586	6.12
412.368	8.12
413.151	10.12
413.933	8.12
414.715	7.12
415.497	10.12
416.279	8.12
417.061	10.12
417.843	8.12
418.624	10.12
419.406	11.12
420.188	11.12
420.969	8.12
421.751	9.12
422.532	12.12
423.313	10.12
424.095	10.12
424.876	8.12
425.657	9.12
426.438	11.12
427.219	14.12
428	12.12
428.78	12.12
429.561	12.12
430.342	14.12
431.122	13.12
431.903	17.12
432.683	14.12
433.464	19.12
434.244	14.12
435.024	17.12
435.804	19.12
436.584	17.12
437.364	19.12
438.144	21.12
438.924	19.12
439.704	22.12
440.483	23.12
441.263	23.12
442.042	27.12
442.822	25.12
443.601	27.12
444.38	33.12
445.16	34.12
445.939	34.12
446.718	38.12
447.497	42.12
448.276	45.12
449.054	52.12
449.833	51.12
450.612	57.12
451.391	60.12
452.169	70.12
452.948	75.12
453.726	83.12
454.504	92.12
455.282	94.12
456.061	113.12
456.839	126.12
457.617	139.12
458.395	147.12
459.172	171.12
459.95	186.12
460.728	206.12
461.506	236.12
462.283	257.12
463.061	288.12
463.838	317.12
464.615	357.12
465.393	394.12
466.17	451.12
466.947	493.12
467.724	538.12
468.501	595.12
469.278	665.12
470.055	740.12
470.831	817.12
471.608	886.12
472.385	1002.12
473.161	1089.12
473.938	1211.12
474.714	1329.12
475.49	1469.12
476.266	1605.12
477.043	1753.12
477.819	1946.12
478.595	2118.12
479.371	2327.12
480.146	2565.12
480.922	2797.12
481.698	3068.12
482.473	3335.12
483.249	3660.12
484.024	3995.12
484.8	4362.12
485.575	4758.12
486.35	5171.12
487.126	5665.12
487.901	6172.12
488.676	6706.12
489.451	7288.12
490.225	7954.12
491	8555.12
491.775	9356.12
492.55	10177.12
493.324	10934.12
494.099	11765.12
494.873	12615.12
495.647	13595.12
496.422	14612.12
497.196	15597.12
497.97	16618.12
498.744	17663.12
499.518	18726.12
500.292	19735.12
501.066	20754.12
501.839	21711.12
502.613	22499.12
503.387	23367.12
504.16	24094.12
504.934	24618.12
505.707	24860.12
506.48	25214.12
507.253	25268.12
508.027	25296.12
508.8	25223.12
509.573	25034.12
510.346	24737.12
511.118	24194.12
511.891	23676.12
512.664	23015.12
513.437	22265.12
514.209	21530.12
514.982	20766.12
515.754	19934.12
516.526	19129.12
517.298	18305.12
518.071	17585.12
518.843	16918.12
519.615	16316.12
520.387	15679.12
521.159	15055.12
521.93	14476.12
522.702	13874.12
523.474	13297.12
524.245	12720.12
525.017	12191.12
525.788	11773.12
526.56	11253.12
527.331	10686.12
528.102	10264.12
528.873	9841.12
529.644	9370.12
530.415	8971.12
531.186	8530.12
531.957	8090.12
532.728	7692.12
533.498	7321.12
534.269	6920.12
535.039	6584.12
535.81	6231.12
536.58	5877.12
537.351	5532.12
538.121	5266.12
538.891	4973.12
539.661	4701.12
540.431	4459.12
541.201	4208.12
541.971	3975.12
542.741	3780.12
543.51	3572.12
544.28	3426.12
545.05	3233.12
545.819	3083.12
546.588	2932.12
547.358	2780.12
548.127	2652.12
548.896	2510.12
549.665	2404.12
550.434	2265.12
551.203	2138.12
551.972	2042.12
552.741	1933.12
553.51	1841.12
554.278	1712.12
555.047	1630.12
555.815	1538.12
556.584	1461.12
557.352	1369.12
558.121	1303.12
558.889	1233.12
559.657	1165.12
560.425	1086.12
561.193	1030.12
561.961	967.12
562.729	938.12
563.496	877.12
564.264	821.12
565.032	779.12
565.799	737.12
566.567	702.12
567.334	658.12
568.101	625.12
568.869	594.12
569.636	550.12
570.403	522.12
571.17	487.12
571.937	465.12
572.704	437.12
573.471	414.12
574.237	389.12
575.004	369.12
575.771	339.12
576.537	329.12
577.303	306.12
578.07	295.12
578.836	272.12
579.602	254.12
580.368	245.12
581.134	232.12
581.9	216.12
582.666	207.12
583.432	200.12
584.198	188.12
584.964	178.12
585.729	167.12
586.495	156.12
587.26	152.12
588.025	140.12
588.791	134.12
589.556	126.12
590.321	122.12
591.086	107.12
591.851	108.12
592.616	103.12
593.381	96.12
594.146	94.12
594.911	89.12
595.675	84.12
596.44	80.12
597.204	74.12
597.969	71.12
598.733	74.12
599.497	67.12
600.261	63.12
601.025	58.12
601.79	62.12
602.553	57.12
603.317	54.12
604.081	52.12
604.845	50.12
605.609	50.12
606.372	48.12
607.136	44.12
607.899	42.12
608.662	40.12
609.426	39.12
610.189	35.12
610.952	33.12
611.715	31.12
612.478	35.12
613.241	33.12
614.004	29.12
614.767	30.12
615.529	29.12
616.292	27.12
617.055	27.12
617.817	24.12
618.579	22.12
619.342	25.12
620.104	20.12
620.866	23.12
621.628	23.12
622.39	19.12
623.152	21.12
623.914	18.12
624.676	21.12
625.438	17.12
626.199	16.12
626.961	18.12
627.722	18.12
628.484	17.12
629.245	14.12
630.006	15.12
630.768	12.12
631.529	17.12
632.29	12.12
633.051	16.12
633.812	14.12
634.573	10.12
635.333	12.12
636.094	10.12
636.855	11.12
637.615	11.12
638.376	9.12
639.136	10.12
639.896	12.12
640.657	11.12
641.417	8.12
642.177	8.12
642.937	10.12
643.697	8.12
644.457	9.12
645.216	7.12
645.976	10.12
646.736	7.12
647.495	7.12
648.255	8.12
649.014	9.12
649.774	5.12
650.533	7.12
651.292	9.12
652.051	8.12
652.81	5.12
653.569	7.12
654.328	8.12
655.087	7.12
655.846	5.12
656.604	7.12
657.363	3.12
658.121	7.12
658.88	4.12
659.638	8.12
660.397	6.12
661.155	6.12
661.913	5.12
662.671	6.12
663.429	7.12
664.187	6.12
664.945	3.12
665.703	6.12
666.46	6.12
667.218	6.12
667.976	6.12
668.733	5.12
669.49	3.12
670.248	2.12
671.005	6.12
671.762	3.12
672.519	6.12
673.276	5.12
674.033	4.12
674.79	3.12
675.547	5.12
676.304	4.12
677.06	3.12
677.817	5.12
678.574	4.12
679.33	6.12
680.086	4.12
680.843	4.12
681.599	5.12
682.355	4.12
683.111	3.12
683.867	2.12
684.623	4.12
685.379	4.12
686.135	3.12
686.89	6.12
687.646	5.12
688.402	5.12
689.157	6.12
689.912	4.12
690.668	5.12
691.423	1.12
692.178	2.12
692.933	3.12
693.688	4.12
694.443	4.12
695.198	4.12
695.953	5.12
696.708	2.12
697.462	4.12
698.217	5.12
698.972	2.12
699.726	3.12
700.48	3.12
701.235	6.12
701.989	3.12
702.743	3.12
703.497	3.12
704.251	3.12
705.005	2.12
705.759	2.12
706.513	3.12
707.266	3.12
708.02	2.12
708.774	4.12
709.527	5.12
710.28	3.12
711.034	2.12
711.787	6.12
712.54	3.12
713.293	2.12
714.046	3.12
714.799	3.12
715.552	4.12
716.305	2.12
717.058	4.12
717.81	3.12
718.563	5.12
719.315	4.12
720.068	4.12
720.82	3.12
721.573	4.12
722.325	3.12
723.077	2.12
723.829	3.12
724.581	3.12
725.333	3.12
726.085	6.12
726.836	1.12
727.588	2.12
728.34	2.12
729.091	0.12
729.843	5.12
730.594	2.12
731.346	6.12
732.097	1.12
732.848	4.12
733.599	6.12
734.35	4.12
735.101	4.12
735.852	2.12
736.603	4.12
737.354	5.12
738.104	2.12
738.855	5.12
739.605	5.12
740.356	7.12
741.106	4.12
741.856	2.12
742.607	5.12
743.357	4.12
744.107	6.12
744.857	5.12
745.607	6.12
746.357	4.12
747.106	6.12
747.856	5.12
748.606	6.12
749.355	6.12
750.105	5.12
750.854	5.12
751.603	5.12
752.353	5.12
753.102	5.12
753.851	6.12
754.6	7.12
755.349	5.12
756.098	6.12
756.847	5.12
757.595	7.12
758.344	1.12
759.093	4.12
759.841	6.12
760.589	4.12
761.338	6.12
762.086	4.12
762.834	3.12
763.582	6.12
764.331	6.12
765.079	7.12
765.826	5.12
766.574	6.12
767.322	6.12
768.07	5.12
768.817	8.12
769.565	6.12
770.312	7.12
771.06	7.12
771.807	4.12
772.554	6.12
773.302	4.12
774.049	6.12
774.796	8.12
775.543	7.12
776.29	6.12
777.036	5.12
777.783	8.12
778.53	7.12
779.276	9.12
780.023	5.12
780.769	8.12
781.516	8.12
782.262	7.12
783.008	8.12
783.754	8.12
784.5	7.12
785.246	9.12
785.992	8.12
786.738	8.12
787.484	9.12
788.23	7.12
788.975	8.12
789.721	10.12
790.466	8.12
791.212	8.12
791.957	8.12
792.702	3.12
793.447	8.12
794.193	8.12
794.938	6.12
795.683	10.12
796.427	8.12
797.172	8.12
797.917	5.12
798.662	9.12
799.406	6.12
800.151	7.12
800.895	6.12
801.64	4.12
802.384	7.12
803.128	8.12
803.872	11.12
804.616	5.12
805.36	6.12
806.104	6.12
806.848	8.12
807.592	8.12
808.336	5.12
809.079	8.12
809.823	6.12
810.566	6.12
811.31	5.12
812.053	5.12
812.796	7.12
813.539	4.12
814.283	5.12
815.026	5.12
815.769	3.12
816.511	4.12
817.254	6.12
817.997	4.12
818.74	6.12
819.482	3.12
820.225	6.12
820.967	2.12
821.71	5.12
822.452	5.12
823.194	5.12
823.936	5.12
824.678	2.12
825.42	6.12
826.162	3.12
826.904	2.12
827.646	3.12
828.388	3.12
829.129	5.12
829.871	2.12
830.612	3.12
831.354	2.12
832.095	2.12
832.836	4.12
833.577	4.12
834.319	2.12
835.06	3.12
835.801	6.12
836.542	4.12
837.282	6.12
838.023	5.12
838.764	3.12
839.504	2.12
840.245	5.12
840.985	4.12
841.726	3.12
842.466	5.12
843.206	3.12
843.946	3.12
844.687	4.12
845.427	2.12
846.166	5.12
846.906	2.12
847.646	2.12
848.386	3.12
849.125	2.12
849.865	1.12
850.605	1.12
851.344	2.12
852.083	2.12
852.823	1.12
853.562	2.12
854.301	0.12
855.04	1.12
855.779	3.12
856.518	4.12
857.257	3.12
857.995	3.12
858.734	3.12
859.473	1.12
860.211	2.12
860.95	2.12
861.688	2.12
862.426	3.12
863.165	1.12
863.903	4.12
864.641	1.12
865.379	1.12
866.117	4.12
866.855	3.12
867.593	3.12
868.33	2.12
869.068	3.12
869.806	1.12
870.543	0.12
871.28	1.12
872.018	1.12
872.755	1.12
873.492	0.12
874.229	2.12
874.967	0.12
875.703	2.12
876.44	1.12
877.177	0.12
877.914	1.12
878.651	1.12
879.387	2.12
880.124	3.12
880.86	5.12
881.597	0.12
882.333	0.12
883.069	-0.88
883.806	1.12
884.542	2.12
885.278	0.12
886.014	1.12
886.749	0.12
887.485	0.12
888.221	1.12
888.957	-1.88
889.692	1.12
890.428	2.12
891.163	2.12
891.899	2.12
892.634	0.12
893.369	1.12
894.104	1.12
894.839	2.12
895.574	0.12
896.309	0.12
897.044	-0.88
897.779	0.12
898.514	1.12
899.248	0.12
899.983	2.12
900.717	1.12
901.452	1.12
902.186	-0.88
902.92	0.12
903.654	3.12
904.389	1.12
905.123	1.12
905.857	2.12
906.59	0.12
907.324	0.12
908.058	0.12
908.792	2.12
909.525	1.12
910.259	2.12
910.992	2.12
911.726	-0.88
912.459	2.12
913.192	3.12
913.925	0.12
914.658	0.12
915.391	0.12
916.124	-1.88
916.857	1.12
917.59	1.12
918.323	1.12
919.055	1.12
919.788	-0.88
920.521	0.12
921.253	0.12
921.985	0.12
922.718	0.12
923.45	1.12
924.182	2.12
924.914	1.12
925.646	0.12
926.378	0.12
927.11	1.12
927.841	0.12
928.573	3.12
929.305	-0.88
930.036	1.12
930.768	-0.88
931.499	4.12
932.23	1.12
932.962	1.12
933.693	0.12
934.424	-1.88
935.155	1.12
935.886	0.12
936.617	0.12
937.348	1.12
938.078	0.12
938.809	0.12
939.54	0.12
940.27	2.12
941.001	1.12
941.731	1.12
942.461	1.12
943.191	-1.88
943.922	1.12
944.652	-0.88
945.382	3.12
946.112	-0.88
946.841	1.12
947.571	1.12
948.301	0.12
949.031	-1.88
949.76	1.12
950.49	1.12
951.219	0.12
951.948	2.12
952.678	0.12
953.407	0.12
954.136	-1.88
954.865	-1.88
955.594	0.12
956.323	-0.88
957.052	1.12
957.78	1.12
958.509	0.12
959.238	0.12
959.966	2.12
960.695	0.12
961.423	-0.88
962.151	1.12
962.88	0.12
963.608	2.12
964.336	1.12
965.064	0.12
965.792	1.12
966.52	0.12
967.247	3.12
967.975	1.12
968.703	1.12
969.43	1.12
970.158	-0.88
970.885	1.12
971.613	0.12
972.34	1.12
973.067	-1.88
973.794	-0.88
974.521	1.12
975.248	0.12
975.975	3.12
976.702	0.12
977.429	1.12
978.156	0.12
978.882	0.12
979.609	-1.88
980.335	1.12
981.062	0.12
981.788	1.12
982.514	0.12
983.24	-1.88
983.967	-1.88
984.693	-0.88
985.419	2.12
986.144	-0.88
986.87	1.12
987.596	1.12
988.322	-1.88
989.047	0.12
989.773	0.12
990.498	2.12
991.224	2.12
991.949	2.12
992.674	0.12
993.399	2.12
994.124	0.12
994.849	1.12
995.574	-0.88
996.299	0.12
997.024	-0.88
997.749	0.12
998.473	1.12
999.198	-1.88
999.922	3.12
1000.647	-0.88
1001.371	5.12
1002.095	-0.88
1002.82	0.12
1003.544	-1.88
1004.268	1.12
1004.992	1.12
1005.716	0.12
1006.439	0.12
1007.163	0.12
1007.887	1.12
1008.611	2.12
1009.334	0.12
1010.058	1.12
1010.781	1.12
1011.504	3.12
1012.228	1.12
1012.951	0.12
1013.674	1.12
1014.397	-0.88
1015.12	-2.88
