节点500_285_QEPB04081__645__15-06-17-030.txt的数据

Date: Wed Nov 12 15:06:17 CST 2025
User: PC
Spectrometer: QEPB0408
触发模式: 0
积分时间 (秒): 1.000000E-2
Scans to average: 1
启用暗噪声校正: true
启用非线性校正: false
滑动平均宽度: 0
X轴模式: Wavelengths
Number of Pixels in Spectrum: 1044
>>>>>Begin Spectral Data<<<<<
220.843	2
221.644	2
222.444	2
223.244	1
224.045	3
224.845	1
225.645	1
226.445	3
227.245	2
228.045	3
228.845	2
229.645	2
230.444	4
231.244	3
232.043	4
232.843	3
233.642	2
234.442	3
235.241	1
236.04	3
236.839	2
237.638	3
238.437	3
239.236	3
240.035	2
240.833	3
241.632	4
242.43	6
243.229	5
244.027	5
244.826	6
245.624	5
246.422	7
247.22	6
248.018	5
248.816	8
249.614	7
250.412	6
251.21	6
252.007	6
252.805	5
253.602	7
254.4	8
255.197	5
255.994	9
256.791	7
257.589	10
258.386	8
259.183	8
259.979	7
260.776	8
261.573	9
262.37	9
263.166	10
263.963	10
264.759	9
265.556	12
266.352	11
267.148	14
267.944	13
268.74	15
269.536	12
270.332	13
271.128	17
271.924	14
272.719	17
273.515	15
274.311	13
275.106	15
275.901	14
276.697	16
277.492	15
278.287	16
279.082	14
279.877	17
280.672	18
281.467	17
282.262	17
283.056	17
283.851	20
284.646	16
285.44	20
286.234	17
287.029	18
287.823	20
288.617	16
289.411	18
290.205	16
290.999	17
291.793	18
292.587	17
293.381	16
294.174	17
294.968	16
295.761	14
296.555	14
297.348	12
298.141	14
298.935	18
299.728	17
300.521	14
301.314	13
302.107	13
302.899	12
303.692	13
304.485	15
305.277	11
306.07	11
306.862	15
307.655	15
308.447	12
309.239	11
310.031	10
310.823	9
311.615	11
312.407	9
313.199	10
313.991	9
314.783	9
315.574	9
316.366	12
317.157	9
317.949	8
318.74	8
319.531	6
320.322	8
321.113	7
321.904	7
322.695	7
323.486	6
324.277	6
325.068	6
325.858	7
326.649	6
327.439	7
328.23	4
329.02	6
329.81	5
330.6	6
331.391	8
332.181	7
332.971	7
333.76	7
334.55	6
335.34	7
336.13	6
336.919	8
337.709	9
338.498	7
339.287	7
340.077	6
340.866	7
341.655	5
342.444	7
343.233	5
344.022	7
344.811	6
345.6	6
346.388	5
347.177	5
347.965	7
348.754	9
349.542	4
350.33	6
351.119	7
351.907	6
352.695	5
353.483	6
354.271	5
355.059	5
355.846	7
356.634	6
357.422	6
358.209	4
358.997	5
359.784	5
360.571	4
361.359	4
362.146	4
362.933	6
363.72	5
364.507	7
365.294	5
366.081	4
366.867	7
367.654	4
368.44	3
369.227	5
370.013	6
370.8	5
371.586	3
372.372	3
373.158	2
373.944	2
374.73	7
375.516	7
376.302	6
377.088	4
377.873	5
378.659	5
379.445	4
380.23	4
381.015	5
381.801	5
382.586	5
383.371	7
384.156	6
384.941	5
385.726	6
386.511	3
387.296	6
388.08	6
388.865	7
389.649	8
390.434	4
391.218	5
392.003	3
392.787	5
393.571	5
394.355	7
395.139	6
395.923	6
396.707	5
397.491	6
398.274	7
399.058	9
399.842	9
400.625	8
401.408	7
402.192	5
402.975	6
403.758	9
404.541	7
405.324	6
406.107	8
406.89	6
407.673	4
408.456	6
409.238	7
410.021	5
410.803	9
411.586	10
412.368	10
413.151	10
413.933	9
414.715	8
415.497	9
416.279	10
417.061	10
417.843	10
418.624	9
419.406	9
420.188	10
420.969	10
421.751	12
422.532	12
423.313	9
424.095	10
424.876	11
425.657	12
426.438	11
427.219	10
428	11
428.78	13
429.561	13
430.342	12
431.122	14
431.903	15
432.683	14
433.464	15
434.244	15
435.024	16
435.804	16
436.584	16
437.364	18
438.144	20
438.924	19
439.704	22
440.483	26
441.263	25
442.042	24
442.822	26
443.601	28
444.38	30
445.16	34
445.939	35
446.718	38
447.497	43
448.276	45
449.054	47
449.833	51
450.612	57
451.391	64
452.169	66
452.948	73
453.726	82
454.504	89
455.282	100
456.061	109
456.839	118
457.617	132
458.395	146
459.172	167
459.95	182
460.728	201
461.506	231
462.283	246
463.061	280
463.838	310
464.615	347
465.393	380
466.17	433
466.947	476
467.724	538
468.501	590
469.278	658
470.055	722
470.831	810
471.608	892
472.385	985
473.161	1088
473.938	1202
474.714	1334
475.49	1463
476.266	1616
477.043	1756
477.819	1937
478.595	2122
479.371	2339
480.146	2572
480.922	2829
481.698	3085
482.473	3375
483.249	3722
484.024	4054
484.8	4425
485.575	4831
486.35	5309
487.126	5801
487.901	6300
488.676	6858
489.451	7515
490.225	8159
491	8820
491.775	9653
492.55	10495
493.324	11361
494.099	12183
494.873	13104
495.647	14121
496.422	15110
497.196	16123
497.97	17216
498.744	18379
499.518	19339
500.292	20438
501.066	21504
501.839	22391
502.613	23361
503.387	24221
504.16	24892
504.934	25382
505.707	25692
506.48	25818
507.253	25926
508.027	25874
508.8	25724
509.573	25573
510.346	25033
511.118	24477
511.891	23811
512.664	23062
513.437	22395
514.209	21575
514.982	20749
515.754	19913
516.526	19098
517.298	18360
518.071	17521
518.843	16870
519.615	16269
520.387	15601
521.159	14994
521.93	14352
522.702	13862
523.474	13256
524.245	12678
525.017	12139
525.788	11726
526.56	11202
527.331	10684
528.102	10217
528.873	9766
529.644	9314
530.415	8923
531.186	8458
531.957	8020
532.728	7653
533.498	7230
534.269	6854
535.039	6478
535.81	6130
536.58	5809
537.351	5480
538.121	5181
538.891	4902
539.661	4661
540.431	4378
541.201	4133
541.971	3923
542.741	3731
543.51	3542
544.28	3369
545.05	3222
545.819	3043
546.588	2889
547.358	2739
548.127	2630
548.896	2496
549.665	2345
550.434	2216
551.203	2110
551.972	2002
552.741	1904
553.51	1789
554.278	1711
555.047	1607
555.815	1512
556.584	1443
557.352	1354
558.121	1282
558.889	1197
559.657	1158
560.425	1081
561.193	1015
561.961	959
562.729	904
563.496	859
564.264	795
565.032	759
565.799	731
566.567	685
567.334	645
568.101	605
568.869	573
569.636	538
570.403	507
571.17	476
571.937	455
572.704	431
573.471	408
574.237	387
575.004	360
575.771	344
576.537	314
577.303	297
578.07	284
578.836	267
579.602	256
580.368	238
581.134	228
581.9	213
582.666	200
583.432	194
584.198	180
584.964	172
585.729	167
586.495	160
587.26	151
588.025	139
588.791	130
589.556	125
590.321	120
591.086	115
591.851	108
592.616	103
593.381	101
594.146	91
594.911	87
595.675	83
596.44	82
597.204	73
597.969	71
598.733	66
599.497	69
600.261	64
601.025	62
601.79	57
602.553	56
603.317	53
604.081	47
604.845	43
605.609	49
606.372	42
607.136	42
607.899	38
608.662	41
609.426	36
610.189	39
610.952	34
611.715	34
612.478	30
613.241	30
614.004	28
614.767	28
615.529	26
616.292	29
617.055	27
617.817	22
618.579	23
619.342	23
620.104	24
620.866	20
621.628	20
622.39	22
623.152	19
623.914	18
624.676	16
625.438	18
626.199	14
626.961	15
627.722	17
628.484	12
629.245	15
630.006	12
630.768	14
631.529	14
632.29	15
633.051	12
633.812	13
634.573	14
635.333	10
636.094	12
636.855	10
637.615	9
638.376	9
639.136	12
639.896	10
640.657	10
641.417	12
642.177	8
642.937	9
643.697	8
644.457	7
645.216	7
645.976	10
646.736	8
647.495	9
648.255	5
649.014	8
649.774	5
650.533	7
651.292	7
652.051	9
652.81	7
653.569	5
654.328	7
655.087	6
655.846	8
656.604	7
657.363	6
658.121	7
658.88	6
659.638	6
660.397	7
661.155	6
661.913	7
662.671	5
663.429	6
664.187	4
664.945	6
665.703	6
666.46	4
667.218	5
667.976	7
668.733	4
669.49	6
670.248	5
671.005	5
671.762	4
672.519	5
673.276	5
674.033	4
674.79	5
675.547	5
676.304	5
677.06	5
677.817	5
678.574	5
679.33	5
680.086	5
680.843	2
681.599	3
682.355	4
683.111	7
683.867	2
684.623	4
685.379	3
686.135	2
686.89	5
687.646	4
688.402	4
689.157	3
689.912	2
690.668	2
691.423	2
692.178	7
692.933	3
693.688	6
694.443	5
695.198	4
695.953	2
696.708	3
697.462	4
698.217	3
698.972	6
699.726	3
700.48	5
701.235	2
701.989	4
702.743	7
703.497	2
704.251	5
705.005	3
705.759	4
706.513	4
707.266	3
708.02	4
708.774	2
709.527	3
710.28	5
711.034	2
711.787	3
712.54	3
713.293	5
714.046	2
714.799	4
715.552	3
716.305	4
717.058	3
717.81	4
718.563	3
719.315	3
720.068	4
720.82	4
721.573	5
722.325	5
723.077	4
723.829	3
724.581	4
725.333	5
726.085	5
726.836	4
727.588	4
728.34	0
729.091	3
729.843	4
730.594	2
731.346	3
732.097	5
732.848	5
733.599	2
734.35	5
735.101	5
735.852	5
736.603	6
737.354	3
738.104	4
738.855	4
739.605	3
740.356	5
741.106	5
741.856	3
742.607	4
743.357	6
744.107	3
744.857	7
745.607	5
746.357	7
747.106	3
747.856	8
748.606	6
749.355	6
750.105	4
750.854	6
751.603	4
752.353	7
753.102	7
753.851	3
754.6	7
755.349	4
756.098	5
756.847	5
757.595	4
758.344	7
759.093	5
759.841	7
760.589	5
761.338	5
762.086	5
762.834	4
763.582	7
764.331	5
765.079	8
765.826	6
766.574	5
767.322	6
768.07	6
768.817	7
769.565	6
770.312	7
771.06	7
771.807	7
772.554	7
773.302	7
774.049	9
774.796	9
775.543	7
776.29	6
777.036	9
777.783	9
778.53	9
779.276	10
780.023	8
780.769	9
781.516	10
782.262	10
783.008	8
783.754	9
784.5	9
785.246	10
785.992	10
786.738	8
787.484	7
788.23	8
788.975	10
789.721	8
790.466	8
791.212	10
791.957	8
792.702	7
793.447	9
794.193	9
794.938	9
795.683	6
796.427	6
797.172	5
797.917	7
798.662	7
799.406	8
800.151	6
800.895	6
801.64	7
802.384	7
803.128	6
803.872	6
804.616	6
805.36	7
806.104	6
806.848	7
807.592	4
808.336	8
809.079	8
809.823	5
810.566	4
811.31	4
812.053	5
812.796	5
813.539	4
814.283	5
815.026	6
815.769	5
816.511	7
817.254	5
817.997	4
818.74	4
819.482	4
820.225	4
820.967	4
821.71	3
822.452	2
823.194	3
823.936	4
824.678	6
825.42	4
826.162	2
826.904	5
827.646	3
828.388	6
829.129	3
829.871	4
830.612	4
831.354	4
832.095	4
832.836	4
833.577	4
834.319	4
835.06	2
835.801	3
836.542	2
837.282	5
838.023	4
838.764	5
839.504	6
840.245	4
840.985	3
841.726	3
842.466	3
843.206	3
843.946	2
844.687	3
845.427	3
846.166	3
846.906	2
847.646	2
848.386	4
849.125	3
849.865	1
850.605	1
851.344	4
852.083	2
852.823	2
853.562	3
854.301	2
855.04	4
855.779	1
856.518	4
857.257	1
857.995	4
858.734	3
859.473	3
860.211	2
860.95	2
861.688	2
862.426	1
863.165	2
863.903	3
864.641	2
865.379	1
866.117	0
866.855	3
867.593	2
868.33	1
869.068	2
869.806	0
870.543	0
871.28	2
872.018	2
872.755	3
873.492	2
874.229	2
874.967	0
875.703	2
876.44	2
877.177	2
877.914	1
878.651	1
879.387	2
880.124	1
880.86	-1
881.597	0
882.333	0
883.069	2
883.806	1
884.542	1
885.278	2
886.014	2
886.749	0
887.485	1
888.221	-1
888.957	1
889.692	3
890.428	2
891.163	1
891.899	0
892.634	1
893.369	0
894.104	-2
894.839	0
895.574	2
896.309	2
897.044	2
897.779	0
898.514	1
899.248	1
899.983	-1
900.717	2
901.452	1
902.186	2
902.92	1
903.654	1
904.389	0
905.123	0
905.857	1
906.59	-2
907.324	1
908.058	-1
908.792	1
909.525	-1
910.259	2
910.992	0
911.726	0
912.459	2
913.192	1
913.925	0
914.658	0
915.391	-1
916.124	-1
916.857	-1
917.59	1
918.323	0
919.055	0
919.788	1
920.521	1
921.253	1
921.985	-1
922.718	2
923.45	1
924.182	0
924.914	-1
925.646	-2
926.378	3
927.11	1
927.841	2
928.573	2
929.305	0
930.036	0
930.768	-3
931.499	0
932.23	0
932.962	0
933.693	0
934.424	1
935.155	1
935.886	1
936.617	0
937.348	1
938.078	0
938.809	0
939.54	-1
940.27	-2
941.001	-3
941.731	2
942.461	0
943.191	1
943.922	2
944.652	0
945.382	1
946.112	-2
946.841	-1
947.571	1
948.301	-1
949.031	1
949.76	0
950.49	2
951.219	-2
951.948	-3
952.678	0
953.407	4
954.136	1
954.865	-1
955.594	2
956.323	2
957.052	0
957.78	0
958.509	0
959.238	0
959.966	-1
960.695	2
961.423	2
962.151	2
962.88	1
963.608	2
964.336	0
965.064	1
965.792	2
966.52	0
967.247	-1
967.975	1
968.703	-1
969.43	0
970.158	-2
970.885	0
971.613	-2
972.34	-1
973.067	0
973.794	-3
974.521	0
975.248	0
975.975	2
976.702	1
977.429	0
978.156	0
978.882	-3
979.609	2
980.335	-1
981.062	1
981.788	0
982.514	-1
983.24	0
983.967	0
984.693	-1
985.419	-1
986.144	0
986.87	1
987.596	-3
988.322	1
989.047	1
989.773	-1
990.498	1
991.224	-2
991.949	1
992.674	2
993.399	1
994.124	-1
994.849	-2
995.574	1
996.299	0
997.024	1
997.749	1
998.473	2
999.198	0
999.922	3
1000.647	-1
1001.371	4
1002.095	-1
1002.82	0
1003.544	-3
1004.268	1
1004.992	1
1005.716	0
1006.439	5
1007.163	1
1007.887	2
1008.611	-1
1009.334	1
1010.058	-2
1010.781	-1
1011.504	1
1012.228	1
1012.951	-2
1013.674	0
1014.397	2
1015.12	0
