节点500_285_QEPB04081__488__15-03-40-425.txt的数据

Date: Wed Nov 12 15:03:40 CST 2025
User: PC
Spectrometer: QEPB0408
触发模式: 0
积分时间 (秒): 1.000000E-2
Scans to average: 1
启用暗噪声校正: true
启用非线性校正: false
滑动平均宽度: 0
X轴模式: Wavelengths
Number of Pixels in Spectrum: 1044
>>>>>Begin Spectral Data<<<<<
220.843	-0.5
221.644	4.5
222.444	2.5
223.244	1.5
224.045	2.5
224.845	1.5
225.645	3.5
226.445	2.5
227.245	3.5
228.045	1.5
228.845	5.5
229.645	0.5
230.444	4.5
231.244	4.5
232.043	2.5
232.843	5.5
233.642	2.5
234.442	3.5
235.241	3.5
236.04	0.5
236.839	3.5
237.638	5.5
238.437	8.5
239.236	1.5
240.035	5.5
240.833	5.5
241.632	6.5
242.43	6.5
243.229	7.5
244.027	3.5
244.826	6.5
245.624	4.5
246.422	7.5
247.22	7.5
248.018	5.5
248.816	8.5
249.614	6.5
250.412	6.5
251.21	6.5
252.007	7.5
252.805	5.5
253.602	8.5
254.4	6.5
255.197	5.5
255.994	9.5
256.791	6.5
257.589	7.5
258.386	9.5
259.183	7.5
259.979	8.5
260.776	9.5
261.573	11.5
262.37	10.5
263.166	14.5
263.963	11.5
264.759	13.5
265.556	10.5
266.352	10.5
267.148	11.5
267.944	14.5
268.74	13.5
269.536	12.5
270.332	15.5
271.128	13.5
271.924	14.5
272.719	16.5
273.515	15.5
274.311	15.5
275.106	18.5
275.901	15.5
276.697	17.5
277.492	11.5
278.287	17.5
279.082	18.5
279.877	18.5
280.672	17.5
281.467	19.5
282.262	16.5
283.056	17.5
283.851	18.5
284.646	19.5
285.44	17.5
286.234	18.5
287.029	16.5
287.823	19.5
288.617	16.5
289.411	16.5
290.205	19.5
290.999	18.5
291.793	19.5
292.587	18.5
293.381	18.5
294.174	16.5
294.968	15.5
295.761	14.5
296.555	14.5
297.348	16.5
298.141	13.5
298.935	17.5
299.728	17.5
300.521	12.5
301.314	16.5
302.107	13.5
302.899	14.5
303.692	12.5
304.485	14.5
305.277	11.5
306.07	11.5
306.862	12.5
307.655	11.5
308.447	14.5
309.239	10.5
310.031	14.5
310.823	11.5
311.615	10.5
312.407	10.5
313.199	10.5
313.991	10.5
314.783	8.5
315.574	10.5
316.366	9.5
317.157	7.5
317.949	11.5
318.74	7.5
319.531	6.5
320.322	9.5
321.113	9.5
321.904	7.5
322.695	6.5
323.486	7.5
324.277	8.5
325.068	10.5
325.858	8.5
326.649	4.5
327.439	7.5
328.23	7.5
329.02	6.5
329.81	5.5
330.6	5.5
331.391	6.5
332.181	5.5
332.971	6.5
333.76	7.5
334.55	8.5
335.34	5.5
336.13	6.5
336.919	8.5
337.709	6.5
338.498	8.5
339.287	7.5
340.077	7.5
340.866	8.5
341.655	5.5
342.444	8.5
343.233	6.5
344.022	7.5
344.811	8.5
345.6	3.5
346.388	7.5
347.177	6.5
347.965	6.5
348.754	8.5
349.542	7.5
350.33	6.5
351.119	7.5
351.907	8.5
352.695	5.5
353.483	7.5
354.271	4.5
355.059	7.5
355.846	5.5
356.634	7.5
357.422	3.5
358.209	6.5
358.997	4.5
359.784	5.5
360.571	6.5
361.359	6.5
362.146	3.5
362.933	5.5
363.72	5.5
364.507	6.5
365.294	5.5
366.081	4.5
366.867	4.5
367.654	7.5
368.44	5.5
369.227	4.5
370.013	5.5
370.8	4.5
371.586	2.5
372.372	3.5
373.158	5.5
373.944	5.5
374.73	6.5
375.516	5.5
376.302	5.5
377.088	4.5
377.873	6.5
378.659	5.5
379.445	6.5
380.23	8.5
381.015	4.5
381.801	3.5
382.586	6.5
383.371	6.5
384.156	3.5
384.941	5.5
385.726	7.5
386.511	4.5
387.296	4.5
388.08	5.5
388.865	4.5
389.649	5.5
390.434	6.5
391.218	6.5
392.003	7.5
392.787	5.5
393.571	8.5
394.355	7.5
395.139	6.5
395.923	6.5
396.707	7.5
397.491	6.5
398.274	6.5
399.058	9.5
399.842	6.5
400.625	8.5
401.408	7.5
402.192	7.5
402.975	9.5
403.758	8.5
404.541	8.5
405.324	6.5
406.107	7.5
406.89	8.5
407.673	10.5
408.456	9.5
409.238	8.5
410.021	9.5
410.803	5.5
411.586	9.5
412.368	10.5
413.151	8.5
413.933	11.5
414.715	10.5
415.497	9.5
416.279	10.5
417.061	9.5
417.843	8.5
418.624	8.5
419.406	8.5
420.188	9.5
420.969	11.5
421.751	13.5
422.532	11.5
423.313	11.5
424.095	10.5
424.876	12.5
425.657	9.5
426.438	15.5
427.219	11.5
428	11.5
428.78	12.5
429.561	12.5
430.342	15.5
431.122	12.5
431.903	15.5
432.683	15.5
433.464	13.5
434.244	17.5
435.024	14.5
435.804	19.5
436.584	21.5
437.364	21.5
438.144	20.5
438.924	22.5
439.704	20.5
440.483	23.5
441.263	24.5
442.042	23.5
442.822	28.5
443.601	29.5
444.38	29.5
445.16	36.5
445.939	35.5
446.718	35.5
447.497	39.5
448.276	43.5
449.054	45.5
449.833	52.5
450.612	56.5
451.391	58.5
452.169	66.5
452.948	69.5
453.726	75.5
454.504	84.5
455.282	90.5
456.061	101.5
456.839	114.5
457.617	125.5
458.395	145.5
459.172	156.5
459.95	174.5
460.728	192.5
461.506	214.5
462.283	237.5
463.061	258.5
463.838	298.5
464.615	332.5
465.393	371.5
466.17	422.5
466.947	458.5
467.724	508.5
468.501	559.5
469.278	638.5
470.055	700.5
470.831	784.5
471.608	865.5
472.385	963.5
473.161	1069.5
473.938	1186.5
474.714	1319.5
475.49	1445.5
476.266	1568.5
477.043	1759.5
477.819	1928.5
478.595	2133.5
479.371	2352.5
480.146	2575.5
480.922	2845.5
481.698	3126.5
482.473	3416.5
483.249	3779.5
484.024	4146.5
484.8	4529.5
485.575	4984.5
486.35	5448.5
487.126	5983.5
487.901	6538.5
488.676	7130.5
489.451	7837.5
490.225	8532.5
491	9326.5
491.775	10175.5
492.55	11088.5
493.324	11958.5
494.099	12912.5
494.873	13883.5
495.647	14999.5
496.422	16060.5
497.196	17127.5
497.97	18348.5
498.744	19506.5
499.518	20587.5
500.292	21718.5
501.066	22790.5
501.839	23759.5
502.613	24615.5
503.387	25457.5
504.16	26095.5
504.934	26399.5
505.707	26742.5
506.48	26802.5
507.253	26828.5
508.027	26597.5
508.8	26390.5
509.573	26012.5
510.346	25540.5
511.118	24813.5
511.891	24113.5
512.664	23301.5
513.437	22494.5
514.209	21618.5
514.982	20759.5
515.754	19879.5
516.526	18966.5
517.298	18130.5
518.071	17302.5
518.843	16701.5
519.615	16095.5
520.387	15414.5
521.159	14782.5
521.93	14267.5
522.702	13687.5
523.474	13138.5
524.245	12531.5
525.017	12023.5
525.788	11614.5
526.56	11065.5
527.331	10531.5
528.102	10078.5
528.873	9599.5
529.644	9122.5
530.415	8713.5
531.186	8254.5
531.957	7854.5
532.728	7484.5
533.498	7065.5
534.269	6697.5
535.039	6325.5
535.81	5981.5
536.58	5612.5
537.351	5306.5
538.121	5019.5
538.891	4761.5
539.661	4494.5
540.431	4252.5
541.201	4016.5
541.971	3812.5
542.741	3606.5
543.51	3423.5
544.28	3269.5
545.05	3090.5
545.819	2948.5
546.588	2815.5
547.358	2676.5
548.127	2540.5
548.896	2420.5
549.665	2274.5
550.434	2167.5
551.203	2054.5
551.972	1955.5
552.741	1832.5
553.51	1745.5
554.278	1652.5
555.047	1537.5
555.815	1454.5
556.584	1378.5
557.352	1314.5
558.121	1225.5
558.889	1171.5
559.657	1098.5
560.425	1043.5
561.193	992.5
561.961	932.5
562.729	870.5
563.496	825.5
564.264	778.5
565.032	737.5
565.799	691.5
566.567	666.5
567.334	627.5
568.101	588.5
568.869	551.5
569.636	520.5
570.403	484.5
571.17	458.5
571.937	433.5
572.704	409.5
573.471	395.5
574.237	375.5
575.004	346.5
575.771	325.5
576.537	314.5
577.303	294.5
578.07	280.5
578.836	256.5
579.602	241.5
580.368	225.5
581.134	218.5
581.9	200.5
582.666	196.5
583.432	188.5
584.198	174.5
584.964	165.5
585.729	149.5
586.495	150.5
587.26	145.5
588.025	133.5
588.791	130.5
589.556	122.5
590.321	116.5
591.086	105.5
591.851	103.5
592.616	100.5
593.381	93.5
594.146	88.5
594.911	84.5
595.675	84.5
596.44	79.5
597.204	65.5
597.969	72.5
598.733	70.5
599.497	68.5
600.261	61.5
601.025	60.5
601.79	54.5
602.553	50.5
603.317	52.5
604.081	50.5
604.845	53.5
605.609	43.5
606.372	41.5
607.136	40.5
607.899	40.5
608.662	40.5
609.426	35.5
610.189	33.5
610.952	33.5
611.715	33.5
612.478	30.5
613.241	30.5
614.004	30.5
614.767	28.5
615.529	28.5
616.292	24.5
617.055	23.5
617.817	23.5
618.579	20.5
619.342	20.5
620.104	21.5
620.866	21.5
621.628	18.5
622.39	22.5
623.152	17.5
623.914	18.5
624.676	18.5
625.438	17.5
626.199	19.5
626.961	16.5
627.722	16.5
628.484	14.5
629.245	11.5
630.006	14.5
630.768	12.5
631.529	16.5
632.29	12.5
633.051	12.5
633.812	14.5
634.573	12.5
635.333	13.5
636.094	14.5
636.855	12.5
637.615	10.5
638.376	10.5
639.136	9.5
639.896	9.5
640.657	7.5
641.417	10.5
642.177	6.5
642.937	8.5
643.697	6.5
644.457	10.5
645.216	5.5
645.976	10.5
646.736	8.5
647.495	7.5
648.255	8.5
649.014	9.5
649.774	9.5
650.533	9.5
651.292	9.5
652.051	7.5
652.81	8.5
653.569	6.5
654.328	8.5
655.087	6.5
655.846	6.5
656.604	5.5
657.363	7.5
658.121	6.5
658.88	6.5
659.638	5.5
660.397	6.5
661.155	5.5
661.913	6.5
662.671	4.5
663.429	5.5
664.187	6.5
664.945	6.5
665.703	5.5
666.46	5.5
667.218	4.5
667.976	7.5
668.733	3.5
669.49	3.5
670.248	6.5
671.005	4.5
671.762	7.5
672.519	2.5
673.276	4.5
674.033	5.5
674.79	5.5
675.547	4.5
676.304	3.5
677.06	5.5
677.817	5.5
678.574	4.5
679.33	3.5
680.086	4.5
680.843	5.5
681.599	5.5
682.355	5.5
683.111	5.5
683.867	5.5
684.623	4.5
685.379	4.5
686.135	3.5
686.89	1.5
687.646	5.5
688.402	2.5
689.157	4.5
689.912	4.5
690.668	5.5
691.423	4.5
692.178	6.5
692.933	3.5
693.688	4.5
694.443	5.5
695.198	4.5
695.953	5.5
696.708	4.5
697.462	4.5
698.217	5.5
698.972	5.5
699.726	5.5
700.48	4.5
701.235	3.5
701.989	1.5
702.743	2.5
703.497	3.5
704.251	6.5
705.005	5.5
705.759	4.5
706.513	4.5
707.266	7.5
708.02	4.5
708.774	2.5
709.527	5.5
710.28	3.5
711.034	5.5
711.787	2.5
712.54	1.5
713.293	4.5
714.046	5.5
714.799	3.5
715.552	2.5
716.305	2.5
717.058	0.5
717.81	3.5
718.563	4.5
719.315	2.5
720.068	5.5
720.82	4.5
721.573	3.5
722.325	5.5
723.077	2.5
723.829	5.5
724.581	2.5
725.333	3.5
726.085	4.5
726.836	5.5
727.588	4.5
728.34	5.5
729.091	5.5
729.843	2.5
730.594	5.5
731.346	4.5
732.097	4.5
732.848	2.5
733.599	4.5
734.35	6.5
735.101	3.5
735.852	5.5
736.603	3.5
737.354	3.5
738.104	6.5
738.855	3.5
739.605	4.5
740.356	4.5
741.106	2.5
741.856	5.5
742.607	6.5
743.357	3.5
744.107	2.5
744.857	3.5
745.607	4.5
746.357	2.5
747.106	5.5
747.856	3.5
748.606	4.5
749.355	4.5
750.105	7.5
750.854	5.5
751.603	5.5
752.353	6.5
753.102	4.5
753.851	5.5
754.6	6.5
755.349	6.5
756.098	6.5
756.847	6.5
757.595	7.5
758.344	6.5
759.093	7.5
759.841	7.5
760.589	4.5
761.338	7.5
762.086	3.5
762.834	7.5
763.582	6.5
764.331	9.5
765.079	7.5
765.826	6.5
766.574	8.5
767.322	9.5
768.07	7.5
768.817	9.5
769.565	9.5
770.312	9.5
771.06	7.5
771.807	8.5
772.554	5.5
773.302	8.5
774.049	9.5
774.796	9.5
775.543	6.5
776.29	6.5
777.036	9.5
777.783	7.5
778.53	8.5
779.276	10.5
780.023	8.5
780.769	9.5
781.516	10.5
782.262	10.5
783.008	5.5
783.754	10.5
784.5	11.5
785.246	7.5
785.992	8.5
786.738	9.5
787.484	8.5
788.23	9.5
788.975	9.5
789.721	9.5
790.466	7.5
791.212	8.5
791.957	8.5
792.702	9.5
793.447	8.5
794.193	9.5
794.938	8.5
795.683	7.5
796.427	8.5
797.172	6.5
797.917	6.5
798.662	7.5
799.406	6.5
800.151	10.5
800.895	6.5
801.64	9.5
802.384	5.5
803.128	7.5
803.872	6.5
804.616	6.5
805.36	7.5
806.104	5.5
806.848	8.5
807.592	7.5
808.336	6.5
809.079	6.5
809.823	4.5
810.566	8.5
811.31	5.5
812.053	5.5
812.796	5.5
813.539	4.5
814.283	2.5
815.026	6.5
815.769	7.5
816.511	5.5
817.254	7.5
817.997	7.5
818.74	6.5
819.482	4.5
820.225	5.5
820.967	6.5
821.71	7.5
822.452	5.5
823.194	3.5
823.936	5.5
824.678	5.5
825.42	4.5
826.162	5.5
826.904	4.5
827.646	4.5
828.388	4.5
829.129	2.5
829.871	5.5
830.612	2.5
831.354	5.5
832.095	4.5
832.836	3.5
833.577	4.5
834.319	4.5
835.06	3.5
835.801	5.5
836.542	2.5
837.282	2.5
838.023	2.5
838.764	2.5
839.504	1.5
840.245	2.5
840.985	6.5
841.726	6.5
842.466	2.5
843.206	1.5
843.946	2.5
844.687	4.5
845.427	3.5
846.166	1.5
846.906	2.5
847.646	3.5
848.386	3.5
849.125	3.5
849.865	5.5
850.605	3.5
851.344	3.5
852.083	2.5
852.823	4.5
853.562	3.5
854.301	4.5
855.04	2.5
855.779	4.5
856.518	4.5
857.257	1.5
857.995	5.5
858.734	2.5
859.473	4.5
860.211	3.5
860.95	2.5
861.688	4.5
862.426	3.5
863.165	1.5
863.903	3.5
864.641	2.5
865.379	0.5
866.117	2.5
866.855	0.5
867.593	3.5
868.33	2.5
869.068	2.5
869.806	2.5
870.543	1.5
871.28	1.5
872.018	4.5
872.755	-0.5
873.492	2.5
874.229	2.5
874.967	0.5
875.703	2.5
876.44	0.5
877.177	1.5
877.914	3.5
878.651	1.5
879.387	4.5
880.124	-0.5
880.86	4.5
881.597	-0.5
882.333	3.5
883.069	2.5
883.806	1.5
884.542	1.5
885.278	0.5
886.014	0.5
886.749	2.5
887.485	2.5
888.221	1.5
888.957	1.5
889.692	0.5
890.428	0.5
891.163	0.5
891.899	2.5
892.634	1.5
893.369	2.5
894.104	-0.5
894.839	4.5
895.574	2.5
896.309	2.5
897.044	0.5
897.779	1.5
898.514	-0.5
899.248	1.5
899.983	0.5
900.717	2.5
901.452	1.5
902.186	-1.5
902.92	-0.5
903.654	1.5
904.389	1.5
905.123	2.5
905.857	1.5
906.59	0.5
907.324	2.5
908.058	-0.5
908.792	1.5
909.525	-1.5
910.259	0.5
910.992	0.5
911.726	1.5
912.459	3.5
913.192	0.5
913.925	1.5
914.658	1.5
915.391	4.5
916.124	0.5
916.857	0.5
917.59	0.5
918.323	1.5
919.055	3.5
919.788	0.5
920.521	0.5
921.253	1.5
921.985	2.5
922.718	-0.5
923.45	0.5
924.182	-1.5
924.914	0.5
925.646	1.5
926.378	0.5
927.11	-1.5
927.841	1.5
928.573	-2.5
929.305	-0.5
930.036	2.5
930.768	0.5
931.499	1.5
932.23	2.5
932.962	0.5
933.693	2.5
934.424	2.5
935.155	2.5
935.886	1.5
936.617	2.5
937.348	0.5
938.078	1.5
938.809	0.5
939.54	0.5
940.27	3.5
941.001	1.5
941.731	0.5
942.461	0.5
943.191	2.5
943.922	0.5
944.652	-0.5
945.382	-0.5
946.112	0.5
946.841	0.5
947.571	-0.5
948.301	0.5
949.031	1.5
949.76	0.5
950.49	3.5
951.219	-1.5
951.948	1.5
952.678	-0.5
953.407	1.5
954.136	-0.5
954.865	1.5
955.594	4.5
956.323	2.5
957.052	1.5
957.78	2.5
958.509	1.5
959.238	0.5
959.966	-1.5
960.695	-0.5
961.423	1.5
962.151	1.5
962.88	0.5
963.608	0.5
964.336	-0.5
965.064	1.5
965.792	1.5
966.52	-1.5
967.247	1.5
967.975	0.5
968.703	-0.5
969.43	-0.5
970.158	1.5
970.885	2.5
971.613	2.5
972.34	1.5
973.067	1.5
973.794	-0.5
974.521	3.5
975.248	-1.5
975.975	-0.5
976.702	3.5
977.429	1.5
978.156	2.5
978.882	0.5
979.609	0.5
980.335	2.5
981.062	1.5
981.788	-0.5
982.514	0.5
983.24	0.5
983.967	-2.5
984.693	0.5
985.419	-1.5
986.144	0.5
986.87	1.5
987.596	1.5
988.322	1.5
989.047	1.5
989.773	0.5
990.498	0.5
991.224	0.5
991.949	-0.5
992.674	1.5
993.399	0.5
994.124	-1.5
994.849	1.5
995.574	1.5
996.299	-1.5
997.024	0.5
997.749	0.5
998.473	0.5
999.198	1.5
999.922	-1.5
1000.647	1.5
1001.371	4.5
1002.095	-1.5
1002.82	-0.5
1003.544	-3.5
1004.268	1.5
1004.992	0.5
1005.716	2.5
1006.439	3.5
1007.163	2.5
1007.887	2.5
1008.611	-1.5
1009.334	2.5
1010.058	1.5
1010.781	0.5
1011.504	-0.5
1012.228	-1.5
1012.951	0.5
1013.674	0.5
1014.397	0.5
1015.12	-0.5
