节点500_285_QEPB04081__599__15-05-31-194.txt的数据

Date: Wed Nov 12 15:05:31 CST 2025
User: PC
Spectrometer: QEPB0408
触发模式: 0
积分时间 (秒): 1.000000E-2
Scans to average: 1
启用暗噪声校正: true
启用非线性校正: false
滑动平均宽度: 0
X轴模式: Wavelengths
Number of Pixels in Spectrum: 1044
>>>>>Begin Spectral Data<<<<<
220.843	1.12
221.644	1.12
222.444	-0.88
223.244	1.12
224.045	1.12
224.845	-0.88
225.645	0.12
226.445	3.12
227.245	2.12
228.045	2.12
228.845	3.12
229.645	2.12
230.444	4.12
231.244	3.12
232.043	2.12
232.843	1.12
233.642	3.12
234.442	2.12
235.241	2.12
236.04	3.12
236.839	4.12
237.638	5.12
238.437	3.12
239.236	3.12
240.035	4.12
240.833	5.12
241.632	6.12
242.43	2.12
243.229	5.12
244.027	4.12
244.826	5.12
245.624	7.12
246.422	6.12
247.22	4.12
248.018	4.12
248.816	7.12
249.614	7.12
250.412	8.12
251.21	8.12
252.007	7.12
252.805	8.12
253.602	6.12
254.4	5.12
255.197	8.12
255.994	9.12
256.791	7.12
257.589	7.12
258.386	9.12
259.183	10.12
259.979	8.12
260.776	9.12
261.573	9.12
262.37	10.12
263.166	12.12
263.963	11.12
264.759	12.12
265.556	10.12
266.352	12.12
267.148	11.12
267.944	13.12
268.74	13.12
269.536	13.12
270.332	13.12
271.128	17.12
271.924	16.12
272.719	17.12
273.515	15.12
274.311	15.12
275.106	12.12
275.901	15.12
276.697	16.12
277.492	15.12
278.287	18.12
279.082	21.12
279.877	14.12
280.672	15.12
281.467	18.12
282.262	18.12
283.056	18.12
283.851	17.12
284.646	17.12
285.44	16.12
286.234	21.12
287.029	17.12
287.823	19.12
288.617	18.12
289.411	16.12
290.205	20.12
290.999	18.12
291.793	17.12
292.587	17.12
293.381	16.12
294.174	14.12
294.968	16.12
295.761	13.12
296.555	15.12
297.348	13.12
298.141	16.12
298.935	14.12
299.728	14.12
300.521	17.12
301.314	13.12
302.107	14.12
302.899	11.12
303.692	14.12
304.485	16.12
305.277	14.12
306.07	10.12
306.862	12.12
307.655	13.12
308.447	13.12
309.239	13.12
310.031	13.12
310.823	10.12
311.615	11.12
312.407	9.12
313.199	9.12
313.991	10.12
314.783	10.12
315.574	11.12
316.366	10.12
317.157	9.12
317.949	8.12
318.74	7.12
319.531	8.12
320.322	9.12
321.113	10.12
321.904	7.12
322.695	9.12
323.486	8.12
324.277	8.12
325.068	7.12
325.858	4.12
326.649	5.12
327.439	6.12
328.23	8.12
329.02	6.12
329.81	9.12
330.6	7.12
331.391	6.12
332.181	8.12
332.971	6.12
333.76	9.12
334.55	7.12
335.34	6.12
336.13	8.12
336.919	5.12
337.709	8.12
338.498	5.12
339.287	8.12
340.077	10.12
340.866	5.12
341.655	7.12
342.444	6.12
343.233	8.12
344.022	7.12
344.811	6.12
345.6	7.12
346.388	7.12
347.177	5.12
347.965	6.12
348.754	8.12
349.542	7.12
350.33	9.12
351.119	7.12
351.907	6.12
352.695	7.12
353.483	5.12
354.271	3.12
355.059	2.12
355.846	5.12
356.634	6.12
357.422	5.12
358.209	5.12
358.997	5.12
359.784	7.12
360.571	5.12
361.359	5.12
362.146	7.12
362.933	5.12
363.72	6.12
364.507	5.12
365.294	4.12
366.081	4.12
366.867	5.12
367.654	5.12
368.44	4.12
369.227	6.12
370.013	5.12
370.8	5.12
371.586	6.12
372.372	5.12
373.158	3.12
373.944	4.12
374.73	3.12
375.516	4.12
376.302	4.12
377.088	4.12
377.873	4.12
378.659	6.12
379.445	5.12
380.23	3.12
381.015	6.12
381.801	5.12
382.586	7.12
383.371	5.12
384.156	4.12
384.941	3.12
385.726	7.12
386.511	5.12
387.296	5.12
388.08	7.12
388.865	5.12
389.649	7.12
390.434	7.12
391.218	5.12
392.003	5.12
392.787	7.12
393.571	7.12
394.355	6.12
395.139	8.12
395.923	7.12
396.707	5.12
397.491	6.12
398.274	7.12
399.058	9.12
399.842	7.12
400.625	9.12
401.408	8.12
402.192	7.12
402.975	8.12
403.758	5.12
404.541	7.12
405.324	7.12
406.107	10.12
406.89	9.12
407.673	7.12
408.456	8.12
409.238	10.12
410.021	9.12
410.803	7.12
411.586	9.12
412.368	10.12
413.151	7.12
413.933	8.12
414.715	9.12
415.497	8.12
416.279	8.12
417.061	10.12
417.843	10.12
418.624	9.12
419.406	9.12
420.188	11.12
420.969	10.12
421.751	9.12
422.532	8.12
423.313	11.12
424.095	10.12
424.876	12.12
425.657	12.12
426.438	13.12
427.219	13.12
428	13.12
428.78	14.12
429.561	13.12
430.342	12.12
431.122	16.12
431.903	14.12
432.683	14.12
433.464	15.12
434.244	17.12
435.024	13.12
435.804	17.12
436.584	17.12
437.364	18.12
438.144	21.12
438.924	19.12
439.704	20.12
440.483	24.12
441.263	24.12
442.042	24.12
442.822	28.12
443.601	30.12
444.38	33.12
445.16	33.12
445.939	36.12
446.718	36.12
447.497	43.12
448.276	43.12
449.054	45.12
449.833	52.12
450.612	53.12
451.391	59.12
452.169	65.12
452.948	72.12
453.726	78.12
454.504	88.12
455.282	92.12
456.061	104.12
456.839	116.12
457.617	129.12
458.395	147.12
459.172	161.12
459.95	187.12
460.728	203.12
461.506	222.12
462.283	243.12
463.061	273.12
463.838	305.12
464.615	348.12
465.393	380.12
466.17	422.12
466.947	476.12
467.724	528.12
468.501	582.12
469.278	648.12
470.055	715.12
470.831	804.12
471.608	886.12
472.385	981.12
473.161	1084.12
473.938	1199.12
474.714	1332.12
475.49	1452.12
476.266	1600.12
477.043	1772.12
477.819	1935.12
478.595	2138.12
479.371	2354.12
480.146	2573.12
480.922	2825.12
481.698	3104.12
482.473	3414.12
483.249	3755.12
484.024	4091.12
484.8	4483.12
485.575	4928.12
486.35	5355.12
487.126	5850.12
487.901	6378.12
488.676	7010.12
489.451	7634.12
490.225	8312.12
491	9035.12
491.775	9882.12
492.55	10692.12
493.324	11552.12
494.099	12440.12
494.873	13374.12
495.647	14367.12
496.422	15390.12
497.196	16581.12
497.97	17601.12
498.744	18760.12
499.518	19854.12
500.292	20894.12
501.066	21942.12
501.839	22909.12
502.613	23840.12
503.387	24607.12
504.16	25296.12
504.934	25783.12
505.707	26030.12
506.48	26279.12
507.253	26240.12
508.027	26186.12
508.8	26012.12
509.573	25764.12
510.346	25304.12
511.118	24547.12
511.891	23974.12
512.664	23262.12
513.437	22469.12
514.209	21604.12
514.982	20820.12
515.754	19926.12
516.526	19125.12
517.298	18313.12
518.071	17522.12
518.843	16883.12
519.615	16201.12
520.387	15611.12
521.159	14939.12
521.93	14362.12
522.702	13866.12
523.474	13224.12
524.245	12670.12
525.017	12119.12
525.788	11712.12
526.56	11168.12
527.331	10640.12
528.102	10160.12
528.873	9729.12
529.644	9247.12
530.415	8838.12
531.186	8415.12
531.957	7979.12
532.728	7600.12
533.498	7184.12
534.269	6818.12
535.039	6442.12
535.81	6088.12
536.58	5749.12
537.351	5413.12
538.121	5118.12
538.891	4850.12
539.661	4611.12
540.431	4359.12
541.201	4104.12
541.971	3863.12
542.741	3687.12
543.51	3493.12
544.28	3339.12
545.05	3164.12
545.819	3025.12
546.588	2866.12
547.358	2729.12
548.127	2590.12
548.896	2471.12
549.665	2337.12
550.434	2226.12
551.203	2081.12
551.972	1983.12
552.741	1879.12
553.51	1790.12
554.278	1678.12
555.047	1592.12
555.815	1485.12
556.584	1427.12
557.352	1343.12
558.121	1278.12
558.889	1204.12
559.657	1126.12
560.425	1071.12
561.193	1004.12
561.961	952.12
562.729	897.12
563.496	849.12
564.264	802.12
565.032	764.12
565.799	723.12
566.567	684.12
567.334	639.12
568.101	598.12
568.869	570.12
569.636	531.12
570.403	504.12
571.17	475.12
571.937	449.12
572.704	417.12
573.471	403.12
574.237	373.12
575.004	356.12
575.771	336.12
576.537	313.12
577.303	298.12
578.07	278.12
578.836	263.12
579.602	249.12
580.368	234.12
581.134	227.12
581.9	210.12
582.666	201.12
583.432	193.12
584.198	182.12
584.964	174.12
585.729	162.12
586.495	158.12
587.26	145.12
588.025	140.12
588.791	131.12
589.556	130.12
590.321	115.12
591.086	108.12
591.851	106.12
592.616	101.12
593.381	92.12
594.146	94.12
594.911	87.12
595.675	87.12
596.44	78.12
597.204	81.12
597.969	75.12
598.733	69.12
599.497	68.12
600.261	64.12
601.025	62.12
601.79	56.12
602.553	56.12
603.317	52.12
604.081	49.12
604.845	45.12
605.609	42.12
606.372	45.12
607.136	43.12
607.899	38.12
608.662	44.12
609.426	36.12
610.189	36.12
610.952	33.12
611.715	31.12
612.478	29.12
613.241	30.12
614.004	30.12
614.767	28.12
615.529	26.12
616.292	25.12
617.055	25.12
617.817	24.12
618.579	23.12
619.342	21.12
620.104	23.12
620.866	25.12
621.628	22.12
622.39	18.12
623.152	21.12
623.914	18.12
624.676	16.12
625.438	19.12
626.199	15.12
626.961	16.12
627.722	17.12
628.484	14.12
629.245	14.12
630.006	14.12
630.768	16.12
631.529	12.12
632.29	12.12
633.051	13.12
633.812	12.12
634.573	11.12
635.333	11.12
636.094	11.12
636.855	10.12
637.615	14.12
638.376	9.12
639.136	11.12
639.896	10.12
640.657	9.12
641.417	7.12
642.177	10.12
642.937	9.12
643.697	7.12
644.457	9.12
645.216	7.12
645.976	9.12
646.736	10.12
647.495	7.12
648.255	10.12
649.014	6.12
649.774	7.12
650.533	6.12
651.292	6.12
652.051	7.12
652.81	8.12
653.569	7.12
654.328	7.12
655.087	7.12
655.846	5.12
656.604	5.12
657.363	5.12
658.121	5.12
658.88	6.12
659.638	6.12
660.397	4.12
661.155	6.12
661.913	8.12
662.671	6.12
663.429	6.12
664.187	5.12
664.945	7.12
665.703	5.12
666.46	6.12
667.218	5.12
667.976	7.12
668.733	6.12
669.49	4.12
670.248	6.12
671.005	5.12
671.762	5.12
672.519	4.12
673.276	4.12
674.033	5.12
674.79	5.12
675.547	4.12
676.304	3.12
677.06	7.12
677.817	2.12
678.574	6.12
679.33	5.12
680.086	6.12
680.843	5.12
681.599	5.12
682.355	4.12
683.111	5.12
683.867	5.12
684.623	4.12
685.379	8.12
686.135	5.12
686.89	4.12
687.646	7.12
688.402	2.12
689.157	6.12
689.912	4.12
690.668	4.12
691.423	5.12
692.178	5.12
692.933	5.12
693.688	4.12
694.443	2.12
695.198	5.12
695.953	2.12
696.708	4.12
697.462	4.12
698.217	3.12
698.972	3.12
699.726	4.12
700.48	3.12
701.235	4.12
701.989	1.12
702.743	6.12
703.497	4.12
704.251	4.12
705.005	4.12
705.759	4.12
706.513	0.12
707.266	4.12
708.02	5.12
708.774	4.12
709.527	5.12
710.28	3.12
711.034	4.12
711.787	2.12
712.54	6.12
713.293	4.12
714.046	6.12
714.799	4.12
715.552	3.12
716.305	3.12
717.058	5.12
717.81	5.12
718.563	5.12
719.315	5.12
720.068	4.12
720.82	2.12
721.573	4.12
722.325	5.12
723.077	6.12
723.829	5.12
724.581	3.12
725.333	4.12
726.085	3.12
726.836	3.12
727.588	4.12
728.34	6.12
729.091	4.12
729.843	2.12
730.594	3.12
731.346	3.12
732.097	4.12
732.848	4.12
733.599	5.12
734.35	6.12
735.101	7.12
735.852	4.12
736.603	5.12
737.354	4.12
738.104	5.12
738.855	3.12
739.605	4.12
740.356	6.12
741.106	4.12
741.856	5.12
742.607	6.12
743.357	6.12
744.107	3.12
744.857	7.12
745.607	4.12
746.357	5.12
747.106	3.12
747.856	6.12
748.606	5.12
749.355	2.12
750.105	9.12
750.854	5.12
751.603	5.12
752.353	6.12
753.102	5.12
753.851	6.12
754.6	6.12
755.349	4.12
756.098	7.12
756.847	7.12
757.595	6.12
758.344	6.12
759.093	5.12
759.841	5.12
760.589	8.12
761.338	5.12
762.086	7.12
762.834	5.12
763.582	6.12
764.331	6.12
765.079	8.12
765.826	8.12
766.574	8.12
767.322	7.12
768.07	7.12
768.817	7.12
769.565	7.12
770.312	8.12
771.06	8.12
771.807	7.12
772.554	8.12
773.302	9.12
774.049	6.12
774.796	6.12
775.543	7.12
776.29	7.12
777.036	7.12
777.783	8.12
778.53	8.12
779.276	8.12
780.023	8.12
780.769	8.12
781.516	10.12
782.262	10.12
783.008	8.12
783.754	9.12
784.5	9.12
785.246	9.12
785.992	8.12
786.738	9.12
787.484	8.12
788.23	6.12
788.975	8.12
789.721	9.12
790.466	7.12
791.212	10.12
791.957	8.12
792.702	9.12
793.447	8.12
794.193	8.12
794.938	7.12
795.683	6.12
796.427	7.12
797.172	9.12
797.917	8.12
798.662	8.12
799.406	9.12
800.151	7.12
800.895	8.12
801.64	8.12
802.384	7.12
803.128	6.12
803.872	5.12
804.616	4.12
805.36	5.12
806.104	7.12
806.848	8.12
807.592	8.12
808.336	6.12
809.079	5.12
809.823	5.12
810.566	6.12
811.31	7.12
812.053	6.12
812.796	5.12
813.539	7.12
814.283	4.12
815.026	8.12
815.769	7.12
816.511	4.12
817.254	5.12
817.997	4.12
818.74	5.12
819.482	5.12
820.225	4.12
820.967	6.12
821.71	4.12
822.452	4.12
823.194	2.12
823.936	8.12
824.678	4.12
825.42	4.12
826.162	3.12
826.904	6.12
827.646	5.12
828.388	6.12
829.129	4.12
829.871	3.12
830.612	5.12
831.354	7.12
832.095	4.12
832.836	4.12
833.577	5.12
834.319	5.12
835.06	6.12
835.801	3.12
836.542	3.12
837.282	5.12
838.023	7.12
838.764	3.12
839.504	3.12
840.245	0.12
840.985	2.12
841.726	2.12
842.466	1.12
843.206	4.12
843.946	3.12
844.687	4.12
845.427	4.12
846.166	3.12
846.906	3.12
847.646	2.12
848.386	5.12
849.125	1.12
849.865	3.12
850.605	2.12
851.344	2.12
852.083	5.12
852.823	3.12
853.562	4.12
854.301	0.12
855.04	1.12
855.779	5.12
856.518	2.12
857.257	2.12
857.995	2.12
858.734	2.12
859.473	2.12
860.211	2.12
860.95	4.12
861.688	1.12
862.426	4.12
863.165	1.12
863.903	1.12
864.641	2.12
865.379	2.12
866.117	2.12
866.855	1.12
867.593	1.12
868.33	2.12
869.068	2.12
869.806	4.12
870.543	1.12
871.28	3.12
872.018	2.12
872.755	2.12
873.492	4.12
874.229	-0.88
874.967	1.12
875.703	2.12
876.44	0.12
877.177	2.12
877.914	2.12
878.651	2.12
879.387	3.12
880.124	2.12
880.86	1.12
881.597	1.12
882.333	1.12
883.069	0.12
883.806	0.12
884.542	-0.88
885.278	2.12
886.014	1.12
886.749	1.12
887.485	0.12
888.221	0.12
888.957	0.12
889.692	1.12
890.428	2.12
891.163	1.12
891.899	1.12
892.634	2.12
893.369	1.12
894.104	3.12
894.839	1.12
895.574	2.12
896.309	1.12
897.044	1.12
897.779	2.12
898.514	1.12
899.248	0.12
899.983	1.12
900.717	1.12
901.452	2.12
902.186	-0.88
902.92	0.12
903.654	0.12
904.389	1.12
905.123	1.12
905.857	-1.88
906.59	3.12
907.324	-0.88
908.058	-0.88
908.792	1.12
909.525	2.12
910.259	0.12
910.992	0.12
911.726	1.12
912.459	0.12
913.192	-0.88
913.925	1.12
914.658	1.12
915.391	1.12
916.124	0.12
916.857	1.12
917.59	0.12
918.323	1.12
919.055	1.12
919.788	1.12
920.521	1.12
921.253	0.12
921.985	1.12
922.718	0.12
923.45	1.12
924.182	0.12
924.914	2.12
925.646	1.12
926.378	1.12
927.11	-0.88
927.841	2.12
928.573	1.12
929.305	-0.88
930.036	1.12
930.768	0.12
931.499	1.12
932.23	0.12
932.962	0.12
933.693	2.12
934.424	0.12
935.155	-0.88
935.886	0.12
936.617	1.12
937.348	1.12
938.078	2.12
938.809	-0.88
939.54	0.12
940.27	-0.88
941.001	1.12
941.731	0.12
942.461	2.12
943.191	-0.88
943.922	2.12
944.652	2.12
945.382	-0.88
946.112	1.12
946.841	1.12
947.571	1.12
948.301	-0.88
949.031	-0.88
949.76	1.12
950.49	1.12
951.219	-1.88
951.948	1.12
952.678	-0.88
953.407	1.12
954.136	-0.88
954.865	0.12
955.594	0.12
956.323	0.12
957.052	3.12
957.78	0.12
958.509	1.12
959.238	0.12
959.966	2.12
960.695	2.12
961.423	0.12
962.151	1.12
962.88	-0.88
963.608	2.12
964.336	-0.88
965.064	2.12
965.792	0.12
966.52	-1.88
967.247	-1.88
967.975	0.12
968.703	3.12
969.43	-0.88
970.158	1.12
970.885	1.12
971.613	0.12
972.34	2.12
973.067	-0.88
973.794	2.12
974.521	-0.88
975.248	-0.88
975.975	-0.88
976.702	0.12
977.429	0.12
978.156	-1.88
978.882	1.12
979.609	0.12
980.335	1.12
981.062	1.12
981.788	-1.88
982.514	0.12
983.24	-0.88
983.967	2.12
984.693	0.12
985.419	0.12
986.144	-1.88
986.87	0.12
987.596	1.12
988.322	0.12
989.047	1.12
989.773	1.12
990.498	0.12
991.224	2.12
991.949	-2.88
992.674	0.12
993.399	1.12
994.124	-1.88
994.849	-1.88
995.574	1.12
996.299	2.12
997.024	1.12
997.749	2.12
998.473	0.12
999.198	0.12
999.922	0.12
1000.647	2.12
1001.371	3.12
1002.095	0.12
1002.82	-0.88
1003.544	0.12
1004.268	3.12
1004.992	1.12
1005.716	1.12
1006.439	2.12
1007.163	0.12
1007.887	1.12
1008.611	1.12
1009.334	0.12
1010.058	1.12
1010.781	-0.88
1011.504	-0.88
1012.228	0.12
1012.951	0.12
1013.674	1.12
1014.397	-1.88
1015.12	-1.88
