节点500_285_QEPB04081__494__15-03-46-421.txt的数据

Date: Wed Nov 12 15:03:46 CST 2025
User: PC
Spectrometer: QEPB0408
触发模式: 0
积分时间 (秒): 1.000000E-2
Scans to average: 1
启用暗噪声校正: true
启用非线性校正: false
滑动平均宽度: 0
X轴模式: Wavelengths
Number of Pixels in Spectrum: 1044
>>>>>Begin Spectral Data<<<<<
220.843	2.75
221.644	2.75
222.444	1.75
223.244	-0.25
224.045	3.75
224.845	5.75
225.645	5.75
226.445	4.75
227.245	3.75
228.045	3.75
228.845	4.75
229.645	3.75
230.444	2.75
231.244	4.75
232.043	2.75
232.843	1.75
233.642	6.75
234.442	2.75
235.241	5.75
236.04	2.75
236.839	2.75
237.638	4.75
238.437	4.75
239.236	4.75
240.035	4.75
240.833	2.75
241.632	8.75
242.43	5.75
243.229	8.75
244.027	4.75
244.826	4.75
245.624	5.75
246.422	8.75
247.22	5.75
248.018	4.75
248.816	7.75
249.614	7.75
250.412	5.75
251.21	5.75
252.007	7.75
252.805	6.75
253.602	10.75
254.4	10.75
255.197	8.75
255.994	9.75
256.791	7.75
257.589	9.75
258.386	7.75
259.183	8.75
259.979	10.75
260.776	9.75
261.573	13.75
262.37	12.75
263.166	11.75
263.963	12.75
264.759	12.75
265.556	13.75
266.352	11.75
267.148	16.75
267.944	13.75
268.74	11.75
269.536	13.75
270.332	13.75
271.128	17.75
271.924	14.75
272.719	17.75
273.515	15.75
274.311	15.75
275.106	16.75
275.901	14.75
276.697	17.75
277.492	17.75
278.287	17.75
279.082	17.75
279.877	17.75
280.672	15.75
281.467	18.75
282.262	17.75
283.056	18.75
283.851	17.75
284.646	20.75
285.44	19.75
286.234	21.75
287.029	16.75
287.823	21.75
288.617	20.75
289.411	19.75
290.205	19.75
290.999	18.75
291.793	19.75
292.587	18.75
293.381	19.75
294.174	16.75
294.968	14.75
295.761	17.75
296.555	18.75
297.348	15.75
298.141	16.75
298.935	17.75
299.728	16.75
300.521	16.75
301.314	15.75
302.107	15.75
302.899	12.75
303.692	14.75
304.485	13.75
305.277	12.75
306.07	11.75
306.862	14.75
307.655	13.75
308.447	15.75
309.239	14.75
310.031	9.75
310.823	11.75
311.615	11.75
312.407	11.75
313.199	9.75
313.991	10.75
314.783	11.75
315.574	9.75
316.366	10.75
317.157	7.75
317.949	10.75
318.74	8.75
319.531	9.75
320.322	8.75
321.113	11.75
321.904	6.75
322.695	10.75
323.486	7.75
324.277	8.75
325.068	8.75
325.858	8.75
326.649	7.75
327.439	7.75
328.23	8.75
329.02	7.75
329.81	7.75
330.6	7.75
331.391	8.75
332.181	3.75
332.971	6.75
333.76	8.75
334.55	5.75
335.34	8.75
336.13	9.75
336.919	9.75
337.709	7.75
338.498	5.75
339.287	6.75
340.077	6.75
340.866	6.75
341.655	6.75
342.444	6.75
343.233	9.75
344.022	6.75
344.811	6.75
345.6	6.75
346.388	6.75
347.177	5.75
347.965	5.75
348.754	6.75
349.542	8.75
350.33	6.75
351.119	5.75
351.907	6.75
352.695	8.75
353.483	6.75
354.271	7.75
355.059	7.75
355.846	8.75
356.634	5.75
357.422	7.75
358.209	9.75
358.997	5.75
359.784	6.75
360.571	5.75
361.359	8.75
362.146	5.75
362.933	5.75
363.72	6.75
364.507	6.75
365.294	6.75
366.081	6.75
366.867	6.75
367.654	6.75
368.44	5.75
369.227	4.75
370.013	5.75
370.8	8.75
371.586	5.75
372.372	8.75
373.158	6.75
373.944	5.75
374.73	3.75
375.516	4.75
376.302	7.75
377.088	6.75
377.873	7.75
378.659	5.75
379.445	8.75
380.23	7.75
381.015	4.75
381.801	5.75
382.586	2.75
383.371	5.75
384.156	5.75
384.941	5.75
385.726	8.75
386.511	6.75
387.296	5.75
388.08	4.75
388.865	6.75
389.649	9.75
390.434	7.75
391.218	8.75
392.003	5.75
392.787	7.75
393.571	8.75
394.355	6.75
395.139	7.75
395.923	5.75
396.707	9.75
397.491	7.75
398.274	6.75
399.058	9.75
399.842	8.75
400.625	5.75
401.408	7.75
402.192	9.75
402.975	8.75
403.758	9.75
404.541	9.75
405.324	7.75
406.107	9.75
406.89	7.75
407.673	5.75
408.456	7.75
409.238	9.75
410.021	7.75
410.803	7.75
411.586	8.75
412.368	8.75
413.151	10.75
413.933	10.75
414.715	8.75
415.497	8.75
416.279	10.75
417.061	10.75
417.843	9.75
418.624	7.75
419.406	10.75
420.188	9.75
420.969	12.75
421.751	11.75
422.532	9.75
423.313	10.75
424.095	10.75
424.876	10.75
425.657	13.75
426.438	11.75
427.219	14.75
428	15.75
428.78	12.75
429.561	16.75
430.342	15.75
431.122	14.75
431.903	14.75
432.683	16.75
433.464	17.75
434.244	14.75
435.024	16.75
435.804	20.75
436.584	19.75
437.364	22.75
438.144	22.75
438.924	21.75
439.704	22.75
440.483	22.75
441.263	22.75
442.042	24.75
442.822	29.75
443.601	32.75
444.38	31.75
445.16	32.75
445.939	32.75
446.718	36.75
447.497	42.75
448.276	44.75
449.054	47.75
449.833	49.75
450.612	57.75
451.391	60.75
452.169	63.75
452.948	69.75
453.726	76.75
454.504	83.75
455.282	92.75
456.061	105.75
456.839	116.75
457.617	128.75
458.395	138.75
459.172	154.75
459.95	169.75
460.728	199.75
461.506	215.75
462.283	238.75
463.061	270.75
463.838	305.75
464.615	331.75
465.393	373.75
466.17	413.75
466.947	456.75
467.724	511.75
468.501	580.75
469.278	642.75
470.055	708.75
470.831	782.75
471.608	872.75
472.385	969.75
473.161	1072.75
473.938	1180.75
474.714	1310.75
475.49	1438.75
476.266	1576.75
477.043	1750.75
477.819	1947.75
478.595	2141.75
479.371	2339.75
480.146	2574.75
480.922	2841.75
481.698	3153.75
482.473	3426.75
483.249	3776.75
484.024	4134.75
484.8	4544.75
485.575	4985.75
486.35	5486.75
487.126	6002.75
487.901	6577.75
488.676	7156.75
489.451	7800.75
490.225	8533.75
491	9267.75
491.775	10154.75
492.55	11017.75
493.324	11952.75
494.099	12838.75
494.873	13861.75
495.647	14917.75
496.422	16001.75
497.196	17199.75
497.97	18281.75
498.744	19464.75
499.518	20484.75
500.292	21627.75
501.066	22740.75
501.839	23670.75
502.613	24553.75
503.387	25392.75
504.16	26022.75
504.934	26443.75
505.707	26700.75
506.48	26886.75
507.253	26845.75
508.027	26672.75
508.8	26408.75
509.573	26122.75
510.346	25518.75
511.118	24826.75
511.891	24072.75
512.664	23326.75
513.437	22511.75
514.209	21590.75
514.982	20772.75
515.754	19940.75
516.526	19043.75
517.298	18231.75
518.071	17401.75
518.843	16698.75
519.615	16154.75
520.387	15454.75
521.159	14845.75
521.93	14249.75
522.702	13680.75
523.474	13140.75
524.245	12547.75
525.017	12040.75
525.788	11554.75
526.56	11074.75
527.331	10582.75
528.102	10136.75
528.873	9628.75
529.644	9163.75
530.415	8737.75
531.186	8293.75
531.957	7862.75
532.728	7495.75
533.498	7112.75
534.269	6722.75
535.039	6326.75
535.81	5977.75
536.58	5676.75
537.351	5332.75
538.121	5054.75
538.891	4765.75
539.661	4514.75
540.431	4252.75
541.201	4025.75
541.971	3834.75
542.741	3619.75
543.51	3441.75
544.28	3253.75
545.05	3102.75
545.819	2977.75
546.588	2792.75
547.358	2678.75
548.127	2530.75
548.896	2403.75
549.665	2282.75
550.434	2153.75
551.203	2036.75
551.972	1940.75
552.741	1849.75
553.51	1746.75
554.278	1637.75
555.047	1548.75
555.815	1467.75
556.584	1382.75
557.352	1311.75
558.121	1228.75
558.889	1172.75
559.657	1102.75
560.425	1050.75
561.193	979.75
561.961	926.75
562.729	873.75
563.496	840.75
564.264	778.75
565.032	742.75
565.799	703.75
566.567	664.75
567.334	618.75
568.101	589.75
568.869	561.75
569.636	518.75
570.403	502.75
571.17	474.75
571.937	434.75
572.704	416.75
573.471	399.75
574.237	375.75
575.004	353.75
575.771	324.75
576.537	314.75
577.303	288.75
578.07	274.75
578.836	261.75
579.602	248.75
580.368	227.75
581.134	215.75
581.9	207.75
582.666	205.75
583.432	182.75
584.198	177.75
584.964	165.75
585.729	159.75
586.495	153.75
587.26	143.75
588.025	133.75
588.791	130.75
589.556	119.75
590.321	109.75
591.086	105.75
591.851	97.75
592.616	98.75
593.381	92.75
594.146	91.75
594.911	87.75
595.675	83.75
596.44	78.75
597.204	74.75
597.969	70.75
598.733	69.75
599.497	64.75
600.261	62.75
601.025	60.75
601.79	56.75
602.553	52.75
603.317	49.75
604.081	50.75
604.845	47.75
605.609	43.75
606.372	46.75
607.136	44.75
607.899	43.75
608.662	38.75
609.426	38.75
610.189	37.75
610.952	31.75
611.715	32.75
612.478	30.75
613.241	31.75
614.004	30.75
614.767	28.75
615.529	25.75
616.292	24.75
617.055	25.75
617.817	24.75
618.579	25.75
619.342	24.75
620.104	23.75
620.866	25.75
621.628	19.75
622.39	20.75
623.152	20.75
623.914	16.75
624.676	18.75
625.438	15.75
626.199	16.75
626.961	18.75
627.722	17.75
628.484	17.75
629.245	15.75
630.006	14.75
630.768	13.75
631.529	16.75
632.29	13.75
633.051	14.75
633.812	13.75
634.573	10.75
635.333	12.75
636.094	13.75
636.855	11.75
637.615	10.75
638.376	8.75
639.136	9.75
639.896	10.75
640.657	10.75
641.417	9.75
642.177	10.75
642.937	6.75
643.697	8.75
644.457	12.75
645.216	8.75
645.976	9.75
646.736	8.75
647.495	9.75
648.255	8.75
649.014	7.75
649.774	9.75
650.533	9.75
651.292	8.75
652.051	7.75
652.81	7.75
653.569	6.75
654.328	6.75
655.087	9.75
655.846	6.75
656.604	6.75
657.363	8.75
658.121	7.75
658.88	8.75
659.638	6.75
660.397	6.75
661.155	8.75
661.913	3.75
662.671	5.75
663.429	3.75
664.187	7.75
664.945	6.75
665.703	6.75
666.46	5.75
667.218	5.75
667.976	7.75
668.733	6.75
669.49	6.75
670.248	5.75
671.005	7.75
671.762	5.75
672.519	2.75
673.276	6.75
674.033	4.75
674.79	4.75
675.547	7.75
676.304	6.75
677.06	4.75
677.817	5.75
678.574	6.75
679.33	3.75
680.086	4.75
680.843	5.75
681.599	3.75
682.355	5.75
683.111	5.75
683.867	3.75
684.623	5.75
685.379	5.75
686.135	6.75
686.89	4.75
687.646	4.75
688.402	2.75
689.157	4.75
689.912	4.75
690.668	4.75
691.423	3.75
692.178	4.75
692.933	5.75
693.688	4.75
694.443	6.75
695.198	3.75
695.953	3.75
696.708	5.75
697.462	4.75
698.217	4.75
698.972	5.75
699.726	3.75
700.48	4.75
701.235	2.75
701.989	5.75
702.743	2.75
703.497	3.75
704.251	4.75
705.005	2.75
705.759	6.75
706.513	4.75
707.266	5.75
708.02	3.75
708.774	3.75
709.527	5.75
710.28	1.75
711.034	6.75
711.787	4.75
712.54	3.75
713.293	4.75
714.046	2.75
714.799	3.75
715.552	4.75
716.305	2.75
717.058	1.75
717.81	5.75
718.563	4.75
719.315	4.75
720.068	4.75
720.82	2.75
721.573	3.75
722.325	4.75
723.077	2.75
723.829	2.75
724.581	5.75
725.333	4.75
726.085	5.75
726.836	4.75
727.588	4.75
728.34	5.75
729.091	6.75
729.843	4.75
730.594	6.75
731.346	5.75
732.097	4.75
732.848	3.75
733.599	1.75
734.35	5.75
735.101	5.75
735.852	5.75
736.603	6.75
737.354	5.75
738.104	6.75
738.855	4.75
739.605	2.75
740.356	3.75
741.106	4.75
741.856	6.75
742.607	6.75
743.357	6.75
744.107	5.75
744.857	6.75
745.607	5.75
746.357	5.75
747.106	5.75
747.856	2.75
748.606	7.75
749.355	5.75
750.105	4.75
750.854	7.75
751.603	4.75
752.353	5.75
753.102	4.75
753.851	5.75
754.6	5.75
755.349	7.75
756.098	6.75
756.847	5.75
757.595	7.75
758.344	5.75
759.093	7.75
759.841	5.75
760.589	5.75
761.338	5.75
762.086	7.75
762.834	7.75
763.582	6.75
764.331	6.75
765.079	5.75
765.826	6.75
766.574	8.75
767.322	6.75
768.07	10.75
768.817	9.75
769.565	7.75
770.312	8.75
771.06	9.75
771.807	8.75
772.554	8.75
773.302	8.75
774.049	6.75
774.796	6.75
775.543	10.75
776.29	8.75
777.036	8.75
777.783	8.75
778.53	10.75
779.276	10.75
780.023	10.75
780.769	9.75
781.516	8.75
782.262	8.75
783.008	6.75
783.754	8.75
784.5	9.75
785.246	9.75
785.992	9.75
786.738	8.75
787.484	8.75
788.23	10.75
788.975	9.75
789.721	8.75
790.466	8.75
791.212	10.75
791.957	8.75
792.702	10.75
793.447	10.75
794.193	7.75
794.938	8.75
795.683	7.75
796.427	9.75
797.172	8.75
797.917	7.75
798.662	7.75
799.406	7.75
800.151	8.75
800.895	8.75
801.64	8.75
802.384	9.75
803.128	8.75
803.872	7.75
804.616	5.75
805.36	9.75
806.104	7.75
806.848	6.75
807.592	7.75
808.336	6.75
809.079	6.75
809.823	5.75
810.566	6.75
811.31	4.75
812.053	9.75
812.796	3.75
813.539	3.75
814.283	5.75
815.026	6.75
815.769	5.75
816.511	6.75
817.254	4.75
817.997	6.75
818.74	6.75
819.482	4.75
820.225	4.75
820.967	6.75
821.71	4.75
822.452	6.75
823.194	4.75
823.936	4.75
824.678	2.75
825.42	6.75
826.162	5.75
826.904	6.75
827.646	4.75
828.388	6.75
829.129	3.75
829.871	3.75
830.612	3.75
831.354	5.75
832.095	2.75
832.836	4.75
833.577	5.75
834.319	4.75
835.06	6.75
835.801	2.75
836.542	3.75
837.282	4.75
838.023	3.75
838.764	6.75
839.504	2.75
840.245	3.75
840.985	4.75
841.726	2.75
842.466	4.75
843.206	4.75
843.946	5.75
844.687	6.75
845.427	4.75
846.166	3.75
846.906	2.75
847.646	3.75
848.386	1.75
849.125	5.75
849.865	4.75
850.605	1.75
851.344	2.75
852.083	2.75
852.823	2.75
853.562	5.75
854.301	1.75
855.04	2.75
855.779	3.75
856.518	3.75
857.257	2.75
857.995	4.75
858.734	3.75
859.473	5.75
860.211	3.75
860.95	2.75
861.688	3.75
862.426	1.75
863.165	3.75
863.903	3.75
864.641	1.75
865.379	2.75
866.117	3.75
866.855	3.75
867.593	2.75
868.33	3.75
869.068	1.75
869.806	2.75
870.543	1.75
871.28	2.75
872.018	2.75
872.755	1.75
873.492	-0.25
874.229	1.75
874.967	0.75
875.703	1.75
876.44	2.75
877.177	1.75
877.914	0.75
878.651	1.75
879.387	1.75
880.124	4.75
880.86	2.75
881.597	1.75
882.333	-1.25
883.069	1.75
883.806	-1.25
884.542	2.75
885.278	2.75
886.014	3.75
886.749	2.75
887.485	3.75
888.221	2.75
888.957	3.75
889.692	1.75
890.428	1.75
891.163	2.75
891.899	1.75
892.634	2.75
893.369	1.75
894.104	-1.25
894.839	2.75
895.574	-0.25
896.309	3.75
897.044	2.75
897.779	4.75
898.514	-0.25
899.248	0.75
899.983	5.75
900.717	0.75
901.452	1.75
902.186	1.75
902.92	2.75
903.654	-0.25
904.389	2.75
905.123	0.75
905.857	0.75
906.59	1.75
907.324	0.75
908.058	2.75
908.792	2.75
909.525	0.75
910.259	2.75
910.992	2.75
911.726	2.75
912.459	0.75
913.192	-1.25
913.925	1.75
914.658	0.75
915.391	1.75
916.124	-0.25
916.857	0.75
917.59	-1.25
918.323	0.75
919.055	2.75
919.788	0.75
920.521	-0.25
921.253	1.75
921.985	0.75
922.718	2.75
923.45	0.75
924.182	2.75
924.914	1.75
925.646	3.75
926.378	-0.25
927.11	0.75
927.841	0.75
928.573	0.75
929.305	1.75
930.036	2.75
930.768	2.75
931.499	0.75
932.23	0.75
932.962	1.75
933.693	0.75
934.424	1.75
935.155	1.75
935.886	1.75
936.617	1.75
937.348	0.75
938.078	2.75
938.809	2.75
939.54	0.75
940.27	0.75
941.001	0.75
941.731	1.75
942.461	0.75
943.191	1.75
943.922	-1.25
944.652	0.75
945.382	0.75
946.112	1.75
946.841	2.75
947.571	-0.25
948.301	0.75
949.031	0.75
949.76	0.75
950.49	0.75
951.219	-1.25
951.948	2.75
952.678	1.75
953.407	1.75
954.136	2.75
954.865	-0.25
955.594	2.75
956.323	1.75
957.052	-0.25
957.78	3.75
958.509	2.75
959.238	2.75
959.966	1.75
960.695	2.75
961.423	1.75
962.151	-0.25
962.88	1.75
963.608	-0.25
964.336	-0.25
965.064	0.75
965.792	2.75
966.52	2.75
967.247	2.75
967.975	-1.25
968.703	-0.25
969.43	3.75
970.158	3.75
970.885	1.75
971.613	-0.25
972.34	0.75
973.067	0.75
973.794	0.75
974.521	-0.25
975.248	1.75
975.975	2.75
976.702	0.75
977.429	1.75
978.156	2.75
978.882	1.75
979.609	0.75
980.335	0.75
981.062	0.75
981.788	1.75
982.514	-1.25
983.24	0.75
983.967	0.75
984.693	2.75
985.419	-1.25
986.144	0.75
986.87	2.75
987.596	-0.25
988.322	3.75
989.047	2.75
989.773	1.75
990.498	1.75
991.224	1.75
991.949	1.75
992.674	1.75
993.399	-1.25
994.124	0.75
994.849	0.75
995.574	1.75
996.299	2.75
997.024	2.75
997.749	1.75
998.473	1.75
999.198	-0.25
999.922	2.75
1000.647	1.75
1001.371	3.75
1002.095	-0.25
1002.82	-1.25
1003.544	-3.25
1004.268	4.75
1004.992	1.75
1005.716	2.75
1006.439	4.75
1007.163	1.75
1007.887	3.75
1008.611	1.75
1009.334	2.75
1010.058	2.75
1010.781	-1.25
1011.504	0.75
1012.228	0.75
1012.951	2.75
1013.674	-1.25
1014.397	-0.25
1015.12	-0.25
