节点500_285_QEPB04081__319__15-00-51-746.txt的数据

Date: Wed Nov 12 15:00:51 CST 2025
User: PC
Spectrometer: QEPB0408
触发模式: 0
积分时间 (秒): 1.000000E-2
Scans to average: 1
启用暗噪声校正: true
启用非线性校正: false
滑动平均宽度: 0
X轴模式: Wavelengths
Number of Pixels in Spectrum: 1044
>>>>>Begin Spectral Data<<<<<
220.843	0.75
221.644	2.75
222.444	0.75
223.244	3.75
224.045	2.75
224.845	4.75
225.645	3.75
226.445	1.75
227.245	1.75
228.045	0.75
228.845	2.75
229.645	2.75
230.444	1.75
231.244	3.75
232.043	3.75
232.843	2.75
233.642	6.75
234.442	5.75
235.241	4.75
236.04	2.75
236.839	3.75
237.638	5.75
238.437	8.75
239.236	1.75
240.035	0.75
240.833	6.75
241.632	3.75
242.43	3.75
243.229	3.75
244.027	5.75
244.826	3.75
245.624	5.75
246.422	4.75
247.22	2.75
248.018	6.75
248.816	2.75
249.614	6.75
250.412	5.75
251.21	8.75
252.007	4.75
252.805	5.75
253.602	8.75
254.4	5.75
255.197	9.75
255.994	5.75
256.791	7.75
257.589	10.75
258.386	7.75
259.183	10.75
259.979	8.75
260.776	9.75
261.573	12.75
262.37	11.75
263.166	11.75
263.963	9.75
264.759	12.75
265.556	11.75
266.352	11.75
267.148	13.75
267.944	13.75
268.74	15.75
269.536	16.75
270.332	17.75
271.128	15.75
271.924	16.75
272.719	15.75
273.515	16.75
274.311	15.75
275.106	19.75
275.901	16.75
276.697	16.75
277.492	19.75
278.287	18.75
279.082	17.75
279.877	17.75
280.672	16.75
281.467	17.75
282.262	19.75
283.056	21.75
283.851	19.75
284.646	19.75
285.44	19.75
286.234	19.75
287.029	16.75
287.823	20.75
288.617	20.75
289.411	17.75
290.205	17.75
290.999	19.75
291.793	17.75
292.587	17.75
293.381	19.75
294.174	15.75
294.968	18.75
295.761	17.75
296.555	16.75
297.348	15.75
298.141	17.75
298.935	20.75
299.728	16.75
300.521	13.75
301.314	14.75
302.107	13.75
302.899	12.75
303.692	12.75
304.485	12.75
305.277	13.75
306.07	13.75
306.862	13.75
307.655	12.75
308.447	13.75
309.239	13.75
310.031	9.75
310.823	12.75
311.615	9.75
312.407	8.75
313.199	7.75
313.991	9.75
314.783	9.75
315.574	9.75
316.366	8.75
317.157	8.75
317.949	7.75
318.74	8.75
319.531	8.75
320.322	5.75
321.113	8.75
321.904	7.75
322.695	3.75
323.486	8.75
324.277	7.75
325.068	7.75
325.858	5.75
326.649	6.75
327.439	4.75
328.23	7.75
329.02	7.75
329.81	5.75
330.6	7.75
331.391	6.75
332.181	4.75
332.971	8.75
333.76	4.75
334.55	7.75
335.34	6.75
336.13	7.75
336.919	6.75
337.709	7.75
338.498	3.75
339.287	5.75
340.077	6.75
340.866	9.75
341.655	5.75
342.444	7.75
343.233	5.75
344.022	5.75
344.811	6.75
345.6	6.75
346.388	6.75
347.177	6.75
347.965	6.75
348.754	5.75
349.542	7.75
350.33	5.75
351.119	5.75
351.907	7.75
352.695	7.75
353.483	3.75
354.271	5.75
355.059	4.75
355.846	5.75
356.634	6.75
357.422	3.75
358.209	5.75
358.997	6.75
359.784	5.75
360.571	2.75
361.359	6.75
362.146	4.75
362.933	5.75
363.72	5.75
364.507	5.75
365.294	3.75
366.081	5.75
366.867	4.75
367.654	7.75
368.44	4.75
369.227	3.75
370.013	5.75
370.8	5.75
371.586	4.75
372.372	6.75
373.158	5.75
373.944	4.75
374.73	4.75
375.516	3.75
376.302	1.75
377.088	3.75
377.873	7.75
378.659	3.75
379.445	6.75
380.23	6.75
381.015	3.75
381.801	5.75
382.586	6.75
383.371	6.75
384.156	5.75
384.941	3.75
385.726	6.75
386.511	5.75
387.296	7.75
388.08	5.75
388.865	4.75
389.649	6.75
390.434	4.75
391.218	3.75
392.003	6.75
392.787	6.75
393.571	6.75
394.355	7.75
395.139	5.75
395.923	7.75
396.707	9.75
397.491	5.75
398.274	4.75
399.058	6.75
399.842	3.75
400.625	8.75
401.408	7.75
402.192	7.75
402.975	8.75
403.758	7.75
404.541	7.75
405.324	7.75
406.107	8.75
406.89	7.75
407.673	6.75
408.456	8.75
409.238	5.75
410.021	9.75
410.803	7.75
411.586	7.75
412.368	7.75
413.151	6.75
413.933	7.75
414.715	6.75
415.497	10.75
416.279	9.75
417.061	7.75
417.843	7.75
418.624	9.75
419.406	11.75
420.188	9.75
420.969	9.75
421.751	12.75
422.532	12.75
423.313	10.75
424.095	9.75
424.876	12.75
425.657	10.75
426.438	11.75
427.219	12.75
428	10.75
428.78	14.75
429.561	9.75
430.342	14.75
431.122	13.75
431.903	16.75
432.683	13.75
433.464	16.75
434.244	17.75
435.024	18.75
435.804	16.75
436.584	17.75
437.364	20.75
438.144	20.75
438.924	19.75
439.704	21.75
440.483	21.75
441.263	25.75
442.042	23.75
442.822	24.75
443.601	30.75
444.38	27.75
445.16	30.75
445.939	33.75
446.718	35.75
447.497	37.75
448.276	41.75
449.054	42.75
449.833	51.75
450.612	53.75
451.391	61.75
452.169	60.75
452.948	67.75
453.726	75.75
454.504	80.75
455.282	91.75
456.061	99.75
456.839	107.75
457.617	119.75
458.395	133.75
459.172	152.75
459.95	166.75
460.728	181.75
461.506	203.75
462.283	233.75
463.061	260.75
463.838	288.75
464.615	320.75
465.393	354.75
466.17	395.75
466.947	451.75
467.724	495.75
468.501	560.75
469.278	621.75
470.055	683.75
470.831	769.75
471.608	854.75
472.385	950.75
473.161	1053.75
473.938	1163.75
474.714	1293.75
475.49	1431.75
476.266	1554.75
477.043	1758.75
477.819	1910.75
478.595	2139.75
479.371	2376.75
480.146	2603.75
480.922	2837.75
481.698	3156.75
482.473	3473.75
483.249	3840.75
484.024	4220.75
484.8	4617.75
485.575	5116.75
486.35	5600.75
487.126	6155.75
487.901	6742.75
488.676	7395.75
489.451	8099.75
490.225	8858.75
491	9678.75
491.775	10600.75
492.55	11513.75
493.324	12504.75
494.099	13459.75
494.873	14472.75
495.647	15633.75
496.422	16792.75
497.196	18002.75
497.97	19210.75
498.744	20471.75
499.518	21581.75
500.292	22774.75
501.066	23810.75
501.839	24799.75
502.613	25669.75
503.387	26482.75
504.16	27030.75
504.934	27354.75
505.707	27511.75
506.48	27577.75
507.253	27480.75
508.027	27210.75
508.8	26912.75
509.573	26428.75
510.346	25767.75
511.118	25037.75
511.891	24213.75
512.664	23373.75
513.437	22521.75
514.209	21554.75
514.982	20715.75
515.754	19777.75
516.526	18844.75
517.298	18082.75
518.071	17296.75
518.843	16547.75
519.615	15960.75
520.387	15312.75
521.159	14715.75
521.93	14061.75
522.702	13559.75
523.474	13014.75
524.245	12453.75
525.017	11940.75
525.788	11423.75
526.56	10930.75
527.331	10378.75
528.102	9896.75
528.873	9464.75
529.644	8997.75
530.415	8614.75
531.186	8159.75
531.957	7730.75
532.728	7353.75
533.498	6951.75
534.269	6552.75
535.039	6218.75
535.81	5875.75
536.58	5498.75
537.351	5185.75
538.121	4908.75
538.891	4673.75
539.661	4385.75
540.431	4133.75
541.201	3938.75
541.971	3725.75
542.741	3511.75
543.51	3368.75
544.28	3184.75
545.05	3043.75
545.819	2893.75
546.588	2746.75
547.358	2593.75
548.127	2470.75
548.896	2344.75
549.665	2230.75
550.434	2111.75
551.203	1986.75
551.972	1869.75
552.741	1791.75
553.51	1681.75
554.278	1601.75
555.047	1509.75
555.815	1425.75
556.584	1336.75
557.352	1258.75
558.121	1196.75
558.889	1126.75
559.657	1079.75
560.425	1001.75
561.193	936.75
561.961	897.75
562.729	847.75
563.496	799.75
564.264	759.75
565.032	713.75
565.799	675.75
566.567	645.75
567.334	612.75
568.101	571.75
568.869	535.75
569.636	508.75
570.403	476.75
571.17	443.75
571.937	420.75
572.704	402.75
573.471	371.75
574.237	361.75
575.004	330.75
575.771	312.75
576.537	304.75
577.303	273.75
578.07	263.75
578.836	250.75
579.602	238.75
580.368	220.75
581.134	213.75
581.9	201.75
582.666	188.75
583.432	176.75
584.198	172.75
584.964	162.75
585.729	151.75
586.495	144.75
587.26	137.75
588.025	132.75
588.791	123.75
589.556	117.75
590.321	113.75
591.086	109.75
591.851	97.75
592.616	96.75
593.381	85.75
594.146	83.75
594.911	83.75
595.675	79.75
596.44	76.75
597.204	74.75
597.969	70.75
598.733	63.75
599.497	64.75
600.261	60.75
601.025	57.75
601.79	52.75
602.553	50.75
603.317	51.75
604.081	46.75
604.845	43.75
605.609	43.75
606.372	41.75
607.136	41.75
607.899	37.75
608.662	38.75
609.426	33.75
610.189	33.75
610.952	33.75
611.715	30.75
612.478	31.75
613.241	28.75
614.004	27.75
614.767	27.75
615.529	27.75
616.292	27.75
617.055	22.75
617.817	25.75
618.579	24.75
619.342	21.75
620.104	23.75
620.866	20.75
621.628	19.75
622.39	19.75
623.152	16.75
623.914	16.75
624.676	16.75
625.438	16.75
626.199	15.75
626.961	17.75
627.722	13.75
628.484	14.75
629.245	13.75
630.006	13.75
630.768	15.75
631.529	11.75
632.29	13.75
633.051	12.75
633.812	12.75
634.573	9.75
635.333	11.75
636.094	10.75
636.855	10.75
637.615	10.75
638.376	10.75
639.136	7.75
639.896	11.75
640.657	7.75
641.417	7.75
642.177	10.75
642.937	6.75
643.697	10.75
644.457	8.75
645.216	8.75
645.976	7.75
646.736	7.75
647.495	7.75
648.255	7.75
649.014	7.75
649.774	7.75
650.533	9.75
651.292	6.75
652.051	7.75
652.81	7.75
653.569	8.75
654.328	6.75
655.087	7.75
655.846	6.75
656.604	5.75
657.363	6.75
658.121	6.75
658.88	5.75
659.638	6.75
660.397	7.75
661.155	2.75
661.913	4.75
662.671	6.75
663.429	4.75
664.187	3.75
664.945	6.75
665.703	6.75
666.46	3.75
667.218	3.75
667.976	5.75
668.733	5.75
669.49	5.75
670.248	3.75
671.005	4.75
671.762	4.75
672.519	4.75
673.276	6.75
674.033	4.75
674.79	5.75
675.547	4.75
676.304	4.75
677.06	2.75
677.817	2.75
678.574	5.75
679.33	0.75
680.086	4.75
680.843	3.75
681.599	1.75
682.355	3.75
683.111	6.75
683.867	3.75
684.623	2.75
685.379	5.75
686.135	3.75
686.89	3.75
687.646	1.75
688.402	4.75
689.157	6.75
689.912	1.75
690.668	5.75
691.423	4.75
692.178	1.75
692.933	4.75
693.688	2.75
694.443	2.75
695.198	3.75
695.953	4.75
696.708	1.75
697.462	2.75
698.217	3.75
698.972	3.75
699.726	5.75
700.48	1.75
701.235	1.75
701.989	3.75
702.743	6.75
703.497	2.75
704.251	6.75
705.005	5.75
705.759	4.75
706.513	3.75
707.266	4.75
708.02	4.75
708.774	6.75
709.527	4.75
710.28	3.75
711.034	2.75
711.787	2.75
712.54	3.75
713.293	4.75
714.046	5.75
714.799	2.75
715.552	4.75
716.305	3.75
717.058	4.75
717.81	1.75
718.563	3.75
719.315	4.75
720.068	3.75
720.82	4.75
721.573	1.75
722.325	3.75
723.077	7.75
723.829	1.75
724.581	2.75
725.333	3.75
726.085	3.75
726.836	4.75
727.588	2.75
728.34	2.75
729.091	3.75
729.843	3.75
730.594	2.75
731.346	3.75
732.097	3.75
732.848	5.75
733.599	2.75
734.35	2.75
735.101	6.75
735.852	3.75
736.603	2.75
737.354	1.75
738.104	5.75
738.855	3.75
739.605	4.75
740.356	5.75
741.106	4.75
741.856	2.75
742.607	6.75
743.357	2.75
744.107	4.75
744.857	4.75
745.607	5.75
746.357	7.75
747.106	5.75
747.856	3.75
748.606	5.75
749.355	4.75
750.105	5.75
750.854	4.75
751.603	5.75
752.353	5.75
753.102	5.75
753.851	5.75
754.6	4.75
755.349	6.75
756.098	4.75
756.847	4.75
757.595	6.75
758.344	6.75
759.093	5.75
759.841	5.75
760.589	6.75
761.338	6.75
762.086	9.75
762.834	6.75
763.582	6.75
764.331	7.75
765.079	8.75
765.826	5.75
766.574	6.75
767.322	7.75
768.07	5.75
768.817	4.75
769.565	9.75
770.312	7.75
771.06	8.75
771.807	6.75
772.554	9.75
773.302	7.75
774.049	7.75
774.796	9.75
775.543	5.75
776.29	7.75
777.036	6.75
777.783	7.75
778.53	7.75
779.276	9.75
780.023	8.75
780.769	7.75
781.516	6.75
782.262	7.75
783.008	7.75
783.754	9.75
784.5	7.75
785.246	7.75
785.992	7.75
786.738	8.75
787.484	7.75
788.23	9.75
788.975	10.75
789.721	8.75
790.466	7.75
791.212	8.75
791.957	9.75
792.702	9.75
793.447	8.75
794.193	7.75
794.938	8.75
795.683	9.75
796.427	7.75
797.172	7.75
797.917	5.75
798.662	7.75
799.406	6.75
800.151	8.75
800.895	5.75
801.64	8.75
802.384	7.75
803.128	7.75
803.872	8.75
804.616	6.75
805.36	8.75
806.104	6.75
806.848	9.75
807.592	5.75
808.336	3.75
809.079	6.75
809.823	6.75
810.566	5.75
811.31	3.75
812.053	5.75
812.796	5.75
813.539	5.75
814.283	4.75
815.026	3.75
815.769	6.75
816.511	2.75
817.254	6.75
817.997	4.75
818.74	4.75
819.482	4.75
820.225	3.75
820.967	4.75
821.71	4.75
822.452	2.75
823.194	4.75
823.936	7.75
824.678	3.75
825.42	6.75
826.162	3.75
826.904	4.75
827.646	4.75
828.388	5.75
829.129	4.75
829.871	0.75
830.612	3.75
831.354	1.75
832.095	2.75
832.836	5.75
833.577	5.75
834.319	3.75
835.06	2.75
835.801	2.75
836.542	7.75
837.282	5.75
838.023	2.75
838.764	3.75
839.504	3.75
840.245	5.75
840.985	1.75
841.726	4.75
842.466	1.75
843.206	1.75
843.946	3.75
844.687	2.75
845.427	3.75
846.166	2.75
846.906	4.75
847.646	-0.25
848.386	2.75
849.125	5.75
849.865	1.75
850.605	2.75
851.344	1.75
852.083	1.75
852.823	2.75
853.562	2.75
854.301	2.75
855.04	2.75
855.779	2.75
856.518	0.75
857.257	-0.25
857.995	3.75
858.734	2.75
859.473	3.75
860.211	4.75
860.95	0.75
861.688	2.75
862.426	0.75
863.165	1.75
863.903	3.75
864.641	3.75
865.379	2.75
866.117	0.75
866.855	0.75
867.593	1.75
868.33	1.75
869.068	0.75
869.806	3.75
870.543	1.75
871.28	1.75
872.018	1.75
872.755	-0.25
873.492	2.75
874.229	0.75
874.967	0.75
875.703	0.75
876.44	-0.25
877.177	2.75
877.914	1.75
878.651	2.75
879.387	1.75
880.124	1.75
880.86	0.75
881.597	0.75
882.333	1.75
883.069	1.75
883.806	2.75
884.542	-2.25
885.278	1.75
886.014	0.75
886.749	1.75
887.485	3.75
888.221	1.75
888.957	1.75
889.692	2.75
890.428	0.75
891.163	1.75
891.899	-0.25
892.634	-0.25
893.369	0.75
894.104	2.75
894.839	0.75
895.574	1.75
896.309	1.75
897.044	1.75
897.779	1.75
898.514	1.75
899.248	1.75
899.983	0.75
900.717	-0.25
901.452	0.75
902.186	-0.25
902.92	1.75
903.654	1.75
904.389	0.75
905.123	-0.25
905.857	-0.25
906.59	1.75
907.324	1.75
908.058	-1.25
908.792	0.75
909.525	0.75
910.259	1.75
910.992	0.75
911.726	1.75
912.459	0.75
913.192	-0.25
913.925	1.75
914.658	-2.25
915.391	0.75
916.124	-0.25
916.857	0.75
917.59	0.75
918.323	0.75
919.055	1.75
919.788	-1.25
920.521	-1.25
921.253	0.75
921.985	0.75
922.718	1.75
923.45	-2.25
924.182	0.75
924.914	0.75
925.646	0.75
926.378	0.75
927.11	0.75
927.841	-0.25
928.573	0.75
929.305	2.75
930.036	2.75
930.768	1.75
931.499	0.75
932.23	-2.25
932.962	1.75
933.693	0.75
934.424	-1.25
935.155	0.75
935.886	1.75
936.617	-0.25
937.348	-0.25
938.078	-0.25
938.809	1.75
939.54	0.75
940.27	-0.25
941.001	-1.25
941.731	-2.25
942.461	-0.25
943.191	1.75
943.922	1.75
944.652	0.75
945.382	1.75
946.112	-0.25
946.841	1.75
947.571	-1.25
948.301	0.75
949.031	-0.25
949.76	-0.25
950.49	-1.25
951.219	-0.25
951.948	0.75
952.678	-0.25
953.407	0.75
954.136	0.75
954.865	0.75
955.594	-1.25
956.323	0.75
957.052	1.75
957.78	-0.25
958.509	-1.25
959.238	-2.25
959.966	-0.25
960.695	1.75
961.423	-0.25
962.151	-0.25
962.88	1.75
963.608	-0.25
964.336	-0.25
965.064	-1.25
965.792	1.75
966.52	2.75
967.247	-0.25
967.975	-0.25
968.703	1.75
969.43	-2.25
970.158	-1.25
970.885	-0.25
971.613	0.75
972.34	-1.25
973.067	1.75
973.794	0.75
974.521	0.75
975.248	-0.25
975.975	1.75
976.702	1.75
977.429	-0.25
978.156	2.75
978.882	-0.25
979.609	-0.25
980.335	0.75
981.062	0.75
981.788	-0.25
982.514	-1.25
983.24	1.75
983.967	0.75
984.693	0.75
985.419	0.75
986.144	0.75
986.87	0.75
987.596	-0.25
988.322	2.75
989.047	1.75
989.773	-1.25
990.498	-1.25
991.224	-2.25
991.949	-0.25
992.674	1.75
993.399	2.75
994.124	0.75
994.849	0.75
995.574	0.75
996.299	-1.25
997.024	1.75
997.749	1.75
998.473	1.75
999.198	0.75
999.922	0.75
1000.647	1.75
1001.371	2.75
1002.095	0.75
1002.82	-1.25
1003.544	-1.25
1004.268	2.75
1004.992	1.75
1005.716	2.75
1006.439	-0.25
1007.163	0.75
1007.887	2.75
1008.611	-0.25
1009.334	0.75
1010.058	-2.25
1010.781	1.75
1011.504	1.75
1012.228	-0.25
1012.951	0.75
1013.674	-0.25
1014.397	-1.25
1015.12	-0.25
