节点500_285_QEPB04081__227__14-59-19-986.txt的数据

Date: Wed Nov 12 14:59:19 CST 2025
User: PC
Spectrometer: QEPB0408
触发模式: 0
积分时间 (秒): 1.000000E-2
Scans to average: 1
启用暗噪声校正: true
启用非线性校正: false
滑动平均宽度: 0
X轴模式: Wavelengths
Number of Pixels in Spectrum: 1044
>>>>>Begin Spectral Data<<<<<
220.843	3.25
221.644	3.25
222.444	3.25
223.244	1.25
224.045	0.25
224.845	1.25
225.645	2.25
226.445	1.25
227.245	0.25
228.045	4.25
228.845	3.25
229.645	1.25
230.444	1.25
231.244	2.25
232.043	2.25
232.843	1.25
233.642	4.25
234.442	1.25
235.241	2.25
236.04	3.25
236.839	4.25
237.638	4.25
238.437	4.25
239.236	3.25
240.035	4.25
240.833	6.25
241.632	2.25
242.43	5.25
243.229	7.25
244.027	4.25
244.826	3.25
245.624	5.25
246.422	5.25
247.22	8.25
248.018	5.25
248.816	4.25
249.614	5.25
250.412	6.25
251.21	8.25
252.007	9.25
252.805	9.25
253.602	6.25
254.4	7.25
255.197	6.25
255.994	7.25
256.791	10.25
257.589	6.25
258.386	9.25
259.183	9.25
259.979	9.25
260.776	9.25
261.573	9.25
262.37	11.25
263.166	11.25
263.963	13.25
264.759	11.25
265.556	12.25
266.352	13.25
267.148	11.25
267.944	12.25
268.74	14.25
269.536	17.25
270.332	16.25
271.128	14.25
271.924	17.25
272.719	14.25
273.515	18.25
274.311	20.25
275.106	17.25
275.901	17.25
276.697	17.25
277.492	17.25
278.287	19.25
279.082	17.25
279.877	18.25
280.672	17.25
281.467	19.25
282.262	16.25
283.056	21.25
283.851	19.25
284.646	17.25
285.44	19.25
286.234	18.25
287.029	19.25
287.823	20.25
288.617	19.25
289.411	18.25
290.205	17.25
290.999	19.25
291.793	18.25
292.587	15.25
293.381	16.25
294.174	20.25
294.968	17.25
295.761	13.25
296.555	16.25
297.348	16.25
298.141	17.25
298.935	15.25
299.728	13.25
300.521	17.25
301.314	11.25
302.107	14.25
302.899	12.25
303.692	15.25
304.485	9.25
305.277	10.25
306.07	12.25
306.862	13.25
307.655	12.25
308.447	12.25
309.239	11.25
310.031	10.25
310.823	10.25
311.615	9.25
312.407	8.25
313.199	7.25
313.991	8.25
314.783	7.25
315.574	8.25
316.366	9.25
317.157	9.25
317.949	8.25
318.74	7.25
319.531	7.25
320.322	7.25
321.113	6.25
321.904	8.25
322.695	8.25
323.486	7.25
324.277	5.25
325.068	5.25
325.858	5.25
326.649	7.25
327.439	7.25
328.23	4.25
329.02	4.25
329.81	5.25
330.6	5.25
331.391	5.25
332.181	7.25
332.971	7.25
333.76	6.25
334.55	6.25
335.34	5.25
336.13	7.25
336.919	8.25
337.709	5.25
338.498	7.25
339.287	2.25
340.077	7.25
340.866	4.25
341.655	5.25
342.444	7.25
343.233	5.25
344.022	6.25
344.811	8.25
345.6	6.25
346.388	6.25
347.177	4.25
347.965	6.25
348.754	5.25
349.542	5.25
350.33	4.25
351.119	5.25
351.907	4.25
352.695	6.25
353.483	4.25
354.271	5.25
355.059	6.25
355.846	6.25
356.634	7.25
357.422	5.25
358.209	6.25
358.997	6.25
359.784	5.25
360.571	8.25
361.359	4.25
362.146	6.25
362.933	4.25
363.72	4.25
364.507	6.25
365.294	3.25
366.081	4.25
366.867	3.25
367.654	3.25
368.44	3.25
369.227	5.25
370.013	5.25
370.8	2.25
371.586	3.25
372.372	6.25
373.158	4.25
373.944	5.25
374.73	3.25
375.516	4.25
376.302	7.25
377.088	3.25
377.873	6.25
378.659	5.25
379.445	3.25
380.23	3.25
381.015	5.25
381.801	5.25
382.586	5.25
383.371	5.25
384.156	3.25
384.941	5.25
385.726	5.25
386.511	4.25
387.296	7.25
388.08	5.25
388.865	3.25
389.649	3.25
390.434	7.25
391.218	5.25
392.003	5.25
392.787	6.25
393.571	4.25
394.355	6.25
395.139	5.25
395.923	5.25
396.707	6.25
397.491	5.25
398.274	4.25
399.058	6.25
399.842	5.25
400.625	6.25
401.408	9.25
402.192	8.25
402.975	6.25
403.758	10.25
404.541	7.25
405.324	8.25
406.107	7.25
406.89	5.25
407.673	9.25
408.456	7.25
409.238	8.25
410.021	6.25
410.803	8.25
411.586	7.25
412.368	9.25
413.151	7.25
413.933	9.25
414.715	6.25
415.497	8.25
416.279	6.25
417.061	9.25
417.843	10.25
418.624	11.25
419.406	11.25
420.188	9.25
420.969	9.25
421.751	10.25
422.532	12.25
423.313	11.25
424.095	11.25
424.876	12.25
425.657	8.25
426.438	12.25
427.219	8.25
428	13.25
428.78	11.25
429.561	11.25
430.342	15.25
431.122	13.25
431.903	13.25
432.683	15.25
433.464	15.25
434.244	17.25
435.024	17.25
435.804	20.25
436.584	18.25
437.364	19.25
438.144	19.25
438.924	21.25
439.704	19.25
440.483	19.25
441.263	25.25
442.042	24.25
442.822	25.25
443.601	29.25
444.38	29.25
445.16	31.25
445.939	31.25
446.718	36.25
447.497	39.25
448.276	40.25
449.054	42.25
449.833	45.25
450.612	51.25
451.391	58.25
452.169	59.25
452.948	70.25
453.726	74.25
454.504	79.25
455.282	84.25
456.061	95.25
456.839	106.25
457.617	115.25
458.395	122.25
459.172	147.25
459.95	166.25
460.728	182.25
461.506	193.25
462.283	223.25
463.061	250.25
463.838	284.25
464.615	319.25
465.393	347.25
466.17	390.25
466.947	438.25
467.724	484.25
468.501	536.25
469.278	599.25
470.055	678.25
470.831	747.25
471.608	832.25
472.385	935.25
473.161	1038.25
473.938	1155.25
474.714	1274.25
475.49	1396.25
476.266	1561.25
477.043	1723.25
477.819	1920.25
478.595	2135.25
479.371	2349.25
480.146	2602.25
480.922	2866.25
481.698	3177.25
482.473	3516.25
483.249	3850.25
484.024	4250.25
484.8	4662.25
485.575	5169.25
486.35	5661.25
487.126	6248.25
487.901	6837.25
488.676	7509.25
489.451	8253.25
490.225	9031.25
491	9873.25
491.775	10771.25
492.55	11745.25
493.324	12774.25
494.099	13811.25
494.873	14875.25
495.647	16060.25
496.422	17265.25
497.196	18457.25
497.97	19696.25
498.744	20915.25
499.518	22145.25
500.292	23262.25
501.066	24395.25
501.839	25285.25
502.613	26216.25
503.387	26998.25
504.16	27571.25
504.934	27822.25
505.707	28025.25
506.48	27984.25
507.253	27734.25
508.027	27484.25
508.8	27125.25
509.573	26589.25
510.346	25897.25
511.118	25066.25
511.891	24199.25
512.664	23351.25
513.437	22504.25
514.209	21513.25
514.982	20555.25
515.754	19619.25
516.526	18772.25
517.298	17935.25
518.071	17181.25
518.843	16530.25
519.615	15911.25
520.387	15237.25
521.159	14651.25
521.93	14055.25
522.702	13505.25
523.474	12942.25
524.245	12362.25
525.017	11804.25
525.788	11423.25
526.56	10887.25
527.331	10312.25
528.102	9890.25
528.873	9427.25
529.644	8966.25
530.415	8506.25
531.186	8081.25
531.957	7626.25
532.728	7249.25
533.498	6845.25
534.269	6458.25
535.039	6096.25
535.81	5753.25
536.58	5452.25
537.351	5114.25
538.121	4835.25
538.891	4607.25
539.661	4322.25
540.431	4097.25
541.201	3863.25
541.971	3668.25
542.741	3484.25
543.51	3328.25
544.28	3139.25
545.05	3000.25
545.819	2838.25
546.588	2723.25
547.358	2571.25
548.127	2452.25
548.896	2318.25
549.665	2201.25
550.434	2085.25
551.203	1959.25
551.972	1853.25
552.741	1762.25
553.51	1668.25
554.278	1582.25
555.047	1486.25
555.815	1393.25
556.584	1316.25
557.352	1259.25
558.121	1184.25
558.889	1110.25
559.657	1042.25
560.425	982.25
561.193	946.25
561.961	873.25
562.729	836.25
563.496	777.25
564.264	745.25
565.032	700.25
565.799	664.25
566.567	629.25
567.334	597.25
568.101	552.25
568.869	534.25
569.636	492.25
570.403	465.25
571.17	445.25
571.937	414.25
572.704	393.25
573.471	370.25
574.237	356.25
575.004	329.25
575.771	308.25
576.537	294.25
577.303	268.25
578.07	264.25
578.836	240.25
579.602	232.25
580.368	217.25
581.134	203.25
581.9	198.25
582.666	180.25
583.432	170.25
584.198	166.25
584.964	159.25
585.729	152.25
586.495	143.25
587.26	137.25
588.025	126.25
588.791	120.25
589.556	114.25
590.321	108.25
591.086	97.25
591.851	93.25
592.616	89.25
593.381	86.25
594.146	82.25
594.911	81.25
595.675	72.25
596.44	73.25
597.204	71.25
597.969	67.25
598.733	63.25
599.497	61.25
600.261	55.25
601.025	52.25
601.79	53.25
602.553	47.25
603.317	50.25
604.081	46.25
604.845	44.25
605.609	41.25
606.372	39.25
607.136	41.25
607.899	35.25
608.662	36.25
609.426	34.25
610.189	36.25
610.952	34.25
611.715	28.25
612.478	29.25
613.241	29.25
614.004	27.25
614.767	28.25
615.529	22.25
616.292	24.25
617.055	22.25
617.817	23.25
618.579	21.25
619.342	23.25
620.104	22.25
620.866	19.25
621.628	20.25
622.39	17.25
623.152	17.25
623.914	16.25
624.676	17.25
625.438	16.25
626.199	16.25
626.961	14.25
627.722	11.25
628.484	14.25
629.245	14.25
630.006	11.25
630.768	14.25
631.529	12.25
632.29	11.25
633.051	13.25
633.812	10.25
634.573	11.25
635.333	9.25
636.094	11.25
636.855	10.25
637.615	11.25
638.376	9.25
639.136	9.25
639.896	9.25
640.657	9.25
641.417	8.25
642.177	9.25
642.937	8.25
643.697	8.25
644.457	6.25
645.216	8.25
645.976	8.25
646.736	7.25
647.495	10.25
648.255	8.25
649.014	8.25
649.774	6.25
650.533	6.25
651.292	9.25
652.051	6.25
652.81	6.25
653.569	6.25
654.328	5.25
655.087	6.25
655.846	5.25
656.604	8.25
657.363	5.25
658.121	6.25
658.88	6.25
659.638	6.25
660.397	6.25
661.155	5.25
661.913	8.25
662.671	5.25
663.429	1.25
664.187	5.25
664.945	5.25
665.703	4.25
666.46	6.25
667.218	3.25
667.976	4.25
668.733	6.25
669.49	6.25
670.248	3.25
671.005	4.25
671.762	4.25
672.519	6.25
673.276	3.25
674.033	1.25
674.79	5.25
675.547	2.25
676.304	3.25
677.06	3.25
677.817	5.25
678.574	7.25
679.33	3.25
680.086	3.25
680.843	3.25
681.599	5.25
682.355	6.25
683.111	5.25
683.867	4.25
684.623	1.25
685.379	3.25
686.135	5.25
686.89	1.25
687.646	4.25
688.402	3.25
689.157	3.25
689.912	6.25
690.668	3.25
691.423	4.25
692.178	6.25
692.933	5.25
693.688	3.25
694.443	6.25
695.198	6.25
695.953	2.25
696.708	3.25
697.462	3.25
698.217	3.25
698.972	6.25
699.726	4.25
700.48	3.25
701.235	4.25
701.989	4.25
702.743	4.25
703.497	2.25
704.251	4.25
705.005	1.25
705.759	3.25
706.513	2.25
707.266	3.25
708.02	3.25
708.774	4.25
709.527	1.25
710.28	2.25
711.034	5.25
711.787	3.25
712.54	5.25
713.293	3.25
714.046	5.25
714.799	0.25
715.552	3.25
716.305	4.25
717.058	1.25
717.81	4.25
718.563	5.25
719.315	4.25
720.068	1.25
720.82	4.25
721.573	4.25
722.325	4.25
723.077	1.25
723.829	5.25
724.581	2.25
725.333	4.25
726.085	2.25
726.836	3.25
727.588	5.25
728.34	1.25
729.091	3.25
729.843	3.25
730.594	3.25
731.346	3.25
732.097	6.25
732.848	3.25
733.599	2.25
734.35	4.25
735.101	4.25
735.852	3.25
736.603	4.25
737.354	5.25
738.104	4.25
738.855	1.25
739.605	4.25
740.356	6.25
741.106	6.25
741.856	3.25
742.607	6.25
743.357	3.25
744.107	4.25
744.857	7.25
745.607	3.25
746.357	6.25
747.106	3.25
747.856	6.25
748.606	5.25
749.355	4.25
750.105	5.25
750.854	6.25
751.603	5.25
752.353	4.25
753.102	3.25
753.851	4.25
754.6	6.25
755.349	8.25
756.098	4.25
756.847	4.25
757.595	5.25
758.344	6.25
759.093	7.25
759.841	6.25
760.589	6.25
761.338	6.25
762.086	6.25
762.834	6.25
763.582	5.25
764.331	6.25
765.079	10.25
765.826	5.25
766.574	6.25
767.322	9.25
768.07	8.25
768.817	8.25
769.565	6.25
770.312	9.25
771.06	5.25
771.807	6.25
772.554	7.25
773.302	9.25
774.049	6.25
774.796	6.25
775.543	8.25
776.29	7.25
777.036	9.25
777.783	9.25
778.53	9.25
779.276	8.25
780.023	9.25
780.769	9.25
781.516	8.25
782.262	8.25
783.008	7.25
783.754	9.25
784.5	10.25
785.246	6.25
785.992	9.25
786.738	7.25
787.484	9.25
788.23	8.25
788.975	9.25
789.721	8.25
790.466	8.25
791.212	8.25
791.957	8.25
792.702	8.25
793.447	8.25
794.193	9.25
794.938	7.25
795.683	9.25
796.427	8.25
797.172	7.25
797.917	7.25
798.662	9.25
799.406	8.25
800.151	9.25
800.895	5.25
801.64	8.25
802.384	7.25
803.128	8.25
803.872	6.25
804.616	2.25
805.36	7.25
806.104	5.25
806.848	7.25
807.592	5.25
808.336	7.25
809.079	7.25
809.823	5.25
810.566	7.25
811.31	5.25
812.053	6.25
812.796	5.25
813.539	5.25
814.283	3.25
815.026	3.25
815.769	4.25
816.511	4.25
817.254	5.25
817.997	3.25
818.74	5.25
819.482	3.25
820.225	4.25
820.967	7.25
821.71	4.25
822.452	4.25
823.194	2.25
823.936	2.25
824.678	2.25
825.42	6.25
826.162	4.25
826.904	4.25
827.646	1.25
828.388	5.25
829.129	3.25
829.871	4.25
830.612	4.25
831.354	3.25
832.095	3.25
832.836	2.25
833.577	3.25
834.319	1.25
835.06	3.25
835.801	3.25
836.542	3.25
837.282	3.25
838.023	3.25
838.764	3.25
839.504	3.25
840.245	4.25
840.985	3.25
841.726	0.25
842.466	2.25
843.206	1.25
843.946	5.25
844.687	0.25
845.427	1.25
846.166	3.25
846.906	0.25
847.646	5.25
848.386	2.25
849.125	3.25
849.865	3.25
850.605	3.25
851.344	2.25
852.083	3.25
852.823	1.25
853.562	1.25
854.301	2.25
855.04	1.25
855.779	1.25
856.518	2.25
857.257	1.25
857.995	4.25
858.734	0.25
859.473	2.25
860.211	2.25
860.95	0.25
861.688	1.25
862.426	1.25
863.165	2.25
863.903	2.25
864.641	2.25
865.379	3.25
866.117	-1.75
866.855	0.25
867.593	-0.75
868.33	0.25
869.068	1.25
869.806	0.25
870.543	2.25
871.28	2.25
872.018	0.25
872.755	2.25
873.492	0.25
874.229	1.25
874.967	0.25
875.703	-0.75
876.44	0.25
877.177	-0.75
877.914	1.25
878.651	0.25
879.387	-0.75
880.124	2.25
880.86	1.25
881.597	1.25
882.333	0.25
883.069	1.25
883.806	0.25
884.542	3.25
885.278	0.25
886.014	-0.75
886.749	-0.75
887.485	1.25
888.221	2.25
888.957	-1.75
889.692	1.25
890.428	1.25
891.163	-0.75
891.899	1.25
892.634	-0.75
893.369	1.25
894.104	0.25
894.839	1.25
895.574	1.25
896.309	0.25
897.044	3.25
897.779	-0.75
898.514	0.25
899.248	-1.75
899.983	0.25
900.717	0.25
901.452	1.25
902.186	0.25
902.92	1.25
903.654	-1.75
904.389	1.25
905.123	-2.75
905.857	-0.75
906.59	-0.75
907.324	1.25
908.058	0.25
908.792	1.25
909.525	0.25
910.259	-0.75
910.992	1.25
911.726	-1.75
912.459	-0.75
913.192	1.25
913.925	1.25
914.658	0.25
915.391	0.25
916.124	0.25
916.857	1.25
917.59	-0.75
918.323	-0.75
919.055	1.25
919.788	2.25
920.521	0.25
921.253	0.25
921.985	0.25
922.718	0.25
923.45	1.25
924.182	-0.75
924.914	-0.75
925.646	1.25
926.378	0.25
927.11	-0.75
927.841	0.25
928.573	0.25
929.305	0.25
930.036	2.25
930.768	1.25
931.499	-0.75
932.23	3.25
932.962	-0.75
933.693	-0.75
934.424	-2.75
935.155	2.25
935.886	1.25
936.617	0.25
937.348	2.25
938.078	-0.75
938.809	-0.75
939.54	0.25
940.27	-0.75
941.001	1.25
941.731	-1.75
942.461	1.25
943.191	-0.75
943.922	1.25
944.652	-0.75
945.382	0.25
946.112	1.25
946.841	-2.75
947.571	0.25
948.301	-0.75
949.031	-0.75
949.76	-1.75
950.49	2.25
951.219	-0.75
951.948	-1.75
952.678	-0.75
953.407	-0.75
954.136	-0.75
954.865	-2.75
955.594	-1.75
956.323	-1.75
957.052	0.25
957.78	-1.75
958.509	-0.75
959.238	-0.75
959.966	0.25
960.695	-2.75
961.423	2.25
962.151	1.25
962.88	1.25
963.608	-0.75
964.336	-0.75
965.064	0.25
965.792	-0.75
966.52	1.25
967.247	0.25
967.975	0.25
968.703	0.25
969.43	-1.75
970.158	-1.75
970.885	1.25
971.613	0.25
972.34	0.25
973.067	1.25
973.794	-0.75
974.521	-1.75
975.248	0.25
975.975	1.25
976.702	0.25
977.429	2.25
978.156	-2.75
978.882	-0.75
979.609	2.25
980.335	-0.75
981.062	2.25
981.788	0.25
982.514	-0.75
983.24	-1.75
983.967	0.25
984.693	-0.75
985.419	0.25
986.144	1.25
986.87	-0.75
987.596	0.25
988.322	-0.75
989.047	-1.75
989.773	1.25
990.498	-0.75
991.224	-0.75
991.949	-0.75
992.674	-1.75
993.399	-0.75
994.124	-1.75
994.849	1.25
995.574	-0.75
996.299	1.25
997.024	0.25
997.749	0.25
998.473	-0.75
999.198	1.25
999.922	-0.75
1000.647	-2.75
1001.371	2.25
1002.095	-1.75
1002.82	-0.75
1003.544	0.25
1004.268	0.25
1004.992	2.25
1005.716	-0.75
1006.439	-0.75
1007.163	1.25
1007.887	1.25
1008.611	-0.75
1009.334	1.25
1010.058	-0.75
1010.781	-0.75
1011.504	-0.75
1012.228	0.25
1012.951	-0.75
1013.674	1.25
1014.397	1.25
1015.12	-1.75
