节点500_285_QEPB04081__848__15-09-39-725.txt的数据

Date: Wed Nov 12 15:09:39 CST 2025
User: PC
Spectrometer: QEPB0408
触发模式: 0
积分时间 (秒): 1.000000E-2
Scans to average: 1
启用暗噪声校正: true
启用非线性校正: false
滑动平均宽度: 0
X轴模式: Wavelengths
Number of Pixels in Spectrum: 1044
>>>>>Begin Spectral Data<<<<<
220.843	0.88
221.644	1.88
222.444	1.88
223.244	1.88
224.045	-0.12
224.845	2.88
225.645	-1.12
226.445	0.88
227.245	1.88
228.045	0.88
228.845	1.88
229.645	1.88
230.444	2.88
231.244	0.88
232.043	2.88
232.843	3.88
233.642	3.88
234.442	1.88
235.241	2.88
236.04	4.88
236.839	3.88
237.638	4.88
238.437	3.88
239.236	1.88
240.035	2.88
240.833	1.88
241.632	5.88
242.43	1.88
243.229	4.88
244.027	2.88
244.826	1.88
245.624	5.88
246.422	3.88
247.22	3.88
248.018	4.88
248.816	6.88
249.614	2.88
250.412	4.88
251.21	6.88
252.007	4.88
252.805	5.88
253.602	3.88
254.4	5.88
255.197	7.88
255.994	4.88
256.791	7.88
257.589	4.88
258.386	5.88
259.183	6.88
259.979	7.88
260.776	8.88
261.573	6.88
262.37	7.88
263.166	7.88
263.963	9.88
264.759	6.88
265.556	8.88
266.352	10.88
267.148	9.88
267.944	13.88
268.74	13.88
269.536	12.88
270.332	10.88
271.128	10.88
271.924	13.88
272.719	10.88
273.515	15.88
274.311	13.88
275.106	14.88
275.901	15.88
276.697	14.88
277.492	15.88
278.287	13.88
279.082	16.88
279.877	15.88
280.672	19.88
281.467	16.88
282.262	15.88
283.056	17.88
283.851	16.88
284.646	16.88
285.44	17.88
286.234	18.88
287.029	17.88
287.823	17.88
288.617	15.88
289.411	16.88
290.205	16.88
290.999	18.88
291.793	15.88
292.587	16.88
293.381	15.88
294.174	15.88
294.968	14.88
295.761	16.88
296.555	13.88
297.348	13.88
298.141	13.88
298.935	15.88
299.728	13.88
300.521	13.88
301.314	12.88
302.107	12.88
302.899	13.88
303.692	12.88
304.485	11.88
305.277	16.88
306.07	10.88
306.862	12.88
307.655	12.88
308.447	11.88
309.239	9.88
310.031	12.88
310.823	11.88
311.615	9.88
312.407	8.88
313.199	7.88
313.991	10.88
314.783	6.88
315.574	7.88
316.366	9.88
317.157	7.88
317.949	7.88
318.74	7.88
319.531	6.88
320.322	7.88
321.113	5.88
321.904	6.88
322.695	5.88
323.486	6.88
324.277	8.88
325.068	8.88
325.858	4.88
326.649	6.88
327.439	5.88
328.23	6.88
329.02	4.88
329.81	6.88
330.6	5.88
331.391	6.88
332.181	5.88
332.971	5.88
333.76	8.88
334.55	4.88
335.34	7.88
336.13	4.88
336.919	6.88
337.709	3.88
338.498	6.88
339.287	7.88
340.077	5.88
340.866	6.88
341.655	4.88
342.444	4.88
343.233	6.88
344.022	7.88
344.811	6.88
345.6	4.88
346.388	6.88
347.177	6.88
347.965	8.88
348.754	3.88
349.542	5.88
350.33	6.88
351.119	4.88
351.907	6.88
352.695	3.88
353.483	4.88
354.271	6.88
355.059	4.88
355.846	5.88
356.634	3.88
357.422	3.88
358.209	4.88
358.997	4.88
359.784	5.88
360.571	4.88
361.359	6.88
362.146	2.88
362.933	6.88
363.72	3.88
364.507	4.88
365.294	4.88
366.081	1.88
366.867	4.88
367.654	5.88
368.44	4.88
369.227	4.88
370.013	3.88
370.8	3.88
371.586	4.88
372.372	4.88
373.158	4.88
373.944	2.88
374.73	7.88
375.516	3.88
376.302	6.88
377.088	6.88
377.873	3.88
378.659	3.88
379.445	2.88
380.23	6.88
381.015	3.88
381.801	3.88
382.586	4.88
383.371	5.88
384.156	5.88
384.941	0.88
385.726	5.88
386.511	4.88
387.296	5.88
388.08	4.88
388.865	5.88
389.649	4.88
390.434	4.88
391.218	9.88
392.003	4.88
392.787	5.88
393.571	5.88
394.355	4.88
395.139	6.88
395.923	4.88
396.707	4.88
397.491	6.88
398.274	4.88
399.058	2.88
399.842	6.88
400.625	5.88
401.408	4.88
402.192	6.88
402.975	4.88
403.758	7.88
404.541	5.88
405.324	5.88
406.107	4.88
406.89	8.88
407.673	8.88
408.456	6.88
409.238	9.88
410.021	8.88
410.803	8.88
411.586	5.88
412.368	6.88
413.151	7.88
413.933	7.88
414.715	6.88
415.497	8.88
416.279	8.88
417.061	9.88
417.843	7.88
418.624	7.88
419.406	7.88
420.188	9.88
420.969	6.88
421.751	8.88
422.532	9.88
423.313	8.88
424.095	8.88
424.876	10.88
425.657	11.88
426.438	12.88
427.219	9.88
428	11.88
428.78	10.88
429.561	8.88
430.342	12.88
431.122	12.88
431.903	14.88
432.683	14.88
433.464	12.88
434.244	13.88
435.024	18.88
435.804	18.88
436.584	17.88
437.364	18.88
438.144	18.88
438.924	20.88
439.704	20.88
440.483	22.88
441.263	24.88
442.042	25.88
442.822	28.88
443.601	28.88
444.38	33.88
445.16	33.88
445.939	32.88
446.718	36.88
447.497	38.88
448.276	43.88
449.054	47.88
449.833	53.88
450.612	57.88
451.391	65.88
452.169	67.88
452.948	73.88
453.726	84.88
454.504	93.88
455.282	105.88
456.061	117.88
456.839	127.88
457.617	140.88
458.395	149.88
459.172	172.88
459.95	184.88
460.728	213.88
461.506	225.88
462.283	270.88
463.061	295.88
463.838	319.88
464.615	358.88
465.393	395.88
466.17	437.88
466.947	491.88
467.724	547.88
468.501	605.88
469.278	669.88
470.055	740.88
470.831	815.88
471.608	903.88
472.385	1004.88
473.161	1095.88
473.938	1218.88
474.714	1329.88
475.49	1469.88
476.266	1617.88
477.043	1763.88
477.819	1946.88
478.595	2117.88
479.371	2322.88
480.146	2523.88
480.922	2782.88
481.698	3038.88
482.473	3321.88
483.249	3607.88
484.024	3958.88
484.8	4300.88
485.575	4656.88
486.35	5104.88
487.126	5551.88
487.901	6049.88
488.676	6542.88
489.451	7164.88
490.225	7788.88
491	8382.88
491.775	9153.88
492.55	9891.88
493.324	10677.88
494.099	11425.88
494.873	12324.88
495.647	13175.88
496.422	14199.88
497.196	15141.88
497.97	16180.88
498.744	17121.88
499.518	18212.88
500.292	19176.88
501.066	20149.88
501.839	21057.88
502.613	21968.88
503.387	22839.88
504.16	23577.88
504.934	24040.88
505.707	24364.88
506.48	24636.88
507.253	24844.88
508.027	24875.88
508.8	24902.88
509.573	24748.88
510.346	24433.88
511.118	23961.88
511.891	23449.88
512.664	22835.88
513.437	22171.88
514.209	21349.88
514.982	20633.88
515.754	19884.88
516.526	19071.88
517.298	18352.88
518.071	17575.88
518.843	16892.88
519.615	16295.88
520.387	15666.88
521.159	15014.88
521.93	14437.88
522.702	13844.88
523.474	13320.88
524.245	12760.88
525.017	12236.88
525.788	11741.88
526.56	11229.88
527.331	10750.88
528.102	10333.88
528.873	9837.88
529.644	9402.88
530.415	9004.88
531.186	8549.88
531.957	8092.88
532.728	7777.88
533.498	7373.88
534.269	6984.88
535.039	6647.88
535.81	6245.88
536.58	5925.88
537.351	5578.88
538.121	5282.88
538.891	5032.88
539.661	4768.88
540.431	4482.88
541.201	4212.88
541.971	3998.88
542.741	3821.88
543.51	3612.88
544.28	3438.88
545.05	3280.88
545.819	3113.88
546.588	2961.88
547.358	2834.88
548.127	2677.88
548.896	2533.88
549.665	2421.88
550.434	2284.88
551.203	2184.88
551.972	2043.88
552.741	1948.88
553.51	1851.88
554.278	1756.88
555.047	1659.88
555.815	1573.88
556.584	1484.88
557.352	1394.88
558.121	1338.88
558.889	1242.88
559.657	1185.88
560.425	1111.88
561.193	1051.88
561.961	998.88
562.729	934.88
563.496	880.88
564.264	835.88
565.032	786.88
565.799	753.88
566.567	706.88
567.334	669.88
568.101	632.88
568.869	597.88
569.636	562.88
570.403	521.88
571.17	499.88
571.937	469.88
572.704	444.88
573.471	426.88
574.237	398.88
575.004	374.88
575.771	360.88
576.537	335.88
577.303	313.88
578.07	295.88
578.836	271.88
579.602	263.88
580.368	250.88
581.134	232.88
581.9	218.88
582.666	213.88
583.432	203.88
584.198	185.88
584.964	180.88
585.729	166.88
586.495	157.88
587.26	152.88
588.025	140.88
588.791	136.88
589.556	125.88
590.321	118.88
591.086	119.88
591.851	111.88
592.616	105.88
593.381	96.88
594.146	96.88
594.911	91.88
595.675	83.88
596.44	83.88
597.204	75.88
597.969	73.88
598.733	69.88
599.497	67.88
600.261	65.88
601.025	63.88
601.79	59.88
602.553	52.88
603.317	49.88
604.081	51.88
604.845	50.88
605.609	44.88
606.372	43.88
607.136	44.88
607.899	44.88
608.662	39.88
609.426	35.88
610.189	34.88
610.952	36.88
611.715	34.88
612.478	30.88
613.241	28.88
614.004	28.88
614.767	28.88
615.529	26.88
616.292	28.88
617.055	24.88
617.817	27.88
618.579	24.88
619.342	21.88
620.104	21.88
620.866	20.88
621.628	21.88
622.39	21.88
623.152	20.88
623.914	16.88
624.676	15.88
625.438	16.88
626.199	16.88
626.961	18.88
627.722	18.88
628.484	14.88
629.245	12.88
630.006	11.88
630.768	12.88
631.529	12.88
632.29	15.88
633.051	13.88
633.812	11.88
634.573	13.88
635.333	10.88
636.094	12.88
636.855	11.88
637.615	10.88
638.376	10.88
639.136	7.88
639.896	9.88
640.657	7.88
641.417	8.88
642.177	9.88
642.937	6.88
643.697	8.88
644.457	7.88
645.216	11.88
645.976	5.88
646.736	8.88
647.495	8.88
648.255	4.88
649.014	6.88
649.774	6.88
650.533	7.88
651.292	7.88
652.051	7.88
652.81	6.88
653.569	6.88
654.328	7.88
655.087	3.88
655.846	4.88
656.604	4.88
657.363	5.88
658.121	5.88
658.88	4.88
659.638	5.88
660.397	5.88
661.155	5.88
661.913	4.88
662.671	5.88
663.429	5.88
664.187	4.88
664.945	6.88
665.703	3.88
666.46	4.88
667.218	5.88
667.976	3.88
668.733	2.88
669.49	6.88
670.248	4.88
671.005	4.88
671.762	3.88
672.519	3.88
673.276	4.88
674.033	3.88
674.79	3.88
675.547	3.88
676.304	3.88
677.06	3.88
677.817	2.88
678.574	3.88
679.33	1.88
680.086	4.88
680.843	5.88
681.599	2.88
682.355	2.88
683.111	2.88
683.867	2.88
684.623	3.88
685.379	2.88
686.135	3.88
686.89	4.88
687.646	2.88
688.402	1.88
689.157	3.88
689.912	4.88
690.668	1.88
691.423	3.88
692.178	2.88
692.933	2.88
693.688	4.88
694.443	3.88
695.198	5.88
695.953	-0.12
696.708	1.88
697.462	5.88
698.217	3.88
698.972	1.88
699.726	1.88
700.48	1.88
701.235	1.88
701.989	3.88
702.743	2.88
703.497	2.88
704.251	1.88
705.005	1.88
705.759	3.88
706.513	3.88
707.266	3.88
708.02	2.88
708.774	2.88
709.527	2.88
710.28	3.88
711.034	1.88
711.787	1.88
712.54	4.88
713.293	4.88
714.046	3.88
714.799	3.88
715.552	2.88
716.305	4.88
717.058	3.88
717.81	2.88
718.563	6.88
719.315	3.88
720.068	3.88
720.82	1.88
721.573	2.88
722.325	4.88
723.077	2.88
723.829	2.88
724.581	2.88
725.333	3.88
726.085	2.88
726.836	2.88
727.588	4.88
728.34	3.88
729.091	4.88
729.843	2.88
730.594	3.88
731.346	3.88
732.097	3.88
732.848	1.88
733.599	4.88
734.35	3.88
735.101	2.88
735.852	5.88
736.603	3.88
737.354	2.88
738.104	4.88
738.855	4.88
739.605	2.88
740.356	3.88
741.106	4.88
741.856	3.88
742.607	3.88
743.357	5.88
744.107	4.88
744.857	2.88
745.607	1.88
746.357	4.88
747.106	4.88
747.856	3.88
748.606	4.88
749.355	2.88
750.105	5.88
750.854	3.88
751.603	5.88
752.353	4.88
753.102	4.88
753.851	3.88
754.6	5.88
755.349	6.88
756.098	2.88
756.847	3.88
757.595	2.88
758.344	3.88
759.093	3.88
759.841	2.88
760.589	2.88
761.338	4.88
762.086	2.88
762.834	3.88
763.582	4.88
764.331	6.88
765.079	2.88
765.826	6.88
766.574	5.88
767.322	5.88
768.07	5.88
768.817	4.88
769.565	5.88
770.312	5.88
771.06	4.88
771.807	6.88
772.554	6.88
773.302	7.88
774.049	5.88
774.796	8.88
775.543	4.88
776.29	8.88
777.036	7.88
777.783	4.88
778.53	7.88
779.276	8.88
780.023	5.88
780.769	5.88
781.516	4.88
782.262	5.88
783.008	8.88
783.754	8.88
784.5	6.88
785.246	6.88
785.992	6.88
786.738	6.88
787.484	9.88
788.23	7.88
788.975	9.88
789.721	7.88
790.466	5.88
791.212	8.88
791.957	8.88
792.702	7.88
793.447	6.88
794.193	8.88
794.938	7.88
795.683	5.88
796.427	5.88
797.172	6.88
797.917	5.88
798.662	9.88
799.406	6.88
800.151	5.88
800.895	3.88
801.64	6.88
802.384	7.88
803.128	8.88
803.872	6.88
804.616	8.88
805.36	3.88
806.104	6.88
806.848	4.88
807.592	6.88
808.336	4.88
809.079	5.88
809.823	6.88
810.566	3.88
811.31	4.88
812.053	5.88
812.796	4.88
813.539	3.88
814.283	3.88
815.026	2.88
815.769	4.88
816.511	3.88
817.254	2.88
817.997	3.88
818.74	4.88
819.482	5.88
820.225	3.88
820.967	5.88
821.71	2.88
822.452	3.88
823.194	2.88
823.936	4.88
824.678	1.88
825.42	0.88
826.162	4.88
826.904	2.88
827.646	5.88
828.388	4.88
829.129	2.88
829.871	3.88
830.612	4.88
831.354	3.88
832.095	1.88
832.836	5.88
833.577	3.88
834.319	-0.12
835.06	3.88
835.801	3.88
836.542	1.88
837.282	1.88
838.023	2.88
838.764	5.88
839.504	2.88
840.245	2.88
840.985	3.88
841.726	4.88
842.466	2.88
843.206	2.88
843.946	2.88
844.687	3.88
845.427	1.88
846.166	2.88
846.906	3.88
847.646	2.88
848.386	1.88
849.125	2.88
849.865	1.88
850.605	4.88
851.344	1.88
852.083	-0.12
852.823	2.88
853.562	1.88
854.301	-0.12
855.04	1.88
855.779	1.88
856.518	1.88
857.257	1.88
857.995	2.88
858.734	2.88
859.473	1.88
860.211	1.88
860.95	1.88
861.688	1.88
862.426	3.88
863.165	3.88
863.903	2.88
864.641	0.88
865.379	1.88
866.117	2.88
866.855	0.88
867.593	-0.12
868.33	1.88
869.068	0.88
869.806	4.88
870.543	1.88
871.28	1.88
872.018	1.88
872.755	1.88
873.492	2.88
874.229	0.88
874.967	1.88
875.703	-0.12
876.44	2.88
877.177	1.88
877.914	-0.12
878.651	1.88
879.387	0.88
880.124	1.88
880.86	2.88
881.597	1.88
882.333	-0.12
883.069	1.88
883.806	0.88
884.542	1.88
885.278	0.88
886.014	0.88
886.749	0.88
887.485	0.88
888.221	-0.12
888.957	3.88
889.692	-1.12
890.428	-0.12
891.163	0.88
891.899	1.88
892.634	0.88
893.369	0.88
894.104	-1.12
894.839	-0.12
895.574	0.88
896.309	0.88
897.044	0.88
897.779	-0.12
898.514	-0.12
899.248	1.88
899.983	-1.12
900.717	1.88
901.452	-0.12
902.186	0.88
902.92	-1.12
903.654	-2.12
904.389	0.88
905.123	-1.12
905.857	0.88
906.59	1.88
907.324	1.88
908.058	-1.12
908.792	-1.12
909.525	-0.12
910.259	1.88
910.992	0.88
911.726	0.88
912.459	-1.12
913.192	0.88
913.925	-2.12
914.658	1.88
915.391	-1.12
916.124	0.88
916.857	-0.12
917.59	-0.12
918.323	-2.12
919.055	0.88
919.788	-0.12
920.521	-0.12
921.253	-1.12
921.985	-0.12
922.718	-0.12
923.45	-1.12
924.182	0.88
924.914	-1.12
925.646	0.88
926.378	-0.12
927.11	-1.12
927.841	-0.12
928.573	1.88
929.305	0.88
930.036	1.88
930.768	0.88
931.499	0.88
932.23	-0.12
932.962	-2.12
933.693	0.88
934.424	1.88
935.155	-0.12
935.886	-1.12
936.617	-1.12
937.348	1.88
938.078	0.88
938.809	0.88
939.54	-1.12
940.27	0.88
941.001	-2.12
941.731	-1.12
942.461	-1.12
943.191	0.88
943.922	-0.12
944.652	-0.12
945.382	-1.12
946.112	-1.12
946.841	0.88
947.571	0.88
948.301	0.88
949.031	-0.12
949.76	-2.12
950.49	-1.12
951.219	1.88
951.948	-0.12
952.678	0.88
953.407	0.88
954.136	-0.12
954.865	-2.12
955.594	-0.12
956.323	0.88
957.052	0.88
957.78	-1.12
958.509	-0.12
959.238	0.88
959.966	-1.12
960.695	-0.12
961.423	0.88
962.151	-0.12
962.88	0.88
963.608	-0.12
964.336	-0.12
965.064	0.88
965.792	-0.12
966.52	-0.12
967.247	-1.12
967.975	-0.12
968.703	0.88
969.43	0.88
970.158	-0.12
970.885	-0.12
971.613	-0.12
972.34	-1.12
973.067	-0.12
973.794	-1.12
974.521	-1.12
975.248	-3.12
975.975	-1.12
976.702	2.88
977.429	-0.12
978.156	-2.12
978.882	1.88
979.609	-0.12
980.335	1.88
981.062	-2.12
981.788	0.88
982.514	1.88
983.24	-0.12
983.967	-2.12
984.693	-2.12
985.419	-1.12
986.144	0.88
986.87	1.88
987.596	-0.12
988.322	-0.12
989.047	0.88
989.773	-2.12
990.498	-0.12
991.224	-1.12
991.949	0.88
992.674	-0.12
993.399	-2.12
994.124	-0.12
994.849	0.88
995.574	0.88
996.299	0.88
997.024	-1.12
997.749	1.88
998.473	-0.12
999.198	0.88
999.922	-2.12
1000.647	-1.12
1001.371	2.88
1002.095	-2.12
1002.82	-2.12
1003.544	0.88
1004.268	1.88
1004.992	1.88
1005.716	0.88
1006.439	0.88
1007.163	1.88
1007.887	0.88
1008.611	0.88
1009.334	0.88
1010.058	0.88
1010.781	1.88
1011.504	0.88
1012.228	-0.12
1012.951	-0.12
1013.674	1.88
1014.397	-1.12
1015.12	-0.12
