节点500_285_QEPB04081__685__15-06-56-901.txt的数据

Date: Wed Nov 12 15:06:56 CST 2025
User: PC
Spectrometer: QEPB0408
触发模式: 0
积分时间 (秒): 1.000000E-2
Scans to average: 1
启用暗噪声校正: true
启用非线性校正: false
滑动平均宽度: 0
X轴模式: Wavelengths
Number of Pixels in Spectrum: 1044
>>>>>Begin Spectral Data<<<<<
220.843	1
221.644	0
222.444	-1
223.244	2
224.045	2
224.845	1
225.645	2
226.445	1
227.245	3
228.045	0
228.845	1
229.645	3
230.444	4
231.244	4
232.043	1
232.843	2
233.642	2
234.442	6
235.241	2
236.04	4
236.839	7
237.638	2
238.437	4
239.236	5
240.035	3
240.833	4
241.632	5
242.43	3
243.229	3
244.027	6
244.826	3
245.624	4
246.422	4
247.22	6
248.018	5
248.816	7
249.614	5
250.412	6
251.21	8
252.007	8
252.805	4
253.602	8
254.4	6
255.197	8
255.994	9
256.791	8
257.589	11
258.386	8
259.183	7
259.979	10
260.776	10
261.573	12
262.37	10
263.166	11
263.963	6
264.759	10
265.556	12
266.352	12
267.148	13
267.944	10
268.74	13
269.536	13
270.332	13
271.128	12
271.924	14
272.719	14
273.515	15
274.311	15
275.106	14
275.901	15
276.697	16
277.492	18
278.287	15
279.082	17
279.877	16
280.672	16
281.467	18
282.262	16
283.056	20
283.851	17
284.646	17
285.44	16
286.234	16
287.029	19
287.823	19
288.617	18
289.411	18
290.205	17
290.999	19
291.793	19
292.587	16
293.381	15
294.174	15
294.968	15
295.761	13
296.555	17
297.348	12
298.141	14
298.935	15
299.728	15
300.521	16
301.314	15
302.107	13
302.899	14
303.692	14
304.485	12
305.277	11
306.07	16
306.862	13
307.655	12
308.447	14
309.239	13
310.031	12
310.823	11
311.615	9
312.407	10
313.199	10
313.991	9
314.783	10
315.574	10
316.366	10
317.157	10
317.949	9
318.74	6
319.531	9
320.322	8
321.113	9
321.904	7
322.695	7
323.486	5
324.277	6
325.068	8
325.858	7
326.649	8
327.439	6
328.23	5
329.02	7
329.81	7
330.6	6
331.391	6
332.181	7
332.971	4
333.76	7
334.55	8
335.34	3
336.13	5
336.919	6
337.709	4
338.498	5
339.287	6
340.077	7
340.866	4
341.655	6
342.444	6
343.233	6
344.022	5
344.811	5
345.6	5
346.388	6
347.177	5
347.965	5
348.754	5
349.542	7
350.33	4
351.119	6
351.907	10
352.695	7
353.483	5
354.271	7
355.059	6
355.846	7
356.634	8
357.422	4
358.209	4
358.997	5
359.784	7
360.571	4
361.359	7
362.146	5
362.933	6
363.72	4
364.507	5
365.294	5
366.081	5
366.867	4
367.654	6
368.44	7
369.227	4
370.013	4
370.8	5
371.586	4
372.372	6
373.158	6
373.944	7
374.73	4
375.516	4
376.302	5
377.088	4
377.873	4
378.659	5
379.445	6
380.23	4
381.015	7
381.801	6
382.586	4
383.371	5
384.156	5
384.941	4
385.726	7
386.511	4
387.296	5
388.08	6
388.865	7
389.649	6
390.434	7
391.218	7
392.003	6
392.787	5
393.571	5
394.355	8
395.139	7
395.923	5
396.707	5
397.491	7
398.274	6
399.058	8
399.842	9
400.625	8
401.408	7
402.192	7
402.975	6
403.758	9
404.541	6
405.324	6
406.107	7
406.89	7
407.673	10
408.456	5
409.238	6
410.021	9
410.803	8
411.586	9
412.368	8
413.151	6
413.933	10
414.715	9
415.497	9
416.279	10
417.061	8
417.843	8
418.624	9
419.406	12
420.188	10
420.969	10
421.751	10
422.532	9
423.313	13
424.095	12
424.876	11
425.657	12
426.438	11
427.219	14
428	13
428.78	12
429.561	12
430.342	11
431.122	13
431.903	15
432.683	14
433.464	15
434.244	16
435.024	14
435.804	19
436.584	18
437.364	18
438.144	21
438.924	21
439.704	23
440.483	21
441.263	26
442.042	26
442.822	24
443.601	29
444.38	29
445.16	33
445.939	32
446.718	40
447.497	42
448.276	44
449.054	49
449.833	52
450.612	57
451.391	60
452.169	67
452.948	77
453.726	80
454.504	90
455.282	99
456.061	103
456.839	118
457.617	131
458.395	148
459.172	164
459.95	182
460.728	201
461.506	230
462.283	254
463.061	281
463.838	310
464.615	354
465.393	393
466.17	442
466.947	487
467.724	536
468.501	591
469.278	655
470.055	723
470.831	809
471.608	896
472.385	975
473.161	1100
473.938	1196
474.714	1319
475.49	1455
476.266	1601
477.043	1751
477.819	1919
478.595	2116
479.371	2331
480.146	2538
480.922	2799
481.698	3079
482.473	3373
483.249	3677
484.024	4012
484.8	4416
485.575	4782
486.35	5211
487.126	5707
487.901	6234
488.676	6780
489.451	7403
490.225	8035
491	8762
491.775	9467
492.55	10316
493.324	11160
494.099	11976
494.873	12798
495.647	13806
496.422	14818
497.196	15867
497.97	16910
498.744	17999
499.518	19054
500.292	20061
501.066	21134
501.839	22044
502.613	22901
503.387	23727
504.16	24519
504.934	24989
505.707	25378
506.48	25521
507.253	25558
508.027	25560
508.8	25540
509.573	25246
510.346	24869
511.118	24278
511.891	23692
512.664	23012
513.437	22314
514.209	21431
514.982	20745
515.754	19830
516.526	18998
517.298	18266
518.071	17475
518.843	16809
519.615	16232
520.387	15554
521.159	15017
521.93	14341
522.702	13771
523.474	13175
524.245	12664
525.017	12109
525.788	11637
526.56	11115
527.331	10656
528.102	10193
528.873	9742
529.644	9300
530.415	8921
531.186	8450
531.957	8008
532.728	7609
533.498	7243
534.269	6844
535.039	6471
535.81	6118
536.58	5823
537.351	5481
538.121	5171
538.891	4904
539.661	4647
540.431	4420
541.201	4124
541.971	3897
542.741	3685
543.51	3539
544.28	3367
545.05	3223
545.819	3038
546.588	2905
547.358	2747
548.127	2610
548.896	2482
549.665	2361
550.434	2239
551.203	2115
551.972	2025
552.741	1902
553.51	1790
554.278	1720
555.047	1623
555.815	1498
556.584	1435
557.352	1375
558.121	1274
558.889	1208
559.657	1150
560.425	1082
561.193	1008
561.961	967
562.729	908
563.496	850
564.264	798
565.032	773
565.799	730
566.567	685
567.334	646
568.101	614
568.869	580
569.636	550
570.403	518
571.17	472
571.937	453
572.704	430
573.471	414
574.237	374
575.004	363
575.771	346
576.537	324
577.303	308
578.07	284
578.836	266
579.602	254
580.368	244
581.134	230
581.9	215
582.666	198
583.432	186
584.198	189
584.964	171
585.729	164
586.495	161
587.26	156
588.025	142
588.791	134
589.556	127
590.321	117
591.086	114
591.851	108
592.616	105
593.381	89
594.146	94
594.911	83
595.675	86
596.44	77
597.204	75
597.969	73
598.733	72
599.497	64
600.261	64
601.025	62
601.79	60
602.553	54
603.317	50
604.081	49
604.845	49
605.609	48
606.372	44
607.136	43
607.899	43
608.662	39
609.426	37
610.189	35
610.952	34
611.715	33
612.478	30
613.241	32
614.004	32
614.767	29
615.529	26
616.292	29
617.055	26
617.817	25
618.579	26
619.342	24
620.104	22
620.866	22
621.628	19
622.39	19
623.152	23
623.914	19
624.676	18
625.438	18
626.199	17
626.961	17
627.722	14
628.484	16
629.245	17
630.006	14
630.768	19
631.529	16
632.29	12
633.051	12
633.812	10
634.573	13
635.333	12
636.094	11
636.855	10
637.615	10
638.376	10
639.136	10
639.896	10
640.657	9
641.417	9
642.177	10
642.937	7
643.697	8
644.457	10
645.216	9
645.976	10
646.736	6
647.495	7
648.255	6
649.014	6
649.774	7
650.533	7
651.292	8
652.051	8
652.81	7
653.569	8
654.328	7
655.087	6
655.846	7
656.604	6
657.363	5
658.121	6
658.88	6
659.638	5
660.397	7
661.155	5
661.913	7
662.671	6
663.429	5
664.187	6
664.945	6
665.703	7
666.46	7
667.218	6
667.976	5
668.733	4
669.49	5
670.248	3
671.005	5
671.762	6
672.519	4
673.276	3
674.033	5
674.79	2
675.547	3
676.304	6
677.06	3
677.817	4
678.574	4
679.33	2
680.086	3
680.843	5
681.599	4
682.355	2
683.111	4
683.867	5
684.623	4
685.379	5
686.135	4
686.89	4
687.646	3
688.402	2
689.157	5
689.912	3
690.668	3
691.423	6
692.178	4
692.933	5
693.688	3
694.443	1
695.198	4
695.953	1
696.708	5
697.462	3
698.217	5
698.972	4
699.726	4
700.48	2
701.235	1
701.989	5
702.743	4
703.497	2
704.251	4
705.005	2
705.759	2
706.513	5
707.266	3
708.02	2
708.774	3
709.527	3
710.28	5
711.034	3
711.787	2
712.54	4
713.293	3
714.046	3
714.799	5
715.552	2
716.305	2
717.058	1
717.81	4
718.563	5
719.315	5
720.068	5
720.82	4
721.573	3
722.325	5
723.077	3
723.829	4
724.581	5
725.333	3
726.085	3
726.836	3
727.588	3
728.34	5
729.091	2
729.843	4
730.594	4
731.346	4
732.097	4
732.848	3
733.599	3
734.35	3
735.101	4
735.852	5
736.603	4
737.354	5
738.104	4
738.855	6
739.605	4
740.356	2
741.106	6
741.856	6
742.607	6
743.357	3
744.107	5
744.857	4
745.607	6
746.357	7
747.106	3
747.856	5
748.606	4
749.355	5
750.105	5
750.854	6
751.603	3
752.353	4
753.102	5
753.851	3
754.6	6
755.349	4
756.098	3
756.847	6
757.595	4
758.344	5
759.093	6
759.841	6
760.589	4
761.338	6
762.086	5
762.834	4
763.582	7
764.331	7
765.079	4
765.826	7
766.574	4
767.322	7
768.07	5
768.817	9
769.565	8
770.312	9
771.06	7
771.807	6
772.554	7
773.302	5
774.049	7
774.796	7
775.543	6
776.29	8
777.036	7
777.783	8
778.53	8
779.276	9
780.023	9
780.769	9
781.516	8
782.262	7
783.008	10
783.754	10
784.5	9
785.246	7
785.992	8
786.738	4
787.484	10
788.23	9
788.975	8
789.721	8
790.466	10
791.212	9
791.957	10
792.702	10
793.447	8
794.193	8
794.938	8
795.683	8
796.427	8
797.172	8
797.917	6
798.662	9
799.406	7
800.151	7
800.895	8
801.64	7
802.384	7
803.128	7
803.872	6
804.616	8
805.36	8
806.104	9
806.848	7
807.592	6
808.336	5
809.079	5
809.823	8
810.566	5
811.31	9
812.053	6
812.796	4
813.539	5
814.283	5
815.026	5
815.769	4
816.511	5
817.254	7
817.997	7
818.74	6
819.482	4
820.225	4
820.967	4
821.71	4
822.452	5
823.194	8
823.936	6
824.678	5
825.42	5
826.162	4
826.904	4
827.646	5
828.388	4
829.129	5
829.871	3
830.612	5
831.354	3
832.095	5
832.836	4
833.577	4
834.319	2
835.06	1
835.801	5
836.542	3
837.282	5
838.023	3
838.764	4
839.504	4
840.245	2
840.985	1
841.726	3
842.466	3
843.206	4
843.946	3
844.687	5
845.427	2
846.166	4
846.906	2
847.646	4
848.386	4
849.125	2
849.865	5
850.605	3
851.344	4
852.083	5
852.823	2
853.562	4
854.301	3
855.04	4
855.779	2
856.518	2
857.257	3
857.995	2
858.734	3
859.473	2
860.211	3
860.95	2
861.688	3
862.426	3
863.165	1
863.903	2
864.641	2
865.379	2
866.117	2
866.855	1
867.593	1
868.33	2
869.068	0
869.806	0
870.543	1
871.28	3
872.018	1
872.755	1
873.492	1
874.229	3
874.967	2
875.703	2
876.44	0
877.177	0
877.914	1
878.651	0
879.387	2
880.124	2
880.86	1
881.597	-2
882.333	1
883.069	-1
883.806	2
884.542	2
885.278	1
886.014	2
886.749	2
887.485	0
888.221	-1
888.957	2
889.692	-2
890.428	1
891.163	0
891.899	1
892.634	0
893.369	0
894.104	1
894.839	1
895.574	1
896.309	3
897.044	3
897.779	2
898.514	2
899.248	1
899.983	0
900.717	2
901.452	2
902.186	2
902.92	-2
903.654	1
904.389	1
905.123	2
905.857	2
906.59	2
907.324	1
908.058	2
908.792	1
909.525	-1
910.259	0
910.992	1
911.726	1
912.459	1
913.192	2
913.925	-2
914.658	-2
915.391	-2
916.124	2
916.857	-2
917.59	0
918.323	0
919.055	1
919.788	2
920.521	-2
921.253	2
921.985	2
922.718	0
923.45	0
924.182	1
924.914	1
925.646	1
926.378	2
927.11	2
927.841	1
928.573	0
929.305	2
930.036	1
930.768	-1
931.499	0
932.23	0
932.962	2
933.693	0
934.424	-1
935.155	-1
935.886	2
936.617	-2
937.348	0
938.078	1
938.809	-1
939.54	-3
940.27	1
941.001	2
941.731	1
942.461	-2
943.191	0
943.922	0
944.652	0
945.382	0
946.112	-3
946.841	1
947.571	3
948.301	0
949.031	0
949.76	-2
950.49	0
951.219	2
951.948	0
952.678	-2
953.407	1
954.136	2
954.865	-1
955.594	2
956.323	0
957.052	1
957.78	2
958.509	1
959.238	2
959.966	2
960.695	2
961.423	0
962.151	1
962.88	2
963.608	1
964.336	2
965.064	-1
965.792	-1
966.52	1
967.247	-2
967.975	1
968.703	0
969.43	2
970.158	-1
970.885	1
971.613	1
972.34	1
973.067	2
973.794	0
974.521	1
975.248	0
975.975	0
976.702	2
977.429	2
978.156	4
978.882	-1
979.609	3
980.335	0
981.062	1
981.788	0
982.514	1
983.24	0
983.967	-1
984.693	-1
985.419	0
986.144	-2
986.87	1
987.596	-2
988.322	2
989.047	1
989.773	2
990.498	2
991.224	-1
991.949	0
992.674	1
993.399	1
994.124	0
994.849	0
995.574	0
996.299	3
997.024	0
997.749	0
998.473	1
999.198	-1
999.922	0
1000.647	-1
1001.371	3
1002.095	-1
1002.82	1
1003.544	-2
1004.268	1
1004.992	-1
1005.716	2
1006.439	1
1007.163	2
1007.887	2
1008.611	-1
1009.334	1
1010.058	-1
1010.781	1
1011.504	2
1012.228	-2
1012.951	-1
1013.674	0
1014.397	-1
1015.12	1
