节点500_285_QEPB04081__124__14-57-37-239.txt的数据

Date: Wed Nov 12 14:57:37 CST 2025
User: PC
Spectrometer: QEPB0408
触发模式: 0
积分时间 (秒): 1.000000E-2
Scans to average: 1
启用暗噪声校正: true
启用非线性校正: false
滑动平均宽度: 0
X轴模式: Wavelengths
Number of Pixels in Spectrum: 1044
>>>>>Begin Spectral Data<<<<<
220.843	-0.75
221.644	2.25
222.444	1.25
223.244	3.25
224.045	2.25
224.845	3.25
225.645	3.25
226.445	0.25
227.245	1.25
228.045	3.25
228.845	3.25
229.645	2.25
230.444	2.25
231.244	3.25
232.043	3.25
232.843	3.25
233.642	2.25
234.442	3.25
235.241	3.25
236.04	4.25
236.839	6.25
237.638	3.25
238.437	3.25
239.236	5.25
240.035	4.25
240.833	6.25
241.632	4.25
242.43	8.25
243.229	3.25
244.027	5.25
244.826	6.25
245.624	5.25
246.422	4.25
247.22	5.25
248.018	6.25
248.816	7.25
249.614	3.25
250.412	5.25
251.21	7.25
252.007	6.25
252.805	6.25
253.602	8.25
254.4	6.25
255.197	7.25
255.994	7.25
256.791	8.25
257.589	10.25
258.386	6.25
259.183	9.25
259.979	9.25
260.776	9.25
261.573	10.25
262.37	10.25
263.166	12.25
263.963	12.25
264.759	12.25
265.556	11.25
266.352	11.25
267.148	14.25
267.944	14.25
268.74	13.25
269.536	14.25
270.332	16.25
271.128	15.25
271.924	15.25
272.719	17.25
273.515	16.25
274.311	15.25
275.106	20.25
275.901	16.25
276.697	20.25
277.492	18.25
278.287	19.25
279.082	17.25
279.877	17.25
280.672	18.25
281.467	22.25
282.262	22.25
283.056	19.25
283.851	17.25
284.646	19.25
285.44	18.25
286.234	16.25
287.029	18.25
287.823	20.25
288.617	21.25
289.411	20.25
290.205	17.25
290.999	19.25
291.793	21.25
292.587	18.25
293.381	16.25
294.174	15.25
294.968	13.25
295.761	16.25
296.555	16.25
297.348	17.25
298.141	18.25
298.935	13.25
299.728	15.25
300.521	17.25
301.314	16.25
302.107	12.25
302.899	12.25
303.692	14.25
304.485	14.25
305.277	13.25
306.07	13.25
306.862	11.25
307.655	15.25
308.447	8.25
309.239	13.25
310.031	11.25
310.823	9.25
311.615	11.25
312.407	8.25
313.199	11.25
313.991	6.25
314.783	7.25
315.574	10.25
316.366	10.25
317.157	9.25
317.949	8.25
318.74	8.25
319.531	7.25
320.322	9.25
321.113	5.25
321.904	5.25
322.695	7.25
323.486	6.25
324.277	7.25
325.068	9.25
325.858	8.25
326.649	7.25
327.439	6.25
328.23	8.25
329.02	7.25
329.81	8.25
330.6	5.25
331.391	5.25
332.181	9.25
332.971	5.25
333.76	7.25
334.55	5.25
335.34	7.25
336.13	5.25
336.919	5.25
337.709	7.25
338.498	8.25
339.287	8.25
340.077	4.25
340.866	4.25
341.655	6.25
342.444	7.25
343.233	6.25
344.022	10.25
344.811	5.25
345.6	5.25
346.388	6.25
347.177	5.25
347.965	4.25
348.754	5.25
349.542	8.25
350.33	5.25
351.119	8.25
351.907	6.25
352.695	5.25
353.483	7.25
354.271	5.25
355.059	4.25
355.846	3.25
356.634	4.25
357.422	6.25
358.209	7.25
358.997	5.25
359.784	3.25
360.571	4.25
361.359	3.25
362.146	7.25
362.933	6.25
363.72	4.25
364.507	7.25
365.294	4.25
366.081	6.25
366.867	4.25
367.654	6.25
368.44	3.25
369.227	3.25
370.013	4.25
370.8	5.25
371.586	5.25
372.372	6.25
373.158	5.25
373.944	3.25
374.73	5.25
375.516	5.25
376.302	6.25
377.088	4.25
377.873	2.25
378.659	5.25
379.445	5.25
380.23	5.25
381.015	4.25
381.801	7.25
382.586	6.25
383.371	4.25
384.156	4.25
384.941	6.25
385.726	5.25
386.511	7.25
387.296	2.25
388.08	6.25
388.865	5.25
389.649	4.25
390.434	7.25
391.218	4.25
392.003	6.25
392.787	6.25
393.571	5.25
394.355	7.25
395.139	6.25
395.923	6.25
396.707	6.25
397.491	6.25
398.274	7.25
399.058	9.25
399.842	7.25
400.625	7.25
401.408	7.25
402.192	6.25
402.975	7.25
403.758	8.25
404.541	9.25
405.324	7.25
406.107	9.25
406.89	6.25
407.673	8.25
408.456	8.25
409.238	8.25
410.021	10.25
410.803	7.25
411.586	11.25
412.368	8.25
413.151	9.25
413.933	9.25
414.715	8.25
415.497	9.25
416.279	9.25
417.061	10.25
417.843	8.25
418.624	10.25
419.406	12.25
420.188	10.25
420.969	9.25
421.751	10.25
422.532	7.25
423.313	11.25
424.095	13.25
424.876	12.25
425.657	13.25
426.438	13.25
427.219	9.25
428	15.25
428.78	14.25
429.561	13.25
430.342	15.25
431.122	13.25
431.903	16.25
432.683	14.25
433.464	15.25
434.244	17.25
435.024	15.25
435.804	16.25
436.584	20.25
437.364	18.25
438.144	17.25
438.924	19.25
439.704	18.25
440.483	20.25
441.263	24.25
442.042	25.25
442.822	24.25
443.601	27.25
444.38	28.25
445.16	28.25
445.939	32.25
446.718	35.25
447.497	36.25
448.276	44.25
449.054	42.25
449.833	46.25
450.612	52.25
451.391	55.25
452.169	58.25
452.948	61.25
453.726	68.25
454.504	77.25
455.282	86.25
456.061	97.25
456.839	106.25
457.617	112.25
458.395	125.25
459.172	141.25
459.95	154.25
460.728	174.25
461.506	193.25
462.283	217.25
463.061	242.25
463.838	271.25
464.615	306.25
465.393	338.25
466.17	379.25
466.947	423.25
467.724	473.25
468.501	517.25
469.278	601.25
470.055	662.25
470.831	736.25
471.608	828.25
472.385	924.25
473.161	1028.25
473.938	1132.25
474.714	1258.25
475.49	1411.25
476.266	1561.25
477.043	1735.25
477.819	1917.25
478.595	2117.25
479.371	2336.25
480.146	2620.25
480.922	2887.25
481.698	3173.25
482.473	3500.25
483.249	3871.25
484.024	4301.25
484.8	4747.25
485.575	5225.25
486.35	5751.25
487.126	6349.25
487.901	7017.25
488.676	7683.25
489.451	8418.25
490.225	9290.25
491	10205.25
491.775	11083.25
492.55	12207.25
493.324	13230.25
494.099	14248.25
494.873	15383.25
495.647	16625.25
496.422	17921.25
497.196	19157.25
497.97	20446.25
498.744	21685.25
499.518	22874.25
500.292	24030.25
501.066	25124.25
501.839	26048.25
502.613	26952.25
503.387	27638.25
504.16	28267.25
504.934	28487.25
505.707	28540.25
506.48	28472.25
507.253	28263.25
508.027	27827.25
508.8	27409.25
509.573	26753.25
510.346	26073.25
511.118	25119.25
511.891	24240.25
512.664	23338.25
513.437	22348.25
514.209	21386.25
514.982	20461.25
515.754	19527.25
516.526	18565.25
517.298	17853.25
518.071	16991.25
518.843	16377.25
519.615	15745.25
520.387	15115.25
521.159	14514.25
521.93	13929.25
522.702	13368.25
523.474	12856.25
524.245	12267.25
525.017	11740.25
525.788	11278.25
526.56	10722.25
527.331	10228.25
528.102	9757.25
528.873	9253.25
529.644	8834.25
530.415	8400.25
531.186	7918.25
531.957	7498.25
532.728	7139.25
533.498	6755.25
534.269	6347.25
535.039	5993.25
535.81	5667.25
536.58	5364.25
537.351	5033.25
538.121	4766.25
538.891	4498.25
539.661	4258.25
540.431	4021.25
541.201	3783.25
541.971	3613.25
542.741	3401.25
543.51	3242.25
544.28	3087.25
545.05	2939.25
545.819	2807.25
546.588	2662.25
547.358	2513.25
548.127	2391.25
548.896	2275.25
549.665	2146.25
550.434	2025.25
551.203	1930.25
551.972	1815.25
552.741	1704.25
553.51	1623.25
554.278	1531.25
555.047	1458.25
555.815	1363.25
556.584	1274.25
557.352	1207.25
558.121	1145.25
558.889	1089.25
559.657	1014.25
560.425	973.25
561.193	922.25
561.961	856.25
562.729	806.25
563.496	773.25
564.264	718.25
565.032	691.25
565.799	656.25
566.567	609.25
567.334	584.25
568.101	544.25
568.869	520.25
569.636	483.25
570.403	462.25
571.17	432.25
571.937	404.25
572.704	381.25
573.471	368.25
574.237	339.25
575.004	328.25
575.771	309.25
576.537	284.25
577.303	266.25
578.07	251.25
578.836	230.25
579.602	220.25
580.368	215.25
581.134	201.25
581.9	190.25
582.666	180.25
583.432	167.25
584.198	161.25
584.964	149.25
585.729	144.25
586.495	138.25
587.26	128.25
588.025	125.25
588.791	117.25
589.556	111.25
590.321	108.25
591.086	101.25
591.851	91.25
592.616	89.25
593.381	84.25
594.146	81.25
594.911	80.25
595.675	76.25
596.44	74.25
597.204	66.25
597.969	63.25
598.733	59.25
599.497	58.25
600.261	56.25
601.025	56.25
601.79	53.25
602.553	52.25
603.317	44.25
604.081	47.25
604.845	44.25
605.609	40.25
606.372	41.25
607.136	36.25
607.899	38.25
608.662	34.25
609.426	36.25
610.189	34.25
610.952	29.25
611.715	31.25
612.478	27.25
613.241	28.25
614.004	25.25
614.767	25.25
615.529	26.25
616.292	22.25
617.055	23.25
617.817	24.25
618.579	21.25
619.342	21.25
620.104	18.25
620.866	19.25
621.628	18.25
622.39	18.25
623.152	20.25
623.914	18.25
624.676	16.25
625.438	16.25
626.199	16.25
626.961	15.25
627.722	17.25
628.484	14.25
629.245	14.25
630.006	15.25
630.768	12.25
631.529	17.25
632.29	14.25
633.051	13.25
633.812	11.25
634.573	11.25
635.333	13.25
636.094	12.25
636.855	11.25
637.615	8.25
638.376	9.25
639.136	10.25
639.896	8.25
640.657	7.25
641.417	11.25
642.177	9.25
642.937	9.25
643.697	9.25
644.457	6.25
645.216	7.25
645.976	9.25
646.736	9.25
647.495	6.25
648.255	8.25
649.014	8.25
649.774	8.25
650.533	8.25
651.292	7.25
652.051	5.25
652.81	9.25
653.569	7.25
654.328	7.25
655.087	8.25
655.846	6.25
656.604	7.25
657.363	6.25
658.121	5.25
658.88	6.25
659.638	6.25
660.397	5.25
661.155	4.25
661.913	5.25
662.671	4.25
663.429	3.25
664.187	6.25
664.945	1.25
665.703	6.25
666.46	5.25
667.218	5.25
667.976	6.25
668.733	5.25
669.49	5.25
670.248	3.25
671.005	4.25
671.762	5.25
672.519	3.25
673.276	4.25
674.033	5.25
674.79	5.25
675.547	2.25
676.304	3.25
677.06	6.25
677.817	4.25
678.574	5.25
679.33	3.25
680.086	5.25
680.843	3.25
681.599	4.25
682.355	6.25
683.111	2.25
683.867	3.25
684.623	7.25
685.379	3.25
686.135	3.25
686.89	5.25
687.646	5.25
688.402	4.25
689.157	3.25
689.912	4.25
690.668	5.25
691.423	4.25
692.178	2.25
692.933	4.25
693.688	3.25
694.443	4.25
695.198	3.25
695.953	3.25
696.708	4.25
697.462	4.25
698.217	2.25
698.972	4.25
699.726	3.25
700.48	3.25
701.235	3.25
701.989	4.25
702.743	5.25
703.497	1.25
704.251	3.25
705.005	3.25
705.759	4.25
706.513	5.25
707.266	2.25
708.02	2.25
708.774	1.25
709.527	3.25
710.28	3.25
711.034	3.25
711.787	4.25
712.54	4.25
713.293	5.25
714.046	4.25
714.799	6.25
715.552	3.25
716.305	1.25
717.058	2.25
717.81	3.25
718.563	5.25
719.315	3.25
720.068	4.25
720.82	4.25
721.573	3.25
722.325	4.25
723.077	2.25
723.829	3.25
724.581	2.25
725.333	4.25
726.085	7.25
726.836	1.25
727.588	4.25
728.34	2.25
729.091	4.25
729.843	4.25
730.594	5.25
731.346	5.25
732.097	3.25
732.848	3.25
733.599	2.25
734.35	4.25
735.101	3.25
735.852	5.25
736.603	5.25
737.354	3.25
738.104	5.25
738.855	4.25
739.605	3.25
740.356	4.25
741.106	4.25
741.856	4.25
742.607	5.25
743.357	5.25
744.107	7.25
744.857	4.25
745.607	4.25
746.357	5.25
747.106	6.25
747.856	6.25
748.606	5.25
749.355	4.25
750.105	6.25
750.854	2.25
751.603	5.25
752.353	3.25
753.102	7.25
753.851	6.25
754.6	6.25
755.349	3.25
756.098	4.25
756.847	8.25
757.595	6.25
758.344	7.25
759.093	5.25
759.841	7.25
760.589	6.25
761.338	7.25
762.086	7.25
762.834	7.25
763.582	6.25
764.331	5.25
765.079	10.25
765.826	6.25
766.574	5.25
767.322	7.25
768.07	6.25
768.817	9.25
769.565	7.25
770.312	6.25
771.06	8.25
771.807	8.25
772.554	9.25
773.302	8.25
774.049	9.25
774.796	9.25
775.543	10.25
776.29	9.25
777.036	8.25
777.783	8.25
778.53	10.25
779.276	9.25
780.023	8.25
780.769	9.25
781.516	9.25
782.262	10.25
783.008	9.25
783.754	8.25
784.5	8.25
785.246	10.25
785.992	9.25
786.738	8.25
787.484	9.25
788.23	9.25
788.975	12.25
789.721	7.25
790.466	8.25
791.212	8.25
791.957	10.25
792.702	6.25
793.447	11.25
794.193	9.25
794.938	6.25
795.683	8.25
796.427	8.25
797.172	8.25
797.917	9.25
798.662	5.25
799.406	9.25
800.151	8.25
800.895	9.25
801.64	7.25
802.384	7.25
803.128	6.25
803.872	7.25
804.616	5.25
805.36	7.25
806.104	7.25
806.848	6.25
807.592	7.25
808.336	4.25
809.079	6.25
809.823	5.25
810.566	5.25
811.31	6.25
812.053	5.25
812.796	5.25
813.539	6.25
814.283	6.25
815.026	7.25
815.769	5.25
816.511	4.25
817.254	4.25
817.997	1.25
818.74	3.25
819.482	5.25
820.225	5.25
820.967	4.25
821.71	2.25
822.452	5.25
823.194	3.25
823.936	4.25
824.678	4.25
825.42	6.25
826.162	4.25
826.904	4.25
827.646	5.25
828.388	3.25
829.129	6.25
829.871	5.25
830.612	5.25
831.354	3.25
832.095	3.25
832.836	2.25
833.577	3.25
834.319	5.25
835.06	2.25
835.801	4.25
836.542	4.25
837.282	3.25
838.023	3.25
838.764	5.25
839.504	2.25
840.245	3.25
840.985	3.25
841.726	7.25
842.466	3.25
843.206	3.25
843.946	2.25
844.687	1.25
845.427	1.25
846.166	3.25
846.906	3.25
847.646	5.25
848.386	6.25
849.125	4.25
849.865	3.25
850.605	6.25
851.344	2.25
852.083	2.25
852.823	3.25
853.562	3.25
854.301	3.25
855.04	1.25
855.779	3.25
856.518	1.25
857.257	4.25
857.995	2.25
858.734	2.25
859.473	2.25
860.211	1.25
860.95	3.25
861.688	1.25
862.426	1.25
863.165	0.25
863.903	-0.75
864.641	1.25
865.379	2.25
866.117	2.25
866.855	-0.75
867.593	1.25
868.33	0.25
869.068	1.25
869.806	0.25
870.543	1.25
871.28	2.25
872.018	1.25
872.755	0.25
873.492	1.25
874.229	1.25
874.967	2.25
875.703	0.25
876.44	0.25
877.177	3.25
877.914	1.25
878.651	1.25
879.387	1.25
880.124	1.25
880.86	2.25
881.597	0.25
882.333	-0.75
883.069	0.25
883.806	0.25
884.542	2.25
885.278	1.25
886.014	1.25
886.749	1.25
887.485	0.25
888.221	0.25
888.957	-0.75
889.692	-1.75
890.428	0.25
891.163	2.25
891.899	0.25
892.634	1.25
893.369	1.25
894.104	1.25
894.839	-0.75
895.574	-1.75
896.309	1.25
897.044	2.25
897.779	2.25
898.514	0.25
899.248	-0.75
899.983	3.25
900.717	-0.75
901.452	3.25
902.186	2.25
902.92	0.25
903.654	0.25
904.389	-0.75
905.123	0.25
905.857	-0.75
906.59	-0.75
907.324	0.25
908.058	0.25
908.792	3.25
909.525	-1.75
910.259	3.25
910.992	2.25
911.726	0.25
912.459	2.25
913.192	1.25
913.925	-0.75
914.658	-0.75
915.391	0.25
916.124	1.25
916.857	-0.75
917.59	-1.75
918.323	-0.75
919.055	1.25
919.788	0.25
920.521	1.25
921.253	0.25
921.985	0.25
922.718	0.25
923.45	-0.75
924.182	0.25
924.914	0.25
925.646	-1.75
926.378	0.25
927.11	1.25
927.841	0.25
928.573	0.25
929.305	0.25
930.036	3.25
930.768	-0.75
931.499	1.25
932.23	2.25
932.962	0.25
933.693	1.25
934.424	-1.75
935.155	-0.75
935.886	-0.75
936.617	0.25
937.348	-0.75
938.078	-1.75
938.809	1.25
939.54	1.25
940.27	-0.75
941.001	-2.75
941.731	1.25
942.461	-1.75
943.191	0.25
943.922	1.25
944.652	-0.75
945.382	-1.75
946.112	-0.75
946.841	0.25
947.571	-0.75
948.301	-0.75
949.031	2.25
949.76	2.25
950.49	0.25
951.219	-0.75
951.948	0.25
952.678	0.25
953.407	-0.75
954.136	0.25
954.865	-1.75
955.594	-1.75
956.323	0.25
957.052	-0.75
957.78	-0.75
958.509	0.25
959.238	-0.75
959.966	-0.75
960.695	-0.75
961.423	1.25
962.151	-2.75
962.88	-0.75
963.608	-2.75
964.336	0.25
965.064	1.25
965.792	-1.75
966.52	2.25
967.247	0.25
967.975	0.25
968.703	0.25
969.43	-0.75
970.158	-0.75
970.885	0.25
971.613	1.25
972.34	-1.75
973.067	0.25
973.794	0.25
974.521	0.25
975.248	1.25
975.975	-0.75
976.702	-0.75
977.429	1.25
978.156	0.25
978.882	-0.75
979.609	0.25
980.335	0.25
981.062	0.25
981.788	-0.75
982.514	-0.75
983.24	2.25
983.967	-0.75
984.693	1.25
985.419	0.25
986.144	0.25
986.87	-0.75
987.596	-0.75
988.322	0.25
989.047	3.25
989.773	1.25
990.498	1.25
991.224	-0.75
991.949	-2.75
992.674	-1.75
993.399	2.25
994.124	-0.75
994.849	-0.75
995.574	0.25
996.299	-0.75
997.024	-1.75
997.749	1.25
998.473	1.25
999.198	1.25
999.922	-0.75
1000.647	-0.75
1001.371	1.25
1002.095	1.25
1002.82	0.25
1003.544	-0.75
1004.268	2.25
1004.992	-0.75
1005.716	0.25
1006.439	1.25
1007.163	2.25
1007.887	-0.75
1008.611	1.25
1009.334	2.25
1010.058	1.25
1010.781	-0.75
1011.504	0.25
1012.228	-1.75
1012.951	-2.75
1013.674	0.25
1014.397	-0.75
1015.12	1.25
