节点500_285_QEPB04081__309__15-00-41-748.txt的数据

Date: Wed Nov 12 15:00:41 CST 2025
User: PC
Spectrometer: QEPB0408
触发模式: 0
积分时间 (秒): 1.000000E-2
Scans to average: 1
启用暗噪声校正: true
启用非线性校正: false
滑动平均宽度: 0
X轴模式: Wavelengths
Number of Pixels in Spectrum: 1044
>>>>>Begin Spectral Data<<<<<
220.843	2
221.644	0
222.444	3
223.244	4
224.045	3
224.845	2
225.645	3
226.445	4
227.245	3
228.045	4
228.845	2
229.645	5
230.444	2
231.244	2
232.043	2
232.843	4
233.642	4
234.442	2
235.241	2
236.04	4
236.839	3
237.638	7
238.437	2
239.236	6
240.035	6
240.833	2
241.632	6
242.43	5
243.229	4
244.027	6
244.826	4
245.624	8
246.422	7
247.22	6
248.018	8
248.816	5
249.614	8
250.412	8
251.21	8
252.007	5
252.805	8
253.602	7
254.4	6
255.197	7
255.994	7
256.791	8
257.589	10
258.386	10
259.183	8
259.979	10
260.776	9
261.573	7
262.37	12
263.166	11
263.963	13
264.759	12
265.556	14
266.352	15
267.148	15
267.944	14
268.74	14
269.536	14
270.332	13
271.128	14
271.924	15
272.719	17
273.515	18
274.311	18
275.106	19
275.901	20
276.697	17
277.492	18
278.287	16
279.082	17
279.877	21
280.672	18
281.467	22
282.262	14
283.056	20
283.851	22
284.646	17
285.44	22
286.234	18
287.029	18
287.823	21
288.617	18
289.411	21
290.205	18
290.999	19
291.793	17
292.587	19
293.381	20
294.174	19
294.968	19
295.761	16
296.555	18
297.348	13
298.141	16
298.935	17
299.728	14
300.521	15
301.314	14
302.107	13
302.899	13
303.692	14
304.485	13
305.277	14
306.07	14
306.862	14
307.655	12
308.447	12
309.239	11
310.031	12
310.823	12
311.615	10
312.407	11
313.199	6
313.991	8
314.783	7
315.574	8
316.366	9
317.157	8
317.949	8
318.74	8
319.531	11
320.322	9
321.113	9
321.904	10
322.695	9
323.486	9
324.277	8
325.068	9
325.858	8
326.649	9
327.439	7
328.23	7
329.02	8
329.81	8
330.6	7
331.391	7
332.181	8
332.971	8
333.76	7
334.55	8
335.34	6
336.13	7
336.919	5
337.709	8
338.498	5
339.287	5
340.077	7
340.866	8
341.655	9
342.444	5
343.233	5
344.022	7
344.811	6
345.6	5
346.388	5
347.177	6
347.965	6
348.754	8
349.542	8
350.33	6
351.119	7
351.907	9
352.695	7
353.483	5
354.271	6
355.059	5
355.846	6
356.634	6
357.422	6
358.209	4
358.997	5
359.784	5
360.571	7
361.359	6
362.146	7
362.933	5
363.72	5
364.507	7
365.294	5
366.081	8
366.867	4
367.654	5
368.44	4
369.227	5
370.013	6
370.8	5
371.586	4
372.372	2
373.158	5
373.944	6
374.73	6
375.516	7
376.302	3
377.088	5
377.873	5
378.659	5
379.445	5
380.23	5
381.015	5
381.801	6
382.586	4
383.371	5
384.156	7
384.941	6
385.726	6
386.511	6
387.296	8
388.08	6
388.865	7
389.649	7
390.434	5
391.218	8
392.003	6
392.787	5
393.571	6
394.355	8
395.139	7
395.923	9
396.707	6
397.491	5
398.274	9
399.058	6
399.842	8
400.625	8
401.408	5
402.192	7
402.975	9
403.758	7
404.541	7
405.324	9
406.107	8
406.89	8
407.673	9
408.456	5
409.238	10
410.021	9
410.803	8
411.586	9
412.368	9
413.151	9
413.933	10
414.715	11
415.497	8
416.279	9
417.061	10
417.843	10
418.624	10
419.406	10
420.188	12
420.969	11
421.751	9
422.532	11
423.313	12
424.095	13
424.876	15
425.657	13
426.438	13
427.219	12
428	12
428.78	10
429.561	13
430.342	13
431.122	14
431.903	15
432.683	14
433.464	17
434.244	17
435.024	14
435.804	18
436.584	19
437.364	21
438.144	21
438.924	20
439.704	19
440.483	22
441.263	26
442.042	27
442.822	27
443.601	29
444.38	33
445.16	34
445.939	30
446.718	37
447.497	38
448.276	44
449.054	47
449.833	47
450.612	50
451.391	56
452.169	61
452.948	65
453.726	76
454.504	82
455.282	92
456.061	101
456.839	108
457.617	119
458.395	137
459.172	147
459.95	166
460.728	184
461.506	206
462.283	225
463.061	254
463.838	288
464.615	318
465.393	362
466.17	398
466.947	438
467.724	499
468.501	553
469.278	618
470.055	685
470.831	764
471.608	846
472.385	942
473.161	1034
473.938	1163
474.714	1297
475.49	1425
476.266	1575
477.043	1746
477.819	1926
478.595	2122
479.371	2338
480.146	2595
480.922	2868
481.698	3157
482.473	3473
483.249	3801
484.024	4192
484.8	4649
485.575	5102
486.35	5625
487.126	6161
487.901	6791
488.676	7425
489.451	8085
490.225	8895
491	9711
491.775	10618
492.55	11593
493.324	12544
494.099	13501
494.873	14554
495.647	15722
496.422	16962
497.196	18126
497.97	19289
498.744	20536
499.518	21655
500.292	22773
501.066	23916
501.839	24867
502.613	25716
503.387	26563
504.16	27140
504.934	27452
505.707	27585
506.48	27667
507.253	27562
508.027	27235
508.8	26936
509.573	26489
510.346	25867
511.118	25041
511.891	24213
512.664	23384
513.437	22454
514.209	21509
514.982	20599
515.754	19688
516.526	18860
517.298	18054
518.071	17211
518.843	16602
519.615	15972
520.387	15282
521.159	14704
521.93	14110
522.702	13548
523.474	12997
524.245	12402
525.017	11915
525.788	11434
526.56	10909
527.331	10402
528.102	9957
528.873	9472
529.644	9010
530.415	8596
531.186	8121
531.957	7685
532.728	7322
533.498	6902
534.269	6528
535.039	6172
535.81	5859
536.58	5525
537.351	5177
538.121	4908
538.891	4648
539.661	4374
540.431	4140
541.201	3934
541.971	3705
542.741	3505
543.51	3346
544.28	3182
545.05	3027
545.819	2882
546.588	2747
547.358	2597
548.127	2470
548.896	2336
549.665	2213
550.434	2099
551.203	1997
551.972	1877
552.741	1776
553.51	1682
554.278	1595
555.047	1506
555.815	1414
556.584	1337
557.352	1264
558.121	1191
558.889	1124
559.657	1064
560.425	998
561.193	957
561.961	883
562.729	842
563.496	800
564.264	748
565.032	709
565.799	682
566.567	648
567.334	598
568.101	576
568.869	542
569.636	501
570.403	471
571.17	443
571.937	420
572.704	402
573.471	380
574.237	358
575.004	332
575.771	318
576.537	289
577.303	287
578.07	262
578.836	247
579.602	242
580.368	223
581.134	210
581.9	198
582.666	187
583.432	179
584.198	169
584.964	160
585.729	150
586.495	146
587.26	138
588.025	132
588.791	128
589.556	115
590.321	112
591.086	107
591.851	97
592.616	97
593.381	92
594.146	90
594.911	79
595.675	76
596.44	73
597.204	73
597.969	66
598.733	66
599.497	66
600.261	56
601.025	57
601.79	55
602.553	50
603.317	53
604.081	42
604.845	45
605.609	44
606.372	44
607.136	42
607.899	39
608.662	38
609.426	34
610.189	35
610.952	32
611.715	32
612.478	33
613.241	28
614.004	28
614.767	28
615.529	26
616.292	24
617.055	23
617.817	23
618.579	21
619.342	24
620.104	22
620.866	19
621.628	22
622.39	20
623.152	20
623.914	19
624.676	18
625.438	17
626.199	14
626.961	15
627.722	17
628.484	15
629.245	15
630.006	15
630.768	14
631.529	14
632.29	13
633.051	11
633.812	12
634.573	14
635.333	14
636.094	12
636.855	11
637.615	14
638.376	11
639.136	11
639.896	10
640.657	8
641.417	10
642.177	8
642.937	8
643.697	9
644.457	8
645.216	10
645.976	9
646.736	7
647.495	6
648.255	8
649.014	8
649.774	6
650.533	9
651.292	7
652.051	4
652.81	8
653.569	9
654.328	7
655.087	6
655.846	7
656.604	6
657.363	6
658.121	5
658.88	8
659.638	8
660.397	5
661.155	7
661.913	6
662.671	5
663.429	6
664.187	6
664.945	5
665.703	6
666.46	6
667.218	6
667.976	6
668.733	6
669.49	5
670.248	7
671.005	6
671.762	4
672.519	3
673.276	4
674.033	5
674.79	4
675.547	6
676.304	4
677.06	6
677.817	4
678.574	5
679.33	5
680.086	2
680.843	6
681.599	5
682.355	6
683.111	4
683.867	4
684.623	6
685.379	4
686.135	4
686.89	5
687.646	6
688.402	6
689.157	5
689.912	3
690.668	4
691.423	4
692.178	3
692.933	4
693.688	6
694.443	7
695.198	5
695.953	4
696.708	3
697.462	5
698.217	5
698.972	5
699.726	5
700.48	5
701.235	4
701.989	4
702.743	3
703.497	2
704.251	6
705.005	3
705.759	6
706.513	3
707.266	4
708.02	3
708.774	2
709.527	5
710.28	3
711.034	4
711.787	4
712.54	3
713.293	2
714.046	4
714.799	4
715.552	4
716.305	2
717.058	4
717.81	2
718.563	5
719.315	4
720.068	2
720.82	4
721.573	5
722.325	4
723.077	5
723.829	0
724.581	4
725.333	4
726.085	5
726.836	3
727.588	2
728.34	3
729.091	5
729.843	5
730.594	5
731.346	5
732.097	4
732.848	5
733.599	7
734.35	7
735.101	6
735.852	3
736.603	6
737.354	6
738.104	5
738.855	4
739.605	3
740.356	6
741.106	5
741.856	5
742.607	5
743.357	5
744.107	7
744.857	3
745.607	5
746.357	4
747.106	8
747.856	3
748.606	5
749.355	5
750.105	4
750.854	6
751.603	8
752.353	7
753.102	6
753.851	6
754.6	7
755.349	5
756.098	7
756.847	6
757.595	9
758.344	6
759.093	5
759.841	8
760.589	5
761.338	5
762.086	6
762.834	5
763.582	7
764.331	7
765.079	10
765.826	7
766.574	7
767.322	8
768.07	7
768.817	8
769.565	5
770.312	7
771.06	7
771.807	10
772.554	8
773.302	8
774.049	8
774.796	7
775.543	8
776.29	9
777.036	7
777.783	10
778.53	6
779.276	8
780.023	9
780.769	9
781.516	10
782.262	10
783.008	10
783.754	7
784.5	10
785.246	8
785.992	10
786.738	11
787.484	8
788.23	8
788.975	10
789.721	10
790.466	10
791.212	10
791.957	8
792.702	7
793.447	9
794.193	7
794.938	10
795.683	5
796.427	7
797.172	8
797.917	10
798.662	8
799.406	8
800.151	10
800.895	7
801.64	6
802.384	8
803.128	8
803.872	10
804.616	7
805.36	4
806.104	8
806.848	7
807.592	5
808.336	9
809.079	7
809.823	8
810.566	7
811.31	8
812.053	5
812.796	6
813.539	4
814.283	5
815.026	7
815.769	9
816.511	6
817.254	7
817.997	5
818.74	6
819.482	4
820.225	4
820.967	5
821.71	5
822.452	6
823.194	6
823.936	2
824.678	4
825.42	4
826.162	6
826.904	7
827.646	4
828.388	6
829.129	5
829.871	2
830.612	4
831.354	4
832.095	6
832.836	4
833.577	1
834.319	2
835.06	5
835.801	5
836.542	3
837.282	4
838.023	4
838.764	4
839.504	7
840.245	1
840.985	5
841.726	2
842.466	3
843.206	2
843.946	3
844.687	2
845.427	4
846.166	4
846.906	2
847.646	3
848.386	6
849.125	4
849.865	4
850.605	2
851.344	4
852.083	3
852.823	2
853.562	4
854.301	3
855.04	3
855.779	3
856.518	5
857.257	2
857.995	3
858.734	2
859.473	2
860.211	3
860.95	1
861.688	3
862.426	2
863.165	2
863.903	4
864.641	4
865.379	0
866.117	3
866.855	4
867.593	4
868.33	3
869.068	1
869.806	2
870.543	1
871.28	4
872.018	2
872.755	1
873.492	1
874.229	1
874.967	3
875.703	-1
876.44	4
877.177	2
877.914	2
878.651	2
879.387	4
880.124	-1
880.86	0
881.597	2
882.333	0
883.069	2
883.806	0
884.542	2
885.278	2
886.014	0
886.749	2
887.485	3
888.221	-1
888.957	1
889.692	2
890.428	2
891.163	3
891.899	2
892.634	1
893.369	-1
894.104	2
894.839	1
895.574	1
896.309	-1
897.044	2
897.779	3
898.514	1
899.248	0
899.983	-1
900.717	0
901.452	2
902.186	2
902.92	1
903.654	2
904.389	1
905.123	0
905.857	-1
906.59	1
907.324	-2
908.058	1
908.792	-1
909.525	1
910.259	0
910.992	0
911.726	2
912.459	2
913.192	1
913.925	2
914.658	2
915.391	1
916.124	0
916.857	0
917.59	-2
918.323	1
919.055	1
919.788	1
920.521	4
921.253	1
921.985	3
922.718	1
923.45	2
924.182	0
924.914	0
925.646	0
926.378	1
927.11	2
927.841	0
928.573	-2
929.305	0
930.036	1
930.768	0
931.499	1
932.23	1
932.962	2
933.693	0
934.424	1
935.155	2
935.886	1
936.617	1
937.348	1
938.078	1
938.809	0
939.54	1
940.27	0
941.001	2
941.731	1
942.461	2
943.191	1
943.922	0
944.652	1
945.382	-1
946.112	0
946.841	0
947.571	0
948.301	2
949.031	-1
949.76	1
950.49	1
951.219	-1
951.948	2
952.678	0
953.407	0
954.136	-1
954.865	1
955.594	-2
956.323	1
957.052	0
957.78	-2
958.509	0
959.238	1
959.966	1
960.695	0
961.423	0
962.151	0
962.88	2
963.608	0
964.336	-2
965.064	2
965.792	2
966.52	-3
967.247	0
967.975	1
968.703	1
969.43	1
970.158	-2
970.885	-1
971.613	-1
972.34	-1
973.067	0
973.794	0
974.521	2
975.248	1
975.975	1
976.702	1
977.429	0
978.156	2
978.882	1
979.609	0
980.335	0
981.062	0
981.788	-2
982.514	1
983.24	1
983.967	-2
984.693	4
985.419	0
986.144	1
986.87	1
987.596	1
988.322	-2
989.047	-1
989.773	0
990.498	-2
991.224	-1
991.949	2
992.674	1
993.399	1
994.124	2
994.849	-1
995.574	2
996.299	1
997.024	1
997.749	0
998.473	3
999.198	1
999.922	0
1000.647	0
1001.371	2
1002.095	-1
1002.82	-1
1003.544	-2
1004.268	2
1004.992	2
1005.716	1
1006.439	3
1007.163	2
1007.887	0
1008.611	0
1009.334	0
1010.058	1
1010.781	3
1011.504	3
1012.228	1
1012.951	-1
1013.674	3
1014.397	1
1015.12	-1
