节点500_285_QEPB04081__623__15-05-55-088.txt的数据

Date: Wed Nov 12 15:05:55 CST 2025
User: PC
Spectrometer: QEPB0408
触发模式: 0
积分时间 (秒): 1.000000E-2
Scans to average: 1
启用暗噪声校正: true
启用非线性校正: false
滑动平均宽度: 0
X轴模式: Wavelengths
Number of Pixels in Spectrum: 1044
>>>>>Begin Spectral Data<<<<<
220.843	2.5
221.644	2.5
222.444	1.5
223.244	1.5
224.045	2.5
224.845	2.5
225.645	2.5
226.445	2.5
227.245	2.5
228.045	4.5
228.845	1.5
229.645	5.5
230.444	3.5
231.244	3.5
232.043	3.5
232.843	4.5
233.642	5.5
234.442	3.5
235.241	5.5
236.04	0.5
236.839	3.5
237.638	3.5
238.437	2.5
239.236	3.5
240.035	7.5
240.833	6.5
241.632	3.5
242.43	4.5
243.229	5.5
244.027	5.5
244.826	6.5
245.624	7.5
246.422	3.5
247.22	5.5
248.018	6.5
248.816	8.5
249.614	7.5
250.412	6.5
251.21	7.5
252.007	6.5
252.805	7.5
253.602	6.5
254.4	5.5
255.197	7.5
255.994	6.5
256.791	8.5
257.589	11.5
258.386	9.5
259.183	8.5
259.979	8.5
260.776	8.5
261.573	10.5
262.37	8.5
263.166	11.5
263.963	11.5
264.759	12.5
265.556	11.5
266.352	10.5
267.148	15.5
267.944	13.5
268.74	13.5
269.536	14.5
270.332	13.5
271.128	13.5
271.924	13.5
272.719	14.5
273.515	14.5
274.311	16.5
275.106	18.5
275.901	14.5
276.697	16.5
277.492	16.5
278.287	16.5
279.082	15.5
279.877	14.5
280.672	17.5
281.467	17.5
282.262	20.5
283.056	18.5
283.851	17.5
284.646	18.5
285.44	18.5
286.234	18.5
287.029	18.5
287.823	18.5
288.617	19.5
289.411	16.5
290.205	16.5
290.999	16.5
291.793	18.5
292.587	19.5
293.381	15.5
294.174	18.5
294.968	14.5
295.761	17.5
296.555	15.5
297.348	14.5
298.141	14.5
298.935	17.5
299.728	18.5
300.521	13.5
301.314	16.5
302.107	14.5
302.899	15.5
303.692	14.5
304.485	14.5
305.277	11.5
306.07	12.5
306.862	12.5
307.655	12.5
308.447	14.5
309.239	11.5
310.031	12.5
310.823	7.5
311.615	10.5
312.407	10.5
313.199	9.5
313.991	10.5
314.783	8.5
315.574	7.5
316.366	8.5
317.157	8.5
317.949	9.5
318.74	10.5
319.531	8.5
320.322	9.5
321.113	10.5
321.904	7.5
322.695	9.5
323.486	6.5
324.277	6.5
325.068	9.5
325.858	5.5
326.649	7.5
327.439	9.5
328.23	6.5
329.02	6.5
329.81	8.5
330.6	7.5
331.391	8.5
332.181	6.5
332.971	6.5
333.76	7.5
334.55	7.5
335.34	7.5
336.13	7.5
336.919	4.5
337.709	6.5
338.498	6.5
339.287	7.5
340.077	7.5
340.866	7.5
341.655	6.5
342.444	6.5
343.233	7.5
344.022	6.5
344.811	4.5
345.6	5.5
346.388	4.5
347.177	6.5
347.965	5.5
348.754	7.5
349.542	4.5
350.33	4.5
351.119	6.5
351.907	6.5
352.695	6.5
353.483	8.5
354.271	5.5
355.059	5.5
355.846	9.5
356.634	6.5
357.422	8.5
358.209	6.5
358.997	5.5
359.784	5.5
360.571	6.5
361.359	8.5
362.146	6.5
362.933	5.5
363.72	5.5
364.507	5.5
365.294	5.5
366.081	5.5
366.867	5.5
367.654	6.5
368.44	5.5
369.227	3.5
370.013	8.5
370.8	8.5
371.586	4.5
372.372	7.5
373.158	3.5
373.944	3.5
374.73	4.5
375.516	4.5
376.302	6.5
377.088	5.5
377.873	5.5
378.659	7.5
379.445	4.5
380.23	5.5
381.015	5.5
381.801	5.5
382.586	6.5
383.371	5.5
384.156	6.5
384.941	6.5
385.726	7.5
386.511	4.5
387.296	6.5
388.08	6.5
388.865	4.5
389.649	6.5
390.434	9.5
391.218	4.5
392.003	6.5
392.787	4.5
393.571	6.5
394.355	5.5
395.139	7.5
395.923	7.5
396.707	7.5
397.491	8.5
398.274	4.5
399.058	6.5
399.842	6.5
400.625	5.5
401.408	7.5
402.192	6.5
402.975	5.5
403.758	7.5
404.541	6.5
405.324	5.5
406.107	4.5
406.89	5.5
407.673	5.5
408.456	6.5
409.238	8.5
410.021	8.5
410.803	7.5
411.586	6.5
412.368	9.5
413.151	8.5
413.933	8.5
414.715	7.5
415.497	8.5
416.279	8.5
417.061	8.5
417.843	7.5
418.624	8.5
419.406	10.5
420.188	10.5
420.969	9.5
421.751	12.5
422.532	11.5
423.313	11.5
424.095	9.5
424.876	11.5
425.657	13.5
426.438	12.5
427.219	13.5
428	11.5
428.78	11.5
429.561	16.5
430.342	14.5
431.122	15.5
431.903	14.5
432.683	12.5
433.464	15.5
434.244	14.5
435.024	17.5
435.804	18.5
436.584	14.5
437.364	21.5
438.144	18.5
438.924	21.5
439.704	21.5
440.483	25.5
441.263	25.5
442.042	25.5
442.822	26.5
443.601	28.5
444.38	31.5
445.16	34.5
445.939	35.5
446.718	36.5
447.497	39.5
448.276	45.5
449.054	46.5
449.833	52.5
450.612	57.5
451.391	61.5
452.169	65.5
452.948	69.5
453.726	79.5
454.504	88.5
455.282	99.5
456.061	108.5
456.839	120.5
457.617	131.5
458.395	143.5
459.172	164.5
459.95	182.5
460.728	199.5
461.506	223.5
462.283	254.5
463.061	273.5
463.838	305.5
464.615	350.5
465.393	391.5
466.17	425.5
466.947	477.5
467.724	530.5
468.501	585.5
469.278	647.5
470.055	715.5
470.831	797.5
471.608	893.5
472.385	980.5
473.161	1077.5
473.938	1214.5
474.714	1327.5
475.49	1472.5
476.266	1605.5
477.043	1754.5
477.819	1956.5
478.595	2134.5
479.371	2349.5
480.146	2561.5
480.922	2827.5
481.698	3081.5
482.473	3389.5
483.249	3717.5
484.024	4061.5
484.8	4460.5
485.575	4849.5
486.35	5322.5
487.126	5832.5
487.901	6301.5
488.676	6926.5
489.451	7545.5
490.225	8226.5
491	8955.5
491.775	9711.5
492.55	10541.5
493.324	11448.5
494.099	12243.5
494.873	13220.5
495.647	14211.5
496.422	15246.5
497.196	16290.5
497.97	17449.5
498.744	18504.5
499.518	19599.5
500.292	20676.5
501.066	21733.5
501.839	22697.5
502.613	23540.5
503.387	24353.5
504.16	25138.5
504.934	25462.5
505.707	25861.5
506.48	25974.5
507.253	26116.5
508.027	26023.5
508.8	25827.5
509.573	25543.5
510.346	25190.5
511.118	24520.5
511.891	23818.5
512.664	23134.5
513.437	22466.5
514.209	21560.5
514.982	20783.5
515.754	19915.5
516.526	19123.5
517.298	18298.5
518.071	17569.5
518.843	16851.5
519.615	16268.5
520.387	15586.5
521.159	14946.5
521.93	14329.5
522.702	13814.5
523.474	13238.5
524.245	12656.5
525.017	12128.5
525.788	11723.5
526.56	11193.5
527.331	10625.5
528.102	10220.5
528.873	9724.5
529.644	9271.5
530.415	8828.5
531.186	8433.5
531.957	8015.5
532.728	7630.5
533.498	7249.5
534.269	6833.5
535.039	6474.5
535.81	6110.5
536.58	5805.5
537.351	5448.5
538.121	5159.5
538.891	4872.5
539.661	4623.5
540.431	4370.5
541.201	4124.5
541.971	3907.5
542.741	3666.5
543.51	3524.5
544.28	3368.5
545.05	3182.5
545.819	3033.5
546.588	2884.5
547.358	2744.5
548.127	2599.5
548.896	2469.5
549.665	2352.5
550.434	2224.5
551.203	2108.5
551.972	2000.5
552.741	1895.5
553.51	1770.5
554.278	1696.5
555.047	1614.5
555.815	1517.5
556.584	1426.5
557.352	1356.5
558.121	1263.5
558.889	1205.5
559.657	1145.5
560.425	1077.5
561.193	1001.5
561.961	955.5
562.729	914.5
563.496	852.5
564.264	806.5
565.032	758.5
565.799	719.5
566.567	681.5
567.334	641.5
568.101	608.5
568.869	576.5
569.636	534.5
570.403	508.5
571.17	480.5
571.937	456.5
572.704	422.5
573.471	410.5
574.237	379.5
575.004	362.5
575.771	341.5
576.537	317.5
577.303	298.5
578.07	285.5
578.836	266.5
579.602	249.5
580.368	238.5
581.134	224.5
581.9	220.5
582.666	196.5
583.432	192.5
584.198	178.5
584.964	173.5
585.729	161.5
586.495	155.5
587.26	145.5
588.025	142.5
588.791	129.5
589.556	121.5
590.321	119.5
591.086	108.5
591.851	106.5
592.616	102.5
593.381	95.5
594.146	87.5
594.911	91.5
595.675	83.5
596.44	82.5
597.204	77.5
597.969	70.5
598.733	69.5
599.497	65.5
600.261	62.5
601.025	60.5
601.79	57.5
602.553	56.5
603.317	54.5
604.081	52.5
604.845	47.5
605.609	46.5
606.372	46.5
607.136	44.5
607.899	41.5
608.662	38.5
609.426	39.5
610.189	36.5
610.952	35.5
611.715	35.5
612.478	32.5
613.241	29.5
614.004	30.5
614.767	28.5
615.529	25.5
616.292	26.5
617.055	26.5
617.817	22.5
618.579	26.5
619.342	21.5
620.104	21.5
620.866	22.5
621.628	21.5
622.39	18.5
623.152	18.5
623.914	17.5
624.676	18.5
625.438	18.5
626.199	19.5
626.961	13.5
627.722	17.5
628.484	16.5
629.245	14.5
630.006	15.5
630.768	13.5
631.529	15.5
632.29	15.5
633.051	14.5
633.812	11.5
634.573	13.5
635.333	10.5
636.094	10.5
636.855	11.5
637.615	12.5
638.376	13.5
639.136	8.5
639.896	8.5
640.657	10.5
641.417	13.5
642.177	10.5
642.937	9.5
643.697	8.5
644.457	9.5
645.216	10.5
645.976	12.5
646.736	8.5
647.495	8.5
648.255	9.5
649.014	5.5
649.774	7.5
650.533	8.5
651.292	6.5
652.051	7.5
652.81	9.5
653.569	6.5
654.328	6.5
655.087	7.5
655.846	7.5
656.604	8.5
657.363	6.5
658.121	5.5
658.88	3.5
659.638	6.5
660.397	4.5
661.155	5.5
661.913	6.5
662.671	4.5
663.429	6.5
664.187	6.5
664.945	6.5
665.703	5.5
666.46	5.5
667.218	4.5
667.976	6.5
668.733	6.5
669.49	5.5
670.248	4.5
671.005	6.5
671.762	2.5
672.519	7.5
673.276	3.5
674.033	4.5
674.79	3.5
675.547	4.5
676.304	4.5
677.06	6.5
677.817	7.5
678.574	4.5
679.33	6.5
680.086	3.5
680.843	5.5
681.599	4.5
682.355	2.5
683.111	2.5
683.867	4.5
684.623	5.5
685.379	5.5
686.135	4.5
686.89	5.5
687.646	4.5
688.402	4.5
689.157	3.5
689.912	5.5
690.668	3.5
691.423	5.5
692.178	3.5
692.933	2.5
693.688	3.5
694.443	3.5
695.198	2.5
695.953	6.5
696.708	3.5
697.462	4.5
698.217	2.5
698.972	5.5
699.726	3.5
700.48	4.5
701.235	6.5
701.989	4.5
702.743	3.5
703.497	2.5
704.251	7.5
705.005	2.5
705.759	2.5
706.513	4.5
707.266	6.5
708.02	5.5
708.774	3.5
709.527	3.5
710.28	2.5
711.034	1.5
711.787	4.5
712.54	3.5
713.293	4.5
714.046	5.5
714.799	1.5
715.552	2.5
716.305	1.5
717.058	2.5
717.81	3.5
718.563	3.5
719.315	2.5
720.068	3.5
720.82	6.5
721.573	3.5
722.325	4.5
723.077	3.5
723.829	3.5
724.581	4.5
725.333	2.5
726.085	2.5
726.836	2.5
727.588	4.5
728.34	4.5
729.091	4.5
729.843	5.5
730.594	3.5
731.346	3.5
732.097	5.5
732.848	7.5
733.599	2.5
734.35	2.5
735.101	2.5
735.852	1.5
736.603	4.5
737.354	2.5
738.104	5.5
738.855	5.5
739.605	5.5
740.356	4.5
741.106	2.5
741.856	7.5
742.607	6.5
743.357	4.5
744.107	5.5
744.857	5.5
745.607	5.5
746.357	7.5
747.106	6.5
747.856	4.5
748.606	6.5
749.355	4.5
750.105	3.5
750.854	4.5
751.603	5.5
752.353	5.5
753.102	7.5
753.851	7.5
754.6	6.5
755.349	2.5
756.098	7.5
756.847	6.5
757.595	9.5
758.344	5.5
759.093	6.5
759.841	6.5
760.589	4.5
761.338	5.5
762.086	4.5
762.834	7.5
763.582	7.5
764.331	4.5
765.079	7.5
765.826	4.5
766.574	6.5
767.322	6.5
768.07	8.5
768.817	7.5
769.565	6.5
770.312	7.5
771.06	5.5
771.807	7.5
772.554	6.5
773.302	6.5
774.049	8.5
774.796	9.5
775.543	8.5
776.29	6.5
777.036	8.5
777.783	8.5
778.53	6.5
779.276	9.5
780.023	7.5
780.769	10.5
781.516	8.5
782.262	9.5
783.008	9.5
783.754	9.5
784.5	7.5
785.246	9.5
785.992	9.5
786.738	11.5
787.484	6.5
788.23	8.5
788.975	8.5
789.721	9.5
790.466	7.5
791.212	7.5
791.957	8.5
792.702	8.5
793.447	8.5
794.193	6.5
794.938	8.5
795.683	9.5
796.427	8.5
797.172	8.5
797.917	6.5
798.662	9.5
799.406	6.5
800.151	10.5
800.895	5.5
801.64	6.5
802.384	9.5
803.128	6.5
803.872	8.5
804.616	5.5
805.36	8.5
806.104	9.5
806.848	8.5
807.592	6.5
808.336	5.5
809.079	10.5
809.823	4.5
810.566	6.5
811.31	5.5
812.053	2.5
812.796	6.5
813.539	6.5
814.283	6.5
815.026	6.5
815.769	5.5
816.511	7.5
817.254	6.5
817.997	4.5
818.74	5.5
819.482	4.5
820.225	5.5
820.967	4.5
821.71	5.5
822.452	4.5
823.194	4.5
823.936	4.5
824.678	4.5
825.42	3.5
826.162	2.5
826.904	3.5
827.646	5.5
828.388	4.5
829.129	2.5
829.871	5.5
830.612	6.5
831.354	1.5
832.095	2.5
832.836	4.5
833.577	3.5
834.319	4.5
835.06	5.5
835.801	5.5
836.542	2.5
837.282	4.5
838.023	4.5
838.764	4.5
839.504	3.5
840.245	2.5
840.985	1.5
841.726	2.5
842.466	3.5
843.206	1.5
843.946	3.5
844.687	1.5
845.427	3.5
846.166	4.5
846.906	3.5
847.646	4.5
848.386	2.5
849.125	3.5
849.865	3.5
850.605	2.5
851.344	5.5
852.083	2.5
852.823	2.5
853.562	2.5
854.301	4.5
855.04	4.5
855.779	2.5
856.518	4.5
857.257	3.5
857.995	2.5
858.734	1.5
859.473	0.5
860.211	5.5
860.95	3.5
861.688	2.5
862.426	3.5
863.165	3.5
863.903	3.5
864.641	3.5
865.379	1.5
866.117	1.5
866.855	0.5
867.593	3.5
868.33	1.5
869.068	4.5
869.806	0.5
870.543	0.5
871.28	2.5
872.018	2.5
872.755	3.5
873.492	0.5
874.229	2.5
874.967	1.5
875.703	2.5
876.44	1.5
877.177	1.5
877.914	3.5
878.651	-1.5
879.387	4.5
880.124	-0.5
880.86	2.5
881.597	2.5
882.333	4.5
883.069	2.5
883.806	2.5
884.542	2.5
885.278	1.5
886.014	2.5
886.749	2.5
887.485	0.5
888.221	3.5
888.957	2.5
889.692	0.5
890.428	2.5
891.163	2.5
891.899	1.5
892.634	-0.5
893.369	1.5
894.104	-0.5
894.839	2.5
895.574	0.5
896.309	1.5
897.044	3.5
897.779	2.5
898.514	1.5
899.248	2.5
899.983	2.5
900.717	2.5
901.452	1.5
902.186	2.5
902.92	-0.5
903.654	2.5
904.389	-0.5
905.123	0.5
905.857	2.5
906.59	1.5
907.324	2.5
908.058	1.5
908.792	1.5
909.525	0.5
910.259	0.5
910.992	1.5
911.726	-0.5
912.459	0.5
913.192	1.5
913.925	0.5
914.658	0.5
915.391	1.5
916.124	1.5
916.857	1.5
917.59	-0.5
918.323	-1.5
919.055	1.5
919.788	0.5
920.521	-0.5
921.253	0.5
921.985	1.5
922.718	-1.5
923.45	1.5
924.182	-0.5
924.914	-1.5
925.646	-0.5
926.378	-0.5
927.11	2.5
927.841	2.5
928.573	-0.5
929.305	-0.5
930.036	1.5
930.768	0.5
931.499	0.5
932.23	0.5
932.962	2.5
933.693	0.5
934.424	-1.5
935.155	1.5
935.886	0.5
936.617	0.5
937.348	1.5
938.078	2.5
938.809	0.5
939.54	-0.5
940.27	1.5
941.001	0.5
941.731	1.5
942.461	0.5
943.191	3.5
943.922	0.5
944.652	1.5
945.382	0.5
946.112	2.5
946.841	1.5
947.571	2.5
948.301	2.5
949.031	0.5
949.76	-0.5
950.49	2.5
951.219	0.5
951.948	0.5
952.678	0.5
953.407	1.5
954.136	1.5
954.865	2.5
955.594	2.5
956.323	0.5
957.052	0.5
957.78	2.5
958.509	1.5
959.238	-0.5
959.966	-3.5
960.695	-0.5
961.423	1.5
962.151	1.5
962.88	1.5
963.608	-0.5
964.336	1.5
965.064	2.5
965.792	2.5
966.52	-1.5
967.247	-0.5
967.975	1.5
968.703	-0.5
969.43	0.5
970.158	1.5
970.885	-1.5
971.613	-1.5
972.34	0.5
973.067	1.5
973.794	0.5
974.521	-1.5
975.248	-1.5
975.975	1.5
976.702	-0.5
977.429	-0.5
978.156	1.5
978.882	-0.5
979.609	-0.5
980.335	2.5
981.062	2.5
981.788	-0.5
982.514	-1.5
983.24	1.5
983.967	0.5
984.693	2.5
985.419	0.5
986.144	1.5
986.87	1.5
987.596	-0.5
988.322	1.5
989.047	1.5
989.773	2.5
990.498	0.5
991.224	1.5
991.949	1.5
992.674	-0.5
993.399	1.5
994.124	1.5
994.849	-1.5
995.574	-0.5
996.299	-0.5
997.024	1.5
997.749	-0.5
998.473	1.5
999.198	1.5
999.922	0.5
1000.647	-0.5
1001.371	4.5
1002.095	-1.5
1002.82	0.5
1003.544	-3.5
1004.268	2.5
1004.992	1.5
1005.716	1.5
1006.439	1.5
1007.163	1.5
1007.887	2.5
1008.611	0.5
1009.334	-0.5
1010.058	-0.5
1010.781	-0.5
1011.504	1.5
1012.228	-1.5
1012.951	0.5
1013.674	-2.5
1014.397	0.5
1015.12	1.5
