节点500_285_QEPB04081__592__15-05-24-196.txt的数据

Date: Wed Nov 12 15:05:24 CST 2025
User: PC
Spectrometer: QEPB0408
触发模式: 0
积分时间 (秒): 1.000000E-2
Scans to average: 1
启用暗噪声校正: true
启用非线性校正: false
滑动平均宽度: 0
X轴模式: Wavelengths
Number of Pixels in Spectrum: 1044
>>>>>Begin Spectral Data<<<<<
220.843	0.5
221.644	0.5
222.444	1.5
223.244	4.5
224.045	0.5
224.845	3.5
225.645	3.5
226.445	1.5
227.245	2.5
228.045	2.5
228.845	2.5
229.645	3.5
230.444	3.5
231.244	4.5
232.043	4.5
232.843	4.5
233.642	2.5
234.442	5.5
235.241	3.5
236.04	3.5
236.839	5.5
237.638	4.5
238.437	4.5
239.236	6.5
240.035	5.5
240.833	3.5
241.632	6.5
242.43	6.5
243.229	4.5
244.027	5.5
244.826	5.5
245.624	6.5
246.422	5.5
247.22	3.5
248.018	6.5
248.816	7.5
249.614	7.5
250.412	5.5
251.21	7.5
252.007	9.5
252.805	7.5
253.602	10.5
254.4	5.5
255.197	7.5
255.994	10.5
256.791	9.5
257.589	9.5
258.386	7.5
259.183	9.5
259.979	8.5
260.776	9.5
261.573	12.5
262.37	10.5
263.166	13.5
263.963	9.5
264.759	12.5
265.556	12.5
266.352	11.5
267.148	10.5
267.944	11.5
268.74	11.5
269.536	14.5
270.332	14.5
271.128	13.5
271.924	15.5
272.719	12.5
273.515	14.5
274.311	17.5
275.106	17.5
275.901	16.5
276.697	21.5
277.492	14.5
278.287	18.5
279.082	15.5
279.877	17.5
280.672	20.5
281.467	14.5
282.262	18.5
283.056	18.5
283.851	19.5
284.646	17.5
285.44	18.5
286.234	17.5
287.029	15.5
287.823	20.5
288.617	20.5
289.411	16.5
290.205	20.5
290.999	20.5
291.793	18.5
292.587	15.5
293.381	16.5
294.174	15.5
294.968	18.5
295.761	16.5
296.555	17.5
297.348	18.5
298.141	17.5
298.935	18.5
299.728	13.5
300.521	14.5
301.314	11.5
302.107	13.5
302.899	14.5
303.692	12.5
304.485	17.5
305.277	12.5
306.07	15.5
306.862	14.5
307.655	13.5
308.447	10.5
309.239	13.5
310.031	12.5
310.823	10.5
311.615	10.5
312.407	12.5
313.199	7.5
313.991	9.5
314.783	8.5
315.574	8.5
316.366	10.5
317.157	6.5
317.949	9.5
318.74	8.5
319.531	11.5
320.322	8.5
321.113	11.5
321.904	8.5
322.695	6.5
323.486	6.5
324.277	9.5
325.068	6.5
325.858	8.5
326.649	6.5
327.439	6.5
328.23	5.5
329.02	7.5
329.81	8.5
330.6	8.5
331.391	9.5
332.181	6.5
332.971	6.5
333.76	7.5
334.55	10.5
335.34	6.5
336.13	7.5
336.919	8.5
337.709	6.5
338.498	7.5
339.287	5.5
340.077	9.5
340.866	7.5
341.655	7.5
342.444	4.5
343.233	6.5
344.022	6.5
344.811	6.5
345.6	5.5
346.388	4.5
347.177	5.5
347.965	6.5
348.754	5.5
349.542	4.5
350.33	7.5
351.119	7.5
351.907	6.5
352.695	6.5
353.483	8.5
354.271	6.5
355.059	7.5
355.846	6.5
356.634	7.5
357.422	4.5
358.209	3.5
358.997	7.5
359.784	8.5
360.571	8.5
361.359	5.5
362.146	4.5
362.933	7.5
363.72	7.5
364.507	7.5
365.294	7.5
366.081	5.5
366.867	6.5
367.654	6.5
368.44	4.5
369.227	5.5
370.013	6.5
370.8	5.5
371.586	7.5
372.372	5.5
373.158	5.5
373.944	7.5
374.73	4.5
375.516	5.5
376.302	5.5
377.088	6.5
377.873	5.5
378.659	2.5
379.445	6.5
380.23	5.5
381.015	6.5
381.801	2.5
382.586	7.5
383.371	6.5
384.156	5.5
384.941	6.5
385.726	6.5
386.511	7.5
387.296	3.5
388.08	6.5
388.865	6.5
389.649	6.5
390.434	7.5
391.218	7.5
392.003	5.5
392.787	5.5
393.571	5.5
394.355	5.5
395.139	8.5
395.923	7.5
396.707	4.5
397.491	5.5
398.274	6.5
399.058	5.5
399.842	7.5
400.625	7.5
401.408	6.5
402.192	7.5
402.975	6.5
403.758	7.5
404.541	5.5
405.324	8.5
406.107	7.5
406.89	8.5
407.673	9.5
408.456	8.5
409.238	10.5
410.021	6.5
410.803	9.5
411.586	9.5
412.368	8.5
413.151	8.5
413.933	9.5
414.715	9.5
415.497	9.5
416.279	9.5
417.061	10.5
417.843	9.5
418.624	9.5
419.406	11.5
420.188	9.5
420.969	11.5
421.751	11.5
422.532	8.5
423.313	12.5
424.095	12.5
424.876	11.5
425.657	13.5
426.438	10.5
427.219	10.5
428	14.5
428.78	13.5
429.561	13.5
430.342	15.5
431.122	15.5
431.903	17.5
432.683	12.5
433.464	19.5
434.244	16.5
435.024	16.5
435.804	18.5
436.584	18.5
437.364	21.5
438.144	18.5
438.924	22.5
439.704	20.5
440.483	23.5
441.263	24.5
442.042	28.5
442.822	25.5
443.601	28.5
444.38	33.5
445.16	34.5
445.939	36.5
446.718	42.5
447.497	40.5
448.276	44.5
449.054	47.5
449.833	52.5
450.612	52.5
451.391	59.5
452.169	64.5
452.948	74.5
453.726	78.5
454.504	88.5
455.282	97.5
456.061	106.5
456.839	121.5
457.617	134.5
458.395	145.5
459.172	165.5
459.95	180.5
460.728	203.5
461.506	224.5
462.283	243.5
463.061	280.5
463.838	309.5
464.615	346.5
465.393	385.5
466.17	436.5
466.947	481.5
467.724	527.5
468.501	584.5
469.278	653.5
470.055	715.5
470.831	801.5
471.608	899.5
472.385	989.5
473.161	1092.5
473.938	1202.5
474.714	1329.5
475.49	1449.5
476.266	1612.5
477.043	1756.5
477.819	1946.5
478.595	2127.5
479.371	2359.5
480.146	2576.5
480.922	2840.5
481.698	3104.5
482.473	3421.5
483.249	3716.5
484.024	4115.5
484.8	4494.5
485.575	4928.5
486.35	5392.5
487.126	5860.5
487.901	6417.5
488.676	7007.5
489.451	7642.5
490.225	8317.5
491	9054.5
491.775	9893.5
492.55	10701.5
493.324	11594.5
494.099	12498.5
494.873	13408.5
495.647	14420.5
496.422	15493.5
497.196	16604.5
497.97	17703.5
498.744	18788.5
499.518	19884.5
500.292	20981.5
501.066	22014.5
501.839	22990.5
502.613	23858.5
503.387	24689.5
504.16	25369.5
504.934	25817.5
505.707	26125.5
506.48	26251.5
507.253	26302.5
508.027	26278.5
508.8	26055.5
509.573	25758.5
510.346	25301.5
511.118	24663.5
511.891	23977.5
512.664	23348.5
513.437	22566.5
514.209	21581.5
514.982	20775.5
515.754	19973.5
516.526	19087.5
517.298	18368.5
518.071	17568.5
518.843	16822.5
519.615	16214.5
520.387	15603.5
521.159	14955.5
521.93	14335.5
522.702	13810.5
523.474	13245.5
524.245	12674.5
525.017	12166.5
525.788	11691.5
526.56	11171.5
527.331	10619.5
528.102	10197.5
528.873	9746.5
529.644	9227.5
530.415	8859.5
531.186	8419.5
531.957	7981.5
532.728	7615.5
533.498	7231.5
534.269	6805.5
535.039	6436.5
535.81	6098.5
536.58	5750.5
537.351	5423.5
538.121	5123.5
538.891	4870.5
539.661	4586.5
540.431	4306.5
541.201	4098.5
541.971	3876.5
542.741	3689.5
543.51	3502.5
544.28	3328.5
545.05	3170.5
545.819	3003.5
546.588	2852.5
547.358	2723.5
548.127	2595.5
548.896	2458.5
549.665	2347.5
550.434	2220.5
551.203	2109.5
551.972	1985.5
552.741	1871.5
553.51	1783.5
554.278	1692.5
555.047	1591.5
555.815	1474.5
556.584	1422.5
557.352	1320.5
558.121	1270.5
558.889	1186.5
559.657	1121.5
560.425	1069.5
561.193	1005.5
561.961	948.5
562.729	888.5
563.496	855.5
564.264	799.5
565.032	762.5
565.799	713.5
566.567	679.5
567.334	649.5
568.101	608.5
568.869	571.5
569.636	539.5
570.403	510.5
571.17	467.5
571.937	438.5
572.704	425.5
573.471	400.5
574.237	380.5
575.004	361.5
575.771	340.5
576.537	313.5
577.303	296.5
578.07	279.5
578.836	259.5
579.602	255.5
580.368	235.5
581.134	223.5
581.9	209.5
582.666	204.5
583.432	190.5
584.198	178.5
584.964	167.5
585.729	165.5
586.495	155.5
587.26	143.5
588.025	140.5
588.791	130.5
589.556	129.5
590.321	124.5
591.086	108.5
591.851	108.5
592.616	102.5
593.381	94.5
594.146	90.5
594.911	91.5
595.675	85.5
596.44	81.5
597.204	76.5
597.969	70.5
598.733	68.5
599.497	66.5
600.261	65.5
601.025	60.5
601.79	54.5
602.553	56.5
603.317	51.5
604.081	52.5
604.845	50.5
605.609	44.5
606.372	43.5
607.136	40.5
607.899	44.5
608.662	42.5
609.426	36.5
610.189	34.5
610.952	32.5
611.715	34.5
612.478	35.5
613.241	30.5
614.004	27.5
614.767	29.5
615.529	29.5
616.292	26.5
617.055	24.5
617.817	24.5
618.579	26.5
619.342	23.5
620.104	21.5
620.866	22.5
621.628	21.5
622.39	19.5
623.152	21.5
623.914	19.5
624.676	17.5
625.438	17.5
626.199	17.5
626.961	17.5
627.722	16.5
628.484	14.5
629.245	14.5
630.006	14.5
630.768	14.5
631.529	16.5
632.29	13.5
633.051	15.5
633.812	10.5
634.573	10.5
635.333	13.5
636.094	13.5
636.855	12.5
637.615	10.5
638.376	13.5
639.136	10.5
639.896	12.5
640.657	11.5
641.417	8.5
642.177	8.5
642.937	11.5
643.697	10.5
644.457	9.5
645.216	9.5
645.976	7.5
646.736	10.5
647.495	8.5
648.255	7.5
649.014	8.5
649.774	9.5
650.533	7.5
651.292	8.5
652.051	9.5
652.81	8.5
653.569	8.5
654.328	7.5
655.087	8.5
655.846	6.5
656.604	6.5
657.363	3.5
658.121	7.5
658.88	5.5
659.638	5.5
660.397	7.5
661.155	4.5
661.913	10.5
662.671	6.5
663.429	5.5
664.187	5.5
664.945	4.5
665.703	6.5
666.46	2.5
667.218	4.5
667.976	5.5
668.733	5.5
669.49	1.5
670.248	6.5
671.005	6.5
671.762	2.5
672.519	5.5
673.276	5.5
674.033	5.5
674.79	5.5
675.547	4.5
676.304	5.5
677.06	4.5
677.817	5.5
678.574	4.5
679.33	3.5
680.086	2.5
680.843	2.5
681.599	7.5
682.355	5.5
683.111	3.5
683.867	4.5
684.623	6.5
685.379	4.5
686.135	5.5
686.89	5.5
687.646	3.5
688.402	3.5
689.157	2.5
689.912	2.5
690.668	6.5
691.423	2.5
692.178	5.5
692.933	4.5
693.688	2.5
694.443	4.5
695.198	2.5
695.953	2.5
696.708	5.5
697.462	2.5
698.217	5.5
698.972	3.5
699.726	6.5
700.48	3.5
701.235	3.5
701.989	4.5
702.743	5.5
703.497	3.5
704.251	4.5
705.005	3.5
705.759	2.5
706.513	4.5
707.266	2.5
708.02	5.5
708.774	5.5
709.527	1.5
710.28	5.5
711.034	4.5
711.787	4.5
712.54	4.5
713.293	3.5
714.046	5.5
714.799	2.5
715.552	5.5
716.305	3.5
717.058	5.5
717.81	3.5
718.563	4.5
719.315	4.5
720.068	4.5
720.82	5.5
721.573	3.5
722.325	3.5
723.077	3.5
723.829	3.5
724.581	3.5
725.333	3.5
726.085	4.5
726.836	2.5
727.588	3.5
728.34	4.5
729.091	2.5
729.843	5.5
730.594	7.5
731.346	5.5
732.097	3.5
732.848	5.5
733.599	4.5
734.35	4.5
735.101	5.5
735.852	5.5
736.603	5.5
737.354	5.5
738.104	4.5
738.855	5.5
739.605	5.5
740.356	5.5
741.106	3.5
741.856	3.5
742.607	4.5
743.357	4.5
744.107	5.5
744.857	3.5
745.607	3.5
746.357	4.5
747.106	2.5
747.856	7.5
748.606	3.5
749.355	7.5
750.105	5.5
750.854	4.5
751.603	5.5
752.353	6.5
753.102	4.5
753.851	4.5
754.6	4.5
755.349	6.5
756.098	7.5
756.847	8.5
757.595	7.5
758.344	8.5
759.093	6.5
759.841	5.5
760.589	5.5
761.338	5.5
762.086	5.5
762.834	8.5
763.582	6.5
764.331	6.5
765.079	7.5
765.826	7.5
766.574	4.5
767.322	7.5
768.07	5.5
768.817	7.5
769.565	8.5
770.312	6.5
771.06	8.5
771.807	7.5
772.554	7.5
773.302	7.5
774.049	7.5
774.796	5.5
775.543	8.5
776.29	9.5
777.036	7.5
777.783	8.5
778.53	9.5
779.276	12.5
780.023	8.5
780.769	8.5
781.516	7.5
782.262	7.5
783.008	10.5
783.754	9.5
784.5	10.5
785.246	6.5
785.992	10.5
786.738	9.5
787.484	8.5
788.23	10.5
788.975	9.5
789.721	7.5
790.466	8.5
791.212	9.5
791.957	11.5
792.702	8.5
793.447	7.5
794.193	6.5
794.938	7.5
795.683	8.5
796.427	9.5
797.172	6.5
797.917	9.5
798.662	7.5
799.406	9.5
800.151	8.5
800.895	9.5
801.64	7.5
802.384	6.5
803.128	8.5
803.872	8.5
804.616	5.5
805.36	7.5
806.104	6.5
806.848	7.5
807.592	5.5
808.336	4.5
809.079	8.5
809.823	8.5
810.566	3.5
811.31	7.5
812.053	5.5
812.796	5.5
813.539	4.5
814.283	5.5
815.026	6.5
815.769	5.5
816.511	7.5
817.254	6.5
817.997	5.5
818.74	2.5
819.482	5.5
820.225	6.5
820.967	4.5
821.71	7.5
822.452	5.5
823.194	4.5
823.936	4.5
824.678	3.5
825.42	5.5
826.162	3.5
826.904	6.5
827.646	3.5
828.388	5.5
829.129	4.5
829.871	4.5
830.612	2.5
831.354	5.5
832.095	2.5
832.836	3.5
833.577	3.5
834.319	5.5
835.06	4.5
835.801	3.5
836.542	2.5
837.282	4.5
838.023	6.5
838.764	2.5
839.504	4.5
840.245	5.5
840.985	4.5
841.726	4.5
842.466	4.5
843.206	2.5
843.946	3.5
844.687	5.5
845.427	1.5
846.166	2.5
846.906	4.5
847.646	4.5
848.386	4.5
849.125	4.5
849.865	4.5
850.605	4.5
851.344	3.5
852.083	4.5
852.823	2.5
853.562	2.5
854.301	3.5
855.04	3.5
855.779	5.5
856.518	6.5
857.257	0.5
857.995	2.5
858.734	3.5
859.473	3.5
860.211	5.5
860.95	2.5
861.688	2.5
862.426	2.5
863.165	1.5
863.903	3.5
864.641	3.5
865.379	4.5
866.117	2.5
866.855	2.5
867.593	0.5
868.33	2.5
869.068	1.5
869.806	2.5
870.543	3.5
871.28	2.5
872.018	0.5
872.755	2.5
873.492	1.5
874.229	2.5
874.967	2.5
875.703	4.5
876.44	1.5
877.177	1.5
877.914	2.5
878.651	2.5
879.387	1.5
880.124	2.5
880.86	1.5
881.597	0.5
882.333	0.5
883.069	3.5
883.806	1.5
884.542	2.5
885.278	3.5
886.014	0.5
886.749	0.5
887.485	0.5
888.221	-0.5
888.957	1.5
889.692	1.5
890.428	1.5
891.163	-1.5
891.899	2.5
892.634	0.5
893.369	0.5
894.104	2.5
894.839	0.5
895.574	1.5
896.309	0.5
897.044	0.5
897.779	0.5
898.514	0.5
899.248	4.5
899.983	1.5
900.717	2.5
901.452	1.5
902.186	1.5
902.92	0.5
903.654	2.5
904.389	1.5
905.123	-1.5
905.857	1.5
906.59	-1.5
907.324	1.5
908.058	1.5
908.792	1.5
909.525	0.5
910.259	-0.5
910.992	2.5
911.726	1.5
912.459	0.5
913.192	-1.5
913.925	-0.5
914.658	-0.5
915.391	1.5
916.124	0.5
916.857	2.5
917.59	0.5
918.323	1.5
919.055	0.5
919.788	0.5
920.521	0.5
921.253	1.5
921.985	3.5
922.718	1.5
923.45	1.5
924.182	-0.5
924.914	0.5
925.646	-1.5
926.378	0.5
927.11	0.5
927.841	1.5
928.573	2.5
929.305	-1.5
930.036	1.5
930.768	-0.5
931.499	3.5
932.23	1.5
932.962	0.5
933.693	0.5
934.424	1.5
935.155	2.5
935.886	1.5
936.617	0.5
937.348	0.5
938.078	-0.5
938.809	2.5
939.54	1.5
940.27	4.5
941.001	1.5
941.731	-0.5
942.461	0.5
943.191	-0.5
943.922	0.5
944.652	1.5
945.382	-1.5
946.112	-0.5
946.841	0.5
947.571	2.5
948.301	-0.5
949.031	1.5
949.76	3.5
950.49	0.5
951.219	2.5
951.948	1.5
952.678	0.5
953.407	1.5
954.136	1.5
954.865	-2.5
955.594	0.5
956.323	0.5
957.052	-1.5
957.78	1.5
958.509	0.5
959.238	0.5
959.966	1.5
960.695	0.5
961.423	0.5
962.151	1.5
962.88	0.5
963.608	1.5
964.336	1.5
965.064	2.5
965.792	-1.5
966.52	1.5
967.247	-1.5
967.975	2.5
968.703	1.5
969.43	1.5
970.158	1.5
970.885	-0.5
971.613	1.5
972.34	0.5
973.067	1.5
973.794	-0.5
974.521	0.5
975.248	1.5
975.975	-1.5
976.702	1.5
977.429	1.5
978.156	2.5
978.882	0.5
979.609	2.5
980.335	0.5
981.062	-0.5
981.788	0.5
982.514	0.5
983.24	1.5
983.967	2.5
984.693	-1.5
985.419	1.5
986.144	1.5
986.87	0.5
987.596	0.5
988.322	1.5
989.047	0.5
989.773	0.5
990.498	2.5
991.224	0.5
991.949	3.5
992.674	2.5
993.399	2.5
994.124	1.5
994.849	1.5
995.574	2.5
996.299	2.5
997.024	2.5
997.749	0.5
998.473	0.5
999.198	0.5
999.922	0.5
1000.647	1.5
1001.371	3.5
1002.095	-1.5
1002.82	-0.5
1003.544	-3.5
1004.268	1.5
1004.992	0.5
1005.716	1.5
1006.439	3.5
1007.163	0.5
1007.887	1.5
1008.611	0.5
1009.334	-1.5
1010.058	2.5
1010.781	0.5
1011.504	0.5
1012.228	0.5
1012.951	2.5
1013.674	-0.5
1014.397	1.5
1015.12	-1.5
