节点500_285_QEPB04081__142__14-57-55-197.txt的数据

Date: Wed Nov 12 14:57:55 CST 2025
User: PC
Spectrometer: QEPB0408
触发模式: 0
积分时间 (秒): 1.000000E-2
Scans to average: 1
启用暗噪声校正: true
启用非线性校正: false
滑动平均宽度: 0
X轴模式: Wavelengths
Number of Pixels in Spectrum: 1044
>>>>>Begin Spectral Data<<<<<
220.843	2.5
221.644	1.5
222.444	0.5
223.244	2.5
224.045	2.5
224.845	2.5
225.645	1.5
226.445	2.5
227.245	2.5
228.045	3.5
228.845	3.5
229.645	4.5
230.444	4.5
231.244	4.5
232.043	0.5
232.843	4.5
233.642	2.5
234.442	3.5
235.241	3.5
236.04	2.5
236.839	4.5
237.638	4.5
238.437	4.5
239.236	3.5
240.035	3.5
240.833	5.5
241.632	4.5
242.43	7.5
243.229	6.5
244.027	4.5
244.826	6.5
245.624	5.5
246.422	4.5
247.22	4.5
248.018	4.5
248.816	4.5
249.614	4.5
250.412	2.5
251.21	5.5
252.007	5.5
252.805	5.5
253.602	8.5
254.4	7.5
255.197	6.5
255.994	9.5
256.791	7.5
257.589	8.5
258.386	9.5
259.183	9.5
259.979	11.5
260.776	10.5
261.573	11.5
262.37	11.5
263.166	13.5
263.963	13.5
264.759	10.5
265.556	11.5
266.352	12.5
267.148	12.5
267.944	16.5
268.74	13.5
269.536	16.5
270.332	12.5
271.128	14.5
271.924	18.5
272.719	16.5
273.515	20.5
274.311	16.5
275.106	16.5
275.901	19.5
276.697	16.5
277.492	17.5
278.287	17.5
279.082	19.5
279.877	17.5
280.672	18.5
281.467	16.5
282.262	21.5
283.056	18.5
283.851	20.5
284.646	18.5
285.44	20.5
286.234	18.5
287.029	19.5
287.823	22.5
288.617	21.5
289.411	19.5
290.205	17.5
290.999	16.5
291.793	20.5
292.587	19.5
293.381	16.5
294.174	16.5
294.968	16.5
295.761	17.5
296.555	17.5
297.348	15.5
298.141	16.5
298.935	15.5
299.728	16.5
300.521	11.5
301.314	13.5
302.107	13.5
302.899	14.5
303.692	12.5
304.485	13.5
305.277	16.5
306.07	13.5
306.862	12.5
307.655	12.5
308.447	11.5
309.239	10.5
310.031	10.5
310.823	12.5
311.615	10.5
312.407	11.5
313.199	12.5
313.991	8.5
314.783	8.5
315.574	9.5
316.366	9.5
317.157	8.5
317.949	6.5
318.74	9.5
319.531	9.5
320.322	6.5
321.113	8.5
321.904	7.5
322.695	8.5
323.486	6.5
324.277	7.5
325.068	8.5
325.858	6.5
326.649	10.5
327.439	5.5
328.23	6.5
329.02	8.5
329.81	8.5
330.6	8.5
331.391	5.5
332.181	9.5
332.971	6.5
333.76	7.5
334.55	6.5
335.34	6.5
336.13	3.5
336.919	4.5
337.709	8.5
338.498	6.5
339.287	7.5
340.077	8.5
340.866	5.5
341.655	6.5
342.444	5.5
343.233	6.5
344.022	4.5
344.811	7.5
345.6	7.5
346.388	7.5
347.177	6.5
347.965	5.5
348.754	7.5
349.542	5.5
350.33	4.5
351.119	5.5
351.907	3.5
352.695	7.5
353.483	7.5
354.271	7.5
355.059	6.5
355.846	4.5
356.634	6.5
357.422	4.5
358.209	6.5
358.997	6.5
359.784	5.5
360.571	7.5
361.359	4.5
362.146	6.5
362.933	4.5
363.72	6.5
364.507	6.5
365.294	3.5
366.081	2.5
366.867	6.5
367.654	6.5
368.44	2.5
369.227	6.5
370.013	3.5
370.8	2.5
371.586	6.5
372.372	3.5
373.158	6.5
373.944	3.5
374.73	5.5
375.516	5.5
376.302	5.5
377.088	6.5
377.873	1.5
378.659	4.5
379.445	4.5
380.23	3.5
381.015	6.5
381.801	7.5
382.586	4.5
383.371	6.5
384.156	7.5
384.941	6.5
385.726	4.5
386.511	6.5
387.296	5.5
388.08	6.5
388.865	6.5
389.649	5.5
390.434	5.5
391.218	5.5
392.003	6.5
392.787	9.5
393.571	3.5
394.355	3.5
395.139	4.5
395.923	8.5
396.707	6.5
397.491	7.5
398.274	6.5
399.058	4.5
399.842	7.5
400.625	4.5
401.408	7.5
402.192	8.5
402.975	9.5
403.758	9.5
404.541	6.5
405.324	8.5
406.107	8.5
406.89	8.5
407.673	7.5
408.456	8.5
409.238	8.5
410.021	8.5
410.803	9.5
411.586	6.5
412.368	7.5
413.151	11.5
413.933	8.5
414.715	8.5
415.497	7.5
416.279	9.5
417.061	7.5
417.843	9.5
418.624	11.5
419.406	9.5
420.188	13.5
420.969	9.5
421.751	10.5
422.532	10.5
423.313	10.5
424.095	12.5
424.876	12.5
425.657	13.5
426.438	11.5
427.219	14.5
428	12.5
428.78	11.5
429.561	13.5
430.342	13.5
431.122	13.5
431.903	14.5
432.683	13.5
433.464	16.5
434.244	16.5
435.024	17.5
435.804	19.5
436.584	19.5
437.364	19.5
438.144	18.5
438.924	22.5
439.704	23.5
440.483	22.5
441.263	24.5
442.042	25.5
442.822	28.5
443.601	29.5
444.38	29.5
445.16	33.5
445.939	33.5
446.718	34.5
447.497	37.5
448.276	41.5
449.054	41.5
449.833	47.5
450.612	52.5
451.391	54.5
452.169	59.5
452.948	63.5
453.726	71.5
454.504	76.5
455.282	88.5
456.061	94.5
456.839	99.5
457.617	112.5
458.395	123.5
459.172	139.5
459.95	163.5
460.728	178.5
461.506	194.5
462.283	220.5
463.061	242.5
463.838	271.5
464.615	309.5
465.393	340.5
466.17	372.5
466.947	434.5
467.724	480.5
468.501	527.5
469.278	598.5
470.055	660.5
470.831	744.5
471.608	835.5
472.385	925.5
473.161	1026.5
473.938	1138.5
474.714	1274.5
475.49	1403.5
476.266	1542.5
477.043	1724.5
477.819	1910.5
478.595	2111.5
479.371	2357.5
480.146	2583.5
480.922	2860.5
481.698	3179.5
482.473	3509.5
483.249	3885.5
484.024	4290.5
484.8	4737.5
485.575	5215.5
486.35	5752.5
487.126	6346.5
487.901	6948.5
488.676	7659.5
489.451	8403.5
490.225	9256.5
491	10095.5
491.775	11074.5
492.55	12098.5
493.324	13108.5
494.099	14142.5
494.873	15293.5
495.647	16526.5
496.422	17765.5
497.196	19000.5
497.97	20317.5
498.744	21594.5
499.518	22767.5
500.292	23902.5
501.066	25021.5
501.839	25960.5
502.613	26815.5
503.387	27563.5
504.16	28161.5
504.934	28393.5
505.707	28411.5
506.48	28410.5
507.253	28214.5
508.027	27835.5
508.8	27382.5
509.573	26794.5
510.346	25963.5
511.118	25155.5
511.891	24348.5
512.664	23322.5
513.437	22362.5
514.209	21423.5
514.982	20478.5
515.754	19509.5
516.526	18682.5
517.298	17801.5
518.071	17020.5
518.843	16379.5
519.615	15731.5
520.387	15105.5
521.159	14500.5
521.93	13955.5
522.702	13425.5
523.474	12880.5
524.245	12278.5
525.017	11750.5
525.788	11308.5
526.56	10772.5
527.331	10287.5
528.102	9786.5
528.873	9338.5
529.644	8859.5
530.415	8415.5
531.186	7949.5
531.957	7536.5
532.728	7204.5
533.498	6761.5
534.269	6388.5
535.039	6013.5
535.81	5691.5
536.58	5381.5
537.351	5045.5
538.121	4787.5
538.891	4506.5
539.661	4262.5
540.431	4018.5
541.201	3798.5
541.971	3617.5
542.741	3428.5
543.51	3256.5
544.28	3085.5
545.05	2960.5
545.819	2803.5
546.588	2653.5
547.358	2523.5
548.127	2404.5
548.896	2275.5
549.665	2164.5
550.434	2054.5
551.203	1953.5
551.972	1831.5
552.741	1719.5
553.51	1619.5
554.278	1547.5
555.047	1456.5
555.815	1371.5
556.584	1295.5
557.352	1216.5
558.121	1161.5
558.889	1085.5
559.657	1027.5
560.425	972.5
561.193	913.5
561.961	853.5
562.729	808.5
563.496	758.5
564.264	734.5
565.032	688.5
565.799	653.5
566.567	623.5
567.334	589.5
568.101	547.5
568.869	519.5
569.636	488.5
570.403	457.5
571.17	430.5
571.937	416.5
572.704	387.5
573.471	360.5
574.237	335.5
575.004	325.5
575.771	312.5
576.537	288.5
577.303	269.5
578.07	253.5
578.836	240.5
579.602	228.5
580.368	212.5
581.134	204.5
581.9	193.5
582.666	179.5
583.432	173.5
584.198	161.5
584.964	153.5
585.729	147.5
586.495	140.5
587.26	135.5
588.025	131.5
588.791	115.5
589.556	113.5
590.321	112.5
591.086	101.5
591.851	95.5
592.616	95.5
593.381	89.5
594.146	89.5
594.911	78.5
595.675	75.5
596.44	74.5
597.204	73.5
597.969	64.5
598.733	65.5
599.497	58.5
600.261	58.5
601.025	58.5
601.79	50.5
602.553	50.5
603.317	46.5
604.081	47.5
604.845	44.5
605.609	44.5
606.372	42.5
607.136	37.5
607.899	37.5
608.662	33.5
609.426	33.5
610.189	32.5
610.952	32.5
611.715	31.5
612.478	29.5
613.241	28.5
614.004	27.5
614.767	25.5
615.529	25.5
616.292	24.5
617.055	22.5
617.817	22.5
618.579	24.5
619.342	18.5
620.104	21.5
620.866	22.5
621.628	20.5
622.39	17.5
623.152	17.5
623.914	16.5
624.676	16.5
625.438	15.5
626.199	16.5
626.961	13.5
627.722	16.5
628.484	14.5
629.245	15.5
630.006	12.5
630.768	11.5
631.529	13.5
632.29	14.5
633.051	13.5
633.812	12.5
634.573	9.5
635.333	11.5
636.094	10.5
636.855	9.5
637.615	9.5
638.376	12.5
639.136	9.5
639.896	8.5
640.657	8.5
641.417	9.5
642.177	10.5
642.937	8.5
643.697	9.5
644.457	8.5
645.216	9.5
645.976	8.5
646.736	7.5
647.495	6.5
648.255	7.5
649.014	7.5
649.774	6.5
650.533	7.5
651.292	5.5
652.051	6.5
652.81	5.5
653.569	6.5
654.328	6.5
655.087	8.5
655.846	6.5
656.604	4.5
657.363	6.5
658.121	7.5
658.88	5.5
659.638	5.5
660.397	5.5
661.155	6.5
661.913	5.5
662.671	5.5
663.429	5.5
664.187	4.5
664.945	6.5
665.703	6.5
666.46	4.5
667.218	5.5
667.976	5.5
668.733	4.5
669.49	5.5
670.248	4.5
671.005	4.5
671.762	5.5
672.519	2.5
673.276	7.5
674.033	4.5
674.79	8.5
675.547	4.5
676.304	3.5
677.06	5.5
677.817	2.5
678.574	3.5
679.33	5.5
680.086	2.5
680.843	3.5
681.599	3.5
682.355	5.5
683.111	3.5
683.867	5.5
684.623	5.5
685.379	4.5
686.135	4.5
686.89	4.5
687.646	3.5
688.402	2.5
689.157	4.5
689.912	3.5
690.668	3.5
691.423	5.5
692.178	4.5
692.933	3.5
693.688	2.5
694.443	3.5
695.198	3.5
695.953	2.5
696.708	4.5
697.462	5.5
698.217	5.5
698.972	3.5
699.726	4.5
700.48	4.5
701.235	3.5
701.989	4.5
702.743	4.5
703.497	1.5
704.251	4.5
705.005	4.5
705.759	4.5
706.513	5.5
707.266	4.5
708.02	3.5
708.774	1.5
709.527	6.5
710.28	2.5
711.034	5.5
711.787	3.5
712.54	3.5
713.293	3.5
714.046	3.5
714.799	3.5
715.552	1.5
716.305	3.5
717.058	2.5
717.81	4.5
718.563	3.5
719.315	1.5
720.068	5.5
720.82	4.5
721.573	4.5
722.325	4.5
723.077	3.5
723.829	5.5
724.581	4.5
725.333	3.5
726.085	3.5
726.836	5.5
727.588	4.5
728.34	1.5
729.091	3.5
729.843	4.5
730.594	4.5
731.346	5.5
732.097	4.5
732.848	5.5
733.599	3.5
734.35	5.5
735.101	4.5
735.852	2.5
736.603	4.5
737.354	4.5
738.104	4.5
738.855	3.5
739.605	4.5
740.356	4.5
741.106	2.5
741.856	3.5
742.607	3.5
743.357	3.5
744.107	5.5
744.857	6.5
745.607	4.5
746.357	4.5
747.106	5.5
747.856	4.5
748.606	5.5
749.355	6.5
750.105	4.5
750.854	4.5
751.603	6.5
752.353	4.5
753.102	5.5
753.851	6.5
754.6	5.5
755.349	5.5
756.098	6.5
756.847	4.5
757.595	7.5
758.344	7.5
759.093	5.5
759.841	4.5
760.589	6.5
761.338	5.5
762.086	8.5
762.834	6.5
763.582	6.5
764.331	8.5
765.079	7.5
765.826	6.5
766.574	7.5
767.322	8.5
768.07	7.5
768.817	8.5
769.565	3.5
770.312	10.5
771.06	9.5
771.807	7.5
772.554	6.5
773.302	8.5
774.049	11.5
774.796	8.5
775.543	8.5
776.29	7.5
777.036	4.5
777.783	11.5
778.53	9.5
779.276	7.5
780.023	10.5
780.769	8.5
781.516	9.5
782.262	8.5
783.008	8.5
783.754	7.5
784.5	9.5
785.246	9.5
785.992	9.5
786.738	9.5
787.484	9.5
788.23	9.5
788.975	9.5
789.721	8.5
790.466	8.5
791.212	11.5
791.957	8.5
792.702	11.5
793.447	8.5
794.193	7.5
794.938	7.5
795.683	6.5
796.427	8.5
797.172	7.5
797.917	9.5
798.662	10.5
799.406	7.5
800.151	5.5
800.895	8.5
801.64	6.5
802.384	7.5
803.128	4.5
803.872	6.5
804.616	8.5
805.36	5.5
806.104	9.5
806.848	7.5
807.592	8.5
808.336	5.5
809.079	6.5
809.823	5.5
810.566	3.5
811.31	6.5
812.053	2.5
812.796	8.5
813.539	6.5
814.283	6.5
815.026	5.5
815.769	6.5
816.511	6.5
817.254	3.5
817.997	5.5
818.74	4.5
819.482	4.5
820.225	4.5
820.967	5.5
821.71	4.5
822.452	3.5
823.194	3.5
823.936	2.5
824.678	6.5
825.42	3.5
826.162	6.5
826.904	2.5
827.646	4.5
828.388	4.5
829.129	5.5
829.871	1.5
830.612	2.5
831.354	5.5
832.095	1.5
832.836	3.5
833.577	5.5
834.319	4.5
835.06	4.5
835.801	5.5
836.542	4.5
837.282	3.5
838.023	3.5
838.764	3.5
839.504	2.5
840.245	3.5
840.985	4.5
841.726	6.5
842.466	5.5
843.206	2.5
843.946	3.5
844.687	3.5
845.427	3.5
846.166	3.5
846.906	1.5
847.646	5.5
848.386	3.5
849.125	3.5
849.865	1.5
850.605	7.5
851.344	3.5
852.083	6.5
852.823	0.5
853.562	2.5
854.301	1.5
855.04	2.5
855.779	3.5
856.518	3.5
857.257	1.5
857.995	2.5
858.734	1.5
859.473	2.5
860.211	2.5
860.95	2.5
861.688	3.5
862.426	4.5
863.165	1.5
863.903	1.5
864.641	4.5
865.379	1.5
866.117	2.5
866.855	0.5
867.593	1.5
868.33	0.5
869.068	1.5
869.806	0.5
870.543	0.5
871.28	1.5
872.018	2.5
872.755	2.5
873.492	2.5
874.229	1.5
874.967	2.5
875.703	2.5
876.44	1.5
877.177	2.5
877.914	0.5
878.651	1.5
879.387	0.5
880.124	2.5
880.86	-0.5
881.597	1.5
882.333	1.5
883.069	2.5
883.806	2.5
884.542	0.5
885.278	1.5
886.014	2.5
886.749	1.5
887.485	0.5
888.221	0.5
888.957	1.5
889.692	0.5
890.428	-0.5
891.163	0.5
891.899	0.5
892.634	1.5
893.369	1.5
894.104	1.5
894.839	0.5
895.574	-0.5
896.309	0.5
897.044	0.5
897.779	-0.5
898.514	1.5
899.248	-1.5
899.983	-0.5
900.717	-2.5
901.452	0.5
902.186	1.5
902.92	-0.5
903.654	1.5
904.389	1.5
905.123	0.5
905.857	0.5
906.59	-0.5
907.324	2.5
908.058	0.5
908.792	1.5
909.525	0.5
910.259	0.5
910.992	0.5
911.726	0.5
912.459	2.5
913.192	0.5
913.925	3.5
914.658	0.5
915.391	-0.5
916.124	0.5
916.857	0.5
917.59	1.5
918.323	0.5
919.055	1.5
919.788	-0.5
920.521	2.5
921.253	1.5
921.985	-0.5
922.718	1.5
923.45	1.5
924.182	1.5
924.914	0.5
925.646	1.5
926.378	0.5
927.11	1.5
927.841	0.5
928.573	-0.5
929.305	1.5
930.036	-0.5
930.768	1.5
931.499	0.5
932.23	-0.5
932.962	1.5
933.693	-0.5
934.424	-0.5
935.155	-0.5
935.886	-0.5
936.617	-0.5
937.348	-0.5
938.078	1.5
938.809	-1.5
939.54	-0.5
940.27	1.5
941.001	1.5
941.731	-1.5
942.461	-0.5
943.191	-0.5
943.922	0.5
944.652	-0.5
945.382	0.5
946.112	0.5
946.841	-0.5
947.571	-0.5
948.301	-2.5
949.031	0.5
949.76	-1.5
950.49	1.5
951.219	-0.5
951.948	2.5
952.678	1.5
953.407	-1.5
954.136	1.5
954.865	0.5
955.594	1.5
956.323	2.5
957.052	2.5
957.78	1.5
958.509	0.5
959.238	-1.5
959.966	-0.5
960.695	-0.5
961.423	-1.5
962.151	-1.5
962.88	1.5
963.608	-0.5
964.336	-1.5
965.064	-0.5
965.792	1.5
966.52	1.5
967.247	0.5
967.975	-0.5
968.703	-0.5
969.43	0.5
970.158	-0.5
970.885	0.5
971.613	1.5
972.34	-0.5
973.067	1.5
973.794	-0.5
974.521	-0.5
975.248	1.5
975.975	-1.5
976.702	1.5
977.429	-0.5
978.156	0.5
978.882	0.5
979.609	0.5
980.335	-0.5
981.062	-2.5
981.788	0.5
982.514	-0.5
983.24	0.5
983.967	1.5
984.693	0.5
985.419	1.5
986.144	1.5
986.87	-0.5
987.596	-0.5
988.322	0.5
989.047	1.5
989.773	0.5
990.498	-1.5
991.224	-0.5
991.949	0.5
992.674	0.5
993.399	-4.5
994.124	1.5
994.849	-1.5
995.574	0.5
996.299	-0.5
997.024	-0.5
997.749	-0.5
998.473	1.5
999.198	-0.5
999.922	0.5
1000.647	0.5
1001.371	2.5
1002.095	1.5
1002.82	-0.5
1003.544	-2.5
1004.268	1.5
1004.992	0.5
1005.716	2.5
1006.439	0.5
1007.163	1.5
1007.887	-0.5
1008.611	-0.5
1009.334	0.5
1010.058	-0.5
1010.781	-1.5
1011.504	-1.5
1012.228	2.5
1012.951	-1.5
1013.674	1.5
1014.397	-1.5
1015.12	0.5
