节点500_285_QEPB04081__321__15-00-53-747.txt的数据

Date: Wed Nov 12 15:00:53 CST 2025
User: PC
Spectrometer: QEPB0408
触发模式: 0
积分时间 (秒): 1.000000E-2
Scans to average: 1
启用暗噪声校正: true
启用非线性校正: false
滑动平均宽度: 0
X轴模式: Wavelengths
Number of Pixels in Spectrum: 1044
>>>>>Begin Spectral Data<<<<<
220.843	3.88
221.644	2.88
222.444	1.88
223.244	1.88
224.045	2.88
224.845	1.88
225.645	1.88
226.445	2.88
227.245	1.88
228.045	3.88
228.845	2.88
229.645	3.88
230.444	4.88
231.244	1.88
232.043	2.88
232.843	1.88
233.642	3.88
234.442	1.88
235.241	2.88
236.04	2.88
236.839	3.88
237.638	2.88
238.437	3.88
239.236	3.88
240.035	4.88
240.833	4.88
241.632	5.88
242.43	1.88
243.229	5.88
244.027	5.88
244.826	4.88
245.624	6.88
246.422	5.88
247.22	6.88
248.018	3.88
248.816	6.88
249.614	4.88
250.412	5.88
251.21	6.88
252.007	4.88
252.805	7.88
253.602	7.88
254.4	7.88
255.197	7.88
255.994	9.88
256.791	10.88
257.589	11.88
258.386	9.88
259.183	7.88
259.979	9.88
260.776	10.88
261.573	9.88
262.37	11.88
263.166	11.88
263.963	9.88
264.759	10.88
265.556	11.88
266.352	10.88
267.148	11.88
267.944	11.88
268.74	13.88
269.536	13.88
270.332	14.88
271.128	13.88
271.924	16.88
272.719	15.88
273.515	15.88
274.311	16.88
275.106	14.88
275.901	18.88
276.697	17.88
277.492	18.88
278.287	19.88
279.082	16.88
279.877	14.88
280.672	18.88
281.467	17.88
282.262	15.88
283.056	18.88
283.851	19.88
284.646	20.88
285.44	20.88
286.234	20.88
287.029	16.88
287.823	19.88
288.617	17.88
289.411	19.88
290.205	16.88
290.999	19.88
291.793	15.88
292.587	17.88
293.381	16.88
294.174	16.88
294.968	17.88
295.761	13.88
296.555	15.88
297.348	15.88
298.141	16.88
298.935	13.88
299.728	15.88
300.521	14.88
301.314	13.88
302.107	13.88
302.899	12.88
303.692	14.88
304.485	13.88
305.277	13.88
306.07	13.88
306.862	12.88
307.655	12.88
308.447	10.88
309.239	12.88
310.031	8.88
310.823	9.88
311.615	11.88
312.407	8.88
313.199	8.88
313.991	9.88
314.783	8.88
315.574	9.88
316.366	6.88
317.157	5.88
317.949	8.88
318.74	8.88
319.531	7.88
320.322	5.88
321.113	6.88
321.904	8.88
322.695	6.88
323.486	4.88
324.277	5.88
325.068	6.88
325.858	5.88
326.649	6.88
327.439	6.88
328.23	6.88
329.02	8.88
329.81	6.88
330.6	7.88
331.391	6.88
332.181	7.88
332.971	5.88
333.76	6.88
334.55	5.88
335.34	4.88
336.13	6.88
336.919	6.88
337.709	7.88
338.498	7.88
339.287	6.88
340.077	6.88
340.866	5.88
341.655	8.88
342.444	6.88
343.233	5.88
344.022	6.88
344.811	4.88
345.6	6.88
346.388	5.88
347.177	4.88
347.965	3.88
348.754	7.88
349.542	6.88
350.33	6.88
351.119	6.88
351.907	4.88
352.695	6.88
353.483	5.88
354.271	4.88
355.059	7.88
355.846	6.88
356.634	6.88
357.422	3.88
358.209	6.88
358.997	5.88
359.784	7.88
360.571	6.88
361.359	4.88
362.146	7.88
362.933	7.88
363.72	5.88
364.507	5.88
365.294	5.88
366.081	5.88
366.867	2.88
367.654	4.88
368.44	4.88
369.227	4.88
370.013	6.88
370.8	4.88
371.586	6.88
372.372	4.88
373.158	5.88
373.944	7.88
374.73	2.88
375.516	4.88
376.302	2.88
377.088	5.88
377.873	5.88
378.659	4.88
379.445	6.88
380.23	3.88
381.015	3.88
381.801	4.88
382.586	6.88
383.371	4.88
384.156	5.88
384.941	3.88
385.726	4.88
386.511	6.88
387.296	7.88
388.08	2.88
388.865	5.88
389.649	5.88
390.434	6.88
391.218	3.88
392.003	5.88
392.787	6.88
393.571	5.88
394.355	6.88
395.139	7.88
395.923	6.88
396.707	4.88
397.491	4.88
398.274	8.88
399.058	6.88
399.842	7.88
400.625	5.88
401.408	8.88
402.192	6.88
402.975	7.88
403.758	6.88
404.541	5.88
405.324	5.88
406.107	6.88
406.89	7.88
407.673	10.88
408.456	6.88
409.238	9.88
410.021	5.88
410.803	6.88
411.586	6.88
412.368	11.88
413.151	8.88
413.933	10.88
414.715	8.88
415.497	10.88
416.279	9.88
417.061	8.88
417.843	9.88
418.624	8.88
419.406	7.88
420.188	9.88
420.969	9.88
421.751	11.88
422.532	11.88
423.313	10.88
424.095	10.88
424.876	11.88
425.657	10.88
426.438	11.88
427.219	13.88
428	15.88
428.78	9.88
429.561	14.88
430.342	13.88
431.122	14.88
431.903	16.88
432.683	17.88
433.464	16.88
434.244	12.88
435.024	20.88
435.804	16.88
436.584	18.88
437.364	20.88
438.144	22.88
438.924	21.88
439.704	21.88
440.483	24.88
441.263	23.88
442.042	22.88
442.822	26.88
443.601	31.88
444.38	28.88
445.16	29.88
445.939	36.88
446.718	36.88
447.497	38.88
448.276	44.88
449.054	44.88
449.833	46.88
450.612	50.88
451.391	57.88
452.169	60.88
452.948	68.88
453.726	73.88
454.504	80.88
455.282	93.88
456.061	93.88
456.839	107.88
457.617	121.88
458.395	136.88
459.172	146.88
459.95	163.88
460.728	185.88
461.506	208.88
462.283	232.88
463.061	252.88
463.838	281.88
464.615	323.88
465.393	353.88
466.17	404.88
466.947	445.88
467.724	490.88
468.501	550.88
469.278	609.88
470.055	690.88
470.831	760.88
471.608	851.88
472.385	941.88
473.161	1059.88
473.938	1155.88
474.714	1290.88
475.49	1428.88
476.266	1579.88
477.043	1754.88
477.819	1929.88
478.595	2134.88
479.371	2358.88
480.146	2571.88
480.922	2855.88
481.698	3144.88
482.473	3480.88
483.249	3836.88
484.024	4187.88
484.8	4651.88
485.575	5091.88
486.35	5583.88
487.126	6159.88
487.901	6754.88
488.676	7385.88
489.451	8111.88
490.225	8860.88
491	9649.88
491.775	10615.88
492.55	11513.88
493.324	12495.88
494.099	13467.88
494.873	14484.88
495.647	15637.88
496.422	16846.88
497.196	18059.88
497.97	19239.88
498.744	20417.88
499.518	21582.88
500.292	22680.88
501.066	23810.88
501.839	24793.88
502.613	25654.88
503.387	26424.88
504.16	27039.88
504.934	27405.88
505.707	27630.88
506.48	27646.88
507.253	27488.88
508.027	27143.88
508.8	26883.88
509.573	26459.88
510.346	25793.88
511.118	25020.88
511.891	24221.88
512.664	23364.88
513.437	22453.88
514.209	21561.88
514.982	20688.88
515.754	19746.88
516.526	18813.88
517.298	18046.88
518.071	17297.88
518.843	16556.88
519.615	15961.88
520.387	15342.88
521.159	14678.88
521.93	14161.88
522.702	13573.88
523.474	12983.88
524.245	12426.88
525.017	11927.88
525.788	11453.88
526.56	10931.88
527.331	10428.88
528.102	9986.88
528.873	9476.88
529.644	8997.88
530.415	8556.88
531.186	8148.88
531.957	7718.88
532.728	7334.88
533.498	6970.88
534.269	6521.88
535.039	6187.88
535.81	5857.88
536.58	5551.88
537.351	5209.88
538.121	4931.88
538.891	4662.88
539.661	4393.88
540.431	4167.88
541.201	3920.88
541.971	3727.88
542.741	3494.88
543.51	3357.88
544.28	3198.88
545.05	3018.88
545.819	2891.88
546.588	2753.88
547.358	2607.88
548.127	2467.88
548.896	2340.88
549.665	2232.88
550.434	2107.88
551.203	1984.88
551.972	1891.88
552.741	1781.88
553.51	1677.88
554.278	1595.88
555.047	1484.88
555.815	1417.88
556.584	1328.88
557.352	1267.88
558.121	1184.88
558.889	1131.88
559.657	1053.88
560.425	1007.88
561.193	937.88
561.961	893.88
562.729	837.88
563.496	808.88
564.264	756.88
565.032	719.88
565.799	672.88
566.567	629.88
567.334	606.88
568.101	564.88
568.869	537.88
569.636	500.88
570.403	477.88
571.17	457.88
571.937	426.88
572.704	405.88
573.471	384.88
574.237	362.88
575.004	337.88
575.771	318.88
576.537	301.88
577.303	285.88
578.07	269.88
578.836	248.88
579.602	232.88
580.368	220.88
581.134	211.88
581.9	199.88
582.666	189.88
583.432	177.88
584.198	170.88
584.964	161.88
585.729	153.88
586.495	144.88
587.26	138.88
588.025	127.88
588.791	123.88
589.556	115.88
590.321	108.88
591.086	105.88
591.851	100.88
592.616	93.88
593.381	89.88
594.146	83.88
594.911	82.88
595.675	77.88
596.44	75.88
597.204	72.88
597.969	66.88
598.733	64.88
599.497	60.88
600.261	55.88
601.025	58.88
601.79	53.88
602.553	51.88
603.317	49.88
604.081	46.88
604.845	48.88
605.609	42.88
606.372	39.88
607.136	40.88
607.899	37.88
608.662	37.88
609.426	36.88
610.189	33.88
610.952	32.88
611.715	32.88
612.478	29.88
613.241	27.88
614.004	30.88
614.767	24.88
615.529	25.88
616.292	22.88
617.055	24.88
617.817	24.88
618.579	23.88
619.342	22.88
620.104	22.88
620.866	18.88
621.628	18.88
622.39	20.88
623.152	18.88
623.914	15.88
624.676	17.88
625.438	17.88
626.199	17.88
626.961	19.88
627.722	13.88
628.484	14.88
629.245	13.88
630.006	13.88
630.768	12.88
631.529	13.88
632.29	13.88
633.051	13.88
633.812	14.88
634.573	13.88
635.333	10.88
636.094	10.88
636.855	9.88
637.615	11.88
638.376	7.88
639.136	11.88
639.896	7.88
640.657	9.88
641.417	7.88
642.177	7.88
642.937	9.88
643.697	7.88
644.457	8.88
645.216	7.88
645.976	6.88
646.736	8.88
647.495	6.88
648.255	5.88
649.014	7.88
649.774	6.88
650.533	9.88
651.292	6.88
652.051	6.88
652.81	6.88
653.569	7.88
654.328	6.88
655.087	5.88
655.846	5.88
656.604	6.88
657.363	7.88
658.121	3.88
658.88	6.88
659.638	4.88
660.397	4.88
661.155	4.88
661.913	6.88
662.671	4.88
663.429	6.88
664.187	5.88
664.945	4.88
665.703	4.88
666.46	4.88
667.218	4.88
667.976	4.88
668.733	5.88
669.49	6.88
670.248	4.88
671.005	4.88
671.762	4.88
672.519	4.88
673.276	6.88
674.033	5.88
674.79	2.88
675.547	2.88
676.304	2.88
677.06	4.88
677.817	3.88
678.574	2.88
679.33	4.88
680.086	2.88
680.843	4.88
681.599	2.88
682.355	5.88
683.111	4.88
683.867	5.88
684.623	1.88
685.379	3.88
686.135	3.88
686.89	4.88
687.646	2.88
688.402	5.88
689.157	4.88
689.912	2.88
690.668	3.88
691.423	3.88
692.178	1.88
692.933	3.88
693.688	1.88
694.443	3.88
695.198	3.88
695.953	2.88
696.708	5.88
697.462	2.88
698.217	4.88
698.972	5.88
699.726	4.88
700.48	3.88
701.235	0.88
701.989	1.88
702.743	4.88
703.497	3.88
704.251	2.88
705.005	1.88
705.759	4.88
706.513	3.88
707.266	4.88
708.02	6.88
708.774	4.88
709.527	4.88
710.28	3.88
711.034	4.88
711.787	1.88
712.54	2.88
713.293	2.88
714.046	4.88
714.799	4.88
715.552	4.88
716.305	2.88
717.058	1.88
717.81	3.88
718.563	3.88
719.315	1.88
720.068	4.88
720.82	3.88
721.573	4.88
722.325	3.88
723.077	3.88
723.829	5.88
724.581	4.88
725.333	4.88
726.085	2.88
726.836	0.88
727.588	2.88
728.34	3.88
729.091	3.88
729.843	4.88
730.594	4.88
731.346	3.88
732.097	4.88
732.848	6.88
733.599	1.88
734.35	4.88
735.101	5.88
735.852	3.88
736.603	2.88
737.354	4.88
738.104	4.88
738.855	4.88
739.605	3.88
740.356	3.88
741.106	4.88
741.856	3.88
742.607	5.88
743.357	3.88
744.107	6.88
744.857	4.88
745.607	2.88
746.357	5.88
747.106	2.88
747.856	5.88
748.606	4.88
749.355	5.88
750.105	3.88
750.854	4.88
751.603	4.88
752.353	6.88
753.102	5.88
753.851	6.88
754.6	6.88
755.349	6.88
756.098	5.88
756.847	1.88
757.595	6.88
758.344	6.88
759.093	5.88
759.841	5.88
760.589	5.88
761.338	7.88
762.086	4.88
762.834	6.88
763.582	7.88
764.331	6.88
765.079	5.88
765.826	7.88
766.574	6.88
767.322	4.88
768.07	9.88
768.817	8.88
769.565	6.88
770.312	7.88
771.06	6.88
771.807	9.88
772.554	8.88
773.302	5.88
774.049	7.88
774.796	9.88
775.543	4.88
776.29	9.88
777.036	8.88
777.783	7.88
778.53	9.88
779.276	8.88
780.023	8.88
780.769	10.88
781.516	7.88
782.262	8.88
783.008	8.88
783.754	7.88
784.5	8.88
785.246	8.88
785.992	9.88
786.738	8.88
787.484	5.88
788.23	9.88
788.975	7.88
789.721	10.88
790.466	8.88
791.212	9.88
791.957	8.88
792.702	9.88
793.447	5.88
794.193	8.88
794.938	9.88
795.683	7.88
796.427	7.88
797.172	9.88
797.917	6.88
798.662	9.88
799.406	7.88
800.151	4.88
800.895	9.88
801.64	9.88
802.384	6.88
803.128	4.88
803.872	6.88
804.616	7.88
805.36	6.88
806.104	5.88
806.848	7.88
807.592	6.88
808.336	7.88
809.079	5.88
809.823	7.88
810.566	7.88
811.31	5.88
812.053	5.88
812.796	2.88
813.539	3.88
814.283	4.88
815.026	5.88
815.769	1.88
816.511	4.88
817.254	3.88
817.997	4.88
818.74	4.88
819.482	5.88
820.225	3.88
820.967	2.88
821.71	4.88
822.452	3.88
823.194	4.88
823.936	3.88
824.678	4.88
825.42	4.88
826.162	3.88
826.904	6.88
827.646	3.88
828.388	4.88
829.129	5.88
829.871	2.88
830.612	3.88
831.354	2.88
832.095	4.88
832.836	4.88
833.577	2.88
834.319	3.88
835.06	2.88
835.801	2.88
836.542	1.88
837.282	3.88
838.023	4.88
838.764	3.88
839.504	2.88
840.245	3.88
840.985	2.88
841.726	3.88
842.466	-0.12
843.206	4.88
843.946	4.88
844.687	6.88
845.427	-0.12
846.166	4.88
846.906	3.88
847.646	2.88
848.386	1.88
849.125	4.88
849.865	2.88
850.605	1.88
851.344	3.88
852.083	2.88
852.823	2.88
853.562	1.88
854.301	0.88
855.04	5.88
855.779	2.88
856.518	2.88
857.257	1.88
857.995	3.88
858.734	1.88
859.473	1.88
860.211	2.88
860.95	2.88
861.688	0.88
862.426	2.88
863.165	-2.12
863.903	2.88
864.641	2.88
865.379	2.88
866.117	3.88
866.855	2.88
867.593	-0.12
868.33	1.88
869.068	2.88
869.806	0.88
870.543	1.88
871.28	0.88
872.018	-0.12
872.755	1.88
873.492	2.88
874.229	2.88
874.967	-0.12
875.703	0.88
876.44	0.88
877.177	-0.12
877.914	0.88
878.651	-0.12
879.387	0.88
880.124	2.88
880.86	1.88
881.597	0.88
882.333	1.88
883.069	1.88
883.806	1.88
884.542	1.88
885.278	0.88
886.014	0.88
886.749	1.88
887.485	1.88
888.221	0.88
888.957	1.88
889.692	0.88
890.428	0.88
891.163	0.88
891.899	0.88
892.634	0.88
893.369	0.88
894.104	-0.12
894.839	-0.12
895.574	0.88
896.309	0.88
897.044	1.88
897.779	-0.12
898.514	0.88
899.248	-0.12
899.983	-2.12
900.717	1.88
901.452	-2.12
902.186	-1.12
902.92	-0.12
903.654	0.88
904.389	2.88
905.123	-1.12
905.857	0.88
906.59	-0.12
907.324	-0.12
908.058	0.88
908.792	-1.12
909.525	2.88
910.259	0.88
910.992	0.88
911.726	1.88
912.459	0.88
913.192	0.88
913.925	0.88
914.658	-0.12
915.391	-0.12
916.124	-0.12
916.857	2.88
917.59	-0.12
918.323	0.88
919.055	1.88
919.788	2.88
920.521	0.88
921.253	-0.12
921.985	1.88
922.718	-3.12
923.45	1.88
924.182	-1.12
924.914	-0.12
925.646	1.88
926.378	-1.12
927.11	-0.12
927.841	0.88
928.573	-0.12
929.305	0.88
930.036	1.88
930.768	0.88
931.499	-1.12
932.23	2.88
932.962	-0.12
933.693	0.88
934.424	1.88
935.155	0.88
935.886	0.88
936.617	-2.12
937.348	1.88
938.078	-0.12
938.809	2.88
939.54	0.88
940.27	-1.12
941.001	1.88
941.731	0.88
942.461	1.88
943.191	0.88
943.922	-0.12
944.652	0.88
945.382	0.88
946.112	0.88
946.841	-2.12
947.571	-1.12
948.301	0.88
949.031	0.88
949.76	-2.12
950.49	-0.12
951.219	1.88
951.948	0.88
952.678	0.88
953.407	1.88
954.136	-0.12
954.865	-0.12
955.594	0.88
956.323	1.88
957.052	-2.12
957.78	-2.12
958.509	0.88
959.238	-1.12
959.966	1.88
960.695	0.88
961.423	0.88
962.151	2.88
962.88	-0.12
963.608	0.88
964.336	-2.12
965.064	-0.12
965.792	-0.12
966.52	0.88
967.247	0.88
967.975	-0.12
968.703	-0.12
969.43	-1.12
970.158	-0.12
970.885	0.88
971.613	0.88
972.34	-2.12
973.067	0.88
973.794	0.88
974.521	-0.12
975.248	-1.12
975.975	-1.12
976.702	-1.12
977.429	0.88
978.156	0.88
978.882	1.88
979.609	0.88
980.335	0.88
981.062	-0.12
981.788	-0.12
982.514	-1.12
983.24	-0.12
983.967	0.88
984.693	1.88
985.419	0.88
986.144	0.88
986.87	1.88
987.596	1.88
988.322	0.88
989.047	-0.12
989.773	-0.12
990.498	-0.12
991.224	-1.12
991.949	0.88
992.674	-0.12
993.399	0.88
994.124	2.88
994.849	-1.12
995.574	0.88
996.299	0.88
997.024	-1.12
997.749	0.88
998.473	-1.12
999.198	0.88
999.922	-0.12
1000.647	1.88
1001.371	3.88
1002.095	-1.12
1002.82	-2.12
1003.544	-0.12
1004.268	0.88
1004.992	1.88
1005.716	0.88
1006.439	0.88
1007.163	2.88
1007.887	1.88
1008.611	0.88
1009.334	-0.12
1010.058	0.88
1010.781	-1.12
1011.504	1.88
1012.228	1.88
1012.951	-1.12
1013.674	0.88
1014.397	-0.12
1015.12	-0.12
