节点500_285_QEPB04081__293__15-00-25-774.txt的数据

Date: Wed Nov 12 15:00:25 CST 2025
User: PC
Spectrometer: QEPB0408
触发模式: 0
积分时间 (秒): 1.000000E-2
Scans to average: 1
启用暗噪声校正: true
启用非线性校正: false
滑动平均宽度: 0
X轴模式: Wavelengths
Number of Pixels in Spectrum: 1044
>>>>>Begin Spectral Data<<<<<
220.843	2
221.644	0
222.444	1
223.244	2
224.045	4
224.845	4
225.645	4
226.445	5
227.245	0
228.045	5
228.845	4
229.645	2
230.444	5
231.244	5
232.043	5
232.843	5
233.642	4
234.442	3
235.241	2
236.04	4
236.839	5
237.638	4
238.437	3
239.236	6
240.035	2
240.833	3
241.632	5
242.43	6
243.229	4
244.027	6
244.826	5
245.624	7
246.422	5
247.22	9
248.018	5
248.816	8
249.614	5
250.412	8
251.21	7
252.007	6
252.805	11
253.602	5
254.4	8
255.197	10
255.994	10
256.791	8
257.589	9
258.386	11
259.183	10
259.979	9
260.776	12
261.573	9
262.37	10
263.166	10
263.963	14
264.759	12
265.556	13
266.352	13
267.148	12
267.944	17
268.74	13
269.536	16
270.332	16
271.128	18
271.924	14
272.719	17
273.515	14
274.311	20
275.106	17
275.901	18
276.697	18
277.492	15
278.287	17
279.082	17
279.877	20
280.672	17
281.467	20
282.262	19
283.056	17
283.851	20
284.646	22
285.44	18
286.234	19
287.029	18
287.823	21
288.617	19
289.411	17
290.205	16
290.999	16
291.793	20
292.587	20
293.381	18
294.174	16
294.968	18
295.761	12
296.555	15
297.348	14
298.141	17
298.935	14
299.728	14
300.521	16
301.314	16
302.107	14
302.899	16
303.692	13
304.485	12
305.277	13
306.07	14
306.862	10
307.655	12
308.447	11
309.239	14
310.031	10
310.823	10
311.615	10
312.407	10
313.199	10
313.991	8
314.783	10
315.574	9
316.366	7
317.157	11
317.949	10
318.74	8
319.531	10
320.322	9
321.113	10
321.904	7
322.695	7
323.486	9
324.277	6
325.068	8
325.858	6
326.649	7
327.439	6
328.23	5
329.02	9
329.81	8
330.6	7
331.391	7
332.181	6
332.971	6
333.76	5
334.55	6
335.34	4
336.13	5
336.919	5
337.709	8
338.498	6
339.287	8
340.077	7
340.866	6
341.655	8
342.444	6
343.233	7
344.022	7
344.811	4
345.6	8
346.388	9
347.177	9
347.965	8
348.754	7
349.542	8
350.33	6
351.119	9
351.907	6
352.695	6
353.483	7
354.271	7
355.059	7
355.846	5
356.634	5
357.422	7
358.209	5
358.997	7
359.784	4
360.571	7
361.359	4
362.146	7
362.933	7
363.72	7
364.507	4
365.294	6
366.081	5
366.867	7
367.654	5
368.44	8
369.227	4
370.013	6
370.8	3
371.586	6
372.372	5
373.158	5
373.944	4
374.73	6
375.516	6
376.302	8
377.088	5
377.873	5
378.659	5
379.445	6
380.23	3
381.015	7
381.801	5
382.586	5
383.371	4
384.156	6
384.941	6
385.726	4
386.511	8
387.296	6
388.08	6
388.865	8
389.649	5
390.434	8
391.218	7
392.003	8
392.787	5
393.571	3
394.355	9
395.139	7
395.923	9
396.707	8
397.491	6
398.274	6
399.058	4
399.842	6
400.625	8
401.408	8
402.192	5
402.975	7
403.758	10
404.541	8
405.324	9
406.107	8
406.89	10
407.673	10
408.456	8
409.238	9
410.021	8
410.803	11
411.586	8
412.368	9
413.151	10
413.933	9
414.715	10
415.497	8
416.279	9
417.061	11
417.843	12
418.624	10
419.406	9
420.188	10
420.969	11
421.751	12
422.532	12
423.313	10
424.095	12
424.876	11
425.657	15
426.438	13
427.219	12
428	14
428.78	14
429.561	15
430.342	16
431.122	17
431.903	17
432.683	16
433.464	14
434.244	16
435.024	17
435.804	16
436.584	19
437.364	20
438.144	19
438.924	22
439.704	21
440.483	23
441.263	24
442.042	27
442.822	30
443.601	27
444.38	31
445.16	29
445.939	35
446.718	35
447.497	40
448.276	41
449.054	43
449.833	49
450.612	53
451.391	57
452.169	64
452.948	67
453.726	73
454.504	82
455.282	93
456.061	94
456.839	109
457.617	118
458.395	133
459.172	148
459.95	165
460.728	182
461.506	207
462.283	227
463.061	252
463.838	282
464.615	317
465.393	354
466.17	395
466.947	446
467.724	494
468.501	553
469.278	613
470.055	678
470.831	763
471.608	843
472.385	939
473.161	1053
473.938	1145
474.714	1282
475.49	1421
476.266	1569
477.043	1733
477.819	1914
478.595	2119
479.371	2353
480.146	2554
480.922	2853
481.698	3150
482.473	3471
483.249	3841
484.024	4207
484.8	4639
485.575	5097
486.35	5609
487.126	6149
487.901	6778
488.676	7396
489.451	8129
490.225	8904
491	9745
491.775	10622
492.55	11589
493.324	12612
494.099	13548
494.873	14601
495.647	15788
496.422	16982
497.196	18172
497.97	19335
498.744	20549
499.518	21709
500.292	22866
501.066	23954
501.839	24918
502.613	25764
503.387	26549
504.16	27145
504.934	27531
505.707	27657
506.48	27664
507.253	27464
508.027	27229
508.8	26947
509.573	26432
510.346	25774
511.118	25050
511.891	24148
512.664	23302
513.437	22410
514.209	21415
514.982	20567
515.754	19643
516.526	18814
517.298	17953
518.071	17189
518.843	16462
519.615	15856
520.387	15274
521.159	14605
521.93	13998
522.702	13533
523.474	12926
524.245	12337
525.017	11803
525.788	11366
526.56	10869
527.331	10361
528.102	9888
528.873	9390
529.644	8949
530.415	8519
531.186	8103
531.957	7658
532.728	7261
533.498	6911
534.269	6510
535.039	6129
535.81	5802
536.58	5489
537.351	5141
538.121	4885
538.891	4597
539.661	4376
540.431	4106
541.201	3885
541.971	3683
542.741	3514
543.51	3298
544.28	3162
545.05	2997
545.819	2863
546.588	2726
547.358	2590
548.127	2449
548.896	2350
549.665	2215
550.434	2114
551.203	1969
551.972	1876
552.741	1767
553.51	1675
554.278	1558
555.047	1499
555.815	1424
556.584	1317
557.352	1257
558.121	1194
558.889	1118
559.657	1049
560.425	988
561.193	936
561.961	884
562.729	824
563.496	805
564.264	737
565.032	710
565.799	671
566.567	633
567.334	603
568.101	558
568.869	527
569.636	491
570.403	469
571.17	442
571.937	416
572.704	405
573.471	377
574.237	357
575.004	336
575.771	322
576.537	295
577.303	282
578.07	261
578.836	242
579.602	240
580.368	218
581.134	211
581.9	197
582.666	185
583.432	173
584.198	167
584.964	161
585.729	151
586.495	144
587.26	137
588.025	132
588.791	122
589.556	115
590.321	108
591.086	102
591.851	94
592.616	94
593.381	90
594.146	87
594.911	84
595.675	77
596.44	73
597.204	75
597.969	68
598.733	64
599.497	64
600.261	57
601.025	55
601.79	56
602.553	55
603.317	48
604.081	49
604.845	46
605.609	42
606.372	42
607.136	40
607.899	39
608.662	35
609.426	34
610.189	35
610.952	33
611.715	30
612.478	31
613.241	27
614.004	28
614.767	29
615.529	26
616.292	25
617.055	22
617.817	23
618.579	22
619.342	24
620.104	23
620.866	21
621.628	21
622.39	17
623.152	21
623.914	18
624.676	16
625.438	18
626.199	16
626.961	16
627.722	14
628.484	15
629.245	14
630.006	13
630.768	15
631.529	12
632.29	14
633.051	14
633.812	13
634.573	11
635.333	11
636.094	11
636.855	9
637.615	12
638.376	10
639.136	10
639.896	12
640.657	8
641.417	13
642.177	10
642.937	10
643.697	9
644.457	10
645.216	9
645.976	8
646.736	9
647.495	9
648.255	8
649.014	10
649.774	6
650.533	8
651.292	5
652.051	8
652.81	8
653.569	5
654.328	5
655.087	6
655.846	6
656.604	6
657.363	5
658.121	5
658.88	7
659.638	7
660.397	6
661.155	7
661.913	6
662.671	8
663.429	6
664.187	7
664.945	4
665.703	6
666.46	5
667.218	5
667.976	5
668.733	6
669.49	5
670.248	6
671.005	5
671.762	4
672.519	5
673.276	5
674.033	4
674.79	4
675.547	5
676.304	6
677.06	5
677.817	3
678.574	3
679.33	5
680.086	5
680.843	6
681.599	4
682.355	3
683.111	5
683.867	6
684.623	5
685.379	5
686.135	5
686.89	6
687.646	1
688.402	2
689.157	5
689.912	5
690.668	5
691.423	5
692.178	3
692.933	5
693.688	5
694.443	4
695.198	5
695.953	5
696.708	4
697.462	5
698.217	4
698.972	3
699.726	3
700.48	5
701.235	6
701.989	2
702.743	3
703.497	4
704.251	5
705.005	4
705.759	5
706.513	5
707.266	3
708.02	4
708.774	4
709.527	4
710.28	2
711.034	4
711.787	5
712.54	3
713.293	1
714.046	6
714.799	6
715.552	3
716.305	4
717.058	5
717.81	4
718.563	7
719.315	6
720.068	3
720.82	7
721.573	5
722.325	3
723.077	6
723.829	5
724.581	3
725.333	2
726.085	2
726.836	5
727.588	4
728.34	3
729.091	2
729.843	4
730.594	4
731.346	4
732.097	4
732.848	4
733.599	4
734.35	4
735.101	7
735.852	3
736.603	6
737.354	4
738.104	4
738.855	4
739.605	6
740.356	5
741.106	4
741.856	4
742.607	5
743.357	4
744.107	5
744.857	4
745.607	4
746.357	5
747.106	7
747.856	6
748.606	6
749.355	7
750.105	5
750.854	7
751.603	4
752.353	7
753.102	6
753.851	5
754.6	10
755.349	6
756.098	5
756.847	6
757.595	8
758.344	8
759.093	6
759.841	9
760.589	8
761.338	6
762.086	5
762.834	6
763.582	8
764.331	8
765.079	8
765.826	7
766.574	9
767.322	10
768.07	8
768.817	8
769.565	10
770.312	8
771.06	10
771.807	10
772.554	9
773.302	7
774.049	8
774.796	9
775.543	11
776.29	9
777.036	9
777.783	10
778.53	9
779.276	9
780.023	8
780.769	8
781.516	10
782.262	8
783.008	10
783.754	7
784.5	8
785.246	8
785.992	7
786.738	11
787.484	8
788.23	9
788.975	9
789.721	11
790.466	9
791.212	11
791.957	10
792.702	11
793.447	8
794.193	7
794.938	6
795.683	10
796.427	7
797.172	8
797.917	8
798.662	7
799.406	8
800.151	10
800.895	7
801.64	8
802.384	12
803.128	8
803.872	7
804.616	6
805.36	9
806.104	6
806.848	8
807.592	5
808.336	8
809.079	4
809.823	6
810.566	4
811.31	4
812.053	7
812.796	6
813.539	5
814.283	4
815.026	7
815.769	6
816.511	4
817.254	6
817.997	5
818.74	4
819.482	6
820.225	5
820.967	3
821.71	5
822.452	5
823.194	3
823.936	7
824.678	5
825.42	5
826.162	3
826.904	5
827.646	3
828.388	4
829.129	4
829.871	4
830.612	6
831.354	3
832.095	5
832.836	7
833.577	3
834.319	4
835.06	2
835.801	4
836.542	3
837.282	3
838.023	5
838.764	4
839.504	4
840.245	1
840.985	3
841.726	2
842.466	3
843.206	5
843.946	0
844.687	6
845.427	4
846.166	3
846.906	5
847.646	4
848.386	3
849.125	5
849.865	2
850.605	3
851.344	3
852.083	3
852.823	2
853.562	4
854.301	3
855.04	-1
855.779	2
856.518	4
857.257	3
857.995	1
858.734	4
859.473	2
860.211	5
860.95	4
861.688	2
862.426	-1
863.165	4
863.903	1
864.641	2
865.379	2
866.117	3
866.855	2
867.593	1
868.33	4
869.068	1
869.806	2
870.543	4
871.28	2
872.018	4
872.755	0
873.492	0
874.229	2
874.967	4
875.703	1
876.44	4
877.177	1
877.914	-1
878.651	5
879.387	1
880.124	0
880.86	2
881.597	2
882.333	1
883.069	0
883.806	3
884.542	1
885.278	3
886.014	3
886.749	0
887.485	4
888.221	1
888.957	1
889.692	0
890.428	1
891.163	1
891.899	-1
892.634	2
893.369	0
894.104	3
894.839	0
895.574	1
896.309	2
897.044	1
897.779	2
898.514	1
899.248	1
899.983	0
900.717	0
901.452	1
902.186	0
902.92	2
903.654	1
904.389	1
905.123	0
905.857	-2
906.59	2
907.324	2
908.058	1
908.792	2
909.525	1
910.259	0
910.992	-1
911.726	3
912.459	-1
913.192	0
913.925	1
914.658	1
915.391	-1
916.124	0
916.857	1
917.59	2
918.323	-2
919.055	-1
919.788	-1
920.521	1
921.253	2
921.985	0
922.718	1
923.45	0
924.182	1
924.914	1
925.646	2
926.378	1
927.11	2
927.841	1
928.573	0
929.305	1
930.036	0
930.768	2
931.499	1
932.23	0
932.962	1
933.693	-1
934.424	2
935.155	-2
935.886	3
936.617	0
937.348	1
938.078	1
938.809	1
939.54	3
940.27	0
941.001	1
941.731	3
942.461	1
943.191	0
943.922	2
944.652	2
945.382	0
946.112	1
946.841	2
947.571	-2
948.301	1
949.031	1
949.76	0
950.49	1
951.219	-1
951.948	2
952.678	-1
953.407	1
954.136	2
954.865	1
955.594	2
956.323	1
957.052	0
957.78	-2
958.509	1
959.238	1
959.966	0
960.695	0
961.423	1
962.151	1
962.88	-1
963.608	0
964.336	2
965.064	0
965.792	2
966.52	-1
967.247	1
967.975	1
968.703	-1
969.43	1
970.158	1
970.885	2
971.613	-2
972.34	3
973.067	1
973.794	1
974.521	0
975.248	-4
975.975	0
976.702	1
977.429	1
978.156	1
978.882	0
979.609	-1
980.335	0
981.062	2
981.788	2
982.514	1
983.24	2
983.967	0
984.693	1
985.419	2
986.144	1
986.87	1
987.596	3
988.322	0
989.047	2
989.773	1
990.498	1
991.224	2
991.949	-1
992.674	-1
993.399	0
994.124	1
994.849	2
995.574	0
996.299	-2
997.024	1
997.749	2
998.473	0
999.198	0
999.922	1
1000.647	0
1001.371	5
1002.095	-2
1002.82	-2
1003.544	-2
1004.268	3
1004.992	0
1005.716	1
1006.439	3
1007.163	2
1007.887	3
1008.611	0
1009.334	0
1010.058	2
1010.781	1
1011.504	1
1012.228	1
1012.951	0
1013.674	0
1014.397	1
1015.12	0
