节点500_285_QEPB04081__430__15-02-42-550.txt的数据

Date: Wed Nov 12 15:02:42 CST 2025
User: PC
Spectrometer: QEPB0408
触发模式: 0
积分时间 (秒): 1.000000E-2
Scans to average: 1
启用暗噪声校正: true
启用非线性校正: false
滑动平均宽度: 0
X轴模式: Wavelengths
Number of Pixels in Spectrum: 1044
>>>>>Begin Spectral Data<<<<<
220.843	1.75
221.644	1.75
222.444	1.75
223.244	0.75
224.045	1.75
224.845	0.75
225.645	1.75
226.445	1.75
227.245	2.75
228.045	0.75
228.845	0.75
229.645	2.75
230.444	3.75
231.244	1.75
232.043	1.75
232.843	5.75
233.642	1.75
234.442	3.75
235.241	2.75
236.04	4.75
236.839	3.75
237.638	3.75
238.437	3.75
239.236	3.75
240.035	6.75
240.833	3.75
241.632	4.75
242.43	5.75
243.229	4.75
244.027	5.75
244.826	3.75
245.624	4.75
246.422	2.75
247.22	3.75
248.018	2.75
248.816	6.75
249.614	8.75
250.412	7.75
251.21	7.75
252.007	7.75
252.805	6.75
253.602	6.75
254.4	5.75
255.197	7.75
255.994	5.75
256.791	8.75
257.589	7.75
258.386	10.75
259.183	6.75
259.979	7.75
260.776	10.75
261.573	10.75
262.37	10.75
263.166	12.75
263.963	11.75
264.759	11.75
265.556	11.75
266.352	13.75
267.148	13.75
267.944	12.75
268.74	14.75
269.536	13.75
270.332	14.75
271.128	12.75
271.924	15.75
272.719	14.75
273.515	14.75
274.311	16.75
275.106	13.75
275.901	15.75
276.697	17.75
277.492	14.75
278.287	16.75
279.082	18.75
279.877	17.75
280.672	15.75
281.467	20.75
282.262	17.75
283.056	17.75
283.851	19.75
284.646	18.75
285.44	16.75
286.234	16.75
287.029	20.75
287.823	16.75
288.617	17.75
289.411	15.75
290.205	17.75
290.999	18.75
291.793	17.75
292.587	17.75
293.381	17.75
294.174	16.75
294.968	16.75
295.761	14.75
296.555	16.75
297.348	12.75
298.141	14.75
298.935	15.75
299.728	12.75
300.521	13.75
301.314	13.75
302.107	14.75
302.899	11.75
303.692	8.75
304.485	12.75
305.277	12.75
306.07	14.75
306.862	11.75
307.655	14.75
308.447	11.75
309.239	12.75
310.031	11.75
310.823	8.75
311.615	11.75
312.407	11.75
313.199	9.75
313.991	11.75
314.783	8.75
315.574	10.75
316.366	8.75
317.157	9.75
317.949	9.75
318.74	9.75
319.531	9.75
320.322	5.75
321.113	9.75
321.904	5.75
322.695	5.75
323.486	4.75
324.277	5.75
325.068	7.75
325.858	2.75
326.649	6.75
327.439	5.75
328.23	6.75
329.02	5.75
329.81	3.75
330.6	6.75
331.391	3.75
332.181	5.75
332.971	7.75
333.76	5.75
334.55	5.75
335.34	4.75
336.13	5.75
336.919	7.75
337.709	7.75
338.498	5.75
339.287	6.75
340.077	5.75
340.866	7.75
341.655	6.75
342.444	6.75
343.233	5.75
344.022	6.75
344.811	3.75
345.6	7.75
346.388	4.75
347.177	4.75
347.965	4.75
348.754	7.75
349.542	5.75
350.33	4.75
351.119	7.75
351.907	6.75
352.695	5.75
353.483	7.75
354.271	2.75
355.059	4.75
355.846	4.75
356.634	5.75
357.422	2.75
358.209	4.75
358.997	3.75
359.784	4.75
360.571	3.75
361.359	3.75
362.146	4.75
362.933	7.75
363.72	3.75
364.507	4.75
365.294	6.75
366.081	5.75
366.867	5.75
367.654	7.75
368.44	5.75
369.227	1.75
370.013	5.75
370.8	4.75
371.586	6.75
372.372	4.75
373.158	3.75
373.944	5.75
374.73	1.75
375.516	6.75
376.302	3.75
377.088	4.75
377.873	2.75
378.659	3.75
379.445	5.75
380.23	4.75
381.015	5.75
381.801	6.75
382.586	5.75
383.371	6.75
384.156	6.75
384.941	5.75
385.726	3.75
386.511	6.75
387.296	4.75
388.08	5.75
388.865	6.75
389.649	4.75
390.434	4.75
391.218	4.75
392.003	6.75
392.787	5.75
393.571	5.75
394.355	3.75
395.139	6.75
395.923	6.75
396.707	5.75
397.491	5.75
398.274	7.75
399.058	7.75
399.842	7.75
400.625	6.75
401.408	9.75
402.192	5.75
402.975	8.75
403.758	5.75
404.541	6.75
405.324	6.75
406.107	7.75
406.89	8.75
407.673	8.75
408.456	5.75
409.238	6.75
410.021	8.75
410.803	9.75
411.586	9.75
412.368	10.75
413.151	8.75
413.933	7.75
414.715	7.75
415.497	6.75
416.279	8.75
417.061	10.75
417.843	8.75
418.624	9.75
419.406	9.75
420.188	8.75
420.969	12.75
421.751	9.75
422.532	10.75
423.313	7.75
424.095	12.75
424.876	11.75
425.657	12.75
426.438	12.75
427.219	10.75
428	11.75
428.78	15.75
429.561	15.75
430.342	12.75
431.122	17.75
431.903	13.75
432.683	14.75
433.464	14.75
434.244	17.75
435.024	15.75
435.804	15.75
436.584	19.75
437.364	18.75
438.144	17.75
438.924	22.75
439.704	18.75
440.483	21.75
441.263	26.75
442.042	24.75
442.822	28.75
443.601	27.75
444.38	30.75
445.16	27.75
445.939	33.75
446.718	37.75
447.497	38.75
448.276	42.75
449.054	42.75
449.833	48.75
450.612	56.75
451.391	56.75
452.169	62.75
452.948	67.75
453.726	78.75
454.504	83.75
455.282	94.75
456.061	101.75
456.839	111.75
457.617	125.75
458.395	133.75
459.172	154.75
459.95	170.75
460.728	194.75
461.506	209.75
462.283	238.75
463.061	266.75
463.838	300.75
464.615	326.75
465.393	367.75
466.17	408.75
466.947	464.75
467.724	506.75
468.501	564.75
469.278	632.75
470.055	702.75
470.831	763.75
471.608	861.75
472.385	958.75
473.161	1071.75
473.938	1176.75
474.714	1307.75
475.49	1425.75
476.266	1587.75
477.043	1769.75
477.819	1927.75
478.595	2125.75
479.371	2337.75
480.146	2590.75
480.922	2837.75
481.698	3148.75
482.473	3446.75
483.249	3788.75
484.024	4178.75
484.8	4570.75
485.575	5006.75
486.35	5498.75
487.126	6040.75
487.901	6579.75
488.676	7201.75
489.451	7913.75
490.225	8640.75
491	9398.75
491.775	10237.75
492.55	11224.75
493.324	12133.75
494.099	12981.75
494.873	14043.75
495.647	15153.75
496.422	16235.75
497.196	17426.75
497.97	18625.75
498.744	19731.75
499.518	20896.75
500.292	22023.75
501.066	23063.75
501.839	24021.75
502.613	24958.75
503.387	25716.75
504.16	26406.75
504.934	26749.75
505.707	26884.75
506.48	27089.75
507.253	27076.75
508.027	26781.75
508.8	26589.75
509.573	26151.75
510.346	25574.75
511.118	24899.75
511.891	24207.75
512.664	23349.75
513.437	22533.75
514.209	21558.75
514.982	20669.75
515.754	19799.75
516.526	18998.75
517.298	18159.75
518.071	17310.75
518.843	16644.75
519.615	16045.75
520.387	15429.75
521.159	14776.75
521.93	14303.75
522.702	13686.75
523.474	13105.75
524.245	12531.75
525.017	12005.75
525.788	11523.75
526.56	11042.75
527.331	10483.75
528.102	10028.75
528.873	9597.75
529.644	9119.75
530.415	8690.75
531.186	8245.75
531.957	7788.75
532.728	7465.75
533.498	7063.75
534.269	6646.75
535.039	6285.75
535.81	5972.75
536.58	5596.75
537.351	5305.75
538.121	5009.75
538.891	4759.75
539.661	4469.75
540.431	4231.75
541.201	4014.75
541.971	3780.75
542.741	3600.75
543.51	3400.75
544.28	3249.75
545.05	3090.75
545.819	2931.75
546.588	2783.75
547.358	2640.75
548.127	2524.75
548.896	2383.75
549.665	2270.75
550.434	2137.75
551.203	2032.75
551.972	1931.75
552.741	1817.75
553.51	1728.75
554.278	1637.75
555.047	1531.75
555.815	1449.75
556.584	1371.75
557.352	1301.75
558.121	1222.75
558.889	1164.75
559.657	1078.75
560.425	1015.75
561.193	968.75
561.961	920.75
562.729	861.75
563.496	818.75
564.264	769.75
565.032	724.75
565.799	695.75
566.567	654.75
567.334	607.75
568.101	578.75
568.869	553.75
569.636	518.75
570.403	484.75
571.17	452.75
571.937	434.75
572.704	401.75
573.471	387.75
574.237	366.75
575.004	346.75
575.771	322.75
576.537	305.75
577.303	286.75
578.07	276.75
578.836	253.75
579.602	243.75
580.368	225.75
581.134	217.75
581.9	202.75
582.666	188.75
583.432	180.75
584.198	171.75
584.964	165.75
585.729	152.75
586.495	145.75
587.26	138.75
588.025	137.75
588.791	125.75
589.556	119.75
590.321	112.75
591.086	106.75
591.851	96.75
592.616	92.75
593.381	94.75
594.146	87.75
594.911	86.75
595.675	79.75
596.44	76.75
597.204	73.75
597.969	67.75
598.733	67.75
599.497	63.75
600.261	61.75
601.025	60.75
601.79	55.75
602.553	51.75
603.317	47.75
604.081	48.75
604.845	50.75
605.609	42.75
606.372	42.75
607.136	39.75
607.899	40.75
608.662	34.75
609.426	36.75
610.189	35.75
610.952	32.75
611.715	29.75
612.478	29.75
613.241	25.75
614.004	26.75
614.767	24.75
615.529	28.75
616.292	26.75
617.055	27.75
617.817	22.75
618.579	24.75
619.342	18.75
620.104	22.75
620.866	22.75
621.628	17.75
622.39	18.75
623.152	18.75
623.914	19.75
624.676	17.75
625.438	17.75
626.199	18.75
626.961	13.75
627.722	17.75
628.484	12.75
629.245	16.75
630.006	12.75
630.768	13.75
631.529	16.75
632.29	13.75
633.051	12.75
633.812	12.75
634.573	9.75
635.333	13.75
636.094	11.75
636.855	10.75
637.615	9.75
638.376	10.75
639.136	9.75
639.896	8.75
640.657	10.75
641.417	9.75
642.177	9.75
642.937	8.75
643.697	8.75
644.457	7.75
645.216	9.75
645.976	8.75
646.736	9.75
647.495	5.75
648.255	7.75
649.014	4.75
649.774	5.75
650.533	7.75
651.292	5.75
652.051	3.75
652.81	7.75
653.569	7.75
654.328	5.75
655.087	6.75
655.846	5.75
656.604	6.75
657.363	8.75
658.121	4.75
658.88	7.75
659.638	5.75
660.397	6.75
661.155	1.75
661.913	4.75
662.671	3.75
663.429	5.75
664.187	3.75
664.945	4.75
665.703	3.75
666.46	4.75
667.218	1.75
667.976	4.75
668.733	5.75
669.49	4.75
670.248	5.75
671.005	5.75
671.762	5.75
672.519	5.75
673.276	7.75
674.033	3.75
674.79	2.75
675.547	2.75
676.304	4.75
677.06	3.75
677.817	2.75
678.574	2.75
679.33	2.75
680.086	4.75
680.843	6.75
681.599	5.75
682.355	4.75
683.111	4.75
683.867	2.75
684.623	4.75
685.379	4.75
686.135	2.75
686.89	4.75
687.646	4.75
688.402	2.75
689.157	1.75
689.912	4.75
690.668	5.75
691.423	2.75
692.178	6.75
692.933	1.75
693.688	4.75
694.443	1.75
695.198	2.75
695.953	2.75
696.708	4.75
697.462	0.75
698.217	4.75
698.972	3.75
699.726	5.75
700.48	2.75
701.235	4.75
701.989	3.75
702.743	3.75
703.497	3.75
704.251	4.75
705.005	3.75
705.759	3.75
706.513	2.75
707.266	5.75
708.02	4.75
708.774	4.75
709.527	4.75
710.28	3.75
711.034	3.75
711.787	0.75
712.54	2.75
713.293	1.75
714.046	3.75
714.799	4.75
715.552	3.75
716.305	2.75
717.058	3.75
717.81	3.75
718.563	4.75
719.315	3.75
720.068	3.75
720.82	2.75
721.573	2.75
722.325	1.75
723.077	4.75
723.829	2.75
724.581	3.75
725.333	3.75
726.085	3.75
726.836	3.75
727.588	3.75
728.34	1.75
729.091	3.75
729.843	5.75
730.594	-0.25
731.346	3.75
732.097	5.75
732.848	3.75
733.599	4.75
734.35	3.75
735.101	3.75
735.852	6.75
736.603	1.75
737.354	4.75
738.104	3.75
738.855	5.75
739.605	2.75
740.356	3.75
741.106	5.75
741.856	4.75
742.607	5.75
743.357	6.75
744.107	6.75
744.857	6.75
745.607	4.75
746.357	3.75
747.106	4.75
747.856	5.75
748.606	3.75
749.355	6.75
750.105	5.75
750.854	4.75
751.603	4.75
752.353	3.75
753.102	2.75
753.851	5.75
754.6	5.75
755.349	4.75
756.098	5.75
756.847	5.75
757.595	5.75
758.344	3.75
759.093	7.75
759.841	4.75
760.589	5.75
761.338	4.75
762.086	4.75
762.834	4.75
763.582	5.75
764.331	6.75
765.079	8.75
765.826	6.75
766.574	5.75
767.322	6.75
768.07	8.75
768.817	6.75
769.565	5.75
770.312	4.75
771.06	8.75
771.807	9.75
772.554	6.75
773.302	5.75
774.049	6.75
774.796	7.75
775.543	5.75
776.29	8.75
777.036	9.75
777.783	5.75
778.53	10.75
779.276	7.75
780.023	7.75
780.769	9.75
781.516	8.75
782.262	8.75
783.008	10.75
783.754	9.75
784.5	9.75
785.246	8.75
785.992	8.75
786.738	7.75
787.484	9.75
788.23	9.75
788.975	10.75
789.721	7.75
790.466	6.75
791.212	9.75
791.957	8.75
792.702	7.75
793.447	7.75
794.193	7.75
794.938	9.75
795.683	8.75
796.427	6.75
797.172	6.75
797.917	10.75
798.662	5.75
799.406	5.75
800.151	6.75
800.895	4.75
801.64	8.75
802.384	7.75
803.128	8.75
803.872	6.75
804.616	6.75
805.36	4.75
806.104	4.75
806.848	8.75
807.592	3.75
808.336	4.75
809.079	4.75
809.823	4.75
810.566	5.75
811.31	6.75
812.053	6.75
812.796	4.75
813.539	5.75
814.283	6.75
815.026	5.75
815.769	3.75
816.511	4.75
817.254	3.75
817.997	3.75
818.74	3.75
819.482	2.75
820.225	3.75
820.967	4.75
821.71	2.75
822.452	3.75
823.194	2.75
823.936	5.75
824.678	5.75
825.42	4.75
826.162	2.75
826.904	3.75
827.646	4.75
828.388	3.75
829.129	4.75
829.871	1.75
830.612	2.75
831.354	4.75
832.095	3.75
832.836	2.75
833.577	2.75
834.319	-0.25
835.06	3.75
835.801	3.75
836.542	4.75
837.282	2.75
838.023	3.75
838.764	5.75
839.504	2.75
840.245	2.75
840.985	2.75
841.726	5.75
842.466	4.75
843.206	2.75
843.946	2.75
844.687	0.75
845.427	4.75
846.166	2.75
846.906	2.75
847.646	4.75
848.386	0.75
849.125	2.75
849.865	2.75
850.605	3.75
851.344	1.75
852.083	0.75
852.823	-0.25
853.562	0.75
854.301	2.75
855.04	1.75
855.779	1.75
856.518	1.75
857.257	4.75
857.995	1.75
858.734	1.75
859.473	2.75
860.211	1.75
860.95	0.75
861.688	4.75
862.426	-0.25
863.165	2.75
863.903	0.75
864.641	1.75
865.379	2.75
866.117	1.75
866.855	1.75
867.593	0.75
868.33	2.75
869.068	-0.25
869.806	1.75
870.543	0.75
871.28	-0.25
872.018	0.75
872.755	1.75
873.492	1.75
874.229	3.75
874.967	3.75
875.703	1.75
876.44	-0.25
877.177	0.75
877.914	-0.25
878.651	3.75
879.387	-0.25
880.124	1.75
880.86	1.75
881.597	1.75
882.333	2.75
883.069	1.75
883.806	2.75
884.542	-0.25
885.278	-0.25
886.014	1.75
886.749	-0.25
887.485	2.75
888.221	1.75
888.957	-0.25
889.692	1.75
890.428	0.75
891.163	-2.25
891.899	-0.25
892.634	1.75
893.369	1.75
894.104	0.75
894.839	1.75
895.574	0.75
896.309	0.75
897.044	0.75
897.779	0.75
898.514	0.75
899.248	-1.25
899.983	-0.25
900.717	0.75
901.452	1.75
902.186	-0.25
902.92	-0.25
903.654	-0.25
904.389	-0.25
905.123	3.75
905.857	1.75
906.59	3.75
907.324	-0.25
908.058	0.75
908.792	1.75
909.525	-2.25
910.259	1.75
910.992	1.75
911.726	1.75
912.459	1.75
913.192	0.75
913.925	0.75
914.658	0.75
915.391	0.75
916.124	-1.25
916.857	-0.25
917.59	1.75
918.323	0.75
919.055	0.75
919.788	-0.25
920.521	0.75
921.253	-2.25
921.985	1.75
922.718	0.75
923.45	-0.25
924.182	-0.25
924.914	0.75
925.646	1.75
926.378	-0.25
927.11	1.75
927.841	-0.25
928.573	0.75
929.305	-0.25
930.036	-2.25
930.768	-0.25
931.499	1.75
932.23	-1.25
932.962	0.75
933.693	0.75
934.424	-1.25
935.155	0.75
935.886	-1.25
936.617	-0.25
937.348	0.75
938.078	-0.25
938.809	-0.25
939.54	-2.25
940.27	-0.25
941.001	1.75
941.731	3.75
942.461	-0.25
943.191	-0.25
943.922	-0.25
944.652	0.75
945.382	0.75
946.112	-0.25
946.841	-0.25
947.571	-2.25
948.301	0.75
949.031	-0.25
949.76	-0.25
950.49	-2.25
951.219	-2.25
951.948	1.75
952.678	1.75
953.407	0.75
954.136	-1.25
954.865	1.75
955.594	0.75
956.323	-1.25
957.052	1.75
957.78	0.75
958.509	0.75
959.238	-1.25
959.966	-1.25
960.695	-1.25
961.423	0.75
962.151	1.75
962.88	-0.25
963.608	2.75
964.336	0.75
965.064	0.75
965.792	0.75
966.52	-0.25
967.247	-0.25
967.975	0.75
968.703	0.75
969.43	0.75
970.158	0.75
970.885	-1.25
971.613	-1.25
972.34	1.75
973.067	0.75
973.794	-0.25
974.521	0.75
975.248	-0.25
975.975	0.75
976.702	0.75
977.429	1.75
978.156	0.75
978.882	-1.25
979.609	1.75
980.335	-0.25
981.062	0.75
981.788	-0.25
982.514	1.75
983.24	-2.25
983.967	1.75
984.693	2.75
985.419	-1.25
986.144	2.75
986.87	0.75
987.596	0.75
988.322	-2.25
989.047	1.75
989.773	0.75
990.498	0.75
991.224	-2.25
991.949	1.75
992.674	-1.25
993.399	0.75
994.124	-1.25
994.849	1.75
995.574	-2.25
996.299	-1.25
997.024	-0.25
997.749	0.75
998.473	3.75
999.198	-0.25
999.922	0.75
1000.647	-0.25
1001.371	2.75
1002.095	-0.25
1002.82	-2.25
1003.544	-1.25
1004.268	-1.25
1004.992	3.75
1005.716	0.75
1006.439	-0.25
1007.163	-0.25
1007.887	-0.25
1008.611	-0.25
1009.334	1.75
1010.058	-0.25
1010.781	0.75
1011.504	0.75
1012.228	2.75
1012.951	-0.25
1013.674	-0.25
1014.397	0.75
1015.12	0.75
