节点500_285_QEPB04081__407__15-02-19-612.txt的数据

Date: Wed Nov 12 15:02:19 CST 2025
User: PC
Spectrometer: QEPB0408
触发模式: 0
积分时间 (秒): 1.000000E-2
Scans to average: 1
启用暗噪声校正: true
启用非线性校正: false
滑动平均宽度: 0
X轴模式: Wavelengths
Number of Pixels in Spectrum: 1044
>>>>>Begin Spectral Data<<<<<
220.843	1.25
221.644	0.25
222.444	3.25
223.244	2.25
224.045	0.25
224.845	2.25
225.645	2.25
226.445	3.25
227.245	5.25
228.045	0.25
228.845	5.25
229.645	3.25
230.444	2.25
231.244	2.25
232.043	2.25
232.843	5.25
233.642	3.25
234.442	4.25
235.241	5.25
236.04	3.25
236.839	3.25
237.638	5.25
238.437	5.25
239.236	7.25
240.035	5.25
240.833	5.25
241.632	6.25
242.43	6.25
243.229	5.25
244.027	4.25
244.826	4.25
245.624	5.25
246.422	6.25
247.22	5.25
248.018	7.25
248.816	2.25
249.614	5.25
250.412	10.25
251.21	6.25
252.007	10.25
252.805	7.25
253.602	7.25
254.4	7.25
255.197	8.25
255.994	9.25
256.791	8.25
257.589	10.25
258.386	7.25
259.183	9.25
259.979	9.25
260.776	7.25
261.573	10.25
262.37	11.25
263.166	12.25
263.963	10.25
264.759	7.25
265.556	13.25
266.352	13.25
267.148	14.25
267.944	14.25
268.74	13.25
269.536	16.25
270.332	14.25
271.128	17.25
271.924	14.25
272.719	17.25
273.515	15.25
274.311	17.25
275.106	16.25
275.901	14.25
276.697	18.25
277.492	15.25
278.287	18.25
279.082	19.25
279.877	17.25
280.672	16.25
281.467	21.25
282.262	19.25
283.056	18.25
283.851	17.25
284.646	21.25
285.44	17.25
286.234	17.25
287.029	17.25
287.823	19.25
288.617	19.25
289.411	19.25
290.205	15.25
290.999	15.25
291.793	17.25
292.587	16.25
293.381	18.25
294.174	16.25
294.968	15.25
295.761	17.25
296.555	14.25
297.348	14.25
298.141	15.25
298.935	14.25
299.728	18.25
300.521	14.25
301.314	14.25
302.107	12.25
302.899	14.25
303.692	12.25
304.485	12.25
305.277	12.25
306.07	11.25
306.862	12.25
307.655	10.25
308.447	13.25
309.239	13.25
310.031	10.25
310.823	10.25
311.615	10.25
312.407	6.25
313.199	10.25
313.991	10.25
314.783	9.25
315.574	9.25
316.366	9.25
317.157	9.25
317.949	8.25
318.74	9.25
319.531	9.25
320.322	8.25
321.113	5.25
321.904	8.25
322.695	7.25
323.486	7.25
324.277	7.25
325.068	4.25
325.858	7.25
326.649	8.25
327.439	8.25
328.23	6.25
329.02	7.25
329.81	9.25
330.6	8.25
331.391	7.25
332.181	7.25
332.971	9.25
333.76	6.25
334.55	10.25
335.34	5.25
336.13	6.25
336.919	7.25
337.709	6.25
338.498	10.25
339.287	9.25
340.077	5.25
340.866	4.25
341.655	6.25
342.444	5.25
343.233	8.25
344.022	8.25
344.811	9.25
345.6	6.25
346.388	6.25
347.177	5.25
347.965	4.25
348.754	10.25
349.542	6.25
350.33	6.25
351.119	3.25
351.907	6.25
352.695	7.25
353.483	5.25
354.271	6.25
355.059	8.25
355.846	4.25
356.634	6.25
357.422	6.25
358.209	7.25
358.997	6.25
359.784	7.25
360.571	2.25
361.359	3.25
362.146	5.25
362.933	7.25
363.72	6.25
364.507	6.25
365.294	5.25
366.081	4.25
366.867	5.25
367.654	6.25
368.44	5.25
369.227	3.25
370.013	5.25
370.8	3.25
371.586	5.25
372.372	7.25
373.158	7.25
373.944	6.25
374.73	8.25
375.516	2.25
376.302	7.25
377.088	4.25
377.873	6.25
378.659	8.25
379.445	6.25
380.23	5.25
381.015	4.25
381.801	6.25
382.586	6.25
383.371	5.25
384.156	6.25
384.941	4.25
385.726	7.25
386.511	5.25
387.296	9.25
388.08	7.25
388.865	5.25
389.649	8.25
390.434	4.25
391.218	6.25
392.003	4.25
392.787	6.25
393.571	6.25
394.355	7.25
395.139	6.25
395.923	3.25
396.707	8.25
397.491	7.25
398.274	6.25
399.058	9.25
399.842	7.25
400.625	7.25
401.408	5.25
402.192	4.25
402.975	8.25
403.758	8.25
404.541	7.25
405.324	8.25
406.107	9.25
406.89	6.25
407.673	8.25
408.456	8.25
409.238	9.25
410.021	9.25
410.803	7.25
411.586	7.25
412.368	7.25
413.151	8.25
413.933	10.25
414.715	10.25
415.497	9.25
416.279	7.25
417.061	11.25
417.843	7.25
418.624	9.25
419.406	11.25
420.188	10.25
420.969	10.25
421.751	8.25
422.532	12.25
423.313	11.25
424.095	11.25
424.876	11.25
425.657	14.25
426.438	12.25
427.219	13.25
428	11.25
428.78	14.25
429.561	16.25
430.342	10.25
431.122	15.25
431.903	15.25
432.683	14.25
433.464	16.25
434.244	16.25
435.024	16.25
435.804	18.25
436.584	18.25
437.364	20.25
438.144	18.25
438.924	21.25
439.704	20.25
440.483	20.25
441.263	21.25
442.042	24.25
442.822	26.25
443.601	29.25
444.38	29.25
445.16	30.25
445.939	35.25
446.718	35.25
447.497	41.25
448.276	42.25
449.054	40.25
449.833	50.25
450.612	54.25
451.391	56.25
452.169	62.25
452.948	67.25
453.726	76.25
454.504	83.25
455.282	91.25
456.061	102.25
456.839	112.25
457.617	123.25
458.395	138.25
459.172	151.25
459.95	170.25
460.728	192.25
461.506	209.25
462.283	231.25
463.061	259.25
463.838	293.25
464.615	326.25
465.393	364.25
466.17	414.25
466.947	451.25
467.724	506.25
468.501	572.25
469.278	628.25
470.055	695.25
470.831	782.25
471.608	864.25
472.385	957.25
473.161	1061.25
473.938	1172.25
474.714	1308.25
475.49	1437.25
476.266	1586.25
477.043	1760.25
477.819	1919.25
478.595	2120.25
479.371	2338.25
480.146	2584.25
480.922	2849.25
481.698	3140.25
482.473	3460.25
483.249	3798.25
484.024	4144.25
484.8	4585.25
485.575	5019.25
486.35	5521.25
487.126	6042.25
487.901	6628.25
488.676	7266.25
489.451	7915.25
490.225	8698.25
491	9447.25
491.775	10329.25
492.55	11232.25
493.324	12188.25
494.099	13034.25
494.873	14117.25
495.647	15247.25
496.422	16337.25
497.196	17470.25
497.97	18685.25
498.744	19836.25
499.518	20962.25
500.292	22102.25
501.066	23197.25
501.839	24125.25
502.613	25032.25
503.387	25850.25
504.16	26518.25
504.934	26848.25
505.707	26978.25
506.48	27121.25
507.253	27102.25
508.027	26844.25
508.8	26565.25
509.573	26222.25
510.346	25685.25
511.118	24884.25
511.891	24162.25
512.664	23312.25
513.437	22461.25
514.209	21637.25
514.982	20686.25
515.754	19846.25
516.526	18903.25
517.298	18073.25
518.071	17322.25
518.843	16666.25
519.615	16010.25
520.387	15433.25
521.159	14786.25
521.93	14219.25
522.702	13668.25
523.474	13062.25
524.245	12541.25
525.017	11965.25
525.788	11517.25
526.56	10998.25
527.331	10473.25
528.102	10008.25
528.873	9577.25
529.644	9084.25
530.415	8650.25
531.186	8226.25
531.957	7819.25
532.728	7464.25
533.498	7037.25
534.269	6661.25
535.039	6268.25
535.81	5905.25
536.58	5600.25
537.351	5291.25
538.121	4995.25
538.891	4732.25
539.661	4442.25
540.431	4235.25
541.201	4006.25
541.971	3770.25
542.741	3564.25
543.51	3419.25
544.28	3252.25
545.05	3090.25
545.819	2939.25
546.588	2798.25
547.358	2623.25
548.127	2509.25
548.896	2369.25
549.665	2256.25
550.434	2142.25
551.203	2012.25
551.972	1914.25
552.741	1814.25
553.51	1728.25
554.278	1629.25
555.047	1515.25
555.815	1448.25
556.584	1386.25
557.352	1299.25
558.121	1216.25
558.889	1145.25
559.657	1092.25
560.425	1015.25
561.193	970.25
561.961	903.25
562.729	862.25
563.496	821.25
564.264	770.25
565.032	727.25
565.799	682.25
566.567	647.25
567.334	619.25
568.101	590.25
568.869	546.25
569.636	514.25
570.403	488.25
571.17	465.25
571.937	434.25
572.704	412.25
573.471	389.25
574.237	360.25
575.004	350.25
575.771	324.25
576.537	305.25
577.303	286.25
578.07	266.25
578.836	251.25
579.602	243.25
580.368	232.25
581.134	210.25
581.9	199.25
582.666	192.25
583.432	185.25
584.198	176.25
584.964	163.25
585.729	157.25
586.495	145.25
587.26	139.25
588.025	129.25
588.791	125.25
589.556	115.25
590.321	118.25
591.086	113.25
591.851	100.25
592.616	101.25
593.381	93.25
594.146	88.25
594.911	83.25
595.675	81.25
596.44	73.25
597.204	74.25
597.969	68.25
598.733	68.25
599.497	60.25
600.261	58.25
601.025	56.25
601.79	55.25
602.553	52.25
603.317	53.25
604.081	48.25
604.845	49.25
605.609	44.25
606.372	44.25
607.136	41.25
607.899	38.25
608.662	36.25
609.426	36.25
610.189	38.25
610.952	35.25
611.715	33.25
612.478	31.25
613.241	29.25
614.004	28.25
614.767	28.25
615.529	25.25
616.292	26.25
617.055	23.25
617.817	26.25
618.579	23.25
619.342	25.25
620.104	20.25
620.866	23.25
621.628	21.25
622.39	17.25
623.152	18.25
623.914	15.25
624.676	19.25
625.438	18.25
626.199	15.25
626.961	18.25
627.722	14.25
628.484	14.25
629.245	17.25
630.006	13.25
630.768	16.25
631.529	11.25
632.29	16.25
633.051	10.25
633.812	14.25
634.573	12.25
635.333	11.25
636.094	13.25
636.855	10.25
637.615	9.25
638.376	11.25
639.136	13.25
639.896	12.25
640.657	9.25
641.417	12.25
642.177	8.25
642.937	10.25
643.697	8.25
644.457	5.25
645.216	9.25
645.976	8.25
646.736	9.25
647.495	9.25
648.255	10.25
649.014	6.25
649.774	4.25
650.533	7.25
651.292	5.25
652.051	6.25
652.81	6.25
653.569	9.25
654.328	8.25
655.087	8.25
655.846	5.25
656.604	5.25
657.363	5.25
658.121	5.25
658.88	7.25
659.638	8.25
660.397	7.25
661.155	5.25
661.913	5.25
662.671	6.25
663.429	7.25
664.187	6.25
664.945	5.25
665.703	6.25
666.46	6.25
667.218	6.25
667.976	4.25
668.733	4.25
669.49	5.25
670.248	5.25
671.005	7.25
671.762	5.25
672.519	6.25
673.276	4.25
674.033	5.25
674.79	4.25
675.547	4.25
676.304	2.25
677.06	6.25
677.817	4.25
678.574	5.25
679.33	7.25
680.086	4.25
680.843	2.25
681.599	2.25
682.355	4.25
683.111	3.25
683.867	4.25
684.623	3.25
685.379	4.25
686.135	6.25
686.89	3.25
687.646	2.25
688.402	3.25
689.157	4.25
689.912	4.25
690.668	2.25
691.423	3.25
692.178	5.25
692.933	5.25
693.688	6.25
694.443	5.25
695.198	5.25
695.953	3.25
696.708	3.25
697.462	3.25
698.217	6.25
698.972	5.25
699.726	5.25
700.48	3.25
701.235	3.25
701.989	5.25
702.743	3.25
703.497	4.25
704.251	3.25
705.005	3.25
705.759	4.25
706.513	3.25
707.266	3.25
708.02	4.25
708.774	4.25
709.527	5.25
710.28	3.25
711.034	2.25
711.787	4.25
712.54	3.25
713.293	3.25
714.046	2.25
714.799	3.25
715.552	3.25
716.305	4.25
717.058	5.25
717.81	3.25
718.563	3.25
719.315	3.25
720.068	2.25
720.82	3.25
721.573	5.25
722.325	4.25
723.077	5.25
723.829	3.25
724.581	2.25
725.333	4.25
726.085	4.25
726.836	3.25
727.588	5.25
728.34	1.25
729.091	3.25
729.843	4.25
730.594	4.25
731.346	5.25
732.097	4.25
732.848	5.25
733.599	3.25
734.35	6.25
735.101	4.25
735.852	5.25
736.603	4.25
737.354	3.25
738.104	6.25
738.855	3.25
739.605	5.25
740.356	5.25
741.106	1.25
741.856	6.25
742.607	4.25
743.357	5.25
744.107	6.25
744.857	5.25
745.607	7.25
746.357	3.25
747.106	9.25
747.856	7.25
748.606	4.25
749.355	8.25
750.105	6.25
750.854	5.25
751.603	7.25
752.353	7.25
753.102	6.25
753.851	6.25
754.6	7.25
755.349	5.25
756.098	5.25
756.847	4.25
757.595	9.25
758.344	7.25
759.093	7.25
759.841	3.25
760.589	5.25
761.338	7.25
762.086	6.25
762.834	8.25
763.582	7.25
764.331	6.25
765.079	6.25
765.826	5.25
766.574	8.25
767.322	7.25
768.07	8.25
768.817	7.25
769.565	7.25
770.312	7.25
771.06	5.25
771.807	13.25
772.554	7.25
773.302	7.25
774.049	11.25
774.796	8.25
775.543	9.25
776.29	10.25
777.036	8.25
777.783	8.25
778.53	10.25
779.276	9.25
780.023	8.25
780.769	7.25
781.516	9.25
782.262	9.25
783.008	10.25
783.754	10.25
784.5	9.25
785.246	11.25
785.992	8.25
786.738	8.25
787.484	10.25
788.23	7.25
788.975	9.25
789.721	8.25
790.466	8.25
791.212	10.25
791.957	7.25
792.702	7.25
793.447	10.25
794.193	10.25
794.938	7.25
795.683	7.25
796.427	7.25
797.172	9.25
797.917	10.25
798.662	8.25
799.406	9.25
800.151	9.25
800.895	7.25
801.64	8.25
802.384	9.25
803.128	6.25
803.872	8.25
804.616	6.25
805.36	6.25
806.104	6.25
806.848	6.25
807.592	6.25
808.336	5.25
809.079	8.25
809.823	5.25
810.566	5.25
811.31	7.25
812.053	4.25
812.796	8.25
813.539	5.25
814.283	5.25
815.026	4.25
815.769	6.25
816.511	3.25
817.254	4.25
817.997	5.25
818.74	5.25
819.482	8.25
820.225	5.25
820.967	5.25
821.71	6.25
822.452	4.25
823.194	2.25
823.936	6.25
824.678	5.25
825.42	2.25
826.162	2.25
826.904	5.25
827.646	2.25
828.388	5.25
829.129	5.25
829.871	4.25
830.612	4.25
831.354	2.25
832.095	3.25
832.836	5.25
833.577	3.25
834.319	2.25
835.06	4.25
835.801	7.25
836.542	4.25
837.282	5.25
838.023	2.25
838.764	4.25
839.504	5.25
840.245	4.25
840.985	2.25
841.726	3.25
842.466	4.25
843.206	4.25
843.946	4.25
844.687	4.25
845.427	3.25
846.166	2.25
846.906	3.25
847.646	4.25
848.386	2.25
849.125	3.25
849.865	3.25
850.605	1.25
851.344	6.25
852.083	6.25
852.823	5.25
853.562	4.25
854.301	3.25
855.04	5.25
855.779	3.25
856.518	3.25
857.257	4.25
857.995	3.25
858.734	4.25
859.473	1.25
860.211	2.25
860.95	2.25
861.688	2.25
862.426	1.25
863.165	2.25
863.903	4.25
864.641	2.25
865.379	3.25
866.117	4.25
866.855	2.25
867.593	2.25
868.33	-1.75
869.068	2.25
869.806	1.25
870.543	4.25
871.28	2.25
872.018	1.25
872.755	4.25
873.492	1.25
874.229	2.25
874.967	1.25
875.703	1.25
876.44	1.25
877.177	1.25
877.914	1.25
878.651	1.25
879.387	3.25
880.124	0.25
880.86	2.25
881.597	-1.75
882.333	0.25
883.069	2.25
883.806	0.25
884.542	2.25
885.278	1.25
886.014	0.25
886.749	0.25
887.485	-0.75
888.221	0.25
888.957	1.25
889.692	2.25
890.428	1.25
891.163	-1.75
891.899	0.25
892.634	1.25
893.369	-0.75
894.104	2.25
894.839	1.25
895.574	3.25
896.309	0.25
897.044	1.25
897.779	1.25
898.514	1.25
899.248	0.25
899.983	2.25
900.717	2.25
901.452	1.25
902.186	2.25
902.92	-0.75
903.654	1.25
904.389	0.25
905.123	0.25
905.857	2.25
906.59	-0.75
907.324	1.25
908.058	0.25
908.792	0.25
909.525	3.25
910.259	-0.75
910.992	2.25
911.726	0.25
912.459	1.25
913.192	-1.75
913.925	0.25
914.658	-0.75
915.391	1.25
916.124	1.25
916.857	0.25
917.59	2.25
918.323	0.25
919.055	1.25
919.788	1.25
920.521	0.25
921.253	2.25
921.985	-1.75
922.718	2.25
923.45	1.25
924.182	2.25
924.914	1.25
925.646	0.25
926.378	0.25
927.11	-0.75
927.841	-0.75
928.573	1.25
929.305	-1.75
930.036	2.25
930.768	0.25
931.499	2.25
932.23	-0.75
932.962	-0.75
933.693	1.25
934.424	-0.75
935.155	2.25
935.886	0.25
936.617	2.25
937.348	2.25
938.078	1.25
938.809	-0.75
939.54	1.25
940.27	1.25
941.001	0.25
941.731	0.25
942.461	1.25
943.191	2.25
943.922	3.25
944.652	1.25
945.382	1.25
946.112	0.25
946.841	2.25
947.571	0.25
948.301	1.25
949.031	2.25
949.76	0.25
950.49	0.25
951.219	1.25
951.948	2.25
952.678	1.25
953.407	0.25
954.136	1.25
954.865	1.25
955.594	1.25
956.323	0.25
957.052	-0.75
957.78	2.25
958.509	0.25
959.238	0.25
959.966	0.25
960.695	-0.75
961.423	0.25
962.151	0.25
962.88	0.25
963.608	0.25
964.336	-1.75
965.064	1.25
965.792	2.25
966.52	1.25
967.247	1.25
967.975	1.25
968.703	-1.75
969.43	3.25
970.158	0.25
970.885	1.25
971.613	2.25
972.34	-1.75
973.067	0.25
973.794	1.25
974.521	0.25
975.248	0.25
975.975	0.25
976.702	2.25
977.429	0.25
978.156	2.25
978.882	1.25
979.609	1.25
980.335	1.25
981.062	0.25
981.788	0.25
982.514	-0.75
983.24	-0.75
983.967	-1.75
984.693	2.25
985.419	1.25
986.144	-0.75
986.87	1.25
987.596	0.25
988.322	-0.75
989.047	1.25
989.773	0.25
990.498	1.25
991.224	1.25
991.949	0.25
992.674	3.25
993.399	-0.75
994.124	-1.75
994.849	-0.75
995.574	1.25
996.299	0.25
997.024	1.25
997.749	1.25
998.473	0.25
999.198	-1.75
999.922	1.25
1000.647	1.25
1001.371	3.25
1002.095	-0.75
1002.82	-1.75
1003.544	-3.75
1004.268	2.25
1004.992	0.25
1005.716	1.25
1006.439	2.25
1007.163	2.25
1007.887	-0.75
1008.611	1.25
1009.334	0.25
1010.058	-0.75
1010.781	-1.75
1011.504	0.25
1012.228	-0.75
1012.951	0.25
1013.674	1.25
1014.397	0.25
1015.12	1.25
