节点500_285_QEPB04081__482__15-03-34-443.txt的数据

Date: Wed Nov 12 15:03:34 CST 2025
User: PC
Spectrometer: QEPB0408
触发模式: 0
积分时间 (秒): 1.000000E-2
Scans to average: 1
启用暗噪声校正: true
启用非线性校正: false
滑动平均宽度: 0
X轴模式: Wavelengths
Number of Pixels in Spectrum: 1044
>>>>>Begin Spectral Data<<<<<
220.843	2.38
221.644	3.38
222.444	3.38
223.244	3.38
224.045	2.38
224.845	4.38
225.645	3.38
226.445	2.38
227.245	2.38
228.045	3.38
228.845	6.38
229.645	5.38
230.444	4.38
231.244	2.38
232.043	2.38
232.843	1.38
233.642	3.38
234.442	3.38
235.241	3.38
236.04	3.38
236.839	4.38
237.638	3.38
238.437	6.38
239.236	4.38
240.035	4.38
240.833	5.38
241.632	4.38
242.43	5.38
243.229	4.38
244.027	4.38
244.826	4.38
245.624	4.38
246.422	6.38
247.22	5.38
248.018	8.38
248.816	5.38
249.614	6.38
250.412	6.38
251.21	6.38
252.007	6.38
252.805	4.38
253.602	7.38
254.4	7.38
255.197	7.38
255.994	9.38
256.791	6.38
257.589	8.38
258.386	9.38
259.183	10.38
259.979	8.38
260.776	8.38
261.573	10.38
262.37	11.38
263.166	11.38
263.963	12.38
264.759	12.38
265.556	11.38
266.352	12.38
267.148	12.38
267.944	11.38
268.74	15.38
269.536	14.38
270.332	15.38
271.128	16.38
271.924	13.38
272.719	17.38
273.515	15.38
274.311	18.38
275.106	17.38
275.901	17.38
276.697	17.38
277.492	17.38
278.287	19.38
279.082	21.38
279.877	20.38
280.672	17.38
281.467	18.38
282.262	20.38
283.056	18.38
283.851	19.38
284.646	17.38
285.44	18.38
286.234	19.38
287.029	18.38
287.823	19.38
288.617	19.38
289.411	20.38
290.205	19.38
290.999	20.38
291.793	18.38
292.587	17.38
293.381	16.38
294.174	15.38
294.968	15.38
295.761	16.38
296.555	15.38
297.348	18.38
298.141	13.38
298.935	17.38
299.728	15.38
300.521	16.38
301.314	17.38
302.107	12.38
302.899	12.38
303.692	12.38
304.485	12.38
305.277	14.38
306.07	12.38
306.862	15.38
307.655	12.38
308.447	14.38
309.239	12.38
310.031	12.38
310.823	9.38
311.615	11.38
312.407	10.38
313.199	9.38
313.991	9.38
314.783	10.38
315.574	8.38
316.366	10.38
317.157	7.38
317.949	9.38
318.74	8.38
319.531	12.38
320.322	9.38
321.113	7.38
321.904	10.38
322.695	7.38
323.486	6.38
324.277	9.38
325.068	11.38
325.858	9.38
326.649	8.38
327.439	11.38
328.23	6.38
329.02	8.38
329.81	7.38
330.6	7.38
331.391	6.38
332.181	8.38
332.971	9.38
333.76	6.38
334.55	8.38
335.34	6.38
336.13	5.38
336.919	8.38
337.709	7.38
338.498	8.38
339.287	6.38
340.077	7.38
340.866	6.38
341.655	8.38
342.444	4.38
343.233	5.38
344.022	6.38
344.811	7.38
345.6	6.38
346.388	6.38
347.177	7.38
347.965	8.38
348.754	6.38
349.542	6.38
350.33	6.38
351.119	6.38
351.907	7.38
352.695	7.38
353.483	7.38
354.271	6.38
355.059	5.38
355.846	6.38
356.634	7.38
357.422	5.38
358.209	6.38
358.997	6.38
359.784	7.38
360.571	5.38
361.359	6.38
362.146	5.38
362.933	7.38
363.72	7.38
364.507	5.38
365.294	5.38
366.081	6.38
366.867	6.38
367.654	2.38
368.44	7.38
369.227	6.38
370.013	7.38
370.8	7.38
371.586	5.38
372.372	6.38
373.158	5.38
373.944	6.38
374.73	6.38
375.516	7.38
376.302	6.38
377.088	2.38
377.873	7.38
378.659	5.38
379.445	5.38
380.23	6.38
381.015	4.38
381.801	4.38
382.586	6.38
383.371	7.38
384.156	7.38
384.941	6.38
385.726	7.38
386.511	4.38
387.296	7.38
388.08	6.38
388.865	6.38
389.649	5.38
390.434	7.38
391.218	8.38
392.003	8.38
392.787	5.38
393.571	7.38
394.355	8.38
395.139	7.38
395.923	6.38
396.707	4.38
397.491	9.38
398.274	8.38
399.058	8.38
399.842	7.38
400.625	9.38
401.408	5.38
402.192	8.38
402.975	6.38
403.758	8.38
404.541	7.38
405.324	6.38
406.107	7.38
406.89	7.38
407.673	8.38
408.456	6.38
409.238	5.38
410.021	7.38
410.803	7.38
411.586	8.38
412.368	7.38
413.151	9.38
413.933	11.38
414.715	9.38
415.497	10.38
416.279	10.38
417.061	9.38
417.843	7.38
418.624	10.38
419.406	9.38
420.188	10.38
420.969	11.38
421.751	9.38
422.532	11.38
423.313	12.38
424.095	10.38
424.876	11.38
425.657	10.38
426.438	12.38
427.219	11.38
428	14.38
428.78	14.38
429.561	14.38
430.342	16.38
431.122	11.38
431.903	14.38
432.683	15.38
433.464	17.38
434.244	16.38
435.024	16.38
435.804	15.38
436.584	19.38
437.364	20.38
438.144	21.38
438.924	22.38
439.704	23.38
440.483	20.38
441.263	24.38
442.042	25.38
442.822	26.38
443.601	27.38
444.38	30.38
445.16	32.38
445.939	34.38
446.718	39.38
447.497	40.38
448.276	43.38
449.054	41.38
449.833	53.38
450.612	55.38
451.391	54.38
452.169	65.38
452.948	72.38
453.726	78.38
454.504	84.38
455.282	95.38
456.061	101.38
456.839	115.38
457.617	126.38
458.395	142.38
459.172	160.38
459.95	169.38
460.728	191.38
461.506	209.38
462.283	236.38
463.061	272.38
463.838	302.38
464.615	333.38
465.393	380.38
466.17	412.38
466.947	458.38
467.724	507.38
468.501	564.38
469.278	636.38
470.055	706.38
470.831	778.38
471.608	862.38
472.385	965.38
473.161	1062.38
473.938	1175.38
474.714	1305.38
475.49	1438.38
476.266	1595.38
477.043	1763.38
477.819	1939.38
478.595	2137.38
479.371	2346.38
480.146	2595.38
480.922	2838.38
481.698	3112.38
482.473	3447.38
483.249	3771.38
484.024	4136.38
484.8	4590.38
485.575	4991.38
486.35	5450.38
487.126	6007.38
487.901	6569.38
488.676	7162.38
489.451	7836.38
490.225	8538.38
491	9319.38
491.775	10171.38
492.55	11083.38
493.324	12042.38
494.099	12916.38
494.873	13929.38
495.647	15032.38
496.422	16120.38
497.196	17204.38
497.97	18400.38
498.744	19590.38
499.518	20636.38
500.292	21788.38
501.066	22850.38
501.839	23720.38
502.613	24689.38
503.387	25504.38
504.16	26180.38
504.934	26531.38
505.707	26747.38
506.48	26956.38
507.253	26891.38
508.027	26742.38
508.8	26372.38
509.573	26084.38
510.346	25556.38
511.118	24870.38
511.891	24067.38
512.664	23290.38
513.437	22477.38
514.209	21601.38
514.982	20711.38
515.754	19857.38
516.526	18974.38
517.298	18097.38
518.071	17367.38
518.843	16732.38
519.615	16024.38
520.387	15463.38
521.159	14803.38
521.93	14225.38
522.702	13667.38
523.474	13110.38
524.245	12535.38
525.017	11984.38
525.788	11577.38
526.56	11001.38
527.331	10550.38
528.102	10054.38
528.873	9583.38
529.644	9118.38
530.415	8665.38
531.186	8269.38
531.957	7845.38
532.728	7480.38
533.498	7092.38
534.269	6665.38
535.039	6292.38
535.81	5980.38
536.58	5633.38
537.351	5345.38
538.121	5052.38
538.891	4763.38
539.661	4487.38
540.431	4225.38
541.201	4012.38
541.971	3804.38
542.741	3565.38
543.51	3408.38
544.28	3264.38
545.05	3102.38
545.819	2936.38
546.588	2803.38
547.358	2668.38
548.127	2530.38
548.896	2401.38
549.665	2279.38
550.434	2154.38
551.203	2040.38
551.972	1936.38
552.741	1815.38
553.51	1733.38
554.278	1636.38
555.047	1535.38
555.815	1463.38
556.584	1388.38
557.352	1294.38
558.121	1233.38
558.889	1147.38
559.657	1102.38
560.425	1033.38
561.193	968.38
561.961	913.38
562.729	885.38
563.496	823.38
564.264	769.38
565.032	739.38
565.799	701.38
566.567	661.38
567.334	622.38
568.101	580.38
568.869	547.38
569.636	520.38
570.403	490.38
571.17	466.38
571.937	439.38
572.704	415.38
573.471	386.38
574.237	369.38
575.004	352.38
575.771	326.38
576.537	307.38
577.303	295.38
578.07	270.38
578.836	254.38
579.602	241.38
580.368	230.38
581.134	216.38
581.9	207.38
582.666	202.38
583.432	190.38
584.198	175.38
584.964	166.38
585.729	154.38
586.495	151.38
587.26	142.38
588.025	134.38
588.791	122.38
589.556	118.38
590.321	112.38
591.086	105.38
591.851	107.38
592.616	95.38
593.381	86.38
594.146	90.38
594.911	86.38
595.675	81.38
596.44	76.38
597.204	74.38
597.969	72.38
598.733	63.38
599.497	61.38
600.261	60.38
601.025	60.38
601.79	57.38
602.553	49.38
603.317	51.38
604.081	50.38
604.845	48.38
605.609	46.38
606.372	44.38
607.136	40.38
607.899	39.38
608.662	40.38
609.426	37.38
610.189	32.38
610.952	33.38
611.715	33.38
612.478	30.38
613.241	27.38
614.004	29.38
614.767	29.38
615.529	29.38
616.292	24.38
617.055	25.38
617.817	24.38
618.579	23.38
619.342	24.38
620.104	21.38
620.866	22.38
621.628	21.38
622.39	21.38
623.152	20.38
623.914	18.38
624.676	16.38
625.438	16.38
626.199	18.38
626.961	17.38
627.722	15.38
628.484	18.38
629.245	14.38
630.006	15.38
630.768	16.38
631.529	16.38
632.29	12.38
633.051	9.38
633.812	13.38
634.573	13.38
635.333	11.38
636.094	10.38
636.855	8.38
637.615	10.38
638.376	10.38
639.136	8.38
639.896	9.38
640.657	10.38
641.417	10.38
642.177	11.38
642.937	8.38
643.697	8.38
644.457	7.38
645.216	11.38
645.976	11.38
646.736	9.38
647.495	7.38
648.255	8.38
649.014	7.38
649.774	9.38
650.533	7.38
651.292	8.38
652.051	7.38
652.81	6.38
653.569	8.38
654.328	6.38
655.087	7.38
655.846	7.38
656.604	6.38
657.363	5.38
658.121	5.38
658.88	4.38
659.638	4.38
660.397	7.38
661.155	5.38
661.913	6.38
662.671	4.38
663.429	4.38
664.187	7.38
664.945	6.38
665.703	5.38
666.46	5.38
667.218	4.38
667.976	7.38
668.733	5.38
669.49	5.38
670.248	6.38
671.005	3.38
671.762	6.38
672.519	6.38
673.276	4.38
674.033	5.38
674.79	5.38
675.547	6.38
676.304	4.38
677.06	5.38
677.817	5.38
678.574	5.38
679.33	3.38
680.086	5.38
680.843	3.38
681.599	5.38
682.355	4.38
683.111	4.38
683.867	4.38
684.623	5.38
685.379	2.38
686.135	4.38
686.89	2.38
687.646	4.38
688.402	1.38
689.157	5.38
689.912	4.38
690.668	5.38
691.423	3.38
692.178	4.38
692.933	4.38
693.688	4.38
694.443	7.38
695.198	4.38
695.953	2.38
696.708	4.38
697.462	4.38
698.217	5.38
698.972	2.38
699.726	2.38
700.48	4.38
701.235	4.38
701.989	5.38
702.743	2.38
703.497	6.38
704.251	5.38
705.005	3.38
705.759	4.38
706.513	3.38
707.266	5.38
708.02	4.38
708.774	4.38
709.527	3.38
710.28	3.38
711.034	2.38
711.787	4.38
712.54	4.38
713.293	4.38
714.046	4.38
714.799	3.38
715.552	3.38
716.305	5.38
717.058	1.38
717.81	4.38
718.563	5.38
719.315	6.38
720.068	4.38
720.82	5.38
721.573	7.38
722.325	3.38
723.077	4.38
723.829	4.38
724.581	6.38
725.333	6.38
726.085	5.38
726.836	6.38
727.588	3.38
728.34	3.38
729.091	4.38
729.843	4.38
730.594	4.38
731.346	5.38
732.097	6.38
732.848	5.38
733.599	2.38
734.35	4.38
735.101	6.38
735.852	3.38
736.603	4.38
737.354	6.38
738.104	5.38
738.855	6.38
739.605	3.38
740.356	4.38
741.106	7.38
741.856	5.38
742.607	4.38
743.357	7.38
744.107	5.38
744.857	6.38
745.607	5.38
746.357	7.38
747.106	4.38
747.856	4.38
748.606	7.38
749.355	5.38
750.105	6.38
750.854	5.38
751.603	6.38
752.353	5.38
753.102	4.38
753.851	6.38
754.6	4.38
755.349	5.38
756.098	7.38
756.847	5.38
757.595	7.38
758.344	6.38
759.093	4.38
759.841	6.38
760.589	6.38
761.338	7.38
762.086	4.38
762.834	8.38
763.582	5.38
764.331	7.38
765.079	5.38
765.826	6.38
766.574	8.38
767.322	7.38
768.07	8.38
768.817	7.38
769.565	7.38
770.312	9.38
771.06	8.38
771.807	8.38
772.554	6.38
773.302	10.38
774.049	6.38
774.796	9.38
775.543	8.38
776.29	6.38
777.036	7.38
777.783	9.38
778.53	8.38
779.276	7.38
780.023	7.38
780.769	8.38
781.516	9.38
782.262	8.38
783.008	7.38
783.754	9.38
784.5	10.38
785.246	9.38
785.992	9.38
786.738	10.38
787.484	8.38
788.23	8.38
788.975	7.38
789.721	10.38
790.466	8.38
791.212	9.38
791.957	9.38
792.702	9.38
793.447	8.38
794.193	10.38
794.938	7.38
795.683	8.38
796.427	8.38
797.172	9.38
797.917	8.38
798.662	10.38
799.406	9.38
800.151	6.38
800.895	7.38
801.64	9.38
802.384	6.38
803.128	9.38
803.872	7.38
804.616	9.38
805.36	7.38
806.104	4.38
806.848	5.38
807.592	4.38
808.336	7.38
809.079	5.38
809.823	4.38
810.566	5.38
811.31	7.38
812.053	6.38
812.796	6.38
813.539	7.38
814.283	4.38
815.026	5.38
815.769	6.38
816.511	7.38
817.254	4.38
817.997	7.38
818.74	3.38
819.482	4.38
820.225	5.38
820.967	5.38
821.71	4.38
822.452	5.38
823.194	2.38
823.936	4.38
824.678	3.38
825.42	1.38
826.162	5.38
826.904	4.38
827.646	5.38
828.388	5.38
829.129	4.38
829.871	4.38
830.612	4.38
831.354	5.38
832.095	4.38
832.836	3.38
833.577	4.38
834.319	3.38
835.06	1.38
835.801	2.38
836.542	3.38
837.282	6.38
838.023	4.38
838.764	4.38
839.504	3.38
840.245	3.38
840.985	2.38
841.726	3.38
842.466	4.38
843.206	4.38
843.946	2.38
844.687	2.38
845.427	2.38
846.166	4.38
846.906	5.38
847.646	2.38
848.386	5.38
849.125	1.38
849.865	2.38
850.605	3.38
851.344	5.38
852.083	2.38
852.823	5.38
853.562	2.38
854.301	3.38
855.04	3.38
855.779	1.38
856.518	4.38
857.257	3.38
857.995	3.38
858.734	3.38
859.473	3.38
860.211	2.38
860.95	1.38
861.688	3.38
862.426	2.38
863.165	2.38
863.903	4.38
864.641	2.38
865.379	4.38
866.117	2.38
866.855	3.38
867.593	1.38
868.33	1.38
869.068	2.38
869.806	0.38
870.543	3.38
871.28	0.38
872.018	3.38
872.755	2.38
873.492	3.38
874.229	3.38
874.967	4.38
875.703	0.38
876.44	-0.62
877.177	1.38
877.914	3.38
878.651	1.38
879.387	3.38
880.124	0.38
880.86	2.38
881.597	0.38
882.333	2.38
883.069	2.38
883.806	1.38
884.542	0.38
885.278	3.38
886.014	5.38
886.749	0.38
887.485	3.38
888.221	0.38
888.957	2.38
889.692	1.38
890.428	-1.62
891.163	3.38
891.899	2.38
892.634	1.38
893.369	1.38
894.104	1.38
894.839	3.38
895.574	1.38
896.309	1.38
897.044	1.38
897.779	1.38
898.514	1.38
899.248	-1.62
899.983	1.38
900.717	0.38
901.452	0.38
902.186	1.38
902.92	0.38
903.654	1.38
904.389	1.38
905.123	1.38
905.857	0.38
906.59	1.38
907.324	1.38
908.058	2.38
908.792	3.38
909.525	1.38
910.259	0.38
910.992	2.38
911.726	0.38
912.459	1.38
913.192	0.38
913.925	1.38
914.658	2.38
915.391	3.38
916.124	0.38
916.857	-0.62
917.59	0.38
918.323	-0.62
919.055	2.38
919.788	-1.62
920.521	2.38
921.253	1.38
921.985	0.38
922.718	1.38
923.45	0.38
924.182	1.38
924.914	0.38
925.646	1.38
926.378	0.38
927.11	0.38
927.841	-0.62
928.573	0.38
929.305	0.38
930.036	2.38
930.768	-0.62
931.499	0.38
932.23	0.38
932.962	1.38
933.693	2.38
934.424	1.38
935.155	1.38
935.886	2.38
936.617	1.38
937.348	1.38
938.078	-0.62
938.809	0.38
939.54	-0.62
940.27	-0.62
941.001	-0.62
941.731	1.38
942.461	1.38
943.191	1.38
943.922	0.38
944.652	1.38
945.382	0.38
946.112	-0.62
946.841	0.38
947.571	0.38
948.301	-0.62
949.031	0.38
949.76	1.38
950.49	1.38
951.219	-0.62
951.948	0.38
952.678	1.38
953.407	0.38
954.136	1.38
954.865	1.38
955.594	0.38
956.323	1.38
957.052	1.38
957.78	0.38
958.509	1.38
959.238	2.38
959.966	-0.62
960.695	2.38
961.423	-1.62
962.151	2.38
962.88	1.38
963.608	1.38
964.336	1.38
965.064	0.38
965.792	2.38
966.52	2.38
967.247	0.38
967.975	1.38
968.703	0.38
969.43	2.38
970.158	1.38
970.885	0.38
971.613	0.38
972.34	-0.62
973.067	2.38
973.794	1.38
974.521	2.38
975.248	-1.62
975.975	-0.62
976.702	2.38
977.429	-1.62
978.156	-1.62
978.882	-1.62
979.609	2.38
980.335	0.38
981.062	4.38
981.788	1.38
982.514	0.38
983.24	-0.62
983.967	2.38
984.693	1.38
985.419	1.38
986.144	-0.62
986.87	1.38
987.596	-1.62
988.322	0.38
989.047	-0.62
989.773	0.38
990.498	-0.62
991.224	0.38
991.949	0.38
992.674	-1.62
993.399	2.38
994.124	-0.62
994.849	0.38
995.574	2.38
996.299	-2.62
997.024	0.38
997.749	0.38
998.473	-0.62
999.198	0.38
999.922	2.38
1000.647	0.38
1001.371	2.38
1002.095	-2.62
1002.82	-0.62
1003.544	-1.62
1004.268	2.38
1004.992	2.38
1005.716	4.38
1006.439	4.38
1007.163	3.38
1007.887	2.38
1008.611	0.38
1009.334	1.38
1010.058	2.38
1010.781	0.38
1011.504	0.38
1012.228	-0.62
1012.951	0.38
1013.674	0.38
1014.397	0.38
1015.12	1.38
