节点500_285_QEPB04081__828__15-09-19-745.txt的数据

Date: Wed Nov 12 15:09:19 CST 2025
User: PC
Spectrometer: QEPB0408
触发模式: 0
积分时间 (秒): 1.000000E-2
Scans to average: 1
启用暗噪声校正: true
启用非线性校正: false
滑动平均宽度: 0
X轴模式: Wavelengths
Number of Pixels in Spectrum: 1044
>>>>>Begin Spectral Data<<<<<
220.843	1.25
221.644	0.25
222.444	1.25
223.244	3.25
224.045	-0.75
224.845	-0.75
225.645	0.25
226.445	1.25
227.245	1.25
228.045	1.25
228.845	1.25
229.645	0.25
230.444	2.25
231.244	3.25
232.043	2.25
232.843	1.25
233.642	2.25
234.442	2.25
235.241	0.25
236.04	2.25
236.839	2.25
237.638	2.25
238.437	4.25
239.236	1.25
240.035	2.25
240.833	4.25
241.632	4.25
242.43	3.25
243.229	4.25
244.027	5.25
244.826	3.25
245.624	4.25
246.422	2.25
247.22	4.25
248.018	5.25
248.816	4.25
249.614	7.25
250.412	3.25
251.21	6.25
252.007	6.25
252.805	4.25
253.602	6.25
254.4	9.25
255.197	6.25
255.994	4.25
256.791	7.25
257.589	5.25
258.386	8.25
259.183	7.25
259.979	7.25
260.776	9.25
261.573	7.25
262.37	7.25
263.166	8.25
263.963	7.25
264.759	8.25
265.556	9.25
266.352	12.25
267.148	11.25
267.944	12.25
268.74	9.25
269.536	11.25
270.332	10.25
271.128	13.25
271.924	13.25
272.719	13.25
273.515	14.25
274.311	12.25
275.106	13.25
275.901	13.25
276.697	14.25
277.492	15.25
278.287	15.25
279.082	15.25
279.877	16.25
280.672	15.25
281.467	15.25
282.262	16.25
283.056	16.25
283.851	16.25
284.646	18.25
285.44	16.25
286.234	19.25
287.029	17.25
287.823	16.25
288.617	17.25
289.411	16.25
290.205	18.25
290.999	16.25
291.793	15.25
292.587	16.25
293.381	16.25
294.174	15.25
294.968	12.25
295.761	12.25
296.555	14.25
297.348	12.25
298.141	12.25
298.935	16.25
299.728	15.25
300.521	11.25
301.314	13.25
302.107	13.25
302.899	13.25
303.692	10.25
304.485	12.25
305.277	13.25
306.07	11.25
306.862	11.25
307.655	10.25
308.447	9.25
309.239	12.25
310.031	11.25
310.823	10.25
311.615	8.25
312.407	9.25
313.199	9.25
313.991	11.25
314.783	10.25
315.574	9.25
316.366	5.25
317.157	7.25
317.949	8.25
318.74	8.25
319.531	6.25
320.322	5.25
321.113	6.25
321.904	9.25
322.695	7.25
323.486	7.25
324.277	6.25
325.068	5.25
325.858	9.25
326.649	8.25
327.439	7.25
328.23	7.25
329.02	5.25
329.81	6.25
330.6	6.25
331.391	5.25
332.181	5.25
332.971	6.25
333.76	4.25
334.55	7.25
335.34	6.25
336.13	8.25
336.919	6.25
337.709	4.25
338.498	5.25
339.287	6.25
340.077	5.25
340.866	6.25
341.655	4.25
342.444	4.25
343.233	4.25
344.022	4.25
344.811	5.25
345.6	5.25
346.388	6.25
347.177	4.25
347.965	4.25
348.754	6.25
349.542	5.25
350.33	4.25
351.119	7.25
351.907	4.25
352.695	6.25
353.483	5.25
354.271	5.25
355.059	4.25
355.846	2.25
356.634	4.25
357.422	4.25
358.209	4.25
358.997	4.25
359.784	6.25
360.571	5.25
361.359	5.25
362.146	4.25
362.933	4.25
363.72	6.25
364.507	4.25
365.294	4.25
366.081	4.25
366.867	4.25
367.654	4.25
368.44	4.25
369.227	1.25
370.013	4.25
370.8	4.25
371.586	4.25
372.372	6.25
373.158	3.25
373.944	4.25
374.73	3.25
375.516	3.25
376.302	4.25
377.088	3.25
377.873	4.25
378.659	5.25
379.445	3.25
380.23	4.25
381.015	3.25
381.801	3.25
382.586	5.25
383.371	4.25
384.156	4.25
384.941	2.25
385.726	6.25
386.511	4.25
387.296	5.25
388.08	5.25
388.865	4.25
389.649	0.25
390.434	3.25
391.218	6.25
392.003	3.25
392.787	5.25
393.571	3.25
394.355	5.25
395.139	7.25
395.923	4.25
396.707	6.25
397.491	6.25
398.274	5.25
399.058	6.25
399.842	7.25
400.625	5.25
401.408	6.25
402.192	6.25
402.975	5.25
403.758	7.25
404.541	5.25
405.324	6.25
406.107	8.25
406.89	7.25
407.673	6.25
408.456	8.25
409.238	6.25
410.021	8.25
410.803	9.25
411.586	6.25
412.368	6.25
413.151	4.25
413.933	6.25
414.715	5.25
415.497	9.25
416.279	5.25
417.061	8.25
417.843	6.25
418.624	11.25
419.406	7.25
420.188	8.25
420.969	7.25
421.751	10.25
422.532	10.25
423.313	10.25
424.095	9.25
424.876	9.25
425.657	9.25
426.438	11.25
427.219	9.25
428	12.25
428.78	11.25
429.561	13.25
430.342	11.25
431.122	14.25
431.903	13.25
432.683	13.25
433.464	13.25
434.244	13.25
435.024	14.25
435.804	16.25
436.584	17.25
437.364	17.25
438.144	18.25
438.924	18.25
439.704	21.25
440.483	23.25
441.263	25.25
442.042	25.25
442.822	27.25
443.601	26.25
444.38	31.25
445.16	32.25
445.939	33.25
446.718	39.25
447.497	38.25
448.276	46.25
449.054	49.25
449.833	53.25
450.612	59.25
451.391	63.25
452.169	69.25
452.948	74.25
453.726	83.25
454.504	92.25
455.282	98.25
456.061	111.25
456.839	122.25
457.617	139.25
458.395	153.25
459.172	171.25
459.95	189.25
460.728	207.25
461.506	234.25
462.283	253.25
463.061	298.25
463.838	331.25
464.615	356.25
465.393	399.25
466.17	433.25
466.947	486.25
467.724	534.25
468.501	614.25
469.278	662.25
470.055	739.25
470.831	823.25
471.608	909.25
472.385	1009.25
473.161	1100.25
473.938	1222.25
474.714	1349.25
475.49	1456.25
476.266	1617.25
477.043	1769.25
477.819	1922.25
478.595	2124.25
479.371	2329.25
480.146	2563.25
480.922	2787.25
481.698	3049.25
482.473	3322.25
483.249	3653.25
484.024	3958.25
484.8	4310.25
485.575	4702.25
486.35	5124.25
487.126	5578.25
487.901	6074.25
488.676	6598.25
489.451	7207.25
490.225	7814.25
491	8469.25
491.775	9196.25
492.55	9989.25
493.324	10701.25
494.099	11531.25
494.873	12360.25
495.647	13311.25
496.422	14273.25
497.196	15247.25
497.97	16255.25
498.744	17263.25
499.518	18283.25
500.292	19345.25
501.066	20267.25
501.839	21273.25
502.613	22209.25
503.387	22981.25
504.16	23675.25
504.934	24121.25
505.707	24509.25
506.48	24791.25
507.253	24928.25
508.027	24928.25
508.8	24923.25
509.573	24783.25
510.346	24525.25
511.118	24005.25
511.891	23455.25
512.664	22866.25
513.437	22167.25
514.209	21396.25
514.982	20717.25
515.754	19875.25
516.526	19073.25
517.298	18309.25
518.071	17568.25
518.843	16939.25
519.615	16310.25
520.387	15661.25
521.159	15038.25
521.93	14419.25
522.702	13843.25
523.474	13288.25
524.245	12735.25
525.017	12217.25
525.788	11766.25
526.56	11213.25
527.331	10755.25
528.102	10283.25
528.873	9888.25
529.644	9368.25
530.415	8960.25
531.186	8546.25
531.957	8161.25
532.728	7768.25
533.498	7393.25
534.269	6975.25
535.039	6582.25
535.81	6240.25
536.58	5916.25
537.351	5595.25
538.121	5301.25
538.891	4993.25
539.661	4737.25
540.431	4491.25
541.201	4237.25
541.971	4023.25
542.741	3785.25
543.51	3596.25
544.28	3460.25
545.05	3291.25
545.819	3113.25
546.588	2950.25
547.358	2815.25
548.127	2650.25
548.896	2541.25
549.665	2418.25
550.434	2269.25
551.203	2167.25
551.972	2051.25
552.741	1919.25
553.51	1838.25
554.278	1741.25
555.047	1641.25
555.815	1570.25
556.584	1480.25
557.352	1412.25
558.121	1309.25
558.889	1245.25
559.657	1182.25
560.425	1113.25
561.193	1043.25
561.961	997.25
562.729	932.25
563.496	873.25
564.264	833.25
565.032	798.25
565.799	745.25
566.567	713.25
567.334	664.25
568.101	628.25
568.869	600.25
569.636	554.25
570.403	544.25
571.17	496.25
571.937	466.25
572.704	444.25
573.471	421.25
574.237	399.25
575.004	371.25
575.771	347.25
576.537	328.25
577.303	312.25
578.07	293.25
578.836	273.25
579.602	258.25
580.368	242.25
581.134	229.25
581.9	219.25
582.666	210.25
583.432	203.25
584.198	183.25
584.964	177.25
585.729	165.25
586.495	162.25
587.26	149.25
588.025	143.25
588.791	137.25
589.556	129.25
590.321	118.25
591.086	116.25
591.851	109.25
592.616	104.25
593.381	101.25
594.146	96.25
594.911	95.25
595.675	83.25
596.44	81.25
597.204	75.25
597.969	77.25
598.733	68.25
599.497	68.25
600.261	63.25
601.025	60.25
601.79	56.25
602.553	56.25
603.317	55.25
604.081	51.25
604.845	46.25
605.609	49.25
606.372	42.25
607.136	44.25
607.899	37.25
608.662	41.25
609.426	36.25
610.189	35.25
610.952	32.25
611.715	30.25
612.478	34.25
613.241	32.25
614.004	30.25
614.767	28.25
615.529	26.25
616.292	26.25
617.055	27.25
617.817	23.25
618.579	23.25
619.342	23.25
620.104	23.25
620.866	19.25
621.628	22.25
622.39	20.25
623.152	20.25
623.914	18.25
624.676	17.25
625.438	16.25
626.199	17.25
626.961	16.25
627.722	14.25
628.484	15.25
629.245	11.25
630.006	13.25
630.768	12.25
631.529	13.25
632.29	13.25
633.051	12.25
633.812	13.25
634.573	11.25
635.333	9.25
636.094	11.25
636.855	10.25
637.615	13.25
638.376	10.25
639.136	10.25
639.896	9.25
640.657	9.25
641.417	8.25
642.177	5.25
642.937	7.25
643.697	9.25
644.457	7.25
645.216	6.25
645.976	6.25
646.736	6.25
647.495	6.25
648.255	6.25
649.014	7.25
649.774	6.25
650.533	9.25
651.292	6.25
652.051	7.25
652.81	7.25
653.569	5.25
654.328	7.25
655.087	7.25
655.846	5.25
656.604	4.25
657.363	6.25
658.121	5.25
658.88	6.25
659.638	4.25
660.397	3.25
661.155	6.25
661.913	5.25
662.671	4.25
663.429	7.25
664.187	3.25
664.945	4.25
665.703	4.25
666.46	4.25
667.218	3.25
667.976	5.25
668.733	3.25
669.49	2.25
670.248	2.25
671.005	4.25
671.762	3.25
672.519	3.25
673.276	4.25
674.033	3.25
674.79	0.25
675.547	1.25
676.304	2.25
677.06	5.25
677.817	4.25
678.574	4.25
679.33	5.25
680.086	4.25
680.843	3.25
681.599	3.25
682.355	3.25
683.111	0.25
683.867	4.25
684.623	4.25
685.379	3.25
686.135	6.25
686.89	3.25
687.646	4.25
688.402	1.25
689.157	5.25
689.912	3.25
690.668	3.25
691.423	2.25
692.178	-0.75
692.933	6.25
693.688	3.25
694.443	3.25
695.198	4.25
695.953	3.25
696.708	2.25
697.462	1.25
698.217	2.25
698.972	0.25
699.726	3.25
700.48	3.25
701.235	1.25
701.989	3.25
702.743	4.25
703.497	1.25
704.251	3.25
705.005	0.25
705.759	2.25
706.513	3.25
707.266	3.25
708.02	2.25
708.774	2.25
709.527	4.25
710.28	2.25
711.034	5.25
711.787	3.25
712.54	3.25
713.293	3.25
714.046	5.25
714.799	2.25
715.552	2.25
716.305	4.25
717.058	2.25
717.81	1.25
718.563	4.25
719.315	2.25
720.068	3.25
720.82	4.25
721.573	3.25
722.325	2.25
723.077	1.25
723.829	2.25
724.581	1.25
725.333	5.25
726.085	4.25
726.836	2.25
727.588	5.25
728.34	3.25
729.091	1.25
729.843	1.25
730.594	1.25
731.346	2.25
732.097	5.25
732.848	4.25
733.599	4.25
734.35	4.25
735.101	4.25
735.852	4.25
736.603	4.25
737.354	3.25
738.104	4.25
738.855	2.25
739.605	2.25
740.356	3.25
741.106	2.25
741.856	2.25
742.607	1.25
743.357	5.25
744.107	2.25
744.857	4.25
745.607	3.25
746.357	2.25
747.106	3.25
747.856	3.25
748.606	3.25
749.355	3.25
750.105	3.25
750.854	2.25
751.603	4.25
752.353	3.25
753.102	3.25
753.851	7.25
754.6	4.25
755.349	3.25
756.098	3.25
756.847	4.25
757.595	5.25
758.344	5.25
759.093	4.25
759.841	5.25
760.589	5.25
761.338	6.25
762.086	5.25
762.834	6.25
763.582	4.25
764.331	7.25
765.079	5.25
765.826	4.25
766.574	5.25
767.322	5.25
768.07	6.25
768.817	6.25
769.565	6.25
770.312	6.25
771.06	7.25
771.807	9.25
772.554	7.25
773.302	4.25
774.049	6.25
774.796	9.25
775.543	6.25
776.29	7.25
777.036	4.25
777.783	6.25
778.53	6.25
779.276	7.25
780.023	7.25
780.769	7.25
781.516	6.25
782.262	4.25
783.008	6.25
783.754	8.25
784.5	8.25
785.246	8.25
785.992	8.25
786.738	6.25
787.484	8.25
788.23	8.25
788.975	9.25
789.721	7.25
790.466	7.25
791.212	7.25
791.957	9.25
792.702	8.25
793.447	8.25
794.193	8.25
794.938	7.25
795.683	7.25
796.427	7.25
797.172	8.25
797.917	5.25
798.662	7.25
799.406	5.25
800.151	6.25
800.895	5.25
801.64	7.25
802.384	6.25
803.128	6.25
803.872	5.25
804.616	6.25
805.36	4.25
806.104	5.25
806.848	6.25
807.592	7.25
808.336	6.25
809.079	6.25
809.823	3.25
810.566	5.25
811.31	3.25
812.053	6.25
812.796	3.25
813.539	6.25
814.283	7.25
815.026	1.25
815.769	4.25
816.511	4.25
817.254	5.25
817.997	4.25
818.74	2.25
819.482	4.25
820.225	3.25
820.967	5.25
821.71	5.25
822.452	2.25
823.194	3.25
823.936	3.25
824.678	3.25
825.42	4.25
826.162	6.25
826.904	4.25
827.646	2.25
828.388	3.25
829.129	3.25
829.871	4.25
830.612	3.25
831.354	3.25
832.095	3.25
832.836	2.25
833.577	2.25
834.319	2.25
835.06	3.25
835.801	4.25
836.542	3.25
837.282	3.25
838.023	4.25
838.764	3.25
839.504	0.25
840.245	2.25
840.985	0.25
841.726	4.25
842.466	2.25
843.206	1.25
843.946	1.25
844.687	2.25
845.427	4.25
846.166	1.25
846.906	1.25
847.646	3.25
848.386	2.25
849.125	2.25
849.865	1.25
850.605	2.25
851.344	2.25
852.083	3.25
852.823	4.25
853.562	2.25
854.301	4.25
855.04	1.25
855.779	2.25
856.518	4.25
857.257	1.25
857.995	1.25
858.734	1.25
859.473	2.25
860.211	1.25
860.95	3.25
861.688	-0.75
862.426	4.25
863.165	1.25
863.903	1.25
864.641	2.25
865.379	1.25
866.117	2.25
866.855	1.25
867.593	1.25
868.33	2.25
869.068	0.25
869.806	2.25
870.543	0.25
871.28	1.25
872.018	1.25
872.755	2.25
873.492	2.25
874.229	1.25
874.967	0.25
875.703	1.25
876.44	2.25
877.177	3.25
877.914	-0.75
878.651	-0.75
879.387	1.25
880.124	3.25
880.86	0.25
881.597	0.25
882.333	1.25
883.069	-0.75
883.806	1.25
884.542	1.25
885.278	1.25
886.014	1.25
886.749	1.25
887.485	1.25
888.221	-0.75
888.957	-0.75
889.692	-0.75
890.428	0.25
891.163	0.25
891.899	0.25
892.634	1.25
893.369	0.25
894.104	1.25
894.839	1.25
895.574	2.25
896.309	0.25
897.044	0.25
897.779	0.25
898.514	-0.75
899.248	1.25
899.983	-0.75
900.717	-0.75
901.452	0.25
902.186	-0.75
902.92	-0.75
903.654	-2.75
904.389	1.25
905.123	1.25
905.857	-0.75
906.59	-0.75
907.324	-1.75
908.058	1.25
908.792	-0.75
909.525	2.25
910.259	-0.75
910.992	0.25
911.726	-1.75
912.459	0.25
913.192	0.25
913.925	-1.75
914.658	-1.75
915.391	-2.75
916.124	0.25
916.857	0.25
917.59	-2.75
918.323	-0.75
919.055	0.25
919.788	0.25
920.521	1.25
921.253	0.25
921.985	-1.75
922.718	0.25
923.45	0.25
924.182	0.25
924.914	-0.75
925.646	1.25
926.378	-0.75
927.11	2.25
927.841	2.25
928.573	-0.75
929.305	0.25
930.036	1.25
930.768	0.25
931.499	-0.75
932.23	0.25
932.962	-0.75
933.693	1.25
934.424	0.25
935.155	0.25
935.886	0.25
936.617	-0.75
937.348	2.25
938.078	-1.75
938.809	1.25
939.54	-1.75
940.27	0.25
941.001	-2.75
941.731	-1.75
942.461	1.25
943.191	-0.75
943.922	-0.75
944.652	1.25
945.382	0.25
946.112	3.25
946.841	1.25
947.571	0.25
948.301	0.25
949.031	-0.75
949.76	0.25
950.49	0.25
951.219	0.25
951.948	-2.75
952.678	-0.75
953.407	0.25
954.136	0.25
954.865	1.25
955.594	0.25
956.323	0.25
957.052	-0.75
957.78	-0.75
958.509	-0.75
959.238	-0.75
959.966	0.25
960.695	-1.75
961.423	1.25
962.151	-2.75
962.88	0.25
963.608	2.25
964.336	-0.75
965.064	0.25
965.792	-0.75
966.52	0.25
967.247	-0.75
967.975	-0.75
968.703	0.25
969.43	-0.75
970.158	-0.75
970.885	1.25
971.613	-0.75
972.34	-0.75
973.067	0.25
973.794	-0.75
974.521	-3.75
975.248	-0.75
975.975	-0.75
976.702	-0.75
977.429	-1.75
978.156	0.25
978.882	-0.75
979.609	-1.75
980.335	-2.75
981.062	-0.75
981.788	1.25
982.514	0.25
983.24	0.25
983.967	-0.75
984.693	-0.75
985.419	1.25
986.144	0.25
986.87	0.25
987.596	-0.75
988.322	0.25
989.047	-2.75
989.773	-0.75
990.498	-1.75
991.224	-1.75
991.949	-0.75
992.674	-1.75
993.399	0.25
994.124	0.25
994.849	0.25
995.574	2.25
996.299	0.25
997.024	-0.75
997.749	-1.75
998.473	-2.75
999.198	1.25
999.922	1.25
1000.647	0.25
1001.371	5.25
1002.095	-1.75
1002.82	-1.75
1003.544	-2.75
1004.268	-0.75
1004.992	1.25
1005.716	0.25
1006.439	-1.75
1007.163	-0.75
1007.887	3.25
1008.611	0.25
1009.334	-2.75
1010.058	-0.75
1010.781	-2.75
1011.504	0.25
1012.228	-0.75
1012.951	1.25
1013.674	-0.75
1014.397	-0.75
1015.12	1.25
