节点500_285_QEPB04081__831__15-09-22-726.txt的数据

Date: Wed Nov 12 15:09:22 CST 2025
User: PC
Spectrometer: QEPB0408
触发模式: 0
积分时间 (秒): 1.000000E-2
Scans to average: 1
启用暗噪声校正: true
启用非线性校正: false
滑动平均宽度: 0
X轴模式: Wavelengths
Number of Pixels in Spectrum: 1044
>>>>>Begin Spectral Data<<<<<
220.843	2
221.644	2
222.444	3
223.244	3
224.045	5
224.845	3
225.645	5
226.445	-1
227.245	4
228.045	2
228.845	4
229.645	4
230.444	7
231.244	4
232.043	4
232.843	4
233.642	5
234.442	6
235.241	3
236.04	5
236.839	3
237.638	3
238.437	7
239.236	5
240.035	7
240.833	5
241.632	6
242.43	6
243.229	7
244.027	6
244.826	6
245.624	5
246.422	6
247.22	6
248.018	7
248.816	5
249.614	7
250.412	4
251.21	5
252.007	8
252.805	7
253.602	9
254.4	9
255.197	8
255.994	11
256.791	7
257.589	10
258.386	7
259.183	10
259.979	12
260.776	10
261.573	11
262.37	11
263.166	11
263.963	12
264.759	12
265.556	11
266.352	14
267.148	15
267.944	12
268.74	10
269.536	14
270.332	11
271.128	16
271.924	13
272.719	14
273.515	13
274.311	15
275.106	16
275.901	15
276.697	15
277.492	18
278.287	17
279.082	15
279.877	19
280.672	17
281.467	17
282.262	16
283.056	16
283.851	17
284.646	16
285.44	20
286.234	19
287.029	20
287.823	20
288.617	17
289.411	18
290.205	19
290.999	18
291.793	19
292.587	17
293.381	15
294.174	17
294.968	18
295.761	18
296.555	15
297.348	16
298.141	16
298.935	19
299.728	14
300.521	17
301.314	13
302.107	12
302.899	14
303.692	14
304.485	13
305.277	12
306.07	11
306.862	13
307.655	12
308.447	12
309.239	12
310.031	13
310.823	13
311.615	13
312.407	9
313.199	12
313.991	11
314.783	8
315.574	10
316.366	9
317.157	11
317.949	12
318.74	10
319.531	8
320.322	8
321.113	9
321.904	9
322.695	11
323.486	11
324.277	9
325.068	8
325.858	7
326.649	9
327.439	10
328.23	6
329.02	6
329.81	10
330.6	8
331.391	8
332.181	8
332.971	8
333.76	8
334.55	7
335.34	7
336.13	7
336.919	8
337.709	7
338.498	8
339.287	9
340.077	5
340.866	8
341.655	8
342.444	7
343.233	8
344.022	9
344.811	5
345.6	8
346.388	3
347.177	8
347.965	7
348.754	5
349.542	8
350.33	6
351.119	5
351.907	6
352.695	7
353.483	5
354.271	6
355.059	7
355.846	6
356.634	8
357.422	7
358.209	6
358.997	6
359.784	6
360.571	6
361.359	6
362.146	6
362.933	6
363.72	5
364.507	5
365.294	6
366.081	8
366.867	7
367.654	7
368.44	7
369.227	6
370.013	6
370.8	6
371.586	8
372.372	5
373.158	7
373.944	5
374.73	7
375.516	4
376.302	3
377.088	5
377.873	6
378.659	7
379.445	7
380.23	6
381.015	6
381.801	5
382.586	6
383.371	3
384.156	6
384.941	8
385.726	4
386.511	6
387.296	6
388.08	6
388.865	5
389.649	6
390.434	8
391.218	5
392.003	6
392.787	5
393.571	7
394.355	7
395.139	5
395.923	6
396.707	6
397.491	8
398.274	7
399.058	8
399.842	7
400.625	8
401.408	8
402.192	9
402.975	7
403.758	7
404.541	8
405.324	6
406.107	7
406.89	4
407.673	10
408.456	6
409.238	10
410.021	10
410.803	9
411.586	8
412.368	11
413.151	8
413.933	9
414.715	10
415.497	7
416.279	8
417.061	11
417.843	14
418.624	8
419.406	9
420.188	11
420.969	10
421.751	11
422.532	7
423.313	12
424.095	9
424.876	12
425.657	12
426.438	13
427.219	12
428	13
428.78	16
429.561	15
430.342	18
431.122	14
431.903	16
432.683	15
433.464	17
434.244	17
435.024	17
435.804	21
436.584	17
437.364	20
438.144	23
438.924	23
439.704	22
440.483	28
441.263	26
442.042	26
442.822	29
443.601	31
444.38	31
445.16	33
445.939	36
446.718	39
447.497	41
448.276	48
449.054	50
449.833	55
450.612	58
451.391	66
452.169	70
452.948	81
453.726	83
454.504	91
455.282	104
456.061	112
456.839	127
457.617	137
458.395	152
459.172	171
459.95	194
460.728	213
461.506	235
462.283	261
463.061	295
463.838	323
464.615	362
465.393	398
466.17	453
466.947	491
467.724	542
468.501	610
469.278	656
470.055	741
470.831	828
471.608	911
472.385	989
473.161	1100
473.938	1224
474.714	1340
475.49	1478
476.266	1612
477.043	1768
477.819	1919
478.595	2134
479.371	2329
480.146	2551
480.922	2788
481.698	3047
482.473	3323
483.249	3629
484.024	3923
484.8	4309
485.575	4696
486.35	5127
487.126	5566
487.901	6083
488.676	6617
489.451	7177
490.225	7796
491	8441
491.775	9179
492.55	9949
493.324	10723
494.099	11518
494.873	12358
495.647	13241
496.422	14241
497.196	15214
497.97	16220
498.744	17257
499.518	18275
500.292	19233
501.066	20253
501.839	21197
502.613	22044
503.387	22926
504.16	23612
504.934	24152
505.707	24522
506.48	24696
507.253	24885
508.027	24961
508.8	24976
509.573	24815
510.346	24418
511.118	23928
511.891	23435
512.664	22856
513.437	22183
514.209	21389
514.982	20631
515.754	19873
516.526	19122
517.298	18316
518.071	17630
518.843	16919
519.615	16312
520.387	15672
521.159	15092
521.93	14429
522.702	13858
523.474	13282
524.245	12760
525.017	12193
525.788	11791
526.56	11231
527.331	10709
528.102	10235
528.873	9829
529.644	9397
530.415	8963
531.186	8555
531.957	8109
532.728	7785
533.498	7350
534.269	6964
535.039	6622
535.81	6255
536.58	5902
537.351	5582
538.121	5280
538.891	4993
539.661	4755
540.431	4463
541.201	4230
541.971	3992
542.741	3809
543.51	3634
544.28	3429
545.05	3256
545.819	3124
546.588	2950
547.358	2807
548.127	2662
548.896	2539
549.665	2424
550.434	2298
551.203	2164
551.972	2048
552.741	1950
553.51	1830
554.278	1747
555.047	1647
555.815	1549
556.584	1474
557.352	1383
558.121	1313
558.889	1248
559.657	1190
560.425	1116
561.193	1052
561.961	988
562.729	942
563.496	883
564.264	829
565.032	801
565.799	746
566.567	709
567.334	671
568.101	640
568.869	598
569.636	551
570.403	524
571.17	502
571.937	469
572.704	449
573.471	415
574.237	400
575.004	372
575.771	350
576.537	331
577.303	311
578.07	295
578.836	287
579.602	267
580.368	245
581.134	229
581.9	218
582.666	208
583.432	200
584.198	193
584.964	179
585.729	174
586.495	163
587.26	152
588.025	143
588.791	135
589.556	127
590.321	122
591.086	118
591.851	116
592.616	105
593.381	99
594.146	95
594.911	94
595.675	86
596.44	82
597.204	83
597.969	74
598.733	72
599.497	71
600.261	64
601.025	64
601.79	59
602.553	57
603.317	55
604.081	52
604.845	49
605.609	47
606.372	49
607.136	42
607.899	42
608.662	45
609.426	39
610.189	36
610.952	34
611.715	36
612.478	36
613.241	32
614.004	33
614.767	31
615.529	28
616.292	26
617.055	26
617.817	27
618.579	24
619.342	26
620.104	26
620.866	24
621.628	22
622.39	21
623.152	21
623.914	21
624.676	20
625.438	18
626.199	17
626.961	17
627.722	18
628.484	16
629.245	16
630.006	15
630.768	16
631.529	15
632.29	15
633.051	14
633.812	15
634.573	14
635.333	16
636.094	13
636.855	13
637.615	8
638.376	12
639.136	10
639.896	10
640.657	10
641.417	9
642.177	9
642.937	11
643.697	10
644.457	10
645.216	10
645.976	10
646.736	6
647.495	8
648.255	9
649.014	10
649.774	8
650.533	8
651.292	10
652.051	7
652.81	9
653.569	7
654.328	7
655.087	8
655.846	8
656.604	7
657.363	8
658.121	9
658.88	8
659.638	5
660.397	7
661.155	7
661.913	7
662.671	8
663.429	7
664.187	7
664.945	6
665.703	7
666.46	8
667.218	6
667.976	8
668.733	6
669.49	7
670.248	6
671.005	7
671.762	6
672.519	6
673.276	6
674.033	5
674.79	6
675.547	6
676.304	5
677.06	5
677.817	4
678.574	5
679.33	3
680.086	3
680.843	5
681.599	6
682.355	6
683.111	8
683.867	4
684.623	5
685.379	7
686.135	5
686.89	5
687.646	3
688.402	3
689.157	5
689.912	5
690.668	6
691.423	4
692.178	3
692.933	7
693.688	3
694.443	4
695.198	5
695.953	4
696.708	4
697.462	5
698.217	4
698.972	4
699.726	3
700.48	4
701.235	5
701.989	4
702.743	6
703.497	4
704.251	5
705.005	4
705.759	4
706.513	6
707.266	3
708.02	4
708.774	4
709.527	4
710.28	5
711.034	2
711.787	4
712.54	6
713.293	3
714.046	4
714.799	3
715.552	5
716.305	5
717.058	6
717.81	5
718.563	3
719.315	4
720.068	5
720.82	6
721.573	4
722.325	5
723.077	4
723.829	4
724.581	5
725.333	4
726.085	4
726.836	2
727.588	5
728.34	6
729.091	5
729.843	4
730.594	5
731.346	4
732.097	5
732.848	6
733.599	3
734.35	6
735.101	5
735.852	5
736.603	5
737.354	6
738.104	8
738.855	7
739.605	7
740.356	6
741.106	7
741.856	6
742.607	3
743.357	7
744.107	5
744.857	4
745.607	6
746.357	5
747.106	6
747.856	5
748.606	5
749.355	6
750.105	4
750.854	5
751.603	7
752.353	5
753.102	7
753.851	4
754.6	5
755.349	6
756.098	7
756.847	6
757.595	4
758.344	5
759.093	5
759.841	7
760.589	4
761.338	6
762.086	7
762.834	5
763.582	6
764.331	8
765.079	8
765.826	7
766.574	6
767.322	6
768.07	5
768.817	7
769.565	7
770.312	8
771.06	10
771.807	7
772.554	8
773.302	9
774.049	9
774.796	6
775.543	7
776.29	9
777.036	9
777.783	11
778.53	7
779.276	10
780.023	8
780.769	7
781.516	10
782.262	8
783.008	9
783.754	10
784.5	10
785.246	7
785.992	9
786.738	10
787.484	9
788.23	8
788.975	8
789.721	8
790.466	9
791.212	8
791.957	8
792.702	8
793.447	8
794.193	10
794.938	8
795.683	9
796.427	10
797.172	8
797.917	8
798.662	8
799.406	9
800.151	8
800.895	8
801.64	8
802.384	9
803.128	6
803.872	9
804.616	7
805.36	8
806.104	9
806.848	7
807.592	9
808.336	7
809.079	6
809.823	6
810.566	5
811.31	8
812.053	6
812.796	5
813.539	5
814.283	6
815.026	4
815.769	8
816.511	7
817.254	3
817.997	8
818.74	5
819.482	6
820.225	6
820.967	5
821.71	7
822.452	4
823.194	6
823.936	7
824.678	3
825.42	4
826.162	6
826.904	5
827.646	5
828.388	7
829.129	6
829.871	5
830.612	6
831.354	6
832.095	5
832.836	3
833.577	3
834.319	5
835.06	4
835.801	3
836.542	5
837.282	5
838.023	4
838.764	5
839.504	5
840.245	4
840.985	3
841.726	4
842.466	4
843.206	3
843.946	4
844.687	3
845.427	2
846.166	2
846.906	4
847.646	4
848.386	5
849.125	4
849.865	2
850.605	6
851.344	5
852.083	3
852.823	4
853.562	6
854.301	3
855.04	2
855.779	1
856.518	5
857.257	5
857.995	4
858.734	1
859.473	2
860.211	3
860.95	3
861.688	3
862.426	1
863.165	2
863.903	3
864.641	4
865.379	2
866.117	3
866.855	5
867.593	1
868.33	4
869.068	2
869.806	3
870.543	3
871.28	2
872.018	2
872.755	3
873.492	2
874.229	3
874.967	2
875.703	2
876.44	3
877.177	3
877.914	3
878.651	3
879.387	4
880.124	0
880.86	2
881.597	1
882.333	1
883.069	3
883.806	2
884.542	3
885.278	1
886.014	3
886.749	3
887.485	3
888.221	5
888.957	0
889.692	1
890.428	-1
891.163	1
891.899	1
892.634	2
893.369	3
894.104	-1
894.839	2
895.574	4
896.309	1
897.044	1
897.779	0
898.514	2
899.248	3
899.983	3
900.717	3
901.452	3
902.186	2
902.92	3
903.654	2
904.389	-1
905.123	3
905.857	0
906.59	3
907.324	-1
908.058	3
908.792	2
909.525	-1
910.259	-1
910.992	0
911.726	1
912.459	1
913.192	2
913.925	1
914.658	4
915.391	3
916.124	0
916.857	3
917.59	1
918.323	0
919.055	2
919.788	0
920.521	0
921.253	3
921.985	2
922.718	1
923.45	0
924.182	1
924.914	0
925.646	0
926.378	1
927.11	1
927.841	1
928.573	3
929.305	2
930.036	1
930.768	0
931.499	1
932.23	0
932.962	4
933.693	-1
934.424	2
935.155	1
935.886	2
936.617	1
937.348	1
938.078	1
938.809	1
939.54	3
940.27	1
941.001	1
941.731	3
942.461	1
943.191	3
943.922	1
944.652	-1
945.382	-1
946.112	1
946.841	1
947.571	2
948.301	2
949.031	1
949.76	2
950.49	1
951.219	2
951.948	0
952.678	-2
953.407	2
954.136	2
954.865	-1
955.594	3
956.323	3
957.052	1
957.78	2
958.509	3
959.238	0
959.966	3
960.695	1
961.423	0
962.151	-1
962.88	1
963.608	2
964.336	1
965.064	0
965.792	4
966.52	-1
967.247	2
967.975	1
968.703	1
969.43	2
970.158	2
970.885	1
971.613	0
972.34	1
973.067	0
973.794	2
974.521	0
975.248	2
975.975	1
976.702	1
977.429	3
978.156	0
978.882	2
979.609	3
980.335	4
981.062	1
981.788	3
982.514	4
983.24	0
983.967	1
984.693	3
985.419	0
986.144	1
986.87	2
987.596	0
988.322	-1
989.047	1
989.773	3
990.498	0
991.224	2
991.949	1
992.674	2
993.399	3
994.124	1
994.849	1
995.574	-1
996.299	-2
997.024	0
997.749	2
998.473	2
999.198	-3
999.922	2
1000.647	-1
1001.371	5
1002.095	-1
1002.82	-2
1003.544	0
1004.268	4
1004.992	1
1005.716	3
1006.439	3
1007.163	5
1007.887	1
1008.611	1
1009.334	1
1010.058	0
1010.781	2
1011.504	2
1012.228	1
1012.951	-1
1013.674	-1
1014.397	0
1015.12	0
