节点500_285_QEPB04081__194__14-58-47-094.txt的数据

Date: Wed Nov 12 14:58:47 CST 2025
User: PC
Spectrometer: QEPB0408
触发模式: 0
积分时间 (秒): 1.000000E-2
Scans to average: 1
启用暗噪声校正: true
启用非线性校正: false
滑动平均宽度: 0
X轴模式: Wavelengths
Number of Pixels in Spectrum: 1044
>>>>>Begin Spectral Data<<<<<
220.843	1.88
221.644	2.88
222.444	4.88
223.244	0.88
224.045	0.88
224.845	1.88
225.645	1.88
226.445	1.88
227.245	5.88
228.045	1.88
228.845	3.88
229.645	2.88
230.444	4.88
231.244	3.88
232.043	1.88
232.843	3.88
233.642	2.88
234.442	3.88
235.241	4.88
236.04	1.88
236.839	5.88
237.638	4.88
238.437	5.88
239.236	1.88
240.035	6.88
240.833	3.88
241.632	5.88
242.43	4.88
243.229	3.88
244.027	4.88
244.826	5.88
245.624	7.88
246.422	6.88
247.22	3.88
248.018	5.88
248.816	4.88
249.614	5.88
250.412	5.88
251.21	7.88
252.007	5.88
252.805	5.88
253.602	6.88
254.4	6.88
255.197	9.88
255.994	8.88
256.791	8.88
257.589	7.88
258.386	8.88
259.183	10.88
259.979	10.88
260.776	11.88
261.573	9.88
262.37	9.88
263.166	12.88
263.963	11.88
264.759	11.88
265.556	12.88
266.352	11.88
267.148	10.88
267.944	13.88
268.74	14.88
269.536	15.88
270.332	14.88
271.128	15.88
271.924	15.88
272.719	17.88
273.515	13.88
274.311	18.88
275.106	16.88
275.901	18.88
276.697	15.88
277.492	18.88
278.287	20.88
279.082	18.88
279.877	18.88
280.672	18.88
281.467	19.88
282.262	20.88
283.056	17.88
283.851	18.88
284.646	21.88
285.44	20.88
286.234	22.88
287.029	17.88
287.823	22.88
288.617	17.88
289.411	19.88
290.205	19.88
290.999	19.88
291.793	17.88
292.587	14.88
293.381	18.88
294.174	19.88
294.968	18.88
295.761	14.88
296.555	15.88
297.348	15.88
298.141	15.88
298.935	19.88
299.728	13.88
300.521	15.88
301.314	16.88
302.107	16.88
302.899	13.88
303.692	13.88
304.485	10.88
305.277	12.88
306.07	15.88
306.862	13.88
307.655	14.88
308.447	12.88
309.239	12.88
310.031	12.88
310.823	13.88
311.615	7.88
312.407	10.88
313.199	9.88
313.991	7.88
314.783	9.88
315.574	6.88
316.366	8.88
317.157	8.88
317.949	7.88
318.74	6.88
319.531	9.88
320.322	8.88
321.113	9.88
321.904	8.88
322.695	6.88
323.486	6.88
324.277	6.88
325.068	7.88
325.858	6.88
326.649	6.88
327.439	8.88
328.23	8.88
329.02	8.88
329.81	8.88
330.6	5.88
331.391	5.88
332.181	6.88
332.971	7.88
333.76	6.88
334.55	6.88
335.34	8.88
336.13	6.88
336.919	6.88
337.709	4.88
338.498	5.88
339.287	7.88
340.077	5.88
340.866	6.88
341.655	5.88
342.444	6.88
343.233	6.88
344.022	7.88
344.811	6.88
345.6	6.88
346.388	6.88
347.177	5.88
347.965	5.88
348.754	3.88
349.542	6.88
350.33	5.88
351.119	6.88
351.907	8.88
352.695	2.88
353.483	7.88
354.271	6.88
355.059	6.88
355.846	4.88
356.634	4.88
357.422	4.88
358.209	6.88
358.997	4.88
359.784	5.88
360.571	6.88
361.359	6.88
362.146	5.88
362.933	6.88
363.72	3.88
364.507	6.88
365.294	4.88
366.081	6.88
366.867	4.88
367.654	5.88
368.44	4.88
369.227	6.88
370.013	4.88
370.8	5.88
371.586	5.88
372.372	5.88
373.158	3.88
373.944	5.88
374.73	3.88
375.516	5.88
376.302	6.88
377.088	3.88
377.873	6.88
378.659	4.88
379.445	6.88
380.23	4.88
381.015	4.88
381.801	7.88
382.586	4.88
383.371	5.88
384.156	5.88
384.941	6.88
385.726	5.88
386.511	4.88
387.296	2.88
388.08	8.88
388.865	5.88
389.649	6.88
390.434	2.88
391.218	5.88
392.003	8.88
392.787	2.88
393.571	4.88
394.355	5.88
395.139	7.88
395.923	7.88
396.707	6.88
397.491	8.88
398.274	5.88
399.058	7.88
399.842	6.88
400.625	8.88
401.408	5.88
402.192	7.88
402.975	6.88
403.758	6.88
404.541	8.88
405.324	8.88
406.107	8.88
406.89	8.88
407.673	8.88
408.456	9.88
409.238	6.88
410.021	7.88
410.803	9.88
411.586	9.88
412.368	7.88
413.151	11.88
413.933	9.88
414.715	7.88
415.497	9.88
416.279	11.88
417.061	8.88
417.843	8.88
418.624	8.88
419.406	9.88
420.188	9.88
420.969	9.88
421.751	9.88
422.532	11.88
423.313	12.88
424.095	11.88
424.876	11.88
425.657	14.88
426.438	9.88
427.219	12.88
428	10.88
428.78	14.88
429.561	13.88
430.342	14.88
431.122	13.88
431.903	15.88
432.683	16.88
433.464	15.88
434.244	17.88
435.024	18.88
435.804	18.88
436.584	15.88
437.364	17.88
438.144	20.88
438.924	20.88
439.704	22.88
440.483	21.88
441.263	21.88
442.042	26.88
442.822	24.88
443.601	27.88
444.38	30.88
445.16	31.88
445.939	33.88
446.718	35.88
447.497	35.88
448.276	45.88
449.054	44.88
449.833	48.88
450.612	49.88
451.391	56.88
452.169	60.88
452.948	62.88
453.726	73.88
454.504	80.88
455.282	93.88
456.061	94.88
456.839	106.88
457.617	119.88
458.395	137.88
459.172	141.88
459.95	164.88
460.728	176.88
461.506	195.88
462.283	222.88
463.061	250.88
463.838	280.88
464.615	310.88
465.393	344.88
466.17	389.88
466.947	431.88
467.724	486.88
468.501	540.88
469.278	594.88
470.055	670.88
470.831	743.88
471.608	832.88
472.385	924.88
473.161	1031.88
473.938	1157.88
474.714	1275.88
475.49	1406.88
476.266	1562.88
477.043	1741.88
477.819	1913.88
478.595	2113.88
479.371	2337.88
480.146	2595.88
480.922	2886.88
481.698	3162.88
482.473	3512.88
483.249	3887.88
484.024	4257.88
484.8	4720.88
485.575	5177.88
486.35	5708.88
487.126	6268.88
487.901	6891.88
488.676	7588.88
489.451	8309.88
490.225	9116.88
491	9945.88
491.775	10937.88
492.55	11897.88
493.324	12934.88
494.099	13895.88
494.873	15027.88
495.647	16250.88
496.422	17388.88
497.196	18628.88
497.97	19919.88
498.744	21170.88
499.518	22292.88
500.292	23529.88
501.066	24613.88
501.839	25527.88
502.613	26393.88
503.387	27135.88
504.16	27687.88
504.934	28071.88
505.707	28145.88
506.48	28075.88
507.253	27924.88
508.027	27624.88
508.8	27225.88
509.573	26678.88
510.346	25967.88
511.118	25177.88
511.891	24243.88
512.664	23425.88
513.437	22402.88
514.209	21442.88
514.982	20571.88
515.754	19658.88
516.526	18746.88
517.298	17936.88
518.071	17138.88
518.843	16489.88
519.615	15873.88
520.387	15181.88
521.159	14632.88
521.93	14059.88
522.702	13445.88
523.474	12956.88
524.245	12341.88
525.017	11849.88
525.788	11342.88
526.56	10840.88
527.331	10330.88
528.102	9845.88
528.873	9392.88
529.644	8925.88
530.415	8511.88
531.186	8052.88
531.957	7598.88
532.728	7208.88
533.498	6841.88
534.269	6439.88
535.039	6058.88
535.81	5743.88
536.58	5432.88
537.351	5095.88
538.121	4809.88
538.891	4571.88
539.661	4322.88
540.431	4077.88
541.201	3827.88
541.971	3629.88
542.741	3461.88
543.51	3277.88
544.28	3147.88
545.05	2985.88
545.819	2804.88
546.588	2683.88
547.358	2548.88
548.127	2413.88
548.896	2312.88
549.665	2173.88
550.434	2073.88
551.203	1946.88
551.972	1840.88
552.741	1751.88
553.51	1655.88
554.278	1561.88
555.047	1471.88
555.815	1382.88
556.584	1315.88
557.352	1244.88
558.121	1163.88
558.889	1106.88
559.657	1041.88
560.425	985.88
561.193	930.88
561.961	877.88
562.729	821.88
563.496	783.88
564.264	732.88
565.032	686.88
565.799	660.88
566.567	624.88
567.334	589.88
568.101	553.88
568.869	523.88
569.636	497.88
570.403	463.88
571.17	438.88
571.937	420.88
572.704	391.88
573.471	371.88
574.237	350.88
575.004	326.88
575.771	309.88
576.537	286.88
577.303	273.88
578.07	259.88
578.836	236.88
579.602	230.88
580.368	211.88
581.134	210.88
581.9	196.88
582.666	184.88
583.432	174.88
584.198	166.88
584.964	156.88
585.729	151.88
586.495	143.88
587.26	134.88
588.025	131.88
588.791	121.88
589.556	111.88
590.321	110.88
591.086	105.88
591.851	95.88
592.616	96.88
593.381	94.88
594.146	80.88
594.911	77.88
595.675	78.88
596.44	70.88
597.204	72.88
597.969	63.88
598.733	62.88
599.497	61.88
600.261	58.88
601.025	53.88
601.79	50.88
602.553	49.88
603.317	50.88
604.081	45.88
604.845	47.88
605.609	42.88
606.372	43.88
607.136	38.88
607.899	36.88
608.662	36.88
609.426	33.88
610.189	32.88
610.952	30.88
611.715	33.88
612.478	30.88
613.241	28.88
614.004	27.88
614.767	27.88
615.529	24.88
616.292	23.88
617.055	24.88
617.817	23.88
618.579	22.88
619.342	22.88
620.104	21.88
620.866	20.88
621.628	22.88
622.39	18.88
623.152	20.88
623.914	19.88
624.676	19.88
625.438	14.88
626.199	15.88
626.961	15.88
627.722	16.88
628.484	13.88
629.245	15.88
630.006	12.88
630.768	13.88
631.529	13.88
632.29	14.88
633.051	15.88
633.812	14.88
634.573	11.88
635.333	11.88
636.094	9.88
636.855	8.88
637.615	11.88
638.376	11.88
639.136	10.88
639.896	10.88
640.657	8.88
641.417	9.88
642.177	11.88
642.937	8.88
643.697	10.88
644.457	11.88
645.216	10.88
645.976	9.88
646.736	9.88
647.495	6.88
648.255	7.88
649.014	7.88
649.774	6.88
650.533	6.88
651.292	5.88
652.051	6.88
652.81	5.88
653.569	5.88
654.328	6.88
655.087	5.88
655.846	6.88
656.604	6.88
657.363	7.88
658.121	8.88
658.88	6.88
659.638	5.88
660.397	6.88
661.155	6.88
661.913	3.88
662.671	3.88
663.429	7.88
664.187	4.88
664.945	7.88
665.703	5.88
666.46	4.88
667.218	4.88
667.976	3.88
668.733	3.88
669.49	5.88
670.248	4.88
671.005	1.88
671.762	4.88
672.519	2.88
673.276	3.88
674.033	3.88
674.79	4.88
675.547	6.88
676.304	5.88
677.06	3.88
677.817	4.88
678.574	4.88
679.33	5.88
680.086	2.88
680.843	3.88
681.599	2.88
682.355	5.88
683.111	4.88
683.867	1.88
684.623	5.88
685.379	1.88
686.135	2.88
686.89	3.88
687.646	2.88
688.402	2.88
689.157	3.88
689.912	2.88
690.668	2.88
691.423	4.88
692.178	3.88
692.933	3.88
693.688	3.88
694.443	3.88
695.198	5.88
695.953	1.88
696.708	2.88
697.462	3.88
698.217	3.88
698.972	4.88
699.726	2.88
700.48	3.88
701.235	6.88
701.989	1.88
702.743	3.88
703.497	4.88
704.251	3.88
705.005	4.88
705.759	3.88
706.513	4.88
707.266	3.88
708.02	3.88
708.774	5.88
709.527	2.88
710.28	3.88
711.034	1.88
711.787	3.88
712.54	2.88
713.293	3.88
714.046	1.88
714.799	2.88
715.552	4.88
716.305	4.88
717.058	5.88
717.81	2.88
718.563	6.88
719.315	2.88
720.068	4.88
720.82	5.88
721.573	1.88
722.325	4.88
723.077	3.88
723.829	3.88
724.581	4.88
725.333	4.88
726.085	3.88
726.836	3.88
727.588	2.88
728.34	6.88
729.091	3.88
729.843	4.88
730.594	2.88
731.346	2.88
732.097	4.88
732.848	1.88
733.599	4.88
734.35	3.88
735.101	2.88
735.852	5.88
736.603	4.88
737.354	3.88
738.104	6.88
738.855	5.88
739.605	2.88
740.356	5.88
741.106	3.88
741.856	6.88
742.607	5.88
743.357	6.88
744.107	5.88
744.857	6.88
745.607	2.88
746.357	2.88
747.106	4.88
747.856	6.88
748.606	4.88
749.355	4.88
750.105	6.88
750.854	3.88
751.603	5.88
752.353	5.88
753.102	5.88
753.851	7.88
754.6	6.88
755.349	4.88
756.098	6.88
756.847	7.88
757.595	7.88
758.344	6.88
759.093	5.88
759.841	5.88
760.589	7.88
761.338	6.88
762.086	7.88
762.834	8.88
763.582	6.88
764.331	5.88
765.079	7.88
765.826	7.88
766.574	6.88
767.322	7.88
768.07	8.88
768.817	5.88
769.565	8.88
770.312	9.88
771.06	7.88
771.807	5.88
772.554	8.88
773.302	8.88
774.049	5.88
774.796	9.88
775.543	6.88
776.29	7.88
777.036	8.88
777.783	7.88
778.53	8.88
779.276	8.88
780.023	9.88
780.769	7.88
781.516	11.88
782.262	9.88
783.008	9.88
783.754	7.88
784.5	8.88
785.246	9.88
785.992	7.88
786.738	11.88
787.484	6.88
788.23	8.88
788.975	11.88
789.721	6.88
790.466	11.88
791.212	6.88
791.957	9.88
792.702	8.88
793.447	5.88
794.193	8.88
794.938	9.88
795.683	9.88
796.427	8.88
797.172	6.88
797.917	7.88
798.662	6.88
799.406	6.88
800.151	7.88
800.895	4.88
801.64	7.88
802.384	5.88
803.128	8.88
803.872	6.88
804.616	9.88
805.36	3.88
806.104	7.88
806.848	8.88
807.592	6.88
808.336	5.88
809.079	5.88
809.823	5.88
810.566	4.88
811.31	6.88
812.053	7.88
812.796	4.88
813.539	7.88
814.283	4.88
815.026	7.88
815.769	2.88
816.511	4.88
817.254	4.88
817.997	4.88
818.74	5.88
819.482	4.88
820.225	3.88
820.967	4.88
821.71	3.88
822.452	3.88
823.194	6.88
823.936	4.88
824.678	5.88
825.42	4.88
826.162	6.88
826.904	4.88
827.646	4.88
828.388	2.88
829.129	4.88
829.871	5.88
830.612	0.88
831.354	4.88
832.095	1.88
832.836	1.88
833.577	2.88
834.319	3.88
835.06	4.88
835.801	4.88
836.542	4.88
837.282	3.88
838.023	3.88
838.764	1.88
839.504	4.88
840.245	6.88
840.985	5.88
841.726	3.88
842.466	1.88
843.206	2.88
843.946	3.88
844.687	4.88
845.427	3.88
846.166	5.88
846.906	3.88
847.646	3.88
848.386	1.88
849.125	2.88
849.865	0.88
850.605	3.88
851.344	1.88
852.083	1.88
852.823	1.88
853.562	3.88
854.301	3.88
855.04	0.88
855.779	1.88
856.518	3.88
857.257	0.88
857.995	4.88
858.734	1.88
859.473	0.88
860.211	-0.12
860.95	-0.12
861.688	1.88
862.426	1.88
863.165	1.88
863.903	2.88
864.641	5.88
865.379	2.88
866.117	0.88
866.855	1.88
867.593	-0.12
868.33	3.88
869.068	2.88
869.806	4.88
870.543	1.88
871.28	1.88
872.018	0.88
872.755	0.88
873.492	2.88
874.229	0.88
874.967	-0.12
875.703	0.88
876.44	0.88
877.177	-0.12
877.914	-0.12
878.651	0.88
879.387	-0.12
880.124	3.88
880.86	0.88
881.597	-0.12
882.333	-0.12
883.069	2.88
883.806	0.88
884.542	1.88
885.278	0.88
886.014	1.88
886.749	0.88
887.485	0.88
888.221	1.88
888.957	0.88
889.692	1.88
890.428	-0.12
891.163	1.88
891.899	-0.12
892.634	1.88
893.369	1.88
894.104	1.88
894.839	0.88
895.574	0.88
896.309	1.88
897.044	1.88
897.779	0.88
898.514	0.88
899.248	1.88
899.983	3.88
900.717	1.88
901.452	0.88
902.186	1.88
902.92	-0.12
903.654	0.88
904.389	0.88
905.123	-0.12
905.857	1.88
906.59	0.88
907.324	1.88
908.058	1.88
908.792	-0.12
909.525	1.88
910.259	0.88
910.992	1.88
911.726	-2.12
912.459	0.88
913.192	-0.12
913.925	3.88
914.658	0.88
915.391	0.88
916.124	0.88
916.857	-1.12
917.59	-0.12
918.323	0.88
919.055	3.88
919.788	1.88
920.521	-0.12
921.253	1.88
921.985	1.88
922.718	1.88
923.45	1.88
924.182	2.88
924.914	-2.12
925.646	-1.12
926.378	0.88
927.11	-2.12
927.841	0.88
928.573	-0.12
929.305	-1.12
930.036	-0.12
930.768	0.88
931.499	2.88
932.23	-0.12
932.962	0.88
933.693	1.88
934.424	-0.12
935.155	-0.12
935.886	0.88
936.617	1.88
937.348	1.88
938.078	-2.12
938.809	-1.12
939.54	0.88
940.27	1.88
941.001	-0.12
941.731	0.88
942.461	0.88
943.191	0.88
943.922	0.88
944.652	1.88
945.382	1.88
946.112	-0.12
946.841	0.88
947.571	1.88
948.301	-2.12
949.031	0.88
949.76	1.88
950.49	-1.12
951.219	-0.12
951.948	-0.12
952.678	-0.12
953.407	-1.12
954.136	1.88
954.865	1.88
955.594	-0.12
956.323	0.88
957.052	-1.12
957.78	1.88
958.509	-0.12
959.238	-1.12
959.966	0.88
960.695	0.88
961.423	0.88
962.151	3.88
962.88	1.88
963.608	-0.12
964.336	1.88
965.064	0.88
965.792	-0.12
966.52	-0.12
967.247	0.88
967.975	0.88
968.703	1.88
969.43	-0.12
970.158	-0.12
970.885	-0.12
971.613	-0.12
972.34	-0.12
973.067	-0.12
973.794	-0.12
974.521	-1.12
975.248	-0.12
975.975	-0.12
976.702	0.88
977.429	0.88
978.156	-0.12
978.882	2.88
979.609	0.88
980.335	0.88
981.062	0.88
981.788	1.88
982.514	-0.12
983.24	-2.12
983.967	1.88
984.693	-1.12
985.419	1.88
986.144	2.88
986.87	1.88
987.596	1.88
988.322	0.88
989.047	1.88
989.773	0.88
990.498	0.88
991.224	0.88
991.949	-1.12
992.674	1.88
993.399	0.88
994.124	0.88
994.849	-0.12
995.574	0.88
996.299	-1.12
997.024	-0.12
997.749	1.88
998.473	0.88
999.198	0.88
999.922	1.88
1000.647	-1.12
1001.371	0.88
1002.095	-1.12
1002.82	-2.12
1003.544	0.88
1004.268	0.88
1004.992	1.88
1005.716	1.88
1006.439	2.88
1007.163	0.88
1007.887	0.88
1008.611	1.88
1009.334	1.88
1010.058	0.88
1010.781	1.88
1011.504	-0.12
1012.228	-1.12
1012.951	-0.12
1013.674	-0.12
1014.397	0.88
1015.12	0.88
