节点500_285_QEPB04081__403__15-02-15-621.txt的数据

Date: Wed Nov 12 15:02:15 CST 2025
User: PC
Spectrometer: QEPB0408
触发模式: 0
积分时间 (秒): 1.000000E-2
Scans to average: 1
启用暗噪声校正: true
启用非线性校正: false
滑动平均宽度: 0
X轴模式: Wavelengths
Number of Pixels in Spectrum: 1044
>>>>>Begin Spectral Data<<<<<
220.843	2.5
221.644	0.5
222.444	0.5
223.244	1.5
224.045	0.5
224.845	1.5
225.645	1.5
226.445	2.5
227.245	2.5
228.045	1.5
228.845	2.5
229.645	3.5
230.444	0.5
231.244	4.5
232.043	3.5
232.843	3.5
233.642	1.5
234.442	5.5
235.241	2.5
236.04	2.5
236.839	5.5
237.638	1.5
238.437	4.5
239.236	2.5
240.035	4.5
240.833	3.5
241.632	4.5
242.43	3.5
243.229	4.5
244.027	5.5
244.826	4.5
245.624	3.5
246.422	5.5
247.22	4.5
248.018	6.5
248.816	5.5
249.614	7.5
250.412	5.5
251.21	7.5
252.007	8.5
252.805	7.5
253.602	5.5
254.4	7.5
255.197	8.5
255.994	9.5
256.791	7.5
257.589	9.5
258.386	8.5
259.183	6.5
259.979	8.5
260.776	8.5
261.573	11.5
262.37	7.5
263.166	12.5
263.963	9.5
264.759	13.5
265.556	13.5
266.352	12.5
267.148	12.5
267.944	11.5
268.74	15.5
269.536	7.5
270.332	14.5
271.128	13.5
271.924	16.5
272.719	16.5
273.515	12.5
274.311	16.5
275.106	17.5
275.901	15.5
276.697	18.5
277.492	17.5
278.287	17.5
279.082	16.5
279.877	16.5
280.672	19.5
281.467	19.5
282.262	15.5
283.056	16.5
283.851	17.5
284.646	18.5
285.44	16.5
286.234	18.5
287.029	19.5
287.823	20.5
288.617	16.5
289.411	16.5
290.205	16.5
290.999	19.5
291.793	14.5
292.587	17.5
293.381	17.5
294.174	16.5
294.968	16.5
295.761	15.5
296.555	16.5
297.348	11.5
298.141	12.5
298.935	17.5
299.728	13.5
300.521	15.5
301.314	15.5
302.107	11.5
302.899	13.5
303.692	12.5
304.485	13.5
305.277	16.5
306.07	12.5
306.862	12.5
307.655	10.5
308.447	10.5
309.239	13.5
310.031	9.5
310.823	11.5
311.615	9.5
312.407	11.5
313.199	9.5
313.991	11.5
314.783	11.5
315.574	8.5
316.366	9.5
317.157	8.5
317.949	10.5
318.74	7.5
319.531	8.5
320.322	8.5
321.113	8.5
321.904	6.5
322.695	9.5
323.486	7.5
324.277	6.5
325.068	7.5
325.858	7.5
326.649	5.5
327.439	7.5
328.23	3.5
329.02	8.5
329.81	8.5
330.6	8.5
331.391	7.5
332.181	6.5
332.971	4.5
333.76	4.5
334.55	8.5
335.34	5.5
336.13	8.5
336.919	5.5
337.709	7.5
338.498	7.5
339.287	6.5
340.077	5.5
340.866	5.5
341.655	5.5
342.444	5.5
343.233	4.5
344.022	7.5
344.811	4.5
345.6	7.5
346.388	6.5
347.177	4.5
347.965	5.5
348.754	5.5
349.542	6.5
350.33	4.5
351.119	5.5
351.907	3.5
352.695	5.5
353.483	6.5
354.271	5.5
355.059	7.5
355.846	7.5
356.634	7.5
357.422	4.5
358.209	3.5
358.997	5.5
359.784	5.5
360.571	5.5
361.359	4.5
362.146	4.5
362.933	5.5
363.72	6.5
364.507	6.5
365.294	6.5
366.081	4.5
366.867	4.5
367.654	5.5
368.44	5.5
369.227	4.5
370.013	4.5
370.8	5.5
371.586	3.5
372.372	6.5
373.158	4.5
373.944	6.5
374.73	4.5
375.516	2.5
376.302	5.5
377.088	5.5
377.873	4.5
378.659	5.5
379.445	4.5
380.23	3.5
381.015	4.5
381.801	4.5
382.586	3.5
383.371	4.5
384.156	5.5
384.941	5.5
385.726	5.5
386.511	5.5
387.296	3.5
388.08	5.5
388.865	7.5
389.649	7.5
390.434	5.5
391.218	6.5
392.003	7.5
392.787	7.5
393.571	4.5
394.355	7.5
395.139	6.5
395.923	5.5
396.707	6.5
397.491	5.5
398.274	6.5
399.058	6.5
399.842	5.5
400.625	3.5
401.408	8.5
402.192	7.5
402.975	4.5
403.758	9.5
404.541	3.5
405.324	7.5
406.107	4.5
406.89	9.5
407.673	7.5
408.456	5.5
409.238	8.5
410.021	7.5
410.803	9.5
411.586	6.5
412.368	8.5
413.151	9.5
413.933	8.5
414.715	9.5
415.497	9.5
416.279	9.5
417.061	10.5
417.843	8.5
418.624	8.5
419.406	9.5
420.188	7.5
420.969	6.5
421.751	7.5
422.532	11.5
423.313	8.5
424.095	9.5
424.876	9.5
425.657	10.5
426.438	12.5
427.219	12.5
428	12.5
428.78	13.5
429.561	13.5
430.342	13.5
431.122	13.5
431.903	15.5
432.683	14.5
433.464	18.5
434.244	16.5
435.024	19.5
435.804	18.5
436.584	17.5
437.364	19.5
438.144	16.5
438.924	18.5
439.704	23.5
440.483	21.5
441.263	23.5
442.042	24.5
442.822	26.5
443.601	27.5
444.38	28.5
445.16	31.5
445.939	29.5
446.718	37.5
447.497	40.5
448.276	40.5
449.054	43.5
449.833	48.5
450.612	51.5
451.391	56.5
452.169	63.5
452.948	71.5
453.726	74.5
454.504	77.5
455.282	90.5
456.061	101.5
456.839	111.5
457.617	123.5
458.395	134.5
459.172	155.5
459.95	167.5
460.728	186.5
461.506	210.5
462.283	233.5
463.061	254.5
463.838	290.5
464.615	322.5
465.393	367.5
466.17	409.5
466.947	457.5
467.724	497.5
468.501	571.5
469.278	623.5
470.055	693.5
470.831	783.5
471.608	857.5
472.385	957.5
473.161	1053.5
473.938	1174.5
474.714	1293.5
475.49	1432.5
476.266	1597.5
477.043	1749.5
477.819	1925.5
478.595	2118.5
479.371	2355.5
480.146	2582.5
480.922	2844.5
481.698	3134.5
482.473	3445.5
483.249	3787.5
484.024	4177.5
484.8	4592.5
485.575	5032.5
486.35	5503.5
487.126	6054.5
487.901	6596.5
488.676	7271.5
489.451	7929.5
490.225	8658.5
491	9469.5
491.775	10315.5
492.55	11246.5
493.324	12162.5
494.099	13144.5
494.873	14154.5
495.647	15233.5
496.422	16396.5
497.196	17516.5
497.97	18664.5
498.744	19818.5
499.518	20978.5
500.292	22141.5
501.066	23187.5
501.839	24176.5
502.613	25061.5
503.387	25825.5
504.16	26432.5
504.934	26796.5
505.707	27027.5
506.48	27129.5
507.253	27128.5
508.027	26895.5
508.8	26619.5
509.573	26119.5
510.346	25637.5
511.118	24922.5
511.891	24141.5
512.664	23360.5
513.437	22487.5
514.209	21568.5
514.982	20708.5
515.754	19792.5
516.526	18890.5
517.298	18155.5
518.071	17339.5
518.843	16631.5
519.615	16086.5
520.387	15369.5
521.159	14764.5
521.93	14185.5
522.702	13628.5
523.474	13054.5
524.245	12481.5
525.017	11926.5
525.788	11497.5
526.56	10980.5
527.331	10476.5
528.102	10006.5
528.873	9557.5
529.644	9065.5
530.415	8666.5
531.186	8205.5
531.957	7798.5
532.728	7392.5
533.498	7038.5
534.269	6624.5
535.039	6282.5
535.81	5922.5
536.58	5594.5
537.351	5258.5
538.121	4958.5
538.891	4726.5
539.661	4456.5
540.431	4211.5
541.201	3996.5
541.971	3767.5
542.741	3564.5
543.51	3385.5
544.28	3229.5
545.05	3060.5
545.819	2921.5
546.588	2783.5
547.358	2658.5
548.127	2507.5
548.896	2375.5
549.665	2262.5
550.434	2135.5
551.203	2030.5
551.972	1916.5
552.741	1799.5
553.51	1726.5
554.278	1626.5
555.047	1525.5
555.815	1451.5
556.584	1374.5
557.352	1295.5
558.121	1210.5
558.889	1142.5
559.657	1077.5
560.425	1032.5
561.193	955.5
561.961	914.5
562.729	853.5
563.496	826.5
564.264	766.5
565.032	724.5
565.799	682.5
566.567	652.5
567.334	617.5
568.101	581.5
568.869	549.5
569.636	515.5
570.403	485.5
571.17	455.5
571.937	429.5
572.704	407.5
573.471	381.5
574.237	360.5
575.004	341.5
575.771	323.5
576.537	306.5
577.303	288.5
578.07	274.5
578.836	252.5
579.602	237.5
580.368	221.5
581.134	216.5
581.9	204.5
582.666	193.5
583.432	181.5
584.198	168.5
584.964	163.5
585.729	153.5
586.495	149.5
587.26	144.5
588.025	130.5
588.791	122.5
589.556	118.5
590.321	113.5
591.086	104.5
591.851	101.5
592.616	94.5
593.381	92.5
594.146	88.5
594.911	84.5
595.675	79.5
596.44	74.5
597.204	69.5
597.969	69.5
598.733	64.5
599.497	65.5
600.261	61.5
601.025	58.5
601.79	55.5
602.553	49.5
603.317	51.5
604.081	47.5
604.845	48.5
605.609	40.5
606.372	40.5
607.136	40.5
607.899	37.5
608.662	37.5
609.426	35.5
610.189	37.5
610.952	33.5
611.715	34.5
612.478	32.5
613.241	27.5
614.004	27.5
614.767	24.5
615.529	27.5
616.292	27.5
617.055	22.5
617.817	25.5
618.579	22.5
619.342	23.5
620.104	23.5
620.866	20.5
621.628	19.5
622.39	20.5
623.152	19.5
623.914	17.5
624.676	17.5
625.438	19.5
626.199	11.5
626.961	16.5
627.722	15.5
628.484	15.5
629.245	13.5
630.006	13.5
630.768	13.5
631.529	11.5
632.29	12.5
633.051	13.5
633.812	11.5
634.573	9.5
635.333	12.5
636.094	12.5
636.855	11.5
637.615	10.5
638.376	9.5
639.136	11.5
639.896	10.5
640.657	10.5
641.417	8.5
642.177	8.5
642.937	9.5
643.697	4.5
644.457	6.5
645.216	8.5
645.976	7.5
646.736	6.5
647.495	7.5
648.255	8.5
649.014	6.5
649.774	7.5
650.533	5.5
651.292	8.5
652.051	8.5
652.81	5.5
653.569	8.5
654.328	6.5
655.087	5.5
655.846	6.5
656.604	8.5
657.363	9.5
658.121	4.5
658.88	4.5
659.638	5.5
660.397	4.5
661.155	3.5
661.913	5.5
662.671	8.5
663.429	5.5
664.187	5.5
664.945	5.5
665.703	5.5
666.46	4.5
667.218	1.5
667.976	3.5
668.733	4.5
669.49	6.5
670.248	5.5
671.005	3.5
671.762	7.5
672.519	3.5
673.276	5.5
674.033	5.5
674.79	3.5
675.547	3.5
676.304	5.5
677.06	5.5
677.817	3.5
678.574	2.5
679.33	3.5
680.086	4.5
680.843	6.5
681.599	3.5
682.355	4.5
683.111	6.5
683.867	3.5
684.623	4.5
685.379	4.5
686.135	4.5
686.89	3.5
687.646	5.5
688.402	5.5
689.157	2.5
689.912	2.5
690.668	4.5
691.423	2.5
692.178	2.5
692.933	4.5
693.688	3.5
694.443	2.5
695.198	3.5
695.953	1.5
696.708	4.5
697.462	3.5
698.217	4.5
698.972	3.5
699.726	2.5
700.48	2.5
701.235	4.5
701.989	2.5
702.743	3.5
703.497	3.5
704.251	2.5
705.005	3.5
705.759	4.5
706.513	2.5
707.266	4.5
708.02	2.5
708.774	3.5
709.527	4.5
710.28	3.5
711.034	3.5
711.787	5.5
712.54	2.5
713.293	3.5
714.046	0.5
714.799	2.5
715.552	2.5
716.305	2.5
717.058	0.5
717.81	2.5
718.563	2.5
719.315	3.5
720.068	4.5
720.82	3.5
721.573	1.5
722.325	1.5
723.077	3.5
723.829	0.5
724.581	3.5
725.333	6.5
726.085	0.5
726.836	3.5
727.588	3.5
728.34	3.5
729.091	5.5
729.843	1.5
730.594	6.5
731.346	0.5
732.097	5.5
732.848	3.5
733.599	5.5
734.35	2.5
735.101	3.5
735.852	4.5
736.603	2.5
737.354	3.5
738.104	5.5
738.855	4.5
739.605	3.5
740.356	3.5
741.106	3.5
741.856	5.5
742.607	4.5
743.357	5.5
744.107	1.5
744.857	4.5
745.607	7.5
746.357	3.5
747.106	6.5
747.856	2.5
748.606	6.5
749.355	5.5
750.105	4.5
750.854	5.5
751.603	4.5
752.353	4.5
753.102	3.5
753.851	4.5
754.6	5.5
755.349	3.5
756.098	5.5
756.847	5.5
757.595	5.5
758.344	6.5
759.093	4.5
759.841	6.5
760.589	7.5
761.338	5.5
762.086	5.5
762.834	7.5
763.582	4.5
764.331	6.5
765.079	8.5
765.826	8.5
766.574	6.5
767.322	9.5
768.07	6.5
768.817	6.5
769.565	6.5
770.312	7.5
771.06	6.5
771.807	8.5
772.554	7.5
773.302	8.5
774.049	8.5
774.796	7.5
775.543	7.5
776.29	7.5
777.036	9.5
777.783	6.5
778.53	8.5
779.276	9.5
780.023	8.5
780.769	7.5
781.516	8.5
782.262	9.5
783.008	9.5
783.754	8.5
784.5	9.5
785.246	8.5
785.992	10.5
786.738	10.5
787.484	9.5
788.23	7.5
788.975	7.5
789.721	8.5
790.466	8.5
791.212	10.5
791.957	7.5
792.702	7.5
793.447	9.5
794.193	6.5
794.938	6.5
795.683	8.5
796.427	7.5
797.172	7.5
797.917	7.5
798.662	6.5
799.406	6.5
800.151	8.5
800.895	7.5
801.64	6.5
802.384	7.5
803.128	6.5
803.872	6.5
804.616	6.5
805.36	7.5
806.104	5.5
806.848	4.5
807.592	8.5
808.336	4.5
809.079	5.5
809.823	3.5
810.566	4.5
811.31	5.5
812.053	5.5
812.796	6.5
813.539	3.5
814.283	5.5
815.026	2.5
815.769	6.5
816.511	6.5
817.254	4.5
817.997	4.5
818.74	4.5
819.482	4.5
820.225	6.5
820.967	3.5
821.71	5.5
822.452	3.5
823.194	5.5
823.936	3.5
824.678	5.5
825.42	5.5
826.162	4.5
826.904	4.5
827.646	4.5
828.388	4.5
829.129	3.5
829.871	4.5
830.612	6.5
831.354	3.5
832.095	6.5
832.836	3.5
833.577	4.5
834.319	4.5
835.06	4.5
835.801	1.5
836.542	2.5
837.282	3.5
838.023	0.5
838.764	3.5
839.504	4.5
840.245	1.5
840.985	4.5
841.726	3.5
842.466	3.5
843.206	4.5
843.946	3.5
844.687	3.5
845.427	1.5
846.166	3.5
846.906	0.5
847.646	4.5
848.386	4.5
849.125	3.5
849.865	3.5
850.605	0.5
851.344	4.5
852.083	0.5
852.823	2.5
853.562	2.5
854.301	-0.5
855.04	3.5
855.779	1.5
856.518	4.5
857.257	4.5
857.995	3.5
858.734	4.5
859.473	2.5
860.211	1.5
860.95	1.5
861.688	1.5
862.426	2.5
863.165	3.5
863.903	2.5
864.641	1.5
865.379	1.5
866.117	0.5
866.855	0.5
867.593	1.5
868.33	0.5
869.068	1.5
869.806	-1.5
870.543	1.5
871.28	-2.5
872.018	2.5
872.755	-0.5
873.492	-0.5
874.229	0.5
874.967	1.5
875.703	-0.5
876.44	-0.5
877.177	0.5
877.914	0.5
878.651	-0.5
879.387	1.5
880.124	-1.5
880.86	2.5
881.597	0.5
882.333	-0.5
883.069	1.5
883.806	1.5
884.542	0.5
885.278	0.5
886.014	0.5
886.749	1.5
887.485	-0.5
888.221	1.5
888.957	2.5
889.692	0.5
890.428	1.5
891.163	1.5
891.899	-0.5
892.634	-1.5
893.369	1.5
894.104	0.5
894.839	1.5
895.574	0.5
896.309	0.5
897.044	0.5
897.779	0.5
898.514	1.5
899.248	-0.5
899.983	1.5
900.717	-0.5
901.452	-1.5
902.186	0.5
902.92	-0.5
903.654	1.5
904.389	1.5
905.123	1.5
905.857	-1.5
906.59	-0.5
907.324	-0.5
908.058	0.5
908.792	-0.5
909.525	-1.5
910.259	1.5
910.992	1.5
911.726	0.5
912.459	1.5
913.192	1.5
913.925	0.5
914.658	-0.5
915.391	-0.5
916.124	1.5
916.857	-2.5
917.59	0.5
918.323	-1.5
919.055	-0.5
919.788	0.5
920.521	0.5
921.253	-1.5
921.985	0.5
922.718	-0.5
923.45	-0.5
924.182	0.5
924.914	-0.5
925.646	1.5
926.378	0.5
927.11	1.5
927.841	-0.5
928.573	-0.5
929.305	-0.5
930.036	-0.5
930.768	-1.5
931.499	0.5
932.23	1.5
932.962	-0.5
933.693	2.5
934.424	2.5
935.155	1.5
935.886	-0.5
936.617	1.5
937.348	1.5
938.078	-0.5
938.809	-0.5
939.54	-0.5
940.27	0.5
941.001	0.5
941.731	0.5
942.461	-2.5
943.191	-2.5
943.922	-0.5
944.652	-0.5
945.382	-1.5
946.112	-1.5
946.841	-0.5
947.571	1.5
948.301	-2.5
949.031	1.5
949.76	0.5
950.49	0.5
951.219	-0.5
951.948	0.5
952.678	-0.5
953.407	-2.5
954.136	0.5
954.865	-0.5
955.594	1.5
956.323	1.5
957.052	-1.5
957.78	2.5
958.509	-0.5
959.238	-0.5
959.966	-0.5
960.695	0.5
961.423	-3.5
962.151	0.5
962.88	1.5
963.608	-0.5
964.336	0.5
965.064	2.5
965.792	0.5
966.52	-0.5
967.247	-0.5
967.975	0.5
968.703	-1.5
969.43	-0.5
970.158	0.5
970.885	0.5
971.613	1.5
972.34	-0.5
973.067	1.5
973.794	3.5
974.521	0.5
975.248	1.5
975.975	1.5
976.702	-0.5
977.429	-0.5
978.156	-0.5
978.882	1.5
979.609	-0.5
980.335	3.5
981.062	-1.5
981.788	0.5
982.514	0.5
983.24	-0.5
983.967	1.5
984.693	0.5
985.419	0.5
986.144	-1.5
986.87	1.5
987.596	-0.5
988.322	-0.5
989.047	1.5
989.773	-2.5
990.498	-1.5
991.224	1.5
991.949	0.5
992.674	-1.5
993.399	1.5
994.124	-2.5
994.849	0.5
995.574	-0.5
996.299	0.5
997.024	0.5
997.749	-0.5
998.473	0.5
999.198	-0.5
999.922	-0.5
1000.647	0.5
1001.371	1.5
1002.095	-1.5
1002.82	0.5
1003.544	-0.5
1004.268	-0.5
1004.992	-0.5
1005.716	1.5
1006.439	0.5
1007.163	2.5
1007.887	1.5
1008.611	-0.5
1009.334	0.5
1010.058	-0.5
1010.781	-0.5
1011.504	1.5
1012.228	-0.5
1012.951	-0.5
1013.674	0.5
1014.397	-0.5
1015.12	0.5
