节点500_285_QEPB04081__90__14-57-03-285.txt的数据

Date: Wed Nov 12 14:57:03 CST 2025
User: PC
Spectrometer: QEPB0408
触发模式: 0
积分时间 (秒): 1.000000E-2
Scans to average: 1
启用暗噪声校正: true
启用非线性校正: false
滑动平均宽度: 0
X轴模式: Wavelengths
Number of Pixels in Spectrum: 1044
>>>>>Begin Spectral Data<<<<<
220.843	3.25
221.644	1.25
222.444	4.25
223.244	1.25
224.045	3.25
224.845	5.25
225.645	0.25
226.445	1.25
227.245	3.25
228.045	3.25
228.845	4.25
229.645	2.25
230.444	2.25
231.244	4.25
232.043	3.25
232.843	3.25
233.642	4.25
234.442	5.25
235.241	4.25
236.04	4.25
236.839	5.25
237.638	2.25
238.437	3.25
239.236	3.25
240.035	6.25
240.833	5.25
241.632	3.25
242.43	5.25
243.229	6.25
244.027	4.25
244.826	4.25
245.624	6.25
246.422	5.25
247.22	4.25
248.018	5.25
248.816	6.25
249.614	6.25
250.412	6.25
251.21	6.25
252.007	6.25
252.805	9.25
253.602	7.25
254.4	7.25
255.197	9.25
255.994	7.25
256.791	9.25
257.589	9.25
258.386	9.25
259.183	12.25
259.979	9.25
260.776	9.25
261.573	11.25
262.37	13.25
263.166	9.25
263.963	12.25
264.759	12.25
265.556	12.25
266.352	11.25
267.148	14.25
267.944	11.25
268.74	13.25
269.536	16.25
270.332	13.25
271.128	16.25
271.924	19.25
272.719	16.25
273.515	17.25
274.311	18.25
275.106	19.25
275.901	18.25
276.697	18.25
277.492	20.25
278.287	18.25
279.082	22.25
279.877	20.25
280.672	20.25
281.467	21.25
282.262	21.25
283.056	20.25
283.851	19.25
284.646	19.25
285.44	19.25
286.234	19.25
287.029	20.25
287.823	18.25
288.617	19.25
289.411	21.25
290.205	16.25
290.999	19.25
291.793	18.25
292.587	19.25
293.381	16.25
294.174	18.25
294.968	15.25
295.761	17.25
296.555	13.25
297.348	17.25
298.141	15.25
298.935	16.25
299.728	18.25
300.521	16.25
301.314	15.25
302.107	13.25
302.899	15.25
303.692	12.25
304.485	12.25
305.277	16.25
306.07	12.25
306.862	14.25
307.655	12.25
308.447	12.25
309.239	14.25
310.031	12.25
310.823	11.25
311.615	8.25
312.407	13.25
313.199	10.25
313.991	10.25
314.783	8.25
315.574	7.25
316.366	9.25
317.157	7.25
317.949	7.25
318.74	9.25
319.531	9.25
320.322	9.25
321.113	9.25
321.904	3.25
322.695	5.25
323.486	7.25
324.277	9.25
325.068	8.25
325.858	9.25
326.649	5.25
327.439	7.25
328.23	10.25
329.02	6.25
329.81	6.25
330.6	7.25
331.391	6.25
332.181	5.25
332.971	4.25
333.76	8.25
334.55	6.25
335.34	7.25
336.13	6.25
336.919	7.25
337.709	6.25
338.498	6.25
339.287	6.25
340.077	6.25
340.866	6.25
341.655	6.25
342.444	7.25
343.233	8.25
344.022	6.25
344.811	7.25
345.6	5.25
346.388	7.25
347.177	6.25
347.965	7.25
348.754	6.25
349.542	6.25
350.33	6.25
351.119	7.25
351.907	8.25
352.695	5.25
353.483	3.25
354.271	6.25
355.059	6.25
355.846	3.25
356.634	8.25
357.422	6.25
358.209	4.25
358.997	5.25
359.784	6.25
360.571	4.25
361.359	4.25
362.146	5.25
362.933	6.25
363.72	5.25
364.507	3.25
365.294	6.25
366.081	6.25
366.867	4.25
367.654	5.25
368.44	4.25
369.227	6.25
370.013	6.25
370.8	6.25
371.586	4.25
372.372	4.25
373.158	7.25
373.944	4.25
374.73	6.25
375.516	5.25
376.302	6.25
377.088	6.25
377.873	2.25
378.659	5.25
379.445	5.25
380.23	5.25
381.015	6.25
381.801	4.25
382.586	7.25
383.371	5.25
384.156	6.25
384.941	3.25
385.726	9.25
386.511	5.25
387.296	6.25
388.08	5.25
388.865	6.25
389.649	5.25
390.434	6.25
391.218	6.25
392.003	5.25
392.787	7.25
393.571	5.25
394.355	5.25
395.139	5.25
395.923	6.25
396.707	7.25
397.491	8.25
398.274	6.25
399.058	7.25
399.842	8.25
400.625	5.25
401.408	6.25
402.192	6.25
402.975	8.25
403.758	7.25
404.541	9.25
405.324	8.25
406.107	9.25
406.89	6.25
407.673	8.25
408.456	8.25
409.238	9.25
410.021	8.25
410.803	6.25
411.586	8.25
412.368	10.25
413.151	12.25
413.933	6.25
414.715	8.25
415.497	8.25
416.279	9.25
417.061	10.25
417.843	10.25
418.624	8.25
419.406	11.25
420.188	11.25
420.969	8.25
421.751	12.25
422.532	13.25
423.313	10.25
424.095	11.25
424.876	13.25
425.657	14.25
426.438	13.25
427.219	11.25
428	13.25
428.78	11.25
429.561	12.25
430.342	12.25
431.122	15.25
431.903	15.25
432.683	13.25
433.464	16.25
434.244	16.25
435.024	17.25
435.804	19.25
436.584	18.25
437.364	20.25
438.144	19.25
438.924	24.25
439.704	22.25
440.483	22.25
441.263	23.25
442.042	24.25
442.822	28.25
443.601	27.25
444.38	26.25
445.16	30.25
445.939	34.25
446.718	33.25
447.497	37.25
448.276	45.25
449.054	43.25
449.833	48.25
450.612	52.25
451.391	55.25
452.169	57.25
452.948	60.25
453.726	67.25
454.504	75.25
455.282	82.25
456.061	91.25
456.839	100.25
457.617	118.25
458.395	125.25
459.172	140.25
459.95	158.25
460.728	167.25
461.506	195.25
462.283	217.25
463.061	235.25
463.838	267.25
464.615	299.25
465.393	331.25
466.17	384.25
466.947	420.25
467.724	467.25
468.501	520.25
469.278	580.25
470.055	662.25
470.831	739.25
471.608	812.25
472.385	912.25
473.161	1016.25
473.938	1125.25
474.714	1257.25
475.49	1388.25
476.266	1552.25
477.043	1722.25
477.819	1894.25
478.595	2125.25
479.371	2335.25
480.146	2595.25
480.922	2900.25
481.698	3204.25
482.473	3525.25
483.249	3895.25
484.024	4333.25
484.8	4741.25
485.575	5268.25
486.35	5807.25
487.126	6394.25
487.901	7046.25
488.676	7784.25
489.451	8519.25
490.225	9339.25
491	10246.25
491.775	11238.25
492.55	12246.25
493.324	13304.25
494.099	14405.25
494.873	15546.25
495.647	16818.25
496.422	18011.25
497.196	19329.25
497.97	20621.25
498.744	21930.25
499.518	23145.25
500.292	24260.25
501.066	25389.25
501.839	26313.25
502.613	27147.25
503.387	27918.25
504.16	28412.25
504.934	28671.25
505.707	28680.25
506.48	28639.25
507.253	28349.25
508.027	27930.25
508.8	27441.25
509.573	26889.25
510.346	26095.25
511.118	25214.25
511.891	24262.25
512.664	23335.25
513.437	22319.25
514.209	21385.25
514.982	20406.25
515.754	19441.25
516.526	18585.25
517.298	17766.25
518.071	16920.25
518.843	16369.25
519.615	15704.25
520.387	15078.25
521.159	14451.25
521.93	13870.25
522.702	13359.25
523.474	12801.25
524.245	12270.25
525.017	11664.25
525.788	11251.25
526.56	10734.25
527.331	10171.25
528.102	9721.25
528.873	9262.25
529.644	8822.25
530.415	8362.25
531.186	7918.25
531.957	7474.25
532.728	7124.25
533.498	6715.25
534.269	6304.25
535.039	5966.25
535.81	5633.25
536.58	5318.25
537.351	5010.25
538.121	4724.25
538.891	4473.25
539.661	4243.25
540.431	3992.25
541.201	3793.25
541.971	3587.25
542.741	3410.25
543.51	3215.25
544.28	3085.25
545.05	2928.25
545.819	2766.25
546.588	2639.25
547.358	2511.25
548.127	2396.25
548.896	2253.25
549.665	2132.25
550.434	2036.25
551.203	1924.25
551.972	1810.25
552.741	1694.25
553.51	1608.25
554.278	1506.25
555.047	1436.25
555.815	1351.25
556.584	1274.25
557.352	1204.25
558.121	1145.25
558.889	1076.25
559.657	1019.25
560.425	956.25
561.193	900.25
561.961	849.25
562.729	808.25
563.496	755.25
564.264	729.25
565.032	685.25
565.799	634.25
566.567	608.25
567.334	569.25
568.101	547.25
568.869	512.25
569.636	485.25
570.403	454.25
571.17	431.25
571.937	401.25
572.704	380.25
573.471	359.25
574.237	339.25
575.004	324.25
575.771	297.25
576.537	289.25
577.303	267.25
578.07	254.25
578.836	238.25
579.602	220.25
580.368	210.25
581.134	199.25
581.9	200.25
582.666	178.25
583.432	169.25
584.198	160.25
584.964	152.25
585.729	148.25
586.495	139.25
587.26	134.25
588.025	125.25
588.791	119.25
589.556	111.25
590.321	100.25
591.086	99.25
591.851	98.25
592.616	90.25
593.381	87.25
594.146	85.25
594.911	82.25
595.675	76.25
596.44	73.25
597.204	67.25
597.969	61.25
598.733	62.25
599.497	61.25
600.261	56.25
601.025	55.25
601.79	56.25
602.553	53.25
603.317	46.25
604.081	44.25
604.845	43.25
605.609	45.25
606.372	40.25
607.136	37.25
607.899	41.25
608.662	35.25
609.426	34.25
610.189	31.25
610.952	33.25
611.715	32.25
612.478	30.25
613.241	29.25
614.004	25.25
614.767	25.25
615.529	23.25
616.292	22.25
617.055	22.25
617.817	21.25
618.579	22.25
619.342	20.25
620.104	22.25
620.866	21.25
621.628	22.25
622.39	20.25
623.152	17.25
623.914	19.25
624.676	15.25
625.438	14.25
626.199	18.25
626.961	16.25
627.722	16.25
628.484	11.25
629.245	14.25
630.006	13.25
630.768	12.25
631.529	13.25
632.29	14.25
633.051	10.25
633.812	11.25
634.573	10.25
635.333	9.25
636.094	11.25
636.855	8.25
637.615	7.25
638.376	11.25
639.136	9.25
639.896	9.25
640.657	9.25
641.417	10.25
642.177	10.25
642.937	7.25
643.697	9.25
644.457	8.25
645.216	7.25
645.976	10.25
646.736	7.25
647.495	7.25
648.255	8.25
649.014	8.25
649.774	8.25
650.533	7.25
651.292	6.25
652.051	5.25
652.81	5.25
653.569	7.25
654.328	6.25
655.087	6.25
655.846	7.25
656.604	7.25
657.363	6.25
658.121	5.25
658.88	5.25
659.638	5.25
660.397	5.25
661.155	6.25
661.913	7.25
662.671	7.25
663.429	5.25
664.187	6.25
664.945	4.25
665.703	5.25
666.46	6.25
667.218	5.25
667.976	6.25
668.733	3.25
669.49	5.25
670.248	3.25
671.005	5.25
671.762	4.25
672.519	6.25
673.276	3.25
674.033	3.25
674.79	4.25
675.547	5.25
676.304	2.25
677.06	5.25
677.817	2.25
678.574	3.25
679.33	3.25
680.086	3.25
680.843	6.25
681.599	3.25
682.355	5.25
683.111	3.25
683.867	6.25
684.623	4.25
685.379	4.25
686.135	5.25
686.89	3.25
687.646	5.25
688.402	3.25
689.157	5.25
689.912	5.25
690.668	3.25
691.423	3.25
692.178	3.25
692.933	4.25
693.688	4.25
694.443	4.25
695.198	4.25
695.953	2.25
696.708	6.25
697.462	1.25
698.217	5.25
698.972	6.25
699.726	3.25
700.48	4.25
701.235	2.25
701.989	4.25
702.743	3.25
703.497	1.25
704.251	2.25
705.005	3.25
705.759	3.25
706.513	4.25
707.266	3.25
708.02	6.25
708.774	3.25
709.527	4.25
710.28	5.25
711.034	2.25
711.787	7.25
712.54	4.25
713.293	3.25
714.046	3.25
714.799	5.25
715.552	1.25
716.305	5.25
717.058	4.25
717.81	5.25
718.563	6.25
719.315	5.25
720.068	3.25
720.82	4.25
721.573	5.25
722.325	5.25
723.077	6.25
723.829	2.25
724.581	6.25
725.333	3.25
726.085	3.25
726.836	5.25
727.588	4.25
728.34	1.25
729.091	1.25
729.843	1.25
730.594	2.25
731.346	5.25
732.097	3.25
732.848	6.25
733.599	5.25
734.35	4.25
735.101	4.25
735.852	2.25
736.603	4.25
737.354	6.25
738.104	6.25
738.855	3.25
739.605	4.25
740.356	5.25
741.106	4.25
741.856	5.25
742.607	6.25
743.357	5.25
744.107	6.25
744.857	5.25
745.607	7.25
746.357	5.25
747.106	6.25
747.856	4.25
748.606	5.25
749.355	6.25
750.105	4.25
750.854	7.25
751.603	5.25
752.353	7.25
753.102	5.25
753.851	5.25
754.6	8.25
755.349	7.25
756.098	8.25
756.847	7.25
757.595	7.25
758.344	5.25
759.093	5.25
759.841	6.25
760.589	4.25
761.338	6.25
762.086	8.25
762.834	5.25
763.582	9.25
764.331	8.25
765.079	8.25
765.826	7.25
766.574	9.25
767.322	8.25
768.07	7.25
768.817	8.25
769.565	7.25
770.312	8.25
771.06	6.25
771.807	9.25
772.554	10.25
773.302	8.25
774.049	7.25
774.796	8.25
775.543	6.25
776.29	9.25
777.036	10.25
777.783	11.25
778.53	8.25
779.276	9.25
780.023	10.25
780.769	8.25
781.516	7.25
782.262	9.25
783.008	9.25
783.754	7.25
784.5	13.25
785.246	10.25
785.992	7.25
786.738	9.25
787.484	10.25
788.23	9.25
788.975	11.25
789.721	8.25
790.466	9.25
791.212	9.25
791.957	9.25
792.702	9.25
793.447	11.25
794.193	10.25
794.938	8.25
795.683	10.25
796.427	8.25
797.172	9.25
797.917	7.25
798.662	6.25
799.406	6.25
800.151	11.25
800.895	9.25
801.64	8.25
802.384	6.25
803.128	8.25
803.872	8.25
804.616	8.25
805.36	4.25
806.104	8.25
806.848	7.25
807.592	8.25
808.336	6.25
809.079	5.25
809.823	4.25
810.566	5.25
811.31	7.25
812.053	8.25
812.796	4.25
813.539	4.25
814.283	5.25
815.026	6.25
815.769	8.25
816.511	6.25
817.254	8.25
817.997	4.25
818.74	5.25
819.482	6.25
820.225	5.25
820.967	5.25
821.71	3.25
822.452	2.25
823.194	5.25
823.936	4.25
824.678	7.25
825.42	4.25
826.162	6.25
826.904	2.25
827.646	2.25
828.388	5.25
829.129	3.25
829.871	4.25
830.612	3.25
831.354	5.25
832.095	3.25
832.836	4.25
833.577	3.25
834.319	1.25
835.06	4.25
835.801	6.25
836.542	3.25
837.282	4.25
838.023	4.25
838.764	4.25
839.504	3.25
840.245	4.25
840.985	3.25
841.726	5.25
842.466	0.25
843.206	1.25
843.946	4.25
844.687	3.25
845.427	1.25
846.166	3.25
846.906	4.25
847.646	3.25
848.386	0.25
849.125	3.25
849.865	2.25
850.605	4.25
851.344	3.25
852.083	2.25
852.823	2.25
853.562	4.25
854.301	4.25
855.04	3.25
855.779	3.25
856.518	4.25
857.257	-0.75
857.995	3.25
858.734	3.25
859.473	3.25
860.211	1.25
860.95	1.25
861.688	3.25
862.426	2.25
863.165	1.25
863.903	1.25
864.641	0.25
865.379	3.25
866.117	3.25
866.855	2.25
867.593	3.25
868.33	3.25
869.068	3.25
869.806	2.25
870.543	1.25
871.28	3.25
872.018	1.25
872.755	1.25
873.492	2.25
874.229	2.25
874.967	1.25
875.703	2.25
876.44	1.25
877.177	2.25
877.914	1.25
878.651	1.25
879.387	1.25
880.124	1.25
880.86	-0.75
881.597	1.25
882.333	2.25
883.069	0.25
883.806	0.25
884.542	1.25
885.278	1.25
886.014	2.25
886.749	1.25
887.485	-0.75
888.221	1.25
888.957	3.25
889.692	2.25
890.428	2.25
891.163	-0.75
891.899	2.25
892.634	1.25
893.369	4.25
894.104	-0.75
894.839	1.25
895.574	-0.75
896.309	1.25
897.044	2.25
897.779	-0.75
898.514	1.25
899.248	-0.75
899.983	-0.75
900.717	0.25
901.452	-0.75
902.186	0.25
902.92	1.25
903.654	1.25
904.389	2.25
905.123	2.25
905.857	-0.75
906.59	3.25
907.324	1.25
908.058	2.25
908.792	3.25
909.525	2.25
910.259	-0.75
910.992	-0.75
911.726	2.25
912.459	-0.75
913.192	0.25
913.925	-1.75
914.658	1.25
915.391	-0.75
916.124	0.25
916.857	0.25
917.59	1.25
918.323	-0.75
919.055	-0.75
919.788	0.25
920.521	1.25
921.253	0.25
921.985	0.25
922.718	-0.75
923.45	0.25
924.182	0.25
924.914	0.25
925.646	1.25
926.378	-1.75
927.11	0.25
927.841	-0.75
928.573	-1.75
929.305	3.25
930.036	1.25
930.768	-2.75
931.499	0.25
932.23	-0.75
932.962	1.25
933.693	3.25
934.424	-0.75
935.155	3.25
935.886	0.25
936.617	1.25
937.348	1.25
938.078	-0.75
938.809	-0.75
939.54	1.25
940.27	2.25
941.001	-0.75
941.731	-0.75
942.461	-0.75
943.191	-2.75
943.922	0.25
944.652	1.25
945.382	0.25
946.112	1.25
946.841	1.25
947.571	1.25
948.301	-0.75
949.031	0.25
949.76	1.25
950.49	0.25
951.219	0.25
951.948	1.25
952.678	0.25
953.407	0.25
954.136	1.25
954.865	2.25
955.594	-0.75
956.323	0.25
957.052	1.25
957.78	1.25
958.509	1.25
959.238	-0.75
959.966	0.25
960.695	-0.75
961.423	0.25
962.151	1.25
962.88	-0.75
963.608	-1.75
964.336	2.25
965.064	1.25
965.792	1.25
966.52	1.25
967.247	0.25
967.975	1.25
968.703	-0.75
969.43	1.25
970.158	0.25
970.885	-0.75
971.613	-0.75
972.34	1.25
973.067	-0.75
973.794	0.25
974.521	-2.75
975.248	0.25
975.975	3.25
976.702	0.25
977.429	2.25
978.156	-0.75
978.882	0.25
979.609	1.25
980.335	-0.75
981.062	-1.75
981.788	-0.75
982.514	2.25
983.24	0.25
983.967	1.25
984.693	-0.75
985.419	1.25
986.144	1.25
986.87	1.25
987.596	-0.75
988.322	1.25
989.047	-0.75
989.773	1.25
990.498	0.25
991.224	1.25
991.949	0.25
992.674	-0.75
993.399	1.25
994.124	-1.75
994.849	0.25
995.574	-0.75
996.299	1.25
997.024	-0.75
997.749	-0.75
998.473	-1.75
999.198	0.25
999.922	2.25
1000.647	-0.75
1001.371	2.25
1002.095	0.25
1002.82	-0.75
1003.544	-0.75
1004.268	3.25
1004.992	1.25
1005.716	-0.75
1006.439	1.25
1007.163	0.25
1007.887	-0.75
1008.611	1.25
1009.334	0.25
1010.058	0.25
1010.781	-0.75
1011.504	0.25
1012.228	-0.75
1012.951	1.25
1013.674	1.25
1014.397	-0.75
1015.12	-2.75
