节点500_285_QEPB04081__521__15-04-13-340.txt的数据

Date: Wed Nov 12 15:04:13 CST 2025
User: PC
Spectrometer: QEPB0408
触发模式: 0
积分时间 (秒): 1.000000E-2
Scans to average: 1
启用暗噪声校正: true
启用非线性校正: false
滑动平均宽度: 0
X轴模式: Wavelengths
Number of Pixels in Spectrum: 1044
>>>>>Begin Spectral Data<<<<<
220.843	3.12
221.644	0.12
222.444	-0.88
223.244	1.12
224.045	3.12
224.845	2.12
225.645	4.12
226.445	3.12
227.245	1.12
228.045	4.12
228.845	4.12
229.645	3.12
230.444	1.12
231.244	2.12
232.043	6.12
232.843	3.12
233.642	4.12
234.442	4.12
235.241	3.12
236.04	3.12
236.839	4.12
237.638	3.12
238.437	4.12
239.236	4.12
240.035	4.12
240.833	4.12
241.632	7.12
242.43	6.12
243.229	5.12
244.027	3.12
244.826	6.12
245.624	3.12
246.422	6.12
247.22	6.12
248.018	5.12
248.816	6.12
249.614	7.12
250.412	4.12
251.21	9.12
252.007	9.12
252.805	7.12
253.602	6.12
254.4	9.12
255.197	7.12
255.994	6.12
256.791	7.12
257.589	8.12
258.386	9.12
259.183	12.12
259.979	11.12
260.776	10.12
261.573	10.12
262.37	10.12
263.166	9.12
263.963	11.12
264.759	10.12
265.556	13.12
266.352	11.12
267.148	13.12
267.944	12.12
268.74	14.12
269.536	16.12
270.332	13.12
271.128	14.12
271.924	13.12
272.719	15.12
273.515	15.12
274.311	16.12
275.106	19.12
275.901	17.12
276.697	19.12
277.492	18.12
278.287	19.12
279.082	18.12
279.877	15.12
280.672	18.12
281.467	19.12
282.262	18.12
283.056	14.12
283.851	19.12
284.646	22.12
285.44	19.12
286.234	18.12
287.029	19.12
287.823	18.12
288.617	20.12
289.411	16.12
290.205	20.12
290.999	18.12
291.793	20.12
292.587	18.12
293.381	17.12
294.174	16.12
294.968	20.12
295.761	16.12
296.555	15.12
297.348	16.12
298.141	18.12
298.935	18.12
299.728	16.12
300.521	15.12
301.314	17.12
302.107	13.12
302.899	13.12
303.692	14.12
304.485	13.12
305.277	13.12
306.07	12.12
306.862	12.12
307.655	15.12
308.447	11.12
309.239	12.12
310.031	11.12
310.823	13.12
311.615	10.12
312.407	10.12
313.199	8.12
313.991	8.12
314.783	11.12
315.574	7.12
316.366	12.12
317.157	11.12
317.949	10.12
318.74	9.12
319.531	8.12
320.322	11.12
321.113	8.12
321.904	9.12
322.695	6.12
323.486	9.12
324.277	8.12
325.068	5.12
325.858	9.12
326.649	8.12
327.439	8.12
328.23	8.12
329.02	7.12
329.81	8.12
330.6	8.12
331.391	5.12
332.181	6.12
332.971	9.12
333.76	7.12
334.55	4.12
335.34	5.12
336.13	6.12
336.919	9.12
337.709	7.12
338.498	7.12
339.287	5.12
340.077	8.12
340.866	6.12
341.655	6.12
342.444	7.12
343.233	5.12
344.022	7.12
344.811	6.12
345.6	4.12
346.388	6.12
347.177	6.12
347.965	8.12
348.754	6.12
349.542	7.12
350.33	5.12
351.119	7.12
351.907	5.12
352.695	7.12
353.483	5.12
354.271	5.12
355.059	6.12
355.846	4.12
356.634	4.12
357.422	5.12
358.209	6.12
358.997	8.12
359.784	6.12
360.571	5.12
361.359	8.12
362.146	5.12
362.933	7.12
363.72	6.12
364.507	4.12
365.294	5.12
366.081	4.12
366.867	6.12
367.654	4.12
368.44	6.12
369.227	7.12
370.013	5.12
370.8	8.12
371.586	5.12
372.372	6.12
373.158	4.12
373.944	4.12
374.73	4.12
375.516	5.12
376.302	6.12
377.088	7.12
377.873	6.12
378.659	6.12
379.445	5.12
380.23	9.12
381.015	6.12
381.801	5.12
382.586	7.12
383.371	4.12
384.156	7.12
384.941	7.12
385.726	6.12
386.511	6.12
387.296	7.12
388.08	4.12
388.865	5.12
389.649	6.12
390.434	4.12
391.218	6.12
392.003	8.12
392.787	8.12
393.571	7.12
394.355	6.12
395.139	6.12
395.923	6.12
396.707	7.12
397.491	4.12
398.274	8.12
399.058	7.12
399.842	5.12
400.625	8.12
401.408	7.12
402.192	8.12
402.975	7.12
403.758	8.12
404.541	7.12
405.324	6.12
406.107	7.12
406.89	8.12
407.673	3.12
408.456	7.12
409.238	10.12
410.021	9.12
410.803	9.12
411.586	9.12
412.368	8.12
413.151	9.12
413.933	10.12
414.715	8.12
415.497	11.12
416.279	8.12
417.061	10.12
417.843	9.12
418.624	8.12
419.406	8.12
420.188	9.12
420.969	13.12
421.751	11.12
422.532	12.12
423.313	13.12
424.095	10.12
424.876	12.12
425.657	11.12
426.438	13.12
427.219	13.12
428	14.12
428.78	13.12
429.561	12.12
430.342	14.12
431.122	13.12
431.903	15.12
432.683	16.12
433.464	17.12
434.244	17.12
435.024	19.12
435.804	18.12
436.584	17.12
437.364	20.12
438.144	20.12
438.924	23.12
439.704	24.12
440.483	21.12
441.263	26.12
442.042	23.12
442.822	25.12
443.601	27.12
444.38	29.12
445.16	31.12
445.939	32.12
446.718	38.12
447.497	38.12
448.276	43.12
449.054	47.12
449.833	47.12
450.612	56.12
451.391	56.12
452.169	71.12
452.948	73.12
453.726	76.12
454.504	88.12
455.282	101.12
456.061	101.12
456.839	114.12
457.617	134.12
458.395	140.12
459.172	160.12
459.95	173.12
460.728	189.12
461.506	218.12
462.283	240.12
463.061	273.12
463.838	303.12
464.615	337.12
465.393	373.12
466.17	412.12
466.947	460.12
467.724	522.12
468.501	573.12
469.278	644.12
470.055	714.12
470.831	794.12
471.608	875.12
472.385	963.12
473.161	1077.12
473.938	1181.12
474.714	1312.12
475.49	1442.12
476.266	1591.12
477.043	1758.12
477.819	1927.12
478.595	2132.12
479.371	2353.12
480.146	2571.12
480.922	2842.12
481.698	3117.12
482.473	3420.12
483.249	3769.12
484.024	4112.12
484.8	4514.12
485.575	4926.12
486.35	5417.12
487.126	5913.12
487.901	6435.12
488.676	7116.12
489.451	7753.12
490.225	8460.12
491	9169.12
491.775	10037.12
492.55	10962.12
493.324	11813.12
494.099	12736.12
494.873	13632.12
495.647	14752.12
496.422	15820.12
497.196	16905.12
497.97	18098.12
498.744	19226.12
499.518	20355.12
500.292	21401.12
501.066	22449.12
501.839	23430.12
502.613	24377.12
503.387	25156.12
504.16	25775.12
504.934	26207.12
505.707	26489.12
506.48	26580.12
507.253	26711.12
508.027	26491.12
508.8	26269.12
509.573	25944.12
510.346	25317.12
511.118	24813.12
511.891	24058.12
512.664	23286.12
513.437	22529.12
514.209	21576.12
514.982	20734.12
515.754	19833.12
516.526	18990.12
517.298	18164.12
518.071	17379.12
518.843	16817.12
519.615	16112.12
520.387	15500.12
521.159	14867.12
521.93	14269.12
522.702	13729.12
523.474	13204.12
524.245	12598.12
525.017	12062.12
525.788	11653.12
526.56	11057.12
527.331	10563.12
528.102	10091.12
528.873	9663.12
529.644	9133.12
530.415	8703.12
531.186	8301.12
531.957	7892.12
532.728	7527.12
533.498	7117.12
534.269	6705.12
535.039	6370.12
535.81	6023.12
536.58	5693.12
537.351	5332.12
538.121	5079.12
538.891	4839.12
539.661	4522.12
540.431	4290.12
541.201	4044.12
541.971	3832.12
542.741	3642.12
543.51	3450.12
544.28	3287.12
545.05	3117.12
545.819	2965.12
546.588	2812.12
547.358	2671.12
548.127	2544.12
548.896	2429.12
549.665	2294.12
550.434	2184.12
551.203	2062.12
551.972	1945.12
552.741	1841.12
553.51	1752.12
554.278	1654.12
555.047	1558.12
555.815	1472.12
556.584	1406.12
557.352	1316.12
558.121	1242.12
558.889	1166.12
559.657	1112.12
560.425	1048.12
561.193	989.12
561.961	932.12
562.729	885.12
563.496	839.12
564.264	781.12
565.032	736.12
565.799	694.12
566.567	662.12
567.334	627.12
568.101	590.12
568.869	550.12
569.636	535.12
570.403	488.12
571.17	464.12
571.937	438.12
572.704	412.12
573.471	389.12
574.237	371.12
575.004	348.12
575.771	332.12
576.537	305.12
577.303	294.12
578.07	278.12
578.836	254.12
579.602	246.12
580.368	230.12
581.134	215.12
581.9	206.12
582.666	198.12
583.432	181.12
584.198	179.12
584.964	170.12
585.729	156.12
586.495	152.12
587.26	145.12
588.025	134.12
588.791	130.12
589.556	121.12
590.321	112.12
591.086	108.12
591.851	105.12
592.616	96.12
593.381	95.12
594.146	90.12
594.911	82.12
595.675	83.12
596.44	81.12
597.204	77.12
597.969	75.12
598.733	70.12
599.497	65.12
600.261	60.12
601.025	54.12
601.79	51.12
602.553	50.12
603.317	54.12
604.081	52.12
604.845	48.12
605.609	45.12
606.372	42.12
607.136	40.12
607.899	41.12
608.662	37.12
609.426	37.12
610.189	38.12
610.952	33.12
611.715	33.12
612.478	32.12
613.241	32.12
614.004	29.12
614.767	28.12
615.529	26.12
616.292	26.12
617.055	24.12
617.817	23.12
618.579	23.12
619.342	24.12
620.104	24.12
620.866	20.12
621.628	18.12
622.39	21.12
623.152	18.12
623.914	17.12
624.676	19.12
625.438	19.12
626.199	16.12
626.961	15.12
627.722	13.12
628.484	18.12
629.245	13.12
630.006	15.12
630.768	13.12
631.529	13.12
632.29	11.12
633.051	10.12
633.812	12.12
634.573	14.12
635.333	11.12
636.094	9.12
636.855	13.12
637.615	13.12
638.376	11.12
639.136	12.12
639.896	11.12
640.657	10.12
641.417	10.12
642.177	10.12
642.937	9.12
643.697	8.12
644.457	12.12
645.216	10.12
645.976	8.12
646.736	8.12
647.495	10.12
648.255	8.12
649.014	8.12
649.774	8.12
650.533	10.12
651.292	9.12
652.051	8.12
652.81	7.12
653.569	8.12
654.328	4.12
655.087	5.12
655.846	9.12
656.604	7.12
657.363	6.12
658.121	6.12
658.88	8.12
659.638	7.12
660.397	7.12
661.155	4.12
661.913	7.12
662.671	5.12
663.429	5.12
664.187	7.12
664.945	6.12
665.703	6.12
666.46	6.12
667.218	6.12
667.976	8.12
668.733	4.12
669.49	5.12
670.248	5.12
671.005	3.12
671.762	5.12
672.519	7.12
673.276	7.12
674.033	5.12
674.79	6.12
675.547	5.12
676.304	4.12
677.06	2.12
677.817	2.12
678.574	5.12
679.33	5.12
680.086	4.12
680.843	4.12
681.599	3.12
682.355	5.12
683.111	5.12
683.867	4.12
684.623	4.12
685.379	2.12
686.135	4.12
686.89	4.12
687.646	7.12
688.402	4.12
689.157	4.12
689.912	3.12
690.668	3.12
691.423	5.12
692.178	2.12
692.933	3.12
693.688	3.12
694.443	2.12
695.198	5.12
695.953	4.12
696.708	5.12
697.462	3.12
698.217	4.12
698.972	4.12
699.726	3.12
700.48	4.12
701.235	2.12
701.989	4.12
702.743	5.12
703.497	4.12
704.251	1.12
705.005	5.12
705.759	5.12
706.513	3.12
707.266	6.12
708.02	4.12
708.774	6.12
709.527	7.12
710.28	2.12
711.034	3.12
711.787	3.12
712.54	2.12
713.293	2.12
714.046	4.12
714.799	6.12
715.552	2.12
716.305	4.12
717.058	3.12
717.81	4.12
718.563	4.12
719.315	4.12
720.068	6.12
720.82	5.12
721.573	4.12
722.325	3.12
723.077	5.12
723.829	6.12
724.581	3.12
725.333	2.12
726.085	3.12
726.836	3.12
727.588	5.12
728.34	4.12
729.091	3.12
729.843	5.12
730.594	5.12
731.346	4.12
732.097	4.12
732.848	5.12
733.599	6.12
734.35	3.12
735.101	1.12
735.852	6.12
736.603	4.12
737.354	4.12
738.104	2.12
738.855	4.12
739.605	6.12
740.356	3.12
741.106	6.12
741.856	4.12
742.607	6.12
743.357	3.12
744.107	4.12
744.857	4.12
745.607	6.12
746.357	6.12
747.106	3.12
747.856	6.12
748.606	3.12
749.355	7.12
750.105	6.12
750.854	6.12
751.603	7.12
752.353	4.12
753.102	3.12
753.851	8.12
754.6	4.12
755.349	7.12
756.098	5.12
756.847	8.12
757.595	5.12
758.344	6.12
759.093	6.12
759.841	6.12
760.589	7.12
761.338	6.12
762.086	6.12
762.834	7.12
763.582	3.12
764.331	8.12
765.079	7.12
765.826	6.12
766.574	7.12
767.322	5.12
768.07	5.12
768.817	6.12
769.565	9.12
770.312	7.12
771.06	10.12
771.807	8.12
772.554	7.12
773.302	9.12
774.049	8.12
774.796	8.12
775.543	8.12
776.29	7.12
777.036	8.12
777.783	10.12
778.53	10.12
779.276	9.12
780.023	9.12
780.769	8.12
781.516	8.12
782.262	7.12
783.008	8.12
783.754	10.12
784.5	9.12
785.246	10.12
785.992	8.12
786.738	9.12
787.484	9.12
788.23	8.12
788.975	10.12
789.721	8.12
790.466	8.12
791.212	9.12
791.957	8.12
792.702	5.12
793.447	9.12
794.193	7.12
794.938	9.12
795.683	9.12
796.427	9.12
797.172	7.12
797.917	8.12
798.662	6.12
799.406	10.12
800.151	9.12
800.895	9.12
801.64	8.12
802.384	7.12
803.128	8.12
803.872	7.12
804.616	6.12
805.36	7.12
806.104	6.12
806.848	6.12
807.592	7.12
808.336	8.12
809.079	7.12
809.823	6.12
810.566	4.12
811.31	7.12
812.053	7.12
812.796	4.12
813.539	6.12
814.283	5.12
815.026	8.12
815.769	6.12
816.511	5.12
817.254	6.12
817.997	3.12
818.74	8.12
819.482	6.12
820.225	4.12
820.967	4.12
821.71	5.12
822.452	7.12
823.194	3.12
823.936	4.12
824.678	3.12
825.42	2.12
826.162	4.12
826.904	2.12
827.646	2.12
828.388	4.12
829.129	4.12
829.871	4.12
830.612	2.12
831.354	6.12
832.095	4.12
832.836	4.12
833.577	4.12
834.319	6.12
835.06	4.12
835.801	3.12
836.542	3.12
837.282	3.12
838.023	2.12
838.764	5.12
839.504	0.12
840.245	4.12
840.985	2.12
841.726	3.12
842.466	3.12
843.206	2.12
843.946	5.12
844.687	1.12
845.427	4.12
846.166	2.12
846.906	2.12
847.646	4.12
848.386	3.12
849.125	3.12
849.865	3.12
850.605	2.12
851.344	3.12
852.083	3.12
852.823	2.12
853.562	5.12
854.301	3.12
855.04	2.12
855.779	2.12
856.518	5.12
857.257	4.12
857.995	5.12
858.734	4.12
859.473	4.12
860.211	3.12
860.95	4.12
861.688	1.12
862.426	2.12
863.165	2.12
863.903	2.12
864.641	4.12
865.379	2.12
866.117	3.12
866.855	4.12
867.593	2.12
868.33	1.12
869.068	4.12
869.806	2.12
870.543	2.12
871.28	5.12
872.018	2.12
872.755	0.12
873.492	2.12
874.229	2.12
874.967	2.12
875.703	2.12
876.44	1.12
877.177	3.12
877.914	3.12
878.651	2.12
879.387	2.12
880.124	1.12
880.86	2.12
881.597	1.12
882.333	2.12
883.069	2.12
883.806	2.12
884.542	2.12
885.278	0.12
886.014	3.12
886.749	0.12
887.485	2.12
888.221	0.12
888.957	4.12
889.692	-0.88
890.428	1.12
891.163	2.12
891.899	0.12
892.634	1.12
893.369	1.12
894.104	2.12
894.839	-0.88
895.574	0.12
896.309	1.12
897.044	-1.88
897.779	2.12
898.514	0.12
899.248	2.12
899.983	2.12
900.717	-0.88
901.452	2.12
902.186	1.12
902.92	1.12
903.654	0.12
904.389	0.12
905.123	0.12
905.857	-0.88
906.59	2.12
907.324	1.12
908.058	1.12
908.792	1.12
909.525	2.12
910.259	2.12
910.992	1.12
911.726	1.12
912.459	0.12
913.192	1.12
913.925	-1.88
914.658	1.12
915.391	-0.88
916.124	0.12
916.857	3.12
917.59	2.12
918.323	-0.88
919.055	1.12
919.788	2.12
920.521	3.12
921.253	-0.88
921.985	1.12
922.718	0.12
923.45	1.12
924.182	2.12
924.914	1.12
925.646	0.12
926.378	2.12
927.11	1.12
927.841	0.12
928.573	-0.88
929.305	1.12
930.036	-1.88
930.768	1.12
931.499	0.12
932.23	-1.88
932.962	2.12
933.693	0.12
934.424	2.12
935.155	-0.88
935.886	1.12
936.617	2.12
937.348	1.12
938.078	-1.88
938.809	-0.88
939.54	1.12
940.27	0.12
941.001	2.12
941.731	1.12
942.461	0.12
943.191	-1.88
943.922	-1.88
944.652	1.12
945.382	2.12
946.112	0.12
946.841	3.12
947.571	-0.88
948.301	-0.88
949.031	0.12
949.76	0.12
950.49	0.12
951.219	1.12
951.948	3.12
952.678	-0.88
953.407	0.12
954.136	0.12
954.865	-0.88
955.594	2.12
956.323	0.12
957.052	1.12
957.78	0.12
958.509	0.12
959.238	-0.88
959.966	0.12
960.695	0.12
961.423	1.12
962.151	3.12
962.88	0.12
963.608	3.12
964.336	0.12
965.064	0.12
965.792	2.12
966.52	0.12
967.247	-0.88
967.975	-1.88
968.703	2.12
969.43	2.12
970.158	-0.88
970.885	-0.88
971.613	-0.88
972.34	2.12
973.067	2.12
973.794	1.12
974.521	1.12
975.248	0.12
975.975	0.12
976.702	-0.88
977.429	3.12
978.156	1.12
978.882	-0.88
979.609	1.12
980.335	0.12
981.062	2.12
981.788	-0.88
982.514	-1.88
983.24	1.12
983.967	0.12
984.693	-0.88
985.419	-0.88
986.144	-0.88
986.87	0.12
987.596	1.12
988.322	2.12
989.047	0.12
989.773	1.12
990.498	-0.88
991.224	3.12
991.949	2.12
992.674	1.12
993.399	0.12
994.124	2.12
994.849	0.12
995.574	-0.88
996.299	-0.88
997.024	-0.88
997.749	1.12
998.473	-1.88
999.198	-0.88
999.922	1.12
1000.647	0.12
1001.371	3.12
1002.095	-1.88
1002.82	2.12
1003.544	-2.88
1004.268	5.12
1004.992	1.12
1005.716	1.12
1006.439	3.12
1007.163	2.12
1007.887	4.12
1008.611	0.12
1009.334	3.12
1010.058	0.12
1010.781	2.12
1011.504	-0.88
1012.228	2.12
1012.951	0.12
1013.674	-0.88
1014.397	-1.88
1015.12	2.12
