节点500_285_QEPB04081__409__15-02-21-601.txt的数据

Date: Wed Nov 12 15:02:21 CST 2025
User: PC
Spectrometer: QEPB0408
触发模式: 0
积分时间 (秒): 1.000000E-2
Scans to average: 1
启用暗噪声校正: true
启用非线性校正: false
滑动平均宽度: 0
X轴模式: Wavelengths
Number of Pixels in Spectrum: 1044
>>>>>Begin Spectral Data<<<<<
220.843	3.38
221.644	3.38
222.444	0.38
223.244	2.38
224.045	3.38
224.845	4.38
225.645	4.38
226.445	3.38
227.245	3.38
228.045	3.38
228.845	3.38
229.645	5.38
230.444	2.38
231.244	3.38
232.043	8.38
232.843	5.38
233.642	3.38
234.442	4.38
235.241	4.38
236.04	2.38
236.839	3.38
237.638	2.38
238.437	4.38
239.236	7.38
240.035	5.38
240.833	6.38
241.632	7.38
242.43	6.38
243.229	5.38
244.027	7.38
244.826	5.38
245.624	6.38
246.422	6.38
247.22	6.38
248.018	6.38
248.816	7.38
249.614	7.38
250.412	5.38
251.21	5.38
252.007	8.38
252.805	7.38
253.602	7.38
254.4	5.38
255.197	5.38
255.994	9.38
256.791	6.38
257.589	7.38
258.386	9.38
259.183	9.38
259.979	11.38
260.776	8.38
261.573	10.38
262.37	7.38
263.166	12.38
263.963	14.38
264.759	13.38
265.556	12.38
266.352	13.38
267.148	14.38
267.944	15.38
268.74	14.38
269.536	13.38
270.332	13.38
271.128	16.38
271.924	15.38
272.719	16.38
273.515	17.38
274.311	16.38
275.106	18.38
275.901	17.38
276.697	19.38
277.492	21.38
278.287	19.38
279.082	19.38
279.877	17.38
280.672	17.38
281.467	19.38
282.262	19.38
283.056	17.38
283.851	18.38
284.646	20.38
285.44	20.38
286.234	19.38
287.029	18.38
287.823	18.38
288.617	19.38
289.411	20.38
290.205	19.38
290.999	20.38
291.793	18.38
292.587	18.38
293.381	18.38
294.174	18.38
294.968	19.38
295.761	17.38
296.555	13.38
297.348	14.38
298.141	16.38
298.935	16.38
299.728	17.38
300.521	13.38
301.314	16.38
302.107	12.38
302.899	14.38
303.692	12.38
304.485	13.38
305.277	13.38
306.07	11.38
306.862	14.38
307.655	13.38
308.447	14.38
309.239	12.38
310.031	11.38
310.823	10.38
311.615	7.38
312.407	14.38
313.199	11.38
313.991	10.38
314.783	10.38
315.574	8.38
316.366	10.38
317.157	9.38
317.949	10.38
318.74	8.38
319.531	8.38
320.322	9.38
321.113	7.38
321.904	10.38
322.695	5.38
323.486	7.38
324.277	9.38
325.068	7.38
325.858	6.38
326.649	9.38
327.439	7.38
328.23	8.38
329.02	7.38
329.81	7.38
330.6	7.38
331.391	7.38
332.181	6.38
332.971	6.38
333.76	8.38
334.55	7.38
335.34	6.38
336.13	7.38
336.919	10.38
337.709	6.38
338.498	5.38
339.287	6.38
340.077	8.38
340.866	8.38
341.655	6.38
342.444	5.38
343.233	8.38
344.022	8.38
344.811	7.38
345.6	6.38
346.388	7.38
347.177	6.38
347.965	8.38
348.754	5.38
349.542	8.38
350.33	7.38
351.119	9.38
351.907	4.38
352.695	7.38
353.483	5.38
354.271	8.38
355.059	8.38
355.846	7.38
356.634	7.38
357.422	4.38
358.209	6.38
358.997	5.38
359.784	6.38
360.571	5.38
361.359	5.38
362.146	4.38
362.933	3.38
363.72	5.38
364.507	6.38
365.294	6.38
366.081	6.38
366.867	6.38
367.654	6.38
368.44	4.38
369.227	3.38
370.013	7.38
370.8	5.38
371.586	5.38
372.372	6.38
373.158	6.38
373.944	5.38
374.73	5.38
375.516	6.38
376.302	5.38
377.088	3.38
377.873	7.38
378.659	4.38
379.445	4.38
380.23	5.38
381.015	4.38
381.801	6.38
382.586	4.38
383.371	9.38
384.156	5.38
384.941	4.38
385.726	5.38
386.511	5.38
387.296	8.38
388.08	6.38
388.865	7.38
389.649	5.38
390.434	4.38
391.218	6.38
392.003	5.38
392.787	7.38
393.571	8.38
394.355	8.38
395.139	8.38
395.923	6.38
396.707	7.38
397.491	6.38
398.274	7.38
399.058	7.38
399.842	5.38
400.625	8.38
401.408	4.38
402.192	9.38
402.975	6.38
403.758	7.38
404.541	7.38
405.324	9.38
406.107	5.38
406.89	7.38
407.673	7.38
408.456	9.38
409.238	8.38
410.021	9.38
410.803	8.38
411.586	10.38
412.368	9.38
413.151	9.38
413.933	9.38
414.715	9.38
415.497	9.38
416.279	10.38
417.061	10.38
417.843	10.38
418.624	11.38
419.406	9.38
420.188	11.38
420.969	12.38
421.751	10.38
422.532	12.38
423.313	13.38
424.095	11.38
424.876	9.38
425.657	12.38
426.438	11.38
427.219	12.38
428	12.38
428.78	13.38
429.561	14.38
430.342	18.38
431.122	14.38
431.903	14.38
432.683	14.38
433.464	17.38
434.244	16.38
435.024	17.38
435.804	19.38
436.584	16.38
437.364	21.38
438.144	20.38
438.924	24.38
439.704	22.38
440.483	19.38
441.263	28.38
442.042	28.38
442.822	30.38
443.601	27.38
444.38	27.38
445.16	32.38
445.939	33.38
446.718	35.38
447.497	40.38
448.276	40.38
449.054	48.38
449.833	49.38
450.612	51.38
451.391	60.38
452.169	69.38
452.948	66.38
453.726	76.38
454.504	84.38
455.282	91.38
456.061	102.38
456.839	117.38
457.617	128.38
458.395	139.38
459.172	153.38
459.95	173.38
460.728	186.38
461.506	214.38
462.283	242.38
463.061	263.38
463.838	298.38
464.615	336.38
465.393	368.38
466.17	409.38
466.947	460.38
467.724	507.38
468.501	565.38
469.278	625.38
470.055	711.38
470.831	780.38
471.608	861.38
472.385	958.38
473.161	1070.38
473.938	1172.38
474.714	1313.38
475.49	1434.38
476.266	1587.38
477.043	1754.38
477.819	1932.38
478.595	2136.38
479.371	2350.38
480.146	2585.38
480.922	2842.38
481.698	3133.38
482.473	3464.38
483.249	3797.38
484.024	4153.38
484.8	4583.38
485.575	5013.38
486.35	5516.38
487.126	6041.38
487.901	6601.38
488.676	7203.38
489.451	7944.38
490.225	8645.38
491	9428.38
491.775	10355.38
492.55	11192.38
493.324	12142.38
494.099	13044.38
494.873	14076.38
495.647	15183.38
496.422	16332.38
497.196	17484.38
497.97	18664.38
498.744	19840.38
499.518	20949.38
500.292	22099.38
501.066	23090.38
501.839	24106.38
502.613	25015.38
503.387	25872.38
504.16	26459.38
504.934	26827.38
505.707	26973.38
506.48	27104.38
507.253	27092.38
508.027	26885.38
508.8	26561.38
509.573	26131.38
510.346	25645.38
511.118	24887.38
511.891	24181.38
512.664	23384.38
513.437	22474.38
514.209	21626.38
514.982	20724.38
515.754	19825.38
516.526	18914.38
517.298	18110.38
518.071	17341.38
518.843	16613.38
519.615	15992.38
520.387	15399.38
521.159	14793.38
521.93	14217.38
522.702	13622.38
523.474	13100.38
524.245	12482.38
525.017	12000.38
525.788	11522.38
526.56	10999.38
527.331	10469.38
528.102	10024.38
528.873	9559.38
529.644	9069.38
530.415	8638.38
531.186	8222.38
531.957	7752.38
532.728	7426.38
533.498	7047.38
534.269	6631.38
535.039	6297.38
535.81	5958.38
536.58	5629.38
537.351	5256.38
538.121	4973.38
538.891	4725.38
539.661	4461.38
540.431	4230.38
541.201	3975.38
541.971	3753.38
542.741	3575.38
543.51	3409.38
544.28	3252.38
545.05	3105.38
545.819	2923.38
546.588	2784.38
547.358	2651.38
548.127	2513.38
548.896	2390.38
549.665	2258.38
550.434	2131.38
551.203	2036.38
551.972	1926.38
552.741	1824.38
553.51	1726.38
554.278	1624.38
555.047	1528.38
555.815	1452.38
556.584	1370.38
557.352	1310.38
558.121	1216.38
558.889	1154.38
559.657	1096.38
560.425	1033.38
561.193	968.38
561.961	913.38
562.729	867.38
563.496	822.38
564.264	774.38
565.032	725.38
565.799	696.38
566.567	650.38
567.334	613.38
568.101	577.38
568.869	550.38
569.636	513.38
570.403	493.38
571.17	461.38
571.937	435.38
572.704	409.38
573.471	382.38
574.237	363.38
575.004	345.38
575.771	328.38
576.537	304.38
577.303	287.38
578.07	272.38
578.836	254.38
579.602	247.38
580.368	227.38
581.134	216.38
581.9	206.38
582.666	193.38
583.432	183.38
584.198	174.38
584.964	168.38
585.729	153.38
586.495	143.38
587.26	138.38
588.025	131.38
588.791	118.38
589.556	119.38
590.321	113.38
591.086	111.38
591.851	103.38
592.616	97.38
593.381	93.38
594.146	87.38
594.911	82.38
595.675	79.38
596.44	73.38
597.204	72.38
597.969	73.38
598.733	66.38
599.497	62.38
600.261	60.38
601.025	55.38
601.79	57.38
602.553	53.38
603.317	52.38
604.081	46.38
604.845	46.38
605.609	48.38
606.372	43.38
607.136	43.38
607.899	41.38
608.662	38.38
609.426	38.38
610.189	36.38
610.952	35.38
611.715	31.38
612.478	30.38
613.241	29.38
614.004	29.38
614.767	29.38
615.529	27.38
616.292	25.38
617.055	26.38
617.817	26.38
618.579	25.38
619.342	22.38
620.104	21.38
620.866	22.38
621.628	20.38
622.39	18.38
623.152	19.38
623.914	17.38
624.676	18.38
625.438	17.38
626.199	17.38
626.961	16.38
627.722	12.38
628.484	16.38
629.245	15.38
630.006	14.38
630.768	14.38
631.529	14.38
632.29	15.38
633.051	13.38
633.812	12.38
634.573	14.38
635.333	12.38
636.094	12.38
636.855	12.38
637.615	10.38
638.376	12.38
639.136	9.38
639.896	10.38
640.657	10.38
641.417	14.38
642.177	9.38
642.937	9.38
643.697	9.38
644.457	9.38
645.216	9.38
645.976	8.38
646.736	9.38
647.495	10.38
648.255	7.38
649.014	8.38
649.774	7.38
650.533	6.38
651.292	8.38
652.051	9.38
652.81	5.38
653.569	7.38
654.328	5.38
655.087	7.38
655.846	8.38
656.604	4.38
657.363	7.38
658.121	6.38
658.88	6.38
659.638	7.38
660.397	6.38
661.155	6.38
661.913	7.38
662.671	5.38
663.429	5.38
664.187	6.38
664.945	5.38
665.703	8.38
666.46	4.38
667.218	7.38
667.976	7.38
668.733	6.38
669.49	6.38
670.248	5.38
671.005	4.38
671.762	7.38
672.519	6.38
673.276	5.38
674.033	5.38
674.79	6.38
675.547	2.38
676.304	3.38
677.06	8.38
677.817	4.38
678.574	4.38
679.33	3.38
680.086	4.38
680.843	6.38
681.599	2.38
682.355	3.38
683.111	1.38
683.867	4.38
684.623	6.38
685.379	4.38
686.135	2.38
686.89	2.38
687.646	4.38
688.402	4.38
689.157	4.38
689.912	5.38
690.668	4.38
691.423	4.38
692.178	5.38
692.933	7.38
693.688	4.38
694.443	4.38
695.198	4.38
695.953	1.38
696.708	3.38
697.462	5.38
698.217	3.38
698.972	6.38
699.726	4.38
700.48	3.38
701.235	3.38
701.989	5.38
702.743	3.38
703.497	6.38
704.251	4.38
705.005	4.38
705.759	3.38
706.513	4.38
707.266	5.38
708.02	3.38
708.774	4.38
709.527	3.38
710.28	4.38
711.034	5.38
711.787	2.38
712.54	5.38
713.293	7.38
714.046	4.38
714.799	4.38
715.552	4.38
716.305	4.38
717.058	6.38
717.81	5.38
718.563	5.38
719.315	4.38
720.068	6.38
720.82	1.38
721.573	5.38
722.325	6.38
723.077	2.38
723.829	5.38
724.581	3.38
725.333	4.38
726.085	3.38
726.836	2.38
727.588	4.38
728.34	4.38
729.091	5.38
729.843	4.38
730.594	4.38
731.346	4.38
732.097	4.38
732.848	5.38
733.599	4.38
734.35	6.38
735.101	4.38
735.852	2.38
736.603	4.38
737.354	4.38
738.104	5.38
738.855	3.38
739.605	5.38
740.356	6.38
741.106	7.38
741.856	5.38
742.607	5.38
743.357	7.38
744.107	4.38
744.857	5.38
745.607	6.38
746.357	6.38
747.106	7.38
747.856	5.38
748.606	8.38
749.355	3.38
750.105	5.38
750.854	4.38
751.603	4.38
752.353	2.38
753.102	8.38
753.851	9.38
754.6	5.38
755.349	6.38
756.098	7.38
756.847	5.38
757.595	7.38
758.344	7.38
759.093	8.38
759.841	7.38
760.589	4.38
761.338	8.38
762.086	9.38
762.834	7.38
763.582	8.38
764.331	8.38
765.079	6.38
765.826	7.38
766.574	7.38
767.322	6.38
768.07	7.38
768.817	8.38
769.565	8.38
770.312	8.38
771.06	10.38
771.807	7.38
772.554	8.38
773.302	10.38
774.049	9.38
774.796	7.38
775.543	9.38
776.29	8.38
777.036	10.38
777.783	8.38
778.53	8.38
779.276	5.38
780.023	9.38
780.769	8.38
781.516	10.38
782.262	8.38
783.008	10.38
783.754	8.38
784.5	10.38
785.246	10.38
785.992	9.38
786.738	9.38
787.484	10.38
788.23	10.38
788.975	10.38
789.721	9.38
790.466	10.38
791.212	9.38
791.957	9.38
792.702	10.38
793.447	8.38
794.193	9.38
794.938	8.38
795.683	8.38
796.427	10.38
797.172	8.38
797.917	9.38
798.662	9.38
799.406	8.38
800.151	7.38
800.895	6.38
801.64	9.38
802.384	5.38
803.128	7.38
803.872	7.38
804.616	6.38
805.36	6.38
806.104	4.38
806.848	6.38
807.592	8.38
808.336	6.38
809.079	6.38
809.823	7.38
810.566	5.38
811.31	9.38
812.053	7.38
812.796	8.38
813.539	6.38
814.283	5.38
815.026	4.38
815.769	7.38
816.511	4.38
817.254	5.38
817.997	5.38
818.74	5.38
819.482	2.38
820.225	5.38
820.967	4.38
821.71	4.38
822.452	2.38
823.194	4.38
823.936	4.38
824.678	6.38
825.42	4.38
826.162	4.38
826.904	4.38
827.646	4.38
828.388	5.38
829.129	3.38
829.871	6.38
830.612	4.38
831.354	1.38
832.095	3.38
832.836	2.38
833.577	5.38
834.319	3.38
835.06	4.38
835.801	3.38
836.542	3.38
837.282	0.38
838.023	3.38
838.764	5.38
839.504	2.38
840.245	4.38
840.985	4.38
841.726	4.38
842.466	1.38
843.206	5.38
843.946	5.38
844.687	2.38
845.427	2.38
846.166	3.38
846.906	1.38
847.646	4.38
848.386	2.38
849.125	1.38
849.865	3.38
850.605	3.38
851.344	5.38
852.083	3.38
852.823	4.38
853.562	2.38
854.301	1.38
855.04	3.38
855.779	2.38
856.518	1.38
857.257	1.38
857.995	5.38
858.734	1.38
859.473	0.38
860.211	2.38
860.95	1.38
861.688	5.38
862.426	1.38
863.165	1.38
863.903	2.38
864.641	2.38
865.379	2.38
866.117	2.38
866.855	3.38
867.593	2.38
868.33	2.38
869.068	2.38
869.806	1.38
870.543	-0.62
871.28	2.38
872.018	4.38
872.755	1.38
873.492	4.38
874.229	3.38
874.967	0.38
875.703	3.38
876.44	1.38
877.177	0.38
877.914	2.38
878.651	1.38
879.387	2.38
880.124	0.38
880.86	2.38
881.597	-0.62
882.333	3.38
883.069	2.38
883.806	1.38
884.542	3.38
885.278	0.38
886.014	1.38
886.749	2.38
887.485	-0.62
888.221	0.38
888.957	0.38
889.692	1.38
890.428	2.38
891.163	2.38
891.899	1.38
892.634	2.38
893.369	2.38
894.104	0.38
894.839	3.38
895.574	2.38
896.309	0.38
897.044	0.38
897.779	-0.62
898.514	1.38
899.248	0.38
899.983	0.38
900.717	2.38
901.452	0.38
902.186	-0.62
902.92	1.38
903.654	4.38
904.389	-1.62
905.123	-0.62
905.857	2.38
906.59	1.38
907.324	1.38
908.058	2.38
908.792	2.38
909.525	2.38
910.259	0.38
910.992	1.38
911.726	2.38
912.459	0.38
913.192	0.38
913.925	0.38
914.658	0.38
915.391	-0.62
916.124	0.38
916.857	-0.62
917.59	1.38
918.323	-0.62
919.055	0.38
919.788	1.38
920.521	0.38
921.253	2.38
921.985	0.38
922.718	1.38
923.45	-0.62
924.182	-1.62
924.914	1.38
925.646	1.38
926.378	1.38
927.11	-0.62
927.841	1.38
928.573	-0.62
929.305	0.38
930.036	2.38
930.768	2.38
931.499	0.38
932.23	-0.62
932.962	-1.62
933.693	0.38
934.424	-0.62
935.155	2.38
935.886	0.38
936.617	-0.62
937.348	1.38
938.078	0.38
938.809	2.38
939.54	-0.62
940.27	-1.62
941.001	1.38
941.731	0.38
942.461	2.38
943.191	0.38
943.922	1.38
944.652	-0.62
945.382	2.38
946.112	0.38
946.841	1.38
947.571	0.38
948.301	1.38
949.031	0.38
949.76	1.38
950.49	0.38
951.219	1.38
951.948	-0.62
952.678	1.38
953.407	0.38
954.136	1.38
954.865	0.38
955.594	0.38
956.323	1.38
957.052	1.38
957.78	2.38
958.509	2.38
959.238	2.38
959.966	0.38
960.695	1.38
961.423	0.38
962.151	0.38
962.88	0.38
963.608	1.38
964.336	2.38
965.064	-0.62
965.792	0.38
966.52	1.38
967.247	4.38
967.975	1.38
968.703	1.38
969.43	0.38
970.158	0.38
970.885	-1.62
971.613	-1.62
972.34	-0.62
973.067	1.38
973.794	0.38
974.521	3.38
975.248	1.38
975.975	0.38
976.702	1.38
977.429	0.38
978.156	2.38
978.882	1.38
979.609	-1.62
980.335	0.38
981.062	-1.62
981.788	0.38
982.514	0.38
983.24	3.38
983.967	1.38
984.693	1.38
985.419	2.38
986.144	0.38
986.87	3.38
987.596	2.38
988.322	1.38
989.047	0.38
989.773	2.38
990.498	2.38
991.224	-1.62
991.949	2.38
992.674	-1.62
993.399	0.38
994.124	0.38
994.849	0.38
995.574	1.38
996.299	1.38
997.024	-0.62
997.749	-0.62
998.473	1.38
999.198	1.38
999.922	0.38
1000.647	0.38
1001.371	1.38
1002.095	-2.62
1002.82	0.38
1003.544	-1.62
1004.268	1.38
1004.992	-1.62
1005.716	1.38
1006.439	0.38
1007.163	1.38
1007.887	4.38
1008.611	1.38
1009.334	3.38
1010.058	0.38
1010.781	-1.62
1011.504	2.38
1012.228	0.38
1012.951	-0.62
1013.674	1.38
1014.397	-0.62
1015.12	2.38
