节点500_285_QEPB04081__327__15-00-59-707.txt的数据

Date: Wed Nov 12 15:00:59 CST 2025
User: PC
Spectrometer: QEPB0408
触发模式: 0
积分时间 (秒): 1.000000E-2
Scans to average: 1
启用暗噪声校正: true
启用非线性校正: false
滑动平均宽度: 0
X轴模式: Wavelengths
Number of Pixels in Spectrum: 1044
>>>>>Begin Spectral Data<<<<<
220.843	0.38
221.644	2.38
222.444	-0.62
223.244	3.38
224.045	1.38
224.845	3.38
225.645	-0.62
226.445	4.38
227.245	1.38
228.045	3.38
228.845	3.38
229.645	2.38
230.444	4.38
231.244	4.38
232.043	1.38
232.843	1.38
233.642	0.38
234.442	4.38
235.241	3.38
236.04	3.38
236.839	1.38
237.638	2.38
238.437	3.38
239.236	2.38
240.035	1.38
240.833	0.38
241.632	6.38
242.43	4.38
243.229	3.38
244.027	6.38
244.826	6.38
245.624	6.38
246.422	8.38
247.22	5.38
248.018	7.38
248.816	6.38
249.614	6.38
250.412	6.38
251.21	6.38
252.007	6.38
252.805	6.38
253.602	8.38
254.4	6.38
255.197	7.38
255.994	7.38
256.791	6.38
257.589	9.38
258.386	7.38
259.183	9.38
259.979	10.38
260.776	11.38
261.573	9.38
262.37	8.38
263.166	9.38
263.963	11.38
264.759	10.38
265.556	12.38
266.352	13.38
267.148	12.38
267.944	14.38
268.74	13.38
269.536	15.38
270.332	12.38
271.128	12.38
271.924	13.38
272.719	15.38
273.515	17.38
274.311	14.38
275.106	18.38
275.901	16.38
276.697	16.38
277.492	18.38
278.287	18.38
279.082	18.38
279.877	18.38
280.672	19.38
281.467	19.38
282.262	20.38
283.056	16.38
283.851	19.38
284.646	20.38
285.44	20.38
286.234	20.38
287.029	17.38
287.823	16.38
288.617	18.38
289.411	19.38
290.205	17.38
290.999	15.38
291.793	18.38
292.587	15.38
293.381	17.38
294.174	15.38
294.968	17.38
295.761	13.38
296.555	13.38
297.348	20.38
298.141	14.38
298.935	15.38
299.728	13.38
300.521	11.38
301.314	13.38
302.107	11.38
302.899	13.38
303.692	12.38
304.485	14.38
305.277	11.38
306.07	11.38
306.862	13.38
307.655	9.38
308.447	13.38
309.239	11.38
310.031	11.38
310.823	9.38
311.615	8.38
312.407	8.38
313.199	9.38
313.991	10.38
314.783	8.38
315.574	9.38
316.366	11.38
317.157	8.38
317.949	8.38
318.74	7.38
319.531	8.38
320.322	6.38
321.113	6.38
321.904	6.38
322.695	7.38
323.486	5.38
324.277	7.38
325.068	6.38
325.858	9.38
326.649	7.38
327.439	6.38
328.23	6.38
329.02	6.38
329.81	7.38
330.6	7.38
331.391	6.38
332.181	4.38
332.971	5.38
333.76	3.38
334.55	4.38
335.34	6.38
336.13	5.38
336.919	4.38
337.709	4.38
338.498	7.38
339.287	6.38
340.077	8.38
340.866	5.38
341.655	7.38
342.444	7.38
343.233	3.38
344.022	6.38
344.811	5.38
345.6	6.38
346.388	7.38
347.177	5.38
347.965	5.38
348.754	5.38
349.542	7.38
350.33	4.38
351.119	6.38
351.907	6.38
352.695	7.38
353.483	6.38
354.271	6.38
355.059	3.38
355.846	5.38
356.634	5.38
357.422	6.38
358.209	6.38
358.997	5.38
359.784	3.38
360.571	4.38
361.359	7.38
362.146	4.38
362.933	5.38
363.72	5.38
364.507	6.38
365.294	6.38
366.081	5.38
366.867	7.38
367.654	4.38
368.44	7.38
369.227	5.38
370.013	5.38
370.8	5.38
371.586	1.38
372.372	4.38
373.158	4.38
373.944	5.38
374.73	3.38
375.516	5.38
376.302	3.38
377.088	5.38
377.873	4.38
378.659	4.38
379.445	5.38
380.23	5.38
381.015	5.38
381.801	5.38
382.586	4.38
383.371	5.38
384.156	6.38
384.941	6.38
385.726	6.38
386.511	7.38
387.296	5.38
388.08	5.38
388.865	7.38
389.649	8.38
390.434	2.38
391.218	6.38
392.003	5.38
392.787	7.38
393.571	5.38
394.355	6.38
395.139	5.38
395.923	7.38
396.707	7.38
397.491	7.38
398.274	6.38
399.058	5.38
399.842	4.38
400.625	9.38
401.408	6.38
402.192	10.38
402.975	6.38
403.758	6.38
404.541	7.38
405.324	5.38
406.107	8.38
406.89	7.38
407.673	8.38
408.456	9.38
409.238	7.38
410.021	9.38
410.803	7.38
411.586	8.38
412.368	5.38
413.151	10.38
413.933	9.38
414.715	9.38
415.497	9.38
416.279	7.38
417.061	11.38
417.843	7.38
418.624	8.38
419.406	11.38
420.188	8.38
420.969	9.38
421.751	11.38
422.532	10.38
423.313	13.38
424.095	10.38
424.876	9.38
425.657	10.38
426.438	13.38
427.219	11.38
428	13.38
428.78	13.38
429.561	11.38
430.342	15.38
431.122	15.38
431.903	13.38
432.683	15.38
433.464	13.38
434.244	16.38
435.024	15.38
435.804	18.38
436.584	16.38
437.364	19.38
438.144	17.38
438.924	18.38
439.704	23.38
440.483	24.38
441.263	26.38
442.042	23.38
442.822	26.38
443.601	26.38
444.38	29.38
445.16	30.38
445.939	32.38
446.718	35.38
447.497	37.38
448.276	44.38
449.054	45.38
449.833	48.38
450.612	49.38
451.391	58.38
452.169	62.38
452.948	67.38
453.726	72.38
454.504	80.38
455.282	87.38
456.061	103.38
456.839	108.38
457.617	116.38
458.395	131.38
459.172	150.38
459.95	168.38
460.728	180.38
461.506	206.38
462.283	224.38
463.061	255.38
463.838	282.38
464.615	324.38
465.393	356.38
466.17	405.38
466.947	449.38
467.724	504.38
468.501	549.38
469.278	619.38
470.055	687.38
470.831	757.38
471.608	850.38
472.385	955.38
473.161	1042.38
473.938	1165.38
474.714	1285.38
475.49	1428.38
476.266	1572.38
477.043	1743.38
477.819	1931.38
478.595	2142.38
479.371	2350.38
480.146	2585.38
480.922	2851.38
481.698	3155.38
482.473	3460.38
483.249	3835.38
484.024	4230.38
484.8	4641.38
485.575	5099.38
486.35	5620.38
487.126	6140.38
487.901	6710.38
488.676	7403.38
489.451	8089.38
490.225	8872.38
491	9636.38
491.775	10565.38
492.55	11456.38
493.324	12509.38
494.099	13431.38
494.873	14455.38
495.647	15622.38
496.422	16776.38
497.196	17928.38
497.97	19113.38
498.744	20320.38
499.518	21515.38
500.292	22685.38
501.066	23731.38
501.839	24692.38
502.613	25630.38
503.387	26407.38
504.16	27014.38
504.934	27375.38
505.707	27450.38
506.48	27613.38
507.253	27452.38
508.027	27215.38
508.8	26863.38
509.573	26517.38
510.346	25891.38
511.118	25046.38
511.891	24236.38
512.664	23333.38
513.437	22506.38
514.209	21541.38
514.982	20664.38
515.754	19750.38
516.526	18866.38
517.298	18010.38
518.071	17266.38
518.843	16564.38
519.615	15939.38
520.387	15352.38
521.159	14770.38
521.93	14170.38
522.702	13586.38
523.474	12976.38
524.245	12426.38
525.017	11925.38
525.788	11440.38
526.56	10928.38
527.331	10421.38
528.102	9958.38
528.873	9499.38
529.644	8990.38
530.415	8585.38
531.186	8121.38
531.957	7711.38
532.728	7322.38
533.498	6978.38
534.269	6594.38
535.039	6171.38
535.81	5844.38
536.58	5521.38
537.351	5207.38
538.121	4905.38
538.891	4657.38
539.661	4381.38
540.431	4163.38
541.201	3918.38
541.971	3709.38
542.741	3530.38
543.51	3361.38
544.28	3182.38
545.05	3034.38
545.819	2893.38
546.588	2747.38
547.358	2608.38
548.127	2479.38
548.896	2334.38
549.665	2240.38
550.434	2111.38
551.203	2011.38
551.972	1891.38
552.741	1804.38
553.51	1690.38
554.278	1598.38
555.047	1509.38
555.815	1427.38
556.584	1349.38
557.352	1264.38
558.121	1193.38
558.889	1118.38
559.657	1067.38
560.425	1014.38
561.193	944.38
561.961	890.38
562.729	848.38
563.496	790.38
564.264	752.38
565.032	720.38
565.799	674.38
566.567	636.38
567.334	605.38
568.101	568.38
568.869	537.38
569.636	504.38
570.403	479.38
571.17	456.38
571.937	425.38
572.704	405.38
573.471	372.38
574.237	359.38
575.004	340.38
575.771	313.38
576.537	301.38
577.303	283.38
578.07	272.38
578.836	247.38
579.602	234.38
580.368	223.38
581.134	209.38
581.9	202.38
582.666	188.38
583.432	178.38
584.198	169.38
584.964	165.38
585.729	157.38
586.495	145.38
587.26	136.38
588.025	134.38
588.791	121.38
589.556	117.38
590.321	112.38
591.086	107.38
591.851	95.38
592.616	100.38
593.381	87.38
594.146	86.38
594.911	80.38
595.675	76.38
596.44	74.38
597.204	71.38
597.969	68.38
598.733	62.38
599.497	58.38
600.261	58.38
601.025	55.38
601.79	55.38
602.553	53.38
603.317	48.38
604.081	46.38
604.845	48.38
605.609	46.38
606.372	38.38
607.136	40.38
607.899	38.38
608.662	35.38
609.426	37.38
610.189	36.38
610.952	33.38
611.715	28.38
612.478	30.38
613.241	30.38
614.004	26.38
614.767	28.38
615.529	28.38
616.292	26.38
617.055	23.38
617.817	26.38
618.579	23.38
619.342	22.38
620.104	21.38
620.866	19.38
621.628	18.38
622.39	19.38
623.152	19.38
623.914	17.38
624.676	16.38
625.438	17.38
626.199	15.38
626.961	18.38
627.722	14.38
628.484	14.38
629.245	15.38
630.006	15.38
630.768	13.38
631.529	12.38
632.29	15.38
633.051	10.38
633.812	11.38
634.573	12.38
635.333	9.38
636.094	11.38
636.855	9.38
637.615	10.38
638.376	10.38
639.136	8.38
639.896	8.38
640.657	9.38
641.417	9.38
642.177	9.38
642.937	10.38
643.697	8.38
644.457	5.38
645.216	9.38
645.976	7.38
646.736	7.38
647.495	7.38
648.255	8.38
649.014	8.38
649.774	8.38
650.533	6.38
651.292	6.38
652.051	7.38
652.81	6.38
653.569	7.38
654.328	6.38
655.087	7.38
655.846	6.38
656.604	7.38
657.363	5.38
658.121	6.38
658.88	3.38
659.638	7.38
660.397	6.38
661.155	5.38
661.913	7.38
662.671	4.38
663.429	5.38
664.187	4.38
664.945	6.38
665.703	5.38
666.46	5.38
667.218	5.38
667.976	2.38
668.733	4.38
669.49	1.38
670.248	7.38
671.005	4.38
671.762	2.38
672.519	2.38
673.276	3.38
674.033	5.38
674.79	1.38
675.547	4.38
676.304	3.38
677.06	4.38
677.817	5.38
678.574	3.38
679.33	5.38
680.086	5.38
680.843	3.38
681.599	4.38
682.355	4.38
683.111	4.38
683.867	4.38
684.623	3.38
685.379	2.38
686.135	3.38
686.89	3.38
687.646	3.38
688.402	4.38
689.157	4.38
689.912	4.38
690.668	2.38
691.423	2.38
692.178	4.38
692.933	3.38
693.688	2.38
694.443	2.38
695.198	3.38
695.953	5.38
696.708	2.38
697.462	3.38
698.217	4.38
698.972	5.38
699.726	2.38
700.48	3.38
701.235	4.38
701.989	1.38
702.743	3.38
703.497	4.38
704.251	3.38
705.005	3.38
705.759	4.38
706.513	4.38
707.266	3.38
708.02	4.38
708.774	1.38
709.527	2.38
710.28	4.38
711.034	1.38
711.787	4.38
712.54	4.38
713.293	2.38
714.046	3.38
714.799	2.38
715.552	2.38
716.305	3.38
717.058	5.38
717.81	3.38
718.563	3.38
719.315	4.38
720.068	5.38
720.82	5.38
721.573	5.38
722.325	2.38
723.077	3.38
723.829	2.38
724.581	3.38
725.333	4.38
726.085	3.38
726.836	3.38
727.588	4.38
728.34	4.38
729.091	2.38
729.843	4.38
730.594	5.38
731.346	2.38
732.097	4.38
732.848	2.38
733.599	4.38
734.35	3.38
735.101	3.38
735.852	5.38
736.603	5.38
737.354	3.38
738.104	3.38
738.855	5.38
739.605	3.38
740.356	4.38
741.106	4.38
741.856	4.38
742.607	3.38
743.357	4.38
744.107	8.38
744.857	5.38
745.607	5.38
746.357	5.38
747.106	4.38
747.856	5.38
748.606	1.38
749.355	5.38
750.105	3.38
750.854	2.38
751.603	6.38
752.353	4.38
753.102	6.38
753.851	7.38
754.6	7.38
755.349	5.38
756.098	4.38
756.847	5.38
757.595	3.38
758.344	6.38
759.093	4.38
759.841	4.38
760.589	4.38
761.338	5.38
762.086	7.38
762.834	4.38
763.582	6.38
764.331	5.38
765.079	5.38
765.826	7.38
766.574	5.38
767.322	7.38
768.07	7.38
768.817	7.38
769.565	7.38
770.312	5.38
771.06	10.38
771.807	7.38
772.554	7.38
773.302	9.38
774.049	6.38
774.796	8.38
775.543	6.38
776.29	7.38
777.036	7.38
777.783	6.38
778.53	8.38
779.276	8.38
780.023	8.38
780.769	6.38
781.516	7.38
782.262	7.38
783.008	10.38
783.754	9.38
784.5	8.38
785.246	8.38
785.992	8.38
786.738	8.38
787.484	9.38
788.23	9.38
788.975	9.38
789.721	6.38
790.466	8.38
791.212	7.38
791.957	8.38
792.702	8.38
793.447	9.38
794.193	9.38
794.938	7.38
795.683	8.38
796.427	8.38
797.172	7.38
797.917	7.38
798.662	8.38
799.406	8.38
800.151	6.38
800.895	8.38
801.64	7.38
802.384	5.38
803.128	5.38
803.872	6.38
804.616	7.38
805.36	7.38
806.104	5.38
806.848	5.38
807.592	6.38
808.336	5.38
809.079	4.38
809.823	5.38
810.566	7.38
811.31	5.38
812.053	4.38
812.796	6.38
813.539	4.38
814.283	6.38
815.026	4.38
815.769	6.38
816.511	5.38
817.254	6.38
817.997	6.38
818.74	4.38
819.482	5.38
820.225	5.38
820.967	5.38
821.71	2.38
822.452	3.38
823.194	4.38
823.936	5.38
824.678	3.38
825.42	1.38
826.162	5.38
826.904	4.38
827.646	1.38
828.388	4.38
829.129	5.38
829.871	1.38
830.612	3.38
831.354	3.38
832.095	0.38
832.836	4.38
833.577	4.38
834.319	-0.62
835.06	1.38
835.801	-0.62
836.542	3.38
837.282	2.38
838.023	4.38
838.764	1.38
839.504	2.38
840.245	2.38
840.985	2.38
841.726	5.38
842.466	3.38
843.206	4.38
843.946	1.38
844.687	2.38
845.427	2.38
846.166	3.38
846.906	3.38
847.646	3.38
848.386	3.38
849.125	1.38
849.865	2.38
850.605	4.38
851.344	2.38
852.083	3.38
852.823	4.38
853.562	2.38
854.301	2.38
855.04	-0.62
855.779	3.38
856.518	2.38
857.257	1.38
857.995	1.38
858.734	2.38
859.473	2.38
860.211	2.38
860.95	2.38
861.688	2.38
862.426	1.38
863.165	1.38
863.903	0.38
864.641	2.38
865.379	-0.62
866.117	1.38
866.855	2.38
867.593	2.38
868.33	0.38
869.068	0.38
869.806	0.38
870.543	2.38
871.28	-0.62
872.018	2.38
872.755	-0.62
873.492	1.38
874.229	0.38
874.967	0.38
875.703	0.38
876.44	1.38
877.177	0.38
877.914	-1.62
878.651	-0.62
879.387	0.38
880.124	0.38
880.86	0.38
881.597	1.38
882.333	0.38
883.069	0.38
883.806	2.38
884.542	0.38
885.278	1.38
886.014	2.38
886.749	-0.62
887.485	0.38
888.221	0.38
888.957	3.38
889.692	0.38
890.428	-0.62
891.163	1.38
891.899	1.38
892.634	2.38
893.369	1.38
894.104	1.38
894.839	0.38
895.574	-0.62
896.309	0.38
897.044	-1.62
897.779	-0.62
898.514	-1.62
899.248	-1.62
899.983	3.38
900.717	0.38
901.452	0.38
902.186	0.38
902.92	2.38
903.654	1.38
904.389	-0.62
905.123	-0.62
905.857	-0.62
906.59	0.38
907.324	1.38
908.058	-2.62
908.792	2.38
909.525	-0.62
910.259	0.38
910.992	0.38
911.726	-0.62
912.459	1.38
913.192	-1.62
913.925	0.38
914.658	0.38
915.391	0.38
916.124	1.38
916.857	-0.62
917.59	0.38
918.323	1.38
919.055	-0.62
919.788	0.38
920.521	1.38
921.253	1.38
921.985	0.38
922.718	1.38
923.45	-1.62
924.182	2.38
924.914	-1.62
925.646	-1.62
926.378	0.38
927.11	0.38
927.841	-0.62
928.573	-1.62
929.305	-0.62
930.036	-0.62
930.768	3.38
931.499	0.38
932.23	-0.62
932.962	0.38
933.693	-1.62
934.424	0.38
935.155	-2.62
935.886	1.38
936.617	-1.62
937.348	0.38
938.078	0.38
938.809	-1.62
939.54	-0.62
940.27	-1.62
941.001	-1.62
941.731	1.38
942.461	0.38
943.191	-0.62
943.922	-0.62
944.652	-1.62
945.382	2.38
946.112	0.38
946.841	-0.62
947.571	-0.62
948.301	0.38
949.031	-0.62
949.76	0.38
950.49	1.38
951.219	-0.62
951.948	0.38
952.678	-0.62
953.407	0.38
954.136	-0.62
954.865	1.38
955.594	0.38
956.323	-0.62
957.052	-0.62
957.78	-0.62
958.509	-0.62
959.238	-1.62
959.966	0.38
960.695	-0.62
961.423	-0.62
962.151	-0.62
962.88	0.38
963.608	0.38
964.336	0.38
965.064	-0.62
965.792	-0.62
966.52	-0.62
967.247	1.38
967.975	-2.62
968.703	1.38
969.43	0.38
970.158	-0.62
970.885	0.38
971.613	1.38
972.34	1.38
973.067	1.38
973.794	-0.62
974.521	0.38
975.248	-1.62
975.975	0.38
976.702	0.38
977.429	0.38
978.156	-0.62
978.882	-0.62
979.609	0.38
980.335	-0.62
981.062	2.38
981.788	0.38
982.514	-0.62
983.24	0.38
983.967	0.38
984.693	0.38
985.419	-2.62
986.144	-2.62
986.87	0.38
987.596	-0.62
988.322	-1.62
989.047	0.38
989.773	0.38
990.498	-0.62
991.224	1.38
991.949	1.38
992.674	0.38
993.399	-0.62
994.124	-1.62
994.849	1.38
995.574	3.38
996.299	0.38
997.024	-0.62
997.749	0.38
998.473	0.38
999.198	0.38
999.922	-0.62
1000.647	0.38
1001.371	1.38
1002.095	0.38
1002.82	-2.62
1003.544	-0.62
1004.268	1.38
1004.992	0.38
1005.716	0.38
1006.439	1.38
1007.163	1.38
1007.887	0.38
1008.611	-2.62
1009.334	1.38
1010.058	-0.62
1010.781	0.38
1011.504	-0.62
1012.228	0.38
1012.951	1.38
1013.674	0.38
1014.397	0.38
1015.12	-0.62
