节点500_285_QEPB04081__437__15-02-49-541.txt的数据

Date: Wed Nov 12 15:02:49 CST 2025
User: PC
Spectrometer: QEPB0408
触发模式: 0
积分时间 (秒): 1.000000E-2
Scans to average: 1
启用暗噪声校正: true
启用非线性校正: false
滑动平均宽度: 0
X轴模式: Wavelengths
Number of Pixels in Spectrum: 1044
>>>>>Begin Spectral Data<<<<<
220.843	0.88
221.644	1.88
222.444	1.88
223.244	0.88
224.045	-0.12
224.845	2.88
225.645	0.88
226.445	2.88
227.245	2.88
228.045	0.88
228.845	1.88
229.645	3.88
230.444	1.88
231.244	3.88
232.043	-0.12
232.843	4.88
233.642	4.88
234.442	5.88
235.241	4.88
236.04	3.88
236.839	5.88
237.638	2.88
238.437	4.88
239.236	2.88
240.035	3.88
240.833	1.88
241.632	4.88
242.43	3.88
243.229	5.88
244.027	5.88
244.826	3.88
245.624	4.88
246.422	3.88
247.22	4.88
248.018	6.88
248.816	3.88
249.614	7.88
250.412	7.88
251.21	5.88
252.007	7.88
252.805	6.88
253.602	6.88
254.4	6.88
255.197	8.88
255.994	6.88
256.791	7.88
257.589	8.88
258.386	6.88
259.183	8.88
259.979	7.88
260.776	11.88
261.573	9.88
262.37	8.88
263.166	10.88
263.963	7.88
264.759	10.88
265.556	12.88
266.352	13.88
267.148	12.88
267.944	12.88
268.74	10.88
269.536	12.88
270.332	15.88
271.128	14.88
271.924	14.88
272.719	15.88
273.515	13.88
274.311	16.88
275.106	13.88
275.901	17.88
276.697	13.88
277.492	16.88
278.287	16.88
279.082	16.88
279.877	17.88
280.672	18.88
281.467	16.88
282.262	17.88
283.056	16.88
283.851	14.88
284.646	17.88
285.44	16.88
286.234	19.88
287.029	15.88
287.823	18.88
288.617	16.88
289.411	17.88
290.205	16.88
290.999	20.88
291.793	18.88
292.587	16.88
293.381	15.88
294.174	17.88
294.968	18.88
295.761	16.88
296.555	15.88
297.348	13.88
298.141	14.88
298.935	14.88
299.728	13.88
300.521	11.88
301.314	13.88
302.107	12.88
302.899	13.88
303.692	13.88
304.485	13.88
305.277	10.88
306.07	14.88
306.862	12.88
307.655	10.88
308.447	12.88
309.239	10.88
310.031	12.88
310.823	9.88
311.615	8.88
312.407	6.88
313.199	10.88
313.991	9.88
314.783	6.88
315.574	8.88
316.366	7.88
317.157	8.88
317.949	8.88
318.74	5.88
319.531	6.88
320.322	7.88
321.113	7.88
321.904	6.88
322.695	5.88
323.486	6.88
324.277	5.88
325.068	8.88
325.858	7.88
326.649	3.88
327.439	7.88
328.23	7.88
329.02	6.88
329.81	6.88
330.6	6.88
331.391	7.88
332.181	6.88
332.971	6.88
333.76	7.88
334.55	7.88
335.34	7.88
336.13	6.88
336.919	6.88
337.709	7.88
338.498	7.88
339.287	6.88
340.077	4.88
340.866	5.88
341.655	8.88
342.444	5.88
343.233	5.88
344.022	5.88
344.811	6.88
345.6	4.88
346.388	3.88
347.177	5.88
347.965	5.88
348.754	7.88
349.542	6.88
350.33	4.88
351.119	5.88
351.907	5.88
352.695	5.88
353.483	6.88
354.271	4.88
355.059	5.88
355.846	2.88
356.634	4.88
357.422	4.88
358.209	7.88
358.997	5.88
359.784	6.88
360.571	6.88
361.359	4.88
362.146	4.88
362.933	2.88
363.72	5.88
364.507	6.88
365.294	4.88
366.081	5.88
366.867	5.88
367.654	2.88
368.44	5.88
369.227	4.88
370.013	4.88
370.8	5.88
371.586	5.88
372.372	3.88
373.158	3.88
373.944	6.88
374.73	4.88
375.516	2.88
376.302	5.88
377.088	5.88
377.873	4.88
378.659	2.88
379.445	5.88
380.23	3.88
381.015	4.88
381.801	3.88
382.586	4.88
383.371	3.88
384.156	3.88
384.941	4.88
385.726	1.88
386.511	5.88
387.296	5.88
388.08	8.88
388.865	5.88
389.649	2.88
390.434	4.88
391.218	5.88
392.003	6.88
392.787	5.88
393.571	5.88
394.355	4.88
395.139	7.88
395.923	7.88
396.707	4.88
397.491	3.88
398.274	6.88
399.058	6.88
399.842	6.88
400.625	6.88
401.408	7.88
402.192	4.88
402.975	6.88
403.758	5.88
404.541	6.88
405.324	5.88
406.107	8.88
406.89	8.88
407.673	6.88
408.456	8.88
409.238	7.88
410.021	11.88
410.803	8.88
411.586	8.88
412.368	7.88
413.151	10.88
413.933	5.88
414.715	9.88
415.497	7.88
416.279	9.88
417.061	7.88
417.843	8.88
418.624	9.88
419.406	6.88
420.188	11.88
420.969	10.88
421.751	11.88
422.532	11.88
423.313	10.88
424.095	12.88
424.876	8.88
425.657	13.88
426.438	12.88
427.219	11.88
428	9.88
428.78	13.88
429.561	13.88
430.342	13.88
431.122	12.88
431.903	13.88
432.683	13.88
433.464	13.88
434.244	15.88
435.024	17.88
435.804	18.88
436.584	19.88
437.364	17.88
438.144	21.88
438.924	19.88
439.704	17.88
440.483	22.88
441.263	24.88
442.042	22.88
442.822	25.88
443.601	28.88
444.38	31.88
445.16	29.88
445.939	29.88
446.718	36.88
447.497	37.88
448.276	40.88
449.054	47.88
449.833	48.88
450.612	54.88
451.391	61.88
452.169	66.88
452.948	69.88
453.726	77.88
454.504	82.88
455.282	88.88
456.061	101.88
456.839	116.88
457.617	122.88
458.395	135.88
459.172	149.88
459.95	168.88
460.728	189.88
461.506	210.88
462.283	240.88
463.061	257.88
463.838	298.88
464.615	333.88
465.393	362.88
466.17	416.88
466.947	462.88
467.724	502.88
468.501	564.88
469.278	629.88
470.055	696.88
470.831	772.88
471.608	871.88
472.385	961.88
473.161	1063.88
473.938	1182.88
474.714	1305.88
475.49	1439.88
476.266	1588.88
477.043	1755.88
477.819	1935.88
478.595	2123.88
479.371	2340.88
480.146	2590.88
480.922	2864.88
481.698	3150.88
482.473	3448.88
483.249	3774.88
484.024	4143.88
484.8	4569.88
485.575	4992.88
486.35	5501.88
487.126	6003.88
487.901	6580.88
488.676	7217.88
489.451	7874.88
490.225	8613.88
491	9363.88
491.775	10268.88
492.55	11182.88
493.324	12054.88
494.099	13009.88
494.873	14034.88
495.647	15126.88
496.422	16234.88
497.196	17448.88
497.97	18577.88
498.744	19657.88
499.518	20876.88
500.292	21958.88
501.066	23068.88
501.839	24009.88
502.613	24863.88
503.387	25728.88
504.16	26354.88
504.934	26729.88
505.707	26892.88
506.48	26979.88
507.253	27094.88
508.027	26772.88
508.8	26567.88
509.573	26213.88
510.346	25561.88
511.118	24898.88
511.891	24161.88
512.664	23287.88
513.437	22421.88
514.209	21576.88
514.982	20710.88
515.754	19840.88
516.526	18983.88
517.298	18208.88
518.071	17322.88
518.843	16709.88
519.615	16049.88
520.387	15399.88
521.159	14794.88
521.93	14207.88
522.702	13641.88
523.474	13093.88
524.245	12488.88
525.017	12014.88
525.788	11571.88
526.56	10970.88
527.331	10531.88
528.102	10046.88
528.873	9567.88
529.644	9078.88
530.415	8674.88
531.186	8278.88
531.957	7819.88
532.728	7459.88
533.498	7041.88
534.269	6667.88
535.039	6303.88
535.81	5976.88
536.58	5616.88
537.351	5282.88
538.121	5008.88
538.891	4753.88
539.661	4487.88
540.431	4239.88
541.201	4004.88
541.971	3791.88
542.741	3606.88
543.51	3417.88
544.28	3243.88
545.05	3080.88
545.819	2942.88
546.588	2781.88
547.358	2650.88
548.127	2536.88
548.896	2376.88
549.665	2276.88
550.434	2150.88
551.203	2030.88
551.972	1933.88
552.741	1801.88
553.51	1733.88
554.278	1636.88
555.047	1528.88
555.815	1446.88
556.584	1377.88
557.352	1291.88
558.121	1217.88
558.889	1149.88
559.657	1071.88
560.425	1032.88
561.193	973.88
561.961	911.88
562.729	857.88
563.496	809.88
564.264	783.88
565.032	739.88
565.799	687.88
566.567	653.88
567.334	614.88
568.101	583.88
568.869	545.88
569.636	522.88
570.403	495.88
571.17	454.88
571.937	436.88
572.704	406.88
573.471	386.88
574.237	375.88
575.004	343.88
575.771	327.88
576.537	303.88
577.303	284.88
578.07	271.88
578.836	261.88
579.602	238.88
580.368	231.88
581.134	216.88
581.9	199.88
582.666	190.88
583.432	182.88
584.198	174.88
584.964	165.88
585.729	155.88
586.495	155.88
587.26	138.88
588.025	133.88
588.791	124.88
589.556	125.88
590.321	112.88
591.086	106.88
591.851	103.88
592.616	96.88
593.381	93.88
594.146	88.88
594.911	80.88
595.675	79.88
596.44	77.88
597.204	72.88
597.969	67.88
598.733	64.88
599.497	66.88
600.261	60.88
601.025	55.88
601.79	54.88
602.553	55.88
603.317	50.88
604.081	49.88
604.845	46.88
605.609	45.88
606.372	42.88
607.136	38.88
607.899	41.88
608.662	38.88
609.426	35.88
610.189	36.88
610.952	30.88
611.715	33.88
612.478	30.88
613.241	31.88
614.004	28.88
614.767	27.88
615.529	23.88
616.292	23.88
617.055	25.88
617.817	22.88
618.579	19.88
619.342	23.88
620.104	23.88
620.866	18.88
621.628	17.88
622.39	17.88
623.152	16.88
623.914	16.88
624.676	19.88
625.438	14.88
626.199	18.88
626.961	16.88
627.722	15.88
628.484	14.88
629.245	14.88
630.006	13.88
630.768	13.88
631.529	12.88
632.29	14.88
633.051	13.88
633.812	14.88
634.573	9.88
635.333	11.88
636.094	9.88
636.855	10.88
637.615	11.88
638.376	9.88
639.136	7.88
639.896	10.88
640.657	9.88
641.417	7.88
642.177	8.88
642.937	6.88
643.697	7.88
644.457	8.88
645.216	6.88
645.976	8.88
646.736	7.88
647.495	7.88
648.255	7.88
649.014	7.88
649.774	8.88
650.533	7.88
651.292	7.88
652.051	5.88
652.81	6.88
653.569	6.88
654.328	6.88
655.087	5.88
655.846	5.88
656.604	6.88
657.363	7.88
658.121	6.88
658.88	3.88
659.638	5.88
660.397	6.88
661.155	6.88
661.913	3.88
662.671	6.88
663.429	4.88
664.187	5.88
664.945	3.88
665.703	5.88
666.46	6.88
667.218	5.88
667.976	3.88
668.733	4.88
669.49	6.88
670.248	4.88
671.005	6.88
671.762	2.88
672.519	2.88
673.276	7.88
674.033	0.88
674.79	5.88
675.547	4.88
676.304	3.88
677.06	5.88
677.817	4.88
678.574	3.88
679.33	2.88
680.086	3.88
680.843	2.88
681.599	2.88
682.355	3.88
683.111	2.88
683.867	4.88
684.623	3.88
685.379	4.88
686.135	3.88
686.89	1.88
687.646	2.88
688.402	2.88
689.157	4.88
689.912	4.88
690.668	3.88
691.423	2.88
692.178	3.88
692.933	3.88
693.688	4.88
694.443	3.88
695.198	4.88
695.953	3.88
696.708	1.88
697.462	2.88
698.217	4.88
698.972	4.88
699.726	3.88
700.48	2.88
701.235	2.88
701.989	2.88
702.743	4.88
703.497	3.88
704.251	1.88
705.005	2.88
705.759	4.88
706.513	1.88
707.266	3.88
708.02	3.88
708.774	2.88
709.527	1.88
710.28	0.88
711.034	4.88
711.787	3.88
712.54	4.88
713.293	2.88
714.046	5.88
714.799	3.88
715.552	0.88
716.305	2.88
717.058	0.88
717.81	4.88
718.563	2.88
719.315	2.88
720.068	2.88
720.82	3.88
721.573	3.88
722.325	1.88
723.077	2.88
723.829	1.88
724.581	3.88
725.333	4.88
726.085	1.88
726.836	2.88
727.588	5.88
728.34	4.88
729.091	2.88
729.843	3.88
730.594	3.88
731.346	4.88
732.097	4.88
732.848	2.88
733.599	4.88
734.35	5.88
735.101	2.88
735.852	4.88
736.603	4.88
737.354	1.88
738.104	4.88
738.855	2.88
739.605	4.88
740.356	6.88
741.106	4.88
741.856	3.88
742.607	4.88
743.357	5.88
744.107	3.88
744.857	5.88
745.607	4.88
746.357	6.88
747.106	2.88
747.856	3.88
748.606	6.88
749.355	2.88
750.105	3.88
750.854	4.88
751.603	6.88
752.353	4.88
753.102	3.88
753.851	3.88
754.6	3.88
755.349	5.88
756.098	6.88
756.847	7.88
757.595	6.88
758.344	5.88
759.093	6.88
759.841	3.88
760.589	5.88
761.338	5.88
762.086	4.88
762.834	4.88
763.582	6.88
764.331	5.88
765.079	6.88
765.826	8.88
766.574	5.88
767.322	5.88
768.07	6.88
768.817	7.88
769.565	5.88
770.312	9.88
771.06	7.88
771.807	7.88
772.554	6.88
773.302	5.88
774.049	4.88
774.796	9.88
775.543	8.88
776.29	7.88
777.036	8.88
777.783	8.88
778.53	7.88
779.276	9.88
780.023	6.88
780.769	6.88
781.516	8.88
782.262	8.88
783.008	9.88
783.754	7.88
784.5	8.88
785.246	7.88
785.992	8.88
786.738	8.88
787.484	10.88
788.23	7.88
788.975	8.88
789.721	6.88
790.466	8.88
791.212	7.88
791.957	7.88
792.702	10.88
793.447	8.88
794.193	8.88
794.938	7.88
795.683	6.88
796.427	7.88
797.172	5.88
797.917	9.88
798.662	5.88
799.406	7.88
800.151	5.88
800.895	7.88
801.64	6.88
802.384	7.88
803.128	6.88
803.872	8.88
804.616	4.88
805.36	7.88
806.104	6.88
806.848	5.88
807.592	4.88
808.336	4.88
809.079	3.88
809.823	3.88
810.566	8.88
811.31	5.88
812.053	6.88
812.796	5.88
813.539	4.88
814.283	6.88
815.026	4.88
815.769	3.88
816.511	4.88
817.254	3.88
817.997	6.88
818.74	2.88
819.482	3.88
820.225	1.88
820.967	4.88
821.71	5.88
822.452	5.88
823.194	1.88
823.936	4.88
824.678	4.88
825.42	1.88
826.162	4.88
826.904	4.88
827.646	3.88
828.388	4.88
829.129	1.88
829.871	2.88
830.612	2.88
831.354	3.88
832.095	3.88
832.836	6.88
833.577	4.88
834.319	2.88
835.06	3.88
835.801	3.88
836.542	4.88
837.282	1.88
838.023	2.88
838.764	4.88
839.504	4.88
840.245	5.88
840.985	1.88
841.726	2.88
842.466	2.88
843.206	3.88
843.946	4.88
844.687	2.88
845.427	2.88
846.166	4.88
846.906	0.88
847.646	1.88
848.386	1.88
849.125	3.88
849.865	2.88
850.605	1.88
851.344	1.88
852.083	0.88
852.823	1.88
853.562	2.88
854.301	2.88
855.04	2.88
855.779	3.88
856.518	2.88
857.257	2.88
857.995	3.88
858.734	-0.12
859.473	2.88
860.211	0.88
860.95	2.88
861.688	2.88
862.426	-0.12
863.165	2.88
863.903	-0.12
864.641	4.88
865.379	1.88
866.117	2.88
866.855	1.88
867.593	1.88
868.33	2.88
869.068	2.88
869.806	1.88
870.543	2.88
871.28	3.88
872.018	0.88
872.755	1.88
873.492	-0.12
874.229	0.88
874.967	0.88
875.703	0.88
876.44	-0.12
877.177	2.88
877.914	-2.12
878.651	1.88
879.387	0.88
880.124	-0.12
880.86	0.88
881.597	0.88
882.333	1.88
883.069	0.88
883.806	0.88
884.542	-0.12
885.278	-1.12
886.014	1.88
886.749	0.88
887.485	-0.12
888.221	1.88
888.957	0.88
889.692	2.88
890.428	0.88
891.163	0.88
891.899	-0.12
892.634	1.88
893.369	-0.12
894.104	-1.12
894.839	-0.12
895.574	-1.12
896.309	3.88
897.044	-2.12
897.779	0.88
898.514	0.88
899.248	-0.12
899.983	0.88
900.717	-1.12
901.452	0.88
902.186	-1.12
902.92	-0.12
903.654	0.88
904.389	1.88
905.123	1.88
905.857	-0.12
906.59	1.88
907.324	-1.12
908.058	0.88
908.792	1.88
909.525	-0.12
910.259	0.88
910.992	1.88
911.726	1.88
912.459	1.88
913.192	-0.12
913.925	-0.12
914.658	-0.12
915.391	-1.12
916.124	-0.12
916.857	-0.12
917.59	-1.12
918.323	-0.12
919.055	0.88
919.788	0.88
920.521	0.88
921.253	0.88
921.985	-1.12
922.718	-0.12
923.45	-2.12
924.182	-1.12
924.914	0.88
925.646	0.88
926.378	1.88
927.11	-2.12
927.841	1.88
928.573	-1.12
929.305	-0.12
930.036	0.88
930.768	-0.12
931.499	-1.12
932.23	0.88
932.962	0.88
933.693	0.88
934.424	-0.12
935.155	-0.12
935.886	2.88
936.617	1.88
937.348	-0.12
938.078	1.88
938.809	-0.12
939.54	-0.12
940.27	-0.12
941.001	0.88
941.731	-1.12
942.461	0.88
943.191	-1.12
943.922	-0.12
944.652	-1.12
945.382	1.88
946.112	0.88
946.841	0.88
947.571	-0.12
948.301	0.88
949.031	1.88
949.76	-0.12
950.49	-1.12
951.219	-1.12
951.948	-0.12
952.678	0.88
953.407	-0.12
954.136	1.88
954.865	0.88
955.594	1.88
956.323	-0.12
957.052	0.88
957.78	-0.12
958.509	0.88
959.238	-1.12
959.966	0.88
960.695	1.88
961.423	-1.12
962.151	1.88
962.88	2.88
963.608	0.88
964.336	0.88
965.064	-0.12
965.792	2.88
966.52	-1.12
967.247	1.88
967.975	-0.12
968.703	-2.12
969.43	0.88
970.158	-0.12
970.885	0.88
971.613	0.88
972.34	-0.12
973.067	0.88
973.794	-2.12
974.521	1.88
975.248	-2.12
975.975	-1.12
976.702	-0.12
977.429	-0.12
978.156	0.88
978.882	0.88
979.609	0.88
980.335	1.88
981.062	0.88
981.788	0.88
982.514	-0.12
983.24	1.88
983.967	0.88
984.693	1.88
985.419	-0.12
986.144	0.88
986.87	-0.12
987.596	-0.12
988.322	-0.12
989.047	-0.12
989.773	1.88
990.498	-0.12
991.224	-0.12
991.949	1.88
992.674	-0.12
993.399	-0.12
994.124	-0.12
994.849	-0.12
995.574	-0.12
996.299	-0.12
997.024	-3.12
997.749	-1.12
998.473	1.88
999.198	-0.12
999.922	1.88
1000.647	0.88
1001.371	3.88
1002.095	-1.12
1002.82	-1.12
1003.544	0.88
1004.268	1.88
1004.992	-0.12
1005.716	1.88
1006.439	-0.12
1007.163	2.88
1007.887	2.88
1008.611	0.88
1009.334	1.88
1010.058	-2.12
1010.781	-2.12
1011.504	-0.12
1012.228	1.88
1012.951	0.88
1013.674	-1.12
1014.397	-0.12
1015.12	-2.12
