节点500_285_QEPB04081__605__15-05-37-160.txt的数据

Date: Wed Nov 12 15:05:37 CST 2025
User: PC
Spectrometer: QEPB0408
触发模式: 0
积分时间 (秒): 1.000000E-2
Scans to average: 1
启用暗噪声校正: true
启用非线性校正: false
滑动平均宽度: 0
X轴模式: Wavelengths
Number of Pixels in Spectrum: 1044
>>>>>Begin Spectral Data<<<<<
220.843	1.38
221.644	0.38
222.444	3.38
223.244	3.38
224.045	1.38
224.845	3.38
225.645	2.38
226.445	4.38
227.245	2.38
228.045	1.38
228.845	3.38
229.645	2.38
230.444	4.38
231.244	3.38
232.043	3.38
232.843	2.38
233.642	3.38
234.442	4.38
235.241	0.38
236.04	3.38
236.839	4.38
237.638	2.38
238.437	3.38
239.236	2.38
240.035	7.38
240.833	2.38
241.632	4.38
242.43	6.38
243.229	4.38
244.027	3.38
244.826	4.38
245.624	6.38
246.422	2.38
247.22	5.38
248.018	5.38
248.816	6.38
249.614	6.38
250.412	6.38
251.21	6.38
252.007	5.38
252.805	7.38
253.602	4.38
254.4	4.38
255.197	6.38
255.994	9.38
256.791	5.38
257.589	6.38
258.386	8.38
259.183	8.38
259.979	9.38
260.776	9.38
261.573	10.38
262.37	10.38
263.166	9.38
263.963	8.38
264.759	9.38
265.556	10.38
266.352	10.38
267.148	9.38
267.944	12.38
268.74	10.38
269.536	11.38
270.332	15.38
271.128	12.38
271.924	14.38
272.719	13.38
273.515	12.38
274.311	12.38
275.106	13.38
275.901	13.38
276.697	16.38
277.492	16.38
278.287	16.38
279.082	15.38
279.877	17.38
280.672	14.38
281.467	15.38
282.262	14.38
283.056	16.38
283.851	13.38
284.646	16.38
285.44	17.38
286.234	17.38
287.029	16.38
287.823	17.38
288.617	13.38
289.411	15.38
290.205	18.38
290.999	18.38
291.793	15.38
292.587	17.38
293.381	19.38
294.174	14.38
294.968	14.38
295.761	15.38
296.555	13.38
297.348	14.38
298.141	14.38
298.935	15.38
299.728	13.38
300.521	13.38
301.314	13.38
302.107	14.38
302.899	12.38
303.692	12.38
304.485	12.38
305.277	12.38
306.07	12.38
306.862	11.38
307.655	11.38
308.447	14.38
309.239	11.38
310.031	8.38
310.823	7.38
311.615	8.38
312.407	10.38
313.199	9.38
313.991	9.38
314.783	7.38
315.574	9.38
316.366	8.38
317.157	8.38
317.949	9.38
318.74	6.38
319.531	6.38
320.322	6.38
321.113	8.38
321.904	8.38
322.695	9.38
323.486	5.38
324.277	7.38
325.068	7.38
325.858	5.38
326.649	9.38
327.439	5.38
328.23	6.38
329.02	10.38
329.81	6.38
330.6	9.38
331.391	7.38
332.181	8.38
332.971	7.38
333.76	4.38
334.55	8.38
335.34	4.38
336.13	8.38
336.919	4.38
337.709	6.38
338.498	8.38
339.287	5.38
340.077	8.38
340.866	5.38
341.655	4.38
342.444	6.38
343.233	8.38
344.022	6.38
344.811	4.38
345.6	4.38
346.388	7.38
347.177	8.38
347.965	8.38
348.754	7.38
349.542	5.38
350.33	6.38
351.119	6.38
351.907	6.38
352.695	6.38
353.483	7.38
354.271	3.38
355.059	6.38
355.846	7.38
356.634	7.38
357.422	6.38
358.209	6.38
358.997	6.38
359.784	4.38
360.571	4.38
361.359	4.38
362.146	7.38
362.933	4.38
363.72	5.38
364.507	5.38
365.294	5.38
366.081	4.38
366.867	5.38
367.654	5.38
368.44	2.38
369.227	3.38
370.013	3.38
370.8	3.38
371.586	4.38
372.372	3.38
373.158	6.38
373.944	4.38
374.73	3.38
375.516	4.38
376.302	5.38
377.088	6.38
377.873	6.38
378.659	7.38
379.445	4.38
380.23	2.38
381.015	5.38
381.801	3.38
382.586	5.38
383.371	3.38
384.156	5.38
384.941	5.38
385.726	6.38
386.511	3.38
387.296	7.38
388.08	5.38
388.865	7.38
389.649	5.38
390.434	5.38
391.218	5.38
392.003	6.38
392.787	2.38
393.571	8.38
394.355	7.38
395.139	3.38
395.923	5.38
396.707	6.38
397.491	7.38
398.274	6.38
399.058	4.38
399.842	6.38
400.625	5.38
401.408	7.38
402.192	4.38
402.975	6.38
403.758	8.38
404.541	6.38
405.324	9.38
406.107	6.38
406.89	6.38
407.673	5.38
408.456	6.38
409.238	6.38
410.021	7.38
410.803	6.38
411.586	6.38
412.368	9.38
413.151	7.38
413.933	7.38
414.715	7.38
415.497	7.38
416.279	10.38
417.061	8.38
417.843	7.38
418.624	9.38
419.406	8.38
420.188	10.38
420.969	8.38
421.751	10.38
422.532	8.38
423.313	11.38
424.095	11.38
424.876	10.38
425.657	11.38
426.438	12.38
427.219	10.38
428	12.38
428.78	14.38
429.561	11.38
430.342	12.38
431.122	14.38
431.903	13.38
432.683	14.38
433.464	14.38
434.244	12.38
435.024	13.38
435.804	16.38
436.584	17.38
437.364	19.38
438.144	17.38
438.924	21.38
439.704	18.38
440.483	21.38
441.263	21.38
442.042	25.38
442.822	24.38
443.601	25.38
444.38	27.38
445.16	29.38
445.939	31.38
446.718	36.38
447.497	36.38
448.276	39.38
449.054	43.38
449.833	46.38
450.612	52.38
451.391	55.38
452.169	58.38
452.948	65.38
453.726	71.38
454.504	79.38
455.282	92.38
456.061	101.38
456.839	113.38
457.617	124.38
458.395	138.38
459.172	152.38
459.95	163.38
460.728	178.38
461.506	201.38
462.283	228.38
463.061	258.38
463.838	284.38
464.615	314.38
465.393	348.38
466.17	389.38
466.947	442.38
467.724	485.38
468.501	541.38
469.278	594.38
470.055	655.38
470.831	729.38
471.608	810.38
472.385	909.38
473.161	984.38
473.938	1093.38
474.714	1216.38
475.49	1339.38
476.266	1478.38
477.043	1620.38
477.819	1778.38
478.595	1960.38
479.371	2157.38
480.146	2346.38
480.922	2597.38
481.698	2841.38
482.473	3131.38
483.249	3420.38
484.024	3751.38
484.8	4078.38
485.575	4488.38
486.35	4893.38
487.126	5333.38
487.901	5842.38
488.676	6362.38
489.451	6961.38
490.225	7582.38
491	8241.38
491.775	8989.38
492.55	9772.38
493.324	10540.38
494.099	11383.38
494.873	12168.38
495.647	13095.38
496.422	14095.38
497.196	15123.38
497.97	16104.38
498.744	17039.38
499.518	18092.38
500.292	19079.38
501.066	20027.38
501.839	20896.38
502.613	21726.38
503.387	22453.38
504.16	23137.38
504.934	23502.38
505.707	23756.38
506.48	23946.38
507.253	24000.38
508.027	23922.38
508.8	23702.38
509.573	23519.38
510.346	23051.38
511.118	22501.38
511.891	21928.38
512.664	21225.38
513.437	20512.38
514.209	19699.38
514.982	19028.38
515.754	18182.38
516.526	17477.38
517.298	16696.38
518.071	16019.38
518.843	15439.38
519.615	14809.38
520.387	14288.38
521.159	13665.38
521.93	13083.38
522.702	12648.38
523.474	12136.38
524.245	11552.38
525.017	11092.38
525.788	10648.38
526.56	10185.38
527.331	9664.38
528.102	9315.38
528.873	8900.38
529.644	8468.38
530.415	8094.38
531.186	7665.38
531.957	7261.38
532.728	6908.38
533.498	6589.38
534.269	6236.38
535.039	5886.38
535.81	5564.38
536.58	5244.38
537.351	4950.38
538.121	4687.38
538.891	4445.38
539.661	4186.38
540.431	3970.38
541.201	3734.38
541.971	3549.38
542.741	3397.38
543.51	3215.38
544.28	3054.38
545.05	2910.38
545.819	2757.38
546.588	2617.38
547.358	2489.38
548.127	2360.38
548.896	2247.38
549.665	2136.38
550.434	2019.38
551.203	1935.38
551.972	1818.38
552.741	1718.38
553.51	1618.38
554.278	1542.38
555.047	1452.38
555.815	1375.38
556.584	1310.38
557.352	1227.38
558.121	1171.38
558.889	1087.38
559.657	1048.38
560.425	974.38
561.193	930.38
561.961	879.38
562.729	819.38
563.496	780.38
564.264	735.38
565.032	691.38
565.799	660.38
566.567	619.38
567.334	586.38
568.101	542.38
568.869	517.38
569.636	499.38
570.403	463.38
571.17	433.38
571.937	421.38
572.704	385.38
573.471	369.38
574.237	344.38
575.004	327.38
575.771	312.38
576.537	286.38
577.303	272.38
578.07	252.38
578.836	242.38
579.602	223.38
580.368	212.38
581.134	203.38
581.9	198.38
582.666	186.38
583.432	180.38
584.198	162.38
584.964	155.38
585.729	146.38
586.495	142.38
587.26	133.38
588.025	129.38
588.791	118.38
589.556	112.38
590.321	101.38
591.086	102.38
591.851	97.38
592.616	93.38
593.381	91.38
594.146	84.38
594.911	79.38
595.675	76.38
596.44	71.38
597.204	72.38
597.969	67.38
598.733	58.38
599.497	60.38
600.261	55.38
601.025	56.38
601.79	52.38
602.553	49.38
603.317	46.38
604.081	44.38
604.845	45.38
605.609	44.38
606.372	39.38
607.136	41.38
607.899	37.38
608.662	35.38
609.426	35.38
610.189	36.38
610.952	32.38
611.715	29.38
612.478	30.38
613.241	26.38
614.004	29.38
614.767	27.38
615.529	23.38
616.292	27.38
617.055	24.38
617.817	22.38
618.579	23.38
619.342	20.38
620.104	21.38
620.866	20.38
621.628	21.38
622.39	20.38
623.152	19.38
623.914	19.38
624.676	17.38
625.438	19.38
626.199	16.38
626.961	15.38
627.722	13.38
628.484	14.38
629.245	12.38
630.006	14.38
630.768	16.38
631.529	12.38
632.29	10.38
633.051	11.38
633.812	14.38
634.573	11.38
635.333	10.38
636.094	10.38
636.855	10.38
637.615	12.38
638.376	10.38
639.136	10.38
639.896	10.38
640.657	6.38
641.417	8.38
642.177	11.38
642.937	9.38
643.697	9.38
644.457	8.38
645.216	6.38
645.976	6.38
646.736	8.38
647.495	8.38
648.255	7.38
649.014	9.38
649.774	6.38
650.533	8.38
651.292	8.38
652.051	8.38
652.81	6.38
653.569	6.38
654.328	6.38
655.087	7.38
655.846	7.38
656.604	6.38
657.363	5.38
658.121	3.38
658.88	3.38
659.638	7.38
660.397	5.38
661.155	5.38
661.913	6.38
662.671	5.38
663.429	5.38
664.187	7.38
664.945	5.38
665.703	4.38
666.46	3.38
667.218	6.38
667.976	3.38
668.733	5.38
669.49	5.38
670.248	2.38
671.005	1.38
671.762	5.38
672.519	6.38
673.276	5.38
674.033	3.38
674.79	4.38
675.547	2.38
676.304	6.38
677.06	2.38
677.817	4.38
678.574	4.38
679.33	3.38
680.086	2.38
680.843	6.38
681.599	5.38
682.355	3.38
683.111	3.38
683.867	3.38
684.623	4.38
685.379	4.38
686.135	2.38
686.89	3.38
687.646	3.38
688.402	5.38
689.157	5.38
689.912	3.38
690.668	2.38
691.423	1.38
692.178	3.38
692.933	2.38
693.688	4.38
694.443	2.38
695.198	2.38
695.953	6.38
696.708	3.38
697.462	3.38
698.217	2.38
698.972	4.38
699.726	3.38
700.48	3.38
701.235	3.38
701.989	3.38
702.743	5.38
703.497	3.38
704.251	5.38
705.005	1.38
705.759	3.38
706.513	3.38
707.266	2.38
708.02	3.38
708.774	4.38
709.527	3.38
710.28	2.38
711.034	5.38
711.787	4.38
712.54	1.38
713.293	3.38
714.046	2.38
714.799	6.38
715.552	1.38
716.305	3.38
717.058	4.38
717.81	2.38
718.563	4.38
719.315	1.38
720.068	5.38
720.82	5.38
721.573	2.38
722.325	5.38
723.077	3.38
723.829	4.38
724.581	4.38
725.333	6.38
726.085	3.38
726.836	4.38
727.588	3.38
728.34	2.38
729.091	7.38
729.843	4.38
730.594	4.38
731.346	3.38
732.097	4.38
732.848	4.38
733.599	3.38
734.35	5.38
735.101	4.38
735.852	4.38
736.603	6.38
737.354	2.38
738.104	5.38
738.855	4.38
739.605	5.38
740.356	5.38
741.106	3.38
741.856	5.38
742.607	3.38
743.357	5.38
744.107	5.38
744.857	4.38
745.607	4.38
746.357	3.38
747.106	6.38
747.856	5.38
748.606	6.38
749.355	5.38
750.105	4.38
750.854	6.38
751.603	5.38
752.353	6.38
753.102	3.38
753.851	6.38
754.6	3.38
755.349	6.38
756.098	5.38
756.847	6.38
757.595	7.38
758.344	2.38
759.093	5.38
759.841	5.38
760.589	5.38
761.338	5.38
762.086	5.38
762.834	4.38
763.582	5.38
764.331	6.38
765.079	7.38
765.826	7.38
766.574	7.38
767.322	4.38
768.07	6.38
768.817	6.38
769.565	6.38
770.312	7.38
771.06	5.38
771.807	6.38
772.554	6.38
773.302	6.38
774.049	4.38
774.796	8.38
775.543	6.38
776.29	8.38
777.036	7.38
777.783	6.38
778.53	7.38
779.276	5.38
780.023	5.38
780.769	7.38
781.516	7.38
782.262	8.38
783.008	6.38
783.754	9.38
784.5	9.38
785.246	8.38
785.992	10.38
786.738	9.38
787.484	9.38
788.23	7.38
788.975	7.38
789.721	8.38
790.466	6.38
791.212	10.38
791.957	6.38
792.702	9.38
793.447	9.38
794.193	5.38
794.938	9.38
795.683	8.38
796.427	8.38
797.172	4.38
797.917	8.38
798.662	7.38
799.406	8.38
800.151	7.38
800.895	5.38
801.64	8.38
802.384	5.38
803.128	4.38
803.872	4.38
804.616	6.38
805.36	5.38
806.104	6.38
806.848	5.38
807.592	4.38
808.336	6.38
809.079	4.38
809.823	4.38
810.566	4.38
811.31	4.38
812.053	4.38
812.796	7.38
813.539	4.38
814.283	6.38
815.026	5.38
815.769	3.38
816.511	6.38
817.254	7.38
817.997	5.38
818.74	4.38
819.482	4.38
820.225	4.38
820.967	6.38
821.71	3.38
822.452	4.38
823.194	7.38
823.936	2.38
824.678	3.38
825.42	3.38
826.162	4.38
826.904	5.38
827.646	5.38
828.388	2.38
829.129	6.38
829.871	4.38
830.612	3.38
831.354	7.38
832.095	2.38
832.836	2.38
833.577	5.38
834.319	3.38
835.06	4.38
835.801	2.38
836.542	7.38
837.282	2.38
838.023	5.38
838.764	3.38
839.504	4.38
840.245	3.38
840.985	3.38
841.726	4.38
842.466	1.38
843.206	2.38
843.946	0.38
844.687	0.38
845.427	2.38
846.166	3.38
846.906	-0.62
847.646	4.38
848.386	1.38
849.125	1.38
849.865	3.38
850.605	0.38
851.344	3.38
852.083	4.38
852.823	4.38
853.562	4.38
854.301	1.38
855.04	4.38
855.779	3.38
856.518	3.38
857.257	2.38
857.995	2.38
858.734	1.38
859.473	3.38
860.211	0.38
860.95	0.38
861.688	2.38
862.426	3.38
863.165	2.38
863.903	1.38
864.641	2.38
865.379	2.38
866.117	3.38
866.855	2.38
867.593	1.38
868.33	3.38
869.068	0.38
869.806	0.38
870.543	2.38
871.28	0.38
872.018	3.38
872.755	0.38
873.492	1.38
874.229	0.38
874.967	2.38
875.703	0.38
876.44	-0.62
877.177	5.38
877.914	3.38
878.651	3.38
879.387	0.38
880.124	-0.62
880.86	2.38
881.597	3.38
882.333	-0.62
883.069	0.38
883.806	1.38
884.542	0.38
885.278	1.38
886.014	1.38
886.749	1.38
887.485	3.38
888.221	0.38
888.957	1.38
889.692	2.38
890.428	1.38
891.163	2.38
891.899	2.38
892.634	2.38
893.369	2.38
894.104	-1.62
894.839	1.38
895.574	2.38
896.309	3.38
897.044	1.38
897.779	1.38
898.514	0.38
899.248	0.38
899.983	1.38
900.717	-2.62
901.452	2.38
902.186	3.38
902.92	2.38
903.654	1.38
904.389	2.38
905.123	-1.62
905.857	0.38
906.59	1.38
907.324	4.38
908.058	3.38
908.792	-0.62
909.525	-0.62
910.259	1.38
910.992	1.38
911.726	2.38
912.459	3.38
913.192	0.38
913.925	2.38
914.658	-0.62
915.391	1.38
916.124	1.38
916.857	2.38
917.59	-0.62
918.323	-0.62
919.055	1.38
919.788	-0.62
920.521	0.38
921.253	1.38
921.985	2.38
922.718	2.38
923.45	1.38
924.182	0.38
924.914	0.38
925.646	2.38
926.378	1.38
927.11	0.38
927.841	2.38
928.573	1.38
929.305	1.38
930.036	2.38
930.768	0.38
931.499	1.38
932.23	1.38
932.962	-0.62
933.693	-0.62
934.424	2.38
935.155	-0.62
935.886	-0.62
936.617	-1.62
937.348	-0.62
938.078	0.38
938.809	-1.62
939.54	0.38
940.27	0.38
941.001	0.38
941.731	2.38
942.461	0.38
943.191	2.38
943.922	0.38
944.652	0.38
945.382	2.38
946.112	1.38
946.841	-0.62
947.571	1.38
948.301	3.38
949.031	1.38
949.76	1.38
950.49	0.38
951.219	-1.62
951.948	1.38
952.678	0.38
953.407	1.38
954.136	1.38
954.865	0.38
955.594	1.38
956.323	0.38
957.052	1.38
957.78	2.38
958.509	1.38
959.238	0.38
959.966	1.38
960.695	1.38
961.423	0.38
962.151	1.38
962.88	-0.62
963.608	-1.62
964.336	-3.62
965.064	-0.62
965.792	0.38
966.52	2.38
967.247	0.38
967.975	2.38
968.703	0.38
969.43	-0.62
970.158	-1.62
970.885	0.38
971.613	1.38
972.34	0.38
973.067	2.38
973.794	-0.62
974.521	-0.62
975.248	0.38
975.975	1.38
976.702	0.38
977.429	0.38
978.156	-0.62
978.882	-0.62
979.609	4.38
980.335	-2.62
981.062	-1.62
981.788	-1.62
982.514	2.38
983.24	2.38
983.967	0.38
984.693	1.38
985.419	-1.62
986.144	-0.62
986.87	1.38
987.596	-0.62
988.322	1.38
989.047	1.38
989.773	0.38
990.498	0.38
991.224	0.38
991.949	-1.62
992.674	0.38
993.399	3.38
994.124	0.38
994.849	-0.62
995.574	2.38
996.299	0.38
997.024	0.38
997.749	0.38
998.473	1.38
999.198	1.38
999.922	1.38
1000.647	1.38
1001.371	4.38
1002.095	-0.62
1002.82	-2.62
1003.544	-1.62
1004.268	0.38
1004.992	1.38
1005.716	1.38
1006.439	2.38
1007.163	1.38
1007.887	3.38
1008.611	2.38
1009.334	0.38
1010.058	0.38
1010.781	2.38
1011.504	-0.62
1012.228	0.38
1012.951	-0.62
1013.674	0.38
1014.397	0.38
1015.12	0.38
