节点500_285_QEPB04081__803__15-08-54-745.txt的数据

Date: Wed Nov 12 15:08:54 CST 2025
User: PC
Spectrometer: QEPB0408
触发模式: 0
积分时间 (秒): 1.000000E-2
Scans to average: 1
启用暗噪声校正: true
启用非线性校正: false
滑动平均宽度: 0
X轴模式: Wavelengths
Number of Pixels in Spectrum: 1044
>>>>>Begin Spectral Data<<<<<
220.843	2.12
221.644	0.12
222.444	-0.88
223.244	2.12
224.045	1.12
224.845	4.12
225.645	1.12
226.445	1.12
227.245	4.12
228.045	1.12
228.845	2.12
229.645	3.12
230.444	1.12
231.244	1.12
232.043	1.12
232.843	4.12
233.642	1.12
234.442	2.12
235.241	3.12
236.04	5.12
236.839	1.12
237.638	3.12
238.437	3.12
239.236	4.12
240.035	4.12
240.833	2.12
241.632	4.12
242.43	3.12
243.229	6.12
244.027	4.12
244.826	5.12
245.624	5.12
246.422	3.12
247.22	4.12
248.018	1.12
248.816	6.12
249.614	2.12
250.412	5.12
251.21	6.12
252.007	5.12
252.805	6.12
253.602	6.12
254.4	6.12
255.197	5.12
255.994	6.12
256.791	6.12
257.589	7.12
258.386	7.12
259.183	12.12
259.979	10.12
260.776	6.12
261.573	9.12
262.37	8.12
263.166	10.12
263.963	9.12
264.759	9.12
265.556	11.12
266.352	10.12
267.148	11.12
267.944	8.12
268.74	13.12
269.536	13.12
270.332	10.12
271.128	11.12
271.924	10.12
272.719	10.12
273.515	14.12
274.311	13.12
275.106	13.12
275.901	16.12
276.697	14.12
277.492	18.12
278.287	15.12
279.082	13.12
279.877	15.12
280.672	17.12
281.467	16.12
282.262	17.12
283.056	16.12
283.851	18.12
284.646	17.12
285.44	18.12
286.234	18.12
287.029	17.12
287.823	18.12
288.617	17.12
289.411	19.12
290.205	20.12
290.999	18.12
291.793	17.12
292.587	16.12
293.381	17.12
294.174	17.12
294.968	15.12
295.761	14.12
296.555	14.12
297.348	13.12
298.141	15.12
298.935	16.12
299.728	18.12
300.521	14.12
301.314	15.12
302.107	13.12
302.899	10.12
303.692	14.12
304.485	12.12
305.277	14.12
306.07	10.12
306.862	13.12
307.655	10.12
308.447	12.12
309.239	10.12
310.031	14.12
310.823	11.12
311.615	10.12
312.407	10.12
313.199	9.12
313.991	7.12
314.783	10.12
315.574	8.12
316.366	7.12
317.157	7.12
317.949	6.12
318.74	10.12
319.531	8.12
320.322	9.12
321.113	8.12
321.904	7.12
322.695	5.12
323.486	8.12
324.277	8.12
325.068	8.12
325.858	7.12
326.649	8.12
327.439	8.12
328.23	8.12
329.02	9.12
329.81	5.12
330.6	6.12
331.391	7.12
332.181	7.12
332.971	4.12
333.76	5.12
334.55	7.12
335.34	6.12
336.13	6.12
336.919	7.12
337.709	5.12
338.498	4.12
339.287	7.12
340.077	5.12
340.866	5.12
341.655	3.12
342.444	7.12
343.233	7.12
344.022	8.12
344.811	8.12
345.6	6.12
346.388	9.12
347.177	7.12
347.965	6.12
348.754	9.12
349.542	7.12
350.33	8.12
351.119	7.12
351.907	8.12
352.695	6.12
353.483	6.12
354.271	5.12
355.059	6.12
355.846	7.12
356.634	7.12
357.422	6.12
358.209	6.12
358.997	3.12
359.784	5.12
360.571	5.12
361.359	7.12
362.146	6.12
362.933	6.12
363.72	5.12
364.507	5.12
365.294	5.12
366.081	7.12
366.867	5.12
367.654	5.12
368.44	6.12
369.227	6.12
370.013	7.12
370.8	4.12
371.586	4.12
372.372	4.12
373.158	3.12
373.944	3.12
374.73	4.12
375.516	3.12
376.302	7.12
377.088	4.12
377.873	5.12
378.659	5.12
379.445	4.12
380.23	7.12
381.015	5.12
381.801	6.12
382.586	2.12
383.371	5.12
384.156	5.12
384.941	4.12
385.726	6.12
386.511	6.12
387.296	7.12
388.08	5.12
388.865	6.12
389.649	7.12
390.434	4.12
391.218	6.12
392.003	3.12
392.787	6.12
393.571	8.12
394.355	7.12
395.139	7.12
395.923	4.12
396.707	6.12
397.491	6.12
398.274	5.12
399.058	7.12
399.842	6.12
400.625	8.12
401.408	6.12
402.192	9.12
402.975	9.12
403.758	7.12
404.541	10.12
405.324	5.12
406.107	7.12
406.89	7.12
407.673	7.12
408.456	8.12
409.238	9.12
410.021	7.12
410.803	6.12
411.586	8.12
412.368	6.12
413.151	8.12
413.933	6.12
414.715	7.12
415.497	10.12
416.279	10.12
417.061	8.12
417.843	9.12
418.624	8.12
419.406	10.12
420.188	6.12
420.969	9.12
421.751	9.12
422.532	12.12
423.313	10.12
424.095	9.12
424.876	10.12
425.657	10.12
426.438	13.12
427.219	12.12
428	14.12
428.78	10.12
429.561	13.12
430.342	12.12
431.122	13.12
431.903	14.12
432.683	14.12
433.464	16.12
434.244	16.12
435.024	16.12
435.804	17.12
436.584	18.12
437.364	18.12
438.144	21.12
438.924	22.12
439.704	23.12
440.483	23.12
441.263	23.12
442.042	23.12
442.822	27.12
443.601	30.12
444.38	29.12
445.16	35.12
445.939	33.12
446.718	36.12
447.497	43.12
448.276	45.12
449.054	50.12
449.833	52.12
450.612	59.12
451.391	61.12
452.169	69.12
452.948	77.12
453.726	85.12
454.504	94.12
455.282	101.12
456.061	112.12
456.839	123.12
457.617	139.12
458.395	153.12
459.172	168.12
459.95	188.12
460.728	216.12
461.506	232.12
462.283	259.12
463.061	286.12
463.838	316.12
464.615	357.12
465.393	399.12
466.17	444.12
466.947	486.12
467.724	550.12
468.501	606.12
469.278	665.12
470.055	736.12
470.831	832.12
471.608	898.12
472.385	994.12
473.161	1118.12
473.938	1216.12
474.714	1331.12
475.49	1454.12
476.266	1616.12
477.043	1774.12
477.819	1923.12
478.595	2111.12
479.371	2317.12
480.146	2546.12
480.922	2770.12
481.698	3038.12
482.473	3319.12
483.249	3648.12
484.024	3957.12
484.8	4318.12
485.575	4743.12
486.35	5148.12
487.126	5617.12
487.901	6090.12
488.676	6649.12
489.451	7206.12
490.225	7849.12
491	8515.12
491.775	9248.12
492.55	10031.12
493.324	10883.12
494.099	11649.12
494.873	12478.12
495.647	13407.12
496.422	14417.12
497.196	15423.12
497.97	16424.12
498.744	17470.12
499.518	18437.12
500.292	19483.12
501.066	20491.12
501.839	21429.12
502.613	22391.12
503.387	23171.12
504.16	23848.12
504.934	24339.12
505.707	24674.12
506.48	24986.12
507.253	25082.12
508.027	25126.12
508.8	25065.12
509.573	24894.12
510.346	24568.12
511.118	24055.12
511.891	23532.12
512.664	22882.12
513.437	22167.12
514.209	21419.12
514.982	20690.12
515.754	19828.12
516.526	19069.12
517.298	18325.12
518.071	17538.12
518.843	16896.12
519.615	16234.12
520.387	15595.12
521.159	14977.12
521.93	14394.12
522.702	13819.12
523.474	13261.12
524.245	12673.12
525.017	12202.12
525.788	11717.12
526.56	11191.12
527.331	10679.12
528.102	10275.12
528.873	9819.12
529.644	9355.12
530.415	8939.12
531.186	8506.12
531.957	8103.12
532.728	7724.12
533.498	7350.12
534.269	6928.12
535.039	6628.12
535.81	6236.12
536.58	5920.12
537.351	5555.12
538.121	5274.12
538.891	4983.12
539.661	4732.12
540.431	4454.12
541.201	4192.12
541.971	3959.12
542.741	3764.12
543.51	3579.12
544.28	3423.12
545.05	3270.12
545.819	3078.12
546.588	2931.12
547.358	2787.12
548.127	2653.12
548.896	2517.12
549.665	2402.12
550.434	2259.12
551.203	2141.12
551.972	2042.12
552.741	1928.12
553.51	1816.12
554.278	1716.12
555.047	1637.12
555.815	1541.12
556.584	1469.12
557.352	1379.12
558.121	1301.12
558.889	1233.12
559.657	1168.12
560.425	1101.12
561.193	1029.12
561.961	990.12
562.729	930.12
563.496	867.12
564.264	820.12
565.032	782.12
565.799	741.12
566.567	708.12
567.334	655.12
568.101	630.12
568.869	586.12
569.636	544.12
570.403	520.12
571.17	494.12
571.937	470.12
572.704	440.12
573.471	411.12
574.237	397.12
575.004	369.12
575.771	352.12
576.537	327.12
577.303	310.12
578.07	292.12
578.836	267.12
579.602	258.12
580.368	247.12
581.134	238.12
581.9	222.12
582.666	215.12
583.432	196.12
584.198	187.12
584.964	179.12
585.729	171.12
586.495	161.12
587.26	149.12
588.025	143.12
588.791	131.12
589.556	125.12
590.321	120.12
591.086	118.12
591.851	113.12
592.616	105.12
593.381	101.12
594.146	97.12
594.911	90.12
595.675	84.12
596.44	85.12
597.204	79.12
597.969	73.12
598.733	71.12
599.497	65.12
600.261	68.12
601.025	57.12
601.79	62.12
602.553	57.12
603.317	55.12
604.081	51.12
604.845	44.12
605.609	45.12
606.372	41.12
607.136	42.12
607.899	41.12
608.662	38.12
609.426	38.12
610.189	36.12
610.952	37.12
611.715	34.12
612.478	33.12
613.241	33.12
614.004	27.12
614.767	33.12
615.529	27.12
616.292	26.12
617.055	26.12
617.817	25.12
618.579	26.12
619.342	23.12
620.104	21.12
620.866	21.12
621.628	22.12
622.39	18.12
623.152	20.12
623.914	18.12
624.676	20.12
625.438	17.12
626.199	17.12
626.961	19.12
627.722	17.12
628.484	16.12
629.245	14.12
630.006	12.12
630.768	14.12
631.529	14.12
632.29	15.12
633.051	12.12
633.812	11.12
634.573	12.12
635.333	11.12
636.094	14.12
636.855	10.12
637.615	10.12
638.376	10.12
639.136	9.12
639.896	11.12
640.657	12.12
641.417	9.12
642.177	10.12
642.937	8.12
643.697	8.12
644.457	7.12
645.216	9.12
645.976	6.12
646.736	9.12
647.495	9.12
648.255	8.12
649.014	9.12
649.774	8.12
650.533	7.12
651.292	9.12
652.051	5.12
652.81	7.12
653.569	8.12
654.328	4.12
655.087	6.12
655.846	5.12
656.604	7.12
657.363	9.12
658.121	6.12
658.88	3.12
659.638	7.12
660.397	5.12
661.155	6.12
661.913	4.12
662.671	5.12
663.429	7.12
664.187	3.12
664.945	6.12
665.703	4.12
666.46	7.12
667.218	4.12
667.976	6.12
668.733	5.12
669.49	2.12
670.248	7.12
671.005	4.12
671.762	5.12
672.519	4.12
673.276	4.12
674.033	8.12
674.79	4.12
675.547	5.12
676.304	4.12
677.06	4.12
677.817	5.12
678.574	5.12
679.33	5.12
680.086	4.12
680.843	5.12
681.599	4.12
682.355	5.12
683.111	4.12
683.867	4.12
684.623	6.12
685.379	2.12
686.135	3.12
686.89	3.12
687.646	4.12
688.402	5.12
689.157	5.12
689.912	4.12
690.668	5.12
691.423	5.12
692.178	4.12
692.933	3.12
693.688	3.12
694.443	4.12
695.198	4.12
695.953	4.12
696.708	3.12
697.462	4.12
698.217	2.12
698.972	3.12
699.726	5.12
700.48	4.12
701.235	4.12
701.989	2.12
702.743	4.12
703.497	4.12
704.251	4.12
705.005	4.12
705.759	4.12
706.513	5.12
707.266	2.12
708.02	4.12
708.774	2.12
709.527	2.12
710.28	1.12
711.034	6.12
711.787	3.12
712.54	3.12
713.293	1.12
714.046	2.12
714.799	5.12
715.552	1.12
716.305	3.12
717.058	3.12
717.81	4.12
718.563	4.12
719.315	3.12
720.068	4.12
720.82	4.12
721.573	4.12
722.325	5.12
723.077	1.12
723.829	3.12
724.581	5.12
725.333	3.12
726.085	4.12
726.836	0.12
727.588	3.12
728.34	4.12
729.091	2.12
729.843	4.12
730.594	2.12
731.346	5.12
732.097	3.12
732.848	3.12
733.599	5.12
734.35	4.12
735.101	3.12
735.852	7.12
736.603	4.12
737.354	1.12
738.104	4.12
738.855	4.12
739.605	4.12
740.356	3.12
741.106	5.12
741.856	4.12
742.607	3.12
743.357	6.12
744.107	3.12
744.857	2.12
745.607	3.12
746.357	3.12
747.106	7.12
747.856	4.12
748.606	6.12
749.355	4.12
750.105	6.12
750.854	5.12
751.603	5.12
752.353	6.12
753.102	2.12
753.851	6.12
754.6	7.12
755.349	5.12
756.098	7.12
756.847	3.12
757.595	6.12
758.344	6.12
759.093	5.12
759.841	6.12
760.589	4.12
761.338	5.12
762.086	4.12
762.834	8.12
763.582	8.12
764.331	5.12
765.079	5.12
765.826	3.12
766.574	5.12
767.322	5.12
768.07	6.12
768.817	6.12
769.565	6.12
770.312	6.12
771.06	4.12
771.807	10.12
772.554	4.12
773.302	7.12
774.049	6.12
774.796	5.12
775.543	7.12
776.29	7.12
777.036	8.12
777.783	7.12
778.53	7.12
779.276	8.12
780.023	7.12
780.769	9.12
781.516	8.12
782.262	7.12
783.008	8.12
783.754	8.12
784.5	8.12
785.246	9.12
785.992	8.12
786.738	7.12
787.484	10.12
788.23	7.12
788.975	10.12
789.721	10.12
790.466	7.12
791.212	7.12
791.957	7.12
792.702	7.12
793.447	5.12
794.193	7.12
794.938	8.12
795.683	8.12
796.427	9.12
797.172	8.12
797.917	9.12
798.662	7.12
799.406	5.12
800.151	7.12
800.895	6.12
801.64	8.12
802.384	6.12
803.128	6.12
803.872	8.12
804.616	6.12
805.36	6.12
806.104	6.12
806.848	5.12
807.592	6.12
808.336	5.12
809.079	5.12
809.823	5.12
810.566	6.12
811.31	6.12
812.053	4.12
812.796	7.12
813.539	5.12
814.283	2.12
815.026	2.12
815.769	7.12
816.511	4.12
817.254	4.12
817.997	3.12
818.74	4.12
819.482	3.12
820.225	5.12
820.967	5.12
821.71	5.12
822.452	4.12
823.194	3.12
823.936	3.12
824.678	5.12
825.42	2.12
826.162	5.12
826.904	4.12
827.646	5.12
828.388	2.12
829.129	5.12
829.871	3.12
830.612	2.12
831.354	3.12
832.095	4.12
832.836	4.12
833.577	6.12
834.319	3.12
835.06	3.12
835.801	2.12
836.542	2.12
837.282	3.12
838.023	3.12
838.764	3.12
839.504	4.12
840.245	1.12
840.985	2.12
841.726	6.12
842.466	2.12
843.206	3.12
843.946	4.12
844.687	3.12
845.427	3.12
846.166	3.12
846.906	3.12
847.646	5.12
848.386	2.12
849.125	1.12
849.865	4.12
850.605	3.12
851.344	3.12
852.083	2.12
852.823	3.12
853.562	3.12
854.301	3.12
855.04	3.12
855.779	3.12
856.518	2.12
857.257	4.12
857.995	3.12
858.734	3.12
859.473	3.12
860.211	0.12
860.95	3.12
861.688	2.12
862.426	3.12
863.165	0.12
863.903	2.12
864.641	3.12
865.379	3.12
866.117	2.12
866.855	3.12
867.593	1.12
868.33	3.12
869.068	1.12
869.806	1.12
870.543	1.12
871.28	2.12
872.018	1.12
872.755	-1.88
873.492	2.12
874.229	0.12
874.967	1.12
875.703	0.12
876.44	2.12
877.177	-1.88
877.914	2.12
878.651	0.12
879.387	-1.88
880.124	2.12
880.86	2.12
881.597	1.12
882.333	1.12
883.069	-1.88
883.806	0.12
884.542	0.12
885.278	1.12
886.014	0.12
886.749	-0.88
887.485	2.12
888.221	0.12
888.957	0.12
889.692	3.12
890.428	2.12
891.163	-1.88
891.899	-1.88
892.634	1.12
893.369	2.12
894.104	0.12
894.839	0.12
895.574	-1.88
896.309	1.12
897.044	0.12
897.779	1.12
898.514	0.12
899.248	0.12
899.983	-1.88
900.717	1.12
901.452	2.12
902.186	1.12
902.92	-0.88
903.654	0.12
904.389	0.12
905.123	-0.88
905.857	0.12
906.59	1.12
907.324	1.12
908.058	0.12
908.792	2.12
909.525	1.12
910.259	0.12
910.992	0.12
911.726	2.12
912.459	0.12
913.192	1.12
913.925	1.12
914.658	1.12
915.391	-1.88
916.124	0.12
916.857	-0.88
917.59	0.12
918.323	2.12
919.055	0.12
919.788	0.12
920.521	1.12
921.253	-1.88
921.985	1.12
922.718	1.12
923.45	3.12
924.182	-0.88
924.914	1.12
925.646	1.12
926.378	-1.88
927.11	-0.88
927.841	-0.88
928.573	1.12
929.305	0.12
930.036	-0.88
930.768	0.12
931.499	0.12
932.23	1.12
932.962	1.12
933.693	1.12
934.424	-0.88
935.155	2.12
935.886	-0.88
936.617	1.12
937.348	2.12
938.078	-0.88
938.809	2.12
939.54	1.12
940.27	0.12
941.001	0.12
941.731	-1.88
942.461	2.12
943.191	-0.88
943.922	-1.88
944.652	0.12
945.382	-0.88
946.112	-1.88
946.841	-0.88
947.571	1.12
948.301	0.12
949.031	1.12
949.76	0.12
950.49	0.12
951.219	1.12
951.948	0.12
952.678	1.12
953.407	-0.88
954.136	0.12
954.865	0.12
955.594	1.12
956.323	0.12
957.052	1.12
957.78	1.12
958.509	0.12
959.238	0.12
959.966	2.12
960.695	-0.88
961.423	2.12
962.151	2.12
962.88	1.12
963.608	1.12
964.336	1.12
965.064	0.12
965.792	-0.88
966.52	2.12
967.247	2.12
967.975	0.12
968.703	2.12
969.43	-1.88
970.158	0.12
970.885	1.12
971.613	1.12
972.34	-0.88
973.067	2.12
973.794	1.12
974.521	1.12
975.248	-0.88
975.975	1.12
976.702	-1.88
977.429	1.12
978.156	1.12
978.882	-0.88
979.609	-1.88
980.335	1.12
981.062	-0.88
981.788	-0.88
982.514	1.12
983.24	1.12
983.967	-0.88
984.693	0.12
985.419	0.12
986.144	-1.88
986.87	-0.88
987.596	2.12
988.322	-0.88
989.047	2.12
989.773	0.12
990.498	0.12
991.224	-1.88
991.949	0.12
992.674	1.12
993.399	0.12
994.124	1.12
994.849	1.12
995.574	1.12
996.299	0.12
997.024	2.12
997.749	2.12
998.473	-1.88
999.198	1.12
999.922	1.12
1000.647	0.12
1001.371	3.12
1002.095	1.12
1002.82	-1.88
1003.544	-0.88
1004.268	0.12
1004.992	1.12
1005.716	1.12
1006.439	-0.88
1007.163	2.12
1007.887	3.12
1008.611	1.12
1009.334	-0.88
1010.058	0.12
1010.781	0.12
1011.504	0.12
1012.228	-0.88
1012.951	-0.88
1013.674	-0.88
1014.397	0.12
1015.12	0.12
