节点500_285_QEPB04081__360__15-01-32-677.txt的数据

Date: Wed Nov 12 15:01:32 CST 2025
User: PC
Spectrometer: QEPB0408
触发模式: 0
积分时间 (秒): 1.000000E-2
Scans to average: 1
启用暗噪声校正: true
启用非线性校正: false
滑动平均宽度: 0
X轴模式: Wavelengths
Number of Pixels in Spectrum: 1044
>>>>>Begin Spectral Data<<<<<
220.843	3.88
221.644	-0.12
222.444	1.88
223.244	2.88
224.045	1.88
224.845	3.88
225.645	2.88
226.445	-0.12
227.245	0.88
228.045	2.88
228.845	3.88
229.645	2.88
230.444	1.88
231.244	2.88
232.043	1.88
232.843	4.88
233.642	3.88
234.442	4.88
235.241	2.88
236.04	3.88
236.839	4.88
237.638	6.88
238.437	4.88
239.236	6.88
240.035	3.88
240.833	3.88
241.632	3.88
242.43	4.88
243.229	2.88
244.027	3.88
244.826	3.88
245.624	4.88
246.422	5.88
247.22	1.88
248.018	4.88
248.816	5.88
249.614	6.88
250.412	5.88
251.21	6.88
252.007	6.88
252.805	6.88
253.602	8.88
254.4	7.88
255.197	8.88
255.994	8.88
256.791	7.88
257.589	9.88
258.386	7.88
259.183	9.88
259.979	9.88
260.776	9.88
261.573	10.88
262.37	9.88
263.166	9.88
263.963	9.88
264.759	11.88
265.556	12.88
266.352	11.88
267.148	10.88
267.944	14.88
268.74	12.88
269.536	15.88
270.332	15.88
271.128	13.88
271.924	12.88
272.719	16.88
273.515	15.88
274.311	14.88
275.106	17.88
275.901	17.88
276.697	20.88
277.492	15.88
278.287	18.88
279.082	16.88
279.877	18.88
280.672	19.88
281.467	17.88
282.262	19.88
283.056	18.88
283.851	17.88
284.646	19.88
285.44	18.88
286.234	17.88
287.029	18.88
287.823	19.88
288.617	16.88
289.411	20.88
290.205	18.88
290.999	17.88
291.793	18.88
292.587	15.88
293.381	16.88
294.174	17.88
294.968	18.88
295.761	15.88
296.555	15.88
297.348	14.88
298.141	13.88
298.935	18.88
299.728	14.88
300.521	16.88
301.314	15.88
302.107	11.88
302.899	13.88
303.692	11.88
304.485	11.88
305.277	12.88
306.07	12.88
306.862	9.88
307.655	12.88
308.447	11.88
309.239	9.88
310.031	12.88
310.823	11.88
311.615	7.88
312.407	9.88
313.199	7.88
313.991	11.88
314.783	8.88
315.574	9.88
316.366	8.88
317.157	10.88
317.949	9.88
318.74	6.88
319.531	8.88
320.322	7.88
321.113	6.88
321.904	8.88
322.695	5.88
323.486	5.88
324.277	5.88
325.068	9.88
325.858	9.88
326.649	7.88
327.439	8.88
328.23	4.88
329.02	9.88
329.81	6.88
330.6	5.88
331.391	6.88
332.181	5.88
332.971	11.88
333.76	6.88
334.55	8.88
335.34	5.88
336.13	5.88
336.919	8.88
337.709	4.88
338.498	6.88
339.287	5.88
340.077	7.88
340.866	7.88
341.655	4.88
342.444	5.88
343.233	5.88
344.022	5.88
344.811	3.88
345.6	6.88
346.388	8.88
347.177	6.88
347.965	5.88
348.754	5.88
349.542	7.88
350.33	5.88
351.119	6.88
351.907	6.88
352.695	8.88
353.483	5.88
354.271	6.88
355.059	6.88
355.846	5.88
356.634	6.88
357.422	6.88
358.209	5.88
358.997	9.88
359.784	4.88
360.571	5.88
361.359	4.88
362.146	6.88
362.933	5.88
363.72	4.88
364.507	7.88
365.294	3.88
366.081	2.88
366.867	4.88
367.654	4.88
368.44	4.88
369.227	4.88
370.013	6.88
370.8	6.88
371.586	4.88
372.372	4.88
373.158	6.88
373.944	5.88
374.73	4.88
375.516	2.88
376.302	5.88
377.088	2.88
377.873	4.88
378.659	6.88
379.445	5.88
380.23	5.88
381.015	2.88
381.801	5.88
382.586	5.88
383.371	4.88
384.156	4.88
384.941	4.88
385.726	6.88
386.511	6.88
387.296	5.88
388.08	5.88
388.865	6.88
389.649	4.88
390.434	4.88
391.218	6.88
392.003	4.88
392.787	6.88
393.571	7.88
394.355	6.88
395.139	4.88
395.923	4.88
396.707	10.88
397.491	7.88
398.274	7.88
399.058	6.88
399.842	7.88
400.625	5.88
401.408	5.88
402.192	7.88
402.975	8.88
403.758	8.88
404.541	5.88
405.324	7.88
406.107	5.88
406.89	5.88
407.673	9.88
408.456	6.88
409.238	7.88
410.021	8.88
410.803	7.88
411.586	6.88
412.368	6.88
413.151	7.88
413.933	8.88
414.715	7.88
415.497	6.88
416.279	7.88
417.061	6.88
417.843	9.88
418.624	9.88
419.406	9.88
420.188	8.88
420.969	11.88
421.751	9.88
422.532	8.88
423.313	13.88
424.095	9.88
424.876	12.88
425.657	12.88
426.438	11.88
427.219	11.88
428	13.88
428.78	9.88
429.561	12.88
430.342	13.88
431.122	13.88
431.903	13.88
432.683	15.88
433.464	17.88
434.244	16.88
435.024	16.88
435.804	16.88
436.584	16.88
437.364	19.88
438.144	22.88
438.924	22.88
439.704	24.88
440.483	23.88
441.263	24.88
442.042	23.88
442.822	25.88
443.601	27.88
444.38	29.88
445.16	34.88
445.939	31.88
446.718	37.88
447.497	38.88
448.276	41.88
449.054	44.88
449.833	49.88
450.612	56.88
451.391	56.88
452.169	61.88
452.948	67.88
453.726	78.88
454.504	83.88
455.282	90.88
456.061	98.88
456.839	109.88
457.617	121.88
458.395	133.88
459.172	151.88
459.95	168.88
460.728	190.88
461.506	204.88
462.283	232.88
463.061	258.88
463.838	296.88
464.615	329.88
465.393	357.88
466.17	405.88
466.947	446.88
467.724	501.88
468.501	560.88
469.278	618.88
470.055	693.88
470.831	767.88
471.608	851.88
472.385	949.88
473.161	1051.88
473.938	1179.88
474.714	1298.88
475.49	1432.88
476.266	1574.88
477.043	1739.88
477.819	1932.88
478.595	2139.88
479.371	2348.88
480.146	2602.88
480.922	2857.88
481.698	3151.88
482.473	3483.88
483.249	3817.88
484.024	4182.88
484.8	4599.88
485.575	5067.88
486.35	5560.88
487.126	6111.88
487.901	6696.88
488.676	7355.88
489.451	8052.88
490.225	8807.88
491	9616.88
491.775	10515.88
492.55	11409.88
493.324	12391.88
494.099	13307.88
494.873	14431.88
495.647	15475.88
496.422	16655.88
497.196	17823.88
497.97	18971.88
498.744	20191.88
499.518	21385.88
500.292	22510.88
501.066	23594.88
501.839	24552.88
502.613	25456.88
503.387	26218.88
504.16	26937.88
504.934	27213.88
505.707	27377.88
506.48	27394.88
507.253	27375.88
508.027	27161.88
508.8	26831.88
509.573	26382.88
510.346	25752.88
511.118	25014.88
511.891	24202.88
512.664	23389.88
513.437	22481.88
514.209	21574.88
514.982	20721.88
515.754	19818.88
516.526	18907.88
517.298	18072.88
518.071	17220.88
518.843	16615.88
519.615	15993.88
520.387	15339.88
521.159	14735.88
521.93	14175.88
522.702	13654.88
523.474	13050.88
524.245	12468.88
525.017	11958.88
525.788	11487.88
526.56	11006.88
527.331	10458.88
528.102	9983.88
528.873	9503.88
529.644	9047.88
530.415	8606.88
531.186	8151.88
531.957	7729.88
532.728	7361.88
533.498	6995.88
534.269	6610.88
535.039	6209.88
535.81	5898.88
536.58	5547.88
537.351	5232.88
538.121	4950.88
538.891	4680.88
539.661	4421.88
540.431	4200.88
541.201	3956.88
541.971	3733.88
542.741	3530.88
543.51	3385.88
544.28	3215.88
545.05	3063.88
545.819	2915.88
546.588	2756.88
547.358	2604.88
548.127	2494.88
548.896	2361.88
549.665	2236.88
550.434	2123.88
551.203	2019.88
551.972	1903.88
552.741	1798.88
553.51	1704.88
554.278	1601.88
555.047	1523.88
555.815	1429.88
556.584	1346.88
557.352	1273.88
558.121	1207.88
558.889	1135.88
559.657	1068.88
560.425	1009.88
561.193	959.88
561.961	894.88
562.729	838.88
563.496	801.88
564.264	766.88
565.032	722.88
565.799	675.88
566.567	646.88
567.334	601.88
568.101	578.88
568.869	542.88
569.636	516.88
570.403	475.88
571.17	449.88
571.937	432.88
572.704	401.88
573.471	376.88
574.237	364.88
575.004	340.88
575.771	322.88
576.537	301.88
577.303	281.88
578.07	266.88
578.836	248.88
579.602	230.88
580.368	222.88
581.134	214.88
581.9	207.88
582.666	182.88
583.432	180.88
584.198	169.88
584.964	168.88
585.729	153.88
586.495	145.88
587.26	136.88
588.025	132.88
588.791	122.88
589.556	117.88
590.321	112.88
591.086	102.88
591.851	98.88
592.616	93.88
593.381	90.88
594.146	87.88
594.911	82.88
595.675	80.88
596.44	77.88
597.204	76.88
597.969	66.88
598.733	67.88
599.497	65.88
600.261	59.88
601.025	55.88
601.79	55.88
602.553	52.88
603.317	48.88
604.081	48.88
604.845	44.88
605.609	44.88
606.372	43.88
607.136	41.88
607.899	38.88
608.662	35.88
609.426	35.88
610.189	30.88
610.952	35.88
611.715	29.88
612.478	31.88
613.241	28.88
614.004	28.88
614.767	25.88
615.529	27.88
616.292	27.88
617.055	23.88
617.817	23.88
618.579	24.88
619.342	22.88
620.104	22.88
620.866	22.88
621.628	21.88
622.39	16.88
623.152	19.88
623.914	18.88
624.676	18.88
625.438	19.88
626.199	16.88
626.961	16.88
627.722	14.88
628.484	16.88
629.245	17.88
630.006	14.88
630.768	11.88
631.529	10.88
632.29	14.88
633.051	12.88
633.812	13.88
634.573	11.88
635.333	9.88
636.094	8.88
636.855	12.88
637.615	11.88
638.376	8.88
639.136	9.88
639.896	9.88
640.657	7.88
641.417	9.88
642.177	8.88
642.937	9.88
643.697	8.88
644.457	7.88
645.216	8.88
645.976	6.88
646.736	7.88
647.495	6.88
648.255	10.88
649.014	5.88
649.774	6.88
650.533	7.88
651.292	6.88
652.051	5.88
652.81	7.88
653.569	6.88
654.328	7.88
655.087	5.88
655.846	5.88
656.604	6.88
657.363	6.88
658.121	7.88
658.88	3.88
659.638	3.88
660.397	4.88
661.155	5.88
661.913	5.88
662.671	5.88
663.429	4.88
664.187	6.88
664.945	3.88
665.703	3.88
666.46	5.88
667.218	6.88
667.976	3.88
668.733	5.88
669.49	5.88
670.248	6.88
671.005	3.88
671.762	4.88
672.519	5.88
673.276	3.88
674.033	5.88
674.79	3.88
675.547	5.88
676.304	6.88
677.06	4.88
677.817	4.88
678.574	2.88
679.33	3.88
680.086	5.88
680.843	6.88
681.599	3.88
682.355	4.88
683.111	4.88
683.867	1.88
684.623	4.88
685.379	3.88
686.135	2.88
686.89	5.88
687.646	3.88
688.402	4.88
689.157	3.88
689.912	2.88
690.668	4.88
691.423	4.88
692.178	5.88
692.933	1.88
693.688	5.88
694.443	3.88
695.198	1.88
695.953	3.88
696.708	3.88
697.462	2.88
698.217	2.88
698.972	4.88
699.726	2.88
700.48	2.88
701.235	3.88
701.989	3.88
702.743	6.88
703.497	4.88
704.251	3.88
705.005	1.88
705.759	4.88
706.513	4.88
707.266	4.88
708.02	5.88
708.774	2.88
709.527	5.88
710.28	4.88
711.034	1.88
711.787	2.88
712.54	2.88
713.293	1.88
714.046	4.88
714.799	5.88
715.552	3.88
716.305	2.88
717.058	3.88
717.81	3.88
718.563	5.88
719.315	2.88
720.068	3.88
720.82	2.88
721.573	3.88
722.325	5.88
723.077	3.88
723.829	4.88
724.581	4.88
725.333	3.88
726.085	1.88
726.836	4.88
727.588	3.88
728.34	2.88
729.091	4.88
729.843	4.88
730.594	4.88
731.346	3.88
732.097	3.88
732.848	6.88
733.599	4.88
734.35	4.88
735.101	5.88
735.852	4.88
736.603	4.88
737.354	4.88
738.104	4.88
738.855	4.88
739.605	3.88
740.356	4.88
741.106	2.88
741.856	3.88
742.607	4.88
743.357	5.88
744.107	3.88
744.857	4.88
745.607	4.88
746.357	5.88
747.106	5.88
747.856	3.88
748.606	5.88
749.355	7.88
750.105	6.88
750.854	7.88
751.603	8.88
752.353	5.88
753.102	7.88
753.851	6.88
754.6	4.88
755.349	4.88
756.098	4.88
756.847	7.88
757.595	5.88
758.344	6.88
759.093	5.88
759.841	6.88
760.589	5.88
761.338	7.88
762.086	6.88
762.834	8.88
763.582	7.88
764.331	6.88
765.079	7.88
765.826	7.88
766.574	5.88
767.322	6.88
768.07	7.88
768.817	6.88
769.565	6.88
770.312	8.88
771.06	9.88
771.807	7.88
772.554	7.88
773.302	5.88
774.049	8.88
774.796	10.88
775.543	8.88
776.29	7.88
777.036	9.88
777.783	9.88
778.53	7.88
779.276	8.88
780.023	7.88
780.769	8.88
781.516	9.88
782.262	7.88
783.008	8.88
783.754	8.88
784.5	10.88
785.246	9.88
785.992	9.88
786.738	9.88
787.484	7.88
788.23	9.88
788.975	7.88
789.721	10.88
790.466	8.88
791.212	9.88
791.957	11.88
792.702	8.88
793.447	8.88
794.193	7.88
794.938	6.88
795.683	7.88
796.427	6.88
797.172	7.88
797.917	6.88
798.662	7.88
799.406	6.88
800.151	8.88
800.895	7.88
801.64	7.88
802.384	7.88
803.128	5.88
803.872	6.88
804.616	7.88
805.36	7.88
806.104	6.88
806.848	5.88
807.592	7.88
808.336	5.88
809.079	3.88
809.823	5.88
810.566	5.88
811.31	5.88
812.053	6.88
812.796	7.88
813.539	5.88
814.283	3.88
815.026	3.88
815.769	3.88
816.511	5.88
817.254	6.88
817.997	5.88
818.74	3.88
819.482	2.88
820.225	5.88
820.967	2.88
821.71	4.88
822.452	2.88
823.194	2.88
823.936	6.88
824.678	4.88
825.42	6.88
826.162	1.88
826.904	5.88
827.646	4.88
828.388	1.88
829.129	3.88
829.871	1.88
830.612	2.88
831.354	2.88
832.095	2.88
832.836	3.88
833.577	1.88
834.319	3.88
835.06	6.88
835.801	6.88
836.542	4.88
837.282	4.88
838.023	3.88
838.764	2.88
839.504	5.88
840.245	2.88
840.985	0.88
841.726	1.88
842.466	1.88
843.206	5.88
843.946	3.88
844.687	3.88
845.427	-0.12
846.166	2.88
846.906	3.88
847.646	3.88
848.386	4.88
849.125	2.88
849.865	1.88
850.605	2.88
851.344	1.88
852.083	3.88
852.823	3.88
853.562	3.88
854.301	1.88
855.04	1.88
855.779	3.88
856.518	3.88
857.257	1.88
857.995	1.88
858.734	4.88
859.473	1.88
860.211	3.88
860.95	3.88
861.688	2.88
862.426	2.88
863.165	0.88
863.903	2.88
864.641	0.88
865.379	2.88
866.117	2.88
866.855	-0.12
867.593	1.88
868.33	1.88
869.068	0.88
869.806	3.88
870.543	0.88
871.28	3.88
872.018	1.88
872.755	4.88
873.492	1.88
874.229	-0.12
874.967	0.88
875.703	0.88
876.44	1.88
877.177	-2.12
877.914	-0.12
878.651	0.88
879.387	1.88
880.124	1.88
880.86	1.88
881.597	0.88
882.333	1.88
883.069	1.88
883.806	1.88
884.542	2.88
885.278	1.88
886.014	-1.12
886.749	-0.12
887.485	1.88
888.221	1.88
888.957	1.88
889.692	2.88
890.428	2.88
891.163	1.88
891.899	1.88
892.634	0.88
893.369	1.88
894.104	0.88
894.839	0.88
895.574	0.88
896.309	2.88
897.044	0.88
897.779	0.88
898.514	-1.12
899.248	1.88
899.983	3.88
900.717	1.88
901.452	1.88
902.186	1.88
902.92	0.88
903.654	-0.12
904.389	1.88
905.123	2.88
905.857	2.88
906.59	1.88
907.324	1.88
908.058	1.88
908.792	0.88
909.525	-0.12
910.259	-0.12
910.992	1.88
911.726	-0.12
912.459	0.88
913.192	0.88
913.925	-0.12
914.658	3.88
915.391	-0.12
916.124	-0.12
916.857	0.88
917.59	-0.12
918.323	-0.12
919.055	2.88
919.788	1.88
920.521	1.88
921.253	2.88
921.985	0.88
922.718	1.88
923.45	-0.12
924.182	0.88
924.914	-0.12
925.646	2.88
926.378	0.88
927.11	0.88
927.841	0.88
928.573	1.88
929.305	-0.12
930.036	1.88
930.768	-0.12
931.499	-2.12
932.23	-0.12
932.962	-1.12
933.693	-0.12
934.424	-0.12
935.155	0.88
935.886	0.88
936.617	-0.12
937.348	0.88
938.078	-1.12
938.809	-2.12
939.54	1.88
940.27	-2.12
941.001	1.88
941.731	0.88
942.461	1.88
943.191	2.88
943.922	0.88
944.652	-0.12
945.382	0.88
946.112	-2.12
946.841	1.88
947.571	0.88
948.301	-0.12
949.031	0.88
949.76	-0.12
950.49	-0.12
951.219	0.88
951.948	0.88
952.678	-0.12
953.407	0.88
954.136	-1.12
954.865	1.88
955.594	0.88
956.323	0.88
957.052	1.88
957.78	-1.12
958.509	-0.12
959.238	1.88
959.966	-0.12
960.695	0.88
961.423	-0.12
962.151	-0.12
962.88	-1.12
963.608	-0.12
964.336	-0.12
965.064	1.88
965.792	-0.12
966.52	-0.12
967.247	2.88
967.975	0.88
968.703	0.88
969.43	1.88
970.158	-0.12
970.885	0.88
971.613	1.88
972.34	1.88
973.067	0.88
973.794	0.88
974.521	-0.12
975.248	1.88
975.975	1.88
976.702	-1.12
977.429	1.88
978.156	-1.12
978.882	-0.12
979.609	1.88
980.335	1.88
981.062	-0.12
981.788	0.88
982.514	0.88
983.24	0.88
983.967	0.88
984.693	0.88
985.419	-0.12
986.144	1.88
986.87	0.88
987.596	0.88
988.322	0.88
989.047	-1.12
989.773	-1.12
990.498	-0.12
991.224	0.88
991.949	0.88
992.674	-0.12
993.399	0.88
994.124	0.88
994.849	-0.12
995.574	-0.12
996.299	3.88
997.024	0.88
997.749	-0.12
998.473	-0.12
999.198	-1.12
999.922	0.88
1000.647	-0.12
1001.371	1.88
1002.095	-0.12
1002.82	-0.12
1003.544	-1.12
1004.268	-0.12
1004.992	1.88
1005.716	3.88
1006.439	1.88
1007.163	1.88
1007.887	1.88
1008.611	2.88
1009.334	1.88
1010.058	2.88
1010.781	1.88
1011.504	-0.12
1012.228	0.88
1012.951	-1.12
1013.674	1.88
1014.397	-1.12
1015.12	-0.12
