节点500_285_QEPB04081__725__15-07-36-800.txt的数据

Date: Wed Nov 12 15:07:36 CST 2025
User: PC
Spectrometer: QEPB0408
触发模式: 0
积分时间 (秒): 1.000000E-2
Scans to average: 1
启用暗噪声校正: true
启用非线性校正: false
滑动平均宽度: 0
X轴模式: Wavelengths
Number of Pixels in Spectrum: 1044
>>>>>Begin Spectral Data<<<<<
220.843	2.12
221.644	2.12
222.444	1.12
223.244	3.12
224.045	1.12
224.845	1.12
225.645	2.12
226.445	2.12
227.245	4.12
228.045	4.12
228.845	5.12
229.645	3.12
230.444	2.12
231.244	4.12
232.043	2.12
232.843	3.12
233.642	5.12
234.442	0.12
235.241	3.12
236.04	4.12
236.839	6.12
237.638	4.12
238.437	3.12
239.236	4.12
240.035	6.12
240.833	3.12
241.632	3.12
242.43	5.12
243.229	4.12
244.027	4.12
244.826	4.12
245.624	5.12
246.422	6.12
247.22	5.12
248.018	6.12
248.816	10.12
249.614	6.12
250.412	7.12
251.21	8.12
252.007	5.12
252.805	5.12
253.602	7.12
254.4	6.12
255.197	8.12
255.994	5.12
256.791	10.12
257.589	9.12
258.386	9.12
259.183	9.12
259.979	5.12
260.776	9.12
261.573	8.12
262.37	11.12
263.166	10.12
263.963	11.12
264.759	10.12
265.556	10.12
266.352	10.12
267.148	12.12
267.944	13.12
268.74	13.12
269.536	13.12
270.332	12.12
271.128	14.12
271.924	15.12
272.719	12.12
273.515	14.12
274.311	15.12
275.106	14.12
275.901	16.12
276.697	16.12
277.492	15.12
278.287	16.12
279.082	16.12
279.877	18.12
280.672	16.12
281.467	16.12
282.262	18.12
283.056	21.12
283.851	16.12
284.646	17.12
285.44	18.12
286.234	18.12
287.029	18.12
287.823	15.12
288.617	16.12
289.411	16.12
290.205	17.12
290.999	18.12
291.793	17.12
292.587	16.12
293.381	17.12
294.174	15.12
294.968	17.12
295.761	16.12
296.555	14.12
297.348	16.12
298.141	16.12
298.935	14.12
299.728	12.12
300.521	13.12
301.314	13.12
302.107	14.12
302.899	12.12
303.692	12.12
304.485	11.12
305.277	13.12
306.07	14.12
306.862	11.12
307.655	11.12
308.447	12.12
309.239	13.12
310.031	12.12
310.823	13.12
311.615	12.12
312.407	13.12
313.199	14.12
313.991	8.12
314.783	13.12
315.574	8.12
316.366	10.12
317.157	10.12
317.949	6.12
318.74	9.12
319.531	7.12
320.322	10.12
321.113	8.12
321.904	7.12
322.695	7.12
323.486	5.12
324.277	9.12
325.068	6.12
325.858	9.12
326.649	10.12
327.439	9.12
328.23	8.12
329.02	6.12
329.81	6.12
330.6	10.12
331.391	8.12
332.181	8.12
332.971	5.12
333.76	8.12
334.55	8.12
335.34	7.12
336.13	6.12
336.919	7.12
337.709	6.12
338.498	7.12
339.287	7.12
340.077	7.12
340.866	6.12
341.655	6.12
342.444	4.12
343.233	6.12
344.022	4.12
344.811	6.12
345.6	5.12
346.388	9.12
347.177	5.12
347.965	5.12
348.754	7.12
349.542	7.12
350.33	6.12
351.119	4.12
351.907	7.12
352.695	5.12
353.483	3.12
354.271	6.12
355.059	5.12
355.846	4.12
356.634	6.12
357.422	5.12
358.209	8.12
358.997	3.12
359.784	4.12
360.571	7.12
361.359	6.12
362.146	3.12
362.933	5.12
363.72	6.12
364.507	6.12
365.294	5.12
366.081	6.12
366.867	4.12
367.654	4.12
368.44	4.12
369.227	5.12
370.013	4.12
370.8	6.12
371.586	5.12
372.372	7.12
373.158	5.12
373.944	5.12
374.73	3.12
375.516	4.12
376.302	7.12
377.088	3.12
377.873	5.12
378.659	5.12
379.445	4.12
380.23	4.12
381.015	4.12
381.801	8.12
382.586	6.12
383.371	4.12
384.156	5.12
384.941	4.12
385.726	6.12
386.511	3.12
387.296	5.12
388.08	6.12
388.865	5.12
389.649	5.12
390.434	4.12
391.218	6.12
392.003	5.12
392.787	5.12
393.571	5.12
394.355	4.12
395.139	5.12
395.923	5.12
396.707	5.12
397.491	8.12
398.274	7.12
399.058	7.12
399.842	5.12
400.625	9.12
401.408	6.12
402.192	5.12
402.975	7.12
403.758	7.12
404.541	8.12
405.324	6.12
406.107	7.12
406.89	9.12
407.673	9.12
408.456	7.12
409.238	6.12
410.021	8.12
410.803	11.12
411.586	8.12
412.368	9.12
413.151	8.12
413.933	9.12
414.715	7.12
415.497	9.12
416.279	9.12
417.061	12.12
417.843	10.12
418.624	8.12
419.406	11.12
420.188	8.12
420.969	11.12
421.751	10.12
422.532	7.12
423.313	12.12
424.095	10.12
424.876	12.12
425.657	11.12
426.438	12.12
427.219	10.12
428	13.12
428.78	13.12
429.561	12.12
430.342	13.12
431.122	15.12
431.903	14.12
432.683	16.12
433.464	16.12
434.244	17.12
435.024	16.12
435.804	16.12
436.584	15.12
437.364	16.12
438.144	21.12
438.924	20.12
439.704	21.12
440.483	24.12
441.263	27.12
442.042	27.12
442.822	27.12
443.601	31.12
444.38	31.12
445.16	34.12
445.939	36.12
446.718	38.12
447.497	41.12
448.276	44.12
449.054	47.12
449.833	51.12
450.612	53.12
451.391	60.12
452.169	64.12
452.948	76.12
453.726	82.12
454.504	88.12
455.282	105.12
456.061	106.12
456.839	126.12
457.617	136.12
458.395	149.12
459.172	165.12
459.95	184.12
460.728	207.12
461.506	227.12
462.283	254.12
463.061	289.12
463.838	311.12
464.615	355.12
465.393	395.12
466.17	440.12
466.947	485.12
467.724	536.12
468.501	595.12
469.278	665.12
470.055	734.12
470.831	811.12
471.608	897.12
472.385	993.12
473.161	1100.12
473.938	1203.12
474.714	1318.12
475.49	1451.12
476.266	1622.12
477.043	1761.12
477.819	1953.12
478.595	2157.12
479.371	2316.12
480.146	2559.12
480.922	2776.12
481.698	3057.12
482.473	3328.12
483.249	3662.12
484.024	4007.12
484.8	4365.12
485.575	4778.12
486.35	5186.12
487.126	5673.12
487.901	6166.12
488.676	6710.12
489.451	7325.12
490.225	7960.12
491	8619.12
491.775	9385.12
492.55	10203.12
493.324	10980.12
494.099	11792.12
494.873	12682.12
495.647	13626.12
496.422	14626.12
497.196	15635.12
497.97	16647.12
498.744	17691.12
499.518	18722.12
500.292	19795.12
501.066	20801.12
501.839	21731.12
502.613	22694.12
503.387	23487.12
504.16	24265.12
504.934	24656.12
505.707	24993.12
506.48	25254.12
507.253	25376.12
508.027	25373.12
508.8	25254.12
509.573	25171.12
510.346	24783.12
511.118	24196.12
511.891	23638.12
512.664	23040.12
513.437	22308.12
514.209	21517.12
514.982	20716.12
515.754	19937.12
516.526	19099.12
517.298	18281.12
518.071	17564.12
518.843	16934.12
519.615	16264.12
520.387	15663.12
521.159	15012.12
521.93	14394.12
522.702	13859.12
523.474	13285.12
524.245	12749.12
525.017	12170.12
525.788	11740.12
526.56	11178.12
527.331	10699.12
528.102	10230.12
528.873	9782.12
529.644	9379.12
530.415	8918.12
531.186	8505.12
531.957	8105.12
532.728	7701.12
533.498	7314.12
534.269	6922.12
535.039	6568.12
535.81	6237.12
536.58	5880.12
537.351	5535.12
538.121	5269.12
538.891	4957.12
539.661	4707.12
540.431	4396.12
541.201	4190.12
541.971	3971.12
542.741	3764.12
543.51	3570.12
544.28	3404.12
545.05	3229.12
545.819	3076.12
546.588	2929.12
547.358	2782.12
548.127	2661.12
548.896	2508.12
549.665	2384.12
550.434	2262.12
551.203	2136.12
551.972	2040.12
552.741	1918.12
553.51	1825.12
554.278	1736.12
555.047	1616.12
555.815	1541.12
556.584	1465.12
557.352	1365.12
558.121	1297.12
558.889	1223.12
559.657	1155.12
560.425	1097.12
561.193	1028.12
561.961	973.12
562.729	909.12
563.496	876.12
564.264	817.12
565.032	775.12
565.799	734.12
566.567	695.12
567.334	660.12
568.101	630.12
568.869	585.12
569.636	549.12
570.403	520.12
571.17	483.12
571.937	465.12
572.704	432.12
573.471	411.12
574.237	392.12
575.004	365.12
575.771	351.12
576.537	329.12
577.303	307.12
578.07	293.12
578.836	276.12
579.602	258.12
580.368	242.12
581.134	230.12
581.9	214.12
582.666	206.12
583.432	196.12
584.198	190.12
584.964	179.12
585.729	170.12
586.495	160.12
587.26	149.12
588.025	147.12
588.791	132.12
589.556	127.12
590.321	120.12
591.086	113.12
591.851	106.12
592.616	105.12
593.381	97.12
594.146	94.12
594.911	90.12
595.675	84.12
596.44	80.12
597.204	72.12
597.969	74.12
598.733	76.12
599.497	67.12
600.261	66.12
601.025	67.12
601.79	59.12
602.553	60.12
603.317	51.12
604.081	51.12
604.845	51.12
605.609	48.12
606.372	46.12
607.136	45.12
607.899	43.12
608.662	38.12
609.426	37.12
610.189	36.12
610.952	35.12
611.715	32.12
612.478	32.12
613.241	31.12
614.004	30.12
614.767	26.12
615.529	28.12
616.292	25.12
617.055	24.12
617.817	29.12
618.579	25.12
619.342	21.12
620.104	25.12
620.866	26.12
621.628	23.12
622.39	22.12
623.152	18.12
623.914	20.12
624.676	18.12
625.438	18.12
626.199	17.12
626.961	17.12
627.722	14.12
628.484	16.12
629.245	16.12
630.006	14.12
630.768	13.12
631.529	14.12
632.29	12.12
633.051	14.12
633.812	13.12
634.573	12.12
635.333	13.12
636.094	12.12
636.855	11.12
637.615	10.12
638.376	13.12
639.136	8.12
639.896	8.12
640.657	9.12
641.417	12.12
642.177	9.12
642.937	9.12
643.697	9.12
644.457	9.12
645.216	7.12
645.976	9.12
646.736	6.12
647.495	10.12
648.255	7.12
649.014	8.12
649.774	5.12
650.533	9.12
651.292	8.12
652.051	7.12
652.81	6.12
653.569	7.12
654.328	7.12
655.087	6.12
655.846	4.12
656.604	7.12
657.363	7.12
658.121	6.12
658.88	7.12
659.638	6.12
660.397	5.12
661.155	2.12
661.913	6.12
662.671	8.12
663.429	6.12
664.187	4.12
664.945	4.12
665.703	7.12
666.46	5.12
667.218	6.12
667.976	4.12
668.733	2.12
669.49	6.12
670.248	4.12
671.005	6.12
671.762	8.12
672.519	4.12
673.276	5.12
674.033	4.12
674.79	5.12
675.547	3.12
676.304	6.12
677.06	4.12
677.817	4.12
678.574	6.12
679.33	3.12
680.086	5.12
680.843	6.12
681.599	2.12
682.355	5.12
683.111	5.12
683.867	4.12
684.623	3.12
685.379	5.12
686.135	4.12
686.89	3.12
687.646	5.12
688.402	5.12
689.157	3.12
689.912	5.12
690.668	5.12
691.423	3.12
692.178	4.12
692.933	3.12
693.688	4.12
694.443	1.12
695.198	3.12
695.953	4.12
696.708	4.12
697.462	2.12
698.217	4.12
698.972	1.12
699.726	4.12
700.48	3.12
701.235	3.12
701.989	6.12
702.743	3.12
703.497	4.12
704.251	5.12
705.005	3.12
705.759	4.12
706.513	3.12
707.266	3.12
708.02	2.12
708.774	4.12
709.527	4.12
710.28	4.12
711.034	4.12
711.787	2.12
712.54	4.12
713.293	3.12
714.046	6.12
714.799	3.12
715.552	3.12
716.305	5.12
717.058	6.12
717.81	5.12
718.563	1.12
719.315	2.12
720.068	3.12
720.82	4.12
721.573	2.12
722.325	3.12
723.077	6.12
723.829	3.12
724.581	4.12
725.333	3.12
726.085	4.12
726.836	5.12
727.588	3.12
728.34	3.12
729.091	1.12
729.843	5.12
730.594	1.12
731.346	4.12
732.097	3.12
732.848	3.12
733.599	6.12
734.35	2.12
735.101	5.12
735.852	3.12
736.603	3.12
737.354	3.12
738.104	4.12
738.855	2.12
739.605	3.12
740.356	3.12
741.106	2.12
741.856	4.12
742.607	4.12
743.357	5.12
744.107	3.12
744.857	2.12
745.607	5.12
746.357	5.12
747.106	4.12
747.856	3.12
748.606	5.12
749.355	4.12
750.105	3.12
750.854	5.12
751.603	7.12
752.353	3.12
753.102	5.12
753.851	2.12
754.6	7.12
755.349	3.12
756.098	6.12
756.847	4.12
757.595	5.12
758.344	6.12
759.093	4.12
759.841	6.12
760.589	6.12
761.338	5.12
762.086	7.12
762.834	5.12
763.582	8.12
764.331	5.12
765.079	3.12
765.826	7.12
766.574	6.12
767.322	7.12
768.07	4.12
768.817	8.12
769.565	6.12
770.312	5.12
771.06	6.12
771.807	6.12
772.554	7.12
773.302	8.12
774.049	10.12
774.796	5.12
775.543	6.12
776.29	9.12
777.036	9.12
777.783	9.12
778.53	8.12
779.276	6.12
780.023	9.12
780.769	7.12
781.516	7.12
782.262	7.12
783.008	9.12
783.754	10.12
784.5	8.12
785.246	9.12
785.992	9.12
786.738	9.12
787.484	6.12
788.23	9.12
788.975	9.12
789.721	7.12
790.466	9.12
791.212	8.12
791.957	9.12
792.702	9.12
793.447	7.12
794.193	7.12
794.938	7.12
795.683	8.12
796.427	3.12
797.172	10.12
797.917	5.12
798.662	8.12
799.406	6.12
800.151	7.12
800.895	8.12
801.64	7.12
802.384	9.12
803.128	7.12
803.872	7.12
804.616	5.12
805.36	8.12
806.104	8.12
806.848	7.12
807.592	3.12
808.336	7.12
809.079	6.12
809.823	4.12
810.566	6.12
811.31	7.12
812.053	5.12
812.796	7.12
813.539	6.12
814.283	4.12
815.026	7.12
815.769	6.12
816.511	7.12
817.254	3.12
817.997	4.12
818.74	6.12
819.482	4.12
820.225	5.12
820.967	4.12
821.71	6.12
822.452	3.12
823.194	5.12
823.936	5.12
824.678	5.12
825.42	5.12
826.162	4.12
826.904	5.12
827.646	4.12
828.388	5.12
829.129	4.12
829.871	3.12
830.612	4.12
831.354	5.12
832.095	7.12
832.836	2.12
833.577	3.12
834.319	1.12
835.06	3.12
835.801	4.12
836.542	3.12
837.282	1.12
838.023	3.12
838.764	3.12
839.504	3.12
840.245	2.12
840.985	4.12
841.726	4.12
842.466	2.12
843.206	6.12
843.946	2.12
844.687	4.12
845.427	3.12
846.166	5.12
846.906	3.12
847.646	1.12
848.386	3.12
849.125	2.12
849.865	2.12
850.605	1.12
851.344	4.12
852.083	5.12
852.823	4.12
853.562	3.12
854.301	-1.88
855.04	3.12
855.779	1.12
856.518	2.12
857.257	4.12
857.995	0.12
858.734	2.12
859.473	2.12
860.211	3.12
860.95	1.12
861.688	1.12
862.426	2.12
863.165	5.12
863.903	3.12
864.641	2.12
865.379	1.12
866.117	1.12
866.855	1.12
867.593	2.12
868.33	1.12
869.068	2.12
869.806	1.12
870.543	4.12
871.28	2.12
872.018	2.12
872.755	2.12
873.492	-1.88
874.229	1.12
874.967	4.12
875.703	2.12
876.44	0.12
877.177	3.12
877.914	0.12
878.651	-0.88
879.387	2.12
880.124	2.12
880.86	2.12
881.597	2.12
882.333	-1.88
883.069	2.12
883.806	-0.88
884.542	1.12
885.278	1.12
886.014	2.12
886.749	2.12
887.485	3.12
888.221	1.12
888.957	1.12
889.692	1.12
890.428	-0.88
891.163	2.12
891.899	1.12
892.634	2.12
893.369	1.12
894.104	2.12
894.839	-1.88
895.574	1.12
896.309	1.12
897.044	3.12
897.779	0.12
898.514	2.12
899.248	-0.88
899.983	2.12
900.717	0.12
901.452	0.12
902.186	2.12
902.92	3.12
903.654	1.12
904.389	-0.88
905.123	2.12
905.857	1.12
906.59	1.12
907.324	1.12
908.058	1.12
908.792	1.12
909.525	2.12
910.259	0.12
910.992	0.12
911.726	1.12
912.459	0.12
913.192	-1.88
913.925	1.12
914.658	2.12
915.391	-1.88
916.124	1.12
916.857	1.12
917.59	2.12
918.323	0.12
919.055	0.12
919.788	2.12
920.521	1.12
921.253	1.12
921.985	-1.88
922.718	2.12
923.45	0.12
924.182	2.12
924.914	1.12
925.646	2.12
926.378	0.12
927.11	1.12
927.841	1.12
928.573	-1.88
929.305	0.12
930.036	1.12
930.768	-0.88
931.499	0.12
932.23	1.12
932.962	1.12
933.693	1.12
934.424	3.12
935.155	0.12
935.886	-0.88
936.617	0.12
937.348	-1.88
938.078	1.12
938.809	1.12
939.54	0.12
940.27	-0.88
941.001	1.12
941.731	2.12
942.461	-1.88
943.191	0.12
943.922	1.12
944.652	0.12
945.382	-1.88
946.112	0.12
946.841	2.12
947.571	0.12
948.301	-0.88
949.031	2.12
949.76	-1.88
950.49	1.12
951.219	-0.88
951.948	-0.88
952.678	0.12
953.407	1.12
954.136	2.12
954.865	2.12
955.594	0.12
956.323	0.12
957.052	0.12
957.78	2.12
958.509	-1.88
959.238	0.12
959.966	-0.88
960.695	0.12
961.423	1.12
962.151	1.12
962.88	0.12
963.608	0.12
964.336	2.12
965.064	-1.88
965.792	1.12
966.52	1.12
967.247	0.12
967.975	0.12
968.703	-1.88
969.43	0.12
970.158	1.12
970.885	2.12
971.613	0.12
972.34	2.12
973.067	0.12
973.794	-1.88
974.521	2.12
975.248	3.12
975.975	1.12
976.702	-1.88
977.429	0.12
978.156	0.12
978.882	2.12
979.609	1.12
980.335	1.12
981.062	-0.88
981.788	0.12
982.514	-1.88
983.24	0.12
983.967	-0.88
984.693	1.12
985.419	2.12
986.144	0.12
986.87	2.12
987.596	0.12
988.322	0.12
989.047	1.12
989.773	2.12
990.498	0.12
991.224	-0.88
991.949	0.12
992.674	-0.88
993.399	-0.88
994.124	1.12
994.849	1.12
995.574	1.12
996.299	0.12
997.024	1.12
997.749	-0.88
998.473	-0.88
999.198	1.12
999.922	3.12
1000.647	-1.88
1001.371	2.12
1002.095	1.12
1002.82	-0.88
1003.544	-1.88
1004.268	-1.88
1004.992	1.12
1005.716	1.12
1006.439	1.12
1007.163	1.12
1007.887	1.12
1008.611	0.12
1009.334	1.12
1010.058	-0.88
1010.781	2.12
1011.504	2.12
1012.228	-0.88
1012.951	1.12
1013.674	0.12
1014.397	0.12
1015.12	-1.88
