节点500_285_QEPB04081__533__15-04-25-343.txt的数据

Date: Wed Nov 12 15:04:25 CST 2025
User: PC
Spectrometer: QEPB0408
触发模式: 0
积分时间 (秒): 1.000000E-2
Scans to average: 1
启用暗噪声校正: true
启用非线性校正: false
滑动平均宽度: 0
X轴模式: Wavelengths
Number of Pixels in Spectrum: 1044
>>>>>Begin Spectral Data<<<<<
220.843	3.25
221.644	1.25
222.444	3.25
223.244	3.25
224.045	4.25
224.845	2.25
225.645	2.25
226.445	2.25
227.245	0.25
228.045	2.25
228.845	2.25
229.645	5.25
230.444	1.25
231.244	1.25
232.043	3.25
232.843	3.25
233.642	4.25
234.442	3.25
235.241	4.25
236.04	3.25
236.839	4.25
237.638	2.25
238.437	2.25
239.236	4.25
240.035	4.25
240.833	5.25
241.632	4.25
242.43	4.25
243.229	5.25
244.027	5.25
244.826	5.25
245.624	5.25
246.422	6.25
247.22	6.25
248.018	6.25
248.816	5.25
249.614	6.25
250.412	7.25
251.21	5.25
252.007	8.25
252.805	7.25
253.602	6.25
254.4	7.25
255.197	7.25
255.994	9.25
256.791	9.25
257.589	10.25
258.386	10.25
259.183	7.25
259.979	9.25
260.776	7.25
261.573	11.25
262.37	12.25
263.166	11.25
263.963	11.25
264.759	10.25
265.556	14.25
266.352	12.25
267.148	14.25
267.944	12.25
268.74	11.25
269.536	14.25
270.332	13.25
271.128	14.25
271.924	17.25
272.719	14.25
273.515	16.25
274.311	15.25
275.106	18.25
275.901	16.25
276.697	17.25
277.492	17.25
278.287	16.25
279.082	20.25
279.877	16.25
280.672	18.25
281.467	18.25
282.262	19.25
283.056	17.25
283.851	18.25
284.646	21.25
285.44	16.25
286.234	21.25
287.029	18.25
287.823	18.25
288.617	19.25
289.411	18.25
290.205	21.25
290.999	17.25
291.793	17.25
292.587	16.25
293.381	16.25
294.174	18.25
294.968	15.25
295.761	17.25
296.555	14.25
297.348	14.25
298.141	16.25
298.935	18.25
299.728	14.25
300.521	12.25
301.314	13.25
302.107	14.25
302.899	13.25
303.692	14.25
304.485	11.25
305.277	13.25
306.07	13.25
306.862	13.25
307.655	11.25
308.447	10.25
309.239	14.25
310.031	12.25
310.823	13.25
311.615	10.25
312.407	9.25
313.199	10.25
313.991	9.25
314.783	10.25
315.574	12.25
316.366	9.25
317.157	10.25
317.949	9.25
318.74	6.25
319.531	9.25
320.322	9.25
321.113	9.25
321.904	6.25
322.695	9.25
323.486	6.25
324.277	10.25
325.068	8.25
325.858	6.25
326.649	8.25
327.439	8.25
328.23	7.25
329.02	8.25
329.81	7.25
330.6	5.25
331.391	6.25
332.181	5.25
332.971	7.25
333.76	8.25
334.55	7.25
335.34	3.25
336.13	7.25
336.919	6.25
337.709	6.25
338.498	9.25
339.287	3.25
340.077	6.25
340.866	5.25
341.655	8.25
342.444	6.25
343.233	7.25
344.022	8.25
344.811	6.25
345.6	6.25
346.388	4.25
347.177	8.25
347.965	8.25
348.754	5.25
349.542	5.25
350.33	4.25
351.119	6.25
351.907	4.25
352.695	5.25
353.483	6.25
354.271	7.25
355.059	6.25
355.846	7.25
356.634	4.25
357.422	6.25
358.209	7.25
358.997	6.25
359.784	8.25
360.571	6.25
361.359	5.25
362.146	4.25
362.933	5.25
363.72	7.25
364.507	7.25
365.294	4.25
366.081	5.25
366.867	5.25
367.654	5.25
368.44	6.25
369.227	5.25
370.013	4.25
370.8	4.25
371.586	4.25
372.372	8.25
373.158	7.25
373.944	7.25
374.73	6.25
375.516	3.25
376.302	8.25
377.088	4.25
377.873	6.25
378.659	5.25
379.445	4.25
380.23	5.25
381.015	2.25
381.801	3.25
382.586	6.25
383.371	5.25
384.156	7.25
384.941	6.25
385.726	6.25
386.511	7.25
387.296	6.25
388.08	6.25
388.865	6.25
389.649	7.25
390.434	6.25
391.218	7.25
392.003	5.25
392.787	7.25
393.571	5.25
394.355	7.25
395.139	6.25
395.923	5.25
396.707	7.25
397.491	7.25
398.274	6.25
399.058	7.25
399.842	6.25
400.625	8.25
401.408	7.25
402.192	6.25
402.975	8.25
403.758	6.25
404.541	10.25
405.324	4.25
406.107	7.25
406.89	5.25
407.673	8.25
408.456	8.25
409.238	5.25
410.021	6.25
410.803	9.25
411.586	12.25
412.368	8.25
413.151	8.25
413.933	9.25
414.715	9.25
415.497	9.25
416.279	8.25
417.061	9.25
417.843	10.25
418.624	9.25
419.406	10.25
420.188	8.25
420.969	11.25
421.751	10.25
422.532	11.25
423.313	10.25
424.095	8.25
424.876	12.25
425.657	11.25
426.438	15.25
427.219	14.25
428	12.25
428.78	15.25
429.561	13.25
430.342	15.25
431.122	12.25
431.903	12.25
432.683	11.25
433.464	18.25
434.244	18.25
435.024	18.25
435.804	18.25
436.584	15.25
437.364	20.25
438.144	21.25
438.924	21.25
439.704	24.25
440.483	21.25
441.263	24.25
442.042	24.25
442.822	27.25
443.601	28.25
444.38	32.25
445.16	33.25
445.939	30.25
446.718	39.25
447.497	39.25
448.276	45.25
449.054	47.25
449.833	52.25
450.612	52.25
451.391	60.25
452.169	66.25
452.948	68.25
453.726	81.25
454.504	87.25
455.282	93.25
456.061	102.25
456.839	109.25
457.617	127.25
458.395	141.25
459.172	153.25
459.95	176.25
460.728	199.25
461.506	220.25
462.283	240.25
463.061	273.25
463.838	299.25
464.615	331.25
465.393	379.25
466.17	415.25
466.947	467.25
467.724	518.25
468.501	574.25
469.278	640.25
470.055	711.25
470.831	789.25
471.608	880.25
472.385	967.25
473.161	1074.25
473.938	1187.25
474.714	1312.25
475.49	1444.25
476.266	1606.25
477.043	1767.25
477.819	1936.25
478.595	2141.25
479.371	2342.25
480.146	2586.25
480.922	2837.25
481.698	3122.25
482.473	3435.25
483.249	3762.25
484.024	4127.25
484.8	4492.25
485.575	4951.25
486.35	5420.25
487.126	5941.25
487.901	6474.25
488.676	7061.25
489.451	7731.25
490.225	8434.25
491	9151.25
491.775	9996.25
492.55	10856.25
493.324	11754.25
494.099	12687.25
494.873	13618.25
495.647	14656.25
496.422	15776.25
497.196	16865.25
497.97	18058.25
498.744	19088.25
499.518	20194.25
500.292	21362.25
501.066	22371.25
501.839	23353.25
502.613	24259.25
503.387	25027.25
504.16	25705.25
504.934	26105.25
505.707	26306.25
506.48	26547.25
507.253	26589.25
508.027	26387.25
508.8	26177.25
509.573	25868.25
510.346	25396.25
511.118	24693.25
511.891	24032.25
512.664	23298.25
513.437	22519.25
514.209	21598.25
514.982	20788.25
515.754	19845.25
516.526	19085.25
517.298	18226.25
518.071	17444.25
518.843	16725.25
519.615	16158.25
520.387	15524.25
521.159	14851.25
521.93	14226.25
522.702	13713.25
523.474	13137.25
524.245	12540.25
525.017	12073.25
525.788	11622.25
526.56	11083.25
527.331	10589.25
528.102	10082.25
528.873	9638.25
529.644	9184.25
530.415	8752.25
531.186	8330.25
531.957	7883.25
532.728	7503.25
533.498	7140.25
534.269	6765.25
535.039	6385.25
535.81	6015.25
536.58	5701.25
537.351	5350.25
538.121	5059.25
538.891	4801.25
539.661	4544.25
540.431	4262.25
541.201	4049.25
541.971	3818.25
542.741	3641.25
543.51	3446.25
544.28	3296.25
545.05	3131.25
545.819	2971.25
546.588	2827.25
547.358	2676.25
548.127	2554.25
548.896	2422.25
549.665	2294.25
550.434	2174.25
551.203	2057.25
551.972	1970.25
552.741	1844.25
553.51	1730.25
554.278	1650.25
555.047	1556.25
555.815	1472.25
556.584	1392.25
557.352	1325.25
558.121	1239.25
558.889	1177.25
559.657	1114.25
560.425	1050.25
561.193	980.25
561.961	938.25
562.729	869.25
563.496	829.25
564.264	781.25
565.032	751.25
565.799	713.25
566.567	660.25
567.334	629.25
568.101	589.25
568.869	557.25
569.636	529.25
570.403	491.25
571.17	470.25
571.937	446.25
572.704	410.25
573.471	394.25
574.237	369.25
575.004	349.25
575.771	337.25
576.537	310.25
577.303	296.25
578.07	282.25
578.836	263.25
579.602	242.25
580.368	232.25
581.134	215.25
581.9	208.25
582.666	196.25
583.432	187.25
584.198	180.25
584.964	170.25
585.729	157.25
586.495	155.25
587.26	141.25
588.025	135.25
588.791	134.25
589.556	122.25
590.321	121.25
591.086	108.25
591.851	104.25
592.616	98.25
593.381	95.25
594.146	91.25
594.911	82.25
595.675	82.25
596.44	79.25
597.204	74.25
597.969	69.25
598.733	69.25
599.497	65.25
600.261	60.25
601.025	61.25
601.79	57.25
602.553	53.25
603.317	54.25
604.081	51.25
604.845	47.25
605.609	46.25
606.372	44.25
607.136	44.25
607.899	39.25
608.662	37.25
609.426	34.25
610.189	40.25
610.952	36.25
611.715	37.25
612.478	33.25
613.241	28.25
614.004	32.25
614.767	27.25
615.529	25.25
616.292	30.25
617.055	27.25
617.817	27.25
618.579	23.25
619.342	22.25
620.104	20.25
620.866	20.25
621.628	18.25
622.39	19.25
623.152	23.25
623.914	17.25
624.676	18.25
625.438	14.25
626.199	17.25
626.961	16.25
627.722	15.25
628.484	16.25
629.245	15.25
630.006	15.25
630.768	15.25
631.529	13.25
632.29	12.25
633.051	12.25
633.812	13.25
634.573	12.25
635.333	12.25
636.094	10.25
636.855	11.25
637.615	11.25
638.376	10.25
639.136	12.25
639.896	11.25
640.657	11.25
641.417	9.25
642.177	10.25
642.937	9.25
643.697	8.25
644.457	9.25
645.216	7.25
645.976	9.25
646.736	10.25
647.495	9.25
648.255	8.25
649.014	9.25
649.774	9.25
650.533	8.25
651.292	9.25
652.051	8.25
652.81	6.25
653.569	7.25
654.328	6.25
655.087	8.25
655.846	7.25
656.604	6.25
657.363	8.25
658.121	5.25
658.88	7.25
659.638	6.25
660.397	6.25
661.155	8.25
661.913	5.25
662.671	4.25
663.429	6.25
664.187	6.25
664.945	5.25
665.703	5.25
666.46	5.25
667.218	5.25
667.976	6.25
668.733	5.25
669.49	4.25
670.248	4.25
671.005	6.25
671.762	4.25
672.519	4.25
673.276	4.25
674.033	2.25
674.79	3.25
675.547	5.25
676.304	3.25
677.06	3.25
677.817	4.25
678.574	6.25
679.33	5.25
680.086	4.25
680.843	3.25
681.599	6.25
682.355	5.25
683.111	4.25
683.867	4.25
684.623	4.25
685.379	2.25
686.135	5.25
686.89	3.25
687.646	4.25
688.402	2.25
689.157	6.25
689.912	3.25
690.668	4.25
691.423	4.25
692.178	3.25
692.933	5.25
693.688	2.25
694.443	6.25
695.198	7.25
695.953	3.25
696.708	3.25
697.462	2.25
698.217	3.25
698.972	5.25
699.726	5.25
700.48	5.25
701.235	2.25
701.989	4.25
702.743	4.25
703.497	4.25
704.251	2.25
705.005	4.25
705.759	5.25
706.513	4.25
707.266	2.25
708.02	3.25
708.774	6.25
709.527	4.25
710.28	4.25
711.034	4.25
711.787	4.25
712.54	3.25
713.293	4.25
714.046	5.25
714.799	7.25
715.552	3.25
716.305	1.25
717.058	4.25
717.81	5.25
718.563	5.25
719.315	4.25
720.068	2.25
720.82	3.25
721.573	5.25
722.325	3.25
723.077	4.25
723.829	4.25
724.581	4.25
725.333	5.25
726.085	3.25
726.836	6.25
727.588	4.25
728.34	5.25
729.091	4.25
729.843	3.25
730.594	4.25
731.346	4.25
732.097	5.25
732.848	4.25
733.599	4.25
734.35	5.25
735.101	3.25
735.852	4.25
736.603	4.25
737.354	6.25
738.104	4.25
738.855	5.25
739.605	5.25
740.356	5.25
741.106	6.25
741.856	5.25
742.607	6.25
743.357	5.25
744.107	4.25
744.857	6.25
745.607	6.25
746.357	5.25
747.106	3.25
747.856	5.25
748.606	4.25
749.355	6.25
750.105	5.25
750.854	4.25
751.603	6.25
752.353	5.25
753.102	2.25
753.851	4.25
754.6	4.25
755.349	5.25
756.098	2.25
756.847	9.25
757.595	6.25
758.344	8.25
759.093	6.25
759.841	6.25
760.589	4.25
761.338	6.25
762.086	6.25
762.834	9.25
763.582	7.25
764.331	8.25
765.079	6.25
765.826	7.25
766.574	9.25
767.322	4.25
768.07	7.25
768.817	6.25
769.565	8.25
770.312	8.25
771.06	8.25
771.807	9.25
772.554	7.25
773.302	7.25
774.049	8.25
774.796	8.25
775.543	5.25
776.29	10.25
777.036	8.25
777.783	8.25
778.53	7.25
779.276	8.25
780.023	10.25
780.769	9.25
781.516	7.25
782.262	7.25
783.008	9.25
783.754	10.25
784.5	8.25
785.246	11.25
785.992	7.25
786.738	9.25
787.484	10.25
788.23	9.25
788.975	8.25
789.721	8.25
790.466	8.25
791.212	9.25
791.957	8.25
792.702	10.25
793.447	8.25
794.193	8.25
794.938	7.25
795.683	8.25
796.427	8.25
797.172	7.25
797.917	7.25
798.662	7.25
799.406	8.25
800.151	6.25
800.895	6.25
801.64	8.25
802.384	7.25
803.128	6.25
803.872	7.25
804.616	8.25
805.36	7.25
806.104	6.25
806.848	5.25
807.592	5.25
808.336	7.25
809.079	8.25
809.823	7.25
810.566	5.25
811.31	7.25
812.053	4.25
812.796	5.25
813.539	6.25
814.283	5.25
815.026	7.25
815.769	5.25
816.511	5.25
817.254	5.25
817.997	2.25
818.74	8.25
819.482	4.25
820.225	3.25
820.967	5.25
821.71	5.25
822.452	5.25
823.194	4.25
823.936	7.25
824.678	5.25
825.42	6.25
826.162	5.25
826.904	5.25
827.646	4.25
828.388	3.25
829.129	5.25
829.871	5.25
830.612	4.25
831.354	5.25
832.095	3.25
832.836	3.25
833.577	3.25
834.319	4.25
835.06	4.25
835.801	2.25
836.542	5.25
837.282	2.25
838.023	5.25
838.764	3.25
839.504	5.25
840.245	6.25
840.985	1.25
841.726	4.25
842.466	2.25
843.206	4.25
843.946	4.25
844.687	1.25
845.427	4.25
846.166	2.25
846.906	3.25
847.646	4.25
848.386	4.25
849.125	4.25
849.865	3.25
850.605	4.25
851.344	3.25
852.083	2.25
852.823	2.25
853.562	3.25
854.301	3.25
855.04	2.25
855.779	2.25
856.518	2.25
857.257	5.25
857.995	1.25
858.734	2.25
859.473	3.25
860.211	1.25
860.95	-1.75
861.688	2.25
862.426	1.25
863.165	3.25
863.903	2.25
864.641	1.25
865.379	1.25
866.117	3.25
866.855	2.25
867.593	1.25
868.33	3.25
869.068	0.25
869.806	2.25
870.543	2.25
871.28	1.25
872.018	0.25
872.755	3.25
873.492	2.25
874.229	0.25
874.967	3.25
875.703	2.25
876.44	0.25
877.177	2.25
877.914	1.25
878.651	3.25
879.387	1.25
880.124	0.25
880.86	1.25
881.597	0.25
882.333	2.25
883.069	1.25
883.806	2.25
884.542	0.25
885.278	1.25
886.014	0.25
886.749	0.25
887.485	2.25
888.221	1.25
888.957	1.25
889.692	2.25
890.428	1.25
891.163	3.25
891.899	-0.75
892.634	2.25
893.369	0.25
894.104	1.25
894.839	-0.75
895.574	1.25
896.309	2.25
897.044	0.25
897.779	4.25
898.514	0.25
899.248	2.25
899.983	2.25
900.717	1.25
901.452	0.25
902.186	0.25
902.92	3.25
903.654	1.25
904.389	1.25
905.123	2.25
905.857	-0.75
906.59	3.25
907.324	1.25
908.058	-0.75
908.792	0.25
909.525	1.25
910.259	2.25
910.992	1.25
911.726	0.25
912.459	1.25
913.192	3.25
913.925	1.25
914.658	0.25
915.391	2.25
916.124	1.25
916.857	1.25
917.59	1.25
918.323	1.25
919.055	3.25
919.788	-0.75
920.521	1.25
921.253	1.25
921.985	-0.75
922.718	1.25
923.45	0.25
924.182	1.25
924.914	3.25
925.646	0.25
926.378	1.25
927.11	2.25
927.841	0.25
928.573	1.25
929.305	-0.75
930.036	2.25
930.768	3.25
931.499	2.25
932.23	0.25
932.962	1.25
933.693	-1.75
934.424	-0.75
935.155	-0.75
935.886	2.25
936.617	0.25
937.348	2.25
938.078	1.25
938.809	0.25
939.54	2.25
940.27	-0.75
941.001	2.25
941.731	1.25
942.461	-0.75
943.191	0.25
943.922	0.25
944.652	2.25
945.382	-0.75
946.112	0.25
946.841	1.25
947.571	1.25
948.301	2.25
949.031	-0.75
949.76	0.25
950.49	2.25
951.219	1.25
951.948	0.25
952.678	-1.75
953.407	2.25
954.136	2.25
954.865	0.25
955.594	2.25
956.323	-1.75
957.052	0.25
957.78	0.25
958.509	0.25
959.238	2.25
959.966	2.25
960.695	2.25
961.423	-1.75
962.151	0.25
962.88	1.25
963.608	0.25
964.336	0.25
965.064	-0.75
965.792	0.25
966.52	1.25
967.247	1.25
967.975	-0.75
968.703	0.25
969.43	1.25
970.158	2.25
970.885	-0.75
971.613	1.25
972.34	2.25
973.067	-2.75
973.794	-0.75
974.521	2.25
975.248	1.25
975.975	-0.75
976.702	3.25
977.429	-0.75
978.156	0.25
978.882	0.25
979.609	2.25
980.335	1.25
981.062	0.25
981.788	-0.75
982.514	0.25
983.24	0.25
983.967	2.25
984.693	2.25
985.419	-0.75
986.144	-1.75
986.87	1.25
987.596	1.25
988.322	0.25
989.047	0.25
989.773	0.25
990.498	-1.75
991.224	2.25
991.949	0.25
992.674	0.25
993.399	1.25
994.124	0.25
994.849	0.25
995.574	1.25
996.299	0.25
997.024	0.25
997.749	1.25
998.473	2.25
999.198	-0.75
999.922	0.25
1000.647	1.25
1001.371	3.25
1002.095	-0.75
1002.82	-0.75
1003.544	-1.75
1004.268	3.25
1004.992	0.25
1005.716	1.25
1006.439	3.25
1007.163	2.25
1007.887	1.25
1008.611	0.25
1009.334	0.25
1010.058	1.25
1010.781	1.25
1011.504	-2.75
1012.228	0.25
1012.951	-0.75
1013.674	0.25
1014.397	-0.75
1015.12	1.25
