节点500_285_QEPB04081__496__15-03-48-418.txt的数据

Date: Wed Nov 12 15:03:48 CST 2025
User: PC
Spectrometer: QEPB0408
触发模式: 0
积分时间 (秒): 1.000000E-2
Scans to average: 1
启用暗噪声校正: true
启用非线性校正: false
滑动平均宽度: 0
X轴模式: Wavelengths
Number of Pixels in Spectrum: 1044
>>>>>Begin Spectral Data<<<<<
220.843	2.75
221.644	1.75
222.444	0.75
223.244	-0.25
224.045	1.75
224.845	3.75
225.645	1.75
226.445	2.75
227.245	1.75
228.045	0.75
228.845	3.75
229.645	2.75
230.444	3.75
231.244	1.75
232.043	3.75
232.843	1.75
233.642	2.75
234.442	0.75
235.241	2.75
236.04	1.75
236.839	1.75
237.638	2.75
238.437	2.75
239.236	4.75
240.035	3.75
240.833	1.75
241.632	4.75
242.43	3.75
243.229	5.75
244.027	5.75
244.826	4.75
245.624	3.75
246.422	7.75
247.22	3.75
248.018	5.75
248.816	5.75
249.614	4.75
250.412	5.75
251.21	6.75
252.007	8.75
252.805	6.75
253.602	5.75
254.4	5.75
255.197	6.75
255.994	9.75
256.791	6.75
257.589	7.75
258.386	7.75
259.183	7.75
259.979	8.75
260.776	9.75
261.573	11.75
262.37	9.75
263.166	10.75
263.963	9.75
264.759	9.75
265.556	11.75
266.352	13.75
267.148	10.75
267.944	11.75
268.74	12.75
269.536	13.75
270.332	12.75
271.128	14.75
271.924	13.75
272.719	13.75
273.515	16.75
274.311	16.75
275.106	15.75
275.901	18.75
276.697	16.75
277.492	15.75
278.287	17.75
279.082	16.75
279.877	15.75
280.672	17.75
281.467	18.75
282.262	17.75
283.056	14.75
283.851	16.75
284.646	15.75
285.44	19.75
286.234	17.75
287.029	19.75
287.823	19.75
288.617	18.75
289.411	17.75
290.205	19.75
290.999	17.75
291.793	17.75
292.587	17.75
293.381	16.75
294.174	13.75
294.968	19.75
295.761	15.75
296.555	16.75
297.348	15.75
298.141	13.75
298.935	17.75
299.728	13.75
300.521	13.75
301.314	13.75
302.107	13.75
302.899	11.75
303.692	12.75
304.485	14.75
305.277	11.75
306.07	11.75
306.862	13.75
307.655	11.75
308.447	10.75
309.239	10.75
310.031	11.75
310.823	11.75
311.615	12.75
312.407	8.75
313.199	10.75
313.991	9.75
314.783	5.75
315.574	6.75
316.366	7.75
317.157	7.75
317.949	9.75
318.74	7.75
319.531	9.75
320.322	6.75
321.113	8.75
321.904	9.75
322.695	5.75
323.486	6.75
324.277	8.75
325.068	8.75
325.858	7.75
326.649	7.75
327.439	8.75
328.23	5.75
329.02	7.75
329.81	5.75
330.6	6.75
331.391	6.75
332.181	6.75
332.971	7.75
333.76	7.75
334.55	6.75
335.34	6.75
336.13	7.75
336.919	3.75
337.709	4.75
338.498	5.75
339.287	5.75
340.077	4.75
340.866	5.75
341.655	3.75
342.444	5.75
343.233	6.75
344.022	5.75
344.811	5.75
345.6	5.75
346.388	4.75
347.177	5.75
347.965	4.75
348.754	2.75
349.542	5.75
350.33	6.75
351.119	5.75
351.907	5.75
352.695	4.75
353.483	3.75
354.271	6.75
355.059	5.75
355.846	4.75
356.634	5.75
357.422	7.75
358.209	3.75
358.997	5.75
359.784	3.75
360.571	6.75
361.359	3.75
362.146	3.75
362.933	6.75
363.72	3.75
364.507	6.75
365.294	5.75
366.081	5.75
366.867	5.75
367.654	4.75
368.44	5.75
369.227	3.75
370.013	5.75
370.8	2.75
371.586	6.75
372.372	4.75
373.158	6.75
373.944	4.75
374.73	4.75
375.516	4.75
376.302	3.75
377.088	4.75
377.873	6.75
378.659	5.75
379.445	2.75
380.23	5.75
381.015	4.75
381.801	4.75
382.586	4.75
383.371	6.75
384.156	5.75
384.941	4.75
385.726	4.75
386.511	4.75
387.296	6.75
388.08	3.75
388.865	4.75
389.649	5.75
390.434	4.75
391.218	5.75
392.003	7.75
392.787	3.75
393.571	5.75
394.355	6.75
395.139	5.75
395.923	5.75
396.707	5.75
397.491	4.75
398.274	8.75
399.058	7.75
399.842	4.75
400.625	6.75
401.408	4.75
402.192	5.75
402.975	6.75
403.758	7.75
404.541	5.75
405.324	9.75
406.107	6.75
406.89	7.75
407.673	10.75
408.456	7.75
409.238	6.75
410.021	7.75
410.803	9.75
411.586	7.75
412.368	7.75
413.151	7.75
413.933	7.75
414.715	6.75
415.497	9.75
416.279	10.75
417.061	9.75
417.843	9.75
418.624	11.75
419.406	11.75
420.188	12.75
420.969	9.75
421.751	8.75
422.532	10.75
423.313	8.75
424.095	11.75
424.876	12.75
425.657	11.75
426.438	9.75
427.219	12.75
428	13.75
428.78	12.75
429.561	13.75
430.342	12.75
431.122	12.75
431.903	13.75
432.683	9.75
433.464	14.75
434.244	16.75
435.024	16.75
435.804	16.75
436.584	17.75
437.364	18.75
438.144	22.75
438.924	19.75
439.704	18.75
440.483	21.75
441.263	23.75
442.042	25.75
442.822	26.75
443.601	24.75
444.38	29.75
445.16	32.75
445.939	34.75
446.718	36.75
447.497	37.75
448.276	42.75
449.054	46.75
449.833	50.75
450.612	52.75
451.391	55.75
452.169	63.75
452.948	69.75
453.726	77.75
454.504	81.75
455.282	89.75
456.061	106.75
456.839	109.75
457.617	128.75
458.395	141.75
459.172	159.75
459.95	172.75
460.728	186.75
461.506	214.75
462.283	240.75
463.061	269.75
463.838	293.75
464.615	333.75
465.393	367.75
466.17	411.75
466.947	457.75
467.724	512.75
468.501	575.75
469.278	635.75
470.055	700.75
470.831	785.75
471.608	862.75
472.385	965.75
473.161	1072.75
473.938	1171.75
474.714	1305.75
475.49	1442.75
476.266	1591.75
477.043	1754.75
477.819	1945.75
478.595	2130.75
479.371	2349.75
480.146	2575.75
480.922	2851.75
481.698	3102.75
482.473	3439.75
483.249	3756.75
484.024	4136.75
484.8	4521.75
485.575	4980.75
486.35	5442.75
487.126	5935.75
487.901	6508.75
488.676	7170.75
489.451	7795.75
490.225	8529.75
491	9283.75
491.775	10156.75
492.55	10988.75
493.324	11955.75
494.099	12811.75
494.873	13804.75
495.647	14920.75
496.422	15978.75
497.196	17095.75
497.97	18243.75
498.744	19402.75
499.518	20485.75
500.292	21597.75
501.066	22676.75
501.839	23633.75
502.613	24566.75
503.387	25350.75
504.16	25945.75
504.934	26411.75
505.707	26642.75
506.48	26856.75
507.253	26851.75
508.027	26618.75
508.8	26356.75
509.573	26052.75
510.346	25465.75
511.118	24811.75
511.891	24064.75
512.664	23333.75
513.437	22493.75
514.209	21590.75
514.982	20768.75
515.754	19837.75
516.526	19009.75
517.298	18174.75
518.071	17373.75
518.843	16707.75
519.615	16089.75
520.387	15471.75
521.159	14877.75
521.93	14274.75
522.702	13696.75
523.474	13125.75
524.245	12572.75
525.017	12007.75
525.788	11601.75
526.56	11069.75
527.331	10541.75
528.102	10109.75
528.873	9639.75
529.644	9197.75
530.415	8739.75
531.186	8281.75
531.957	7861.75
532.728	7481.75
533.498	7103.75
534.269	6708.75
535.039	6354.75
535.81	5983.75
536.58	5687.75
537.351	5332.75
538.121	5044.75
538.891	4779.75
539.661	4492.75
540.431	4270.75
541.201	4011.75
541.971	3806.75
542.741	3596.75
543.51	3446.75
544.28	3268.75
545.05	3111.75
545.819	2966.75
546.588	2809.75
547.358	2649.75
548.127	2545.75
548.896	2414.75
549.665	2287.75
550.434	2167.75
551.203	2059.75
551.972	1938.75
552.741	1829.75
553.51	1741.75
554.278	1648.75
555.047	1545.75
555.815	1464.75
556.584	1390.75
557.352	1299.75
558.121	1238.75
558.889	1155.75
559.657	1106.75
560.425	1043.75
561.193	986.75
561.961	920.75
562.729	868.75
563.496	819.75
564.264	772.75
565.032	746.75
565.799	710.75
566.567	667.75
567.334	625.75
568.101	586.75
568.869	562.75
569.636	519.75
570.403	494.75
571.17	471.75
571.937	439.75
572.704	415.75
573.471	391.75
574.237	365.75
575.004	346.75
575.771	331.75
576.537	304.75
577.303	289.75
578.07	271.75
578.836	254.75
579.602	239.75
580.368	229.75
581.134	220.75
581.9	205.75
582.666	190.75
583.432	184.75
584.198	173.75
584.964	166.75
585.729	159.75
586.495	147.75
587.26	138.75
588.025	132.75
588.791	128.75
589.556	118.75
590.321	110.75
591.086	108.75
591.851	100.75
592.616	96.75
593.381	95.75
594.146	87.75
594.911	87.75
595.675	79.75
596.44	73.75
597.204	73.75
597.969	69.75
598.733	67.75
599.497	64.75
600.261	62.75
601.025	59.75
601.79	52.75
602.553	52.75
603.317	49.75
604.081	46.75
604.845	48.75
605.609	45.75
606.372	42.75
607.136	42.75
607.899	38.75
608.662	35.75
609.426	37.75
610.189	35.75
610.952	32.75
611.715	31.75
612.478	31.75
613.241	30.75
614.004	25.75
614.767	30.75
615.529	27.75
616.292	25.75
617.055	24.75
617.817	21.75
618.579	21.75
619.342	24.75
620.104	21.75
620.866	21.75
621.628	19.75
622.39	19.75
623.152	18.75
623.914	17.75
624.676	17.75
625.438	14.75
626.199	17.75
626.961	14.75
627.722	15.75
628.484	15.75
629.245	13.75
630.006	13.75
630.768	14.75
631.529	14.75
632.29	10.75
633.051	13.75
633.812	12.75
634.573	13.75
635.333	11.75
636.094	9.75
636.855	8.75
637.615	8.75
638.376	10.75
639.136	8.75
639.896	7.75
640.657	9.75
641.417	8.75
642.177	5.75
642.937	7.75
643.697	9.75
644.457	8.75
645.216	6.75
645.976	6.75
646.736	6.75
647.495	8.75
648.255	5.75
649.014	5.75
649.774	5.75
650.533	5.75
651.292	8.75
652.051	6.75
652.81	6.75
653.569	7.75
654.328	5.75
655.087	5.75
655.846	5.75
656.604	6.75
657.363	5.75
658.121	6.75
658.88	3.75
659.638	5.75
660.397	4.75
661.155	5.75
661.913	4.75
662.671	6.75
663.429	5.75
664.187	5.75
664.945	3.75
665.703	4.75
666.46	3.75
667.218	4.75
667.976	3.75
668.733	4.75
669.49	5.75
670.248	2.75
671.005	6.75
671.762	3.75
672.519	4.75
673.276	3.75
674.033	1.75
674.79	3.75
675.547	4.75
676.304	3.75
677.06	5.75
677.817	5.75
678.574	4.75
679.33	1.75
680.086	4.75
680.843	4.75
681.599	2.75
682.355	3.75
683.111	4.75
683.867	2.75
684.623	4.75
685.379	2.75
686.135	1.75
686.89	6.75
687.646	4.75
688.402	1.75
689.157	4.75
689.912	1.75
690.668	4.75
691.423	3.75
692.178	0.75
692.933	2.75
693.688	5.75
694.443	3.75
695.198	2.75
695.953	2.75
696.708	2.75
697.462	4.75
698.217	3.75
698.972	2.75
699.726	3.75
700.48	3.75
701.235	3.75
701.989	3.75
702.743	2.75
703.497	2.75
704.251	3.75
705.005	2.75
705.759	4.75
706.513	0.75
707.266	4.75
708.02	1.75
708.774	3.75
709.527	2.75
710.28	1.75
711.034	1.75
711.787	2.75
712.54	1.75
713.293	1.75
714.046	4.75
714.799	2.75
715.552	1.75
716.305	3.75
717.058	3.75
717.81	2.75
718.563	1.75
719.315	5.75
720.068	2.75
720.82	2.75
721.573	6.75
722.325	1.75
723.077	2.75
723.829	2.75
724.581	2.75
725.333	3.75
726.085	4.75
726.836	4.75
727.588	2.75
728.34	4.75
729.091	3.75
729.843	4.75
730.594	5.75
731.346	1.75
732.097	3.75
732.848	2.75
733.599	3.75
734.35	1.75
735.101	2.75
735.852	4.75
736.603	3.75
737.354	4.75
738.104	4.75
738.855	4.75
739.605	3.75
740.356	5.75
741.106	5.75
741.856	4.75
742.607	3.75
743.357	1.75
744.107	5.75
744.857	4.75
745.607	2.75
746.357	5.75
747.106	3.75
747.856	3.75
748.606	5.75
749.355	6.75
750.105	5.75
750.854	6.75
751.603	5.75
752.353	4.75
753.102	5.75
753.851	5.75
754.6	4.75
755.349	4.75
756.098	4.75
756.847	6.75
757.595	3.75
758.344	4.75
759.093	4.75
759.841	6.75
760.589	5.75
761.338	4.75
762.086	5.75
762.834	4.75
763.582	9.75
764.331	7.75
765.079	1.75
765.826	6.75
766.574	4.75
767.322	6.75
768.07	5.75
768.817	5.75
769.565	4.75
770.312	5.75
771.06	5.75
771.807	5.75
772.554	6.75
773.302	6.75
774.049	6.75
774.796	7.75
775.543	5.75
776.29	6.75
777.036	8.75
777.783	7.75
778.53	7.75
779.276	6.75
780.023	7.75
780.769	7.75
781.516	8.75
782.262	9.75
783.008	7.75
783.754	9.75
784.5	7.75
785.246	9.75
785.992	7.75
786.738	9.75
787.484	9.75
788.23	8.75
788.975	8.75
789.721	8.75
790.466	9.75
791.212	7.75
791.957	7.75
792.702	6.75
793.447	9.75
794.193	6.75
794.938	6.75
795.683	7.75
796.427	9.75
797.172	7.75
797.917	6.75
798.662	8.75
799.406	7.75
800.151	2.75
800.895	6.75
801.64	4.75
802.384	4.75
803.128	6.75
803.872	3.75
804.616	6.75
805.36	6.75
806.104	6.75
806.848	4.75
807.592	5.75
808.336	5.75
809.079	5.75
809.823	6.75
810.566	5.75
811.31	3.75
812.053	5.75
812.796	3.75
813.539	4.75
814.283	4.75
815.026	4.75
815.769	3.75
816.511	6.75
817.254	5.75
817.997	3.75
818.74	5.75
819.482	6.75
820.225	4.75
820.967	3.75
821.71	3.75
822.452	2.75
823.194	4.75
823.936	5.75
824.678	2.75
825.42	3.75
826.162	1.75
826.904	2.75
827.646	5.75
828.388	1.75
829.129	4.75
829.871	4.75
830.612	2.75
831.354	2.75
832.095	2.75
832.836	1.75
833.577	3.75
834.319	6.75
835.06	3.75
835.801	2.75
836.542	3.75
837.282	0.75
838.023	4.75
838.764	0.75
839.504	2.75
840.245	4.75
840.985	4.75
841.726	2.75
842.466	2.75
843.206	4.75
843.946	2.75
844.687	3.75
845.427	2.75
846.166	2.75
846.906	2.75
847.646	3.75
848.386	0.75
849.125	2.75
849.865	3.75
850.605	1.75
851.344	1.75
852.083	0.75
852.823	2.75
853.562	2.75
854.301	2.75
855.04	4.75
855.779	3.75
856.518	1.75
857.257	3.75
857.995	2.75
858.734	1.75
859.473	3.75
860.211	2.75
860.95	0.75
861.688	0.75
862.426	4.75
863.165	2.75
863.903	0.75
864.641	0.75
865.379	0.75
866.117	1.75
866.855	1.75
867.593	2.75
868.33	2.75
869.068	0.75
869.806	-0.25
870.543	-0.25
871.28	1.75
872.018	1.75
872.755	0.75
873.492	1.75
874.229	-1.25
874.967	1.75
875.703	1.75
876.44	1.75
877.177	1.75
877.914	0.75
878.651	0.75
879.387	2.75
880.124	2.75
880.86	-0.25
881.597	1.75
882.333	1.75
883.069	1.75
883.806	1.75
884.542	0.75
885.278	0.75
886.014	1.75
886.749	3.75
887.485	1.75
888.221	0.75
888.957	0.75
889.692	0.75
890.428	3.75
891.163	-2.25
891.899	0.75
892.634	0.75
893.369	0.75
894.104	-1.25
894.839	-1.25
895.574	0.75
896.309	1.75
897.044	1.75
897.779	1.75
898.514	-1.25
899.248	-0.25
899.983	0.75
900.717	0.75
901.452	1.75
902.186	-0.25
902.92	-0.25
903.654	1.75
904.389	0.75
905.123	-0.25
905.857	-1.25
906.59	1.75
907.324	-0.25
908.058	-0.25
908.792	0.75
909.525	1.75
910.259	1.75
910.992	1.75
911.726	-1.25
912.459	-0.25
913.192	0.75
913.925	-0.25
914.658	-1.25
915.391	0.75
916.124	0.75
916.857	-1.25
917.59	-0.25
918.323	1.75
919.055	-1.25
919.788	-0.25
920.521	0.75
921.253	0.75
921.985	0.75
922.718	-0.25
923.45	-1.25
924.182	-1.25
924.914	-1.25
925.646	-0.25
926.378	-0.25
927.11	-0.25
927.841	-1.25
928.573	-0.25
929.305	0.75
930.036	-2.25
930.768	1.75
931.499	-0.25
932.23	-0.25
932.962	-1.25
933.693	1.75
934.424	0.75
935.155	-0.25
935.886	1.75
936.617	0.75
937.348	-0.25
938.078	0.75
938.809	-1.25
939.54	0.75
940.27	1.75
941.001	0.75
941.731	-1.25
942.461	-0.25
943.191	-0.25
943.922	-0.25
944.652	-1.25
945.382	-0.25
946.112	-1.25
946.841	1.75
947.571	-0.25
948.301	-0.25
949.031	-2.25
949.76	-2.25
950.49	-0.25
951.219	-0.25
951.948	1.75
952.678	1.75
953.407	1.75
954.136	-1.25
954.865	2.75
955.594	-0.25
956.323	0.75
957.052	-0.25
957.78	-0.25
958.509	1.75
959.238	1.75
959.966	0.75
960.695	1.75
961.423	-0.25
962.151	-2.25
962.88	-0.25
963.608	0.75
964.336	-0.25
965.064	0.75
965.792	-0.25
966.52	1.75
967.247	-2.25
967.975	1.75
968.703	0.75
969.43	-0.25
970.158	-0.25
970.885	0.75
971.613	-3.25
972.34	1.75
973.067	-1.25
973.794	1.75
974.521	-0.25
975.248	3.75
975.975	0.75
976.702	-0.25
977.429	-0.25
978.156	0.75
978.882	-0.25
979.609	-0.25
980.335	-0.25
981.062	1.75
981.788	-2.25
982.514	-0.25
983.24	0.75
983.967	-0.25
984.693	1.75
985.419	1.75
986.144	-2.25
986.87	1.75
987.596	0.75
988.322	-0.25
989.047	0.75
989.773	0.75
990.498	-0.25
991.224	-0.25
991.949	-0.25
992.674	-0.25
993.399	-1.25
994.124	-0.25
994.849	0.75
995.574	0.75
996.299	-0.25
997.024	0.75
997.749	0.75
998.473	2.75
999.198	-1.25
999.922	0.75
1000.647	0.75
1001.371	3.75
1002.095	-1.25
1002.82	-2.25
1003.544	-0.25
1004.268	2.75
1004.992	1.75
1005.716	0.75
1006.439	-0.25
1007.163	1.75
1007.887	-1.25
1008.611	0.75
1009.334	0.75
1010.058	-0.25
1010.781	0.75
1011.504	-0.25
1012.228	3.75
1012.951	0.75
1013.674	-1.25
1014.397	-0.25
1015.12	0.75
