节点500_285_QEPB04081__516__15-04-08-341.txt的数据

Date: Wed Nov 12 15:04:08 CST 2025
User: PC
Spectrometer: QEPB0408
触发模式: 0
积分时间 (秒): 1.000000E-2
Scans to average: 1
启用暗噪声校正: true
启用非线性校正: false
滑动平均宽度: 0
X轴模式: Wavelengths
Number of Pixels in Spectrum: 1044
>>>>>Begin Spectral Data<<<<<
220.843	1.38
221.644	2.38
222.444	1.38
223.244	0.38
224.045	1.38
224.845	1.38
225.645	0.38
226.445	1.38
227.245	3.38
228.045	2.38
228.845	2.38
229.645	3.38
230.444	1.38
231.244	4.38
232.043	3.38
232.843	3.38
233.642	3.38
234.442	5.38
235.241	3.38
236.04	3.38
236.839	4.38
237.638	0.38
238.437	3.38
239.236	2.38
240.035	4.38
240.833	2.38
241.632	4.38
242.43	4.38
243.229	2.38
244.027	6.38
244.826	2.38
245.624	3.38
246.422	5.38
247.22	5.38
248.018	3.38
248.816	5.38
249.614	6.38
250.412	6.38
251.21	5.38
252.007	7.38
252.805	7.38
253.602	7.38
254.4	4.38
255.197	5.38
255.994	6.38
256.791	6.38
257.589	8.38
258.386	8.38
259.183	9.38
259.979	8.38
260.776	9.38
261.573	8.38
262.37	9.38
263.166	8.38
263.963	12.38
264.759	12.38
265.556	6.38
266.352	11.38
267.148	9.38
267.944	12.38
268.74	12.38
269.536	13.38
270.332	15.38
271.128	13.38
271.924	12.38
272.719	15.38
273.515	15.38
274.311	12.38
275.106	14.38
275.901	13.38
276.697	16.38
277.492	17.38
278.287	17.38
279.082	18.38
279.877	17.38
280.672	17.38
281.467	16.38
282.262	15.38
283.056	16.38
283.851	16.38
284.646	15.38
285.44	17.38
286.234	18.38
287.029	18.38
287.823	18.38
288.617	16.38
289.411	19.38
290.205	17.38
290.999	17.38
291.793	15.38
292.587	15.38
293.381	17.38
294.174	15.38
294.968	15.38
295.761	16.38
296.555	15.38
297.348	12.38
298.141	12.38
298.935	15.38
299.728	15.38
300.521	13.38
301.314	11.38
302.107	13.38
302.899	13.38
303.692	13.38
304.485	11.38
305.277	9.38
306.07	11.38
306.862	11.38
307.655	11.38
308.447	13.38
309.239	9.38
310.031	14.38
310.823	11.38
311.615	9.38
312.407	11.38
313.199	6.38
313.991	9.38
314.783	9.38
315.574	9.38
316.366	6.38
317.157	6.38
317.949	7.38
318.74	7.38
319.531	5.38
320.322	8.38
321.113	8.38
321.904	8.38
322.695	5.38
323.486	8.38
324.277	6.38
325.068	6.38
325.858	7.38
326.649	7.38
327.439	6.38
328.23	6.38
329.02	6.38
329.81	6.38
330.6	5.38
331.391	6.38
332.181	7.38
332.971	5.38
333.76	6.38
334.55	6.38
335.34	6.38
336.13	5.38
336.919	5.38
337.709	5.38
338.498	7.38
339.287	7.38
340.077	6.38
340.866	6.38
341.655	5.38
342.444	5.38
343.233	4.38
344.022	6.38
344.811	3.38
345.6	7.38
346.388	5.38
347.177	4.38
347.965	5.38
348.754	6.38
349.542	4.38
350.33	6.38
351.119	3.38
351.907	6.38
352.695	4.38
353.483	6.38
354.271	7.38
355.059	3.38
355.846	6.38
356.634	4.38
357.422	5.38
358.209	3.38
358.997	3.38
359.784	4.38
360.571	4.38
361.359	5.38
362.146	5.38
362.933	6.38
363.72	4.38
364.507	7.38
365.294	5.38
366.081	2.38
366.867	5.38
367.654	4.38
368.44	1.38
369.227	5.38
370.013	6.38
370.8	4.38
371.586	3.38
372.372	4.38
373.158	4.38
373.944	6.38
374.73	5.38
375.516	4.38
376.302	4.38
377.088	3.38
377.873	4.38
378.659	4.38
379.445	3.38
380.23	4.38
381.015	5.38
381.801	5.38
382.586	4.38
383.371	6.38
384.156	4.38
384.941	7.38
385.726	3.38
386.511	3.38
387.296	4.38
388.08	4.38
388.865	3.38
389.649	6.38
390.434	3.38
391.218	6.38
392.003	7.38
392.787	5.38
393.571	4.38
394.355	4.38
395.139	6.38
395.923	6.38
396.707	4.38
397.491	4.38
398.274	5.38
399.058	6.38
399.842	5.38
400.625	6.38
401.408	5.38
402.192	7.38
402.975	7.38
403.758	7.38
404.541	5.38
405.324	8.38
406.107	6.38
406.89	5.38
407.673	6.38
408.456	6.38
409.238	4.38
410.021	7.38
410.803	9.38
411.586	10.38
412.368	6.38
413.151	9.38
413.933	10.38
414.715	10.38
415.497	9.38
416.279	9.38
417.061	9.38
417.843	8.38
418.624	9.38
419.406	9.38
420.188	9.38
420.969	9.38
421.751	9.38
422.532	9.38
423.313	9.38
424.095	11.38
424.876	11.38
425.657	9.38
426.438	11.38
427.219	12.38
428	13.38
428.78	13.38
429.561	12.38
430.342	13.38
431.122	13.38
431.903	15.38
432.683	11.38
433.464	15.38
434.244	18.38
435.024	16.38
435.804	15.38
436.584	13.38
437.364	18.38
438.144	16.38
438.924	20.38
439.704	22.38
440.483	20.38
441.263	23.38
442.042	23.38
442.822	26.38
443.601	25.38
444.38	30.38
445.16	30.38
445.939	32.38
446.718	35.38
447.497	39.38
448.276	40.38
449.054	47.38
449.833	46.38
450.612	53.38
451.391	59.38
452.169	64.38
452.948	64.38
453.726	75.38
454.504	86.38
455.282	95.38
456.061	102.38
456.839	118.38
457.617	129.38
458.395	141.38
459.172	152.38
459.95	180.38
460.728	189.38
461.506	208.38
462.283	244.38
463.061	269.38
463.838	301.38
464.615	335.38
465.393	372.38
466.17	422.38
466.947	457.38
467.724	515.38
468.501	575.38
469.278	629.38
470.055	700.38
470.831	776.38
471.608	868.38
472.385	975.38
473.161	1061.38
473.938	1182.38
474.714	1317.38
475.49	1436.38
476.266	1591.38
477.043	1756.38
477.819	1948.38
478.595	2134.38
479.371	2337.38
480.146	2577.38
480.922	2845.38
481.698	3095.38
482.473	3442.38
483.249	3751.38
484.024	4106.38
484.8	4537.38
485.575	4957.38
486.35	5422.38
487.126	5919.38
487.901	6493.38
488.676	7062.38
489.451	7765.38
490.225	8460.38
491	9223.38
491.775	10051.38
492.55	10921.38
493.324	11833.38
494.099	12756.38
494.873	13701.38
495.647	14784.38
496.422	15865.38
497.196	16982.38
497.97	18150.38
498.744	19270.38
499.518	20336.38
500.292	21454.38
501.066	22489.38
501.839	23443.38
502.613	24441.38
503.387	25212.38
504.16	25876.38
504.934	26243.38
505.707	26449.38
506.48	26690.38
507.253	26733.38
508.027	26428.38
508.8	26287.38
509.573	25937.38
510.346	25370.38
511.118	24730.38
511.891	24045.38
512.664	23306.38
513.437	22464.38
514.209	21598.38
514.982	20789.38
515.754	19864.38
516.526	19003.38
517.298	18139.38
518.071	17394.38
518.843	16784.38
519.615	16132.38
520.387	15471.38
521.159	14848.38
521.93	14250.38
522.702	13719.38
523.474	13139.38
524.245	12576.38
525.017	12048.38
525.788	11615.38
526.56	11088.38
527.331	10588.38
528.102	10114.38
528.873	9633.38
529.644	9162.38
530.415	8776.38
531.186	8271.38
531.957	7879.38
532.728	7541.38
533.498	7137.38
534.269	6721.38
535.039	6338.38
535.81	5997.38
536.58	5653.38
537.351	5372.38
538.121	5043.38
538.891	4812.38
539.661	4569.38
540.431	4297.38
541.201	4012.38
541.971	3831.38
542.741	3667.38
543.51	3460.38
544.28	3287.38
545.05	3126.38
545.819	2972.38
546.588	2841.38
547.358	2666.38
548.127	2553.38
548.896	2411.38
549.665	2297.38
550.434	2183.38
551.203	2060.38
551.972	1966.38
552.741	1839.38
553.51	1745.38
554.278	1648.38
555.047	1549.38
555.815	1467.38
556.584	1379.38
557.352	1313.38
558.121	1230.38
558.889	1162.38
559.657	1108.38
560.425	1048.38
561.193	989.38
561.961	928.38
562.729	878.38
563.496	836.38
564.264	776.38
565.032	738.38
565.799	705.38
566.567	665.38
567.334	636.38
568.101	603.38
568.869	550.38
569.636	524.38
570.403	491.38
571.17	463.38
571.937	446.38
572.704	414.38
573.471	390.38
574.237	374.38
575.004	360.38
575.771	331.38
576.537	306.38
577.303	291.38
578.07	269.38
578.836	257.38
579.602	242.38
580.368	231.38
581.134	220.38
581.9	204.38
582.666	200.38
583.432	192.38
584.198	171.38
584.964	164.38
585.729	156.38
586.495	155.38
587.26	139.38
588.025	140.38
588.791	127.38
589.556	120.38
590.321	114.38
591.086	113.38
591.851	102.38
592.616	95.38
593.381	91.38
594.146	91.38
594.911	81.38
595.675	79.38
596.44	76.38
597.204	74.38
597.969	69.38
598.733	65.38
599.497	62.38
600.261	60.38
601.025	58.38
601.79	55.38
602.553	54.38
603.317	49.38
604.081	50.38
604.845	45.38
605.609	45.38
606.372	42.38
607.136	43.38
607.899	40.38
608.662	36.38
609.426	39.38
610.189	33.38
610.952	32.38
611.715	32.38
612.478	32.38
613.241	25.38
614.004	29.38
614.767	26.38
615.529	27.38
616.292	24.38
617.055	25.38
617.817	24.38
618.579	24.38
619.342	21.38
620.104	20.38
620.866	22.38
621.628	20.38
622.39	19.38
623.152	19.38
623.914	18.38
624.676	18.38
625.438	15.38
626.199	18.38
626.961	16.38
627.722	14.38
628.484	17.38
629.245	14.38
630.006	13.38
630.768	13.38
631.529	12.38
632.29	13.38
633.051	9.38
633.812	14.38
634.573	10.38
635.333	10.38
636.094	9.38
636.855	10.38
637.615	10.38
638.376	6.38
639.136	10.38
639.896	8.38
640.657	11.38
641.417	10.38
642.177	7.38
642.937	9.38
643.697	10.38
644.457	8.38
645.216	9.38
645.976	7.38
646.736	8.38
647.495	6.38
648.255	7.38
649.014	8.38
649.774	5.38
650.533	7.38
651.292	7.38
652.051	7.38
652.81	3.38
653.569	7.38
654.328	4.38
655.087	4.38
655.846	5.38
656.604	6.38
657.363	7.38
658.121	5.38
658.88	5.38
659.638	5.38
660.397	7.38
661.155	5.38
661.913	7.38
662.671	5.38
663.429	1.38
664.187	5.38
664.945	4.38
665.703	7.38
666.46	4.38
667.218	4.38
667.976	4.38
668.733	5.38
669.49	5.38
670.248	5.38
671.005	3.38
671.762	3.38
672.519	4.38
673.276	4.38
674.033	2.38
674.79	2.38
675.547	4.38
676.304	4.38
677.06	4.38
677.817	5.38
678.574	4.38
679.33	3.38
680.086	3.38
680.843	2.38
681.599	3.38
682.355	3.38
683.111	1.38
683.867	3.38
684.623	4.38
685.379	1.38
686.135	4.38
686.89	2.38
687.646	3.38
688.402	1.38
689.157	2.38
689.912	4.38
690.668	1.38
691.423	5.38
692.178	2.38
692.933	4.38
693.688	2.38
694.443	4.38
695.198	3.38
695.953	4.38
696.708	5.38
697.462	2.38
698.217	5.38
698.972	2.38
699.726	3.38
700.48	3.38
701.235	2.38
701.989	2.38
702.743	1.38
703.497	1.38
704.251	1.38
705.005	2.38
705.759	3.38
706.513	2.38
707.266	3.38
708.02	3.38
708.774	2.38
709.527	3.38
710.28	1.38
711.034	3.38
711.787	1.38
712.54	2.38
713.293	3.38
714.046	3.38
714.799	4.38
715.552	1.38
716.305	1.38
717.058	1.38
717.81	4.38
718.563	2.38
719.315	6.38
720.068	2.38
720.82	3.38
721.573	4.38
722.325	2.38
723.077	4.38
723.829	3.38
724.581	-0.62
725.333	5.38
726.085	2.38
726.836	3.38
727.588	3.38
728.34	2.38
729.091	4.38
729.843	4.38
730.594	3.38
731.346	2.38
732.097	3.38
732.848	4.38
733.599	5.38
734.35	4.38
735.101	3.38
735.852	1.38
736.603	4.38
737.354	4.38
738.104	4.38
738.855	3.38
739.605	3.38
740.356	0.38
741.106	3.38
741.856	4.38
742.607	4.38
743.357	4.38
744.107	2.38
744.857	1.38
745.607	5.38
746.357	4.38
747.106	5.38
747.856	2.38
748.606	4.38
749.355	2.38
750.105	6.38
750.854	5.38
751.603	3.38
752.353	4.38
753.102	4.38
753.851	5.38
754.6	5.38
755.349	5.38
756.098	5.38
756.847	4.38
757.595	4.38
758.344	4.38
759.093	7.38
759.841	5.38
760.589	5.38
761.338	4.38
762.086	7.38
762.834	5.38
763.582	6.38
764.331	6.38
765.079	6.38
765.826	6.38
766.574	7.38
767.322	8.38
768.07	5.38
768.817	7.38
769.565	8.38
770.312	6.38
771.06	5.38
771.807	5.38
772.554	5.38
773.302	7.38
774.049	5.38
774.796	5.38
775.543	6.38
776.29	9.38
777.036	7.38
777.783	7.38
778.53	9.38
779.276	7.38
780.023	6.38
780.769	9.38
781.516	8.38
782.262	8.38
783.008	8.38
783.754	9.38
784.5	7.38
785.246	9.38
785.992	8.38
786.738	8.38
787.484	7.38
788.23	5.38
788.975	9.38
789.721	10.38
790.466	5.38
791.212	6.38
791.957	9.38
792.702	8.38
793.447	7.38
794.193	9.38
794.938	7.38
795.683	8.38
796.427	7.38
797.172	6.38
797.917	7.38
798.662	10.38
799.406	7.38
800.151	6.38
800.895	6.38
801.64	6.38
802.384	7.38
803.128	5.38
803.872	10.38
804.616	8.38
805.36	7.38
806.104	3.38
806.848	4.38
807.592	6.38
808.336	7.38
809.079	4.38
809.823	8.38
810.566	2.38
811.31	2.38
812.053	6.38
812.796	4.38
813.539	5.38
814.283	6.38
815.026	5.38
815.769	5.38
816.511	5.38
817.254	4.38
817.997	4.38
818.74	3.38
819.482	5.38
820.225	2.38
820.967	3.38
821.71	2.38
822.452	4.38
823.194	2.38
823.936	3.38
824.678	6.38
825.42	4.38
826.162	3.38
826.904	3.38
827.646	4.38
828.388	3.38
829.129	3.38
829.871	3.38
830.612	3.38
831.354	3.38
832.095	3.38
832.836	4.38
833.577	3.38
834.319	3.38
835.06	4.38
835.801	2.38
836.542	1.38
837.282	1.38
838.023	1.38
838.764	5.38
839.504	3.38
840.245	3.38
840.985	0.38
841.726	3.38
842.466	3.38
843.206	2.38
843.946	5.38
844.687	4.38
845.427	2.38
846.166	3.38
846.906	3.38
847.646	2.38
848.386	1.38
849.125	2.38
849.865	3.38
850.605	1.38
851.344	2.38
852.083	0.38
852.823	1.38
853.562	0.38
854.301	0.38
855.04	2.38
855.779	2.38
856.518	1.38
857.257	1.38
857.995	1.38
858.734	1.38
859.473	1.38
860.211	1.38
860.95	2.38
861.688	1.38
862.426	0.38
863.165	3.38
863.903	2.38
864.641	3.38
865.379	-0.62
866.117	2.38
866.855	1.38
867.593	0.38
868.33	2.38
869.068	1.38
869.806	1.38
870.543	2.38
871.28	0.38
872.018	0.38
872.755	0.38
873.492	0.38
874.229	1.38
874.967	2.38
875.703	1.38
876.44	1.38
877.177	1.38
877.914	-0.62
878.651	0.38
879.387	-0.62
880.124	-2.62
880.86	0.38
881.597	1.38
882.333	0.38
883.069	-0.62
883.806	2.38
884.542	-0.62
885.278	1.38
886.014	1.38
886.749	0.38
887.485	1.38
888.221	-0.62
888.957	1.38
889.692	-0.62
890.428	-0.62
891.163	-0.62
891.899	-1.62
892.634	3.38
893.369	-0.62
894.104	0.38
894.839	1.38
895.574	-0.62
896.309	0.38
897.044	0.38
897.779	1.38
898.514	-0.62
899.248	-0.62
899.983	-0.62
900.717	0.38
901.452	1.38
902.186	0.38
902.92	-0.62
903.654	0.38
904.389	-0.62
905.123	0.38
905.857	-0.62
906.59	0.38
907.324	-1.62
908.058	1.38
908.792	-0.62
909.525	0.38
910.259	1.38
910.992	0.38
911.726	1.38
912.459	-1.62
913.192	-0.62
913.925	0.38
914.658	-0.62
915.391	-1.62
916.124	-0.62
916.857	1.38
917.59	-1.62
918.323	1.38
919.055	0.38
919.788	0.38
920.521	-1.62
921.253	2.38
921.985	1.38
922.718	-0.62
923.45	-0.62
924.182	-0.62
924.914	-0.62
925.646	0.38
926.378	-1.62
927.11	-0.62
927.841	1.38
928.573	-1.62
929.305	-0.62
930.036	-1.62
930.768	1.38
931.499	0.38
932.23	-0.62
932.962	1.38
933.693	-1.62
934.424	-1.62
935.155	0.38
935.886	-2.62
936.617	-2.62
937.348	-0.62
938.078	-0.62
938.809	-1.62
939.54	0.38
940.27	0.38
941.001	0.38
941.731	-0.62
942.461	0.38
943.191	1.38
943.922	-0.62
944.652	-1.62
945.382	-0.62
946.112	-1.62
946.841	-0.62
947.571	-1.62
948.301	0.38
949.031	-0.62
949.76	-0.62
950.49	0.38
951.219	-1.62
951.948	-0.62
952.678	0.38
953.407	0.38
954.136	0.38
954.865	-1.62
955.594	-0.62
956.323	-1.62
957.052	2.38
957.78	0.38
958.509	1.38
959.238	-0.62
959.966	-1.62
960.695	0.38
961.423	1.38
962.151	1.38
962.88	-1.62
963.608	0.38
964.336	-0.62
965.064	-0.62
965.792	0.38
966.52	-1.62
967.247	2.38
967.975	-3.62
968.703	-1.62
969.43	0.38
970.158	-1.62
970.885	-1.62
971.613	0.38
972.34	0.38
973.067	-0.62
973.794	0.38
974.521	0.38
975.248	-2.62
975.975	0.38
976.702	-0.62
977.429	-0.62
978.156	1.38
978.882	-0.62
979.609	0.38
980.335	-1.62
981.062	-0.62
981.788	-0.62
982.514	0.38
983.24	0.38
983.967	-0.62
984.693	-0.62
985.419	-2.62
986.144	0.38
986.87	0.38
987.596	-2.62
988.322	0.38
989.047	-1.62
989.773	-0.62
990.498	-1.62
991.224	0.38
991.949	-0.62
992.674	-2.62
993.399	0.38
994.124	0.38
994.849	-2.62
995.574	1.38
996.299	-2.62
997.024	-1.62
997.749	-2.62
998.473	-1.62
999.198	0.38
999.922	0.38
1000.647	0.38
1001.371	4.38
1002.095	-0.62
1002.82	-1.62
1003.544	0.38
1004.268	0.38
1004.992	1.38
1005.716	0.38
1006.439	1.38
1007.163	0.38
1007.887	2.38
1008.611	-1.62
1009.334	1.38
1010.058	-1.62
1010.781	1.38
1011.504	0.38
1012.228	-0.62
1012.951	-0.62
1013.674	0.38
1014.397	1.38
1015.12	-3.62
