节点500_285_QEPB04081__244__14-59-36-926.txt的数据

Date: Wed Nov 12 14:59:36 CST 2025
User: PC
Spectrometer: QEPB0408
触发模式: 0
积分时间 (秒): 1.000000E-2
Scans to average: 1
启用暗噪声校正: true
启用非线性校正: false
滑动平均宽度: 0
X轴模式: Wavelengths
Number of Pixels in Spectrum: 1044
>>>>>Begin Spectral Data<<<<<
220.843	1.25
221.644	-0.75
222.444	1.25
223.244	1.25
224.045	4.25
224.845	2.25
225.645	1.25
226.445	2.25
227.245	0.25
228.045	2.25
228.845	4.25
229.645	1.25
230.444	1.25
231.244	2.25
232.043	3.25
232.843	3.25
233.642	4.25
234.442	1.25
235.241	2.25
236.04	5.25
236.839	1.25
237.638	3.25
238.437	4.25
239.236	6.25
240.035	3.25
240.833	5.25
241.632	6.25
242.43	5.25
243.229	4.25
244.027	5.25
244.826	3.25
245.624	4.25
246.422	4.25
247.22	6.25
248.018	6.25
248.816	6.25
249.614	6.25
250.412	7.25
251.21	5.25
252.007	6.25
252.805	8.25
253.602	8.25
254.4	7.25
255.197	10.25
255.994	8.25
256.791	10.25
257.589	9.25
258.386	9.25
259.183	9.25
259.979	7.25
260.776	13.25
261.573	9.25
262.37	13.25
263.166	11.25
263.963	9.25
264.759	10.25
265.556	10.25
266.352	14.25
267.148	13.25
267.944	12.25
268.74	14.25
269.536	13.25
270.332	15.25
271.128	13.25
271.924	13.25
272.719	14.25
273.515	13.25
274.311	18.25
275.106	19.25
275.901	15.25
276.697	18.25
277.492	19.25
278.287	17.25
279.082	18.25
279.877	20.25
280.672	19.25
281.467	20.25
282.262	17.25
283.056	19.25
283.851	19.25
284.646	18.25
285.44	19.25
286.234	17.25
287.029	16.25
287.823	20.25
288.617	16.25
289.411	19.25
290.205	15.25
290.999	17.25
291.793	16.25
292.587	17.25
293.381	18.25
294.174	17.25
294.968	18.25
295.761	18.25
296.555	12.25
297.348	13.25
298.141	17.25
298.935	17.25
299.728	15.25
300.521	15.25
301.314	13.25
302.107	13.25
302.899	11.25
303.692	12.25
304.485	13.25
305.277	14.25
306.07	14.25
306.862	10.25
307.655	12.25
308.447	13.25
309.239	12.25
310.031	13.25
310.823	7.25
311.615	11.25
312.407	13.25
313.199	9.25
313.991	9.25
314.783	9.25
315.574	9.25
316.366	9.25
317.157	8.25
317.949	8.25
318.74	8.25
319.531	7.25
320.322	6.25
321.113	7.25
321.904	4.25
322.695	8.25
323.486	6.25
324.277	8.25
325.068	6.25
325.858	7.25
326.649	8.25
327.439	6.25
328.23	6.25
329.02	8.25
329.81	5.25
330.6	6.25
331.391	6.25
332.181	10.25
332.971	8.25
333.76	4.25
334.55	5.25
335.34	5.25
336.13	6.25
336.919	8.25
337.709	6.25
338.498	5.25
339.287	10.25
340.077	6.25
340.866	3.25
341.655	7.25
342.444	5.25
343.233	7.25
344.022	6.25
344.811	3.25
345.6	6.25
346.388	7.25
347.177	7.25
347.965	6.25
348.754	5.25
349.542	7.25
350.33	6.25
351.119	6.25
351.907	5.25
352.695	4.25
353.483	7.25
354.271	4.25
355.059	6.25
355.846	4.25
356.634	6.25
357.422	4.25
358.209	4.25
358.997	6.25
359.784	4.25
360.571	5.25
361.359	6.25
362.146	6.25
362.933	7.25
363.72	5.25
364.507	6.25
365.294	7.25
366.081	7.25
366.867	5.25
367.654	4.25
368.44	5.25
369.227	5.25
370.013	6.25
370.8	4.25
371.586	3.25
372.372	3.25
373.158	4.25
373.944	6.25
374.73	5.25
375.516	5.25
376.302	7.25
377.088	5.25
377.873	4.25
378.659	4.25
379.445	6.25
380.23	3.25
381.015	4.25
381.801	4.25
382.586	5.25
383.371	6.25
384.156	4.25
384.941	4.25
385.726	5.25
386.511	4.25
387.296	6.25
388.08	5.25
388.865	5.25
389.649	4.25
390.434	5.25
391.218	7.25
392.003	4.25
392.787	8.25
393.571	5.25
394.355	4.25
395.139	6.25
395.923	6.25
396.707	6.25
397.491	7.25
398.274	7.25
399.058	6.25
399.842	5.25
400.625	8.25
401.408	5.25
402.192	8.25
402.975	6.25
403.758	9.25
404.541	6.25
405.324	5.25
406.107	7.25
406.89	8.25
407.673	8.25
408.456	7.25
409.238	5.25
410.021	10.25
410.803	5.25
411.586	10.25
412.368	8.25
413.151	9.25
413.933	8.25
414.715	9.25
415.497	9.25
416.279	10.25
417.061	7.25
417.843	9.25
418.624	10.25
419.406	11.25
420.188	10.25
420.969	9.25
421.751	13.25
422.532	10.25
423.313	9.25
424.095	9.25
424.876	11.25
425.657	10.25
426.438	13.25
427.219	13.25
428	12.25
428.78	12.25
429.561	12.25
430.342	11.25
431.122	13.25
431.903	14.25
432.683	15.25
433.464	14.25
434.244	18.25
435.024	15.25
435.804	16.25
436.584	18.25
437.364	20.25
438.144	22.25
438.924	23.25
439.704	22.25
440.483	22.25
441.263	23.25
442.042	26.25
442.822	27.25
443.601	28.25
444.38	29.25
445.16	33.25
445.939	32.25
446.718	35.25
447.497	38.25
448.276	42.25
449.054	41.25
449.833	46.25
450.612	52.25
451.391	52.25
452.169	59.25
452.948	67.25
453.726	69.25
454.504	80.25
455.282	86.25
456.061	100.25
456.839	104.25
457.617	119.25
458.395	132.25
459.172	150.25
459.95	164.25
460.728	181.25
461.506	200.25
462.283	223.25
463.061	250.25
463.838	277.25
464.615	317.25
465.393	350.25
466.17	395.25
466.947	444.25
467.724	487.25
468.501	542.25
469.278	606.25
470.055	674.25
470.831	759.25
471.608	831.25
472.385	944.25
473.161	1041.25
473.938	1148.25
474.714	1273.25
475.49	1427.25
476.266	1568.25
477.043	1737.25
477.819	1930.25
478.595	2116.25
479.371	2348.25
480.146	2597.25
480.922	2855.25
481.698	3147.25
482.473	3511.25
483.249	3860.25
484.024	4234.25
484.8	4646.25
485.575	5101.25
486.35	5649.25
487.126	6208.25
487.901	6815.25
488.676	7479.25
489.451	8223.25
490.225	8978.25
491	9793.25
491.775	10706.25
492.55	11714.25
493.324	12695.25
494.099	13685.25
494.873	14790.25
495.647	15938.25
496.422	17153.25
497.196	18316.25
497.97	19545.25
498.744	20790.25
499.518	21953.25
500.292	23152.25
501.066	24211.25
501.839	25188.25
502.613	26082.25
503.387	26803.25
504.16	27438.25
504.934	27721.25
505.707	27811.25
506.48	27864.25
507.253	27708.25
508.027	27397.25
508.8	27060.25
509.573	26571.25
510.346	25919.25
511.118	25096.25
511.891	24294.25
512.664	23351.25
513.437	22470.25
514.209	21491.25
514.982	20585.25
515.754	19637.25
516.526	18732.25
517.298	18005.25
518.071	17192.25
518.843	16497.25
519.615	15901.25
520.387	15286.25
521.159	14648.25
521.93	14057.25
522.702	13535.25
523.474	12949.25
524.245	12369.25
525.017	11841.25
525.788	11445.25
526.56	10830.25
527.331	10326.25
528.102	9848.25
528.873	9445.25
529.644	8948.25
530.415	8525.25
531.186	8072.25
531.957	7629.25
532.728	7269.25
533.498	6881.25
534.269	6448.25
535.039	6127.25
535.81	5788.25
536.58	5466.25
537.351	5138.25
538.121	4865.25
538.891	4590.25
539.661	4362.25
540.431	4109.25
541.201	3883.25
541.971	3666.25
542.741	3499.25
543.51	3315.25
544.28	3177.25
545.05	3025.25
545.819	2850.25
546.588	2694.25
547.358	2564.25
548.127	2476.25
548.896	2332.25
549.665	2202.25
550.434	2085.25
551.203	1968.25
551.972	1865.25
552.741	1753.25
553.51	1669.25
554.278	1574.25
555.047	1484.25
555.815	1390.25
556.584	1325.25
557.352	1242.25
558.121	1175.25
558.889	1109.25
559.657	1059.25
560.425	987.25
561.193	934.25
561.961	873.25
562.729	825.25
563.496	779.25
564.264	753.25
565.032	699.25
565.799	666.25
566.567	637.25
567.334	596.25
568.101	553.25
568.869	526.25
569.636	496.25
570.403	462.25
571.17	440.25
571.937	418.25
572.704	400.25
573.471	376.25
574.237	352.25
575.004	328.25
575.771	307.25
576.537	288.25
577.303	273.25
578.07	262.25
578.836	250.25
579.602	230.25
580.368	218.25
581.134	205.25
581.9	198.25
582.666	184.25
583.432	177.25
584.198	167.25
584.964	157.25
585.729	146.25
586.495	141.25
587.26	135.25
588.025	126.25
588.791	120.25
589.556	113.25
590.321	107.25
591.086	103.25
591.851	96.25
592.616	94.25
593.381	89.25
594.146	83.25
594.911	84.25
595.675	75.25
596.44	77.25
597.204	69.25
597.969	69.25
598.733	62.25
599.497	60.25
600.261	59.25
601.025	57.25
601.79	51.25
602.553	51.25
603.317	47.25
604.081	47.25
604.845	46.25
605.609	46.25
606.372	41.25
607.136	40.25
607.899	38.25
608.662	37.25
609.426	31.25
610.189	33.25
610.952	33.25
611.715	28.25
612.478	28.25
613.241	27.25
614.004	26.25
614.767	28.25
615.529	25.25
616.292	23.25
617.055	23.25
617.817	22.25
618.579	20.25
619.342	20.25
620.104	21.25
620.866	19.25
621.628	18.25
622.39	20.25
623.152	17.25
623.914	20.25
624.676	14.25
625.438	17.25
626.199	13.25
626.961	15.25
627.722	15.25
628.484	15.25
629.245	15.25
630.006	12.25
630.768	14.25
631.529	13.25
632.29	11.25
633.051	11.25
633.812	10.25
634.573	13.25
635.333	10.25
636.094	9.25
636.855	8.25
637.615	8.25
638.376	8.25
639.136	9.25
639.896	9.25
640.657	9.25
641.417	9.25
642.177	8.25
642.937	9.25
643.697	9.25
644.457	9.25
645.216	8.25
645.976	9.25
646.736	7.25
647.495	9.25
648.255	9.25
649.014	8.25
649.774	7.25
650.533	7.25
651.292	8.25
652.051	6.25
652.81	9.25
653.569	5.25
654.328	5.25
655.087	5.25
655.846	6.25
656.604	8.25
657.363	5.25
658.121	4.25
658.88	5.25
659.638	6.25
660.397	5.25
661.155	6.25
661.913	6.25
662.671	5.25
663.429	7.25
664.187	3.25
664.945	5.25
665.703	6.25
666.46	3.25
667.218	3.25
667.976	7.25
668.733	4.25
669.49	5.25
670.248	5.25
671.005	6.25
671.762	4.25
672.519	6.25
673.276	5.25
674.033	0.25
674.79	4.25
675.547	3.25
676.304	5.25
677.06	3.25
677.817	6.25
678.574	7.25
679.33	3.25
680.086	3.25
680.843	4.25
681.599	6.25
682.355	3.25
683.111	2.25
683.867	4.25
684.623	5.25
685.379	2.25
686.135	4.25
686.89	5.25
687.646	3.25
688.402	2.25
689.157	5.25
689.912	4.25
690.668	3.25
691.423	5.25
692.178	5.25
692.933	4.25
693.688	2.25
694.443	3.25
695.198	2.25
695.953	2.25
696.708	3.25
697.462	2.25
698.217	5.25
698.972	2.25
699.726	3.25
700.48	3.25
701.235	5.25
701.989	1.25
702.743	4.25
703.497	3.25
704.251	0.25
705.005	4.25
705.759	6.25
706.513	4.25
707.266	4.25
708.02	3.25
708.774	4.25
709.527	3.25
710.28	3.25
711.034	5.25
711.787	2.25
712.54	3.25
713.293	3.25
714.046	3.25
714.799	2.25
715.552	7.25
716.305	2.25
717.058	3.25
717.81	3.25
718.563	3.25
719.315	3.25
720.068	3.25
720.82	3.25
721.573	5.25
722.325	3.25
723.077	1.25
723.829	5.25
724.581	3.25
725.333	3.25
726.085	1.25
726.836	5.25
727.588	4.25
728.34	6.25
729.091	4.25
729.843	4.25
730.594	5.25
731.346	6.25
732.097	3.25
732.848	3.25
733.599	3.25
734.35	5.25
735.101	2.25
735.852	5.25
736.603	6.25
737.354	6.25
738.104	5.25
738.855	3.25
739.605	3.25
740.356	4.25
741.106	6.25
741.856	3.25
742.607	5.25
743.357	4.25
744.107	2.25
744.857	6.25
745.607	3.25
746.357	4.25
747.106	4.25
747.856	7.25
748.606	7.25
749.355	5.25
750.105	5.25
750.854	4.25
751.603	5.25
752.353	5.25
753.102	4.25
753.851	5.25
754.6	5.25
755.349	5.25
756.098	5.25
756.847	7.25
757.595	7.25
758.344	6.25
759.093	7.25
759.841	5.25
760.589	4.25
761.338	9.25
762.086	8.25
762.834	8.25
763.582	5.25
764.331	6.25
765.079	6.25
765.826	5.25
766.574	6.25
767.322	7.25
768.07	6.25
768.817	7.25
769.565	6.25
770.312	8.25
771.06	8.25
771.807	8.25
772.554	5.25
773.302	8.25
774.049	7.25
774.796	8.25
775.543	6.25
776.29	8.25
777.036	9.25
777.783	9.25
778.53	7.25
779.276	9.25
780.023	8.25
780.769	10.25
781.516	5.25
782.262	9.25
783.008	6.25
783.754	8.25
784.5	11.25
785.246	10.25
785.992	9.25
786.738	7.25
787.484	6.25
788.23	9.25
788.975	9.25
789.721	9.25
790.466	6.25
791.212	7.25
791.957	6.25
792.702	10.25
793.447	8.25
794.193	5.25
794.938	7.25
795.683	6.25
796.427	7.25
797.172	8.25
797.917	9.25
798.662	8.25
799.406	8.25
800.151	9.25
800.895	7.25
801.64	8.25
802.384	5.25
803.128	7.25
803.872	6.25
804.616	5.25
805.36	7.25
806.104	5.25
806.848	6.25
807.592	5.25
808.336	4.25
809.079	6.25
809.823	3.25
810.566	4.25
811.31	5.25
812.053	6.25
812.796	5.25
813.539	4.25
814.283	6.25
815.026	4.25
815.769	6.25
816.511	5.25
817.254	4.25
817.997	2.25
818.74	3.25
819.482	5.25
820.225	4.25
820.967	3.25
821.71	2.25
822.452	4.25
823.194	3.25
823.936	3.25
824.678	5.25
825.42	5.25
826.162	2.25
826.904	3.25
827.646	2.25
828.388	4.25
829.129	3.25
829.871	5.25
830.612	6.25
831.354	3.25
832.095	3.25
832.836	2.25
833.577	3.25
834.319	4.25
835.06	5.25
835.801	1.25
836.542	0.25
837.282	4.25
838.023	1.25
838.764	5.25
839.504	0.25
840.245	2.25
840.985	4.25
841.726	1.25
842.466	4.25
843.206	4.25
843.946	2.25
844.687	3.25
845.427	2.25
846.166	5.25
846.906	0.25
847.646	3.25
848.386	5.25
849.125	1.25
849.865	2.25
850.605	1.25
851.344	3.25
852.083	5.25
852.823	3.25
853.562	1.25
854.301	2.25
855.04	1.25
855.779	1.25
856.518	3.25
857.257	2.25
857.995	1.25
858.734	3.25
859.473	2.25
860.211	2.25
860.95	1.25
861.688	2.25
862.426	2.25
863.165	1.25
863.903	0.25
864.641	3.25
865.379	2.25
866.117	2.25
866.855	2.25
867.593	1.25
868.33	0.25
869.068	-0.75
869.806	2.25
870.543	4.25
871.28	1.25
872.018	-0.75
872.755	0.25
873.492	1.25
874.229	2.25
874.967	1.25
875.703	1.25
876.44	-0.75
877.177	1.25
877.914	-1.75
878.651	1.25
879.387	1.25
880.124	1.25
880.86	-0.75
881.597	1.25
882.333	-0.75
883.069	1.25
883.806	-0.75
884.542	0.25
885.278	2.25
886.014	-0.75
886.749	-0.75
887.485	1.25
888.221	1.25
888.957	-0.75
889.692	1.25
890.428	0.25
891.163	-0.75
891.899	1.25
892.634	1.25
893.369	-0.75
894.104	1.25
894.839	1.25
895.574	1.25
896.309	0.25
897.044	0.25
897.779	-1.75
898.514	3.25
899.248	0.25
899.983	-0.75
900.717	0.25
901.452	0.25
902.186	-0.75
902.92	2.25
903.654	2.25
904.389	-2.75
905.123	0.25
905.857	0.25
906.59	-0.75
907.324	0.25
908.058	1.25
908.792	2.25
909.525	1.25
910.259	-0.75
910.992	1.25
911.726	-0.75
912.459	2.25
913.192	1.25
913.925	1.25
914.658	-0.75
915.391	1.25
916.124	0.25
916.857	-1.75
917.59	2.25
918.323	0.25
919.055	0.25
919.788	1.25
920.521	-0.75
921.253	-0.75
921.985	-0.75
922.718	0.25
923.45	-0.75
924.182	-1.75
924.914	0.25
925.646	-1.75
926.378	-0.75
927.11	1.25
927.841	-0.75
928.573	0.25
929.305	1.25
930.036	0.25
930.768	1.25
931.499	0.25
932.23	1.25
932.962	1.25
933.693	0.25
934.424	-0.75
935.155	0.25
935.886	0.25
936.617	0.25
937.348	1.25
938.078	-0.75
938.809	0.25
939.54	-2.75
940.27	0.25
941.001	1.25
941.731	0.25
942.461	0.25
943.191	-1.75
943.922	2.25
944.652	1.25
945.382	-0.75
946.112	0.25
946.841	-0.75
947.571	1.25
948.301	1.25
949.031	0.25
949.76	-0.75
950.49	0.25
951.219	-0.75
951.948	-1.75
952.678	1.25
953.407	-0.75
954.136	-0.75
954.865	0.25
955.594	-0.75
956.323	2.25
957.052	0.25
957.78	0.25
958.509	-0.75
959.238	0.25
959.966	1.25
960.695	-0.75
961.423	0.25
962.151	2.25
962.88	-0.75
963.608	0.25
964.336	-2.75
965.064	-0.75
965.792	0.25
966.52	-0.75
967.247	3.25
967.975	0.25
968.703	1.25
969.43	0.25
970.158	-1.75
970.885	1.25
971.613	-0.75
972.34	2.25
973.067	0.25
973.794	0.25
974.521	-1.75
975.248	2.25
975.975	0.25
976.702	0.25
977.429	1.25
978.156	1.25
978.882	0.25
979.609	1.25
980.335	0.25
981.062	-2.75
981.788	-1.75
982.514	1.25
983.24	-1.75
983.967	2.25
984.693	2.25
985.419	2.25
986.144	-0.75
986.87	-2.75
987.596	-1.75
988.322	0.25
989.047	0.25
989.773	-0.75
990.498	1.25
991.224	0.25
991.949	-0.75
992.674	0.25
993.399	0.25
994.124	1.25
994.849	0.25
995.574	0.25
996.299	-1.75
997.024	-0.75
997.749	1.25
998.473	0.25
999.198	-0.75
999.922	1.25
1000.647	-0.75
1001.371	4.25
1002.095	-2.75
1002.82	-1.75
1003.544	-1.75
1004.268	-0.75
1004.992	1.25
1005.716	-0.75
1006.439	1.25
1007.163	4.25
1007.887	1.25
1008.611	0.25
1009.334	1.25
1010.058	1.25
1010.781	-1.75
1011.504	0.25
1012.228	-0.75
1012.951	0.25
1013.674	1.25
1014.397	0.25
1015.12	0.25
