节点500_285_QEPB04081__566__15-04-58-208.txt的数据

Date: Wed Nov 12 15:04:58 CST 2025
User: PC
Spectrometer: QEPB0408
触发模式: 0
积分时间 (秒): 1.000000E-2
Scans to average: 1
启用暗噪声校正: true
启用非线性校正: false
滑动平均宽度: 0
X轴模式: Wavelengths
Number of Pixels in Spectrum: 1044
>>>>>Begin Spectral Data<<<<<
220.843	2.88
221.644	0.88
222.444	0.88
223.244	2.88
224.045	0.88
224.845	0.88
225.645	1.88
226.445	1.88
227.245	4.88
228.045	2.88
228.845	0.88
229.645	4.88
230.444	4.88
231.244	4.88
232.043	2.88
232.843	0.88
233.642	3.88
234.442	2.88
235.241	4.88
236.04	2.88
236.839	5.88
237.638	3.88
238.437	4.88
239.236	3.88
240.035	4.88
240.833	3.88
241.632	6.88
242.43	3.88
243.229	2.88
244.027	5.88
244.826	4.88
245.624	5.88
246.422	5.88
247.22	5.88
248.018	8.88
248.816	6.88
249.614	6.88
250.412	6.88
251.21	3.88
252.007	8.88
252.805	4.88
253.602	6.88
254.4	5.88
255.197	5.88
255.994	7.88
256.791	5.88
257.589	7.88
258.386	4.88
259.183	8.88
259.979	10.88
260.776	8.88
261.573	7.88
262.37	10.88
263.166	11.88
263.963	9.88
264.759	10.88
265.556	12.88
266.352	12.88
267.148	10.88
267.944	12.88
268.74	11.88
269.536	11.88
270.332	13.88
271.128	14.88
271.924	13.88
272.719	14.88
273.515	13.88
274.311	16.88
275.106	14.88
275.901	16.88
276.697	13.88
277.492	15.88
278.287	18.88
279.082	16.88
279.877	15.88
280.672	17.88
281.467	16.88
282.262	18.88
283.056	17.88
283.851	17.88
284.646	18.88
285.44	18.88
286.234	20.88
287.029	19.88
287.823	20.88
288.617	16.88
289.411	18.88
290.205	17.88
290.999	15.88
291.793	16.88
292.587	15.88
293.381	15.88
294.174	15.88
294.968	15.88
295.761	13.88
296.555	11.88
297.348	16.88
298.141	13.88
298.935	13.88
299.728	13.88
300.521	11.88
301.314	11.88
302.107	14.88
302.899	11.88
303.692	14.88
304.485	11.88
305.277	11.88
306.07	13.88
306.862	11.88
307.655	13.88
308.447	12.88
309.239	10.88
310.031	11.88
310.823	8.88
311.615	12.88
312.407	8.88
313.199	8.88
313.991	9.88
314.783	8.88
315.574	9.88
316.366	9.88
317.157	8.88
317.949	10.88
318.74	8.88
319.531	6.88
320.322	9.88
321.113	8.88
321.904	5.88
322.695	6.88
323.486	6.88
324.277	6.88
325.068	7.88
325.858	8.88
326.649	7.88
327.439	7.88
328.23	6.88
329.02	5.88
329.81	6.88
330.6	7.88
331.391	3.88
332.181	5.88
332.971	7.88
333.76	6.88
334.55	7.88
335.34	4.88
336.13	4.88
336.919	8.88
337.709	6.88
338.498	4.88
339.287	5.88
340.077	6.88
340.866	2.88
341.655	6.88
342.444	7.88
343.233	5.88
344.022	5.88
344.811	4.88
345.6	7.88
346.388	4.88
347.177	4.88
347.965	5.88
348.754	4.88
349.542	8.88
350.33	3.88
351.119	8.88
351.907	5.88
352.695	5.88
353.483	5.88
354.271	5.88
355.059	6.88
355.846	3.88
356.634	4.88
357.422	4.88
358.209	5.88
358.997	6.88
359.784	4.88
360.571	6.88
361.359	4.88
362.146	5.88
362.933	5.88
363.72	4.88
364.507	6.88
365.294	5.88
366.081	4.88
366.867	2.88
367.654	5.88
368.44	5.88
369.227	4.88
370.013	6.88
370.8	4.88
371.586	6.88
372.372	3.88
373.158	4.88
373.944	4.88
374.73	3.88
375.516	4.88
376.302	6.88
377.088	5.88
377.873	5.88
378.659	6.88
379.445	4.88
380.23	5.88
381.015	6.88
381.801	4.88
382.586	5.88
383.371	5.88
384.156	5.88
384.941	5.88
385.726	6.88
386.511	4.88
387.296	4.88
388.08	7.88
388.865	8.88
389.649	3.88
390.434	7.88
391.218	5.88
392.003	8.88
392.787	4.88
393.571	5.88
394.355	7.88
395.139	6.88
395.923	5.88
396.707	4.88
397.491	3.88
398.274	4.88
399.058	6.88
399.842	4.88
400.625	6.88
401.408	8.88
402.192	8.88
402.975	5.88
403.758	6.88
404.541	6.88
405.324	8.88
406.107	8.88
406.89	9.88
407.673	6.88
408.456	5.88
409.238	5.88
410.021	6.88
410.803	8.88
411.586	7.88
412.368	6.88
413.151	8.88
413.933	8.88
414.715	9.88
415.497	8.88
416.279	6.88
417.061	8.88
417.843	7.88
418.624	8.88
419.406	7.88
420.188	12.88
420.969	8.88
421.751	10.88
422.532	11.88
423.313	9.88
424.095	11.88
424.876	10.88
425.657	10.88
426.438	11.88
427.219	11.88
428	12.88
428.78	12.88
429.561	14.88
430.342	12.88
431.122	12.88
431.903	13.88
432.683	11.88
433.464	13.88
434.244	13.88
435.024	16.88
435.804	14.88
436.584	16.88
437.364	19.88
438.144	18.88
438.924	19.88
439.704	21.88
440.483	20.88
441.263	23.88
442.042	25.88
442.822	27.88
443.601	29.88
444.38	27.88
445.16	29.88
445.939	33.88
446.718	38.88
447.497	42.88
448.276	43.88
449.054	46.88
449.833	53.88
450.612	55.88
451.391	58.88
452.169	67.88
452.948	69.88
453.726	79.88
454.504	79.88
455.282	97.88
456.061	100.88
456.839	115.88
457.617	124.88
458.395	139.88
459.172	162.88
459.95	180.88
460.728	197.88
461.506	219.88
462.283	243.88
463.061	274.88
463.838	306.88
464.615	338.88
465.393	379.88
466.17	413.88
466.947	471.88
467.724	516.88
468.501	580.88
469.278	640.88
470.055	716.88
470.831	783.88
471.608	881.88
472.385	976.88
473.161	1075.88
473.938	1201.88
474.714	1319.88
475.49	1450.88
476.266	1611.88
477.043	1759.88
477.819	1929.88
478.595	2140.88
479.371	2346.88
480.146	2562.88
480.922	2855.88
481.698	3126.88
482.473	3458.88
483.249	3768.88
484.024	4090.88
484.8	4512.88
485.575	4926.88
486.35	5421.88
487.126	5893.88
487.901	6433.88
488.676	7029.88
489.451	7684.88
490.225	8392.88
491	9103.88
491.775	9972.88
492.55	10839.88
493.324	11694.88
494.099	12570.88
494.873	13525.88
495.647	14601.88
496.422	15645.88
497.196	16708.88
497.97	17885.88
498.744	18967.88
499.518	20108.88
500.292	21231.88
501.066	22229.88
501.839	23190.88
502.613	24088.88
503.387	24863.88
504.16	25630.88
504.934	26021.88
505.707	26287.88
506.48	26479.88
507.253	26439.88
508.027	26392.88
508.8	26204.88
509.573	25839.88
510.346	25333.88
511.118	24751.88
511.891	24096.88
512.664	23365.88
513.437	22504.88
514.209	21627.88
514.982	20827.88
515.754	20012.88
516.526	19084.88
517.298	18322.88
518.071	17484.88
518.843	16777.88
519.615	16198.88
520.387	15592.88
521.159	14894.88
521.93	14314.88
522.702	13804.88
523.474	13222.88
524.245	12643.88
525.017	12128.88
525.788	11636.88
526.56	11113.88
527.331	10623.88
528.102	10147.88
528.873	9693.88
529.644	9237.88
530.415	8818.88
531.186	8393.88
531.957	7931.88
532.728	7567.88
533.498	7169.88
534.269	6770.88
535.039	6407.88
535.81	6077.88
536.58	5719.88
537.351	5391.88
538.121	5113.88
538.891	4866.88
539.661	4584.88
540.431	4326.88
541.201	4089.88
541.971	3844.88
542.741	3661.88
543.51	3493.88
544.28	3331.88
545.05	3155.88
545.819	2995.88
546.588	2842.88
547.358	2690.88
548.127	2576.88
548.896	2449.88
549.665	2325.88
550.434	2198.88
551.203	2073.88
551.972	1957.88
552.741	1861.88
553.51	1766.88
554.278	1677.88
555.047	1568.88
555.815	1490.88
556.584	1407.88
557.352	1336.88
558.121	1259.88
558.889	1181.88
559.657	1131.88
560.425	1038.88
561.193	995.88
561.961	928.88
562.729	896.88
563.496	840.88
564.264	795.88
565.032	752.88
565.799	710.88
566.567	670.88
567.334	641.88
568.101	591.88
568.869	568.88
569.636	525.88
570.403	506.88
571.17	468.88
571.937	443.88
572.704	415.88
573.471	396.88
574.237	373.88
575.004	348.88
575.771	327.88
576.537	313.88
577.303	296.88
578.07	276.88
578.836	265.88
579.602	248.88
580.368	234.88
581.134	221.88
581.9	208.88
582.666	197.88
583.432	191.88
584.198	176.88
584.964	169.88
585.729	160.88
586.495	149.88
587.26	144.88
588.025	135.88
588.791	124.88
589.556	117.88
590.321	115.88
591.086	109.88
591.851	101.88
592.616	101.88
593.381	97.88
594.146	90.88
594.911	83.88
595.675	78.88
596.44	77.88
597.204	71.88
597.969	69.88
598.733	65.88
599.497	65.88
600.261	63.88
601.025	58.88
601.79	59.88
602.553	53.88
603.317	49.88
604.081	49.88
604.845	48.88
605.609	47.88
606.372	44.88
607.136	41.88
607.899	42.88
608.662	37.88
609.426	35.88
610.189	33.88
610.952	34.88
611.715	31.88
612.478	30.88
613.241	30.88
614.004	27.88
614.767	28.88
615.529	25.88
616.292	24.88
617.055	24.88
617.817	26.88
618.579	20.88
619.342	24.88
620.104	22.88
620.866	20.88
621.628	19.88
622.39	20.88
623.152	18.88
623.914	21.88
624.676	18.88
625.438	15.88
626.199	15.88
626.961	17.88
627.722	14.88
628.484	12.88
629.245	13.88
630.006	13.88
630.768	14.88
631.529	12.88
632.29	12.88
633.051	13.88
633.812	12.88
634.573	12.88
635.333	10.88
636.094	10.88
636.855	9.88
637.615	11.88
638.376	10.88
639.136	9.88
639.896	12.88
640.657	7.88
641.417	8.88
642.177	8.88
642.937	9.88
643.697	9.88
644.457	8.88
645.216	8.88
645.976	7.88
646.736	9.88
647.495	5.88
648.255	8.88
649.014	8.88
649.774	5.88
650.533	6.88
651.292	6.88
652.051	4.88
652.81	9.88
653.569	4.88
654.328	6.88
655.087	5.88
655.846	6.88
656.604	6.88
657.363	5.88
658.121	7.88
658.88	5.88
659.638	4.88
660.397	5.88
661.155	4.88
661.913	4.88
662.671	5.88
663.429	4.88
664.187	6.88
664.945	5.88
665.703	4.88
666.46	4.88
667.218	8.88
667.976	5.88
668.733	2.88
669.49	4.88
670.248	6.88
671.005	5.88
671.762	3.88
672.519	4.88
673.276	3.88
674.033	4.88
674.79	3.88
675.547	3.88
676.304	4.88
677.06	1.88
677.817	3.88
678.574	2.88
679.33	3.88
680.086	3.88
680.843	4.88
681.599	6.88
682.355	4.88
683.111	2.88
683.867	3.88
684.623	4.88
685.379	3.88
686.135	1.88
686.89	5.88
687.646	2.88
688.402	6.88
689.157	4.88
689.912	2.88
690.668	3.88
691.423	4.88
692.178	4.88
692.933	2.88
693.688	3.88
694.443	3.88
695.198	2.88
695.953	3.88
696.708	4.88
697.462	4.88
698.217	2.88
698.972	2.88
699.726	2.88
700.48	2.88
701.235	2.88
701.989	2.88
702.743	1.88
703.497	2.88
704.251	2.88
705.005	1.88
705.759	3.88
706.513	2.88
707.266	2.88
708.02	5.88
708.774	3.88
709.527	1.88
710.28	1.88
711.034	1.88
711.787	3.88
712.54	1.88
713.293	4.88
714.046	3.88
714.799	1.88
715.552	2.88
716.305	1.88
717.058	6.88
717.81	4.88
718.563	0.88
719.315	4.88
720.068	2.88
720.82	4.88
721.573	1.88
722.325	4.88
723.077	1.88
723.829	2.88
724.581	2.88
725.333	3.88
726.085	3.88
726.836	3.88
727.588	3.88
728.34	4.88
729.091	1.88
729.843	4.88
730.594	2.88
731.346	5.88
732.097	4.88
732.848	5.88
733.599	3.88
734.35	2.88
735.101	4.88
735.852	4.88
736.603	3.88
737.354	4.88
738.104	0.88
738.855	3.88
739.605	4.88
740.356	3.88
741.106	3.88
741.856	5.88
742.607	3.88
743.357	2.88
744.107	6.88
744.857	3.88
745.607	3.88
746.357	3.88
747.106	3.88
747.856	4.88
748.606	4.88
749.355	6.88
750.105	4.88
750.854	2.88
751.603	5.88
752.353	4.88
753.102	2.88
753.851	5.88
754.6	5.88
755.349	4.88
756.098	3.88
756.847	4.88
757.595	4.88
758.344	6.88
759.093	3.88
759.841	6.88
760.589	6.88
761.338	4.88
762.086	5.88
762.834	4.88
763.582	4.88
764.331	4.88
765.079	3.88
765.826	6.88
766.574	4.88
767.322	6.88
768.07	5.88
768.817	7.88
769.565	9.88
770.312	7.88
771.06	6.88
771.807	5.88
772.554	8.88
773.302	4.88
774.049	6.88
774.796	7.88
775.543	5.88
776.29	6.88
777.036	8.88
777.783	8.88
778.53	7.88
779.276	8.88
780.023	8.88
780.769	8.88
781.516	6.88
782.262	7.88
783.008	7.88
783.754	8.88
784.5	7.88
785.246	8.88
785.992	8.88
786.738	8.88
787.484	8.88
788.23	9.88
788.975	8.88
789.721	7.88
790.466	7.88
791.212	8.88
791.957	6.88
792.702	8.88
793.447	4.88
794.193	9.88
794.938	5.88
795.683	10.88
796.427	7.88
797.172	8.88
797.917	8.88
798.662	8.88
799.406	5.88
800.151	8.88
800.895	4.88
801.64	5.88
802.384	7.88
803.128	6.88
803.872	5.88
804.616	6.88
805.36	6.88
806.104	7.88
806.848	5.88
807.592	6.88
808.336	5.88
809.079	6.88
809.823	5.88
810.566	3.88
811.31	4.88
812.053	3.88
812.796	4.88
813.539	5.88
814.283	4.88
815.026	4.88
815.769	3.88
816.511	7.88
817.254	4.88
817.997	5.88
818.74	3.88
819.482	4.88
820.225	4.88
820.967	6.88
821.71	4.88
822.452	4.88
823.194	3.88
823.936	2.88
824.678	2.88
825.42	3.88
826.162	1.88
826.904	4.88
827.646	2.88
828.388	4.88
829.129	3.88
829.871	3.88
830.612	4.88
831.354	2.88
832.095	3.88
832.836	3.88
833.577	-0.12
834.319	1.88
835.06	4.88
835.801	4.88
836.542	1.88
837.282	1.88
838.023	2.88
838.764	4.88
839.504	4.88
840.245	3.88
840.985	4.88
841.726	2.88
842.466	3.88
843.206	2.88
843.946	1.88
844.687	3.88
845.427	3.88
846.166	3.88
846.906	4.88
847.646	2.88
848.386	1.88
849.125	2.88
849.865	4.88
850.605	1.88
851.344	2.88
852.083	5.88
852.823	2.88
853.562	1.88
854.301	0.88
855.04	3.88
855.779	0.88
856.518	2.88
857.257	2.88
857.995	1.88
858.734	1.88
859.473	1.88
860.211	2.88
860.95	-0.12
861.688	1.88
862.426	1.88
863.165	1.88
863.903	2.88
864.641	1.88
865.379	0.88
866.117	1.88
866.855	2.88
867.593	1.88
868.33	1.88
869.068	-0.12
869.806	1.88
870.543	-0.12
871.28	2.88
872.018	2.88
872.755	1.88
873.492	1.88
874.229	2.88
874.967	0.88
875.703	1.88
876.44	0.88
877.177	-1.12
877.914	-0.12
878.651	1.88
879.387	0.88
880.124	-0.12
880.86	1.88
881.597	0.88
882.333	-1.12
883.069	1.88
883.806	2.88
884.542	1.88
885.278	2.88
886.014	0.88
886.749	0.88
887.485	0.88
888.221	0.88
888.957	-0.12
889.692	-0.12
890.428	1.88
891.163	-0.12
891.899	0.88
892.634	2.88
893.369	1.88
894.104	1.88
894.839	-0.12
895.574	1.88
896.309	-0.12
897.044	0.88
897.779	0.88
898.514	0.88
899.248	0.88
899.983	-1.12
900.717	-0.12
901.452	1.88
902.186	0.88
902.92	-0.12
903.654	-0.12
904.389	1.88
905.123	-0.12
905.857	-1.12
906.59	-0.12
907.324	0.88
908.058	-2.12
908.792	-1.12
909.525	1.88
910.259	-0.12
910.992	1.88
911.726	-0.12
912.459	0.88
913.192	0.88
913.925	-0.12
914.658	-0.12
915.391	0.88
916.124	-0.12
916.857	0.88
917.59	1.88
918.323	-2.12
919.055	-0.12
919.788	0.88
920.521	0.88
921.253	0.88
921.985	0.88
922.718	1.88
923.45	-1.12
924.182	-1.12
924.914	0.88
925.646	0.88
926.378	1.88
927.11	-1.12
927.841	-0.12
928.573	0.88
929.305	-0.12
930.036	0.88
930.768	-0.12
931.499	-0.12
932.23	-1.12
932.962	-0.12
933.693	-0.12
934.424	1.88
935.155	0.88
935.886	-1.12
936.617	0.88
937.348	-1.12
938.078	-2.12
938.809	-0.12
939.54	-0.12
940.27	0.88
941.001	-0.12
941.731	0.88
942.461	0.88
943.191	-0.12
943.922	0.88
944.652	-1.12
945.382	-1.12
946.112	-1.12
946.841	-0.12
947.571	-0.12
948.301	-2.12
949.031	-1.12
949.76	-1.12
950.49	0.88
951.219	0.88
951.948	-0.12
952.678	-0.12
953.407	1.88
954.136	0.88
954.865	0.88
955.594	-2.12
956.323	0.88
957.052	-1.12
957.78	2.88
958.509	-1.12
959.238	0.88
959.966	-0.12
960.695	-0.12
961.423	-0.12
962.151	1.88
962.88	-0.12
963.608	2.88
964.336	0.88
965.064	-0.12
965.792	-2.12
966.52	-0.12
967.247	0.88
967.975	1.88
968.703	0.88
969.43	0.88
970.158	1.88
970.885	-0.12
971.613	-1.12
972.34	1.88
973.067	1.88
973.794	-1.12
974.521	-1.12
975.248	1.88
975.975	-1.12
976.702	0.88
977.429	-0.12
978.156	-1.12
978.882	-0.12
979.609	-1.12
980.335	0.88
981.062	0.88
981.788	-0.12
982.514	-0.12
983.24	-1.12
983.967	-1.12
984.693	-1.12
985.419	-1.12
986.144	-0.12
986.87	-2.12
987.596	0.88
988.322	0.88
989.047	1.88
989.773	-0.12
990.498	-1.12
991.224	-2.12
991.949	-0.12
992.674	0.88
993.399	-0.12
994.124	-0.12
994.849	-0.12
995.574	1.88
996.299	-0.12
997.024	1.88
997.749	1.88
998.473	-1.12
999.198	0.88
999.922	-0.12
1000.647	0.88
1001.371	1.88
1002.095	0.88
1002.82	-1.12
1003.544	-2.12
1004.268	2.88
1004.992	-2.12
1005.716	2.88
1006.439	-0.12
1007.163	2.88
1007.887	0.88
1008.611	0.88
1009.334	-1.12
1010.058	1.88
1010.781	-1.12
1011.504	0.88
1012.228	-1.12
1012.951	-1.12
1013.674	0.88
1014.397	-1.12
1015.12	1.88
