节点500_285_QEPB04081__29__14-56-03-431.txt的数据

Date: Wed Nov 12 14:56:03 CST 2025
User: PC
Spectrometer: QEPB0408
触发模式: 0
积分时间 (秒): 1.000000E-2
Scans to average: 1
启用暗噪声校正: true
启用非线性校正: false
滑动平均宽度: 0
X轴模式: Wavelengths
Number of Pixels in Spectrum: 1044
>>>>>Begin Spectral Data<<<<<
220.843	1
221.644	0
222.444	3
223.244	2
224.045	1
224.845	1
225.645	2
226.445	4
227.245	3
228.045	4
228.845	4
229.645	4
230.444	2
231.244	2
232.043	4
232.843	3
233.642	5
234.442	5
235.241	3
236.04	3
236.839	3
237.638	2
238.437	4
239.236	4
240.035	5
240.833	4
241.632	6
242.43	6
243.229	6
244.027	7
244.826	4
245.624	8
246.422	5
247.22	5
248.018	8
248.816	8
249.614	8
250.412	8
251.21	5
252.007	5
252.805	7
253.602	8
254.4	8
255.197	9
255.994	7
256.791	8
257.589	10
258.386	11
259.183	9
259.979	9
260.776	12
261.573	13
262.37	12
263.166	14
263.963	13
264.759	15
265.556	12
266.352	14
267.148	15
267.944	15
268.74	15
269.536	13
270.332	13
271.128	15
271.924	15
272.719	18
273.515	17
274.311	17
275.106	17
275.901	21
276.697	20
277.492	16
278.287	19
279.082	19
279.877	20
280.672	24
281.467	19
282.262	17
283.056	18
283.851	21
284.646	19
285.44	21
286.234	22
287.029	19
287.823	18
288.617	21
289.411	17
290.205	22
290.999	20
291.793	18
292.587	18
293.381	15
294.174	18
294.968	18
295.761	16
296.555	16
297.348	15
298.141	13
298.935	17
299.728	15
300.521	14
301.314	17
302.107	15
302.899	16
303.692	13
304.485	11
305.277	13
306.07	12
306.862	14
307.655	13
308.447	9
309.239	13
310.031	11
310.823	11
311.615	11
312.407	9
313.199	9
313.991	10
314.783	9
315.574	8
316.366	9
317.157	10
317.949	10
318.74	8
319.531	6
320.322	8
321.113	7
321.904	8
322.695	7
323.486	7
324.277	9
325.068	7
325.858	6
326.649	8
327.439	7
328.23	7
329.02	8
329.81	8
330.6	8
331.391	7
332.181	7
332.971	8
333.76	6
334.55	6
335.34	6
336.13	8
336.919	7
337.709	7
338.498	5
339.287	6
340.077	7
340.866	6
341.655	9
342.444	7
343.233	6
344.022	7
344.811	4
345.6	5
346.388	8
347.177	6
347.965	6
348.754	5
349.542	5
350.33	5
351.119	7
351.907	8
352.695	6
353.483	8
354.271	5
355.059	9
355.846	6
356.634	6
357.422	4
358.209	7
358.997	5
359.784	6
360.571	6
361.359	7
362.146	4
362.933	5
363.72	7
364.507	4
365.294	4
366.081	6
366.867	7
367.654	3
368.44	6
369.227	7
370.013	7
370.8	2
371.586	4
372.372	7
373.158	2
373.944	6
374.73	5
375.516	5
376.302	6
377.088	6
377.873	5
378.659	7
379.445	6
380.23	7
381.015	5
381.801	6
382.586	5
383.371	7
384.156	6
384.941	4
385.726	6
386.511	6
387.296	8
388.08	5
388.865	7
389.649	7
390.434	7
391.218	8
392.003	6
392.787	8
393.571	6
394.355	8
395.139	7
395.923	6
396.707	4
397.491	5
398.274	8
399.058	5
399.842	6
400.625	6
401.408	6
402.192	10
402.975	5
403.758	7
404.541	7
405.324	4
406.107	8
406.89	8
407.673	10
408.456	11
409.238	9
410.021	9
410.803	4
411.586	12
412.368	7
413.151	10
413.933	10
414.715	10
415.497	11
416.279	12
417.061	11
417.843	9
418.624	10
419.406	13
420.188	10
420.969	13
421.751	10
422.532	10
423.313	13
424.095	11
424.876	12
425.657	12
426.438	13
427.219	14
428	15
428.78	14
429.561	14
430.342	15
431.122	15
431.903	13
432.683	14
433.464	17
434.244	16
435.024	17
435.804	18
436.584	19
437.364	18
438.144	21
438.924	21
439.704	23
440.483	22
441.263	23
442.042	25
442.822	25
443.601	29
444.38	29
445.16	30
445.939	31
446.718	33
447.497	36
448.276	38
449.054	43
449.833	44
450.612	49
451.391	55
452.169	56
452.948	66
453.726	68
454.504	75
455.282	79
456.061	88
456.839	103
457.617	111
458.395	125
459.172	137
459.95	148
460.728	165
461.506	196
462.283	212
463.061	242
463.838	266
464.615	297
465.393	329
466.17	364
466.947	413
467.724	454
468.501	513
469.278	576
470.055	648
470.831	721
471.608	804
472.385	905
473.161	1009
473.938	1117
474.714	1251
475.49	1386
476.266	1529
477.043	1720
477.819	1913
478.595	2105
479.371	2335
480.146	2607
480.922	2901
481.698	3218
482.473	3571
483.249	3947
484.024	4371
484.8	4828
485.575	5363
486.35	5955
487.126	6555
487.901	7226
488.676	7989
489.451	8762
490.225	9682
491	10584
491.775	11605
492.55	12738
493.324	13871
494.099	14929
494.873	16219
495.647	17446
496.422	18772
497.196	20076
497.97	21473
498.744	22716
499.518	24062
500.292	25194
501.066	26312
501.839	27273
502.613	28053
503.387	28736
504.16	29287
504.934	29472
505.707	29412
506.48	29271
507.253	28960
508.027	28387
508.8	27868
509.573	27200
510.346	26376
511.118	25350
511.891	24423
512.664	23424
513.437	22405
514.209	21397
514.982	20450
515.754	19425
516.526	18624
517.298	17769
518.071	16909
518.843	16295
519.615	15667
520.387	15085
521.159	14491
521.93	13922
522.702	13334
523.474	12834
524.245	12229
525.017	11662
525.788	11201
526.56	10696
527.331	10152
528.102	9661
528.873	9175
529.644	8745
530.415	8261
531.186	7803
531.957	7409
532.728	7018
533.498	6620
534.269	6246
535.039	5915
535.81	5552
536.58	5222
537.351	4953
538.121	4670
538.891	4415
539.661	4190
540.431	3928
541.201	3735
541.971	3533
542.741	3360
543.51	3189
544.28	3040
545.05	2890
545.819	2740
546.588	2614
547.358	2460
548.127	2358
548.896	2233
549.665	2112
550.434	2001
551.203	1882
551.972	1782
552.741	1678
553.51	1576
554.278	1491
555.047	1411
555.815	1333
556.584	1250
557.352	1184
558.121	1123
558.889	1053
559.657	992
560.425	936
561.193	895
561.961	825
562.729	805
563.496	739
564.264	709
565.032	664
565.799	630
566.567	607
567.334	565
568.101	530
568.869	500
569.636	470
570.403	440
571.17	420
571.937	395
572.704	367
573.471	353
574.237	340
575.004	315
575.771	298
576.537	278
577.303	268
578.07	244
578.836	233
579.602	218
580.368	204
581.134	193
581.9	186
582.666	177
583.432	168
584.198	157
584.964	149
585.729	151
586.495	135
587.26	132
588.025	123
588.791	119
589.556	108
590.321	104
591.086	98
591.851	96
592.616	91
593.381	84
594.146	80
594.911	79
595.675	72
596.44	71
597.204	67
597.969	62
598.733	63
599.497	58
600.261	57
601.025	55
601.79	51
602.553	51
603.317	47
604.081	43
604.845	44
605.609	41
606.372	43
607.136	39
607.899	36
608.662	34
609.426	36
610.189	32
610.952	30
611.715	29
612.478	29
613.241	31
614.004	27
614.767	26
615.529	22
616.292	23
617.055	23
617.817	24
618.579	22
619.342	18
620.104	21
620.866	23
621.628	16
622.39	19
623.152	18
623.914	19
624.676	19
625.438	18
626.199	15
626.961	16
627.722	15
628.484	13
629.245	14
630.006	16
630.768	13
631.529	13
632.29	11
633.051	13
633.812	15
634.573	9
635.333	13
636.094	11
636.855	12
637.615	10
638.376	11
639.136	12
639.896	8
640.657	8
641.417	11
642.177	9
642.937	10
643.697	10
644.457	10
645.216	7
645.976	7
646.736	9
647.495	9
648.255	7
649.014	8
649.774	9
650.533	9
651.292	7
652.051	6
652.81	6
653.569	8
654.328	7
655.087	7
655.846	6
656.604	6
657.363	5
658.121	6
658.88	7
659.638	6
660.397	7
661.155	5
661.913	5
662.671	9
663.429	4
664.187	6
664.945	4
665.703	4
666.46	5
667.218	6
667.976	6
668.733	4
669.49	5
670.248	5
671.005	4
671.762	6
672.519	3
673.276	7
674.033	5
674.79	6
675.547	6
676.304	3
677.06	4
677.817	5
678.574	4
679.33	3
680.086	7
680.843	3
681.599	3
682.355	5
683.111	3
683.867	3
684.623	3
685.379	4
686.135	6
686.89	4
687.646	6
688.402	4
689.157	4
689.912	4
690.668	4
691.423	4
692.178	3
692.933	3
693.688	2
694.443	2
695.198	4
695.953	1
696.708	4
697.462	3
698.217	5
698.972	5
699.726	3
700.48	4
701.235	3
701.989	2
702.743	5
703.497	2
704.251	4
705.005	4
705.759	4
706.513	3
707.266	3
708.02	3
708.774	5
709.527	2
710.28	4
711.034	3
711.787	6
712.54	3
713.293	4
714.046	6
714.799	4
715.552	3
716.305	5
717.058	4
717.81	5
718.563	4
719.315	4
720.068	2
720.82	4
721.573	3
722.325	4
723.077	5
723.829	6
724.581	5
725.333	3
726.085	4
726.836	6
727.588	4
728.34	3
729.091	5
729.843	5
730.594	3
731.346	5
732.097	2
732.848	6
733.599	4
734.35	5
735.101	6
735.852	3
736.603	3
737.354	3
738.104	3
738.855	6
739.605	4
740.356	5
741.106	5
741.856	4
742.607	4
743.357	5
744.107	5
744.857	4
745.607	8
746.357	5
747.106	3
747.856	8
748.606	6
749.355	7
750.105	8
750.854	5
751.603	3
752.353	5
753.102	7
753.851	5
754.6	7
755.349	9
756.098	3
756.847	7
757.595	7
758.344	7
759.093	7
759.841	6
760.589	9
761.338	6
762.086	9
762.834	4
763.582	7
764.331	7
765.079	9
765.826	8
766.574	6
767.322	9
768.07	9
768.817	8
769.565	7
770.312	10
771.06	11
771.807	9
772.554	9
773.302	9
774.049	10
774.796	7
775.543	9
776.29	8
777.036	8
777.783	9
778.53	9
779.276	8
780.023	8
780.769	10
781.516	11
782.262	8
783.008	9
783.754	9
784.5	9
785.246	10
785.992	9
786.738	10
787.484	10
788.23	8
788.975	11
789.721	6
790.466	9
791.212	9
791.957	9
792.702	9
793.447	9
794.193	12
794.938	10
795.683	6
796.427	9
797.172	10
797.917	10
798.662	9
799.406	8
800.151	8
800.895	7
801.64	8
802.384	6
803.128	9
803.872	7
804.616	9
805.36	6
806.104	6
806.848	7
807.592	6
808.336	8
809.079	7
809.823	7
810.566	7
811.31	7
812.053	7
812.796	5
813.539	6
814.283	6
815.026	5
815.769	6
816.511	6
817.254	6
817.997	3
818.74	6
819.482	5
820.225	5
820.967	5
821.71	5
822.452	5
823.194	6
823.936	5
824.678	6
825.42	5
826.162	4
826.904	5
827.646	3
828.388	4
829.129	3
829.871	5
830.612	3
831.354	2
832.095	4
832.836	3
833.577	5
834.319	4
835.06	2
835.801	4
836.542	3
837.282	4
838.023	3
838.764	3
839.504	3
840.245	3
840.985	5
841.726	4
842.466	3
843.206	2
843.946	3
844.687	3
845.427	4
846.166	4
846.906	2
847.646	4
848.386	4
849.125	1
849.865	4
850.605	2
851.344	5
852.083	3
852.823	4
853.562	3
854.301	2
855.04	3
855.779	2
856.518	4
857.257	3
857.995	1
858.734	4
859.473	4
860.211	2
860.95	4
861.688	3
862.426	3
863.165	2
863.903	2
864.641	1
865.379	0
866.117	2
866.855	-1
867.593	2
868.33	0
869.068	2
869.806	1
870.543	2
871.28	1
872.018	1
872.755	1
873.492	1
874.229	0
874.967	3
875.703	1
876.44	2
877.177	1
877.914	1
878.651	2
879.387	1
880.124	3
880.86	0
881.597	2
882.333	2
883.069	1
883.806	1
884.542	0
885.278	2
886.014	3
886.749	2
887.485	0
888.221	1
888.957	1
889.692	0
890.428	0
891.163	1
891.899	1
892.634	-1
893.369	-1
894.104	3
894.839	1
895.574	-1
896.309	-1
897.044	-1
897.779	2
898.514	1
899.248	1
899.983	1
900.717	1
901.452	1
902.186	1
902.92	-1
903.654	0
904.389	2
905.123	0
905.857	0
906.59	0
907.324	0
908.058	-1
908.792	-1
909.525	-1
910.259	3
910.992	-1
911.726	0
912.459	1
913.192	0
913.925	0
914.658	0
915.391	1
916.124	1
916.857	3
917.59	0
918.323	0
919.055	1
919.788	0
920.521	1
921.253	0
921.985	0
922.718	1
923.45	-1
924.182	-1
924.914	1
925.646	1
926.378	-1
927.11	1
927.841	2
928.573	-1
929.305	0
930.036	1
930.768	0
931.499	1
932.23	1
932.962	2
933.693	2
934.424	0
935.155	0
935.886	1
936.617	1
937.348	0
938.078	-1
938.809	0
939.54	-1
940.27	0
941.001	-1
941.731	1
942.461	2
943.191	1
943.922	0
944.652	0
945.382	1
946.112	1
946.841	1
947.571	1
948.301	-1
949.031	4
949.76	-1
950.49	1
951.219	1
951.948	-1
952.678	2
953.407	-1
954.136	1
954.865	0
955.594	-1
956.323	0
957.052	-2
957.78	2
958.509	1
959.238	2
959.966	-2
960.695	3
961.423	1
962.151	0
962.88	1
963.608	0
964.336	-2
965.064	-1
965.792	0
966.52	1
967.247	-1
967.975	0
968.703	2
969.43	2
970.158	1
970.885	0
971.613	1
972.34	-1
973.067	0
973.794	-1
974.521	0
975.248	-1
975.975	0
976.702	1
977.429	0
978.156	-3
978.882	4
979.609	3
980.335	4
981.062	-1
981.788	-2
982.514	1
983.24	0
983.967	2
984.693	0
985.419	1
986.144	2
986.87	2
987.596	-3
988.322	0
989.047	0
989.773	-2
990.498	-1
991.224	2
991.949	0
992.674	1
993.399	1
994.124	0
994.849	2
995.574	0
996.299	0
997.024	0
997.749	1
998.473	-2
999.198	-1
999.922	1
1000.647	-1
1001.371	4
1002.095	-1
1002.82	-3
1003.544	2
1004.268	1
1004.992	0
1005.716	2
1006.439	0
1007.163	3
1007.887	2
1008.611	0
1009.334	3
1010.058	-2
1010.781	1
1011.504	-1
1012.228	1
1012.951	-2
1013.674	0
1014.397	-1
1015.12	1
