节点500_285_QEPB04081__160__14-58-13-191.txt的数据

Date: Wed Nov 12 14:58:13 CST 2025
User: PC
Spectrometer: QEPB0408
触发模式: 0
积分时间 (秒): 1.000000E-2
Scans to average: 1
启用暗噪声校正: true
启用非线性校正: false
滑动平均宽度: 0
X轴模式: Wavelengths
Number of Pixels in Spectrum: 1044
>>>>>Begin Spectral Data<<<<<
220.843	1.75
221.644	0.75
222.444	1.75
223.244	1.75
224.045	2.75
224.845	4.75
225.645	2.75
226.445	2.75
227.245	3.75
228.045	3.75
228.845	2.75
229.645	1.75
230.444	2.75
231.244	-0.25
232.043	5.75
232.843	3.75
233.642	2.75
234.442	6.75
235.241	6.75
236.04	5.75
236.839	5.75
237.638	5.75
238.437	4.75
239.236	3.75
240.035	3.75
240.833	1.75
241.632	7.75
242.43	6.75
243.229	5.75
244.027	5.75
244.826	5.75
245.624	7.75
246.422	4.75
247.22	5.75
248.018	7.75
248.816	5.75
249.614	5.75
250.412	6.75
251.21	5.75
252.007	7.75
252.805	6.75
253.602	5.75
254.4	8.75
255.197	4.75
255.994	9.75
256.791	8.75
257.589	10.75
258.386	9.75
259.183	8.75
259.979	11.75
260.776	10.75
261.573	10.75
262.37	11.75
263.166	9.75
263.963	12.75
264.759	12.75
265.556	11.75
266.352	15.75
267.148	14.75
267.944	16.75
268.74	11.75
269.536	14.75
270.332	15.75
271.128	15.75
271.924	15.75
272.719	17.75
273.515	16.75
274.311	20.75
275.106	16.75
275.901	15.75
276.697	16.75
277.492	19.75
278.287	18.75
279.082	17.75
279.877	18.75
280.672	18.75
281.467	18.75
282.262	19.75
283.056	19.75
283.851	17.75
284.646	18.75
285.44	18.75
286.234	17.75
287.029	19.75
287.823	17.75
288.617	20.75
289.411	18.75
290.205	19.75
290.999	18.75
291.793	19.75
292.587	19.75
293.381	18.75
294.174	17.75
294.968	17.75
295.761	18.75
296.555	17.75
297.348	14.75
298.141	16.75
298.935	16.75
299.728	12.75
300.521	15.75
301.314	13.75
302.107	13.75
302.899	12.75
303.692	12.75
304.485	12.75
305.277	13.75
306.07	13.75
306.862	13.75
307.655	11.75
308.447	13.75
309.239	10.75
310.031	14.75
310.823	12.75
311.615	12.75
312.407	9.75
313.199	11.75
313.991	9.75
314.783	8.75
315.574	8.75
316.366	11.75
317.157	7.75
317.949	8.75
318.74	8.75
319.531	12.75
320.322	5.75
321.113	7.75
321.904	5.75
322.695	7.75
323.486	7.75
324.277	7.75
325.068	6.75
325.858	7.75
326.649	8.75
327.439	6.75
328.23	6.75
329.02	8.75
329.81	6.75
330.6	7.75
331.391	5.75
332.181	6.75
332.971	4.75
333.76	7.75
334.55	7.75
335.34	5.75
336.13	7.75
336.919	7.75
337.709	6.75
338.498	7.75
339.287	7.75
340.077	6.75
340.866	6.75
341.655	4.75
342.444	6.75
343.233	5.75
344.022	5.75
344.811	7.75
345.6	6.75
346.388	7.75
347.177	5.75
347.965	6.75
348.754	6.75
349.542	6.75
350.33	5.75
351.119	5.75
351.907	7.75
352.695	6.75
353.483	7.75
354.271	3.75
355.059	5.75
355.846	6.75
356.634	7.75
357.422	5.75
358.209	7.75
358.997	5.75
359.784	6.75
360.571	4.75
361.359	6.75
362.146	5.75
362.933	5.75
363.72	5.75
364.507	4.75
365.294	5.75
366.081	4.75
366.867	6.75
367.654	4.75
368.44	5.75
369.227	4.75
370.013	4.75
370.8	5.75
371.586	4.75
372.372	6.75
373.158	5.75
373.944	4.75
374.73	7.75
375.516	6.75
376.302	4.75
377.088	6.75
377.873	7.75
378.659	7.75
379.445	4.75
380.23	4.75
381.015	6.75
381.801	6.75
382.586	4.75
383.371	6.75
384.156	6.75
384.941	4.75
385.726	6.75
386.511	6.75
387.296	5.75
388.08	5.75
388.865	4.75
389.649	4.75
390.434	4.75
391.218	7.75
392.003	7.75
392.787	6.75
393.571	6.75
394.355	4.75
395.139	8.75
395.923	4.75
396.707	7.75
397.491	5.75
398.274	7.75
399.058	7.75
399.842	8.75
400.625	8.75
401.408	6.75
402.192	6.75
402.975	7.75
403.758	5.75
404.541	5.75
405.324	9.75
406.107	9.75
406.89	8.75
407.673	8.75
408.456	8.75
409.238	8.75
410.021	10.75
410.803	8.75
411.586	7.75
412.368	9.75
413.151	7.75
413.933	11.75
414.715	10.75
415.497	9.75
416.279	8.75
417.061	10.75
417.843	10.75
418.624	8.75
419.406	11.75
420.188	7.75
420.969	8.75
421.751	9.75
422.532	8.75
423.313	10.75
424.095	12.75
424.876	11.75
425.657	11.75
426.438	11.75
427.219	14.75
428	10.75
428.78	11.75
429.561	15.75
430.342	11.75
431.122	16.75
431.903	13.75
432.683	18.75
433.464	15.75
434.244	19.75
435.024	16.75
435.804	19.75
436.584	21.75
437.364	19.75
438.144	19.75
438.924	20.75
439.704	21.75
440.483	25.75
441.263	22.75
442.042	25.75
442.822	24.75
443.601	27.75
444.38	29.75
445.16	28.75
445.939	31.75
446.718	36.75
447.497	37.75
448.276	41.75
449.054	44.75
449.833	47.75
450.612	49.75
451.391	54.75
452.169	57.75
452.948	66.75
453.726	72.75
454.504	75.75
455.282	86.75
456.061	97.75
456.839	105.75
457.617	114.75
458.395	129.75
459.172	142.75
459.95	158.75
460.728	182.75
461.506	193.75
462.283	220.75
463.061	247.75
463.838	277.75
464.615	306.75
465.393	344.75
466.17	382.75
466.947	426.75
467.724	487.75
468.501	537.75
469.278	599.75
470.055	670.75
470.831	745.75
471.608	841.75
472.385	924.75
473.161	1030.75
473.938	1145.75
474.714	1260.75
475.49	1402.75
476.266	1558.75
477.043	1742.75
477.819	1925.75
478.595	2132.75
479.371	2337.75
480.146	2586.75
480.922	2885.75
481.698	3164.75
482.473	3503.75
483.249	3877.75
484.024	4275.75
484.8	4726.75
485.575	5197.75
486.35	5734.75
487.126	6284.75
487.901	6941.75
488.676	7636.75
489.451	8350.75
490.225	9191.75
491	10024.75
491.775	10967.75
492.55	11997.75
493.324	12999.75
494.099	14047.75
494.873	15131.75
495.647	16348.75
496.422	17601.75
497.196	18791.75
497.97	20108.75
498.744	21325.75
499.518	22524.75
500.292	23714.75
501.066	24809.75
501.839	25791.75
502.613	26641.75
503.387	27348.75
504.16	27938.75
504.934	28175.75
505.707	28304.75
506.48	28227.75
507.253	28014.75
508.027	27669.75
508.8	27300.75
509.573	26735.75
510.346	25998.75
511.118	25142.75
511.891	24280.75
512.664	23388.75
513.437	22417.75
514.209	21460.75
514.982	20553.75
515.754	19622.75
516.526	18718.75
517.298	17833.75
518.071	17095.75
518.843	16430.75
519.615	15815.75
520.387	15193.75
521.159	14547.75
521.93	13958.75
522.702	13456.75
523.474	12880.75
524.245	12337.75
525.017	11745.75
525.788	11313.75
526.56	10784.75
527.331	10291.75
528.102	9793.75
528.873	9347.75
529.644	8851.75
530.415	8419.75
531.186	8002.75
531.957	7570.75
532.728	7157.75
533.498	6777.75
534.269	6408.75
535.039	6033.75
535.81	5742.75
536.58	5401.75
537.351	5089.75
538.121	4793.75
538.891	4541.75
539.661	4316.75
540.431	4070.75
541.201	3852.75
541.971	3643.75
542.741	3455.75
543.51	3256.75
544.28	3115.75
545.05	2968.75
545.819	2820.75
546.588	2685.75
547.358	2529.75
548.127	2406.75
548.896	2287.75
549.665	2156.75
550.434	2050.75
551.203	1938.75
551.972	1835.75
552.741	1726.75
553.51	1641.75
554.278	1550.75
555.047	1459.75
555.815	1381.75
556.584	1296.75
557.352	1216.75
558.121	1163.75
558.889	1095.75
559.657	1036.75
560.425	978.75
561.193	917.75
561.961	861.75
562.729	816.75
563.496	786.75
564.264	737.75
565.032	689.75
565.799	654.75
566.567	630.75
567.334	585.75
568.101	551.75
568.869	525.75
569.636	489.75
570.403	446.75
571.17	434.75
571.937	416.75
572.704	384.75
573.471	373.75
574.237	349.75
575.004	329.75
575.771	306.75
576.537	286.75
577.303	277.75
578.07	252.75
578.836	247.75
579.602	224.75
580.368	217.75
581.134	205.75
581.9	189.75
582.666	184.75
583.432	165.75
584.198	168.75
584.964	155.75
585.729	147.75
586.495	139.75
587.26	132.75
588.025	125.75
588.791	123.75
589.556	112.75
590.321	107.75
591.086	101.75
591.851	101.75
592.616	89.75
593.381	87.75
594.146	88.75
594.911	79.75
595.675	77.75
596.44	74.75
597.204	70.75
597.969	63.75
598.733	64.75
599.497	63.75
600.261	55.75
601.025	54.75
601.79	54.75
602.553	51.75
603.317	51.75
604.081	42.75
604.845	42.75
605.609	44.75
606.372	38.75
607.136	40.75
607.899	38.75
608.662	35.75
609.426	36.75
610.189	34.75
610.952	31.75
611.715	28.75
612.478	27.75
613.241	29.75
614.004	29.75
614.767	25.75
615.529	25.75
616.292	23.75
617.055	24.75
617.817	22.75
618.579	19.75
619.342	21.75
620.104	18.75
620.866	21.75
621.628	19.75
622.39	20.75
623.152	17.75
623.914	18.75
624.676	17.75
625.438	15.75
626.199	15.75
626.961	17.75
627.722	12.75
628.484	16.75
629.245	14.75
630.006	17.75
630.768	13.75
631.529	13.75
632.29	13.75
633.051	9.75
633.812	9.75
634.573	10.75
635.333	11.75
636.094	11.75
636.855	10.75
637.615	11.75
638.376	8.75
639.136	11.75
639.896	8.75
640.657	7.75
641.417	9.75
642.177	9.75
642.937	7.75
643.697	7.75
644.457	10.75
645.216	9.75
645.976	6.75
646.736	8.75
647.495	6.75
648.255	8.75
649.014	6.75
649.774	5.75
650.533	8.75
651.292	6.75
652.051	7.75
652.81	8.75
653.569	7.75
654.328	7.75
655.087	6.75
655.846	6.75
656.604	5.75
657.363	4.75
658.121	9.75
658.88	5.75
659.638	6.75
660.397	5.75
661.155	6.75
661.913	4.75
662.671	6.75
663.429	6.75
664.187	6.75
664.945	4.75
665.703	3.75
666.46	7.75
667.218	4.75
667.976	3.75
668.733	4.75
669.49	4.75
670.248	4.75
671.005	5.75
671.762	6.75
672.519	4.75
673.276	4.75
674.033	4.75
674.79	4.75
675.547	6.75
676.304	6.75
677.06	3.75
677.817	4.75
678.574	6.75
679.33	3.75
680.086	6.75
680.843	4.75
681.599	3.75
682.355	3.75
683.111	5.75
683.867	2.75
684.623	2.75
685.379	4.75
686.135	2.75
686.89	4.75
687.646	3.75
688.402	3.75
689.157	3.75
689.912	3.75
690.668	2.75
691.423	1.75
692.178	3.75
692.933	1.75
693.688	3.75
694.443	4.75
695.198	4.75
695.953	3.75
696.708	2.75
697.462	5.75
698.217	4.75
698.972	3.75
699.726	3.75
700.48	4.75
701.235	4.75
701.989	2.75
702.743	6.75
703.497	3.75
704.251	3.75
705.005	3.75
705.759	4.75
706.513	2.75
707.266	4.75
708.02	1.75
708.774	3.75
709.527	4.75
710.28	6.75
711.034	2.75
711.787	5.75
712.54	0.75
713.293	2.75
714.046	4.75
714.799	3.75
715.552	3.75
716.305	4.75
717.058	3.75
717.81	5.75
718.563	2.75
719.315	5.75
720.068	2.75
720.82	4.75
721.573	3.75
722.325	3.75
723.077	4.75
723.829	3.75
724.581	3.75
725.333	1.75
726.085	4.75
726.836	1.75
727.588	2.75
728.34	5.75
729.091	5.75
729.843	2.75
730.594	2.75
731.346	4.75
732.097	5.75
732.848	3.75
733.599	3.75
734.35	7.75
735.101	5.75
735.852	3.75
736.603	4.75
737.354	5.75
738.104	3.75
738.855	6.75
739.605	3.75
740.356	4.75
741.106	3.75
741.856	5.75
742.607	3.75
743.357	7.75
744.107	4.75
744.857	6.75
745.607	2.75
746.357	4.75
747.106	4.75
747.856	3.75
748.606	5.75
749.355	7.75
750.105	5.75
750.854	4.75
751.603	3.75
752.353	5.75
753.102	3.75
753.851	5.75
754.6	5.75
755.349	5.75
756.098	3.75
756.847	7.75
757.595	5.75
758.344	7.75
759.093	7.75
759.841	7.75
760.589	6.75
761.338	4.75
762.086	6.75
762.834	7.75
763.582	6.75
764.331	8.75
765.079	7.75
765.826	8.75
766.574	7.75
767.322	7.75
768.07	9.75
768.817	6.75
769.565	7.75
770.312	8.75
771.06	9.75
771.807	7.75
772.554	8.75
773.302	7.75
774.049	5.75
774.796	9.75
775.543	7.75
776.29	8.75
777.036	8.75
777.783	7.75
778.53	7.75
779.276	10.75
780.023	10.75
780.769	10.75
781.516	7.75
782.262	9.75
783.008	8.75
783.754	9.75
784.5	9.75
785.246	9.75
785.992	7.75
786.738	8.75
787.484	8.75
788.23	10.75
788.975	9.75
789.721	10.75
790.466	9.75
791.212	9.75
791.957	6.75
792.702	10.75
793.447	6.75
794.193	10.75
794.938	8.75
795.683	6.75
796.427	7.75
797.172	7.75
797.917	9.75
798.662	6.75
799.406	8.75
800.151	8.75
800.895	7.75
801.64	7.75
802.384	6.75
803.128	7.75
803.872	8.75
804.616	7.75
805.36	6.75
806.104	6.75
806.848	6.75
807.592	6.75
808.336	6.75
809.079	4.75
809.823	4.75
810.566	7.75
811.31	6.75
812.053	5.75
812.796	6.75
813.539	5.75
814.283	4.75
815.026	6.75
815.769	5.75
816.511	5.75
817.254	5.75
817.997	3.75
818.74	1.75
819.482	6.75
820.225	4.75
820.967	3.75
821.71	6.75
822.452	5.75
823.194	4.75
823.936	4.75
824.678	6.75
825.42	4.75
826.162	4.75
826.904	5.75
827.646	2.75
828.388	3.75
829.129	2.75
829.871	5.75
830.612	4.75
831.354	2.75
832.095	3.75
832.836	4.75
833.577	3.75
834.319	4.75
835.06	4.75
835.801	3.75
836.542	1.75
837.282	3.75
838.023	1.75
838.764	3.75
839.504	5.75
840.245	4.75
840.985	3.75
841.726	2.75
842.466	4.75
843.206	2.75
843.946	2.75
844.687	3.75
845.427	2.75
846.166	4.75
846.906	0.75
847.646	5.75
848.386	1.75
849.125	0.75
849.865	4.75
850.605	2.75
851.344	0.75
852.083	3.75
852.823	3.75
853.562	3.75
854.301	1.75
855.04	3.75
855.779	1.75
856.518	0.75
857.257	0.75
857.995	3.75
858.734	1.75
859.473	3.75
860.211	1.75
860.95	2.75
861.688	5.75
862.426	5.75
863.165	2.75
863.903	2.75
864.641	2.75
865.379	2.75
866.117	2.75
866.855	2.75
867.593	1.75
868.33	1.75
869.068	1.75
869.806	-0.25
870.543	3.75
871.28	0.75
872.018	0.75
872.755	1.75
873.492	2.75
874.229	2.75
874.967	2.75
875.703	0.75
876.44	0.75
877.177	1.75
877.914	1.75
878.651	0.75
879.387	2.75
880.124	0.75
880.86	1.75
881.597	1.75
882.333	0.75
883.069	2.75
883.806	0.75
884.542	0.75
885.278	1.75
886.014	1.75
886.749	2.75
887.485	1.75
888.221	2.75
888.957	1.75
889.692	0.75
890.428	0.75
891.163	0.75
891.899	2.75
892.634	-0.25
893.369	-1.25
894.104	2.75
894.839	1.75
895.574	1.75
896.309	2.75
897.044	1.75
897.779	0.75
898.514	2.75
899.248	2.75
899.983	0.75
900.717	1.75
901.452	1.75
902.186	-0.25
902.92	1.75
903.654	0.75
904.389	1.75
905.123	-1.25
905.857	2.75
906.59	1.75
907.324	0.75
908.058	1.75
908.792	-0.25
909.525	1.75
910.259	0.75
910.992	-0.25
911.726	-1.25
912.459	1.75
913.192	1.75
913.925	1.75
914.658	1.75
915.391	0.75
916.124	1.75
916.857	1.75
917.59	0.75
918.323	0.75
919.055	0.75
919.788	-0.25
920.521	0.75
921.253	-0.25
921.985	1.75
922.718	-0.25
923.45	0.75
924.182	0.75
924.914	0.75
925.646	-0.25
926.378	0.75
927.11	2.75
927.841	-0.25
928.573	0.75
929.305	-0.25
930.036	1.75
930.768	0.75
931.499	0.75
932.23	2.75
932.962	0.75
933.693	3.75
934.424	0.75
935.155	-1.25
935.886	-0.25
936.617	0.75
937.348	0.75
938.078	0.75
938.809	-0.25
939.54	0.75
940.27	-0.25
941.001	1.75
941.731	0.75
942.461	1.75
943.191	2.75
943.922	-0.25
944.652	-0.25
945.382	0.75
946.112	0.75
946.841	1.75
947.571	2.75
948.301	-1.25
949.031	-0.25
949.76	-0.25
950.49	0.75
951.219	0.75
951.948	1.75
952.678	1.75
953.407	1.75
954.136	-0.25
954.865	0.75
955.594	0.75
956.323	-1.25
957.052	0.75
957.78	-0.25
958.509	-0.25
959.238	-0.25
959.966	-0.25
960.695	1.75
961.423	1.75
962.151	0.75
962.88	0.75
963.608	3.75
964.336	1.75
965.064	1.75
965.792	0.75
966.52	-0.25
967.247	0.75
967.975	-1.25
968.703	-2.25
969.43	-1.25
970.158	-0.25
970.885	0.75
971.613	0.75
972.34	1.75
973.067	-0.25
973.794	1.75
974.521	-0.25
975.248	0.75
975.975	1.75
976.702	0.75
977.429	-1.25
978.156	-0.25
978.882	-2.25
979.609	2.75
980.335	-1.25
981.062	0.75
981.788	0.75
982.514	2.75
983.24	2.75
983.967	-0.25
984.693	1.75
985.419	0.75
986.144	-1.25
986.87	0.75
987.596	1.75
988.322	-0.25
989.047	1.75
989.773	0.75
990.498	1.75
991.224	-0.25
991.949	1.75
992.674	-0.25
993.399	1.75
994.124	-2.25
994.849	0.75
995.574	1.75
996.299	-0.25
997.024	0.75
997.749	0.75
998.473	1.75
999.198	-0.25
999.922	-0.25
1000.647	1.75
1001.371	4.75
1002.095	-2.25
1002.82	-0.25
1003.544	-2.25
1004.268	0.75
1004.992	-0.25
1005.716	1.75
1006.439	2.75
1007.163	0.75
1007.887	0.75
1008.611	-1.25
1009.334	1.75
1010.058	0.75
1010.781	0.75
1011.504	0.75
1012.228	-1.25
1012.951	0.75
1013.674	-1.25
1014.397	-0.25
1015.12	0.75
