节点500_285_QEPB04081__839__15-09-30-721.txt的数据

Date: Wed Nov 12 15:09:30 CST 2025
User: PC
Spectrometer: QEPB0408
触发模式: 0
积分时间 (秒): 1.000000E-2
Scans to average: 1
启用暗噪声校正: true
启用非线性校正: false
滑动平均宽度: 0
X轴模式: Wavelengths
Number of Pixels in Spectrum: 1044
>>>>>Begin Spectral Data<<<<<
220.843	0.62
221.644	-0.38
222.444	1.62
223.244	1.62
224.045	0.62
224.845	0.62
225.645	0.62
226.445	2.62
227.245	-0.38
228.045	0.62
228.845	1.62
229.645	0.62
230.444	0.62
231.244	1.62
232.043	3.62
232.843	4.62
233.642	2.62
234.442	3.62
235.241	3.62
236.04	4.62
236.839	0.62
237.638	4.62
238.437	4.62
239.236	1.62
240.035	3.62
240.833	1.62
241.632	5.62
242.43	3.62
243.229	4.62
244.027	3.62
244.826	5.62
245.624	5.62
246.422	3.62
247.22	5.62
248.018	5.62
248.816	5.62
249.614	5.62
250.412	6.62
251.21	6.62
252.007	4.62
252.805	4.62
253.602	6.62
254.4	5.62
255.197	5.62
255.994	4.62
256.791	8.62
257.589	8.62
258.386	5.62
259.183	8.62
259.979	7.62
260.776	9.62
261.573	6.62
262.37	11.62
263.166	9.62
263.963	8.62
264.759	10.62
265.556	10.62
266.352	9.62
267.148	9.62
267.944	12.62
268.74	9.62
269.536	10.62
270.332	11.62
271.128	12.62
271.924	13.62
272.719	13.62
273.515	14.62
274.311	13.62
275.106	11.62
275.901	16.62
276.697	10.62
277.492	16.62
278.287	16.62
279.082	15.62
279.877	18.62
280.672	15.62
281.467	15.62
282.262	14.62
283.056	17.62
283.851	16.62
284.646	16.62
285.44	14.62
286.234	17.62
287.029	16.62
287.823	17.62
288.617	14.62
289.411	15.62
290.205	13.62
290.999	17.62
291.793	16.62
292.587	17.62
293.381	15.62
294.174	16.62
294.968	13.62
295.761	15.62
296.555	16.62
297.348	11.62
298.141	18.62
298.935	14.62
299.728	16.62
300.521	13.62
301.314	13.62
302.107	12.62
302.899	10.62
303.692	13.62
304.485	10.62
305.277	11.62
306.07	9.62
306.862	15.62
307.655	11.62
308.447	10.62
309.239	13.62
310.031	11.62
310.823	10.62
311.615	7.62
312.407	10.62
313.199	8.62
313.991	6.62
314.783	9.62
315.574	7.62
316.366	7.62
317.157	7.62
317.949	7.62
318.74	9.62
319.531	7.62
320.322	7.62
321.113	7.62
321.904	6.62
322.695	6.62
323.486	6.62
324.277	5.62
325.068	5.62
325.858	6.62
326.649	7.62
327.439	6.62
328.23	7.62
329.02	6.62
329.81	6.62
330.6	7.62
331.391	4.62
332.181	5.62
332.971	5.62
333.76	3.62
334.55	6.62
335.34	5.62
336.13	4.62
336.919	5.62
337.709	6.62
338.498	6.62
339.287	6.62
340.077	5.62
340.866	5.62
341.655	4.62
342.444	5.62
343.233	3.62
344.022	6.62
344.811	5.62
345.6	2.62
346.388	5.62
347.177	4.62
347.965	6.62
348.754	5.62
349.542	4.62
350.33	6.62
351.119	4.62
351.907	5.62
352.695	4.62
353.483	4.62
354.271	5.62
355.059	4.62
355.846	6.62
356.634	5.62
357.422	6.62
358.209	5.62
358.997	6.62
359.784	4.62
360.571	4.62
361.359	4.62
362.146	3.62
362.933	5.62
363.72	4.62
364.507	2.62
365.294	6.62
366.081	5.62
366.867	3.62
367.654	4.62
368.44	3.62
369.227	4.62
370.013	1.62
370.8	5.62
371.586	4.62
372.372	5.62
373.158	3.62
373.944	3.62
374.73	4.62
375.516	4.62
376.302	3.62
377.088	3.62
377.873	4.62
378.659	3.62
379.445	3.62
380.23	6.62
381.015	4.62
381.801	3.62
382.586	5.62
383.371	2.62
384.156	5.62
384.941	5.62
385.726	5.62
386.511	1.62
387.296	6.62
388.08	4.62
388.865	4.62
389.649	5.62
390.434	2.62
391.218	5.62
392.003	5.62
392.787	6.62
393.571	6.62
394.355	4.62
395.139	6.62
395.923	3.62
396.707	7.62
397.491	6.62
398.274	6.62
399.058	3.62
399.842	4.62
400.625	8.62
401.408	4.62
402.192	6.62
402.975	6.62
403.758	7.62
404.541	5.62
405.324	4.62
406.107	7.62
406.89	8.62
407.673	7.62
408.456	7.62
409.238	4.62
410.021	6.62
410.803	8.62
411.586	8.62
412.368	6.62
413.151	9.62
413.933	9.62
414.715	6.62
415.497	7.62
416.279	9.62
417.061	8.62
417.843	7.62
418.624	8.62
419.406	9.62
420.188	9.62
420.969	10.62
421.751	7.62
422.532	9.62
423.313	9.62
424.095	9.62
424.876	10.62
425.657	9.62
426.438	12.62
427.219	10.62
428	12.62
428.78	10.62
429.561	12.62
430.342	10.62
431.122	12.62
431.903	9.62
432.683	13.62
433.464	15.62
434.244	16.62
435.024	13.62
435.804	17.62
436.584	18.62
437.364	17.62
438.144	18.62
438.924	22.62
439.704	21.62
440.483	23.62
441.263	25.62
442.042	22.62
442.822	26.62
443.601	29.62
444.38	29.62
445.16	32.62
445.939	36.62
446.718	41.62
447.497	41.62
448.276	43.62
449.054	45.62
449.833	53.62
450.612	58.62
451.391	60.62
452.169	67.62
452.948	76.62
453.726	83.62
454.504	91.62
455.282	101.62
456.061	110.62
456.839	118.62
457.617	138.62
458.395	156.62
459.172	169.62
459.95	194.62
460.728	209.62
461.506	237.62
462.283	264.62
463.061	287.62
463.838	331.62
464.615	362.62
465.393	395.62
466.17	447.62
466.947	495.62
467.724	553.62
468.501	595.62
469.278	668.62
470.055	740.62
470.831	818.62
471.608	914.62
472.385	1002.62
473.161	1109.62
473.938	1212.62
474.714	1340.62
475.49	1460.62
476.266	1613.62
477.043	1764.62
477.819	1930.62
478.595	2108.62
479.371	2325.62
480.146	2556.62
480.922	2775.62
481.698	3051.62
482.473	3312.62
483.249	3632.62
484.024	3943.62
484.8	4316.62
485.575	4709.62
486.35	5130.62
487.126	5568.62
487.901	6051.62
488.676	6578.62
489.451	7161.62
490.225	7780.62
491	8407.62
491.775	9217.62
492.55	9947.62
493.324	10672.62
494.099	11434.62
494.873	12290.62
495.647	13145.62
496.422	14205.62
497.196	15156.62
497.97	16125.62
498.744	17184.62
499.518	18208.62
500.292	19179.62
501.066	20211.62
501.839	21092.62
502.613	21981.62
503.387	22883.62
504.16	23497.62
504.934	24125.62
505.707	24397.62
506.48	24642.62
507.253	24825.62
508.027	24916.62
508.8	24983.62
509.573	24763.62
510.346	24445.62
511.118	23912.62
511.891	23405.62
512.664	22823.62
513.437	22119.62
514.209	21369.62
514.982	20697.62
515.754	19914.62
516.526	19073.62
517.298	18307.62
518.071	17607.62
518.843	16953.62
519.615	16337.62
520.387	15655.62
521.159	15087.62
521.93	14415.62
522.702	13871.62
523.474	13308.62
524.245	12767.62
525.017	12223.62
525.788	11754.62
526.56	11226.62
527.331	10711.62
528.102	10249.62
528.873	9861.62
529.644	9367.62
530.415	8961.62
531.186	8577.62
531.957	8116.62
532.728	7785.62
533.498	7371.62
534.269	6964.62
535.039	6638.62
535.81	6270.62
536.58	5898.62
537.351	5567.62
538.121	5302.62
538.891	4992.62
539.661	4756.62
540.431	4474.62
541.201	4222.62
541.971	4005.62
542.741	3791.62
543.51	3609.62
544.28	3439.62
545.05	3264.62
545.819	3096.62
546.588	2967.62
547.358	2797.62
548.127	2701.62
548.896	2552.62
549.665	2407.62
550.434	2278.62
551.203	2154.62
551.972	2049.62
552.741	1951.62
553.51	1846.62
554.278	1743.62
555.047	1657.62
555.815	1567.62
556.584	1457.62
557.352	1398.62
558.121	1311.62
558.889	1245.62
559.657	1173.62
560.425	1113.62
561.193	1055.62
561.961	984.62
562.729	932.62
563.496	892.62
564.264	835.62
565.032	787.62
565.799	748.62
566.567	708.62
567.334	660.62
568.101	634.62
568.869	595.62
569.636	559.62
570.403	525.62
571.17	493.62
571.937	465.62
572.704	442.62
573.471	410.62
574.237	392.62
575.004	368.62
575.771	352.62
576.537	328.62
577.303	315.62
578.07	291.62
578.836	278.62
579.602	260.62
580.368	249.62
581.134	235.62
581.9	222.62
582.666	210.62
583.432	201.62
584.198	189.62
584.964	174.62
585.729	165.62
586.495	159.62
587.26	155.62
588.025	144.62
588.791	138.62
589.556	127.62
590.321	123.62
591.086	118.62
591.851	107.62
592.616	104.62
593.381	97.62
594.146	93.62
594.911	88.62
595.675	84.62
596.44	82.62
597.204	77.62
597.969	72.62
598.733	69.62
599.497	67.62
600.261	62.62
601.025	63.62
601.79	56.62
602.553	57.62
603.317	54.62
604.081	50.62
604.845	46.62
605.609	47.62
606.372	44.62
607.136	46.62
607.899	40.62
608.662	41.62
609.426	38.62
610.189	36.62
610.952	33.62
611.715	33.62
612.478	32.62
613.241	33.62
614.004	30.62
614.767	29.62
615.529	27.62
616.292	24.62
617.055	26.62
617.817	27.62
618.579	22.62
619.342	23.62
620.104	23.62
620.866	17.62
621.628	22.62
622.39	17.62
623.152	18.62
623.914	20.62
624.676	17.62
625.438	15.62
626.199	15.62
626.961	13.62
627.722	15.62
628.484	15.62
629.245	13.62
630.006	13.62
630.768	13.62
631.529	13.62
632.29	11.62
633.051	13.62
633.812	11.62
634.573	11.62
635.333	10.62
636.094	12.62
636.855	12.62
637.615	12.62
638.376	11.62
639.136	9.62
639.896	13.62
640.657	8.62
641.417	8.62
642.177	9.62
642.937	7.62
643.697	6.62
644.457	7.62
645.216	8.62
645.976	6.62
646.736	6.62
647.495	9.62
648.255	7.62
649.014	5.62
649.774	8.62
650.533	7.62
651.292	7.62
652.051	6.62
652.81	6.62
653.569	7.62
654.328	6.62
655.087	5.62
655.846	7.62
656.604	5.62
657.363	8.62
658.121	8.62
658.88	2.62
659.638	6.62
660.397	5.62
661.155	3.62
661.913	5.62
662.671	2.62
663.429	6.62
664.187	4.62
664.945	7.62
665.703	4.62
666.46	5.62
667.218	4.62
667.976	6.62
668.733	4.62
669.49	4.62
670.248	5.62
671.005	3.62
671.762	1.62
672.519	5.62
673.276	2.62
674.033	4.62
674.79	6.62
675.547	4.62
676.304	3.62
677.06	4.62
677.817	4.62
678.574	3.62
679.33	3.62
680.086	3.62
680.843	2.62
681.599	4.62
682.355	3.62
683.111	5.62
683.867	3.62
684.623	4.62
685.379	2.62
686.135	4.62
686.89	3.62
687.646	2.62
688.402	1.62
689.157	3.62
689.912	6.62
690.668	3.62
691.423	1.62
692.178	2.62
692.933	2.62
693.688	3.62
694.443	0.62
695.198	1.62
695.953	0.62
696.708	2.62
697.462	4.62
698.217	1.62
698.972	3.62
699.726	3.62
700.48	4.62
701.235	5.62
701.989	2.62
702.743	3.62
703.497	1.62
704.251	3.62
705.005	4.62
705.759	2.62
706.513	1.62
707.266	4.62
708.02	4.62
708.774	3.62
709.527	2.62
710.28	4.62
711.034	3.62
711.787	3.62
712.54	0.62
713.293	3.62
714.046	1.62
714.799	3.62
715.552	4.62
716.305	1.62
717.058	5.62
717.81	1.62
718.563	2.62
719.315	4.62
720.068	1.62
720.82	3.62
721.573	2.62
722.325	3.62
723.077	4.62
723.829	2.62
724.581	4.62
725.333	4.62
726.085	3.62
726.836	3.62
727.588	2.62
728.34	4.62
729.091	3.62
729.843	3.62
730.594	3.62
731.346	1.62
732.097	4.62
732.848	2.62
733.599	2.62
734.35	3.62
735.101	3.62
735.852	1.62
736.603	5.62
737.354	2.62
738.104	1.62
738.855	3.62
739.605	3.62
740.356	4.62
741.106	3.62
741.856	3.62
742.607	3.62
743.357	3.62
744.107	2.62
744.857	4.62
745.607	4.62
746.357	4.62
747.106	3.62
747.856	4.62
748.606	3.62
749.355	5.62
750.105	5.62
750.854	3.62
751.603	3.62
752.353	6.62
753.102	4.62
753.851	5.62
754.6	4.62
755.349	4.62
756.098	4.62
756.847	5.62
757.595	3.62
758.344	5.62
759.093	5.62
759.841	3.62
760.589	3.62
761.338	5.62
762.086	5.62
762.834	4.62
763.582	3.62
764.331	6.62
765.079	3.62
765.826	4.62
766.574	7.62
767.322	3.62
768.07	4.62
768.817	3.62
769.565	5.62
770.312	5.62
771.06	5.62
771.807	6.62
772.554	4.62
773.302	5.62
774.049	7.62
774.796	10.62
775.543	5.62
776.29	7.62
777.036	7.62
777.783	7.62
778.53	6.62
779.276	6.62
780.023	7.62
780.769	8.62
781.516	6.62
782.262	4.62
783.008	7.62
783.754	8.62
784.5	5.62
785.246	7.62
785.992	6.62
786.738	8.62
787.484	8.62
788.23	4.62
788.975	5.62
789.721	8.62
790.466	5.62
791.212	6.62
791.957	6.62
792.702	7.62
793.447	5.62
794.193	6.62
794.938	5.62
795.683	6.62
796.427	7.62
797.172	6.62
797.917	6.62
798.662	7.62
799.406	6.62
800.151	7.62
800.895	6.62
801.64	7.62
802.384	5.62
803.128	6.62
803.872	4.62
804.616	5.62
805.36	5.62
806.104	5.62
806.848	5.62
807.592	4.62
808.336	3.62
809.079	5.62
809.823	4.62
810.566	4.62
811.31	5.62
812.053	4.62
812.796	4.62
813.539	6.62
814.283	4.62
815.026	5.62
815.769	6.62
816.511	5.62
817.254	3.62
817.997	2.62
818.74	2.62
819.482	5.62
820.225	4.62
820.967	3.62
821.71	4.62
822.452	6.62
823.194	3.62
823.936	4.62
824.678	4.62
825.42	3.62
826.162	3.62
826.904	1.62
827.646	1.62
828.388	4.62
829.129	5.62
829.871	3.62
830.612	1.62
831.354	3.62
832.095	1.62
832.836	4.62
833.577	1.62
834.319	4.62
835.06	4.62
835.801	3.62
836.542	2.62
837.282	3.62
838.023	3.62
838.764	2.62
839.504	2.62
840.245	4.62
840.985	2.62
841.726	3.62
842.466	3.62
843.206	1.62
843.946	1.62
844.687	3.62
845.427	2.62
846.166	4.62
846.906	3.62
847.646	2.62
848.386	3.62
849.125	1.62
849.865	2.62
850.605	3.62
851.344	-0.38
852.083	2.62
852.823	1.62
853.562	3.62
854.301	3.62
855.04	0.62
855.779	2.62
856.518	1.62
857.257	3.62
857.995	2.62
858.734	1.62
859.473	1.62
860.211	1.62
860.95	2.62
861.688	3.62
862.426	0.62
863.165	1.62
863.903	1.62
864.641	2.62
865.379	1.62
866.117	1.62
866.855	1.62
867.593	1.62
868.33	2.62
869.068	0.62
869.806	2.62
870.543	-1.38
871.28	1.62
872.018	1.62
872.755	1.62
873.492	1.62
874.229	0.62
874.967	0.62
875.703	0.62
876.44	0.62
877.177	1.62
877.914	0.62
878.651	2.62
879.387	-0.38
880.124	2.62
880.86	0.62
881.597	-0.38
882.333	1.62
883.069	0.62
883.806	-0.38
884.542	1.62
885.278	2.62
886.014	-0.38
886.749	0.62
887.485	2.62
888.221	-1.38
888.957	1.62
889.692	-2.38
890.428	0.62
891.163	-0.38
891.899	0.62
892.634	-1.38
893.369	0.62
894.104	1.62
894.839	-0.38
895.574	2.62
896.309	-0.38
897.044	-0.38
897.779	0.62
898.514	-2.38
899.248	1.62
899.983	-0.38
900.717	-2.38
901.452	-0.38
902.186	0.62
902.92	-1.38
903.654	-0.38
904.389	-1.38
905.123	-0.38
905.857	-0.38
906.59	0.62
907.324	-0.38
908.058	0.62
908.792	1.62
909.525	0.62
910.259	0.62
910.992	-2.38
911.726	-0.38
912.459	-1.38
913.192	-0.38
913.925	0.62
914.658	-0.38
915.391	-0.38
916.124	-1.38
916.857	-1.38
917.59	-1.38
918.323	1.62
919.055	0.62
919.788	0.62
920.521	-0.38
921.253	0.62
921.985	1.62
922.718	-0.38
923.45	1.62
924.182	-0.38
924.914	-0.38
925.646	1.62
926.378	-2.38
927.11	0.62
927.841	-2.38
928.573	1.62
929.305	0.62
930.036	0.62
930.768	-1.38
931.499	-1.38
932.23	-0.38
932.962	0.62
933.693	1.62
934.424	0.62
935.155	-0.38
935.886	-0.38
936.617	0.62
937.348	0.62
938.078	-1.38
938.809	-0.38
939.54	-1.38
940.27	-0.38
941.001	-0.38
941.731	-0.38
942.461	0.62
943.191	0.62
943.922	0.62
944.652	-1.38
945.382	0.62
946.112	0.62
946.841	-2.38
947.571	-0.38
948.301	-0.38
949.031	0.62
949.76	-0.38
950.49	-0.38
951.219	0.62
951.948	-1.38
952.678	0.62
953.407	-1.38
954.136	-1.38
954.865	1.62
955.594	-2.38
956.323	0.62
957.052	-1.38
957.78	0.62
958.509	1.62
959.238	2.62
959.966	-0.38
960.695	-1.38
961.423	-0.38
962.151	-0.38
962.88	0.62
963.608	-0.38
964.336	-0.38
965.064	-0.38
965.792	1.62
966.52	-0.38
967.247	-0.38
967.975	0.62
968.703	-0.38
969.43	-0.38
970.158	2.62
970.885	0.62
971.613	-0.38
972.34	0.62
973.067	-1.38
973.794	0.62
974.521	-0.38
975.248	-0.38
975.975	0.62
976.702	1.62
977.429	1.62
978.156	-2.38
978.882	-2.38
979.609	-0.38
980.335	0.62
981.062	-0.38
981.788	1.62
982.514	0.62
983.24	-0.38
983.967	-1.38
984.693	-1.38
985.419	1.62
986.144	-3.38
986.87	0.62
987.596	-1.38
988.322	0.62
989.047	-0.38
989.773	-1.38
990.498	0.62
991.224	0.62
991.949	-0.38
992.674	0.62
993.399	-0.38
994.124	0.62
994.849	-4.38
995.574	1.62
996.299	-0.38
997.024	0.62
997.749	0.62
998.473	-1.38
999.198	0.62
999.922	-1.38
1000.647	-0.38
1001.371	4.62
1002.095	0.62
1002.82	-0.38
1003.544	-2.38
1004.268	1.62
1004.992	-0.38
1005.716	0.62
1006.439	-1.38
1007.163	0.62
1007.887	0.62
1008.611	0.62
1009.334	0.62
1010.058	1.62
1010.781	-1.38
1011.504	-1.38
1012.228	1.62
1012.951	0.62
1013.674	-1.38
1014.397	-2.38
1015.12	0.62
