节点500_285_QEPB04081__144__14-57-57-185.txt的数据

Date: Wed Nov 12 14:57:57 CST 2025
User: PC
Spectrometer: QEPB0408
触发模式: 0
积分时间 (秒): 1.000000E-2
Scans to average: 1
启用暗噪声校正: true
启用非线性校正: false
滑动平均宽度: 0
X轴模式: Wavelengths
Number of Pixels in Spectrum: 1044
>>>>>Begin Spectral Data<<<<<
220.843	0.38
221.644	3.38
222.444	2.38
223.244	3.38
224.045	4.38
224.845	2.38
225.645	2.38
226.445	2.38
227.245	2.38
228.045	3.38
228.845	3.38
229.645	3.38
230.444	1.38
231.244	3.38
232.043	1.38
232.843	2.38
233.642	3.38
234.442	4.38
235.241	4.38
236.04	1.38
236.839	4.38
237.638	3.38
238.437	2.38
239.236	4.38
240.035	2.38
240.833	5.38
241.632	4.38
242.43	6.38
243.229	5.38
244.027	5.38
244.826	3.38
245.624	6.38
246.422	6.38
247.22	6.38
248.018	9.38
248.816	5.38
249.614	4.38
250.412	6.38
251.21	6.38
252.007	6.38
252.805	8.38
253.602	8.38
254.4	5.38
255.197	7.38
255.994	8.38
256.791	7.38
257.589	10.38
258.386	8.38
259.183	12.38
259.979	9.38
260.776	8.38
261.573	9.38
262.37	11.38
263.166	10.38
263.963	13.38
264.759	14.38
265.556	10.38
266.352	13.38
267.148	16.38
267.944	16.38
268.74	13.38
269.536	16.38
270.332	18.38
271.128	13.38
271.924	15.38
272.719	14.38
273.515	16.38
274.311	16.38
275.106	16.38
275.901	18.38
276.697	18.38
277.492	16.38
278.287	15.38
279.082	19.38
279.877	20.38
280.672	19.38
281.467	17.38
282.262	20.38
283.056	18.38
283.851	20.38
284.646	19.38
285.44	21.38
286.234	21.38
287.029	18.38
287.823	18.38
288.617	18.38
289.411	20.38
290.205	20.38
290.999	20.38
291.793	20.38
292.587	17.38
293.381	16.38
294.174	17.38
294.968	13.38
295.761	17.38
296.555	16.38
297.348	15.38
298.141	16.38
298.935	16.38
299.728	15.38
300.521	13.38
301.314	14.38
302.107	13.38
302.899	13.38
303.692	15.38
304.485	13.38
305.277	12.38
306.07	12.38
306.862	12.38
307.655	13.38
308.447	12.38
309.239	11.38
310.031	13.38
310.823	11.38
311.615	11.38
312.407	9.38
313.199	8.38
313.991	12.38
314.783	8.38
315.574	7.38
316.366	7.38
317.157	9.38
317.949	8.38
318.74	7.38
319.531	7.38
320.322	10.38
321.113	8.38
321.904	6.38
322.695	8.38
323.486	8.38
324.277	7.38
325.068	8.38
325.858	6.38
326.649	7.38
327.439	6.38
328.23	9.38
329.02	6.38
329.81	8.38
330.6	6.38
331.391	5.38
332.181	7.38
332.971	5.38
333.76	7.38
334.55	4.38
335.34	7.38
336.13	8.38
336.919	6.38
337.709	6.38
338.498	4.38
339.287	8.38
340.077	6.38
340.866	7.38
341.655	6.38
342.444	5.38
343.233	7.38
344.022	5.38
344.811	8.38
345.6	6.38
346.388	8.38
347.177	6.38
347.965	4.38
348.754	6.38
349.542	3.38
350.33	4.38
351.119	6.38
351.907	5.38
352.695	7.38
353.483	5.38
354.271	6.38
355.059	6.38
355.846	4.38
356.634	6.38
357.422	5.38
358.209	6.38
358.997	6.38
359.784	7.38
360.571	4.38
361.359	3.38
362.146	5.38
362.933	5.38
363.72	6.38
364.507	7.38
365.294	5.38
366.081	6.38
366.867	3.38
367.654	4.38
368.44	7.38
369.227	6.38
370.013	4.38
370.8	5.38
371.586	6.38
372.372	7.38
373.158	3.38
373.944	4.38
374.73	4.38
375.516	6.38
376.302	4.38
377.088	5.38
377.873	4.38
378.659	4.38
379.445	4.38
380.23	4.38
381.015	6.38
381.801	4.38
382.586	7.38
383.371	4.38
384.156	5.38
384.941	6.38
385.726	4.38
386.511	7.38
387.296	6.38
388.08	6.38
388.865	4.38
389.649	8.38
390.434	6.38
391.218	6.38
392.003	6.38
392.787	5.38
393.571	5.38
394.355	6.38
395.139	5.38
395.923	7.38
396.707	6.38
397.491	7.38
398.274	6.38
399.058	7.38
399.842	6.38
400.625	8.38
401.408	7.38
402.192	9.38
402.975	6.38
403.758	8.38
404.541	5.38
405.324	7.38
406.107	6.38
406.89	7.38
407.673	8.38
408.456	9.38
409.238	8.38
410.021	10.38
410.803	8.38
411.586	10.38
412.368	8.38
413.151	9.38
413.933	9.38
414.715	9.38
415.497	8.38
416.279	9.38
417.061	11.38
417.843	9.38
418.624	7.38
419.406	6.38
420.188	9.38
420.969	12.38
421.751	9.38
422.532	11.38
423.313	11.38
424.095	13.38
424.876	10.38
425.657	11.38
426.438	10.38
427.219	12.38
428	12.38
428.78	14.38
429.561	14.38
430.342	13.38
431.122	13.38
431.903	17.38
432.683	16.38
433.464	17.38
434.244	16.38
435.024	15.38
435.804	17.38
436.584	17.38
437.364	21.38
438.144	19.38
438.924	18.38
439.704	20.38
440.483	24.38
441.263	24.38
442.042	28.38
442.822	27.38
443.601	28.38
444.38	28.38
445.16	31.38
445.939	31.38
446.718	37.38
447.497	36.38
448.276	38.38
449.054	44.38
449.833	47.38
450.612	49.38
451.391	55.38
452.169	61.38
452.948	66.38
453.726	69.38
454.504	75.38
455.282	86.38
456.061	95.38
456.839	106.38
457.617	121.38
458.395	131.38
459.172	141.38
459.95	155.38
460.728	176.38
461.506	196.38
462.283	218.38
463.061	245.38
463.838	272.38
464.615	307.38
465.393	342.38
466.17	386.38
466.947	417.38
467.724	477.38
468.501	528.38
469.278	607.38
470.055	672.38
470.831	730.38
471.608	817.38
472.385	922.38
473.161	1014.38
473.938	1134.38
474.714	1264.38
475.49	1407.38
476.266	1563.38
477.043	1735.38
477.819	1914.38
478.595	2133.38
479.371	2336.38
480.146	2593.38
480.922	2895.38
481.698	3163.38
482.473	3504.38
483.249	3866.38
484.024	4297.38
484.8	4716.38
485.575	5220.38
486.35	5750.38
487.126	6330.38
487.901	6979.38
488.676	7654.38
489.451	8437.38
490.225	9222.38
491	10104.38
491.775	11069.38
492.55	12096.38
493.324	13172.38
494.099	14132.38
494.873	15278.38
495.647	16562.38
496.422	17783.38
497.196	18994.38
497.97	20214.38
498.744	21517.38
499.518	22724.38
500.292	23857.38
501.066	25004.38
501.839	25982.38
502.613	26858.38
503.387	27553.38
504.16	28123.38
504.934	28373.38
505.707	28410.38
506.48	28396.38
507.253	28173.38
508.027	27763.38
508.8	27353.38
509.573	26779.38
510.346	26027.38
511.118	25154.38
511.891	24282.38
512.664	23384.38
513.437	22409.38
514.209	21430.38
514.982	20480.38
515.754	19538.38
516.526	18709.38
517.298	17880.38
518.071	17034.38
518.843	16426.38
519.615	15781.38
520.387	15104.38
521.159	14567.38
521.93	13990.38
522.702	13435.38
523.474	12868.38
524.245	12303.38
525.017	11780.38
525.788	11288.38
526.56	10781.38
527.331	10286.38
528.102	9795.38
528.873	9337.38
529.644	8879.38
530.415	8388.38
531.186	7938.38
531.957	7519.38
532.728	7154.38
533.498	6782.38
534.269	6392.38
535.039	6001.38
535.81	5711.38
536.58	5349.38
537.351	5070.38
538.121	4760.38
538.891	4515.38
539.661	4298.38
540.431	4026.38
541.201	3813.38
541.971	3611.38
542.741	3441.38
543.51	3265.38
544.28	3109.38
545.05	2958.38
545.819	2809.38
546.588	2673.38
547.358	2550.38
548.127	2391.38
548.896	2290.38
549.665	2173.38
550.434	2035.38
551.203	1953.38
551.972	1827.38
552.741	1738.38
553.51	1630.38
554.278	1546.38
555.047	1459.38
555.815	1367.38
556.584	1297.38
557.352	1225.38
558.121	1152.38
558.889	1101.38
559.657	1018.38
560.425	975.38
561.193	910.38
561.961	851.38
562.729	810.38
563.496	768.38
564.264	727.38
565.032	692.38
565.799	648.38
566.567	613.38
567.334	576.38
568.101	554.38
568.869	519.38
569.636	487.38
570.403	463.38
571.17	433.38
571.937	413.38
572.704	379.38
573.471	363.38
574.237	341.38
575.004	321.38
575.771	301.38
576.537	287.38
577.303	268.38
578.07	252.38
578.836	239.38
579.602	218.38
580.368	213.38
581.134	208.38
581.9	191.38
582.666	182.38
583.432	172.38
584.198	163.38
584.964	153.38
585.729	151.38
586.495	138.38
587.26	131.38
588.025	127.38
588.791	115.38
589.556	113.38
590.321	104.38
591.086	98.38
591.851	98.38
592.616	90.38
593.381	91.38
594.146	83.38
594.911	81.38
595.675	74.38
596.44	73.38
597.204	70.38
597.969	67.38
598.733	65.38
599.497	60.38
600.261	58.38
601.025	56.38
601.79	54.38
602.553	50.38
603.317	44.38
604.081	47.38
604.845	45.38
605.609	39.38
606.372	42.38
607.136	39.38
607.899	40.38
608.662	34.38
609.426	33.38
610.189	35.38
610.952	33.38
611.715	28.38
612.478	28.38
613.241	27.38
614.004	25.38
614.767	26.38
615.529	28.38
616.292	24.38
617.055	23.38
617.817	20.38
618.579	23.38
619.342	20.38
620.104	21.38
620.866	20.38
621.628	20.38
622.39	18.38
623.152	14.38
623.914	19.38
624.676	17.38
625.438	16.38
626.199	15.38
626.961	13.38
627.722	13.38
628.484	16.38
629.245	12.38
630.006	12.38
630.768	14.38
631.529	15.38
632.29	11.38
633.051	12.38
633.812	12.38
634.573	10.38
635.333	11.38
636.094	9.38
636.855	11.38
637.615	10.38
638.376	11.38
639.136	11.38
639.896	9.38
640.657	8.38
641.417	11.38
642.177	7.38
642.937	9.38
643.697	7.38
644.457	9.38
645.216	9.38
645.976	8.38
646.736	8.38
647.495	7.38
648.255	6.38
649.014	7.38
649.774	9.38
650.533	9.38
651.292	5.38
652.051	6.38
652.81	7.38
653.569	8.38
654.328	9.38
655.087	7.38
655.846	6.38
656.604	5.38
657.363	5.38
658.121	7.38
658.88	6.38
659.638	6.38
660.397	7.38
661.155	6.38
661.913	6.38
662.671	5.38
663.429	5.38
664.187	6.38
664.945	5.38
665.703	6.38
666.46	4.38
667.218	4.38
667.976	5.38
668.733	5.38
669.49	6.38
670.248	5.38
671.005	3.38
671.762	5.38
672.519	3.38
673.276	1.38
674.033	5.38
674.79	4.38
675.547	6.38
676.304	2.38
677.06	3.38
677.817	3.38
678.574	4.38
679.33	2.38
680.086	5.38
680.843	3.38
681.599	3.38
682.355	3.38
683.111	4.38
683.867	5.38
684.623	3.38
685.379	2.38
686.135	3.38
686.89	4.38
687.646	4.38
688.402	4.38
689.157	4.38
689.912	3.38
690.668	1.38
691.423	3.38
692.178	4.38
692.933	4.38
693.688	5.38
694.443	3.38
695.198	4.38
695.953	2.38
696.708	4.38
697.462	2.38
698.217	3.38
698.972	6.38
699.726	4.38
700.48	4.38
701.235	1.38
701.989	6.38
702.743	2.38
703.497	4.38
704.251	3.38
705.005	3.38
705.759	3.38
706.513	3.38
707.266	3.38
708.02	3.38
708.774	3.38
709.527	3.38
710.28	1.38
711.034	3.38
711.787	4.38
712.54	3.38
713.293	3.38
714.046	3.38
714.799	4.38
715.552	1.38
716.305	3.38
717.058	2.38
717.81	1.38
718.563	3.38
719.315	1.38
720.068	3.38
720.82	1.38
721.573	6.38
722.325	5.38
723.077	5.38
723.829	5.38
724.581	5.38
725.333	4.38
726.085	3.38
726.836	2.38
727.588	6.38
728.34	2.38
729.091	3.38
729.843	6.38
730.594	2.38
731.346	3.38
732.097	4.38
732.848	3.38
733.599	3.38
734.35	6.38
735.101	2.38
735.852	3.38
736.603	5.38
737.354	4.38
738.104	4.38
738.855	4.38
739.605	4.38
740.356	4.38
741.106	4.38
741.856	4.38
742.607	6.38
743.357	3.38
744.107	4.38
744.857	5.38
745.607	6.38
746.357	2.38
747.106	6.38
747.856	4.38
748.606	6.38
749.355	7.38
750.105	4.38
750.854	6.38
751.603	6.38
752.353	4.38
753.102	6.38
753.851	6.38
754.6	4.38
755.349	6.38
756.098	6.38
756.847	5.38
757.595	6.38
758.344	5.38
759.093	5.38
759.841	4.38
760.589	7.38
761.338	7.38
762.086	5.38
762.834	6.38
763.582	6.38
764.331	4.38
765.079	5.38
765.826	6.38
766.574	5.38
767.322	7.38
768.07	7.38
768.817	7.38
769.565	6.38
770.312	7.38
771.06	8.38
771.807	7.38
772.554	7.38
773.302	7.38
774.049	8.38
774.796	7.38
775.543	6.38
776.29	8.38
777.036	9.38
777.783	8.38
778.53	8.38
779.276	7.38
780.023	8.38
780.769	9.38
781.516	9.38
782.262	8.38
783.008	11.38
783.754	10.38
784.5	8.38
785.246	8.38
785.992	7.38
786.738	10.38
787.484	8.38
788.23	11.38
788.975	8.38
789.721	9.38
790.466	11.38
791.212	8.38
791.957	11.38
792.702	7.38
793.447	7.38
794.193	6.38
794.938	7.38
795.683	8.38
796.427	8.38
797.172	8.38
797.917	9.38
798.662	8.38
799.406	7.38
800.151	7.38
800.895	9.38
801.64	6.38
802.384	6.38
803.128	6.38
803.872	6.38
804.616	7.38
805.36	9.38
806.104	7.38
806.848	6.38
807.592	7.38
808.336	4.38
809.079	4.38
809.823	4.38
810.566	5.38
811.31	6.38
812.053	6.38
812.796	3.38
813.539	7.38
814.283	4.38
815.026	4.38
815.769	7.38
816.511	7.38
817.254	4.38
817.997	3.38
818.74	4.38
819.482	1.38
820.225	5.38
820.967	5.38
821.71	3.38
822.452	5.38
823.194	5.38
823.936	3.38
824.678	4.38
825.42	4.38
826.162	4.38
826.904	2.38
827.646	5.38
828.388	3.38
829.129	4.38
829.871	4.38
830.612	4.38
831.354	5.38
832.095	5.38
832.836	3.38
833.577	3.38
834.319	2.38
835.06	5.38
835.801	2.38
836.542	3.38
837.282	3.38
838.023	3.38
838.764	2.38
839.504	4.38
840.245	4.38
840.985	4.38
841.726	2.38
842.466	2.38
843.206	1.38
843.946	1.38
844.687	-0.62
845.427	4.38
846.166	3.38
846.906	4.38
847.646	4.38
848.386	4.38
849.125	6.38
849.865	3.38
850.605	1.38
851.344	3.38
852.083	2.38
852.823	5.38
853.562	0.38
854.301	1.38
855.04	1.38
855.779	4.38
856.518	1.38
857.257	0.38
857.995	3.38
858.734	1.38
859.473	2.38
860.211	0.38
860.95	2.38
861.688	2.38
862.426	-0.62
863.165	1.38
863.903	0.38
864.641	4.38
865.379	3.38
866.117	2.38
866.855	1.38
867.593	1.38
868.33	0.38
869.068	1.38
869.806	1.38
870.543	2.38
871.28	0.38
872.018	1.38
872.755	3.38
873.492	1.38
874.229	0.38
874.967	2.38
875.703	0.38
876.44	3.38
877.177	2.38
877.914	1.38
878.651	0.38
879.387	3.38
880.124	1.38
880.86	1.38
881.597	0.38
882.333	1.38
883.069	1.38
883.806	0.38
884.542	1.38
885.278	1.38
886.014	2.38
886.749	2.38
887.485	-0.62
888.221	1.38
888.957	1.38
889.692	1.38
890.428	0.38
891.163	1.38
891.899	0.38
892.634	2.38
893.369	1.38
894.104	0.38
894.839	0.38
895.574	2.38
896.309	-0.62
897.044	-0.62
897.779	0.38
898.514	0.38
899.248	1.38
899.983	1.38
900.717	-0.62
901.452	1.38
902.186	1.38
902.92	1.38
903.654	0.38
904.389	0.38
905.123	0.38
905.857	-0.62
906.59	-1.62
907.324	0.38
908.058	-0.62
908.792	2.38
909.525	-0.62
910.259	-1.62
910.992	0.38
911.726	0.38
912.459	0.38
913.192	-0.62
913.925	-1.62
914.658	0.38
915.391	0.38
916.124	1.38
916.857	0.38
917.59	1.38
918.323	-0.62
919.055	1.38
919.788	-0.62
920.521	0.38
921.253	1.38
921.985	2.38
922.718	2.38
923.45	1.38
924.182	0.38
924.914	-0.62
925.646	0.38
926.378	2.38
927.11	-1.62
927.841	1.38
928.573	0.38
929.305	-0.62
930.036	1.38
930.768	0.38
931.499	0.38
932.23	-0.62
932.962	1.38
933.693	-0.62
934.424	0.38
935.155	2.38
935.886	-1.62
936.617	-0.62
937.348	-0.62
938.078	-2.62
938.809	1.38
939.54	-1.62
940.27	1.38
941.001	1.38
941.731	-0.62
942.461	1.38
943.191	2.38
943.922	1.38
944.652	-2.62
945.382	1.38
946.112	0.38
946.841	0.38
947.571	0.38
948.301	0.38
949.031	1.38
949.76	1.38
950.49	-1.62
951.219	1.38
951.948	-0.62
952.678	1.38
953.407	0.38
954.136	-0.62
954.865	-0.62
955.594	-1.62
956.323	2.38
957.052	1.38
957.78	1.38
958.509	0.38
959.238	1.38
959.966	0.38
960.695	1.38
961.423	-0.62
962.151	-0.62
962.88	-0.62
963.608	0.38
964.336	0.38
965.064	-0.62
965.792	-1.62
966.52	1.38
967.247	0.38
967.975	-1.62
968.703	2.38
969.43	0.38
970.158	1.38
970.885	0.38
971.613	1.38
972.34	2.38
973.067	2.38
973.794	-0.62
974.521	-0.62
975.248	1.38
975.975	-0.62
976.702	0.38
977.429	1.38
978.156	0.38
978.882	-0.62
979.609	1.38
980.335	0.38
981.062	0.38
981.788	-0.62
982.514	1.38
983.24	-0.62
983.967	0.38
984.693	2.38
985.419	1.38
986.144	-0.62
986.87	0.38
987.596	-2.62
988.322	1.38
989.047	1.38
989.773	-0.62
990.498	0.38
991.224	-0.62
991.949	1.38
992.674	-0.62
993.399	0.38
994.124	-0.62
994.849	1.38
995.574	-0.62
996.299	-0.62
997.024	2.38
997.749	1.38
998.473	0.38
999.198	1.38
999.922	0.38
1000.647	-0.62
1001.371	1.38
1002.095	1.38
1002.82	-1.62
1003.544	-0.62
1004.268	1.38
1004.992	0.38
1005.716	2.38
1006.439	-0.62
1007.163	0.38
1007.887	2.38
1008.611	-0.62
1009.334	-0.62
1010.058	2.38
1010.781	-0.62
1011.504	-0.62
1012.228	1.38
1012.951	0.38
1013.674	0.38
1014.397	-1.62
1015.12	0.38
