节点500_285_QEPB04081__428__15-02-40-553.txt的数据

Date: Wed Nov 12 15:02:40 CST 2025
User: PC
Spectrometer: QEPB0408
触发模式: 0
积分时间 (秒): 1.000000E-2
Scans to average: 1
启用暗噪声校正: true
启用非线性校正: false
滑动平均宽度: 0
X轴模式: Wavelengths
Number of Pixels in Spectrum: 1044
>>>>>Begin Spectral Data<<<<<
220.843	2.5
221.644	1.5
222.444	-0.5
223.244	3.5
224.045	2.5
224.845	1.5
225.645	2.5
226.445	1.5
227.245	-0.5
228.045	0.5
228.845	3.5
229.645	1.5
230.444	2.5
231.244	4.5
232.043	1.5
232.843	2.5
233.642	2.5
234.442	1.5
235.241	3.5
236.04	2.5
236.839	4.5
237.638	3.5
238.437	5.5
239.236	3.5
240.035	3.5
240.833	5.5
241.632	4.5
242.43	4.5
243.229	5.5
244.027	4.5
244.826	5.5
245.624	4.5
246.422	5.5
247.22	4.5
248.018	5.5
248.816	4.5
249.614	4.5
250.412	4.5
251.21	5.5
252.007	6.5
252.805	6.5
253.602	7.5
254.4	8.5
255.197	7.5
255.994	8.5
256.791	8.5
257.589	7.5
258.386	7.5
259.183	8.5
259.979	7.5
260.776	9.5
261.573	13.5
262.37	10.5
263.166	8.5
263.963	10.5
264.759	9.5
265.556	11.5
266.352	9.5
267.148	11.5
267.944	13.5
268.74	12.5
269.536	12.5
270.332	16.5
271.128	14.5
271.924	15.5
272.719	14.5
273.515	15.5
274.311	17.5
275.106	17.5
275.901	16.5
276.697	19.5
277.492	13.5
278.287	16.5
279.082	16.5
279.877	16.5
280.672	19.5
281.467	15.5
282.262	17.5
283.056	20.5
283.851	15.5
284.646	19.5
285.44	17.5
286.234	18.5
287.029	17.5
287.823	21.5
288.617	17.5
289.411	18.5
290.205	17.5
290.999	16.5
291.793	18.5
292.587	15.5
293.381	15.5
294.174	15.5
294.968	14.5
295.761	14.5
296.555	13.5
297.348	13.5
298.141	13.5
298.935	13.5
299.728	15.5
300.521	13.5
301.314	12.5
302.107	13.5
302.899	12.5
303.692	12.5
304.485	13.5
305.277	14.5
306.07	13.5
306.862	12.5
307.655	11.5
308.447	11.5
309.239	12.5
310.031	12.5
310.823	11.5
311.615	11.5
312.407	9.5
313.199	9.5
313.991	9.5
314.783	11.5
315.574	7.5
316.366	6.5
317.157	8.5
317.949	7.5
318.74	9.5
319.531	7.5
320.322	9.5
321.113	4.5
321.904	6.5
322.695	5.5
323.486	8.5
324.277	5.5
325.068	7.5
325.858	6.5
326.649	6.5
327.439	8.5
328.23	8.5
329.02	7.5
329.81	4.5
330.6	7.5
331.391	5.5
332.181	5.5
332.971	7.5
333.76	6.5
334.55	5.5
335.34	8.5
336.13	7.5
336.919	8.5
337.709	6.5
338.498	3.5
339.287	7.5
340.077	6.5
340.866	6.5
341.655	5.5
342.444	7.5
343.233	6.5
344.022	4.5
344.811	4.5
345.6	6.5
346.388	5.5
347.177	5.5
347.965	7.5
348.754	8.5
349.542	7.5
350.33	7.5
351.119	4.5
351.907	4.5
352.695	5.5
353.483	5.5
354.271	5.5
355.059	4.5
355.846	5.5
356.634	4.5
357.422	4.5
358.209	6.5
358.997	8.5
359.784	6.5
360.571	5.5
361.359	6.5
362.146	7.5
362.933	6.5
363.72	4.5
364.507	6.5
365.294	2.5
366.081	7.5
366.867	6.5
367.654	4.5
368.44	4.5
369.227	5.5
370.013	3.5
370.8	4.5
371.586	6.5
372.372	7.5
373.158	5.5
373.944	4.5
374.73	7.5
375.516	4.5
376.302	3.5
377.088	4.5
377.873	3.5
378.659	6.5
379.445	6.5
380.23	4.5
381.015	6.5
381.801	3.5
382.586	4.5
383.371	1.5
384.156	5.5
384.941	3.5
385.726	6.5
386.511	7.5
387.296	4.5
388.08	4.5
388.865	4.5
389.649	4.5
390.434	5.5
391.218	4.5
392.003	6.5
392.787	6.5
393.571	7.5
394.355	5.5
395.139	8.5
395.923	4.5
396.707	5.5
397.491	6.5
398.274	5.5
399.058	7.5
399.842	7.5
400.625	7.5
401.408	7.5
402.192	5.5
402.975	6.5
403.758	5.5
404.541	6.5
405.324	7.5
406.107	4.5
406.89	5.5
407.673	8.5
408.456	5.5
409.238	7.5
410.021	7.5
410.803	7.5
411.586	8.5
412.368	7.5
413.151	7.5
413.933	9.5
414.715	7.5
415.497	9.5
416.279	8.5
417.061	6.5
417.843	10.5
418.624	8.5
419.406	10.5
420.188	8.5
420.969	9.5
421.751	9.5
422.532	11.5
423.313	13.5
424.095	8.5
424.876	15.5
425.657	8.5
426.438	10.5
427.219	10.5
428	12.5
428.78	11.5
429.561	17.5
430.342	11.5
431.122	14.5
431.903	13.5
432.683	16.5
433.464	13.5
434.244	16.5
435.024	15.5
435.804	16.5
436.584	16.5
437.364	18.5
438.144	17.5
438.924	19.5
439.704	21.5
440.483	24.5
441.263	23.5
442.042	25.5
442.822	23.5
443.601	31.5
444.38	28.5
445.16	30.5
445.939	35.5
446.718	35.5
447.497	40.5
448.276	39.5
449.054	44.5
449.833	52.5
450.612	46.5
451.391	60.5
452.169	61.5
452.948	68.5
453.726	72.5
454.504	88.5
455.282	95.5
456.061	105.5
456.839	111.5
457.617	117.5
458.395	145.5
459.172	155.5
459.95	175.5
460.728	192.5
461.506	208.5
462.283	237.5
463.061	265.5
463.838	294.5
464.615	322.5
465.393	366.5
466.17	403.5
466.947	450.5
467.724	508.5
468.501	568.5
469.278	633.5
470.055	702.5
470.831	767.5
471.608	865.5
472.385	956.5
473.161	1054.5
473.938	1167.5
474.714	1312.5
475.49	1436.5
476.266	1588.5
477.043	1760.5
477.819	1938.5
478.595	2141.5
479.371	2351.5
480.146	2589.5
480.922	2857.5
481.698	3136.5
482.473	3454.5
483.249	3790.5
484.024	4151.5
484.8	4573.5
485.575	5015.5
486.35	5478.5
487.126	6018.5
487.901	6603.5
488.676	7248.5
489.451	7888.5
490.225	8630.5
491	9424.5
491.775	10277.5
492.55	11213.5
493.324	12148.5
494.099	13008.5
494.873	14012.5
495.647	15149.5
496.422	16284.5
497.196	17361.5
497.97	18527.5
498.744	19759.5
499.518	20854.5
500.292	21972.5
501.066	23051.5
501.839	24012.5
502.613	24893.5
503.387	25711.5
504.16	26358.5
504.934	26794.5
505.707	26928.5
506.48	27068.5
507.253	27083.5
508.027	26870.5
508.8	26562.5
509.573	26199.5
510.346	25599.5
511.118	24886.5
511.891	24203.5
512.664	23400.5
513.437	22481.5
514.209	21585.5
514.982	20680.5
515.754	19823.5
516.526	18976.5
517.298	18144.5
518.071	17358.5
518.843	16729.5
519.615	16018.5
520.387	15441.5
521.159	14804.5
521.93	14199.5
522.702	13656.5
523.474	13091.5
524.245	12489.5
525.017	11967.5
525.788	11530.5
526.56	11023.5
527.331	10520.5
528.102	10024.5
528.873	9553.5
529.644	9124.5
530.415	8670.5
531.186	8219.5
531.957	7841.5
532.728	7444.5
533.498	7025.5
534.269	6639.5
535.039	6266.5
535.81	5943.5
536.58	5620.5
537.351	5300.5
538.121	4982.5
538.891	4746.5
539.661	4481.5
540.431	4233.5
541.201	4003.5
541.971	3786.5
542.741	3595.5
543.51	3406.5
544.28	3249.5
545.05	3094.5
545.819	2946.5
546.588	2798.5
547.358	2650.5
548.127	2502.5
548.896	2390.5
549.665	2272.5
550.434	2158.5
551.203	2003.5
551.972	1933.5
552.741	1826.5
553.51	1725.5
554.278	1635.5
555.047	1522.5
555.815	1452.5
556.584	1366.5
557.352	1296.5
558.121	1223.5
558.889	1162.5
559.657	1082.5
560.425	1030.5
561.193	965.5
561.961	911.5
562.729	859.5
563.496	817.5
564.264	773.5
565.032	735.5
565.799	689.5
566.567	653.5
567.334	628.5
568.101	585.5
568.869	546.5
569.636	519.5
570.403	485.5
571.17	461.5
571.937	432.5
572.704	408.5
573.471	385.5
574.237	367.5
575.004	346.5
575.771	325.5
576.537	303.5
577.303	282.5
578.07	272.5
578.836	255.5
579.602	239.5
580.368	225.5
581.134	216.5
581.9	207.5
582.666	193.5
583.432	181.5
584.198	177.5
584.964	168.5
585.729	159.5
586.495	151.5
587.26	143.5
588.025	129.5
588.791	123.5
589.556	119.5
590.321	112.5
591.086	107.5
591.851	99.5
592.616	93.5
593.381	96.5
594.146	85.5
594.911	86.5
595.675	81.5
596.44	74.5
597.204	72.5
597.969	68.5
598.733	68.5
599.497	64.5
600.261	61.5
601.025	55.5
601.79	53.5
602.553	53.5
603.317	50.5
604.081	47.5
604.845	44.5
605.609	45.5
606.372	44.5
607.136	41.5
607.899	40.5
608.662	43.5
609.426	36.5
610.189	32.5
610.952	32.5
611.715	28.5
612.478	28.5
613.241	28.5
614.004	28.5
614.767	29.5
615.529	24.5
616.292	26.5
617.055	25.5
617.817	23.5
618.579	24.5
619.342	22.5
620.104	23.5
620.866	18.5
621.628	20.5
622.39	19.5
623.152	18.5
623.914	16.5
624.676	17.5
625.438	15.5
626.199	15.5
626.961	17.5
627.722	15.5
628.484	17.5
629.245	14.5
630.006	13.5
630.768	11.5
631.529	13.5
632.29	12.5
633.051	15.5
633.812	12.5
634.573	13.5
635.333	11.5
636.094	11.5
636.855	10.5
637.615	9.5
638.376	10.5
639.136	9.5
639.896	9.5
640.657	8.5
641.417	8.5
642.177	10.5
642.937	9.5
643.697	9.5
644.457	6.5
645.216	8.5
645.976	7.5
646.736	10.5
647.495	10.5
648.255	10.5
649.014	6.5
649.774	8.5
650.533	5.5
651.292	7.5
652.051	3.5
652.81	6.5
653.569	4.5
654.328	5.5
655.087	6.5
655.846	7.5
656.604	5.5
657.363	6.5
658.121	8.5
658.88	5.5
659.638	5.5
660.397	7.5
661.155	5.5
661.913	5.5
662.671	4.5
663.429	6.5
664.187	3.5
664.945	4.5
665.703	4.5
666.46	4.5
667.218	5.5
667.976	6.5
668.733	5.5
669.49	3.5
670.248	5.5
671.005	3.5
671.762	5.5
672.519	2.5
673.276	4.5
674.033	4.5
674.79	2.5
675.547	4.5
676.304	1.5
677.06	4.5
677.817	4.5
678.574	3.5
679.33	4.5
680.086	3.5
680.843	2.5
681.599	0.5
682.355	4.5
683.111	3.5
683.867	3.5
684.623	4.5
685.379	2.5
686.135	-0.5
686.89	4.5
687.646	4.5
688.402	4.5
689.157	2.5
689.912	2.5
690.668	5.5
691.423	0.5
692.178	4.5
692.933	3.5
693.688	5.5
694.443	6.5
695.198	4.5
695.953	3.5
696.708	2.5
697.462	3.5
698.217	1.5
698.972	1.5
699.726	3.5
700.48	4.5
701.235	6.5
701.989	4.5
702.743	1.5
703.497	3.5
704.251	2.5
705.005	3.5
705.759	2.5
706.513	1.5
707.266	5.5
708.02	2.5
708.774	5.5
709.527	5.5
710.28	1.5
711.034	1.5
711.787	1.5
712.54	3.5
713.293	3.5
714.046	2.5
714.799	1.5
715.552	5.5
716.305	3.5
717.058	3.5
717.81	5.5
718.563	3.5
719.315	3.5
720.068	4.5
720.82	3.5
721.573	2.5
722.325	3.5
723.077	3.5
723.829	3.5
724.581	3.5
725.333	2.5
726.085	3.5
726.836	2.5
727.588	1.5
728.34	5.5
729.091	5.5
729.843	5.5
730.594	2.5
731.346	5.5
732.097	4.5
732.848	3.5
733.599	4.5
734.35	4.5
735.101	1.5
735.852	4.5
736.603	3.5
737.354	4.5
738.104	2.5
738.855	2.5
739.605	1.5
740.356	5.5
741.106	4.5
741.856	2.5
742.607	4.5
743.357	4.5
744.107	3.5
744.857	5.5
745.607	6.5
746.357	6.5
747.106	4.5
747.856	3.5
748.606	4.5
749.355	5.5
750.105	2.5
750.854	5.5
751.603	4.5
752.353	6.5
753.102	6.5
753.851	4.5
754.6	5.5
755.349	5.5
756.098	5.5
756.847	7.5
757.595	4.5
758.344	7.5
759.093	7.5
759.841	6.5
760.589	6.5
761.338	6.5
762.086	5.5
762.834	5.5
763.582	6.5
764.331	5.5
765.079	5.5
765.826	5.5
766.574	6.5
767.322	6.5
768.07	4.5
768.817	7.5
769.565	4.5
770.312	8.5
771.06	6.5
771.807	6.5
772.554	7.5
773.302	6.5
774.049	9.5
774.796	6.5
775.543	8.5
776.29	10.5
777.036	6.5
777.783	9.5
778.53	6.5
779.276	11.5
780.023	8.5
780.769	8.5
781.516	6.5
782.262	6.5
783.008	8.5
783.754	6.5
784.5	8.5
785.246	10.5
785.992	5.5
786.738	7.5
787.484	7.5
788.23	6.5
788.975	7.5
789.721	8.5
790.466	9.5
791.212	7.5
791.957	9.5
792.702	9.5
793.447	7.5
794.193	8.5
794.938	6.5
795.683	7.5
796.427	7.5
797.172	8.5
797.917	6.5
798.662	7.5
799.406	6.5
800.151	6.5
800.895	4.5
801.64	5.5
802.384	7.5
803.128	5.5
803.872	6.5
804.616	7.5
805.36	5.5
806.104	7.5
806.848	4.5
807.592	5.5
808.336	5.5
809.079	3.5
809.823	6.5
810.566	2.5
811.31	7.5
812.053	4.5
812.796	6.5
813.539	6.5
814.283	4.5
815.026	4.5
815.769	2.5
816.511	3.5
817.254	4.5
817.997	4.5
818.74	3.5
819.482	4.5
820.225	4.5
820.967	5.5
821.71	4.5
822.452	5.5
823.194	6.5
823.936	2.5
824.678	2.5
825.42	4.5
826.162	3.5
826.904	2.5
827.646	5.5
828.388	1.5
829.129	3.5
829.871	1.5
830.612	3.5
831.354	4.5
832.095	2.5
832.836	4.5
833.577	3.5
834.319	2.5
835.06	3.5
835.801	3.5
836.542	3.5
837.282	4.5
838.023	2.5
838.764	4.5
839.504	2.5
840.245	1.5
840.985	2.5
841.726	3.5
842.466	3.5
843.206	4.5
843.946	2.5
844.687	5.5
845.427	2.5
846.166	5.5
846.906	1.5
847.646	1.5
848.386	2.5
849.125	3.5
849.865	0.5
850.605	3.5
851.344	3.5
852.083	4.5
852.823	1.5
853.562	1.5
854.301	3.5
855.04	1.5
855.779	4.5
856.518	2.5
857.257	2.5
857.995	0.5
858.734	3.5
859.473	2.5
860.211	1.5
860.95	2.5
861.688	1.5
862.426	3.5
863.165	0.5
863.903	2.5
864.641	1.5
865.379	2.5
866.117	1.5
866.855	1.5
867.593	3.5
868.33	1.5
869.068	0.5
869.806	3.5
870.543	0.5
871.28	2.5
872.018	1.5
872.755	1.5
873.492	1.5
874.229	-0.5
874.967	0.5
875.703	2.5
876.44	-0.5
877.177	3.5
877.914	0.5
878.651	3.5
879.387	0.5
880.124	2.5
880.86	-0.5
881.597	-0.5
882.333	0.5
883.069	0.5
883.806	-0.5
884.542	1.5
885.278	0.5
886.014	-0.5
886.749	-0.5
887.485	-2.5
888.221	-0.5
888.957	-0.5
889.692	-1.5
890.428	0.5
891.163	-0.5
891.899	0.5
892.634	0.5
893.369	2.5
894.104	0.5
894.839	-0.5
895.574	-0.5
896.309	-0.5
897.044	-2.5
897.779	0.5
898.514	-0.5
899.248	0.5
899.983	0.5
900.717	0.5
901.452	-1.5
902.186	0.5
902.92	0.5
903.654	-0.5
904.389	-0.5
905.123	-1.5
905.857	0.5
906.59	-0.5
907.324	-1.5
908.058	0.5
908.792	-1.5
909.525	1.5
910.259	-0.5
910.992	0.5
911.726	0.5
912.459	-0.5
913.192	1.5
913.925	1.5
914.658	-0.5
915.391	-2.5
916.124	-0.5
916.857	-2.5
917.59	0.5
918.323	1.5
919.055	1.5
919.788	-1.5
920.521	-0.5
921.253	0.5
921.985	1.5
922.718	-0.5
923.45	2.5
924.182	0.5
924.914	-1.5
925.646	1.5
926.378	-0.5
927.11	-0.5
927.841	-0.5
928.573	0.5
929.305	0.5
930.036	0.5
930.768	0.5
931.499	-0.5
932.23	1.5
932.962	-0.5
933.693	-1.5
934.424	1.5
935.155	-1.5
935.886	2.5
936.617	-0.5
937.348	-0.5
938.078	-0.5
938.809	-0.5
939.54	-0.5
940.27	1.5
941.001	0.5
941.731	0.5
942.461	-0.5
943.191	0.5
943.922	-0.5
944.652	3.5
945.382	-1.5
946.112	1.5
946.841	-0.5
947.571	-2.5
948.301	-2.5
949.031	1.5
949.76	-0.5
950.49	-0.5
951.219	-1.5
951.948	1.5
952.678	-1.5
953.407	-0.5
954.136	-0.5
954.865	1.5
955.594	-0.5
956.323	-1.5
957.052	-0.5
957.78	2.5
958.509	0.5
959.238	1.5
959.966	0.5
960.695	-1.5
961.423	0.5
962.151	3.5
962.88	0.5
963.608	-0.5
964.336	-1.5
965.064	-0.5
965.792	1.5
966.52	0.5
967.247	-1.5
967.975	-0.5
968.703	1.5
969.43	-0.5
970.158	-0.5
970.885	-2.5
971.613	-0.5
972.34	0.5
973.067	-0.5
973.794	0.5
974.521	0.5
975.248	0.5
975.975	-0.5
976.702	-0.5
977.429	1.5
978.156	0.5
978.882	-1.5
979.609	1.5
980.335	-0.5
981.062	1.5
981.788	-0.5
982.514	-0.5
983.24	0.5
983.967	-0.5
984.693	0.5
985.419	-0.5
986.144	2.5
986.87	0.5
987.596	0.5
988.322	0.5
989.047	-2.5
989.773	0.5
990.498	-0.5
991.224	1.5
991.949	1.5
992.674	-0.5
993.399	-1.5
994.124	-0.5
994.849	-0.5
995.574	-0.5
996.299	0.5
997.024	-0.5
997.749	0.5
998.473	1.5
999.198	-0.5
999.922	0.5
1000.647	1.5
1001.371	3.5
1002.095	-1.5
1002.82	1.5
1003.544	-2.5
1004.268	1.5
1004.992	-0.5
1005.716	1.5
1006.439	1.5
1007.163	-0.5
1007.887	2.5
1008.611	1.5
1009.334	-0.5
1010.058	-0.5
1010.781	-1.5
1011.504	0.5
1012.228	0.5
1012.951	2.5
1013.674	-1.5
1014.397	-1.5
1015.12	-0.5
