节点500_285_QEPB04081__400__15-02-12-629.txt的数据

Date: Wed Nov 12 15:02:12 CST 2025
User: PC
Spectrometer: QEPB0408
触发模式: 0
积分时间 (秒): 1.000000E-2
Scans to average: 1
启用暗噪声校正: true
启用非线性校正: false
滑动平均宽度: 0
X轴模式: Wavelengths
Number of Pixels in Spectrum: 1044
>>>>>Begin Spectral Data<<<<<
220.843	1.38
221.644	2.38
222.444	0.38
223.244	0.38
224.045	3.38
224.845	2.38
225.645	3.38
226.445	2.38
227.245	6.38
228.045	3.38
228.845	0.38
229.645	3.38
230.444	5.38
231.244	4.38
232.043	0.38
232.843	3.38
233.642	3.38
234.442	3.38
235.241	3.38
236.04	4.38
236.839	3.38
237.638	4.38
238.437	4.38
239.236	4.38
240.035	5.38
240.833	5.38
241.632	4.38
242.43	2.38
243.229	6.38
244.027	5.38
244.826	7.38
245.624	5.38
246.422	8.38
247.22	7.38
248.018	3.38
248.816	7.38
249.614	4.38
250.412	8.38
251.21	8.38
252.007	7.38
252.805	8.38
253.602	7.38
254.4	10.38
255.197	8.38
255.994	8.38
256.791	8.38
257.589	9.38
258.386	9.38
259.183	8.38
259.979	9.38
260.776	12.38
261.573	10.38
262.37	9.38
263.166	9.38
263.963	12.38
264.759	14.38
265.556	14.38
266.352	14.38
267.148	13.38
267.944	13.38
268.74	14.38
269.536	14.38
270.332	14.38
271.128	14.38
271.924	16.38
272.719	17.38
273.515	17.38
274.311	17.38
275.106	17.38
275.901	18.38
276.697	16.38
277.492	18.38
278.287	18.38
279.082	17.38
279.877	21.38
280.672	18.38
281.467	18.38
282.262	19.38
283.056	18.38
283.851	18.38
284.646	20.38
285.44	19.38
286.234	21.38
287.029	20.38
287.823	18.38
288.617	19.38
289.411	18.38
290.205	18.38
290.999	17.38
291.793	18.38
292.587	18.38
293.381	17.38
294.174	21.38
294.968	19.38
295.761	16.38
296.555	18.38
297.348	15.38
298.141	15.38
298.935	16.38
299.728	15.38
300.521	17.38
301.314	13.38
302.107	12.38
302.899	10.38
303.692	12.38
304.485	13.38
305.277	14.38
306.07	14.38
306.862	15.38
307.655	11.38
308.447	11.38
309.239	13.38
310.031	12.38
310.823	11.38
311.615	11.38
312.407	8.38
313.199	10.38
313.991	8.38
314.783	12.38
315.574	10.38
316.366	10.38
317.157	8.38
317.949	8.38
318.74	9.38
319.531	9.38
320.322	8.38
321.113	7.38
321.904	8.38
322.695	8.38
323.486	5.38
324.277	7.38
325.068	8.38
325.858	8.38
326.649	7.38
327.439	6.38
328.23	7.38
329.02	5.38
329.81	6.38
330.6	8.38
331.391	6.38
332.181	7.38
332.971	5.38
333.76	8.38
334.55	9.38
335.34	8.38
336.13	8.38
336.919	7.38
337.709	6.38
338.498	9.38
339.287	8.38
340.077	5.38
340.866	8.38
341.655	7.38
342.444	5.38
343.233	6.38
344.022	6.38
344.811	8.38
345.6	6.38
346.388	5.38
347.177	7.38
347.965	7.38
348.754	5.38
349.542	7.38
350.33	4.38
351.119	5.38
351.907	5.38
352.695	6.38
353.483	5.38
354.271	8.38
355.059	6.38
355.846	4.38
356.634	2.38
357.422	6.38
358.209	6.38
358.997	7.38
359.784	6.38
360.571	5.38
361.359	6.38
362.146	6.38
362.933	5.38
363.72	6.38
364.507	4.38
365.294	5.38
366.081	5.38
366.867	5.38
367.654	6.38
368.44	6.38
369.227	8.38
370.013	3.38
370.8	6.38
371.586	6.38
372.372	4.38
373.158	6.38
373.944	6.38
374.73	7.38
375.516	5.38
376.302	7.38
377.088	7.38
377.873	3.38
378.659	6.38
379.445	6.38
380.23	2.38
381.015	6.38
381.801	7.38
382.586	5.38
383.371	6.38
384.156	8.38
384.941	5.38
385.726	8.38
386.511	7.38
387.296	6.38
388.08	7.38
388.865	6.38
389.649	9.38
390.434	4.38
391.218	7.38
392.003	6.38
392.787	6.38
393.571	7.38
394.355	7.38
395.139	7.38
395.923	6.38
396.707	6.38
397.491	10.38
398.274	5.38
399.058	6.38
399.842	8.38
400.625	5.38
401.408	8.38
402.192	6.38
402.975	8.38
403.758	7.38
404.541	8.38
405.324	9.38
406.107	10.38
406.89	10.38
407.673	5.38
408.456	8.38
409.238	10.38
410.021	8.38
410.803	9.38
411.586	9.38
412.368	9.38
413.151	7.38
413.933	11.38
414.715	10.38
415.497	10.38
416.279	10.38
417.061	8.38
417.843	9.38
418.624	11.38
419.406	9.38
420.188	10.38
420.969	10.38
421.751	11.38
422.532	12.38
423.313	12.38
424.095	11.38
424.876	14.38
425.657	10.38
426.438	11.38
427.219	14.38
428	11.38
428.78	12.38
429.561	15.38
430.342	13.38
431.122	16.38
431.903	12.38
432.683	13.38
433.464	17.38
434.244	17.38
435.024	15.38
435.804	18.38
436.584	18.38
437.364	16.38
438.144	22.38
438.924	22.38
439.704	21.38
440.483	23.38
441.263	25.38
442.042	25.38
442.822	29.38
443.601	28.38
444.38	30.38
445.16	29.38
445.939	37.38
446.718	39.38
447.497	41.38
448.276	42.38
449.054	49.38
449.833	50.38
450.612	48.38
451.391	61.38
452.169	61.38
452.948	70.38
453.726	75.38
454.504	85.38
455.282	91.38
456.061	105.38
456.839	112.38
457.617	124.38
458.395	138.38
459.172	154.38
459.95	170.38
460.728	190.38
461.506	212.38
462.283	242.38
463.061	260.38
463.838	294.38
464.615	324.38
465.393	359.38
466.17	407.38
466.947	447.38
467.724	510.38
468.501	563.38
469.278	622.38
470.055	690.38
470.831	773.38
471.608	863.38
472.385	946.38
473.161	1065.38
473.938	1173.38
474.714	1307.38
475.49	1433.38
476.266	1581.38
477.043	1769.38
477.819	1931.38
478.595	2142.38
479.371	2350.38
480.146	2570.38
480.922	2852.38
481.698	3152.38
482.473	3446.38
483.249	3810.38
484.024	4157.38
484.8	4608.38
485.575	5057.38
486.35	5529.38
487.126	6036.38
487.901	6610.38
488.676	7217.38
489.451	7949.38
490.225	8657.38
491	9466.38
491.775	10380.38
492.55	11220.38
493.324	12206.38
494.099	13158.38
494.873	14166.38
495.647	15229.38
496.422	16361.38
497.196	17562.38
497.97	18621.38
498.744	19903.38
499.518	20991.38
500.292	22183.38
501.066	23201.38
501.839	24144.38
502.613	25103.38
503.387	25906.38
504.16	26456.38
504.934	26880.38
505.707	27101.38
506.48	27144.38
507.253	27182.38
508.027	26923.38
508.8	26607.38
509.573	26269.38
510.346	25634.38
511.118	24917.38
511.891	24130.38
512.664	23350.38
513.437	22547.38
514.209	21570.38
514.982	20680.38
515.754	19765.38
516.526	18976.38
517.298	18133.38
518.071	17325.38
518.843	16638.38
519.615	15981.38
520.387	15398.38
521.159	14823.38
521.93	14179.38
522.702	13610.38
523.474	13108.38
524.245	12504.38
525.017	12062.38
525.788	11567.38
526.56	11014.38
527.331	10460.38
528.102	10041.38
528.873	9580.38
529.644	9078.38
530.415	8672.38
531.186	8215.38
531.957	7782.38
532.728	7400.38
533.498	7042.38
534.269	6621.38
535.039	6282.38
535.81	5933.38
536.58	5565.38
537.351	5291.38
538.121	4983.38
538.891	4703.38
539.661	4449.38
540.431	4218.38
541.201	3975.38
541.971	3783.38
542.741	3569.38
543.51	3393.38
544.28	3226.38
545.05	3079.38
545.819	2920.38
546.588	2765.38
547.358	2661.38
548.127	2510.38
548.896	2385.38
549.665	2245.38
550.434	2133.38
551.203	2006.38
551.972	1920.38
552.741	1812.38
553.51	1722.38
554.278	1620.38
555.047	1521.38
555.815	1448.38
556.584	1364.38
557.352	1295.38
558.121	1216.38
558.889	1146.38
559.657	1080.38
560.425	1020.38
561.193	966.38
561.961	911.38
562.729	866.38
563.496	806.38
564.264	771.38
565.032	725.38
565.799	690.38
566.567	644.38
567.334	626.38
568.101	584.38
568.869	546.38
569.636	509.38
570.403	477.38
571.17	460.38
571.937	428.38
572.704	408.38
573.471	385.38
574.237	372.38
575.004	348.38
575.771	325.38
576.537	294.38
577.303	295.38
578.07	272.38
578.836	254.38
579.602	235.38
580.368	228.38
581.134	213.38
581.9	212.38
582.666	195.38
583.432	186.38
584.198	173.38
584.964	165.38
585.729	158.38
586.495	147.38
587.26	135.38
588.025	131.38
588.791	123.38
589.556	118.38
590.321	112.38
591.086	109.38
591.851	104.38
592.616	95.38
593.381	96.38
594.146	87.38
594.911	83.38
595.675	84.38
596.44	77.38
597.204	71.38
597.969	66.38
598.733	65.38
599.497	64.38
600.261	63.38
601.025	60.38
601.79	54.38
602.553	53.38
603.317	52.38
604.081	50.38
604.845	47.38
605.609	48.38
606.372	46.38
607.136	41.38
607.899	43.38
608.662	38.38
609.426	39.38
610.189	37.38
610.952	34.38
611.715	33.38
612.478	30.38
613.241	33.38
614.004	28.38
614.767	28.38
615.529	28.38
616.292	25.38
617.055	24.38
617.817	23.38
618.579	22.38
619.342	22.38
620.104	24.38
620.866	20.38
621.628	21.38
622.39	19.38
623.152	17.38
623.914	19.38
624.676	18.38
625.438	16.38
626.199	18.38
626.961	16.38
627.722	16.38
628.484	14.38
629.245	14.38
630.006	14.38
630.768	12.38
631.529	14.38
632.29	12.38
633.051	13.38
633.812	11.38
634.573	12.38
635.333	12.38
636.094	10.38
636.855	10.38
637.615	13.38
638.376	10.38
639.136	9.38
639.896	13.38
640.657	9.38
641.417	10.38
642.177	11.38
642.937	8.38
643.697	10.38
644.457	10.38
645.216	7.38
645.976	9.38
646.736	8.38
647.495	8.38
648.255	8.38
649.014	10.38
649.774	7.38
650.533	8.38
651.292	9.38
652.051	8.38
652.81	8.38
653.569	6.38
654.328	7.38
655.087	8.38
655.846	8.38
656.604	8.38
657.363	8.38
658.121	6.38
658.88	6.38
659.638	9.38
660.397	9.38
661.155	5.38
661.913	9.38
662.671	6.38
663.429	6.38
664.187	7.38
664.945	7.38
665.703	5.38
666.46	5.38
667.218	6.38
667.976	4.38
668.733	4.38
669.49	5.38
670.248	6.38
671.005	6.38
671.762	5.38
672.519	6.38
673.276	4.38
674.033	4.38
674.79	6.38
675.547	5.38
676.304	6.38
677.06	2.38
677.817	5.38
678.574	4.38
679.33	2.38
680.086	5.38
680.843	4.38
681.599	5.38
682.355	8.38
683.111	5.38
683.867	2.38
684.623	5.38
685.379	3.38
686.135	5.38
686.89	4.38
687.646	4.38
688.402	3.38
689.157	3.38
689.912	4.38
690.668	5.38
691.423	3.38
692.178	4.38
692.933	5.38
693.688	3.38
694.443	4.38
695.198	3.38
695.953	5.38
696.708	4.38
697.462	4.38
698.217	5.38
698.972	3.38
699.726	4.38
700.48	3.38
701.235	4.38
701.989	4.38
702.743	4.38
703.497	2.38
704.251	4.38
705.005	2.38
705.759	2.38
706.513	5.38
707.266	6.38
708.02	3.38
708.774	4.38
709.527	2.38
710.28	3.38
711.034	4.38
711.787	4.38
712.54	3.38
713.293	3.38
714.046	6.38
714.799	3.38
715.552	4.38
716.305	3.38
717.058	7.38
717.81	1.38
718.563	6.38
719.315	5.38
720.068	3.38
720.82	5.38
721.573	4.38
722.325	2.38
723.077	3.38
723.829	3.38
724.581	4.38
725.333	4.38
726.085	4.38
726.836	4.38
727.588	6.38
728.34	2.38
729.091	4.38
729.843	5.38
730.594	5.38
731.346	2.38
732.097	5.38
732.848	1.38
733.599	5.38
734.35	4.38
735.101	6.38
735.852	5.38
736.603	5.38
737.354	8.38
738.104	4.38
738.855	6.38
739.605	4.38
740.356	6.38
741.106	5.38
741.856	6.38
742.607	7.38
743.357	4.38
744.107	6.38
744.857	6.38
745.607	2.38
746.357	5.38
747.106	4.38
747.856	2.38
748.606	5.38
749.355	6.38
750.105	3.38
750.854	6.38
751.603	6.38
752.353	4.38
753.102	8.38
753.851	6.38
754.6	5.38
755.349	8.38
756.098	4.38
756.847	7.38
757.595	5.38
758.344	4.38
759.093	5.38
759.841	5.38
760.589	7.38
761.338	7.38
762.086	6.38
762.834	6.38
763.582	7.38
764.331	10.38
765.079	7.38
765.826	6.38
766.574	7.38
767.322	7.38
768.07	6.38
768.817	6.38
769.565	5.38
770.312	6.38
771.06	9.38
771.807	6.38
772.554	8.38
773.302	11.38
774.049	7.38
774.796	6.38
775.543	9.38
776.29	7.38
777.036	10.38
777.783	8.38
778.53	9.38
779.276	9.38
780.023	9.38
780.769	9.38
781.516	10.38
782.262	8.38
783.008	9.38
783.754	9.38
784.5	10.38
785.246	10.38
785.992	9.38
786.738	8.38
787.484	10.38
788.23	10.38
788.975	7.38
789.721	10.38
790.466	9.38
791.212	8.38
791.957	7.38
792.702	8.38
793.447	8.38
794.193	8.38
794.938	8.38
795.683	9.38
796.427	7.38
797.172	9.38
797.917	11.38
798.662	8.38
799.406	6.38
800.151	6.38
800.895	8.38
801.64	7.38
802.384	7.38
803.128	8.38
803.872	6.38
804.616	7.38
805.36	4.38
806.104	7.38
806.848	9.38
807.592	8.38
808.336	6.38
809.079	6.38
809.823	6.38
810.566	4.38
811.31	8.38
812.053	6.38
812.796	7.38
813.539	7.38
814.283	3.38
815.026	7.38
815.769	5.38
816.511	3.38
817.254	5.38
817.997	5.38
818.74	7.38
819.482	5.38
820.225	6.38
820.967	6.38
821.71	5.38
822.452	6.38
823.194	3.38
823.936	7.38
824.678	4.38
825.42	4.38
826.162	3.38
826.904	6.38
827.646	6.38
828.388	4.38
829.129	3.38
829.871	4.38
830.612	5.38
831.354	3.38
832.095	3.38
832.836	4.38
833.577	5.38
834.319	6.38
835.06	4.38
835.801	3.38
836.542	4.38
837.282	3.38
838.023	2.38
838.764	5.38
839.504	4.38
840.245	3.38
840.985	3.38
841.726	4.38
842.466	1.38
843.206	4.38
843.946	2.38
844.687	2.38
845.427	2.38
846.166	4.38
846.906	4.38
847.646	4.38
848.386	3.38
849.125	2.38
849.865	2.38
850.605	5.38
851.344	2.38
852.083	3.38
852.823	2.38
853.562	5.38
854.301	2.38
855.04	3.38
855.779	3.38
856.518	-1.62
857.257	7.38
857.995	1.38
858.734	4.38
859.473	3.38
860.211	3.38
860.95	2.38
861.688	2.38
862.426	2.38
863.165	3.38
863.903	3.38
864.641	2.38
865.379	0.38
866.117	4.38
866.855	1.38
867.593	3.38
868.33	-0.62
869.068	2.38
869.806	2.38
870.543	0.38
871.28	3.38
872.018	3.38
872.755	1.38
873.492	2.38
874.229	1.38
874.967	1.38
875.703	1.38
876.44	3.38
877.177	3.38
877.914	0.38
878.651	0.38
879.387	0.38
880.124	2.38
880.86	2.38
881.597	0.38
882.333	0.38
883.069	0.38
883.806	0.38
884.542	2.38
885.278	1.38
886.014	2.38
886.749	-0.62
887.485	5.38
888.221	0.38
888.957	3.38
889.692	0.38
890.428	1.38
891.163	2.38
891.899	0.38
892.634	-0.62
893.369	1.38
894.104	3.38
894.839	0.38
895.574	2.38
896.309	0.38
897.044	1.38
897.779	1.38
898.514	2.38
899.248	2.38
899.983	2.38
900.717	0.38
901.452	-0.62
902.186	1.38
902.92	0.38
903.654	2.38
904.389	2.38
905.123	1.38
905.857	-0.62
906.59	2.38
907.324	0.38
908.058	0.38
908.792	0.38
909.525	0.38
910.259	0.38
910.992	-1.62
911.726	1.38
912.459	0.38
913.192	0.38
913.925	0.38
914.658	-1.62
915.391	0.38
916.124	1.38
916.857	2.38
917.59	0.38
918.323	1.38
919.055	1.38
919.788	0.38
920.521	3.38
921.253	2.38
921.985	2.38
922.718	0.38
923.45	1.38
924.182	1.38
924.914	0.38
925.646	2.38
926.378	-0.62
927.11	0.38
927.841	2.38
928.573	0.38
929.305	0.38
930.036	2.38
930.768	2.38
931.499	0.38
932.23	1.38
932.962	0.38
933.693	2.38
934.424	0.38
935.155	0.38
935.886	2.38
936.617	2.38
937.348	0.38
938.078	1.38
938.809	2.38
939.54	2.38
940.27	0.38
941.001	-0.62
941.731	3.38
942.461	1.38
943.191	0.38
943.922	-1.62
944.652	0.38
945.382	1.38
946.112	1.38
946.841	1.38
947.571	-0.62
948.301	0.38
949.031	-0.62
949.76	0.38
950.49	0.38
951.219	0.38
951.948	1.38
952.678	1.38
953.407	1.38
954.136	0.38
954.865	1.38
955.594	2.38
956.323	-1.62
957.052	-0.62
957.78	1.38
958.509	0.38
959.238	1.38
959.966	1.38
960.695	1.38
961.423	-0.62
962.151	2.38
962.88	1.38
963.608	0.38
964.336	2.38
965.064	0.38
965.792	-1.62
966.52	-0.62
967.247	-0.62
967.975	1.38
968.703	1.38
969.43	1.38
970.158	0.38
970.885	-1.62
971.613	-1.62
972.34	1.38
973.067	1.38
973.794	0.38
974.521	1.38
975.248	-1.62
975.975	2.38
976.702	-0.62
977.429	2.38
978.156	-2.62
978.882	1.38
979.609	1.38
980.335	0.38
981.062	2.38
981.788	1.38
982.514	0.38
983.24	1.38
983.967	-0.62
984.693	1.38
985.419	0.38
986.144	0.38
986.87	1.38
987.596	1.38
988.322	1.38
989.047	0.38
989.773	1.38
990.498	-0.62
991.224	0.38
991.949	0.38
992.674	2.38
993.399	1.38
994.124	2.38
994.849	1.38
995.574	0.38
996.299	0.38
997.024	1.38
997.749	0.38
998.473	0.38
999.198	1.38
999.922	0.38
1000.647	0.38
1001.371	3.38
1002.095	-0.62
1002.82	-0.62
1003.544	-1.62
1004.268	2.38
1004.992	2.38
1005.716	0.38
1006.439	3.38
1007.163	4.38
1007.887	3.38
1008.611	4.38
1009.334	1.38
1010.058	0.38
1010.781	0.38
1011.504	0.38
1012.228	2.38
1012.951	0.38
1013.674	-1.62
1014.397	1.38
1015.12	-0.62
