节点500_285_QEPB04081__94__14-57-07-290.txt的数据

Date: Wed Nov 12 14:57:07 CST 2025
User: PC
Spectrometer: QEPB0408
触发模式: 0
积分时间 (秒): 1.000000E-2
Scans to average: 1
启用暗噪声校正: true
启用非线性校正: false
滑动平均宽度: 0
X轴模式: Wavelengths
Number of Pixels in Spectrum: 1044
>>>>>Begin Spectral Data<<<<<
220.843	3.12
221.644	3.12
222.444	-1.88
223.244	2.12
224.045	3.12
224.845	1.12
225.645	1.12
226.445	1.12
227.245	3.12
228.045	2.12
228.845	3.12
229.645	3.12
230.444	2.12
231.244	3.12
232.043	4.12
232.843	3.12
233.642	5.12
234.442	2.12
235.241	3.12
236.04	2.12
236.839	5.12
237.638	3.12
238.437	3.12
239.236	7.12
240.035	5.12
240.833	5.12
241.632	7.12
242.43	3.12
243.229	5.12
244.027	4.12
244.826	6.12
245.624	6.12
246.422	7.12
247.22	5.12
248.018	5.12
248.816	5.12
249.614	6.12
250.412	7.12
251.21	6.12
252.007	6.12
252.805	7.12
253.602	8.12
254.4	7.12
255.197	7.12
255.994	6.12
256.791	9.12
257.589	9.12
258.386	9.12
259.183	9.12
259.979	10.12
260.776	11.12
261.573	10.12
262.37	11.12
263.166	11.12
263.963	12.12
264.759	11.12
265.556	12.12
266.352	15.12
267.148	15.12
267.944	16.12
268.74	15.12
269.536	14.12
270.332	16.12
271.128	14.12
271.924	13.12
272.719	19.12
273.515	18.12
274.311	17.12
275.106	17.12
275.901	19.12
276.697	17.12
277.492	19.12
278.287	17.12
279.082	19.12
279.877	18.12
280.672	20.12
281.467	20.12
282.262	20.12
283.056	20.12
283.851	17.12
284.646	17.12
285.44	20.12
286.234	20.12
287.029	19.12
287.823	19.12
288.617	19.12
289.411	20.12
290.205	18.12
290.999	21.12
291.793	18.12
292.587	20.12
293.381	18.12
294.174	16.12
294.968	17.12
295.761	13.12
296.555	17.12
297.348	16.12
298.141	14.12
298.935	18.12
299.728	13.12
300.521	15.12
301.314	13.12
302.107	13.12
302.899	12.12
303.692	13.12
304.485	14.12
305.277	13.12
306.07	13.12
306.862	14.12
307.655	10.12
308.447	12.12
309.239	12.12
310.031	11.12
310.823	10.12
311.615	10.12
312.407	11.12
313.199	9.12
313.991	10.12
314.783	9.12
315.574	10.12
316.366	9.12
317.157	8.12
317.949	9.12
318.74	6.12
319.531	9.12
320.322	10.12
321.113	10.12
321.904	9.12
322.695	8.12
323.486	8.12
324.277	8.12
325.068	7.12
325.858	5.12
326.649	8.12
327.439	8.12
328.23	7.12
329.02	8.12
329.81	7.12
330.6	6.12
331.391	5.12
332.181	6.12
332.971	5.12
333.76	3.12
334.55	5.12
335.34	7.12
336.13	8.12
336.919	8.12
337.709	5.12
338.498	6.12
339.287	6.12
340.077	7.12
340.866	5.12
341.655	5.12
342.444	8.12
343.233	5.12
344.022	6.12
344.811	9.12
345.6	7.12
346.388	8.12
347.177	4.12
347.965	7.12
348.754	7.12
349.542	6.12
350.33	5.12
351.119	4.12
351.907	6.12
352.695	7.12
353.483	10.12
354.271	6.12
355.059	5.12
355.846	5.12
356.634	6.12
357.422	5.12
358.209	7.12
358.997	4.12
359.784	5.12
360.571	6.12
361.359	6.12
362.146	4.12
362.933	4.12
363.72	5.12
364.507	1.12
365.294	6.12
366.081	3.12
366.867	5.12
367.654	3.12
368.44	4.12
369.227	4.12
370.013	4.12
370.8	4.12
371.586	3.12
372.372	7.12
373.158	5.12
373.944	4.12
374.73	5.12
375.516	5.12
376.302	4.12
377.088	6.12
377.873	5.12
378.659	5.12
379.445	4.12
380.23	7.12
381.015	5.12
381.801	7.12
382.586	6.12
383.371	4.12
384.156	7.12
384.941	5.12
385.726	4.12
386.511	5.12
387.296	7.12
388.08	5.12
388.865	7.12
389.649	6.12
390.434	8.12
391.218	6.12
392.003	6.12
392.787	6.12
393.571	7.12
394.355	7.12
395.139	5.12
395.923	8.12
396.707	6.12
397.491	7.12
398.274	5.12
399.058	8.12
399.842	3.12
400.625	11.12
401.408	6.12
402.192	7.12
402.975	6.12
403.758	6.12
404.541	6.12
405.324	6.12
406.107	9.12
406.89	9.12
407.673	9.12
408.456	11.12
409.238	9.12
410.021	9.12
410.803	8.12
411.586	7.12
412.368	9.12
413.151	8.12
413.933	7.12
414.715	8.12
415.497	9.12
416.279	9.12
417.061	10.12
417.843	9.12
418.624	9.12
419.406	9.12
420.188	9.12
420.969	12.12
421.751	14.12
422.532	8.12
423.313	12.12
424.095	13.12
424.876	12.12
425.657	11.12
426.438	13.12
427.219	15.12
428	11.12
428.78	15.12
429.561	14.12
430.342	15.12
431.122	16.12
431.903	15.12
432.683	13.12
433.464	14.12
434.244	16.12
435.024	14.12
435.804	17.12
436.584	21.12
437.364	19.12
438.144	17.12
438.924	19.12
439.704	20.12
440.483	21.12
441.263	21.12
442.042	27.12
442.822	27.12
443.601	28.12
444.38	27.12
445.16	32.12
445.939	32.12
446.718	36.12
447.497	37.12
448.276	38.12
449.054	43.12
449.833	45.12
450.612	48.12
451.391	55.12
452.169	60.12
452.948	62.12
453.726	68.12
454.504	76.12
455.282	84.12
456.061	94.12
456.839	104.12
457.617	113.12
458.395	129.12
459.172	143.12
459.95	158.12
460.728	167.12
461.506	193.12
462.283	217.12
463.061	238.12
463.838	274.12
464.615	302.12
465.393	341.12
466.17	384.12
466.947	428.12
467.724	470.12
468.501	533.12
469.278	584.12
470.055	662.12
470.831	729.12
471.608	827.12
472.385	913.12
473.161	1019.12
473.938	1142.12
474.714	1252.12
475.49	1397.12
476.266	1545.12
477.043	1727.12
477.819	1907.12
478.595	2116.12
479.371	2339.12
480.146	2597.12
480.922	2888.12
481.698	3178.12
482.473	3525.12
483.249	3896.12
484.024	4305.12
484.8	4740.12
485.575	5242.12
486.35	5795.12
487.126	6372.12
487.901	7049.12
488.676	7732.12
489.451	8475.12
490.225	9391.12
491	10230.12
491.775	11232.12
492.55	12207.12
493.324	13308.12
494.099	14352.12
494.873	15492.12
495.647	16789.12
496.422	18010.12
497.196	19286.12
497.97	20627.12
498.744	21810.12
499.518	23087.12
500.292	24308.12
501.066	25393.12
501.839	26329.12
502.613	27102.12
503.387	27935.12
504.16	28441.12
504.934	28647.12
505.707	28711.12
506.48	28575.12
507.253	28375.12
508.027	27925.12
508.8	27500.12
509.573	26861.12
510.346	26021.12
511.118	25152.12
511.891	24277.12
512.664	23258.12
513.437	22400.12
514.209	21384.12
514.982	20444.12
515.754	19473.12
516.526	18637.12
517.298	17772.12
518.071	16980.12
518.843	16332.12
519.615	15724.12
520.387	15106.12
521.159	14498.12
521.93	13950.12
522.702	13364.12
523.474	12830.12
524.245	12229.12
525.017	11667.12
525.788	11269.12
526.56	10730.12
527.331	10250.12
528.102	9714.12
528.873	9275.12
529.644	8773.12
530.415	8367.12
531.186	7916.12
531.957	7476.12
532.728	7080.12
533.498	6719.12
534.269	6311.12
535.039	5953.12
535.81	5635.12
536.58	5303.12
537.351	5015.12
538.121	4711.12
538.891	4491.12
539.661	4229.12
540.431	3983.12
541.201	3789.12
541.971	3568.12
542.741	3391.12
543.51	3228.12
544.28	3087.12
545.05	2933.12
545.819	2783.12
546.588	2635.12
547.358	2479.12
548.127	2393.12
548.896	2262.12
549.665	2148.12
550.434	2025.12
551.203	1917.12
551.972	1800.12
552.741	1689.12
553.51	1620.12
554.278	1532.12
555.047	1435.12
555.815	1357.12
556.584	1278.12
557.352	1205.12
558.121	1144.12
558.889	1080.12
559.657	1019.12
560.425	959.12
561.193	905.12
561.961	862.12
562.729	789.12
563.496	768.12
564.264	717.12
565.032	688.12
565.799	642.12
566.567	608.12
567.334	577.12
568.101	545.12
568.869	505.12
569.636	482.12
570.403	449.12
571.17	436.12
571.937	405.12
572.704	377.12
573.471	364.12
574.237	346.12
575.004	325.12
575.771	304.12
576.537	278.12
577.303	269.12
578.07	250.12
578.836	240.12
579.602	219.12
580.368	211.12
581.134	202.12
581.9	185.12
582.666	181.12
583.432	169.12
584.198	159.12
584.964	158.12
585.729	144.12
586.495	136.12
587.26	127.12
588.025	122.12
588.791	121.12
589.556	111.12
590.321	106.12
591.086	99.12
591.851	91.12
592.616	93.12
593.381	85.12
594.146	83.12
594.911	79.12
595.675	70.12
596.44	70.12
597.204	71.12
597.969	69.12
598.733	61.12
599.497	61.12
600.261	57.12
601.025	51.12
601.79	52.12
602.553	48.12
603.317	46.12
604.081	45.12
604.845	44.12
605.609	43.12
606.372	39.12
607.136	41.12
607.899	38.12
608.662	36.12
609.426	32.12
610.189	34.12
610.952	32.12
611.715	28.12
612.478	28.12
613.241	30.12
614.004	26.12
614.767	26.12
615.529	24.12
616.292	27.12
617.055	22.12
617.817	22.12
618.579	23.12
619.342	20.12
620.104	21.12
620.866	19.12
621.628	18.12
622.39	18.12
623.152	17.12
623.914	15.12
624.676	18.12
625.438	15.12
626.199	17.12
626.961	15.12
627.722	17.12
628.484	12.12
629.245	14.12
630.006	13.12
630.768	13.12
631.529	10.12
632.29	12.12
633.051	11.12
633.812	11.12
634.573	8.12
635.333	11.12
636.094	10.12
636.855	10.12
637.615	10.12
638.376	12.12
639.136	10.12
639.896	10.12
640.657	9.12
641.417	10.12
642.177	9.12
642.937	11.12
643.697	7.12
644.457	11.12
645.216	9.12
645.976	8.12
646.736	5.12
647.495	7.12
648.255	6.12
649.014	6.12
649.774	6.12
650.533	6.12
651.292	7.12
652.051	7.12
652.81	6.12
653.569	5.12
654.328	3.12
655.087	5.12
655.846	7.12
656.604	7.12
657.363	5.12
658.121	7.12
658.88	6.12
659.638	5.12
660.397	6.12
661.155	6.12
661.913	5.12
662.671	4.12
663.429	6.12
664.187	5.12
664.945	4.12
665.703	5.12
666.46	2.12
667.218	5.12
667.976	6.12
668.733	5.12
669.49	5.12
670.248	5.12
671.005	4.12
671.762	5.12
672.519	7.12
673.276	6.12
674.033	4.12
674.79	6.12
675.547	2.12
676.304	5.12
677.06	5.12
677.817	4.12
678.574	5.12
679.33	2.12
680.086	5.12
680.843	3.12
681.599	3.12
682.355	3.12
683.111	3.12
683.867	6.12
684.623	1.12
685.379	5.12
686.135	3.12
686.89	3.12
687.646	6.12
688.402	5.12
689.157	1.12
689.912	4.12
690.668	3.12
691.423	4.12
692.178	3.12
692.933	3.12
693.688	1.12
694.443	6.12
695.198	4.12
695.953	5.12
696.708	6.12
697.462	2.12
698.217	4.12
698.972	3.12
699.726	2.12
700.48	4.12
701.235	5.12
701.989	3.12
702.743	4.12
703.497	4.12
704.251	1.12
705.005	3.12
705.759	4.12
706.513	5.12
707.266	4.12
708.02	2.12
708.774	6.12
709.527	3.12
710.28	2.12
711.034	4.12
711.787	3.12
712.54	3.12
713.293	3.12
714.046	2.12
714.799	3.12
715.552	2.12
716.305	1.12
717.058	3.12
717.81	4.12
718.563	6.12
719.315	2.12
720.068	3.12
720.82	4.12
721.573	5.12
722.325	5.12
723.077	3.12
723.829	4.12
724.581	1.12
725.333	5.12
726.085	2.12
726.836	4.12
727.588	3.12
728.34	2.12
729.091	5.12
729.843	4.12
730.594	4.12
731.346	2.12
732.097	4.12
732.848	5.12
733.599	4.12
734.35	6.12
735.101	7.12
735.852	4.12
736.603	5.12
737.354	4.12
738.104	3.12
738.855	5.12
739.605	3.12
740.356	4.12
741.106	5.12
741.856	3.12
742.607	2.12
743.357	4.12
744.107	5.12
744.857	4.12
745.607	5.12
746.357	5.12
747.106	4.12
747.856	5.12
748.606	8.12
749.355	5.12
750.105	6.12
750.854	4.12
751.603	4.12
752.353	6.12
753.102	4.12
753.851	7.12
754.6	6.12
755.349	6.12
756.098	6.12
756.847	5.12
757.595	7.12
758.344	5.12
759.093	8.12
759.841	4.12
760.589	6.12
761.338	6.12
762.086	8.12
762.834	7.12
763.582	5.12
764.331	7.12
765.079	6.12
765.826	6.12
766.574	8.12
767.322	7.12
768.07	10.12
768.817	5.12
769.565	7.12
770.312	8.12
771.06	7.12
771.807	8.12
772.554	10.12
773.302	7.12
774.049	7.12
774.796	5.12
775.543	9.12
776.29	7.12
777.036	10.12
777.783	10.12
778.53	8.12
779.276	10.12
780.023	9.12
780.769	10.12
781.516	10.12
782.262	7.12
783.008	9.12
783.754	9.12
784.5	10.12
785.246	7.12
785.992	7.12
786.738	8.12
787.484	7.12
788.23	9.12
788.975	8.12
789.721	9.12
790.466	7.12
791.212	9.12
791.957	9.12
792.702	8.12
793.447	8.12
794.193	6.12
794.938	11.12
795.683	9.12
796.427	7.12
797.172	8.12
797.917	8.12
798.662	9.12
799.406	9.12
800.151	7.12
800.895	8.12
801.64	8.12
802.384	8.12
803.128	6.12
803.872	6.12
804.616	4.12
805.36	6.12
806.104	5.12
806.848	4.12
807.592	9.12
808.336	4.12
809.079	5.12
809.823	8.12
810.566	5.12
811.31	6.12
812.053	5.12
812.796	6.12
813.539	4.12
814.283	5.12
815.026	4.12
815.769	4.12
816.511	7.12
817.254	4.12
817.997	5.12
818.74	3.12
819.482	5.12
820.225	6.12
820.967	4.12
821.71	5.12
822.452	4.12
823.194	3.12
823.936	4.12
824.678	3.12
825.42	4.12
826.162	6.12
826.904	3.12
827.646	4.12
828.388	2.12
829.129	4.12
829.871	2.12
830.612	4.12
831.354	4.12
832.095	2.12
832.836	4.12
833.577	2.12
834.319	3.12
835.06	3.12
835.801	4.12
836.542	4.12
837.282	2.12
838.023	3.12
838.764	3.12
839.504	3.12
840.245	2.12
840.985	3.12
841.726	4.12
842.466	2.12
843.206	4.12
843.946	3.12
844.687	3.12
845.427	3.12
846.166	4.12
846.906	4.12
847.646	2.12
848.386	4.12
849.125	6.12
849.865	1.12
850.605	2.12
851.344	1.12
852.083	1.12
852.823	3.12
853.562	-0.88
854.301	1.12
855.04	1.12
855.779	3.12
856.518	1.12
857.257	3.12
857.995	1.12
858.734	2.12
859.473	2.12
860.211	-0.88
860.95	2.12
861.688	2.12
862.426	2.12
863.165	1.12
863.903	2.12
864.641	2.12
865.379	3.12
866.117	1.12
866.855	-0.88
867.593	1.12
868.33	4.12
869.068	1.12
869.806	1.12
870.543	2.12
871.28	3.12
872.018	0.12
872.755	1.12
873.492	1.12
874.229	1.12
874.967	3.12
875.703	2.12
876.44	1.12
877.177	2.12
877.914	2.12
878.651	-0.88
879.387	0.12
880.124	1.12
880.86	-0.88
881.597	1.12
882.333	3.12
883.069	1.12
883.806	0.12
884.542	1.12
885.278	0.12
886.014	0.12
886.749	1.12
887.485	0.12
888.221	1.12
888.957	3.12
889.692	-0.88
890.428	0.12
891.163	1.12
891.899	0.12
892.634	3.12
893.369	2.12
894.104	-0.88
894.839	1.12
895.574	-0.88
896.309	1.12
897.044	3.12
897.779	2.12
898.514	3.12
899.248	1.12
899.983	1.12
900.717	-2.88
901.452	-0.88
902.186	0.12
902.92	-0.88
903.654	1.12
904.389	-0.88
905.123	0.12
905.857	0.12
906.59	0.12
907.324	-0.88
908.058	-1.88
908.792	0.12
909.525	0.12
910.259	1.12
910.992	1.12
911.726	0.12
912.459	1.12
913.192	-1.88
913.925	4.12
914.658	-0.88
915.391	-0.88
916.124	0.12
916.857	0.12
917.59	-0.88
918.323	0.12
919.055	-0.88
919.788	-0.88
920.521	0.12
921.253	1.12
921.985	0.12
922.718	3.12
923.45	0.12
924.182	0.12
924.914	0.12
925.646	0.12
926.378	0.12
927.11	-1.88
927.841	0.12
928.573	1.12
929.305	0.12
930.036	-0.88
930.768	-1.88
931.499	1.12
932.23	2.12
932.962	1.12
933.693	0.12
934.424	2.12
935.155	-0.88
935.886	-0.88
936.617	0.12
937.348	-0.88
938.078	0.12
938.809	1.12
939.54	-1.88
940.27	-0.88
941.001	0.12
941.731	-0.88
942.461	-0.88
943.191	-0.88
943.922	1.12
944.652	-0.88
945.382	-0.88
946.112	-1.88
946.841	1.12
947.571	2.12
948.301	-0.88
949.031	-0.88
949.76	0.12
950.49	-0.88
951.219	1.12
951.948	-0.88
952.678	2.12
953.407	-0.88
954.136	2.12
954.865	2.12
955.594	0.12
956.323	-0.88
957.052	1.12
957.78	1.12
958.509	-0.88
959.238	-1.88
959.966	2.12
960.695	-1.88
961.423	1.12
962.151	0.12
962.88	-0.88
963.608	-0.88
964.336	-0.88
965.064	-0.88
965.792	0.12
966.52	1.12
967.247	3.12
967.975	-0.88
968.703	2.12
969.43	-0.88
970.158	2.12
970.885	0.12
971.613	1.12
972.34	1.12
973.067	-1.88
973.794	-0.88
974.521	-0.88
975.248	2.12
975.975	-1.88
976.702	2.12
977.429	-0.88
978.156	-0.88
978.882	1.12
979.609	0.12
980.335	-0.88
981.062	0.12
981.788	3.12
982.514	-0.88
983.24	1.12
983.967	-1.88
984.693	-0.88
985.419	-1.88
986.144	-0.88
986.87	-0.88
987.596	0.12
988.322	1.12
989.047	1.12
989.773	-0.88
990.498	1.12
991.224	0.12
991.949	1.12
992.674	1.12
993.399	0.12
994.124	-0.88
994.849	-0.88
995.574	1.12
996.299	1.12
997.024	2.12
997.749	-0.88
998.473	-1.88
999.198	1.12
999.922	-0.88
1000.647	-0.88
1001.371	3.12
1002.095	-0.88
1002.82	0.12
1003.544	-0.88
1004.268	1.12
1004.992	1.12
1005.716	2.12
1006.439	-0.88
1007.163	0.12
1007.887	1.12
1008.611	1.12
1009.334	-0.88
1010.058	-0.88
1010.781	-2.88
1011.504	2.12
1012.228	-0.88
1012.951	1.12
1013.674	-1.88
1014.397	-2.88
1015.12	2.12
