节点500_285_QEPB04081__694__15-07-05-852.txt的数据

Date: Wed Nov 12 15:07:05 CST 2025
User: PC
Spectrometer: QEPB0408
触发模式: 0
积分时间 (秒): 1.000000E-2
Scans to average: 1
启用暗噪声校正: true
启用非线性校正: false
滑动平均宽度: 0
X轴模式: Wavelengths
Number of Pixels in Spectrum: 1044
>>>>>Begin Spectral Data<<<<<
220.843	1.25
221.644	0.25
222.444	3.25
223.244	4.25
224.045	1.25
224.845	0.25
225.645	2.25
226.445	2.25
227.245	2.25
228.045	3.25
228.845	2.25
229.645	1.25
230.444	2.25
231.244	2.25
232.043	2.25
232.843	3.25
233.642	3.25
234.442	3.25
235.241	3.25
236.04	3.25
236.839	5.25
237.638	2.25
238.437	4.25
239.236	5.25
240.035	5.25
240.833	7.25
241.632	4.25
242.43	5.25
243.229	7.25
244.027	5.25
244.826	5.25
245.624	4.25
246.422	4.25
247.22	4.25
248.018	5.25
248.816	6.25
249.614	6.25
250.412	4.25
251.21	6.25
252.007	7.25
252.805	8.25
253.602	8.25
254.4	8.25
255.197	8.25
255.994	8.25
256.791	9.25
257.589	7.25
258.386	7.25
259.183	10.25
259.979	10.25
260.776	10.25
261.573	11.25
262.37	6.25
263.166	10.25
263.963	9.25
264.759	10.25
265.556	10.25
266.352	12.25
267.148	10.25
267.944	11.25
268.74	11.25
269.536	12.25
270.332	13.25
271.128	14.25
271.924	13.25
272.719	12.25
273.515	15.25
274.311	13.25
275.106	15.25
275.901	16.25
276.697	15.25
277.492	16.25
278.287	16.25
279.082	16.25
279.877	17.25
280.672	18.25
281.467	16.25
282.262	18.25
283.056	14.25
283.851	18.25
284.646	19.25
285.44	18.25
286.234	18.25
287.029	17.25
287.823	19.25
288.617	21.25
289.411	18.25
290.205	18.25
290.999	19.25
291.793	21.25
292.587	15.25
293.381	18.25
294.174	14.25
294.968	18.25
295.761	14.25
296.555	16.25
297.348	15.25
298.141	13.25
298.935	14.25
299.728	14.25
300.521	13.25
301.314	14.25
302.107	15.25
302.899	13.25
303.692	13.25
304.485	13.25
305.277	13.25
306.07	13.25
306.862	13.25
307.655	11.25
308.447	13.25
309.239	13.25
310.031	11.25
310.823	9.25
311.615	11.25
312.407	11.25
313.199	9.25
313.991	10.25
314.783	8.25
315.574	11.25
316.366	8.25
317.157	9.25
317.949	11.25
318.74	7.25
319.531	10.25
320.322	8.25
321.113	8.25
321.904	7.25
322.695	7.25
323.486	8.25
324.277	7.25
325.068	8.25
325.858	6.25
326.649	6.25
327.439	5.25
328.23	5.25
329.02	8.25
329.81	7.25
330.6	6.25
331.391	7.25
332.181	7.25
332.971	6.25
333.76	7.25
334.55	8.25
335.34	5.25
336.13	6.25
336.919	6.25
337.709	4.25
338.498	7.25
339.287	5.25
340.077	9.25
340.866	6.25
341.655	6.25
342.444	5.25
343.233	5.25
344.022	3.25
344.811	7.25
345.6	8.25
346.388	4.25
347.177	7.25
347.965	7.25
348.754	6.25
349.542	6.25
350.33	7.25
351.119	4.25
351.907	3.25
352.695	3.25
353.483	7.25
354.271	3.25
355.059	5.25
355.846	4.25
356.634	6.25
357.422	5.25
358.209	2.25
358.997	6.25
359.784	5.25
360.571	5.25
361.359	3.25
362.146	3.25
362.933	3.25
363.72	6.25
364.507	4.25
365.294	6.25
366.081	6.25
366.867	6.25
367.654	4.25
368.44	5.25
369.227	7.25
370.013	7.25
370.8	4.25
371.586	3.25
372.372	4.25
373.158	7.25
373.944	5.25
374.73	4.25
375.516	5.25
376.302	5.25
377.088	5.25
377.873	6.25
378.659	5.25
379.445	5.25
380.23	6.25
381.015	2.25
381.801	6.25
382.586	6.25
383.371	8.25
384.156	3.25
384.941	6.25
385.726	6.25
386.511	6.25
387.296	3.25
388.08	4.25
388.865	5.25
389.649	6.25
390.434	6.25
391.218	6.25
392.003	5.25
392.787	6.25
393.571	6.25
394.355	6.25
395.139	5.25
395.923	8.25
396.707	5.25
397.491	8.25
398.274	7.25
399.058	7.25
399.842	7.25
400.625	8.25
401.408	7.25
402.192	7.25
402.975	6.25
403.758	8.25
404.541	7.25
405.324	8.25
406.107	7.25
406.89	8.25
407.673	8.25
408.456	6.25
409.238	9.25
410.021	6.25
410.803	9.25
411.586	8.25
412.368	7.25
413.151	10.25
413.933	8.25
414.715	10.25
415.497	9.25
416.279	10.25
417.061	8.25
417.843	10.25
418.624	8.25
419.406	10.25
420.188	10.25
420.969	10.25
421.751	10.25
422.532	13.25
423.313	9.25
424.095	13.25
424.876	12.25
425.657	10.25
426.438	12.25
427.219	11.25
428	14.25
428.78	14.25
429.561	12.25
430.342	12.25
431.122	13.25
431.903	17.25
432.683	17.25
433.464	14.25
434.244	17.25
435.024	15.25
435.804	14.25
436.584	20.25
437.364	18.25
438.144	20.25
438.924	22.25
439.704	19.25
440.483	24.25
441.263	23.25
442.042	27.25
442.822	29.25
443.601	28.25
444.38	30.25
445.16	32.25
445.939	35.25
446.718	39.25
447.497	41.25
448.276	42.25
449.054	47.25
449.833	50.25
450.612	54.25
451.391	61.25
452.169	70.25
452.948	77.25
453.726	80.25
454.504	87.25
455.282	96.25
456.061	109.25
456.839	126.25
457.617	134.25
458.395	150.25
459.172	167.25
459.95	187.25
460.728	204.25
461.506	225.25
462.283	254.25
463.061	285.25
463.838	313.25
464.615	349.25
465.393	387.25
466.17	437.25
466.947	476.25
467.724	536.25
468.501	588.25
469.278	656.25
470.055	733.25
470.831	813.25
471.608	894.25
472.385	983.25
473.161	1095.25
473.938	1200.25
474.714	1334.25
475.49	1470.25
476.266	1600.25
477.043	1752.25
477.819	1926.25
478.595	2138.25
479.371	2307.25
480.146	2544.25
480.922	2802.25
481.698	3080.25
482.473	3345.25
483.249	3650.25
484.024	4023.25
484.8	4389.25
485.575	4773.25
486.35	5245.25
487.126	5672.25
487.901	6189.25
488.676	6764.25
489.451	7361.25
490.225	7996.25
491	8736.25
491.775	9468.25
492.55	10312.25
493.324	11083.25
494.099	11935.25
494.873	12798.25
495.647	13757.25
496.422	14769.25
497.196	15766.25
497.97	16853.25
498.744	17937.25
499.518	18953.25
500.292	20028.25
501.066	20997.25
501.839	21983.25
502.613	22919.25
503.387	23724.25
504.16	24437.25
504.934	24858.25
505.707	25164.25
506.48	25380.25
507.253	25501.25
508.027	25526.25
508.8	25336.25
509.573	25237.25
510.346	24841.25
511.118	24282.25
511.891	23658.25
512.664	22974.25
513.437	22221.25
514.209	21475.25
514.982	20683.25
515.754	19881.25
516.526	19056.25
517.298	18302.25
518.071	17462.25
518.843	16907.25
519.615	16240.25
520.387	15602.25
521.159	14967.25
521.93	14307.25
522.702	13801.25
523.474	13237.25
524.245	12631.25
525.017	12141.25
525.788	11690.25
526.56	11171.25
527.331	10652.25
528.102	10177.25
528.873	9781.25
529.644	9296.25
530.415	8888.25
531.186	8431.25
531.957	8014.25
532.728	7683.25
533.498	7262.25
534.269	6869.25
535.039	6519.25
535.81	6141.25
536.58	5823.25
537.351	5490.25
538.121	5167.25
538.891	4930.25
539.661	4655.25
540.431	4401.25
541.201	4149.25
541.971	3920.25
542.741	3732.25
543.51	3549.25
544.28	3399.25
545.05	3219.25
545.819	3060.25
546.588	2893.25
547.358	2761.25
548.127	2600.25
548.896	2475.25
549.665	2364.25
550.434	2227.25
551.203	2128.25
551.972	2016.25
552.741	1909.25
553.51	1791.25
554.278	1706.25
555.047	1607.25
555.815	1522.25
556.584	1448.25
557.352	1366.25
558.121	1285.25
558.889	1209.25
559.657	1154.25
560.425	1088.25
561.193	1022.25
561.961	963.25
562.729	908.25
563.496	853.25
564.264	811.25
565.032	766.25
565.799	724.25
566.567	704.25
567.334	646.25
568.101	617.25
568.869	578.25
569.636	540.25
570.403	517.25
571.17	485.25
571.937	451.25
572.704	435.25
573.471	405.25
574.237	383.25
575.004	361.25
575.771	345.25
576.537	326.25
577.303	313.25
578.07	279.25
578.836	263.25
579.602	248.25
580.368	242.25
581.134	232.25
581.9	221.25
582.666	203.25
583.432	190.25
584.198	184.25
584.964	179.25
585.729	168.25
586.495	157.25
587.26	148.25
588.025	141.25
588.791	135.25
589.556	129.25
590.321	120.25
591.086	112.25
591.851	108.25
592.616	103.25
593.381	94.25
594.146	92.25
594.911	85.25
595.675	84.25
596.44	77.25
597.204	79.25
597.969	74.25
598.733	69.25
599.497	67.25
600.261	61.25
601.025	60.25
601.79	59.25
602.553	55.25
603.317	53.25
604.081	48.25
604.845	52.25
605.609	45.25
606.372	46.25
607.136	45.25
607.899	41.25
608.662	39.25
609.426	39.25
610.189	37.25
610.952	32.25
611.715	35.25
612.478	33.25
613.241	30.25
614.004	33.25
614.767	32.25
615.529	30.25
616.292	27.25
617.055	26.25
617.817	22.25
618.579	23.25
619.342	23.25
620.104	24.25
620.866	20.25
621.628	21.25
622.39	19.25
623.152	20.25
623.914	19.25
624.676	19.25
625.438	18.25
626.199	18.25
626.961	17.25
627.722	17.25
628.484	14.25
629.245	14.25
630.006	15.25
630.768	14.25
631.529	12.25
632.29	14.25
633.051	13.25
633.812	12.25
634.573	12.25
635.333	13.25
636.094	10.25
636.855	11.25
637.615	10.25
638.376	10.25
639.136	11.25
639.896	11.25
640.657	10.25
641.417	9.25
642.177	10.25
642.937	10.25
643.697	8.25
644.457	9.25
645.216	8.25
645.976	9.25
646.736	7.25
647.495	7.25
648.255	9.25
649.014	8.25
649.774	7.25
650.533	10.25
651.292	5.25
652.051	6.25
652.81	6.25
653.569	7.25
654.328	6.25
655.087	5.25
655.846	6.25
656.604	7.25
657.363	6.25
658.121	6.25
658.88	4.25
659.638	6.25
660.397	6.25
661.155	7.25
661.913	5.25
662.671	6.25
663.429	5.25
664.187	5.25
664.945	7.25
665.703	5.25
666.46	4.25
667.218	5.25
667.976	5.25
668.733	6.25
669.49	4.25
670.248	4.25
671.005	3.25
671.762	7.25
672.519	4.25
673.276	5.25
674.033	4.25
674.79	4.25
675.547	2.25
676.304	4.25
677.06	4.25
677.817	3.25
678.574	4.25
679.33	6.25
680.086	4.25
680.843	4.25
681.599	3.25
682.355	6.25
683.111	4.25
683.867	4.25
684.623	6.25
685.379	2.25
686.135	2.25
686.89	4.25
687.646	3.25
688.402	4.25
689.157	5.25
689.912	2.25
690.668	5.25
691.423	5.25
692.178	2.25
692.933	4.25
693.688	3.25
694.443	4.25
695.198	3.25
695.953	4.25
696.708	4.25
697.462	4.25
698.217	3.25
698.972	4.25
699.726	3.25
700.48	5.25
701.235	4.25
701.989	3.25
702.743	1.25
703.497	2.25
704.251	2.25
705.005	4.25
705.759	2.25
706.513	2.25
707.266	4.25
708.02	3.25
708.774	4.25
709.527	2.25
710.28	4.25
711.034	3.25
711.787	4.25
712.54	3.25
713.293	4.25
714.046	5.25
714.799	3.25
715.552	2.25
716.305	5.25
717.058	5.25
717.81	4.25
718.563	4.25
719.315	5.25
720.068	5.25
720.82	4.25
721.573	2.25
722.325	1.25
723.077	5.25
723.829	2.25
724.581	3.25
725.333	6.25
726.085	2.25
726.836	2.25
727.588	5.25
728.34	5.25
729.091	2.25
729.843	6.25
730.594	4.25
731.346	4.25
732.097	3.25
732.848	4.25
733.599	3.25
734.35	2.25
735.101	5.25
735.852	2.25
736.603	3.25
737.354	3.25
738.104	4.25
738.855	5.25
739.605	3.25
740.356	3.25
741.106	2.25
741.856	3.25
742.607	2.25
743.357	5.25
744.107	3.25
744.857	4.25
745.607	5.25
746.357	6.25
747.106	4.25
747.856	3.25
748.606	6.25
749.355	4.25
750.105	7.25
750.854	4.25
751.603	4.25
752.353	7.25
753.102	4.25
753.851	4.25
754.6	6.25
755.349	7.25
756.098	5.25
756.847	5.25
757.595	3.25
758.344	7.25
759.093	7.25
759.841	5.25
760.589	4.25
761.338	4.25
762.086	5.25
762.834	7.25
763.582	6.25
764.331	5.25
765.079	8.25
765.826	5.25
766.574	5.25
767.322	9.25
768.07	6.25
768.817	5.25
769.565	7.25
770.312	5.25
771.06	7.25
771.807	7.25
772.554	6.25
773.302	7.25
774.049	6.25
774.796	8.25
775.543	6.25
776.29	7.25
777.036	6.25
777.783	7.25
778.53	9.25
779.276	8.25
780.023	9.25
780.769	7.25
781.516	7.25
782.262	7.25
783.008	8.25
783.754	6.25
784.5	6.25
785.246	9.25
785.992	9.25
786.738	9.25
787.484	8.25
788.23	8.25
788.975	8.25
789.721	8.25
790.466	11.25
791.212	8.25
791.957	7.25
792.702	8.25
793.447	7.25
794.193	8.25
794.938	7.25
795.683	7.25
796.427	6.25
797.172	8.25
797.917	8.25
798.662	6.25
799.406	7.25
800.151	8.25
800.895	9.25
801.64	7.25
802.384	7.25
803.128	5.25
803.872	7.25
804.616	5.25
805.36	4.25
806.104	6.25
806.848	7.25
807.592	5.25
808.336	6.25
809.079	7.25
809.823	8.25
810.566	5.25
811.31	5.25
812.053	5.25
812.796	5.25
813.539	3.25
814.283	2.25
815.026	8.25
815.769	5.25
816.511	5.25
817.254	5.25
817.997	6.25
818.74	3.25
819.482	5.25
820.225	5.25
820.967	4.25
821.71	4.25
822.452	2.25
823.194	3.25
823.936	4.25
824.678	1.25
825.42	4.25
826.162	3.25
826.904	5.25
827.646	7.25
828.388	2.25
829.129	3.25
829.871	3.25
830.612	5.25
831.354	5.25
832.095	4.25
832.836	3.25
833.577	2.25
834.319	3.25
835.06	4.25
835.801	6.25
836.542	3.25
837.282	1.25
838.023	3.25
838.764	2.25
839.504	3.25
840.245	4.25
840.985	4.25
841.726	3.25
842.466	2.25
843.206	4.25
843.946	2.25
844.687	4.25
845.427	3.25
846.166	4.25
846.906	3.25
847.646	2.25
848.386	4.25
849.125	3.25
849.865	1.25
850.605	3.25
851.344	2.25
852.083	3.25
852.823	3.25
853.562	3.25
854.301	3.25
855.04	3.25
855.779	3.25
856.518	2.25
857.257	3.25
857.995	1.25
858.734	4.25
859.473	2.25
860.211	2.25
860.95	3.25
861.688	1.25
862.426	4.25
863.165	4.25
863.903	3.25
864.641	2.25
865.379	1.25
866.117	1.25
866.855	1.25
867.593	2.25
868.33	2.25
869.068	1.25
869.806	2.25
870.543	0.25
871.28	0.25
872.018	1.25
872.755	1.25
873.492	2.25
874.229	-0.75
874.967	1.25
875.703	0.25
876.44	3.25
877.177	-1.75
877.914	2.25
878.651	0.25
879.387	0.25
880.124	0.25
880.86	1.25
881.597	2.25
882.333	2.25
883.069	1.25
883.806	0.25
884.542	0.25
885.278	0.25
886.014	0.25
886.749	0.25
887.485	0.25
888.221	1.25
888.957	3.25
889.692	0.25
890.428	2.25
891.163	2.25
891.899	2.25
892.634	1.25
893.369	0.25
894.104	-0.75
894.839	0.25
895.574	2.25
896.309	-0.75
897.044	2.25
897.779	1.25
898.514	1.25
899.248	1.25
899.983	0.25
900.717	1.25
901.452	1.25
902.186	0.25
902.92	-1.75
903.654	-0.75
904.389	-1.75
905.123	-0.75
905.857	1.25
906.59	0.25
907.324	-0.75
908.058	-0.75
908.792	-0.75
909.525	-1.75
910.259	1.25
910.992	1.25
911.726	2.25
912.459	2.25
913.192	2.25
913.925	-0.75
914.658	2.25
915.391	1.25
916.124	2.25
916.857	1.25
917.59	2.25
918.323	1.25
919.055	1.25
919.788	0.25
920.521	-1.75
921.253	2.25
921.985	0.25
922.718	1.25
923.45	1.25
924.182	0.25
924.914	1.25
925.646	-0.75
926.378	0.25
927.11	-1.75
927.841	1.25
928.573	-1.75
929.305	-1.75
930.036	1.25
930.768	0.25
931.499	-1.75
932.23	2.25
932.962	0.25
933.693	0.25
934.424	-0.75
935.155	0.25
935.886	3.25
936.617	2.25
937.348	0.25
938.078	-0.75
938.809	0.25
939.54	1.25
940.27	0.25
941.001	0.25
941.731	1.25
942.461	-0.75
943.191	-0.75
943.922	1.25
944.652	1.25
945.382	1.25
946.112	3.25
946.841	0.25
947.571	0.25
948.301	-1.75
949.031	2.25
949.76	0.25
950.49	2.25
951.219	-0.75
951.948	1.25
952.678	0.25
953.407	1.25
954.136	-0.75
954.865	-0.75
955.594	0.25
956.323	1.25
957.052	0.25
957.78	1.25
958.509	0.25
959.238	0.25
959.966	2.25
960.695	0.25
961.423	1.25
962.151	-1.75
962.88	-0.75
963.608	0.25
964.336	0.25
965.064	0.25
965.792	1.25
966.52	-0.75
967.247	0.25
967.975	0.25
968.703	0.25
969.43	-0.75
970.158	-0.75
970.885	-0.75
971.613	1.25
972.34	0.25
973.067	1.25
973.794	0.25
974.521	1.25
975.248	0.25
975.975	-1.75
976.702	1.25
977.429	-0.75
978.156	1.25
978.882	-0.75
979.609	0.25
980.335	0.25
981.062	-0.75
981.788	-0.75
982.514	2.25
983.24	0.25
983.967	-1.75
984.693	-1.75
985.419	1.25
986.144	0.25
986.87	1.25
987.596	0.25
988.322	-1.75
989.047	2.25
989.773	-1.75
990.498	-0.75
991.224	-0.75
991.949	-0.75
992.674	2.25
993.399	0.25
994.124	-0.75
994.849	0.25
995.574	-0.75
996.299	0.25
997.024	-0.75
997.749	0.25
998.473	1.25
999.198	1.25
999.922	-0.75
1000.647	2.25
1001.371	2.25
1002.095	-1.75
1002.82	0.25
1003.544	-1.75
1004.268	2.25
1004.992	1.25
1005.716	1.25
1006.439	1.25
1007.163	0.25
1007.887	1.25
1008.611	-0.75
1009.334	0.25
1010.058	0.25
1010.781	0.25
1011.504	0.25
1012.228	-0.75
1012.951	1.25
1013.674	0.25
1014.397	-2.75
1015.12	2.25
