节点500_285_QEPB04081__795__15-08-46-746.txt的数据

Date: Wed Nov 12 15:08:46 CST 2025
User: PC
Spectrometer: QEPB0408
触发模式: 0
积分时间 (秒): 1.000000E-2
Scans to average: 1
启用暗噪声校正: true
启用非线性校正: false
滑动平均宽度: 0
X轴模式: Wavelengths
Number of Pixels in Spectrum: 1044
>>>>>Begin Spectral Data<<<<<
220.843	3.75
221.644	2.75
222.444	1.75
223.244	5.75
224.045	2.75
224.845	3.75
225.645	2.75
226.445	0.75
227.245	1.75
228.045	4.75
228.845	3.75
229.645	1.75
230.444	4.75
231.244	3.75
232.043	2.75
232.843	2.75
233.642	2.75
234.442	3.75
235.241	2.75
236.04	2.75
236.839	3.75
237.638	4.75
238.437	2.75
239.236	3.75
240.035	5.75
240.833	2.75
241.632	7.75
242.43	2.75
243.229	4.75
244.027	7.75
244.826	6.75
245.624	5.75
246.422	6.75
247.22	6.75
248.018	8.75
248.816	4.75
249.614	3.75
250.412	6.75
251.21	6.75
252.007	5.75
252.805	8.75
253.602	7.75
254.4	6.75
255.197	5.75
255.994	5.75
256.791	8.75
257.589	6.75
258.386	10.75
259.183	7.75
259.979	7.75
260.776	10.75
261.573	8.75
262.37	10.75
263.166	12.75
263.963	10.75
264.759	9.75
265.556	11.75
266.352	10.75
267.148	12.75
267.944	12.75
268.74	12.75
269.536	11.75
270.332	12.75
271.128	12.75
271.924	15.75
272.719	14.75
273.515	12.75
274.311	17.75
275.106	17.75
275.901	18.75
276.697	15.75
277.492	16.75
278.287	16.75
279.082	15.75
279.877	15.75
280.672	17.75
281.467	19.75
282.262	17.75
283.056	17.75
283.851	16.75
284.646	17.75
285.44	18.75
286.234	14.75
287.029	17.75
287.823	17.75
288.617	18.75
289.411	17.75
290.205	18.75
290.999	18.75
291.793	14.75
292.587	14.75
293.381	17.75
294.174	14.75
294.968	16.75
295.761	14.75
296.555	15.75
297.348	17.75
298.141	13.75
298.935	18.75
299.728	17.75
300.521	15.75
301.314	12.75
302.107	14.75
302.899	10.75
303.692	14.75
304.485	12.75
305.277	13.75
306.07	17.75
306.862	14.75
307.655	11.75
308.447	13.75
309.239	11.75
310.031	11.75
310.823	10.75
311.615	11.75
312.407	9.75
313.199	9.75
313.991	12.75
314.783	11.75
315.574	9.75
316.366	8.75
317.157	11.75
317.949	8.75
318.74	7.75
319.531	4.75
320.322	8.75
321.113	7.75
321.904	7.75
322.695	9.75
323.486	7.75
324.277	6.75
325.068	7.75
325.858	6.75
326.649	7.75
327.439	7.75
328.23	7.75
329.02	7.75
329.81	7.75
330.6	6.75
331.391	8.75
332.181	8.75
332.971	6.75
333.76	7.75
334.55	7.75
335.34	8.75
336.13	6.75
336.919	7.75
337.709	6.75
338.498	7.75
339.287	9.75
340.077	7.75
340.866	8.75
341.655	5.75
342.444	3.75
343.233	6.75
344.022	5.75
344.811	8.75
345.6	8.75
346.388	5.75
347.177	6.75
347.965	8.75
348.754	6.75
349.542	5.75
350.33	7.75
351.119	6.75
351.907	4.75
352.695	5.75
353.483	3.75
354.271	5.75
355.059	4.75
355.846	4.75
356.634	6.75
357.422	5.75
358.209	7.75
358.997	5.75
359.784	7.75
360.571	6.75
361.359	4.75
362.146	5.75
362.933	5.75
363.72	5.75
364.507	3.75
365.294	3.75
366.081	8.75
366.867	5.75
367.654	6.75
368.44	5.75
369.227	2.75
370.013	5.75
370.8	2.75
371.586	3.75
372.372	1.75
373.158	5.75
373.944	4.75
374.73	7.75
375.516	4.75
376.302	5.75
377.088	5.75
377.873	5.75
378.659	2.75
379.445	4.75
380.23	3.75
381.015	6.75
381.801	6.75
382.586	7.75
383.371	4.75
384.156	6.75
384.941	5.75
385.726	7.75
386.511	7.75
387.296	4.75
388.08	5.75
388.865	5.75
389.649	7.75
390.434	6.75
391.218	7.75
392.003	7.75
392.787	5.75
393.571	7.75
394.355	4.75
395.139	6.75
395.923	4.75
396.707	7.75
397.491	5.75
398.274	5.75
399.058	7.75
399.842	8.75
400.625	8.75
401.408	7.75
402.192	8.75
402.975	9.75
403.758	6.75
404.541	8.75
405.324	5.75
406.107	8.75
406.89	8.75
407.673	6.75
408.456	8.75
409.238	7.75
410.021	9.75
410.803	8.75
411.586	7.75
412.368	8.75
413.151	9.75
413.933	10.75
414.715	7.75
415.497	9.75
416.279	9.75
417.061	10.75
417.843	11.75
418.624	8.75
419.406	11.75
420.188	10.75
420.969	10.75
421.751	10.75
422.532	11.75
423.313	10.75
424.095	9.75
424.876	11.75
425.657	11.75
426.438	12.75
427.219	14.75
428	12.75
428.78	12.75
429.561	11.75
430.342	15.75
431.122	13.75
431.903	15.75
432.683	13.75
433.464	12.75
434.244	16.75
435.024	16.75
435.804	18.75
436.584	15.75
437.364	19.75
438.144	23.75
438.924	20.75
439.704	21.75
440.483	21.75
441.263	25.75
442.042	28.75
442.822	27.75
443.601	28.75
444.38	28.75
445.16	31.75
445.939	35.75
446.718	40.75
447.497	41.75
448.276	43.75
449.054	48.75
449.833	53.75
450.612	56.75
451.391	62.75
452.169	66.75
452.948	74.75
453.726	82.75
454.504	88.75
455.282	98.75
456.061	113.75
456.839	123.75
457.617	138.75
458.395	153.75
459.172	168.75
459.95	189.75
460.728	210.75
461.506	236.75
462.283	263.75
463.061	286.75
463.838	322.75
464.615	350.75
465.393	394.75
466.17	438.75
466.947	483.75
467.724	546.75
468.501	590.75
469.278	675.75
470.055	737.75
470.831	807.75
471.608	909.75
472.385	1007.75
473.161	1097.75
473.938	1218.75
474.714	1327.75
475.49	1469.75
476.266	1611.75
477.043	1754.75
477.819	1926.75
478.595	2126.75
479.371	2339.75
480.146	2544.75
480.922	2804.75
481.698	3058.75
482.473	3332.75
483.249	3646.75
484.024	3982.75
484.8	4348.75
485.575	4737.75
486.35	5150.75
487.126	5632.75
487.901	6110.75
488.676	6637.75
489.451	7246.75
490.225	7868.75
491	8529.75
491.775	9259.75
492.55	10040.75
493.324	10830.75
494.099	11620.75
494.873	12487.75
495.647	13425.75
496.422	14433.75
497.196	15390.75
497.97	16431.75
498.744	17515.75
499.518	18471.75
500.292	19519.75
501.066	20510.75
501.839	21401.75
502.613	22315.75
503.387	23184.75
504.16	23889.75
504.934	24269.75
505.707	24694.75
506.48	24905.75
507.253	25132.75
508.027	25133.75
508.8	25064.75
509.573	24966.75
510.346	24568.75
511.118	24021.75
511.891	23536.75
512.664	22931.75
513.437	22193.75
514.209	21425.75
514.982	20700.75
515.754	19854.75
516.526	18966.75
517.298	18288.75
518.071	17528.75
518.843	16860.75
519.615	16238.75
520.387	15660.75
521.159	14974.75
521.93	14402.75
522.702	13840.75
523.474	13254.75
524.245	12637.75
525.017	12203.75
525.788	11728.75
526.56	11243.75
527.331	10656.75
528.102	10238.75
528.873	9794.75
529.644	9302.75
530.415	8957.75
531.186	8518.75
531.957	8044.75
532.728	7733.75
533.498	7332.75
534.269	6902.75
535.039	6602.75
535.81	6222.75
536.58	5867.75
537.351	5560.75
538.121	5238.75
538.891	4967.75
539.661	4696.75
540.431	4451.75
541.201	4180.75
541.971	3975.75
542.741	3771.75
543.51	3593.75
544.28	3407.75
545.05	3239.75
545.819	3100.75
546.588	2932.75
547.358	2770.75
548.127	2650.75
548.896	2524.75
549.665	2401.75
550.434	2258.75
551.203	2164.75
551.972	2033.75
552.741	1924.75
553.51	1826.75
554.278	1727.75
555.047	1639.75
555.815	1554.75
556.584	1446.75
557.352	1375.75
558.121	1296.75
558.889	1229.75
559.657	1180.75
560.425	1110.75
561.193	1045.75
561.961	973.75
562.729	921.75
563.496	888.75
564.264	824.75
565.032	786.75
565.799	750.75
566.567	694.75
567.334	668.75
568.101	626.75
568.869	602.75
569.636	555.75
570.403	521.75
571.17	493.75
571.937	471.75
572.704	438.75
573.471	411.75
574.237	386.75
575.004	367.75
575.771	346.75
576.537	324.75
577.303	308.75
578.07	297.75
578.836	277.75
579.602	261.75
580.368	241.75
581.134	233.75
581.9	222.75
582.666	207.75
583.432	197.75
584.198	188.75
584.964	176.75
585.729	167.75
586.495	161.75
587.26	153.75
588.025	142.75
588.791	134.75
589.556	128.75
590.321	123.75
591.086	117.75
591.851	112.75
592.616	103.75
593.381	98.75
594.146	96.75
594.911	88.75
595.675	87.75
596.44	77.75
597.204	76.75
597.969	79.75
598.733	72.75
599.497	69.75
600.261	61.75
601.025	61.75
601.79	58.75
602.553	54.75
603.317	56.75
604.081	54.75
604.845	48.75
605.609	46.75
606.372	45.75
607.136	41.75
607.899	41.75
608.662	38.75
609.426	39.75
610.189	36.75
610.952	33.75
611.715	33.75
612.478	34.75
613.241	31.75
614.004	30.75
614.767	30.75
615.529	26.75
616.292	29.75
617.055	26.75
617.817	25.75
618.579	26.75
619.342	24.75
620.104	22.75
620.866	25.75
621.628	21.75
622.39	23.75
623.152	17.75
623.914	17.75
624.676	18.75
625.438	18.75
626.199	16.75
626.961	16.75
627.722	18.75
628.484	13.75
629.245	13.75
630.006	12.75
630.768	12.75
631.529	14.75
632.29	12.75
633.051	13.75
633.812	12.75
634.573	13.75
635.333	14.75
636.094	9.75
636.855	12.75
637.615	12.75
638.376	10.75
639.136	13.75
639.896	12.75
640.657	10.75
641.417	10.75
642.177	8.75
642.937	7.75
643.697	9.75
644.457	10.75
645.216	9.75
645.976	7.75
646.736	6.75
647.495	10.75
648.255	8.75
649.014	8.75
649.774	10.75
650.533	7.75
651.292	8.75
652.051	7.75
652.81	6.75
653.569	6.75
654.328	8.75
655.087	6.75
655.846	7.75
656.604	5.75
657.363	7.75
658.121	4.75
658.88	5.75
659.638	9.75
660.397	5.75
661.155	4.75
661.913	8.75
662.671	6.75
663.429	6.75
664.187	5.75
664.945	3.75
665.703	4.75
666.46	4.75
667.218	5.75
667.976	5.75
668.733	3.75
669.49	5.75
670.248	4.75
671.005	6.75
671.762	5.75
672.519	5.75
673.276	4.75
674.033	6.75
674.79	4.75
675.547	3.75
676.304	5.75
677.06	6.75
677.817	5.75
678.574	4.75
679.33	4.75
680.086	5.75
680.843	3.75
681.599	4.75
682.355	3.75
683.111	5.75
683.867	3.75
684.623	5.75
685.379	6.75
686.135	4.75
686.89	3.75
687.646	4.75
688.402	4.75
689.157	6.75
689.912	3.75
690.668	6.75
691.423	2.75
692.178	5.75
692.933	6.75
693.688	4.75
694.443	2.75
695.198	4.75
695.953	3.75
696.708	4.75
697.462	4.75
698.217	2.75
698.972	6.75
699.726	3.75
700.48	4.75
701.235	3.75
701.989	3.75
702.743	2.75
703.497	5.75
704.251	5.75
705.005	3.75
705.759	5.75
706.513	5.75
707.266	4.75
708.02	4.75
708.774	2.75
709.527	3.75
710.28	3.75
711.034	5.75
711.787	2.75
712.54	3.75
713.293	2.75
714.046	3.75
714.799	4.75
715.552	3.75
716.305	3.75
717.058	5.75
717.81	5.75
718.563	6.75
719.315	4.75
720.068	2.75
720.82	4.75
721.573	4.75
722.325	4.75
723.077	5.75
723.829	3.75
724.581	4.75
725.333	2.75
726.085	3.75
726.836	0.75
727.588	5.75
728.34	4.75
729.091	1.75
729.843	6.75
730.594	2.75
731.346	5.75
732.097	4.75
732.848	6.75
733.599	2.75
734.35	1.75
735.101	7.75
735.852	4.75
736.603	3.75
737.354	5.75
738.104	3.75
738.855	4.75
739.605	5.75
740.356	6.75
741.106	5.75
741.856	6.75
742.607	4.75
743.357	7.75
744.107	4.75
744.857	3.75
745.607	5.75
746.357	7.75
747.106	5.75
747.856	5.75
748.606	5.75
749.355	4.75
750.105	5.75
750.854	4.75
751.603	3.75
752.353	3.75
753.102	4.75
753.851	3.75
754.6	6.75
755.349	7.75
756.098	6.75
756.847	6.75
757.595	6.75
758.344	6.75
759.093	5.75
759.841	5.75
760.589	6.75
761.338	6.75
762.086	5.75
762.834	6.75
763.582	8.75
764.331	4.75
765.079	8.75
765.826	5.75
766.574	6.75
767.322	5.75
768.07	6.75
768.817	7.75
769.565	7.75
770.312	9.75
771.06	7.75
771.807	5.75
772.554	5.75
773.302	9.75
774.049	7.75
774.796	7.75
775.543	9.75
776.29	6.75
777.036	7.75
777.783	10.75
778.53	8.75
779.276	7.75
780.023	9.75
780.769	10.75
781.516	9.75
782.262	7.75
783.008	6.75
783.754	8.75
784.5	9.75
785.246	7.75
785.992	8.75
786.738	9.75
787.484	6.75
788.23	7.75
788.975	7.75
789.721	8.75
790.466	10.75
791.212	8.75
791.957	6.75
792.702	7.75
793.447	9.75
794.193	9.75
794.938	9.75
795.683	7.75
796.427	8.75
797.172	9.75
797.917	7.75
798.662	7.75
799.406	9.75
800.151	6.75
800.895	8.75
801.64	7.75
802.384	5.75
803.128	6.75
803.872	5.75
804.616	7.75
805.36	6.75
806.104	6.75
806.848	6.75
807.592	7.75
808.336	5.75
809.079	5.75
809.823	3.75
810.566	4.75
811.31	3.75
812.053	5.75
812.796	6.75
813.539	7.75
814.283	4.75
815.026	3.75
815.769	5.75
816.511	5.75
817.254	3.75
817.997	4.75
818.74	4.75
819.482	5.75
820.225	7.75
820.967	4.75
821.71	6.75
822.452	4.75
823.194	4.75
823.936	5.75
824.678	4.75
825.42	5.75
826.162	3.75
826.904	5.75
827.646	5.75
828.388	4.75
829.129	1.75
829.871	3.75
830.612	6.75
831.354	4.75
832.095	5.75
832.836	4.75
833.577	4.75
834.319	3.75
835.06	4.75
835.801	6.75
836.542	2.75
837.282	5.75
838.023	3.75
838.764	4.75
839.504	5.75
840.245	3.75
840.985	4.75
841.726	5.75
842.466	3.75
843.206	3.75
843.946	1.75
844.687	4.75
845.427	0.75
846.166	4.75
846.906	4.75
847.646	4.75
848.386	2.75
849.125	3.75
849.865	3.75
850.605	2.75
851.344	1.75
852.083	2.75
852.823	3.75
853.562	1.75
854.301	2.75
855.04	2.75
855.779	4.75
856.518	1.75
857.257	3.75
857.995	3.75
858.734	1.75
859.473	3.75
860.211	2.75
860.95	3.75
861.688	2.75
862.426	4.75
863.165	2.75
863.903	3.75
864.641	3.75
865.379	2.75
866.117	2.75
866.855	1.75
867.593	2.75
868.33	2.75
869.068	2.75
869.806	1.75
870.543	4.75
871.28	-0.25
872.018	3.75
872.755	2.75
873.492	1.75
874.229	1.75
874.967	1.75
875.703	3.75
876.44	1.75
877.177	1.75
877.914	1.75
878.651	-0.25
879.387	3.75
880.124	1.75
880.86	2.75
881.597	2.75
882.333	0.75
883.069	1.75
883.806	0.75
884.542	2.75
885.278	1.75
886.014	2.75
886.749	1.75
887.485	2.75
888.221	2.75
888.957	0.75
889.692	2.75
890.428	1.75
891.163	1.75
891.899	1.75
892.634	-0.25
893.369	1.75
894.104	0.75
894.839	2.75
895.574	1.75
896.309	-1.25
897.044	-0.25
897.779	1.75
898.514	2.75
899.248	0.75
899.983	2.75
900.717	-0.25
901.452	1.75
902.186	0.75
902.92	0.75
903.654	1.75
904.389	1.75
905.123	1.75
905.857	0.75
906.59	-0.25
907.324	2.75
908.058	0.75
908.792	0.75
909.525	0.75
910.259	2.75
910.992	1.75
911.726	-0.25
912.459	1.75
913.192	2.75
913.925	0.75
914.658	-0.25
915.391	1.75
916.124	1.75
916.857	0.75
917.59	0.75
918.323	1.75
919.055	0.75
919.788	-0.25
920.521	1.75
921.253	1.75
921.985	1.75
922.718	-1.25
923.45	0.75
924.182	-1.25
924.914	0.75
925.646	1.75
926.378	-0.25
927.11	1.75
927.841	1.75
928.573	0.75
929.305	-0.25
930.036	0.75
930.768	1.75
931.499	0.75
932.23	-0.25
932.962	1.75
933.693	2.75
934.424	-0.25
935.155	2.75
935.886	1.75
936.617	1.75
937.348	-0.25
938.078	-0.25
938.809	0.75
939.54	2.75
940.27	1.75
941.001	1.75
941.731	0.75
942.461	1.75
943.191	1.75
943.922	-1.25
944.652	1.75
945.382	1.75
946.112	0.75
946.841	2.75
947.571	-0.25
948.301	0.75
949.031	1.75
949.76	-0.25
950.49	0.75
951.219	-1.25
951.948	2.75
952.678	0.75
953.407	0.75
954.136	-0.25
954.865	4.75
955.594	0.75
956.323	3.75
957.052	-0.25
957.78	1.75
958.509	0.75
959.238	1.75
959.966	-0.25
960.695	1.75
961.423	-1.25
962.151	-0.25
962.88	1.75
963.608	1.75
964.336	1.75
965.064	0.75
965.792	0.75
966.52	0.75
967.247	1.75
967.975	1.75
968.703	1.75
969.43	1.75
970.158	1.75
970.885	1.75
971.613	1.75
972.34	1.75
973.067	0.75
973.794	-1.25
974.521	2.75
975.248	-1.25
975.975	1.75
976.702	2.75
977.429	1.75
978.156	1.75
978.882	1.75
979.609	2.75
980.335	-2.25
981.062	2.75
981.788	1.75
982.514	2.75
983.24	0.75
983.967	0.75
984.693	3.75
985.419	1.75
986.144	2.75
986.87	2.75
987.596	-0.25
988.322	0.75
989.047	0.75
989.773	1.75
990.498	1.75
991.224	1.75
991.949	1.75
992.674	0.75
993.399	1.75
994.124	1.75
994.849	2.75
995.574	0.75
996.299	1.75
997.024	0.75
997.749	-1.25
998.473	1.75
999.198	1.75
999.922	3.75
1000.647	0.75
1001.371	2.75
1002.095	0.75
1002.82	-1.25
1003.544	-0.25
1004.268	0.75
1004.992	2.75
1005.716	1.75
1006.439	0.75
1007.163	2.75
1007.887	1.75
1008.611	0.75
1009.334	0.75
1010.058	1.75
1010.781	2.75
1011.504	0.75
1012.228	0.75
1012.951	-0.25
1013.674	-0.25
1014.397	-1.25
1015.12	-0.25
