节点500_285_QEPB04081__346__15-01-18-693.txt的数据

Date: Wed Nov 12 15:01:18 CST 2025
User: PC
Spectrometer: QEPB0408
触发模式: 0
积分时间 (秒): 1.000000E-2
Scans to average: 1
启用暗噪声校正: true
启用非线性校正: false
滑动平均宽度: 0
X轴模式: Wavelengths
Number of Pixels in Spectrum: 1044
>>>>>Begin Spectral Data<<<<<
220.843	2.12
221.644	2.12
222.444	1.12
223.244	4.12
224.045	2.12
224.845	3.12
225.645	3.12
226.445	1.12
227.245	4.12
228.045	2.12
228.845	2.12
229.645	3.12
230.444	2.12
231.244	3.12
232.043	5.12
232.843	5.12
233.642	4.12
234.442	4.12
235.241	2.12
236.04	5.12
236.839	4.12
237.638	4.12
238.437	6.12
239.236	8.12
240.035	4.12
240.833	4.12
241.632	4.12
242.43	5.12
243.229	4.12
244.027	5.12
244.826	5.12
245.624	6.12
246.422	5.12
247.22	4.12
248.018	4.12
248.816	7.12
249.614	7.12
250.412	5.12
251.21	4.12
252.007	8.12
252.805	7.12
253.602	9.12
254.4	8.12
255.197	8.12
255.994	7.12
256.791	9.12
257.589	9.12
258.386	8.12
259.183	9.12
259.979	10.12
260.776	9.12
261.573	11.12
262.37	12.12
263.166	11.12
263.963	12.12
264.759	14.12
265.556	10.12
266.352	10.12
267.148	16.12
267.944	13.12
268.74	14.12
269.536	13.12
270.332	16.12
271.128	16.12
271.924	15.12
272.719	18.12
273.515	18.12
274.311	17.12
275.106	18.12
275.901	15.12
276.697	19.12
277.492	18.12
278.287	18.12
279.082	16.12
279.877	18.12
280.672	18.12
281.467	19.12
282.262	17.12
283.056	18.12
283.851	20.12
284.646	18.12
285.44	20.12
286.234	17.12
287.029	18.12
287.823	19.12
288.617	19.12
289.411	20.12
290.205	19.12
290.999	18.12
291.793	17.12
292.587	19.12
293.381	20.12
294.174	17.12
294.968	17.12
295.761	15.12
296.555	17.12
297.348	16.12
298.141	17.12
298.935	18.12
299.728	14.12
300.521	16.12
301.314	13.12
302.107	14.12
302.899	15.12
303.692	13.12
304.485	14.12
305.277	12.12
306.07	13.12
306.862	14.12
307.655	12.12
308.447	11.12
309.239	13.12
310.031	12.12
310.823	12.12
311.615	9.12
312.407	13.12
313.199	11.12
313.991	10.12
314.783	10.12
315.574	11.12
316.366	8.12
317.157	8.12
317.949	9.12
318.74	7.12
319.531	8.12
320.322	8.12
321.113	7.12
321.904	8.12
322.695	8.12
323.486	6.12
324.277	8.12
325.068	7.12
325.858	8.12
326.649	6.12
327.439	7.12
328.23	8.12
329.02	7.12
329.81	7.12
330.6	6.12
331.391	7.12
332.181	8.12
332.971	8.12
333.76	5.12
334.55	6.12
335.34	6.12
336.13	7.12
336.919	7.12
337.709	7.12
338.498	6.12
339.287	8.12
340.077	5.12
340.866	7.12
341.655	3.12
342.444	9.12
343.233	9.12
344.022	7.12
344.811	8.12
345.6	6.12
346.388	6.12
347.177	7.12
347.965	8.12
348.754	4.12
349.542	5.12
350.33	8.12
351.119	7.12
351.907	6.12
352.695	4.12
353.483	6.12
354.271	6.12
355.059	4.12
355.846	4.12
356.634	7.12
357.422	4.12
358.209	6.12
358.997	6.12
359.784	6.12
360.571	5.12
361.359	4.12
362.146	8.12
362.933	7.12
363.72	5.12
364.507	4.12
365.294	6.12
366.081	4.12
366.867	5.12
367.654	6.12
368.44	6.12
369.227	5.12
370.013	5.12
370.8	7.12
371.586	4.12
372.372	5.12
373.158	7.12
373.944	6.12
374.73	5.12
375.516	5.12
376.302	7.12
377.088	4.12
377.873	5.12
378.659	5.12
379.445	6.12
380.23	6.12
381.015	5.12
381.801	4.12
382.586	5.12
383.371	4.12
384.156	7.12
384.941	6.12
385.726	7.12
386.511	7.12
387.296	7.12
388.08	6.12
388.865	6.12
389.649	7.12
390.434	5.12
391.218	6.12
392.003	6.12
392.787	8.12
393.571	8.12
394.355	8.12
395.139	8.12
395.923	4.12
396.707	7.12
397.491	6.12
398.274	9.12
399.058	8.12
399.842	7.12
400.625	8.12
401.408	7.12
402.192	8.12
402.975	7.12
403.758	10.12
404.541	6.12
405.324	6.12
406.107	8.12
406.89	6.12
407.673	8.12
408.456	8.12
409.238	8.12
410.021	8.12
410.803	7.12
411.586	9.12
412.368	11.12
413.151	9.12
413.933	9.12
414.715	9.12
415.497	11.12
416.279	9.12
417.061	8.12
417.843	9.12
418.624	8.12
419.406	9.12
420.188	9.12
420.969	10.12
421.751	12.12
422.532	14.12
423.313	13.12
424.095	12.12
424.876	11.12
425.657	12.12
426.438	12.12
427.219	12.12
428	13.12
428.78	14.12
429.561	11.12
430.342	13.12
431.122	13.12
431.903	12.12
432.683	15.12
433.464	14.12
434.244	17.12
435.024	16.12
435.804	15.12
436.584	17.12
437.364	19.12
438.144	20.12
438.924	19.12
439.704	25.12
440.483	22.12
441.263	23.12
442.042	27.12
442.822	27.12
443.601	32.12
444.38	32.12
445.16	35.12
445.939	34.12
446.718	36.12
447.497	37.12
448.276	39.12
449.054	47.12
449.833	46.12
450.612	51.12
451.391	57.12
452.169	61.12
452.948	67.12
453.726	74.12
454.504	82.12
455.282	92.12
456.061	98.12
456.839	112.12
457.617	120.12
458.395	137.12
459.172	152.12
459.95	161.12
460.728	183.12
461.506	201.12
462.283	231.12
463.061	253.12
463.838	292.12
464.615	316.12
465.393	364.12
466.17	400.12
466.947	448.12
467.724	506.12
468.501	557.12
469.278	610.12
470.055	687.12
470.831	767.12
471.608	856.12
472.385	927.12
473.161	1055.12
473.938	1168.12
474.714	1288.12
475.49	1422.12
476.266	1581.12
477.043	1755.12
477.819	1943.12
478.595	2147.12
479.371	2342.12
480.146	2591.12
480.922	2869.12
481.698	3147.12
482.473	3456.12
483.249	3827.12
484.024	4201.12
484.8	4642.12
485.575	5083.12
486.35	5558.12
487.126	6117.12
487.901	6712.12
488.676	7373.12
489.451	8068.12
490.225	8836.12
491	9618.12
491.775	10523.12
492.55	11465.12
493.324	12405.12
494.099	13379.12
494.873	14403.12
495.647	15532.12
496.422	16686.12
497.196	17862.12
497.97	19077.12
498.744	20259.12
499.518	21411.12
500.292	22592.12
501.066	23619.12
501.839	24572.12
502.613	25442.12
503.387	26284.12
504.16	26912.12
504.934	27303.12
505.707	27390.12
506.48	27561.12
507.253	27430.12
508.027	27140.12
508.8	26743.12
509.573	26330.12
510.346	25756.12
511.118	25034.12
511.891	24229.12
512.664	23401.12
513.437	22477.12
514.209	21572.12
514.982	20725.12
515.754	19764.12
516.526	18828.12
517.298	18049.12
518.071	17294.12
518.843	16600.12
519.615	15970.12
520.387	15294.12
521.159	14719.12
521.93	14089.12
522.702	13580.12
523.474	13030.12
524.245	12490.12
525.017	11900.12
525.788	11451.12
526.56	10926.12
527.331	10461.12
528.102	9960.12
528.873	9539.12
529.644	9032.12
530.415	8634.12
531.186	8149.12
531.957	7727.12
532.728	7362.12
533.498	6975.12
534.269	6554.12
535.039	6223.12
535.81	5880.12
536.58	5515.12
537.351	5217.12
538.121	4898.12
538.891	4673.12
539.661	4438.12
540.431	4179.12
541.201	3937.12
541.971	3748.12
542.741	3527.12
543.51	3343.12
544.28	3201.12
545.05	3049.12
545.819	2892.12
546.588	2763.12
547.358	2603.12
548.127	2491.12
548.896	2363.12
549.665	2231.12
550.434	2117.12
551.203	2005.12
551.972	1905.12
552.741	1772.12
553.51	1698.12
554.278	1593.12
555.047	1505.12
555.815	1422.12
556.584	1354.12
557.352	1274.12
558.121	1204.12
558.889	1124.12
559.657	1095.12
560.425	1001.12
561.193	963.12
561.961	906.12
562.729	845.12
563.496	806.12
564.264	759.12
565.032	716.12
565.799	678.12
566.567	643.12
567.334	611.12
568.101	572.12
568.869	550.12
569.636	501.12
570.403	474.12
571.17	454.12
571.937	425.12
572.704	398.12
573.471	374.12
574.237	363.12
575.004	338.12
575.771	323.12
576.537	300.12
577.303	276.12
578.07	269.12
578.836	247.12
579.602	234.12
580.368	223.12
581.134	214.12
581.9	204.12
582.666	189.12
583.432	180.12
584.198	175.12
584.964	158.12
585.729	152.12
586.495	141.12
587.26	137.12
588.025	132.12
588.791	127.12
589.556	122.12
590.321	116.12
591.086	109.12
591.851	97.12
592.616	92.12
593.381	90.12
594.146	89.12
594.911	83.12
595.675	76.12
596.44	75.12
597.204	71.12
597.969	70.12
598.733	65.12
599.497	60.12
600.261	59.12
601.025	56.12
601.79	55.12
602.553	47.12
603.317	50.12
604.081	46.12
604.845	42.12
605.609	44.12
606.372	40.12
607.136	39.12
607.899	39.12
608.662	37.12
609.426	36.12
610.189	36.12
610.952	33.12
611.715	30.12
612.478	32.12
613.241	30.12
614.004	30.12
614.767	26.12
615.529	28.12
616.292	26.12
617.055	23.12
617.817	25.12
618.579	22.12
619.342	24.12
620.104	25.12
620.866	18.12
621.628	17.12
622.39	19.12
623.152	16.12
623.914	18.12
624.676	16.12
625.438	17.12
626.199	18.12
626.961	16.12
627.722	17.12
628.484	16.12
629.245	15.12
630.006	12.12
630.768	15.12
631.529	13.12
632.29	13.12
633.051	11.12
633.812	10.12
634.573	12.12
635.333	12.12
636.094	14.12
636.855	9.12
637.615	11.12
638.376	9.12
639.136	10.12
639.896	11.12
640.657	9.12
641.417	7.12
642.177	11.12
642.937	7.12
643.697	9.12
644.457	9.12
645.216	9.12
645.976	7.12
646.736	5.12
647.495	8.12
648.255	9.12
649.014	8.12
649.774	7.12
650.533	7.12
651.292	8.12
652.051	5.12
652.81	7.12
653.569	6.12
654.328	7.12
655.087	5.12
655.846	6.12
656.604	5.12
657.363	6.12
658.121	6.12
658.88	6.12
659.638	7.12
660.397	5.12
661.155	7.12
661.913	6.12
662.671	5.12
663.429	6.12
664.187	5.12
664.945	5.12
665.703	8.12
666.46	7.12
667.218	6.12
667.976	5.12
668.733	4.12
669.49	4.12
670.248	5.12
671.005	5.12
671.762	6.12
672.519	4.12
673.276	5.12
674.033	7.12
674.79	5.12
675.547	4.12
676.304	6.12
677.06	3.12
677.817	6.12
678.574	6.12
679.33	4.12
680.086	5.12
680.843	5.12
681.599	5.12
682.355	5.12
683.111	6.12
683.867	5.12
684.623	4.12
685.379	5.12
686.135	3.12
686.89	5.12
687.646	5.12
688.402	4.12
689.157	5.12
689.912	5.12
690.668	3.12
691.423	2.12
692.178	2.12
692.933	6.12
693.688	2.12
694.443	5.12
695.198	5.12
695.953	6.12
696.708	4.12
697.462	5.12
698.217	3.12
698.972	3.12
699.726	4.12
700.48	0.12
701.235	4.12
701.989	1.12
702.743	2.12
703.497	2.12
704.251	5.12
705.005	3.12
705.759	3.12
706.513	3.12
707.266	4.12
708.02	4.12
708.774	4.12
709.527	2.12
710.28	2.12
711.034	3.12
711.787	3.12
712.54	4.12
713.293	2.12
714.046	2.12
714.799	0.12
715.552	4.12
716.305	3.12
717.058	6.12
717.81	6.12
718.563	3.12
719.315	6.12
720.068	5.12
720.82	7.12
721.573	4.12
722.325	3.12
723.077	2.12
723.829	5.12
724.581	5.12
725.333	4.12
726.085	3.12
726.836	4.12
727.588	4.12
728.34	4.12
729.091	4.12
729.843	5.12
730.594	4.12
731.346	5.12
732.097	3.12
732.848	4.12
733.599	4.12
734.35	4.12
735.101	7.12
735.852	4.12
736.603	3.12
737.354	3.12
738.104	5.12
738.855	5.12
739.605	6.12
740.356	5.12
741.106	5.12
741.856	5.12
742.607	5.12
743.357	5.12
744.107	5.12
744.857	2.12
745.607	6.12
746.357	5.12
747.106	6.12
747.856	6.12
748.606	5.12
749.355	3.12
750.105	5.12
750.854	5.12
751.603	7.12
752.353	5.12
753.102	3.12
753.851	8.12
754.6	7.12
755.349	7.12
756.098	7.12
756.847	5.12
757.595	5.12
758.344	5.12
759.093	5.12
759.841	7.12
760.589	8.12
761.338	4.12
762.086	6.12
762.834	6.12
763.582	6.12
764.331	4.12
765.079	8.12
765.826	5.12
766.574	7.12
767.322	8.12
768.07	8.12
768.817	7.12
769.565	6.12
770.312	6.12
771.06	9.12
771.807	7.12
772.554	7.12
773.302	9.12
774.049	10.12
774.796	8.12
775.543	5.12
776.29	8.12
777.036	8.12
777.783	7.12
778.53	8.12
779.276	9.12
780.023	7.12
780.769	8.12
781.516	9.12
782.262	11.12
783.008	9.12
783.754	9.12
784.5	8.12
785.246	9.12
785.992	8.12
786.738	13.12
787.484	8.12
788.23	9.12
788.975	10.12
789.721	7.12
790.466	10.12
791.212	7.12
791.957	9.12
792.702	10.12
793.447	8.12
794.193	9.12
794.938	8.12
795.683	8.12
796.427	9.12
797.172	9.12
797.917	10.12
798.662	7.12
799.406	9.12
800.151	7.12
800.895	7.12
801.64	9.12
802.384	8.12
803.128	8.12
803.872	8.12
804.616	8.12
805.36	6.12
806.104	5.12
806.848	6.12
807.592	5.12
808.336	6.12
809.079	6.12
809.823	7.12
810.566	5.12
811.31	5.12
812.053	7.12
812.796	4.12
813.539	7.12
814.283	6.12
815.026	5.12
815.769	5.12
816.511	5.12
817.254	5.12
817.997	4.12
818.74	5.12
819.482	4.12
820.225	5.12
820.967	5.12
821.71	3.12
822.452	3.12
823.194	2.12
823.936	3.12
824.678	5.12
825.42	3.12
826.162	3.12
826.904	4.12
827.646	4.12
828.388	2.12
829.129	4.12
829.871	5.12
830.612	5.12
831.354	3.12
832.095	4.12
832.836	4.12
833.577	3.12
834.319	4.12
835.06	4.12
835.801	4.12
836.542	5.12
837.282	2.12
838.023	4.12
838.764	3.12
839.504	4.12
840.245	5.12
840.985	4.12
841.726	2.12
842.466	2.12
843.206	6.12
843.946	3.12
844.687	4.12
845.427	5.12
846.166	0.12
846.906	3.12
847.646	0.12
848.386	3.12
849.125	4.12
849.865	3.12
850.605	2.12
851.344	2.12
852.083	4.12
852.823	2.12
853.562	4.12
854.301	3.12
855.04	0.12
855.779	3.12
856.518	2.12
857.257	3.12
857.995	1.12
858.734	3.12
859.473	3.12
860.211	0.12
860.95	3.12
861.688	2.12
862.426	2.12
863.165	2.12
863.903	2.12
864.641	2.12
865.379	3.12
866.117	2.12
866.855	2.12
867.593	4.12
868.33	0.12
869.068	1.12
869.806	2.12
870.543	2.12
871.28	3.12
872.018	2.12
872.755	1.12
873.492	3.12
874.229	0.12
874.967	3.12
875.703	2.12
876.44	0.12
877.177	2.12
877.914	3.12
878.651	1.12
879.387	2.12
880.124	0.12
880.86	1.12
881.597	-0.88
882.333	1.12
883.069	1.12
883.806	2.12
884.542	1.12
885.278	2.12
886.014	1.12
886.749	2.12
887.485	2.12
888.221	3.12
888.957	1.12
889.692	0.12
890.428	2.12
891.163	2.12
891.899	-1.88
892.634	2.12
893.369	0.12
894.104	0.12
894.839	0.12
895.574	2.12
896.309	2.12
897.044	1.12
897.779	2.12
898.514	1.12
899.248	0.12
899.983	1.12
900.717	1.12
901.452	3.12
902.186	-0.88
902.92	2.12
903.654	1.12
904.389	1.12
905.123	1.12
905.857	-0.88
906.59	1.12
907.324	2.12
908.058	0.12
908.792	3.12
909.525	1.12
910.259	2.12
910.992	-0.88
911.726	1.12
912.459	2.12
913.192	1.12
913.925	4.12
914.658	0.12
915.391	2.12
916.124	-0.88
916.857	2.12
917.59	2.12
918.323	-1.88
919.055	3.12
919.788	-0.88
920.521	2.12
921.253	-0.88
921.985	-0.88
922.718	1.12
923.45	-0.88
924.182	1.12
924.914	-0.88
925.646	1.12
926.378	0.12
927.11	0.12
927.841	1.12
928.573	0.12
929.305	3.12
930.036	0.12
930.768	3.12
931.499	0.12
932.23	-1.88
932.962	1.12
933.693	0.12
934.424	0.12
935.155	-0.88
935.886	0.12
936.617	1.12
937.348	-1.88
938.078	2.12
938.809	0.12
939.54	0.12
940.27	0.12
941.001	0.12
941.731	0.12
942.461	0.12
943.191	0.12
943.922	0.12
944.652	3.12
945.382	2.12
946.112	1.12
946.841	1.12
947.571	0.12
948.301	-0.88
949.031	-1.88
949.76	0.12
950.49	1.12
951.219	-0.88
951.948	2.12
952.678	0.12
953.407	2.12
954.136	2.12
954.865	-0.88
955.594	0.12
956.323	0.12
957.052	2.12
957.78	-1.88
958.509	0.12
959.238	-0.88
959.966	0.12
960.695	1.12
961.423	0.12
962.151	1.12
962.88	2.12
963.608	1.12
964.336	2.12
965.064	-0.88
965.792	2.12
966.52	-0.88
967.247	1.12
967.975	-0.88
968.703	0.12
969.43	3.12
970.158	2.12
970.885	1.12
971.613	-1.88
972.34	0.12
973.067	1.12
973.794	1.12
974.521	3.12
975.248	1.12
975.975	0.12
976.702	0.12
977.429	2.12
978.156	2.12
978.882	0.12
979.609	1.12
980.335	-1.88
981.062	2.12
981.788	0.12
982.514	-1.88
983.24	0.12
983.967	-1.88
984.693	0.12
985.419	-1.88
986.144	2.12
986.87	1.12
987.596	0.12
988.322	0.12
989.047	-0.88
989.773	1.12
990.498	2.12
991.224	3.12
991.949	2.12
992.674	-1.88
993.399	1.12
994.124	1.12
994.849	2.12
995.574	-0.88
996.299	1.12
997.024	0.12
997.749	-1.88
998.473	1.12
999.198	0.12
999.922	1.12
1000.647	1.12
1001.371	2.12
1002.095	0.12
1002.82	0.12
1003.544	-2.88
1004.268	1.12
1004.992	0.12
1005.716	1.12
1006.439	2.12
1007.163	1.12
1007.887	1.12
1008.611	0.12
1009.334	2.12
1010.058	2.12
1010.781	4.12
1011.504	1.12
1012.228	0.12
1012.951	-0.88
1013.674	1.12
1014.397	1.12
1015.12	-0.88
