节点500_285_QEPB04081__222__14-59-15-009.txt的数据

Date: Wed Nov 12 14:59:15 CST 2025
User: PC
Spectrometer: QEPB0408
触发模式: 0
积分时间 (秒): 1.000000E-2
Scans to average: 1
启用暗噪声校正: true
启用非线性校正: false
滑动平均宽度: 0
X轴模式: Wavelengths
Number of Pixels in Spectrum: 1044
>>>>>Begin Spectral Data<<<<<
220.843	0.25
221.644	0.25
222.444	0.25
223.244	-0.75
224.045	2.25
224.845	0.25
225.645	1.25
226.445	2.25
227.245	2.25
228.045	1.25
228.845	5.25
229.645	2.25
230.444	4.25
231.244	1.25
232.043	3.25
232.843	2.25
233.642	4.25
234.442	2.25
235.241	1.25
236.04	2.25
236.839	2.25
237.638	4.25
238.437	5.25
239.236	1.25
240.035	2.25
240.833	3.25
241.632	4.25
242.43	4.25
243.229	5.25
244.027	4.25
244.826	3.25
245.624	5.25
246.422	7.25
247.22	6.25
248.018	5.25
248.816	6.25
249.614	6.25
250.412	4.25
251.21	3.25
252.007	7.25
252.805	7.25
253.602	8.25
254.4	6.25
255.197	7.25
255.994	8.25
256.791	7.25
257.589	10.25
258.386	5.25
259.183	9.25
259.979	9.25
260.776	10.25
261.573	11.25
262.37	8.25
263.166	10.25
263.963	12.25
264.759	11.25
265.556	10.25
266.352	12.25
267.148	12.25
267.944	10.25
268.74	16.25
269.536	15.25
270.332	14.25
271.128	16.25
271.924	13.25
272.719	16.25
273.515	17.25
274.311	13.25
275.106	18.25
275.901	16.25
276.697	19.25
277.492	14.25
278.287	15.25
279.082	19.25
279.877	16.25
280.672	20.25
281.467	18.25
282.262	20.25
283.056	19.25
283.851	17.25
284.646	18.25
285.44	17.25
286.234	17.25
287.029	19.25
287.823	19.25
288.617	20.25
289.411	21.25
290.205	19.25
290.999	20.25
291.793	19.25
292.587	15.25
293.381	19.25
294.174	17.25
294.968	16.25
295.761	16.25
296.555	15.25
297.348	17.25
298.141	15.25
298.935	16.25
299.728	12.25
300.521	11.25
301.314	15.25
302.107	13.25
302.899	13.25
303.692	12.25
304.485	9.25
305.277	11.25
306.07	12.25
306.862	12.25
307.655	11.25
308.447	11.25
309.239	10.25
310.031	10.25
310.823	9.25
311.615	9.25
312.407	11.25
313.199	9.25
313.991	9.25
314.783	7.25
315.574	7.25
316.366	10.25
317.157	11.25
317.949	8.25
318.74	4.25
319.531	6.25
320.322	8.25
321.113	8.25
321.904	5.25
322.695	5.25
323.486	6.25
324.277	6.25
325.068	5.25
325.858	7.25
326.649	5.25
327.439	6.25
328.23	9.25
329.02	7.25
329.81	6.25
330.6	7.25
331.391	5.25
332.181	5.25
332.971	7.25
333.76	7.25
334.55	5.25
335.34	3.25
336.13	4.25
336.919	5.25
337.709	5.25
338.498	6.25
339.287	7.25
340.077	3.25
340.866	8.25
341.655	5.25
342.444	7.25
343.233	7.25
344.022	6.25
344.811	5.25
345.6	4.25
346.388	8.25
347.177	5.25
347.965	6.25
348.754	5.25
349.542	5.25
350.33	6.25
351.119	5.25
351.907	6.25
352.695	8.25
353.483	7.25
354.271	5.25
355.059	4.25
355.846	4.25
356.634	5.25
357.422	4.25
358.209	3.25
358.997	4.25
359.784	4.25
360.571	6.25
361.359	5.25
362.146	6.25
362.933	5.25
363.72	3.25
364.507	3.25
365.294	4.25
366.081	5.25
366.867	5.25
367.654	6.25
368.44	3.25
369.227	5.25
370.013	4.25
370.8	3.25
371.586	5.25
372.372	3.25
373.158	7.25
373.944	4.25
374.73	5.25
375.516	5.25
376.302	4.25
377.088	3.25
377.873	5.25
378.659	4.25
379.445	4.25
380.23	4.25
381.015	5.25
381.801	5.25
382.586	4.25
383.371	6.25
384.156	6.25
384.941	5.25
385.726	6.25
386.511	5.25
387.296	5.25
388.08	6.25
388.865	5.25
389.649	5.25
390.434	3.25
391.218	6.25
392.003	5.25
392.787	5.25
393.571	6.25
394.355	6.25
395.139	6.25
395.923	5.25
396.707	5.25
397.491	9.25
398.274	7.25
399.058	5.25
399.842	6.25
400.625	6.25
401.408	7.25
402.192	5.25
402.975	5.25
403.758	5.25
404.541	6.25
405.324	7.25
406.107	7.25
406.89	7.25
407.673	11.25
408.456	8.25
409.238	8.25
410.021	8.25
410.803	10.25
411.586	8.25
412.368	10.25
413.151	6.25
413.933	7.25
414.715	10.25
415.497	8.25
416.279	7.25
417.061	10.25
417.843	8.25
418.624	9.25
419.406	9.25
420.188	9.25
420.969	9.25
421.751	12.25
422.532	11.25
423.313	11.25
424.095	12.25
424.876	12.25
425.657	11.25
426.438	12.25
427.219	12.25
428	14.25
428.78	12.25
429.561	13.25
430.342	15.25
431.122	13.25
431.903	13.25
432.683	15.25
433.464	17.25
434.244	15.25
435.024	18.25
435.804	16.25
436.584	18.25
437.364	20.25
438.144	20.25
438.924	19.25
439.704	23.25
440.483	23.25
441.263	20.25
442.042	26.25
442.822	27.25
443.601	26.25
444.38	33.25
445.16	31.25
445.939	33.25
446.718	37.25
447.497	36.25
448.276	38.25
449.054	41.25
449.833	46.25
450.612	49.25
451.391	55.25
452.169	62.25
452.948	67.25
453.726	74.25
454.504	77.25
455.282	86.25
456.061	96.25
456.839	105.25
457.617	116.25
458.395	126.25
459.172	145.25
459.95	165.25
460.728	183.25
461.506	198.25
462.283	222.25
463.061	250.25
463.838	280.25
464.615	320.25
465.393	351.25
466.17	387.25
466.947	436.25
467.724	480.25
468.501	550.25
469.278	608.25
470.055	668.25
470.831	751.25
471.608	834.25
472.385	922.25
473.161	1043.25
473.938	1156.25
474.714	1271.25
475.49	1420.25
476.266	1562.25
477.043	1743.25
477.819	1925.25
478.595	2126.25
479.371	2335.25
480.146	2593.25
480.922	2878.25
481.698	3167.25
482.473	3526.25
483.249	3845.25
484.024	4250.25
484.8	4679.25
485.575	5169.25
486.35	5690.25
487.126	6241.25
487.901	6887.25
488.676	7534.25
489.451	8286.25
490.225	9029.25
491	9897.25
491.775	10867.25
492.55	11842.25
493.324	12809.25
494.099	13853.25
494.873	14907.25
495.647	16140.25
496.422	17274.25
497.196	18560.25
497.97	19763.25
498.744	20998.25
499.518	22105.25
500.292	23306.25
501.066	24424.25
501.839	25390.25
502.613	26284.25
503.387	27052.25
504.16	27664.25
504.934	27905.25
505.707	27999.25
506.48	28046.25
507.253	27807.25
508.027	27540.25
508.8	27105.25
509.573	26671.25
510.346	26002.25
511.118	25137.25
511.891	24175.25
512.664	23385.25
513.437	22421.25
514.209	21509.25
514.982	20593.25
515.754	19708.25
516.526	18795.25
517.298	17966.25
518.071	17143.25
518.843	16497.25
519.615	15894.25
520.387	15242.25
521.159	14612.25
521.93	14041.25
522.702	13491.25
523.474	12906.25
524.245	12364.25
525.017	11860.25
525.788	11378.25
526.56	10827.25
527.331	10289.25
528.102	9864.25
528.873	9424.25
529.644	8905.25
530.415	8491.25
531.186	8078.25
531.957	7582.25
532.728	7270.25
533.498	6861.25
534.269	6500.25
535.039	6102.25
535.81	5781.25
536.58	5453.25
537.351	5124.25
538.121	4834.25
538.891	4583.25
539.661	4326.25
540.431	4080.25
541.201	3866.25
541.971	3696.25
542.741	3472.25
543.51	3275.25
544.28	3162.25
545.05	2988.25
545.819	2842.25
546.588	2696.25
547.358	2558.25
548.127	2425.25
548.896	2320.25
549.665	2203.25
550.434	2091.25
551.203	1962.25
551.972	1853.25
552.741	1760.25
553.51	1670.25
554.278	1564.25
555.047	1486.25
555.815	1403.25
556.584	1316.25
557.352	1245.25
558.121	1174.25
558.889	1094.25
559.657	1039.25
560.425	980.25
561.193	926.25
561.961	884.25
562.729	838.25
563.496	795.25
564.264	749.25
565.032	704.25
565.799	661.25
566.567	630.25
567.334	584.25
568.101	551.25
568.869	525.25
569.636	499.25
570.403	467.25
571.17	429.25
571.937	406.25
572.704	393.25
573.471	376.25
574.237	345.25
575.004	332.25
575.771	308.25
576.537	285.25
577.303	280.25
578.07	259.25
578.836	248.25
579.602	231.25
580.368	216.25
581.134	205.25
581.9	198.25
582.666	190.25
583.432	177.25
584.198	167.25
584.964	162.25
585.729	150.25
586.495	145.25
587.26	132.25
588.025	128.25
588.791	120.25
589.556	112.25
590.321	107.25
591.086	103.25
591.851	98.25
592.616	89.25
593.381	88.25
594.146	82.25
594.911	82.25
595.675	80.25
596.44	69.25
597.204	72.25
597.969	67.25
598.733	63.25
599.497	64.25
600.261	57.25
601.025	56.25
601.79	53.25
602.553	50.25
603.317	48.25
604.081	46.25
604.845	47.25
605.609	45.25
606.372	37.25
607.136	38.25
607.899	37.25
608.662	37.25
609.426	36.25
610.189	33.25
610.952	33.25
611.715	31.25
612.478	33.25
613.241	28.25
614.004	28.25
614.767	26.25
615.529	27.25
616.292	25.25
617.055	25.25
617.817	25.25
618.579	22.25
619.342	22.25
620.104	20.25
620.866	19.25
621.628	22.25
622.39	17.25
623.152	20.25
623.914	16.25
624.676	14.25
625.438	17.25
626.199	17.25
626.961	15.25
627.722	16.25
628.484	13.25
629.245	13.25
630.006	16.25
630.768	12.25
631.529	12.25
632.29	13.25
633.051	11.25
633.812	12.25
634.573	12.25
635.333	13.25
636.094	12.25
636.855	8.25
637.615	10.25
638.376	9.25
639.136	8.25
639.896	7.25
640.657	8.25
641.417	8.25
642.177	7.25
642.937	11.25
643.697	8.25
644.457	7.25
645.216	9.25
645.976	6.25
646.736	10.25
647.495	6.25
648.255	8.25
649.014	8.25
649.774	7.25
650.533	6.25
651.292	7.25
652.051	6.25
652.81	7.25
653.569	7.25
654.328	5.25
655.087	4.25
655.846	9.25
656.604	6.25
657.363	7.25
658.121	6.25
658.88	5.25
659.638	6.25
660.397	7.25
661.155	5.25
661.913	7.25
662.671	5.25
663.429	5.25
664.187	7.25
664.945	4.25
665.703	2.25
666.46	6.25
667.218	4.25
667.976	5.25
668.733	3.25
669.49	6.25
670.248	5.25
671.005	5.25
671.762	2.25
672.519	4.25
673.276	4.25
674.033	5.25
674.79	4.25
675.547	4.25
676.304	2.25
677.06	5.25
677.817	3.25
678.574	3.25
679.33	4.25
680.086	4.25
680.843	5.25
681.599	5.25
682.355	3.25
683.111	4.25
683.867	4.25
684.623	2.25
685.379	2.25
686.135	4.25
686.89	5.25
687.646	4.25
688.402	4.25
689.157	2.25
689.912	3.25
690.668	3.25
691.423	3.25
692.178	0.25
692.933	4.25
693.688	3.25
694.443	2.25
695.198	3.25
695.953	4.25
696.708	3.25
697.462	6.25
698.217	3.25
698.972	3.25
699.726	4.25
700.48	3.25
701.235	2.25
701.989	5.25
702.743	4.25
703.497	4.25
704.251	5.25
705.005	2.25
705.759	2.25
706.513	4.25
707.266	3.25
708.02	3.25
708.774	3.25
709.527	3.25
710.28	3.25
711.034	4.25
711.787	3.25
712.54	4.25
713.293	4.25
714.046	3.25
714.799	1.25
715.552	2.25
716.305	2.25
717.058	3.25
717.81	5.25
718.563	2.25
719.315	3.25
720.068	3.25
720.82	2.25
721.573	2.25
722.325	5.25
723.077	4.25
723.829	4.25
724.581	4.25
725.333	2.25
726.085	4.25
726.836	1.25
727.588	4.25
728.34	3.25
729.091	5.25
729.843	5.25
730.594	0.25
731.346	3.25
732.097	4.25
732.848	7.25
733.599	4.25
734.35	4.25
735.101	4.25
735.852	3.25
736.603	3.25
737.354	2.25
738.104	2.25
738.855	5.25
739.605	5.25
740.356	4.25
741.106	6.25
741.856	4.25
742.607	2.25
743.357	4.25
744.107	6.25
744.857	4.25
745.607	6.25
746.357	6.25
747.106	5.25
747.856	5.25
748.606	2.25
749.355	7.25
750.105	4.25
750.854	7.25
751.603	5.25
752.353	2.25
753.102	6.25
753.851	4.25
754.6	7.25
755.349	5.25
756.098	5.25
756.847	6.25
757.595	6.25
758.344	7.25
759.093	8.25
759.841	6.25
760.589	4.25
761.338	5.25
762.086	4.25
762.834	6.25
763.582	7.25
764.331	6.25
765.079	5.25
765.826	6.25
766.574	5.25
767.322	7.25
768.07	7.25
768.817	7.25
769.565	9.25
770.312	5.25
771.06	7.25
771.807	9.25
772.554	8.25
773.302	8.25
774.049	6.25
774.796	7.25
775.543	7.25
776.29	7.25
777.036	6.25
777.783	9.25
778.53	9.25
779.276	7.25
780.023	6.25
780.769	7.25
781.516	10.25
782.262	7.25
783.008	10.25
783.754	9.25
784.5	9.25
785.246	9.25
785.992	8.25
786.738	8.25
787.484	7.25
788.23	9.25
788.975	11.25
789.721	8.25
790.466	9.25
791.212	9.25
791.957	9.25
792.702	7.25
793.447	7.25
794.193	8.25
794.938	7.25
795.683	9.25
796.427	6.25
797.172	10.25
797.917	7.25
798.662	7.25
799.406	5.25
800.151	9.25
800.895	6.25
801.64	9.25
802.384	9.25
803.128	6.25
803.872	6.25
804.616	7.25
805.36	5.25
806.104	5.25
806.848	7.25
807.592	8.25
808.336	6.25
809.079	7.25
809.823	5.25
810.566	4.25
811.31	4.25
812.053	4.25
812.796	4.25
813.539	6.25
814.283	6.25
815.026	5.25
815.769	5.25
816.511	5.25
817.254	6.25
817.997	5.25
818.74	4.25
819.482	4.25
820.225	5.25
820.967	3.25
821.71	1.25
822.452	5.25
823.194	5.25
823.936	6.25
824.678	4.25
825.42	4.25
826.162	3.25
826.904	6.25
827.646	1.25
828.388	3.25
829.129	2.25
829.871	6.25
830.612	3.25
831.354	4.25
832.095	2.25
832.836	5.25
833.577	3.25
834.319	3.25
835.06	4.25
835.801	1.25
836.542	2.25
837.282	3.25
838.023	2.25
838.764	4.25
839.504	1.25
840.245	3.25
840.985	0.25
841.726	4.25
842.466	2.25
843.206	3.25
843.946	3.25
844.687	-0.75
845.427	1.25
846.166	3.25
846.906	4.25
847.646	3.25
848.386	3.25
849.125	4.25
849.865	0.25
850.605	3.25
851.344	2.25
852.083	5.25
852.823	1.25
853.562	0.25
854.301	1.25
855.04	2.25
855.779	3.25
856.518	1.25
857.257	1.25
857.995	2.25
858.734	4.25
859.473	1.25
860.211	3.25
860.95	1.25
861.688	0.25
862.426	0.25
863.165	1.25
863.903	0.25
864.641	1.25
865.379	1.25
866.117	0.25
866.855	3.25
867.593	1.25
868.33	2.25
869.068	1.25
869.806	2.25
870.543	4.25
871.28	-0.75
872.018	1.25
872.755	1.25
873.492	0.25
874.229	1.25
874.967	2.25
875.703	3.25
876.44	0.25
877.177	1.25
877.914	3.25
878.651	2.25
879.387	-0.75
880.124	0.25
880.86	1.25
881.597	-0.75
882.333	-0.75
883.069	-0.75
883.806	-0.75
884.542	2.25
885.278	2.25
886.014	0.25
886.749	0.25
887.485	0.25
888.221	0.25
888.957	1.25
889.692	0.25
890.428	1.25
891.163	0.25
891.899	0.25
892.634	-1.75
893.369	1.25
894.104	-0.75
894.839	0.25
895.574	0.25
896.309	1.25
897.044	-1.75
897.779	1.25
898.514	-0.75
899.248	1.25
899.983	2.25
900.717	1.25
901.452	0.25
902.186	0.25
902.92	-0.75
903.654	1.25
904.389	-0.75
905.123	1.25
905.857	0.25
906.59	-0.75
907.324	1.25
908.058	-2.75
908.792	0.25
909.525	-0.75
910.259	-1.75
910.992	0.25
911.726	-0.75
912.459	-0.75
913.192	-0.75
913.925	2.25
914.658	0.25
915.391	1.25
916.124	-2.75
916.857	-0.75
917.59	0.25
918.323	0.25
919.055	0.25
919.788	1.25
920.521	-1.75
921.253	-1.75
921.985	-2.75
922.718	0.25
923.45	0.25
924.182	1.25
924.914	0.25
925.646	1.25
926.378	-0.75
927.11	0.25
927.841	0.25
928.573	1.25
929.305	-2.75
930.036	1.25
930.768	-0.75
931.499	-0.75
932.23	-1.75
932.962	0.25
933.693	-1.75
934.424	-0.75
935.155	0.25
935.886	0.25
936.617	0.25
937.348	1.25
938.078	0.25
938.809	1.25
939.54	-0.75
940.27	0.25
941.001	0.25
941.731	0.25
942.461	-0.75
943.191	-1.75
943.922	-0.75
944.652	-1.75
945.382	0.25
946.112	0.25
946.841	-0.75
947.571	-0.75
948.301	-0.75
949.031	0.25
949.76	1.25
950.49	1.25
951.219	0.25
951.948	0.25
952.678	-1.75
953.407	-0.75
954.136	-0.75
954.865	0.25
955.594	-0.75
956.323	1.25
957.052	0.25
957.78	-0.75
958.509	0.25
959.238	1.25
959.966	1.25
960.695	0.25
961.423	0.25
962.151	0.25
962.88	2.25
963.608	-0.75
964.336	1.25
965.064	1.25
965.792	0.25
966.52	0.25
967.247	-0.75
967.975	1.25
968.703	-0.75
969.43	2.25
970.158	0.25
970.885	-1.75
971.613	0.25
972.34	-0.75
973.067	-1.75
973.794	1.25
974.521	-1.75
975.248	-0.75
975.975	1.25
976.702	1.25
977.429	-0.75
978.156	0.25
978.882	-0.75
979.609	1.25
980.335	2.25
981.062	-1.75
981.788	0.25
982.514	0.25
983.24	0.25
983.967	1.25
984.693	2.25
985.419	0.25
986.144	1.25
986.87	2.25
987.596	-0.75
988.322	-2.75
989.047	-0.75
989.773	1.25
990.498	-0.75
991.224	-0.75
991.949	-0.75
992.674	-0.75
993.399	-4.75
994.124	1.25
994.849	-0.75
995.574	1.25
996.299	1.25
997.024	1.25
997.749	-1.75
998.473	-0.75
999.198	-1.75
999.922	0.25
1000.647	-0.75
1001.371	1.25
1002.095	0.25
1002.82	-0.75
1003.544	0.25
1004.268	-0.75
1004.992	2.25
1005.716	3.25
1006.439	1.25
1007.163	2.25
1007.887	2.25
1008.611	1.25
1009.334	-0.75
1010.058	0.25
1010.781	-1.75
1011.504	3.25
1012.228	0.25
1012.951	-1.75
1013.674	0.25
1014.397	-0.75
1015.12	1.25
