节点500_285_QEPB04081__75__14-56-48-328.txt的数据

Date: Wed Nov 12 14:56:48 CST 2025
User: PC
Spectrometer: QEPB0408
触发模式: 0
积分时间 (秒): 1.000000E-2
Scans to average: 1
启用暗噪声校正: true
启用非线性校正: false
滑动平均宽度: 0
X轴模式: Wavelengths
Number of Pixels in Spectrum: 1044
>>>>>Begin Spectral Data<<<<<
220.843	3
221.644	3
222.444	2
223.244	2
224.045	4
224.845	3
225.645	3
226.445	2
227.245	4
228.045	2
228.845	4
229.645	0
230.444	5
231.244	3
232.043	4
232.843	8
233.642	4
234.442	4
235.241	2
236.04	2
236.839	4
237.638	2
238.437	5
239.236	4
240.035	5
240.833	4
241.632	5
242.43	3
243.229	6
244.027	4
244.826	5
245.624	3
246.422	4
247.22	7
248.018	5
248.816	7
249.614	4
250.412	8
251.21	5
252.007	8
252.805	8
253.602	6
254.4	8
255.197	6
255.994	10
256.791	10
257.589	11
258.386	9
259.183	9
259.979	12
260.776	10
261.573	13
262.37	10
263.166	12
263.963	13
264.759	12
265.556	14
266.352	15
267.148	14
267.944	16
268.74	14
269.536	13
270.332	12
271.128	17
271.924	17
272.719	15
273.515	17
274.311	15
275.106	20
275.901	19
276.697	20
277.492	17
278.287	18
279.082	19
279.877	19
280.672	19
281.467	19
282.262	19
283.056	21
283.851	19
284.646	19
285.44	20
286.234	20
287.029	22
287.823	19
288.617	22
289.411	17
290.205	21
290.999	20
291.793	17
292.587	20
293.381	17
294.174	18
294.968	15
295.761	16
296.555	18
297.348	14
298.141	14
298.935	19
299.728	12
300.521	17
301.314	15
302.107	15
302.899	9
303.692	12
304.485	13
305.277	13
306.07	11
306.862	13
307.655	11
308.447	9
309.239	12
310.031	11
310.823	11
311.615	9
312.407	8
313.199	11
313.991	9
314.783	9
315.574	8
316.366	6
317.157	7
317.949	10
318.74	10
319.531	11
320.322	8
321.113	7
321.904	8
322.695	10
323.486	8
324.277	5
325.068	8
325.858	8
326.649	5
327.439	6
328.23	7
329.02	8
329.81	7
330.6	7
331.391	6
332.181	7
332.971	9
333.76	7
334.55	8
335.34	5
336.13	6
336.919	4
337.709	5
338.498	7
339.287	6
340.077	5
340.866	7
341.655	9
342.444	4
343.233	6
344.022	5
344.811	8
345.6	6
346.388	8
347.177	5
347.965	7
348.754	4
349.542	7
350.33	6
351.119	6
351.907	7
352.695	5
353.483	7
354.271	9
355.059	5
355.846	6
356.634	7
357.422	5
358.209	5
358.997	7
359.784	6
360.571	5
361.359	6
362.146	5
362.933	5
363.72	4
364.507	6
365.294	5
366.081	5
366.867	3
367.654	5
368.44	6
369.227	5
370.013	6
370.8	5
371.586	7
372.372	4
373.158	6
373.944	6
374.73	4
375.516	8
376.302	5
377.088	3
377.873	7
378.659	4
379.445	6
380.23	6
381.015	5
381.801	6
382.586	3
383.371	6
384.156	3
384.941	8
385.726	6
386.511	6
387.296	7
388.08	4
388.865	6
389.649	5
390.434	5
391.218	7
392.003	4
392.787	5
393.571	4
394.355	6
395.139	6
395.923	7
396.707	7
397.491	6
398.274	6
399.058	7
399.842	7
400.625	8
401.408	8
402.192	7
402.975	7
403.758	8
404.541	8
405.324	8
406.107	10
406.89	8
407.673	9
408.456	8
409.238	9
410.021	8
410.803	9
411.586	9
412.368	8
413.151	9
413.933	9
414.715	8
415.497	11
416.279	12
417.061	11
417.843	9
418.624	13
419.406	8
420.188	8
420.969	14
421.751	11
422.532	10
423.313	11
424.095	13
424.876	13
425.657	12
426.438	11
427.219	13
428	11
428.78	14
429.561	13
430.342	16
431.122	15
431.903	17
432.683	17
433.464	15
434.244	18
435.024	19
435.804	16
436.584	16
437.364	21
438.144	18
438.924	22
439.704	22
440.483	21
441.263	25
442.042	24
442.822	27
443.601	24
444.38	29
445.16	32
445.939	35
446.718	34
447.497	38
448.276	38
449.054	45
449.833	47
450.612	49
451.391	54
452.169	59
452.948	64
453.726	69
454.504	75
455.282	82
456.061	99
456.839	106
457.617	113
458.395	124
459.172	139
459.95	152
460.728	171
461.506	195
462.283	215
463.061	243
463.838	270
464.615	299
465.393	331
466.17	375
466.947	415
467.724	468
468.501	534
469.278	586
470.055	652
470.831	732
471.608	811
472.385	909
473.161	1011
473.938	1135
474.714	1255
475.49	1405
476.266	1541
477.043	1721
477.819	1897
478.595	2107
479.371	2337
480.146	2596
480.922	2889
481.698	3193
482.473	3536
483.249	3919
484.024	4326
484.8	4803
485.575	5292
486.35	5810
487.126	6441
487.901	7067
488.676	7798
489.451	8519
490.225	9402
491	10314
491.775	11289
492.55	12341
493.324	13394
494.099	14455
494.873	15675
495.647	16943
496.422	18223
497.196	19455
497.97	20763
498.744	22072
499.518	23252
500.292	24436
501.066	25579
501.839	26411
502.613	27355
503.387	28048
504.16	28557
504.934	28835
505.707	28798
506.48	28700
507.253	28509
508.027	27981
508.8	27509
509.573	26937
510.346	26064
511.118	25185
511.891	24301
512.664	23324
513.437	22325
514.209	21347
514.982	20398
515.754	19441
516.526	18573
517.298	17736
518.071	16981
518.843	16324
519.615	15681
520.387	15048
521.159	14425
521.93	13885
522.702	13299
523.474	12797
524.245	12240
525.017	11655
525.788	11234
526.56	10713
527.331	10169
528.102	9717
528.873	9238
529.644	8775
530.415	8314
531.186	7877
531.957	7442
532.728	7046
533.498	6653
534.269	6283
535.039	5944
535.81	5608
536.58	5300
537.351	4982
538.121	4727
538.891	4477
539.661	4202
540.431	3986
541.201	3771
541.971	3562
542.741	3381
543.51	3211
544.28	3051
545.05	2913
545.819	2781
546.588	2601
547.358	2486
548.127	2355
548.896	2253
549.665	2123
550.434	2020
551.203	1907
551.972	1795
552.741	1690
553.51	1605
554.278	1505
555.047	1423
555.815	1351
556.584	1274
557.352	1193
558.121	1133
558.889	1069
559.657	1011
560.425	955
561.193	907
561.961	834
562.729	809
563.496	752
564.264	713
565.032	668
565.799	637
566.567	602
567.334	570
568.101	535
568.869	512
569.636	476
570.403	452
571.17	426
571.937	399
572.704	385
573.471	365
574.237	342
575.004	319
575.771	301
576.537	283
577.303	264
578.07	248
578.836	236
579.602	220
580.368	208
581.134	200
581.9	189
582.666	180
583.432	167
584.198	159
584.964	153
585.729	141
586.495	137
587.26	130
588.025	124
588.791	117
589.556	105
590.321	107
591.086	98
591.851	98
592.616	89
593.381	87
594.146	80
594.911	76
595.675	72
596.44	71
597.204	68
597.969	65
598.733	61
599.497	57
600.261	59
601.025	53
601.79	54
602.553	47
603.317	48
604.081	46
604.845	45
605.609	40
606.372	42
607.136	39
607.899	39
608.662	38
609.426	35
610.189	36
610.952	31
611.715	29
612.478	30
613.241	25
614.004	27
614.767	24
615.529	25
616.292	24
617.055	24
617.817	23
618.579	23
619.342	21
620.104	19
620.866	22
621.628	18
622.39	18
623.152	17
623.914	17
624.676	17
625.438	19
626.199	18
626.961	13
627.722	16
628.484	15
629.245	14
630.006	13
630.768	14
631.529	14
632.29	11
633.051	11
633.812	9
634.573	11
635.333	11
636.094	11
636.855	10
637.615	10
638.376	8
639.136	11
639.896	10
640.657	8
641.417	10
642.177	13
642.937	7
643.697	9
644.457	8
645.216	8
645.976	9
646.736	10
647.495	9
648.255	7
649.014	8
649.774	6
650.533	7
651.292	9
652.051	9
652.81	8
653.569	8
654.328	7
655.087	6
655.846	8
656.604	5
657.363	8
658.121	7
658.88	8
659.638	5
660.397	5
661.155	6
661.913	5
662.671	3
663.429	5
664.187	5
664.945	5
665.703	7
666.46	5
667.218	6
667.976	6
668.733	7
669.49	5
670.248	4
671.005	5
671.762	5
672.519	6
673.276	6
674.033	4
674.79	3
675.547	6
676.304	4
677.06	6
677.817	6
678.574	4
679.33	1
680.086	5
680.843	7
681.599	4
682.355	6
683.111	3
683.867	4
684.623	4
685.379	2
686.135	6
686.89	4
687.646	4
688.402	3
689.157	3
689.912	1
690.668	5
691.423	4
692.178	3
692.933	1
693.688	2
694.443	3
695.198	5
695.953	2
696.708	4
697.462	2
698.217	4
698.972	3
699.726	5
700.48	3
701.235	3
701.989	5
702.743	3
703.497	5
704.251	3
705.005	5
705.759	6
706.513	3
707.266	7
708.02	3
708.774	5
709.527	3
710.28	4
711.034	4
711.787	3
712.54	6
713.293	3
714.046	4
714.799	5
715.552	4
716.305	4
717.058	3
717.81	5
718.563	4
719.315	3
720.068	2
720.82	4
721.573	5
722.325	1
723.077	3
723.829	1
724.581	5
725.333	4
726.085	3
726.836	7
727.588	3
728.34	4
729.091	6
729.843	5
730.594	5
731.346	4
732.097	3
732.848	2
733.599	6
734.35	4
735.101	4
735.852	4
736.603	6
737.354	7
738.104	4
738.855	5
739.605	6
740.356	6
741.106	3
741.856	5
742.607	6
743.357	7
744.107	6
744.857	6
745.607	7
746.357	7
747.106	4
747.856	5
748.606	6
749.355	6
750.105	7
750.854	5
751.603	3
752.353	7
753.102	4
753.851	4
754.6	5
755.349	7
756.098	6
756.847	5
757.595	8
758.344	6
759.093	6
759.841	6
760.589	7
761.338	8
762.086	4
762.834	8
763.582	5
764.331	9
765.079	6
765.826	8
766.574	7
767.322	8
768.07	9
768.817	7
769.565	9
770.312	7
771.06	7
771.807	10
772.554	9
773.302	7
774.049	8
774.796	11
775.543	9
776.29	8
777.036	8
777.783	10
778.53	10
779.276	12
780.023	9
780.769	12
781.516	9
782.262	11
783.008	9
783.754	7
784.5	10
785.246	10
785.992	9
786.738	10
787.484	9
788.23	11
788.975	8
789.721	9
790.466	11
791.212	10
791.957	8
792.702	6
793.447	9
794.193	9
794.938	8
795.683	9
796.427	7
797.172	8
797.917	8
798.662	11
799.406	6
800.151	8
800.895	8
801.64	8
802.384	6
803.128	9
803.872	8
804.616	6
805.36	8
806.104	8
806.848	4
807.592	7
808.336	5
809.079	8
809.823	5
810.566	5
811.31	5
812.053	3
812.796	6
813.539	6
814.283	4
815.026	4
815.769	4
816.511	4
817.254	6
817.997	5
818.74	4
819.482	4
820.225	5
820.967	6
821.71	6
822.452	5
823.194	4
823.936	4
824.678	5
825.42	5
826.162	6
826.904	4
827.646	4
828.388	4
829.129	6
829.871	3
830.612	4
831.354	3
832.095	0
832.836	2
833.577	2
834.319	3
835.06	4
835.801	2
836.542	5
837.282	2
838.023	2
838.764	4
839.504	5
840.245	4
840.985	3
841.726	5
842.466	4
843.206	3
843.946	3
844.687	2
845.427	4
846.166	4
846.906	2
847.646	5
848.386	2
849.125	2
849.865	3
850.605	3
851.344	3
852.083	5
852.823	1
853.562	2
854.301	4
855.04	2
855.779	4
856.518	3
857.257	1
857.995	2
858.734	2
859.473	3
860.211	0
860.95	2
861.688	3
862.426	2
863.165	3
863.903	2
864.641	5
865.379	3
866.117	0
866.855	2
867.593	1
868.33	2
869.068	1
869.806	3
870.543	1
871.28	1
872.018	2
872.755	0
873.492	2
874.229	2
874.967	1
875.703	1
876.44	-1
877.177	3
877.914	0
878.651	2
879.387	2
880.124	2
880.86	1
881.597	0
882.333	1
883.069	1
883.806	1
884.542	-1
885.278	1
886.014	3
886.749	2
887.485	1
888.221	1
888.957	1
889.692	1
890.428	1
891.163	1
891.899	0
892.634	0
893.369	0
894.104	1
894.839	1
895.574	1
896.309	1
897.044	2
897.779	0
898.514	1
899.248	3
899.983	2
900.717	1
901.452	0
902.186	2
902.92	1
903.654	1
904.389	-1
905.123	1
905.857	1
906.59	1
907.324	2
908.058	-1
908.792	2
909.525	0
910.259	-1
910.992	-1
911.726	-1
912.459	2
913.192	-3
913.925	0
914.658	0
915.391	0
916.124	1
916.857	2
917.59	3
918.323	1
919.055	3
919.788	1
920.521	0
921.253	1
921.985	0
922.718	-1
923.45	0
924.182	0
924.914	1
925.646	-1
926.378	1
927.11	1
927.841	0
928.573	1
929.305	-1
930.036	1
930.768	0
931.499	3
932.23	0
932.962	1
933.693	-1
934.424	0
935.155	-1
935.886	-1
936.617	-2
937.348	1
938.078	1
938.809	-2
939.54	-2
940.27	1
941.001	0
941.731	1
942.461	1
943.191	1
943.922	1
944.652	1
945.382	0
946.112	0
946.841	1
947.571	3
948.301	2
949.031	0
949.76	-1
950.49	2
951.219	2
951.948	0
952.678	0
953.407	-1
954.136	1
954.865	1
955.594	-1
956.323	-1
957.052	2
957.78	2
958.509	0
959.238	-1
959.966	0
960.695	-1
961.423	1
962.151	-1
962.88	-1
963.608	1
964.336	0
965.064	-1
965.792	0
966.52	2
967.247	0
967.975	1
968.703	1
969.43	2
970.158	3
970.885	1
971.613	2
972.34	1
973.067	-1
973.794	1
974.521	-1
975.248	0
975.975	1
976.702	1
977.429	2
978.156	0
978.882	1
979.609	0
980.335	1
981.062	2
981.788	1
982.514	0
983.24	1
983.967	0
984.693	0
985.419	0
986.144	1
986.87	2
987.596	1
988.322	0
989.047	2
989.773	1
990.498	1
991.224	1
991.949	-2
992.674	0
993.399	0
994.124	2
994.849	-1
995.574	-2
996.299	0
997.024	-1
997.749	-1
998.473	0
999.198	0
999.922	0
1000.647	0
1001.371	4
1002.095	0
1002.82	0
1003.544	-1
1004.268	1
1004.992	1
1005.716	2
1006.439	3
1007.163	3
1007.887	4
1008.611	-1
1009.334	-2
1010.058	1
1010.781	0
1011.504	1
1012.228	1
1012.951	0
1013.674	-1
1014.397	0
1015.12	-2
