节点500_285_QEPB04081__95__14-57-08-293.txt的数据

Date: Wed Nov 12 14:57:08 CST 2025
User: PC
Spectrometer: QEPB0408
触发模式: 0
积分时间 (秒): 1.000000E-2
Scans to average: 1
启用暗噪声校正: true
启用非线性校正: false
滑动平均宽度: 0
X轴模式: Wavelengths
Number of Pixels in Spectrum: 1044
>>>>>Begin Spectral Data<<<<<
220.843	2.12
221.644	0.12
222.444	2.12
223.244	-0.88
224.045	2.12
224.845	3.12
225.645	1.12
226.445	1.12
227.245	3.12
228.045	2.12
228.845	1.12
229.645	2.12
230.444	3.12
231.244	3.12
232.043	3.12
232.843	1.12
233.642	5.12
234.442	7.12
235.241	3.12
236.04	6.12
236.839	5.12
237.638	5.12
238.437	6.12
239.236	4.12
240.035	4.12
240.833	4.12
241.632	5.12
242.43	5.12
243.229	5.12
244.027	7.12
244.826	4.12
245.624	5.12
246.422	6.12
247.22	8.12
248.018	7.12
248.816	9.12
249.614	8.12
250.412	8.12
251.21	6.12
252.007	8.12
252.805	8.12
253.602	8.12
254.4	8.12
255.197	8.12
255.994	9.12
256.791	6.12
257.589	11.12
258.386	9.12
259.183	10.12
259.979	12.12
260.776	12.12
261.573	10.12
262.37	12.12
263.166	10.12
263.963	11.12
264.759	13.12
265.556	13.12
266.352	13.12
267.148	9.12
267.944	17.12
268.74	12.12
269.536	16.12
270.332	16.12
271.128	13.12
271.924	18.12
272.719	16.12
273.515	16.12
274.311	17.12
275.106	18.12
275.901	17.12
276.697	20.12
277.492	19.12
278.287	17.12
279.082	20.12
279.877	17.12
280.672	21.12
281.467	19.12
282.262	17.12
283.056	20.12
283.851	17.12
284.646	20.12
285.44	21.12
286.234	17.12
287.029	22.12
287.823	18.12
288.617	20.12
289.411	20.12
290.205	18.12
290.999	22.12
291.793	18.12
292.587	19.12
293.381	19.12
294.174	14.12
294.968	20.12
295.761	17.12
296.555	16.12
297.348	17.12
298.141	16.12
298.935	17.12
299.728	13.12
300.521	16.12
301.314	13.12
302.107	14.12
302.899	15.12
303.692	10.12
304.485	16.12
305.277	13.12
306.07	13.12
306.862	11.12
307.655	14.12
308.447	14.12
309.239	13.12
310.031	11.12
310.823	9.12
311.615	10.12
312.407	12.12
313.199	8.12
313.991	10.12
314.783	8.12
315.574	10.12
316.366	7.12
317.157	6.12
317.949	8.12
318.74	9.12
319.531	9.12
320.322	8.12
321.113	8.12
321.904	8.12
322.695	8.12
323.486	8.12
324.277	7.12
325.068	8.12
325.858	6.12
326.649	7.12
327.439	8.12
328.23	7.12
329.02	7.12
329.81	6.12
330.6	5.12
331.391	7.12
332.181	6.12
332.971	5.12
333.76	5.12
334.55	8.12
335.34	6.12
336.13	8.12
336.919	6.12
337.709	7.12
338.498	8.12
339.287	7.12
340.077	7.12
340.866	7.12
341.655	4.12
342.444	7.12
343.233	5.12
344.022	5.12
344.811	6.12
345.6	7.12
346.388	5.12
347.177	6.12
347.965	8.12
348.754	4.12
349.542	6.12
350.33	6.12
351.119	6.12
351.907	4.12
352.695	5.12
353.483	5.12
354.271	4.12
355.059	6.12
355.846	6.12
356.634	4.12
357.422	7.12
358.209	5.12
358.997	7.12
359.784	7.12
360.571	4.12
361.359	6.12
362.146	4.12
362.933	5.12
363.72	5.12
364.507	6.12
365.294	5.12
366.081	4.12
366.867	3.12
367.654	4.12
368.44	3.12
369.227	6.12
370.013	5.12
370.8	6.12
371.586	6.12
372.372	5.12
373.158	5.12
373.944	5.12
374.73	5.12
375.516	7.12
376.302	5.12
377.088	5.12
377.873	6.12
378.659	4.12
379.445	6.12
380.23	5.12
381.015	4.12
381.801	6.12
382.586	5.12
383.371	4.12
384.156	5.12
384.941	5.12
385.726	7.12
386.511	6.12
387.296	6.12
388.08	5.12
388.865	3.12
389.649	4.12
390.434	6.12
391.218	9.12
392.003	6.12
392.787	6.12
393.571	6.12
394.355	5.12
395.139	5.12
395.923	8.12
396.707	9.12
397.491	5.12
398.274	5.12
399.058	6.12
399.842	5.12
400.625	7.12
401.408	9.12
402.192	6.12
402.975	6.12
403.758	7.12
404.541	9.12
405.324	8.12
406.107	7.12
406.89	9.12
407.673	9.12
408.456	8.12
409.238	7.12
410.021	9.12
410.803	9.12
411.586	7.12
412.368	10.12
413.151	7.12
413.933	11.12
414.715	9.12
415.497	8.12
416.279	10.12
417.061	10.12
417.843	8.12
418.624	8.12
419.406	9.12
420.188	11.12
420.969	10.12
421.751	11.12
422.532	9.12
423.313	11.12
424.095	10.12
424.876	11.12
425.657	11.12
426.438	14.12
427.219	10.12
428	13.12
428.78	15.12
429.561	14.12
430.342	13.12
431.122	15.12
431.903	16.12
432.683	16.12
433.464	13.12
434.244	17.12
435.024	17.12
435.804	20.12
436.584	18.12
437.364	21.12
438.144	23.12
438.924	21.12
439.704	21.12
440.483	24.12
441.263	24.12
442.042	27.12
442.822	25.12
443.601	27.12
444.38	27.12
445.16	31.12
445.939	32.12
446.718	35.12
447.497	39.12
448.276	40.12
449.054	42.12
449.833	50.12
450.612	50.12
451.391	56.12
452.169	58.12
452.948	63.12
453.726	67.12
454.504	76.12
455.282	87.12
456.061	91.12
456.839	103.12
457.617	111.12
458.395	123.12
459.172	145.12
459.95	154.12
460.728	177.12
461.506	189.12
462.283	220.12
463.061	238.12
463.838	273.12
464.615	305.12
465.393	330.12
466.17	378.12
466.947	422.12
467.724	474.12
468.501	531.12
469.278	592.12
470.055	661.12
470.831	731.12
471.608	816.12
472.385	911.12
473.161	1011.12
473.938	1132.12
474.714	1246.12
475.49	1399.12
476.266	1563.12
477.043	1717.12
477.819	1912.12
478.595	2135.12
479.371	2332.12
480.146	2592.12
480.922	2872.12
481.698	3197.12
482.473	3519.12
483.249	3897.12
484.024	4295.12
484.8	4765.12
485.575	5250.12
486.35	5781.12
487.126	6381.12
487.901	7064.12
488.676	7721.12
489.451	8520.12
490.225	9297.12
491	10278.12
491.775	11190.12
492.55	12207.12
493.324	13242.12
494.099	14407.12
494.873	15534.12
495.647	16800.12
496.422	18050.12
497.196	19249.12
497.97	20629.12
498.744	21816.12
499.518	23124.12
500.292	24244.12
501.066	25405.12
501.839	26234.12
502.613	27177.12
503.387	27831.12
504.16	28394.12
504.934	28619.12
505.707	28648.12
506.48	28642.12
507.253	28360.12
508.027	27924.12
508.8	27416.12
509.573	26840.12
510.346	26068.12
511.118	25114.12
511.891	24300.12
512.664	23341.12
513.437	22336.12
514.209	21377.12
514.982	20470.12
515.754	19495.12
516.526	18609.12
517.298	17786.12
518.071	17003.12
518.843	16348.12
519.615	15661.12
520.387	15145.12
521.159	14449.12
521.93	13919.12
522.702	13368.12
523.474	12825.12
524.245	12222.12
525.017	11717.12
525.788	11254.12
526.56	10751.12
527.331	10239.12
528.102	9735.12
528.873	9298.12
529.644	8766.12
530.415	8336.12
531.186	7928.12
531.957	7502.12
532.728	7144.12
533.498	6730.12
534.269	6314.12
535.039	5930.12
535.81	5649.12
536.58	5315.12
537.351	4994.12
538.121	4733.12
538.891	4463.12
539.661	4241.12
540.431	3993.12
541.201	3749.12
541.971	3590.12
542.741	3383.12
543.51	3229.12
544.28	3093.12
545.05	2919.12
545.819	2784.12
546.588	2626.12
547.358	2509.12
548.127	2359.12
548.896	2271.12
549.665	2125.12
550.434	2031.12
551.203	1916.12
551.972	1814.12
552.741	1705.12
553.51	1618.12
554.278	1516.12
555.047	1446.12
555.815	1343.12
556.584	1279.12
557.352	1207.12
558.121	1125.12
558.889	1067.12
559.657	1027.12
560.425	968.12
561.193	903.12
561.961	851.12
562.729	787.12
563.496	767.12
564.264	726.12
565.032	681.12
565.799	653.12
566.567	607.12
567.334	576.12
568.101	542.12
568.869	510.12
569.636	487.12
570.403	453.12
571.17	426.12
571.937	401.12
572.704	391.12
573.471	368.12
574.237	342.12
575.004	320.12
575.771	304.12
576.537	288.12
577.303	270.12
578.07	256.12
578.836	239.12
579.602	223.12
580.368	213.12
581.134	205.12
581.9	187.12
582.666	180.12
583.432	171.12
584.198	162.12
584.964	154.12
585.729	146.12
586.495	135.12
587.26	128.12
588.025	125.12
588.791	122.12
589.556	114.12
590.321	104.12
591.086	99.12
591.851	96.12
592.616	91.12
593.381	84.12
594.146	83.12
594.911	75.12
595.675	72.12
596.44	73.12
597.204	64.12
597.969	69.12
598.733	63.12
599.497	62.12
600.261	55.12
601.025	55.12
601.79	52.12
602.553	50.12
603.317	46.12
604.081	49.12
604.845	44.12
605.609	41.12
606.372	40.12
607.136	39.12
607.899	39.12
608.662	34.12
609.426	33.12
610.189	33.12
610.952	33.12
611.715	27.12
612.478	30.12
613.241	28.12
614.004	28.12
614.767	25.12
615.529	25.12
616.292	25.12
617.055	21.12
617.817	23.12
618.579	21.12
619.342	20.12
620.104	21.12
620.866	19.12
621.628	18.12
622.39	18.12
623.152	19.12
623.914	17.12
624.676	17.12
625.438	16.12
626.199	15.12
626.961	14.12
627.722	15.12
628.484	14.12
629.245	12.12
630.006	14.12
630.768	16.12
631.529	14.12
632.29	11.12
633.051	15.12
633.812	9.12
634.573	13.12
635.333	12.12
636.094	12.12
636.855	9.12
637.615	11.12
638.376	10.12
639.136	9.12
639.896	8.12
640.657	11.12
641.417	9.12
642.177	12.12
642.937	7.12
643.697	8.12
644.457	8.12
645.216	8.12
645.976	8.12
646.736	7.12
647.495	7.12
648.255	7.12
649.014	7.12
649.774	8.12
650.533	8.12
651.292	7.12
652.051	6.12
652.81	7.12
653.569	5.12
654.328	8.12
655.087	6.12
655.846	7.12
656.604	6.12
657.363	7.12
658.121	6.12
658.88	6.12
659.638	3.12
660.397	6.12
661.155	5.12
661.913	9.12
662.671	6.12
663.429	6.12
664.187	5.12
664.945	6.12
665.703	6.12
666.46	4.12
667.218	6.12
667.976	6.12
668.733	7.12
669.49	6.12
670.248	4.12
671.005	6.12
671.762	3.12
672.519	4.12
673.276	5.12
674.033	4.12
674.79	6.12
675.547	4.12
676.304	5.12
677.06	3.12
677.817	5.12
678.574	4.12
679.33	4.12
680.086	6.12
680.843	5.12
681.599	3.12
682.355	2.12
683.111	5.12
683.867	6.12
684.623	5.12
685.379	3.12
686.135	5.12
686.89	3.12
687.646	3.12
688.402	4.12
689.157	7.12
689.912	4.12
690.668	6.12
691.423	5.12
692.178	4.12
692.933	5.12
693.688	4.12
694.443	5.12
695.198	4.12
695.953	5.12
696.708	7.12
697.462	3.12
698.217	4.12
698.972	5.12
699.726	4.12
700.48	3.12
701.235	3.12
701.989	6.12
702.743	0.12
703.497	3.12
704.251	4.12
705.005	4.12
705.759	3.12
706.513	4.12
707.266	5.12
708.02	2.12
708.774	3.12
709.527	3.12
710.28	5.12
711.034	4.12
711.787	4.12
712.54	2.12
713.293	4.12
714.046	4.12
714.799	4.12
715.552	3.12
716.305	3.12
717.058	4.12
717.81	5.12
718.563	4.12
719.315	4.12
720.068	4.12
720.82	3.12
721.573	3.12
722.325	3.12
723.077	4.12
723.829	3.12
724.581	4.12
725.333	7.12
726.085	5.12
726.836	4.12
727.588	4.12
728.34	3.12
729.091	4.12
729.843	3.12
730.594	3.12
731.346	4.12
732.097	3.12
732.848	3.12
733.599	3.12
734.35	5.12
735.101	7.12
735.852	5.12
736.603	4.12
737.354	4.12
738.104	5.12
738.855	4.12
739.605	7.12
740.356	6.12
741.106	3.12
741.856	5.12
742.607	5.12
743.357	7.12
744.107	5.12
744.857	4.12
745.607	4.12
746.357	5.12
747.106	3.12
747.856	3.12
748.606	4.12
749.355	6.12
750.105	5.12
750.854	3.12
751.603	4.12
752.353	7.12
753.102	4.12
753.851	8.12
754.6	6.12
755.349	6.12
756.098	6.12
756.847	4.12
757.595	7.12
758.344	5.12
759.093	5.12
759.841	4.12
760.589	8.12
761.338	8.12
762.086	6.12
762.834	8.12
763.582	5.12
764.331	7.12
765.079	6.12
765.826	5.12
766.574	9.12
767.322	7.12
768.07	7.12
768.817	8.12
769.565	8.12
770.312	7.12
771.06	8.12
771.807	8.12
772.554	8.12
773.302	8.12
774.049	9.12
774.796	6.12
775.543	10.12
776.29	10.12
777.036	7.12
777.783	9.12
778.53	10.12
779.276	8.12
780.023	9.12
780.769	9.12
781.516	8.12
782.262	7.12
783.008	10.12
783.754	12.12
784.5	13.12
785.246	8.12
785.992	9.12
786.738	10.12
787.484	8.12
788.23	9.12
788.975	9.12
789.721	11.12
790.466	9.12
791.212	9.12
791.957	8.12
792.702	8.12
793.447	11.12
794.193	7.12
794.938	10.12
795.683	8.12
796.427	7.12
797.172	7.12
797.917	7.12
798.662	7.12
799.406	6.12
800.151	8.12
800.895	7.12
801.64	8.12
802.384	9.12
803.128	8.12
803.872	8.12
804.616	8.12
805.36	6.12
806.104	6.12
806.848	7.12
807.592	5.12
808.336	6.12
809.079	7.12
809.823	6.12
810.566	7.12
811.31	5.12
812.053	4.12
812.796	3.12
813.539	6.12
814.283	4.12
815.026	7.12
815.769	5.12
816.511	5.12
817.254	5.12
817.997	6.12
818.74	5.12
819.482	5.12
820.225	4.12
820.967	3.12
821.71	4.12
822.452	5.12
823.194	4.12
823.936	5.12
824.678	6.12
825.42	4.12
826.162	4.12
826.904	4.12
827.646	3.12
828.388	3.12
829.129	3.12
829.871	1.12
830.612	6.12
831.354	3.12
832.095	3.12
832.836	5.12
833.577	3.12
834.319	5.12
835.06	3.12
835.801	3.12
836.542	2.12
837.282	1.12
838.023	4.12
838.764	3.12
839.504	2.12
840.245	2.12
840.985	2.12
841.726	2.12
842.466	1.12
843.206	3.12
843.946	1.12
844.687	2.12
845.427	4.12
846.166	5.12
846.906	3.12
847.646	2.12
848.386	3.12
849.125	4.12
849.865	2.12
850.605	3.12
851.344	3.12
852.083	2.12
852.823	2.12
853.562	2.12
854.301	3.12
855.04	3.12
855.779	2.12
856.518	4.12
857.257	0.12
857.995	1.12
858.734	3.12
859.473	1.12
860.211	2.12
860.95	1.12
861.688	2.12
862.426	4.12
863.165	4.12
863.903	1.12
864.641	1.12
865.379	-1.88
866.117	1.12
866.855	2.12
867.593	1.12
868.33	4.12
869.068	1.12
869.806	2.12
870.543	2.12
871.28	1.12
872.018	1.12
872.755	3.12
873.492	0.12
874.229	3.12
874.967	2.12
875.703	1.12
876.44	1.12
877.177	1.12
877.914	-0.88
878.651	0.12
879.387	1.12
880.124	3.12
880.86	1.12
881.597	1.12
882.333	2.12
883.069	-0.88
883.806	3.12
884.542	0.12
885.278	-0.88
886.014	3.12
886.749	0.12
887.485	2.12
888.221	1.12
888.957	1.12
889.692	-0.88
890.428	0.12
891.163	1.12
891.899	0.12
892.634	2.12
893.369	2.12
894.104	-0.88
894.839	3.12
895.574	0.12
896.309	1.12
897.044	1.12
897.779	1.12
898.514	-0.88
899.248	1.12
899.983	1.12
900.717	-0.88
901.452	0.12
902.186	0.12
902.92	1.12
903.654	-0.88
904.389	-0.88
905.123	0.12
905.857	0.12
906.59	1.12
907.324	-0.88
908.058	1.12
908.792	1.12
909.525	0.12
910.259	2.12
910.992	-0.88
911.726	-0.88
912.459	1.12
913.192	-0.88
913.925	1.12
914.658	-0.88
915.391	0.12
916.124	1.12
916.857	-1.88
917.59	0.12
918.323	0.12
919.055	1.12
919.788	1.12
920.521	3.12
921.253	-0.88
921.985	-0.88
922.718	1.12
923.45	0.12
924.182	1.12
924.914	1.12
925.646	-0.88
926.378	-0.88
927.11	-1.88
927.841	1.12
928.573	1.12
929.305	-0.88
930.036	1.12
930.768	2.12
931.499	-0.88
932.23	1.12
932.962	1.12
933.693	1.12
934.424	3.12
935.155	-0.88
935.886	0.12
936.617	0.12
937.348	1.12
938.078	2.12
938.809	1.12
939.54	1.12
940.27	0.12
941.001	-0.88
941.731	-0.88
942.461	0.12
943.191	1.12
943.922	-2.88
944.652	-0.88
945.382	1.12
946.112	3.12
946.841	0.12
947.571	1.12
948.301	-1.88
949.031	1.12
949.76	-1.88
950.49	1.12
951.219	-0.88
951.948	3.12
952.678	1.12
953.407	-1.88
954.136	1.12
954.865	1.12
955.594	1.12
956.323	2.12
957.052	1.12
957.78	-0.88
958.509	0.12
959.238	0.12
959.966	2.12
960.695	1.12
961.423	0.12
962.151	-1.88
962.88	0.12
963.608	-0.88
964.336	-0.88
965.064	0.12
965.792	-3.88
966.52	1.12
967.247	0.12
967.975	2.12
968.703	0.12
969.43	1.12
970.158	0.12
970.885	0.12
971.613	2.12
972.34	1.12
973.067	-0.88
973.794	1.12
974.521	-0.88
975.248	0.12
975.975	-0.88
976.702	1.12
977.429	-1.88
978.156	0.12
978.882	1.12
979.609	-1.88
980.335	0.12
981.062	-0.88
981.788	-0.88
982.514	-0.88
983.24	0.12
983.967	2.12
984.693	-1.88
985.419	-1.88
986.144	0.12
986.87	0.12
987.596	0.12
988.322	1.12
989.047	2.12
989.773	1.12
990.498	0.12
991.224	2.12
991.949	1.12
992.674	1.12
993.399	-0.88
994.124	1.12
994.849	0.12
995.574	0.12
996.299	0.12
997.024	1.12
997.749	2.12
998.473	-1.88
999.198	-0.88
999.922	-0.88
1000.647	-1.88
1001.371	2.12
1002.095	-0.88
1002.82	0.12
1003.544	-1.88
1004.268	1.12
1004.992	0.12
1005.716	0.12
1006.439	1.12
1007.163	0.12
1007.887	3.12
1008.611	-1.88
1009.334	0.12
1010.058	1.12
1010.781	-3.88
1011.504	0.12
1012.228	-1.88
1012.951	0.12
1013.674	2.12
1014.397	-1.88
1015.12	0.12
