节点500_285_QEPB04081__73__14-56-46-323.txt的数据

Date: Wed Nov 12 14:56:46 CST 2025
User: PC
Spectrometer: QEPB0408
触发模式: 0
积分时间 (秒): 1.000000E-2
Scans to average: 1
启用暗噪声校正: true
启用非线性校正: false
滑动平均宽度: 0
X轴模式: Wavelengths
Number of Pixels in Spectrum: 1044
>>>>>Begin Spectral Data<<<<<
220.843	2.25
221.644	-0.75
222.444	0.25
223.244	3.25
224.045	4.25
224.845	1.25
225.645	1.25
226.445	4.25
227.245	1.25
228.045	0.25
228.845	4.25
229.645	3.25
230.444	3.25
231.244	3.25
232.043	4.25
232.843	3.25
233.642	4.25
234.442	5.25
235.241	2.25
236.04	4.25
236.839	1.25
237.638	4.25
238.437	4.25
239.236	3.25
240.035	7.25
240.833	3.25
241.632	3.25
242.43	3.25
243.229	5.25
244.027	4.25
244.826	5.25
245.624	4.25
246.422	5.25
247.22	7.25
248.018	7.25
248.816	6.25
249.614	7.25
250.412	3.25
251.21	7.25
252.007	7.25
252.805	3.25
253.602	8.25
254.4	8.25
255.197	7.25
255.994	9.25
256.791	10.25
257.589	9.25
258.386	9.25
259.183	12.25
259.979	10.25
260.776	7.25
261.573	13.25
262.37	9.25
263.166	12.25
263.963	11.25
264.759	14.25
265.556	14.25
266.352	14.25
267.148	14.25
267.944	13.25
268.74	14.25
269.536	19.25
270.332	14.25
271.128	15.25
271.924	17.25
272.719	16.25
273.515	15.25
274.311	17.25
275.106	18.25
275.901	18.25
276.697	19.25
277.492	19.25
278.287	19.25
279.082	19.25
279.877	20.25
280.672	20.25
281.467	19.25
282.262	19.25
283.056	20.25
283.851	20.25
284.646	23.25
285.44	19.25
286.234	21.25
287.029	20.25
287.823	20.25
288.617	20.25
289.411	17.25
290.205	20.25
290.999	20.25
291.793	18.25
292.587	17.25
293.381	17.25
294.174	17.25
294.968	16.25
295.761	15.25
296.555	13.25
297.348	13.25
298.141	16.25
298.935	17.25
299.728	15.25
300.521	13.25
301.314	15.25
302.107	12.25
302.899	11.25
303.692	15.25
304.485	12.25
305.277	14.25
306.07	10.25
306.862	11.25
307.655	12.25
308.447	13.25
309.239	12.25
310.031	10.25
310.823	10.25
311.615	11.25
312.407	10.25
313.199	11.25
313.991	10.25
314.783	8.25
315.574	8.25
316.366	10.25
317.157	10.25
317.949	7.25
318.74	8.25
319.531	8.25
320.322	9.25
321.113	9.25
321.904	7.25
322.695	6.25
323.486	6.25
324.277	5.25
325.068	5.25
325.858	6.25
326.649	7.25
327.439	5.25
328.23	6.25
329.02	8.25
329.81	7.25
330.6	10.25
331.391	4.25
332.181	8.25
332.971	5.25
333.76	9.25
334.55	8.25
335.34	7.25
336.13	6.25
336.919	5.25
337.709	6.25
338.498	5.25
339.287	7.25
340.077	7.25
340.866	7.25
341.655	6.25
342.444	8.25
343.233	11.25
344.022	6.25
344.811	5.25
345.6	5.25
346.388	7.25
347.177	8.25
347.965	5.25
348.754	5.25
349.542	8.25
350.33	5.25
351.119	4.25
351.907	4.25
352.695	7.25
353.483	5.25
354.271	6.25
355.059	5.25
355.846	4.25
356.634	7.25
357.422	5.25
358.209	9.25
358.997	9.25
359.784	7.25
360.571	5.25
361.359	5.25
362.146	6.25
362.933	4.25
363.72	8.25
364.507	6.25
365.294	5.25
366.081	6.25
366.867	5.25
367.654	5.25
368.44	5.25
369.227	6.25
370.013	5.25
370.8	6.25
371.586	6.25
372.372	4.25
373.158	3.25
373.944	5.25
374.73	4.25
375.516	7.25
376.302	4.25
377.088	5.25
377.873	5.25
378.659	6.25
379.445	5.25
380.23	5.25
381.015	7.25
381.801	5.25
382.586	7.25
383.371	6.25
384.156	5.25
384.941	4.25
385.726	4.25
386.511	6.25
387.296	6.25
388.08	6.25
388.865	4.25
389.649	6.25
390.434	8.25
391.218	6.25
392.003	7.25
392.787	5.25
393.571	7.25
394.355	4.25
395.139	6.25
395.923	6.25
396.707	9.25
397.491	9.25
398.274	8.25
399.058	6.25
399.842	7.25
400.625	6.25
401.408	8.25
402.192	6.25
402.975	10.25
403.758	8.25
404.541	6.25
405.324	10.25
406.107	7.25
406.89	7.25
407.673	10.25
408.456	10.25
409.238	9.25
410.021	9.25
410.803	8.25
411.586	10.25
412.368	8.25
413.151	8.25
413.933	10.25
414.715	9.25
415.497	7.25
416.279	9.25
417.061	9.25
417.843	11.25
418.624	11.25
419.406	12.25
420.188	13.25
420.969	8.25
421.751	12.25
422.532	12.25
423.313	12.25
424.095	11.25
424.876	12.25
425.657	11.25
426.438	13.25
427.219	13.25
428	11.25
428.78	15.25
429.561	13.25
430.342	13.25
431.122	15.25
431.903	16.25
432.683	16.25
433.464	15.25
434.244	16.25
435.024	18.25
435.804	18.25
436.584	18.25
437.364	19.25
438.144	20.25
438.924	21.25
439.704	22.25
440.483	23.25
441.263	24.25
442.042	25.25
442.822	29.25
443.601	29.25
444.38	30.25
445.16	32.25
445.939	34.25
446.718	35.25
447.497	36.25
448.276	39.25
449.054	44.25
449.833	44.25
450.612	51.25
451.391	55.25
452.169	61.25
452.948	63.25
453.726	67.25
454.504	79.25
455.282	88.25
456.061	95.25
456.839	99.25
457.617	113.25
458.395	129.25
459.172	141.25
459.95	153.25
460.728	175.25
461.506	191.25
462.283	219.25
463.061	237.25
463.838	271.25
464.615	304.25
465.393	343.25
466.17	377.25
466.947	417.25
467.724	475.25
468.501	519.25
469.278	592.25
470.055	659.25
470.831	734.25
471.608	805.25
472.385	912.25
473.161	1017.25
473.938	1131.25
474.714	1252.25
475.49	1384.25
476.266	1545.25
477.043	1724.25
477.819	1916.25
478.595	2111.25
479.371	2340.25
480.146	2603.25
480.922	2860.25
481.698	3193.25
482.473	3530.25
483.249	3897.25
484.024	4320.25
484.8	4763.25
485.575	5272.25
486.35	5827.25
487.126	6424.25
487.901	7071.25
488.676	7808.25
489.451	8559.25
490.225	9420.25
491	10280.25
491.775	11272.25
492.55	12349.25
493.324	13409.25
494.099	14498.25
494.873	15718.25
495.647	16925.25
496.422	18214.25
497.196	19496.25
497.97	20781.25
498.744	22015.25
499.518	23294.25
500.292	24448.25
501.066	25521.25
501.839	26539.25
502.613	27315.25
503.387	28146.25
504.16	28697.25
504.934	28816.25
505.707	28872.25
506.48	28714.25
507.253	28500.25
508.027	28085.25
508.8	27482.25
509.573	26881.25
510.346	26147.25
511.118	25216.25
511.891	24303.25
512.664	23262.25
513.437	22321.25
514.209	21340.25
514.982	20392.25
515.754	19472.25
516.526	18562.25
517.298	17773.25
518.071	16962.25
518.843	16320.25
519.615	15661.25
520.387	15024.25
521.159	14466.25
521.93	13849.25
522.702	13374.25
523.474	12793.25
524.245	12179.25
525.017	11727.25
525.788	11216.25
526.56	10723.25
527.331	10149.25
528.102	9751.25
528.873	9243.25
529.644	8758.25
530.415	8293.25
531.186	7863.25
531.957	7436.25
532.728	7069.25
533.498	6690.25
534.269	6292.25
535.039	5919.25
535.81	5593.25
536.58	5280.25
537.351	4971.25
538.121	4703.25
538.891	4445.25
539.661	4218.25
540.431	3978.25
541.201	3747.25
541.971	3569.25
542.741	3369.25
543.51	3223.25
544.28	3052.25
545.05	2916.25
545.819	2757.25
546.588	2619.25
547.358	2493.25
548.127	2378.25
548.896	2246.25
549.665	2146.25
550.434	2017.25
551.203	1928.25
551.972	1802.25
552.741	1694.25
553.51	1611.25
554.278	1506.25
555.047	1420.25
555.815	1352.25
556.584	1279.25
557.352	1196.25
558.121	1132.25
558.889	1072.25
559.657	1011.25
560.425	951.25
561.193	909.25
561.961	843.25
562.729	800.25
563.496	749.25
564.264	713.25
565.032	672.25
565.799	638.25
566.567	605.25
567.334	579.25
568.101	543.25
568.869	512.25
569.636	478.25
570.403	451.25
571.17	418.25
571.937	402.25
572.704	371.25
573.471	358.25
574.237	341.25
575.004	314.25
575.771	298.25
576.537	280.25
577.303	264.25
578.07	254.25
578.836	235.25
579.602	219.25
580.368	212.25
581.134	201.25
581.9	194.25
582.666	181.25
583.432	167.25
584.198	166.25
584.964	147.25
585.729	145.25
586.495	139.25
587.26	134.25
588.025	119.25
588.791	119.25
589.556	110.25
590.321	104.25
591.086	102.25
591.851	95.25
592.616	93.25
593.381	87.25
594.146	79.25
594.911	82.25
595.675	75.25
596.44	73.25
597.204	66.25
597.969	61.25
598.733	61.25
599.497	61.25
600.261	58.25
601.025	53.25
601.79	49.25
602.553	50.25
603.317	44.25
604.081	43.25
604.845	41.25
605.609	40.25
606.372	39.25
607.136	40.25
607.899	38.25
608.662	39.25
609.426	32.25
610.189	32.25
610.952	27.25
611.715	30.25
612.478	30.25
613.241	27.25
614.004	28.25
614.767	27.25
615.529	26.25
616.292	26.25
617.055	24.25
617.817	22.25
618.579	21.25
619.342	21.25
620.104	21.25
620.866	20.25
621.628	21.25
622.39	19.25
623.152	15.25
623.914	13.25
624.676	17.25
625.438	13.25
626.199	16.25
626.961	16.25
627.722	15.25
628.484	13.25
629.245	13.25
630.006	19.25
630.768	12.25
631.529	14.25
632.29	14.25
633.051	11.25
633.812	14.25
634.573	13.25
635.333	10.25
636.094	10.25
636.855	10.25
637.615	9.25
638.376	10.25
639.136	11.25
639.896	10.25
640.657	10.25
641.417	8.25
642.177	10.25
642.937	10.25
643.697	9.25
644.457	7.25
645.216	7.25
645.976	8.25
646.736	8.25
647.495	6.25
648.255	6.25
649.014	5.25
649.774	9.25
650.533	8.25
651.292	8.25
652.051	7.25
652.81	8.25
653.569	8.25
654.328	5.25
655.087	8.25
655.846	9.25
656.604	7.25
657.363	6.25
658.121	5.25
658.88	5.25
659.638	6.25
660.397	6.25
661.155	7.25
661.913	7.25
662.671	7.25
663.429	8.25
664.187	4.25
664.945	5.25
665.703	3.25
666.46	6.25
667.218	3.25
667.976	6.25
668.733	7.25
669.49	4.25
670.248	6.25
671.005	4.25
671.762	7.25
672.519	4.25
673.276	4.25
674.033	3.25
674.79	4.25
675.547	6.25
676.304	4.25
677.06	5.25
677.817	5.25
678.574	2.25
679.33	5.25
680.086	4.25
680.843	5.25
681.599	3.25
682.355	4.25
683.111	6.25
683.867	3.25
684.623	2.25
685.379	3.25
686.135	4.25
686.89	7.25
687.646	1.25
688.402	6.25
689.157	4.25
689.912	3.25
690.668	3.25
691.423	4.25
692.178	2.25
692.933	4.25
693.688	4.25
694.443	1.25
695.198	5.25
695.953	3.25
696.708	3.25
697.462	2.25
698.217	4.25
698.972	2.25
699.726	2.25
700.48	4.25
701.235	3.25
701.989	4.25
702.743	6.25
703.497	4.25
704.251	5.25
705.005	4.25
705.759	4.25
706.513	3.25
707.266	5.25
708.02	2.25
708.774	1.25
709.527	3.25
710.28	4.25
711.034	2.25
711.787	5.25
712.54	2.25
713.293	4.25
714.046	4.25
714.799	1.25
715.552	4.25
716.305	5.25
717.058	3.25
717.81	4.25
718.563	6.25
719.315	3.25
720.068	1.25
720.82	4.25
721.573	6.25
722.325	5.25
723.077	0.25
723.829	3.25
724.581	3.25
725.333	4.25
726.085	4.25
726.836	4.25
727.588	4.25
728.34	6.25
729.091	4.25
729.843	3.25
730.594	3.25
731.346	8.25
732.097	3.25
732.848	2.25
733.599	5.25
734.35	1.25
735.101	3.25
735.852	5.25
736.603	3.25
737.354	5.25
738.104	3.25
738.855	5.25
739.605	4.25
740.356	5.25
741.106	4.25
741.856	6.25
742.607	5.25
743.357	4.25
744.107	7.25
744.857	5.25
745.607	5.25
746.357	5.25
747.106	4.25
747.856	6.25
748.606	4.25
749.355	7.25
750.105	8.25
750.854	6.25
751.603	5.25
752.353	6.25
753.102	5.25
753.851	5.25
754.6	4.25
755.349	6.25
756.098	6.25
756.847	6.25
757.595	6.25
758.344	6.25
759.093	5.25
759.841	7.25
760.589	9.25
761.338	7.25
762.086	7.25
762.834	5.25
763.582	6.25
764.331	7.25
765.079	7.25
765.826	9.25
766.574	8.25
767.322	8.25
768.07	7.25
768.817	10.25
769.565	9.25
770.312	9.25
771.06	8.25
771.807	8.25
772.554	10.25
773.302	9.25
774.049	9.25
774.796	7.25
775.543	7.25
776.29	9.25
777.036	9.25
777.783	8.25
778.53	10.25
779.276	9.25
780.023	10.25
780.769	10.25
781.516	9.25
782.262	10.25
783.008	9.25
783.754	11.25
784.5	7.25
785.246	9.25
785.992	9.25
786.738	9.25
787.484	12.25
788.23	7.25
788.975	9.25
789.721	10.25
790.466	6.25
791.212	10.25
791.957	8.25
792.702	7.25
793.447	9.25
794.193	8.25
794.938	6.25
795.683	8.25
796.427	10.25
797.172	9.25
797.917	8.25
798.662	9.25
799.406	10.25
800.151	9.25
800.895	8.25
801.64	7.25
802.384	7.25
803.128	7.25
803.872	5.25
804.616	7.25
805.36	8.25
806.104	8.25
806.848	8.25
807.592	7.25
808.336	7.25
809.079	7.25
809.823	5.25
810.566	6.25
811.31	3.25
812.053	3.25
812.796	6.25
813.539	5.25
814.283	7.25
815.026	6.25
815.769	5.25
816.511	4.25
817.254	2.25
817.997	6.25
818.74	4.25
819.482	6.25
820.225	2.25
820.967	6.25
821.71	4.25
822.452	4.25
823.194	5.25
823.936	2.25
824.678	3.25
825.42	5.25
826.162	2.25
826.904	3.25
827.646	2.25
828.388	3.25
829.129	5.25
829.871	5.25
830.612	3.25
831.354	4.25
832.095	6.25
832.836	4.25
833.577	5.25
834.319	4.25
835.06	4.25
835.801	4.25
836.542	5.25
837.282	3.25
838.023	5.25
838.764	4.25
839.504	4.25
840.245	3.25
840.985	4.25
841.726	3.25
842.466	5.25
843.206	5.25
843.946	4.25
844.687	3.25
845.427	5.25
846.166	4.25
846.906	2.25
847.646	2.25
848.386	3.25
849.125	2.25
849.865	1.25
850.605	1.25
851.344	1.25
852.083	3.25
852.823	1.25
853.562	2.25
854.301	3.25
855.04	3.25
855.779	2.25
856.518	2.25
857.257	2.25
857.995	3.25
858.734	4.25
859.473	2.25
860.211	3.25
860.95	3.25
861.688	3.25
862.426	0.25
863.165	1.25
863.903	2.25
864.641	1.25
865.379	1.25
866.117	3.25
866.855	3.25
867.593	3.25
868.33	1.25
869.068	2.25
869.806	-0.75
870.543	2.25
871.28	1.25
872.018	2.25
872.755	2.25
873.492	-0.75
874.229	2.25
874.967	0.25
875.703	1.25
876.44	1.25
877.177	1.25
877.914	2.25
878.651	1.25
879.387	0.25
880.124	0.25
880.86	3.25
881.597	2.25
882.333	1.25
883.069	2.25
883.806	0.25
884.542	3.25
885.278	0.25
886.014	1.25
886.749	1.25
887.485	2.25
888.221	1.25
888.957	1.25
889.692	3.25
890.428	-0.75
891.163	1.25
891.899	1.25
892.634	-0.75
893.369	1.25
894.104	1.25
894.839	0.25
895.574	1.25
896.309	0.25
897.044	-0.75
897.779	0.25
898.514	0.25
899.248	-0.75
899.983	0.25
900.717	-1.75
901.452	2.25
902.186	-0.75
902.92	1.25
903.654	1.25
904.389	0.25
905.123	1.25
905.857	1.25
906.59	-0.75
907.324	-0.75
908.058	0.25
908.792	-0.75
909.525	2.25
910.259	-0.75
910.992	0.25
911.726	0.25
912.459	1.25
913.192	2.25
913.925	1.25
914.658	1.25
915.391	2.25
916.124	-0.75
916.857	0.25
917.59	0.25
918.323	0.25
919.055	3.25
919.788	0.25
920.521	0.25
921.253	2.25
921.985	-0.75
922.718	4.25
923.45	1.25
924.182	1.25
924.914	1.25
925.646	1.25
926.378	1.25
927.11	0.25
927.841	1.25
928.573	0.25
929.305	0.25
930.036	1.25
930.768	1.25
931.499	1.25
932.23	1.25
932.962	0.25
933.693	-0.75
934.424	3.25
935.155	0.25
935.886	0.25
936.617	-0.75
937.348	-0.75
938.078	2.25
938.809	0.25
939.54	2.25
940.27	-0.75
941.001	0.25
941.731	-0.75
942.461	2.25
943.191	3.25
943.922	0.25
944.652	0.25
945.382	1.25
946.112	1.25
946.841	3.25
947.571	1.25
948.301	1.25
949.031	1.25
949.76	2.25
950.49	0.25
951.219	2.25
951.948	1.25
952.678	-0.75
953.407	2.25
954.136	0.25
954.865	1.25
955.594	0.25
956.323	-0.75
957.052	1.25
957.78	1.25
958.509	1.25
959.238	0.25
959.966	-1.75
960.695	3.25
961.423	-0.75
962.151	1.25
962.88	3.25
963.608	0.25
964.336	-0.75
965.064	-0.75
965.792	0.25
966.52	0.25
967.247	-0.75
967.975	-0.75
968.703	-1.75
969.43	1.25
970.158	0.25
970.885	2.25
971.613	0.25
972.34	2.25
973.067	0.25
973.794	0.25
974.521	1.25
975.248	-0.75
975.975	1.25
976.702	1.25
977.429	1.25
978.156	0.25
978.882	0.25
979.609	2.25
980.335	0.25
981.062	0.25
981.788	-0.75
982.514	0.25
983.24	1.25
983.967	-0.75
984.693	1.25
985.419	1.25
986.144	-0.75
986.87	-0.75
987.596	0.25
988.322	0.25
989.047	2.25
989.773	0.25
990.498	1.25
991.224	-1.75
991.949	-0.75
992.674	-2.75
993.399	0.25
994.124	0.25
994.849	0.25
995.574	0.25
996.299	0.25
997.024	2.25
997.749	1.25
998.473	0.25
999.198	1.25
999.922	0.25
1000.647	0.25
1001.371	4.25
1002.095	-0.75
1002.82	-0.75
1003.544	-0.75
1004.268	1.25
1004.992	1.25
1005.716	2.25
1006.439	2.25
1007.163	0.25
1007.887	-0.75
1008.611	0.25
1009.334	2.25
1010.058	3.25
1010.781	0.25
1011.504	0.25
1012.228	1.25
1012.951	-0.75
1013.674	-0.75
1014.397	0.25
1015.12	-0.75
