节点500_285_QEPB04081__286__15-00-18-798.txt的数据

Date: Wed Nov 12 15:00:18 CST 2025
User: PC
Spectrometer: QEPB0408
触发模式: 0
积分时间 (秒): 1.000000E-2
Scans to average: 1
启用暗噪声校正: true
启用非线性校正: false
滑动平均宽度: 0
X轴模式: Wavelengths
Number of Pixels in Spectrum: 1044
>>>>>Begin Spectral Data<<<<<
220.843	1
221.644	0
222.444	4
223.244	4
224.045	2
224.845	3
225.645	3
226.445	0
227.245	0
228.045	3
228.845	4
229.645	4
230.444	3
231.244	4
232.043	2
232.843	1
233.642	4
234.442	4
235.241	6
236.04	4
236.839	3
237.638	5
238.437	6
239.236	4
240.035	6
240.833	3
241.632	5
242.43	4
243.229	6
244.027	6
244.826	9
245.624	6
246.422	7
247.22	6
248.018	6
248.816	7
249.614	6
250.412	4
251.21	4
252.007	7
252.805	8
253.602	7
254.4	9
255.197	8
255.994	9
256.791	8
257.589	10
258.386	10
259.183	9
259.979	9
260.776	9
261.573	9
262.37	11
263.166	10
263.963	11
264.759	13
265.556	10
266.352	12
267.148	14
267.944	14
268.74	14
269.536	14
270.332	15
271.128	16
271.924	19
272.719	19
273.515	18
274.311	19
275.106	18
275.901	18
276.697	18
277.492	21
278.287	19
279.082	17
279.877	17
280.672	18
281.467	19
282.262	20
283.056	20
283.851	19
284.646	21
285.44	19
286.234	19
287.029	20
287.823	18
288.617	17
289.411	18
290.205	19
290.999	18
291.793	19
292.587	19
293.381	14
294.174	17
294.968	16
295.761	17
296.555	17
297.348	16
298.141	16
298.935	17
299.728	15
300.521	14
301.314	14
302.107	14
302.899	14
303.692	12
304.485	13
305.277	15
306.07	14
306.862	14
307.655	15
308.447	16
309.239	13
310.031	12
310.823	10
311.615	12
312.407	13
313.199	11
313.991	8
314.783	6
315.574	9
316.366	11
317.157	8
317.949	11
318.74	6
319.531	11
320.322	9
321.113	8
321.904	7
322.695	8
323.486	9
324.277	8
325.068	9
325.858	9
326.649	9
327.439	11
328.23	8
329.02	7
329.81	7
330.6	5
331.391	5
332.181	6
332.971	10
333.76	5
334.55	8
335.34	8
336.13	7
336.919	8
337.709	7
338.498	7
339.287	6
340.077	9
340.866	8
341.655	7
342.444	7
343.233	6
344.022	6
344.811	4
345.6	8
346.388	8
347.177	8
347.965	6
348.754	6
349.542	6
350.33	6
351.119	5
351.907	6
352.695	7
353.483	6
354.271	9
355.059	5
355.846	9
356.634	7
357.422	5
358.209	5
358.997	7
359.784	5
360.571	3
361.359	6
362.146	7
362.933	5
363.72	6
364.507	7
365.294	4
366.081	6
366.867	5
367.654	5
368.44	5
369.227	5
370.013	6
370.8	4
371.586	4
372.372	7
373.158	5
373.944	4
374.73	6
375.516	6
376.302	6
377.088	5
377.873	4
378.659	4
379.445	5
380.23	5
381.015	6
381.801	5
382.586	4
383.371	6
384.156	1
384.941	6
385.726	8
386.511	6
387.296	6
388.08	5
388.865	7
389.649	7
390.434	7
391.218	8
392.003	4
392.787	6
393.571	5
394.355	6
395.139	7
395.923	7
396.707	9
397.491	5
398.274	8
399.058	8
399.842	8
400.625	7
401.408	4
402.192	8
402.975	7
403.758	7
404.541	9
405.324	10
406.107	8
406.89	10
407.673	9
408.456	8
409.238	10
410.021	5
410.803	8
411.586	7
412.368	9
413.151	8
413.933	9
414.715	6
415.497	10
416.279	8
417.061	9
417.843	9
418.624	10
419.406	10
420.188	12
420.969	11
421.751	8
422.532	8
423.313	12
424.095	11
424.876	13
425.657	13
426.438	13
427.219	11
428	13
428.78	13
429.561	12
430.342	15
431.122	13
431.903	16
432.683	14
433.464	14
434.244	20
435.024	16
435.804	17
436.584	19
437.364	21
438.144	21
438.924	19
439.704	22
440.483	23
441.263	23
442.042	23
442.822	25
443.601	28
444.38	30
445.16	31
445.939	31
446.718	36
447.497	41
448.276	42
449.054	46
449.833	48
450.612	50
451.391	54
452.169	62
452.948	68
453.726	72
454.504	85
455.282	86
456.061	98
456.839	106
457.617	126
458.395	138
459.172	151
459.95	164
460.728	180
461.506	206
462.283	223
463.061	257
463.838	290
464.615	318
465.393	354
466.17	394
466.947	441
467.724	490
468.501	548
469.278	613
470.055	674
470.831	768
471.608	844
472.385	936
473.161	1044
473.938	1171
474.714	1287
475.49	1432
476.266	1575
477.043	1739
477.819	1925
478.595	2132
479.371	2350
480.146	2586
480.922	2847
481.698	3164
482.473	3496
483.249	3835
484.024	4231
484.8	4641
485.575	5131
486.35	5661
487.126	6194
487.901	6796
488.676	7443
489.451	8160
490.225	8932
491	9794
491.775	10688
492.55	11688
493.324	12637
494.099	13639
494.873	14678
495.647	15808
496.422	17056
497.196	18205
497.97	19456
498.744	20664
499.518	21837
500.292	22967
501.066	24005
501.839	25021
502.613	25923
503.387	26750
504.16	27337
504.934	27566
505.707	27748
506.48	27726
507.253	27604
508.027	27354
508.8	27010
509.573	26558
510.346	25867
511.118	25048
511.891	24234
512.664	23390
513.437	22474
514.209	21518
514.982	20598
515.754	19719
516.526	18784
517.298	17985
518.071	17203
518.843	16538
519.615	15915
520.387	15286
521.159	14718
521.93	14063
522.702	13527
523.474	12986
524.245	12416
525.017	11868
525.788	11438
526.56	10908
527.331	10345
528.102	9903
528.873	9468
529.644	8987
530.415	8532
531.186	8117
531.957	7647
532.728	7304
533.498	6915
534.269	6487
535.039	6177
535.81	5812
536.58	5475
537.351	5165
538.121	4882
538.891	4634
539.661	4350
540.431	4114
541.201	3884
541.971	3723
542.741	3484
543.51	3353
544.28	3158
545.05	3020
545.819	2840
546.588	2707
547.358	2568
548.127	2456
548.896	2334
549.665	2217
550.434	2089
551.203	1981
551.972	1861
552.741	1769
553.51	1674
554.278	1576
555.047	1486
555.815	1403
556.584	1330
557.352	1258
558.121	1185
558.889	1103
559.657	1059
560.425	985
561.193	943
561.961	888
562.729	841
563.496	806
564.264	763
565.032	713
565.799	675
566.567	634
567.334	599
568.101	567
568.869	535
569.636	496
570.403	477
571.17	446
571.937	420
572.704	400
573.471	372
574.237	360
575.004	335
575.771	322
576.537	299
577.303	278
578.07	260
578.836	240
579.602	234
580.368	221
581.134	206
581.9	196
582.666	189
583.432	174
584.198	168
584.964	159
585.729	154
586.495	146
587.26	140
588.025	125
588.791	121
589.556	113
590.321	106
591.086	100
591.851	101
592.616	96
593.381	90
594.146	85
594.911	84
595.675	79
596.44	77
597.204	70
597.969	72
598.733	66
599.497	63
600.261	58
601.025	54
601.79	49
602.553	51
603.317	51
604.081	51
604.845	46
605.609	40
606.372	42
607.136	41
607.899	38
608.662	36
609.426	36
610.189	32
610.952	35
611.715	30
612.478	33
613.241	32
614.004	26
614.767	28
615.529	27
616.292	24
617.055	26
617.817	24
618.579	25
619.342	23
620.104	21
620.866	21
621.628	21
622.39	20
623.152	19
623.914	22
624.676	16
625.438	19
626.199	16
626.961	16
627.722	14
628.484	14
629.245	13
630.006	15
630.768	14
631.529	13
632.29	14
633.051	9
633.812	12
634.573	12
635.333	11
636.094	13
636.855	8
637.615	9
638.376	12
639.136	10
639.896	10
640.657	7
641.417	12
642.177	9
642.937	9
643.697	9
644.457	9
645.216	10
645.976	9
646.736	7
647.495	6
648.255	8
649.014	8
649.774	5
650.533	9
651.292	6
652.051	8
652.81	7
653.569	8
654.328	8
655.087	7
655.846	8
656.604	7
657.363	8
658.121	6
658.88	7
659.638	9
660.397	5
661.155	5
661.913	6
662.671	6
663.429	7
664.187	5
664.945	7
665.703	2
666.46	6
667.218	5
667.976	5
668.733	7
669.49	5
670.248	6
671.005	6
671.762	2
672.519	7
673.276	4
674.033	5
674.79	3
675.547	5
676.304	5
677.06	4
677.817	5
678.574	3
679.33	8
680.086	4
680.843	4
681.599	6
682.355	7
683.111	6
683.867	4
684.623	4
685.379	4
686.135	4
686.89	7
687.646	3
688.402	4
689.157	6
689.912	4
690.668	6
691.423	3
692.178	4
692.933	5
693.688	5
694.443	5
695.198	4
695.953	5
696.708	2
697.462	4
698.217	4
698.972	4
699.726	3
700.48	4
701.235	5
701.989	3
702.743	5
703.497	3
704.251	5
705.005	3
705.759	3
706.513	5
707.266	5
708.02	4
708.774	3
709.527	4
710.28	4
711.034	2
711.787	5
712.54	4
713.293	6
714.046	4
714.799	1
715.552	5
716.305	4
717.058	2
717.81	5
718.563	6
719.315	2
720.068	3
720.82	3
721.573	5
722.325	6
723.077	4
723.829	5
724.581	2
725.333	4
726.085	6
726.836	3
727.588	5
728.34	4
729.091	4
729.843	6
730.594	5
731.346	6
732.097	4
732.848	7
733.599	5
734.35	4
735.101	5
735.852	5
736.603	5
737.354	7
738.104	2
738.855	5
739.605	4
740.356	5
741.106	3
741.856	6
742.607	5
743.357	3
744.107	6
744.857	5
745.607	7
746.357	6
747.106	6
747.856	5
748.606	7
749.355	7
750.105	7
750.854	7
751.603	5
752.353	7
753.102	5
753.851	6
754.6	6
755.349	3
756.098	6
756.847	7
757.595	6
758.344	5
759.093	6
759.841	7
760.589	6
761.338	7
762.086	7
762.834	6
763.582	7
764.331	7
765.079	7
765.826	6
766.574	7
767.322	8
768.07	5
768.817	10
769.565	7
770.312	7
771.06	10
771.807	7
772.554	8
773.302	10
774.049	10
774.796	9
775.543	7
776.29	9
777.036	9
777.783	8
778.53	8
779.276	7
780.023	7
780.769	10
781.516	12
782.262	10
783.008	8
783.754	11
784.5	8
785.246	9
785.992	8
786.738	10
787.484	9
788.23	9
788.975	9
789.721	9
790.466	10
791.212	9
791.957	7
792.702	9
793.447	9
794.193	8
794.938	8
795.683	8
796.427	9
797.172	9
797.917	8
798.662	8
799.406	8
800.151	7
800.895	8
801.64	9
802.384	8
803.128	5
803.872	7
804.616	7
805.36	8
806.104	6
806.848	7
807.592	6
808.336	7
809.079	7
809.823	5
810.566	6
811.31	6
812.053	6
812.796	6
813.539	5
814.283	4
815.026	6
815.769	5
816.511	5
817.254	6
817.997	5
818.74	3
819.482	5
820.225	4
820.967	4
821.71	3
822.452	4
823.194	4
823.936	4
824.678	4
825.42	4
826.162	3
826.904	2
827.646	4
828.388	6
829.129	3
829.871	4
830.612	6
831.354	2
832.095	4
832.836	3
833.577	3
834.319	4
835.06	4
835.801	3
836.542	4
837.282	4
838.023	2
838.764	5
839.504	4
840.245	3
840.985	3
841.726	4
842.466	4
843.206	2
843.946	4
844.687	3
845.427	4
846.166	4
846.906	2
847.646	3
848.386	3
849.125	1
849.865	3
850.605	5
851.344	5
852.083	4
852.823	2
853.562	5
854.301	4
855.04	5
855.779	3
856.518	4
857.257	2
857.995	2
858.734	2
859.473	1
860.211	3
860.95	2
861.688	3
862.426	3
863.165	2
863.903	3
864.641	2
865.379	3
866.117	0
866.855	3
867.593	3
868.33	2
869.068	2
869.806	3
870.543	1
871.28	2
872.018	4
872.755	2
873.492	2
874.229	3
874.967	0
875.703	2
876.44	1
877.177	1
877.914	2
878.651	1
879.387	4
880.124	2
880.86	2
881.597	3
882.333	1
883.069	3
883.806	2
884.542	1
885.278	0
886.014	3
886.749	0
887.485	1
888.221	1
888.957	1
889.692	2
890.428	1
891.163	0
891.899	0
892.634	-2
893.369	1
894.104	0
894.839	1
895.574	0
896.309	2
897.044	2
897.779	-1
898.514	1
899.248	0
899.983	0
900.717	1
901.452	1
902.186	1
902.92	1
903.654	3
904.389	-1
905.123	1
905.857	0
906.59	-2
907.324	1
908.058	1
908.792	4
909.525	-2
910.259	0
910.992	1
911.726	-1
912.459	1
913.192	0
913.925	2
914.658	0
915.391	0
916.124	-1
916.857	-2
917.59	2
918.323	1
919.055	-1
919.788	1
920.521	0
921.253	2
921.985	3
922.718	0
923.45	1
924.182	0
924.914	0
925.646	1
926.378	3
927.11	2
927.841	1
928.573	1
929.305	0
930.036	-1
930.768	4
931.499	2
932.23	0
932.962	2
933.693	0
934.424	2
935.155	3
935.886	1
936.617	0
937.348	2
938.078	-1
938.809	0
939.54	0
940.27	2
941.001	1
941.731	3
942.461	0
943.191	0
943.922	0
944.652	0
945.382	0
946.112	2
946.841	0
947.571	2
948.301	-1
949.031	0
949.76	1
950.49	1
951.219	-2
951.948	1
952.678	-1
953.407	-1
954.136	0
954.865	-1
955.594	0
956.323	3
957.052	0
957.78	0
958.509	0
959.238	3
959.966	0
960.695	1
961.423	-1
962.151	-1
962.88	-1
963.608	1
964.336	0
965.064	1
965.792	1
966.52	2
967.247	1
967.975	1
968.703	1
969.43	2
970.158	0
970.885	0
971.613	1
972.34	0
973.067	3
973.794	0
974.521	4
975.248	0
975.975	1
976.702	2
977.429	0
978.156	1
978.882	5
979.609	0
980.335	-1
981.062	1
981.788	2
982.514	-1
983.24	1
983.967	0
984.693	1
985.419	2
986.144	0
986.87	1
987.596	1
988.322	1
989.047	0
989.773	-1
990.498	2
991.224	3
991.949	1
992.674	0
993.399	1
994.124	-2
994.849	-2
995.574	2
996.299	0
997.024	-2
997.749	1
998.473	2
999.198	1
999.922	1
1000.647	2
1001.371	4
1002.095	1
1002.82	-2
1003.544	-3
1004.268	1
1004.992	0
1005.716	1
1006.439	2
1007.163	0
1007.887	2
1008.611	0
1009.334	2
1010.058	1
1010.781	0
1011.504	2
1012.228	2
1012.951	1
1013.674	1
1014.397	-2
1015.12	0
