节点500_285_QEPB04081__57__14-56-30-334.txt的数据

Date: Wed Nov 12 14:56:30 CST 2025
User: PC
Spectrometer: QEPB0408
触发模式: 0
积分时间 (秒): 1.000000E-2
Scans to average: 1
启用暗噪声校正: true
启用非线性校正: false
滑动平均宽度: 0
X轴模式: Wavelengths
Number of Pixels in Spectrum: 1044
>>>>>Begin Spectral Data<<<<<
220.843	2.38
221.644	-0.62
222.444	2.38
223.244	3.38
224.045	2.38
224.845	0.38
225.645	3.38
226.445	1.38
227.245	2.38
228.045	3.38
228.845	0.38
229.645	3.38
230.444	0.38
231.244	2.38
232.043	4.38
232.843	5.38
233.642	2.38
234.442	4.38
235.241	0.38
236.04	2.38
236.839	2.38
237.638	2.38
238.437	2.38
239.236	1.38
240.035	2.38
240.833	1.38
241.632	4.38
242.43	3.38
243.229	4.38
244.027	4.38
244.826	5.38
245.624	4.38
246.422	7.38
247.22	6.38
248.018	7.38
248.816	6.38
249.614	6.38
250.412	6.38
251.21	4.38
252.007	7.38
252.805	6.38
253.602	4.38
254.4	5.38
255.197	6.38
255.994	9.38
256.791	9.38
257.589	10.38
258.386	9.38
259.183	8.38
259.979	9.38
260.776	8.38
261.573	8.38
262.37	9.38
263.166	12.38
263.963	11.38
264.759	10.38
265.556	12.38
266.352	13.38
267.148	12.38
267.944	14.38
268.74	10.38
269.536	18.38
270.332	15.38
271.128	17.38
271.924	17.38
272.719	18.38
273.515	16.38
274.311	17.38
275.106	17.38
275.901	18.38
276.697	18.38
277.492	19.38
278.287	18.38
279.082	17.38
279.877	20.38
280.672	19.38
281.467	16.38
282.262	17.38
283.056	19.38
283.851	21.38
284.646	20.38
285.44	19.38
286.234	20.38
287.029	19.38
287.823	20.38
288.617	18.38
289.411	20.38
290.205	16.38
290.999	16.38
291.793	19.38
292.587	15.38
293.381	16.38
294.174	16.38
294.968	14.38
295.761	14.38
296.555	17.38
297.348	13.38
298.141	14.38
298.935	16.38
299.728	15.38
300.521	14.38
301.314	16.38
302.107	13.38
302.899	12.38
303.692	12.38
304.485	11.38
305.277	12.38
306.07	9.38
306.862	10.38
307.655	12.38
308.447	11.38
309.239	10.38
310.031	12.38
310.823	11.38
311.615	10.38
312.407	8.38
313.199	9.38
313.991	8.38
314.783	9.38
315.574	9.38
316.366	7.38
317.157	9.38
317.949	8.38
318.74	5.38
319.531	8.38
320.322	6.38
321.113	7.38
321.904	5.38
322.695	6.38
323.486	6.38
324.277	7.38
325.068	6.38
325.858	6.38
326.649	7.38
327.439	4.38
328.23	7.38
329.02	6.38
329.81	7.38
330.6	4.38
331.391	5.38
332.181	5.38
332.971	3.38
333.76	6.38
334.55	7.38
335.34	5.38
336.13	6.38
336.919	6.38
337.709	7.38
338.498	5.38
339.287	5.38
340.077	4.38
340.866	5.38
341.655	4.38
342.444	4.38
343.233	5.38
344.022	5.38
344.811	5.38
345.6	4.38
346.388	6.38
347.177	6.38
347.965	5.38
348.754	5.38
349.542	6.38
350.33	7.38
351.119	3.38
351.907	5.38
352.695	5.38
353.483	5.38
354.271	2.38
355.059	6.38
355.846	4.38
356.634	6.38
357.422	7.38
358.209	4.38
358.997	4.38
359.784	3.38
360.571	6.38
361.359	4.38
362.146	5.38
362.933	5.38
363.72	4.38
364.507	6.38
365.294	4.38
366.081	2.38
366.867	5.38
367.654	3.38
368.44	5.38
369.227	3.38
370.013	4.38
370.8	3.38
371.586	3.38
372.372	5.38
373.158	4.38
373.944	4.38
374.73	5.38
375.516	5.38
376.302	5.38
377.088	6.38
377.873	3.38
378.659	3.38
379.445	5.38
380.23	4.38
381.015	3.38
381.801	4.38
382.586	6.38
383.371	4.38
384.156	3.38
384.941	5.38
385.726	5.38
386.511	4.38
387.296	5.38
388.08	5.38
388.865	6.38
389.649	6.38
390.434	2.38
391.218	7.38
392.003	2.38
392.787	5.38
393.571	6.38
394.355	5.38
395.139	6.38
395.923	5.38
396.707	7.38
397.491	7.38
398.274	9.38
399.058	6.38
399.842	8.38
400.625	7.38
401.408	5.38
402.192	6.38
402.975	5.38
403.758	7.38
404.541	6.38
405.324	6.38
406.107	10.38
406.89	6.38
407.673	8.38
408.456	7.38
409.238	5.38
410.021	7.38
410.803	7.38
411.586	7.38
412.368	7.38
413.151	8.38
413.933	9.38
414.715	6.38
415.497	8.38
416.279	9.38
417.061	8.38
417.843	8.38
418.624	10.38
419.406	10.38
420.188	9.38
420.969	10.38
421.751	9.38
422.532	11.38
423.313	10.38
424.095	12.38
424.876	12.38
425.657	8.38
426.438	10.38
427.219	10.38
428	12.38
428.78	12.38
429.561	11.38
430.342	12.38
431.122	13.38
431.903	14.38
432.683	16.38
433.464	14.38
434.244	17.38
435.024	15.38
435.804	16.38
436.584	16.38
437.364	20.38
438.144	17.38
438.924	15.38
439.704	20.38
440.483	21.38
441.263	21.38
442.042	23.38
442.822	24.38
443.601	23.38
444.38	27.38
445.16	30.38
445.939	34.38
446.718	34.38
447.497	36.38
448.276	38.38
449.054	44.38
449.833	44.38
450.612	50.38
451.391	53.38
452.169	54.38
452.948	59.38
453.726	71.38
454.504	74.38
455.282	81.38
456.061	90.38
456.839	106.38
457.617	108.38
458.395	122.38
459.172	138.38
459.95	151.38
460.728	169.38
461.506	187.38
462.283	210.38
463.061	239.38
463.838	266.38
464.615	296.38
465.393	329.38
466.17	370.38
466.947	413.38
467.724	469.38
468.501	516.38
469.278	576.38
470.055	643.38
470.831	719.38
471.608	814.38
472.385	901.38
473.161	1003.38
473.938	1117.38
474.714	1246.38
475.49	1395.38
476.266	1550.38
477.043	1717.38
477.819	1898.38
478.595	2096.38
479.371	2341.38
480.146	2583.38
480.922	2880.38
481.698	3195.38
482.473	3508.38
483.249	3911.38
484.024	4316.38
484.8	4773.38
485.575	5313.38
486.35	5845.38
487.126	6493.38
487.901	7101.38
488.676	7846.38
489.451	8633.38
490.225	9500.38
491	10438.38
491.775	11410.38
492.55	12503.38
493.324	13604.38
494.099	14643.38
494.873	15834.38
495.647	17117.38
496.422	18474.38
497.196	19716.38
497.97	21067.38
498.744	22395.38
499.518	23552.38
500.292	24694.38
501.066	25876.38
501.839	26789.38
502.613	27562.38
503.387	28347.38
504.16	28826.38
504.934	29045.38
505.707	29059.38
506.48	28960.38
507.253	28605.38
508.027	28182.38
508.8	27653.38
509.573	26944.38
510.346	26092.38
511.118	25221.38
511.891	24286.38
512.664	23212.38
513.437	22298.38
514.209	21323.38
514.982	20387.38
515.754	19418.38
516.526	18493.38
517.298	17661.38
518.071	16896.38
518.843	16218.38
519.615	15632.38
520.387	15066.38
521.159	14380.38
521.93	13831.38
522.702	13237.38
523.474	12714.38
524.245	12168.38
525.017	11638.38
525.788	11208.38
526.56	10642.38
527.331	10136.38
528.102	9675.38
528.873	9192.38
529.644	8716.38
530.415	8263.38
531.186	7840.38
531.957	7414.38
532.728	7029.38
533.498	6642.38
534.269	6234.38
535.039	5910.38
535.81	5578.38
536.58	5232.38
537.351	4939.38
538.121	4650.38
538.891	4424.38
539.661	4186.38
540.431	3945.38
541.201	3733.38
541.971	3529.38
542.741	3356.38
543.51	3173.38
544.28	3028.38
545.05	2882.38
545.819	2743.38
546.588	2606.38
547.358	2470.38
548.127	2354.38
548.896	2229.38
549.665	2117.38
550.434	2006.38
551.203	1888.38
551.972	1789.38
552.741	1692.38
553.51	1582.38
554.278	1500.38
555.047	1419.38
555.815	1334.38
556.584	1258.38
557.352	1194.38
558.121	1114.38
558.889	1055.38
559.657	1000.38
560.425	946.38
561.193	890.38
561.961	843.38
562.729	790.38
563.496	744.38
564.264	713.38
565.032	671.38
565.799	634.38
566.567	598.38
567.334	559.38
568.101	531.38
568.869	510.38
569.636	487.38
570.403	437.38
571.17	427.38
571.937	394.38
572.704	376.38
573.471	352.38
574.237	340.38
575.004	318.38
575.771	299.38
576.537	278.38
577.303	261.38
578.07	245.38
578.836	227.38
579.602	220.38
580.368	204.38
581.134	196.38
581.9	188.38
582.666	181.38
583.432	163.38
584.198	154.38
584.964	149.38
585.729	145.38
586.495	130.38
587.26	128.38
588.025	122.38
588.791	114.38
589.556	108.38
590.321	100.38
591.086	99.38
591.851	91.38
592.616	92.38
593.381	87.38
594.146	81.38
594.911	81.38
595.675	73.38
596.44	68.38
597.204	63.38
597.969	62.38
598.733	60.38
599.497	60.38
600.261	52.38
601.025	50.38
601.79	49.38
602.553	47.38
603.317	43.38
604.081	45.38
604.845	40.38
605.609	41.38
606.372	36.38
607.136	37.38
607.899	36.38
608.662	32.38
609.426	30.38
610.189	31.38
610.952	29.38
611.715	29.38
612.478	25.38
613.241	25.38
614.004	26.38
614.767	24.38
615.529	24.38
616.292	23.38
617.055	22.38
617.817	20.38
618.579	23.38
619.342	20.38
620.104	20.38
620.866	18.38
621.628	17.38
622.39	20.38
623.152	19.38
623.914	16.38
624.676	17.38
625.438	15.38
626.199	16.38
626.961	15.38
627.722	15.38
628.484	13.38
629.245	13.38
630.006	10.38
630.768	10.38
631.529	13.38
632.29	13.38
633.051	10.38
633.812	8.38
634.573	12.38
635.333	10.38
636.094	12.38
636.855	12.38
637.615	10.38
638.376	10.38
639.136	7.38
639.896	6.38
640.657	6.38
641.417	9.38
642.177	8.38
642.937	5.38
643.697	8.38
644.457	8.38
645.216	10.38
645.976	7.38
646.736	4.38
647.495	7.38
648.255	7.38
649.014	7.38
649.774	7.38
650.533	4.38
651.292	9.38
652.051	5.38
652.81	6.38
653.569	6.38
654.328	8.38
655.087	8.38
655.846	7.38
656.604	8.38
657.363	4.38
658.121	6.38
658.88	4.38
659.638	4.38
660.397	4.38
661.155	2.38
661.913	4.38
662.671	5.38
663.429	7.38
664.187	2.38
664.945	4.38
665.703	4.38
666.46	3.38
667.218	5.38
667.976	4.38
668.733	4.38
669.49	5.38
670.248	6.38
671.005	4.38
671.762	6.38
672.519	4.38
673.276	2.38
674.033	4.38
674.79	5.38
675.547	0.38
676.304	3.38
677.06	4.38
677.817	2.38
678.574	5.38
679.33	2.38
680.086	3.38
680.843	2.38
681.599	3.38
682.355	3.38
683.111	1.38
683.867	5.38
684.623	1.38
685.379	3.38
686.135	4.38
686.89	2.38
687.646	3.38
688.402	2.38
689.157	5.38
689.912	3.38
690.668	4.38
691.423	3.38
692.178	4.38
692.933	4.38
693.688	1.38
694.443	4.38
695.198	1.38
695.953	4.38
696.708	3.38
697.462	4.38
698.217	2.38
698.972	2.38
699.726	5.38
700.48	2.38
701.235	1.38
701.989	4.38
702.743	1.38
703.497	2.38
704.251	3.38
705.005	3.38
705.759	3.38
706.513	2.38
707.266	3.38
708.02	4.38
708.774	4.38
709.527	4.38
710.28	2.38
711.034	3.38
711.787	2.38
712.54	2.38
713.293	3.38
714.046	1.38
714.799	3.38
715.552	3.38
716.305	2.38
717.058	2.38
717.81	3.38
718.563	2.38
719.315	1.38
720.068	3.38
720.82	3.38
721.573	4.38
722.325	3.38
723.077	-0.62
723.829	4.38
724.581	2.38
725.333	3.38
726.085	3.38
726.836	4.38
727.588	2.38
728.34	3.38
729.091	3.38
729.843	3.38
730.594	4.38
731.346	4.38
732.097	2.38
732.848	4.38
733.599	3.38
734.35	6.38
735.101	1.38
735.852	4.38
736.603	3.38
737.354	3.38
738.104	4.38
738.855	3.38
739.605	4.38
740.356	5.38
741.106	3.38
741.856	5.38
742.607	4.38
743.357	5.38
744.107	5.38
744.857	3.38
745.607	4.38
746.357	4.38
747.106	3.38
747.856	4.38
748.606	6.38
749.355	1.38
750.105	4.38
750.854	5.38
751.603	4.38
752.353	2.38
753.102	4.38
753.851	4.38
754.6	4.38
755.349	6.38
756.098	6.38
756.847	4.38
757.595	4.38
758.344	4.38
759.093	4.38
759.841	6.38
760.589	5.38
761.338	8.38
762.086	5.38
762.834	5.38
763.582	6.38
764.331	5.38
765.079	6.38
765.826	5.38
766.574	7.38
767.322	7.38
768.07	6.38
768.817	8.38
769.565	7.38
770.312	9.38
771.06	6.38
771.807	6.38
772.554	8.38
773.302	5.38
774.049	10.38
774.796	5.38
775.543	6.38
776.29	8.38
777.036	7.38
777.783	5.38
778.53	6.38
779.276	6.38
780.023	7.38
780.769	10.38
781.516	10.38
782.262	9.38
783.008	10.38
783.754	8.38
784.5	8.38
785.246	8.38
785.992	9.38
786.738	9.38
787.484	9.38
788.23	10.38
788.975	9.38
789.721	9.38
790.466	6.38
791.212	8.38
791.957	6.38
792.702	6.38
793.447	9.38
794.193	9.38
794.938	6.38
795.683	7.38
796.427	8.38
797.172	5.38
797.917	9.38
798.662	5.38
799.406	5.38
800.151	7.38
800.895	6.38
801.64	6.38
802.384	8.38
803.128	7.38
803.872	5.38
804.616	5.38
805.36	4.38
806.104	4.38
806.848	5.38
807.592	5.38
808.336	5.38
809.079	4.38
809.823	5.38
810.566	7.38
811.31	5.38
812.053	4.38
812.796	4.38
813.539	6.38
814.283	3.38
815.026	4.38
815.769	2.38
816.511	4.38
817.254	5.38
817.997	4.38
818.74	8.38
819.482	2.38
820.225	5.38
820.967	4.38
821.71	4.38
822.452	4.38
823.194	4.38
823.936	2.38
824.678	5.38
825.42	2.38
826.162	3.38
826.904	2.38
827.646	6.38
828.388	3.38
829.129	4.38
829.871	3.38
830.612	3.38
831.354	3.38
832.095	4.38
832.836	2.38
833.577	1.38
834.319	2.38
835.06	4.38
835.801	2.38
836.542	2.38
837.282	4.38
838.023	3.38
838.764	2.38
839.504	4.38
840.245	5.38
840.985	2.38
841.726	5.38
842.466	3.38
843.206	2.38
843.946	2.38
844.687	2.38
845.427	1.38
846.166	1.38
846.906	3.38
847.646	0.38
848.386	2.38
849.125	3.38
849.865	4.38
850.605	0.38
851.344	4.38
852.083	4.38
852.823	5.38
853.562	1.38
854.301	4.38
855.04	2.38
855.779	1.38
856.518	2.38
857.257	0.38
857.995	1.38
858.734	1.38
859.473	2.38
860.211	2.38
860.95	1.38
861.688	0.38
862.426	-2.62
863.165	1.38
863.903	0.38
864.641	3.38
865.379	-0.62
866.117	0.38
866.855	2.38
867.593	0.38
868.33	1.38
869.068	1.38
869.806	0.38
870.543	1.38
871.28	0.38
872.018	1.38
872.755	2.38
873.492	-0.62
874.229	0.38
874.967	-0.62
875.703	0.38
876.44	1.38
877.177	1.38
877.914	1.38
878.651	-0.62
879.387	0.38
880.124	0.38
880.86	1.38
881.597	-1.62
882.333	1.38
883.069	-0.62
883.806	-0.62
884.542	2.38
885.278	1.38
886.014	2.38
886.749	-0.62
887.485	0.38
888.221	0.38
888.957	-1.62
889.692	0.38
890.428	1.38
891.163	0.38
891.899	-1.62
892.634	-1.62
893.369	0.38
894.104	2.38
894.839	-0.62
895.574	1.38
896.309	-0.62
897.044	0.38
897.779	-0.62
898.514	0.38
899.248	0.38
899.983	0.38
900.717	0.38
901.452	-0.62
902.186	-0.62
902.92	-1.62
903.654	0.38
904.389	0.38
905.123	-0.62
905.857	-0.62
906.59	-0.62
907.324	0.38
908.058	-0.62
908.792	1.38
909.525	1.38
910.259	0.38
910.992	0.38
911.726	0.38
912.459	-0.62
913.192	0.38
913.925	-2.62
914.658	0.38
915.391	-1.62
916.124	0.38
916.857	0.38
917.59	0.38
918.323	2.38
919.055	0.38
919.788	0.38
920.521	-0.62
921.253	-0.62
921.985	0.38
922.718	-0.62
923.45	-0.62
924.182	-0.62
924.914	1.38
925.646	0.38
926.378	0.38
927.11	0.38
927.841	0.38
928.573	0.38
929.305	0.38
930.036	2.38
930.768	0.38
931.499	-1.62
932.23	-1.62
932.962	-0.62
933.693	0.38
934.424	-0.62
935.155	-0.62
935.886	-1.62
936.617	-1.62
937.348	1.38
938.078	-2.62
938.809	0.38
939.54	0.38
940.27	0.38
941.001	0.38
941.731	1.38
942.461	0.38
943.191	0.38
943.922	-1.62
944.652	0.38
945.382	-1.62
946.112	-0.62
946.841	0.38
947.571	1.38
948.301	0.38
949.031	-3.62
949.76	-2.62
950.49	-1.62
951.219	0.38
951.948	-1.62
952.678	-2.62
953.407	-0.62
954.136	0.38
954.865	1.38
955.594	0.38
956.323	-1.62
957.052	-0.62
957.78	0.38
958.509	-0.62
959.238	-3.62
959.966	0.38
960.695	0.38
961.423	0.38
962.151	-2.62
962.88	0.38
963.608	-1.62
964.336	0.38
965.064	-1.62
965.792	0.38
966.52	0.38
967.247	-1.62
967.975	0.38
968.703	3.38
969.43	-1.62
970.158	-0.62
970.885	-0.62
971.613	-1.62
972.34	2.38
973.067	-0.62
973.794	-0.62
974.521	1.38
975.248	-1.62
975.975	0.38
976.702	-1.62
977.429	0.38
978.156	-0.62
978.882	-1.62
979.609	-0.62
980.335	-1.62
981.062	-1.62
981.788	-0.62
982.514	0.38
983.24	-1.62
983.967	-0.62
984.693	0.38
985.419	-1.62
986.144	1.38
986.87	-0.62
987.596	0.38
988.322	1.38
989.047	-0.62
989.773	-0.62
990.498	-1.62
991.224	0.38
991.949	1.38
992.674	0.38
993.399	-0.62
994.124	0.38
994.849	0.38
995.574	-3.62
996.299	1.38
997.024	0.38
997.749	0.38
998.473	-0.62
999.198	-2.62
999.922	-0.62
1000.647	0.38
1001.371	2.38
1002.095	0.38
1002.82	0.38
1003.544	-0.62
1004.268	2.38
1004.992	0.38
1005.716	2.38
1006.439	1.38
1007.163	2.38
1007.887	2.38
1008.611	-1.62
1009.334	0.38
1010.058	-0.62
1010.781	1.38
1011.504	0.38
1012.228	-1.62
1012.951	-0.62
1013.674	0.38
1014.397	-1.62
1015.12	-0.62
