节点500_285_QEPB04081__285__15-00-17-798.txt的数据

Date: Wed Nov 12 15:00:17 CST 2025
User: PC
Spectrometer: QEPB0408
触发模式: 0
积分时间 (秒): 1.000000E-2
Scans to average: 1
启用暗噪声校正: true
启用非线性校正: false
滑动平均宽度: 0
X轴模式: Wavelengths
Number of Pixels in Spectrum: 1044
>>>>>Begin Spectral Data<<<<<
220.843	2.38
221.644	0.38
222.444	4.38
223.244	2.38
224.045	3.38
224.845	2.38
225.645	4.38
226.445	3.38
227.245	3.38
228.045	4.38
228.845	1.38
229.645	2.38
230.444	2.38
231.244	2.38
232.043	4.38
232.843	2.38
233.642	3.38
234.442	4.38
235.241	4.38
236.04	2.38
236.839	4.38
237.638	4.38
238.437	4.38
239.236	5.38
240.035	5.38
240.833	4.38
241.632	7.38
242.43	3.38
243.229	4.38
244.027	5.38
244.826	7.38
245.624	8.38
246.422	6.38
247.22	8.38
248.018	6.38
248.816	7.38
249.614	5.38
250.412	9.38
251.21	7.38
252.007	7.38
252.805	7.38
253.602	8.38
254.4	9.38
255.197	9.38
255.994	8.38
256.791	9.38
257.589	9.38
258.386	11.38
259.183	9.38
259.979	12.38
260.776	11.38
261.573	11.38
262.37	10.38
263.166	13.38
263.963	13.38
264.759	13.38
265.556	14.38
266.352	14.38
267.148	16.38
267.944	17.38
268.74	14.38
269.536	14.38
270.332	14.38
271.128	12.38
271.924	16.38
272.719	18.38
273.515	19.38
274.311	17.38
275.106	18.38
275.901	18.38
276.697	20.38
277.492	18.38
278.287	16.38
279.082	20.38
279.877	17.38
280.672	21.38
281.467	21.38
282.262	17.38
283.056	20.38
283.851	18.38
284.646	19.38
285.44	20.38
286.234	20.38
287.029	19.38
287.823	19.38
288.617	20.38
289.411	17.38
290.205	22.38
290.999	20.38
291.793	19.38
292.587	17.38
293.381	17.38
294.174	16.38
294.968	17.38
295.761	18.38
296.555	14.38
297.348	17.38
298.141	17.38
298.935	16.38
299.728	16.38
300.521	18.38
301.314	12.38
302.107	15.38
302.899	12.38
303.692	16.38
304.485	14.38
305.277	13.38
306.07	13.38
306.862	11.38
307.655	12.38
308.447	12.38
309.239	13.38
310.031	13.38
310.823	10.38
311.615	12.38
312.407	10.38
313.199	9.38
313.991	11.38
314.783	10.38
315.574	11.38
316.366	9.38
317.157	9.38
317.949	10.38
318.74	9.38
319.531	10.38
320.322	7.38
321.113	6.38
321.904	8.38
322.695	8.38
323.486	8.38
324.277	7.38
325.068	7.38
325.858	7.38
326.649	7.38
327.439	9.38
328.23	6.38
329.02	5.38
329.81	5.38
330.6	5.38
331.391	4.38
332.181	5.38
332.971	6.38
333.76	6.38
334.55	7.38
335.34	7.38
336.13	6.38
336.919	6.38
337.709	7.38
338.498	7.38
339.287	7.38
340.077	8.38
340.866	6.38
341.655	6.38
342.444	6.38
343.233	8.38
344.022	7.38
344.811	7.38
345.6	7.38
346.388	7.38
347.177	8.38
347.965	6.38
348.754	8.38
349.542	7.38
350.33	8.38
351.119	7.38
351.907	8.38
352.695	7.38
353.483	4.38
354.271	7.38
355.059	7.38
355.846	4.38
356.634	7.38
357.422	6.38
358.209	6.38
358.997	6.38
359.784	6.38
360.571	6.38
361.359	6.38
362.146	5.38
362.933	7.38
363.72	6.38
364.507	6.38
365.294	7.38
366.081	6.38
366.867	4.38
367.654	6.38
368.44	5.38
369.227	5.38
370.013	5.38
370.8	3.38
371.586	5.38
372.372	2.38
373.158	8.38
373.944	6.38
374.73	6.38
375.516	5.38
376.302	1.38
377.088	6.38
377.873	7.38
378.659	5.38
379.445	5.38
380.23	5.38
381.015	5.38
381.801	7.38
382.586	5.38
383.371	4.38
384.156	5.38
384.941	7.38
385.726	7.38
386.511	6.38
387.296	5.38
388.08	7.38
388.865	7.38
389.649	7.38
390.434	6.38
391.218	5.38
392.003	6.38
392.787	8.38
393.571	7.38
394.355	7.38
395.139	7.38
395.923	8.38
396.707	6.38
397.491	10.38
398.274	6.38
399.058	6.38
399.842	7.38
400.625	7.38
401.408	8.38
402.192	7.38
402.975	8.38
403.758	6.38
404.541	7.38
405.324	9.38
406.107	5.38
406.89	8.38
407.673	8.38
408.456	6.38
409.238	8.38
410.021	8.38
410.803	9.38
411.586	11.38
412.368	7.38
413.151	7.38
413.933	10.38
414.715	9.38
415.497	8.38
416.279	11.38
417.061	11.38
417.843	10.38
418.624	10.38
419.406	9.38
420.188	13.38
420.969	10.38
421.751	11.38
422.532	12.38
423.313	10.38
424.095	12.38
424.876	10.38
425.657	12.38
426.438	12.38
427.219	11.38
428	13.38
428.78	16.38
429.561	11.38
430.342	15.38
431.122	15.38
431.903	17.38
432.683	18.38
433.464	18.38
434.244	15.38
435.024	16.38
435.804	17.38
436.584	20.38
437.364	20.38
438.144	18.38
438.924	21.38
439.704	20.38
440.483	22.38
441.263	26.38
442.042	28.38
442.822	28.38
443.601	26.38
444.38	30.38
445.16	32.38
445.939	36.38
446.718	38.38
447.497	36.38
448.276	44.38
449.054	47.38
449.833	50.38
450.612	50.38
451.391	54.38
452.169	64.38
452.948	69.38
453.726	75.38
454.504	81.38
455.282	88.38
456.061	98.38
456.839	109.38
457.617	119.38
458.395	130.38
459.172	145.38
459.95	161.38
460.728	186.38
461.506	208.38
462.283	228.38
463.061	259.38
463.838	281.38
464.615	316.38
465.393	357.38
466.17	395.38
466.947	438.38
467.724	486.38
468.501	552.38
469.278	612.38
470.055	690.38
470.831	753.38
471.608	858.38
472.385	944.38
473.161	1048.38
473.938	1158.38
474.714	1279.38
475.49	1417.38
476.266	1571.38
477.043	1745.38
477.819	1933.38
478.595	2130.38
479.371	2346.38
480.146	2567.38
480.922	2875.38
481.698	3148.38
482.473	3484.38
483.249	3821.38
484.024	4245.38
484.8	4637.38
485.575	5114.38
486.35	5605.38
487.126	6186.38
487.901	6798.38
488.676	7454.38
489.451	8153.38
490.225	8963.38
491	9802.38
491.775	10714.38
492.55	11630.38
493.324	12667.38
494.099	13598.38
494.873	14668.38
495.647	15837.38
496.422	16998.38
497.196	18166.38
497.97	19449.38
498.744	20621.38
499.518	21815.38
500.292	22979.38
501.066	24096.38
501.839	25058.38
502.613	25895.38
503.387	26685.38
504.16	27276.38
504.934	27622.38
505.707	27738.38
506.48	27764.38
507.253	27628.38
508.027	27343.38
508.8	26999.38
509.573	26591.38
510.346	25845.38
511.118	25000.38
511.891	24277.38
512.664	23372.38
513.437	22461.38
514.209	21563.38
514.982	20586.38
515.754	19672.38
516.526	18789.38
517.298	17957.38
518.071	17206.38
518.843	16508.38
519.615	15879.38
520.387	15286.38
521.159	14665.38
521.93	14077.38
522.702	13553.38
523.474	12958.38
524.245	12400.38
525.017	11854.38
525.788	11446.38
526.56	10926.38
527.331	10362.38
528.102	9909.38
528.873	9467.38
529.644	8964.38
530.415	8535.38
531.186	8096.38
531.957	7679.38
532.728	7289.38
533.498	6914.38
534.269	6523.38
535.039	6137.38
535.81	5818.38
536.58	5510.38
537.351	5174.38
538.121	4885.38
538.891	4642.38
539.661	4383.38
540.431	4139.38
541.201	3878.38
541.971	3662.38
542.741	3511.38
543.51	3328.38
544.28	3185.38
545.05	3026.38
545.819	2857.38
546.588	2717.38
547.358	2599.38
548.127	2460.38
548.896	2324.38
549.665	2231.38
550.434	2105.38
551.203	1975.38
551.972	1880.38
552.741	1761.38
553.51	1666.38
554.278	1581.38
555.047	1494.38
555.815	1422.38
556.584	1341.38
557.352	1264.38
558.121	1194.38
558.889	1111.38
559.657	1052.38
560.425	998.38
561.193	940.38
561.961	884.38
562.729	833.38
563.496	786.38
564.264	751.38
565.032	698.38
565.799	665.38
566.567	641.38
567.334	602.38
568.101	564.38
568.869	537.38
569.636	495.38
570.403	473.38
571.17	455.38
571.937	419.38
572.704	402.38
573.471	381.38
574.237	356.38
575.004	334.38
575.771	312.38
576.537	290.38
577.303	286.38
578.07	260.38
578.836	250.38
579.602	233.38
580.368	219.38
581.134	206.38
581.9	204.38
582.666	196.38
583.432	176.38
584.198	169.38
584.964	157.38
585.729	146.38
586.495	142.38
587.26	138.38
588.025	131.38
588.791	125.38
589.556	116.38
590.321	111.38
591.086	104.38
591.851	101.38
592.616	91.38
593.381	92.38
594.146	85.38
594.911	81.38
595.675	80.38
596.44	73.38
597.204	70.38
597.969	65.38
598.733	66.38
599.497	62.38
600.261	60.38
601.025	54.38
601.79	53.38
602.553	51.38
603.317	51.38
604.081	50.38
604.845	46.38
605.609	43.38
606.372	43.38
607.136	38.38
607.899	39.38
608.662	35.38
609.426	35.38
610.189	30.38
610.952	34.38
611.715	33.38
612.478	30.38
613.241	28.38
614.004	28.38
614.767	23.38
615.529	26.38
616.292	25.38
617.055	24.38
617.817	28.38
618.579	25.38
619.342	20.38
620.104	20.38
620.866	18.38
621.628	18.38
622.39	17.38
623.152	18.38
623.914	20.38
624.676	18.38
625.438	19.38
626.199	16.38
626.961	16.38
627.722	15.38
628.484	17.38
629.245	13.38
630.006	15.38
630.768	11.38
631.529	12.38
632.29	12.38
633.051	12.38
633.812	14.38
634.573	10.38
635.333	11.38
636.094	12.38
636.855	10.38
637.615	11.38
638.376	13.38
639.136	10.38
639.896	8.38
640.657	9.38
641.417	8.38
642.177	10.38
642.937	9.38
643.697	8.38
644.457	8.38
645.216	9.38
645.976	7.38
646.736	9.38
647.495	7.38
648.255	7.38
649.014	7.38
649.774	9.38
650.533	8.38
651.292	8.38
652.051	8.38
652.81	7.38
653.569	9.38
654.328	7.38
655.087	7.38
655.846	7.38
656.604	8.38
657.363	6.38
658.121	7.38
658.88	7.38
659.638	6.38
660.397	5.38
661.155	6.38
661.913	3.38
662.671	9.38
663.429	8.38
664.187	8.38
664.945	7.38
665.703	6.38
666.46	5.38
667.218	5.38
667.976	4.38
668.733	5.38
669.49	6.38
670.248	6.38
671.005	7.38
671.762	4.38
672.519	5.38
673.276	5.38
674.033	5.38
674.79	4.38
675.547	6.38
676.304	4.38
677.06	3.38
677.817	6.38
678.574	4.38
679.33	5.38
680.086	5.38
680.843	6.38
681.599	3.38
682.355	3.38
683.111	5.38
683.867	2.38
684.623	3.38
685.379	2.38
686.135	4.38
686.89	4.38
687.646	4.38
688.402	5.38
689.157	3.38
689.912	6.38
690.668	6.38
691.423	6.38
692.178	5.38
692.933	2.38
693.688	5.38
694.443	3.38
695.198	4.38
695.953	2.38
696.708	5.38
697.462	5.38
698.217	4.38
698.972	4.38
699.726	4.38
700.48	4.38
701.235	2.38
701.989	4.38
702.743	4.38
703.497	2.38
704.251	3.38
705.005	4.38
705.759	2.38
706.513	4.38
707.266	4.38
708.02	6.38
708.774	5.38
709.527	4.38
710.28	4.38
711.034	4.38
711.787	2.38
712.54	4.38
713.293	5.38
714.046	5.38
714.799	5.38
715.552	4.38
716.305	3.38
717.058	5.38
717.81	4.38
718.563	6.38
719.315	3.38
720.068	3.38
720.82	4.38
721.573	3.38
722.325	6.38
723.077	6.38
723.829	3.38
724.581	6.38
725.333	6.38
726.085	4.38
726.836	6.38
727.588	6.38
728.34	5.38
729.091	5.38
729.843	5.38
730.594	2.38
731.346	5.38
732.097	3.38
732.848	2.38
733.599	6.38
734.35	3.38
735.101	6.38
735.852	4.38
736.603	7.38
737.354	5.38
738.104	4.38
738.855	6.38
739.605	5.38
740.356	4.38
741.106	6.38
741.856	2.38
742.607	6.38
743.357	5.38
744.107	4.38
744.857	4.38
745.607	3.38
746.357	1.38
747.106	5.38
747.856	4.38
748.606	4.38
749.355	5.38
750.105	2.38
750.854	4.38
751.603	6.38
752.353	3.38
753.102	6.38
753.851	5.38
754.6	5.38
755.349	5.38
756.098	8.38
756.847	7.38
757.595	5.38
758.344	5.38
759.093	7.38
759.841	8.38
760.589	5.38
761.338	9.38
762.086	6.38
762.834	7.38
763.582	6.38
764.331	5.38
765.079	8.38
765.826	8.38
766.574	6.38
767.322	10.38
768.07	5.38
768.817	7.38
769.565	7.38
770.312	7.38
771.06	8.38
771.807	9.38
772.554	8.38
773.302	6.38
774.049	8.38
774.796	7.38
775.543	10.38
776.29	9.38
777.036	6.38
777.783	7.38
778.53	9.38
779.276	8.38
780.023	9.38
780.769	9.38
781.516	8.38
782.262	8.38
783.008	12.38
783.754	9.38
784.5	10.38
785.246	11.38
785.992	11.38
786.738	10.38
787.484	9.38
788.23	10.38
788.975	9.38
789.721	10.38
790.466	9.38
791.212	7.38
791.957	10.38
792.702	10.38
793.447	9.38
794.193	8.38
794.938	6.38
795.683	7.38
796.427	12.38
797.172	10.38
797.917	8.38
798.662	8.38
799.406	7.38
800.151	10.38
800.895	10.38
801.64	6.38
802.384	9.38
803.128	7.38
803.872	8.38
804.616	6.38
805.36	7.38
806.104	10.38
806.848	5.38
807.592	8.38
808.336	7.38
809.079	6.38
809.823	8.38
810.566	7.38
811.31	9.38
812.053	6.38
812.796	4.38
813.539	2.38
814.283	2.38
815.026	5.38
815.769	4.38
816.511	8.38
817.254	5.38
817.997	4.38
818.74	5.38
819.482	5.38
820.225	5.38
820.967	5.38
821.71	6.38
822.452	5.38
823.194	4.38
823.936	3.38
824.678	5.38
825.42	6.38
826.162	1.38
826.904	2.38
827.646	7.38
828.388	3.38
829.129	5.38
829.871	3.38
830.612	2.38
831.354	4.38
832.095	3.38
832.836	3.38
833.577	4.38
834.319	5.38
835.06	2.38
835.801	4.38
836.542	4.38
837.282	2.38
838.023	5.38
838.764	3.38
839.504	4.38
840.245	4.38
840.985	4.38
841.726	5.38
842.466	4.38
843.206	4.38
843.946	4.38
844.687	4.38
845.427	5.38
846.166	3.38
846.906	3.38
847.646	4.38
848.386	3.38
849.125	5.38
849.865	3.38
850.605	1.38
851.344	3.38
852.083	1.38
852.823	1.38
853.562	3.38
854.301	4.38
855.04	3.38
855.779	2.38
856.518	1.38
857.257	3.38
857.995	2.38
858.734	3.38
859.473	2.38
860.211	4.38
860.95	2.38
861.688	0.38
862.426	3.38
863.165	4.38
863.903	2.38
864.641	3.38
865.379	2.38
866.117	2.38
866.855	0.38
867.593	1.38
868.33	0.38
869.068	2.38
869.806	1.38
870.543	2.38
871.28	2.38
872.018	-0.62
872.755	0.38
873.492	3.38
874.229	0.38
874.967	1.38
875.703	1.38
876.44	1.38
877.177	2.38
877.914	2.38
878.651	0.38
879.387	4.38
880.124	2.38
880.86	-0.62
881.597	2.38
882.333	2.38
883.069	0.38
883.806	1.38
884.542	2.38
885.278	0.38
886.014	2.38
886.749	2.38
887.485	2.38
888.221	0.38
888.957	0.38
889.692	1.38
890.428	3.38
891.163	0.38
891.899	2.38
892.634	1.38
893.369	-0.62
894.104	0.38
894.839	1.38
895.574	0.38
896.309	2.38
897.044	0.38
897.779	1.38
898.514	-1.62
899.248	1.38
899.983	1.38
900.717	0.38
901.452	1.38
902.186	3.38
902.92	2.38
903.654	0.38
904.389	1.38
905.123	0.38
905.857	1.38
906.59	1.38
907.324	3.38
908.058	2.38
908.792	-1.62
909.525	1.38
910.259	1.38
910.992	0.38
911.726	2.38
912.459	2.38
913.192	0.38
913.925	2.38
914.658	1.38
915.391	1.38
916.124	1.38
916.857	1.38
917.59	0.38
918.323	1.38
919.055	3.38
919.788	-0.62
920.521	2.38
921.253	0.38
921.985	2.38
922.718	0.38
923.45	0.38
924.182	0.38
924.914	0.38
925.646	1.38
926.378	1.38
927.11	1.38
927.841	2.38
928.573	1.38
929.305	1.38
930.036	0.38
930.768	3.38
931.499	1.38
932.23	2.38
932.962	1.38
933.693	0.38
934.424	4.38
935.155	1.38
935.886	0.38
936.617	4.38
937.348	-0.62
938.078	1.38
938.809	1.38
939.54	-0.62
940.27	2.38
941.001	0.38
941.731	1.38
942.461	3.38
943.191	1.38
943.922	-0.62
944.652	2.38
945.382	2.38
946.112	2.38
946.841	2.38
947.571	-1.62
948.301	1.38
949.031	0.38
949.76	1.38
950.49	0.38
951.219	1.38
951.948	0.38
952.678	-0.62
953.407	1.38
954.136	2.38
954.865	1.38
955.594	3.38
956.323	0.38
957.052	3.38
957.78	1.38
958.509	1.38
959.238	0.38
959.966	-1.62
960.695	2.38
961.423	0.38
962.151	2.38
962.88	0.38
963.608	2.38
964.336	2.38
965.064	0.38
965.792	2.38
966.52	0.38
967.247	2.38
967.975	0.38
968.703	3.38
969.43	-0.62
970.158	0.38
970.885	0.38
971.613	0.38
972.34	1.38
973.067	2.38
973.794	1.38
974.521	0.38
975.248	2.38
975.975	1.38
976.702	1.38
977.429	-0.62
978.156	0.38
978.882	0.38
979.609	2.38
980.335	1.38
981.062	4.38
981.788	1.38
982.514	-0.62
983.24	2.38
983.967	0.38
984.693	-0.62
985.419	-0.62
986.144	2.38
986.87	-0.62
987.596	2.38
988.322	0.38
989.047	0.38
989.773	1.38
990.498	2.38
991.224	0.38
991.949	1.38
992.674	0.38
993.399	0.38
994.124	2.38
994.849	3.38
995.574	1.38
996.299	-1.62
997.024	1.38
997.749	2.38
998.473	1.38
999.198	1.38
999.922	0.38
1000.647	1.38
1001.371	2.38
1002.095	-1.62
1002.82	-0.62
1003.544	0.38
1004.268	1.38
1004.992	2.38
1005.716	1.38
1006.439	2.38
1007.163	2.38
1007.887	3.38
1008.611	1.38
1009.334	0.38
1010.058	2.38
1010.781	-1.62
1011.504	1.38
1012.228	0.38
1012.951	0.38
1013.674	-1.62
1014.397	0.38
1015.12	0.38
