节点500_285_QEPB04081__84__14-56-57-309.txt的数据

Date: Wed Nov 12 14:56:57 CST 2025
User: PC
Spectrometer: QEPB0408
触发模式: 0
积分时间 (秒): 1.000000E-2
Scans to average: 1
启用暗噪声校正: true
启用非线性校正: false
滑动平均宽度: 0
X轴模式: Wavelengths
Number of Pixels in Spectrum: 1044
>>>>>Begin Spectral Data<<<<<
220.843	-1.38
221.644	2.62
222.444	2.62
223.244	0.62
224.045	1.62
224.845	2.62
225.645	2.62
226.445	3.62
227.245	0.62
228.045	3.62
228.845	0.62
229.645	3.62
230.444	3.62
231.244	1.62
232.043	1.62
232.843	0.62
233.642	4.62
234.442	2.62
235.241	1.62
236.04	3.62
236.839	0.62
237.638	2.62
238.437	4.62
239.236	5.62
240.035	2.62
240.833	3.62
241.632	3.62
242.43	3.62
243.229	5.62
244.027	4.62
244.826	5.62
245.624	2.62
246.422	4.62
247.22	5.62
248.018	6.62
248.816	4.62
249.614	4.62
250.412	4.62
251.21	5.62
252.007	4.62
252.805	7.62
253.602	5.62
254.4	8.62
255.197	8.62
255.994	6.62
256.791	8.62
257.589	7.62
258.386	10.62
259.183	7.62
259.979	7.62
260.776	8.62
261.573	8.62
262.37	12.62
263.166	8.62
263.963	12.62
264.759	12.62
265.556	11.62
266.352	14.62
267.148	11.62
267.944	13.62
268.74	14.62
269.536	14.62
270.332	13.62
271.128	16.62
271.924	15.62
272.719	17.62
273.515	17.62
274.311	16.62
275.106	16.62
275.901	18.62
276.697	19.62
277.492	19.62
278.287	18.62
279.082	18.62
279.877	19.62
280.672	16.62
281.467	15.62
282.262	18.62
283.056	21.62
283.851	18.62
284.646	16.62
285.44	18.62
286.234	17.62
287.029	18.62
287.823	19.62
288.617	16.62
289.411	20.62
290.205	14.62
290.999	17.62
291.793	18.62
292.587	14.62
293.381	18.62
294.174	16.62
294.968	19.62
295.761	13.62
296.555	15.62
297.348	14.62
298.141	15.62
298.935	13.62
299.728	14.62
300.521	15.62
301.314	13.62
302.107	14.62
302.899	11.62
303.692	12.62
304.485	12.62
305.277	12.62
306.07	10.62
306.862	12.62
307.655	11.62
308.447	11.62
309.239	12.62
310.031	10.62
310.823	9.62
311.615	10.62
312.407	7.62
313.199	5.62
313.991	9.62
314.783	9.62
315.574	7.62
316.366	8.62
317.157	10.62
317.949	8.62
318.74	7.62
319.531	7.62
320.322	8.62
321.113	4.62
321.904	8.62
322.695	5.62
323.486	8.62
324.277	4.62
325.068	7.62
325.858	4.62
326.649	6.62
327.439	6.62
328.23	6.62
329.02	6.62
329.81	3.62
330.6	4.62
331.391	5.62
332.181	4.62
332.971	8.62
333.76	8.62
334.55	6.62
335.34	5.62
336.13	5.62
336.919	2.62
337.709	4.62
338.498	7.62
339.287	6.62
340.077	5.62
340.866	3.62
341.655	3.62
342.444	7.62
343.233	5.62
344.022	4.62
344.811	5.62
345.6	4.62
346.388	4.62
347.177	3.62
347.965	7.62
348.754	3.62
349.542	6.62
350.33	3.62
351.119	4.62
351.907	5.62
352.695	3.62
353.483	7.62
354.271	5.62
355.059	6.62
355.846	4.62
356.634	5.62
357.422	2.62
358.209	4.62
358.997	7.62
359.784	3.62
360.571	3.62
361.359	4.62
362.146	5.62
362.933	6.62
363.72	5.62
364.507	2.62
365.294	5.62
366.081	4.62
366.867	5.62
367.654	3.62
368.44	5.62
369.227	5.62
370.013	2.62
370.8	7.62
371.586	4.62
372.372	3.62
373.158	3.62
373.944	4.62
374.73	2.62
375.516	3.62
376.302	3.62
377.088	6.62
377.873	5.62
378.659	4.62
379.445	5.62
380.23	5.62
381.015	4.62
381.801	5.62
382.586	6.62
383.371	4.62
384.156	4.62
384.941	2.62
385.726	6.62
386.511	4.62
387.296	7.62
388.08	6.62
388.865	4.62
389.649	6.62
390.434	5.62
391.218	5.62
392.003	5.62
392.787	5.62
393.571	5.62
394.355	6.62
395.139	5.62
395.923	4.62
396.707	7.62
397.491	4.62
398.274	5.62
399.058	8.62
399.842	4.62
400.625	5.62
401.408	6.62
402.192	7.62
402.975	6.62
403.758	8.62
404.541	7.62
405.324	9.62
406.107	7.62
406.89	7.62
407.673	7.62
408.456	8.62
409.238	7.62
410.021	7.62
410.803	6.62
411.586	7.62
412.368	6.62
413.151	8.62
413.933	9.62
414.715	5.62
415.497	8.62
416.279	8.62
417.061	7.62
417.843	9.62
418.624	8.62
419.406	11.62
420.188	8.62
420.969	9.62
421.751	8.62
422.532	9.62
423.313	9.62
424.095	11.62
424.876	12.62
425.657	12.62
426.438	11.62
427.219	12.62
428	9.62
428.78	10.62
429.561	13.62
430.342	13.62
431.122	14.62
431.903	12.62
432.683	15.62
433.464	14.62
434.244	15.62
435.024	14.62
435.804	14.62
436.584	15.62
437.364	17.62
438.144	20.62
438.924	22.62
439.704	20.62
440.483	22.62
441.263	25.62
442.042	22.62
442.822	23.62
443.601	25.62
444.38	28.62
445.16	29.62
445.939	33.62
446.718	32.62
447.497	37.62
448.276	38.62
449.054	41.62
449.833	47.62
450.612	47.62
451.391	50.62
452.169	55.62
452.948	65.62
453.726	69.62
454.504	76.62
455.282	81.62
456.061	91.62
456.839	101.62
457.617	115.62
458.395	124.62
459.172	139.62
459.95	155.62
460.728	171.62
461.506	195.62
462.283	215.62
463.061	241.62
463.838	267.62
464.615	306.62
465.393	335.62
466.17	377.62
466.947	418.62
467.724	477.62
468.501	530.62
469.278	596.62
470.055	659.62
470.831	735.62
471.608	813.62
472.385	906.62
473.161	1010.62
473.938	1131.62
474.714	1250.62
475.49	1394.62
476.266	1546.62
477.043	1719.62
477.819	1911.62
478.595	2122.62
479.371	2342.62
480.146	2594.62
480.922	2892.62
481.698	3193.62
482.473	3538.62
483.249	3886.62
484.024	4304.62
484.8	4751.62
485.575	5255.62
486.35	5782.62
487.126	6415.62
487.901	7075.62
488.676	7760.62
489.451	8515.62
490.225	9428.62
491	10282.62
491.775	11249.62
492.55	12320.62
493.324	13360.62
494.099	14447.62
494.873	15634.62
495.647	16904.62
496.422	18132.62
497.196	19376.62
497.97	20686.62
498.744	21979.62
499.518	23160.62
500.292	24339.62
501.066	25484.62
501.839	26400.62
502.613	27219.62
503.387	27927.62
504.16	28560.62
504.934	28747.62
505.707	28699.62
506.48	28692.62
507.253	28462.62
508.027	27944.62
508.8	27443.62
509.573	26919.62
510.346	26122.62
511.118	25190.62
511.891	24325.62
512.664	23342.62
513.437	22338.62
514.209	21347.62
514.982	20382.62
515.754	19492.62
516.526	18557.62
517.298	17789.62
518.071	16992.62
518.843	16310.62
519.615	15710.62
520.387	15107.62
521.159	14473.62
521.93	13919.62
522.702	13339.62
523.474	12832.62
524.245	12246.62
525.017	11723.62
525.788	11246.62
526.56	10746.62
527.331	10203.62
528.102	9718.62
528.873	9251.62
529.644	8810.62
530.415	8360.62
531.186	7877.62
531.957	7466.62
532.728	7059.62
533.498	6697.62
534.269	6303.62
535.039	5949.62
535.81	5620.62
536.58	5304.62
537.351	5004.62
538.121	4744.62
538.891	4485.62
539.661	4238.62
540.431	3966.62
541.201	3768.62
541.971	3582.62
542.741	3384.62
543.51	3218.62
544.28	3069.62
545.05	2947.62
545.819	2774.62
546.588	2632.62
547.358	2507.62
548.127	2364.62
548.896	2253.62
549.665	2138.62
550.434	2028.62
551.203	1904.62
551.972	1804.62
552.741	1701.62
553.51	1603.62
554.278	1512.62
555.047	1447.62
555.815	1351.62
556.584	1272.62
557.352	1210.62
558.121	1150.62
558.889	1068.62
559.657	1014.62
560.425	955.62
561.193	909.62
561.961	848.62
562.729	794.62
563.496	762.62
564.264	717.62
565.032	682.62
565.799	640.62
566.567	609.62
567.334	576.62
568.101	540.62
568.869	506.62
569.636	484.62
570.403	450.62
571.17	412.62
571.937	406.62
572.704	380.62
573.471	358.62
574.237	335.62
575.004	323.62
575.771	293.62
576.537	284.62
577.303	270.62
578.07	246.62
578.836	241.62
579.602	221.62
580.368	208.62
581.134	200.62
581.9	189.62
582.666	180.62
583.432	167.62
584.198	160.62
584.964	154.62
585.729	143.62
586.495	136.62
587.26	132.62
588.025	123.62
588.791	117.62
589.556	108.62
590.321	102.62
591.086	99.62
591.851	93.62
592.616	87.62
593.381	83.62
594.146	78.62
594.911	78.62
595.675	75.62
596.44	70.62
597.204	65.62
597.969	61.62
598.733	61.62
599.497	58.62
600.261	58.62
601.025	54.62
601.79	52.62
602.553	47.62
603.317	42.62
604.081	43.62
604.845	42.62
605.609	40.62
606.372	38.62
607.136	39.62
607.899	38.62
608.662	32.62
609.426	34.62
610.189	32.62
610.952	33.62
611.715	28.62
612.478	27.62
613.241	28.62
614.004	26.62
614.767	25.62
615.529	22.62
616.292	25.62
617.055	23.62
617.817	23.62
618.579	21.62
619.342	20.62
620.104	20.62
620.866	17.62
621.628	16.62
622.39	18.62
623.152	14.62
623.914	15.62
624.676	16.62
625.438	16.62
626.199	15.62
626.961	13.62
627.722	15.62
628.484	12.62
629.245	14.62
630.006	11.62
630.768	13.62
631.529	12.62
632.29	12.62
633.051	11.62
633.812	11.62
634.573	11.62
635.333	12.62
636.094	10.62
636.855	12.62
637.615	9.62
638.376	10.62
639.136	9.62
639.896	9.62
640.657	9.62
641.417	8.62
642.177	6.62
642.937	6.62
643.697	9.62
644.457	8.62
645.216	5.62
645.976	9.62
646.736	5.62
647.495	7.62
648.255	8.62
649.014	8.62
649.774	3.62
650.533	7.62
651.292	8.62
652.051	6.62
652.81	6.62
653.569	3.62
654.328	4.62
655.087	3.62
655.846	4.62
656.604	4.62
657.363	5.62
658.121	3.62
658.88	6.62
659.638	5.62
660.397	5.62
661.155	2.62
661.913	7.62
662.671	5.62
663.429	5.62
664.187	4.62
664.945	3.62
665.703	2.62
666.46	2.62
667.218	4.62
667.976	4.62
668.733	1.62
669.49	4.62
670.248	5.62
671.005	4.62
671.762	3.62
672.519	3.62
673.276	2.62
674.033	1.62
674.79	4.62
675.547	3.62
676.304	4.62
677.06	3.62
677.817	4.62
678.574	3.62
679.33	4.62
680.086	5.62
680.843	3.62
681.599	2.62
682.355	2.62
683.111	1.62
683.867	3.62
684.623	3.62
685.379	1.62
686.135	3.62
686.89	5.62
687.646	3.62
688.402	1.62
689.157	2.62
689.912	4.62
690.668	2.62
691.423	6.62
692.178	1.62
692.933	4.62
693.688	4.62
694.443	2.62
695.198	3.62
695.953	3.62
696.708	3.62
697.462	4.62
698.217	3.62
698.972	4.62
699.726	4.62
700.48	3.62
701.235	2.62
701.989	2.62
702.743	5.62
703.497	2.62
704.251	2.62
705.005	3.62
705.759	3.62
706.513	2.62
707.266	2.62
708.02	4.62
708.774	2.62
709.527	3.62
710.28	-0.38
711.034	4.62
711.787	4.62
712.54	4.62
713.293	1.62
714.046	0.62
714.799	1.62
715.552	3.62
716.305	4.62
717.058	3.62
717.81	2.62
718.563	3.62
719.315	3.62
720.068	3.62
720.82	3.62
721.573	4.62
722.325	2.62
723.077	2.62
723.829	3.62
724.581	1.62
725.333	3.62
726.085	3.62
726.836	2.62
727.588	1.62
728.34	2.62
729.091	2.62
729.843	4.62
730.594	2.62
731.346	3.62
732.097	2.62
732.848	3.62
733.599	2.62
734.35	3.62
735.101	3.62
735.852	2.62
736.603	4.62
737.354	4.62
738.104	2.62
738.855	0.62
739.605	3.62
740.356	5.62
741.106	1.62
741.856	4.62
742.607	5.62
743.357	3.62
744.107	2.62
744.857	4.62
745.607	3.62
746.357	3.62
747.106	4.62
747.856	1.62
748.606	4.62
749.355	3.62
750.105	5.62
750.854	6.62
751.603	5.62
752.353	4.62
753.102	5.62
753.851	4.62
754.6	4.62
755.349	5.62
756.098	5.62
756.847	5.62
757.595	7.62
758.344	5.62
759.093	3.62
759.841	4.62
760.589	5.62
761.338	5.62
762.086	5.62
762.834	3.62
763.582	6.62
764.331	4.62
765.079	6.62
765.826	8.62
766.574	10.62
767.322	7.62
768.07	6.62
768.817	5.62
769.565	6.62
770.312	7.62
771.06	8.62
771.807	5.62
772.554	5.62
773.302	8.62
774.049	10.62
774.796	8.62
775.543	9.62
776.29	8.62
777.036	8.62
777.783	6.62
778.53	7.62
779.276	9.62
780.023	8.62
780.769	10.62
781.516	9.62
782.262	8.62
783.008	12.62
783.754	10.62
784.5	12.62
785.246	7.62
785.992	7.62
786.738	7.62
787.484	8.62
788.23	9.62
788.975	9.62
789.721	8.62
790.466	10.62
791.212	6.62
791.957	9.62
792.702	7.62
793.447	8.62
794.193	6.62
794.938	6.62
795.683	8.62
796.427	7.62
797.172	7.62
797.917	6.62
798.662	5.62
799.406	6.62
800.151	5.62
800.895	7.62
801.64	6.62
802.384	7.62
803.128	7.62
803.872	5.62
804.616	8.62
805.36	7.62
806.104	6.62
806.848	4.62
807.592	3.62
808.336	3.62
809.079	4.62
809.823	5.62
810.566	4.62
811.31	5.62
812.053	7.62
812.796	2.62
813.539	6.62
814.283	5.62
815.026	3.62
815.769	5.62
816.511	5.62
817.254	2.62
817.997	3.62
818.74	4.62
819.482	4.62
820.225	4.62
820.967	3.62
821.71	3.62
822.452	5.62
823.194	3.62
823.936	2.62
824.678	1.62
825.42	5.62
826.162	2.62
826.904	3.62
827.646	4.62
828.388	4.62
829.129	3.62
829.871	4.62
830.612	2.62
831.354	2.62
832.095	2.62
832.836	2.62
833.577	3.62
834.319	4.62
835.06	2.62
835.801	3.62
836.542	2.62
837.282	2.62
838.023	3.62
838.764	2.62
839.504	0.62
840.245	3.62
840.985	3.62
841.726	0.62
842.466	1.62
843.206	2.62
843.946	1.62
844.687	-0.38
845.427	2.62
846.166	3.62
846.906	2.62
847.646	2.62
848.386	1.62
849.125	3.62
849.865	2.62
850.605	1.62
851.344	1.62
852.083	0.62
852.823	1.62
853.562	4.62
854.301	2.62
855.04	-1.38
855.779	1.62
856.518	0.62
857.257	1.62
857.995	1.62
858.734	1.62
859.473	2.62
860.211	1.62
860.95	2.62
861.688	1.62
862.426	0.62
863.165	0.62
863.903	2.62
864.641	0.62
865.379	1.62
866.117	-0.38
866.855	0.62
867.593	1.62
868.33	1.62
869.068	1.62
869.806	0.62
870.543	0.62
871.28	2.62
872.018	1.62
872.755	-1.38
873.492	3.62
874.229	1.62
874.967	-0.38
875.703	-0.38
876.44	-0.38
877.177	0.62
877.914	0.62
878.651	1.62
879.387	-1.38
880.124	0.62
880.86	-0.38
881.597	0.62
882.333	1.62
883.069	-0.38
883.806	-0.38
884.542	1.62
885.278	-1.38
886.014	0.62
886.749	-1.38
887.485	0.62
888.221	0.62
888.957	-2.38
889.692	-0.38
890.428	0.62
891.163	0.62
891.899	-1.38
892.634	-0.38
893.369	1.62
894.104	-0.38
894.839	1.62
895.574	-0.38
896.309	0.62
897.044	0.62
897.779	0.62
898.514	0.62
899.248	0.62
899.983	0.62
900.717	1.62
901.452	-1.38
902.186	0.62
902.92	0.62
903.654	-0.38
904.389	0.62
905.123	-1.38
905.857	-0.38
906.59	0.62
907.324	2.62
908.058	-1.38
908.792	-1.38
909.525	-1.38
910.259	-1.38
910.992	-0.38
911.726	-1.38
912.459	-1.38
913.192	-1.38
913.925	-1.38
914.658	-1.38
915.391	0.62
916.124	1.62
916.857	-0.38
917.59	0.62
918.323	0.62
919.055	-2.38
919.788	0.62
920.521	0.62
921.253	0.62
921.985	2.62
922.718	-1.38
923.45	-1.38
924.182	-0.38
924.914	-0.38
925.646	-0.38
926.378	0.62
927.11	-0.38
927.841	-0.38
928.573	-0.38
929.305	-1.38
930.036	0.62
930.768	-0.38
931.499	-1.38
932.23	1.62
932.962	-0.38
933.693	1.62
934.424	-0.38
935.155	1.62
935.886	0.62
936.617	1.62
937.348	0.62
938.078	-0.38
938.809	-0.38
939.54	0.62
940.27	0.62
941.001	-0.38
941.731	0.62
942.461	1.62
943.191	-0.38
943.922	-1.38
944.652	1.62
945.382	-0.38
946.112	-0.38
946.841	-1.38
947.571	0.62
948.301	0.62
949.031	-0.38
949.76	-1.38
950.49	0.62
951.219	1.62
951.948	-1.38
952.678	0.62
953.407	0.62
954.136	-1.38
954.865	-2.38
955.594	0.62
956.323	0.62
957.052	-2.38
957.78	-0.38
958.509	0.62
959.238	0.62
959.966	0.62
960.695	0.62
961.423	-0.38
962.151	0.62
962.88	1.62
963.608	0.62
964.336	1.62
965.064	0.62
965.792	0.62
966.52	-1.38
967.247	0.62
967.975	0.62
968.703	0.62
969.43	-0.38
970.158	0.62
970.885	-1.38
971.613	-0.38
972.34	0.62
973.067	-0.38
973.794	-0.38
974.521	-0.38
975.248	-0.38
975.975	-2.38
976.702	-0.38
977.429	-1.38
978.156	-1.38
978.882	0.62
979.609	-0.38
980.335	0.62
981.062	0.62
981.788	-1.38
982.514	0.62
983.24	-0.38
983.967	-0.38
984.693	-1.38
985.419	-0.38
986.144	0.62
986.87	-0.38
987.596	-1.38
988.322	-1.38
989.047	1.62
989.773	-0.38
990.498	-1.38
991.224	0.62
991.949	-1.38
992.674	-2.38
993.399	0.62
994.124	-0.38
994.849	-1.38
995.574	-0.38
996.299	-0.38
997.024	-0.38
997.749	2.62
998.473	-0.38
999.198	-2.38
999.922	-1.38
1000.647	-0.38
1001.371	1.62
1002.095	-0.38
1002.82	-1.38
1003.544	-0.38
1004.268	0.62
1004.992	1.62
1005.716	2.62
1006.439	0.62
1007.163	1.62
1007.887	2.62
1008.611	-1.38
1009.334	-1.38
1010.058	-0.38
1010.781	0.62
1011.504	-1.38
1012.228	1.62
1012.951	-0.38
1013.674	1.62
1014.397	0.62
1015.12	-1.38
