节点500_285_QEPB04081__357__15-01-29-685.txt的数据

Date: Wed Nov 12 15:01:29 CST 2025
User: PC
Spectrometer: QEPB0408
触发模式: 0
积分时间 (秒): 1.000000E-2
Scans to average: 1
启用暗噪声校正: true
启用非线性校正: false
滑动平均宽度: 0
X轴模式: Wavelengths
Number of Pixels in Spectrum: 1044
>>>>>Begin Spectral Data<<<<<
220.843	1.75
221.644	1.75
222.444	1.75
223.244	1.75
224.045	2.75
224.845	-1.25
225.645	2.75
226.445	1.75
227.245	0.75
228.045	0.75
228.845	3.75
229.645	-0.25
230.444	1.75
231.244	4.75
232.043	0.75
232.843	1.75
233.642	3.75
234.442	3.75
235.241	3.75
236.04	3.75
236.839	0.75
237.638	3.75
238.437	3.75
239.236	1.75
240.035	2.75
240.833	4.75
241.632	3.75
242.43	2.75
243.229	4.75
244.027	5.75
244.826	3.75
245.624	4.75
246.422	5.75
247.22	6.75
248.018	4.75
248.816	4.75
249.614	5.75
250.412	7.75
251.21	7.75
252.007	6.75
252.805	5.75
253.602	9.75
254.4	6.75
255.197	7.75
255.994	7.75
256.791	7.75
257.589	9.75
258.386	7.75
259.183	9.75
259.979	9.75
260.776	8.75
261.573	9.75
262.37	8.75
263.166	11.75
263.963	7.75
264.759	11.75
265.556	10.75
266.352	13.75
267.148	11.75
267.944	13.75
268.74	13.75
269.536	13.75
270.332	11.75
271.128	16.75
271.924	13.75
272.719	15.75
273.515	14.75
274.311	16.75
275.106	16.75
275.901	16.75
276.697	16.75
277.492	16.75
278.287	16.75
279.082	16.75
279.877	18.75
280.672	17.75
281.467	19.75
282.262	18.75
283.056	16.75
283.851	21.75
284.646	17.75
285.44	17.75
286.234	17.75
287.029	19.75
287.823	20.75
288.617	17.75
289.411	17.75
290.205	20.75
290.999	16.75
291.793	17.75
292.587	17.75
293.381	16.75
294.174	14.75
294.968	14.75
295.761	17.75
296.555	14.75
297.348	15.75
298.141	12.75
298.935	17.75
299.728	14.75
300.521	13.75
301.314	16.75
302.107	13.75
302.899	13.75
303.692	13.75
304.485	14.75
305.277	11.75
306.07	13.75
306.862	12.75
307.655	11.75
308.447	11.75
309.239	11.75
310.031	12.75
310.823	13.75
311.615	9.75
312.407	12.75
313.199	10.75
313.991	9.75
314.783	8.75
315.574	7.75
316.366	8.75
317.157	9.75
317.949	7.75
318.74	7.75
319.531	6.75
320.322	8.75
321.113	6.75
321.904	9.75
322.695	5.75
323.486	7.75
324.277	8.75
325.068	6.75
325.858	6.75
326.649	7.75
327.439	5.75
328.23	7.75
329.02	3.75
329.81	5.75
330.6	6.75
331.391	5.75
332.181	7.75
332.971	7.75
333.76	6.75
334.55	6.75
335.34	7.75
336.13	6.75
336.919	6.75
337.709	5.75
338.498	9.75
339.287	6.75
340.077	6.75
340.866	8.75
341.655	3.75
342.444	6.75
343.233	6.75
344.022	6.75
344.811	5.75
345.6	3.75
346.388	6.75
347.177	6.75
347.965	5.75
348.754	3.75
349.542	5.75
350.33	7.75
351.119	6.75
351.907	6.75
352.695	5.75
353.483	6.75
354.271	5.75
355.059	5.75
355.846	4.75
356.634	3.75
357.422	6.75
358.209	5.75
358.997	2.75
359.784	5.75
360.571	3.75
361.359	4.75
362.146	3.75
362.933	5.75
363.72	7.75
364.507	2.75
365.294	5.75
366.081	4.75
366.867	4.75
367.654	3.75
368.44	3.75
369.227	3.75
370.013	4.75
370.8	5.75
371.586	4.75
372.372	3.75
373.158	6.75
373.944	6.75
374.73	5.75
375.516	4.75
376.302	4.75
377.088	2.75
377.873	3.75
378.659	3.75
379.445	2.75
380.23	4.75
381.015	4.75
381.801	6.75
382.586	3.75
383.371	5.75
384.156	6.75
384.941	6.75
385.726	6.75
386.511	3.75
387.296	5.75
388.08	3.75
388.865	5.75
389.649	5.75
390.434	4.75
391.218	5.75
392.003	6.75
392.787	5.75
393.571	5.75
394.355	5.75
395.139	6.75
395.923	4.75
396.707	6.75
397.491	6.75
398.274	6.75
399.058	5.75
399.842	6.75
400.625	8.75
401.408	7.75
402.192	5.75
402.975	6.75
403.758	7.75
404.541	6.75
405.324	6.75
406.107	6.75
406.89	7.75
407.673	6.75
408.456	8.75
409.238	5.75
410.021	6.75
410.803	6.75
411.586	9.75
412.368	9.75
413.151	10.75
413.933	8.75
414.715	7.75
415.497	9.75
416.279	7.75
417.061	11.75
417.843	8.75
418.624	10.75
419.406	11.75
420.188	9.75
420.969	9.75
421.751	10.75
422.532	8.75
423.313	10.75
424.095	9.75
424.876	11.75
425.657	9.75
426.438	12.75
427.219	11.75
428	11.75
428.78	11.75
429.561	11.75
430.342	12.75
431.122	15.75
431.903	16.75
432.683	15.75
433.464	15.75
434.244	14.75
435.024	15.75
435.804	16.75
436.584	17.75
437.364	19.75
438.144	20.75
438.924	16.75
439.704	20.75
440.483	21.75
441.263	26.75
442.042	24.75
442.822	28.75
443.601	31.75
444.38	29.75
445.16	31.75
445.939	32.75
446.718	35.75
447.497	39.75
448.276	44.75
449.054	47.75
449.833	48.75
450.612	53.75
451.391	55.75
452.169	62.75
452.948	70.75
453.726	72.75
454.504	80.75
455.282	88.75
456.061	99.75
456.839	110.75
457.617	128.75
458.395	129.75
459.172	152.75
459.95	171.75
460.728	179.75
461.506	208.75
462.283	225.75
463.061	260.75
463.838	288.75
464.615	327.75
465.393	359.75
466.17	399.75
466.947	454.75
467.724	493.75
468.501	546.75
469.278	616.75
470.055	689.75
470.831	763.75
471.608	863.75
472.385	960.75
473.161	1053.75
473.938	1173.75
474.714	1291.75
475.49	1413.75
476.266	1578.75
477.043	1741.75
477.819	1913.75
478.595	2129.75
479.371	2361.75
480.146	2589.75
480.922	2851.75
481.698	3145.75
482.473	3443.75
483.249	3811.75
484.024	4184.75
484.8	4629.75
485.575	5053.75
486.35	5560.75
487.126	6107.75
487.901	6695.75
488.676	7350.75
489.451	8042.75
490.225	8767.75
491	9593.75
491.775	10472.75
492.55	11406.75
493.324	12382.75
494.099	13378.75
494.873	14366.75
495.647	15516.75
496.422	16635.75
497.196	17789.75
497.97	19060.75
498.744	20273.75
499.518	21412.75
500.292	22487.75
501.066	23621.75
501.839	24541.75
502.613	25454.75
503.387	26234.75
504.16	26905.75
504.934	27212.75
505.707	27384.75
506.48	27421.75
507.253	27413.75
508.027	27120.75
508.8	26802.75
509.573	26332.75
510.346	25763.75
511.118	25072.75
511.891	24165.75
512.664	23369.75
513.437	22497.75
514.209	21604.75
514.982	20740.75
515.754	19760.75
516.526	18860.75
517.298	18091.75
518.071	17324.75
518.843	16638.75
519.615	15972.75
520.387	15331.75
521.159	14802.75
521.93	14191.75
522.702	13589.75
523.474	12998.75
524.245	12504.75
525.017	11913.75
525.788	11508.75
526.56	10973.75
527.331	10422.75
528.102	9987.75
528.873	9525.75
529.644	9062.75
530.415	8635.75
531.186	8177.75
531.957	7736.75
532.728	7333.75
533.498	6995.75
534.269	6593.75
535.039	6229.75
535.81	5867.75
536.58	5541.75
537.351	5231.75
538.121	4925.75
538.891	4701.75
539.661	4437.75
540.431	4159.75
541.201	3935.75
541.971	3722.75
542.741	3558.75
543.51	3364.75
544.28	3220.75
545.05	3049.75
545.819	2905.75
546.588	2746.75
547.358	2616.75
548.127	2496.75
548.896	2348.75
549.665	2235.75
550.434	2125.75
551.203	2020.75
551.972	1911.75
552.741	1795.75
553.51	1710.75
554.278	1603.75
555.047	1523.75
555.815	1426.75
556.584	1351.75
557.352	1277.75
558.121	1182.75
558.889	1130.75
559.657	1059.75
560.425	1011.75
561.193	947.75
561.961	897.75
562.729	855.75
563.496	806.75
564.264	754.75
565.032	725.75
565.799	678.75
566.567	639.75
567.334	611.75
568.101	575.75
568.869	537.75
569.636	510.75
570.403	477.75
571.17	451.75
571.937	423.75
572.704	404.75
573.471	380.75
574.237	356.75
575.004	339.75
575.771	319.75
576.537	296.75
577.303	282.75
578.07	265.75
578.836	240.75
579.602	232.75
580.368	223.75
581.134	210.75
581.9	204.75
582.666	189.75
583.432	179.75
584.198	171.75
584.964	162.75
585.729	151.75
586.495	146.75
587.26	140.75
588.025	127.75
588.791	125.75
589.556	113.75
590.321	116.75
591.086	107.75
591.851	98.75
592.616	96.75
593.381	88.75
594.146	84.75
594.911	83.75
595.675	77.75
596.44	77.75
597.204	71.75
597.969	67.75
598.733	65.75
599.497	62.75
600.261	60.75
601.025	54.75
601.79	56.75
602.553	52.75
603.317	48.75
604.081	48.75
604.845	45.75
605.609	39.75
606.372	41.75
607.136	41.75
607.899	38.75
608.662	38.75
609.426	33.75
610.189	35.75
610.952	34.75
611.715	33.75
612.478	31.75
613.241	29.75
614.004	29.75
614.767	27.75
615.529	24.75
616.292	24.75
617.055	23.75
617.817	21.75
618.579	22.75
619.342	19.75
620.104	21.75
620.866	21.75
621.628	20.75
622.39	19.75
623.152	19.75
623.914	16.75
624.676	18.75
625.438	14.75
626.199	15.75
626.961	14.75
627.722	16.75
628.484	13.75
629.245	13.75
630.006	12.75
630.768	13.75
631.529	13.75
632.29	14.75
633.051	10.75
633.812	11.75
634.573	10.75
635.333	9.75
636.094	11.75
636.855	10.75
637.615	11.75
638.376	10.75
639.136	8.75
639.896	9.75
640.657	8.75
641.417	10.75
642.177	7.75
642.937	11.75
643.697	7.75
644.457	6.75
645.216	7.75
645.976	7.75
646.736	7.75
647.495	7.75
648.255	6.75
649.014	6.75
649.774	5.75
650.533	7.75
651.292	7.75
652.051	8.75
652.81	7.75
653.569	5.75
654.328	6.75
655.087	5.75
655.846	7.75
656.604	6.75
657.363	4.75
658.121	5.75
658.88	5.75
659.638	5.75
660.397	3.75
661.155	7.75
661.913	4.75
662.671	4.75
663.429	3.75
664.187	5.75
664.945	7.75
665.703	3.75
666.46	6.75
667.218	3.75
667.976	4.75
668.733	3.75
669.49	5.75
670.248	6.75
671.005	6.75
671.762	3.75
672.519	4.75
673.276	2.75
674.033	6.75
674.79	3.75
675.547	4.75
676.304	3.75
677.06	3.75
677.817	5.75
678.574	3.75
679.33	5.75
680.086	4.75
680.843	4.75
681.599	1.75
682.355	4.75
683.111	3.75
683.867	3.75
684.623	4.75
685.379	3.75
686.135	4.75
686.89	3.75
687.646	2.75
688.402	3.75
689.157	2.75
689.912	3.75
690.668	2.75
691.423	3.75
692.178	5.75
692.933	3.75
693.688	4.75
694.443	2.75
695.198	1.75
695.953	4.75
696.708	4.75
697.462	3.75
698.217	3.75
698.972	3.75
699.726	2.75
700.48	2.75
701.235	3.75
701.989	3.75
702.743	4.75
703.497	1.75
704.251	3.75
705.005	4.75
705.759	5.75
706.513	2.75
707.266	3.75
708.02	3.75
708.774	1.75
709.527	5.75
710.28	3.75
711.034	1.75
711.787	1.75
712.54	3.75
713.293	2.75
714.046	4.75
714.799	3.75
715.552	4.75
716.305	1.75
717.058	4.75
717.81	2.75
718.563	1.75
719.315	3.75
720.068	0.75
720.82	3.75
721.573	1.75
722.325	3.75
723.077	3.75
723.829	2.75
724.581	5.75
725.333	4.75
726.085	3.75
726.836	3.75
727.588	3.75
728.34	3.75
729.091	4.75
729.843	4.75
730.594	3.75
731.346	2.75
732.097	1.75
732.848	1.75
733.599	3.75
734.35	5.75
735.101	5.75
735.852	0.75
736.603	5.75
737.354	4.75
738.104	4.75
738.855	5.75
739.605	4.75
740.356	5.75
741.106	3.75
741.856	5.75
742.607	5.75
743.357	5.75
744.107	4.75
744.857	5.75
745.607	4.75
746.357	3.75
747.106	8.75
747.856	5.75
748.606	4.75
749.355	5.75
750.105	4.75
750.854	4.75
751.603	4.75
752.353	4.75
753.102	5.75
753.851	5.75
754.6	4.75
755.349	2.75
756.098	5.75
756.847	6.75
757.595	8.75
758.344	5.75
759.093	4.75
759.841	5.75
760.589	3.75
761.338	7.75
762.086	6.75
762.834	7.75
763.582	4.75
764.331	4.75
765.079	7.75
765.826	5.75
766.574	3.75
767.322	7.75
768.07	8.75
768.817	7.75
769.565	6.75
770.312	9.75
771.06	6.75
771.807	7.75
772.554	6.75
773.302	4.75
774.049	7.75
774.796	7.75
775.543	6.75
776.29	10.75
777.036	6.75
777.783	9.75
778.53	6.75
779.276	9.75
780.023	7.75
780.769	9.75
781.516	9.75
782.262	9.75
783.008	9.75
783.754	6.75
784.5	7.75
785.246	8.75
785.992	7.75
786.738	8.75
787.484	8.75
788.23	9.75
788.975	5.75
789.721	9.75
790.466	9.75
791.212	7.75
791.957	10.75
792.702	8.75
793.447	6.75
794.193	6.75
794.938	7.75
795.683	6.75
796.427	7.75
797.172	8.75
797.917	6.75
798.662	7.75
799.406	6.75
800.151	7.75
800.895	6.75
801.64	6.75
802.384	9.75
803.128	7.75
803.872	6.75
804.616	5.75
805.36	5.75
806.104	4.75
806.848	5.75
807.592	6.75
808.336	6.75
809.079	6.75
809.823	3.75
810.566	3.75
811.31	5.75
812.053	4.75
812.796	7.75
813.539	3.75
814.283	4.75
815.026	4.75
815.769	5.75
816.511	6.75
817.254	1.75
817.997	4.75
818.74	3.75
819.482	5.75
820.225	6.75
820.967	3.75
821.71	3.75
822.452	3.75
823.194	5.75
823.936	4.75
824.678	4.75
825.42	3.75
826.162	3.75
826.904	4.75
827.646	4.75
828.388	4.75
829.129	1.75
829.871	3.75
830.612	4.75
831.354	2.75
832.095	3.75
832.836	1.75
833.577	1.75
834.319	0.75
835.06	2.75
835.801	4.75
836.542	3.75
837.282	3.75
838.023	1.75
838.764	1.75
839.504	0.75
840.245	3.75
840.985	0.75
841.726	3.75
842.466	0.75
843.206	-0.25
843.946	1.75
844.687	3.75
845.427	1.75
846.166	1.75
846.906	3.75
847.646	2.75
848.386	3.75
849.125	2.75
849.865	3.75
850.605	3.75
851.344	4.75
852.083	4.75
852.823	0.75
853.562	1.75
854.301	0.75
855.04	0.75
855.779	2.75
856.518	1.75
857.257	2.75
857.995	1.75
858.734	3.75
859.473	1.75
860.211	3.75
860.95	3.75
861.688	0.75
862.426	2.75
863.165	1.75
863.903	0.75
864.641	2.75
865.379	2.75
866.117	0.75
866.855	2.75
867.593	1.75
868.33	-0.25
869.068	1.75
869.806	2.75
870.543	0.75
871.28	0.75
872.018	-0.25
872.755	-0.25
873.492	1.75
874.229	0.75
874.967	2.75
875.703	0.75
876.44	1.75
877.177	0.75
877.914	1.75
878.651	1.75
879.387	2.75
880.124	1.75
880.86	0.75
881.597	0.75
882.333	1.75
883.069	2.75
883.806	2.75
884.542	0.75
885.278	1.75
886.014	1.75
886.749	0.75
887.485	1.75
888.221	2.75
888.957	1.75
889.692	1.75
890.428	1.75
891.163	0.75
891.899	-0.25
892.634	0.75
893.369	1.75
894.104	-1.25
894.839	0.75
895.574	1.75
896.309	0.75
897.044	-1.25
897.779	-0.25
898.514	1.75
899.248	-0.25
899.983	-2.25
900.717	0.75
901.452	0.75
902.186	0.75
902.92	2.75
903.654	1.75
904.389	3.75
905.123	-0.25
905.857	-2.25
906.59	1.75
907.324	0.75
908.058	1.75
908.792	-1.25
909.525	1.75
910.259	-0.25
910.992	0.75
911.726	3.75
912.459	-0.25
913.192	0.75
913.925	-1.25
914.658	1.75
915.391	1.75
916.124	0.75
916.857	-1.25
917.59	-1.25
918.323	-0.25
919.055	-0.25
919.788	1.75
920.521	0.75
921.253	-2.25
921.985	2.75
922.718	0.75
923.45	-0.25
924.182	1.75
924.914	1.75
925.646	-0.25
926.378	-0.25
927.11	-2.25
927.841	-0.25
928.573	-0.25
929.305	-1.25
930.036	1.75
930.768	-0.25
931.499	1.75
932.23	0.75
932.962	-0.25
933.693	1.75
934.424	0.75
935.155	0.75
935.886	1.75
936.617	-2.25
937.348	0.75
938.078	-0.25
938.809	-1.25
939.54	-0.25
940.27	0.75
941.001	-0.25
941.731	-1.25
942.461	-0.25
943.191	1.75
943.922	-0.25
944.652	-0.25
945.382	0.75
946.112	-1.25
946.841	0.75
947.571	1.75
948.301	-1.25
949.031	-0.25
949.76	1.75
950.49	2.75
951.219	-2.25
951.948	-2.25
952.678	0.75
953.407	-0.25
954.136	2.75
954.865	1.75
955.594	-0.25
956.323	0.75
957.052	-0.25
957.78	0.75
958.509	1.75
959.238	0.75
959.966	0.75
960.695	-0.25
961.423	-0.25
962.151	0.75
962.88	0.75
963.608	-1.25
964.336	-1.25
965.064	1.75
965.792	0.75
966.52	-1.25
967.247	0.75
967.975	0.75
968.703	2.75
969.43	-1.25
970.158	1.75
970.885	-0.25
971.613	-0.25
972.34	-1.25
973.067	0.75
973.794	1.75
974.521	-0.25
975.248	-2.25
975.975	1.75
976.702	-0.25
977.429	0.75
978.156	0.75
978.882	-0.25
979.609	-1.25
980.335	-0.25
981.062	-0.25
981.788	0.75
982.514	0.75
983.24	-0.25
983.967	1.75
984.693	-1.25
985.419	0.75
986.144	3.75
986.87	-0.25
987.596	-1.25
988.322	0.75
989.047	-1.25
989.773	0.75
990.498	-0.25
991.224	0.75
991.949	-2.25
992.674	1.75
993.399	0.75
994.124	2.75
994.849	-0.25
995.574	1.75
996.299	1.75
997.024	-0.25
997.749	0.75
998.473	0.75
999.198	-0.25
999.922	2.75
1000.647	-1.25
1001.371	4.75
1002.095	-2.25
1002.82	-1.25
1003.544	-0.25
1004.268	1.75
1004.992	-0.25
1005.716	-0.25
1006.439	0.75
1007.163	3.75
1007.887	2.75
1008.611	0.75
1009.334	0.75
1010.058	-0.25
1010.781	-0.25
1011.504	2.75
1012.228	-0.25
1012.951	-2.25
1013.674	1.75
1014.397	-0.25
1015.12	-0.25
