节点500_285_QEPB04081__598__15-05-30-190.txt的数据

Date: Wed Nov 12 15:05:30 CST 2025
User: PC
Spectrometer: QEPB0408
触发模式: 0
积分时间 (秒): 1.000000E-2
Scans to average: 1
启用暗噪声校正: true
启用非线性校正: false
滑动平均宽度: 0
X轴模式: Wavelengths
Number of Pixels in Spectrum: 1044
>>>>>Begin Spectral Data<<<<<
220.843	4.12
221.644	1.12
222.444	1.12
223.244	0.12
224.045	3.12
224.845	1.12
225.645	1.12
226.445	4.12
227.245	3.12
228.045	4.12
228.845	3.12
229.645	4.12
230.444	4.12
231.244	1.12
232.043	5.12
232.843	2.12
233.642	2.12
234.442	2.12
235.241	5.12
236.04	4.12
236.839	4.12
237.638	5.12
238.437	2.12
239.236	5.12
240.035	5.12
240.833	4.12
241.632	5.12
242.43	3.12
243.229	4.12
244.027	6.12
244.826	6.12
245.624	5.12
246.422	3.12
247.22	5.12
248.018	4.12
248.816	7.12
249.614	5.12
250.412	5.12
251.21	4.12
252.007	5.12
252.805	8.12
253.602	7.12
254.4	9.12
255.197	5.12
255.994	6.12
256.791	8.12
257.589	9.12
258.386	9.12
259.183	8.12
259.979	10.12
260.776	6.12
261.573	5.12
262.37	10.12
263.166	8.12
263.963	10.12
264.759	12.12
265.556	10.12
266.352	13.12
267.148	13.12
267.944	14.12
268.74	12.12
269.536	13.12
270.332	14.12
271.128	16.12
271.924	14.12
272.719	15.12
273.515	14.12
274.311	14.12
275.106	17.12
275.901	14.12
276.697	14.12
277.492	14.12
278.287	16.12
279.082	19.12
279.877	16.12
280.672	18.12
281.467	18.12
282.262	16.12
283.056	19.12
283.851	17.12
284.646	17.12
285.44	18.12
286.234	16.12
287.029	17.12
287.823	18.12
288.617	21.12
289.411	14.12
290.205	18.12
290.999	17.12
291.793	16.12
292.587	18.12
293.381	18.12
294.174	17.12
294.968	16.12
295.761	18.12
296.555	14.12
297.348	17.12
298.141	17.12
298.935	14.12
299.728	15.12
300.521	15.12
301.314	16.12
302.107	14.12
302.899	13.12
303.692	13.12
304.485	11.12
305.277	13.12
306.07	12.12
306.862	14.12
307.655	12.12
308.447	13.12
309.239	13.12
310.031	10.12
310.823	10.12
311.615	10.12
312.407	12.12
313.199	10.12
313.991	7.12
314.783	9.12
315.574	8.12
316.366	9.12
317.157	9.12
317.949	8.12
318.74	8.12
319.531	9.12
320.322	8.12
321.113	7.12
321.904	9.12
322.695	10.12
323.486	9.12
324.277	8.12
325.068	6.12
325.858	8.12
326.649	6.12
327.439	6.12
328.23	10.12
329.02	5.12
329.81	7.12
330.6	7.12
331.391	8.12
332.181	5.12
332.971	7.12
333.76	6.12
334.55	5.12
335.34	8.12
336.13	7.12
336.919	8.12
337.709	7.12
338.498	4.12
339.287	6.12
340.077	6.12
340.866	6.12
341.655	11.12
342.444	4.12
343.233	6.12
344.022	5.12
344.811	5.12
345.6	6.12
346.388	7.12
347.177	6.12
347.965	6.12
348.754	6.12
349.542	4.12
350.33	7.12
351.119	7.12
351.907	5.12
352.695	7.12
353.483	5.12
354.271	7.12
355.059	6.12
355.846	6.12
356.634	5.12
357.422	7.12
358.209	5.12
358.997	6.12
359.784	5.12
360.571	5.12
361.359	6.12
362.146	4.12
362.933	4.12
363.72	4.12
364.507	6.12
365.294	5.12
366.081	4.12
366.867	6.12
367.654	6.12
368.44	4.12
369.227	7.12
370.013	4.12
370.8	7.12
371.586	3.12
372.372	4.12
373.158	5.12
373.944	4.12
374.73	4.12
375.516	7.12
376.302	5.12
377.088	6.12
377.873	5.12
378.659	6.12
379.445	1.12
380.23	6.12
381.015	3.12
381.801	5.12
382.586	6.12
383.371	3.12
384.156	6.12
384.941	7.12
385.726	6.12
386.511	4.12
387.296	7.12
388.08	7.12
388.865	5.12
389.649	6.12
390.434	7.12
391.218	8.12
392.003	7.12
392.787	6.12
393.571	7.12
394.355	4.12
395.139	7.12
395.923	3.12
396.707	7.12
397.491	5.12
398.274	6.12
399.058	8.12
399.842	8.12
400.625	5.12
401.408	8.12
402.192	7.12
402.975	9.12
403.758	9.12
404.541	9.12
405.324	8.12
406.107	7.12
406.89	7.12
407.673	9.12
408.456	10.12
409.238	6.12
410.021	9.12
410.803	8.12
411.586	10.12
412.368	9.12
413.151	8.12
413.933	8.12
414.715	9.12
415.497	10.12
416.279	8.12
417.061	10.12
417.843	8.12
418.624	9.12
419.406	12.12
420.188	9.12
420.969	9.12
421.751	10.12
422.532	14.12
423.313	12.12
424.095	12.12
424.876	13.12
425.657	8.12
426.438	11.12
427.219	12.12
428	12.12
428.78	13.12
429.561	13.12
430.342	15.12
431.122	12.12
431.903	14.12
432.683	16.12
433.464	16.12
434.244	18.12
435.024	18.12
435.804	20.12
436.584	18.12
437.364	22.12
438.144	19.12
438.924	21.12
439.704	23.12
440.483	21.12
441.263	26.12
442.042	26.12
442.822	28.12
443.601	27.12
444.38	31.12
445.16	35.12
445.939	35.12
446.718	42.12
447.497	39.12
448.276	45.12
449.054	48.12
449.833	50.12
450.612	56.12
451.391	61.12
452.169	67.12
452.948	74.12
453.726	79.12
454.504	86.12
455.282	95.12
456.061	108.12
456.839	115.12
457.617	132.12
458.395	143.12
459.172	162.12
459.95	180.12
460.728	197.12
461.506	224.12
462.283	250.12
463.061	281.12
463.838	308.12
464.615	347.12
465.393	378.12
466.17	427.12
466.947	481.12
467.724	527.12
468.501	588.12
469.278	652.12
470.055	730.12
470.831	800.12
471.608	887.12
472.385	972.12
473.161	1086.12
473.938	1188.12
474.714	1317.12
475.49	1458.12
476.266	1603.12
477.043	1756.12
477.819	1954.12
478.595	2133.12
479.371	2359.12
480.146	2585.12
480.922	2826.12
481.698	3103.12
482.473	3420.12
483.249	3717.12
484.024	4097.12
484.8	4512.12
485.575	4891.12
486.35	5356.12
487.126	5855.12
487.901	6386.12
488.676	6966.12
489.451	7615.12
490.225	8307.12
491	9061.12
491.775	9830.12
492.55	10703.12
493.324	11562.12
494.099	12414.12
494.873	13288.12
495.647	14421.12
496.422	15404.12
497.196	16460.12
497.97	17635.12
498.744	18775.12
499.518	19794.12
500.292	20891.12
501.066	21924.12
501.839	22908.12
502.613	23823.12
503.387	24626.12
504.16	25313.12
504.934	25737.12
505.707	26007.12
506.48	26212.12
507.253	26247.12
508.027	26188.12
508.8	26049.12
509.573	25747.12
510.346	25250.12
511.118	24548.12
511.891	23929.12
512.664	23266.12
513.437	22543.12
514.209	21596.12
514.982	20820.12
515.754	19904.12
516.526	19115.12
517.298	18309.12
518.071	17482.12
518.843	16826.12
519.615	16212.12
520.387	15583.12
521.159	14984.12
521.93	14356.12
522.702	13832.12
523.474	13204.12
524.245	12677.12
525.017	12095.12
525.788	11711.12
526.56	11111.12
527.331	10657.12
528.102	10170.12
528.873	9717.12
529.644	9254.12
530.415	8841.12
531.186	8386.12
531.957	7961.12
532.728	7587.12
533.498	7218.12
534.269	6809.12
535.039	6462.12
535.81	6090.12
536.58	5776.12
537.351	5430.12
538.121	5108.12
538.891	4854.12
539.661	4598.12
540.431	4359.12
541.201	4121.12
541.971	3875.12
542.741	3686.12
543.51	3484.12
544.28	3350.12
545.05	3170.12
545.819	3022.12
546.588	2886.12
547.358	2738.12
548.127	2603.12
548.896	2434.12
549.665	2328.12
550.434	2204.12
551.203	2105.12
551.972	2000.12
552.741	1876.12
553.51	1792.12
554.278	1682.12
555.047	1596.12
555.815	1495.12
556.584	1414.12
557.352	1335.12
558.121	1254.12
558.889	1192.12
559.657	1126.12
560.425	1083.12
561.193	1013.12
561.961	953.12
562.729	902.12
563.496	849.12
564.264	805.12
565.032	752.12
565.799	715.12
566.567	681.12
567.334	649.12
568.101	606.12
568.869	568.12
569.636	540.12
570.403	515.12
571.17	481.12
571.937	452.12
572.704	424.12
573.471	397.12
574.237	382.12
575.004	356.12
575.771	341.12
576.537	310.12
577.303	301.12
578.07	280.12
578.836	265.12
579.602	246.12
580.368	232.12
581.134	224.12
581.9	207.12
582.666	203.12
583.432	184.12
584.198	178.12
584.964	170.12
585.729	163.12
586.495	154.12
587.26	141.12
588.025	138.12
588.791	126.12
589.556	124.12
590.321	117.12
591.086	112.12
591.851	106.12
592.616	103.12
593.381	94.12
594.146	90.12
594.911	87.12
595.675	83.12
596.44	79.12
597.204	74.12
597.969	72.12
598.733	68.12
599.497	67.12
600.261	59.12
601.025	61.12
601.79	56.12
602.553	52.12
603.317	54.12
604.081	46.12
604.845	47.12
605.609	47.12
606.372	44.12
607.136	43.12
607.899	40.12
608.662	37.12
609.426	37.12
610.189	38.12
610.952	32.12
611.715	34.12
612.478	33.12
613.241	27.12
614.004	29.12
614.767	29.12
615.529	28.12
616.292	26.12
617.055	28.12
617.817	26.12
618.579	22.12
619.342	27.12
620.104	19.12
620.866	21.12
621.628	22.12
622.39	19.12
623.152	20.12
623.914	17.12
624.676	19.12
625.438	19.12
626.199	21.12
626.961	17.12
627.722	17.12
628.484	15.12
629.245	14.12
630.006	14.12
630.768	14.12
631.529	14.12
632.29	14.12
633.051	12.12
633.812	13.12
634.573	10.12
635.333	11.12
636.094	10.12
636.855	7.12
637.615	12.12
638.376	9.12
639.136	9.12
639.896	11.12
640.657	11.12
641.417	11.12
642.177	10.12
642.937	9.12
643.697	7.12
644.457	9.12
645.216	7.12
645.976	11.12
646.736	9.12
647.495	6.12
648.255	8.12
649.014	9.12
649.774	7.12
650.533	8.12
651.292	7.12
652.051	7.12
652.81	4.12
653.569	7.12
654.328	9.12
655.087	5.12
655.846	6.12
656.604	8.12
657.363	8.12
658.121	9.12
658.88	5.12
659.638	4.12
660.397	7.12
661.155	5.12
661.913	4.12
662.671	4.12
663.429	5.12
664.187	7.12
664.945	6.12
665.703	6.12
666.46	6.12
667.218	6.12
667.976	5.12
668.733	5.12
669.49	5.12
670.248	3.12
671.005	4.12
671.762	6.12
672.519	3.12
673.276	5.12
674.033	2.12
674.79	6.12
675.547	3.12
676.304	6.12
677.06	5.12
677.817	4.12
678.574	6.12
679.33	3.12
680.086	3.12
680.843	3.12
681.599	2.12
682.355	3.12
683.111	4.12
683.867	6.12
684.623	5.12
685.379	4.12
686.135	3.12
686.89	3.12
687.646	5.12
688.402	5.12
689.157	2.12
689.912	3.12
690.668	3.12
691.423	2.12
692.178	6.12
692.933	3.12
693.688	6.12
694.443	2.12
695.198	3.12
695.953	2.12
696.708	4.12
697.462	5.12
698.217	6.12
698.972	7.12
699.726	3.12
700.48	3.12
701.235	4.12
701.989	4.12
702.743	4.12
703.497	5.12
704.251	5.12
705.005	2.12
705.759	4.12
706.513	2.12
707.266	4.12
708.02	2.12
708.774	4.12
709.527	3.12
710.28	4.12
711.034	3.12
711.787	2.12
712.54	5.12
713.293	2.12
714.046	4.12
714.799	4.12
715.552	2.12
716.305	4.12
717.058	1.12
717.81	2.12
718.563	5.12
719.315	4.12
720.068	3.12
720.82	6.12
721.573	6.12
722.325	2.12
723.077	4.12
723.829	2.12
724.581	4.12
725.333	4.12
726.085	5.12
726.836	3.12
727.588	3.12
728.34	4.12
729.091	6.12
729.843	3.12
730.594	4.12
731.346	5.12
732.097	4.12
732.848	4.12
733.599	5.12
734.35	4.12
735.101	5.12
735.852	2.12
736.603	4.12
737.354	5.12
738.104	2.12
738.855	3.12
739.605	5.12
740.356	4.12
741.106	4.12
741.856	4.12
742.607	4.12
743.357	6.12
744.107	4.12
744.857	6.12
745.607	5.12
746.357	5.12
747.106	5.12
747.856	5.12
748.606	5.12
749.355	5.12
750.105	6.12
750.854	2.12
751.603	5.12
752.353	2.12
753.102	5.12
753.851	6.12
754.6	6.12
755.349	4.12
756.098	6.12
756.847	5.12
757.595	5.12
758.344	5.12
759.093	3.12
759.841	7.12
760.589	7.12
761.338	6.12
762.086	5.12
762.834	4.12
763.582	7.12
764.331	8.12
765.079	5.12
765.826	5.12
766.574	5.12
767.322	7.12
768.07	6.12
768.817	9.12
769.565	8.12
770.312	7.12
771.06	8.12
771.807	7.12
772.554	7.12
773.302	7.12
774.049	7.12
774.796	7.12
775.543	8.12
776.29	7.12
777.036	7.12
777.783	7.12
778.53	6.12
779.276	8.12
780.023	9.12
780.769	8.12
781.516	8.12
782.262	9.12
783.008	8.12
783.754	8.12
784.5	8.12
785.246	7.12
785.992	8.12
786.738	10.12
787.484	9.12
788.23	9.12
788.975	6.12
789.721	9.12
790.466	9.12
791.212	7.12
791.957	8.12
792.702	8.12
793.447	8.12
794.193	9.12
794.938	6.12
795.683	10.12
796.427	5.12
797.172	8.12
797.917	7.12
798.662	10.12
799.406	8.12
800.151	7.12
800.895	8.12
801.64	7.12
802.384	7.12
803.128	7.12
803.872	5.12
804.616	9.12
805.36	8.12
806.104	5.12
806.848	6.12
807.592	6.12
808.336	6.12
809.079	4.12
809.823	7.12
810.566	7.12
811.31	4.12
812.053	7.12
812.796	6.12
813.539	5.12
814.283	7.12
815.026	6.12
815.769	5.12
816.511	3.12
817.254	4.12
817.997	5.12
818.74	2.12
819.482	4.12
820.225	7.12
820.967	4.12
821.71	5.12
822.452	3.12
823.194	6.12
823.936	4.12
824.678	5.12
825.42	2.12
826.162	5.12
826.904	4.12
827.646	2.12
828.388	2.12
829.129	5.12
829.871	5.12
830.612	2.12
831.354	2.12
832.095	3.12
832.836	6.12
833.577	2.12
834.319	5.12
835.06	4.12
835.801	3.12
836.542	2.12
837.282	3.12
838.023	4.12
838.764	4.12
839.504	4.12
840.245	3.12
840.985	4.12
841.726	5.12
842.466	2.12
843.206	3.12
843.946	2.12
844.687	0.12
845.427	3.12
846.166	3.12
846.906	2.12
847.646	6.12
848.386	3.12
849.125	2.12
849.865	3.12
850.605	2.12
851.344	3.12
852.083	3.12
852.823	4.12
853.562	4.12
854.301	4.12
855.04	1.12
855.779	4.12
856.518	0.12
857.257	2.12
857.995	1.12
858.734	2.12
859.473	3.12
860.211	-0.88
860.95	3.12
861.688	1.12
862.426	4.12
863.165	2.12
863.903	0.12
864.641	3.12
865.379	2.12
866.117	1.12
866.855	3.12
867.593	0.12
868.33	3.12
869.068	3.12
869.806	5.12
870.543	1.12
871.28	3.12
872.018	2.12
872.755	1.12
873.492	3.12
874.229	0.12
874.967	2.12
875.703	1.12
876.44	3.12
877.177	2.12
877.914	2.12
878.651	2.12
879.387	0.12
880.124	1.12
880.86	1.12
881.597	0.12
882.333	1.12
883.069	1.12
883.806	0.12
884.542	1.12
885.278	1.12
886.014	1.12
886.749	0.12
887.485	2.12
888.221	0.12
888.957	4.12
889.692	0.12
890.428	1.12
891.163	1.12
891.899	0.12
892.634	2.12
893.369	1.12
894.104	1.12
894.839	2.12
895.574	0.12
896.309	1.12
897.044	2.12
897.779	2.12
898.514	-2.88
899.248	2.12
899.983	1.12
900.717	2.12
901.452	3.12
902.186	-0.88
902.92	1.12
903.654	2.12
904.389	1.12
905.123	2.12
905.857	0.12
906.59	0.12
907.324	-0.88
908.058	0.12
908.792	0.12
909.525	1.12
910.259	2.12
910.992	0.12
911.726	2.12
912.459	0.12
913.192	1.12
913.925	1.12
914.658	0.12
915.391	0.12
916.124	1.12
916.857	0.12
917.59	0.12
918.323	2.12
919.055	0.12
919.788	-0.88
920.521	0.12
921.253	0.12
921.985	2.12
922.718	0.12
923.45	1.12
924.182	0.12
924.914	-0.88
925.646	2.12
926.378	1.12
927.11	2.12
927.841	0.12
928.573	1.12
929.305	3.12
930.036	0.12
930.768	1.12
931.499	1.12
932.23	0.12
932.962	-0.88
933.693	0.12
934.424	-0.88
935.155	0.12
935.886	2.12
936.617	-1.88
937.348	1.12
938.078	0.12
938.809	2.12
939.54	0.12
940.27	-2.88
941.001	1.12
941.731	0.12
942.461	-1.88
943.191	1.12
943.922	-0.88
944.652	2.12
945.382	0.12
946.112	2.12
946.841	0.12
947.571	0.12
948.301	0.12
949.031	0.12
949.76	1.12
950.49	1.12
951.219	0.12
951.948	0.12
952.678	-0.88
953.407	3.12
954.136	-1.88
954.865	-1.88
955.594	3.12
956.323	1.12
957.052	2.12
957.78	-1.88
958.509	0.12
959.238	1.12
959.966	1.12
960.695	0.12
961.423	1.12
962.151	2.12
962.88	1.12
963.608	2.12
964.336	0.12
965.064	-0.88
965.792	-0.88
966.52	-0.88
967.247	0.12
967.975	0.12
968.703	-0.88
969.43	0.12
970.158	1.12
970.885	0.12
971.613	0.12
972.34	2.12
973.067	-0.88
973.794	-1.88
974.521	1.12
975.248	1.12
975.975	-1.88
976.702	0.12
977.429	2.12
978.156	-0.88
978.882	0.12
979.609	-0.88
980.335	-0.88
981.062	1.12
981.788	-1.88
982.514	0.12
983.24	3.12
983.967	0.12
984.693	1.12
985.419	-1.88
986.144	1.12
986.87	-0.88
987.596	2.12
988.322	-1.88
989.047	3.12
989.773	0.12
990.498	1.12
991.224	-2.88
991.949	0.12
992.674	-0.88
993.399	-2.88
994.124	2.12
994.849	-0.88
995.574	0.12
996.299	0.12
997.024	0.12
997.749	0.12
998.473	-0.88
999.198	1.12
999.922	1.12
1000.647	-2.88
1001.371	4.12
1002.095	0.12
1002.82	-0.88
1003.544	-2.88
1004.268	1.12
1004.992	0.12
1005.716	0.12
1006.439	3.12
1007.163	1.12
1007.887	2.12
1008.611	-0.88
1009.334	-1.88
1010.058	1.12
1010.781	3.12
1011.504	-0.88
1012.228	1.12
1012.951	1.12
1013.674	0.12
1014.397	0.12
1015.12	-1.88
