节点500_285_QEPB04081__258__14-59-50-861.txt的数据

Date: Wed Nov 12 14:59:50 CST 2025
User: PC
Spectrometer: QEPB0408
触发模式: 0
积分时间 (秒): 1.000000E-2
Scans to average: 1
启用暗噪声校正: true
启用非线性校正: false
滑动平均宽度: 0
X轴模式: Wavelengths
Number of Pixels in Spectrum: 1044
>>>>>Begin Spectral Data<<<<<
220.843	2.88
221.644	0.88
222.444	2.88
223.244	0.88
224.045	2.88
224.845	3.88
225.645	2.88
226.445	1.88
227.245	-0.12
228.045	3.88
228.845	3.88
229.645	3.88
230.444	1.88
231.244	2.88
232.043	4.88
232.843	3.88
233.642	2.88
234.442	2.88
235.241	2.88
236.04	1.88
236.839	0.88
237.638	4.88
238.437	2.88
239.236	3.88
240.035	6.88
240.833	5.88
241.632	3.88
242.43	5.88
243.229	6.88
244.027	2.88
244.826	6.88
245.624	5.88
246.422	5.88
247.22	7.88
248.018	5.88
248.816	8.88
249.614	7.88
250.412	4.88
251.21	5.88
252.007	5.88
252.805	7.88
253.602	6.88
254.4	6.88
255.197	6.88
255.994	5.88
256.791	8.88
257.589	9.88
258.386	7.88
259.183	9.88
259.979	10.88
260.776	9.88
261.573	10.88
262.37	12.88
263.166	10.88
263.963	12.88
264.759	11.88
265.556	11.88
266.352	15.88
267.148	11.88
267.944	15.88
268.74	11.88
269.536	14.88
270.332	16.88
271.128	13.88
271.924	14.88
272.719	16.88
273.515	17.88
274.311	18.88
275.106	16.88
275.901	17.88
276.697	14.88
277.492	18.88
278.287	17.88
279.082	17.88
279.877	18.88
280.672	20.88
281.467	19.88
282.262	15.88
283.056	18.88
283.851	18.88
284.646	16.88
285.44	17.88
286.234	17.88
287.029	20.88
287.823	17.88
288.617	16.88
289.411	16.88
290.205	19.88
290.999	18.88
291.793	19.88
292.587	17.88
293.381	15.88
294.174	16.88
294.968	16.88
295.761	17.88
296.555	16.88
297.348	14.88
298.141	15.88
298.935	14.88
299.728	15.88
300.521	14.88
301.314	13.88
302.107	14.88
302.899	12.88
303.692	13.88
304.485	11.88
305.277	11.88
306.07	14.88
306.862	9.88
307.655	11.88
308.447	12.88
309.239	11.88
310.031	12.88
310.823	9.88
311.615	10.88
312.407	10.88
313.199	8.88
313.991	10.88
314.783	8.88
315.574	7.88
316.366	7.88
317.157	8.88
317.949	7.88
318.74	7.88
319.531	7.88
320.322	11.88
321.113	8.88
321.904	6.88
322.695	7.88
323.486	7.88
324.277	6.88
325.068	7.88
325.858	6.88
326.649	8.88
327.439	5.88
328.23	4.88
329.02	7.88
329.81	7.88
330.6	7.88
331.391	7.88
332.181	6.88
332.971	7.88
333.76	5.88
334.55	7.88
335.34	6.88
336.13	7.88
336.919	4.88
337.709	5.88
338.498	7.88
339.287	7.88
340.077	6.88
340.866	6.88
341.655	8.88
342.444	7.88
343.233	6.88
344.022	7.88
344.811	2.88
345.6	6.88
346.388	6.88
347.177	8.88
347.965	7.88
348.754	7.88
349.542	3.88
350.33	6.88
351.119	7.88
351.907	4.88
352.695	5.88
353.483	6.88
354.271	5.88
355.059	8.88
355.846	5.88
356.634	8.88
357.422	6.88
358.209	4.88
358.997	4.88
359.784	3.88
360.571	5.88
361.359	5.88
362.146	3.88
362.933	6.88
363.72	4.88
364.507	5.88
365.294	4.88
366.081	5.88
366.867	4.88
367.654	-0.12
368.44	7.88
369.227	6.88
370.013	5.88
370.8	4.88
371.586	5.88
372.372	3.88
373.158	4.88
373.944	6.88
374.73	2.88
375.516	5.88
376.302	6.88
377.088	5.88
377.873	5.88
378.659	3.88
379.445	6.88
380.23	5.88
381.015	5.88
381.801	6.88
382.586	5.88
383.371	4.88
384.156	5.88
384.941	5.88
385.726	5.88
386.511	5.88
387.296	4.88
388.08	4.88
388.865	5.88
389.649	4.88
390.434	5.88
391.218	3.88
392.003	6.88
392.787	6.88
393.571	4.88
394.355	7.88
395.139	4.88
395.923	8.88
396.707	7.88
397.491	4.88
398.274	6.88
399.058	7.88
399.842	4.88
400.625	8.88
401.408	7.88
402.192	6.88
402.975	5.88
403.758	7.88
404.541	5.88
405.324	8.88
406.107	6.88
406.89	9.88
407.673	8.88
408.456	7.88
409.238	7.88
410.021	8.88
410.803	9.88
411.586	8.88
412.368	7.88
413.151	9.88
413.933	9.88
414.715	10.88
415.497	9.88
416.279	9.88
417.061	9.88
417.843	8.88
418.624	12.88
419.406	8.88
420.188	9.88
420.969	11.88
421.751	8.88
422.532	10.88
423.313	8.88
424.095	9.88
424.876	12.88
425.657	12.88
426.438	12.88
427.219	13.88
428	12.88
428.78	12.88
429.561	12.88
430.342	13.88
431.122	13.88
431.903	14.88
432.683	14.88
433.464	13.88
434.244	16.88
435.024	16.88
435.804	16.88
436.584	18.88
437.364	20.88
438.144	20.88
438.924	20.88
439.704	21.88
440.483	22.88
441.263	26.88
442.042	26.88
442.822	28.88
443.601	27.88
444.38	29.88
445.16	29.88
445.939	31.88
446.718	35.88
447.497	37.88
448.276	42.88
449.054	42.88
449.833	49.88
450.612	54.88
451.391	56.88
452.169	59.88
452.948	68.88
453.726	74.88
454.504	79.88
455.282	88.88
456.061	95.88
456.839	102.88
457.617	121.88
458.395	131.88
459.172	152.88
459.95	163.88
460.728	184.88
461.506	204.88
462.283	230.88
463.061	251.88
463.838	283.88
464.615	314.88
465.393	353.88
466.17	392.88
466.947	434.88
467.724	486.88
468.501	544.88
469.278	610.88
470.055	682.88
470.831	761.88
471.608	848.88
472.385	944.88
473.161	1036.88
473.938	1153.88
474.714	1286.88
475.49	1428.88
476.266	1569.88
477.043	1738.88
477.819	1940.88
478.595	2123.88
479.371	2351.88
480.146	2572.88
480.922	2862.88
481.698	3133.88
482.473	3469.88
483.249	3867.88
484.024	4225.88
484.8	4687.88
485.575	5114.88
486.35	5633.88
487.126	6180.88
487.901	6822.88
488.676	7469.88
489.451	8189.88
490.225	8979.88
491	9794.88
491.775	10706.88
492.55	11700.88
493.324	12645.88
494.099	13707.88
494.873	14711.88
495.647	15889.88
496.422	17108.88
497.196	18305.88
497.97	19553.88
498.744	20745.88
499.518	21958.88
500.292	23007.88
501.066	24152.88
501.839	25090.88
502.613	25968.88
503.387	26752.88
504.16	27373.88
504.934	27668.88
505.707	27819.88
506.48	27856.88
507.253	27731.88
508.027	27437.88
508.8	27033.88
509.573	26513.88
510.346	25831.88
511.118	25066.88
511.891	24270.88
512.664	23309.88
513.437	22404.88
514.209	21446.88
514.982	20585.88
515.754	19684.88
516.526	18784.88
517.298	17946.88
518.071	17153.88
518.843	16521.88
519.615	15921.88
520.387	15308.88
521.159	14647.88
521.93	14027.88
522.702	13507.88
523.474	13044.88
524.245	12355.88
525.017	11872.88
525.788	11418.88
526.56	10906.88
527.331	10374.88
528.102	9929.88
528.873	9439.88
529.644	8975.88
530.415	8566.88
531.186	8094.88
531.957	7645.88
532.728	7283.88
533.498	6866.88
534.269	6491.88
535.039	6130.88
535.81	5773.88
536.58	5445.88
537.351	5158.88
538.121	4866.88
538.891	4629.88
539.661	4359.88
540.431	4112.88
541.201	3878.88
541.971	3684.88
542.741	3491.88
543.51	3326.88
544.28	3179.88
545.05	3026.88
545.819	2855.88
546.588	2723.88
547.358	2569.88
548.127	2445.88
548.896	2343.88
549.665	2215.88
550.434	2089.88
551.203	1982.88
551.972	1871.88
552.741	1771.88
553.51	1678.88
554.278	1581.88
555.047	1492.88
555.815	1403.88
556.584	1321.88
557.352	1262.88
558.121	1178.88
558.889	1119.88
559.657	1053.88
560.425	995.88
561.193	935.88
561.961	883.88
562.729	835.88
563.496	788.88
564.264	749.88
565.032	706.88
565.799	672.88
566.567	638.88
567.334	587.88
568.101	561.88
568.869	538.88
569.636	493.88
570.403	469.88
571.17	450.88
571.937	419.88
572.704	400.88
573.471	372.88
574.237	354.88
575.004	330.88
575.771	319.88
576.537	293.88
577.303	271.88
578.07	262.88
578.836	244.88
579.602	228.88
580.368	224.88
581.134	207.88
581.9	195.88
582.666	188.88
583.432	176.88
584.198	166.88
584.964	160.88
585.729	149.88
586.495	144.88
587.26	132.88
588.025	127.88
588.791	122.88
589.556	119.88
590.321	108.88
591.086	100.88
591.851	99.88
592.616	92.88
593.381	88.88
594.146	84.88
594.911	81.88
595.675	79.88
596.44	76.88
597.204	69.88
597.969	68.88
598.733	65.88
599.497	58.88
600.261	57.88
601.025	53.88
601.79	53.88
602.553	54.88
603.317	52.88
604.081	45.88
604.845	43.88
605.609	41.88
606.372	42.88
607.136	39.88
607.899	38.88
608.662	37.88
609.426	34.88
610.189	34.88
610.952	29.88
611.715	31.88
612.478	30.88
613.241	28.88
614.004	30.88
614.767	24.88
615.529	25.88
616.292	24.88
617.055	22.88
617.817	24.88
618.579	23.88
619.342	21.88
620.104	18.88
620.866	20.88
621.628	20.88
622.39	18.88
623.152	17.88
623.914	14.88
624.676	16.88
625.438	16.88
626.199	17.88
626.961	17.88
627.722	15.88
628.484	15.88
629.245	14.88
630.006	10.88
630.768	13.88
631.529	10.88
632.29	15.88
633.051	9.88
633.812	13.88
634.573	11.88
635.333	9.88
636.094	10.88
636.855	8.88
637.615	11.88
638.376	8.88
639.136	8.88
639.896	10.88
640.657	9.88
641.417	8.88
642.177	8.88
642.937	5.88
643.697	7.88
644.457	6.88
645.216	8.88
645.976	8.88
646.736	9.88
647.495	9.88
648.255	5.88
649.014	7.88
649.774	5.88
650.533	6.88
651.292	7.88
652.051	5.88
652.81	5.88
653.569	6.88
654.328	5.88
655.087	4.88
655.846	8.88
656.604	5.88
657.363	4.88
658.121	5.88
658.88	6.88
659.638	7.88
660.397	5.88
661.155	6.88
661.913	5.88
662.671	4.88
663.429	4.88
664.187	5.88
664.945	5.88
665.703	3.88
666.46	4.88
667.218	3.88
667.976	6.88
668.733	4.88
669.49	3.88
670.248	5.88
671.005	4.88
671.762	3.88
672.519	3.88
673.276	3.88
674.033	5.88
674.79	3.88
675.547	4.88
676.304	4.88
677.06	3.88
677.817	5.88
678.574	4.88
679.33	3.88
680.086	3.88
680.843	4.88
681.599	1.88
682.355	4.88
683.111	3.88
683.867	3.88
684.623	1.88
685.379	4.88
686.135	5.88
686.89	3.88
687.646	5.88
688.402	4.88
689.157	4.88
689.912	5.88
690.668	2.88
691.423	3.88
692.178	3.88
692.933	4.88
693.688	2.88
694.443	6.88
695.198	2.88
695.953	4.88
696.708	2.88
697.462	4.88
698.217	1.88
698.972	2.88
699.726	4.88
700.48	2.88
701.235	1.88
701.989	3.88
702.743	5.88
703.497	3.88
704.251	4.88
705.005	3.88
705.759	4.88
706.513	4.88
707.266	3.88
708.02	2.88
708.774	4.88
709.527	5.88
710.28	3.88
711.034	1.88
711.787	1.88
712.54	2.88
713.293	3.88
714.046	3.88
714.799	2.88
715.552	3.88
716.305	3.88
717.058	2.88
717.81	5.88
718.563	2.88
719.315	4.88
720.068	3.88
720.82	3.88
721.573	4.88
722.325	5.88
723.077	3.88
723.829	2.88
724.581	1.88
725.333	1.88
726.085	3.88
726.836	3.88
727.588	3.88
728.34	4.88
729.091	4.88
729.843	3.88
730.594	6.88
731.346	3.88
732.097	3.88
732.848	4.88
733.599	2.88
734.35	5.88
735.101	5.88
735.852	4.88
736.603	5.88
737.354	2.88
738.104	2.88
738.855	5.88
739.605	3.88
740.356	4.88
741.106	6.88
741.856	6.88
742.607	6.88
743.357	2.88
744.107	6.88
744.857	4.88
745.607	6.88
746.357	4.88
747.106	3.88
747.856	3.88
748.606	2.88
749.355	5.88
750.105	4.88
750.854	4.88
751.603	6.88
752.353	5.88
753.102	5.88
753.851	5.88
754.6	5.88
755.349	4.88
756.098	4.88
756.847	5.88
757.595	6.88
758.344	6.88
759.093	5.88
759.841	5.88
760.589	7.88
761.338	4.88
762.086	6.88
762.834	7.88
763.582	6.88
764.331	9.88
765.079	6.88
765.826	5.88
766.574	8.88
767.322	5.88
768.07	8.88
768.817	8.88
769.565	8.88
770.312	5.88
771.06	6.88
771.807	6.88
772.554	8.88
773.302	8.88
774.049	5.88
774.796	8.88
775.543	6.88
776.29	9.88
777.036	5.88
777.783	9.88
778.53	9.88
779.276	8.88
780.023	8.88
780.769	8.88
781.516	9.88
782.262	8.88
783.008	8.88
783.754	7.88
784.5	8.88
785.246	9.88
785.992	6.88
786.738	9.88
787.484	8.88
788.23	9.88
788.975	8.88
789.721	9.88
790.466	7.88
791.212	9.88
791.957	8.88
792.702	7.88
793.447	8.88
794.193	8.88
794.938	9.88
795.683	8.88
796.427	9.88
797.172	7.88
797.917	6.88
798.662	9.88
799.406	8.88
800.151	7.88
800.895	6.88
801.64	7.88
802.384	8.88
803.128	7.88
803.872	6.88
804.616	7.88
805.36	7.88
806.104	5.88
806.848	5.88
807.592	5.88
808.336	4.88
809.079	5.88
809.823	6.88
810.566	4.88
811.31	4.88
812.053	4.88
812.796	5.88
813.539	5.88
814.283	3.88
815.026	4.88
815.769	4.88
816.511	3.88
817.254	3.88
817.997	4.88
818.74	4.88
819.482	3.88
820.225	1.88
820.967	4.88
821.71	4.88
822.452	3.88
823.194	3.88
823.936	3.88
824.678	3.88
825.42	3.88
826.162	4.88
826.904	3.88
827.646	1.88
828.388	4.88
829.129	2.88
829.871	3.88
830.612	2.88
831.354	4.88
832.095	3.88
832.836	3.88
833.577	2.88
834.319	3.88
835.06	4.88
835.801	2.88
836.542	4.88
837.282	4.88
838.023	3.88
838.764	2.88
839.504	3.88
840.245	4.88
840.985	3.88
841.726	5.88
842.466	1.88
843.206	3.88
843.946	3.88
844.687	1.88
845.427	1.88
846.166	1.88
846.906	0.88
847.646	1.88
848.386	3.88
849.125	3.88
849.865	1.88
850.605	3.88
851.344	3.88
852.083	4.88
852.823	4.88
853.562	2.88
854.301	2.88
855.04	2.88
855.779	3.88
856.518	-0.12
857.257	1.88
857.995	2.88
858.734	0.88
859.473	3.88
860.211	3.88
860.95	0.88
861.688	5.88
862.426	0.88
863.165	1.88
863.903	1.88
864.641	2.88
865.379	0.88
866.117	0.88
866.855	0.88
867.593	1.88
868.33	2.88
869.068	3.88
869.806	2.88
870.543	3.88
871.28	-2.12
872.018	0.88
872.755	0.88
873.492	0.88
874.229	-0.12
874.967	-2.12
875.703	0.88
876.44	1.88
877.177	1.88
877.914	1.88
878.651	0.88
879.387	2.88
880.124	-3.12
880.86	0.88
881.597	-0.12
882.333	1.88
883.069	-0.12
883.806	2.88
884.542	0.88
885.278	-1.12
886.014	2.88
886.749	1.88
887.485	1.88
888.221	-0.12
888.957	1.88
889.692	1.88
890.428	0.88
891.163	0.88
891.899	-0.12
892.634	1.88
893.369	0.88
894.104	-0.12
894.839	1.88
895.574	0.88
896.309	1.88
897.044	2.88
897.779	1.88
898.514	2.88
899.248	0.88
899.983	0.88
900.717	0.88
901.452	1.88
902.186	0.88
902.92	0.88
903.654	1.88
904.389	-0.12
905.123	0.88
905.857	0.88
906.59	-0.12
907.324	-0.12
908.058	1.88
908.792	4.88
909.525	-0.12
910.259	-0.12
910.992	-0.12
911.726	-0.12
912.459	1.88
913.192	0.88
913.925	2.88
914.658	-1.12
915.391	-0.12
916.124	1.88
916.857	-2.12
917.59	1.88
918.323	-1.12
919.055	-1.12
919.788	-0.12
920.521	0.88
921.253	-0.12
921.985	0.88
922.718	-0.12
923.45	1.88
924.182	-0.12
924.914	-0.12
925.646	-1.12
926.378	2.88
927.11	0.88
927.841	0.88
928.573	0.88
929.305	-0.12
930.036	-1.12
930.768	-2.12
931.499	0.88
932.23	1.88
932.962	0.88
933.693	0.88
934.424	-3.12
935.155	-1.12
935.886	1.88
936.617	2.88
937.348	0.88
938.078	-0.12
938.809	-0.12
939.54	-0.12
940.27	3.88
941.001	-0.12
941.731	-0.12
942.461	2.88
943.191	0.88
943.922	2.88
944.652	-0.12
945.382	1.88
946.112	0.88
946.841	-0.12
947.571	0.88
948.301	0.88
949.031	0.88
949.76	-2.12
950.49	0.88
951.219	0.88
951.948	1.88
952.678	3.88
953.407	-0.12
954.136	-0.12
954.865	1.88
955.594	0.88
956.323	-0.12
957.052	-3.12
957.78	-0.12
958.509	1.88
959.238	0.88
959.966	1.88
960.695	0.88
961.423	-0.12
962.151	-2.12
962.88	0.88
963.608	-0.12
964.336	3.88
965.064	-0.12
965.792	-2.12
966.52	-1.12
967.247	-0.12
967.975	0.88
968.703	1.88
969.43	1.88
970.158	-0.12
970.885	0.88
971.613	2.88
972.34	-1.12
973.067	-2.12
973.794	-0.12
974.521	2.88
975.248	-0.12
975.975	0.88
976.702	-0.12
977.429	2.88
978.156	0.88
978.882	1.88
979.609	-3.12
980.335	1.88
981.062	0.88
981.788	-0.12
982.514	0.88
983.24	2.88
983.967	2.88
984.693	0.88
985.419	-0.12
986.144	-0.12
986.87	-0.12
987.596	1.88
988.322	-2.12
989.047	-1.12
989.773	-0.12
990.498	1.88
991.224	-1.12
991.949	2.88
992.674	-2.12
993.399	-0.12
994.124	-0.12
994.849	-2.12
995.574	1.88
996.299	-0.12
997.024	-0.12
997.749	-1.12
998.473	-0.12
999.198	-2.12
999.922	-0.12
1000.647	-0.12
1001.371	2.88
1002.095	0.88
1002.82	-0.12
1003.544	-1.12
1004.268	0.88
1004.992	-1.12
1005.716	-0.12
1006.439	1.88
1007.163	2.88
1007.887	-0.12
1008.611	2.88
1009.334	-0.12
1010.058	0.88
1010.781	-1.12
1011.504	0.88
1012.228	-0.12
1012.951	-2.12
1013.674	-0.12
1014.397	-1.12
1015.12	0.88
