节点500_285_QEPB04081__628__15-06-00-081.txt的数据

Date: Wed Nov 12 15:06:00 CST 2025
User: PC
Spectrometer: QEPB0408
触发模式: 0
积分时间 (秒): 1.000000E-2
Scans to average: 1
启用暗噪声校正: true
启用非线性校正: false
滑动平均宽度: 0
X轴模式: Wavelengths
Number of Pixels in Spectrum: 1044
>>>>>Begin Spectral Data<<<<<
220.843	1.75
221.644	-0.25
222.444	-1.25
223.244	3.75
224.045	1.75
224.845	1.75
225.645	3.75
226.445	3.75
227.245	0.75
228.045	0.75
228.845	1.75
229.645	1.75
230.444	2.75
231.244	0.75
232.043	3.75
232.843	3.75
233.642	4.75
234.442	6.75
235.241	1.75
236.04	-0.25
236.839	3.75
237.638	2.75
238.437	2.75
239.236	1.75
240.035	4.75
240.833	4.75
241.632	3.75
242.43	4.75
243.229	4.75
244.027	5.75
244.826	4.75
245.624	4.75
246.422	4.75
247.22	4.75
248.018	7.75
248.816	5.75
249.614	2.75
250.412	7.75
251.21	5.75
252.007	5.75
252.805	8.75
253.602	8.75
254.4	6.75
255.197	7.75
255.994	7.75
256.791	5.75
257.589	6.75
258.386	7.75
259.183	8.75
259.979	10.75
260.776	7.75
261.573	9.75
262.37	7.75
263.166	11.75
263.963	9.75
264.759	11.75
265.556	11.75
266.352	12.75
267.148	11.75
267.944	10.75
268.74	12.75
269.536	8.75
270.332	9.75
271.128	13.75
271.924	12.75
272.719	13.75
273.515	16.75
274.311	14.75
275.106	16.75
275.901	16.75
276.697	15.75
277.492	16.75
278.287	15.75
279.082	15.75
279.877	17.75
280.672	15.75
281.467	15.75
282.262	17.75
283.056	14.75
283.851	17.75
284.646	14.75
285.44	15.75
286.234	16.75
287.029	17.75
287.823	22.75
288.617	17.75
289.411	18.75
290.205	15.75
290.999	16.75
291.793	17.75
292.587	12.75
293.381	18.75
294.174	14.75
294.968	15.75
295.761	13.75
296.555	16.75
297.348	13.75
298.141	16.75
298.935	14.75
299.728	11.75
300.521	14.75
301.314	11.75
302.107	13.75
302.899	15.75
303.692	13.75
304.485	12.75
305.277	13.75
306.07	12.75
306.862	13.75
307.655	11.75
308.447	13.75
309.239	10.75
310.031	11.75
310.823	10.75
311.615	9.75
312.407	8.75
313.199	8.75
313.991	10.75
314.783	6.75
315.574	9.75
316.366	9.75
317.157	9.75
317.949	8.75
318.74	8.75
319.531	7.75
320.322	7.75
321.113	9.75
321.904	8.75
322.695	6.75
323.486	8.75
324.277	7.75
325.068	6.75
325.858	3.75
326.649	5.75
327.439	2.75
328.23	8.75
329.02	4.75
329.81	4.75
330.6	5.75
331.391	5.75
332.181	5.75
332.971	6.75
333.76	4.75
334.55	7.75
335.34	5.75
336.13	6.75
336.919	6.75
337.709	6.75
338.498	8.75
339.287	6.75
340.077	5.75
340.866	7.75
341.655	5.75
342.444	7.75
343.233	5.75
344.022	7.75
344.811	4.75
345.6	7.75
346.388	4.75
347.177	6.75
347.965	4.75
348.754	6.75
349.542	6.75
350.33	3.75
351.119	6.75
351.907	5.75
352.695	6.75
353.483	6.75
354.271	5.75
355.059	5.75
355.846	6.75
356.634	5.75
357.422	3.75
358.209	6.75
358.997	3.75
359.784	3.75
360.571	6.75
361.359	4.75
362.146	3.75
362.933	6.75
363.72	6.75
364.507	5.75
365.294	3.75
366.081	5.75
366.867	6.75
367.654	3.75
368.44	5.75
369.227	0.75
370.013	3.75
370.8	3.75
371.586	3.75
372.372	4.75
373.158	5.75
373.944	4.75
374.73	3.75
375.516	4.75
376.302	4.75
377.088	3.75
377.873	3.75
378.659	2.75
379.445	6.75
380.23	4.75
381.015	2.75
381.801	3.75
382.586	3.75
383.371	5.75
384.156	1.75
384.941	6.75
385.726	4.75
386.511	5.75
387.296	5.75
388.08	6.75
388.865	5.75
389.649	5.75
390.434	7.75
391.218	5.75
392.003	4.75
392.787	5.75
393.571	4.75
394.355	5.75
395.139	6.75
395.923	9.75
396.707	5.75
397.491	6.75
398.274	6.75
399.058	6.75
399.842	6.75
400.625	5.75
401.408	8.75
402.192	9.75
402.975	6.75
403.758	6.75
404.541	7.75
405.324	6.75
406.107	7.75
406.89	8.75
407.673	8.75
408.456	6.75
409.238	8.75
410.021	6.75
410.803	6.75
411.586	7.75
412.368	5.75
413.151	9.75
413.933	7.75
414.715	7.75
415.497	10.75
416.279	9.75
417.061	10.75
417.843	7.75
418.624	10.75
419.406	10.75
420.188	9.75
420.969	9.75
421.751	10.75
422.532	9.75
423.313	9.75
424.095	11.75
424.876	9.75
425.657	12.75
426.438	11.75
427.219	12.75
428	12.75
428.78	12.75
429.561	11.75
430.342	12.75
431.122	14.75
431.903	14.75
432.683	13.75
433.464	13.75
434.244	15.75
435.024	13.75
435.804	17.75
436.584	16.75
437.364	16.75
438.144	21.75
438.924	22.75
439.704	20.75
440.483	22.75
441.263	23.75
442.042	26.75
442.822	26.75
443.601	29.75
444.38	32.75
445.16	31.75
445.939	34.75
446.718	36.75
447.497	38.75
448.276	45.75
449.054	47.75
449.833	51.75
450.612	54.75
451.391	62.75
452.169	64.75
452.948	70.75
453.726	76.75
454.504	87.75
455.282	100.75
456.061	104.75
456.839	114.75
457.617	133.75
458.395	147.75
459.172	163.75
459.95	178.75
460.728	199.75
461.506	223.75
462.283	249.75
463.061	279.75
463.838	304.75
464.615	350.75
465.393	392.75
466.17	436.75
466.947	469.75
467.724	531.75
468.501	583.75
469.278	658.75
470.055	723.75
470.831	806.75
471.608	894.75
472.385	985.75
473.161	1088.75
473.938	1192.75
474.714	1320.75
475.49	1470.75
476.266	1594.75
477.043	1756.75
477.819	1935.75
478.595	2120.75
479.371	2356.75
480.146	2578.75
480.922	2819.75
481.698	3092.75
482.473	3362.75
483.249	3704.75
484.024	4051.75
484.8	4432.75
485.575	4854.75
486.35	5312.75
487.126	5809.75
487.901	6361.75
488.676	6889.75
489.451	7524.75
490.225	8178.75
491	8901.75
491.775	9692.75
492.55	10511.75
493.324	11392.75
494.099	12228.75
494.873	13143.75
495.647	14173.75
496.422	15181.75
497.196	16271.75
497.97	17382.75
498.744	18435.75
499.518	19565.75
500.292	20565.75
501.066	21600.75
501.839	22559.75
502.613	23461.75
503.387	24306.75
504.16	24992.75
504.934	25472.75
505.707	25770.75
506.48	25956.75
507.253	25985.75
508.027	25970.75
508.8	25820.75
509.573	25597.75
510.346	25049.75
511.118	24571.75
511.891	23851.75
512.664	23125.75
513.437	22380.75
514.209	21601.75
514.982	20839.75
515.754	19887.75
516.526	19042.75
517.298	18321.75
518.071	17539.75
518.843	16796.75
519.615	16244.75
520.387	15570.75
521.159	14937.75
521.93	14344.75
522.702	13805.75
523.474	13213.75
524.245	12617.75
525.017	12177.75
525.788	11637.75
526.56	11178.75
527.331	10651.75
528.102	10184.75
528.873	9741.75
529.644	9269.75
530.415	8873.75
531.186	8431.75
531.957	7988.75
532.728	7614.75
533.498	7208.75
534.269	6850.75
535.039	6480.75
535.81	6132.75
536.58	5778.75
537.351	5458.75
538.121	5150.75
538.891	4892.75
539.661	4645.75
540.431	4360.75
541.201	4118.75
541.971	3896.75
542.741	3698.75
543.51	3502.75
544.28	3335.75
545.05	3191.75
545.819	3010.75
546.588	2881.75
547.358	2750.75
548.127	2605.75
548.896	2465.75
549.665	2339.75
550.434	2221.75
551.203	2093.75
551.972	1982.75
552.741	1889.75
553.51	1787.75
554.278	1681.75
555.047	1589.75
555.815	1495.75
556.584	1417.75
557.352	1361.75
558.121	1268.75
558.889	1201.75
559.657	1126.75
560.425	1072.75
561.193	1021.75
561.961	954.75
562.729	909.75
563.496	855.75
564.264	807.75
565.032	756.75
565.799	723.75
566.567	679.75
567.334	640.75
568.101	612.75
568.869	581.75
569.636	538.75
570.403	504.75
571.17	476.75
571.937	454.75
572.704	429.75
573.471	408.75
574.237	377.75
575.004	360.75
575.771	338.75
576.537	314.75
577.303	301.75
578.07	285.75
578.836	262.75
579.602	250.75
580.368	234.75
581.134	221.75
581.9	216.75
582.666	194.75
583.432	189.75
584.198	184.75
584.964	170.75
585.729	166.75
586.495	152.75
587.26	148.75
588.025	138.75
588.791	128.75
589.556	123.75
590.321	115.75
591.086	108.75
591.851	108.75
592.616	99.75
593.381	90.75
594.146	91.75
594.911	87.75
595.675	81.75
596.44	79.75
597.204	74.75
597.969	73.75
598.733	67.75
599.497	67.75
600.261	60.75
601.025	59.75
601.79	55.75
602.553	55.75
603.317	50.75
604.081	47.75
604.845	47.75
605.609	50.75
606.372	43.75
607.136	42.75
607.899	38.75
608.662	39.75
609.426	36.75
610.189	33.75
610.952	35.75
611.715	29.75
612.478	34.75
613.241	28.75
614.004	28.75
614.767	31.75
615.529	27.75
616.292	28.75
617.055	27.75
617.817	23.75
618.579	24.75
619.342	21.75
620.104	22.75
620.866	22.75
621.628	21.75
622.39	15.75
623.152	18.75
623.914	19.75
624.676	19.75
625.438	16.75
626.199	15.75
626.961	14.75
627.722	13.75
628.484	14.75
629.245	14.75
630.006	12.75
630.768	13.75
631.529	13.75
632.29	15.75
633.051	9.75
633.812	14.75
634.573	12.75
635.333	11.75
636.094	10.75
636.855	12.75
637.615	11.75
638.376	10.75
639.136	10.75
639.896	9.75
640.657	8.75
641.417	7.75
642.177	8.75
642.937	9.75
643.697	8.75
644.457	8.75
645.216	8.75
645.976	6.75
646.736	7.75
647.495	8.75
648.255	7.75
649.014	7.75
649.774	7.75
650.533	7.75
651.292	6.75
652.051	7.75
652.81	8.75
653.569	6.75
654.328	6.75
655.087	7.75
655.846	8.75
656.604	6.75
657.363	5.75
658.121	2.75
658.88	4.75
659.638	6.75
660.397	5.75
661.155	4.75
661.913	1.75
662.671	4.75
663.429	5.75
664.187	3.75
664.945	7.75
665.703	3.75
666.46	5.75
667.218	6.75
667.976	2.75
668.733	4.75
669.49	4.75
670.248	4.75
671.005	3.75
671.762	5.75
672.519	4.75
673.276	4.75
674.033	3.75
674.79	4.75
675.547	4.75
676.304	2.75
677.06	3.75
677.817	4.75
678.574	3.75
679.33	2.75
680.086	2.75
680.843	5.75
681.599	2.75
682.355	4.75
683.111	2.75
683.867	3.75
684.623	3.75
685.379	4.75
686.135	5.75
686.89	2.75
687.646	1.75
688.402	5.75
689.157	2.75
689.912	4.75
690.668	0.75
691.423	3.75
692.178	2.75
692.933	4.75
693.688	3.75
694.443	3.75
695.198	3.75
695.953	1.75
696.708	3.75
697.462	3.75
698.217	3.75
698.972	4.75
699.726	2.75
700.48	2.75
701.235	2.75
701.989	3.75
702.743	0.75
703.497	3.75
704.251	1.75
705.005	3.75
705.759	3.75
706.513	3.75
707.266	2.75
708.02	6.75
708.774	0.75
709.527	4.75
710.28	2.75
711.034	3.75
711.787	2.75
712.54	4.75
713.293	0.75
714.046	3.75
714.799	4.75
715.552	3.75
716.305	4.75
717.058	4.75
717.81	4.75
718.563	4.75
719.315	2.75
720.068	4.75
720.82	2.75
721.573	3.75
722.325	2.75
723.077	-0.25
723.829	0.75
724.581	2.75
725.333	2.75
726.085	3.75
726.836	4.75
727.588	3.75
728.34	3.75
729.091	3.75
729.843	6.75
730.594	2.75
731.346	4.75
732.097	3.75
732.848	5.75
733.599	0.75
734.35	2.75
735.101	2.75
735.852	3.75
736.603	3.75
737.354	0.75
738.104	2.75
738.855	2.75
739.605	3.75
740.356	4.75
741.106	4.75
741.856	4.75
742.607	3.75
743.357	3.75
744.107	2.75
744.857	3.75
745.607	6.75
746.357	-1.25
747.106	4.75
747.856	4.75
748.606	4.75
749.355	5.75
750.105	4.75
750.854	5.75
751.603	4.75
752.353	3.75
753.102	5.75
753.851	5.75
754.6	7.75
755.349	4.75
756.098	6.75
756.847	3.75
757.595	8.75
758.344	3.75
759.093	5.75
759.841	5.75
760.589	6.75
761.338	5.75
762.086	3.75
762.834	8.75
763.582	7.75
764.331	4.75
765.079	5.75
765.826	7.75
766.574	8.75
767.322	4.75
768.07	8.75
768.817	7.75
769.565	4.75
770.312	6.75
771.06	6.75
771.807	6.75
772.554	7.75
773.302	7.75
774.049	5.75
774.796	5.75
775.543	6.75
776.29	6.75
777.036	6.75
777.783	8.75
778.53	8.75
779.276	9.75
780.023	5.75
780.769	7.75
781.516	6.75
782.262	8.75
783.008	9.75
783.754	7.75
784.5	7.75
785.246	8.75
785.992	7.75
786.738	7.75
787.484	7.75
788.23	9.75
788.975	8.75
789.721	7.75
790.466	8.75
791.212	6.75
791.957	7.75
792.702	9.75
793.447	8.75
794.193	9.75
794.938	6.75
795.683	7.75
796.427	8.75
797.172	4.75
797.917	8.75
798.662	9.75
799.406	6.75
800.151	4.75
800.895	4.75
801.64	6.75
802.384	6.75
803.128	6.75
803.872	4.75
804.616	4.75
805.36	5.75
806.104	5.75
806.848	8.75
807.592	3.75
808.336	4.75
809.079	5.75
809.823	4.75
810.566	6.75
811.31	4.75
812.053	3.75
812.796	4.75
813.539	3.75
814.283	4.75
815.026	3.75
815.769	5.75
816.511	4.75
817.254	6.75
817.997	2.75
818.74	2.75
819.482	3.75
820.225	4.75
820.967	4.75
821.71	2.75
822.452	2.75
823.194	3.75
823.936	4.75
824.678	3.75
825.42	3.75
826.162	4.75
826.904	4.75
827.646	3.75
828.388	4.75
829.129	5.75
829.871	3.75
830.612	4.75
831.354	6.75
832.095	1.75
832.836	4.75
833.577	2.75
834.319	1.75
835.06	3.75
835.801	4.75
836.542	3.75
837.282	3.75
838.023	2.75
838.764	3.75
839.504	2.75
840.245	1.75
840.985	2.75
841.726	3.75
842.466	4.75
843.206	3.75
843.946	3.75
844.687	1.75
845.427	0.75
846.166	4.75
846.906	1.75
847.646	1.75
848.386	1.75
849.125	1.75
849.865	2.75
850.605	3.75
851.344	3.75
852.083	2.75
852.823	4.75
853.562	2.75
854.301	1.75
855.04	0.75
855.779	3.75
856.518	1.75
857.257	1.75
857.995	1.75
858.734	1.75
859.473	3.75
860.211	0.75
860.95	1.75
861.688	4.75
862.426	3.75
863.165	2.75
863.903	1.75
864.641	1.75
865.379	0.75
866.117	3.75
866.855	2.75
867.593	1.75
868.33	1.75
869.068	-2.25
869.806	0.75
870.543	-0.25
871.28	0.75
872.018	2.75
872.755	-0.25
873.492	-0.25
874.229	1.75
874.967	0.75
875.703	0.75
876.44	1.75
877.177	0.75
877.914	-2.25
878.651	0.75
879.387	0.75
880.124	1.75
880.86	1.75
881.597	0.75
882.333	3.75
883.069	1.75
883.806	1.75
884.542	0.75
885.278	1.75
886.014	1.75
886.749	1.75
887.485	1.75
888.221	0.75
888.957	-0.25
889.692	-0.25
890.428	0.75
891.163	-2.25
891.899	1.75
892.634	2.75
893.369	-0.25
894.104	-0.25
894.839	0.75
895.574	-0.25
896.309	-0.25
897.044	1.75
897.779	-1.25
898.514	0.75
899.248	1.75
899.983	1.75
900.717	0.75
901.452	-0.25
902.186	0.75
902.92	-0.25
903.654	-0.25
904.389	0.75
905.123	-2.25
905.857	-0.25
906.59	2.75
907.324	0.75
908.058	2.75
908.792	0.75
909.525	-1.25
910.259	0.75
910.992	1.75
911.726	-0.25
912.459	0.75
913.192	0.75
913.925	1.75
914.658	0.75
915.391	0.75
916.124	0.75
916.857	1.75
917.59	0.75
918.323	-1.25
919.055	2.75
919.788	-0.25
920.521	-0.25
921.253	0.75
921.985	0.75
922.718	-0.25
923.45	-0.25
924.182	-0.25
924.914	-0.25
925.646	-1.25
926.378	-1.25
927.11	1.75
927.841	-0.25
928.573	-0.25
929.305	0.75
930.036	-1.25
930.768	0.75
931.499	1.75
932.23	-2.25
932.962	0.75
933.693	-0.25
934.424	-0.25
935.155	-1.25
935.886	2.75
936.617	-2.25
937.348	-0.25
938.078	0.75
938.809	-2.25
939.54	-1.25
940.27	-0.25
941.001	0.75
941.731	0.75
942.461	1.75
943.191	0.75
943.922	1.75
944.652	0.75
945.382	-1.25
946.112	-0.25
946.841	-1.25
947.571	-0.25
948.301	-0.25
949.031	-1.25
949.76	0.75
950.49	0.75
951.219	-0.25
951.948	-0.25
952.678	-1.25
953.407	-1.25
954.136	0.75
954.865	0.75
955.594	0.75
956.323	0.75
957.052	0.75
957.78	-1.25
958.509	-0.25
959.238	-0.25
959.966	-2.25
960.695	0.75
961.423	-2.25
962.151	1.75
962.88	-0.25
963.608	0.75
964.336	1.75
965.064	0.75
965.792	-0.25
966.52	-2.25
967.247	0.75
967.975	-0.25
968.703	0.75
969.43	0.75
970.158	1.75
970.885	1.75
971.613	-0.25
972.34	-0.25
973.067	0.75
973.794	0.75
974.521	1.75
975.248	1.75
975.975	-0.25
976.702	0.75
977.429	1.75
978.156	-1.25
978.882	0.75
979.609	-0.25
980.335	-0.25
981.062	-0.25
981.788	-0.25
982.514	-0.25
983.24	-0.25
983.967	-1.25
984.693	1.75
985.419	-0.25
986.144	0.75
986.87	0.75
987.596	-1.25
988.322	-0.25
989.047	0.75
989.773	0.75
990.498	-2.25
991.224	-1.25
991.949	-0.25
992.674	-0.25
993.399	1.75
994.124	0.75
994.849	0.75
995.574	0.75
996.299	2.75
997.024	-1.25
997.749	0.75
998.473	0.75
999.198	-0.25
999.922	0.75
1000.647	-2.25
1001.371	2.75
1002.095	0.75
1002.82	-2.25
1003.544	-2.25
1004.268	-0.25
1004.992	-1.25
1005.716	-0.25
1006.439	2.75
1007.163	4.75
1007.887	2.75
1008.611	-1.25
1009.334	-2.25
1010.058	-1.25
1010.781	0.75
1011.504	-0.25
1012.228	-1.25
1012.951	-1.25
1013.674	1.75
1014.397	0.75
1015.12	-0.25
