节点500_285_QEPB04081__766__15-08-17-801.txt的数据

Date: Wed Nov 12 15:08:17 CST 2025
User: PC
Spectrometer: QEPB0408
触发模式: 0
积分时间 (秒): 1.000000E-2
Scans to average: 1
启用暗噪声校正: true
启用非线性校正: false
滑动平均宽度: 0
X轴模式: Wavelengths
Number of Pixels in Spectrum: 1044
>>>>>Begin Spectral Data<<<<<
220.843	0.12
221.644	0.12
222.444	0.12
223.244	3.12
224.045	3.12
224.845	1.12
225.645	2.12
226.445	2.12
227.245	3.12
228.045	3.12
228.845	1.12
229.645	5.12
230.444	2.12
231.244	3.12
232.043	4.12
232.843	3.12
233.642	5.12
234.442	1.12
235.241	4.12
236.04	5.12
236.839	2.12
237.638	4.12
238.437	4.12
239.236	2.12
240.035	3.12
240.833	4.12
241.632	3.12
242.43	4.12
243.229	8.12
244.027	4.12
244.826	7.12
245.624	4.12
246.422	4.12
247.22	6.12
248.018	5.12
248.816	4.12
249.614	7.12
250.412	7.12
251.21	4.12
252.007	8.12
252.805	5.12
253.602	5.12
254.4	9.12
255.197	7.12
255.994	9.12
256.791	7.12
257.589	9.12
258.386	6.12
259.183	8.12
259.979	7.12
260.776	8.12
261.573	11.12
262.37	10.12
263.166	9.12
263.963	10.12
264.759	9.12
265.556	12.12
266.352	10.12
267.148	10.12
267.944	13.12
268.74	11.12
269.536	11.12
270.332	14.12
271.128	14.12
271.924	14.12
272.719	14.12
273.515	14.12
274.311	12.12
275.106	16.12
275.901	13.12
276.697	17.12
277.492	13.12
278.287	16.12
279.082	16.12
279.877	14.12
280.672	18.12
281.467	15.12
282.262	19.12
283.056	18.12
283.851	20.12
284.646	14.12
285.44	17.12
286.234	18.12
287.029	15.12
287.823	17.12
288.617	18.12
289.411	15.12
290.205	17.12
290.999	14.12
291.793	18.12
292.587	17.12
293.381	17.12
294.174	16.12
294.968	14.12
295.761	16.12
296.555	14.12
297.348	16.12
298.141	16.12
298.935	17.12
299.728	12.12
300.521	15.12
301.314	16.12
302.107	14.12
302.899	13.12
303.692	15.12
304.485	13.12
305.277	14.12
306.07	11.12
306.862	15.12
307.655	13.12
308.447	11.12
309.239	16.12
310.031	13.12
310.823	9.12
311.615	11.12
312.407	9.12
313.199	9.12
313.991	9.12
314.783	7.12
315.574	8.12
316.366	9.12
317.157	7.12
317.949	9.12
318.74	7.12
319.531	5.12
320.322	9.12
321.113	8.12
321.904	7.12
322.695	8.12
323.486	7.12
324.277	8.12
325.068	6.12
325.858	7.12
326.649	5.12
327.439	7.12
328.23	6.12
329.02	8.12
329.81	5.12
330.6	6.12
331.391	8.12
332.181	6.12
332.971	9.12
333.76	3.12
334.55	6.12
335.34	7.12
336.13	7.12
336.919	7.12
337.709	4.12
338.498	5.12
339.287	6.12
340.077	5.12
340.866	4.12
341.655	5.12
342.444	9.12
343.233	6.12
344.022	9.12
344.811	6.12
345.6	5.12
346.388	6.12
347.177	3.12
347.965	5.12
348.754	5.12
349.542	9.12
350.33	7.12
351.119	7.12
351.907	4.12
352.695	7.12
353.483	4.12
354.271	6.12
355.059	5.12
355.846	6.12
356.634	4.12
357.422	5.12
358.209	4.12
358.997	4.12
359.784	3.12
360.571	0.12
361.359	4.12
362.146	7.12
362.933	6.12
363.72	6.12
364.507	7.12
365.294	7.12
366.081	7.12
366.867	7.12
367.654	3.12
368.44	7.12
369.227	5.12
370.013	3.12
370.8	5.12
371.586	6.12
372.372	2.12
373.158	6.12
373.944	5.12
374.73	4.12
375.516	5.12
376.302	8.12
377.088	7.12
377.873	5.12
378.659	5.12
379.445	6.12
380.23	8.12
381.015	3.12
381.801	7.12
382.586	5.12
383.371	4.12
384.156	4.12
384.941	6.12
385.726	3.12
386.511	2.12
387.296	2.12
388.08	6.12
388.865	6.12
389.649	6.12
390.434	7.12
391.218	5.12
392.003	7.12
392.787	4.12
393.571	6.12
394.355	7.12
395.139	5.12
395.923	7.12
396.707	7.12
397.491	5.12
398.274	5.12
399.058	7.12
399.842	6.12
400.625	8.12
401.408	6.12
402.192	5.12
402.975	9.12
403.758	8.12
404.541	6.12
405.324	6.12
406.107	8.12
406.89	7.12
407.673	6.12
408.456	6.12
409.238	9.12
410.021	7.12
410.803	7.12
411.586	8.12
412.368	9.12
413.151	9.12
413.933	9.12
414.715	8.12
415.497	9.12
416.279	9.12
417.061	8.12
417.843	9.12
418.624	8.12
419.406	9.12
420.188	10.12
420.969	10.12
421.751	11.12
422.532	12.12
423.313	12.12
424.095	11.12
424.876	12.12
425.657	12.12
426.438	9.12
427.219	13.12
428	12.12
428.78	13.12
429.561	14.12
430.342	14.12
431.122	14.12
431.903	15.12
432.683	17.12
433.464	17.12
434.244	14.12
435.024	18.12
435.804	15.12
436.584	21.12
437.364	21.12
438.144	18.12
438.924	22.12
439.704	22.12
440.483	21.12
441.263	21.12
442.042	26.12
442.822	27.12
443.601	28.12
444.38	35.12
445.16	31.12
445.939	36.12
446.718	40.12
447.497	39.12
448.276	45.12
449.054	49.12
449.833	51.12
450.612	54.12
451.391	62.12
452.169	71.12
452.948	78.12
453.726	82.12
454.504	89.12
455.282	105.12
456.061	109.12
456.839	125.12
457.617	134.12
458.395	149.12
459.172	168.12
459.95	185.12
460.728	209.12
461.506	234.12
462.283	256.12
463.061	289.12
463.838	321.12
464.615	356.12
465.393	395.12
466.17	447.12
466.947	501.12
467.724	547.12
468.501	606.12
469.278	669.12
470.055	743.12
470.831	816.12
471.608	898.12
472.385	992.12
473.161	1093.12
473.938	1217.12
474.714	1342.12
475.49	1471.12
476.266	1617.12
477.043	1768.12
477.819	1938.12
478.595	2137.12
479.371	2336.12
480.146	2553.12
480.922	2819.12
481.698	3071.12
482.473	3335.12
483.249	3661.12
484.024	3977.12
484.8	4375.12
485.575	4728.12
486.35	5174.12
487.126	5631.12
487.901	6139.12
488.676	6666.12
489.451	7292.12
490.225	7907.12
491	8577.12
491.775	9302.12
492.55	10103.12
493.324	10937.12
494.099	11693.12
494.873	12576.12
495.647	13561.12
496.422	14513.12
497.196	15582.12
497.97	16567.12
498.744	17622.12
499.518	18638.12
500.292	19657.12
501.066	20672.12
501.839	21622.12
502.613	22520.12
503.387	23282.12
504.16	23974.12
504.934	24533.12
505.707	24857.12
506.48	25127.12
507.253	25267.12
508.027	25246.12
508.8	25141.12
509.573	25041.12
510.346	24635.12
511.118	24191.12
511.891	23604.12
512.664	22944.12
513.437	22282.12
514.209	21533.12
514.982	20707.12
515.754	19889.12
516.526	19079.12
517.298	18305.12
518.071	17511.12
518.843	16888.12
519.615	16305.12
520.387	15637.12
521.159	15026.12
521.93	14455.12
522.702	13825.12
523.474	13311.12
524.245	12732.12
525.017	12230.12
525.788	11778.12
526.56	11194.12
527.331	10721.12
528.102	10259.12
528.873	9831.12
529.644	9357.12
530.415	8945.12
531.186	8531.12
531.957	8099.12
532.728	7766.12
533.498	7361.12
534.269	6953.12
535.039	6586.12
535.81	6234.12
536.58	5882.12
537.351	5533.12
538.121	5250.12
538.891	4974.12
539.661	4717.12
540.431	4445.12
541.201	4215.12
541.971	3976.12
542.741	3770.12
543.51	3584.12
544.28	3427.12
545.05	3239.12
545.819	3081.12
546.588	2935.12
547.358	2788.12
548.127	2653.12
548.896	2510.12
549.665	2388.12
550.434	2263.12
551.203	2147.12
551.972	2052.12
552.741	1921.12
553.51	1842.12
554.278	1732.12
555.047	1642.12
555.815	1536.12
556.584	1458.12
557.352	1382.12
558.121	1317.12
558.889	1236.12
559.657	1165.12
560.425	1104.12
561.193	1027.12
561.961	975.12
562.729	922.12
563.496	870.12
564.264	835.12
565.032	791.12
565.799	740.12
566.567	705.12
567.334	668.12
568.101	631.12
568.869	578.12
569.636	556.12
570.403	508.12
571.17	489.12
571.937	469.12
572.704	443.12
573.471	415.12
574.237	395.12
575.004	368.12
575.771	350.12
576.537	320.12
577.303	308.12
578.07	298.12
578.836	272.12
579.602	257.12
580.368	247.12
581.134	234.12
581.9	216.12
582.666	209.12
583.432	200.12
584.198	188.12
584.964	176.12
585.729	166.12
586.495	163.12
587.26	154.12
588.025	143.12
588.791	134.12
589.556	132.12
590.321	120.12
591.086	112.12
591.851	111.12
592.616	104.12
593.381	96.12
594.146	93.12
594.911	86.12
595.675	86.12
596.44	82.12
597.204	76.12
597.969	72.12
598.733	69.12
599.497	70.12
600.261	67.12
601.025	61.12
601.79	60.12
602.553	54.12
603.317	54.12
604.081	50.12
604.845	50.12
605.609	46.12
606.372	43.12
607.136	42.12
607.899	44.12
608.662	37.12
609.426	37.12
610.189	37.12
610.952	35.12
611.715	33.12
612.478	29.12
613.241	31.12
614.004	29.12
614.767	28.12
615.529	26.12
616.292	31.12
617.055	24.12
617.817	27.12
618.579	25.12
619.342	25.12
620.104	22.12
620.866	19.12
621.628	21.12
622.39	20.12
623.152	18.12
623.914	19.12
624.676	22.12
625.438	19.12
626.199	16.12
626.961	16.12
627.722	16.12
628.484	18.12
629.245	13.12
630.006	13.12
630.768	13.12
631.529	13.12
632.29	12.12
633.051	11.12
633.812	11.12
634.573	14.12
635.333	11.12
636.094	14.12
636.855	11.12
637.615	10.12
638.376	11.12
639.136	9.12
639.896	8.12
640.657	12.12
641.417	10.12
642.177	10.12
642.937	10.12
643.697	7.12
644.457	6.12
645.216	8.12
645.976	9.12
646.736	10.12
647.495	7.12
648.255	9.12
649.014	8.12
649.774	7.12
650.533	8.12
651.292	6.12
652.051	6.12
652.81	7.12
653.569	8.12
654.328	7.12
655.087	6.12
655.846	7.12
656.604	5.12
657.363	8.12
658.121	5.12
658.88	6.12
659.638	7.12
660.397	4.12
661.155	3.12
661.913	7.12
662.671	5.12
663.429	4.12
664.187	7.12
664.945	6.12
665.703	5.12
666.46	5.12
667.218	3.12
667.976	7.12
668.733	6.12
669.49	2.12
670.248	5.12
671.005	6.12
671.762	5.12
672.519	4.12
673.276	1.12
674.033	4.12
674.79	3.12
675.547	3.12
676.304	5.12
677.06	5.12
677.817	5.12
678.574	3.12
679.33	5.12
680.086	2.12
680.843	4.12
681.599	1.12
682.355	5.12
683.111	5.12
683.867	2.12
684.623	5.12
685.379	4.12
686.135	6.12
686.89	3.12
687.646	3.12
688.402	4.12
689.157	3.12
689.912	5.12
690.668	4.12
691.423	5.12
692.178	5.12
692.933	3.12
693.688	2.12
694.443	2.12
695.198	4.12
695.953	2.12
696.708	4.12
697.462	5.12
698.217	3.12
698.972	5.12
699.726	4.12
700.48	5.12
701.235	5.12
701.989	5.12
702.743	4.12
703.497	3.12
704.251	5.12
705.005	5.12
705.759	3.12
706.513	3.12
707.266	2.12
708.02	3.12
708.774	1.12
709.527	4.12
710.28	3.12
711.034	2.12
711.787	3.12
712.54	4.12
713.293	3.12
714.046	5.12
714.799	4.12
715.552	4.12
716.305	3.12
717.058	4.12
717.81	5.12
718.563	4.12
719.315	4.12
720.068	3.12
720.82	2.12
721.573	5.12
722.325	2.12
723.077	2.12
723.829	4.12
724.581	3.12
725.333	5.12
726.085	4.12
726.836	6.12
727.588	5.12
728.34	3.12
729.091	1.12
729.843	2.12
730.594	5.12
731.346	2.12
732.097	4.12
732.848	4.12
733.599	3.12
734.35	4.12
735.101	6.12
735.852	5.12
736.603	5.12
737.354	3.12
738.104	3.12
738.855	6.12
739.605	5.12
740.356	5.12
741.106	6.12
741.856	2.12
742.607	4.12
743.357	6.12
744.107	5.12
744.857	6.12
745.607	7.12
746.357	7.12
747.106	5.12
747.856	5.12
748.606	3.12
749.355	5.12
750.105	5.12
750.854	5.12
751.603	5.12
752.353	5.12
753.102	5.12
753.851	3.12
754.6	6.12
755.349	6.12
756.098	7.12
756.847	4.12
757.595	4.12
758.344	4.12
759.093	7.12
759.841	2.12
760.589	5.12
761.338	8.12
762.086	6.12
762.834	6.12
763.582	5.12
764.331	5.12
765.079	7.12
765.826	5.12
766.574	5.12
767.322	8.12
768.07	7.12
768.817	7.12
769.565	7.12
770.312	6.12
771.06	8.12
771.807	7.12
772.554	6.12
773.302	9.12
774.049	7.12
774.796	7.12
775.543	8.12
776.29	6.12
777.036	7.12
777.783	8.12
778.53	9.12
779.276	7.12
780.023	8.12
780.769	8.12
781.516	6.12
782.262	8.12
783.008	5.12
783.754	9.12
784.5	10.12
785.246	9.12
785.992	6.12
786.738	10.12
787.484	10.12
788.23	6.12
788.975	6.12
789.721	7.12
790.466	6.12
791.212	8.12
791.957	7.12
792.702	10.12
793.447	7.12
794.193	8.12
794.938	7.12
795.683	8.12
796.427	7.12
797.172	6.12
797.917	7.12
798.662	7.12
799.406	8.12
800.151	7.12
800.895	10.12
801.64	9.12
802.384	5.12
803.128	9.12
803.872	7.12
804.616	6.12
805.36	5.12
806.104	4.12
806.848	8.12
807.592	7.12
808.336	5.12
809.079	6.12
809.823	7.12
810.566	4.12
811.31	2.12
812.053	4.12
812.796	5.12
813.539	5.12
814.283	5.12
815.026	6.12
815.769	6.12
816.511	4.12
817.254	4.12
817.997	5.12
818.74	6.12
819.482	5.12
820.225	5.12
820.967	4.12
821.71	3.12
822.452	4.12
823.194	3.12
823.936	5.12
824.678	4.12
825.42	3.12
826.162	4.12
826.904	4.12
827.646	4.12
828.388	4.12
829.129	6.12
829.871	4.12
830.612	2.12
831.354	6.12
832.095	2.12
832.836	5.12
833.577	2.12
834.319	2.12
835.06	2.12
835.801	1.12
836.542	4.12
837.282	4.12
838.023	5.12
838.764	5.12
839.504	3.12
840.245	2.12
840.985	4.12
841.726	3.12
842.466	2.12
843.206	3.12
843.946	3.12
844.687	3.12
845.427	5.12
846.166	3.12
846.906	3.12
847.646	3.12
848.386	4.12
849.125	4.12
849.865	1.12
850.605	3.12
851.344	2.12
852.083	2.12
852.823	1.12
853.562	1.12
854.301	4.12
855.04	2.12
855.779	2.12
856.518	2.12
857.257	1.12
857.995	1.12
858.734	3.12
859.473	1.12
860.211	1.12
860.95	1.12
861.688	2.12
862.426	1.12
863.165	2.12
863.903	0.12
864.641	3.12
865.379	2.12
866.117	1.12
866.855	2.12
867.593	5.12
868.33	1.12
869.068	1.12
869.806	2.12
870.543	4.12
871.28	2.12
872.018	1.12
872.755	1.12
873.492	-0.88
874.229	1.12
874.967	1.12
875.703	3.12
876.44	1.12
877.177	2.12
877.914	-0.88
878.651	2.12
879.387	-0.88
880.124	2.12
880.86	-0.88
881.597	1.12
882.333	1.12
883.069	0.12
883.806	1.12
884.542	1.12
885.278	3.12
886.014	3.12
886.749	1.12
887.485	2.12
888.221	1.12
888.957	1.12
889.692	0.12
890.428	-0.88
891.163	1.12
891.899	0.12
892.634	1.12
893.369	2.12
894.104	2.12
894.839	1.12
895.574	1.12
896.309	1.12
897.044	2.12
897.779	2.12
898.514	-1.88
899.248	1.12
899.983	0.12
900.717	1.12
901.452	1.12
902.186	1.12
902.92	2.12
903.654	1.12
904.389	0.12
905.123	0.12
905.857	1.12
906.59	1.12
907.324	-0.88
908.058	0.12
908.792	1.12
909.525	1.12
910.259	1.12
910.992	0.12
911.726	1.12
912.459	-1.88
913.192	3.12
913.925	2.12
914.658	2.12
915.391	0.12
916.124	2.12
916.857	2.12
917.59	0.12
918.323	2.12
919.055	0.12
919.788	-0.88
920.521	1.12
921.253	-1.88
921.985	2.12
922.718	1.12
923.45	2.12
924.182	0.12
924.914	2.12
925.646	0.12
926.378	0.12
927.11	3.12
927.841	-1.88
928.573	1.12
929.305	1.12
930.036	2.12
930.768	1.12
931.499	1.12
932.23	2.12
932.962	0.12
933.693	-1.88
934.424	-1.88
935.155	-0.88
935.886	0.12
936.617	-1.88
937.348	0.12
938.078	1.12
938.809	0.12
939.54	1.12
940.27	0.12
941.001	1.12
941.731	0.12
942.461	-0.88
943.191	1.12
943.922	1.12
944.652	2.12
945.382	-3.88
946.112	2.12
946.841	-0.88
947.571	2.12
948.301	-0.88
949.031	-1.88
949.76	1.12
950.49	1.12
951.219	2.12
951.948	1.12
952.678	1.12
953.407	0.12
954.136	-0.88
954.865	2.12
955.594	-1.88
956.323	1.12
957.052	2.12
957.78	0.12
958.509	0.12
959.238	0.12
959.966	0.12
960.695	-0.88
961.423	-0.88
962.151	-1.88
962.88	-1.88
963.608	0.12
964.336	-1.88
965.064	0.12
965.792	0.12
966.52	1.12
967.247	1.12
967.975	0.12
968.703	0.12
969.43	0.12
970.158	0.12
970.885	1.12
971.613	0.12
972.34	1.12
973.067	0.12
973.794	1.12
974.521	-1.88
975.248	1.12
975.975	1.12
976.702	2.12
977.429	-1.88
978.156	2.12
978.882	0.12
979.609	-1.88
980.335	0.12
981.062	0.12
981.788	2.12
982.514	-0.88
983.24	-0.88
983.967	1.12
984.693	-1.88
985.419	1.12
986.144	-1.88
986.87	0.12
987.596	0.12
988.322	0.12
989.047	0.12
989.773	-0.88
990.498	2.12
991.224	1.12
991.949	1.12
992.674	1.12
993.399	2.12
994.124	-1.88
994.849	3.12
995.574	0.12
996.299	1.12
997.024	1.12
997.749	0.12
998.473	-1.88
999.198	1.12
999.922	0.12
1000.647	1.12
1001.371	4.12
1002.095	-0.88
1002.82	-1.88
1003.544	0.12
1004.268	0.12
1004.992	1.12
1005.716	2.12
1006.439	0.12
1007.163	3.12
1007.887	1.12
1008.611	2.12
1009.334	0.12
1010.058	-0.88
1010.781	-0.88
1011.504	-1.88
1012.228	0.12
1012.951	2.12
1013.674	-1.88
1014.397	-1.88
1015.12	0.12
