节点500_285_QEPB04081__606__15-05-38-148.txt的数据

Date: Wed Nov 12 15:05:38 CST 2025
User: PC
Spectrometer: QEPB0408
触发模式: 0
积分时间 (秒): 1.000000E-2
Scans to average: 1
启用暗噪声校正: true
启用非线性校正: false
滑动平均宽度: 0
X轴模式: Wavelengths
Number of Pixels in Spectrum: 1044
>>>>>Begin Spectral Data<<<<<
220.843	1.12
221.644	3.12
222.444	1.12
223.244	1.12
224.045	1.12
224.845	1.12
225.645	5.12
226.445	2.12
227.245	3.12
228.045	0.12
228.845	3.12
229.645	3.12
230.444	2.12
231.244	2.12
232.043	2.12
232.843	5.12
233.642	3.12
234.442	4.12
235.241	4.12
236.04	3.12
236.839	4.12
237.638	3.12
238.437	4.12
239.236	4.12
240.035	3.12
240.833	3.12
241.632	4.12
242.43	4.12
243.229	7.12
244.027	4.12
244.826	5.12
245.624	5.12
246.422	6.12
247.22	7.12
248.018	6.12
248.816	6.12
249.614	5.12
250.412	5.12
251.21	6.12
252.007	7.12
252.805	5.12
253.602	8.12
254.4	7.12
255.197	5.12
255.994	9.12
256.791	9.12
257.589	9.12
258.386	10.12
259.183	9.12
259.979	8.12
260.776	11.12
261.573	13.12
262.37	8.12
263.166	11.12
263.963	11.12
264.759	10.12
265.556	11.12
266.352	12.12
267.148	10.12
267.944	14.12
268.74	16.12
269.536	12.12
270.332	15.12
271.128	14.12
271.924	16.12
272.719	14.12
273.515	16.12
274.311	12.12
275.106	16.12
275.901	16.12
276.697	17.12
277.492	16.12
278.287	16.12
279.082	18.12
279.877	15.12
280.672	18.12
281.467	15.12
282.262	18.12
283.056	17.12
283.851	18.12
284.646	15.12
285.44	17.12
286.234	19.12
287.029	21.12
287.823	18.12
288.617	21.12
289.411	16.12
290.205	19.12
290.999	16.12
291.793	16.12
292.587	16.12
293.381	17.12
294.174	18.12
294.968	19.12
295.761	17.12
296.555	15.12
297.348	16.12
298.141	15.12
298.935	14.12
299.728	14.12
300.521	12.12
301.314	17.12
302.107	13.12
302.899	14.12
303.692	12.12
304.485	13.12
305.277	9.12
306.07	13.12
306.862	12.12
307.655	13.12
308.447	14.12
309.239	9.12
310.031	13.12
310.823	12.12
311.615	10.12
312.407	12.12
313.199	7.12
313.991	12.12
314.783	11.12
315.574	9.12
316.366	9.12
317.157	8.12
317.949	10.12
318.74	6.12
319.531	7.12
320.322	8.12
321.113	8.12
321.904	8.12
322.695	7.12
323.486	7.12
324.277	5.12
325.068	7.12
325.858	9.12
326.649	8.12
327.439	9.12
328.23	8.12
329.02	9.12
329.81	6.12
330.6	8.12
331.391	5.12
332.181	6.12
332.971	7.12
333.76	8.12
334.55	6.12
335.34	7.12
336.13	5.12
336.919	5.12
337.709	6.12
338.498	7.12
339.287	6.12
340.077	9.12
340.866	6.12
341.655	6.12
342.444	4.12
343.233	8.12
344.022	6.12
344.811	6.12
345.6	5.12
346.388	8.12
347.177	7.12
347.965	6.12
348.754	7.12
349.542	3.12
350.33	4.12
351.119	4.12
351.907	8.12
352.695	5.12
353.483	8.12
354.271	6.12
355.059	3.12
355.846	5.12
356.634	5.12
357.422	7.12
358.209	5.12
358.997	4.12
359.784	5.12
360.571	4.12
361.359	5.12
362.146	5.12
362.933	6.12
363.72	4.12
364.507	9.12
365.294	6.12
366.081	4.12
366.867	5.12
367.654	4.12
368.44	4.12
369.227	3.12
370.013	6.12
370.8	5.12
371.586	4.12
372.372	7.12
373.158	6.12
373.944	5.12
374.73	6.12
375.516	6.12
376.302	4.12
377.088	5.12
377.873	6.12
378.659	3.12
379.445	4.12
380.23	6.12
381.015	2.12
381.801	5.12
382.586	5.12
383.371	6.12
384.156	7.12
384.941	4.12
385.726	6.12
386.511	6.12
387.296	6.12
388.08	7.12
388.865	5.12
389.649	6.12
390.434	7.12
391.218	9.12
392.003	3.12
392.787	4.12
393.571	5.12
394.355	6.12
395.139	5.12
395.923	5.12
396.707	7.12
397.491	7.12
398.274	8.12
399.058	6.12
399.842	7.12
400.625	7.12
401.408	8.12
402.192	7.12
402.975	6.12
403.758	7.12
404.541	9.12
405.324	7.12
406.107	8.12
406.89	6.12
407.673	8.12
408.456	9.12
409.238	7.12
410.021	10.12
410.803	9.12
411.586	9.12
412.368	9.12
413.151	8.12
413.933	8.12
414.715	9.12
415.497	10.12
416.279	9.12
417.061	10.12
417.843	6.12
418.624	10.12
419.406	10.12
420.188	8.12
420.969	12.12
421.751	10.12
422.532	12.12
423.313	13.12
424.095	10.12
424.876	12.12
425.657	9.12
426.438	14.12
427.219	11.12
428	13.12
428.78	14.12
429.561	13.12
430.342	14.12
431.122	14.12
431.903	16.12
432.683	16.12
433.464	15.12
434.244	17.12
435.024	15.12
435.804	16.12
436.584	18.12
437.364	19.12
438.144	18.12
438.924	20.12
439.704	21.12
440.483	22.12
441.263	25.12
442.042	24.12
442.822	28.12
443.601	28.12
444.38	27.12
445.16	33.12
445.939	38.12
446.718	37.12
447.497	38.12
448.276	44.12
449.054	47.12
449.833	53.12
450.612	53.12
451.391	58.12
452.169	68.12
452.948	73.12
453.726	83.12
454.504	90.12
455.282	96.12
456.061	106.12
456.839	118.12
457.617	134.12
458.395	144.12
459.172	160.12
459.95	175.12
460.728	195.12
461.506	221.12
462.283	243.12
463.061	272.12
463.838	310.12
464.615	350.12
465.393	380.12
466.17	425.12
466.947	475.12
467.724	521.12
468.501	585.12
469.278	647.12
470.055	713.12
470.831	808.12
471.608	881.12
472.385	977.12
473.161	1073.12
473.938	1210.12
474.714	1334.12
475.49	1451.12
476.266	1595.12
477.043	1768.12
477.819	1940.12
478.595	2129.12
479.371	2333.12
480.146	2577.12
480.922	2837.12
481.698	3111.12
482.473	3410.12
483.249	3721.12
484.024	4094.12
484.8	4486.12
485.575	4876.12
486.35	5331.12
487.126	5809.12
487.901	6353.12
488.676	6924.12
489.451	7568.12
490.225	8234.12
491	8972.12
491.775	9776.12
492.55	10616.12
493.324	11445.12
494.099	12392.12
494.873	13324.12
495.647	14288.12
496.422	15343.12
497.196	16404.12
497.97	17550.12
498.744	18661.12
499.518	19743.12
500.292	20765.12
501.066	21851.12
501.839	22770.12
502.613	23725.12
503.387	24496.12
504.16	25182.12
504.934	25616.12
505.707	25886.12
506.48	26108.12
507.253	26167.12
508.027	26028.12
508.8	25919.12
509.573	25644.12
510.346	25125.12
511.118	24523.12
511.891	23872.12
512.664	23164.12
513.437	22458.12
514.209	21520.12
514.982	20677.12
515.754	19895.12
516.526	19051.12
517.298	18236.12
518.071	17380.12
518.843	16779.12
519.615	16130.12
520.387	15516.12
521.159	14964.12
521.93	14277.12
522.702	13787.12
523.474	13201.12
524.245	12613.12
525.017	12057.12
525.788	11625.12
526.56	11128.12
527.331	10604.12
528.102	10139.12
528.873	9681.12
529.644	9249.12
530.415	8807.12
531.186	8359.12
531.957	7941.12
532.728	7570.12
533.498	7175.12
534.269	6754.12
535.039	6428.12
535.81	6075.12
536.58	5757.12
537.351	5402.12
538.121	5112.12
538.891	4830.12
539.661	4607.12
540.431	4320.12
541.201	4090.12
541.971	3874.12
542.741	3671.12
543.51	3481.12
544.28	3289.12
545.05	3143.12
545.819	3009.12
546.588	2859.12
547.358	2718.12
548.127	2574.12
548.896	2454.12
549.665	2335.12
550.434	2212.12
551.203	2070.12
551.972	1976.12
552.741	1864.12
553.51	1777.12
554.278	1669.12
555.047	1570.12
555.815	1491.12
556.584	1407.12
557.352	1332.12
558.121	1253.12
558.889	1194.12
559.657	1135.12
560.425	1062.12
561.193	986.12
561.961	940.12
562.729	894.12
563.496	844.12
564.264	786.12
565.032	748.12
565.799	708.12
566.567	672.12
567.334	633.12
568.101	609.12
568.869	579.12
569.636	543.12
570.403	503.12
571.17	482.12
571.937	456.12
572.704	420.12
573.471	396.12
574.237	373.12
575.004	358.12
575.771	338.12
576.537	315.12
577.303	305.12
578.07	281.12
578.836	260.12
579.602	253.12
580.368	231.12
581.134	226.12
581.9	214.12
582.666	203.12
583.432	193.12
584.198	177.12
584.964	168.12
585.729	162.12
586.495	155.12
587.26	147.12
588.025	134.12
588.791	129.12
589.556	121.12
590.321	118.12
591.086	111.12
591.851	103.12
592.616	96.12
593.381	97.12
594.146	90.12
594.911	85.12
595.675	81.12
596.44	77.12
597.204	74.12
597.969	75.12
598.733	72.12
599.497	64.12
600.261	62.12
601.025	62.12
601.79	52.12
602.553	58.12
603.317	51.12
604.081	49.12
604.845	46.12
605.609	43.12
606.372	43.12
607.136	44.12
607.899	44.12
608.662	39.12
609.426	36.12
610.189	35.12
610.952	34.12
611.715	33.12
612.478	31.12
613.241	31.12
614.004	27.12
614.767	28.12
615.529	26.12
616.292	26.12
617.055	25.12
617.817	23.12
618.579	25.12
619.342	25.12
620.104	20.12
620.866	21.12
621.628	21.12
622.39	20.12
623.152	18.12
623.914	19.12
624.676	18.12
625.438	16.12
626.199	16.12
626.961	15.12
627.722	17.12
628.484	17.12
629.245	12.12
630.006	15.12
630.768	14.12
631.529	14.12
632.29	12.12
633.051	14.12
633.812	14.12
634.573	13.12
635.333	11.12
636.094	13.12
636.855	12.12
637.615	10.12
638.376	8.12
639.136	12.12
639.896	11.12
640.657	10.12
641.417	8.12
642.177	10.12
642.937	8.12
643.697	8.12
644.457	10.12
645.216	5.12
645.976	7.12
646.736	7.12
647.495	9.12
648.255	9.12
649.014	6.12
649.774	6.12
650.533	9.12
651.292	6.12
652.051	7.12
652.81	7.12
653.569	6.12
654.328	6.12
655.087	7.12
655.846	6.12
656.604	7.12
657.363	7.12
658.121	6.12
658.88	7.12
659.638	6.12
660.397	5.12
661.155	6.12
661.913	7.12
662.671	6.12
663.429	5.12
664.187	5.12
664.945	6.12
665.703	5.12
666.46	7.12
667.218	6.12
667.976	5.12
668.733	4.12
669.49	7.12
670.248	7.12
671.005	5.12
671.762	5.12
672.519	5.12
673.276	6.12
674.033	4.12
674.79	3.12
675.547	5.12
676.304	3.12
677.06	7.12
677.817	6.12
678.574	2.12
679.33	3.12
680.086	6.12
680.843	3.12
681.599	4.12
682.355	6.12
683.111	5.12
683.867	3.12
684.623	5.12
685.379	3.12
686.135	5.12
686.89	5.12
687.646	6.12
688.402	5.12
689.157	2.12
689.912	1.12
690.668	3.12
691.423	2.12
692.178	3.12
692.933	5.12
693.688	3.12
694.443	3.12
695.198	4.12
695.953	5.12
696.708	4.12
697.462	4.12
698.217	6.12
698.972	1.12
699.726	3.12
700.48	5.12
701.235	2.12
701.989	5.12
702.743	3.12
703.497	4.12
704.251	2.12
705.005	4.12
705.759	5.12
706.513	2.12
707.266	5.12
708.02	2.12
708.774	4.12
709.527	5.12
710.28	4.12
711.034	4.12
711.787	3.12
712.54	5.12
713.293	3.12
714.046	2.12
714.799	5.12
715.552	5.12
716.305	3.12
717.058	2.12
717.81	6.12
718.563	3.12
719.315	6.12
720.068	4.12
720.82	4.12
721.573	4.12
722.325	4.12
723.077	4.12
723.829	5.12
724.581	2.12
725.333	5.12
726.085	2.12
726.836	4.12
727.588	2.12
728.34	6.12
729.091	4.12
729.843	5.12
730.594	4.12
731.346	5.12
732.097	3.12
732.848	3.12
733.599	7.12
734.35	3.12
735.101	5.12
735.852	4.12
736.603	2.12
737.354	4.12
738.104	2.12
738.855	5.12
739.605	5.12
740.356	6.12
741.106	3.12
741.856	3.12
742.607	2.12
743.357	5.12
744.107	6.12
744.857	5.12
745.607	4.12
746.357	5.12
747.106	1.12
747.856	5.12
748.606	7.12
749.355	5.12
750.105	4.12
750.854	5.12
751.603	4.12
752.353	5.12
753.102	6.12
753.851	7.12
754.6	7.12
755.349	7.12
756.098	3.12
756.847	6.12
757.595	5.12
758.344	7.12
759.093	6.12
759.841	6.12
760.589	5.12
761.338	6.12
762.086	7.12
762.834	7.12
763.582	5.12
764.331	7.12
765.079	5.12
765.826	6.12
766.574	7.12
767.322	6.12
768.07	6.12
768.817	7.12
769.565	8.12
770.312	6.12
771.06	7.12
771.807	6.12
772.554	7.12
773.302	6.12
774.049	8.12
774.796	10.12
775.543	9.12
776.29	9.12
777.036	7.12
777.783	9.12
778.53	4.12
779.276	8.12
780.023	10.12
780.769	7.12
781.516	10.12
782.262	6.12
783.008	7.12
783.754	7.12
784.5	8.12
785.246	10.12
785.992	9.12
786.738	8.12
787.484	6.12
788.23	10.12
788.975	8.12
789.721	5.12
790.466	9.12
791.212	7.12
791.957	10.12
792.702	11.12
793.447	9.12
794.193	7.12
794.938	7.12
795.683	9.12
796.427	6.12
797.172	6.12
797.917	5.12
798.662	6.12
799.406	7.12
800.151	8.12
800.895	9.12
801.64	5.12
802.384	9.12
803.128	7.12
803.872	7.12
804.616	7.12
805.36	5.12
806.104	6.12
806.848	5.12
807.592	6.12
808.336	5.12
809.079	6.12
809.823	5.12
810.566	6.12
811.31	6.12
812.053	6.12
812.796	7.12
813.539	6.12
814.283	6.12
815.026	7.12
815.769	6.12
816.511	7.12
817.254	6.12
817.997	7.12
818.74	4.12
819.482	3.12
820.225	5.12
820.967	6.12
821.71	4.12
822.452	5.12
823.194	5.12
823.936	4.12
824.678	4.12
825.42	5.12
826.162	3.12
826.904	4.12
827.646	3.12
828.388	5.12
829.129	3.12
829.871	3.12
830.612	3.12
831.354	4.12
832.095	3.12
832.836	5.12
833.577	3.12
834.319	3.12
835.06	2.12
835.801	5.12
836.542	1.12
837.282	5.12
838.023	4.12
838.764	2.12
839.504	5.12
840.245	1.12
840.985	5.12
841.726	2.12
842.466	4.12
843.206	1.12
843.946	0.12
844.687	4.12
845.427	2.12
846.166	5.12
846.906	4.12
847.646	3.12
848.386	3.12
849.125	4.12
849.865	3.12
850.605	2.12
851.344	2.12
852.083	3.12
852.823	2.12
853.562	1.12
854.301	2.12
855.04	2.12
855.779	4.12
856.518	3.12
857.257	4.12
857.995	-0.88
858.734	2.12
859.473	2.12
860.211	2.12
860.95	2.12
861.688	5.12
862.426	2.12
863.165	2.12
863.903	3.12
864.641	2.12
865.379	2.12
866.117	2.12
866.855	3.12
867.593	1.12
868.33	3.12
869.068	1.12
869.806	1.12
870.543	-0.88
871.28	4.12
872.018	0.12
872.755	4.12
873.492	0.12
874.229	2.12
874.967	0.12
875.703	1.12
876.44	2.12
877.177	1.12
877.914	2.12
878.651	2.12
879.387	3.12
880.124	1.12
880.86	1.12
881.597	2.12
882.333	-0.88
883.069	1.12
883.806	2.12
884.542	2.12
885.278	2.12
886.014	2.12
886.749	3.12
887.485	1.12
888.221	2.12
888.957	1.12
889.692	3.12
890.428	2.12
891.163	-1.88
891.899	2.12
892.634	0.12
893.369	-0.88
894.104	0.12
894.839	1.12
895.574	0.12
896.309	0.12
897.044	0.12
897.779	1.12
898.514	0.12
899.248	1.12
899.983	1.12
900.717	1.12
901.452	0.12
902.186	1.12
902.92	2.12
903.654	1.12
904.389	1.12
905.123	1.12
905.857	0.12
906.59	1.12
907.324	1.12
908.058	0.12
908.792	0.12
909.525	0.12
910.259	-0.88
910.992	0.12
911.726	0.12
912.459	2.12
913.192	-1.88
913.925	2.12
914.658	2.12
915.391	2.12
916.124	-1.88
916.857	-0.88
917.59	2.12
918.323	1.12
919.055	2.12
919.788	3.12
920.521	0.12
921.253	2.12
921.985	0.12
922.718	-0.88
923.45	-0.88
924.182	1.12
924.914	1.12
925.646	3.12
926.378	0.12
927.11	1.12
927.841	-0.88
928.573	-0.88
929.305	-1.88
930.036	3.12
930.768	-0.88
931.499	0.12
932.23	1.12
932.962	1.12
933.693	2.12
934.424	1.12
935.155	-0.88
935.886	0.12
936.617	0.12
937.348	0.12
938.078	0.12
938.809	1.12
939.54	0.12
940.27	0.12
941.001	3.12
941.731	1.12
942.461	2.12
943.191	-0.88
943.922	0.12
944.652	-1.88
945.382	1.12
946.112	2.12
946.841	1.12
947.571	1.12
948.301	1.12
949.031	1.12
949.76	0.12
950.49	0.12
951.219	1.12
951.948	0.12
952.678	2.12
953.407	0.12
954.136	2.12
954.865	1.12
955.594	0.12
956.323	-0.88
957.052	-1.88
957.78	1.12
958.509	0.12
959.238	1.12
959.966	1.12
960.695	2.12
961.423	1.12
962.151	-1.88
962.88	-0.88
963.608	-1.88
964.336	0.12
965.064	2.12
965.792	1.12
966.52	2.12
967.247	-1.88
967.975	2.12
968.703	0.12
969.43	0.12
970.158	0.12
970.885	-1.88
971.613	1.12
972.34	0.12
973.067	0.12
973.794	0.12
974.521	1.12
975.248	2.12
975.975	1.12
976.702	1.12
977.429	1.12
978.156	0.12
978.882	0.12
979.609	-1.88
980.335	0.12
981.062	1.12
981.788	-0.88
982.514	-1.88
983.24	0.12
983.967	0.12
984.693	-0.88
985.419	0.12
986.144	-0.88
986.87	-0.88
987.596	-0.88
988.322	1.12
989.047	1.12
989.773	-0.88
990.498	1.12
991.224	2.12
991.949	1.12
992.674	0.12
993.399	1.12
994.124	1.12
994.849	-2.88
995.574	-0.88
996.299	-0.88
997.024	1.12
997.749	1.12
998.473	0.12
999.198	0.12
999.922	1.12
1000.647	-0.88
1001.371	4.12
1002.095	-1.88
1002.82	0.12
1003.544	-2.88
1004.268	2.12
1004.992	1.12
1005.716	1.12
1006.439	2.12
1007.163	-1.88
1007.887	0.12
1008.611	-0.88
1009.334	1.12
1010.058	0.12
1010.781	1.12
1011.504	1.12
1012.228	1.12
1012.951	-0.88
1013.674	1.12
1014.397	1.12
1015.12	-0.88
