节点500_285_QEPB04081__752__15-08-03-803.txt的数据

Date: Wed Nov 12 15:08:03 CST 2025
User: PC
Spectrometer: QEPB0408
触发模式: 0
积分时间 (秒): 1.000000E-2
Scans to average: 1
启用暗噪声校正: true
启用非线性校正: false
滑动平均宽度: 0
X轴模式: Wavelengths
Number of Pixels in Spectrum: 1044
>>>>>Begin Spectral Data<<<<<
220.843	1.88
221.644	2.88
222.444	0.88
223.244	1.88
224.045	2.88
224.845	2.88
225.645	0.88
226.445	2.88
227.245	1.88
228.045	1.88
228.845	2.88
229.645	2.88
230.444	1.88
231.244	3.88
232.043	2.88
232.843	2.88
233.642	0.88
234.442	4.88
235.241	4.88
236.04	2.88
236.839	4.88
237.638	1.88
238.437	1.88
239.236	3.88
240.035	2.88
240.833	5.88
241.632	2.88
242.43	2.88
243.229	1.88
244.027	4.88
244.826	6.88
245.624	4.88
246.422	6.88
247.22	3.88
248.018	4.88
248.816	4.88
249.614	4.88
250.412	3.88
251.21	5.88
252.007	3.88
252.805	5.88
253.602	6.88
254.4	5.88
255.197	6.88
255.994	7.88
256.791	5.88
257.589	8.88
258.386	5.88
259.183	6.88
259.979	7.88
260.776	7.88
261.573	6.88
262.37	6.88
263.166	9.88
263.963	7.88
264.759	11.88
265.556	10.88
266.352	9.88
267.148	11.88
267.944	11.88
268.74	11.88
269.536	11.88
270.332	13.88
271.128	13.88
271.924	11.88
272.719	14.88
273.515	13.88
274.311	14.88
275.106	13.88
275.901	12.88
276.697	17.88
277.492	17.88
278.287	14.88
279.082	16.88
279.877	20.88
280.672	15.88
281.467	18.88
282.262	13.88
283.056	16.88
283.851	17.88
284.646	14.88
285.44	18.88
286.234	14.88
287.029	17.88
287.823	18.88
288.617	16.88
289.411	16.88
290.205	16.88
290.999	15.88
291.793	14.88
292.587	18.88
293.381	14.88
294.174	12.88
294.968	17.88
295.761	13.88
296.555	13.88
297.348	13.88
298.141	15.88
298.935	16.88
299.728	17.88
300.521	13.88
301.314	12.88
302.107	13.88
302.899	13.88
303.692	15.88
304.485	11.88
305.277	11.88
306.07	10.88
306.862	12.88
307.655	11.88
308.447	8.88
309.239	13.88
310.031	9.88
310.823	11.88
311.615	11.88
312.407	8.88
313.199	10.88
313.991	8.88
314.783	8.88
315.574	7.88
316.366	8.88
317.157	7.88
317.949	7.88
318.74	8.88
319.531	8.88
320.322	5.88
321.113	8.88
321.904	7.88
322.695	8.88
323.486	7.88
324.277	7.88
325.068	7.88
325.858	4.88
326.649	8.88
327.439	6.88
328.23	3.88
329.02	5.88
329.81	5.88
330.6	4.88
331.391	6.88
332.181	7.88
332.971	5.88
333.76	5.88
334.55	5.88
335.34	5.88
336.13	8.88
336.919	6.88
337.709	4.88
338.498	7.88
339.287	3.88
340.077	6.88
340.866	5.88
341.655	6.88
342.444	4.88
343.233	6.88
344.022	4.88
344.811	6.88
345.6	3.88
346.388	4.88
347.177	6.88
347.965	4.88
348.754	7.88
349.542	6.88
350.33	3.88
351.119	3.88
351.907	3.88
352.695	8.88
353.483	4.88
354.271	5.88
355.059	6.88
355.846	4.88
356.634	5.88
357.422	6.88
358.209	5.88
358.997	5.88
359.784	5.88
360.571	4.88
361.359	5.88
362.146	6.88
362.933	5.88
363.72	3.88
364.507	3.88
365.294	3.88
366.081	4.88
366.867	5.88
367.654	5.88
368.44	4.88
369.227	3.88
370.013	5.88
370.8	5.88
371.586	3.88
372.372	3.88
373.158	4.88
373.944	4.88
374.73	4.88
375.516	5.88
376.302	4.88
377.088	4.88
377.873	4.88
378.659	4.88
379.445	4.88
380.23	1.88
381.015	5.88
381.801	4.88
382.586	5.88
383.371	4.88
384.156	5.88
384.941	3.88
385.726	3.88
386.511	4.88
387.296	3.88
388.08	5.88
388.865	5.88
389.649	5.88
390.434	5.88
391.218	5.88
392.003	7.88
392.787	6.88
393.571	4.88
394.355	5.88
395.139	5.88
395.923	4.88
396.707	5.88
397.491	5.88
398.274	5.88
399.058	7.88
399.842	4.88
400.625	6.88
401.408	5.88
402.192	4.88
402.975	6.88
403.758	3.88
404.541	7.88
405.324	7.88
406.107	5.88
406.89	7.88
407.673	7.88
408.456	8.88
409.238	8.88
410.021	6.88
410.803	8.88
411.586	5.88
412.368	7.88
413.151	8.88
413.933	9.88
414.715	8.88
415.497	8.88
416.279	9.88
417.061	6.88
417.843	7.88
418.624	8.88
419.406	11.88
420.188	9.88
420.969	9.88
421.751	12.88
422.532	9.88
423.313	8.88
424.095	12.88
424.876	11.88
425.657	10.88
426.438	10.88
427.219	10.88
428	12.88
428.78	12.88
429.561	11.88
430.342	12.88
431.122	16.88
431.903	13.88
432.683	14.88
433.464	15.88
434.244	16.88
435.024	18.88
435.804	15.88
436.584	17.88
437.364	15.88
438.144	17.88
438.924	19.88
439.704	23.88
440.483	23.88
441.263	24.88
442.042	25.88
442.822	25.88
443.601	29.88
444.38	30.88
445.16	32.88
445.939	34.88
446.718	39.88
447.497	40.88
448.276	45.88
449.054	48.88
449.833	53.88
450.612	57.88
451.391	65.88
452.169	68.88
452.948	77.88
453.726	81.88
454.504	92.88
455.282	97.88
456.061	109.88
456.839	121.88
457.617	138.88
458.395	149.88
459.172	172.88
459.95	186.88
460.728	207.88
461.506	237.88
462.283	258.88
463.061	288.88
463.838	314.88
464.615	354.88
465.393	396.88
466.17	447.88
466.947	483.88
467.724	541.88
468.501	605.88
469.278	670.88
470.055	748.88
470.831	808.88
471.608	892.88
472.385	992.88
473.161	1094.88
473.938	1218.88
474.714	1323.88
475.49	1479.88
476.266	1620.88
477.043	1772.88
477.819	1949.88
478.595	2128.88
479.371	2337.88
480.146	2540.88
480.922	2791.88
481.698	3040.88
482.473	3367.88
483.249	3649.88
484.024	3998.88
484.8	4358.88
485.575	4745.88
486.35	5184.88
487.126	5664.88
487.901	6161.88
488.676	6705.88
489.451	7272.88
490.225	7924.88
491	8623.88
491.775	9363.88
492.55	10117.88
493.324	10907.88
494.099	11766.88
494.873	12603.88
495.647	13539.88
496.422	14517.88
497.196	15555.88
497.97	16608.88
498.744	17632.88
499.518	18595.88
500.292	19696.88
501.066	20727.88
501.839	21611.88
502.613	22585.88
503.387	23282.88
504.16	24043.88
504.934	24540.88
505.707	24901.88
506.48	25163.88
507.253	25246.88
508.027	25282.88
508.8	25172.88
509.573	25006.88
510.346	24676.88
511.118	24192.88
511.891	23607.88
512.664	22999.88
513.437	22240.88
514.209	21512.88
514.982	20716.88
515.754	19945.88
516.526	19077.88
517.298	18298.88
518.071	17515.88
518.843	16947.88
519.615	16337.88
520.387	15663.88
521.159	15005.88
521.93	14400.88
522.702	13852.88
523.474	13294.88
524.245	12749.88
525.017	12198.88
525.788	11754.88
526.56	11219.88
527.331	10728.88
528.102	10257.88
528.873	9785.88
529.644	9338.88
530.415	8915.88
531.186	8535.88
531.957	8071.88
532.728	7716.88
533.498	7360.88
534.269	6961.88
535.039	6562.88
535.81	6204.88
536.58	5882.88
537.351	5522.88
538.121	5254.88
538.891	4968.88
539.661	4725.88
540.431	4446.88
541.201	4207.88
541.971	3981.88
542.741	3766.88
543.51	3594.88
544.28	3412.88
545.05	3224.88
545.819	3085.88
546.588	2921.88
547.358	2771.88
548.127	2642.88
548.896	2515.88
549.665	2404.88
550.434	2263.88
551.203	2135.88
551.972	2050.88
552.741	1932.88
553.51	1830.88
554.278	1738.88
555.047	1617.88
555.815	1547.88
556.584	1462.88
557.352	1379.88
558.121	1287.88
558.889	1234.88
559.657	1168.88
560.425	1103.88
561.193	1039.88
561.961	970.88
562.729	928.88
563.496	869.88
564.264	825.88
565.032	773.88
565.799	738.88
566.567	695.88
567.334	664.88
568.101	628.88
568.869	585.88
569.636	553.88
570.403	512.88
571.17	488.88
571.937	466.88
572.704	437.88
573.471	405.88
574.237	401.88
575.004	370.88
575.771	347.88
576.537	324.88
577.303	309.88
578.07	287.88
578.836	273.88
579.602	260.88
580.368	245.88
581.134	231.88
581.9	218.88
582.666	204.88
583.432	196.88
584.198	180.88
584.964	180.88
585.729	175.88
586.495	153.88
587.26	153.88
588.025	139.88
588.791	133.88
589.556	131.88
590.321	124.88
591.086	114.88
591.851	106.88
592.616	101.88
593.381	100.88
594.146	93.88
594.911	90.88
595.675	84.88
596.44	79.88
597.204	75.88
597.969	73.88
598.733	69.88
599.497	70.88
600.261	62.88
601.025	59.88
601.79	59.88
602.553	57.88
603.317	52.88
604.081	48.88
604.845	50.88
605.609	45.88
606.372	46.88
607.136	44.88
607.899	40.88
608.662	42.88
609.426	37.88
610.189	38.88
610.952	32.88
611.715	34.88
612.478	31.88
613.241	33.88
614.004	29.88
614.767	25.88
615.529	32.88
616.292	27.88
617.055	26.88
617.817	25.88
618.579	22.88
619.342	25.88
620.104	23.88
620.866	22.88
621.628	18.88
622.39	22.88
623.152	17.88
623.914	15.88
624.676	17.88
625.438	16.88
626.199	17.88
626.961	16.88
627.722	13.88
628.484	15.88
629.245	14.88
630.006	13.88
630.768	11.88
631.529	14.88
632.29	13.88
633.051	11.88
633.812	13.88
634.573	12.88
635.333	9.88
636.094	11.88
636.855	12.88
637.615	8.88
638.376	10.88
639.136	10.88
639.896	9.88
640.657	8.88
641.417	9.88
642.177	7.88
642.937	8.88
643.697	6.88
644.457	7.88
645.216	6.88
645.976	7.88
646.736	9.88
647.495	8.88
648.255	4.88
649.014	4.88
649.774	7.88
650.533	6.88
651.292	8.88
652.051	7.88
652.81	5.88
653.569	4.88
654.328	8.88
655.087	6.88
655.846	5.88
656.604	6.88
657.363	6.88
658.121	6.88
658.88	5.88
659.638	3.88
660.397	6.88
661.155	2.88
661.913	6.88
662.671	7.88
663.429	4.88
664.187	6.88
664.945	5.88
665.703	6.88
666.46	3.88
667.218	4.88
667.976	5.88
668.733	5.88
669.49	4.88
670.248	5.88
671.005	4.88
671.762	3.88
672.519	2.88
673.276	3.88
674.033	2.88
674.79	2.88
675.547	2.88
676.304	1.88
677.06	5.88
677.817	1.88
678.574	3.88
679.33	2.88
680.086	3.88
680.843	1.88
681.599	5.88
682.355	3.88
683.111	2.88
683.867	4.88
684.623	1.88
685.379	3.88
686.135	3.88
686.89	2.88
687.646	3.88
688.402	3.88
689.157	4.88
689.912	2.88
690.668	3.88
691.423	2.88
692.178	1.88
692.933	2.88
693.688	4.88
694.443	3.88
695.198	4.88
695.953	4.88
696.708	3.88
697.462	2.88
698.217	1.88
698.972	3.88
699.726	6.88
700.48	1.88
701.235	3.88
701.989	4.88
702.743	1.88
703.497	1.88
704.251	1.88
705.005	3.88
705.759	3.88
706.513	3.88
707.266	4.88
708.02	2.88
708.774	2.88
709.527	0.88
710.28	2.88
711.034	2.88
711.787	1.88
712.54	5.88
713.293	3.88
714.046	0.88
714.799	4.88
715.552	1.88
716.305	5.88
717.058	1.88
717.81	3.88
718.563	3.88
719.315	3.88
720.068	3.88
720.82	1.88
721.573	0.88
722.325	1.88
723.077	3.88
723.829	3.88
724.581	2.88
725.333	4.88
726.085	2.88
726.836	3.88
727.588	2.88
728.34	2.88
729.091	0.88
729.843	1.88
730.594	3.88
731.346	4.88
732.097	5.88
732.848	2.88
733.599	4.88
734.35	3.88
735.101	4.88
735.852	4.88
736.603	4.88
737.354	3.88
738.104	2.88
738.855	1.88
739.605	5.88
740.356	2.88
741.106	2.88
741.856	2.88
742.607	4.88
743.357	5.88
744.107	2.88
744.857	4.88
745.607	2.88
746.357	5.88
747.106	2.88
747.856	4.88
748.606	4.88
749.355	4.88
750.105	4.88
750.854	3.88
751.603	4.88
752.353	4.88
753.102	4.88
753.851	5.88
754.6	3.88
755.349	3.88
756.098	4.88
756.847	5.88
757.595	5.88
758.344	8.88
759.093	3.88
759.841	5.88
760.589	2.88
761.338	7.88
762.086	4.88
762.834	6.88
763.582	4.88
764.331	4.88
765.079	6.88
765.826	6.88
766.574	4.88
767.322	4.88
768.07	6.88
768.817	6.88
769.565	5.88
770.312	6.88
771.06	4.88
771.807	7.88
772.554	5.88
773.302	7.88
774.049	4.88
774.796	8.88
775.543	4.88
776.29	8.88
777.036	7.88
777.783	6.88
778.53	6.88
779.276	7.88
780.023	4.88
780.769	8.88
781.516	7.88
782.262	5.88
783.008	8.88
783.754	5.88
784.5	7.88
785.246	7.88
785.992	7.88
786.738	7.88
787.484	5.88
788.23	8.88
788.975	7.88
789.721	6.88
790.466	6.88
791.212	7.88
791.957	5.88
792.702	8.88
793.447	8.88
794.193	7.88
794.938	6.88
795.683	8.88
796.427	7.88
797.172	7.88
797.917	4.88
798.662	8.88
799.406	9.88
800.151	5.88
800.895	8.88
801.64	6.88
802.384	5.88
803.128	8.88
803.872	5.88
804.616	5.88
805.36	5.88
806.104	6.88
806.848	5.88
807.592	7.88
808.336	5.88
809.079	6.88
809.823	6.88
810.566	5.88
811.31	7.88
812.053	5.88
812.796	4.88
813.539	7.88
814.283	4.88
815.026	4.88
815.769	3.88
816.511	2.88
817.254	3.88
817.997	3.88
818.74	2.88
819.482	1.88
820.225	4.88
820.967	4.88
821.71	3.88
822.452	5.88
823.194	0.88
823.936	4.88
824.678	5.88
825.42	2.88
826.162	2.88
826.904	1.88
827.646	4.88
828.388	2.88
829.129	2.88
829.871	6.88
830.612	2.88
831.354	4.88
832.095	4.88
832.836	4.88
833.577	3.88
834.319	5.88
835.06	1.88
835.801	2.88
836.542	3.88
837.282	2.88
838.023	3.88
838.764	3.88
839.504	4.88
840.245	1.88
840.985	3.88
841.726	3.88
842.466	2.88
843.206	3.88
843.946	2.88
844.687	3.88
845.427	2.88
846.166	3.88
846.906	2.88
847.646	4.88
848.386	1.88
849.125	3.88
849.865	1.88
850.605	2.88
851.344	3.88
852.083	0.88
852.823	1.88
853.562	1.88
854.301	1.88
855.04	0.88
855.779	2.88
856.518	3.88
857.257	1.88
857.995	0.88
858.734	2.88
859.473	1.88
860.211	3.88
860.95	2.88
861.688	2.88
862.426	1.88
863.165	4.88
863.903	1.88
864.641	0.88
865.379	2.88
866.117	0.88
866.855	1.88
867.593	3.88
868.33	0.88
869.068	1.88
869.806	-0.12
870.543	0.88
871.28	3.88
872.018	0.88
872.755	2.88
873.492	2.88
874.229	-2.12
874.967	0.88
875.703	0.88
876.44	1.88
877.177	-0.12
877.914	2.88
878.651	0.88
879.387	0.88
880.124	0.88
880.86	0.88
881.597	-0.12
882.333	1.88
883.069	1.88
883.806	1.88
884.542	1.88
885.278	-0.12
886.014	1.88
886.749	2.88
887.485	1.88
888.221	-0.12
888.957	0.88
889.692	0.88
890.428	-0.12
891.163	-1.12
891.899	0.88
892.634	1.88
893.369	-0.12
894.104	0.88
894.839	1.88
895.574	1.88
896.309	-0.12
897.044	2.88
897.779	0.88
898.514	2.88
899.248	2.88
899.983	-0.12
900.717	1.88
901.452	0.88
902.186	0.88
902.92	1.88
903.654	-1.12
904.389	-2.12
905.123	0.88
905.857	1.88
906.59	0.88
907.324	1.88
908.058	0.88
908.792	-1.12
909.525	-0.12
910.259	-1.12
910.992	0.88
911.726	0.88
912.459	0.88
913.192	0.88
913.925	-2.12
914.658	0.88
915.391	-0.12
916.124	-0.12
916.857	1.88
917.59	-2.12
918.323	-0.12
919.055	-1.12
919.788	0.88
920.521	0.88
921.253	1.88
921.985	0.88
922.718	-0.12
923.45	1.88
924.182	-2.12
924.914	0.88
925.646	0.88
926.378	0.88
927.11	-1.12
927.841	1.88
928.573	-0.12
929.305	-1.12
930.036	-1.12
930.768	-0.12
931.499	0.88
932.23	-0.12
932.962	-0.12
933.693	0.88
934.424	0.88
935.155	0.88
935.886	-1.12
936.617	0.88
937.348	-0.12
938.078	-1.12
938.809	0.88
939.54	-0.12
940.27	1.88
941.001	-0.12
941.731	0.88
942.461	0.88
943.191	-1.12
943.922	1.88
944.652	1.88
945.382	0.88
946.112	-2.12
946.841	-0.12
947.571	-1.12
948.301	-0.12
949.031	0.88
949.76	-1.12
950.49	-0.12
951.219	0.88
951.948	-2.12
952.678	-1.12
953.407	0.88
954.136	1.88
954.865	1.88
955.594	-1.12
956.323	-0.12
957.052	0.88
957.78	-0.12
958.509	-1.12
959.238	0.88
959.966	-0.12
960.695	0.88
961.423	-0.12
962.151	0.88
962.88	-0.12
963.608	-1.12
964.336	0.88
965.064	-1.12
965.792	0.88
966.52	0.88
967.247	-0.12
967.975	0.88
968.703	-1.12
969.43	2.88
970.158	-2.12
970.885	0.88
971.613	-2.12
972.34	-1.12
973.067	1.88
973.794	1.88
974.521	-0.12
975.248	-0.12
975.975	1.88
976.702	-0.12
977.429	0.88
978.156	0.88
978.882	-2.12
979.609	0.88
980.335	0.88
981.062	-0.12
981.788	0.88
982.514	-0.12
983.24	0.88
983.967	-1.12
984.693	-2.12
985.419	-0.12
986.144	-1.12
986.87	-0.12
987.596	-1.12
988.322	0.88
989.047	1.88
989.773	-1.12
990.498	-1.12
991.224	-2.12
991.949	-2.12
992.674	-1.12
993.399	-0.12
994.124	-2.12
994.849	-0.12
995.574	0.88
996.299	0.88
997.024	1.88
997.749	0.88
998.473	0.88
999.198	-0.12
999.922	0.88
1000.647	-1.12
1001.371	4.88
1002.095	-0.12
1002.82	-3.12
1003.544	-1.12
1004.268	-0.12
1004.992	-1.12
1005.716	2.88
1006.439	1.88
1007.163	1.88
1007.887	1.88
1008.611	-0.12
1009.334	0.88
1010.058	-1.12
1010.781	-2.12
1011.504	0.88
1012.228	-3.12
1012.951	0.88
1013.674	0.88
1014.397	-0.12
1015.12	-2.12
