节点500_285_QEPB04081__785__15-08-36-776.txt的数据

Date: Wed Nov 12 15:08:36 CST 2025
User: PC
Spectrometer: QEPB0408
触发模式: 0
积分时间 (秒): 1.000000E-2
Scans to average: 1
启用暗噪声校正: true
启用非线性校正: false
滑动平均宽度: 0
X轴模式: Wavelengths
Number of Pixels in Spectrum: 1044
>>>>>Begin Spectral Data<<<<<
220.843	0.88
221.644	0.88
222.444	1.88
223.244	2.88
224.045	2.88
224.845	4.88
225.645	1.88
226.445	4.88
227.245	4.88
228.045	1.88
228.845	5.88
229.645	0.88
230.444	2.88
231.244	4.88
232.043	5.88
232.843	3.88
233.642	3.88
234.442	5.88
235.241	3.88
236.04	2.88
236.839	0.88
237.638	3.88
238.437	6.88
239.236	3.88
240.035	5.88
240.833	2.88
241.632	4.88
242.43	4.88
243.229	7.88
244.027	4.88
244.826	5.88
245.624	6.88
246.422	5.88
247.22	5.88
248.018	7.88
248.816	5.88
249.614	4.88
250.412	4.88
251.21	7.88
252.007	8.88
252.805	7.88
253.602	5.88
254.4	7.88
255.197	6.88
255.994	3.88
256.791	11.88
257.589	6.88
258.386	8.88
259.183	8.88
259.979	9.88
260.776	11.88
261.573	12.88
262.37	8.88
263.166	9.88
263.963	7.88
264.759	9.88
265.556	7.88
266.352	12.88
267.148	11.88
267.944	13.88
268.74	13.88
269.536	13.88
270.332	13.88
271.128	12.88
271.924	13.88
272.719	15.88
273.515	14.88
274.311	14.88
275.106	13.88
275.901	15.88
276.697	17.88
277.492	16.88
278.287	17.88
279.082	13.88
279.877	15.88
280.672	17.88
281.467	18.88
282.262	19.88
283.056	17.88
283.851	18.88
284.646	18.88
285.44	17.88
286.234	14.88
287.029	18.88
287.823	19.88
288.617	16.88
289.411	17.88
290.205	16.88
290.999	18.88
291.793	17.88
292.587	18.88
293.381	19.88
294.174	15.88
294.968	17.88
295.761	13.88
296.555	15.88
297.348	14.88
298.141	13.88
298.935	16.88
299.728	12.88
300.521	15.88
301.314	13.88
302.107	13.88
302.899	14.88
303.692	12.88
304.485	12.88
305.277	12.88
306.07	12.88
306.862	10.88
307.655	13.88
308.447	13.88
309.239	10.88
310.031	14.88
310.823	9.88
311.615	10.88
312.407	8.88
313.199	10.88
313.991	10.88
314.783	12.88
315.574	9.88
316.366	9.88
317.157	10.88
317.949	9.88
318.74	7.88
319.531	9.88
320.322	7.88
321.113	10.88
321.904	7.88
322.695	7.88
323.486	8.88
324.277	7.88
325.068	6.88
325.858	8.88
326.649	9.88
327.439	4.88
328.23	8.88
329.02	6.88
329.81	7.88
330.6	7.88
331.391	5.88
332.181	7.88
332.971	7.88
333.76	6.88
334.55	8.88
335.34	7.88
336.13	7.88
336.919	6.88
337.709	7.88
338.498	5.88
339.287	8.88
340.077	5.88
340.866	9.88
341.655	10.88
342.444	4.88
343.233	10.88
344.022	8.88
344.811	9.88
345.6	6.88
346.388	8.88
347.177	9.88
347.965	7.88
348.754	7.88
349.542	7.88
350.33	7.88
351.119	6.88
351.907	8.88
352.695	7.88
353.483	7.88
354.271	4.88
355.059	6.88
355.846	2.88
356.634	6.88
357.422	2.88
358.209	6.88
358.997	5.88
359.784	3.88
360.571	7.88
361.359	6.88
362.146	7.88
362.933	5.88
363.72	7.88
364.507	5.88
365.294	5.88
366.081	5.88
366.867	5.88
367.654	4.88
368.44	3.88
369.227	8.88
370.013	4.88
370.8	5.88
371.586	4.88
372.372	5.88
373.158	6.88
373.944	4.88
374.73	6.88
375.516	5.88
376.302	5.88
377.088	5.88
377.873	4.88
378.659	7.88
379.445	5.88
380.23	5.88
381.015	6.88
381.801	6.88
382.586	5.88
383.371	5.88
384.156	4.88
384.941	4.88
385.726	6.88
386.511	7.88
387.296	5.88
388.08	5.88
388.865	5.88
389.649	8.88
390.434	6.88
391.218	5.88
392.003	6.88
392.787	6.88
393.571	5.88
394.355	7.88
395.139	7.88
395.923	8.88
396.707	7.88
397.491	5.88
398.274	6.88
399.058	5.88
399.842	7.88
400.625	6.88
401.408	8.88
402.192	7.88
402.975	6.88
403.758	6.88
404.541	6.88
405.324	7.88
406.107	9.88
406.89	7.88
407.673	7.88
408.456	8.88
409.238	7.88
410.021	8.88
410.803	6.88
411.586	9.88
412.368	9.88
413.151	7.88
413.933	8.88
414.715	8.88
415.497	9.88
416.279	9.88
417.061	10.88
417.843	10.88
418.624	8.88
419.406	8.88
420.188	11.88
420.969	9.88
421.751	9.88
422.532	13.88
423.313	10.88
424.095	12.88
424.876	10.88
425.657	10.88
426.438	12.88
427.219	12.88
428	13.88
428.78	10.88
429.561	14.88
430.342	12.88
431.122	12.88
431.903	14.88
432.683	12.88
433.464	17.88
434.244	15.88
435.024	17.88
435.804	18.88
436.584	18.88
437.364	17.88
438.144	19.88
438.924	20.88
439.704	23.88
440.483	25.88
441.263	22.88
442.042	24.88
442.822	28.88
443.601	29.88
444.38	27.88
445.16	34.88
445.939	35.88
446.718	38.88
447.497	42.88
448.276	41.88
449.054	52.88
449.833	55.88
450.612	59.88
451.391	61.88
452.169	70.88
452.948	75.88
453.726	83.88
454.504	91.88
455.282	102.88
456.061	113.88
456.839	128.88
457.617	136.88
458.395	154.88
459.172	168.88
459.95	188.88
460.728	210.88
461.506	233.88
462.283	263.88
463.061	293.88
463.838	318.88
464.615	352.88
465.393	403.88
466.17	445.88
466.947	493.88
467.724	542.88
468.501	603.88
469.278	668.88
470.055	738.88
470.831	818.88
471.608	898.88
472.385	998.88
473.161	1100.88
473.938	1228.88
474.714	1336.88
475.49	1461.88
476.266	1619.88
477.043	1755.88
477.819	1934.88
478.595	2127.88
479.371	2334.88
480.146	2547.88
480.922	2800.88
481.698	3073.88
482.473	3340.88
483.249	3639.88
484.024	3977.88
484.8	4343.88
485.575	4724.88
486.35	5184.88
487.126	5640.88
487.901	6122.88
488.676	6689.88
489.451	7274.88
490.225	7876.88
491	8554.88
491.775	9285.88
492.55	10081.88
493.324	10912.88
494.099	11678.88
494.873	12509.88
495.647	13479.88
496.422	14418.88
497.196	15460.88
497.97	16476.88
498.744	17549.88
499.518	18511.88
500.292	19624.88
501.066	20601.88
501.839	21552.88
502.613	22448.88
503.387	23260.88
504.16	23959.88
504.934	24406.88
505.707	24753.88
506.48	25058.88
507.253	25131.88
508.027	25122.88
508.8	25100.88
509.573	25001.88
510.346	24634.88
511.118	24121.88
511.891	23528.88
512.664	22939.88
513.437	22220.88
514.209	21399.88
514.982	20737.88
515.754	19869.88
516.526	19075.88
517.298	18319.88
518.071	17558.88
518.843	16914.88
519.615	16227.88
520.387	15667.88
521.159	15002.88
521.93	14426.88
522.702	13878.88
523.474	13255.88
524.245	12719.88
525.017	12219.88
525.788	11719.88
526.56	11222.88
527.331	10678.88
528.102	10278.88
528.873	9827.88
529.644	9366.88
530.415	8934.88
531.186	8520.88
531.957	8105.88
532.728	7736.88
533.498	7333.88
534.269	6933.88
535.039	6577.88
535.81	6226.88
536.58	5861.88
537.351	5548.88
538.121	5278.88
538.891	4961.88
539.661	4746.88
540.431	4420.88
541.201	4211.88
541.971	3968.88
542.741	3775.88
543.51	3574.88
544.28	3411.88
545.05	3265.88
545.819	3082.88
546.588	2926.88
547.358	2796.88
548.127	2650.88
548.896	2523.88
549.665	2403.88
550.434	2272.88
551.203	2151.88
551.972	2048.88
552.741	1934.88
553.51	1821.88
554.278	1734.88
555.047	1633.88
555.815	1535.88
556.584	1476.88
557.352	1388.88
558.121	1314.88
558.889	1223.88
559.657	1181.88
560.425	1104.88
561.193	1030.88
561.961	978.88
562.729	924.88
563.496	882.88
564.264	831.88
565.032	783.88
565.799	742.88
566.567	707.88
567.334	656.88
568.101	625.88
568.869	598.88
569.636	565.88
570.403	519.88
571.17	490.88
571.937	458.88
572.704	440.88
573.471	416.88
574.237	389.88
575.004	368.88
575.771	346.88
576.537	334.88
577.303	308.88
578.07	288.88
578.836	278.88
579.602	262.88
580.368	245.88
581.134	237.88
581.9	219.88
582.666	211.88
583.432	197.88
584.198	188.88
584.964	176.88
585.729	167.88
586.495	164.88
587.26	144.88
588.025	149.88
588.791	129.88
589.556	127.88
590.321	121.88
591.086	117.88
591.851	106.88
592.616	104.88
593.381	100.88
594.146	98.88
594.911	89.88
595.675	89.88
596.44	81.88
597.204	75.88
597.969	73.88
598.733	76.88
599.497	67.88
600.261	59.88
601.025	61.88
601.79	57.88
602.553	59.88
603.317	54.88
604.081	51.88
604.845	51.88
605.609	47.88
606.372	46.88
607.136	43.88
607.899	39.88
608.662	40.88
609.426	38.88
610.189	36.88
610.952	33.88
611.715	35.88
612.478	33.88
613.241	31.88
614.004	27.88
614.767	30.88
615.529	30.88
616.292	25.88
617.055	24.88
617.817	24.88
618.579	28.88
619.342	23.88
620.104	23.88
620.866	23.88
621.628	20.88
622.39	21.88
623.152	20.88
623.914	19.88
624.676	17.88
625.438	20.88
626.199	18.88
626.961	17.88
627.722	15.88
628.484	14.88
629.245	17.88
630.006	15.88
630.768	13.88
631.529	14.88
632.29	13.88
633.051	15.88
633.812	12.88
634.573	13.88
635.333	10.88
636.094	12.88
636.855	11.88
637.615	12.88
638.376	14.88
639.136	9.88
639.896	9.88
640.657	12.88
641.417	7.88
642.177	11.88
642.937	9.88
643.697	10.88
644.457	12.88
645.216	9.88
645.976	7.88
646.736	5.88
647.495	9.88
648.255	7.88
649.014	5.88
649.774	8.88
650.533	7.88
651.292	7.88
652.051	6.88
652.81	6.88
653.569	6.88
654.328	7.88
655.087	7.88
655.846	5.88
656.604	8.88
657.363	6.88
658.121	8.88
658.88	8.88
659.638	4.88
660.397	4.88
661.155	3.88
661.913	7.88
662.671	4.88
663.429	6.88
664.187	5.88
664.945	5.88
665.703	6.88
666.46	5.88
667.218	6.88
667.976	3.88
668.733	5.88
669.49	6.88
670.248	5.88
671.005	6.88
671.762	5.88
672.519	5.88
673.276	6.88
674.033	4.88
674.79	5.88
675.547	6.88
676.304	6.88
677.06	3.88
677.817	5.88
678.574	3.88
679.33	4.88
680.086	4.88
680.843	4.88
681.599	6.88
682.355	5.88
683.111	7.88
683.867	4.88
684.623	5.88
685.379	4.88
686.135	3.88
686.89	5.88
687.646	3.88
688.402	4.88
689.157	5.88
689.912	4.88
690.668	2.88
691.423	2.88
692.178	3.88
692.933	4.88
693.688	5.88
694.443	5.88
695.198	2.88
695.953	5.88
696.708	2.88
697.462	2.88
698.217	2.88
698.972	2.88
699.726	3.88
700.48	5.88
701.235	5.88
701.989	3.88
702.743	4.88
703.497	3.88
704.251	4.88
705.005	5.88
705.759	5.88
706.513	6.88
707.266	4.88
708.02	5.88
708.774	6.88
709.527	4.88
710.28	3.88
711.034	3.88
711.787	5.88
712.54	3.88
713.293	4.88
714.046	4.88
714.799	3.88
715.552	3.88
716.305	3.88
717.058	4.88
717.81	4.88
718.563	3.88
719.315	2.88
720.068	5.88
720.82	3.88
721.573	3.88
722.325	5.88
723.077	5.88
723.829	4.88
724.581	2.88
725.333	4.88
726.085	4.88
726.836	3.88
727.588	4.88
728.34	2.88
729.091	3.88
729.843	2.88
730.594	2.88
731.346	4.88
732.097	4.88
732.848	4.88
733.599	4.88
734.35	4.88
735.101	3.88
735.852	3.88
736.603	3.88
737.354	2.88
738.104	5.88
738.855	4.88
739.605	6.88
740.356	3.88
741.106	5.88
741.856	5.88
742.607	5.88
743.357	2.88
744.107	5.88
744.857	4.88
745.607	7.88
746.357	5.88
747.106	6.88
747.856	5.88
748.606	7.88
749.355	4.88
750.105	5.88
750.854	5.88
751.603	1.88
752.353	5.88
753.102	3.88
753.851	5.88
754.6	5.88
755.349	6.88
756.098	3.88
756.847	5.88
757.595	3.88
758.344	5.88
759.093	5.88
759.841	7.88
760.589	7.88
761.338	7.88
762.086	5.88
762.834	4.88
763.582	7.88
764.331	6.88
765.079	9.88
765.826	5.88
766.574	8.88
767.322	9.88
768.07	5.88
768.817	7.88
769.565	6.88
770.312	9.88
771.06	8.88
771.807	7.88
772.554	8.88
773.302	5.88
774.049	5.88
774.796	7.88
775.543	7.88
776.29	9.88
777.036	9.88
777.783	6.88
778.53	10.88
779.276	9.88
780.023	7.88
780.769	9.88
781.516	7.88
782.262	7.88
783.008	9.88
783.754	7.88
784.5	7.88
785.246	7.88
785.992	10.88
786.738	7.88
787.484	9.88
788.23	9.88
788.975	9.88
789.721	8.88
790.466	8.88
791.212	8.88
791.957	9.88
792.702	7.88
793.447	9.88
794.193	8.88
794.938	9.88
795.683	6.88
796.427	7.88
797.172	7.88
797.917	8.88
798.662	6.88
799.406	5.88
800.151	7.88
800.895	6.88
801.64	7.88
802.384	7.88
803.128	8.88
803.872	6.88
804.616	6.88
805.36	8.88
806.104	4.88
806.848	5.88
807.592	6.88
808.336	6.88
809.079	8.88
809.823	4.88
810.566	2.88
811.31	6.88
812.053	6.88
812.796	4.88
813.539	5.88
814.283	7.88
815.026	5.88
815.769	7.88
816.511	5.88
817.254	6.88
817.997	5.88
818.74	4.88
819.482	6.88
820.225	5.88
820.967	4.88
821.71	4.88
822.452	3.88
823.194	4.88
823.936	5.88
824.678	5.88
825.42	4.88
826.162	4.88
826.904	7.88
827.646	3.88
828.388	4.88
829.129	3.88
829.871	3.88
830.612	4.88
831.354	1.88
832.095	4.88
832.836	3.88
833.577	4.88
834.319	5.88
835.06	3.88
835.801	3.88
836.542	5.88
837.282	3.88
838.023	2.88
838.764	6.88
839.504	3.88
840.245	5.88
840.985	5.88
841.726	3.88
842.466	3.88
843.206	2.88
843.946	3.88
844.687	2.88
845.427	4.88
846.166	1.88
846.906	1.88
847.646	4.88
848.386	4.88
849.125	4.88
849.865	3.88
850.605	3.88
851.344	2.88
852.083	2.88
852.823	2.88
853.562	1.88
854.301	4.88
855.04	3.88
855.779	0.88
856.518	1.88
857.257	3.88
857.995	2.88
858.734	5.88
859.473	3.88
860.211	2.88
860.95	3.88
861.688	2.88
862.426	1.88
863.165	4.88
863.903	2.88
864.641	4.88
865.379	6.88
866.117	2.88
866.855	2.88
867.593	1.88
868.33	1.88
869.068	2.88
869.806	3.88
870.543	3.88
871.28	2.88
872.018	4.88
872.755	2.88
873.492	0.88
874.229	1.88
874.967	2.88
875.703	2.88
876.44	3.88
877.177	4.88
877.914	1.88
878.651	2.88
879.387	3.88
880.124	2.88
880.86	2.88
881.597	1.88
882.333	1.88
883.069	2.88
883.806	1.88
884.542	2.88
885.278	1.88
886.014	1.88
886.749	-0.12
887.485	3.88
888.221	2.88
888.957	0.88
889.692	2.88
890.428	0.88
891.163	2.88
891.899	2.88
892.634	1.88
893.369	2.88
894.104	2.88
894.839	0.88
895.574	2.88
896.309	1.88
897.044	2.88
897.779	2.88
898.514	1.88
899.248	0.88
899.983	1.88
900.717	-0.12
901.452	0.88
902.186	2.88
902.92	1.88
903.654	2.88
904.389	1.88
905.123	3.88
905.857	0.88
906.59	2.88
907.324	2.88
908.058	2.88
908.792	1.88
909.525	0.88
910.259	-0.12
910.992	1.88
911.726	0.88
912.459	-0.12
913.192	2.88
913.925	0.88
914.658	0.88
915.391	2.88
916.124	1.88
916.857	0.88
917.59	3.88
918.323	-0.12
919.055	1.88
919.788	-1.12
920.521	2.88
921.253	2.88
921.985	1.88
922.718	2.88
923.45	1.88
924.182	0.88
924.914	-0.12
925.646	0.88
926.378	0.88
927.11	0.88
927.841	1.88
928.573	0.88
929.305	1.88
930.036	1.88
930.768	1.88
931.499	0.88
932.23	-0.12
932.962	1.88
933.693	0.88
934.424	2.88
935.155	-0.12
935.886	0.88
936.617	2.88
937.348	-0.12
938.078	0.88
938.809	-0.12
939.54	2.88
940.27	0.88
941.001	2.88
941.731	0.88
942.461	1.88
943.191	0.88
943.922	1.88
944.652	2.88
945.382	2.88
946.112	-0.12
946.841	2.88
947.571	-0.12
948.301	3.88
949.031	0.88
949.76	-0.12
950.49	1.88
951.219	-0.12
951.948	1.88
952.678	1.88
953.407	-1.12
954.136	0.88
954.865	-0.12
955.594	1.88
956.323	0.88
957.052	0.88
957.78	0.88
958.509	0.88
959.238	-1.12
959.966	-1.12
960.695	1.88
961.423	-1.12
962.151	0.88
962.88	1.88
963.608	1.88
964.336	-2.12
965.064	2.88
965.792	1.88
966.52	0.88
967.247	2.88
967.975	2.88
968.703	2.88
969.43	0.88
970.158	0.88
970.885	0.88
971.613	0.88
972.34	-0.12
973.067	1.88
973.794	1.88
974.521	-0.12
975.248	1.88
975.975	1.88
976.702	1.88
977.429	3.88
978.156	0.88
978.882	0.88
979.609	3.88
980.335	1.88
981.062	1.88
981.788	-1.12
982.514	-2.12
983.24	-0.12
983.967	1.88
984.693	-0.12
985.419	-1.12
986.144	1.88
986.87	1.88
987.596	1.88
988.322	1.88
989.047	1.88
989.773	0.88
990.498	0.88
991.224	2.88
991.949	-0.12
992.674	2.88
993.399	1.88
994.124	0.88
994.849	1.88
995.574	0.88
996.299	0.88
997.024	-1.12
997.749	2.88
998.473	1.88
999.198	-0.12
999.922	0.88
1000.647	-0.12
1001.371	4.88
1002.095	-1.12
1002.82	-1.12
1003.544	-1.12
1004.268	1.88
1004.992	1.88
1005.716	2.88
1006.439	1.88
1007.163	1.88
1007.887	1.88
1008.611	2.88
1009.334	0.88
1010.058	2.88
1010.781	0.88
1011.504	0.88
1012.228	-1.12
1012.951	-1.12
1013.674	0.88
1014.397	-1.12
1015.12	-0.12
