节点500_285_QEPB04081__334__15-01-06-700.txt的数据

Date: Wed Nov 12 15:01:06 CST 2025
User: PC
Spectrometer: QEPB0408
触发模式: 0
积分时间 (秒): 1.000000E-2
Scans to average: 1
启用暗噪声校正: true
启用非线性校正: false
滑动平均宽度: 0
X轴模式: Wavelengths
Number of Pixels in Spectrum: 1044
>>>>>Begin Spectral Data<<<<<
220.843	1.12
221.644	1.12
222.444	2.12
223.244	1.12
224.045	-0.88
224.845	1.12
225.645	0.12
226.445	0.12
227.245	0.12
228.045	1.12
228.845	2.12
229.645	1.12
230.444	3.12
231.244	3.12
232.043	2.12
232.843	3.12
233.642	2.12
234.442	2.12
235.241	1.12
236.04	3.12
236.839	4.12
237.638	3.12
238.437	6.12
239.236	4.12
240.035	8.12
240.833	4.12
241.632	5.12
242.43	4.12
243.229	4.12
244.027	5.12
244.826	5.12
245.624	7.12
246.422	4.12
247.22	5.12
248.018	4.12
248.816	5.12
249.614	8.12
250.412	4.12
251.21	3.12
252.007	8.12
252.805	6.12
253.602	7.12
254.4	5.12
255.197	7.12
255.994	6.12
256.791	8.12
257.589	7.12
258.386	9.12
259.183	9.12
259.979	9.12
260.776	9.12
261.573	9.12
262.37	9.12
263.166	11.12
263.963	11.12
264.759	11.12
265.556	8.12
266.352	12.12
267.148	13.12
267.944	11.12
268.74	11.12
269.536	10.12
270.332	13.12
271.128	14.12
271.924	15.12
272.719	15.12
273.515	15.12
274.311	17.12
275.106	17.12
275.901	15.12
276.697	13.12
277.492	18.12
278.287	16.12
279.082	17.12
279.877	16.12
280.672	15.12
281.467	18.12
282.262	22.12
283.056	18.12
283.851	19.12
284.646	21.12
285.44	20.12
286.234	18.12
287.029	17.12
287.823	18.12
288.617	18.12
289.411	18.12
290.205	16.12
290.999	17.12
291.793	17.12
292.587	17.12
293.381	17.12
294.174	16.12
294.968	17.12
295.761	16.12
296.555	12.12
297.348	16.12
298.141	12.12
298.935	15.12
299.728	13.12
300.521	15.12
301.314	13.12
302.107	13.12
302.899	11.12
303.692	14.12
304.485	13.12
305.277	11.12
306.07	12.12
306.862	11.12
307.655	13.12
308.447	10.12
309.239	10.12
310.031	12.12
310.823	10.12
311.615	10.12
312.407	12.12
313.199	8.12
313.991	11.12
314.783	10.12
315.574	7.12
316.366	9.12
317.157	9.12
317.949	8.12
318.74	7.12
319.531	7.12
320.322	6.12
321.113	8.12
321.904	7.12
322.695	8.12
323.486	4.12
324.277	7.12
325.068	8.12
325.858	7.12
326.649	7.12
327.439	4.12
328.23	7.12
329.02	7.12
329.81	7.12
330.6	7.12
331.391	8.12
332.181	5.12
332.971	7.12
333.76	8.12
334.55	7.12
335.34	3.12
336.13	7.12
336.919	5.12
337.709	4.12
338.498	6.12
339.287	9.12
340.077	9.12
340.866	6.12
341.655	7.12
342.444	7.12
343.233	6.12
344.022	5.12
344.811	6.12
345.6	7.12
346.388	6.12
347.177	4.12
347.965	7.12
348.754	5.12
349.542	5.12
350.33	5.12
351.119	6.12
351.907	6.12
352.695	6.12
353.483	5.12
354.271	3.12
355.059	7.12
355.846	5.12
356.634	6.12
357.422	7.12
358.209	3.12
358.997	7.12
359.784	5.12
360.571	3.12
361.359	6.12
362.146	5.12
362.933	5.12
363.72	4.12
364.507	6.12
365.294	6.12
366.081	4.12
366.867	4.12
367.654	1.12
368.44	4.12
369.227	2.12
370.013	6.12
370.8	5.12
371.586	1.12
372.372	3.12
373.158	5.12
373.944	5.12
374.73	6.12
375.516	5.12
376.302	5.12
377.088	8.12
377.873	7.12
378.659	3.12
379.445	5.12
380.23	5.12
381.015	4.12
381.801	7.12
382.586	6.12
383.371	3.12
384.156	4.12
384.941	5.12
385.726	5.12
386.511	5.12
387.296	3.12
388.08	3.12
388.865	7.12
389.649	3.12
390.434	4.12
391.218	6.12
392.003	6.12
392.787	3.12
393.571	3.12
394.355	5.12
395.139	5.12
395.923	7.12
396.707	6.12
397.491	5.12
398.274	6.12
399.058	5.12
399.842	5.12
400.625	4.12
401.408	7.12
402.192	8.12
402.975	7.12
403.758	7.12
404.541	4.12
405.324	9.12
406.107	8.12
406.89	9.12
407.673	8.12
408.456	7.12
409.238	10.12
410.021	6.12
410.803	8.12
411.586	7.12
412.368	8.12
413.151	8.12
413.933	9.12
414.715	7.12
415.497	8.12
416.279	8.12
417.061	8.12
417.843	8.12
418.624	12.12
419.406	7.12
420.188	10.12
420.969	8.12
421.751	9.12
422.532	12.12
423.313	10.12
424.095	10.12
424.876	11.12
425.657	10.12
426.438	11.12
427.219	10.12
428	14.12
428.78	10.12
429.561	12.12
430.342	12.12
431.122	13.12
431.903	13.12
432.683	14.12
433.464	13.12
434.244	16.12
435.024	15.12
435.804	18.12
436.584	18.12
437.364	17.12
438.144	20.12
438.924	21.12
439.704	23.12
440.483	22.12
441.263	23.12
442.042	25.12
442.822	23.12
443.601	28.12
444.38	29.12
445.16	31.12
445.939	34.12
446.718	39.12
447.497	39.12
448.276	43.12
449.054	47.12
449.833	50.12
450.612	54.12
451.391	56.12
452.169	63.12
452.948	70.12
453.726	70.12
454.504	85.12
455.282	92.12
456.061	98.12
456.839	109.12
457.617	121.12
458.395	135.12
459.172	148.12
459.95	164.12
460.728	185.12
461.506	210.12
462.283	225.12
463.061	258.12
463.838	285.12
464.615	313.12
465.393	367.12
466.17	393.12
466.947	448.12
467.724	498.12
468.501	553.12
469.278	614.12
470.055	696.12
470.831	772.12
471.608	844.12
472.385	942.12
473.161	1046.12
473.938	1161.12
474.714	1287.12
475.49	1436.12
476.266	1576.12
477.043	1722.12
477.819	1943.12
478.595	2132.12
479.371	2360.12
480.146	2591.12
480.922	2874.12
481.698	3165.12
482.473	3463.12
483.249	3817.12
484.024	4208.12
484.8	4640.12
485.575	5075.12
486.35	5571.12
487.126	6131.12
487.901	6725.12
488.676	7376.12
489.451	8078.12
490.225	8853.12
491	9654.12
491.775	10544.12
492.55	11463.12
493.324	12414.12
494.099	13394.12
494.873	14462.12
495.647	15576.12
496.422	16729.12
497.196	17918.12
497.97	19171.12
498.744	20303.12
499.518	21505.12
500.292	22624.12
501.066	23760.12
501.839	24665.12
502.613	25557.12
503.387	26344.12
504.16	26960.12
504.934	27247.12
505.707	27448.12
506.48	27501.12
507.253	27493.12
508.027	27153.12
508.8	26842.12
509.573	26410.12
510.346	25763.12
511.118	24976.12
511.891	24248.12
512.664	23414.12
513.437	22489.12
514.209	21533.12
514.982	20719.12
515.754	19749.12
516.526	18864.12
517.298	18106.12
518.071	17222.12
518.843	16595.12
519.615	15967.12
520.387	15328.12
521.159	14736.12
521.93	14142.12
522.702	13631.12
523.474	13007.12
524.245	12453.12
525.017	11941.12
525.788	11470.12
526.56	10893.12
527.331	10410.12
528.102	9982.12
528.873	9523.12
529.644	8992.12
530.415	8576.12
531.186	8169.12
531.957	7703.12
532.728	7330.12
533.498	6926.12
534.269	6561.12
535.039	6214.12
535.81	5871.12
536.58	5538.12
537.351	5219.12
538.121	4921.12
538.891	4663.12
539.661	4407.12
540.431	4174.12
541.201	3921.12
541.971	3732.12
542.741	3545.12
543.51	3364.12
544.28	3178.12
545.05	3024.12
545.819	2900.12
546.588	2735.12
547.358	2606.12
548.127	2488.12
548.896	2336.12
549.665	2241.12
550.434	2106.12
551.203	2003.12
551.972	1890.12
552.741	1785.12
553.51	1690.12
554.278	1593.12
555.047	1521.12
555.815	1428.12
556.584	1355.12
557.352	1268.12
558.121	1209.12
558.889	1133.12
559.657	1071.12
560.425	1002.12
561.193	945.12
561.961	899.12
562.729	849.12
563.496	805.12
564.264	747.12
565.032	718.12
565.799	682.12
566.567	650.12
567.334	603.12
568.101	571.12
568.869	542.12
569.636	514.12
570.403	478.12
571.17	446.12
571.937	426.12
572.704	401.12
573.471	388.12
574.237	362.12
575.004	333.12
575.771	317.12
576.537	297.12
577.303	280.12
578.07	259.12
578.836	246.12
579.602	235.12
580.368	222.12
581.134	214.12
581.9	205.12
582.666	190.12
583.432	178.12
584.198	173.12
584.964	157.12
585.729	150.12
586.495	145.12
587.26	139.12
588.025	129.12
588.791	124.12
589.556	115.12
590.321	113.12
591.086	104.12
591.851	99.12
592.616	97.12
593.381	93.12
594.146	85.12
594.911	82.12
595.675	78.12
596.44	75.12
597.204	73.12
597.969	65.12
598.733	67.12
599.497	59.12
600.261	60.12
601.025	55.12
601.79	54.12
602.553	54.12
603.317	49.12
604.081	48.12
604.845	45.12
605.609	45.12
606.372	44.12
607.136	40.12
607.899	37.12
608.662	38.12
609.426	33.12
610.189	33.12
610.952	29.12
611.715	28.12
612.478	32.12
613.241	29.12
614.004	28.12
614.767	24.12
615.529	25.12
616.292	24.12
617.055	24.12
617.817	23.12
618.579	22.12
619.342	23.12
620.104	21.12
620.866	21.12
621.628	19.12
622.39	20.12
623.152	20.12
623.914	16.12
624.676	17.12
625.438	15.12
626.199	15.12
626.961	15.12
627.722	15.12
628.484	13.12
629.245	13.12
630.006	13.12
630.768	13.12
631.529	12.12
632.29	14.12
633.051	12.12
633.812	12.12
634.573	9.12
635.333	9.12
636.094	10.12
636.855	10.12
637.615	7.12
638.376	10.12
639.136	11.12
639.896	9.12
640.657	7.12
641.417	9.12
642.177	11.12
642.937	8.12
643.697	8.12
644.457	9.12
645.216	7.12
645.976	6.12
646.736	6.12
647.495	6.12
648.255	8.12
649.014	7.12
649.774	8.12
650.533	4.12
651.292	6.12
652.051	7.12
652.81	7.12
653.569	8.12
654.328	5.12
655.087	6.12
655.846	6.12
656.604	4.12
657.363	6.12
658.121	6.12
658.88	7.12
659.638	6.12
660.397	6.12
661.155	5.12
661.913	4.12
662.671	3.12
663.429	2.12
664.187	5.12
664.945	4.12
665.703	2.12
666.46	5.12
667.218	1.12
667.976	5.12
668.733	5.12
669.49	2.12
670.248	2.12
671.005	1.12
671.762	4.12
672.519	4.12
673.276	3.12
674.033	5.12
674.79	5.12
675.547	6.12
676.304	4.12
677.06	5.12
677.817	3.12
678.574	3.12
679.33	3.12
680.086	1.12
680.843	4.12
681.599	1.12
682.355	4.12
683.111	3.12
683.867	5.12
684.623	6.12
685.379	2.12
686.135	5.12
686.89	2.12
687.646	4.12
688.402	5.12
689.157	1.12
689.912	2.12
690.668	3.12
691.423	3.12
692.178	4.12
692.933	1.12
693.688	4.12
694.443	2.12
695.198	4.12
695.953	3.12
696.708	3.12
697.462	5.12
698.217	5.12
698.972	3.12
699.726	1.12
700.48	3.12
701.235	1.12
701.989	2.12
702.743	5.12
703.497	0.12
704.251	1.12
705.005	4.12
705.759	3.12
706.513	3.12
707.266	5.12
708.02	3.12
708.774	5.12
709.527	4.12
710.28	5.12
711.034	3.12
711.787	4.12
712.54	2.12
713.293	3.12
714.046	4.12
714.799	3.12
715.552	1.12
716.305	2.12
717.058	3.12
717.81	4.12
718.563	3.12
719.315	3.12
720.068	4.12
720.82	5.12
721.573	3.12
722.325	2.12
723.077	6.12
723.829	1.12
724.581	3.12
725.333	1.12
726.085	0.12
726.836	1.12
727.588	3.12
728.34	2.12
729.091	2.12
729.843	4.12
730.594	3.12
731.346	5.12
732.097	3.12
732.848	4.12
733.599	6.12
734.35	2.12
735.101	3.12
735.852	6.12
736.603	2.12
737.354	5.12
738.104	4.12
738.855	3.12
739.605	3.12
740.356	1.12
741.106	6.12
741.856	6.12
742.607	7.12
743.357	4.12
744.107	5.12
744.857	5.12
745.607	5.12
746.357	5.12
747.106	5.12
747.856	3.12
748.606	5.12
749.355	6.12
750.105	2.12
750.854	6.12
751.603	5.12
752.353	2.12
753.102	3.12
753.851	4.12
754.6	4.12
755.349	6.12
756.098	7.12
756.847	7.12
757.595	6.12
758.344	8.12
759.093	4.12
759.841	6.12
760.589	7.12
761.338	5.12
762.086	8.12
762.834	7.12
763.582	7.12
764.331	4.12
765.079	7.12
765.826	7.12
766.574	5.12
767.322	7.12
768.07	5.12
768.817	7.12
769.565	5.12
770.312	8.12
771.06	6.12
771.807	7.12
772.554	8.12
773.302	4.12
774.049	7.12
774.796	6.12
775.543	9.12
776.29	8.12
777.036	6.12
777.783	6.12
778.53	7.12
779.276	9.12
780.023	9.12
780.769	7.12
781.516	6.12
782.262	8.12
783.008	10.12
783.754	7.12
784.5	6.12
785.246	8.12
785.992	8.12
786.738	7.12
787.484	7.12
788.23	10.12
788.975	9.12
789.721	7.12
790.466	7.12
791.212	7.12
791.957	6.12
792.702	8.12
793.447	7.12
794.193	6.12
794.938	6.12
795.683	8.12
796.427	7.12
797.172	9.12
797.917	6.12
798.662	10.12
799.406	9.12
800.151	9.12
800.895	6.12
801.64	6.12
802.384	8.12
803.128	5.12
803.872	7.12
804.616	6.12
805.36	8.12
806.104	9.12
806.848	7.12
807.592	4.12
808.336	7.12
809.079	4.12
809.823	6.12
810.566	7.12
811.31	4.12
812.053	5.12
812.796	5.12
813.539	6.12
814.283	5.12
815.026	5.12
815.769	6.12
816.511	4.12
817.254	3.12
817.997	4.12
818.74	6.12
819.482	5.12
820.225	3.12
820.967	3.12
821.71	4.12
822.452	5.12
823.194	3.12
823.936	2.12
824.678	3.12
825.42	4.12
826.162	4.12
826.904	6.12
827.646	3.12
828.388	2.12
829.129	3.12
829.871	6.12
830.612	5.12
831.354	4.12
832.095	4.12
832.836	6.12
833.577	3.12
834.319	3.12
835.06	3.12
835.801	4.12
836.542	5.12
837.282	2.12
838.023	6.12
838.764	4.12
839.504	3.12
840.245	2.12
840.985	4.12
841.726	0.12
842.466	3.12
843.206	2.12
843.946	4.12
844.687	3.12
845.427	1.12
846.166	2.12
846.906	4.12
847.646	2.12
848.386	3.12
849.125	0.12
849.865	3.12
850.605	1.12
851.344	3.12
852.083	3.12
852.823	2.12
853.562	4.12
854.301	1.12
855.04	4.12
855.779	3.12
856.518	3.12
857.257	1.12
857.995	-1.88
858.734	3.12
859.473	3.12
860.211	2.12
860.95	1.12
861.688	3.12
862.426	0.12
863.165	1.12
863.903	3.12
864.641	4.12
865.379	2.12
866.117	1.12
866.855	1.12
867.593	1.12
868.33	0.12
869.068	2.12
869.806	0.12
870.543	3.12
871.28	2.12
872.018	1.12
872.755	1.12
873.492	1.12
874.229	1.12
874.967	1.12
875.703	0.12
876.44	0.12
877.177	1.12
877.914	-0.88
878.651	0.12
879.387	1.12
880.124	2.12
880.86	0.12
881.597	0.12
882.333	1.12
883.069	2.12
883.806	-0.88
884.542	-1.88
885.278	0.12
886.014	-0.88
886.749	-0.88
887.485	-0.88
888.221	-0.88
888.957	2.12
889.692	-0.88
890.428	-0.88
891.163	-0.88
891.899	3.12
892.634	-0.88
893.369	0.12
894.104	-0.88
894.839	-0.88
895.574	-1.88
896.309	1.12
897.044	-1.88
897.779	0.12
898.514	1.12
899.248	0.12
899.983	1.12
900.717	1.12
901.452	0.12
902.186	0.12
902.92	-1.88
903.654	-0.88
904.389	-0.88
905.123	1.12
905.857	-0.88
906.59	0.12
907.324	0.12
908.058	-0.88
908.792	0.12
909.525	1.12
910.259	-0.88
910.992	-0.88
911.726	0.12
912.459	-0.88
913.192	-0.88
913.925	0.12
914.658	1.12
915.391	1.12
916.124	-0.88
916.857	0.12
917.59	-1.88
918.323	2.12
919.055	0.12
919.788	1.12
920.521	-2.88
921.253	-0.88
921.985	0.12
922.718	1.12
923.45	1.12
924.182	4.12
924.914	-0.88
925.646	-0.88
926.378	-0.88
927.11	1.12
927.841	0.12
928.573	0.12
929.305	-0.88
930.036	0.12
930.768	-0.88
931.499	1.12
932.23	-0.88
932.962	-1.88
933.693	-0.88
934.424	1.12
935.155	0.12
935.886	0.12
936.617	0.12
937.348	0.12
938.078	-0.88
938.809	-0.88
939.54	0.12
940.27	0.12
941.001	0.12
941.731	-0.88
942.461	-1.88
943.191	0.12
943.922	0.12
944.652	1.12
945.382	1.12
946.112	0.12
946.841	0.12
947.571	0.12
948.301	-1.88
949.031	-0.88
949.76	1.12
950.49	-0.88
951.219	1.12
951.948	1.12
952.678	1.12
953.407	-0.88
954.136	0.12
954.865	-0.88
955.594	0.12
956.323	0.12
957.052	0.12
957.78	1.12
958.509	0.12
959.238	-1.88
959.966	1.12
960.695	-0.88
961.423	-0.88
962.151	-2.88
962.88	-0.88
963.608	3.12
964.336	-0.88
965.064	1.12
965.792	-1.88
966.52	-0.88
967.247	0.12
967.975	-0.88
968.703	-0.88
969.43	0.12
970.158	-0.88
970.885	1.12
971.613	0.12
972.34	-0.88
973.067	1.12
973.794	-1.88
974.521	0.12
975.248	-1.88
975.975	-2.88
976.702	0.12
977.429	0.12
978.156	-0.88
978.882	0.12
979.609	1.12
980.335	-0.88
981.062	0.12
981.788	-0.88
982.514	0.12
983.24	0.12
983.967	-0.88
984.693	-0.88
985.419	0.12
986.144	0.12
986.87	-1.88
987.596	0.12
988.322	-0.88
989.047	-1.88
989.773	0.12
990.498	-1.88
991.224	2.12
991.949	-2.88
992.674	-0.88
993.399	0.12
994.124	0.12
994.849	-0.88
995.574	-0.88
996.299	0.12
997.024	1.12
997.749	0.12
998.473	0.12
999.198	-0.88
999.922	-0.88
1000.647	-1.88
1001.371	4.12
1002.095	0.12
1002.82	-0.88
1003.544	-1.88
1004.268	-0.88
1004.992	-1.88
1005.716	0.12
1006.439	-0.88
1007.163	2.12
1007.887	2.12
1008.611	3.12
1009.334	-1.88
1010.058	0.12
1010.781	1.12
1011.504	-0.88
1012.228	-0.88
1012.951	0.12
1013.674	-1.88
1014.397	1.12
1015.12	-0.88
