节点500_285_QEPB04081__495__15-03-47-417.txt的数据

Date: Wed Nov 12 15:03:47 CST 2025
User: PC
Spectrometer: QEPB0408
触发模式: 0
积分时间 (秒): 1.000000E-2
Scans to average: 1
启用暗噪声校正: true
启用非线性校正: false
滑动平均宽度: 0
X轴模式: Wavelengths
Number of Pixels in Spectrum: 1044
>>>>>Begin Spectral Data<<<<<
220.843	1.62
221.644	0.62
222.444	-0.38
223.244	1.62
224.045	-0.38
224.845	1.62
225.645	0.62
226.445	3.62
227.245	1.62
228.045	1.62
228.845	3.62
229.645	-0.38
230.444	2.62
231.244	2.62
232.043	2.62
232.843	3.62
233.642	1.62
234.442	2.62
235.241	2.62
236.04	5.62
236.839	3.62
237.638	4.62
238.437	1.62
239.236	4.62
240.035	5.62
240.833	2.62
241.632	3.62
242.43	5.62
243.229	6.62
244.027	3.62
244.826	3.62
245.624	5.62
246.422	5.62
247.22	7.62
248.018	6.62
248.816	7.62
249.614	5.62
250.412	6.62
251.21	7.62
252.007	7.62
252.805	7.62
253.602	4.62
254.4	6.62
255.197	5.62
255.994	6.62
256.791	7.62
257.589	7.62
258.386	8.62
259.183	8.62
259.979	7.62
260.776	7.62
261.573	8.62
262.37	11.62
263.166	10.62
263.963	11.62
264.759	12.62
265.556	8.62
266.352	12.62
267.148	10.62
267.944	12.62
268.74	14.62
269.536	15.62
270.332	12.62
271.128	11.62
271.924	13.62
272.719	13.62
273.515	16.62
274.311	15.62
275.106	16.62
275.901	18.62
276.697	14.62
277.492	17.62
278.287	16.62
279.082	15.62
279.877	16.62
280.672	16.62
281.467	17.62
282.262	17.62
283.056	17.62
283.851	18.62
284.646	19.62
285.44	19.62
286.234	17.62
287.029	18.62
287.823	19.62
288.617	15.62
289.411	16.62
290.205	17.62
290.999	20.62
291.793	16.62
292.587	17.62
293.381	15.62
294.174	14.62
294.968	18.62
295.761	12.62
296.555	18.62
297.348	13.62
298.141	17.62
298.935	15.62
299.728	13.62
300.521	14.62
301.314	13.62
302.107	11.62
302.899	13.62
303.692	10.62
304.485	13.62
305.277	10.62
306.07	11.62
306.862	12.62
307.655	10.62
308.447	11.62
309.239	13.62
310.031	12.62
310.823	10.62
311.615	9.62
312.407	10.62
313.199	10.62
313.991	9.62
314.783	7.62
315.574	9.62
316.366	6.62
317.157	7.62
317.949	5.62
318.74	6.62
319.531	6.62
320.322	6.62
321.113	6.62
321.904	7.62
322.695	9.62
323.486	6.62
324.277	8.62
325.068	8.62
325.858	6.62
326.649	8.62
327.439	4.62
328.23	7.62
329.02	8.62
329.81	6.62
330.6	6.62
331.391	8.62
332.181	7.62
332.971	7.62
333.76	5.62
334.55	6.62
335.34	4.62
336.13	9.62
336.919	4.62
337.709	7.62
338.498	6.62
339.287	7.62
340.077	4.62
340.866	7.62
341.655	5.62
342.444	6.62
343.233	7.62
344.022	4.62
344.811	6.62
345.6	4.62
346.388	2.62
347.177	6.62
347.965	5.62
348.754	7.62
349.542	4.62
350.33	5.62
351.119	3.62
351.907	4.62
352.695	5.62
353.483	6.62
354.271	4.62
355.059	6.62
355.846	3.62
356.634	7.62
357.422	4.62
358.209	7.62
358.997	5.62
359.784	1.62
360.571	2.62
361.359	1.62
362.146	6.62
362.933	3.62
363.72	4.62
364.507	5.62
365.294	5.62
366.081	4.62
366.867	4.62
367.654	5.62
368.44	3.62
369.227	3.62
370.013	6.62
370.8	4.62
371.586	4.62
372.372	4.62
373.158	4.62
373.944	4.62
374.73	4.62
375.516	4.62
376.302	4.62
377.088	5.62
377.873	4.62
378.659	5.62
379.445	6.62
380.23	3.62
381.015	6.62
381.801	2.62
382.586	6.62
383.371	4.62
384.156	4.62
384.941	6.62
385.726	2.62
386.511	5.62
387.296	6.62
388.08	6.62
388.865	3.62
389.649	4.62
390.434	3.62
391.218	4.62
392.003	3.62
392.787	4.62
393.571	4.62
394.355	7.62
395.139	3.62
395.923	6.62
396.707	8.62
397.491	7.62
398.274	5.62
399.058	7.62
399.842	6.62
400.625	4.62
401.408	5.62
402.192	3.62
402.975	8.62
403.758	6.62
404.541	4.62
405.324	5.62
406.107	7.62
406.89	6.62
407.673	8.62
408.456	7.62
409.238	5.62
410.021	4.62
410.803	6.62
411.586	7.62
412.368	7.62
413.151	6.62
413.933	4.62
414.715	8.62
415.497	7.62
416.279	9.62
417.061	9.62
417.843	10.62
418.624	8.62
419.406	8.62
420.188	8.62
420.969	8.62
421.751	11.62
422.532	9.62
423.313	8.62
424.095	11.62
424.876	11.62
425.657	12.62
426.438	12.62
427.219	13.62
428	12.62
428.78	12.62
429.561	12.62
430.342	12.62
431.122	13.62
431.903	13.62
432.683	16.62
433.464	12.62
434.244	14.62
435.024	18.62
435.804	15.62
436.584	21.62
437.364	18.62
438.144	18.62
438.924	18.62
439.704	20.62
440.483	21.62
441.263	21.62
442.042	26.62
442.822	25.62
443.601	28.62
444.38	29.62
445.16	29.62
445.939	34.62
446.718	41.62
447.497	41.62
448.276	44.62
449.054	43.62
449.833	49.62
450.612	53.62
451.391	55.62
452.169	65.62
452.948	72.62
453.726	80.62
454.504	83.62
455.282	93.62
456.061	102.62
456.839	112.62
457.617	123.62
458.395	144.62
459.172	151.62
459.95	170.62
460.728	196.62
461.506	212.62
462.283	242.62
463.061	269.62
463.838	293.62
464.615	329.62
465.393	373.62
466.17	415.62
466.947	459.62
467.724	513.62
468.501	569.62
469.278	639.62
470.055	700.62
470.831	798.62
471.608	863.62
472.385	954.62
473.161	1078.62
473.938	1174.62
474.714	1305.62
475.49	1435.62
476.266	1595.62
477.043	1773.62
477.819	1928.62
478.595	2122.62
479.371	2348.62
480.146	2563.62
480.922	2841.62
481.698	3120.62
482.473	3429.62
483.249	3745.62
484.024	4157.62
484.8	4534.62
485.575	4939.62
486.35	5447.62
487.126	5975.62
487.901	6526.62
488.676	7130.62
489.451	7803.62
490.225	8514.62
491	9276.62
491.775	10096.62
492.55	11051.62
493.324	11922.62
494.099	12815.62
494.873	13853.62
495.647	14898.62
496.422	16034.62
497.196	17084.62
497.97	18278.62
498.744	19363.62
499.518	20568.62
500.292	21647.62
501.066	22682.62
501.839	23621.62
502.613	24596.62
503.387	25366.62
504.16	26037.62
504.934	26413.62
505.707	26654.62
506.48	26753.62
507.253	26819.62
508.027	26645.62
508.8	26347.62
509.573	25996.62
510.346	25504.62
511.118	24878.62
511.891	24138.62
512.664	23351.62
513.437	22487.62
514.209	21542.62
514.982	20816.62
515.754	19908.62
516.526	19025.62
517.298	18187.62
518.071	17361.62
518.843	16709.62
519.615	16128.62
520.387	15456.62
521.159	14804.62
521.93	14259.62
522.702	13671.62
523.474	13129.62
524.245	12527.62
525.017	12017.62
525.788	11621.62
526.56	11083.62
527.331	10550.62
528.102	10066.62
528.873	9614.62
529.644	9190.62
530.415	8725.62
531.186	8275.62
531.957	7878.62
532.728	7450.62
533.498	7113.62
534.269	6681.62
535.039	6345.62
535.81	6025.62
536.58	5670.62
537.351	5312.62
538.121	5044.62
538.891	4773.62
539.661	4497.62
540.431	4247.62
541.201	4032.62
541.971	3832.62
542.741	3616.62
543.51	3428.62
544.28	3260.62
545.05	3107.62
545.819	2958.62
546.588	2821.62
547.358	2667.62
548.127	2550.62
548.896	2402.62
549.665	2281.62
550.434	2137.62
551.203	2057.62
551.972	1934.62
552.741	1824.62
553.51	1740.62
554.278	1652.62
555.047	1553.62
555.815	1449.62
556.584	1383.62
557.352	1308.62
558.121	1224.62
558.889	1169.62
559.657	1080.62
560.425	1034.62
561.193	978.62
561.961	910.62
562.729	874.62
563.496	838.62
564.264	777.62
565.032	755.62
565.799	698.62
566.567	660.62
567.334	625.62
568.101	586.62
568.869	552.62
569.636	523.62
570.403	494.62
571.17	465.62
571.937	444.62
572.704	409.62
573.471	388.62
574.237	373.62
575.004	343.62
575.771	324.62
576.537	310.62
577.303	293.62
578.07	276.62
578.836	257.62
579.602	235.62
580.368	226.62
581.134	218.62
581.9	205.62
582.666	194.62
583.432	180.62
584.198	173.62
584.964	162.62
585.729	154.62
586.495	146.62
587.26	142.62
588.025	135.62
588.791	125.62
589.556	118.62
590.321	108.62
591.086	102.62
591.851	106.62
592.616	97.62
593.381	92.62
594.146	87.62
594.911	85.62
595.675	81.62
596.44	77.62
597.204	74.62
597.969	66.62
598.733	65.62
599.497	63.62
600.261	62.62
601.025	60.62
601.79	53.62
602.553	53.62
603.317	52.62
604.081	50.62
604.845	43.62
605.609	43.62
606.372	40.62
607.136	39.62
607.899	39.62
608.662	36.62
609.426	35.62
610.189	37.62
610.952	35.62
611.715	31.62
612.478	29.62
613.241	30.62
614.004	25.62
614.767	29.62
615.529	26.62
616.292	25.62
617.055	23.62
617.817	24.62
618.579	25.62
619.342	21.62
620.104	23.62
620.866	23.62
621.628	21.62
622.39	20.62
623.152	18.62
623.914	16.62
624.676	15.62
625.438	16.62
626.199	13.62
626.961	14.62
627.722	15.62
628.484	12.62
629.245	12.62
630.006	12.62
630.768	15.62
631.529	11.62
632.29	13.62
633.051	12.62
633.812	9.62
634.573	11.62
635.333	12.62
636.094	11.62
636.855	9.62
637.615	8.62
638.376	8.62
639.136	8.62
639.896	11.62
640.657	10.62
641.417	9.62
642.177	6.62
642.937	6.62
643.697	9.62
644.457	7.62
645.216	7.62
645.976	8.62
646.736	7.62
647.495	8.62
648.255	5.62
649.014	7.62
649.774	7.62
650.533	5.62
651.292	7.62
652.051	4.62
652.81	6.62
653.569	5.62
654.328	6.62
655.087	6.62
655.846	7.62
656.604	6.62
657.363	5.62
658.121	7.62
658.88	3.62
659.638	5.62
660.397	2.62
661.155	3.62
661.913	4.62
662.671	6.62
663.429	7.62
664.187	6.62
664.945	4.62
665.703	4.62
666.46	3.62
667.218	5.62
667.976	3.62
668.733	5.62
669.49	2.62
670.248	5.62
671.005	3.62
671.762	1.62
672.519	4.62
673.276	3.62
674.033	3.62
674.79	3.62
675.547	5.62
676.304	2.62
677.06	3.62
677.817	3.62
678.574	4.62
679.33	1.62
680.086	3.62
680.843	3.62
681.599	2.62
682.355	0.62
683.111	4.62
683.867	4.62
684.623	0.62
685.379	4.62
686.135	2.62
686.89	4.62
687.646	1.62
688.402	5.62
689.157	5.62
689.912	4.62
690.668	3.62
691.423	2.62
692.178	3.62
692.933	2.62
693.688	1.62
694.443	4.62
695.198	1.62
695.953	3.62
696.708	3.62
697.462	5.62
698.217	0.62
698.972	3.62
699.726	5.62
700.48	0.62
701.235	3.62
701.989	1.62
702.743	2.62
703.497	2.62
704.251	1.62
705.005	3.62
705.759	2.62
706.513	4.62
707.266	4.62
708.02	5.62
708.774	2.62
709.527	2.62
710.28	1.62
711.034	3.62
711.787	1.62
712.54	2.62
713.293	3.62
714.046	4.62
714.799	1.62
715.552	4.62
716.305	3.62
717.058	3.62
717.81	2.62
718.563	2.62
719.315	4.62
720.068	0.62
720.82	6.62
721.573	4.62
722.325	1.62
723.077	2.62
723.829	3.62
724.581	6.62
725.333	1.62
726.085	1.62
726.836	1.62
727.588	3.62
728.34	3.62
729.091	2.62
729.843	5.62
730.594	4.62
731.346	2.62
732.097	3.62
732.848	3.62
733.599	2.62
734.35	4.62
735.101	5.62
735.852	1.62
736.603	5.62
737.354	6.62
738.104	4.62
738.855	4.62
739.605	3.62
740.356	4.62
741.106	5.62
741.856	4.62
742.607	4.62
743.357	4.62
744.107	4.62
744.857	4.62
745.607	4.62
746.357	3.62
747.106	2.62
747.856	3.62
748.606	5.62
749.355	4.62
750.105	4.62
750.854	5.62
751.603	3.62
752.353	5.62
753.102	5.62
753.851	4.62
754.6	5.62
755.349	6.62
756.098	5.62
756.847	4.62
757.595	7.62
758.344	6.62
759.093	7.62
759.841	7.62
760.589	7.62
761.338	3.62
762.086	6.62
762.834	6.62
763.582	5.62
764.331	5.62
765.079	5.62
765.826	8.62
766.574	6.62
767.322	7.62
768.07	6.62
768.817	5.62
769.565	6.62
770.312	5.62
771.06	6.62
771.807	7.62
772.554	10.62
773.302	7.62
774.049	4.62
774.796	7.62
775.543	6.62
776.29	7.62
777.036	7.62
777.783	7.62
778.53	6.62
779.276	9.62
780.023	9.62
780.769	6.62
781.516	7.62
782.262	7.62
783.008	10.62
783.754	5.62
784.5	7.62
785.246	8.62
785.992	7.62
786.738	8.62
787.484	5.62
788.23	7.62
788.975	8.62
789.721	7.62
790.466	7.62
791.212	5.62
791.957	8.62
792.702	5.62
793.447	8.62
794.193	5.62
794.938	9.62
795.683	6.62
796.427	8.62
797.172	6.62
797.917	7.62
798.662	6.62
799.406	5.62
800.151	5.62
800.895	6.62
801.64	5.62
802.384	7.62
803.128	5.62
803.872	4.62
804.616	6.62
805.36	4.62
806.104	6.62
806.848	6.62
807.592	2.62
808.336	4.62
809.079	2.62
809.823	4.62
810.566	5.62
811.31	4.62
812.053	6.62
812.796	5.62
813.539	5.62
814.283	4.62
815.026	4.62
815.769	5.62
816.511	5.62
817.254	3.62
817.997	5.62
818.74	4.62
819.482	2.62
820.225	4.62
820.967	6.62
821.71	5.62
822.452	1.62
823.194	1.62
823.936	3.62
824.678	2.62
825.42	4.62
826.162	1.62
826.904	4.62
827.646	1.62
828.388	3.62
829.129	5.62
829.871	1.62
830.612	1.62
831.354	2.62
832.095	1.62
832.836	4.62
833.577	2.62
834.319	1.62
835.06	3.62
835.801	2.62
836.542	3.62
837.282	2.62
838.023	2.62
838.764	3.62
839.504	3.62
840.245	5.62
840.985	0.62
841.726	1.62
842.466	4.62
843.206	1.62
843.946	3.62
844.687	1.62
845.427	-0.38
846.166	2.62
846.906	3.62
847.646	0.62
848.386	4.62
849.125	4.62
849.865	3.62
850.605	0.62
851.344	1.62
852.083	2.62
852.823	2.62
853.562	1.62
854.301	2.62
855.04	3.62
855.779	2.62
856.518	1.62
857.257	4.62
857.995	1.62
858.734	1.62
859.473	2.62
860.211	3.62
860.95	3.62
861.688	1.62
862.426	0.62
863.165	1.62
863.903	0.62
864.641	1.62
865.379	1.62
866.117	2.62
866.855	1.62
867.593	1.62
868.33	-2.38
869.068	1.62
869.806	-1.38
870.543	1.62
871.28	0.62
872.018	0.62
872.755	-0.38
873.492	1.62
874.229	0.62
874.967	2.62
875.703	0.62
876.44	3.62
877.177	0.62
877.914	0.62
878.651	-0.38
879.387	-0.38
880.124	0.62
880.86	1.62
881.597	0.62
882.333	0.62
883.069	0.62
883.806	2.62
884.542	-1.38
885.278	3.62
886.014	0.62
886.749	-0.38
887.485	1.62
888.221	0.62
888.957	0.62
889.692	0.62
890.428	2.62
891.163	-0.38
891.899	-0.38
892.634	-0.38
893.369	-0.38
894.104	0.62
894.839	0.62
895.574	-0.38
896.309	-1.38
897.044	-1.38
897.779	-1.38
898.514	0.62
899.248	0.62
899.983	-0.38
900.717	1.62
901.452	2.62
902.186	-0.38
902.92	1.62
903.654	-0.38
904.389	-0.38
905.123	-1.38
905.857	-0.38
906.59	0.62
907.324	1.62
908.058	0.62
908.792	-0.38
909.525	1.62
910.259	-0.38
910.992	0.62
911.726	0.62
912.459	-1.38
913.192	0.62
913.925	0.62
914.658	0.62
915.391	-0.38
916.124	0.62
916.857	0.62
917.59	-1.38
918.323	0.62
919.055	-0.38
919.788	-0.38
920.521	0.62
921.253	1.62
921.985	0.62
922.718	-0.38
923.45	1.62
924.182	0.62
924.914	-0.38
925.646	1.62
926.378	3.62
927.11	-1.38
927.841	-0.38
928.573	0.62
929.305	-1.38
930.036	1.62
930.768	-0.38
931.499	-0.38
932.23	-1.38
932.962	-1.38
933.693	-0.38
934.424	-0.38
935.155	-1.38
935.886	0.62
936.617	0.62
937.348	-1.38
938.078	-0.38
938.809	-0.38
939.54	0.62
940.27	-0.38
941.001	1.62
941.731	-2.38
942.461	-0.38
943.191	-2.38
943.922	-0.38
944.652	-0.38
945.382	0.62
946.112	1.62
946.841	-0.38
947.571	0.62
948.301	-1.38
949.031	0.62
949.76	-0.38
950.49	-1.38
951.219	0.62
951.948	-0.38
952.678	1.62
953.407	0.62
954.136	-0.38
954.865	-1.38
955.594	-1.38
956.323	-0.38
957.052	1.62
957.78	2.62
958.509	1.62
959.238	-1.38
959.966	0.62
960.695	-1.38
961.423	1.62
962.151	0.62
962.88	-0.38
963.608	-0.38
964.336	-1.38
965.064	0.62
965.792	-2.38
966.52	-1.38
967.247	0.62
967.975	-0.38
968.703	0.62
969.43	-1.38
970.158	-0.38
970.885	-2.38
971.613	1.62
972.34	-0.38
973.067	0.62
973.794	-0.38
974.521	-4.38
975.248	-0.38
975.975	1.62
976.702	-0.38
977.429	1.62
978.156	0.62
978.882	0.62
979.609	-1.38
980.335	0.62
981.062	-0.38
981.788	-0.38
982.514	-0.38
983.24	-0.38
983.967	-1.38
984.693	0.62
985.419	0.62
986.144	-1.38
986.87	1.62
987.596	-1.38
988.322	0.62
989.047	1.62
989.773	-2.38
990.498	0.62
991.224	0.62
991.949	0.62
992.674	0.62
993.399	-1.38
994.124	1.62
994.849	-2.38
995.574	-0.38
996.299	-0.38
997.024	-0.38
997.749	-1.38
998.473	-2.38
999.198	0.62
999.922	-1.38
1000.647	0.62
1001.371	2.62
1002.095	-0.38
1002.82	-2.38
1003.544	-0.38
1004.268	2.62
1004.992	-0.38
1005.716	-0.38
1006.439	2.62
1007.163	0.62
1007.887	0.62
1008.611	-0.38
1009.334	-0.38
1010.058	-1.38
1010.781	0.62
1011.504	0.62
1012.228	0.62
1012.951	-0.38
1013.674	-0.38
1014.397	-0.38
1015.12	1.62
