节点500_285_QEPB04081__432__15-02-44-532.txt的数据

Date: Wed Nov 12 15:02:44 CST 2025
User: PC
Spectrometer: QEPB0408
触发模式: 0
积分时间 (秒): 1.000000E-2
Scans to average: 1
启用暗噪声校正: true
启用非线性校正: false
滑动平均宽度: 0
X轴模式: Wavelengths
Number of Pixels in Spectrum: 1044
>>>>>Begin Spectral Data<<<<<
220.843	2.5
221.644	-0.5
222.444	2.5
223.244	0.5
224.045	4.5
224.845	1.5
225.645	0.5
226.445	4.5
227.245	3.5
228.045	2.5
228.845	4.5
229.645	2.5
230.444	1.5
231.244	1.5
232.043	2.5
232.843	3.5
233.642	4.5
234.442	1.5
235.241	6.5
236.04	3.5
236.839	3.5
237.638	3.5
238.437	3.5
239.236	5.5
240.035	4.5
240.833	4.5
241.632	3.5
242.43	2.5
243.229	8.5
244.027	3.5
244.826	3.5
245.624	5.5
246.422	4.5
247.22	4.5
248.018	5.5
248.816	6.5
249.614	4.5
250.412	4.5
251.21	6.5
252.007	1.5
252.805	4.5
253.602	6.5
254.4	7.5
255.197	8.5
255.994	6.5
256.791	6.5
257.589	8.5
258.386	7.5
259.183	6.5
259.979	9.5
260.776	9.5
261.573	9.5
262.37	11.5
263.166	10.5
263.963	11.5
264.759	11.5
265.556	13.5
266.352	12.5
267.148	12.5
267.944	9.5
268.74	14.5
269.536	14.5
270.332	15.5
271.128	14.5
271.924	13.5
272.719	14.5
273.515	18.5
274.311	14.5
275.106	16.5
275.901	14.5
276.697	13.5
277.492	18.5
278.287	17.5
279.082	17.5
279.877	16.5
280.672	17.5
281.467	19.5
282.262	18.5
283.056	18.5
283.851	17.5
284.646	17.5
285.44	19.5
286.234	19.5
287.029	17.5
287.823	17.5
288.617	18.5
289.411	17.5
290.205	18.5
290.999	17.5
291.793	14.5
292.587	17.5
293.381	15.5
294.174	16.5
294.968	16.5
295.761	13.5
296.555	15.5
297.348	14.5
298.141	14.5
298.935	16.5
299.728	14.5
300.521	12.5
301.314	13.5
302.107	11.5
302.899	12.5
303.692	13.5
304.485	11.5
305.277	12.5
306.07	10.5
306.862	11.5
307.655	12.5
308.447	9.5
309.239	12.5
310.031	10.5
310.823	9.5
311.615	11.5
312.407	10.5
313.199	10.5
313.991	7.5
314.783	8.5
315.574	7.5
316.366	7.5
317.157	6.5
317.949	8.5
318.74	7.5
319.531	8.5
320.322	7.5
321.113	7.5
321.904	9.5
322.695	6.5
323.486	7.5
324.277	9.5
325.068	6.5
325.858	5.5
326.649	4.5
327.439	7.5
328.23	5.5
329.02	7.5
329.81	8.5
330.6	5.5
331.391	4.5
332.181	8.5
332.971	5.5
333.76	6.5
334.55	4.5
335.34	7.5
336.13	5.5
336.919	4.5
337.709	7.5
338.498	4.5
339.287	8.5
340.077	3.5
340.866	6.5
341.655	6.5
342.444	4.5
343.233	5.5
344.022	5.5
344.811	7.5
345.6	5.5
346.388	6.5
347.177	5.5
347.965	4.5
348.754	6.5
349.542	7.5
350.33	7.5
351.119	7.5
351.907	6.5
352.695	5.5
353.483	3.5
354.271	7.5
355.059	7.5
355.846	6.5
356.634	5.5
357.422	5.5
358.209	6.5
358.997	6.5
359.784	7.5
360.571	6.5
361.359	4.5
362.146	5.5
362.933	4.5
363.72	5.5
364.507	6.5
365.294	4.5
366.081	5.5
366.867	5.5
367.654	4.5
368.44	3.5
369.227	4.5
370.013	4.5
370.8	7.5
371.586	4.5
372.372	3.5
373.158	4.5
373.944	4.5
374.73	7.5
375.516	5.5
376.302	2.5
377.088	4.5
377.873	7.5
378.659	6.5
379.445	6.5
380.23	5.5
381.015	4.5
381.801	3.5
382.586	7.5
383.371	2.5
384.156	5.5
384.941	4.5
385.726	5.5
386.511	4.5
387.296	5.5
388.08	6.5
388.865	5.5
389.649	4.5
390.434	4.5
391.218	4.5
392.003	6.5
392.787	4.5
393.571	7.5
394.355	8.5
395.139	5.5
395.923	7.5
396.707	5.5
397.491	6.5
398.274	5.5
399.058	6.5
399.842	6.5
400.625	5.5
401.408	5.5
402.192	8.5
402.975	7.5
403.758	8.5
404.541	7.5
405.324	9.5
406.107	6.5
406.89	5.5
407.673	6.5
408.456	9.5
409.238	7.5
410.021	5.5
410.803	9.5
411.586	6.5
412.368	10.5
413.151	7.5
413.933	9.5
414.715	6.5
415.497	6.5
416.279	6.5
417.061	8.5
417.843	8.5
418.624	8.5
419.406	9.5
420.188	9.5
420.969	10.5
421.751	11.5
422.532	10.5
423.313	10.5
424.095	9.5
424.876	10.5
425.657	10.5
426.438	13.5
427.219	11.5
428	13.5
428.78	16.5
429.561	12.5
430.342	12.5
431.122	11.5
431.903	15.5
432.683	16.5
433.464	12.5
434.244	13.5
435.024	17.5
435.804	18.5
436.584	18.5
437.364	18.5
438.144	20.5
438.924	22.5
439.704	23.5
440.483	22.5
441.263	23.5
442.042	23.5
442.822	26.5
443.601	32.5
444.38	27.5
445.16	29.5
445.939	32.5
446.718	33.5
447.497	38.5
448.276	40.5
449.054	44.5
449.833	49.5
450.612	50.5
451.391	57.5
452.169	64.5
452.948	73.5
453.726	75.5
454.504	85.5
455.282	92.5
456.061	100.5
456.839	109.5
457.617	121.5
458.395	137.5
459.172	157.5
459.95	167.5
460.728	194.5
461.506	219.5
462.283	233.5
463.061	265.5
463.838	298.5
464.615	325.5
465.393	371.5
466.17	409.5
466.947	456.5
467.724	509.5
468.501	573.5
469.278	636.5
470.055	702.5
470.831	777.5
471.608	869.5
472.385	954.5
473.161	1064.5
473.938	1180.5
474.714	1296.5
475.49	1435.5
476.266	1588.5
477.043	1764.5
477.819	1935.5
478.595	2125.5
479.371	2347.5
480.146	2583.5
480.922	2848.5
481.698	3126.5
482.473	3448.5
483.249	3757.5
484.024	4168.5
484.8	4578.5
485.575	5028.5
486.35	5501.5
487.126	5999.5
487.901	6611.5
488.676	7227.5
489.451	7920.5
490.225	8615.5
491	9385.5
491.775	10265.5
492.55	11153.5
493.324	12123.5
494.099	13029.5
494.873	14007.5
495.647	15142.5
496.422	16261.5
497.196	17360.5
497.97	18563.5
498.744	19745.5
499.518	20879.5
500.292	21984.5
501.066	23132.5
501.839	23993.5
502.613	24906.5
503.387	25657.5
504.16	26332.5
504.934	26743.5
505.707	26957.5
506.48	27049.5
507.253	27028.5
508.027	26770.5
508.8	26493.5
509.573	26140.5
510.346	25574.5
511.118	24872.5
511.891	24107.5
512.664	23337.5
513.437	22536.5
514.209	21569.5
514.982	20743.5
515.754	19845.5
516.526	18956.5
517.298	18159.5
518.071	17348.5
518.843	16680.5
519.615	16065.5
520.387	15366.5
521.159	14795.5
521.93	14197.5
522.702	13715.5
523.474	13123.5
524.245	12532.5
525.017	11997.5
525.788	11541.5
526.56	10988.5
527.331	10501.5
528.102	10069.5
528.873	9584.5
529.644	9122.5
530.415	8645.5
531.186	8201.5
531.957	7799.5
532.728	7381.5
533.498	7036.5
534.269	6658.5
535.039	6276.5
535.81	5920.5
536.58	5610.5
537.351	5297.5
538.121	5002.5
538.891	4725.5
539.661	4489.5
540.431	4221.5
541.201	3975.5
541.971	3812.5
542.741	3592.5
543.51	3397.5
544.28	3239.5
545.05	3081.5
545.819	2947.5
546.588	2776.5
547.358	2635.5
548.127	2512.5
548.896	2383.5
549.665	2272.5
550.434	2162.5
551.203	2038.5
551.972	1935.5
552.741	1810.5
553.51	1707.5
554.278	1619.5
555.047	1537.5
555.815	1456.5
556.584	1377.5
557.352	1284.5
558.121	1217.5
558.889	1156.5
559.657	1089.5
560.425	1017.5
561.193	984.5
561.961	922.5
562.729	870.5
563.496	812.5
564.264	778.5
565.032	733.5
565.799	696.5
566.567	655.5
567.334	612.5
568.101	587.5
568.869	549.5
569.636	514.5
570.403	485.5
571.17	450.5
571.937	432.5
572.704	406.5
573.471	385.5
574.237	362.5
575.004	338.5
575.771	321.5
576.537	303.5
577.303	286.5
578.07	270.5
578.836	251.5
579.602	235.5
580.368	224.5
581.134	220.5
581.9	201.5
582.666	194.5
583.432	186.5
584.198	176.5
584.964	165.5
585.729	154.5
586.495	147.5
587.26	144.5
588.025	133.5
588.791	125.5
589.556	118.5
590.321	115.5
591.086	103.5
591.851	101.5
592.616	97.5
593.381	96.5
594.146	86.5
594.911	87.5
595.675	80.5
596.44	77.5
597.204	74.5
597.969	67.5
598.733	67.5
599.497	65.5
600.261	62.5
601.025	58.5
601.79	51.5
602.553	53.5
603.317	49.5
604.081	49.5
604.845	43.5
605.609	45.5
606.372	40.5
607.136	41.5
607.899	40.5
608.662	38.5
609.426	38.5
610.189	31.5
610.952	32.5
611.715	33.5
612.478	30.5
613.241	29.5
614.004	27.5
614.767	27.5
615.529	28.5
616.292	24.5
617.055	22.5
617.817	23.5
618.579	24.5
619.342	20.5
620.104	21.5
620.866	21.5
621.628	19.5
622.39	19.5
623.152	17.5
623.914	19.5
624.676	18.5
625.438	18.5
626.199	17.5
626.961	16.5
627.722	16.5
628.484	15.5
629.245	15.5
630.006	12.5
630.768	14.5
631.529	12.5
632.29	12.5
633.051	12.5
633.812	11.5
634.573	14.5
635.333	9.5
636.094	12.5
636.855	10.5
637.615	8.5
638.376	11.5
639.136	9.5
639.896	12.5
640.657	10.5
641.417	10.5
642.177	9.5
642.937	8.5
643.697	7.5
644.457	8.5
645.216	9.5
645.976	4.5
646.736	8.5
647.495	6.5
648.255	6.5
649.014	6.5
649.774	6.5
650.533	9.5
651.292	7.5
652.051	6.5
652.81	6.5
653.569	6.5
654.328	5.5
655.087	3.5
655.846	5.5
656.604	5.5
657.363	4.5
658.121	5.5
658.88	4.5
659.638	5.5
660.397	7.5
661.155	4.5
661.913	6.5
662.671	5.5
663.429	4.5
664.187	2.5
664.945	5.5
665.703	4.5
666.46	5.5
667.218	6.5
667.976	4.5
668.733	4.5
669.49	4.5
670.248	2.5
671.005	4.5
671.762	2.5
672.519	6.5
673.276	2.5
674.033	6.5
674.79	2.5
675.547	2.5
676.304	2.5
677.06	4.5
677.817	3.5
678.574	3.5
679.33	3.5
680.086	3.5
680.843	4.5
681.599	2.5
682.355	4.5
683.111	4.5
683.867	2.5
684.623	4.5
685.379	4.5
686.135	3.5
686.89	3.5
687.646	3.5
688.402	1.5
689.157	5.5
689.912	6.5
690.668	4.5
691.423	1.5
692.178	3.5
692.933	0.5
693.688	3.5
694.443	4.5
695.198	4.5
695.953	3.5
696.708	2.5
697.462	3.5
698.217	2.5
698.972	3.5
699.726	2.5
700.48	3.5
701.235	4.5
701.989	1.5
702.743	3.5
703.497	3.5
704.251	3.5
705.005	2.5
705.759	2.5
706.513	3.5
707.266	3.5
708.02	1.5
708.774	4.5
709.527	5.5
710.28	1.5
711.034	2.5
711.787	3.5
712.54	4.5
713.293	3.5
714.046	2.5
714.799	4.5
715.552	4.5
716.305	1.5
717.058	3.5
717.81	3.5
718.563	4.5
719.315	2.5
720.068	3.5
720.82	6.5
721.573	3.5
722.325	2.5
723.077	2.5
723.829	3.5
724.581	1.5
725.333	3.5
726.085	2.5
726.836	3.5
727.588	4.5
728.34	4.5
729.091	3.5
729.843	4.5
730.594	3.5
731.346	3.5
732.097	3.5
732.848	5.5
733.599	5.5
734.35	3.5
735.101	5.5
735.852	3.5
736.603	3.5
737.354	6.5
738.104	4.5
738.855	3.5
739.605	4.5
740.356	3.5
741.106	5.5
741.856	4.5
742.607	4.5
743.357	4.5
744.107	4.5
744.857	4.5
745.607	4.5
746.357	4.5
747.106	5.5
747.856	5.5
748.606	4.5
749.355	4.5
750.105	5.5
750.854	4.5
751.603	4.5
752.353	4.5
753.102	4.5
753.851	4.5
754.6	5.5
755.349	3.5
756.098	6.5
756.847	5.5
757.595	5.5
758.344	6.5
759.093	6.5
759.841	6.5
760.589	4.5
761.338	5.5
762.086	4.5
762.834	4.5
763.582	6.5
764.331	7.5
765.079	5.5
765.826	6.5
766.574	6.5
767.322	6.5
768.07	6.5
768.817	8.5
769.565	5.5
770.312	6.5
771.06	6.5
771.807	5.5
772.554	5.5
773.302	7.5
774.049	7.5
774.796	8.5
775.543	7.5
776.29	9.5
777.036	7.5
777.783	7.5
778.53	7.5
779.276	8.5
780.023	7.5
780.769	7.5
781.516	7.5
782.262	9.5
783.008	8.5
783.754	8.5
784.5	7.5
785.246	8.5
785.992	9.5
786.738	8.5
787.484	8.5
788.23	8.5
788.975	6.5
789.721	10.5
790.466	7.5
791.212	9.5
791.957	6.5
792.702	9.5
793.447	6.5
794.193	7.5
794.938	8.5
795.683	8.5
796.427	5.5
797.172	9.5
797.917	9.5
798.662	9.5
799.406	8.5
800.151	6.5
800.895	8.5
801.64	6.5
802.384	6.5
803.128	7.5
803.872	5.5
804.616	6.5
805.36	8.5
806.104	6.5
806.848	5.5
807.592	3.5
808.336	5.5
809.079	7.5
809.823	4.5
810.566	5.5
811.31	5.5
812.053	4.5
812.796	5.5
813.539	5.5
814.283	6.5
815.026	4.5
815.769	5.5
816.511	5.5
817.254	4.5
817.997	6.5
818.74	3.5
819.482	4.5
820.225	2.5
820.967	5.5
821.71	5.5
822.452	5.5
823.194	4.5
823.936	6.5
824.678	2.5
825.42	5.5
826.162	1.5
826.904	4.5
827.646	4.5
828.388	3.5
829.129	4.5
829.871	1.5
830.612	4.5
831.354	4.5
832.095	3.5
832.836	3.5
833.577	1.5
834.319	3.5
835.06	4.5
835.801	5.5
836.542	4.5
837.282	3.5
838.023	3.5
838.764	2.5
839.504	1.5
840.245	3.5
840.985	3.5
841.726	3.5
842.466	1.5
843.206	4.5
843.946	1.5
844.687	3.5
845.427	3.5
846.166	1.5
846.906	5.5
847.646	1.5
848.386	1.5
849.125	2.5
849.865	1.5
850.605	2.5
851.344	1.5
852.083	3.5
852.823	1.5
853.562	5.5
854.301	2.5
855.04	3.5
855.779	1.5
856.518	1.5
857.257	1.5
857.995	3.5
858.734	3.5
859.473	1.5
860.211	-0.5
860.95	3.5
861.688	2.5
862.426	2.5
863.165	0.5
863.903	3.5
864.641	0.5
865.379	3.5
866.117	1.5
866.855	1.5
867.593	3.5
868.33	1.5
869.068	1.5
869.806	2.5
870.543	-1.5
871.28	4.5
872.018	0.5
872.755	0.5
873.492	2.5
874.229	1.5
874.967	1.5
875.703	1.5
876.44	2.5
877.177	0.5
877.914	2.5
878.651	1.5
879.387	0.5
880.124	1.5
880.86	2.5
881.597	-0.5
882.333	-0.5
883.069	1.5
883.806	1.5
884.542	1.5
885.278	1.5
886.014	0.5
886.749	1.5
887.485	0.5
888.221	-0.5
888.957	-0.5
889.692	-0.5
890.428	1.5
891.163	1.5
891.899	0.5
892.634	0.5
893.369	0.5
894.104	-0.5
894.839	0.5
895.574	0.5
896.309	1.5
897.044	0.5
897.779	0.5
898.514	-0.5
899.248	1.5
899.983	2.5
900.717	-0.5
901.452	-0.5
902.186	1.5
902.92	-0.5
903.654	-0.5
904.389	1.5
905.123	2.5
905.857	-0.5
906.59	-0.5
907.324	-0.5
908.058	0.5
908.792	-0.5
909.525	1.5
910.259	-0.5
910.992	-1.5
911.726	0.5
912.459	-0.5
913.192	1.5
913.925	-1.5
914.658	0.5
915.391	0.5
916.124	1.5
916.857	-1.5
917.59	1.5
918.323	0.5
919.055	1.5
919.788	0.5
920.521	0.5
921.253	2.5
921.985	2.5
922.718	0.5
923.45	-1.5
924.182	1.5
924.914	-0.5
925.646	-1.5
926.378	-0.5
927.11	-0.5
927.841	-2.5
928.573	-0.5
929.305	-0.5
930.036	-0.5
930.768	0.5
931.499	-1.5
932.23	0.5
932.962	-0.5
933.693	-1.5
934.424	1.5
935.155	0.5
935.886	0.5
936.617	1.5
937.348	0.5
938.078	1.5
938.809	0.5
939.54	0.5
940.27	0.5
941.001	-0.5
941.731	-0.5
942.461	0.5
943.191	1.5
943.922	0.5
944.652	1.5
945.382	-0.5
946.112	0.5
946.841	-0.5
947.571	0.5
948.301	-0.5
949.031	-2.5
949.76	-0.5
950.49	0.5
951.219	-0.5
951.948	0.5
952.678	-0.5
953.407	3.5
954.136	-0.5
954.865	-1.5
955.594	-0.5
956.323	-1.5
957.052	-1.5
957.78	-0.5
958.509	-0.5
959.238	-0.5
959.966	1.5
960.695	-0.5
961.423	0.5
962.151	0.5
962.88	0.5
963.608	-0.5
964.336	-1.5
965.064	-0.5
965.792	0.5
966.52	-1.5
967.247	-0.5
967.975	-0.5
968.703	-0.5
969.43	0.5
970.158	-2.5
970.885	-1.5
971.613	-1.5
972.34	0.5
973.067	-1.5
973.794	0.5
974.521	-1.5
975.248	1.5
975.975	0.5
976.702	-1.5
977.429	-2.5
978.156	0.5
978.882	-0.5
979.609	1.5
980.335	-2.5
981.062	1.5
981.788	-3.5
982.514	1.5
983.24	-1.5
983.967	1.5
984.693	1.5
985.419	1.5
986.144	-0.5
986.87	1.5
987.596	0.5
988.322	-1.5
989.047	-0.5
989.773	1.5
990.498	-0.5
991.224	-0.5
991.949	0.5
992.674	0.5
993.399	0.5
994.124	1.5
994.849	-0.5
995.574	1.5
996.299	-0.5
997.024	0.5
997.749	-0.5
998.473	1.5
999.198	-2.5
999.922	1.5
1000.647	-0.5
1001.371	4.5
1002.095	-2.5
1002.82	0.5
1003.544	-1.5
1004.268	0.5
1004.992	1.5
1005.716	0.5
1006.439	0.5
1007.163	-0.5
1007.887	3.5
1008.611	-0.5
1009.334	-0.5
1010.058	0.5
1010.781	0.5
1011.504	-0.5
1012.228	-0.5
1012.951	0.5
1013.674	-0.5
1014.397	-0.5
1015.12	-0.5
