节点500_285_QEPB04081__472__15-03-24-505.txt的数据

Date: Wed Nov 12 15:03:24 CST 2025
User: PC
Spectrometer: QEPB0408
触发模式: 0
积分时间 (秒): 1.000000E-2
Scans to average: 1
启用暗噪声校正: true
启用非线性校正: false
滑动平均宽度: 0
X轴模式: Wavelengths
Number of Pixels in Spectrum: 1044
>>>>>Begin Spectral Data<<<<<
220.843	0.25
221.644	-0.75
222.444	1.25
223.244	1.25
224.045	-0.75
224.845	-0.75
225.645	1.25
226.445	3.25
227.245	3.25
228.045	1.25
228.845	-0.75
229.645	2.25
230.444	1.25
231.244	2.25
232.043	3.25
232.843	4.25
233.642	2.25
234.442	3.25
235.241	4.25
236.04	2.25
236.839	3.25
237.638	2.25
238.437	2.25
239.236	5.25
240.035	5.25
240.833	3.25
241.632	5.25
242.43	3.25
243.229	3.25
244.027	3.25
244.826	5.25
245.624	1.25
246.422	3.25
247.22	4.25
248.018	5.25
248.816	5.25
249.614	5.25
250.412	7.25
251.21	6.25
252.007	6.25
252.805	5.25
253.602	4.25
254.4	6.25
255.197	5.25
255.994	6.25
256.791	8.25
257.589	7.25
258.386	6.25
259.183	9.25
259.979	8.25
260.776	8.25
261.573	12.25
262.37	7.25
263.166	11.25
263.963	7.25
264.759	10.25
265.556	11.25
266.352	12.25
267.148	13.25
267.944	11.25
268.74	13.25
269.536	15.25
270.332	11.25
271.128	13.25
271.924	15.25
272.719	14.25
273.515	16.25
274.311	16.25
275.106	13.25
275.901	17.25
276.697	14.25
277.492	16.25
278.287	17.25
279.082	17.25
279.877	15.25
280.672	15.25
281.467	18.25
282.262	21.25
283.056	15.25
283.851	18.25
284.646	20.25
285.44	18.25
286.234	16.25
287.029	14.25
287.823	19.25
288.617	19.25
289.411	17.25
290.205	18.25
290.999	14.25
291.793	16.25
292.587	16.25
293.381	16.25
294.174	17.25
294.968	15.25
295.761	14.25
296.555	13.25
297.348	17.25
298.141	13.25
298.935	17.25
299.728	14.25
300.521	15.25
301.314	14.25
302.107	13.25
302.899	11.25
303.692	13.25
304.485	11.25
305.277	10.25
306.07	12.25
306.862	12.25
307.655	12.25
308.447	11.25
309.239	11.25
310.031	12.25
310.823	12.25
311.615	6.25
312.407	8.25
313.199	8.25
313.991	11.25
314.783	11.25
315.574	5.25
316.366	11.25
317.157	5.25
317.949	9.25
318.74	7.25
319.531	7.25
320.322	9.25
321.113	5.25
321.904	7.25
322.695	7.25
323.486	8.25
324.277	9.25
325.068	7.25
325.858	7.25
326.649	6.25
327.439	4.25
328.23	6.25
329.02	8.25
329.81	5.25
330.6	6.25
331.391	7.25
332.181	4.25
332.971	6.25
333.76	2.25
334.55	5.25
335.34	7.25
336.13	6.25
336.919	3.25
337.709	5.25
338.498	6.25
339.287	7.25
340.077	5.25
340.866	6.25
341.655	5.25
342.444	6.25
343.233	3.25
344.022	6.25
344.811	6.25
345.6	4.25
346.388	6.25
347.177	4.25
347.965	4.25
348.754	5.25
349.542	3.25
350.33	5.25
351.119	5.25
351.907	6.25
352.695	6.25
353.483	6.25
354.271	3.25
355.059	6.25
355.846	3.25
356.634	5.25
357.422	3.25
358.209	3.25
358.997	5.25
359.784	3.25
360.571	4.25
361.359	7.25
362.146	3.25
362.933	1.25
363.72	5.25
364.507	4.25
365.294	3.25
366.081	7.25
366.867	4.25
367.654	3.25
368.44	3.25
369.227	3.25
370.013	3.25
370.8	2.25
371.586	3.25
372.372	4.25
373.158	3.25
373.944	5.25
374.73	3.25
375.516	7.25
376.302	4.25
377.088	3.25
377.873	3.25
378.659	2.25
379.445	3.25
380.23	5.25
381.015	5.25
381.801	3.25
382.586	4.25
383.371	6.25
384.156	6.25
384.941	5.25
385.726	7.25
386.511	4.25
387.296	3.25
388.08	3.25
388.865	4.25
389.649	4.25
390.434	4.25
391.218	3.25
392.003	5.25
392.787	7.25
393.571	6.25
394.355	6.25
395.139	4.25
395.923	6.25
396.707	6.25
397.491	4.25
398.274	7.25
399.058	7.25
399.842	5.25
400.625	8.25
401.408	6.25
402.192	7.25
402.975	4.25
403.758	5.25
404.541	6.25
405.324	6.25
406.107	6.25
406.89	7.25
407.673	6.25
408.456	7.25
409.238	6.25
410.021	9.25
410.803	5.25
411.586	10.25
412.368	6.25
413.151	9.25
413.933	7.25
414.715	7.25
415.497	8.25
416.279	6.25
417.061	10.25
417.843	9.25
418.624	10.25
419.406	10.25
420.188	7.25
420.969	10.25
421.751	9.25
422.532	9.25
423.313	11.25
424.095	13.25
424.876	10.25
425.657	9.25
426.438	10.25
427.219	12.25
428	11.25
428.78	11.25
429.561	9.25
430.342	11.25
431.122	13.25
431.903	14.25
432.683	16.25
433.464	16.25
434.244	16.25
435.024	18.25
435.804	15.25
436.584	17.25
437.364	17.25
438.144	18.25
438.924	20.25
439.704	17.25
440.483	23.25
441.263	25.25
442.042	22.25
442.822	25.25
443.601	26.25
444.38	29.25
445.16	30.25
445.939	33.25
446.718	35.25
447.497	43.25
448.276	43.25
449.054	44.25
449.833	49.25
450.612	55.25
451.391	56.25
452.169	61.25
452.948	68.25
453.726	77.25
454.504	82.25
455.282	89.25
456.061	100.25
456.839	113.25
457.617	127.25
458.395	139.25
459.172	157.25
459.95	170.25
460.728	187.25
461.506	212.25
462.283	236.25
463.061	255.25
463.838	289.25
464.615	333.25
465.393	374.25
466.17	409.25
466.947	460.25
467.724	509.25
468.501	571.25
469.278	623.25
470.055	690.25
470.831	772.25
471.608	864.25
472.385	959.25
473.161	1060.25
473.938	1177.25
474.714	1285.25
475.49	1434.25
476.266	1583.25
477.043	1736.25
477.819	1921.25
478.595	2133.25
479.371	2336.25
480.146	2558.25
480.922	2820.25
481.698	3125.25
482.473	3425.25
483.249	3741.25
484.024	4118.25
484.8	4528.25
485.575	4964.25
486.35	5452.25
487.126	5942.25
487.901	6536.25
488.676	7132.25
489.451	7838.25
490.225	8546.25
491	9299.25
491.775	10165.25
492.55	11041.25
493.324	11958.25
494.099	12891.25
494.873	13881.25
495.647	14992.25
496.422	16039.25
497.196	17217.25
497.97	18341.25
498.744	19490.25
499.518	20625.25
500.292	21766.25
501.066	22734.25
501.839	23731.25
502.613	24661.25
503.387	25459.25
504.16	26097.25
504.934	26507.25
505.707	26706.25
506.48	26815.25
507.253	26850.25
508.027	26617.25
508.8	26318.25
509.573	26003.25
510.346	25478.25
511.118	24681.25
511.891	24022.25
512.664	23165.25
513.437	22320.25
514.209	21492.25
514.982	20631.25
515.754	19743.25
516.526	18936.25
517.298	18085.25
518.071	17251.25
518.843	16584.25
519.615	15999.25
520.387	15359.25
521.159	14743.25
521.93	14156.25
522.702	13624.25
523.474	13023.25
524.245	12446.25
525.017	11989.25
525.788	11513.25
526.56	11007.25
527.331	10451.25
528.102	9995.25
528.873	9554.25
529.644	9074.25
530.415	8643.25
531.186	8184.25
531.957	7783.25
532.728	7402.25
533.498	7042.25
534.269	6637.25
535.039	6255.25
535.81	5945.25
536.58	5613.25
537.351	5273.25
538.121	5000.25
538.891	4716.25
539.661	4463.25
540.431	4221.25
541.201	3967.25
541.971	3778.25
542.741	3559.25
543.51	3413.25
544.28	3232.25
545.05	3070.25
545.819	2952.25
546.588	2782.25
547.358	2659.25
548.127	2531.25
548.896	2404.25
549.665	2248.25
550.434	2144.25
551.203	2047.25
551.972	1924.25
552.741	1819.25
553.51	1735.25
554.278	1622.25
555.047	1520.25
555.815	1454.25
556.584	1371.25
557.352	1284.25
558.121	1217.25
558.889	1146.25
559.657	1101.25
560.425	1025.25
561.193	975.25
561.961	907.25
562.729	855.25
563.496	817.25
564.264	774.25
565.032	723.25
565.799	689.25
566.567	662.25
567.334	603.25
568.101	575.25
568.869	545.25
569.636	508.25
570.403	483.25
571.17	464.25
571.937	427.25
572.704	404.25
573.471	386.25
574.237	369.25
575.004	349.25
575.771	323.25
576.537	305.25
577.303	294.25
578.07	274.25
578.836	257.25
579.602	238.25
580.368	221.25
581.134	213.25
581.9	201.25
582.666	189.25
583.432	182.25
584.198	172.25
584.964	165.25
585.729	159.25
586.495	149.25
587.26	140.25
588.025	128.25
588.791	126.25
589.556	121.25
590.321	113.25
591.086	109.25
591.851	96.25
592.616	97.25
593.381	91.25
594.146	90.25
594.911	82.25
595.675	79.25
596.44	76.25
597.204	68.25
597.969	69.25
598.733	65.25
599.497	63.25
600.261	58.25
601.025	59.25
601.79	54.25
602.553	48.25
603.317	48.25
604.081	49.25
604.845	46.25
605.609	42.25
606.372	43.25
607.136	41.25
607.899	36.25
608.662	37.25
609.426	36.25
610.189	35.25
610.952	31.25
611.715	33.25
612.478	29.25
613.241	27.25
614.004	27.25
614.767	26.25
615.529	27.25
616.292	23.25
617.055	25.25
617.817	24.25
618.579	22.25
619.342	25.25
620.104	20.25
620.866	22.25
621.628	21.25
622.39	18.25
623.152	18.25
623.914	17.25
624.676	17.25
625.438	16.25
626.199	16.25
626.961	15.25
627.722	13.25
628.484	12.25
629.245	14.25
630.006	15.25
630.768	13.25
631.529	12.25
632.29	12.25
633.051	10.25
633.812	12.25
634.573	9.25
635.333	11.25
636.094	9.25
636.855	10.25
637.615	8.25
638.376	8.25
639.136	11.25
639.896	8.25
640.657	7.25
641.417	7.25
642.177	7.25
642.937	10.25
643.697	9.25
644.457	6.25
645.216	8.25
645.976	9.25
646.736	6.25
647.495	6.25
648.255	7.25
649.014	7.25
649.774	6.25
650.533	8.25
651.292	4.25
652.051	6.25
652.81	7.25
653.569	7.25
654.328	6.25
655.087	5.25
655.846	4.25
656.604	8.25
657.363	5.25
658.121	7.25
658.88	5.25
659.638	5.25
660.397	4.25
661.155	4.25
661.913	6.25
662.671	5.25
663.429	5.25
664.187	5.25
664.945	5.25
665.703	5.25
666.46	5.25
667.218	2.25
667.976	5.25
668.733	5.25
669.49	4.25
670.248	4.25
671.005	4.25
671.762	3.25
672.519	1.25
673.276	6.25
674.033	1.25
674.79	3.25
675.547	0.25
676.304	2.25
677.06	3.25
677.817	2.25
678.574	4.25
679.33	3.25
680.086	4.25
680.843	2.25
681.599	5.25
682.355	5.25
683.111	1.25
683.867	3.25
684.623	4.25
685.379	4.25
686.135	3.25
686.89	3.25
687.646	4.25
688.402	2.25
689.157	3.25
689.912	3.25
690.668	1.25
691.423	3.25
692.178	1.25
692.933	5.25
693.688	1.25
694.443	1.25
695.198	1.25
695.953	1.25
696.708	3.25
697.462	2.25
698.217	4.25
698.972	2.25
699.726	0.25
700.48	1.25
701.235	3.25
701.989	3.25
702.743	0.25
703.497	3.25
704.251	4.25
705.005	3.25
705.759	3.25
706.513	3.25
707.266	0.25
708.02	1.25
708.774	5.25
709.527	5.25
710.28	4.25
711.034	4.25
711.787	2.25
712.54	3.25
713.293	3.25
714.046	1.25
714.799	3.25
715.552	1.25
716.305	4.25
717.058	0.25
717.81	0.25
718.563	3.25
719.315	3.25
720.068	4.25
720.82	2.25
721.573	3.25
722.325	2.25
723.077	4.25
723.829	2.25
724.581	3.25
725.333	1.25
726.085	5.25
726.836	3.25
727.588	2.25
728.34	3.25
729.091	5.25
729.843	4.25
730.594	2.25
731.346	3.25
732.097	4.25
732.848	2.25
733.599	3.25
734.35	4.25
735.101	3.25
735.852	4.25
736.603	6.25
737.354	1.25
738.104	3.25
738.855	3.25
739.605	3.25
740.356	3.25
741.106	7.25
741.856	4.25
742.607	3.25
743.357	5.25
744.107	1.25
744.857	4.25
745.607	5.25
746.357	3.25
747.106	4.25
747.856	3.25
748.606	2.25
749.355	2.25
750.105	3.25
750.854	4.25
751.603	4.25
752.353	6.25
753.102	2.25
753.851	1.25
754.6	6.25
755.349	4.25
756.098	3.25
756.847	4.25
757.595	6.25
758.344	3.25
759.093	5.25
759.841	8.25
760.589	4.25
761.338	6.25
762.086	3.25
762.834	5.25
763.582	7.25
764.331	5.25
765.079	4.25
765.826	8.25
766.574	4.25
767.322	5.25
768.07	6.25
768.817	6.25
769.565	4.25
770.312	6.25
771.06	4.25
771.807	5.25
772.554	6.25
773.302	7.25
774.049	7.25
774.796	8.25
775.543	8.25
776.29	6.25
777.036	8.25
777.783	8.25
778.53	7.25
779.276	8.25
780.023	9.25
780.769	6.25
781.516	5.25
782.262	8.25
783.008	9.25
783.754	8.25
784.5	9.25
785.246	7.25
785.992	7.25
786.738	6.25
787.484	9.25
788.23	10.25
788.975	8.25
789.721	7.25
790.466	7.25
791.212	8.25
791.957	5.25
792.702	5.25
793.447	8.25
794.193	7.25
794.938	6.25
795.683	6.25
796.427	10.25
797.172	6.25
797.917	9.25
798.662	7.25
799.406	7.25
800.151	7.25
800.895	6.25
801.64	5.25
802.384	6.25
803.128	6.25
803.872	4.25
804.616	4.25
805.36	7.25
806.104	4.25
806.848	6.25
807.592	6.25
808.336	5.25
809.079	6.25
809.823	4.25
810.566	7.25
811.31	6.25
812.053	3.25
812.796	4.25
813.539	5.25
814.283	5.25
815.026	4.25
815.769	6.25
816.511	5.25
817.254	1.25
817.997	4.25
818.74	4.25
819.482	4.25
820.225	4.25
820.967	4.25
821.71	4.25
822.452	3.25
823.194	3.25
823.936	1.25
824.678	2.25
825.42	2.25
826.162	1.25
826.904	3.25
827.646	3.25
828.388	6.25
829.129	4.25
829.871	2.25
830.612	2.25
831.354	1.25
832.095	0.25
832.836	4.25
833.577	2.25
834.319	3.25
835.06	2.25
835.801	2.25
836.542	0.25
837.282	2.25
838.023	3.25
838.764	2.25
839.504	3.25
840.245	2.25
840.985	2.25
841.726	3.25
842.466	4.25
843.206	3.25
843.946	3.25
844.687	3.25
845.427	1.25
846.166	3.25
846.906	3.25
847.646	1.25
848.386	3.25
849.125	1.25
849.865	2.25
850.605	1.25
851.344	3.25
852.083	-0.75
852.823	2.25
853.562	1.25
854.301	2.25
855.04	1.25
855.779	1.25
856.518	2.25
857.257	1.25
857.995	2.25
858.734	2.25
859.473	1.25
860.211	3.25
860.95	1.25
861.688	2.25
862.426	3.25
863.165	0.25
863.903	1.25
864.641	1.25
865.379	0.25
866.117	2.25
866.855	2.25
867.593	0.25
868.33	1.25
869.068	3.25
869.806	-0.75
870.543	3.25
871.28	0.25
872.018	0.25
872.755	3.25
873.492	1.25
874.229	1.25
874.967	1.25
875.703	0.25
876.44	-1.75
877.177	2.25
877.914	1.25
878.651	-2.75
879.387	1.25
880.124	-0.75
880.86	0.25
881.597	0.25
882.333	-0.75
883.069	0.25
883.806	-2.75
884.542	-0.75
885.278	-0.75
886.014	-0.75
886.749	1.25
887.485	1.25
888.221	0.25
888.957	1.25
889.692	-0.75
890.428	0.25
891.163	0.25
891.899	1.25
892.634	1.25
893.369	0.25
894.104	0.25
894.839	-1.75
895.574	0.25
896.309	0.25
897.044	1.25
897.779	0.25
898.514	0.25
899.248	-1.75
899.983	0.25
900.717	-2.75
901.452	0.25
902.186	2.25
902.92	-1.75
903.654	1.25
904.389	-0.75
905.123	0.25
905.857	-1.75
906.59	1.25
907.324	-0.75
908.058	0.25
908.792	0.25
909.525	0.25
910.259	1.25
910.992	3.25
911.726	0.25
912.459	2.25
913.192	2.25
913.925	-0.75
914.658	0.25
915.391	-0.75
916.124	-0.75
916.857	-1.75
917.59	-0.75
918.323	0.25
919.055	-0.75
919.788	0.25
920.521	-0.75
921.253	0.25
921.985	1.25
922.718	1.25
923.45	0.25
924.182	0.25
924.914	1.25
925.646	0.25
926.378	0.25
927.11	-0.75
927.841	2.25
928.573	0.25
929.305	0.25
930.036	1.25
930.768	0.25
931.499	1.25
932.23	-0.75
932.962	-0.75
933.693	-0.75
934.424	2.25
935.155	-1.75
935.886	-1.75
936.617	1.25
937.348	-0.75
938.078	0.25
938.809	-1.75
939.54	-2.75
940.27	0.25
941.001	1.25
941.731	0.25
942.461	-2.75
943.191	0.25
943.922	-0.75
944.652	0.25
945.382	-0.75
946.112	-0.75
946.841	0.25
947.571	2.25
948.301	-0.75
949.031	-0.75
949.76	-0.75
950.49	1.25
951.219	1.25
951.948	-0.75
952.678	0.25
953.407	1.25
954.136	0.25
954.865	-0.75
955.594	-0.75
956.323	-1.75
957.052	-0.75
957.78	-0.75
958.509	-0.75
959.238	-1.75
959.966	-2.75
960.695	-0.75
961.423	0.25
962.151	-1.75
962.88	-0.75
963.608	-1.75
964.336	-0.75
965.064	-0.75
965.792	-1.75
966.52	-0.75
967.247	-1.75
967.975	-0.75
968.703	-0.75
969.43	-0.75
970.158	-1.75
970.885	-1.75
971.613	-0.75
972.34	0.25
973.067	0.25
973.794	0.25
974.521	-2.75
975.248	-0.75
975.975	-0.75
976.702	-2.75
977.429	0.25
978.156	1.25
978.882	-2.75
979.609	2.25
980.335	0.25
981.062	1.25
981.788	0.25
982.514	-1.75
983.24	1.25
983.967	2.25
984.693	0.25
985.419	-0.75
986.144	0.25
986.87	0.25
987.596	-1.75
988.322	0.25
989.047	-1.75
989.773	-0.75
990.498	-0.75
991.224	-1.75
991.949	1.25
992.674	-0.75
993.399	0.25
994.124	-2.75
994.849	-0.75
995.574	0.25
996.299	-0.75
997.024	1.25
997.749	-1.75
998.473	-0.75
999.198	2.25
999.922	-0.75
1000.647	-0.75
1001.371	4.25
1002.095	-0.75
1002.82	0.25
1003.544	-0.75
1004.268	0.25
1004.992	0.25
1005.716	-1.75
1006.439	1.25
1007.163	0.25
1007.887	-0.75
1008.611	-1.75
1009.334	-2.75
1010.058	-1.75
1010.781	0.25
1011.504	-0.75
1012.228	-1.75
1012.951	-1.75
1013.674	0.25
1014.397	-0.75
1015.12	-0.75
