节点500_285_QEPB04081__595__15-05-27-195.txt的数据

Date: Wed Nov 12 15:05:27 CST 2025
User: PC
Spectrometer: QEPB0408
触发模式: 0
积分时间 (秒): 1.000000E-2
Scans to average: 1
启用暗噪声校正: true
启用非线性校正: false
滑动平均宽度: 0
X轴模式: Wavelengths
Number of Pixels in Spectrum: 1044
>>>>>Begin Spectral Data<<<<<
220.843	-1.5
221.644	0.5
222.444	1.5
223.244	0.5
224.045	0.5
224.845	-0.5
225.645	0.5
226.445	-0.5
227.245	3.5
228.045	3.5
228.845	1.5
229.645	2.5
230.444	1.5
231.244	3.5
232.043	0.5
232.843	2.5
233.642	2.5
234.442	4.5
235.241	1.5
236.04	2.5
236.839	2.5
237.638	1.5
238.437	2.5
239.236	4.5
240.035	3.5
240.833	1.5
241.632	1.5
242.43	1.5
243.229	4.5
244.027	4.5
244.826	4.5
245.624	4.5
246.422	3.5
247.22	4.5
248.018	6.5
248.816	2.5
249.614	6.5
250.412	6.5
251.21	6.5
252.007	6.5
252.805	4.5
253.602	6.5
254.4	5.5
255.197	8.5
255.994	9.5
256.791	6.5
257.589	8.5
258.386	9.5
259.183	6.5
259.979	8.5
260.776	10.5
261.573	9.5
262.37	8.5
263.166	9.5
263.963	9.5
264.759	8.5
265.556	9.5
266.352	9.5
267.148	12.5
267.944	11.5
268.74	12.5
269.536	11.5
270.332	13.5
271.128	13.5
271.924	14.5
272.719	13.5
273.515	15.5
274.311	15.5
275.106	16.5
275.901	15.5
276.697	13.5
277.492	16.5
278.287	17.5
279.082	16.5
279.877	17.5
280.672	18.5
281.467	16.5
282.262	14.5
283.056	15.5
283.851	17.5
284.646	19.5
285.44	20.5
286.234	18.5
287.029	18.5
287.823	17.5
288.617	12.5
289.411	17.5
290.205	15.5
290.999	13.5
291.793	15.5
292.587	13.5
293.381	17.5
294.174	16.5
294.968	15.5
295.761	14.5
296.555	13.5
297.348	14.5
298.141	14.5
298.935	14.5
299.728	13.5
300.521	13.5
301.314	14.5
302.107	11.5
302.899	11.5
303.692	12.5
304.485	12.5
305.277	13.5
306.07	13.5
306.862	9.5
307.655	9.5
308.447	12.5
309.239	11.5
310.031	12.5
310.823	11.5
311.615	9.5
312.407	10.5
313.199	8.5
313.991	9.5
314.783	9.5
315.574	11.5
316.366	7.5
317.157	8.5
317.949	7.5
318.74	4.5
319.531	7.5
320.322	6.5
321.113	9.5
321.904	8.5
322.695	5.5
323.486	8.5
324.277	6.5
325.068	7.5
325.858	4.5
326.649	8.5
327.439	5.5
328.23	4.5
329.02	5.5
329.81	8.5
330.6	5.5
331.391	5.5
332.181	8.5
332.971	5.5
333.76	8.5
334.55	6.5
335.34	4.5
336.13	6.5
336.919	5.5
337.709	7.5
338.498	5.5
339.287	3.5
340.077	5.5
340.866	5.5
341.655	5.5
342.444	8.5
343.233	6.5
344.022	5.5
344.811	4.5
345.6	6.5
346.388	6.5
347.177	5.5
347.965	5.5
348.754	4.5
349.542	5.5
350.33	4.5
351.119	7.5
351.907	4.5
352.695	6.5
353.483	4.5
354.271	-0.5
355.059	4.5
355.846	5.5
356.634	5.5
357.422	3.5
358.209	5.5
358.997	4.5
359.784	5.5
360.571	4.5
361.359	4.5
362.146	5.5
362.933	5.5
363.72	4.5
364.507	6.5
365.294	6.5
366.081	7.5
366.867	6.5
367.654	1.5
368.44	6.5
369.227	3.5
370.013	5.5
370.8	4.5
371.586	3.5
372.372	4.5
373.158	5.5
373.944	4.5
374.73	3.5
375.516	3.5
376.302	5.5
377.088	7.5
377.873	5.5
378.659	2.5
379.445	4.5
380.23	3.5
381.015	5.5
381.801	5.5
382.586	4.5
383.371	5.5
384.156	2.5
384.941	6.5
385.726	2.5
386.511	5.5
387.296	5.5
388.08	4.5
388.865	5.5
389.649	4.5
390.434	5.5
391.218	5.5
392.003	6.5
392.787	4.5
393.571	4.5
394.355	5.5
395.139	5.5
395.923	8.5
396.707	4.5
397.491	7.5
398.274	5.5
399.058	5.5
399.842	7.5
400.625	5.5
401.408	6.5
402.192	6.5
402.975	6.5
403.758	7.5
404.541	6.5
405.324	7.5
406.107	6.5
406.89	6.5
407.673	7.5
408.456	7.5
409.238	9.5
410.021	8.5
410.803	7.5
411.586	6.5
412.368	6.5
413.151	7.5
413.933	8.5
414.715	6.5
415.497	9.5
416.279	7.5
417.061	5.5
417.843	10.5
418.624	9.5
419.406	6.5
420.188	8.5
420.969	9.5
421.751	10.5
422.532	11.5
423.313	9.5
424.095	9.5
424.876	9.5
425.657	9.5
426.438	11.5
427.219	12.5
428	12.5
428.78	12.5
429.561	10.5
430.342	13.5
431.122	12.5
431.903	13.5
432.683	15.5
433.464	13.5
434.244	15.5
435.024	18.5
435.804	16.5
436.584	17.5
437.364	16.5
438.144	18.5
438.924	21.5
439.704	20.5
440.483	24.5
441.263	24.5
442.042	26.5
442.822	24.5
443.601	24.5
444.38	29.5
445.16	33.5
445.939	38.5
446.718	36.5
447.497	36.5
448.276	41.5
449.054	48.5
449.833	51.5
450.612	58.5
451.391	59.5
452.169	63.5
452.948	72.5
453.726	75.5
454.504	86.5
455.282	98.5
456.061	105.5
456.839	117.5
457.617	131.5
458.395	144.5
459.172	158.5
459.95	175.5
460.728	201.5
461.506	223.5
462.283	245.5
463.061	275.5
463.838	305.5
464.615	346.5
465.393	381.5
466.17	418.5
466.947	471.5
467.724	517.5
468.501	577.5
469.278	647.5
470.055	713.5
470.831	796.5
471.608	879.5
472.385	978.5
473.161	1088.5
473.938	1199.5
474.714	1317.5
475.49	1458.5
476.266	1608.5
477.043	1767.5
477.819	1957.5
478.595	2143.5
479.371	2345.5
480.146	2553.5
480.922	2831.5
481.698	3131.5
482.473	3410.5
483.249	3741.5
484.024	4110.5
484.8	4505.5
485.575	4882.5
486.35	5354.5
487.126	5869.5
487.901	6429.5
488.676	6987.5
489.451	7599.5
490.225	8292.5
491	9051.5
491.775	9838.5
492.55	10718.5
493.324	11569.5
494.099	12435.5
494.873	13388.5
495.647	14420.5
496.422	15508.5
497.196	16571.5
497.97	17667.5
498.744	18765.5
499.518	19856.5
500.292	20924.5
501.066	21967.5
501.839	22974.5
502.613	23880.5
503.387	24682.5
504.16	25348.5
504.934	25803.5
505.707	26085.5
506.48	26264.5
507.253	26288.5
508.027	26127.5
508.8	26071.5
509.573	25787.5
510.346	25279.5
511.118	24671.5
511.891	24010.5
512.664	23303.5
513.437	22491.5
514.209	21615.5
514.982	20787.5
515.754	19925.5
516.526	19061.5
517.298	18324.5
518.071	17503.5
518.843	16844.5
519.615	16189.5
520.387	15556.5
521.159	14978.5
521.93	14373.5
522.702	13788.5
523.474	13244.5
524.245	12658.5
525.017	12124.5
525.788	11699.5
526.56	11143.5
527.331	10635.5
528.102	10236.5
528.873	9711.5
529.644	9233.5
530.415	8839.5
531.186	8391.5
531.957	7971.5
532.728	7606.5
533.498	7217.5
534.269	6844.5
535.039	6455.5
535.81	6070.5
536.58	5754.5
537.351	5408.5
538.121	5117.5
538.891	4869.5
539.661	4602.5
540.431	4355.5
541.201	4082.5
541.971	3891.5
542.741	3676.5
543.51	3506.5
544.28	3335.5
545.05	3175.5
545.819	3008.5
546.588	2861.5
547.358	2725.5
548.127	2590.5
548.896	2470.5
549.665	2329.5
550.434	2221.5
551.203	2117.5
551.972	1994.5
552.741	1868.5
553.51	1779.5
554.278	1678.5
555.047	1569.5
555.815	1492.5
556.584	1400.5
557.352	1338.5
558.121	1260.5
558.889	1201.5
559.657	1134.5
560.425	1070.5
561.193	998.5
561.961	947.5
562.729	892.5
563.496	849.5
564.264	799.5
565.032	742.5
565.799	724.5
566.567	675.5
567.334	635.5
568.101	603.5
568.869	575.5
569.636	532.5
570.403	494.5
571.17	474.5
571.937	448.5
572.704	432.5
573.471	399.5
574.237	374.5
575.004	352.5
575.771	331.5
576.537	307.5
577.303	304.5
578.07	283.5
578.836	267.5
579.602	252.5
580.368	228.5
581.134	222.5
581.9	217.5
582.666	200.5
583.432	193.5
584.198	180.5
584.964	169.5
585.729	159.5
586.495	154.5
587.26	143.5
588.025	135.5
588.791	128.5
589.556	124.5
590.321	111.5
591.086	110.5
591.851	105.5
592.616	99.5
593.381	96.5
594.146	91.5
594.911	85.5
595.675	84.5
596.44	85.5
597.204	75.5
597.969	69.5
598.733	70.5
599.497	64.5
600.261	63.5
601.025	59.5
601.79	56.5
602.553	53.5
603.317	51.5
604.081	49.5
604.845	46.5
605.609	46.5
606.372	45.5
607.136	42.5
607.899	39.5
608.662	39.5
609.426	36.5
610.189	36.5
610.952	34.5
611.715	33.5
612.478	31.5
613.241	29.5
614.004	25.5
614.767	27.5
615.529	28.5
616.292	24.5
617.055	24.5
617.817	24.5
618.579	21.5
619.342	22.5
620.104	21.5
620.866	20.5
621.628	19.5
622.39	19.5
623.152	20.5
623.914	17.5
624.676	16.5
625.438	17.5
626.199	16.5
626.961	17.5
627.722	17.5
628.484	17.5
629.245	14.5
630.006	12.5
630.768	13.5
631.529	16.5
632.29	14.5
633.051	13.5
633.812	12.5
634.573	11.5
635.333	10.5
636.094	11.5
636.855	11.5
637.615	13.5
638.376	10.5
639.136	9.5
639.896	11.5
640.657	11.5
641.417	9.5
642.177	6.5
642.937	9.5
643.697	8.5
644.457	5.5
645.216	5.5
645.976	7.5
646.736	7.5
647.495	7.5
648.255	7.5
649.014	8.5
649.774	8.5
650.533	7.5
651.292	7.5
652.051	6.5
652.81	4.5
653.569	6.5
654.328	9.5
655.087	6.5
655.846	6.5
656.604	4.5
657.363	4.5
658.121	7.5
658.88	6.5
659.638	6.5
660.397	5.5
661.155	2.5
661.913	4.5
662.671	4.5
663.429	6.5
664.187	3.5
664.945	5.5
665.703	3.5
666.46	3.5
667.218	2.5
667.976	4.5
668.733	6.5
669.49	4.5
670.248	3.5
671.005	4.5
671.762	4.5
672.519	5.5
673.276	4.5
674.033	5.5
674.79	4.5
675.547	4.5
676.304	2.5
677.06	0.5
677.817	3.5
678.574	1.5
679.33	3.5
680.086	5.5
680.843	1.5
681.599	2.5
682.355	3.5
683.111	1.5
683.867	2.5
684.623	4.5
685.379	3.5
686.135	3.5
686.89	5.5
687.646	2.5
688.402	3.5
689.157	5.5
689.912	2.5
690.668	3.5
691.423	5.5
692.178	3.5
692.933	3.5
693.688	4.5
694.443	3.5
695.198	4.5
695.953	3.5
696.708	1.5
697.462	3.5
698.217	2.5
698.972	3.5
699.726	3.5
700.48	0.5
701.235	4.5
701.989	2.5
702.743	3.5
703.497	2.5
704.251	4.5
705.005	4.5
705.759	1.5
706.513	2.5
707.266	1.5
708.02	3.5
708.774	4.5
709.527	2.5
710.28	2.5
711.034	5.5
711.787	3.5
712.54	4.5
713.293	3.5
714.046	0.5
714.799	2.5
715.552	3.5
716.305	1.5
717.058	3.5
717.81	1.5
718.563	2.5
719.315	4.5
720.068	1.5
720.82	3.5
721.573	0.5
722.325	3.5
723.077	3.5
723.829	3.5
724.581	4.5
725.333	3.5
726.085	3.5
726.836	3.5
727.588	2.5
728.34	3.5
729.091	4.5
729.843	3.5
730.594	4.5
731.346	4.5
732.097	2.5
732.848	2.5
733.599	3.5
734.35	1.5
735.101	2.5
735.852	2.5
736.603	3.5
737.354	4.5
738.104	2.5
738.855	3.5
739.605	3.5
740.356	3.5
741.106	2.5
741.856	4.5
742.607	5.5
743.357	3.5
744.107	3.5
744.857	1.5
745.607	5.5
746.357	5.5
747.106	5.5
747.856	3.5
748.606	3.5
749.355	4.5
750.105	7.5
750.854	5.5
751.603	3.5
752.353	3.5
753.102	5.5
753.851	4.5
754.6	4.5
755.349	6.5
756.098	6.5
756.847	6.5
757.595	3.5
758.344	4.5
759.093	2.5
759.841	7.5
760.589	5.5
761.338	7.5
762.086	6.5
762.834	6.5
763.582	6.5
764.331	6.5
765.079	4.5
765.826	4.5
766.574	3.5
767.322	7.5
768.07	5.5
768.817	6.5
769.565	4.5
770.312	8.5
771.06	3.5
771.807	5.5
772.554	8.5
773.302	4.5
774.049	8.5
774.796	5.5
775.543	8.5
776.29	8.5
777.036	10.5
777.783	7.5
778.53	7.5
779.276	9.5
780.023	6.5
780.769	9.5
781.516	8.5
782.262	7.5
783.008	10.5
783.754	7.5
784.5	7.5
785.246	8.5
785.992	9.5
786.738	6.5
787.484	6.5
788.23	8.5
788.975	8.5
789.721	9.5
790.466	10.5
791.212	6.5
791.957	9.5
792.702	7.5
793.447	9.5
794.193	9.5
794.938	9.5
795.683	6.5
796.427	7.5
797.172	7.5
797.917	7.5
798.662	8.5
799.406	9.5
800.151	8.5
800.895	9.5
801.64	5.5
802.384	6.5
803.128	6.5
803.872	5.5
804.616	6.5
805.36	8.5
806.104	6.5
806.848	6.5
807.592	7.5
808.336	5.5
809.079	8.5
809.823	4.5
810.566	4.5
811.31	4.5
812.053	5.5
812.796	4.5
813.539	3.5
814.283	4.5
815.026	3.5
815.769	3.5
816.511	4.5
817.254	2.5
817.997	3.5
818.74	3.5
819.482	4.5
820.225	3.5
820.967	3.5
821.71	3.5
822.452	4.5
823.194	3.5
823.936	3.5
824.678	2.5
825.42	6.5
826.162	2.5
826.904	3.5
827.646	4.5
828.388	2.5
829.129	1.5
829.871	5.5
830.612	2.5
831.354	1.5
832.095	1.5
832.836	1.5
833.577	2.5
834.319	2.5
835.06	1.5
835.801	2.5
836.542	4.5
837.282	4.5
838.023	3.5
838.764	1.5
839.504	4.5
840.245	1.5
840.985	4.5
841.726	1.5
842.466	3.5
843.206	2.5
843.946	2.5
844.687	3.5
845.427	3.5
846.166	1.5
846.906	2.5
847.646	1.5
848.386	3.5
849.125	3.5
849.865	2.5
850.605	2.5
851.344	1.5
852.083	2.5
852.823	0.5
853.562	4.5
854.301	0.5
855.04	4.5
855.779	0.5
856.518	2.5
857.257	2.5
857.995	2.5
858.734	1.5
859.473	2.5
860.211	2.5
860.95	1.5
861.688	2.5
862.426	1.5
863.165	3.5
863.903	-0.5
864.641	-0.5
865.379	1.5
866.117	0.5
866.855	4.5
867.593	0.5
868.33	-0.5
869.068	1.5
869.806	0.5
870.543	1.5
871.28	2.5
872.018	1.5
872.755	1.5
873.492	3.5
874.229	1.5
874.967	0.5
875.703	1.5
876.44	1.5
877.177	1.5
877.914	1.5
878.651	0.5
879.387	1.5
880.124	-0.5
880.86	-0.5
881.597	1.5
882.333	0.5
883.069	2.5
883.806	0.5
884.542	-0.5
885.278	2.5
886.014	0.5
886.749	-0.5
887.485	0.5
888.221	-0.5
888.957	-1.5
889.692	0.5
890.428	0.5
891.163	0.5
891.899	0.5
892.634	0.5
893.369	1.5
894.104	0.5
894.839	0.5
895.574	0.5
896.309	1.5
897.044	-0.5
897.779	-0.5
898.514	0.5
899.248	-0.5
899.983	-0.5
900.717	0.5
901.452	0.5
902.186	0.5
902.92	0.5
903.654	-0.5
904.389	-1.5
905.123	-0.5
905.857	1.5
906.59	-0.5
907.324	-0.5
908.058	-0.5
908.792	-0.5
909.525	-0.5
910.259	-0.5
910.992	-0.5
911.726	0.5
912.459	-0.5
913.192	1.5
913.925	-1.5
914.658	1.5
915.391	0.5
916.124	0.5
916.857	-2.5
917.59	2.5
918.323	1.5
919.055	1.5
919.788	1.5
920.521	0.5
921.253	-0.5
921.985	-0.5
922.718	2.5
923.45	0.5
924.182	0.5
924.914	-0.5
925.646	-1.5
926.378	0.5
927.11	1.5
927.841	1.5
928.573	-0.5
929.305	-0.5
930.036	-1.5
930.768	-0.5
931.499	0.5
932.23	-0.5
932.962	1.5
933.693	0.5
934.424	0.5
935.155	-1.5
935.886	0.5
936.617	-0.5
937.348	-0.5
938.078	-0.5
938.809	-1.5
939.54	-0.5
940.27	0.5
941.001	-2.5
941.731	0.5
942.461	-1.5
943.191	1.5
943.922	0.5
944.652	0.5
945.382	0.5
946.112	-0.5
946.841	-2.5
947.571	-0.5
948.301	-1.5
949.031	0.5
949.76	0.5
950.49	1.5
951.219	-2.5
951.948	-0.5
952.678	-1.5
953.407	0.5
954.136	2.5
954.865	0.5
955.594	1.5
956.323	0.5
957.052	2.5
957.78	1.5
958.509	-0.5
959.238	0.5
959.966	0.5
960.695	-0.5
961.423	-0.5
962.151	-2.5
962.88	-0.5
963.608	-2.5
964.336	-0.5
965.064	-0.5
965.792	-0.5
966.52	-1.5
967.247	-0.5
967.975	-2.5
968.703	1.5
969.43	1.5
970.158	1.5
970.885	-2.5
971.613	1.5
972.34	-0.5
973.067	1.5
973.794	-1.5
974.521	-0.5
975.248	0.5
975.975	2.5
976.702	1.5
977.429	-1.5
978.156	1.5
978.882	-2.5
979.609	0.5
980.335	-0.5
981.062	0.5
981.788	-0.5
982.514	0.5
983.24	-0.5
983.967	0.5
984.693	0.5
985.419	-1.5
986.144	0.5
986.87	1.5
987.596	-0.5
988.322	1.5
989.047	-0.5
989.773	-2.5
990.498	1.5
991.224	-0.5
991.949	-1.5
992.674	-0.5
993.399	0.5
994.124	1.5
994.849	-0.5
995.574	-2.5
996.299	-2.5
997.024	0.5
997.749	-0.5
998.473	-0.5
999.198	0.5
999.922	-1.5
1000.647	1.5
1001.371	1.5
1002.095	-0.5
1002.82	-1.5
1003.544	-2.5
1004.268	2.5
1004.992	-1.5
1005.716	-0.5
1006.439	1.5
1007.163	0.5
1007.887	0.5
1008.611	-2.5
1009.334	-0.5
1010.058	0.5
1010.781	0.5
1011.504	-1.5
1012.228	-2.5
1012.951	2.5
1013.674	0.5
1014.397	-0.5
1015.12	0.5
