节点500_285_QEPB04081__353__15-01-25-678.txt的数据

Date: Wed Nov 12 15:01:25 CST 2025
User: PC
Spectrometer: QEPB0408
触发模式: 0
积分时间 (秒): 1.000000E-2
Scans to average: 1
启用暗噪声校正: true
启用非线性校正: false
滑动平均宽度: 0
X轴模式: Wavelengths
Number of Pixels in Spectrum: 1044
>>>>>Begin Spectral Data<<<<<
220.843	0.25
221.644	1.25
222.444	0.25
223.244	3.25
224.045	2.25
224.845	1.25
225.645	1.25
226.445	0.25
227.245	4.25
228.045	1.25
228.845	3.25
229.645	4.25
230.444	3.25
231.244	3.25
232.043	5.25
232.843	5.25
233.642	2.25
234.442	2.25
235.241	4.25
236.04	4.25
236.839	5.25
237.638	7.25
238.437	5.25
239.236	4.25
240.035	3.25
240.833	8.25
241.632	5.25
242.43	7.25
243.229	4.25
244.027	5.25
244.826	5.25
245.624	5.25
246.422	6.25
247.22	6.25
248.018	8.25
248.816	5.25
249.614	7.25
250.412	7.25
251.21	5.25
252.007	8.25
252.805	9.25
253.602	9.25
254.4	8.25
255.197	9.25
255.994	9.25
256.791	9.25
257.589	9.25
258.386	8.25
259.183	5.25
259.979	8.25
260.776	10.25
261.573	12.25
262.37	12.25
263.166	10.25
263.963	13.25
264.759	12.25
265.556	13.25
266.352	13.25
267.148	14.25
267.944	14.25
268.74	16.25
269.536	13.25
270.332	13.25
271.128	14.25
271.924	13.25
272.719	14.25
273.515	14.25
274.311	19.25
275.106	17.25
275.901	17.25
276.697	19.25
277.492	17.25
278.287	20.25
279.082	18.25
279.877	20.25
280.672	20.25
281.467	18.25
282.262	19.25
283.056	20.25
283.851	20.25
284.646	16.25
285.44	18.25
286.234	19.25
287.029	19.25
287.823	20.25
288.617	19.25
289.411	19.25
290.205	20.25
290.999	18.25
291.793	20.25
292.587	17.25
293.381	17.25
294.174	16.25
294.968	14.25
295.761	16.25
296.555	14.25
297.348	16.25
298.141	14.25
298.935	16.25
299.728	18.25
300.521	12.25
301.314	14.25
302.107	17.25
302.899	17.25
303.692	15.25
304.485	13.25
305.277	12.25
306.07	12.25
306.862	14.25
307.655	12.25
308.447	11.25
309.239	12.25
310.031	10.25
310.823	13.25
311.615	11.25
312.407	12.25
313.199	10.25
313.991	11.25
314.783	8.25
315.574	10.25
316.366	8.25
317.157	6.25
317.949	9.25
318.74	10.25
319.531	10.25
320.322	7.25
321.113	8.25
321.904	8.25
322.695	8.25
323.486	10.25
324.277	8.25
325.068	7.25
325.858	7.25
326.649	6.25
327.439	6.25
328.23	7.25
329.02	7.25
329.81	8.25
330.6	7.25
331.391	7.25
332.181	5.25
332.971	6.25
333.76	6.25
334.55	5.25
335.34	7.25
336.13	7.25
336.919	7.25
337.709	9.25
338.498	6.25
339.287	7.25
340.077	7.25
340.866	7.25
341.655	6.25
342.444	6.25
343.233	7.25
344.022	6.25
344.811	9.25
345.6	6.25
346.388	6.25
347.177	6.25
347.965	5.25
348.754	6.25
349.542	7.25
350.33	8.25
351.119	6.25
351.907	8.25
352.695	7.25
353.483	5.25
354.271	6.25
355.059	6.25
355.846	6.25
356.634	4.25
357.422	8.25
358.209	5.25
358.997	6.25
359.784	5.25
360.571	5.25
361.359	5.25
362.146	5.25
362.933	5.25
363.72	4.25
364.507	7.25
365.294	5.25
366.081	2.25
366.867	8.25
367.654	8.25
368.44	6.25
369.227	5.25
370.013	7.25
370.8	6.25
371.586	5.25
372.372	6.25
373.158	3.25
373.944	5.25
374.73	5.25
375.516	1.25
376.302	5.25
377.088	4.25
377.873	8.25
378.659	5.25
379.445	9.25
380.23	4.25
381.015	3.25
381.801	5.25
382.586	5.25
383.371	8.25
384.156	5.25
384.941	7.25
385.726	4.25
386.511	5.25
387.296	7.25
388.08	6.25
388.865	7.25
389.649	8.25
390.434	4.25
391.218	6.25
392.003	6.25
392.787	8.25
393.571	5.25
394.355	5.25
395.139	8.25
395.923	4.25
396.707	7.25
397.491	8.25
398.274	5.25
399.058	10.25
399.842	5.25
400.625	6.25
401.408	4.25
402.192	8.25
402.975	7.25
403.758	6.25
404.541	7.25
405.324	6.25
406.107	7.25
406.89	7.25
407.673	8.25
408.456	8.25
409.238	7.25
410.021	8.25
410.803	9.25
411.586	10.25
412.368	7.25
413.151	10.25
413.933	10.25
414.715	10.25
415.497	8.25
416.279	10.25
417.061	8.25
417.843	10.25
418.624	8.25
419.406	11.25
420.188	10.25
420.969	12.25
421.751	11.25
422.532	11.25
423.313	11.25
424.095	11.25
424.876	11.25
425.657	9.25
426.438	16.25
427.219	13.25
428	16.25
428.78	12.25
429.561	12.25
430.342	15.25
431.122	13.25
431.903	15.25
432.683	15.25
433.464	16.25
434.244	16.25
435.024	15.25
435.804	17.25
436.584	20.25
437.364	16.25
438.144	19.25
438.924	20.25
439.704	22.25
440.483	21.25
441.263	26.25
442.042	24.25
442.822	27.25
443.601	28.25
444.38	29.25
445.16	33.25
445.939	32.25
446.718	31.25
447.497	39.25
448.276	40.25
449.054	44.25
449.833	45.25
450.612	54.25
451.391	58.25
452.169	58.25
452.948	70.25
453.726	78.25
454.504	87.25
455.282	89.25
456.061	94.25
456.839	109.25
457.617	125.25
458.395	135.25
459.172	154.25
459.95	171.25
460.728	185.25
461.506	210.25
462.283	228.25
463.061	264.25
463.838	290.25
464.615	324.25
465.393	363.25
466.17	405.25
466.947	445.25
467.724	498.25
468.501	558.25
469.278	607.25
470.055	691.25
470.831	769.25
471.608	851.25
472.385	956.25
473.161	1045.25
473.938	1163.25
474.714	1302.25
475.49	1433.25
476.266	1589.25
477.043	1749.25
477.819	1932.25
478.595	2118.25
479.371	2358.25
480.146	2607.25
480.922	2876.25
481.698	3146.25
482.473	3473.25
483.249	3807.25
484.024	4213.25
484.8	4620.25
485.575	5061.25
486.35	5564.25
487.126	6070.25
487.901	6726.25
488.676	7325.25
489.451	8032.25
490.225	8791.25
491	9592.25
491.775	10465.25
492.55	11442.25
493.324	12337.25
494.099	13362.25
494.873	14355.25
495.647	15541.25
496.422	16700.25
497.196	17785.25
497.97	19058.25
498.744	20219.25
499.518	21361.25
500.292	22545.25
501.066	23603.25
501.839	24516.25
502.613	25426.25
503.387	26219.25
504.16	26913.25
504.934	27135.25
505.707	27427.25
506.48	27538.25
507.253	27377.25
508.027	27121.25
508.8	26778.25
509.573	26414.25
510.346	25786.25
511.118	25005.25
511.891	24215.25
512.664	23388.25
513.437	22539.25
514.209	21548.25
514.982	20712.25
515.754	19754.25
516.526	18901.25
517.298	18052.25
518.071	17262.25
518.843	16646.25
519.615	15989.25
520.387	15314.25
521.159	14690.25
521.93	14163.25
522.702	13573.25
523.474	13058.25
524.245	12471.25
525.017	11930.25
525.788	11481.25
526.56	10940.25
527.331	10461.25
528.102	9983.25
528.873	9518.25
529.644	9043.25
530.415	8602.25
531.186	8145.25
531.957	7744.25
532.728	7356.25
533.498	6965.25
534.269	6553.25
535.039	6197.25
535.81	5859.25
536.58	5543.25
537.351	5199.25
538.121	4950.25
538.891	4661.25
539.661	4449.25
540.431	4161.25
541.201	3936.25
541.971	3735.25
542.741	3545.25
543.51	3378.25
544.28	3203.25
545.05	3037.25
545.819	2892.25
546.588	2752.25
547.358	2616.25
548.127	2487.25
548.896	2351.25
549.665	2240.25
550.434	2104.25
551.203	1995.25
551.972	1910.25
552.741	1790.25
553.51	1691.25
554.278	1630.25
555.047	1514.25
555.815	1425.25
556.584	1356.25
557.352	1270.25
558.121	1204.25
558.889	1133.25
559.657	1087.25
560.425	1012.25
561.193	964.25
561.961	898.25
562.729	854.25
563.496	806.25
564.264	758.25
565.032	717.25
565.799	675.25
566.567	648.25
567.334	609.25
568.101	578.25
568.869	540.25
569.636	506.25
570.403	480.25
571.17	451.25
571.937	423.25
572.704	404.25
573.471	380.25
574.237	358.25
575.004	341.25
575.771	319.25
576.537	302.25
577.303	286.25
578.07	264.25
578.836	248.25
579.602	237.25
580.368	219.25
581.134	209.25
581.9	203.25
582.666	195.25
583.432	180.25
584.198	175.25
584.964	161.25
585.729	152.25
586.495	144.25
587.26	137.25
588.025	130.25
588.791	125.25
589.556	117.25
590.321	112.25
591.086	106.25
591.851	98.25
592.616	97.25
593.381	90.25
594.146	87.25
594.911	84.25
595.675	83.25
596.44	76.25
597.204	71.25
597.969	70.25
598.733	69.25
599.497	64.25
600.261	58.25
601.025	58.25
601.79	52.25
602.553	49.25
603.317	52.25
604.081	51.25
604.845	45.25
605.609	43.25
606.372	42.25
607.136	38.25
607.899	39.25
608.662	34.25
609.426	35.25
610.189	34.25
610.952	32.25
611.715	32.25
612.478	30.25
613.241	26.25
614.004	28.25
614.767	28.25
615.529	26.25
616.292	26.25
617.055	26.25
617.817	22.25
618.579	25.25
619.342	21.25
620.104	21.25
620.866	22.25
621.628	22.25
622.39	20.25
623.152	18.25
623.914	17.25
624.676	15.25
625.438	15.25
626.199	17.25
626.961	16.25
627.722	16.25
628.484	16.25
629.245	13.25
630.006	14.25
630.768	16.25
631.529	12.25
632.29	11.25
633.051	14.25
633.812	10.25
634.573	12.25
635.333	11.25
636.094	10.25
636.855	11.25
637.615	11.25
638.376	12.25
639.136	8.25
639.896	8.25
640.657	12.25
641.417	10.25
642.177	9.25
642.937	8.25
643.697	7.25
644.457	8.25
645.216	8.25
645.976	6.25
646.736	10.25
647.495	7.25
648.255	8.25
649.014	8.25
649.774	8.25
650.533	8.25
651.292	6.25
652.051	8.25
652.81	8.25
653.569	8.25
654.328	10.25
655.087	8.25
655.846	7.25
656.604	5.25
657.363	7.25
658.121	6.25
658.88	5.25
659.638	6.25
660.397	6.25
661.155	7.25
661.913	5.25
662.671	5.25
663.429	7.25
664.187	4.25
664.945	5.25
665.703	6.25
666.46	5.25
667.218	5.25
667.976	6.25
668.733	7.25
669.49	9.25
670.248	7.25
671.005	5.25
671.762	5.25
672.519	3.25
673.276	4.25
674.033	5.25
674.79	4.25
675.547	2.25
676.304	7.25
677.06	4.25
677.817	6.25
678.574	5.25
679.33	6.25
680.086	5.25
680.843	5.25
681.599	5.25
682.355	5.25
683.111	6.25
683.867	6.25
684.623	4.25
685.379	1.25
686.135	3.25
686.89	4.25
687.646	5.25
688.402	1.25
689.157	2.25
689.912	5.25
690.668	3.25
691.423	2.25
692.178	7.25
692.933	4.25
693.688	5.25
694.443	5.25
695.198	6.25
695.953	2.25
696.708	1.25
697.462	1.25
698.217	0.25
698.972	3.25
699.726	4.25
700.48	2.25
701.235	4.25
701.989	4.25
702.743	4.25
703.497	5.25
704.251	6.25
705.005	6.25
705.759	4.25
706.513	4.25
707.266	3.25
708.02	5.25
708.774	3.25
709.527	5.25
710.28	4.25
711.034	3.25
711.787	4.25
712.54	3.25
713.293	0.25
714.046	5.25
714.799	3.25
715.552	4.25
716.305	3.25
717.058	3.25
717.81	5.25
718.563	4.25
719.315	3.25
720.068	4.25
720.82	2.25
721.573	5.25
722.325	4.25
723.077	3.25
723.829	2.25
724.581	6.25
725.333	5.25
726.085	3.25
726.836	4.25
727.588	6.25
728.34	5.25
729.091	4.25
729.843	3.25
730.594	2.25
731.346	5.25
732.097	4.25
732.848	5.25
733.599	2.25
734.35	3.25
735.101	2.25
735.852	3.25
736.603	4.25
737.354	4.25
738.104	5.25
738.855	5.25
739.605	5.25
740.356	6.25
741.106	4.25
741.856	3.25
742.607	3.25
743.357	3.25
744.107	5.25
744.857	6.25
745.607	6.25
746.357	5.25
747.106	3.25
747.856	5.25
748.606	6.25
749.355	6.25
750.105	7.25
750.854	7.25
751.603	6.25
752.353	6.25
753.102	7.25
753.851	5.25
754.6	7.25
755.349	4.25
756.098	6.25
756.847	9.25
757.595	5.25
758.344	5.25
759.093	5.25
759.841	7.25
760.589	7.25
761.338	7.25
762.086	6.25
762.834	6.25
763.582	7.25
764.331	5.25
765.079	7.25
765.826	9.25
766.574	6.25
767.322	7.25
768.07	5.25
768.817	9.25
769.565	10.25
770.312	6.25
771.06	9.25
771.807	7.25
772.554	10.25
773.302	9.25
774.049	9.25
774.796	8.25
775.543	9.25
776.29	10.25
777.036	6.25
777.783	10.25
778.53	9.25
779.276	10.25
780.023	7.25
780.769	9.25
781.516	10.25
782.262	8.25
783.008	10.25
783.754	9.25
784.5	7.25
785.246	11.25
785.992	9.25
786.738	11.25
787.484	9.25
788.23	7.25
788.975	9.25
789.721	8.25
790.466	8.25
791.212	11.25
791.957	8.25
792.702	7.25
793.447	8.25
794.193	9.25
794.938	7.25
795.683	8.25
796.427	7.25
797.172	7.25
797.917	8.25
798.662	5.25
799.406	9.25
800.151	7.25
800.895	8.25
801.64	6.25
802.384	9.25
803.128	8.25
803.872	6.25
804.616	8.25
805.36	5.25
806.104	9.25
806.848	7.25
807.592	7.25
808.336	6.25
809.079	4.25
809.823	4.25
810.566	6.25
811.31	4.25
812.053	8.25
812.796	4.25
813.539	6.25
814.283	5.25
815.026	7.25
815.769	5.25
816.511	6.25
817.254	4.25
817.997	4.25
818.74	4.25
819.482	4.25
820.225	7.25
820.967	4.25
821.71	6.25
822.452	6.25
823.194	4.25
823.936	2.25
824.678	4.25
825.42	5.25
826.162	4.25
826.904	3.25
827.646	3.25
828.388	6.25
829.129	4.25
829.871	3.25
830.612	4.25
831.354	4.25
832.095	5.25
832.836	5.25
833.577	4.25
834.319	5.25
835.06	4.25
835.801	4.25
836.542	2.25
837.282	2.25
838.023	4.25
838.764	1.25
839.504	6.25
840.245	3.25
840.985	3.25
841.726	6.25
842.466	3.25
843.206	6.25
843.946	3.25
844.687	4.25
845.427	4.25
846.166	2.25
846.906	6.25
847.646	2.25
848.386	3.25
849.125	2.25
849.865	5.25
850.605	3.25
851.344	4.25
852.083	3.25
852.823	2.25
853.562	2.25
854.301	5.25
855.04	1.25
855.779	5.25
856.518	4.25
857.257	2.25
857.995	2.25
858.734	4.25
859.473	1.25
860.211	2.25
860.95	4.25
861.688	1.25
862.426	4.25
863.165	3.25
863.903	2.25
864.641	2.25
865.379	0.25
866.117	-0.75
866.855	2.25
867.593	3.25
868.33	1.25
869.068	1.25
869.806	4.25
870.543	0.25
871.28	0.25
872.018	0.25
872.755	3.25
873.492	0.25
874.229	-0.75
874.967	2.25
875.703	3.25
876.44	1.25
877.177	1.25
877.914	0.25
878.651	3.25
879.387	-0.75
880.124	3.25
880.86	1.25
881.597	2.25
882.333	1.25
883.069	0.25
883.806	3.25
884.542	1.25
885.278	5.25
886.014	2.25
886.749	0.25
887.485	1.25
888.221	0.25
888.957	-0.75
889.692	2.25
890.428	0.25
891.163	2.25
891.899	2.25
892.634	0.25
893.369	-0.75
894.104	3.25
894.839	1.25
895.574	2.25
896.309	-0.75
897.044	1.25
897.779	1.25
898.514	1.25
899.248	1.25
899.983	1.25
900.717	0.25
901.452	2.25
902.186	-2.75
902.92	1.25
903.654	0.25
904.389	0.25
905.123	3.25
905.857	0.25
906.59	0.25
907.324	-0.75
908.058	3.25
908.792	2.25
909.525	2.25
910.259	1.25
910.992	-0.75
911.726	2.25
912.459	0.25
913.192	2.25
913.925	0.25
914.658	-1.75
915.391	3.25
916.124	1.25
916.857	1.25
917.59	0.25
918.323	0.25
919.055	1.25
919.788	2.25
920.521	0.25
921.253	0.25
921.985	0.25
922.718	-0.75
923.45	0.25
924.182	-0.75
924.914	0.25
925.646	0.25
926.378	0.25
927.11	1.25
927.841	1.25
928.573	0.25
929.305	-2.75
930.036	-0.75
930.768	1.25
931.499	-0.75
932.23	1.25
932.962	1.25
933.693	1.25
934.424	0.25
935.155	0.25
935.886	0.25
936.617	1.25
937.348	1.25
938.078	2.25
938.809	1.25
939.54	0.25
940.27	-1.75
941.001	1.25
941.731	0.25
942.461	1.25
943.191	2.25
943.922	0.25
944.652	0.25
945.382	1.25
946.112	1.25
946.841	2.25
947.571	2.25
948.301	2.25
949.031	0.25
949.76	0.25
950.49	-0.75
951.219	-1.75
951.948	1.25
952.678	3.25
953.407	2.25
954.136	2.25
954.865	1.25
955.594	-1.75
956.323	1.25
957.052	0.25
957.78	0.25
958.509	1.25
959.238	1.25
959.966	1.25
960.695	-0.75
961.423	1.25
962.151	0.25
962.88	1.25
963.608	2.25
964.336	-1.75
965.064	0.25
965.792	2.25
966.52	0.25
967.247	0.25
967.975	0.25
968.703	-1.75
969.43	2.25
970.158	2.25
970.885	0.25
971.613	1.25
972.34	0.25
973.067	0.25
973.794	0.25
974.521	0.25
975.248	3.25
975.975	1.25
976.702	1.25
977.429	1.25
978.156	-0.75
978.882	0.25
979.609	-0.75
980.335	1.25
981.062	-0.75
981.788	-1.75
982.514	-1.75
983.24	0.25
983.967	-0.75
984.693	2.25
985.419	2.25
986.144	2.25
986.87	0.25
987.596	0.25
988.322	1.25
989.047	0.25
989.773	2.25
990.498	1.25
991.224	0.25
991.949	1.25
992.674	0.25
993.399	1.25
994.124	-0.75
994.849	0.25
995.574	-0.75
996.299	0.25
997.024	0.25
997.749	1.25
998.473	2.25
999.198	0.25
999.922	2.25
1000.647	2.25
1001.371	2.25
1002.095	-0.75
1002.82	-0.75
1003.544	-3.75
1004.268	2.25
1004.992	1.25
1005.716	0.25
1006.439	-0.75
1007.163	0.25
1007.887	3.25
1008.611	0.25
1009.334	3.25
1010.058	-0.75
1010.781	1.25
1011.504	0.25
1012.228	1.25
1012.951	0.25
1013.674	1.25
1014.397	1.25
1015.12	0.25
