节点500_285_QEPB04081__377__15-01-49-653.txt的数据

Date: Wed Nov 12 15:01:49 CST 2025
User: PC
Spectrometer: QEPB0408
触发模式: 0
积分时间 (秒): 1.000000E-2
Scans to average: 1
启用暗噪声校正: true
启用非线性校正: false
滑动平均宽度: 0
X轴模式: Wavelengths
Number of Pixels in Spectrum: 1044
>>>>>Begin Spectral Data<<<<<
220.843	1.62
221.644	0.62
222.444	1.62
223.244	3.62
224.045	1.62
224.845	1.62
225.645	1.62
226.445	3.62
227.245	2.62
228.045	1.62
228.845	2.62
229.645	2.62
230.444	5.62
231.244	0.62
232.043	3.62
232.843	2.62
233.642	5.62
234.442	3.62
235.241	2.62
236.04	4.62
236.839	1.62
237.638	2.62
238.437	2.62
239.236	4.62
240.035	6.62
240.833	5.62
241.632	2.62
242.43	4.62
243.229	5.62
244.027	5.62
244.826	4.62
245.624	3.62
246.422	5.62
247.22	4.62
248.018	5.62
248.816	6.62
249.614	6.62
250.412	6.62
251.21	5.62
252.007	6.62
252.805	5.62
253.602	7.62
254.4	8.62
255.197	7.62
255.994	6.62
256.791	8.62
257.589	8.62
258.386	8.62
259.183	9.62
259.979	11.62
260.776	9.62
261.573	12.62
262.37	7.62
263.166	10.62
263.963	10.62
264.759	10.62
265.556	10.62
266.352	13.62
267.148	13.62
267.944	10.62
268.74	13.62
269.536	12.62
270.332	11.62
271.128	13.62
271.924	15.62
272.719	17.62
273.515	13.62
274.311	14.62
275.106	16.62
275.901	18.62
276.697	16.62
277.492	16.62
278.287	18.62
279.082	16.62
279.877	16.62
280.672	16.62
281.467	18.62
282.262	15.62
283.056	24.62
283.851	20.62
284.646	17.62
285.44	17.62
286.234	13.62
287.029	18.62
287.823	18.62
288.617	16.62
289.411	18.62
290.205	17.62
290.999	19.62
291.793	17.62
292.587	17.62
293.381	17.62
294.174	16.62
294.968	15.62
295.761	14.62
296.555	16.62
297.348	16.62
298.141	13.62
298.935	17.62
299.728	15.62
300.521	15.62
301.314	13.62
302.107	14.62
302.899	13.62
303.692	11.62
304.485	10.62
305.277	13.62
306.07	13.62
306.862	13.62
307.655	13.62
308.447	12.62
309.239	10.62
310.031	10.62
310.823	9.62
311.615	10.62
312.407	9.62
313.199	7.62
313.991	9.62
314.783	9.62
315.574	7.62
316.366	8.62
317.157	7.62
317.949	8.62
318.74	6.62
319.531	7.62
320.322	4.62
321.113	5.62
321.904	7.62
322.695	10.62
323.486	6.62
324.277	4.62
325.068	7.62
325.858	6.62
326.649	5.62
327.439	6.62
328.23	8.62
329.02	6.62
329.81	5.62
330.6	4.62
331.391	6.62
332.181	8.62
332.971	4.62
333.76	8.62
334.55	5.62
335.34	5.62
336.13	8.62
336.919	5.62
337.709	8.62
338.498	6.62
339.287	5.62
340.077	6.62
340.866	5.62
341.655	6.62
342.444	6.62
343.233	4.62
344.022	8.62
344.811	6.62
345.6	5.62
346.388	7.62
347.177	5.62
347.965	7.62
348.754	5.62
349.542	6.62
350.33	5.62
351.119	5.62
351.907	5.62
352.695	5.62
353.483	4.62
354.271	6.62
355.059	4.62
355.846	5.62
356.634	4.62
357.422	6.62
358.209	6.62
358.997	6.62
359.784	3.62
360.571	3.62
361.359	6.62
362.146	6.62
362.933	3.62
363.72	4.62
364.507	5.62
365.294	3.62
366.081	6.62
366.867	5.62
367.654	5.62
368.44	4.62
369.227	5.62
370.013	7.62
370.8	4.62
371.586	6.62
372.372	6.62
373.158	6.62
373.944	5.62
374.73	6.62
375.516	6.62
376.302	4.62
377.088	4.62
377.873	6.62
378.659	4.62
379.445	4.62
380.23	4.62
381.015	2.62
381.801	5.62
382.586	6.62
383.371	5.62
384.156	5.62
384.941	8.62
385.726	6.62
386.511	4.62
387.296	5.62
388.08	3.62
388.865	7.62
389.649	6.62
390.434	4.62
391.218	6.62
392.003	6.62
392.787	4.62
393.571	6.62
394.355	6.62
395.139	5.62
395.923	7.62
396.707	7.62
397.491	5.62
398.274	7.62
399.058	4.62
399.842	9.62
400.625	7.62
401.408	9.62
402.192	6.62
402.975	5.62
403.758	6.62
404.541	7.62
405.324	7.62
406.107	8.62
406.89	11.62
407.673	9.62
408.456	6.62
409.238	8.62
410.021	8.62
410.803	10.62
411.586	7.62
412.368	9.62
413.151	11.62
413.933	7.62
414.715	9.62
415.497	10.62
416.279	8.62
417.061	8.62
417.843	11.62
418.624	10.62
419.406	8.62
420.188	11.62
420.969	7.62
421.751	10.62
422.532	10.62
423.313	10.62
424.095	12.62
424.876	11.62
425.657	11.62
426.438	12.62
427.219	13.62
428	10.62
428.78	13.62
429.561	11.62
430.342	13.62
431.122	16.62
431.903	13.62
432.683	15.62
433.464	13.62
434.244	16.62
435.024	15.62
435.804	15.62
436.584	16.62
437.364	18.62
438.144	18.62
438.924	22.62
439.704	23.62
440.483	23.62
441.263	22.62
442.042	26.62
442.822	28.62
443.601	29.62
444.38	28.62
445.16	28.62
445.939	32.62
446.718	36.62
447.497	40.62
448.276	41.62
449.054	41.62
449.833	48.62
450.612	49.62
451.391	57.62
452.169	61.62
452.948	67.62
453.726	74.62
454.504	83.62
455.282	86.62
456.061	100.62
456.839	110.62
457.617	123.62
458.395	132.62
459.172	153.62
459.95	167.62
460.728	192.62
461.506	209.62
462.283	234.62
463.061	261.62
463.838	291.62
464.615	318.62
465.393	361.62
466.17	399.62
466.947	447.62
467.724	501.62
468.501	564.62
469.278	630.62
470.055	680.62
470.831	772.62
471.608	859.62
472.385	949.62
473.161	1055.62
473.938	1155.62
474.714	1307.62
475.49	1435.62
476.266	1569.62
477.043	1735.62
477.819	1917.62
478.595	2135.62
479.371	2348.62
480.146	2589.62
480.922	2872.62
481.698	3155.62
482.473	3462.62
483.249	3829.62
484.024	4186.62
484.8	4617.62
485.575	5058.62
486.35	5573.62
487.126	6079.62
487.901	6674.62
488.676	7306.62
489.451	7988.62
490.225	8776.62
491	9558.62
491.775	10463.62
492.55	11362.62
493.324	12297.62
494.099	13267.62
494.873	14282.62
495.647	15460.62
496.422	16549.62
497.196	17765.62
497.97	18937.62
498.744	20128.62
499.518	21274.62
500.292	22431.62
501.066	23488.62
501.839	24451.62
502.613	25311.62
503.387	26098.62
504.16	26758.62
504.934	27116.62
505.707	27254.62
506.48	27365.62
507.253	27320.62
508.027	27101.62
508.8	26782.62
509.573	26320.62
510.346	25751.62
511.118	25014.62
511.891	24239.62
512.664	23319.62
513.437	22471.62
514.209	21540.62
514.982	20748.62
515.754	19832.62
516.526	18910.62
517.298	18085.62
518.071	17312.62
518.843	16664.62
519.615	15988.62
520.387	15378.62
521.159	14774.62
521.93	14189.62
522.702	13607.62
523.474	13048.62
524.245	12512.62
525.017	11968.62
525.788	11540.62
526.56	10957.62
527.331	10449.62
528.102	9993.62
528.873	9501.62
529.644	9033.62
530.415	8630.62
531.186	8205.62
531.957	7742.62
532.728	7370.62
533.498	6976.62
534.269	6564.62
535.039	6196.62
535.81	5877.62
536.58	5563.62
537.351	5259.62
538.121	4949.62
538.891	4700.62
539.661	4423.62
540.431	4175.62
541.201	3931.62
541.971	3745.62
542.741	3568.62
543.51	3400.62
544.28	3211.62
545.05	3054.62
545.819	2903.62
546.588	2750.62
547.358	2638.62
548.127	2495.62
548.896	2368.62
549.665	2249.62
550.434	2125.62
551.203	2019.62
551.972	1910.62
552.741	1793.62
553.51	1699.62
554.278	1610.62
555.047	1511.62
555.815	1448.62
556.584	1352.62
557.352	1273.62
558.121	1206.62
558.889	1146.62
559.657	1076.62
560.425	1015.62
561.193	956.62
561.961	901.62
562.729	849.62
563.496	811.62
564.264	754.62
565.032	726.62
565.799	686.62
566.567	639.62
567.334	609.62
568.101	577.62
568.869	548.62
569.636	517.62
570.403	477.62
571.17	446.62
571.937	431.62
572.704	411.62
573.471	388.62
574.237	366.62
575.004	338.62
575.771	325.62
576.537	304.62
577.303	283.62
578.07	267.62
578.836	254.62
579.602	231.62
580.368	217.62
581.134	216.62
581.9	198.62
582.666	187.62
583.432	180.62
584.198	170.62
584.964	166.62
585.729	156.62
586.495	146.62
587.26	137.62
588.025	133.62
588.791	123.62
589.556	117.62
590.321	110.62
591.086	107.62
591.851	103.62
592.616	93.62
593.381	90.62
594.146	88.62
594.911	81.62
595.675	79.62
596.44	76.62
597.204	70.62
597.969	71.62
598.733	65.62
599.497	63.62
600.261	60.62
601.025	54.62
601.79	51.62
602.553	54.62
603.317	47.62
604.081	46.62
604.845	43.62
605.609	43.62
606.372	39.62
607.136	41.62
607.899	37.62
608.662	33.62
609.426	36.62
610.189	37.62
610.952	32.62
611.715	32.62
612.478	33.62
613.241	26.62
614.004	27.62
614.767	26.62
615.529	27.62
616.292	22.62
617.055	24.62
617.817	23.62
618.579	24.62
619.342	20.62
620.104	19.62
620.866	21.62
621.628	18.62
622.39	17.62
623.152	17.62
623.914	15.62
624.676	16.62
625.438	16.62
626.199	20.62
626.961	16.62
627.722	13.62
628.484	15.62
629.245	13.62
630.006	12.62
630.768	15.62
631.529	16.62
632.29	11.62
633.051	11.62
633.812	11.62
634.573	11.62
635.333	13.62
636.094	14.62
636.855	9.62
637.615	9.62
638.376	10.62
639.136	10.62
639.896	9.62
640.657	8.62
641.417	10.62
642.177	8.62
642.937	9.62
643.697	7.62
644.457	9.62
645.216	7.62
645.976	8.62
646.736	7.62
647.495	8.62
648.255	8.62
649.014	6.62
649.774	8.62
650.533	7.62
651.292	8.62
652.051	4.62
652.81	6.62
653.569	6.62
654.328	5.62
655.087	5.62
655.846	7.62
656.604	5.62
657.363	5.62
658.121	6.62
658.88	6.62
659.638	6.62
660.397	4.62
661.155	7.62
661.913	6.62
662.671	6.62
663.429	5.62
664.187	3.62
664.945	4.62
665.703	3.62
666.46	5.62
667.218	0.62
667.976	7.62
668.733	5.62
669.49	5.62
670.248	4.62
671.005	5.62
671.762	6.62
672.519	4.62
673.276	6.62
674.033	1.62
674.79	4.62
675.547	3.62
676.304	5.62
677.06	4.62
677.817	2.62
678.574	4.62
679.33	3.62
680.086	4.62
680.843	4.62
681.599	4.62
682.355	3.62
683.111	3.62
683.867	2.62
684.623	6.62
685.379	5.62
686.135	4.62
686.89	2.62
687.646	4.62
688.402	4.62
689.157	1.62
689.912	6.62
690.668	3.62
691.423	4.62
692.178	3.62
692.933	2.62
693.688	5.62
694.443	2.62
695.198	4.62
695.953	5.62
696.708	2.62
697.462	2.62
698.217	3.62
698.972	2.62
699.726	3.62
700.48	3.62
701.235	4.62
701.989	2.62
702.743	3.62
703.497	1.62
704.251	4.62
705.005	5.62
705.759	5.62
706.513	2.62
707.266	3.62
708.02	4.62
708.774	2.62
709.527	2.62
710.28	1.62
711.034	4.62
711.787	5.62
712.54	3.62
713.293	4.62
714.046	2.62
714.799	2.62
715.552	4.62
716.305	2.62
717.058	5.62
717.81	2.62
718.563	3.62
719.315	3.62
720.068	4.62
720.82	3.62
721.573	3.62
722.325	4.62
723.077	4.62
723.829	4.62
724.581	2.62
725.333	1.62
726.085	4.62
726.836	3.62
727.588	3.62
728.34	2.62
729.091	7.62
729.843	3.62
730.594	3.62
731.346	4.62
732.097	4.62
732.848	3.62
733.599	6.62
734.35	3.62
735.101	1.62
735.852	4.62
736.603	6.62
737.354	4.62
738.104	5.62
738.855	5.62
739.605	3.62
740.356	4.62
741.106	5.62
741.856	4.62
742.607	5.62
743.357	4.62
744.107	4.62
744.857	4.62
745.607	5.62
746.357	3.62
747.106	2.62
747.856	3.62
748.606	6.62
749.355	4.62
750.105	3.62
750.854	7.62
751.603	5.62
752.353	7.62
753.102	5.62
753.851	6.62
754.6	4.62
755.349	5.62
756.098	6.62
756.847	3.62
757.595	8.62
758.344	6.62
759.093	6.62
759.841	6.62
760.589	5.62
761.338	7.62
762.086	4.62
762.834	7.62
763.582	5.62
764.331	6.62
765.079	7.62
765.826	7.62
766.574	6.62
767.322	9.62
768.07	6.62
768.817	6.62
769.565	7.62
770.312	6.62
771.06	6.62
771.807	7.62
772.554	5.62
773.302	7.62
774.049	6.62
774.796	6.62
775.543	7.62
776.29	7.62
777.036	9.62
777.783	8.62
778.53	6.62
779.276	8.62
780.023	7.62
780.769	7.62
781.516	9.62
782.262	7.62
783.008	8.62
783.754	8.62
784.5	9.62
785.246	8.62
785.992	7.62
786.738	9.62
787.484	8.62
788.23	9.62
788.975	9.62
789.721	9.62
790.466	9.62
791.212	8.62
791.957	8.62
792.702	7.62
793.447	9.62
794.193	7.62
794.938	9.62
795.683	6.62
796.427	7.62
797.172	6.62
797.917	7.62
798.662	7.62
799.406	7.62
800.151	7.62
800.895	5.62
801.64	6.62
802.384	5.62
803.128	6.62
803.872	8.62
804.616	6.62
805.36	6.62
806.104	7.62
806.848	4.62
807.592	5.62
808.336	6.62
809.079	8.62
809.823	4.62
810.566	6.62
811.31	5.62
812.053	5.62
812.796	6.62
813.539	5.62
814.283	6.62
815.026	6.62
815.769	4.62
816.511	4.62
817.254	5.62
817.997	7.62
818.74	3.62
819.482	4.62
820.225	2.62
820.967	4.62
821.71	3.62
822.452	2.62
823.194	5.62
823.936	2.62
824.678	2.62
825.42	3.62
826.162	3.62
826.904	4.62
827.646	5.62
828.388	3.62
829.129	4.62
829.871	3.62
830.612	3.62
831.354	2.62
832.095	3.62
832.836	3.62
833.577	2.62
834.319	3.62
835.06	3.62
835.801	3.62
836.542	2.62
837.282	3.62
838.023	3.62
838.764	4.62
839.504	2.62
840.245	4.62
840.985	5.62
841.726	2.62
842.466	1.62
843.206	0.62
843.946	3.62
844.687	4.62
845.427	1.62
846.166	2.62
846.906	0.62
847.646	3.62
848.386	3.62
849.125	3.62
849.865	2.62
850.605	1.62
851.344	2.62
852.083	1.62
852.823	3.62
853.562	2.62
854.301	1.62
855.04	1.62
855.779	0.62
856.518	5.62
857.257	2.62
857.995	0.62
858.734	1.62
859.473	4.62
860.211	2.62
860.95	3.62
861.688	2.62
862.426	1.62
863.165	0.62
863.903	2.62
864.641	3.62
865.379	2.62
866.117	1.62
866.855	1.62
867.593	0.62
868.33	0.62
869.068	2.62
869.806	2.62
870.543	2.62
871.28	1.62
872.018	-0.38
872.755	1.62
873.492	0.62
874.229	2.62
874.967	0.62
875.703	0.62
876.44	1.62
877.177	0.62
877.914	0.62
878.651	-0.38
879.387	2.62
880.124	2.62
880.86	1.62
881.597	2.62
882.333	2.62
883.069	2.62
883.806	0.62
884.542	0.62
885.278	-0.38
886.014	0.62
886.749	0.62
887.485	0.62
888.221	0.62
888.957	2.62
889.692	-1.38
890.428	1.62
891.163	1.62
891.899	0.62
892.634	-1.38
893.369	0.62
894.104	1.62
894.839	0.62
895.574	2.62
896.309	-1.38
897.044	1.62
897.779	1.62
898.514	0.62
899.248	-1.38
899.983	2.62
900.717	0.62
901.452	0.62
902.186	-0.38
902.92	-0.38
903.654	2.62
904.389	0.62
905.123	-0.38
905.857	-0.38
906.59	1.62
907.324	0.62
908.058	0.62
908.792	-0.38
909.525	-1.38
910.259	0.62
910.992	0.62
911.726	1.62
912.459	-0.38
913.192	-0.38
913.925	0.62
914.658	0.62
915.391	-0.38
916.124	1.62
916.857	0.62
917.59	3.62
918.323	0.62
919.055	-0.38
919.788	0.62
920.521	0.62
921.253	0.62
921.985	2.62
922.718	-0.38
923.45	1.62
924.182	-0.38
924.914	-0.38
925.646	1.62
926.378	0.62
927.11	-0.38
927.841	-0.38
928.573	0.62
929.305	-0.38
930.036	1.62
930.768	1.62
931.499	1.62
932.23	-0.38
932.962	0.62
933.693	-2.38
934.424	1.62
935.155	-0.38
935.886	1.62
936.617	0.62
937.348	1.62
938.078	-1.38
938.809	0.62
939.54	0.62
940.27	1.62
941.001	0.62
941.731	0.62
942.461	0.62
943.191	0.62
943.922	0.62
944.652	-0.38
945.382	0.62
946.112	-0.38
946.841	-0.38
947.571	1.62
948.301	1.62
949.031	1.62
949.76	0.62
950.49	-1.38
951.219	2.62
951.948	-0.38
952.678	0.62
953.407	-0.38
954.136	0.62
954.865	0.62
955.594	-0.38
956.323	0.62
957.052	-0.38
957.78	0.62
958.509	1.62
959.238	1.62
959.966	2.62
960.695	-1.38
961.423	-0.38
962.151	-0.38
962.88	1.62
963.608	0.62
964.336	1.62
965.064	-2.38
965.792	-0.38
966.52	0.62
967.247	1.62
967.975	-0.38
968.703	-0.38
969.43	-0.38
970.158	1.62
970.885	-0.38
971.613	0.62
972.34	-2.38
973.067	-2.38
973.794	3.62
974.521	0.62
975.248	-0.38
975.975	0.62
976.702	1.62
977.429	-0.38
978.156	0.62
978.882	0.62
979.609	-0.38
980.335	0.62
981.062	1.62
981.788	2.62
982.514	-0.38
983.24	1.62
983.967	0.62
984.693	-0.38
985.419	0.62
986.144	-1.38
986.87	-1.38
987.596	1.62
988.322	-0.38
989.047	0.62
989.773	0.62
990.498	-2.38
991.224	-2.38
991.949	0.62
992.674	-2.38
993.399	-1.38
994.124	0.62
994.849	-0.38
995.574	-0.38
996.299	-0.38
997.024	1.62
997.749	-0.38
998.473	-1.38
999.198	-0.38
999.922	0.62
1000.647	0.62
1001.371	1.62
1002.095	0.62
1002.82	-2.38
1003.544	1.62
1004.268	-0.38
1004.992	-1.38
1005.716	2.62
1006.439	-1.38
1007.163	1.62
1007.887	1.62
1008.611	1.62
1009.334	-0.38
1010.058	1.62
1010.781	-0.38
1011.504	2.62
1012.228	1.62
1012.951	-1.38
1013.674	1.62
1014.397	-2.38
1015.12	0.62
