节点500_285_QEPB04081__106__14-57-19-292.txt的数据

Date: Wed Nov 12 14:57:19 CST 2025
User: PC
Spectrometer: QEPB0408
触发模式: 0
积分时间 (秒): 1.000000E-2
Scans to average: 1
启用暗噪声校正: true
启用非线性校正: false
滑动平均宽度: 0
X轴模式: Wavelengths
Number of Pixels in Spectrum: 1044
>>>>>Begin Spectral Data<<<<<
220.843	1.88
221.644	-1.12
222.444	0.88
223.244	-0.12
224.045	-1.12
224.845	1.88
225.645	-0.12
226.445	1.88
227.245	0.88
228.045	0.88
228.845	0.88
229.645	3.88
230.444	2.88
231.244	0.88
232.043	4.88
232.843	3.88
233.642	1.88
234.442	3.88
235.241	2.88
236.04	3.88
236.839	3.88
237.638	5.88
238.437	2.88
239.236	0.88
240.035	5.88
240.833	3.88
241.632	7.88
242.43	3.88
243.229	4.88
244.027	5.88
244.826	4.88
245.624	4.88
246.422	6.88
247.22	4.88
248.018	7.88
248.816	4.88
249.614	8.88
250.412	3.88
251.21	5.88
252.007	5.88
252.805	2.88
253.602	7.88
254.4	7.88
255.197	8.88
255.994	9.88
256.791	8.88
257.589	8.88
258.386	10.88
259.183	12.88
259.979	9.88
260.776	12.88
261.573	11.88
262.37	9.88
263.166	10.88
263.963	9.88
264.759	11.88
265.556	14.88
266.352	14.88
267.148	12.88
267.944	12.88
268.74	14.88
269.536	15.88
270.332	16.88
271.128	12.88
271.924	15.88
272.719	16.88
273.515	17.88
274.311	16.88
275.106	17.88
275.901	18.88
276.697	17.88
277.492	15.88
278.287	16.88
279.082	17.88
279.877	18.88
280.672	16.88
281.467	17.88
282.262	19.88
283.056	18.88
283.851	21.88
284.646	17.88
285.44	17.88
286.234	19.88
287.029	17.88
287.823	17.88
288.617	18.88
289.411	16.88
290.205	16.88
290.999	18.88
291.793	19.88
292.587	17.88
293.381	14.88
294.174	16.88
294.968	15.88
295.761	13.88
296.555	14.88
297.348	15.88
298.141	15.88
298.935	17.88
299.728	11.88
300.521	13.88
301.314	13.88
302.107	13.88
302.899	12.88
303.692	12.88
304.485	13.88
305.277	12.88
306.07	10.88
306.862	12.88
307.655	9.88
308.447	11.88
309.239	9.88
310.031	12.88
310.823	10.88
311.615	9.88
312.407	10.88
313.199	8.88
313.991	10.88
314.783	10.88
315.574	8.88
316.366	8.88
317.157	6.88
317.949	8.88
318.74	8.88
319.531	6.88
320.322	6.88
321.113	5.88
321.904	7.88
322.695	6.88
323.486	7.88
324.277	7.88
325.068	6.88
325.858	7.88
326.649	7.88
327.439	8.88
328.23	4.88
329.02	5.88
329.81	5.88
330.6	5.88
331.391	4.88
332.181	5.88
332.971	6.88
333.76	4.88
334.55	5.88
335.34	6.88
336.13	4.88
336.919	5.88
337.709	7.88
338.498	5.88
339.287	6.88
340.077	3.88
340.866	5.88
341.655	4.88
342.444	5.88
343.233	5.88
344.022	3.88
344.811	3.88
345.6	5.88
346.388	6.88
347.177	5.88
347.965	7.88
348.754	6.88
349.542	3.88
350.33	6.88
351.119	6.88
351.907	5.88
352.695	5.88
353.483	3.88
354.271	5.88
355.059	4.88
355.846	6.88
356.634	6.88
357.422	4.88
358.209	4.88
358.997	3.88
359.784	5.88
360.571	5.88
361.359	4.88
362.146	4.88
362.933	3.88
363.72	5.88
364.507	2.88
365.294	6.88
366.081	2.88
366.867	4.88
367.654	6.88
368.44	4.88
369.227	6.88
370.013	5.88
370.8	5.88
371.586	3.88
372.372	3.88
373.158	5.88
373.944	2.88
374.73	3.88
375.516	3.88
376.302	4.88
377.088	3.88
377.873	3.88
378.659	3.88
379.445	5.88
380.23	2.88
381.015	2.88
381.801	3.88
382.586	4.88
383.371	2.88
384.156	4.88
384.941	3.88
385.726	4.88
386.511	7.88
387.296	5.88
388.08	4.88
388.865	4.88
389.649	5.88
390.434	5.88
391.218	6.88
392.003	3.88
392.787	4.88
393.571	2.88
394.355	6.88
395.139	4.88
395.923	6.88
396.707	4.88
397.491	5.88
398.274	5.88
399.058	5.88
399.842	8.88
400.625	7.88
401.408	7.88
402.192	6.88
402.975	8.88
403.758	7.88
404.541	5.88
405.324	9.88
406.107	6.88
406.89	7.88
407.673	6.88
408.456	8.88
409.238	8.88
410.021	6.88
410.803	5.88
411.586	6.88
412.368	8.88
413.151	7.88
413.933	9.88
414.715	9.88
415.497	9.88
416.279	7.88
417.061	9.88
417.843	9.88
418.624	10.88
419.406	10.88
420.188	9.88
420.969	9.88
421.751	10.88
422.532	9.88
423.313	13.88
424.095	10.88
424.876	11.88
425.657	11.88
426.438	12.88
427.219	12.88
428	12.88
428.78	14.88
429.561	12.88
430.342	10.88
431.122	12.88
431.903	12.88
432.683	15.88
433.464	15.88
434.244	15.88
435.024	16.88
435.804	18.88
436.584	17.88
437.364	18.88
438.144	17.88
438.924	21.88
439.704	19.88
440.483	19.88
441.263	23.88
442.042	21.88
442.822	24.88
443.601	24.88
444.38	28.88
445.16	28.88
445.939	32.88
446.718	32.88
447.497	35.88
448.276	39.88
449.054	40.88
449.833	44.88
450.612	48.88
451.391	54.88
452.169	55.88
452.948	67.88
453.726	69.88
454.504	74.88
455.282	87.88
456.061	92.88
456.839	104.88
457.617	119.88
458.395	129.88
459.172	142.88
459.95	154.88
460.728	171.88
461.506	191.88
462.283	212.88
463.061	239.88
463.838	269.88
464.615	300.88
465.393	336.88
466.17	375.88
466.947	425.88
467.724	475.88
468.501	530.88
469.278	601.88
470.055	657.88
470.831	726.88
471.608	821.88
472.385	912.88
473.161	1007.88
473.938	1147.88
474.714	1256.88
475.49	1395.88
476.266	1538.88
477.043	1718.88
477.819	1912.88
478.595	2111.88
479.371	2348.88
480.146	2587.88
480.922	2867.88
481.698	3179.88
482.473	3527.88
483.249	3889.88
484.024	4279.88
484.8	4713.88
485.575	5247.88
486.35	5775.88
487.126	6372.88
487.901	7034.88
488.676	7732.88
489.451	8469.88
490.225	9308.88
491	10183.88
491.775	11162.88
492.55	12221.88
493.324	13286.88
494.099	14306.88
494.873	15450.88
495.647	16692.88
496.422	17960.88
497.196	19182.88
497.97	20461.88
498.744	21732.88
499.518	22997.88
500.292	24164.88
501.066	25256.88
501.839	26200.88
502.613	27065.88
503.387	27765.88
504.16	28304.88
504.934	28547.88
505.707	28580.88
506.48	28516.88
507.253	28280.88
508.027	27871.88
508.8	27410.88
509.573	26797.88
510.346	26075.88
511.118	25152.88
511.891	24267.88
512.664	23331.88
513.437	22365.88
514.209	21310.88
514.982	20460.88
515.754	19487.88
516.526	18558.88
517.298	17790.88
518.071	17005.88
518.843	16298.88
519.615	15712.88
520.387	15065.88
521.159	14490.88
521.93	13895.88
522.702	13372.88
523.474	12797.88
524.245	12272.88
525.017	11748.88
525.788	11257.88
526.56	10736.88
527.331	10254.88
528.102	9756.88
528.873	9278.88
529.644	8781.88
530.415	8336.88
531.186	7918.88
531.957	7497.88
532.728	7126.88
533.498	6725.88
534.269	6336.88
535.039	5978.88
535.81	5669.88
536.58	5322.88
537.351	5018.88
538.121	4735.88
538.891	4515.88
539.661	4248.88
540.431	4007.88
541.201	3798.88
541.971	3557.88
542.741	3406.88
543.51	3231.88
544.28	3091.88
545.05	2935.88
545.819	2786.88
546.588	2644.88
547.358	2512.88
548.127	2382.88
548.896	2272.88
549.665	2144.88
550.434	2037.88
551.203	1924.88
551.972	1808.88
552.741	1725.88
553.51	1620.88
554.278	1521.88
555.047	1444.88
555.815	1351.88
556.584	1287.88
557.352	1206.88
558.121	1140.88
558.889	1061.88
559.657	1012.88
560.425	963.88
561.193	916.88
561.961	853.88
562.729	807.88
563.496	763.88
564.264	721.88
565.032	692.88
565.799	648.88
566.567	611.88
567.334	568.88
568.101	546.88
568.869	524.88
569.636	477.88
570.403	452.88
571.17	427.88
571.937	402.88
572.704	386.88
573.471	358.88
574.237	352.88
575.004	316.88
575.771	293.88
576.537	276.88
577.303	271.88
578.07	252.88
578.836	235.88
579.602	222.88
580.368	208.88
581.134	202.88
581.9	184.88
582.666	173.88
583.432	168.88
584.198	167.88
584.964	156.88
585.729	144.88
586.495	139.88
587.26	127.88
588.025	123.88
588.791	117.88
589.556	112.88
590.321	98.88
591.086	96.88
591.851	89.88
592.616	90.88
593.381	84.88
594.146	81.88
594.911	75.88
595.675	72.88
596.44	69.88
597.204	68.88
597.969	64.88
598.733	63.88
599.497	58.88
600.261	57.88
601.025	53.88
601.79	47.88
602.553	48.88
603.317	48.88
604.081	43.88
604.845	42.88
605.609	42.88
606.372	36.88
607.136	38.88
607.899	36.88
608.662	36.88
609.426	34.88
610.189	31.88
610.952	32.88
611.715	30.88
612.478	30.88
613.241	28.88
614.004	24.88
614.767	25.88
615.529	26.88
616.292	24.88
617.055	24.88
617.817	24.88
618.579	20.88
619.342	20.88
620.104	19.88
620.866	20.88
621.628	20.88
622.39	17.88
623.152	16.88
623.914	18.88
624.676	15.88
625.438	16.88
626.199	14.88
626.961	16.88
627.722	14.88
628.484	12.88
629.245	11.88
630.006	11.88
630.768	11.88
631.529	11.88
632.29	12.88
633.051	10.88
633.812	10.88
634.573	11.88
635.333	8.88
636.094	10.88
636.855	9.88
637.615	9.88
638.376	9.88
639.136	10.88
639.896	9.88
640.657	9.88
641.417	10.88
642.177	8.88
642.937	8.88
643.697	6.88
644.457	7.88
645.216	6.88
645.976	4.88
646.736	8.88
647.495	8.88
648.255	5.88
649.014	8.88
649.774	5.88
650.533	5.88
651.292	7.88
652.051	6.88
652.81	6.88
653.569	8.88
654.328	5.88
655.087	6.88
655.846	5.88
656.604	5.88
657.363	6.88
658.121	5.88
658.88	6.88
659.638	3.88
660.397	5.88
661.155	5.88
661.913	3.88
662.671	6.88
663.429	4.88
664.187	4.88
664.945	3.88
665.703	4.88
666.46	4.88
667.218	4.88
667.976	2.88
668.733	2.88
669.49	3.88
670.248	2.88
671.005	7.88
671.762	3.88
672.519	2.88
673.276	4.88
674.033	1.88
674.79	4.88
675.547	2.88
676.304	3.88
677.06	4.88
677.817	5.88
678.574	4.88
679.33	0.88
680.086	2.88
680.843	4.88
681.599	2.88
682.355	2.88
683.111	3.88
683.867	4.88
684.623	2.88
685.379	2.88
686.135	2.88
686.89	3.88
687.646	5.88
688.402	3.88
689.157	5.88
689.912	2.88
690.668	3.88
691.423	3.88
692.178	1.88
692.933	3.88
693.688	3.88
694.443	1.88
695.198	2.88
695.953	2.88
696.708	1.88
697.462	2.88
698.217	5.88
698.972	4.88
699.726	1.88
700.48	4.88
701.235	3.88
701.989	3.88
702.743	4.88
703.497	4.88
704.251	3.88
705.005	3.88
705.759	2.88
706.513	1.88
707.266	4.88
708.02	2.88
708.774	3.88
709.527	5.88
710.28	2.88
711.034	5.88
711.787	2.88
712.54	3.88
713.293	1.88
714.046	3.88
714.799	2.88
715.552	2.88
716.305	3.88
717.058	3.88
717.81	3.88
718.563	2.88
719.315	6.88
720.068	3.88
720.82	3.88
721.573	0.88
722.325	0.88
723.077	1.88
723.829	3.88
724.581	1.88
725.333	4.88
726.085	5.88
726.836	3.88
727.588	4.88
728.34	2.88
729.091	4.88
729.843	2.88
730.594	6.88
731.346	6.88
732.097	2.88
732.848	4.88
733.599	3.88
734.35	5.88
735.101	3.88
735.852	3.88
736.603	3.88
737.354	2.88
738.104	4.88
738.855	1.88
739.605	4.88
740.356	5.88
741.106	3.88
741.856	1.88
742.607	3.88
743.357	5.88
744.107	3.88
744.857	3.88
745.607	5.88
746.357	1.88
747.106	4.88
747.856	3.88
748.606	4.88
749.355	3.88
750.105	3.88
750.854	5.88
751.603	5.88
752.353	5.88
753.102	2.88
753.851	5.88
754.6	5.88
755.349	3.88
756.098	5.88
756.847	5.88
757.595	6.88
758.344	6.88
759.093	6.88
759.841	6.88
760.589	5.88
761.338	6.88
762.086	4.88
762.834	7.88
763.582	8.88
764.331	5.88
765.079	4.88
765.826	8.88
766.574	5.88
767.322	5.88
768.07	6.88
768.817	9.88
769.565	5.88
770.312	9.88
771.06	8.88
771.807	7.88
772.554	8.88
773.302	5.88
774.049	8.88
774.796	8.88
775.543	7.88
776.29	8.88
777.036	7.88
777.783	5.88
778.53	10.88
779.276	6.88
780.023	8.88
780.769	7.88
781.516	8.88
782.262	7.88
783.008	8.88
783.754	8.88
784.5	9.88
785.246	7.88
785.992	10.88
786.738	8.88
787.484	9.88
788.23	7.88
788.975	6.88
789.721	8.88
790.466	9.88
791.212	7.88
791.957	8.88
792.702	7.88
793.447	5.88
794.193	9.88
794.938	8.88
795.683	8.88
796.427	6.88
797.172	7.88
797.917	4.88
798.662	7.88
799.406	6.88
800.151	7.88
800.895	8.88
801.64	6.88
802.384	5.88
803.128	8.88
803.872	5.88
804.616	8.88
805.36	4.88
806.104	6.88
806.848	6.88
807.592	5.88
808.336	4.88
809.079	4.88
809.823	6.88
810.566	3.88
811.31	4.88
812.053	7.88
812.796	3.88
813.539	3.88
814.283	4.88
815.026	4.88
815.769	7.88
816.511	5.88
817.254	3.88
817.997	2.88
818.74	5.88
819.482	4.88
820.225	3.88
820.967	4.88
821.71	4.88
822.452	4.88
823.194	3.88
823.936	2.88
824.678	6.88
825.42	3.88
826.162	5.88
826.904	6.88
827.646	3.88
828.388	4.88
829.129	1.88
829.871	4.88
830.612	3.88
831.354	3.88
832.095	0.88
832.836	4.88
833.577	2.88
834.319	3.88
835.06	2.88
835.801	4.88
836.542	2.88
837.282	4.88
838.023	3.88
838.764	4.88
839.504	0.88
840.245	3.88
840.985	2.88
841.726	3.88
842.466	3.88
843.206	0.88
843.946	2.88
844.687	4.88
845.427	3.88
846.166	1.88
846.906	2.88
847.646	4.88
848.386	0.88
849.125	2.88
849.865	3.88
850.605	1.88
851.344	2.88
852.083	3.88
852.823	4.88
853.562	4.88
854.301	4.88
855.04	2.88
855.779	-1.12
856.518	3.88
857.257	0.88
857.995	2.88
858.734	1.88
859.473	2.88
860.211	-1.12
860.95	2.88
861.688	2.88
862.426	2.88
863.165	3.88
863.903	2.88
864.641	2.88
865.379	0.88
866.117	-1.12
866.855	1.88
867.593	-0.12
868.33	0.88
869.068	2.88
869.806	0.88
870.543	0.88
871.28	1.88
872.018	0.88
872.755	-0.12
873.492	1.88
874.229	0.88
874.967	-0.12
875.703	2.88
876.44	-1.12
877.177	0.88
877.914	-0.12
878.651	2.88
879.387	2.88
880.124	2.88
880.86	1.88
881.597	-2.12
882.333	0.88
883.069	0.88
883.806	-1.12
884.542	1.88
885.278	-1.12
886.014	-1.12
886.749	1.88
887.485	-0.12
888.221	0.88
888.957	-0.12
889.692	-1.12
890.428	-2.12
891.163	-0.12
891.899	0.88
892.634	-0.12
893.369	0.88
894.104	-2.12
894.839	0.88
895.574	-0.12
896.309	2.88
897.044	-0.12
897.779	-1.12
898.514	0.88
899.248	0.88
899.983	0.88
900.717	1.88
901.452	-0.12
902.186	-0.12
902.92	-1.12
903.654	0.88
904.389	-0.12
905.123	1.88
905.857	0.88
906.59	-0.12
907.324	0.88
908.058	0.88
908.792	-0.12
909.525	0.88
910.259	1.88
910.992	0.88
911.726	-0.12
912.459	0.88
913.192	-1.12
913.925	0.88
914.658	0.88
915.391	0.88
916.124	-2.12
916.857	-0.12
917.59	-2.12
918.323	0.88
919.055	0.88
919.788	1.88
920.521	0.88
921.253	0.88
921.985	-1.12
922.718	-1.12
923.45	0.88
924.182	-1.12
924.914	-1.12
925.646	-0.12
926.378	-1.12
927.11	0.88
927.841	0.88
928.573	-0.12
929.305	0.88
930.036	0.88
930.768	1.88
931.499	0.88
932.23	1.88
932.962	0.88
933.693	-0.12
934.424	-0.12
935.155	4.88
935.886	0.88
936.617	0.88
937.348	-0.12
938.078	-0.12
938.809	0.88
939.54	0.88
940.27	-1.12
941.001	-1.12
941.731	0.88
942.461	-0.12
943.191	-1.12
943.922	0.88
944.652	1.88
945.382	0.88
946.112	0.88
946.841	-0.12
947.571	0.88
948.301	-0.12
949.031	-0.12
949.76	0.88
950.49	1.88
951.219	-0.12
951.948	-0.12
952.678	1.88
953.407	-0.12
954.136	-1.12
954.865	0.88
955.594	-1.12
956.323	2.88
957.052	-0.12
957.78	1.88
958.509	0.88
959.238	0.88
959.966	0.88
960.695	1.88
961.423	-1.12
962.151	-1.12
962.88	1.88
963.608	0.88
964.336	0.88
965.064	0.88
965.792	-1.12
966.52	-0.12
967.247	-1.12
967.975	-0.12
968.703	-1.12
969.43	-0.12
970.158	0.88
970.885	-2.12
971.613	0.88
972.34	1.88
973.067	-1.12
973.794	-1.12
974.521	-1.12
975.248	-0.12
975.975	-2.12
976.702	-0.12
977.429	-1.12
978.156	-1.12
978.882	0.88
979.609	-1.12
980.335	0.88
981.062	-0.12
981.788	0.88
982.514	0.88
983.24	-1.12
983.967	0.88
984.693	0.88
985.419	0.88
986.144	-1.12
986.87	-3.12
987.596	-0.12
988.322	0.88
989.047	-2.12
989.773	-0.12
990.498	-2.12
991.224	0.88
991.949	-0.12
992.674	-0.12
993.399	1.88
994.124	1.88
994.849	-0.12
995.574	-0.12
996.299	0.88
997.024	-0.12
997.749	0.88
998.473	-0.12
999.198	0.88
999.922	-1.12
1000.647	-1.12
1001.371	2.88
1002.095	-0.12
1002.82	-1.12
1003.544	-3.12
1004.268	-2.12
1004.992	0.88
1005.716	-0.12
1006.439	2.88
1007.163	-1.12
1007.887	1.88
1008.611	0.88
1009.334	0.88
1010.058	-1.12
1010.781	1.88
1011.504	-1.12
1012.228	-0.12
1012.951	-0.12
1013.674	1.88
1014.397	0.88
1015.12	-1.12
