节点500_285_QEPB04081__179__14-58-32-157.txt的数据

Date: Wed Nov 12 14:58:32 CST 2025
User: PC
Spectrometer: QEPB0408
触发模式: 0
积分时间 (秒): 1.000000E-2
Scans to average: 1
启用暗噪声校正: true
启用非线性校正: false
滑动平均宽度: 0
X轴模式: Wavelengths
Number of Pixels in Spectrum: 1044
>>>>>Begin Spectral Data<<<<<
220.843	0.25
221.644	3.25
222.444	1.25
223.244	2.25
224.045	2.25
224.845	1.25
225.645	2.25
226.445	2.25
227.245	1.25
228.045	2.25
228.845	1.25
229.645	4.25
230.444	0.25
231.244	2.25
232.043	5.25
232.843	3.25
233.642	5.25
234.442	2.25
235.241	4.25
236.04	6.25
236.839	3.25
237.638	4.25
238.437	6.25
239.236	5.25
240.035	7.25
240.833	4.25
241.632	4.25
242.43	5.25
243.229	4.25
244.027	2.25
244.826	5.25
245.624	5.25
246.422	6.25
247.22	4.25
248.018	5.25
248.816	6.25
249.614	5.25
250.412	6.25
251.21	5.25
252.007	7.25
252.805	6.25
253.602	7.25
254.4	8.25
255.197	6.25
255.994	8.25
256.791	10.25
257.589	10.25
258.386	7.25
259.183	8.25
259.979	9.25
260.776	11.25
261.573	13.25
262.37	13.25
263.166	13.25
263.963	11.25
264.759	11.25
265.556	15.25
266.352	11.25
267.148	13.25
267.944	12.25
268.74	13.25
269.536	16.25
270.332	15.25
271.128	18.25
271.924	15.25
272.719	16.25
273.515	17.25
274.311	18.25
275.106	16.25
275.901	16.25
276.697	15.25
277.492	18.25
278.287	19.25
279.082	19.25
279.877	20.25
280.672	19.25
281.467	18.25
282.262	20.25
283.056	19.25
283.851	18.25
284.646	19.25
285.44	17.25
286.234	20.25
287.029	17.25
287.823	17.25
288.617	17.25
289.411	19.25
290.205	18.25
290.999	20.25
291.793	16.25
292.587	18.25
293.381	15.25
294.174	19.25
294.968	17.25
295.761	16.25
296.555	14.25
297.348	14.25
298.141	15.25
298.935	14.25
299.728	16.25
300.521	11.25
301.314	13.25
302.107	13.25
302.899	11.25
303.692	14.25
304.485	12.25
305.277	14.25
306.07	11.25
306.862	11.25
307.655	12.25
308.447	11.25
309.239	12.25
310.031	12.25
310.823	10.25
311.615	13.25
312.407	9.25
313.199	9.25
313.991	10.25
314.783	8.25
315.574	10.25
316.366	8.25
317.157	9.25
317.949	9.25
318.74	9.25
319.531	8.25
320.322	6.25
321.113	7.25
321.904	7.25
322.695	7.25
323.486	7.25
324.277	8.25
325.068	7.25
325.858	6.25
326.649	6.25
327.439	7.25
328.23	7.25
329.02	8.25
329.81	6.25
330.6	5.25
331.391	7.25
332.181	7.25
332.971	7.25
333.76	7.25
334.55	9.25
335.34	6.25
336.13	6.25
336.919	6.25
337.709	7.25
338.498	5.25
339.287	6.25
340.077	8.25
340.866	6.25
341.655	7.25
342.444	4.25
343.233	6.25
344.022	5.25
344.811	7.25
345.6	6.25
346.388	4.25
347.177	6.25
347.965	6.25
348.754	6.25
349.542	6.25
350.33	4.25
351.119	5.25
351.907	5.25
352.695	6.25
353.483	5.25
354.271	6.25
355.059	6.25
355.846	6.25
356.634	6.25
357.422	5.25
358.209	3.25
358.997	2.25
359.784	6.25
360.571	7.25
361.359	5.25
362.146	7.25
362.933	5.25
363.72	7.25
364.507	6.25
365.294	4.25
366.081	5.25
366.867	6.25
367.654	5.25
368.44	3.25
369.227	3.25
370.013	3.25
370.8	5.25
371.586	7.25
372.372	4.25
373.158	4.25
373.944	4.25
374.73	5.25
375.516	8.25
376.302	4.25
377.088	4.25
377.873	5.25
378.659	3.25
379.445	6.25
380.23	5.25
381.015	6.25
381.801	5.25
382.586	5.25
383.371	4.25
384.156	5.25
384.941	6.25
385.726	4.25
386.511	5.25
387.296	7.25
388.08	7.25
388.865	7.25
389.649	5.25
390.434	5.25
391.218	6.25
392.003	6.25
392.787	4.25
393.571	6.25
394.355	4.25
395.139	4.25
395.923	6.25
396.707	6.25
397.491	7.25
398.274	8.25
399.058	6.25
399.842	8.25
400.625	10.25
401.408	5.25
402.192	5.25
402.975	7.25
403.758	8.25
404.541	4.25
405.324	5.25
406.107	8.25
406.89	7.25
407.673	9.25
408.456	9.25
409.238	6.25
410.021	10.25
410.803	7.25
411.586	8.25
412.368	7.25
413.151	9.25
413.933	9.25
414.715	8.25
415.497	11.25
416.279	9.25
417.061	9.25
417.843	11.25
418.624	11.25
419.406	11.25
420.188	9.25
420.969	12.25
421.751	11.25
422.532	10.25
423.313	11.25
424.095	13.25
424.876	12.25
425.657	10.25
426.438	11.25
427.219	11.25
428	13.25
428.78	12.25
429.561	15.25
430.342	14.25
431.122	16.25
431.903	16.25
432.683	14.25
433.464	13.25
434.244	15.25
435.024	15.25
435.804	17.25
436.584	15.25
437.364	22.25
438.144	21.25
438.924	21.25
439.704	20.25
440.483	22.25
441.263	24.25
442.042	23.25
442.822	27.25
443.601	28.25
444.38	27.25
445.16	32.25
445.939	35.25
446.718	37.25
447.497	35.25
448.276	39.25
449.054	44.25
449.833	45.25
450.612	53.25
451.391	51.25
452.169	62.25
452.948	67.25
453.726	70.25
454.504	81.25
455.282	86.25
456.061	97.25
456.839	102.25
457.617	116.25
458.395	133.25
459.172	144.25
459.95	159.25
460.728	180.25
461.506	198.25
462.283	222.25
463.061	241.25
463.838	273.25
464.615	309.25
465.393	348.25
466.17	387.25
466.947	432.25
467.724	489.25
468.501	543.25
469.278	605.25
470.055	662.25
470.831	752.25
471.608	827.25
472.385	909.25
473.161	1024.25
473.938	1152.25
474.714	1272.25
475.49	1407.25
476.266	1565.25
477.043	1735.25
477.819	1926.25
478.595	2123.25
479.371	2351.25
480.146	2586.25
480.922	2865.25
481.698	3181.25
482.473	3513.25
483.249	3847.25
484.024	4248.25
484.8	4700.25
485.575	5185.25
486.35	5705.25
487.126	6267.25
487.901	6924.25
488.676	7550.25
489.451	8313.25
490.225	9145.25
491	9958.25
491.775	10915.25
492.55	11926.25
493.324	12932.25
494.099	14006.25
494.873	15071.25
495.647	16281.25
496.422	17462.25
497.196	18689.25
497.97	19959.25
498.744	21199.25
499.518	22409.25
500.292	23577.25
501.066	24649.25
501.839	25569.25
502.613	26458.25
503.387	27267.25
504.16	27707.25
504.934	28063.25
505.707	28219.25
506.48	28140.25
507.253	27979.25
508.027	27668.25
508.8	27200.25
509.573	26728.25
510.346	25968.25
511.118	25160.25
511.891	24302.25
512.664	23351.25
513.437	22477.25
514.209	21461.25
514.982	20574.25
515.754	19663.25
516.526	18751.25
517.298	17931.25
518.071	17111.25
518.843	16458.25
519.615	15833.25
520.387	15229.25
521.159	14614.25
521.93	14047.25
522.702	13399.25
523.474	12905.25
524.245	12327.25
525.017	11793.25
525.788	11345.25
526.56	10825.25
527.331	10293.25
528.102	9811.25
528.873	9360.25
529.644	8878.25
530.415	8447.25
531.186	8032.25
531.957	7613.25
532.728	7192.25
533.498	6792.25
534.269	6448.25
535.039	6070.25
535.81	5717.25
536.58	5407.25
537.351	5102.25
538.121	4792.25
538.891	4543.25
539.661	4305.25
540.431	4072.25
541.201	3821.25
541.971	3631.25
542.741	3447.25
543.51	3287.25
544.28	3119.25
545.05	2973.25
545.819	2829.25
546.588	2672.25
547.358	2543.25
548.127	2416.25
548.896	2315.25
549.665	2180.25
550.434	2071.25
551.203	1949.25
551.972	1847.25
552.741	1747.25
553.51	1666.25
554.278	1554.25
555.047	1462.25
555.815	1376.25
556.584	1302.25
557.352	1236.25
558.121	1173.25
558.889	1114.25
559.657	1045.25
560.425	986.25
561.193	926.25
561.961	876.25
562.729	822.25
563.496	774.25
564.264	743.25
565.032	697.25
565.799	659.25
566.567	626.25
567.334	581.25
568.101	561.25
568.869	523.25
569.636	488.25
570.403	463.25
571.17	441.25
571.937	421.25
572.704	392.25
573.471	369.25
574.237	349.25
575.004	323.25
575.771	308.25
576.537	297.25
577.303	267.25
578.07	257.25
578.836	247.25
579.602	226.25
580.368	210.25
581.134	204.25
581.9	193.25
582.666	178.25
583.432	175.25
584.198	169.25
584.964	160.25
585.729	143.25
586.495	140.25
587.26	134.25
588.025	125.25
588.791	119.25
589.556	113.25
590.321	112.25
591.086	102.25
591.851	99.25
592.616	89.25
593.381	86.25
594.146	82.25
594.911	80.25
595.675	74.25
596.44	72.25
597.204	71.25
597.969	66.25
598.733	63.25
599.497	58.25
600.261	59.25
601.025	55.25
601.79	54.25
602.553	49.25
603.317	50.25
604.081	47.25
604.845	45.25
605.609	43.25
606.372	43.25
607.136	38.25
607.899	40.25
608.662	35.25
609.426	36.25
610.189	36.25
610.952	29.25
611.715	32.25
612.478	27.25
613.241	26.25
614.004	24.25
614.767	27.25
615.529	28.25
616.292	25.25
617.055	25.25
617.817	25.25
618.579	22.25
619.342	23.25
620.104	21.25
620.866	22.25
621.628	18.25
622.39	18.25
623.152	17.25
623.914	17.25
624.676	17.25
625.438	14.25
626.199	16.25
626.961	15.25
627.722	13.25
628.484	14.25
629.245	11.25
630.006	12.25
630.768	12.25
631.529	12.25
632.29	10.25
633.051	13.25
633.812	14.25
634.573	12.25
635.333	15.25
636.094	12.25
636.855	10.25
637.615	11.25
638.376	11.25
639.136	8.25
639.896	11.25
640.657	9.25
641.417	9.25
642.177	10.25
642.937	8.25
643.697	7.25
644.457	9.25
645.216	6.25
645.976	8.25
646.736	9.25
647.495	8.25
648.255	7.25
649.014	6.25
649.774	8.25
650.533	7.25
651.292	8.25
652.051	7.25
652.81	7.25
653.569	6.25
654.328	5.25
655.087	7.25
655.846	6.25
656.604	6.25
657.363	7.25
658.121	4.25
658.88	4.25
659.638	5.25
660.397	7.25
661.155	8.25
661.913	4.25
662.671	3.25
663.429	4.25
664.187	7.25
664.945	4.25
665.703	6.25
666.46	7.25
667.218	6.25
667.976	5.25
668.733	3.25
669.49	5.25
670.248	5.25
671.005	2.25
671.762	6.25
672.519	6.25
673.276	6.25
674.033	5.25
674.79	4.25
675.547	1.25
676.304	3.25
677.06	5.25
677.817	4.25
678.574	3.25
679.33	4.25
680.086	3.25
680.843	3.25
681.599	6.25
682.355	6.25
683.111	3.25
683.867	3.25
684.623	3.25
685.379	4.25
686.135	3.25
686.89	4.25
687.646	6.25
688.402	3.25
689.157	3.25
689.912	4.25
690.668	2.25
691.423	4.25
692.178	5.25
692.933	5.25
693.688	4.25
694.443	2.25
695.198	3.25
695.953	3.25
696.708	3.25
697.462	4.25
698.217	3.25
698.972	5.25
699.726	5.25
700.48	4.25
701.235	3.25
701.989	6.25
702.743	6.25
703.497	3.25
704.251	3.25
705.005	3.25
705.759	3.25
706.513	5.25
707.266	3.25
708.02	5.25
708.774	2.25
709.527	4.25
710.28	3.25
711.034	3.25
711.787	1.25
712.54	4.25
713.293	4.25
714.046	2.25
714.799	3.25
715.552	4.25
716.305	0.25
717.058	4.25
717.81	3.25
718.563	3.25
719.315	3.25
720.068	6.25
720.82	2.25
721.573	5.25
722.325	5.25
723.077	2.25
723.829	4.25
724.581	4.25
725.333	1.25
726.085	3.25
726.836	2.25
727.588	2.25
728.34	2.25
729.091	4.25
729.843	3.25
730.594	4.25
731.346	3.25
732.097	4.25
732.848	6.25
733.599	3.25
734.35	3.25
735.101	3.25
735.852	3.25
736.603	6.25
737.354	3.25
738.104	3.25
738.855	4.25
739.605	4.25
740.356	4.25
741.106	4.25
741.856	4.25
742.607	5.25
743.357	4.25
744.107	5.25
744.857	6.25
745.607	7.25
746.357	6.25
747.106	5.25
747.856	4.25
748.606	6.25
749.355	5.25
750.105	4.25
750.854	4.25
751.603	6.25
752.353	6.25
753.102	4.25
753.851	6.25
754.6	9.25
755.349	4.25
756.098	6.25
756.847	5.25
757.595	7.25
758.344	8.25
759.093	4.25
759.841	8.25
760.589	8.25
761.338	6.25
762.086	7.25
762.834	7.25
763.582	7.25
764.331	5.25
765.079	7.25
765.826	6.25
766.574	7.25
767.322	9.25
768.07	5.25
768.817	8.25
769.565	7.25
770.312	9.25
771.06	8.25
771.807	7.25
772.554	9.25
773.302	8.25
774.049	7.25
774.796	7.25
775.543	7.25
776.29	8.25
777.036	10.25
777.783	7.25
778.53	8.25
779.276	8.25
780.023	7.25
780.769	10.25
781.516	5.25
782.262	8.25
783.008	11.25
783.754	9.25
784.5	9.25
785.246	9.25
785.992	8.25
786.738	6.25
787.484	8.25
788.23	12.25
788.975	9.25
789.721	10.25
790.466	9.25
791.212	9.25
791.957	9.25
792.702	7.25
793.447	9.25
794.193	9.25
794.938	8.25
795.683	9.25
796.427	8.25
797.172	9.25
797.917	7.25
798.662	7.25
799.406	7.25
800.151	8.25
800.895	7.25
801.64	5.25
802.384	6.25
803.128	7.25
803.872	5.25
804.616	8.25
805.36	7.25
806.104	7.25
806.848	6.25
807.592	5.25
808.336	6.25
809.079	5.25
809.823	4.25
810.566	4.25
811.31	7.25
812.053	6.25
812.796	4.25
813.539	5.25
814.283	4.25
815.026	6.25
815.769	4.25
816.511	6.25
817.254	5.25
817.997	4.25
818.74	4.25
819.482	3.25
820.225	3.25
820.967	4.25
821.71	2.25
822.452	6.25
823.194	3.25
823.936	5.25
824.678	4.25
825.42	3.25
826.162	3.25
826.904	4.25
827.646	3.25
828.388	4.25
829.129	4.25
829.871	1.25
830.612	4.25
831.354	3.25
832.095	5.25
832.836	3.25
833.577	-0.75
834.319	2.25
835.06	2.25
835.801	4.25
836.542	5.25
837.282	3.25
838.023	3.25
838.764	2.25
839.504	3.25
840.245	4.25
840.985	5.25
841.726	3.25
842.466	1.25
843.206	5.25
843.946	3.25
844.687	4.25
845.427	4.25
846.166	5.25
846.906	5.25
847.646	2.25
848.386	3.25
849.125	5.25
849.865	6.25
850.605	2.25
851.344	2.25
852.083	4.25
852.823	4.25
853.562	3.25
854.301	2.25
855.04	3.25
855.779	2.25
856.518	1.25
857.257	3.25
857.995	4.25
858.734	1.25
859.473	1.25
860.211	0.25
860.95	4.25
861.688	3.25
862.426	5.25
863.165	0.25
863.903	3.25
864.641	5.25
865.379	1.25
866.117	3.25
866.855	2.25
867.593	1.25
868.33	1.25
869.068	-2.75
869.806	0.25
870.543	-2.75
871.28	1.25
872.018	-0.75
872.755	0.25
873.492	1.25
874.229	3.25
874.967	0.25
875.703	0.25
876.44	2.25
877.177	1.25
877.914	1.25
878.651	1.25
879.387	1.25
880.124	0.25
880.86	1.25
881.597	0.25
882.333	1.25
883.069	0.25
883.806	1.25
884.542	1.25
885.278	0.25
886.014	1.25
886.749	1.25
887.485	0.25
888.221	-0.75
888.957	1.25
889.692	2.25
890.428	0.25
891.163	2.25
891.899	1.25
892.634	1.25
893.369	1.25
894.104	0.25
894.839	1.25
895.574	1.25
896.309	4.25
897.044	-0.75
897.779	2.25
898.514	2.25
899.248	-1.75
899.983	3.25
900.717	-1.75
901.452	2.25
902.186	-0.75
902.92	-1.75
903.654	1.25
904.389	1.25
905.123	1.25
905.857	0.25
906.59	1.25
907.324	2.25
908.058	2.25
908.792	-0.75
909.525	1.25
910.259	3.25
910.992	0.25
911.726	2.25
912.459	0.25
913.192	2.25
913.925	-0.75
914.658	2.25
915.391	-0.75
916.124	-0.75
916.857	1.25
917.59	0.25
918.323	1.25
919.055	0.25
919.788	1.25
920.521	0.25
921.253	0.25
921.985	1.25
922.718	-0.75
923.45	-0.75
924.182	1.25
924.914	1.25
925.646	0.25
926.378	1.25
927.11	-0.75
927.841	-0.75
928.573	-0.75
929.305	0.25
930.036	0.25
930.768	-0.75
931.499	0.25
932.23	-0.75
932.962	3.25
933.693	0.25
934.424	-0.75
935.155	1.25
935.886	0.25
936.617	-0.75
937.348	1.25
938.078	1.25
938.809	1.25
939.54	-2.75
940.27	2.25
941.001	1.25
941.731	3.25
942.461	1.25
943.191	-1.75
943.922	3.25
944.652	0.25
945.382	2.25
946.112	3.25
946.841	0.25
947.571	-0.75
948.301	-0.75
949.031	2.25
949.76	1.25
950.49	0.25
951.219	0.25
951.948	1.25
952.678	-0.75
953.407	1.25
954.136	1.25
954.865	-1.75
955.594	0.25
956.323	0.25
957.052	0.25
957.78	0.25
958.509	-2.75
959.238	1.25
959.966	-0.75
960.695	-1.75
961.423	0.25
962.151	0.25
962.88	0.25
963.608	0.25
964.336	0.25
965.064	-1.75
965.792	0.25
966.52	0.25
967.247	2.25
967.975	2.25
968.703	2.25
969.43	1.25
970.158	0.25
970.885	-0.75
971.613	1.25
972.34	0.25
973.067	0.25
973.794	-2.75
974.521	-0.75
975.248	2.25
975.975	-0.75
976.702	0.25
977.429	0.25
978.156	1.25
978.882	1.25
979.609	0.25
980.335	-0.75
981.062	-0.75
981.788	0.25
982.514	0.25
983.24	1.25
983.967	0.25
984.693	-0.75
985.419	1.25
986.144	1.25
986.87	0.25
987.596	-1.75
988.322	0.25
989.047	-0.75
989.773	-1.75
990.498	0.25
991.224	1.25
991.949	0.25
992.674	1.25
993.399	-1.75
994.124	1.25
994.849	0.25
995.574	-0.75
996.299	0.25
997.024	-0.75
997.749	-0.75
998.473	-0.75
999.198	1.25
999.922	-0.75
1000.647	2.25
1001.371	3.25
1002.095	-1.75
1002.82	-1.75
1003.544	-0.75
1004.268	1.25
1004.992	1.25
1005.716	2.25
1006.439	3.25
1007.163	3.25
1007.887	1.25
1008.611	2.25
1009.334	-0.75
1010.058	1.25
1010.781	0.25
1011.504	0.25
1012.228	2.25
1012.951	-0.75
1013.674	0.25
1014.397	0.25
1015.12	1.25
