节点500_285_QEPB04081__729__15-07-40-812.txt的数据

Date: Wed Nov 12 15:07:40 CST 2025
User: PC
Spectrometer: QEPB0408
触发模式: 0
积分时间 (秒): 1.000000E-2
Scans to average: 1
启用暗噪声校正: true
启用非线性校正: false
滑动平均宽度: 0
X轴模式: Wavelengths
Number of Pixels in Spectrum: 1044
>>>>>Begin Spectral Data<<<<<
220.843	1.75
221.644	2.75
222.444	1.75
223.244	0.75
224.045	3.75
224.845	1.75
225.645	1.75
226.445	2.75
227.245	0.75
228.045	3.75
228.845	2.75
229.645	5.75
230.444	3.75
231.244	4.75
232.043	2.75
232.843	2.75
233.642	4.75
234.442	1.75
235.241	4.75
236.04	5.75
236.839	2.75
237.638	3.75
238.437	3.75
239.236	3.75
240.035	5.75
240.833	5.75
241.632	4.75
242.43	3.75
243.229	4.75
244.027	4.75
244.826	5.75
245.624	3.75
246.422	4.75
247.22	4.75
248.018	6.75
248.816	6.75
249.614	6.75
250.412	5.75
251.21	6.75
252.007	6.75
252.805	6.75
253.602	5.75
254.4	7.75
255.197	5.75
255.994	6.75
256.791	6.75
257.589	8.75
258.386	9.75
259.183	9.75
259.979	10.75
260.776	8.75
261.573	9.75
262.37	11.75
263.166	10.75
263.963	13.75
264.759	8.75
265.556	13.75
266.352	11.75
267.148	10.75
267.944	12.75
268.74	12.75
269.536	14.75
270.332	11.75
271.128	14.75
271.924	12.75
272.719	14.75
273.515	14.75
274.311	16.75
275.106	15.75
275.901	14.75
276.697	17.75
277.492	16.75
278.287	18.75
279.082	17.75
279.877	15.75
280.672	18.75
281.467	18.75
282.262	17.75
283.056	16.75
283.851	16.75
284.646	18.75
285.44	16.75
286.234	16.75
287.029	17.75
287.823	17.75
288.617	17.75
289.411	17.75
290.205	17.75
290.999	17.75
291.793	18.75
292.587	14.75
293.381	19.75
294.174	18.75
294.968	15.75
295.761	16.75
296.555	14.75
297.348	12.75
298.141	13.75
298.935	15.75
299.728	15.75
300.521	12.75
301.314	11.75
302.107	14.75
302.899	11.75
303.692	12.75
304.485	10.75
305.277	14.75
306.07	13.75
306.862	11.75
307.655	12.75
308.447	14.75
309.239	12.75
310.031	12.75
310.823	11.75
311.615	10.75
312.407	11.75
313.199	12.75
313.991	9.75
314.783	8.75
315.574	8.75
316.366	8.75
317.157	7.75
317.949	8.75
318.74	9.75
319.531	8.75
320.322	7.75
321.113	6.75
321.904	9.75
322.695	4.75
323.486	7.75
324.277	8.75
325.068	9.75
325.858	7.75
326.649	8.75
327.439	10.75
328.23	5.75
329.02	6.75
329.81	7.75
330.6	6.75
331.391	8.75
332.181	4.75
332.971	6.75
333.76	8.75
334.55	6.75
335.34	8.75
336.13	8.75
336.919	6.75
337.709	6.75
338.498	6.75
339.287	6.75
340.077	5.75
340.866	6.75
341.655	5.75
342.444	7.75
343.233	7.75
344.022	5.75
344.811	8.75
345.6	5.75
346.388	6.75
347.177	6.75
347.965	7.75
348.754	6.75
349.542	7.75
350.33	7.75
351.119	5.75
351.907	7.75
352.695	6.75
353.483	5.75
354.271	6.75
355.059	6.75
355.846	8.75
356.634	4.75
357.422	6.75
358.209	5.75
358.997	4.75
359.784	3.75
360.571	2.75
361.359	7.75
362.146	6.75
362.933	5.75
363.72	6.75
364.507	3.75
365.294	6.75
366.081	4.75
366.867	8.75
367.654	4.75
368.44	2.75
369.227	5.75
370.013	5.75
370.8	7.75
371.586	5.75
372.372	8.75
373.158	5.75
373.944	3.75
374.73	6.75
375.516	6.75
376.302	6.75
377.088	3.75
377.873	6.75
378.659	6.75
379.445	5.75
380.23	6.75
381.015	4.75
381.801	5.75
382.586	5.75
383.371	4.75
384.156	5.75
384.941	2.75
385.726	8.75
386.511	5.75
387.296	5.75
388.08	5.75
388.865	6.75
389.649	5.75
390.434	6.75
391.218	4.75
392.003	5.75
392.787	5.75
393.571	6.75
394.355	5.75
395.139	6.75
395.923	5.75
396.707	5.75
397.491	7.75
398.274	6.75
399.058	8.75
399.842	7.75
400.625	7.75
401.408	8.75
402.192	9.75
402.975	6.75
403.758	7.75
404.541	5.75
405.324	7.75
406.107	8.75
406.89	5.75
407.673	10.75
408.456	9.75
409.238	9.75
410.021	6.75
410.803	8.75
411.586	8.75
412.368	5.75
413.151	8.75
413.933	9.75
414.715	9.75
415.497	7.75
416.279	9.75
417.061	12.75
417.843	9.75
418.624	9.75
419.406	9.75
420.188	11.75
420.969	9.75
421.751	8.75
422.532	12.75
423.313	10.75
424.095	10.75
424.876	9.75
425.657	11.75
426.438	14.75
427.219	10.75
428	14.75
428.78	11.75
429.561	13.75
430.342	15.75
431.122	11.75
431.903	16.75
432.683	12.75
433.464	17.75
434.244	14.75
435.024	17.75
435.804	17.75
436.584	17.75
437.364	17.75
438.144	20.75
438.924	22.75
439.704	21.75
440.483	21.75
441.263	24.75
442.042	25.75
442.822	26.75
443.601	30.75
444.38	33.75
445.16	32.75
445.939	35.75
446.718	37.75
447.497	42.75
448.276	46.75
449.054	46.75
449.833	54.75
450.612	56.75
451.391	61.75
452.169	68.75
452.948	72.75
453.726	84.75
454.504	90.75
455.282	102.75
456.061	112.75
456.839	118.75
457.617	138.75
458.395	150.75
459.172	166.75
459.95	190.75
460.728	207.75
461.506	228.75
462.283	258.75
463.061	286.75
463.838	317.75
464.615	356.75
465.393	393.75
466.17	446.75
466.947	489.75
467.724	544.75
468.501	605.75
469.278	675.75
470.055	747.75
470.831	812.75
471.608	900.75
472.385	995.75
473.161	1100.75
473.938	1209.75
474.714	1319.75
475.49	1470.75
476.266	1604.75
477.043	1768.75
477.819	1936.75
478.595	2138.75
479.371	2327.75
480.146	2542.75
480.922	2803.75
481.698	3048.75
482.473	3370.75
483.249	3656.75
484.024	4020.75
484.8	4375.75
485.575	4762.75
486.35	5180.75
487.126	5679.75
487.901	6152.75
488.676	6708.75
489.451	7300.75
490.225	7925.75
491	8619.75
491.775	9358.75
492.55	10167.75
493.324	10947.75
494.099	11769.75
494.873	12658.75
495.647	13616.75
496.422	14584.75
497.196	15617.75
497.97	16650.75
498.744	17753.75
499.518	18722.75
500.292	19765.75
501.066	20764.75
501.839	21657.75
502.613	22658.75
503.387	23393.75
504.16	24179.75
504.934	24579.75
505.707	24945.75
506.48	25178.75
507.253	25333.75
508.027	25352.75
508.8	25236.75
509.573	25082.75
510.346	24725.75
511.118	24185.75
511.891	23623.75
512.664	22990.75
513.437	22287.75
514.209	21526.75
514.982	20738.75
515.754	19861.75
516.526	19123.75
517.298	18290.75
518.071	17524.75
518.843	16872.75
519.615	16285.75
520.387	15621.75
521.159	14982.75
521.93	14377.75
522.702	13853.75
523.474	13290.75
524.245	12691.75
525.017	12141.75
525.788	11724.75
526.56	11209.75
527.331	10695.75
528.102	10261.75
528.873	9847.75
529.644	9354.75
530.415	8900.75
531.186	8456.75
531.957	8041.75
532.728	7675.75
533.498	7340.75
534.269	6932.75
535.039	6591.75
535.81	6219.75
536.58	5897.75
537.351	5524.75
538.121	5260.75
538.891	4946.75
539.661	4689.75
540.431	4432.75
541.201	4177.75
541.971	3952.75
542.741	3755.75
543.51	3584.75
544.28	3415.75
545.05	3224.75
545.819	3077.75
546.588	2917.75
547.358	2776.75
548.127	2631.75
548.896	2491.75
549.665	2381.75
550.434	2270.75
551.203	2142.75
551.972	2025.75
552.741	1929.75
553.51	1813.75
554.278	1721.75
555.047	1637.75
555.815	1517.75
556.584	1452.75
557.352	1373.75
558.121	1305.75
558.889	1228.75
559.657	1160.75
560.425	1099.75
561.193	1036.75
561.961	970.75
562.729	917.75
563.496	873.75
564.264	819.75
565.032	777.75
565.799	726.75
566.567	689.75
567.334	657.75
568.101	623.75
568.869	583.75
569.636	548.75
570.403	510.75
571.17	492.75
571.937	462.75
572.704	431.75
573.471	415.75
574.237	388.75
575.004	370.75
575.771	348.75
576.537	323.75
577.303	308.75
578.07	290.75
578.836	273.75
579.602	254.75
580.368	246.75
581.134	230.75
581.9	221.75
582.666	204.75
583.432	189.75
584.198	182.75
584.964	181.75
585.729	168.75
586.495	152.75
587.26	155.75
588.025	142.75
588.791	138.75
589.556	125.75
590.321	118.75
591.086	115.75
591.851	109.75
592.616	103.75
593.381	98.75
594.146	94.75
594.911	84.75
595.675	84.75
596.44	82.75
597.204	75.75
597.969	74.75
598.733	71.75
599.497	67.75
600.261	65.75
601.025	61.75
601.79	58.75
602.553	58.75
603.317	53.75
604.081	51.75
604.845	48.75
605.609	47.75
606.372	45.75
607.136	44.75
607.899	42.75
608.662	37.75
609.426	39.75
610.189	37.75
610.952	36.75
611.715	28.75
612.478	32.75
613.241	31.75
614.004	31.75
614.767	32.75
615.529	26.75
616.292	28.75
617.055	26.75
617.817	24.75
618.579	25.75
619.342	23.75
620.104	24.75
620.866	20.75
621.628	22.75
622.39	19.75
623.152	17.75
623.914	20.75
624.676	19.75
625.438	15.75
626.199	18.75
626.961	18.75
627.722	18.75
628.484	17.75
629.245	15.75
630.006	15.75
630.768	15.75
631.529	14.75
632.29	12.75
633.051	13.75
633.812	15.75
634.573	13.75
635.333	12.75
636.094	13.75
636.855	14.75
637.615	11.75
638.376	13.75
639.136	10.75
639.896	11.75
640.657	10.75
641.417	8.75
642.177	11.75
642.937	9.75
643.697	10.75
644.457	6.75
645.216	12.75
645.976	8.75
646.736	9.75
647.495	7.75
648.255	6.75
649.014	6.75
649.774	8.75
650.533	7.75
651.292	7.75
652.051	7.75
652.81	7.75
653.569	4.75
654.328	7.75
655.087	7.75
655.846	7.75
656.604	6.75
657.363	6.75
658.121	5.75
658.88	5.75
659.638	6.75
660.397	5.75
661.155	5.75
661.913	6.75
662.671	6.75
663.429	7.75
664.187	2.75
664.945	9.75
665.703	3.75
666.46	4.75
667.218	4.75
667.976	3.75
668.733	5.75
669.49	4.75
670.248	7.75
671.005	6.75
671.762	5.75
672.519	5.75
673.276	5.75
674.033	5.75
674.79	5.75
675.547	5.75
676.304	5.75
677.06	4.75
677.817	3.75
678.574	3.75
679.33	6.75
680.086	6.75
680.843	3.75
681.599	6.75
682.355	4.75
683.111	4.75
683.867	2.75
684.623	2.75
685.379	3.75
686.135	5.75
686.89	5.75
687.646	2.75
688.402	4.75
689.157	2.75
689.912	4.75
690.668	5.75
691.423	5.75
692.178	4.75
692.933	3.75
693.688	2.75
694.443	1.75
695.198	4.75
695.953	4.75
696.708	6.75
697.462	5.75
698.217	4.75
698.972	3.75
699.726	6.75
700.48	4.75
701.235	4.75
701.989	3.75
702.743	3.75
703.497	3.75
704.251	3.75
705.005	5.75
705.759	3.75
706.513	3.75
707.266	5.75
708.02	5.75
708.774	2.75
709.527	3.75
710.28	2.75
711.034	4.75
711.787	4.75
712.54	1.75
713.293	4.75
714.046	2.75
714.799	5.75
715.552	4.75
716.305	3.75
717.058	3.75
717.81	1.75
718.563	5.75
719.315	4.75
720.068	4.75
720.82	3.75
721.573	4.75
722.325	3.75
723.077	5.75
723.829	5.75
724.581	5.75
725.333	5.75
726.085	4.75
726.836	4.75
727.588	6.75
728.34	4.75
729.091	4.75
729.843	4.75
730.594	5.75
731.346	4.75
732.097	4.75
732.848	2.75
733.599	5.75
734.35	5.75
735.101	4.75
735.852	4.75
736.603	5.75
737.354	3.75
738.104	5.75
738.855	3.75
739.605	5.75
740.356	4.75
741.106	4.75
741.856	4.75
742.607	5.75
743.357	5.75
744.107	3.75
744.857	3.75
745.607	5.75
746.357	1.75
747.106	4.75
747.856	3.75
748.606	5.75
749.355	6.75
750.105	6.75
750.854	3.75
751.603	5.75
752.353	6.75
753.102	4.75
753.851	6.75
754.6	4.75
755.349	5.75
756.098	4.75
756.847	5.75
757.595	5.75
758.344	5.75
759.093	6.75
759.841	5.75
760.589	6.75
761.338	3.75
762.086	3.75
762.834	6.75
763.582	5.75
764.331	8.75
765.079	6.75
765.826	5.75
766.574	5.75
767.322	7.75
768.07	6.75
768.817	5.75
769.565	7.75
770.312	7.75
771.06	6.75
771.807	8.75
772.554	6.75
773.302	7.75
774.049	7.75
774.796	8.75
775.543	7.75
776.29	6.75
777.036	7.75
777.783	9.75
778.53	9.75
779.276	9.75
780.023	9.75
780.769	7.75
781.516	8.75
782.262	9.75
783.008	7.75
783.754	9.75
784.5	6.75
785.246	7.75
785.992	6.75
786.738	7.75
787.484	6.75
788.23	7.75
788.975	8.75
789.721	9.75
790.466	7.75
791.212	9.75
791.957	9.75
792.702	9.75
793.447	7.75
794.193	9.75
794.938	8.75
795.683	7.75
796.427	7.75
797.172	8.75
797.917	9.75
798.662	9.75
799.406	7.75
800.151	7.75
800.895	6.75
801.64	9.75
802.384	7.75
803.128	5.75
803.872	7.75
804.616	8.75
805.36	7.75
806.104	5.75
806.848	6.75
807.592	6.75
808.336	4.75
809.079	5.75
809.823	6.75
810.566	6.75
811.31	5.75
812.053	6.75
812.796	8.75
813.539	6.75
814.283	5.75
815.026	2.75
815.769	6.75
816.511	4.75
817.254	5.75
817.997	2.75
818.74	2.75
819.482	6.75
820.225	2.75
820.967	5.75
821.71	4.75
822.452	2.75
823.194	3.75
823.936	5.75
824.678	3.75
825.42	5.75
826.162	4.75
826.904	6.75
827.646	4.75
828.388	4.75
829.129	3.75
829.871	6.75
830.612	1.75
831.354	4.75
832.095	4.75
832.836	3.75
833.577	6.75
834.319	2.75
835.06	2.75
835.801	4.75
836.542	4.75
837.282	4.75
838.023	2.75
838.764	5.75
839.504	4.75
840.245	3.75
840.985	2.75
841.726	2.75
842.466	4.75
843.206	4.75
843.946	1.75
844.687	5.75
845.427	4.75
846.166	1.75
846.906	1.75
847.646	2.75
848.386	2.75
849.125	5.75
849.865	2.75
850.605	3.75
851.344	4.75
852.083	3.75
852.823	3.75
853.562	2.75
854.301	1.75
855.04	0.75
855.779	1.75
856.518	5.75
857.257	2.75
857.995	6.75
858.734	3.75
859.473	3.75
860.211	3.75
860.95	2.75
861.688	1.75
862.426	0.75
863.165	0.75
863.903	3.75
864.641	3.75
865.379	2.75
866.117	1.75
866.855	1.75
867.593	1.75
868.33	1.75
869.068	2.75
869.806	1.75
870.543	1.75
871.28	0.75
872.018	3.75
872.755	1.75
873.492	2.75
874.229	3.75
874.967	2.75
875.703	4.75
876.44	0.75
877.177	1.75
877.914	2.75
878.651	1.75
879.387	3.75
880.124	2.75
880.86	0.75
881.597	0.75
882.333	-1.25
883.069	-1.25
883.806	-1.25
884.542	2.75
885.278	3.75
886.014	0.75
886.749	-0.25
887.485	2.75
888.221	0.75
888.957	-0.25
889.692	2.75
890.428	2.75
891.163	1.75
891.899	1.75
892.634	-1.25
893.369	1.75
894.104	2.75
894.839	-0.25
895.574	-0.25
896.309	2.75
897.044	-1.25
897.779	0.75
898.514	1.75
899.248	1.75
899.983	-1.25
900.717	-0.25
901.452	0.75
902.186	0.75
902.92	2.75
903.654	0.75
904.389	-1.25
905.123	2.75
905.857	2.75
906.59	1.75
907.324	0.75
908.058	1.75
908.792	1.75
909.525	2.75
910.259	1.75
910.992	-1.25
911.726	1.75
912.459	2.75
913.192	1.75
913.925	2.75
914.658	-0.25
915.391	2.75
916.124	0.75
916.857	3.75
917.59	-0.25
918.323	0.75
919.055	0.75
919.788	0.75
920.521	1.75
921.253	1.75
921.985	0.75
922.718	1.75
923.45	0.75
924.182	0.75
924.914	0.75
925.646	0.75
926.378	-0.25
927.11	1.75
927.841	0.75
928.573	-0.25
929.305	1.75
930.036	0.75
930.768	2.75
931.499	0.75
932.23	-0.25
932.962	0.75
933.693	0.75
934.424	3.75
935.155	3.75
935.886	1.75
936.617	-0.25
937.348	-0.25
938.078	0.75
938.809	-0.25
939.54	1.75
940.27	2.75
941.001	0.75
941.731	0.75
942.461	0.75
943.191	1.75
943.922	1.75
944.652	1.75
945.382	1.75
946.112	-1.25
946.841	2.75
947.571	-0.25
948.301	2.75
949.031	0.75
949.76	1.75
950.49	1.75
951.219	0.75
951.948	0.75
952.678	0.75
953.407	0.75
954.136	0.75
954.865	1.75
955.594	2.75
956.323	-0.25
957.052	0.75
957.78	1.75
958.509	0.75
959.238	-0.25
959.966	1.75
960.695	2.75
961.423	-0.25
962.151	2.75
962.88	0.75
963.608	1.75
964.336	0.75
965.064	3.75
965.792	1.75
966.52	1.75
967.247	-0.25
967.975	-2.25
968.703	2.75
969.43	3.75
970.158	0.75
970.885	2.75
971.613	2.75
972.34	1.75
973.067	-0.25
973.794	1.75
974.521	-0.25
975.248	1.75
975.975	-0.25
976.702	2.75
977.429	1.75
978.156	-0.25
978.882	0.75
979.609	0.75
980.335	0.75
981.062	0.75
981.788	1.75
982.514	-0.25
983.24	-1.25
983.967	0.75
984.693	1.75
985.419	0.75
986.144	0.75
986.87	-1.25
987.596	-0.25
988.322	0.75
989.047	0.75
989.773	-0.25
990.498	0.75
991.224	0.75
991.949	0.75
992.674	0.75
993.399	-1.25
994.124	-0.25
994.849	-0.25
995.574	-0.25
996.299	-0.25
997.024	-0.25
997.749	0.75
998.473	1.75
999.198	0.75
999.922	0.75
1000.647	0.75
1001.371	3.75
1002.095	-1.25
1002.82	1.75
1003.544	-1.25
1004.268	-0.25
1004.992	1.75
1005.716	0.75
1006.439	0.75
1007.163	2.75
1007.887	2.75
1008.611	2.75
1009.334	0.75
1010.058	1.75
1010.781	0.75
1011.504	1.75
1012.228	0.75
1012.951	-2.25
1013.674	1.75
1014.397	-0.25
1015.12	-2.25
