节点500_285_QEPB04081__388__15-02-00-663.txt的数据

Date: Wed Nov 12 15:02:00 CST 2025
User: PC
Spectrometer: QEPB0408
触发模式: 0
积分时间 (秒): 1.000000E-2
Scans to average: 1
启用暗噪声校正: true
启用非线性校正: false
滑动平均宽度: 0
X轴模式: Wavelengths
Number of Pixels in Spectrum: 1044
>>>>>Begin Spectral Data<<<<<
220.843	2.88
221.644	1.88
222.444	0.88
223.244	-0.12
224.045	2.88
224.845	3.88
225.645	1.88
226.445	3.88
227.245	3.88
228.045	3.88
228.845	1.88
229.645	2.88
230.444	1.88
231.244	1.88
232.043	2.88
232.843	3.88
233.642	4.88
234.442	2.88
235.241	4.88
236.04	2.88
236.839	2.88
237.638	4.88
238.437	2.88
239.236	4.88
240.035	3.88
240.833	4.88
241.632	4.88
242.43	4.88
243.229	2.88
244.027	3.88
244.826	7.88
245.624	3.88
246.422	4.88
247.22	5.88
248.018	6.88
248.816	3.88
249.614	5.88
250.412	5.88
251.21	7.88
252.007	7.88
252.805	6.88
253.602	6.88
254.4	7.88
255.197	7.88
255.994	8.88
256.791	6.88
257.589	7.88
258.386	7.88
259.183	7.88
259.979	8.88
260.776	9.88
261.573	11.88
262.37	12.88
263.166	9.88
263.963	12.88
264.759	10.88
265.556	12.88
266.352	10.88
267.148	14.88
267.944	11.88
268.74	11.88
269.536	11.88
270.332	12.88
271.128	13.88
271.924	14.88
272.719	14.88
273.515	14.88
274.311	17.88
275.106	16.88
275.901	17.88
276.697	16.88
277.492	14.88
278.287	17.88
279.082	15.88
279.877	18.88
280.672	18.88
281.467	18.88
282.262	18.88
283.056	17.88
283.851	19.88
284.646	20.88
285.44	21.88
286.234	17.88
287.029	17.88
287.823	19.88
288.617	17.88
289.411	20.88
290.205	17.88
290.999	17.88
291.793	17.88
292.587	16.88
293.381	17.88
294.174	18.88
294.968	16.88
295.761	15.88
296.555	16.88
297.348	15.88
298.141	13.88
298.935	19.88
299.728	11.88
300.521	12.88
301.314	16.88
302.107	12.88
302.899	12.88
303.692	11.88
304.485	12.88
305.277	10.88
306.07	10.88
306.862	11.88
307.655	12.88
308.447	14.88
309.239	9.88
310.031	10.88
310.823	12.88
311.615	11.88
312.407	11.88
313.199	8.88
313.991	7.88
314.783	8.88
315.574	6.88
316.366	10.88
317.157	7.88
317.949	9.88
318.74	6.88
319.531	7.88
320.322	6.88
321.113	4.88
321.904	7.88
322.695	7.88
323.486	8.88
324.277	7.88
325.068	6.88
325.858	8.88
326.649	4.88
327.439	6.88
328.23	8.88
329.02	5.88
329.81	7.88
330.6	7.88
331.391	6.88
332.181	7.88
332.971	6.88
333.76	7.88
334.55	8.88
335.34	6.88
336.13	3.88
336.919	7.88
337.709	4.88
338.498	6.88
339.287	6.88
340.077	7.88
340.866	6.88
341.655	5.88
342.444	6.88
343.233	6.88
344.022	6.88
344.811	5.88
345.6	5.88
346.388	6.88
347.177	6.88
347.965	5.88
348.754	5.88
349.542	9.88
350.33	6.88
351.119	4.88
351.907	6.88
352.695	6.88
353.483	9.88
354.271	9.88
355.059	4.88
355.846	7.88
356.634	6.88
357.422	6.88
358.209	5.88
358.997	6.88
359.784	6.88
360.571	6.88
361.359	6.88
362.146	4.88
362.933	6.88
363.72	7.88
364.507	3.88
365.294	6.88
366.081	4.88
366.867	5.88
367.654	5.88
368.44	6.88
369.227	3.88
370.013	6.88
370.8	3.88
371.586	4.88
372.372	6.88
373.158	4.88
373.944	2.88
374.73	4.88
375.516	5.88
376.302	5.88
377.088	4.88
377.873	6.88
378.659	3.88
379.445	3.88
380.23	6.88
381.015	5.88
381.801	5.88
382.586	6.88
383.371	4.88
384.156	4.88
384.941	3.88
385.726	5.88
386.511	5.88
387.296	3.88
388.08	3.88
388.865	5.88
389.649	5.88
390.434	5.88
391.218	4.88
392.003	4.88
392.787	6.88
393.571	1.88
394.355	7.88
395.139	6.88
395.923	4.88
396.707	6.88
397.491	5.88
398.274	6.88
399.058	7.88
399.842	6.88
400.625	6.88
401.408	5.88
402.192	8.88
402.975	5.88
403.758	7.88
404.541	4.88
405.324	5.88
406.107	8.88
406.89	7.88
407.673	7.88
408.456	8.88
409.238	7.88
410.021	10.88
410.803	7.88
411.586	9.88
412.368	8.88
413.151	9.88
413.933	6.88
414.715	7.88
415.497	8.88
416.279	6.88
417.061	10.88
417.843	7.88
418.624	9.88
419.406	6.88
420.188	9.88
420.969	12.88
421.751	8.88
422.532	13.88
423.313	9.88
424.095	9.88
424.876	12.88
425.657	10.88
426.438	13.88
427.219	12.88
428	12.88
428.78	12.88
429.561	11.88
430.342	13.88
431.122	11.88
431.903	15.88
432.683	15.88
433.464	14.88
434.244	17.88
435.024	16.88
435.804	18.88
436.584	17.88
437.364	18.88
438.144	20.88
438.924	21.88
439.704	21.88
440.483	19.88
441.263	21.88
442.042	23.88
442.822	27.88
443.601	29.88
444.38	26.88
445.16	32.88
445.939	33.88
446.718	34.88
447.497	37.88
448.276	43.88
449.054	46.88
449.833	47.88
450.612	55.88
451.391	58.88
452.169	59.88
452.948	71.88
453.726	74.88
454.504	78.88
455.282	94.88
456.061	98.88
456.839	107.88
457.617	121.88
458.395	131.88
459.172	153.88
459.95	172.88
460.728	186.88
461.506	213.88
462.283	235.88
463.061	250.88
463.838	293.88
464.615	322.88
465.393	363.88
466.17	404.88
466.947	449.88
467.724	503.88
468.501	562.88
469.278	617.88
470.055	700.88
470.831	757.88
471.608	864.88
472.385	958.88
473.161	1058.88
473.938	1161.88
474.714	1313.88
475.49	1435.88
476.266	1580.88
477.043	1745.88
477.819	1929.88
478.595	2140.88
479.371	2358.88
480.146	2576.88
480.922	2843.88
481.698	3145.88
482.473	3470.88
483.249	3805.88
484.024	4192.88
484.8	4598.88
485.575	5064.88
486.35	5528.88
487.126	6058.88
487.901	6647.88
488.676	7292.88
489.451	7973.88
490.225	8761.88
491	9533.88
491.775	10375.88
492.55	11315.88
493.324	12265.88
494.099	13200.88
494.873	14229.88
495.647	15320.88
496.422	16466.88
497.196	17629.88
497.97	18808.88
498.744	20042.88
499.518	21102.88
500.292	22288.88
501.066	23345.88
501.839	24320.88
502.613	25233.88
503.387	26009.88
504.16	26656.88
504.934	26933.88
505.707	27199.88
506.48	27243.88
507.253	27279.88
508.027	26957.88
508.8	26674.88
509.573	26267.88
510.346	25752.88
511.118	24954.88
511.891	24202.88
512.664	23383.88
513.437	22526.88
514.209	21566.88
514.982	20703.88
515.754	19783.88
516.526	18931.88
517.298	18080.88
518.071	17318.88
518.843	16606.88
519.615	16018.88
520.387	15386.88
521.159	14790.88
521.93	14153.88
522.702	13638.88
523.474	13084.88
524.245	12502.88
525.017	11965.88
525.788	11538.88
526.56	10981.88
527.331	10459.88
528.102	10053.88
528.873	9581.88
529.644	9060.88
530.415	8635.88
531.186	8196.88
531.957	7769.88
532.728	7380.88
533.498	7013.88
534.269	6617.88
535.039	6236.88
535.81	5915.88
536.58	5601.88
537.351	5258.88
538.121	4944.88
538.891	4706.88
539.661	4461.88
540.431	4199.88
541.201	3981.88
541.971	3763.88
542.741	3574.88
543.51	3395.88
544.28	3205.88
545.05	3065.88
545.819	2927.88
546.588	2768.88
547.358	2638.88
548.127	2511.88
548.896	2370.88
549.665	2249.88
550.434	2124.88
551.203	2022.88
551.972	1909.88
552.741	1799.88
553.51	1714.88
554.278	1607.88
555.047	1524.88
555.815	1436.88
556.584	1363.88
557.352	1276.88
558.121	1216.88
558.889	1149.88
559.657	1070.88
560.425	1017.88
561.193	959.88
561.961	903.88
562.729	861.88
563.496	810.88
564.264	769.88
565.032	717.88
565.799	688.88
566.567	649.88
567.334	609.88
568.101	570.88
568.869	554.88
569.636	521.88
570.403	483.88
571.17	453.88
571.937	428.88
572.704	402.88
573.471	384.88
574.237	360.88
575.004	341.88
575.771	324.88
576.537	302.88
577.303	281.88
578.07	272.88
578.836	253.88
579.602	236.88
580.368	224.88
581.134	216.88
581.9	209.88
582.666	189.88
583.432	180.88
584.198	167.88
584.964	164.88
585.729	148.88
586.495	152.88
587.26	137.88
588.025	135.88
588.791	125.88
589.556	118.88
590.321	112.88
591.086	107.88
591.851	100.88
592.616	95.88
593.381	91.88
594.146	88.88
594.911	82.88
595.675	80.88
596.44	77.88
597.204	70.88
597.969	68.88
598.733	64.88
599.497	66.88
600.261	61.88
601.025	57.88
601.79	53.88
602.553	50.88
603.317	47.88
604.081	44.88
604.845	45.88
605.609	44.88
606.372	41.88
607.136	39.88
607.899	35.88
608.662	40.88
609.426	32.88
610.189	35.88
610.952	32.88
611.715	30.88
612.478	31.88
613.241	29.88
614.004	30.88
614.767	26.88
615.529	25.88
616.292	27.88
617.055	24.88
617.817	23.88
618.579	20.88
619.342	21.88
620.104	22.88
620.866	21.88
621.628	21.88
622.39	20.88
623.152	19.88
623.914	16.88
624.676	16.88
625.438	14.88
626.199	15.88
626.961	15.88
627.722	13.88
628.484	13.88
629.245	13.88
630.006	14.88
630.768	15.88
631.529	14.88
632.29	13.88
633.051	13.88
633.812	11.88
634.573	11.88
635.333	9.88
636.094	12.88
636.855	9.88
637.615	9.88
638.376	9.88
639.136	9.88
639.896	11.88
640.657	9.88
641.417	10.88
642.177	7.88
642.937	8.88
643.697	7.88
644.457	8.88
645.216	7.88
645.976	10.88
646.736	8.88
647.495	7.88
648.255	8.88
649.014	9.88
649.774	7.88
650.533	4.88
651.292	8.88
652.051	4.88
652.81	5.88
653.569	5.88
654.328	6.88
655.087	6.88
655.846	7.88
656.604	5.88
657.363	5.88
658.121	3.88
658.88	5.88
659.638	6.88
660.397	3.88
661.155	4.88
661.913	5.88
662.671	5.88
663.429	5.88
664.187	5.88
664.945	5.88
665.703	4.88
666.46	4.88
667.218	4.88
667.976	5.88
668.733	3.88
669.49	5.88
670.248	2.88
671.005	3.88
671.762	7.88
672.519	2.88
673.276	1.88
674.033	4.88
674.79	4.88
675.547	1.88
676.304	2.88
677.06	5.88
677.817	3.88
678.574	4.88
679.33	5.88
680.086	4.88
680.843	3.88
681.599	3.88
682.355	6.88
683.111	2.88
683.867	5.88
684.623	6.88
685.379	3.88
686.135	2.88
686.89	3.88
687.646	2.88
688.402	4.88
689.157	2.88
689.912	3.88
690.668	2.88
691.423	5.88
692.178	4.88
692.933	2.88
693.688	3.88
694.443	3.88
695.198	3.88
695.953	6.88
696.708	1.88
697.462	2.88
698.217	3.88
698.972	3.88
699.726	2.88
700.48	5.88
701.235	5.88
701.989	4.88
702.743	4.88
703.497	1.88
704.251	4.88
705.005	3.88
705.759	2.88
706.513	3.88
707.266	6.88
708.02	3.88
708.774	3.88
709.527	5.88
710.28	3.88
711.034	3.88
711.787	4.88
712.54	3.88
713.293	3.88
714.046	5.88
714.799	5.88
715.552	4.88
716.305	1.88
717.058	4.88
717.81	5.88
718.563	4.88
719.315	4.88
720.068	3.88
720.82	1.88
721.573	3.88
722.325	3.88
723.077	2.88
723.829	4.88
724.581	3.88
725.333	5.88
726.085	2.88
726.836	3.88
727.588	4.88
728.34	4.88
729.091	3.88
729.843	3.88
730.594	2.88
731.346	3.88
732.097	0.88
732.848	4.88
733.599	5.88
734.35	5.88
735.101	3.88
735.852	0.88
736.603	5.88
737.354	3.88
738.104	5.88
738.855	5.88
739.605	3.88
740.356	5.88
741.106	2.88
741.856	3.88
742.607	4.88
743.357	4.88
744.107	4.88
744.857	5.88
745.607	4.88
746.357	4.88
747.106	7.88
747.856	6.88
748.606	6.88
749.355	5.88
750.105	4.88
750.854	4.88
751.603	6.88
752.353	3.88
753.102	5.88
753.851	4.88
754.6	5.88
755.349	4.88
756.098	6.88
756.847	7.88
757.595	5.88
758.344	5.88
759.093	5.88
759.841	6.88
760.589	6.88
761.338	4.88
762.086	5.88
762.834	4.88
763.582	7.88
764.331	7.88
765.079	8.88
765.826	3.88
766.574	5.88
767.322	7.88
768.07	6.88
768.817	6.88
769.565	5.88
770.312	6.88
771.06	9.88
771.807	7.88
772.554	8.88
773.302	8.88
774.049	7.88
774.796	9.88
775.543	7.88
776.29	8.88
777.036	8.88
777.783	10.88
778.53	5.88
779.276	8.88
780.023	8.88
780.769	7.88
781.516	9.88
782.262	8.88
783.008	8.88
783.754	7.88
784.5	12.88
785.246	9.88
785.992	9.88
786.738	11.88
787.484	8.88
788.23	11.88
788.975	10.88
789.721	10.88
790.466	8.88
791.212	9.88
791.957	7.88
792.702	7.88
793.447	8.88
794.193	9.88
794.938	6.88
795.683	8.88
796.427	8.88
797.172	6.88
797.917	6.88
798.662	6.88
799.406	8.88
800.151	9.88
800.895	7.88
801.64	4.88
802.384	12.88
803.128	6.88
803.872	7.88
804.616	6.88
805.36	6.88
806.104	6.88
806.848	6.88
807.592	5.88
808.336	5.88
809.079	6.88
809.823	7.88
810.566	5.88
811.31	3.88
812.053	3.88
812.796	3.88
813.539	5.88
814.283	5.88
815.026	4.88
815.769	7.88
816.511	6.88
817.254	3.88
817.997	4.88
818.74	5.88
819.482	0.88
820.225	3.88
820.967	4.88
821.71	4.88
822.452	2.88
823.194	4.88
823.936	4.88
824.678	2.88
825.42	6.88
826.162	3.88
826.904	3.88
827.646	4.88
828.388	2.88
829.129	2.88
829.871	3.88
830.612	2.88
831.354	3.88
832.095	5.88
832.836	6.88
833.577	2.88
834.319	4.88
835.06	4.88
835.801	3.88
836.542	3.88
837.282	3.88
838.023	3.88
838.764	3.88
839.504	3.88
840.245	3.88
840.985	3.88
841.726	4.88
842.466	3.88
843.206	4.88
843.946	4.88
844.687	4.88
845.427	-0.12
846.166	2.88
846.906	1.88
847.646	2.88
848.386	5.88
849.125	2.88
849.865	1.88
850.605	2.88
851.344	1.88
852.083	2.88
852.823	2.88
853.562	2.88
854.301	1.88
855.04	4.88
855.779	2.88
856.518	4.88
857.257	2.88
857.995	2.88
858.734	2.88
859.473	-0.12
860.211	1.88
860.95	1.88
861.688	-0.12
862.426	1.88
863.165	0.88
863.903	1.88
864.641	3.88
865.379	3.88
866.117	3.88
866.855	2.88
867.593	4.88
868.33	1.88
869.068	0.88
869.806	1.88
870.543	0.88
871.28	0.88
872.018	0.88
872.755	1.88
873.492	0.88
874.229	3.88
874.967	1.88
875.703	1.88
876.44	1.88
877.177	1.88
877.914	2.88
878.651	0.88
879.387	1.88
880.124	1.88
880.86	2.88
881.597	1.88
882.333	0.88
883.069	0.88
883.806	0.88
884.542	0.88
885.278	0.88
886.014	0.88
886.749	1.88
887.485	1.88
888.221	1.88
888.957	1.88
889.692	0.88
890.428	0.88
891.163	0.88
891.899	0.88
892.634	3.88
893.369	-0.12
894.104	2.88
894.839	-2.12
895.574	1.88
896.309	-0.12
897.044	-0.12
897.779	1.88
898.514	0.88
899.248	0.88
899.983	0.88
900.717	-0.12
901.452	-0.12
902.186	1.88
902.92	-0.12
903.654	-0.12
904.389	0.88
905.123	0.88
905.857	1.88
906.59	0.88
907.324	0.88
908.058	-0.12
908.792	1.88
909.525	-1.12
910.259	-0.12
910.992	0.88
911.726	-2.12
912.459	0.88
913.192	-0.12
913.925	1.88
914.658	2.88
915.391	0.88
916.124	1.88
916.857	2.88
917.59	-0.12
918.323	1.88
919.055	0.88
919.788	0.88
920.521	0.88
921.253	2.88
921.985	1.88
922.718	0.88
923.45	0.88
924.182	1.88
924.914	1.88
925.646	1.88
926.378	-1.12
927.11	0.88
927.841	-2.12
928.573	0.88
929.305	-0.12
930.036	1.88
930.768	-0.12
931.499	0.88
932.23	0.88
932.962	0.88
933.693	-0.12
934.424	0.88
935.155	-0.12
935.886	1.88
936.617	0.88
937.348	1.88
938.078	-2.12
938.809	1.88
939.54	-2.12
940.27	0.88
941.001	1.88
941.731	0.88
942.461	0.88
943.191	-0.12
943.922	0.88
944.652	0.88
945.382	-0.12
946.112	-0.12
946.841	-0.12
947.571	-1.12
948.301	-0.12
949.031	0.88
949.76	0.88
950.49	1.88
951.219	0.88
951.948	-2.12
952.678	-0.12
953.407	0.88
954.136	-0.12
954.865	1.88
955.594	1.88
956.323	-1.12
957.052	-1.12
957.78	0.88
958.509	1.88
959.238	1.88
959.966	0.88
960.695	-1.12
961.423	0.88
962.151	-0.12
962.88	0.88
963.608	1.88
964.336	-0.12
965.064	0.88
965.792	1.88
966.52	-0.12
967.247	1.88
967.975	-0.12
968.703	0.88
969.43	1.88
970.158	-1.12
970.885	0.88
971.613	1.88
972.34	0.88
973.067	-0.12
973.794	-0.12
974.521	-0.12
975.248	0.88
975.975	-0.12
976.702	-0.12
977.429	1.88
978.156	0.88
978.882	1.88
979.609	0.88
980.335	-1.12
981.062	0.88
981.788	-1.12
982.514	-1.12
983.24	0.88
983.967	1.88
984.693	-1.12
985.419	1.88
986.144	2.88
986.87	1.88
987.596	-1.12
988.322	-1.12
989.047	1.88
989.773	-0.12
990.498	1.88
991.224	1.88
991.949	1.88
992.674	0.88
993.399	1.88
994.124	2.88
994.849	-1.12
995.574	-1.12
996.299	-2.12
997.024	1.88
997.749	-0.12
998.473	-1.12
999.198	-0.12
999.922	0.88
1000.647	-2.12
1001.371	3.88
1002.095	-1.12
1002.82	-0.12
1003.544	-1.12
1004.268	1.88
1004.992	-0.12
1005.716	0.88
1006.439	0.88
1007.163	-0.12
1007.887	1.88
1008.611	0.88
1009.334	-2.12
1010.058	0.88
1010.781	-1.12
1011.504	0.88
1012.228	0.88
1012.951	-0.12
1013.674	-1.12
1014.397	-0.12
1015.12	-0.12
