节点500_285_QEPB04081__174__14-58-27-138.txt的数据

Date: Wed Nov 12 14:58:27 CST 2025
User: PC
Spectrometer: QEPB0408
触发模式: 0
积分时间 (秒): 1.000000E-2
Scans to average: 1
启用暗噪声校正: true
启用非线性校正: false
滑动平均宽度: 0
X轴模式: Wavelengths
Number of Pixels in Spectrum: 1044
>>>>>Begin Spectral Data<<<<<
220.843	-0.88
221.644	2.12
222.444	2.12
223.244	3.12
224.045	1.12
224.845	0.12
225.645	2.12
226.445	1.12
227.245	0.12
228.045	1.12
228.845	1.12
229.645	3.12
230.444	3.12
231.244	2.12
232.043	6.12
232.843	4.12
233.642	4.12
234.442	1.12
235.241	3.12
236.04	3.12
236.839	4.12
237.638	3.12
238.437	5.12
239.236	4.12
240.035	3.12
240.833	5.12
241.632	4.12
242.43	6.12
243.229	4.12
244.027	5.12
244.826	5.12
245.624	5.12
246.422	5.12
247.22	6.12
248.018	4.12
248.816	4.12
249.614	7.12
250.412	6.12
251.21	7.12
252.007	5.12
252.805	6.12
253.602	7.12
254.4	7.12
255.197	6.12
255.994	9.12
256.791	8.12
257.589	10.12
258.386	9.12
259.183	10.12
259.979	10.12
260.776	11.12
261.573	12.12
262.37	11.12
263.166	8.12
263.963	12.12
264.759	12.12
265.556	11.12
266.352	13.12
267.148	12.12
267.944	14.12
268.74	12.12
269.536	15.12
270.332	16.12
271.128	16.12
271.924	17.12
272.719	16.12
273.515	19.12
274.311	16.12
275.106	16.12
275.901	17.12
276.697	16.12
277.492	17.12
278.287	18.12
279.082	19.12
279.877	18.12
280.672	19.12
281.467	19.12
282.262	18.12
283.056	21.12
283.851	19.12
284.646	19.12
285.44	19.12
286.234	20.12
287.029	21.12
287.823	17.12
288.617	18.12
289.411	17.12
290.205	19.12
290.999	17.12
291.793	15.12
292.587	20.12
293.381	16.12
294.174	18.12
294.968	16.12
295.761	16.12
296.555	15.12
297.348	13.12
298.141	13.12
298.935	17.12
299.728	16.12
300.521	17.12
301.314	14.12
302.107	13.12
302.899	14.12
303.692	13.12
304.485	12.12
305.277	14.12
306.07	12.12
306.862	11.12
307.655	13.12
308.447	11.12
309.239	12.12
310.031	11.12
310.823	12.12
311.615	9.12
312.407	9.12
313.199	9.12
313.991	8.12
314.783	8.12
315.574	10.12
316.366	9.12
317.157	7.12
317.949	8.12
318.74	7.12
319.531	8.12
320.322	6.12
321.113	7.12
321.904	6.12
322.695	7.12
323.486	8.12
324.277	8.12
325.068	8.12
325.858	7.12
326.649	6.12
327.439	5.12
328.23	6.12
329.02	8.12
329.81	6.12
330.6	8.12
331.391	6.12
332.181	6.12
332.971	7.12
333.76	8.12
334.55	3.12
335.34	7.12
336.13	6.12
336.919	4.12
337.709	7.12
338.498	3.12
339.287	7.12
340.077	6.12
340.866	7.12
341.655	5.12
342.444	6.12
343.233	4.12
344.022	9.12
344.811	5.12
345.6	5.12
346.388	3.12
347.177	6.12
347.965	6.12
348.754	6.12
349.542	7.12
350.33	5.12
351.119	3.12
351.907	4.12
352.695	5.12
353.483	5.12
354.271	6.12
355.059	6.12
355.846	5.12
356.634	6.12
357.422	5.12
358.209	6.12
358.997	5.12
359.784	3.12
360.571	7.12
361.359	4.12
362.146	4.12
362.933	7.12
363.72	6.12
364.507	4.12
365.294	4.12
366.081	6.12
366.867	5.12
367.654	4.12
368.44	3.12
369.227	4.12
370.013	4.12
370.8	4.12
371.586	6.12
372.372	6.12
373.158	6.12
373.944	7.12
374.73	5.12
375.516	5.12
376.302	4.12
377.088	5.12
377.873	6.12
378.659	1.12
379.445	5.12
380.23	6.12
381.015	6.12
381.801	7.12
382.586	4.12
383.371	5.12
384.156	4.12
384.941	4.12
385.726	6.12
386.511	4.12
387.296	5.12
388.08	5.12
388.865	4.12
389.649	6.12
390.434	4.12
391.218	4.12
392.003	6.12
392.787	7.12
393.571	5.12
394.355	7.12
395.139	5.12
395.923	5.12
396.707	5.12
397.491	6.12
398.274	10.12
399.058	6.12
399.842	7.12
400.625	7.12
401.408	5.12
402.192	6.12
402.975	7.12
403.758	8.12
404.541	7.12
405.324	7.12
406.107	9.12
406.89	9.12
407.673	7.12
408.456	9.12
409.238	8.12
410.021	10.12
410.803	10.12
411.586	7.12
412.368	8.12
413.151	11.12
413.933	9.12
414.715	9.12
415.497	8.12
416.279	10.12
417.061	8.12
417.843	9.12
418.624	10.12
419.406	9.12
420.188	10.12
420.969	10.12
421.751	10.12
422.532	11.12
423.313	9.12
424.095	12.12
424.876	12.12
425.657	11.12
426.438	15.12
427.219	13.12
428	10.12
428.78	13.12
429.561	9.12
430.342	13.12
431.122	14.12
431.903	15.12
432.683	17.12
433.464	14.12
434.244	13.12
435.024	15.12
435.804	16.12
436.584	18.12
437.364	20.12
438.144	19.12
438.924	18.12
439.704	21.12
440.483	22.12
441.263	25.12
442.042	25.12
442.822	27.12
443.601	30.12
444.38	28.12
445.16	31.12
445.939	32.12
446.718	34.12
447.497	37.12
448.276	42.12
449.054	43.12
449.833	48.12
450.612	48.12
451.391	53.12
452.169	61.12
452.948	64.12
453.726	70.12
454.504	80.12
455.282	88.12
456.061	95.12
456.839	101.12
457.617	117.12
458.395	133.12
459.172	144.12
459.95	158.12
460.728	185.12
461.506	194.12
462.283	224.12
463.061	246.12
463.838	278.12
464.615	312.12
465.393	346.12
466.17	381.12
466.947	427.12
467.724	481.12
468.501	542.12
469.278	591.12
470.055	677.12
470.831	747.12
471.608	828.12
472.385	920.12
473.161	1026.12
473.938	1146.12
474.714	1275.12
475.49	1422.12
476.266	1562.12
477.043	1726.12
477.819	1922.12
478.595	2111.12
479.371	2340.12
480.146	2589.12
480.922	2862.12
481.698	3181.12
482.473	3515.12
483.249	3884.12
484.024	4261.12
484.8	4697.12
485.575	5189.12
486.35	5713.12
487.126	6243.12
487.901	6892.12
488.676	7601.12
489.451	8359.12
490.225	9139.12
491	9981.12
491.775	10913.12
492.55	11969.12
493.324	12972.12
494.099	13967.12
494.873	15090.12
495.647	16320.12
496.422	17520.12
497.196	18787.12
497.97	19954.12
498.744	21265.12
499.518	22450.12
500.292	23625.12
501.066	24724.12
501.839	25599.12
502.613	26498.12
503.387	27312.12
504.16	27837.12
504.934	28118.12
505.707	28193.12
506.48	28205.12
507.253	27997.12
508.027	27685.12
508.8	27225.12
509.573	26725.12
510.346	26004.12
511.118	25194.12
511.891	24225.12
512.664	23429.12
513.437	22439.12
514.209	21441.12
514.982	20560.12
515.754	19624.12
516.526	18686.12
517.298	17970.12
518.071	17090.12
518.843	16456.12
519.615	15879.12
520.387	15206.12
521.159	14628.12
521.93	14060.12
522.702	13402.12
523.474	12881.12
524.245	12365.12
525.017	11798.12
525.788	11344.12
526.56	10818.12
527.331	10304.12
528.102	9850.12
528.873	9384.12
529.644	8905.12
530.415	8483.12
531.186	8016.12
531.957	7588.12
532.728	7204.12
533.498	6819.12
534.269	6429.12
535.039	6070.12
535.81	5751.12
536.58	5408.12
537.351	5093.12
538.121	4851.12
538.891	4543.12
539.661	4321.12
540.431	4082.12
541.201	3846.12
541.971	3652.12
542.741	3456.12
543.51	3293.12
544.28	3115.12
545.05	2978.12
545.819	2826.12
546.588	2688.12
547.358	2556.12
548.127	2421.12
548.896	2311.12
549.665	2159.12
550.434	2061.12
551.203	1955.12
551.972	1843.12
552.741	1754.12
553.51	1658.12
554.278	1565.12
555.047	1481.12
555.815	1396.12
556.584	1309.12
557.352	1222.12
558.121	1172.12
558.889	1105.12
559.657	1044.12
560.425	983.12
561.193	924.12
561.961	863.12
562.729	816.12
563.496	786.12
564.264	738.12
565.032	696.12
565.799	651.12
566.567	624.12
567.334	590.12
568.101	557.12
568.869	529.12
569.636	493.12
570.403	460.12
571.17	441.12
571.937	411.12
572.704	390.12
573.471	368.12
574.237	354.12
575.004	329.12
575.771	303.12
576.537	280.12
577.303	269.12
578.07	261.12
578.836	246.12
579.602	227.12
580.368	215.12
581.134	209.12
581.9	199.12
582.666	185.12
583.432	172.12
584.198	167.12
584.964	156.12
585.729	151.12
586.495	140.12
587.26	134.12
588.025	130.12
588.791	120.12
589.556	114.12
590.321	102.12
591.086	103.12
591.851	98.12
592.616	95.12
593.381	92.12
594.146	84.12
594.911	81.12
595.675	75.12
596.44	75.12
597.204	67.12
597.969	67.12
598.733	67.12
599.497	61.12
600.261	58.12
601.025	55.12
601.79	54.12
602.553	52.12
603.317	49.12
604.081	44.12
604.845	44.12
605.609	41.12
606.372	43.12
607.136	40.12
607.899	37.12
608.662	32.12
609.426	37.12
610.189	37.12
610.952	33.12
611.715	31.12
612.478	25.12
613.241	25.12
614.004	29.12
614.767	28.12
615.529	27.12
616.292	24.12
617.055	25.12
617.817	22.12
618.579	22.12
619.342	20.12
620.104	19.12
620.866	22.12
621.628	19.12
622.39	19.12
623.152	19.12
623.914	16.12
624.676	17.12
625.438	16.12
626.199	15.12
626.961	13.12
627.722	16.12
628.484	13.12
629.245	14.12
630.006	12.12
630.768	15.12
631.529	14.12
632.29	13.12
633.051	14.12
633.812	13.12
634.573	13.12
635.333	12.12
636.094	9.12
636.855	13.12
637.615	10.12
638.376	8.12
639.136	10.12
639.896	7.12
640.657	7.12
641.417	7.12
642.177	8.12
642.937	9.12
643.697	9.12
644.457	10.12
645.216	7.12
645.976	6.12
646.736	9.12
647.495	6.12
648.255	7.12
649.014	7.12
649.774	5.12
650.533	7.12
651.292	7.12
652.051	8.12
652.81	6.12
653.569	6.12
654.328	5.12
655.087	7.12
655.846	6.12
656.604	6.12
657.363	6.12
658.121	6.12
658.88	5.12
659.638	4.12
660.397	6.12
661.155	5.12
661.913	4.12
662.671	4.12
663.429	6.12
664.187	5.12
664.945	5.12
665.703	4.12
666.46	7.12
667.218	3.12
667.976	6.12
668.733	6.12
669.49	6.12
670.248	6.12
671.005	5.12
671.762	5.12
672.519	4.12
673.276	6.12
674.033	5.12
674.79	5.12
675.547	3.12
676.304	3.12
677.06	5.12
677.817	2.12
678.574	4.12
679.33	4.12
680.086	4.12
680.843	4.12
681.599	0.12
682.355	3.12
683.111	5.12
683.867	3.12
684.623	5.12
685.379	3.12
686.135	5.12
686.89	4.12
687.646	2.12
688.402	1.12
689.157	2.12
689.912	4.12
690.668	4.12
691.423	4.12
692.178	2.12
692.933	2.12
693.688	4.12
694.443	3.12
695.198	2.12
695.953	6.12
696.708	4.12
697.462	4.12
698.217	4.12
698.972	5.12
699.726	2.12
700.48	5.12
701.235	1.12
701.989	3.12
702.743	5.12
703.497	2.12
704.251	3.12
705.005	2.12
705.759	3.12
706.513	4.12
707.266	2.12
708.02	2.12
708.774	4.12
709.527	3.12
710.28	2.12
711.034	3.12
711.787	3.12
712.54	3.12
713.293	4.12
714.046	2.12
714.799	4.12
715.552	3.12
716.305	4.12
717.058	3.12
717.81	4.12
718.563	3.12
719.315	2.12
720.068	4.12
720.82	6.12
721.573	2.12
722.325	3.12
723.077	5.12
723.829	3.12
724.581	6.12
725.333	2.12
726.085	3.12
726.836	2.12
727.588	3.12
728.34	1.12
729.091	5.12
729.843	4.12
730.594	1.12
731.346	5.12
732.097	3.12
732.848	4.12
733.599	3.12
734.35	4.12
735.101	4.12
735.852	3.12
736.603	5.12
737.354	5.12
738.104	5.12
738.855	5.12
739.605	4.12
740.356	5.12
741.106	3.12
741.856	3.12
742.607	4.12
743.357	6.12
744.107	4.12
744.857	4.12
745.607	6.12
746.357	5.12
747.106	3.12
747.856	4.12
748.606	5.12
749.355	5.12
750.105	4.12
750.854	5.12
751.603	6.12
752.353	6.12
753.102	7.12
753.851	5.12
754.6	5.12
755.349	3.12
756.098	8.12
756.847	3.12
757.595	4.12
758.344	7.12
759.093	5.12
759.841	7.12
760.589	4.12
761.338	4.12
762.086	6.12
762.834	7.12
763.582	7.12
764.331	4.12
765.079	8.12
765.826	7.12
766.574	5.12
767.322	6.12
768.07	9.12
768.817	5.12
769.565	7.12
770.312	5.12
771.06	7.12
771.807	4.12
772.554	9.12
773.302	7.12
774.049	9.12
774.796	7.12
775.543	8.12
776.29	9.12
777.036	8.12
777.783	8.12
778.53	7.12
779.276	9.12
780.023	8.12
780.769	7.12
781.516	9.12
782.262	7.12
783.008	10.12
783.754	7.12
784.5	8.12
785.246	9.12
785.992	9.12
786.738	9.12
787.484	8.12
788.23	9.12
788.975	9.12
789.721	9.12
790.466	9.12
791.212	9.12
791.957	9.12
792.702	8.12
793.447	10.12
794.193	9.12
794.938	6.12
795.683	10.12
796.427	8.12
797.172	8.12
797.917	9.12
798.662	8.12
799.406	8.12
800.151	6.12
800.895	8.12
801.64	7.12
802.384	4.12
803.128	6.12
803.872	7.12
804.616	5.12
805.36	7.12
806.104	5.12
806.848	7.12
807.592	6.12
808.336	6.12
809.079	8.12
809.823	5.12
810.566	5.12
811.31	8.12
812.053	6.12
812.796	4.12
813.539	5.12
814.283	6.12
815.026	5.12
815.769	1.12
816.511	4.12
817.254	6.12
817.997	5.12
818.74	4.12
819.482	5.12
820.225	4.12
820.967	3.12
821.71	5.12
822.452	5.12
823.194	2.12
823.936	3.12
824.678	2.12
825.42	4.12
826.162	5.12
826.904	5.12
827.646	6.12
828.388	6.12
829.129	4.12
829.871	3.12
830.612	3.12
831.354	3.12
832.095	3.12
832.836	2.12
833.577	3.12
834.319	4.12
835.06	2.12
835.801	3.12
836.542	5.12
837.282	1.12
838.023	3.12
838.764	1.12
839.504	3.12
840.245	3.12
840.985	5.12
841.726	1.12
842.466	2.12
843.206	3.12
843.946	3.12
844.687	3.12
845.427	2.12
846.166	2.12
846.906	4.12
847.646	1.12
848.386	2.12
849.125	1.12
849.865	1.12
850.605	1.12
851.344	3.12
852.083	4.12
852.823	4.12
853.562	3.12
854.301	2.12
855.04	2.12
855.779	3.12
856.518	2.12
857.257	2.12
857.995	3.12
858.734	2.12
859.473	2.12
860.211	2.12
860.95	5.12
861.688	3.12
862.426	1.12
863.165	0.12
863.903	2.12
864.641	2.12
865.379	1.12
866.117	2.12
866.855	2.12
867.593	2.12
868.33	1.12
869.068	1.12
869.806	1.12
870.543	-0.88
871.28	0.12
872.018	1.12
872.755	0.12
873.492	-0.88
874.229	0.12
874.967	1.12
875.703	0.12
876.44	2.12
877.177	1.12
877.914	0.12
878.651	1.12
879.387	1.12
880.124	1.12
880.86	-0.88
881.597	1.12
882.333	-0.88
883.069	0.12
883.806	1.12
884.542	-0.88
885.278	1.12
886.014	0.12
886.749	1.12
887.485	2.12
888.221	0.12
888.957	0.12
889.692	-0.88
890.428	2.12
891.163	1.12
891.899	2.12
892.634	3.12
893.369	0.12
894.104	0.12
894.839	1.12
895.574	-0.88
896.309	-0.88
897.044	0.12
897.779	1.12
898.514	0.12
899.248	0.12
899.983	3.12
900.717	0.12
901.452	1.12
902.186	0.12
902.92	0.12
903.654	1.12
904.389	0.12
905.123	0.12
905.857	1.12
906.59	1.12
907.324	2.12
908.058	1.12
908.792	-0.88
909.525	-1.88
910.259	1.12
910.992	-1.88
911.726	-0.88
912.459	0.12
913.192	0.12
913.925	-0.88
914.658	-1.88
915.391	0.12
916.124	1.12
916.857	1.12
917.59	-0.88
918.323	-0.88
919.055	0.12
919.788	-0.88
920.521	-0.88
921.253	1.12
921.985	2.12
922.718	-0.88
923.45	0.12
924.182	-1.88
924.914	0.12
925.646	-0.88
926.378	0.12
927.11	1.12
927.841	0.12
928.573	-1.88
929.305	0.12
930.036	-0.88
930.768	-1.88
931.499	1.12
932.23	-0.88
932.962	-0.88
933.693	1.12
934.424	-1.88
935.155	-1.88
935.886	2.12
936.617	3.12
937.348	-0.88
938.078	-0.88
938.809	2.12
939.54	-0.88
940.27	0.12
941.001	0.12
941.731	1.12
942.461	-0.88
943.191	1.12
943.922	-2.88
944.652	-0.88
945.382	0.12
946.112	-1.88
946.841	-0.88
947.571	-0.88
948.301	0.12
949.031	-0.88
949.76	0.12
950.49	2.12
951.219	-0.88
951.948	0.12
952.678	2.12
953.407	-0.88
954.136	1.12
954.865	-0.88
955.594	-0.88
956.323	-0.88
957.052	-0.88
957.78	1.12
958.509	-0.88
959.238	0.12
959.966	2.12
960.695	1.12
961.423	0.12
962.151	0.12
962.88	0.12
963.608	-0.88
964.336	-0.88
965.064	2.12
965.792	0.12
966.52	0.12
967.247	0.12
967.975	0.12
968.703	-2.88
969.43	0.12
970.158	0.12
970.885	0.12
971.613	-0.88
972.34	0.12
973.067	1.12
973.794	1.12
974.521	-0.88
975.248	1.12
975.975	0.12
976.702	1.12
977.429	-0.88
978.156	-0.88
978.882	0.12
979.609	1.12
980.335	-0.88
981.062	0.12
981.788	-0.88
982.514	1.12
983.24	-1.88
983.967	1.12
984.693	0.12
985.419	1.12
986.144	-1.88
986.87	-0.88
987.596	-0.88
988.322	-0.88
989.047	0.12
989.773	-0.88
990.498	-0.88
991.224	-2.88
991.949	-0.88
992.674	1.12
993.399	-0.88
994.124	-0.88
994.849	-0.88
995.574	-0.88
996.299	1.12
997.024	0.12
997.749	0.12
998.473	0.12
999.198	1.12
999.922	0.12
1000.647	0.12
1001.371	3.12
1002.095	0.12
1002.82	-0.88
1003.544	0.12
1004.268	2.12
1004.992	2.12
1005.716	1.12
1006.439	1.12
1007.163	3.12
1007.887	3.12
1008.611	-0.88
1009.334	-0.88
1010.058	1.12
1010.781	1.12
1011.504	2.12
1012.228	1.12
1012.951	-0.88
1013.674	-0.88
1014.397	0.12
1015.12	-0.88
