节点500_285_QEPB04081__136__14-57-49-200.txt的数据

Date: Wed Nov 12 14:57:49 CST 2025
User: PC
Spectrometer: QEPB0408
触发模式: 0
积分时间 (秒): 1.000000E-2
Scans to average: 1
启用暗噪声校正: true
启用非线性校正: false
滑动平均宽度: 0
X轴模式: Wavelengths
Number of Pixels in Spectrum: 1044
>>>>>Begin Spectral Data<<<<<
220.843	3.88
221.644	-0.12
222.444	1.88
223.244	3.88
224.045	-0.12
224.845	1.88
225.645	1.88
226.445	1.88
227.245	3.88
228.045	2.88
228.845	3.88
229.645	2.88
230.444	3.88
231.244	4.88
232.043	3.88
232.843	4.88
233.642	2.88
234.442	6.88
235.241	3.88
236.04	3.88
236.839	2.88
237.638	3.88
238.437	6.88
239.236	4.88
240.035	5.88
240.833	3.88
241.632	3.88
242.43	5.88
243.229	5.88
244.027	6.88
244.826	5.88
245.624	5.88
246.422	4.88
247.22	3.88
248.018	7.88
248.816	7.88
249.614	4.88
250.412	5.88
251.21	6.88
252.007	6.88
252.805	7.88
253.602	6.88
254.4	7.88
255.197	8.88
255.994	8.88
256.791	6.88
257.589	9.88
258.386	9.88
259.183	9.88
259.979	9.88
260.776	10.88
261.573	11.88
262.37	12.88
263.166	11.88
263.963	15.88
264.759	12.88
265.556	11.88
266.352	12.88
267.148	13.88
267.944	12.88
268.74	13.88
269.536	16.88
270.332	16.88
271.128	19.88
271.924	17.88
272.719	17.88
273.515	16.88
274.311	15.88
275.106	18.88
275.901	18.88
276.697	17.88
277.492	16.88
278.287	19.88
279.082	19.88
279.877	18.88
280.672	20.88
281.467	17.88
282.262	22.88
283.056	18.88
283.851	22.88
284.646	20.88
285.44	21.88
286.234	19.88
287.029	19.88
287.823	19.88
288.617	17.88
289.411	18.88
290.205	19.88
290.999	20.88
291.793	19.88
292.587	17.88
293.381	19.88
294.174	16.88
294.968	17.88
295.761	16.88
296.555	16.88
297.348	14.88
298.141	16.88
298.935	15.88
299.728	15.88
300.521	14.88
301.314	15.88
302.107	13.88
302.899	13.88
303.692	13.88
304.485	13.88
305.277	16.88
306.07	13.88
306.862	13.88
307.655	12.88
308.447	12.88
309.239	9.88
310.031	12.88
310.823	9.88
311.615	12.88
312.407	9.88
313.199	9.88
313.991	9.88
314.783	10.88
315.574	10.88
316.366	9.88
317.157	8.88
317.949	9.88
318.74	8.88
319.531	7.88
320.322	8.88
321.113	6.88
321.904	9.88
322.695	10.88
323.486	6.88
324.277	9.88
325.068	5.88
325.858	9.88
326.649	6.88
327.439	7.88
328.23	7.88
329.02	5.88
329.81	5.88
330.6	8.88
331.391	5.88
332.181	7.88
332.971	7.88
333.76	9.88
334.55	4.88
335.34	6.88
336.13	5.88
336.919	3.88
337.709	5.88
338.498	8.88
339.287	5.88
340.077	5.88
340.866	7.88
341.655	6.88
342.444	6.88
343.233	9.88
344.022	4.88
344.811	6.88
345.6	4.88
346.388	5.88
347.177	6.88
347.965	6.88
348.754	6.88
349.542	7.88
350.33	5.88
351.119	6.88
351.907	6.88
352.695	7.88
353.483	5.88
354.271	4.88
355.059	3.88
355.846	5.88
356.634	7.88
357.422	3.88
358.209	4.88
358.997	7.88
359.784	6.88
360.571	6.88
361.359	5.88
362.146	6.88
362.933	3.88
363.72	3.88
364.507	6.88
365.294	5.88
366.081	4.88
366.867	5.88
367.654	7.88
368.44	4.88
369.227	6.88
370.013	7.88
370.8	5.88
371.586	8.88
372.372	3.88
373.158	7.88
373.944	4.88
374.73	4.88
375.516	6.88
376.302	4.88
377.088	6.88
377.873	6.88
378.659	4.88
379.445	4.88
380.23	5.88
381.015	5.88
381.801	4.88
382.586	7.88
383.371	5.88
384.156	7.88
384.941	7.88
385.726	6.88
386.511	6.88
387.296	6.88
388.08	7.88
388.865	6.88
389.649	5.88
390.434	5.88
391.218	5.88
392.003	8.88
392.787	5.88
393.571	5.88
394.355	7.88
395.139	9.88
395.923	8.88
396.707	5.88
397.491	5.88
398.274	6.88
399.058	7.88
399.842	8.88
400.625	7.88
401.408	8.88
402.192	9.88
402.975	8.88
403.758	8.88
404.541	5.88
405.324	10.88
406.107	6.88
406.89	11.88
407.673	8.88
408.456	8.88
409.238	7.88
410.021	7.88
410.803	10.88
411.586	8.88
412.368	7.88
413.151	9.88
413.933	12.88
414.715	8.88
415.497	8.88
416.279	9.88
417.061	12.88
417.843	9.88
418.624	9.88
419.406	10.88
420.188	9.88
420.969	11.88
421.751	12.88
422.532	10.88
423.313	10.88
424.095	12.88
424.876	9.88
425.657	12.88
426.438	10.88
427.219	12.88
428	13.88
428.78	13.88
429.561	13.88
430.342	12.88
431.122	13.88
431.903	16.88
432.683	15.88
433.464	13.88
434.244	17.88
435.024	18.88
435.804	19.88
436.584	18.88
437.364	19.88
438.144	20.88
438.924	21.88
439.704	22.88
440.483	24.88
441.263	22.88
442.042	25.88
442.822	24.88
443.601	28.88
444.38	30.88
445.16	29.88
445.939	32.88
446.718	32.88
447.497	37.88
448.276	41.88
449.054	41.88
449.833	47.88
450.612	49.88
451.391	56.88
452.169	58.88
452.948	63.88
453.726	69.88
454.504	78.88
455.282	82.88
456.061	96.88
456.839	105.88
457.617	118.88
458.395	122.88
459.172	147.88
459.95	157.88
460.728	174.88
461.506	193.88
462.283	215.88
463.061	253.88
463.838	275.88
464.615	300.88
465.393	351.88
466.17	379.88
466.947	435.88
467.724	477.88
468.501	533.88
469.278	598.88
470.055	656.88
470.831	743.88
471.608	827.88
472.385	913.88
473.161	1014.88
473.938	1140.88
474.714	1268.88
475.49	1392.88
476.266	1559.88
477.043	1724.88
477.819	1912.88
478.595	2119.88
479.371	2332.88
480.146	2595.88
480.922	2866.88
481.698	3178.88
482.473	3504.88
483.249	3876.88
484.024	4292.88
484.8	4744.88
485.575	5211.88
486.35	5730.88
487.126	6347.88
487.901	6976.88
488.676	7686.88
489.451	8406.88
490.225	9242.88
491	10141.88
491.775	11123.88
492.55	12121.88
493.324	13175.88
494.099	14209.88
494.873	15346.88
495.647	16550.88
496.422	17787.88
497.196	19043.88
497.97	20438.88
498.744	21617.88
499.518	22818.88
500.292	23936.88
501.066	25030.88
501.839	26038.88
502.613	26924.88
503.387	27586.88
504.16	28191.88
504.934	28433.88
505.707	28513.88
506.48	28486.88
507.253	28250.88
508.027	27832.88
508.8	27329.88
509.573	26836.88
510.346	26024.88
511.118	25189.88
511.891	24224.88
512.664	23298.88
513.437	22361.88
514.209	21395.88
514.982	20502.88
515.754	19501.88
516.526	18634.88
517.298	17835.88
518.071	17045.88
518.843	16386.88
519.615	15758.88
520.387	15124.88
521.159	14556.88
521.93	13961.88
522.702	13356.88
523.474	12873.88
524.245	12327.88
525.017	11764.88
525.788	11282.88
526.56	10777.88
527.331	10245.88
528.102	9778.88
528.873	9289.88
529.644	8862.88
530.415	8392.88
531.186	7991.88
531.957	7513.88
532.728	7166.88
533.498	6744.88
534.269	6354.88
535.039	6015.88
535.81	5695.88
536.58	5348.88
537.351	5008.88
538.121	4768.88
538.891	4504.88
539.661	4265.88
540.431	4011.88
541.201	3782.88
541.971	3605.88
542.741	3413.88
543.51	3247.88
544.28	3078.88
545.05	2959.88
545.819	2817.88
546.588	2658.88
547.358	2497.88
548.127	2402.88
548.896	2279.88
549.665	2161.88
550.434	2047.88
551.203	1925.88
551.972	1831.88
552.741	1715.88
553.51	1636.88
554.278	1548.88
555.047	1449.88
555.815	1370.88
556.584	1289.88
557.352	1221.88
558.121	1165.88
558.889	1079.88
559.657	1029.88
560.425	974.88
561.193	911.88
561.961	861.88
562.729	807.88
563.496	761.88
564.264	727.88
565.032	681.88
565.799	654.88
566.567	617.88
567.334	570.88
568.101	544.88
568.869	513.88
569.636	482.88
570.403	455.88
571.17	436.88
571.937	412.88
572.704	383.88
573.471	361.88
574.237	340.88
575.004	331.88
575.771	297.88
576.537	285.88
577.303	276.88
578.07	257.88
578.836	240.88
579.602	224.88
580.368	210.88
581.134	203.88
581.9	195.88
582.666	183.88
583.432	171.88
584.198	163.88
584.964	153.88
585.729	152.88
586.495	140.88
587.26	130.88
588.025	125.88
588.791	113.88
589.556	111.88
590.321	105.88
591.086	102.88
591.851	94.88
592.616	87.88
593.381	86.88
594.146	82.88
594.911	82.88
595.675	72.88
596.44	72.88
597.204	69.88
597.969	66.88
598.733	61.88
599.497	61.88
600.261	61.88
601.025	57.88
601.79	54.88
602.553	50.88
603.317	47.88
604.081	46.88
604.845	44.88
605.609	41.88
606.372	40.88
607.136	36.88
607.899	35.88
608.662	35.88
609.426	36.88
610.189	32.88
610.952	28.88
611.715	31.88
612.478	30.88
613.241	28.88
614.004	25.88
614.767	26.88
615.529	25.88
616.292	23.88
617.055	22.88
617.817	22.88
618.579	21.88
619.342	23.88
620.104	19.88
620.866	21.88
621.628	21.88
622.39	17.88
623.152	16.88
623.914	19.88
624.676	16.88
625.438	17.88
626.199	16.88
626.961	14.88
627.722	15.88
628.484	13.88
629.245	13.88
630.006	11.88
630.768	10.88
631.529	14.88
632.29	11.88
633.051	12.88
633.812	13.88
634.573	12.88
635.333	11.88
636.094	10.88
636.855	9.88
637.615	9.88
638.376	12.88
639.136	10.88
639.896	10.88
640.657	9.88
641.417	9.88
642.177	9.88
642.937	7.88
643.697	8.88
644.457	9.88
645.216	7.88
645.976	8.88
646.736	8.88
647.495	8.88
648.255	9.88
649.014	6.88
649.774	6.88
650.533	7.88
651.292	8.88
652.051	7.88
652.81	7.88
653.569	3.88
654.328	7.88
655.087	7.88
655.846	6.88
656.604	7.88
657.363	5.88
658.121	5.88
658.88	5.88
659.638	5.88
660.397	6.88
661.155	2.88
661.913	6.88
662.671	5.88
663.429	6.88
664.187	4.88
664.945	5.88
665.703	6.88
666.46	7.88
667.218	4.88
667.976	5.88
668.733	6.88
669.49	4.88
670.248	3.88
671.005	4.88
671.762	3.88
672.519	6.88
673.276	6.88
674.033	3.88
674.79	3.88
675.547	4.88
676.304	3.88
677.06	5.88
677.817	5.88
678.574	6.88
679.33	5.88
680.086	5.88
680.843	5.88
681.599	3.88
682.355	2.88
683.111	5.88
683.867	3.88
684.623	2.88
685.379	2.88
686.135	1.88
686.89	2.88
687.646	5.88
688.402	4.88
689.157	4.88
689.912	3.88
690.668	4.88
691.423	5.88
692.178	4.88
692.933	3.88
693.688	3.88
694.443	5.88
695.198	3.88
695.953	4.88
696.708	5.88
697.462	0.88
698.217	3.88
698.972	2.88
699.726	3.88
700.48	2.88
701.235	4.88
701.989	3.88
702.743	4.88
703.497	2.88
704.251	5.88
705.005	4.88
705.759	3.88
706.513	2.88
707.266	4.88
708.02	1.88
708.774	3.88
709.527	4.88
710.28	1.88
711.034	4.88
711.787	3.88
712.54	5.88
713.293	2.88
714.046	3.88
714.799	4.88
715.552	3.88
716.305	3.88
717.058	1.88
717.81	2.88
718.563	3.88
719.315	2.88
720.068	5.88
720.82	2.88
721.573	3.88
722.325	3.88
723.077	3.88
723.829	7.88
724.581	5.88
725.333	4.88
726.085	4.88
726.836	5.88
727.588	2.88
728.34	6.88
729.091	3.88
729.843	4.88
730.594	6.88
731.346	5.88
732.097	5.88
732.848	5.88
733.599	4.88
734.35	3.88
735.101	5.88
735.852	4.88
736.603	4.88
737.354	5.88
738.104	5.88
738.855	3.88
739.605	5.88
740.356	5.88
741.106	6.88
741.856	7.88
742.607	3.88
743.357	5.88
744.107	6.88
744.857	5.88
745.607	6.88
746.357	4.88
747.106	5.88
747.856	5.88
748.606	6.88
749.355	6.88
750.105	4.88
750.854	7.88
751.603	4.88
752.353	3.88
753.102	3.88
753.851	7.88
754.6	5.88
755.349	6.88
756.098	5.88
756.847	3.88
757.595	7.88
758.344	7.88
759.093	7.88
759.841	7.88
760.589	7.88
761.338	7.88
762.086	6.88
762.834	7.88
763.582	5.88
764.331	5.88
765.079	7.88
765.826	6.88
766.574	7.88
767.322	8.88
768.07	6.88
768.817	9.88
769.565	7.88
770.312	9.88
771.06	7.88
771.807	10.88
772.554	8.88
773.302	8.88
774.049	8.88
774.796	8.88
775.543	8.88
776.29	8.88
777.036	8.88
777.783	9.88
778.53	8.88
779.276	10.88
780.023	7.88
780.769	10.88
781.516	9.88
782.262	7.88
783.008	7.88
783.754	8.88
784.5	9.88
785.246	9.88
785.992	9.88
786.738	8.88
787.484	9.88
788.23	6.88
788.975	11.88
789.721	9.88
790.466	10.88
791.212	10.88
791.957	7.88
792.702	7.88
793.447	9.88
794.193	8.88
794.938	7.88
795.683	10.88
796.427	7.88
797.172	7.88
797.917	8.88
798.662	9.88
799.406	8.88
800.151	8.88
800.895	6.88
801.64	7.88
802.384	9.88
803.128	6.88
803.872	6.88
804.616	7.88
805.36	7.88
806.104	7.88
806.848	5.88
807.592	7.88
808.336	6.88
809.079	7.88
809.823	4.88
810.566	6.88
811.31	6.88
812.053	5.88
812.796	7.88
813.539	6.88
814.283	4.88
815.026	6.88
815.769	5.88
816.511	5.88
817.254	6.88
817.997	3.88
818.74	3.88
819.482	5.88
820.225	5.88
820.967	4.88
821.71	2.88
822.452	5.88
823.194	6.88
823.936	4.88
824.678	4.88
825.42	6.88
826.162	5.88
826.904	4.88
827.646	4.88
828.388	3.88
829.129	3.88
829.871	3.88
830.612	4.88
831.354	3.88
832.095	2.88
832.836	3.88
833.577	2.88
834.319	4.88
835.06	4.88
835.801	4.88
836.542	2.88
837.282	3.88
838.023	3.88
838.764	3.88
839.504	5.88
840.245	3.88
840.985	3.88
841.726	4.88
842.466	3.88
843.206	5.88
843.946	6.88
844.687	4.88
845.427	4.88
846.166	3.88
846.906	4.88
847.646	0.88
848.386	3.88
849.125	3.88
849.865	3.88
850.605	4.88
851.344	5.88
852.083	3.88
852.823	4.88
853.562	2.88
854.301	2.88
855.04	1.88
855.779	2.88
856.518	2.88
857.257	2.88
857.995	2.88
858.734	2.88
859.473	1.88
860.211	2.88
860.95	3.88
861.688	1.88
862.426	3.88
863.165	-0.12
863.903	1.88
864.641	3.88
865.379	0.88
866.117	1.88
866.855	1.88
867.593	0.88
868.33	3.88
869.068	-0.12
869.806	1.88
870.543	1.88
871.28	3.88
872.018	1.88
872.755	-0.12
873.492	-2.12
874.229	0.88
874.967	2.88
875.703	2.88
876.44	0.88
877.177	1.88
877.914	-0.12
878.651	3.88
879.387	0.88
880.124	1.88
880.86	2.88
881.597	2.88
882.333	4.88
883.069	0.88
883.806	1.88
884.542	2.88
885.278	-0.12
886.014	0.88
886.749	0.88
887.485	1.88
888.221	1.88
888.957	2.88
889.692	0.88
890.428	3.88
891.163	1.88
891.899	1.88
892.634	1.88
893.369	0.88
894.104	1.88
894.839	0.88
895.574	2.88
896.309	3.88
897.044	-0.12
897.779	1.88
898.514	0.88
899.248	-0.12
899.983	-0.12
900.717	0.88
901.452	4.88
902.186	0.88
902.92	1.88
903.654	1.88
904.389	1.88
905.123	-0.12
905.857	-0.12
906.59	1.88
907.324	1.88
908.058	1.88
908.792	1.88
909.525	4.88
910.259	1.88
910.992	2.88
911.726	0.88
912.459	1.88
913.192	-0.12
913.925	2.88
914.658	-1.12
915.391	0.88
916.124	1.88
916.857	2.88
917.59	1.88
918.323	0.88
919.055	2.88
919.788	-0.12
920.521	0.88
921.253	0.88
921.985	0.88
922.718	0.88
923.45	1.88
924.182	1.88
924.914	0.88
925.646	1.88
926.378	1.88
927.11	1.88
927.841	2.88
928.573	1.88
929.305	2.88
930.036	-0.12
930.768	-1.12
931.499	0.88
932.23	-1.12
932.962	0.88
933.693	-0.12
934.424	1.88
935.155	-0.12
935.886	1.88
936.617	2.88
937.348	-1.12
938.078	-0.12
938.809	2.88
939.54	0.88
940.27	-1.12
941.001	-1.12
941.731	-1.12
942.461	1.88
943.191	0.88
943.922	2.88
944.652	-0.12
945.382	0.88
946.112	1.88
946.841	-0.12
947.571	-2.12
948.301	-1.12
949.031	1.88
949.76	-1.12
950.49	2.88
951.219	-2.12
951.948	-0.12
952.678	1.88
953.407	-0.12
954.136	1.88
954.865	-0.12
955.594	-2.12
956.323	1.88
957.052	-0.12
957.78	0.88
958.509	-0.12
959.238	1.88
959.966	-0.12
960.695	2.88
961.423	1.88
962.151	1.88
962.88	0.88
963.608	-2.12
964.336	2.88
965.064	-1.12
965.792	1.88
966.52	3.88
967.247	1.88
967.975	1.88
968.703	1.88
969.43	1.88
970.158	-0.12
970.885	-0.12
971.613	1.88
972.34	-0.12
973.067	0.88
973.794	0.88
974.521	-1.12
975.248	-0.12
975.975	0.88
976.702	1.88
977.429	-0.12
978.156	0.88
978.882	-0.12
979.609	1.88
980.335	0.88
981.062	-0.12
981.788	1.88
982.514	0.88
983.24	0.88
983.967	-0.12
984.693	-0.12
985.419	-0.12
986.144	-0.12
986.87	1.88
987.596	-0.12
988.322	-0.12
989.047	-0.12
989.773	3.88
990.498	-0.12
991.224	0.88
991.949	0.88
992.674	1.88
993.399	-2.12
994.124	1.88
994.849	0.88
995.574	2.88
996.299	1.88
997.024	-0.12
997.749	1.88
998.473	-2.12
999.198	-0.12
999.922	-0.12
1000.647	3.88
1001.371	0.88
1002.095	-3.12
1002.82	-2.12
1003.544	-0.12
1004.268	2.88
1004.992	1.88
1005.716	2.88
1006.439	1.88
1007.163	1.88
1007.887	1.88
1008.611	1.88
1009.334	-0.12
1010.058	-1.12
1010.781	0.88
1011.504	1.88
1012.228	-0.12
1012.951	1.88
1013.674	0.88
1014.397	-0.12
1015.12	1.88
