节点500_285_QEPB04081__140__14-57-53-189.txt的数据

Date: Wed Nov 12 14:57:53 CST 2025
User: PC
Spectrometer: QEPB0408
触发模式: 0
积分时间 (秒): 1.000000E-2
Scans to average: 1
启用暗噪声校正: true
启用非线性校正: false
滑动平均宽度: 0
X轴模式: Wavelengths
Number of Pixels in Spectrum: 1044
>>>>>Begin Spectral Data<<<<<
220.843	2.12
221.644	2.12
222.444	0.12
223.244	2.12
224.045	4.12
224.845	2.12
225.645	1.12
226.445	1.12
227.245	1.12
228.045	1.12
228.845	1.12
229.645	2.12
230.444	5.12
231.244	3.12
232.043	4.12
232.843	4.12
233.642	2.12
234.442	5.12
235.241	4.12
236.04	2.12
236.839	3.12
237.638	3.12
238.437	3.12
239.236	5.12
240.035	6.12
240.833	4.12
241.632	6.12
242.43	2.12
243.229	5.12
244.027	6.12
244.826	3.12
245.624	5.12
246.422	5.12
247.22	7.12
248.018	5.12
248.816	7.12
249.614	9.12
250.412	6.12
251.21	5.12
252.007	5.12
252.805	8.12
253.602	10.12
254.4	7.12
255.197	9.12
255.994	9.12
256.791	8.12
257.589	9.12
258.386	9.12
259.183	7.12
259.979	7.12
260.776	11.12
261.573	10.12
262.37	10.12
263.166	9.12
263.963	11.12
264.759	11.12
265.556	16.12
266.352	15.12
267.148	13.12
267.944	15.12
268.74	15.12
269.536	13.12
270.332	16.12
271.128	13.12
271.924	16.12
272.719	17.12
273.515	17.12
274.311	15.12
275.106	14.12
275.901	19.12
276.697	16.12
277.492	21.12
278.287	21.12
279.082	18.12
279.877	20.12
280.672	20.12
281.467	18.12
282.262	17.12
283.056	19.12
283.851	19.12
284.646	21.12
285.44	20.12
286.234	17.12
287.029	19.12
287.823	19.12
288.617	19.12
289.411	18.12
290.205	18.12
290.999	16.12
291.793	17.12
292.587	18.12
293.381	21.12
294.174	16.12
294.968	18.12
295.761	15.12
296.555	15.12
297.348	16.12
298.141	16.12
298.935	16.12
299.728	15.12
300.521	16.12
301.314	13.12
302.107	12.12
302.899	12.12
303.692	13.12
304.485	13.12
305.277	10.12
306.07	12.12
306.862	13.12
307.655	13.12
308.447	13.12
309.239	10.12
310.031	13.12
310.823	10.12
311.615	10.12
312.407	10.12
313.199	8.12
313.991	8.12
314.783	10.12
315.574	11.12
316.366	6.12
317.157	8.12
317.949	9.12
318.74	8.12
319.531	9.12
320.322	5.12
321.113	8.12
321.904	7.12
322.695	8.12
323.486	8.12
324.277	9.12
325.068	7.12
325.858	4.12
326.649	9.12
327.439	6.12
328.23	8.12
329.02	6.12
329.81	6.12
330.6	7.12
331.391	7.12
332.181	8.12
332.971	6.12
333.76	4.12
334.55	6.12
335.34	5.12
336.13	8.12
336.919	7.12
337.709	6.12
338.498	9.12
339.287	5.12
340.077	7.12
340.866	5.12
341.655	9.12
342.444	5.12
343.233	6.12
344.022	6.12
344.811	5.12
345.6	4.12
346.388	8.12
347.177	3.12
347.965	9.12
348.754	5.12
349.542	5.12
350.33	9.12
351.119	7.12
351.907	5.12
352.695	7.12
353.483	3.12
354.271	6.12
355.059	6.12
355.846	7.12
356.634	5.12
357.422	6.12
358.209	5.12
358.997	5.12
359.784	5.12
360.571	5.12
361.359	6.12
362.146	7.12
362.933	7.12
363.72	5.12
364.507	6.12
365.294	6.12
366.081	3.12
366.867	5.12
367.654	5.12
368.44	7.12
369.227	5.12
370.013	4.12
370.8	6.12
371.586	5.12
372.372	3.12
373.158	4.12
373.944	5.12
374.73	6.12
375.516	4.12
376.302	5.12
377.088	5.12
377.873	7.12
378.659	5.12
379.445	5.12
380.23	7.12
381.015	3.12
381.801	6.12
382.586	4.12
383.371	5.12
384.156	6.12
384.941	7.12
385.726	5.12
386.511	7.12
387.296	7.12
388.08	4.12
388.865	7.12
389.649	6.12
390.434	7.12
391.218	8.12
392.003	3.12
392.787	7.12
393.571	5.12
394.355	6.12
395.139	6.12
395.923	5.12
396.707	5.12
397.491	6.12
398.274	8.12
399.058	10.12
399.842	4.12
400.625	7.12
401.408	7.12
402.192	9.12
402.975	4.12
403.758	8.12
404.541	8.12
405.324	8.12
406.107	5.12
406.89	7.12
407.673	9.12
408.456	7.12
409.238	6.12
410.021	10.12
410.803	7.12
411.586	8.12
412.368	9.12
413.151	7.12
413.933	10.12
414.715	9.12
415.497	9.12
416.279	10.12
417.061	9.12
417.843	12.12
418.624	11.12
419.406	9.12
420.188	10.12
420.969	10.12
421.751	9.12
422.532	10.12
423.313	14.12
424.095	10.12
424.876	10.12
425.657	8.12
426.438	12.12
427.219	14.12
428	14.12
428.78	13.12
429.561	13.12
430.342	15.12
431.122	15.12
431.903	15.12
432.683	16.12
433.464	15.12
434.244	16.12
435.024	18.12
435.804	19.12
436.584	19.12
437.364	18.12
438.144	18.12
438.924	21.12
439.704	23.12
440.483	21.12
441.263	22.12
442.042	24.12
442.822	25.12
443.601	26.12
444.38	31.12
445.16	29.12
445.939	31.12
446.718	34.12
447.497	39.12
448.276	38.12
449.054	43.12
449.833	45.12
450.612	50.12
451.391	55.12
452.169	59.12
452.948	66.12
453.726	72.12
454.504	78.12
455.282	85.12
456.061	98.12
456.839	106.12
457.617	112.12
458.395	130.12
459.172	142.12
459.95	160.12
460.728	175.12
461.506	197.12
462.283	217.12
463.061	245.12
463.838	273.12
464.615	307.12
465.393	345.12
466.17	381.12
466.947	425.12
467.724	468.12
468.501	520.12
469.278	595.12
470.055	658.12
470.831	731.12
471.608	820.12
472.385	921.12
473.161	1013.12
473.938	1143.12
474.714	1269.12
475.49	1399.12
476.266	1554.12
477.043	1725.12
477.819	1898.12
478.595	2107.12
479.371	2356.12
480.146	2586.12
480.922	2873.12
481.698	3182.12
482.473	3515.12
483.249	3896.12
484.024	4283.12
484.8	4748.12
485.575	5220.12
486.35	5725.12
487.126	6325.12
487.901	6964.12
488.676	7684.12
489.451	8407.12
490.225	9228.12
491	10108.12
491.775	11053.12
492.55	12062.12
493.324	13154.12
494.099	14182.12
494.873	15242.12
495.647	16599.12
496.422	17810.12
497.196	19024.12
497.97	20321.12
498.744	21520.12
499.518	22700.12
500.292	23955.12
501.066	25025.12
501.839	25998.12
502.613	26841.12
503.387	27544.12
504.16	28137.12
504.934	28410.12
505.707	28419.12
506.48	28368.12
507.253	28201.12
508.027	27800.12
508.8	27402.12
509.573	26775.12
510.346	26090.12
511.118	25140.12
511.891	24256.12
512.664	23420.12
513.437	22399.12
514.209	21349.12
514.982	20516.12
515.754	19505.12
516.526	18680.12
517.298	17831.12
518.071	17011.12
518.843	16379.12
519.615	15778.12
520.387	15137.12
521.159	14534.12
521.93	13920.12
522.702	13433.12
523.474	12865.12
524.245	12316.12
525.017	11819.12
525.788	11311.12
526.56	10774.12
527.331	10287.12
528.102	9777.12
528.873	9309.12
529.644	8849.12
530.415	8377.12
531.186	7949.12
531.957	7555.12
532.728	7159.12
533.498	6737.12
534.269	6386.12
535.039	6014.12
535.81	5693.12
536.58	5367.12
537.351	5041.12
538.121	4777.12
538.891	4516.12
539.661	4235.12
540.431	4035.12
541.201	3824.12
541.971	3599.12
542.741	3427.12
543.51	3259.12
544.28	3122.12
545.05	2959.12
545.819	2815.12
546.588	2660.12
547.358	2530.12
548.127	2422.12
548.896	2272.12
549.665	2171.12
550.434	2050.12
551.203	1946.12
551.972	1832.12
552.741	1728.12
553.51	1623.12
554.278	1544.12
555.047	1442.12
555.815	1364.12
556.584	1280.12
557.352	1221.12
558.121	1142.12
558.889	1087.12
559.657	1031.12
560.425	970.12
561.193	905.12
561.961	865.12
562.729	819.12
563.496	768.12
564.264	733.12
565.032	690.12
565.799	656.12
566.567	618.12
567.334	570.12
568.101	550.12
568.869	517.12
569.636	494.12
570.403	456.12
571.17	432.12
571.937	411.12
572.704	379.12
573.471	369.12
574.237	344.12
575.004	320.12
575.771	304.12
576.537	280.12
577.303	268.12
578.07	251.12
578.836	237.12
579.602	226.12
580.368	212.12
581.134	199.12
581.9	194.12
582.666	181.12
583.432	175.12
584.198	163.12
584.964	160.12
585.729	152.12
586.495	144.12
587.26	131.12
588.025	123.12
588.791	118.12
589.556	113.12
590.321	106.12
591.086	104.12
591.851	95.12
592.616	92.12
593.381	87.12
594.146	88.12
594.911	79.12
595.675	78.12
596.44	70.12
597.204	72.12
597.969	66.12
598.733	63.12
599.497	62.12
600.261	57.12
601.025	52.12
601.79	53.12
602.553	49.12
603.317	48.12
604.081	46.12
604.845	44.12
605.609	44.12
606.372	38.12
607.136	38.12
607.899	37.12
608.662	36.12
609.426	33.12
610.189	35.12
610.952	31.12
611.715	30.12
612.478	31.12
613.241	26.12
614.004	27.12
614.767	26.12
615.529	24.12
616.292	27.12
617.055	22.12
617.817	24.12
618.579	21.12
619.342	20.12
620.104	18.12
620.866	22.12
621.628	21.12
622.39	17.12
623.152	17.12
623.914	14.12
624.676	16.12
625.438	18.12
626.199	16.12
626.961	16.12
627.722	15.12
628.484	14.12
629.245	15.12
630.006	12.12
630.768	12.12
631.529	12.12
632.29	13.12
633.051	11.12
633.812	11.12
634.573	12.12
635.333	12.12
636.094	11.12
636.855	9.12
637.615	11.12
638.376	10.12
639.136	11.12
639.896	9.12
640.657	5.12
641.417	10.12
642.177	9.12
642.937	7.12
643.697	10.12
644.457	9.12
645.216	9.12
645.976	9.12
646.736	5.12
647.495	8.12
648.255	8.12
649.014	9.12
649.774	5.12
650.533	6.12
651.292	6.12
652.051	9.12
652.81	7.12
653.569	7.12
654.328	7.12
655.087	7.12
655.846	6.12
656.604	5.12
657.363	6.12
658.121	4.12
658.88	5.12
659.638	4.12
660.397	5.12
661.155	7.12
661.913	4.12
662.671	4.12
663.429	3.12
664.187	3.12
664.945	4.12
665.703	3.12
666.46	6.12
667.218	6.12
667.976	4.12
668.733	4.12
669.49	2.12
670.248	6.12
671.005	6.12
671.762	3.12
672.519	6.12
673.276	3.12
674.033	4.12
674.79	5.12
675.547	2.12
676.304	4.12
677.06	2.12
677.817	7.12
678.574	3.12
679.33	4.12
680.086	4.12
680.843	3.12
681.599	6.12
682.355	6.12
683.111	3.12
683.867	4.12
684.623	3.12
685.379	3.12
686.135	3.12
686.89	4.12
687.646	3.12
688.402	2.12
689.157	4.12
689.912	3.12
690.668	5.12
691.423	2.12
692.178	4.12
692.933	5.12
693.688	6.12
694.443	3.12
695.198	4.12
695.953	2.12
696.708	4.12
697.462	5.12
698.217	5.12
698.972	4.12
699.726	5.12
700.48	2.12
701.235	3.12
701.989	4.12
702.743	3.12
703.497	6.12
704.251	3.12
705.005	5.12
705.759	3.12
706.513	5.12
707.266	4.12
708.02	4.12
708.774	4.12
709.527	4.12
710.28	6.12
711.034	3.12
711.787	3.12
712.54	4.12
713.293	3.12
714.046	4.12
714.799	2.12
715.552	1.12
716.305	2.12
717.058	2.12
717.81	4.12
718.563	1.12
719.315	3.12
720.068	3.12
720.82	3.12
721.573	1.12
722.325	5.12
723.077	3.12
723.829	4.12
724.581	4.12
725.333	5.12
726.085	5.12
726.836	4.12
727.588	3.12
728.34	3.12
729.091	2.12
729.843	4.12
730.594	4.12
731.346	3.12
732.097	4.12
732.848	3.12
733.599	3.12
734.35	4.12
735.101	4.12
735.852	5.12
736.603	2.12
737.354	3.12
738.104	6.12
738.855	5.12
739.605	3.12
740.356	3.12
741.106	6.12
741.856	1.12
742.607	6.12
743.357	7.12
744.107	3.12
744.857	4.12
745.607	6.12
746.357	6.12
747.106	3.12
747.856	7.12
748.606	4.12
749.355	5.12
750.105	5.12
750.854	7.12
751.603	4.12
752.353	6.12
753.102	4.12
753.851	4.12
754.6	5.12
755.349	4.12
756.098	4.12
756.847	5.12
757.595	6.12
758.344	7.12
759.093	6.12
759.841	5.12
760.589	7.12
761.338	7.12
762.086	9.12
762.834	7.12
763.582	7.12
764.331	7.12
765.079	5.12
765.826	6.12
766.574	7.12
767.322	6.12
768.07	9.12
768.817	7.12
769.565	7.12
770.312	7.12
771.06	8.12
771.807	9.12
772.554	8.12
773.302	9.12
774.049	7.12
774.796	9.12
775.543	9.12
776.29	9.12
777.036	9.12
777.783	9.12
778.53	10.12
779.276	8.12
780.023	9.12
780.769	9.12
781.516	5.12
782.262	12.12
783.008	8.12
783.754	10.12
784.5	9.12
785.246	10.12
785.992	8.12
786.738	9.12
787.484	12.12
788.23	10.12
788.975	10.12
789.721	8.12
790.466	9.12
791.212	9.12
791.957	7.12
792.702	9.12
793.447	8.12
794.193	7.12
794.938	10.12
795.683	8.12
796.427	7.12
797.172	7.12
797.917	8.12
798.662	8.12
799.406	7.12
800.151	6.12
800.895	8.12
801.64	8.12
802.384	8.12
803.128	8.12
803.872	9.12
804.616	7.12
805.36	6.12
806.104	7.12
806.848	6.12
807.592	7.12
808.336	6.12
809.079	3.12
809.823	5.12
810.566	4.12
811.31	6.12
812.053	4.12
812.796	5.12
813.539	7.12
814.283	5.12
815.026	6.12
815.769	5.12
816.511	3.12
817.254	5.12
817.997	5.12
818.74	4.12
819.482	6.12
820.225	4.12
820.967	5.12
821.71	4.12
822.452	7.12
823.194	3.12
823.936	3.12
824.678	3.12
825.42	5.12
826.162	3.12
826.904	5.12
827.646	5.12
828.388	2.12
829.129	3.12
829.871	3.12
830.612	5.12
831.354	4.12
832.095	3.12
832.836	3.12
833.577	2.12
834.319	2.12
835.06	6.12
835.801	3.12
836.542	3.12
837.282	3.12
838.023	5.12
838.764	1.12
839.504	4.12
840.245	3.12
840.985	3.12
841.726	4.12
842.466	3.12
843.206	3.12
843.946	4.12
844.687	2.12
845.427	3.12
846.166	2.12
846.906	3.12
847.646	0.12
848.386	4.12
849.125	3.12
849.865	2.12
850.605	6.12
851.344	5.12
852.083	0.12
852.823	4.12
853.562	1.12
854.301	2.12
855.04	2.12
855.779	2.12
856.518	3.12
857.257	1.12
857.995	3.12
858.734	-0.88
859.473	3.12
860.211	5.12
860.95	2.12
861.688	4.12
862.426	0.12
863.165	1.12
863.903	3.12
864.641	3.12
865.379	2.12
866.117	1.12
866.855	3.12
867.593	3.12
868.33	2.12
869.068	1.12
869.806	1.12
870.543	2.12
871.28	2.12
872.018	0.12
872.755	1.12
873.492	1.12
874.229	3.12
874.967	0.12
875.703	2.12
876.44	0.12
877.177	2.12
877.914	1.12
878.651	0.12
879.387	2.12
880.124	1.12
880.86	-0.88
881.597	1.12
882.333	1.12
883.069	1.12
883.806	3.12
884.542	3.12
885.278	-0.88
886.014	1.12
886.749	2.12
887.485	1.12
888.221	2.12
888.957	3.12
889.692	1.12
890.428	-0.88
891.163	1.12
891.899	-1.88
892.634	1.12
893.369	2.12
894.104	0.12
894.839	2.12
895.574	3.12
896.309	0.12
897.044	2.12
897.779	-0.88
898.514	2.12
899.248	2.12
899.983	1.12
900.717	2.12
901.452	1.12
902.186	1.12
902.92	1.12
903.654	0.12
904.389	1.12
905.123	-1.88
905.857	1.12
906.59	0.12
907.324	0.12
908.058	0.12
908.792	1.12
909.525	-0.88
910.259	1.12
910.992	-0.88
911.726	-0.88
912.459	3.12
913.192	0.12
913.925	-0.88
914.658	1.12
915.391	-1.88
916.124	1.12
916.857	-0.88
917.59	1.12
918.323	0.12
919.055	2.12
919.788	1.12
920.521	0.12
921.253	1.12
921.985	0.12
922.718	0.12
923.45	0.12
924.182	0.12
924.914	0.12
925.646	1.12
926.378	-0.88
927.11	0.12
927.841	-0.88
928.573	2.12
929.305	-0.88
930.036	-0.88
930.768	0.12
931.499	0.12
932.23	3.12
932.962	-0.88
933.693	1.12
934.424	0.12
935.155	1.12
935.886	-1.88
936.617	0.12
937.348	1.12
938.078	-0.88
938.809	-0.88
939.54	0.12
940.27	1.12
941.001	-0.88
941.731	0.12
942.461	1.12
943.191	-0.88
943.922	2.12
944.652	-1.88
945.382	0.12
946.112	1.12
946.841	1.12
947.571	2.12
948.301	-0.88
949.031	-0.88
949.76	2.12
950.49	1.12
951.219	1.12
951.948	1.12
952.678	1.12
953.407	0.12
954.136	0.12
954.865	2.12
955.594	0.12
956.323	1.12
957.052	0.12
957.78	0.12
958.509	1.12
959.238	-0.88
959.966	-0.88
960.695	0.12
961.423	1.12
962.151	2.12
962.88	-1.88
963.608	1.12
964.336	-0.88
965.064	1.12
965.792	-0.88
966.52	-1.88
967.247	-0.88
967.975	-0.88
968.703	0.12
969.43	0.12
970.158	0.12
970.885	0.12
971.613	1.12
972.34	0.12
973.067	-0.88
973.794	0.12
974.521	0.12
975.248	0.12
975.975	-0.88
976.702	-0.88
977.429	1.12
978.156	1.12
978.882	-0.88
979.609	-0.88
980.335	1.12
981.062	2.12
981.788	1.12
982.514	1.12
983.24	2.12
983.967	1.12
984.693	0.12
985.419	-1.88
986.144	-0.88
986.87	-0.88
987.596	1.12
988.322	3.12
989.047	0.12
989.773	2.12
990.498	-0.88
991.224	1.12
991.949	0.12
992.674	1.12
993.399	0.12
994.124	-0.88
994.849	0.12
995.574	-0.88
996.299	2.12
997.024	0.12
997.749	-1.88
998.473	1.12
999.198	-0.88
999.922	0.12
1000.647	0.12
1001.371	5.12
1002.095	0.12
1002.82	-0.88
1003.544	-1.88
1004.268	1.12
1004.992	1.12
1005.716	0.12
1006.439	3.12
1007.163	3.12
1007.887	1.12
1008.611	3.12
1009.334	1.12
1010.058	0.12
1010.781	2.12
1011.504	-0.88
1012.228	-1.88
1012.951	0.12
1013.674	-1.88
1014.397	-0.88
1015.12	0.12
