节点500_285_QEPB04081__233__14-59-25-976.txt的数据

Date: Wed Nov 12 14:59:25 CST 2025
User: PC
Spectrometer: QEPB0408
触发模式: 0
积分时间 (秒): 1.000000E-2
Scans to average: 1
启用暗噪声校正: true
启用非线性校正: false
滑动平均宽度: 0
X轴模式: Wavelengths
Number of Pixels in Spectrum: 1044
>>>>>Begin Spectral Data<<<<<
220.843	2.25
221.644	1.25
222.444	1.25
223.244	0.25
224.045	2.25
224.845	3.25
225.645	-0.75
226.445	3.25
227.245	2.25
228.045	1.25
228.845	5.25
229.645	4.25
230.444	2.25
231.244	1.25
232.043	3.25
232.843	1.25
233.642	3.25
234.442	3.25
235.241	4.25
236.04	5.25
236.839	2.25
237.638	5.25
238.437	4.25
239.236	4.25
240.035	3.25
240.833	5.25
241.632	3.25
242.43	4.25
243.229	6.25
244.027	3.25
244.826	6.25
245.624	4.25
246.422	5.25
247.22	5.25
248.018	6.25
248.816	6.25
249.614	5.25
250.412	6.25
251.21	8.25
252.007	7.25
252.805	8.25
253.602	7.25
254.4	8.25
255.197	8.25
255.994	8.25
256.791	7.25
257.589	6.25
258.386	7.25
259.183	7.25
259.979	11.25
260.776	10.25
261.573	9.25
262.37	13.25
263.166	11.25
263.963	10.25
264.759	12.25
265.556	12.25
266.352	13.25
267.148	13.25
267.944	14.25
268.74	12.25
269.536	15.25
270.332	15.25
271.128	15.25
271.924	17.25
272.719	14.25
273.515	16.25
274.311	17.25
275.106	16.25
275.901	17.25
276.697	17.25
277.492	16.25
278.287	17.25
279.082	17.25
279.877	18.25
280.672	19.25
281.467	16.25
282.262	14.25
283.056	19.25
283.851	19.25
284.646	19.25
285.44	19.25
286.234	20.25
287.029	22.25
287.823	20.25
288.617	19.25
289.411	20.25
290.205	20.25
290.999	18.25
291.793	19.25
292.587	17.25
293.381	17.25
294.174	15.25
294.968	15.25
295.761	17.25
296.555	15.25
297.348	15.25
298.141	15.25
298.935	20.25
299.728	15.25
300.521	14.25
301.314	11.25
302.107	16.25
302.899	11.25
303.692	13.25
304.485	13.25
305.277	12.25
306.07	11.25
306.862	11.25
307.655	13.25
308.447	11.25
309.239	11.25
310.031	11.25
310.823	12.25
311.615	8.25
312.407	7.25
313.199	7.25
313.991	10.25
314.783	8.25
315.574	8.25
316.366	5.25
317.157	9.25
317.949	7.25
318.74	10.25
319.531	6.25
320.322	7.25
321.113	7.25
321.904	8.25
322.695	7.25
323.486	7.25
324.277	8.25
325.068	6.25
325.858	9.25
326.649	9.25
327.439	8.25
328.23	7.25
329.02	8.25
329.81	9.25
330.6	9.25
331.391	6.25
332.181	7.25
332.971	5.25
333.76	9.25
334.55	5.25
335.34	5.25
336.13	6.25
336.919	7.25
337.709	6.25
338.498	4.25
339.287	6.25
340.077	5.25
340.866	6.25
341.655	7.25
342.444	5.25
343.233	7.25
344.022	5.25
344.811	6.25
345.6	7.25
346.388	5.25
347.177	8.25
347.965	6.25
348.754	6.25
349.542	5.25
350.33	3.25
351.119	7.25
351.907	7.25
352.695	5.25
353.483	7.25
354.271	4.25
355.059	6.25
355.846	7.25
356.634	4.25
357.422	3.25
358.209	6.25
358.997	6.25
359.784	3.25
360.571	3.25
361.359	4.25
362.146	3.25
362.933	6.25
363.72	3.25
364.507	6.25
365.294	3.25
366.081	5.25
366.867	4.25
367.654	5.25
368.44	5.25
369.227	5.25
370.013	7.25
370.8	4.25
371.586	5.25
372.372	6.25
373.158	5.25
373.944	6.25
374.73	3.25
375.516	3.25
376.302	5.25
377.088	5.25
377.873	4.25
378.659	4.25
379.445	6.25
380.23	4.25
381.015	6.25
381.801	4.25
382.586	4.25
383.371	3.25
384.156	5.25
384.941	8.25
385.726	6.25
386.511	5.25
387.296	6.25
388.08	4.25
388.865	5.25
389.649	5.25
390.434	4.25
391.218	4.25
392.003	4.25
392.787	6.25
393.571	7.25
394.355	5.25
395.139	6.25
395.923	5.25
396.707	9.25
397.491	6.25
398.274	7.25
399.058	6.25
399.842	7.25
400.625	7.25
401.408	6.25
402.192	6.25
402.975	8.25
403.758	6.25
404.541	6.25
405.324	8.25
406.107	7.25
406.89	6.25
407.673	7.25
408.456	4.25
409.238	9.25
410.021	9.25
410.803	6.25
411.586	9.25
412.368	7.25
413.151	6.25
413.933	7.25
414.715	7.25
415.497	8.25
416.279	9.25
417.061	10.25
417.843	9.25
418.624	11.25
419.406	8.25
420.188	8.25
420.969	10.25
421.751	11.25
422.532	9.25
423.313	9.25
424.095	12.25
424.876	12.25
425.657	13.25
426.438	13.25
427.219	10.25
428	12.25
428.78	14.25
429.561	13.25
430.342	14.25
431.122	13.25
431.903	12.25
432.683	15.25
433.464	13.25
434.244	15.25
435.024	18.25
435.804	18.25
436.584	16.25
437.364	18.25
438.144	20.25
438.924	19.25
439.704	22.25
440.483	24.25
441.263	23.25
442.042	25.25
442.822	27.25
443.601	24.25
444.38	29.25
445.16	32.25
445.939	31.25
446.718	34.25
447.497	38.25
448.276	41.25
449.054	43.25
449.833	47.25
450.612	51.25
451.391	57.25
452.169	59.25
452.948	68.25
453.726	72.25
454.504	81.25
455.282	90.25
456.061	90.25
456.839	105.25
457.617	116.25
458.395	131.25
459.172	149.25
459.95	162.25
460.728	179.25
461.506	198.25
462.283	227.25
463.061	251.25
463.838	279.25
464.615	310.25
465.393	356.25
466.17	384.25
466.947	433.25
467.724	491.25
468.501	536.25
469.278	606.25
470.055	683.25
470.831	755.25
471.608	847.25
472.385	931.25
473.161	1030.25
473.938	1159.25
474.714	1273.25
475.49	1407.25
476.266	1565.25
477.043	1747.25
477.819	1912.25
478.595	2123.25
479.371	2338.25
480.146	2585.25
480.922	2857.25
481.698	3163.25
482.473	3476.25
483.249	3863.25
484.024	4222.25
484.8	4664.25
485.575	5156.25
486.35	5657.25
487.126	6194.25
487.901	6856.25
488.676	7497.25
489.451	8237.25
490.225	9003.25
491	9862.25
491.775	10766.25
492.55	11732.25
493.324	12743.25
494.099	13751.25
494.873	14893.25
495.647	16041.25
496.422	17206.25
497.196	18402.25
497.97	19637.25
498.744	20877.25
499.518	22128.25
500.292	23220.25
501.066	24295.25
501.839	25276.25
502.613	26166.25
503.387	26970.25
504.16	27493.25
504.934	27811.25
505.707	27905.25
506.48	27919.25
507.253	27769.25
508.027	27474.25
508.8	27098.25
509.573	26616.25
510.346	25889.25
511.118	25110.25
511.891	24307.25
512.664	23418.25
513.437	22433.25
514.209	21544.25
514.982	20646.25
515.754	19709.25
516.526	18816.25
517.298	17953.25
518.071	17175.25
518.843	16517.25
519.615	15936.25
520.387	15267.25
521.159	14641.25
521.93	14049.25
522.702	13510.25
523.474	12948.25
524.245	12413.25
525.017	11831.25
525.788	11418.25
526.56	10902.25
527.331	10369.25
528.102	9920.25
528.873	9373.25
529.644	8965.25
530.415	8495.25
531.186	8088.25
531.957	7653.25
532.728	7229.25
533.498	6878.25
534.269	6445.25
535.039	6129.25
535.81	5802.25
536.58	5470.25
537.351	5138.25
538.121	4854.25
538.891	4601.25
539.661	4337.25
540.431	4108.25
541.201	3878.25
541.971	3678.25
542.741	3502.25
543.51	3324.25
544.28	3151.25
545.05	2993.25
545.819	2859.25
546.588	2700.25
547.358	2559.25
548.127	2437.25
548.896	2333.25
549.665	2195.25
550.434	2107.25
551.203	1973.25
551.972	1865.25
552.741	1767.25
553.51	1675.25
554.278	1568.25
555.047	1496.25
555.815	1412.25
556.584	1322.25
557.352	1244.25
558.121	1184.25
558.889	1112.25
559.657	1058.25
560.425	991.25
561.193	945.25
561.961	876.25
562.729	845.25
563.496	781.25
564.264	743.25
565.032	708.25
565.799	669.25
566.567	625.25
567.334	601.25
568.101	555.25
568.869	536.25
569.636	499.25
570.403	472.25
571.17	441.25
571.937	420.25
572.704	395.25
573.471	374.25
574.237	352.25
575.004	330.25
575.771	312.25
576.537	290.25
577.303	277.25
578.07	260.25
578.836	245.25
579.602	232.25
580.368	216.25
581.134	208.25
581.9	201.25
582.666	184.25
583.432	180.25
584.198	170.25
584.964	161.25
585.729	158.25
586.495	143.25
587.26	134.25
588.025	131.25
588.791	118.25
589.556	115.25
590.321	113.25
591.086	105.25
591.851	96.25
592.616	90.25
593.381	91.25
594.146	86.25
594.911	81.25
595.675	76.25
596.44	69.25
597.204	70.25
597.969	68.25
598.733	65.25
599.497	57.25
600.261	61.25
601.025	58.25
601.79	50.25
602.553	50.25
603.317	47.25
604.081	49.25
604.845	41.25
605.609	45.25
606.372	37.25
607.136	38.25
607.899	37.25
608.662	36.25
609.426	36.25
610.189	31.25
610.952	32.25
611.715	30.25
612.478	30.25
613.241	26.25
614.004	27.25
614.767	23.25
615.529	25.25
616.292	25.25
617.055	24.25
617.817	25.25
618.579	24.25
619.342	19.25
620.104	21.25
620.866	21.25
621.628	19.25
622.39	21.25
623.152	15.25
623.914	18.25
624.676	17.25
625.438	15.25
626.199	17.25
626.961	17.25
627.722	17.25
628.484	12.25
629.245	15.25
630.006	13.25
630.768	13.25
631.529	15.25
632.29	13.25
633.051	12.25
633.812	9.25
634.573	11.25
635.333	11.25
636.094	9.25
636.855	13.25
637.615	8.25
638.376	11.25
639.136	9.25
639.896	10.25
640.657	9.25
641.417	9.25
642.177	9.25
642.937	9.25
643.697	10.25
644.457	8.25
645.216	6.25
645.976	8.25
646.736	5.25
647.495	7.25
648.255	8.25
649.014	8.25
649.774	8.25
650.533	5.25
651.292	6.25
652.051	7.25
652.81	8.25
653.569	5.25
654.328	7.25
655.087	6.25
655.846	5.25
656.604	4.25
657.363	4.25
658.121	7.25
658.88	5.25
659.638	7.25
660.397	5.25
661.155	4.25
661.913	3.25
662.671	3.25
663.429	5.25
664.187	4.25
664.945	5.25
665.703	5.25
666.46	6.25
667.218	6.25
667.976	4.25
668.733	5.25
669.49	3.25
670.248	2.25
671.005	4.25
671.762	3.25
672.519	5.25
673.276	5.25
674.033	6.25
674.79	3.25
675.547	6.25
676.304	2.25
677.06	4.25
677.817	7.25
678.574	3.25
679.33	3.25
680.086	4.25
680.843	2.25
681.599	2.25
682.355	4.25
683.111	6.25
683.867	5.25
684.623	3.25
685.379	2.25
686.135	2.25
686.89	4.25
687.646	2.25
688.402	2.25
689.157	3.25
689.912	3.25
690.668	4.25
691.423	4.25
692.178	5.25
692.933	2.25
693.688	2.25
694.443	2.25
695.198	2.25
695.953	3.25
696.708	0.25
697.462	5.25
698.217	1.25
698.972	3.25
699.726	1.25
700.48	2.25
701.235	4.25
701.989	4.25
702.743	3.25
703.497	3.25
704.251	0.25
705.005	5.25
705.759	1.25
706.513	5.25
707.266	3.25
708.02	2.25
708.774	3.25
709.527	4.25
710.28	4.25
711.034	2.25
711.787	2.25
712.54	3.25
713.293	4.25
714.046	3.25
714.799	3.25
715.552	5.25
716.305	5.25
717.058	3.25
717.81	3.25
718.563	3.25
719.315	4.25
720.068	4.25
720.82	2.25
721.573	3.25
722.325	3.25
723.077	3.25
723.829	3.25
724.581	1.25
725.333	2.25
726.085	5.25
726.836	3.25
727.588	3.25
728.34	3.25
729.091	1.25
729.843	3.25
730.594	5.25
731.346	5.25
732.097	3.25
732.848	4.25
733.599	4.25
734.35	4.25
735.101	2.25
735.852	4.25
736.603	3.25
737.354	4.25
738.104	3.25
738.855	6.25
739.605	3.25
740.356	4.25
741.106	6.25
741.856	2.25
742.607	3.25
743.357	4.25
744.107	5.25
744.857	5.25
745.607	4.25
746.357	6.25
747.106	7.25
747.856	5.25
748.606	5.25
749.355	4.25
750.105	5.25
750.854	5.25
751.603	1.25
752.353	4.25
753.102	7.25
753.851	4.25
754.6	6.25
755.349	5.25
756.098	3.25
756.847	6.25
757.595	5.25
758.344	5.25
759.093	7.25
759.841	5.25
760.589	3.25
761.338	4.25
762.086	5.25
762.834	6.25
763.582	7.25
764.331	6.25
765.079	8.25
765.826	7.25
766.574	6.25
767.322	7.25
768.07	6.25
768.817	8.25
769.565	7.25
770.312	8.25
771.06	8.25
771.807	6.25
772.554	7.25
773.302	6.25
774.049	6.25
774.796	5.25
775.543	6.25
776.29	10.25
777.036	8.25
777.783	8.25
778.53	8.25
779.276	8.25
780.023	9.25
780.769	7.25
781.516	10.25
782.262	7.25
783.008	7.25
783.754	10.25
784.5	9.25
785.246	7.25
785.992	8.25
786.738	8.25
787.484	9.25
788.23	10.25
788.975	7.25
789.721	9.25
790.466	6.25
791.212	8.25
791.957	9.25
792.702	8.25
793.447	8.25
794.193	9.25
794.938	9.25
795.683	8.25
796.427	8.25
797.172	8.25
797.917	7.25
798.662	7.25
799.406	9.25
800.151	8.25
800.895	10.25
801.64	8.25
802.384	6.25
803.128	8.25
803.872	8.25
804.616	6.25
805.36	7.25
806.104	6.25
806.848	4.25
807.592	6.25
808.336	3.25
809.079	3.25
809.823	3.25
810.566	4.25
811.31	5.25
812.053	5.25
812.796	3.25
813.539	5.25
814.283	5.25
815.026	5.25
815.769	5.25
816.511	3.25
817.254	4.25
817.997	5.25
818.74	4.25
819.482	3.25
820.225	5.25
820.967	5.25
821.71	2.25
822.452	3.25
823.194	5.25
823.936	3.25
824.678	2.25
825.42	4.25
826.162	5.25
826.904	2.25
827.646	5.25
828.388	3.25
829.129	3.25
829.871	2.25
830.612	6.25
831.354	2.25
832.095	1.25
832.836	2.25
833.577	5.25
834.319	1.25
835.06	3.25
835.801	3.25
836.542	5.25
837.282	3.25
838.023	4.25
838.764	5.25
839.504	3.25
840.245	5.25
840.985	2.25
841.726	1.25
842.466	5.25
843.206	3.25
843.946	2.25
844.687	2.25
845.427	3.25
846.166	1.25
846.906	4.25
847.646	2.25
848.386	6.25
849.125	4.25
849.865	2.25
850.605	1.25
851.344	4.25
852.083	3.25
852.823	4.25
853.562	3.25
854.301	4.25
855.04	3.25
855.779	2.25
856.518	2.25
857.257	3.25
857.995	2.25
858.734	3.25
859.473	3.25
860.211	2.25
860.95	1.25
861.688	1.25
862.426	0.25
863.165	0.25
863.903	1.25
864.641	1.25
865.379	1.25
866.117	0.25
866.855	1.25
867.593	1.25
868.33	-0.75
869.068	1.25
869.806	1.25
870.543	1.25
871.28	1.25
872.018	2.25
872.755	-0.75
873.492	0.25
874.229	0.25
874.967	1.25
875.703	0.25
876.44	1.25
877.177	0.25
877.914	2.25
878.651	-1.75
879.387	0.25
880.124	2.25
880.86	2.25
881.597	3.25
882.333	1.25
883.069	1.25
883.806	0.25
884.542	1.25
885.278	2.25
886.014	1.25
886.749	1.25
887.485	-1.75
888.221	1.25
888.957	-0.75
889.692	0.25
890.428	1.25
891.163	2.25
891.899	0.25
892.634	0.25
893.369	1.25
894.104	-0.75
894.839	2.25
895.574	1.25
896.309	0.25
897.044	2.25
897.779	2.25
898.514	2.25
899.248	-0.75
899.983	0.25
900.717	-0.75
901.452	-0.75
902.186	1.25
902.92	-1.75
903.654	2.25
904.389	-1.75
905.123	1.25
905.857	1.25
906.59	1.25
907.324	1.25
908.058	0.25
908.792	0.25
909.525	0.25
910.259	1.25
910.992	-0.75
911.726	0.25
912.459	2.25
913.192	1.25
913.925	-1.75
914.658	1.25
915.391	0.25
916.124	-0.75
916.857	-0.75
917.59	-1.75
918.323	-0.75
919.055	1.25
919.788	0.25
920.521	-0.75
921.253	1.25
921.985	0.25
922.718	0.25
923.45	0.25
924.182	1.25
924.914	0.25
925.646	2.25
926.378	0.25
927.11	1.25
927.841	0.25
928.573	1.25
929.305	0.25
930.036	-0.75
930.768	1.25
931.499	-0.75
932.23	1.25
932.962	-0.75
933.693	1.25
934.424	-0.75
935.155	2.25
935.886	-1.75
936.617	0.25
937.348	-1.75
938.078	1.25
938.809	1.25
939.54	-1.75
940.27	-2.75
941.001	0.25
941.731	-2.75
942.461	1.25
943.191	-1.75
943.922	0.25
944.652	0.25
945.382	-1.75
946.112	0.25
946.841	0.25
947.571	1.25
948.301	-0.75
949.031	-2.75
949.76	0.25
950.49	0.25
951.219	3.25
951.948	0.25
952.678	-0.75
953.407	-1.75
954.136	1.25
954.865	-0.75
955.594	-0.75
956.323	0.25
957.052	-1.75
957.78	0.25
958.509	0.25
959.238	1.25
959.966	0.25
960.695	-0.75
961.423	-0.75
962.151	-1.75
962.88	0.25
963.608	0.25
964.336	-0.75
965.064	-1.75
965.792	-0.75
966.52	-1.75
967.247	1.25
967.975	-2.75
968.703	0.25
969.43	-1.75
970.158	-0.75
970.885	-0.75
971.613	3.25
972.34	-1.75
973.067	0.25
973.794	0.25
974.521	-1.75
975.248	-0.75
975.975	0.25
976.702	-0.75
977.429	-0.75
978.156	-0.75
978.882	-0.75
979.609	-0.75
980.335	0.25
981.062	-1.75
981.788	-0.75
982.514	2.25
983.24	-1.75
983.967	-1.75
984.693	0.25
985.419	-0.75
986.144	-1.75
986.87	1.25
987.596	0.25
988.322	-1.75
989.047	1.25
989.773	1.25
990.498	0.25
991.224	1.25
991.949	-0.75
992.674	-0.75
993.399	1.25
994.124	0.25
994.849	0.25
995.574	0.25
996.299	0.25
997.024	-0.75
997.749	-0.75
998.473	1.25
999.198	2.25
999.922	-2.75
1000.647	-0.75
1001.371	3.25
1002.095	-0.75
1002.82	-1.75
1003.544	-1.75
1004.268	2.25
1004.992	2.25
1005.716	0.25
1006.439	0.25
1007.163	1.25
1007.887	2.25
1008.611	0.25
1009.334	-1.75
1010.058	0.25
1010.781	-0.75
1011.504	1.25
1012.228	0.25
1012.951	-0.75
1013.674	2.25
1014.397	-0.75
1015.12	0.25
