节点500_285_QEPB04081__821__15-09-12-718.txt的数据

Date: Wed Nov 12 15:09:12 CST 2025
User: PC
Spectrometer: QEPB0408
触发模式: 0
积分时间 (秒): 1.000000E-2
Scans to average: 1
启用暗噪声校正: true
启用非线性校正: false
滑动平均宽度: 0
X轴模式: Wavelengths
Number of Pixels in Spectrum: 1044
>>>>>Begin Spectral Data<<<<<
220.843	-0.5
221.644	-0.5
222.444	-0.5
223.244	1.5
224.045	0.5
224.845	1.5
225.645	-1.5
226.445	2.5
227.245	-0.5
228.045	1.5
228.845	1.5
229.645	2.5
230.444	0.5
231.244	0.5
232.043	3.5
232.843	1.5
233.642	5.5
234.442	0.5
235.241	1.5
236.04	2.5
236.839	0.5
237.638	1.5
238.437	4.5
239.236	4.5
240.035	1.5
240.833	2.5
241.632	3.5
242.43	1.5
243.229	5.5
244.027	2.5
244.826	4.5
245.624	6.5
246.422	1.5
247.22	5.5
248.018	3.5
248.816	3.5
249.614	5.5
250.412	6.5
251.21	5.5
252.007	5.5
252.805	3.5
253.602	4.5
254.4	7.5
255.197	5.5
255.994	7.5
256.791	8.5
257.589	4.5
258.386	8.5
259.183	9.5
259.979	7.5
260.776	7.5
261.573	6.5
262.37	9.5
263.166	7.5
263.963	10.5
264.759	10.5
265.556	9.5
266.352	10.5
267.148	11.5
267.944	10.5
268.74	8.5
269.536	12.5
270.332	13.5
271.128	13.5
271.924	12.5
272.719	10.5
273.515	13.5
274.311	13.5
275.106	16.5
275.901	15.5
276.697	15.5
277.492	12.5
278.287	12.5
279.082	17.5
279.877	16.5
280.672	16.5
281.467	15.5
282.262	17.5
283.056	15.5
283.851	14.5
284.646	18.5
285.44	16.5
286.234	14.5
287.029	17.5
287.823	16.5
288.617	19.5
289.411	15.5
290.205	16.5
290.999	16.5
291.793	18.5
292.587	17.5
293.381	16.5
294.174	17.5
294.968	15.5
295.761	15.5
296.555	16.5
297.348	13.5
298.141	13.5
298.935	17.5
299.728	13.5
300.521	13.5
301.314	12.5
302.107	13.5
302.899	13.5
303.692	13.5
304.485	11.5
305.277	12.5
306.07	12.5
306.862	10.5
307.655	9.5
308.447	10.5
309.239	14.5
310.031	11.5
310.823	9.5
311.615	9.5
312.407	7.5
313.199	8.5
313.991	7.5
314.783	9.5
315.574	8.5
316.366	8.5
317.157	8.5
317.949	5.5
318.74	9.5
319.531	6.5
320.322	9.5
321.113	6.5
321.904	5.5
322.695	5.5
323.486	5.5
324.277	6.5
325.068	6.5
325.858	6.5
326.649	6.5
327.439	4.5
328.23	9.5
329.02	6.5
329.81	4.5
330.6	5.5
331.391	6.5
332.181	4.5
332.971	4.5
333.76	7.5
334.55	5.5
335.34	6.5
336.13	5.5
336.919	6.5
337.709	5.5
338.498	6.5
339.287	4.5
340.077	6.5
340.866	7.5
341.655	5.5
342.444	6.5
343.233	6.5
344.022	5.5
344.811	1.5
345.6	5.5
346.388	6.5
347.177	4.5
347.965	6.5
348.754	6.5
349.542	5.5
350.33	5.5
351.119	4.5
351.907	4.5
352.695	4.5
353.483	5.5
354.271	3.5
355.059	5.5
355.846	6.5
356.634	3.5
357.422	6.5
358.209	4.5
358.997	5.5
359.784	5.5
360.571	5.5
361.359	4.5
362.146	4.5
362.933	3.5
363.72	4.5
364.507	3.5
365.294	2.5
366.081	4.5
366.867	2.5
367.654	3.5
368.44	2.5
369.227	3.5
370.013	2.5
370.8	3.5
371.586	5.5
372.372	6.5
373.158	2.5
373.944	6.5
374.73	3.5
375.516	2.5
376.302	4.5
377.088	3.5
377.873	5.5
378.659	6.5
379.445	4.5
380.23	6.5
381.015	2.5
381.801	6.5
382.586	1.5
383.371	5.5
384.156	3.5
384.941	4.5
385.726	7.5
386.511	2.5
387.296	5.5
388.08	3.5
388.865	5.5
389.649	3.5
390.434	3.5
391.218	7.5
392.003	3.5
392.787	6.5
393.571	4.5
394.355	5.5
395.139	5.5
395.923	5.5
396.707	7.5
397.491	5.5
398.274	3.5
399.058	6.5
399.842	5.5
400.625	5.5
401.408	6.5
402.192	5.5
402.975	5.5
403.758	5.5
404.541	6.5
405.324	6.5
406.107	6.5
406.89	8.5
407.673	8.5
408.456	9.5
409.238	5.5
410.021	6.5
410.803	6.5
411.586	7.5
412.368	7.5
413.151	7.5
413.933	5.5
414.715	5.5
415.497	7.5
416.279	7.5
417.061	7.5
417.843	8.5
418.624	9.5
419.406	8.5
420.188	10.5
420.969	8.5
421.751	10.5
422.532	9.5
423.313	9.5
424.095	9.5
424.876	10.5
425.657	9.5
426.438	11.5
427.219	9.5
428	9.5
428.78	11.5
429.561	11.5
430.342	12.5
431.122	12.5
431.903	13.5
432.683	12.5
433.464	15.5
434.244	13.5
435.024	16.5
435.804	15.5
436.584	16.5
437.364	18.5
438.144	14.5
438.924	21.5
439.704	20.5
440.483	24.5
441.263	25.5
442.042	23.5
442.822	26.5
443.601	28.5
444.38	30.5
445.16	32.5
445.939	33.5
446.718	41.5
447.497	40.5
448.276	45.5
449.054	45.5
449.833	50.5
450.612	58.5
451.391	62.5
452.169	69.5
452.948	75.5
453.726	83.5
454.504	92.5
455.282	101.5
456.061	114.5
456.839	118.5
457.617	137.5
458.395	156.5
459.172	170.5
459.95	191.5
460.728	210.5
461.506	233.5
462.283	257.5
463.061	290.5
463.838	322.5
464.615	362.5
465.393	398.5
466.17	439.5
466.947	489.5
467.724	550.5
468.501	604.5
469.278	669.5
470.055	746.5
470.831	821.5
471.608	907.5
472.385	1012.5
473.161	1115.5
473.938	1220.5
474.714	1350.5
475.49	1466.5
476.266	1601.5
477.043	1761.5
477.819	1938.5
478.595	2131.5
479.371	2342.5
480.146	2546.5
480.922	2782.5
481.698	3059.5
482.473	3298.5
483.249	3636.5
484.024	3948.5
484.8	4332.5
485.575	4709.5
486.35	5157.5
487.126	5588.5
487.901	6084.5
488.676	6629.5
489.451	7203.5
490.225	7800.5
491	8460.5
491.775	9289.5
492.55	9995.5
493.324	10769.5
494.099	11517.5
494.873	12363.5
495.647	13343.5
496.422	14259.5
497.196	15279.5
497.97	16319.5
498.744	17270.5
499.518	18341.5
500.292	19353.5
501.066	20353.5
501.839	21234.5
502.613	22238.5
503.387	23016.5
504.16	23697.5
504.934	24195.5
505.707	24565.5
506.48	24793.5
507.253	25032.5
508.027	25027.5
508.8	24945.5
509.573	24886.5
510.346	24482.5
511.118	24063.5
511.891	23438.5
512.664	22841.5
513.437	22203.5
514.209	21342.5
514.982	20628.5
515.754	19847.5
516.526	19089.5
517.298	18322.5
518.071	17564.5
518.843	16871.5
519.615	16270.5
520.387	15682.5
521.159	15017.5
521.93	14431.5
522.702	13837.5
523.474	13300.5
524.245	12724.5
525.017	12219.5
525.788	11698.5
526.56	11273.5
527.331	10712.5
528.102	10294.5
528.873	9855.5
529.644	9331.5
530.415	8967.5
531.186	8549.5
531.957	8106.5
532.728	7796.5
533.498	7355.5
534.269	6983.5
535.039	6574.5
535.81	6250.5
536.58	5924.5
537.351	5604.5
538.121	5286.5
538.891	5012.5
539.661	4715.5
540.431	4452.5
541.201	4214.5
541.971	4007.5
542.741	3784.5
543.51	3617.5
544.28	3447.5
545.05	3256.5
545.819	3092.5
546.588	2956.5
547.358	2793.5
548.127	2662.5
548.896	2546.5
549.665	2400.5
550.434	2283.5
551.203	2161.5
551.972	2059.5
552.741	1948.5
553.51	1829.5
554.278	1736.5
555.047	1635.5
555.815	1549.5
556.584	1469.5
557.352	1389.5
558.121	1314.5
558.889	1242.5
559.657	1176.5
560.425	1114.5
561.193	1041.5
561.961	982.5
562.729	927.5
563.496	875.5
564.264	828.5
565.032	779.5
565.799	745.5
566.567	705.5
567.334	654.5
568.101	626.5
568.869	594.5
569.636	566.5
570.403	528.5
571.17	491.5
571.937	462.5
572.704	451.5
573.471	425.5
574.237	388.5
575.004	372.5
575.771	349.5
576.537	328.5
577.303	308.5
578.07	298.5
578.836	273.5
579.602	259.5
580.368	237.5
581.134	229.5
581.9	226.5
582.666	204.5
583.432	195.5
584.198	187.5
584.964	182.5
585.729	170.5
586.495	165.5
587.26	152.5
588.025	145.5
588.791	129.5
589.556	132.5
590.321	121.5
591.086	117.5
591.851	107.5
592.616	107.5
593.381	98.5
594.146	89.5
594.911	92.5
595.675	84.5
596.44	78.5
597.204	75.5
597.969	76.5
598.733	70.5
599.497	67.5
600.261	67.5
601.025	62.5
601.79	60.5
602.553	53.5
603.317	50.5
604.081	50.5
604.845	49.5
605.609	45.5
606.372	42.5
607.136	42.5
607.899	43.5
608.662	38.5
609.426	38.5
610.189	34.5
610.952	34.5
611.715	32.5
612.478	30.5
613.241	32.5
614.004	31.5
614.767	29.5
615.529	25.5
616.292	25.5
617.055	23.5
617.817	25.5
618.579	24.5
619.342	23.5
620.104	22.5
620.866	20.5
621.628	22.5
622.39	18.5
623.152	19.5
623.914	18.5
624.676	15.5
625.438	17.5
626.199	16.5
626.961	17.5
627.722	13.5
628.484	16.5
629.245	11.5
630.006	13.5
630.768	10.5
631.529	12.5
632.29	13.5
633.051	10.5
633.812	13.5
634.573	11.5
635.333	10.5
636.094	11.5
636.855	10.5
637.615	9.5
638.376	10.5
639.136	9.5
639.896	8.5
640.657	7.5
641.417	9.5
642.177	10.5
642.937	10.5
643.697	9.5
644.457	6.5
645.216	10.5
645.976	7.5
646.736	7.5
647.495	6.5
648.255	6.5
649.014	7.5
649.774	5.5
650.533	5.5
651.292	7.5
652.051	8.5
652.81	5.5
653.569	6.5
654.328	7.5
655.087	5.5
655.846	8.5
656.604	6.5
657.363	3.5
658.121	4.5
658.88	5.5
659.638	3.5
660.397	5.5
661.155	6.5
661.913	4.5
662.671	4.5
663.429	5.5
664.187	4.5
664.945	6.5
665.703	5.5
666.46	5.5
667.218	3.5
667.976	3.5
668.733	4.5
669.49	2.5
670.248	3.5
671.005	2.5
671.762	5.5
672.519	5.5
673.276	4.5
674.033	1.5
674.79	3.5
675.547	2.5
676.304	2.5
677.06	4.5
677.817	3.5
678.574	4.5
679.33	5.5
680.086	4.5
680.843	4.5
681.599	5.5
682.355	4.5
683.111	1.5
683.867	4.5
684.623	1.5
685.379	0.5
686.135	5.5
686.89	4.5
687.646	3.5
688.402	3.5
689.157	1.5
689.912	5.5
690.668	1.5
691.423	3.5
692.178	0.5
692.933	2.5
693.688	4.5
694.443	3.5
695.198	4.5
695.953	3.5
696.708	3.5
697.462	4.5
698.217	3.5
698.972	3.5
699.726	3.5
700.48	4.5
701.235	-1.5
701.989	5.5
702.743	4.5
703.497	3.5
704.251	3.5
705.005	2.5
705.759	2.5
706.513	2.5
707.266	3.5
708.02	1.5
708.774	3.5
709.527	4.5
710.28	1.5
711.034	2.5
711.787	2.5
712.54	3.5
713.293	4.5
714.046	1.5
714.799	3.5
715.552	4.5
716.305	3.5
717.058	2.5
717.81	2.5
718.563	3.5
719.315	2.5
720.068	4.5
720.82	1.5
721.573	1.5
722.325	2.5
723.077	0.5
723.829	1.5
724.581	1.5
725.333	3.5
726.085	2.5
726.836	3.5
727.588	4.5
728.34	0.5
729.091	3.5
729.843	2.5
730.594	4.5
731.346	5.5
732.097	1.5
732.848	5.5
733.599	2.5
734.35	4.5
735.101	4.5
735.852	4.5
736.603	5.5
737.354	1.5
738.104	4.5
738.855	3.5
739.605	6.5
740.356	2.5
741.106	2.5
741.856	1.5
742.607	3.5
743.357	2.5
744.107	4.5
744.857	3.5
745.607	3.5
746.357	3.5
747.106	4.5
747.856	2.5
748.606	4.5
749.355	5.5
750.105	4.5
750.854	3.5
751.603	2.5
752.353	6.5
753.102	3.5
753.851	3.5
754.6	5.5
755.349	5.5
756.098	5.5
756.847	3.5
757.595	4.5
758.344	4.5
759.093	7.5
759.841	6.5
760.589	3.5
761.338	2.5
762.086	4.5
762.834	6.5
763.582	3.5
764.331	7.5
765.079	3.5
765.826	5.5
766.574	3.5
767.322	5.5
768.07	6.5
768.817	5.5
769.565	4.5
770.312	8.5
771.06	5.5
771.807	6.5
772.554	6.5
773.302	7.5
774.049	5.5
774.796	6.5
775.543	7.5
776.29	7.5
777.036	6.5
777.783	5.5
778.53	8.5
779.276	9.5
780.023	5.5
780.769	7.5
781.516	5.5
782.262	6.5
783.008	7.5
783.754	6.5
784.5	7.5
785.246	6.5
785.992	8.5
786.738	7.5
787.484	7.5
788.23	7.5
788.975	5.5
789.721	8.5
790.466	6.5
791.212	9.5
791.957	6.5
792.702	7.5
793.447	6.5
794.193	7.5
794.938	8.5
795.683	4.5
796.427	8.5
797.172	5.5
797.917	4.5
798.662	6.5
799.406	5.5
800.151	6.5
800.895	7.5
801.64	5.5
802.384	6.5
803.128	6.5
803.872	6.5
804.616	2.5
805.36	4.5
806.104	4.5
806.848	4.5
807.592	7.5
808.336	5.5
809.079	5.5
809.823	6.5
810.566	6.5
811.31	3.5
812.053	5.5
812.796	3.5
813.539	0.5
814.283	4.5
815.026	4.5
815.769	7.5
816.511	3.5
817.254	4.5
817.997	3.5
818.74	2.5
819.482	5.5
820.225	2.5
820.967	4.5
821.71	1.5
822.452	3.5
823.194	3.5
823.936	2.5
824.678	2.5
825.42	1.5
826.162	5.5
826.904	2.5
827.646	2.5
828.388	2.5
829.129	5.5
829.871	2.5
830.612	2.5
831.354	3.5
832.095	3.5
832.836	4.5
833.577	4.5
834.319	2.5
835.06	3.5
835.801	1.5
836.542	3.5
837.282	3.5
838.023	1.5
838.764	3.5
839.504	2.5
840.245	1.5
840.985	2.5
841.726	3.5
842.466	2.5
843.206	0.5
843.946	1.5
844.687	1.5
845.427	3.5
846.166	2.5
846.906	1.5
847.646	4.5
848.386	1.5
849.125	2.5
849.865	-0.5
850.605	2.5
851.344	3.5
852.083	1.5
852.823	2.5
853.562	0.5
854.301	3.5
855.04	0.5
855.779	1.5
856.518	2.5
857.257	2.5
857.995	3.5
858.734	1.5
859.473	0.5
860.211	0.5
860.95	2.5
861.688	0.5
862.426	1.5
863.165	2.5
863.903	1.5
864.641	-0.5
865.379	0.5
866.117	1.5
866.855	1.5
867.593	-0.5
868.33	4.5
869.068	3.5
869.806	3.5
870.543	1.5
871.28	1.5
872.018	0.5
872.755	0.5
873.492	1.5
874.229	-0.5
874.967	1.5
875.703	-0.5
876.44	1.5
877.177	-2.5
877.914	-0.5
878.651	0.5
879.387	-1.5
880.124	0.5
880.86	1.5
881.597	1.5
882.333	-0.5
883.069	0.5
883.806	0.5
884.542	0.5
885.278	1.5
886.014	0.5
886.749	-0.5
887.485	2.5
888.221	1.5
888.957	0.5
889.692	0.5
890.428	1.5
891.163	1.5
891.899	1.5
892.634	0.5
893.369	0.5
894.104	-0.5
894.839	0.5
895.574	2.5
896.309	0.5
897.044	2.5
897.779	1.5
898.514	0.5
899.248	2.5
899.983	-2.5
900.717	1.5
901.452	-0.5
902.186	-1.5
902.92	0.5
903.654	-0.5
904.389	-0.5
905.123	0.5
905.857	0.5
906.59	-2.5
907.324	-0.5
908.058	2.5
908.792	0.5
909.525	2.5
910.259	0.5
910.992	0.5
911.726	-2.5
912.459	-1.5
913.192	-0.5
913.925	-0.5
914.658	1.5
915.391	-0.5
916.124	-0.5
916.857	1.5
917.59	-0.5
918.323	-1.5
919.055	-0.5
919.788	-2.5
920.521	-0.5
921.253	1.5
921.985	-0.5
922.718	-0.5
923.45	0.5
924.182	-1.5
924.914	0.5
925.646	-2.5
926.378	-0.5
927.11	-1.5
927.841	-2.5
928.573	1.5
929.305	0.5
930.036	-1.5
930.768	1.5
931.499	-0.5
932.23	0.5
932.962	-1.5
933.693	1.5
934.424	-0.5
935.155	1.5
935.886	1.5
936.617	1.5
937.348	-2.5
938.078	-3.5
938.809	0.5
939.54	-2.5
940.27	-1.5
941.001	1.5
941.731	-1.5
942.461	3.5
943.191	-0.5
943.922	0.5
944.652	2.5
945.382	-1.5
946.112	0.5
946.841	-2.5
947.571	0.5
948.301	-1.5
949.031	-0.5
949.76	-0.5
950.49	-1.5
951.219	1.5
951.948	-1.5
952.678	0.5
953.407	-1.5
954.136	-0.5
954.865	0.5
955.594	-0.5
956.323	0.5
957.052	-0.5
957.78	-0.5
958.509	1.5
959.238	0.5
959.966	-0.5
960.695	-0.5
961.423	-1.5
962.151	-0.5
962.88	-2.5
963.608	1.5
964.336	-2.5
965.064	1.5
965.792	-0.5
966.52	-0.5
967.247	0.5
967.975	-0.5
968.703	1.5
969.43	-0.5
970.158	2.5
970.885	-0.5
971.613	-0.5
972.34	0.5
973.067	-0.5
973.794	0.5
974.521	0.5
975.248	0.5
975.975	0.5
976.702	0.5
977.429	-1.5
978.156	-1.5
978.882	-0.5
979.609	-0.5
980.335	0.5
981.062	0.5
981.788	0.5
982.514	-1.5
983.24	-0.5
983.967	-1.5
984.693	-0.5
985.419	-0.5
986.144	-0.5
986.87	-0.5
987.596	-1.5
988.322	-1.5
989.047	-0.5
989.773	-0.5
990.498	-0.5
991.224	1.5
991.949	-0.5
992.674	1.5
993.399	-0.5
994.124	-1.5
994.849	-3.5
995.574	0.5
996.299	-1.5
997.024	-1.5
997.749	-0.5
998.473	-2.5
999.198	0.5
999.922	-0.5
1000.647	0.5
1001.371	1.5
1002.095	-1.5
1002.82	-0.5
1003.544	-1.5
1004.268	-0.5
1004.992	2.5
1005.716	0.5
1006.439	-0.5
1007.163	-0.5
1007.887	-2.5
1008.611	0.5
1009.334	-0.5
1010.058	-0.5
1010.781	-0.5
1011.504	-0.5
1012.228	-0.5
1012.951	1.5
1013.674	0.5
1014.397	-2.5
1015.12	2.5
