节点500_285_QEPB04081__45__14-56-18-397.txt的数据

Date: Wed Nov 12 14:56:18 CST 2025
User: PC
Spectrometer: QEPB0408
触发模式: 0
积分时间 (秒): 1.000000E-2
Scans to average: 1
启用暗噪声校正: true
启用非线性校正: false
滑动平均宽度: 0
X轴模式: Wavelengths
Number of Pixels in Spectrum: 1044
>>>>>Begin Spectral Data<<<<<
220.843	2.38
221.644	1.38
222.444	2.38
223.244	4.38
224.045	4.38
224.845	3.38
225.645	2.38
226.445	4.38
227.245	2.38
228.045	0.38
228.845	2.38
229.645	5.38
230.444	1.38
231.244	3.38
232.043	5.38
232.843	5.38
233.642	2.38
234.442	3.38
235.241	4.38
236.04	6.38
236.839	4.38
237.638	2.38
238.437	8.38
239.236	5.38
240.035	6.38
240.833	4.38
241.632	5.38
242.43	5.38
243.229	6.38
244.027	9.38
244.826	6.38
245.624	4.38
246.422	5.38
247.22	7.38
248.018	8.38
248.816	7.38
249.614	6.38
250.412	6.38
251.21	7.38
252.007	9.38
252.805	7.38
253.602	10.38
254.4	6.38
255.197	9.38
255.994	10.38
256.791	9.38
257.589	8.38
258.386	8.38
259.183	12.38
259.979	11.38
260.776	10.38
261.573	11.38
262.37	11.38
263.166	13.38
263.963	12.38
264.759	13.38
265.556	13.38
266.352	15.38
267.148	14.38
267.944	15.38
268.74	15.38
269.536	16.38
270.332	16.38
271.128	17.38
271.924	17.38
272.719	15.38
273.515	17.38
274.311	17.38
275.106	16.38
275.901	18.38
276.697	19.38
277.492	17.38
278.287	21.38
279.082	21.38
279.877	21.38
280.672	19.38
281.467	20.38
282.262	19.38
283.056	20.38
283.851	21.38
284.646	21.38
285.44	18.38
286.234	21.38
287.029	20.38
287.823	21.38
288.617	19.38
289.411	18.38
290.205	19.38
290.999	18.38
291.793	18.38
292.587	19.38
293.381	19.38
294.174	19.38
294.968	17.38
295.761	17.38
296.555	15.38
297.348	16.38
298.141	17.38
298.935	15.38
299.728	14.38
300.521	16.38
301.314	13.38
302.107	13.38
302.899	15.38
303.692	12.38
304.485	12.38
305.277	14.38
306.07	13.38
306.862	13.38
307.655	12.38
308.447	11.38
309.239	14.38
310.031	11.38
310.823	11.38
311.615	12.38
312.407	8.38
313.199	10.38
313.991	10.38
314.783	9.38
315.574	8.38
316.366	8.38
317.157	9.38
317.949	9.38
318.74	8.38
319.531	7.38
320.322	7.38
321.113	10.38
321.904	7.38
322.695	11.38
323.486	9.38
324.277	7.38
325.068	7.38
325.858	6.38
326.649	5.38
327.439	7.38
328.23	7.38
329.02	8.38
329.81	6.38
330.6	8.38
331.391	7.38
332.181	8.38
332.971	7.38
333.76	7.38
334.55	8.38
335.34	6.38
336.13	6.38
336.919	6.38
337.709	8.38
338.498	4.38
339.287	6.38
340.077	8.38
340.866	7.38
341.655	5.38
342.444	4.38
343.233	8.38
344.022	5.38
344.811	6.38
345.6	10.38
346.388	7.38
347.177	9.38
347.965	6.38
348.754	3.38
349.542	6.38
350.33	5.38
351.119	6.38
351.907	5.38
352.695	5.38
353.483	4.38
354.271	3.38
355.059	5.38
355.846	5.38
356.634	7.38
357.422	4.38
358.209	7.38
358.997	8.38
359.784	4.38
360.571	7.38
361.359	5.38
362.146	4.38
362.933	7.38
363.72	6.38
364.507	5.38
365.294	5.38
366.081	5.38
366.867	5.38
367.654	8.38
368.44	6.38
369.227	4.38
370.013	6.38
370.8	6.38
371.586	4.38
372.372	4.38
373.158	5.38
373.944	5.38
374.73	7.38
375.516	6.38
376.302	4.38
377.088	6.38
377.873	7.38
378.659	6.38
379.445	4.38
380.23	6.38
381.015	5.38
381.801	5.38
382.586	7.38
383.371	9.38
384.156	5.38
384.941	6.38
385.726	3.38
386.511	7.38
387.296	6.38
388.08	6.38
388.865	7.38
389.649	8.38
390.434	6.38
391.218	5.38
392.003	6.38
392.787	6.38
393.571	2.38
394.355	6.38
395.139	5.38
395.923	7.38
396.707	6.38
397.491	7.38
398.274	7.38
399.058	7.38
399.842	5.38
400.625	8.38
401.408	6.38
402.192	8.38
402.975	9.38
403.758	10.38
404.541	7.38
405.324	8.38
406.107	10.38
406.89	8.38
407.673	12.38
408.456	8.38
409.238	8.38
410.021	9.38
410.803	8.38
411.586	9.38
412.368	7.38
413.151	9.38
413.933	9.38
414.715	9.38
415.497	10.38
416.279	9.38
417.061	10.38
417.843	9.38
418.624	10.38
419.406	11.38
420.188	11.38
420.969	11.38
421.751	12.38
422.532	10.38
423.313	11.38
424.095	11.38
424.876	13.38
425.657	11.38
426.438	12.38
427.219	12.38
428	12.38
428.78	16.38
429.561	14.38
430.342	14.38
431.122	15.38
431.903	16.38
432.683	13.38
433.464	15.38
434.244	19.38
435.024	18.38
435.804	17.38
436.584	18.38
437.364	19.38
438.144	18.38
438.924	19.38
439.704	22.38
440.483	24.38
441.263	20.38
442.042	26.38
442.822	27.38
443.601	26.38
444.38	28.38
445.16	33.38
445.939	32.38
446.718	33.38
447.497	35.38
448.276	40.38
449.054	42.38
449.833	43.38
450.612	50.38
451.391	55.38
452.169	60.38
452.948	64.38
453.726	68.38
454.504	79.38
455.282	81.38
456.061	89.38
456.839	97.38
457.617	114.38
458.395	122.38
459.172	133.38
459.95	152.38
460.728	169.38
461.506	185.38
462.283	214.38
463.061	230.38
463.838	263.38
464.615	296.38
465.393	322.38
466.17	374.38
466.947	399.38
467.724	449.38
468.501	513.38
469.278	569.38
470.055	642.38
470.831	720.38
471.608	799.38
472.385	889.38
473.161	1000.38
473.938	1116.38
474.714	1235.38
475.49	1380.38
476.266	1532.38
477.043	1719.38
477.819	1887.38
478.595	2107.38
479.371	2340.38
480.146	2595.38
480.922	2866.38
481.698	3176.38
482.473	3523.38
483.249	3913.38
484.024	4345.38
484.8	4797.38
485.575	5310.38
486.35	5869.38
487.126	6502.38
487.901	7175.38
488.676	7871.38
489.451	8701.38
490.225	9564.38
491	10504.38
491.775	11511.38
492.55	12551.38
493.324	13649.38
494.099	14760.38
494.873	16038.38
495.647	17303.38
496.422	18558.38
497.196	19896.38
497.97	21192.38
498.744	22516.38
499.518	23743.38
500.292	24995.38
501.066	26037.38
501.839	26951.38
502.613	27773.38
503.387	28432.38
504.16	29001.38
504.934	29112.38
505.707	29086.38
506.48	28935.38
507.253	28630.38
508.027	28101.38
508.8	27583.38
509.573	26930.38
510.346	26094.38
511.118	25127.38
511.891	24141.38
512.664	23204.38
513.437	22223.38
514.209	21249.38
514.982	20244.38
515.754	19225.38
516.526	18378.38
517.298	17581.38
518.071	16824.38
518.843	16124.38
519.615	15502.38
520.387	14906.38
521.159	14278.38
521.93	13757.38
522.702	13183.38
523.474	12668.38
524.245	12097.38
525.017	11572.38
525.788	11074.38
526.56	10609.38
527.331	10075.38
528.102	9614.38
528.873	9099.38
529.644	8624.38
530.415	8216.38
531.186	7755.38
531.957	7373.38
532.728	6953.38
533.498	6562.38
534.269	6155.38
535.039	5859.38
535.81	5506.38
536.58	5200.38
537.351	4910.38
538.121	4621.38
538.891	4385.38
539.661	4118.38
540.431	3927.38
541.201	3715.38
541.971	3510.38
542.741	3329.38
543.51	3148.38
544.28	3001.38
545.05	2881.38
545.819	2737.38
546.588	2577.38
547.358	2462.38
548.127	2329.38
548.896	2201.38
549.665	2107.38
550.434	1978.38
551.203	1872.38
551.972	1763.38
552.741	1663.38
553.51	1584.38
554.278	1484.38
555.047	1400.38
555.815	1311.38
556.584	1251.38
557.352	1182.38
558.121	1110.38
558.889	1060.38
559.657	997.38
560.425	929.38
561.193	885.38
561.961	826.38
562.729	791.38
563.496	727.38
564.264	715.38
565.032	664.38
565.799	633.38
566.567	593.38
567.334	562.38
568.101	523.38
568.869	500.38
569.636	471.38
570.403	441.38
571.17	414.38
571.937	397.38
572.704	379.38
573.471	352.38
574.237	335.38
575.004	314.38
575.771	300.38
576.537	279.38
577.303	263.38
578.07	249.38
578.836	230.38
579.602	216.38
580.368	200.38
581.134	197.38
581.9	184.38
582.666	170.38
583.432	167.38
584.198	155.38
584.964	150.38
585.729	143.38
586.495	137.38
587.26	127.38
588.025	119.38
588.791	113.38
589.556	107.38
590.321	105.38
591.086	102.38
591.851	95.38
592.616	91.38
593.381	87.38
594.146	80.38
594.911	78.38
595.675	75.38
596.44	70.38
597.204	66.38
597.969	62.38
598.733	61.38
599.497	57.38
600.261	57.38
601.025	49.38
601.79	49.38
602.553	51.38
603.317	49.38
604.081	45.38
604.845	43.38
605.609	40.38
606.372	40.38
607.136	38.38
607.899	35.38
608.662	32.38
609.426	36.38
610.189	32.38
610.952	34.38
611.715	27.38
612.478	28.38
613.241	28.38
614.004	28.38
614.767	25.38
615.529	22.38
616.292	23.38
617.055	22.38
617.817	23.38
618.579	23.38
619.342	19.38
620.104	20.38
620.866	20.38
621.628	19.38
622.39	21.38
623.152	17.38
623.914	15.38
624.676	13.38
625.438	17.38
626.199	17.38
626.961	16.38
627.722	15.38
628.484	15.38
629.245	16.38
630.006	14.38
630.768	13.38
631.529	11.38
632.29	12.38
633.051	14.38
633.812	11.38
634.573	13.38
635.333	9.38
636.094	12.38
636.855	11.38
637.615	11.38
638.376	10.38
639.136	8.38
639.896	9.38
640.657	8.38
641.417	10.38
642.177	11.38
642.937	9.38
643.697	9.38
644.457	9.38
645.216	9.38
645.976	7.38
646.736	7.38
647.495	11.38
648.255	7.38
649.014	7.38
649.774	9.38
650.533	8.38
651.292	8.38
652.051	6.38
652.81	7.38
653.569	7.38
654.328	7.38
655.087	8.38
655.846	6.38
656.604	7.38
657.363	7.38
658.121	6.38
658.88	5.38
659.638	7.38
660.397	6.38
661.155	7.38
661.913	6.38
662.671	6.38
663.429	6.38
664.187	5.38
664.945	8.38
665.703	7.38
666.46	6.38
667.218	7.38
667.976	7.38
668.733	6.38
669.49	5.38
670.248	5.38
671.005	6.38
671.762	4.38
672.519	4.38
673.276	4.38
674.033	3.38
674.79	4.38
675.547	4.38
676.304	5.38
677.06	5.38
677.817	4.38
678.574	5.38
679.33	3.38
680.086	6.38
680.843	3.38
681.599	4.38
682.355	7.38
683.111	2.38
683.867	5.38
684.623	5.38
685.379	4.38
686.135	3.38
686.89	2.38
687.646	5.38
688.402	2.38
689.157	7.38
689.912	4.38
690.668	3.38
691.423	3.38
692.178	5.38
692.933	3.38
693.688	4.38
694.443	6.38
695.198	3.38
695.953	3.38
696.708	4.38
697.462	3.38
698.217	6.38
698.972	6.38
699.726	3.38
700.48	6.38
701.235	3.38
701.989	3.38
702.743	6.38
703.497	5.38
704.251	5.38
705.005	6.38
705.759	5.38
706.513	5.38
707.266	5.38
708.02	6.38
708.774	5.38
709.527	4.38
710.28	5.38
711.034	4.38
711.787	0.38
712.54	4.38
713.293	3.38
714.046	4.38
714.799	3.38
715.552	3.38
716.305	4.38
717.058	3.38
717.81	4.38
718.563	5.38
719.315	4.38
720.068	4.38
720.82	4.38
721.573	1.38
722.325	5.38
723.077	4.38
723.829	5.38
724.581	3.38
725.333	1.38
726.085	3.38
726.836	5.38
727.588	6.38
728.34	3.38
729.091	7.38
729.843	6.38
730.594	3.38
731.346	5.38
732.097	5.38
732.848	4.38
733.599	6.38
734.35	4.38
735.101	3.38
735.852	4.38
736.603	6.38
737.354	5.38
738.104	5.38
738.855	5.38
739.605	4.38
740.356	7.38
741.106	3.38
741.856	4.38
742.607	5.38
743.357	5.38
744.107	5.38
744.857	4.38
745.607	5.38
746.357	4.38
747.106	6.38
747.856	5.38
748.606	6.38
749.355	5.38
750.105	5.38
750.854	6.38
751.603	5.38
752.353	5.38
753.102	7.38
753.851	7.38
754.6	6.38
755.349	5.38
756.098	7.38
756.847	7.38
757.595	7.38
758.344	7.38
759.093	8.38
759.841	8.38
760.589	5.38
761.338	6.38
762.086	7.38
762.834	9.38
763.582	6.38
764.331	9.38
765.079	9.38
765.826	5.38
766.574	8.38
767.322	7.38
768.07	8.38
768.817	8.38
769.565	7.38
770.312	8.38
771.06	7.38
771.807	7.38
772.554	8.38
773.302	5.38
774.049	8.38
774.796	9.38
775.543	8.38
776.29	10.38
777.036	9.38
777.783	10.38
778.53	9.38
779.276	11.38
780.023	10.38
780.769	11.38
781.516	8.38
782.262	9.38
783.008	10.38
783.754	8.38
784.5	9.38
785.246	9.38
785.992	8.38
786.738	11.38
787.484	7.38
788.23	12.38
788.975	10.38
789.721	11.38
790.466	11.38
791.212	9.38
791.957	9.38
792.702	10.38
793.447	8.38
794.193	9.38
794.938	8.38
795.683	7.38
796.427	8.38
797.172	6.38
797.917	7.38
798.662	5.38
799.406	8.38
800.151	6.38
800.895	5.38
801.64	7.38
802.384	7.38
803.128	8.38
803.872	7.38
804.616	7.38
805.36	8.38
806.104	8.38
806.848	6.38
807.592	7.38
808.336	7.38
809.079	5.38
809.823	7.38
810.566	4.38
811.31	6.38
812.053	5.38
812.796	6.38
813.539	6.38
814.283	4.38
815.026	5.38
815.769	5.38
816.511	5.38
817.254	5.38
817.997	4.38
818.74	5.38
819.482	4.38
820.225	6.38
820.967	5.38
821.71	4.38
822.452	3.38
823.194	2.38
823.936	4.38
824.678	3.38
825.42	5.38
826.162	5.38
826.904	1.38
827.646	4.38
828.388	5.38
829.129	2.38
829.871	2.38
830.612	3.38
831.354	5.38
832.095	3.38
832.836	5.38
833.577	6.38
834.319	2.38
835.06	3.38
835.801	1.38
836.542	3.38
837.282	2.38
838.023	2.38
838.764	3.38
839.504	4.38
840.245	4.38
840.985	5.38
841.726	4.38
842.466	4.38
843.206	4.38
843.946	3.38
844.687	2.38
845.427	3.38
846.166	4.38
846.906	4.38
847.646	5.38
848.386	1.38
849.125	3.38
849.865	3.38
850.605	3.38
851.344	4.38
852.083	2.38
852.823	4.38
853.562	0.38
854.301	3.38
855.04	1.38
855.779	2.38
856.518	2.38
857.257	4.38
857.995	3.38
858.734	3.38
859.473	2.38
860.211	3.38
860.95	4.38
861.688	2.38
862.426	1.38
863.165	4.38
863.903	2.38
864.641	3.38
865.379	3.38
866.117	0.38
866.855	3.38
867.593	1.38
868.33	1.38
869.068	3.38
869.806	4.38
870.543	2.38
871.28	1.38
872.018	3.38
872.755	3.38
873.492	1.38
874.229	2.38
874.967	-0.62
875.703	2.38
876.44	1.38
877.177	1.38
877.914	3.38
878.651	1.38
879.387	3.38
880.124	-0.62
880.86	4.38
881.597	1.38
882.333	1.38
883.069	1.38
883.806	1.38
884.542	1.38
885.278	4.38
886.014	2.38
886.749	1.38
887.485	0.38
888.221	3.38
888.957	3.38
889.692	2.38
890.428	2.38
891.163	1.38
891.899	3.38
892.634	0.38
893.369	1.38
894.104	1.38
894.839	2.38
895.574	0.38
896.309	1.38
897.044	0.38
897.779	1.38
898.514	3.38
899.248	1.38
899.983	-0.62
900.717	0.38
901.452	1.38
902.186	3.38
902.92	1.38
903.654	-1.62
904.389	1.38
905.123	0.38
905.857	1.38
906.59	-0.62
907.324	1.38
908.058	-0.62
908.792	0.38
909.525	0.38
910.259	1.38
910.992	1.38
911.726	1.38
912.459	2.38
913.192	1.38
913.925	0.38
914.658	2.38
915.391	1.38
916.124	-0.62
916.857	1.38
917.59	0.38
918.323	1.38
919.055	1.38
919.788	0.38
920.521	-0.62
921.253	1.38
921.985	0.38
922.718	1.38
923.45	3.38
924.182	2.38
924.914	1.38
925.646	2.38
926.378	1.38
927.11	1.38
927.841	1.38
928.573	1.38
929.305	0.38
930.036	3.38
930.768	0.38
931.499	1.38
932.23	1.38
932.962	1.38
933.693	1.38
934.424	1.38
935.155	-0.62
935.886	1.38
936.617	2.38
937.348	-1.62
938.078	1.38
938.809	1.38
939.54	1.38
940.27	0.38
941.001	-0.62
941.731	1.38
942.461	2.38
943.191	-0.62
943.922	0.38
944.652	0.38
945.382	0.38
946.112	2.38
946.841	0.38
947.571	3.38
948.301	2.38
949.031	1.38
949.76	1.38
950.49	-0.62
951.219	0.38
951.948	-0.62
952.678	-0.62
953.407	-0.62
954.136	-1.62
954.865	1.38
955.594	-0.62
956.323	1.38
957.052	-1.62
957.78	-0.62
958.509	0.38
959.238	0.38
959.966	1.38
960.695	1.38
961.423	0.38
962.151	0.38
962.88	-1.62
963.608	2.38
964.336	2.38
965.064	-0.62
965.792	1.38
966.52	1.38
967.247	1.38
967.975	0.38
968.703	0.38
969.43	0.38
970.158	-1.62
970.885	2.38
971.613	-0.62
972.34	1.38
973.067	-0.62
973.794	0.38
974.521	1.38
975.248	-0.62
975.975	1.38
976.702	2.38
977.429	2.38
978.156	3.38
978.882	1.38
979.609	1.38
980.335	-0.62
981.062	0.38
981.788	-2.62
982.514	-0.62
983.24	1.38
983.967	1.38
984.693	1.38
985.419	0.38
986.144	0.38
986.87	0.38
987.596	-0.62
988.322	1.38
989.047	1.38
989.773	2.38
990.498	1.38
991.224	1.38
991.949	1.38
992.674	1.38
993.399	2.38
994.124	0.38
994.849	0.38
995.574	1.38
996.299	1.38
997.024	2.38
997.749	-0.62
998.473	2.38
999.198	1.38
999.922	0.38
1000.647	2.38
1001.371	3.38
1002.095	1.38
1002.82	-2.62
1003.544	-1.62
1004.268	1.38
1004.992	1.38
1005.716	2.38
1006.439	2.38
1007.163	1.38
1007.887	2.38
1008.611	-0.62
1009.334	2.38
1010.058	0.38
1010.781	4.38
1011.504	2.38
1012.228	1.38
1012.951	0.38
1013.674	0.38
1014.397	-0.62
1015.12	-0.62
