节点500_285_QEPB04081__838__15-09-29-732.txt的数据

Date: Wed Nov 12 15:09:29 CST 2025
User: PC
Spectrometer: QEPB0408
触发模式: 0
积分时间 (秒): 1.000000E-2
Scans to average: 1
启用暗噪声校正: true
启用非线性校正: false
滑动平均宽度: 0
X轴模式: Wavelengths
Number of Pixels in Spectrum: 1044
>>>>>Begin Spectral Data<<<<<
220.843	0.25
221.644	1.25
222.444	-1.75
223.244	2.25
224.045	1.25
224.845	1.25
225.645	2.25
226.445	1.25
227.245	1.25
228.045	2.25
228.845	1.25
229.645	2.25
230.444	3.25
231.244	2.25
232.043	2.25
232.843	4.25
233.642	3.25
234.442	4.25
235.241	3.25
236.04	2.25
236.839	4.25
237.638	4.25
238.437	2.25
239.236	5.25
240.035	3.25
240.833	3.25
241.632	6.25
242.43	2.25
243.229	6.25
244.027	3.25
244.826	6.25
245.624	4.25
246.422	6.25
247.22	1.25
248.018	3.25
248.816	6.25
249.614	4.25
250.412	7.25
251.21	4.25
252.007	5.25
252.805	4.25
253.602	7.25
254.4	6.25
255.197	6.25
255.994	7.25
256.791	4.25
257.589	9.25
258.386	5.25
259.183	9.25
259.979	8.25
260.776	11.25
261.573	11.25
262.37	9.25
263.166	12.25
263.963	11.25
264.759	11.25
265.556	12.25
266.352	9.25
267.148	9.25
267.944	10.25
268.74	10.25
269.536	14.25
270.332	14.25
271.128	13.25
271.924	13.25
272.719	15.25
273.515	13.25
274.311	16.25
275.106	14.25
275.901	13.25
276.697	16.25
277.492	14.25
278.287	16.25
279.082	15.25
279.877	14.25
280.672	17.25
281.467	15.25
282.262	16.25
283.056	17.25
283.851	17.25
284.646	16.25
285.44	16.25
286.234	16.25
287.029	16.25
287.823	17.25
288.617	17.25
289.411	21.25
290.205	16.25
290.999	16.25
291.793	16.25
292.587	15.25
293.381	18.25
294.174	18.25
294.968	18.25
295.761	11.25
296.555	14.25
297.348	14.25
298.141	13.25
298.935	15.25
299.728	15.25
300.521	11.25
301.314	13.25
302.107	10.25
302.899	12.25
303.692	13.25
304.485	12.25
305.277	10.25
306.07	13.25
306.862	12.25
307.655	12.25
308.447	13.25
309.239	10.25
310.031	12.25
310.823	12.25
311.615	8.25
312.407	9.25
313.199	9.25
313.991	10.25
314.783	5.25
315.574	7.25
316.366	8.25
317.157	8.25
317.949	10.25
318.74	9.25
319.531	9.25
320.322	7.25
321.113	7.25
321.904	8.25
322.695	6.25
323.486	7.25
324.277	5.25
325.068	8.25
325.858	8.25
326.649	9.25
327.439	7.25
328.23	8.25
329.02	5.25
329.81	6.25
330.6	9.25
331.391	7.25
332.181	7.25
332.971	6.25
333.76	4.25
334.55	5.25
335.34	6.25
336.13	7.25
336.919	6.25
337.709	6.25
338.498	7.25
339.287	5.25
340.077	6.25
340.866	7.25
341.655	6.25
342.444	5.25
343.233	5.25
344.022	7.25
344.811	8.25
345.6	7.25
346.388	8.25
347.177	5.25
347.965	5.25
348.754	6.25
349.542	5.25
350.33	5.25
351.119	8.25
351.907	4.25
352.695	6.25
353.483	5.25
354.271	5.25
355.059	6.25
355.846	7.25
356.634	7.25
357.422	6.25
358.209	6.25
358.997	5.25
359.784	4.25
360.571	6.25
361.359	5.25
362.146	7.25
362.933	6.25
363.72	5.25
364.507	7.25
365.294	5.25
366.081	3.25
366.867	4.25
367.654	5.25
368.44	6.25
369.227	5.25
370.013	4.25
370.8	2.25
371.586	5.25
372.372	3.25
373.158	5.25
373.944	6.25
374.73	4.25
375.516	5.25
376.302	4.25
377.088	4.25
377.873	4.25
378.659	6.25
379.445	6.25
380.23	4.25
381.015	7.25
381.801	4.25
382.586	5.25
383.371	2.25
384.156	5.25
384.941	5.25
385.726	6.25
386.511	6.25
387.296	6.25
388.08	5.25
388.865	5.25
389.649	8.25
390.434	7.25
391.218	4.25
392.003	7.25
392.787	7.25
393.571	7.25
394.355	5.25
395.139	5.25
395.923	4.25
396.707	5.25
397.491	5.25
398.274	7.25
399.058	4.25
399.842	6.25
400.625	6.25
401.408	5.25
402.192	6.25
402.975	8.25
403.758	8.25
404.541	6.25
405.324	7.25
406.107	5.25
406.89	8.25
407.673	7.25
408.456	6.25
409.238	9.25
410.021	5.25
410.803	9.25
411.586	7.25
412.368	10.25
413.151	6.25
413.933	9.25
414.715	9.25
415.497	7.25
416.279	9.25
417.061	10.25
417.843	10.25
418.624	9.25
419.406	9.25
420.188	12.25
420.969	11.25
421.751	11.25
422.532	10.25
423.313	12.25
424.095	10.25
424.876	11.25
425.657	12.25
426.438	13.25
427.219	10.25
428	11.25
428.78	13.25
429.561	11.25
430.342	11.25
431.122	15.25
431.903	13.25
432.683	16.25
433.464	14.25
434.244	16.25
435.024	19.25
435.804	14.25
436.584	17.25
437.364	18.25
438.144	19.25
438.924	18.25
439.704	23.25
440.483	26.25
441.263	24.25
442.042	25.25
442.822	29.25
443.601	28.25
444.38	30.25
445.16	30.25
445.939	37.25
446.718	38.25
447.497	41.25
448.276	48.25
449.054	50.25
449.833	54.25
450.612	58.25
451.391	65.25
452.169	67.25
452.948	78.25
453.726	83.25
454.504	94.25
455.282	107.25
456.061	110.25
456.839	124.25
457.617	142.25
458.395	154.25
459.172	173.25
459.95	193.25
460.728	206.25
461.506	236.25
462.283	265.25
463.061	292.25
463.838	328.25
464.615	356.25
465.393	397.25
466.17	446.25
466.947	494.25
467.724	550.25
468.501	609.25
469.278	678.25
470.055	731.25
470.831	814.25
471.608	914.25
472.385	1002.25
473.161	1101.25
473.938	1222.25
474.714	1320.25
475.49	1470.25
476.266	1609.25
477.043	1762.25
477.819	1921.25
478.595	2111.25
479.371	2317.25
480.146	2535.25
480.922	2780.25
481.698	3012.25
482.473	3325.25
483.249	3627.25
484.024	3967.25
484.8	4322.25
485.575	4655.25
486.35	5122.25
487.126	5570.25
487.901	6048.25
488.676	6580.25
489.451	7153.25
490.225	7784.25
491	8434.25
491.775	9146.25
492.55	9890.25
493.324	10685.25
494.099	11492.25
494.873	12287.25
495.647	13218.25
496.422	14180.25
497.196	15120.25
497.97	16198.25
498.744	17229.25
499.518	18234.25
500.292	19236.25
501.066	20196.25
501.839	21168.25
502.613	22017.25
503.387	22872.25
504.16	23529.25
504.934	24056.25
505.707	24412.25
506.48	24629.25
507.253	24883.25
508.027	24873.25
508.8	24894.25
509.573	24689.25
510.346	24435.25
511.118	23949.25
511.891	23421.25
512.664	22761.25
513.437	22220.25
514.209	21391.25
514.982	20690.25
515.754	19819.25
516.526	19067.25
517.298	18348.25
518.071	17613.25
518.843	16917.25
519.615	16265.25
520.387	15649.25
521.159	15051.25
521.93	14418.25
522.702	13873.25
523.474	13291.25
524.245	12694.25
525.017	12185.25
525.788	11717.25
526.56	11269.25
527.331	10725.25
528.102	10280.25
528.873	9850.25
529.644	9381.25
530.415	8966.25
531.186	8541.25
531.957	8141.25
532.728	7737.25
533.498	7373.25
534.269	6987.25
535.039	6593.25
535.81	6242.25
536.58	5961.25
537.351	5580.25
538.121	5281.25
538.891	5025.25
539.661	4764.25
540.431	4482.25
541.201	4239.25
541.971	4009.25
542.741	3802.25
543.51	3603.25
544.28	3453.25
545.05	3268.25
545.819	3112.25
546.588	2936.25
547.358	2794.25
548.127	2679.25
548.896	2535.25
549.665	2405.25
550.434	2305.25
551.203	2168.25
551.972	2065.25
552.741	1958.25
553.51	1853.25
554.278	1730.25
555.047	1629.25
555.815	1555.25
556.584	1470.25
557.352	1403.25
558.121	1313.25
558.889	1258.25
559.657	1166.25
560.425	1119.25
561.193	1045.25
561.961	980.25
562.729	935.25
563.496	890.25
564.264	833.25
565.032	797.25
565.799	747.25
566.567	715.25
567.334	655.25
568.101	635.25
568.869	593.25
569.636	560.25
570.403	530.25
571.17	488.25
571.937	471.25
572.704	440.25
573.471	424.25
574.237	391.25
575.004	369.25
575.771	348.25
576.537	327.25
577.303	307.25
578.07	292.25
578.836	282.25
579.602	260.25
580.368	245.25
581.134	237.25
581.9	224.25
582.666	208.25
583.432	202.25
584.198	188.25
584.964	179.25
585.729	169.25
586.495	159.25
587.26	153.25
588.025	143.25
588.791	140.25
589.556	126.25
590.321	120.25
591.086	116.25
591.851	111.25
592.616	104.25
593.381	101.25
594.146	91.25
594.911	90.25
595.675	87.25
596.44	84.25
597.204	80.25
597.969	70.25
598.733	70.25
599.497	70.25
600.261	63.25
601.025	63.25
601.79	57.25
602.553	58.25
603.317	59.25
604.081	53.25
604.845	48.25
605.609	44.25
606.372	45.25
607.136	43.25
607.899	44.25
608.662	41.25
609.426	38.25
610.189	38.25
610.952	34.25
611.715	35.25
612.478	31.25
613.241	31.25
614.004	27.25
614.767	29.25
615.529	28.25
616.292	27.25
617.055	28.25
617.817	25.25
618.579	23.25
619.342	24.25
620.104	21.25
620.866	21.25
621.628	21.25
622.39	17.25
623.152	20.25
623.914	20.25
624.676	18.25
625.438	16.25
626.199	18.25
626.961	16.25
627.722	17.25
628.484	16.25
629.245	14.25
630.006	16.25
630.768	14.25
631.529	14.25
632.29	12.25
633.051	13.25
633.812	12.25
634.573	14.25
635.333	14.25
636.094	10.25
636.855	11.25
637.615	13.25
638.376	9.25
639.136	11.25
639.896	11.25
640.657	10.25
641.417	9.25
642.177	11.25
642.937	9.25
643.697	7.25
644.457	7.25
645.216	9.25
645.976	9.25
646.736	8.25
647.495	7.25
648.255	7.25
649.014	6.25
649.774	7.25
650.533	6.25
651.292	8.25
652.051	4.25
652.81	7.25
653.569	6.25
654.328	8.25
655.087	6.25
655.846	4.25
656.604	7.25
657.363	7.25
658.121	4.25
658.88	7.25
659.638	5.25
660.397	5.25
661.155	3.25
661.913	6.25
662.671	6.25
663.429	6.25
664.187	4.25
664.945	7.25
665.703	6.25
666.46	4.25
667.218	6.25
667.976	5.25
668.733	4.25
669.49	5.25
670.248	5.25
671.005	4.25
671.762	4.25
672.519	5.25
673.276	3.25
674.033	5.25
674.79	5.25
675.547	2.25
676.304	2.25
677.06	5.25
677.817	2.25
678.574	5.25
679.33	5.25
680.086	6.25
680.843	3.25
681.599	4.25
682.355	3.25
683.111	4.25
683.867	3.25
684.623	3.25
685.379	4.25
686.135	3.25
686.89	3.25
687.646	4.25
688.402	3.25
689.157	6.25
689.912	5.25
690.668	5.25
691.423	3.25
692.178	1.25
692.933	4.25
693.688	5.25
694.443	4.25
695.198	2.25
695.953	6.25
696.708	4.25
697.462	2.25
698.217	4.25
698.972	3.25
699.726	4.25
700.48	2.25
701.235	3.25
701.989	2.25
702.743	3.25
703.497	5.25
704.251	2.25
705.005	4.25
705.759	1.25
706.513	2.25
707.266	2.25
708.02	3.25
708.774	3.25
709.527	2.25
710.28	4.25
711.034	3.25
711.787	3.25
712.54	2.25
713.293	3.25
714.046	2.25
714.799	3.25
715.552	3.25
716.305	4.25
717.058	4.25
717.81	3.25
718.563	4.25
719.315	6.25
720.068	5.25
720.82	6.25
721.573	2.25
722.325	2.25
723.077	2.25
723.829	3.25
724.581	3.25
725.333	4.25
726.085	3.25
726.836	2.25
727.588	2.25
728.34	5.25
729.091	5.25
729.843	6.25
730.594	5.25
731.346	3.25
732.097	5.25
732.848	4.25
733.599	4.25
734.35	4.25
735.101	3.25
735.852	2.25
736.603	5.25
737.354	3.25
738.104	5.25
738.855	6.25
739.605	5.25
740.356	6.25
741.106	4.25
741.856	4.25
742.607	4.25
743.357	6.25
744.107	4.25
744.857	5.25
745.607	5.25
746.357	5.25
747.106	4.25
747.856	5.25
748.606	4.25
749.355	4.25
750.105	3.25
750.854	4.25
751.603	5.25
752.353	4.25
753.102	7.25
753.851	3.25
754.6	4.25
755.349	6.25
756.098	6.25
756.847	6.25
757.595	5.25
758.344	5.25
759.093	4.25
759.841	7.25
760.589	7.25
761.338	5.25
762.086	6.25
762.834	5.25
763.582	6.25
764.331	5.25
765.079	6.25
765.826	4.25
766.574	6.25
767.322	6.25
768.07	5.25
768.817	7.25
769.565	4.25
770.312	7.25
771.06	8.25
771.807	7.25
772.554	9.25
773.302	7.25
774.049	6.25
774.796	7.25
775.543	7.25
776.29	7.25
777.036	6.25
777.783	8.25
778.53	8.25
779.276	7.25
780.023	6.25
780.769	6.25
781.516	7.25
782.262	7.25
783.008	6.25
783.754	7.25
784.5	9.25
785.246	11.25
785.992	6.25
786.738	7.25
787.484	7.25
788.23	9.25
788.975	8.25
789.721	7.25
790.466	7.25
791.212	9.25
791.957	8.25
792.702	7.25
793.447	7.25
794.193	7.25
794.938	7.25
795.683	8.25
796.427	5.25
797.172	8.25
797.917	5.25
798.662	4.25
799.406	7.25
800.151	4.25
800.895	6.25
801.64	6.25
802.384	8.25
803.128	3.25
803.872	7.25
804.616	5.25
805.36	8.25
806.104	4.25
806.848	7.25
807.592	5.25
808.336	7.25
809.079	7.25
809.823	7.25
810.566	6.25
811.31	5.25
812.053	5.25
812.796	3.25
813.539	5.25
814.283	5.25
815.026	4.25
815.769	5.25
816.511	5.25
817.254	5.25
817.997	8.25
818.74	6.25
819.482	3.25
820.225	6.25
820.967	4.25
821.71	3.25
822.452	2.25
823.194	5.25
823.936	3.25
824.678	3.25
825.42	6.25
826.162	4.25
826.904	5.25
827.646	5.25
828.388	5.25
829.129	3.25
829.871	0.25
830.612	4.25
831.354	4.25
832.095	4.25
832.836	1.25
833.577	3.25
834.319	1.25
835.06	3.25
835.801	1.25
836.542	2.25
837.282	4.25
838.023	2.25
838.764	2.25
839.504	3.25
840.245	5.25
840.985	3.25
841.726	5.25
842.466	1.25
843.206	3.25
843.946	4.25
844.687	2.25
845.427	3.25
846.166	7.25
846.906	2.25
847.646	1.25
848.386	2.25
849.125	4.25
849.865	5.25
850.605	2.25
851.344	5.25
852.083	3.25
852.823	1.25
853.562	3.25
854.301	4.25
855.04	3.25
855.779	3.25
856.518	2.25
857.257	1.25
857.995	2.25
858.734	0.25
859.473	2.25
860.211	1.25
860.95	0.25
861.688	3.25
862.426	2.25
863.165	2.25
863.903	1.25
864.641	2.25
865.379	1.25
866.117	3.25
866.855	1.25
867.593	0.25
868.33	3.25
869.068	0.25
869.806	3.25
870.543	3.25
871.28	2.25
872.018	2.25
872.755	0.25
873.492	2.25
874.229	2.25
874.967	1.25
875.703	2.25
876.44	-1.75
877.177	1.25
877.914	1.25
878.651	1.25
879.387	3.25
880.124	2.25
880.86	2.25
881.597	2.25
882.333	2.25
883.069	1.25
883.806	-0.75
884.542	3.25
885.278	-2.75
886.014	0.25
886.749	3.25
887.485	2.25
888.221	0.25
888.957	0.25
889.692	1.25
890.428	2.25
891.163	0.25
891.899	1.25
892.634	1.25
893.369	2.25
894.104	2.25
894.839	3.25
895.574	1.25
896.309	2.25
897.044	1.25
897.779	3.25
898.514	0.25
899.248	1.25
899.983	3.25
900.717	0.25
901.452	-0.75
902.186	0.25
902.92	0.25
903.654	-1.75
904.389	0.25
905.123	2.25
905.857	0.25
906.59	1.25
907.324	0.25
908.058	0.25
908.792	0.25
909.525	0.25
910.259	0.25
910.992	-1.75
911.726	1.25
912.459	2.25
913.192	1.25
913.925	1.25
914.658	2.25
915.391	3.25
916.124	2.25
916.857	1.25
917.59	0.25
918.323	0.25
919.055	1.25
919.788	-0.75
920.521	2.25
921.253	0.25
921.985	0.25
922.718	2.25
923.45	0.25
924.182	1.25
924.914	-2.75
925.646	3.25
926.378	-1.75
927.11	-1.75
927.841	2.25
928.573	0.25
929.305	-1.75
930.036	2.25
930.768	1.25
931.499	1.25
932.23	-1.75
932.962	2.25
933.693	-1.75
934.424	-1.75
935.155	1.25
935.886	1.25
936.617	0.25
937.348	0.25
938.078	0.25
938.809	-0.75
939.54	0.25
940.27	-0.75
941.001	1.25
941.731	-0.75
942.461	1.25
943.191	-0.75
943.922	-1.75
944.652	0.25
945.382	1.25
946.112	-0.75
946.841	1.25
947.571	-0.75
948.301	0.25
949.031	1.25
949.76	1.25
950.49	-1.75
951.219	0.25
951.948	1.25
952.678	-0.75
953.407	2.25
954.136	0.25
954.865	0.25
955.594	0.25
956.323	-1.75
957.052	0.25
957.78	0.25
958.509	-0.75
959.238	-0.75
959.966	0.25
960.695	2.25
961.423	0.25
962.151	1.25
962.88	1.25
963.608	2.25
964.336	-0.75
965.064	0.25
965.792	-1.75
966.52	-0.75
967.247	3.25
967.975	0.25
968.703	2.25
969.43	0.25
970.158	-0.75
970.885	-0.75
971.613	0.25
972.34	1.25
973.067	0.25
973.794	0.25
974.521	0.25
975.248	2.25
975.975	1.25
976.702	0.25
977.429	0.25
978.156	1.25
978.882	0.25
979.609	0.25
980.335	0.25
981.062	1.25
981.788	-0.75
982.514	2.25
983.24	1.25
983.967	0.25
984.693	0.25
985.419	0.25
986.144	2.25
986.87	0.25
987.596	0.25
988.322	-0.75
989.047	2.25
989.773	2.25
990.498	-0.75
991.224	0.25
991.949	0.25
992.674	1.25
993.399	-3.75
994.124	1.25
994.849	-0.75
995.574	0.25
996.299	2.25
997.024	1.25
997.749	-1.75
998.473	0.25
999.198	-2.75
999.922	1.25
1000.647	-1.75
1001.371	3.25
1002.095	-0.75
1002.82	-0.75
1003.544	-1.75
1004.268	3.25
1004.992	1.25
1005.716	2.25
1006.439	1.25
1007.163	3.25
1007.887	2.25
1008.611	-1.75
1009.334	1.25
1010.058	1.25
1010.781	1.25
1011.504	1.25
1012.228	2.25
1012.951	-1.75
1013.674	0.25
1014.397	1.25
1015.12	0.25
