节点500_285_QEPB04081__25__14-55-59-444.txt的数据

Date: Wed Nov 12 14:55:59 CST 2025
User: PC
Spectrometer: QEPB0408
触发模式: 0
积分时间 (秒): 1.000000E-2
Scans to average: 1
启用暗噪声校正: true
启用非线性校正: false
滑动平均宽度: 0
X轴模式: Wavelengths
Number of Pixels in Spectrum: 1044
>>>>>Begin Spectral Data<<<<<
220.843	3.88
221.644	2.88
222.444	2.88
223.244	2.88
224.045	0.88
224.845	1.88
225.645	3.88
226.445	3.88
227.245	1.88
228.045	2.88
228.845	1.88
229.645	0.88
230.444	2.88
231.244	3.88
232.043	3.88
232.843	3.88
233.642	2.88
234.442	2.88
235.241	5.88
236.04	2.88
236.839	1.88
237.638	3.88
238.437	3.88
239.236	4.88
240.035	4.88
240.833	5.88
241.632	4.88
242.43	3.88
243.229	6.88
244.027	4.88
244.826	3.88
245.624	5.88
246.422	5.88
247.22	7.88
248.018	4.88
248.816	6.88
249.614	5.88
250.412	7.88
251.21	5.88
252.007	6.88
252.805	5.88
253.602	6.88
254.4	9.88
255.197	8.88
255.994	10.88
256.791	9.88
257.589	8.88
258.386	9.88
259.183	13.88
259.979	11.88
260.776	11.88
261.573	6.88
262.37	11.88
263.166	12.88
263.963	14.88
264.759	11.88
265.556	12.88
266.352	15.88
267.148	12.88
267.944	14.88
268.74	15.88
269.536	16.88
270.332	16.88
271.128	18.88
271.924	16.88
272.719	16.88
273.515	16.88
274.311	15.88
275.106	18.88
275.901	18.88
276.697	17.88
277.492	17.88
278.287	19.88
279.082	20.88
279.877	20.88
280.672	18.88
281.467	19.88
282.262	18.88
283.056	19.88
283.851	20.88
284.646	18.88
285.44	18.88
286.234	18.88
287.029	23.88
287.823	18.88
288.617	18.88
289.411	19.88
290.205	19.88
290.999	19.88
291.793	18.88
292.587	17.88
293.381	18.88
294.174	16.88
294.968	17.88
295.761	15.88
296.555	19.88
297.348	14.88
298.141	13.88
298.935	16.88
299.728	14.88
300.521	14.88
301.314	14.88
302.107	12.88
302.899	10.88
303.692	14.88
304.485	12.88
305.277	12.88
306.07	12.88
306.862	13.88
307.655	14.88
308.447	11.88
309.239	11.88
310.031	12.88
310.823	10.88
311.615	13.88
312.407	7.88
313.199	9.88
313.991	7.88
314.783	9.88
315.574	6.88
316.366	8.88
317.157	9.88
317.949	9.88
318.74	9.88
319.531	8.88
320.322	9.88
321.113	6.88
321.904	7.88
322.695	7.88
323.486	5.88
324.277	7.88
325.068	7.88
325.858	6.88
326.649	7.88
327.439	8.88
328.23	5.88
329.02	5.88
329.81	8.88
330.6	6.88
331.391	4.88
332.181	4.88
332.971	6.88
333.76	6.88
334.55	5.88
335.34	5.88
336.13	8.88
336.919	5.88
337.709	7.88
338.498	6.88
339.287	4.88
340.077	7.88
340.866	9.88
341.655	4.88
342.444	2.88
343.233	5.88
344.022	5.88
344.811	6.88
345.6	5.88
346.388	4.88
347.177	6.88
347.965	7.88
348.754	6.88
349.542	6.88
350.33	7.88
351.119	5.88
351.907	5.88
352.695	2.88
353.483	9.88
354.271	4.88
355.059	5.88
355.846	4.88
356.634	4.88
357.422	6.88
358.209	3.88
358.997	5.88
359.784	5.88
360.571	5.88
361.359	7.88
362.146	5.88
362.933	4.88
363.72	5.88
364.507	4.88
365.294	5.88
366.081	4.88
366.867	4.88
367.654	5.88
368.44	5.88
369.227	5.88
370.013	4.88
370.8	5.88
371.586	4.88
372.372	6.88
373.158	4.88
373.944	5.88
374.73	4.88
375.516	2.88
376.302	6.88
377.088	6.88
377.873	5.88
378.659	5.88
379.445	6.88
380.23	6.88
381.015	6.88
381.801	6.88
382.586	4.88
383.371	4.88
384.156	5.88
384.941	4.88
385.726	4.88
386.511	5.88
387.296	6.88
388.08	6.88
388.865	4.88
389.649	5.88
390.434	6.88
391.218	5.88
392.003	6.88
392.787	7.88
393.571	4.88
394.355	3.88
395.139	6.88
395.923	5.88
396.707	6.88
397.491	6.88
398.274	5.88
399.058	6.88
399.842	7.88
400.625	5.88
401.408	8.88
402.192	5.88
402.975	6.88
403.758	7.88
404.541	7.88
405.324	7.88
406.107	7.88
406.89	8.88
407.673	9.88
408.456	6.88
409.238	7.88
410.021	8.88
410.803	8.88
411.586	7.88
412.368	9.88
413.151	7.88
413.933	10.88
414.715	9.88
415.497	8.88
416.279	8.88
417.061	9.88
417.843	10.88
418.624	10.88
419.406	11.88
420.188	10.88
420.969	10.88
421.751	11.88
422.532	10.88
423.313	11.88
424.095	12.88
424.876	13.88
425.657	10.88
426.438	12.88
427.219	12.88
428	13.88
428.78	11.88
429.561	11.88
430.342	12.88
431.122	15.88
431.903	13.88
432.683	17.88
433.464	15.88
434.244	15.88
435.024	16.88
435.804	17.88
436.584	19.88
437.364	19.88
438.144	18.88
438.924	20.88
439.704	22.88
440.483	23.88
441.263	24.88
442.042	23.88
442.822	24.88
443.601	27.88
444.38	28.88
445.16	28.88
445.939	32.88
446.718	35.88
447.497	34.88
448.276	41.88
449.054	41.88
449.833	46.88
450.612	49.88
451.391	55.88
452.169	59.88
452.948	62.88
453.726	71.88
454.504	77.88
455.282	84.88
456.061	86.88
456.839	99.88
457.617	110.88
458.395	118.88
459.172	140.88
459.95	150.88
460.728	169.88
461.506	188.88
462.283	207.88
463.061	236.88
463.838	264.88
464.615	296.88
465.393	331.88
466.17	366.88
466.947	415.88
467.724	466.88
468.501	518.88
469.278	576.88
470.055	643.88
470.831	721.88
471.608	812.88
472.385	899.88
473.161	1013.88
473.938	1111.88
474.714	1257.88
475.49	1386.88
476.266	1534.88
477.043	1728.88
477.819	1931.88
478.595	2132.88
479.371	2349.88
480.146	2611.88
480.922	2892.88
481.698	3213.88
482.473	3580.88
483.249	3958.88
484.024	4376.88
484.8	4845.88
485.575	5353.88
486.35	5934.88
487.126	6542.88
487.901	7252.88
488.676	7996.88
489.451	8815.88
490.225	9680.88
491	10608.88
491.775	11657.88
492.55	12718.88
493.324	13868.88
494.099	14944.88
494.873	16198.88
495.647	17422.88
496.422	18766.88
497.196	20115.88
497.97	21504.88
498.744	22745.88
499.518	24052.88
500.292	25212.88
501.066	26324.88
501.839	27195.88
502.613	28150.88
503.387	28803.88
504.16	29318.88
504.934	29544.88
505.707	29391.88
506.48	29291.88
507.253	28918.88
508.027	28486.88
508.8	27868.88
509.573	27146.88
510.346	26332.88
511.118	25367.88
511.891	24429.88
512.664	23423.88
513.437	22417.88
514.209	21383.88
514.982	20473.88
515.754	19491.88
516.526	18572.88
517.298	17732.88
518.071	16983.88
518.843	16334.88
519.615	15666.88
520.387	15090.88
521.159	14456.88
521.93	13901.88
522.702	13367.88
523.474	12815.88
524.245	12257.88
525.017	11660.88
525.788	11269.88
526.56	10728.88
527.331	10150.88
528.102	9667.88
528.873	9207.88
529.644	8744.88
530.415	8296.88
531.186	7886.88
531.957	7413.88
532.728	7024.88
533.498	6635.88
534.269	6223.88
535.039	5891.88
535.81	5588.88
536.58	5251.88
537.351	4932.88
538.121	4673.88
538.891	4415.88
539.661	4177.88
540.431	3948.88
541.201	3728.88
541.971	3524.88
542.741	3356.88
543.51	3172.88
544.28	3052.88
545.05	2906.88
545.819	2765.88
546.588	2610.88
547.358	2478.88
548.127	2352.88
548.896	2228.88
549.665	2122.88
550.434	1989.88
551.203	1894.88
551.972	1796.88
552.741	1688.88
553.51	1585.88
554.278	1506.88
555.047	1429.88
555.815	1341.88
556.584	1257.88
557.352	1182.88
558.121	1119.88
558.889	1057.88
559.657	1008.88
560.425	940.88
561.193	876.88
561.961	838.88
562.729	792.88
563.496	754.88
564.264	708.88
565.032	665.88
565.799	629.88
566.567	595.88
567.334	566.88
568.101	530.88
568.869	505.88
569.636	475.88
570.403	445.88
571.17	422.88
571.937	400.88
572.704	381.88
573.471	355.88
574.237	333.88
575.004	311.88
575.771	295.88
576.537	278.88
577.303	266.88
578.07	244.88
578.836	228.88
579.602	221.88
580.368	209.88
581.134	200.88
581.9	184.88
582.666	180.88
583.432	164.88
584.198	161.88
584.964	150.88
585.729	141.88
586.495	137.88
587.26	127.88
588.025	121.88
588.791	119.88
589.556	105.88
590.321	104.88
591.086	99.88
591.851	92.88
592.616	89.88
593.381	83.88
594.146	79.88
594.911	75.88
595.675	78.88
596.44	70.88
597.204	68.88
597.969	63.88
598.733	64.88
599.497	59.88
600.261	50.88
601.025	55.88
601.79	49.88
602.553	48.88
603.317	45.88
604.081	44.88
604.845	43.88
605.609	42.88
606.372	41.88
607.136	38.88
607.899	35.88
608.662	32.88
609.426	34.88
610.189	31.88
610.952	29.88
611.715	31.88
612.478	28.88
613.241	28.88
614.004	27.88
614.767	24.88
615.529	26.88
616.292	24.88
617.055	21.88
617.817	23.88
618.579	20.88
619.342	21.88
620.104	19.88
620.866	22.88
621.628	16.88
622.39	16.88
623.152	15.88
623.914	17.88
624.676	17.88
625.438	17.88
626.199	14.88
626.961	14.88
627.722	15.88
628.484	15.88
629.245	11.88
630.006	14.88
630.768	13.88
631.529	12.88
632.29	10.88
633.051	11.88
633.812	12.88
634.573	11.88
635.333	10.88
636.094	12.88
636.855	11.88
637.615	11.88
638.376	10.88
639.136	8.88
639.896	8.88
640.657	10.88
641.417	8.88
642.177	6.88
642.937	8.88
643.697	9.88
644.457	7.88
645.216	6.88
645.976	8.88
646.736	7.88
647.495	8.88
648.255	6.88
649.014	7.88
649.774	4.88
650.533	7.88
651.292	6.88
652.051	6.88
652.81	6.88
653.569	8.88
654.328	5.88
655.087	3.88
655.846	5.88
656.604	6.88
657.363	5.88
658.121	5.88
658.88	6.88
659.638	7.88
660.397	4.88
661.155	6.88
661.913	7.88
662.671	3.88
663.429	5.88
664.187	6.88
664.945	6.88
665.703	6.88
666.46	5.88
667.218	4.88
667.976	5.88
668.733	5.88
669.49	3.88
670.248	4.88
671.005	4.88
671.762	4.88
672.519	4.88
673.276	5.88
674.033	4.88
674.79	6.88
675.547	3.88
676.304	3.88
677.06	3.88
677.817	5.88
678.574	2.88
679.33	4.88
680.086	3.88
680.843	1.88
681.599	5.88
682.355	2.88
683.111	6.88
683.867	3.88
684.623	2.88
685.379	4.88
686.135	3.88
686.89	6.88
687.646	4.88
688.402	6.88
689.157	3.88
689.912	4.88
690.668	3.88
691.423	1.88
692.178	6.88
692.933	1.88
693.688	4.88
694.443	2.88
695.198	3.88
695.953	2.88
696.708	0.88
697.462	5.88
698.217	2.88
698.972	1.88
699.726	0.88
700.48	1.88
701.235	4.88
701.989	3.88
702.743	2.88
703.497	5.88
704.251	2.88
705.005	2.88
705.759	4.88
706.513	3.88
707.266	4.88
708.02	2.88
708.774	5.88
709.527	1.88
710.28	4.88
711.034	3.88
711.787	1.88
712.54	2.88
713.293	2.88
714.046	3.88
714.799	3.88
715.552	3.88
716.305	4.88
717.058	2.88
717.81	2.88
718.563	2.88
719.315	2.88
720.068	4.88
720.82	2.88
721.573	3.88
722.325	2.88
723.077	4.88
723.829	1.88
724.581	4.88
725.333	4.88
726.085	2.88
726.836	4.88
727.588	4.88
728.34	2.88
729.091	4.88
729.843	3.88
730.594	5.88
731.346	1.88
732.097	6.88
732.848	3.88
733.599	3.88
734.35	3.88
735.101	2.88
735.852	4.88
736.603	3.88
737.354	4.88
738.104	3.88
738.855	3.88
739.605	6.88
740.356	5.88
741.106	6.88
741.856	7.88
742.607	5.88
743.357	4.88
744.107	3.88
744.857	4.88
745.607	5.88
746.357	4.88
747.106	4.88
747.856	3.88
748.606	5.88
749.355	3.88
750.105	5.88
750.854	5.88
751.603	3.88
752.353	4.88
753.102	2.88
753.851	5.88
754.6	6.88
755.349	6.88
756.098	8.88
756.847	4.88
757.595	5.88
758.344	7.88
759.093	7.88
759.841	4.88
760.589	7.88
761.338	9.88
762.086	4.88
762.834	6.88
763.582	3.88
764.331	6.88
765.079	3.88
765.826	5.88
766.574	7.88
767.322	8.88
768.07	7.88
768.817	9.88
769.565	8.88
770.312	8.88
771.06	7.88
771.807	10.88
772.554	6.88
773.302	6.88
774.049	10.88
774.796	7.88
775.543	6.88
776.29	10.88
777.036	7.88
777.783	10.88
778.53	8.88
779.276	10.88
780.023	7.88
780.769	8.88
781.516	8.88
782.262	8.88
783.008	9.88
783.754	7.88
784.5	10.88
785.246	6.88
785.992	9.88
786.738	8.88
787.484	11.88
788.23	8.88
788.975	7.88
789.721	9.88
790.466	8.88
791.212	10.88
791.957	8.88
792.702	9.88
793.447	7.88
794.193	5.88
794.938	7.88
795.683	6.88
796.427	7.88
797.172	6.88
797.917	7.88
798.662	9.88
799.406	7.88
800.151	7.88
800.895	7.88
801.64	7.88
802.384	8.88
803.128	8.88
803.872	6.88
804.616	5.88
805.36	7.88
806.104	8.88
806.848	5.88
807.592	7.88
808.336	6.88
809.079	4.88
809.823	5.88
810.566	3.88
811.31	7.88
812.053	2.88
812.796	5.88
813.539	4.88
814.283	3.88
815.026	4.88
815.769	2.88
816.511	6.88
817.254	4.88
817.997	4.88
818.74	2.88
819.482	3.88
820.225	5.88
820.967	2.88
821.71	4.88
822.452	6.88
823.194	4.88
823.936	4.88
824.678	0.88
825.42	2.88
826.162	3.88
826.904	0.88
827.646	5.88
828.388	1.88
829.129	3.88
829.871	5.88
830.612	1.88
831.354	1.88
832.095	3.88
832.836	4.88
833.577	0.88
834.319	3.88
835.06	4.88
835.801	3.88
836.542	0.88
837.282	1.88
838.023	2.88
838.764	3.88
839.504	1.88
840.245	2.88
840.985	2.88
841.726	2.88
842.466	1.88
843.206	4.88
843.946	1.88
844.687	3.88
845.427	2.88
846.166	2.88
846.906	4.88
847.646	3.88
848.386	2.88
849.125	1.88
849.865	0.88
850.605	3.88
851.344	2.88
852.083	4.88
852.823	1.88
853.562	3.88
854.301	2.88
855.04	4.88
855.779	1.88
856.518	2.88
857.257	0.88
857.995	3.88
858.734	1.88
859.473	2.88
860.211	1.88
860.95	3.88
861.688	1.88
862.426	2.88
863.165	1.88
863.903	0.88
864.641	2.88
865.379	2.88
866.117	-0.12
866.855	2.88
867.593	1.88
868.33	2.88
869.068	-0.12
869.806	2.88
870.543	0.88
871.28	0.88
872.018	1.88
872.755	0.88
873.492	0.88
874.229	1.88
874.967	-0.12
875.703	3.88
876.44	0.88
877.177	1.88
877.914	0.88
878.651	0.88
879.387	-0.12
880.124	0.88
880.86	2.88
881.597	0.88
882.333	0.88
883.069	2.88
883.806	-1.12
884.542	0.88
885.278	-0.12
886.014	0.88
886.749	0.88
887.485	0.88
888.221	1.88
888.957	0.88
889.692	0.88
890.428	-0.12
891.163	-0.12
891.899	-0.12
892.634	-0.12
893.369	1.88
894.104	-1.12
894.839	-1.12
895.574	0.88
896.309	1.88
897.044	0.88
897.779	0.88
898.514	1.88
899.248	1.88
899.983	0.88
900.717	2.88
901.452	-0.12
902.186	-0.12
902.92	-0.12
903.654	1.88
904.389	1.88
905.123	0.88
905.857	-0.12
906.59	-1.12
907.324	0.88
908.058	1.88
908.792	-1.12
909.525	0.88
910.259	2.88
910.992	0.88
911.726	0.88
912.459	0.88
913.192	-2.12
913.925	0.88
914.658	-0.12
915.391	0.88
916.124	1.88
916.857	-1.12
917.59	-0.12
918.323	2.88
919.055	0.88
919.788	-0.12
920.521	-0.12
921.253	2.88
921.985	-2.12
922.718	-1.12
923.45	-1.12
924.182	-0.12
924.914	-1.12
925.646	-1.12
926.378	-1.12
927.11	1.88
927.841	-1.12
928.573	0.88
929.305	0.88
930.036	-1.12
930.768	-1.12
931.499	-0.12
932.23	1.88
932.962	-1.12
933.693	0.88
934.424	-0.12
935.155	-1.12
935.886	3.88
936.617	0.88
937.348	1.88
938.078	0.88
938.809	1.88
939.54	-2.12
940.27	0.88
941.001	0.88
941.731	-3.12
942.461	0.88
943.191	-0.12
943.922	0.88
944.652	0.88
945.382	-0.12
946.112	0.88
946.841	0.88
947.571	0.88
948.301	0.88
949.031	0.88
949.76	0.88
950.49	-1.12
951.219	0.88
951.948	0.88
952.678	1.88
953.407	-1.12
954.136	-1.12
954.865	-0.12
955.594	1.88
956.323	-0.12
957.052	-1.12
957.78	-1.12
958.509	0.88
959.238	0.88
959.966	0.88
960.695	-0.12
961.423	0.88
962.151	-0.12
962.88	-1.12
963.608	-1.12
964.336	-2.12
965.064	0.88
965.792	0.88
966.52	1.88
967.247	1.88
967.975	0.88
968.703	-0.12
969.43	-0.12
970.158	0.88
970.885	-0.12
971.613	1.88
972.34	0.88
973.067	0.88
973.794	0.88
974.521	0.88
975.248	0.88
975.975	-0.12
976.702	-2.12
977.429	2.88
978.156	-0.12
978.882	-0.12
979.609	0.88
980.335	-2.12
981.062	0.88
981.788	1.88
982.514	1.88
983.24	-1.12
983.967	-2.12
984.693	-2.12
985.419	-1.12
986.144	1.88
986.87	0.88
987.596	1.88
988.322	-1.12
989.047	1.88
989.773	0.88
990.498	1.88
991.224	-0.12
991.949	-3.12
992.674	0.88
993.399	1.88
994.124	-0.12
994.849	-1.12
995.574	0.88
996.299	0.88
997.024	-0.12
997.749	-0.12
998.473	-2.12
999.198	-1.12
999.922	0.88
1000.647	0.88
1001.371	2.88
1002.095	-1.12
1002.82	-1.12
1003.544	-2.12
1004.268	0.88
1004.992	0.88
1005.716	1.88
1006.439	0.88
1007.163	3.88
1007.887	0.88
1008.611	0.88
1009.334	0.88
1010.058	-1.12
1010.781	-1.12
1011.504	1.88
1012.228	-1.12
1012.951	1.88
1013.674	-1.12
1014.397	0.88
1015.12	-0.12
