节点500_285_QEPB04081__740__15-07-51-806.txt的数据

Date: Wed Nov 12 15:07:51 CST 2025
User: PC
Spectrometer: QEPB0408
触发模式: 0
积分时间 (秒): 1.000000E-2
Scans to average: 1
启用暗噪声校正: true
启用非线性校正: false
滑动平均宽度: 0
X轴模式: Wavelengths
Number of Pixels in Spectrum: 1044
>>>>>Begin Spectral Data<<<<<
220.843	4
221.644	1
222.444	0
223.244	1
224.045	1
224.845	-1
225.645	1
226.445	2
227.245	2
228.045	5
228.845	2
229.645	1
230.444	2
231.244	1
232.043	2
232.843	1
233.642	3
234.442	2
235.241	5
236.04	4
236.839	1
237.638	3
238.437	5
239.236	5
240.035	4
240.833	4
241.632	3
242.43	3
243.229	5
244.027	3
244.826	4
245.624	4
246.422	4
247.22	6
248.018	4
248.816	6
249.614	5
250.412	5
251.21	7
252.007	5
252.805	7
253.602	7
254.4	6
255.197	10
255.994	8
256.791	6
257.589	5
258.386	9
259.183	7
259.979	11
260.776	8
261.573	8
262.37	8
263.166	10
263.963	9
264.759	10
265.556	10
266.352	10
267.148	13
267.944	11
268.74	11
269.536	11
270.332	10
271.128	14
271.924	14
272.719	14
273.515	13
274.311	14
275.106	14
275.901	16
276.697	14
277.492	14
278.287	16
279.082	16
279.877	14
280.672	18
281.467	18
282.262	15
283.056	19
283.851	15
284.646	17
285.44	19
286.234	20
287.029	17
287.823	18
288.617	17
289.411	17
290.205	19
290.999	18
291.793	17
292.587	18
293.381	17
294.174	18
294.968	17
295.761	16
296.555	14
297.348	17
298.141	14
298.935	17
299.728	15
300.521	15
301.314	13
302.107	15
302.899	11
303.692	13
304.485	13
305.277	13
306.07	14
306.862	14
307.655	14
308.447	13
309.239	11
310.031	12
310.823	11
311.615	10
312.407	9
313.199	10
313.991	11
314.783	10
315.574	10
316.366	9
317.157	6
317.949	9
318.74	9
319.531	9
320.322	11
321.113	6
321.904	8
322.695	9
323.486	8
324.277	10
325.068	8
325.858	8
326.649	8
327.439	5
328.23	5
329.02	5
329.81	5
330.6	5
331.391	7
332.181	7
332.971	6
333.76	7
334.55	7
335.34	6
336.13	6
336.919	6
337.709	8
338.498	4
339.287	5
340.077	3
340.866	4
341.655	5
342.444	4
343.233	5
344.022	5
344.811	6
345.6	7
346.388	6
347.177	7
347.965	5
348.754	5
349.542	6
350.33	6
351.119	4
351.907	5
352.695	5
353.483	7
354.271	5
355.059	8
355.846	7
356.634	6
357.422	7
358.209	6
358.997	6
359.784	6
360.571	4
361.359	7
362.146	5
362.933	4
363.72	6
364.507	4
365.294	5
366.081	4
366.867	7
367.654	5
368.44	5
369.227	6
370.013	5
370.8	5
371.586	6
372.372	5
373.158	5
373.944	4
374.73	4
375.516	5
376.302	6
377.088	7
377.873	3
378.659	5
379.445	4
380.23	5
381.015	5
381.801	7
382.586	5
383.371	3
384.156	5
384.941	5
385.726	8
386.511	3
387.296	6
388.08	5
388.865	7
389.649	6
390.434	6
391.218	4
392.003	6
392.787	8
393.571	6
394.355	6
395.139	7
395.923	6
396.707	8
397.491	5
398.274	6
399.058	8
399.842	5
400.625	9
401.408	7
402.192	7
402.975	6
403.758	7
404.541	8
405.324	6
406.107	10
406.89	8
407.673	7
408.456	7
409.238	6
410.021	9
410.803	8
411.586	10
412.368	9
413.151	7
413.933	9
414.715	7
415.497	8
416.279	6
417.061	9
417.843	8
418.624	8
419.406	9
420.188	11
420.969	9
421.751	8
422.532	10
423.313	8
424.095	10
424.876	10
425.657	12
426.438	11
427.219	14
428	14
428.78	13
429.561	12
430.342	13
431.122	14
431.903	16
432.683	14
433.464	16
434.244	15
435.024	16
435.804	18
436.584	17
437.364	21
438.144	20
438.924	23
439.704	23
440.483	24
441.263	24
442.042	27
442.822	27
443.601	28
444.38	30
445.16	34
445.939	35
446.718	39
447.497	40
448.276	45
449.054	48
449.833	50
450.612	59
451.391	64
452.169	68
452.948	78
453.726	83
454.504	92
455.282	105
456.061	106
456.839	118
457.617	138
458.395	149
459.172	171
459.95	184
460.728	212
461.506	228
462.283	251
463.061	290
463.838	327
464.615	354
465.393	392
466.17	437
466.947	488
467.724	537
468.501	593
469.278	670
470.055	725
470.831	819
471.608	898
472.385	997
473.161	1105
473.938	1211
474.714	1340
475.49	1468
476.266	1611
477.043	1747
477.819	1943
478.595	2131
479.371	2331
480.146	2544
480.922	2784
481.698	3077
482.473	3356
483.249	3659
484.024	3984
484.8	4364
485.575	4747
486.35	5184
487.126	5627
487.901	6141
488.676	6723
489.451	7308
490.225	7900
491	8643
491.775	9375
492.55	10119
493.324	10953
494.099	11726
494.873	12644
495.647	13571
496.422	14589
497.196	15562
497.97	16634
498.744	17619
499.518	18684
500.292	19738
501.066	20724
501.839	21712
502.613	22597
503.387	23397
504.16	24087
504.934	24582
505.707	24928
506.48	25124
507.253	25296
508.027	25276
508.8	25231
509.573	25060
510.346	24683
511.118	24130
511.891	23621
512.664	22950
513.437	22257
514.209	21458
514.982	20772
515.754	19866
516.526	19130
517.298	18282
518.071	17556
518.843	16924
519.615	16265
520.387	15603
521.159	14995
521.93	14415
522.702	13812
523.474	13237
524.245	12741
525.017	12157
525.788	11741
526.56	11203
527.331	10705
528.102	10255
528.873	9783
529.644	9333
530.415	8943
531.186	8481
531.957	8064
532.728	7705
533.498	7343
534.269	6885
535.039	6591
535.81	6241
536.58	5867
537.351	5519
538.121	5240
538.891	4980
539.661	4669
540.431	4423
541.201	4207
541.971	3970
542.741	3753
543.51	3587
544.28	3404
545.05	3238
545.819	3069
546.588	2919
547.358	2788
548.127	2636
548.896	2504
549.665	2380
550.434	2272
551.203	2149
551.972	2032
552.741	1927
553.51	1818
554.278	1728
555.047	1634
555.815	1537
556.584	1463
557.352	1366
558.121	1292
558.889	1220
559.657	1158
560.425	1092
561.193	1044
561.961	974
562.729	921
563.496	868
564.264	827
565.032	779
565.799	740
566.567	697
567.334	658
568.101	620
568.869	581
569.636	548
570.403	520
571.17	487
571.937	463
572.704	437
573.471	405
574.237	395
575.004	366
575.771	337
576.537	323
577.303	308
578.07	290
578.836	279
579.602	253
580.368	242
581.134	224
581.9	218
582.666	209
583.432	197
584.198	187
584.964	174
585.729	171
586.495	163
587.26	148
588.025	143
588.791	133
589.556	129
590.321	124
591.086	115
591.851	105
592.616	102
593.381	99
594.146	91
594.911	90
595.675	83
596.44	80
597.204	78
597.969	69
598.733	67
599.497	62
600.261	65
601.025	61
601.79	59
602.553	55
603.317	54
604.081	52
604.845	51
605.609	48
606.372	42
607.136	44
607.899	43
608.662	38
609.426	37
610.189	41
610.952	34
611.715	33
612.478	32
613.241	29
614.004	28
614.767	33
615.529	27
616.292	30
617.055	24
617.817	25
618.579	23
619.342	24
620.104	22
620.866	20
621.628	22
622.39	21
623.152	19
623.914	20
624.676	17
625.438	17
626.199	18
626.961	16
627.722	15
628.484	12
629.245	14
630.006	15
630.768	15
631.529	12
632.29	10
633.051	15
633.812	14
634.573	12
635.333	14
636.094	12
636.855	10
637.615	10
638.376	11
639.136	10
639.896	9
640.657	10
641.417	8
642.177	10
642.937	7
643.697	7
644.457	12
645.216	9
645.976	5
646.736	7
647.495	9
648.255	8
649.014	9
649.774	7
650.533	5
651.292	7
652.051	6
652.81	8
653.569	8
654.328	8
655.087	7
655.846	6
656.604	7
657.363	6
658.121	6
658.88	5
659.638	7
660.397	7
661.155	6
661.913	5
662.671	6
663.429	7
664.187	6
664.945	7
665.703	5
666.46	6
667.218	4
667.976	3
668.733	6
669.49	2
670.248	3
671.005	7
671.762	6
672.519	7
673.276	6
674.033	3
674.79	3
675.547	6
676.304	4
677.06	2
677.817	5
678.574	5
679.33	6
680.086	3
680.843	1
681.599	3
682.355	2
683.111	5
683.867	4
684.623	2
685.379	6
686.135	5
686.89	5
687.646	5
688.402	6
689.157	4
689.912	3
690.668	5
691.423	4
692.178	4
692.933	6
693.688	4
694.443	2
695.198	3
695.953	4
696.708	4
697.462	5
698.217	2
698.972	3
699.726	2
700.48	0
701.235	3
701.989	3
702.743	5
703.497	2
704.251	5
705.005	3
705.759	6
706.513	4
707.266	5
708.02	3
708.774	3
709.527	2
710.28	4
711.034	3
711.787	4
712.54	5
713.293	2
714.046	3
714.799	2
715.552	5
716.305	2
717.058	5
717.81	4
718.563	5
719.315	4
720.068	3
720.82	5
721.573	5
722.325	2
723.077	3
723.829	3
724.581	4
725.333	5
726.085	6
726.836	3
727.588	6
728.34	4
729.091	3
729.843	5
730.594	2
731.346	3
732.097	5
732.848	3
733.599	3
734.35	5
735.101	4
735.852	1
736.603	5
737.354	4
738.104	4
738.855	5
739.605	3
740.356	3
741.106	3
741.856	6
742.607	4
743.357	4
744.107	3
744.857	3
745.607	5
746.357	2
747.106	4
747.856	6
748.606	5
749.355	6
750.105	5
750.854	5
751.603	6
752.353	5
753.102	8
753.851	6
754.6	4
755.349	2
756.098	4
756.847	4
757.595	6
758.344	6
759.093	3
759.841	8
760.589	5
761.338	6
762.086	6
762.834	7
763.582	5
764.331	5
765.079	7
765.826	6
766.574	9
767.322	6
768.07	6
768.817	7
769.565	7
770.312	8
771.06	7
771.807	9
772.554	8
773.302	6
774.049	5
774.796	7
775.543	8
776.29	9
777.036	8
777.783	7
778.53	7
779.276	10
780.023	9
780.769	10
781.516	6
782.262	7
783.008	8
783.754	8
784.5	8
785.246	8
785.992	7
786.738	10
787.484	8
788.23	6
788.975	7
789.721	7
790.466	8
791.212	8
791.957	10
792.702	8
793.447	6
794.193	7
794.938	7
795.683	7
796.427	7
797.172	8
797.917	6
798.662	9
799.406	4
800.151	7
800.895	9
801.64	6
802.384	8
803.128	5
803.872	5
804.616	4
805.36	5
806.104	5
806.848	6
807.592	6
808.336	8
809.079	6
809.823	4
810.566	6
811.31	7
812.053	7
812.796	4
813.539	6
814.283	4
815.026	7
815.769	5
816.511	5
817.254	7
817.997	5
818.74	2
819.482	7
820.225	4
820.967	2
821.71	5
822.452	4
823.194	3
823.936	4
824.678	6
825.42	4
826.162	5
826.904	4
827.646	2
828.388	3
829.129	3
829.871	4
830.612	3
831.354	3
832.095	6
832.836	2
833.577	3
834.319	4
835.06	4
835.801	5
836.542	5
837.282	4
838.023	2
838.764	3
839.504	5
840.245	3
840.985	1
841.726	-1
842.466	1
843.206	3
843.946	4
844.687	4
845.427	2
846.166	4
846.906	1
847.646	4
848.386	1
849.125	4
849.865	4
850.605	2
851.344	3
852.083	3
852.823	4
853.562	4
854.301	3
855.04	3
855.779	3
856.518	5
857.257	1
857.995	5
858.734	3
859.473	1
860.211	0
860.95	1
861.688	2
862.426	3
863.165	3
863.903	3
864.641	2
865.379	3
866.117	2
866.855	1
867.593	0
868.33	1
869.068	2
869.806	-1
870.543	3
871.28	2
872.018	4
872.755	3
873.492	1
874.229	2
874.967	-1
875.703	1
876.44	2
877.177	2
877.914	1
878.651	0
879.387	0
880.124	1
880.86	1
881.597	1
882.333	0
883.069	1
883.806	2
884.542	2
885.278	-1
886.014	0
886.749	2
887.485	1
888.221	1
888.957	0
889.692	1
890.428	0
891.163	-1
891.899	1
892.634	3
893.369	0
894.104	-1
894.839	0
895.574	1
896.309	2
897.044	0
897.779	0
898.514	-2
899.248	0
899.983	1
900.717	3
901.452	0
902.186	0
902.92	0
903.654	2
904.389	0
905.123	1
905.857	0
906.59	0
907.324	0
908.058	1
908.792	0
909.525	-1
910.259	0
910.992	-1
911.726	0
912.459	-1
913.192	0
913.925	-1
914.658	2
915.391	1
916.124	1
916.857	1
917.59	1
918.323	1
919.055	1
919.788	0
920.521	1
921.253	0
921.985	0
922.718	2
923.45	1
924.182	1
924.914	0
925.646	1
926.378	2
927.11	-1
927.841	1
928.573	-1
929.305	2
930.036	3
930.768	1
931.499	-1
932.23	0
932.962	1
933.693	2
934.424	0
935.155	0
935.886	-2
936.617	0
937.348	0
938.078	1
938.809	-1
939.54	1
940.27	-1
941.001	0
941.731	0
942.461	-2
943.191	0
943.922	-1
944.652	0
945.382	-1
946.112	-1
946.841	0
947.571	0
948.301	3
949.031	2
949.76	0
950.49	1
951.219	-1
951.948	2
952.678	1
953.407	2
954.136	-1
954.865	3
955.594	-3
956.323	0
957.052	0
957.78	0
958.509	-1
959.238	1
959.966	-1
960.695	0
961.423	-2
962.151	2
962.88	-2
963.608	2
964.336	0
965.064	0
965.792	1
966.52	1
967.247	0
967.975	-1
968.703	1
969.43	0
970.158	-1
970.885	0
971.613	0
972.34	1
973.067	1
973.794	-1
974.521	2
975.248	1
975.975	-1
976.702	1
977.429	0
978.156	1
978.882	0
979.609	0
980.335	1
981.062	1
981.788	1
982.514	1
983.24	0
983.967	0
984.693	0
985.419	-1
986.144	-1
986.87	2
987.596	1
988.322	1
989.047	0
989.773	1
990.498	-1
991.224	1
991.949	1
992.674	0
993.399	1
994.124	-1
994.849	1
995.574	-1
996.299	-1
997.024	-2
997.749	0
998.473	1
999.198	-2
999.922	1
1000.647	-1
1001.371	3
1002.095	-1
1002.82	-2
1003.544	-2
1004.268	0
1004.992	3
1005.716	1
1006.439	1
1007.163	2
1007.887	0
1008.611	1
1009.334	2
1010.058	1
1010.781	-1
1011.504	2
1012.228	2
1012.951	1
1013.674	-1
1014.397	1
1015.12	1
