节点500_285_QEPB04081__193__14-58-46-109.txt的数据

Date: Wed Nov 12 14:58:46 CST 2025
User: PC
Spectrometer: QEPB0408
触发模式: 0
积分时间 (秒): 1.000000E-2
Scans to average: 1
启用暗噪声校正: true
启用非线性校正: false
滑动平均宽度: 0
X轴模式: Wavelengths
Number of Pixels in Spectrum: 1044
>>>>>Begin Spectral Data<<<<<
220.843	-1.88
221.644	2.12
222.444	0.12
223.244	2.12
224.045	1.12
224.845	1.12
225.645	0.12
226.445	-0.88
227.245	3.12
228.045	3.12
228.845	4.12
229.645	2.12
230.444	3.12
231.244	0.12
232.043	3.12
232.843	5.12
233.642	4.12
234.442	5.12
235.241	3.12
236.04	2.12
236.839	4.12
237.638	5.12
238.437	2.12
239.236	3.12
240.035	5.12
240.833	6.12
241.632	4.12
242.43	6.12
243.229	4.12
244.027	5.12
244.826	4.12
245.624	5.12
246.422	6.12
247.22	5.12
248.018	5.12
248.816	6.12
249.614	4.12
250.412	4.12
251.21	6.12
252.007	6.12
252.805	6.12
253.602	10.12
254.4	6.12
255.197	7.12
255.994	8.12
256.791	7.12
257.589	10.12
258.386	9.12
259.183	7.12
259.979	10.12
260.776	11.12
261.573	12.12
262.37	10.12
263.166	13.12
263.963	12.12
264.759	12.12
265.556	12.12
266.352	14.12
267.148	15.12
267.944	16.12
268.74	13.12
269.536	13.12
270.332	17.12
271.128	14.12
271.924	17.12
272.719	16.12
273.515	15.12
274.311	17.12
275.106	18.12
275.901	16.12
276.697	17.12
277.492	19.12
278.287	20.12
279.082	17.12
279.877	18.12
280.672	19.12
281.467	17.12
282.262	20.12
283.056	17.12
283.851	18.12
284.646	17.12
285.44	19.12
286.234	16.12
287.029	19.12
287.823	20.12
288.617	19.12
289.411	17.12
290.205	17.12
290.999	18.12
291.793	19.12
292.587	16.12
293.381	19.12
294.174	17.12
294.968	16.12
295.761	15.12
296.555	15.12
297.348	15.12
298.141	12.12
298.935	14.12
299.728	13.12
300.521	16.12
301.314	16.12
302.107	11.12
302.899	11.12
303.692	14.12
304.485	14.12
305.277	14.12
306.07	15.12
306.862	15.12
307.655	9.12
308.447	13.12
309.239	9.12
310.031	11.12
310.823	12.12
311.615	10.12
312.407	8.12
313.199	9.12
313.991	9.12
314.783	7.12
315.574	9.12
316.366	11.12
317.157	7.12
317.949	10.12
318.74	8.12
319.531	10.12
320.322	7.12
321.113	7.12
321.904	8.12
322.695	6.12
323.486	9.12
324.277	9.12
325.068	6.12
325.858	7.12
326.649	6.12
327.439	6.12
328.23	7.12
329.02	6.12
329.81	6.12
330.6	5.12
331.391	6.12
332.181	5.12
332.971	6.12
333.76	6.12
334.55	7.12
335.34	6.12
336.13	5.12
336.919	6.12
337.709	7.12
338.498	7.12
339.287	6.12
340.077	6.12
340.866	6.12
341.655	7.12
342.444	7.12
343.233	6.12
344.022	4.12
344.811	6.12
345.6	7.12
346.388	6.12
347.177	5.12
347.965	6.12
348.754	4.12
349.542	3.12
350.33	5.12
351.119	5.12
351.907	8.12
352.695	5.12
353.483	6.12
354.271	5.12
355.059	5.12
355.846	8.12
356.634	6.12
357.422	8.12
358.209	8.12
358.997	3.12
359.784	5.12
360.571	6.12
361.359	8.12
362.146	5.12
362.933	5.12
363.72	5.12
364.507	5.12
365.294	6.12
366.081	6.12
366.867	4.12
367.654	4.12
368.44	5.12
369.227	5.12
370.013	4.12
370.8	7.12
371.586	4.12
372.372	4.12
373.158	4.12
373.944	4.12
374.73	4.12
375.516	5.12
376.302	6.12
377.088	6.12
377.873	4.12
378.659	4.12
379.445	5.12
380.23	6.12
381.015	2.12
381.801	3.12
382.586	6.12
383.371	3.12
384.156	5.12
384.941	6.12
385.726	8.12
386.511	6.12
387.296	4.12
388.08	4.12
388.865	6.12
389.649	6.12
390.434	5.12
391.218	5.12
392.003	7.12
392.787	6.12
393.571	6.12
394.355	6.12
395.139	7.12
395.923	5.12
396.707	6.12
397.491	6.12
398.274	8.12
399.058	6.12
399.842	6.12
400.625	6.12
401.408	8.12
402.192	6.12
402.975	9.12
403.758	3.12
404.541	5.12
405.324	6.12
406.107	7.12
406.89	8.12
407.673	5.12
408.456	7.12
409.238	7.12
410.021	8.12
410.803	7.12
411.586	7.12
412.368	9.12
413.151	8.12
413.933	8.12
414.715	8.12
415.497	7.12
416.279	10.12
417.061	10.12
417.843	10.12
418.624	9.12
419.406	9.12
420.188	11.12
420.969	10.12
421.751	12.12
422.532	11.12
423.313	12.12
424.095	11.12
424.876	14.12
425.657	11.12
426.438	13.12
427.219	13.12
428	12.12
428.78	12.12
429.561	13.12
430.342	11.12
431.122	15.12
431.903	13.12
432.683	12.12
433.464	13.12
434.244	17.12
435.024	15.12
435.804	18.12
436.584	17.12
437.364	20.12
438.144	20.12
438.924	20.12
439.704	23.12
440.483	20.12
441.263	20.12
442.042	25.12
442.822	25.12
443.601	28.12
444.38	29.12
445.16	29.12
445.939	35.12
446.718	33.12
447.497	35.12
448.276	40.12
449.054	43.12
449.833	46.12
450.612	51.12
451.391	54.12
452.169	62.12
452.948	62.12
453.726	68.12
454.504	78.12
455.282	85.12
456.061	95.12
456.839	103.12
457.617	118.12
458.395	129.12
459.172	143.12
459.95	160.12
460.728	182.12
461.506	203.12
462.283	226.12
463.061	248.12
463.838	273.12
464.615	308.12
465.393	343.12
466.17	388.12
466.947	429.12
467.724	482.12
468.501	548.12
469.278	607.12
470.055	674.12
470.831	740.12
471.608	832.12
472.385	939.12
473.161	1037.12
473.938	1145.12
474.714	1274.12
475.49	1406.12
476.266	1557.12
477.043	1736.12
477.819	1925.12
478.595	2129.12
479.371	2346.12
480.146	2590.12
480.922	2878.12
481.698	3173.12
482.473	3505.12
483.249	3858.12
484.024	4257.12
484.8	4729.12
485.575	5160.12
486.35	5702.12
487.126	6211.12
487.901	6893.12
488.676	7556.12
489.451	8285.12
490.225	9077.12
491	9975.12
491.775	10890.12
492.55	11906.12
493.324	12925.12
494.099	13928.12
494.873	15039.12
495.647	16212.12
496.422	17473.12
497.196	18679.12
497.97	19946.12
498.744	21128.12
499.518	22393.12
500.292	23435.12
501.066	24626.12
501.839	25612.12
502.613	26389.12
503.387	27100.12
504.16	27741.12
504.934	28065.12
505.707	28128.12
506.48	28129.12
507.253	27936.12
508.027	27656.12
508.8	27141.12
509.573	26713.12
510.346	26088.12
511.118	25093.12
511.891	24322.12
512.664	23408.12
513.437	22441.12
514.209	21442.12
514.982	20567.12
515.754	19673.12
516.526	18758.12
517.298	17932.12
518.071	17156.12
518.843	16506.12
519.615	15841.12
520.387	15237.12
521.159	14597.12
521.93	14053.12
522.702	13455.12
523.474	12911.12
524.245	12343.12
525.017	11824.12
525.788	11387.12
526.56	10859.12
527.331	10276.12
528.102	9864.12
528.873	9391.12
529.644	8919.12
530.415	8464.12
531.186	8024.12
531.957	7612.12
532.728	7205.12
533.498	6830.12
534.269	6453.12
535.039	6088.12
535.81	5775.12
536.58	5422.12
537.351	5132.12
538.121	4822.12
538.891	4562.12
539.661	4313.12
540.431	4078.12
541.201	3862.12
541.971	3647.12
542.741	3471.12
543.51	3301.12
544.28	3129.12
545.05	2972.12
545.819	2836.12
546.588	2695.12
547.358	2553.12
548.127	2435.12
548.896	2288.12
549.665	2175.12
550.434	2075.12
551.203	1958.12
551.972	1851.12
552.741	1748.12
553.51	1653.12
554.278	1555.12
555.047	1478.12
555.815	1387.12
556.584	1307.12
557.352	1225.12
558.121	1167.12
558.889	1093.12
559.657	1041.12
560.425	985.12
561.193	916.12
561.961	865.12
562.729	815.12
563.496	779.12
564.264	740.12
565.032	705.12
565.799	661.12
566.567	625.12
567.334	595.12
568.101	563.12
568.869	531.12
569.636	490.12
570.403	463.12
571.17	451.12
571.937	420.12
572.704	389.12
573.471	363.12
574.237	348.12
575.004	327.12
575.771	309.12
576.537	286.12
577.303	273.12
578.07	263.12
578.836	244.12
579.602	227.12
580.368	214.12
581.134	208.12
581.9	195.12
582.666	188.12
583.432	172.12
584.198	166.12
584.964	152.12
585.729	154.12
586.495	143.12
587.26	136.12
588.025	132.12
588.791	120.12
589.556	117.12
590.321	111.12
591.086	105.12
591.851	97.12
592.616	94.12
593.381	85.12
594.146	81.12
594.911	84.12
595.675	79.12
596.44	73.12
597.204	66.12
597.969	65.12
598.733	63.12
599.497	62.12
600.261	57.12
601.025	59.12
601.79	53.12
602.553	48.12
603.317	51.12
604.081	45.12
604.845	43.12
605.609	44.12
606.372	39.12
607.136	41.12
607.899	40.12
608.662	37.12
609.426	35.12
610.189	30.12
610.952	27.12
611.715	32.12
612.478	29.12
613.241	29.12
614.004	26.12
614.767	25.12
615.529	24.12
616.292	25.12
617.055	24.12
617.817	21.12
618.579	22.12
619.342	23.12
620.104	19.12
620.866	21.12
621.628	21.12
622.39	20.12
623.152	18.12
623.914	16.12
624.676	16.12
625.438	19.12
626.199	18.12
626.961	16.12
627.722	13.12
628.484	14.12
629.245	13.12
630.006	13.12
630.768	13.12
631.529	14.12
632.29	13.12
633.051	11.12
633.812	10.12
634.573	10.12
635.333	10.12
636.094	10.12
636.855	12.12
637.615	12.12
638.376	9.12
639.136	9.12
639.896	9.12
640.657	10.12
641.417	8.12
642.177	6.12
642.937	10.12
643.697	8.12
644.457	10.12
645.216	6.12
645.976	9.12
646.736	10.12
647.495	6.12
648.255	8.12
649.014	7.12
649.774	8.12
650.533	7.12
651.292	5.12
652.051	7.12
652.81	7.12
653.569	8.12
654.328	6.12
655.087	6.12
655.846	7.12
656.604	4.12
657.363	4.12
658.121	6.12
658.88	5.12
659.638	4.12
660.397	6.12
661.155	4.12
661.913	5.12
662.671	3.12
663.429	6.12
664.187	5.12
664.945	6.12
665.703	5.12
666.46	4.12
667.218	5.12
667.976	5.12
668.733	6.12
669.49	4.12
670.248	4.12
671.005	6.12
671.762	6.12
672.519	5.12
673.276	5.12
674.033	5.12
674.79	1.12
675.547	5.12
676.304	4.12
677.06	4.12
677.817	3.12
678.574	4.12
679.33	6.12
680.086	5.12
680.843	5.12
681.599	5.12
682.355	3.12
683.111	4.12
683.867	5.12
684.623	4.12
685.379	3.12
686.135	1.12
686.89	3.12
687.646	1.12
688.402	5.12
689.157	5.12
689.912	4.12
690.668	4.12
691.423	6.12
692.178	4.12
692.933	4.12
693.688	1.12
694.443	3.12
695.198	2.12
695.953	3.12
696.708	3.12
697.462	3.12
698.217	3.12
698.972	3.12
699.726	3.12
700.48	4.12
701.235	3.12
701.989	3.12
702.743	5.12
703.497	3.12
704.251	2.12
705.005	4.12
705.759	4.12
706.513	3.12
707.266	5.12
708.02	2.12
708.774	5.12
709.527	4.12
710.28	2.12
711.034	3.12
711.787	2.12
712.54	3.12
713.293	3.12
714.046	5.12
714.799	2.12
715.552	3.12
716.305	3.12
717.058	2.12
717.81	1.12
718.563	4.12
719.315	6.12
720.068	2.12
720.82	5.12
721.573	6.12
722.325	4.12
723.077	3.12
723.829	3.12
724.581	4.12
725.333	3.12
726.085	4.12
726.836	3.12
727.588	3.12
728.34	4.12
729.091	3.12
729.843	1.12
730.594	5.12
731.346	3.12
732.097	4.12
732.848	3.12
733.599	6.12
734.35	1.12
735.101	5.12
735.852	5.12
736.603	1.12
737.354	3.12
738.104	4.12
738.855	4.12
739.605	4.12
740.356	5.12
741.106	5.12
741.856	6.12
742.607	5.12
743.357	2.12
744.107	6.12
744.857	5.12
745.607	5.12
746.357	5.12
747.106	4.12
747.856	6.12
748.606	3.12
749.355	5.12
750.105	6.12
750.854	5.12
751.603	5.12
752.353	3.12
753.102	5.12
753.851	6.12
754.6	6.12
755.349	6.12
756.098	6.12
756.847	6.12
757.595	7.12
758.344	7.12
759.093	5.12
759.841	6.12
760.589	7.12
761.338	5.12
762.086	7.12
762.834	7.12
763.582	5.12
764.331	6.12
765.079	4.12
765.826	8.12
766.574	7.12
767.322	7.12
768.07	8.12
768.817	7.12
769.565	6.12
770.312	7.12
771.06	7.12
771.807	9.12
772.554	5.12
773.302	6.12
774.049	6.12
774.796	5.12
775.543	8.12
776.29	8.12
777.036	9.12
777.783	9.12
778.53	8.12
779.276	9.12
780.023	7.12
780.769	8.12
781.516	11.12
782.262	10.12
783.008	10.12
783.754	7.12
784.5	7.12
785.246	9.12
785.992	9.12
786.738	10.12
787.484	9.12
788.23	9.12
788.975	9.12
789.721	9.12
790.466	12.12
791.212	10.12
791.957	9.12
792.702	8.12
793.447	8.12
794.193	7.12
794.938	8.12
795.683	9.12
796.427	9.12
797.172	9.12
797.917	9.12
798.662	7.12
799.406	7.12
800.151	9.12
800.895	7.12
801.64	8.12
802.384	6.12
803.128	7.12
803.872	6.12
804.616	6.12
805.36	7.12
806.104	4.12
806.848	5.12
807.592	7.12
808.336	6.12
809.079	7.12
809.823	5.12
810.566	3.12
811.31	6.12
812.053	4.12
812.796	4.12
813.539	6.12
814.283	1.12
815.026	6.12
815.769	7.12
816.511	4.12
817.254	5.12
817.997	5.12
818.74	4.12
819.482	2.12
820.225	5.12
820.967	6.12
821.71	4.12
822.452	6.12
823.194	3.12
823.936	3.12
824.678	5.12
825.42	3.12
826.162	6.12
826.904	1.12
827.646	2.12
828.388	3.12
829.129	2.12
829.871	4.12
830.612	3.12
831.354	5.12
832.095	4.12
832.836	3.12
833.577	1.12
834.319	3.12
835.06	3.12
835.801	3.12
836.542	5.12
837.282	4.12
838.023	3.12
838.764	3.12
839.504	2.12
840.245	1.12
840.985	2.12
841.726	5.12
842.466	2.12
843.206	1.12
843.946	2.12
844.687	4.12
845.427	1.12
846.166	2.12
846.906	1.12
847.646	2.12
848.386	3.12
849.125	3.12
849.865	1.12
850.605	5.12
851.344	2.12
852.083	5.12
852.823	2.12
853.562	2.12
854.301	1.12
855.04	2.12
855.779	4.12
856.518	2.12
857.257	3.12
857.995	2.12
858.734	2.12
859.473	4.12
860.211	3.12
860.95	4.12
861.688	3.12
862.426	2.12
863.165	2.12
863.903	1.12
864.641	2.12
865.379	2.12
866.117	1.12
866.855	1.12
867.593	2.12
868.33	1.12
869.068	2.12
869.806	2.12
870.543	2.12
871.28	-0.88
872.018	3.12
872.755	-0.88
873.492	2.12
874.229	1.12
874.967	1.12
875.703	1.12
876.44	0.12
877.177	0.12
877.914	3.12
878.651	1.12
879.387	1.12
880.124	1.12
880.86	1.12
881.597	1.12
882.333	1.12
883.069	0.12
883.806	2.12
884.542	1.12
885.278	-0.88
886.014	0.12
886.749	-1.88
887.485	1.12
888.221	-0.88
888.957	-0.88
889.692	0.12
890.428	2.12
891.163	-0.88
891.899	1.12
892.634	-0.88
893.369	1.12
894.104	-0.88
894.839	1.12
895.574	-0.88
896.309	1.12
897.044	1.12
897.779	2.12
898.514	1.12
899.248	1.12
899.983	1.12
900.717	-1.88
901.452	2.12
902.186	1.12
902.92	1.12
903.654	-0.88
904.389	-2.88
905.123	0.12
905.857	1.12
906.59	-0.88
907.324	1.12
908.058	-1.88
908.792	0.12
909.525	0.12
910.259	-0.88
910.992	3.12
911.726	-1.88
912.459	-0.88
913.192	-1.88
913.925	1.12
914.658	2.12
915.391	2.12
916.124	0.12
916.857	0.12
917.59	3.12
918.323	-1.88
919.055	1.12
919.788	-1.88
920.521	-1.88
921.253	2.12
921.985	0.12
922.718	2.12
923.45	1.12
924.182	-0.88
924.914	-1.88
925.646	3.12
926.378	1.12
927.11	-0.88
927.841	-0.88
928.573	-1.88
929.305	-0.88
930.036	0.12
930.768	-1.88
931.499	-0.88
932.23	-0.88
932.962	-0.88
933.693	0.12
934.424	-0.88
935.155	0.12
935.886	-0.88
936.617	3.12
937.348	-1.88
938.078	0.12
938.809	1.12
939.54	-1.88
940.27	0.12
941.001	0.12
941.731	0.12
942.461	1.12
943.191	-2.88
943.922	0.12
944.652	-0.88
945.382	0.12
946.112	1.12
946.841	-0.88
947.571	1.12
948.301	-0.88
949.031	0.12
949.76	1.12
950.49	0.12
951.219	-0.88
951.948	1.12
952.678	1.12
953.407	1.12
954.136	-0.88
954.865	1.12
955.594	-1.88
956.323	0.12
957.052	-1.88
957.78	0.12
958.509	0.12
959.238	2.12
959.966	-0.88
960.695	-0.88
961.423	0.12
962.151	0.12
962.88	-0.88
963.608	1.12
964.336	1.12
965.064	-1.88
965.792	-2.88
966.52	1.12
967.247	2.12
967.975	2.12
968.703	-0.88
969.43	-0.88
970.158	-2.88
970.885	-0.88
971.613	-0.88
972.34	0.12
973.067	-2.88
973.794	2.12
974.521	0.12
975.248	-0.88
975.975	-0.88
976.702	-0.88
977.429	-0.88
978.156	0.12
978.882	0.12
979.609	1.12
980.335	0.12
981.062	-2.88
981.788	0.12
982.514	0.12
983.24	0.12
983.967	-0.88
984.693	-1.88
985.419	0.12
986.144	-0.88
986.87	-0.88
987.596	0.12
988.322	-0.88
989.047	0.12
989.773	-1.88
990.498	-0.88
991.224	0.12
991.949	-1.88
992.674	1.12
993.399	0.12
994.124	2.12
994.849	0.12
995.574	-0.88
996.299	0.12
997.024	-0.88
997.749	-0.88
998.473	-0.88
999.198	1.12
999.922	1.12
1000.647	-0.88
1001.371	4.12
1002.095	-1.88
1002.82	-0.88
1003.544	-1.88
1004.268	0.12
1004.992	-0.88
1005.716	0.12
1006.439	0.12
1007.163	4.12
1007.887	2.12
1008.611	0.12
1009.334	0.12
1010.058	-0.88
1010.781	0.12
1011.504	0.12
1012.228	1.12
1012.951	-0.88
1013.674	1.12
1014.397	0.12
1015.12	0.12
