节点500_285_QEPB04081__826__15-09-17-746.txt的数据

Date: Wed Nov 12 15:09:17 CST 2025
User: PC
Spectrometer: QEPB0408
触发模式: 0
积分时间 (秒): 1.000000E-2
Scans to average: 1
启用暗噪声校正: true
启用非线性校正: false
滑动平均宽度: 0
X轴模式: Wavelengths
Number of Pixels in Spectrum: 1044
>>>>>Begin Spectral Data<<<<<
220.843	1
221.644	2
222.444	1
223.244	1
224.045	1
224.845	2
225.645	1
226.445	2
227.245	2
228.045	1
228.845	2
229.645	1
230.444	4
231.244	3
232.043	2
232.843	1
233.642	0
234.442	2
235.241	1
236.04	4
236.839	3
237.638	5
238.437	6
239.236	2
240.035	5
240.833	1
241.632	5
242.43	3
243.229	3
244.027	4
244.826	4
245.624	3
246.422	4
247.22	4
248.018	3
248.816	5
249.614	6
250.412	4
251.21	4
252.007	4
252.805	6
253.602	6
254.4	7
255.197	4
255.994	5
256.791	6
257.589	8
258.386	6
259.183	5
259.979	6
260.776	9
261.573	8
262.37	11
263.166	10
263.963	11
264.759	11
265.556	9
266.352	10
267.148	11
267.944	10
268.74	11
269.536	12
270.332	12
271.128	12
271.924	12
272.719	13
273.515	14
274.311	14
275.106	14
275.901	15
276.697	13
277.492	13
278.287	16
279.082	14
279.877	15
280.672	14
281.467	15
282.262	17
283.056	14
283.851	17
284.646	16
285.44	16
286.234	15
287.029	17
287.823	17
288.617	17
289.411	15
290.205	13
290.999	15
291.793	16
292.587	17
293.381	15
294.174	14
294.968	15
295.761	15
296.555	15
297.348	11
298.141	16
298.935	14
299.728	12
300.521	12
301.314	12
302.107	13
302.899	9
303.692	13
304.485	11
305.277	13
306.07	12
306.862	12
307.655	10
308.447	12
309.239	12
310.031	13
310.823	8
311.615	11
312.407	10
313.199	7
313.991	7
314.783	7
315.574	9
316.366	7
317.157	10
317.949	8
318.74	7
319.531	5
320.322	6
321.113	8
321.904	6
322.695	6
323.486	6
324.277	4
325.068	9
325.858	8
326.649	7
327.439	5
328.23	4
329.02	7
329.81	6
330.6	5
331.391	5
332.181	7
332.971	6
333.76	7
334.55	6
335.34	4
336.13	7
336.919	5
337.709	6
338.498	6
339.287	6
340.077	4
340.866	6
341.655	5
342.444	3
343.233	6
344.022	7
344.811	6
345.6	6
346.388	4
347.177	5
347.965	7
348.754	5
349.542	4
350.33	5
351.119	6
351.907	2
352.695	6
353.483	8
354.271	4
355.059	6
355.846	4
356.634	5
357.422	3
358.209	4
358.997	5
359.784	3
360.571	5
361.359	4
362.146	3
362.933	4
363.72	5
364.507	2
365.294	5
366.081	5
366.867	3
367.654	4
368.44	4
369.227	4
370.013	3
370.8	3
371.586	5
372.372	4
373.158	6
373.944	5
374.73	3
375.516	6
376.302	5
377.088	4
377.873	4
378.659	6
379.445	7
380.23	6
381.015	3
381.801	5
382.586	5
383.371	2
384.156	3
384.941	7
385.726	6
386.511	5
387.296	6
388.08	6
388.865	2
389.649	4
390.434	4
391.218	5
392.003	5
392.787	4
393.571	5
394.355	5
395.139	4
395.923	6
396.707	6
397.491	6
398.274	4
399.058	4
399.842	6
400.625	7
401.408	6
402.192	5
402.975	5
403.758	5
404.541	6
405.324	6
406.107	7
406.89	7
407.673	6
408.456	6
409.238	7
410.021	9
410.803	6
411.586	6
412.368	8
413.151	6
413.933	9
414.715	8
415.497	9
416.279	9
417.061	6
417.843	8
418.624	9
419.406	10
420.188	6
420.969	9
421.751	9
422.532	9
423.313	8
424.095	9
424.876	13
425.657	13
426.438	10
427.219	14
428	12
428.78	11
429.561	14
430.342	12
431.122	11
431.903	13
432.683	17
433.464	14
434.244	18
435.024	14
435.804	17
436.584	17
437.364	19
438.144	16
438.924	18
439.704	21
440.483	22
441.263	22
442.042	24
442.822	28
443.601	25
444.38	31
445.16	34
445.939	36
446.718	38
447.497	39
448.276	43
449.054	51
449.833	53
450.612	56
451.391	61
452.169	68
452.948	74
453.726	84
454.504	93
455.282	100
456.061	112
456.839	124
457.617	139
458.395	148
459.172	169
459.95	192
460.728	207
461.506	227
462.283	257
463.061	285
463.838	324
464.615	364
465.393	405
466.17	446
466.947	496
467.724	539
468.501	602
469.278	670
470.055	737
470.831	817
471.608	911
472.385	1010
473.161	1112
473.938	1208
474.714	1356
475.49	1454
476.266	1600
477.043	1773
477.819	1931
478.595	2112
479.371	2335
480.146	2559
480.922	2776
481.698	3047
482.473	3309
483.249	3597
484.024	3956
484.8	4323
485.575	4709
486.35	5126
487.126	5572
487.901	6090
488.676	6612
489.451	7182
490.225	7815
491	8442
491.775	9226
492.55	10001
493.324	10761
494.099	11504
494.873	12363
495.647	13292
496.422	14240
497.196	15234
497.97	16250
498.744	17271
499.518	18276
500.292	19306
501.066	20297
501.839	21225
502.613	22111
503.387	22973
504.16	23640
504.934	24136
505.707	24556
506.48	24776
507.253	24876
508.027	24930
508.8	24911
509.573	24793
510.346	24508
511.118	24012
511.891	23438
512.664	22839
513.437	22150
514.209	21393
514.982	20662
515.754	19865
516.526	19103
517.298	18323
518.071	17641
518.843	16957
519.615	16269
520.387	15641
521.159	15035
521.93	14410
522.702	13874
523.474	13272
524.245	12689
525.017	12205
525.788	11756
526.56	11249
527.331	10716
528.102	10313
528.873	9778
529.644	9356
530.415	8946
531.186	8537
531.957	8117
532.728	7763
533.498	7339
534.269	6977
535.039	6601
535.81	6257
536.58	5913
537.351	5584
538.121	5271
538.891	5014
539.661	4728
540.431	4466
541.201	4199
541.971	3984
542.741	3774
543.51	3605
544.28	3418
545.05	3252
545.819	3085
546.588	2939
547.358	2800
548.127	2668
548.896	2531
549.665	2399
550.434	2273
551.203	2154
551.972	2051
552.741	1947
553.51	1844
554.278	1747
555.047	1651
555.815	1553
556.584	1477
557.352	1389
558.121	1308
558.889	1238
559.657	1177
560.425	1105
561.193	1045
561.961	991
562.729	933
563.496	876
564.264	836
565.032	781
565.799	744
566.567	703
567.334	667
568.101	627
568.869	591
569.636	571
570.403	518
571.17	495
571.937	472
572.704	447
573.471	418
574.237	391
575.004	371
575.771	353
576.537	326
577.303	310
578.07	289
578.836	276
579.602	260
580.368	249
581.134	229
581.9	223
582.666	210
583.432	201
584.198	187
584.964	182
585.729	172
586.495	161
587.26	151
588.025	141
588.791	141
589.556	129
590.321	117
591.086	116
591.851	111
592.616	108
593.381	96
594.146	91
594.911	90
595.675	89
596.44	81
597.204	81
597.969	78
598.733	71
599.497	66
600.261	64
601.025	58
601.79	59
602.553	55
603.317	50
604.081	55
604.845	48
605.609	46
606.372	43
607.136	41
607.899	43
608.662	40
609.426	39
610.189	39
610.952	36
611.715	35
612.478	28
613.241	32
614.004	28
614.767	28
615.529	28
616.292	25
617.055	24
617.817	21
618.579	22
619.342	24
620.104	23
620.866	20
621.628	20
622.39	20
623.152	18
623.914	18
624.676	17
625.438	18
626.199	17
626.961	16
627.722	16
628.484	14
629.245	12
630.006	15
630.768	12
631.529	13
632.29	11
633.051	15
633.812	10
634.573	13
635.333	10
636.094	8
636.855	11
637.615	12
638.376	10
639.136	8
639.896	9
640.657	9
641.417	9
642.177	10
642.937	7
643.697	11
644.457	8
645.216	8
645.976	7
646.736	6
647.495	8
648.255	5
649.014	8
649.774	6
650.533	8
651.292	5
652.051	6
652.81	9
653.569	6
654.328	6
655.087	4
655.846	3
656.604	7
657.363	6
658.121	4
658.88	5
659.638	7
660.397	4
661.155	7
661.913	4
662.671	3
663.429	4
664.187	5
664.945	5
665.703	5
666.46	6
667.218	4
667.976	6
668.733	4
669.49	5
670.248	6
671.005	2
671.762	4
672.519	4
673.276	3
674.033	4
674.79	4
675.547	4
676.304	5
677.06	2
677.817	4
678.574	5
679.33	2
680.086	5
680.843	3
681.599	3
682.355	2
683.111	2
683.867	3
684.623	2
685.379	1
686.135	3
686.89	5
687.646	1
688.402	3
689.157	5
689.912	3
690.668	1
691.423	4
692.178	4
692.933	1
693.688	3
694.443	3
695.198	4
695.953	3
696.708	3
697.462	4
698.217	4
698.972	2
699.726	2
700.48	4
701.235	3
701.989	4
702.743	4
703.497	4
704.251	1
705.005	1
705.759	-1
706.513	1
707.266	0
708.02	3
708.774	3
709.527	4
710.28	3
711.034	4
711.787	1
712.54	4
713.293	1
714.046	3
714.799	2
715.552	6
716.305	2
717.058	5
717.81	3
718.563	2
719.315	1
720.068	4
720.82	3
721.573	5
722.325	3
723.077	3
723.829	5
724.581	3
725.333	1
726.085	4
726.836	4
727.588	2
728.34	2
729.091	3
729.843	3
730.594	0
731.346	3
732.097	3
732.848	4
733.599	2
734.35	4
735.101	3
735.852	2
736.603	5
737.354	5
738.104	5
738.855	4
739.605	3
740.356	4
741.106	1
741.856	3
742.607	3
743.357	7
744.107	4
744.857	4
745.607	4
746.357	2
747.106	4
747.856	5
748.606	3
749.355	4
750.105	5
750.854	3
751.603	2
752.353	4
753.102	5
753.851	5
754.6	1
755.349	4
756.098	4
756.847	5
757.595	4
758.344	6
759.093	3
759.841	3
760.589	1
761.338	4
762.086	4
762.834	5
763.582	6
764.331	4
765.079	7
765.826	4
766.574	5
767.322	5
768.07	5
768.817	6
769.565	3
770.312	5
771.06	5
771.807	6
772.554	5
773.302	6
774.049	6
774.796	4
775.543	6
776.29	6
777.036	5
777.783	6
778.53	8
779.276	7
780.023	7
780.769	8
781.516	5
782.262	11
783.008	7
783.754	8
784.5	8
785.246	8
785.992	9
786.738	8
787.484	9
788.23	7
788.975	5
789.721	8
790.466	7
791.212	7
791.957	7
792.702	7
793.447	10
794.193	7
794.938	6
795.683	5
796.427	10
797.172	9
797.917	6
798.662	7
799.406	6
800.151	6
800.895	8
801.64	7
802.384	5
803.128	7
803.872	4
804.616	7
805.36	5
806.104	5
806.848	6
807.592	4
808.336	6
809.079	5
809.823	4
810.566	6
811.31	5
812.053	4
812.796	5
813.539	3
814.283	4
815.026	6
815.769	6
816.511	6
817.254	2
817.997	5
818.74	2
819.482	4
820.225	3
820.967	3
821.71	1
822.452	2
823.194	4
823.936	3
824.678	3
825.42	4
826.162	6
826.904	2
827.646	5
828.388	6
829.129	4
829.871	5
830.612	2
831.354	2
832.095	3
832.836	4
833.577	4
834.319	4
835.06	3
835.801	4
836.542	4
837.282	5
838.023	3
838.764	2
839.504	0
840.245	4
840.985	5
841.726	3
842.466	4
843.206	4
843.946	3
844.687	1
845.427	4
846.166	1
846.906	1
847.646	0
848.386	1
849.125	3
849.865	1
850.605	1
851.344	2
852.083	2
852.823	3
853.562	0
854.301	1
855.04	1
855.779	1
856.518	3
857.257	2
857.995	3
858.734	2
859.473	0
860.211	1
860.95	2
861.688	0
862.426	0
863.165	2
863.903	0
864.641	0
865.379	2
866.117	0
866.855	1
867.593	0
868.33	3
869.068	-3
869.806	-1
870.543	0
871.28	1
872.018	0
872.755	2
873.492	1
874.229	0
874.967	-1
875.703	1
876.44	-1
877.177	1
877.914	-1
878.651	1
879.387	0
880.124	2
880.86	0
881.597	0
882.333	0
883.069	0
883.806	-1
884.542	0
885.278	2
886.014	0
886.749	0
887.485	0
888.221	0
888.957	0
889.692	1
890.428	0
891.163	0
891.899	0
892.634	-1
893.369	-1
894.104	-1
894.839	0
895.574	0
896.309	1
897.044	-2
897.779	-1
898.514	0
899.248	1
899.983	0
900.717	-1
901.452	0
902.186	-2
902.92	-3
903.654	0
904.389	0
905.123	0
905.857	1
906.59	0
907.324	2
908.058	0
908.792	1
909.525	0
910.259	0
910.992	-2
911.726	1
912.459	0
913.192	0
913.925	1
914.658	-1
915.391	1
916.124	0
916.857	0
917.59	1
918.323	-1
919.055	0
919.788	-3
920.521	-1
921.253	0
921.985	1
922.718	0
923.45	2
924.182	-1
924.914	-2
925.646	1
926.378	-1
927.11	0
927.841	0
928.573	-1
929.305	0
930.036	-1
930.768	-1
931.499	0
932.23	-1
932.962	0
933.693	-4
934.424	-1
935.155	-1
935.886	-1
936.617	-1
937.348	-3
938.078	-1
938.809	-1
939.54	0
940.27	1
941.001	2
941.731	1
942.461	0
943.191	0
943.922	-2
944.652	0
945.382	2
946.112	0
946.841	-2
947.571	-1
948.301	1
949.031	-4
949.76	1
950.49	-2
951.219	-3
951.948	0
952.678	-1
953.407	-1
954.136	-1
954.865	-3
955.594	0
956.323	-1
957.052	-1
957.78	-1
958.509	-1
959.238	-2
959.966	0
960.695	1
961.423	-1
962.151	1
962.88	-2
963.608	0
964.336	1
965.064	-1
965.792	-1
966.52	-1
967.247	2
967.975	-2
968.703	0
969.43	0
970.158	-2
970.885	1
971.613	-1
972.34	-2
973.067	0
973.794	0
974.521	-3
975.248	1
975.975	-2
976.702	-1
977.429	1
978.156	-1
978.882	1
979.609	0
980.335	-3
981.062	-1
981.788	1
982.514	-3
983.24	2
983.967	0
984.693	-1
985.419	1
986.144	0
986.87	-3
987.596	0
988.322	0
989.047	1
989.773	-1
990.498	-2
991.224	-1
991.949	0
992.674	1
993.399	1
994.124	2
994.849	-1
995.574	-2
996.299	0
997.024	-3
997.749	-1
998.473	-1
999.198	0
999.922	-2
1000.647	0
1001.371	4
1002.095	1
1002.82	-1
1003.544	-1
1004.268	1
1004.992	0
1005.716	-1
1006.439	-3
1007.163	1
1007.887	-1
1008.611	-1
1009.334	-2
1010.058	-1
1010.781	-1
1011.504	0
1012.228	0
1012.951	-1
1013.674	-1
1014.397	-2
1015.12	1
