节点500_285_QEPB04081__706__15-07-17-818.txt的数据

Date: Wed Nov 12 15:07:17 CST 2025
User: PC
Spectrometer: QEPB0408
触发模式: 0
积分时间 (秒): 1.000000E-2
Scans to average: 1
启用暗噪声校正: true
启用非线性校正: false
滑动平均宽度: 0
X轴模式: Wavelengths
Number of Pixels in Spectrum: 1044
>>>>>Begin Spectral Data<<<<<
220.843	2.25
221.644	1.25
222.444	1.25
223.244	1.25
224.045	3.25
224.845	2.25
225.645	2.25
226.445	1.25
227.245	3.25
228.045	1.25
228.845	1.25
229.645	4.25
230.444	3.25
231.244	2.25
232.043	5.25
232.843	0.25
233.642	2.25
234.442	3.25
235.241	3.25
236.04	5.25
236.839	5.25
237.638	3.25
238.437	5.25
239.236	3.25
240.035	4.25
240.833	2.25
241.632	7.25
242.43	2.25
243.229	3.25
244.027	3.25
244.826	7.25
245.624	5.25
246.422	5.25
247.22	6.25
248.018	8.25
248.816	6.25
249.614	7.25
250.412	6.25
251.21	8.25
252.007	6.25
252.805	5.25
253.602	7.25
254.4	8.25
255.197	6.25
255.994	7.25
256.791	6.25
257.589	6.25
258.386	9.25
259.183	9.25
259.979	8.25
260.776	9.25
261.573	8.25
262.37	7.25
263.166	9.25
263.963	9.25
264.759	9.25
265.556	11.25
266.352	12.25
267.148	11.25
267.944	11.25
268.74	10.25
269.536	14.25
270.332	14.25
271.128	14.25
271.924	13.25
272.719	14.25
273.515	16.25
274.311	17.25
275.106	17.25
275.901	16.25
276.697	14.25
277.492	14.25
278.287	16.25
279.082	14.25
279.877	17.25
280.672	16.25
281.467	16.25
282.262	19.25
283.056	21.25
283.851	18.25
284.646	17.25
285.44	22.25
286.234	18.25
287.029	17.25
287.823	17.25
288.617	18.25
289.411	14.25
290.205	18.25
290.999	18.25
291.793	16.25
292.587	14.25
293.381	17.25
294.174	16.25
294.968	15.25
295.761	17.25
296.555	13.25
297.348	17.25
298.141	14.25
298.935	17.25
299.728	14.25
300.521	12.25
301.314	12.25
302.107	14.25
302.899	12.25
303.692	11.25
304.485	12.25
305.277	14.25
306.07	14.25
306.862	14.25
307.655	10.25
308.447	12.25
309.239	14.25
310.031	11.25
310.823	13.25
311.615	11.25
312.407	11.25
313.199	8.25
313.991	10.25
314.783	9.25
315.574	6.25
316.366	9.25
317.157	9.25
317.949	10.25
318.74	6.25
319.531	8.25
320.322	7.25
321.113	7.25
321.904	8.25
322.695	7.25
323.486	6.25
324.277	6.25
325.068	7.25
325.858	7.25
326.649	6.25
327.439	8.25
328.23	5.25
329.02	6.25
329.81	5.25
330.6	5.25
331.391	5.25
332.181	9.25
332.971	6.25
333.76	6.25
334.55	4.25
335.34	9.25
336.13	7.25
336.919	8.25
337.709	8.25
338.498	7.25
339.287	9.25
340.077	4.25
340.866	6.25
341.655	4.25
342.444	6.25
343.233	8.25
344.022	4.25
344.811	5.25
345.6	7.25
346.388	5.25
347.177	6.25
347.965	7.25
348.754	7.25
349.542	5.25
350.33	5.25
351.119	5.25
351.907	4.25
352.695	5.25
353.483	9.25
354.271	5.25
355.059	8.25
355.846	5.25
356.634	5.25
357.422	8.25
358.209	7.25
358.997	7.25
359.784	6.25
360.571	7.25
361.359	5.25
362.146	4.25
362.933	5.25
363.72	5.25
364.507	5.25
365.294	3.25
366.081	5.25
366.867	5.25
367.654	5.25
368.44	7.25
369.227	6.25
370.013	5.25
370.8	6.25
371.586	5.25
372.372	5.25
373.158	5.25
373.944	5.25
374.73	5.25
375.516	5.25
376.302	5.25
377.088	5.25
377.873	5.25
378.659	6.25
379.445	4.25
380.23	4.25
381.015	5.25
381.801	4.25
382.586	3.25
383.371	4.25
384.156	4.25
384.941	5.25
385.726	4.25
386.511	2.25
387.296	6.25
388.08	7.25
388.865	7.25
389.649	5.25
390.434	5.25
391.218	9.25
392.003	5.25
392.787	5.25
393.571	5.25
394.355	4.25
395.139	5.25
395.923	5.25
396.707	6.25
397.491	6.25
398.274	8.25
399.058	5.25
399.842	4.25
400.625	5.25
401.408	9.25
402.192	7.25
402.975	6.25
403.758	7.25
404.541	7.25
405.324	9.25
406.107	7.25
406.89	6.25
407.673	8.25
408.456	7.25
409.238	5.25
410.021	8.25
410.803	7.25
411.586	10.25
412.368	8.25
413.151	9.25
413.933	11.25
414.715	11.25
415.497	8.25
416.279	10.25
417.061	9.25
417.843	9.25
418.624	7.25
419.406	8.25
420.188	9.25
420.969	8.25
421.751	11.25
422.532	9.25
423.313	12.25
424.095	11.25
424.876	10.25
425.657	10.25
426.438	11.25
427.219	11.25
428	13.25
428.78	14.25
429.561	13.25
430.342	12.25
431.122	14.25
431.903	14.25
432.683	13.25
433.464	15.25
434.244	17.25
435.024	18.25
435.804	17.25
436.584	18.25
437.364	19.25
438.144	19.25
438.924	23.25
439.704	23.25
440.483	24.25
441.263	23.25
442.042	24.25
442.822	27.25
443.601	25.25
444.38	33.25
445.16	32.25
445.939	34.25
446.718	39.25
447.497	39.25
448.276	45.25
449.054	47.25
449.833	56.25
450.612	57.25
451.391	63.25
452.169	67.25
452.948	73.25
453.726	80.25
454.504	90.25
455.282	97.25
456.061	108.25
456.839	122.25
457.617	137.25
458.395	147.25
459.172	169.25
459.95	183.25
460.728	210.25
461.506	229.25
462.283	251.25
463.061	280.25
463.838	309.25
464.615	353.25
465.393	395.25
466.17	436.25
466.947	482.25
467.724	532.25
468.501	596.25
469.278	661.25
470.055	735.25
470.831	819.25
471.608	894.25
472.385	993.25
473.161	1089.25
473.938	1192.25
474.714	1327.25
475.49	1469.25
476.266	1594.25
477.043	1755.25
477.819	1941.25
478.595	2136.25
479.371	2334.25
480.146	2556.25
480.922	2797.25
481.698	3046.25
482.473	3361.25
483.249	3644.25
484.024	3996.25
484.8	4352.25
485.575	4753.25
486.35	5212.25
487.126	5666.25
487.901	6148.25
488.676	6760.25
489.451	7322.25
490.225	7969.25
491	8660.25
491.775	9445.25
492.55	10212.25
493.324	11031.25
494.099	11862.25
494.873	12722.25
495.647	13650.25
496.422	14645.25
497.196	15685.25
497.97	16727.25
498.744	17871.25
499.518	18846.25
500.292	19894.25
501.066	20955.25
501.839	21835.25
502.613	22728.25
503.387	23562.25
504.16	24231.25
504.934	24663.25
505.707	25025.25
506.48	25291.25
507.253	25381.25
508.027	25414.25
508.8	25347.25
509.573	25107.25
510.346	24797.25
511.118	24183.25
511.891	23624.25
512.664	22985.25
513.437	22273.25
514.209	21418.25
514.982	20701.25
515.754	19859.25
516.526	19040.25
517.298	18291.25
518.071	17530.25
518.843	16877.25
519.615	16194.25
520.387	15641.25
521.159	14988.25
521.93	14350.25
522.702	13810.25
523.474	13224.25
524.245	12682.25
525.017	12178.25
525.788	11697.25
526.56	11217.25
527.331	10664.25
528.102	10222.25
528.873	9766.25
529.644	9313.25
530.415	8865.25
531.186	8477.25
531.957	8046.25
532.728	7647.25
533.498	7325.25
534.269	6856.25
535.039	6554.25
535.81	6162.25
536.58	5834.25
537.351	5559.25
538.121	5194.25
538.891	4955.25
539.661	4691.25
540.431	4413.25
541.201	4182.25
541.971	3937.25
542.741	3752.25
543.51	3570.25
544.28	3415.25
545.05	3219.25
545.819	3056.25
546.588	2894.25
547.358	2775.25
548.127	2623.25
548.896	2494.25
549.665	2384.25
550.434	2247.25
551.203	2133.25
551.972	2025.25
552.741	1904.25
553.51	1797.25
554.278	1726.25
555.047	1622.25
555.815	1524.25
556.584	1449.25
557.352	1385.25
558.121	1291.25
558.889	1203.25
559.657	1162.25
560.425	1086.25
561.193	1026.25
561.961	962.25
562.729	920.25
563.496	869.25
564.264	821.25
565.032	775.25
565.799	729.25
566.567	694.25
567.334	653.25
568.101	623.25
568.869	582.25
569.636	552.25
570.403	517.25
571.17	488.25
571.937	458.25
572.704	434.25
573.471	406.25
574.237	384.25
575.004	374.25
575.771	341.25
576.537	324.25
577.303	301.25
578.07	291.25
578.836	270.25
579.602	257.25
580.368	246.25
581.134	229.25
581.9	219.25
582.666	208.25
583.432	199.25
584.198	190.25
584.964	177.25
585.729	167.25
586.495	154.25
587.26	147.25
588.025	139.25
588.791	136.25
589.556	129.25
590.321	121.25
591.086	115.25
591.851	110.25
592.616	108.25
593.381	96.25
594.146	89.25
594.911	90.25
595.675	87.25
596.44	84.25
597.204	76.25
597.969	73.25
598.733	67.25
599.497	66.25
600.261	63.25
601.025	60.25
601.79	60.25
602.553	56.25
603.317	54.25
604.081	57.25
604.845	50.25
605.609	47.25
606.372	42.25
607.136	46.25
607.899	41.25
608.662	38.25
609.426	38.25
610.189	38.25
610.952	36.25
611.715	33.25
612.478	34.25
613.241	30.25
614.004	27.25
614.767	33.25
615.529	25.25
616.292	28.25
617.055	27.25
617.817	24.25
618.579	21.25
619.342	24.25
620.104	25.25
620.866	18.25
621.628	21.25
622.39	20.25
623.152	20.25
623.914	19.25
624.676	18.25
625.438	16.25
626.199	16.25
626.961	15.25
627.722	17.25
628.484	18.25
629.245	14.25
630.006	13.25
630.768	16.25
631.529	12.25
632.29	14.25
633.051	16.25
633.812	14.25
634.573	14.25
635.333	12.25
636.094	10.25
636.855	9.25
637.615	12.25
638.376	9.25
639.136	12.25
639.896	9.25
640.657	9.25
641.417	10.25
642.177	8.25
642.937	9.25
643.697	8.25
644.457	9.25
645.216	9.25
645.976	7.25
646.736	8.25
647.495	8.25
648.255	7.25
649.014	8.25
649.774	6.25
650.533	8.25
651.292	8.25
652.051	7.25
652.81	5.25
653.569	7.25
654.328	5.25
655.087	7.25
655.846	8.25
656.604	2.25
657.363	7.25
658.121	8.25
658.88	7.25
659.638	6.25
660.397	5.25
661.155	4.25
661.913	5.25
662.671	4.25
663.429	7.25
664.187	5.25
664.945	7.25
665.703	4.25
666.46	6.25
667.218	4.25
667.976	5.25
668.733	8.25
669.49	3.25
670.248	6.25
671.005	6.25
671.762	4.25
672.519	5.25
673.276	5.25
674.033	4.25
674.79	4.25
675.547	4.25
676.304	3.25
677.06	5.25
677.817	4.25
678.574	2.25
679.33	4.25
680.086	2.25
680.843	5.25
681.599	4.25
682.355	3.25
683.111	6.25
683.867	3.25
684.623	5.25
685.379	4.25
686.135	4.25
686.89	6.25
687.646	7.25
688.402	2.25
689.157	4.25
689.912	2.25
690.668	4.25
691.423	4.25
692.178	4.25
692.933	2.25
693.688	5.25
694.443	2.25
695.198	4.25
695.953	2.25
696.708	5.25
697.462	4.25
698.217	1.25
698.972	5.25
699.726	1.25
700.48	4.25
701.235	2.25
701.989	3.25
702.743	4.25
703.497	2.25
704.251	7.25
705.005	4.25
705.759	1.25
706.513	0.25
707.266	2.25
708.02	3.25
708.774	3.25
709.527	2.25
710.28	2.25
711.034	5.25
711.787	4.25
712.54	4.25
713.293	3.25
714.046	2.25
714.799	4.25
715.552	3.25
716.305	4.25
717.058	6.25
717.81	6.25
718.563	4.25
719.315	4.25
720.068	4.25
720.82	1.25
721.573	3.25
722.325	2.25
723.077	2.25
723.829	4.25
724.581	4.25
725.333	5.25
726.085	3.25
726.836	4.25
727.588	2.25
728.34	5.25
729.091	4.25
729.843	4.25
730.594	2.25
731.346	6.25
732.097	6.25
732.848	5.25
733.599	1.25
734.35	6.25
735.101	4.25
735.852	3.25
736.603	5.25
737.354	4.25
738.104	3.25
738.855	5.25
739.605	6.25
740.356	5.25
741.106	4.25
741.856	6.25
742.607	4.25
743.357	2.25
744.107	5.25
744.857	4.25
745.607	5.25
746.357	4.25
747.106	5.25
747.856	2.25
748.606	5.25
749.355	5.25
750.105	3.25
750.854	5.25
751.603	5.25
752.353	5.25
753.102	5.25
753.851	5.25
754.6	4.25
755.349	5.25
756.098	5.25
756.847	5.25
757.595	9.25
758.344	6.25
759.093	6.25
759.841	5.25
760.589	4.25
761.338	6.25
762.086	4.25
762.834	4.25
763.582	4.25
764.331	4.25
765.079	6.25
765.826	6.25
766.574	8.25
767.322	7.25
768.07	7.25
768.817	6.25
769.565	5.25
770.312	7.25
771.06	4.25
771.807	6.25
772.554	5.25
773.302	5.25
774.049	9.25
774.796	9.25
775.543	5.25
776.29	9.25
777.036	10.25
777.783	10.25
778.53	10.25
779.276	7.25
780.023	8.25
780.769	9.25
781.516	7.25
782.262	7.25
783.008	10.25
783.754	8.25
784.5	6.25
785.246	9.25
785.992	7.25
786.738	8.25
787.484	9.25
788.23	12.25
788.975	7.25
789.721	8.25
790.466	7.25
791.212	9.25
791.957	9.25
792.702	9.25
793.447	8.25
794.193	7.25
794.938	7.25
795.683	9.25
796.427	11.25
797.172	8.25
797.917	6.25
798.662	7.25
799.406	11.25
800.151	7.25
800.895	6.25
801.64	9.25
802.384	8.25
803.128	8.25
803.872	5.25
804.616	6.25
805.36	7.25
806.104	4.25
806.848	4.25
807.592	5.25
808.336	7.25
809.079	6.25
809.823	6.25
810.566	6.25
811.31	5.25
812.053	6.25
812.796	5.25
813.539	5.25
814.283	6.25
815.026	5.25
815.769	3.25
816.511	5.25
817.254	1.25
817.997	5.25
818.74	5.25
819.482	5.25
820.225	2.25
820.967	3.25
821.71	4.25
822.452	6.25
823.194	5.25
823.936	4.25
824.678	6.25
825.42	3.25
826.162	5.25
826.904	4.25
827.646	2.25
828.388	4.25
829.129	2.25
829.871	4.25
830.612	3.25
831.354	4.25
832.095	4.25
832.836	3.25
833.577	3.25
834.319	3.25
835.06	5.25
835.801	4.25
836.542	4.25
837.282	3.25
838.023	2.25
838.764	4.25
839.504	1.25
840.245	4.25
840.985	4.25
841.726	4.25
842.466	5.25
843.206	5.25
843.946	5.25
844.687	3.25
845.427	5.25
846.166	3.25
846.906	2.25
847.646	3.25
848.386	2.25
849.125	3.25
849.865	1.25
850.605	1.25
851.344	1.25
852.083	3.25
852.823	2.25
853.562	2.25
854.301	6.25
855.04	3.25
855.779	3.25
856.518	2.25
857.257	1.25
857.995	2.25
858.734	3.25
859.473	3.25
860.211	-1.75
860.95	2.25
861.688	2.25
862.426	3.25
863.165	2.25
863.903	2.25
864.641	1.25
865.379	1.25
866.117	3.25
866.855	1.25
867.593	-0.75
868.33	3.25
869.068	2.25
869.806	1.25
870.543	2.25
871.28	1.25
872.018	1.25
872.755	1.25
873.492	2.25
874.229	0.25
874.967	0.25
875.703	3.25
876.44	0.25
877.177	2.25
877.914	3.25
878.651	3.25
879.387	2.25
880.124	1.25
880.86	2.25
881.597	1.25
882.333	4.25
883.069	2.25
883.806	2.25
884.542	3.25
885.278	2.25
886.014	1.25
886.749	1.25
887.485	2.25
888.221	0.25
888.957	2.25
889.692	-0.75
890.428	1.25
891.163	-0.75
891.899	-0.75
892.634	0.25
893.369	1.25
894.104	2.25
894.839	1.25
895.574	1.25
896.309	1.25
897.044	-0.75
897.779	2.25
898.514	1.25
899.248	1.25
899.983	0.25
900.717	2.25
901.452	1.25
902.186	2.25
902.92	-0.75
903.654	2.25
904.389	-1.75
905.123	-1.75
905.857	-0.75
906.59	3.25
907.324	1.25
908.058	1.25
908.792	1.25
909.525	1.25
910.259	-0.75
910.992	0.25
911.726	1.25
912.459	2.25
913.192	1.25
913.925	-0.75
914.658	1.25
915.391	3.25
916.124	1.25
916.857	0.25
917.59	-1.75
918.323	0.25
919.055	-1.75
919.788	0.25
920.521	1.25
921.253	0.25
921.985	0.25
922.718	0.25
923.45	2.25
924.182	2.25
924.914	-0.75
925.646	1.25
926.378	2.25
927.11	-0.75
927.841	0.25
928.573	1.25
929.305	1.25
930.036	1.25
930.768	0.25
931.499	-0.75
932.23	3.25
932.962	1.25
933.693	0.25
934.424	0.25
935.155	-0.75
935.886	0.25
936.617	-0.75
937.348	0.25
938.078	1.25
938.809	0.25
939.54	-0.75
940.27	-1.75
941.001	1.25
941.731	0.25
942.461	1.25
943.191	1.25
943.922	0.25
944.652	1.25
945.382	-0.75
946.112	1.25
946.841	0.25
947.571	-0.75
948.301	0.25
949.031	2.25
949.76	1.25
950.49	1.25
951.219	1.25
951.948	0.25
952.678	3.25
953.407	1.25
954.136	1.25
954.865	1.25
955.594	-0.75
956.323	1.25
957.052	0.25
957.78	1.25
958.509	0.25
959.238	-1.75
959.966	-1.75
960.695	0.25
961.423	0.25
962.151	0.25
962.88	2.25
963.608	3.25
964.336	-1.75
965.064	0.25
965.792	-0.75
966.52	0.25
967.247	1.25
967.975	1.25
968.703	0.25
969.43	0.25
970.158	-1.75
970.885	0.25
971.613	1.25
972.34	2.25
973.067	0.25
973.794	1.25
974.521	0.25
975.248	2.25
975.975	1.25
976.702	0.25
977.429	1.25
978.156	1.25
978.882	1.25
979.609	1.25
980.335	0.25
981.062	3.25
981.788	2.25
982.514	0.25
983.24	-1.75
983.967	1.25
984.693	1.25
985.419	0.25
986.144	0.25
986.87	2.25
987.596	0.25
988.322	1.25
989.047	2.25
989.773	0.25
990.498	1.25
991.224	0.25
991.949	0.25
992.674	2.25
993.399	-0.75
994.124	1.25
994.849	1.25
995.574	1.25
996.299	0.25
997.024	-0.75
997.749	2.25
998.473	0.25
999.198	0.25
999.922	0.25
1000.647	-0.75
1001.371	4.25
1002.095	-1.75
1002.82	-1.75
1003.544	-1.75
1004.268	2.25
1004.992	0.25
1005.716	-0.75
1006.439	1.25
1007.163	3.25
1007.887	3.25
1008.611	0.25
1009.334	1.25
1010.058	0.25
1010.781	1.25
1011.504	1.25
1012.228	1.25
1012.951	1.25
1013.674	-1.75
1014.397	0.25
1015.12	1.25
