节点500_285_QEPB04081__724__15-07-35-803.txt的数据

Date: Wed Nov 12 15:07:35 CST 2025
User: PC
Spectrometer: QEPB0408
触发模式: 0
积分时间 (秒): 1.000000E-2
Scans to average: 1
启用暗噪声校正: true
启用非线性校正: false
滑动平均宽度: 0
X轴模式: Wavelengths
Number of Pixels in Spectrum: 1044
>>>>>Begin Spectral Data<<<<<
220.843	1.5
221.644	0.5
222.444	1.5
223.244	2.5
224.045	3.5
224.845	1.5
225.645	2.5
226.445	2.5
227.245	2.5
228.045	3.5
228.845	0.5
229.645	4.5
230.444	2.5
231.244	2.5
232.043	5.5
232.843	1.5
233.642	4.5
234.442	5.5
235.241	5.5
236.04	2.5
236.839	2.5
237.638	4.5
238.437	2.5
239.236	5.5
240.035	4.5
240.833	6.5
241.632	4.5
242.43	4.5
243.229	5.5
244.027	5.5
244.826	2.5
245.624	3.5
246.422	5.5
247.22	3.5
248.018	4.5
248.816	6.5
249.614	2.5
250.412	6.5
251.21	6.5
252.007	4.5
252.805	6.5
253.602	6.5
254.4	10.5
255.197	6.5
255.994	7.5
256.791	8.5
257.589	10.5
258.386	7.5
259.183	5.5
259.979	9.5
260.776	9.5
261.573	8.5
262.37	12.5
263.166	7.5
263.963	9.5
264.759	10.5
265.556	10.5
266.352	10.5
267.148	12.5
267.944	11.5
268.74	14.5
269.536	14.5
270.332	13.5
271.128	13.5
271.924	12.5
272.719	14.5
273.515	16.5
274.311	13.5
275.106	16.5
275.901	17.5
276.697	16.5
277.492	17.5
278.287	14.5
279.082	15.5
279.877	15.5
280.672	21.5
281.467	16.5
282.262	16.5
283.056	18.5
283.851	17.5
284.646	18.5
285.44	17.5
286.234	15.5
287.029	16.5
287.823	15.5
288.617	18.5
289.411	17.5
290.205	18.5
290.999	18.5
291.793	18.5
292.587	15.5
293.381	14.5
294.174	18.5
294.968	14.5
295.761	17.5
296.555	14.5
297.348	12.5
298.141	14.5
298.935	16.5
299.728	16.5
300.521	14.5
301.314	14.5
302.107	14.5
302.899	12.5
303.692	12.5
304.485	11.5
305.277	16.5
306.07	14.5
306.862	12.5
307.655	14.5
308.447	12.5
309.239	12.5
310.031	10.5
310.823	10.5
311.615	11.5
312.407	10.5
313.199	9.5
313.991	11.5
314.783	9.5
315.574	9.5
316.366	10.5
317.157	8.5
317.949	7.5
318.74	6.5
319.531	6.5
320.322	7.5
321.113	7.5
321.904	9.5
322.695	9.5
323.486	8.5
324.277	7.5
325.068	7.5
325.858	10.5
326.649	5.5
327.439	8.5
328.23	7.5
329.02	6.5
329.81	8.5
330.6	5.5
331.391	7.5
332.181	6.5
332.971	8.5
333.76	5.5
334.55	5.5
335.34	5.5
336.13	6.5
336.919	6.5
337.709	5.5
338.498	7.5
339.287	5.5
340.077	5.5
340.866	4.5
341.655	6.5
342.444	7.5
343.233	6.5
344.022	7.5
344.811	7.5
345.6	6.5
346.388	7.5
347.177	6.5
347.965	7.5
348.754	6.5
349.542	7.5
350.33	5.5
351.119	8.5
351.907	5.5
352.695	6.5
353.483	7.5
354.271	7.5
355.059	6.5
355.846	8.5
356.634	7.5
357.422	6.5
358.209	5.5
358.997	5.5
359.784	6.5
360.571	6.5
361.359	8.5
362.146	4.5
362.933	5.5
363.72	6.5
364.507	5.5
365.294	4.5
366.081	4.5
366.867	3.5
367.654	4.5
368.44	3.5
369.227	6.5
370.013	2.5
370.8	5.5
371.586	3.5
372.372	6.5
373.158	4.5
373.944	6.5
374.73	5.5
375.516	4.5
376.302	3.5
377.088	3.5
377.873	5.5
378.659	7.5
379.445	5.5
380.23	7.5
381.015	5.5
381.801	6.5
382.586	4.5
383.371	7.5
384.156	5.5
384.941	3.5
385.726	7.5
386.511	3.5
387.296	7.5
388.08	3.5
388.865	7.5
389.649	7.5
390.434	5.5
391.218	5.5
392.003	5.5
392.787	5.5
393.571	5.5
394.355	4.5
395.139	6.5
395.923	4.5
396.707	10.5
397.491	5.5
398.274	7.5
399.058	6.5
399.842	4.5
400.625	7.5
401.408	8.5
402.192	8.5
402.975	7.5
403.758	8.5
404.541	7.5
405.324	6.5
406.107	6.5
406.89	6.5
407.673	6.5
408.456	8.5
409.238	7.5
410.021	7.5
410.803	10.5
411.586	9.5
412.368	9.5
413.151	9.5
413.933	6.5
414.715	8.5
415.497	8.5
416.279	7.5
417.061	10.5
417.843	9.5
418.624	9.5
419.406	10.5
420.188	8.5
420.969	10.5
421.751	13.5
422.532	10.5
423.313	10.5
424.095	12.5
424.876	10.5
425.657	12.5
426.438	11.5
427.219	12.5
428	11.5
428.78	14.5
429.561	14.5
430.342	15.5
431.122	13.5
431.903	17.5
432.683	15.5
433.464	14.5
434.244	17.5
435.024	15.5
435.804	17.5
436.584	19.5
437.364	23.5
438.144	20.5
438.924	22.5
439.704	22.5
440.483	22.5
441.263	23.5
442.042	24.5
442.822	27.5
443.601	28.5
444.38	30.5
445.16	33.5
445.939	37.5
446.718	40.5
447.497	42.5
448.276	43.5
449.054	50.5
449.833	53.5
450.612	57.5
451.391	64.5
452.169	71.5
452.948	73.5
453.726	85.5
454.504	91.5
455.282	102.5
456.061	111.5
456.839	124.5
457.617	139.5
458.395	149.5
459.172	162.5
459.95	187.5
460.728	206.5
461.506	226.5
462.283	254.5
463.061	288.5
463.838	315.5
464.615	351.5
465.393	392.5
466.17	440.5
466.947	486.5
467.724	535.5
468.501	591.5
469.278	658.5
470.055	722.5
470.831	813.5
471.608	889.5
472.385	999.5
473.161	1100.5
473.938	1202.5
474.714	1331.5
475.49	1461.5
476.266	1603.5
477.043	1781.5
477.819	1949.5
478.595	2148.5
479.371	2301.5
480.146	2567.5
480.922	2790.5
481.698	3096.5
482.473	3350.5
483.249	3643.5
484.024	3994.5
484.8	4346.5
485.575	4750.5
486.35	5210.5
487.126	5665.5
487.901	6168.5
488.676	6723.5
489.451	7332.5
490.225	7976.5
491	8645.5
491.775	9366.5
492.55	10236.5
493.324	10978.5
494.099	11758.5
494.873	12679.5
495.647	13635.5
496.422	14607.5
497.196	15661.5
497.97	16645.5
498.744	17776.5
499.518	18769.5
500.292	19800.5
501.066	20836.5
501.839	21758.5
502.613	22639.5
503.387	23457.5
504.16	24242.5
504.934	24635.5
505.707	24942.5
506.48	25230.5
507.253	25361.5
508.027	25315.5
508.8	25293.5
509.573	25107.5
510.346	24710.5
511.118	24242.5
511.891	23637.5
512.664	22998.5
513.437	22285.5
514.209	21485.5
514.982	20719.5
515.754	19889.5
516.526	19077.5
517.298	18279.5
518.071	17540.5
518.843	16888.5
519.615	16256.5
520.387	15659.5
521.159	15006.5
521.93	14386.5
522.702	13823.5
523.474	13285.5
524.245	12658.5
525.017	12199.5
525.788	11734.5
526.56	11204.5
527.331	10696.5
528.102	10272.5
528.873	9790.5
529.644	9360.5
530.415	8930.5
531.186	8504.5
531.957	8076.5
532.728	7703.5
533.498	7310.5
534.269	6922.5
535.039	6535.5
535.81	6187.5
536.58	5880.5
537.351	5568.5
538.121	5209.5
538.891	4985.5
539.661	4689.5
540.431	4441.5
541.201	4169.5
541.971	3971.5
542.741	3777.5
543.51	3584.5
544.28	3405.5
545.05	3248.5
545.819	3056.5
546.588	2927.5
547.358	2774.5
548.127	2659.5
548.896	2519.5
549.665	2381.5
550.434	2245.5
551.203	2154.5
551.972	2045.5
552.741	1934.5
553.51	1819.5
554.278	1720.5
555.047	1634.5
555.815	1536.5
556.584	1463.5
557.352	1374.5
558.121	1303.5
558.889	1234.5
559.657	1175.5
560.425	1103.5
561.193	1036.5
561.961	969.5
562.729	916.5
563.496	868.5
564.264	821.5
565.032	788.5
565.799	739.5
566.567	692.5
567.334	652.5
568.101	629.5
568.869	587.5
569.636	544.5
570.403	510.5
571.17	485.5
571.937	465.5
572.704	435.5
573.471	409.5
574.237	391.5
575.004	369.5
575.771	347.5
576.537	331.5
577.303	309.5
578.07	291.5
578.836	271.5
579.602	257.5
580.368	246.5
581.134	233.5
581.9	217.5
582.666	206.5
583.432	198.5
584.198	187.5
584.964	174.5
585.729	166.5
586.495	156.5
587.26	154.5
588.025	145.5
588.791	135.5
589.556	128.5
590.321	120.5
591.086	119.5
591.851	107.5
592.616	109.5
593.381	97.5
594.146	94.5
594.911	90.5
595.675	84.5
596.44	82.5
597.204	81.5
597.969	76.5
598.733	75.5
599.497	68.5
600.261	65.5
601.025	63.5
601.79	59.5
602.553	54.5
603.317	52.5
604.081	51.5
604.845	50.5
605.609	47.5
606.372	44.5
607.136	43.5
607.899	38.5
608.662	39.5
609.426	39.5
610.189	33.5
610.952	37.5
611.715	30.5
612.478	30.5
613.241	34.5
614.004	30.5
614.767	26.5
615.529	27.5
616.292	27.5
617.055	23.5
617.817	25.5
618.579	24.5
619.342	25.5
620.104	22.5
620.866	23.5
621.628	19.5
622.39	21.5
623.152	19.5
623.914	18.5
624.676	15.5
625.438	18.5
626.199	16.5
626.961	17.5
627.722	17.5
628.484	17.5
629.245	16.5
630.006	12.5
630.768	14.5
631.529	15.5
632.29	13.5
633.051	14.5
633.812	12.5
634.573	11.5
635.333	11.5
636.094	13.5
636.855	13.5
637.615	13.5
638.376	11.5
639.136	10.5
639.896	11.5
640.657	10.5
641.417	9.5
642.177	10.5
642.937	8.5
643.697	9.5
644.457	11.5
645.216	10.5
645.976	11.5
646.736	8.5
647.495	8.5
648.255	8.5
649.014	8.5
649.774	9.5
650.533	9.5
651.292	8.5
652.051	8.5
652.81	6.5
653.569	6.5
654.328	6.5
655.087	7.5
655.846	6.5
656.604	6.5
657.363	4.5
658.121	6.5
658.88	7.5
659.638	7.5
660.397	8.5
661.155	6.5
661.913	6.5
662.671	5.5
663.429	6.5
664.187	5.5
664.945	5.5
665.703	7.5
666.46	5.5
667.218	5.5
667.976	3.5
668.733	5.5
669.49	7.5
670.248	6.5
671.005	6.5
671.762	4.5
672.519	1.5
673.276	3.5
674.033	6.5
674.79	1.5
675.547	5.5
676.304	3.5
677.06	3.5
677.817	7.5
678.574	4.5
679.33	3.5
680.086	3.5
680.843	4.5
681.599	6.5
682.355	4.5
683.111	5.5
683.867	4.5
684.623	5.5
685.379	4.5
686.135	5.5
686.89	4.5
687.646	2.5
688.402	5.5
689.157	6.5
689.912	7.5
690.668	5.5
691.423	5.5
692.178	2.5
692.933	4.5
693.688	6.5
694.443	5.5
695.198	4.5
695.953	5.5
696.708	4.5
697.462	4.5
698.217	2.5
698.972	5.5
699.726	5.5
700.48	3.5
701.235	5.5
701.989	3.5
702.743	2.5
703.497	1.5
704.251	3.5
705.005	3.5
705.759	5.5
706.513	4.5
707.266	5.5
708.02	3.5
708.774	2.5
709.527	2.5
710.28	4.5
711.034	4.5
711.787	2.5
712.54	6.5
713.293	4.5
714.046	4.5
714.799	3.5
715.552	5.5
716.305	3.5
717.058	4.5
717.81	5.5
718.563	6.5
719.315	5.5
720.068	3.5
720.82	4.5
721.573	6.5
722.325	4.5
723.077	2.5
723.829	5.5
724.581	3.5
725.333	4.5
726.085	5.5
726.836	5.5
727.588	3.5
728.34	2.5
729.091	2.5
729.843	6.5
730.594	5.5
731.346	5.5
732.097	3.5
732.848	5.5
733.599	3.5
734.35	7.5
735.101	4.5
735.852	4.5
736.603	2.5
737.354	3.5
738.104	3.5
738.855	2.5
739.605	4.5
740.356	5.5
741.106	3.5
741.856	4.5
742.607	4.5
743.357	8.5
744.107	4.5
744.857	5.5
745.607	4.5
746.357	5.5
747.106	5.5
747.856	7.5
748.606	6.5
749.355	3.5
750.105	6.5
750.854	4.5
751.603	6.5
752.353	5.5
753.102	3.5
753.851	6.5
754.6	5.5
755.349	6.5
756.098	4.5
756.847	5.5
757.595	5.5
758.344	6.5
759.093	7.5
759.841	3.5
760.589	6.5
761.338	7.5
762.086	4.5
762.834	8.5
763.582	5.5
764.331	5.5
765.079	5.5
765.826	5.5
766.574	7.5
767.322	4.5
768.07	4.5
768.817	6.5
769.565	7.5
770.312	8.5
771.06	7.5
771.807	8.5
772.554	7.5
773.302	10.5
774.049	7.5
774.796	5.5
775.543	4.5
776.29	7.5
777.036	9.5
777.783	7.5
778.53	9.5
779.276	7.5
780.023	7.5
780.769	8.5
781.516	8.5
782.262	10.5
783.008	6.5
783.754	8.5
784.5	8.5
785.246	11.5
785.992	10.5
786.738	9.5
787.484	7.5
788.23	9.5
788.975	8.5
789.721	9.5
790.466	9.5
791.212	9.5
791.957	8.5
792.702	6.5
793.447	8.5
794.193	6.5
794.938	8.5
795.683	6.5
796.427	10.5
797.172	7.5
797.917	9.5
798.662	8.5
799.406	9.5
800.151	9.5
800.895	8.5
801.64	7.5
802.384	8.5
803.128	7.5
803.872	7.5
804.616	9.5
805.36	8.5
806.104	6.5
806.848	7.5
807.592	7.5
808.336	7.5
809.079	6.5
809.823	6.5
810.566	6.5
811.31	5.5
812.053	5.5
812.796	5.5
813.539	5.5
814.283	8.5
815.026	5.5
815.769	6.5
816.511	4.5
817.254	6.5
817.997	6.5
818.74	7.5
819.482	4.5
820.225	5.5
820.967	6.5
821.71	5.5
822.452	6.5
823.194	3.5
823.936	2.5
824.678	5.5
825.42	4.5
826.162	4.5
826.904	2.5
827.646	4.5
828.388	5.5
829.129	5.5
829.871	4.5
830.612	6.5
831.354	6.5
832.095	4.5
832.836	5.5
833.577	5.5
834.319	1.5
835.06	6.5
835.801	3.5
836.542	6.5
837.282	2.5
838.023	3.5
838.764	1.5
839.504	5.5
840.245	4.5
840.985	2.5
841.726	7.5
842.466	2.5
843.206	4.5
843.946	4.5
844.687	3.5
845.427	3.5
846.166	2.5
846.906	3.5
847.646	5.5
848.386	4.5
849.125	5.5
849.865	2.5
850.605	4.5
851.344	3.5
852.083	6.5
852.823	3.5
853.562	3.5
854.301	3.5
855.04	4.5
855.779	3.5
856.518	3.5
857.257	2.5
857.995	2.5
858.734	2.5
859.473	2.5
860.211	1.5
860.95	2.5
861.688	2.5
862.426	-0.5
863.165	5.5
863.903	3.5
864.641	5.5
865.379	3.5
866.117	1.5
866.855	3.5
867.593	2.5
868.33	2.5
869.068	2.5
869.806	2.5
870.543	2.5
871.28	3.5
872.018	-0.5
872.755	0.5
873.492	4.5
874.229	1.5
874.967	1.5
875.703	3.5
876.44	0.5
877.177	1.5
877.914	1.5
878.651	-0.5
879.387	3.5
880.124	2.5
880.86	-0.5
881.597	1.5
882.333	2.5
883.069	1.5
883.806	1.5
884.542	1.5
885.278	1.5
886.014	0.5
886.749	2.5
887.485	3.5
888.221	1.5
888.957	0.5
889.692	-0.5
890.428	1.5
891.163	1.5
891.899	0.5
892.634	1.5
893.369	0.5
894.104	0.5
894.839	1.5
895.574	-0.5
896.309	2.5
897.044	1.5
897.779	3.5
898.514	0.5
899.248	3.5
899.983	2.5
900.717	0.5
901.452	-1.5
902.186	0.5
902.92	0.5
903.654	1.5
904.389	1.5
905.123	-0.5
905.857	0.5
906.59	0.5
907.324	0.5
908.058	3.5
908.792	2.5
909.525	-1.5
910.259	2.5
910.992	1.5
911.726	1.5
912.459	0.5
913.192	0.5
913.925	2.5
914.658	1.5
915.391	-0.5
916.124	-0.5
916.857	0.5
917.59	0.5
918.323	1.5
919.055	2.5
919.788	2.5
920.521	1.5
921.253	1.5
921.985	1.5
922.718	1.5
923.45	0.5
924.182	0.5
924.914	-0.5
925.646	-0.5
926.378	1.5
927.11	1.5
927.841	1.5
928.573	-0.5
929.305	2.5
930.036	-0.5
930.768	0.5
931.499	0.5
932.23	3.5
932.962	2.5
933.693	-2.5
934.424	1.5
935.155	0.5
935.886	1.5
936.617	1.5
937.348	-1.5
938.078	-1.5
938.809	0.5
939.54	0.5
940.27	-0.5
941.001	0.5
941.731	-0.5
942.461	0.5
943.191	-0.5
943.922	-1.5
944.652	2.5
945.382	2.5
946.112	1.5
946.841	-0.5
947.571	1.5
948.301	-1.5
949.031	0.5
949.76	0.5
950.49	2.5
951.219	1.5
951.948	0.5
952.678	0.5
953.407	0.5
954.136	-1.5
954.865	1.5
955.594	-1.5
956.323	-0.5
957.052	-0.5
957.78	1.5
958.509	-1.5
959.238	0.5
959.966	3.5
960.695	-0.5
961.423	-1.5
962.151	0.5
962.88	2.5
963.608	-0.5
964.336	0.5
965.064	-1.5
965.792	2.5
966.52	-0.5
967.247	0.5
967.975	0.5
968.703	1.5
969.43	-0.5
970.158	2.5
970.885	-0.5
971.613	0.5
972.34	1.5
973.067	1.5
973.794	2.5
974.521	-0.5
975.248	1.5
975.975	1.5
976.702	0.5
977.429	1.5
978.156	1.5
978.882	1.5
979.609	0.5
980.335	2.5
981.062	2.5
981.788	1.5
982.514	0.5
983.24	0.5
983.967	-0.5
984.693	1.5
985.419	1.5
986.144	-3.5
986.87	1.5
987.596	2.5
988.322	2.5
989.047	-0.5
989.773	1.5
990.498	-0.5
991.224	1.5
991.949	-0.5
992.674	1.5
993.399	2.5
994.124	-0.5
994.849	0.5
995.574	0.5
996.299	1.5
997.024	2.5
997.749	1.5
998.473	2.5
999.198	0.5
999.922	1.5
1000.647	-0.5
1001.371	3.5
1002.095	0.5
1002.82	-2.5
1003.544	-1.5
1004.268	5.5
1004.992	1.5
1005.716	-0.5
1006.439	2.5
1007.163	0.5
1007.887	1.5
1008.611	0.5
1009.334	0.5
1010.058	1.5
1010.781	3.5
1011.504	1.5
1012.228	2.5
1012.951	-1.5
1013.674	1.5
1014.397	-0.5
1015.12	0.5
