节点500_285_QEPB04081__499__15-03-51-409.txt的数据

Date: Wed Nov 12 15:03:51 CST 2025
User: PC
Spectrometer: QEPB0408
触发模式: 0
积分时间 (秒): 1.000000E-2
Scans to average: 1
启用暗噪声校正: true
启用非线性校正: false
滑动平均宽度: 0
X轴模式: Wavelengths
Number of Pixels in Spectrum: 1044
>>>>>Begin Spectral Data<<<<<
220.843	3
221.644	1
222.444	5
223.244	4
224.045	2
224.845	1
225.645	3
226.445	1
227.245	4
228.045	2
228.845	5
229.645	1
230.444	3
231.244	5
232.043	4
232.843	5
233.642	2
234.442	3
235.241	3
236.04	4
236.839	6
237.638	2
238.437	6
239.236	4
240.035	6
240.833	4
241.632	6
242.43	6
243.229	3
244.027	5
244.826	4
245.624	4
246.422	6
247.22	6
248.018	8
248.816	4
249.614	6
250.412	4
251.21	7
252.007	7
252.805	5
253.602	8
254.4	5
255.197	8
255.994	9
256.791	9
257.589	11
258.386	7
259.183	9
259.979	9
260.776	10
261.573	13
262.37	12
263.166	12
263.963	10
264.759	13
265.556	9
266.352	13
267.148	14
267.944	11
268.74	12
269.536	11
270.332	16
271.128	16
271.924	17
272.719	15
273.515	15
274.311	16
275.106	15
275.901	17
276.697	19
277.492	16
278.287	17
279.082	19
279.877	19
280.672	16
281.467	18
282.262	14
283.056	19
283.851	18
284.646	20
285.44	19
286.234	18
287.029	20
287.823	21
288.617	18
289.411	18
290.205	16
290.999	18
291.793	17
292.587	16
293.381	18
294.174	15
294.968	16
295.761	17
296.555	13
297.348	16
298.141	15
298.935	16
299.728	16
300.521	14
301.314	14
302.107	13
302.899	16
303.692	11
304.485	13
305.277	13
306.07	14
306.862	14
307.655	12
308.447	11
309.239	12
310.031	13
310.823	10
311.615	12
312.407	7
313.199	8
313.991	10
314.783	12
315.574	7
316.366	8
317.157	8
317.949	8
318.74	7
319.531	8
320.322	7
321.113	9
321.904	10
322.695	8
323.486	9
324.277	8
325.068	8
325.858	7
326.649	5
327.439	7
328.23	6
329.02	9
329.81	7
330.6	9
331.391	6
332.181	7
332.971	8
333.76	8
334.55	8
335.34	6
336.13	9
336.919	7
337.709	7
338.498	6
339.287	5
340.077	6
340.866	5
341.655	4
342.444	7
343.233	7
344.022	8
344.811	6
345.6	5
346.388	4
347.177	7
347.965	7
348.754	7
349.542	6
350.33	7
351.119	5
351.907	8
352.695	8
353.483	5
354.271	5
355.059	6
355.846	7
356.634	6
357.422	4
358.209	5
358.997	5
359.784	5
360.571	5
361.359	7
362.146	6
362.933	5
363.72	6
364.507	6
365.294	5
366.081	2
366.867	6
367.654	5
368.44	7
369.227	7
370.013	6
370.8	5
371.586	4
372.372	5
373.158	5
373.944	6
374.73	5
375.516	4
376.302	5
377.088	5
377.873	7
378.659	6
379.445	5
380.23	7
381.015	3
381.801	6
382.586	5
383.371	5
384.156	4
384.941	5
385.726	8
386.511	5
387.296	9
388.08	5
388.865	6
389.649	6
390.434	8
391.218	6
392.003	3
392.787	8
393.571	7
394.355	4
395.139	6
395.923	7
396.707	6
397.491	6
398.274	7
399.058	7
399.842	7
400.625	7
401.408	9
402.192	8
402.975	6
403.758	5
404.541	6
405.324	7
406.107	8
406.89	7
407.673	6
408.456	8
409.238	5
410.021	10
410.803	9
411.586	8
412.368	8
413.151	8
413.933	9
414.715	9
415.497	9
416.279	8
417.061	12
417.843	12
418.624	9
419.406	9
420.188	10
420.969	10
421.751	11
422.532	11
423.313	11
424.095	10
424.876	12
425.657	10
426.438	12
427.219	13
428	11
428.78	12
429.561	13
430.342	14
431.122	13
431.903	15
432.683	16
433.464	18
434.244	17
435.024	17
435.804	18
436.584	17
437.364	18
438.144	18
438.924	20
439.704	21
440.483	25
441.263	25
442.042	26
442.822	28
443.601	27
444.38	30
445.16	31
445.939	33
446.718	37
447.497	39
448.276	44
449.054	44
449.833	51
450.612	53
451.391	56
452.169	67
452.948	70
453.726	78
454.504	82
455.282	96
456.061	106
456.839	113
457.617	130
458.395	142
459.172	161
459.95	171
460.728	194
461.506	210
462.283	239
463.061	269
463.838	305
464.615	327
465.393	375
466.17	417
466.947	453
467.724	514
468.501	575
469.278	638
470.055	707
470.831	784
471.608	866
472.385	959
473.161	1063
473.938	1178
474.714	1298
475.49	1447
476.266	1601
477.043	1752
477.819	1945
478.595	2141
479.371	2357
480.146	2570
480.922	2835
481.698	3128
482.473	3420
483.249	3789
484.024	4152
484.8	4530
485.575	4985
486.35	5454
487.126	5974
487.901	6507
488.676	7134
489.451	7783
490.225	8478
491	9277
491.775	10114
492.55	10996
493.324	11879
494.099	12820
494.873	13773
495.647	14891
496.422	16003
497.196	17129
497.97	18252
498.744	19380
499.518	20520
500.292	21663
501.066	22634
501.839	23554
502.613	24547
503.387	25341
504.16	26036
504.934	26385
505.707	26674
506.48	26730
507.253	26847
508.027	26550
508.8	26289
509.573	26062
510.346	25494
511.118	24861
511.891	24124
512.664	23346
513.437	22453
514.209	21608
514.982	20730
515.754	19854
516.526	19028
517.298	18153
518.071	17414
518.843	16747
519.615	16142
520.387	15491
521.159	14891
521.93	14261
522.702	13669
523.474	13164
524.245	12540
525.017	11998
525.788	11651
526.56	11079
527.331	10563
528.102	10098
528.873	9647
529.644	9131
530.415	8740
531.186	8292
531.957	7890
532.728	7491
533.498	7108
534.269	6705
535.039	6348
535.81	6020
536.58	5672
537.351	5336
538.121	5052
538.891	4784
539.661	4508
540.431	4271
541.201	4040
541.971	3817
542.741	3613
543.51	3455
544.28	3274
545.05	3123
545.819	2954
546.588	2822
547.358	2686
548.127	2533
548.896	2405
549.665	2283
550.434	2177
551.203	2054
551.972	1948
552.741	1841
553.51	1754
554.278	1644
555.047	1551
555.815	1467
556.584	1397
557.352	1311
558.121	1246
558.889	1157
559.657	1104
560.425	1041
561.193	980
561.961	919
562.729	868
563.496	836
564.264	784
565.032	746
565.799	698
566.567	662
567.334	631
568.101	593
568.869	559
569.636	526
570.403	491
571.17	467
571.937	448
572.704	420
573.471	394
574.237	375
575.004	347
575.771	335
576.537	313
577.303	291
578.07	279
578.836	252
579.602	246
580.368	238
581.134	219
581.9	209
582.666	202
583.432	185
584.198	171
584.964	163
585.729	158
586.495	160
587.26	148
588.025	134
588.791	126
589.556	123
590.321	117
591.086	110
591.851	100
592.616	98
593.381	92
594.146	90
594.911	85
595.675	83
596.44	73
597.204	73
597.969	73
598.733	68
599.497	64
600.261	65
601.025	56
601.79	55
602.553	55
603.317	50
604.081	50
604.845	47
605.609	44
606.372	44
607.136	43
607.899	40
608.662	42
609.426	35
610.189	36
610.952	33
611.715	34
612.478	32
613.241	33
614.004	25
614.767	27
615.529	26
616.292	25
617.055	24
617.817	25
618.579	25
619.342	21
620.104	21
620.866	22
621.628	19
622.39	22
623.152	18
623.914	19
624.676	16
625.438	17
626.199	18
626.961	14
627.722	14
628.484	15
629.245	15
630.006	16
630.768	13
631.529	14
632.29	13
633.051	11
633.812	12
634.573	10
635.333	12
636.094	10
636.855	9
637.615	12
638.376	12
639.136	7
639.896	9
640.657	10
641.417	10
642.177	8
642.937	10
643.697	11
644.457	10
645.216	8
645.976	9
646.736	7
647.495	8
648.255	10
649.014	7
649.774	9
650.533	6
651.292	8
652.051	6
652.81	7
653.569	7
654.328	4
655.087	8
655.846	6
656.604	6
657.363	8
658.121	5
658.88	4
659.638	5
660.397	7
661.155	5
661.913	4
662.671	5
663.429	5
664.187	5
664.945	5
665.703	4
666.46	6
667.218	6
667.976	5
668.733	7
669.49	5
670.248	7
671.005	3
671.762	5
672.519	2
673.276	5
674.033	6
674.79	5
675.547	7
676.304	4
677.06	6
677.817	4
678.574	4
679.33	2
680.086	5
680.843	5
681.599	3
682.355	5
683.111	5
683.867	4
684.623	2
685.379	3
686.135	5
686.89	2
687.646	4
688.402	4
689.157	6
689.912	3
690.668	3
691.423	6
692.178	3
692.933	4
693.688	4
694.443	5
695.198	5
695.953	0
696.708	4
697.462	3
698.217	3
698.972	3
699.726	4
700.48	4
701.235	4
701.989	7
702.743	4
703.497	4
704.251	5
705.005	4
705.759	4
706.513	2
707.266	5
708.02	2
708.774	4
709.527	4
710.28	5
711.034	4
711.787	3
712.54	3
713.293	3
714.046	5
714.799	2
715.552	4
716.305	2
717.058	2
717.81	4
718.563	3
719.315	5
720.068	6
720.82	1
721.573	4
722.325	5
723.077	4
723.829	5
724.581	4
725.333	5
726.085	1
726.836	6
727.588	4
728.34	2
729.091	3
729.843	5
730.594	7
731.346	2
732.097	5
732.848	2
733.599	4
734.35	4
735.101	2
735.852	7
736.603	6
737.354	5
738.104	3
738.855	3
739.605	7
740.356	5
741.106	8
741.856	4
742.607	5
743.357	6
744.107	4
744.857	5
745.607	4
746.357	4
747.106	7
747.856	4
748.606	5
749.355	4
750.105	6
750.854	3
751.603	6
752.353	4
753.102	4
753.851	5
754.6	6
755.349	5
756.098	4
756.847	6
757.595	7
758.344	6
759.093	5
759.841	5
760.589	7
761.338	5
762.086	6
762.834	7
763.582	7
764.331	8
765.079	6
765.826	7
766.574	9
767.322	9
768.07	6
768.817	7
769.565	6
770.312	6
771.06	9
771.807	7
772.554	7
773.302	7
774.049	9
774.796	9
775.543	10
776.29	4
777.036	7
777.783	10
778.53	6
779.276	10
780.023	9
780.769	6
781.516	10
782.262	10
783.008	7
783.754	9
784.5	9
785.246	10
785.992	6
786.738	8
787.484	7
788.23	7
788.975	6
789.721	9
790.466	8
791.212	8
791.957	7
792.702	10
793.447	9
794.193	8
794.938	10
795.683	6
796.427	8
797.172	9
797.917	9
798.662	7
799.406	7
800.151	6
800.895	9
801.64	9
802.384	7
803.128	7
803.872	8
804.616	6
805.36	6
806.104	6
806.848	8
807.592	6
808.336	6
809.079	7
809.823	7
810.566	7
811.31	6
812.053	5
812.796	6
813.539	6
814.283	8
815.026	6
815.769	4
816.511	4
817.254	6
817.997	5
818.74	6
819.482	4
820.225	1
820.967	3
821.71	5
822.452	5
823.194	4
823.936	4
824.678	5
825.42	3
826.162	5
826.904	5
827.646	4
828.388	5
829.129	3
829.871	5
830.612	2
831.354	4
832.095	5
832.836	4
833.577	3
834.319	4
835.06	5
835.801	4
836.542	6
837.282	5
838.023	1
838.764	4
839.504	2
840.245	5
840.985	2
841.726	2
842.466	3
843.206	3
843.946	1
844.687	4
845.427	3
846.166	2
846.906	2
847.646	6
848.386	2
849.125	3
849.865	4
850.605	4
851.344	3
852.083	3
852.823	3
853.562	2
854.301	2
855.04	1
855.779	1
856.518	3
857.257	1
857.995	3
858.734	1
859.473	2
860.211	2
860.95	2
861.688	4
862.426	2
863.165	3
863.903	0
864.641	1
865.379	2
866.117	2
866.855	1
867.593	0
868.33	2
869.068	2
869.806	1
870.543	1
871.28	4
872.018	2
872.755	1
873.492	4
874.229	2
874.967	0
875.703	3
876.44	0
877.177	2
877.914	2
878.651	1
879.387	-1
880.124	1
880.86	0
881.597	3
882.333	1
883.069	1
883.806	3
884.542	0
885.278	0
886.014	1
886.749	0
887.485	2
888.221	2
888.957	1
889.692	2
890.428	-1
891.163	1
891.899	-1
892.634	2
893.369	1
894.104	-2
894.839	2
895.574	1
896.309	-1
897.044	1
897.779	3
898.514	2
899.248	0
899.983	1
900.717	1
901.452	2
902.186	-1
902.92	1
903.654	2
904.389	-2
905.123	0
905.857	1
906.59	2
907.324	-3
908.058	0
908.792	1
909.525	1
910.259	1
910.992	-1
911.726	-1
912.459	1
913.192	0
913.925	2
914.658	1
915.391	2
916.124	0
916.857	0
917.59	2
918.323	0
919.055	1
919.788	-1
920.521	2
921.253	2
921.985	0
922.718	2
923.45	1
924.182	2
924.914	-1
925.646	1
926.378	0
927.11	0
927.841	-1
928.573	0
929.305	1
930.036	2
930.768	2
931.499	0
932.23	-1
932.962	2
933.693	-1
934.424	2
935.155	-2
935.886	1
936.617	1
937.348	-2
938.078	2
938.809	1
939.54	2
940.27	1
941.001	-2
941.731	-2
942.461	0
943.191	2
943.922	0
944.652	0
945.382	1
946.112	0
946.841	1
947.571	0
948.301	1
949.031	1
949.76	-2
950.49	1
951.219	-1
951.948	-1
952.678	-2
953.407	-1
954.136	2
954.865	-1
955.594	2
956.323	0
957.052	2
957.78	-2
958.509	1
959.238	1
959.966	3
960.695	-1
961.423	1
962.151	1
962.88	1
963.608	0
964.336	2
965.064	-1
965.792	0
966.52	0
967.247	-1
967.975	1
968.703	1
969.43	1
970.158	-1
970.885	-2
971.613	0
972.34	-1
973.067	2
973.794	-1
974.521	3
975.248	-2
975.975	1
976.702	2
977.429	0
978.156	2
978.882	0
979.609	0
980.335	0
981.062	1
981.788	1
982.514	-1
983.24	2
983.967	0
984.693	1
985.419	-1
986.144	-1
986.87	1
987.596	-2
988.322	0
989.047	0
989.773	0
990.498	-1
991.224	1
991.949	1
992.674	1
993.399	0
994.124	2
994.849	-2
995.574	0
996.299	1
997.024	2
997.749	-1
998.473	2
999.198	0
999.922	0
1000.647	-1
1001.371	3
1002.095	-1
1002.82	-1
1003.544	-2
1004.268	2
1004.992	-2
1005.716	1
1006.439	-1
1007.163	0
1007.887	3
1008.611	1
1009.334	1
1010.058	2
1010.781	0
1011.504	0
1012.228	-1
1012.951	0
1013.674	-1
1014.397	1
1015.12	1
