节点500_285_QEPB04081__666__15-06-37-985.txt的数据

Date: Wed Nov 12 15:06:37 CST 2025
User: PC
Spectrometer: QEPB0408
触发模式: 0
积分时间 (秒): 1.000000E-2
Scans to average: 1
启用暗噪声校正: true
启用非线性校正: false
滑动平均宽度: 0
X轴模式: Wavelengths
Number of Pixels in Spectrum: 1044
>>>>>Begin Spectral Data<<<<<
220.843	1
221.644	0
222.444	4
223.244	1
224.045	1
224.845	0
225.645	2
226.445	2
227.245	2
228.045	2
228.845	0
229.645	4
230.444	2
231.244	3
232.043	4
232.843	3
233.642	2
234.442	1
235.241	5
236.04	4
236.839	4
237.638	1
238.437	2
239.236	4
240.035	3
240.833	7
241.632	5
242.43	4
243.229	6
244.027	3
244.826	5
245.624	3
246.422	5
247.22	6
248.018	5
248.816	6
249.614	4
250.412	9
251.21	5
252.007	7
252.805	7
253.602	7
254.4	6
255.197	7
255.994	7
256.791	7
257.589	8
258.386	9
259.183	7
259.979	8
260.776	11
261.573	8
262.37	8
263.166	9
263.963	9
264.759	10
265.556	10
266.352	12
267.148	11
267.944	14
268.74	10
269.536	14
270.332	12
271.128	12
271.924	15
272.719	14
273.515	16
274.311	17
275.106	15
275.901	15
276.697	18
277.492	15
278.287	16
279.082	15
279.877	16
280.672	19
281.467	17
282.262	17
283.056	19
283.851	17
284.646	18
285.44	18
286.234	15
287.029	16
287.823	17
288.617	15
289.411	18
290.205	18
290.999	17
291.793	16
292.587	17
293.381	18
294.174	17
294.968	14
295.761	15
296.555	14
297.348	14
298.141	14
298.935	15
299.728	14
300.521	12
301.314	16
302.107	14
302.899	12
303.692	11
304.485	9
305.277	12
306.07	12
306.862	14
307.655	12
308.447	9
309.239	11
310.031	12
310.823	14
311.615	7
312.407	11
313.199	10
313.991	11
314.783	9
315.574	11
316.366	8
317.157	11
317.949	9
318.74	8
319.531	7
320.322	9
321.113	6
321.904	4
322.695	8
323.486	8
324.277	7
325.068	7
325.858	7
326.649	6
327.439	7
328.23	8
329.02	7
329.81	7
330.6	6
331.391	7
332.181	7
332.971	5
333.76	8
334.55	7
335.34	5
336.13	6
336.919	7
337.709	7
338.498	6
339.287	6
340.077	7
340.866	9
341.655	7
342.444	9
343.233	5
344.022	4
344.811	6
345.6	5
346.388	9
347.177	5
347.965	8
348.754	4
349.542	6
350.33	8
351.119	2
351.907	9
352.695	5
353.483	6
354.271	9
355.059	6
355.846	6
356.634	5
357.422	5
358.209	6
358.997	6
359.784	6
360.571	5
361.359	6
362.146	6
362.933	5
363.72	6
364.507	7
365.294	5
366.081	5
366.867	4
367.654	3
368.44	7
369.227	4
370.013	4
370.8	4
371.586	4
372.372	6
373.158	5
373.944	5
374.73	5
375.516	7
376.302	5
377.088	4
377.873	3
378.659	5
379.445	3
380.23	5
381.015	4
381.801	7
382.586	6
383.371	4
384.156	5
384.941	6
385.726	6
386.511	6
387.296	4
388.08	5
388.865	5
389.649	6
390.434	4
391.218	6
392.003	4
392.787	6
393.571	5
394.355	6
395.139	8
395.923	5
396.707	9
397.491	6
398.274	7
399.058	5
399.842	7
400.625	7
401.408	5
402.192	4
402.975	8
403.758	6
404.541	6
405.324	8
406.107	6
406.89	8
407.673	9
408.456	6
409.238	9
410.021	7
410.803	4
411.586	8
412.368	7
413.151	9
413.933	11
414.715	7
415.497	8
416.279	8
417.061	9
417.843	10
418.624	10
419.406	10
420.188	10
420.969	9
421.751	10
422.532	12
423.313	10
424.095	10
424.876	10
425.657	10
426.438	10
427.219	10
428	12
428.78	10
429.561	15
430.342	14
431.122	10
431.903	13
432.683	14
433.464	17
434.244	17
435.024	16
435.804	19
436.584	14
437.364	18
438.144	19
438.924	20
439.704	20
440.483	20
441.263	24
442.042	26
442.822	28
443.601	29
444.38	30
445.16	34
445.939	34
446.718	39
447.497	41
448.276	43
449.054	48
449.833	51
450.612	53
451.391	62
452.169	70
452.948	71
453.726	81
454.504	86
455.282	99
456.061	102
456.839	121
457.617	132
458.395	152
459.172	166
459.95	187
460.728	203
461.506	227
462.283	253
463.061	282
463.838	313
464.615	345
465.393	389
466.17	432
466.947	486
467.724	540
468.501	585
469.278	651
470.055	736
470.831	802
471.608	891
472.385	987
473.161	1080
473.938	1205
474.714	1329
475.49	1463
476.266	1605
477.043	1767
477.819	1945
478.595	2143
479.371	2349
480.146	2557
480.922	2809
481.698	3070
482.473	3375
483.249	3683
484.024	4045
484.8	4423
485.575	4834
486.35	5283
487.126	5750
487.901	6281
488.676	6822
489.451	7456
490.225	8110
491	8817
491.775	9584
492.55	10401
493.324	11190
494.099	12085
494.873	12962
495.647	13925
496.422	14931
497.196	16021
497.97	17068
498.744	18132
499.518	19241
500.292	20316
501.066	21303
501.839	22325
502.613	23169
503.387	23942
504.16	24695
504.934	25145
505.707	25518
506.48	25677
507.253	25812
508.027	25806
508.8	25628
509.573	25397
510.346	25004
511.118	24415
511.891	23763
512.664	23098
513.437	22382
514.209	21525
514.982	20780
515.754	19909
516.526	19066
517.298	18337
518.071	17550
518.843	16889
519.615	16246
520.387	15671
521.159	14999
521.93	14394
522.702	13836
523.474	13290
524.245	12695
525.017	12152
525.788	11698
526.56	11195
527.331	10670
528.102	10219
528.873	9772
529.644	9292
530.415	8914
531.186	8480
531.957	8035
532.728	7676
533.498	7249
534.269	6869
535.039	6515
535.81	6193
536.58	5823
537.351	5506
538.121	5175
538.891	4909
539.661	4650
540.431	4402
541.201	4158
541.971	3925
542.741	3727
543.51	3553
544.28	3383
545.05	3221
545.819	3041
546.588	2891
547.358	2744
548.127	2645
548.896	2492
549.665	2385
550.434	2242
551.203	2128
551.972	2029
552.741	1893
553.51	1798
554.278	1688
555.047	1611
555.815	1532
556.584	1440
557.352	1366
558.121	1273
558.889	1221
559.657	1144
560.425	1076
561.193	1019
561.961	970
562.729	913
563.496	864
564.264	807
565.032	762
565.799	713
566.567	688
567.334	661
568.101	615
568.869	586
569.636	547
570.403	512
571.17	487
571.937	454
572.704	429
573.471	409
574.237	395
575.004	363
575.771	344
576.537	322
577.303	308
578.07	286
578.836	272
579.602	249
580.368	241
581.134	234
581.9	220
582.666	210
583.432	193
584.198	188
584.964	177
585.729	171
586.495	156
587.26	145
588.025	138
588.791	129
589.556	130
590.321	118
591.086	114
591.851	108
592.616	99
593.381	98
594.146	92
594.911	89
595.675	86
596.44	80
597.204	76
597.969	74
598.733	71
599.497	69
600.261	66
601.025	62
601.79	60
602.553	55
603.317	55
604.081	50
604.845	47
605.609	49
606.372	42
607.136	39
607.899	44
608.662	41
609.426	38
610.189	36
610.952	34
611.715	33
612.478	33
613.241	30
614.004	29
614.767	30
615.529	30
616.292	27
617.055	27
617.817	26
618.579	24
619.342	22
620.104	22
620.866	21
621.628	23
622.39	22
623.152	19
623.914	22
624.676	19
625.438	18
626.199	17
626.961	16
627.722	11
628.484	13
629.245	15
630.006	14
630.768	13
631.529	14
632.29	13
633.051	13
633.812	11
634.573	10
635.333	13
636.094	11
636.855	10
637.615	11
638.376	10
639.136	11
639.896	6
640.657	8
641.417	9
642.177	10
642.937	9
643.697	9
644.457	10
645.216	10
645.976	10
646.736	7
647.495	7
648.255	7
649.014	8
649.774	4
650.533	6
651.292	8
652.051	7
652.81	6
653.569	4
654.328	7
655.087	5
655.846	6
656.604	6
657.363	7
658.121	7
658.88	8
659.638	9
660.397	9
661.155	7
661.913	6
662.671	7
663.429	4
664.187	5
664.945	7
665.703	6
666.46	6
667.218	6
667.976	5
668.733	5
669.49	7
670.248	4
671.005	5
671.762	5
672.519	5
673.276	4
674.033	6
674.79	5
675.547	4
676.304	4
677.06	4
677.817	2
678.574	3
679.33	9
680.086	4
680.843	5
681.599	2
682.355	6
683.111	3
683.867	4
684.623	4
685.379	6
686.135	3
686.89	4
687.646	4
688.402	5
689.157	4
689.912	4
690.668	5
691.423	3
692.178	4
692.933	5
693.688	5
694.443	4
695.198	4
695.953	1
696.708	2
697.462	3
698.217	5
698.972	5
699.726	4
700.48	1
701.235	2
701.989	4
702.743	5
703.497	3
704.251	4
705.005	5
705.759	3
706.513	5
707.266	1
708.02	5
708.774	5
709.527	4
710.28	2
711.034	4
711.787	3
712.54	2
713.293	5
714.046	2
714.799	3
715.552	5
716.305	4
717.058	5
717.81	5
718.563	1
719.315	5
720.068	2
720.82	3
721.573	3
722.325	1
723.077	3
723.829	5
724.581	4
725.333	4
726.085	4
726.836	2
727.588	5
728.34	5
729.091	4
729.843	2
730.594	5
731.346	6
732.097	4
732.848	5
733.599	6
734.35	6
735.101	5
735.852	2
736.603	6
737.354	2
738.104	7
738.855	5
739.605	3
740.356	5
741.106	5
741.856	5
742.607	5
743.357	3
744.107	6
744.857	5
745.607	5
746.357	3
747.106	7
747.856	2
748.606	6
749.355	5
750.105	4
750.854	6
751.603	6
752.353	6
753.102	4
753.851	5
754.6	7
755.349	3
756.098	6
756.847	6
757.595	6
758.344	7
759.093	6
759.841	5
760.589	4
761.338	7
762.086	5
762.834	6
763.582	7
764.331	4
765.079	5
765.826	5
766.574	7
767.322	7
768.07	8
768.817	6
769.565	6
770.312	7
771.06	5
771.807	8
772.554	7
773.302	6
774.049	9
774.796	7
775.543	8
776.29	8
777.036	8
777.783	7
778.53	7
779.276	6
780.023	4
780.769	9
781.516	7
782.262	9
783.008	12
783.754	5
784.5	8
785.246	12
785.992	7
786.738	7
787.484	9
788.23	10
788.975	7
789.721	9
790.466	10
791.212	10
791.957	8
792.702	9
793.447	7
794.193	8
794.938	5
795.683	5
796.427	8
797.172	5
797.917	9
798.662	9
799.406	7
800.151	6
800.895	9
801.64	7
802.384	5
803.128	6
803.872	8
804.616	6
805.36	8
806.104	5
806.848	6
807.592	4
808.336	5
809.079	6
809.823	6
810.566	4
811.31	4
812.053	6
812.796	8
813.539	5
814.283	9
815.026	4
815.769	3
816.511	4
817.254	6
817.997	3
818.74	6
819.482	4
820.225	6
820.967	4
821.71	5
822.452	6
823.194	3
823.936	5
824.678	5
825.42	1
826.162	2
826.904	6
827.646	6
828.388	4
829.129	5
829.871	4
830.612	4
831.354	4
832.095	2
832.836	4
833.577	2
834.319	5
835.06	3
835.801	5
836.542	3
837.282	3
838.023	2
838.764	3
839.504	4
840.245	4
840.985	3
841.726	2
842.466	7
843.206	2
843.946	5
844.687	2
845.427	4
846.166	2
846.906	3
847.646	2
848.386	3
849.125	0
849.865	3
850.605	1
851.344	3
852.083	3
852.823	1
853.562	3
854.301	3
855.04	3
855.779	1
856.518	5
857.257	2
857.995	4
858.734	2
859.473	3
860.211	4
860.95	2
861.688	3
862.426	1
863.165	2
863.903	0
864.641	2
865.379	4
866.117	1
866.855	0
867.593	1
868.33	1
869.068	1
869.806	3
870.543	1
871.28	2
872.018	2
872.755	-1
873.492	3
874.229	1
874.967	2
875.703	1
876.44	0
877.177	2
877.914	3
878.651	1
879.387	0
880.124	2
880.86	2
881.597	-1
882.333	1
883.069	1
883.806	2
884.542	2
885.278	-2
886.014	2
886.749	1
887.485	0
888.221	2
888.957	3
889.692	2
890.428	-1
891.163	1
891.899	1
892.634	1
893.369	-1
894.104	0
894.839	2
895.574	1
896.309	2
897.044	1
897.779	1
898.514	2
899.248	1
899.983	-1
900.717	-1
901.452	0
902.186	2
902.92	1
903.654	2
904.389	1
905.123	1
905.857	-1
906.59	2
907.324	0
908.058	0
908.792	-1
909.525	-1
910.259	2
910.992	3
911.726	1
912.459	1
913.192	-1
913.925	0
914.658	-1
915.391	2
916.124	-1
916.857	0
917.59	2
918.323	-1
919.055	2
919.788	-1
920.521	2
921.253	2
921.985	-1
922.718	2
923.45	0
924.182	1
924.914	2
925.646	1
926.378	-1
927.11	-1
927.841	0
928.573	-1
929.305	3
930.036	0
930.768	0
931.499	0
932.23	0
932.962	-1
933.693	-1
934.424	0
935.155	0
935.886	-1
936.617	2
937.348	0
938.078	-1
938.809	-2
939.54	0
940.27	3
941.001	0
941.731	2
942.461	1
943.191	1
943.922	-2
944.652	0
945.382	-1
946.112	1
946.841	-1
947.571	0
948.301	-3
949.031	1
949.76	2
950.49	0
951.219	-1
951.948	0
952.678	0
953.407	0
954.136	-1
954.865	0
955.594	2
956.323	2
957.052	2
957.78	0
958.509	2
959.238	1
959.966	-1
960.695	2
961.423	0
962.151	-1
962.88	1
963.608	0
964.336	0
965.064	0
965.792	-1
966.52	0
967.247	0
967.975	2
968.703	2
969.43	0
970.158	1
970.885	1
971.613	0
972.34	1
973.067	-1
973.794	0
974.521	-2
975.248	2
975.975	-3
976.702	0
977.429	1
978.156	0
978.882	0
979.609	1
980.335	0
981.062	-1
981.788	0
982.514	-3
983.24	1
983.967	1
984.693	1
985.419	0
986.144	2
986.87	0
987.596	0
988.322	-1
989.047	2
989.773	0
990.498	0
991.224	3
991.949	-1
992.674	-1
993.399	1
994.124	0
994.849	0
995.574	0
996.299	0
997.024	-2
997.749	0
998.473	0
999.198	-1
999.922	1
1000.647	-1
1001.371	5
1002.095	0
1002.82	-2
1003.544	-2
1004.268	2
1004.992	-1
1005.716	1
1006.439	1
1007.163	-2
1007.887	3
1008.611	1
1009.334	1
1010.058	-1
1010.781	1
1011.504	0
1012.228	1
1012.951	-2
1013.674	0
1014.397	1
1015.12	0
