节点500_285_QEPB04081__158__14-58-11-182.txt的数据

Date: Wed Nov 12 14:58:11 CST 2025
User: PC
Spectrometer: QEPB0408
触发模式: 0
积分时间 (秒): 1.000000E-2
Scans to average: 1
启用暗噪声校正: true
启用非线性校正: false
滑动平均宽度: 0
X轴模式: Wavelengths
Number of Pixels in Spectrum: 1044
>>>>>Begin Spectral Data<<<<<
220.843	0.5
221.644	0.5
222.444	-1.5
223.244	3.5
224.045	2.5
224.845	1.5
225.645	2.5
226.445	2.5
227.245	2.5
228.045	1.5
228.845	2.5
229.645	1.5
230.444	1.5
231.244	4.5
232.043	3.5
232.843	2.5
233.642	4.5
234.442	5.5
235.241	4.5
236.04	2.5
236.839	4.5
237.638	4.5
238.437	3.5
239.236	1.5
240.035	3.5
240.833	4.5
241.632	4.5
242.43	5.5
243.229	4.5
244.027	4.5
244.826	5.5
245.624	5.5
246.422	6.5
247.22	6.5
248.018	6.5
248.816	6.5
249.614	6.5
250.412	8.5
251.21	5.5
252.007	7.5
252.805	6.5
253.602	6.5
254.4	10.5
255.197	4.5
255.994	7.5
256.791	11.5
257.589	9.5
258.386	8.5
259.183	9.5
259.979	9.5
260.776	8.5
261.573	13.5
262.37	9.5
263.166	11.5
263.963	15.5
264.759	11.5
265.556	13.5
266.352	11.5
267.148	13.5
267.944	15.5
268.74	16.5
269.536	16.5
270.332	14.5
271.128	17.5
271.924	13.5
272.719	15.5
273.515	20.5
274.311	13.5
275.106	16.5
275.901	18.5
276.697	17.5
277.492	17.5
278.287	17.5
279.082	18.5
279.877	16.5
280.672	19.5
281.467	19.5
282.262	20.5
283.056	21.5
283.851	21.5
284.646	18.5
285.44	20.5
286.234	21.5
287.029	19.5
287.823	20.5
288.617	17.5
289.411	17.5
290.205	20.5
290.999	17.5
291.793	19.5
292.587	20.5
293.381	18.5
294.174	15.5
294.968	17.5
295.761	17.5
296.555	17.5
297.348	16.5
298.141	14.5
298.935	14.5
299.728	16.5
300.521	14.5
301.314	15.5
302.107	14.5
302.899	12.5
303.692	11.5
304.485	14.5
305.277	12.5
306.07	11.5
306.862	11.5
307.655	14.5
308.447	11.5
309.239	10.5
310.031	11.5
310.823	12.5
311.615	11.5
312.407	10.5
313.199	8.5
313.991	11.5
314.783	8.5
315.574	7.5
316.366	9.5
317.157	9.5
317.949	7.5
318.74	7.5
319.531	8.5
320.322	6.5
321.113	5.5
321.904	6.5
322.695	8.5
323.486	9.5
324.277	7.5
325.068	5.5
325.858	7.5
326.649	8.5
327.439	6.5
328.23	6.5
329.02	7.5
329.81	7.5
330.6	7.5
331.391	8.5
332.181	6.5
332.971	4.5
333.76	5.5
334.55	5.5
335.34	5.5
336.13	7.5
336.919	7.5
337.709	6.5
338.498	6.5
339.287	8.5
340.077	6.5
340.866	6.5
341.655	6.5
342.444	6.5
343.233	6.5
344.022	4.5
344.811	5.5
345.6	8.5
346.388	5.5
347.177	5.5
347.965	7.5
348.754	6.5
349.542	7.5
350.33	3.5
351.119	7.5
351.907	6.5
352.695	6.5
353.483	5.5
354.271	4.5
355.059	6.5
355.846	5.5
356.634	6.5
357.422	4.5
358.209	2.5
358.997	6.5
359.784	5.5
360.571	6.5
361.359	4.5
362.146	5.5
362.933	6.5
363.72	5.5
364.507	5.5
365.294	6.5
366.081	6.5
366.867	5.5
367.654	2.5
368.44	7.5
369.227	2.5
370.013	7.5
370.8	4.5
371.586	3.5
372.372	5.5
373.158	5.5
373.944	5.5
374.73	6.5
375.516	6.5
376.302	4.5
377.088	7.5
377.873	4.5
378.659	1.5
379.445	5.5
380.23	7.5
381.015	4.5
381.801	7.5
382.586	6.5
383.371	5.5
384.156	5.5
384.941	7.5
385.726	4.5
386.511	3.5
387.296	6.5
388.08	4.5
388.865	4.5
389.649	5.5
390.434	4.5
391.218	8.5
392.003	5.5
392.787	5.5
393.571	5.5
394.355	5.5
395.139	6.5
395.923	4.5
396.707	7.5
397.491	8.5
398.274	7.5
399.058	6.5
399.842	5.5
400.625	8.5
401.408	4.5
402.192	8.5
402.975	7.5
403.758	7.5
404.541	6.5
405.324	8.5
406.107	7.5
406.89	7.5
407.673	8.5
408.456	8.5
409.238	9.5
410.021	9.5
410.803	6.5
411.586	8.5
412.368	6.5
413.151	9.5
413.933	10.5
414.715	7.5
415.497	10.5
416.279	7.5
417.061	8.5
417.843	9.5
418.624	11.5
419.406	12.5
420.188	8.5
420.969	12.5
421.751	9.5
422.532	10.5
423.313	10.5
424.095	11.5
424.876	12.5
425.657	10.5
426.438	12.5
427.219	13.5
428	11.5
428.78	13.5
429.561	13.5
430.342	13.5
431.122	15.5
431.903	15.5
432.683	13.5
433.464	14.5
434.244	15.5
435.024	15.5
435.804	16.5
436.584	17.5
437.364	17.5
438.144	18.5
438.924	21.5
439.704	20.5
440.483	20.5
441.263	21.5
442.042	25.5
442.822	22.5
443.601	27.5
444.38	29.5
445.16	31.5
445.939	31.5
446.718	36.5
447.497	37.5
448.276	42.5
449.054	41.5
449.833	44.5
450.612	53.5
451.391	55.5
452.169	60.5
452.948	65.5
453.726	72.5
454.504	80.5
455.282	84.5
456.061	95.5
456.839	106.5
457.617	115.5
458.395	133.5
459.172	145.5
459.95	160.5
460.728	178.5
461.506	197.5
462.283	218.5
463.061	241.5
463.838	275.5
464.615	309.5
465.393	350.5
466.17	383.5
466.947	423.5
467.724	484.5
468.501	534.5
469.278	590.5
470.055	663.5
470.831	742.5
471.608	822.5
472.385	930.5
473.161	1017.5
473.938	1142.5
474.714	1264.5
475.49	1399.5
476.266	1552.5
477.043	1720.5
477.819	1924.5
478.595	2120.5
479.371	2349.5
480.146	2578.5
480.922	2866.5
481.698	3174.5
482.473	3508.5
483.249	3840.5
484.024	4286.5
484.8	4703.5
485.575	5234.5
486.35	5727.5
487.126	6319.5
487.901	6934.5
488.676	7585.5
489.451	8369.5
490.225	9138.5
491	10042.5
491.775	11003.5
492.55	11980.5
493.324	12996.5
494.099	14095.5
494.873	15169.5
495.647	16388.5
496.422	17578.5
497.196	18816.5
497.97	20122.5
498.744	21378.5
499.518	22519.5
500.292	23692.5
501.066	24828.5
501.839	25772.5
502.613	26587.5
503.387	27386.5
504.16	27921.5
504.934	28178.5
505.707	28304.5
506.48	28175.5
507.253	28099.5
508.027	27757.5
508.8	27243.5
509.573	26680.5
510.346	25985.5
511.118	25138.5
511.891	24350.5
512.664	23337.5
513.437	22405.5
514.209	21383.5
514.982	20520.5
515.754	19565.5
516.526	18669.5
517.298	17872.5
518.071	17020.5
518.843	16415.5
519.615	15773.5
520.387	15171.5
521.159	14579.5
521.93	13959.5
522.702	13447.5
523.474	12866.5
524.245	12347.5
525.017	11785.5
525.788	11312.5
526.56	10821.5
527.331	10265.5
528.102	9809.5
528.873	9336.5
529.644	8895.5
530.415	8399.5
531.186	8000.5
531.957	7559.5
532.728	7184.5
533.498	6797.5
534.269	6387.5
535.039	6022.5
535.81	5719.5
536.58	5383.5
537.351	5079.5
538.121	4807.5
538.891	4552.5
539.661	4288.5
540.431	4051.5
541.201	3813.5
541.971	3633.5
542.741	3419.5
543.51	3284.5
544.28	3125.5
545.05	2983.5
545.819	2832.5
546.588	2682.5
547.358	2558.5
548.127	2415.5
548.896	2300.5
549.665	2183.5
550.434	2052.5
551.203	1940.5
551.972	1851.5
552.741	1741.5
553.51	1641.5
554.278	1549.5
555.047	1462.5
555.815	1377.5
556.584	1313.5
557.352	1227.5
558.121	1169.5
558.889	1093.5
559.657	1025.5
560.425	970.5
561.193	915.5
561.961	868.5
562.729	815.5
563.496	785.5
564.264	737.5
565.032	688.5
565.799	650.5
566.567	617.5
567.334	580.5
568.101	548.5
568.869	522.5
569.636	491.5
570.403	461.5
571.17	448.5
571.937	403.5
572.704	393.5
573.471	369.5
574.237	348.5
575.004	324.5
575.771	303.5
576.537	284.5
577.303	269.5
578.07	259.5
578.836	236.5
579.602	219.5
580.368	216.5
581.134	206.5
581.9	192.5
582.666	184.5
583.432	179.5
584.198	163.5
584.964	161.5
585.729	146.5
586.495	139.5
587.26	132.5
588.025	125.5
588.791	116.5
589.556	116.5
590.321	105.5
591.086	103.5
591.851	96.5
592.616	93.5
593.381	85.5
594.146	83.5
594.911	78.5
595.675	75.5
596.44	68.5
597.204	66.5
597.969	66.5
598.733	66.5
599.497	61.5
600.261	57.5
601.025	55.5
601.79	51.5
602.553	51.5
603.317	50.5
604.081	45.5
604.845	44.5
605.609	43.5
606.372	41.5
607.136	38.5
607.899	34.5
608.662	33.5
609.426	35.5
610.189	33.5
610.952	29.5
611.715	31.5
612.478	29.5
613.241	32.5
614.004	27.5
614.767	28.5
615.529	25.5
616.292	25.5
617.055	23.5
617.817	21.5
618.579	24.5
619.342	20.5
620.104	22.5
620.866	20.5
621.628	20.5
622.39	19.5
623.152	19.5
623.914	17.5
624.676	16.5
625.438	15.5
626.199	14.5
626.961	17.5
627.722	14.5
628.484	15.5
629.245	15.5
630.006	16.5
630.768	11.5
631.529	13.5
632.29	12.5
633.051	11.5
633.812	10.5
634.573	10.5
635.333	8.5
636.094	10.5
636.855	10.5
637.615	9.5
638.376	10.5
639.136	11.5
639.896	9.5
640.657	7.5
641.417	8.5
642.177	9.5
642.937	8.5
643.697	8.5
644.457	8.5
645.216	8.5
645.976	6.5
646.736	8.5
647.495	7.5
648.255	7.5
649.014	8.5
649.774	6.5
650.533	6.5
651.292	9.5
652.051	4.5
652.81	6.5
653.569	7.5
654.328	8.5
655.087	7.5
655.846	6.5
656.604	9.5
657.363	5.5
658.121	3.5
658.88	5.5
659.638	4.5
660.397	6.5
661.155	5.5
661.913	3.5
662.671	4.5
663.429	3.5
664.187	6.5
664.945	7.5
665.703	4.5
666.46	5.5
667.218	4.5
667.976	7.5
668.733	3.5
669.49	4.5
670.248	5.5
671.005	5.5
671.762	4.5
672.519	7.5
673.276	4.5
674.033	3.5
674.79	6.5
675.547	3.5
676.304	2.5
677.06	3.5
677.817	5.5
678.574	6.5
679.33	4.5
680.086	3.5
680.843	5.5
681.599	3.5
682.355	5.5
683.111	4.5
683.867	2.5
684.623	3.5
685.379	2.5
686.135	4.5
686.89	4.5
687.646	4.5
688.402	4.5
689.157	4.5
689.912	4.5
690.668	4.5
691.423	2.5
692.178	2.5
692.933	1.5
693.688	3.5
694.443	3.5
695.198	4.5
695.953	4.5
696.708	3.5
697.462	2.5
698.217	4.5
698.972	2.5
699.726	3.5
700.48	3.5
701.235	4.5
701.989	4.5
702.743	2.5
703.497	3.5
704.251	7.5
705.005	3.5
705.759	2.5
706.513	2.5
707.266	2.5
708.02	2.5
708.774	3.5
709.527	3.5
710.28	5.5
711.034	4.5
711.787	5.5
712.54	1.5
713.293	3.5
714.046	2.5
714.799	1.5
715.552	2.5
716.305	3.5
717.058	4.5
717.81	2.5
718.563	3.5
719.315	3.5
720.068	4.5
720.82	2.5
721.573	3.5
722.325	3.5
723.077	4.5
723.829	2.5
724.581	4.5
725.333	4.5
726.085	7.5
726.836	2.5
727.588	2.5
728.34	1.5
729.091	2.5
729.843	3.5
730.594	4.5
731.346	3.5
732.097	4.5
732.848	5.5
733.599	4.5
734.35	6.5
735.101	3.5
735.852	3.5
736.603	3.5
737.354	5.5
738.104	5.5
738.855	4.5
739.605	1.5
740.356	3.5
741.106	4.5
741.856	4.5
742.607	4.5
743.357	5.5
744.107	6.5
744.857	4.5
745.607	7.5
746.357	5.5
747.106	3.5
747.856	4.5
748.606	3.5
749.355	5.5
750.105	2.5
750.854	6.5
751.603	4.5
752.353	6.5
753.102	4.5
753.851	3.5
754.6	5.5
755.349	6.5
756.098	5.5
756.847	7.5
757.595	5.5
758.344	6.5
759.093	5.5
759.841	6.5
760.589	6.5
761.338	5.5
762.086	7.5
762.834	7.5
763.582	4.5
764.331	6.5
765.079	8.5
765.826	6.5
766.574	7.5
767.322	7.5
768.07	6.5
768.817	10.5
769.565	6.5
770.312	7.5
771.06	6.5
771.807	6.5
772.554	9.5
773.302	8.5
774.049	8.5
774.796	8.5
775.543	6.5
776.29	7.5
777.036	8.5
777.783	8.5
778.53	8.5
779.276	8.5
780.023	8.5
780.769	8.5
781.516	7.5
782.262	10.5
783.008	9.5
783.754	9.5
784.5	8.5
785.246	9.5
785.992	6.5
786.738	10.5
787.484	9.5
788.23	8.5
788.975	8.5
789.721	7.5
790.466	9.5
791.212	7.5
791.957	8.5
792.702	8.5
793.447	7.5
794.193	9.5
794.938	6.5
795.683	8.5
796.427	6.5
797.172	7.5
797.917	7.5
798.662	6.5
799.406	6.5
800.151	8.5
800.895	10.5
801.64	8.5
802.384	7.5
803.128	7.5
803.872	6.5
804.616	9.5
805.36	6.5
806.104	7.5
806.848	9.5
807.592	5.5
808.336	6.5
809.079	7.5
809.823	9.5
810.566	4.5
811.31	5.5
812.053	6.5
812.796	5.5
813.539	7.5
814.283	3.5
815.026	4.5
815.769	4.5
816.511	6.5
817.254	4.5
817.997	3.5
818.74	3.5
819.482	4.5
820.225	3.5
820.967	4.5
821.71	1.5
822.452	3.5
823.194	5.5
823.936	5.5
824.678	3.5
825.42	3.5
826.162	4.5
826.904	4.5
827.646	3.5
828.388	6.5
829.129	4.5
829.871	4.5
830.612	0.5
831.354	1.5
832.095	2.5
832.836	4.5
833.577	3.5
834.319	5.5
835.06	3.5
835.801	5.5
836.542	5.5
837.282	4.5
838.023	3.5
838.764	4.5
839.504	2.5
840.245	1.5
840.985	3.5
841.726	4.5
842.466	4.5
843.206	1.5
843.946	1.5
844.687	3.5
845.427	4.5
846.166	3.5
846.906	4.5
847.646	2.5
848.386	1.5
849.125	1.5
849.865	2.5
850.605	2.5
851.344	3.5
852.083	4.5
852.823	3.5
853.562	3.5
854.301	3.5
855.04	2.5
855.779	2.5
856.518	4.5
857.257	3.5
857.995	3.5
858.734	2.5
859.473	1.5
860.211	1.5
860.95	2.5
861.688	0.5
862.426	2.5
863.165	3.5
863.903	0.5
864.641	4.5
865.379	1.5
866.117	1.5
866.855	2.5
867.593	0.5
868.33	5.5
869.068	-0.5
869.806	-0.5
870.543	1.5
871.28	1.5
872.018	1.5
872.755	-0.5
873.492	1.5
874.229	0.5
874.967	-0.5
875.703	1.5
876.44	1.5
877.177	0.5
877.914	-0.5
878.651	-0.5
879.387	1.5
880.124	-0.5
880.86	1.5
881.597	3.5
882.333	0.5
883.069	-0.5
883.806	-0.5
884.542	1.5
885.278	-0.5
886.014	0.5
886.749	-0.5
887.485	2.5
888.221	-0.5
888.957	-1.5
889.692	1.5
890.428	1.5
891.163	0.5
891.899	-0.5
892.634	1.5
893.369	1.5
894.104	0.5
894.839	3.5
895.574	1.5
896.309	1.5
897.044	1.5
897.779	2.5
898.514	-0.5
899.248	0.5
899.983	1.5
900.717	2.5
901.452	-0.5
902.186	0.5
902.92	-0.5
903.654	-0.5
904.389	-0.5
905.123	-0.5
905.857	0.5
906.59	0.5
907.324	0.5
908.058	1.5
908.792	-0.5
909.525	0.5
910.259	2.5
910.992	0.5
911.726	1.5
912.459	4.5
913.192	-1.5
913.925	0.5
914.658	1.5
915.391	0.5
916.124	-1.5
916.857	0.5
917.59	-0.5
918.323	0.5
919.055	0.5
919.788	1.5
920.521	-0.5
921.253	0.5
921.985	-0.5
922.718	0.5
923.45	0.5
924.182	-0.5
924.914	-0.5
925.646	1.5
926.378	0.5
927.11	1.5
927.841	-0.5
928.573	2.5
929.305	-0.5
930.036	0.5
930.768	-0.5
931.499	-0.5
932.23	3.5
932.962	0.5
933.693	1.5
934.424	-0.5
935.155	-0.5
935.886	0.5
936.617	2.5
937.348	-0.5
938.078	0.5
938.809	-0.5
939.54	0.5
940.27	-0.5
941.001	1.5
941.731	0.5
942.461	1.5
943.191	-0.5
943.922	-0.5
944.652	-0.5
945.382	-2.5
946.112	-1.5
946.841	0.5
947.571	-0.5
948.301	-0.5
949.031	0.5
949.76	0.5
950.49	1.5
951.219	-0.5
951.948	-0.5
952.678	-0.5
953.407	-0.5
954.136	-1.5
954.865	-0.5
955.594	1.5
956.323	0.5
957.052	0.5
957.78	1.5
958.509	1.5
959.238	0.5
959.966	0.5
960.695	-2.5
961.423	1.5
962.151	-0.5
962.88	-0.5
963.608	-0.5
964.336	-0.5
965.064	-1.5
965.792	0.5
966.52	0.5
967.247	-0.5
967.975	0.5
968.703	-0.5
969.43	0.5
970.158	0.5
970.885	0.5
971.613	-1.5
972.34	1.5
973.067	-1.5
973.794	-2.5
974.521	1.5
975.248	0.5
975.975	-0.5
976.702	1.5
977.429	-0.5
978.156	-0.5
978.882	-0.5
979.609	2.5
980.335	1.5
981.062	-0.5
981.788	0.5
982.514	-0.5
983.24	-0.5
983.967	-0.5
984.693	-2.5
985.419	-0.5
986.144	0.5
986.87	-1.5
987.596	-0.5
988.322	1.5
989.047	0.5
989.773	1.5
990.498	-0.5
991.224	-0.5
991.949	-0.5
992.674	1.5
993.399	-0.5
994.124	-0.5
994.849	1.5
995.574	-0.5
996.299	0.5
997.024	-0.5
997.749	-0.5
998.473	-0.5
999.198	0.5
999.922	0.5
1000.647	-1.5
1001.371	4.5
1002.095	0.5
1002.82	-1.5
1003.544	-0.5
1004.268	2.5
1004.992	0.5
1005.716	1.5
1006.439	0.5
1007.163	0.5
1007.887	2.5
1008.611	1.5
1009.334	-2.5
1010.058	0.5
1010.781	1.5
1011.504	1.5
1012.228	0.5
1012.951	-0.5
1013.674	-0.5
1014.397	0.5
1015.12	-2.5
