节点500_285_QEPB04081__116__14-57-29-253.txt的数据

Date: Wed Nov 12 14:57:29 CST 2025
User: PC
Spectrometer: QEPB0408
触发模式: 0
积分时间 (秒): 1.000000E-2
Scans to average: 1
启用暗噪声校正: true
启用非线性校正: false
滑动平均宽度: 0
X轴模式: Wavelengths
Number of Pixels in Spectrum: 1044
>>>>>Begin Spectral Data<<<<<
220.843	0.88
221.644	0.88
222.444	0.88
223.244	0.88
224.045	1.88
224.845	1.88
225.645	2.88
226.445	2.88
227.245	2.88
228.045	2.88
228.845	4.88
229.645	3.88
230.444	1.88
231.244	-1.12
232.043	3.88
232.843	3.88
233.642	3.88
234.442	5.88
235.241	4.88
236.04	5.88
236.839	2.88
237.638	2.88
238.437	3.88
239.236	3.88
240.035	4.88
240.833	2.88
241.632	5.88
242.43	4.88
243.229	4.88
244.027	4.88
244.826	4.88
245.624	1.88
246.422	6.88
247.22	3.88
248.018	5.88
248.816	5.88
249.614	7.88
250.412	6.88
251.21	5.88
252.007	6.88
252.805	7.88
253.602	6.88
254.4	5.88
255.197	6.88
255.994	7.88
256.791	6.88
257.589	8.88
258.386	9.88
259.183	10.88
259.979	10.88
260.776	9.88
261.573	8.88
262.37	9.88
263.166	12.88
263.963	9.88
264.759	12.88
265.556	12.88
266.352	11.88
267.148	15.88
267.944	13.88
268.74	15.88
269.536	10.88
270.332	14.88
271.128	14.88
271.924	14.88
272.719	18.88
273.515	16.88
274.311	18.88
275.106	16.88
275.901	17.88
276.697	19.88
277.492	17.88
278.287	20.88
279.082	18.88
279.877	21.88
280.672	17.88
281.467	20.88
282.262	18.88
283.056	20.88
283.851	16.88
284.646	20.88
285.44	18.88
286.234	19.88
287.029	16.88
287.823	18.88
288.617	17.88
289.411	20.88
290.205	18.88
290.999	18.88
291.793	16.88
292.587	15.88
293.381	17.88
294.174	14.88
294.968	15.88
295.761	15.88
296.555	17.88
297.348	15.88
298.141	13.88
298.935	16.88
299.728	13.88
300.521	13.88
301.314	12.88
302.107	10.88
302.899	12.88
303.692	13.88
304.485	11.88
305.277	10.88
306.07	11.88
306.862	12.88
307.655	12.88
308.447	11.88
309.239	10.88
310.031	8.88
310.823	12.88
311.615	8.88
312.407	8.88
313.199	10.88
313.991	8.88
314.783	8.88
315.574	7.88
316.366	9.88
317.157	6.88
317.949	7.88
318.74	5.88
319.531	7.88
320.322	6.88
321.113	4.88
321.904	6.88
322.695	6.88
323.486	7.88
324.277	7.88
325.068	6.88
325.858	7.88
326.649	7.88
327.439	7.88
328.23	5.88
329.02	2.88
329.81	5.88
330.6	3.88
331.391	5.88
332.181	8.88
332.971	5.88
333.76	6.88
334.55	3.88
335.34	6.88
336.13	6.88
336.919	5.88
337.709	4.88
338.498	5.88
339.287	6.88
340.077	6.88
340.866	5.88
341.655	7.88
342.444	4.88
343.233	5.88
344.022	5.88
344.811	7.88
345.6	6.88
346.388	4.88
347.177	6.88
347.965	3.88
348.754	5.88
349.542	3.88
350.33	5.88
351.119	5.88
351.907	5.88
352.695	9.88
353.483	4.88
354.271	5.88
355.059	4.88
355.846	6.88
356.634	4.88
357.422	5.88
358.209	4.88
358.997	5.88
359.784	4.88
360.571	2.88
361.359	3.88
362.146	4.88
362.933	3.88
363.72	3.88
364.507	4.88
365.294	4.88
366.081	4.88
366.867	4.88
367.654	3.88
368.44	-0.12
369.227	3.88
370.013	2.88
370.8	4.88
371.586	5.88
372.372	4.88
373.158	6.88
373.944	3.88
374.73	2.88
375.516	5.88
376.302	5.88
377.088	3.88
377.873	2.88
378.659	4.88
379.445	4.88
380.23	5.88
381.015	5.88
381.801	5.88
382.586	6.88
383.371	2.88
384.156	5.88
384.941	5.88
385.726	5.88
386.511	4.88
387.296	5.88
388.08	5.88
388.865	4.88
389.649	3.88
390.434	7.88
391.218	3.88
392.003	6.88
392.787	5.88
393.571	5.88
394.355	6.88
395.139	7.88
395.923	6.88
396.707	5.88
397.491	7.88
398.274	8.88
399.058	3.88
399.842	7.88
400.625	6.88
401.408	4.88
402.192	7.88
402.975	5.88
403.758	7.88
404.541	8.88
405.324	7.88
406.107	6.88
406.89	6.88
407.673	7.88
408.456	6.88
409.238	7.88
410.021	5.88
410.803	9.88
411.586	3.88
412.368	8.88
413.151	7.88
413.933	7.88
414.715	8.88
415.497	9.88
416.279	8.88
417.061	8.88
417.843	8.88
418.624	10.88
419.406	9.88
420.188	10.88
420.969	10.88
421.751	11.88
422.532	10.88
423.313	9.88
424.095	12.88
424.876	13.88
425.657	10.88
426.438	12.88
427.219	11.88
428	10.88
428.78	12.88
429.561	17.88
430.342	13.88
431.122	13.88
431.903	12.88
432.683	15.88
433.464	15.88
434.244	14.88
435.024	15.88
435.804	16.88
436.584	16.88
437.364	16.88
438.144	17.88
438.924	18.88
439.704	18.88
440.483	23.88
441.263	20.88
442.042	26.88
442.822	28.88
443.601	27.88
444.38	32.88
445.16	30.88
445.939	28.88
446.718	36.88
447.497	37.88
448.276	42.88
449.054	39.88
449.833	45.88
450.612	50.88
451.391	58.88
452.169	57.88
452.948	64.88
453.726	68.88
454.504	77.88
455.282	82.88
456.061	96.88
456.839	99.88
457.617	114.88
458.395	125.88
459.172	138.88
459.95	160.88
460.728	174.88
461.506	197.88
462.283	222.88
463.061	241.88
463.838	275.88
464.615	305.88
465.393	340.88
466.17	374.88
466.947	434.88
467.724	474.88
468.501	527.88
469.278	590.88
470.055	666.88
470.831	731.88
471.608	825.88
472.385	926.88
473.161	1008.88
473.938	1124.88
474.714	1261.88
475.49	1395.88
476.266	1545.88
477.043	1720.88
477.819	1913.88
478.595	2112.88
479.371	2328.88
480.146	2619.88
480.922	2874.88
481.698	3172.88
482.473	3518.88
483.249	3868.88
484.024	4294.88
484.8	4735.88
485.575	5212.88
486.35	5766.88
487.126	6390.88
487.901	7005.88
488.676	7703.88
489.451	8502.88
490.225	9309.88
491	10195.88
491.775	11115.88
492.55	12178.88
493.324	13232.88
494.099	14266.88
494.873	15380.88
495.647	16647.88
496.422	17904.88
497.196	19116.88
497.97	20512.88
498.744	21728.88
499.518	22889.88
500.292	24136.88
501.066	25195.88
501.839	26109.88
502.613	26959.88
503.387	27659.88
504.16	28276.88
504.934	28449.88
505.707	28516.88
506.48	28501.88
507.253	28276.88
508.027	27897.88
508.8	27461.88
509.573	26827.88
510.346	26067.88
511.118	25212.88
511.891	24267.88
512.664	23374.88
513.437	22360.88
514.209	21390.88
514.982	20400.88
515.754	19543.88
516.526	18618.88
517.298	17744.88
518.071	17016.88
518.843	16328.88
519.615	15743.88
520.387	15141.88
521.159	14512.88
521.93	13954.88
522.702	13402.88
523.474	12811.88
524.245	12254.88
525.017	11728.88
525.788	11273.88
526.56	10740.88
527.331	10226.88
528.102	9756.88
528.873	9305.88
529.644	8780.88
530.415	8367.88
531.186	7932.88
531.957	7485.88
532.728	7091.88
533.498	6703.88
534.269	6352.88
535.039	6007.88
535.81	5656.88
536.58	5346.88
537.351	5008.88
538.121	4739.88
538.891	4498.88
539.661	4254.88
540.431	4034.88
541.201	3794.88
541.971	3597.88
542.741	3413.88
543.51	3244.88
544.28	3068.88
545.05	2944.88
545.819	2798.88
546.588	2630.88
547.358	2530.88
548.127	2380.88
548.896	2257.88
549.665	2145.88
550.434	2044.88
551.203	1917.88
551.972	1818.88
552.741	1719.88
553.51	1626.88
554.278	1530.88
555.047	1430.88
555.815	1348.88
556.584	1287.88
557.352	1216.88
558.121	1138.88
558.889	1071.88
559.657	1027.88
560.425	955.88
561.193	898.88
561.961	856.88
562.729	800.88
563.496	767.88
564.264	720.88
565.032	678.88
565.799	650.88
566.567	606.88
567.334	579.88
568.101	559.88
568.869	518.88
569.636	479.88
570.403	454.88
571.17	416.88
571.937	404.88
572.704	388.88
573.471	365.88
574.237	335.88
575.004	320.88
575.771	305.88
576.537	278.88
577.303	261.88
578.07	247.88
578.836	233.88
579.602	227.88
580.368	207.88
581.134	195.88
581.9	188.88
582.666	175.88
583.432	167.88
584.198	158.88
584.964	155.88
585.729	145.88
586.495	139.88
587.26	131.88
588.025	125.88
588.791	120.88
589.556	111.88
590.321	107.88
591.086	100.88
591.851	93.88
592.616	92.88
593.381	90.88
594.146	81.88
594.911	80.88
595.675	73.88
596.44	69.88
597.204	68.88
597.969	65.88
598.733	64.88
599.497	59.88
600.261	54.88
601.025	52.88
601.79	52.88
602.553	45.88
603.317	45.88
604.081	45.88
604.845	41.88
605.609	43.88
606.372	38.88
607.136	39.88
607.899	36.88
608.662	33.88
609.426	32.88
610.189	32.88
610.952	31.88
611.715	28.88
612.478	28.88
613.241	27.88
614.004	24.88
614.767	24.88
615.529	27.88
616.292	24.88
617.055	24.88
617.817	21.88
618.579	21.88
619.342	20.88
620.104	18.88
620.866	20.88
621.628	19.88
622.39	16.88
623.152	16.88
623.914	17.88
624.676	16.88
625.438	16.88
626.199	14.88
626.961	12.88
627.722	15.88
628.484	12.88
629.245	13.88
630.006	16.88
630.768	11.88
631.529	10.88
632.29	9.88
633.051	11.88
633.812	9.88
634.573	12.88
635.333	10.88
636.094	9.88
636.855	11.88
637.615	10.88
638.376	10.88
639.136	9.88
639.896	8.88
640.657	10.88
641.417	7.88
642.177	9.88
642.937	7.88
643.697	5.88
644.457	10.88
645.216	4.88
645.976	8.88
646.736	6.88
647.495	6.88
648.255	8.88
649.014	5.88
649.774	8.88
650.533	7.88
651.292	4.88
652.051	7.88
652.81	5.88
653.569	7.88
654.328	4.88
655.087	4.88
655.846	5.88
656.604	6.88
657.363	4.88
658.121	8.88
658.88	4.88
659.638	3.88
660.397	4.88
661.155	5.88
661.913	6.88
662.671	4.88
663.429	2.88
664.187	3.88
664.945	5.88
665.703	3.88
666.46	2.88
667.218	2.88
667.976	4.88
668.733	2.88
669.49	3.88
670.248	2.88
671.005	3.88
671.762	3.88
672.519	3.88
673.276	5.88
674.033	3.88
674.79	4.88
675.547	5.88
676.304	2.88
677.06	3.88
677.817	2.88
678.574	5.88
679.33	4.88
680.086	5.88
680.843	2.88
681.599	3.88
682.355	4.88
683.111	5.88
683.867	4.88
684.623	5.88
685.379	3.88
686.135	4.88
686.89	6.88
687.646	2.88
688.402	2.88
689.157	4.88
689.912	3.88
690.668	2.88
691.423	5.88
692.178	2.88
692.933	4.88
693.688	3.88
694.443	3.88
695.198	2.88
695.953	1.88
696.708	3.88
697.462	3.88
698.217	3.88
698.972	1.88
699.726	3.88
700.48	2.88
701.235	3.88
701.989	3.88
702.743	4.88
703.497	3.88
704.251	4.88
705.005	1.88
705.759	4.88
706.513	4.88
707.266	6.88
708.02	3.88
708.774	2.88
709.527	4.88
710.28	3.88
711.034	1.88
711.787	3.88
712.54	2.88
713.293	4.88
714.046	1.88
714.799	6.88
715.552	1.88
716.305	4.88
717.058	3.88
717.81	4.88
718.563	3.88
719.315	-0.12
720.068	1.88
720.82	5.88
721.573	2.88
722.325	4.88
723.077	1.88
723.829	2.88
724.581	4.88
725.333	4.88
726.085	1.88
726.836	3.88
727.588	1.88
728.34	2.88
729.091	3.88
729.843	3.88
730.594	3.88
731.346	2.88
732.097	3.88
732.848	3.88
733.599	1.88
734.35	5.88
735.101	3.88
735.852	3.88
736.603	3.88
737.354	1.88
738.104	4.88
738.855	2.88
739.605	5.88
740.356	4.88
741.106	1.88
741.856	5.88
742.607	2.88
743.357	4.88
744.107	3.88
744.857	5.88
745.607	7.88
746.357	6.88
747.106	4.88
747.856	4.88
748.606	4.88
749.355	2.88
750.105	5.88
750.854	3.88
751.603	3.88
752.353	5.88
753.102	4.88
753.851	4.88
754.6	5.88
755.349	4.88
756.098	6.88
756.847	5.88
757.595	6.88
758.344	4.88
759.093	4.88
759.841	5.88
760.589	5.88
761.338	6.88
762.086	6.88
762.834	6.88
763.582	4.88
764.331	5.88
765.079	8.88
765.826	8.88
766.574	5.88
767.322	7.88
768.07	7.88
768.817	6.88
769.565	6.88
770.312	6.88
771.06	6.88
771.807	7.88
772.554	6.88
773.302	6.88
774.049	6.88
774.796	6.88
775.543	8.88
776.29	10.88
777.036	6.88
777.783	6.88
778.53	8.88
779.276	10.88
780.023	7.88
780.769	9.88
781.516	10.88
782.262	5.88
783.008	9.88
783.754	7.88
784.5	7.88
785.246	7.88
785.992	7.88
786.738	7.88
787.484	6.88
788.23	8.88
788.975	9.88
789.721	8.88
790.466	9.88
791.212	4.88
791.957	8.88
792.702	7.88
793.447	7.88
794.193	8.88
794.938	7.88
795.683	8.88
796.427	4.88
797.172	7.88
797.917	8.88
798.662	7.88
799.406	5.88
800.151	7.88
800.895	6.88
801.64	8.88
802.384	6.88
803.128	6.88
803.872	8.88
804.616	6.88
805.36	6.88
806.104	9.88
806.848	6.88
807.592	6.88
808.336	5.88
809.079	4.88
809.823	3.88
810.566	1.88
811.31	4.88
812.053	5.88
812.796	4.88
813.539	4.88
814.283	2.88
815.026	4.88
815.769	6.88
816.511	5.88
817.254	2.88
817.997	2.88
818.74	4.88
819.482	2.88
820.225	5.88
820.967	4.88
821.71	5.88
822.452	2.88
823.194	4.88
823.936	6.88
824.678	2.88
825.42	4.88
826.162	1.88
826.904	1.88
827.646	3.88
828.388	4.88
829.129	2.88
829.871	3.88
830.612	2.88
831.354	5.88
832.095	0.88
832.836	3.88
833.577	1.88
834.319	2.88
835.06	0.88
835.801	4.88
836.542	3.88
837.282	4.88
838.023	2.88
838.764	1.88
839.504	1.88
840.245	2.88
840.985	2.88
841.726	3.88
842.466	0.88
843.206	1.88
843.946	0.88
844.687	3.88
845.427	2.88
846.166	3.88
846.906	1.88
847.646	2.88
848.386	4.88
849.125	5.88
849.865	3.88
850.605	3.88
851.344	1.88
852.083	2.88
852.823	0.88
853.562	2.88
854.301	-0.12
855.04	-1.12
855.779	1.88
856.518	0.88
857.257	-1.12
857.995	0.88
858.734	1.88
859.473	2.88
860.211	2.88
860.95	1.88
861.688	2.88
862.426	2.88
863.165	0.88
863.903	0.88
864.641	0.88
865.379	0.88
866.117	2.88
866.855	1.88
867.593	-0.12
868.33	1.88
869.068	-0.12
869.806	1.88
870.543	-1.12
871.28	0.88
872.018	1.88
872.755	-0.12
873.492	-0.12
874.229	-1.12
874.967	-0.12
875.703	2.88
876.44	0.88
877.177	3.88
877.914	0.88
878.651	0.88
879.387	-0.12
880.124	1.88
880.86	1.88
881.597	-1.12
882.333	1.88
883.069	-1.12
883.806	-0.12
884.542	0.88
885.278	0.88
886.014	0.88
886.749	-0.12
887.485	-0.12
888.221	0.88
888.957	0.88
889.692	0.88
890.428	0.88
891.163	-0.12
891.899	0.88
892.634	0.88
893.369	-1.12
894.104	-0.12
894.839	-0.12
895.574	-2.12
896.309	-0.12
897.044	1.88
897.779	1.88
898.514	0.88
899.248	-1.12
899.983	1.88
900.717	-0.12
901.452	1.88
902.186	-1.12
902.92	0.88
903.654	-0.12
904.389	-0.12
905.123	0.88
905.857	-0.12
906.59	-1.12
907.324	0.88
908.058	1.88
908.792	1.88
909.525	-0.12
910.259	-1.12
910.992	1.88
911.726	-1.12
912.459	-0.12
913.192	-2.12
913.925	2.88
914.658	-1.12
915.391	-0.12
916.124	0.88
916.857	-0.12
917.59	1.88
918.323	0.88
919.055	-1.12
919.788	-1.12
920.521	-1.12
921.253	0.88
921.985	0.88
922.718	1.88
923.45	-0.12
924.182	-2.12
924.914	-0.12
925.646	-2.12
926.378	0.88
927.11	-2.12
927.841	0.88
928.573	-1.12
929.305	-1.12
930.036	-1.12
930.768	-0.12
931.499	0.88
932.23	1.88
932.962	1.88
933.693	-3.12
934.424	-1.12
935.155	0.88
935.886	-0.12
936.617	0.88
937.348	-0.12
938.078	-0.12
938.809	4.88
939.54	2.88
940.27	-0.12
941.001	-3.12
941.731	-1.12
942.461	0.88
943.191	-1.12
943.922	1.88
944.652	-2.12
945.382	1.88
946.112	0.88
946.841	-3.12
947.571	-1.12
948.301	0.88
949.031	-2.12
949.76	0.88
950.49	-0.12
951.219	0.88
951.948	-0.12
952.678	-1.12
953.407	-0.12
954.136	-0.12
954.865	0.88
955.594	-0.12
956.323	1.88
957.052	0.88
957.78	0.88
958.509	-0.12
959.238	-0.12
959.966	0.88
960.695	-0.12
961.423	-0.12
962.151	-1.12
962.88	-0.12
963.608	-1.12
964.336	-1.12
965.064	0.88
965.792	-1.12
966.52	0.88
967.247	1.88
967.975	0.88
968.703	-1.12
969.43	-2.12
970.158	-1.12
970.885	-3.12
971.613	0.88
972.34	0.88
973.067	-1.12
973.794	0.88
974.521	-0.12
975.248	0.88
975.975	-1.12
976.702	-1.12
977.429	-2.12
978.156	-0.12
978.882	-0.12
979.609	-1.12
980.335	0.88
981.062	-3.12
981.788	0.88
982.514	-0.12
983.24	-0.12
983.967	0.88
984.693	-0.12
985.419	0.88
986.144	-1.12
986.87	-0.12
987.596	1.88
988.322	0.88
989.047	-0.12
989.773	-2.12
990.498	-1.12
991.224	1.88
991.949	-0.12
992.674	0.88
993.399	0.88
994.124	0.88
994.849	-1.12
995.574	-1.12
996.299	-0.12
997.024	-0.12
997.749	0.88
998.473	-0.12
999.198	-0.12
999.922	0.88
1000.647	-2.12
1001.371	3.88
1002.095	-2.12
1002.82	-0.12
1003.544	-1.12
1004.268	0.88
1004.992	0.88
1005.716	-0.12
1006.439	1.88
1007.163	2.88
1007.887	0.88
1008.611	-0.12
1009.334	-1.12
1010.058	-1.12
1010.781	-0.12
1011.504	-0.12
1012.228	-1.12
1012.951	-1.12
1013.674	0.88
1014.397	-1.12
1015.12	0.88
