节点500_285_QEPB04081__217__14-59-10-054.txt的数据

Date: Wed Nov 12 14:59:10 CST 2025
User: PC
Spectrometer: QEPB0408
触发模式: 0
积分时间 (秒): 1.000000E-2
Scans to average: 1
启用暗噪声校正: true
启用非线性校正: false
滑动平均宽度: 0
X轴模式: Wavelengths
Number of Pixels in Spectrum: 1044
>>>>>Begin Spectral Data<<<<<
220.843	1
221.644	3
222.444	1
223.244	1
224.045	1
224.845	-2
225.645	4
226.445	3
227.245	0
228.045	1
228.845	0
229.645	1
230.444	3
231.244	2
232.043	3
232.843	3
233.642	1
234.442	4
235.241	4
236.04	4
236.839	4
237.638	3
238.437	5
239.236	3
240.035	5
240.833	5
241.632	5
242.43	3
243.229	3
244.027	5
244.826	8
245.624	6
246.422	7
247.22	6
248.018	4
248.816	7
249.614	6
250.412	5
251.21	7
252.007	7
252.805	8
253.602	6
254.4	6
255.197	9
255.994	10
256.791	10
257.589	6
258.386	11
259.183	6
259.979	9
260.776	9
261.573	8
262.37	11
263.166	13
263.963	10
264.759	12
265.556	14
266.352	12
267.148	13
267.944	12
268.74	12
269.536	13
270.332	16
271.128	18
271.924	13
272.719	16
273.515	14
274.311	15
275.106	19
275.901	17
276.697	16
277.492	18
278.287	17
279.082	21
279.877	17
280.672	17
281.467	20
282.262	20
283.056	16
283.851	17
284.646	20
285.44	19
286.234	20
287.029	17
287.823	16
288.617	21
289.411	16
290.205	18
290.999	18
291.793	17
292.587	17
293.381	20
294.174	17
294.968	19
295.761	18
296.555	15
297.348	16
298.141	16
298.935	17
299.728	16
300.521	14
301.314	15
302.107	13
302.899	13
303.692	12
304.485	13
305.277	13
306.07	12
306.862	12
307.655	11
308.447	11
309.239	10
310.031	11
310.823	8
311.615	12
312.407	8
313.199	11
313.991	9
314.783	9
315.574	8
316.366	8
317.157	8
317.949	6
318.74	8
319.531	8
320.322	8
321.113	9
321.904	8
322.695	8
323.486	10
324.277	10
325.068	7
325.858	7
326.649	6
327.439	6
328.23	6
329.02	8
329.81	6
330.6	6
331.391	6
332.181	7
332.971	7
333.76	5
334.55	7
335.34	4
336.13	8
336.919	5
337.709	8
338.498	5
339.287	6
340.077	3
340.866	4
341.655	6
342.444	6
343.233	5
344.022	8
344.811	3
345.6	6
346.388	5
347.177	9
347.965	5
348.754	5
349.542	7
350.33	5
351.119	6
351.907	5
352.695	5
353.483	5
354.271	6
355.059	6
355.846	4
356.634	6
357.422	5
358.209	6
358.997	5
359.784	6
360.571	6
361.359	5
362.146	5
362.933	5
363.72	5
364.507	5
365.294	4
366.081	4
366.867	4
367.654	5
368.44	2
369.227	3
370.013	3
370.8	5
371.586	4
372.372	5
373.158	2
373.944	4
374.73	4
375.516	5
376.302	5
377.088	5
377.873	5
378.659	4
379.445	4
380.23	4
381.015	8
381.801	4
382.586	7
383.371	5
384.156	3
384.941	8
385.726	4
386.511	6
387.296	6
388.08	6
388.865	5
389.649	4
390.434	5
391.218	5
392.003	5
392.787	6
393.571	6
394.355	6
395.139	5
395.923	3
396.707	4
397.491	7
398.274	7
399.058	5
399.842	6
400.625	6
401.408	8
402.192	6
402.975	8
403.758	6
404.541	7
405.324	6
406.107	7
406.89	8
407.673	6
408.456	8
409.238	9
410.021	9
410.803	8
411.586	9
412.368	7
413.151	9
413.933	8
414.715	9
415.497	7
416.279	7
417.061	11
417.843	10
418.624	7
419.406	9
420.188	9
420.969	10
421.751	11
422.532	10
423.313	11
424.095	10
424.876	13
425.657	11
426.438	12
427.219	11
428	9
428.78	11
429.561	14
430.342	15
431.122	14
431.903	15
432.683	15
433.464	17
434.244	14
435.024	15
435.804	18
436.584	16
437.364	19
438.144	18
438.924	22
439.704	22
440.483	21
441.263	23
442.042	22
442.822	29
443.601	28
444.38	33
445.16	29
445.939	31
446.718	34
447.497	39
448.276	43
449.054	44
449.833	42
450.612	50
451.391	54
452.169	59
452.948	65
453.726	71
454.504	81
455.282	89
456.061	95
456.839	111
457.617	116
458.395	132
459.172	146
459.95	166
460.728	177
461.506	199
462.283	224
463.061	245
463.838	282
464.615	319
465.393	345
466.17	394
466.947	433
467.724	485
468.501	543
469.278	610
470.055	672
470.831	751
471.608	837
472.385	933
473.161	1041
473.938	1151
474.714	1275
475.49	1413
476.266	1567
477.043	1732
477.819	1910
478.595	2125
479.371	2329
480.146	2577
480.922	2876
481.698	3169
482.473	3480
483.249	3848
484.024	4247
484.8	4678
485.575	5145
486.35	5673
487.126	6234
487.901	6883
488.676	7505
489.451	8283
490.225	9058
491	9900
491.775	10837
492.55	11852
493.324	12877
494.099	13829
494.873	14934
495.647	16123
496.422	17337
497.196	18549
497.97	19814
498.744	21016
499.518	22208
500.292	23355
501.066	24497
501.839	25440
502.613	26316
503.387	27023
504.16	27616
504.934	27956
505.707	28081
506.48	28078
507.253	27916
508.027	27590
508.8	27147
509.573	26656
510.346	25930
511.118	25129
511.891	24242
512.664	23365
513.437	22484
514.209	21483
514.982	20546
515.754	19623
516.526	18753
517.298	17956
518.071	17130
518.843	16505
519.615	15846
520.387	15263
521.159	14642
521.93	14056
522.702	13496
523.474	12895
524.245	12365
525.017	11847
525.788	11338
526.56	10866
527.331	10361
528.102	9874
528.873	9437
529.644	8923
530.415	8501
531.186	8058
531.957	7601
532.728	7208
533.498	6873
534.269	6448
535.039	6111
535.81	5742
536.58	5440
537.351	5085
538.121	4826
538.891	4577
539.661	4316
540.431	4069
541.201	3840
541.971	3657
542.741	3473
543.51	3293
544.28	3145
545.05	2980
545.819	2815
546.588	2696
547.358	2568
548.127	2420
548.896	2310
549.665	2187
550.434	2075
551.203	1957
551.972	1850
552.741	1765
553.51	1659
554.278	1548
555.047	1485
555.815	1393
556.584	1314
557.352	1231
558.121	1170
558.889	1108
559.657	1038
560.425	987
561.193	921
561.961	870
562.729	826
563.496	789
564.264	740
565.032	700
565.799	664
566.567	623
567.334	584
568.101	561
568.869	515
569.636	491
570.403	476
571.17	443
571.937	418
572.704	402
573.471	369
574.237	352
575.004	328
575.771	315
576.537	293
577.303	272
578.07	248
578.836	241
579.602	227
580.368	218
581.134	209
581.9	193
582.666	185
583.432	177
584.198	165
584.964	156
585.729	151
586.495	141
587.26	134
588.025	125
588.791	123
589.556	114
590.321	107
591.086	105
591.851	95
592.616	94
593.381	86
594.146	84
594.911	80
595.675	79
596.44	71
597.204	67
597.969	65
598.733	65
599.497	62
600.261	58
601.025	58
601.79	53
602.553	50
603.317	52
604.081	49
604.845	42
605.609	43
606.372	39
607.136	39
607.899	39
608.662	36
609.426	35
610.189	32
610.952	33
611.715	30
612.478	30
613.241	30
614.004	29
614.767	27
615.529	26
616.292	24
617.055	20
617.817	24
618.579	25
619.342	20
620.104	21
620.866	17
621.628	22
622.39	18
623.152	17
623.914	18
624.676	15
625.438	15
626.199	16
626.961	16
627.722	14
628.484	16
629.245	13
630.006	13
630.768	15
631.529	11
632.29	11
633.051	13
633.812	11
634.573	10
635.333	10
636.094	12
636.855	10
637.615	10
638.376	9
639.136	10
639.896	8
640.657	7
641.417	8
642.177	8
642.937	8
643.697	9
644.457	8
645.216	7
645.976	10
646.736	8
647.495	8
648.255	5
649.014	8
649.774	6
650.533	8
651.292	5
652.051	7
652.81	7
653.569	5
654.328	7
655.087	7
655.846	7
656.604	7
657.363	7
658.121	7
658.88	7
659.638	6
660.397	5
661.155	4
661.913	6
662.671	4
663.429	5
664.187	4
664.945	4
665.703	4
666.46	4
667.218	4
667.976	5
668.733	4
669.49	5
670.248	4
671.005	3
671.762	6
672.519	2
673.276	4
674.033	3
674.79	4
675.547	4
676.304	6
677.06	4
677.817	5
678.574	3
679.33	2
680.086	4
680.843	4
681.599	2
682.355	6
683.111	5
683.867	2
684.623	4
685.379	4
686.135	4
686.89	4
687.646	1
688.402	2
689.157	2
689.912	3
690.668	2
691.423	3
692.178	5
692.933	4
693.688	3
694.443	5
695.198	2
695.953	7
696.708	3
697.462	4
698.217	3
698.972	2
699.726	3
700.48	2
701.235	5
701.989	3
702.743	4
703.497	4
704.251	4
705.005	4
705.759	4
706.513	1
707.266	5
708.02	3
708.774	4
709.527	4
710.28	2
711.034	2
711.787	3
712.54	4
713.293	1
714.046	3
714.799	4
715.552	3
716.305	2
717.058	2
717.81	3
718.563	3
719.315	2
720.068	3
720.82	4
721.573	4
722.325	3
723.077	4
723.829	2
724.581	3
725.333	3
726.085	4
726.836	5
727.588	3
728.34	5
729.091	3
729.843	2
730.594	5
731.346	4
732.097	5
732.848	3
733.599	4
734.35	5
735.101	2
735.852	2
736.603	3
737.354	5
738.104	2
738.855	2
739.605	5
740.356	5
741.106	5
741.856	4
742.607	5
743.357	4
744.107	3
744.857	6
745.607	4
746.357	4
747.106	6
747.856	6
748.606	3
749.355	6
750.105	8
750.854	5
751.603	5
752.353	4
753.102	2
753.851	5
754.6	4
755.349	5
756.098	6
756.847	5
757.595	6
758.344	5
759.093	6
759.841	6
760.589	7
761.338	5
762.086	6
762.834	6
763.582	5
764.331	8
765.079	6
765.826	8
766.574	8
767.322	8
768.07	9
768.817	7
769.565	7
770.312	6
771.06	9
771.807	8
772.554	6
773.302	6
774.049	8
774.796	8
775.543	6
776.29	8
777.036	9
777.783	6
778.53	11
779.276	7
780.023	7
780.769	10
781.516	6
782.262	8
783.008	6
783.754	11
784.5	9
785.246	8
785.992	9
786.738	11
787.484	11
788.23	9
788.975	10
789.721	7
790.466	7
791.212	7
791.957	8
792.702	7
793.447	6
794.193	9
794.938	7
795.683	8
796.427	6
797.172	7
797.917	10
798.662	4
799.406	8
800.151	6
800.895	7
801.64	7
802.384	5
803.128	8
803.872	6
804.616	8
805.36	7
806.104	5
806.848	6
807.592	5
808.336	7
809.079	7
809.823	4
810.566	6
811.31	4
812.053	4
812.796	7
813.539	6
814.283	5
815.026	7
815.769	6
816.511	4
817.254	4
817.997	5
818.74	4
819.482	4
820.225	3
820.967	5
821.71	6
822.452	4
823.194	2
823.936	3
824.678	3
825.42	2
826.162	2
826.904	3
827.646	4
828.388	4
829.129	4
829.871	3
830.612	1
831.354	5
832.095	2
832.836	2
833.577	4
834.319	4
835.06	4
835.801	3
836.542	3
837.282	1
838.023	1
838.764	1
839.504	3
840.245	4
840.985	3
841.726	1
842.466	3
843.206	3
843.946	4
844.687	3
845.427	4
846.166	3
846.906	3
847.646	2
848.386	2
849.125	2
849.865	1
850.605	0
851.344	3
852.083	3
852.823	2
853.562	4
854.301	1
855.04	1
855.779	2
856.518	1
857.257	3
857.995	3
858.734	1
859.473	2
860.211	3
860.95	0
861.688	3
862.426	3
863.165	4
863.903	1
864.641	1
865.379	1
866.117	0
866.855	0
867.593	0
868.33	0
869.068	3
869.806	0
870.543	2
871.28	3
872.018	0
872.755	3
873.492	0
874.229	1
874.967	1
875.703	3
876.44	0
877.177	1
877.914	2
878.651	0
879.387	3
880.124	1
880.86	0
881.597	1
882.333	1
883.069	1
883.806	0
884.542	4
885.278	1
886.014	0
886.749	4
887.485	0
888.221	0
888.957	0
889.692	1
890.428	1
891.163	0
891.899	-1
892.634	3
893.369	-1
894.104	0
894.839	1
895.574	0
896.309	-2
897.044	1
897.779	1
898.514	0
899.248	1
899.983	0
900.717	-1
901.452	1
902.186	1
902.92	-1
903.654	0
904.389	1
905.123	2
905.857	0
906.59	-1
907.324	-1
908.058	1
908.792	-1
909.525	3
910.259	0
910.992	1
911.726	1
912.459	1
913.192	-1
913.925	-1
914.658	1
915.391	0
916.124	0
916.857	3
917.59	-2
918.323	1
919.055	1
919.788	3
920.521	1
921.253	-1
921.985	-1
922.718	-1
923.45	-1
924.182	-1
924.914	1
925.646	1
926.378	1
927.11	1
927.841	1
928.573	1
929.305	0
930.036	-1
930.768	1
931.499	0
932.23	1
932.962	1
933.693	1
934.424	0
935.155	1
935.886	1
936.617	0
937.348	2
938.078	0
938.809	1
939.54	1
940.27	0
941.001	1
941.731	0
942.461	-3
943.191	0
943.922	0
944.652	1
945.382	-1
946.112	0
946.841	-1
947.571	2
948.301	0
949.031	0
949.76	-1
950.49	-1
951.219	-1
951.948	4
952.678	0
953.407	2
954.136	-3
954.865	0
955.594	0
956.323	0
957.052	0
957.78	-1
958.509	-1
959.238	-1
959.966	-2
960.695	-3
961.423	-1
962.151	0
962.88	-2
963.608	0
964.336	-2
965.064	1
965.792	-1
966.52	-1
967.247	1
967.975	-1
968.703	1
969.43	2
970.158	1
970.885	0
971.613	-1
972.34	0
973.067	-1
973.794	0
974.521	-1
975.248	0
975.975	-2
976.702	-1
977.429	3
978.156	-1
978.882	1
979.609	0
980.335	-1
981.062	-1
981.788	0
982.514	0
983.24	0
983.967	0
984.693	0
985.419	0
986.144	1
986.87	-1
987.596	0
988.322	-1
989.047	0
989.773	2
990.498	1
991.224	2
991.949	0
992.674	-1
993.399	-1
994.124	-1
994.849	-1
995.574	-1
996.299	0
997.024	0
997.749	-1
998.473	1
999.198	-1
999.922	1
1000.647	1
1001.371	3
1002.095	0
1002.82	0
1003.544	-2
1004.268	0
1004.992	1
1005.716	0
1006.439	1
1007.163	2
1007.887	0
1008.611	-1
1009.334	-1
1010.058	1
1010.781	-1
1011.504	0
1012.228	1
1012.951	1
1013.674	0
1014.397	-1
1015.12	-1
