节点500_285_QEPB04081__442__15-02-54-553.txt的数据

Date: Wed Nov 12 15:02:54 CST 2025
User: PC
Spectrometer: QEPB0408
触发模式: 0
积分时间 (秒): 1.000000E-2
Scans to average: 1
启用暗噪声校正: true
启用非线性校正: false
滑动平均宽度: 0
X轴模式: Wavelengths
Number of Pixels in Spectrum: 1044
>>>>>Begin Spectral Data<<<<<
220.843	3.62
221.644	0.62
222.444	2.62
223.244	1.62
224.045	1.62
224.845	1.62
225.645	2.62
226.445	1.62
227.245	-0.38
228.045	4.62
228.845	2.62
229.645	1.62
230.444	2.62
231.244	3.62
232.043	3.62
232.843	1.62
233.642	2.62
234.442	4.62
235.241	0.62
236.04	1.62
236.839	4.62
237.638	4.62
238.437	2.62
239.236	4.62
240.035	5.62
240.833	3.62
241.632	4.62
242.43	2.62
243.229	5.62
244.027	5.62
244.826	4.62
245.624	4.62
246.422	5.62
247.22	3.62
248.018	2.62
248.816	7.62
249.614	7.62
250.412	6.62
251.21	7.62
252.007	4.62
252.805	8.62
253.602	7.62
254.4	7.62
255.197	6.62
255.994	7.62
256.791	8.62
257.589	6.62
258.386	7.62
259.183	7.62
259.979	7.62
260.776	11.62
261.573	8.62
262.37	10.62
263.166	7.62
263.963	12.62
264.759	12.62
265.556	11.62
266.352	10.62
267.148	9.62
267.944	13.62
268.74	11.62
269.536	13.62
270.332	15.62
271.128	14.62
271.924	16.62
272.719	12.62
273.515	12.62
274.311	14.62
275.106	16.62
275.901	15.62
276.697	15.62
277.492	16.62
278.287	17.62
279.082	15.62
279.877	22.62
280.672	15.62
281.467	17.62
282.262	16.62
283.056	18.62
283.851	19.62
284.646	19.62
285.44	18.62
286.234	16.62
287.029	18.62
287.823	20.62
288.617	18.62
289.411	18.62
290.205	17.62
290.999	16.62
291.793	16.62
292.587	15.62
293.381	17.62
294.174	17.62
294.968	13.62
295.761	13.62
296.555	15.62
297.348	13.62
298.141	15.62
298.935	16.62
299.728	17.62
300.521	13.62
301.314	14.62
302.107	14.62
302.899	13.62
303.692	12.62
304.485	13.62
305.277	12.62
306.07	13.62
306.862	12.62
307.655	12.62
308.447	11.62
309.239	13.62
310.031	9.62
310.823	13.62
311.615	10.62
312.407	5.62
313.199	9.62
313.991	8.62
314.783	8.62
315.574	10.62
316.366	7.62
317.157	6.62
317.949	7.62
318.74	8.62
319.531	8.62
320.322	6.62
321.113	10.62
321.904	5.62
322.695	7.62
323.486	4.62
324.277	8.62
325.068	7.62
325.858	6.62
326.649	6.62
327.439	6.62
328.23	6.62
329.02	7.62
329.81	6.62
330.6	8.62
331.391	5.62
332.181	9.62
332.971	5.62
333.76	5.62
334.55	2.62
335.34	5.62
336.13	6.62
336.919	6.62
337.709	6.62
338.498	5.62
339.287	4.62
340.077	9.62
340.866	5.62
341.655	6.62
342.444	4.62
343.233	6.62
344.022	5.62
344.811	4.62
345.6	6.62
346.388	4.62
347.177	5.62
347.965	6.62
348.754	6.62
349.542	5.62
350.33	4.62
351.119	6.62
351.907	5.62
352.695	3.62
353.483	5.62
354.271	6.62
355.059	3.62
355.846	4.62
356.634	5.62
357.422	3.62
358.209	5.62
358.997	6.62
359.784	4.62
360.571	3.62
361.359	6.62
362.146	5.62
362.933	5.62
363.72	7.62
364.507	3.62
365.294	5.62
366.081	5.62
366.867	5.62
367.654	4.62
368.44	5.62
369.227	5.62
370.013	4.62
370.8	3.62
371.586	5.62
372.372	3.62
373.158	7.62
373.944	4.62
374.73	3.62
375.516	6.62
376.302	4.62
377.088	3.62
377.873	5.62
378.659	5.62
379.445	7.62
380.23	4.62
381.015	5.62
381.801	4.62
382.586	5.62
383.371	3.62
384.156	3.62
384.941	4.62
385.726	5.62
386.511	5.62
387.296	3.62
388.08	5.62
388.865	4.62
389.649	3.62
390.434	7.62
391.218	5.62
392.003	5.62
392.787	2.62
393.571	4.62
394.355	7.62
395.139	6.62
395.923	7.62
396.707	6.62
397.491	5.62
398.274	7.62
399.058	6.62
399.842	7.62
400.625	7.62
401.408	8.62
402.192	5.62
402.975	7.62
403.758	8.62
404.541	4.62
405.324	8.62
406.107	8.62
406.89	6.62
407.673	8.62
408.456	8.62
409.238	4.62
410.021	7.62
410.803	7.62
411.586	7.62
412.368	7.62
413.151	8.62
413.933	5.62
414.715	8.62
415.497	9.62
416.279	8.62
417.061	7.62
417.843	7.62
418.624	11.62
419.406	7.62
420.188	9.62
420.969	8.62
421.751	9.62
422.532	8.62
423.313	9.62
424.095	9.62
424.876	11.62
425.657	11.62
426.438	11.62
427.219	10.62
428	10.62
428.78	13.62
429.561	12.62
430.342	12.62
431.122	14.62
431.903	12.62
432.683	15.62
433.464	16.62
434.244	15.62
435.024	19.62
435.804	17.62
436.584	17.62
437.364	18.62
438.144	20.62
438.924	18.62
439.704	24.62
440.483	20.62
441.263	23.62
442.042	23.62
442.822	25.62
443.601	28.62
444.38	28.62
445.16	30.62
445.939	33.62
446.718	36.62
447.497	39.62
448.276	37.62
449.054	45.62
449.833	50.62
450.612	53.62
451.391	57.62
452.169	63.62
452.948	72.62
453.726	70.62
454.504	84.62
455.282	97.62
456.061	98.62
456.839	112.62
457.617	125.62
458.395	134.62
459.172	154.62
459.95	174.62
460.728	182.62
461.506	210.62
462.283	237.62
463.061	264.62
463.838	290.62
464.615	331.62
465.393	365.62
466.17	416.62
466.947	456.62
467.724	520.62
468.501	560.62
469.278	622.62
470.055	697.62
470.831	773.62
471.608	869.62
472.385	955.62
473.161	1067.62
473.938	1179.62
474.714	1305.62
475.49	1439.62
476.266	1588.62
477.043	1769.62
477.819	1931.62
478.595	2125.62
479.371	2348.62
480.146	2596.62
480.922	2826.62
481.698	3132.62
482.473	3451.62
483.249	3786.62
484.024	4123.62
484.8	4561.62
485.575	5014.62
486.35	5480.62
487.126	6002.62
487.901	6608.62
488.676	7207.62
489.451	7917.62
490.225	8614.62
491	9371.62
491.775	10233.62
492.55	11160.62
493.324	12089.62
494.099	13026.62
494.873	13989.62
495.647	15127.62
496.422	16244.62
497.196	17380.62
497.97	18507.62
498.744	19695.62
499.518	20834.62
500.292	21988.62
501.066	22985.62
501.839	23977.62
502.613	24847.62
503.387	25633.62
504.16	26331.62
504.934	26670.62
505.707	26857.62
506.48	26975.62
507.253	26992.62
508.027	26775.62
508.8	26508.62
509.573	26136.62
510.346	25522.62
511.118	24862.62
511.891	24177.62
512.664	23357.62
513.437	22454.62
514.209	21603.62
514.982	20742.62
515.754	19807.62
516.526	18935.62
517.298	18092.62
518.071	17358.62
518.843	16628.62
519.615	16043.62
520.387	15449.62
521.159	14791.62
521.93	14201.62
522.702	13649.62
523.474	13125.62
524.245	12537.62
525.017	11980.62
525.788	11547.62
526.56	11054.62
527.331	10522.62
528.102	10043.62
528.873	9599.62
529.644	9111.62
530.415	8684.62
531.186	8218.62
531.957	7823.62
532.728	7435.62
533.498	7068.62
534.269	6661.62
535.039	6316.62
535.81	5958.62
536.58	5624.62
537.351	5267.62
538.121	4996.62
538.891	4732.62
539.661	4483.62
540.431	4238.62
541.201	3998.62
541.971	3792.62
542.741	3590.62
543.51	3427.62
544.28	3258.62
545.05	3110.62
545.819	2947.62
546.588	2792.62
547.358	2654.62
548.127	2506.62
548.896	2383.62
549.665	2281.62
550.434	2152.62
551.203	2036.62
551.972	1932.62
552.741	1833.62
553.51	1724.62
554.278	1631.62
555.047	1533.62
555.815	1454.62
556.584	1374.62
557.352	1301.62
558.121	1212.62
558.889	1156.62
559.657	1096.62
560.425	1043.62
561.193	969.62
561.961	926.62
562.729	871.62
563.496	821.62
564.264	777.62
565.032	738.62
565.799	696.62
566.567	651.62
567.334	618.62
568.101	577.62
568.869	544.62
569.636	523.62
570.403	488.62
571.17	461.62
571.937	435.62
572.704	422.62
573.471	382.62
574.237	361.62
575.004	339.62
575.771	324.62
576.537	306.62
577.303	283.62
578.07	271.62
578.836	249.62
579.602	238.62
580.368	224.62
581.134	215.62
581.9	200.62
582.666	196.62
583.432	185.62
584.198	178.62
584.964	166.62
585.729	158.62
586.495	140.62
587.26	139.62
588.025	135.62
588.791	127.62
589.556	120.62
590.321	111.62
591.086	112.62
591.851	99.62
592.616	93.62
593.381	92.62
594.146	82.62
594.911	85.62
595.675	77.62
596.44	74.62
597.204	68.62
597.969	67.62
598.733	65.62
599.497	65.62
600.261	66.62
601.025	58.62
601.79	55.62
602.553	54.62
603.317	48.62
604.081	49.62
604.845	50.62
605.609	46.62
606.372	41.62
607.136	36.62
607.899	39.62
608.662	34.62
609.426	35.62
610.189	32.62
610.952	35.62
611.715	33.62
612.478	29.62
613.241	30.62
614.004	29.62
614.767	27.62
615.529	26.62
616.292	26.62
617.055	23.62
617.817	21.62
618.579	21.62
619.342	24.62
620.104	19.62
620.866	20.62
621.628	17.62
622.39	19.62
623.152	16.62
623.914	17.62
624.676	20.62
625.438	17.62
626.199	15.62
626.961	16.62
627.722	14.62
628.484	15.62
629.245	13.62
630.006	14.62
630.768	13.62
631.529	13.62
632.29	11.62
633.051	15.62
633.812	10.62
634.573	12.62
635.333	12.62
636.094	11.62
636.855	12.62
637.615	9.62
638.376	10.62
639.136	12.62
639.896	10.62
640.657	9.62
641.417	9.62
642.177	10.62
642.937	8.62
643.697	5.62
644.457	9.62
645.216	6.62
645.976	9.62
646.736	7.62
647.495	8.62
648.255	9.62
649.014	8.62
649.774	7.62
650.533	8.62
651.292	7.62
652.051	5.62
652.81	6.62
653.569	5.62
654.328	6.62
655.087	5.62
655.846	5.62
656.604	5.62
657.363	3.62
658.121	4.62
658.88	4.62
659.638	4.62
660.397	5.62
661.155	4.62
661.913	4.62
662.671	4.62
663.429	5.62
664.187	6.62
664.945	2.62
665.703	6.62
666.46	3.62
667.218	7.62
667.976	4.62
668.733	5.62
669.49	7.62
670.248	4.62
671.005	4.62
671.762	4.62
672.519	5.62
673.276	3.62
674.033	3.62
674.79	5.62
675.547	3.62
676.304	3.62
677.06	3.62
677.817	4.62
678.574	1.62
679.33	2.62
680.086	4.62
680.843	3.62
681.599	4.62
682.355	2.62
683.111	3.62
683.867	2.62
684.623	3.62
685.379	3.62
686.135	4.62
686.89	3.62
687.646	2.62
688.402	1.62
689.157	5.62
689.912	2.62
690.668	5.62
691.423	5.62
692.178	2.62
692.933	6.62
693.688	1.62
694.443	2.62
695.198	5.62
695.953	4.62
696.708	3.62
697.462	3.62
698.217	2.62
698.972	1.62
699.726	3.62
700.48	4.62
701.235	1.62
701.989	3.62
702.743	3.62
703.497	2.62
704.251	2.62
705.005	2.62
705.759	1.62
706.513	5.62
707.266	5.62
708.02	3.62
708.774	3.62
709.527	3.62
710.28	5.62
711.034	1.62
711.787	2.62
712.54	3.62
713.293	3.62
714.046	4.62
714.799	1.62
715.552	1.62
716.305	1.62
717.058	2.62
717.81	2.62
718.563	4.62
719.315	4.62
720.068	2.62
720.82	4.62
721.573	4.62
722.325	2.62
723.077	4.62
723.829	2.62
724.581	3.62
725.333	2.62
726.085	5.62
726.836	1.62
727.588	4.62
728.34	5.62
729.091	4.62
729.843	3.62
730.594	1.62
731.346	4.62
732.097	7.62
732.848	4.62
733.599	3.62
734.35	5.62
735.101	2.62
735.852	3.62
736.603	4.62
737.354	5.62
738.104	1.62
738.855	5.62
739.605	2.62
740.356	2.62
741.106	2.62
741.856	4.62
742.607	5.62
743.357	6.62
744.107	5.62
744.857	4.62
745.607	6.62
746.357	6.62
747.106	3.62
747.856	5.62
748.606	3.62
749.355	4.62
750.105	4.62
750.854	2.62
751.603	6.62
752.353	6.62
753.102	5.62
753.851	6.62
754.6	5.62
755.349	4.62
756.098	6.62
756.847	6.62
757.595	4.62
758.344	6.62
759.093	6.62
759.841	6.62
760.589	7.62
761.338	6.62
762.086	5.62
762.834	6.62
763.582	4.62
764.331	7.62
765.079	5.62
765.826	5.62
766.574	7.62
767.322	8.62
768.07	6.62
768.817	5.62
769.565	6.62
770.312	9.62
771.06	8.62
771.807	7.62
772.554	4.62
773.302	9.62
774.049	7.62
774.796	11.62
775.543	10.62
776.29	8.62
777.036	6.62
777.783	8.62
778.53	8.62
779.276	9.62
780.023	7.62
780.769	6.62
781.516	9.62
782.262	9.62
783.008	7.62
783.754	7.62
784.5	8.62
785.246	9.62
785.992	7.62
786.738	10.62
787.484	7.62
788.23	9.62
788.975	8.62
789.721	9.62
790.466	9.62
791.212	8.62
791.957	8.62
792.702	9.62
793.447	7.62
794.193	7.62
794.938	7.62
795.683	7.62
796.427	7.62
797.172	6.62
797.917	6.62
798.662	8.62
799.406	6.62
800.151	6.62
800.895	6.62
801.64	5.62
802.384	4.62
803.128	6.62
803.872	4.62
804.616	5.62
805.36	3.62
806.104	6.62
806.848	5.62
807.592	6.62
808.336	6.62
809.079	5.62
809.823	5.62
810.566	5.62
811.31	7.62
812.053	6.62
812.796	2.62
813.539	5.62
814.283	5.62
815.026	2.62
815.769	4.62
816.511	4.62
817.254	6.62
817.997	3.62
818.74	3.62
819.482	3.62
820.225	6.62
820.967	5.62
821.71	1.62
822.452	3.62
823.194	4.62
823.936	5.62
824.678	2.62
825.42	3.62
826.162	5.62
826.904	2.62
827.646	5.62
828.388	4.62
829.129	2.62
829.871	4.62
830.612	4.62
831.354	2.62
832.095	3.62
832.836	5.62
833.577	3.62
834.319	2.62
835.06	4.62
835.801	5.62
836.542	4.62
837.282	3.62
838.023	3.62
838.764	4.62
839.504	2.62
840.245	5.62
840.985	2.62
841.726	3.62
842.466	3.62
843.206	3.62
843.946	3.62
844.687	2.62
845.427	0.62
846.166	2.62
846.906	4.62
847.646	2.62
848.386	3.62
849.125	5.62
849.865	2.62
850.605	3.62
851.344	2.62
852.083	3.62
852.823	3.62
853.562	1.62
854.301	3.62
855.04	1.62
855.779	4.62
856.518	3.62
857.257	1.62
857.995	2.62
858.734	0.62
859.473	1.62
860.211	2.62
860.95	3.62
861.688	1.62
862.426	-0.38
863.165	1.62
863.903	1.62
864.641	1.62
865.379	0.62
866.117	1.62
866.855	1.62
867.593	-0.38
868.33	2.62
869.068	-1.38
869.806	1.62
870.543	2.62
871.28	3.62
872.018	1.62
872.755	-0.38
873.492	1.62
874.229	1.62
874.967	0.62
875.703	1.62
876.44	-0.38
877.177	2.62
877.914	1.62
878.651	1.62
879.387	-0.38
880.124	3.62
880.86	0.62
881.597	-1.38
882.333	0.62
883.069	3.62
883.806	2.62
884.542	0.62
885.278	2.62
886.014	2.62
886.749	-0.38
887.485	3.62
888.221	0.62
888.957	-0.38
889.692	1.62
890.428	1.62
891.163	-0.38
891.899	1.62
892.634	-0.38
893.369	0.62
894.104	1.62
894.839	0.62
895.574	0.62
896.309	2.62
897.044	0.62
897.779	1.62
898.514	-1.38
899.248	0.62
899.983	1.62
900.717	-0.38
901.452	2.62
902.186	1.62
902.92	0.62
903.654	-1.38
904.389	0.62
905.123	0.62
905.857	-0.38
906.59	1.62
907.324	1.62
908.058	-1.38
908.792	-0.38
909.525	-0.38
910.259	0.62
910.992	0.62
911.726	0.62
912.459	0.62
913.192	-0.38
913.925	0.62
914.658	-1.38
915.391	0.62
916.124	-0.38
916.857	-0.38
917.59	1.62
918.323	-0.38
919.055	1.62
919.788	0.62
920.521	0.62
921.253	0.62
921.985	0.62
922.718	0.62
923.45	-1.38
924.182	-0.38
924.914	-1.38
925.646	1.62
926.378	-0.38
927.11	0.62
927.841	0.62
928.573	-2.38
929.305	0.62
930.036	-1.38
930.768	-0.38
931.499	1.62
932.23	-0.38
932.962	1.62
933.693	-2.38
934.424	-2.38
935.155	-0.38
935.886	-0.38
936.617	0.62
937.348	1.62
938.078	1.62
938.809	-2.38
939.54	0.62
940.27	0.62
941.001	-0.38
941.731	-0.38
942.461	0.62
943.191	1.62
943.922	-0.38
944.652	0.62
945.382	2.62
946.112	0.62
946.841	1.62
947.571	0.62
948.301	1.62
949.031	-0.38
949.76	-1.38
950.49	-0.38
951.219	-1.38
951.948	-1.38
952.678	-1.38
953.407	0.62
954.136	0.62
954.865	0.62
955.594	-1.38
956.323	0.62
957.052	1.62
957.78	0.62
958.509	-2.38
959.238	1.62
959.966	0.62
960.695	0.62
961.423	-0.38
962.151	0.62
962.88	-0.38
963.608	1.62
964.336	-0.38
965.064	-0.38
965.792	-1.38
966.52	-2.38
967.247	-0.38
967.975	0.62
968.703	-0.38
969.43	0.62
970.158	-0.38
970.885	1.62
971.613	-0.38
972.34	1.62
973.067	0.62
973.794	0.62
974.521	1.62
975.248	-1.38
975.975	0.62
976.702	-0.38
977.429	1.62
978.156	0.62
978.882	0.62
979.609	0.62
980.335	1.62
981.062	0.62
981.788	0.62
982.514	1.62
983.24	-1.38
983.967	-1.38
984.693	-0.38
985.419	0.62
986.144	-1.38
986.87	-0.38
987.596	-2.38
988.322	-0.38
989.047	-1.38
989.773	-0.38
990.498	-2.38
991.224	1.62
991.949	1.62
992.674	-1.38
993.399	0.62
994.124	-0.38
994.849	-0.38
995.574	1.62
996.299	-1.38
997.024	-2.38
997.749	0.62
998.473	0.62
999.198	-1.38
999.922	0.62
1000.647	0.62
1001.371	1.62
1002.095	-2.38
1002.82	0.62
1003.544	0.62
1004.268	-0.38
1004.992	0.62
1005.716	0.62
1006.439	0.62
1007.163	1.62
1007.887	-1.38
1008.611	-0.38
1009.334	1.62
1010.058	0.62
1010.781	2.62
1011.504	-1.38
1012.228	0.62
1012.951	1.62
1013.674	0.62
1014.397	-1.38
1015.12	-1.38
