节点500_285_QEPB04081__410__15-02-22-600.txt的数据

Date: Wed Nov 12 15:02:22 CST 2025
User: PC
Spectrometer: QEPB0408
触发模式: 0
积分时间 (秒): 1.000000E-2
Scans to average: 1
启用暗噪声校正: true
启用非线性校正: false
滑动平均宽度: 0
X轴模式: Wavelengths
Number of Pixels in Spectrum: 1044
>>>>>Begin Spectral Data<<<<<
220.843	0.38
221.644	0.38
222.444	-0.62
223.244	0.38
224.045	0.38
224.845	0.38
225.645	1.38
226.445	2.38
227.245	1.38
228.045	4.38
228.845	3.38
229.645	4.38
230.444	2.38
231.244	0.38
232.043	2.38
232.843	1.38
233.642	1.38
234.442	3.38
235.241	3.38
236.04	3.38
236.839	3.38
237.638	4.38
238.437	2.38
239.236	3.38
240.035	3.38
240.833	3.38
241.632	5.38
242.43	2.38
243.229	4.38
244.027	2.38
244.826	2.38
245.624	4.38
246.422	2.38
247.22	6.38
248.018	5.38
248.816	6.38
249.614	4.38
250.412	5.38
251.21	5.38
252.007	6.38
252.805	4.38
253.602	8.38
254.4	8.38
255.197	6.38
255.994	9.38
256.791	7.38
257.589	7.38
258.386	9.38
259.183	8.38
259.979	9.38
260.776	9.38
261.573	9.38
262.37	9.38
263.166	9.38
263.963	12.38
264.759	9.38
265.556	11.38
266.352	11.38
267.148	10.38
267.944	14.38
268.74	11.38
269.536	13.38
270.332	14.38
271.128	15.38
271.924	13.38
272.719	16.38
273.515	15.38
274.311	17.38
275.106	16.38
275.901	16.38
276.697	17.38
277.492	19.38
278.287	15.38
279.082	16.38
279.877	16.38
280.672	19.38
281.467	16.38
282.262	17.38
283.056	17.38
283.851	17.38
284.646	19.38
285.44	17.38
286.234	19.38
287.029	18.38
287.823	15.38
288.617	18.38
289.411	16.38
290.205	18.38
290.999	16.38
291.793	16.38
292.587	15.38
293.381	16.38
294.174	19.38
294.968	15.38
295.761	15.38
296.555	17.38
297.348	13.38
298.141	14.38
298.935	12.38
299.728	14.38
300.521	14.38
301.314	12.38
302.107	13.38
302.899	11.38
303.692	12.38
304.485	11.38
305.277	10.38
306.07	12.38
306.862	14.38
307.655	12.38
308.447	11.38
309.239	11.38
310.031	11.38
310.823	10.38
311.615	10.38
312.407	8.38
313.199	7.38
313.991	9.38
314.783	8.38
315.574	8.38
316.366	7.38
317.157	8.38
317.949	9.38
318.74	6.38
319.531	8.38
320.322	5.38
321.113	8.38
321.904	7.38
322.695	8.38
323.486	7.38
324.277	6.38
325.068	6.38
325.858	7.38
326.649	5.38
327.439	5.38
328.23	5.38
329.02	2.38
329.81	5.38
330.6	7.38
331.391	6.38
332.181	5.38
332.971	8.38
333.76	8.38
334.55	7.38
335.34	3.38
336.13	6.38
336.919	3.38
337.709	7.38
338.498	4.38
339.287	5.38
340.077	5.38
340.866	6.38
341.655	7.38
342.444	6.38
343.233	5.38
344.022	5.38
344.811	6.38
345.6	7.38
346.388	5.38
347.177	8.38
347.965	5.38
348.754	5.38
349.542	5.38
350.33	7.38
351.119	3.38
351.907	4.38
352.695	3.38
353.483	2.38
354.271	6.38
355.059	7.38
355.846	5.38
356.634	7.38
357.422	3.38
358.209	6.38
358.997	6.38
359.784	3.38
360.571	7.38
361.359	4.38
362.146	4.38
362.933	4.38
363.72	5.38
364.507	6.38
365.294	4.38
366.081	4.38
366.867	3.38
367.654	5.38
368.44	4.38
369.227	6.38
370.013	5.38
370.8	5.38
371.586	4.38
372.372	5.38
373.158	3.38
373.944	4.38
374.73	4.38
375.516	2.38
376.302	2.38
377.088	3.38
377.873	4.38
378.659	6.38
379.445	4.38
380.23	2.38
381.015	4.38
381.801	4.38
382.586	5.38
383.371	5.38
384.156	7.38
384.941	4.38
385.726	5.38
386.511	6.38
387.296	5.38
388.08	5.38
388.865	6.38
389.649	4.38
390.434	1.38
391.218	6.38
392.003	5.38
392.787	6.38
393.571	6.38
394.355	4.38
395.139	4.38
395.923	6.38
396.707	6.38
397.491	5.38
398.274	7.38
399.058	6.38
399.842	7.38
400.625	5.38
401.408	6.38
402.192	8.38
402.975	7.38
403.758	8.38
404.541	7.38
405.324	7.38
406.107	5.38
406.89	8.38
407.673	5.38
408.456	7.38
409.238	7.38
410.021	8.38
410.803	6.38
411.586	9.38
412.368	6.38
413.151	6.38
413.933	9.38
414.715	9.38
415.497	9.38
416.279	10.38
417.061	9.38
417.843	9.38
418.624	8.38
419.406	9.38
420.188	10.38
420.969	11.38
421.751	9.38
422.532	9.38
423.313	12.38
424.095	9.38
424.876	11.38
425.657	12.38
426.438	9.38
427.219	10.38
428	9.38
428.78	11.38
429.561	13.38
430.342	11.38
431.122	12.38
431.903	16.38
432.683	16.38
433.464	12.38
434.244	14.38
435.024	16.38
435.804	16.38
436.584	20.38
437.364	17.38
438.144	20.38
438.924	19.38
439.704	23.38
440.483	20.38
441.263	26.38
442.042	24.38
442.822	26.38
443.601	29.38
444.38	32.38
445.16	36.38
445.939	29.38
446.718	37.38
447.497	36.38
448.276	39.38
449.054	44.38
449.833	45.38
450.612	50.38
451.391	60.38
452.169	65.38
452.948	67.38
453.726	76.38
454.504	84.38
455.282	90.38
456.061	101.38
456.839	113.38
457.617	126.38
458.395	136.38
459.172	151.38
459.95	171.38
460.728	190.38
461.506	207.38
462.283	240.38
463.061	262.38
463.838	295.38
464.615	325.38
465.393	369.38
466.17	408.38
466.947	457.38
467.724	505.38
468.501	569.38
469.278	627.38
470.055	701.38
470.831	769.38
471.608	856.38
472.385	957.38
473.161	1055.38
473.938	1167.38
474.714	1307.38
475.49	1437.38
476.266	1591.38
477.043	1761.38
477.819	1927.38
478.595	2124.38
479.371	2351.38
480.146	2578.38
480.922	2847.38
481.698	3133.38
482.473	3466.38
483.249	3774.38
484.024	4167.38
484.8	4589.38
485.575	5008.38
486.35	5511.38
487.126	6013.38
487.901	6606.38
488.676	7236.38
489.451	7910.38
490.225	8664.38
491	9469.38
491.775	10312.38
492.55	11192.38
493.324	12185.38
494.099	13085.38
494.873	14091.38
495.647	15211.38
496.422	16319.38
497.196	17421.38
497.97	18613.38
498.744	19818.38
499.518	20878.38
500.292	22027.38
501.066	23151.38
501.839	24092.38
502.613	25010.38
503.387	25803.38
504.16	26458.38
504.934	26810.38
505.707	27025.38
506.48	27198.38
507.253	27076.38
508.027	26810.38
508.8	26575.38
509.573	26261.38
510.346	25662.38
511.118	24911.38
511.891	24118.38
512.664	23327.38
513.437	22442.38
514.209	21586.38
514.982	20691.38
515.754	19826.38
516.526	18965.38
517.298	18120.38
518.071	17340.38
518.843	16642.38
519.615	16062.38
520.387	15381.38
521.159	14823.38
521.93	14214.38
522.702	13660.38
523.474	13129.38
524.245	12476.38
525.017	12019.38
525.788	11525.38
526.56	11016.38
527.331	10463.38
528.102	10014.38
528.873	9575.38
529.644	9086.38
530.415	8629.38
531.186	8198.38
531.957	7785.38
532.728	7434.38
533.498	7037.38
534.269	6625.38
535.039	6260.38
535.81	5930.38
536.58	5593.38
537.351	5273.38
538.121	4976.38
538.891	4730.38
539.661	4492.38
540.431	4224.38
541.201	3983.38
541.971	3773.38
542.741	3584.38
543.51	3395.38
544.28	3250.38
545.05	3084.38
545.819	2912.38
546.588	2778.38
547.358	2638.38
548.127	2512.38
548.896	2383.38
549.665	2274.38
550.434	2144.38
551.203	2032.38
551.972	1891.38
552.741	1805.38
553.51	1716.38
554.278	1628.38
555.047	1532.38
555.815	1440.38
556.584	1374.38
557.352	1285.38
558.121	1218.38
558.889	1156.38
559.657	1091.38
560.425	1028.38
561.193	970.38
561.961	909.38
562.729	859.38
563.496	811.38
564.264	769.38
565.032	728.38
565.799	691.38
566.567	650.38
567.334	616.38
568.101	580.38
568.869	555.38
569.636	513.38
570.403	488.38
571.17	466.38
571.937	440.38
572.704	408.38
573.471	389.38
574.237	357.38
575.004	357.38
575.771	320.38
576.537	298.38
577.303	280.38
578.07	265.38
578.836	259.38
579.602	246.38
580.368	224.38
581.134	217.38
581.9	204.38
582.666	193.38
583.432	176.38
584.198	175.38
584.964	163.38
585.729	155.38
586.495	143.38
587.26	139.38
588.025	133.38
588.791	121.38
589.556	120.38
590.321	111.38
591.086	105.38
591.851	101.38
592.616	97.38
593.381	91.38
594.146	81.38
594.911	82.38
595.675	79.38
596.44	76.38
597.204	72.38
597.969	68.38
598.733	68.38
599.497	60.38
600.261	59.38
601.025	57.38
601.79	52.38
602.553	52.38
603.317	50.38
604.081	50.38
604.845	49.38
605.609	43.38
606.372	39.38
607.136	42.38
607.899	39.38
608.662	37.38
609.426	33.38
610.189	32.38
610.952	32.38
611.715	29.38
612.478	25.38
613.241	29.38
614.004	26.38
614.767	28.38
615.529	26.38
616.292	27.38
617.055	23.38
617.817	21.38
618.579	24.38
619.342	21.38
620.104	21.38
620.866	22.38
621.628	21.38
622.39	16.38
623.152	18.38
623.914	19.38
624.676	17.38
625.438	16.38
626.199	15.38
626.961	17.38
627.722	18.38
628.484	13.38
629.245	13.38
630.006	12.38
630.768	12.38
631.529	12.38
632.29	13.38
633.051	11.38
633.812	9.38
634.573	10.38
635.333	12.38
636.094	9.38
636.855	10.38
637.615	11.38
638.376	12.38
639.136	8.38
639.896	7.38
640.657	8.38
641.417	9.38
642.177	9.38
642.937	8.38
643.697	9.38
644.457	7.38
645.216	9.38
645.976	7.38
646.736	6.38
647.495	7.38
648.255	8.38
649.014	8.38
649.774	3.38
650.533	7.38
651.292	3.38
652.051	5.38
652.81	8.38
653.569	7.38
654.328	8.38
655.087	6.38
655.846	6.38
656.604	4.38
657.363	4.38
658.121	7.38
658.88	4.38
659.638	6.38
660.397	7.38
661.155	5.38
661.913	6.38
662.671	5.38
663.429	7.38
664.187	5.38
664.945	6.38
665.703	5.38
666.46	3.38
667.218	5.38
667.976	4.38
668.733	3.38
669.49	8.38
670.248	3.38
671.005	6.38
671.762	5.38
672.519	7.38
673.276	6.38
674.033	3.38
674.79	4.38
675.547	3.38
676.304	3.38
677.06	2.38
677.817	2.38
678.574	4.38
679.33	4.38
680.086	4.38
680.843	3.38
681.599	4.38
682.355	3.38
683.111	1.38
683.867	6.38
684.623	3.38
685.379	3.38
686.135	2.38
686.89	6.38
687.646	1.38
688.402	3.38
689.157	3.38
689.912	0.38
690.668	3.38
691.423	2.38
692.178	3.38
692.933	5.38
693.688	3.38
694.443	2.38
695.198	1.38
695.953	5.38
696.708	3.38
697.462	0.38
698.217	2.38
698.972	1.38
699.726	2.38
700.48	3.38
701.235	4.38
701.989	3.38
702.743	2.38
703.497	2.38
704.251	1.38
705.005	5.38
705.759	3.38
706.513	1.38
707.266	2.38
708.02	1.38
708.774	3.38
709.527	3.38
710.28	3.38
711.034	4.38
711.787	2.38
712.54	3.38
713.293	1.38
714.046	3.38
714.799	2.38
715.552	3.38
716.305	2.38
717.058	4.38
717.81	2.38
718.563	1.38
719.315	2.38
720.068	2.38
720.82	4.38
721.573	3.38
722.325	5.38
723.077	1.38
723.829	4.38
724.581	3.38
725.333	1.38
726.085	4.38
726.836	3.38
727.588	3.38
728.34	5.38
729.091	2.38
729.843	1.38
730.594	3.38
731.346	3.38
732.097	4.38
732.848	4.38
733.599	4.38
734.35	2.38
735.101	2.38
735.852	4.38
736.603	2.38
737.354	1.38
738.104	3.38
738.855	4.38
739.605	5.38
740.356	1.38
741.106	5.38
741.856	1.38
742.607	5.38
743.357	3.38
744.107	4.38
744.857	5.38
745.607	7.38
746.357	4.38
747.106	3.38
747.856	3.38
748.606	4.38
749.355	5.38
750.105	2.38
750.854	4.38
751.603	5.38
752.353	4.38
753.102	6.38
753.851	4.38
754.6	5.38
755.349	3.38
756.098	6.38
756.847	5.38
757.595	6.38
758.344	6.38
759.093	3.38
759.841	4.38
760.589	4.38
761.338	6.38
762.086	5.38
762.834	5.38
763.582	6.38
764.331	3.38
765.079	5.38
765.826	6.38
766.574	4.38
767.322	5.38
768.07	7.38
768.817	7.38
769.565	5.38
770.312	9.38
771.06	6.38
771.807	5.38
772.554	8.38
773.302	4.38
774.049	6.38
774.796	6.38
775.543	6.38
776.29	7.38
777.036	7.38
777.783	9.38
778.53	7.38
779.276	9.38
780.023	7.38
780.769	7.38
781.516	5.38
782.262	6.38
783.008	8.38
783.754	8.38
784.5	8.38
785.246	7.38
785.992	7.38
786.738	9.38
787.484	9.38
788.23	8.38
788.975	6.38
789.721	9.38
790.466	8.38
791.212	8.38
791.957	7.38
792.702	6.38
793.447	7.38
794.193	7.38
794.938	5.38
795.683	6.38
796.427	6.38
797.172	6.38
797.917	7.38
798.662	4.38
799.406	7.38
800.151	4.38
800.895	6.38
801.64	6.38
802.384	9.38
803.128	5.38
803.872	6.38
804.616	6.38
805.36	6.38
806.104	5.38
806.848	5.38
807.592	8.38
808.336	3.38
809.079	5.38
809.823	3.38
810.566	4.38
811.31	3.38
812.053	4.38
812.796	5.38
813.539	5.38
814.283	4.38
815.026	4.38
815.769	4.38
816.511	6.38
817.254	6.38
817.997	4.38
818.74	5.38
819.482	3.38
820.225	5.38
820.967	2.38
821.71	5.38
822.452	2.38
823.194	4.38
823.936	1.38
824.678	3.38
825.42	2.38
826.162	3.38
826.904	1.38
827.646	3.38
828.388	2.38
829.129	4.38
829.871	4.38
830.612	2.38
831.354	6.38
832.095	1.38
832.836	3.38
833.577	2.38
834.319	3.38
835.06	3.38
835.801	5.38
836.542	0.38
837.282	2.38
838.023	5.38
838.764	1.38
839.504	2.38
840.245	4.38
840.985	2.38
841.726	2.38
842.466	1.38
843.206	4.38
843.946	3.38
844.687	3.38
845.427	1.38
846.166	3.38
846.906	-0.62
847.646	2.38
848.386	4.38
849.125	4.38
849.865	1.38
850.605	1.38
851.344	3.38
852.083	1.38
852.823	0.38
853.562	1.38
854.301	0.38
855.04	1.38
855.779	1.38
856.518	1.38
857.257	3.38
857.995	1.38
858.734	4.38
859.473	1.38
860.211	0.38
860.95	-2.62
861.688	0.38
862.426	2.38
863.165	-0.62
863.903	1.38
864.641	2.38
865.379	1.38
866.117	4.38
866.855	-0.62
867.593	1.38
868.33	0.38
869.068	1.38
869.806	1.38
870.543	0.38
871.28	0.38
872.018	1.38
872.755	2.38
873.492	2.38
874.229	0.38
874.967	1.38
875.703	1.38
876.44	0.38
877.177	0.38
877.914	0.38
878.651	3.38
879.387	1.38
880.124	-1.62
880.86	0.38
881.597	1.38
882.333	1.38
883.069	0.38
883.806	1.38
884.542	-0.62
885.278	1.38
886.014	0.38
886.749	-0.62
887.485	1.38
888.221	1.38
888.957	1.38
889.692	1.38
890.428	0.38
891.163	1.38
891.899	1.38
892.634	2.38
893.369	-2.62
894.104	0.38
894.839	0.38
895.574	-0.62
896.309	-0.62
897.044	1.38
897.779	1.38
898.514	-1.62
899.248	0.38
899.983	0.38
900.717	-0.62
901.452	1.38
902.186	0.38
902.92	2.38
903.654	-0.62
904.389	-0.62
905.123	-0.62
905.857	1.38
906.59	-0.62
907.324	-0.62
908.058	0.38
908.792	-0.62
909.525	2.38
910.259	-0.62
910.992	0.38
911.726	1.38
912.459	0.38
913.192	2.38
913.925	-0.62
914.658	-2.62
915.391	-0.62
916.124	0.38
916.857	-0.62
917.59	-0.62
918.323	-0.62
919.055	-0.62
919.788	-0.62
920.521	-0.62
921.253	0.38
921.985	1.38
922.718	0.38
923.45	-0.62
924.182	0.38
924.914	1.38
925.646	-0.62
926.378	-2.62
927.11	1.38
927.841	-0.62
928.573	0.38
929.305	0.38
930.036	1.38
930.768	-0.62
931.499	0.38
932.23	1.38
932.962	0.38
933.693	-0.62
934.424	-0.62
935.155	-0.62
935.886	-0.62
936.617	-0.62
937.348	0.38
938.078	0.38
938.809	-0.62
939.54	3.38
940.27	0.38
941.001	-0.62
941.731	-0.62
942.461	-0.62
943.191	0.38
943.922	-0.62
944.652	-0.62
945.382	-0.62
946.112	0.38
946.841	-0.62
947.571	0.38
948.301	-0.62
949.031	-2.62
949.76	-0.62
950.49	2.38
951.219	-0.62
951.948	-2.62
952.678	2.38
953.407	1.38
954.136	0.38
954.865	-0.62
955.594	0.38
956.323	-0.62
957.052	-0.62
957.78	-2.62
958.509	-0.62
959.238	-0.62
959.966	-0.62
960.695	-0.62
961.423	0.38
962.151	-1.62
962.88	0.38
963.608	-0.62
964.336	-2.62
965.064	3.38
965.792	0.38
966.52	-0.62
967.247	1.38
967.975	-4.62
968.703	-0.62
969.43	-1.62
970.158	-0.62
970.885	-0.62
971.613	0.38
972.34	0.38
973.067	1.38
973.794	0.38
974.521	-0.62
975.248	-2.62
975.975	-1.62
976.702	-2.62
977.429	1.38
978.156	-0.62
978.882	-1.62
979.609	-2.62
980.335	0.38
981.062	-0.62
981.788	-0.62
982.514	-0.62
983.24	0.38
983.967	2.38
984.693	0.38
985.419	-2.62
986.144	0.38
986.87	-0.62
987.596	0.38
988.322	-2.62
989.047	0.38
989.773	-0.62
990.498	1.38
991.224	1.38
991.949	-1.62
992.674	-1.62
993.399	0.38
994.124	-1.62
994.849	-1.62
995.574	-0.62
996.299	0.38
997.024	-0.62
997.749	0.38
998.473	-0.62
999.198	-0.62
999.922	0.38
1000.647	-0.62
1001.371	3.38
1002.095	-2.62
1002.82	-0.62
1003.544	-2.62
1004.268	0.38
1004.992	-1.62
1005.716	-1.62
1006.439	1.38
1007.163	-1.62
1007.887	4.38
1008.611	0.38
1009.334	-1.62
1010.058	0.38
1010.781	-2.62
1011.504	-0.62
1012.228	-1.62
1012.951	1.38
1013.674	1.38
1014.397	0.38
1015.12	-0.62
