节点500_285_QEPB04081__652__15-06-24-014.txt的数据

Date: Wed Nov 12 15:06:24 CST 2025
User: PC
Spectrometer: QEPB0408
触发模式: 0
积分时间 (秒): 1.000000E-2
Scans to average: 1
启用暗噪声校正: true
启用非线性校正: false
滑动平均宽度: 0
X轴模式: Wavelengths
Number of Pixels in Spectrum: 1044
>>>>>Begin Spectral Data<<<<<
220.843	1.75
221.644	2.75
222.444	-0.25
223.244	2.75
224.045	1.75
224.845	1.75
225.645	3.75
226.445	2.75
227.245	0.75
228.045	3.75
228.845	2.75
229.645	3.75
230.444	2.75
231.244	3.75
232.043	1.75
232.843	2.75
233.642	3.75
234.442	2.75
235.241	3.75
236.04	4.75
236.839	2.75
237.638	2.75
238.437	2.75
239.236	3.75
240.035	1.75
240.833	6.75
241.632	4.75
242.43	6.75
243.229	5.75
244.027	3.75
244.826	4.75
245.624	3.75
246.422	5.75
247.22	3.75
248.018	3.75
248.816	3.75
249.614	4.75
250.412	5.75
251.21	5.75
252.007	3.75
252.805	6.75
253.602	6.75
254.4	9.75
255.197	5.75
255.994	6.75
256.791	7.75
257.589	8.75
258.386	8.75
259.183	8.75
259.979	9.75
260.776	8.75
261.573	9.75
262.37	6.75
263.166	10.75
263.963	11.75
264.759	9.75
265.556	10.75
266.352	9.75
267.148	12.75
267.944	10.75
268.74	12.75
269.536	13.75
270.332	11.75
271.128	9.75
271.924	11.75
272.719	13.75
273.515	11.75
274.311	11.75
275.106	16.75
275.901	14.75
276.697	16.75
277.492	14.75
278.287	15.75
279.082	18.75
279.877	13.75
280.672	16.75
281.467	16.75
282.262	17.75
283.056	15.75
283.851	18.75
284.646	18.75
285.44	16.75
286.234	16.75
287.029	18.75
287.823	18.75
288.617	16.75
289.411	15.75
290.205	18.75
290.999	15.75
291.793	16.75
292.587	15.75
293.381	14.75
294.174	14.75
294.968	16.75
295.761	15.75
296.555	14.75
297.348	16.75
298.141	14.75
298.935	15.75
299.728	13.75
300.521	10.75
301.314	12.75
302.107	12.75
302.899	13.75
303.692	13.75
304.485	12.75
305.277	12.75
306.07	13.75
306.862	11.75
307.655	11.75
308.447	10.75
309.239	14.75
310.031	10.75
310.823	11.75
311.615	9.75
312.407	7.75
313.199	9.75
313.991	8.75
314.783	9.75
315.574	8.75
316.366	8.75
317.157	8.75
317.949	7.75
318.74	6.75
319.531	7.75
320.322	4.75
321.113	7.75
321.904	8.75
322.695	4.75
323.486	8.75
324.277	5.75
325.068	7.75
325.858	5.75
326.649	5.75
327.439	4.75
328.23	6.75
329.02	5.75
329.81	7.75
330.6	6.75
331.391	7.75
332.181	3.75
332.971	7.75
333.76	3.75
334.55	5.75
335.34	7.75
336.13	4.75
336.919	6.75
337.709	9.75
338.498	6.75
339.287	4.75
340.077	5.75
340.866	5.75
341.655	7.75
342.444	4.75
343.233	4.75
344.022	3.75
344.811	4.75
345.6	4.75
346.388	7.75
347.177	5.75
347.965	7.75
348.754	6.75
349.542	6.75
350.33	4.75
351.119	4.75
351.907	7.75
352.695	4.75
353.483	4.75
354.271	6.75
355.059	1.75
355.846	4.75
356.634	3.75
357.422	4.75
358.209	4.75
358.997	4.75
359.784	4.75
360.571	4.75
361.359	4.75
362.146	4.75
362.933	5.75
363.72	6.75
364.507	5.75
365.294	5.75
366.081	3.75
366.867	4.75
367.654	4.75
368.44	4.75
369.227	4.75
370.013	4.75
370.8	3.75
371.586	3.75
372.372	2.75
373.158	2.75
373.944	4.75
374.73	3.75
375.516	2.75
376.302	3.75
377.088	7.75
377.873	3.75
378.659	7.75
379.445	4.75
380.23	2.75
381.015	2.75
381.801	7.75
382.586	4.75
383.371	5.75
384.156	3.75
384.941	4.75
385.726	4.75
386.511	6.75
387.296	4.75
388.08	4.75
388.865	7.75
389.649	4.75
390.434	3.75
391.218	5.75
392.003	5.75
392.787	8.75
393.571	4.75
394.355	4.75
395.139	4.75
395.923	5.75
396.707	4.75
397.491	4.75
398.274	5.75
399.058	4.75
399.842	6.75
400.625	7.75
401.408	4.75
402.192	7.75
402.975	4.75
403.758	5.75
404.541	6.75
405.324	4.75
406.107	6.75
406.89	7.75
407.673	5.75
408.456	7.75
409.238	5.75
410.021	6.75
410.803	5.75
411.586	7.75
412.368	5.75
413.151	7.75
413.933	9.75
414.715	6.75
415.497	7.75
416.279	8.75
417.061	9.75
417.843	9.75
418.624	9.75
419.406	9.75
420.188	10.75
420.969	9.75
421.751	9.75
422.532	7.75
423.313	6.75
424.095	9.75
424.876	9.75
425.657	13.75
426.438	10.75
427.219	10.75
428	12.75
428.78	13.75
429.561	12.75
430.342	14.75
431.122	12.75
431.903	14.75
432.683	12.75
433.464	13.75
434.244	14.75
435.024	16.75
435.804	18.75
436.584	15.75
437.364	19.75
438.144	19.75
438.924	19.75
439.704	21.75
440.483	24.75
441.263	25.75
442.042	24.75
442.822	27.75
443.601	25.75
444.38	31.75
445.16	31.75
445.939	33.75
446.718	39.75
447.497	39.75
448.276	43.75
449.054	51.75
449.833	54.75
450.612	56.75
451.391	61.75
452.169	63.75
452.948	67.75
453.726	83.75
454.504	90.75
455.282	99.75
456.061	108.75
456.839	120.75
457.617	129.75
458.395	147.75
459.172	160.75
459.95	189.75
460.728	198.75
461.506	223.75
462.283	249.75
463.061	283.75
463.838	312.75
464.615	349.75
465.393	373.75
466.17	428.75
466.947	486.75
467.724	534.75
468.501	593.75
469.278	654.75
470.055	726.75
470.831	795.75
471.608	894.75
472.385	967.75
473.161	1088.75
473.938	1197.75
474.714	1325.75
475.49	1465.75
476.266	1603.75
477.043	1771.75
477.819	1948.75
478.595	2127.75
479.371	2353.75
480.146	2570.75
480.922	2819.75
481.698	3093.75
482.473	3395.75
483.249	3694.75
484.024	4054.75
484.8	4436.75
485.575	4845.75
486.35	5245.75
487.126	5759.75
487.901	6294.75
488.676	6873.75
489.451	7482.75
490.225	8143.75
491	8851.75
491.775	9619.75
492.55	10483.75
493.324	11227.75
494.099	12119.75
494.873	13032.75
495.647	13990.75
496.422	15023.75
497.196	16059.75
497.97	17181.75
498.744	18275.75
499.518	19297.75
500.292	20385.75
501.066	21441.75
501.839	22317.75
502.613	23251.75
503.387	24037.75
504.16	24757.75
504.934	25166.75
505.707	25597.75
506.48	25706.75
507.253	25906.75
508.027	25772.75
508.8	25724.75
509.573	25514.75
510.346	24980.75
511.118	24449.75
511.891	23811.75
512.664	23136.75
513.437	22424.75
514.209	21527.75
514.982	20787.75
515.754	19928.75
516.526	19063.75
517.298	18371.75
518.071	17620.75
518.843	16895.75
519.615	16281.75
520.387	15611.75
521.159	14991.75
521.93	14350.75
522.702	13862.75
523.474	13262.75
524.245	12649.75
525.017	12135.75
525.788	11668.75
526.56	11175.75
527.331	10658.75
528.102	10217.75
528.873	9753.75
529.644	9299.75
530.415	8891.75
531.186	8465.75
531.957	8025.75
532.728	7631.75
533.498	7256.75
534.269	6836.75
535.039	6530.75
535.81	6180.75
536.58	5811.75
537.351	5478.75
538.121	5186.75
538.891	4884.75
539.661	4650.75
540.431	4390.75
541.201	4127.75
541.971	3915.75
542.741	3703.75
543.51	3525.75
544.28	3356.75
545.05	3191.75
545.819	3042.75
546.588	2891.75
547.358	2756.75
548.127	2605.75
548.896	2488.75
549.665	2371.75
550.434	2233.75
551.203	2116.75
551.972	2013.75
552.741	1899.75
553.51	1796.75
554.278	1693.75
555.047	1601.75
555.815	1526.75
556.584	1442.75
557.352	1350.75
558.121	1273.75
558.889	1203.75
559.657	1145.75
560.425	1080.75
561.193	1012.75
561.961	971.75
562.729	911.75
563.496	872.75
564.264	808.75
565.032	764.75
565.799	722.75
566.567	685.75
567.334	641.75
568.101	614.75
568.869	576.75
569.636	540.75
570.403	515.75
571.17	479.75
571.937	453.75
572.704	430.75
573.471	399.75
574.237	382.75
575.004	361.75
575.771	342.75
576.537	314.75
577.303	297.75
578.07	290.75
578.836	269.75
579.602	255.75
580.368	233.75
581.134	218.75
581.9	209.75
582.666	201.75
583.432	188.75
584.198	180.75
584.964	171.75
585.729	165.75
586.495	152.75
587.26	149.75
588.025	139.75
588.791	132.75
589.556	122.75
590.321	116.75
591.086	112.75
591.851	105.75
592.616	99.75
593.381	93.75
594.146	91.75
594.911	86.75
595.675	81.75
596.44	80.75
597.204	75.75
597.969	69.75
598.733	69.75
599.497	68.75
600.261	63.75
601.025	59.75
601.79	59.75
602.553	57.75
603.317	50.75
604.081	53.75
604.845	44.75
605.609	44.75
606.372	45.75
607.136	40.75
607.899	42.75
608.662	36.75
609.426	38.75
610.189	35.75
610.952	35.75
611.715	33.75
612.478	33.75
613.241	30.75
614.004	28.75
614.767	27.75
615.529	24.75
616.292	25.75
617.055	27.75
617.817	23.75
618.579	24.75
619.342	21.75
620.104	20.75
620.866	20.75
621.628	19.75
622.39	18.75
623.152	19.75
623.914	20.75
624.676	16.75
625.438	13.75
626.199	16.75
626.961	17.75
627.722	14.75
628.484	13.75
629.245	15.75
630.006	15.75
630.768	13.75
631.529	11.75
632.29	13.75
633.051	9.75
633.812	13.75
634.573	12.75
635.333	10.75
636.094	10.75
636.855	9.75
637.615	9.75
638.376	11.75
639.136	9.75
639.896	11.75
640.657	8.75
641.417	8.75
642.177	9.75
642.937	8.75
643.697	8.75
644.457	9.75
645.216	7.75
645.976	7.75
646.736	9.75
647.495	6.75
648.255	7.75
649.014	9.75
649.774	7.75
650.533	6.75
651.292	4.75
652.051	8.75
652.81	7.75
653.569	6.75
654.328	7.75
655.087	8.75
655.846	4.75
656.604	4.75
657.363	6.75
658.121	7.75
658.88	4.75
659.638	5.75
660.397	4.75
661.155	7.75
661.913	7.75
662.671	6.75
663.429	4.75
664.187	3.75
664.945	5.75
665.703	3.75
666.46	6.75
667.218	3.75
667.976	4.75
668.733	5.75
669.49	3.75
670.248	2.75
671.005	3.75
671.762	5.75
672.519	4.75
673.276	3.75
674.033	4.75
674.79	4.75
675.547	3.75
676.304	2.75
677.06	4.75
677.817	3.75
678.574	3.75
679.33	4.75
680.086	1.75
680.843	3.75
681.599	3.75
682.355	3.75
683.111	6.75
683.867	1.75
684.623	3.75
685.379	6.75
686.135	2.75
686.89	4.75
687.646	3.75
688.402	4.75
689.157	2.75
689.912	3.75
690.668	5.75
691.423	2.75
692.178	3.75
692.933	1.75
693.688	1.75
694.443	-0.25
695.198	3.75
695.953	4.75
696.708	4.75
697.462	3.75
698.217	2.75
698.972	2.75
699.726	0.75
700.48	3.75
701.235	2.75
701.989	1.75
702.743	3.75
703.497	0.75
704.251	3.75
705.005	4.75
705.759	1.75
706.513	2.75
707.266	1.75
708.02	4.75
708.774	3.75
709.527	3.75
710.28	2.75
711.034	3.75
711.787	2.75
712.54	1.75
713.293	2.75
714.046	2.75
714.799	3.75
715.552	1.75
716.305	3.75
717.058	3.75
717.81	1.75
718.563	5.75
719.315	0.75
720.068	2.75
720.82	3.75
721.573	4.75
722.325	3.75
723.077	2.75
723.829	2.75
724.581	2.75
725.333	3.75
726.085	4.75
726.836	0.75
727.588	1.75
728.34	1.75
729.091	5.75
729.843	2.75
730.594	2.75
731.346	2.75
732.097	2.75
732.848	3.75
733.599	3.75
734.35	2.75
735.101	2.75
735.852	3.75
736.603	4.75
737.354	2.75
738.104	3.75
738.855	4.75
739.605	1.75
740.356	3.75
741.106	1.75
741.856	4.75
742.607	3.75
743.357	5.75
744.107	4.75
744.857	3.75
745.607	3.75
746.357	3.75
747.106	5.75
747.856	3.75
748.606	3.75
749.355	3.75
750.105	2.75
750.854	5.75
751.603	5.75
752.353	6.75
753.102	3.75
753.851	4.75
754.6	5.75
755.349	2.75
756.098	5.75
756.847	3.75
757.595	7.75
758.344	4.75
759.093	2.75
759.841	6.75
760.589	6.75
761.338	5.75
762.086	5.75
762.834	5.75
763.582	5.75
764.331	6.75
765.079	2.75
765.826	6.75
766.574	6.75
767.322	4.75
768.07	5.75
768.817	4.75
769.565	6.75
770.312	6.75
771.06	5.75
771.807	7.75
772.554	6.75
773.302	5.75
774.049	9.75
774.796	5.75
775.543	8.75
776.29	7.75
777.036	8.75
777.783	6.75
778.53	7.75
779.276	9.75
780.023	8.75
780.769	8.75
781.516	8.75
782.262	6.75
783.008	5.75
783.754	6.75
784.5	6.75
785.246	6.75
785.992	8.75
786.738	8.75
787.484	7.75
788.23	7.75
788.975	8.75
789.721	7.75
790.466	8.75
791.212	6.75
791.957	5.75
792.702	7.75
793.447	7.75
794.193	6.75
794.938	7.75
795.683	5.75
796.427	8.75
797.172	6.75
797.917	6.75
798.662	9.75
799.406	5.75
800.151	9.75
800.895	5.75
801.64	7.75
802.384	8.75
803.128	4.75
803.872	6.75
804.616	6.75
805.36	6.75
806.104	4.75
806.848	4.75
807.592	5.75
808.336	4.75
809.079	3.75
809.823	4.75
810.566	6.75
811.31	3.75
812.053	3.75
812.796	4.75
813.539	2.75
814.283	4.75
815.026	3.75
815.769	6.75
816.511	3.75
817.254	3.75
817.997	4.75
818.74	2.75
819.482	5.75
820.225	3.75
820.967	3.75
821.71	2.75
822.452	4.75
823.194	4.75
823.936	2.75
824.678	4.75
825.42	4.75
826.162	3.75
826.904	5.75
827.646	4.75
828.388	3.75
829.129	1.75
829.871	4.75
830.612	2.75
831.354	3.75
832.095	5.75
832.836	1.75
833.577	4.75
834.319	2.75
835.06	2.75
835.801	3.75
836.542	4.75
837.282	3.75
838.023	1.75
838.764	5.75
839.504	0.75
840.245	1.75
840.985	2.75
841.726	1.75
842.466	1.75
843.206	1.75
843.946	3.75
844.687	1.75
845.427	5.75
846.166	2.75
846.906	3.75
847.646	1.75
848.386	2.75
849.125	1.75
849.865	2.75
850.605	2.75
851.344	1.75
852.083	0.75
852.823	2.75
853.562	0.75
854.301	3.75
855.04	0.75
855.779	1.75
856.518	2.75
857.257	0.75
857.995	1.75
858.734	1.75
859.473	3.75
860.211	1.75
860.95	-2.25
861.688	2.75
862.426	0.75
863.165	1.75
863.903	1.75
864.641	0.75
865.379	4.75
866.117	0.75
866.855	0.75
867.593	1.75
868.33	0.75
869.068	0.75
869.806	1.75
870.543	1.75
871.28	0.75
872.018	0.75
872.755	0.75
873.492	-1.25
874.229	1.75
874.967	1.75
875.703	1.75
876.44	-2.25
877.177	1.75
877.914	-1.25
878.651	0.75
879.387	1.75
880.124	1.75
880.86	1.75
881.597	-0.25
882.333	1.75
883.069	0.75
883.806	2.75
884.542	2.75
885.278	-0.25
886.014	1.75
886.749	-2.25
887.485	0.75
888.221	0.75
888.957	0.75
889.692	-0.25
890.428	0.75
891.163	1.75
891.899	-0.25
892.634	0.75
893.369	-0.25
894.104	0.75
894.839	-0.25
895.574	0.75
896.309	0.75
897.044	1.75
897.779	1.75
898.514	1.75
899.248	-0.25
899.983	1.75
900.717	-0.25
901.452	0.75
902.186	-0.25
902.92	0.75
903.654	-0.25
904.389	-1.25
905.123	1.75
905.857	-0.25
906.59	-0.25
907.324	0.75
908.058	1.75
908.792	0.75
909.525	-0.25
910.259	-2.25
910.992	-0.25
911.726	-0.25
912.459	0.75
913.192	-1.25
913.925	-3.25
914.658	0.75
915.391	-0.25
916.124	1.75
916.857	-1.25
917.59	-1.25
918.323	1.75
919.055	-1.25
919.788	-2.25
920.521	-1.25
921.253	-0.25
921.985	0.75
922.718	2.75
923.45	-2.25
924.182	0.75
924.914	0.75
925.646	0.75
926.378	0.75
927.11	2.75
927.841	-2.25
928.573	0.75
929.305	-1.25
930.036	-1.25
930.768	-2.25
931.499	1.75
932.23	-1.25
932.962	0.75
933.693	-0.25
934.424	2.75
935.155	0.75
935.886	3.75
936.617	0.75
937.348	0.75
938.078	-0.25
938.809	-2.25
939.54	-0.25
940.27	0.75
941.001	0.75
941.731	-0.25
942.461	0.75
943.191	1.75
943.922	-1.25
944.652	1.75
945.382	-0.25
946.112	-0.25
946.841	1.75
947.571	-1.25
948.301	0.75
949.031	2.75
949.76	0.75
950.49	-2.25
951.219	-0.25
951.948	0.75
952.678	-0.25
953.407	-0.25
954.136	-0.25
954.865	-1.25
955.594	-1.25
956.323	2.75
957.052	-0.25
957.78	-2.25
958.509	0.75
959.238	-0.25
959.966	-1.25
960.695	-0.25
961.423	0.75
962.151	-0.25
962.88	-0.25
963.608	0.75
964.336	-0.25
965.064	-2.25
965.792	-0.25
966.52	-0.25
967.247	-0.25
967.975	-1.25
968.703	0.75
969.43	1.75
970.158	-0.25
970.885	0.75
971.613	-1.25
972.34	-0.25
973.067	-0.25
973.794	-2.25
974.521	3.75
975.248	-2.25
975.975	1.75
976.702	-1.25
977.429	1.75
978.156	-1.25
978.882	-1.25
979.609	-1.25
980.335	-0.25
981.062	2.75
981.788	2.75
982.514	-0.25
983.24	0.75
983.967	-0.25
984.693	-1.25
985.419	0.75
986.144	-1.25
986.87	0.75
987.596	-0.25
988.322	-0.25
989.047	0.75
989.773	-0.25
990.498	-0.25
991.224	-0.25
991.949	-2.25
992.674	-0.25
993.399	-1.25
994.124	1.75
994.849	0.75
995.574	-0.25
996.299	-1.25
997.024	1.75
997.749	1.75
998.473	-0.25
999.198	-3.25
999.922	1.75
1000.647	-0.25
1001.371	3.75
1002.095	-2.25
1002.82	0.75
1003.544	-1.25
1004.268	1.75
1004.992	0.75
1005.716	-1.25
1006.439	-1.25
1007.163	0.75
1007.887	3.75
1008.611	-0.25
1009.334	1.75
1010.058	-0.25
1010.781	-0.25
1011.504	0.75
1012.228	1.75
1012.951	0.75
1013.674	-0.25
1014.397	-0.25
1015.12	-1.25
