节点500_285_QEPB04081__196__14-58-49-086.txt的数据

Date: Wed Nov 12 14:58:49 CST 2025
User: PC
Spectrometer: QEPB0408
触发模式: 0
积分时间 (秒): 1.000000E-2
Scans to average: 1
启用暗噪声校正: true
启用非线性校正: false
滑动平均宽度: 0
X轴模式: Wavelengths
Number of Pixels in Spectrum: 1044
>>>>>Begin Spectral Data<<<<<
220.843	4.88
221.644	-0.12
222.444	1.88
223.244	3.88
224.045	1.88
224.845	0.88
225.645	1.88
226.445	5.88
227.245	4.88
228.045	1.88
228.845	4.88
229.645	1.88
230.444	3.88
231.244	3.88
232.043	2.88
232.843	1.88
233.642	5.88
234.442	1.88
235.241	4.88
236.04	4.88
236.839	2.88
237.638	6.88
238.437	5.88
239.236	4.88
240.035	5.88
240.833	1.88
241.632	3.88
242.43	5.88
243.229	4.88
244.027	5.88
244.826	3.88
245.624	4.88
246.422	4.88
247.22	7.88
248.018	5.88
248.816	6.88
249.614	7.88
250.412	4.88
251.21	7.88
252.007	4.88
252.805	8.88
253.602	9.88
254.4	7.88
255.197	6.88
255.994	7.88
256.791	9.88
257.589	8.88
258.386	9.88
259.183	11.88
259.979	8.88
260.776	7.88
261.573	9.88
262.37	12.88
263.166	10.88
263.963	13.88
264.759	10.88
265.556	12.88
266.352	14.88
267.148	14.88
267.944	15.88
268.74	14.88
269.536	12.88
270.332	14.88
271.128	15.88
271.924	17.88
272.719	18.88
273.515	18.88
274.311	19.88
275.106	17.88
275.901	16.88
276.697	17.88
277.492	17.88
278.287	15.88
279.082	19.88
279.877	18.88
280.672	17.88
281.467	20.88
282.262	20.88
283.056	19.88
283.851	18.88
284.646	19.88
285.44	21.88
286.234	19.88
287.029	17.88
287.823	20.88
288.617	18.88
289.411	18.88
290.205	15.88
290.999	17.88
291.793	18.88
292.587	16.88
293.381	17.88
294.174	16.88
294.968	16.88
295.761	15.88
296.555	15.88
297.348	16.88
298.141	14.88
298.935	16.88
299.728	14.88
300.521	15.88
301.314	13.88
302.107	13.88
302.899	12.88
303.692	13.88
304.485	14.88
305.277	11.88
306.07	13.88
306.862	13.88
307.655	9.88
308.447	13.88
309.239	11.88
310.031	11.88
310.823	10.88
311.615	9.88
312.407	11.88
313.199	10.88
313.991	11.88
314.783	7.88
315.574	11.88
316.366	10.88
317.157	8.88
317.949	11.88
318.74	5.88
319.531	11.88
320.322	8.88
321.113	7.88
321.904	5.88
322.695	6.88
323.486	8.88
324.277	7.88
325.068	7.88
325.858	8.88
326.649	6.88
327.439	7.88
328.23	4.88
329.02	10.88
329.81	7.88
330.6	5.88
331.391	5.88
332.181	7.88
332.971	6.88
333.76	6.88
334.55	9.88
335.34	6.88
336.13	6.88
336.919	5.88
337.709	3.88
338.498	9.88
339.287	6.88
340.077	8.88
340.866	6.88
341.655	3.88
342.444	4.88
343.233	5.88
344.022	8.88
344.811	6.88
345.6	5.88
346.388	9.88
347.177	6.88
347.965	6.88
348.754	5.88
349.542	7.88
350.33	6.88
351.119	4.88
351.907	5.88
352.695	4.88
353.483	5.88
354.271	6.88
355.059	5.88
355.846	5.88
356.634	3.88
357.422	5.88
358.209	5.88
358.997	8.88
359.784	7.88
360.571	8.88
361.359	5.88
362.146	6.88
362.933	7.88
363.72	5.88
364.507	5.88
365.294	5.88
366.081	5.88
366.867	3.88
367.654	6.88
368.44	4.88
369.227	3.88
370.013	6.88
370.8	6.88
371.586	3.88
372.372	4.88
373.158	3.88
373.944	6.88
374.73	5.88
375.516	3.88
376.302	3.88
377.088	4.88
377.873	5.88
378.659	3.88
379.445	3.88
380.23	4.88
381.015	6.88
381.801	3.88
382.586	4.88
383.371	6.88
384.156	4.88
384.941	7.88
385.726	4.88
386.511	5.88
387.296	6.88
388.08	5.88
388.865	6.88
389.649	5.88
390.434	5.88
391.218	5.88
392.003	3.88
392.787	7.88
393.571	7.88
394.355	7.88
395.139	5.88
395.923	6.88
396.707	4.88
397.491	6.88
398.274	8.88
399.058	6.88
399.842	5.88
400.625	7.88
401.408	5.88
402.192	7.88
402.975	5.88
403.758	7.88
404.541	6.88
405.324	7.88
406.107	8.88
406.89	5.88
407.673	7.88
408.456	9.88
409.238	4.88
410.021	8.88
410.803	9.88
411.586	7.88
412.368	9.88
413.151	7.88
413.933	8.88
414.715	6.88
415.497	7.88
416.279	9.88
417.061	11.88
417.843	11.88
418.624	10.88
419.406	9.88
420.188	9.88
420.969	10.88
421.751	10.88
422.532	11.88
423.313	12.88
424.095	10.88
424.876	13.88
425.657	11.88
426.438	13.88
427.219	12.88
428	12.88
428.78	13.88
429.561	12.88
430.342	13.88
431.122	13.88
431.903	12.88
432.683	16.88
433.464	16.88
434.244	16.88
435.024	18.88
435.804	18.88
436.584	22.88
437.364	17.88
438.144	19.88
438.924	19.88
439.704	21.88
440.483	22.88
441.263	23.88
442.042	24.88
442.822	25.88
443.601	24.88
444.38	27.88
445.16	32.88
445.939	29.88
446.718	36.88
447.497	36.88
448.276	41.88
449.054	42.88
449.833	46.88
450.612	49.88
451.391	57.88
452.169	61.88
452.948	68.88
453.726	68.88
454.504	74.88
455.282	88.88
456.061	95.88
456.839	107.88
457.617	115.88
458.395	125.88
459.172	141.88
459.95	160.88
460.728	185.88
461.506	197.88
462.283	225.88
463.061	250.88
463.838	282.88
464.615	316.88
465.393	344.88
466.17	392.88
466.947	433.88
467.724	488.88
468.501	538.88
469.278	605.88
470.055	672.88
470.831	745.88
471.608	844.88
472.385	924.88
473.161	1034.88
473.938	1145.88
474.714	1268.88
475.49	1417.88
476.266	1567.88
477.043	1727.88
477.819	1917.88
478.595	2122.88
479.371	2347.88
480.146	2594.88
480.922	2877.88
481.698	3185.88
482.473	3493.88
483.249	3856.88
484.024	4274.88
484.8	4702.88
485.575	5175.88
486.35	5736.88
487.126	6244.88
487.901	6845.88
488.676	7551.88
489.451	8287.88
490.225	9091.88
491	9962.88
491.775	10907.88
492.55	11847.88
493.324	12903.88
494.099	13959.88
494.873	14994.88
495.647	16205.88
496.422	17395.88
497.196	18632.88
497.97	19884.88
498.744	21112.88
499.518	22273.88
500.292	23449.88
501.066	24519.88
501.839	25566.88
502.613	26446.88
503.387	27194.88
504.16	27778.88
504.934	28003.88
505.707	28073.88
506.48	28097.88
507.253	27937.88
508.027	27599.88
508.8	27193.88
509.573	26688.88
510.346	25918.88
511.118	25072.88
511.891	24216.88
512.664	23369.88
513.437	22410.88
514.209	21450.88
514.982	20576.88
515.754	19616.88
516.526	18739.88
517.298	17915.88
518.071	17106.88
518.843	16409.88
519.615	15844.88
520.387	15193.88
521.159	14625.88
521.93	14030.88
522.702	13494.88
523.474	12961.88
524.245	12372.88
525.017	11804.88
525.788	11371.88
526.56	10838.88
527.331	10338.88
528.102	9853.88
528.873	9378.88
529.644	8892.88
530.415	8484.88
531.186	8006.88
531.957	7607.88
532.728	7230.88
533.498	6828.88
534.269	6437.88
535.039	6096.88
535.81	5737.88
536.58	5416.88
537.351	5110.88
538.121	4841.88
538.891	4585.88
539.661	4300.88
540.431	4057.88
541.201	3866.88
541.971	3642.88
542.741	3447.88
543.51	3292.88
544.28	3149.88
545.05	2999.88
545.819	2840.88
546.588	2681.88
547.358	2560.88
548.127	2416.88
548.896	2309.88
549.665	2175.88
550.434	2071.88
551.203	1955.88
551.972	1869.88
552.741	1747.88
553.51	1655.88
554.278	1561.88
555.047	1477.88
555.815	1393.88
556.584	1305.88
557.352	1225.88
558.121	1178.88
558.889	1105.88
559.657	1022.88
560.425	984.88
561.193	927.88
561.961	862.88
562.729	824.88
563.496	781.88
564.264	733.88
565.032	691.88
565.799	667.88
566.567	621.88
567.334	591.88
568.101	567.88
568.869	529.88
569.636	495.88
570.403	464.88
571.17	442.88
571.937	421.88
572.704	398.88
573.471	367.88
574.237	349.88
575.004	333.88
575.771	304.88
576.537	289.88
577.303	278.88
578.07	260.88
578.836	242.88
579.602	231.88
580.368	217.88
581.134	203.88
581.9	197.88
582.666	186.88
583.432	170.88
584.198	175.88
584.964	163.88
585.729	142.88
586.495	140.88
587.26	135.88
588.025	126.88
588.791	117.88
589.556	115.88
590.321	108.88
591.086	102.88
591.851	97.88
592.616	94.88
593.381	89.88
594.146	85.88
594.911	79.88
595.675	77.88
596.44	74.88
597.204	71.88
597.969	66.88
598.733	63.88
599.497	63.88
600.261	59.88
601.025	52.88
601.79	56.88
602.553	51.88
603.317	49.88
604.081	47.88
604.845	43.88
605.609	44.88
606.372	42.88
607.136	38.88
607.899	39.88
608.662	38.88
609.426	34.88
610.189	33.88
610.952	28.88
611.715	29.88
612.478	28.88
613.241	29.88
614.004	28.88
614.767	25.88
615.529	26.88
616.292	25.88
617.055	23.88
617.817	24.88
618.579	18.88
619.342	22.88
620.104	21.88
620.866	19.88
621.628	18.88
622.39	18.88
623.152	18.88
623.914	18.88
624.676	17.88
625.438	14.88
626.199	14.88
626.961	13.88
627.722	14.88
628.484	15.88
629.245	13.88
630.006	14.88
630.768	14.88
631.529	14.88
632.29	12.88
633.051	11.88
633.812	12.88
634.573	9.88
635.333	12.88
636.094	10.88
636.855	11.88
637.615	12.88
638.376	10.88
639.136	9.88
639.896	9.88
640.657	9.88
641.417	8.88
642.177	8.88
642.937	8.88
643.697	8.88
644.457	8.88
645.216	5.88
645.976	9.88
646.736	7.88
647.495	6.88
648.255	9.88
649.014	9.88
649.774	8.88
650.533	3.88
651.292	6.88
652.051	6.88
652.81	7.88
653.569	8.88
654.328	6.88
655.087	5.88
655.846	5.88
656.604	6.88
657.363	6.88
658.121	6.88
658.88	6.88
659.638	6.88
660.397	5.88
661.155	7.88
661.913	4.88
662.671	4.88
663.429	4.88
664.187	6.88
664.945	6.88
665.703	3.88
666.46	6.88
667.218	5.88
667.976	6.88
668.733	5.88
669.49	7.88
670.248	5.88
671.005	5.88
671.762	5.88
672.519	2.88
673.276	3.88
674.033	4.88
674.79	5.88
675.547	1.88
676.304	2.88
677.06	3.88
677.817	4.88
678.574	3.88
679.33	2.88
680.086	3.88
680.843	5.88
681.599	2.88
682.355	3.88
683.111	7.88
683.867	3.88
684.623	4.88
685.379	1.88
686.135	0.88
686.89	3.88
687.646	3.88
688.402	3.88
689.157	2.88
689.912	4.88
690.668	3.88
691.423	2.88
692.178	4.88
692.933	3.88
693.688	3.88
694.443	6.88
695.198	5.88
695.953	4.88
696.708	3.88
697.462	2.88
698.217	5.88
698.972	4.88
699.726	3.88
700.48	2.88
701.235	3.88
701.989	3.88
702.743	3.88
703.497	1.88
704.251	4.88
705.005	4.88
705.759	2.88
706.513	3.88
707.266	2.88
708.02	5.88
708.774	3.88
709.527	3.88
710.28	2.88
711.034	2.88
711.787	3.88
712.54	6.88
713.293	5.88
714.046	3.88
714.799	4.88
715.552	4.88
716.305	4.88
717.058	4.88
717.81	3.88
718.563	2.88
719.315	4.88
720.068	4.88
720.82	1.88
721.573	4.88
722.325	3.88
723.077	2.88
723.829	5.88
724.581	4.88
725.333	5.88
726.085	5.88
726.836	3.88
727.588	3.88
728.34	7.88
729.091	6.88
729.843	3.88
730.594	5.88
731.346	3.88
732.097	5.88
732.848	4.88
733.599	3.88
734.35	3.88
735.101	3.88
735.852	5.88
736.603	5.88
737.354	2.88
738.104	4.88
738.855	3.88
739.605	4.88
740.356	5.88
741.106	2.88
741.856	6.88
742.607	3.88
743.357	3.88
744.107	5.88
744.857	4.88
745.607	5.88
746.357	5.88
747.106	4.88
747.856	3.88
748.606	7.88
749.355	5.88
750.105	1.88
750.854	4.88
751.603	6.88
752.353	4.88
753.102	5.88
753.851	5.88
754.6	6.88
755.349	5.88
756.098	6.88
756.847	5.88
757.595	4.88
758.344	6.88
759.093	8.88
759.841	5.88
760.589	7.88
761.338	5.88
762.086	4.88
762.834	5.88
763.582	4.88
764.331	6.88
765.079	8.88
765.826	5.88
766.574	5.88
767.322	10.88
768.07	6.88
768.817	8.88
769.565	8.88
770.312	8.88
771.06	5.88
771.807	8.88
772.554	8.88
773.302	7.88
774.049	10.88
774.796	7.88
775.543	7.88
776.29	9.88
777.036	8.88
777.783	10.88
778.53	7.88
779.276	10.88
780.023	9.88
780.769	8.88
781.516	7.88
782.262	9.88
783.008	10.88
783.754	8.88
784.5	7.88
785.246	9.88
785.992	8.88
786.738	8.88
787.484	7.88
788.23	8.88
788.975	9.88
789.721	9.88
790.466	9.88
791.212	8.88
791.957	9.88
792.702	9.88
793.447	10.88
794.193	10.88
794.938	9.88
795.683	9.88
796.427	7.88
797.172	9.88
797.917	8.88
798.662	8.88
799.406	8.88
800.151	5.88
800.895	8.88
801.64	5.88
802.384	7.88
803.128	8.88
803.872	7.88
804.616	8.88
805.36	5.88
806.104	6.88
806.848	7.88
807.592	8.88
808.336	5.88
809.079	6.88
809.823	6.88
810.566	5.88
811.31	5.88
812.053	6.88
812.796	3.88
813.539	3.88
814.283	5.88
815.026	2.88
815.769	3.88
816.511	7.88
817.254	5.88
817.997	3.88
818.74	3.88
819.482	1.88
820.225	5.88
820.967	4.88
821.71	4.88
822.452	7.88
823.194	2.88
823.936	6.88
824.678	2.88
825.42	3.88
826.162	5.88
826.904	5.88
827.646	3.88
828.388	5.88
829.129	3.88
829.871	4.88
830.612	2.88
831.354	2.88
832.095	3.88
832.836	4.88
833.577	3.88
834.319	4.88
835.06	3.88
835.801	2.88
836.542	1.88
837.282	2.88
838.023	5.88
838.764	3.88
839.504	4.88
840.245	1.88
840.985	3.88
841.726	5.88
842.466	2.88
843.206	3.88
843.946	3.88
844.687	3.88
845.427	5.88
846.166	1.88
846.906	2.88
847.646	3.88
848.386	2.88
849.125	3.88
849.865	-0.12
850.605	3.88
851.344	0.88
852.083	3.88
852.823	1.88
853.562	2.88
854.301	3.88
855.04	1.88
855.779	1.88
856.518	3.88
857.257	1.88
857.995	3.88
858.734	1.88
859.473	3.88
860.211	-0.12
860.95	3.88
861.688	2.88
862.426	2.88
863.165	1.88
863.903	1.88
864.641	2.88
865.379	2.88
866.117	2.88
866.855	1.88
867.593	1.88
868.33	2.88
869.068	-0.12
869.806	4.88
870.543	2.88
871.28	-0.12
872.018	1.88
872.755	-0.12
873.492	3.88
874.229	1.88
874.967	2.88
875.703	1.88
876.44	1.88
877.177	1.88
877.914	1.88
878.651	2.88
879.387	-1.12
880.124	0.88
880.86	1.88
881.597	1.88
882.333	0.88
883.069	0.88
883.806	1.88
884.542	1.88
885.278	1.88
886.014	-0.12
886.749	0.88
887.485	0.88
888.221	0.88
888.957	1.88
889.692	1.88
890.428	0.88
891.163	1.88
891.899	-1.12
892.634	0.88
893.369	0.88
894.104	1.88
894.839	1.88
895.574	1.88
896.309	1.88
897.044	1.88
897.779	2.88
898.514	1.88
899.248	0.88
899.983	1.88
900.717	-0.12
901.452	-0.12
902.186	1.88
902.92	-0.12
903.654	1.88
904.389	0.88
905.123	0.88
905.857	0.88
906.59	1.88
907.324	-1.12
908.058	1.88
908.792	-0.12
909.525	0.88
910.259	-0.12
910.992	-0.12
911.726	1.88
912.459	1.88
913.192	-0.12
913.925	-0.12
914.658	-0.12
915.391	0.88
916.124	2.88
916.857	1.88
917.59	-0.12
918.323	0.88
919.055	0.88
919.788	2.88
920.521	1.88
921.253	2.88
921.985	-0.12
922.718	0.88
923.45	0.88
924.182	1.88
924.914	1.88
925.646	1.88
926.378	-0.12
927.11	-1.12
927.841	0.88
928.573	1.88
929.305	1.88
930.036	0.88
930.768	1.88
931.499	1.88
932.23	0.88
932.962	1.88
933.693	-0.12
934.424	1.88
935.155	2.88
935.886	-0.12
936.617	0.88
937.348	-1.12
938.078	-0.12
938.809	0.88
939.54	-0.12
940.27	-0.12
941.001	-1.12
941.731	0.88
942.461	-0.12
943.191	0.88
943.922	0.88
944.652	-1.12
945.382	-0.12
946.112	-0.12
946.841	0.88
947.571	1.88
948.301	1.88
949.031	-0.12
949.76	0.88
950.49	1.88
951.219	-0.12
951.948	1.88
952.678	-1.12
953.407	-1.12
954.136	0.88
954.865	-0.12
955.594	1.88
956.323	2.88
957.052	-0.12
957.78	0.88
958.509	-1.12
959.238	0.88
959.966	-1.12
960.695	0.88
961.423	-2.12
962.151	-1.12
962.88	1.88
963.608	-0.12
964.336	0.88
965.064	-2.12
965.792	-1.12
966.52	0.88
967.247	-0.12
967.975	-0.12
968.703	-1.12
969.43	0.88
970.158	1.88
970.885	-1.12
971.613	1.88
972.34	0.88
973.067	2.88
973.794	1.88
974.521	0.88
975.248	0.88
975.975	-0.12
976.702	0.88
977.429	0.88
978.156	0.88
978.882	0.88
979.609	1.88
980.335	0.88
981.062	-0.12
981.788	-0.12
982.514	-0.12
983.24	2.88
983.967	-1.12
984.693	0.88
985.419	1.88
986.144	0.88
986.87	3.88
987.596	1.88
988.322	1.88
989.047	1.88
989.773	0.88
990.498	1.88
991.224	-0.12
991.949	-0.12
992.674	0.88
993.399	-0.12
994.124	-0.12
994.849	0.88
995.574	3.88
996.299	1.88
997.024	-0.12
997.749	1.88
998.473	-2.12
999.198	1.88
999.922	-0.12
1000.647	0.88
1001.371	2.88
1002.095	-0.12
1002.82	-2.12
1003.544	-1.12
1004.268	1.88
1004.992	1.88
1005.716	0.88
1006.439	1.88
1007.163	1.88
1007.887	0.88
1008.611	-1.12
1009.334	1.88
1010.058	0.88
1010.781	-2.12
1011.504	-0.12
1012.228	-0.12
1012.951	0.88
1013.674	-2.12
1014.397	-0.12
1015.12	1.88
