节点500_285_QEPB04081__320__15-00-52-745.txt的数据

Date: Wed Nov 12 15:00:52 CST 2025
User: PC
Spectrometer: QEPB0408
触发模式: 0
积分时间 (秒): 1.000000E-2
Scans to average: 1
启用暗噪声校正: true
启用非线性校正: false
滑动平均宽度: 0
X轴模式: Wavelengths
Number of Pixels in Spectrum: 1044
>>>>>Begin Spectral Data<<<<<
220.843	1
221.644	2
222.444	1
223.244	1
224.045	3
224.845	1
225.645	3
226.445	3
227.245	4
228.045	4
228.845	6
229.645	2
230.444	4
231.244	5
232.043	4
232.843	4
233.642	4
234.442	3
235.241	3
236.04	2
236.839	4
237.638	4
238.437	4
239.236	3
240.035	2
240.833	7
241.632	4
242.43	2
243.229	5
244.027	5
244.826	6
245.624	6
246.422	7
247.22	7
248.018	7
248.816	7
249.614	4
250.412	7
251.21	8
252.007	7
252.805	5
253.602	7
254.4	10
255.197	8
255.994	8
256.791	9
257.589	9
258.386	10
259.183	8
259.979	10
260.776	10
261.573	11
262.37	10
263.166	12
263.963	12
264.759	10
265.556	12
266.352	10
267.148	14
267.944	15
268.74	13
269.536	15
270.332	15
271.128	18
271.924	16
272.719	15
273.515	19
274.311	17
275.106	17
275.901	17
276.697	14
277.492	18
278.287	18
279.082	17
279.877	19
280.672	20
281.467	20
282.262	17
283.056	18
283.851	19
284.646	23
285.44	18
286.234	20
287.029	20
287.823	18
288.617	19
289.411	19
290.205	20
290.999	21
291.793	19
292.587	18
293.381	18
294.174	18
294.968	16
295.761	15
296.555	18
297.348	14
298.141	16
298.935	15
299.728	17
300.521	15
301.314	15
302.107	14
302.899	13
303.692	13
304.485	10
305.277	11
306.07	12
306.862	15
307.655	14
308.447	11
309.239	12
310.031	13
310.823	11
311.615	12
312.407	8
313.199	8
313.991	11
314.783	10
315.574	9
316.366	11
317.157	10
317.949	10
318.74	8
319.531	8
320.322	9
321.113	9
321.904	8
322.695	8
323.486	8
324.277	8
325.068	6
325.858	7
326.649	7
327.439	6
328.23	5
329.02	6
329.81	9
330.6	6
331.391	6
332.181	6
332.971	5
333.76	6
334.55	6
335.34	7
336.13	6
336.919	7
337.709	8
338.498	7
339.287	8
340.077	7
340.866	8
341.655	8
342.444	5
343.233	8
344.022	4
344.811	5
345.6	7
346.388	9
347.177	9
347.965	7
348.754	7
349.542	3
350.33	8
351.119	7
351.907	5
352.695	6
353.483	5
354.271	4
355.059	5
355.846	6
356.634	6
357.422	6
358.209	7
358.997	6
359.784	6
360.571	5
361.359	5
362.146	6
362.933	5
363.72	5
364.507	5
365.294	5
366.081	6
366.867	7
367.654	5
368.44	5
369.227	6
370.013	6
370.8	4
371.586	8
372.372	3
373.158	4
373.944	5
374.73	6
375.516	5
376.302	6
377.088	5
377.873	7
378.659	4
379.445	4
380.23	6
381.015	6
381.801	6
382.586	6
383.371	6
384.156	6
384.941	5
385.726	6
386.511	7
387.296	6
388.08	7
388.865	6
389.649	7
390.434	6
391.218	5
392.003	7
392.787	5
393.571	7
394.355	8
395.139	6
395.923	7
396.707	6
397.491	8
398.274	4
399.058	8
399.842	7
400.625	9
401.408	6
402.192	7
402.975	6
403.758	7
404.541	6
405.324	7
406.107	7
406.89	9
407.673	7
408.456	6
409.238	8
410.021	9
410.803	9
411.586	6
412.368	9
413.151	10
413.933	10
414.715	11
415.497	7
416.279	11
417.061	8
417.843	10
418.624	12
419.406	11
420.188	11
420.969	10
421.751	9
422.532	9
423.313	12
424.095	13
424.876	13
425.657	12
426.438	10
427.219	15
428	12
428.78	14
429.561	17
430.342	13
431.122	17
431.903	13
432.683	15
433.464	17
434.244	16
435.024	19
435.804	17
436.584	18
437.364	15
438.144	20
438.924	20
439.704	21
440.483	25
441.263	23
442.042	26
442.822	24
443.601	29
444.38	32
445.16	32
445.939	37
446.718	40
447.497	39
448.276	45
449.054	43
449.833	50
450.612	50
451.391	55
452.169	62
452.948	68
453.726	76
454.504	78
455.282	92
456.061	106
456.839	108
457.617	120
458.395	134
459.172	152
459.95	170
460.728	185
461.506	207
462.283	230
463.061	263
463.838	294
464.615	321
465.393	362
466.17	395
466.947	453
467.724	497
468.501	559
469.278	619
470.055	687
470.831	776
471.608	844
472.385	940
473.161	1055
473.938	1164
474.714	1296
475.49	1435
476.266	1569
477.043	1744
477.819	1940
478.595	2124
479.371	2350
480.146	2615
480.922	2882
481.698	3155
482.473	3456
483.249	3834
484.024	4228
484.8	4645
485.575	5103
486.35	5614
487.126	6152
487.901	6729
488.676	7404
489.451	8101
490.225	8858
491	9673
491.775	10567
492.55	11526
493.324	12469
494.099	13492
494.873	14519
495.647	15640
496.422	16842
497.196	18040
497.97	19255
498.744	20441
499.518	21570
500.292	22699
501.066	23788
501.839	24753
502.613	25637
503.387	26399
504.16	27067
504.934	27430
505.707	27524
506.48	27599
507.253	27489
508.027	27239
508.8	26897
509.573	26462
510.346	25800
511.118	25040
511.891	24219
512.664	23361
513.437	22486
514.209	21578
514.982	20673
515.754	19765
516.526	18892
517.298	18016
518.071	17240
518.843	16570
519.615	15955
520.387	15350
521.159	14725
521.93	14133
522.702	13548
523.474	13004
524.245	12423
525.017	11880
525.788	11443
526.56	10934
527.331	10438
528.102	9941
528.873	9491
529.644	9031
530.415	8565
531.186	8131
531.957	7709
532.728	7338
533.498	6974
534.269	6539
535.039	6174
535.81	5850
536.58	5513
537.351	5207
538.121	4936
538.891	4638
539.661	4418
540.431	4146
541.201	3929
541.971	3727
542.741	3540
543.51	3351
544.28	3194
545.05	3022
545.819	2907
546.588	2751
547.358	2598
548.127	2466
548.896	2347
549.665	2225
550.434	2093
551.203	1993
551.972	1887
552.741	1783
553.51	1702
554.278	1594
555.047	1502
555.815	1412
556.584	1346
557.352	1259
558.121	1202
558.889	1113
559.657	1063
560.425	1002
561.193	938
561.961	898
562.729	842
563.496	807
564.264	745
565.032	726
565.799	675
566.567	640
567.334	597
568.101	572
568.869	535
569.636	519
570.403	474
571.17	451
571.937	429
572.704	398
573.471	376
574.237	358
575.004	335
575.771	316
576.537	296
577.303	277
578.07	267
578.836	250
579.602	240
580.368	222
581.134	210
581.9	200
582.666	190
583.432	177
584.198	173
584.964	165
585.729	156
586.495	144
587.26	140
588.025	131
588.791	124
589.556	118
590.321	108
591.086	99
591.851	101
592.616	90
593.381	90
594.146	88
594.911	81
595.675	81
596.44	76
597.204	74
597.969	68
598.733	68
599.497	60
600.261	57
601.025	58
601.79	55
602.553	54
603.317	50
604.081	48
604.845	45
605.609	44
606.372	42
607.136	37
607.899	42
608.662	36
609.426	36
610.189	32
610.952	34
611.715	33
612.478	29
613.241	32
614.004	29
614.767	25
615.529	26
616.292	25
617.055	23
617.817	23
618.579	23
619.342	25
620.104	21
620.866	23
621.628	18
622.39	18
623.152	17
623.914	18
624.676	18
625.438	16
626.199	16
626.961	13
627.722	15
628.484	14
629.245	14
630.006	15
630.768	16
631.529	15
632.29	13
633.051	14
633.812	14
634.573	13
635.333	12
636.094	10
636.855	12
637.615	11
638.376	9
639.136	10
639.896	9
640.657	10
641.417	10
642.177	10
642.937	10
643.697	9
644.457	9
645.216	9
645.976	7
646.736	7
647.495	8
648.255	8
649.014	6
649.774	8
650.533	6
651.292	8
652.051	7
652.81	7
653.569	7
654.328	9
655.087	6
655.846	7
656.604	6
657.363	7
658.121	7
658.88	6
659.638	6
660.397	5
661.155	7
661.913	6
662.671	7
663.429	5
664.187	7
664.945	4
665.703	5
666.46	5
667.218	3
667.976	8
668.733	5
669.49	6
670.248	5
671.005	3
671.762	4
672.519	4
673.276	6
674.033	4
674.79	4
675.547	4
676.304	6
677.06	7
677.817	2
678.574	7
679.33	4
680.086	5
680.843	6
681.599	4
682.355	4
683.111	3
683.867	2
684.623	3
685.379	4
686.135	4
686.89	4
687.646	5
688.402	2
689.157	4
689.912	4
690.668	4
691.423	4
692.178	5
692.933	3
693.688	2
694.443	5
695.198	5
695.953	3
696.708	4
697.462	6
698.217	2
698.972	4
699.726	6
700.48	5
701.235	3
701.989	6
702.743	2
703.497	3
704.251	3
705.005	3
705.759	1
706.513	2
707.266	6
708.02	4
708.774	5
709.527	4
710.28	6
711.034	5
711.787	3
712.54	3
713.293	3
714.046	4
714.799	4
715.552	3
716.305	4
717.058	2
717.81	4
718.563	4
719.315	3
720.068	4
720.82	3
721.573	3
722.325	4
723.077	4
723.829	2
724.581	5
725.333	3
726.085	4
726.836	6
727.588	5
728.34	4
729.091	2
729.843	2
730.594	7
731.346	5
732.097	5
732.848	4
733.599	3
734.35	4
735.101	5
735.852	6
736.603	3
737.354	2
738.104	6
738.855	4
739.605	5
740.356	5
741.106	5
741.856	6
742.607	6
743.357	8
744.107	6
744.857	6
745.607	6
746.357	6
747.106	4
747.856	7
748.606	5
749.355	5
750.105	6
750.854	4
751.603	6
752.353	4
753.102	6
753.851	5
754.6	3
755.349	5
756.098	6
756.847	5
757.595	8
758.344	5
759.093	6
759.841	6
760.589	6
761.338	6
762.086	6
762.834	8
763.582	7
764.331	7
765.079	8
765.826	7
766.574	7
767.322	7
768.07	8
768.817	8
769.565	7
770.312	6
771.06	8
771.807	11
772.554	7
773.302	7
774.049	8
774.796	9
775.543	6
776.29	10
777.036	10
777.783	8
778.53	10
779.276	10
780.023	9
780.769	10
781.516	6
782.262	10
783.008	9
783.754	8
784.5	9
785.246	11
785.992	10
786.738	10
787.484	10
788.23	8
788.975	10
789.721	9
790.466	8
791.212	10
791.957	8
792.702	8
793.447	8
794.193	9
794.938	9
795.683	5
796.427	10
797.172	8
797.917	7
798.662	9
799.406	8
800.151	9
800.895	7
801.64	8
802.384	5
803.128	6
803.872	9
804.616	9
805.36	9
806.104	7
806.848	6
807.592	9
808.336	5
809.079	6
809.823	6
810.566	8
811.31	4
812.053	6
812.796	6
813.539	4
814.283	7
815.026	5
815.769	7
816.511	4
817.254	4
817.997	6
818.74	4
819.482	4
820.225	5
820.967	6
821.71	5
822.452	5
823.194	5
823.936	2
824.678	4
825.42	4
826.162	5
826.904	3
827.646	5
828.388	4
829.129	3
829.871	7
830.612	2
831.354	4
832.095	4
832.836	4
833.577	2
834.319	2
835.06	4
835.801	2
836.542	2
837.282	3
838.023	0
838.764	6
839.504	2
840.245	3
840.985	3
841.726	2
842.466	3
843.206	3
843.946	3
844.687	4
845.427	3
846.166	3
846.906	2
847.646	7
848.386	2
849.125	1
849.865	2
850.605	5
851.344	2
852.083	2
852.823	3
853.562	4
854.301	3
855.04	4
855.779	3
856.518	1
857.257	3
857.995	5
858.734	4
859.473	2
860.211	1
860.95	4
861.688	4
862.426	4
863.165	2
863.903	1
864.641	1
865.379	4
866.117	1
866.855	2
867.593	3
868.33	3
869.068	2
869.806	1
870.543	0
871.28	4
872.018	2
872.755	1
873.492	2
874.229	1
874.967	-2
875.703	2
876.44	2
877.177	3
877.914	2
878.651	-2
879.387	1
880.124	1
880.86	0
881.597	3
882.333	2
883.069	1
883.806	1
884.542	0
885.278	2
886.014	2
886.749	2
887.485	0
888.221	1
888.957	2
889.692	2
890.428	2
891.163	0
891.899	2
892.634	-1
893.369	0
894.104	0
894.839	1
895.574	1
896.309	0
897.044	3
897.779	1
898.514	0
899.248	1
899.983	2
900.717	3
901.452	1
902.186	0
902.92	2
903.654	-1
904.389	-1
905.123	2
905.857	2
906.59	2
907.324	1
908.058	1
908.792	2
909.525	0
910.259	0
910.992	-1
911.726	1
912.459	1
913.192	1
913.925	2
914.658	0
915.391	0
916.124	1
916.857	-1
917.59	-1
918.323	0
919.055	1
919.788	2
920.521	0
921.253	0
921.985	1
922.718	0
923.45	0
924.182	0
924.914	0
925.646	0
926.378	2
927.11	-2
927.841	-2
928.573	1
929.305	2
930.036	1
930.768	1
931.499	0
932.23	-1
932.962	1
933.693	1
934.424	0
935.155	3
935.886	1
936.617	-1
937.348	-1
938.078	0
938.809	-1
939.54	0
940.27	1
941.001	-1
941.731	3
942.461	0
943.191	2
943.922	1
944.652	-1
945.382	-1
946.112	1
946.841	1
947.571	0
948.301	1
949.031	1
949.76	-1
950.49	0
951.219	2
951.948	1
952.678	0
953.407	-1
954.136	2
954.865	0
955.594	0
956.323	1
957.052	0
957.78	1
958.509	-1
959.238	2
959.966	1
960.695	2
961.423	-1
962.151	1
962.88	2
963.608	0
964.336	1
965.064	2
965.792	2
966.52	0
967.247	-2
967.975	2
968.703	0
969.43	0
970.158	2
970.885	-1
971.613	1
972.34	0
973.067	-2
973.794	1
974.521	0
975.248	3
975.975	-2
976.702	0
977.429	0
978.156	0
978.882	3
979.609	-2
980.335	1
981.062	0
981.788	2
982.514	-2
983.24	1
983.967	1
984.693	-2
985.419	0
986.144	2
986.87	1
987.596	1
988.322	-1
989.047	4
989.773	1
990.498	1
991.224	1
991.949	0
992.674	0
993.399	-1
994.124	1
994.849	-1
995.574	0
996.299	0
997.024	2
997.749	0
998.473	-1
999.198	1
999.922	2
1000.647	3
1001.371	2
1002.095	-1
1002.82	1
1003.544	-3
1004.268	3
1004.992	2
1005.716	1
1006.439	0
1007.163	4
1007.887	1
1008.611	0
1009.334	-1
1010.058	1
1010.781	1
1011.504	0
1012.228	0
1012.951	1
1013.674	1
1014.397	-1
1015.12	0
