节点500_285_QEPB04081__120__14-57-33-255.txt的数据

Date: Wed Nov 12 14:57:33 CST 2025
User: PC
Spectrometer: QEPB0408
触发模式: 0
积分时间 (秒): 1.000000E-2
Scans to average: 1
启用暗噪声校正: true
启用非线性校正: false
滑动平均宽度: 0
X轴模式: Wavelengths
Number of Pixels in Spectrum: 1044
>>>>>Begin Spectral Data<<<<<
220.843	1.25
221.644	1.25
222.444	1.25
223.244	3.25
224.045	2.25
224.845	0.25
225.645	2.25
226.445	3.25
227.245	2.25
228.045	3.25
228.845	1.25
229.645	-0.75
230.444	3.25
231.244	4.25
232.043	2.25
232.843	4.25
233.642	5.25
234.442	2.25
235.241	3.25
236.04	3.25
236.839	3.25
237.638	5.25
238.437	4.25
239.236	6.25
240.035	4.25
240.833	6.25
241.632	3.25
242.43	4.25
243.229	5.25
244.027	3.25
244.826	6.25
245.624	7.25
246.422	4.25
247.22	6.25
248.018	4.25
248.816	7.25
249.614	5.25
250.412	7.25
251.21	5.25
252.007	9.25
252.805	10.25
253.602	8.25
254.4	8.25
255.197	6.25
255.994	7.25
256.791	8.25
257.589	8.25
258.386	9.25
259.183	9.25
259.979	11.25
260.776	12.25
261.573	10.25
262.37	12.25
263.166	11.25
263.963	12.25
264.759	12.25
265.556	12.25
266.352	13.25
267.148	14.25
267.944	15.25
268.74	16.25
269.536	13.25
270.332	17.25
271.128	16.25
271.924	15.25
272.719	13.25
273.515	20.25
274.311	15.25
275.106	19.25
275.901	20.25
276.697	21.25
277.492	19.25
278.287	21.25
279.082	21.25
279.877	21.25
280.672	19.25
281.467	20.25
282.262	20.25
283.056	20.25
283.851	20.25
284.646	21.25
285.44	20.25
286.234	16.25
287.029	20.25
287.823	19.25
288.617	20.25
289.411	18.25
290.205	19.25
290.999	20.25
291.793	16.25
292.587	19.25
293.381	17.25
294.174	16.25
294.968	18.25
295.761	16.25
296.555	16.25
297.348	14.25
298.141	15.25
298.935	17.25
299.728	15.25
300.521	12.25
301.314	16.25
302.107	12.25
302.899	10.25
303.692	13.25
304.485	13.25
305.277	13.25
306.07	15.25
306.862	11.25
307.655	10.25
308.447	13.25
309.239	11.25
310.031	12.25
310.823	11.25
311.615	9.25
312.407	10.25
313.199	10.25
313.991	10.25
314.783	10.25
315.574	10.25
316.366	9.25
317.157	8.25
317.949	9.25
318.74	8.25
319.531	9.25
320.322	7.25
321.113	7.25
321.904	5.25
322.695	9.25
323.486	7.25
324.277	7.25
325.068	6.25
325.858	7.25
326.649	6.25
327.439	8.25
328.23	4.25
329.02	7.25
329.81	6.25
330.6	8.25
331.391	6.25
332.181	8.25
332.971	7.25
333.76	6.25
334.55	5.25
335.34	7.25
336.13	7.25
336.919	3.25
337.709	5.25
338.498	7.25
339.287	5.25
340.077	8.25
340.866	4.25
341.655	5.25
342.444	8.25
343.233	6.25
344.022	6.25
344.811	6.25
345.6	7.25
346.388	5.25
347.177	5.25
347.965	4.25
348.754	6.25
349.542	8.25
350.33	7.25
351.119	5.25
351.907	5.25
352.695	3.25
353.483	7.25
354.271	4.25
355.059	5.25
355.846	6.25
356.634	5.25
357.422	7.25
358.209	7.25
358.997	6.25
359.784	5.25
360.571	4.25
361.359	6.25
362.146	6.25
362.933	6.25
363.72	5.25
364.507	6.25
365.294	6.25
366.081	6.25
366.867	6.25
367.654	1.25
368.44	4.25
369.227	4.25
370.013	4.25
370.8	3.25
371.586	7.25
372.372	6.25
373.158	5.25
373.944	4.25
374.73	5.25
375.516	4.25
376.302	6.25
377.088	5.25
377.873	6.25
378.659	4.25
379.445	5.25
380.23	7.25
381.015	3.25
381.801	6.25
382.586	5.25
383.371	7.25
384.156	4.25
384.941	5.25
385.726	7.25
386.511	4.25
387.296	4.25
388.08	6.25
388.865	5.25
389.649	5.25
390.434	7.25
391.218	7.25
392.003	5.25
392.787	8.25
393.571	6.25
394.355	6.25
395.139	7.25
395.923	6.25
396.707	10.25
397.491	5.25
398.274	9.25
399.058	9.25
399.842	8.25
400.625	7.25
401.408	3.25
402.192	8.25
402.975	4.25
403.758	8.25
404.541	7.25
405.324	6.25
406.107	8.25
406.89	8.25
407.673	9.25
408.456	5.25
409.238	9.25
410.021	9.25
410.803	7.25
411.586	9.25
412.368	9.25
413.151	8.25
413.933	10.25
414.715	9.25
415.497	10.25
416.279	11.25
417.061	11.25
417.843	8.25
418.624	10.25
419.406	11.25
420.188	8.25
420.969	11.25
421.751	8.25
422.532	8.25
423.313	11.25
424.095	11.25
424.876	13.25
425.657	12.25
426.438	14.25
427.219	14.25
428	14.25
428.78	11.25
429.561	13.25
430.342	15.25
431.122	15.25
431.903	15.25
432.683	15.25
433.464	15.25
434.244	15.25
435.024	16.25
435.804	19.25
436.584	17.25
437.364	20.25
438.144	17.25
438.924	19.25
439.704	23.25
440.483	22.25
441.263	25.25
442.042	23.25
442.822	26.25
443.601	27.25
444.38	28.25
445.16	33.25
445.939	32.25
446.718	39.25
447.497	40.25
448.276	39.25
449.054	44.25
449.833	46.25
450.612	51.25
451.391	53.25
452.169	61.25
452.948	66.25
453.726	70.25
454.504	79.25
455.282	79.25
456.061	93.25
456.839	103.25
457.617	113.25
458.395	125.25
459.172	142.25
459.95	158.25
460.728	174.25
461.506	198.25
462.283	217.25
463.061	243.25
463.838	271.25
464.615	309.25
465.393	345.25
466.17	377.25
466.947	419.25
467.724	476.25
468.501	531.25
469.278	578.25
470.055	658.25
470.831	742.25
471.608	825.25
472.385	914.25
473.161	1021.25
473.938	1131.25
474.714	1271.25
475.49	1388.25
476.266	1561.25
477.043	1729.25
477.819	1887.25
478.595	2124.25
479.371	2327.25
480.146	2605.25
480.922	2876.25
481.698	3164.25
482.473	3517.25
483.249	3891.25
484.024	4306.25
484.8	4757.25
485.575	5237.25
486.35	5771.25
487.126	6341.25
487.901	7001.25
488.676	7692.25
489.451	8444.25
490.225	9266.25
491	10153.25
491.775	11171.25
492.55	12162.25
493.324	13205.25
494.099	14258.25
494.873	15409.25
495.647	16656.25
496.422	17875.25
497.196	19145.25
497.97	20491.25
498.744	21727.25
499.518	22848.25
500.292	24031.25
501.066	25221.25
501.839	26133.25
502.613	27037.25
503.387	27714.25
504.16	28234.25
504.934	28533.25
505.707	28508.25
506.48	28480.25
507.253	28217.25
508.027	27787.25
508.8	27316.25
509.573	26790.25
510.346	25948.25
511.118	25167.25
511.891	24213.25
512.664	23332.25
513.437	22358.25
514.209	21299.25
514.982	20456.25
515.754	19544.25
516.526	18564.25
517.298	17795.25
518.071	17045.25
518.843	16359.25
519.615	15754.25
520.387	15093.25
521.159	14512.25
521.93	13918.25
522.702	13354.25
523.474	12832.25
524.245	12302.25
525.017	11702.25
525.788	11278.25
526.56	10716.25
527.331	10257.25
528.102	9775.25
528.873	9320.25
529.644	8836.25
530.415	8360.25
531.186	7910.25
531.957	7479.25
532.728	7117.25
533.498	6741.25
534.269	6348.25
535.039	5974.25
535.81	5650.25
536.58	5339.25
537.351	5029.25
538.121	4744.25
538.891	4529.25
539.661	4238.25
540.431	4002.25
541.201	3808.25
541.971	3604.25
542.741	3417.25
543.51	3267.25
544.28	3080.25
545.05	2919.25
545.819	2803.25
546.588	2652.25
547.358	2518.25
548.127	2399.25
548.896	2284.25
549.665	2143.25
550.434	2032.25
551.203	1945.25
551.972	1811.25
552.741	1719.25
553.51	1619.25
554.278	1530.25
555.047	1462.25
555.815	1363.25
556.584	1276.25
557.352	1220.25
558.121	1139.25
558.889	1079.25
559.657	1005.25
560.425	970.25
561.193	915.25
561.961	854.25
562.729	815.25
563.496	757.25
564.264	721.25
565.032	693.25
565.799	657.25
566.567	614.25
567.334	573.25
568.101	538.25
568.869	519.25
569.636	488.25
570.403	459.25
571.17	425.25
571.937	407.25
572.704	379.25
573.471	365.25
574.237	343.25
575.004	322.25
575.771	301.25
576.537	276.25
577.303	264.25
578.07	257.25
578.836	237.25
579.602	230.25
580.368	212.25
581.134	201.25
581.9	192.25
582.666	182.25
583.432	165.25
584.198	162.25
584.964	153.25
585.729	141.25
586.495	141.25
587.26	128.25
588.025	122.25
588.791	120.25
589.556	113.25
590.321	109.25
591.086	100.25
591.851	93.25
592.616	91.25
593.381	87.25
594.146	83.25
594.911	80.25
595.675	76.25
596.44	74.25
597.204	66.25
597.969	71.25
598.733	64.25
599.497	60.25
600.261	57.25
601.025	52.25
601.79	53.25
602.553	50.25
603.317	46.25
604.081	47.25
604.845	42.25
605.609	41.25
606.372	39.25
607.136	38.25
607.899	39.25
608.662	35.25
609.426	35.25
610.189	34.25
610.952	29.25
611.715	31.25
612.478	31.25
613.241	26.25
614.004	26.25
614.767	28.25
615.529	26.25
616.292	25.25
617.055	23.25
617.817	23.25
618.579	22.25
619.342	22.25
620.104	21.25
620.866	20.25
621.628	18.25
622.39	17.25
623.152	19.25
623.914	13.25
624.676	18.25
625.438	17.25
626.199	13.25
626.961	14.25
627.722	14.25
628.484	15.25
629.245	13.25
630.006	15.25
630.768	15.25
631.529	13.25
632.29	10.25
633.051	11.25
633.812	14.25
634.573	13.25
635.333	11.25
636.094	10.25
636.855	12.25
637.615	9.25
638.376	9.25
639.136	10.25
639.896	11.25
640.657	9.25
641.417	8.25
642.177	8.25
642.937	9.25
643.697	8.25
644.457	7.25
645.216	10.25
645.976	9.25
646.736	8.25
647.495	6.25
648.255	5.25
649.014	6.25
649.774	6.25
650.533	9.25
651.292	7.25
652.051	5.25
652.81	7.25
653.569	7.25
654.328	8.25
655.087	4.25
655.846	6.25
656.604	4.25
657.363	4.25
658.121	8.25
658.88	5.25
659.638	7.25
660.397	5.25
661.155	5.25
661.913	5.25
662.671	6.25
663.429	4.25
664.187	5.25
664.945	5.25
665.703	3.25
666.46	3.25
667.218	5.25
667.976	5.25
668.733	6.25
669.49	5.25
670.248	7.25
671.005	3.25
671.762	3.25
672.519	5.25
673.276	4.25
674.033	3.25
674.79	3.25
675.547	4.25
676.304	2.25
677.06	3.25
677.817	4.25
678.574	5.25
679.33	4.25
680.086	3.25
680.843	2.25
681.599	3.25
682.355	5.25
683.111	2.25
683.867	3.25
684.623	5.25
685.379	4.25
686.135	5.25
686.89	3.25
687.646	4.25
688.402	3.25
689.157	1.25
689.912	1.25
690.668	2.25
691.423	4.25
692.178	5.25
692.933	5.25
693.688	4.25
694.443	5.25
695.198	4.25
695.953	5.25
696.708	2.25
697.462	3.25
698.217	4.25
698.972	5.25
699.726	3.25
700.48	4.25
701.235	4.25
701.989	5.25
702.743	3.25
703.497	5.25
704.251	3.25
705.005	3.25
705.759	3.25
706.513	3.25
707.266	3.25
708.02	5.25
708.774	4.25
709.527	3.25
710.28	6.25
711.034	4.25
711.787	2.25
712.54	2.25
713.293	6.25
714.046	4.25
714.799	3.25
715.552	5.25
716.305	1.25
717.058	1.25
717.81	5.25
718.563	5.25
719.315	4.25
720.068	4.25
720.82	4.25
721.573	3.25
722.325	4.25
723.077	4.25
723.829	3.25
724.581	5.25
725.333	5.25
726.085	5.25
726.836	3.25
727.588	3.25
728.34	4.25
729.091	3.25
729.843	4.25
730.594	3.25
731.346	5.25
732.097	5.25
732.848	3.25
733.599	5.25
734.35	4.25
735.101	5.25
735.852	4.25
736.603	3.25
737.354	4.25
738.104	5.25
738.855	4.25
739.605	3.25
740.356	3.25
741.106	5.25
741.856	6.25
742.607	4.25
743.357	4.25
744.107	5.25
744.857	6.25
745.607	4.25
746.357	5.25
747.106	4.25
747.856	5.25
748.606	4.25
749.355	3.25
750.105	5.25
750.854	5.25
751.603	7.25
752.353	6.25
753.102	5.25
753.851	6.25
754.6	8.25
755.349	5.25
756.098	6.25
756.847	6.25
757.595	5.25
758.344	7.25
759.093	6.25
759.841	6.25
760.589	7.25
761.338	7.25
762.086	5.25
762.834	6.25
763.582	8.25
764.331	5.25
765.079	8.25
765.826	7.25
766.574	7.25
767.322	7.25
768.07	8.25
768.817	7.25
769.565	7.25
770.312	9.25
771.06	7.25
771.807	8.25
772.554	8.25
773.302	9.25
774.049	7.25
774.796	8.25
775.543	7.25
776.29	8.25
777.036	8.25
777.783	8.25
778.53	9.25
779.276	6.25
780.023	11.25
780.769	7.25
781.516	7.25
782.262	9.25
783.008	8.25
783.754	9.25
784.5	8.25
785.246	7.25
785.992	9.25
786.738	6.25
787.484	9.25
788.23	9.25
788.975	9.25
789.721	9.25
790.466	12.25
791.212	8.25
791.957	6.25
792.702	6.25
793.447	9.25
794.193	6.25
794.938	7.25
795.683	7.25
796.427	10.25
797.172	9.25
797.917	5.25
798.662	8.25
799.406	9.25
800.151	6.25
800.895	5.25
801.64	10.25
802.384	5.25
803.128	7.25
803.872	6.25
804.616	8.25
805.36	5.25
806.104	7.25
806.848	8.25
807.592	7.25
808.336	5.25
809.079	9.25
809.823	3.25
810.566	9.25
811.31	6.25
812.053	8.25
812.796	5.25
813.539	7.25
814.283	4.25
815.026	6.25
815.769	5.25
816.511	4.25
817.254	6.25
817.997	5.25
818.74	7.25
819.482	4.25
820.225	4.25
820.967	7.25
821.71	3.25
822.452	4.25
823.194	4.25
823.936	5.25
824.678	2.25
825.42	2.25
826.162	3.25
826.904	6.25
827.646	2.25
828.388	1.25
829.129	4.25
829.871	3.25
830.612	4.25
831.354	2.25
832.095	3.25
832.836	3.25
833.577	4.25
834.319	3.25
835.06	5.25
835.801	3.25
836.542	3.25
837.282	4.25
838.023	2.25
838.764	5.25
839.504	2.25
840.245	4.25
840.985	3.25
841.726	3.25
842.466	3.25
843.206	5.25
843.946	4.25
844.687	3.25
845.427	2.25
846.166	3.25
846.906	2.25
847.646	3.25
848.386	0.25
849.125	4.25
849.865	2.25
850.605	3.25
851.344	3.25
852.083	1.25
852.823	3.25
853.562	3.25
854.301	2.25
855.04	3.25
855.779	1.25
856.518	4.25
857.257	2.25
857.995	1.25
858.734	2.25
859.473	3.25
860.211	2.25
860.95	2.25
861.688	3.25
862.426	4.25
863.165	3.25
863.903	2.25
864.641	3.25
865.379	3.25
866.117	-2.75
866.855	0.25
867.593	3.25
868.33	2.25
869.068	2.25
869.806	-0.75
870.543	1.25
871.28	5.25
872.018	1.25
872.755	1.25
873.492	0.25
874.229	3.25
874.967	1.25
875.703	4.25
876.44	3.25
877.177	1.25
877.914	1.25
878.651	1.25
879.387	3.25
880.124	-2.75
880.86	1.25
881.597	1.25
882.333	2.25
883.069	3.25
883.806	0.25
884.542	1.25
885.278	2.25
886.014	1.25
886.749	1.25
887.485	0.25
888.221	2.25
888.957	2.25
889.692	0.25
890.428	1.25
891.163	1.25
891.899	2.25
892.634	0.25
893.369	-0.75
894.104	0.25
894.839	-0.75
895.574	3.25
896.309	-0.75
897.044	1.25
897.779	1.25
898.514	-0.75
899.248	0.25
899.983	0.25
900.717	1.25
901.452	2.25
902.186	0.25
902.92	0.25
903.654	-0.75
904.389	-0.75
905.123	1.25
905.857	1.25
906.59	1.25
907.324	0.25
908.058	-0.75
908.792	-0.75
909.525	1.25
910.259	0.25
910.992	-0.75
911.726	-0.75
912.459	0.25
913.192	-0.75
913.925	-0.75
914.658	1.25
915.391	0.25
916.124	-0.75
916.857	1.25
917.59	-0.75
918.323	0.25
919.055	-0.75
919.788	3.25
920.521	1.25
921.253	0.25
921.985	3.25
922.718	1.25
923.45	0.25
924.182	-0.75
924.914	-0.75
925.646	0.25
926.378	1.25
927.11	1.25
927.841	-1.75
928.573	1.25
929.305	-0.75
930.036	-0.75
930.768	1.25
931.499	1.25
932.23	2.25
932.962	0.25
933.693	0.25
934.424	1.25
935.155	0.25
935.886	1.25
936.617	-1.75
937.348	1.25
938.078	3.25
938.809	-0.75
939.54	0.25
940.27	-1.75
941.001	-0.75
941.731	1.25
942.461	0.25
943.191	2.25
943.922	1.25
944.652	2.25
945.382	1.25
946.112	0.25
946.841	-0.75
947.571	-0.75
948.301	1.25
949.031	-0.75
949.76	1.25
950.49	1.25
951.219	-0.75
951.948	1.25
952.678	-0.75
953.407	0.25
954.136	0.25
954.865	-0.75
955.594	-0.75
956.323	-0.75
957.052	-2.75
957.78	-0.75
958.509	1.25
959.238	1.25
959.966	0.25
960.695	4.25
961.423	-1.75
962.151	0.25
962.88	-0.75
963.608	2.25
964.336	0.25
965.064	0.25
965.792	-0.75
966.52	-0.75
967.247	0.25
967.975	1.25
968.703	1.25
969.43	2.25
970.158	0.25
970.885	2.25
971.613	0.25
972.34	1.25
973.067	0.25
973.794	2.25
974.521	-1.75
975.248	0.25
975.975	-0.75
976.702	1.25
977.429	0.25
978.156	-0.75
978.882	0.25
979.609	0.25
980.335	-0.75
981.062	2.25
981.788	-0.75
982.514	2.25
983.24	-2.75
983.967	0.25
984.693	0.25
985.419	0.25
986.144	3.25
986.87	-0.75
987.596	0.25
988.322	1.25
989.047	-0.75
989.773	1.25
990.498	-4.75
991.224	0.25
991.949	1.25
992.674	-0.75
993.399	-0.75
994.124	1.25
994.849	1.25
995.574	-0.75
996.299	0.25
997.024	0.25
997.749	-0.75
998.473	-0.75
999.198	-1.75
999.922	-0.75
1000.647	1.25
1001.371	2.25
1002.095	0.25
1002.82	-0.75
1003.544	-1.75
1004.268	1.25
1004.992	0.25
1005.716	1.25
1006.439	2.25
1007.163	1.25
1007.887	4.25
1008.611	0.25
1009.334	1.25
1010.058	1.25
1010.781	-0.75
1011.504	0.25
1012.228	-0.75
1012.951	-0.75
1013.674	0.25
1014.397	1.25
1015.12	-0.75
