节点500_285_QEPB04081__572__15-05-04-193.txt的数据

Date: Wed Nov 12 15:05:04 CST 2025
User: PC
Spectrometer: QEPB0408
触发模式: 0
积分时间 (秒): 1.000000E-2
Scans to average: 1
启用暗噪声校正: true
启用非线性校正: false
滑动平均宽度: 0
X轴模式: Wavelengths
Number of Pixels in Spectrum: 1044
>>>>>Begin Spectral Data<<<<<
220.843	0
221.644	-1
222.444	1
223.244	-1
224.045	0
224.845	3
225.645	3
226.445	1
227.245	3
228.045	1
228.845	4
229.645	0
230.444	1
231.244	1
232.043	4
232.843	4
233.642	2
234.442	4
235.241	5
236.04	4
236.839	1
237.638	2
238.437	3
239.236	2
240.035	2
240.833	4
241.632	3
242.43	4
243.229	3
244.027	3
244.826	3
245.624	4
246.422	2
247.22	7
248.018	1
248.816	3
249.614	8
250.412	5
251.21	4
252.007	5
252.805	6
253.602	7
254.4	8
255.197	4
255.994	6
256.791	9
257.589	7
258.386	6
259.183	6
259.979	8
260.776	7
261.573	10
262.37	7
263.166	6
263.963	10
264.759	11
265.556	12
266.352	14
267.148	11
267.944	13
268.74	12
269.536	12
270.332	13
271.128	11
271.924	15
272.719	13
273.515	13
274.311	19
275.106	16
275.901	17
276.697	14
277.492	15
278.287	16
279.082	16
279.877	16
280.672	17
281.467	19
282.262	19
283.056	17
283.851	16
284.646	17
285.44	17
286.234	17
287.029	18
287.823	19
288.617	16
289.411	16
290.205	14
290.999	17
291.793	16
292.587	15
293.381	17
294.174	14
294.968	17
295.761	13
296.555	13
297.348	14
298.141	13
298.935	16
299.728	14
300.521	11
301.314	12
302.107	12
302.899	12
303.692	12
304.485	12
305.277	14
306.07	11
306.862	10
307.655	13
308.447	11
309.239	10
310.031	11
310.823	7
311.615	9
312.407	9
313.199	9
313.991	9
314.783	9
315.574	8
316.366	9
317.157	8
317.949	7
318.74	6
319.531	9
320.322	6
321.113	7
321.904	6
322.695	5
323.486	3
324.277	9
325.068	5
325.858	7
326.649	8
327.439	6
328.23	7
329.02	6
329.81	5
330.6	6
331.391	7
332.181	8
332.971	6
333.76	6
334.55	5
335.34	4
336.13	6
336.919	6
337.709	6
338.498	5
339.287	6
340.077	7
340.866	3
341.655	7
342.444	6
343.233	7
344.022	6
344.811	6
345.6	4
346.388	5
347.177	6
347.965	6
348.754	6
349.542	5
350.33	2
351.119	8
351.907	2
352.695	2
353.483	4
354.271	6
355.059	5
355.846	2
356.634	5
357.422	4
358.209	7
358.997	3
359.784	3
360.571	7
361.359	3
362.146	5
362.933	6
363.72	3
364.507	4
365.294	4
366.081	4
366.867	5
367.654	3
368.44	5
369.227	5
370.013	5
370.8	5
371.586	7
372.372	3
373.158	7
373.944	4
374.73	4
375.516	1
376.302	4
377.088	6
377.873	5
378.659	4
379.445	3
380.23	4
381.015	4
381.801	3
382.586	5
383.371	4
384.156	3
384.941	9
385.726	4
386.511	4
387.296	5
388.08	4
388.865	5
389.649	5
390.434	5
391.218	3
392.003	4
392.787	6
393.571	5
394.355	5
395.139	2
395.923	7
396.707	4
397.491	4
398.274	5
399.058	4
399.842	7
400.625	3
401.408	6
402.192	6
402.975	7
403.758	6
404.541	3
405.324	8
406.107	8
406.89	5
407.673	5
408.456	6
409.238	8
410.021	7
410.803	8
411.586	7
412.368	8
413.151	10
413.933	9
414.715	5
415.497	7
416.279	9
417.061	9
417.843	8
418.624	10
419.406	8
420.188	9
420.969	9
421.751	10
422.532	10
423.313	8
424.095	11
424.876	9
425.657	11
426.438	11
427.219	11
428	9
428.78	13
429.561	13
430.342	11
431.122	13
431.903	12
432.683	16
433.464	13
434.244	15
435.024	17
435.804	17
436.584	15
437.364	18
438.144	17
438.924	23
439.704	19
440.483	21
441.263	23
442.042	25
442.822	25
443.601	26
444.38	29
445.16	29
445.939	33
446.718	36
447.497	38
448.276	45
449.054	44
449.833	52
450.612	55
451.391	60
452.169	70
452.948	74
453.726	77
454.504	88
455.282	93
456.061	105
456.839	117
457.617	128
458.395	144
459.172	156
459.95	176
460.728	199
461.506	220
462.283	243
463.061	269
463.838	307
464.615	340
465.393	383
466.17	420
466.947	469
467.724	515
468.501	582
469.278	652
470.055	727
470.831	782
471.608	883
472.385	984
473.161	1077
473.938	1191
474.714	1321
475.49	1448
476.266	1604
477.043	1758
477.819	1935
478.595	2142
479.371	2358
480.146	2582
480.922	2824
481.698	3121
482.473	3428
483.249	3750
484.024	4090
484.8	4505
485.575	4944
486.35	5376
487.126	5885
487.901	6445
488.676	7050
489.451	7666
490.225	8336
491	9098
491.775	9921
492.55	10827
493.324	11711
494.099	12559
494.873	13490
495.647	14565
496.422	15598
497.196	16715
497.97	17853
498.744	18978
499.518	19996
500.292	21124
501.066	22185
501.839	23149
502.613	24027
503.387	24778
504.16	25586
504.934	25965
505.707	26218
506.48	26391
507.253	26508
508.027	26331
508.8	26116
509.573	25795
510.346	25327
511.118	24699
511.891	24073
512.664	23280
513.437	22575
514.209	21669
514.982	20898
515.754	19917
516.526	19140
517.298	18288
518.071	17514
518.843	16829
519.615	16254
520.387	15581
521.159	14902
521.93	14347
522.702	13783
523.474	13230
524.245	12617
525.017	12130
525.788	11722
526.56	11127
527.331	10622
528.102	10193
528.873	9687
529.644	9244
530.415	8823
531.186	8369
531.957	7935
532.728	7542
533.498	7213
534.269	6751
535.039	6445
535.81	6081
536.58	5734
537.351	5417
538.121	5124
538.891	4847
539.661	4609
540.431	4307
541.201	4093
541.971	3871
542.741	3674
543.51	3503
544.28	3326
545.05	3180
545.819	3000
546.588	2852
547.358	2719
548.127	2598
548.896	2438
549.665	2312
550.434	2194
551.203	2086
551.972	1972
552.741	1862
553.51	1771
554.278	1681
555.047	1573
555.815	1488
556.584	1410
557.352	1328
558.121	1257
558.889	1183
559.657	1122
560.425	1051
561.193	986
561.961	947
562.729	891
563.496	852
564.264	797
565.032	744
565.799	718
566.567	672
567.334	636
568.101	604
568.869	567
569.636	537
570.403	503
571.17	477
571.937	445
572.704	420
573.471	407
574.237	374
575.004	354
575.771	332
576.537	317
577.303	296
578.07	273
578.836	265
579.602	242
580.368	229
581.134	223
581.9	205
582.666	199
583.432	189
584.198	185
584.964	174
585.729	158
586.495	149
587.26	143
588.025	137
588.791	127
589.556	123
590.321	116
591.086	108
591.851	102
592.616	96
593.381	94
594.146	91
594.911	85
595.675	81
596.44	78
597.204	72
597.969	69
598.733	71
599.497	63
600.261	62
601.025	61
601.79	52
602.553	52
603.317	54
604.081	48
604.845	45
605.609	45
606.372	41
607.136	39
607.899	42
608.662	38
609.426	37
610.189	34
610.952	31
611.715	32
612.478	34
613.241	30
614.004	30
614.767	28
615.529	26
616.292	27
617.055	23
617.817	19
618.579	22
619.342	24
620.104	22
620.866	22
621.628	18
622.39	20
623.152	18
623.914	18
624.676	15
625.438	16
626.199	16
626.961	13
627.722	13
628.484	17
629.245	11
630.006	16
630.768	13
631.529	9
632.29	10
633.051	13
633.812	12
634.573	12
635.333	9
636.094	12
636.855	6
637.615	10
638.376	9
639.136	10
639.896	9
640.657	9
641.417	8
642.177	8
642.937	6
643.697	9
644.457	6
645.216	8
645.976	7
646.736	7
647.495	9
648.255	7
649.014	6
649.774	8
650.533	7
651.292	6
652.051	6
652.81	6
653.569	7
654.328	5
655.087	5
655.846	9
656.604	7
657.363	3
658.121	6
658.88	4
659.638	5
660.397	5
661.155	5
661.913	4
662.671	5
663.429	5
664.187	3
664.945	4
665.703	4
666.46	3
667.218	5
667.976	4
668.733	4
669.49	4
670.248	2
671.005	3
671.762	4
672.519	4
673.276	3
674.033	6
674.79	3
675.547	3
676.304	4
677.06	2
677.817	2
678.574	3
679.33	5
680.086	4
680.843	2
681.599	4
682.355	2
683.111	3
683.867	4
684.623	3
685.379	3
686.135	4
686.89	3
687.646	3
688.402	2
689.157	4
689.912	3
690.668	3
691.423	3
692.178	4
692.933	2
693.688	1
694.443	3
695.198	4
695.953	3
696.708	4
697.462	1
698.217	1
698.972	5
699.726	1
700.48	3
701.235	5
701.989	2
702.743	2
703.497	1
704.251	4
705.005	2
705.759	2
706.513	4
707.266	2
708.02	4
708.774	0
709.527	4
710.28	1
711.034	3
711.787	4
712.54	3
713.293	4
714.046	5
714.799	4
715.552	2
716.305	5
717.058	4
717.81	4
718.563	2
719.315	2
720.068	2
720.82	3
721.573	2
722.325	5
723.077	2
723.829	4
724.581	3
725.333	1
726.085	1
726.836	2
727.588	4
728.34	0
729.091	4
729.843	2
730.594	4
731.346	3
732.097	2
732.848	5
733.599	1
734.35	3
735.101	4
735.852	0
736.603	3
737.354	2
738.104	4
738.855	3
739.605	1
740.356	4
741.106	2
741.856	5
742.607	7
743.357	3
744.107	1
744.857	1
745.607	3
746.357	3
747.106	6
747.856	4
748.606	3
749.355	6
750.105	3
750.854	6
751.603	3
752.353	4
753.102	2
753.851	6
754.6	4
755.349	2
756.098	3
756.847	1
757.595	4
758.344	4
759.093	1
759.841	4
760.589	7
761.338	6
762.086	5
762.834	8
763.582	5
764.331	7
765.079	8
765.826	5
766.574	7
767.322	5
768.07	7
768.817	7
769.565	4
770.312	4
771.06	4
771.807	8
772.554	4
773.302	6
774.049	7
774.796	6
775.543	6
776.29	8
777.036	8
777.783	9
778.53	8
779.276	9
780.023	7
780.769	8
781.516	8
782.262	6
783.008	7
783.754	8
784.5	7
785.246	7
785.992	7
786.738	5
787.484	6
788.23	9
788.975	8
789.721	9
790.466	10
791.212	7
791.957	6
792.702	5
793.447	6
794.193	8
794.938	7
795.683	6
796.427	9
797.172	6
797.917	5
798.662	8
799.406	7
800.151	7
800.895	8
801.64	6
802.384	8
803.128	5
803.872	5
804.616	5
805.36	6
806.104	8
806.848	5
807.592	7
808.336	6
809.079	5
809.823	4
810.566	7
811.31	5
812.053	4
812.796	7
813.539	4
814.283	1
815.026	6
815.769	5
816.511	6
817.254	6
817.997	3
818.74	3
819.482	3
820.225	5
820.967	3
821.71	1
822.452	4
823.194	3
823.936	3
824.678	2
825.42	6
826.162	4
826.904	4
827.646	4
828.388	4
829.129	4
829.871	3
830.612	0
831.354	2
832.095	4
832.836	1
833.577	4
834.319	1
835.06	2
835.801	2
836.542	4
837.282	3
838.023	0
838.764	4
839.504	4
840.245	2
840.985	1
841.726	1
842.466	1
843.206	4
843.946	2
844.687	2
845.427	0
846.166	1
846.906	2
847.646	3
848.386	1
849.125	0
849.865	2
850.605	1
851.344	3
852.083	3
852.823	0
853.562	2
854.301	1
855.04	2
855.779	2
856.518	1
857.257	3
857.995	1
858.734	1
859.473	-1
860.211	0
860.95	0
861.688	1
862.426	2
863.165	1
863.903	2
864.641	2
865.379	2
866.117	1
866.855	1
867.593	0
868.33	1
869.068	1
869.806	2
870.543	3
871.28	3
872.018	1
872.755	2
873.492	-1
874.229	1
874.967	2
875.703	-1
876.44	-1
877.177	0
877.914	0
878.651	0
879.387	2
880.124	-1
880.86	-1
881.597	1
882.333	-1
883.069	-1
883.806	1
884.542	0
885.278	0
886.014	1
886.749	0
887.485	-1
888.221	-1
888.957	-1
889.692	0
890.428	-2
891.163	0
891.899	-1
892.634	-1
893.369	1
894.104	-1
894.839	-1
895.574	-1
896.309	-1
897.044	1
897.779	0
898.514	0
899.248	-1
899.983	0
900.717	0
901.452	0
902.186	-1
902.92	0
903.654	-1
904.389	-1
905.123	-1
905.857	1
906.59	-1
907.324	-1
908.058	1
908.792	0
909.525	1
910.259	-2
910.992	0
911.726	-1
912.459	-2
913.192	-1
913.925	0
914.658	0
915.391	1
916.124	-3
916.857	-1
917.59	-1
918.323	0
919.055	0
919.788	-1
920.521	2
921.253	-2
921.985	-2
922.718	1
923.45	-3
924.182	-2
924.914	1
925.646	0
926.378	0
927.11	1
927.841	-1
928.573	1
929.305	-1
930.036	1
930.768	-2
931.499	1
932.23	-1
932.962	-1
933.693	-2
934.424	-1
935.155	-1
935.886	0
936.617	-1
937.348	0
938.078	0
938.809	-2
939.54	-2
940.27	1
941.001	0
941.731	1
942.461	1
943.191	-1
943.922	-1
944.652	-1
945.382	-1
946.112	0
946.841	-1
947.571	0
948.301	-1
949.031	-1
949.76	-1
950.49	0
951.219	2
951.948	-1
952.678	-3
953.407	-1
954.136	2
954.865	-2
955.594	-1
956.323	0
957.052	-1
957.78	-1
958.509	-1
959.238	1
959.966	0
960.695	-1
961.423	-1
962.151	-1
962.88	-2
963.608	-1
964.336	0
965.064	-3
965.792	-1
966.52	-1
967.247	-1
967.975	1
968.703	0
969.43	1
970.158	-1
970.885	-1
971.613	-4
972.34	1
973.067	-2
973.794	0
974.521	0
975.248	0
975.975	-2
976.702	0
977.429	-3
978.156	0
978.882	-2
979.609	0
980.335	-1
981.062	-1
981.788	0
982.514	-3
983.24	-2
983.967	-2
984.693	-3
985.419	0
986.144	-1
986.87	1
987.596	-1
988.322	1
989.047	0
989.773	-1
990.498	0
991.224	0
991.949	0
992.674	-1
993.399	1
994.124	0
994.849	-1
995.574	1
996.299	-2
997.024	-1
997.749	-2
998.473	1
999.198	-1
999.922	-1
1000.647	0
1001.371	3
1002.095	0
1002.82	-3
1003.544	-2
1004.268	-1
1004.992	1
1005.716	0
1006.439	-1
1007.163	1
1007.887	-1
1008.611	0
1009.334	0
1010.058	-1
1010.781	-1
1011.504	-2
1012.228	0
1012.951	-1
1013.674	1
1014.397	1
1015.12	1
