节点500_285_QEPB04081__64__14-56-37-350.txt的数据

Date: Wed Nov 12 14:56:37 CST 2025
User: PC
Spectrometer: QEPB0408
触发模式: 0
积分时间 (秒): 1.000000E-2
Scans to average: 1
启用暗噪声校正: true
启用非线性校正: false
滑动平均宽度: 0
X轴模式: Wavelengths
Number of Pixels in Spectrum: 1044
>>>>>Begin Spectral Data<<<<<
220.843	3.88
221.644	-0.12
222.444	2.88
223.244	2.88
224.045	-0.12
224.845	3.88
225.645	1.88
226.445	1.88
227.245	2.88
228.045	3.88
228.845	3.88
229.645	2.88
230.444	3.88
231.244	5.88
232.043	4.88
232.843	3.88
233.642	2.88
234.442	3.88
235.241	4.88
236.04	7.88
236.839	4.88
237.638	3.88
238.437	6.88
239.236	2.88
240.035	3.88
240.833	6.88
241.632	6.88
242.43	4.88
243.229	1.88
244.027	5.88
244.826	4.88
245.624	6.88
246.422	5.88
247.22	7.88
248.018	8.88
248.816	5.88
249.614	8.88
250.412	6.88
251.21	7.88
252.007	6.88
252.805	6.88
253.602	8.88
254.4	7.88
255.197	8.88
255.994	8.88
256.791	10.88
257.589	8.88
258.386	9.88
259.183	13.88
259.979	11.88
260.776	11.88
261.573	9.88
262.37	9.88
263.166	13.88
263.963	13.88
264.759	14.88
265.556	15.88
266.352	13.88
267.148	12.88
267.944	16.88
268.74	13.88
269.536	15.88
270.332	14.88
271.128	17.88
271.924	16.88
272.719	15.88
273.515	18.88
274.311	17.88
275.106	21.88
275.901	19.88
276.697	22.88
277.492	17.88
278.287	20.88
279.082	19.88
279.877	17.88
280.672	21.88
281.467	20.88
282.262	22.88
283.056	19.88
283.851	20.88
284.646	21.88
285.44	18.88
286.234	21.88
287.029	18.88
287.823	20.88
288.617	21.88
289.411	18.88
290.205	19.88
290.999	16.88
291.793	17.88
292.587	17.88
293.381	19.88
294.174	17.88
294.968	17.88
295.761	17.88
296.555	17.88
297.348	16.88
298.141	14.88
298.935	16.88
299.728	15.88
300.521	15.88
301.314	17.88
302.107	12.88
302.899	14.88
303.692	13.88
304.485	14.88
305.277	13.88
306.07	13.88
306.862	13.88
307.655	11.88
308.447	11.88
309.239	9.88
310.031	10.88
310.823	11.88
311.615	11.88
312.407	11.88
313.199	10.88
313.991	10.88
314.783	9.88
315.574	9.88
316.366	8.88
317.157	11.88
317.949	9.88
318.74	10.88
319.531	6.88
320.322	10.88
321.113	7.88
321.904	9.88
322.695	8.88
323.486	8.88
324.277	7.88
325.068	5.88
325.858	7.88
326.649	9.88
327.439	7.88
328.23	8.88
329.02	8.88
329.81	8.88
330.6	8.88
331.391	6.88
332.181	6.88
332.971	7.88
333.76	11.88
334.55	7.88
335.34	6.88
336.13	6.88
336.919	6.88
337.709	6.88
338.498	5.88
339.287	5.88
340.077	7.88
340.866	5.88
341.655	6.88
342.444	8.88
343.233	5.88
344.022	4.88
344.811	6.88
345.6	6.88
346.388	7.88
347.177	5.88
347.965	6.88
348.754	6.88
349.542	6.88
350.33	6.88
351.119	7.88
351.907	5.88
352.695	6.88
353.483	5.88
354.271	7.88
355.059	6.88
355.846	3.88
356.634	7.88
357.422	6.88
358.209	7.88
358.997	5.88
359.784	6.88
360.571	8.88
361.359	6.88
362.146	6.88
362.933	5.88
363.72	7.88
364.507	4.88
365.294	3.88
366.081	6.88
366.867	4.88
367.654	6.88
368.44	5.88
369.227	4.88
370.013	7.88
370.8	4.88
371.586	4.88
372.372	2.88
373.158	4.88
373.944	6.88
374.73	7.88
375.516	4.88
376.302	5.88
377.088	4.88
377.873	6.88
378.659	3.88
379.445	5.88
380.23	5.88
381.015	6.88
381.801	6.88
382.586	7.88
383.371	6.88
384.156	6.88
384.941	5.88
385.726	6.88
386.511	6.88
387.296	8.88
388.08	8.88
388.865	6.88
389.649	5.88
390.434	6.88
391.218	5.88
392.003	4.88
392.787	8.88
393.571	8.88
394.355	7.88
395.139	6.88
395.923	6.88
396.707	8.88
397.491	10.88
398.274	8.88
399.058	5.88
399.842	9.88
400.625	6.88
401.408	9.88
402.192	7.88
402.975	8.88
403.758	7.88
404.541	6.88
405.324	9.88
406.107	9.88
406.89	9.88
407.673	3.88
408.456	6.88
409.238	10.88
410.021	8.88
410.803	9.88
411.586	8.88
412.368	11.88
413.151	9.88
413.933	9.88
414.715	11.88
415.497	9.88
416.279	10.88
417.061	8.88
417.843	9.88
418.624	13.88
419.406	9.88
420.188	10.88
420.969	9.88
421.751	11.88
422.532	13.88
423.313	10.88
424.095	9.88
424.876	13.88
425.657	12.88
426.438	14.88
427.219	13.88
428	10.88
428.78	12.88
429.561	16.88
430.342	15.88
431.122	14.88
431.903	15.88
432.683	15.88
433.464	14.88
434.244	17.88
435.024	16.88
435.804	18.88
436.584	15.88
437.364	19.88
438.144	19.88
438.924	22.88
439.704	21.88
440.483	22.88
441.263	23.88
442.042	22.88
442.822	25.88
443.601	26.88
444.38	28.88
445.16	30.88
445.939	33.88
446.718	37.88
447.497	36.88
448.276	43.88
449.054	42.88
449.833	43.88
450.612	48.88
451.391	56.88
452.169	56.88
452.948	60.88
453.726	68.88
454.504	75.88
455.282	87.88
456.061	90.88
456.839	99.88
457.617	109.88
458.395	125.88
459.172	136.88
459.95	150.88
460.728	169.88
461.506	190.88
462.283	212.88
463.061	236.88
463.838	263.88
464.615	297.88
465.393	337.88
466.17	374.88
466.947	416.88
467.724	468.88
468.501	528.88
469.278	579.88
470.055	651.88
470.831	719.88
471.608	810.88
472.385	908.88
473.161	1003.88
473.938	1118.88
474.714	1251.88
475.49	1391.88
476.266	1535.88
477.043	1716.88
477.819	1891.88
478.595	2118.88
479.371	2353.88
480.146	2613.88
480.922	2862.88
481.698	3192.88
482.473	3524.88
483.249	3908.88
484.024	4334.88
484.8	4775.88
485.575	5291.88
486.35	5857.88
487.126	6429.88
487.901	7096.88
488.676	7834.88
489.451	8603.88
490.225	9498.88
491	10361.88
491.775	11345.88
492.55	12399.88
493.324	13493.88
494.099	14573.88
494.873	15775.88
495.647	16990.88
496.422	18335.88
497.196	19588.88
497.97	20872.88
498.744	22149.88
499.518	23369.88
500.292	24568.88
501.066	25692.88
501.839	26623.88
502.613	27541.88
503.387	28143.88
504.16	28726.88
504.934	28798.88
505.707	28877.88
506.48	28833.88
507.253	28517.88
508.027	28071.88
508.8	27499.88
509.573	26916.88
510.346	26106.88
511.118	25184.88
511.891	24236.88
512.664	23287.88
513.437	22308.88
514.209	21353.88
514.982	20373.88
515.754	19395.88
516.526	18559.88
517.298	17715.88
518.071	16924.88
518.843	16314.88
519.615	15676.88
520.387	15068.88
521.159	14413.88
521.93	13847.88
522.702	13324.88
523.474	12815.88
524.245	12222.88
525.017	11644.88
525.788	11210.88
526.56	10705.88
527.331	10156.88
528.102	9707.88
528.873	9228.88
529.644	8748.88
530.415	8326.88
531.186	7880.88
531.957	7439.88
532.728	7051.88
533.498	6653.88
534.269	6272.88
535.039	5933.88
535.81	5604.88
536.58	5274.88
537.351	4964.88
538.121	4712.88
538.891	4451.88
539.661	4209.88
540.431	3971.88
541.201	3734.88
541.971	3558.88
542.741	3370.88
543.51	3211.88
544.28	3037.88
545.05	2905.88
545.819	2750.88
546.588	2597.88
547.358	2475.88
548.127	2353.88
548.896	2232.88
549.665	2122.88
550.434	2000.88
551.203	1905.88
551.972	1794.88
552.741	1691.88
553.51	1596.88
554.278	1501.88
555.047	1419.88
555.815	1346.88
556.584	1278.88
557.352	1190.88
558.121	1129.88
558.889	1058.88
559.657	1011.88
560.425	945.88
561.193	892.88
561.961	843.88
562.729	804.88
563.496	756.88
564.264	714.88
565.032	679.88
565.799	643.88
566.567	602.88
567.334	574.88
568.101	533.88
568.869	507.88
569.636	476.88
570.403	443.88
571.17	423.88
571.937	402.88
572.704	372.88
573.471	357.88
574.237	331.88
575.004	318.88
575.771	298.88
576.537	276.88
577.303	261.88
578.07	251.88
578.836	235.88
579.602	222.88
580.368	212.88
581.134	195.88
581.9	180.88
582.666	176.88
583.432	175.88
584.198	153.88
584.964	155.88
585.729	143.88
586.495	137.88
587.26	127.88
588.025	122.88
588.791	115.88
589.556	113.88
590.321	104.88
591.086	100.88
591.851	95.88
592.616	86.88
593.381	87.88
594.146	83.88
594.911	77.88
595.675	73.88
596.44	68.88
597.204	68.88
597.969	66.88
598.733	64.88
599.497	60.88
600.261	59.88
601.025	54.88
601.79	54.88
602.553	49.88
603.317	48.88
604.081	45.88
604.845	43.88
605.609	41.88
606.372	38.88
607.136	38.88
607.899	38.88
608.662	38.88
609.426	34.88
610.189	33.88
610.952	29.88
611.715	31.88
612.478	28.88
613.241	29.88
614.004	27.88
614.767	26.88
615.529	27.88
616.292	21.88
617.055	25.88
617.817	24.88
618.579	23.88
619.342	21.88
620.104	18.88
620.866	19.88
621.628	20.88
622.39	18.88
623.152	19.88
623.914	18.88
624.676	14.88
625.438	16.88
626.199	15.88
626.961	16.88
627.722	13.88
628.484	17.88
629.245	15.88
630.006	14.88
630.768	15.88
631.529	12.88
632.29	12.88
633.051	12.88
633.812	11.88
634.573	13.88
635.333	10.88
636.094	12.88
636.855	10.88
637.615	12.88
638.376	12.88
639.136	10.88
639.896	9.88
640.657	12.88
641.417	11.88
642.177	8.88
642.937	12.88
643.697	8.88
644.457	8.88
645.216	8.88
645.976	7.88
646.736	7.88
647.495	8.88
648.255	6.88
649.014	7.88
649.774	8.88
650.533	8.88
651.292	6.88
652.051	8.88
652.81	8.88
653.569	6.88
654.328	9.88
655.087	6.88
655.846	7.88
656.604	6.88
657.363	6.88
658.121	4.88
658.88	8.88
659.638	5.88
660.397	4.88
661.155	7.88
661.913	4.88
662.671	3.88
663.429	5.88
664.187	7.88
664.945	6.88
665.703	5.88
666.46	5.88
667.218	4.88
667.976	5.88
668.733	6.88
669.49	5.88
670.248	5.88
671.005	5.88
671.762	5.88
672.519	6.88
673.276	2.88
674.033	4.88
674.79	2.88
675.547	5.88
676.304	2.88
677.06	2.88
677.817	3.88
678.574	1.88
679.33	5.88
680.086	4.88
680.843	4.88
681.599	5.88
682.355	4.88
683.111	3.88
683.867	5.88
684.623	2.88
685.379	4.88
686.135	7.88
686.89	4.88
687.646	1.88
688.402	5.88
689.157	4.88
689.912	2.88
690.668	6.88
691.423	5.88
692.178	4.88
692.933	2.88
693.688	3.88
694.443	2.88
695.198	3.88
695.953	4.88
696.708	2.88
697.462	6.88
698.217	2.88
698.972	4.88
699.726	2.88
700.48	3.88
701.235	3.88
701.989	2.88
702.743	5.88
703.497	4.88
704.251	4.88
705.005	3.88
705.759	5.88
706.513	2.88
707.266	6.88
708.02	1.88
708.774	3.88
709.527	4.88
710.28	4.88
711.034	2.88
711.787	3.88
712.54	4.88
713.293	5.88
714.046	4.88
714.799	2.88
715.552	5.88
716.305	1.88
717.058	4.88
717.81	4.88
718.563	4.88
719.315	1.88
720.068	3.88
720.82	3.88
721.573	4.88
722.325	2.88
723.077	7.88
723.829	1.88
724.581	0.88
725.333	2.88
726.085	4.88
726.836	5.88
727.588	5.88
728.34	5.88
729.091	5.88
729.843	4.88
730.594	4.88
731.346	4.88
732.097	4.88
732.848	1.88
733.599	7.88
734.35	3.88
735.101	1.88
735.852	4.88
736.603	2.88
737.354	3.88
738.104	4.88
738.855	5.88
739.605	5.88
740.356	3.88
741.106	5.88
741.856	3.88
742.607	6.88
743.357	6.88
744.107	5.88
744.857	3.88
745.607	4.88
746.357	5.88
747.106	3.88
747.856	8.88
748.606	4.88
749.355	6.88
750.105	5.88
750.854	4.88
751.603	3.88
752.353	5.88
753.102	6.88
753.851	7.88
754.6	4.88
755.349	6.88
756.098	6.88
756.847	5.88
757.595	4.88
758.344	6.88
759.093	8.88
759.841	6.88
760.589	8.88
761.338	8.88
762.086	7.88
762.834	8.88
763.582	8.88
764.331	7.88
765.079	6.88
765.826	9.88
766.574	6.88
767.322	9.88
768.07	7.88
768.817	5.88
769.565	7.88
770.312	11.88
771.06	7.88
771.807	6.88
772.554	8.88
773.302	8.88
774.049	11.88
774.796	9.88
775.543	9.88
776.29	8.88
777.036	9.88
777.783	8.88
778.53	10.88
779.276	10.88
780.023	9.88
780.769	9.88
781.516	10.88
782.262	9.88
783.008	9.88
783.754	10.88
784.5	10.88
785.246	9.88
785.992	8.88
786.738	9.88
787.484	11.88
788.23	10.88
788.975	8.88
789.721	11.88
790.466	9.88
791.212	10.88
791.957	11.88
792.702	9.88
793.447	8.88
794.193	7.88
794.938	7.88
795.683	6.88
796.427	10.88
797.172	10.88
797.917	8.88
798.662	8.88
799.406	8.88
800.151	7.88
800.895	7.88
801.64	8.88
802.384	8.88
803.128	4.88
803.872	7.88
804.616	6.88
805.36	7.88
806.104	8.88
806.848	4.88
807.592	6.88
808.336	5.88
809.079	7.88
809.823	7.88
810.566	5.88
811.31	5.88
812.053	5.88
812.796	7.88
813.539	5.88
814.283	6.88
815.026	6.88
815.769	7.88
816.511	6.88
817.254	7.88
817.997	5.88
818.74	5.88
819.482	6.88
820.225	3.88
820.967	5.88
821.71	5.88
822.452	3.88
823.194	5.88
823.936	4.88
824.678	5.88
825.42	5.88
826.162	5.88
826.904	3.88
827.646	4.88
828.388	2.88
829.129	4.88
829.871	4.88
830.612	4.88
831.354	1.88
832.095	4.88
832.836	5.88
833.577	3.88
834.319	3.88
835.06	4.88
835.801	2.88
836.542	5.88
837.282	5.88
838.023	2.88
838.764	2.88
839.504	4.88
840.245	2.88
840.985	4.88
841.726	3.88
842.466	2.88
843.206	2.88
843.946	2.88
844.687	1.88
845.427	5.88
846.166	3.88
846.906	3.88
847.646	3.88
848.386	4.88
849.125	4.88
849.865	4.88
850.605	2.88
851.344	1.88
852.083	4.88
852.823	-0.12
853.562	3.88
854.301	2.88
855.04	3.88
855.779	3.88
856.518	0.88
857.257	4.88
857.995	2.88
858.734	2.88
859.473	6.88
860.211	2.88
860.95	3.88
861.688	1.88
862.426	1.88
863.165	3.88
863.903	0.88
864.641	2.88
865.379	1.88
866.117	3.88
866.855	2.88
867.593	1.88
868.33	1.88
869.068	1.88
869.806	-0.12
870.543	3.88
871.28	2.88
872.018	3.88
872.755	2.88
873.492	0.88
874.229	2.88
874.967	1.88
875.703	2.88
876.44	3.88
877.177	1.88
877.914	1.88
878.651	1.88
879.387	0.88
880.124	3.88
880.86	2.88
881.597	1.88
882.333	1.88
883.069	1.88
883.806	0.88
884.542	1.88
885.278	2.88
886.014	1.88
886.749	1.88
887.485	1.88
888.221	-0.12
888.957	0.88
889.692	0.88
890.428	-0.12
891.163	0.88
891.899	2.88
892.634	-0.12
893.369	1.88
894.104	2.88
894.839	1.88
895.574	1.88
896.309	-0.12
897.044	0.88
897.779	2.88
898.514	4.88
899.248	0.88
899.983	1.88
900.717	0.88
901.452	1.88
902.186	0.88
902.92	3.88
903.654	0.88
904.389	0.88
905.123	3.88
905.857	1.88
906.59	1.88
907.324	1.88
908.058	-0.12
908.792	1.88
909.525	0.88
910.259	0.88
910.992	0.88
911.726	1.88
912.459	-0.12
913.192	-0.12
913.925	2.88
914.658	1.88
915.391	1.88
916.124	2.88
916.857	1.88
917.59	3.88
918.323	-1.12
919.055	2.88
919.788	0.88
920.521	1.88
921.253	1.88
921.985	1.88
922.718	-0.12
923.45	1.88
924.182	0.88
924.914	1.88
925.646	0.88
926.378	-0.12
927.11	1.88
927.841	0.88
928.573	0.88
929.305	1.88
930.036	0.88
930.768	-1.12
931.499	1.88
932.23	-2.12
932.962	3.88
933.693	1.88
934.424	2.88
935.155	-0.12
935.886	-0.12
936.617	-1.12
937.348	-0.12
938.078	2.88
938.809	2.88
939.54	-0.12
940.27	-0.12
941.001	1.88
941.731	0.88
942.461	0.88
943.191	0.88
943.922	0.88
944.652	0.88
945.382	0.88
946.112	-0.12
946.841	0.88
947.571	0.88
948.301	-0.12
949.031	-0.12
949.76	-0.12
950.49	1.88
951.219	0.88
951.948	1.88
952.678	1.88
953.407	0.88
954.136	0.88
954.865	0.88
955.594	2.88
956.323	0.88
957.052	0.88
957.78	1.88
958.509	1.88
959.238	0.88
959.966	0.88
960.695	0.88
961.423	-0.12
962.151	0.88
962.88	1.88
963.608	-1.12
964.336	0.88
965.064	-0.12
965.792	0.88
966.52	-0.12
967.247	1.88
967.975	3.88
968.703	1.88
969.43	3.88
970.158	-0.12
970.885	-1.12
971.613	0.88
972.34	1.88
973.067	0.88
973.794	-1.12
974.521	0.88
975.248	0.88
975.975	-0.12
976.702	0.88
977.429	1.88
978.156	2.88
978.882	0.88
979.609	0.88
980.335	1.88
981.062	-2.12
981.788	0.88
982.514	-0.12
983.24	1.88
983.967	1.88
984.693	-0.12
985.419	3.88
986.144	-0.12
986.87	-0.12
987.596	0.88
988.322	1.88
989.047	1.88
989.773	-1.12
990.498	1.88
991.224	1.88
991.949	1.88
992.674	0.88
993.399	-0.12
994.124	2.88
994.849	-0.12
995.574	0.88
996.299	-0.12
997.024	0.88
997.749	-0.12
998.473	1.88
999.198	1.88
999.922	1.88
1000.647	-0.12
1001.371	2.88
1002.095	-1.12
1002.82	-2.12
1003.544	-2.12
1004.268	2.88
1004.992	0.88
1005.716	1.88
1006.439	1.88
1007.163	2.88
1007.887	3.88
1008.611	1.88
1009.334	-0.12
1010.058	1.88
1010.781	0.88
1011.504	-0.12
1012.228	1.88
1012.951	-1.12
1013.674	1.88
1014.397	-1.12
1015.12	2.88
