节点500_285_QEPB04081__354__15-01-26-672.txt的数据

Date: Wed Nov 12 15:01:26 CST 2025
User: PC
Spectrometer: QEPB0408
触发模式: 0
积分时间 (秒): 1.000000E-2
Scans to average: 1
启用暗噪声校正: true
启用非线性校正: false
滑动平均宽度: 0
X轴模式: Wavelengths
Number of Pixels in Spectrum: 1044
>>>>>Begin Spectral Data<<<<<
220.843	0.62
221.644	2.62
222.444	0.62
223.244	1.62
224.045	2.62
224.845	2.62
225.645	1.62
226.445	1.62
227.245	1.62
228.045	2.62
228.845	0.62
229.645	2.62
230.444	2.62
231.244	3.62
232.043	4.62
232.843	2.62
233.642	1.62
234.442	3.62
235.241	0.62
236.04	1.62
236.839	3.62
237.638	1.62
238.437	3.62
239.236	1.62
240.035	2.62
240.833	4.62
241.632	3.62
242.43	6.62
243.229	5.62
244.027	6.62
244.826	4.62
245.624	3.62
246.422	3.62
247.22	4.62
248.018	7.62
248.816	5.62
249.614	4.62
250.412	4.62
251.21	6.62
252.007	5.62
252.805	8.62
253.602	6.62
254.4	7.62
255.197	7.62
255.994	9.62
256.791	6.62
257.589	8.62
258.386	6.62
259.183	9.62
259.979	8.62
260.776	9.62
261.573	11.62
262.37	11.62
263.166	9.62
263.963	10.62
264.759	11.62
265.556	12.62
266.352	13.62
267.148	13.62
267.944	12.62
268.74	14.62
269.536	15.62
270.332	14.62
271.128	16.62
271.924	15.62
272.719	16.62
273.515	16.62
274.311	15.62
275.106	15.62
275.901	17.62
276.697	20.62
277.492	15.62
278.287	16.62
279.082	16.62
279.877	16.62
280.672	18.62
281.467	17.62
282.262	19.62
283.056	18.62
283.851	20.62
284.646	19.62
285.44	20.62
286.234	18.62
287.029	18.62
287.823	18.62
288.617	17.62
289.411	15.62
290.205	18.62
290.999	20.62
291.793	17.62
292.587	16.62
293.381	18.62
294.174	18.62
294.968	16.62
295.761	15.62
296.555	15.62
297.348	13.62
298.141	16.62
298.935	17.62
299.728	15.62
300.521	13.62
301.314	13.62
302.107	13.62
302.899	15.62
303.692	14.62
304.485	11.62
305.277	11.62
306.07	12.62
306.862	11.62
307.655	12.62
308.447	13.62
309.239	11.62
310.031	11.62
310.823	12.62
311.615	10.62
312.407	12.62
313.199	9.62
313.991	9.62
314.783	11.62
315.574	10.62
316.366	10.62
317.157	8.62
317.949	7.62
318.74	9.62
319.531	6.62
320.322	8.62
321.113	8.62
321.904	5.62
322.695	6.62
323.486	8.62
324.277	7.62
325.068	8.62
325.858	6.62
326.649	5.62
327.439	4.62
328.23	5.62
329.02	3.62
329.81	8.62
330.6	6.62
331.391	7.62
332.181	7.62
332.971	7.62
333.76	3.62
334.55	6.62
335.34	7.62
336.13	5.62
336.919	5.62
337.709	6.62
338.498	5.62
339.287	7.62
340.077	6.62
340.866	7.62
341.655	4.62
342.444	7.62
343.233	8.62
344.022	6.62
344.811	7.62
345.6	7.62
346.388	6.62
347.177	6.62
347.965	7.62
348.754	4.62
349.542	4.62
350.33	6.62
351.119	4.62
351.907	6.62
352.695	5.62
353.483	6.62
354.271	4.62
355.059	4.62
355.846	7.62
356.634	7.62
357.422	4.62
358.209	6.62
358.997	4.62
359.784	6.62
360.571	3.62
361.359	6.62
362.146	3.62
362.933	4.62
363.72	6.62
364.507	5.62
365.294	4.62
366.081	5.62
366.867	5.62
367.654	3.62
368.44	4.62
369.227	6.62
370.013	3.62
370.8	5.62
371.586	5.62
372.372	4.62
373.158	5.62
373.944	5.62
374.73	3.62
375.516	5.62
376.302	4.62
377.088	3.62
377.873	4.62
378.659	3.62
379.445	3.62
380.23	5.62
381.015	2.62
381.801	3.62
382.586	3.62
383.371	4.62
384.156	4.62
384.941	3.62
385.726	6.62
386.511	5.62
387.296	4.62
388.08	6.62
388.865	4.62
389.649	3.62
390.434	2.62
391.218	6.62
392.003	5.62
392.787	5.62
393.571	6.62
394.355	2.62
395.139	4.62
395.923	7.62
396.707	6.62
397.491	6.62
398.274	6.62
399.058	5.62
399.842	6.62
400.625	5.62
401.408	6.62
402.192	6.62
402.975	6.62
403.758	7.62
404.541	7.62
405.324	7.62
406.107	6.62
406.89	7.62
407.673	6.62
408.456	7.62
409.238	7.62
410.021	10.62
410.803	9.62
411.586	9.62
412.368	8.62
413.151	9.62
413.933	6.62
414.715	9.62
415.497	10.62
416.279	9.62
417.061	9.62
417.843	8.62
418.624	10.62
419.406	7.62
420.188	8.62
420.969	9.62
421.751	9.62
422.532	9.62
423.313	13.62
424.095	8.62
424.876	13.62
425.657	11.62
426.438	9.62
427.219	13.62
428	11.62
428.78	13.62
429.561	12.62
430.342	15.62
431.122	15.62
431.903	11.62
432.683	13.62
433.464	13.62
434.244	17.62
435.024	15.62
435.804	18.62
436.584	19.62
437.364	20.62
438.144	20.62
438.924	20.62
439.704	18.62
440.483	20.62
441.263	21.62
442.042	25.62
442.822	25.62
443.601	28.62
444.38	28.62
445.16	32.62
445.939	33.62
446.718	34.62
447.497	37.62
448.276	40.62
449.054	46.62
449.833	48.62
450.612	49.62
451.391	54.62
452.169	61.62
452.948	70.62
453.726	74.62
454.504	80.62
455.282	87.62
456.061	98.62
456.839	110.62
457.617	123.62
458.395	134.62
459.172	144.62
459.95	164.62
460.728	181.62
461.506	210.62
462.283	233.62
463.061	259.62
463.838	287.62
464.615	322.62
465.393	354.62
466.17	405.62
466.947	448.62
467.724	505.62
468.501	552.62
469.278	618.62
470.055	695.62
470.831	765.62
471.608	866.62
472.385	939.62
473.161	1053.62
473.938	1172.62
474.714	1279.62
475.49	1421.62
476.266	1595.62
477.043	1750.62
477.819	1922.62
478.595	2135.62
479.371	2352.62
480.146	2597.62
480.922	2842.62
481.698	3137.62
482.473	3457.62
483.249	3815.62
484.024	4203.62
484.8	4618.62
485.575	5080.62
486.35	5574.62
487.126	6111.62
487.901	6710.62
488.676	7347.62
489.451	8041.62
490.225	8800.62
491	9585.62
491.775	10485.62
492.55	11430.62
493.324	12397.62
494.099	13381.62
494.873	14361.62
495.647	15546.62
496.422	16663.62
497.196	17848.62
497.97	19057.62
498.744	20235.62
499.518	21364.62
500.292	22491.62
501.066	23611.62
501.839	24531.62
502.613	25428.62
503.387	26271.62
504.16	26845.62
504.934	27203.62
505.707	27331.62
506.48	27430.62
507.253	27385.62
508.027	27113.62
508.8	26778.62
509.573	26433.62
510.346	25788.62
511.118	25005.62
511.891	24240.62
512.664	23350.62
513.437	22484.62
514.209	21547.62
514.982	20661.62
515.754	19747.62
516.526	18921.62
517.298	18103.62
518.071	17233.62
518.843	16605.62
519.615	16028.62
520.387	15310.62
521.159	14687.62
521.93	14122.62
522.702	13574.62
523.474	13015.62
524.245	12449.62
525.017	11935.62
525.788	11472.62
526.56	10963.62
527.331	10409.62
528.102	9995.62
528.873	9541.62
529.644	9097.62
530.415	8615.62
531.186	8137.62
531.957	7726.62
532.728	7353.62
533.498	6985.62
534.269	6584.62
535.039	6211.62
535.81	5862.62
536.58	5588.62
537.351	5242.62
538.121	4936.62
538.891	4683.62
539.661	4417.62
540.431	4176.62
541.201	3937.62
541.971	3753.62
542.741	3520.62
543.51	3350.62
544.28	3212.62
545.05	3046.62
545.819	2897.62
546.588	2754.62
547.358	2610.62
548.127	2480.62
548.896	2353.62
549.665	2221.62
550.434	2108.62
551.203	2003.62
551.972	1910.62
552.741	1799.62
553.51	1696.62
554.278	1600.62
555.047	1515.62
555.815	1431.62
556.584	1345.62
557.352	1268.62
558.121	1205.62
558.889	1132.62
559.657	1068.62
560.425	1010.62
561.193	954.62
561.961	900.62
562.729	850.62
563.496	803.62
564.264	751.62
565.032	717.62
565.799	687.62
566.567	647.62
567.334	617.62
568.101	569.62
568.869	539.62
569.636	513.62
570.403	481.62
571.17	452.62
571.937	422.62
572.704	406.62
573.471	383.62
574.237	367.62
575.004	340.62
575.771	318.62
576.537	301.62
577.303	280.62
578.07	268.62
578.836	247.62
579.602	233.62
580.368	220.62
581.134	206.62
581.9	202.62
582.666	188.62
583.432	177.62
584.198	171.62
584.964	164.62
585.729	156.62
586.495	144.62
587.26	137.62
588.025	135.62
588.791	123.62
589.556	115.62
590.321	115.62
591.086	104.62
591.851	97.62
592.616	93.62
593.381	89.62
594.146	84.62
594.911	81.62
595.675	78.62
596.44	75.62
597.204	71.62
597.969	68.62
598.733	64.62
599.497	61.62
600.261	59.62
601.025	56.62
601.79	52.62
602.553	53.62
603.317	48.62
604.081	47.62
604.845	46.62
605.609	41.62
606.372	38.62
607.136	37.62
607.899	38.62
608.662	35.62
609.426	35.62
610.189	34.62
610.952	33.62
611.715	32.62
612.478	32.62
613.241	28.62
614.004	30.62
614.767	26.62
615.529	25.62
616.292	26.62
617.055	25.62
617.817	23.62
618.579	20.62
619.342	22.62
620.104	21.62
620.866	19.62
621.628	21.62
622.39	17.62
623.152	19.62
623.914	19.62
624.676	17.62
625.438	17.62
626.199	15.62
626.961	16.62
627.722	15.62
628.484	13.62
629.245	13.62
630.006	14.62
630.768	13.62
631.529	13.62
632.29	13.62
633.051	11.62
633.812	10.62
634.573	12.62
635.333	10.62
636.094	8.62
636.855	10.62
637.615	11.62
638.376	9.62
639.136	7.62
639.896	10.62
640.657	8.62
641.417	11.62
642.177	9.62
642.937	9.62
643.697	10.62
644.457	6.62
645.216	8.62
645.976	6.62
646.736	8.62
647.495	7.62
648.255	7.62
649.014	9.62
649.774	6.62
650.533	7.62
651.292	5.62
652.051	3.62
652.81	9.62
653.569	4.62
654.328	6.62
655.087	6.62
655.846	5.62
656.604	7.62
657.363	6.62
658.121	6.62
658.88	5.62
659.638	6.62
660.397	5.62
661.155	5.62
661.913	3.62
662.671	4.62
663.429	3.62
664.187	5.62
664.945	3.62
665.703	5.62
666.46	4.62
667.218	3.62
667.976	4.62
668.733	5.62
669.49	5.62
670.248	3.62
671.005	5.62
671.762	3.62
672.519	6.62
673.276	4.62
674.033	3.62
674.79	4.62
675.547	2.62
676.304	4.62
677.06	3.62
677.817	4.62
678.574	1.62
679.33	4.62
680.086	3.62
680.843	4.62
681.599	3.62
682.355	4.62
683.111	4.62
683.867	2.62
684.623	1.62
685.379	2.62
686.135	2.62
686.89	4.62
687.646	3.62
688.402	3.62
689.157	1.62
689.912	1.62
690.668	5.62
691.423	3.62
692.178	3.62
692.933	3.62
693.688	3.62
694.443	3.62
695.198	4.62
695.953	5.62
696.708	3.62
697.462	3.62
698.217	3.62
698.972	2.62
699.726	3.62
700.48	5.62
701.235	4.62
701.989	2.62
702.743	4.62
703.497	4.62
704.251	3.62
705.005	4.62
705.759	0.62
706.513	2.62
707.266	5.62
708.02	-0.38
708.774	4.62
709.527	3.62
710.28	3.62
711.034	4.62
711.787	2.62
712.54	1.62
713.293	3.62
714.046	2.62
714.799	1.62
715.552	4.62
716.305	3.62
717.058	2.62
717.81	3.62
718.563	1.62
719.315	2.62
720.068	2.62
720.82	3.62
721.573	2.62
722.325	3.62
723.077	3.62
723.829	2.62
724.581	3.62
725.333	5.62
726.085	3.62
726.836	2.62
727.588	2.62
728.34	4.62
729.091	3.62
729.843	3.62
730.594	4.62
731.346	2.62
732.097	1.62
732.848	4.62
733.599	3.62
734.35	1.62
735.101	2.62
735.852	2.62
736.603	4.62
737.354	6.62
738.104	4.62
738.855	4.62
739.605	3.62
740.356	3.62
741.106	5.62
741.856	5.62
742.607	5.62
743.357	1.62
744.107	6.62
744.857	3.62
745.607	4.62
746.357	4.62
747.106	5.62
747.856	7.62
748.606	4.62
749.355	5.62
750.105	3.62
750.854	5.62
751.603	5.62
752.353	5.62
753.102	7.62
753.851	3.62
754.6	6.62
755.349	5.62
756.098	4.62
756.847	5.62
757.595	6.62
758.344	4.62
759.093	5.62
759.841	9.62
760.589	5.62
761.338	6.62
762.086	7.62
762.834	5.62
763.582	7.62
764.331	7.62
765.079	6.62
765.826	7.62
766.574	4.62
767.322	5.62
768.07	5.62
768.817	6.62
769.565	5.62
770.312	8.62
771.06	6.62
771.807	6.62
772.554	6.62
773.302	7.62
774.049	7.62
774.796	8.62
775.543	11.62
776.29	7.62
777.036	7.62
777.783	9.62
778.53	7.62
779.276	8.62
780.023	8.62
780.769	8.62
781.516	9.62
782.262	9.62
783.008	11.62
783.754	10.62
784.5	8.62
785.246	6.62
785.992	6.62
786.738	9.62
787.484	6.62
788.23	8.62
788.975	8.62
789.721	6.62
790.466	9.62
791.212	8.62
791.957	9.62
792.702	8.62
793.447	8.62
794.193	7.62
794.938	7.62
795.683	8.62
796.427	6.62
797.172	6.62
797.917	7.62
798.662	7.62
799.406	6.62
800.151	5.62
800.895	6.62
801.64	6.62
802.384	5.62
803.128	6.62
803.872	4.62
804.616	6.62
805.36	6.62
806.104	6.62
806.848	8.62
807.592	3.62
808.336	5.62
809.079	3.62
809.823	6.62
810.566	5.62
811.31	5.62
812.053	5.62
812.796	5.62
813.539	6.62
814.283	5.62
815.026	5.62
815.769	5.62
816.511	4.62
817.254	4.62
817.997	6.62
818.74	4.62
819.482	5.62
820.225	5.62
820.967	2.62
821.71	3.62
822.452	3.62
823.194	4.62
823.936	4.62
824.678	3.62
825.42	2.62
826.162	3.62
826.904	3.62
827.646	3.62
828.388	2.62
829.129	3.62
829.871	4.62
830.612	1.62
831.354	3.62
832.095	3.62
832.836	4.62
833.577	1.62
834.319	4.62
835.06	4.62
835.801	1.62
836.542	3.62
837.282	1.62
838.023	5.62
838.764	1.62
839.504	2.62
840.245	1.62
840.985	2.62
841.726	5.62
842.466	2.62
843.206	-0.38
843.946	1.62
844.687	1.62
845.427	2.62
846.166	3.62
846.906	3.62
847.646	2.62
848.386	3.62
849.125	1.62
849.865	1.62
850.605	1.62
851.344	2.62
852.083	0.62
852.823	2.62
853.562	0.62
854.301	1.62
855.04	1.62
855.779	1.62
856.518	1.62
857.257	0.62
857.995	2.62
858.734	0.62
859.473	1.62
860.211	2.62
860.95	1.62
861.688	1.62
862.426	2.62
863.165	3.62
863.903	3.62
864.641	2.62
865.379	0.62
866.117	0.62
866.855	1.62
867.593	0.62
868.33	1.62
869.068	2.62
869.806	1.62
870.543	-0.38
871.28	2.62
872.018	1.62
872.755	1.62
873.492	0.62
874.229	0.62
874.967	0.62
875.703	-0.38
876.44	2.62
877.177	3.62
877.914	2.62
878.651	3.62
879.387	0.62
880.124	1.62
880.86	0.62
881.597	-0.38
882.333	2.62
883.069	2.62
883.806	-0.38
884.542	1.62
885.278	2.62
886.014	-0.38
886.749	0.62
887.485	-2.38
888.221	0.62
888.957	-0.38
889.692	-1.38
890.428	2.62
891.163	-0.38
891.899	1.62
892.634	1.62
893.369	-2.38
894.104	2.62
894.839	-0.38
895.574	0.62
896.309	-0.38
897.044	1.62
897.779	-1.38
898.514	-0.38
899.248	0.62
899.983	0.62
900.717	-0.38
901.452	1.62
902.186	-1.38
902.92	2.62
903.654	1.62
904.389	-1.38
905.123	1.62
905.857	-1.38
906.59	0.62
907.324	0.62
908.058	-0.38
908.792	-0.38
909.525	1.62
910.259	1.62
910.992	-3.38
911.726	0.62
912.459	1.62
913.192	1.62
913.925	0.62
914.658	0.62
915.391	-0.38
916.124	-1.38
916.857	0.62
917.59	-2.38
918.323	-0.38
919.055	2.62
919.788	2.62
920.521	0.62
921.253	0.62
921.985	1.62
922.718	1.62
923.45	-0.38
924.182	1.62
924.914	-2.38
925.646	-0.38
926.378	-0.38
927.11	-0.38
927.841	-0.38
928.573	-0.38
929.305	-0.38
930.036	-1.38
930.768	-1.38
931.499	1.62
932.23	-2.38
932.962	0.62
933.693	-1.38
934.424	0.62
935.155	-0.38
935.886	-0.38
936.617	-1.38
937.348	-0.38
938.078	-0.38
938.809	0.62
939.54	1.62
940.27	-2.38
941.001	0.62
941.731	0.62
942.461	0.62
943.191	-0.38
943.922	-0.38
944.652	0.62
945.382	-0.38
946.112	1.62
946.841	1.62
947.571	-1.38
948.301	-0.38
949.031	0.62
949.76	-0.38
950.49	-0.38
951.219	1.62
951.948	1.62
952.678	-0.38
953.407	-0.38
954.136	-0.38
954.865	-0.38
955.594	-0.38
956.323	-2.38
957.052	1.62
957.78	0.62
958.509	0.62
959.238	0.62
959.966	1.62
960.695	1.62
961.423	-0.38
962.151	-0.38
962.88	0.62
963.608	1.62
964.336	1.62
965.064	0.62
965.792	-2.38
966.52	0.62
967.247	1.62
967.975	1.62
968.703	-0.38
969.43	0.62
970.158	-2.38
970.885	0.62
971.613	-0.38
972.34	-0.38
973.067	-0.38
973.794	-1.38
974.521	1.62
975.248	1.62
975.975	1.62
976.702	-0.38
977.429	0.62
978.156	-0.38
978.882	-3.38
979.609	1.62
980.335	-0.38
981.062	0.62
981.788	1.62
982.514	-1.38
983.24	1.62
983.967	-2.38
984.693	0.62
985.419	-2.38
986.144	-0.38
986.87	0.62
987.596	-0.38
988.322	-0.38
989.047	-1.38
989.773	0.62
990.498	-0.38
991.224	1.62
991.949	1.62
992.674	0.62
993.399	-1.38
994.124	-1.38
994.849	-0.38
995.574	-1.38
996.299	-2.38
997.024	0.62
997.749	-0.38
998.473	-0.38
999.198	2.62
999.922	-2.38
1000.647	0.62
1001.371	2.62
1002.095	-0.38
1002.82	-0.38
1003.544	-1.38
1004.268	-0.38
1004.992	-0.38
1005.716	2.62
1006.439	2.62
1007.163	1.62
1007.887	1.62
1008.611	0.62
1009.334	0.62
1010.058	-1.38
1010.781	-0.38
1011.504	-0.38
1012.228	-0.38
1012.951	-1.38
1013.674	-1.38
1014.397	1.62
1015.12	0.62
