节点500_285_QEPB04081__446__15-02-58-556.txt的数据

Date: Wed Nov 12 15:02:58 CST 2025
User: PC
Spectrometer: QEPB0408
触发模式: 0
积分时间 (秒): 1.000000E-2
Scans to average: 1
启用暗噪声校正: true
启用非线性校正: false
滑动平均宽度: 0
X轴模式: Wavelengths
Number of Pixels in Spectrum: 1044
>>>>>Begin Spectral Data<<<<<
220.843	-0.38
221.644	3.62
222.444	-0.38
223.244	1.62
224.045	-0.38
224.845	2.62
225.645	5.62
226.445	1.62
227.245	1.62
228.045	2.62
228.845	1.62
229.645	1.62
230.444	2.62
231.244	3.62
232.043	1.62
232.843	1.62
233.642	0.62
234.442	0.62
235.241	3.62
236.04	2.62
236.839	3.62
237.638	2.62
238.437	2.62
239.236	4.62
240.035	3.62
240.833	3.62
241.632	2.62
242.43	3.62
243.229	5.62
244.027	5.62
244.826	4.62
245.624	4.62
246.422	4.62
247.22	6.62
248.018	4.62
248.816	4.62
249.614	4.62
250.412	3.62
251.21	7.62
252.007	7.62
252.805	6.62
253.602	8.62
254.4	6.62
255.197	5.62
255.994	6.62
256.791	9.62
257.589	7.62
258.386	7.62
259.183	9.62
259.979	9.62
260.776	8.62
261.573	9.62
262.37	10.62
263.166	9.62
263.963	9.62
264.759	10.62
265.556	9.62
266.352	10.62
267.148	9.62
267.944	15.62
268.74	13.62
269.536	15.62
270.332	13.62
271.128	15.62
271.924	15.62
272.719	14.62
273.515	13.62
274.311	14.62
275.106	15.62
275.901	11.62
276.697	15.62
277.492	17.62
278.287	17.62
279.082	16.62
279.877	16.62
280.672	17.62
281.467	15.62
282.262	20.62
283.056	19.62
283.851	17.62
284.646	20.62
285.44	16.62
286.234	16.62
287.029	17.62
287.823	18.62
288.617	15.62
289.411	17.62
290.205	16.62
290.999	17.62
291.793	17.62
292.587	18.62
293.381	15.62
294.174	14.62
294.968	14.62
295.761	15.62
296.555	14.62
297.348	13.62
298.141	16.62
298.935	16.62
299.728	15.62
300.521	11.62
301.314	17.62
302.107	12.62
302.899	14.62
303.692	14.62
304.485	11.62
305.277	13.62
306.07	13.62
306.862	13.62
307.655	11.62
308.447	12.62
309.239	12.62
310.031	11.62
310.823	9.62
311.615	6.62
312.407	11.62
313.199	9.62
313.991	10.62
314.783	9.62
315.574	8.62
316.366	7.62
317.157	9.62
317.949	6.62
318.74	8.62
319.531	7.62
320.322	7.62
321.113	6.62
321.904	6.62
322.695	7.62
323.486	8.62
324.277	7.62
325.068	6.62
325.858	5.62
326.649	6.62
327.439	6.62
328.23	6.62
329.02	5.62
329.81	6.62
330.6	5.62
331.391	7.62
332.181	6.62
332.971	5.62
333.76	5.62
334.55	8.62
335.34	5.62
336.13	5.62
336.919	6.62
337.709	5.62
338.498	4.62
339.287	7.62
340.077	3.62
340.866	6.62
341.655	4.62
342.444	6.62
343.233	5.62
344.022	7.62
344.811	3.62
345.6	6.62
346.388	7.62
347.177	5.62
347.965	6.62
348.754	5.62
349.542	6.62
350.33	4.62
351.119	4.62
351.907	6.62
352.695	5.62
353.483	7.62
354.271	5.62
355.059	2.62
355.846	4.62
356.634	6.62
357.422	5.62
358.209	4.62
358.997	3.62
359.784	4.62
360.571	5.62
361.359	6.62
362.146	4.62
362.933	4.62
363.72	2.62
364.507	3.62
365.294	4.62
366.081	5.62
366.867	4.62
367.654	2.62
368.44	6.62
369.227	6.62
370.013	4.62
370.8	6.62
371.586	3.62
372.372	5.62
373.158	8.62
373.944	1.62
374.73	4.62
375.516	5.62
376.302	6.62
377.088	3.62
377.873	5.62
378.659	4.62
379.445	4.62
380.23	4.62
381.015	2.62
381.801	3.62
382.586	4.62
383.371	5.62
384.156	4.62
384.941	7.62
385.726	5.62
386.511	6.62
387.296	5.62
388.08	4.62
388.865	4.62
389.649	6.62
390.434	6.62
391.218	3.62
392.003	4.62
392.787	5.62
393.571	5.62
394.355	5.62
395.139	6.62
395.923	5.62
396.707	5.62
397.491	5.62
398.274	2.62
399.058	8.62
399.842	4.62
400.625	7.62
401.408	5.62
402.192	6.62
402.975	7.62
403.758	7.62
404.541	7.62
405.324	4.62
406.107	5.62
406.89	7.62
407.673	5.62
408.456	6.62
409.238	7.62
410.021	6.62
410.803	10.62
411.586	12.62
412.368	8.62
413.151	9.62
413.933	5.62
414.715	8.62
415.497	11.62
416.279	8.62
417.061	10.62
417.843	10.62
418.624	7.62
419.406	8.62
420.188	5.62
420.969	11.62
421.751	11.62
422.532	10.62
423.313	10.62
424.095	9.62
424.876	7.62
425.657	13.62
426.438	13.62
427.219	12.62
428	13.62
428.78	11.62
429.561	13.62
430.342	11.62
431.122	13.62
431.903	13.62
432.683	13.62
433.464	16.62
434.244	14.62
435.024	16.62
435.804	18.62
436.584	19.62
437.364	19.62
438.144	18.62
438.924	17.62
439.704	20.62
440.483	21.62
441.263	28.62
442.042	25.62
442.822	25.62
443.601	31.62
444.38	29.62
445.16	35.62
445.939	36.62
446.718	38.62
447.497	37.62
448.276	43.62
449.054	46.62
449.833	47.62
450.612	55.62
451.391	55.62
452.169	64.62
452.948	68.62
453.726	75.62
454.504	83.62
455.282	88.62
456.061	104.62
456.839	114.62
457.617	123.62
458.395	141.62
459.172	160.62
459.95	167.62
460.728	191.62
461.506	211.62
462.283	236.62
463.061	268.62
463.838	300.62
464.615	327.62
465.393	364.62
466.17	409.62
466.947	459.62
467.724	513.62
468.501	572.62
469.278	633.62
470.055	711.62
470.831	770.62
471.608	866.62
472.385	952.62
473.161	1064.62
473.938	1186.62
474.714	1301.62
475.49	1432.62
476.266	1580.62
477.043	1748.62
477.819	1936.62
478.595	2152.62
479.371	2344.62
480.146	2587.62
480.922	2838.62
481.698	3135.62
482.473	3462.62
483.249	3765.62
484.024	4150.62
484.8	4566.62
485.575	4996.62
486.35	5485.62
487.126	6035.62
487.901	6592.62
488.676	7228.62
489.451	7898.62
490.225	8614.62
491	9371.62
491.775	10250.62
492.55	11176.62
493.324	12067.62
494.099	13003.62
494.873	13986.62
495.647	15074.62
496.422	16242.62
497.196	17338.62
497.97	18504.62
498.744	19660.62
499.518	20755.62
500.292	21933.62
501.066	22998.62
501.839	23959.62
502.613	24882.62
503.387	25675.62
504.16	26311.62
504.934	26625.62
505.707	26901.62
506.48	27044.62
507.253	27010.62
508.027	26793.62
508.8	26512.62
509.573	26186.62
510.346	25590.62
511.118	24919.62
511.891	24073.62
512.664	23390.62
513.437	22524.62
514.209	21631.62
514.982	20778.62
515.754	19836.62
516.526	18990.62
517.298	18191.62
518.071	17386.62
518.843	16727.62
519.615	16030.62
520.387	15455.62
521.159	14851.62
521.93	14205.62
522.702	13646.62
523.474	13052.62
524.245	12540.62
525.017	12048.62
525.788	11547.62
526.56	11068.62
527.331	10492.62
528.102	10076.62
528.873	9565.62
529.644	9105.62
530.415	8701.62
531.186	8241.62
531.957	7814.62
532.728	7448.62
533.498	7066.62
534.269	6682.62
535.039	6280.62
535.81	5924.62
536.58	5623.62
537.351	5310.62
538.121	5034.62
538.891	4765.62
539.661	4491.62
540.431	4235.62
541.201	3995.62
541.971	3783.62
542.741	3575.62
543.51	3411.62
544.28	3262.62
545.05	3098.62
545.819	2954.62
546.588	2789.62
547.358	2668.62
548.127	2517.62
548.896	2396.62
549.665	2285.62
550.434	2143.62
551.203	2024.62
551.972	1930.62
552.741	1825.62
553.51	1717.62
554.278	1627.62
555.047	1543.62
555.815	1456.62
556.584	1371.62
557.352	1289.62
558.121	1224.62
558.889	1154.62
559.657	1093.62
560.425	1033.62
561.193	973.62
561.961	912.62
562.729	868.62
563.496	812.62
564.264	777.62
565.032	714.62
565.799	692.62
566.567	663.62
567.334	614.62
568.101	582.62
568.869	548.62
569.636	512.62
570.403	488.62
571.17	468.62
571.937	442.62
572.704	413.62
573.471	389.62
574.237	367.62
575.004	347.62
575.771	326.62
576.537	306.62
577.303	285.62
578.07	274.62
578.836	251.62
579.602	240.62
580.368	223.62
581.134	218.62
581.9	210.62
582.666	193.62
583.432	181.62
584.198	171.62
584.964	165.62
585.729	158.62
586.495	146.62
587.26	141.62
588.025	135.62
588.791	127.62
589.556	120.62
590.321	113.62
591.086	104.62
591.851	100.62
592.616	100.62
593.381	90.62
594.146	85.62
594.911	83.62
595.675	79.62
596.44	75.62
597.204	68.62
597.969	68.62
598.733	63.62
599.497	63.62
600.261	57.62
601.025	54.62
601.79	54.62
602.553	54.62
603.317	52.62
604.081	49.62
604.845	48.62
605.609	41.62
606.372	38.62
607.136	43.62
607.899	38.62
608.662	35.62
609.426	36.62
610.189	35.62
610.952	32.62
611.715	31.62
612.478	32.62
613.241	29.62
614.004	30.62
614.767	27.62
615.529	27.62
616.292	27.62
617.055	25.62
617.817	23.62
618.579	22.62
619.342	23.62
620.104	20.62
620.866	22.62
621.628	20.62
622.39	17.62
623.152	20.62
623.914	16.62
624.676	16.62
625.438	15.62
626.199	19.62
626.961	15.62
627.722	13.62
628.484	15.62
629.245	13.62
630.006	14.62
630.768	13.62
631.529	11.62
632.29	16.62
633.051	11.62
633.812	14.62
634.573	11.62
635.333	11.62
636.094	12.62
636.855	7.62
637.615	8.62
638.376	9.62
639.136	9.62
639.896	9.62
640.657	8.62
641.417	9.62
642.177	7.62
642.937	8.62
643.697	7.62
644.457	9.62
645.216	9.62
645.976	6.62
646.736	7.62
647.495	6.62
648.255	8.62
649.014	9.62
649.774	7.62
650.533	6.62
651.292	5.62
652.051	5.62
652.81	7.62
653.569	7.62
654.328	7.62
655.087	8.62
655.846	7.62
656.604	5.62
657.363	5.62
658.121	3.62
658.88	7.62
659.638	5.62
660.397	4.62
661.155	5.62
661.913	4.62
662.671	4.62
663.429	4.62
664.187	5.62
664.945	6.62
665.703	5.62
666.46	2.62
667.218	4.62
667.976	5.62
668.733	3.62
669.49	6.62
670.248	6.62
671.005	2.62
671.762	5.62
672.519	1.62
673.276	3.62
674.033	3.62
674.79	3.62
675.547	3.62
676.304	2.62
677.06	4.62
677.817	3.62
678.574	3.62
679.33	4.62
680.086	3.62
680.843	3.62
681.599	3.62
682.355	6.62
683.111	3.62
683.867	1.62
684.623	4.62
685.379	2.62
686.135	5.62
686.89	2.62
687.646	5.62
688.402	4.62
689.157	0.62
689.912	4.62
690.668	4.62
691.423	3.62
692.178	1.62
692.933	3.62
693.688	3.62
694.443	3.62
695.198	4.62
695.953	2.62
696.708	3.62
697.462	3.62
698.217	2.62
698.972	2.62
699.726	3.62
700.48	1.62
701.235	4.62
701.989	2.62
702.743	1.62
703.497	2.62
704.251	6.62
705.005	-0.38
705.759	2.62
706.513	3.62
707.266	4.62
708.02	1.62
708.774	4.62
709.527	1.62
710.28	3.62
711.034	3.62
711.787	2.62
712.54	1.62
713.293	3.62
714.046	3.62
714.799	3.62
715.552	3.62
716.305	3.62
717.058	4.62
717.81	4.62
718.563	4.62
719.315	4.62
720.068	4.62
720.82	1.62
721.573	3.62
722.325	3.62
723.077	1.62
723.829	4.62
724.581	2.62
725.333	4.62
726.085	3.62
726.836	1.62
727.588	5.62
728.34	2.62
729.091	3.62
729.843	2.62
730.594	3.62
731.346	4.62
732.097	4.62
732.848	3.62
733.599	2.62
734.35	4.62
735.101	3.62
735.852	3.62
736.603	6.62
737.354	2.62
738.104	4.62
738.855	4.62
739.605	4.62
740.356	4.62
741.106	2.62
741.856	5.62
742.607	2.62
743.357	6.62
744.107	4.62
744.857	5.62
745.607	4.62
746.357	4.62
747.106	5.62
747.856	4.62
748.606	3.62
749.355	4.62
750.105	5.62
750.854	2.62
751.603	4.62
752.353	4.62
753.102	4.62
753.851	4.62
754.6	4.62
755.349	5.62
756.098	4.62
756.847	4.62
757.595	6.62
758.344	5.62
759.093	7.62
759.841	5.62
760.589	6.62
761.338	7.62
762.086	7.62
762.834	7.62
763.582	4.62
764.331	7.62
765.079	8.62
765.826	3.62
766.574	7.62
767.322	3.62
768.07	7.62
768.817	6.62
769.565	3.62
770.312	7.62
771.06	6.62
771.807	5.62
772.554	6.62
773.302	8.62
774.049	6.62
774.796	8.62
775.543	9.62
776.29	8.62
777.036	7.62
777.783	9.62
778.53	6.62
779.276	4.62
780.023	7.62
780.769	9.62
781.516	7.62
782.262	9.62
783.008	8.62
783.754	7.62
784.5	8.62
785.246	8.62
785.992	9.62
786.738	8.62
787.484	9.62
788.23	10.62
788.975	10.62
789.721	5.62
790.466	7.62
791.212	8.62
791.957	8.62
792.702	7.62
793.447	9.62
794.193	7.62
794.938	7.62
795.683	6.62
796.427	7.62
797.172	8.62
797.917	7.62
798.662	7.62
799.406	7.62
800.151	6.62
800.895	6.62
801.64	5.62
802.384	6.62
803.128	7.62
803.872	9.62
804.616	7.62
805.36	6.62
806.104	5.62
806.848	5.62
807.592	6.62
808.336	4.62
809.079	6.62
809.823	7.62
810.566	6.62
811.31	3.62
812.053	3.62
812.796	4.62
813.539	2.62
814.283	5.62
815.026	3.62
815.769	4.62
816.511	7.62
817.254	4.62
817.997	6.62
818.74	4.62
819.482	4.62
820.225	4.62
820.967	3.62
821.71	5.62
822.452	3.62
823.194	7.62
823.936	3.62
824.678	3.62
825.42	3.62
826.162	4.62
826.904	3.62
827.646	3.62
828.388	3.62
829.129	4.62
829.871	3.62
830.612	2.62
831.354	4.62
832.095	4.62
832.836	6.62
833.577	3.62
834.319	3.62
835.06	1.62
835.801	2.62
836.542	2.62
837.282	4.62
838.023	1.62
838.764	3.62
839.504	1.62
840.245	1.62
840.985	1.62
841.726	4.62
842.466	4.62
843.206	3.62
843.946	0.62
844.687	2.62
845.427	1.62
846.166	4.62
846.906	0.62
847.646	4.62
848.386	3.62
849.125	2.62
849.865	2.62
850.605	1.62
851.344	3.62
852.083	1.62
852.823	2.62
853.562	3.62
854.301	1.62
855.04	2.62
855.779	1.62
856.518	1.62
857.257	1.62
857.995	2.62
858.734	2.62
859.473	1.62
860.211	2.62
860.95	1.62
861.688	2.62
862.426	-0.38
863.165	1.62
863.903	-0.38
864.641	2.62
865.379	1.62
866.117	0.62
866.855	1.62
867.593	1.62
868.33	0.62
869.068	4.62
869.806	0.62
870.543	1.62
871.28	-0.38
872.018	2.62
872.755	0.62
873.492	1.62
874.229	0.62
874.967	1.62
875.703	0.62
876.44	1.62
877.177	1.62
877.914	1.62
878.651	1.62
879.387	1.62
880.124	2.62
880.86	1.62
881.597	0.62
882.333	0.62
883.069	0.62
883.806	-0.38
884.542	0.62
885.278	2.62
886.014	-0.38
886.749	1.62
887.485	-2.38
888.221	1.62
888.957	0.62
889.692	-1.38
890.428	0.62
891.163	2.62
891.899	2.62
892.634	1.62
893.369	-0.38
894.104	1.62
894.839	2.62
895.574	1.62
896.309	0.62
897.044	1.62
897.779	-2.38
898.514	3.62
899.248	1.62
899.983	0.62
900.717	-0.38
901.452	-1.38
902.186	2.62
902.92	-0.38
903.654	-0.38
904.389	1.62
905.123	0.62
905.857	2.62
906.59	-1.38
907.324	0.62
908.058	0.62
908.792	1.62
909.525	-0.38
910.259	-1.38
910.992	-2.38
911.726	-0.38
912.459	-0.38
913.192	-0.38
913.925	1.62
914.658	-1.38
915.391	-1.38
916.124	1.62
916.857	-0.38
917.59	1.62
918.323	-0.38
919.055	0.62
919.788	-0.38
920.521	-0.38
921.253	1.62
921.985	-0.38
922.718	2.62
923.45	1.62
924.182	-0.38
924.914	1.62
925.646	-1.38
926.378	1.62
927.11	-0.38
927.841	-0.38
928.573	0.62
929.305	0.62
930.036	-0.38
930.768	0.62
931.499	-0.38
932.23	1.62
932.962	-1.38
933.693	0.62
934.424	0.62
935.155	3.62
935.886	0.62
936.617	-0.38
937.348	-0.38
938.078	-1.38
938.809	0.62
939.54	0.62
940.27	0.62
941.001	0.62
941.731	3.62
942.461	-0.38
943.191	-2.38
943.922	2.62
944.652	0.62
945.382	0.62
946.112	0.62
946.841	-0.38
947.571	0.62
948.301	1.62
949.031	1.62
949.76	-1.38
950.49	0.62
951.219	0.62
951.948	0.62
952.678	1.62
953.407	-0.38
954.136	1.62
954.865	1.62
955.594	-2.38
956.323	1.62
957.052	0.62
957.78	-1.38
958.509	-0.38
959.238	1.62
959.966	1.62
960.695	-0.38
961.423	0.62
962.151	-2.38
962.88	0.62
963.608	-0.38
964.336	-1.38
965.064	-0.38
965.792	0.62
966.52	-0.38
967.247	-0.38
967.975	-0.38
968.703	-1.38
969.43	0.62
970.158	-1.38
970.885	-0.38
971.613	-0.38
972.34	-0.38
973.067	1.62
973.794	-0.38
974.521	0.62
975.248	-0.38
975.975	-1.38
976.702	-0.38
977.429	-3.38
978.156	-0.38
978.882	1.62
979.609	-0.38
980.335	-2.38
981.062	0.62
981.788	-0.38
982.514	-0.38
983.24	1.62
983.967	0.62
984.693	0.62
985.419	-0.38
986.144	-1.38
986.87	-1.38
987.596	0.62
988.322	-0.38
989.047	2.62
989.773	-0.38
990.498	0.62
991.224	0.62
991.949	-0.38
992.674	-1.38
993.399	1.62
994.124	1.62
994.849	-1.38
995.574	1.62
996.299	0.62
997.024	0.62
997.749	1.62
998.473	-2.38
999.198	0.62
999.922	-1.38
1000.647	1.62
1001.371	4.62
1002.095	-1.38
1002.82	-0.38
1003.544	-1.38
1004.268	1.62
1004.992	-0.38
1005.716	-1.38
1006.439	1.62
1007.163	2.62
1007.887	0.62
1008.611	1.62
1009.334	2.62
1010.058	-0.38
1010.781	1.62
1011.504	0.62
1012.228	-0.38
1012.951	-0.38
1013.674	-0.38
1014.397	1.62
1015.12	-2.38
