节点500_285_QEPB04081__726__15-07-37-801.txt的数据

Date: Wed Nov 12 15:07:37 CST 2025
User: PC
Spectrometer: QEPB0408
触发模式: 0
积分时间 (秒): 1.000000E-2
Scans to average: 1
启用暗噪声校正: true
启用非线性校正: false
滑动平均宽度: 0
X轴模式: Wavelengths
Number of Pixels in Spectrum: 1044
>>>>>Begin Spectral Data<<<<<
220.843	1.88
221.644	3.88
222.444	1.88
223.244	2.88
224.045	5.88
224.845	1.88
225.645	2.88
226.445	1.88
227.245	1.88
228.045	2.88
228.845	3.88
229.645	3.88
230.444	2.88
231.244	3.88
232.043	4.88
232.843	1.88
233.642	4.88
234.442	3.88
235.241	5.88
236.04	5.88
236.839	2.88
237.638	1.88
238.437	3.88
239.236	3.88
240.035	5.88
240.833	6.88
241.632	5.88
242.43	4.88
243.229	4.88
244.027	3.88
244.826	5.88
245.624	5.88
246.422	5.88
247.22	7.88
248.018	7.88
248.816	5.88
249.614	5.88
250.412	7.88
251.21	2.88
252.007	6.88
252.805	5.88
253.602	4.88
254.4	7.88
255.197	7.88
255.994	7.88
256.791	8.88
257.589	8.88
258.386	10.88
259.183	7.88
259.979	10.88
260.776	8.88
261.573	10.88
262.37	10.88
263.166	8.88
263.963	10.88
264.759	9.88
265.556	13.88
266.352	13.88
267.148	13.88
267.944	12.88
268.74	12.88
269.536	14.88
270.332	13.88
271.128	12.88
271.924	15.88
272.719	14.88
273.515	15.88
274.311	15.88
275.106	16.88
275.901	13.88
276.697	14.88
277.492	16.88
278.287	17.88
279.082	17.88
279.877	17.88
280.672	17.88
281.467	15.88
282.262	17.88
283.056	16.88
283.851	17.88
284.646	18.88
285.44	14.88
286.234	17.88
287.029	16.88
287.823	15.88
288.617	17.88
289.411	16.88
290.205	17.88
290.999	17.88
291.793	17.88
292.587	19.88
293.381	16.88
294.174	16.88
294.968	15.88
295.761	17.88
296.555	14.88
297.348	17.88
298.141	13.88
298.935	16.88
299.728	16.88
300.521	12.88
301.314	12.88
302.107	17.88
302.899	13.88
303.692	11.88
304.485	10.88
305.277	13.88
306.07	12.88
306.862	13.88
307.655	12.88
308.447	14.88
309.239	11.88
310.031	9.88
310.823	11.88
311.615	10.88
312.407	10.88
313.199	12.88
313.991	11.88
314.783	9.88
315.574	10.88
316.366	8.88
317.157	9.88
317.949	9.88
318.74	9.88
319.531	9.88
320.322	7.88
321.113	9.88
321.904	9.88
322.695	9.88
323.486	8.88
324.277	6.88
325.068	5.88
325.858	9.88
326.649	8.88
327.439	8.88
328.23	7.88
329.02	5.88
329.81	6.88
330.6	4.88
331.391	5.88
332.181	5.88
332.971	7.88
333.76	5.88
334.55	7.88
335.34	6.88
336.13	7.88
336.919	8.88
337.709	5.88
338.498	6.88
339.287	5.88
340.077	6.88
340.866	7.88
341.655	6.88
342.444	7.88
343.233	7.88
344.022	6.88
344.811	7.88
345.6	5.88
346.388	8.88
347.177	5.88
347.965	7.88
348.754	5.88
349.542	5.88
350.33	8.88
351.119	4.88
351.907	5.88
352.695	7.88
353.483	5.88
354.271	6.88
355.059	6.88
355.846	6.88
356.634	6.88
357.422	6.88
358.209	5.88
358.997	5.88
359.784	4.88
360.571	4.88
361.359	5.88
362.146	4.88
362.933	5.88
363.72	5.88
364.507	6.88
365.294	5.88
366.081	6.88
366.867	6.88
367.654	2.88
368.44	7.88
369.227	4.88
370.013	4.88
370.8	6.88
371.586	5.88
372.372	5.88
373.158	4.88
373.944	6.88
374.73	8.88
375.516	6.88
376.302	3.88
377.088	4.88
377.873	5.88
378.659	5.88
379.445	5.88
380.23	7.88
381.015	5.88
381.801	6.88
382.586	5.88
383.371	7.88
384.156	5.88
384.941	4.88
385.726	8.88
386.511	4.88
387.296	6.88
388.08	3.88
388.865	4.88
389.649	5.88
390.434	5.88
391.218	7.88
392.003	3.88
392.787	5.88
393.571	5.88
394.355	5.88
395.139	5.88
395.923	6.88
396.707	5.88
397.491	5.88
398.274	7.88
399.058	7.88
399.842	8.88
400.625	5.88
401.408	6.88
402.192	9.88
402.975	6.88
403.758	8.88
404.541	6.88
405.324	8.88
406.107	8.88
406.89	7.88
407.673	7.88
408.456	7.88
409.238	8.88
410.021	7.88
410.803	8.88
411.586	9.88
412.368	7.88
413.151	5.88
413.933	9.88
414.715	10.88
415.497	6.88
416.279	8.88
417.061	11.88
417.843	8.88
418.624	11.88
419.406	8.88
420.188	12.88
420.969	9.88
421.751	9.88
422.532	12.88
423.313	8.88
424.095	10.88
424.876	11.88
425.657	9.88
426.438	10.88
427.219	10.88
428	16.88
428.78	13.88
429.561	14.88
430.342	12.88
431.122	12.88
431.903	12.88
432.683	15.88
433.464	12.88
434.244	16.88
435.024	16.88
435.804	20.88
436.584	17.88
437.364	18.88
438.144	19.88
438.924	22.88
439.704	23.88
440.483	22.88
441.263	23.88
442.042	24.88
442.822	29.88
443.601	28.88
444.38	32.88
445.16	35.88
445.939	37.88
446.718	37.88
447.497	42.88
448.276	45.88
449.054	48.88
449.833	52.88
450.612	57.88
451.391	62.88
452.169	67.88
452.948	75.88
453.726	79.88
454.504	90.88
455.282	99.88
456.061	109.88
456.839	120.88
457.617	135.88
458.395	152.88
459.172	162.88
459.95	186.88
460.728	211.88
461.506	229.88
462.283	251.88
463.061	285.88
463.838	318.88
464.615	357.88
465.393	396.88
466.17	439.88
466.947	482.88
467.724	540.88
468.501	596.88
469.278	663.88
470.055	733.88
470.831	813.88
471.608	905.88
472.385	993.88
473.161	1085.88
473.938	1215.88
474.714	1333.88
475.49	1473.88
476.266	1606.88
477.043	1755.88
477.819	1925.88
478.595	2118.88
479.371	2327.88
480.146	2557.88
480.922	2798.88
481.698	3058.88
482.473	3328.88
483.249	3679.88
484.024	3979.88
484.8	4357.88
485.575	4756.88
486.35	5205.88
487.126	5691.88
487.901	6200.88
488.676	6712.88
489.451	7332.88
490.225	7941.88
491	8633.88
491.775	9392.88
492.55	10167.88
493.324	10978.88
494.099	11798.88
494.873	12670.88
495.647	13615.88
496.422	14696.88
497.196	15603.88
497.97	16688.88
498.744	17773.88
499.518	18779.88
500.292	19814.88
501.066	20876.88
501.839	21703.88
502.613	22673.88
503.387	23507.88
504.16	24183.88
504.934	24663.88
505.707	24990.88
506.48	25224.88
507.253	25417.88
508.027	25371.88
508.8	25267.88
509.573	25182.88
510.346	24702.88
511.118	24194.88
511.891	23596.88
512.664	22994.88
513.437	22313.88
514.209	21534.88
514.982	20753.88
515.754	19944.88
516.526	19096.88
517.298	18348.88
518.071	17578.88
518.843	16969.88
519.615	16312.88
520.387	15665.88
521.159	15012.88
521.93	14403.88
522.702	13837.88
523.474	13322.88
524.245	12696.88
525.017	12199.88
525.788	11727.88
526.56	11241.88
527.331	10717.88
528.102	10290.88
528.873	9803.88
529.644	9344.88
530.415	8964.88
531.186	8510.88
531.957	8075.88
532.728	7725.88
533.498	7331.88
534.269	6915.88
535.039	6553.88
535.81	6215.88
536.58	5880.88
537.351	5532.88
538.121	5232.88
538.891	4971.88
539.661	4706.88
540.431	4425.88
541.201	4222.88
541.971	3952.88
542.741	3785.88
543.51	3587.88
544.28	3413.88
545.05	3229.88
545.819	3090.88
546.588	2925.88
547.358	2776.88
548.127	2641.88
548.896	2532.88
549.665	2366.88
550.434	2260.88
551.203	2143.88
551.972	2024.88
552.741	1924.88
553.51	1821.88
554.278	1732.88
555.047	1620.88
555.815	1543.88
556.584	1460.88
557.352	1366.88
558.121	1297.88
558.889	1216.88
559.657	1159.88
560.425	1106.88
561.193	1037.88
561.961	968.88
562.729	921.88
563.496	871.88
564.264	822.88
565.032	777.88
565.799	744.88
566.567	702.88
567.334	651.88
568.101	633.88
568.869	583.88
569.636	554.88
570.403	514.88
571.17	493.88
571.937	455.88
572.704	437.88
573.471	416.88
574.237	386.88
575.004	374.88
575.771	344.88
576.537	325.88
577.303	302.88
578.07	287.88
578.836	270.88
579.602	255.88
580.368	241.88
581.134	234.88
581.9	212.88
582.666	210.88
583.432	194.88
584.198	187.88
584.964	178.88
585.729	166.88
586.495	161.88
587.26	152.88
588.025	142.88
588.791	131.88
589.556	128.88
590.321	120.88
591.086	114.88
591.851	108.88
592.616	103.88
593.381	100.88
594.146	97.88
594.911	90.88
595.675	81.88
596.44	82.88
597.204	73.88
597.969	72.88
598.733	71.88
599.497	65.88
600.261	64.88
601.025	62.88
601.79	60.88
602.553	55.88
603.317	56.88
604.081	51.88
604.845	50.88
605.609	46.88
606.372	44.88
607.136	46.88
607.899	41.88
608.662	42.88
609.426	38.88
610.189	36.88
610.952	40.88
611.715	35.88
612.478	36.88
613.241	31.88
614.004	27.88
614.767	28.88
615.529	27.88
616.292	28.88
617.055	23.88
617.817	26.88
618.579	24.88
619.342	25.88
620.104	23.88
620.866	18.88
621.628	20.88
622.39	20.88
623.152	19.88
623.914	20.88
624.676	17.88
625.438	19.88
626.199	18.88
626.961	15.88
627.722	15.88
628.484	15.88
629.245	16.88
630.006	12.88
630.768	16.88
631.529	14.88
632.29	12.88
633.051	14.88
633.812	11.88
634.573	13.88
635.333	11.88
636.094	12.88
636.855	12.88
637.615	12.88
638.376	10.88
639.136	9.88
639.896	11.88
640.657	10.88
641.417	11.88
642.177	10.88
642.937	9.88
643.697	7.88
644.457	8.88
645.216	9.88
645.976	9.88
646.736	9.88
647.495	8.88
648.255	7.88
649.014	8.88
649.774	5.88
650.533	9.88
651.292	8.88
652.051	9.88
652.81	9.88
653.569	6.88
654.328	9.88
655.087	7.88
655.846	7.88
656.604	6.88
657.363	6.88
658.121	6.88
658.88	6.88
659.638	7.88
660.397	5.88
661.155	6.88
661.913	4.88
662.671	6.88
663.429	7.88
664.187	4.88
664.945	4.88
665.703	3.88
666.46	5.88
667.218	5.88
667.976	5.88
668.733	3.88
669.49	5.88
670.248	5.88
671.005	3.88
671.762	5.88
672.519	6.88
673.276	2.88
674.033	5.88
674.79	5.88
675.547	4.88
676.304	5.88
677.06	5.88
677.817	5.88
678.574	6.88
679.33	4.88
680.086	3.88
680.843	4.88
681.599	3.88
682.355	2.88
683.111	4.88
683.867	3.88
684.623	3.88
685.379	4.88
686.135	1.88
686.89	4.88
687.646	2.88
688.402	4.88
689.157	3.88
689.912	3.88
690.668	2.88
691.423	5.88
692.178	5.88
692.933	4.88
693.688	3.88
694.443	3.88
695.198	4.88
695.953	2.88
696.708	3.88
697.462	2.88
698.217	2.88
698.972	5.88
699.726	5.88
700.48	3.88
701.235	3.88
701.989	3.88
702.743	2.88
703.497	2.88
704.251	3.88
705.005	3.88
705.759	2.88
706.513	5.88
707.266	5.88
708.02	4.88
708.774	2.88
709.527	1.88
710.28	5.88
711.034	4.88
711.787	6.88
712.54	4.88
713.293	2.88
714.046	2.88
714.799	6.88
715.552	2.88
716.305	2.88
717.058	2.88
717.81	6.88
718.563	3.88
719.315	4.88
720.068	4.88
720.82	3.88
721.573	2.88
722.325	4.88
723.077	5.88
723.829	4.88
724.581	6.88
725.333	3.88
726.085	4.88
726.836	3.88
727.588	4.88
728.34	4.88
729.091	3.88
729.843	5.88
730.594	4.88
731.346	5.88
732.097	3.88
732.848	5.88
733.599	0.88
734.35	2.88
735.101	2.88
735.852	3.88
736.603	4.88
737.354	3.88
738.104	5.88
738.855	6.88
739.605	4.88
740.356	4.88
741.106	4.88
741.856	5.88
742.607	5.88
743.357	6.88
744.107	4.88
744.857	5.88
745.607	6.88
746.357	6.88
747.106	5.88
747.856	2.88
748.606	4.88
749.355	5.88
750.105	2.88
750.854	4.88
751.603	3.88
752.353	4.88
753.102	6.88
753.851	5.88
754.6	4.88
755.349	5.88
756.098	4.88
756.847	3.88
757.595	6.88
758.344	5.88
759.093	5.88
759.841	6.88
760.589	6.88
761.338	8.88
762.086	2.88
762.834	8.88
763.582	7.88
764.331	6.88
765.079	6.88
765.826	6.88
766.574	6.88
767.322	8.88
768.07	7.88
768.817	7.88
769.565	5.88
770.312	7.88
771.06	8.88
771.807	9.88
772.554	8.88
773.302	10.88
774.049	6.88
774.796	5.88
775.543	8.88
776.29	7.88
777.036	8.88
777.783	6.88
778.53	8.88
779.276	9.88
780.023	7.88
780.769	8.88
781.516	10.88
782.262	9.88
783.008	10.88
783.754	9.88
784.5	9.88
785.246	8.88
785.992	9.88
786.738	10.88
787.484	10.88
788.23	7.88
788.975	8.88
789.721	10.88
790.466	7.88
791.212	7.88
791.957	8.88
792.702	8.88
793.447	11.88
794.193	6.88
794.938	7.88
795.683	9.88
796.427	9.88
797.172	7.88
797.917	6.88
798.662	9.88
799.406	7.88
800.151	8.88
800.895	4.88
801.64	9.88
802.384	6.88
803.128	6.88
803.872	7.88
804.616	8.88
805.36	6.88
806.104	5.88
806.848	5.88
807.592	5.88
808.336	5.88
809.079	7.88
809.823	4.88
810.566	7.88
811.31	7.88
812.053	7.88
812.796	6.88
813.539	6.88
814.283	4.88
815.026	5.88
815.769	5.88
816.511	5.88
817.254	8.88
817.997	5.88
818.74	5.88
819.482	5.88
820.225	4.88
820.967	5.88
821.71	1.88
822.452	6.88
823.194	4.88
823.936	2.88
824.678	5.88
825.42	3.88
826.162	5.88
826.904	5.88
827.646	5.88
828.388	4.88
829.129	2.88
829.871	4.88
830.612	4.88
831.354	4.88
832.095	3.88
832.836	4.88
833.577	4.88
834.319	4.88
835.06	4.88
835.801	3.88
836.542	3.88
837.282	5.88
838.023	1.88
838.764	5.88
839.504	1.88
840.245	5.88
840.985	2.88
841.726	5.88
842.466	-0.12
843.206	2.88
843.946	5.88
844.687	2.88
845.427	4.88
846.166	3.88
846.906	2.88
847.646	1.88
848.386	3.88
849.125	4.88
849.865	3.88
850.605	3.88
851.344	5.88
852.083	2.88
852.823	3.88
853.562	4.88
854.301	4.88
855.04	3.88
855.779	2.88
856.518	4.88
857.257	1.88
857.995	4.88
858.734	2.88
859.473	3.88
860.211	4.88
860.95	2.88
861.688	1.88
862.426	2.88
863.165	1.88
863.903	2.88
864.641	3.88
865.379	4.88
866.117	0.88
866.855	3.88
867.593	2.88
868.33	1.88
869.068	2.88
869.806	1.88
870.543	1.88
871.28	1.88
872.018	3.88
872.755	0.88
873.492	1.88
874.229	1.88
874.967	1.88
875.703	2.88
876.44	1.88
877.177	1.88
877.914	2.88
878.651	2.88
879.387	0.88
880.124	-0.12
880.86	2.88
881.597	1.88
882.333	2.88
883.069	2.88
883.806	1.88
884.542	2.88
885.278	0.88
886.014	2.88
886.749	-0.12
887.485	2.88
888.221	2.88
888.957	-1.12
889.692	1.88
890.428	1.88
891.163	2.88
891.899	-0.12
892.634	-1.12
893.369	0.88
894.104	2.88
894.839	2.88
895.574	-0.12
896.309	0.88
897.044	0.88
897.779	2.88
898.514	1.88
899.248	1.88
899.983	2.88
900.717	2.88
901.452	-0.12
902.186	1.88
902.92	0.88
903.654	1.88
904.389	0.88
905.123	0.88
905.857	0.88
906.59	2.88
907.324	-0.12
908.058	1.88
908.792	2.88
909.525	-1.12
910.259	2.88
910.992	-0.12
911.726	1.88
912.459	1.88
913.192	2.88
913.925	0.88
914.658	0.88
915.391	0.88
916.124	0.88
916.857	0.88
917.59	-0.12
918.323	-0.12
919.055	0.88
919.788	0.88
920.521	1.88
921.253	-0.12
921.985	1.88
922.718	-2.12
923.45	1.88
924.182	0.88
924.914	0.88
925.646	0.88
926.378	2.88
927.11	1.88
927.841	0.88
928.573	0.88
929.305	1.88
930.036	-0.12
930.768	-0.12
931.499	1.88
932.23	0.88
932.962	0.88
933.693	-0.12
934.424	-0.12
935.155	1.88
935.886	2.88
936.617	2.88
937.348	-0.12
938.078	2.88
938.809	1.88
939.54	2.88
940.27	2.88
941.001	-2.12
941.731	0.88
942.461	0.88
943.191	0.88
943.922	1.88
944.652	1.88
945.382	1.88
946.112	-1.12
946.841	0.88
947.571	-2.12
948.301	0.88
949.031	-1.12
949.76	-1.12
950.49	1.88
951.219	-0.12
951.948	1.88
952.678	-0.12
953.407	1.88
954.136	0.88
954.865	1.88
955.594	0.88
956.323	3.88
957.052	1.88
957.78	0.88
958.509	1.88
959.238	1.88
959.966	-0.12
960.695	0.88
961.423	-0.12
962.151	0.88
962.88	1.88
963.608	0.88
964.336	1.88
965.064	0.88
965.792	2.88
966.52	0.88
967.247	0.88
967.975	0.88
968.703	0.88
969.43	-0.12
970.158	1.88
970.885	0.88
971.613	-0.12
972.34	2.88
973.067	1.88
973.794	-0.12
974.521	2.88
975.248	-0.12
975.975	-0.12
976.702	0.88
977.429	2.88
978.156	-0.12
978.882	-0.12
979.609	2.88
980.335	0.88
981.062	2.88
981.788	0.88
982.514	0.88
983.24	0.88
983.967	2.88
984.693	1.88
985.419	-0.12
986.144	-0.12
986.87	2.88
987.596	0.88
988.322	1.88
989.047	1.88
989.773	0.88
990.498	1.88
991.224	0.88
991.949	2.88
992.674	-0.12
993.399	0.88
994.124	-1.12
994.849	2.88
995.574	0.88
996.299	0.88
997.024	0.88
997.749	2.88
998.473	-1.12
999.198	-0.12
999.922	1.88
1000.647	-1.12
1001.371	4.88
1002.095	-3.12
1002.82	0.88
1003.544	-3.12
1004.268	3.88
1004.992	1.88
1005.716	2.88
1006.439	2.88
1007.163	1.88
1007.887	4.88
1008.611	-1.12
1009.334	1.88
1010.058	-0.12
1010.781	1.88
1011.504	1.88
1012.228	2.88
1012.951	0.88
1013.674	-1.12
1014.397	-0.12
1015.12	0.88
