节点500_285_QEPB04081__622__15-05-54-096.txt的数据

Date: Wed Nov 12 15:05:54 CST 2025
User: PC
Spectrometer: QEPB0408
触发模式: 0
积分时间 (秒): 1.000000E-2
Scans to average: 1
启用暗噪声校正: true
启用非线性校正: false
滑动平均宽度: 0
X轴模式: Wavelengths
Number of Pixels in Spectrum: 1044
>>>>>Begin Spectral Data<<<<<
220.843	1.75
221.644	0.75
222.444	1.75
223.244	1.75
224.045	1.75
224.845	0.75
225.645	-0.25
226.445	1.75
227.245	3.75
228.045	0.75
228.845	1.75
229.645	1.75
230.444	2.75
231.244	3.75
232.043	2.75
232.843	4.75
233.642	4.75
234.442	2.75
235.241	2.75
236.04	1.75
236.839	4.75
237.638	2.75
238.437	3.75
239.236	4.75
240.035	3.75
240.833	4.75
241.632	4.75
242.43	4.75
243.229	2.75
244.027	6.75
244.826	4.75
245.624	5.75
246.422	7.75
247.22	6.75
248.018	3.75
248.816	3.75
249.614	6.75
250.412	5.75
251.21	4.75
252.007	5.75
252.805	5.75
253.602	6.75
254.4	5.75
255.197	8.75
255.994	8.75
256.791	6.75
257.589	6.75
258.386	8.75
259.183	7.75
259.979	9.75
260.776	7.75
261.573	9.75
262.37	10.75
263.166	11.75
263.963	9.75
264.759	11.75
265.556	12.75
266.352	7.75
267.148	11.75
267.944	11.75
268.74	15.75
269.536	11.75
270.332	13.75
271.128	12.75
271.924	11.75
272.719	14.75
273.515	14.75
274.311	12.75
275.106	17.75
275.901	15.75
276.697	15.75
277.492	15.75
278.287	17.75
279.082	16.75
279.877	17.75
280.672	19.75
281.467	16.75
282.262	19.75
283.056	15.75
283.851	18.75
284.646	18.75
285.44	15.75
286.234	17.75
287.029	16.75
287.823	16.75
288.617	18.75
289.411	19.75
290.205	18.75
290.999	14.75
291.793	16.75
292.587	16.75
293.381	18.75
294.174	16.75
294.968	14.75
295.761	14.75
296.555	13.75
297.348	13.75
298.141	13.75
298.935	15.75
299.728	13.75
300.521	14.75
301.314	11.75
302.107	12.75
302.899	13.75
303.692	12.75
304.485	13.75
305.277	13.75
306.07	13.75
306.862	12.75
307.655	10.75
308.447	11.75
309.239	12.75
310.031	12.75
310.823	12.75
311.615	10.75
312.407	9.75
313.199	8.75
313.991	10.75
314.783	8.75
315.574	7.75
316.366	8.75
317.157	7.75
317.949	9.75
318.74	7.75
319.531	10.75
320.322	6.75
321.113	7.75
321.904	5.75
322.695	5.75
323.486	8.75
324.277	6.75
325.068	6.75
325.858	7.75
326.649	6.75
327.439	6.75
328.23	6.75
329.02	6.75
329.81	7.75
330.6	7.75
331.391	6.75
332.181	6.75
332.971	5.75
333.76	5.75
334.55	6.75
335.34	6.75
336.13	4.75
336.919	6.75
337.709	4.75
338.498	6.75
339.287	6.75
340.077	5.75
340.866	5.75
341.655	5.75
342.444	5.75
343.233	3.75
344.022	6.75
344.811	5.75
345.6	7.75
346.388	6.75
347.177	6.75
347.965	2.75
348.754	2.75
349.542	6.75
350.33	6.75
351.119	7.75
351.907	6.75
352.695	5.75
353.483	4.75
354.271	5.75
355.059	4.75
355.846	5.75
356.634	3.75
357.422	6.75
358.209	5.75
358.997	6.75
359.784	4.75
360.571	7.75
361.359	5.75
362.146	6.75
362.933	5.75
363.72	4.75
364.507	6.75
365.294	4.75
366.081	6.75
366.867	3.75
367.654	6.75
368.44	4.75
369.227	1.75
370.013	4.75
370.8	4.75
371.586	2.75
372.372	2.75
373.158	4.75
373.944	2.75
374.73	5.75
375.516	5.75
376.302	3.75
377.088	3.75
377.873	5.75
378.659	4.75
379.445	4.75
380.23	5.75
381.015	3.75
381.801	4.75
382.586	4.75
383.371	5.75
384.156	3.75
384.941	5.75
385.726	5.75
386.511	5.75
387.296	4.75
388.08	4.75
388.865	5.75
389.649	4.75
390.434	4.75
391.218	5.75
392.003	3.75
392.787	4.75
393.571	4.75
394.355	7.75
395.139	7.75
395.923	7.75
396.707	6.75
397.491	4.75
398.274	8.75
399.058	6.75
399.842	6.75
400.625	6.75
401.408	8.75
402.192	6.75
402.975	8.75
403.758	6.75
404.541	7.75
405.324	8.75
406.107	8.75
406.89	8.75
407.673	7.75
408.456	6.75
409.238	7.75
410.021	6.75
410.803	6.75
411.586	6.75
412.368	7.75
413.151	6.75
413.933	8.75
414.715	8.75
415.497	9.75
416.279	10.75
417.061	9.75
417.843	9.75
418.624	11.75
419.406	8.75
420.188	10.75
420.969	8.75
421.751	10.75
422.532	9.75
423.313	11.75
424.095	12.75
424.876	9.75
425.657	10.75
426.438	8.75
427.219	14.75
428	13.75
428.78	10.75
429.561	12.75
430.342	11.75
431.122	14.75
431.903	16.75
432.683	15.75
433.464	13.75
434.244	16.75
435.024	16.75
435.804	17.75
436.584	16.75
437.364	18.75
438.144	19.75
438.924	23.75
439.704	22.75
440.483	27.75
441.263	23.75
442.042	23.75
442.822	28.75
443.601	31.75
444.38	32.75
445.16	30.75
445.939	38.75
446.718	37.75
447.497	40.75
448.276	44.75
449.054	46.75
449.833	49.75
450.612	53.75
451.391	64.75
452.169	64.75
452.948	76.75
453.726	77.75
454.504	89.75
455.282	94.75
456.061	106.75
456.839	117.75
457.617	130.75
458.395	141.75
459.172	165.75
459.95	171.75
460.728	201.75
461.506	222.75
462.283	240.75
463.061	282.75
463.838	310.75
464.615	345.75
465.393	381.75
466.17	429.75
466.947	472.75
467.724	530.75
468.501	583.75
469.278	649.75
470.055	733.75
470.831	797.75
471.608	889.75
472.385	979.75
473.161	1075.75
473.938	1191.75
474.714	1327.75
475.49	1467.75
476.266	1607.75
477.043	1772.75
477.819	1928.75
478.595	2128.75
479.371	2338.75
480.146	2573.75
480.922	2832.75
481.698	3110.75
482.473	3383.75
483.249	3715.75
484.024	4086.75
484.8	4457.75
485.575	4896.75
486.35	5309.75
487.126	5841.75
487.901	6403.75
488.676	6907.75
489.451	7579.75
490.225	8243.75
491	8924.75
491.775	9796.75
492.55	10556.75
493.324	11440.75
494.099	12294.75
494.873	13184.75
495.647	14238.75
496.422	15284.75
497.196	16346.75
497.97	17389.75
498.744	18468.75
499.518	19591.75
500.292	20695.75
501.066	21725.75
501.839	22656.75
502.613	23591.75
503.387	24453.75
504.16	25102.75
504.934	25593.75
505.707	25852.75
506.48	25988.75
507.253	26095.75
508.027	26009.75
508.8	25843.75
509.573	25587.75
510.346	25082.75
511.118	24518.75
511.891	23928.75
512.664	23198.75
513.437	22453.75
514.209	21581.75
514.982	20770.75
515.754	19870.75
516.526	19099.75
517.298	18286.75
518.071	17497.75
518.843	16865.75
519.615	16248.75
520.387	15572.75
521.159	14951.75
521.93	14306.75
522.702	13761.75
523.474	13267.75
524.245	12682.75
525.017	12149.75
525.788	11633.75
526.56	11152.75
527.331	10650.75
528.102	10168.75
528.873	9761.75
529.644	9285.75
530.415	8856.75
531.186	8377.75
531.957	7975.75
532.728	7643.75
533.498	7216.75
534.269	6830.75
535.039	6471.75
535.81	6087.75
536.58	5774.75
537.351	5432.75
538.121	5133.75
538.891	4872.75
539.661	4618.75
540.431	4365.75
541.201	4095.75
541.971	3881.75
542.741	3704.75
543.51	3529.75
544.28	3333.75
545.05	3194.75
545.819	3011.75
546.588	2867.75
547.358	2741.75
548.127	2615.75
548.896	2472.75
549.665	2356.75
550.434	2233.75
551.203	2110.75
551.972	1993.75
552.741	1891.75
553.51	1787.75
554.278	1698.75
555.047	1594.75
555.815	1492.75
556.584	1442.75
557.352	1348.75
558.121	1257.75
558.889	1200.75
559.657	1132.75
560.425	1080.75
561.193	998.75
561.961	948.75
562.729	893.75
563.496	851.75
564.264	803.75
565.032	748.75
565.799	723.75
566.567	684.75
567.334	645.75
568.101	604.75
568.869	572.75
569.636	543.75
570.403	505.75
571.17	477.75
571.937	451.75
572.704	428.75
573.471	404.75
574.237	375.75
575.004	355.75
575.771	338.75
576.537	316.75
577.303	291.75
578.07	280.75
578.836	265.75
579.602	253.75
580.368	239.75
581.134	219.75
581.9	212.75
582.666	199.75
583.432	187.75
584.198	180.75
584.964	162.75
585.729	166.75
586.495	155.75
587.26	149.75
588.025	136.75
588.791	125.75
589.556	122.75
590.321	114.75
591.086	110.75
591.851	104.75
592.616	98.75
593.381	95.75
594.146	85.75
594.911	87.75
595.675	85.75
596.44	82.75
597.204	75.75
597.969	70.75
598.733	69.75
599.497	62.75
600.261	64.75
601.025	57.75
601.79	56.75
602.553	52.75
603.317	51.75
604.081	47.75
604.845	49.75
605.609	49.75
606.372	44.75
607.136	44.75
607.899	42.75
608.662	35.75
609.426	36.75
610.189	34.75
610.952	34.75
611.715	34.75
612.478	30.75
613.241	29.75
614.004	30.75
614.767	29.75
615.529	28.75
616.292	30.75
617.055	27.75
617.817	23.75
618.579	21.75
619.342	25.75
620.104	21.75
620.866	20.75
621.628	21.75
622.39	19.75
623.152	17.75
623.914	20.75
624.676	17.75
625.438	15.75
626.199	14.75
626.961	17.75
627.722	14.75
628.484	12.75
629.245	12.75
630.006	13.75
630.768	14.75
631.529	11.75
632.29	11.75
633.051	13.75
633.812	11.75
634.573	13.75
635.333	8.75
636.094	10.75
636.855	8.75
637.615	11.75
638.376	10.75
639.136	11.75
639.896	11.75
640.657	9.75
641.417	7.75
642.177	10.75
642.937	8.75
643.697	8.75
644.457	8.75
645.216	8.75
645.976	8.75
646.736	7.75
647.495	7.75
648.255	7.75
649.014	9.75
649.774	5.75
650.533	8.75
651.292	6.75
652.051	5.75
652.81	8.75
653.569	6.75
654.328	7.75
655.087	6.75
655.846	5.75
656.604	3.75
657.363	4.75
658.121	7.75
658.88	4.75
659.638	5.75
660.397	3.75
661.155	1.75
661.913	4.75
662.671	3.75
663.429	6.75
664.187	6.75
664.945	4.75
665.703	5.75
666.46	4.75
667.218	3.75
667.976	4.75
668.733	4.75
669.49	3.75
670.248	4.75
671.005	6.75
671.762	3.75
672.519	3.75
673.276	8.75
674.033	5.75
674.79	0.75
675.547	7.75
676.304	3.75
677.06	2.75
677.817	5.75
678.574	0.75
679.33	2.75
680.086	2.75
680.843	1.75
681.599	6.75
682.355	3.75
683.111	2.75
683.867	2.75
684.623	1.75
685.379	4.75
686.135	3.75
686.89	5.75
687.646	5.75
688.402	3.75
689.157	2.75
689.912	2.75
690.668	4.75
691.423	3.75
692.178	4.75
692.933	4.75
693.688	6.75
694.443	3.75
695.198	2.75
695.953	1.75
696.708	3.75
697.462	4.75
698.217	3.75
698.972	2.75
699.726	2.75
700.48	2.75
701.235	3.75
701.989	0.75
702.743	4.75
703.497	1.75
704.251	5.75
705.005	3.75
705.759	3.75
706.513	2.75
707.266	3.75
708.02	3.75
708.774	4.75
709.527	4.75
710.28	3.75
711.034	2.75
711.787	3.75
712.54	4.75
713.293	4.75
714.046	6.75
714.799	3.75
715.552	3.75
716.305	1.75
717.058	3.75
717.81	2.75
718.563	4.75
719.315	2.75
720.068	2.75
720.82	2.75
721.573	4.75
722.325	1.75
723.077	4.75
723.829	5.75
724.581	3.75
725.333	1.75
726.085	4.75
726.836	3.75
727.588	3.75
728.34	4.75
729.091	4.75
729.843	2.75
730.594	1.75
731.346	3.75
732.097	2.75
732.848	3.75
733.599	5.75
734.35	3.75
735.101	4.75
735.852	4.75
736.603	3.75
737.354	4.75
738.104	4.75
738.855	5.75
739.605	4.75
740.356	4.75
741.106	1.75
741.856	4.75
742.607	4.75
743.357	4.75
744.107	4.75
744.857	3.75
745.607	3.75
746.357	3.75
747.106	3.75
747.856	4.75
748.606	5.75
749.355	3.75
750.105	2.75
750.854	5.75
751.603	5.75
752.353	7.75
753.102	6.75
753.851	3.75
754.6	5.75
755.349	4.75
756.098	5.75
756.847	5.75
757.595	5.75
758.344	6.75
759.093	3.75
759.841	3.75
760.589	2.75
761.338	8.75
762.086	3.75
762.834	4.75
763.582	5.75
764.331	3.75
765.079	6.75
765.826	4.75
766.574	8.75
767.322	5.75
768.07	6.75
768.817	5.75
769.565	6.75
770.312	6.75
771.06	8.75
771.807	5.75
772.554	6.75
773.302	4.75
774.049	5.75
774.796	6.75
775.543	8.75
776.29	5.75
777.036	7.75
777.783	9.75
778.53	8.75
779.276	8.75
780.023	7.75
780.769	7.75
781.516	8.75
782.262	7.75
783.008	6.75
783.754	8.75
784.5	8.75
785.246	8.75
785.992	6.75
786.738	8.75
787.484	10.75
788.23	9.75
788.975	9.75
789.721	8.75
790.466	9.75
791.212	6.75
791.957	5.75
792.702	8.75
793.447	7.75
794.193	6.75
794.938	8.75
795.683	9.75
796.427	5.75
797.172	6.75
797.917	6.75
798.662	8.75
799.406	6.75
800.151	6.75
800.895	8.75
801.64	6.75
802.384	9.75
803.128	7.75
803.872	7.75
804.616	4.75
805.36	5.75
806.104	6.75
806.848	6.75
807.592	5.75
808.336	6.75
809.079	7.75
809.823	6.75
810.566	6.75
811.31	7.75
812.053	6.75
812.796	3.75
813.539	4.75
814.283	6.75
815.026	4.75
815.769	4.75
816.511	5.75
817.254	1.75
817.997	6.75
818.74	5.75
819.482	4.75
820.225	2.75
820.967	0.75
821.71	4.75
822.452	3.75
823.194	4.75
823.936	1.75
824.678	5.75
825.42	5.75
826.162	1.75
826.904	2.75
827.646	1.75
828.388	3.75
829.129	5.75
829.871	7.75
830.612	3.75
831.354	3.75
832.095	5.75
832.836	3.75
833.577	3.75
834.319	2.75
835.06	4.75
835.801	3.75
836.542	2.75
837.282	2.75
838.023	2.75
838.764	2.75
839.504	2.75
840.245	1.75
840.985	3.75
841.726	0.75
842.466	5.75
843.206	4.75
843.946	2.75
844.687	1.75
845.427	1.75
846.166	3.75
846.906	1.75
847.646	3.75
848.386	3.75
849.125	1.75
849.865	3.75
850.605	1.75
851.344	0.75
852.083	2.75
852.823	2.75
853.562	2.75
854.301	2.75
855.04	2.75
855.779	0.75
856.518	4.75
857.257	2.75
857.995	2.75
858.734	1.75
859.473	1.75
860.211	-0.25
860.95	1.75
861.688	2.75
862.426	1.75
863.165	1.75
863.903	1.75
864.641	3.75
865.379	1.75
866.117	1.75
866.855	0.75
867.593	-0.25
868.33	1.75
869.068	3.75
869.806	-1.25
870.543	3.75
871.28	0.75
872.018	2.75
872.755	-0.25
873.492	2.75
874.229	2.75
874.967	0.75
875.703	1.75
876.44	2.75
877.177	0.75
877.914	0.75
878.651	0.75
879.387	1.75
880.124	1.75
880.86	1.75
881.597	0.75
882.333	0.75
883.069	1.75
883.806	-2.25
884.542	0.75
885.278	1.75
886.014	1.75
886.749	1.75
887.485	-0.25
888.221	1.75
888.957	-0.25
889.692	1.75
890.428	1.75
891.163	1.75
891.899	2.75
892.634	-0.25
893.369	-0.25
894.104	-1.25
894.839	0.75
895.574	-0.25
896.309	1.75
897.044	-1.25
897.779	-1.25
898.514	-0.25
899.248	-1.25
899.983	1.75
900.717	-2.25
901.452	-1.25
902.186	1.75
902.92	-1.25
903.654	-0.25
904.389	-1.25
905.123	-2.25
905.857	0.75
906.59	1.75
907.324	-0.25
908.058	0.75
908.792	0.75
909.525	0.75
910.259	-0.25
910.992	0.75
911.726	-0.25
912.459	1.75
913.192	0.75
913.925	-1.25
914.658	-0.25
915.391	-1.25
916.124	0.75
916.857	-1.25
917.59	0.75
918.323	-1.25
919.055	0.75
919.788	1.75
920.521	-1.25
921.253	-0.25
921.985	-0.25
922.718	0.75
923.45	2.75
924.182	-0.25
924.914	1.75
925.646	1.75
926.378	-0.25
927.11	-1.25
927.841	-1.25
928.573	-2.25
929.305	-2.25
930.036	-1.25
930.768	-0.25
931.499	1.75
932.23	-0.25
932.962	2.75
933.693	-1.25
934.424	-1.25
935.155	0.75
935.886	-2.25
936.617	-0.25
937.348	2.75
938.078	-1.25
938.809	-2.25
939.54	-2.25
940.27	-0.25
941.001	0.75
941.731	1.75
942.461	0.75
943.191	0.75
943.922	0.75
944.652	-0.25
945.382	-0.25
946.112	-0.25
946.841	-2.25
947.571	-0.25
948.301	-1.25
949.031	-0.25
949.76	-1.25
950.49	-0.25
951.219	-0.25
951.948	-0.25
952.678	-1.25
953.407	1.75
954.136	0.75
954.865	-0.25
955.594	-0.25
956.323	1.75
957.052	-2.25
957.78	-0.25
958.509	0.75
959.238	1.75
959.966	0.75
960.695	1.75
961.423	1.75
962.151	-1.25
962.88	0.75
963.608	-0.25
964.336	1.75
965.064	-0.25
965.792	-1.25
966.52	-0.25
967.247	0.75
967.975	1.75
968.703	-2.25
969.43	1.75
970.158	-0.25
970.885	3.75
971.613	0.75
972.34	0.75
973.067	-0.25
973.794	0.75
974.521	-0.25
975.248	3.75
975.975	-2.25
976.702	-0.25
977.429	-1.25
978.156	1.75
978.882	0.75
979.609	-0.25
980.335	-1.25
981.062	-0.25
981.788	-1.25
982.514	-0.25
983.24	1.75
983.967	-0.25
984.693	-2.25
985.419	0.75
986.144	-0.25
986.87	1.75
987.596	-0.25
988.322	2.75
989.047	0.75
989.773	0.75
990.498	-0.25
991.224	-0.25
991.949	1.75
992.674	-1.25
993.399	-0.25
994.124	1.75
994.849	-0.25
995.574	-0.25
996.299	-2.25
997.024	-0.25
997.749	-2.25
998.473	1.75
999.198	-2.25
999.922	0.75
1000.647	-0.25
1001.371	1.75
1002.095	-0.25
1002.82	0.75
1003.544	-3.25
1004.268	0.75
1004.992	0.75
1005.716	1.75
1006.439	1.75
1007.163	1.75
1007.887	1.75
1008.611	-0.25
1009.334	0.75
1010.058	0.75
1010.781	0.75
1011.504	0.75
1012.228	-2.25
1012.951	0.75
1013.674	0.75
1014.397	-2.25
1015.12	1.75
