节点500_285_QEPB04081__427__15-02-39-553.txt的数据

Date: Wed Nov 12 15:02:39 CST 2025
User: PC
Spectrometer: QEPB0408
触发模式: 0
积分时间 (秒): 1.000000E-2
Scans to average: 1
启用暗噪声校正: true
启用非线性校正: false
滑动平均宽度: 0
X轴模式: Wavelengths
Number of Pixels in Spectrum: 1044
>>>>>Begin Spectral Data<<<<<
220.843	3.5
221.644	-0.5
222.444	5.5
223.244	4.5
224.045	2.5
224.845	1.5
225.645	4.5
226.445	3.5
227.245	2.5
228.045	2.5
228.845	2.5
229.645	2.5
230.444	3.5
231.244	3.5
232.043	5.5
232.843	2.5
233.642	5.5
234.442	5.5
235.241	4.5
236.04	3.5
236.839	4.5
237.638	6.5
238.437	4.5
239.236	5.5
240.035	5.5
240.833	4.5
241.632	5.5
242.43	4.5
243.229	6.5
244.027	4.5
244.826	7.5
245.624	5.5
246.422	4.5
247.22	6.5
248.018	4.5
248.816	5.5
249.614	7.5
250.412	5.5
251.21	8.5
252.007	6.5
252.805	6.5
253.602	7.5
254.4	5.5
255.197	9.5
255.994	8.5
256.791	8.5
257.589	7.5
258.386	9.5
259.183	9.5
259.979	11.5
260.776	10.5
261.573	8.5
262.37	12.5
263.166	10.5
263.963	11.5
264.759	11.5
265.556	13.5
266.352	14.5
267.148	13.5
267.944	14.5
268.74	15.5
269.536	11.5
270.332	15.5
271.128	14.5
271.924	17.5
272.719	15.5
273.515	16.5
274.311	18.5
275.106	15.5
275.901	15.5
276.697	14.5
277.492	17.5
278.287	20.5
279.082	16.5
279.877	18.5
280.672	16.5
281.467	17.5
282.262	18.5
283.056	18.5
283.851	16.5
284.646	20.5
285.44	20.5
286.234	19.5
287.029	19.5
287.823	18.5
288.617	17.5
289.411	20.5
290.205	18.5
290.999	18.5
291.793	21.5
292.587	21.5
293.381	16.5
294.174	17.5
294.968	18.5
295.761	15.5
296.555	16.5
297.348	13.5
298.141	12.5
298.935	17.5
299.728	15.5
300.521	17.5
301.314	15.5
302.107	14.5
302.899	15.5
303.692	14.5
304.485	13.5
305.277	14.5
306.07	14.5
306.862	13.5
307.655	14.5
308.447	12.5
309.239	9.5
310.031	8.5
310.823	11.5
311.615	10.5
312.407	10.5
313.199	10.5
313.991	9.5
314.783	8.5
315.574	8.5
316.366	10.5
317.157	10.5
317.949	7.5
318.74	8.5
319.531	9.5
320.322	10.5
321.113	10.5
321.904	10.5
322.695	9.5
323.486	7.5
324.277	6.5
325.068	9.5
325.858	7.5
326.649	7.5
327.439	7.5
328.23	5.5
329.02	8.5
329.81	7.5
330.6	6.5
331.391	6.5
332.181	9.5
332.971	6.5
333.76	5.5
334.55	7.5
335.34	6.5
336.13	7.5
336.919	7.5
337.709	8.5
338.498	5.5
339.287	7.5
340.077	6.5
340.866	6.5
341.655	8.5
342.444	7.5
343.233	6.5
344.022	8.5
344.811	6.5
345.6	4.5
346.388	7.5
347.177	6.5
347.965	7.5
348.754	6.5
349.542	6.5
350.33	5.5
351.119	6.5
351.907	6.5
352.695	8.5
353.483	6.5
354.271	8.5
355.059	5.5
355.846	5.5
356.634	3.5
357.422	5.5
358.209	5.5
358.997	4.5
359.784	5.5
360.571	5.5
361.359	4.5
362.146	6.5
362.933	4.5
363.72	4.5
364.507	5.5
365.294	8.5
366.081	6.5
366.867	5.5
367.654	8.5
368.44	5.5
369.227	5.5
370.013	8.5
370.8	4.5
371.586	5.5
372.372	5.5
373.158	9.5
373.944	4.5
374.73	5.5
375.516	7.5
376.302	7.5
377.088	5.5
377.873	4.5
378.659	3.5
379.445	5.5
380.23	3.5
381.015	5.5
381.801	4.5
382.586	5.5
383.371	6.5
384.156	7.5
384.941	5.5
385.726	6.5
386.511	5.5
387.296	6.5
388.08	6.5
388.865	4.5
389.649	4.5
390.434	5.5
391.218	4.5
392.003	7.5
392.787	6.5
393.571	7.5
394.355	6.5
395.139	5.5
395.923	6.5
396.707	6.5
397.491	9.5
398.274	6.5
399.058	6.5
399.842	6.5
400.625	9.5
401.408	7.5
402.192	6.5
402.975	9.5
403.758	8.5
404.541	8.5
405.324	7.5
406.107	7.5
406.89	9.5
407.673	10.5
408.456	8.5
409.238	8.5
410.021	8.5
410.803	9.5
411.586	10.5
412.368	9.5
413.151	8.5
413.933	8.5
414.715	11.5
415.497	11.5
416.279	9.5
417.061	9.5
417.843	10.5
418.624	9.5
419.406	11.5
420.188	9.5
420.969	10.5
421.751	8.5
422.532	13.5
423.313	10.5
424.095	10.5
424.876	14.5
425.657	12.5
426.438	14.5
427.219	14.5
428	9.5
428.78	11.5
429.561	13.5
430.342	13.5
431.122	16.5
431.903	15.5
432.683	16.5
433.464	14.5
434.244	14.5
435.024	18.5
435.804	15.5
436.584	20.5
437.364	19.5
438.144	19.5
438.924	23.5
439.704	21.5
440.483	26.5
441.263	26.5
442.042	28.5
442.822	30.5
443.601	28.5
444.38	28.5
445.16	33.5
445.939	35.5
446.718	38.5
447.497	40.5
448.276	44.5
449.054	44.5
449.833	49.5
450.612	52.5
451.391	60.5
452.169	62.5
452.948	69.5
453.726	76.5
454.504	80.5
455.282	98.5
456.061	99.5
456.839	114.5
457.617	125.5
458.395	141.5
459.172	154.5
459.95	172.5
460.728	190.5
461.506	212.5
462.283	233.5
463.061	266.5
463.838	290.5
464.615	332.5
465.393	370.5
466.17	404.5
466.947	456.5
467.724	509.5
468.501	560.5
469.278	629.5
470.055	716.5
470.831	776.5
471.608	866.5
472.385	960.5
473.161	1068.5
473.938	1181.5
474.714	1301.5
475.49	1443.5
476.266	1591.5
477.043	1729.5
477.819	1956.5
478.595	2154.5
479.371	2335.5
480.146	2577.5
480.922	2851.5
481.698	3134.5
482.473	3442.5
483.249	3786.5
484.024	4145.5
484.8	4597.5
485.575	4993.5
486.35	5520.5
487.126	6035.5
487.901	6584.5
488.676	7232.5
489.451	7916.5
490.225	8638.5
491	9400.5
491.775	10320.5
492.55	11156.5
493.324	12077.5
494.099	13002.5
494.873	14038.5
495.647	15159.5
496.422	16260.5
497.196	17449.5
497.97	18572.5
498.744	19759.5
499.518	20886.5
500.292	21945.5
501.066	23098.5
501.839	24041.5
502.613	24953.5
503.387	25679.5
504.16	26343.5
504.934	26751.5
505.707	26905.5
506.48	27034.5
507.253	27031.5
508.027	26806.5
508.8	26520.5
509.573	26188.5
510.346	25616.5
511.118	24926.5
511.891	24189.5
512.664	23370.5
513.437	22465.5
514.209	21612.5
514.982	20722.5
515.754	19795.5
516.526	18970.5
517.298	18107.5
518.071	17310.5
518.843	16605.5
519.615	15990.5
520.387	15393.5
521.159	14802.5
521.93	14258.5
522.702	13658.5
523.474	13118.5
524.245	12538.5
525.017	11973.5
525.788	11514.5
526.56	10998.5
527.331	10519.5
528.102	10024.5
528.873	9607.5
529.644	9094.5
530.415	8697.5
531.186	8239.5
531.957	7772.5
532.728	7412.5
533.498	7033.5
534.269	6664.5
535.039	6314.5
535.81	5952.5
536.58	5664.5
537.351	5260.5
538.121	4998.5
538.891	4731.5
539.661	4486.5
540.431	4229.5
541.201	3976.5
541.971	3796.5
542.741	3599.5
543.51	3420.5
544.28	3260.5
545.05	3101.5
545.819	2934.5
546.588	2803.5
547.358	2652.5
548.127	2521.5
548.896	2390.5
549.665	2275.5
550.434	2148.5
551.203	2038.5
551.972	1925.5
552.741	1806.5
553.51	1728.5
554.278	1622.5
555.047	1538.5
555.815	1454.5
556.584	1386.5
557.352	1288.5
558.121	1220.5
558.889	1139.5
559.657	1076.5
560.425	1035.5
561.193	960.5
561.961	906.5
562.729	864.5
563.496	822.5
564.264	763.5
565.032	731.5
565.799	700.5
566.567	648.5
567.334	620.5
568.101	592.5
568.869	556.5
569.636	519.5
570.403	490.5
571.17	460.5
571.937	432.5
572.704	410.5
573.471	385.5
574.237	364.5
575.004	356.5
575.771	320.5
576.537	307.5
577.303	292.5
578.07	272.5
578.836	248.5
579.602	240.5
580.368	230.5
581.134	212.5
581.9	210.5
582.666	193.5
583.432	185.5
584.198	175.5
584.964	166.5
585.729	157.5
586.495	148.5
587.26	142.5
588.025	132.5
588.791	127.5
589.556	118.5
590.321	114.5
591.086	104.5
591.851	100.5
592.616	93.5
593.381	94.5
594.146	88.5
594.911	83.5
595.675	80.5
596.44	76.5
597.204	70.5
597.969	66.5
598.733	65.5
599.497	64.5
600.261	63.5
601.025	59.5
601.79	60.5
602.553	52.5
603.317	48.5
604.081	50.5
604.845	47.5
605.609	44.5
606.372	46.5
607.136	38.5
607.899	39.5
608.662	35.5
609.426	37.5
610.189	36.5
610.952	33.5
611.715	32.5
612.478	30.5
613.241	30.5
614.004	28.5
614.767	29.5
615.529	28.5
616.292	26.5
617.055	25.5
617.817	24.5
618.579	25.5
619.342	24.5
620.104	22.5
620.866	20.5
621.628	19.5
622.39	21.5
623.152	18.5
623.914	21.5
624.676	21.5
625.438	15.5
626.199	17.5
626.961	14.5
627.722	17.5
628.484	17.5
629.245	14.5
630.006	13.5
630.768	16.5
631.529	16.5
632.29	13.5
633.051	13.5
633.812	13.5
634.573	11.5
635.333	10.5
636.094	11.5
636.855	13.5
637.615	10.5
638.376	10.5
639.136	10.5
639.896	9.5
640.657	11.5
641.417	7.5
642.177	6.5
642.937	9.5
643.697	8.5
644.457	9.5
645.216	8.5
645.976	10.5
646.736	8.5
647.495	9.5
648.255	10.5
649.014	9.5
649.774	8.5
650.533	6.5
651.292	8.5
652.051	5.5
652.81	8.5
653.569	6.5
654.328	6.5
655.087	7.5
655.846	8.5
656.604	7.5
657.363	6.5
658.121	4.5
658.88	7.5
659.638	7.5
660.397	6.5
661.155	6.5
661.913	4.5
662.671	7.5
663.429	4.5
664.187	5.5
664.945	5.5
665.703	6.5
666.46	3.5
667.218	3.5
667.976	4.5
668.733	3.5
669.49	5.5
670.248	3.5
671.005	6.5
671.762	2.5
672.519	4.5
673.276	7.5
674.033	4.5
674.79	5.5
675.547	3.5
676.304	4.5
677.06	4.5
677.817	6.5
678.574	4.5
679.33	3.5
680.086	7.5
680.843	2.5
681.599	5.5
682.355	3.5
683.111	5.5
683.867	5.5
684.623	4.5
685.379	5.5
686.135	3.5
686.89	5.5
687.646	2.5
688.402	2.5
689.157	4.5
689.912	2.5
690.668	5.5
691.423	5.5
692.178	4.5
692.933	5.5
693.688	4.5
694.443	4.5
695.198	3.5
695.953	4.5
696.708	6.5
697.462	3.5
698.217	4.5
698.972	3.5
699.726	3.5
700.48	5.5
701.235	5.5
701.989	2.5
702.743	5.5
703.497	3.5
704.251	3.5
705.005	6.5
705.759	3.5
706.513	3.5
707.266	5.5
708.02	5.5
708.774	2.5
709.527	4.5
710.28	5.5
711.034	2.5
711.787	6.5
712.54	3.5
713.293	4.5
714.046	5.5
714.799	3.5
715.552	5.5
716.305	5.5
717.058	4.5
717.81	2.5
718.563	3.5
719.315	4.5
720.068	4.5
720.82	4.5
721.573	5.5
722.325	4.5
723.077	4.5
723.829	0.5
724.581	5.5
725.333	5.5
726.085	4.5
726.836	2.5
727.588	5.5
728.34	6.5
729.091	3.5
729.843	3.5
730.594	3.5
731.346	6.5
732.097	6.5
732.848	3.5
733.599	8.5
734.35	4.5
735.101	6.5
735.852	3.5
736.603	5.5
737.354	5.5
738.104	2.5
738.855	4.5
739.605	5.5
740.356	7.5
741.106	6.5
741.856	5.5
742.607	7.5
743.357	2.5
744.107	5.5
744.857	6.5
745.607	5.5
746.357	4.5
747.106	3.5
747.856	4.5
748.606	5.5
749.355	5.5
750.105	4.5
750.854	4.5
751.603	5.5
752.353	5.5
753.102	6.5
753.851	7.5
754.6	5.5
755.349	6.5
756.098	5.5
756.847	5.5
757.595	5.5
758.344	6.5
759.093	7.5
759.841	8.5
760.589	5.5
761.338	7.5
762.086	5.5
762.834	7.5
763.582	8.5
764.331	6.5
765.079	6.5
765.826	5.5
766.574	6.5
767.322	6.5
768.07	7.5
768.817	7.5
769.565	8.5
770.312	6.5
771.06	8.5
771.807	8.5
772.554	8.5
773.302	7.5
774.049	7.5
774.796	5.5
775.543	7.5
776.29	10.5
777.036	10.5
777.783	7.5
778.53	9.5
779.276	6.5
780.023	11.5
780.769	10.5
781.516	9.5
782.262	10.5
783.008	6.5
783.754	9.5
784.5	8.5
785.246	9.5
785.992	6.5
786.738	9.5
787.484	8.5
788.23	9.5
788.975	10.5
789.721	8.5
790.466	10.5
791.212	11.5
791.957	7.5
792.702	10.5
793.447	8.5
794.193	8.5
794.938	8.5
795.683	11.5
796.427	8.5
797.172	11.5
797.917	8.5
798.662	6.5
799.406	8.5
800.151	8.5
800.895	8.5
801.64	6.5
802.384	7.5
803.128	7.5
803.872	8.5
804.616	5.5
805.36	5.5
806.104	8.5
806.848	6.5
807.592	8.5
808.336	5.5
809.079	5.5
809.823	9.5
810.566	4.5
811.31	7.5
812.053	5.5
812.796	6.5
813.539	7.5
814.283	8.5
815.026	6.5
815.769	6.5
816.511	3.5
817.254	4.5
817.997	5.5
818.74	4.5
819.482	4.5
820.225	6.5
820.967	4.5
821.71	3.5
822.452	6.5
823.194	5.5
823.936	4.5
824.678	4.5
825.42	4.5
826.162	2.5
826.904	4.5
827.646	4.5
828.388	3.5
829.129	2.5
829.871	6.5
830.612	3.5
831.354	3.5
832.095	2.5
832.836	3.5
833.577	4.5
834.319	6.5
835.06	1.5
835.801	4.5
836.542	5.5
837.282	2.5
838.023	3.5
838.764	3.5
839.504	2.5
840.245	4.5
840.985	2.5
841.726	4.5
842.466	4.5
843.206	4.5
843.946	6.5
844.687	-0.5
845.427	2.5
846.166	1.5
846.906	0.5
847.646	4.5
848.386	2.5
849.125	4.5
849.865	5.5
850.605	-0.5
851.344	1.5
852.083	3.5
852.823	4.5
853.562	2.5
854.301	2.5
855.04	1.5
855.779	3.5
856.518	0.5
857.257	3.5
857.995	4.5
858.734	1.5
859.473	5.5
860.211	2.5
860.95	3.5
861.688	0.5
862.426	1.5
863.165	3.5
863.903	3.5
864.641	3.5
865.379	4.5
866.117	4.5
866.855	2.5
867.593	3.5
868.33	1.5
869.068	2.5
869.806	1.5
870.543	0.5
871.28	3.5
872.018	4.5
872.755	2.5
873.492	1.5
874.229	0.5
874.967	4.5
875.703	2.5
876.44	2.5
877.177	1.5
877.914	0.5
878.651	2.5
879.387	0.5
880.124	1.5
880.86	1.5
881.597	1.5
882.333	4.5
883.069	2.5
883.806	0.5
884.542	1.5
885.278	5.5
886.014	2.5
886.749	2.5
887.485	4.5
888.221	2.5
888.957	1.5
889.692	2.5
890.428	2.5
891.163	0.5
891.899	1.5
892.634	1.5
893.369	0.5
894.104	0.5
894.839	3.5
895.574	1.5
896.309	1.5
897.044	0.5
897.779	3.5
898.514	1.5
899.248	0.5
899.983	2.5
900.717	-0.5
901.452	1.5
902.186	0.5
902.92	4.5
903.654	1.5
904.389	2.5
905.123	-0.5
905.857	0.5
906.59	1.5
907.324	0.5
908.058	3.5
908.792	-0.5
909.525	0.5
910.259	-0.5
910.992	1.5
911.726	1.5
912.459	1.5
913.192	0.5
913.925	2.5
914.658	2.5
915.391	1.5
916.124	1.5
916.857	2.5
917.59	0.5
918.323	1.5
919.055	1.5
919.788	0.5
920.521	2.5
921.253	0.5
921.985	-0.5
922.718	2.5
923.45	0.5
924.182	-0.5
924.914	0.5
925.646	-0.5
926.378	-1.5
927.11	0.5
927.841	1.5
928.573	-0.5
929.305	1.5
930.036	1.5
930.768	0.5
931.499	-0.5
932.23	0.5
932.962	1.5
933.693	0.5
934.424	2.5
935.155	-1.5
935.886	1.5
936.617	1.5
937.348	-0.5
938.078	0.5
938.809	1.5
939.54	-0.5
940.27	1.5
941.001	2.5
941.731	1.5
942.461	-0.5
943.191	2.5
943.922	1.5
944.652	0.5
945.382	1.5
946.112	1.5
946.841	0.5
947.571	2.5
948.301	0.5
949.031	-0.5
949.76	0.5
950.49	1.5
951.219	-0.5
951.948	-0.5
952.678	1.5
953.407	1.5
954.136	1.5
954.865	1.5
955.594	3.5
956.323	2.5
957.052	2.5
957.78	0.5
958.509	1.5
959.238	1.5
959.966	0.5
960.695	0.5
961.423	-0.5
962.151	1.5
962.88	1.5
963.608	0.5
964.336	1.5
965.064	1.5
965.792	-1.5
966.52	1.5
967.247	2.5
967.975	1.5
968.703	1.5
969.43	0.5
970.158	0.5
970.885	1.5
971.613	0.5
972.34	0.5
973.067	-0.5
973.794	2.5
974.521	-0.5
975.248	1.5
975.975	2.5
976.702	0.5
977.429	2.5
978.156	2.5
978.882	2.5
979.609	2.5
980.335	1.5
981.062	2.5
981.788	-1.5
982.514	0.5
983.24	-1.5
983.967	0.5
984.693	1.5
985.419	0.5
986.144	1.5
986.87	2.5
987.596	1.5
988.322	0.5
989.047	-1.5
989.773	3.5
990.498	1.5
991.224	0.5
991.949	1.5
992.674	1.5
993.399	2.5
994.124	0.5
994.849	0.5
995.574	0.5
996.299	-0.5
997.024	-0.5
997.749	1.5
998.473	1.5
999.198	0.5
999.922	0.5
1000.647	2.5
1001.371	2.5
1002.095	-1.5
1002.82	-1.5
1003.544	-0.5
1004.268	1.5
1004.992	-0.5
1005.716	2.5
1006.439	0.5
1007.163	0.5
1007.887	2.5
1008.611	0.5
1009.334	0.5
1010.058	0.5
1010.781	-1.5
1011.504	3.5
1012.228	1.5
1012.951	-0.5
1013.674	-1.5
1014.397	2.5
1015.12	0.5
