节点500_285_QEPB04081__121__14-57-34-260.txt的数据

Date: Wed Nov 12 14:57:34 CST 2025
User: PC
Spectrometer: QEPB0408
触发模式: 0
积分时间 (秒): 1.000000E-2
Scans to average: 1
启用暗噪声校正: true
启用非线性校正: false
滑动平均宽度: 0
X轴模式: Wavelengths
Number of Pixels in Spectrum: 1044
>>>>>Begin Spectral Data<<<<<
220.843	1.88
221.644	1.88
222.444	1.88
223.244	-0.12
224.045	1.88
224.845	-0.12
225.645	2.88
226.445	1.88
227.245	-0.12
228.045	0.88
228.845	-0.12
229.645	4.88
230.444	1.88
231.244	3.88
232.043	3.88
232.843	0.88
233.642	2.88
234.442	1.88
235.241	3.88
236.04	0.88
236.839	0.88
237.638	2.88
238.437	2.88
239.236	2.88
240.035	3.88
240.833	2.88
241.632	4.88
242.43	4.88
243.229	5.88
244.027	6.88
244.826	6.88
245.624	2.88
246.422	1.88
247.22	7.88
248.018	3.88
248.816	5.88
249.614	3.88
250.412	3.88
251.21	6.88
252.007	3.88
252.805	6.88
253.602	4.88
254.4	7.88
255.197	8.88
255.994	5.88
256.791	7.88
257.589	7.88
258.386	8.88
259.183	9.88
259.979	7.88
260.776	9.88
261.573	11.88
262.37	11.88
263.166	10.88
263.963	12.88
264.759	12.88
265.556	12.88
266.352	13.88
267.148	10.88
267.944	14.88
268.74	15.88
269.536	12.88
270.332	15.88
271.128	14.88
271.924	16.88
272.719	16.88
273.515	17.88
274.311	18.88
275.106	17.88
275.901	17.88
276.697	16.88
277.492	18.88
278.287	19.88
279.082	18.88
279.877	16.88
280.672	17.88
281.467	18.88
282.262	16.88
283.056	19.88
283.851	18.88
284.646	15.88
285.44	20.88
286.234	19.88
287.029	19.88
287.823	19.88
288.617	18.88
289.411	19.88
290.205	18.88
290.999	19.88
291.793	16.88
292.587	19.88
293.381	15.88
294.174	15.88
294.968	19.88
295.761	14.88
296.555	14.88
297.348	14.88
298.141	15.88
298.935	13.88
299.728	14.88
300.521	14.88
301.314	12.88
302.107	14.88
302.899	12.88
303.692	10.88
304.485	12.88
305.277	10.88
306.07	11.88
306.862	13.88
307.655	11.88
308.447	11.88
309.239	14.88
310.031	14.88
310.823	9.88
311.615	8.88
312.407	8.88
313.199	7.88
313.991	10.88
314.783	7.88
315.574	8.88
316.366	7.88
317.157	5.88
317.949	6.88
318.74	5.88
319.531	8.88
320.322	6.88
321.113	5.88
321.904	6.88
322.695	6.88
323.486	6.88
324.277	4.88
325.068	5.88
325.858	6.88
326.649	5.88
327.439	7.88
328.23	5.88
329.02	7.88
329.81	5.88
330.6	6.88
331.391	3.88
332.181	6.88
332.971	4.88
333.76	5.88
334.55	3.88
335.34	5.88
336.13	3.88
336.919	4.88
337.709	6.88
338.498	6.88
339.287	5.88
340.077	6.88
340.866	6.88
341.655	3.88
342.444	6.88
343.233	5.88
344.022	5.88
344.811	4.88
345.6	7.88
346.388	4.88
347.177	5.88
347.965	6.88
348.754	5.88
349.542	6.88
350.33	4.88
351.119	5.88
351.907	6.88
352.695	5.88
353.483	7.88
354.271	6.88
355.059	4.88
355.846	3.88
356.634	5.88
357.422	5.88
358.209	7.88
358.997	8.88
359.784	4.88
360.571	4.88
361.359	5.88
362.146	2.88
362.933	4.88
363.72	5.88
364.507	4.88
365.294	5.88
366.081	3.88
366.867	4.88
367.654	4.88
368.44	5.88
369.227	4.88
370.013	1.88
370.8	2.88
371.586	2.88
372.372	4.88
373.158	3.88
373.944	3.88
374.73	7.88
375.516	6.88
376.302	6.88
377.088	4.88
377.873	3.88
378.659	6.88
379.445	6.88
380.23	4.88
381.015	4.88
381.801	4.88
382.586	5.88
383.371	3.88
384.156	6.88
384.941	5.88
385.726	4.88
386.511	4.88
387.296	6.88
388.08	4.88
388.865	2.88
389.649	5.88
390.434	3.88
391.218	3.88
392.003	4.88
392.787	4.88
393.571	5.88
394.355	4.88
395.139	6.88
395.923	6.88
396.707	6.88
397.491	8.88
398.274	5.88
399.058	7.88
399.842	7.88
400.625	6.88
401.408	5.88
402.192	6.88
402.975	7.88
403.758	5.88
404.541	5.88
405.324	5.88
406.107	5.88
406.89	6.88
407.673	6.88
408.456	7.88
409.238	8.88
410.021	6.88
410.803	6.88
411.586	6.88
412.368	8.88
413.151	7.88
413.933	8.88
414.715	8.88
415.497	7.88
416.279	8.88
417.061	8.88
417.843	8.88
418.624	9.88
419.406	8.88
420.188	10.88
420.969	8.88
421.751	11.88
422.532	7.88
423.313	11.88
424.095	10.88
424.876	9.88
425.657	10.88
426.438	12.88
427.219	12.88
428	12.88
428.78	11.88
429.561	12.88
430.342	16.88
431.122	12.88
431.903	14.88
432.683	16.88
433.464	12.88
434.244	13.88
435.024	18.88
435.804	16.88
436.584	18.88
437.364	14.88
438.144	20.88
438.924	20.88
439.704	20.88
440.483	22.88
441.263	22.88
442.042	24.88
442.822	23.88
443.601	27.88
444.38	28.88
445.16	31.88
445.939	30.88
446.718	36.88
447.497	36.88
448.276	37.88
449.054	43.88
449.833	44.88
450.612	47.88
451.391	53.88
452.169	57.88
452.948	62.88
453.726	73.88
454.504	73.88
455.282	81.88
456.061	93.88
456.839	102.88
457.617	113.88
458.395	121.88
459.172	139.88
459.95	157.88
460.728	177.88
461.506	197.88
462.283	219.88
463.061	243.88
463.838	274.88
464.615	312.88
465.393	341.88
466.17	371.88
466.947	419.88
467.724	470.88
468.501	542.88
469.278	595.88
470.055	665.88
470.831	742.88
471.608	824.88
472.385	924.88
473.161	1010.88
473.938	1129.88
474.714	1254.88
475.49	1390.88
476.266	1545.88
477.043	1718.88
477.819	1892.88
478.595	2117.88
479.371	2342.88
480.146	2602.88
480.922	2873.88
481.698	3191.88
482.473	3523.88
483.249	3902.88
484.024	4298.88
484.8	4726.88
485.575	5229.88
486.35	5763.88
487.126	6344.88
487.901	7005.88
488.676	7667.88
489.451	8446.88
490.225	9263.88
491	10189.88
491.775	11166.88
492.55	12148.88
493.324	13192.88
494.099	14314.88
494.873	15373.88
495.647	16580.88
496.422	17906.88
497.196	19139.88
497.97	20430.88
498.744	21678.88
499.518	22893.88
500.292	24061.88
501.066	25150.88
501.839	26129.88
502.613	26979.88
503.387	27732.88
504.16	28217.88
504.934	28471.88
505.707	28521.88
506.48	28476.88
507.253	28300.88
508.027	27866.88
508.8	27356.88
509.573	26853.88
510.346	26031.88
511.118	25194.88
511.891	24246.88
512.664	23320.88
513.437	22398.88
514.209	21331.88
514.982	20470.88
515.754	19474.88
516.526	18597.88
517.298	17768.88
518.071	17023.88
518.843	16328.88
519.615	15774.88
520.387	15111.88
521.159	14486.88
521.93	13875.88
522.702	13364.88
523.474	12834.88
524.245	12251.88
525.017	11707.88
525.788	11280.88
526.56	10720.88
527.331	10281.88
528.102	9736.88
528.873	9312.88
529.644	8831.88
530.415	8395.88
531.186	7943.88
531.957	7466.88
532.728	7129.88
533.498	6743.88
534.269	6310.88
535.039	5994.88
535.81	5657.88
536.58	5322.88
537.351	5020.88
538.121	4743.88
538.891	4499.88
539.661	4243.88
540.431	4033.88
541.201	3762.88
541.971	3581.88
542.741	3398.88
543.51	3231.88
544.28	3106.88
545.05	2940.88
545.819	2757.88
546.588	2661.88
547.358	2523.88
548.127	2385.88
548.896	2283.88
549.665	2158.88
550.434	2038.88
551.203	1923.88
551.972	1818.88
552.741	1716.88
553.51	1620.88
554.278	1514.88
555.047	1451.88
555.815	1368.88
556.584	1284.88
557.352	1224.88
558.121	1147.88
558.889	1082.88
559.657	1018.88
560.425	968.88
561.193	909.88
561.961	857.88
562.729	812.88
563.496	768.88
564.264	720.88
565.032	688.88
565.799	646.88
566.567	607.88
567.334	568.88
568.101	554.88
568.869	518.88
569.636	488.88
570.403	450.88
571.17	427.88
571.937	406.88
572.704	383.88
573.471	364.88
574.237	344.88
575.004	317.88
575.771	294.88
576.537	278.88
577.303	270.88
578.07	258.88
578.836	230.88
579.602	221.88
580.368	213.88
581.134	206.88
581.9	188.88
582.666	179.88
583.432	174.88
584.198	161.88
584.964	151.88
585.729	144.88
586.495	139.88
587.26	131.88
588.025	127.88
588.791	116.88
589.556	114.88
590.321	103.88
591.086	98.88
591.851	93.88
592.616	90.88
593.381	82.88
594.146	81.88
594.911	80.88
595.675	75.88
596.44	72.88
597.204	68.88
597.969	62.88
598.733	60.88
599.497	59.88
600.261	58.88
601.025	56.88
601.79	53.88
602.553	46.88
603.317	50.88
604.081	44.88
604.845	38.88
605.609	40.88
606.372	41.88
607.136	40.88
607.899	38.88
608.662	36.88
609.426	30.88
610.189	36.88
610.952	28.88
611.715	28.88
612.478	30.88
613.241	27.88
614.004	24.88
614.767	24.88
615.529	26.88
616.292	26.88
617.055	23.88
617.817	24.88
618.579	23.88
619.342	20.88
620.104	21.88
620.866	18.88
621.628	20.88
622.39	17.88
623.152	19.88
623.914	15.88
624.676	16.88
625.438	16.88
626.199	14.88
626.961	14.88
627.722	16.88
628.484	14.88
629.245	13.88
630.006	12.88
630.768	12.88
631.529	11.88
632.29	11.88
633.051	12.88
633.812	8.88
634.573	12.88
635.333	10.88
636.094	11.88
636.855	8.88
637.615	13.88
638.376	9.88
639.136	6.88
639.896	10.88
640.657	8.88
641.417	10.88
642.177	8.88
642.937	7.88
643.697	7.88
644.457	5.88
645.216	7.88
645.976	7.88
646.736	7.88
647.495	7.88
648.255	5.88
649.014	6.88
649.774	7.88
650.533	7.88
651.292	6.88
652.051	5.88
652.81	7.88
653.569	5.88
654.328	5.88
655.087	4.88
655.846	5.88
656.604	5.88
657.363	5.88
658.121	7.88
658.88	7.88
659.638	6.88
660.397	4.88
661.155	5.88
661.913	2.88
662.671	3.88
663.429	2.88
664.187	2.88
664.945	4.88
665.703	2.88
666.46	3.88
667.218	4.88
667.976	5.88
668.733	4.88
669.49	5.88
670.248	3.88
671.005	4.88
671.762	3.88
672.519	4.88
673.276	2.88
674.033	2.88
674.79	2.88
675.547	2.88
676.304	2.88
677.06	2.88
677.817	2.88
678.574	3.88
679.33	3.88
680.086	3.88
680.843	3.88
681.599	5.88
682.355	1.88
683.111	4.88
683.867	2.88
684.623	0.88
685.379	5.88
686.135	3.88
686.89	2.88
687.646	3.88
688.402	4.88
689.157	4.88
689.912	3.88
690.668	3.88
691.423	-0.12
692.178	4.88
692.933	3.88
693.688	4.88
694.443	3.88
695.198	3.88
695.953	3.88
696.708	3.88
697.462	3.88
698.217	3.88
698.972	-0.12
699.726	5.88
700.48	1.88
701.235	1.88
701.989	-0.12
702.743	0.88
703.497	3.88
704.251	3.88
705.005	2.88
705.759	3.88
706.513	3.88
707.266	4.88
708.02	2.88
708.774	4.88
709.527	1.88
710.28	4.88
711.034	3.88
711.787	3.88
712.54	5.88
713.293	2.88
714.046	2.88
714.799	1.88
715.552	2.88
716.305	2.88
717.058	1.88
717.81	3.88
718.563	0.88
719.315	5.88
720.068	4.88
720.82	3.88
721.573	1.88
722.325	0.88
723.077	4.88
723.829	2.88
724.581	1.88
725.333	4.88
726.085	2.88
726.836	3.88
727.588	4.88
728.34	5.88
729.091	2.88
729.843	4.88
730.594	5.88
731.346	2.88
732.097	2.88
732.848	4.88
733.599	3.88
734.35	3.88
735.101	4.88
735.852	4.88
736.603	2.88
737.354	6.88
738.104	4.88
738.855	3.88
739.605	3.88
740.356	4.88
741.106	5.88
741.856	4.88
742.607	4.88
743.357	5.88
744.107	3.88
744.857	3.88
745.607	1.88
746.357	2.88
747.106	5.88
747.856	8.88
748.606	5.88
749.355	6.88
750.105	3.88
750.854	4.88
751.603	3.88
752.353	5.88
753.102	6.88
753.851	6.88
754.6	5.88
755.349	7.88
756.098	5.88
756.847	6.88
757.595	5.88
758.344	4.88
759.093	5.88
759.841	5.88
760.589	4.88
761.338	5.88
762.086	5.88
762.834	5.88
763.582	6.88
764.331	6.88
765.079	5.88
765.826	6.88
766.574	6.88
767.322	7.88
768.07	5.88
768.817	6.88
769.565	9.88
770.312	5.88
771.06	8.88
771.807	8.88
772.554	6.88
773.302	10.88
774.049	7.88
774.796	9.88
775.543	9.88
776.29	7.88
777.036	6.88
777.783	8.88
778.53	8.88
779.276	7.88
780.023	7.88
780.769	9.88
781.516	9.88
782.262	9.88
783.008	6.88
783.754	8.88
784.5	8.88
785.246	8.88
785.992	8.88
786.738	6.88
787.484	8.88
788.23	8.88
788.975	8.88
789.721	9.88
790.466	8.88
791.212	8.88
791.957	7.88
792.702	6.88
793.447	7.88
794.193	7.88
794.938	7.88
795.683	7.88
796.427	8.88
797.172	7.88
797.917	6.88
798.662	6.88
799.406	7.88
800.151	7.88
800.895	5.88
801.64	7.88
802.384	5.88
803.128	5.88
803.872	6.88
804.616	5.88
805.36	7.88
806.104	3.88
806.848	6.88
807.592	6.88
808.336	5.88
809.079	5.88
809.823	2.88
810.566	6.88
811.31	4.88
812.053	6.88
812.796	4.88
813.539	4.88
814.283	4.88
815.026	4.88
815.769	3.88
816.511	6.88
817.254	3.88
817.997	3.88
818.74	2.88
819.482	4.88
820.225	5.88
820.967	0.88
821.71	4.88
822.452	5.88
823.194	4.88
823.936	3.88
824.678	2.88
825.42	4.88
826.162	5.88
826.904	4.88
827.646	2.88
828.388	2.88
829.129	1.88
829.871	3.88
830.612	1.88
831.354	2.88
832.095	4.88
832.836	3.88
833.577	5.88
834.319	2.88
835.06	1.88
835.801	4.88
836.542	1.88
837.282	2.88
838.023	2.88
838.764	2.88
839.504	0.88
840.245	0.88
840.985	1.88
841.726	2.88
842.466	0.88
843.206	4.88
843.946	3.88
844.687	1.88
845.427	0.88
846.166	1.88
846.906	0.88
847.646	2.88
848.386	1.88
849.125	0.88
849.865	2.88
850.605	2.88
851.344	2.88
852.083	1.88
852.823	1.88
853.562	2.88
854.301	-1.12
855.04	2.88
855.779	3.88
856.518	1.88
857.257	2.88
857.995	0.88
858.734	1.88
859.473	2.88
860.211	0.88
860.95	2.88
861.688	2.88
862.426	0.88
863.165	-1.12
863.903	2.88
864.641	2.88
865.379	0.88
866.117	0.88
866.855	0.88
867.593	0.88
868.33	0.88
869.068	0.88
869.806	0.88
870.543	1.88
871.28	1.88
872.018	-1.12
872.755	2.88
873.492	0.88
874.229	0.88
874.967	0.88
875.703	-1.12
876.44	1.88
877.177	-2.12
877.914	-0.12
878.651	-0.12
879.387	0.88
880.124	0.88
880.86	1.88
881.597	0.88
882.333	0.88
883.069	0.88
883.806	0.88
884.542	-0.12
885.278	0.88
886.014	-0.12
886.749	-0.12
887.485	0.88
888.221	-1.12
888.957	1.88
889.692	-1.12
890.428	-0.12
891.163	1.88
891.899	0.88
892.634	0.88
893.369	0.88
894.104	-1.12
894.839	-0.12
895.574	1.88
896.309	0.88
897.044	-1.12
897.779	0.88
898.514	0.88
899.248	1.88
899.983	-1.12
900.717	0.88
901.452	-1.12
902.186	-1.12
902.92	0.88
903.654	-1.12
904.389	-0.12
905.123	0.88
905.857	-0.12
906.59	0.88
907.324	-1.12
908.058	3.88
908.792	0.88
909.525	0.88
910.259	-1.12
910.992	0.88
911.726	-1.12
912.459	0.88
913.192	0.88
913.925	-0.12
914.658	1.88
915.391	-0.12
916.124	-1.12
916.857	1.88
917.59	0.88
918.323	2.88
919.055	-1.12
919.788	0.88
920.521	-0.12
921.253	0.88
921.985	0.88
922.718	-0.12
923.45	0.88
924.182	0.88
924.914	-1.12
925.646	-0.12
926.378	-1.12
927.11	1.88
927.841	0.88
928.573	0.88
929.305	0.88
930.036	-1.12
930.768	-2.12
931.499	-2.12
932.23	-1.12
932.962	-0.12
933.693	0.88
934.424	-1.12
935.155	0.88
935.886	0.88
936.617	-0.12
937.348	1.88
938.078	0.88
938.809	-0.12
939.54	0.88
940.27	-1.12
941.001	-0.12
941.731	-0.12
942.461	0.88
943.191	-0.12
943.922	0.88
944.652	2.88
945.382	-0.12
946.112	-0.12
946.841	1.88
947.571	-1.12
948.301	0.88
949.031	-0.12
949.76	-1.12
950.49	-1.12
951.219	1.88
951.948	0.88
952.678	-0.12
953.407	-1.12
954.136	-0.12
954.865	-0.12
955.594	-0.12
956.323	-0.12
957.052	1.88
957.78	-1.12
958.509	-1.12
959.238	0.88
959.966	-1.12
960.695	2.88
961.423	-0.12
962.151	0.88
962.88	-0.12
963.608	-1.12
964.336	-0.12
965.064	-0.12
965.792	0.88
966.52	-1.12
967.247	-0.12
967.975	-2.12
968.703	-3.12
969.43	0.88
970.158	0.88
970.885	-0.12
971.613	0.88
972.34	-0.12
973.067	-0.12
973.794	-1.12
974.521	2.88
975.248	-0.12
975.975	-1.12
976.702	-0.12
977.429	-2.12
978.156	-1.12
978.882	2.88
979.609	-1.12
980.335	-0.12
981.062	-0.12
981.788	-1.12
982.514	-1.12
983.24	0.88
983.967	-1.12
984.693	1.88
985.419	0.88
986.144	-1.12
986.87	-0.12
987.596	-0.12
988.322	0.88
989.047	-1.12
989.773	-0.12
990.498	0.88
991.224	-2.12
991.949	-0.12
992.674	-1.12
993.399	0.88
994.124	-0.12
994.849	-1.12
995.574	-0.12
996.299	-0.12
997.024	0.88
997.749	-0.12
998.473	-0.12
999.198	1.88
999.922	-0.12
1000.647	-1.12
1001.371	3.88
1002.095	-1.12
1002.82	-1.12
1003.544	0.88
1004.268	-0.12
1004.992	-0.12
1005.716	-1.12
1006.439	-0.12
1007.163	-0.12
1007.887	1.88
1008.611	1.88
1009.334	0.88
1010.058	1.88
1010.781	0.88
1011.504	0.88
1012.228	-2.12
1012.951	-0.12
1013.674	-2.12
1014.397	-0.12
1015.12	-0.12
