节点500_285_QEPB04081__771__15-08-22-795.txt的数据

Date: Wed Nov 12 15:08:22 CST 2025
User: PC
Spectrometer: QEPB0408
触发模式: 0
积分时间 (秒): 1.000000E-2
Scans to average: 1
启用暗噪声校正: true
启用非线性校正: false
滑动平均宽度: 0
X轴模式: Wavelengths
Number of Pixels in Spectrum: 1044
>>>>>Begin Spectral Data<<<<<
220.843	0.62
221.644	2.62
222.444	-0.38
223.244	2.62
224.045	1.62
224.845	0.62
225.645	2.62
226.445	-0.38
227.245	1.62
228.045	-1.38
228.845	1.62
229.645	0.62
230.444	1.62
231.244	1.62
232.043	2.62
232.843	1.62
233.642	1.62
234.442	0.62
235.241	0.62
236.04	1.62
236.839	3.62
237.638	2.62
238.437	4.62
239.236	1.62
240.035	4.62
240.833	1.62
241.632	3.62
242.43	3.62
243.229	4.62
244.027	4.62
244.826	4.62
245.624	6.62
246.422	3.62
247.22	4.62
248.018	7.62
248.816	3.62
249.614	7.62
250.412	6.62
251.21	5.62
252.007	3.62
252.805	6.62
253.602	6.62
254.4	3.62
255.197	8.62
255.994	7.62
256.791	6.62
257.589	5.62
258.386	6.62
259.183	8.62
259.979	7.62
260.776	7.62
261.573	9.62
262.37	8.62
263.166	8.62
263.963	6.62
264.759	12.62
265.556	10.62
266.352	10.62
267.148	8.62
267.944	9.62
268.74	11.62
269.536	10.62
270.332	11.62
271.128	14.62
271.924	11.62
272.719	13.62
273.515	13.62
274.311	13.62
275.106	14.62
275.901	17.62
276.697	13.62
277.492	13.62
278.287	17.62
279.082	15.62
279.877	15.62
280.672	12.62
281.467	17.62
282.262	14.62
283.056	18.62
283.851	14.62
284.646	17.62
285.44	15.62
286.234	15.62
287.029	14.62
287.823	14.62
288.617	16.62
289.411	17.62
290.205	16.62
290.999	16.62
291.793	15.62
292.587	15.62
293.381	13.62
294.174	15.62
294.968	16.62
295.761	16.62
296.555	14.62
297.348	14.62
298.141	12.62
298.935	15.62
299.728	12.62
300.521	13.62
301.314	14.62
302.107	13.62
302.899	11.62
303.692	12.62
304.485	11.62
305.277	11.62
306.07	10.62
306.862	14.62
307.655	12.62
308.447	11.62
309.239	9.62
310.031	12.62
310.823	10.62
311.615	9.62
312.407	9.62
313.199	11.62
313.991	10.62
314.783	9.62
315.574	8.62
316.366	8.62
317.157	5.62
317.949	9.62
318.74	8.62
319.531	8.62
320.322	4.62
321.113	9.62
321.904	6.62
322.695	7.62
323.486	9.62
324.277	3.62
325.068	6.62
325.858	9.62
326.649	6.62
327.439	5.62
328.23	8.62
329.02	8.62
329.81	6.62
330.6	6.62
331.391	7.62
332.181	5.62
332.971	4.62
333.76	7.62
334.55	6.62
335.34	7.62
336.13	8.62
336.919	9.62
337.709	5.62
338.498	7.62
339.287	6.62
340.077	8.62
340.866	4.62
341.655	3.62
342.444	7.62
343.233	5.62
344.022	4.62
344.811	7.62
345.6	7.62
346.388	4.62
347.177	7.62
347.965	4.62
348.754	4.62
349.542	7.62
350.33	4.62
351.119	3.62
351.907	5.62
352.695	4.62
353.483	5.62
354.271	5.62
355.059	3.62
355.846	5.62
356.634	5.62
357.422	4.62
358.209	4.62
358.997	4.62
359.784	4.62
360.571	4.62
361.359	5.62
362.146	6.62
362.933	3.62
363.72	5.62
364.507	4.62
365.294	5.62
366.081	5.62
366.867	3.62
367.654	4.62
368.44	3.62
369.227	3.62
370.013	4.62
370.8	5.62
371.586	3.62
372.372	1.62
373.158	4.62
373.944	6.62
374.73	3.62
375.516	5.62
376.302	3.62
377.088	5.62
377.873	5.62
378.659	4.62
379.445	3.62
380.23	4.62
381.015	6.62
381.801	4.62
382.586	4.62
383.371	3.62
384.156	3.62
384.941	5.62
385.726	3.62
386.511	5.62
387.296	5.62
388.08	6.62
388.865	5.62
389.649	2.62
390.434	4.62
391.218	4.62
392.003	7.62
392.787	5.62
393.571	3.62
394.355	3.62
395.139	5.62
395.923	5.62
396.707	5.62
397.491	8.62
398.274	4.62
399.058	5.62
399.842	6.62
400.625	4.62
401.408	6.62
402.192	7.62
402.975	6.62
403.758	5.62
404.541	4.62
405.324	5.62
406.107	7.62
406.89	12.62
407.673	7.62
408.456	5.62
409.238	8.62
410.021	9.62
410.803	6.62
411.586	7.62
412.368	9.62
413.151	8.62
413.933	6.62
414.715	7.62
415.497	7.62
416.279	10.62
417.061	7.62
417.843	9.62
418.624	9.62
419.406	7.62
420.188	9.62
420.969	8.62
421.751	9.62
422.532	10.62
423.313	9.62
424.095	9.62
424.876	11.62
425.657	10.62
426.438	10.62
427.219	12.62
428	9.62
428.78	11.62
429.561	12.62
430.342	12.62
431.122	15.62
431.903	12.62
432.683	14.62
433.464	18.62
434.244	16.62
435.024	16.62
435.804	13.62
436.584	16.62
437.364	16.62
438.144	20.62
438.924	20.62
439.704	22.62
440.483	21.62
441.263	22.62
442.042	25.62
442.822	26.62
443.601	27.62
444.38	28.62
445.16	30.62
445.939	33.62
446.718	36.62
447.497	39.62
448.276	44.62
449.054	42.62
449.833	49.62
450.612	57.62
451.391	61.62
452.169	66.62
452.948	76.62
453.726	79.62
454.504	90.62
455.282	100.62
456.061	112.62
456.839	123.62
457.617	137.62
458.395	152.62
459.172	167.62
459.95	185.62
460.728	210.62
461.506	226.62
462.283	258.62
463.061	289.62
463.838	323.62
464.615	358.62
465.393	393.62
466.17	445.62
466.947	490.62
467.724	545.62
468.501	601.62
469.278	667.62
470.055	735.62
470.831	809.62
471.608	904.62
472.385	995.62
473.161	1088.62
473.938	1193.62
474.714	1326.62
475.49	1461.62
476.266	1615.62
477.043	1769.62
477.819	1934.62
478.595	2131.62
479.371	2312.62
480.146	2560.62
480.922	2778.62
481.698	3054.62
482.473	3349.62
483.249	3642.62
484.024	3984.62
484.8	4345.62
485.575	4754.62
486.35	5179.62
487.126	5640.62
487.901	6120.62
488.676	6722.62
489.451	7262.62
490.225	7927.62
491	8539.62
491.775	9326.62
492.55	10085.62
493.324	10843.62
494.099	11702.62
494.873	12553.62
495.647	13517.62
496.422	14477.62
497.196	15474.62
497.97	16567.62
498.744	17599.62
499.518	18642.62
500.292	19586.62
501.066	20590.62
501.839	21557.62
502.613	22466.62
503.387	23284.62
504.16	24024.62
504.934	24503.62
505.707	24819.62
506.48	25074.62
507.253	25221.62
508.027	25225.62
508.8	25165.62
509.573	24968.62
510.346	24634.62
511.118	24098.62
511.891	23541.62
512.664	22991.62
513.437	22297.62
514.209	21471.62
514.982	20677.62
515.754	19900.62
516.526	19055.62
517.298	18379.62
518.071	17586.62
518.843	16882.62
519.615	16292.62
520.387	15637.62
521.159	15056.62
521.93	14415.62
522.702	13855.62
523.474	13280.62
524.245	12745.62
525.017	12153.62
525.788	11749.62
526.56	11224.62
527.331	10723.62
528.102	10246.62
528.873	9823.62
529.644	9354.62
530.415	8933.62
531.186	8547.62
531.957	8071.62
532.728	7712.62
533.498	7344.62
534.269	6921.62
535.039	6573.62
535.81	6237.62
536.58	5893.62
537.351	5549.62
538.121	5247.62
538.891	5008.62
539.661	4723.62
540.431	4461.62
541.201	4212.62
541.971	3985.62
542.741	3775.62
543.51	3553.62
544.28	3416.62
545.05	3244.62
545.819	3096.62
546.588	2924.62
547.358	2801.62
548.127	2654.62
548.896	2545.62
549.665	2393.62
550.434	2268.62
551.203	2137.62
551.972	2037.62
552.741	1937.62
553.51	1825.62
554.278	1734.62
555.047	1632.62
555.815	1536.62
556.584	1443.62
557.352	1375.62
558.121	1302.62
558.889	1218.62
559.657	1158.62
560.425	1094.62
561.193	1045.62
561.961	960.62
562.729	927.62
563.496	875.62
564.264	815.62
565.032	792.62
565.799	738.62
566.567	700.62
567.334	657.62
568.101	633.62
568.869	594.62
569.636	551.62
570.403	523.62
571.17	491.62
571.937	458.62
572.704	441.62
573.471	422.62
574.237	386.62
575.004	370.62
575.771	347.62
576.537	328.62
577.303	306.62
578.07	283.62
578.836	270.62
579.602	257.62
580.368	246.62
581.134	229.62
581.9	217.62
582.666	210.62
583.432	201.62
584.198	186.62
584.964	173.62
585.729	164.62
586.495	161.62
587.26	156.62
588.025	139.62
588.791	136.62
589.556	128.62
590.321	120.62
591.086	114.62
591.851	108.62
592.616	103.62
593.381	96.62
594.146	91.62
594.911	86.62
595.675	86.62
596.44	80.62
597.204	78.62
597.969	76.62
598.733	71.62
599.497	68.62
600.261	62.62
601.025	63.62
601.79	59.62
602.553	56.62
603.317	52.62
604.081	50.62
604.845	47.62
605.609	46.62
606.372	47.62
607.136	41.62
607.899	37.62
608.662	37.62
609.426	36.62
610.189	36.62
610.952	32.62
611.715	32.62
612.478	29.62
613.241	29.62
614.004	29.62
614.767	30.62
615.529	26.62
616.292	26.62
617.055	24.62
617.817	22.62
618.579	23.62
619.342	23.62
620.104	22.62
620.866	22.62
621.628	21.62
622.39	22.62
623.152	21.62
623.914	18.62
624.676	17.62
625.438	17.62
626.199	17.62
626.961	15.62
627.722	18.62
628.484	14.62
629.245	12.62
630.006	13.62
630.768	12.62
631.529	15.62
632.29	13.62
633.051	11.62
633.812	14.62
634.573	10.62
635.333	12.62
636.094	11.62
636.855	10.62
637.615	11.62
638.376	8.62
639.136	12.62
639.896	9.62
640.657	10.62
641.417	7.62
642.177	8.62
642.937	8.62
643.697	7.62
644.457	8.62
645.216	9.62
645.976	7.62
646.736	8.62
647.495	6.62
648.255	7.62
649.014	6.62
649.774	7.62
650.533	6.62
651.292	2.62
652.051	5.62
652.81	8.62
653.569	4.62
654.328	6.62
655.087	6.62
655.846	3.62
656.604	5.62
657.363	8.62
658.121	4.62
658.88	6.62
659.638	4.62
660.397	6.62
661.155	7.62
661.913	5.62
662.671	5.62
663.429	4.62
664.187	4.62
664.945	4.62
665.703	3.62
666.46	5.62
667.218	4.62
667.976	3.62
668.733	3.62
669.49	4.62
670.248	3.62
671.005	3.62
671.762	3.62
672.519	4.62
673.276	4.62
674.033	6.62
674.79	4.62
675.547	3.62
676.304	4.62
677.06	3.62
677.817	2.62
678.574	3.62
679.33	2.62
680.086	5.62
680.843	2.62
681.599	2.62
682.355	4.62
683.111	2.62
683.867	3.62
684.623	3.62
685.379	4.62
686.135	2.62
686.89	2.62
687.646	3.62
688.402	4.62
689.157	2.62
689.912	1.62
690.668	3.62
691.423	3.62
692.178	1.62
692.933	3.62
693.688	3.62
694.443	1.62
695.198	4.62
695.953	5.62
696.708	2.62
697.462	1.62
698.217	2.62
698.972	3.62
699.726	3.62
700.48	4.62
701.235	4.62
701.989	0.62
702.743	2.62
703.497	5.62
704.251	2.62
705.005	2.62
705.759	3.62
706.513	3.62
707.266	4.62
708.02	5.62
708.774	2.62
709.527	1.62
710.28	2.62
711.034	3.62
711.787	2.62
712.54	2.62
713.293	4.62
714.046	4.62
714.799	5.62
715.552	2.62
716.305	3.62
717.058	2.62
717.81	2.62
718.563	3.62
719.315	7.62
720.068	0.62
720.82	2.62
721.573	3.62
722.325	3.62
723.077	3.62
723.829	3.62
724.581	3.62
725.333	2.62
726.085	1.62
726.836	3.62
727.588	4.62
728.34	3.62
729.091	3.62
729.843	1.62
730.594	5.62
731.346	2.62
732.097	6.62
732.848	2.62
733.599	3.62
734.35	4.62
735.101	3.62
735.852	2.62
736.603	2.62
737.354	3.62
738.104	3.62
738.855	3.62
739.605	2.62
740.356	4.62
741.106	3.62
741.856	1.62
742.607	5.62
743.357	4.62
744.107	1.62
744.857	3.62
745.607	4.62
746.357	5.62
747.106	4.62
747.856	4.62
748.606	4.62
749.355	2.62
750.105	2.62
750.854	3.62
751.603	7.62
752.353	4.62
753.102	4.62
753.851	3.62
754.6	7.62
755.349	4.62
756.098	3.62
756.847	4.62
757.595	4.62
758.344	7.62
759.093	3.62
759.841	3.62
760.589	5.62
761.338	4.62
762.086	5.62
762.834	5.62
763.582	6.62
764.331	5.62
765.079	4.62
765.826	6.62
766.574	5.62
767.322	5.62
768.07	7.62
768.817	7.62
769.565	4.62
770.312	5.62
771.06	5.62
771.807	6.62
772.554	6.62
773.302	5.62
774.049	4.62
774.796	5.62
775.543	6.62
776.29	8.62
777.036	6.62
777.783	6.62
778.53	4.62
779.276	7.62
780.023	9.62
780.769	6.62
781.516	9.62
782.262	6.62
783.008	8.62
783.754	7.62
784.5	8.62
785.246	7.62
785.992	9.62
786.738	7.62
787.484	8.62
788.23	9.62
788.975	7.62
789.721	7.62
790.466	9.62
791.212	4.62
791.957	7.62
792.702	5.62
793.447	6.62
794.193	8.62
794.938	5.62
795.683	7.62
796.427	6.62
797.172	8.62
797.917	4.62
798.662	9.62
799.406	6.62
800.151	7.62
800.895	6.62
801.64	5.62
802.384	6.62
803.128	7.62
803.872	5.62
804.616	5.62
805.36	4.62
806.104	8.62
806.848	5.62
807.592	6.62
808.336	6.62
809.079	5.62
809.823	5.62
810.566	6.62
811.31	6.62
812.053	2.62
812.796	6.62
813.539	6.62
814.283	4.62
815.026	4.62
815.769	3.62
816.511	4.62
817.254	3.62
817.997	4.62
818.74	2.62
819.482	3.62
820.225	3.62
820.967	6.62
821.71	3.62
822.452	2.62
823.194	3.62
823.936	5.62
824.678	4.62
825.42	4.62
826.162	5.62
826.904	3.62
827.646	4.62
828.388	3.62
829.129	3.62
829.871	4.62
830.612	5.62
831.354	4.62
832.095	4.62
832.836	3.62
833.577	4.62
834.319	3.62
835.06	2.62
835.801	1.62
836.542	3.62
837.282	3.62
838.023	3.62
838.764	5.62
839.504	3.62
840.245	4.62
840.985	5.62
841.726	1.62
842.466	0.62
843.206	4.62
843.946	1.62
844.687	4.62
845.427	2.62
846.166	0.62
846.906	2.62
847.646	2.62
848.386	3.62
849.125	1.62
849.865	2.62
850.605	0.62
851.344	0.62
852.083	2.62
852.823	2.62
853.562	3.62
854.301	1.62
855.04	1.62
855.779	3.62
856.518	0.62
857.257	1.62
857.995	0.62
858.734	1.62
859.473	1.62
860.211	1.62
860.95	1.62
861.688	1.62
862.426	1.62
863.165	4.62
863.903	1.62
864.641	-0.38
865.379	0.62
866.117	1.62
866.855	0.62
867.593	1.62
868.33	2.62
869.068	1.62
869.806	1.62
870.543	0.62
871.28	1.62
872.018	1.62
872.755	-0.38
873.492	0.62
874.229	0.62
874.967	0.62
875.703	-0.38
876.44	0.62
877.177	-0.38
877.914	-0.38
878.651	-0.38
879.387	1.62
880.124	-0.38
880.86	-1.38
881.597	-0.38
882.333	-0.38
883.069	1.62
883.806	-0.38
884.542	1.62
885.278	2.62
886.014	1.62
886.749	0.62
887.485	-1.38
888.221	0.62
888.957	0.62
889.692	-0.38
890.428	0.62
891.163	-0.38
891.899	0.62
892.634	0.62
893.369	1.62
894.104	-0.38
894.839	1.62
895.574	0.62
896.309	-2.38
897.044	0.62
897.779	0.62
898.514	1.62
899.248	-0.38
899.983	1.62
900.717	-0.38
901.452	0.62
902.186	-2.38
902.92	0.62
903.654	0.62
904.389	1.62
905.123	1.62
905.857	-0.38
906.59	0.62
907.324	1.62
908.058	0.62
908.792	-0.38
909.525	0.62
910.259	-2.38
910.992	-0.38
911.726	-2.38
912.459	-1.38
913.192	0.62
913.925	-1.38
914.658	0.62
915.391	0.62
916.124	2.62
916.857	1.62
917.59	0.62
918.323	1.62
919.055	-0.38
919.788	1.62
920.521	0.62
921.253	2.62
921.985	0.62
922.718	-0.38
923.45	-0.38
924.182	-2.38
924.914	-0.38
925.646	-0.38
926.378	0.62
927.11	0.62
927.841	-0.38
928.573	1.62
929.305	-0.38
930.036	1.62
930.768	-0.38
931.499	1.62
932.23	-0.38
932.962	0.62
933.693	0.62
934.424	-0.38
935.155	-1.38
935.886	0.62
936.617	0.62
937.348	-0.38
938.078	1.62
938.809	0.62
939.54	0.62
940.27	0.62
941.001	0.62
941.731	-0.38
942.461	-0.38
943.191	-1.38
943.922	-1.38
944.652	0.62
945.382	0.62
946.112	-1.38
946.841	-2.38
947.571	0.62
948.301	0.62
949.031	0.62
949.76	0.62
950.49	-0.38
951.219	0.62
951.948	1.62
952.678	-0.38
953.407	-2.38
954.136	-0.38
954.865	0.62
955.594	-3.38
956.323	1.62
957.052	-0.38
957.78	0.62
958.509	0.62
959.238	-2.38
959.966	1.62
960.695	0.62
961.423	0.62
962.151	-1.38
962.88	-0.38
963.608	-0.38
964.336	1.62
965.064	0.62
965.792	1.62
966.52	-0.38
967.247	-0.38
967.975	-0.38
968.703	-3.38
969.43	-3.38
970.158	0.62
970.885	-2.38
971.613	0.62
972.34	-0.38
973.067	1.62
973.794	-0.38
974.521	-0.38
975.248	0.62
975.975	-0.38
976.702	0.62
977.429	1.62
978.156	1.62
978.882	-1.38
979.609	-2.38
980.335	-2.38
981.062	-2.38
981.788	0.62
982.514	-2.38
983.24	0.62
983.967	0.62
984.693	-2.38
985.419	-1.38
986.144	-0.38
986.87	-1.38
987.596	0.62
988.322	-0.38
989.047	1.62
989.773	0.62
990.498	0.62
991.224	-0.38
991.949	-0.38
992.674	2.62
993.399	-0.38
994.124	-0.38
994.849	-0.38
995.574	0.62
996.299	-0.38
997.024	-1.38
997.749	1.62
998.473	0.62
999.198	-1.38
999.922	-0.38
1000.647	0.62
1001.371	1.62
1002.095	-1.38
1002.82	-2.38
1003.544	-0.38
1004.268	0.62
1004.992	0.62
1005.716	1.62
1006.439	1.62
1007.163	2.62
1007.887	0.62
1008.611	0.62
1009.334	3.62
1010.058	-0.38
1010.781	-1.38
1011.504	-2.38
1012.228	-1.38
1012.951	1.62
1013.674	-1.38
1014.397	0.62
1015.12	1.62
