节点500_285_QEPB04081__627__15-05-59-087.txt的数据

Date: Wed Nov 12 15:05:59 CST 2025
User: PC
Spectrometer: QEPB0408
触发模式: 0
积分时间 (秒): 1.000000E-2
Scans to average: 1
启用暗噪声校正: true
启用非线性校正: false
滑动平均宽度: 0
X轴模式: Wavelengths
Number of Pixels in Spectrum: 1044
>>>>>Begin Spectral Data<<<<<
220.843	1.88
221.644	2.88
222.444	2.88
223.244	0.88
224.045	2.88
224.845	1.88
225.645	2.88
226.445	1.88
227.245	3.88
228.045	3.88
228.845	5.88
229.645	4.88
230.444	4.88
231.244	2.88
232.043	0.88
232.843	3.88
233.642	1.88
234.442	5.88
235.241	2.88
236.04	2.88
236.839	2.88
237.638	3.88
238.437	3.88
239.236	4.88
240.035	3.88
240.833	4.88
241.632	4.88
242.43	4.88
243.229	6.88
244.027	4.88
244.826	5.88
245.624	3.88
246.422	5.88
247.22	5.88
248.018	3.88
248.816	5.88
249.614	7.88
250.412	7.88
251.21	7.88
252.007	9.88
252.805	7.88
253.602	6.88
254.4	6.88
255.197	8.88
255.994	6.88
256.791	4.88
257.589	7.88
258.386	10.88
259.183	9.88
259.979	8.88
260.776	8.88
261.573	10.88
262.37	9.88
263.166	7.88
263.963	11.88
264.759	13.88
265.556	12.88
266.352	10.88
267.148	14.88
267.944	13.88
268.74	16.88
269.536	16.88
270.332	14.88
271.128	15.88
271.924	14.88
272.719	14.88
273.515	12.88
274.311	14.88
275.106	15.88
275.901	14.88
276.697	18.88
277.492	13.88
278.287	13.88
279.082	19.88
279.877	19.88
280.672	18.88
281.467	16.88
282.262	16.88
283.056	14.88
283.851	21.88
284.646	20.88
285.44	16.88
286.234	20.88
287.029	19.88
287.823	16.88
288.617	15.88
289.411	20.88
290.205	18.88
290.999	16.88
291.793	16.88
292.587	17.88
293.381	17.88
294.174	14.88
294.968	17.88
295.761	16.88
296.555	14.88
297.348	12.88
298.141	14.88
298.935	19.88
299.728	14.88
300.521	16.88
301.314	14.88
302.107	12.88
302.899	12.88
303.692	14.88
304.485	12.88
305.277	13.88
306.07	12.88
306.862	14.88
307.655	12.88
308.447	13.88
309.239	11.88
310.031	13.88
310.823	10.88
311.615	10.88
312.407	11.88
313.199	6.88
313.991	10.88
314.783	10.88
315.574	6.88
316.366	10.88
317.157	8.88
317.949	8.88
318.74	7.88
319.531	8.88
320.322	8.88
321.113	8.88
321.904	7.88
322.695	8.88
323.486	7.88
324.277	6.88
325.068	7.88
325.858	6.88
326.649	8.88
327.439	7.88
328.23	8.88
329.02	8.88
329.81	5.88
330.6	8.88
331.391	8.88
332.181	6.88
332.971	8.88
333.76	7.88
334.55	6.88
335.34	5.88
336.13	8.88
336.919	8.88
337.709	5.88
338.498	8.88
339.287	6.88
340.077	9.88
340.866	8.88
341.655	8.88
342.444	7.88
343.233	5.88
344.022	6.88
344.811	7.88
345.6	4.88
346.388	3.88
347.177	4.88
347.965	8.88
348.754	6.88
349.542	7.88
350.33	5.88
351.119	5.88
351.907	7.88
352.695	6.88
353.483	7.88
354.271	6.88
355.059	6.88
355.846	4.88
356.634	4.88
357.422	6.88
358.209	6.88
358.997	8.88
359.784	7.88
360.571	2.88
361.359	6.88
362.146	5.88
362.933	6.88
363.72	7.88
364.507	5.88
365.294	4.88
366.081	5.88
366.867	5.88
367.654	4.88
368.44	5.88
369.227	1.88
370.013	5.88
370.8	6.88
371.586	4.88
372.372	5.88
373.158	5.88
373.944	5.88
374.73	5.88
375.516	4.88
376.302	5.88
377.088	2.88
377.873	6.88
378.659	4.88
379.445	5.88
380.23	4.88
381.015	3.88
381.801	6.88
382.586	4.88
383.371	5.88
384.156	6.88
384.941	7.88
385.726	6.88
386.511	5.88
387.296	5.88
388.08	4.88
388.865	6.88
389.649	3.88
390.434	7.88
391.218	8.88
392.003	8.88
392.787	6.88
393.571	7.88
394.355	7.88
395.139	5.88
395.923	7.88
396.707	7.88
397.491	7.88
398.274	7.88
399.058	4.88
399.842	7.88
400.625	8.88
401.408	8.88
402.192	7.88
402.975	7.88
403.758	6.88
404.541	7.88
405.324	10.88
406.107	6.88
406.89	8.88
407.673	7.88
408.456	7.88
409.238	6.88
410.021	5.88
410.803	5.88
411.586	8.88
412.368	9.88
413.151	8.88
413.933	7.88
414.715	10.88
415.497	9.88
416.279	10.88
417.061	9.88
417.843	8.88
418.624	8.88
419.406	10.88
420.188	9.88
420.969	8.88
421.751	11.88
422.532	11.88
423.313	11.88
424.095	13.88
424.876	11.88
425.657	11.88
426.438	10.88
427.219	13.88
428	13.88
428.78	12.88
429.561	10.88
430.342	13.88
431.122	13.88
431.903	15.88
432.683	14.88
433.464	16.88
434.244	15.88
435.024	16.88
435.804	18.88
436.584	15.88
437.364	20.88
438.144	20.88
438.924	19.88
439.704	24.88
440.483	22.88
441.263	23.88
442.042	24.88
442.822	25.88
443.601	29.88
444.38	32.88
445.16	33.88
445.939	36.88
446.718	36.88
447.497	41.88
448.276	46.88
449.054	48.88
449.833	52.88
450.612	56.88
451.391	61.88
452.169	69.88
452.948	70.88
453.726	81.88
454.504	88.88
455.282	98.88
456.061	105.88
456.839	117.88
457.617	133.88
458.395	150.88
459.172	168.88
459.95	183.88
460.728	195.88
461.506	226.88
462.283	255.88
463.061	274.88
463.838	319.88
464.615	343.88
465.393	385.88
466.17	430.88
466.947	471.88
467.724	530.88
468.501	591.88
469.278	653.88
470.055	721.88
470.831	804.88
471.608	880.88
472.385	986.88
473.161	1084.88
473.938	1199.88
474.714	1335.88
475.49	1475.88
476.266	1618.88
477.043	1759.88
477.819	1938.88
478.595	2143.88
479.371	2359.88
480.146	2553.88
480.922	2826.88
481.698	3100.88
482.473	3406.88
483.249	3729.88
484.024	4060.88
484.8	4457.88
485.575	4868.88
486.35	5307.88
487.126	5829.88
487.901	6365.88
488.676	6902.88
489.451	7544.88
490.225	8227.88
491	8907.88
491.775	9750.88
492.55	10569.88
493.324	11388.88
494.099	12261.88
494.873	13120.88
495.647	14146.88
496.422	15226.88
497.196	16323.88
497.97	17406.88
498.744	18513.88
499.518	19512.88
500.292	20653.88
501.066	21680.88
501.839	22601.88
502.613	23560.88
503.387	24432.88
504.16	25017.88
504.934	25504.88
505.707	25765.88
506.48	25965.88
507.253	25967.88
508.027	25921.88
508.8	25879.88
509.573	25605.88
510.346	25162.88
511.118	24510.88
511.891	23874.88
512.664	23141.88
513.437	22468.88
514.209	21565.88
514.982	20813.88
515.754	19898.88
516.526	19094.88
517.298	18311.88
518.071	17533.88
518.843	16869.88
519.615	16220.88
520.387	15573.88
521.159	14983.88
521.93	14344.88
522.702	13815.88
523.474	13228.88
524.245	12697.88
525.017	12159.88
525.788	11698.88
526.56	11146.88
527.331	10643.88
528.102	10207.88
528.873	9766.88
529.644	9268.88
530.415	8872.88
531.186	8438.88
531.957	7999.88
532.728	7630.88
533.498	7270.88
534.269	6830.88
535.039	6478.88
535.81	6144.88
536.58	5776.88
537.351	5487.88
538.121	5169.88
538.891	4871.88
539.661	4631.88
540.431	4364.88
541.201	4083.88
541.971	3909.88
542.741	3683.88
543.51	3534.88
544.28	3359.88
545.05	3183.88
545.819	3040.88
546.588	2872.88
547.358	2726.88
548.127	2615.88
548.896	2467.88
549.665	2357.88
550.434	2219.88
551.203	2105.88
551.972	1995.88
552.741	1885.88
553.51	1778.88
554.278	1691.88
555.047	1589.88
555.815	1507.88
556.584	1422.88
557.352	1339.88
558.121	1267.88
558.889	1206.88
559.657	1147.88
560.425	1074.88
561.193	1015.88
561.961	949.88
562.729	903.88
563.496	840.88
564.264	797.88
565.032	765.88
565.799	727.88
566.567	685.88
567.334	644.88
568.101	609.88
568.869	578.88
569.636	532.88
570.403	500.88
571.17	480.88
571.937	442.88
572.704	427.88
573.471	403.88
574.237	382.88
575.004	358.88
575.771	343.88
576.537	320.88
577.303	299.88
578.07	290.88
578.836	265.88
579.602	248.88
580.368	237.88
581.134	229.88
581.9	215.88
582.666	200.88
583.432	190.88
584.198	183.88
584.964	174.88
585.729	164.88
586.495	154.88
587.26	149.88
588.025	141.88
588.791	134.88
589.556	127.88
590.321	118.88
591.086	114.88
591.851	107.88
592.616	102.88
593.381	99.88
594.146	91.88
594.911	90.88
595.675	82.88
596.44	80.88
597.204	73.88
597.969	68.88
598.733	71.88
599.497	63.88
600.261	61.88
601.025	59.88
601.79	57.88
602.553	57.88
603.317	53.88
604.081	51.88
604.845	45.88
605.609	47.88
606.372	45.88
607.136	41.88
607.899	42.88
608.662	40.88
609.426	34.88
610.189	37.88
610.952	35.88
611.715	33.88
612.478	32.88
613.241	33.88
614.004	29.88
614.767	28.88
615.529	26.88
616.292	25.88
617.055	24.88
617.817	25.88
618.579	21.88
619.342	23.88
620.104	21.88
620.866	21.88
621.628	21.88
622.39	22.88
623.152	19.88
623.914	22.88
624.676	17.88
625.438	21.88
626.199	17.88
626.961	16.88
627.722	14.88
628.484	12.88
629.245	16.88
630.006	13.88
630.768	13.88
631.529	13.88
632.29	12.88
633.051	15.88
633.812	14.88
634.573	12.88
635.333	11.88
636.094	13.88
636.855	12.88
637.615	11.88
638.376	10.88
639.136	10.88
639.896	10.88
640.657	8.88
641.417	11.88
642.177	11.88
642.937	9.88
643.697	9.88
644.457	10.88
645.216	8.88
645.976	7.88
646.736	7.88
647.495	9.88
648.255	9.88
649.014	9.88
649.774	4.88
650.533	8.88
651.292	6.88
652.051	6.88
652.81	6.88
653.569	8.88
654.328	7.88
655.087	6.88
655.846	9.88
656.604	7.88
657.363	7.88
658.121	5.88
658.88	6.88
659.638	7.88
660.397	5.88
661.155	5.88
661.913	8.88
662.671	5.88
663.429	5.88
664.187	4.88
664.945	6.88
665.703	4.88
666.46	6.88
667.218	7.88
667.976	3.88
668.733	5.88
669.49	1.88
670.248	5.88
671.005	5.88
671.762	4.88
672.519	5.88
673.276	7.88
674.033	5.88
674.79	4.88
675.547	4.88
676.304	4.88
677.06	7.88
677.817	7.88
678.574	4.88
679.33	6.88
680.086	4.88
680.843	5.88
681.599	3.88
682.355	3.88
683.111	3.88
683.867	3.88
684.623	5.88
685.379	6.88
686.135	2.88
686.89	3.88
687.646	4.88
688.402	3.88
689.157	4.88
689.912	3.88
690.668	5.88
691.423	0.88
692.178	4.88
692.933	4.88
693.688	5.88
694.443	4.88
695.198	3.88
695.953	4.88
696.708	4.88
697.462	2.88
698.217	3.88
698.972	2.88
699.726	4.88
700.48	3.88
701.235	2.88
701.989	4.88
702.743	4.88
703.497	3.88
704.251	5.88
705.005	3.88
705.759	3.88
706.513	5.88
707.266	3.88
708.02	2.88
708.774	4.88
709.527	5.88
710.28	2.88
711.034	6.88
711.787	4.88
712.54	4.88
713.293	4.88
714.046	1.88
714.799	5.88
715.552	5.88
716.305	3.88
717.058	7.88
717.81	4.88
718.563	6.88
719.315	3.88
720.068	6.88
720.82	2.88
721.573	4.88
722.325	4.88
723.077	4.88
723.829	6.88
724.581	4.88
725.333	6.88
726.085	3.88
726.836	3.88
727.588	2.88
728.34	3.88
729.091	4.88
729.843	1.88
730.594	5.88
731.346	4.88
732.097	5.88
732.848	4.88
733.599	2.88
734.35	4.88
735.101	3.88
735.852	3.88
736.603	4.88
737.354	4.88
738.104	5.88
738.855	5.88
739.605	4.88
740.356	4.88
741.106	5.88
741.856	7.88
742.607	4.88
743.357	7.88
744.107	6.88
744.857	6.88
745.607	4.88
746.357	6.88
747.106	6.88
747.856	4.88
748.606	4.88
749.355	4.88
750.105	4.88
750.854	5.88
751.603	3.88
752.353	6.88
753.102	5.88
753.851	6.88
754.6	4.88
755.349	6.88
756.098	4.88
756.847	7.88
757.595	7.88
758.344	8.88
759.093	6.88
759.841	6.88
760.589	5.88
761.338	4.88
762.086	6.88
762.834	5.88
763.582	7.88
764.331	8.88
765.079	5.88
765.826	7.88
766.574	7.88
767.322	7.88
768.07	9.88
768.817	6.88
769.565	9.88
770.312	8.88
771.06	6.88
771.807	8.88
772.554	6.88
773.302	9.88
774.049	7.88
774.796	6.88
775.543	9.88
776.29	7.88
777.036	9.88
777.783	9.88
778.53	7.88
779.276	8.88
780.023	10.88
780.769	7.88
781.516	9.88
782.262	8.88
783.008	7.88
783.754	7.88
784.5	6.88
785.246	9.88
785.992	9.88
786.738	8.88
787.484	7.88
788.23	7.88
788.975	8.88
789.721	9.88
790.466	8.88
791.212	10.88
791.957	7.88
792.702	7.88
793.447	10.88
794.193	8.88
794.938	7.88
795.683	6.88
796.427	7.88
797.172	7.88
797.917	8.88
798.662	7.88
799.406	6.88
800.151	8.88
800.895	9.88
801.64	7.88
802.384	6.88
803.128	7.88
803.872	6.88
804.616	6.88
805.36	4.88
806.104	4.88
806.848	4.88
807.592	6.88
808.336	6.88
809.079	8.88
809.823	6.88
810.566	6.88
811.31	5.88
812.053	8.88
812.796	6.88
813.539	8.88
814.283	5.88
815.026	4.88
815.769	5.88
816.511	7.88
817.254	5.88
817.997	4.88
818.74	4.88
819.482	5.88
820.225	4.88
820.967	7.88
821.71	4.88
822.452	4.88
823.194	3.88
823.936	4.88
824.678	4.88
825.42	2.88
826.162	6.88
826.904	2.88
827.646	6.88
828.388	5.88
829.129	3.88
829.871	5.88
830.612	3.88
831.354	4.88
832.095	1.88
832.836	2.88
833.577	6.88
834.319	4.88
835.06	5.88
835.801	4.88
836.542	1.88
837.282	4.88
838.023	6.88
838.764	4.88
839.504	5.88
840.245	3.88
840.985	4.88
841.726	3.88
842.466	2.88
843.206	2.88
843.946	2.88
844.687	2.88
845.427	2.88
846.166	2.88
846.906	4.88
847.646	2.88
848.386	1.88
849.125	4.88
849.865	4.88
850.605	3.88
851.344	2.88
852.083	4.88
852.823	4.88
853.562	2.88
854.301	2.88
855.04	4.88
855.779	1.88
856.518	3.88
857.257	2.88
857.995	1.88
858.734	1.88
859.473	2.88
860.211	2.88
860.95	2.88
861.688	2.88
862.426	2.88
863.165	1.88
863.903	1.88
864.641	3.88
865.379	2.88
866.117	3.88
866.855	2.88
867.593	-1.12
868.33	3.88
869.068	0.88
869.806	2.88
870.543	0.88
871.28	2.88
872.018	2.88
872.755	1.88
873.492	0.88
874.229	2.88
874.967	2.88
875.703	1.88
876.44	1.88
877.177	2.88
877.914	2.88
878.651	0.88
879.387	0.88
880.124	1.88
880.86	2.88
881.597	1.88
882.333	1.88
883.069	2.88
883.806	1.88
884.542	0.88
885.278	1.88
886.014	2.88
886.749	0.88
887.485	2.88
888.221	-0.12
888.957	-0.12
889.692	2.88
890.428	0.88
891.163	1.88
891.899	1.88
892.634	1.88
893.369	2.88
894.104	2.88
894.839	0.88
895.574	1.88
896.309	1.88
897.044	0.88
897.779	1.88
898.514	1.88
899.248	3.88
899.983	-0.12
900.717	1.88
901.452	1.88
902.186	1.88
902.92	3.88
903.654	-0.12
904.389	2.88
905.123	1.88
905.857	-1.12
906.59	3.88
907.324	0.88
908.058	1.88
908.792	-0.12
909.525	1.88
910.259	1.88
910.992	2.88
911.726	0.88
912.459	0.88
913.192	0.88
913.925	0.88
914.658	-2.12
915.391	1.88
916.124	0.88
916.857	-2.12
917.59	1.88
918.323	1.88
919.055	1.88
919.788	2.88
920.521	1.88
921.253	2.88
921.985	4.88
922.718	2.88
923.45	-1.12
924.182	-0.12
924.914	0.88
925.646	1.88
926.378	-0.12
927.11	2.88
927.841	1.88
928.573	0.88
929.305	0.88
930.036	0.88
930.768	0.88
931.499	0.88
932.23	1.88
932.962	2.88
933.693	1.88
934.424	0.88
935.155	1.88
935.886	0.88
936.617	0.88
937.348	1.88
938.078	0.88
938.809	-0.12
939.54	-1.12
940.27	1.88
941.001	-1.12
941.731	1.88
942.461	-1.12
943.191	3.88
943.922	0.88
944.652	2.88
945.382	1.88
946.112	-0.12
946.841	1.88
947.571	0.88
948.301	-1.12
949.031	-1.12
949.76	-1.12
950.49	1.88
951.219	1.88
951.948	1.88
952.678	-1.12
953.407	3.88
954.136	0.88
954.865	1.88
955.594	0.88
956.323	-0.12
957.052	1.88
957.78	2.88
958.509	-0.12
959.238	0.88
959.966	1.88
960.695	2.88
961.423	-0.12
962.151	0.88
962.88	-1.12
963.608	-0.12
964.336	0.88
965.064	0.88
965.792	1.88
966.52	1.88
967.247	1.88
967.975	1.88
968.703	-2.12
969.43	1.88
970.158	-0.12
970.885	-0.12
971.613	1.88
972.34	3.88
973.067	1.88
973.794	-1.12
974.521	0.88
975.248	0.88
975.975	0.88
976.702	1.88
977.429	-1.12
978.156	-1.12
978.882	0.88
979.609	0.88
980.335	0.88
981.062	1.88
981.788	-0.12
982.514	1.88
983.24	-2.12
983.967	1.88
984.693	1.88
985.419	0.88
986.144	2.88
986.87	2.88
987.596	1.88
988.322	0.88
989.047	-1.12
989.773	2.88
990.498	0.88
991.224	1.88
991.949	-0.12
992.674	1.88
993.399	0.88
994.124	-0.12
994.849	1.88
995.574	-0.12
996.299	1.88
997.024	-0.12
997.749	-0.12
998.473	2.88
999.198	0.88
999.922	1.88
1000.647	0.88
1001.371	3.88
1002.095	-2.12
1002.82	-1.12
1003.544	-1.12
1004.268	3.88
1004.992	1.88
1005.716	3.88
1006.439	2.88
1007.163	1.88
1007.887	2.88
1008.611	2.88
1009.334	-0.12
1010.058	0.88
1010.781	0.88
1011.504	-0.12
1012.228	2.88
1012.951	-0.12
1013.674	0.88
1014.397	0.88
1015.12	-1.12
