节点500_285_QEPB04081__371__15-01-43-664.txt的数据

Date: Wed Nov 12 15:01:43 CST 2025
User: PC
Spectrometer: QEPB0408
触发模式: 0
积分时间 (秒): 1.000000E-2
Scans to average: 1
启用暗噪声校正: true
启用非线性校正: false
滑动平均宽度: 0
X轴模式: Wavelengths
Number of Pixels in Spectrum: 1044
>>>>>Begin Spectral Data<<<<<
220.843	-0.75
221.644	2.25
222.444	3.25
223.244	4.25
224.045	2.25
224.845	2.25
225.645	2.25
226.445	2.25
227.245	3.25
228.045	1.25
228.845	3.25
229.645	2.25
230.444	3.25
231.244	3.25
232.043	4.25
232.843	4.25
233.642	4.25
234.442	4.25
235.241	4.25
236.04	4.25
236.839	5.25
237.638	5.25
238.437	5.25
239.236	4.25
240.035	5.25
240.833	5.25
241.632	4.25
242.43	4.25
243.229	4.25
244.027	6.25
244.826	4.25
245.624	5.25
246.422	7.25
247.22	6.25
248.018	4.25
248.816	6.25
249.614	4.25
250.412	6.25
251.21	8.25
252.007	7.25
252.805	6.25
253.602	6.25
254.4	9.25
255.197	6.25
255.994	9.25
256.791	9.25
257.589	9.25
258.386	8.25
259.183	9.25
259.979	9.25
260.776	11.25
261.573	9.25
262.37	11.25
263.166	10.25
263.963	12.25
264.759	12.25
265.556	11.25
266.352	12.25
267.148	13.25
267.944	14.25
268.74	15.25
269.536	13.25
270.332	15.25
271.128	14.25
271.924	17.25
272.719	16.25
273.515	16.25
274.311	17.25
275.106	19.25
275.901	17.25
276.697	17.25
277.492	17.25
278.287	17.25
279.082	19.25
279.877	22.25
280.672	20.25
281.467	20.25
282.262	17.25
283.056	18.25
283.851	20.25
284.646	16.25
285.44	18.25
286.234	20.25
287.029	20.25
287.823	18.25
288.617	18.25
289.411	19.25
290.205	18.25
290.999	18.25
291.793	17.25
292.587	16.25
293.381	18.25
294.174	17.25
294.968	14.25
295.761	15.25
296.555	15.25
297.348	15.25
298.141	15.25
298.935	17.25
299.728	14.25
300.521	16.25
301.314	15.25
302.107	10.25
302.899	14.25
303.692	12.25
304.485	12.25
305.277	10.25
306.07	15.25
306.862	12.25
307.655	15.25
308.447	12.25
309.239	13.25
310.031	13.25
310.823	10.25
311.615	12.25
312.407	10.25
313.199	10.25
313.991	12.25
314.783	9.25
315.574	10.25
316.366	11.25
317.157	8.25
317.949	8.25
318.74	7.25
319.531	6.25
320.322	9.25
321.113	8.25
321.904	9.25
322.695	7.25
323.486	8.25
324.277	4.25
325.068	8.25
325.858	7.25
326.649	6.25
327.439	7.25
328.23	6.25
329.02	7.25
329.81	7.25
330.6	7.25
331.391	8.25
332.181	7.25
332.971	7.25
333.76	7.25
334.55	7.25
335.34	7.25
336.13	8.25
336.919	7.25
337.709	6.25
338.498	7.25
339.287	5.25
340.077	8.25
340.866	6.25
341.655	9.25
342.444	6.25
343.233	5.25
344.022	8.25
344.811	5.25
345.6	7.25
346.388	7.25
347.177	6.25
347.965	8.25
348.754	5.25
349.542	8.25
350.33	4.25
351.119	6.25
351.907	6.25
352.695	8.25
353.483	7.25
354.271	5.25
355.059	6.25
355.846	6.25
356.634	6.25
357.422	6.25
358.209	7.25
358.997	8.25
359.784	5.25
360.571	7.25
361.359	5.25
362.146	8.25
362.933	5.25
363.72	5.25
364.507	5.25
365.294	4.25
366.081	5.25
366.867	5.25
367.654	7.25
368.44	8.25
369.227	4.25
370.013	6.25
370.8	6.25
371.586	6.25
372.372	5.25
373.158	4.25
373.944	8.25
374.73	4.25
375.516	6.25
376.302	4.25
377.088	5.25
377.873	5.25
378.659	4.25
379.445	5.25
380.23	5.25
381.015	5.25
381.801	5.25
382.586	5.25
383.371	5.25
384.156	5.25
384.941	6.25
385.726	6.25
386.511	5.25
387.296	6.25
388.08	4.25
388.865	8.25
389.649	5.25
390.434	6.25
391.218	6.25
392.003	5.25
392.787	5.25
393.571	7.25
394.355	8.25
395.139	9.25
395.923	7.25
396.707	5.25
397.491	6.25
398.274	7.25
399.058	7.25
399.842	6.25
400.625	8.25
401.408	6.25
402.192	9.25
402.975	6.25
403.758	10.25
404.541	8.25
405.324	8.25
406.107	8.25
406.89	8.25
407.673	8.25
408.456	7.25
409.238	8.25
410.021	9.25
410.803	11.25
411.586	8.25
412.368	9.25
413.151	9.25
413.933	11.25
414.715	10.25
415.497	10.25
416.279	9.25
417.061	10.25
417.843	8.25
418.624	13.25
419.406	10.25
420.188	11.25
420.969	9.25
421.751	8.25
422.532	11.25
423.313	10.25
424.095	14.25
424.876	12.25
425.657	12.25
426.438	14.25
427.219	12.25
428	18.25
428.78	16.25
429.561	12.25
430.342	13.25
431.122	14.25
431.903	15.25
432.683	14.25
433.464	16.25
434.244	16.25
435.024	18.25
435.804	18.25
436.584	18.25
437.364	23.25
438.144	19.25
438.924	23.25
439.704	23.25
440.483	24.25
441.263	21.25
442.042	25.25
442.822	27.25
443.601	29.25
444.38	29.25
445.16	30.25
445.939	35.25
446.718	39.25
447.497	41.25
448.276	43.25
449.054	44.25
449.833	49.25
450.612	53.25
451.391	56.25
452.169	61.25
452.948	67.25
453.726	74.25
454.504	81.25
455.282	90.25
456.061	97.25
456.839	110.25
457.617	126.25
458.395	137.25
459.172	158.25
459.95	172.25
460.728	185.25
461.506	204.25
462.283	232.25
463.061	262.25
463.838	290.25
464.615	321.25
465.393	365.25
466.17	398.25
466.947	449.25
467.724	502.25
468.501	558.25
469.278	622.25
470.055	685.25
470.831	767.25
471.608	849.25
472.385	958.25
473.161	1049.25
473.938	1159.25
474.714	1294.25
475.49	1425.25
476.266	1579.25
477.043	1752.25
477.819	1938.25
478.595	2141.25
479.371	2354.25
480.146	2573.25
480.922	2845.25
481.698	3110.25
482.473	3481.25
483.249	3820.25
484.024	4189.25
484.8	4614.25
485.575	5031.25
486.35	5559.25
487.126	6097.25
487.901	6713.25
488.676	7347.25
489.451	7993.25
490.225	8796.25
491	9564.25
491.775	10474.25
492.55	11395.25
493.324	12342.25
494.099	13266.25
494.873	14320.25
495.647	15502.25
496.422	16650.25
497.196	17769.25
497.97	18953.25
498.744	20152.25
499.518	21347.25
500.292	22489.25
501.066	23548.25
501.839	24527.25
502.613	25365.25
503.387	26190.25
504.16	26888.25
504.934	27150.25
505.707	27372.25
506.48	27451.25
507.253	27354.25
508.027	27083.25
508.8	26785.25
509.573	26381.25
510.346	25741.25
511.118	24979.25
511.891	24199.25
512.664	23337.25
513.437	22470.25
514.209	21526.25
514.982	20708.25
515.754	19772.25
516.526	18882.25
517.298	18043.25
518.071	17293.25
518.843	16684.25
519.615	16020.25
520.387	15312.25
521.159	14776.25
521.93	14186.25
522.702	13625.25
523.474	13058.25
524.245	12509.25
525.017	11956.25
525.788	11490.25
526.56	10988.25
527.331	10492.25
528.102	9988.25
528.873	9518.25
529.644	9031.25
530.415	8612.25
531.186	8197.25
531.957	7729.25
532.728	7354.25
533.498	6989.25
534.269	6575.25
535.039	6229.25
535.81	5880.25
536.58	5573.25
537.351	5209.25
538.121	4954.25
538.891	4649.25
539.661	4442.25
540.431	4181.25
541.201	3962.25
541.971	3728.25
542.741	3549.25
543.51	3362.25
544.28	3237.25
545.05	3040.25
545.819	2896.25
546.588	2766.25
547.358	2615.25
548.127	2491.25
548.896	2359.25
549.665	2254.25
550.434	2121.25
551.203	2018.25
551.972	1894.25
552.741	1798.25
553.51	1685.25
554.278	1607.25
555.047	1515.25
555.815	1427.25
556.584	1349.25
557.352	1282.25
558.121	1192.25
558.889	1135.25
559.657	1082.25
560.425	1011.25
561.193	960.25
561.961	901.25
562.729	844.25
563.496	799.25
564.264	770.25
565.032	724.25
565.799	681.25
566.567	664.25
567.334	605.25
568.101	576.25
568.869	548.25
569.636	510.25
570.403	475.25
571.17	446.25
571.937	425.25
572.704	405.25
573.471	383.25
574.237	372.25
575.004	336.25
575.771	326.25
576.537	303.25
577.303	284.25
578.07	270.25
578.836	254.25
579.602	238.25
580.368	223.25
581.134	210.25
581.9	208.25
582.666	191.25
583.432	179.25
584.198	170.25
584.964	165.25
585.729	157.25
586.495	151.25
587.26	137.25
588.025	130.25
588.791	125.25
589.556	115.25
590.321	114.25
591.086	108.25
591.851	97.25
592.616	98.25
593.381	85.25
594.146	90.25
594.911	82.25
595.675	80.25
596.44	75.25
597.204	68.25
597.969	70.25
598.733	66.25
599.497	63.25
600.261	60.25
601.025	58.25
601.79	54.25
602.553	54.25
603.317	47.25
604.081	46.25
604.845	46.25
605.609	45.25
606.372	42.25
607.136	37.25
607.899	39.25
608.662	39.25
609.426	35.25
610.189	36.25
610.952	33.25
611.715	34.25
612.478	33.25
613.241	29.25
614.004	30.25
614.767	29.25
615.529	24.25
616.292	28.25
617.055	24.25
617.817	23.25
618.579	23.25
619.342	22.25
620.104	20.25
620.866	19.25
621.628	21.25
622.39	21.25
623.152	18.25
623.914	17.25
624.676	19.25
625.438	15.25
626.199	16.25
626.961	18.25
627.722	13.25
628.484	16.25
629.245	13.25
630.006	14.25
630.768	16.25
631.529	14.25
632.29	14.25
633.051	14.25
633.812	11.25
634.573	11.25
635.333	13.25
636.094	12.25
636.855	8.25
637.615	12.25
638.376	11.25
639.136	12.25
639.896	10.25
640.657	12.25
641.417	11.25
642.177	10.25
642.937	10.25
643.697	9.25
644.457	9.25
645.216	9.25
645.976	7.25
646.736	8.25
647.495	7.25
648.255	10.25
649.014	7.25
649.774	8.25
650.533	4.25
651.292	7.25
652.051	6.25
652.81	7.25
653.569	5.25
654.328	6.25
655.087	7.25
655.846	6.25
656.604	2.25
657.363	7.25
658.121	8.25
658.88	7.25
659.638	5.25
660.397	5.25
661.155	5.25
661.913	2.25
662.671	5.25
663.429	6.25
664.187	5.25
664.945	7.25
665.703	5.25
666.46	8.25
667.218	7.25
667.976	6.25
668.733	7.25
669.49	7.25
670.248	5.25
671.005	6.25
671.762	5.25
672.519	5.25
673.276	6.25
674.033	7.25
674.79	5.25
675.547	5.25
676.304	3.25
677.06	5.25
677.817	2.25
678.574	4.25
679.33	4.25
680.086	3.25
680.843	6.25
681.599	4.25
682.355	5.25
683.111	5.25
683.867	3.25
684.623	5.25
685.379	3.25
686.135	3.25
686.89	3.25
687.646	3.25
688.402	2.25
689.157	2.25
689.912	4.25
690.668	2.25
691.423	5.25
692.178	3.25
692.933	3.25
693.688	2.25
694.443	3.25
695.198	5.25
695.953	5.25
696.708	5.25
697.462	4.25
698.217	4.25
698.972	1.25
699.726	3.25
700.48	4.25
701.235	3.25
701.989	5.25
702.743	3.25
703.497	2.25
704.251	6.25
705.005	3.25
705.759	5.25
706.513	4.25
707.266	3.25
708.02	5.25
708.774	4.25
709.527	4.25
710.28	4.25
711.034	2.25
711.787	2.25
712.54	5.25
713.293	4.25
714.046	4.25
714.799	4.25
715.552	6.25
716.305	4.25
717.058	2.25
717.81	5.25
718.563	3.25
719.315	3.25
720.068	6.25
720.82	4.25
721.573	3.25
722.325	4.25
723.077	2.25
723.829	2.25
724.581	4.25
725.333	5.25
726.085	5.25
726.836	6.25
727.588	2.25
728.34	5.25
729.091	3.25
729.843	5.25
730.594	4.25
731.346	5.25
732.097	1.25
732.848	5.25
733.599	4.25
734.35	4.25
735.101	6.25
735.852	4.25
736.603	3.25
737.354	5.25
738.104	2.25
738.855	3.25
739.605	4.25
740.356	6.25
741.106	6.25
741.856	4.25
742.607	4.25
743.357	7.25
744.107	5.25
744.857	7.25
745.607	7.25
746.357	5.25
747.106	6.25
747.856	3.25
748.606	4.25
749.355	6.25
750.105	3.25
750.854	5.25
751.603	4.25
752.353	5.25
753.102	5.25
753.851	6.25
754.6	7.25
755.349	4.25
756.098	7.25
756.847	5.25
757.595	7.25
758.344	8.25
759.093	6.25
759.841	6.25
760.589	7.25
761.338	8.25
762.086	7.25
762.834	6.25
763.582	8.25
764.331	6.25
765.079	10.25
765.826	5.25
766.574	9.25
767.322	10.25
768.07	7.25
768.817	7.25
769.565	7.25
770.312	9.25
771.06	7.25
771.807	11.25
772.554	7.25
773.302	7.25
774.049	8.25
774.796	9.25
775.543	9.25
776.29	8.25
777.036	7.25
777.783	9.25
778.53	7.25
779.276	10.25
780.023	6.25
780.769	10.25
781.516	8.25
782.262	8.25
783.008	9.25
783.754	8.25
784.5	9.25
785.246	6.25
785.992	12.25
786.738	9.25
787.484	9.25
788.23	9.25
788.975	9.25
789.721	8.25
790.466	8.25
791.212	8.25
791.957	10.25
792.702	6.25
793.447	10.25
794.193	7.25
794.938	8.25
795.683	6.25
796.427	8.25
797.172	8.25
797.917	7.25
798.662	7.25
799.406	7.25
800.151	9.25
800.895	7.25
801.64	7.25
802.384	8.25
803.128	7.25
803.872	7.25
804.616	8.25
805.36	7.25
806.104	7.25
806.848	7.25
807.592	9.25
808.336	9.25
809.079	7.25
809.823	7.25
810.566	7.25
811.31	4.25
812.053	7.25
812.796	7.25
813.539	7.25
814.283	6.25
815.026	4.25
815.769	4.25
816.511	3.25
817.254	5.25
817.997	6.25
818.74	5.25
819.482	4.25
820.225	5.25
820.967	4.25
821.71	4.25
822.452	5.25
823.194	5.25
823.936	5.25
824.678	3.25
825.42	2.25
826.162	4.25
826.904	4.25
827.646	7.25
828.388	7.25
829.129	4.25
829.871	6.25
830.612	6.25
831.354	3.25
832.095	3.25
832.836	5.25
833.577	4.25
834.319	2.25
835.06	4.25
835.801	5.25
836.542	3.25
837.282	3.25
838.023	5.25
838.764	5.25
839.504	5.25
840.245	4.25
840.985	2.25
841.726	5.25
842.466	2.25
843.206	3.25
843.946	2.25
844.687	1.25
845.427	3.25
846.166	2.25
846.906	4.25
847.646	4.25
848.386	2.25
849.125	5.25
849.865	3.25
850.605	3.25
851.344	4.25
852.083	6.25
852.823	2.25
853.562	4.25
854.301	2.25
855.04	4.25
855.779	2.25
856.518	2.25
857.257	1.25
857.995	3.25
858.734	4.25
859.473	2.25
860.211	3.25
860.95	3.25
861.688	0.25
862.426	3.25
863.165	4.25
863.903	4.25
864.641	1.25
865.379	3.25
866.117	2.25
866.855	1.25
867.593	4.25
868.33	2.25
869.068	1.25
869.806	3.25
870.543	1.25
871.28	1.25
872.018	0.25
872.755	2.25
873.492	-1.75
874.229	2.25
874.967	1.25
875.703	1.25
876.44	2.25
877.177	2.25
877.914	0.25
878.651	2.25
879.387	0.25
880.124	2.25
880.86	0.25
881.597	2.25
882.333	-0.75
883.069	3.25
883.806	2.25
884.542	3.25
885.278	1.25
886.014	0.25
886.749	3.25
887.485	3.25
888.221	-1.75
888.957	2.25
889.692	0.25
890.428	0.25
891.163	0.25
891.899	2.25
892.634	2.25
893.369	2.25
894.104	1.25
894.839	2.25
895.574	3.25
896.309	0.25
897.044	1.25
897.779	2.25
898.514	-0.75
899.248	1.25
899.983	-1.75
900.717	2.25
901.452	0.25
902.186	1.25
902.92	1.25
903.654	-1.75
904.389	2.25
905.123	1.25
905.857	1.25
906.59	2.25
907.324	1.25
908.058	0.25
908.792	1.25
909.525	1.25
910.259	1.25
910.992	1.25
911.726	0.25
912.459	-0.75
913.192	2.25
913.925	0.25
914.658	0.25
915.391	0.25
916.124	0.25
916.857	2.25
917.59	1.25
918.323	1.25
919.055	2.25
919.788	0.25
920.521	0.25
921.253	1.25
921.985	2.25
922.718	0.25
923.45	0.25
924.182	-1.75
924.914	2.25
925.646	1.25
926.378	1.25
927.11	2.25
927.841	0.25
928.573	2.25
929.305	0.25
930.036	-0.75
930.768	1.25
931.499	0.25
932.23	1.25
932.962	0.25
933.693	-1.75
934.424	0.25
935.155	0.25
935.886	0.25
936.617	2.25
937.348	4.25
938.078	1.25
938.809	-0.75
939.54	0.25
940.27	1.25
941.001	2.25
941.731	0.25
942.461	0.25
943.191	2.25
943.922	0.25
944.652	1.25
945.382	2.25
946.112	1.25
946.841	-1.75
947.571	1.25
948.301	0.25
949.031	3.25
949.76	2.25
950.49	-1.75
951.219	1.25
951.948	1.25
952.678	2.25
953.407	0.25
954.136	1.25
954.865	2.25
955.594	0.25
956.323	0.25
957.052	-0.75
957.78	1.25
958.509	1.25
959.238	0.25
959.966	-1.75
960.695	-0.75
961.423	1.25
962.151	1.25
962.88	1.25
963.608	0.25
964.336	-1.75
965.064	0.25
965.792	-0.75
966.52	0.25
967.247	0.25
967.975	0.25
968.703	2.25
969.43	0.25
970.158	-0.75
970.885	1.25
971.613	1.25
972.34	1.25
973.067	0.25
973.794	-1.75
974.521	2.25
975.248	0.25
975.975	-0.75
976.702	0.25
977.429	1.25
978.156	2.25
978.882	-0.75
979.609	1.25
980.335	0.25
981.062	0.25
981.788	-0.75
982.514	0.25
983.24	0.25
983.967	1.25
984.693	1.25
985.419	-0.75
986.144	0.25
986.87	2.25
987.596	1.25
988.322	1.25
989.047	1.25
989.773	0.25
990.498	-0.75
991.224	1.25
991.949	0.25
992.674	2.25
993.399	1.25
994.124	1.25
994.849	-0.75
995.574	2.25
996.299	4.25
997.024	2.25
997.749	2.25
998.473	2.25
999.198	2.25
999.922	-0.75
1000.647	1.25
1001.371	2.25
1002.095	-0.75
1002.82	-1.75
1003.544	0.25
1004.268	2.25
1004.992	2.25
1005.716	2.25
1006.439	1.25
1007.163	2.25
1007.887	2.25
1008.611	2.25
1009.334	0.25
1010.058	2.25
1010.781	0.25
1011.504	-1.75
1012.228	2.25
1012.951	-1.75
1013.674	1.25
1014.397	-0.75
1015.12	1.25
