节点500_285_QEPB04081__214__14-59-07-072.txt的数据

Date: Wed Nov 12 14:59:07 CST 2025
User: PC
Spectrometer: QEPB0408
触发模式: 0
积分时间 (秒): 1.000000E-2
Scans to average: 1
启用暗噪声校正: true
启用非线性校正: false
滑动平均宽度: 0
X轴模式: Wavelengths
Number of Pixels in Spectrum: 1044
>>>>>Begin Spectral Data<<<<<
220.843	2.62
221.644	1.62
222.444	2.62
223.244	4.62
224.045	3.62
224.845	1.62
225.645	1.62
226.445	3.62
227.245	2.62
228.045	1.62
228.845	1.62
229.645	0.62
230.444	3.62
231.244	1.62
232.043	0.62
232.843	5.62
233.642	5.62
234.442	4.62
235.241	2.62
236.04	1.62
236.839	1.62
237.638	4.62
238.437	5.62
239.236	4.62
240.035	3.62
240.833	3.62
241.632	3.62
242.43	4.62
243.229	3.62
244.027	6.62
244.826	6.62
245.624	6.62
246.422	3.62
247.22	5.62
248.018	6.62
248.816	6.62
249.614	7.62
250.412	6.62
251.21	8.62
252.007	7.62
252.805	8.62
253.602	7.62
254.4	8.62
255.197	5.62
255.994	7.62
256.791	9.62
257.589	6.62
258.386	9.62
259.183	11.62
259.979	8.62
260.776	11.62
261.573	10.62
262.37	13.62
263.166	11.62
263.963	12.62
264.759	14.62
265.556	16.62
266.352	13.62
267.148	13.62
267.944	11.62
268.74	15.62
269.536	13.62
270.332	15.62
271.128	16.62
271.924	16.62
272.719	16.62
273.515	16.62
274.311	16.62
275.106	17.62
275.901	17.62
276.697	18.62
277.492	21.62
278.287	21.62
279.082	20.62
279.877	17.62
280.672	18.62
281.467	19.62
282.262	19.62
283.056	22.62
283.851	20.62
284.646	19.62
285.44	19.62
286.234	16.62
287.029	18.62
287.823	20.62
288.617	18.62
289.411	18.62
290.205	19.62
290.999	20.62
291.793	17.62
292.587	16.62
293.381	18.62
294.174	14.62
294.968	16.62
295.761	18.62
296.555	17.62
297.348	16.62
298.141	16.62
298.935	17.62
299.728	13.62
300.521	16.62
301.314	16.62
302.107	12.62
302.899	11.62
303.692	12.62
304.485	14.62
305.277	13.62
306.07	12.62
306.862	10.62
307.655	11.62
308.447	14.62
309.239	12.62
310.031	12.62
310.823	13.62
311.615	10.62
312.407	10.62
313.199	9.62
313.991	9.62
314.783	9.62
315.574	9.62
316.366	8.62
317.157	7.62
317.949	10.62
318.74	10.62
319.531	5.62
320.322	7.62
321.113	9.62
321.904	7.62
322.695	8.62
323.486	7.62
324.277	7.62
325.068	7.62
325.858	5.62
326.649	9.62
327.439	7.62
328.23	8.62
329.02	7.62
329.81	6.62
330.6	7.62
331.391	6.62
332.181	8.62
332.971	7.62
333.76	3.62
334.55	8.62
335.34	4.62
336.13	5.62
336.919	7.62
337.709	5.62
338.498	7.62
339.287	5.62
340.077	7.62
340.866	6.62
341.655	5.62
342.444	3.62
343.233	6.62
344.022	5.62
344.811	3.62
345.6	6.62
346.388	6.62
347.177	6.62
347.965	7.62
348.754	6.62
349.542	6.62
350.33	5.62
351.119	6.62
351.907	8.62
352.695	5.62
353.483	4.62
354.271	4.62
355.059	7.62
355.846	8.62
356.634	3.62
357.422	4.62
358.209	6.62
358.997	5.62
359.784	4.62
360.571	6.62
361.359	6.62
362.146	6.62
362.933	3.62
363.72	4.62
364.507	6.62
365.294	6.62
366.081	7.62
366.867	5.62
367.654	5.62
368.44	6.62
369.227	4.62
370.013	5.62
370.8	6.62
371.586	5.62
372.372	5.62
373.158	5.62
373.944	3.62
374.73	5.62
375.516	4.62
376.302	4.62
377.088	6.62
377.873	4.62
378.659	6.62
379.445	4.62
380.23	5.62
381.015	4.62
381.801	5.62
382.586	3.62
383.371	7.62
384.156	4.62
384.941	4.62
385.726	6.62
386.511	5.62
387.296	3.62
388.08	1.62
388.865	7.62
389.649	6.62
390.434	7.62
391.218	5.62
392.003	5.62
392.787	7.62
393.571	5.62
394.355	5.62
395.139	7.62
395.923	8.62
396.707	6.62
397.491	5.62
398.274	6.62
399.058	7.62
399.842	6.62
400.625	7.62
401.408	6.62
402.192	8.62
402.975	7.62
403.758	7.62
404.541	7.62
405.324	7.62
406.107	9.62
406.89	6.62
407.673	7.62
408.456	8.62
409.238	8.62
410.021	9.62
410.803	7.62
411.586	8.62
412.368	8.62
413.151	10.62
413.933	8.62
414.715	8.62
415.497	12.62
416.279	9.62
417.061	10.62
417.843	9.62
418.624	9.62
419.406	11.62
420.188	10.62
420.969	10.62
421.751	10.62
422.532	12.62
423.313	9.62
424.095	9.62
424.876	10.62
425.657	10.62
426.438	11.62
427.219	15.62
428	13.62
428.78	13.62
429.561	14.62
430.342	12.62
431.122	13.62
431.903	16.62
432.683	13.62
433.464	16.62
434.244	14.62
435.024	17.62
435.804	18.62
436.584	17.62
437.364	19.62
438.144	18.62
438.924	19.62
439.704	22.62
440.483	21.62
441.263	24.62
442.042	26.62
442.822	27.62
443.601	27.62
444.38	28.62
445.16	31.62
445.939	32.62
446.718	35.62
447.497	37.62
448.276	40.62
449.054	45.62
449.833	46.62
450.612	50.62
451.391	53.62
452.169	60.62
452.948	63.62
453.726	68.62
454.504	80.62
455.282	85.62
456.061	96.62
456.839	105.62
457.617	117.62
458.395	130.62
459.172	140.62
459.95	166.62
460.728	182.62
461.506	203.62
462.283	229.62
463.061	246.62
463.838	282.62
464.615	309.62
465.393	339.62
466.17	391.62
466.947	433.62
467.724	478.62
468.501	555.62
469.278	592.62
470.055	673.62
470.831	759.62
471.608	837.62
472.385	931.62
473.161	1037.62
473.938	1139.62
474.714	1278.62
475.49	1411.62
476.266	1567.62
477.043	1725.62
477.819	1907.62
478.595	2131.62
479.371	2329.62
480.146	2598.62
480.922	2879.62
481.698	3161.62
482.473	3492.62
483.249	3892.62
484.024	4245.62
484.8	4675.62
485.575	5172.62
486.35	5681.62
487.126	6216.62
487.901	6850.62
488.676	7539.62
489.451	8255.62
490.225	9037.62
491	9927.62
491.775	10864.62
492.55	11835.62
493.324	12818.62
494.099	13887.62
494.873	14957.62
495.647	16097.62
496.422	17372.62
497.196	18519.62
497.97	19800.62
498.744	21034.62
499.518	22200.62
500.292	23360.62
501.066	24506.62
501.839	25422.62
502.613	26301.62
503.387	27016.62
504.16	27653.62
504.934	27906.62
505.707	28054.62
506.48	28021.62
507.253	27845.62
508.027	27477.62
508.8	27124.62
509.573	26606.62
510.346	25932.62
511.118	25112.62
511.891	24275.62
512.664	23393.62
513.437	22390.62
514.209	21446.62
514.982	20574.62
515.754	19652.62
516.526	18771.62
517.298	17929.62
518.071	17114.62
518.843	16428.62
519.615	15874.62
520.387	15225.62
521.159	14602.62
521.93	14017.62
522.702	13487.62
523.474	12923.62
524.245	12327.62
525.017	11834.62
525.788	11360.62
526.56	10865.62
527.331	10328.62
528.102	9885.62
528.873	9401.62
529.644	8943.62
530.415	8485.62
531.186	8059.62
531.957	7629.62
532.728	7197.62
533.498	6817.62
534.269	6431.62
535.039	6084.62
535.81	5765.62
536.58	5436.62
537.351	5103.62
538.121	4854.62
538.891	4581.62
539.661	4332.62
540.431	4080.62
541.201	3836.62
541.971	3645.62
542.741	3474.62
543.51	3302.62
544.28	3136.62
545.05	2980.62
545.819	2858.62
546.588	2701.62
547.358	2549.62
548.127	2436.62
548.896	2315.62
549.665	2186.62
550.434	2078.62
551.203	1955.62
551.972	1843.62
552.741	1756.62
553.51	1647.62
554.278	1564.62
555.047	1477.62
555.815	1393.62
556.584	1320.62
557.352	1238.62
558.121	1164.62
558.889	1090.62
559.657	1042.62
560.425	988.62
561.193	925.62
561.961	875.62
562.729	817.62
563.496	782.62
564.264	742.62
565.032	700.62
565.799	660.62
566.567	613.62
567.334	591.62
568.101	557.62
568.869	531.62
569.636	497.62
570.403	464.62
571.17	434.62
571.937	418.62
572.704	396.62
573.471	369.62
574.237	348.62
575.004	331.62
575.771	311.62
576.537	290.62
577.303	268.62
578.07	257.62
578.836	242.62
579.602	228.62
580.368	214.62
581.134	202.62
581.9	198.62
582.666	181.62
583.432	173.62
584.198	165.62
584.964	157.62
585.729	149.62
586.495	141.62
587.26	137.62
588.025	126.62
588.791	123.62
589.556	115.62
590.321	107.62
591.086	103.62
591.851	95.62
592.616	89.62
593.381	90.62
594.146	86.62
594.911	78.62
595.675	75.62
596.44	75.62
597.204	67.62
597.969	66.62
598.733	62.62
599.497	59.62
600.261	63.62
601.025	55.62
601.79	54.62
602.553	47.62
603.317	48.62
604.081	45.62
604.845	45.62
605.609	41.62
606.372	41.62
607.136	38.62
607.899	36.62
608.662	36.62
609.426	36.62
610.189	33.62
610.952	32.62
611.715	30.62
612.478	30.62
613.241	31.62
614.004	25.62
614.767	24.62
615.529	25.62
616.292	22.62
617.055	23.62
617.817	21.62
618.579	21.62
619.342	22.62
620.104	22.62
620.866	20.62
621.628	17.62
622.39	19.62
623.152	17.62
623.914	19.62
624.676	18.62
625.438	16.62
626.199	18.62
626.961	16.62
627.722	17.62
628.484	17.62
629.245	14.62
630.006	14.62
630.768	13.62
631.529	11.62
632.29	11.62
633.051	13.62
633.812	11.62
634.573	11.62
635.333	13.62
636.094	11.62
636.855	11.62
637.615	9.62
638.376	11.62
639.136	9.62
639.896	8.62
640.657	10.62
641.417	9.62
642.177	10.62
642.937	9.62
643.697	6.62
644.457	9.62
645.216	10.62
645.976	8.62
646.736	7.62
647.495	8.62
648.255	3.62
649.014	9.62
649.774	6.62
650.533	6.62
651.292	10.62
652.051	7.62
652.81	7.62
653.569	6.62
654.328	6.62
655.087	7.62
655.846	6.62
656.604	5.62
657.363	7.62
658.121	6.62
658.88	5.62
659.638	6.62
660.397	7.62
661.155	6.62
661.913	5.62
662.671	7.62
663.429	4.62
664.187	7.62
664.945	4.62
665.703	3.62
666.46	5.62
667.218	6.62
667.976	3.62
668.733	2.62
669.49	4.62
670.248	4.62
671.005	6.62
671.762	5.62
672.519	5.62
673.276	6.62
674.033	3.62
674.79	5.62
675.547	5.62
676.304	4.62
677.06	6.62
677.817	5.62
678.574	5.62
679.33	3.62
680.086	2.62
680.843	6.62
681.599	3.62
682.355	2.62
683.111	2.62
683.867	5.62
684.623	2.62
685.379	4.62
686.135	1.62
686.89	2.62
687.646	4.62
688.402	4.62
689.157	7.62
689.912	3.62
690.668	3.62
691.423	2.62
692.178	2.62
692.933	4.62
693.688	4.62
694.443	5.62
695.198	1.62
695.953	3.62
696.708	7.62
697.462	2.62
698.217	4.62
698.972	1.62
699.726	3.62
700.48	5.62
701.235	1.62
701.989	3.62
702.743	2.62
703.497	4.62
704.251	4.62
705.005	4.62
705.759	3.62
706.513	3.62
707.266	2.62
708.02	5.62
708.774	2.62
709.527	6.62
710.28	3.62
711.034	6.62
711.787	3.62
712.54	4.62
713.293	4.62
714.046	4.62
714.799	5.62
715.552	3.62
716.305	3.62
717.058	2.62
717.81	2.62
718.563	5.62
719.315	3.62
720.068	4.62
720.82	4.62
721.573	4.62
722.325	3.62
723.077	2.62
723.829	4.62
724.581	0.62
725.333	5.62
726.085	3.62
726.836	3.62
727.588	4.62
728.34	3.62
729.091	4.62
729.843	1.62
730.594	3.62
731.346	4.62
732.097	4.62
732.848	4.62
733.599	1.62
734.35	5.62
735.101	5.62
735.852	5.62
736.603	5.62
737.354	1.62
738.104	4.62
738.855	2.62
739.605	6.62
740.356	2.62
741.106	3.62
741.856	6.62
742.607	5.62
743.357	5.62
744.107	6.62
744.857	5.62
745.607	6.62
746.357	3.62
747.106	3.62
747.856	3.62
748.606	7.62
749.355	4.62
750.105	7.62
750.854	4.62
751.603	4.62
752.353	7.62
753.102	4.62
753.851	5.62
754.6	5.62
755.349	5.62
756.098	5.62
756.847	5.62
757.595	4.62
758.344	7.62
759.093	7.62
759.841	5.62
760.589	3.62
761.338	7.62
762.086	4.62
762.834	9.62
763.582	7.62
764.331	7.62
765.079	9.62
765.826	8.62
766.574	8.62
767.322	6.62
768.07	8.62
768.817	8.62
769.565	8.62
770.312	8.62
771.06	7.62
771.807	9.62
772.554	8.62
773.302	6.62
774.049	11.62
774.796	7.62
775.543	8.62
776.29	8.62
777.036	7.62
777.783	6.62
778.53	8.62
779.276	9.62
780.023	6.62
780.769	10.62
781.516	8.62
782.262	8.62
783.008	9.62
783.754	7.62
784.5	7.62
785.246	7.62
785.992	8.62
786.738	7.62
787.484	10.62
788.23	7.62
788.975	8.62
789.721	9.62
790.466	8.62
791.212	11.62
791.957	9.62
792.702	6.62
793.447	6.62
794.193	7.62
794.938	9.62
795.683	7.62
796.427	8.62
797.172	7.62
797.917	5.62
798.662	8.62
799.406	7.62
800.151	5.62
800.895	5.62
801.64	4.62
802.384	7.62
803.128	5.62
803.872	7.62
804.616	7.62
805.36	7.62
806.104	7.62
806.848	5.62
807.592	5.62
808.336	7.62
809.079	4.62
809.823	6.62
810.566	6.62
811.31	7.62
812.053	4.62
812.796	5.62
813.539	3.62
814.283	7.62
815.026	3.62
815.769	1.62
816.511	3.62
817.254	3.62
817.997	5.62
818.74	5.62
819.482	4.62
820.225	2.62
820.967	5.62
821.71	5.62
822.452	3.62
823.194	4.62
823.936	5.62
824.678	3.62
825.42	3.62
826.162	3.62
826.904	5.62
827.646	5.62
828.388	6.62
829.129	2.62
829.871	4.62
830.612	5.62
831.354	3.62
832.095	5.62
832.836	2.62
833.577	1.62
834.319	3.62
835.06	2.62
835.801	3.62
836.542	3.62
837.282	4.62
838.023	3.62
838.764	3.62
839.504	3.62
840.245	4.62
840.985	3.62
841.726	4.62
842.466	1.62
843.206	4.62
843.946	4.62
844.687	3.62
845.427	2.62
846.166	3.62
846.906	3.62
847.646	0.62
848.386	3.62
849.125	4.62
849.865	2.62
850.605	1.62
851.344	1.62
852.083	1.62
852.823	2.62
853.562	3.62
854.301	5.62
855.04	3.62
855.779	4.62
856.518	-0.38
857.257	0.62
857.995	3.62
858.734	2.62
859.473	1.62
860.211	3.62
860.95	0.62
861.688	0.62
862.426	5.62
863.165	1.62
863.903	4.62
864.641	3.62
865.379	0.62
866.117	4.62
866.855	-1.38
867.593	2.62
868.33	2.62
869.068	1.62
869.806	-0.38
870.543	1.62
871.28	-0.38
872.018	3.62
872.755	1.62
873.492	1.62
874.229	1.62
874.967	2.62
875.703	2.62
876.44	0.62
877.177	0.62
877.914	2.62
878.651	1.62
879.387	1.62
880.124	3.62
880.86	0.62
881.597	-0.38
882.333	1.62
883.069	-0.38
883.806	2.62
884.542	-0.38
885.278	2.62
886.014	1.62
886.749	2.62
887.485	2.62
888.221	0.62
888.957	3.62
889.692	1.62
890.428	1.62
891.163	0.62
891.899	0.62
892.634	1.62
893.369	1.62
894.104	1.62
894.839	-0.38
895.574	0.62
896.309	0.62
897.044	1.62
897.779	0.62
898.514	-0.38
899.248	0.62
899.983	0.62
900.717	-0.38
901.452	0.62
902.186	-0.38
902.92	1.62
903.654	0.62
904.389	1.62
905.123	-1.38
905.857	0.62
906.59	0.62
907.324	-0.38
908.058	1.62
908.792	-0.38
909.525	-0.38
910.259	1.62
910.992	0.62
911.726	2.62
912.459	0.62
913.192	1.62
913.925	0.62
914.658	0.62
915.391	0.62
916.124	-0.38
916.857	0.62
917.59	0.62
918.323	0.62
919.055	1.62
919.788	-2.38
920.521	-0.38
921.253	1.62
921.985	0.62
922.718	2.62
923.45	1.62
924.182	1.62
924.914	-1.38
925.646	1.62
926.378	-0.38
927.11	-0.38
927.841	1.62
928.573	-2.38
929.305	1.62
930.036	-1.38
930.768	1.62
931.499	-2.38
932.23	1.62
932.962	0.62
933.693	1.62
934.424	1.62
935.155	0.62
935.886	1.62
936.617	1.62
937.348	-1.38
938.078	0.62
938.809	-2.38
939.54	1.62
940.27	-1.38
941.001	-0.38
941.731	1.62
942.461	0.62
943.191	-0.38
943.922	-1.38
944.652	0.62
945.382	-1.38
946.112	-0.38
946.841	-0.38
947.571	1.62
948.301	-1.38
949.031	-0.38
949.76	1.62
950.49	-0.38
951.219	1.62
951.948	0.62
952.678	-0.38
953.407	1.62
954.136	-0.38
954.865	1.62
955.594	0.62
956.323	-0.38
957.052	1.62
957.78	-0.38
958.509	1.62
959.238	-0.38
959.966	1.62
960.695	-0.38
961.423	-0.38
962.151	1.62
962.88	0.62
963.608	0.62
964.336	0.62
965.064	1.62
965.792	-1.38
966.52	0.62
967.247	0.62
967.975	-1.38
968.703	2.62
969.43	0.62
970.158	-0.38
970.885	2.62
971.613	-0.38
972.34	0.62
973.067	1.62
973.794	1.62
974.521	-0.38
975.248	-0.38
975.975	-0.38
976.702	1.62
977.429	1.62
978.156	0.62
978.882	-1.38
979.609	1.62
980.335	-1.38
981.062	0.62
981.788	0.62
982.514	-1.38
983.24	0.62
983.967	-1.38
984.693	0.62
985.419	0.62
986.144	1.62
986.87	-0.38
987.596	0.62
988.322	0.62
989.047	-1.38
989.773	0.62
990.498	1.62
991.224	-2.38
991.949	-2.38
992.674	1.62
993.399	-1.38
994.124	1.62
994.849	0.62
995.574	1.62
996.299	-1.38
997.024	-0.38
997.749	-0.38
998.473	1.62
999.198	1.62
999.922	-0.38
1000.647	1.62
1001.371	4.62
1002.095	-2.38
1002.82	0.62
1003.544	-1.38
1004.268	0.62
1004.992	2.62
1005.716	0.62
1006.439	2.62
1007.163	1.62
1007.887	1.62
1008.611	1.62
1009.334	-0.38
1010.058	-0.38
1010.781	0.62
1011.504	0.62
1012.228	-0.38
1012.951	-0.38
1013.674	-0.38
1014.397	-0.38
1015.12	-0.38
