节点500_285_QEPB04081__128__14-57-41-242.txt的数据

Date: Wed Nov 12 14:57:41 CST 2025
User: PC
Spectrometer: QEPB0408
触发模式: 0
积分时间 (秒): 1.000000E-2
Scans to average: 1
启用暗噪声校正: true
启用非线性校正: false
滑动平均宽度: 0
X轴模式: Wavelengths
Number of Pixels in Spectrum: 1044
>>>>>Begin Spectral Data<<<<<
220.843	1.38
221.644	2.38
222.444	-0.62
223.244	1.38
224.045	1.38
224.845	1.38
225.645	2.38
226.445	1.38
227.245	1.38
228.045	4.38
228.845	4.38
229.645	2.38
230.444	2.38
231.244	2.38
232.043	2.38
232.843	3.38
233.642	3.38
234.442	3.38
235.241	4.38
236.04	5.38
236.839	3.38
237.638	4.38
238.437	3.38
239.236	6.38
240.035	4.38
240.833	4.38
241.632	5.38
242.43	5.38
243.229	6.38
244.027	3.38
244.826	5.38
245.624	6.38
246.422	6.38
247.22	7.38
248.018	7.38
248.816	7.38
249.614	6.38
250.412	4.38
251.21	8.38
252.007	8.38
252.805	6.38
253.602	6.38
254.4	9.38
255.197	7.38
255.994	8.38
256.791	9.38
257.589	9.38
258.386	8.38
259.183	9.38
259.979	11.38
260.776	8.38
261.573	11.38
262.37	11.38
263.166	11.38
263.963	11.38
264.759	12.38
265.556	12.38
266.352	12.38
267.148	15.38
267.944	15.38
268.74	13.38
269.536	15.38
270.332	16.38
271.128	17.38
271.924	16.38
272.719	15.38
273.515	20.38
274.311	17.38
275.106	19.38
275.901	13.38
276.697	16.38
277.492	18.38
278.287	19.38
279.082	20.38
279.877	18.38
280.672	19.38
281.467	21.38
282.262	18.38
283.056	20.38
283.851	20.38
284.646	19.38
285.44	20.38
286.234	20.38
287.029	17.38
287.823	17.38
288.617	19.38
289.411	18.38
290.205	18.38
290.999	21.38
291.793	18.38
292.587	18.38
293.381	18.38
294.174	17.38
294.968	17.38
295.761	18.38
296.555	18.38
297.348	15.38
298.141	15.38
298.935	15.38
299.728	16.38
300.521	17.38
301.314	14.38
302.107	13.38
302.899	13.38
303.692	13.38
304.485	11.38
305.277	13.38
306.07	14.38
306.862	12.38
307.655	14.38
308.447	13.38
309.239	9.38
310.031	12.38
310.823	10.38
311.615	9.38
312.407	9.38
313.199	9.38
313.991	9.38
314.783	8.38
315.574	8.38
316.366	6.38
317.157	9.38
317.949	6.38
318.74	10.38
319.531	7.38
320.322	9.38
321.113	10.38
321.904	7.38
322.695	7.38
323.486	7.38
324.277	8.38
325.068	9.38
325.858	7.38
326.649	6.38
327.439	6.38
328.23	7.38
329.02	8.38
329.81	4.38
330.6	6.38
331.391	6.38
332.181	7.38
332.971	5.38
333.76	8.38
334.55	6.38
335.34	6.38
336.13	6.38
336.919	5.38
337.709	5.38
338.498	8.38
339.287	5.38
340.077	8.38
340.866	6.38
341.655	6.38
342.444	7.38
343.233	4.38
344.022	7.38
344.811	6.38
345.6	9.38
346.388	6.38
347.177	9.38
347.965	4.38
348.754	8.38
349.542	6.38
350.33	5.38
351.119	5.38
351.907	6.38
352.695	5.38
353.483	5.38
354.271	5.38
355.059	5.38
355.846	5.38
356.634	7.38
357.422	6.38
358.209	4.38
358.997	5.38
359.784	6.38
360.571	5.38
361.359	7.38
362.146	6.38
362.933	5.38
363.72	5.38
364.507	7.38
365.294	5.38
366.081	5.38
366.867	6.38
367.654	5.38
368.44	3.38
369.227	2.38
370.013	4.38
370.8	5.38
371.586	6.38
372.372	4.38
373.158	3.38
373.944	5.38
374.73	4.38
375.516	8.38
376.302	6.38
377.088	5.38
377.873	4.38
378.659	4.38
379.445	4.38
380.23	4.38
381.015	6.38
381.801	4.38
382.586	4.38
383.371	6.38
384.156	6.38
384.941	6.38
385.726	3.38
386.511	7.38
387.296	4.38
388.08	6.38
388.865	6.38
389.649	7.38
390.434	5.38
391.218	5.38
392.003	7.38
392.787	6.38
393.571	7.38
394.355	7.38
395.139	8.38
395.923	5.38
396.707	6.38
397.491	6.38
398.274	7.38
399.058	10.38
399.842	7.38
400.625	7.38
401.408	6.38
402.192	8.38
402.975	6.38
403.758	8.38
404.541	8.38
405.324	9.38
406.107	7.38
406.89	4.38
407.673	7.38
408.456	9.38
409.238	9.38
410.021	8.38
410.803	9.38
411.586	7.38
412.368	9.38
413.151	9.38
413.933	8.38
414.715	7.38
415.497	10.38
416.279	8.38
417.061	9.38
417.843	7.38
418.624	9.38
419.406	9.38
420.188	9.38
420.969	9.38
421.751	9.38
422.532	12.38
423.313	10.38
424.095	10.38
424.876	13.38
425.657	8.38
426.438	13.38
427.219	13.38
428	13.38
428.78	12.38
429.561	13.38
430.342	13.38
431.122	13.38
431.903	14.38
432.683	16.38
433.464	14.38
434.244	17.38
435.024	17.38
435.804	18.38
436.584	20.38
437.364	19.38
438.144	21.38
438.924	22.38
439.704	22.38
440.483	19.38
441.263	26.38
442.042	27.38
442.822	27.38
443.601	28.38
444.38	29.38
445.16	28.38
445.939	32.38
446.718	37.38
447.497	43.38
448.276	37.38
449.054	42.38
449.833	45.38
450.612	51.38
451.391	56.38
452.169	61.38
452.948	64.38
453.726	68.38
454.504	77.38
455.282	84.38
456.061	95.38
456.839	104.38
457.617	119.38
458.395	128.38
459.172	139.38
459.95	157.38
460.728	177.38
461.506	195.38
462.283	216.38
463.061	234.38
463.838	270.38
464.615	310.38
465.393	341.38
466.17	381.38
466.947	425.38
467.724	479.38
468.501	533.38
469.278	587.38
470.055	658.38
470.831	731.38
471.608	817.38
472.385	922.38
473.161	1018.38
473.938	1142.38
474.714	1259.38
475.49	1405.38
476.266	1542.38
477.043	1714.38
477.819	1895.38
478.595	2103.38
479.371	2342.38
480.146	2589.38
480.922	2889.38
481.698	3185.38
482.473	3493.38
483.249	3885.38
484.024	4277.38
484.8	4717.38
485.575	5244.38
486.35	5756.38
487.126	6332.38
487.901	6991.38
488.676	7694.38
489.451	8465.38
490.225	9249.38
491	10172.38
491.775	11117.38
492.55	12102.38
493.324	13182.38
494.099	14312.38
494.873	15354.38
495.647	16627.38
496.422	17798.38
497.196	19013.38
497.97	20390.38
498.744	21625.38
499.518	22808.38
500.292	24026.38
501.066	25130.38
501.839	26022.38
502.613	26947.38
503.387	27676.38
504.16	28223.38
504.934	28396.38
505.707	28449.38
506.48	28388.38
507.253	28199.38
508.027	27786.38
508.8	27292.38
509.573	26715.38
510.346	26006.38
511.118	25104.38
511.891	24272.38
512.664	23253.38
513.437	22383.38
514.209	21347.38
514.982	20489.38
515.754	19483.38
516.526	18580.38
517.298	17765.38
518.071	17004.38
518.843	16289.38
519.615	15735.38
520.387	15110.38
521.159	14516.38
521.93	13906.38
522.702	13391.38
523.474	12836.38
524.245	12285.38
525.017	11735.38
525.788	11238.38
526.56	10715.38
527.331	10209.38
528.102	9751.38
528.873	9261.38
529.644	8788.38
530.415	8399.38
531.186	7914.38
531.957	7505.38
532.728	7123.38
533.498	6711.38
534.269	6308.38
535.039	5975.38
535.81	5651.38
536.58	5340.38
537.351	5038.38
538.121	4784.38
538.891	4498.38
539.661	4251.38
540.431	4002.38
541.201	3789.38
541.971	3589.38
542.741	3413.38
543.51	3229.38
544.28	3097.38
545.05	2949.38
545.819	2802.38
546.588	2656.38
547.358	2517.38
548.127	2386.38
548.896	2278.38
549.665	2145.38
550.434	2034.38
551.203	1926.38
551.972	1835.38
552.741	1709.38
553.51	1627.38
554.278	1529.38
555.047	1455.38
555.815	1361.38
556.584	1286.38
557.352	1213.38
558.121	1146.38
558.889	1082.38
559.657	1018.38
560.425	965.38
561.193	893.38
561.961	857.38
562.729	810.38
563.496	775.38
564.264	718.38
565.032	677.38
565.799	642.38
566.567	605.38
567.334	570.38
568.101	545.38
568.869	519.38
569.636	481.38
570.403	454.38
571.17	437.38
571.937	401.38
572.704	383.38
573.471	364.38
574.237	344.38
575.004	325.38
575.771	308.38
576.537	286.38
577.303	271.38
578.07	255.38
578.836	238.38
579.602	216.38
580.368	207.38
581.134	204.38
581.9	189.38
582.666	182.38
583.432	170.38
584.198	163.38
584.964	157.38
585.729	146.38
586.495	139.38
587.26	135.38
588.025	130.38
588.791	116.38
589.556	110.38
590.321	107.38
591.086	99.38
591.851	98.38
592.616	86.38
593.381	86.38
594.146	85.38
594.911	76.38
595.675	76.38
596.44	69.38
597.204	68.38
597.969	64.38
598.733	61.38
599.497	58.38
600.261	56.38
601.025	55.38
601.79	50.38
602.553	48.38
603.317	47.38
604.081	47.38
604.845	45.38
605.609	42.38
606.372	39.38
607.136	38.38
607.899	37.38
608.662	36.38
609.426	34.38
610.189	35.38
610.952	31.38
611.715	30.38
612.478	27.38
613.241	27.38
614.004	29.38
614.767	27.38
615.529	27.38
616.292	20.38
617.055	21.38
617.817	24.38
618.579	22.38
619.342	22.38
620.104	21.38
620.866	21.38
621.628	20.38
622.39	20.38
623.152	18.38
623.914	15.38
624.676	15.38
625.438	15.38
626.199	13.38
626.961	15.38
627.722	16.38
628.484	13.38
629.245	14.38
630.006	13.38
630.768	13.38
631.529	13.38
632.29	11.38
633.051	13.38
633.812	14.38
634.573	9.38
635.333	12.38
636.094	9.38
636.855	13.38
637.615	9.38
638.376	10.38
639.136	9.38
639.896	8.38
640.657	10.38
641.417	9.38
642.177	9.38
642.937	9.38
643.697	8.38
644.457	10.38
645.216	6.38
645.976	7.38
646.736	6.38
647.495	7.38
648.255	7.38
649.014	7.38
649.774	8.38
650.533	7.38
651.292	9.38
652.051	10.38
652.81	9.38
653.569	5.38
654.328	7.38
655.087	2.38
655.846	8.38
656.604	7.38
657.363	7.38
658.121	7.38
658.88	6.38
659.638	7.38
660.397	3.38
661.155	6.38
661.913	4.38
662.671	4.38
663.429	4.38
664.187	5.38
664.945	7.38
665.703	3.38
666.46	3.38
667.218	4.38
667.976	6.38
668.733	3.38
669.49	4.38
670.248	7.38
671.005	5.38
671.762	4.38
672.519	5.38
673.276	3.38
674.033	4.38
674.79	4.38
675.547	4.38
676.304	3.38
677.06	5.38
677.817	3.38
678.574	5.38
679.33	5.38
680.086	5.38
680.843	5.38
681.599	3.38
682.355	3.38
683.111	6.38
683.867	3.38
684.623	3.38
685.379	3.38
686.135	3.38
686.89	2.38
687.646	4.38
688.402	4.38
689.157	2.38
689.912	2.38
690.668	8.38
691.423	4.38
692.178	4.38
692.933	3.38
693.688	5.38
694.443	3.38
695.198	4.38
695.953	3.38
696.708	2.38
697.462	4.38
698.217	1.38
698.972	3.38
699.726	4.38
700.48	4.38
701.235	4.38
701.989	3.38
702.743	2.38
703.497	3.38
704.251	2.38
705.005	5.38
705.759	3.38
706.513	2.38
707.266	4.38
708.02	5.38
708.774	2.38
709.527	6.38
710.28	5.38
711.034	3.38
711.787	3.38
712.54	3.38
713.293	3.38
714.046	4.38
714.799	6.38
715.552	1.38
716.305	5.38
717.058	3.38
717.81	3.38
718.563	2.38
719.315	6.38
720.068	2.38
720.82	5.38
721.573	2.38
722.325	4.38
723.077	3.38
723.829	3.38
724.581	5.38
725.333	3.38
726.085	2.38
726.836	3.38
727.588	3.38
728.34	6.38
729.091	4.38
729.843	6.38
730.594	3.38
731.346	5.38
732.097	4.38
732.848	4.38
733.599	5.38
734.35	2.38
735.101	5.38
735.852	3.38
736.603	5.38
737.354	6.38
738.104	3.38
738.855	5.38
739.605	4.38
740.356	5.38
741.106	4.38
741.856	6.38
742.607	5.38
743.357	3.38
744.107	4.38
744.857	6.38
745.607	5.38
746.357	5.38
747.106	2.38
747.856	5.38
748.606	3.38
749.355	6.38
750.105	4.38
750.854	5.38
751.603	3.38
752.353	7.38
753.102	6.38
753.851	6.38
754.6	6.38
755.349	5.38
756.098	6.38
756.847	6.38
757.595	6.38
758.344	7.38
759.093	5.38
759.841	9.38
760.589	6.38
761.338	7.38
762.086	7.38
762.834	4.38
763.582	6.38
764.331	6.38
765.079	7.38
765.826	8.38
766.574	9.38
767.322	5.38
768.07	6.38
768.817	8.38
769.565	7.38
770.312	7.38
771.06	7.38
771.807	9.38
772.554	7.38
773.302	12.38
774.049	8.38
774.796	8.38
775.543	7.38
776.29	7.38
777.036	8.38
777.783	7.38
778.53	9.38
779.276	7.38
780.023	9.38
780.769	8.38
781.516	9.38
782.262	10.38
783.008	8.38
783.754	10.38
784.5	7.38
785.246	7.38
785.992	8.38
786.738	10.38
787.484	10.38
788.23	6.38
788.975	9.38
789.721	8.38
790.466	9.38
791.212	8.38
791.957	8.38
792.702	10.38
793.447	8.38
794.193	9.38
794.938	8.38
795.683	8.38
796.427	7.38
797.172	9.38
797.917	7.38
798.662	8.38
799.406	9.38
800.151	7.38
800.895	9.38
801.64	9.38
802.384	6.38
803.128	6.38
803.872	7.38
804.616	7.38
805.36	7.38
806.104	6.38
806.848	7.38
807.592	4.38
808.336	7.38
809.079	4.38
809.823	4.38
810.566	5.38
811.31	5.38
812.053	6.38
812.796	5.38
813.539	7.38
814.283	5.38
815.026	5.38
815.769	8.38
816.511	4.38
817.254	6.38
817.997	7.38
818.74	5.38
819.482	6.38
820.225	4.38
820.967	6.38
821.71	5.38
822.452	5.38
823.194	5.38
823.936	5.38
824.678	2.38
825.42	1.38
826.162	5.38
826.904	5.38
827.646	4.38
828.388	4.38
829.129	3.38
829.871	4.38
830.612	4.38
831.354	2.38
832.095	4.38
832.836	3.38
833.577	3.38
834.319	3.38
835.06	4.38
835.801	4.38
836.542	4.38
837.282	3.38
838.023	2.38
838.764	1.38
839.504	2.38
840.245	4.38
840.985	3.38
841.726	1.38
842.466	3.38
843.206	0.38
843.946	3.38
844.687	2.38
845.427	3.38
846.166	3.38
846.906	4.38
847.646	5.38
848.386	3.38
849.125	4.38
849.865	4.38
850.605	3.38
851.344	2.38
852.083	1.38
852.823	2.38
853.562	1.38
854.301	4.38
855.04	4.38
855.779	0.38
856.518	4.38
857.257	3.38
857.995	3.38
858.734	1.38
859.473	4.38
860.211	3.38
860.95	1.38
861.688	1.38
862.426	1.38
863.165	3.38
863.903	3.38
864.641	2.38
865.379	0.38
866.117	1.38
866.855	3.38
867.593	2.38
868.33	-0.62
869.068	1.38
869.806	0.38
870.543	2.38
871.28	1.38
872.018	2.38
872.755	3.38
873.492	0.38
874.229	1.38
874.967	-0.62
875.703	1.38
876.44	1.38
877.177	1.38
877.914	-0.62
878.651	2.38
879.387	2.38
880.124	1.38
880.86	0.38
881.597	2.38
882.333	1.38
883.069	2.38
883.806	0.38
884.542	2.38
885.278	2.38
886.014	1.38
886.749	1.38
887.485	1.38
888.221	0.38
888.957	-0.62
889.692	2.38
890.428	-0.62
891.163	-0.62
891.899	0.38
892.634	-0.62
893.369	1.38
894.104	-0.62
894.839	-0.62
895.574	2.38
896.309	1.38
897.044	1.38
897.779	-1.62
898.514	0.38
899.248	0.38
899.983	1.38
900.717	0.38
901.452	-1.62
902.186	2.38
902.92	-2.62
903.654	-0.62
904.389	0.38
905.123	-0.62
905.857	2.38
906.59	0.38
907.324	1.38
908.058	0.38
908.792	0.38
909.525	0.38
910.259	0.38
910.992	0.38
911.726	2.38
912.459	3.38
913.192	0.38
913.925	-0.62
914.658	2.38
915.391	0.38
916.124	3.38
916.857	1.38
917.59	0.38
918.323	0.38
919.055	-1.62
919.788	1.38
920.521	-1.62
921.253	0.38
921.985	-0.62
922.718	-0.62
923.45	-0.62
924.182	0.38
924.914	2.38
925.646	2.38
926.378	2.38
927.11	1.38
927.841	-1.62
928.573	1.38
929.305	-0.62
930.036	-0.62
930.768	0.38
931.499	-0.62
932.23	-1.62
932.962	2.38
933.693	2.38
934.424	2.38
935.155	1.38
935.886	-0.62
936.617	0.38
937.348	3.38
938.078	-0.62
938.809	2.38
939.54	-1.62
940.27	1.38
941.001	0.38
941.731	2.38
942.461	3.38
943.191	-0.62
943.922	-0.62
944.652	1.38
945.382	-0.62
946.112	1.38
946.841	1.38
947.571	2.38
948.301	1.38
949.031	1.38
949.76	-0.62
950.49	-2.62
951.219	1.38
951.948	-0.62
952.678	-1.62
953.407	0.38
954.136	-0.62
954.865	2.38
955.594	-0.62
956.323	1.38
957.052	-2.62
957.78	0.38
958.509	0.38
959.238	0.38
959.966	2.38
960.695	0.38
961.423	0.38
962.151	-0.62
962.88	-1.62
963.608	0.38
964.336	-0.62
965.064	2.38
965.792	-1.62
966.52	0.38
967.247	0.38
967.975	0.38
968.703	2.38
969.43	2.38
970.158	0.38
970.885	1.38
971.613	0.38
972.34	2.38
973.067	-0.62
973.794	1.38
974.521	0.38
975.248	1.38
975.975	2.38
976.702	0.38
977.429	1.38
978.156	-1.62
978.882	-1.62
979.609	0.38
980.335	-1.62
981.062	1.38
981.788	0.38
982.514	1.38
983.24	0.38
983.967	0.38
984.693	0.38
985.419	0.38
986.144	2.38
986.87	1.38
987.596	1.38
988.322	0.38
989.047	0.38
989.773	0.38
990.498	0.38
991.224	1.38
991.949	0.38
992.674	1.38
993.399	-1.62
994.124	0.38
994.849	1.38
995.574	1.38
996.299	2.38
997.024	0.38
997.749	1.38
998.473	2.38
999.198	-2.62
999.922	1.38
1000.647	1.38
1001.371	4.38
1002.095	1.38
1002.82	-2.62
1003.544	-2.62
1004.268	3.38
1004.992	4.38
1005.716	1.38
1006.439	1.38
1007.163	2.38
1007.887	3.38
1008.611	1.38
1009.334	-0.62
1010.058	2.38
1010.781	-0.62
1011.504	-0.62
1012.228	1.38
1012.951	1.38
1013.674	-1.62
1014.397	-1.62
1015.12	1.38
