节点500_285_QEPB04081__393__15-02-05-653.txt的数据

Date: Wed Nov 12 15:02:05 CST 2025
User: PC
Spectrometer: QEPB0408
触发模式: 0
积分时间 (秒): 1.000000E-2
Scans to average: 1
启用暗噪声校正: true
启用非线性校正: false
滑动平均宽度: 0
X轴模式: Wavelengths
Number of Pixels in Spectrum: 1044
>>>>>Begin Spectral Data<<<<<
220.843	2.25
221.644	0.25
222.444	5.25
223.244	1.25
224.045	2.25
224.845	0.25
225.645	4.25
226.445	2.25
227.245	2.25
228.045	-0.75
228.845	2.25
229.645	3.25
230.444	3.25
231.244	2.25
232.043	3.25
232.843	4.25
233.642	3.25
234.442	4.25
235.241	2.25
236.04	2.25
236.839	6.25
237.638	3.25
238.437	3.25
239.236	5.25
240.035	7.25
240.833	4.25
241.632	7.25
242.43	7.25
243.229	4.25
244.027	5.25
244.826	3.25
245.624	5.25
246.422	6.25
247.22	6.25
248.018	7.25
248.816	6.25
249.614	4.25
250.412	4.25
251.21	7.25
252.007	9.25
252.805	7.25
253.602	6.25
254.4	9.25
255.197	8.25
255.994	9.25
256.791	8.25
257.589	6.25
258.386	8.25
259.183	8.25
259.979	10.25
260.776	14.25
261.573	12.25
262.37	11.25
263.166	11.25
263.963	13.25
264.759	12.25
265.556	11.25
266.352	10.25
267.148	11.25
267.944	13.25
268.74	15.25
269.536	14.25
270.332	16.25
271.128	12.25
271.924	17.25
272.719	17.25
273.515	17.25
274.311	19.25
275.106	17.25
275.901	17.25
276.697	18.25
277.492	18.25
278.287	17.25
279.082	17.25
279.877	20.25
280.672	18.25
281.467	21.25
282.262	17.25
283.056	21.25
283.851	18.25
284.646	17.25
285.44	17.25
286.234	18.25
287.029	18.25
287.823	15.25
288.617	20.25
289.411	16.25
290.205	15.25
290.999	17.25
291.793	20.25
292.587	18.25
293.381	20.25
294.174	16.25
294.968	18.25
295.761	16.25
296.555	15.25
297.348	17.25
298.141	16.25
298.935	16.25
299.728	16.25
300.521	14.25
301.314	14.25
302.107	16.25
302.899	11.25
303.692	13.25
304.485	14.25
305.277	12.25
306.07	14.25
306.862	13.25
307.655	12.25
308.447	12.25
309.239	11.25
310.031	14.25
310.823	10.25
311.615	13.25
312.407	11.25
313.199	10.25
313.991	12.25
314.783	9.25
315.574	9.25
316.366	8.25
317.157	11.25
317.949	10.25
318.74	8.25
319.531	8.25
320.322	9.25
321.113	7.25
321.904	9.25
322.695	7.25
323.486	7.25
324.277	5.25
325.068	8.25
325.858	5.25
326.649	7.25
327.439	8.25
328.23	9.25
329.02	7.25
329.81	6.25
330.6	8.25
331.391	7.25
332.181	8.25
332.971	6.25
333.76	5.25
334.55	5.25
335.34	4.25
336.13	4.25
336.919	9.25
337.709	7.25
338.498	7.25
339.287	6.25
340.077	9.25
340.866	8.25
341.655	6.25
342.444	7.25
343.233	6.25
344.022	7.25
344.811	6.25
345.6	5.25
346.388	7.25
347.177	6.25
347.965	9.25
348.754	6.25
349.542	7.25
350.33	6.25
351.119	5.25
351.907	5.25
352.695	7.25
353.483	5.25
354.271	5.25
355.059	6.25
355.846	6.25
356.634	7.25
357.422	4.25
358.209	6.25
358.997	7.25
359.784	4.25
360.571	7.25
361.359	6.25
362.146	5.25
362.933	6.25
363.72	5.25
364.507	6.25
365.294	6.25
366.081	5.25
366.867	4.25
367.654	3.25
368.44	7.25
369.227	3.25
370.013	7.25
370.8	3.25
371.586	5.25
372.372	7.25
373.158	6.25
373.944	4.25
374.73	6.25
375.516	7.25
376.302	5.25
377.088	7.25
377.873	4.25
378.659	5.25
379.445	4.25
380.23	5.25
381.015	7.25
381.801	6.25
382.586	3.25
383.371	6.25
384.156	6.25
384.941	7.25
385.726	3.25
386.511	6.25
387.296	5.25
388.08	5.25
388.865	7.25
389.649	5.25
390.434	6.25
391.218	8.25
392.003	6.25
392.787	8.25
393.571	7.25
394.355	6.25
395.139	6.25
395.923	7.25
396.707	8.25
397.491	5.25
398.274	9.25
399.058	7.25
399.842	7.25
400.625	5.25
401.408	6.25
402.192	7.25
402.975	7.25
403.758	6.25
404.541	5.25
405.324	10.25
406.107	7.25
406.89	6.25
407.673	10.25
408.456	7.25
409.238	10.25
410.021	8.25
410.803	8.25
411.586	7.25
412.368	9.25
413.151	10.25
413.933	6.25
414.715	9.25
415.497	10.25
416.279	11.25
417.061	9.25
417.843	6.25
418.624	9.25
419.406	10.25
420.188	13.25
420.969	12.25
421.751	13.25
422.532	12.25
423.313	12.25
424.095	10.25
424.876	13.25
425.657	12.25
426.438	12.25
427.219	10.25
428	13.25
428.78	13.25
429.561	12.25
430.342	16.25
431.122	13.25
431.903	14.25
432.683	15.25
433.464	17.25
434.244	18.25
435.024	17.25
435.804	19.25
436.584	18.25
437.364	17.25
438.144	18.25
438.924	21.25
439.704	19.25
440.483	23.25
441.263	24.25
442.042	26.25
442.822	24.25
443.601	27.25
444.38	34.25
445.16	34.25
445.939	31.25
446.718	37.25
447.497	39.25
448.276	46.25
449.054	45.25
449.833	52.25
450.612	55.25
451.391	56.25
452.169	62.25
452.948	67.25
453.726	74.25
454.504	86.25
455.282	89.25
456.061	105.25
456.839	111.25
457.617	123.25
458.395	137.25
459.172	152.25
459.95	176.25
460.728	188.25
461.506	206.25
462.283	240.25
463.061	259.25
463.838	293.25
464.615	330.25
465.393	368.25
466.17	414.25
466.947	451.25
467.724	501.25
468.501	563.25
469.278	632.25
470.055	688.25
470.831	773.25
471.608	871.25
472.385	949.25
473.161	1056.25
473.938	1170.25
474.714	1299.25
475.49	1439.25
476.266	1590.25
477.043	1753.25
477.819	1930.25
478.595	2115.25
479.371	2354.25
480.146	2565.25
480.922	2872.25
481.698	3166.25
482.473	3455.25
483.249	3797.25
484.024	4176.25
484.8	4600.25
485.575	5041.25
486.35	5518.25
487.126	6046.25
487.901	6636.25
488.676	7290.25
489.451	7964.25
490.225	8706.25
491	9481.25
491.775	10357.25
492.55	11264.25
493.324	12210.25
494.099	13201.25
494.873	14119.25
495.647	15307.25
496.422	16418.25
497.196	17560.25
497.97	18777.25
498.744	19942.25
499.518	21135.25
500.292	22276.25
501.066	23293.25
501.839	24230.25
502.613	25167.25
503.387	25953.25
504.16	26580.25
504.934	26959.25
505.707	27089.25
506.48	27190.25
507.253	27237.25
508.027	26905.25
508.8	26620.25
509.573	26266.25
510.346	25698.25
511.118	24919.25
511.891	24161.25
512.664	23379.25
513.437	22509.25
514.209	21548.25
514.982	20664.25
515.754	19821.25
516.526	18946.25
517.298	18083.25
518.071	17302.25
518.843	16638.25
519.615	16033.25
520.387	15403.25
521.159	14777.25
521.93	14187.25
522.702	13635.25
523.474	13057.25
524.245	12510.25
525.017	11931.25
525.788	11535.25
526.56	10960.25
527.331	10467.25
528.102	10021.25
528.873	9575.25
529.644	9075.25
530.415	8668.25
531.186	8246.25
531.957	7775.25
532.728	7411.25
533.498	7016.25
534.269	6632.25
535.039	6229.25
535.81	5917.25
536.58	5592.25
537.351	5265.25
538.121	4925.25
538.891	4710.25
539.661	4435.25
540.431	4224.25
541.201	3950.25
541.971	3745.25
542.741	3558.25
543.51	3405.25
544.28	3228.25
545.05	3070.25
545.819	2913.25
546.588	2775.25
547.358	2638.25
548.127	2531.25
548.896	2375.25
549.665	2261.25
550.434	2124.25
551.203	2028.25
551.972	1929.25
552.741	1797.25
553.51	1725.25
554.278	1613.25
555.047	1532.25
555.815	1421.25
556.584	1356.25
557.352	1278.25
558.121	1215.25
558.889	1143.25
559.657	1084.25
560.425	1019.25
561.193	967.25
561.961	908.25
562.729	864.25
563.496	804.25
564.264	766.25
565.032	734.25
565.799	698.25
566.567	646.25
567.334	614.25
568.101	579.25
568.869	545.25
569.636	510.25
570.403	486.25
571.17	456.25
571.937	431.25
572.704	411.25
573.471	386.25
574.237	366.25
575.004	344.25
575.771	320.25
576.537	309.25
577.303	283.25
578.07	266.25
578.836	256.25
579.602	233.25
580.368	224.25
581.134	211.25
581.9	202.25
582.666	195.25
583.432	180.25
584.198	171.25
584.964	164.25
585.729	155.25
586.495	153.25
587.26	140.25
588.025	137.25
588.791	126.25
589.556	116.25
590.321	113.25
591.086	106.25
591.851	97.25
592.616	92.25
593.381	93.25
594.146	86.25
594.911	85.25
595.675	80.25
596.44	73.25
597.204	73.25
597.969	70.25
598.733	65.25
599.497	65.25
600.261	60.25
601.025	57.25
601.79	53.25
602.553	50.25
603.317	48.25
604.081	48.25
604.845	47.25
605.609	43.25
606.372	44.25
607.136	40.25
607.899	40.25
608.662	39.25
609.426	36.25
610.189	35.25
610.952	34.25
611.715	35.25
612.478	32.25
613.241	28.25
614.004	30.25
614.767	28.25
615.529	26.25
616.292	28.25
617.055	24.25
617.817	26.25
618.579	22.25
619.342	23.25
620.104	22.25
620.866	22.25
621.628	21.25
622.39	21.25
623.152	18.25
623.914	20.25
624.676	18.25
625.438	16.25
626.199	18.25
626.961	18.25
627.722	14.25
628.484	14.25
629.245	13.25
630.006	17.25
630.768	16.25
631.529	13.25
632.29	13.25
633.051	13.25
633.812	11.25
634.573	12.25
635.333	12.25
636.094	11.25
636.855	12.25
637.615	12.25
638.376	9.25
639.136	12.25
639.896	9.25
640.657	11.25
641.417	11.25
642.177	10.25
642.937	11.25
643.697	10.25
644.457	10.25
645.216	7.25
645.976	10.25
646.736	8.25
647.495	8.25
648.255	8.25
649.014	7.25
649.774	10.25
650.533	4.25
651.292	8.25
652.051	7.25
652.81	6.25
653.569	7.25
654.328	7.25
655.087	5.25
655.846	10.25
656.604	8.25
657.363	7.25
658.121	4.25
658.88	7.25
659.638	8.25
660.397	9.25
661.155	6.25
661.913	5.25
662.671	5.25
663.429	6.25
664.187	7.25
664.945	5.25
665.703	6.25
666.46	5.25
667.218	2.25
667.976	3.25
668.733	6.25
669.49	6.25
670.248	5.25
671.005	3.25
671.762	5.25
672.519	5.25
673.276	5.25
674.033	7.25
674.79	6.25
675.547	5.25
676.304	6.25
677.06	4.25
677.817	5.25
678.574	5.25
679.33	8.25
680.086	3.25
680.843	6.25
681.599	4.25
682.355	3.25
683.111	4.25
683.867	5.25
684.623	5.25
685.379	5.25
686.135	5.25
686.89	3.25
687.646	4.25
688.402	6.25
689.157	4.25
689.912	4.25
690.668	5.25
691.423	3.25
692.178	2.25
692.933	5.25
693.688	4.25
694.443	5.25
695.198	2.25
695.953	2.25
696.708	6.25
697.462	5.25
698.217	4.25
698.972	2.25
699.726	3.25
700.48	5.25
701.235	6.25
701.989	3.25
702.743	5.25
703.497	3.25
704.251	4.25
705.005	1.25
705.759	7.25
706.513	2.25
707.266	5.25
708.02	6.25
708.774	4.25
709.527	4.25
710.28	3.25
711.034	4.25
711.787	7.25
712.54	3.25
713.293	3.25
714.046	1.25
714.799	3.25
715.552	4.25
716.305	5.25
717.058	5.25
717.81	4.25
718.563	5.25
719.315	3.25
720.068	4.25
720.82	4.25
721.573	5.25
722.325	4.25
723.077	2.25
723.829	5.25
724.581	5.25
725.333	6.25
726.085	3.25
726.836	5.25
727.588	4.25
728.34	3.25
729.091	4.25
729.843	4.25
730.594	3.25
731.346	6.25
732.097	5.25
732.848	4.25
733.599	5.25
734.35	6.25
735.101	3.25
735.852	3.25
736.603	2.25
737.354	3.25
738.104	4.25
738.855	3.25
739.605	7.25
740.356	5.25
741.106	4.25
741.856	5.25
742.607	3.25
743.357	5.25
744.107	4.25
744.857	5.25
745.607	6.25
746.357	6.25
747.106	5.25
747.856	5.25
748.606	6.25
749.355	6.25
750.105	6.25
750.854	8.25
751.603	4.25
752.353	7.25
753.102	4.25
753.851	6.25
754.6	6.25
755.349	4.25
756.098	5.25
756.847	6.25
757.595	7.25
758.344	6.25
759.093	7.25
759.841	6.25
760.589	6.25
761.338	6.25
762.086	5.25
762.834	10.25
763.582	6.25
764.331	8.25
765.079	7.25
765.826	9.25
766.574	6.25
767.322	6.25
768.07	9.25
768.817	5.25
769.565	9.25
770.312	6.25
771.06	8.25
771.807	9.25
772.554	8.25
773.302	7.25
774.049	9.25
774.796	10.25
775.543	8.25
776.29	10.25
777.036	6.25
777.783	8.25
778.53	8.25
779.276	9.25
780.023	9.25
780.769	10.25
781.516	9.25
782.262	6.25
783.008	8.25
783.754	8.25
784.5	8.25
785.246	7.25
785.992	10.25
786.738	8.25
787.484	11.25
788.23	10.25
788.975	9.25
789.721	9.25
790.466	11.25
791.212	9.25
791.957	9.25
792.702	8.25
793.447	8.25
794.193	7.25
794.938	8.25
795.683	9.25
796.427	9.25
797.172	7.25
797.917	10.25
798.662	6.25
799.406	8.25
800.151	7.25
800.895	10.25
801.64	7.25
802.384	7.25
803.128	6.25
803.872	7.25
804.616	3.25
805.36	7.25
806.104	7.25
806.848	8.25
807.592	7.25
808.336	7.25
809.079	2.25
809.823	5.25
810.566	7.25
811.31	4.25
812.053	6.25
812.796	6.25
813.539	5.25
814.283	7.25
815.026	6.25
815.769	6.25
816.511	7.25
817.254	7.25
817.997	7.25
818.74	2.25
819.482	5.25
820.225	5.25
820.967	3.25
821.71	5.25
822.452	5.25
823.194	4.25
823.936	4.25
824.678	4.25
825.42	6.25
826.162	5.25
826.904	4.25
827.646	4.25
828.388	6.25
829.129	3.25
829.871	4.25
830.612	6.25
831.354	6.25
832.095	4.25
832.836	4.25
833.577	6.25
834.319	6.25
835.06	4.25
835.801	6.25
836.542	2.25
837.282	4.25
838.023	2.25
838.764	4.25
839.504	4.25
840.245	5.25
840.985	5.25
841.726	2.25
842.466	6.25
843.206	2.25
843.946	4.25
844.687	3.25
845.427	3.25
846.166	4.25
846.906	2.25
847.646	6.25
848.386	4.25
849.125	3.25
849.865	3.25
850.605	4.25
851.344	4.25
852.083	2.25
852.823	4.25
853.562	4.25
854.301	5.25
855.04	3.25
855.779	1.25
856.518	3.25
857.257	2.25
857.995	1.25
858.734	0.25
859.473	2.25
860.211	1.25
860.95	4.25
861.688	1.25
862.426	3.25
863.165	2.25
863.903	1.25
864.641	0.25
865.379	3.25
866.117	2.25
866.855	3.25
867.593	1.25
868.33	3.25
869.068	0.25
869.806	1.25
870.543	3.25
871.28	2.25
872.018	2.25
872.755	1.25
873.492	2.25
874.229	2.25
874.967	2.25
875.703	2.25
876.44	0.25
877.177	0.25
877.914	2.25
878.651	0.25
879.387	1.25
880.124	1.25
880.86	2.25
881.597	0.25
882.333	2.25
883.069	2.25
883.806	1.25
884.542	2.25
885.278	0.25
886.014	2.25
886.749	0.25
887.485	2.25
888.221	2.25
888.957	0.25
889.692	3.25
890.428	1.25
891.163	0.25
891.899	2.25
892.634	1.25
893.369	0.25
894.104	1.25
894.839	2.25
895.574	1.25
896.309	1.25
897.044	2.25
897.779	0.25
898.514	-1.75
899.248	-1.75
899.983	2.25
900.717	2.25
901.452	0.25
902.186	-0.75
902.92	1.25
903.654	0.25
904.389	1.25
905.123	0.25
905.857	1.25
906.59	0.25
907.324	2.25
908.058	0.25
908.792	0.25
909.525	1.25
910.259	0.25
910.992	2.25
911.726	1.25
912.459	-1.75
913.192	0.25
913.925	2.25
914.658	-1.75
915.391	-2.75
916.124	1.25
916.857	1.25
917.59	0.25
918.323	2.25
919.055	2.25
919.788	-0.75
920.521	0.25
921.253	2.25
921.985	1.25
922.718	0.25
923.45	-0.75
924.182	1.25
924.914	1.25
925.646	0.25
926.378	0.25
927.11	-0.75
927.841	0.25
928.573	-0.75
929.305	0.25
930.036	2.25
930.768	-0.75
931.499	4.25
932.23	-1.75
932.962	0.25
933.693	-0.75
934.424	0.25
935.155	1.25
935.886	1.25
936.617	1.25
937.348	0.25
938.078	2.25
938.809	0.25
939.54	-1.75
940.27	-0.75
941.001	0.25
941.731	0.25
942.461	2.25
943.191	0.25
943.922	1.25
944.652	1.25
945.382	2.25
946.112	1.25
946.841	1.25
947.571	0.25
948.301	1.25
949.031	0.25
949.76	-3.75
950.49	1.25
951.219	1.25
951.948	3.25
952.678	2.25
953.407	0.25
954.136	0.25
954.865	2.25
955.594	0.25
956.323	0.25
957.052	1.25
957.78	2.25
958.509	-1.75
959.238	3.25
959.966	0.25
960.695	1.25
961.423	2.25
962.151	0.25
962.88	0.25
963.608	0.25
964.336	2.25
965.064	0.25
965.792	1.25
966.52	1.25
967.247	0.25
967.975	0.25
968.703	2.25
969.43	0.25
970.158	1.25
970.885	-2.75
971.613	2.25
972.34	-0.75
973.067	2.25
973.794	2.25
974.521	-1.75
975.248	1.25
975.975	-0.75
976.702	2.25
977.429	-1.75
978.156	0.25
978.882	-0.75
979.609	1.25
980.335	0.25
981.062	0.25
981.788	-0.75
982.514	0.25
983.24	0.25
983.967	-1.75
984.693	0.25
985.419	3.25
986.144	1.25
986.87	0.25
987.596	-0.75
988.322	0.25
989.047	0.25
989.773	0.25
990.498	0.25
991.224	0.25
991.949	0.25
992.674	-1.75
993.399	-1.75
994.124	0.25
994.849	0.25
995.574	3.25
996.299	0.25
997.024	2.25
997.749	0.25
998.473	1.25
999.198	1.25
999.922	-0.75
1000.647	-0.75
1001.371	2.25
1002.095	1.25
1002.82	0.25
1003.544	-1.75
1004.268	2.25
1004.992	1.25
1005.716	2.25
1006.439	-1.75
1007.163	3.25
1007.887	0.25
1008.611	1.25
1009.334	0.25
1010.058	0.25
1010.781	-1.75
1011.504	2.25
1012.228	-1.75
1012.951	-0.75
1013.674	0.25
1014.397	-1.75
1015.12	0.25
