节点500_285_QEPB04081__305__15-00-37-764.txt的数据

Date: Wed Nov 12 15:00:37 CST 2025
User: PC
Spectrometer: QEPB0408
触发模式: 0
积分时间 (秒): 1.000000E-2
Scans to average: 1
启用暗噪声校正: true
启用非线性校正: false
滑动平均宽度: 0
X轴模式: Wavelengths
Number of Pixels in Spectrum: 1044
>>>>>Begin Spectral Data<<<<<
220.843	1.62
221.644	0.62
222.444	1.62
223.244	2.62
224.045	1.62
224.845	1.62
225.645	1.62
226.445	1.62
227.245	2.62
228.045	1.62
228.845	1.62
229.645	1.62
230.444	4.62
231.244	1.62
232.043	1.62
232.843	2.62
233.642	2.62
234.442	3.62
235.241	1.62
236.04	4.62
236.839	3.62
237.638	4.62
238.437	6.62
239.236	4.62
240.035	4.62
240.833	2.62
241.632	3.62
242.43	5.62
243.229	4.62
244.027	4.62
244.826	7.62
245.624	7.62
246.422	6.62
247.22	4.62
248.018	5.62
248.816	4.62
249.614	7.62
250.412	5.62
251.21	6.62
252.007	9.62
252.805	6.62
253.602	5.62
254.4	8.62
255.197	8.62
255.994	7.62
256.791	8.62
257.589	10.62
258.386	6.62
259.183	9.62
259.979	8.62
260.776	9.62
261.573	10.62
262.37	8.62
263.166	13.62
263.963	9.62
264.759	11.62
265.556	13.62
266.352	11.62
267.148	13.62
267.944	10.62
268.74	14.62
269.536	10.62
270.332	15.62
271.128	17.62
271.924	15.62
272.719	15.62
273.515	17.62
274.311	15.62
275.106	16.62
275.901	14.62
276.697	20.62
277.492	13.62
278.287	17.62
279.082	17.62
279.877	17.62
280.672	17.62
281.467	20.62
282.262	17.62
283.056	19.62
283.851	19.62
284.646	17.62
285.44	19.62
286.234	17.62
287.029	15.62
287.823	18.62
288.617	18.62
289.411	19.62
290.205	19.62
290.999	18.62
291.793	20.62
292.587	18.62
293.381	15.62
294.174	17.62
294.968	17.62
295.761	13.62
296.555	15.62
297.348	13.62
298.141	13.62
298.935	14.62
299.728	13.62
300.521	13.62
301.314	14.62
302.107	14.62
302.899	10.62
303.692	12.62
304.485	13.62
305.277	13.62
306.07	12.62
306.862	13.62
307.655	12.62
308.447	11.62
309.239	10.62
310.031	11.62
310.823	9.62
311.615	11.62
312.407	11.62
313.199	8.62
313.991	11.62
314.783	10.62
315.574	10.62
316.366	9.62
317.157	10.62
317.949	9.62
318.74	5.62
319.531	9.62
320.322	5.62
321.113	6.62
321.904	6.62
322.695	4.62
323.486	6.62
324.277	6.62
325.068	6.62
325.858	6.62
326.649	7.62
327.439	6.62
328.23	5.62
329.02	6.62
329.81	4.62
330.6	7.62
331.391	7.62
332.181	6.62
332.971	5.62
333.76	4.62
334.55	5.62
335.34	6.62
336.13	5.62
336.919	6.62
337.709	3.62
338.498	6.62
339.287	6.62
340.077	6.62
340.866	5.62
341.655	5.62
342.444	6.62
343.233	3.62
344.022	8.62
344.811	6.62
345.6	6.62
346.388	6.62
347.177	5.62
347.965	5.62
348.754	6.62
349.542	8.62
350.33	6.62
351.119	6.62
351.907	7.62
352.695	5.62
353.483	8.62
354.271	6.62
355.059	7.62
355.846	7.62
356.634	4.62
357.422	7.62
358.209	6.62
358.997	4.62
359.784	6.62
360.571	5.62
361.359	5.62
362.146	4.62
362.933	3.62
363.72	4.62
364.507	4.62
365.294	4.62
366.081	2.62
366.867	4.62
367.654	5.62
368.44	4.62
369.227	5.62
370.013	4.62
370.8	3.62
371.586	5.62
372.372	4.62
373.158	4.62
373.944	5.62
374.73	3.62
375.516	3.62
376.302	5.62
377.088	5.62
377.873	6.62
378.659	3.62
379.445	5.62
380.23	2.62
381.015	4.62
381.801	3.62
382.586	5.62
383.371	4.62
384.156	8.62
384.941	6.62
385.726	4.62
386.511	6.62
387.296	5.62
388.08	6.62
388.865	4.62
389.649	5.62
390.434	4.62
391.218	5.62
392.003	6.62
392.787	6.62
393.571	6.62
394.355	5.62
395.139	6.62
395.923	4.62
396.707	6.62
397.491	8.62
398.274	7.62
399.058	7.62
399.842	7.62
400.625	6.62
401.408	7.62
402.192	5.62
402.975	7.62
403.758	7.62
404.541	6.62
405.324	7.62
406.107	7.62
406.89	6.62
407.673	9.62
408.456	5.62
409.238	8.62
410.021	9.62
410.803	6.62
411.586	8.62
412.368	6.62
413.151	9.62
413.933	9.62
414.715	9.62
415.497	10.62
416.279	9.62
417.061	8.62
417.843	9.62
418.624	9.62
419.406	7.62
420.188	10.62
420.969	9.62
421.751	10.62
422.532	10.62
423.313	10.62
424.095	10.62
424.876	11.62
425.657	12.62
426.438	14.62
427.219	12.62
428	12.62
428.78	11.62
429.561	13.62
430.342	13.62
431.122	13.62
431.903	15.62
432.683	15.62
433.464	14.62
434.244	15.62
435.024	14.62
435.804	20.62
436.584	17.62
437.364	19.62
438.144	20.62
438.924	23.62
439.704	23.62
440.483	18.62
441.263	23.62
442.042	23.62
442.822	26.62
443.601	28.62
444.38	26.62
445.16	33.62
445.939	31.62
446.718	36.62
447.497	38.62
448.276	40.62
449.054	45.62
449.833	48.62
450.612	54.62
451.391	56.62
452.169	61.62
452.948	69.62
453.726	73.62
454.504	79.62
455.282	88.62
456.061	98.62
456.839	106.62
457.617	123.62
458.395	134.62
459.172	149.62
459.95	168.62
460.728	180.62
461.506	206.62
462.283	229.62
463.061	252.62
463.838	283.62
464.615	318.62
465.393	355.62
466.17	394.62
466.947	439.62
467.724	495.62
468.501	555.62
469.278	614.62
470.055	697.62
470.831	757.62
471.608	853.62
472.385	952.62
473.161	1045.62
473.938	1165.62
474.714	1298.62
475.49	1428.62
476.266	1564.62
477.043	1744.62
477.819	1918.62
478.595	2126.62
479.371	2355.62
480.146	2589.62
480.922	2862.62
481.698	3139.62
482.473	3466.62
483.249	3812.62
484.024	4247.62
484.8	4640.62
485.575	5122.62
486.35	5635.62
487.126	6188.62
487.901	6782.62
488.676	7415.62
489.451	8109.62
490.225	8894.62
491	9673.62
491.775	10617.62
492.55	11609.62
493.324	12582.62
494.099	13571.62
494.873	14633.62
495.647	15718.62
496.422	16887.62
497.196	18156.62
497.97	19355.62
498.744	20490.62
499.518	21700.62
500.292	22835.62
501.066	23982.62
501.839	24930.62
502.613	25807.62
503.387	26604.62
504.16	27100.62
504.934	27550.62
505.707	27638.62
506.48	27739.62
507.253	27563.62
508.027	27294.62
508.8	27004.62
509.573	26523.62
510.346	25824.62
511.118	25111.62
511.891	24162.62
512.664	23342.62
513.437	22496.62
514.209	21542.62
514.982	20640.62
515.754	19686.62
516.526	18819.62
517.298	18024.62
518.071	17206.62
518.843	16566.62
519.615	15994.62
520.387	15314.62
521.159	14673.62
521.93	14081.62
522.702	13501.62
523.474	12951.62
524.245	12403.62
525.017	11892.62
525.788	11433.62
526.56	10879.62
527.331	10381.62
528.102	9910.62
528.873	9495.62
529.644	9018.62
530.415	8556.62
531.186	8119.62
531.957	7648.62
532.728	7312.62
533.498	6931.62
534.269	6549.62
535.039	6184.62
535.81	5864.62
536.58	5512.62
537.351	5176.62
538.121	4912.62
538.891	4644.62
539.661	4381.62
540.431	4146.62
541.201	3913.62
541.971	3708.62
542.741	3511.62
543.51	3337.62
544.28	3167.62
545.05	3025.62
545.819	2880.62
546.588	2737.62
547.358	2606.62
548.127	2450.62
548.896	2323.62
549.665	2221.62
550.434	2103.62
551.203	1983.62
551.972	1870.62
552.741	1790.62
553.51	1683.62
554.278	1597.62
555.047	1487.62
555.815	1406.62
556.584	1340.62
557.352	1260.62
558.121	1190.62
558.889	1119.62
559.657	1053.62
560.425	998.62
561.193	946.62
561.961	890.62
562.729	834.62
563.496	801.62
564.264	750.62
565.032	703.62
565.799	669.62
566.567	636.62
567.334	600.62
568.101	568.62
568.869	533.62
569.636	513.62
570.403	479.62
571.17	445.62
571.937	426.62
572.704	392.62
573.471	374.62
574.237	360.62
575.004	333.62
575.771	318.62
576.537	293.62
577.303	279.62
578.07	265.62
578.836	245.62
579.602	237.62
580.368	221.62
581.134	204.62
581.9	196.62
582.666	189.62
583.432	182.62
584.198	176.62
584.964	156.62
585.729	149.62
586.495	143.62
587.26	137.62
588.025	126.62
588.791	123.62
589.556	116.62
590.321	112.62
591.086	105.62
591.851	98.62
592.616	91.62
593.381	93.62
594.146	85.62
594.911	83.62
595.675	77.62
596.44	71.62
597.204	74.62
597.969	65.62
598.733	58.62
599.497	64.62
600.261	61.62
601.025	57.62
601.79	54.62
602.553	49.62
603.317	51.62
604.081	46.62
604.845	44.62
605.609	42.62
606.372	37.62
607.136	44.62
607.899	37.62
608.662	33.62
609.426	35.62
610.189	33.62
610.952	33.62
611.715	30.62
612.478	28.62
613.241	30.62
614.004	27.62
614.767	28.62
615.529	25.62
616.292	26.62
617.055	23.62
617.817	25.62
618.579	22.62
619.342	22.62
620.104	19.62
620.866	19.62
621.628	20.62
622.39	19.62
623.152	18.62
623.914	18.62
624.676	14.62
625.438	16.62
626.199	13.62
626.961	17.62
627.722	13.62
628.484	13.62
629.245	13.62
630.006	14.62
630.768	12.62
631.529	12.62
632.29	13.62
633.051	13.62
633.812	12.62
634.573	11.62
635.333	11.62
636.094	13.62
636.855	12.62
637.615	11.62
638.376	11.62
639.136	11.62
639.896	8.62
640.657	8.62
641.417	9.62
642.177	10.62
642.937	7.62
643.697	10.62
644.457	6.62
645.216	8.62
645.976	8.62
646.736	8.62
647.495	6.62
648.255	6.62
649.014	6.62
649.774	7.62
650.533	8.62
651.292	7.62
652.051	7.62
652.81	7.62
653.569	3.62
654.328	5.62
655.087	7.62
655.846	5.62
656.604	7.62
657.363	3.62
658.121	5.62
658.88	5.62
659.638	4.62
660.397	6.62
661.155	4.62
661.913	4.62
662.671	4.62
663.429	7.62
664.187	5.62
664.945	4.62
665.703	4.62
666.46	5.62
667.218	3.62
667.976	5.62
668.733	5.62
669.49	2.62
670.248	4.62
671.005	3.62
671.762	7.62
672.519	3.62
673.276	4.62
674.033	3.62
674.79	2.62
675.547	4.62
676.304	5.62
677.06	4.62
677.817	4.62
678.574	2.62
679.33	1.62
680.086	2.62
680.843	2.62
681.599	2.62
682.355	4.62
683.111	6.62
683.867	4.62
684.623	5.62
685.379	3.62
686.135	2.62
686.89	6.62
687.646	3.62
688.402	3.62
689.157	5.62
689.912	3.62
690.668	3.62
691.423	3.62
692.178	4.62
692.933	3.62
693.688	1.62
694.443	4.62
695.198	0.62
695.953	4.62
696.708	2.62
697.462	3.62
698.217	3.62
698.972	2.62
699.726	5.62
700.48	1.62
701.235	3.62
701.989	6.62
702.743	4.62
703.497	4.62
704.251	2.62
705.005	2.62
705.759	3.62
706.513	3.62
707.266	2.62
708.02	3.62
708.774	3.62
709.527	3.62
710.28	3.62
711.034	4.62
711.787	3.62
712.54	4.62
713.293	1.62
714.046	0.62
714.799	3.62
715.552	6.62
716.305	2.62
717.058	4.62
717.81	3.62
718.563	2.62
719.315	4.62
720.068	2.62
720.82	1.62
721.573	3.62
722.325	4.62
723.077	1.62
723.829	4.62
724.581	6.62
725.333	4.62
726.085	3.62
726.836	5.62
727.588	3.62
728.34	4.62
729.091	4.62
729.843	4.62
730.594	3.62
731.346	3.62
732.097	1.62
732.848	4.62
733.599	4.62
734.35	4.62
735.101	3.62
735.852	5.62
736.603	4.62
737.354	4.62
738.104	1.62
738.855	4.62
739.605	4.62
740.356	6.62
741.106	3.62
741.856	5.62
742.607	6.62
743.357	4.62
744.107	5.62
744.857	3.62
745.607	6.62
746.357	5.62
747.106	4.62
747.856	5.62
748.606	1.62
749.355	6.62
750.105	2.62
750.854	4.62
751.603	4.62
752.353	3.62
753.102	5.62
753.851	5.62
754.6	6.62
755.349	3.62
756.098	4.62
756.847	7.62
757.595	4.62
758.344	7.62
759.093	5.62
759.841	5.62
760.589	7.62
761.338	4.62
762.086	6.62
762.834	7.62
763.582	7.62
764.331	6.62
765.079	5.62
765.826	6.62
766.574	5.62
767.322	6.62
768.07	5.62
768.817	7.62
769.565	5.62
770.312	5.62
771.06	7.62
771.807	8.62
772.554	7.62
773.302	7.62
774.049	8.62
774.796	9.62
775.543	7.62
776.29	9.62
777.036	7.62
777.783	9.62
778.53	9.62
779.276	10.62
780.023	9.62
780.769	8.62
781.516	7.62
782.262	8.62
783.008	8.62
783.754	9.62
784.5	7.62
785.246	9.62
785.992	6.62
786.738	10.62
787.484	9.62
788.23	9.62
788.975	8.62
789.721	10.62
790.466	9.62
791.212	8.62
791.957	9.62
792.702	6.62
793.447	9.62
794.193	7.62
794.938	7.62
795.683	10.62
796.427	7.62
797.172	9.62
797.917	7.62
798.662	7.62
799.406	7.62
800.151	6.62
800.895	7.62
801.64	6.62
802.384	5.62
803.128	7.62
803.872	6.62
804.616	5.62
805.36	6.62
806.104	9.62
806.848	6.62
807.592	4.62
808.336	5.62
809.079	7.62
809.823	6.62
810.566	4.62
811.31	5.62
812.053	5.62
812.796	4.62
813.539	3.62
814.283	5.62
815.026	5.62
815.769	3.62
816.511	4.62
817.254	4.62
817.997	4.62
818.74	3.62
819.482	3.62
820.225	4.62
820.967	5.62
821.71	3.62
822.452	3.62
823.194	5.62
823.936	5.62
824.678	3.62
825.42	6.62
826.162	4.62
826.904	4.62
827.646	3.62
828.388	3.62
829.129	3.62
829.871	1.62
830.612	2.62
831.354	2.62
832.095	2.62
832.836	5.62
833.577	1.62
834.319	5.62
835.06	2.62
835.801	2.62
836.542	3.62
837.282	2.62
838.023	2.62
838.764	3.62
839.504	3.62
840.245	3.62
840.985	2.62
841.726	1.62
842.466	2.62
843.206	3.62
843.946	0.62
844.687	2.62
845.427	4.62
846.166	1.62
846.906	3.62
847.646	1.62
848.386	2.62
849.125	2.62
849.865	3.62
850.605	4.62
851.344	2.62
852.083	4.62
852.823	1.62
853.562	1.62
854.301	3.62
855.04	2.62
855.779	2.62
856.518	3.62
857.257	1.62
857.995	6.62
858.734	1.62
859.473	2.62
860.211	2.62
860.95	3.62
861.688	3.62
862.426	2.62
863.165	2.62
863.903	-0.38
864.641	1.62
865.379	-0.38
866.117	1.62
866.855	1.62
867.593	0.62
868.33	1.62
869.068	2.62
869.806	2.62
870.543	-0.38
871.28	0.62
872.018	1.62
872.755	-0.38
873.492	1.62
874.229	0.62
874.967	0.62
875.703	1.62
876.44	0.62
877.177	1.62
877.914	0.62
878.651	0.62
879.387	0.62
880.124	1.62
880.86	0.62
881.597	-0.38
882.333	2.62
883.069	2.62
883.806	1.62
884.542	2.62
885.278	2.62
886.014	3.62
886.749	-0.38
887.485	-0.38
888.221	0.62
888.957	2.62
889.692	-2.38
890.428	-1.38
891.163	-1.38
891.899	1.62
892.634	0.62
893.369	-0.38
894.104	-1.38
894.839	-0.38
895.574	1.62
896.309	0.62
897.044	-1.38
897.779	2.62
898.514	0.62
899.248	0.62
899.983	2.62
900.717	2.62
901.452	0.62
902.186	-1.38
902.92	1.62
903.654	-0.38
904.389	-0.38
905.123	-2.38
905.857	-0.38
906.59	1.62
907.324	1.62
908.058	-0.38
908.792	0.62
909.525	-1.38
910.259	-0.38
910.992	-1.38
911.726	2.62
912.459	0.62
913.192	1.62
913.925	0.62
914.658	-1.38
915.391	-0.38
916.124	-0.38
916.857	0.62
917.59	1.62
918.323	1.62
919.055	0.62
919.788	-2.38
920.521	0.62
921.253	2.62
921.985	-0.38
922.718	-0.38
923.45	-1.38
924.182	-1.38
924.914	0.62
925.646	1.62
926.378	0.62
927.11	2.62
927.841	0.62
928.573	-1.38
929.305	-0.38
930.036	0.62
930.768	2.62
931.499	-0.38
932.23	0.62
932.962	1.62
933.693	-0.38
934.424	-0.38
935.155	-1.38
935.886	1.62
936.617	1.62
937.348	0.62
938.078	1.62
938.809	-1.38
939.54	1.62
940.27	1.62
941.001	-0.38
941.731	0.62
942.461	-1.38
943.191	0.62
943.922	-0.38
944.652	1.62
945.382	1.62
946.112	0.62
946.841	1.62
947.571	-0.38
948.301	-0.38
949.031	-0.38
949.76	1.62
950.49	0.62
951.219	0.62
951.948	1.62
952.678	-0.38
953.407	1.62
954.136	-0.38
954.865	-1.38
955.594	2.62
956.323	1.62
957.052	0.62
957.78	0.62
958.509	1.62
959.238	1.62
959.966	0.62
960.695	0.62
961.423	-0.38
962.151	1.62
962.88	-0.38
963.608	-1.38
964.336	1.62
965.064	0.62
965.792	1.62
966.52	1.62
967.247	1.62
967.975	0.62
968.703	-1.38
969.43	3.62
970.158	0.62
970.885	0.62
971.613	-1.38
972.34	0.62
973.067	1.62
973.794	-0.38
974.521	0.62
975.248	0.62
975.975	0.62
976.702	0.62
977.429	0.62
978.156	0.62
978.882	-3.38
979.609	0.62
980.335	0.62
981.062	2.62
981.788	0.62
982.514	-1.38
983.24	-1.38
983.967	-1.38
984.693	-1.38
985.419	1.62
986.144	0.62
986.87	0.62
987.596	-0.38
988.322	0.62
989.047	1.62
989.773	1.62
990.498	-3.38
991.224	0.62
991.949	-1.38
992.674	-0.38
993.399	2.62
994.124	0.62
994.849	-1.38
995.574	-1.38
996.299	0.62
997.024	-0.38
997.749	-0.38
998.473	-2.38
999.198	0.62
999.922	1.62
1000.647	1.62
1001.371	1.62
1002.095	-0.38
1002.82	0.62
1003.544	-3.38
1004.268	1.62
1004.992	2.62
1005.716	2.62
1006.439	1.62
1007.163	4.62
1007.887	0.62
1008.611	2.62
1009.334	-0.38
1010.058	0.62
1010.781	0.62
1011.504	-0.38
1012.228	-0.38
1012.951	2.62
1013.674	-1.38
1014.397	-0.38
1015.12	0.62
