节点500_285_QEPB04081__10__14-55-45-499.txt的数据

Date: Wed Nov 12 14:55:45 CST 2025
User: PC
Spectrometer: QEPB0408
触发模式: 0
积分时间 (秒): 1.000000E-2
Scans to average: 1
启用暗噪声校正: true
启用非线性校正: false
滑动平均宽度: 0
X轴模式: Wavelengths
Number of Pixels in Spectrum: 1044
>>>>>Begin Spectral Data<<<<<
220.843	2.12
221.644	1.12
222.444	3.12
223.244	3.12
224.045	3.12
224.845	2.12
225.645	3.12
226.445	1.12
227.245	1.12
228.045	3.12
228.845	5.12
229.645	6.12
230.444	3.12
231.244	2.12
232.043	4.12
232.843	5.12
233.642	4.12
234.442	6.12
235.241	6.12
236.04	5.12
236.839	3.12
237.638	5.12
238.437	4.12
239.236	6.12
240.035	5.12
240.833	4.12
241.632	6.12
242.43	5.12
243.229	5.12
244.027	6.12
244.826	5.12
245.624	5.12
246.422	6.12
247.22	8.12
248.018	4.12
248.816	5.12
249.614	8.12
250.412	6.12
251.21	7.12
252.007	8.12
252.805	11.12
253.602	7.12
254.4	7.12
255.197	7.12
255.994	8.12
256.791	9.12
257.589	11.12
258.386	9.12
259.183	13.12
259.979	9.12
260.776	12.12
261.573	13.12
262.37	13.12
263.166	13.12
263.963	14.12
264.759	13.12
265.556	13.12
266.352	16.12
267.148	16.12
267.944	15.12
268.74	14.12
269.536	13.12
270.332	17.12
271.128	16.12
271.924	19.12
272.719	17.12
273.515	19.12
274.311	17.12
275.106	17.12
275.901	18.12
276.697	19.12
277.492	19.12
278.287	20.12
279.082	22.12
279.877	18.12
280.672	22.12
281.467	22.12
282.262	23.12
283.056	19.12
283.851	20.12
284.646	21.12
285.44	20.12
286.234	23.12
287.029	20.12
287.823	24.12
288.617	19.12
289.411	19.12
290.205	20.12
290.999	17.12
291.793	23.12
292.587	21.12
293.381	17.12
294.174	17.12
294.968	17.12
295.761	17.12
296.555	15.12
297.348	13.12
298.141	13.12
298.935	20.12
299.728	17.12
300.521	14.12
301.314	14.12
302.107	14.12
302.899	12.12
303.692	13.12
304.485	13.12
305.277	14.12
306.07	13.12
306.862	13.12
307.655	13.12
308.447	12.12
309.239	14.12
310.031	12.12
310.823	13.12
311.615	12.12
312.407	10.12
313.199	11.12
313.991	9.12
314.783	12.12
315.574	8.12
316.366	10.12
317.157	10.12
317.949	6.12
318.74	7.12
319.531	10.12
320.322	10.12
321.113	9.12
321.904	7.12
322.695	10.12
323.486	6.12
324.277	7.12
325.068	7.12
325.858	7.12
326.649	7.12
327.439	9.12
328.23	7.12
329.02	6.12
329.81	9.12
330.6	6.12
331.391	7.12
332.181	7.12
332.971	5.12
333.76	7.12
334.55	8.12
335.34	8.12
336.13	5.12
336.919	5.12
337.709	8.12
338.498	7.12
339.287	9.12
340.077	6.12
340.866	9.12
341.655	7.12
342.444	6.12
343.233	7.12
344.022	7.12
344.811	9.12
345.6	6.12
346.388	6.12
347.177	8.12
347.965	8.12
348.754	7.12
349.542	7.12
350.33	9.12
351.119	7.12
351.907	6.12
352.695	7.12
353.483	4.12
354.271	9.12
355.059	7.12
355.846	3.12
356.634	7.12
357.422	5.12
358.209	3.12
358.997	7.12
359.784	6.12
360.571	7.12
361.359	3.12
362.146	7.12
362.933	4.12
363.72	6.12
364.507	6.12
365.294	6.12
366.081	6.12
366.867	5.12
367.654	6.12
368.44	6.12
369.227	5.12
370.013	6.12
370.8	4.12
371.586	7.12
372.372	5.12
373.158	4.12
373.944	7.12
374.73	4.12
375.516	8.12
376.302	6.12
377.088	5.12
377.873	8.12
378.659	6.12
379.445	5.12
380.23	7.12
381.015	7.12
381.801	6.12
382.586	6.12
383.371	7.12
384.156	6.12
384.941	8.12
385.726	6.12
386.511	8.12
387.296	10.12
388.08	5.12
388.865	7.12
389.649	7.12
390.434	5.12
391.218	4.12
392.003	6.12
392.787	8.12
393.571	6.12
394.355	6.12
395.139	8.12
395.923	8.12
396.707	7.12
397.491	7.12
398.274	8.12
399.058	8.12
399.842	8.12
400.625	9.12
401.408	7.12
402.192	8.12
402.975	5.12
403.758	9.12
404.541	7.12
405.324	9.12
406.107	9.12
406.89	7.12
407.673	9.12
408.456	11.12
409.238	10.12
410.021	7.12
410.803	11.12
411.586	7.12
412.368	9.12
413.151	9.12
413.933	10.12
414.715	9.12
415.497	9.12
416.279	10.12
417.061	13.12
417.843	9.12
418.624	10.12
419.406	10.12
420.188	11.12
420.969	13.12
421.751	12.12
422.532	11.12
423.313	13.12
424.095	13.12
424.876	14.12
425.657	10.12
426.438	12.12
427.219	14.12
428	12.12
428.78	14.12
429.561	16.12
430.342	18.12
431.122	15.12
431.903	15.12
432.683	18.12
433.464	15.12
434.244	19.12
435.024	16.12
435.804	19.12
436.584	18.12
437.364	21.12
438.144	19.12
438.924	21.12
439.704	23.12
440.483	22.12
441.263	23.12
442.042	25.12
442.822	26.12
443.601	29.12
444.38	30.12
445.16	32.12
445.939	31.12
446.718	35.12
447.497	36.12
448.276	40.12
449.054	42.12
449.833	47.12
450.612	48.12
451.391	56.12
452.169	62.12
452.948	61.12
453.726	68.12
454.504	77.12
455.282	82.12
456.061	96.12
456.839	101.12
457.617	112.12
458.395	121.12
459.172	142.12
459.95	149.12
460.728	171.12
461.506	189.12
462.283	213.12
463.061	241.12
463.838	265.12
464.615	297.12
465.393	332.12
466.17	366.12
466.947	413.12
467.724	468.12
468.501	527.12
469.278	572.12
470.055	641.12
470.831	719.12
471.608	815.12
472.385	918.12
473.161	991.12
473.938	1122.12
474.714	1257.12
475.49	1400.12
476.266	1554.12
477.043	1719.12
477.819	1908.12
478.595	2116.12
479.371	2342.12
480.146	2636.12
480.922	2912.12
481.698	3205.12
482.473	3573.12
483.249	3966.12
484.024	4392.12
484.8	4886.12
485.575	5414.12
486.35	5947.12
487.126	6579.12
487.901	7258.12
488.676	7988.12
489.451	8849.12
490.225	9704.12
491	10662.12
491.775	11645.12
492.55	12776.12
493.324	13885.12
494.099	14963.12
494.873	16190.12
495.647	17599.12
496.422	18867.12
497.196	20195.12
497.97	21545.12
498.744	22894.12
499.518	24117.12
500.292	25287.12
501.066	26388.12
501.839	27398.12
502.613	28191.12
503.387	28869.12
504.16	29371.12
504.934	29528.12
505.707	29522.12
506.48	29378.12
507.253	28985.12
508.027	28468.12
508.8	27940.12
509.573	27251.12
510.346	26403.12
511.118	25414.12
511.891	24444.12
512.664	23467.12
513.437	22475.12
514.209	21381.12
514.982	20507.12
515.754	19539.12
516.526	18586.12
517.298	17749.12
518.071	16970.12
518.843	16301.12
519.615	15674.12
520.387	15041.12
521.159	14462.12
521.93	13928.12
522.702	13385.12
523.474	12806.12
524.245	12268.12
525.017	11707.12
525.788	11223.12
526.56	10727.12
527.331	10155.12
528.102	9683.12
528.873	9209.12
529.644	8744.12
530.415	8341.12
531.186	7843.12
531.957	7405.12
532.728	7040.12
533.498	6649.12
534.269	6232.12
535.039	5862.12
535.81	5559.12
536.58	5284.12
537.351	4925.12
538.121	4668.12
538.891	4421.12
539.661	4186.12
540.431	3941.12
541.201	3718.12
541.971	3526.12
542.741	3361.12
543.51	3194.12
544.28	3036.12
545.05	2895.12
545.819	2739.12
546.588	2615.12
547.358	2480.12
548.127	2361.12
548.896	2252.12
549.665	2114.12
550.434	1994.12
551.203	1893.12
551.972	1783.12
552.741	1677.12
553.51	1598.12
554.278	1512.12
555.047	1419.12
555.815	1344.12
556.584	1265.12
557.352	1177.12
558.121	1111.12
558.889	1045.12
559.657	992.12
560.425	937.12
561.193	892.12
561.961	842.12
562.729	785.12
563.496	742.12
564.264	707.12
565.032	666.12
565.799	633.12
566.567	595.12
567.334	566.12
568.101	533.12
568.869	500.12
569.636	476.12
570.403	449.12
571.17	422.12
571.937	398.12
572.704	377.12
573.471	351.12
574.237	332.12
575.004	315.12
575.771	297.12
576.537	279.12
577.303	266.12
578.07	241.12
578.836	232.12
579.602	219.12
580.368	209.12
581.134	200.12
581.9	184.12
582.666	178.12
583.432	165.12
584.198	156.12
584.964	149.12
585.729	146.12
586.495	137.12
587.26	130.12
588.025	124.12
588.791	110.12
589.556	107.12
590.321	105.12
591.086	101.12
591.851	93.12
592.616	88.12
593.381	86.12
594.146	83.12
594.911	78.12
595.675	70.12
596.44	69.12
597.204	68.12
597.969	63.12
598.733	63.12
599.497	59.12
600.261	59.12
601.025	54.12
601.79	54.12
602.553	51.12
603.317	47.12
604.081	45.12
604.845	44.12
605.609	42.12
606.372	39.12
607.136	38.12
607.899	40.12
608.662	36.12
609.426	32.12
610.189	31.12
610.952	31.12
611.715	30.12
612.478	29.12
613.241	28.12
614.004	24.12
614.767	27.12
615.529	26.12
616.292	26.12
617.055	24.12
617.817	27.12
618.579	25.12
619.342	21.12
620.104	21.12
620.866	23.12
621.628	20.12
622.39	20.12
623.152	21.12
623.914	16.12
624.676	19.12
625.438	20.12
626.199	17.12
626.961	17.12
627.722	15.12
628.484	13.12
629.245	14.12
630.006	12.12
630.768	12.12
631.529	14.12
632.29	12.12
633.051	13.12
633.812	15.12
634.573	11.12
635.333	11.12
636.094	10.12
636.855	11.12
637.615	12.12
638.376	10.12
639.136	13.12
639.896	9.12
640.657	12.12
641.417	9.12
642.177	9.12
642.937	9.12
643.697	9.12
644.457	9.12
645.216	7.12
645.976	10.12
646.736	9.12
647.495	7.12
648.255	11.12
649.014	7.12
649.774	6.12
650.533	5.12
651.292	9.12
652.051	9.12
652.81	7.12
653.569	8.12
654.328	5.12
655.087	7.12
655.846	8.12
656.604	7.12
657.363	8.12
658.121	6.12
658.88	7.12
659.638	5.12
660.397	6.12
661.155	6.12
661.913	5.12
662.671	7.12
663.429	6.12
664.187	5.12
664.945	4.12
665.703	6.12
666.46	7.12
667.218	3.12
667.976	6.12
668.733	9.12
669.49	4.12
670.248	5.12
671.005	6.12
671.762	5.12
672.519	7.12
673.276	6.12
674.033	4.12
674.79	3.12
675.547	5.12
676.304	4.12
677.06	5.12
677.817	5.12
678.574	4.12
679.33	5.12
680.086	3.12
680.843	4.12
681.599	5.12
682.355	4.12
683.111	5.12
683.867	4.12
684.623	6.12
685.379	5.12
686.135	4.12
686.89	4.12
687.646	3.12
688.402	6.12
689.157	5.12
689.912	4.12
690.668	5.12
691.423	4.12
692.178	1.12
692.933	3.12
693.688	6.12
694.443	4.12
695.198	5.12
695.953	3.12
696.708	3.12
697.462	4.12
698.217	5.12
698.972	3.12
699.726	4.12
700.48	2.12
701.235	4.12
701.989	4.12
702.743	6.12
703.497	2.12
704.251	3.12
705.005	6.12
705.759	4.12
706.513	7.12
707.266	5.12
708.02	3.12
708.774	5.12
709.527	4.12
710.28	5.12
711.034	3.12
711.787	5.12
712.54	2.12
713.293	4.12
714.046	4.12
714.799	2.12
715.552	5.12
716.305	5.12
717.058	4.12
717.81	4.12
718.563	5.12
719.315	2.12
720.068	1.12
720.82	4.12
721.573	3.12
722.325	4.12
723.077	4.12
723.829	3.12
724.581	5.12
725.333	4.12
726.085	4.12
726.836	7.12
727.588	4.12
728.34	3.12
729.091	6.12
729.843	3.12
730.594	5.12
731.346	6.12
732.097	6.12
732.848	4.12
733.599	5.12
734.35	6.12
735.101	5.12
735.852	7.12
736.603	5.12
737.354	3.12
738.104	3.12
738.855	6.12
739.605	3.12
740.356	4.12
741.106	7.12
741.856	4.12
742.607	5.12
743.357	6.12
744.107	7.12
744.857	6.12
745.607	4.12
746.357	5.12
747.106	5.12
747.856	5.12
748.606	6.12
749.355	6.12
750.105	8.12
750.854	6.12
751.603	7.12
752.353	6.12
753.102	8.12
753.851	7.12
754.6	4.12
755.349	5.12
756.098	6.12
756.847	8.12
757.595	6.12
758.344	6.12
759.093	7.12
759.841	7.12
760.589	9.12
761.338	8.12
762.086	9.12
762.834	9.12
763.582	8.12
764.331	10.12
765.079	7.12
765.826	7.12
766.574	8.12
767.322	9.12
768.07	8.12
768.817	7.12
769.565	8.12
770.312	8.12
771.06	8.12
771.807	9.12
772.554	7.12
773.302	9.12
774.049	9.12
774.796	11.12
775.543	9.12
776.29	10.12
777.036	10.12
777.783	9.12
778.53	9.12
779.276	8.12
780.023	8.12
780.769	11.12
781.516	9.12
782.262	11.12
783.008	10.12
783.754	9.12
784.5	8.12
785.246	9.12
785.992	10.12
786.738	10.12
787.484	13.12
788.23	11.12
788.975	11.12
789.721	7.12
790.466	9.12
791.212	11.12
791.957	8.12
792.702	10.12
793.447	9.12
794.193	8.12
794.938	10.12
795.683	9.12
796.427	9.12
797.172	8.12
797.917	7.12
798.662	9.12
799.406	8.12
800.151	9.12
800.895	7.12
801.64	7.12
802.384	9.12
803.128	8.12
803.872	8.12
804.616	7.12
805.36	7.12
806.104	7.12
806.848	5.12
807.592	7.12
808.336	7.12
809.079	7.12
809.823	7.12
810.566	7.12
811.31	7.12
812.053	5.12
812.796	5.12
813.539	5.12
814.283	4.12
815.026	5.12
815.769	5.12
816.511	7.12
817.254	6.12
817.997	5.12
818.74	6.12
819.482	5.12
820.225	5.12
820.967	7.12
821.71	3.12
822.452	5.12
823.194	4.12
823.936	5.12
824.678	4.12
825.42	4.12
826.162	7.12
826.904	5.12
827.646	4.12
828.388	5.12
829.129	6.12
829.871	5.12
830.612	2.12
831.354	5.12
832.095	3.12
832.836	4.12
833.577	3.12
834.319	4.12
835.06	3.12
835.801	6.12
836.542	4.12
837.282	3.12
838.023	2.12
838.764	6.12
839.504	4.12
840.245	4.12
840.985	4.12
841.726	5.12
842.466	0.12
843.206	5.12
843.946	4.12
844.687	2.12
845.427	3.12
846.166	3.12
846.906	4.12
847.646	5.12
848.386	4.12
849.125	6.12
849.865	3.12
850.605	3.12
851.344	3.12
852.083	3.12
852.823	3.12
853.562	3.12
854.301	4.12
855.04	0.12
855.779	2.12
856.518	1.12
857.257	5.12
857.995	3.12
858.734	2.12
859.473	2.12
860.211	1.12
860.95	1.12
861.688	1.12
862.426	1.12
863.165	4.12
863.903	2.12
864.641	3.12
865.379	2.12
866.117	3.12
866.855	2.12
867.593	-0.88
868.33	4.12
869.068	1.12
869.806	3.12
870.543	2.12
871.28	2.12
872.018	4.12
872.755	-0.88
873.492	5.12
874.229	0.12
874.967	1.12
875.703	0.12
876.44	0.12
877.177	1.12
877.914	2.12
878.651	0.12
879.387	4.12
880.124	1.12
880.86	2.12
881.597	1.12
882.333	3.12
883.069	3.12
883.806	0.12
884.542	2.12
885.278	1.12
886.014	1.12
886.749	1.12
887.485	0.12
888.221	1.12
888.957	0.12
889.692	4.12
890.428	1.12
891.163	0.12
891.899	2.12
892.634	3.12
893.369	1.12
894.104	1.12
894.839	1.12
895.574	2.12
896.309	2.12
897.044	-0.88
897.779	1.12
898.514	3.12
899.248	3.12
899.983	1.12
900.717	2.12
901.452	2.12
902.186	2.12
902.92	0.12
903.654	0.12
904.389	1.12
905.123	1.12
905.857	1.12
906.59	2.12
907.324	3.12
908.058	3.12
908.792	0.12
909.525	0.12
910.259	2.12
910.992	3.12
911.726	0.12
912.459	-0.88
913.192	0.12
913.925	1.12
914.658	2.12
915.391	0.12
916.124	1.12
916.857	1.12
917.59	1.12
918.323	3.12
919.055	-0.88
919.788	1.12
920.521	1.12
921.253	3.12
921.985	1.12
922.718	-0.88
923.45	1.12
924.182	0.12
924.914	-0.88
925.646	1.12
926.378	0.12
927.11	0.12
927.841	2.12
928.573	0.12
929.305	1.12
930.036	2.12
930.768	-0.88
931.499	1.12
932.23	1.12
932.962	1.12
933.693	1.12
934.424	0.12
935.155	-0.88
935.886	2.12
936.617	0.12
937.348	3.12
938.078	1.12
938.809	1.12
939.54	2.12
940.27	2.12
941.001	1.12
941.731	-0.88
942.461	1.12
943.191	3.12
943.922	0.12
944.652	2.12
945.382	0.12
946.112	2.12
946.841	0.12
947.571	2.12
948.301	1.12
949.031	2.12
949.76	0.12
950.49	5.12
951.219	1.12
951.948	1.12
952.678	0.12
953.407	2.12
954.136	1.12
954.865	0.12
955.594	2.12
956.323	2.12
957.052	-0.88
957.78	-0.88
958.509	0.12
959.238	1.12
959.966	0.12
960.695	1.12
961.423	1.12
962.151	1.12
962.88	1.12
963.608	1.12
964.336	-0.88
965.064	-0.88
965.792	-0.88
966.52	0.12
967.247	2.12
967.975	1.12
968.703	0.12
969.43	-0.88
970.158	0.12
970.885	-0.88
971.613	1.12
972.34	1.12
973.067	0.12
973.794	-0.88
974.521	-1.88
975.248	0.12
975.975	0.12
976.702	1.12
977.429	-0.88
978.156	-0.88
978.882	1.12
979.609	1.12
980.335	-1.88
981.062	1.12
981.788	-0.88
982.514	-0.88
983.24	0.12
983.967	2.12
984.693	2.12
985.419	3.12
986.144	0.12
986.87	-0.88
987.596	1.12
988.322	1.12
989.047	0.12
989.773	0.12
990.498	2.12
991.224	2.12
991.949	0.12
992.674	0.12
993.399	1.12
994.124	0.12
994.849	1.12
995.574	-0.88
996.299	0.12
997.024	2.12
997.749	-0.88
998.473	2.12
999.198	1.12
999.922	0.12
1000.647	3.12
1001.371	3.12
1002.095	-3.88
1002.82	1.12
1003.544	0.12
1004.268	5.12
1004.992	2.12
1005.716	0.12
1006.439	0.12
1007.163	2.12
1007.887	2.12
1008.611	1.12
1009.334	2.12
1010.058	1.12
1010.781	-0.88
1011.504	2.12
1012.228	1.12
1012.951	1.12
1013.674	-0.88
1014.397	1.12
1015.12	-1.88
