节点500_285_QEPB04081__474__15-03-26-490.txt的数据

Date: Wed Nov 12 15:03:26 CST 2025
User: PC
Spectrometer: QEPB0408
触发模式: 0
积分时间 (秒): 1.000000E-2
Scans to average: 1
启用暗噪声校正: true
启用非线性校正: false
滑动平均宽度: 0
X轴模式: Wavelengths
Number of Pixels in Spectrum: 1044
>>>>>Begin Spectral Data<<<<<
220.843	0.38
221.644	0.38
222.444	0.38
223.244	1.38
224.045	3.38
224.845	1.38
225.645	2.38
226.445	1.38
227.245	3.38
228.045	3.38
228.845	3.38
229.645	1.38
230.444	2.38
231.244	2.38
232.043	3.38
232.843	3.38
233.642	1.38
234.442	4.38
235.241	1.38
236.04	4.38
236.839	5.38
237.638	3.38
238.437	5.38
239.236	1.38
240.035	4.38
240.833	5.38
241.632	5.38
242.43	2.38
243.229	3.38
244.027	5.38
244.826	4.38
245.624	5.38
246.422	3.38
247.22	1.38
248.018	5.38
248.816	4.38
249.614	4.38
250.412	5.38
251.21	7.38
252.007	4.38
252.805	7.38
253.602	6.38
254.4	5.38
255.197	9.38
255.994	7.38
256.791	7.38
257.589	7.38
258.386	6.38
259.183	9.38
259.979	8.38
260.776	11.38
261.573	9.38
262.37	7.38
263.166	10.38
263.963	9.38
264.759	13.38
265.556	10.38
266.352	13.38
267.148	11.38
267.944	16.38
268.74	11.38
269.536	11.38
270.332	13.38
271.128	13.38
271.924	13.38
272.719	13.38
273.515	13.38
274.311	15.38
275.106	15.38
275.901	19.38
276.697	13.38
277.492	17.38
278.287	20.38
279.082	17.38
279.877	17.38
280.672	17.38
281.467	15.38
282.262	18.38
283.056	16.38
283.851	24.38
284.646	17.38
285.44	19.38
286.234	18.38
287.029	19.38
287.823	17.38
288.617	16.38
289.411	14.38
290.205	18.38
290.999	18.38
291.793	17.38
292.587	17.38
293.381	16.38
294.174	15.38
294.968	18.38
295.761	16.38
296.555	13.38
297.348	13.38
298.141	13.38
298.935	15.38
299.728	14.38
300.521	13.38
301.314	13.38
302.107	12.38
302.899	13.38
303.692	12.38
304.485	16.38
305.277	9.38
306.07	12.38
306.862	13.38
307.655	8.38
308.447	13.38
309.239	10.38
310.031	12.38
310.823	10.38
311.615	10.38
312.407	10.38
313.199	8.38
313.991	9.38
314.783	10.38
315.574	8.38
316.366	9.38
317.157	7.38
317.949	6.38
318.74	6.38
319.531	7.38
320.322	9.38
321.113	8.38
321.904	8.38
322.695	8.38
323.486	6.38
324.277	5.38
325.068	7.38
325.858	5.38
326.649	7.38
327.439	8.38
328.23	4.38
329.02	7.38
329.81	6.38
330.6	6.38
331.391	6.38
332.181	5.38
332.971	8.38
333.76	7.38
334.55	9.38
335.34	4.38
336.13	6.38
336.919	4.38
337.709	5.38
338.498	4.38
339.287	5.38
340.077	6.38
340.866	8.38
341.655	4.38
342.444	5.38
343.233	8.38
344.022	6.38
344.811	5.38
345.6	4.38
346.388	6.38
347.177	4.38
347.965	7.38
348.754	4.38
349.542	4.38
350.33	6.38
351.119	4.38
351.907	7.38
352.695	4.38
353.483	4.38
354.271	8.38
355.059	7.38
355.846	2.38
356.634	5.38
357.422	6.38
358.209	5.38
358.997	6.38
359.784	6.38
360.571	4.38
361.359	4.38
362.146	3.38
362.933	5.38
363.72	3.38
364.507	3.38
365.294	4.38
366.081	5.38
366.867	3.38
367.654	3.38
368.44	6.38
369.227	4.38
370.013	3.38
370.8	5.38
371.586	3.38
372.372	4.38
373.158	3.38
373.944	4.38
374.73	5.38
375.516	4.38
376.302	7.38
377.088	2.38
377.873	5.38
378.659	4.38
379.445	6.38
380.23	4.38
381.015	4.38
381.801	5.38
382.586	4.38
383.371	7.38
384.156	4.38
384.941	3.38
385.726	5.38
386.511	3.38
387.296	5.38
388.08	6.38
388.865	5.38
389.649	4.38
390.434	5.38
391.218	3.38
392.003	4.38
392.787	3.38
393.571	4.38
394.355	6.38
395.139	6.38
395.923	4.38
396.707	8.38
397.491	4.38
398.274	7.38
399.058	4.38
399.842	4.38
400.625	5.38
401.408	4.38
402.192	7.38
402.975	5.38
403.758	7.38
404.541	7.38
405.324	5.38
406.107	5.38
406.89	5.38
407.673	8.38
408.456	6.38
409.238	6.38
410.021	7.38
410.803	8.38
411.586	9.38
412.368	9.38
413.151	5.38
413.933	7.38
414.715	11.38
415.497	9.38
416.279	6.38
417.061	9.38
417.843	6.38
418.624	7.38
419.406	10.38
420.188	9.38
420.969	8.38
421.751	11.38
422.532	9.38
423.313	9.38
424.095	11.38
424.876	11.38
425.657	9.38
426.438	11.38
427.219	9.38
428	13.38
428.78	12.38
429.561	14.38
430.342	11.38
431.122	13.38
431.903	15.38
432.683	15.38
433.464	16.38
434.244	13.38
435.024	17.38
435.804	16.38
436.584	18.38
437.364	20.38
438.144	19.38
438.924	22.38
439.704	21.38
440.483	23.38
441.263	25.38
442.042	22.38
442.822	26.38
443.601	27.38
444.38	30.38
445.16	32.38
445.939	34.38
446.718	38.38
447.497	34.38
448.276	43.38
449.054	44.38
449.833	50.38
450.612	48.38
451.391	58.38
452.169	62.38
452.948	67.38
453.726	75.38
454.504	81.38
455.282	90.38
456.061	101.38
456.839	110.38
457.617	125.38
458.395	136.38
459.172	148.38
459.95	172.38
460.728	190.38
461.506	213.38
462.283	237.38
463.061	267.38
463.838	292.38
464.615	332.38
465.393	375.38
466.17	413.38
466.947	456.38
467.724	512.38
468.501	575.38
469.278	620.38
470.055	705.38
470.831	773.38
471.608	858.38
472.385	962.38
473.161	1065.38
473.938	1182.38
474.714	1298.38
475.49	1430.38
476.266	1588.38
477.043	1758.38
477.819	1943.38
478.595	2117.38
479.371	2355.38
480.146	2603.38
480.922	2817.38
481.698	3149.38
482.473	3468.38
483.249	3773.38
484.024	4136.38
484.8	4541.38
485.575	4980.38
486.35	5466.38
487.126	5990.38
487.901	6537.38
488.676	7184.38
489.451	7891.38
490.225	8547.38
491	9349.38
491.775	10230.38
492.55	11120.38
493.324	12013.38
494.099	12890.38
494.873	13947.38
495.647	15039.38
496.422	16121.38
497.196	17219.38
497.97	18421.38
498.744	19507.38
499.518	20683.38
500.292	21796.38
501.066	22904.38
501.839	23814.38
502.613	24792.38
503.387	25531.38
504.16	26208.38
504.934	26596.38
505.707	26782.38
506.48	26904.38
507.253	26897.38
508.027	26693.38
508.8	26458.38
509.573	26084.38
510.346	25515.38
511.118	24846.38
511.891	24081.38
512.664	23257.38
513.437	22402.38
514.209	21585.38
514.982	20729.38
515.754	19831.38
516.526	19002.38
517.298	18136.38
518.071	17392.38
518.843	16669.38
519.615	16074.38
520.387	15418.38
521.159	14825.38
521.93	14221.38
522.702	13677.38
523.474	13101.38
524.245	12543.38
525.017	11985.38
525.788	11565.38
526.56	11036.38
527.331	10503.38
528.102	10036.38
528.873	9603.38
529.644	9118.38
530.415	8680.38
531.186	8231.38
531.957	7843.38
532.728	7455.38
533.498	7037.38
534.269	6661.38
535.039	6289.38
535.81	5963.38
536.58	5629.38
537.351	5319.38
538.121	4999.38
538.891	4745.38
539.661	4492.38
540.431	4232.38
541.201	3999.38
541.971	3781.38
542.741	3577.38
543.51	3420.38
544.28	3265.38
545.05	3093.38
545.819	2945.38
546.588	2793.38
547.358	2643.38
548.127	2516.38
548.896	2381.38
549.665	2267.38
550.434	2131.38
551.203	2051.38
551.972	1930.38
552.741	1830.38
553.51	1724.38
554.278	1645.38
555.047	1548.38
555.815	1466.38
556.584	1365.38
557.352	1306.38
558.121	1227.38
558.889	1162.38
559.657	1108.38
560.425	1030.38
561.193	978.38
561.961	918.38
562.729	868.38
563.496	818.38
564.264	772.38
565.032	728.38
565.799	700.38
566.567	652.38
567.334	612.38
568.101	584.38
568.869	555.38
569.636	517.38
570.403	487.38
571.17	456.38
571.937	430.38
572.704	408.38
573.471	388.38
574.237	376.38
575.004	350.38
575.771	325.38
576.537	300.38
577.303	293.38
578.07	262.38
578.836	252.38
579.602	240.38
580.368	224.38
581.134	213.38
581.9	201.38
582.666	197.38
583.432	183.38
584.198	172.38
584.964	168.38
585.729	155.38
586.495	152.38
587.26	140.38
588.025	134.38
588.791	130.38
589.556	118.38
590.321	113.38
591.086	106.38
591.851	102.38
592.616	96.38
593.381	92.38
594.146	88.38
594.911	86.38
595.675	81.38
596.44	72.38
597.204	72.38
597.969	69.38
598.733	68.38
599.497	61.38
600.261	60.38
601.025	58.38
601.79	55.38
602.553	49.38
603.317	48.38
604.081	48.38
604.845	48.38
605.609	43.38
606.372	43.38
607.136	39.38
607.899	37.38
608.662	35.38
609.426	35.38
610.189	36.38
610.952	33.38
611.715	32.38
612.478	27.38
613.241	29.38
614.004	27.38
614.767	26.38
615.529	28.38
616.292	29.38
617.055	28.38
617.817	25.38
618.579	21.38
619.342	22.38
620.104	20.38
620.866	23.38
621.628	21.38
622.39	21.38
623.152	21.38
623.914	16.38
624.676	14.38
625.438	17.38
626.199	15.38
626.961	15.38
627.722	14.38
628.484	14.38
629.245	13.38
630.006	13.38
630.768	12.38
631.529	13.38
632.29	12.38
633.051	13.38
633.812	13.38
634.573	10.38
635.333	13.38
636.094	9.38
636.855	10.38
637.615	11.38
638.376	8.38
639.136	10.38
639.896	6.38
640.657	8.38
641.417	7.38
642.177	9.38
642.937	10.38
643.697	8.38
644.457	9.38
645.216	8.38
645.976	7.38
646.736	4.38
647.495	6.38
648.255	9.38
649.014	7.38
649.774	7.38
650.533	6.38
651.292	5.38
652.051	5.38
652.81	6.38
653.569	5.38
654.328	3.38
655.087	7.38
655.846	6.38
656.604	6.38
657.363	5.38
658.121	6.38
658.88	4.38
659.638	6.38
660.397	4.38
661.155	5.38
661.913	5.38
662.671	3.38
663.429	7.38
664.187	3.38
664.945	3.38
665.703	5.38
666.46	5.38
667.218	5.38
667.976	7.38
668.733	2.38
669.49	4.38
670.248	5.38
671.005	3.38
671.762	4.38
672.519	4.38
673.276	3.38
674.033	3.38
674.79	4.38
675.547	2.38
676.304	4.38
677.06	2.38
677.817	4.38
678.574	4.38
679.33	3.38
680.086	4.38
680.843	4.38
681.599	3.38
682.355	3.38
683.111	1.38
683.867	2.38
684.623	3.38
685.379	4.38
686.135	4.38
686.89	0.38
687.646	2.38
688.402	1.38
689.157	3.38
689.912	3.38
690.668	3.38
691.423	3.38
692.178	3.38
692.933	5.38
693.688	3.38
694.443	3.38
695.198	3.38
695.953	0.38
696.708	4.38
697.462	4.38
698.217	3.38
698.972	3.38
699.726	3.38
700.48	3.38
701.235	4.38
701.989	3.38
702.743	1.38
703.497	1.38
704.251	3.38
705.005	1.38
705.759	3.38
706.513	4.38
707.266	2.38
708.02	1.38
708.774	4.38
709.527	4.38
710.28	2.38
711.034	4.38
711.787	2.38
712.54	6.38
713.293	1.38
714.046	4.38
714.799	5.38
715.552	3.38
716.305	1.38
717.058	4.38
717.81	1.38
718.563	1.38
719.315	5.38
720.068	5.38
720.82	3.38
721.573	2.38
722.325	1.38
723.077	2.38
723.829	2.38
724.581	1.38
725.333	4.38
726.085	2.38
726.836	3.38
727.588	5.38
728.34	3.38
729.091	3.38
729.843	2.38
730.594	4.38
731.346	2.38
732.097	5.38
732.848	6.38
733.599	3.38
734.35	3.38
735.101	0.38
735.852	2.38
736.603	3.38
737.354	3.38
738.104	3.38
738.855	3.38
739.605	3.38
740.356	1.38
741.106	4.38
741.856	4.38
742.607	3.38
743.357	3.38
744.107	2.38
744.857	4.38
745.607	7.38
746.357	3.38
747.106	4.38
747.856	5.38
748.606	3.38
749.355	4.38
750.105	3.38
750.854	4.38
751.603	7.38
752.353	5.38
753.102	6.38
753.851	5.38
754.6	3.38
755.349	6.38
756.098	4.38
756.847	6.38
757.595	5.38
758.344	7.38
759.093	6.38
759.841	7.38
760.589	6.38
761.338	5.38
762.086	7.38
762.834	6.38
763.582	4.38
764.331	5.38
765.079	5.38
765.826	6.38
766.574	8.38
767.322	8.38
768.07	7.38
768.817	5.38
769.565	8.38
770.312	7.38
771.06	6.38
771.807	6.38
772.554	8.38
773.302	5.38
774.049	8.38
774.796	7.38
775.543	6.38
776.29	6.38
777.036	6.38
777.783	7.38
778.53	8.38
779.276	6.38
780.023	7.38
780.769	9.38
781.516	12.38
782.262	9.38
783.008	8.38
783.754	8.38
784.5	8.38
785.246	8.38
785.992	9.38
786.738	7.38
787.484	7.38
788.23	8.38
788.975	7.38
789.721	7.38
790.466	8.38
791.212	8.38
791.957	8.38
792.702	8.38
793.447	8.38
794.193	9.38
794.938	7.38
795.683	9.38
796.427	8.38
797.172	5.38
797.917	7.38
798.662	8.38
799.406	7.38
800.151	6.38
800.895	6.38
801.64	8.38
802.384	5.38
803.128	6.38
803.872	7.38
804.616	8.38
805.36	9.38
806.104	6.38
806.848	7.38
807.592	4.38
808.336	6.38
809.079	6.38
809.823	5.38
810.566	5.38
811.31	4.38
812.053	3.38
812.796	6.38
813.539	4.38
814.283	5.38
815.026	5.38
815.769	4.38
816.511	5.38
817.254	6.38
817.997	3.38
818.74	6.38
819.482	3.38
820.225	4.38
820.967	4.38
821.71	3.38
822.452	7.38
823.194	3.38
823.936	2.38
824.678	3.38
825.42	5.38
826.162	2.38
826.904	2.38
827.646	4.38
828.388	3.38
829.129	4.38
829.871	2.38
830.612	0.38
831.354	4.38
832.095	4.38
832.836	4.38
833.577	4.38
834.319	3.38
835.06	3.38
835.801	0.38
836.542	4.38
837.282	2.38
838.023	3.38
838.764	6.38
839.504	2.38
840.245	4.38
840.985	5.38
841.726	1.38
842.466	1.38
843.206	2.38
843.946	2.38
844.687	1.38
845.427	1.38
846.166	3.38
846.906	1.38
847.646	1.38
848.386	1.38
849.125	2.38
849.865	1.38
850.605	1.38
851.344	2.38
852.083	1.38
852.823	4.38
853.562	2.38
854.301	1.38
855.04	0.38
855.779	4.38
856.518	2.38
857.257	4.38
857.995	1.38
858.734	-0.62
859.473	1.38
860.211	1.38
860.95	0.38
861.688	0.38
862.426	1.38
863.165	1.38
863.903	0.38
864.641	0.38
865.379	1.38
866.117	2.38
866.855	1.38
867.593	-0.62
868.33	2.38
869.068	0.38
869.806	0.38
870.543	0.38
871.28	0.38
872.018	1.38
872.755	1.38
873.492	4.38
874.229	0.38
874.967	3.38
875.703	2.38
876.44	1.38
877.177	1.38
877.914	0.38
878.651	0.38
879.387	1.38
880.124	1.38
880.86	0.38
881.597	-0.62
882.333	1.38
883.069	-0.62
883.806	1.38
884.542	0.38
885.278	0.38
886.014	0.38
886.749	1.38
887.485	0.38
888.221	-0.62
888.957	-2.62
889.692	0.38
890.428	-0.62
891.163	1.38
891.899	0.38
892.634	-0.62
893.369	0.38
894.104	-0.62
894.839	3.38
895.574	1.38
896.309	-1.62
897.044	-1.62
897.779	2.38
898.514	-0.62
899.248	1.38
899.983	-0.62
900.717	-0.62
901.452	0.38
902.186	0.38
902.92	1.38
903.654	-0.62
904.389	0.38
905.123	-1.62
905.857	-1.62
906.59	0.38
907.324	0.38
908.058	-0.62
908.792	-0.62
909.525	0.38
910.259	-1.62
910.992	-2.62
911.726	1.38
912.459	-0.62
913.192	-0.62
913.925	-1.62
914.658	-2.62
915.391	1.38
916.124	-0.62
916.857	0.38
917.59	2.38
918.323	-1.62
919.055	0.38
919.788	0.38
920.521	1.38
921.253	0.38
921.985	-0.62
922.718	1.38
923.45	1.38
924.182	0.38
924.914	1.38
925.646	0.38
926.378	-2.62
927.11	0.38
927.841	-0.62
928.573	-2.62
929.305	0.38
930.036	0.38
930.768	0.38
931.499	0.38
932.23	0.38
932.962	1.38
933.693	0.38
934.424	0.38
935.155	0.38
935.886	-0.62
936.617	-0.62
937.348	0.38
938.078	-0.62
938.809	0.38
939.54	-0.62
940.27	0.38
941.001	-1.62
941.731	-1.62
942.461	0.38
943.191	0.38
943.922	-1.62
944.652	0.38
945.382	0.38
946.112	-1.62
946.841	1.38
947.571	1.38
948.301	1.38
949.031	0.38
949.76	1.38
950.49	-0.62
951.219	1.38
951.948	-0.62
952.678	0.38
953.407	1.38
954.136	0.38
954.865	-1.62
955.594	-1.62
956.323	0.38
957.052	0.38
957.78	-1.62
958.509	2.38
959.238	0.38
959.966	0.38
960.695	-0.62
961.423	-0.62
962.151	-1.62
962.88	0.38
963.608	-1.62
964.336	0.38
965.064	-0.62
965.792	2.38
966.52	-1.62
967.247	1.38
967.975	-0.62
968.703	-0.62
969.43	0.38
970.158	-2.62
970.885	-0.62
971.613	0.38
972.34	-0.62
973.067	0.38
973.794	-0.62
974.521	-0.62
975.248	0.38
975.975	1.38
976.702	-0.62
977.429	-0.62
978.156	0.38
978.882	-0.62
979.609	1.38
980.335	-0.62
981.062	0.38
981.788	0.38
982.514	-0.62
983.24	-1.62
983.967	0.38
984.693	1.38
985.419	-1.62
986.144	-0.62
986.87	-1.62
987.596	0.38
988.322	-1.62
989.047	0.38
989.773	-1.62
990.498	-0.62
991.224	-0.62
991.949	0.38
992.674	-1.62
993.399	-0.62
994.124	-0.62
994.849	0.38
995.574	0.38
996.299	-0.62
997.024	1.38
997.749	-0.62
998.473	-0.62
999.198	-0.62
999.922	0.38
1000.647	-0.62
1001.371	2.38
1002.095	-1.62
1002.82	0.38
1003.544	-1.62
1004.268	0.38
1004.992	1.38
1005.716	2.38
1006.439	-0.62
1007.163	4.38
1007.887	1.38
1008.611	-0.62
1009.334	-0.62
1010.058	-0.62
1010.781	0.38
1011.504	2.38
1012.228	0.38
1012.951	1.38
1013.674	-1.62
1014.397	0.38
1015.12	0.38
