节点500_285_QEPB04081__571__15-05-03-201.txt的数据

Date: Wed Nov 12 15:05:03 CST 2025
User: PC
Spectrometer: QEPB0408
触发模式: 0
积分时间 (秒): 1.000000E-2
Scans to average: 1
启用暗噪声校正: true
启用非线性校正: false
滑动平均宽度: 0
X轴模式: Wavelengths
Number of Pixels in Spectrum: 1044
>>>>>Begin Spectral Data<<<<<
220.843	1.5
221.644	1.5
222.444	2.5
223.244	1.5
224.045	2.5
224.845	2.5
225.645	4.5
226.445	4.5
227.245	3.5
228.045	3.5
228.845	3.5
229.645	2.5
230.444	3.5
231.244	2.5
232.043	6.5
232.843	5.5
233.642	2.5
234.442	3.5
235.241	2.5
236.04	4.5
236.839	5.5
237.638	5.5
238.437	5.5
239.236	3.5
240.035	5.5
240.833	4.5
241.632	6.5
242.43	5.5
243.229	5.5
244.027	6.5
244.826	5.5
245.624	6.5
246.422	5.5
247.22	6.5
248.018	7.5
248.816	9.5
249.614	8.5
250.412	7.5
251.21	6.5
252.007	5.5
252.805	6.5
253.602	5.5
254.4	4.5
255.197	7.5
255.994	7.5
256.791	10.5
257.589	6.5
258.386	8.5
259.183	11.5
259.979	7.5
260.776	10.5
261.573	10.5
262.37	10.5
263.166	8.5
263.963	12.5
264.759	12.5
265.556	8.5
266.352	11.5
267.148	11.5
267.944	14.5
268.74	12.5
269.536	12.5
270.332	14.5
271.128	15.5
271.924	14.5
272.719	18.5
273.515	15.5
274.311	15.5
275.106	14.5
275.901	17.5
276.697	15.5
277.492	19.5
278.287	20.5
279.082	15.5
279.877	16.5
280.672	18.5
281.467	21.5
282.262	18.5
283.056	17.5
283.851	17.5
284.646	14.5
285.44	19.5
286.234	17.5
287.029	20.5
287.823	21.5
288.617	18.5
289.411	18.5
290.205	17.5
290.999	18.5
291.793	17.5
292.587	15.5
293.381	17.5
294.174	18.5
294.968	18.5
295.761	16.5
296.555	16.5
297.348	15.5
298.141	13.5
298.935	19.5
299.728	14.5
300.521	15.5
301.314	13.5
302.107	15.5
302.899	9.5
303.692	13.5
304.485	13.5
305.277	11.5
306.07	14.5
306.862	12.5
307.655	11.5
308.447	14.5
309.239	13.5
310.031	12.5
310.823	12.5
311.615	11.5
312.407	9.5
313.199	11.5
313.991	8.5
314.783	9.5
315.574	10.5
316.366	11.5
317.157	7.5
317.949	8.5
318.74	7.5
319.531	9.5
320.322	7.5
321.113	8.5
321.904	6.5
322.695	7.5
323.486	6.5
324.277	6.5
325.068	10.5
325.858	4.5
326.649	8.5
327.439	10.5
328.23	7.5
329.02	4.5
329.81	7.5
330.6	6.5
331.391	4.5
332.181	6.5
332.971	8.5
333.76	8.5
334.55	9.5
335.34	5.5
336.13	7.5
336.919	6.5
337.709	8.5
338.498	6.5
339.287	8.5
340.077	8.5
340.866	3.5
341.655	7.5
342.444	6.5
343.233	6.5
344.022	8.5
344.811	8.5
345.6	7.5
346.388	6.5
347.177	6.5
347.965	5.5
348.754	7.5
349.542	4.5
350.33	2.5
351.119	6.5
351.907	7.5
352.695	6.5
353.483	6.5
354.271	6.5
355.059	6.5
355.846	5.5
356.634	6.5
357.422	5.5
358.209	5.5
358.997	8.5
359.784	7.5
360.571	5.5
361.359	6.5
362.146	6.5
362.933	3.5
363.72	4.5
364.507	4.5
365.294	2.5
366.081	6.5
366.867	5.5
367.654	5.5
368.44	6.5
369.227	3.5
370.013	6.5
370.8	5.5
371.586	4.5
372.372	5.5
373.158	4.5
373.944	7.5
374.73	4.5
375.516	6.5
376.302	4.5
377.088	6.5
377.873	7.5
378.659	4.5
379.445	5.5
380.23	6.5
381.015	4.5
381.801	6.5
382.586	4.5
383.371	4.5
384.156	6.5
384.941	6.5
385.726	4.5
386.511	7.5
387.296	4.5
388.08	5.5
388.865	6.5
389.649	6.5
390.434	5.5
391.218	6.5
392.003	8.5
392.787	5.5
393.571	7.5
394.355	4.5
395.139	7.5
395.923	5.5
396.707	4.5
397.491	9.5
398.274	6.5
399.058	9.5
399.842	6.5
400.625	5.5
401.408	7.5
402.192	7.5
402.975	6.5
403.758	7.5
404.541	5.5
405.324	9.5
406.107	7.5
406.89	9.5
407.673	7.5
408.456	10.5
409.238	7.5
410.021	8.5
410.803	7.5
411.586	11.5
412.368	8.5
413.151	5.5
413.933	7.5
414.715	8.5
415.497	9.5
416.279	10.5
417.061	9.5
417.843	10.5
418.624	9.5
419.406	10.5
420.188	10.5
420.969	10.5
421.751	10.5
422.532	8.5
423.313	12.5
424.095	12.5
424.876	10.5
425.657	11.5
426.438	10.5
427.219	13.5
428	12.5
428.78	12.5
429.561	12.5
430.342	14.5
431.122	16.5
431.903	14.5
432.683	17.5
433.464	16.5
434.244	16.5
435.024	18.5
435.804	14.5
436.584	16.5
437.364	19.5
438.144	20.5
438.924	21.5
439.704	20.5
440.483	24.5
441.263	23.5
442.042	26.5
442.822	24.5
443.601	30.5
444.38	35.5
445.16	30.5
445.939	36.5
446.718	39.5
447.497	39.5
448.276	45.5
449.054	48.5
449.833	51.5
450.612	53.5
451.391	64.5
452.169	64.5
452.948	69.5
453.726	76.5
454.504	88.5
455.282	92.5
456.061	104.5
456.839	119.5
457.617	129.5
458.395	145.5
459.172	167.5
459.95	176.5
460.728	201.5
461.506	225.5
462.283	249.5
463.061	277.5
463.838	306.5
464.615	347.5
465.393	374.5
466.17	428.5
466.947	469.5
467.724	522.5
468.501	587.5
469.278	649.5
470.055	712.5
470.831	791.5
471.608	882.5
472.385	979.5
473.161	1082.5
473.938	1181.5
474.714	1314.5
475.49	1441.5
476.266	1619.5
477.043	1773.5
477.819	1933.5
478.595	2141.5
479.371	2332.5
480.146	2587.5
480.922	2842.5
481.698	3137.5
482.473	3410.5
483.249	3742.5
484.024	4100.5
484.8	4542.5
485.575	4934.5
486.35	5409.5
487.126	5870.5
487.901	6422.5
488.676	7036.5
489.451	7683.5
490.225	8370.5
491	9130.5
491.775	9942.5
492.55	10807.5
493.324	11617.5
494.099	12561.5
494.873	13492.5
495.647	14535.5
496.422	15620.5
497.196	16695.5
497.97	17827.5
498.744	18912.5
499.518	20061.5
500.292	21155.5
501.066	22147.5
501.839	23105.5
502.613	24015.5
503.387	24862.5
504.16	25534.5
504.934	25952.5
505.707	26181.5
506.48	26396.5
507.253	26459.5
508.027	26301.5
508.8	26157.5
509.573	25879.5
510.346	25423.5
511.118	24724.5
511.891	24063.5
512.664	23294.5
513.437	22529.5
514.209	21659.5
514.982	20832.5
515.754	19933.5
516.526	19155.5
517.298	18321.5
518.071	17507.5
518.843	16848.5
519.615	16225.5
520.387	15591.5
521.159	14987.5
521.93	14346.5
522.702	13802.5
523.474	13209.5
524.245	12577.5
525.017	12109.5
525.788	11688.5
526.56	11137.5
527.331	10589.5
528.102	10195.5
528.873	9684.5
529.644	9247.5
530.415	8751.5
531.186	8388.5
531.957	7957.5
532.728	7580.5
533.498	7191.5
534.269	6804.5
535.039	6402.5
535.81	6087.5
536.58	5736.5
537.351	5430.5
538.121	5124.5
538.891	4858.5
539.661	4568.5
540.431	4318.5
541.201	4072.5
541.971	3857.5
542.741	3658.5
543.51	3501.5
544.28	3313.5
545.05	3158.5
545.819	2990.5
546.588	2869.5
547.358	2730.5
548.127	2582.5
548.896	2436.5
549.665	2303.5
550.434	2203.5
551.203	2088.5
551.972	1980.5
552.741	1868.5
553.51	1769.5
554.278	1681.5
555.047	1581.5
555.815	1490.5
556.584	1408.5
557.352	1353.5
558.121	1244.5
558.889	1172.5
559.657	1131.5
560.425	1060.5
561.193	989.5
561.961	943.5
562.729	889.5
563.496	842.5
564.264	802.5
565.032	756.5
565.799	718.5
566.567	664.5
567.334	646.5
568.101	604.5
568.869	577.5
569.636	527.5
570.403	496.5
571.17	474.5
571.937	443.5
572.704	423.5
573.471	392.5
574.237	374.5
575.004	350.5
575.771	344.5
576.537	318.5
577.303	301.5
578.07	288.5
578.836	262.5
579.602	248.5
580.368	232.5
581.134	222.5
581.9	211.5
582.666	193.5
583.432	194.5
584.198	172.5
584.964	179.5
585.729	162.5
586.495	157.5
587.26	152.5
588.025	142.5
588.791	125.5
589.556	129.5
590.321	116.5
591.086	111.5
591.851	104.5
592.616	99.5
593.381	97.5
594.146	89.5
594.911	87.5
595.675	82.5
596.44	77.5
597.204	74.5
597.969	72.5
598.733	71.5
599.497	67.5
600.261	63.5
601.025	58.5
601.79	55.5
602.553	52.5
603.317	53.5
604.081	53.5
604.845	47.5
605.609	45.5
606.372	42.5
607.136	44.5
607.899	41.5
608.662	39.5
609.426	38.5
610.189	37.5
610.952	35.5
611.715	36.5
612.478	31.5
613.241	32.5
614.004	30.5
614.767	29.5
615.529	28.5
616.292	26.5
617.055	24.5
617.817	23.5
618.579	25.5
619.342	20.5
620.104	24.5
620.866	22.5
621.628	21.5
622.39	20.5
623.152	19.5
623.914	19.5
624.676	18.5
625.438	20.5
626.199	17.5
626.961	17.5
627.722	17.5
628.484	16.5
629.245	13.5
630.006	15.5
630.768	15.5
631.529	12.5
632.29	13.5
633.051	14.5
633.812	12.5
634.573	11.5
635.333	11.5
636.094	13.5
636.855	9.5
637.615	10.5
638.376	8.5
639.136	10.5
639.896	11.5
640.657	10.5
641.417	9.5
642.177	8.5
642.937	9.5
643.697	8.5
644.457	8.5
645.216	8.5
645.976	8.5
646.736	7.5
647.495	9.5
648.255	7.5
649.014	8.5
649.774	6.5
650.533	7.5
651.292	7.5
652.051	6.5
652.81	4.5
653.569	6.5
654.328	7.5
655.087	7.5
655.846	5.5
656.604	5.5
657.363	7.5
658.121	4.5
658.88	4.5
659.638	9.5
660.397	7.5
661.155	9.5
661.913	7.5
662.671	4.5
663.429	5.5
664.187	5.5
664.945	7.5
665.703	6.5
666.46	4.5
667.218	5.5
667.976	7.5
668.733	6.5
669.49	4.5
670.248	7.5
671.005	6.5
671.762	7.5
672.519	3.5
673.276	5.5
674.033	6.5
674.79	2.5
675.547	4.5
676.304	4.5
677.06	3.5
677.817	2.5
678.574	3.5
679.33	5.5
680.086	3.5
680.843	3.5
681.599	6.5
682.355	5.5
683.111	4.5
683.867	3.5
684.623	6.5
685.379	1.5
686.135	4.5
686.89	3.5
687.646	2.5
688.402	4.5
689.157	2.5
689.912	3.5
690.668	4.5
691.423	4.5
692.178	3.5
692.933	4.5
693.688	5.5
694.443	3.5
695.198	3.5
695.953	3.5
696.708	2.5
697.462	3.5
698.217	5.5
698.972	4.5
699.726	3.5
700.48	6.5
701.235	5.5
701.989	3.5
702.743	3.5
703.497	4.5
704.251	2.5
705.005	4.5
705.759	4.5
706.513	5.5
707.266	1.5
708.02	4.5
708.774	6.5
709.527	3.5
710.28	3.5
711.034	2.5
711.787	6.5
712.54	2.5
713.293	4.5
714.046	4.5
714.799	1.5
715.552	4.5
716.305	6.5
717.058	3.5
717.81	2.5
718.563	4.5
719.315	4.5
720.068	5.5
720.82	2.5
721.573	4.5
722.325	2.5
723.077	2.5
723.829	5.5
724.581	3.5
725.333	4.5
726.085	4.5
726.836	3.5
727.588	5.5
728.34	5.5
729.091	6.5
729.843	4.5
730.594	4.5
731.346	4.5
732.097	5.5
732.848	3.5
733.599	2.5
734.35	4.5
735.101	4.5
735.852	4.5
736.603	5.5
737.354	4.5
738.104	5.5
738.855	5.5
739.605	4.5
740.356	5.5
741.106	5.5
741.856	5.5
742.607	5.5
743.357	5.5
744.107	5.5
744.857	2.5
745.607	4.5
746.357	5.5
747.106	6.5
747.856	5.5
748.606	4.5
749.355	6.5
750.105	3.5
750.854	5.5
751.603	2.5
752.353	6.5
753.102	7.5
753.851	6.5
754.6	4.5
755.349	5.5
756.098	5.5
756.847	5.5
757.595	6.5
758.344	9.5
759.093	7.5
759.841	6.5
760.589	5.5
761.338	6.5
762.086	6.5
762.834	6.5
763.582	7.5
764.331	7.5
765.079	7.5
765.826	6.5
766.574	7.5
767.322	8.5
768.07	7.5
768.817	10.5
769.565	6.5
770.312	7.5
771.06	6.5
771.807	6.5
772.554	7.5
773.302	9.5
774.049	7.5
774.796	7.5
775.543	9.5
776.29	6.5
777.036	9.5
777.783	6.5
778.53	7.5
779.276	6.5
780.023	7.5
780.769	8.5
781.516	8.5
782.262	8.5
783.008	10.5
783.754	7.5
784.5	8.5
785.246	6.5
785.992	9.5
786.738	9.5
787.484	8.5
788.23	9.5
788.975	7.5
789.721	9.5
790.466	7.5
791.212	7.5
791.957	9.5
792.702	7.5
793.447	9.5
794.193	8.5
794.938	9.5
795.683	7.5
796.427	9.5
797.172	6.5
797.917	6.5
798.662	7.5
799.406	5.5
800.151	7.5
800.895	6.5
801.64	9.5
802.384	8.5
803.128	7.5
803.872	7.5
804.616	5.5
805.36	6.5
806.104	6.5
806.848	3.5
807.592	6.5
808.336	5.5
809.079	6.5
809.823	5.5
810.566	7.5
811.31	7.5
812.053	7.5
812.796	7.5
813.539	4.5
814.283	3.5
815.026	6.5
815.769	6.5
816.511	6.5
817.254	5.5
817.997	6.5
818.74	1.5
819.482	5.5
820.225	7.5
820.967	3.5
821.71	5.5
822.452	6.5
823.194	5.5
823.936	4.5
824.678	4.5
825.42	4.5
826.162	4.5
826.904	2.5
827.646	4.5
828.388	5.5
829.129	5.5
829.871	3.5
830.612	5.5
831.354	7.5
832.095	2.5
832.836	4.5
833.577	3.5
834.319	4.5
835.06	1.5
835.801	4.5
836.542	2.5
837.282	1.5
838.023	2.5
838.764	2.5
839.504	4.5
840.245	4.5
840.985	2.5
841.726	2.5
842.466	3.5
843.206	2.5
843.946	6.5
844.687	2.5
845.427	3.5
846.166	2.5
846.906	3.5
847.646	4.5
848.386	2.5
849.125	2.5
849.865	2.5
850.605	2.5
851.344	3.5
852.083	0.5
852.823	3.5
853.562	2.5
854.301	4.5
855.04	2.5
855.779	1.5
856.518	3.5
857.257	4.5
857.995	3.5
858.734	3.5
859.473	0.5
860.211	0.5
860.95	1.5
861.688	2.5
862.426	3.5
863.165	2.5
863.903	4.5
864.641	0.5
865.379	1.5
866.117	0.5
866.855	3.5
867.593	1.5
868.33	1.5
869.068	2.5
869.806	1.5
870.543	2.5
871.28	1.5
872.018	2.5
872.755	1.5
873.492	4.5
874.229	0.5
874.967	1.5
875.703	1.5
876.44	2.5
877.177	4.5
877.914	2.5
878.651	1.5
879.387	0.5
880.124	-1.5
880.86	2.5
881.597	0.5
882.333	2.5
883.069	1.5
883.806	0.5
884.542	0.5
885.278	0.5
886.014	1.5
886.749	1.5
887.485	1.5
888.221	0.5
888.957	1.5
889.692	3.5
890.428	0.5
891.163	1.5
891.899	2.5
892.634	-1.5
893.369	2.5
894.104	0.5
894.839	1.5
895.574	-0.5
896.309	1.5
897.044	1.5
897.779	2.5
898.514	-0.5
899.248	0.5
899.983	2.5
900.717	0.5
901.452	0.5
902.186	0.5
902.92	0.5
903.654	4.5
904.389	0.5
905.123	-0.5
905.857	1.5
906.59	0.5
907.324	2.5
908.058	-0.5
908.792	1.5
909.525	-0.5
910.259	1.5
910.992	0.5
911.726	1.5
912.459	1.5
913.192	1.5
913.925	0.5
914.658	2.5
915.391	1.5
916.124	0.5
916.857	0.5
917.59	1.5
918.323	0.5
919.055	3.5
919.788	1.5
920.521	1.5
921.253	0.5
921.985	-1.5
922.718	2.5
923.45	-1.5
924.182	2.5
924.914	0.5
925.646	2.5
926.378	1.5
927.11	-1.5
927.841	1.5
928.573	1.5
929.305	0.5
930.036	1.5
930.768	-1.5
931.499	1.5
932.23	-0.5
932.962	0.5
933.693	-0.5
934.424	0.5
935.155	0.5
935.886	0.5
936.617	1.5
937.348	-1.5
938.078	3.5
938.809	0.5
939.54	-1.5
940.27	1.5
941.001	-0.5
941.731	1.5
942.461	0.5
943.191	1.5
943.922	-0.5
944.652	-1.5
945.382	0.5
946.112	-1.5
946.841	1.5
947.571	-1.5
948.301	1.5
949.031	1.5
949.76	0.5
950.49	3.5
951.219	-0.5
951.948	0.5
952.678	-0.5
953.407	2.5
954.136	0.5
954.865	-0.5
955.594	2.5
956.323	1.5
957.052	1.5
957.78	2.5
958.509	0.5
959.238	2.5
959.966	-1.5
960.695	3.5
961.423	0.5
962.151	2.5
962.88	0.5
963.608	0.5
964.336	2.5
965.064	0.5
965.792	1.5
966.52	2.5
967.247	-0.5
967.975	1.5
968.703	-1.5
969.43	0.5
970.158	2.5
970.885	1.5
971.613	0.5
972.34	1.5
973.067	0.5
973.794	-1.5
974.521	0.5
975.248	0.5
975.975	-0.5
976.702	-0.5
977.429	-1.5
978.156	0.5
978.882	0.5
979.609	0.5
980.335	0.5
981.062	-0.5
981.788	0.5
982.514	0.5
983.24	2.5
983.967	-1.5
984.693	0.5
985.419	0.5
986.144	-1.5
986.87	-0.5
987.596	0.5
988.322	-1.5
989.047	1.5
989.773	2.5
990.498	1.5
991.224	1.5
991.949	3.5
992.674	-0.5
993.399	0.5
994.124	-0.5
994.849	2.5
995.574	2.5
996.299	-1.5
997.024	0.5
997.749	-1.5
998.473	-0.5
999.198	1.5
999.922	1.5
1000.647	1.5
1001.371	4.5
1002.095	0.5
1002.82	-0.5
1003.544	-1.5
1004.268	1.5
1004.992	2.5
1005.716	1.5
1006.439	2.5
1007.163	1.5
1007.887	-0.5
1008.611	-1.5
1009.334	2.5
1010.058	0.5
1010.781	-0.5
1011.504	1.5
1012.228	-0.5
1012.951	-1.5
1013.674	0.5
1014.397	-0.5
1015.12	-1.5
