节点500_285_QEPB04081__487__15-03-39-425.txt的数据

Date: Wed Nov 12 15:03:39 CST 2025
User: PC
Spectrometer: QEPB0408
触发模式: 0
积分时间 (秒): 1.000000E-2
Scans to average: 1
启用暗噪声校正: true
启用非线性校正: false
滑动平均宽度: 0
X轴模式: Wavelengths
Number of Pixels in Spectrum: 1044
>>>>>Begin Spectral Data<<<<<
220.843	0.12
221.644	0.12
222.444	1.12
223.244	1.12
224.045	2.12
224.845	3.12
225.645	4.12
226.445	3.12
227.245	3.12
228.045	4.12
228.845	5.12
229.645	5.12
230.444	3.12
231.244	2.12
232.043	4.12
232.843	5.12
233.642	5.12
234.442	7.12
235.241	4.12
236.04	4.12
236.839	4.12
237.638	5.12
238.437	5.12
239.236	2.12
240.035	5.12
240.833	3.12
241.632	5.12
242.43	3.12
243.229	5.12
244.027	5.12
244.826	5.12
245.624	5.12
246.422	6.12
247.22	7.12
248.018	3.12
248.816	7.12
249.614	7.12
250.412	7.12
251.21	6.12
252.007	7.12
252.805	6.12
253.602	6.12
254.4	8.12
255.197	6.12
255.994	10.12
256.791	7.12
257.589	8.12
258.386	10.12
259.183	8.12
259.979	10.12
260.776	9.12
261.573	11.12
262.37	12.12
263.166	10.12
263.963	11.12
264.759	11.12
265.556	12.12
266.352	12.12
267.148	13.12
267.944	12.12
268.74	15.12
269.536	13.12
270.332	15.12
271.128	17.12
271.924	14.12
272.719	14.12
273.515	18.12
274.311	15.12
275.106	16.12
275.901	14.12
276.697	18.12
277.492	14.12
278.287	14.12
279.082	18.12
279.877	18.12
280.672	20.12
281.467	16.12
282.262	19.12
283.056	17.12
283.851	19.12
284.646	21.12
285.44	17.12
286.234	21.12
287.029	16.12
287.823	18.12
288.617	20.12
289.411	18.12
290.205	18.12
290.999	14.12
291.793	18.12
292.587	17.12
293.381	18.12
294.174	17.12
294.968	19.12
295.761	15.12
296.555	16.12
297.348	17.12
298.141	14.12
298.935	17.12
299.728	17.12
300.521	14.12
301.314	15.12
302.107	12.12
302.899	12.12
303.692	13.12
304.485	11.12
305.277	15.12
306.07	12.12
306.862	13.12
307.655	15.12
308.447	10.12
309.239	11.12
310.031	11.12
310.823	10.12
311.615	13.12
312.407	10.12
313.199	9.12
313.991	9.12
314.783	11.12
315.574	9.12
316.366	8.12
317.157	9.12
317.949	9.12
318.74	8.12
319.531	8.12
320.322	10.12
321.113	9.12
321.904	8.12
322.695	8.12
323.486	10.12
324.277	7.12
325.068	7.12
325.858	7.12
326.649	9.12
327.439	8.12
328.23	4.12
329.02	6.12
329.81	7.12
330.6	6.12
331.391	7.12
332.181	4.12
332.971	8.12
333.76	7.12
334.55	8.12
335.34	7.12
336.13	7.12
336.919	9.12
337.709	7.12
338.498	4.12
339.287	9.12
340.077	6.12
340.866	8.12
341.655	6.12
342.444	5.12
343.233	6.12
344.022	7.12
344.811	8.12
345.6	5.12
346.388	8.12
347.177	4.12
347.965	5.12
348.754	5.12
349.542	7.12
350.33	5.12
351.119	5.12
351.907	8.12
352.695	6.12
353.483	6.12
354.271	5.12
355.059	6.12
355.846	7.12
356.634	6.12
357.422	5.12
358.209	6.12
358.997	8.12
359.784	9.12
360.571	7.12
361.359	6.12
362.146	4.12
362.933	6.12
363.72	5.12
364.507	6.12
365.294	3.12
366.081	5.12
366.867	6.12
367.654	7.12
368.44	5.12
369.227	6.12
370.013	5.12
370.8	5.12
371.586	3.12
372.372	5.12
373.158	4.12
373.944	5.12
374.73	5.12
375.516	3.12
376.302	6.12
377.088	5.12
377.873	6.12
378.659	3.12
379.445	6.12
380.23	5.12
381.015	7.12
381.801	7.12
382.586	6.12
383.371	7.12
384.156	7.12
384.941	5.12
385.726	7.12
386.511	4.12
387.296	5.12
388.08	6.12
388.865	6.12
389.649	6.12
390.434	4.12
391.218	6.12
392.003	5.12
392.787	6.12
393.571	5.12
394.355	7.12
395.139	5.12
395.923	4.12
396.707	7.12
397.491	7.12
398.274	11.12
399.058	7.12
399.842	8.12
400.625	8.12
401.408	7.12
402.192	9.12
402.975	6.12
403.758	7.12
404.541	6.12
405.324	9.12
406.107	9.12
406.89	10.12
407.673	9.12
408.456	11.12
409.238	9.12
410.021	7.12
410.803	6.12
411.586	11.12
412.368	8.12
413.151	9.12
413.933	7.12
414.715	9.12
415.497	13.12
416.279	11.12
417.061	11.12
417.843	10.12
418.624	10.12
419.406	9.12
420.188	10.12
420.969	10.12
421.751	9.12
422.532	11.12
423.313	12.12
424.095	8.12
424.876	13.12
425.657	11.12
426.438	14.12
427.219	14.12
428	12.12
428.78	13.12
429.561	12.12
430.342	14.12
431.122	15.12
431.903	11.12
432.683	17.12
433.464	17.12
434.244	17.12
435.024	18.12
435.804	18.12
436.584	19.12
437.364	18.12
438.144	21.12
438.924	20.12
439.704	21.12
440.483	22.12
441.263	26.12
442.042	26.12
442.822	25.12
443.601	28.12
444.38	28.12
445.16	32.12
445.939	34.12
446.718	39.12
447.497	37.12
448.276	42.12
449.054	45.12
449.833	51.12
450.612	53.12
451.391	59.12
452.169	63.12
452.948	66.12
453.726	73.12
454.504	83.12
455.282	92.12
456.061	105.12
456.839	118.12
457.617	121.12
458.395	138.12
459.172	157.12
459.95	172.12
460.728	190.12
461.506	215.12
462.283	232.12
463.061	270.12
463.838	300.12
464.615	331.12
465.393	374.12
466.17	408.12
466.947	466.12
467.724	512.12
468.501	569.12
469.278	627.12
470.055	697.12
470.831	785.12
471.608	878.12
472.385	970.12
473.161	1062.12
473.938	1199.12
474.714	1308.12
475.49	1444.12
476.266	1583.12
477.043	1756.12
477.819	1928.12
478.595	2146.12
479.371	2341.12
480.146	2586.12
480.922	2841.12
481.698	3109.12
482.473	3434.12
483.249	3758.12
484.024	4143.12
484.8	4541.12
485.575	4984.12
486.35	5457.12
487.126	5998.12
487.901	6568.12
488.676	7158.12
489.451	7833.12
490.225	8571.12
491	9319.12
491.775	10186.12
492.55	11086.12
493.324	11955.12
494.099	12900.12
494.873	13857.12
495.647	14967.12
496.422	16071.12
497.196	17162.12
497.97	18377.12
498.744	19582.12
499.518	20601.12
500.292	21728.12
501.066	22811.12
501.839	23769.12
502.613	24633.12
503.387	25435.12
504.16	26125.12
504.934	26577.12
505.707	26785.12
506.48	26857.12
507.253	26883.12
508.027	26714.12
508.8	26399.12
509.573	26030.12
510.346	25475.12
511.118	24825.12
511.891	24094.12
512.664	23374.12
513.437	22496.12
514.209	21608.12
514.982	20781.12
515.754	19829.12
516.526	19006.12
517.298	18135.12
518.071	17345.12
518.843	16704.12
519.615	16035.12
520.387	15502.12
521.159	14822.12
521.93	14246.12
522.702	13666.12
523.474	13083.12
524.245	12562.12
525.017	12020.12
525.788	11568.12
526.56	11053.12
527.331	10540.12
528.102	10099.12
528.873	9588.12
529.644	9176.12
530.415	8751.12
531.186	8268.12
531.957	7846.12
532.728	7510.12
533.498	7085.12
534.269	6674.12
535.039	6322.12
535.81	5971.12
536.58	5649.12
537.351	5311.12
538.121	5009.12
538.891	4773.12
539.661	4508.12
540.431	4230.12
541.201	4040.12
541.971	3812.12
542.741	3620.12
543.51	3433.12
544.28	3262.12
545.05	3094.12
545.819	2956.12
546.588	2806.12
547.358	2678.12
548.127	2539.12
548.896	2396.12
549.665	2291.12
550.434	2165.12
551.203	2059.12
551.972	1935.12
552.741	1833.12
553.51	1750.12
554.278	1624.12
555.047	1544.12
555.815	1463.12
556.584	1375.12
557.352	1303.12
558.121	1230.12
558.889	1166.12
559.657	1088.12
560.425	1031.12
561.193	981.12
561.961	920.12
562.729	868.12
563.496	830.12
564.264	779.12
565.032	739.12
565.799	690.12
566.567	675.12
567.334	619.12
568.101	590.12
568.869	555.12
569.636	517.12
570.403	488.12
571.17	465.12
571.937	436.12
572.704	419.12
573.471	390.12
574.237	366.12
575.004	346.12
575.771	320.12
576.537	309.12
577.303	292.12
578.07	275.12
578.836	257.12
579.602	245.12
580.368	227.12
581.134	219.12
581.9	208.12
582.666	194.12
583.432	186.12
584.198	174.12
584.964	167.12
585.729	151.12
586.495	150.12
587.26	145.12
588.025	132.12
588.791	128.12
589.556	120.12
590.321	111.12
591.086	110.12
591.851	105.12
592.616	100.12
593.381	92.12
594.146	87.12
594.911	85.12
595.675	81.12
596.44	79.12
597.204	72.12
597.969	70.12
598.733	66.12
599.497	64.12
600.261	62.12
601.025	59.12
601.79	52.12
602.553	53.12
603.317	52.12
604.081	49.12
604.845	48.12
605.609	45.12
606.372	45.12
607.136	38.12
607.899	39.12
608.662	37.12
609.426	37.12
610.189	35.12
610.952	33.12
611.715	31.12
612.478	33.12
613.241	32.12
614.004	28.12
614.767	25.12
615.529	27.12
616.292	25.12
617.055	26.12
617.817	25.12
618.579	23.12
619.342	23.12
620.104	23.12
620.866	22.12
621.628	19.12
622.39	19.12
623.152	17.12
623.914	19.12
624.676	16.12
625.438	20.12
626.199	16.12
626.961	15.12
627.722	15.12
628.484	17.12
629.245	14.12
630.006	13.12
630.768	12.12
631.529	14.12
632.29	14.12
633.051	13.12
633.812	12.12
634.573	12.12
635.333	13.12
636.094	12.12
636.855	9.12
637.615	12.12
638.376	9.12
639.136	11.12
639.896	10.12
640.657	11.12
641.417	8.12
642.177	8.12
642.937	8.12
643.697	7.12
644.457	8.12
645.216	8.12
645.976	7.12
646.736	10.12
647.495	7.12
648.255	11.12
649.014	9.12
649.774	8.12
650.533	7.12
651.292	6.12
652.051	8.12
652.81	6.12
653.569	6.12
654.328	7.12
655.087	6.12
655.846	6.12
656.604	7.12
657.363	8.12
658.121	4.12
658.88	7.12
659.638	8.12
660.397	7.12
661.155	5.12
661.913	6.12
662.671	7.12
663.429	8.12
664.187	5.12
664.945	6.12
665.703	5.12
666.46	5.12
667.218	4.12
667.976	5.12
668.733	6.12
669.49	5.12
670.248	6.12
671.005	4.12
671.762	5.12
672.519	4.12
673.276	5.12
674.033	6.12
674.79	4.12
675.547	5.12
676.304	5.12
677.06	4.12
677.817	5.12
678.574	5.12
679.33	5.12
680.086	5.12
680.843	5.12
681.599	4.12
682.355	5.12
683.111	4.12
683.867	4.12
684.623	4.12
685.379	1.12
686.135	2.12
686.89	2.12
687.646	4.12
688.402	1.12
689.157	5.12
689.912	4.12
690.668	3.12
691.423	5.12
692.178	4.12
692.933	5.12
693.688	2.12
694.443	3.12
695.198	3.12
695.953	2.12
696.708	4.12
697.462	2.12
698.217	5.12
698.972	3.12
699.726	0.12
700.48	2.12
701.235	4.12
701.989	2.12
702.743	4.12
703.497	2.12
704.251	6.12
705.005	2.12
705.759	2.12
706.513	4.12
707.266	1.12
708.02	1.12
708.774	3.12
709.527	4.12
710.28	4.12
711.034	4.12
711.787	4.12
712.54	4.12
713.293	4.12
714.046	4.12
714.799	5.12
715.552	3.12
716.305	4.12
717.058	5.12
717.81	2.12
718.563	5.12
719.315	3.12
720.068	5.12
720.82	4.12
721.573	5.12
722.325	2.12
723.077	4.12
723.829	4.12
724.581	2.12
725.333	4.12
726.085	4.12
726.836	6.12
727.588	2.12
728.34	3.12
729.091	5.12
729.843	3.12
730.594	5.12
731.346	5.12
732.097	4.12
732.848	6.12
733.599	3.12
734.35	6.12
735.101	5.12
735.852	4.12
736.603	2.12
737.354	4.12
738.104	2.12
738.855	3.12
739.605	6.12
740.356	5.12
741.106	4.12
741.856	4.12
742.607	4.12
743.357	5.12
744.107	3.12
744.857	8.12
745.607	6.12
746.357	5.12
747.106	6.12
747.856	5.12
748.606	6.12
749.355	5.12
750.105	2.12
750.854	4.12
751.603	4.12
752.353	6.12
753.102	4.12
753.851	5.12
754.6	8.12
755.349	5.12
756.098	7.12
756.847	5.12
757.595	6.12
758.344	6.12
759.093	6.12
759.841	6.12
760.589	6.12
761.338	4.12
762.086	7.12
762.834	7.12
763.582	4.12
764.331	7.12
765.079	6.12
765.826	5.12
766.574	6.12
767.322	5.12
768.07	5.12
768.817	8.12
769.565	8.12
770.312	8.12
771.06	8.12
771.807	9.12
772.554	6.12
773.302	7.12
774.049	9.12
774.796	8.12
775.543	10.12
776.29	11.12
777.036	7.12
777.783	8.12
778.53	9.12
779.276	7.12
780.023	7.12
780.769	8.12
781.516	10.12
782.262	9.12
783.008	9.12
783.754	10.12
784.5	9.12
785.246	6.12
785.992	9.12
786.738	9.12
787.484	7.12
788.23	9.12
788.975	6.12
789.721	9.12
790.466	9.12
791.212	11.12
791.957	9.12
792.702	10.12
793.447	10.12
794.193	8.12
794.938	7.12
795.683	7.12
796.427	8.12
797.172	4.12
797.917	6.12
798.662	7.12
799.406	7.12
800.151	6.12
800.895	6.12
801.64	7.12
802.384	8.12
803.128	7.12
803.872	6.12
804.616	7.12
805.36	9.12
806.104	6.12
806.848	7.12
807.592	5.12
808.336	7.12
809.079	6.12
809.823	4.12
810.566	5.12
811.31	5.12
812.053	5.12
812.796	6.12
813.539	5.12
814.283	7.12
815.026	4.12
815.769	5.12
816.511	2.12
817.254	4.12
817.997	5.12
818.74	3.12
819.482	5.12
820.225	4.12
820.967	5.12
821.71	5.12
822.452	5.12
823.194	4.12
823.936	4.12
824.678	5.12
825.42	3.12
826.162	4.12
826.904	5.12
827.646	4.12
828.388	2.12
829.129	2.12
829.871	4.12
830.612	3.12
831.354	4.12
832.095	5.12
832.836	3.12
833.577	2.12
834.319	2.12
835.06	5.12
835.801	5.12
836.542	1.12
837.282	3.12
838.023	2.12
838.764	3.12
839.504	3.12
840.245	3.12
840.985	5.12
841.726	5.12
842.466	4.12
843.206	3.12
843.946	1.12
844.687	1.12
845.427	2.12
846.166	4.12
846.906	2.12
847.646	2.12
848.386	2.12
849.125	4.12
849.865	5.12
850.605	1.12
851.344	5.12
852.083	-0.88
852.823	2.12
853.562	4.12
854.301	2.12
855.04	3.12
855.779	2.12
856.518	3.12
857.257	4.12
857.995	3.12
858.734	1.12
859.473	3.12
860.211	4.12
860.95	0.12
861.688	2.12
862.426	5.12
863.165	3.12
863.903	2.12
864.641	2.12
865.379	2.12
866.117	2.12
866.855	1.12
867.593	2.12
868.33	0.12
869.068	1.12
869.806	1.12
870.543	-0.88
871.28	0.12
872.018	5.12
872.755	2.12
873.492	1.12
874.229	2.12
874.967	-2.88
875.703	0.12
876.44	2.12
877.177	0.12
877.914	0.12
878.651	1.12
879.387	3.12
880.124	1.12
880.86	2.12
881.597	1.12
882.333	1.12
883.069	2.12
883.806	1.12
884.542	2.12
885.278	2.12
886.014	3.12
886.749	0.12
887.485	2.12
888.221	1.12
888.957	0.12
889.692	2.12
890.428	3.12
891.163	1.12
891.899	1.12
892.634	1.12
893.369	0.12
894.104	1.12
894.839	1.12
895.574	1.12
896.309	1.12
897.044	3.12
897.779	2.12
898.514	2.12
899.248	0.12
899.983	1.12
900.717	2.12
901.452	1.12
902.186	1.12
902.92	-0.88
903.654	0.12
904.389	-0.88
905.123	1.12
905.857	3.12
906.59	2.12
907.324	2.12
908.058	0.12
908.792	3.12
909.525	-1.88
910.259	1.12
910.992	2.12
911.726	1.12
912.459	1.12
913.192	0.12
913.925	2.12
914.658	1.12
915.391	0.12
916.124	0.12
916.857	0.12
917.59	0.12
918.323	1.12
919.055	1.12
919.788	0.12
920.521	1.12
921.253	1.12
921.985	-0.88
922.718	0.12
923.45	2.12
924.182	-1.88
924.914	1.12
925.646	0.12
926.378	2.12
927.11	-1.88
927.841	2.12
928.573	0.12
929.305	1.12
930.036	1.12
930.768	0.12
931.499	1.12
932.23	-0.88
932.962	3.12
933.693	0.12
934.424	0.12
935.155	2.12
935.886	1.12
936.617	1.12
937.348	-0.88
938.078	0.12
938.809	1.12
939.54	-0.88
940.27	2.12
941.001	-0.88
941.731	2.12
942.461	1.12
943.191	1.12
943.922	-0.88
944.652	-0.88
945.382	2.12
946.112	-0.88
946.841	1.12
947.571	1.12
948.301	0.12
949.031	-0.88
949.76	1.12
950.49	1.12
951.219	1.12
951.948	1.12
952.678	-0.88
953.407	-1.88
954.136	-3.88
954.865	-0.88
955.594	-0.88
956.323	-0.88
957.052	-1.88
957.78	2.12
958.509	1.12
959.238	0.12
959.966	0.12
960.695	2.12
961.423	0.12
962.151	-1.88
962.88	-0.88
963.608	-2.88
964.336	0.12
965.064	1.12
965.792	2.12
966.52	0.12
967.247	1.12
967.975	0.12
968.703	0.12
969.43	2.12
970.158	0.12
970.885	-0.88
971.613	1.12
972.34	1.12
973.067	2.12
973.794	0.12
974.521	0.12
975.248	0.12
975.975	2.12
976.702	1.12
977.429	0.12
978.156	2.12
978.882	-1.88
979.609	1.12
980.335	1.12
981.062	-0.88
981.788	3.12
982.514	1.12
983.24	0.12
983.967	0.12
984.693	2.12
985.419	1.12
986.144	-0.88
986.87	0.12
987.596	-1.88
988.322	2.12
989.047	1.12
989.773	-0.88
990.498	1.12
991.224	0.12
991.949	0.12
992.674	1.12
993.399	1.12
994.124	-0.88
994.849	1.12
995.574	-0.88
996.299	0.12
997.024	1.12
997.749	1.12
998.473	3.12
999.198	0.12
999.922	0.12
1000.647	-1.88
1001.371	5.12
1002.095	0.12
1002.82	-2.88
1003.544	-1.88
1004.268	3.12
1004.992	0.12
1005.716	1.12
1006.439	0.12
1007.163	2.12
1007.887	2.12
1008.611	-0.88
1009.334	0.12
1010.058	3.12
1010.781	2.12
1011.504	1.12
1012.228	1.12
1012.951	1.12
1013.674	-0.88
1014.397	1.12
1015.12	-1.88
