节点500_285_QEPB04081__842__15-09-33-741.txt的数据

Date: Wed Nov 12 15:09:33 CST 2025
User: PC
Spectrometer: QEPB0408
触发模式: 0
积分时间 (秒): 1.000000E-2
Scans to average: 1
启用暗噪声校正: true
启用非线性校正: false
滑动平均宽度: 0
X轴模式: Wavelengths
Number of Pixels in Spectrum: 1044
>>>>>Begin Spectral Data<<<<<
220.843	3.38
221.644	2.38
222.444	0.38
223.244	2.38
224.045	2.38
224.845	4.38
225.645	0.38
226.445	1.38
227.245	1.38
228.045	2.38
228.845	4.38
229.645	4.38
230.444	2.38
231.244	2.38
232.043	3.38
232.843	3.38
233.642	2.38
234.442	2.38
235.241	4.38
236.04	2.38
236.839	2.38
237.638	3.38
238.437	2.38
239.236	5.38
240.035	4.38
240.833	4.38
241.632	6.38
242.43	2.38
243.229	4.38
244.027	6.38
244.826	6.38
245.624	6.38
246.422	5.38
247.22	3.38
248.018	5.38
248.816	4.38
249.614	6.38
250.412	7.38
251.21	7.38
252.007	4.38
252.805	4.38
253.602	7.38
254.4	7.38
255.197	5.38
255.994	4.38
256.791	8.38
257.589	6.38
258.386	6.38
259.183	8.38
259.979	9.38
260.776	9.38
261.573	9.38
262.37	10.38
263.166	7.38
263.963	9.38
264.759	9.38
265.556	10.38
266.352	11.38
267.148	11.38
267.944	11.38
268.74	10.38
269.536	13.38
270.332	13.38
271.128	14.38
271.924	14.38
272.719	14.38
273.515	13.38
274.311	14.38
275.106	15.38
275.901	13.38
276.697	13.38
277.492	14.38
278.287	13.38
279.082	21.38
279.877	14.38
280.672	13.38
281.467	16.38
282.262	16.38
283.056	16.38
283.851	17.38
284.646	19.38
285.44	18.38
286.234	15.38
287.029	17.38
287.823	17.38
288.617	16.38
289.411	15.38
290.205	18.38
290.999	18.38
291.793	15.38
292.587	17.38
293.381	16.38
294.174	16.38
294.968	16.38
295.761	17.38
296.555	15.38
297.348	14.38
298.141	15.38
298.935	15.38
299.728	17.38
300.521	12.38
301.314	13.38
302.107	13.38
302.899	14.38
303.692	12.38
304.485	10.38
305.277	12.38
306.07	13.38
306.862	10.38
307.655	13.38
308.447	9.38
309.239	12.38
310.031	13.38
310.823	13.38
311.615	8.38
312.407	10.38
313.199	9.38
313.991	7.38
314.783	12.38
315.574	7.38
316.366	8.38
317.157	9.38
317.949	7.38
318.74	6.38
319.531	6.38
320.322	8.38
321.113	9.38
321.904	9.38
322.695	6.38
323.486	10.38
324.277	9.38
325.068	5.38
325.858	5.38
326.649	9.38
327.439	3.38
328.23	7.38
329.02	6.38
329.81	7.38
330.6	8.38
331.391	5.38
332.181	7.38
332.971	6.38
333.76	6.38
334.55	5.38
335.34	8.38
336.13	6.38
336.919	6.38
337.709	6.38
338.498	4.38
339.287	4.38
340.077	7.38
340.866	7.38
341.655	6.38
342.444	7.38
343.233	6.38
344.022	6.38
344.811	5.38
345.6	6.38
346.388	7.38
347.177	7.38
347.965	9.38
348.754	3.38
349.542	8.38
350.33	8.38
351.119	5.38
351.907	4.38
352.695	7.38
353.483	6.38
354.271	4.38
355.059	7.38
355.846	6.38
356.634	7.38
357.422	5.38
358.209	5.38
358.997	5.38
359.784	6.38
360.571	4.38
361.359	4.38
362.146	5.38
362.933	9.38
363.72	4.38
364.507	4.38
365.294	4.38
366.081	6.38
366.867	5.38
367.654	4.38
368.44	7.38
369.227	5.38
370.013	5.38
370.8	4.38
371.586	4.38
372.372	5.38
373.158	5.38
373.944	5.38
374.73	5.38
375.516	4.38
376.302	5.38
377.088	2.38
377.873	7.38
378.659	5.38
379.445	4.38
380.23	2.38
381.015	5.38
381.801	7.38
382.586	4.38
383.371	5.38
384.156	5.38
384.941	3.38
385.726	6.38
386.511	4.38
387.296	6.38
388.08	5.38
388.865	5.38
389.649	5.38
390.434	7.38
391.218	7.38
392.003	4.38
392.787	8.38
393.571	5.38
394.355	6.38
395.139	7.38
395.923	5.38
396.707	7.38
397.491	3.38
398.274	7.38
399.058	6.38
399.842	9.38
400.625	7.38
401.408	6.38
402.192	8.38
402.975	6.38
403.758	8.38
404.541	6.38
405.324	8.38
406.107	8.38
406.89	9.38
407.673	9.38
408.456	7.38
409.238	6.38
410.021	7.38
410.803	8.38
411.586	8.38
412.368	7.38
413.151	9.38
413.933	6.38
414.715	8.38
415.497	10.38
416.279	9.38
417.061	9.38
417.843	8.38
418.624	10.38
419.406	10.38
420.188	10.38
420.969	9.38
421.751	9.38
422.532	13.38
423.313	11.38
424.095	12.38
424.876	10.38
425.657	11.38
426.438	12.38
427.219	12.38
428	12.38
428.78	12.38
429.561	12.38
430.342	14.38
431.122	16.38
431.903	16.38
432.683	11.38
433.464	14.38
434.244	15.38
435.024	14.38
435.804	17.38
436.584	18.38
437.364	18.38
438.144	19.38
438.924	21.38
439.704	22.38
440.483	19.38
441.263	21.38
442.042	24.38
442.822	26.38
443.601	29.38
444.38	29.38
445.16	32.38
445.939	35.38
446.718	38.38
447.497	41.38
448.276	46.38
449.054	50.38
449.833	50.38
450.612	57.38
451.391	59.38
452.169	70.38
452.948	78.38
453.726	84.38
454.504	94.38
455.282	101.38
456.061	113.38
456.839	121.38
457.617	143.38
458.395	157.38
459.172	176.38
459.95	194.38
460.728	211.38
461.506	238.38
462.283	257.38
463.061	288.38
463.838	323.38
464.615	360.38
465.393	397.38
466.17	445.38
466.947	498.38
467.724	549.38
468.501	609.38
469.278	661.38
470.055	737.38
470.831	822.38
471.608	904.38
472.385	1004.38
473.161	1096.38
473.938	1213.38
474.714	1340.38
475.49	1473.38
476.266	1607.38
477.043	1774.38
477.819	1941.38
478.595	2126.38
479.371	2333.38
480.146	2528.38
480.922	2786.38
481.698	3039.38
482.473	3331.38
483.249	3627.38
484.024	3959.38
484.8	4337.38
485.575	4697.38
486.35	5136.38
487.126	5567.38
487.901	6061.38
488.676	6570.38
489.451	7137.38
490.225	7761.38
491	8428.38
491.775	9150.38
492.55	9914.38
493.324	10693.38
494.099	11480.38
494.873	12275.38
495.647	13231.38
496.422	14172.38
497.196	15106.38
497.97	16196.38
498.744	17169.38
499.518	18164.38
500.292	19237.38
501.066	20141.38
501.839	21103.38
502.613	22044.38
503.387	22807.38
504.16	23523.38
504.934	24077.38
505.707	24452.38
506.48	24751.38
507.253	24890.38
508.027	24940.38
508.8	24860.38
509.573	24800.38
510.346	24398.38
511.118	23870.38
511.891	23393.38
512.664	22857.38
513.437	22150.38
514.209	21350.38
514.982	20630.38
515.754	19872.38
516.526	19061.38
517.298	18325.38
518.071	17589.38
518.843	16919.38
519.615	16309.38
520.387	15673.38
521.159	15003.38
521.93	14399.38
522.702	13888.38
523.474	13292.38
524.245	12734.38
525.017	12273.38
525.788	11770.38
526.56	11246.38
527.331	10747.38
528.102	10328.38
528.873	9858.38
529.644	9415.38
530.415	9006.38
531.186	8525.38
531.957	8130.38
532.728	7763.38
533.498	7399.38
534.269	6974.38
535.039	6616.38
535.81	6285.38
536.58	5938.38
537.351	5593.38
538.121	5290.38
538.891	5019.38
539.661	4746.38
540.431	4489.38
541.201	4215.38
541.971	4021.38
542.741	3801.38
543.51	3628.38
544.28	3452.38
545.05	3282.38
545.819	3111.38
546.588	2966.38
547.358	2822.38
548.127	2660.38
548.896	2543.38
549.665	2416.38
550.434	2290.38
551.203	2186.38
551.972	2065.38
552.741	1941.38
553.51	1843.38
554.278	1752.38
555.047	1649.38
555.815	1545.38
556.584	1489.38
557.352	1380.38
558.121	1334.38
558.889	1248.38
559.657	1177.38
560.425	1124.38
561.193	1047.38
561.961	993.38
562.729	946.38
563.496	894.38
564.264	835.38
565.032	783.38
565.799	746.38
566.567	707.38
567.334	666.38
568.101	628.38
568.869	588.38
569.636	559.38
570.403	528.38
571.17	502.38
571.937	474.38
572.704	440.38
573.471	423.38
574.237	401.38
575.004	371.38
575.771	345.38
576.537	333.38
577.303	312.38
578.07	298.38
578.836	280.38
579.602	261.38
580.368	252.38
581.134	239.38
581.9	220.38
582.666	213.38
583.432	200.38
584.198	192.38
584.964	178.38
585.729	175.38
586.495	164.38
587.26	153.38
588.025	146.38
588.791	135.38
589.556	128.38
590.321	121.38
591.086	116.38
591.851	108.38
592.616	103.38
593.381	97.38
594.146	90.38
594.911	88.38
595.675	85.38
596.44	83.38
597.204	77.38
597.969	73.38
598.733	66.38
599.497	69.38
600.261	63.38
601.025	61.38
601.79	60.38
602.553	56.38
603.317	56.38
604.081	54.38
604.845	50.38
605.609	45.38
606.372	43.38
607.136	47.38
607.899	42.38
608.662	41.38
609.426	36.38
610.189	38.38
610.952	36.38
611.715	34.38
612.478	34.38
613.241	32.38
614.004	32.38
614.767	32.38
615.529	27.38
616.292	26.38
617.055	25.38
617.817	24.38
618.579	22.38
619.342	23.38
620.104	24.38
620.866	21.38
621.628	23.38
622.39	19.38
623.152	23.38
623.914	18.38
624.676	17.38
625.438	21.38
626.199	18.38
626.961	18.38
627.722	16.38
628.484	15.38
629.245	14.38
630.006	16.38
630.768	17.38
631.529	13.38
632.29	12.38
633.051	14.38
633.812	12.38
634.573	13.38
635.333	11.38
636.094	13.38
636.855	9.38
637.615	10.38
638.376	9.38
639.136	9.38
639.896	9.38
640.657	10.38
641.417	8.38
642.177	9.38
642.937	9.38
643.697	9.38
644.457	9.38
645.216	11.38
645.976	7.38
646.736	10.38
647.495	8.38
648.255	8.38
649.014	8.38
649.774	8.38
650.533	5.38
651.292	6.38
652.051	7.38
652.81	6.38
653.569	10.38
654.328	6.38
655.087	9.38
655.846	8.38
656.604	5.38
657.363	7.38
658.121	7.38
658.88	7.38
659.638	6.38
660.397	5.38
661.155	7.38
661.913	5.38
662.671	7.38
663.429	5.38
664.187	5.38
664.945	6.38
665.703	5.38
666.46	4.38
667.218	3.38
667.976	5.38
668.733	4.38
669.49	6.38
670.248	4.38
671.005	5.38
671.762	4.38
672.519	1.38
673.276	3.38
674.033	4.38
674.79	4.38
675.547	6.38
676.304	5.38
677.06	5.38
677.817	6.38
678.574	4.38
679.33	3.38
680.086	3.38
680.843	4.38
681.599	1.38
682.355	5.38
683.111	2.38
683.867	8.38
684.623	3.38
685.379	4.38
686.135	5.38
686.89	4.38
687.646	3.38
688.402	4.38
689.157	6.38
689.912	2.38
690.668	2.38
691.423	2.38
692.178	5.38
692.933	4.38
693.688	4.38
694.443	3.38
695.198	4.38
695.953	4.38
696.708	4.38
697.462	4.38
698.217	2.38
698.972	3.38
699.726	3.38
700.48	3.38
701.235	3.38
701.989	4.38
702.743	1.38
703.497	2.38
704.251	6.38
705.005	4.38
705.759	5.38
706.513	4.38
707.266	4.38
708.02	2.38
708.774	5.38
709.527	5.38
710.28	2.38
711.034	3.38
711.787	1.38
712.54	3.38
713.293	3.38
714.046	4.38
714.799	4.38
715.552	4.38
716.305	3.38
717.058	2.38
717.81	2.38
718.563	2.38
719.315	3.38
720.068	5.38
720.82	2.38
721.573	4.38
722.325	3.38
723.077	5.38
723.829	3.38
724.581	2.38
725.333	3.38
726.085	2.38
726.836	5.38
727.588	2.38
728.34	3.38
729.091	3.38
729.843	3.38
730.594	4.38
731.346	4.38
732.097	6.38
732.848	2.38
733.599	6.38
734.35	4.38
735.101	3.38
735.852	4.38
736.603	2.38
737.354	5.38
738.104	4.38
738.855	3.38
739.605	6.38
740.356	4.38
741.106	5.38
741.856	6.38
742.607	5.38
743.357	6.38
744.107	4.38
744.857	5.38
745.607	4.38
746.357	6.38
747.106	1.38
747.856	6.38
748.606	5.38
749.355	5.38
750.105	5.38
750.854	3.38
751.603	4.38
752.353	6.38
753.102	8.38
753.851	4.38
754.6	4.38
755.349	8.38
756.098	3.38
756.847	7.38
757.595	7.38
758.344	3.38
759.093	5.38
759.841	6.38
760.589	6.38
761.338	5.38
762.086	5.38
762.834	6.38
763.582	5.38
764.331	8.38
765.079	7.38
765.826	7.38
766.574	7.38
767.322	7.38
768.07	7.38
768.817	5.38
769.565	5.38
770.312	7.38
771.06	8.38
771.807	4.38
772.554	8.38
773.302	6.38
774.049	7.38
774.796	8.38
775.543	4.38
776.29	8.38
777.036	8.38
777.783	6.38
778.53	7.38
779.276	7.38
780.023	8.38
780.769	9.38
781.516	8.38
782.262	7.38
783.008	7.38
783.754	5.38
784.5	7.38
785.246	6.38
785.992	8.38
786.738	8.38
787.484	7.38
788.23	6.38
788.975	8.38
789.721	8.38
790.466	8.38
791.212	6.38
791.957	7.38
792.702	5.38
793.447	10.38
794.193	8.38
794.938	7.38
795.683	7.38
796.427	6.38
797.172	7.38
797.917	7.38
798.662	5.38
799.406	5.38
800.151	7.38
800.895	5.38
801.64	5.38
802.384	8.38
803.128	8.38
803.872	5.38
804.616	7.38
805.36	7.38
806.104	7.38
806.848	7.38
807.592	6.38
808.336	4.38
809.079	6.38
809.823	5.38
810.566	4.38
811.31	4.38
812.053	4.38
812.796	6.38
813.539	7.38
814.283	5.38
815.026	4.38
815.769	4.38
816.511	4.38
817.254	5.38
817.997	5.38
818.74	6.38
819.482	6.38
820.225	5.38
820.967	3.38
821.71	4.38
822.452	4.38
823.194	5.38
823.936	4.38
824.678	3.38
825.42	5.38
826.162	1.38
826.904	5.38
827.646	6.38
828.388	4.38
829.129	4.38
829.871	3.38
830.612	4.38
831.354	3.38
832.095	5.38
832.836	4.38
833.577	4.38
834.319	2.38
835.06	2.38
835.801	4.38
836.542	3.38
837.282	3.38
838.023	5.38
838.764	2.38
839.504	4.38
840.245	5.38
840.985	3.38
841.726	2.38
842.466	2.38
843.206	4.38
843.946	3.38
844.687	5.38
845.427	3.38
846.166	3.38
846.906	3.38
847.646	3.38
848.386	1.38
849.125	2.38
849.865	2.38
850.605	4.38
851.344	3.38
852.083	4.38
852.823	3.38
853.562	2.38
854.301	1.38
855.04	6.38
855.779	3.38
856.518	2.38
857.257	3.38
857.995	2.38
858.734	2.38
859.473	2.38
860.211	3.38
860.95	3.38
861.688	1.38
862.426	1.38
863.165	1.38
863.903	2.38
864.641	0.38
865.379	3.38
866.117	1.38
866.855	3.38
867.593	4.38
868.33	-2.62
869.068	4.38
869.806	1.38
870.543	2.38
871.28	1.38
872.018	1.38
872.755	0.38
873.492	0.38
874.229	1.38
874.967	2.38
875.703	2.38
876.44	1.38
877.177	2.38
877.914	4.38
878.651	0.38
879.387	2.38
880.124	2.38
880.86	-0.62
881.597	1.38
882.333	1.38
883.069	2.38
883.806	0.38
884.542	2.38
885.278	2.38
886.014	0.38
886.749	1.38
887.485	-1.62
888.221	1.38
888.957	0.38
889.692	2.38
890.428	-0.62
891.163	1.38
891.899	0.38
892.634	0.38
893.369	2.38
894.104	1.38
894.839	0.38
895.574	0.38
896.309	3.38
897.044	0.38
897.779	2.38
898.514	0.38
899.248	1.38
899.983	1.38
900.717	0.38
901.452	-0.62
902.186	1.38
902.92	0.38
903.654	0.38
904.389	3.38
905.123	-1.62
905.857	1.38
906.59	-0.62
907.324	1.38
908.058	2.38
908.792	1.38
909.525	0.38
910.259	2.38
910.992	2.38
911.726	1.38
912.459	0.38
913.192	0.38
913.925	0.38
914.658	-0.62
915.391	0.38
916.124	-1.62
916.857	0.38
917.59	-0.62
918.323	-0.62
919.055	2.38
919.788	0.38
920.521	-1.62
921.253	0.38
921.985	0.38
922.718	1.38
923.45	0.38
924.182	1.38
924.914	1.38
925.646	1.38
926.378	2.38
927.11	1.38
927.841	0.38
928.573	-1.62
929.305	2.38
930.036	2.38
930.768	0.38
931.499	1.38
932.23	-1.62
932.962	1.38
933.693	1.38
934.424	2.38
935.155	1.38
935.886	-0.62
936.617	2.38
937.348	2.38
938.078	1.38
938.809	-1.62
939.54	1.38
940.27	0.38
941.001	0.38
941.731	-0.62
942.461	0.38
943.191	0.38
943.922	-0.62
944.652	1.38
945.382	-1.62
946.112	1.38
946.841	-0.62
947.571	0.38
948.301	1.38
949.031	2.38
949.76	-1.62
950.49	-0.62
951.219	2.38
951.948	2.38
952.678	1.38
953.407	-0.62
954.136	0.38
954.865	-1.62
955.594	1.38
956.323	1.38
957.052	1.38
957.78	1.38
958.509	0.38
959.238	-1.62
959.966	2.38
960.695	0.38
961.423	0.38
962.151	2.38
962.88	-1.62
963.608	-0.62
964.336	-0.62
965.064	0.38
965.792	1.38
966.52	-1.62
967.247	1.38
967.975	2.38
968.703	0.38
969.43	2.38
970.158	-0.62
970.885	2.38
971.613	-1.62
972.34	1.38
973.067	0.38
973.794	0.38
974.521	1.38
975.248	-0.62
975.975	1.38
976.702	-2.62
977.429	0.38
978.156	-0.62
978.882	1.38
979.609	2.38
980.335	1.38
981.062	2.38
981.788	1.38
982.514	-0.62
983.24	0.38
983.967	-1.62
984.693	1.38
985.419	0.38
986.144	-0.62
986.87	-0.62
987.596	-0.62
988.322	1.38
989.047	3.38
989.773	1.38
990.498	-0.62
991.224	1.38
991.949	0.38
992.674	-1.62
993.399	-1.62
994.124	-1.62
994.849	1.38
995.574	-0.62
996.299	0.38
997.024	0.38
997.749	0.38
998.473	0.38
999.198	-0.62
999.922	-0.62
1000.647	-0.62
1001.371	1.38
1002.095	-0.62
1002.82	-3.62
1003.544	-0.62
1004.268	4.38
1004.992	1.38
1005.716	1.38
1006.439	2.38
1007.163	2.38
1007.887	0.38
1008.611	-0.62
1009.334	0.38
1010.058	0.38
1010.781	2.38
1011.504	0.38
1012.228	1.38
1012.951	0.38
1013.674	1.38
1014.397	-0.62
1015.12	2.38
