节点500_285_QEPB04081__458__15-03-10-539.txt的数据

Date: Wed Nov 12 15:03:10 CST 2025
User: PC
Spectrometer: QEPB0408
触发模式: 0
积分时间 (秒): 1.000000E-2
Scans to average: 1
启用暗噪声校正: true
启用非线性校正: false
滑动平均宽度: 0
X轴模式: Wavelengths
Number of Pixels in Spectrum: 1044
>>>>>Begin Spectral Data<<<<<
220.843	3.38
221.644	1.38
222.444	2.38
223.244	0.38
224.045	0.38
224.845	3.38
225.645	2.38
226.445	-0.62
227.245	2.38
228.045	3.38
228.845	3.38
229.645	2.38
230.444	3.38
231.244	1.38
232.043	2.38
232.843	2.38
233.642	2.38
234.442	3.38
235.241	2.38
236.04	1.38
236.839	4.38
237.638	3.38
238.437	3.38
239.236	5.38
240.035	2.38
240.833	1.38
241.632	5.38
242.43	4.38
243.229	3.38
244.027	6.38
244.826	3.38
245.624	6.38
246.422	5.38
247.22	4.38
248.018	4.38
248.816	3.38
249.614	6.38
250.412	3.38
251.21	6.38
252.007	3.38
252.805	4.38
253.602	7.38
254.4	6.38
255.197	5.38
255.994	6.38
256.791	6.38
257.589	6.38
258.386	8.38
259.183	8.38
259.979	8.38
260.776	13.38
261.573	6.38
262.37	9.38
263.166	7.38
263.963	11.38
264.759	9.38
265.556	10.38
266.352	13.38
267.148	12.38
267.944	12.38
268.74	13.38
269.536	15.38
270.332	15.38
271.128	14.38
271.924	13.38
272.719	16.38
273.515	15.38
274.311	13.38
275.106	13.38
275.901	15.38
276.697	17.38
277.492	16.38
278.287	18.38
279.082	14.38
279.877	17.38
280.672	18.38
281.467	20.38
282.262	18.38
283.056	19.38
283.851	16.38
284.646	18.38
285.44	18.38
286.234	18.38
287.029	16.38
287.823	21.38
288.617	19.38
289.411	17.38
290.205	12.38
290.999	18.38
291.793	16.38
292.587	15.38
293.381	19.38
294.174	16.38
294.968	13.38
295.761	16.38
296.555	14.38
297.348	13.38
298.141	15.38
298.935	13.38
299.728	16.38
300.521	16.38
301.314	13.38
302.107	16.38
302.899	11.38
303.692	12.38
304.485	12.38
305.277	14.38
306.07	13.38
306.862	13.38
307.655	14.38
308.447	14.38
309.239	13.38
310.031	11.38
310.823	11.38
311.615	8.38
312.407	11.38
313.199	8.38
313.991	10.38
314.783	7.38
315.574	9.38
316.366	9.38
317.157	10.38
317.949	8.38
318.74	6.38
319.531	8.38
320.322	7.38
321.113	7.38
321.904	7.38
322.695	6.38
323.486	6.38
324.277	8.38
325.068	9.38
325.858	6.38
326.649	7.38
327.439	4.38
328.23	6.38
329.02	8.38
329.81	6.38
330.6	7.38
331.391	6.38
332.181	7.38
332.971	3.38
333.76	7.38
334.55	6.38
335.34	6.38
336.13	7.38
336.919	8.38
337.709	5.38
338.498	5.38
339.287	7.38
340.077	8.38
340.866	5.38
341.655	4.38
342.444	2.38
343.233	5.38
344.022	5.38
344.811	5.38
345.6	4.38
346.388	6.38
347.177	6.38
347.965	5.38
348.754	7.38
349.542	3.38
350.33	6.38
351.119	6.38
351.907	4.38
352.695	7.38
353.483	6.38
354.271	4.38
355.059	6.38
355.846	5.38
356.634	6.38
357.422	6.38
358.209	6.38
358.997	5.38
359.784	4.38
360.571	7.38
361.359	4.38
362.146	5.38
362.933	3.38
363.72	4.38
364.507	3.38
365.294	6.38
366.081	5.38
366.867	5.38
367.654	4.38
368.44	4.38
369.227	5.38
370.013	7.38
370.8	4.38
371.586	4.38
372.372	4.38
373.158	4.38
373.944	4.38
374.73	5.38
375.516	6.38
376.302	6.38
377.088	5.38
377.873	4.38
378.659	4.38
379.445	5.38
380.23	3.38
381.015	3.38
381.801	5.38
382.586	5.38
383.371	5.38
384.156	3.38
384.941	6.38
385.726	6.38
386.511	6.38
387.296	3.38
388.08	5.38
388.865	6.38
389.649	5.38
390.434	4.38
391.218	5.38
392.003	5.38
392.787	5.38
393.571	5.38
394.355	9.38
395.139	5.38
395.923	6.38
396.707	5.38
397.491	6.38
398.274	7.38
399.058	6.38
399.842	7.38
400.625	4.38
401.408	6.38
402.192	8.38
402.975	6.38
403.758	7.38
404.541	6.38
405.324	6.38
406.107	6.38
406.89	6.38
407.673	6.38
408.456	3.38
409.238	6.38
410.021	6.38
410.803	7.38
411.586	8.38
412.368	6.38
413.151	8.38
413.933	10.38
414.715	8.38
415.497	9.38
416.279	8.38
417.061	8.38
417.843	11.38
418.624	7.38
419.406	9.38
420.188	9.38
420.969	10.38
421.751	10.38
422.532	8.38
423.313	12.38
424.095	13.38
424.876	9.38
425.657	10.38
426.438	9.38
427.219	11.38
428	11.38
428.78	12.38
429.561	13.38
430.342	14.38
431.122	13.38
431.903	13.38
432.683	12.38
433.464	14.38
434.244	15.38
435.024	17.38
435.804	16.38
436.584	15.38
437.364	21.38
438.144	20.38
438.924	21.38
439.704	17.38
440.483	20.38
441.263	24.38
442.042	24.38
442.822	27.38
443.601	28.38
444.38	30.38
445.16	32.38
445.939	34.38
446.718	34.38
447.497	38.38
448.276	42.38
449.054	44.38
449.833	46.38
450.612	55.38
451.391	59.38
452.169	66.38
452.948	65.38
453.726	75.38
454.504	81.38
455.282	93.38
456.061	103.38
456.839	112.38
457.617	125.38
458.395	139.38
459.172	159.38
459.95	167.38
460.728	193.38
461.506	215.38
462.283	246.38
463.061	267.38
463.838	303.38
464.615	336.38
465.393	376.38
466.17	419.38
466.947	457.38
467.724	507.38
468.501	582.38
469.278	629.38
470.055	703.38
470.831	767.38
471.608	863.38
472.385	958.38
473.161	1059.38
473.938	1186.38
474.714	1303.38
475.49	1443.38
476.266	1606.38
477.043	1759.38
477.819	1945.38
478.595	2127.38
479.371	2355.38
480.146	2572.38
480.922	2842.38
481.698	3128.38
482.473	3449.38
483.249	3777.38
484.024	4149.38
484.8	4571.38
485.575	4996.38
486.35	5483.38
487.126	5982.38
487.901	6572.38
488.676	7205.38
489.451	7891.38
490.225	8562.38
491	9410.38
491.775	10242.38
492.55	11124.38
493.324	12025.38
494.099	12983.38
494.873	14028.38
495.647	15073.38
496.422	16168.38
497.196	17348.38
497.97	18487.38
498.744	19644.38
499.518	20774.38
500.292	21920.38
501.066	22953.38
501.839	23907.38
502.613	24802.38
503.387	25613.38
504.16	26279.38
504.934	26611.38
505.707	26893.38
506.48	26948.38
507.253	27043.38
508.027	26701.38
508.8	26486.38
509.573	26146.38
510.346	25597.38
511.118	24886.38
511.891	24176.38
512.664	23378.38
513.437	22523.38
514.209	21589.38
514.982	20706.38
515.754	19845.38
516.526	19010.38
517.298	18156.38
518.071	17321.38
518.843	16677.38
519.615	16073.38
520.387	15468.38
521.159	14833.38
521.93	14199.38
522.702	13675.38
523.474	13121.38
524.245	12556.38
525.017	12047.38
525.788	11551.38
526.56	11020.38
527.331	10538.38
528.102	10027.38
528.873	9584.38
529.644	9134.38
530.415	8675.38
531.186	8275.38
531.957	7795.38
532.728	7450.38
533.498	7048.38
534.269	6638.38
535.039	6313.38
535.81	5948.38
536.58	5595.38
537.351	5306.38
538.121	5007.38
538.891	4727.38
539.661	4484.38
540.431	4234.38
541.201	3975.38
541.971	3792.38
542.741	3603.38
543.51	3404.38
544.28	3249.38
545.05	3088.38
545.819	2962.38
546.588	2785.38
547.358	2633.38
548.127	2536.38
548.896	2388.38
549.665	2264.38
550.434	2164.38
551.203	2029.38
551.972	1926.38
552.741	1815.38
553.51	1741.38
554.278	1642.38
555.047	1541.38
555.815	1455.38
556.584	1373.38
557.352	1297.38
558.121	1233.38
558.889	1151.38
559.657	1083.38
560.425	1021.38
561.193	960.38
561.961	905.38
562.729	873.38
563.496	819.38
564.264	775.38
565.032	741.38
565.799	691.38
566.567	664.38
567.334	627.38
568.101	588.38
568.869	550.38
569.636	525.38
570.403	490.38
571.17	473.38
571.937	439.38
572.704	407.38
573.471	384.38
574.237	370.38
575.004	349.38
575.771	334.38
576.537	309.38
577.303	289.38
578.07	269.38
578.836	256.38
579.602	239.38
580.368	233.38
581.134	211.38
581.9	204.38
582.666	195.38
583.432	184.38
584.198	171.38
584.964	165.38
585.729	152.38
586.495	152.38
587.26	137.38
588.025	135.38
588.791	123.38
589.556	119.38
590.321	112.38
591.086	108.38
591.851	99.38
592.616	94.38
593.381	94.38
594.146	88.38
594.911	85.38
595.675	76.38
596.44	73.38
597.204	71.38
597.969	66.38
598.733	72.38
599.497	61.38
600.261	63.38
601.025	58.38
601.79	54.38
602.553	54.38
603.317	51.38
604.081	48.38
604.845	47.38
605.609	45.38
606.372	42.38
607.136	44.38
607.899	38.38
608.662	38.38
609.426	39.38
610.189	33.38
610.952	34.38
611.715	32.38
612.478	30.38
613.241	28.38
614.004	30.38
614.767	27.38
615.529	27.38
616.292	22.38
617.055	26.38
617.817	24.38
618.579	23.38
619.342	20.38
620.104	21.38
620.866	21.38
621.628	17.38
622.39	20.38
623.152	20.38
623.914	19.38
624.676	17.38
625.438	17.38
626.199	16.38
626.961	17.38
627.722	15.38
628.484	16.38
629.245	13.38
630.006	13.38
630.768	12.38
631.529	13.38
632.29	11.38
633.051	14.38
633.812	12.38
634.573	11.38
635.333	10.38
636.094	9.38
636.855	8.38
637.615	6.38
638.376	10.38
639.136	10.38
639.896	6.38
640.657	10.38
641.417	9.38
642.177	6.38
642.937	9.38
643.697	12.38
644.457	7.38
645.216	8.38
645.976	7.38
646.736	6.38
647.495	7.38
648.255	8.38
649.014	5.38
649.774	7.38
650.533	6.38
651.292	7.38
652.051	4.38
652.81	8.38
653.569	6.38
654.328	6.38
655.087	4.38
655.846	5.38
656.604	6.38
657.363	5.38
658.121	6.38
658.88	4.38
659.638	4.38
660.397	6.38
661.155	5.38
661.913	6.38
662.671	3.38
663.429	6.38
664.187	4.38
664.945	4.38
665.703	4.38
666.46	3.38
667.218	4.38
667.976	6.38
668.733	4.38
669.49	6.38
670.248	3.38
671.005	2.38
671.762	3.38
672.519	3.38
673.276	5.38
674.033	3.38
674.79	1.38
675.547	2.38
676.304	3.38
677.06	5.38
677.817	3.38
678.574	3.38
679.33	3.38
680.086	5.38
680.843	2.38
681.599	6.38
682.355	4.38
683.111	2.38
683.867	4.38
684.623	4.38
685.379	4.38
686.135	3.38
686.89	2.38
687.646	3.38
688.402	5.38
689.157	2.38
689.912	2.38
690.668	4.38
691.423	4.38
692.178	2.38
692.933	3.38
693.688	2.38
694.443	4.38
695.198	3.38
695.953	3.38
696.708	5.38
697.462	2.38
698.217	4.38
698.972	1.38
699.726	4.38
700.48	4.38
701.235	3.38
701.989	1.38
702.743	2.38
703.497	0.38
704.251	2.38
705.005	5.38
705.759	3.38
706.513	3.38
707.266	4.38
708.02	3.38
708.774	6.38
709.527	1.38
710.28	3.38
711.034	3.38
711.787	3.38
712.54	2.38
713.293	3.38
714.046	2.38
714.799	3.38
715.552	4.38
716.305	3.38
717.058	2.38
717.81	3.38
718.563	4.38
719.315	6.38
720.068	3.38
720.82	0.38
721.573	3.38
722.325	3.38
723.077	3.38
723.829	1.38
724.581	3.38
725.333	3.38
726.085	4.38
726.836	4.38
727.588	3.38
728.34	1.38
729.091	4.38
729.843	3.38
730.594	3.38
731.346	5.38
732.097	3.38
732.848	2.38
733.599	3.38
734.35	3.38
735.101	3.38
735.852	4.38
736.603	1.38
737.354	3.38
738.104	5.38
738.855	5.38
739.605	2.38
740.356	4.38
741.106	3.38
741.856	5.38
742.607	5.38
743.357	2.38
744.107	2.38
744.857	4.38
745.607	4.38
746.357	4.38
747.106	4.38
747.856	2.38
748.606	5.38
749.355	5.38
750.105	2.38
750.854	4.38
751.603	4.38
752.353	3.38
753.102	2.38
753.851	5.38
754.6	5.38
755.349	7.38
756.098	4.38
756.847	5.38
757.595	3.38
758.344	5.38
759.093	3.38
759.841	4.38
760.589	8.38
761.338	3.38
762.086	5.38
762.834	5.38
763.582	4.38
764.331	7.38
765.079	5.38
765.826	7.38
766.574	7.38
767.322	6.38
768.07	6.38
768.817	4.38
769.565	9.38
770.312	7.38
771.06	5.38
771.807	7.38
772.554	7.38
773.302	9.38
774.049	5.38
774.796	7.38
775.543	5.38
776.29	10.38
777.036	9.38
777.783	7.38
778.53	9.38
779.276	7.38
780.023	9.38
780.769	7.38
781.516	9.38
782.262	8.38
783.008	9.38
783.754	8.38
784.5	7.38
785.246	8.38
785.992	5.38
786.738	8.38
787.484	10.38
788.23	8.38
788.975	8.38
789.721	6.38
790.466	7.38
791.212	6.38
791.957	8.38
792.702	9.38
793.447	8.38
794.193	10.38
794.938	7.38
795.683	9.38
796.427	4.38
797.172	4.38
797.917	10.38
798.662	8.38
799.406	6.38
800.151	8.38
800.895	6.38
801.64	6.38
802.384	6.38
803.128	4.38
803.872	6.38
804.616	7.38
805.36	7.38
806.104	6.38
806.848	4.38
807.592	6.38
808.336	6.38
809.079	7.38
809.823	6.38
810.566	3.38
811.31	2.38
812.053	3.38
812.796	2.38
813.539	3.38
814.283	4.38
815.026	5.38
815.769	4.38
816.511	2.38
817.254	5.38
817.997	3.38
818.74	4.38
819.482	4.38
820.225	4.38
820.967	3.38
821.71	1.38
822.452	3.38
823.194	4.38
823.936	4.38
824.678	5.38
825.42	4.38
826.162	4.38
826.904	3.38
827.646	3.38
828.388	4.38
829.129	2.38
829.871	2.38
830.612	3.38
831.354	2.38
832.095	1.38
832.836	3.38
833.577	3.38
834.319	1.38
835.06	2.38
835.801	1.38
836.542	2.38
837.282	3.38
838.023	1.38
838.764	1.38
839.504	2.38
840.245	3.38
840.985	1.38
841.726	4.38
842.466	1.38
843.206	5.38
843.946	2.38
844.687	0.38
845.427	1.38
846.166	0.38
846.906	2.38
847.646	2.38
848.386	3.38
849.125	1.38
849.865	-0.62
850.605	2.38
851.344	2.38
852.083	4.38
852.823	2.38
853.562	2.38
854.301	3.38
855.04	0.38
855.779	0.38
856.518	1.38
857.257	0.38
857.995	2.38
858.734	1.38
859.473	1.38
860.211	0.38
860.95	1.38
861.688	1.38
862.426	1.38
863.165	0.38
863.903	1.38
864.641	2.38
865.379	0.38
866.117	3.38
866.855	0.38
867.593	0.38
868.33	2.38
869.068	1.38
869.806	1.38
870.543	0.38
871.28	0.38
872.018	0.38
872.755	3.38
873.492	0.38
874.229	2.38
874.967	0.38
875.703	0.38
876.44	3.38
877.177	2.38
877.914	-0.62
878.651	1.38
879.387	1.38
880.124	0.38
880.86	-1.62
881.597	1.38
882.333	-0.62
883.069	0.38
883.806	-0.62
884.542	1.38
885.278	-0.62
886.014	1.38
886.749	-0.62
887.485	2.38
888.221	2.38
888.957	1.38
889.692	2.38
890.428	0.38
891.163	0.38
891.899	2.38
892.634	1.38
893.369	0.38
894.104	0.38
894.839	1.38
895.574	0.38
896.309	3.38
897.044	-1.62
897.779	0.38
898.514	-1.62
899.248	-0.62
899.983	0.38
900.717	-1.62
901.452	0.38
902.186	-1.62
902.92	0.38
903.654	1.38
904.389	-2.62
905.123	0.38
905.857	0.38
906.59	-0.62
907.324	-0.62
908.058	0.38
908.792	-0.62
909.525	1.38
910.259	-0.62
910.992	0.38
911.726	0.38
912.459	-1.62
913.192	1.38
913.925	0.38
914.658	-1.62
915.391	-0.62
916.124	-2.62
916.857	0.38
917.59	1.38
918.323	-1.62
919.055	0.38
919.788	0.38
920.521	-1.62
921.253	0.38
921.985	0.38
922.718	1.38
923.45	-1.62
924.182	-0.62
924.914	0.38
925.646	1.38
926.378	0.38
927.11	1.38
927.841	0.38
928.573	-2.62
929.305	0.38
930.036	-0.62
930.768	0.38
931.499	0.38
932.23	0.38
932.962	-0.62
933.693	-0.62
934.424	1.38
935.155	-0.62
935.886	1.38
936.617	-0.62
937.348	1.38
938.078	-1.62
938.809	-1.62
939.54	0.38
940.27	0.38
941.001	0.38
941.731	-0.62
942.461	-1.62
943.191	0.38
943.922	-1.62
944.652	-0.62
945.382	-0.62
946.112	0.38
946.841	0.38
947.571	-1.62
948.301	0.38
949.031	-1.62
949.76	1.38
950.49	0.38
951.219	-1.62
951.948	-0.62
952.678	0.38
953.407	-0.62
954.136	-0.62
954.865	-0.62
955.594	1.38
956.323	-1.62
957.052	-0.62
957.78	0.38
958.509	0.38
959.238	0.38
959.966	-1.62
960.695	0.38
961.423	-2.62
962.151	0.38
962.88	0.38
963.608	-2.62
964.336	-1.62
965.064	1.38
965.792	-0.62
966.52	0.38
967.247	-0.62
967.975	1.38
968.703	-1.62
969.43	0.38
970.158	-0.62
970.885	-1.62
971.613	-2.62
972.34	1.38
973.067	2.38
973.794	-1.62
974.521	-0.62
975.248	0.38
975.975	-1.62
976.702	-1.62
977.429	-0.62
978.156	0.38
978.882	-0.62
979.609	-0.62
980.335	-0.62
981.062	-0.62
981.788	0.38
982.514	1.38
983.24	0.38
983.967	0.38
984.693	-0.62
985.419	-1.62
986.144	0.38
986.87	1.38
987.596	-1.62
988.322	1.38
989.047	-1.62
989.773	-0.62
990.498	-0.62
991.224	-0.62
991.949	-0.62
992.674	-0.62
993.399	-0.62
994.124	-1.62
994.849	-0.62
995.574	2.38
996.299	-0.62
997.024	0.38
997.749	-1.62
998.473	-0.62
999.198	-1.62
999.922	0.38
1000.647	1.38
1001.371	1.38
1002.095	-1.62
1002.82	0.38
1003.544	-0.62
1004.268	0.38
1004.992	0.38
1005.716	-0.62
1006.439	-1.62
1007.163	1.38
1007.887	0.38
1008.611	-2.62
1009.334	0.38
1010.058	0.38
1010.781	0.38
1011.504	0.38
1012.228	-0.62
1012.951	-0.62
1013.674	0.38
1014.397	1.38
1015.12	-0.62
