节点500_285_QEPB04081__528__15-04-20-340.txt的数据

Date: Wed Nov 12 15:04:20 CST 2025
User: PC
Spectrometer: QEPB0408
触发模式: 0
积分时间 (秒): 1.000000E-2
Scans to average: 1
启用暗噪声校正: true
启用非线性校正: false
滑动平均宽度: 0
X轴模式: Wavelengths
Number of Pixels in Spectrum: 1044
>>>>>Begin Spectral Data<<<<<
220.843	0.5
221.644	2.5
222.444	1.5
223.244	1.5
224.045	2.5
224.845	0.5
225.645	1.5
226.445	1.5
227.245	2.5
228.045	2.5
228.845	3.5
229.645	3.5
230.444	2.5
231.244	3.5
232.043	2.5
232.843	3.5
233.642	3.5
234.442	4.5
235.241	3.5
236.04	2.5
236.839	3.5
237.638	1.5
238.437	2.5
239.236	3.5
240.035	2.5
240.833	3.5
241.632	3.5
242.43	6.5
243.229	3.5
244.027	6.5
244.826	5.5
245.624	3.5
246.422	4.5
247.22	6.5
248.018	4.5
248.816	5.5
249.614	6.5
250.412	4.5
251.21	5.5
252.007	6.5
252.805	5.5
253.602	5.5
254.4	7.5
255.197	8.5
255.994	9.5
256.791	8.5
257.589	7.5
258.386	9.5
259.183	9.5
259.979	8.5
260.776	7.5
261.573	8.5
262.37	10.5
263.166	10.5
263.963	8.5
264.759	11.5
265.556	11.5
266.352	10.5
267.148	10.5
267.944	11.5
268.74	12.5
269.536	14.5
270.332	15.5
271.128	13.5
271.924	13.5
272.719	15.5
273.515	13.5
274.311	16.5
275.106	16.5
275.901	15.5
276.697	15.5
277.492	18.5
278.287	16.5
279.082	15.5
279.877	17.5
280.672	16.5
281.467	17.5
282.262	20.5
283.056	16.5
283.851	19.5
284.646	17.5
285.44	16.5
286.234	18.5
287.029	15.5
287.823	18.5
288.617	18.5
289.411	15.5
290.205	17.5
290.999	17.5
291.793	14.5
292.587	20.5
293.381	16.5
294.174	16.5
294.968	16.5
295.761	15.5
296.555	13.5
297.348	17.5
298.141	14.5
298.935	17.5
299.728	14.5
300.521	14.5
301.314	13.5
302.107	13.5
302.899	11.5
303.692	12.5
304.485	11.5
305.277	13.5
306.07	13.5
306.862	12.5
307.655	9.5
308.447	10.5
309.239	10.5
310.031	11.5
310.823	8.5
311.615	9.5
312.407	7.5
313.199	9.5
313.991	8.5
314.783	9.5
315.574	7.5
316.366	11.5
317.157	7.5
317.949	9.5
318.74	7.5
319.531	8.5
320.322	8.5
321.113	6.5
321.904	7.5
322.695	6.5
323.486	8.5
324.277	6.5
325.068	9.5
325.858	5.5
326.649	5.5
327.439	5.5
328.23	5.5
329.02	6.5
329.81	6.5
330.6	8.5
331.391	5.5
332.181	5.5
332.971	5.5
333.76	6.5
334.55	6.5
335.34	5.5
336.13	6.5
336.919	5.5
337.709	4.5
338.498	6.5
339.287	5.5
340.077	5.5
340.866	5.5
341.655	3.5
342.444	5.5
343.233	4.5
344.022	6.5
344.811	4.5
345.6	6.5
346.388	6.5
347.177	5.5
347.965	4.5
348.754	2.5
349.542	6.5
350.33	5.5
351.119	6.5
351.907	4.5
352.695	4.5
353.483	7.5
354.271	2.5
355.059	5.5
355.846	4.5
356.634	5.5
357.422	5.5
358.209	7.5
358.997	7.5
359.784	6.5
360.571	4.5
361.359	6.5
362.146	3.5
362.933	8.5
363.72	4.5
364.507	5.5
365.294	5.5
366.081	4.5
366.867	5.5
367.654	4.5
368.44	3.5
369.227	4.5
370.013	5.5
370.8	4.5
371.586	3.5
372.372	5.5
373.158	5.5
373.944	4.5
374.73	4.5
375.516	6.5
376.302	4.5
377.088	4.5
377.873	6.5
378.659	3.5
379.445	5.5
380.23	2.5
381.015	5.5
381.801	3.5
382.586	5.5
383.371	3.5
384.156	6.5
384.941	7.5
385.726	4.5
386.511	7.5
387.296	5.5
388.08	4.5
388.865	5.5
389.649	3.5
390.434	4.5
391.218	4.5
392.003	3.5
392.787	3.5
393.571	7.5
394.355	5.5
395.139	7.5
395.923	6.5
396.707	7.5
397.491	5.5
398.274	8.5
399.058	6.5
399.842	8.5
400.625	7.5
401.408	7.5
402.192	8.5
402.975	5.5
403.758	5.5
404.541	4.5
405.324	8.5
406.107	5.5
406.89	8.5
407.673	9.5
408.456	7.5
409.238	9.5
410.021	6.5
410.803	6.5
411.586	8.5
412.368	7.5
413.151	8.5
413.933	6.5
414.715	9.5
415.497	7.5
416.279	9.5
417.061	11.5
417.843	7.5
418.624	11.5
419.406	8.5
420.188	10.5
420.969	8.5
421.751	10.5
422.532	9.5
423.313	12.5
424.095	13.5
424.876	8.5
425.657	10.5
426.438	11.5
427.219	13.5
428	11.5
428.78	10.5
429.561	15.5
430.342	15.5
431.122	14.5
431.903	13.5
432.683	15.5
433.464	11.5
434.244	13.5
435.024	14.5
435.804	17.5
436.584	18.5
437.364	15.5
438.144	18.5
438.924	21.5
439.704	22.5
440.483	24.5
441.263	21.5
442.042	25.5
442.822	26.5
443.601	27.5
444.38	29.5
445.16	34.5
445.939	34.5
446.718	38.5
447.497	39.5
448.276	45.5
449.054	42.5
449.833	53.5
450.612	53.5
451.391	57.5
452.169	62.5
452.948	68.5
453.726	81.5
454.504	86.5
455.282	93.5
456.061	105.5
456.839	116.5
457.617	123.5
458.395	144.5
459.172	155.5
459.95	180.5
460.728	194.5
461.506	218.5
462.283	236.5
463.061	273.5
463.838	303.5
464.615	347.5
465.393	380.5
466.17	413.5
466.947	461.5
467.724	519.5
468.501	573.5
469.278	633.5
470.055	699.5
470.831	786.5
471.608	873.5
472.385	973.5
473.161	1076.5
473.938	1176.5
474.714	1310.5
475.49	1439.5
476.266	1594.5
477.043	1761.5
477.819	1928.5
478.595	2143.5
479.371	2339.5
480.146	2580.5
480.922	2861.5
481.698	3126.5
482.473	3429.5
483.249	3766.5
484.024	4107.5
484.8	4523.5
485.575	4956.5
486.35	5446.5
487.126	5917.5
487.901	6483.5
488.676	7097.5
489.451	7737.5
490.225	8435.5
491	9222.5
491.775	10019.5
492.55	10909.5
493.324	11799.5
494.099	12709.5
494.873	13682.5
495.647	14743.5
496.422	15780.5
497.196	16906.5
497.97	18073.5
498.744	19228.5
499.518	20291.5
500.292	21397.5
501.066	22451.5
501.839	23402.5
502.613	24309.5
503.387	25146.5
504.16	25813.5
504.934	26157.5
505.707	26436.5
506.48	26625.5
507.253	26537.5
508.027	26403.5
508.8	26238.5
509.573	25920.5
510.346	25371.5
511.118	24815.5
511.891	24112.5
512.664	23328.5
513.437	22469.5
514.209	21617.5
514.982	20761.5
515.754	19883.5
516.526	19054.5
517.298	18176.5
518.071	17425.5
518.843	16797.5
519.615	16100.5
520.387	15541.5
521.159	14870.5
521.93	14296.5
522.702	13691.5
523.474	13160.5
524.245	12599.5
525.017	12073.5
525.788	11616.5
526.56	11122.5
527.331	10579.5
528.102	10164.5
528.873	9651.5
529.644	9151.5
530.415	8749.5
531.186	8320.5
531.957	7899.5
532.728	7522.5
533.498	7156.5
534.269	6745.5
535.039	6388.5
535.81	6039.5
536.58	5651.5
537.351	5373.5
538.121	5059.5
538.891	4794.5
539.661	4535.5
540.431	4275.5
541.201	4051.5
541.971	3826.5
542.741	3637.5
543.51	3438.5
544.28	3301.5
545.05	3134.5
545.819	2963.5
546.588	2810.5
547.358	2683.5
548.127	2557.5
548.896	2436.5
549.665	2294.5
550.434	2168.5
551.203	2070.5
551.972	1959.5
552.741	1844.5
553.51	1751.5
554.278	1636.5
555.047	1572.5
555.815	1470.5
556.584	1396.5
557.352	1314.5
558.121	1252.5
558.889	1166.5
559.657	1119.5
560.425	1060.5
561.193	981.5
561.961	927.5
562.729	888.5
563.496	835.5
564.264	793.5
565.032	744.5
565.799	712.5
566.567	662.5
567.334	623.5
568.101	590.5
568.869	565.5
569.636	525.5
570.403	507.5
571.17	469.5
571.937	443.5
572.704	411.5
573.471	397.5
574.237	372.5
575.004	354.5
575.771	330.5
576.537	310.5
577.303	296.5
578.07	276.5
578.836	259.5
579.602	251.5
580.368	235.5
581.134	223.5
581.9	205.5
582.666	199.5
583.432	184.5
584.198	169.5
584.964	169.5
585.729	157.5
586.495	148.5
587.26	144.5
588.025	137.5
588.791	127.5
589.556	122.5
590.321	111.5
591.086	107.5
591.851	103.5
592.616	95.5
593.381	90.5
594.146	89.5
594.911	83.5
595.675	80.5
596.44	76.5
597.204	73.5
597.969	70.5
598.733	69.5
599.497	66.5
600.261	60.5
601.025	57.5
601.79	54.5
602.553	54.5
603.317	53.5
604.081	49.5
604.845	47.5
605.609	42.5
606.372	41.5
607.136	41.5
607.899	40.5
608.662	37.5
609.426	34.5
610.189	37.5
610.952	35.5
611.715	30.5
612.478	32.5
613.241	30.5
614.004	28.5
614.767	26.5
615.529	24.5
616.292	25.5
617.055	24.5
617.817	23.5
618.579	24.5
619.342	20.5
620.104	22.5
620.866	22.5
621.628	20.5
622.39	19.5
623.152	18.5
623.914	17.5
624.676	19.5
625.438	17.5
626.199	17.5
626.961	15.5
627.722	13.5
628.484	14.5
629.245	12.5
630.006	15.5
630.768	13.5
631.529	13.5
632.29	11.5
633.051	11.5
633.812	13.5
634.573	10.5
635.333	11.5
636.094	12.5
636.855	8.5
637.615	11.5
638.376	11.5
639.136	10.5
639.896	8.5
640.657	8.5
641.417	9.5
642.177	7.5
642.937	6.5
643.697	11.5
644.457	7.5
645.216	7.5
645.976	7.5
646.736	7.5
647.495	8.5
648.255	7.5
649.014	7.5
649.774	8.5
650.533	6.5
651.292	5.5
652.051	5.5
652.81	7.5
653.569	7.5
654.328	4.5
655.087	6.5
655.846	7.5
656.604	7.5
657.363	6.5
658.121	6.5
658.88	8.5
659.638	3.5
660.397	6.5
661.155	6.5
661.913	6.5
662.671	6.5
663.429	4.5
664.187	7.5
664.945	3.5
665.703	7.5
666.46	3.5
667.218	6.5
667.976	5.5
668.733	5.5
669.49	2.5
670.248	3.5
671.005	5.5
671.762	3.5
672.519	3.5
673.276	6.5
674.033	2.5
674.79	4.5
675.547	2.5
676.304	5.5
677.06	2.5
677.817	1.5
678.574	4.5
679.33	1.5
680.086	3.5
680.843	1.5
681.599	4.5
682.355	1.5
683.111	3.5
683.867	4.5
684.623	4.5
685.379	3.5
686.135	1.5
686.89	3.5
687.646	3.5
688.402	2.5
689.157	4.5
689.912	3.5
690.668	1.5
691.423	4.5
692.178	1.5
692.933	3.5
693.688	2.5
694.443	4.5
695.198	4.5
695.953	4.5
696.708	3.5
697.462	2.5
698.217	4.5
698.972	3.5
699.726	3.5
700.48	4.5
701.235	2.5
701.989	1.5
702.743	1.5
703.497	2.5
704.251	3.5
705.005	2.5
705.759	2.5
706.513	3.5
707.266	4.5
708.02	5.5
708.774	4.5
709.527	4.5
710.28	3.5
711.034	4.5
711.787	3.5
712.54	6.5
713.293	1.5
714.046	5.5
714.799	2.5
715.552	4.5
716.305	3.5
717.058	3.5
717.81	2.5
718.563	2.5
719.315	4.5
720.068	5.5
720.82	3.5
721.573	5.5
722.325	3.5
723.077	4.5
723.829	3.5
724.581	3.5
725.333	2.5
726.085	4.5
726.836	3.5
727.588	2.5
728.34	4.5
729.091	2.5
729.843	3.5
730.594	4.5
731.346	3.5
732.097	6.5
732.848	5.5
733.599	3.5
734.35	4.5
735.101	4.5
735.852	4.5
736.603	2.5
737.354	4.5
738.104	3.5
738.855	4.5
739.605	3.5
740.356	4.5
741.106	5.5
741.856	3.5
742.607	3.5
743.357	6.5
744.107	3.5
744.857	3.5
745.607	4.5
746.357	5.5
747.106	5.5
747.856	6.5
748.606	4.5
749.355	4.5
750.105	4.5
750.854	4.5
751.603	6.5
752.353	5.5
753.102	5.5
753.851	4.5
754.6	6.5
755.349	5.5
756.098	6.5
756.847	1.5
757.595	7.5
758.344	6.5
759.093	4.5
759.841	6.5
760.589	7.5
761.338	5.5
762.086	3.5
762.834	5.5
763.582	5.5
764.331	8.5
765.079	7.5
765.826	8.5
766.574	7.5
767.322	9.5
768.07	7.5
768.817	6.5
769.565	5.5
770.312	8.5
771.06	7.5
771.807	6.5
772.554	9.5
773.302	6.5
774.049	8.5
774.796	6.5
775.543	9.5
776.29	9.5
777.036	7.5
777.783	7.5
778.53	10.5
779.276	10.5
780.023	5.5
780.769	8.5
781.516	6.5
782.262	9.5
783.008	5.5
783.754	8.5
784.5	6.5
785.246	8.5
785.992	7.5
786.738	8.5
787.484	6.5
788.23	8.5
788.975	7.5
789.721	7.5
790.466	8.5
791.212	8.5
791.957	7.5
792.702	11.5
793.447	7.5
794.193	6.5
794.938	9.5
795.683	9.5
796.427	6.5
797.172	8.5
797.917	5.5
798.662	7.5
799.406	6.5
800.151	7.5
800.895	7.5
801.64	7.5
802.384	6.5
803.128	4.5
803.872	8.5
804.616	7.5
805.36	6.5
806.104	5.5
806.848	6.5
807.592	4.5
808.336	5.5
809.079	5.5
809.823	5.5
810.566	8.5
811.31	3.5
812.053	8.5
812.796	5.5
813.539	5.5
814.283	6.5
815.026	4.5
815.769	3.5
816.511	6.5
817.254	5.5
817.997	3.5
818.74	2.5
819.482	4.5
820.225	3.5
820.967	2.5
821.71	4.5
822.452	4.5
823.194	3.5
823.936	4.5
824.678	3.5
825.42	5.5
826.162	3.5
826.904	4.5
827.646	4.5
828.388	2.5
829.129	2.5
829.871	2.5
830.612	2.5
831.354	4.5
832.095	0.5
832.836	5.5
833.577	1.5
834.319	4.5
835.06	2.5
835.801	0.5
836.542	3.5
837.282	1.5
838.023	3.5
838.764	4.5
839.504	3.5
840.245	2.5
840.985	0.5
841.726	3.5
842.466	2.5
843.206	3.5
843.946	2.5
844.687	3.5
845.427	1.5
846.166	2.5
846.906	1.5
847.646	2.5
848.386	2.5
849.125	3.5
849.865	1.5
850.605	4.5
851.344	3.5
852.083	2.5
852.823	4.5
853.562	3.5
854.301	2.5
855.04	3.5
855.779	1.5
856.518	4.5
857.257	3.5
857.995	1.5
858.734	0.5
859.473	2.5
860.211	1.5
860.95	1.5
861.688	2.5
862.426	3.5
863.165	2.5
863.903	1.5
864.641	1.5
865.379	1.5
866.117	5.5
866.855	2.5
867.593	1.5
868.33	3.5
869.068	-0.5
869.806	3.5
870.543	0.5
871.28	0.5
872.018	0.5
872.755	1.5
873.492	1.5
874.229	1.5
874.967	-0.5
875.703	-0.5
876.44	-0.5
877.177	0.5
877.914	0.5
878.651	1.5
879.387	1.5
880.124	3.5
880.86	-0.5
881.597	1.5
882.333	0.5
883.069	0.5
883.806	0.5
884.542	2.5
885.278	1.5
886.014	0.5
886.749	0.5
887.485	-1.5
888.221	-0.5
888.957	1.5
889.692	0.5
890.428	0.5
891.163	1.5
891.899	1.5
892.634	0.5
893.369	-0.5
894.104	0.5
894.839	1.5
895.574	2.5
896.309	2.5
897.044	0.5
897.779	0.5
898.514	-1.5
899.248	1.5
899.983	0.5
900.717	1.5
901.452	-0.5
902.186	-0.5
902.92	-0.5
903.654	0.5
904.389	-0.5
905.123	-1.5
905.857	1.5
906.59	1.5
907.324	-1.5
908.058	1.5
908.792	-1.5
909.525	1.5
910.259	1.5
910.992	1.5
911.726	1.5
912.459	0.5
913.192	1.5
913.925	0.5
914.658	1.5
915.391	0.5
916.124	0.5
916.857	-0.5
917.59	-0.5
918.323	0.5
919.055	-2.5
919.788	0.5
920.521	0.5
921.253	-0.5
921.985	0.5
922.718	-0.5
923.45	1.5
924.182	0.5
924.914	-0.5
925.646	-1.5
926.378	-0.5
927.11	0.5
927.841	-0.5
928.573	1.5
929.305	0.5
930.036	-1.5
930.768	-2.5
931.499	0.5
932.23	-1.5
932.962	-0.5
933.693	-0.5
934.424	0.5
935.155	0.5
935.886	-0.5
936.617	-1.5
937.348	2.5
938.078	-0.5
938.809	-1.5
939.54	0.5
940.27	2.5
941.001	2.5
941.731	-0.5
942.461	2.5
943.191	0.5
943.922	-0.5
944.652	0.5
945.382	0.5
946.112	1.5
946.841	0.5
947.571	0.5
948.301	-0.5
949.031	2.5
949.76	0.5
950.49	-0.5
951.219	-0.5
951.948	0.5
952.678	-1.5
953.407	-0.5
954.136	0.5
954.865	1.5
955.594	1.5
956.323	-0.5
957.052	-0.5
957.78	-0.5
958.509	1.5
959.238	-0.5
959.966	0.5
960.695	-1.5
961.423	-0.5
962.151	1.5
962.88	1.5
963.608	1.5
964.336	-0.5
965.064	1.5
965.792	-1.5
966.52	-2.5
967.247	-2.5
967.975	-0.5
968.703	-0.5
969.43	-2.5
970.158	0.5
970.885	-2.5
971.613	-2.5
972.34	0.5
973.067	-1.5
973.794	-1.5
974.521	-1.5
975.248	-0.5
975.975	-0.5
976.702	1.5
977.429	0.5
978.156	-0.5
978.882	-0.5
979.609	0.5
980.335	0.5
981.062	0.5
981.788	-2.5
982.514	0.5
983.24	-0.5
983.967	-1.5
984.693	1.5
985.419	1.5
986.144	-1.5
986.87	0.5
987.596	-0.5
988.322	-0.5
989.047	1.5
989.773	0.5
990.498	0.5
991.224	2.5
991.949	-2.5
992.674	2.5
993.399	1.5
994.124	1.5
994.849	0.5
995.574	-0.5
996.299	-0.5
997.024	0.5
997.749	-0.5
998.473	1.5
999.198	0.5
999.922	0.5
1000.647	-1.5
1001.371	4.5
1002.095	-0.5
1002.82	-2.5
1003.544	-1.5
1004.268	1.5
1004.992	-0.5
1005.716	2.5
1006.439	1.5
1007.163	2.5
1007.887	-0.5
1008.611	0.5
1009.334	0.5
1010.058	0.5
1010.781	0.5
1011.504	-0.5
1012.228	2.5
1012.951	-1.5
1013.674	1.5
1014.397	0.5
1015.12	-0.5
