节点500_285_QEPB04081__206__14-58-59-083.txt的数据

Date: Wed Nov 12 14:58:59 CST 2025
User: PC
Spectrometer: QEPB0408
触发模式: 0
积分时间 (秒): 1.000000E-2
Scans to average: 1
启用暗噪声校正: true
启用非线性校正: false
滑动平均宽度: 0
X轴模式: Wavelengths
Number of Pixels in Spectrum: 1044
>>>>>Begin Spectral Data<<<<<
220.843	6.75
221.644	2.75
222.444	2.75
223.244	2.75
224.045	2.75
224.845	2.75
225.645	2.75
226.445	1.75
227.245	1.75
228.045	3.75
228.845	1.75
229.645	2.75
230.444	3.75
231.244	4.75
232.043	3.75
232.843	2.75
233.642	4.75
234.442	3.75
235.241	2.75
236.04	5.75
236.839	4.75
237.638	1.75
238.437	6.75
239.236	3.75
240.035	5.75
240.833	5.75
241.632	4.75
242.43	5.75
243.229	4.75
244.027	5.75
244.826	4.75
245.624	6.75
246.422	6.75
247.22	5.75
248.018	4.75
248.816	6.75
249.614	7.75
250.412	6.75
251.21	8.75
252.007	4.75
252.805	7.75
253.602	8.75
254.4	5.75
255.197	8.75
255.994	11.75
256.791	8.75
257.589	10.75
258.386	9.75
259.183	9.75
259.979	12.75
260.776	10.75
261.573	10.75
262.37	9.75
263.166	11.75
263.963	10.75
264.759	12.75
265.556	10.75
266.352	12.75
267.148	14.75
267.944	13.75
268.74	13.75
269.536	15.75
270.332	16.75
271.128	14.75
271.924	17.75
272.719	19.75
273.515	15.75
274.311	18.75
275.106	16.75
275.901	19.75
276.697	18.75
277.492	17.75
278.287	17.75
279.082	19.75
279.877	20.75
280.672	19.75
281.467	20.75
282.262	20.75
283.056	17.75
283.851	22.75
284.646	18.75
285.44	20.75
286.234	20.75
287.029	17.75
287.823	19.75
288.617	17.75
289.411	18.75
290.205	16.75
290.999	17.75
291.793	17.75
292.587	17.75
293.381	17.75
294.174	19.75
294.968	17.75
295.761	15.75
296.555	16.75
297.348	14.75
298.141	14.75
298.935	17.75
299.728	15.75
300.521	15.75
301.314	15.75
302.107	11.75
302.899	15.75
303.692	10.75
304.485	15.75
305.277	13.75
306.07	12.75
306.862	11.75
307.655	11.75
308.447	13.75
309.239	11.75
310.031	13.75
310.823	9.75
311.615	8.75
312.407	10.75
313.199	11.75
313.991	10.75
314.783	10.75
315.574	8.75
316.366	7.75
317.157	7.75
317.949	8.75
318.74	8.75
319.531	6.75
320.322	8.75
321.113	6.75
321.904	8.75
322.695	8.75
323.486	6.75
324.277	10.75
325.068	7.75
325.858	7.75
326.649	7.75
327.439	5.75
328.23	7.75
329.02	5.75
329.81	7.75
330.6	6.75
331.391	7.75
332.181	5.75
332.971	6.75
333.76	6.75
334.55	5.75
335.34	8.75
336.13	4.75
336.919	6.75
337.709	6.75
338.498	6.75
339.287	7.75
340.077	5.75
340.866	8.75
341.655	6.75
342.444	7.75
343.233	7.75
344.022	5.75
344.811	6.75
345.6	7.75
346.388	6.75
347.177	5.75
347.965	7.75
348.754	6.75
349.542	5.75
350.33	6.75
351.119	7.75
351.907	6.75
352.695	8.75
353.483	4.75
354.271	6.75
355.059	4.75
355.846	4.75
356.634	4.75
357.422	6.75
358.209	4.75
358.997	3.75
359.784	5.75
360.571	4.75
361.359	3.75
362.146	6.75
362.933	5.75
363.72	5.75
364.507	4.75
365.294	4.75
366.081	4.75
366.867	4.75
367.654	6.75
368.44	6.75
369.227	4.75
370.013	3.75
370.8	3.75
371.586	6.75
372.372	5.75
373.158	3.75
373.944	4.75
374.73	5.75
375.516	5.75
376.302	6.75
377.088	5.75
377.873	4.75
378.659	6.75
379.445	1.75
380.23	6.75
381.015	5.75
381.801	5.75
382.586	3.75
383.371	4.75
384.156	7.75
384.941	4.75
385.726	3.75
386.511	3.75
387.296	4.75
388.08	3.75
388.865	6.75
389.649	6.75
390.434	5.75
391.218	4.75
392.003	6.75
392.787	6.75
393.571	6.75
394.355	5.75
395.139	7.75
395.923	3.75
396.707	6.75
397.491	6.75
398.274	5.75
399.058	7.75
399.842	6.75
400.625	6.75
401.408	7.75
402.192	6.75
402.975	7.75
403.758	7.75
404.541	7.75
405.324	6.75
406.107	8.75
406.89	7.75
407.673	5.75
408.456	7.75
409.238	8.75
410.021	7.75
410.803	6.75
411.586	11.75
412.368	11.75
413.151	8.75
413.933	10.75
414.715	10.75
415.497	6.75
416.279	11.75
417.061	9.75
417.843	9.75
418.624	9.75
419.406	9.75
420.188	8.75
420.969	9.75
421.751	10.75
422.532	8.75
423.313	14.75
424.095	13.75
424.876	8.75
425.657	11.75
426.438	11.75
427.219	11.75
428	13.75
428.78	13.75
429.561	16.75
430.342	13.75
431.122	13.75
431.903	14.75
432.683	16.75
433.464	15.75
434.244	16.75
435.024	17.75
435.804	14.75
436.584	19.75
437.364	15.75
438.144	21.75
438.924	24.75
439.704	19.75
440.483	21.75
441.263	22.75
442.042	22.75
442.822	26.75
443.601	28.75
444.38	27.75
445.16	30.75
445.939	33.75
446.718	36.75
447.497	37.75
448.276	39.75
449.054	44.75
449.833	43.75
450.612	48.75
451.391	54.75
452.169	60.75
452.948	65.75
453.726	71.75
454.504	79.75
455.282	86.75
456.061	92.75
456.839	103.75
457.617	122.75
458.395	129.75
459.172	150.75
459.95	154.75
460.728	180.75
461.506	195.75
462.283	218.75
463.061	239.75
463.838	278.75
464.615	307.75
465.393	351.75
466.17	394.75
466.947	425.75
467.724	482.75
468.501	532.75
469.278	589.75
470.055	673.75
470.831	748.75
471.608	825.75
472.385	922.75
473.161	1035.75
473.938	1132.75
474.714	1270.75
475.49	1408.75
476.266	1534.75
477.043	1700.75
477.819	1903.75
478.595	2113.75
479.371	2319.75
480.146	2563.75
480.922	2855.75
481.698	3135.75
482.473	3468.75
483.249	3813.75
484.024	4219.75
484.8	4647.75
485.575	5113.75
486.35	5632.75
487.126	6187.75
487.901	6832.75
488.676	7472.75
489.451	8229.75
490.225	8995.75
491	9851.75
491.775	10754.75
492.55	11781.75
493.324	12789.75
494.099	13776.75
494.873	14808.75
495.647	16038.75
496.422	17236.75
497.196	18454.75
497.97	19657.75
498.744	20947.75
499.518	22060.75
500.292	23274.75
501.066	24359.75
501.839	25259.75
502.613	26125.75
503.387	26879.75
504.16	27389.75
504.934	27831.75
505.707	27832.75
506.48	27786.75
507.253	27707.75
508.027	27350.75
508.8	26978.75
509.573	26506.75
510.346	25694.75
511.118	24984.75
511.891	24038.75
512.664	23182.75
513.437	22279.75
514.209	21283.75
514.982	20383.75
515.754	19446.75
516.526	18568.75
517.298	17775.75
518.071	16991.75
518.843	16407.75
519.615	15724.75
520.387	15085.75
521.159	14483.75
521.93	13984.75
522.702	13332.75
523.474	12812.75
524.245	12258.75
525.017	11733.75
525.788	11250.75
526.56	10770.75
527.331	10225.75
528.102	9816.75
528.873	9356.75
529.644	8865.75
530.415	8406.75
531.186	7949.75
531.957	7538.75
532.728	7199.75
533.498	6783.75
534.269	6396.75
535.039	6013.75
535.81	5714.75
536.58	5391.75
537.351	5049.75
538.121	4824.75
538.891	4516.75
539.661	4287.75
540.431	4061.75
541.201	3823.75
541.971	3606.75
542.741	3471.75
543.51	3273.75
544.28	3125.75
545.05	2965.75
545.819	2803.75
546.588	2679.75
547.358	2527.75
548.127	2403.75
548.896	2281.75
549.665	2194.75
550.434	2042.75
551.203	1964.75
551.972	1864.75
552.741	1730.75
553.51	1648.75
554.278	1530.75
555.047	1465.75
555.815	1378.75
556.584	1304.75
557.352	1232.75
558.121	1164.75
558.889	1096.75
559.657	1031.75
560.425	981.75
561.193	915.75
561.961	873.75
562.729	820.75
563.496	778.75
564.264	727.75
565.032	709.75
565.799	669.75
566.567	626.75
567.334	583.75
568.101	564.75
568.869	527.75
569.636	493.75
570.403	462.75
571.17	435.75
571.937	416.75
572.704	395.75
573.471	365.75
574.237	349.75
575.004	322.75
575.771	311.75
576.537	289.75
577.303	267.75
578.07	253.75
578.836	246.75
579.602	225.75
580.368	219.75
581.134	206.75
581.9	190.75
582.666	183.75
583.432	168.75
584.198	166.75
584.964	156.75
585.729	147.75
586.495	141.75
587.26	134.75
588.025	126.75
588.791	116.75
589.556	110.75
590.321	107.75
591.086	100.75
591.851	98.75
592.616	88.75
593.381	89.75
594.146	77.75
594.911	80.75
595.675	77.75
596.44	73.75
597.204	70.75
597.969	68.75
598.733	62.75
599.497	58.75
600.261	56.75
601.025	59.75
601.79	53.75
602.553	49.75
603.317	51.75
604.081	45.75
604.845	42.75
605.609	41.75
606.372	40.75
607.136	40.75
607.899	36.75
608.662	35.75
609.426	36.75
610.189	33.75
610.952	31.75
611.715	31.75
612.478	30.75
613.241	28.75
614.004	29.75
614.767	27.75
615.529	25.75
616.292	23.75
617.055	24.75
617.817	22.75
618.579	22.75
619.342	22.75
620.104	21.75
620.866	20.75
621.628	19.75
622.39	21.75
623.152	17.75
623.914	16.75
624.676	15.75
625.438	15.75
626.199	13.75
626.961	17.75
627.722	15.75
628.484	15.75
629.245	12.75
630.006	12.75
630.768	13.75
631.529	12.75
632.29	10.75
633.051	12.75
633.812	12.75
634.573	13.75
635.333	13.75
636.094	12.75
636.855	8.75
637.615	12.75
638.376	9.75
639.136	10.75
639.896	7.75
640.657	9.75
641.417	7.75
642.177	9.75
642.937	11.75
643.697	9.75
644.457	8.75
645.216	9.75
645.976	5.75
646.736	7.75
647.495	7.75
648.255	6.75
649.014	7.75
649.774	7.75
650.533	8.75
651.292	6.75
652.051	7.75
652.81	5.75
653.569	5.75
654.328	7.75
655.087	3.75
655.846	7.75
656.604	6.75
657.363	7.75
658.121	4.75
658.88	4.75
659.638	6.75
660.397	4.75
661.155	5.75
661.913	6.75
662.671	5.75
663.429	7.75
664.187	5.75
664.945	4.75
665.703	4.75
666.46	4.75
667.218	5.75
667.976	4.75
668.733	3.75
669.49	3.75
670.248	4.75
671.005	5.75
671.762	5.75
672.519	2.75
673.276	4.75
674.033	4.75
674.79	4.75
675.547	2.75
676.304	4.75
677.06	5.75
677.817	2.75
678.574	6.75
679.33	4.75
680.086	3.75
680.843	3.75
681.599	4.75
682.355	4.75
683.111	3.75
683.867	4.75
684.623	5.75
685.379	3.75
686.135	4.75
686.89	3.75
687.646	2.75
688.402	3.75
689.157	4.75
689.912	1.75
690.668	3.75
691.423	4.75
692.178	6.75
692.933	4.75
693.688	1.75
694.443	1.75
695.198	6.75
695.953	4.75
696.708	5.75
697.462	3.75
698.217	3.75
698.972	3.75
699.726	3.75
700.48	2.75
701.235	5.75
701.989	4.75
702.743	5.75
703.497	5.75
704.251	8.75
705.005	3.75
705.759	2.75
706.513	3.75
707.266	4.75
708.02	4.75
708.774	5.75
709.527	3.75
710.28	2.75
711.034	2.75
711.787	4.75
712.54	2.75
713.293	5.75
714.046	4.75
714.799	4.75
715.552	7.75
716.305	1.75
717.058	4.75
717.81	3.75
718.563	2.75
719.315	5.75
720.068	4.75
720.82	5.75
721.573	3.75
722.325	2.75
723.077	3.75
723.829	4.75
724.581	3.75
725.333	5.75
726.085	4.75
726.836	2.75
727.588	6.75
728.34	5.75
729.091	2.75
729.843	4.75
730.594	3.75
731.346	3.75
732.097	2.75
732.848	5.75
733.599	2.75
734.35	6.75
735.101	4.75
735.852	3.75
736.603	4.75
737.354	4.75
738.104	4.75
738.855	6.75
739.605	1.75
740.356	5.75
741.106	3.75
741.856	1.75
742.607	5.75
743.357	4.75
744.107	3.75
744.857	5.75
745.607	5.75
746.357	4.75
747.106	6.75
747.856	4.75
748.606	2.75
749.355	6.75
750.105	0.75
750.854	5.75
751.603	7.75
752.353	7.75
753.102	6.75
753.851	1.75
754.6	6.75
755.349	6.75
756.098	4.75
756.847	5.75
757.595	4.75
758.344	6.75
759.093	5.75
759.841	6.75
760.589	4.75
761.338	5.75
762.086	6.75
762.834	5.75
763.582	7.75
764.331	8.75
765.079	7.75
765.826	6.75
766.574	7.75
767.322	8.75
768.07	5.75
768.817	9.75
769.565	7.75
770.312	6.75
771.06	8.75
771.807	8.75
772.554	8.75
773.302	8.75
774.049	6.75
774.796	8.75
775.543	8.75
776.29	8.75
777.036	6.75
777.783	8.75
778.53	9.75
779.276	8.75
780.023	7.75
780.769	8.75
781.516	7.75
782.262	9.75
783.008	7.75
783.754	9.75
784.5	8.75
785.246	8.75
785.992	7.75
786.738	9.75
787.484	9.75
788.23	8.75
788.975	9.75
789.721	10.75
790.466	8.75
791.212	7.75
791.957	11.75
792.702	7.75
793.447	6.75
794.193	8.75
794.938	6.75
795.683	8.75
796.427	9.75
797.172	6.75
797.917	9.75
798.662	6.75
799.406	9.75
800.151	8.75
800.895	11.75
801.64	8.75
802.384	8.75
803.128	8.75
803.872	5.75
804.616	9.75
805.36	5.75
806.104	6.75
806.848	5.75
807.592	8.75
808.336	6.75
809.079	6.75
809.823	5.75
810.566	4.75
811.31	5.75
812.053	6.75
812.796	5.75
813.539	7.75
814.283	4.75
815.026	7.75
815.769	4.75
816.511	7.75
817.254	5.75
817.997	3.75
818.74	7.75
819.482	6.75
820.225	2.75
820.967	5.75
821.71	5.75
822.452	7.75
823.194	4.75
823.936	6.75
824.678	2.75
825.42	4.75
826.162	5.75
826.904	3.75
827.646	4.75
828.388	3.75
829.129	3.75
829.871	4.75
830.612	4.75
831.354	5.75
832.095	2.75
832.836	3.75
833.577	1.75
834.319	2.75
835.06	2.75
835.801	3.75
836.542	4.75
837.282	4.75
838.023	5.75
838.764	2.75
839.504	2.75
840.245	2.75
840.985	3.75
841.726	4.75
842.466	1.75
843.206	3.75
843.946	5.75
844.687	2.75
845.427	3.75
846.166	2.75
846.906	3.75
847.646	-0.25
848.386	1.75
849.125	2.75
849.865	0.75
850.605	1.75
851.344	3.75
852.083	4.75
852.823	2.75
853.562	2.75
854.301	1.75
855.04	2.75
855.779	1.75
856.518	-0.25
857.257	2.75
857.995	1.75
858.734	1.75
859.473	2.75
860.211	0.75
860.95	2.75
861.688	1.75
862.426	1.75
863.165	2.75
863.903	0.75
864.641	3.75
865.379	1.75
866.117	2.75
866.855	1.75
867.593	1.75
868.33	2.75
869.068	3.75
869.806	2.75
870.543	3.75
871.28	0.75
872.018	2.75
872.755	0.75
873.492	2.75
874.229	1.75
874.967	2.75
875.703	2.75
876.44	3.75
877.177	1.75
877.914	1.75
878.651	0.75
879.387	2.75
880.124	0.75
880.86	1.75
881.597	-0.25
882.333	0.75
883.069	0.75
883.806	-0.25
884.542	1.75
885.278	2.75
886.014	2.75
886.749	-0.25
887.485	0.75
888.221	3.75
888.957	-1.25
889.692	-0.25
890.428	-0.25
891.163	2.75
891.899	1.75
892.634	1.75
893.369	-0.25
894.104	0.75
894.839	1.75
895.574	0.75
896.309	-0.25
897.044	0.75
897.779	0.75
898.514	0.75
899.248	1.75
899.983	1.75
900.717	1.75
901.452	-0.25
902.186	3.75
902.92	1.75
903.654	0.75
904.389	0.75
905.123	-0.25
905.857	0.75
906.59	-1.25
907.324	0.75
908.058	0.75
908.792	0.75
909.525	1.75
910.259	0.75
910.992	-0.25
911.726	1.75
912.459	0.75
913.192	1.75
913.925	1.75
914.658	1.75
915.391	1.75
916.124	0.75
916.857	1.75
917.59	-0.25
918.323	1.75
919.055	-0.25
919.788	2.75
920.521	0.75
921.253	-0.25
921.985	-1.25
922.718	-0.25
923.45	2.75
924.182	0.75
924.914	1.75
925.646	-0.25
926.378	1.75
927.11	1.75
927.841	-0.25
928.573	3.75
929.305	-1.25
930.036	1.75
930.768	0.75
931.499	0.75
932.23	-0.25
932.962	-0.25
933.693	1.75
934.424	-0.25
935.155	0.75
935.886	0.75
936.617	0.75
937.348	1.75
938.078	0.75
938.809	4.75
939.54	-0.25
940.27	0.75
941.001	-0.25
941.731	1.75
942.461	1.75
943.191	0.75
943.922	-0.25
944.652	1.75
945.382	1.75
946.112	-0.25
946.841	-1.25
947.571	3.75
948.301	-2.25
949.031	0.75
949.76	-0.25
950.49	2.75
951.219	0.75
951.948	-0.25
952.678	0.75
953.407	0.75
954.136	-0.25
954.865	-0.25
955.594	-2.25
956.323	0.75
957.052	-1.25
957.78	1.75
958.509	0.75
959.238	-1.25
959.966	1.75
960.695	-2.25
961.423	1.75
962.151	-0.25
962.88	1.75
963.608	0.75
964.336	0.75
965.064	1.75
965.792	0.75
966.52	-0.25
967.247	1.75
967.975	1.75
968.703	0.75
969.43	0.75
970.158	-0.25
970.885	-2.25
971.613	-0.25
972.34	1.75
973.067	0.75
973.794	0.75
974.521	-0.25
975.248	0.75
975.975	-2.25
976.702	-1.25
977.429	0.75
978.156	-0.25
978.882	-0.25
979.609	-1.25
980.335	1.75
981.062	1.75
981.788	0.75
982.514	-0.25
983.24	0.75
983.967	1.75
984.693	-0.25
985.419	0.75
986.144	-0.25
986.87	-0.25
987.596	1.75
988.322	-2.25
989.047	-0.25
989.773	-0.25
990.498	2.75
991.224	-0.25
991.949	-0.25
992.674	-0.25
993.399	0.75
994.124	0.75
994.849	-0.25
995.574	-0.25
996.299	3.75
997.024	-1.25
997.749	-1.25
998.473	-0.25
999.198	1.75
999.922	1.75
1000.647	0.75
1001.371	2.75
1002.095	-0.25
1002.82	-1.25
1003.544	-1.25
1004.268	-1.25
1004.992	0.75
1005.716	1.75
1006.439	-0.25
1007.163	2.75
1007.887	-0.25
1008.611	-0.25
1009.334	0.75
1010.058	1.75
1010.781	1.75
1011.504	0.75
1012.228	-0.25
1012.951	-2.25
1013.674	0.75
1014.397	-1.25
1015.12	2.75
