节点500_285_QEPB04081__331__15-01-03-708.txt的数据

Date: Wed Nov 12 15:01:03 CST 2025
User: PC
Spectrometer: QEPB0408
触发模式: 0
积分时间 (秒): 1.000000E-2
Scans to average: 1
启用暗噪声校正: true
启用非线性校正: false
滑动平均宽度: 0
X轴模式: Wavelengths
Number of Pixels in Spectrum: 1044
>>>>>Begin Spectral Data<<<<<
220.843	3
221.644	2
222.444	3
223.244	2
224.045	3
224.845	5
225.645	3
226.445	4
227.245	1
228.045	3
228.845	5
229.645	2
230.444	5
231.244	4
232.043	3
232.843	4
233.642	4
234.442	5
235.241	4
236.04	6
236.839	5
237.638	5
238.437	6
239.236	3
240.035	5
240.833	3
241.632	5
242.43	2
243.229	6
244.027	6
244.826	4
245.624	6
246.422	4
247.22	4
248.018	9
248.816	6
249.614	6
250.412	7
251.21	6
252.007	6
252.805	8
253.602	7
254.4	10
255.197	7
255.994	6
256.791	9
257.589	8
258.386	8
259.183	9
259.979	9
260.776	12
261.573	9
262.37	10
263.166	9
263.963	12
264.759	10
265.556	13
266.352	13
267.148	13
267.944	14
268.74	16
269.536	16
270.332	15
271.128	16
271.924	16
272.719	15
273.515	18
274.311	16
275.106	18
275.901	20
276.697	16
277.492	18
278.287	16
279.082	19
279.877	18
280.672	17
281.467	18
282.262	21
283.056	18
283.851	19
284.646	17
285.44	20
286.234	18
287.029	19
287.823	21
288.617	19
289.411	21
290.205	18
290.999	17
291.793	16
292.587	17
293.381	19
294.174	16
294.968	16
295.761	16
296.555	15
297.348	18
298.141	18
298.935	19
299.728	16
300.521	17
301.314	15
302.107	14
302.899	14
303.692	10
304.485	14
305.277	13
306.07	16
306.862	13
307.655	12
308.447	12
309.239	11
310.031	12
310.823	11
311.615	12
312.407	8
313.199	11
313.991	10
314.783	10
315.574	10
316.366	10
317.157	8
317.949	10
318.74	7
319.531	9
320.322	8
321.113	8
321.904	7
322.695	7
323.486	8
324.277	5
325.068	10
325.858	7
326.649	10
327.439	7
328.23	6
329.02	5
329.81	9
330.6	8
331.391	8
332.181	7
332.971	8
333.76	6
334.55	6
335.34	6
336.13	8
336.919	7
337.709	6
338.498	7
339.287	7
340.077	8
340.866	6
341.655	8
342.444	7
343.233	6
344.022	9
344.811	5
345.6	8
346.388	8
347.177	9
347.965	6
348.754	7
349.542	7
350.33	7
351.119	6
351.907	6
352.695	6
353.483	5
354.271	5
355.059	6
355.846	3
356.634	4
357.422	7
358.209	5
358.997	7
359.784	7
360.571	6
361.359	7
362.146	5
362.933	7
363.72	7
364.507	6
365.294	5
366.081	6
366.867	4
367.654	6
368.44	6
369.227	5
370.013	5
370.8	6
371.586	5
372.372	4
373.158	7
373.944	6
374.73	4
375.516	6
376.302	9
377.088	2
377.873	4
378.659	7
379.445	7
380.23	7
381.015	6
381.801	4
382.586	5
383.371	4
384.156	5
384.941	6
385.726	5
386.511	5
387.296	7
388.08	6
388.865	12
389.649	7
390.434	6
391.218	6
392.003	4
392.787	7
393.571	6
394.355	7
395.139	8
395.923	7
396.707	6
397.491	4
398.274	7
399.058	6
399.842	8
400.625	7
401.408	7
402.192	9
402.975	5
403.758	8
404.541	10
405.324	7
406.107	9
406.89	9
407.673	10
408.456	9
409.238	9
410.021	8
410.803	7
411.586	10
412.368	8
413.151	11
413.933	7
414.715	11
415.497	10
416.279	9
417.061	11
417.843	9
418.624	13
419.406	9
420.188	13
420.969	10
421.751	10
422.532	12
423.313	10
424.095	12
424.876	13
425.657	13
426.438	12
427.219	12
428	14
428.78	13
429.561	14
430.342	13
431.122	14
431.903	16
432.683	14
433.464	15
434.244	16
435.024	17
435.804	20
436.584	20
437.364	18
438.144	21
438.924	21
439.704	22
440.483	23
441.263	22
442.042	23
442.822	23
443.601	27
444.38	29
445.16	31
445.939	33
446.718	37
447.497	37
448.276	43
449.054	46
449.833	48
450.612	58
451.391	56
452.169	62
452.948	68
453.726	73
454.504	88
455.282	89
456.061	104
456.839	111
457.617	119
458.395	134
459.172	149
459.95	170
460.728	188
461.506	208
462.283	229
463.061	263
463.838	286
464.615	324
465.393	352
466.17	396
466.947	457
467.724	494
468.501	563
469.278	613
470.055	684
470.831	764
471.608	853
472.385	944
473.161	1049
473.938	1175
474.714	1295
475.49	1425
476.266	1593
477.043	1742
477.819	1940
478.595	2119
479.371	2368
480.146	2584
480.922	2861
481.698	3149
482.473	3473
483.249	3805
484.024	4226
484.8	4642
485.575	5062
486.35	5595
487.126	6151
487.901	6700
488.676	7381
489.451	8077
490.225	8813
491	9641
491.775	10557
492.55	11513
493.324	12452
494.099	13392
494.873	14483
495.647	15556
496.422	16793
497.196	17960
497.97	19166
498.744	20357
499.518	21518
500.292	22650
501.066	23695
501.839	24631
502.613	25574
503.387	26365
504.16	26938
504.934	27321
505.707	27476
506.48	27578
507.253	27401
508.027	27168
508.8	26860
509.573	26465
510.346	25808
511.118	24988
511.891	24222
512.664	23408
513.437	22457
514.209	21593
514.982	20733
515.754	19788
516.526	18937
517.298	18043
518.071	17274
518.843	16560
519.615	15931
520.387	15323
521.159	14713
521.93	14104
522.702	13582
523.474	12969
524.245	12421
525.017	11872
525.788	11454
526.56	10936
527.331	10416
528.102	9961
528.873	9509
529.644	9000
530.415	8609
531.186	8132
531.957	7748
532.728	7375
533.498	6963
534.269	6556
535.039	6192
535.81	5869
536.58	5522
537.351	5218
538.121	4949
538.891	4680
539.661	4401
540.431	4160
541.201	3937
541.971	3719
542.741	3535
543.51	3360
544.28	3200
545.05	3069
545.819	2891
546.588	2735
547.358	2597
548.127	2480
548.896	2360
549.665	2243
550.434	2119
551.203	2001
551.972	1899
552.741	1782
553.51	1693
554.278	1586
555.047	1507
555.815	1413
556.584	1354
557.352	1275
558.121	1198
558.889	1123
559.657	1064
560.425	1027
561.193	959
561.961	894
562.729	853
563.496	808
564.264	753
565.032	720
565.799	671
566.567	643
567.334	612
568.101	567
568.869	539
569.636	508
570.403	477
571.17	450
571.937	427
572.704	407
573.471	377
574.237	362
575.004	340
575.771	318
576.537	297
577.303	285
578.07	269
578.836	247
579.602	236
580.368	221
581.134	208
581.9	200
582.666	198
583.432	181
584.198	172
584.964	159
585.729	155
586.495	147
587.26	140
588.025	134
588.791	117
589.556	118
590.321	114
591.086	100
591.851	102
592.616	92
593.381	88
594.146	87
594.911	86
595.675	82
596.44	75
597.204	69
597.969	67
598.733	65
599.497	63
600.261	59
601.025	57
601.79	57
602.553	53
603.317	49
604.081	49
604.845	49
605.609	44
606.372	42
607.136	40
607.899	39
608.662	38
609.426	35
610.189	32
610.952	33
611.715	34
612.478	30
613.241	28
614.004	28
614.767	26
615.529	28
616.292	26
617.055	23
617.817	23
618.579	22
619.342	22
620.104	23
620.866	21
621.628	18
622.39	20
623.152	21
623.914	17
624.676	18
625.438	16
626.199	17
626.961	14
627.722	14
628.484	17
629.245	16
630.006	15
630.768	13
631.529	15
632.29	13
633.051	14
633.812	12
634.573	12
635.333	11
636.094	13
636.855	10
637.615	9
638.376	7
639.136	10
639.896	10
640.657	11
641.417	11
642.177	9
642.937	8
643.697	11
644.457	7
645.216	10
645.976	8
646.736	6
647.495	8
648.255	9
649.014	8
649.774	8
650.533	10
651.292	8
652.051	7
652.81	5
653.569	8
654.328	7
655.087	7
655.846	7
656.604	8
657.363	5
658.121	5
658.88	6
659.638	5
660.397	7
661.155	5
661.913	6
662.671	4
663.429	7
664.187	6
664.945	5
665.703	5
666.46	5
667.218	4
667.976	6
668.733	7
669.49	4
670.248	6
671.005	4
671.762	6
672.519	4
673.276	7
674.033	5
674.79	7
675.547	4
676.304	4
677.06	4
677.817	2
678.574	4
679.33	5
680.086	1
680.843	3
681.599	5
682.355	2
683.111	5
683.867	2
684.623	5
685.379	4
686.135	7
686.89	4
687.646	4
688.402	5
689.157	4
689.912	1
690.668	2
691.423	7
692.178	4
692.933	5
693.688	4
694.443	2
695.198	3
695.953	2
696.708	4
697.462	4
698.217	4
698.972	6
699.726	4
700.48	3
701.235	4
701.989	4
702.743	5
703.497	3
704.251	8
705.005	4
705.759	6
706.513	3
707.266	4
708.02	6
708.774	2
709.527	5
710.28	3
711.034	6
711.787	5
712.54	4
713.293	5
714.046	2
714.799	4
715.552	4
716.305	3
717.058	4
717.81	5
718.563	4
719.315	3
720.068	2
720.82	5
721.573	6
722.325	4
723.077	4
723.829	6
724.581	4
725.333	5
726.085	6
726.836	3
727.588	3
728.34	5
729.091	5
729.843	6
730.594	5
731.346	7
732.097	3
732.848	6
733.599	3
734.35	5
735.101	5
735.852	4
736.603	6
737.354	5
738.104	6
738.855	6
739.605	5
740.356	4
741.106	4
741.856	5
742.607	4
743.357	7
744.107	4
744.857	3
745.607	6
746.357	5
747.106	5
747.856	5
748.606	6
749.355	4
750.105	7
750.854	7
751.603	4
752.353	6
753.102	4
753.851	6
754.6	4
755.349	4
756.098	6
756.847	5
757.595	6
758.344	6
759.093	4
759.841	7
760.589	6
761.338	6
762.086	6
762.834	8
763.582	5
764.331	6
765.079	7
765.826	5
766.574	7
767.322	8
768.07	9
768.817	8
769.565	8
770.312	8
771.06	9
771.807	8
772.554	7
773.302	6
774.049	9
774.796	8
775.543	5
776.29	7
777.036	12
777.783	9
778.53	10
779.276	10
780.023	9
780.769	10
781.516	10
782.262	8
783.008	9
783.754	9
784.5	7
785.246	10
785.992	8
786.738	10
787.484	8
788.23	11
788.975	9
789.721	11
790.466	10
791.212	9
791.957	10
792.702	7
793.447	9
794.193	11
794.938	9
795.683	7
796.427	6
797.172	8
797.917	7
798.662	8
799.406	6
800.151	8
800.895	9
801.64	9
802.384	9
803.128	7
803.872	7
804.616	9
805.36	7
806.104	9
806.848	8
807.592	8
808.336	5
809.079	4
809.823	5
810.566	6
811.31	7
812.053	7
812.796	7
813.539	6
814.283	6
815.026	5
815.769	6
816.511	6
817.254	5
817.997	6
818.74	3
819.482	4
820.225	4
820.967	4
821.71	5
822.452	7
823.194	3
823.936	4
824.678	3
825.42	4
826.162	4
826.904	4
827.646	6
828.388	6
829.129	3
829.871	5
830.612	3
831.354	4
832.095	3
832.836	6
833.577	2
834.319	4
835.06	1
835.801	5
836.542	3
837.282	4
838.023	6
838.764	4
839.504	3
840.245	2
840.985	4
841.726	2
842.466	2
843.206	4
843.946	2
844.687	4
845.427	1
846.166	2
846.906	5
847.646	3
848.386	3
849.125	-1
849.865	3
850.605	2
851.344	4
852.083	1
852.823	4
853.562	3
854.301	4
855.04	4
855.779	4
856.518	3
857.257	3
857.995	2
858.734	2
859.473	2
860.211	3
860.95	2
861.688	2
862.426	1
863.165	1
863.903	3
864.641	2
865.379	2
866.117	3
866.855	4
867.593	2
868.33	0
869.068	2
869.806	4
870.543	2
871.28	2
872.018	2
872.755	3
873.492	1
874.229	3
874.967	4
875.703	2
876.44	0
877.177	1
877.914	1
878.651	2
879.387	3
880.124	3
880.86	0
881.597	1
882.333	0
883.069	2
883.806	0
884.542	2
885.278	2
886.014	1
886.749	1
887.485	1
888.221	2
888.957	-1
889.692	0
890.428	4
891.163	-1
891.899	3
892.634	2
893.369	2
894.104	2
894.839	1
895.574	0
896.309	3
897.044	2
897.779	3
898.514	2
899.248	3
899.983	1
900.717	1
901.452	2
902.186	0
902.92	-1
903.654	3
904.389	0
905.123	2
905.857	1
906.59	0
907.324	2
908.058	0
908.792	-1
909.525	2
910.259	-1
910.992	2
911.726	1
912.459	1
913.192	0
913.925	2
914.658	2
915.391	2
916.124	3
916.857	0
917.59	1
918.323	4
919.055	1
919.788	2
920.521	1
921.253	1
921.985	0
922.718	0
923.45	0
924.182	-1
924.914	2
925.646	1
926.378	0
927.11	1
927.841	0
928.573	3
929.305	-1
930.036	3
930.768	2
931.499	3
932.23	1
932.962	0
933.693	0
934.424	0
935.155	0
935.886	-1
936.617	2
937.348	0
938.078	1
938.809	1
939.54	1
940.27	2
941.001	0
941.731	0
942.461	3
943.191	0
943.922	1
944.652	2
945.382	1
946.112	4
946.841	0
947.571	2
948.301	1
949.031	0
949.76	2
950.49	-2
951.219	2
951.948	2
952.678	-1
953.407	1
954.136	-1
954.865	3
955.594	0
956.323	2
957.052	1
957.78	3
958.509	2
959.238	0
959.966	-1
960.695	1
961.423	0
962.151	3
962.88	1
963.608	2
964.336	1
965.064	2
965.792	2
966.52	1
967.247	2
967.975	2
968.703	1
969.43	0
970.158	2
970.885	1
971.613	0
972.34	1
973.067	-2
973.794	3
974.521	1
975.248	0
975.975	-1
976.702	1
977.429	0
978.156	0
978.882	0
979.609	1
980.335	1
981.062	2
981.788	-1
982.514	-1
983.24	0
983.967	1
984.693	0
985.419	0
986.144	2
986.87	1
987.596	1
988.322	1
989.047	2
989.773	2
990.498	-1
991.224	2
991.949	-2
992.674	1
993.399	0
994.124	3
994.849	0
995.574	0
996.299	0
997.024	-2
997.749	0
998.473	3
999.198	0
999.922	-1
1000.647	0
1001.371	4
1002.095	-3
1002.82	0
1003.544	1
1004.268	0
1004.992	2
1005.716	0
1006.439	0
1007.163	4
1007.887	2
1008.611	1
1009.334	2
1010.058	0
1010.781	0
1011.504	-1
1012.228	-1
1012.951	0
1013.674	-3
1014.397	1
1015.12	0
