节点500_285_QEPB04081__642__15-06-14-054.txt的数据

Date: Wed Nov 12 15:06:14 CST 2025
User: PC
Spectrometer: QEPB0408
触发模式: 0
积分时间 (秒): 1.000000E-2
Scans to average: 1
启用暗噪声校正: true
启用非线性校正: false
滑动平均宽度: 0
X轴模式: Wavelengths
Number of Pixels in Spectrum: 1044
>>>>>Begin Spectral Data<<<<<
220.843	1.5
221.644	1.5
222.444	1.5
223.244	0.5
224.045	1.5
224.845	-0.5
225.645	2.5
226.445	1.5
227.245	0.5
228.045	1.5
228.845	-0.5
229.645	1.5
230.444	2.5
231.244	4.5
232.043	1.5
232.843	1.5
233.642	2.5
234.442	1.5
235.241	1.5
236.04	5.5
236.839	2.5
237.638	4.5
238.437	2.5
239.236	6.5
240.035	4.5
240.833	5.5
241.632	6.5
242.43	3.5
243.229	2.5
244.027	4.5
244.826	5.5
245.624	4.5
246.422	3.5
247.22	4.5
248.018	5.5
248.816	6.5
249.614	6.5
250.412	5.5
251.21	6.5
252.007	6.5
252.805	5.5
253.602	6.5
254.4	6.5
255.197	5.5
255.994	8.5
256.791	5.5
257.589	7.5
258.386	8.5
259.183	6.5
259.979	9.5
260.776	8.5
261.573	8.5
262.37	9.5
263.166	9.5
263.963	11.5
264.759	9.5
265.556	9.5
266.352	10.5
267.148	10.5
267.944	13.5
268.74	11.5
269.536	14.5
270.332	12.5
271.128	15.5
271.924	13.5
272.719	14.5
273.515	13.5
274.311	13.5
275.106	18.5
275.901	15.5
276.697	15.5
277.492	14.5
278.287	17.5
279.082	15.5
279.877	16.5
280.672	17.5
281.467	17.5
282.262	17.5
283.056	15.5
283.851	17.5
284.646	18.5
285.44	14.5
286.234	16.5
287.029	13.5
287.823	17.5
288.617	17.5
289.411	15.5
290.205	17.5
290.999	13.5
291.793	18.5
292.587	18.5
293.381	17.5
294.174	17.5
294.968	15.5
295.761	17.5
296.555	16.5
297.348	14.5
298.141	16.5
298.935	16.5
299.728	13.5
300.521	13.5
301.314	14.5
302.107	13.5
302.899	11.5
303.692	11.5
304.485	12.5
305.277	13.5
306.07	11.5
306.862	13.5
307.655	12.5
308.447	13.5
309.239	12.5
310.031	8.5
310.823	10.5
311.615	8.5
312.407	8.5
313.199	12.5
313.991	9.5
314.783	10.5
315.574	8.5
316.366	8.5
317.157	8.5
317.949	11.5
318.74	9.5
319.531	7.5
320.322	8.5
321.113	7.5
321.904	7.5
322.695	8.5
323.486	6.5
324.277	8.5
325.068	4.5
325.858	6.5
326.649	6.5
327.439	6.5
328.23	6.5
329.02	8.5
329.81	6.5
330.6	4.5
331.391	8.5
332.181	7.5
332.971	4.5
333.76	6.5
334.55	4.5
335.34	5.5
336.13	6.5
336.919	5.5
337.709	6.5
338.498	6.5
339.287	5.5
340.077	2.5
340.866	6.5
341.655	2.5
342.444	6.5
343.233	5.5
344.022	6.5
344.811	4.5
345.6	5.5
346.388	6.5
347.177	5.5
347.965	8.5
348.754	4.5
349.542	5.5
350.33	5.5
351.119	5.5
351.907	6.5
352.695	6.5
353.483	4.5
354.271	8.5
355.059	4.5
355.846	4.5
356.634	3.5
357.422	5.5
358.209	4.5
358.997	5.5
359.784	5.5
360.571	4.5
361.359	5.5
362.146	5.5
362.933	5.5
363.72	6.5
364.507	1.5
365.294	6.5
366.081	3.5
366.867	3.5
367.654	5.5
368.44	2.5
369.227	3.5
370.013	3.5
370.8	6.5
371.586	5.5
372.372	4.5
373.158	4.5
373.944	4.5
374.73	6.5
375.516	2.5
376.302	4.5
377.088	5.5
377.873	3.5
378.659	5.5
379.445	3.5
380.23	2.5
381.015	4.5
381.801	4.5
382.586	3.5
383.371	6.5
384.156	5.5
384.941	3.5
385.726	3.5
386.511	3.5
387.296	6.5
388.08	5.5
388.865	5.5
389.649	5.5
390.434	6.5
391.218	6.5
392.003	3.5
392.787	4.5
393.571	6.5
394.355	5.5
395.139	6.5
395.923	6.5
396.707	6.5
397.491	6.5
398.274	6.5
399.058	4.5
399.842	6.5
400.625	7.5
401.408	7.5
402.192	7.5
402.975	9.5
403.758	7.5
404.541	6.5
405.324	4.5
406.107	6.5
406.89	8.5
407.673	8.5
408.456	7.5
409.238	6.5
410.021	9.5
410.803	6.5
411.586	10.5
412.368	7.5
413.151	8.5
413.933	8.5
414.715	9.5
415.497	8.5
416.279	9.5
417.061	8.5
417.843	8.5
418.624	10.5
419.406	9.5
420.188	6.5
420.969	10.5
421.751	9.5
422.532	9.5
423.313	9.5
424.095	9.5
424.876	11.5
425.657	9.5
426.438	10.5
427.219	12.5
428	13.5
428.78	11.5
429.561	13.5
430.342	13.5
431.122	10.5
431.903	12.5
432.683	13.5
433.464	15.5
434.244	13.5
435.024	15.5
435.804	20.5
436.584	15.5
437.364	19.5
438.144	18.5
438.924	21.5
439.704	21.5
440.483	22.5
441.263	23.5
442.042	23.5
442.822	25.5
443.601	28.5
444.38	31.5
445.16	34.5
445.939	38.5
446.718	36.5
447.497	36.5
448.276	41.5
449.054	49.5
449.833	52.5
450.612	55.5
451.391	58.5
452.169	68.5
452.948	72.5
453.726	79.5
454.504	86.5
455.282	99.5
456.061	111.5
456.839	119.5
457.617	129.5
458.395	147.5
459.172	164.5
459.95	179.5
460.728	199.5
461.506	225.5
462.283	253.5
463.061	277.5
463.838	317.5
464.615	347.5
465.393	389.5
466.17	428.5
466.947	474.5
467.724	531.5
468.501	594.5
469.278	665.5
470.055	720.5
470.831	804.5
471.608	894.5
472.385	980.5
473.161	1081.5
473.938	1195.5
474.714	1321.5
475.49	1455.5
476.266	1613.5
477.043	1762.5
477.819	1946.5
478.595	2130.5
479.371	2361.5
480.146	2579.5
480.922	2813.5
481.698	3104.5
482.473	3397.5
483.249	3688.5
484.024	4060.5
484.8	4450.5
485.575	4835.5
486.35	5261.5
487.126	5768.5
487.901	6340.5
488.676	6904.5
489.451	7504.5
490.225	8180.5
491	8900.5
491.775	9670.5
492.55	10489.5
493.324	11358.5
494.099	12206.5
494.873	13131.5
495.647	14104.5
496.422	15095.5
497.196	16147.5
497.97	17237.5
498.744	18300.5
499.518	19437.5
500.292	20489.5
501.066	21516.5
501.839	22476.5
502.613	23417.5
503.387	24202.5
504.16	24880.5
504.934	25255.5
505.707	25664.5
506.48	25829.5
507.253	25833.5
508.027	25902.5
508.8	25776.5
509.573	25581.5
510.346	25069.5
511.118	24501.5
511.891	23864.5
512.664	23132.5
513.437	22417.5
514.209	21519.5
514.982	20780.5
515.754	19934.5
516.526	19071.5
517.298	18329.5
518.071	17533.5
518.843	16870.5
519.615	16268.5
520.387	15624.5
521.159	14981.5
521.93	14315.5
522.702	13794.5
523.474	13271.5
524.245	12662.5
525.017	12148.5
525.788	11705.5
526.56	11184.5
527.331	10671.5
528.102	10212.5
528.873	9724.5
529.644	9283.5
530.415	8875.5
531.186	8420.5
531.957	8015.5
532.728	7644.5
533.498	7239.5
534.269	6861.5
535.039	6491.5
535.81	6134.5
536.58	5814.5
537.351	5439.5
538.121	5169.5
538.891	4891.5
539.661	4636.5
540.431	4357.5
541.201	4152.5
541.971	3914.5
542.741	3721.5
543.51	3528.5
544.28	3361.5
545.05	3195.5
545.819	3028.5
546.588	2897.5
547.358	2750.5
548.127	2599.5
548.896	2475.5
549.665	2352.5
550.434	2243.5
551.203	2112.5
551.972	2013.5
552.741	1905.5
553.51	1798.5
554.278	1705.5
555.047	1607.5
555.815	1509.5
556.584	1437.5
557.352	1346.5
558.121	1278.5
558.889	1209.5
559.657	1140.5
560.425	1075.5
561.193	1009.5
561.961	953.5
562.729	904.5
563.496	854.5
564.264	810.5
565.032	757.5
565.799	728.5
566.567	680.5
567.334	648.5
568.101	614.5
568.869	575.5
569.636	542.5
570.403	507.5
571.17	470.5
571.937	453.5
572.704	414.5
573.471	408.5
574.237	376.5
575.004	367.5
575.771	332.5
576.537	316.5
577.303	301.5
578.07	284.5
578.836	264.5
579.602	245.5
580.368	236.5
581.134	226.5
581.9	216.5
582.666	195.5
583.432	191.5
584.198	185.5
584.964	173.5
585.729	163.5
586.495	158.5
587.26	146.5
588.025	137.5
588.791	132.5
589.556	128.5
590.321	118.5
591.086	111.5
591.851	104.5
592.616	99.5
593.381	94.5
594.146	89.5
594.911	88.5
595.675	85.5
596.44	79.5
597.204	73.5
597.969	69.5
598.733	69.5
599.497	69.5
600.261	60.5
601.025	61.5
601.79	57.5
602.553	59.5
603.317	48.5
604.081	51.5
604.845	48.5
605.609	47.5
606.372	43.5
607.136	39.5
607.899	41.5
608.662	36.5
609.426	38.5
610.189	35.5
610.952	34.5
611.715	32.5
612.478	32.5
613.241	32.5
614.004	28.5
614.767	27.5
615.529	30.5
616.292	26.5
617.055	23.5
617.817	25.5
618.579	23.5
619.342	22.5
620.104	24.5
620.866	19.5
621.628	22.5
622.39	20.5
623.152	22.5
623.914	19.5
624.676	20.5
625.438	17.5
626.199	17.5
626.961	14.5
627.722	15.5
628.484	15.5
629.245	14.5
630.006	13.5
630.768	14.5
631.529	13.5
632.29	11.5
633.051	11.5
633.812	11.5
634.573	12.5
635.333	13.5
636.094	10.5
636.855	10.5
637.615	7.5
638.376	8.5
639.136	11.5
639.896	9.5
640.657	11.5
641.417	7.5
642.177	10.5
642.937	6.5
643.697	10.5
644.457	9.5
645.216	9.5
645.976	8.5
646.736	6.5
647.495	8.5
648.255	7.5
649.014	8.5
649.774	5.5
650.533	6.5
651.292	6.5
652.051	5.5
652.81	9.5
653.569	6.5
654.328	4.5
655.087	6.5
655.846	6.5
656.604	3.5
657.363	5.5
658.121	5.5
658.88	7.5
659.638	4.5
660.397	6.5
661.155	3.5
661.913	3.5
662.671	4.5
663.429	6.5
664.187	6.5
664.945	3.5
665.703	3.5
666.46	4.5
667.218	5.5
667.976	4.5
668.733	4.5
669.49	4.5
670.248	2.5
671.005	4.5
671.762	2.5
672.519	7.5
673.276	3.5
674.033	4.5
674.79	3.5
675.547	4.5
676.304	1.5
677.06	0.5
677.817	1.5
678.574	5.5
679.33	4.5
680.086	2.5
680.843	3.5
681.599	3.5
682.355	2.5
683.111	3.5
683.867	3.5
684.623	4.5
685.379	3.5
686.135	1.5
686.89	2.5
687.646	2.5
688.402	4.5
689.157	2.5
689.912	3.5
690.668	3.5
691.423	2.5
692.178	1.5
692.933	2.5
693.688	2.5
694.443	3.5
695.198	3.5
695.953	5.5
696.708	4.5
697.462	3.5
698.217	2.5
698.972	1.5
699.726	3.5
700.48	1.5
701.235	4.5
701.989	3.5
702.743	1.5
703.497	4.5
704.251	5.5
705.005	3.5
705.759	2.5
706.513	3.5
707.266	4.5
708.02	5.5
708.774	2.5
709.527	3.5
710.28	6.5
711.034	2.5
711.787	4.5
712.54	3.5
713.293	4.5
714.046	3.5
714.799	2.5
715.552	4.5
716.305	3.5
717.058	4.5
717.81	4.5
718.563	1.5
719.315	2.5
720.068	4.5
720.82	5.5
721.573	1.5
722.325	3.5
723.077	4.5
723.829	5.5
724.581	1.5
725.333	1.5
726.085	3.5
726.836	2.5
727.588	4.5
728.34	6.5
729.091	2.5
729.843	5.5
730.594	2.5
731.346	2.5
732.097	3.5
732.848	3.5
733.599	2.5
734.35	2.5
735.101	3.5
735.852	1.5
736.603	2.5
737.354	3.5
738.104	1.5
738.855	3.5
739.605	5.5
740.356	2.5
741.106	2.5
741.856	2.5
742.607	4.5
743.357	1.5
744.107	4.5
744.857	2.5
745.607	5.5
746.357	4.5
747.106	4.5
747.856	4.5
748.606	3.5
749.355	5.5
750.105	4.5
750.854	5.5
751.603	6.5
752.353	5.5
753.102	3.5
753.851	3.5
754.6	6.5
755.349	4.5
756.098	5.5
756.847	3.5
757.595	5.5
758.344	5.5
759.093	5.5
759.841	5.5
760.589	4.5
761.338	5.5
762.086	5.5
762.834	4.5
763.582	4.5
764.331	7.5
765.079	8.5
765.826	6.5
766.574	5.5
767.322	9.5
768.07	5.5
768.817	5.5
769.565	7.5
770.312	7.5
771.06	6.5
771.807	5.5
772.554	7.5
773.302	6.5
774.049	11.5
774.796	5.5
775.543	6.5
776.29	7.5
777.036	5.5
777.783	5.5
778.53	4.5
779.276	7.5
780.023	7.5
780.769	9.5
781.516	8.5
782.262	6.5
783.008	6.5
783.754	5.5
784.5	6.5
785.246	10.5
785.992	9.5
786.738	8.5
787.484	5.5
788.23	10.5
788.975	6.5
789.721	7.5
790.466	6.5
791.212	6.5
791.957	10.5
792.702	6.5
793.447	7.5
794.193	9.5
794.938	6.5
795.683	8.5
796.427	6.5
797.172	6.5
797.917	10.5
798.662	7.5
799.406	7.5
800.151	6.5
800.895	8.5
801.64	6.5
802.384	7.5
803.128	6.5
803.872	8.5
804.616	6.5
805.36	6.5
806.104	7.5
806.848	5.5
807.592	6.5
808.336	4.5
809.079	3.5
809.823	5.5
810.566	7.5
811.31	6.5
812.053	6.5
812.796	6.5
813.539	7.5
814.283	4.5
815.026	4.5
815.769	5.5
816.511	4.5
817.254	3.5
817.997	6.5
818.74	4.5
819.482	2.5
820.225	3.5
820.967	2.5
821.71	5.5
822.452	3.5
823.194	5.5
823.936	3.5
824.678	6.5
825.42	2.5
826.162	1.5
826.904	4.5
827.646	2.5
828.388	4.5
829.129	2.5
829.871	4.5
830.612	5.5
831.354	0.5
832.095	3.5
832.836	2.5
833.577	3.5
834.319	2.5
835.06	1.5
835.801	5.5
836.542	2.5
837.282	4.5
838.023	3.5
838.764	3.5
839.504	3.5
840.245	2.5
840.985	3.5
841.726	3.5
842.466	2.5
843.206	3.5
843.946	2.5
844.687	3.5
845.427	2.5
846.166	3.5
846.906	3.5
847.646	1.5
848.386	3.5
849.125	2.5
849.865	4.5
850.605	3.5
851.344	3.5
852.083	2.5
852.823	3.5
853.562	4.5
854.301	3.5
855.04	1.5
855.779	-0.5
856.518	4.5
857.257	0.5
857.995	3.5
858.734	2.5
859.473	2.5
860.211	3.5
860.95	1.5
861.688	0.5
862.426	2.5
863.165	-0.5
863.903	1.5
864.641	2.5
865.379	2.5
866.117	-0.5
866.855	3.5
867.593	1.5
868.33	-0.5
869.068	1.5
869.806	0.5
870.543	2.5
871.28	0.5
872.018	2.5
872.755	2.5
873.492	1.5
874.229	0.5
874.967	0.5
875.703	1.5
876.44	2.5
877.177	-0.5
877.914	2.5
878.651	0.5
879.387	3.5
880.124	2.5
880.86	1.5
881.597	-0.5
882.333	-2.5
883.069	-0.5
883.806	1.5
884.542	0.5
885.278	1.5
886.014	2.5
886.749	-0.5
887.485	0.5
888.221	2.5
888.957	0.5
889.692	0.5
890.428	1.5
891.163	-0.5
891.899	1.5
892.634	1.5
893.369	0.5
894.104	-0.5
894.839	0.5
895.574	1.5
896.309	1.5
897.044	0.5
897.779	-0.5
898.514	1.5
899.248	1.5
899.983	-2.5
900.717	-0.5
901.452	-0.5
902.186	-1.5
902.92	-2.5
903.654	-0.5
904.389	-1.5
905.123	-2.5
905.857	2.5
906.59	-0.5
907.324	0.5
908.058	-0.5
908.792	-2.5
909.525	0.5
910.259	0.5
910.992	0.5
911.726	0.5
912.459	0.5
913.192	-1.5
913.925	-0.5
914.658	-1.5
915.391	1.5
916.124	0.5
916.857	2.5
917.59	0.5
918.323	-1.5
919.055	1.5
919.788	1.5
920.521	-0.5
921.253	0.5
921.985	-0.5
922.718	0.5
923.45	1.5
924.182	0.5
924.914	0.5
925.646	-2.5
926.378	1.5
927.11	2.5
927.841	-2.5
928.573	-0.5
929.305	-0.5
930.036	-1.5
930.768	1.5
931.499	0.5
932.23	-0.5
932.962	-2.5
933.693	1.5
934.424	0.5
935.155	-1.5
935.886	-2.5
936.617	-2.5
937.348	0.5
938.078	0.5
938.809	1.5
939.54	-3.5
940.27	-1.5
941.001	-1.5
941.731	1.5
942.461	1.5
943.191	-1.5
943.922	-1.5
944.652	0.5
945.382	0.5
946.112	-2.5
946.841	0.5
947.571	-0.5
948.301	-2.5
949.031	1.5
949.76	-2.5
950.49	-0.5
951.219	-0.5
951.948	-0.5
952.678	-0.5
953.407	1.5
954.136	1.5
954.865	-1.5
955.594	-0.5
956.323	0.5
957.052	0.5
957.78	1.5
958.509	1.5
959.238	-1.5
959.966	-1.5
960.695	-1.5
961.423	-2.5
962.151	0.5
962.88	-0.5
963.608	-0.5
964.336	1.5
965.064	0.5
965.792	-0.5
966.52	1.5
967.247	-1.5
967.975	0.5
968.703	-2.5
969.43	0.5
970.158	0.5
970.885	1.5
971.613	0.5
972.34	-2.5
973.067	0.5
973.794	0.5
974.521	0.5
975.248	1.5
975.975	0.5
976.702	-1.5
977.429	-2.5
978.156	1.5
978.882	0.5
979.609	0.5
980.335	-1.5
981.062	-0.5
981.788	-0.5
982.514	-0.5
983.24	1.5
983.967	1.5
984.693	0.5
985.419	-0.5
986.144	-0.5
986.87	-0.5
987.596	-0.5
988.322	-0.5
989.047	-0.5
989.773	0.5
990.498	-2.5
991.224	-0.5
991.949	1.5
992.674	1.5
993.399	-0.5
994.124	-0.5
994.849	-0.5
995.574	0.5
996.299	-0.5
997.024	-1.5
997.749	-0.5
998.473	-0.5
999.198	-2.5
999.922	-0.5
1000.647	-0.5
1001.371	4.5
1002.095	-3.5
1002.82	-1.5
1003.544	0.5
1004.268	1.5
1004.992	1.5
1005.716	1.5
1006.439	0.5
1007.163	0.5
1007.887	1.5
1008.611	-2.5
1009.334	0.5
1010.058	-0.5
1010.781	-0.5
1011.504	1.5
1012.228	-1.5
1012.951	0.5
1013.674	-2.5
1014.397	1.5
1015.12	0.5
