节点500_285_QEPB04081__742__15-07-53-804.txt的数据

Date: Wed Nov 12 15:07:53 CST 2025
User: PC
Spectrometer: QEPB0408
触发模式: 0
积分时间 (秒): 1.000000E-2
Scans to average: 1
启用暗噪声校正: true
启用非线性校正: false
滑动平均宽度: 0
X轴模式: Wavelengths
Number of Pixels in Spectrum: 1044
>>>>>Begin Spectral Data<<<<<
220.843	3.38
221.644	0.38
222.444	0.38
223.244	2.38
224.045	0.38
224.845	3.38
225.645	1.38
226.445	3.38
227.245	2.38
228.045	2.38
228.845	1.38
229.645	5.38
230.444	3.38
231.244	1.38
232.043	6.38
232.843	4.38
233.642	1.38
234.442	3.38
235.241	3.38
236.04	4.38
236.839	0.38
237.638	2.38
238.437	4.38
239.236	4.38
240.035	2.38
240.833	4.38
241.632	3.38
242.43	3.38
243.229	5.38
244.027	5.38
244.826	3.38
245.624	7.38
246.422	6.38
247.22	6.38
248.018	6.38
248.816	7.38
249.614	4.38
250.412	5.38
251.21	7.38
252.007	8.38
252.805	6.38
253.602	7.38
254.4	5.38
255.197	5.38
255.994	8.38
256.791	7.38
257.589	8.38
258.386	7.38
259.183	9.38
259.979	8.38
260.776	8.38
261.573	9.38
262.37	8.38
263.166	12.38
263.963	13.38
264.759	10.38
265.556	11.38
266.352	11.38
267.148	10.38
267.944	13.38
268.74	12.38
269.536	12.38
270.332	13.38
271.128	12.38
271.924	13.38
272.719	14.38
273.515	14.38
274.311	14.38
275.106	14.38
275.901	13.38
276.697	17.38
277.492	14.38
278.287	15.38
279.082	17.38
279.877	14.38
280.672	20.38
281.467	14.38
282.262	17.38
283.056	15.38
283.851	14.38
284.646	19.38
285.44	15.38
286.234	15.38
287.029	21.38
287.823	20.38
288.617	17.38
289.411	13.38
290.205	15.38
290.999	16.38
291.793	17.38
292.587	16.38
293.381	18.38
294.174	20.38
294.968	15.38
295.761	14.38
296.555	15.38
297.348	14.38
298.141	16.38
298.935	16.38
299.728	14.38
300.521	15.38
301.314	14.38
302.107	15.38
302.899	13.38
303.692	12.38
304.485	10.38
305.277	14.38
306.07	14.38
306.862	13.38
307.655	12.38
308.447	13.38
309.239	12.38
310.031	9.38
310.823	13.38
311.615	8.38
312.407	12.38
313.199	10.38
313.991	6.38
314.783	10.38
315.574	9.38
316.366	10.38
317.157	8.38
317.949	12.38
318.74	9.38
319.531	7.38
320.322	8.38
321.113	7.38
321.904	8.38
322.695	8.38
323.486	9.38
324.277	9.38
325.068	6.38
325.858	6.38
326.649	7.38
327.439	8.38
328.23	4.38
329.02	7.38
329.81	7.38
330.6	9.38
331.391	7.38
332.181	7.38
332.971	5.38
333.76	5.38
334.55	6.38
335.34	7.38
336.13	6.38
336.919	8.38
337.709	3.38
338.498	7.38
339.287	4.38
340.077	7.38
340.866	7.38
341.655	8.38
342.444	7.38
343.233	5.38
344.022	7.38
344.811	5.38
345.6	6.38
346.388	7.38
347.177	7.38
347.965	8.38
348.754	7.38
349.542	5.38
350.33	7.38
351.119	6.38
351.907	6.38
352.695	5.38
353.483	7.38
354.271	5.38
355.059	6.38
355.846	5.38
356.634	5.38
357.422	7.38
358.209	5.38
358.997	6.38
359.784	6.38
360.571	5.38
361.359	6.38
362.146	7.38
362.933	3.38
363.72	5.38
364.507	4.38
365.294	4.38
366.081	7.38
366.867	7.38
367.654	4.38
368.44	5.38
369.227	6.38
370.013	5.38
370.8	4.38
371.586	5.38
372.372	5.38
373.158	5.38
373.944	5.38
374.73	5.38
375.516	5.38
376.302	3.38
377.088	5.38
377.873	4.38
378.659	2.38
379.445	6.38
380.23	6.38
381.015	5.38
381.801	5.38
382.586	4.38
383.371	7.38
384.156	4.38
384.941	7.38
385.726	5.38
386.511	5.38
387.296	10.38
388.08	3.38
388.865	6.38
389.649	6.38
390.434	7.38
391.218	8.38
392.003	7.38
392.787	5.38
393.571	4.38
394.355	4.38
395.139	4.38
395.923	7.38
396.707	5.38
397.491	7.38
398.274	7.38
399.058	5.38
399.842	6.38
400.625	6.38
401.408	8.38
402.192	7.38
402.975	9.38
403.758	6.38
404.541	9.38
405.324	10.38
406.107	5.38
406.89	7.38
407.673	8.38
408.456	8.38
409.238	8.38
410.021	9.38
410.803	10.38
411.586	9.38
412.368	8.38
413.151	7.38
413.933	7.38
414.715	9.38
415.497	10.38
416.279	8.38
417.061	8.38
417.843	11.38
418.624	10.38
419.406	9.38
420.188	8.38
420.969	9.38
421.751	12.38
422.532	13.38
423.313	11.38
424.095	12.38
424.876	8.38
425.657	12.38
426.438	12.38
427.219	11.38
428	10.38
428.78	11.38
429.561	14.38
430.342	14.38
431.122	15.38
431.903	14.38
432.683	15.38
433.464	16.38
434.244	17.38
435.024	19.38
435.804	17.38
436.584	17.38
437.364	22.38
438.144	18.38
438.924	20.38
439.704	24.38
440.483	23.38
441.263	25.38
442.042	24.38
442.822	28.38
443.601	26.38
444.38	34.38
445.16	31.38
445.939	37.38
446.718	41.38
447.497	39.38
448.276	44.38
449.054	51.38
449.833	54.38
450.612	53.38
451.391	59.38
452.169	70.38
452.948	72.38
453.726	83.38
454.504	88.38
455.282	102.38
456.061	112.38
456.839	124.38
457.617	136.38
458.395	147.38
459.172	171.38
459.95	188.38
460.728	208.38
461.506	230.38
462.283	257.38
463.061	282.38
463.838	320.38
464.615	356.38
465.393	393.38
466.17	438.38
466.947	485.38
467.724	537.38
468.501	595.38
469.278	668.38
470.055	740.38
470.831	806.38
471.608	889.38
472.385	983.38
473.161	1088.38
473.938	1211.38
474.714	1344.38
475.49	1462.38
476.266	1597.38
477.043	1746.38
477.819	1933.38
478.595	2129.38
479.371	2329.38
480.146	2552.38
480.922	2806.38
481.698	3046.38
482.473	3352.38
483.249	3643.38
484.024	4011.38
484.8	4354.38
485.575	4756.38
486.35	5185.38
487.126	5645.38
487.901	6147.38
488.676	6723.38
489.451	7285.38
490.225	7935.38
491	8614.38
491.775	9314.38
492.55	10150.38
493.324	10918.38
494.099	11742.38
494.873	12574.38
495.647	13559.38
496.422	14516.38
497.196	15553.38
497.97	16618.38
498.744	17695.38
499.518	18667.38
500.292	19730.38
501.066	20730.38
501.839	21677.38
502.613	22585.38
503.387	23400.38
504.16	24058.38
504.934	24462.38
505.707	24820.38
506.48	25163.38
507.253	25289.38
508.027	25300.38
508.8	25238.38
509.573	25076.38
510.346	24655.38
511.118	24156.38
511.891	23631.38
512.664	23011.38
513.437	22245.38
514.209	21547.38
514.982	20654.38
515.754	19852.38
516.526	19163.38
517.298	18261.38
518.071	17505.38
518.843	16861.38
519.615	16303.38
520.387	15633.38
521.159	15014.38
521.93	14407.38
522.702	13921.38
523.474	13269.38
524.245	12692.38
525.017	12192.38
525.788	11745.38
526.56	11249.38
527.331	10713.38
528.102	10236.38
528.873	9817.38
529.644	9387.38
530.415	8900.38
531.186	8491.38
531.957	8104.38
532.728	7730.38
533.498	7320.38
534.269	6917.38
535.039	6556.38
535.81	6207.38
536.58	5871.38
537.351	5561.38
538.121	5246.38
538.891	4991.38
539.661	4726.38
540.431	4414.38
541.201	4195.38
541.971	3980.38
542.741	3779.38
543.51	3578.38
544.28	3421.38
545.05	3226.38
545.819	3084.38
546.588	2926.38
547.358	2791.38
548.127	2656.38
548.896	2530.38
549.665	2405.38
550.434	2268.38
551.203	2133.38
551.972	2041.38
552.741	1927.38
553.51	1810.38
554.278	1718.38
555.047	1618.38
555.815	1537.38
556.584	1457.38
557.352	1382.38
558.121	1324.38
558.889	1222.38
559.657	1158.38
560.425	1117.38
561.193	1036.38
561.961	974.38
562.729	915.38
563.496	879.38
564.264	824.38
565.032	784.38
565.799	743.38
566.567	701.38
567.334	659.38
568.101	630.38
568.869	596.38
569.636	550.38
570.403	519.38
571.17	489.38
571.937	458.38
572.704	441.38
573.471	411.38
574.237	397.38
575.004	366.38
575.771	349.38
576.537	326.38
577.303	307.38
578.07	291.38
578.836	276.38
579.602	246.38
580.368	241.38
581.134	231.38
581.9	217.38
582.666	208.38
583.432	193.38
584.198	188.38
584.964	180.38
585.729	166.38
586.495	154.38
587.26	153.38
588.025	148.38
588.791	132.38
589.556	126.38
590.321	122.38
591.086	119.38
591.851	108.38
592.616	104.38
593.381	98.38
594.146	93.38
594.911	88.38
595.675	86.38
596.44	84.38
597.204	76.38
597.969	72.38
598.733	76.38
599.497	64.38
600.261	65.38
601.025	62.38
601.79	58.38
602.553	57.38
603.317	52.38
604.081	53.38
604.845	49.38
605.609	49.38
606.372	45.38
607.136	45.38
607.899	37.38
608.662	35.38
609.426	40.38
610.189	35.38
610.952	37.38
611.715	35.38
612.478	33.38
613.241	29.38
614.004	30.38
614.767	30.38
615.529	29.38
616.292	26.38
617.055	24.38
617.817	26.38
618.579	30.38
619.342	23.38
620.104	23.38
620.866	22.38
621.628	21.38
622.39	18.38
623.152	18.38
623.914	20.38
624.676	18.38
625.438	18.38
626.199	19.38
626.961	18.38
627.722	18.38
628.484	15.38
629.245	17.38
630.006	15.38
630.768	16.38
631.529	15.38
632.29	14.38
633.051	13.38
633.812	12.38
634.573	12.38
635.333	12.38
636.094	10.38
636.855	10.38
637.615	12.38
638.376	8.38
639.136	13.38
639.896	10.38
640.657	7.38
641.417	9.38
642.177	10.38
642.937	10.38
643.697	9.38
644.457	8.38
645.216	8.38
645.976	8.38
646.736	7.38
647.495	10.38
648.255	8.38
649.014	8.38
649.774	6.38
650.533	9.38
651.292	7.38
652.051	8.38
652.81	9.38
653.569	5.38
654.328	6.38
655.087	6.38
655.846	8.38
656.604	4.38
657.363	7.38
658.121	7.38
658.88	5.38
659.638	6.38
660.397	3.38
661.155	7.38
661.913	7.38
662.671	7.38
663.429	5.38
664.187	6.38
664.945	6.38
665.703	6.38
666.46	6.38
667.218	5.38
667.976	7.38
668.733	3.38
669.49	3.38
670.248	6.38
671.005	5.38
671.762	6.38
672.519	4.38
673.276	4.38
674.033	5.38
674.79	4.38
675.547	3.38
676.304	3.38
677.06	4.38
677.817	4.38
678.574	4.38
679.33	4.38
680.086	4.38
680.843	6.38
681.599	2.38
682.355	4.38
683.111	5.38
683.867	3.38
684.623	4.38
685.379	2.38
686.135	4.38
686.89	2.38
687.646	3.38
688.402	4.38
689.157	5.38
689.912	3.38
690.668	2.38
691.423	4.38
692.178	5.38
692.933	3.38
693.688	3.38
694.443	5.38
695.198	4.38
695.953	4.38
696.708	6.38
697.462	3.38
698.217	0.38
698.972	3.38
699.726	2.38
700.48	6.38
701.235	4.38
701.989	5.38
702.743	4.38
703.497	3.38
704.251	3.38
705.005	3.38
705.759	5.38
706.513	3.38
707.266	4.38
708.02	5.38
708.774	3.38
709.527	2.38
710.28	2.38
711.034	4.38
711.787	5.38
712.54	2.38
713.293	4.38
714.046	2.38
714.799	2.38
715.552	5.38
716.305	2.38
717.058	4.38
717.81	5.38
718.563	3.38
719.315	4.38
720.068	4.38
720.82	1.38
721.573	4.38
722.325	1.38
723.077	5.38
723.829	4.38
724.581	2.38
725.333	5.38
726.085	3.38
726.836	3.38
727.588	5.38
728.34	2.38
729.091	8.38
729.843	2.38
730.594	5.38
731.346	5.38
732.097	2.38
732.848	1.38
733.599	2.38
734.35	5.38
735.101	3.38
735.852	5.38
736.603	5.38
737.354	2.38
738.104	3.38
738.855	1.38
739.605	5.38
740.356	5.38
741.106	7.38
741.856	6.38
742.607	4.38
743.357	6.38
744.107	5.38
744.857	4.38
745.607	5.38
746.357	3.38
747.106	7.38
747.856	6.38
748.606	3.38
749.355	5.38
750.105	7.38
750.854	5.38
751.603	4.38
752.353	5.38
753.102	2.38
753.851	6.38
754.6	6.38
755.349	5.38
756.098	5.38
756.847	7.38
757.595	5.38
758.344	5.38
759.093	6.38
759.841	4.38
760.589	5.38
761.338	6.38
762.086	5.38
762.834	6.38
763.582	3.38
764.331	5.38
765.079	8.38
765.826	5.38
766.574	7.38
767.322	6.38
768.07	6.38
768.817	6.38
769.565	8.38
770.312	8.38
771.06	5.38
771.807	7.38
772.554	5.38
773.302	6.38
774.049	7.38
774.796	9.38
775.543	7.38
776.29	7.38
777.036	6.38
777.783	6.38
778.53	8.38
779.276	7.38
780.023	8.38
780.769	9.38
781.516	6.38
782.262	9.38
783.008	9.38
783.754	6.38
784.5	8.38
785.246	8.38
785.992	8.38
786.738	6.38
787.484	9.38
788.23	8.38
788.975	9.38
789.721	8.38
790.466	9.38
791.212	7.38
791.957	9.38
792.702	8.38
793.447	5.38
794.193	8.38
794.938	7.38
795.683	9.38
796.427	9.38
797.172	7.38
797.917	6.38
798.662	6.38
799.406	9.38
800.151	5.38
800.895	6.38
801.64	7.38
802.384	7.38
803.128	6.38
803.872	7.38
804.616	8.38
805.36	6.38
806.104	5.38
806.848	7.38
807.592	5.38
808.336	6.38
809.079	6.38
809.823	3.38
810.566	7.38
811.31	4.38
812.053	6.38
812.796	4.38
813.539	4.38
814.283	6.38
815.026	6.38
815.769	7.38
816.511	5.38
817.254	4.38
817.997	5.38
818.74	7.38
819.482	6.38
820.225	2.38
820.967	1.38
821.71	7.38
822.452	7.38
823.194	5.38
823.936	5.38
824.678	6.38
825.42	3.38
826.162	5.38
826.904	5.38
827.646	5.38
828.388	5.38
829.129	3.38
829.871	5.38
830.612	4.38
831.354	4.38
832.095	2.38
832.836	4.38
833.577	2.38
834.319	4.38
835.06	2.38
835.801	2.38
836.542	3.38
837.282	4.38
838.023	5.38
838.764	5.38
839.504	2.38
840.245	4.38
840.985	6.38
841.726	4.38
842.466	2.38
843.206	4.38
843.946	4.38
844.687	4.38
845.427	3.38
846.166	2.38
846.906	3.38
847.646	4.38
848.386	5.38
849.125	3.38
849.865	4.38
850.605	3.38
851.344	2.38
852.083	1.38
852.823	2.38
853.562	4.38
854.301	5.38
855.04	2.38
855.779	2.38
856.518	4.38
857.257	2.38
857.995	4.38
858.734	3.38
859.473	3.38
860.211	3.38
860.95	1.38
861.688	2.38
862.426	0.38
863.165	2.38
863.903	1.38
864.641	2.38
865.379	2.38
866.117	2.38
866.855	2.38
867.593	3.38
868.33	3.38
869.068	4.38
869.806	2.38
870.543	3.38
871.28	0.38
872.018	0.38
872.755	1.38
873.492	0.38
874.229	2.38
874.967	2.38
875.703	2.38
876.44	1.38
877.177	2.38
877.914	2.38
878.651	0.38
879.387	2.38
880.124	2.38
880.86	0.38
881.597	1.38
882.333	4.38
883.069	1.38
883.806	0.38
884.542	1.38
885.278	1.38
886.014	1.38
886.749	2.38
887.485	1.38
888.221	1.38
888.957	1.38
889.692	-0.62
890.428	2.38
891.163	0.38
891.899	-0.62
892.634	1.38
893.369	-0.62
894.104	0.38
894.839	2.38
895.574	2.38
896.309	1.38
897.044	1.38
897.779	2.38
898.514	-1.62
899.248	0.38
899.983	-1.62
900.717	0.38
901.452	3.38
902.186	-1.62
902.92	1.38
903.654	0.38
904.389	1.38
905.123	0.38
905.857	0.38
906.59	1.38
907.324	-0.62
908.058	0.38
908.792	-1.62
909.525	-0.62
910.259	-0.62
910.992	-1.62
911.726	4.38
912.459	1.38
913.192	2.38
913.925	1.38
914.658	0.38
915.391	0.38
916.124	0.38
916.857	0.38
917.59	-1.62
918.323	1.38
919.055	2.38
919.788	0.38
920.521	0.38
921.253	-1.62
921.985	1.38
922.718	0.38
923.45	2.38
924.182	0.38
924.914	-0.62
925.646	1.38
926.378	1.38
927.11	1.38
927.841	1.38
928.573	0.38
929.305	0.38
930.036	-0.62
930.768	1.38
931.499	-1.62
932.23	1.38
932.962	0.38
933.693	0.38
934.424	1.38
935.155	0.38
935.886	0.38
936.617	0.38
937.348	1.38
938.078	1.38
938.809	2.38
939.54	1.38
940.27	-0.62
941.001	-0.62
941.731	0.38
942.461	-0.62
943.191	0.38
943.922	0.38
944.652	0.38
945.382	0.38
946.112	-1.62
946.841	2.38
947.571	1.38
948.301	1.38
949.031	-0.62
949.76	0.38
950.49	0.38
951.219	0.38
951.948	0.38
952.678	-0.62
953.407	1.38
954.136	-1.62
954.865	1.38
955.594	0.38
956.323	1.38
957.052	0.38
957.78	-0.62
958.509	4.38
959.238	-0.62
959.966	0.38
960.695	1.38
961.423	2.38
962.151	-0.62
962.88	0.38
963.608	1.38
964.336	-0.62
965.064	0.38
965.792	-1.62
966.52	-1.62
967.247	0.38
967.975	0.38
968.703	-0.62
969.43	0.38
970.158	2.38
970.885	0.38
971.613	1.38
972.34	1.38
973.067	0.38
973.794	2.38
974.521	0.38
975.248	1.38
975.975	0.38
976.702	1.38
977.429	0.38
978.156	1.38
978.882	2.38
979.609	0.38
980.335	1.38
981.062	-0.62
981.788	-1.62
982.514	2.38
983.24	-2.62
983.967	0.38
984.693	-1.62
985.419	0.38
986.144	0.38
986.87	0.38
987.596	1.38
988.322	0.38
989.047	0.38
989.773	1.38
990.498	1.38
991.224	0.38
991.949	-1.62
992.674	2.38
993.399	0.38
994.124	1.38
994.849	0.38
995.574	1.38
996.299	2.38
997.024	0.38
997.749	0.38
998.473	2.38
999.198	-0.62
999.922	0.38
1000.647	0.38
1001.371	4.38
1002.095	-0.62
1002.82	-1.62
1003.544	-0.62
1004.268	1.38
1004.992	0.38
1005.716	0.38
1006.439	2.38
1007.163	3.38
1007.887	3.38
1008.611	0.38
1009.334	0.38
1010.058	0.38
1010.781	2.38
1011.504	2.38
1012.228	0.38
1012.951	-3.62
1013.674	0.38
1014.397	1.38
1015.12	0.38
