节点500_285_QEPB04081__704__15-07-15-826.txt的数据

Date: Wed Nov 12 15:07:15 CST 2025
User: PC
Spectrometer: QEPB0408
触发模式: 0
积分时间 (秒): 1.000000E-2
Scans to average: 1
启用暗噪声校正: true
启用非线性校正: false
滑动平均宽度: 0
X轴模式: Wavelengths
Number of Pixels in Spectrum: 1044
>>>>>Begin Spectral Data<<<<<
220.843	2
221.644	1
222.444	4
223.244	1
224.045	-1
224.845	2
225.645	3
226.445	4
227.245	3
228.045	3
228.845	3
229.645	3
230.444	4
231.244	2
232.043	5
232.843	3
233.642	3
234.442	3
235.241	3
236.04	2
236.839	2
237.638	4
238.437	2
239.236	6
240.035	6
240.833	4
241.632	6
242.43	3
243.229	6
244.027	2
244.826	5
245.624	6
246.422	4
247.22	7
248.018	3
248.816	6
249.614	6
250.412	5
251.21	7
252.007	5
252.805	6
253.602	6
254.4	6
255.197	5
255.994	6
256.791	9
257.589	6
258.386	6
259.183	11
259.979	6
260.776	8
261.573	12
262.37	11
263.166	9
263.963	11
264.759	9
265.556	11
266.352	13
267.148	10
267.944	9
268.74	12
269.536	10
270.332	13
271.128	12
271.924	14
272.719	13
273.515	14
274.311	15
275.106	14
275.901	16
276.697	17
277.492	18
278.287	16
279.082	17
279.877	17
280.672	15
281.467	18
282.262	17
283.056	19
283.851	13
284.646	18
285.44	17
286.234	16
287.029	16
287.823	21
288.617	17
289.411	15
290.205	18
290.999	17
291.793	17
292.587	17
293.381	16
294.174	16
294.968	15
295.761	14
296.555	14
297.348	15
298.141	14
298.935	15
299.728	15
300.521	11
301.314	15
302.107	11
302.899	13
303.692	13
304.485	12
305.277	15
306.07	15
306.862	14
307.655	10
308.447	10
309.239	11
310.031	8
310.823	11
311.615	13
312.407	9
313.199	10
313.991	9
314.783	7
315.574	9
316.366	10
317.157	7
317.949	10
318.74	10
319.531	7
320.322	8
321.113	7
321.904	7
322.695	7
323.486	7
324.277	9
325.068	6
325.858	8
326.649	7
327.439	7
328.23	6
329.02	7
329.81	6
330.6	7
331.391	8
332.181	8
332.971	4
333.76	6
334.55	4
335.34	9
336.13	6
336.919	6
337.709	7
338.498	6
339.287	8
340.077	6
340.866	6
341.655	7
342.444	6
343.233	8
344.022	4
344.811	7
345.6	7
346.388	5
347.177	6
347.965	5
348.754	7
349.542	4
350.33	8
351.119	5
351.907	6
352.695	5
353.483	5
354.271	7
355.059	2
355.846	6
356.634	5
357.422	5
358.209	4
358.997	5
359.784	4
360.571	5
361.359	6
362.146	4
362.933	4
363.72	7
364.507	3
365.294	4
366.081	5
366.867	6
367.654	6
368.44	5
369.227	3
370.013	6
370.8	4
371.586	4
372.372	5
373.158	5
373.944	5
374.73	7
375.516	4
376.302	5
377.088	4
377.873	3
378.659	5
379.445	3
380.23	7
381.015	4
381.801	4
382.586	4
383.371	5
384.156	6
384.941	4
385.726	3
386.511	5
387.296	5
388.08	7
388.865	7
389.649	5
390.434	6
391.218	6
392.003	5
392.787	5
393.571	6
394.355	6
395.139	5
395.923	3
396.707	6
397.491	5
398.274	7
399.058	7
399.842	3
400.625	9
401.408	4
402.192	7
402.975	7
403.758	5
404.541	7
405.324	5
406.107	6
406.89	7
407.673	5
408.456	9
409.238	7
410.021	7
410.803	6
411.586	8
412.368	6
413.151	6
413.933	10
414.715	10
415.497	8
416.279	10
417.061	7
417.843	8
418.624	7
419.406	9
420.188	8
420.969	9
421.751	9
422.532	11
423.313	10
424.095	10
424.876	12
425.657	8
426.438	13
427.219	12
428	13
428.78	13
429.561	14
430.342	13
431.122	14
431.903	15
432.683	15
433.464	16
434.244	15
435.024	16
435.804	19
436.584	17
437.364	21
438.144	21
438.924	21
439.704	20
440.483	24
441.263	26
442.042	26
442.822	27
443.601	30
444.38	32
445.16	34
445.939	37
446.718	39
447.497	43
448.276	46
449.054	47
449.833	52
450.612	60
451.391	60
452.169	67
452.948	74
453.726	80
454.504	91
455.282	96
456.061	113
456.839	119
457.617	137
458.395	146
459.172	166
459.95	187
460.728	199
461.506	227
462.283	256
463.061	285
463.838	318
464.615	345
465.393	393
466.17	445
466.947	482
467.724	535
468.501	595
469.278	656
470.055	742
470.831	813
471.608	903
472.385	983
473.161	1077
473.938	1199
474.714	1317
475.49	1461
476.266	1613
477.043	1776
477.819	1932
478.595	2119
479.371	2317
480.146	2541
480.922	2788
481.698	3048
482.473	3328
483.249	3649
484.024	4003
484.8	4382
485.575	4790
486.35	5201
487.126	5692
487.901	6214
488.676	6738
489.451	7355
490.225	7985
491	8655
491.775	9454
492.55	10230
493.324	11049
494.099	11870
494.873	12700
495.647	13701
496.422	14643
497.196	15692
497.97	16800
498.744	17843
499.518	18846
500.292	19868
501.066	20936
501.839	21895
502.613	22744
503.387	23578
504.16	24322
504.934	24761
505.707	25124
506.48	25314
507.253	25429
508.027	25449
508.8	25316
509.573	25134
510.346	24778
511.118	24212
511.891	23710
512.664	23011
513.437	22299
514.209	21508
514.982	20726
515.754	19828
516.526	19023
517.298	18302
518.071	17528
518.843	16880
519.615	16188
520.387	15616
521.159	14909
521.93	14385
522.702	13790
523.474	13238
524.245	12689
525.017	12158
525.788	11737
526.56	11179
527.331	10672
528.102	10222
528.873	9765
529.644	9323
530.415	8916
531.186	8455
531.957	8029
532.728	7691
533.498	7282
534.269	6886
535.039	6530
535.81	6182
536.58	5806
537.351	5538
538.121	5197
538.891	4929
539.661	4653
540.431	4398
541.201	4148
541.971	3951
542.741	3746
543.51	3567
544.28	3390
545.05	3224
545.819	3041
546.588	2913
547.358	2772
548.127	2640
548.896	2509
549.665	2376
550.434	2252
551.203	2142
551.972	2029
552.741	1916
553.51	1811
554.278	1720
555.047	1610
555.815	1525
556.584	1433
557.352	1373
558.121	1302
558.889	1215
559.657	1146
560.425	1084
561.193	1031
561.961	956
562.729	917
563.496	870
564.264	814
565.032	783
565.799	733
566.567	699
567.334	653
568.101	623
568.869	586
569.636	550
570.403	509
571.17	487
571.937	461
572.704	446
573.471	410
574.237	385
575.004	371
575.771	348
576.537	317
577.303	298
578.07	291
578.836	273
579.602	253
580.368	243
581.134	228
581.9	214
582.666	206
583.432	192
584.198	185
584.964	181
585.729	167
586.495	154
587.26	151
588.025	139
588.791	135
589.556	127
590.321	125
591.086	111
591.851	109
592.616	102
593.381	96
594.146	93
594.911	89
595.675	85
596.44	79
597.204	76
597.969	70
598.733	70
599.497	67
600.261	64
601.025	61
601.79	60
602.553	57
603.317	49
604.081	49
604.845	49
605.609	47
606.372	48
607.136	45
607.899	43
608.662	39
609.426	36
610.189	31
610.952	36
611.715	34
612.478	31
613.241	30
614.004	28
614.767	31
615.529	30
616.292	28
617.055	28
617.817	25
618.579	24
619.342	25
620.104	22
620.866	20
621.628	21
622.39	18
623.152	17
623.914	19
624.676	18
625.438	18
626.199	18
626.961	15
627.722	14
628.484	16
629.245	18
630.006	13
630.768	14
631.529	14
632.29	12
633.051	13
633.812	11
634.573	11
635.333	11
636.094	10
636.855	10
637.615	13
638.376	10
639.136	12
639.896	10
640.657	11
641.417	9
642.177	10
642.937	8
643.697	10
644.457	9
645.216	7
645.976	8
646.736	7
647.495	8
648.255	9
649.014	7
649.774	7
650.533	9
651.292	8
652.051	6
652.81	9
653.569	4
654.328	6
655.087	9
655.846	9
656.604	6
657.363	5
658.121	5
658.88	4
659.638	6
660.397	9
661.155	7
661.913	6
662.671	6
663.429	5
664.187	6
664.945	7
665.703	2
666.46	4
667.218	6
667.976	5
668.733	5
669.49	4
670.248	4
671.005	6
671.762	7
672.519	6
673.276	3
674.033	5
674.79	4
675.547	3
676.304	3
677.06	5
677.817	6
678.574	4
679.33	5
680.086	5
680.843	3
681.599	7
682.355	5
683.111	6
683.867	5
684.623	6
685.379	6
686.135	2
686.89	3
687.646	4
688.402	5
689.157	5
689.912	5
690.668	4
691.423	3
692.178	4
692.933	5
693.688	3
694.443	4
695.198	4
695.953	3
696.708	2
697.462	2
698.217	4
698.972	4
699.726	3
700.48	4
701.235	3
701.989	3
702.743	3
703.497	3
704.251	5
705.005	4
705.759	1
706.513	2
707.266	3
708.02	5
708.774	3
709.527	6
710.28	4
711.034	4
711.787	4
712.54	3
713.293	4
714.046	6
714.799	3
715.552	5
716.305	4
717.058	2
717.81	4
718.563	4
719.315	4
720.068	3
720.82	4
721.573	3
722.325	3
723.077	4
723.829	2
724.581	5
725.333	3
726.085	2
726.836	4
727.588	6
728.34	4
729.091	5
729.843	2
730.594	4
731.346	3
732.097	4
732.848	5
733.599	4
734.35	6
735.101	4
735.852	3
736.603	4
737.354	4
738.104	3
738.855	6
739.605	5
740.356	4
741.106	4
741.856	4
742.607	3
743.357	5
744.107	5
744.857	5
745.607	4
746.357	6
747.106	5
747.856	5
748.606	4
749.355	5
750.105	5
750.854	6
751.603	5
752.353	6
753.102	3
753.851	6
754.6	5
755.349	6
756.098	5
756.847	4
757.595	6
758.344	5
759.093	5
759.841	5
760.589	5
761.338	7
762.086	5
762.834	7
763.582	6
764.331	5
765.079	4
765.826	6
766.574	6
767.322	7
768.07	8
768.817	6
769.565	7
770.312	6
771.06	7
771.807	7
772.554	7
773.302	6
774.049	5
774.796	9
775.543	8
776.29	9
777.036	6
777.783	7
778.53	6
779.276	10
780.023	8
780.769	4
781.516	6
782.262	6
783.008	8
783.754	6
784.5	6
785.246	7
785.992	7
786.738	8
787.484	9
788.23	7
788.975	8
789.721	9
790.466	9
791.212	8
791.957	5
792.702	9
793.447	7
794.193	8
794.938	10
795.683	8
796.427	10
797.172	8
797.917	7
798.662	8
799.406	9
800.151	6
800.895	5
801.64	9
802.384	6
803.128	6
803.872	7
804.616	5
805.36	6
806.104	7
806.848	7
807.592	6
808.336	5
809.079	6
809.823	4
810.566	7
811.31	5
812.053	5
812.796	7
813.539	5
814.283	6
815.026	3
815.769	4
816.511	5
817.254	3
817.997	3
818.74	5
819.482	7
820.225	6
820.967	4
821.71	5
822.452	2
823.194	3
823.936	5
824.678	5
825.42	3
826.162	5
826.904	3
827.646	3
828.388	5
829.129	1
829.871	4
830.612	6
831.354	5
832.095	3
832.836	2
833.577	2
834.319	4
835.06	5
835.801	3
836.542	4
837.282	3
838.023	3
838.764	5
839.504	2
840.245	3
840.985	5
841.726	6
842.466	2
843.206	1
843.946	4
844.687	2
845.427	2
846.166	3
846.906	4
847.646	2
848.386	1
849.125	2
849.865	4
850.605	4
851.344	1
852.083	5
852.823	2
853.562	2
854.301	3
855.04	4
855.779	2
856.518	3
857.257	4
857.995	3
858.734	2
859.473	5
860.211	2
860.95	2
861.688	2
862.426	5
863.165	2
863.903	0
864.641	1
865.379	2
866.117	4
866.855	2
867.593	2
868.33	2
869.068	1
869.806	2
870.543	4
871.28	4
872.018	1
872.755	1
873.492	2
874.229	0
874.967	3
875.703	3
876.44	3
877.177	-1
877.914	-2
878.651	3
879.387	0
880.124	1
880.86	1
881.597	1
882.333	1
883.069	-1
883.806	2
884.542	0
885.278	-1
886.014	2
886.749	1
887.485	1
888.221	0
888.957	2
889.692	1
890.428	1
891.163	1
891.899	1
892.634	1
893.369	2
894.104	1
894.839	0
895.574	2
896.309	-1
897.044	1
897.779	0
898.514	-2
899.248	2
899.983	2
900.717	0
901.452	2
902.186	-2
902.92	2
903.654	2
904.389	2
905.123	0
905.857	1
906.59	0
907.324	0
908.058	4
908.792	2
909.525	0
910.259	-1
910.992	0
911.726	0
912.459	2
913.192	-1
913.925	0
914.658	1
915.391	0
916.124	-1
916.857	1
917.59	-1
918.323	-2
919.055	2
919.788	1
920.521	1
921.253	0
921.985	-2
922.718	1
923.45	2
924.182	-1
924.914	-1
925.646	1
926.378	0
927.11	2
927.841	2
928.573	-2
929.305	1
930.036	-2
930.768	0
931.499	0
932.23	1
932.962	2
933.693	-2
934.424	1
935.155	0
935.886	-2
936.617	0
937.348	1
938.078	1
938.809	-1
939.54	1
940.27	-1
941.001	1
941.731	0
942.461	1
943.191	3
943.922	-1
944.652	0
945.382	0
946.112	1
946.841	-1
947.571	0
948.301	1
949.031	-2
949.76	1
950.49	-1
951.219	-2
951.948	1
952.678	0
953.407	0
954.136	0
954.865	0
955.594	0
956.323	1
957.052	0
957.78	0
958.509	0
959.238	0
959.966	-1
960.695	0
961.423	1
962.151	-1
962.88	-1
963.608	1
964.336	-2
965.064	-2
965.792	1
966.52	0
967.247	-1
967.975	-1
968.703	-1
969.43	1
970.158	0
970.885	2
971.613	0
972.34	2
973.067	-1
973.794	-2
974.521	0
975.248	0
975.975	2
976.702	-2
977.429	-1
978.156	1
978.882	0
979.609	-2
980.335	1
981.062	-1
981.788	-1
982.514	1
983.24	0
983.967	2
984.693	0
985.419	0
986.144	0
986.87	0
987.596	-1
988.322	1
989.047	0
989.773	1
990.498	-1
991.224	2
991.949	1
992.674	0
993.399	0
994.124	0
994.849	1
995.574	-1
996.299	2
997.024	-1
997.749	0
998.473	1
999.198	1
999.922	0
1000.647	-2
1001.371	3
1002.095	0
1002.82	-1
1003.544	1
1004.268	1
1004.992	1
1005.716	2
1006.439	2
1007.163	1
1007.887	1
1008.611	0
1009.334	0
1010.058	1
1010.781	-1
1011.504	1
1012.228	0
1012.951	0
1013.674	-1
1014.397	-1
1015.12	-1
