节点500_285_QEPB04081__378__15-01-50-662.txt的数据

Date: Wed Nov 12 15:01:50 CST 2025
User: PC
Spectrometer: QEPB0408
触发模式: 0
积分时间 (秒): 1.000000E-2
Scans to average: 1
启用暗噪声校正: true
启用非线性校正: false
滑动平均宽度: 0
X轴模式: Wavelengths
Number of Pixels in Spectrum: 1044
>>>>>Begin Spectral Data<<<<<
220.843	2.62
221.644	1.62
222.444	3.62
223.244	1.62
224.045	1.62
224.845	3.62
225.645	1.62
226.445	1.62
227.245	3.62
228.045	1.62
228.845	0.62
229.645	0.62
230.444	4.62
231.244	1.62
232.043	2.62
232.843	1.62
233.642	3.62
234.442	4.62
235.241	4.62
236.04	4.62
236.839	3.62
237.638	6.62
238.437	3.62
239.236	3.62
240.035	7.62
240.833	4.62
241.632	3.62
242.43	5.62
243.229	4.62
244.027	5.62
244.826	7.62
245.624	4.62
246.422	3.62
247.22	6.62
248.018	5.62
248.816	3.62
249.614	7.62
250.412	6.62
251.21	6.62
252.007	6.62
252.805	7.62
253.602	7.62
254.4	7.62
255.197	6.62
255.994	7.62
256.791	8.62
257.589	9.62
258.386	7.62
259.183	9.62
259.979	8.62
260.776	9.62
261.573	10.62
262.37	9.62
263.166	10.62
263.963	9.62
264.759	11.62
265.556	9.62
266.352	11.62
267.148	14.62
267.944	13.62
268.74	16.62
269.536	12.62
270.332	16.62
271.128	12.62
271.924	17.62
272.719	14.62
273.515	15.62
274.311	15.62
275.106	16.62
275.901	18.62
276.697	15.62
277.492	17.62
278.287	17.62
279.082	18.62
279.877	18.62
280.672	17.62
281.467	19.62
282.262	16.62
283.056	17.62
283.851	15.62
284.646	17.62
285.44	19.62
286.234	17.62
287.029	21.62
287.823	16.62
288.617	19.62
289.411	17.62
290.205	17.62
290.999	15.62
291.793	17.62
292.587	16.62
293.381	15.62
294.174	16.62
294.968	17.62
295.761	15.62
296.555	13.62
297.348	16.62
298.141	15.62
298.935	17.62
299.728	13.62
300.521	13.62
301.314	15.62
302.107	13.62
302.899	14.62
303.692	14.62
304.485	12.62
305.277	13.62
306.07	12.62
306.862	12.62
307.655	13.62
308.447	11.62
309.239	10.62
310.031	12.62
310.823	9.62
311.615	10.62
312.407	9.62
313.199	10.62
313.991	9.62
314.783	8.62
315.574	9.62
316.366	7.62
317.157	10.62
317.949	7.62
318.74	7.62
319.531	9.62
320.322	5.62
321.113	6.62
321.904	6.62
322.695	8.62
323.486	7.62
324.277	6.62
325.068	9.62
325.858	8.62
326.649	5.62
327.439	5.62
328.23	6.62
329.02	6.62
329.81	4.62
330.6	5.62
331.391	7.62
332.181	8.62
332.971	4.62
333.76	7.62
334.55	6.62
335.34	7.62
336.13	4.62
336.919	5.62
337.709	6.62
338.498	5.62
339.287	9.62
340.077	6.62
340.866	4.62
341.655	6.62
342.444	4.62
343.233	5.62
344.022	4.62
344.811	5.62
345.6	4.62
346.388	4.62
347.177	4.62
347.965	6.62
348.754	8.62
349.542	6.62
350.33	5.62
351.119	6.62
351.907	5.62
352.695	5.62
353.483	7.62
354.271	6.62
355.059	5.62
355.846	1.62
356.634	7.62
357.422	3.62
358.209	4.62
358.997	7.62
359.784	4.62
360.571	5.62
361.359	6.62
362.146	4.62
362.933	5.62
363.72	5.62
364.507	4.62
365.294	4.62
366.081	6.62
366.867	6.62
367.654	5.62
368.44	7.62
369.227	4.62
370.013	6.62
370.8	6.62
371.586	4.62
372.372	6.62
373.158	3.62
373.944	6.62
374.73	2.62
375.516	6.62
376.302	2.62
377.088	3.62
377.873	5.62
378.659	4.62
379.445	4.62
380.23	4.62
381.015	6.62
381.801	4.62
382.586	3.62
383.371	2.62
384.156	3.62
384.941	6.62
385.726	6.62
386.511	2.62
387.296	7.62
388.08	6.62
388.865	3.62
389.649	3.62
390.434	5.62
391.218	5.62
392.003	5.62
392.787	5.62
393.571	6.62
394.355	5.62
395.139	6.62
395.923	5.62
396.707	6.62
397.491	7.62
398.274	6.62
399.058	7.62
399.842	5.62
400.625	6.62
401.408	7.62
402.192	6.62
402.975	7.62
403.758	7.62
404.541	6.62
405.324	7.62
406.107	8.62
406.89	8.62
407.673	6.62
408.456	7.62
409.238	6.62
410.021	7.62
410.803	6.62
411.586	6.62
412.368	9.62
413.151	8.62
413.933	8.62
414.715	9.62
415.497	9.62
416.279	11.62
417.061	6.62
417.843	7.62
418.624	9.62
419.406	9.62
420.188	10.62
420.969	10.62
421.751	10.62
422.532	10.62
423.313	11.62
424.095	12.62
424.876	11.62
425.657	12.62
426.438	9.62
427.219	13.62
428	11.62
428.78	12.62
429.561	14.62
430.342	13.62
431.122	14.62
431.903	16.62
432.683	14.62
433.464	17.62
434.244	15.62
435.024	21.62
435.804	18.62
436.584	17.62
437.364	19.62
438.144	21.62
438.924	20.62
439.704	23.62
440.483	25.62
441.263	23.62
442.042	26.62
442.822	29.62
443.601	27.62
444.38	30.62
445.16	31.62
445.939	34.62
446.718	35.62
447.497	37.62
448.276	40.62
449.054	43.62
449.833	45.62
450.612	53.62
451.391	54.62
452.169	65.62
452.948	67.62
453.726	76.62
454.504	84.62
455.282	93.62
456.061	103.62
456.839	110.62
457.617	121.62
458.395	138.62
459.172	149.62
459.95	161.62
460.728	190.62
461.506	208.62
462.283	235.62
463.061	259.62
463.838	285.62
464.615	318.62
465.393	361.62
466.17	404.62
466.947	455.62
467.724	494.62
468.501	555.62
469.278	626.62
470.055	695.62
470.831	775.62
471.608	867.62
472.385	940.62
473.161	1043.62
473.938	1165.62
474.714	1308.62
475.49	1434.62
476.266	1581.62
477.043	1750.62
477.819	1916.62
478.595	2121.62
479.371	2356.62
480.146	2584.62
480.922	2845.62
481.698	3140.62
482.473	3447.62
483.249	3799.62
484.024	4186.62
484.8	4615.62
485.575	5067.62
486.35	5563.62
487.126	6069.62
487.901	6674.62
488.676	7332.62
489.451	8020.62
490.225	8782.62
491	9554.62
491.775	10428.62
492.55	11397.62
493.324	12338.62
494.099	13239.62
494.873	14322.62
495.647	15430.62
496.422	16521.62
497.196	17772.62
497.97	18964.62
498.744	20099.62
499.518	21245.62
500.292	22393.62
501.066	23419.62
501.839	24414.62
502.613	25363.62
503.387	26086.62
504.16	26745.62
504.934	27106.62
505.707	27249.62
506.48	27366.62
507.253	27265.62
508.027	27071.62
508.8	26725.62
509.573	26342.62
510.346	25723.62
511.118	25025.62
511.891	24200.62
512.664	23358.62
513.437	22525.62
514.209	21550.62
514.982	20675.62
515.754	19789.62
516.526	18875.62
517.298	18078.62
518.071	17273.62
518.843	16581.62
519.615	15988.62
520.387	15335.62
521.159	14795.62
521.93	14147.62
522.702	13600.62
523.474	13038.62
524.245	12491.62
525.017	11975.62
525.788	11481.62
526.56	11008.62
527.331	10429.62
528.102	10003.62
528.873	9519.62
529.644	9060.62
530.415	8603.62
531.186	8152.62
531.957	7758.62
532.728	7389.62
533.498	6981.62
534.269	6581.62
535.039	6219.62
535.81	5910.62
536.58	5523.62
537.351	5220.62
538.121	4937.62
538.891	4703.62
539.661	4422.62
540.431	4194.62
541.201	3944.62
541.971	3756.62
542.741	3558.62
543.51	3376.62
544.28	3224.62
545.05	3053.62
545.819	2925.62
546.588	2773.62
547.358	2632.62
548.127	2501.62
548.896	2361.62
549.665	2259.62
550.434	2115.62
551.203	2026.62
551.972	1909.62
552.741	1800.62
553.51	1706.62
554.278	1608.62
555.047	1533.62
555.815	1430.62
556.584	1348.62
557.352	1275.62
558.121	1210.62
558.889	1139.62
559.657	1072.62
560.425	1023.62
561.193	950.62
561.961	894.62
562.729	865.62
563.496	801.62
564.264	755.62
565.032	730.62
565.799	689.62
566.567	645.62
567.334	607.62
568.101	573.62
568.869	541.62
569.636	517.62
570.403	487.62
571.17	446.62
571.937	426.62
572.704	411.62
573.471	392.62
574.237	359.62
575.004	337.62
575.771	319.62
576.537	296.62
577.303	287.62
578.07	267.62
578.836	249.62
579.602	232.62
580.368	227.62
581.134	217.62
581.9	198.62
582.666	192.62
583.432	178.62
584.198	171.62
584.964	160.62
585.729	161.62
586.495	147.62
587.26	137.62
588.025	135.62
588.791	124.62
589.556	118.62
590.321	111.62
591.086	108.62
591.851	99.62
592.616	95.62
593.381	92.62
594.146	87.62
594.911	86.62
595.675	77.62
596.44	69.62
597.204	71.62
597.969	69.62
598.733	61.62
599.497	60.62
600.261	62.62
601.025	58.62
601.79	53.62
602.553	49.62
603.317	50.62
604.081	50.62
604.845	47.62
605.609	43.62
606.372	43.62
607.136	40.62
607.899	37.62
608.662	41.62
609.426	36.62
610.189	33.62
610.952	35.62
611.715	28.62
612.478	29.62
613.241	29.62
614.004	26.62
614.767	25.62
615.529	27.62
616.292	25.62
617.055	25.62
617.817	25.62
618.579	22.62
619.342	23.62
620.104	19.62
620.866	20.62
621.628	21.62
622.39	18.62
623.152	17.62
623.914	18.62
624.676	15.62
625.438	18.62
626.199	18.62
626.961	16.62
627.722	15.62
628.484	15.62
629.245	11.62
630.006	13.62
630.768	11.62
631.529	12.62
632.29	10.62
633.051	14.62
633.812	10.62
634.573	9.62
635.333	8.62
636.094	9.62
636.855	10.62
637.615	11.62
638.376	11.62
639.136	13.62
639.896	9.62
640.657	8.62
641.417	6.62
642.177	7.62
642.937	6.62
643.697	8.62
644.457	9.62
645.216	9.62
645.976	9.62
646.736	10.62
647.495	7.62
648.255	5.62
649.014	7.62
649.774	7.62
650.533	7.62
651.292	7.62
652.051	5.62
652.81	8.62
653.569	3.62
654.328	4.62
655.087	3.62
655.846	6.62
656.604	6.62
657.363	5.62
658.121	4.62
658.88	7.62
659.638	5.62
660.397	6.62
661.155	5.62
661.913	4.62
662.671	4.62
663.429	4.62
664.187	5.62
664.945	6.62
665.703	5.62
666.46	4.62
667.218	4.62
667.976	6.62
668.733	2.62
669.49	4.62
670.248	3.62
671.005	5.62
671.762	5.62
672.519	4.62
673.276	4.62
674.033	2.62
674.79	4.62
675.547	3.62
676.304	3.62
677.06	6.62
677.817	3.62
678.574	4.62
679.33	1.62
680.086	5.62
680.843	6.62
681.599	2.62
682.355	5.62
683.111	2.62
683.867	4.62
684.623	3.62
685.379	2.62
686.135	2.62
686.89	1.62
687.646	3.62
688.402	3.62
689.157	5.62
689.912	4.62
690.668	3.62
691.423	4.62
692.178	4.62
692.933	3.62
693.688	5.62
694.443	2.62
695.198	3.62
695.953	3.62
696.708	6.62
697.462	3.62
698.217	2.62
698.972	3.62
699.726	3.62
700.48	4.62
701.235	2.62
701.989	2.62
702.743	2.62
703.497	3.62
704.251	4.62
705.005	3.62
705.759	4.62
706.513	1.62
707.266	3.62
708.02	5.62
708.774	5.62
709.527	3.62
710.28	2.62
711.034	3.62
711.787	3.62
712.54	3.62
713.293	4.62
714.046	4.62
714.799	4.62
715.552	5.62
716.305	4.62
717.058	1.62
717.81	4.62
718.563	3.62
719.315	5.62
720.068	4.62
720.82	3.62
721.573	2.62
722.325	1.62
723.077	2.62
723.829	2.62
724.581	1.62
725.333	4.62
726.085	1.62
726.836	3.62
727.588	2.62
728.34	6.62
729.091	5.62
729.843	2.62
730.594	2.62
731.346	4.62
732.097	3.62
732.848	3.62
733.599	2.62
734.35	4.62
735.101	0.62
735.852	4.62
736.603	5.62
737.354	4.62
738.104	4.62
738.855	4.62
739.605	4.62
740.356	3.62
741.106	5.62
741.856	4.62
742.607	6.62
743.357	4.62
744.107	3.62
744.857	4.62
745.607	4.62
746.357	4.62
747.106	4.62
747.856	5.62
748.606	4.62
749.355	5.62
750.105	5.62
750.854	2.62
751.603	5.62
752.353	7.62
753.102	4.62
753.851	5.62
754.6	4.62
755.349	7.62
756.098	5.62
756.847	8.62
757.595	6.62
758.344	5.62
759.093	5.62
759.841	4.62
760.589	5.62
761.338	5.62
762.086	7.62
762.834	5.62
763.582	6.62
764.331	5.62
765.079	6.62
765.826	7.62
766.574	6.62
767.322	5.62
768.07	6.62
768.817	7.62
769.565	5.62
770.312	5.62
771.06	7.62
771.807	7.62
772.554	6.62
773.302	5.62
774.049	6.62
774.796	7.62
775.543	9.62
776.29	6.62
777.036	7.62
777.783	7.62
778.53	7.62
779.276	5.62
780.023	9.62
780.769	8.62
781.516	8.62
782.262	10.62
783.008	7.62
783.754	9.62
784.5	11.62
785.246	5.62
785.992	8.62
786.738	9.62
787.484	7.62
788.23	6.62
788.975	7.62
789.721	9.62
790.466	10.62
791.212	9.62
791.957	3.62
792.702	10.62
793.447	7.62
794.193	8.62
794.938	7.62
795.683	6.62
796.427	7.62
797.172	8.62
797.917	8.62
798.662	7.62
799.406	7.62
800.151	9.62
800.895	8.62
801.64	6.62
802.384	8.62
803.128	10.62
803.872	6.62
804.616	5.62
805.36	5.62
806.104	5.62
806.848	4.62
807.592	5.62
808.336	3.62
809.079	7.62
809.823	5.62
810.566	6.62
811.31	3.62
812.053	5.62
812.796	3.62
813.539	2.62
814.283	4.62
815.026	5.62
815.769	6.62
816.511	5.62
817.254	4.62
817.997	5.62
818.74	4.62
819.482	6.62
820.225	3.62
820.967	5.62
821.71	4.62
822.452	3.62
823.194	4.62
823.936	3.62
824.678	3.62
825.42	3.62
826.162	4.62
826.904	4.62
827.646	2.62
828.388	5.62
829.129	3.62
829.871	4.62
830.612	3.62
831.354	2.62
832.095	4.62
832.836	3.62
833.577	2.62
834.319	3.62
835.06	3.62
835.801	4.62
836.542	2.62
837.282	4.62
838.023	0.62
838.764	3.62
839.504	2.62
840.245	2.62
840.985	1.62
841.726	1.62
842.466	5.62
843.206	1.62
843.946	3.62
844.687	3.62
845.427	3.62
846.166	1.62
846.906	3.62
847.646	3.62
848.386	1.62
849.125	1.62
849.865	1.62
850.605	4.62
851.344	2.62
852.083	1.62
852.823	7.62
853.562	1.62
854.301	0.62
855.04	3.62
855.779	1.62
856.518	3.62
857.257	3.62
857.995	1.62
858.734	1.62
859.473	2.62
860.211	1.62
860.95	3.62
861.688	3.62
862.426	-0.38
863.165	2.62
863.903	2.62
864.641	2.62
865.379	5.62
866.117	0.62
866.855	-0.38
867.593	1.62
868.33	0.62
869.068	1.62
869.806	0.62
870.543	0.62
871.28	1.62
872.018	1.62
872.755	1.62
873.492	-0.38
874.229	0.62
874.967	-0.38
875.703	1.62
876.44	0.62
877.177	0.62
877.914	1.62
878.651	0.62
879.387	0.62
880.124	0.62
880.86	0.62
881.597	0.62
882.333	1.62
883.069	0.62
883.806	0.62
884.542	1.62
885.278	0.62
886.014	1.62
886.749	2.62
887.485	0.62
888.221	1.62
888.957	0.62
889.692	-0.38
890.428	1.62
891.163	0.62
891.899	0.62
892.634	0.62
893.369	-0.38
894.104	-0.38
894.839	2.62
895.574	0.62
896.309	0.62
897.044	1.62
897.779	2.62
898.514	0.62
899.248	1.62
899.983	1.62
900.717	0.62
901.452	-1.38
902.186	1.62
902.92	0.62
903.654	0.62
904.389	-1.38
905.123	0.62
905.857	3.62
906.59	0.62
907.324	0.62
908.058	-0.38
908.792	0.62
909.525	1.62
910.259	2.62
910.992	1.62
911.726	-0.38
912.459	1.62
913.192	1.62
913.925	-0.38
914.658	-1.38
915.391	1.62
916.124	-2.38
916.857	-1.38
917.59	-0.38
918.323	-0.38
919.055	1.62
919.788	0.62
920.521	0.62
921.253	1.62
921.985	0.62
922.718	0.62
923.45	1.62
924.182	0.62
924.914	-0.38
925.646	-0.38
926.378	-0.38
927.11	-1.38
927.841	-0.38
928.573	1.62
929.305	-1.38
930.036	1.62
930.768	0.62
931.499	1.62
932.23	1.62
932.962	0.62
933.693	0.62
934.424	0.62
935.155	0.62
935.886	-0.38
936.617	1.62
937.348	0.62
938.078	-0.38
938.809	1.62
939.54	-1.38
940.27	-1.38
941.001	-2.38
941.731	0.62
942.461	-0.38
943.191	1.62
943.922	1.62
944.652	1.62
945.382	-0.38
946.112	0.62
946.841	-0.38
947.571	0.62
948.301	-2.38
949.031	0.62
949.76	-0.38
950.49	0.62
951.219	0.62
951.948	0.62
952.678	-2.38
953.407	-0.38
954.136	0.62
954.865	-0.38
955.594	-0.38
956.323	1.62
957.052	-0.38
957.78	0.62
958.509	-1.38
959.238	0.62
959.966	1.62
960.695	1.62
961.423	-2.38
962.151	-1.38
962.88	-1.38
963.608	0.62
964.336	1.62
965.064	-0.38
965.792	1.62
966.52	0.62
967.247	-1.38
967.975	0.62
968.703	0.62
969.43	0.62
970.158	1.62
970.885	0.62
971.613	-0.38
972.34	-0.38
973.067	1.62
973.794	-0.38
974.521	1.62
975.248	3.62
975.975	-1.38
976.702	0.62
977.429	-0.38
978.156	-0.38
978.882	0.62
979.609	0.62
980.335	0.62
981.062	-0.38
981.788	-0.38
982.514	0.62
983.24	-0.38
983.967	1.62
984.693	-0.38
985.419	0.62
986.144	-1.38
986.87	1.62
987.596	-2.38
988.322	0.62
989.047	-1.38
989.773	1.62
990.498	-0.38
991.224	-0.38
991.949	-0.38
992.674	-0.38
993.399	0.62
994.124	2.62
994.849	0.62
995.574	1.62
996.299	-0.38
997.024	1.62
997.749	0.62
998.473	-1.38
999.198	-0.38
999.922	-0.38
1000.647	1.62
1001.371	2.62
1002.095	0.62
1002.82	-1.38
1003.544	-0.38
1004.268	1.62
1004.992	1.62
1005.716	0.62
1006.439	-0.38
1007.163	3.62
1007.887	1.62
1008.611	0.62
1009.334	1.62
1010.058	-0.38
1010.781	1.62
1011.504	-0.38
1012.228	1.62
1012.951	-0.38
1013.674	-0.38
1014.397	-2.38
1015.12	1.62
