节点500_285_QEPB04081__54__14-56-27-354.txt的数据

Date: Wed Nov 12 14:56:27 CST 2025
User: PC
Spectrometer: QEPB0408
触发模式: 0
积分时间 (秒): 1.000000E-2
Scans to average: 1
启用暗噪声校正: true
启用非线性校正: false
滑动平均宽度: 0
X轴模式: Wavelengths
Number of Pixels in Spectrum: 1044
>>>>>Begin Spectral Data<<<<<
220.843	2.12
221.644	2.12
222.444	4.12
223.244	2.12
224.045	5.12
224.845	1.12
225.645	2.12
226.445	1.12
227.245	4.12
228.045	3.12
228.845	4.12
229.645	0.12
230.444	5.12
231.244	3.12
232.043	2.12
232.843	2.12
233.642	4.12
234.442	4.12
235.241	5.12
236.04	4.12
236.839	4.12
237.638	5.12
238.437	4.12
239.236	5.12
240.035	5.12
240.833	6.12
241.632	5.12
242.43	1.12
243.229	7.12
244.027	6.12
244.826	4.12
245.624	6.12
246.422	4.12
247.22	6.12
248.018	4.12
248.816	6.12
249.614	9.12
250.412	5.12
251.21	6.12
252.007	8.12
252.805	7.12
253.602	7.12
254.4	9.12
255.197	8.12
255.994	8.12
256.791	9.12
257.589	11.12
258.386	7.12
259.183	10.12
259.979	10.12
260.776	9.12
261.573	11.12
262.37	13.12
263.166	13.12
263.963	13.12
264.759	14.12
265.556	12.12
266.352	12.12
267.148	14.12
267.944	17.12
268.74	17.12
269.536	16.12
270.332	14.12
271.128	16.12
271.924	18.12
272.719	19.12
273.515	15.12
274.311	18.12
275.106	16.12
275.901	19.12
276.697	21.12
277.492	19.12
278.287	17.12
279.082	20.12
279.877	21.12
280.672	18.12
281.467	22.12
282.262	20.12
283.056	20.12
283.851	20.12
284.646	17.12
285.44	20.12
286.234	19.12
287.029	18.12
287.823	19.12
288.617	19.12
289.411	19.12
290.205	15.12
290.999	21.12
291.793	14.12
292.587	21.12
293.381	18.12
294.174	17.12
294.968	17.12
295.761	16.12
296.555	18.12
297.348	15.12
298.141	13.12
298.935	15.12
299.728	14.12
300.521	15.12
301.314	16.12
302.107	17.12
302.899	13.12
303.692	11.12
304.485	13.12
305.277	16.12
306.07	12.12
306.862	14.12
307.655	13.12
308.447	12.12
309.239	11.12
310.031	12.12
310.823	9.12
311.615	10.12
312.407	9.12
313.199	10.12
313.991	9.12
314.783	9.12
315.574	10.12
316.366	8.12
317.157	9.12
317.949	9.12
318.74	7.12
319.531	9.12
320.322	11.12
321.113	8.12
321.904	9.12
322.695	7.12
323.486	7.12
324.277	9.12
325.068	8.12
325.858	8.12
326.649	7.12
327.439	8.12
328.23	7.12
329.02	7.12
329.81	8.12
330.6	5.12
331.391	8.12
332.181	6.12
332.971	9.12
333.76	6.12
334.55	7.12
335.34	6.12
336.13	4.12
336.919	6.12
337.709	7.12
338.498	7.12
339.287	5.12
340.077	5.12
340.866	7.12
341.655	7.12
342.444	6.12
343.233	6.12
344.022	7.12
344.811	7.12
345.6	8.12
346.388	7.12
347.177	6.12
347.965	6.12
348.754	6.12
349.542	6.12
350.33	8.12
351.119	6.12
351.907	6.12
352.695	8.12
353.483	6.12
354.271	5.12
355.059	5.12
355.846	5.12
356.634	6.12
357.422	8.12
358.209	6.12
358.997	5.12
359.784	6.12
360.571	5.12
361.359	9.12
362.146	8.12
362.933	6.12
363.72	5.12
364.507	6.12
365.294	7.12
366.081	5.12
366.867	6.12
367.654	2.12
368.44	8.12
369.227	3.12
370.013	4.12
370.8	5.12
371.586	5.12
372.372	5.12
373.158	5.12
373.944	5.12
374.73	6.12
375.516	7.12
376.302	6.12
377.088	4.12
377.873	4.12
378.659	7.12
379.445	3.12
380.23	5.12
381.015	6.12
381.801	3.12
382.586	7.12
383.371	5.12
384.156	6.12
384.941	3.12
385.726	5.12
386.511	5.12
387.296	5.12
388.08	6.12
388.865	6.12
389.649	8.12
390.434	6.12
391.218	5.12
392.003	7.12
392.787	6.12
393.571	7.12
394.355	6.12
395.139	5.12
395.923	8.12
396.707	6.12
397.491	6.12
398.274	6.12
399.058	6.12
399.842	6.12
400.625	5.12
401.408	9.12
402.192	6.12
402.975	8.12
403.758	7.12
404.541	8.12
405.324	8.12
406.107	8.12
406.89	7.12
407.673	9.12
408.456	7.12
409.238	9.12
410.021	9.12
410.803	10.12
411.586	6.12
412.368	10.12
413.151	9.12
413.933	9.12
414.715	10.12
415.497	9.12
416.279	11.12
417.061	9.12
417.843	10.12
418.624	9.12
419.406	9.12
420.188	12.12
420.969	8.12
421.751	11.12
422.532	11.12
423.313	12.12
424.095	14.12
424.876	12.12
425.657	10.12
426.438	12.12
427.219	13.12
428	13.12
428.78	13.12
429.561	13.12
430.342	15.12
431.122	15.12
431.903	12.12
432.683	13.12
433.464	16.12
434.244	15.12
435.024	17.12
435.804	16.12
436.584	21.12
437.364	18.12
438.144	20.12
438.924	21.12
439.704	21.12
440.483	25.12
441.263	27.12
442.042	27.12
442.822	27.12
443.601	29.12
444.38	28.12
445.16	29.12
445.939	34.12
446.718	35.12
447.497	36.12
448.276	38.12
449.054	41.12
449.833	47.12
450.612	49.12
451.391	52.12
452.169	56.12
452.948	63.12
453.726	70.12
454.504	75.12
455.282	82.12
456.061	89.12
456.839	98.12
457.617	115.12
458.395	124.12
459.172	141.12
459.95	154.12
460.728	170.12
461.506	191.12
462.283	212.12
463.061	240.12
463.838	260.12
464.615	297.12
465.393	330.12
466.17	370.12
466.947	419.12
467.724	464.12
468.501	516.12
469.278	571.12
470.055	644.12
470.831	719.12
471.608	807.12
472.385	900.12
473.161	989.12
473.938	1114.12
474.714	1251.12
475.49	1398.12
476.266	1536.12
477.043	1716.12
477.819	1890.12
478.595	2090.12
479.371	2331.12
480.146	2567.12
480.922	2874.12
481.698	3191.12
482.473	3537.12
483.249	3910.12
484.024	4358.12
484.8	4777.12
485.575	5327.12
486.35	5854.12
487.126	6454.12
487.901	7134.12
488.676	7860.12
489.451	8672.12
490.225	9496.12
491	10424.12
491.775	11461.12
492.55	12543.12
493.324	13606.12
494.099	14750.12
494.873	15886.12
495.647	17222.12
496.422	18466.12
497.196	19792.12
497.97	21108.12
498.744	22358.12
499.518	23693.12
500.292	24841.12
501.066	25906.12
501.839	26893.12
502.613	27659.12
503.387	28432.12
504.16	28924.12
504.934	29070.12
505.707	29161.12
506.48	28947.12
507.253	28604.12
508.027	28149.12
508.8	27644.12
509.573	26909.12
510.346	26090.12
511.118	25197.12
511.891	24248.12
512.664	23255.12
513.437	22314.12
514.209	21249.12
514.982	20348.12
515.754	19398.12
516.526	18496.12
517.298	17650.12
518.071	16926.12
518.843	16216.12
519.615	15637.12
520.387	15021.12
521.159	14400.12
521.93	13791.12
522.702	13288.12
523.474	12691.12
524.245	12198.12
525.017	11638.12
525.788	11174.12
526.56	10654.12
527.331	10126.12
528.102	9641.12
528.873	9161.12
529.644	8680.12
530.415	8258.12
531.186	7812.12
531.957	7401.12
532.728	6978.12
533.498	6618.12
534.269	6228.12
535.039	5885.12
535.81	5565.12
536.58	5245.12
537.351	4945.12
538.121	4638.12
538.891	4393.12
539.661	4150.12
540.431	3944.12
541.201	3717.12
541.971	3537.12
542.741	3337.12
543.51	3174.12
544.28	3031.12
545.05	2878.12
545.819	2738.12
546.588	2603.12
547.358	2472.12
548.127	2339.12
548.896	2216.12
549.665	2123.12
550.434	2004.12
551.203	1898.12
551.972	1766.12
552.741	1676.12
553.51	1597.12
554.278	1489.12
555.047	1410.12
555.815	1332.12
556.584	1266.12
557.352	1198.12
558.121	1108.12
558.889	1050.12
559.657	990.12
560.425	944.12
561.193	889.12
561.961	845.12
562.729	789.12
563.496	734.12
564.264	698.12
565.032	666.12
565.799	634.12
566.567	597.12
567.334	561.12
568.101	523.12
568.869	503.12
569.636	474.12
570.403	445.12
571.17	419.12
571.937	391.12
572.704	377.12
573.471	360.12
574.237	338.12
575.004	310.12
575.771	303.12
576.537	279.12
577.303	261.12
578.07	247.12
578.836	234.12
579.602	221.12
580.368	205.12
581.134	199.12
581.9	182.12
582.666	174.12
583.432	163.12
584.198	160.12
584.964	148.12
585.729	144.12
586.495	136.12
587.26	127.12
588.025	118.12
588.791	116.12
589.556	111.12
590.321	106.12
591.086	101.12
591.851	94.12
592.616	93.12
593.381	85.12
594.146	77.12
594.911	75.12
595.675	71.12
596.44	72.12
597.204	67.12
597.969	64.12
598.733	59.12
599.497	58.12
600.261	52.12
601.025	53.12
601.79	50.12
602.553	49.12
603.317	44.12
604.081	45.12
604.845	44.12
605.609	41.12
606.372	41.12
607.136	39.12
607.899	36.12
608.662	37.12
609.426	36.12
610.189	28.12
610.952	28.12
611.715	30.12
612.478	26.12
613.241	27.12
614.004	26.12
614.767	25.12
615.529	25.12
616.292	25.12
617.055	23.12
617.817	24.12
618.579	21.12
619.342	19.12
620.104	19.12
620.866	23.12
621.628	21.12
622.39	18.12
623.152	18.12
623.914	17.12
624.676	18.12
625.438	16.12
626.199	16.12
626.961	13.12
627.722	14.12
628.484	13.12
629.245	13.12
630.006	13.12
630.768	11.12
631.529	13.12
632.29	12.12
633.051	11.12
633.812	11.12
634.573	10.12
635.333	12.12
636.094	9.12
636.855	11.12
637.615	11.12
638.376	7.12
639.136	9.12
639.896	11.12
640.657	7.12
641.417	10.12
642.177	11.12
642.937	10.12
643.697	9.12
644.457	10.12
645.216	7.12
645.976	6.12
646.736	7.12
647.495	8.12
648.255	9.12
649.014	5.12
649.774	8.12
650.533	8.12
651.292	8.12
652.051	7.12
652.81	8.12
653.569	6.12
654.328	8.12
655.087	6.12
655.846	7.12
656.604	6.12
657.363	9.12
658.121	4.12
658.88	5.12
659.638	5.12
660.397	3.12
661.155	5.12
661.913	5.12
662.671	7.12
663.429	5.12
664.187	7.12
664.945	6.12
665.703	6.12
666.46	6.12
667.218	3.12
667.976	7.12
668.733	5.12
669.49	4.12
670.248	3.12
671.005	4.12
671.762	5.12
672.519	6.12
673.276	5.12
674.033	2.12
674.79	5.12
675.547	5.12
676.304	4.12
677.06	4.12
677.817	5.12
678.574	3.12
679.33	6.12
680.086	3.12
680.843	3.12
681.599	6.12
682.355	3.12
683.111	3.12
683.867	5.12
684.623	5.12
685.379	4.12
686.135	6.12
686.89	5.12
687.646	3.12
688.402	3.12
689.157	4.12
689.912	3.12
690.668	5.12
691.423	5.12
692.178	4.12
692.933	5.12
693.688	6.12
694.443	4.12
695.198	5.12
695.953	4.12
696.708	4.12
697.462	3.12
698.217	4.12
698.972	1.12
699.726	3.12
700.48	4.12
701.235	1.12
701.989	2.12
702.743	3.12
703.497	3.12
704.251	4.12
705.005	5.12
705.759	3.12
706.513	5.12
707.266	5.12
708.02	3.12
708.774	2.12
709.527	4.12
710.28	4.12
711.034	3.12
711.787	4.12
712.54	3.12
713.293	3.12
714.046	3.12
714.799	3.12
715.552	5.12
716.305	5.12
717.058	5.12
717.81	6.12
718.563	1.12
719.315	3.12
720.068	4.12
720.82	6.12
721.573	3.12
722.325	6.12
723.077	4.12
723.829	3.12
724.581	4.12
725.333	3.12
726.085	3.12
726.836	4.12
727.588	4.12
728.34	7.12
729.091	5.12
729.843	4.12
730.594	4.12
731.346	7.12
732.097	5.12
732.848	3.12
733.599	4.12
734.35	3.12
735.101	4.12
735.852	4.12
736.603	2.12
737.354	4.12
738.104	5.12
738.855	4.12
739.605	3.12
740.356	7.12
741.106	4.12
741.856	3.12
742.607	6.12
743.357	5.12
744.107	7.12
744.857	3.12
745.607	4.12
746.357	9.12
747.106	5.12
747.856	5.12
748.606	4.12
749.355	6.12
750.105	7.12
750.854	4.12
751.603	7.12
752.353	7.12
753.102	5.12
753.851	6.12
754.6	7.12
755.349	7.12
756.098	6.12
756.847	6.12
757.595	7.12
758.344	8.12
759.093	7.12
759.841	4.12
760.589	9.12
761.338	5.12
762.086	5.12
762.834	8.12
763.582	7.12
764.331	9.12
765.079	7.12
765.826	7.12
766.574	8.12
767.322	10.12
768.07	7.12
768.817	8.12
769.565	8.12
770.312	10.12
771.06	8.12
771.807	9.12
772.554	6.12
773.302	8.12
774.049	6.12
774.796	10.12
775.543	10.12
776.29	11.12
777.036	11.12
777.783	9.12
778.53	11.12
779.276	9.12
780.023	9.12
780.769	11.12
781.516	8.12
782.262	8.12
783.008	9.12
783.754	9.12
784.5	9.12
785.246	11.12
785.992	10.12
786.738	9.12
787.484	9.12
788.23	10.12
788.975	10.12
789.721	8.12
790.466	10.12
791.212	9.12
791.957	8.12
792.702	10.12
793.447	8.12
794.193	10.12
794.938	7.12
795.683	8.12
796.427	9.12
797.172	8.12
797.917	9.12
798.662	8.12
799.406	8.12
800.151	7.12
800.895	6.12
801.64	9.12
802.384	7.12
803.128	7.12
803.872	8.12
804.616	7.12
805.36	7.12
806.104	7.12
806.848	3.12
807.592	6.12
808.336	7.12
809.079	8.12
809.823	4.12
810.566	6.12
811.31	5.12
812.053	6.12
812.796	6.12
813.539	5.12
814.283	8.12
815.026	6.12
815.769	7.12
816.511	7.12
817.254	4.12
817.997	4.12
818.74	6.12
819.482	8.12
820.225	4.12
820.967	5.12
821.71	3.12
822.452	5.12
823.194	3.12
823.936	3.12
824.678	5.12
825.42	3.12
826.162	4.12
826.904	5.12
827.646	3.12
828.388	5.12
829.129	3.12
829.871	4.12
830.612	4.12
831.354	3.12
832.095	5.12
832.836	4.12
833.577	5.12
834.319	3.12
835.06	5.12
835.801	3.12
836.542	4.12
837.282	4.12
838.023	3.12
838.764	4.12
839.504	5.12
840.245	4.12
840.985	3.12
841.726	2.12
842.466	2.12
843.206	1.12
843.946	2.12
844.687	3.12
845.427	1.12
846.166	2.12
846.906	1.12
847.646	4.12
848.386	1.12
849.125	4.12
849.865	3.12
850.605	2.12
851.344	3.12
852.083	3.12
852.823	4.12
853.562	4.12
854.301	1.12
855.04	4.12
855.779	2.12
856.518	1.12
857.257	4.12
857.995	2.12
858.734	3.12
859.473	2.12
860.211	2.12
860.95	3.12
861.688	0.12
862.426	1.12
863.165	2.12
863.903	1.12
864.641	3.12
865.379	4.12
866.117	1.12
866.855	3.12
867.593	3.12
868.33	-0.88
869.068	1.12
869.806	3.12
870.543	1.12
871.28	3.12
872.018	2.12
872.755	1.12
873.492	1.12
874.229	3.12
874.967	2.12
875.703	-0.88
876.44	-0.88
877.177	1.12
877.914	0.12
878.651	2.12
879.387	0.12
880.124	0.12
880.86	1.12
881.597	0.12
882.333	2.12
883.069	1.12
883.806	-0.88
884.542	1.12
885.278	1.12
886.014	1.12
886.749	3.12
887.485	1.12
888.221	1.12
888.957	2.12
889.692	0.12
890.428	2.12
891.163	-0.88
891.899	1.12
892.634	1.12
893.369	-0.88
894.104	0.12
894.839	1.12
895.574	1.12
896.309	1.12
897.044	1.12
897.779	-0.88
898.514	1.12
899.248	0.12
899.983	0.12
900.717	0.12
901.452	0.12
902.186	-0.88
902.92	-0.88
903.654	2.12
904.389	-0.88
905.123	1.12
905.857	1.12
906.59	1.12
907.324	0.12
908.058	1.12
908.792	1.12
909.525	2.12
910.259	1.12
910.992	-2.88
911.726	1.12
912.459	-2.88
913.192	2.12
913.925	0.12
914.658	3.12
915.391	1.12
916.124	1.12
916.857	0.12
917.59	1.12
918.323	0.12
919.055	1.12
919.788	1.12
920.521	1.12
921.253	1.12
921.985	0.12
922.718	0.12
923.45	-1.88
924.182	1.12
924.914	2.12
925.646	2.12
926.378	1.12
927.11	-1.88
927.841	0.12
928.573	0.12
929.305	2.12
930.036	-0.88
930.768	2.12
931.499	1.12
932.23	1.12
932.962	1.12
933.693	-1.88
934.424	-0.88
935.155	3.12
935.886	0.12
936.617	1.12
937.348	-0.88
938.078	0.12
938.809	-1.88
939.54	0.12
940.27	2.12
941.001	0.12
941.731	0.12
942.461	-0.88
943.191	0.12
943.922	2.12
944.652	-0.88
945.382	-0.88
946.112	1.12
946.841	0.12
947.571	0.12
948.301	-0.88
949.031	1.12
949.76	0.12
950.49	2.12
951.219	1.12
951.948	1.12
952.678	0.12
953.407	-1.88
954.136	1.12
954.865	-0.88
955.594	2.12
956.323	0.12
957.052	0.12
957.78	1.12
958.509	0.12
959.238	0.12
959.966	-0.88
960.695	-1.88
961.423	0.12
962.151	1.12
962.88	1.12
963.608	-2.88
964.336	0.12
965.064	1.12
965.792	-0.88
966.52	-0.88
967.247	-0.88
967.975	5.12
968.703	-0.88
969.43	-0.88
970.158	1.12
970.885	1.12
971.613	1.12
972.34	-0.88
973.067	1.12
973.794	1.12
974.521	0.12
975.248	2.12
975.975	0.12
976.702	2.12
977.429	1.12
978.156	2.12
978.882	0.12
979.609	0.12
980.335	0.12
981.062	0.12
981.788	0.12
982.514	-0.88
983.24	2.12
983.967	1.12
984.693	-0.88
985.419	2.12
986.144	-0.88
986.87	0.12
987.596	0.12
988.322	1.12
989.047	-0.88
989.773	0.12
990.498	1.12
991.224	1.12
991.949	-0.88
992.674	1.12
993.399	1.12
994.124	0.12
994.849	2.12
995.574	-0.88
996.299	1.12
997.024	-1.88
997.749	1.12
998.473	0.12
999.198	0.12
999.922	0.12
1000.647	-0.88
1001.371	4.12
1002.095	-1.88
1002.82	-0.88
1003.544	-1.88
1004.268	0.12
1004.992	2.12
1005.716	0.12
1006.439	0.12
1007.163	2.12
1007.887	3.12
1008.611	-0.88
1009.334	-0.88
1010.058	1.12
1010.781	-0.88
1011.504	1.12
1012.228	0.12
1012.951	-1.88
1013.674	1.12
1014.397	-0.88
1015.12	2.12
