节点500_285_QEPB04081__603__15-05-35-176.txt的数据

Date: Wed Nov 12 15:05:35 CST 2025
User: PC
Spectrometer: QEPB0408
触发模式: 0
积分时间 (秒): 1.000000E-2
Scans to average: 1
启用暗噪声校正: true
启用非线性校正: false
滑动平均宽度: 0
X轴模式: Wavelengths
Number of Pixels in Spectrum: 1044
>>>>>Begin Spectral Data<<<<<
220.843	4.5
221.644	0.5
222.444	0.5
223.244	1.5
224.045	-0.5
224.845	2.5
225.645	2.5
226.445	1.5
227.245	3.5
228.045	3.5
228.845	4.5
229.645	-2.5
230.444	2.5
231.244	1.5
232.043	3.5
232.843	5.5
233.642	2.5
234.442	1.5
235.241	1.5
236.04	3.5
236.839	2.5
237.638	2.5
238.437	3.5
239.236	4.5
240.035	3.5
240.833	3.5
241.632	3.5
242.43	4.5
243.229	3.5
244.027	4.5
244.826	6.5
245.624	5.5
246.422	4.5
247.22	6.5
248.018	5.5
248.816	4.5
249.614	6.5
250.412	2.5
251.21	4.5
252.007	4.5
252.805	6.5
253.602	7.5
254.4	6.5
255.197	6.5
255.994	7.5
256.791	7.5
257.589	10.5
258.386	8.5
259.183	6.5
259.979	10.5
260.776	10.5
261.573	8.5
262.37	9.5
263.166	9.5
263.963	11.5
264.759	9.5
265.556	9.5
266.352	9.5
267.148	9.5
267.944	10.5
268.74	13.5
269.536	13.5
270.332	15.5
271.128	12.5
271.924	14.5
272.719	12.5
273.515	16.5
274.311	15.5
275.106	15.5
275.901	14.5
276.697	17.5
277.492	13.5
278.287	16.5
279.082	16.5
279.877	17.5
280.672	17.5
281.467	16.5
282.262	17.5
283.056	17.5
283.851	16.5
284.646	16.5
285.44	17.5
286.234	17.5
287.029	19.5
287.823	18.5
288.617	16.5
289.411	18.5
290.205	18.5
290.999	15.5
291.793	16.5
292.587	18.5
293.381	15.5
294.174	17.5
294.968	15.5
295.761	14.5
296.555	15.5
297.348	14.5
298.141	16.5
298.935	14.5
299.728	15.5
300.521	14.5
301.314	15.5
302.107	12.5
302.899	12.5
303.692	12.5
304.485	14.5
305.277	12.5
306.07	13.5
306.862	9.5
307.655	10.5
308.447	10.5
309.239	13.5
310.031	9.5
310.823	11.5
311.615	9.5
312.407	8.5
313.199	8.5
313.991	10.5
314.783	9.5
315.574	8.5
316.366	6.5
317.157	7.5
317.949	6.5
318.74	10.5
319.531	6.5
320.322	9.5
321.113	7.5
321.904	7.5
322.695	9.5
323.486	6.5
324.277	7.5
325.068	8.5
325.858	7.5
326.649	7.5
327.439	8.5
328.23	9.5
329.02	5.5
329.81	4.5
330.6	6.5
331.391	4.5
332.181	7.5
332.971	4.5
333.76	5.5
334.55	4.5
335.34	4.5
336.13	4.5
336.919	3.5
337.709	5.5
338.498	5.5
339.287	4.5
340.077	6.5
340.866	8.5
341.655	7.5
342.444	4.5
343.233	6.5
344.022	6.5
344.811	5.5
345.6	6.5
346.388	6.5
347.177	5.5
347.965	3.5
348.754	5.5
349.542	8.5
350.33	6.5
351.119	7.5
351.907	7.5
352.695	6.5
353.483	3.5
354.271	6.5
355.059	6.5
355.846	5.5
356.634	6.5
357.422	6.5
358.209	3.5
358.997	4.5
359.784	5.5
360.571	1.5
361.359	2.5
362.146	4.5
362.933	3.5
363.72	5.5
364.507	2.5
365.294	6.5
366.081	5.5
366.867	3.5
367.654	5.5
368.44	4.5
369.227	5.5
370.013	5.5
370.8	3.5
371.586	5.5
372.372	2.5
373.158	4.5
373.944	6.5
374.73	7.5
375.516	4.5
376.302	5.5
377.088	4.5
377.873	2.5
378.659	4.5
379.445	3.5
380.23	6.5
381.015	4.5
381.801	2.5
382.586	4.5
383.371	3.5
384.156	6.5
384.941	8.5
385.726	5.5
386.511	5.5
387.296	4.5
388.08	4.5
388.865	4.5
389.649	7.5
390.434	6.5
391.218	7.5
392.003	6.5
392.787	6.5
393.571	5.5
394.355	4.5
395.139	6.5
395.923	6.5
396.707	7.5
397.491	6.5
398.274	7.5
399.058	6.5
399.842	5.5
400.625	6.5
401.408	6.5
402.192	7.5
402.975	11.5
403.758	6.5
404.541	5.5
405.324	8.5
406.107	6.5
406.89	9.5
407.673	6.5
408.456	9.5
409.238	5.5
410.021	9.5
410.803	7.5
411.586	9.5
412.368	9.5
413.151	8.5
413.933	7.5
414.715	7.5
415.497	11.5
416.279	8.5
417.061	7.5
417.843	10.5
418.624	6.5
419.406	12.5
420.188	11.5
420.969	9.5
421.751	9.5
422.532	7.5
423.313	11.5
424.095	11.5
424.876	12.5
425.657	10.5
426.438	6.5
427.219	13.5
428	10.5
428.78	11.5
429.561	12.5
430.342	13.5
431.122	12.5
431.903	11.5
432.683	14.5
433.464	16.5
434.244	17.5
435.024	17.5
435.804	16.5
436.584	16.5
437.364	17.5
438.144	20.5
438.924	19.5
439.704	23.5
440.483	23.5
441.263	22.5
442.042	25.5
442.822	24.5
443.601	27.5
444.38	30.5
445.16	32.5
445.939	38.5
446.718	37.5
447.497	38.5
448.276	40.5
449.054	46.5
449.833	47.5
450.612	56.5
451.391	59.5
452.169	62.5
452.948	73.5
453.726	75.5
454.504	86.5
455.282	95.5
456.061	107.5
456.839	117.5
457.617	130.5
458.395	143.5
459.172	157.5
459.95	180.5
460.728	199.5
461.506	223.5
462.283	246.5
463.061	276.5
463.838	303.5
464.615	346.5
465.393	379.5
466.17	422.5
466.947	476.5
467.724	525.5
468.501	593.5
469.278	663.5
470.055	724.5
470.831	801.5
471.608	891.5
472.385	990.5
473.161	1072.5
473.938	1198.5
474.714	1329.5
475.49	1463.5
476.266	1608.5
477.043	1760.5
477.819	1953.5
478.595	2117.5
479.371	2349.5
480.146	2587.5
480.922	2825.5
481.698	3092.5
482.473	3414.5
483.249	3742.5
484.024	4095.5
484.8	4488.5
485.575	4899.5
486.35	5347.5
487.126	5845.5
487.901	6372.5
488.676	6958.5
489.451	7609.5
490.225	8294.5
491	9024.5
491.775	9892.5
492.55	10680.5
493.324	11518.5
494.099	12421.5
494.873	13396.5
495.647	14405.5
496.422	15404.5
497.196	16533.5
497.97	17592.5
498.744	18692.5
499.518	19833.5
500.292	20938.5
501.066	21923.5
501.839	22902.5
502.613	23830.5
503.387	24653.5
504.16	25258.5
504.934	25762.5
505.707	25975.5
506.48	26279.5
507.253	26278.5
508.027	26173.5
508.8	26042.5
509.573	25743.5
510.346	25205.5
511.118	24628.5
511.891	23974.5
512.664	23233.5
513.437	22482.5
514.209	21637.5
514.982	20795.5
515.754	19976.5
516.526	19130.5
517.298	18321.5
518.071	17544.5
518.843	16857.5
519.615	16227.5
520.387	15633.5
521.159	15014.5
521.93	14360.5
522.702	13777.5
523.474	13278.5
524.245	12697.5
525.017	12144.5
525.788	11676.5
526.56	11154.5
527.331	10665.5
528.102	10156.5
528.873	9722.5
529.644	9319.5
530.415	8822.5
531.186	8421.5
531.957	7981.5
532.728	7593.5
533.498	7190.5
534.269	6824.5
535.039	6480.5
535.81	6097.5
536.58	5770.5
537.351	5428.5
538.121	5133.5
538.891	4876.5
539.661	4608.5
540.431	4332.5
541.201	4120.5
541.971	3894.5
542.741	3677.5
543.51	3496.5
544.28	3338.5
545.05	3157.5
545.819	3028.5
546.588	2871.5
547.358	2715.5
548.127	2584.5
548.896	2442.5
549.665	2353.5
550.434	2226.5
551.203	2091.5
551.972	1993.5
552.741	1876.5
553.51	1769.5
554.278	1687.5
555.047	1592.5
555.815	1492.5
556.584	1423.5
557.352	1341.5
558.121	1268.5
558.889	1202.5
559.657	1129.5
560.425	1058.5
561.193	1005.5
561.961	947.5
562.729	896.5
563.496	846.5
564.264	793.5
565.032	767.5
565.799	718.5
566.567	676.5
567.334	634.5
568.101	607.5
568.869	560.5
569.636	532.5
570.403	509.5
571.17	479.5
571.937	445.5
572.704	424.5
573.471	398.5
574.237	381.5
575.004	355.5
575.771	339.5
576.537	313.5
577.303	296.5
578.07	282.5
578.836	265.5
579.602	247.5
580.368	235.5
581.134	221.5
581.9	212.5
582.666	199.5
583.432	190.5
584.198	184.5
584.964	171.5
585.729	157.5
586.495	148.5
587.26	147.5
588.025	137.5
588.791	129.5
589.556	121.5
590.321	121.5
591.086	106.5
591.851	109.5
592.616	99.5
593.381	91.5
594.146	95.5
594.911	87.5
595.675	80.5
596.44	81.5
597.204	72.5
597.969	70.5
598.733	67.5
599.497	66.5
600.261	63.5
601.025	63.5
601.79	58.5
602.553	58.5
603.317	50.5
604.081	50.5
604.845	46.5
605.609	46.5
606.372	45.5
607.136	44.5
607.899	39.5
608.662	43.5
609.426	37.5
610.189	34.5
610.952	34.5
611.715	32.5
612.478	26.5
613.241	32.5
614.004	27.5
614.767	28.5
615.529	25.5
616.292	25.5
617.055	23.5
617.817	25.5
618.579	22.5
619.342	23.5
620.104	20.5
620.866	20.5
621.628	19.5
622.39	20.5
623.152	19.5
623.914	16.5
624.676	20.5
625.438	17.5
626.199	18.5
626.961	15.5
627.722	17.5
628.484	16.5
629.245	15.5
630.006	14.5
630.768	11.5
631.529	12.5
632.29	11.5
633.051	11.5
633.812	14.5
634.573	9.5
635.333	11.5
636.094	12.5
636.855	9.5
637.615	12.5
638.376	11.5
639.136	8.5
639.896	8.5
640.657	10.5
641.417	9.5
642.177	8.5
642.937	8.5
643.697	9.5
644.457	8.5
645.216	7.5
645.976	9.5
646.736	7.5
647.495	8.5
648.255	7.5
649.014	6.5
649.774	7.5
650.533	5.5
651.292	5.5
652.051	7.5
652.81	4.5
653.569	5.5
654.328	7.5
655.087	6.5
655.846	6.5
656.604	7.5
657.363	7.5
658.121	4.5
658.88	7.5
659.638	4.5
660.397	5.5
661.155	3.5
661.913	3.5
662.671	7.5
663.429	3.5
664.187	5.5
664.945	5.5
665.703	4.5
666.46	5.5
667.218	5.5
667.976	6.5
668.733	3.5
669.49	2.5
670.248	5.5
671.005	3.5
671.762	6.5
672.519	4.5
673.276	4.5
674.033	2.5
674.79	2.5
675.547	3.5
676.304	4.5
677.06	5.5
677.817	4.5
678.574	3.5
679.33	3.5
680.086	3.5
680.843	3.5
681.599	3.5
682.355	3.5
683.111	4.5
683.867	4.5
684.623	4.5
685.379	4.5
686.135	6.5
686.89	3.5
687.646	5.5
688.402	1.5
689.157	3.5
689.912	5.5
690.668	2.5
691.423	3.5
692.178	1.5
692.933	5.5
693.688	3.5
694.443	2.5
695.198	3.5
695.953	4.5
696.708	3.5
697.462	1.5
698.217	3.5
698.972	2.5
699.726	5.5
700.48	4.5
701.235	0.5
701.989	3.5
702.743	1.5
703.497	3.5
704.251	2.5
705.005	2.5
705.759	4.5
706.513	4.5
707.266	2.5
708.02	1.5
708.774	2.5
709.527	4.5
710.28	2.5
711.034	4.5
711.787	0.5
712.54	4.5
713.293	3.5
714.046	4.5
714.799	4.5
715.552	4.5
716.305	3.5
717.058	1.5
717.81	4.5
718.563	3.5
719.315	2.5
720.068	2.5
720.82	2.5
721.573	3.5
722.325	3.5
723.077	1.5
723.829	1.5
724.581	2.5
725.333	5.5
726.085	3.5
726.836	4.5
727.588	5.5
728.34	2.5
729.091	4.5
729.843	1.5
730.594	3.5
731.346	4.5
732.097	4.5
732.848	4.5
733.599	5.5
734.35	4.5
735.101	2.5
735.852	3.5
736.603	1.5
737.354	5.5
738.104	5.5
738.855	4.5
739.605	3.5
740.356	2.5
741.106	3.5
741.856	4.5
742.607	5.5
743.357	4.5
744.107	3.5
744.857	6.5
745.607	3.5
746.357	3.5
747.106	5.5
747.856	2.5
748.606	4.5
749.355	2.5
750.105	3.5
750.854	3.5
751.603	5.5
752.353	4.5
753.102	7.5
753.851	5.5
754.6	4.5
755.349	8.5
756.098	4.5
756.847	5.5
757.595	5.5
758.344	5.5
759.093	5.5
759.841	4.5
760.589	6.5
761.338	5.5
762.086	6.5
762.834	5.5
763.582	6.5
764.331	4.5
765.079	5.5
765.826	5.5
766.574	6.5
767.322	3.5
768.07	6.5
768.817	6.5
769.565	5.5
770.312	6.5
771.06	6.5
771.807	5.5
772.554	5.5
773.302	10.5
774.049	4.5
774.796	8.5
775.543	8.5
776.29	6.5
777.036	7.5
777.783	7.5
778.53	6.5
779.276	6.5
780.023	9.5
780.769	6.5
781.516	4.5
782.262	6.5
783.008	7.5
783.754	8.5
784.5	7.5
785.246	8.5
785.992	8.5
786.738	7.5
787.484	8.5
788.23	9.5
788.975	7.5
789.721	6.5
790.466	6.5
791.212	8.5
791.957	6.5
792.702	8.5
793.447	5.5
794.193	8.5
794.938	7.5
795.683	7.5
796.427	6.5
797.172	5.5
797.917	5.5
798.662	5.5
799.406	7.5
800.151	6.5
800.895	6.5
801.64	6.5
802.384	5.5
803.128	6.5
803.872	5.5
804.616	7.5
805.36	8.5
806.104	5.5
806.848	5.5
807.592	5.5
808.336	8.5
809.079	5.5
809.823	6.5
810.566	6.5
811.31	2.5
812.053	5.5
812.796	3.5
813.539	3.5
814.283	6.5
815.026	5.5
815.769	7.5
816.511	4.5
817.254	6.5
817.997	4.5
818.74	5.5
819.482	4.5
820.225	2.5
820.967	4.5
821.71	3.5
822.452	2.5
823.194	2.5
823.936	3.5
824.678	5.5
825.42	5.5
826.162	6.5
826.904	3.5
827.646	3.5
828.388	3.5
829.129	3.5
829.871	0.5
830.612	2.5
831.354	3.5
832.095	3.5
832.836	4.5
833.577	3.5
834.319	2.5
835.06	4.5
835.801	3.5
836.542	5.5
837.282	3.5
838.023	1.5
838.764	2.5
839.504	1.5
840.245	5.5
840.985	1.5
841.726	7.5
842.466	1.5
843.206	4.5
843.946	4.5
844.687	2.5
845.427	1.5
846.166	1.5
846.906	4.5
847.646	4.5
848.386	1.5
849.125	3.5
849.865	2.5
850.605	1.5
851.344	2.5
852.083	2.5
852.823	1.5
853.562	2.5
854.301	1.5
855.04	0.5
855.779	2.5
856.518	0.5
857.257	3.5
857.995	2.5
858.734	1.5
859.473	2.5
860.211	1.5
860.95	1.5
861.688	1.5
862.426	1.5
863.165	4.5
863.903	1.5
864.641	3.5
865.379	2.5
866.117	1.5
866.855	0.5
867.593	1.5
868.33	1.5
869.068	2.5
869.806	1.5
870.543	1.5
871.28	2.5
872.018	1.5
872.755	1.5
873.492	1.5
874.229	1.5
874.967	1.5
875.703	0.5
876.44	1.5
877.177	0.5
877.914	-0.5
878.651	1.5
879.387	-0.5
880.124	2.5
880.86	0.5
881.597	1.5
882.333	-1.5
883.069	0.5
883.806	2.5
884.542	-0.5
885.278	2.5
886.014	1.5
886.749	-0.5
887.485	0.5
888.221	1.5
888.957	2.5
889.692	1.5
890.428	2.5
891.163	-0.5
891.899	-0.5
892.634	0.5
893.369	-0.5
894.104	1.5
894.839	0.5
895.574	0.5
896.309	1.5
897.044	-0.5
897.779	-0.5
898.514	1.5
899.248	-0.5
899.983	1.5
900.717	2.5
901.452	-1.5
902.186	-2.5
902.92	1.5
903.654	-0.5
904.389	2.5
905.123	0.5
905.857	-1.5
906.59	0.5
907.324	-0.5
908.058	1.5
908.792	2.5
909.525	1.5
910.259	0.5
910.992	1.5
911.726	2.5
912.459	-1.5
913.192	-0.5
913.925	0.5
914.658	-2.5
915.391	0.5
916.124	-0.5
916.857	-1.5
917.59	-2.5
918.323	-0.5
919.055	1.5
919.788	-0.5
920.521	1.5
921.253	-0.5
921.985	1.5
922.718	0.5
923.45	-1.5
924.182	-1.5
924.914	-0.5
925.646	-1.5
926.378	-1.5
927.11	-0.5
927.841	0.5
928.573	-0.5
929.305	0.5
930.036	1.5
930.768	0.5
931.499	0.5
932.23	1.5
932.962	0.5
933.693	0.5
934.424	-1.5
935.155	-0.5
935.886	0.5
936.617	0.5
937.348	0.5
938.078	1.5
938.809	-0.5
939.54	-0.5
940.27	0.5
941.001	-0.5
941.731	-0.5
942.461	0.5
943.191	-0.5
943.922	0.5
944.652	0.5
945.382	-1.5
946.112	-0.5
946.841	0.5
947.571	0.5
948.301	-0.5
949.031	0.5
949.76	0.5
950.49	-0.5
951.219	-0.5
951.948	1.5
952.678	-0.5
953.407	-2.5
954.136	-1.5
954.865	-0.5
955.594	0.5
956.323	-0.5
957.052	-0.5
957.78	0.5
958.509	-0.5
959.238	0.5
959.966	-1.5
960.695	-0.5
961.423	-0.5
962.151	0.5
962.88	-2.5
963.608	-0.5
964.336	0.5
965.064	-1.5
965.792	-0.5
966.52	-1.5
967.247	-3.5
967.975	0.5
968.703	-0.5
969.43	-0.5
970.158	-0.5
970.885	-0.5
971.613	-1.5
972.34	-1.5
973.067	-1.5
973.794	1.5
974.521	1.5
975.248	0.5
975.975	-1.5
976.702	1.5
977.429	-0.5
978.156	-0.5
978.882	1.5
979.609	1.5
980.335	1.5
981.062	-2.5
981.788	-0.5
982.514	0.5
983.24	-1.5
983.967	0.5
984.693	2.5
985.419	-0.5
986.144	0.5
986.87	-0.5
987.596	-0.5
988.322	-0.5
989.047	-0.5
989.773	0.5
990.498	-1.5
991.224	0.5
991.949	-0.5
992.674	-0.5
993.399	-0.5
994.124	1.5
994.849	-0.5
995.574	-0.5
996.299	1.5
997.024	-0.5
997.749	0.5
998.473	0.5
999.198	0.5
999.922	-1.5
1000.647	-1.5
1001.371	5.5
1002.095	-1.5
1002.82	-2.5
1003.544	0.5
1004.268	0.5
1004.992	0.5
1005.716	0.5
1006.439	-0.5
1007.163	1.5
1007.887	0.5
1008.611	1.5
1009.334	-1.5
1010.058	1.5
1010.781	-1.5
1011.504	-0.5
1012.228	0.5
1012.951	-2.5
1013.674	-0.5
1014.397	0.5
1015.12	0.5
