节点500_285_QEPB04081__37__14-56-10-421.txt的数据

Date: Wed Nov 12 14:56:10 CST 2025
User: PC
Spectrometer: QEPB0408
触发模式: 0
积分时间 (秒): 1.000000E-2
Scans to average: 1
启用暗噪声校正: true
启用非线性校正: false
滑动平均宽度: 0
X轴模式: Wavelengths
Number of Pixels in Spectrum: 1044
>>>>>Begin Spectral Data<<<<<
220.843	0.12
221.644	2.12
222.444	3.12
223.244	1.12
224.045	4.12
224.845	3.12
225.645	2.12
226.445	3.12
227.245	3.12
228.045	5.12
228.845	3.12
229.645	2.12
230.444	2.12
231.244	2.12
232.043	1.12
232.843	5.12
233.642	3.12
234.442	3.12
235.241	2.12
236.04	4.12
236.839	5.12
237.638	3.12
238.437	5.12
239.236	4.12
240.035	1.12
240.833	4.12
241.632	4.12
242.43	4.12
243.229	4.12
244.027	6.12
244.826	4.12
245.624	8.12
246.422	4.12
247.22	6.12
248.018	7.12
248.816	6.12
249.614	7.12
250.412	6.12
251.21	5.12
252.007	7.12
252.805	7.12
253.602	9.12
254.4	6.12
255.197	10.12
255.994	9.12
256.791	8.12
257.589	11.12
258.386	9.12
259.183	9.12
259.979	11.12
260.776	13.12
261.573	9.12
262.37	11.12
263.166	11.12
263.963	10.12
264.759	14.12
265.556	12.12
266.352	14.12
267.148	16.12
267.944	16.12
268.74	15.12
269.536	14.12
270.332	14.12
271.128	16.12
271.924	17.12
272.719	18.12
273.515	19.12
274.311	18.12
275.106	18.12
275.901	17.12
276.697	17.12
277.492	17.12
278.287	20.12
279.082	17.12
279.877	19.12
280.672	23.12
281.467	20.12
282.262	20.12
283.056	18.12
283.851	17.12
284.646	21.12
285.44	22.12
286.234	20.12
287.029	20.12
287.823	18.12
288.617	20.12
289.411	17.12
290.205	19.12
290.999	17.12
291.793	17.12
292.587	17.12
293.381	15.12
294.174	16.12
294.968	15.12
295.761	15.12
296.555	15.12
297.348	12.12
298.141	20.12
298.935	15.12
299.728	14.12
300.521	17.12
301.314	15.12
302.107	13.12
302.899	12.12
303.692	13.12
304.485	12.12
305.277	12.12
306.07	9.12
306.862	11.12
307.655	12.12
308.447	12.12
309.239	12.12
310.031	12.12
310.823	9.12
311.615	8.12
312.407	10.12
313.199	13.12
313.991	10.12
314.783	9.12
315.574	9.12
316.366	8.12
317.157	10.12
317.949	10.12
318.74	8.12
319.531	9.12
320.322	10.12
321.113	8.12
321.904	9.12
322.695	10.12
323.486	7.12
324.277	8.12
325.068	5.12
325.858	9.12
326.649	9.12
327.439	6.12
328.23	7.12
329.02	7.12
329.81	6.12
330.6	5.12
331.391	6.12
332.181	6.12
332.971	6.12
333.76	8.12
334.55	7.12
335.34	8.12
336.13	7.12
336.919	8.12
337.709	5.12
338.498	3.12
339.287	6.12
340.077	5.12
340.866	7.12
341.655	8.12
342.444	6.12
343.233	7.12
344.022	6.12
344.811	6.12
345.6	7.12
346.388	6.12
347.177	5.12
347.965	4.12
348.754	7.12
349.542	5.12
350.33	4.12
351.119	7.12
351.907	8.12
352.695	7.12
353.483	7.12
354.271	4.12
355.059	6.12
355.846	8.12
356.634	6.12
357.422	6.12
358.209	8.12
358.997	8.12
359.784	7.12
360.571	7.12
361.359	6.12
362.146	2.12
362.933	5.12
363.72	4.12
364.507	6.12
365.294	5.12
366.081	4.12
366.867	5.12
367.654	4.12
368.44	6.12
369.227	5.12
370.013	6.12
370.8	6.12
371.586	6.12
372.372	3.12
373.158	4.12
373.944	6.12
374.73	4.12
375.516	5.12
376.302	4.12
377.088	5.12
377.873	6.12
378.659	3.12
379.445	4.12
380.23	6.12
381.015	4.12
381.801	4.12
382.586	5.12
383.371	6.12
384.156	5.12
384.941	6.12
385.726	5.12
386.511	7.12
387.296	5.12
388.08	5.12
388.865	7.12
389.649	4.12
390.434	4.12
391.218	8.12
392.003	4.12
392.787	8.12
393.571	6.12
394.355	6.12
395.139	6.12
395.923	6.12
396.707	7.12
397.491	5.12
398.274	8.12
399.058	6.12
399.842	7.12
400.625	8.12
401.408	7.12
402.192	8.12
402.975	5.12
403.758	5.12
404.541	6.12
405.324	6.12
406.107	7.12
406.89	9.12
407.673	7.12
408.456	7.12
409.238	7.12
410.021	9.12
410.803	8.12
411.586	8.12
412.368	10.12
413.151	7.12
413.933	6.12
414.715	10.12
415.497	11.12
416.279	9.12
417.061	8.12
417.843	8.12
418.624	10.12
419.406	12.12
420.188	8.12
420.969	12.12
421.751	12.12
422.532	12.12
423.313	12.12
424.095	11.12
424.876	12.12
425.657	13.12
426.438	11.12
427.219	12.12
428	11.12
428.78	13.12
429.561	11.12
430.342	16.12
431.122	14.12
431.903	16.12
432.683	17.12
433.464	17.12
434.244	16.12
435.024	16.12
435.804	19.12
436.584	17.12
437.364	19.12
438.144	19.12
438.924	21.12
439.704	19.12
440.483	21.12
441.263	21.12
442.042	25.12
442.822	25.12
443.601	26.12
444.38	29.12
445.16	31.12
445.939	32.12
446.718	34.12
447.497	36.12
448.276	41.12
449.054	41.12
449.833	45.12
450.612	48.12
451.391	52.12
452.169	53.12
452.948	59.12
453.726	65.12
454.504	73.12
455.282	81.12
456.061	88.12
456.839	98.12
457.617	104.12
458.395	122.12
459.172	131.12
459.95	149.12
460.728	159.12
461.506	177.12
462.283	201.12
463.061	225.12
463.838	253.12
464.615	285.12
465.393	320.12
466.17	353.12
466.947	407.12
467.724	454.12
468.501	495.12
469.278	556.12
470.055	621.12
470.831	696.12
471.608	769.12
472.385	872.12
473.161	957.12
473.938	1071.12
474.714	1195.12
475.49	1339.12
476.266	1481.12
477.043	1653.12
477.819	1833.12
478.595	2037.12
479.371	2253.12
480.146	2522.12
480.922	2781.12
481.698	3097.12
482.473	3433.12
483.249	3796.12
484.024	4207.12
484.8	4673.12
485.575	5141.12
486.35	5676.12
487.126	6293.12
487.901	6960.12
488.676	7643.12
489.451	8445.12
490.225	9288.12
491	10169.12
491.775	11156.12
492.55	12217.12
493.324	13273.12
494.099	14336.12
494.873	15540.12
495.647	16773.12
496.422	18039.12
497.196	19245.12
497.97	20642.12
498.744	21926.12
499.518	23061.12
500.292	24233.12
501.066	25289.12
501.839	26087.12
502.613	27007.12
503.387	27647.12
504.16	28165.12
504.934	28309.12
505.707	28283.12
506.48	28038.12
507.253	27826.12
508.027	27331.12
508.8	26780.12
509.573	26141.12
510.346	25309.12
511.118	24431.12
511.891	23445.12
512.664	22541.12
513.437	21542.12
514.209	20542.12
514.982	19609.12
515.754	18719.12
516.526	17855.12
517.298	17008.12
518.071	16315.12
518.843	15622.12
519.615	15087.12
520.387	14448.12
521.159	13902.12
521.93	13321.12
522.702	12835.12
523.474	12295.12
524.245	11796.12
525.017	11224.12
525.788	10780.12
526.56	10269.12
527.331	9799.12
528.102	9366.12
528.873	8833.12
529.644	8406.12
530.415	7985.12
531.186	7509.12
531.957	7112.12
532.728	6775.12
533.498	6365.12
534.269	6002.12
535.039	5683.12
535.81	5340.12
536.58	5038.12
537.351	4725.12
538.121	4475.12
538.891	4262.12
539.661	4033.12
540.431	3789.12
541.201	3582.12
541.971	3407.12
542.741	3235.12
543.51	3089.12
544.28	2897.12
545.05	2775.12
545.819	2662.12
546.588	2503.12
547.358	2384.12
548.127	2264.12
548.896	2130.12
549.665	2041.12
550.434	1933.12
551.203	1819.12
551.972	1711.12
552.741	1630.12
553.51	1539.12
554.278	1439.12
555.047	1353.12
555.815	1279.12
556.584	1212.12
557.352	1140.12
558.121	1076.12
558.889	1014.12
559.657	961.12
560.425	896.12
561.193	845.12
561.961	803.12
562.729	770.12
563.496	721.12
564.264	680.12
565.032	644.12
565.799	615.12
566.567	580.12
567.334	540.12
568.101	519.12
568.869	482.12
569.636	458.12
570.403	428.12
571.17	406.12
571.937	383.12
572.704	364.12
573.471	339.12
574.237	326.12
575.004	303.12
575.771	284.12
576.537	264.12
577.303	248.12
578.07	232.12
578.836	222.12
579.602	210.12
580.368	194.12
581.134	187.12
581.9	179.12
582.666	169.12
583.432	160.12
584.198	151.12
584.964	144.12
585.729	139.12
586.495	126.12
587.26	125.12
588.025	119.12
588.791	112.12
589.556	105.12
590.321	96.12
591.086	97.12
591.851	88.12
592.616	83.12
593.381	83.12
594.146	74.12
594.911	72.12
595.675	69.12
596.44	67.12
597.204	61.12
597.969	62.12
598.733	61.12
599.497	57.12
600.261	54.12
601.025	48.12
601.79	50.12
602.553	46.12
603.317	44.12
604.081	43.12
604.845	41.12
605.609	39.12
606.372	39.12
607.136	35.12
607.899	37.12
608.662	34.12
609.426	35.12
610.189	31.12
610.952	29.12
611.715	29.12
612.478	27.12
613.241	28.12
614.004	27.12
614.767	23.12
615.529	27.12
616.292	22.12
617.055	24.12
617.817	24.12
618.579	20.12
619.342	19.12
620.104	19.12
620.866	19.12
621.628	17.12
622.39	20.12
623.152	18.12
623.914	19.12
624.676	17.12
625.438	15.12
626.199	16.12
626.961	17.12
627.722	12.12
628.484	11.12
629.245	11.12
630.006	13.12
630.768	13.12
631.529	13.12
632.29	11.12
633.051	12.12
633.812	10.12
634.573	13.12
635.333	9.12
636.094	11.12
636.855	11.12
637.615	10.12
638.376	11.12
639.136	10.12
639.896	8.12
640.657	10.12
641.417	10.12
642.177	9.12
642.937	9.12
643.697	8.12
644.457	10.12
645.216	8.12
645.976	7.12
646.736	7.12
647.495	7.12
648.255	9.12
649.014	5.12
649.774	7.12
650.533	4.12
651.292	7.12
652.051	6.12
652.81	7.12
653.569	7.12
654.328	6.12
655.087	7.12
655.846	6.12
656.604	6.12
657.363	7.12
658.121	7.12
658.88	9.12
659.638	6.12
660.397	6.12
661.155	5.12
661.913	4.12
662.671	6.12
663.429	5.12
664.187	5.12
664.945	3.12
665.703	7.12
666.46	5.12
667.218	6.12
667.976	3.12
668.733	6.12
669.49	6.12
670.248	5.12
671.005	2.12
671.762	4.12
672.519	3.12
673.276	4.12
674.033	5.12
674.79	7.12
675.547	3.12
676.304	5.12
677.06	4.12
677.817	2.12
678.574	7.12
679.33	5.12
680.086	5.12
680.843	6.12
681.599	3.12
682.355	6.12
683.111	2.12
683.867	2.12
684.623	3.12
685.379	3.12
686.135	3.12
686.89	2.12
687.646	3.12
688.402	3.12
689.157	3.12
689.912	3.12
690.668	4.12
691.423	5.12
692.178	2.12
692.933	3.12
693.688	1.12
694.443	1.12
695.198	3.12
695.953	4.12
696.708	1.12
697.462	6.12
698.217	3.12
698.972	4.12
699.726	4.12
700.48	4.12
701.235	2.12
701.989	4.12
702.743	5.12
703.497	1.12
704.251	4.12
705.005	1.12
705.759	1.12
706.513	5.12
707.266	4.12
708.02	4.12
708.774	5.12
709.527	5.12
710.28	2.12
711.034	2.12
711.787	2.12
712.54	1.12
713.293	3.12
714.046	4.12
714.799	2.12
715.552	2.12
716.305	5.12
717.058	3.12
717.81	5.12
718.563	5.12
719.315	3.12
720.068	5.12
720.82	3.12
721.573	5.12
722.325	2.12
723.077	3.12
723.829	3.12
724.581	5.12
725.333	6.12
726.085	4.12
726.836	3.12
727.588	5.12
728.34	3.12
729.091	5.12
729.843	4.12
730.594	4.12
731.346	5.12
732.097	2.12
732.848	3.12
733.599	3.12
734.35	4.12
735.101	4.12
735.852	2.12
736.603	5.12
737.354	5.12
738.104	4.12
738.855	7.12
739.605	5.12
740.356	7.12
741.106	4.12
741.856	3.12
742.607	5.12
743.357	5.12
744.107	3.12
744.857	5.12
745.607	5.12
746.357	3.12
747.106	6.12
747.856	6.12
748.606	3.12
749.355	5.12
750.105	6.12
750.854	6.12
751.603	6.12
752.353	6.12
753.102	6.12
753.851	6.12
754.6	6.12
755.349	6.12
756.098	8.12
756.847	7.12
757.595	6.12
758.344	6.12
759.093	7.12
759.841	5.12
760.589	8.12
761.338	6.12
762.086	5.12
762.834	7.12
763.582	7.12
764.331	6.12
765.079	9.12
765.826	8.12
766.574	7.12
767.322	8.12
768.07	6.12
768.817	10.12
769.565	9.12
770.312	8.12
771.06	10.12
771.807	8.12
772.554	9.12
773.302	9.12
774.049	8.12
774.796	7.12
775.543	8.12
776.29	8.12
777.036	9.12
777.783	7.12
778.53	9.12
779.276	11.12
780.023	8.12
780.769	8.12
781.516	12.12
782.262	9.12
783.008	11.12
783.754	12.12
784.5	8.12
785.246	9.12
785.992	10.12
786.738	9.12
787.484	7.12
788.23	8.12
788.975	10.12
789.721	10.12
790.466	10.12
791.212	10.12
791.957	7.12
792.702	9.12
793.447	8.12
794.193	7.12
794.938	8.12
795.683	7.12
796.427	10.12
797.172	9.12
797.917	9.12
798.662	6.12
799.406	8.12
800.151	7.12
800.895	7.12
801.64	7.12
802.384	6.12
803.128	8.12
803.872	8.12
804.616	6.12
805.36	6.12
806.104	7.12
806.848	6.12
807.592	7.12
808.336	8.12
809.079	2.12
809.823	5.12
810.566	7.12
811.31	6.12
812.053	5.12
812.796	6.12
813.539	6.12
814.283	6.12
815.026	6.12
815.769	8.12
816.511	4.12
817.254	6.12
817.997	6.12
818.74	5.12
819.482	4.12
820.225	3.12
820.967	2.12
821.71	5.12
822.452	4.12
823.194	3.12
823.936	7.12
824.678	4.12
825.42	3.12
826.162	5.12
826.904	4.12
827.646	3.12
828.388	1.12
829.129	3.12
829.871	6.12
830.612	5.12
831.354	3.12
832.095	4.12
832.836	4.12
833.577	3.12
834.319	1.12
835.06	3.12
835.801	3.12
836.542	5.12
837.282	0.12
838.023	3.12
838.764	4.12
839.504	4.12
840.245	1.12
840.985	2.12
841.726	6.12
842.466	3.12
843.206	3.12
843.946	4.12
844.687	1.12
845.427	3.12
846.166	5.12
846.906	3.12
847.646	4.12
848.386	3.12
849.125	1.12
849.865	3.12
850.605	5.12
851.344	3.12
852.083	0.12
852.823	3.12
853.562	2.12
854.301	4.12
855.04	2.12
855.779	0.12
856.518	4.12
857.257	2.12
857.995	4.12
858.734	2.12
859.473	1.12
860.211	1.12
860.95	2.12
861.688	3.12
862.426	2.12
863.165	2.12
863.903	2.12
864.641	1.12
865.379	3.12
866.117	1.12
866.855	3.12
867.593	2.12
868.33	1.12
869.068	2.12
869.806	1.12
870.543	1.12
871.28	-0.88
872.018	2.12
872.755	1.12
873.492	1.12
874.229	3.12
874.967	3.12
875.703	3.12
876.44	1.12
877.177	0.12
877.914	1.12
878.651	-1.88
879.387	3.12
880.124	3.12
880.86	-0.88
881.597	1.12
882.333	-0.88
883.069	4.12
883.806	1.12
884.542	-0.88
885.278	1.12
886.014	1.12
886.749	0.12
887.485	1.12
888.221	1.12
888.957	2.12
889.692	2.12
890.428	0.12
891.163	-0.88
891.899	0.12
892.634	0.12
893.369	-0.88
894.104	0.12
894.839	-0.88
895.574	0.12
896.309	-0.88
897.044	1.12
897.779	1.12
898.514	1.12
899.248	0.12
899.983	0.12
900.717	1.12
901.452	0.12
902.186	-2.88
902.92	3.12
903.654	-0.88
904.389	3.12
905.123	0.12
905.857	-0.88
906.59	0.12
907.324	1.12
908.058	-0.88
908.792	-0.88
909.525	0.12
910.259	3.12
910.992	-0.88
911.726	1.12
912.459	0.12
913.192	0.12
913.925	1.12
914.658	0.12
915.391	-1.88
916.124	0.12
916.857	1.12
917.59	0.12
918.323	2.12
919.055	0.12
919.788	-0.88
920.521	1.12
921.253	-1.88
921.985	2.12
922.718	0.12
923.45	1.12
924.182	1.12
924.914	1.12
925.646	1.12
926.378	1.12
927.11	1.12
927.841	0.12
928.573	1.12
929.305	1.12
930.036	-0.88
930.768	0.12
931.499	0.12
932.23	0.12
932.962	0.12
933.693	3.12
934.424	1.12
935.155	-2.88
935.886	1.12
936.617	1.12
937.348	-0.88
938.078	1.12
938.809	-1.88
939.54	0.12
940.27	0.12
941.001	1.12
941.731	1.12
942.461	0.12
943.191	2.12
943.922	-0.88
944.652	0.12
945.382	0.12
946.112	-1.88
946.841	1.12
947.571	0.12
948.301	1.12
949.031	-0.88
949.76	-0.88
950.49	0.12
951.219	-0.88
951.948	1.12
952.678	0.12
953.407	0.12
954.136	0.12
954.865	0.12
955.594	1.12
956.323	1.12
957.052	1.12
957.78	-0.88
958.509	1.12
959.238	-0.88
959.966	0.12
960.695	2.12
961.423	-2.88
962.151	1.12
962.88	1.12
963.608	-0.88
964.336	0.12
965.064	0.12
965.792	3.12
966.52	-0.88
967.247	1.12
967.975	-0.88
968.703	0.12
969.43	0.12
970.158	0.12
970.885	1.12
971.613	1.12
972.34	0.12
973.067	1.12
973.794	1.12
974.521	-0.88
975.248	-0.88
975.975	2.12
976.702	0.12
977.429	-0.88
978.156	1.12
978.882	1.12
979.609	2.12
980.335	1.12
981.062	-0.88
981.788	1.12
982.514	0.12
983.24	1.12
983.967	0.12
984.693	-1.88
985.419	-0.88
986.144	0.12
986.87	0.12
987.596	-0.88
988.322	1.12
989.047	0.12
989.773	0.12
990.498	-0.88
991.224	1.12
991.949	-0.88
992.674	-0.88
993.399	1.12
994.124	-0.88
994.849	-1.88
995.574	1.12
996.299	0.12
997.024	0.12
997.749	1.12
998.473	-0.88
999.198	1.12
999.922	0.12
1000.647	-0.88
1001.371	3.12
1002.095	-0.88
1002.82	-0.88
1003.544	-0.88
1004.268	1.12
1004.992	-0.88
1005.716	1.12
1006.439	0.12
1007.163	4.12
1007.887	2.12
1008.611	1.12
1009.334	1.12
1010.058	1.12
1010.781	-0.88
1011.504	-0.88
1012.228	0.12
1012.951	0.12
1013.674	1.12
1014.397	-1.88
1015.12	0.12
