节点500_285_QEPB04081__851__15-09-42-720.txt的数据

Date: Wed Nov 12 15:09:42 CST 2025
User: PC
Spectrometer: QEPB0408
触发模式: 0
积分时间 (秒): 1.000000E-2
Scans to average: 1
启用暗噪声校正: true
启用非线性校正: false
滑动平均宽度: 0
X轴模式: Wavelengths
Number of Pixels in Spectrum: 1044
>>>>>Begin Spectral Data<<<<<
220.843	0.5
221.644	0.5
222.444	0.5
223.244	-0.5
224.045	2.5
224.845	2.5
225.645	3.5
226.445	3.5
227.245	2.5
228.045	1.5
228.845	1.5
229.645	0.5
230.444	1.5
231.244	2.5
232.043	3.5
232.843	1.5
233.642	2.5
234.442	3.5
235.241	0.5
236.04	4.5
236.839	1.5
237.638	1.5
238.437	2.5
239.236	4.5
240.035	2.5
240.833	3.5
241.632	4.5
242.43	5.5
243.229	3.5
244.027	1.5
244.826	5.5
245.624	5.5
246.422	3.5
247.22	2.5
248.018	4.5
248.816	5.5
249.614	5.5
250.412	4.5
251.21	6.5
252.007	3.5
252.805	3.5
253.602	7.5
254.4	4.5
255.197	3.5
255.994	6.5
256.791	8.5
257.589	3.5
258.386	6.5
259.183	6.5
259.979	9.5
260.776	9.5
261.573	6.5
262.37	9.5
263.166	9.5
263.963	9.5
264.759	10.5
265.556	9.5
266.352	11.5
267.148	9.5
267.944	9.5
268.74	12.5
269.536	13.5
270.332	8.5
271.128	12.5
271.924	11.5
272.719	12.5
273.515	14.5
274.311	13.5
275.106	16.5
275.901	14.5
276.697	12.5
277.492	14.5
278.287	16.5
279.082	13.5
279.877	14.5
280.672	15.5
281.467	16.5
282.262	16.5
283.056	16.5
283.851	16.5
284.646	17.5
285.44	17.5
286.234	16.5
287.029	15.5
287.823	18.5
288.617	15.5
289.411	14.5
290.205	16.5
290.999	14.5
291.793	17.5
292.587	16.5
293.381	18.5
294.174	18.5
294.968	17.5
295.761	14.5
296.555	11.5
297.348	11.5
298.141	13.5
298.935	16.5
299.728	13.5
300.521	12.5
301.314	12.5
302.107	13.5
302.899	12.5
303.692	10.5
304.485	13.5
305.277	11.5
306.07	9.5
306.862	12.5
307.655	8.5
308.447	13.5
309.239	11.5
310.031	9.5
310.823	9.5
311.615	8.5
312.407	9.5
313.199	8.5
313.991	7.5
314.783	7.5
315.574	8.5
316.366	9.5
317.157	8.5
317.949	3.5
318.74	6.5
319.531	4.5
320.322	6.5
321.113	8.5
321.904	6.5
322.695	6.5
323.486	7.5
324.277	7.5
325.068	5.5
325.858	7.5
326.649	4.5
327.439	7.5
328.23	8.5
329.02	6.5
329.81	5.5
330.6	5.5
331.391	6.5
332.181	5.5
332.971	6.5
333.76	5.5
334.55	5.5
335.34	4.5
336.13	3.5
336.919	6.5
337.709	4.5
338.498	5.5
339.287	6.5
340.077	4.5
340.866	8.5
341.655	4.5
342.444	7.5
343.233	3.5
344.022	3.5
344.811	5.5
345.6	4.5
346.388	4.5
347.177	4.5
347.965	4.5
348.754	5.5
349.542	7.5
350.33	5.5
351.119	5.5
351.907	4.5
352.695	3.5
353.483	7.5
354.271	5.5
355.059	3.5
355.846	8.5
356.634	3.5
357.422	4.5
358.209	3.5
358.997	8.5
359.784	5.5
360.571	3.5
361.359	3.5
362.146	5.5
362.933	5.5
363.72	3.5
364.507	5.5
365.294	3.5
366.081	5.5
366.867	4.5
367.654	2.5
368.44	5.5
369.227	5.5
370.013	5.5
370.8	5.5
371.586	4.5
372.372	6.5
373.158	6.5
373.944	5.5
374.73	5.5
375.516	4.5
376.302	4.5
377.088	4.5
377.873	7.5
378.659	1.5
379.445	4.5
380.23	3.5
381.015	5.5
381.801	3.5
382.586	5.5
383.371	4.5
384.156	2.5
384.941	5.5
385.726	4.5
386.511	4.5
387.296	3.5
388.08	-0.5
388.865	7.5
389.649	3.5
390.434	2.5
391.218	4.5
392.003	3.5
392.787	7.5
393.571	6.5
394.355	6.5
395.139	5.5
395.923	6.5
396.707	2.5
397.491	1.5
398.274	6.5
399.058	3.5
399.842	7.5
400.625	5.5
401.408	5.5
402.192	6.5
402.975	5.5
403.758	5.5
404.541	4.5
405.324	8.5
406.107	6.5
406.89	6.5
407.673	6.5
408.456	6.5
409.238	7.5
410.021	6.5
410.803	8.5
411.586	6.5
412.368	5.5
413.151	6.5
413.933	5.5
414.715	8.5
415.497	6.5
416.279	10.5
417.061	7.5
417.843	5.5
418.624	8.5
419.406	9.5
420.188	10.5
420.969	8.5
421.751	8.5
422.532	9.5
423.313	10.5
424.095	9.5
424.876	11.5
425.657	11.5
426.438	13.5
427.219	10.5
428	10.5
428.78	10.5
429.561	12.5
430.342	13.5
431.122	11.5
431.903	15.5
432.683	15.5
433.464	12.5
434.244	13.5
435.024	13.5
435.804	14.5
436.584	18.5
437.364	16.5
438.144	16.5
438.924	18.5
439.704	21.5
440.483	23.5
441.263	25.5
442.042	27.5
442.822	25.5
443.601	28.5
444.38	27.5
445.16	31.5
445.939	36.5
446.718	35.5
447.497	39.5
448.276	43.5
449.054	46.5
449.833	51.5
450.612	56.5
451.391	65.5
452.169	66.5
452.948	77.5
453.726	81.5
454.504	88.5
455.282	105.5
456.061	114.5
456.839	124.5
457.617	141.5
458.395	159.5
459.172	167.5
459.95	192.5
460.728	207.5
461.506	237.5
462.283	257.5
463.061	289.5
463.838	328.5
464.615	359.5
465.393	390.5
466.17	441.5
466.947	495.5
467.724	538.5
468.501	606.5
469.278	664.5
470.055	738.5
470.831	818.5
471.608	904.5
472.385	1013.5
473.161	1106.5
473.938	1227.5
474.714	1338.5
475.49	1465.5
476.266	1618.5
477.043	1777.5
477.819	1935.5
478.595	2122.5
479.371	2320.5
480.146	2551.5
480.922	2781.5
481.698	3016.5
482.473	3292.5
483.249	3614.5
484.024	3953.5
484.8	4302.5
485.575	4688.5
486.35	5106.5
487.126	5558.5
487.901	6038.5
488.676	6581.5
489.451	7152.5
490.225	7768.5
491	8397.5
491.775	9152.5
492.55	9899.5
493.324	10659.5
494.099	11455.5
494.873	12262.5
495.647	13172.5
496.422	14146.5
497.196	15117.5
497.97	16156.5
498.744	17117.5
499.518	18105.5
500.292	19197.5
501.066	20132.5
501.839	21141.5
502.613	22015.5
503.387	22863.5
504.16	23509.5
504.934	24021.5
505.707	24429.5
506.48	24676.5
507.253	24878.5
508.027	24927.5
508.8	24914.5
509.573	24731.5
510.346	24429.5
511.118	23945.5
511.891	23463.5
512.664	22771.5
513.437	22143.5
514.209	21389.5
514.982	20675.5
515.754	19834.5
516.526	19029.5
517.298	18365.5
518.071	17607.5
518.843	16941.5
519.615	16277.5
520.387	15676.5
521.159	15006.5
521.93	14391.5
522.702	13906.5
523.474	13324.5
524.245	12734.5
525.017	12201.5
525.788	11776.5
526.56	11268.5
527.331	10734.5
528.102	10272.5
528.873	9821.5
529.644	9410.5
530.415	8989.5
531.186	8585.5
531.957	8151.5
532.728	7773.5
533.498	7414.5
534.269	6990.5
535.039	6635.5
535.81	6255.5
536.58	5931.5
537.351	5605.5
538.121	5265.5
538.891	5012.5
539.661	4751.5
540.431	4499.5
541.201	4207.5
541.971	4001.5
542.741	3828.5
543.51	3621.5
544.28	3451.5
545.05	3296.5
545.819	3119.5
546.588	2949.5
547.358	2819.5
548.127	2688.5
548.896	2547.5
549.665	2421.5
550.434	2287.5
551.203	2170.5
551.972	2035.5
552.741	1955.5
553.51	1840.5
554.278	1740.5
555.047	1646.5
555.815	1550.5
556.584	1483.5
557.352	1395.5
558.121	1328.5
558.889	1250.5
559.657	1172.5
560.425	1121.5
561.193	1055.5
561.961	984.5
562.729	931.5
563.496	887.5
564.264	842.5
565.032	795.5
565.799	747.5
566.567	709.5
567.334	666.5
568.101	627.5
568.869	606.5
569.636	560.5
570.403	519.5
571.17	492.5
571.937	474.5
572.704	444.5
573.471	417.5
574.237	386.5
575.004	375.5
575.771	352.5
576.537	331.5
577.303	310.5
578.07	292.5
578.836	279.5
579.602	271.5
580.368	247.5
581.134	233.5
581.9	222.5
582.666	211.5
583.432	200.5
584.198	186.5
584.964	174.5
585.729	173.5
586.495	160.5
587.26	149.5
588.025	143.5
588.791	137.5
589.556	128.5
590.321	124.5
591.086	119.5
591.851	109.5
592.616	103.5
593.381	98.5
594.146	93.5
594.911	87.5
595.675	89.5
596.44	80.5
597.204	77.5
597.969	74.5
598.733	69.5
599.497	69.5
600.261	62.5
601.025	61.5
601.79	57.5
602.553	58.5
603.317	54.5
604.081	50.5
604.845	50.5
605.609	45.5
606.372	46.5
607.136	41.5
607.899	39.5
608.662	37.5
609.426	39.5
610.189	38.5
610.952	33.5
611.715	35.5
612.478	33.5
613.241	29.5
614.004	32.5
614.767	28.5
615.529	29.5
616.292	26.5
617.055	25.5
617.817	24.5
618.579	24.5
619.342	21.5
620.104	24.5
620.866	20.5
621.628	21.5
622.39	22.5
623.152	20.5
623.914	18.5
624.676	18.5
625.438	17.5
626.199	14.5
626.961	13.5
627.722	11.5
628.484	15.5
629.245	14.5
630.006	15.5
630.768	15.5
631.529	10.5
632.29	13.5
633.051	10.5
633.812	12.5
634.573	13.5
635.333	9.5
636.094	12.5
636.855	10.5
637.615	8.5
638.376	9.5
639.136	9.5
639.896	9.5
640.657	12.5
641.417	9.5
642.177	10.5
642.937	8.5
643.697	9.5
644.457	7.5
645.216	9.5
645.976	8.5
646.736	5.5
647.495	6.5
648.255	6.5
649.014	6.5
649.774	5.5
650.533	6.5
651.292	6.5
652.051	5.5
652.81	5.5
653.569	6.5
654.328	4.5
655.087	5.5
655.846	6.5
656.604	5.5
657.363	4.5
658.121	6.5
658.88	7.5
659.638	5.5
660.397	6.5
661.155	4.5
661.913	4.5
662.671	4.5
663.429	4.5
664.187	5.5
664.945	2.5
665.703	7.5
666.46	4.5
667.218	2.5
667.976	5.5
668.733	2.5
669.49	3.5
670.248	4.5
671.005	4.5
671.762	1.5
672.519	3.5
673.276	5.5
674.033	3.5
674.79	5.5
675.547	3.5
676.304	2.5
677.06	2.5
677.817	5.5
678.574	2.5
679.33	4.5
680.086	2.5
680.843	2.5
681.599	1.5
682.355	4.5
683.111	2.5
683.867	3.5
684.623	2.5
685.379	4.5
686.135	3.5
686.89	3.5
687.646	2.5
688.402	2.5
689.157	3.5
689.912	3.5
690.668	2.5
691.423	1.5
692.178	5.5
692.933	1.5
693.688	6.5
694.443	1.5
695.198	3.5
695.953	6.5
696.708	3.5
697.462	4.5
698.217	5.5
698.972	1.5
699.726	2.5
700.48	3.5
701.235	3.5
701.989	2.5
702.743	2.5
703.497	3.5
704.251	1.5
705.005	3.5
705.759	2.5
706.513	0.5
707.266	1.5
708.02	3.5
708.774	4.5
709.527	0.5
710.28	1.5
711.034	2.5
711.787	2.5
712.54	2.5
713.293	0.5
714.046	5.5
714.799	2.5
715.552	1.5
716.305	4.5
717.058	5.5
717.81	4.5
718.563	2.5
719.315	3.5
720.068	5.5
720.82	6.5
721.573	3.5
722.325	1.5
723.077	1.5
723.829	1.5
724.581	1.5
725.333	3.5
726.085	4.5
726.836	1.5
727.588	1.5
728.34	2.5
729.091	3.5
729.843	4.5
730.594	1.5
731.346	3.5
732.097	5.5
732.848	3.5
733.599	4.5
734.35	0.5
735.101	2.5
735.852	2.5
736.603	1.5
737.354	3.5
738.104	1.5
738.855	2.5
739.605	1.5
740.356	3.5
741.106	4.5
741.856	3.5
742.607	4.5
743.357	0.5
744.107	5.5
744.857	3.5
745.607	1.5
746.357	1.5
747.106	2.5
747.856	4.5
748.606	2.5
749.355	5.5
750.105	1.5
750.854	3.5
751.603	3.5
752.353	5.5
753.102	4.5
753.851	6.5
754.6	4.5
755.349	3.5
756.098	3.5
756.847	6.5
757.595	4.5
758.344	4.5
759.093	3.5
759.841	4.5
760.589	1.5
761.338	4.5
762.086	3.5
762.834	4.5
763.582	6.5
764.331	6.5
765.079	4.5
765.826	4.5
766.574	2.5
767.322	9.5
768.07	4.5
768.817	4.5
769.565	5.5
770.312	6.5
771.06	3.5
771.807	6.5
772.554	5.5
773.302	5.5
774.049	5.5
774.796	6.5
775.543	5.5
776.29	6.5
777.036	5.5
777.783	8.5
778.53	5.5
779.276	5.5
780.023	5.5
780.769	6.5
781.516	8.5
782.262	7.5
783.008	7.5
783.754	6.5
784.5	9.5
785.246	7.5
785.992	6.5
786.738	7.5
787.484	4.5
788.23	6.5
788.975	9.5
789.721	5.5
790.466	6.5
791.212	6.5
791.957	8.5
792.702	6.5
793.447	7.5
794.193	5.5
794.938	6.5
795.683	6.5
796.427	5.5
797.172	7.5
797.917	6.5
798.662	7.5
799.406	7.5
800.151	6.5
800.895	5.5
801.64	5.5
802.384	5.5
803.128	6.5
803.872	4.5
804.616	8.5
805.36	4.5
806.104	5.5
806.848	4.5
807.592	5.5
808.336	2.5
809.079	4.5
809.823	5.5
810.566	5.5
811.31	5.5
812.053	4.5
812.796	4.5
813.539	4.5
814.283	2.5
815.026	6.5
815.769	3.5
816.511	5.5
817.254	3.5
817.997	5.5
818.74	4.5
819.482	4.5
820.225	2.5
820.967	1.5
821.71	5.5
822.452	3.5
823.194	3.5
823.936	2.5
824.678	4.5
825.42	2.5
826.162	1.5
826.904	4.5
827.646	2.5
828.388	4.5
829.129	3.5
829.871	3.5
830.612	4.5
831.354	3.5
832.095	1.5
832.836	3.5
833.577	2.5
834.319	1.5
835.06	0.5
835.801	1.5
836.542	3.5
837.282	3.5
838.023	2.5
838.764	3.5
839.504	2.5
840.245	1.5
840.985	2.5
841.726	3.5
842.466	3.5
843.206	1.5
843.946	3.5
844.687	2.5
845.427	1.5
846.166	1.5
846.906	0.5
847.646	0.5
848.386	0.5
849.125	1.5
849.865	2.5
850.605	4.5
851.344	3.5
852.083	1.5
852.823	0.5
853.562	1.5
854.301	-0.5
855.04	2.5
855.779	-1.5
856.518	1.5
857.257	0.5
857.995	1.5
858.734	2.5
859.473	1.5
860.211	3.5
860.95	2.5
861.688	0.5
862.426	2.5
863.165	1.5
863.903	1.5
864.641	-0.5
865.379	2.5
866.117	2.5
866.855	0.5
867.593	1.5
868.33	-0.5
869.068	2.5
869.806	0.5
870.543	-1.5
871.28	2.5
872.018	3.5
872.755	-0.5
873.492	1.5
874.229	1.5
874.967	2.5
875.703	0.5
876.44	0.5
877.177	-0.5
877.914	-0.5
878.651	-1.5
879.387	1.5
880.124	0.5
880.86	2.5
881.597	0.5
882.333	0.5
883.069	2.5
883.806	-0.5
884.542	-0.5
885.278	-1.5
886.014	0.5
886.749	2.5
887.485	1.5
888.221	1.5
888.957	0.5
889.692	2.5
890.428	0.5
891.163	0.5
891.899	0.5
892.634	-2.5
893.369	2.5
894.104	-3.5
894.839	-0.5
895.574	-0.5
896.309	-0.5
897.044	-0.5
897.779	1.5
898.514	0.5
899.248	0.5
899.983	0.5
900.717	-2.5
901.452	-0.5
902.186	1.5
902.92	-2.5
903.654	0.5
904.389	-0.5
905.123	1.5
905.857	2.5
906.59	0.5
907.324	-0.5
908.058	1.5
908.792	-0.5
909.525	0.5
910.259	1.5
910.992	1.5
911.726	-2.5
912.459	-1.5
913.192	-0.5
913.925	0.5
914.658	-2.5
915.391	-0.5
916.124	-0.5
916.857	-0.5
917.59	1.5
918.323	0.5
919.055	2.5
919.788	0.5
920.521	0.5
921.253	-1.5
921.985	-1.5
922.718	-1.5
923.45	1.5
924.182	-0.5
924.914	-1.5
925.646	-1.5
926.378	-0.5
927.11	-0.5
927.841	1.5
928.573	-1.5
929.305	-1.5
930.036	-1.5
930.768	-0.5
931.499	-2.5
932.23	-1.5
932.962	0.5
933.693	-0.5
934.424	2.5
935.155	-0.5
935.886	-0.5
936.617	-0.5
937.348	-0.5
938.078	-0.5
938.809	-0.5
939.54	-2.5
940.27	0.5
941.001	0.5
941.731	2.5
942.461	-1.5
943.191	-1.5
943.922	-1.5
944.652	0.5
945.382	1.5
946.112	0.5
946.841	0.5
947.571	-1.5
948.301	-1.5
949.031	-0.5
949.76	0.5
950.49	-2.5
951.219	-1.5
951.948	-1.5
952.678	-0.5
953.407	-1.5
954.136	-0.5
954.865	-0.5
955.594	-2.5
956.323	-1.5
957.052	-1.5
957.78	1.5
958.509	-0.5
959.238	-1.5
959.966	-0.5
960.695	-0.5
961.423	-0.5
962.151	0.5
962.88	0.5
963.608	-0.5
964.336	0.5
965.064	-1.5
965.792	0.5
966.52	-2.5
967.247	-0.5
967.975	-2.5
968.703	-1.5
969.43	-0.5
970.158	-2.5
970.885	-0.5
971.613	-1.5
972.34	-0.5
973.067	-1.5
973.794	0.5
974.521	0.5
975.248	-0.5
975.975	0.5
976.702	0.5
977.429	2.5
978.156	0.5
978.882	-1.5
979.609	-2.5
980.335	-0.5
981.062	1.5
981.788	-0.5
982.514	0.5
983.24	1.5
983.967	0.5
984.693	0.5
985.419	-1.5
986.144	-0.5
986.87	-0.5
987.596	-2.5
988.322	-1.5
989.047	0.5
989.773	-2.5
990.498	0.5
991.224	-0.5
991.949	0.5
992.674	-0.5
993.399	1.5
994.124	-2.5
994.849	-0.5
995.574	-0.5
996.299	-2.5
997.024	-2.5
997.749	0.5
998.473	-0.5
999.198	-2.5
999.922	0.5
1000.647	-0.5
1001.371	3.5
1002.095	-1.5
1002.82	-1.5
1003.544	-0.5
1004.268	2.5
1004.992	2.5
1005.716	-0.5
1006.439	1.5
1007.163	0.5
1007.887	3.5
1008.611	-0.5
1009.334	0.5
1010.058	-0.5
1010.781	0.5
1011.504	-2.5
1012.228	0.5
1012.951	-1.5
1013.674	0.5
1014.397	1.5
1015.12	-0.5
