节点500_285_QEPB04081__250__14-59-42-887.txt的数据

Date: Wed Nov 12 14:59:42 CST 2025
User: PC
Spectrometer: QEPB0408
触发模式: 0
积分时间 (秒): 1.000000E-2
Scans to average: 1
启用暗噪声校正: true
启用非线性校正: false
滑动平均宽度: 0
X轴模式: Wavelengths
Number of Pixels in Spectrum: 1044
>>>>>Begin Spectral Data<<<<<
220.843	1.88
221.644	1.88
222.444	0.88
223.244	1.88
224.045	2.88
224.845	5.88
225.645	0.88
226.445	1.88
227.245	2.88
228.045	2.88
228.845	1.88
229.645	4.88
230.444	0.88
231.244	2.88
232.043	4.88
232.843	3.88
233.642	5.88
234.442	3.88
235.241	5.88
236.04	5.88
236.839	4.88
237.638	5.88
238.437	4.88
239.236	5.88
240.035	4.88
240.833	5.88
241.632	5.88
242.43	3.88
243.229	5.88
244.027	3.88
244.826	1.88
245.624	1.88
246.422	5.88
247.22	5.88
248.018	6.88
248.816	7.88
249.614	2.88
250.412	7.88
251.21	6.88
252.007	7.88
252.805	6.88
253.602	7.88
254.4	6.88
255.197	8.88
255.994	9.88
256.791	7.88
257.589	8.88
258.386	9.88
259.183	8.88
259.979	10.88
260.776	7.88
261.573	9.88
262.37	11.88
263.166	12.88
263.963	11.88
264.759	10.88
265.556	9.88
266.352	11.88
267.148	10.88
267.944	14.88
268.74	14.88
269.536	14.88
270.332	15.88
271.128	16.88
271.924	15.88
272.719	13.88
273.515	16.88
274.311	17.88
275.106	15.88
275.901	17.88
276.697	18.88
277.492	16.88
278.287	18.88
279.082	18.88
279.877	17.88
280.672	18.88
281.467	21.88
282.262	18.88
283.056	20.88
283.851	16.88
284.646	20.88
285.44	19.88
286.234	19.88
287.029	17.88
287.823	16.88
288.617	20.88
289.411	17.88
290.205	17.88
290.999	17.88
291.793	19.88
292.587	15.88
293.381	18.88
294.174	17.88
294.968	18.88
295.761	15.88
296.555	20.88
297.348	16.88
298.141	15.88
298.935	17.88
299.728	13.88
300.521	16.88
301.314	13.88
302.107	16.88
302.899	11.88
303.692	13.88
304.485	14.88
305.277	9.88
306.07	13.88
306.862	12.88
307.655	15.88
308.447	9.88
309.239	10.88
310.031	10.88
310.823	12.88
311.615	9.88
312.407	10.88
313.199	9.88
313.991	10.88
314.783	9.88
315.574	7.88
316.366	7.88
317.157	9.88
317.949	7.88
318.74	9.88
319.531	5.88
320.322	6.88
321.113	8.88
321.904	4.88
322.695	7.88
323.486	9.88
324.277	7.88
325.068	6.88
325.858	7.88
326.649	6.88
327.439	7.88
328.23	7.88
329.02	5.88
329.81	6.88
330.6	9.88
331.391	5.88
332.181	6.88
332.971	4.88
333.76	5.88
334.55	6.88
335.34	6.88
336.13	9.88
336.919	5.88
337.709	6.88
338.498	5.88
339.287	7.88
340.077	8.88
340.866	5.88
341.655	6.88
342.444	5.88
343.233	5.88
344.022	7.88
344.811	7.88
345.6	7.88
346.388	5.88
347.177	5.88
347.965	7.88
348.754	8.88
349.542	4.88
350.33	5.88
351.119	7.88
351.907	4.88
352.695	5.88
353.483	5.88
354.271	4.88
355.059	6.88
355.846	5.88
356.634	8.88
357.422	6.88
358.209	5.88
358.997	6.88
359.784	3.88
360.571	5.88
361.359	3.88
362.146	7.88
362.933	5.88
363.72	4.88
364.507	4.88
365.294	4.88
366.081	6.88
366.867	5.88
367.654	5.88
368.44	6.88
369.227	4.88
370.013	4.88
370.8	2.88
371.586	5.88
372.372	4.88
373.158	5.88
373.944	5.88
374.73	4.88
375.516	5.88
376.302	7.88
377.088	5.88
377.873	6.88
378.659	6.88
379.445	6.88
380.23	6.88
381.015	6.88
381.801	7.88
382.586	3.88
383.371	6.88
384.156	4.88
384.941	5.88
385.726	5.88
386.511	5.88
387.296	5.88
388.08	5.88
388.865	2.88
389.649	6.88
390.434	5.88
391.218	6.88
392.003	5.88
392.787	6.88
393.571	6.88
394.355	6.88
395.139	3.88
395.923	5.88
396.707	7.88
397.491	6.88
398.274	8.88
399.058	6.88
399.842	10.88
400.625	6.88
401.408	10.88
402.192	7.88
402.975	8.88
403.758	8.88
404.541	5.88
405.324	9.88
406.107	5.88
406.89	7.88
407.673	6.88
408.456	6.88
409.238	6.88
410.021	7.88
410.803	6.88
411.586	9.88
412.368	9.88
413.151	9.88
413.933	6.88
414.715	8.88
415.497	7.88
416.279	9.88
417.061	8.88
417.843	9.88
418.624	10.88
419.406	10.88
420.188	9.88
420.969	9.88
421.751	10.88
422.532	11.88
423.313	10.88
424.095	12.88
424.876	11.88
425.657	13.88
426.438	12.88
427.219	12.88
428	10.88
428.78	11.88
429.561	12.88
430.342	12.88
431.122	13.88
431.903	15.88
432.683	14.88
433.464	17.88
434.244	16.88
435.024	18.88
435.804	16.88
436.584	17.88
437.364	18.88
438.144	21.88
438.924	21.88
439.704	21.88
440.483	23.88
441.263	23.88
442.042	22.88
442.822	25.88
443.601	27.88
444.38	31.88
445.16	28.88
445.939	31.88
446.718	35.88
447.497	41.88
448.276	40.88
449.054	43.88
449.833	45.88
450.612	51.88
451.391	56.88
452.169	61.88
452.948	68.88
453.726	76.88
454.504	79.88
455.282	92.88
456.061	99.88
456.839	105.88
457.617	122.88
458.395	135.88
459.172	148.88
459.95	165.88
460.728	189.88
461.506	201.88
462.283	229.88
463.061	255.88
463.838	280.88
464.615	316.88
465.393	347.88
466.17	396.88
466.947	439.88
467.724	500.88
468.501	547.88
469.278	605.88
470.055	675.88
470.831	759.88
471.608	840.88
472.385	942.88
473.161	1043.88
473.938	1152.88
474.714	1283.88
475.49	1419.88
476.266	1556.88
477.043	1749.88
477.819	1930.88
478.595	2128.88
479.371	2342.88
480.146	2590.88
480.922	2872.88
481.698	3171.88
482.473	3489.88
483.249	3848.88
484.024	4230.88
484.8	4657.88
485.575	5138.88
486.35	5655.88
487.126	6198.88
487.901	6849.88
488.676	7481.88
489.451	8202.88
490.225	8979.88
491	9837.88
491.775	10741.88
492.55	11665.88
493.324	12658.88
494.099	13691.88
494.873	14801.88
495.647	15903.88
496.422	17081.88
497.196	18372.88
497.97	19492.88
498.744	20758.88
499.518	21934.88
500.292	23126.88
501.066	24132.88
501.839	25149.88
502.613	26004.88
503.387	26779.88
504.16	27366.88
504.934	27635.88
505.707	27855.88
506.48	27804.88
507.253	27660.88
508.027	27410.88
508.8	27064.88
509.573	26559.88
510.346	25888.88
511.118	25025.88
511.891	24253.88
512.664	23379.88
513.437	22473.88
514.209	21467.88
514.982	20596.88
515.754	19669.88
516.526	18801.88
517.298	17943.88
518.071	17205.88
518.843	16497.88
519.615	15928.88
520.387	15288.88
521.159	14630.88
521.93	14041.88
522.702	13505.88
523.474	12948.88
524.245	12388.88
525.017	11877.88
525.788	11415.88
526.56	10861.88
527.331	10346.88
528.102	9871.88
528.873	9463.88
529.644	8981.88
530.415	8510.88
531.186	8081.88
531.957	7680.88
532.728	7272.88
533.498	6862.88
534.269	6448.88
535.039	6138.88
535.81	5793.88
536.58	5447.88
537.351	5153.88
538.121	4879.88
538.891	4623.88
539.661	4383.88
540.431	4101.88
541.201	3878.88
541.971	3697.88
542.741	3483.88
543.51	3318.88
544.28	3160.88
545.05	3010.88
545.819	2847.88
546.588	2717.88
547.358	2581.88
548.127	2453.88
548.896	2331.88
549.665	2221.88
550.434	2077.88
551.203	1980.88
551.972	1874.88
552.741	1762.88
553.51	1679.88
554.278	1576.88
555.047	1493.88
555.815	1409.88
556.584	1322.88
557.352	1249.88
558.121	1180.88
558.889	1111.88
559.657	1056.88
560.425	989.88
561.193	935.88
561.961	880.88
562.729	843.88
563.496	795.88
564.264	740.88
565.032	714.88
565.799	669.88
566.567	635.88
567.334	593.88
568.101	562.88
568.869	536.88
569.636	498.88
570.403	472.88
571.17	440.88
571.937	421.88
572.704	390.88
573.471	374.88
574.237	346.88
575.004	333.88
575.771	311.88
576.537	288.88
577.303	274.88
578.07	264.88
578.836	249.88
579.602	236.88
580.368	216.88
581.134	201.88
581.9	199.88
582.666	188.88
583.432	178.88
584.198	174.88
584.964	163.88
585.729	149.88
586.495	143.88
587.26	134.88
588.025	125.88
588.791	118.88
589.556	113.88
590.321	106.88
591.086	100.88
591.851	99.88
592.616	91.88
593.381	91.88
594.146	85.88
594.911	84.88
595.675	75.88
596.44	74.88
597.204	68.88
597.969	70.88
598.733	63.88
599.497	63.88
600.261	60.88
601.025	55.88
601.79	54.88
602.553	52.88
603.317	49.88
604.081	46.88
604.845	45.88
605.609	43.88
606.372	45.88
607.136	41.88
607.899	36.88
608.662	37.88
609.426	38.88
610.189	33.88
610.952	35.88
611.715	30.88
612.478	30.88
613.241	29.88
614.004	27.88
614.767	24.88
615.529	28.88
616.292	25.88
617.055	22.88
617.817	24.88
618.579	25.88
619.342	20.88
620.104	19.88
620.866	19.88
621.628	20.88
622.39	17.88
623.152	18.88
623.914	15.88
624.676	15.88
625.438	16.88
626.199	16.88
626.961	13.88
627.722	16.88
628.484	15.88
629.245	13.88
630.006	15.88
630.768	15.88
631.529	15.88
632.29	11.88
633.051	10.88
633.812	10.88
634.573	9.88
635.333	10.88
636.094	11.88
636.855	13.88
637.615	9.88
638.376	10.88
639.136	8.88
639.896	9.88
640.657	7.88
641.417	9.88
642.177	6.88
642.937	9.88
643.697	8.88
644.457	5.88
645.216	9.88
645.976	7.88
646.736	6.88
647.495	5.88
648.255	5.88
649.014	7.88
649.774	6.88
650.533	5.88
651.292	8.88
652.051	6.88
652.81	5.88
653.569	7.88
654.328	7.88
655.087	6.88
655.846	6.88
656.604	7.88
657.363	4.88
658.121	5.88
658.88	4.88
659.638	4.88
660.397	6.88
661.155	5.88
661.913	6.88
662.671	4.88
663.429	5.88
664.187	3.88
664.945	6.88
665.703	4.88
666.46	5.88
667.218	3.88
667.976	4.88
668.733	6.88
669.49	6.88
670.248	4.88
671.005	4.88
671.762	4.88
672.519	4.88
673.276	0.88
674.033	7.88
674.79	4.88
675.547	4.88
676.304	4.88
677.06	4.88
677.817	6.88
678.574	3.88
679.33	2.88
680.086	2.88
680.843	3.88
681.599	2.88
682.355	2.88
683.111	4.88
683.867	4.88
684.623	3.88
685.379	5.88
686.135	4.88
686.89	1.88
687.646	2.88
688.402	2.88
689.157	3.88
689.912	4.88
690.668	3.88
691.423	2.88
692.178	3.88
692.933	4.88
693.688	3.88
694.443	3.88
695.198	4.88
695.953	5.88
696.708	4.88
697.462	5.88
698.217	2.88
698.972	5.88
699.726	0.88
700.48	4.88
701.235	5.88
701.989	1.88
702.743	3.88
703.497	3.88
704.251	3.88
705.005	3.88
705.759	1.88
706.513	3.88
707.266	4.88
708.02	4.88
708.774	5.88
709.527	3.88
710.28	3.88
711.034	2.88
711.787	3.88
712.54	3.88
713.293	2.88
714.046	2.88
714.799	3.88
715.552	3.88
716.305	3.88
717.058	2.88
717.81	4.88
718.563	2.88
719.315	1.88
720.068	0.88
720.82	6.88
721.573	2.88
722.325	3.88
723.077	2.88
723.829	1.88
724.581	5.88
725.333	3.88
726.085	5.88
726.836	4.88
727.588	3.88
728.34	3.88
729.091	3.88
729.843	2.88
730.594	3.88
731.346	3.88
732.097	4.88
732.848	2.88
733.599	4.88
734.35	4.88
735.101	7.88
735.852	4.88
736.603	5.88
737.354	5.88
738.104	1.88
738.855	6.88
739.605	3.88
740.356	6.88
741.106	2.88
741.856	3.88
742.607	5.88
743.357	1.88
744.107	4.88
744.857	4.88
745.607	4.88
746.357	3.88
747.106	4.88
747.856	6.88
748.606	4.88
749.355	3.88
750.105	3.88
750.854	6.88
751.603	8.88
752.353	6.88
753.102	6.88
753.851	3.88
754.6	5.88
755.349	4.88
756.098	5.88
756.847	5.88
757.595	5.88
758.344	5.88
759.093	6.88
759.841	5.88
760.589	4.88
761.338	6.88
762.086	7.88
762.834	6.88
763.582	7.88
764.331	4.88
765.079	6.88
765.826	7.88
766.574	6.88
767.322	8.88
768.07	5.88
768.817	9.88
769.565	7.88
770.312	7.88
771.06	9.88
771.807	8.88
772.554	7.88
773.302	6.88
774.049	7.88
774.796	9.88
775.543	7.88
776.29	7.88
777.036	8.88
777.783	5.88
778.53	8.88
779.276	8.88
780.023	9.88
780.769	6.88
781.516	10.88
782.262	8.88
783.008	7.88
783.754	9.88
784.5	7.88
785.246	12.88
785.992	7.88
786.738	9.88
787.484	6.88
788.23	8.88
788.975	8.88
789.721	10.88
790.466	8.88
791.212	8.88
791.957	9.88
792.702	8.88
793.447	9.88
794.193	8.88
794.938	6.88
795.683	9.88
796.427	8.88
797.172	7.88
797.917	6.88
798.662	6.88
799.406	7.88
800.151	5.88
800.895	4.88
801.64	6.88
802.384	5.88
803.128	6.88
803.872	5.88
804.616	5.88
805.36	7.88
806.104	5.88
806.848	4.88
807.592	4.88
808.336	7.88
809.079	4.88
809.823	6.88
810.566	4.88
811.31	5.88
812.053	5.88
812.796	4.88
813.539	3.88
814.283	6.88
815.026	3.88
815.769	7.88
816.511	5.88
817.254	4.88
817.997	6.88
818.74	5.88
819.482	5.88
820.225	4.88
820.967	2.88
821.71	1.88
822.452	4.88
823.194	3.88
823.936	3.88
824.678	4.88
825.42	3.88
826.162	3.88
826.904	4.88
827.646	3.88
828.388	3.88
829.129	4.88
829.871	4.88
830.612	1.88
831.354	4.88
832.095	1.88
832.836	2.88
833.577	4.88
834.319	3.88
835.06	3.88
835.801	4.88
836.542	4.88
837.282	3.88
838.023	4.88
838.764	4.88
839.504	3.88
840.245	4.88
840.985	1.88
841.726	3.88
842.466	3.88
843.206	2.88
843.946	1.88
844.687	3.88
845.427	4.88
846.166	1.88
846.906	4.88
847.646	4.88
848.386	3.88
849.125	2.88
849.865	1.88
850.605	2.88
851.344	1.88
852.083	2.88
852.823	4.88
853.562	2.88
854.301	3.88
855.04	2.88
855.779	2.88
856.518	1.88
857.257	2.88
857.995	3.88
858.734	1.88
859.473	1.88
860.211	3.88
860.95	1.88
861.688	1.88
862.426	0.88
863.165	0.88
863.903	1.88
864.641	4.88
865.379	1.88
866.117	-0.12
866.855	1.88
867.593	1.88
868.33	4.88
869.068	2.88
869.806	1.88
870.543	1.88
871.28	3.88
872.018	0.88
872.755	3.88
873.492	0.88
874.229	2.88
874.967	0.88
875.703	1.88
876.44	0.88
877.177	2.88
877.914	4.88
878.651	0.88
879.387	2.88
880.124	1.88
880.86	0.88
881.597	-0.12
882.333	0.88
883.069	-0.12
883.806	0.88
884.542	1.88
885.278	0.88
886.014	1.88
886.749	2.88
887.485	0.88
888.221	-0.12
888.957	3.88
889.692	0.88
890.428	-0.12
891.163	1.88
891.899	1.88
892.634	1.88
893.369	0.88
894.104	-0.12
894.839	1.88
895.574	1.88
896.309	0.88
897.044	2.88
897.779	1.88
898.514	0.88
899.248	-1.12
899.983	2.88
900.717	-1.12
901.452	1.88
902.186	0.88
902.92	0.88
903.654	0.88
904.389	-0.12
905.123	0.88
905.857	-1.12
906.59	1.88
907.324	0.88
908.058	1.88
908.792	0.88
909.525	0.88
910.259	1.88
910.992	-0.12
911.726	1.88
912.459	0.88
913.192	-0.12
913.925	-0.12
914.658	0.88
915.391	-1.12
916.124	-0.12
916.857	-0.12
917.59	2.88
918.323	-0.12
919.055	0.88
919.788	0.88
920.521	-2.12
921.253	-2.12
921.985	-0.12
922.718	0.88
923.45	-0.12
924.182	1.88
924.914	1.88
925.646	-0.12
926.378	1.88
927.11	-0.12
927.841	1.88
928.573	0.88
929.305	-0.12
930.036	2.88
930.768	0.88
931.499	1.88
932.23	1.88
932.962	-2.12
933.693	1.88
934.424	0.88
935.155	-0.12
935.886	-0.12
936.617	0.88
937.348	0.88
938.078	0.88
938.809	-0.12
939.54	0.88
940.27	-0.12
941.001	1.88
941.731	0.88
942.461	1.88
943.191	0.88
943.922	-1.12
944.652	-1.12
945.382	0.88
946.112	-0.12
946.841	-0.12
947.571	0.88
948.301	-1.12
949.031	0.88
949.76	-0.12
950.49	1.88
951.219	-0.12
951.948	-0.12
952.678	0.88
953.407	-0.12
954.136	2.88
954.865	1.88
955.594	-2.12
956.323	2.88
957.052	-1.12
957.78	0.88
958.509	0.88
959.238	1.88
959.966	0.88
960.695	1.88
961.423	-0.12
962.151	-0.12
962.88	1.88
963.608	-0.12
964.336	1.88
965.064	-0.12
965.792	0.88
966.52	-2.12
967.247	1.88
967.975	1.88
968.703	-0.12
969.43	0.88
970.158	1.88
970.885	-2.12
971.613	1.88
972.34	-1.12
973.067	1.88
973.794	0.88
974.521	-1.12
975.248	-0.12
975.975	-1.12
976.702	0.88
977.429	0.88
978.156	0.88
978.882	-0.12
979.609	0.88
980.335	1.88
981.062	0.88
981.788	0.88
982.514	-1.12
983.24	-1.12
983.967	1.88
984.693	-0.12
985.419	0.88
986.144	1.88
986.87	-0.12
987.596	-2.12
988.322	-0.12
989.047	-0.12
989.773	-1.12
990.498	3.88
991.224	-0.12
991.949	-0.12
992.674	-0.12
993.399	2.88
994.124	1.88
994.849	-0.12
995.574	0.88
996.299	0.88
997.024	-0.12
997.749	-0.12
998.473	-1.12
999.198	1.88
999.922	-2.12
1000.647	1.88
1001.371	4.88
1002.095	-3.12
1002.82	-2.12
1003.544	-0.12
1004.268	0.88
1004.992	-0.12
1005.716	-0.12
1006.439	3.88
1007.163	0.88
1007.887	3.88
1008.611	0.88
1009.334	-0.12
1010.058	0.88
1010.781	-0.12
1011.504	0.88
1012.228	0.88
1012.951	2.88
1013.674	-1.12
1014.397	-1.12
1015.12	-0.12
