节点500_285_QEPB04081__705__15-07-16-826.txt的数据

Date: Wed Nov 12 15:07:16 CST 2025
User: PC
Spectrometer: QEPB0408
触发模式: 0
积分时间 (秒): 1.000000E-2
Scans to average: 1
启用暗噪声校正: true
启用非线性校正: false
滑动平均宽度: 0
X轴模式: Wavelengths
Number of Pixels in Spectrum: 1044
>>>>>Begin Spectral Data<<<<<
220.843	2.62
221.644	0.62
222.444	0.62
223.244	1.62
224.045	1.62
224.845	3.62
225.645	3.62
226.445	0.62
227.245	3.62
228.045	3.62
228.845	5.62
229.645	3.62
230.444	4.62
231.244	2.62
232.043	3.62
232.843	4.62
233.642	2.62
234.442	3.62
235.241	2.62
236.04	2.62
236.839	2.62
237.638	5.62
238.437	3.62
239.236	3.62
240.035	5.62
240.833	3.62
241.632	4.62
242.43	4.62
243.229	2.62
244.027	4.62
244.826	2.62
245.624	4.62
246.422	7.62
247.22	5.62
248.018	7.62
248.816	4.62
249.614	6.62
250.412	8.62
251.21	3.62
252.007	5.62
252.805	6.62
253.602	9.62
254.4	9.62
255.197	8.62
255.994	3.62
256.791	8.62
257.589	5.62
258.386	9.62
259.183	7.62
259.979	9.62
260.776	10.62
261.573	9.62
262.37	7.62
263.166	10.62
263.963	10.62
264.759	10.62
265.556	12.62
266.352	10.62
267.148	12.62
267.944	13.62
268.74	14.62
269.536	13.62
270.332	13.62
271.128	13.62
271.924	13.62
272.719	14.62
273.515	14.62
274.311	17.62
275.106	18.62
275.901	16.62
276.697	14.62
277.492	16.62
278.287	16.62
279.082	17.62
279.877	16.62
280.672	15.62
281.467	14.62
282.262	17.62
283.056	13.62
283.851	18.62
284.646	19.62
285.44	14.62
286.234	16.62
287.029	17.62
287.823	15.62
288.617	16.62
289.411	17.62
290.205	16.62
290.999	16.62
291.793	17.62
292.587	17.62
293.381	15.62
294.174	16.62
294.968	11.62
295.761	14.62
296.555	16.62
297.348	14.62
298.141	13.62
298.935	13.62
299.728	17.62
300.521	17.62
301.314	12.62
302.107	12.62
302.899	11.62
303.692	12.62
304.485	10.62
305.277	14.62
306.07	17.62
306.862	13.62
307.655	13.62
308.447	11.62
309.239	12.62
310.031	10.62
310.823	11.62
311.615	11.62
312.407	10.62
313.199	9.62
313.991	8.62
314.783	9.62
315.574	9.62
316.366	10.62
317.157	11.62
317.949	7.62
318.74	9.62
319.531	7.62
320.322	8.62
321.113	6.62
321.904	6.62
322.695	8.62
323.486	4.62
324.277	7.62
325.068	7.62
325.858	10.62
326.649	9.62
327.439	5.62
328.23	8.62
329.02	5.62
329.81	7.62
330.6	6.62
331.391	5.62
332.181	6.62
332.971	5.62
333.76	10.62
334.55	2.62
335.34	6.62
336.13	7.62
336.919	4.62
337.709	8.62
338.498	5.62
339.287	7.62
340.077	6.62
340.866	6.62
341.655	8.62
342.444	6.62
343.233	4.62
344.022	3.62
344.811	7.62
345.6	5.62
346.388	6.62
347.177	6.62
347.965	5.62
348.754	6.62
349.542	7.62
350.33	8.62
351.119	5.62
351.907	5.62
352.695	5.62
353.483	6.62
354.271	6.62
355.059	4.62
355.846	7.62
356.634	9.62
357.422	5.62
358.209	4.62
358.997	4.62
359.784	4.62
360.571	7.62
361.359	7.62
362.146	6.62
362.933	5.62
363.72	7.62
364.507	4.62
365.294	4.62
366.081	5.62
366.867	4.62
367.654	5.62
368.44	5.62
369.227	6.62
370.013	5.62
370.8	5.62
371.586	2.62
372.372	6.62
373.158	2.62
373.944	3.62
374.73	5.62
375.516	4.62
376.302	5.62
377.088	5.62
377.873	3.62
378.659	5.62
379.445	5.62
380.23	4.62
381.015	5.62
381.801	5.62
382.586	8.62
383.371	6.62
384.156	6.62
384.941	3.62
385.726	7.62
386.511	4.62
387.296	4.62
388.08	4.62
388.865	4.62
389.649	7.62
390.434	4.62
391.218	7.62
392.003	6.62
392.787	5.62
393.571	5.62
394.355	6.62
395.139	6.62
395.923	6.62
396.707	6.62
397.491	8.62
398.274	8.62
399.058	7.62
399.842	3.62
400.625	6.62
401.408	7.62
402.192	7.62
402.975	7.62
403.758	8.62
404.541	6.62
405.324	6.62
406.107	5.62
406.89	5.62
407.673	7.62
408.456	6.62
409.238	8.62
410.021	8.62
410.803	8.62
411.586	8.62
412.368	12.62
413.151	6.62
413.933	10.62
414.715	8.62
415.497	10.62
416.279	11.62
417.061	9.62
417.843	11.62
418.624	8.62
419.406	13.62
420.188	9.62
420.969	11.62
421.751	8.62
422.532	9.62
423.313	8.62
424.095	10.62
424.876	10.62
425.657	11.62
426.438	12.62
427.219	13.62
428	12.62
428.78	13.62
429.561	13.62
430.342	15.62
431.122	12.62
431.903	14.62
432.683	13.62
433.464	15.62
434.244	17.62
435.024	14.62
435.804	15.62
436.584	18.62
437.364	18.62
438.144	22.62
438.924	18.62
439.704	21.62
440.483	26.62
441.263	27.62
442.042	25.62
442.822	29.62
443.601	26.62
444.38	30.62
445.16	32.62
445.939	36.62
446.718	36.62
447.497	41.62
448.276	42.62
449.054	46.62
449.833	51.62
450.612	54.62
451.391	61.62
452.169	66.62
452.948	73.62
453.726	81.62
454.504	88.62
455.282	101.62
456.061	113.62
456.839	122.62
457.617	133.62
458.395	148.62
459.172	165.62
459.95	187.62
460.728	205.62
461.506	228.62
462.283	264.62
463.061	275.62
463.838	319.62
464.615	348.62
465.393	389.62
466.17	436.62
466.947	485.62
467.724	536.62
468.501	604.62
469.278	659.62
470.055	729.62
470.831	803.62
471.608	893.62
472.385	984.62
473.161	1098.62
473.938	1211.62
474.714	1326.62
475.49	1454.62
476.266	1598.62
477.043	1773.62
477.819	1933.62
478.595	2132.62
479.371	2332.62
480.146	2551.62
480.922	2780.62
481.698	3039.62
482.473	3333.62
483.249	3682.62
484.024	4010.62
484.8	4364.62
485.575	4766.62
486.35	5199.62
487.126	5661.62
487.901	6176.62
488.676	6742.62
489.451	7343.62
490.225	7984.62
491	8657.62
491.775	9418.62
492.55	10203.62
493.324	11050.62
494.099	11857.62
494.873	12728.62
495.647	13664.62
496.422	14678.62
497.196	15706.62
497.97	16745.62
498.744	17822.62
499.518	18848.62
500.292	19934.62
501.066	20915.62
501.839	21863.62
502.613	22674.62
503.387	23597.62
504.16	24262.62
504.934	24790.62
505.707	25082.62
506.48	25272.62
507.253	25423.62
508.027	25358.62
508.8	25347.62
509.573	25186.62
510.346	24773.62
511.118	24256.62
511.891	23688.62
512.664	23016.62
513.437	22269.62
514.209	21450.62
514.982	20737.62
515.754	19845.62
516.526	19034.62
517.298	18290.62
518.071	17493.62
518.843	16862.62
519.615	16265.62
520.387	15618.62
521.159	15000.62
521.93	14332.62
522.702	13855.62
523.474	13260.62
524.245	12646.62
525.017	12166.62
525.788	11691.62
526.56	11176.62
527.331	10648.62
528.102	10263.62
528.873	9758.62
529.644	9338.62
530.415	8910.62
531.186	8425.62
531.957	8076.62
532.728	7650.62
533.498	7277.62
534.269	6904.62
535.039	6510.62
535.81	6186.62
536.58	5841.62
537.351	5506.62
538.121	5222.62
538.891	4942.62
539.661	4662.62
540.431	4418.62
541.201	4153.62
541.971	3941.62
542.741	3741.62
543.51	3576.62
544.28	3380.62
545.05	3210.62
545.819	3081.62
546.588	2918.62
547.358	2759.62
548.127	2635.62
548.896	2497.62
549.665	2380.62
550.434	2252.62
551.203	2144.62
551.972	2013.62
552.741	1902.62
553.51	1812.62
554.278	1701.62
555.047	1630.62
555.815	1518.62
556.584	1446.62
557.352	1365.62
558.121	1285.62
558.889	1231.62
559.657	1154.62
560.425	1096.62
561.193	1032.62
561.961	973.62
562.729	919.62
563.496	873.62
564.264	819.62
565.032	781.62
565.799	737.62
566.567	694.62
567.334	650.62
568.101	614.62
568.869	589.62
569.636	549.62
570.403	517.62
571.17	483.62
571.937	459.62
572.704	442.62
573.471	411.62
574.237	392.62
575.004	371.62
575.771	347.62
576.537	318.62
577.303	303.62
578.07	295.62
578.836	272.62
579.602	254.62
580.368	244.62
581.134	231.62
581.9	217.62
582.666	205.62
583.432	190.62
584.198	184.62
584.964	175.62
585.729	168.62
586.495	152.62
587.26	150.62
588.025	144.62
588.791	133.62
589.556	127.62
590.321	122.62
591.086	111.62
591.851	105.62
592.616	103.62
593.381	97.62
594.146	94.62
594.911	89.62
595.675	82.62
596.44	82.62
597.204	80.62
597.969	68.62
598.733	72.62
599.497	67.62
600.261	65.62
601.025	62.62
601.79	59.62
602.553	56.62
603.317	54.62
604.081	52.62
604.845	47.62
605.609	48.62
606.372	48.62
607.136	41.62
607.899	41.62
608.662	40.62
609.426	36.62
610.189	40.62
610.952	34.62
611.715	33.62
612.478	30.62
613.241	33.62
614.004	30.62
614.767	30.62
615.529	28.62
616.292	27.62
617.055	27.62
617.817	22.62
618.579	25.62
619.342	27.62
620.104	21.62
620.866	21.62
621.628	20.62
622.39	20.62
623.152	20.62
623.914	19.62
624.676	17.62
625.438	15.62
626.199	18.62
626.961	17.62
627.722	18.62
628.484	16.62
629.245	12.62
630.006	13.62
630.768	13.62
631.529	12.62
632.29	12.62
633.051	14.62
633.812	12.62
634.573	12.62
635.333	11.62
636.094	12.62
636.855	12.62
637.615	8.62
638.376	10.62
639.136	10.62
639.896	10.62
640.657	9.62
641.417	10.62
642.177	9.62
642.937	8.62
643.697	8.62
644.457	9.62
645.216	7.62
645.976	8.62
646.736	8.62
647.495	7.62
648.255	7.62
649.014	5.62
649.774	6.62
650.533	8.62
651.292	7.62
652.051	9.62
652.81	6.62
653.569	7.62
654.328	5.62
655.087	5.62
655.846	4.62
656.604	6.62
657.363	4.62
658.121	7.62
658.88	6.62
659.638	7.62
660.397	6.62
661.155	5.62
661.913	9.62
662.671	4.62
663.429	7.62
664.187	5.62
664.945	5.62
665.703	6.62
666.46	4.62
667.218	4.62
667.976	3.62
668.733	6.62
669.49	5.62
670.248	4.62
671.005	5.62
671.762	3.62
672.519	5.62
673.276	5.62
674.033	5.62
674.79	5.62
675.547	6.62
676.304	6.62
677.06	5.62
677.817	5.62
678.574	2.62
679.33	3.62
680.086	6.62
680.843	4.62
681.599	3.62
682.355	4.62
683.111	2.62
683.867	2.62
684.623	3.62
685.379	4.62
686.135	6.62
686.89	5.62
687.646	4.62
688.402	2.62
689.157	1.62
689.912	3.62
690.668	3.62
691.423	2.62
692.178	4.62
692.933	4.62
693.688	2.62
694.443	3.62
695.198	2.62
695.953	2.62
696.708	5.62
697.462	5.62
698.217	4.62
698.972	2.62
699.726	3.62
700.48	2.62
701.235	5.62
701.989	2.62
702.743	3.62
703.497	4.62
704.251	5.62
705.005	4.62
705.759	5.62
706.513	3.62
707.266	3.62
708.02	4.62
708.774	3.62
709.527	2.62
710.28	6.62
711.034	4.62
711.787	3.62
712.54	5.62
713.293	2.62
714.046	6.62
714.799	0.62
715.552	5.62
716.305	3.62
717.058	5.62
717.81	5.62
718.563	4.62
719.315	1.62
720.068	3.62
720.82	6.62
721.573	1.62
722.325	2.62
723.077	4.62
723.829	-1.38
724.581	5.62
725.333	4.62
726.085	3.62
726.836	2.62
727.588	2.62
728.34	6.62
729.091	6.62
729.843	3.62
730.594	5.62
731.346	3.62
732.097	4.62
732.848	4.62
733.599	2.62
734.35	1.62
735.101	4.62
735.852	4.62
736.603	6.62
737.354	3.62
738.104	3.62
738.855	2.62
739.605	2.62
740.356	3.62
741.106	4.62
741.856	3.62
742.607	4.62
743.357	4.62
744.107	1.62
744.857	2.62
745.607	3.62
746.357	5.62
747.106	4.62
747.856	2.62
748.606	4.62
749.355	5.62
750.105	6.62
750.854	4.62
751.603	7.62
752.353	2.62
753.102	5.62
753.851	2.62
754.6	5.62
755.349	6.62
756.098	7.62
756.847	5.62
757.595	4.62
758.344	5.62
759.093	4.62
759.841	5.62
760.589	5.62
761.338	6.62
762.086	7.62
762.834	4.62
763.582	3.62
764.331	7.62
765.079	7.62
765.826	6.62
766.574	4.62
767.322	9.62
768.07	8.62
768.817	6.62
769.565	6.62
770.312	7.62
771.06	6.62
771.807	5.62
772.554	7.62
773.302	5.62
774.049	7.62
774.796	8.62
775.543	8.62
776.29	8.62
777.036	4.62
777.783	9.62
778.53	7.62
779.276	9.62
780.023	9.62
780.769	7.62
781.516	9.62
782.262	6.62
783.008	10.62
783.754	9.62
784.5	8.62
785.246	8.62
785.992	10.62
786.738	9.62
787.484	8.62
788.23	9.62
788.975	9.62
789.721	9.62
790.466	7.62
791.212	7.62
791.957	9.62
792.702	7.62
793.447	8.62
794.193	7.62
794.938	7.62
795.683	7.62
796.427	8.62
797.172	7.62
797.917	8.62
798.662	7.62
799.406	6.62
800.151	6.62
800.895	6.62
801.64	6.62
802.384	8.62
803.128	8.62
803.872	8.62
804.616	7.62
805.36	7.62
806.104	8.62
806.848	4.62
807.592	6.62
808.336	6.62
809.079	5.62
809.823	6.62
810.566	7.62
811.31	5.62
812.053	5.62
812.796	9.62
813.539	5.62
814.283	3.62
815.026	6.62
815.769	3.62
816.511	7.62
817.254	3.62
817.997	3.62
818.74	2.62
819.482	4.62
820.225	4.62
820.967	3.62
821.71	7.62
822.452	4.62
823.194	4.62
823.936	5.62
824.678	6.62
825.42	4.62
826.162	3.62
826.904	2.62
827.646	4.62
828.388	2.62
829.129	4.62
829.871	6.62
830.612	4.62
831.354	4.62
832.095	5.62
832.836	5.62
833.577	5.62
834.319	5.62
835.06	3.62
835.801	3.62
836.542	3.62
837.282	2.62
838.023	3.62
838.764	1.62
839.504	2.62
840.245	3.62
840.985	4.62
841.726	2.62
842.466	2.62
843.206	2.62
843.946	4.62
844.687	3.62
845.427	4.62
846.166	6.62
846.906	2.62
847.646	3.62
848.386	2.62
849.125	5.62
849.865	4.62
850.605	1.62
851.344	4.62
852.083	1.62
852.823	2.62
853.562	5.62
854.301	2.62
855.04	4.62
855.779	2.62
856.518	3.62
857.257	2.62
857.995	1.62
858.734	2.62
859.473	2.62
860.211	2.62
860.95	0.62
861.688	1.62
862.426	1.62
863.165	3.62
863.903	2.62
864.641	3.62
865.379	2.62
866.117	0.62
866.855	1.62
867.593	1.62
868.33	3.62
869.068	2.62
869.806	-1.38
870.543	2.62
871.28	1.62
872.018	3.62
872.755	2.62
873.492	2.62
874.229	1.62
874.967	1.62
875.703	1.62
876.44	-1.38
877.177	3.62
877.914	3.62
878.651	0.62
879.387	0.62
880.124	0.62
880.86	2.62
881.597	1.62
882.333	0.62
883.069	-1.38
883.806	0.62
884.542	1.62
885.278	2.62
886.014	1.62
886.749	0.62
887.485	0.62
888.221	3.62
888.957	0.62
889.692	2.62
890.428	1.62
891.163	-1.38
891.899	1.62
892.634	4.62
893.369	2.62
894.104	1.62
894.839	1.62
895.574	1.62
896.309	1.62
897.044	1.62
897.779	1.62
898.514	1.62
899.248	1.62
899.983	2.62
900.717	-1.38
901.452	1.62
902.186	3.62
902.92	0.62
903.654	0.62
904.389	2.62
905.123	2.62
905.857	1.62
906.59	0.62
907.324	2.62
908.058	-1.38
908.792	1.62
909.525	0.62
910.259	1.62
910.992	2.62
911.726	2.62
912.459	1.62
913.192	0.62
913.925	1.62
914.658	-0.38
915.391	1.62
916.124	0.62
916.857	1.62
917.59	3.62
918.323	0.62
919.055	2.62
919.788	1.62
920.521	1.62
921.253	1.62
921.985	-0.38
922.718	1.62
923.45	1.62
924.182	-0.38
924.914	-0.38
925.646	1.62
926.378	-0.38
927.11	-1.38
927.841	-1.38
928.573	2.62
929.305	1.62
930.036	-0.38
930.768	1.62
931.499	1.62
932.23	-0.38
932.962	-0.38
933.693	0.62
934.424	0.62
935.155	0.62
935.886	-0.38
936.617	-0.38
937.348	0.62
938.078	0.62
938.809	-0.38
939.54	0.62
940.27	-2.38
941.001	0.62
941.731	4.62
942.461	-1.38
943.191	1.62
943.922	0.62
944.652	-1.38
945.382	2.62
946.112	0.62
946.841	1.62
947.571	1.62
948.301	0.62
949.031	-1.38
949.76	1.62
950.49	-0.38
951.219	0.62
951.948	2.62
952.678	-1.38
953.407	0.62
954.136	0.62
954.865	1.62
955.594	-0.38
956.323	-1.38
957.052	0.62
957.78	-0.38
958.509	1.62
959.238	2.62
959.966	-1.38
960.695	1.62
961.423	0.62
962.151	-0.38
962.88	2.62
963.608	-0.38
964.336	1.62
965.064	1.62
965.792	0.62
966.52	-1.38
967.247	0.62
967.975	2.62
968.703	0.62
969.43	2.62
970.158	0.62
970.885	1.62
971.613	0.62
972.34	0.62
973.067	-0.38
973.794	1.62
974.521	1.62
975.248	0.62
975.975	2.62
976.702	0.62
977.429	3.62
978.156	1.62
978.882	-1.38
979.609	-1.38
980.335	2.62
981.062	1.62
981.788	-0.38
982.514	-0.38
983.24	-1.38
983.967	1.62
984.693	1.62
985.419	-1.38
986.144	0.62
986.87	-1.38
987.596	-1.38
988.322	1.62
989.047	-1.38
989.773	0.62
990.498	2.62
991.224	0.62
991.949	-1.38
992.674	1.62
993.399	0.62
994.124	0.62
994.849	1.62
995.574	-1.38
996.299	-1.38
997.024	2.62
997.749	-0.38
998.473	0.62
999.198	1.62
999.922	-0.38
1000.647	0.62
1001.371	2.62
1002.095	-0.38
1002.82	-0.38
1003.544	1.62
1004.268	2.62
1004.992	0.62
1005.716	2.62
1006.439	3.62
1007.163	1.62
1007.887	1.62
1008.611	-0.38
1009.334	-1.38
1010.058	-2.38
1010.781	-1.38
1011.504	0.62
1012.228	0.62
1012.951	-1.38
1013.674	-1.38
1014.397	0.62
1015.12	-1.38
