节点500_285_QEPB04081__701__15-07-12-849.txt的数据

Date: Wed Nov 12 15:07:12 CST 2025
User: PC
Spectrometer: QEPB0408
触发模式: 0
积分时间 (秒): 1.000000E-2
Scans to average: 1
启用暗噪声校正: true
启用非线性校正: false
滑动平均宽度: 0
X轴模式: Wavelengths
Number of Pixels in Spectrum: 1044
>>>>>Begin Spectral Data<<<<<
220.843	1.62
221.644	1.62
222.444	1.62
223.244	0.62
224.045	0.62
224.845	2.62
225.645	-0.38
226.445	1.62
227.245	2.62
228.045	0.62
228.845	1.62
229.645	0.62
230.444	0.62
231.244	2.62
232.043	5.62
232.843	3.62
233.642	3.62
234.442	2.62
235.241	2.62
236.04	1.62
236.839	0.62
237.638	3.62
238.437	5.62
239.236	1.62
240.035	4.62
240.833	1.62
241.632	4.62
242.43	4.62
243.229	4.62
244.027	5.62
244.826	4.62
245.624	3.62
246.422	2.62
247.22	6.62
248.018	4.62
248.816	4.62
249.614	6.62
250.412	4.62
251.21	4.62
252.007	5.62
252.805	6.62
253.602	6.62
254.4	5.62
255.197	5.62
255.994	5.62
256.791	6.62
257.589	8.62
258.386	5.62
259.183	9.62
259.979	9.62
260.776	8.62
261.573	8.62
262.37	9.62
263.166	10.62
263.963	8.62
264.759	7.62
265.556	9.62
266.352	12.62
267.148	9.62
267.944	9.62
268.74	9.62
269.536	8.62
270.332	11.62
271.128	10.62
271.924	14.62
272.719	17.62
273.515	13.62
274.311	13.62
275.106	15.62
275.901	13.62
276.697	13.62
277.492	15.62
278.287	17.62
279.082	12.62
279.877	16.62
280.672	16.62
281.467	17.62
282.262	18.62
283.056	15.62
283.851	20.62
284.646	18.62
285.44	17.62
286.234	16.62
287.029	16.62
287.823	16.62
288.617	17.62
289.411	15.62
290.205	16.62
290.999	18.62
291.793	14.62
292.587	18.62
293.381	18.62
294.174	16.62
294.968	16.62
295.761	15.62
296.555	14.62
297.348	12.62
298.141	14.62
298.935	16.62
299.728	12.62
300.521	14.62
301.314	13.62
302.107	12.62
302.899	11.62
303.692	11.62
304.485	9.62
305.277	9.62
306.07	13.62
306.862	13.62
307.655	13.62
308.447	11.62
309.239	11.62
310.031	11.62
310.823	11.62
311.615	9.62
312.407	9.62
313.199	8.62
313.991	9.62
314.783	8.62
315.574	9.62
316.366	8.62
317.157	7.62
317.949	8.62
318.74	9.62
319.531	10.62
320.322	7.62
321.113	10.62
321.904	5.62
322.695	8.62
323.486	6.62
324.277	5.62
325.068	7.62
325.858	6.62
326.649	9.62
327.439	4.62
328.23	5.62
329.02	5.62
329.81	6.62
330.6	5.62
331.391	8.62
332.181	4.62
332.971	5.62
333.76	9.62
334.55	7.62
335.34	5.62
336.13	6.62
336.919	4.62
337.709	4.62
338.498	6.62
339.287	6.62
340.077	8.62
340.866	3.62
341.655	5.62
342.444	4.62
343.233	6.62
344.022	7.62
344.811	5.62
345.6	6.62
346.388	5.62
347.177	6.62
347.965	5.62
348.754	5.62
349.542	4.62
350.33	5.62
351.119	4.62
351.907	2.62
352.695	6.62
353.483	5.62
354.271	6.62
355.059	3.62
355.846	6.62
356.634	5.62
357.422	2.62
358.209	6.62
358.997	6.62
359.784	4.62
360.571	4.62
361.359	3.62
362.146	6.62
362.933	3.62
363.72	4.62
364.507	4.62
365.294	6.62
366.081	5.62
366.867	2.62
367.654	6.62
368.44	4.62
369.227	4.62
370.013	2.62
370.8	3.62
371.586	4.62
372.372	4.62
373.158	5.62
373.944	4.62
374.73	5.62
375.516	3.62
376.302	3.62
377.088	5.62
377.873	2.62
378.659	3.62
379.445	5.62
380.23	4.62
381.015	3.62
381.801	4.62
382.586	4.62
383.371	2.62
384.156	4.62
384.941	4.62
385.726	2.62
386.511	6.62
387.296	3.62
388.08	5.62
388.865	1.62
389.649	4.62
390.434	4.62
391.218	4.62
392.003	5.62
392.787	4.62
393.571	7.62
394.355	6.62
395.139	5.62
395.923	6.62
396.707	5.62
397.491	7.62
398.274	5.62
399.058	3.62
399.842	6.62
400.625	7.62
401.408	6.62
402.192	5.62
402.975	5.62
403.758	4.62
404.541	4.62
405.324	7.62
406.107	7.62
406.89	5.62
407.673	5.62
408.456	5.62
409.238	9.62
410.021	6.62
410.803	9.62
411.586	8.62
412.368	8.62
413.151	8.62
413.933	6.62
414.715	9.62
415.497	8.62
416.279	8.62
417.061	8.62
417.843	9.62
418.624	8.62
419.406	9.62
420.188	8.62
420.969	6.62
421.751	10.62
422.532	8.62
423.313	9.62
424.095	9.62
424.876	12.62
425.657	9.62
426.438	11.62
427.219	11.62
428	10.62
428.78	13.62
429.561	11.62
430.342	11.62
431.122	11.62
431.903	14.62
432.683	16.62
433.464	17.62
434.244	15.62
435.024	17.62
435.804	17.62
436.584	18.62
437.364	18.62
438.144	17.62
438.924	18.62
439.704	20.62
440.483	22.62
441.263	22.62
442.042	23.62
442.822	27.62
443.601	29.62
444.38	28.62
445.16	33.62
445.939	33.62
446.718	37.62
447.497	39.62
448.276	40.62
449.054	46.62
449.833	49.62
450.612	56.62
451.391	61.62
452.169	66.62
452.948	73.62
453.726	77.62
454.504	91.62
455.282	98.62
456.061	106.62
456.839	120.62
457.617	131.62
458.395	146.62
459.172	163.62
459.95	185.62
460.728	204.62
461.506	227.62
462.283	253.62
463.061	279.62
463.838	315.62
464.615	359.62
465.393	392.62
466.17	439.62
466.947	484.62
467.724	547.62
468.501	603.62
469.278	652.62
470.055	723.62
470.831	804.62
471.608	897.62
472.385	992.62
473.161	1087.62
473.938	1208.62
474.714	1327.62
475.49	1462.62
476.266	1611.62
477.043	1764.62
477.819	1942.62
478.595	2133.62
479.371	2315.62
480.146	2564.62
480.922	2795.62
481.698	3055.62
482.473	3335.62
483.249	3650.62
484.024	4030.62
484.8	4391.62
485.575	4771.62
486.35	5208.62
487.126	5704.62
487.901	6207.62
488.676	6777.62
489.451	7371.62
490.225	8009.62
491	8701.62
491.775	9464.62
492.55	10231.62
493.324	11107.62
494.099	11847.62
494.873	12717.62
495.647	13747.62
496.422	14728.62
497.196	15787.62
497.97	16805.62
498.744	17878.62
499.518	18905.62
500.292	19941.62
501.066	21007.62
501.839	21930.62
502.613	22878.62
503.387	23651.62
504.16	24381.62
504.934	24807.62
505.707	25121.62
506.48	25403.62
507.253	25557.62
508.027	25491.62
508.8	25377.62
509.573	25237.62
510.346	24888.62
511.118	24324.62
511.891	23721.62
512.664	22992.62
513.437	22251.62
514.209	21483.62
514.982	20736.62
515.754	19913.62
516.526	19061.62
517.298	18337.62
518.071	17589.62
518.843	16883.62
519.615	16210.62
520.387	15654.62
521.159	15001.62
521.93	14391.62
522.702	13867.62
523.474	13299.62
524.245	12647.62
525.017	12217.62
525.788	11743.62
526.56	11187.62
527.331	10708.62
528.102	10208.62
528.873	9785.62
529.644	9341.62
530.415	8925.62
531.186	8438.62
531.957	8044.62
532.728	7671.62
533.498	7304.62
534.269	6897.62
535.039	6518.62
535.81	6175.62
536.58	5868.62
537.351	5532.62
538.121	5196.62
538.891	4946.62
539.661	4683.62
540.431	4390.62
541.201	4164.62
541.971	3946.62
542.741	3768.62
543.51	3561.62
544.28	3415.62
545.05	3244.62
545.819	3067.62
546.588	2905.62
547.358	2764.62
548.127	2628.62
548.896	2510.62
549.665	2382.62
550.434	2255.62
551.203	2123.62
551.972	2028.62
552.741	1918.62
553.51	1806.62
554.278	1706.62
555.047	1612.62
555.815	1521.62
556.584	1452.62
557.352	1363.62
558.121	1298.62
558.889	1213.62
559.657	1155.62
560.425	1088.62
561.193	1019.62
561.961	975.62
562.729	919.62
563.496	878.62
564.264	822.62
565.032	771.62
565.799	736.62
566.567	699.62
567.334	654.62
568.101	621.62
568.869	586.62
569.636	539.62
570.403	513.62
571.17	479.62
571.937	454.62
572.704	437.62
573.471	415.62
574.237	395.62
575.004	367.62
575.771	346.62
576.537	330.62
577.303	308.62
578.07	284.62
578.836	267.62
579.602	252.62
580.368	245.62
581.134	233.62
581.9	212.62
582.666	203.62
583.432	199.62
584.198	189.62
584.964	175.62
585.729	168.62
586.495	152.62
587.26	146.62
588.025	141.62
588.791	135.62
589.556	125.62
590.321	117.62
591.086	116.62
591.851	110.62
592.616	98.62
593.381	97.62
594.146	95.62
594.911	87.62
595.675	84.62
596.44	81.62
597.204	76.62
597.969	72.62
598.733	69.62
599.497	63.62
600.261	66.62
601.025	59.62
601.79	54.62
602.553	57.62
603.317	53.62
604.081	52.62
604.845	48.62
605.609	46.62
606.372	45.62
607.136	43.62
607.899	39.62
608.662	39.62
609.426	36.62
610.189	35.62
610.952	35.62
611.715	32.62
612.478	33.62
613.241	31.62
614.004	31.62
614.767	28.62
615.529	28.62
616.292	29.62
617.055	27.62
617.817	23.62
618.579	23.62
619.342	22.62
620.104	19.62
620.866	22.62
621.628	18.62
622.39	20.62
623.152	18.62
623.914	18.62
624.676	17.62
625.438	16.62
626.199	16.62
626.961	14.62
627.722	16.62
628.484	15.62
629.245	14.62
630.006	14.62
630.768	11.62
631.529	13.62
632.29	13.62
633.051	10.62
633.812	10.62
634.573	9.62
635.333	9.62
636.094	10.62
636.855	10.62
637.615	10.62
638.376	9.62
639.136	10.62
639.896	10.62
640.657	13.62
641.417	8.62
642.177	9.62
642.937	8.62
643.697	7.62
644.457	10.62
645.216	11.62
645.976	8.62
646.736	8.62
647.495	6.62
648.255	9.62
649.014	6.62
649.774	7.62
650.533	4.62
651.292	7.62
652.051	5.62
652.81	4.62
653.569	5.62
654.328	8.62
655.087	6.62
655.846	5.62
656.604	5.62
657.363	7.62
658.121	2.62
658.88	4.62
659.638	3.62
660.397	4.62
661.155	6.62
661.913	5.62
662.671	4.62
663.429	3.62
664.187	6.62
664.945	3.62
665.703	6.62
666.46	6.62
667.218	7.62
667.976	4.62
668.733	5.62
669.49	6.62
670.248	3.62
671.005	4.62
671.762	5.62
672.519	2.62
673.276	3.62
674.033	4.62
674.79	4.62
675.547	4.62
676.304	3.62
677.06	2.62
677.817	2.62
678.574	3.62
679.33	4.62
680.086	2.62
680.843	5.62
681.599	3.62
682.355	4.62
683.111	4.62
683.867	5.62
684.623	2.62
685.379	1.62
686.135	1.62
686.89	2.62
687.646	4.62
688.402	3.62
689.157	4.62
689.912	6.62
690.668	1.62
691.423	3.62
692.178	2.62
692.933	4.62
693.688	2.62
694.443	4.62
695.198	-0.38
695.953	1.62
696.708	2.62
697.462	3.62
698.217	4.62
698.972	1.62
699.726	2.62
700.48	3.62
701.235	2.62
701.989	1.62
702.743	3.62
703.497	5.62
704.251	3.62
705.005	3.62
705.759	1.62
706.513	2.62
707.266	5.62
708.02	2.62
708.774	4.62
709.527	1.62
710.28	5.62
711.034	1.62
711.787	2.62
712.54	1.62
713.293	1.62
714.046	4.62
714.799	2.62
715.552	3.62
716.305	2.62
717.058	3.62
717.81	1.62
718.563	4.62
719.315	1.62
720.068	0.62
720.82	3.62
721.573	4.62
722.325	1.62
723.077	1.62
723.829	1.62
724.581	4.62
725.333	3.62
726.085	3.62
726.836	4.62
727.588	3.62
728.34	2.62
729.091	1.62
729.843	4.62
730.594	3.62
731.346	1.62
732.097	3.62
732.848	2.62
733.599	4.62
734.35	4.62
735.101	2.62
735.852	3.62
736.603	3.62
737.354	4.62
738.104	1.62
738.855	1.62
739.605	2.62
740.356	4.62
741.106	5.62
741.856	6.62
742.607	3.62
743.357	3.62
744.107	5.62
744.857	5.62
745.607	5.62
746.357	4.62
747.106	2.62
747.856	2.62
748.606	2.62
749.355	3.62
750.105	3.62
750.854	6.62
751.603	6.62
752.353	2.62
753.102	4.62
753.851	4.62
754.6	6.62
755.349	3.62
756.098	4.62
756.847	6.62
757.595	4.62
758.344	4.62
759.093	5.62
759.841	5.62
760.589	5.62
761.338	4.62
762.086	3.62
762.834	4.62
763.582	5.62
764.331	7.62
765.079	6.62
765.826	5.62
766.574	4.62
767.322	5.62
768.07	6.62
768.817	7.62
769.565	5.62
770.312	6.62
771.06	6.62
771.807	6.62
772.554	8.62
773.302	5.62
774.049	8.62
774.796	8.62
775.543	4.62
776.29	7.62
777.036	6.62
777.783	8.62
778.53	6.62
779.276	6.62
780.023	5.62
780.769	8.62
781.516	8.62
782.262	9.62
783.008	5.62
783.754	5.62
784.5	9.62
785.246	7.62
785.992	7.62
786.738	7.62
787.484	5.62
788.23	8.62
788.975	6.62
789.721	6.62
790.466	7.62
791.212	8.62
791.957	7.62
792.702	7.62
793.447	7.62
794.193	5.62
794.938	5.62
795.683	7.62
796.427	8.62
797.172	8.62
797.917	3.62
798.662	7.62
799.406	6.62
800.151	7.62
800.895	6.62
801.64	6.62
802.384	3.62
803.128	6.62
803.872	6.62
804.616	7.62
805.36	4.62
806.104	6.62
806.848	4.62
807.592	4.62
808.336	7.62
809.079	5.62
809.823	5.62
810.566	5.62
811.31	4.62
812.053	5.62
812.796	6.62
813.539	4.62
814.283	3.62
815.026	3.62
815.769	4.62
816.511	5.62
817.254	5.62
817.997	4.62
818.74	4.62
819.482	2.62
820.225	5.62
820.967	4.62
821.71	0.62
822.452	2.62
823.194	4.62
823.936	1.62
824.678	5.62
825.42	3.62
826.162	4.62
826.904	2.62
827.646	5.62
828.388	1.62
829.129	1.62
829.871	1.62
830.612	4.62
831.354	2.62
832.095	4.62
832.836	3.62
833.577	3.62
834.319	3.62
835.06	3.62
835.801	3.62
836.542	2.62
837.282	3.62
838.023	2.62
838.764	3.62
839.504	3.62
840.245	3.62
840.985	2.62
841.726	3.62
842.466	2.62
843.206	2.62
843.946	4.62
844.687	2.62
845.427	3.62
846.166	2.62
846.906	3.62
847.646	2.62
848.386	3.62
849.125	1.62
849.865	2.62
850.605	3.62
851.344	4.62
852.083	3.62
852.823	0.62
853.562	3.62
854.301	2.62
855.04	1.62
855.779	2.62
856.518	2.62
857.257	2.62
857.995	1.62
858.734	1.62
859.473	1.62
860.211	0.62
860.95	1.62
861.688	1.62
862.426	3.62
863.165	1.62
863.903	1.62
864.641	1.62
865.379	2.62
866.117	0.62
866.855	1.62
867.593	1.62
868.33	0.62
869.068	0.62
869.806	0.62
870.543	-0.38
871.28	1.62
872.018	0.62
872.755	3.62
873.492	-2.38
874.229	1.62
874.967	0.62
875.703	1.62
876.44	-0.38
877.177	1.62
877.914	1.62
878.651	0.62
879.387	2.62
880.124	1.62
880.86	1.62
881.597	2.62
882.333	-0.38
883.069	0.62
883.806	0.62
884.542	0.62
885.278	-0.38
886.014	1.62
886.749	1.62
887.485	-0.38
888.221	1.62
888.957	0.62
889.692	-0.38
890.428	1.62
891.163	0.62
891.899	-0.38
892.634	-0.38
893.369	1.62
894.104	-0.38
894.839	0.62
895.574	1.62
896.309	0.62
897.044	-0.38
897.779	0.62
898.514	-0.38
899.248	1.62
899.983	0.62
900.717	0.62
901.452	-0.38
902.186	-1.38
902.92	-0.38
903.654	0.62
904.389	-0.38
905.123	0.62
905.857	0.62
906.59	-0.38
907.324	-1.38
908.058	1.62
908.792	-2.38
909.525	1.62
910.259	-0.38
910.992	0.62
911.726	-1.38
912.459	-1.38
913.192	-2.38
913.925	1.62
914.658	0.62
915.391	-0.38
916.124	0.62
916.857	0.62
917.59	-0.38
918.323	1.62
919.055	-0.38
919.788	0.62
920.521	-1.38
921.253	-0.38
921.985	-0.38
922.718	1.62
923.45	-0.38
924.182	0.62
924.914	-0.38
925.646	-1.38
926.378	1.62
927.11	-0.38
927.841	-0.38
928.573	1.62
929.305	0.62
930.036	0.62
930.768	1.62
931.499	-0.38
932.23	0.62
932.962	-2.38
933.693	-2.38
934.424	-1.38
935.155	0.62
935.886	-2.38
936.617	0.62
937.348	-1.38
938.078	-2.38
938.809	1.62
939.54	-0.38
940.27	-0.38
941.001	-1.38
941.731	-0.38
942.461	-1.38
943.191	1.62
943.922	2.62
944.652	-1.38
945.382	0.62
946.112	0.62
946.841	-2.38
947.571	-0.38
948.301	-0.38
949.031	0.62
949.76	0.62
950.49	-0.38
951.219	-1.38
951.948	-1.38
952.678	1.62
953.407	-0.38
954.136	1.62
954.865	0.62
955.594	-2.38
956.323	0.62
957.052	-1.38
957.78	-0.38
958.509	-1.38
959.238	-0.38
959.966	-1.38
960.695	-0.38
961.423	-2.38
962.151	-1.38
962.88	1.62
963.608	-0.38
964.336	-0.38
965.064	0.62
965.792	1.62
966.52	-0.38
967.247	0.62
967.975	0.62
968.703	-0.38
969.43	0.62
970.158	0.62
970.885	-0.38
971.613	-0.38
972.34	-1.38
973.067	0.62
973.794	0.62
974.521	-0.38
975.248	-0.38
975.975	-2.38
976.702	-0.38
977.429	-1.38
978.156	1.62
978.882	-2.38
979.609	-1.38
980.335	1.62
981.062	-2.38
981.788	-0.38
982.514	-0.38
983.24	2.62
983.967	1.62
984.693	1.62
985.419	0.62
986.144	-2.38
986.87	1.62
987.596	-0.38
988.322	0.62
989.047	-2.38
989.773	1.62
990.498	1.62
991.224	-1.38
991.949	-0.38
992.674	-0.38
993.399	-0.38
994.124	0.62
994.849	0.62
995.574	0.62
996.299	-2.38
997.024	2.62
997.749	-0.38
998.473	1.62
999.198	-0.38
999.922	0.62
1000.647	0.62
1001.371	3.62
1002.095	-1.38
1002.82	-2.38
1003.544	1.62
1004.268	1.62
1004.992	1.62
1005.716	-0.38
1006.439	-0.38
1007.163	1.62
1007.887	-1.38
1008.611	-2.38
1009.334	-0.38
1010.058	-0.38
1010.781	-1.38
1011.504	-2.38
1012.228	-0.38
1012.951	0.62
1013.674	-1.38
1014.397	-0.38
1015.12	-0.38
