节点500_285_QEPB04081__12__14-55-47-480.txt的数据

Date: Wed Nov 12 14:55:47 CST 2025
User: PC
Spectrometer: QEPB0408
触发模式: 0
积分时间 (秒): 1.000000E-2
Scans to average: 1
启用暗噪声校正: true
启用非线性校正: false
滑动平均宽度: 0
X轴模式: Wavelengths
Number of Pixels in Spectrum: 1044
>>>>>Begin Spectral Data<<<<<
220.843	2.88
221.644	-0.12
222.444	3.88
223.244	0.88
224.045	2.88
224.845	2.88
225.645	2.88
226.445	1.88
227.245	1.88
228.045	3.88
228.845	3.88
229.645	4.88
230.444	3.88
231.244	3.88
232.043	2.88
232.843	3.88
233.642	4.88
234.442	2.88
235.241	4.88
236.04	3.88
236.839	2.88
237.638	3.88
238.437	3.88
239.236	2.88
240.035	5.88
240.833	2.88
241.632	4.88
242.43	5.88
243.229	4.88
244.027	4.88
244.826	3.88
245.624	4.88
246.422	5.88
247.22	5.88
248.018	7.88
248.816	4.88
249.614	5.88
250.412	6.88
251.21	7.88
252.007	6.88
252.805	6.88
253.602	6.88
254.4	5.88
255.197	9.88
255.994	6.88
256.791	8.88
257.589	6.88
258.386	9.88
259.183	12.88
259.979	8.88
260.776	12.88
261.573	11.88
262.37	13.88
263.166	10.88
263.963	15.88
264.759	14.88
265.556	13.88
266.352	14.88
267.148	14.88
267.944	16.88
268.74	15.88
269.536	15.88
270.332	16.88
271.128	16.88
271.924	16.88
272.719	15.88
273.515	18.88
274.311	16.88
275.106	15.88
275.901	18.88
276.697	19.88
277.492	18.88
278.287	20.88
279.082	16.88
279.877	18.88
280.672	17.88
281.467	19.88
282.262	19.88
283.056	18.88
283.851	20.88
284.646	18.88
285.44	19.88
286.234	19.88
287.029	20.88
287.823	18.88
288.617	17.88
289.411	16.88
290.205	21.88
290.999	20.88
291.793	22.88
292.587	19.88
293.381	18.88
294.174	16.88
294.968	16.88
295.761	16.88
296.555	15.88
297.348	15.88
298.141	15.88
298.935	17.88
299.728	13.88
300.521	12.88
301.314	15.88
302.107	12.88
302.899	14.88
303.692	13.88
304.485	13.88
305.277	11.88
306.07	10.88
306.862	9.88
307.655	10.88
308.447	9.88
309.239	12.88
310.031	10.88
310.823	11.88
311.615	11.88
312.407	8.88
313.199	10.88
313.991	10.88
314.783	10.88
315.574	8.88
316.366	10.88
317.157	10.88
317.949	9.88
318.74	10.88
319.531	7.88
320.322	6.88
321.113	6.88
321.904	7.88
322.695	7.88
323.486	8.88
324.277	6.88
325.068	7.88
325.858	8.88
326.649	7.88
327.439	5.88
328.23	7.88
329.02	7.88
329.81	8.88
330.6	7.88
331.391	7.88
332.181	9.88
332.971	7.88
333.76	7.88
334.55	5.88
335.34	6.88
336.13	5.88
336.919	5.88
337.709	4.88
338.498	5.88
339.287	6.88
340.077	6.88
340.866	5.88
341.655	7.88
342.444	6.88
343.233	6.88
344.022	2.88
344.811	4.88
345.6	4.88
346.388	5.88
347.177	7.88
347.965	2.88
348.754	5.88
349.542	5.88
350.33	4.88
351.119	5.88
351.907	7.88
352.695	4.88
353.483	6.88
354.271	5.88
355.059	7.88
355.846	5.88
356.634	6.88
357.422	5.88
358.209	4.88
358.997	4.88
359.784	4.88
360.571	5.88
361.359	4.88
362.146	3.88
362.933	5.88
363.72	7.88
364.507	6.88
365.294	4.88
366.081	9.88
366.867	3.88
367.654	5.88
368.44	4.88
369.227	5.88
370.013	4.88
370.8	2.88
371.586	6.88
372.372	6.88
373.158	5.88
373.944	3.88
374.73	4.88
375.516	5.88
376.302	5.88
377.088	4.88
377.873	6.88
378.659	2.88
379.445	4.88
380.23	3.88
381.015	6.88
381.801	5.88
382.586	4.88
383.371	4.88
384.156	4.88
384.941	7.88
385.726	4.88
386.511	4.88
387.296	4.88
388.08	5.88
388.865	6.88
389.649	5.88
390.434	4.88
391.218	6.88
392.003	5.88
392.787	6.88
393.571	4.88
394.355	6.88
395.139	7.88
395.923	3.88
396.707	4.88
397.491	6.88
398.274	5.88
399.058	5.88
399.842	6.88
400.625	10.88
401.408	7.88
402.192	8.88
402.975	6.88
403.758	6.88
404.541	7.88
405.324	4.88
406.107	8.88
406.89	6.88
407.673	7.88
408.456	6.88
409.238	8.88
410.021	8.88
410.803	10.88
411.586	7.88
412.368	9.88
413.151	7.88
413.933	9.88
414.715	8.88
415.497	8.88
416.279	8.88
417.061	10.88
417.843	7.88
418.624	9.88
419.406	10.88
420.188	10.88
420.969	12.88
421.751	11.88
422.532	12.88
423.313	11.88
424.095	11.88
424.876	12.88
425.657	9.88
426.438	10.88
427.219	12.88
428	11.88
428.78	12.88
429.561	13.88
430.342	13.88
431.122	13.88
431.903	12.88
432.683	17.88
433.464	14.88
434.244	16.88
435.024	15.88
435.804	17.88
436.584	18.88
437.364	20.88
438.144	20.88
438.924	22.88
439.704	24.88
440.483	19.88
441.263	23.88
442.042	25.88
442.822	26.88
443.601	26.88
444.38	28.88
445.16	30.88
445.939	32.88
446.718	34.88
447.497	34.88
448.276	39.88
449.054	42.88
449.833	47.88
450.612	49.88
451.391	53.88
452.169	55.88
452.948	60.88
453.726	68.88
454.504	72.88
455.282	83.88
456.061	87.88
456.839	104.88
457.617	105.88
458.395	125.88
459.172	136.88
459.95	148.88
460.728	173.88
461.506	186.88
462.283	215.88
463.061	229.88
463.838	266.88
464.615	303.88
465.393	333.88
466.17	371.88
466.947	409.88
467.724	464.88
468.501	515.88
469.278	566.88
470.055	649.88
470.831	722.88
471.608	803.88
472.385	897.88
473.161	1003.88
473.938	1121.88
474.714	1244.88
475.49	1389.88
476.266	1557.88
477.043	1715.88
477.819	1929.88
478.595	2143.88
479.371	2361.88
480.146	2620.88
480.922	2903.88
481.698	3205.88
482.473	3585.88
483.249	3985.88
484.024	4394.88
484.8	4856.88
485.575	5382.88
486.35	5940.88
487.126	6587.88
487.901	7272.88
488.676	7976.88
489.451	8801.88
490.225	9716.88
491	10609.88
491.775	11647.88
492.55	12740.88
493.324	13892.88
494.099	14996.88
494.873	16171.88
495.647	17454.88
496.422	18830.88
497.196	20112.88
497.97	21501.88
498.744	22793.88
499.518	24122.88
500.292	25338.88
501.066	26394.88
501.839	27306.88
502.613	28192.88
503.387	28837.88
504.16	29336.88
504.934	29588.88
505.707	29503.88
506.48	29332.88
507.253	28993.88
508.027	28500.88
508.8	27909.88
509.573	27265.88
510.346	26306.88
511.118	25394.88
511.891	24413.88
512.664	23447.88
513.437	22396.88
514.209	21364.88
514.982	20439.88
515.754	19448.88
516.526	18560.88
517.298	17755.88
518.071	16983.88
518.843	16358.88
519.615	15739.88
520.387	15141.88
521.159	14464.88
521.93	13895.88
522.702	13340.88
523.474	12799.88
524.245	12276.88
525.017	11708.88
525.788	11219.88
526.56	10672.88
527.331	10169.88
528.102	9719.88
528.873	9191.88
529.644	8731.88
530.415	8282.88
531.186	7838.88
531.957	7410.88
532.728	7023.88
533.498	6657.88
534.269	6235.88
535.039	5896.88
535.81	5549.88
536.58	5246.88
537.351	4931.88
538.121	4660.88
538.891	4438.88
539.661	4195.88
540.431	3928.88
541.201	3731.88
541.971	3525.88
542.741	3328.88
543.51	3169.88
544.28	3032.88
545.05	2888.88
545.819	2756.88
546.588	2619.88
547.358	2468.88
548.127	2347.88
548.896	2224.88
549.665	2127.88
550.434	2004.88
551.203	1893.88
551.972	1788.88
552.741	1686.88
553.51	1584.88
554.278	1510.88
555.047	1424.88
555.815	1335.88
556.584	1267.88
557.352	1179.88
558.121	1116.88
558.889	1040.88
559.657	982.88
560.425	952.88
561.193	885.88
561.961	841.88
562.729	796.88
563.496	744.88
564.264	709.88
565.032	665.88
565.799	624.88
566.567	590.88
567.334	569.88
568.101	529.88
568.869	508.88
569.636	477.88
570.403	438.88
571.17	420.88
571.937	396.88
572.704	366.88
573.471	366.88
574.237	333.88
575.004	315.88
575.771	296.88
576.537	280.88
577.303	262.88
578.07	249.88
578.836	227.88
579.602	217.88
580.368	210.88
581.134	198.88
581.9	183.88
582.666	175.88
583.432	162.88
584.198	158.88
584.964	151.88
585.729	137.88
586.495	139.88
587.26	129.88
588.025	120.88
588.791	119.88
589.556	112.88
590.321	104.88
591.086	95.88
591.851	93.88
592.616	89.88
593.381	86.88
594.146	80.88
594.911	75.88
595.675	73.88
596.44	71.88
597.204	66.88
597.969	62.88
598.733	59.88
599.497	58.88
600.261	58.88
601.025	52.88
601.79	50.88
602.553	47.88
603.317	45.88
604.081	45.88
604.845	43.88
605.609	40.88
606.372	37.88
607.136	36.88
607.899	38.88
608.662	33.88
609.426	32.88
610.189	32.88
610.952	31.88
611.715	29.88
612.478	28.88
613.241	28.88
614.004	25.88
614.767	26.88
615.529	24.88
616.292	22.88
617.055	24.88
617.817	19.88
618.579	21.88
619.342	21.88
620.104	19.88
620.866	18.88
621.628	19.88
622.39	19.88
623.152	15.88
623.914	18.88
624.676	15.88
625.438	15.88
626.199	18.88
626.961	13.88
627.722	14.88
628.484	13.88
629.245	12.88
630.006	14.88
630.768	12.88
631.529	12.88
632.29	11.88
633.051	13.88
633.812	10.88
634.573	10.88
635.333	12.88
636.094	10.88
636.855	10.88
637.615	12.88
638.376	8.88
639.136	11.88
639.896	11.88
640.657	9.88
641.417	8.88
642.177	9.88
642.937	6.88
643.697	9.88
644.457	10.88
645.216	8.88
645.976	7.88
646.736	9.88
647.495	7.88
648.255	6.88
649.014	9.88
649.774	4.88
650.533	6.88
651.292	7.88
652.051	7.88
652.81	7.88
653.569	7.88
654.328	8.88
655.087	4.88
655.846	5.88
656.604	6.88
657.363	4.88
658.121	3.88
658.88	4.88
659.638	6.88
660.397	5.88
661.155	5.88
661.913	7.88
662.671	7.88
663.429	6.88
664.187	4.88
664.945	6.88
665.703	5.88
666.46	5.88
667.218	5.88
667.976	5.88
668.733	3.88
669.49	2.88
670.248	6.88
671.005	3.88
671.762	0.88
672.519	5.88
673.276	4.88
674.033	5.88
674.79	5.88
675.547	5.88
676.304	2.88
677.06	4.88
677.817	2.88
678.574	4.88
679.33	4.88
680.086	1.88
680.843	4.88
681.599	4.88
682.355	1.88
683.111	6.88
683.867	4.88
684.623	3.88
685.379	3.88
686.135	3.88
686.89	4.88
687.646	2.88
688.402	5.88
689.157	2.88
689.912	3.88
690.668	2.88
691.423	2.88
692.178	3.88
692.933	1.88
693.688	2.88
694.443	4.88
695.198	1.88
695.953	4.88
696.708	1.88
697.462	4.88
698.217	3.88
698.972	2.88
699.726	1.88
700.48	2.88
701.235	5.88
701.989	3.88
702.743	1.88
703.497	3.88
704.251	3.88
705.005	3.88
705.759	2.88
706.513	4.88
707.266	3.88
708.02	3.88
708.774	3.88
709.527	3.88
710.28	3.88
711.034	4.88
711.787	1.88
712.54	2.88
713.293	4.88
714.046	1.88
714.799	1.88
715.552	3.88
716.305	1.88
717.058	1.88
717.81	2.88
718.563	1.88
719.315	4.88
720.068	2.88
720.82	3.88
721.573	3.88
722.325	2.88
723.077	2.88
723.829	3.88
724.581	2.88
725.333	3.88
726.085	4.88
726.836	4.88
727.588	4.88
728.34	4.88
729.091	3.88
729.843	3.88
730.594	2.88
731.346	4.88
732.097	4.88
732.848	2.88
733.599	6.88
734.35	4.88
735.101	5.88
735.852	2.88
736.603	1.88
737.354	7.88
738.104	4.88
738.855	5.88
739.605	5.88
740.356	4.88
741.106	6.88
741.856	5.88
742.607	6.88
743.357	5.88
744.107	5.88
744.857	2.88
745.607	4.88
746.357	7.88
747.106	6.88
747.856	7.88
748.606	4.88
749.355	3.88
750.105	6.88
750.854	2.88
751.603	5.88
752.353	6.88
753.102	3.88
753.851	3.88
754.6	2.88
755.349	7.88
756.098	5.88
756.847	8.88
757.595	4.88
758.344	5.88
759.093	6.88
759.841	7.88
760.589	7.88
761.338	8.88
762.086	7.88
762.834	7.88
763.582	7.88
764.331	6.88
765.079	6.88
765.826	7.88
766.574	7.88
767.322	6.88
768.07	8.88
768.817	7.88
769.565	7.88
770.312	7.88
771.06	8.88
771.807	8.88
772.554	6.88
773.302	9.88
774.049	8.88
774.796	9.88
775.543	6.88
776.29	8.88
777.036	7.88
777.783	9.88
778.53	8.88
779.276	8.88
780.023	8.88
780.769	11.88
781.516	8.88
782.262	11.88
783.008	7.88
783.754	10.88
784.5	8.88
785.246	9.88
785.992	12.88
786.738	11.88
787.484	7.88
788.23	9.88
788.975	6.88
789.721	11.88
790.466	7.88
791.212	10.88
791.957	11.88
792.702	8.88
793.447	8.88
794.193	11.88
794.938	10.88
795.683	8.88
796.427	7.88
797.172	7.88
797.917	7.88
798.662	8.88
799.406	6.88
800.151	8.88
800.895	8.88
801.64	5.88
802.384	5.88
803.128	4.88
803.872	7.88
804.616	6.88
805.36	6.88
806.104	6.88
806.848	5.88
807.592	8.88
808.336	6.88
809.079	6.88
809.823	5.88
810.566	5.88
811.31	5.88
812.053	3.88
812.796	6.88
813.539	6.88
814.283	4.88
815.026	5.88
815.769	7.88
816.511	6.88
817.254	4.88
817.997	5.88
818.74	4.88
819.482	2.88
820.225	6.88
820.967	4.88
821.71	4.88
822.452	5.88
823.194	2.88
823.936	4.88
824.678	1.88
825.42	6.88
826.162	4.88
826.904	4.88
827.646	5.88
828.388	3.88
829.129	3.88
829.871	1.88
830.612	4.88
831.354	3.88
832.095	1.88
832.836	6.88
833.577	0.88
834.319	4.88
835.06	4.88
835.801	3.88
836.542	4.88
837.282	1.88
838.023	4.88
838.764	2.88
839.504	2.88
840.245	4.88
840.985	2.88
841.726	5.88
842.466	1.88
843.206	6.88
843.946	1.88
844.687	2.88
845.427	4.88
846.166	2.88
846.906	4.88
847.646	2.88
848.386	3.88
849.125	3.88
849.865	2.88
850.605	1.88
851.344	2.88
852.083	0.88
852.823	3.88
853.562	2.88
854.301	3.88
855.04	2.88
855.779	3.88
856.518	0.88
857.257	2.88
857.995	-1.12
858.734	0.88
859.473	4.88
860.211	1.88
860.95	2.88
861.688	1.88
862.426	1.88
863.165	1.88
863.903	-0.12
864.641	4.88
865.379	3.88
866.117	0.88
866.855	0.88
867.593	-0.12
868.33	2.88
869.068	-1.12
869.806	0.88
870.543	0.88
871.28	-0.12
872.018	1.88
872.755	1.88
873.492	1.88
874.229	1.88
874.967	1.88
875.703	2.88
876.44	1.88
877.177	2.88
877.914	2.88
878.651	-0.12
879.387	1.88
880.124	0.88
880.86	1.88
881.597	-0.12
882.333	0.88
883.069	1.88
883.806	0.88
884.542	2.88
885.278	1.88
886.014	0.88
886.749	0.88
887.485	-0.12
888.221	0.88
888.957	-0.12
889.692	0.88
890.428	0.88
891.163	-0.12
891.899	2.88
892.634	0.88
893.369	0.88
894.104	-1.12
894.839	-1.12
895.574	1.88
896.309	0.88
897.044	0.88
897.779	-1.12
898.514	2.88
899.248	1.88
899.983	-0.12
900.717	0.88
901.452	-2.12
902.186	0.88
902.92	-0.12
903.654	0.88
904.389	-0.12
905.123	-1.12
905.857	-1.12
906.59	-0.12
907.324	2.88
908.058	2.88
908.792	-0.12
909.525	0.88
910.259	0.88
910.992	1.88
911.726	0.88
912.459	-0.12
913.192	-1.12
913.925	2.88
914.658	0.88
915.391	0.88
916.124	2.88
916.857	1.88
917.59	-0.12
918.323	2.88
919.055	0.88
919.788	0.88
920.521	0.88
921.253	0.88
921.985	-0.12
922.718	2.88
923.45	3.88
924.182	0.88
924.914	-0.12
925.646	1.88
926.378	-0.12
927.11	-0.12
927.841	1.88
928.573	0.88
929.305	-0.12
930.036	-0.12
930.768	1.88
931.499	0.88
932.23	2.88
932.962	-0.12
933.693	-0.12
934.424	-0.12
935.155	-0.12
935.886	0.88
936.617	0.88
937.348	0.88
938.078	0.88
938.809	0.88
939.54	0.88
940.27	-1.12
941.001	-2.12
941.731	-0.12
942.461	1.88
943.191	0.88
943.922	-0.12
944.652	-0.12
945.382	-1.12
946.112	1.88
946.841	0.88
947.571	0.88
948.301	0.88
949.031	-1.12
949.76	-0.12
950.49	0.88
951.219	0.88
951.948	-1.12
952.678	-2.12
953.407	1.88
954.136	-0.12
954.865	1.88
955.594	2.88
956.323	0.88
957.052	3.88
957.78	1.88
958.509	-0.12
959.238	0.88
959.966	-2.12
960.695	0.88
961.423	-1.12
962.151	0.88
962.88	-1.12
963.608	0.88
964.336	-0.12
965.064	-1.12
965.792	1.88
966.52	-1.12
967.247	0.88
967.975	-2.12
968.703	-0.12
969.43	0.88
970.158	-0.12
970.885	-0.12
971.613	0.88
972.34	0.88
973.067	-1.12
973.794	-3.12
974.521	0.88
975.248	1.88
975.975	0.88
976.702	0.88
977.429	0.88
978.156	0.88
978.882	-0.12
979.609	0.88
980.335	-0.12
981.062	0.88
981.788	-0.12
982.514	0.88
983.24	-0.12
983.967	0.88
984.693	0.88
985.419	-1.12
986.144	-0.12
986.87	0.88
987.596	1.88
988.322	0.88
989.047	-1.12
989.773	0.88
990.498	-0.12
991.224	-0.12
991.949	-1.12
992.674	-1.12
993.399	-0.12
994.124	0.88
994.849	-0.12
995.574	1.88
996.299	0.88
997.024	0.88
997.749	0.88
998.473	-0.12
999.198	0.88
999.922	-0.12
1000.647	-1.12
1001.371	3.88
1002.095	-2.12
1002.82	0.88
1003.544	-1.12
1004.268	2.88
1004.992	2.88
1005.716	-1.12
1006.439	1.88
1007.163	2.88
1007.887	0.88
1008.611	-0.12
1009.334	1.88
1010.058	0.88
1010.781	-1.12
1011.504	2.88
1012.228	-0.12
1012.951	-0.12
1013.674	-0.12
1014.397	-1.12
1015.12	-0.12
