节点500_285_QEPB04081__588__15-05-20-178.txt的数据

Date: Wed Nov 12 15:05:20 CST 2025
User: PC
Spectrometer: QEPB0408
触发模式: 0
积分时间 (秒): 1.000000E-2
Scans to average: 1
启用暗噪声校正: true
启用非线性校正: false
滑动平均宽度: 0
X轴模式: Wavelengths
Number of Pixels in Spectrum: 1044
>>>>>Begin Spectral Data<<<<<
220.843	0.5
221.644	0.5
222.444	1.5
223.244	0.5
224.045	1.5
224.845	0.5
225.645	0.5
226.445	3.5
227.245	1.5
228.045	4.5
228.845	1.5
229.645	4.5
230.444	2.5
231.244	0.5
232.043	3.5
232.843	1.5
233.642	2.5
234.442	3.5
235.241	1.5
236.04	4.5
236.839	2.5
237.638	1.5
238.437	3.5
239.236	2.5
240.035	1.5
240.833	2.5
241.632	4.5
242.43	3.5
243.229	5.5
244.027	5.5
244.826	3.5
245.624	6.5
246.422	4.5
247.22	2.5
248.018	2.5
248.816	5.5
249.614	4.5
250.412	7.5
251.21	4.5
252.007	4.5
252.805	6.5
253.602	4.5
254.4	6.5
255.197	7.5
255.994	7.5
256.791	6.5
257.589	7.5
258.386	7.5
259.183	8.5
259.979	7.5
260.776	8.5
261.573	8.5
262.37	11.5
263.166	9.5
263.963	8.5
264.759	12.5
265.556	12.5
266.352	12.5
267.148	11.5
267.944	13.5
268.74	13.5
269.536	13.5
270.332	14.5
271.128	12.5
271.924	14.5
272.719	11.5
273.515	13.5
274.311	13.5
275.106	17.5
275.901	14.5
276.697	14.5
277.492	16.5
278.287	13.5
279.082	16.5
279.877	15.5
280.672	17.5
281.467	14.5
282.262	16.5
283.056	16.5
283.851	18.5
284.646	20.5
285.44	19.5
286.234	17.5
287.029	16.5
287.823	16.5
288.617	16.5
289.411	17.5
290.205	19.5
290.999	17.5
291.793	16.5
292.587	17.5
293.381	16.5
294.174	20.5
294.968	15.5
295.761	15.5
296.555	14.5
297.348	12.5
298.141	16.5
298.935	16.5
299.728	15.5
300.521	11.5
301.314	11.5
302.107	14.5
302.899	11.5
303.692	11.5
304.485	13.5
305.277	14.5
306.07	12.5
306.862	9.5
307.655	11.5
308.447	12.5
309.239	8.5
310.031	9.5
310.823	11.5
311.615	11.5
312.407	8.5
313.199	9.5
313.991	10.5
314.783	10.5
315.574	9.5
316.366	8.5
317.157	8.5
317.949	8.5
318.74	10.5
319.531	9.5
320.322	7.5
321.113	5.5
321.904	5.5
322.695	6.5
323.486	4.5
324.277	7.5
325.068	6.5
325.858	5.5
326.649	8.5
327.439	7.5
328.23	7.5
329.02	6.5
329.81	7.5
330.6	5.5
331.391	6.5
332.181	6.5
332.971	4.5
333.76	6.5
334.55	3.5
335.34	7.5
336.13	4.5
336.919	5.5
337.709	6.5
338.498	4.5
339.287	6.5
340.077	6.5
340.866	3.5
341.655	6.5
342.444	2.5
343.233	3.5
344.022	5.5
344.811	5.5
345.6	5.5
346.388	6.5
347.177	8.5
347.965	4.5
348.754	7.5
349.542	6.5
350.33	5.5
351.119	6.5
351.907	4.5
352.695	3.5
353.483	3.5
354.271	5.5
355.059	5.5
355.846	4.5
356.634	8.5
357.422	5.5
358.209	2.5
358.997	6.5
359.784	3.5
360.571	5.5
361.359	5.5
362.146	1.5
362.933	3.5
363.72	7.5
364.507	4.5
365.294	4.5
366.081	1.5
366.867	3.5
367.654	5.5
368.44	5.5
369.227	5.5
370.013	5.5
370.8	4.5
371.586	4.5
372.372	4.5
373.158	3.5
373.944	4.5
374.73	5.5
375.516	7.5
376.302	5.5
377.088	5.5
377.873	3.5
378.659	5.5
379.445	4.5
380.23	4.5
381.015	4.5
381.801	4.5
382.586	4.5
383.371	4.5
384.156	3.5
384.941	3.5
385.726	4.5
386.511	5.5
387.296	3.5
388.08	3.5
388.865	4.5
389.649	7.5
390.434	5.5
391.218	6.5
392.003	6.5
392.787	3.5
393.571	5.5
394.355	5.5
395.139	6.5
395.923	4.5
396.707	3.5
397.491	7.5
398.274	6.5
399.058	7.5
399.842	8.5
400.625	8.5
401.408	8.5
402.192	5.5
402.975	10.5
403.758	6.5
404.541	8.5
405.324	4.5
406.107	8.5
406.89	7.5
407.673	4.5
408.456	8.5
409.238	10.5
410.021	8.5
410.803	9.5
411.586	8.5
412.368	7.5
413.151	7.5
413.933	7.5
414.715	10.5
415.497	11.5
416.279	7.5
417.061	7.5
417.843	9.5
418.624	8.5
419.406	8.5
420.188	7.5
420.969	9.5
421.751	7.5
422.532	8.5
423.313	10.5
424.095	9.5
424.876	10.5
425.657	11.5
426.438	8.5
427.219	12.5
428	10.5
428.78	12.5
429.561	12.5
430.342	12.5
431.122	14.5
431.903	13.5
432.683	15.5
433.464	14.5
434.244	16.5
435.024	16.5
435.804	18.5
436.584	16.5
437.364	16.5
438.144	17.5
438.924	21.5
439.704	25.5
440.483	20.5
441.263	23.5
442.042	27.5
442.822	24.5
443.601	28.5
444.38	30.5
445.16	33.5
445.939	36.5
446.718	38.5
447.497	39.5
448.276	43.5
449.054	46.5
449.833	48.5
450.612	59.5
451.391	57.5
452.169	63.5
452.948	69.5
453.726	78.5
454.504	82.5
455.282	92.5
456.061	101.5
456.839	109.5
457.617	126.5
458.395	145.5
459.172	158.5
459.95	177.5
460.728	195.5
461.506	228.5
462.283	251.5
463.061	271.5
463.838	309.5
464.615	340.5
465.393	376.5
466.17	428.5
466.947	472.5
467.724	530.5
468.501	588.5
469.278	640.5
470.055	714.5
470.831	796.5
471.608	880.5
472.385	984.5
473.161	1077.5
473.938	1201.5
474.714	1313.5
475.49	1467.5
476.266	1599.5
477.043	1772.5
477.819	1937.5
478.595	2136.5
479.371	2351.5
480.146	2575.5
480.922	2843.5
481.698	3114.5
482.473	3410.5
483.249	3749.5
484.024	4097.5
484.8	4512.5
485.575	4905.5
486.35	5373.5
487.126	5838.5
487.901	6399.5
488.676	6997.5
489.451	7621.5
490.225	8301.5
491	9054.5
491.775	9865.5
492.55	10696.5
493.324	11580.5
494.099	12458.5
494.873	13335.5
495.647	14425.5
496.422	15507.5
497.196	16633.5
497.97	17715.5
498.744	18856.5
499.518	19878.5
500.292	21012.5
501.066	22032.5
501.839	23024.5
502.613	23878.5
503.387	24755.5
504.16	25359.5
504.934	25821.5
505.707	26111.5
506.48	26213.5
507.253	26263.5
508.027	26235.5
508.8	26009.5
509.573	25756.5
510.346	25273.5
511.118	24649.5
511.891	23972.5
512.664	23283.5
513.437	22437.5
514.209	21662.5
514.982	20811.5
515.754	19949.5
516.526	19076.5
517.298	18269.5
518.071	17475.5
518.843	16864.5
519.615	16194.5
520.387	15581.5
521.159	14977.5
521.93	14367.5
522.702	13829.5
523.474	13216.5
524.245	12692.5
525.017	12121.5
525.788	11668.5
526.56	11089.5
527.331	10580.5
528.102	10151.5
528.873	9713.5
529.644	9224.5
530.415	8876.5
531.186	8394.5
531.957	7969.5
532.728	7623.5
533.498	7237.5
534.269	6813.5
535.039	6421.5
535.81	6047.5
536.58	5720.5
537.351	5428.5
538.121	5124.5
538.891	4841.5
539.661	4581.5
540.431	4343.5
541.201	4106.5
541.971	3891.5
542.741	3660.5
543.51	3475.5
544.28	3309.5
545.05	3160.5
545.819	2994.5
546.588	2848.5
547.358	2703.5
548.127	2584.5
548.896	2449.5
549.665	2330.5
550.434	2203.5
551.203	2088.5
551.972	1995.5
552.741	1879.5
553.51	1767.5
554.278	1686.5
555.047	1596.5
555.815	1494.5
556.584	1398.5
557.352	1348.5
558.121	1259.5
558.889	1189.5
559.657	1114.5
560.425	1059.5
561.193	991.5
561.961	950.5
562.729	885.5
563.496	843.5
564.264	789.5
565.032	763.5
565.799	710.5
566.567	683.5
567.334	637.5
568.101	607.5
568.869	567.5
569.636	526.5
570.403	499.5
571.17	475.5
571.937	447.5
572.704	415.5
573.471	401.5
574.237	385.5
575.004	356.5
575.771	336.5
576.537	312.5
577.303	296.5
578.07	287.5
578.836	265.5
579.602	248.5
580.368	233.5
581.134	224.5
581.9	211.5
582.666	200.5
583.432	187.5
584.198	178.5
584.964	174.5
585.729	157.5
586.495	151.5
587.26	146.5
588.025	136.5
588.791	127.5
589.556	122.5
590.321	115.5
591.086	110.5
591.851	103.5
592.616	100.5
593.381	93.5
594.146	91.5
594.911	82.5
595.675	83.5
596.44	79.5
597.204	74.5
597.969	68.5
598.733	68.5
599.497	67.5
600.261	62.5
601.025	62.5
601.79	54.5
602.553	55.5
603.317	49.5
604.081	48.5
604.845	47.5
605.609	43.5
606.372	44.5
607.136	40.5
607.899	42.5
608.662	38.5
609.426	39.5
610.189	35.5
610.952	35.5
611.715	31.5
612.478	28.5
613.241	31.5
614.004	29.5
614.767	29.5
615.529	26.5
616.292	25.5
617.055	25.5
617.817	25.5
618.579	22.5
619.342	25.5
620.104	20.5
620.866	20.5
621.628	19.5
622.39	17.5
623.152	19.5
623.914	17.5
624.676	18.5
625.438	17.5
626.199	17.5
626.961	18.5
627.722	15.5
628.484	14.5
629.245	17.5
630.006	14.5
630.768	12.5
631.529	12.5
632.29	11.5
633.051	14.5
633.812	12.5
634.573	10.5
635.333	11.5
636.094	10.5
636.855	11.5
637.615	9.5
638.376	9.5
639.136	10.5
639.896	10.5
640.657	6.5
641.417	7.5
642.177	6.5
642.937	9.5
643.697	8.5
644.457	9.5
645.216	7.5
645.976	5.5
646.736	7.5
647.495	9.5
648.255	7.5
649.014	5.5
649.774	7.5
650.533	6.5
651.292	5.5
652.051	5.5
652.81	4.5
653.569	7.5
654.328	5.5
655.087	3.5
655.846	4.5
656.604	7.5
657.363	5.5
658.121	4.5
658.88	4.5
659.638	5.5
660.397	7.5
661.155	3.5
661.913	5.5
662.671	5.5
663.429	3.5
664.187	5.5
664.945	5.5
665.703	3.5
666.46	5.5
667.218	0.5
667.976	6.5
668.733	3.5
669.49	7.5
670.248	4.5
671.005	2.5
671.762	4.5
672.519	2.5
673.276	6.5
674.033	3.5
674.79	3.5
675.547	5.5
676.304	3.5
677.06	4.5
677.817	1.5
678.574	5.5
679.33	4.5
680.086	2.5
680.843	6.5
681.599	3.5
682.355	4.5
683.111	2.5
683.867	4.5
684.623	3.5
685.379	3.5
686.135	4.5
686.89	0.5
687.646	5.5
688.402	2.5
689.157	4.5
689.912	3.5
690.668	2.5
691.423	4.5
692.178	3.5
692.933	1.5
693.688	4.5
694.443	3.5
695.198	1.5
695.953	3.5
696.708	1.5
697.462	3.5
698.217	3.5
698.972	3.5
699.726	3.5
700.48	1.5
701.235	0.5
701.989	3.5
702.743	2.5
703.497	2.5
704.251	2.5
705.005	0.5
705.759	3.5
706.513	3.5
707.266	4.5
708.02	2.5
708.774	2.5
709.527	3.5
710.28	0.5
711.034	1.5
711.787	1.5
712.54	3.5
713.293	1.5
714.046	1.5
714.799	3.5
715.552	2.5
716.305	2.5
717.058	0.5
717.81	3.5
718.563	3.5
719.315	3.5
720.068	2.5
720.82	3.5
721.573	2.5
722.325	2.5
723.077	3.5
723.829	0.5
724.581	6.5
725.333	6.5
726.085	1.5
726.836	2.5
727.588	3.5
728.34	3.5
729.091	3.5
729.843	6.5
730.594	3.5
731.346	2.5
732.097	3.5
732.848	2.5
733.599	4.5
734.35	3.5
735.101	3.5
735.852	3.5
736.603	3.5
737.354	4.5
738.104	2.5
738.855	5.5
739.605	4.5
740.356	4.5
741.106	4.5
741.856	4.5
742.607	5.5
743.357	2.5
744.107	5.5
744.857	5.5
745.607	5.5
746.357	5.5
747.106	2.5
747.856	5.5
748.606	7.5
749.355	2.5
750.105	3.5
750.854	3.5
751.603	5.5
752.353	3.5
753.102	4.5
753.851	4.5
754.6	5.5
755.349	4.5
756.098	3.5
756.847	6.5
757.595	5.5
758.344	6.5
759.093	5.5
759.841	5.5
760.589	4.5
761.338	6.5
762.086	6.5
762.834	6.5
763.582	6.5
764.331	3.5
765.079	4.5
765.826	6.5
766.574	4.5
767.322	6.5
768.07	7.5
768.817	8.5
769.565	6.5
770.312	6.5
771.06	6.5
771.807	6.5
772.554	7.5
773.302	6.5
774.049	7.5
774.796	9.5
775.543	8.5
776.29	6.5
777.036	8.5
777.783	6.5
778.53	7.5
779.276	7.5
780.023	8.5
780.769	8.5
781.516	8.5
782.262	8.5
783.008	7.5
783.754	8.5
784.5	7.5
785.246	8.5
785.992	8.5
786.738	9.5
787.484	5.5
788.23	8.5
788.975	8.5
789.721	7.5
790.466	9.5
791.212	9.5
791.957	10.5
792.702	7.5
793.447	8.5
794.193	7.5
794.938	7.5
795.683	7.5
796.427	8.5
797.172	5.5
797.917	7.5
798.662	8.5
799.406	7.5
800.151	6.5
800.895	7.5
801.64	9.5
802.384	5.5
803.128	6.5
803.872	8.5
804.616	6.5
805.36	7.5
806.104	5.5
806.848	5.5
807.592	2.5
808.336	4.5
809.079	5.5
809.823	5.5
810.566	4.5
811.31	5.5
812.053	6.5
812.796	4.5
813.539	6.5
814.283	5.5
815.026	5.5
815.769	4.5
816.511	3.5
817.254	5.5
817.997	2.5
818.74	5.5
819.482	2.5
820.225	2.5
820.967	4.5
821.71	2.5
822.452	3.5
823.194	5.5
823.936	4.5
824.678	3.5
825.42	2.5
826.162	5.5
826.904	3.5
827.646	4.5
828.388	2.5
829.129	2.5
829.871	2.5
830.612	3.5
831.354	4.5
832.095	4.5
832.836	3.5
833.577	1.5
834.319	5.5
835.06	1.5
835.801	1.5
836.542	2.5
837.282	0.5
838.023	2.5
838.764	2.5
839.504	4.5
840.245	2.5
840.985	3.5
841.726	0.5
842.466	1.5
843.206	3.5
843.946	0.5
844.687	5.5
845.427	4.5
846.166	5.5
846.906	3.5
847.646	1.5
848.386	0.5
849.125	2.5
849.865	2.5
850.605	1.5
851.344	1.5
852.083	3.5
852.823	3.5
853.562	3.5
854.301	2.5
855.04	1.5
855.779	1.5
856.518	2.5
857.257	0.5
857.995	1.5
858.734	0.5
859.473	4.5
860.211	1.5
860.95	1.5
861.688	0.5
862.426	0.5
863.165	0.5
863.903	-0.5
864.641	1.5
865.379	0.5
866.117	2.5
866.855	1.5
867.593	3.5
868.33	0.5
869.068	0.5
869.806	0.5
870.543	1.5
871.28	2.5
872.018	0.5
872.755	4.5
873.492	1.5
874.229	-0.5
874.967	0.5
875.703	0.5
876.44	-0.5
877.177	2.5
877.914	0.5
878.651	0.5
879.387	0.5
880.124	-0.5
880.86	-0.5
881.597	1.5
882.333	2.5
883.069	1.5
883.806	2.5
884.542	-0.5
885.278	1.5
886.014	1.5
886.749	-0.5
887.485	1.5
888.221	1.5
888.957	-0.5
889.692	0.5
890.428	-0.5
891.163	1.5
891.899	-1.5
892.634	1.5
893.369	-1.5
894.104	0.5
894.839	-0.5
895.574	-0.5
896.309	1.5
897.044	2.5
897.779	1.5
898.514	1.5
899.248	1.5
899.983	-0.5
900.717	1.5
901.452	-0.5
902.186	-1.5
902.92	1.5
903.654	-2.5
904.389	0.5
905.123	0.5
905.857	0.5
906.59	1.5
907.324	1.5
908.058	-0.5
908.792	0.5
909.525	-0.5
910.259	0.5
910.992	0.5
911.726	-0.5
912.459	-1.5
913.192	0.5
913.925	1.5
914.658	0.5
915.391	0.5
916.124	0.5
916.857	1.5
917.59	-0.5
918.323	-1.5
919.055	1.5
919.788	0.5
920.521	0.5
921.253	-0.5
921.985	-0.5
922.718	0.5
923.45	0.5
924.182	-1.5
924.914	-0.5
925.646	0.5
926.378	-1.5
927.11	1.5
927.841	1.5
928.573	1.5
929.305	0.5
930.036	-0.5
930.768	-2.5
931.499	-2.5
932.23	-0.5
932.962	-1.5
933.693	-1.5
934.424	2.5
935.155	0.5
935.886	2.5
936.617	0.5
937.348	0.5
938.078	-0.5
938.809	-0.5
939.54	-1.5
940.27	-0.5
941.001	-0.5
941.731	1.5
942.461	-0.5
943.191	1.5
943.922	-0.5
944.652	-2.5
945.382	-2.5
946.112	1.5
946.841	0.5
947.571	0.5
948.301	0.5
949.031	0.5
949.76	1.5
950.49	1.5
951.219	0.5
951.948	0.5
952.678	-1.5
953.407	-0.5
954.136	-0.5
954.865	2.5
955.594	-0.5
956.323	2.5
957.052	1.5
957.78	1.5
958.509	-1.5
959.238	-1.5
959.966	-0.5
960.695	-2.5
961.423	0.5
962.151	-0.5
962.88	-1.5
963.608	1.5
964.336	-0.5
965.064	0.5
965.792	-1.5
966.52	-0.5
967.247	0.5
967.975	-0.5
968.703	0.5
969.43	-0.5
970.158	-0.5
970.885	-1.5
971.613	-0.5
972.34	0.5
973.067	0.5
973.794	-0.5
974.521	-0.5
975.248	-0.5
975.975	0.5
976.702	0.5
977.429	-0.5
978.156	0.5
978.882	-0.5
979.609	-2.5
980.335	0.5
981.062	0.5
981.788	0.5
982.514	0.5
983.24	-0.5
983.967	0.5
984.693	-0.5
985.419	0.5
986.144	1.5
986.87	-0.5
987.596	-0.5
988.322	-1.5
989.047	1.5
989.773	-0.5
990.498	0.5
991.224	0.5
991.949	-0.5
992.674	1.5
993.399	-0.5
994.124	2.5
994.849	-2.5
995.574	0.5
996.299	-0.5
997.024	-0.5
997.749	-1.5
998.473	0.5
999.198	-0.5
999.922	1.5
1000.647	-0.5
1001.371	2.5
1002.095	0.5
1002.82	-2.5
1003.544	-0.5
1004.268	-0.5
1004.992	1.5
1005.716	2.5
1006.439	0.5
1007.163	1.5
1007.887	0.5
1008.611	1.5
1009.334	1.5
1010.058	-2.5
1010.781	0.5
1011.504	1.5
1012.228	0.5
1012.951	0.5
1013.674	1.5
1014.397	-2.5
1015.12	0.5
