节点500_285_QEPB04081__562__15-04-54-215.txt的数据

Date: Wed Nov 12 15:04:54 CST 2025
User: PC
Spectrometer: QEPB0408
触发模式: 0
积分时间 (秒): 1.000000E-2
Scans to average: 1
启用暗噪声校正: true
启用非线性校正: false
滑动平均宽度: 0
X轴模式: Wavelengths
Number of Pixels in Spectrum: 1044
>>>>>Begin Spectral Data<<<<<
220.843	2.12
221.644	3.12
222.444	3.12
223.244	2.12
224.045	5.12
224.845	4.12
225.645	4.12
226.445	2.12
227.245	4.12
228.045	4.12
228.845	4.12
229.645	3.12
230.444	6.12
231.244	2.12
232.043	5.12
232.843	0.12
233.642	2.12
234.442	3.12
235.241	2.12
236.04	6.12
236.839	4.12
237.638	3.12
238.437	6.12
239.236	3.12
240.035	5.12
240.833	3.12
241.632	3.12
242.43	4.12
243.229	6.12
244.027	6.12
244.826	6.12
245.624	7.12
246.422	5.12
247.22	6.12
248.018	6.12
248.816	7.12
249.614	6.12
250.412	6.12
251.21	6.12
252.007	6.12
252.805	6.12
253.602	7.12
254.4	5.12
255.197	9.12
255.994	8.12
256.791	8.12
257.589	8.12
258.386	11.12
259.183	9.12
259.979	10.12
260.776	10.12
261.573	7.12
262.37	8.12
263.166	9.12
263.963	10.12
264.759	13.12
265.556	10.12
266.352	13.12
267.148	13.12
267.944	13.12
268.74	14.12
269.536	15.12
270.332	14.12
271.128	16.12
271.924	15.12
272.719	15.12
273.515	16.12
274.311	19.12
275.106	14.12
275.901	17.12
276.697	14.12
277.492	18.12
278.287	16.12
279.082	19.12
279.877	17.12
280.672	18.12
281.467	18.12
282.262	15.12
283.056	18.12
283.851	18.12
284.646	17.12
285.44	18.12
286.234	20.12
287.029	20.12
287.823	18.12
288.617	20.12
289.411	17.12
290.205	18.12
290.999	18.12
291.793	17.12
292.587	18.12
293.381	17.12
294.174	20.12
294.968	17.12
295.761	13.12
296.555	15.12
297.348	15.12
298.141	17.12
298.935	17.12
299.728	13.12
300.521	14.12
301.314	14.12
302.107	14.12
302.899	15.12
303.692	14.12
304.485	12.12
305.277	14.12
306.07	12.12
306.862	12.12
307.655	15.12
308.447	13.12
309.239	12.12
310.031	11.12
310.823	11.12
311.615	10.12
312.407	12.12
313.199	13.12
313.991	8.12
314.783	9.12
315.574	7.12
316.366	7.12
317.157	9.12
317.949	8.12
318.74	9.12
319.531	8.12
320.322	7.12
321.113	8.12
321.904	5.12
322.695	7.12
323.486	7.12
324.277	8.12
325.068	8.12
325.858	7.12
326.649	7.12
327.439	8.12
328.23	8.12
329.02	7.12
329.81	8.12
330.6	6.12
331.391	5.12
332.181	6.12
332.971	3.12
333.76	5.12
334.55	7.12
335.34	4.12
336.13	7.12
336.919	8.12
337.709	8.12
338.498	8.12
339.287	7.12
340.077	7.12
340.866	5.12
341.655	6.12
342.444	6.12
343.233	8.12
344.022	8.12
344.811	6.12
345.6	6.12
346.388	8.12
347.177	7.12
347.965	6.12
348.754	8.12
349.542	7.12
350.33	7.12
351.119	7.12
351.907	7.12
352.695	7.12
353.483	6.12
354.271	6.12
355.059	6.12
355.846	8.12
356.634	6.12
357.422	6.12
358.209	5.12
358.997	6.12
359.784	5.12
360.571	5.12
361.359	7.12
362.146	3.12
362.933	4.12
363.72	10.12
364.507	6.12
365.294	6.12
366.081	6.12
366.867	6.12
367.654	5.12
368.44	3.12
369.227	7.12
370.013	5.12
370.8	3.12
371.586	5.12
372.372	5.12
373.158	6.12
373.944	4.12
374.73	4.12
375.516	6.12
376.302	5.12
377.088	4.12
377.873	3.12
378.659	5.12
379.445	6.12
380.23	6.12
381.015	6.12
381.801	5.12
382.586	8.12
383.371	3.12
384.156	5.12
384.941	6.12
385.726	4.12
386.511	5.12
387.296	7.12
388.08	4.12
388.865	5.12
389.649	7.12
390.434	5.12
391.218	7.12
392.003	7.12
392.787	5.12
393.571	8.12
394.355	6.12
395.139	8.12
395.923	5.12
396.707	6.12
397.491	6.12
398.274	6.12
399.058	8.12
399.842	7.12
400.625	5.12
401.408	7.12
402.192	6.12
402.975	6.12
403.758	7.12
404.541	8.12
405.324	8.12
406.107	8.12
406.89	7.12
407.673	6.12
408.456	9.12
409.238	8.12
410.021	8.12
410.803	10.12
411.586	7.12
412.368	10.12
413.151	10.12
413.933	9.12
414.715	7.12
415.497	9.12
416.279	9.12
417.061	7.12
417.843	8.12
418.624	9.12
419.406	10.12
420.188	10.12
420.969	11.12
421.751	11.12
422.532	10.12
423.313	10.12
424.095	11.12
424.876	8.12
425.657	14.12
426.438	12.12
427.219	14.12
428	12.12
428.78	14.12
429.561	13.12
430.342	14.12
431.122	13.12
431.903	14.12
432.683	14.12
433.464	13.12
434.244	15.12
435.024	17.12
435.804	20.12
436.584	16.12
437.364	18.12
438.144	21.12
438.924	19.12
439.704	20.12
440.483	25.12
441.263	24.12
442.042	26.12
442.822	27.12
443.601	27.12
444.38	32.12
445.16	30.12
445.939	34.12
446.718	34.12
447.497	41.12
448.276	44.12
449.054	48.12
449.833	52.12
450.612	56.12
451.391	62.12
452.169	65.12
452.948	74.12
453.726	77.12
454.504	84.12
455.282	96.12
456.061	101.12
456.839	118.12
457.617	133.12
458.395	149.12
459.172	159.12
459.95	183.12
460.728	202.12
461.506	220.12
462.283	247.12
463.061	275.12
463.838	305.12
464.615	338.12
465.393	380.12
466.17	428.12
466.947	467.12
467.724	527.12
468.501	583.12
469.278	645.12
470.055	714.12
470.831	791.12
471.608	883.12
472.385	974.12
473.161	1074.12
473.938	1200.12
474.714	1327.12
475.49	1454.12
476.266	1606.12
477.043	1763.12
477.819	1949.12
478.595	2139.12
479.371	2340.12
480.146	2578.12
480.922	2839.12
481.698	3137.12
482.473	3414.12
483.249	3739.12
484.024	4110.12
484.8	4518.12
485.575	4929.12
486.35	5413.12
487.126	5909.12
487.901	6448.12
488.676	7044.12
489.451	7724.12
490.225	8436.12
491	9138.12
491.775	9937.12
492.55	10842.12
493.324	11687.12
494.099	12636.12
494.873	13599.12
495.647	14628.12
496.422	15693.12
497.196	16787.12
497.97	17949.12
498.744	19027.12
499.518	20128.12
500.292	21221.12
501.066	22318.12
501.839	23286.12
502.613	24163.12
503.387	24957.12
504.16	25641.12
504.934	26135.12
505.707	26291.12
506.48	26493.12
507.253	26554.12
508.027	26347.12
508.8	26190.12
509.573	25922.12
510.346	25371.12
511.118	24702.12
511.891	24116.12
512.664	23389.12
513.437	22561.12
514.209	21655.12
514.982	20856.12
515.754	19997.12
516.526	19059.12
517.298	18272.12
518.071	17494.12
518.843	16797.12
519.615	16172.12
520.387	15579.12
521.159	14930.12
521.93	14271.12
522.702	13791.12
523.474	13234.12
524.245	12645.12
525.017	12143.12
525.788	11631.12
526.56	11129.12
527.331	10597.12
528.102	10105.12
528.873	9673.12
529.644	9202.12
530.415	8772.12
531.186	8387.12
531.957	7962.12
532.728	7556.12
533.498	7179.12
534.269	6778.12
535.039	6415.12
535.81	6080.12
536.58	5720.12
537.351	5388.12
538.121	5113.12
538.891	4865.12
539.661	4570.12
540.431	4303.12
541.201	4074.12
541.971	3874.12
542.741	3660.12
543.51	3495.12
544.28	3331.12
545.05	3143.12
545.819	2999.12
546.588	2840.12
547.358	2694.12
548.127	2584.12
548.896	2443.12
549.665	2314.12
550.434	2190.12
551.203	2078.12
551.972	1970.12
552.741	1848.12
553.51	1763.12
554.278	1664.12
555.047	1582.12
555.815	1473.12
556.584	1412.12
557.352	1340.12
558.121	1239.12
558.889	1182.12
559.657	1131.12
560.425	1046.12
561.193	995.12
561.961	937.12
562.729	883.12
563.496	841.12
564.264	789.12
565.032	759.12
565.799	716.12
566.567	679.12
567.334	631.12
568.101	610.12
568.869	561.12
569.636	535.12
570.403	495.12
571.17	476.12
571.937	445.12
572.704	414.12
573.471	398.12
574.237	372.12
575.004	357.12
575.771	325.12
576.537	317.12
577.303	303.12
578.07	284.12
578.836	256.12
579.602	244.12
580.368	239.12
581.134	221.12
581.9	215.12
582.666	196.12
583.432	190.12
584.198	174.12
584.964	170.12
585.729	160.12
586.495	152.12
587.26	145.12
588.025	141.12
588.791	133.12
589.556	121.12
590.321	115.12
591.086	109.12
591.851	105.12
592.616	101.12
593.381	92.12
594.146	91.12
594.911	89.12
595.675	78.12
596.44	79.12
597.204	75.12
597.969	73.12
598.733	66.12
599.497	64.12
600.261	64.12
601.025	57.12
601.79	56.12
602.553	54.12
603.317	52.12
604.081	51.12
604.845	49.12
605.609	44.12
606.372	43.12
607.136	42.12
607.899	38.12
608.662	39.12
609.426	38.12
610.189	36.12
610.952	32.12
611.715	33.12
612.478	31.12
613.241	33.12
614.004	28.12
614.767	29.12
615.529	26.12
616.292	28.12
617.055	24.12
617.817	25.12
618.579	23.12
619.342	24.12
620.104	23.12
620.866	19.12
621.628	20.12
622.39	19.12
623.152	16.12
623.914	18.12
624.676	19.12
625.438	18.12
626.199	14.12
626.961	17.12
627.722	14.12
628.484	16.12
629.245	15.12
630.006	14.12
630.768	14.12
631.529	14.12
632.29	14.12
633.051	13.12
633.812	14.12
634.573	11.12
635.333	9.12
636.094	16.12
636.855	13.12
637.615	10.12
638.376	12.12
639.136	10.12
639.896	9.12
640.657	10.12
641.417	10.12
642.177	8.12
642.937	11.12
643.697	8.12
644.457	10.12
645.216	6.12
645.976	8.12
646.736	8.12
647.495	9.12
648.255	9.12
649.014	6.12
649.774	4.12
650.533	7.12
651.292	9.12
652.051	8.12
652.81	7.12
653.569	4.12
654.328	6.12
655.087	5.12
655.846	5.12
656.604	4.12
657.363	7.12
658.121	6.12
658.88	5.12
659.638	6.12
660.397	5.12
661.155	6.12
661.913	5.12
662.671	5.12
663.429	6.12
664.187	8.12
664.945	5.12
665.703	6.12
666.46	4.12
667.218	5.12
667.976	4.12
668.733	5.12
669.49	4.12
670.248	7.12
671.005	4.12
671.762	4.12
672.519	3.12
673.276	6.12
674.033	4.12
674.79	5.12
675.547	4.12
676.304	5.12
677.06	2.12
677.817	6.12
678.574	3.12
679.33	4.12
680.086	3.12
680.843	5.12
681.599	5.12
682.355	5.12
683.111	8.12
683.867	5.12
684.623	4.12
685.379	5.12
686.135	4.12
686.89	2.12
687.646	7.12
688.402	4.12
689.157	3.12
689.912	6.12
690.668	4.12
691.423	5.12
692.178	2.12
692.933	3.12
693.688	3.12
694.443	3.12
695.198	4.12
695.953	4.12
696.708	4.12
697.462	2.12
698.217	4.12
698.972	5.12
699.726	4.12
700.48	2.12
701.235	3.12
701.989	1.12
702.743	4.12
703.497	2.12
704.251	6.12
705.005	3.12
705.759	3.12
706.513	5.12
707.266	3.12
708.02	3.12
708.774	2.12
709.527	5.12
710.28	5.12
711.034	3.12
711.787	5.12
712.54	4.12
713.293	2.12
714.046	4.12
714.799	2.12
715.552	3.12
716.305	4.12
717.058	5.12
717.81	1.12
718.563	2.12
719.315	3.12
720.068	4.12
720.82	5.12
721.573	2.12
722.325	4.12
723.077	0.12
723.829	3.12
724.581	3.12
725.333	3.12
726.085	4.12
726.836	5.12
727.588	3.12
728.34	1.12
729.091	5.12
729.843	4.12
730.594	5.12
731.346	6.12
732.097	5.12
732.848	4.12
733.599	2.12
734.35	4.12
735.101	3.12
735.852	2.12
736.603	6.12
737.354	3.12
738.104	7.12
738.855	4.12
739.605	6.12
740.356	6.12
741.106	3.12
741.856	6.12
742.607	4.12
743.357	4.12
744.107	3.12
744.857	4.12
745.607	6.12
746.357	5.12
747.106	6.12
747.856	5.12
748.606	5.12
749.355	6.12
750.105	7.12
750.854	5.12
751.603	4.12
752.353	8.12
753.102	4.12
753.851	7.12
754.6	7.12
755.349	4.12
756.098	6.12
756.847	6.12
757.595	4.12
758.344	8.12
759.093	6.12
759.841	6.12
760.589	6.12
761.338	7.12
762.086	6.12
762.834	7.12
763.582	5.12
764.331	7.12
765.079	7.12
765.826	7.12
766.574	7.12
767.322	8.12
768.07	5.12
768.817	8.12
769.565	5.12
770.312	8.12
771.06	8.12
771.807	9.12
772.554	7.12
773.302	8.12
774.049	6.12
774.796	7.12
775.543	9.12
776.29	7.12
777.036	7.12
777.783	5.12
778.53	8.12
779.276	8.12
780.023	8.12
780.769	8.12
781.516	7.12
782.262	10.12
783.008	8.12
783.754	7.12
784.5	10.12
785.246	9.12
785.992	8.12
786.738	7.12
787.484	8.12
788.23	9.12
788.975	8.12
789.721	12.12
790.466	8.12
791.212	10.12
791.957	11.12
792.702	9.12
793.447	11.12
794.193	7.12
794.938	8.12
795.683	7.12
796.427	8.12
797.172	5.12
797.917	7.12
798.662	9.12
799.406	5.12
800.151	7.12
800.895	9.12
801.64	7.12
802.384	6.12
803.128	6.12
803.872	8.12
804.616	5.12
805.36	6.12
806.104	7.12
806.848	7.12
807.592	7.12
808.336	8.12
809.079	8.12
809.823	6.12
810.566	7.12
811.31	5.12
812.053	5.12
812.796	7.12
813.539	4.12
814.283	7.12
815.026	4.12
815.769	6.12
816.511	5.12
817.254	5.12
817.997	9.12
818.74	5.12
819.482	5.12
820.225	5.12
820.967	5.12
821.71	5.12
822.452	5.12
823.194	7.12
823.936	7.12
824.678	4.12
825.42	6.12
826.162	5.12
826.904	5.12
827.646	5.12
828.388	3.12
829.129	2.12
829.871	4.12
830.612	4.12
831.354	5.12
832.095	4.12
832.836	3.12
833.577	2.12
834.319	2.12
835.06	5.12
835.801	5.12
836.542	6.12
837.282	3.12
838.023	3.12
838.764	5.12
839.504	7.12
840.245	5.12
840.985	4.12
841.726	1.12
842.466	4.12
843.206	2.12
843.946	5.12
844.687	3.12
845.427	4.12
846.166	4.12
846.906	4.12
847.646	4.12
848.386	3.12
849.125	6.12
849.865	4.12
850.605	2.12
851.344	6.12
852.083	3.12
852.823	4.12
853.562	3.12
854.301	3.12
855.04	2.12
855.779	4.12
856.518	3.12
857.257	2.12
857.995	1.12
858.734	3.12
859.473	1.12
860.211	4.12
860.95	2.12
861.688	2.12
862.426	3.12
863.165	3.12
863.903	1.12
864.641	2.12
865.379	-0.88
866.117	3.12
866.855	3.12
867.593	1.12
868.33	3.12
869.068	0.12
869.806	1.12
870.543	3.12
871.28	-0.88
872.018	1.12
872.755	0.12
873.492	2.12
874.229	2.12
874.967	0.12
875.703	2.12
876.44	1.12
877.177	2.12
877.914	2.12
878.651	2.12
879.387	0.12
880.124	1.12
880.86	1.12
881.597	1.12
882.333	3.12
883.069	1.12
883.806	0.12
884.542	1.12
885.278	2.12
886.014	2.12
886.749	0.12
887.485	1.12
888.221	2.12
888.957	1.12
889.692	2.12
890.428	1.12
891.163	2.12
891.899	1.12
892.634	0.12
893.369	3.12
894.104	1.12
894.839	3.12
895.574	2.12
896.309	-0.88
897.044	1.12
897.779	0.12
898.514	0.12
899.248	0.12
899.983	2.12
900.717	1.12
901.452	-2.88
902.186	2.12
902.92	0.12
903.654	1.12
904.389	1.12
905.123	1.12
905.857	0.12
906.59	0.12
907.324	2.12
908.058	-0.88
908.792	2.12
909.525	0.12
910.259	0.12
910.992	2.12
911.726	1.12
912.459	1.12
913.192	1.12
913.925	-0.88
914.658	1.12
915.391	-0.88
916.124	2.12
916.857	-0.88
917.59	1.12
918.323	-0.88
919.055	2.12
919.788	-0.88
920.521	0.12
921.253	0.12
921.985	-0.88
922.718	2.12
923.45	-0.88
924.182	1.12
924.914	1.12
925.646	0.12
926.378	2.12
927.11	-0.88
927.841	0.12
928.573	1.12
929.305	2.12
930.036	2.12
930.768	-0.88
931.499	0.12
932.23	-0.88
932.962	-0.88
933.693	0.12
934.424	-0.88
935.155	2.12
935.886	1.12
936.617	1.12
937.348	0.12
938.078	1.12
938.809	0.12
939.54	3.12
940.27	1.12
941.001	0.12
941.731	2.12
942.461	1.12
943.191	1.12
943.922	0.12
944.652	1.12
945.382	-0.88
946.112	0.12
946.841	0.12
947.571	1.12
948.301	3.12
949.031	1.12
949.76	-0.88
950.49	0.12
951.219	1.12
951.948	1.12
952.678	-0.88
953.407	0.12
954.136	0.12
954.865	0.12
955.594	4.12
956.323	1.12
957.052	1.12
957.78	0.12
958.509	1.12
959.238	1.12
959.966	0.12
960.695	3.12
961.423	-1.88
962.151	-0.88
962.88	0.12
963.608	-0.88
964.336	2.12
965.064	-0.88
965.792	3.12
966.52	1.12
967.247	1.12
967.975	0.12
968.703	0.12
969.43	0.12
970.158	1.12
970.885	0.12
971.613	0.12
972.34	0.12
973.067	-0.88
973.794	-0.88
974.521	2.12
975.248	1.12
975.975	0.12
976.702	1.12
977.429	-1.88
978.156	-0.88
978.882	0.12
979.609	0.12
980.335	1.12
981.062	-0.88
981.788	1.12
982.514	0.12
983.24	1.12
983.967	1.12
984.693	0.12
985.419	1.12
986.144	1.12
986.87	2.12
987.596	0.12
988.322	4.12
989.047	-0.88
989.773	-0.88
990.498	0.12
991.224	1.12
991.949	0.12
992.674	0.12
993.399	0.12
994.124	1.12
994.849	-1.88
995.574	2.12
996.299	-1.88
997.024	0.12
997.749	-0.88
998.473	1.12
999.198	0.12
999.922	0.12
1000.647	2.12
1001.371	4.12
1002.095	-1.88
1002.82	-1.88
1003.544	0.12
1004.268	1.12
1004.992	0.12
1005.716	1.12
1006.439	2.12
1007.163	1.12
1007.887	-0.88
1008.611	0.12
1009.334	0.12
1010.058	0.12
1010.781	0.12
1011.504	-0.88
1012.228	0.12
1012.951	0.12
1013.674	-1.88
1014.397	1.12
1015.12	0.12
