节点500_285_QEPB04081__735__15-07-46-818.txt的数据

Date: Wed Nov 12 15:07:46 CST 2025
User: PC
Spectrometer: QEPB0408
触发模式: 0
积分时间 (秒): 1.000000E-2
Scans to average: 1
启用暗噪声校正: true
启用非线性校正: false
滑动平均宽度: 0
X轴模式: Wavelengths
Number of Pixels in Spectrum: 1044
>>>>>Begin Spectral Data<<<<<
220.843	2.38
221.644	1.38
222.444	1.38
223.244	1.38
224.045	3.38
224.845	2.38
225.645	1.38
226.445	1.38
227.245	1.38
228.045	3.38
228.845	3.38
229.645	5.38
230.444	2.38
231.244	3.38
232.043	5.38
232.843	4.38
233.642	5.38
234.442	3.38
235.241	2.38
236.04	3.38
236.839	4.38
237.638	4.38
238.437	4.38
239.236	4.38
240.035	3.38
240.833	7.38
241.632	5.38
242.43	3.38
243.229	5.38
244.027	3.38
244.826	6.38
245.624	5.38
246.422	5.38
247.22	4.38
248.018	5.38
248.816	5.38
249.614	5.38
250.412	6.38
251.21	7.38
252.007	8.38
252.805	6.38
253.602	7.38
254.4	6.38
255.197	7.38
255.994	7.38
256.791	7.38
257.589	8.38
258.386	10.38
259.183	7.38
259.979	8.38
260.776	7.38
261.573	10.38
262.37	9.38
263.166	10.38
263.963	11.38
264.759	12.38
265.556	10.38
266.352	12.38
267.148	11.38
267.944	11.38
268.74	13.38
269.536	13.38
270.332	14.38
271.128	14.38
271.924	12.38
272.719	13.38
273.515	14.38
274.311	15.38
275.106	17.38
275.901	14.38
276.697	16.38
277.492	15.38
278.287	14.38
279.082	17.38
279.877	17.38
280.672	18.38
281.467	18.38
282.262	18.38
283.056	16.38
283.851	16.38
284.646	19.38
285.44	18.38
286.234	17.38
287.029	18.38
287.823	15.38
288.617	17.38
289.411	18.38
290.205	17.38
290.999	18.38
291.793	18.38
292.587	17.38
293.381	16.38
294.174	17.38
294.968	18.38
295.761	18.38
296.555	14.38
297.348	13.38
298.141	16.38
298.935	18.38
299.728	16.38
300.521	13.38
301.314	17.38
302.107	13.38
302.899	13.38
303.692	13.38
304.485	11.38
305.277	13.38
306.07	14.38
306.862	12.38
307.655	14.38
308.447	11.38
309.239	14.38
310.031	12.38
310.823	8.38
311.615	9.38
312.407	10.38
313.199	9.38
313.991	7.38
314.783	11.38
315.574	9.38
316.366	11.38
317.157	7.38
317.949	9.38
318.74	8.38
319.531	6.38
320.322	7.38
321.113	8.38
321.904	9.38
322.695	8.38
323.486	5.38
324.277	10.38
325.068	8.38
325.858	7.38
326.649	5.38
327.439	9.38
328.23	7.38
329.02	7.38
329.81	6.38
330.6	6.38
331.391	9.38
332.181	6.38
332.971	9.38
333.76	7.38
334.55	8.38
335.34	9.38
336.13	8.38
336.919	6.38
337.709	5.38
338.498	8.38
339.287	6.38
340.077	8.38
340.866	7.38
341.655	6.38
342.444	6.38
343.233	4.38
344.022	7.38
344.811	6.38
345.6	7.38
346.388	8.38
347.177	4.38
347.965	5.38
348.754	7.38
349.542	3.38
350.33	7.38
351.119	5.38
351.907	7.38
352.695	3.38
353.483	6.38
354.271	4.38
355.059	10.38
355.846	5.38
356.634	5.38
357.422	5.38
358.209	5.38
358.997	5.38
359.784	6.38
360.571	6.38
361.359	6.38
362.146	5.38
362.933	5.38
363.72	4.38
364.507	5.38
365.294	5.38
366.081	5.38
366.867	3.38
367.654	5.38
368.44	6.38
369.227	3.38
370.013	6.38
370.8	5.38
371.586	6.38
372.372	6.38
373.158	3.38
373.944	6.38
374.73	3.38
375.516	2.38
376.302	6.38
377.088	7.38
377.873	7.38
378.659	6.38
379.445	7.38
380.23	5.38
381.015	6.38
381.801	5.38
382.586	5.38
383.371	5.38
384.156	7.38
384.941	6.38
385.726	4.38
386.511	3.38
387.296	7.38
388.08	5.38
388.865	7.38
389.649	7.38
390.434	4.38
391.218	6.38
392.003	6.38
392.787	6.38
393.571	3.38
394.355	6.38
395.139	6.38
395.923	8.38
396.707	6.38
397.491	5.38
398.274	7.38
399.058	7.38
399.842	6.38
400.625	7.38
401.408	5.38
402.192	10.38
402.975	8.38
403.758	7.38
404.541	6.38
405.324	7.38
406.107	5.38
406.89	7.38
407.673	9.38
408.456	10.38
409.238	8.38
410.021	6.38
410.803	8.38
411.586	7.38
412.368	9.38
413.151	9.38
413.933	9.38
414.715	12.38
415.497	7.38
416.279	10.38
417.061	8.38
417.843	13.38
418.624	9.38
419.406	9.38
420.188	8.38
420.969	9.38
421.751	9.38
422.532	11.38
423.313	10.38
424.095	12.38
424.876	13.38
425.657	12.38
426.438	11.38
427.219	12.38
428	14.38
428.78	11.38
429.561	12.38
430.342	15.38
431.122	13.38
431.903	13.38
432.683	12.38
433.464	17.38
434.244	17.38
435.024	17.38
435.804	18.38
436.584	17.38
437.364	20.38
438.144	17.38
438.924	20.38
439.704	21.38
440.483	21.38
441.263	25.38
442.042	25.38
442.822	29.38
443.601	28.38
444.38	32.38
445.16	35.38
445.939	34.38
446.718	37.38
447.497	41.38
448.276	45.38
449.054	47.38
449.833	53.38
450.612	53.38
451.391	61.38
452.169	70.38
452.948	75.38
453.726	86.38
454.504	92.38
455.282	98.38
456.061	109.38
456.839	122.38
457.617	137.38
458.395	148.38
459.172	164.38
459.95	188.38
460.728	207.38
461.506	230.38
462.283	262.38
463.061	279.38
463.838	317.38
464.615	362.38
465.393	394.38
466.17	440.38
466.947	485.38
467.724	534.38
468.501	596.38
469.278	661.38
470.055	741.38
470.831	814.38
471.608	910.38
472.385	994.38
473.161	1104.38
473.938	1210.38
474.714	1339.38
475.49	1467.38
476.266	1588.38
477.043	1760.38
477.819	1950.38
478.595	2133.38
479.371	2326.38
480.146	2550.38
480.922	2810.38
481.698	3054.38
482.473	3336.38
483.249	3645.38
484.024	4020.38
484.8	4366.38
485.575	4767.38
486.35	5208.38
487.126	5635.38
487.901	6154.38
488.676	6728.38
489.451	7293.38
490.225	7929.38
491	8606.38
491.775	9363.38
492.55	10124.38
493.324	10989.38
494.099	11765.38
494.873	12624.38
495.647	13611.38
496.422	14551.38
497.196	15640.38
497.97	16668.38
498.744	17687.38
499.518	18710.38
500.292	19820.38
501.066	20818.38
501.839	21734.38
502.613	22570.38
503.387	23422.38
504.16	24137.38
504.934	24607.38
505.707	24957.38
506.48	25185.38
507.253	25327.38
508.027	25301.38
508.8	25244.38
509.573	25054.38
510.346	24743.38
511.118	24204.38
511.891	23626.38
512.664	22961.38
513.437	22281.38
514.209	21563.38
514.982	20741.38
515.754	19892.38
516.526	19134.38
517.298	18355.38
518.071	17574.38
518.843	16905.38
519.615	16224.38
520.387	15645.38
521.159	15013.38
521.93	14422.38
522.702	13844.38
523.474	13269.38
524.245	12743.38
525.017	12186.38
525.788	11761.38
526.56	11173.38
527.331	10687.38
528.102	10277.38
528.873	9840.38
529.644	9375.38
530.415	8953.38
531.186	8506.38
531.957	8088.38
532.728	7697.38
533.498	7272.38
534.269	6909.38
535.039	6569.38
535.81	6215.38
536.58	5863.38
537.351	5551.38
538.121	5238.38
538.891	4969.38
539.661	4693.38
540.431	4441.38
541.201	4185.38
541.971	3974.38
542.741	3769.38
543.51	3579.38
544.28	3416.38
545.05	3236.38
545.819	3082.38
546.588	2928.38
547.358	2781.38
548.127	2643.38
548.896	2518.38
549.665	2392.38
550.434	2256.38
551.203	2131.38
551.972	2023.38
552.741	1921.38
553.51	1824.38
554.278	1730.38
555.047	1629.38
555.815	1525.38
556.584	1473.38
557.352	1387.38
558.121	1305.38
558.889	1219.38
559.657	1166.38
560.425	1105.38
561.193	1038.38
561.961	976.38
562.729	928.38
563.496	884.38
564.264	820.38
565.032	778.38
565.799	743.38
566.567	700.38
567.334	657.38
568.101	633.38
568.869	585.38
569.636	547.38
570.403	514.38
571.17	494.38
571.937	463.38
572.704	437.38
573.471	414.38
574.237	390.38
575.004	374.38
575.771	348.38
576.537	323.38
577.303	306.38
578.07	288.38
578.836	270.38
579.602	261.38
580.368	247.38
581.134	233.38
581.9	218.38
582.666	209.38
583.432	198.38
584.198	186.38
584.964	171.38
585.729	166.38
586.495	159.38
587.26	151.38
588.025	143.38
588.791	134.38
589.556	124.38
590.321	121.38
591.086	116.38
591.851	105.38
592.616	103.38
593.381	95.38
594.146	90.38
594.911	89.38
595.675	86.38
596.44	77.38
597.204	78.38
597.969	73.38
598.733	71.38
599.497	66.38
600.261	63.38
601.025	59.38
601.79	61.38
602.553	54.38
603.317	51.38
604.081	52.38
604.845	49.38
605.609	48.38
606.372	43.38
607.136	42.38
607.899	40.38
608.662	40.38
609.426	34.38
610.189	38.38
610.952	36.38
611.715	36.38
612.478	32.38
613.241	28.38
614.004	29.38
614.767	29.38
615.529	27.38
616.292	29.38
617.055	27.38
617.817	24.38
618.579	23.38
619.342	22.38
620.104	21.38
620.866	21.38
621.628	23.38
622.39	19.38
623.152	21.38
623.914	17.38
624.676	19.38
625.438	19.38
626.199	18.38
626.961	17.38
627.722	13.38
628.484	17.38
629.245	15.38
630.006	13.38
630.768	15.38
631.529	14.38
632.29	14.38
633.051	11.38
633.812	13.38
634.573	11.38
635.333	12.38
636.094	14.38
636.855	12.38
637.615	10.38
638.376	10.38
639.136	10.38
639.896	11.38
640.657	11.38
641.417	11.38
642.177	10.38
642.937	9.38
643.697	9.38
644.457	10.38
645.216	9.38
645.976	10.38
646.736	8.38
647.495	7.38
648.255	8.38
649.014	7.38
649.774	7.38
650.533	8.38
651.292	7.38
652.051	8.38
652.81	5.38
653.569	7.38
654.328	5.38
655.087	4.38
655.846	8.38
656.604	6.38
657.363	7.38
658.121	6.38
658.88	4.38
659.638	9.38
660.397	3.38
661.155	7.38
661.913	5.38
662.671	6.38
663.429	5.38
664.187	3.38
664.945	4.38
665.703	7.38
666.46	2.38
667.218	1.38
667.976	3.38
668.733	5.38
669.49	3.38
670.248	4.38
671.005	3.38
671.762	5.38
672.519	5.38
673.276	6.38
674.033	8.38
674.79	5.38
675.547	6.38
676.304	4.38
677.06	5.38
677.817	5.38
678.574	6.38
679.33	3.38
680.086	3.38
680.843	4.38
681.599	4.38
682.355	6.38
683.111	3.38
683.867	2.38
684.623	4.38
685.379	4.38
686.135	2.38
686.89	3.38
687.646	1.38
688.402	7.38
689.157	4.38
689.912	3.38
690.668	4.38
691.423	2.38
692.178	4.38
692.933	3.38
693.688	4.38
694.443	3.38
695.198	3.38
695.953	5.38
696.708	3.38
697.462	5.38
698.217	2.38
698.972	3.38
699.726	3.38
700.48	4.38
701.235	4.38
701.989	3.38
702.743	3.38
703.497	1.38
704.251	4.38
705.005	2.38
705.759	2.38
706.513	5.38
707.266	6.38
708.02	3.38
708.774	4.38
709.527	5.38
710.28	3.38
711.034	2.38
711.787	4.38
712.54	3.38
713.293	2.38
714.046	3.38
714.799	4.38
715.552	3.38
716.305	4.38
717.058	5.38
717.81	4.38
718.563	2.38
719.315	4.38
720.068	3.38
720.82	5.38
721.573	2.38
722.325	4.38
723.077	3.38
723.829	4.38
724.581	5.38
725.333	2.38
726.085	3.38
726.836	5.38
727.588	4.38
728.34	1.38
729.091	5.38
729.843	5.38
730.594	4.38
731.346	3.38
732.097	6.38
732.848	4.38
733.599	3.38
734.35	5.38
735.101	3.38
735.852	5.38
736.603	3.38
737.354	3.38
738.104	6.38
738.855	4.38
739.605	2.38
740.356	4.38
741.106	3.38
741.856	7.38
742.607	4.38
743.357	4.38
744.107	2.38
744.857	4.38
745.607	5.38
746.357	4.38
747.106	4.38
747.856	3.38
748.606	5.38
749.355	3.38
750.105	5.38
750.854	6.38
751.603	5.38
752.353	3.38
753.102	4.38
753.851	5.38
754.6	4.38
755.349	5.38
756.098	5.38
756.847	6.38
757.595	4.38
758.344	6.38
759.093	7.38
759.841	7.38
760.589	3.38
761.338	5.38
762.086	6.38
762.834	3.38
763.582	7.38
764.331	7.38
765.079	5.38
765.826	6.38
766.574	6.38
767.322	4.38
768.07	7.38
768.817	7.38
769.565	5.38
770.312	6.38
771.06	5.38
771.807	10.38
772.554	7.38
773.302	8.38
774.049	8.38
774.796	6.38
775.543	8.38
776.29	6.38
777.036	8.38
777.783	7.38
778.53	6.38
779.276	9.38
780.023	9.38
780.769	6.38
781.516	8.38
782.262	10.38
783.008	9.38
783.754	8.38
784.5	9.38
785.246	7.38
785.992	11.38
786.738	8.38
787.484	9.38
788.23	6.38
788.975	8.38
789.721	7.38
790.466	8.38
791.212	10.38
791.957	7.38
792.702	7.38
793.447	8.38
794.193	7.38
794.938	9.38
795.683	5.38
796.427	9.38
797.172	8.38
797.917	7.38
798.662	8.38
799.406	7.38
800.151	6.38
800.895	9.38
801.64	9.38
802.384	5.38
803.128	7.38
803.872	8.38
804.616	6.38
805.36	7.38
806.104	6.38
806.848	5.38
807.592	7.38
808.336	7.38
809.079	6.38
809.823	7.38
810.566	2.38
811.31	5.38
812.053	4.38
812.796	4.38
813.539	4.38
814.283	8.38
815.026	5.38
815.769	4.38
816.511	5.38
817.254	4.38
817.997	5.38
818.74	3.38
819.482	4.38
820.225	5.38
820.967	4.38
821.71	6.38
822.452	3.38
823.194	5.38
823.936	3.38
824.678	6.38
825.42	4.38
826.162	4.38
826.904	4.38
827.646	5.38
828.388	5.38
829.129	4.38
829.871	4.38
830.612	3.38
831.354	3.38
832.095	3.38
832.836	3.38
833.577	2.38
834.319	5.38
835.06	6.38
835.801	3.38
836.542	3.38
837.282	4.38
838.023	2.38
838.764	5.38
839.504	4.38
840.245	4.38
840.985	3.38
841.726	1.38
842.466	3.38
843.206	0.38
843.946	4.38
844.687	3.38
845.427	2.38
846.166	4.38
846.906	2.38
847.646	3.38
848.386	2.38
849.125	2.38
849.865	3.38
850.605	2.38
851.344	1.38
852.083	2.38
852.823	4.38
853.562	1.38
854.301	4.38
855.04	2.38
855.779	5.38
856.518	3.38
857.257	1.38
857.995	5.38
858.734	1.38
859.473	3.38
860.211	2.38
860.95	1.38
861.688	1.38
862.426	1.38
863.165	0.38
863.903	3.38
864.641	4.38
865.379	0.38
866.117	2.38
866.855	4.38
867.593	3.38
868.33	1.38
869.068	5.38
869.806	3.38
870.543	0.38
871.28	1.38
872.018	2.38
872.755	1.38
873.492	2.38
874.229	1.38
874.967	-0.62
875.703	0.38
876.44	1.38
877.177	2.38
877.914	2.38
878.651	1.38
879.387	0.38
880.124	1.38
880.86	3.38
881.597	0.38
882.333	2.38
883.069	2.38
883.806	5.38
884.542	2.38
885.278	2.38
886.014	-1.62
886.749	2.38
887.485	2.38
888.221	0.38
888.957	1.38
889.692	2.38
890.428	3.38
891.163	4.38
891.899	1.38
892.634	-0.62
893.369	2.38
894.104	0.38
894.839	1.38
895.574	2.38
896.309	0.38
897.044	0.38
897.779	2.38
898.514	1.38
899.248	-0.62
899.983	3.38
900.717	0.38
901.452	3.38
902.186	0.38
902.92	3.38
903.654	1.38
904.389	0.38
905.123	1.38
905.857	1.38
906.59	2.38
907.324	-1.62
908.058	0.38
908.792	1.38
909.525	1.38
910.259	-0.62
910.992	0.38
911.726	0.38
912.459	0.38
913.192	1.38
913.925	0.38
914.658	1.38
915.391	2.38
916.124	-1.62
916.857	0.38
917.59	1.38
918.323	0.38
919.055	2.38
919.788	-1.62
920.521	0.38
921.253	-1.62
921.985	1.38
922.718	-1.62
923.45	-0.62
924.182	1.38
924.914	-1.62
925.646	2.38
926.378	2.38
927.11	0.38
927.841	0.38
928.573	-0.62
929.305	0.38
930.036	-0.62
930.768	1.38
931.499	0.38
932.23	0.38
932.962	0.38
933.693	-1.62
934.424	2.38
935.155	2.38
935.886	0.38
936.617	0.38
937.348	-1.62
938.078	1.38
938.809	-1.62
939.54	2.38
940.27	-1.62
941.001	1.38
941.731	2.38
942.461	1.38
943.191	1.38
943.922	-0.62
944.652	0.38
945.382	1.38
946.112	1.38
946.841	1.38
947.571	0.38
948.301	1.38
949.031	0.38
949.76	2.38
950.49	-1.62
951.219	1.38
951.948	0.38
952.678	1.38
953.407	1.38
954.136	0.38
954.865	0.38
955.594	0.38
956.323	3.38
957.052	-0.62
957.78	1.38
958.509	2.38
959.238	2.38
959.966	-1.62
960.695	0.38
961.423	0.38
962.151	1.38
962.88	-1.62
963.608	0.38
964.336	0.38
965.064	1.38
965.792	-1.62
966.52	-0.62
967.247	0.38
967.975	0.38
968.703	1.38
969.43	-0.62
970.158	2.38
970.885	-1.62
971.613	2.38
972.34	1.38
973.067	-0.62
973.794	-1.62
974.521	1.38
975.248	-1.62
975.975	1.38
976.702	-3.62
977.429	2.38
978.156	-0.62
978.882	-0.62
979.609	2.38
980.335	1.38
981.062	2.38
981.788	0.38
982.514	1.38
983.24	-0.62
983.967	1.38
984.693	2.38
985.419	-0.62
986.144	0.38
986.87	-0.62
987.596	-0.62
988.322	1.38
989.047	1.38
989.773	0.38
990.498	0.38
991.224	1.38
991.949	0.38
992.674	0.38
993.399	0.38
994.124	1.38
994.849	1.38
995.574	0.38
996.299	2.38
997.024	-1.62
997.749	0.38
998.473	0.38
999.198	-0.62
999.922	0.38
1000.647	-0.62
1001.371	3.38
1002.095	-1.62
1002.82	2.38
1003.544	-0.62
1004.268	0.38
1004.992	1.38
1005.716	1.38
1006.439	0.38
1007.163	2.38
1007.887	2.38
1008.611	2.38
1009.334	0.38
1010.058	0.38
1010.781	1.38
1011.504	1.38
1012.228	2.38
1012.951	-1.62
1013.674	0.38
1014.397	-1.62
1015.12	-0.62
