节点500_285_QEPB04081__716__15-07-27-806.txt的数据

Date: Wed Nov 12 15:07:27 CST 2025
User: PC
Spectrometer: QEPB0408
触发模式: 0
积分时间 (秒): 1.000000E-2
Scans to average: 1
启用暗噪声校正: true
启用非线性校正: false
滑动平均宽度: 0
X轴模式: Wavelengths
Number of Pixels in Spectrum: 1044
>>>>>Begin Spectral Data<<<<<
220.843	2.25
221.644	1.25
222.444	0.25
223.244	3.25
224.045	2.25
224.845	4.25
225.645	4.25
226.445	2.25
227.245	4.25
228.045	4.25
228.845	2.25
229.645	3.25
230.444	2.25
231.244	2.25
232.043	3.25
232.843	3.25
233.642	4.25
234.442	2.25
235.241	3.25
236.04	2.25
236.839	3.25
237.638	3.25
238.437	4.25
239.236	4.25
240.035	3.25
240.833	4.25
241.632	3.25
242.43	3.25
243.229	5.25
244.027	5.25
244.826	6.25
245.624	4.25
246.422	4.25
247.22	4.25
248.018	5.25
248.816	3.25
249.614	7.25
250.412	4.25
251.21	4.25
252.007	7.25
252.805	4.25
253.602	6.25
254.4	8.25
255.197	4.25
255.994	7.25
256.791	7.25
257.589	9.25
258.386	8.25
259.183	7.25
259.979	10.25
260.776	10.25
261.573	10.25
262.37	10.25
263.166	11.25
263.963	9.25
264.759	10.25
265.556	12.25
266.352	10.25
267.148	11.25
267.944	11.25
268.74	12.25
269.536	12.25
270.332	14.25
271.128	13.25
271.924	12.25
272.719	13.25
273.515	14.25
274.311	14.25
275.106	16.25
275.901	13.25
276.697	14.25
277.492	18.25
278.287	17.25
279.082	16.25
279.877	16.25
280.672	18.25
281.467	18.25
282.262	19.25
283.056	17.25
283.851	15.25
284.646	16.25
285.44	16.25
286.234	21.25
287.029	16.25
287.823	16.25
288.617	15.25
289.411	16.25
290.205	17.25
290.999	16.25
291.793	18.25
292.587	18.25
293.381	18.25
294.174	14.25
294.968	17.25
295.761	16.25
296.555	16.25
297.348	16.25
298.141	11.25
298.935	15.25
299.728	13.25
300.521	15.25
301.314	13.25
302.107	12.25
302.899	16.25
303.692	14.25
304.485	13.25
305.277	12.25
306.07	13.25
306.862	11.25
307.655	14.25
308.447	14.25
309.239	11.25
310.031	11.25
310.823	12.25
311.615	12.25
312.407	10.25
313.199	9.25
313.991	9.25
314.783	9.25
315.574	8.25
316.366	9.25
317.157	9.25
317.949	6.25
318.74	8.25
319.531	10.25
320.322	7.25
321.113	9.25
321.904	8.25
322.695	7.25
323.486	5.25
324.277	5.25
325.068	12.25
325.858	7.25
326.649	7.25
327.439	7.25
328.23	7.25
329.02	5.25
329.81	5.25
330.6	8.25
331.391	6.25
332.181	6.25
332.971	7.25
333.76	6.25
334.55	5.25
335.34	7.25
336.13	8.25
336.919	9.25
337.709	5.25
338.498	5.25
339.287	8.25
340.077	8.25
340.866	5.25
341.655	7.25
342.444	6.25
343.233	8.25
344.022	7.25
344.811	5.25
345.6	6.25
346.388	5.25
347.177	8.25
347.965	5.25
348.754	5.25
349.542	9.25
350.33	6.25
351.119	4.25
351.907	8.25
352.695	6.25
353.483	5.25
354.271	2.25
355.059	6.25
355.846	5.25
356.634	5.25
357.422	6.25
358.209	4.25
358.997	6.25
359.784	6.25
360.571	6.25
361.359	5.25
362.146	7.25
362.933	7.25
363.72	8.25
364.507	5.25
365.294	7.25
366.081	5.25
366.867	2.25
367.654	4.25
368.44	6.25
369.227	5.25
370.013	6.25
370.8	3.25
371.586	6.25
372.372	6.25
373.158	5.25
373.944	3.25
374.73	4.25
375.516	4.25
376.302	5.25
377.088	3.25
377.873	6.25
378.659	4.25
379.445	4.25
380.23	5.25
381.015	6.25
381.801	4.25
382.586	5.25
383.371	5.25
384.156	5.25
384.941	8.25
385.726	5.25
386.511	5.25
387.296	6.25
388.08	8.25
388.865	5.25
389.649	7.25
390.434	6.25
391.218	6.25
392.003	7.25
392.787	5.25
393.571	6.25
394.355	6.25
395.139	6.25
395.923	6.25
396.707	8.25
397.491	7.25
398.274	6.25
399.058	5.25
399.842	8.25
400.625	7.25
401.408	10.25
402.192	4.25
402.975	7.25
403.758	8.25
404.541	6.25
405.324	8.25
406.107	4.25
406.89	10.25
407.673	6.25
408.456	8.25
409.238	8.25
410.021	7.25
410.803	10.25
411.586	8.25
412.368	8.25
413.151	8.25
413.933	5.25
414.715	9.25
415.497	9.25
416.279	8.25
417.061	7.25
417.843	11.25
418.624	11.25
419.406	8.25
420.188	11.25
420.969	10.25
421.751	12.25
422.532	10.25
423.313	11.25
424.095	12.25
424.876	11.25
425.657	13.25
426.438	10.25
427.219	14.25
428	14.25
428.78	12.25
429.561	14.25
430.342	13.25
431.122	15.25
431.903	14.25
432.683	15.25
433.464	18.25
434.244	16.25
435.024	18.25
435.804	18.25
436.584	17.25
437.364	19.25
438.144	21.25
438.924	21.25
439.704	22.25
440.483	21.25
441.263	23.25
442.042	26.25
442.822	30.25
443.601	26.25
444.38	31.25
445.16	34.25
445.939	37.25
446.718	37.25
447.497	44.25
448.276	43.25
449.054	43.25
449.833	51.25
450.612	57.25
451.391	62.25
452.169	67.25
452.948	77.25
453.726	78.25
454.504	88.25
455.282	98.25
456.061	109.25
456.839	122.25
457.617	136.25
458.395	152.25
459.172	164.25
459.95	184.25
460.728	204.25
461.506	229.25
462.283	256.25
463.061	293.25
463.838	316.25
464.615	353.25
465.393	394.25
466.17	438.25
466.947	485.25
467.724	544.25
468.501	599.25
469.278	661.25
470.055	729.25
470.831	813.25
471.608	903.25
472.385	1002.25
473.161	1095.25
473.938	1206.25
474.714	1338.25
475.49	1466.25
476.266	1617.25
477.043	1770.25
477.819	1945.25
478.595	2143.25
479.371	2338.25
480.146	2567.25
480.922	2809.25
481.698	3065.25
482.473	3341.25
483.249	3660.25
484.024	3997.25
484.8	4369.25
485.575	4770.25
486.35	5192.25
487.126	5686.25
487.901	6197.25
488.676	6720.25
489.451	7334.25
490.225	7968.25
491	8646.25
491.775	9411.25
492.55	10221.25
493.324	11032.25
494.099	11822.25
494.873	12699.25
495.647	13616.25
496.422	14662.25
497.196	15653.25
497.97	16722.25
498.744	17771.25
499.518	18769.25
500.292	19871.25
501.066	20782.25
501.839	21788.25
502.613	22693.25
503.387	23492.25
504.16	24285.25
504.934	24701.25
505.707	25039.25
506.48	25256.25
507.253	25452.25
508.027	25340.25
508.8	25331.25
509.573	25129.25
510.346	24772.25
511.118	24285.25
511.891	23640.25
512.664	23027.25
513.437	22288.25
514.209	21467.25
514.982	20753.25
515.754	19892.25
516.526	19117.25
517.298	18342.25
518.071	17555.25
518.843	16953.25
519.615	16240.25
520.387	15655.25
521.159	14997.25
521.93	14384.25
522.702	13816.25
523.474	13272.25
524.245	12688.25
525.017	12164.25
525.788	11728.25
526.56	11245.25
527.331	10666.25
528.102	10247.25
528.873	9841.25
529.644	9342.25
530.415	8926.25
531.186	8469.25
531.957	8067.25
532.728	7697.25
533.498	7315.25
534.269	6939.25
535.039	6530.25
535.81	6187.25
536.58	5873.25
537.351	5553.25
538.121	5210.25
538.891	4973.25
539.661	4706.25
540.431	4450.25
541.201	4173.25
541.971	3986.25
542.741	3748.25
543.51	3596.25
544.28	3418.25
545.05	3241.25
545.819	3082.25
546.588	2932.25
547.358	2763.25
548.127	2639.25
548.896	2517.25
549.665	2368.25
550.434	2262.25
551.203	2141.25
551.972	2027.25
552.741	1913.25
553.51	1820.25
554.278	1714.25
555.047	1638.25
555.815	1534.25
556.584	1455.25
557.352	1370.25
558.121	1293.25
558.889	1215.25
559.657	1167.25
560.425	1097.25
561.193	1028.25
561.961	989.25
562.729	927.25
563.496	873.25
564.264	823.25
565.032	783.25
565.799	729.25
566.567	696.25
567.334	664.25
568.101	622.25
568.869	583.25
569.636	540.25
570.403	523.25
571.17	490.25
571.937	455.25
572.704	432.25
573.471	405.25
574.237	388.25
575.004	367.25
575.771	350.25
576.537	327.25
577.303	304.25
578.07	296.25
578.836	273.25
579.602	254.25
580.368	238.25
581.134	229.25
581.9	218.25
582.666	212.25
583.432	197.25
584.198	185.25
584.964	179.25
585.729	168.25
586.495	157.25
587.26	150.25
588.025	140.25
588.791	133.25
589.556	128.25
590.321	122.25
591.086	115.25
591.851	107.25
592.616	106.25
593.381	97.25
594.146	92.25
594.911	89.25
595.675	86.25
596.44	83.25
597.204	79.25
597.969	75.25
598.733	70.25
599.497	71.25
600.261	65.25
601.025	60.25
601.79	57.25
602.553	55.25
603.317	57.25
604.081	50.25
604.845	45.25
605.609	46.25
606.372	43.25
607.136	41.25
607.899	42.25
608.662	40.25
609.426	35.25
610.189	40.25
610.952	35.25
611.715	29.25
612.478	35.25
613.241	29.25
614.004	31.25
614.767	31.25
615.529	26.25
616.292	27.25
617.055	26.25
617.817	25.25
618.579	24.25
619.342	24.25
620.104	19.25
620.866	20.25
621.628	22.25
622.39	20.25
623.152	20.25
623.914	20.25
624.676	18.25
625.438	17.25
626.199	15.25
626.961	17.25
627.722	16.25
628.484	18.25
629.245	12.25
630.006	16.25
630.768	15.25
631.529	13.25
632.29	14.25
633.051	13.25
633.812	12.25
634.573	14.25
635.333	10.25
636.094	13.25
636.855	9.25
637.615	12.25
638.376	10.25
639.136	10.25
639.896	12.25
640.657	10.25
641.417	12.25
642.177	8.25
642.937	8.25
643.697	10.25
644.457	9.25
645.216	10.25
645.976	9.25
646.736	6.25
647.495	7.25
648.255	7.25
649.014	8.25
649.774	8.25
650.533	7.25
651.292	7.25
652.051	6.25
652.81	6.25
653.569	7.25
654.328	5.25
655.087	3.25
655.846	4.25
656.604	7.25
657.363	7.25
658.121	3.25
658.88	7.25
659.638	6.25
660.397	5.25
661.155	5.25
661.913	5.25
662.671	8.25
663.429	5.25
664.187	5.25
664.945	5.25
665.703	7.25
666.46	5.25
667.218	5.25
667.976	6.25
668.733	6.25
669.49	5.25
670.248	6.25
671.005	5.25
671.762	5.25
672.519	5.25
673.276	5.25
674.033	4.25
674.79	3.25
675.547	5.25
676.304	5.25
677.06	5.25
677.817	2.25
678.574	2.25
679.33	4.25
680.086	3.25
680.843	4.25
681.599	3.25
682.355	4.25
683.111	4.25
683.867	4.25
684.623	6.25
685.379	3.25
686.135	6.25
686.89	5.25
687.646	6.25
688.402	5.25
689.157	4.25
689.912	3.25
690.668	5.25
691.423	4.25
692.178	5.25
692.933	3.25
693.688	5.25
694.443	5.25
695.198	4.25
695.953	3.25
696.708	4.25
697.462	3.25
698.217	4.25
698.972	3.25
699.726	4.25
700.48	3.25
701.235	4.25
701.989	6.25
702.743	4.25
703.497	2.25
704.251	3.25
705.005	3.25
705.759	2.25
706.513	6.25
707.266	4.25
708.02	4.25
708.774	5.25
709.527	2.25
710.28	2.25
711.034	2.25
711.787	2.25
712.54	4.25
713.293	4.25
714.046	5.25
714.799	3.25
715.552	4.25
716.305	4.25
717.058	4.25
717.81	3.25
718.563	4.25
719.315	4.25
720.068	5.25
720.82	1.25
721.573	2.25
722.325	7.25
723.077	5.25
723.829	5.25
724.581	4.25
725.333	1.25
726.085	3.25
726.836	7.25
727.588	5.25
728.34	4.25
729.091	3.25
729.843	3.25
730.594	5.25
731.346	2.25
732.097	5.25
732.848	3.25
733.599	3.25
734.35	4.25
735.101	1.25
735.852	5.25
736.603	5.25
737.354	4.25
738.104	3.25
738.855	5.25
739.605	4.25
740.356	4.25
741.106	4.25
741.856	4.25
742.607	4.25
743.357	5.25
744.107	5.25
744.857	2.25
745.607	3.25
746.357	6.25
747.106	5.25
747.856	6.25
748.606	3.25
749.355	3.25
750.105	3.25
750.854	5.25
751.603	5.25
752.353	5.25
753.102	5.25
753.851	5.25
754.6	4.25
755.349	6.25
756.098	5.25
756.847	5.25
757.595	3.25
758.344	8.25
759.093	7.25
759.841	4.25
760.589	2.25
761.338	5.25
762.086	7.25
762.834	4.25
763.582	4.25
764.331	5.25
765.079	4.25
765.826	6.25
766.574	8.25
767.322	8.25
768.07	7.25
768.817	5.25
769.565	6.25
770.312	6.25
771.06	6.25
771.807	9.25
772.554	7.25
773.302	7.25
774.049	6.25
774.796	6.25
775.543	8.25
776.29	9.25
777.036	6.25
777.783	6.25
778.53	4.25
779.276	8.25
780.023	9.25
780.769	9.25
781.516	10.25
782.262	9.25
783.008	7.25
783.754	7.25
784.5	10.25
785.246	7.25
785.992	8.25
786.738	8.25
787.484	9.25
788.23	8.25
788.975	9.25
789.721	6.25
790.466	7.25
791.212	8.25
791.957	5.25
792.702	8.25
793.447	10.25
794.193	6.25
794.938	8.25
795.683	7.25
796.427	7.25
797.172	8.25
797.917	9.25
798.662	5.25
799.406	9.25
800.151	7.25
800.895	5.25
801.64	9.25
802.384	6.25
803.128	6.25
803.872	6.25
804.616	8.25
805.36	9.25
806.104	7.25
806.848	6.25
807.592	5.25
808.336	5.25
809.079	5.25
809.823	5.25
810.566	6.25
811.31	5.25
812.053	6.25
812.796	4.25
813.539	5.25
814.283	4.25
815.026	6.25
815.769	4.25
816.511	3.25
817.254	4.25
817.997	2.25
818.74	6.25
819.482	4.25
820.225	5.25
820.967	6.25
821.71	4.25
822.452	4.25
823.194	5.25
823.936	7.25
824.678	4.25
825.42	3.25
826.162	5.25
826.904	3.25
827.646	4.25
828.388	5.25
829.129	4.25
829.871	5.25
830.612	4.25
831.354	3.25
832.095	1.25
832.836	5.25
833.577	4.25
834.319	4.25
835.06	1.25
835.801	5.25
836.542	6.25
837.282	3.25
838.023	5.25
838.764	4.25
839.504	5.25
840.245	5.25
840.985	4.25
841.726	4.25
842.466	3.25
843.206	6.25
843.946	3.25
844.687	3.25
845.427	4.25
846.166	2.25
846.906	4.25
847.646	4.25
848.386	3.25
849.125	2.25
849.865	6.25
850.605	3.25
851.344	2.25
852.083	3.25
852.823	3.25
853.562	7.25
854.301	5.25
855.04	3.25
855.779	3.25
856.518	2.25
857.257	4.25
857.995	4.25
858.734	3.25
859.473	2.25
860.211	3.25
860.95	3.25
861.688	2.25
862.426	2.25
863.165	-0.75
863.903	2.25
864.641	2.25
865.379	2.25
866.117	4.25
866.855	2.25
867.593	2.25
868.33	2.25
869.068	3.25
869.806	2.25
870.543	0.25
871.28	2.25
872.018	4.25
872.755	2.25
873.492	3.25
874.229	2.25
874.967	1.25
875.703	2.25
876.44	2.25
877.177	1.25
877.914	0.25
878.651	1.25
879.387	2.25
880.124	0.25
880.86	-0.75
881.597	0.25
882.333	2.25
883.069	1.25
883.806	3.25
884.542	-0.75
885.278	2.25
886.014	0.25
886.749	3.25
887.485	1.25
888.221	2.25
888.957	1.25
889.692	-0.75
890.428	1.25
891.163	2.25
891.899	0.25
892.634	-0.75
893.369	0.25
894.104	2.25
894.839	1.25
895.574	1.25
896.309	2.25
897.044	4.25
897.779	3.25
898.514	1.25
899.248	2.25
899.983	1.25
900.717	1.25
901.452	2.25
902.186	0.25
902.92	1.25
903.654	0.25
904.389	2.25
905.123	-1.75
905.857	0.25
906.59	1.25
907.324	-0.75
908.058	3.25
908.792	0.25
909.525	0.25
910.259	0.25
910.992	2.25
911.726	1.25
912.459	0.25
913.192	-1.75
913.925	1.25
914.658	0.25
915.391	3.25
916.124	2.25
916.857	-0.75
917.59	0.25
918.323	0.25
919.055	0.25
919.788	2.25
920.521	0.25
921.253	1.25
921.985	1.25
922.718	1.25
923.45	1.25
924.182	1.25
924.914	3.25
925.646	0.25
926.378	0.25
927.11	-1.75
927.841	-1.75
928.573	1.25
929.305	1.25
930.036	0.25
930.768	2.25
931.499	-0.75
932.23	0.25
932.962	3.25
933.693	1.25
934.424	-0.75
935.155	1.25
935.886	1.25
936.617	-1.75
937.348	1.25
938.078	-3.75
938.809	-0.75
939.54	-0.75
940.27	1.25
941.001	0.25
941.731	1.25
942.461	-0.75
943.191	2.25
943.922	1.25
944.652	-0.75
945.382	-0.75
946.112	1.25
946.841	-0.75
947.571	-0.75
948.301	-0.75
949.031	0.25
949.76	1.25
950.49	0.25
951.219	0.25
951.948	-1.75
952.678	-0.75
953.407	0.25
954.136	2.25
954.865	2.25
955.594	0.25
956.323	2.25
957.052	0.25
957.78	2.25
958.509	1.25
959.238	-0.75
959.966	2.25
960.695	0.25
961.423	1.25
962.151	1.25
962.88	-1.75
963.608	-0.75
964.336	1.25
965.064	1.25
965.792	2.25
966.52	-0.75
967.247	0.25
967.975	1.25
968.703	0.25
969.43	0.25
970.158	1.25
970.885	-0.75
971.613	0.25
972.34	-1.75
973.067	4.25
973.794	-0.75
974.521	0.25
975.248	1.25
975.975	-0.75
976.702	2.25
977.429	0.25
978.156	0.25
978.882	-1.75
979.609	0.25
980.335	2.25
981.062	1.25
981.788	-0.75
982.514	0.25
983.24	-0.75
983.967	2.25
984.693	0.25
985.419	-0.75
986.144	1.25
986.87	0.25
987.596	-1.75
988.322	0.25
989.047	-0.75
989.773	0.25
990.498	3.25
991.224	0.25
991.949	0.25
992.674	1.25
993.399	1.25
994.124	2.25
994.849	2.25
995.574	-0.75
996.299	0.25
997.024	-0.75
997.749	-0.75
998.473	1.25
999.198	-0.75
999.922	-0.75
1000.647	0.25
1001.371	4.25
1002.095	-1.75
1002.82	-1.75
1003.544	-1.75
1004.268	0.25
1004.992	1.25
1005.716	1.25
1006.439	1.25
1007.163	1.25
1007.887	1.25
1008.611	0.25
1009.334	-0.75
1010.058	2.25
1010.781	0.25
1011.504	0.25
1012.228	1.25
1012.951	-1.75
1013.674	-0.75
1014.397	2.25
1015.12	1.25
