节点500_285_QEPB04081__211__14-59-04-080.txt的数据

Date: Wed Nov 12 14:59:04 CST 2025
User: PC
Spectrometer: QEPB0408
触发模式: 0
积分时间 (秒): 1.000000E-2
Scans to average: 1
启用暗噪声校正: true
启用非线性校正: false
滑动平均宽度: 0
X轴模式: Wavelengths
Number of Pixels in Spectrum: 1044
>>>>>Begin Spectral Data<<<<<
220.843	3.5
221.644	0.5
222.444	3.5
223.244	-0.5
224.045	1.5
224.845	2.5
225.645	1.5
226.445	1.5
227.245	0.5
228.045	5.5
228.845	1.5
229.645	4.5
230.444	5.5
231.244	2.5
232.043	4.5
232.843	1.5
233.642	2.5
234.442	3.5
235.241	2.5
236.04	0.5
236.839	4.5
237.638	5.5
238.437	2.5
239.236	2.5
240.035	5.5
240.833	2.5
241.632	4.5
242.43	3.5
243.229	4.5
244.027	6.5
244.826	5.5
245.624	4.5
246.422	6.5
247.22	6.5
248.018	3.5
248.816	8.5
249.614	6.5
250.412	7.5
251.21	6.5
252.007	5.5
252.805	8.5
253.602	7.5
254.4	8.5
255.197	7.5
255.994	8.5
256.791	7.5
257.589	8.5
258.386	9.5
259.183	10.5
259.979	8.5
260.776	10.5
261.573	9.5
262.37	11.5
263.166	11.5
263.963	12.5
264.759	10.5
265.556	12.5
266.352	11.5
267.148	12.5
267.944	13.5
268.74	13.5
269.536	15.5
270.332	13.5
271.128	12.5
271.924	15.5
272.719	15.5
273.515	13.5
274.311	16.5
275.106	17.5
275.901	17.5
276.697	19.5
277.492	19.5
278.287	18.5
279.082	19.5
279.877	18.5
280.672	19.5
281.467	17.5
282.262	15.5
283.056	18.5
283.851	17.5
284.646	19.5
285.44	15.5
286.234	18.5
287.029	18.5
287.823	20.5
288.617	16.5
289.411	18.5
290.205	15.5
290.999	18.5
291.793	20.5
292.587	18.5
293.381	16.5
294.174	18.5
294.968	17.5
295.761	15.5
296.555	17.5
297.348	17.5
298.141	15.5
298.935	17.5
299.728	13.5
300.521	14.5
301.314	11.5
302.107	12.5
302.899	15.5
303.692	13.5
304.485	13.5
305.277	11.5
306.07	13.5
306.862	9.5
307.655	13.5
308.447	10.5
309.239	6.5
310.031	12.5
310.823	9.5
311.615	11.5
312.407	8.5
313.199	8.5
313.991	10.5
314.783	8.5
315.574	9.5
316.366	8.5
317.157	7.5
317.949	7.5
318.74	5.5
319.531	8.5
320.322	6.5
321.113	7.5
321.904	6.5
322.695	8.5
323.486	7.5
324.277	7.5
325.068	6.5
325.858	7.5
326.649	5.5
327.439	6.5
328.23	7.5
329.02	6.5
329.81	5.5
330.6	11.5
331.391	5.5
332.181	7.5
332.971	6.5
333.76	6.5
334.55	4.5
335.34	6.5
336.13	6.5
336.919	5.5
337.709	5.5
338.498	7.5
339.287	5.5
340.077	8.5
340.866	6.5
341.655	6.5
342.444	6.5
343.233	7.5
344.022	7.5
344.811	5.5
345.6	6.5
346.388	4.5
347.177	8.5
347.965	7.5
348.754	4.5
349.542	7.5
350.33	6.5
351.119	8.5
351.907	7.5
352.695	5.5
353.483	5.5
354.271	6.5
355.059	5.5
355.846	6.5
356.634	5.5
357.422	8.5
358.209	5.5
358.997	4.5
359.784	3.5
360.571	6.5
361.359	6.5
362.146	4.5
362.933	3.5
363.72	3.5
364.507	5.5
365.294	6.5
366.081	3.5
366.867	5.5
367.654	3.5
368.44	6.5
369.227	2.5
370.013	7.5
370.8	3.5
371.586	5.5
372.372	5.5
373.158	5.5
373.944	7.5
374.73	3.5
375.516	7.5
376.302	5.5
377.088	4.5
377.873	5.5
378.659	4.5
379.445	7.5
380.23	4.5
381.015	3.5
381.801	5.5
382.586	4.5
383.371	5.5
384.156	4.5
384.941	6.5
385.726	6.5
386.511	3.5
387.296	4.5
388.08	6.5
388.865	7.5
389.649	7.5
390.434	6.5
391.218	4.5
392.003	5.5
392.787	6.5
393.571	6.5
394.355	3.5
395.139	5.5
395.923	3.5
396.707	5.5
397.491	7.5
398.274	6.5
399.058	7.5
399.842	6.5
400.625	8.5
401.408	6.5
402.192	7.5
402.975	7.5
403.758	8.5
404.541	9.5
405.324	8.5
406.107	11.5
406.89	8.5
407.673	7.5
408.456	8.5
409.238	9.5
410.021	7.5
410.803	7.5
411.586	9.5
412.368	6.5
413.151	9.5
413.933	10.5
414.715	10.5
415.497	10.5
416.279	7.5
417.061	10.5
417.843	10.5
418.624	11.5
419.406	7.5
420.188	11.5
420.969	10.5
421.751	7.5
422.532	10.5
423.313	13.5
424.095	10.5
424.876	11.5
425.657	10.5
426.438	11.5
427.219	13.5
428	9.5
428.78	13.5
429.561	12.5
430.342	12.5
431.122	14.5
431.903	12.5
432.683	14.5
433.464	16.5
434.244	17.5
435.024	14.5
435.804	20.5
436.584	20.5
437.364	19.5
438.144	16.5
438.924	21.5
439.704	20.5
440.483	21.5
441.263	21.5
442.042	23.5
442.822	25.5
443.601	28.5
444.38	28.5
445.16	32.5
445.939	35.5
446.718	36.5
447.497	37.5
448.276	39.5
449.054	41.5
449.833	47.5
450.612	54.5
451.391	55.5
452.169	60.5
452.948	64.5
453.726	74.5
454.504	80.5
455.282	86.5
456.061	96.5
456.839	101.5
457.617	121.5
458.395	126.5
459.172	142.5
459.95	164.5
460.728	183.5
461.506	201.5
462.283	222.5
463.061	249.5
463.838	276.5
464.615	317.5
465.393	353.5
466.17	393.5
466.947	430.5
467.724	489.5
468.501	540.5
469.278	599.5
470.055	673.5
470.831	756.5
471.608	833.5
472.385	931.5
473.161	1041.5
473.938	1138.5
474.714	1276.5
475.49	1400.5
476.266	1569.5
477.043	1738.5
477.819	1911.5
478.595	2127.5
479.371	2355.5
480.146	2577.5
480.922	2872.5
481.698	3168.5
482.473	3490.5
483.249	3856.5
484.024	4248.5
484.8	4672.5
485.575	5164.5
486.35	5672.5
487.126	6256.5
487.901	6850.5
488.676	7541.5
489.451	8279.5
490.225	9094.5
491	9919.5
491.775	10833.5
492.55	11803.5
493.324	12912.5
494.099	13876.5
494.873	14947.5
495.647	16111.5
496.422	17321.5
497.196	18552.5
497.97	19772.5
498.744	21067.5
499.518	22207.5
500.292	23333.5
501.066	24511.5
501.839	25429.5
502.613	26235.5
503.387	27101.5
504.16	27668.5
504.934	27909.5
505.707	28022.5
506.48	28112.5
507.253	27870.5
508.027	27551.5
508.8	27151.5
509.573	26646.5
510.346	25965.5
511.118	25085.5
511.891	24199.5
512.664	23387.5
513.437	22422.5
514.209	21393.5
514.982	20555.5
515.754	19670.5
516.526	18719.5
517.298	17945.5
518.071	17113.5
518.843	16398.5
519.615	15825.5
520.387	15149.5
521.159	14628.5
521.93	14037.5
522.702	13449.5
523.474	12877.5
524.245	12331.5
525.017	11845.5
525.788	11371.5
526.56	10860.5
527.331	10314.5
528.102	9819.5
528.873	9373.5
529.644	8907.5
530.415	8464.5
531.186	8032.5
531.957	7618.5
532.728	7227.5
533.498	6819.5
534.269	6440.5
535.039	6124.5
535.81	5751.5
536.58	5448.5
537.351	5101.5
538.121	4832.5
538.891	4585.5
539.661	4334.5
540.431	4089.5
541.201	3853.5
541.971	3648.5
542.741	3443.5
543.51	3279.5
544.28	3130.5
545.05	2991.5
545.819	2839.5
546.588	2701.5
547.358	2552.5
548.127	2422.5
548.896	2307.5
549.665	2170.5
550.434	2076.5
551.203	1965.5
551.972	1858.5
552.741	1732.5
553.51	1672.5
554.278	1561.5
555.047	1477.5
555.815	1375.5
556.584	1302.5
557.352	1244.5
558.121	1168.5
558.889	1101.5
559.657	1035.5
560.425	979.5
561.193	920.5
561.961	878.5
562.729	812.5
563.496	778.5
564.264	740.5
565.032	704.5
565.799	667.5
566.567	633.5
567.334	591.5
568.101	555.5
568.869	527.5
569.636	498.5
570.403	465.5
571.17	431.5
571.937	407.5
572.704	386.5
573.471	367.5
574.237	348.5
575.004	324.5
575.771	309.5
576.537	293.5
577.303	274.5
578.07	254.5
578.836	240.5
579.602	228.5
580.368	221.5
581.134	201.5
581.9	196.5
582.666	180.5
583.432	172.5
584.198	165.5
584.964	156.5
585.729	144.5
586.495	142.5
587.26	139.5
588.025	126.5
588.791	118.5
589.556	112.5
590.321	107.5
591.086	105.5
591.851	96.5
592.616	93.5
593.381	89.5
594.146	81.5
594.911	81.5
595.675	77.5
596.44	76.5
597.204	70.5
597.969	66.5
598.733	61.5
599.497	61.5
600.261	58.5
601.025	51.5
601.79	56.5
602.553	48.5
603.317	51.5
604.081	45.5
604.845	41.5
605.609	40.5
606.372	39.5
607.136	41.5
607.899	36.5
608.662	33.5
609.426	33.5
610.189	33.5
610.952	33.5
611.715	27.5
612.478	30.5
613.241	29.5
614.004	29.5
614.767	26.5
615.529	24.5
616.292	24.5
617.055	25.5
617.817	23.5
618.579	22.5
619.342	21.5
620.104	23.5
620.866	19.5
621.628	19.5
622.39	20.5
623.152	18.5
623.914	18.5
624.676	12.5
625.438	16.5
626.199	16.5
626.961	13.5
627.722	15.5
628.484	13.5
629.245	15.5
630.006	12.5
630.768	11.5
631.529	13.5
632.29	12.5
633.051	11.5
633.812	13.5
634.573	11.5
635.333	9.5
636.094	9.5
636.855	10.5
637.615	9.5
638.376	9.5
639.136	10.5
639.896	10.5
640.657	9.5
641.417	7.5
642.177	9.5
642.937	7.5
643.697	8.5
644.457	8.5
645.216	7.5
645.976	8.5
646.736	7.5
647.495	9.5
648.255	6.5
649.014	7.5
649.774	9.5
650.533	7.5
651.292	7.5
652.051	5.5
652.81	9.5
653.569	3.5
654.328	7.5
655.087	6.5
655.846	6.5
656.604	7.5
657.363	5.5
658.121	8.5
658.88	5.5
659.638	7.5
660.397	8.5
661.155	5.5
661.913	7.5
662.671	4.5
663.429	5.5
664.187	4.5
664.945	3.5
665.703	4.5
666.46	5.5
667.218	6.5
667.976	4.5
668.733	2.5
669.49	5.5
670.248	4.5
671.005	4.5
671.762	2.5
672.519	6.5
673.276	5.5
674.033	4.5
674.79	4.5
675.547	5.5
676.304	3.5
677.06	5.5
677.817	4.5
678.574	5.5
679.33	5.5
680.086	3.5
680.843	2.5
681.599	2.5
682.355	2.5
683.111	4.5
683.867	2.5
684.623	2.5
685.379	5.5
686.135	4.5
686.89	6.5
687.646	3.5
688.402	3.5
689.157	4.5
689.912	4.5
690.668	7.5
691.423	3.5
692.178	2.5
692.933	6.5
693.688	3.5
694.443	2.5
695.198	4.5
695.953	4.5
696.708	3.5
697.462	3.5
698.217	2.5
698.972	3.5
699.726	3.5
700.48	4.5
701.235	2.5
701.989	3.5
702.743	3.5
703.497	2.5
704.251	4.5
705.005	3.5
705.759	2.5
706.513	3.5
707.266	3.5
708.02	4.5
708.774	6.5
709.527	5.5
710.28	5.5
711.034	6.5
711.787	5.5
712.54	2.5
713.293	4.5
714.046	4.5
714.799	3.5
715.552	4.5
716.305	3.5
717.058	4.5
717.81	4.5
718.563	4.5
719.315	2.5
720.068	3.5
720.82	3.5
721.573	4.5
722.325	5.5
723.077	3.5
723.829	5.5
724.581	1.5
725.333	2.5
726.085	3.5
726.836	6.5
727.588	5.5
728.34	4.5
729.091	2.5
729.843	1.5
730.594	6.5
731.346	5.5
732.097	1.5
732.848	4.5
733.599	4.5
734.35	3.5
735.101	2.5
735.852	6.5
736.603	2.5
737.354	6.5
738.104	5.5
738.855	3.5
739.605	3.5
740.356	4.5
741.106	2.5
741.856	3.5
742.607	5.5
743.357	3.5
744.107	3.5
744.857	6.5
745.607	4.5
746.357	4.5
747.106	4.5
747.856	3.5
748.606	5.5
749.355	4.5
750.105	5.5
750.854	5.5
751.603	4.5
752.353	6.5
753.102	6.5
753.851	7.5
754.6	5.5
755.349	3.5
756.098	3.5
756.847	4.5
757.595	5.5
758.344	4.5
759.093	8.5
759.841	5.5
760.589	6.5
761.338	6.5
762.086	7.5
762.834	8.5
763.582	5.5
764.331	8.5
765.079	6.5
765.826	5.5
766.574	7.5
767.322	8.5
768.07	8.5
768.817	8.5
769.565	6.5
770.312	5.5
771.06	6.5
771.807	9.5
772.554	7.5
773.302	9.5
774.049	10.5
774.796	6.5
775.543	8.5
776.29	7.5
777.036	7.5
777.783	9.5
778.53	7.5
779.276	9.5
780.023	10.5
780.769	7.5
781.516	9.5
782.262	12.5
783.008	10.5
783.754	8.5
784.5	10.5
785.246	7.5
785.992	7.5
786.738	10.5
787.484	6.5
788.23	9.5
788.975	6.5
789.721	11.5
790.466	10.5
791.212	11.5
791.957	10.5
792.702	8.5
793.447	9.5
794.193	6.5
794.938	8.5
795.683	8.5
796.427	7.5
797.172	7.5
797.917	10.5
798.662	8.5
799.406	5.5
800.151	9.5
800.895	9.5
801.64	7.5
802.384	8.5
803.128	7.5
803.872	6.5
804.616	6.5
805.36	6.5
806.104	5.5
806.848	6.5
807.592	7.5
808.336	6.5
809.079	5.5
809.823	5.5
810.566	6.5
811.31	5.5
812.053	5.5
812.796	5.5
813.539	5.5
814.283	7.5
815.026	5.5
815.769	5.5
816.511	6.5
817.254	4.5
817.997	2.5
818.74	4.5
819.482	4.5
820.225	4.5
820.967	5.5
821.71	4.5
822.452	6.5
823.194	4.5
823.936	1.5
824.678	4.5
825.42	4.5
826.162	4.5
826.904	5.5
827.646	2.5
828.388	5.5
829.129	6.5
829.871	2.5
830.612	1.5
831.354	3.5
832.095	0.5
832.836	4.5
833.577	4.5
834.319	3.5
835.06	4.5
835.801	3.5
836.542	2.5
837.282	1.5
838.023	6.5
838.764	1.5
839.504	2.5
840.245	4.5
840.985	3.5
841.726	2.5
842.466	1.5
843.206	2.5
843.946	1.5
844.687	2.5
845.427	0.5
846.166	2.5
846.906	3.5
847.646	5.5
848.386	4.5
849.125	0.5
849.865	3.5
850.605	2.5
851.344	3.5
852.083	2.5
852.823	2.5
853.562	0.5
854.301	2.5
855.04	3.5
855.779	-0.5
856.518	2.5
857.257	4.5
857.995	1.5
858.734	3.5
859.473	1.5
860.211	1.5
860.95	1.5
861.688	3.5
862.426	4.5
863.165	0.5
863.903	1.5
864.641	1.5
865.379	1.5
866.117	1.5
866.855	2.5
867.593	1.5
868.33	0.5
869.068	0.5
869.806	0.5
870.543	1.5
871.28	0.5
872.018	1.5
872.755	1.5
873.492	1.5
874.229	1.5
874.967	0.5
875.703	1.5
876.44	3.5
877.177	3.5
877.914	0.5
878.651	0.5
879.387	1.5
880.124	0.5
880.86	1.5
881.597	0.5
882.333	-0.5
883.069	0.5
883.806	0.5
884.542	-0.5
885.278	2.5
886.014	1.5
886.749	2.5
887.485	1.5
888.221	2.5
888.957	-0.5
889.692	0.5
890.428	1.5
891.163	-0.5
891.899	1.5
892.634	0.5
893.369	0.5
894.104	1.5
894.839	1.5
895.574	1.5
896.309	-0.5
897.044	-0.5
897.779	0.5
898.514	1.5
899.248	0.5
899.983	-1.5
900.717	1.5
901.452	1.5
902.186	0.5
902.92	-0.5
903.654	-0.5
904.389	-0.5
905.123	-0.5
905.857	-0.5
906.59	-0.5
907.324	1.5
908.058	1.5
908.792	0.5
909.525	-0.5
910.259	1.5
910.992	1.5
911.726	1.5
912.459	-0.5
913.192	1.5
913.925	0.5
914.658	2.5
915.391	-1.5
916.124	2.5
916.857	-0.5
917.59	0.5
918.323	1.5
919.055	-0.5
919.788	1.5
920.521	-0.5
921.253	1.5
921.985	0.5
922.718	0.5
923.45	2.5
924.182	-1.5
924.914	2.5
925.646	0.5
926.378	-0.5
927.11	-1.5
927.841	-0.5
928.573	0.5
929.305	-0.5
930.036	0.5
930.768	2.5
931.499	-0.5
932.23	0.5
932.962	-0.5
933.693	1.5
934.424	0.5
935.155	1.5
935.886	2.5
936.617	1.5
937.348	-1.5
938.078	0.5
938.809	-0.5
939.54	0.5
940.27	0.5
941.001	-0.5
941.731	0.5
942.461	-0.5
943.191	0.5
943.922	0.5
944.652	1.5
945.382	-2.5
946.112	0.5
946.841	2.5
947.571	1.5
948.301	-0.5
949.031	0.5
949.76	-0.5
950.49	0.5
951.219	-0.5
951.948	0.5
952.678	0.5
953.407	-0.5
954.136	0.5
954.865	0.5
955.594	0.5
956.323	-0.5
957.052	0.5
957.78	-0.5
958.509	0.5
959.238	-0.5
959.966	-0.5
960.695	-1.5
961.423	1.5
962.151	0.5
962.88	0.5
963.608	1.5
964.336	0.5
965.064	0.5
965.792	-0.5
966.52	-0.5
967.247	0.5
967.975	-0.5
968.703	1.5
969.43	-0.5
970.158	0.5
970.885	0.5
971.613	0.5
972.34	-1.5
973.067	-0.5
973.794	-3.5
974.521	-0.5
975.248	-1.5
975.975	0.5
976.702	0.5
977.429	2.5
978.156	1.5
978.882	1.5
979.609	-0.5
980.335	0.5
981.062	1.5
981.788	0.5
982.514	1.5
983.24	0.5
983.967	0.5
984.693	0.5
985.419	0.5
986.144	0.5
986.87	0.5
987.596	1.5
988.322	0.5
989.047	-0.5
989.773	2.5
990.498	-1.5
991.224	0.5
991.949	0.5
992.674	-0.5
993.399	0.5
994.124	0.5
994.849	2.5
995.574	2.5
996.299	-0.5
997.024	-0.5
997.749	-1.5
998.473	1.5
999.198	-2.5
999.922	1.5
1000.647	1.5
1001.371	1.5
1002.095	0.5
1002.82	-1.5
1003.544	-0.5
1004.268	2.5
1004.992	-0.5
1005.716	0.5
1006.439	3.5
1007.163	1.5
1007.887	0.5
1008.611	0.5
1009.334	1.5
1010.058	-1.5
1010.781	0.5
1011.504	-2.5
1012.228	1.5
1012.951	-1.5
1013.674	-2.5
1014.397	3.5
1015.12	0.5
