节点500_285_QEPB04081__512__15-04-04-346.txt的数据

Date: Wed Nov 12 15:04:04 CST 2025
User: PC
Spectrometer: QEPB0408
触发模式: 0
积分时间 (秒): 1.000000E-2
Scans to average: 1
启用暗噪声校正: true
启用非线性校正: false
滑动平均宽度: 0
X轴模式: Wavelengths
Number of Pixels in Spectrum: 1044
>>>>>Begin Spectral Data<<<<<
220.843	1.5
221.644	1.5
222.444	3.5
223.244	1.5
224.045	2.5
224.845	2.5
225.645	2.5
226.445	3.5
227.245	2.5
228.045	1.5
228.845	2.5
229.645	3.5
230.444	4.5
231.244	1.5
232.043	4.5
232.843	4.5
233.642	4.5
234.442	4.5
235.241	1.5
236.04	5.5
236.839	5.5
237.638	2.5
238.437	4.5
239.236	2.5
240.035	2.5
240.833	6.5
241.632	6.5
242.43	7.5
243.229	5.5
244.027	6.5
244.826	5.5
245.624	6.5
246.422	5.5
247.22	7.5
248.018	5.5
248.816	4.5
249.614	6.5
250.412	7.5
251.21	7.5
252.007	4.5
252.805	6.5
253.602	7.5
254.4	7.5
255.197	10.5
255.994	6.5
256.791	9.5
257.589	9.5
258.386	9.5
259.183	10.5
259.979	9.5
260.776	10.5
261.573	9.5
262.37	12.5
263.166	11.5
263.963	12.5
264.759	11.5
265.556	11.5
266.352	14.5
267.148	13.5
267.944	13.5
268.74	13.5
269.536	13.5
270.332	12.5
271.128	17.5
271.924	16.5
272.719	14.5
273.515	14.5
274.311	15.5
275.106	14.5
275.901	20.5
276.697	15.5
277.492	16.5
278.287	16.5
279.082	14.5
279.877	19.5
280.672	17.5
281.467	18.5
282.262	17.5
283.056	19.5
283.851	21.5
284.646	17.5
285.44	21.5
286.234	18.5
287.029	19.5
287.823	18.5
288.617	18.5
289.411	17.5
290.205	19.5
290.999	17.5
291.793	18.5
292.587	16.5
293.381	19.5
294.174	14.5
294.968	17.5
295.761	12.5
296.555	15.5
297.348	15.5
298.141	13.5
298.935	17.5
299.728	14.5
300.521	14.5
301.314	14.5
302.107	13.5
302.899	12.5
303.692	14.5
304.485	15.5
305.277	10.5
306.07	14.5
306.862	11.5
307.655	12.5
308.447	15.5
309.239	11.5
310.031	13.5
310.823	11.5
311.615	8.5
312.407	10.5
313.199	12.5
313.991	8.5
314.783	10.5
315.574	10.5
316.366	9.5
317.157	11.5
317.949	9.5
318.74	9.5
319.531	6.5
320.322	7.5
321.113	6.5
321.904	6.5
322.695	5.5
323.486	7.5
324.277	6.5
325.068	8.5
325.858	7.5
326.649	7.5
327.439	8.5
328.23	5.5
329.02	9.5
329.81	8.5
330.6	8.5
331.391	7.5
332.181	7.5
332.971	6.5
333.76	6.5
334.55	9.5
335.34	6.5
336.13	6.5
336.919	8.5
337.709	6.5
338.498	7.5
339.287	7.5
340.077	9.5
340.866	6.5
341.655	6.5
342.444	6.5
343.233	9.5
344.022	4.5
344.811	3.5
345.6	7.5
346.388	7.5
347.177	8.5
347.965	9.5
348.754	6.5
349.542	8.5
350.33	4.5
351.119	5.5
351.907	4.5
352.695	5.5
353.483	6.5
354.271	6.5
355.059	7.5
355.846	5.5
356.634	5.5
357.422	7.5
358.209	3.5
358.997	7.5
359.784	5.5
360.571	4.5
361.359	3.5
362.146	6.5
362.933	7.5
363.72	5.5
364.507	5.5
365.294	4.5
366.081	6.5
366.867	8.5
367.654	5.5
368.44	3.5
369.227	4.5
370.013	6.5
370.8	8.5
371.586	5.5
372.372	5.5
373.158	4.5
373.944	5.5
374.73	6.5
375.516	7.5
376.302	4.5
377.088	4.5
377.873	2.5
378.659	6.5
379.445	7.5
380.23	6.5
381.015	6.5
381.801	5.5
382.586	5.5
383.371	5.5
384.156	5.5
384.941	7.5
385.726	6.5
386.511	6.5
387.296	5.5
388.08	6.5
388.865	7.5
389.649	8.5
390.434	6.5
391.218	5.5
392.003	5.5
392.787	6.5
393.571	4.5
394.355	10.5
395.139	7.5
395.923	6.5
396.707	6.5
397.491	6.5
398.274	6.5
399.058	5.5
399.842	6.5
400.625	6.5
401.408	7.5
402.192	6.5
402.975	7.5
403.758	8.5
404.541	6.5
405.324	7.5
406.107	7.5
406.89	9.5
407.673	6.5
408.456	7.5
409.238	9.5
410.021	9.5
410.803	10.5
411.586	9.5
412.368	8.5
413.151	9.5
413.933	12.5
414.715	10.5
415.497	8.5
416.279	8.5
417.061	9.5
417.843	9.5
418.624	9.5
419.406	9.5
420.188	11.5
420.969	9.5
421.751	11.5
422.532	11.5
423.313	9.5
424.095	13.5
424.876	12.5
425.657	11.5
426.438	13.5
427.219	11.5
428	14.5
428.78	13.5
429.561	12.5
430.342	10.5
431.122	16.5
431.903	14.5
432.683	17.5
433.464	17.5
434.244	17.5
435.024	16.5
435.804	18.5
436.584	19.5
437.364	20.5
438.144	18.5
438.924	22.5
439.704	23.5
440.483	24.5
441.263	24.5
442.042	27.5
442.822	28.5
443.601	25.5
444.38	29.5
445.16	31.5
445.939	33.5
446.718	36.5
447.497	41.5
448.276	41.5
449.054	48.5
449.833	52.5
450.612	53.5
451.391	64.5
452.169	65.5
452.948	68.5
453.726	80.5
454.504	84.5
455.282	95.5
456.061	102.5
456.839	115.5
457.617	123.5
458.395	142.5
459.172	155.5
459.95	174.5
460.728	194.5
461.506	214.5
462.283	242.5
463.061	269.5
463.838	305.5
464.615	332.5
465.393	379.5
466.17	410.5
466.947	467.5
467.724	526.5
468.501	573.5
469.278	636.5
470.055	700.5
470.831	789.5
471.608	869.5
472.385	961.5
473.161	1060.5
473.938	1190.5
474.714	1305.5
475.49	1441.5
476.266	1595.5
477.043	1763.5
477.819	1931.5
478.595	2130.5
479.371	2350.5
480.146	2587.5
480.922	2855.5
481.698	3129.5
482.473	3420.5
483.249	3756.5
484.024	4115.5
484.8	4529.5
485.575	4960.5
486.35	5426.5
487.126	5944.5
487.901	6507.5
488.676	7126.5
489.451	7768.5
490.225	8488.5
491	9220.5
491.775	10069.5
492.55	10932.5
493.324	11801.5
494.099	12772.5
494.873	13712.5
495.647	14846.5
496.422	15895.5
497.196	17019.5
497.97	18090.5
498.744	19308.5
499.518	20389.5
500.292	21494.5
501.066	22502.5
501.839	23529.5
502.613	24458.5
503.387	25253.5
504.16	25924.5
504.934	26292.5
505.707	26570.5
506.48	26642.5
507.253	26687.5
508.027	26543.5
508.8	26174.5
509.573	25983.5
510.346	25457.5
511.118	24745.5
511.891	24098.5
512.664	23389.5
513.437	22577.5
514.209	21554.5
514.982	20743.5
515.754	19876.5
516.526	19034.5
517.298	18212.5
518.071	17413.5
518.843	16731.5
519.615	16086.5
520.387	15505.5
521.159	14879.5
521.93	14232.5
522.702	13700.5
523.474	13185.5
524.245	12522.5
525.017	12000.5
525.788	11582.5
526.56	11128.5
527.331	10556.5
528.102	10101.5
528.873	9662.5
529.644	9132.5
530.415	8763.5
531.186	8283.5
531.957	7862.5
532.728	7491.5
533.498	7139.5
534.269	6719.5
535.039	6357.5
535.81	5976.5
536.58	5668.5
537.351	5336.5
538.121	5068.5
538.891	4789.5
539.661	4521.5
540.431	4254.5
541.201	4028.5
541.971	3825.5
542.741	3617.5
543.51	3443.5
544.28	3277.5
545.05	3123.5
545.819	2952.5
546.588	2806.5
547.358	2700.5
548.127	2542.5
548.896	2443.5
549.665	2303.5
550.434	2175.5
551.203	2055.5
551.972	1953.5
552.741	1850.5
553.51	1749.5
554.278	1656.5
555.047	1560.5
555.815	1458.5
556.584	1386.5
557.352	1313.5
558.121	1242.5
558.889	1164.5
559.657	1106.5
560.425	1047.5
561.193	984.5
561.961	928.5
562.729	882.5
563.496	828.5
564.264	785.5
565.032	743.5
565.799	702.5
566.567	672.5
567.334	621.5
568.101	586.5
568.869	547.5
569.636	533.5
570.403	491.5
571.17	469.5
571.937	446.5
572.704	416.5
573.471	394.5
574.237	372.5
575.004	353.5
575.771	333.5
576.537	304.5
577.303	292.5
578.07	280.5
578.836	258.5
579.602	250.5
580.368	230.5
581.134	222.5
581.9	204.5
582.666	194.5
583.432	185.5
584.198	178.5
584.964	168.5
585.729	159.5
586.495	151.5
587.26	141.5
588.025	133.5
588.791	126.5
589.556	119.5
590.321	113.5
591.086	110.5
591.851	105.5
592.616	97.5
593.381	92.5
594.146	85.5
594.911	85.5
595.675	78.5
596.44	77.5
597.204	73.5
597.969	65.5
598.733	69.5
599.497	62.5
600.261	61.5
601.025	62.5
601.79	57.5
602.553	55.5
603.317	48.5
604.081	49.5
604.845	45.5
605.609	45.5
606.372	41.5
607.136	42.5
607.899	42.5
608.662	39.5
609.426	38.5
610.189	33.5
610.952	33.5
611.715	33.5
612.478	30.5
613.241	30.5
614.004	26.5
614.767	32.5
615.529	28.5
616.292	25.5
617.055	26.5
617.817	25.5
618.579	25.5
619.342	22.5
620.104	22.5
620.866	22.5
621.628	20.5
622.39	19.5
623.152	19.5
623.914	20.5
624.676	17.5
625.438	17.5
626.199	18.5
626.961	17.5
627.722	17.5
628.484	17.5
629.245	14.5
630.006	14.5
630.768	14.5
631.529	14.5
632.29	13.5
633.051	14.5
633.812	12.5
634.573	12.5
635.333	10.5
636.094	12.5
636.855	12.5
637.615	10.5
638.376	12.5
639.136	10.5
639.896	9.5
640.657	9.5
641.417	10.5
642.177	9.5
642.937	8.5
643.697	12.5
644.457	8.5
645.216	10.5
645.976	9.5
646.736	7.5
647.495	9.5
648.255	7.5
649.014	6.5
649.774	6.5
650.533	8.5
651.292	7.5
652.051	7.5
652.81	5.5
653.569	6.5
654.328	6.5
655.087	7.5
655.846	7.5
656.604	7.5
657.363	6.5
658.121	8.5
658.88	5.5
659.638	6.5
660.397	6.5
661.155	4.5
661.913	7.5
662.671	6.5
663.429	6.5
664.187	5.5
664.945	2.5
665.703	4.5
666.46	6.5
667.218	4.5
667.976	4.5
668.733	4.5
669.49	3.5
670.248	2.5
671.005	3.5
671.762	5.5
672.519	8.5
673.276	3.5
674.033	3.5
674.79	6.5
675.547	3.5
676.304	5.5
677.06	1.5
677.817	3.5
678.574	4.5
679.33	4.5
680.086	3.5
680.843	4.5
681.599	6.5
682.355	4.5
683.111	5.5
683.867	3.5
684.623	5.5
685.379	6.5
686.135	5.5
686.89	7.5
687.646	2.5
688.402	3.5
689.157	3.5
689.912	3.5
690.668	3.5
691.423	1.5
692.178	4.5
692.933	4.5
693.688	4.5
694.443	4.5
695.198	4.5
695.953	4.5
696.708	4.5
697.462	5.5
698.217	3.5
698.972	2.5
699.726	3.5
700.48	3.5
701.235	4.5
701.989	4.5
702.743	5.5
703.497	2.5
704.251	4.5
705.005	5.5
705.759	3.5
706.513	4.5
707.266	2.5
708.02	2.5
708.774	2.5
709.527	3.5
710.28	6.5
711.034	4.5
711.787	3.5
712.54	3.5
713.293	5.5
714.046	4.5
714.799	4.5
715.552	7.5
716.305	3.5
717.058	4.5
717.81	3.5
718.563	4.5
719.315	3.5
720.068	4.5
720.82	4.5
721.573	2.5
722.325	3.5
723.077	4.5
723.829	3.5
724.581	3.5
725.333	1.5
726.085	7.5
726.836	4.5
727.588	3.5
728.34	5.5
729.091	6.5
729.843	4.5
730.594	3.5
731.346	4.5
732.097	6.5
732.848	4.5
733.599	7.5
734.35	2.5
735.101	2.5
735.852	5.5
736.603	5.5
737.354	7.5
738.104	4.5
738.855	6.5
739.605	4.5
740.356	4.5
741.106	6.5
741.856	7.5
742.607	6.5
743.357	6.5
744.107	5.5
744.857	2.5
745.607	6.5
746.357	6.5
747.106	4.5
747.856	6.5
748.606	4.5
749.355	2.5
750.105	4.5
750.854	2.5
751.603	3.5
752.353	3.5
753.102	6.5
753.851	7.5
754.6	7.5
755.349	5.5
756.098	3.5
756.847	7.5
757.595	6.5
758.344	5.5
759.093	10.5
759.841	7.5
760.589	5.5
761.338	6.5
762.086	7.5
762.834	7.5
763.582	7.5
764.331	7.5
765.079	6.5
765.826	7.5
766.574	6.5
767.322	8.5
768.07	9.5
768.817	7.5
769.565	8.5
770.312	8.5
771.06	7.5
771.807	7.5
772.554	7.5
773.302	7.5
774.049	7.5
774.796	9.5
775.543	6.5
776.29	7.5
777.036	7.5
777.783	6.5
778.53	7.5
779.276	8.5
780.023	7.5
780.769	8.5
781.516	9.5
782.262	8.5
783.008	9.5
783.754	9.5
784.5	10.5
785.246	11.5
785.992	7.5
786.738	9.5
787.484	8.5
788.23	8.5
788.975	9.5
789.721	10.5
790.466	8.5
791.212	6.5
791.957	9.5
792.702	6.5
793.447	10.5
794.193	8.5
794.938	5.5
795.683	8.5
796.427	7.5
797.172	7.5
797.917	6.5
798.662	8.5
799.406	8.5
800.151	8.5
800.895	5.5
801.64	7.5
802.384	8.5
803.128	6.5
803.872	5.5
804.616	8.5
805.36	7.5
806.104	7.5
806.848	7.5
807.592	6.5
808.336	7.5
809.079	5.5
809.823	6.5
810.566	5.5
811.31	8.5
812.053	6.5
812.796	4.5
813.539	8.5
814.283	5.5
815.026	5.5
815.769	4.5
816.511	7.5
817.254	6.5
817.997	3.5
818.74	2.5
819.482	2.5
820.225	4.5
820.967	4.5
821.71	6.5
822.452	4.5
823.194	2.5
823.936	4.5
824.678	4.5
825.42	4.5
826.162	6.5
826.904	2.5
827.646	6.5
828.388	6.5
829.129	6.5
829.871	7.5
830.612	4.5
831.354	5.5
832.095	3.5
832.836	5.5
833.577	3.5
834.319	3.5
835.06	2.5
835.801	5.5
836.542	2.5
837.282	2.5
838.023	2.5
838.764	4.5
839.504	4.5
840.245	2.5
840.985	4.5
841.726	4.5
842.466	3.5
843.206	2.5
843.946	2.5
844.687	2.5
845.427	2.5
846.166	1.5
846.906	4.5
847.646	4.5
848.386	5.5
849.125	3.5
849.865	4.5
850.605	4.5
851.344	3.5
852.083	1.5
852.823	4.5
853.562	3.5
854.301	2.5
855.04	2.5
855.779	5.5
856.518	2.5
857.257	3.5
857.995	4.5
858.734	2.5
859.473	3.5
860.211	0.5
860.95	4.5
861.688	2.5
862.426	1.5
863.165	2.5
863.903	2.5
864.641	2.5
865.379	1.5
866.117	4.5
866.855	1.5
867.593	4.5
868.33	1.5
869.068	2.5
869.806	1.5
870.543	3.5
871.28	2.5
872.018	0.5
872.755	0.5
873.492	1.5
874.229	0.5
874.967	0.5
875.703	2.5
876.44	1.5
877.177	1.5
877.914	2.5
878.651	2.5
879.387	2.5
880.124	2.5
880.86	1.5
881.597	1.5
882.333	0.5
883.069	1.5
883.806	1.5
884.542	1.5
885.278	2.5
886.014	2.5
886.749	1.5
887.485	0.5
888.221	0.5
888.957	2.5
889.692	2.5
890.428	0.5
891.163	2.5
891.899	2.5
892.634	0.5
893.369	1.5
894.104	1.5
894.839	0.5
895.574	0.5
896.309	2.5
897.044	2.5
897.779	0.5
898.514	2.5
899.248	1.5
899.983	-0.5
900.717	2.5
901.452	0.5
902.186	1.5
902.92	2.5
903.654	0.5
904.389	2.5
905.123	0.5
905.857	0.5
906.59	2.5
907.324	0.5
908.058	-0.5
908.792	1.5
909.525	0.5
910.259	0.5
910.992	-1.5
911.726	3.5
912.459	1.5
913.192	0.5
913.925	0.5
914.658	0.5
915.391	-0.5
916.124	1.5
916.857	-1.5
917.59	0.5
918.323	2.5
919.055	-1.5
919.788	-0.5
920.521	0.5
921.253	-1.5
921.985	2.5
922.718	0.5
923.45	1.5
924.182	0.5
924.914	0.5
925.646	2.5
926.378	2.5
927.11	0.5
927.841	0.5
928.573	1.5
929.305	0.5
930.036	-1.5
930.768	-1.5
931.499	0.5
932.23	0.5
932.962	0.5
933.693	1.5
934.424	0.5
935.155	0.5
935.886	1.5
936.617	-0.5
937.348	1.5
938.078	-1.5
938.809	1.5
939.54	1.5
940.27	0.5
941.001	2.5
941.731	0.5
942.461	0.5
943.191	0.5
943.922	-0.5
944.652	1.5
945.382	0.5
946.112	0.5
946.841	1.5
947.571	1.5
948.301	1.5
949.031	-0.5
949.76	1.5
950.49	0.5
951.219	-0.5
951.948	1.5
952.678	-0.5
953.407	1.5
954.136	-0.5
954.865	0.5
955.594	-0.5
956.323	0.5
957.052	2.5
957.78	0.5
958.509	0.5
959.238	0.5
959.966	2.5
960.695	-0.5
961.423	1.5
962.151	-1.5
962.88	-0.5
963.608	1.5
964.336	1.5
965.064	1.5
965.792	2.5
966.52	0.5
967.247	0.5
967.975	-0.5
968.703	0.5
969.43	0.5
970.158	1.5
970.885	2.5
971.613	-0.5
972.34	0.5
973.067	-1.5
973.794	1.5
974.521	0.5
975.248	3.5
975.975	-0.5
976.702	0.5
977.429	0.5
978.156	-1.5
978.882	2.5
979.609	-0.5
980.335	0.5
981.062	0.5
981.788	1.5
982.514	2.5
983.24	0.5
983.967	0.5
984.693	0.5
985.419	2.5
986.144	1.5
986.87	1.5
987.596	1.5
988.322	-1.5
989.047	0.5
989.773	0.5
990.498	1.5
991.224	-1.5
991.949	0.5
992.674	1.5
993.399	1.5
994.124	-0.5
994.849	1.5
995.574	0.5
996.299	1.5
997.024	-0.5
997.749	0.5
998.473	1.5
999.198	1.5
999.922	3.5
1000.647	0.5
1001.371	4.5
1002.095	-1.5
1002.82	-3.5
1003.544	0.5
1004.268	0.5
1004.992	2.5
1005.716	0.5
1006.439	-0.5
1007.163	0.5
1007.887	2.5
1008.611	0.5
1009.334	0.5
1010.058	1.5
1010.781	1.5
1011.504	0.5
1012.228	2.5
1012.951	0.5
1013.674	-1.5
1014.397	-0.5
1015.12	1.5
