节点500_285_QEPB04081__602__15-05-34-183.txt的数据

Date: Wed Nov 12 15:05:34 CST 2025
User: PC
Spectrometer: QEPB0408
触发模式: 0
积分时间 (秒): 1.000000E-2
Scans to average: 1
启用暗噪声校正: true
启用非线性校正: false
滑动平均宽度: 0
X轴模式: Wavelengths
Number of Pixels in Spectrum: 1044
>>>>>Begin Spectral Data<<<<<
220.843	2.88
221.644	0.88
222.444	1.88
223.244	1.88
224.045	0.88
224.845	0.88
225.645	2.88
226.445	3.88
227.245	3.88
228.045	-0.12
228.845	3.88
229.645	-1.12
230.444	0.88
231.244	-0.12
232.043	5.88
232.843	1.88
233.642	3.88
234.442	0.88
235.241	3.88
236.04	3.88
236.839	2.88
237.638	4.88
238.437	3.88
239.236	2.88
240.035	1.88
240.833	4.88
241.632	4.88
242.43	1.88
243.229	2.88
244.027	3.88
244.826	4.88
245.624	3.88
246.422	4.88
247.22	6.88
248.018	4.88
248.816	5.88
249.614	4.88
250.412	5.88
251.21	6.88
252.007	3.88
252.805	5.88
253.602	6.88
254.4	7.88
255.197	7.88
255.994	6.88
256.791	6.88
257.589	7.88
258.386	6.88
259.183	7.88
259.979	11.88
260.776	9.88
261.573	7.88
262.37	10.88
263.166	9.88
263.963	11.88
264.759	11.88
265.556	11.88
266.352	11.88
267.148	12.88
267.944	13.88
268.74	13.88
269.536	10.88
270.332	15.88
271.128	13.88
271.924	11.88
272.719	11.88
273.515	15.88
274.311	15.88
275.106	16.88
275.901	16.88
276.697	16.88
277.492	16.88
278.287	14.88
279.082	17.88
279.877	17.88
280.672	15.88
281.467	17.88
282.262	15.88
283.056	17.88
283.851	17.88
284.646	20.88
285.44	18.88
286.234	15.88
287.029	19.88
287.823	16.88
288.617	15.88
289.411	17.88
290.205	16.88
290.999	18.88
291.793	17.88
292.587	17.88
293.381	16.88
294.174	19.88
294.968	16.88
295.761	14.88
296.555	16.88
297.348	13.88
298.141	15.88
298.935	15.88
299.728	14.88
300.521	13.88
301.314	11.88
302.107	10.88
302.899	12.88
303.692	12.88
304.485	13.88
305.277	12.88
306.07	13.88
306.862	11.88
307.655	12.88
308.447	12.88
309.239	13.88
310.031	11.88
310.823	10.88
311.615	11.88
312.407	10.88
313.199	12.88
313.991	6.88
314.783	9.88
315.574	9.88
316.366	7.88
317.157	7.88
317.949	8.88
318.74	6.88
319.531	6.88
320.322	7.88
321.113	9.88
321.904	6.88
322.695	6.88
323.486	8.88
324.277	7.88
325.068	6.88
325.858	10.88
326.649	5.88
327.439	5.88
328.23	6.88
329.02	3.88
329.81	8.88
330.6	4.88
331.391	5.88
332.181	5.88
332.971	5.88
333.76	7.88
334.55	6.88
335.34	4.88
336.13	7.88
336.919	4.88
337.709	3.88
338.498	6.88
339.287	7.88
340.077	6.88
340.866	5.88
341.655	6.88
342.444	4.88
343.233	5.88
344.022	6.88
344.811	5.88
345.6	4.88
346.388	5.88
347.177	4.88
347.965	5.88
348.754	6.88
349.542	7.88
350.33	5.88
351.119	5.88
351.907	5.88
352.695	7.88
353.483	4.88
354.271	7.88
355.059	4.88
355.846	6.88
356.634	2.88
357.422	5.88
358.209	4.88
358.997	5.88
359.784	7.88
360.571	3.88
361.359	5.88
362.146	6.88
362.933	4.88
363.72	5.88
364.507	5.88
365.294	2.88
366.081	5.88
366.867	4.88
367.654	5.88
368.44	4.88
369.227	5.88
370.013	4.88
370.8	3.88
371.586	4.88
372.372	2.88
373.158	6.88
373.944	4.88
374.73	3.88
375.516	5.88
376.302	4.88
377.088	5.88
377.873	3.88
378.659	5.88
379.445	3.88
380.23	5.88
381.015	6.88
381.801	5.88
382.586	5.88
383.371	2.88
384.156	3.88
384.941	4.88
385.726	4.88
386.511	2.88
387.296	6.88
388.08	5.88
388.865	4.88
389.649	6.88
390.434	6.88
391.218	7.88
392.003	5.88
392.787	4.88
393.571	6.88
394.355	3.88
395.139	4.88
395.923	5.88
396.707	3.88
397.491	6.88
398.274	6.88
399.058	7.88
399.842	6.88
400.625	3.88
401.408	7.88
402.192	5.88
402.975	9.88
403.758	5.88
404.541	8.88
405.324	6.88
406.107	5.88
406.89	8.88
407.673	5.88
408.456	7.88
409.238	5.88
410.021	7.88
410.803	9.88
411.586	7.88
412.368	7.88
413.151	7.88
413.933	8.88
414.715	6.88
415.497	7.88
416.279	8.88
417.061	7.88
417.843	8.88
418.624	8.88
419.406	8.88
420.188	8.88
420.969	9.88
421.751	9.88
422.532	7.88
423.313	11.88
424.095	9.88
424.876	11.88
425.657	10.88
426.438	9.88
427.219	12.88
428	11.88
428.78	13.88
429.561	11.88
430.342	13.88
431.122	15.88
431.903	14.88
432.683	16.88
433.464	16.88
434.244	15.88
435.024	19.88
435.804	17.88
436.584	15.88
437.364	17.88
438.144	19.88
438.924	18.88
439.704	21.88
440.483	20.88
441.263	22.88
442.042	23.88
442.822	26.88
443.601	30.88
444.38	30.88
445.16	33.88
445.939	34.88
446.718	36.88
447.497	38.88
448.276	41.88
449.054	46.88
449.833	51.88
450.612	54.88
451.391	61.88
452.169	64.88
452.948	72.88
453.726	80.88
454.504	87.88
455.282	94.88
456.061	106.88
456.839	120.88
457.617	130.88
458.395	148.88
459.172	160.88
459.95	184.88
460.728	200.88
461.506	222.88
462.283	247.88
463.061	275.88
463.838	307.88
464.615	346.88
465.393	377.88
466.17	419.88
466.947	470.88
467.724	516.88
468.501	584.88
469.278	646.88
470.055	726.88
470.831	793.88
471.608	876.88
472.385	986.88
473.161	1088.88
473.938	1196.88
474.714	1325.88
475.49	1453.88
476.266	1611.88
477.043	1759.88
477.819	1947.88
478.595	2135.88
479.371	2351.88
480.146	2557.88
480.922	2831.88
481.698	3070.88
482.473	3424.88
483.249	3740.88
484.024	4076.88
484.8	4491.88
485.575	4915.88
486.35	5345.88
487.126	5833.88
487.901	6429.88
488.676	6989.88
489.451	7596.88
490.225	8307.88
491	9003.88
491.775	9857.88
492.55	10712.88
493.324	11537.88
494.099	12395.88
494.873	13353.88
495.647	14397.88
496.422	15421.88
497.196	16485.88
497.97	17691.88
498.744	18742.88
499.518	19864.88
500.292	20964.88
501.066	21989.88
501.839	22918.88
502.613	23749.88
503.387	24628.88
504.16	25298.88
504.934	25759.88
505.707	26031.88
506.48	26260.88
507.253	26239.88
508.027	26208.88
508.8	26038.88
509.573	25766.88
510.346	25208.88
511.118	24670.88
511.891	24014.88
512.664	23248.88
513.437	22496.88
514.209	21643.88
514.982	20817.88
515.754	19963.88
516.526	19127.88
517.298	18328.88
518.071	17468.88
518.843	16802.88
519.615	16194.88
520.387	15577.88
521.159	14971.88
521.93	14328.88
522.702	13771.88
523.474	13241.88
524.245	12656.88
525.017	12129.88
525.788	11698.88
526.56	11172.88
527.331	10670.88
528.102	10170.88
528.873	9750.88
529.644	9226.88
530.415	8813.88
531.186	8412.88
531.957	7987.88
532.728	7618.88
533.498	7232.88
534.269	6807.88
535.039	6414.88
535.81	6079.88
536.58	5787.88
537.351	5457.88
538.121	5117.88
538.891	4875.88
539.661	4608.88
540.431	4332.88
541.201	4104.88
541.971	3889.88
542.741	3708.88
543.51	3482.88
544.28	3313.88
545.05	3177.88
545.819	3009.88
546.588	2867.88
547.358	2726.88
548.127	2581.88
548.896	2453.88
549.665	2357.88
550.434	2218.88
551.203	2095.88
551.972	1993.88
552.741	1876.88
553.51	1781.88
554.278	1661.88
555.047	1586.88
555.815	1500.88
556.584	1433.88
557.352	1338.88
558.121	1267.88
558.889	1197.88
559.657	1119.88
560.425	1068.88
561.193	1000.88
561.961	950.88
562.729	899.88
563.496	839.88
564.264	805.88
565.032	763.88
565.799	708.88
566.567	685.88
567.334	636.88
568.101	604.88
568.869	567.88
569.636	532.88
570.403	502.88
571.17	467.88
571.937	451.88
572.704	430.88
573.471	396.88
574.237	370.88
575.004	365.88
575.771	334.88
576.537	313.88
577.303	291.88
578.07	284.88
578.836	265.88
579.602	252.88
580.368	229.88
581.134	224.88
581.9	207.88
582.666	199.88
583.432	182.88
584.198	181.88
584.964	171.88
585.729	165.88
586.495	157.88
587.26	142.88
588.025	137.88
588.791	133.88
589.556	127.88
590.321	114.88
591.086	108.88
591.851	101.88
592.616	103.88
593.381	91.88
594.146	89.88
594.911	86.88
595.675	80.88
596.44	79.88
597.204	70.88
597.969	72.88
598.733	64.88
599.497	66.88
600.261	62.88
601.025	58.88
601.79	57.88
602.553	55.88
603.317	50.88
604.081	48.88
604.845	48.88
605.609	44.88
606.372	43.88
607.136	42.88
607.899	38.88
608.662	39.88
609.426	35.88
610.189	37.88
610.952	31.88
611.715	32.88
612.478	33.88
613.241	31.88
614.004	29.88
614.767	28.88
615.529	26.88
616.292	24.88
617.055	28.88
617.817	23.88
618.579	24.88
619.342	22.88
620.104	20.88
620.866	18.88
621.628	20.88
622.39	21.88
623.152	18.88
623.914	18.88
624.676	16.88
625.438	18.88
626.199	17.88
626.961	18.88
627.722	17.88
628.484	14.88
629.245	12.88
630.006	12.88
630.768	13.88
631.529	13.88
632.29	13.88
633.051	12.88
633.812	11.88
634.573	12.88
635.333	11.88
636.094	7.88
636.855	10.88
637.615	11.88
638.376	11.88
639.136	9.88
639.896	10.88
640.657	9.88
641.417	10.88
642.177	8.88
642.937	9.88
643.697	8.88
644.457	8.88
645.216	9.88
645.976	7.88
646.736	8.88
647.495	8.88
648.255	9.88
649.014	8.88
649.774	8.88
650.533	5.88
651.292	5.88
652.051	6.88
652.81	7.88
653.569	5.88
654.328	6.88
655.087	5.88
655.846	6.88
656.604	5.88
657.363	3.88
658.121	5.88
658.88	4.88
659.638	6.88
660.397	3.88
661.155	4.88
661.913	6.88
662.671	4.88
663.429	3.88
664.187	2.88
664.945	5.88
665.703	3.88
666.46	5.88
667.218	4.88
667.976	4.88
668.733	3.88
669.49	4.88
670.248	4.88
671.005	4.88
671.762	5.88
672.519	4.88
673.276	4.88
674.033	3.88
674.79	3.88
675.547	5.88
676.304	3.88
677.06	4.88
677.817	3.88
678.574	3.88
679.33	3.88
680.086	3.88
680.843	3.88
681.599	1.88
682.355	4.88
683.111	2.88
683.867	2.88
684.623	2.88
685.379	0.88
686.135	5.88
686.89	4.88
687.646	3.88
688.402	1.88
689.157	2.88
689.912	5.88
690.668	4.88
691.423	1.88
692.178	2.88
692.933	1.88
693.688	2.88
694.443	1.88
695.198	6.88
695.953	4.88
696.708	6.88
697.462	3.88
698.217	5.88
698.972	0.88
699.726	2.88
700.48	4.88
701.235	2.88
701.989	3.88
702.743	3.88
703.497	3.88
704.251	5.88
705.005	2.88
705.759	2.88
706.513	1.88
707.266	5.88
708.02	1.88
708.774	4.88
709.527	3.88
710.28	2.88
711.034	3.88
711.787	3.88
712.54	3.88
713.293	2.88
714.046	2.88
714.799	2.88
715.552	3.88
716.305	3.88
717.058	2.88
717.81	5.88
718.563	4.88
719.315	3.88
720.068	4.88
720.82	3.88
721.573	3.88
722.325	3.88
723.077	2.88
723.829	3.88
724.581	2.88
725.333	3.88
726.085	0.88
726.836	3.88
727.588	1.88
728.34	1.88
729.091	3.88
729.843	2.88
730.594	4.88
731.346	5.88
732.097	2.88
732.848	5.88
733.599	2.88
734.35	3.88
735.101	2.88
735.852	2.88
736.603	4.88
737.354	4.88
738.104	4.88
738.855	3.88
739.605	1.88
740.356	2.88
741.106	4.88
741.856	3.88
742.607	3.88
743.357	1.88
744.107	3.88
744.857	5.88
745.607	5.88
746.357	3.88
747.106	6.88
747.856	4.88
748.606	6.88
749.355	5.88
750.105	2.88
750.854	3.88
751.603	4.88
752.353	5.88
753.102	3.88
753.851	5.88
754.6	4.88
755.349	6.88
756.098	5.88
756.847	5.88
757.595	4.88
758.344	5.88
759.093	4.88
759.841	4.88
760.589	4.88
761.338	5.88
762.086	5.88
762.834	6.88
763.582	4.88
764.331	6.88
765.079	4.88
765.826	4.88
766.574	7.88
767.322	7.88
768.07	5.88
768.817	5.88
769.565	5.88
770.312	6.88
771.06	2.88
771.807	6.88
772.554	7.88
773.302	7.88
774.049	9.88
774.796	5.88
775.543	5.88
776.29	8.88
777.036	8.88
777.783	8.88
778.53	5.88
779.276	6.88
780.023	10.88
780.769	8.88
781.516	5.88
782.262	7.88
783.008	8.88
783.754	7.88
784.5	6.88
785.246	7.88
785.992	8.88
786.738	7.88
787.484	8.88
788.23	8.88
788.975	9.88
789.721	8.88
790.466	6.88
791.212	5.88
791.957	7.88
792.702	11.88
793.447	7.88
794.193	8.88
794.938	7.88
795.683	8.88
796.427	10.88
797.172	9.88
797.917	10.88
798.662	6.88
799.406	8.88
800.151	6.88
800.895	5.88
801.64	5.88
802.384	3.88
803.128	5.88
803.872	3.88
804.616	4.88
805.36	7.88
806.104	6.88
806.848	6.88
807.592	2.88
808.336	6.88
809.079	3.88
809.823	6.88
810.566	4.88
811.31	3.88
812.053	5.88
812.796	6.88
813.539	6.88
814.283	4.88
815.026	5.88
815.769	1.88
816.511	5.88
817.254	6.88
817.997	3.88
818.74	3.88
819.482	3.88
820.225	3.88
820.967	5.88
821.71	4.88
822.452	4.88
823.194	5.88
823.936	3.88
824.678	0.88
825.42	2.88
826.162	2.88
826.904	3.88
827.646	2.88
828.388	1.88
829.129	2.88
829.871	4.88
830.612	3.88
831.354	5.88
832.095	4.88
832.836	4.88
833.577	3.88
834.319	5.88
835.06	2.88
835.801	1.88
836.542	4.88
837.282	2.88
838.023	3.88
838.764	3.88
839.504	1.88
840.245	1.88
840.985	1.88
841.726	2.88
842.466	2.88
843.206	1.88
843.946	1.88
844.687	2.88
845.427	1.88
846.166	1.88
846.906	1.88
847.646	2.88
848.386	2.88
849.125	0.88
849.865	3.88
850.605	2.88
851.344	-0.12
852.083	5.88
852.823	1.88
853.562	4.88
854.301	1.88
855.04	0.88
855.779	2.88
856.518	1.88
857.257	1.88
857.995	0.88
858.734	2.88
859.473	3.88
860.211	0.88
860.95	2.88
861.688	0.88
862.426	0.88
863.165	2.88
863.903	2.88
864.641	1.88
865.379	1.88
866.117	2.88
866.855	0.88
867.593	1.88
868.33	1.88
869.068	0.88
869.806	0.88
870.543	2.88
871.28	3.88
872.018	0.88
872.755	0.88
873.492	1.88
874.229	0.88
874.967	1.88
875.703	-0.12
876.44	-1.12
877.177	-0.12
877.914	0.88
878.651	2.88
879.387	0.88
880.124	1.88
880.86	-0.12
881.597	-0.12
882.333	-0.12
883.069	1.88
883.806	0.88
884.542	1.88
885.278	2.88
886.014	0.88
886.749	0.88
887.485	1.88
888.221	0.88
888.957	1.88
889.692	-1.12
890.428	1.88
891.163	-0.12
891.899	0.88
892.634	1.88
893.369	-1.12
894.104	-0.12
894.839	-0.12
895.574	-0.12
896.309	0.88
897.044	2.88
897.779	0.88
898.514	-0.12
899.248	1.88
899.983	-0.12
900.717	0.88
901.452	-0.12
902.186	0.88
902.92	1.88
903.654	-1.12
904.389	0.88
905.123	1.88
905.857	0.88
906.59	-1.12
907.324	0.88
908.058	1.88
908.792	-1.12
909.525	2.88
910.259	0.88
910.992	-0.12
911.726	-1.12
912.459	-0.12
913.192	-1.12
913.925	0.88
914.658	0.88
915.391	-2.12
916.124	-1.12
916.857	1.88
917.59	-0.12
918.323	3.88
919.055	-0.12
919.788	-2.12
920.521	0.88
921.253	-0.12
921.985	-0.12
922.718	-0.12
923.45	0.88
924.182	-0.12
924.914	-0.12
925.646	-0.12
926.378	-0.12
927.11	2.88
927.841	-0.12
928.573	0.88
929.305	-0.12
930.036	-1.12
930.768	-1.12
931.499	-1.12
932.23	-1.12
932.962	-0.12
933.693	2.88
934.424	0.88
935.155	-1.12
935.886	1.88
936.617	-1.12
937.348	1.88
938.078	-2.12
938.809	-0.12
939.54	-1.12
940.27	-1.12
941.001	0.88
941.731	-0.12
942.461	-2.12
943.191	-1.12
943.922	-1.12
944.652	-0.12
945.382	-1.12
946.112	0.88
946.841	0.88
947.571	-0.12
948.301	-2.12
949.031	-2.12
949.76	0.88
950.49	-0.12
951.219	-1.12
951.948	-1.12
952.678	-2.12
953.407	-0.12
954.136	-0.12
954.865	-0.12
955.594	-0.12
956.323	0.88
957.052	0.88
957.78	0.88
958.509	-0.12
959.238	0.88
959.966	1.88
960.695	-1.12
961.423	-0.12
962.151	-0.12
962.88	-0.12
963.608	-0.12
964.336	-0.12
965.064	-0.12
965.792	0.88
966.52	-0.12
967.247	0.88
967.975	0.88
968.703	-0.12
969.43	0.88
970.158	0.88
970.885	-2.12
971.613	-0.12
972.34	1.88
973.067	-1.12
973.794	1.88
974.521	0.88
975.248	-0.12
975.975	1.88
976.702	-1.12
977.429	1.88
978.156	-0.12
978.882	-1.12
979.609	-0.12
980.335	0.88
981.062	0.88
981.788	-1.12
982.514	1.88
983.24	-0.12
983.967	-0.12
984.693	0.88
985.419	0.88
986.144	-2.12
986.87	-0.12
987.596	1.88
988.322	-1.12
989.047	-0.12
989.773	1.88
990.498	-1.12
991.224	-0.12
991.949	-1.12
992.674	0.88
993.399	-1.12
994.124	0.88
994.849	-1.12
995.574	1.88
996.299	-2.12
997.024	-1.12
997.749	1.88
998.473	-1.12
999.198	0.88
999.922	0.88
1000.647	-2.12
1001.371	2.88
1002.095	-0.12
1002.82	-2.12
1003.544	-0.12
1004.268	1.88
1004.992	-0.12
1005.716	-0.12
1006.439	0.88
1007.163	0.88
1007.887	-0.12
1008.611	1.88
1009.334	1.88
1010.058	-1.12
1010.781	-1.12
1011.504	-1.12
1012.228	0.88
1012.951	-0.12
1013.674	-0.12
1014.397	-2.12
1015.12	1.88
