节点500_285_QEPB04081__708__15-07-19-815.txt的数据

Date: Wed Nov 12 15:07:19 CST 2025
User: PC
Spectrometer: QEPB0408
触发模式: 0
积分时间 (秒): 1.000000E-2
Scans to average: 1
启用暗噪声校正: true
启用非线性校正: false
滑动平均宽度: 0
X轴模式: Wavelengths
Number of Pixels in Spectrum: 1044
>>>>>Begin Spectral Data<<<<<
220.843	1.62
221.644	-1.38
222.444	-0.38
223.244	3.62
224.045	-1.38
224.845	3.62
225.645	-1.38
226.445	3.62
227.245	1.62
228.045	1.62
228.845	3.62
229.645	1.62
230.444	1.62
231.244	3.62
232.043	3.62
232.843	1.62
233.642	2.62
234.442	2.62
235.241	0.62
236.04	3.62
236.839	1.62
237.638	3.62
238.437	1.62
239.236	4.62
240.035	5.62
240.833	2.62
241.632	2.62
242.43	1.62
243.229	5.62
244.027	5.62
244.826	3.62
245.624	4.62
246.422	5.62
247.22	6.62
248.018	3.62
248.816	3.62
249.614	3.62
250.412	4.62
251.21	6.62
252.007	6.62
252.805	4.62
253.602	8.62
254.4	6.62
255.197	8.62
255.994	6.62
256.791	7.62
257.589	6.62
258.386	7.62
259.183	8.62
259.979	5.62
260.776	8.62
261.573	9.62
262.37	6.62
263.166	10.62
263.963	8.62
264.759	11.62
265.556	6.62
266.352	10.62
267.148	10.62
267.944	12.62
268.74	13.62
269.536	11.62
270.332	12.62
271.128	13.62
271.924	13.62
272.719	12.62
273.515	12.62
274.311	15.62
275.106	16.62
275.901	15.62
276.697	12.62
277.492	17.62
278.287	14.62
279.082	11.62
279.877	16.62
280.672	14.62
281.467	17.62
282.262	14.62
283.056	18.62
283.851	18.62
284.646	14.62
285.44	16.62
286.234	18.62
287.029	17.62
287.823	16.62
288.617	18.62
289.411	16.62
290.205	12.62
290.999	18.62
291.793	14.62
292.587	16.62
293.381	16.62
294.174	16.62
294.968	16.62
295.761	13.62
296.555	14.62
297.348	12.62
298.141	12.62
298.935	15.62
299.728	13.62
300.521	14.62
301.314	10.62
302.107	13.62
302.899	12.62
303.692	13.62
304.485	12.62
305.277	11.62
306.07	11.62
306.862	11.62
307.655	12.62
308.447	11.62
309.239	12.62
310.031	10.62
310.823	11.62
311.615	11.62
312.407	8.62
313.199	10.62
313.991	9.62
314.783	9.62
315.574	8.62
316.366	8.62
317.157	8.62
317.949	8.62
318.74	9.62
319.531	7.62
320.322	5.62
321.113	9.62
321.904	6.62
322.695	5.62
323.486	7.62
324.277	4.62
325.068	5.62
325.858	8.62
326.649	6.62
327.439	5.62
328.23	6.62
329.02	8.62
329.81	6.62
330.6	6.62
331.391	5.62
332.181	6.62
332.971	4.62
333.76	5.62
334.55	6.62
335.34	6.62
336.13	6.62
336.919	6.62
337.709	5.62
338.498	5.62
339.287	6.62
340.077	5.62
340.866	4.62
341.655	7.62
342.444	5.62
343.233	4.62
344.022	5.62
344.811	5.62
345.6	6.62
346.388	6.62
347.177	7.62
347.965	5.62
348.754	4.62
349.542	5.62
350.33	6.62
351.119	5.62
351.907	6.62
352.695	5.62
353.483	4.62
354.271	5.62
355.059	5.62
355.846	2.62
356.634	6.62
357.422	5.62
358.209	5.62
358.997	4.62
359.784	5.62
360.571	5.62
361.359	4.62
362.146	9.62
362.933	3.62
363.72	6.62
364.507	4.62
365.294	4.62
366.081	4.62
366.867	4.62
367.654	4.62
368.44	4.62
369.227	5.62
370.013	1.62
370.8	1.62
371.586	4.62
372.372	4.62
373.158	5.62
373.944	5.62
374.73	2.62
375.516	6.62
376.302	5.62
377.088	5.62
377.873	3.62
378.659	6.62
379.445	4.62
380.23	3.62
381.015	5.62
381.801	3.62
382.586	6.62
383.371	3.62
384.156	5.62
384.941	2.62
385.726	3.62
386.511	3.62
387.296	4.62
388.08	2.62
388.865	6.62
389.649	8.62
390.434	3.62
391.218	5.62
392.003	2.62
392.787	3.62
393.571	4.62
394.355	5.62
395.139	4.62
395.923	5.62
396.707	6.62
397.491	5.62
398.274	5.62
399.058	5.62
399.842	8.62
400.625	5.62
401.408	7.62
402.192	4.62
402.975	6.62
403.758	4.62
404.541	8.62
405.324	8.62
406.107	7.62
406.89	5.62
407.673	7.62
408.456	5.62
409.238	6.62
410.021	8.62
410.803	5.62
411.586	3.62
412.368	6.62
413.151	7.62
413.933	8.62
414.715	7.62
415.497	9.62
416.279	7.62
417.061	8.62
417.843	7.62
418.624	8.62
419.406	7.62
420.188	8.62
420.969	8.62
421.751	8.62
422.532	7.62
423.313	9.62
424.095	10.62
424.876	9.62
425.657	9.62
426.438	11.62
427.219	11.62
428	10.62
428.78	12.62
429.561	9.62
430.342	13.62
431.122	17.62
431.903	13.62
432.683	14.62
433.464	14.62
434.244	16.62
435.024	15.62
435.804	17.62
436.584	17.62
437.364	17.62
438.144	20.62
438.924	19.62
439.704	22.62
440.483	17.62
441.263	21.62
442.042	23.62
442.822	24.62
443.601	33.62
444.38	29.62
445.16	32.62
445.939	34.62
446.718	36.62
447.497	41.62
448.276	42.62
449.054	46.62
449.833	49.62
450.612	54.62
451.391	63.62
452.169	68.62
452.948	75.62
453.726	81.62
454.504	90.62
455.282	102.62
456.061	111.62
456.839	118.62
457.617	131.62
458.395	150.62
459.172	162.62
459.95	180.62
460.728	209.62
461.506	232.62
462.283	253.62
463.061	287.62
463.838	324.62
464.615	345.62
465.393	389.62
466.17	429.62
466.947	477.62
467.724	533.62
468.501	598.62
469.278	661.62
470.055	730.62
470.831	801.62
471.608	900.62
472.385	971.62
473.161	1076.62
473.938	1199.62
474.714	1311.62
475.49	1458.62
476.266	1611.62
477.043	1775.62
477.819	1932.62
478.595	2126.62
479.371	2325.62
480.146	2554.62
480.922	2812.62
481.698	3069.62
482.473	3357.62
483.249	3638.62
484.024	4007.62
484.8	4371.62
485.575	4776.62
486.35	5212.62
487.126	5661.62
487.901	6165.62
488.676	6741.62
489.451	7322.62
490.225	7964.62
491	8652.62
491.775	9423.62
492.55	10212.62
493.324	11041.62
494.099	11822.62
494.873	12690.62
495.647	13685.62
496.422	14685.62
497.196	15655.62
497.97	16759.62
498.744	17853.62
499.518	18820.62
500.292	19839.62
501.066	20843.62
501.839	21811.62
502.613	22736.62
503.387	23534.62
504.16	24265.62
504.934	24727.62
505.707	25109.62
506.48	25300.62
507.253	25397.62
508.027	25407.62
508.8	25345.62
509.573	25176.62
510.346	24751.62
511.118	24268.62
511.891	23668.62
512.664	22969.62
513.437	22278.62
514.209	21441.62
514.982	20693.62
515.754	19861.62
516.526	19080.62
517.298	18285.62
518.071	17517.62
518.843	16843.62
519.615	16219.62
520.387	15633.62
521.159	14985.62
521.93	14376.62
522.702	13846.62
523.474	13260.62
524.245	12684.62
525.017	12177.62
525.788	11701.62
526.56	11212.62
527.331	10667.62
528.102	10227.62
528.873	9768.62
529.644	9314.62
530.415	8918.62
531.186	8482.62
531.957	8062.62
532.728	7697.62
533.498	7295.62
534.269	6933.62
535.039	6524.62
535.81	6184.62
536.58	5845.62
537.351	5495.62
538.121	5215.62
538.891	4941.62
539.661	4681.62
540.431	4431.62
541.201	4169.62
541.971	3960.62
542.741	3746.62
543.51	3561.62
544.28	3371.62
545.05	3218.62
545.819	3059.62
546.588	2906.62
547.358	2769.62
548.127	2644.62
548.896	2509.62
549.665	2379.62
550.434	2246.62
551.203	2145.62
551.972	2038.62
552.741	1908.62
553.51	1801.62
554.278	1722.62
555.047	1625.62
555.815	1528.62
556.584	1447.62
557.352	1365.62
558.121	1289.62
558.889	1227.62
559.657	1153.62
560.425	1101.62
561.193	1018.62
561.961	960.62
562.729	918.62
563.496	869.62
564.264	816.62
565.032	785.62
565.799	721.62
566.567	692.62
567.334	656.62
568.101	618.62
568.869	581.62
569.636	553.62
570.403	521.62
571.17	488.62
571.937	457.62
572.704	434.62
573.471	412.62
574.237	389.62
575.004	367.62
575.771	346.62
576.537	327.62
577.303	304.62
578.07	292.62
578.836	268.62
579.602	260.62
580.368	241.62
581.134	232.62
581.9	215.62
582.666	208.62
583.432	192.62
584.198	187.62
584.964	177.62
585.729	165.62
586.495	158.62
587.26	150.62
588.025	141.62
588.791	136.62
589.556	126.62
590.321	118.62
591.086	112.62
591.851	105.62
592.616	99.62
593.381	98.62
594.146	91.62
594.911	91.62
595.675	86.62
596.44	81.62
597.204	76.62
597.969	71.62
598.733	67.62
599.497	66.62
600.261	60.62
601.025	58.62
601.79	58.62
602.553	53.62
603.317	52.62
604.081	52.62
604.845	50.62
605.609	44.62
606.372	43.62
607.136	42.62
607.899	38.62
608.662	39.62
609.426	36.62
610.189	33.62
610.952	32.62
611.715	37.62
612.478	29.62
613.241	29.62
614.004	29.62
614.767	29.62
615.529	26.62
616.292	23.62
617.055	23.62
617.817	24.62
618.579	24.62
619.342	25.62
620.104	19.62
620.866	22.62
621.628	22.62
622.39	20.62
623.152	17.62
623.914	18.62
624.676	15.62
625.438	16.62
626.199	16.62
626.961	13.62
627.722	15.62
628.484	13.62
629.245	15.62
630.006	16.62
630.768	13.62
631.529	13.62
632.29	12.62
633.051	12.62
633.812	12.62
634.573	8.62
635.333	12.62
636.094	10.62
636.855	9.62
637.615	11.62
638.376	8.62
639.136	8.62
639.896	9.62
640.657	8.62
641.417	10.62
642.177	6.62
642.937	8.62
643.697	7.62
644.457	8.62
645.216	5.62
645.976	6.62
646.736	8.62
647.495	6.62
648.255	7.62
649.014	9.62
649.774	9.62
650.533	6.62
651.292	7.62
652.051	7.62
652.81	6.62
653.569	7.62
654.328	6.62
655.087	7.62
655.846	5.62
656.604	5.62
657.363	5.62
658.121	5.62
658.88	7.62
659.638	4.62
660.397	3.62
661.155	4.62
661.913	4.62
662.671	4.62
663.429	4.62
664.187	5.62
664.945	6.62
665.703	7.62
666.46	6.62
667.218	1.62
667.976	6.62
668.733	3.62
669.49	3.62
670.248	3.62
671.005	5.62
671.762	6.62
672.519	4.62
673.276	5.62
674.033	2.62
674.79	4.62
675.547	5.62
676.304	6.62
677.06	6.62
677.817	3.62
678.574	4.62
679.33	1.62
680.086	7.62
680.843	3.62
681.599	4.62
682.355	3.62
683.111	1.62
683.867	2.62
684.623	1.62
685.379	1.62
686.135	3.62
686.89	2.62
687.646	1.62
688.402	1.62
689.157	3.62
689.912	6.62
690.668	3.62
691.423	3.62
692.178	4.62
692.933	3.62
693.688	0.62
694.443	1.62
695.198	4.62
695.953	3.62
696.708	0.62
697.462	3.62
698.217	3.62
698.972	-0.38
699.726	5.62
700.48	1.62
701.235	3.62
701.989	4.62
702.743	0.62
703.497	2.62
704.251	4.62
705.005	5.62
705.759	4.62
706.513	4.62
707.266	3.62
708.02	2.62
708.774	3.62
709.527	5.62
710.28	5.62
711.034	3.62
711.787	4.62
712.54	3.62
713.293	2.62
714.046	3.62
714.799	1.62
715.552	3.62
716.305	3.62
717.058	2.62
717.81	1.62
718.563	0.62
719.315	3.62
720.068	2.62
720.82	3.62
721.573	2.62
722.325	3.62
723.077	4.62
723.829	3.62
724.581	4.62
725.333	0.62
726.085	3.62
726.836	6.62
727.588	2.62
728.34	7.62
729.091	2.62
729.843	4.62
730.594	3.62
731.346	3.62
732.097	3.62
732.848	2.62
733.599	5.62
734.35	2.62
735.101	4.62
735.852	3.62
736.603	5.62
737.354	4.62
738.104	5.62
738.855	5.62
739.605	3.62
740.356	2.62
741.106	4.62
741.856	3.62
742.607	2.62
743.357	3.62
744.107	4.62
744.857	4.62
745.607	4.62
746.357	5.62
747.106	4.62
747.856	2.62
748.606	3.62
749.355	3.62
750.105	5.62
750.854	3.62
751.603	3.62
752.353	5.62
753.102	5.62
753.851	3.62
754.6	3.62
755.349	4.62
756.098	5.62
756.847	5.62
757.595	5.62
758.344	6.62
759.093	4.62
759.841	5.62
760.589	5.62
761.338	5.62
762.086	7.62
762.834	4.62
763.582	6.62
764.331	8.62
765.079	2.62
765.826	7.62
766.574	8.62
767.322	6.62
768.07	7.62
768.817	5.62
769.565	7.62
770.312	5.62
771.06	6.62
771.807	7.62
772.554	4.62
773.302	6.62
774.049	8.62
774.796	8.62
775.543	5.62
776.29	6.62
777.036	4.62
777.783	6.62
778.53	5.62
779.276	8.62
780.023	6.62
780.769	8.62
781.516	6.62
782.262	8.62
783.008	8.62
783.754	7.62
784.5	7.62
785.246	10.62
785.992	9.62
786.738	7.62
787.484	7.62
788.23	8.62
788.975	7.62
789.721	7.62
790.466	10.62
791.212	9.62
791.957	5.62
792.702	7.62
793.447	8.62
794.193	10.62
794.938	6.62
795.683	8.62
796.427	7.62
797.172	6.62
797.917	9.62
798.662	6.62
799.406	7.62
800.151	6.62
800.895	7.62
801.64	6.62
802.384	8.62
803.128	7.62
803.872	3.62
804.616	5.62
805.36	6.62
806.104	6.62
806.848	5.62
807.592	6.62
808.336	4.62
809.079	6.62
809.823	5.62
810.566	3.62
811.31	5.62
812.053	4.62
812.796	5.62
813.539	4.62
814.283	5.62
815.026	5.62
815.769	5.62
816.511	3.62
817.254	4.62
817.997	5.62
818.74	2.62
819.482	4.62
820.225	4.62
820.967	4.62
821.71	3.62
822.452	5.62
823.194	4.62
823.936	1.62
824.678	3.62
825.42	6.62
826.162	4.62
826.904	4.62
827.646	2.62
828.388	4.62
829.129	6.62
829.871	2.62
830.612	1.62
831.354	3.62
832.095	3.62
832.836	4.62
833.577	1.62
834.319	3.62
835.06	3.62
835.801	4.62
836.542	1.62
837.282	5.62
838.023	2.62
838.764	4.62
839.504	3.62
840.245	1.62
840.985	3.62
841.726	2.62
842.466	4.62
843.206	4.62
843.946	4.62
844.687	4.62
845.427	4.62
846.166	1.62
846.906	3.62
847.646	3.62
848.386	3.62
849.125	2.62
849.865	1.62
850.605	4.62
851.344	4.62
852.083	1.62
852.823	4.62
853.562	1.62
854.301	2.62
855.04	3.62
855.779	2.62
856.518	1.62
857.257	2.62
857.995	1.62
858.734	4.62
859.473	3.62
860.211	4.62
860.95	3.62
861.688	1.62
862.426	1.62
863.165	2.62
863.903	3.62
864.641	1.62
865.379	2.62
866.117	1.62
866.855	1.62
867.593	0.62
868.33	0.62
869.068	3.62
869.806	0.62
870.543	0.62
871.28	-0.38
872.018	2.62
872.755	2.62
873.492	0.62
874.229	1.62
874.967	1.62
875.703	2.62
876.44	0.62
877.177	0.62
877.914	1.62
878.651	2.62
879.387	0.62
880.124	0.62
880.86	-0.38
881.597	0.62
882.333	0.62
883.069	0.62
883.806	0.62
884.542	1.62
885.278	1.62
886.014	-0.38
886.749	0.62
887.485	-2.38
888.221	0.62
888.957	3.62
889.692	2.62
890.428	1.62
891.163	-1.38
891.899	0.62
892.634	0.62
893.369	0.62
894.104	1.62
894.839	4.62
895.574	0.62
896.309	-1.38
897.044	-2.38
897.779	1.62
898.514	1.62
899.248	1.62
899.983	1.62
900.717	1.62
901.452	1.62
902.186	0.62
902.92	0.62
903.654	0.62
904.389	1.62
905.123	1.62
905.857	-0.38
906.59	-2.38
907.324	0.62
908.058	-0.38
908.792	-0.38
909.525	-0.38
910.259	1.62
910.992	0.62
911.726	-2.38
912.459	4.62
913.192	-0.38
913.925	-0.38
914.658	-0.38
915.391	2.62
916.124	0.62
916.857	1.62
917.59	0.62
918.323	-0.38
919.055	0.62
919.788	-0.38
920.521	0.62
921.253	1.62
921.985	1.62
922.718	0.62
923.45	-0.38
924.182	-0.38
924.914	-0.38
925.646	0.62
926.378	-0.38
927.11	0.62
927.841	-0.38
928.573	-0.38
929.305	-0.38
930.036	-0.38
930.768	-1.38
931.499	2.62
932.23	1.62
932.962	0.62
933.693	1.62
934.424	-1.38
935.155	2.62
935.886	-0.38
936.617	0.62
937.348	0.62
938.078	0.62
938.809	0.62
939.54	-0.38
940.27	0.62
941.001	-2.38
941.731	0.62
942.461	1.62
943.191	-0.38
943.922	2.62
944.652	0.62
945.382	0.62
946.112	-0.38
946.841	-0.38
947.571	0.62
948.301	-2.38
949.031	1.62
949.76	-0.38
950.49	-1.38
951.219	-0.38
951.948	-0.38
952.678	1.62
953.407	0.62
954.136	-0.38
954.865	-1.38
955.594	-2.38
956.323	0.62
957.052	-1.38
957.78	-0.38
958.509	-1.38
959.238	0.62
959.966	0.62
960.695	-2.38
961.423	0.62
962.151	-0.38
962.88	-0.38
963.608	-2.38
964.336	2.62
965.064	0.62
965.792	0.62
966.52	2.62
967.247	-0.38
967.975	-0.38
968.703	-1.38
969.43	-0.38
970.158	-0.38
970.885	-1.38
971.613	0.62
972.34	-2.38
973.067	0.62
973.794	0.62
974.521	0.62
975.248	0.62
975.975	-3.38
976.702	1.62
977.429	-0.38
978.156	1.62
978.882	0.62
979.609	0.62
980.335	1.62
981.062	0.62
981.788	-0.38
982.514	-0.38
983.24	0.62
983.967	-0.38
984.693	-2.38
985.419	0.62
986.144	-1.38
986.87	1.62
987.596	-0.38
988.322	-1.38
989.047	-0.38
989.773	0.62
990.498	-0.38
991.224	-0.38
991.949	1.62
992.674	1.62
993.399	0.62
994.124	-0.38
994.849	-0.38
995.574	-0.38
996.299	0.62
997.024	-0.38
997.749	3.62
998.473	-1.38
999.198	-0.38
999.922	-1.38
1000.647	-0.38
1001.371	2.62
1002.095	0.62
1002.82	-2.38
1003.544	-0.38
1004.268	2.62
1004.992	-1.38
1005.716	1.62
1006.439	-0.38
1007.163	1.62
1007.887	2.62
1008.611	-0.38
1009.334	-1.38
1010.058	1.62
1010.781	-0.38
1011.504	-0.38
1012.228	0.62
1012.951	-0.38
1013.674	-0.38
1014.397	-0.38
1015.12	0.62
