节点500_285_QEPB04081__550__15-04-42-288.txt的数据

Date: Wed Nov 12 15:04:42 CST 2025
User: PC
Spectrometer: QEPB0408
触发模式: 0
积分时间 (秒): 1.000000E-2
Scans to average: 1
启用暗噪声校正: true
启用非线性校正: false
滑动平均宽度: 0
X轴模式: Wavelengths
Number of Pixels in Spectrum: 1044
>>>>>Begin Spectral Data<<<<<
220.843	1.38
221.644	2.38
222.444	0.38
223.244	1.38
224.045	3.38
224.845	3.38
225.645	3.38
226.445	2.38
227.245	2.38
228.045	2.38
228.845	3.38
229.645	3.38
230.444	1.38
231.244	5.38
232.043	2.38
232.843	3.38
233.642	2.38
234.442	3.38
235.241	2.38
236.04	1.38
236.839	3.38
237.638	4.38
238.437	2.38
239.236	2.38
240.035	2.38
240.833	5.38
241.632	4.38
242.43	4.38
243.229	4.38
244.027	1.38
244.826	3.38
245.624	4.38
246.422	4.38
247.22	5.38
248.018	5.38
248.816	6.38
249.614	4.38
250.412	5.38
251.21	5.38
252.007	4.38
252.805	4.38
253.602	5.38
254.4	7.38
255.197	7.38
255.994	6.38
256.791	5.38
257.589	9.38
258.386	7.38
259.183	6.38
259.979	9.38
260.776	6.38
261.573	9.38
262.37	11.38
263.166	8.38
263.963	10.38
264.759	9.38
265.556	9.38
266.352	10.38
267.148	13.38
267.944	10.38
268.74	11.38
269.536	13.38
270.332	15.38
271.128	13.38
271.924	12.38
272.719	14.38
273.515	17.38
274.311	16.38
275.106	14.38
275.901	17.38
276.697	20.38
277.492	17.38
278.287	17.38
279.082	18.38
279.877	16.38
280.672	16.38
281.467	16.38
282.262	18.38
283.056	19.38
283.851	19.38
284.646	18.38
285.44	18.38
286.234	20.38
287.029	19.38
287.823	16.38
288.617	17.38
289.411	17.38
290.205	18.38
290.999	14.38
291.793	19.38
292.587	16.38
293.381	15.38
294.174	14.38
294.968	16.38
295.761	16.38
296.555	15.38
297.348	16.38
298.141	16.38
298.935	15.38
299.728	15.38
300.521	16.38
301.314	14.38
302.107	10.38
302.899	13.38
303.692	12.38
304.485	9.38
305.277	12.38
306.07	9.38
306.862	12.38
307.655	13.38
308.447	15.38
309.239	10.38
310.031	9.38
310.823	11.38
311.615	8.38
312.407	12.38
313.199	9.38
313.991	8.38
314.783	8.38
315.574	9.38
316.366	11.38
317.157	7.38
317.949	9.38
318.74	8.38
319.531	7.38
320.322	8.38
321.113	6.38
321.904	9.38
322.695	7.38
323.486	6.38
324.277	9.38
325.068	6.38
325.858	8.38
326.649	7.38
327.439	8.38
328.23	6.38
329.02	7.38
329.81	6.38
330.6	6.38
331.391	5.38
332.181	8.38
332.971	7.38
333.76	4.38
334.55	5.38
335.34	5.38
336.13	6.38
336.919	7.38
337.709	6.38
338.498	7.38
339.287	5.38
340.077	6.38
340.866	6.38
341.655	5.38
342.444	7.38
343.233	4.38
344.022	4.38
344.811	6.38
345.6	4.38
346.388	5.38
347.177	3.38
347.965	4.38
348.754	6.38
349.542	5.38
350.33	6.38
351.119	6.38
351.907	6.38
352.695	4.38
353.483	5.38
354.271	4.38
355.059	5.38
355.846	6.38
356.634	2.38
357.422	5.38
358.209	5.38
358.997	4.38
359.784	4.38
360.571	4.38
361.359	3.38
362.146	3.38
362.933	5.38
363.72	5.38
364.507	3.38
365.294	4.38
366.081	6.38
366.867	5.38
367.654	3.38
368.44	4.38
369.227	4.38
370.013	4.38
370.8	4.38
371.586	4.38
372.372	5.38
373.158	4.38
373.944	3.38
374.73	4.38
375.516	4.38
376.302	6.38
377.088	6.38
377.873	5.38
378.659	6.38
379.445	3.38
380.23	4.38
381.015	5.38
381.801	4.38
382.586	3.38
383.371	4.38
384.156	5.38
384.941	5.38
385.726	4.38
386.511	4.38
387.296	5.38
388.08	6.38
388.865	3.38
389.649	6.38
390.434	4.38
391.218	2.38
392.003	1.38
392.787	5.38
393.571	6.38
394.355	5.38
395.139	8.38
395.923	5.38
396.707	5.38
397.491	7.38
398.274	6.38
399.058	7.38
399.842	5.38
400.625	8.38
401.408	6.38
402.192	7.38
402.975	6.38
403.758	7.38
404.541	7.38
405.324	7.38
406.107	8.38
406.89	6.38
407.673	6.38
408.456	8.38
409.238	6.38
410.021	8.38
410.803	6.38
411.586	8.38
412.368	6.38
413.151	6.38
413.933	8.38
414.715	9.38
415.497	9.38
416.279	7.38
417.061	9.38
417.843	10.38
418.624	8.38
419.406	10.38
420.188	6.38
420.969	8.38
421.751	8.38
422.532	8.38
423.313	11.38
424.095	13.38
424.876	10.38
425.657	10.38
426.438	11.38
427.219	12.38
428	13.38
428.78	15.38
429.561	10.38
430.342	13.38
431.122	14.38
431.903	15.38
432.683	17.38
433.464	15.38
434.244	15.38
435.024	15.38
435.804	16.38
436.584	16.38
437.364	19.38
438.144	19.38
438.924	19.38
439.704	21.38
440.483	23.38
441.263	26.38
442.042	23.38
442.822	27.38
443.601	28.38
444.38	29.38
445.16	31.38
445.939	33.38
446.718	40.38
447.497	40.38
448.276	40.38
449.054	46.38
449.833	51.38
450.612	54.38
451.391	60.38
452.169	65.38
452.948	69.38
453.726	81.38
454.504	86.38
455.282	95.38
456.061	107.38
456.839	118.38
457.617	129.38
458.395	144.38
459.172	164.38
459.95	179.38
460.728	198.38
461.506	216.38
462.283	242.38
463.061	272.38
463.838	302.38
464.615	335.38
465.393	381.38
466.17	416.38
466.947	464.38
467.724	519.38
468.501	574.38
469.278	645.38
470.055	722.38
470.831	793.38
471.608	872.38
472.385	971.38
473.161	1074.38
473.938	1191.38
474.714	1334.38
475.49	1446.38
476.266	1599.38
477.043	1767.38
477.819	1945.38
478.595	2161.38
479.371	2360.38
480.146	2581.38
480.922	2841.38
481.698	3116.38
482.473	3436.38
483.249	3748.38
484.024	4154.38
484.8	4524.38
485.575	4946.38
486.35	5442.38
487.126	5936.38
487.901	6478.38
488.676	7124.38
489.451	7740.38
490.225	8441.38
491	9197.38
491.775	10033.38
492.55	10867.38
493.324	11769.38
494.099	12685.38
494.873	13651.38
495.647	14723.38
496.422	15811.38
497.196	16916.38
497.97	17988.38
498.744	19134.38
499.518	20231.38
500.292	21309.38
501.066	22411.38
501.839	23346.38
502.613	24289.38
503.387	25078.38
504.16	25788.38
504.934	26155.38
505.707	26400.38
506.48	26506.38
507.253	26656.38
508.027	26459.38
508.8	26298.38
509.573	25972.38
510.346	25450.38
511.118	24822.38
511.891	24112.38
512.664	23303.38
513.437	22587.38
514.209	21713.38
514.982	20797.38
515.754	19925.38
516.526	19061.38
517.298	18273.38
518.071	17508.38
518.843	16828.38
519.615	16168.38
520.387	15590.38
521.159	14905.38
521.93	14324.38
522.702	13773.38
523.474	13214.38
524.245	12641.38
525.017	12128.38
525.788	11613.38
526.56	11101.38
527.331	10605.38
528.102	10183.38
528.873	9703.38
529.644	9200.38
530.415	8774.38
531.186	8369.38
531.957	7905.38
532.728	7552.38
533.498	7181.38
534.269	6768.38
535.039	6398.38
535.81	6040.38
536.58	5709.38
537.351	5380.38
538.121	5096.38
538.891	4828.38
539.661	4553.38
540.431	4286.38
541.201	4057.38
541.971	3869.38
542.741	3642.38
543.51	3472.38
544.28	3296.38
545.05	3157.38
545.819	2987.38
546.588	2857.38
547.358	2692.38
548.127	2578.38
548.896	2441.38
549.665	2333.38
550.434	2199.38
551.203	2072.38
551.972	1948.38
552.741	1861.38
553.51	1757.38
554.278	1660.38
555.047	1568.38
555.815	1476.38
556.584	1396.38
557.352	1339.38
558.121	1243.38
558.889	1179.38
559.657	1108.38
560.425	1056.38
561.193	990.38
561.961	933.38
562.729	887.38
563.496	836.38
564.264	791.38
565.032	753.38
565.799	711.38
566.567	682.38
567.334	632.38
568.101	593.38
568.869	559.38
569.636	533.38
570.403	506.38
571.17	467.38
571.937	442.38
572.704	423.38
573.471	402.38
574.237	377.38
575.004	354.38
575.771	334.38
576.537	308.38
577.303	293.38
578.07	281.38
578.836	257.38
579.602	242.38
580.368	230.38
581.134	217.38
581.9	205.38
582.666	200.38
583.432	189.38
584.198	173.38
584.964	168.38
585.729	160.38
586.495	148.38
587.26	143.38
588.025	137.38
588.791	131.38
589.556	120.38
590.321	118.38
591.086	108.38
591.851	101.38
592.616	95.38
593.381	87.38
594.146	88.38
594.911	83.38
595.675	84.38
596.44	74.38
597.204	72.38
597.969	69.38
598.733	66.38
599.497	65.38
600.261	59.38
601.025	60.38
601.79	53.38
602.553	52.38
603.317	50.38
604.081	48.38
604.845	48.38
605.609	46.38
606.372	42.38
607.136	41.38
607.899	38.38
608.662	37.38
609.426	36.38
610.189	33.38
610.952	33.38
611.715	33.38
612.478	30.38
613.241	28.38
614.004	29.38
614.767	26.38
615.529	27.38
616.292	23.38
617.055	25.38
617.817	23.38
618.579	24.38
619.342	22.38
620.104	21.38
620.866	22.38
621.628	18.38
622.39	20.38
623.152	17.38
623.914	14.38
624.676	17.38
625.438	17.38
626.199	15.38
626.961	15.38
627.722	14.38
628.484	13.38
629.245	13.38
630.006	11.38
630.768	9.38
631.529	16.38
632.29	12.38
633.051	12.38
633.812	11.38
634.573	11.38
635.333	11.38
636.094	11.38
636.855	9.38
637.615	7.38
638.376	9.38
639.136	10.38
639.896	7.38
640.657	9.38
641.417	6.38
642.177	8.38
642.937	7.38
643.697	7.38
644.457	11.38
645.216	6.38
645.976	8.38
646.736	7.38
647.495	8.38
648.255	5.38
649.014	6.38
649.774	6.38
650.533	7.38
651.292	4.38
652.051	6.38
652.81	4.38
653.569	8.38
654.328	5.38
655.087	10.38
655.846	2.38
656.604	4.38
657.363	4.38
658.121	2.38
658.88	7.38
659.638	6.38
660.397	5.38
661.155	5.38
661.913	4.38
662.671	4.38
663.429	4.38
664.187	5.38
664.945	5.38
665.703	4.38
666.46	2.38
667.218	1.38
667.976	6.38
668.733	4.38
669.49	4.38
670.248	5.38
671.005	3.38
671.762	5.38
672.519	2.38
673.276	5.38
674.033	2.38
674.79	6.38
675.547	4.38
676.304	2.38
677.06	4.38
677.817	3.38
678.574	5.38
679.33	3.38
680.086	4.38
680.843	3.38
681.599	3.38
682.355	4.38
683.111	2.38
683.867	5.38
684.623	5.38
685.379	3.38
686.135	5.38
686.89	3.38
687.646	6.38
688.402	1.38
689.157	4.38
689.912	4.38
690.668	1.38
691.423	4.38
692.178	4.38
692.933	4.38
693.688	1.38
694.443	2.38
695.198	2.38
695.953	0.38
696.708	3.38
697.462	1.38
698.217	3.38
698.972	1.38
699.726	3.38
700.48	5.38
701.235	1.38
701.989	3.38
702.743	3.38
703.497	2.38
704.251	1.38
705.005	1.38
705.759	4.38
706.513	1.38
707.266	3.38
708.02	3.38
708.774	2.38
709.527	2.38
710.28	0.38
711.034	6.38
711.787	4.38
712.54	1.38
713.293	3.38
714.046	3.38
714.799	2.38
715.552	3.38
716.305	2.38
717.058	3.38
717.81	4.38
718.563	3.38
719.315	-0.62
720.068	3.38
720.82	3.38
721.573	4.38
722.325	3.38
723.077	2.38
723.829	4.38
724.581	2.38
725.333	5.38
726.085	3.38
726.836	3.38
727.588	4.38
728.34	3.38
729.091	1.38
729.843	2.38
730.594	1.38
731.346	4.38
732.097	5.38
732.848	6.38
733.599	2.38
734.35	5.38
735.101	2.38
735.852	3.38
736.603	3.38
737.354	4.38
738.104	3.38
738.855	2.38
739.605	3.38
740.356	5.38
741.106	5.38
741.856	1.38
742.607	4.38
743.357	3.38
744.107	4.38
744.857	5.38
745.607	6.38
746.357	3.38
747.106	3.38
747.856	2.38
748.606	6.38
749.355	4.38
750.105	4.38
750.854	6.38
751.603	4.38
752.353	5.38
753.102	3.38
753.851	3.38
754.6	5.38
755.349	4.38
756.098	5.38
756.847	4.38
757.595	3.38
758.344	4.38
759.093	5.38
759.841	2.38
760.589	7.38
761.338	5.38
762.086	1.38
762.834	5.38
763.582	4.38
764.331	8.38
765.079	5.38
765.826	4.38
766.574	7.38
767.322	5.38
768.07	3.38
768.817	6.38
769.565	7.38
770.312	5.38
771.06	5.38
771.807	8.38
772.554	6.38
773.302	5.38
774.049	6.38
774.796	7.38
775.543	9.38
776.29	8.38
777.036	9.38
777.783	6.38
778.53	9.38
779.276	8.38
780.023	7.38
780.769	6.38
781.516	8.38
782.262	9.38
783.008	8.38
783.754	9.38
784.5	7.38
785.246	7.38
785.992	7.38
786.738	9.38
787.484	8.38
788.23	7.38
788.975	8.38
789.721	7.38
790.466	6.38
791.212	10.38
791.957	7.38
792.702	10.38
793.447	8.38
794.193	6.38
794.938	6.38
795.683	7.38
796.427	9.38
797.172	6.38
797.917	7.38
798.662	7.38
799.406	7.38
800.151	8.38
800.895	4.38
801.64	7.38
802.384	8.38
803.128	7.38
803.872	7.38
804.616	7.38
805.36	6.38
806.104	5.38
806.848	7.38
807.592	6.38
808.336	6.38
809.079	3.38
809.823	6.38
810.566	3.38
811.31	3.38
812.053	4.38
812.796	6.38
813.539	5.38
814.283	3.38
815.026	2.38
815.769	3.38
816.511	2.38
817.254	4.38
817.997	3.38
818.74	4.38
819.482	5.38
820.225	3.38
820.967	5.38
821.71	3.38
822.452	1.38
823.194	4.38
823.936	3.38
824.678	3.38
825.42	4.38
826.162	5.38
826.904	2.38
827.646	3.38
828.388	3.38
829.129	2.38
829.871	3.38
830.612	2.38
831.354	1.38
832.095	5.38
832.836	2.38
833.577	4.38
834.319	1.38
835.06	1.38
835.801	2.38
836.542	2.38
837.282	2.38
838.023	0.38
838.764	5.38
839.504	3.38
840.245	4.38
840.985	4.38
841.726	1.38
842.466	3.38
843.206	1.38
843.946	3.38
844.687	2.38
845.427	2.38
846.166	2.38
846.906	0.38
847.646	2.38
848.386	1.38
849.125	2.38
849.865	2.38
850.605	2.38
851.344	1.38
852.083	1.38
852.823	3.38
853.562	2.38
854.301	3.38
855.04	1.38
855.779	4.38
856.518	2.38
857.257	0.38
857.995	3.38
858.734	2.38
859.473	1.38
860.211	1.38
860.95	1.38
861.688	2.38
862.426	3.38
863.165	1.38
863.903	0.38
864.641	0.38
865.379	2.38
866.117	1.38
866.855	0.38
867.593	0.38
868.33	0.38
869.068	1.38
869.806	2.38
870.543	1.38
871.28	1.38
872.018	4.38
872.755	-1.62
873.492	0.38
874.229	-0.62
874.967	0.38
875.703	1.38
876.44	1.38
877.177	0.38
877.914	-0.62
878.651	4.38
879.387	0.38
880.124	-2.62
880.86	1.38
881.597	0.38
882.333	0.38
883.069	0.38
883.806	0.38
884.542	-0.62
885.278	2.38
886.014	0.38
886.749	-2.62
887.485	0.38
888.221	-0.62
888.957	1.38
889.692	1.38
890.428	-0.62
891.163	1.38
891.899	-1.62
892.634	-2.62
893.369	-0.62
894.104	0.38
894.839	0.38
895.574	-0.62
896.309	1.38
897.044	-1.62
897.779	0.38
898.514	1.38
899.248	0.38
899.983	-0.62
900.717	0.38
901.452	1.38
902.186	-0.62
902.92	0.38
903.654	-0.62
904.389	-0.62
905.123	1.38
905.857	-1.62
906.59	1.38
907.324	0.38
908.058	-0.62
908.792	1.38
909.525	-2.62
910.259	0.38
910.992	-0.62
911.726	1.38
912.459	-0.62
913.192	-2.62
913.925	1.38
914.658	-0.62
915.391	0.38
916.124	-0.62
916.857	0.38
917.59	-1.62
918.323	-1.62
919.055	-0.62
919.788	-1.62
920.521	0.38
921.253	-0.62
921.985	-2.62
922.718	-0.62
923.45	0.38
924.182	2.38
924.914	-0.62
925.646	0.38
926.378	0.38
927.11	-1.62
927.841	-0.62
928.573	-2.62
929.305	0.38
930.036	0.38
930.768	1.38
931.499	-2.62
932.23	0.38
932.962	-2.62
933.693	-0.62
934.424	0.38
935.155	1.38
935.886	0.38
936.617	1.38
937.348	-1.62
938.078	-0.62
938.809	0.38
939.54	0.38
940.27	-1.62
941.001	0.38
941.731	0.38
942.461	-0.62
943.191	1.38
943.922	1.38
944.652	1.38
945.382	-0.62
946.112	-0.62
946.841	1.38
947.571	-1.62
948.301	2.38
949.031	0.38
949.76	0.38
950.49	-0.62
951.219	-0.62
951.948	2.38
952.678	-1.62
953.407	-1.62
954.136	-0.62
954.865	-2.62
955.594	0.38
956.323	-2.62
957.052	0.38
957.78	0.38
958.509	-2.62
959.238	-1.62
959.966	-2.62
960.695	1.38
961.423	-1.62
962.151	1.38
962.88	-2.62
963.608	0.38
964.336	0.38
965.064	0.38
965.792	-1.62
966.52	-1.62
967.247	1.38
967.975	-2.62
968.703	-2.62
969.43	0.38
970.158	0.38
970.885	1.38
971.613	-1.62
972.34	1.38
973.067	-0.62
973.794	1.38
974.521	-0.62
975.248	0.38
975.975	-0.62
976.702	0.38
977.429	0.38
978.156	0.38
978.882	0.38
979.609	0.38
980.335	-3.62
981.062	-1.62
981.788	-0.62
982.514	-1.62
983.24	-1.62
983.967	-2.62
984.693	3.38
985.419	-0.62
986.144	-1.62
986.87	0.38
987.596	1.38
988.322	2.38
989.047	-0.62
989.773	-1.62
990.498	1.38
991.224	-1.62
991.949	-1.62
992.674	0.38
993.399	1.38
994.124	-0.62
994.849	0.38
995.574	0.38
996.299	0.38
997.024	-2.62
997.749	-1.62
998.473	-0.62
999.198	-0.62
999.922	1.38
1000.647	-1.62
1001.371	4.38
1002.095	-1.62
1002.82	-0.62
1003.544	0.38
1004.268	0.38
1004.992	-0.62
1005.716	2.38
1006.439	4.38
1007.163	1.38
1007.887	2.38
1008.611	-2.62
1009.334	-0.62
1010.058	0.38
1010.781	-0.62
1011.504	-2.62
1012.228	-0.62
1012.951	-0.62
1013.674	-1.62
1014.397	-1.62
1015.12	1.38
