节点500_285_QEPB04081__844__15-09-35-726.txt的数据

Date: Wed Nov 12 15:09:35 CST 2025
User: PC
Spectrometer: QEPB0408
触发模式: 0
积分时间 (秒): 1.000000E-2
Scans to average: 1
启用暗噪声校正: true
启用非线性校正: false
滑动平均宽度: 0
X轴模式: Wavelengths
Number of Pixels in Spectrum: 1044
>>>>>Begin Spectral Data<<<<<
220.843	1.38
221.644	2.38
222.444	2.38
223.244	2.38
224.045	1.38
224.845	2.38
225.645	2.38
226.445	5.38
227.245	2.38
228.045	1.38
228.845	1.38
229.645	1.38
230.444	1.38
231.244	0.38
232.043	4.38
232.843	2.38
233.642	4.38
234.442	2.38
235.241	2.38
236.04	5.38
236.839	2.38
237.638	3.38
238.437	2.38
239.236	5.38
240.035	3.38
240.833	3.38
241.632	3.38
242.43	3.38
243.229	3.38
244.027	6.38
244.826	4.38
245.624	7.38
246.422	3.38
247.22	7.38
248.018	2.38
248.816	5.38
249.614	7.38
250.412	6.38
251.21	6.38
252.007	5.38
252.805	6.38
253.602	5.38
254.4	7.38
255.197	8.38
255.994	3.38
256.791	6.38
257.589	9.38
258.386	10.38
259.183	8.38
259.979	9.38
260.776	11.38
261.573	8.38
262.37	7.38
263.166	9.38
263.963	8.38
264.759	11.38
265.556	11.38
266.352	10.38
267.148	7.38
267.944	14.38
268.74	10.38
269.536	10.38
270.332	13.38
271.128	14.38
271.924	10.38
272.719	13.38
273.515	15.38
274.311	13.38
275.106	13.38
275.901	15.38
276.697	13.38
277.492	14.38
278.287	15.38
279.082	15.38
279.877	14.38
280.672	19.38
281.467	18.38
282.262	18.38
283.056	16.38
283.851	18.38
284.646	17.38
285.44	14.38
286.234	20.38
287.029	18.38
287.823	14.38
288.617	17.38
289.411	17.38
290.205	17.38
290.999	16.38
291.793	16.38
292.587	16.38
293.381	14.38
294.174	16.38
294.968	14.38
295.761	15.38
296.555	14.38
297.348	12.38
298.141	14.38
298.935	15.38
299.728	15.38
300.521	13.38
301.314	13.38
302.107	12.38
302.899	12.38
303.692	12.38
304.485	10.38
305.277	12.38
306.07	11.38
306.862	15.38
307.655	11.38
308.447	15.38
309.239	11.38
310.031	10.38
310.823	12.38
311.615	9.38
312.407	8.38
313.199	10.38
313.991	9.38
314.783	10.38
315.574	9.38
316.366	8.38
317.157	8.38
317.949	9.38
318.74	9.38
319.531	7.38
320.322	8.38
321.113	7.38
321.904	10.38
322.695	7.38
323.486	6.38
324.277	7.38
325.068	2.38
325.858	7.38
326.649	7.38
327.439	5.38
328.23	7.38
329.02	6.38
329.81	7.38
330.6	3.38
331.391	7.38
332.181	5.38
332.971	6.38
333.76	6.38
334.55	7.38
335.34	6.38
336.13	4.38
336.919	8.38
337.709	7.38
338.498	6.38
339.287	6.38
340.077	5.38
340.866	7.38
341.655	6.38
342.444	6.38
343.233	6.38
344.022	9.38
344.811	4.38
345.6	6.38
346.388	7.38
347.177	6.38
347.965	8.38
348.754	5.38
349.542	5.38
350.33	6.38
351.119	8.38
351.907	6.38
352.695	7.38
353.483	8.38
354.271	4.38
355.059	7.38
355.846	5.38
356.634	5.38
357.422	7.38
358.209	5.38
358.997	6.38
359.784	5.38
360.571	4.38
361.359	6.38
362.146	6.38
362.933	4.38
363.72	4.38
364.507	3.38
365.294	5.38
366.081	5.38
366.867	3.38
367.654	6.38
368.44	4.38
369.227	4.38
370.013	3.38
370.8	5.38
371.586	5.38
372.372	6.38
373.158	3.38
373.944	5.38
374.73	4.38
375.516	6.38
376.302	6.38
377.088	3.38
377.873	4.38
378.659	5.38
379.445	1.38
380.23	3.38
381.015	4.38
381.801	5.38
382.586	4.38
383.371	5.38
384.156	4.38
384.941	5.38
385.726	4.38
386.511	5.38
387.296	5.38
388.08	7.38
388.865	4.38
389.649	6.38
390.434	5.38
391.218	5.38
392.003	4.38
392.787	6.38
393.571	4.38
394.355	6.38
395.139	8.38
395.923	3.38
396.707	8.38
397.491	7.38
398.274	4.38
399.058	6.38
399.842	6.38
400.625	7.38
401.408	4.38
402.192	6.38
402.975	7.38
403.758	7.38
404.541	7.38
405.324	6.38
406.107	5.38
406.89	6.38
407.673	5.38
408.456	8.38
409.238	8.38
410.021	6.38
410.803	8.38
411.586	9.38
412.368	7.38
413.151	8.38
413.933	9.38
414.715	9.38
415.497	6.38
416.279	7.38
417.061	8.38
417.843	9.38
418.624	8.38
419.406	11.38
420.188	9.38
420.969	10.38
421.751	10.38
422.532	10.38
423.313	7.38
424.095	10.38
424.876	13.38
425.657	10.38
426.438	10.38
427.219	11.38
428	12.38
428.78	13.38
429.561	12.38
430.342	13.38
431.122	13.38
431.903	13.38
432.683	15.38
433.464	14.38
434.244	16.38
435.024	17.38
435.804	17.38
436.584	20.38
437.364	20.38
438.144	19.38
438.924	20.38
439.704	21.38
440.483	23.38
441.263	23.38
442.042	23.38
442.822	27.38
443.601	28.38
444.38	29.38
445.16	33.38
445.939	33.38
446.718	39.38
447.497	41.38
448.276	45.38
449.054	49.38
449.833	52.38
450.612	60.38
451.391	67.38
452.169	69.38
452.948	75.38
453.726	87.38
454.504	99.38
455.282	103.38
456.061	115.38
456.839	122.38
457.617	134.38
458.395	153.38
459.172	167.38
459.95	192.38
460.728	219.38
461.506	237.38
462.283	254.38
463.061	292.38
463.838	324.38
464.615	356.38
465.393	402.38
466.17	436.38
466.947	492.38
467.724	548.38
468.501	613.38
469.278	662.38
470.055	754.38
470.831	819.38
471.608	916.38
472.385	1010.38
473.161	1102.38
473.938	1218.38
474.714	1329.38
475.49	1475.38
476.266	1620.38
477.043	1768.38
477.819	1926.38
478.595	2110.38
479.371	2332.38
480.146	2547.38
480.922	2776.38
481.698	3025.38
482.473	3312.38
483.249	3651.38
484.024	3942.38
484.8	4318.38
485.575	4725.38
486.35	5113.38
487.126	5573.38
487.901	6048.38
488.676	6584.38
489.451	7164.38
490.225	7788.38
491	8406.38
491.775	9191.38
492.55	9904.38
493.324	10650.38
494.099	11425.38
494.873	12307.38
495.647	13201.38
496.422	14141.38
497.196	15126.38
497.97	16126.38
498.744	17192.38
499.518	18233.38
500.292	19201.38
501.066	20149.38
501.839	21092.38
502.613	22041.38
503.387	22845.38
504.16	23580.38
504.934	24064.38
505.707	24387.38
506.48	24732.38
507.253	24825.38
508.027	24868.38
508.8	24918.38
509.573	24730.38
510.346	24422.38
511.118	23932.38
511.891	23450.38
512.664	22852.38
513.437	22188.38
514.209	21356.38
514.982	20670.38
515.754	19889.38
516.526	19091.38
517.298	18313.38
518.071	17616.38
518.843	16968.38
519.615	16289.38
520.387	15672.38
521.159	15044.38
521.93	14456.38
522.702	13875.38
523.474	13285.38
524.245	12722.38
525.017	12229.38
525.788	11767.38
526.56	11235.38
527.331	10714.38
528.102	10304.38
528.873	9811.38
529.644	9363.38
530.415	8991.38
531.186	8552.38
531.957	8154.38
532.728	7794.38
533.498	7388.38
534.269	6993.38
535.039	6632.38
535.81	6294.38
536.58	5896.38
537.351	5567.38
538.121	5285.38
538.891	5000.38
539.661	4731.38
540.431	4515.38
541.201	4247.38
541.971	4028.38
542.741	3824.38
543.51	3624.38
544.28	3445.38
545.05	3263.38
545.819	3121.38
546.588	2976.38
547.358	2815.38
548.127	2706.38
548.896	2559.38
549.665	2423.38
550.434	2288.38
551.203	2174.38
551.972	2046.38
552.741	1942.38
553.51	1842.38
554.278	1743.38
555.047	1649.38
555.815	1561.38
556.584	1466.38
557.352	1394.38
558.121	1321.38
558.889	1245.38
559.657	1182.38
560.425	1130.38
561.193	1052.38
561.961	993.38
562.729	934.38
563.496	894.38
564.264	836.38
565.032	791.38
565.799	749.38
566.567	697.38
567.334	669.38
568.101	636.38
568.869	590.38
569.636	567.38
570.403	528.38
571.17	492.38
571.937	468.38
572.704	449.38
573.471	417.38
574.237	397.38
575.004	372.38
575.771	350.38
576.537	329.38
577.303	308.38
578.07	300.38
578.836	276.38
579.602	262.38
580.368	246.38
581.134	234.38
581.9	220.38
582.666	211.38
583.432	196.38
584.198	190.38
584.964	178.38
585.729	167.38
586.495	165.38
587.26	153.38
588.025	147.38
588.791	139.38
589.556	128.38
590.321	124.38
591.086	123.38
591.851	112.38
592.616	103.38
593.381	98.38
594.146	93.38
594.911	90.38
595.675	85.38
596.44	83.38
597.204	80.38
597.969	74.38
598.733	73.38
599.497	68.38
600.261	64.38
601.025	61.38
601.79	58.38
602.553	56.38
603.317	55.38
604.081	48.38
604.845	50.38
605.609	47.38
606.372	44.38
607.136	44.38
607.899	44.38
608.662	42.38
609.426	37.38
610.189	39.38
610.952	34.38
611.715	33.38
612.478	34.38
613.241	32.38
614.004	29.38
614.767	26.38
615.529	29.38
616.292	25.38
617.055	26.38
617.817	23.38
618.579	26.38
619.342	21.38
620.104	22.38
620.866	20.38
621.628	23.38
622.39	22.38
623.152	23.38
623.914	18.38
624.676	20.38
625.438	16.38
626.199	19.38
626.961	16.38
627.722	16.38
628.484	16.38
629.245	14.38
630.006	14.38
630.768	15.38
631.529	13.38
632.29	15.38
633.051	13.38
633.812	13.38
634.573	12.38
635.333	12.38
636.094	13.38
636.855	10.38
637.615	9.38
638.376	10.38
639.136	11.38
639.896	10.38
640.657	10.38
641.417	9.38
642.177	9.38
642.937	11.38
643.697	10.38
644.457	7.38
645.216	12.38
645.976	9.38
646.736	10.38
647.495	5.38
648.255	8.38
649.014	7.38
649.774	4.38
650.533	8.38
651.292	5.38
652.051	7.38
652.81	5.38
653.569	7.38
654.328	5.38
655.087	4.38
655.846	6.38
656.604	7.38
657.363	6.38
658.121	6.38
658.88	6.38
659.638	7.38
660.397	6.38
661.155	7.38
661.913	5.38
662.671	7.38
663.429	5.38
664.187	5.38
664.945	6.38
665.703	4.38
666.46	7.38
667.218	5.38
667.976	7.38
668.733	6.38
669.49	5.38
670.248	4.38
671.005	2.38
671.762	6.38
672.519	4.38
673.276	3.38
674.033	4.38
674.79	5.38
675.547	4.38
676.304	4.38
677.06	4.38
677.817	3.38
678.574	3.38
679.33	6.38
680.086	3.38
680.843	4.38
681.599	2.38
682.355	4.38
683.111	4.38
683.867	2.38
684.623	4.38
685.379	2.38
686.135	2.38
686.89	2.38
687.646	3.38
688.402	2.38
689.157	5.38
689.912	2.38
690.668	1.38
691.423	4.38
692.178	0.38
692.933	4.38
693.688	5.38
694.443	5.38
695.198	6.38
695.953	1.38
696.708	6.38
697.462	2.38
698.217	5.38
698.972	4.38
699.726	4.38
700.48	3.38
701.235	3.38
701.989	7.38
702.743	4.38
703.497	2.38
704.251	2.38
705.005	1.38
705.759	4.38
706.513	1.38
707.266	2.38
708.02	4.38
708.774	6.38
709.527	4.38
710.28	5.38
711.034	2.38
711.787	3.38
712.54	4.38
713.293	3.38
714.046	3.38
714.799	2.38
715.552	2.38
716.305	3.38
717.058	2.38
717.81	2.38
718.563	3.38
719.315	4.38
720.068	4.38
720.82	4.38
721.573	4.38
722.325	6.38
723.077	3.38
723.829	4.38
724.581	3.38
725.333	3.38
726.085	2.38
726.836	3.38
727.588	5.38
728.34	4.38
729.091	4.38
729.843	1.38
730.594	5.38
731.346	2.38
732.097	2.38
732.848	5.38
733.599	4.38
734.35	3.38
735.101	5.38
735.852	4.38
736.603	5.38
737.354	3.38
738.104	4.38
738.855	5.38
739.605	3.38
740.356	2.38
741.106	5.38
741.856	4.38
742.607	6.38
743.357	6.38
744.107	3.38
744.857	6.38
745.607	5.38
746.357	3.38
747.106	5.38
747.856	6.38
748.606	4.38
749.355	4.38
750.105	7.38
750.854	3.38
751.603	6.38
752.353	6.38
753.102	5.38
753.851	5.38
754.6	3.38
755.349	4.38
756.098	3.38
756.847	4.38
757.595	6.38
758.344	4.38
759.093	5.38
759.841	5.38
760.589	5.38
761.338	5.38
762.086	3.38
762.834	5.38
763.582	7.38
764.331	5.38
765.079	3.38
765.826	7.38
766.574	6.38
767.322	5.38
768.07	4.38
768.817	7.38
769.565	8.38
770.312	7.38
771.06	8.38
771.807	8.38
772.554	7.38
773.302	8.38
774.049	7.38
774.796	7.38
775.543	7.38
776.29	6.38
777.036	9.38
777.783	7.38
778.53	7.38
779.276	6.38
780.023	9.38
780.769	8.38
781.516	6.38
782.262	8.38
783.008	9.38
783.754	7.38
784.5	6.38
785.246	6.38
785.992	6.38
786.738	7.38
787.484	10.38
788.23	7.38
788.975	7.38
789.721	6.38
790.466	10.38
791.212	7.38
791.957	9.38
792.702	6.38
793.447	9.38
794.193	8.38
794.938	7.38
795.683	7.38
796.427	10.38
797.172	6.38
797.917	7.38
798.662	7.38
799.406	5.38
800.151	7.38
800.895	6.38
801.64	9.38
802.384	8.38
803.128	6.38
803.872	7.38
804.616	7.38
805.36	5.38
806.104	3.38
806.848	7.38
807.592	5.38
808.336	6.38
809.079	5.38
809.823	8.38
810.566	5.38
811.31	4.38
812.053	4.38
812.796	6.38
813.539	7.38
814.283	6.38
815.026	3.38
815.769	5.38
816.511	4.38
817.254	4.38
817.997	2.38
818.74	5.38
819.482	5.38
820.225	7.38
820.967	3.38
821.71	4.38
822.452	5.38
823.194	5.38
823.936	5.38
824.678	4.38
825.42	3.38
826.162	3.38
826.904	5.38
827.646	3.38
828.388	4.38
829.129	5.38
829.871	2.38
830.612	4.38
831.354	4.38
832.095	5.38
832.836	3.38
833.577	2.38
834.319	4.38
835.06	5.38
835.801	4.38
836.542	3.38
837.282	3.38
838.023	4.38
838.764	3.38
839.504	3.38
840.245	4.38
840.985	5.38
841.726	5.38
842.466	4.38
843.206	1.38
843.946	1.38
844.687	2.38
845.427	3.38
846.166	1.38
846.906	4.38
847.646	2.38
848.386	3.38
849.125	2.38
849.865	3.38
850.605	1.38
851.344	1.38
852.083	3.38
852.823	5.38
853.562	4.38
854.301	4.38
855.04	2.38
855.779	1.38
856.518	1.38
857.257	2.38
857.995	1.38
858.734	2.38
859.473	2.38
860.211	1.38
860.95	0.38
861.688	1.38
862.426	3.38
863.165	2.38
863.903	3.38
864.641	2.38
865.379	3.38
866.117	1.38
866.855	-0.62
867.593	1.38
868.33	0.38
869.068	2.38
869.806	2.38
870.543	2.38
871.28	2.38
872.018	3.38
872.755	2.38
873.492	0.38
874.229	4.38
874.967	1.38
875.703	4.38
876.44	3.38
877.177	0.38
877.914	0.38
878.651	0.38
879.387	2.38
880.124	0.38
880.86	-0.62
881.597	1.38
882.333	2.38
883.069	2.38
883.806	0.38
884.542	1.38
885.278	0.38
886.014	1.38
886.749	1.38
887.485	0.38
888.221	1.38
888.957	-0.62
889.692	-1.62
890.428	1.38
891.163	-0.62
891.899	-1.62
892.634	0.38
893.369	-1.62
894.104	1.38
894.839	0.38
895.574	0.38
896.309	2.38
897.044	-1.62
897.779	0.38
898.514	3.38
899.248	2.38
899.983	2.38
900.717	0.38
901.452	1.38
902.186	-0.62
902.92	-0.62
903.654	1.38
904.389	1.38
905.123	1.38
905.857	-0.62
906.59	-1.62
907.324	3.38
908.058	3.38
908.792	2.38
909.525	1.38
910.259	-0.62
910.992	0.38
911.726	0.38
912.459	1.38
913.192	-2.62
913.925	0.38
914.658	0.38
915.391	1.38
916.124	1.38
916.857	-1.62
917.59	0.38
918.323	0.38
919.055	-0.62
919.788	1.38
920.521	-1.62
921.253	-0.62
921.985	-0.62
922.718	2.38
923.45	2.38
924.182	0.38
924.914	1.38
925.646	-1.62
926.378	1.38
927.11	0.38
927.841	-1.62
928.573	0.38
929.305	-0.62
930.036	-0.62
930.768	-1.62
931.499	0.38
932.23	0.38
932.962	-0.62
933.693	1.38
934.424	-0.62
935.155	1.38
935.886	-0.62
936.617	-0.62
937.348	1.38
938.078	1.38
938.809	1.38
939.54	-0.62
940.27	2.38
941.001	1.38
941.731	0.38
942.461	1.38
943.191	1.38
943.922	0.38
944.652	0.38
945.382	1.38
946.112	0.38
946.841	0.38
947.571	1.38
948.301	-0.62
949.031	-0.62
949.76	1.38
950.49	1.38
951.219	0.38
951.948	0.38
952.678	2.38
953.407	-1.62
954.136	0.38
954.865	-0.62
955.594	2.38
956.323	-0.62
957.052	1.38
957.78	1.38
958.509	1.38
959.238	-0.62
959.966	-1.62
960.695	0.38
961.423	1.38
962.151	0.38
962.88	0.38
963.608	0.38
964.336	2.38
965.064	-0.62
965.792	2.38
966.52	-1.62
967.247	1.38
967.975	1.38
968.703	0.38
969.43	-1.62
970.158	-1.62
970.885	-0.62
971.613	1.38
972.34	0.38
973.067	1.38
973.794	-1.62
974.521	2.38
975.248	1.38
975.975	-1.62
976.702	0.38
977.429	0.38
978.156	2.38
978.882	0.38
979.609	1.38
980.335	-0.62
981.062	-0.62
981.788	-1.62
982.514	1.38
983.24	1.38
983.967	0.38
984.693	0.38
985.419	1.38
986.144	-1.62
986.87	0.38
987.596	1.38
988.322	3.38
989.047	-1.62
989.773	0.38
990.498	-0.62
991.224	0.38
991.949	0.38
992.674	-1.62
993.399	0.38
994.124	0.38
994.849	-0.62
995.574	1.38
996.299	0.38
997.024	2.38
997.749	2.38
998.473	0.38
999.198	1.38
999.922	1.38
1000.647	2.38
1001.371	4.38
1002.095	0.38
1002.82	-1.62
1003.544	-1.62
1004.268	1.38
1004.992	2.38
1005.716	0.38
1006.439	1.38
1007.163	1.38
1007.887	1.38
1008.611	0.38
1009.334	-1.62
1010.058	-1.62
1010.781	1.38
1011.504	-0.62
1012.228	-1.62
1012.951	0.38
1013.674	-0.62
1014.397	0.38
1015.12	-1.62
