节点500_285_QEPB04081__44__14-56-17-402.txt的数据

Date: Wed Nov 12 14:56:17 CST 2025
User: PC
Spectrometer: QEPB0408
触发模式: 0
积分时间 (秒): 1.000000E-2
Scans to average: 1
启用暗噪声校正: true
启用非线性校正: false
滑动平均宽度: 0
X轴模式: Wavelengths
Number of Pixels in Spectrum: 1044
>>>>>Begin Spectral Data<<<<<
220.843	2.12
221.644	2.12
222.444	3.12
223.244	3.12
224.045	4.12
224.845	0.12
225.645	4.12
226.445	2.12
227.245	1.12
228.045	3.12
228.845	1.12
229.645	1.12
230.444	2.12
231.244	3.12
232.043	3.12
232.843	1.12
233.642	3.12
234.442	3.12
235.241	1.12
236.04	3.12
236.839	3.12
237.638	3.12
238.437	3.12
239.236	5.12
240.035	5.12
240.833	6.12
241.632	5.12
242.43	4.12
243.229	5.12
244.027	3.12
244.826	5.12
245.624	4.12
246.422	4.12
247.22	8.12
248.018	7.12
248.816	7.12
249.614	8.12
250.412	8.12
251.21	7.12
252.007	5.12
252.805	7.12
253.602	7.12
254.4	8.12
255.197	7.12
255.994	8.12
256.791	8.12
257.589	9.12
258.386	8.12
259.183	10.12
259.979	11.12
260.776	10.12
261.573	10.12
262.37	11.12
263.166	11.12
263.963	12.12
264.759	12.12
265.556	13.12
266.352	15.12
267.148	13.12
267.944	15.12
268.74	16.12
269.536	16.12
270.332	17.12
271.128	16.12
271.924	20.12
272.719	15.12
273.515	19.12
274.311	17.12
275.106	19.12
275.901	19.12
276.697	15.12
277.492	19.12
278.287	20.12
279.082	20.12
279.877	21.12
280.672	19.12
281.467	22.12
282.262	17.12
283.056	20.12
283.851	20.12
284.646	19.12
285.44	20.12
286.234	19.12
287.029	20.12
287.823	20.12
288.617	21.12
289.411	19.12
290.205	18.12
290.999	17.12
291.793	17.12
292.587	18.12
293.381	20.12
294.174	18.12
294.968	20.12
295.761	16.12
296.555	14.12
297.348	14.12
298.141	14.12
298.935	17.12
299.728	13.12
300.521	15.12
301.314	12.12
302.107	12.12
302.899	14.12
303.692	13.12
304.485	14.12
305.277	15.12
306.07	15.12
306.862	13.12
307.655	9.12
308.447	9.12
309.239	11.12
310.031	12.12
310.823	13.12
311.615	9.12
312.407	10.12
313.199	11.12
313.991	10.12
314.783	11.12
315.574	15.12
316.366	8.12
317.157	6.12
317.949	12.12
318.74	9.12
319.531	8.12
320.322	8.12
321.113	9.12
321.904	7.12
322.695	7.12
323.486	9.12
324.277	7.12
325.068	6.12
325.858	7.12
326.649	5.12
327.439	7.12
328.23	6.12
329.02	6.12
329.81	7.12
330.6	5.12
331.391	6.12
332.181	7.12
332.971	7.12
333.76	6.12
334.55	5.12
335.34	7.12
336.13	7.12
336.919	8.12
337.709	6.12
338.498	8.12
339.287	8.12
340.077	6.12
340.866	9.12
341.655	4.12
342.444	7.12
343.233	7.12
344.022	7.12
344.811	6.12
345.6	7.12
346.388	8.12
347.177	6.12
347.965	6.12
348.754	6.12
349.542	5.12
350.33	7.12
351.119	6.12
351.907	7.12
352.695	7.12
353.483	5.12
354.271	9.12
355.059	7.12
355.846	7.12
356.634	8.12
357.422	6.12
358.209	6.12
358.997	5.12
359.784	4.12
360.571	7.12
361.359	5.12
362.146	6.12
362.933	6.12
363.72	7.12
364.507	4.12
365.294	4.12
366.081	5.12
366.867	6.12
367.654	6.12
368.44	2.12
369.227	5.12
370.013	8.12
370.8	6.12
371.586	4.12
372.372	8.12
373.158	6.12
373.944	4.12
374.73	6.12
375.516	5.12
376.302	6.12
377.088	2.12
377.873	6.12
378.659	7.12
379.445	4.12
380.23	5.12
381.015	5.12
381.801	7.12
382.586	6.12
383.371	5.12
384.156	6.12
384.941	7.12
385.726	6.12
386.511	7.12
387.296	4.12
388.08	6.12
388.865	6.12
389.649	8.12
390.434	6.12
391.218	6.12
392.003	9.12
392.787	7.12
393.571	7.12
394.355	4.12
395.139	5.12
395.923	7.12
396.707	5.12
397.491	6.12
398.274	6.12
399.058	7.12
399.842	8.12
400.625	5.12
401.408	8.12
402.192	7.12
402.975	9.12
403.758	5.12
404.541	10.12
405.324	7.12
406.107	7.12
406.89	6.12
407.673	6.12
408.456	8.12
409.238	5.12
410.021	8.12
410.803	10.12
411.586	8.12
412.368	9.12
413.151	8.12
413.933	10.12
414.715	10.12
415.497	7.12
416.279	8.12
417.061	9.12
417.843	9.12
418.624	9.12
419.406	10.12
420.188	11.12
420.969	11.12
421.751	15.12
422.532	10.12
423.313	10.12
424.095	12.12
424.876	12.12
425.657	11.12
426.438	10.12
427.219	10.12
428	13.12
428.78	13.12
429.561	15.12
430.342	15.12
431.122	15.12
431.903	14.12
432.683	15.12
433.464	16.12
434.244	16.12
435.024	18.12
435.804	13.12
436.584	19.12
437.364	19.12
438.144	19.12
438.924	25.12
439.704	21.12
440.483	24.12
441.263	23.12
442.042	27.12
442.822	24.12
443.601	26.12
444.38	29.12
445.16	32.12
445.939	32.12
446.718	34.12
447.497	38.12
448.276	38.12
449.054	40.12
449.833	45.12
450.612	46.12
451.391	53.12
452.169	62.12
452.948	59.12
453.726	70.12
454.504	80.12
455.282	83.12
456.061	90.12
456.839	100.12
457.617	110.12
458.395	118.12
459.172	140.12
459.95	145.12
460.728	165.12
461.506	185.12
462.283	203.12
463.061	233.12
463.838	260.12
464.615	295.12
465.393	327.12
466.17	360.12
466.947	408.12
467.724	460.12
468.501	508.12
469.278	578.12
470.055	640.12
470.831	719.12
471.608	800.12
472.385	897.12
473.161	982.12
473.938	1106.12
474.714	1229.12
475.49	1369.12
476.266	1509.12
477.043	1705.12
477.819	1892.12
478.595	2089.12
479.371	2328.12
480.146	2577.12
480.922	2852.12
481.698	3203.12
482.473	3520.12
483.249	3926.12
484.024	4338.12
484.8	4783.12
485.575	5310.12
486.35	5909.12
487.126	6462.12
487.901	7145.12
488.676	7882.12
489.451	8679.12
490.225	9561.12
491	10499.12
491.775	11478.12
492.55	12576.12
493.324	13672.12
494.099	14765.12
494.873	16020.12
495.647	17275.12
496.422	18577.12
497.196	19875.12
497.97	21241.12
498.744	22505.12
499.518	23785.12
500.292	24911.12
501.066	25988.12
501.839	26848.12
502.613	27705.12
503.387	28470.12
504.16	28870.12
504.934	29118.12
505.707	29117.12
506.48	29001.12
507.253	28623.12
508.027	28137.12
508.8	27589.12
509.573	26907.12
510.346	26016.12
511.118	25147.12
511.891	24125.12
512.664	23171.12
513.437	22167.12
514.209	21163.12
514.982	20221.12
515.754	19288.12
516.526	18371.12
517.298	17550.12
518.071	16771.12
518.843	16148.12
519.615	15571.12
520.387	14906.12
521.159	14345.12
521.93	13760.12
522.702	13181.12
523.474	12656.12
524.245	12132.12
525.017	11537.12
525.788	11112.12
526.56	10595.12
527.331	10082.12
528.102	9588.12
528.873	9132.12
529.644	8657.12
530.415	8212.12
531.186	7727.12
531.957	7320.12
532.728	6958.12
533.498	6581.12
534.269	6175.12
535.039	5823.12
535.81	5511.12
536.58	5204.12
537.351	4898.12
538.121	4608.12
538.891	4379.12
539.661	4140.12
540.431	3914.12
541.201	3702.12
541.971	3512.12
542.741	3341.12
543.51	3151.12
544.28	2996.12
545.05	2861.12
545.819	2724.12
546.588	2573.12
547.358	2440.12
548.127	2340.12
548.896	2208.12
549.665	2101.12
550.434	1979.12
551.203	1888.12
551.972	1779.12
552.741	1660.12
553.51	1573.12
554.278	1483.12
555.047	1412.12
555.815	1316.12
556.584	1237.12
557.352	1167.12
558.121	1106.12
558.889	1045.12
559.657	992.12
560.425	929.12
561.193	871.12
561.961	834.12
562.729	785.12
563.496	743.12
564.264	701.12
565.032	664.12
565.799	629.12
566.567	594.12
567.334	562.12
568.101	530.12
568.869	496.12
569.636	475.12
570.403	438.12
571.17	422.12
571.937	393.12
572.704	375.12
573.471	351.12
574.237	333.12
575.004	313.12
575.771	287.12
576.537	280.12
577.303	257.12
578.07	248.12
578.836	231.12
579.602	213.12
580.368	205.12
581.134	194.12
581.9	182.12
582.666	176.12
583.432	160.12
584.198	157.12
584.964	148.12
585.729	146.12
586.495	135.12
587.26	125.12
588.025	124.12
588.791	113.12
589.556	108.12
590.321	104.12
591.086	93.12
591.851	94.12
592.616	87.12
593.381	85.12
594.146	78.12
594.911	80.12
595.675	72.12
596.44	69.12
597.204	64.12
597.969	62.12
598.733	64.12
599.497	58.12
600.261	52.12
601.025	54.12
601.79	49.12
602.553	49.12
603.317	45.12
604.081	47.12
604.845	41.12
605.609	43.12
606.372	36.12
607.136	41.12
607.899	36.12
608.662	35.12
609.426	37.12
610.189	31.12
610.952	28.12
611.715	32.12
612.478	28.12
613.241	27.12
614.004	27.12
614.767	25.12
615.529	25.12
616.292	24.12
617.055	23.12
617.817	23.12
618.579	23.12
619.342	19.12
620.104	17.12
620.866	21.12
621.628	19.12
622.39	20.12
623.152	17.12
623.914	19.12
624.676	15.12
625.438	13.12
626.199	14.12
626.961	14.12
627.722	15.12
628.484	13.12
629.245	13.12
630.006	13.12
630.768	12.12
631.529	12.12
632.29	14.12
633.051	12.12
633.812	14.12
634.573	11.12
635.333	11.12
636.094	10.12
636.855	11.12
637.615	11.12
638.376	8.12
639.136	9.12
639.896	8.12
640.657	8.12
641.417	8.12
642.177	7.12
642.937	8.12
643.697	10.12
644.457	8.12
645.216	7.12
645.976	7.12
646.736	8.12
647.495	6.12
648.255	10.12
649.014	9.12
649.774	6.12
650.533	8.12
651.292	7.12
652.051	7.12
652.81	6.12
653.569	6.12
654.328	8.12
655.087	7.12
655.846	8.12
656.604	6.12
657.363	7.12
658.121	6.12
658.88	5.12
659.638	6.12
660.397	5.12
661.155	8.12
661.913	4.12
662.671	4.12
663.429	4.12
664.187	3.12
664.945	7.12
665.703	5.12
666.46	5.12
667.218	1.12
667.976	6.12
668.733	4.12
669.49	4.12
670.248	5.12
671.005	5.12
671.762	5.12
672.519	2.12
673.276	5.12
674.033	4.12
674.79	3.12
675.547	7.12
676.304	3.12
677.06	4.12
677.817	5.12
678.574	4.12
679.33	3.12
680.086	2.12
680.843	3.12
681.599	3.12
682.355	1.12
683.111	4.12
683.867	3.12
684.623	4.12
685.379	2.12
686.135	6.12
686.89	1.12
687.646	4.12
688.402	2.12
689.157	6.12
689.912	2.12
690.668	3.12
691.423	5.12
692.178	3.12
692.933	0.12
693.688	7.12
694.443	4.12
695.198	3.12
695.953	3.12
696.708	1.12
697.462	5.12
698.217	3.12
698.972	4.12
699.726	1.12
700.48	2.12
701.235	5.12
701.989	1.12
702.743	4.12
703.497	2.12
704.251	4.12
705.005	4.12
705.759	4.12
706.513	3.12
707.266	1.12
708.02	4.12
708.774	5.12
709.527	4.12
710.28	4.12
711.034	5.12
711.787	5.12
712.54	4.12
713.293	5.12
714.046	2.12
714.799	3.12
715.552	3.12
716.305	5.12
717.058	4.12
717.81	4.12
718.563	5.12
719.315	3.12
720.068	2.12
720.82	4.12
721.573	3.12
722.325	5.12
723.077	1.12
723.829	4.12
724.581	4.12
725.333	4.12
726.085	3.12
726.836	4.12
727.588	5.12
728.34	6.12
729.091	4.12
729.843	5.12
730.594	3.12
731.346	4.12
732.097	6.12
732.848	5.12
733.599	5.12
734.35	4.12
735.101	4.12
735.852	4.12
736.603	4.12
737.354	5.12
738.104	5.12
738.855	6.12
739.605	3.12
740.356	5.12
741.106	4.12
741.856	6.12
742.607	6.12
743.357	6.12
744.107	5.12
744.857	7.12
745.607	7.12
746.357	6.12
747.106	3.12
747.856	6.12
748.606	7.12
749.355	8.12
750.105	4.12
750.854	3.12
751.603	4.12
752.353	5.12
753.102	6.12
753.851	7.12
754.6	6.12
755.349	9.12
756.098	7.12
756.847	7.12
757.595	7.12
758.344	8.12
759.093	4.12
759.841	4.12
760.589	6.12
761.338	9.12
762.086	6.12
762.834	9.12
763.582	6.12
764.331	9.12
765.079	8.12
765.826	7.12
766.574	8.12
767.322	7.12
768.07	7.12
768.817	6.12
769.565	7.12
770.312	6.12
771.06	8.12
771.807	11.12
772.554	8.12
773.302	8.12
774.049	8.12
774.796	10.12
775.543	10.12
776.29	9.12
777.036	10.12
777.783	9.12
778.53	11.12
779.276	11.12
780.023	10.12
780.769	10.12
781.516	9.12
782.262	8.12
783.008	8.12
783.754	13.12
784.5	10.12
785.246	10.12
785.992	9.12
786.738	8.12
787.484	10.12
788.23	9.12
788.975	7.12
789.721	7.12
790.466	11.12
791.212	8.12
791.957	8.12
792.702	11.12
793.447	10.12
794.193	9.12
794.938	10.12
795.683	9.12
796.427	10.12
797.172	9.12
797.917	7.12
798.662	8.12
799.406	6.12
800.151	9.12
800.895	8.12
801.64	8.12
802.384	9.12
803.128	8.12
803.872	6.12
804.616	5.12
805.36	8.12
806.104	4.12
806.848	6.12
807.592	4.12
808.336	7.12
809.079	6.12
809.823	6.12
810.566	8.12
811.31	4.12
812.053	6.12
812.796	6.12
813.539	5.12
814.283	5.12
815.026	5.12
815.769	6.12
816.511	4.12
817.254	4.12
817.997	5.12
818.74	5.12
819.482	7.12
820.225	4.12
820.967	5.12
821.71	5.12
822.452	3.12
823.194	4.12
823.936	5.12
824.678	4.12
825.42	3.12
826.162	3.12
826.904	3.12
827.646	5.12
828.388	4.12
829.129	3.12
829.871	4.12
830.612	3.12
831.354	2.12
832.095	3.12
832.836	4.12
833.577	4.12
834.319	3.12
835.06	2.12
835.801	4.12
836.542	3.12
837.282	5.12
838.023	5.12
838.764	3.12
839.504	4.12
840.245	2.12
840.985	4.12
841.726	1.12
842.466	4.12
843.206	3.12
843.946	3.12
844.687	2.12
845.427	2.12
846.166	3.12
846.906	5.12
847.646	2.12
848.386	4.12
849.125	1.12
849.865	5.12
850.605	5.12
851.344	3.12
852.083	3.12
852.823	3.12
853.562	1.12
854.301	2.12
855.04	5.12
855.779	3.12
856.518	2.12
857.257	3.12
857.995	2.12
858.734	2.12
859.473	3.12
860.211	2.12
860.95	3.12
861.688	1.12
862.426	4.12
863.165	-1.88
863.903	4.12
864.641	2.12
865.379	1.12
866.117	4.12
866.855	2.12
867.593	0.12
868.33	2.12
869.068	2.12
869.806	-0.88
870.543	3.12
871.28	4.12
872.018	2.12
872.755	1.12
873.492	3.12
874.229	0.12
874.967	1.12
875.703	1.12
876.44	1.12
877.177	1.12
877.914	1.12
878.651	-0.88
879.387	-0.88
880.124	3.12
880.86	2.12
881.597	2.12
882.333	1.12
883.069	-1.88
883.806	3.12
884.542	1.12
885.278	0.12
886.014	3.12
886.749	1.12
887.485	2.12
888.221	3.12
888.957	2.12
889.692	1.12
890.428	1.12
891.163	2.12
891.899	0.12
892.634	1.12
893.369	1.12
894.104	2.12
894.839	-0.88
895.574	-0.88
896.309	0.12
897.044	-0.88
897.779	1.12
898.514	1.12
899.248	2.12
899.983	2.12
900.717	-2.88
901.452	3.12
902.186	1.12
902.92	2.12
903.654	1.12
904.389	3.12
905.123	1.12
905.857	-0.88
906.59	0.12
907.324	2.12
908.058	1.12
908.792	-0.88
909.525	-0.88
910.259	4.12
910.992	1.12
911.726	0.12
912.459	2.12
913.192	-0.88
913.925	0.12
914.658	1.12
915.391	1.12
916.124	-0.88
916.857	1.12
917.59	1.12
918.323	1.12
919.055	4.12
919.788	-0.88
920.521	0.12
921.253	3.12
921.985	1.12
922.718	-0.88
923.45	1.12
924.182	0.12
924.914	0.12
925.646	2.12
926.378	2.12
927.11	-0.88
927.841	0.12
928.573	2.12
929.305	2.12
930.036	0.12
930.768	0.12
931.499	1.12
932.23	2.12
932.962	0.12
933.693	0.12
934.424	1.12
935.155	1.12
935.886	-1.88
936.617	2.12
937.348	0.12
938.078	1.12
938.809	1.12
939.54	0.12
940.27	2.12
941.001	0.12
941.731	3.12
942.461	-0.88
943.191	-1.88
943.922	1.12
944.652	-0.88
945.382	1.12
946.112	-1.88
946.841	2.12
947.571	2.12
948.301	0.12
949.031	1.12
949.76	-0.88
950.49	0.12
951.219	-0.88
951.948	0.12
952.678	-1.88
953.407	0.12
954.136	1.12
954.865	-0.88
955.594	1.12
956.323	1.12
957.052	-0.88
957.78	-0.88
958.509	-2.88
959.238	-0.88
959.966	1.12
960.695	0.12
961.423	0.12
962.151	1.12
962.88	1.12
963.608	0.12
964.336	1.12
965.064	0.12
965.792	1.12
966.52	0.12
967.247	-0.88
967.975	-0.88
968.703	0.12
969.43	1.12
970.158	1.12
970.885	-0.88
971.613	-0.88
972.34	1.12
973.067	1.12
973.794	0.12
974.521	-0.88
975.248	-1.88
975.975	-2.88
976.702	2.12
977.429	0.12
978.156	-0.88
978.882	0.12
979.609	0.12
980.335	1.12
981.062	0.12
981.788	-1.88
982.514	-0.88
983.24	1.12
983.967	0.12
984.693	-0.88
985.419	2.12
986.144	1.12
986.87	0.12
987.596	-1.88
988.322	1.12
989.047	0.12
989.773	0.12
990.498	1.12
991.224	-0.88
991.949	1.12
992.674	1.12
993.399	-0.88
994.124	-0.88
994.849	0.12
995.574	0.12
996.299	-0.88
997.024	-1.88
997.749	-1.88
998.473	1.12
999.198	0.12
999.922	1.12
1000.647	0.12
1001.371	4.12
1002.095	-0.88
1002.82	0.12
1003.544	-2.88
1004.268	3.12
1004.992	1.12
1005.716	3.12
1006.439	1.12
1007.163	2.12
1007.887	3.12
1008.611	0.12
1009.334	1.12
1010.058	2.12
1010.781	2.12
1011.504	3.12
1012.228	3.12
1012.951	1.12
1013.674	0.12
1014.397	-1.88
1015.12	0.12
