节点500_285_QEPB04081__658__15-06-29-998.txt的数据

Date: Wed Nov 12 15:06:29 CST 2025
User: PC
Spectrometer: QEPB0408
触发模式: 0
积分时间 (秒): 1.000000E-2
Scans to average: 1
启用暗噪声校正: true
启用非线性校正: false
滑动平均宽度: 0
X轴模式: Wavelengths
Number of Pixels in Spectrum: 1044
>>>>>Begin Spectral Data<<<<<
220.843	-1.75
221.644	-0.75
222.444	0.25
223.244	4.25
224.045	4.25
224.845	3.25
225.645	1.25
226.445	2.25
227.245	1.25
228.045	3.25
228.845	3.25
229.645	0.25
230.444	3.25
231.244	1.25
232.043	5.25
232.843	2.25
233.642	3.25
234.442	1.25
235.241	4.25
236.04	3.25
236.839	1.25
237.638	3.25
238.437	3.25
239.236	3.25
240.035	4.25
240.833	4.25
241.632	4.25
242.43	4.25
243.229	3.25
244.027	2.25
244.826	5.25
245.624	1.25
246.422	6.25
247.22	5.25
248.018	4.25
248.816	4.25
249.614	7.25
250.412	5.25
251.21	6.25
252.007	6.25
252.805	5.25
253.602	6.25
254.4	9.25
255.197	5.25
255.994	9.25
256.791	7.25
257.589	10.25
258.386	9.25
259.183	7.25
259.979	7.25
260.776	7.25
261.573	8.25
262.37	9.25
263.166	11.25
263.963	7.25
264.759	10.25
265.556	11.25
266.352	9.25
267.148	12.25
267.944	10.25
268.74	12.25
269.536	13.25
270.332	12.25
271.128	13.25
271.924	14.25
272.719	12.25
273.515	14.25
274.311	13.25
275.106	15.25
275.901	17.25
276.697	19.25
277.492	15.25
278.287	14.25
279.082	16.25
279.877	15.25
280.672	16.25
281.467	17.25
282.262	17.25
283.056	16.25
283.851	15.25
284.646	15.25
285.44	18.25
286.234	16.25
287.029	16.25
287.823	13.25
288.617	15.25
289.411	16.25
290.205	18.25
290.999	17.25
291.793	17.25
292.587	13.25
293.381	14.25
294.174	17.25
294.968	13.25
295.761	17.25
296.555	16.25
297.348	14.25
298.141	15.25
298.935	16.25
299.728	14.25
300.521	11.25
301.314	11.25
302.107	16.25
302.899	12.25
303.692	14.25
304.485	12.25
305.277	13.25
306.07	13.25
306.862	12.25
307.655	13.25
308.447	13.25
309.239	10.25
310.031	9.25
310.823	10.25
311.615	8.25
312.407	8.25
313.199	8.25
313.991	10.25
314.783	11.25
315.574	9.25
316.366	7.25
317.157	8.25
317.949	8.25
318.74	6.25
319.531	8.25
320.322	5.25
321.113	6.25
321.904	5.25
322.695	5.25
323.486	6.25
324.277	7.25
325.068	6.25
325.858	7.25
326.649	5.25
327.439	6.25
328.23	5.25
329.02	6.25
329.81	7.25
330.6	6.25
331.391	5.25
332.181	4.25
332.971	7.25
333.76	7.25
334.55	8.25
335.34	9.25
336.13	5.25
336.919	5.25
337.709	5.25
338.498	5.25
339.287	5.25
340.077	6.25
340.866	4.25
341.655	4.25
342.444	4.25
343.233	6.25
344.022	7.25
344.811	6.25
345.6	5.25
346.388	6.25
347.177	5.25
347.965	6.25
348.754	8.25
349.542	5.25
350.33	8.25
351.119	4.25
351.907	5.25
352.695	5.25
353.483	5.25
354.271	5.25
355.059	2.25
355.846	5.25
356.634	6.25
357.422	3.25
358.209	6.25
358.997	5.25
359.784	5.25
360.571	5.25
361.359	5.25
362.146	3.25
362.933	5.25
363.72	3.25
364.507	6.25
365.294	5.25
366.081	2.25
366.867	4.25
367.654	4.25
368.44	4.25
369.227	3.25
370.013	5.25
370.8	5.25
371.586	5.25
372.372	5.25
373.158	2.25
373.944	7.25
374.73	6.25
375.516	6.25
376.302	4.25
377.088	4.25
377.873	5.25
378.659	4.25
379.445	5.25
380.23	5.25
381.015	4.25
381.801	3.25
382.586	5.25
383.371	4.25
384.156	4.25
384.941	7.25
385.726	4.25
386.511	3.25
387.296	4.25
388.08	2.25
388.865	6.25
389.649	4.25
390.434	5.25
391.218	6.25
392.003	4.25
392.787	6.25
393.571	4.25
394.355	4.25
395.139	6.25
395.923	4.25
396.707	7.25
397.491	6.25
398.274	5.25
399.058	6.25
399.842	6.25
400.625	6.25
401.408	5.25
402.192	7.25
402.975	5.25
403.758	6.25
404.541	5.25
405.324	9.25
406.107	7.25
406.89	6.25
407.673	9.25
408.456	5.25
409.238	7.25
410.021	7.25
410.803	9.25
411.586	7.25
412.368	7.25
413.151	6.25
413.933	6.25
414.715	8.25
415.497	6.25
416.279	7.25
417.061	9.25
417.843	6.25
418.624	8.25
419.406	7.25
420.188	10.25
420.969	12.25
421.751	9.25
422.532	10.25
423.313	11.25
424.095	12.25
424.876	9.25
425.657	11.25
426.438	10.25
427.219	10.25
428	11.25
428.78	11.25
429.561	10.25
430.342	10.25
431.122	15.25
431.903	14.25
432.683	12.25
433.464	17.25
434.244	12.25
435.024	14.25
435.804	15.25
436.584	19.25
437.364	20.25
438.144	19.25
438.924	19.25
439.704	19.25
440.483	22.25
441.263	23.25
442.042	23.25
442.822	24.25
443.601	29.25
444.38	27.25
445.16	32.25
445.939	35.25
446.718	39.25
447.497	42.25
448.276	40.25
449.054	46.25
449.833	53.25
450.612	56.25
451.391	59.25
452.169	62.25
452.948	73.25
453.726	80.25
454.504	89.25
455.282	99.25
456.061	106.25
456.839	119.25
457.617	133.25
458.395	147.25
459.172	163.25
459.95	179.25
460.728	205.25
461.506	224.25
462.283	257.25
463.061	281.25
463.838	311.25
464.615	345.25
465.393	389.25
466.17	430.25
466.947	489.25
467.724	540.25
468.501	591.25
469.278	656.25
470.055	735.25
470.831	804.25
471.608	894.25
472.385	986.25
473.161	1094.25
473.938	1199.25
474.714	1316.25
475.49	1470.25
476.266	1600.25
477.043	1751.25
477.819	1932.25
478.595	2131.25
479.371	2351.25
480.146	2561.25
480.922	2826.25
481.698	3084.25
482.473	3370.25
483.249	3695.25
484.024	4051.25
484.8	4415.25
485.575	4818.25
486.35	5270.25
487.126	5725.25
487.901	6280.25
488.676	6810.25
489.451	7447.25
490.225	8085.25
491	8800.25
491.775	9608.25
492.55	10434.25
493.324	11240.25
494.099	12104.25
494.873	12965.25
495.647	13995.25
496.422	14991.25
497.196	16034.25
497.97	17140.25
498.744	18216.25
499.518	19277.25
500.292	20327.25
501.066	21381.25
501.839	22320.25
502.613	23218.25
503.387	23996.25
504.16	24703.25
504.934	25225.25
505.707	25546.25
506.48	25736.25
507.253	25800.25
508.027	25794.25
508.8	25682.25
509.573	25401.25
510.346	25039.25
511.118	24461.25
511.891	23769.25
512.664	23104.25
513.437	22396.25
514.209	21510.25
514.982	20758.25
515.754	19884.25
516.526	19114.25
517.298	18316.25
518.071	17600.25
518.843	16880.25
519.615	16228.25
520.387	15628.25
521.159	15041.25
521.93	14337.25
522.702	13803.25
523.474	13239.25
524.245	12696.25
525.017	12137.25
525.788	11669.25
526.56	11168.25
527.331	10651.25
528.102	10163.25
528.873	9803.25
529.644	9293.25
530.415	8899.25
531.186	8487.25
531.957	8041.25
532.728	7673.25
533.498	7279.25
534.269	6856.25
535.039	6468.25
535.81	6139.25
536.58	5797.25
537.351	5462.25
538.121	5192.25
538.891	4905.25
539.661	4671.25
540.431	4402.25
541.201	4134.25
541.971	3932.25
542.741	3717.25
543.51	3524.25
544.28	3370.25
545.05	3209.25
545.819	3040.25
546.588	2888.25
547.358	2764.25
548.127	2618.25
548.896	2500.25
549.665	2373.25
550.434	2238.25
551.203	2133.25
551.972	2028.25
552.741	1883.25
553.51	1808.25
554.278	1704.25
555.047	1610.25
555.815	1516.25
556.584	1455.25
557.352	1341.25
558.121	1282.25
558.889	1201.25
559.657	1140.25
560.425	1089.25
561.193	1022.25
561.961	957.25
562.729	911.25
563.496	862.25
564.264	816.25
565.032	775.25
565.799	733.25
566.567	682.25
567.334	647.25
568.101	608.25
568.869	577.25
569.636	542.25
570.403	519.25
571.17	485.25
571.937	458.25
572.704	427.25
573.471	402.25
574.237	386.25
575.004	360.25
575.771	337.25
576.537	319.25
577.303	299.25
578.07	285.25
578.836	270.25
579.602	251.25
580.368	248.25
581.134	233.25
581.9	220.25
582.666	199.25
583.432	189.25
584.198	184.25
584.964	172.25
585.729	162.25
586.495	156.25
587.26	152.25
588.025	138.25
588.791	132.25
589.556	123.25
590.321	120.25
591.086	114.25
591.851	107.25
592.616	100.25
593.381	95.25
594.146	91.25
594.911	87.25
595.675	83.25
596.44	81.25
597.204	72.25
597.969	73.25
598.733	66.25
599.497	68.25
600.261	64.25
601.025	60.25
601.79	55.25
602.553	55.25
603.317	50.25
604.081	51.25
604.845	46.25
605.609	47.25
606.372	41.25
607.136	44.25
607.899	39.25
608.662	39.25
609.426	35.25
610.189	34.25
610.952	35.25
611.715	31.25
612.478	34.25
613.241	29.25
614.004	30.25
614.767	32.25
615.529	24.25
616.292	26.25
617.055	22.25
617.817	24.25
618.579	22.25
619.342	24.25
620.104	23.25
620.866	22.25
621.628	18.25
622.39	17.25
623.152	19.25
623.914	17.25
624.676	17.25
625.438	17.25
626.199	15.25
626.961	16.25
627.722	13.25
628.484	13.25
629.245	14.25
630.006	13.25
630.768	10.25
631.529	11.25
632.29	13.25
633.051	13.25
633.812	10.25
634.573	12.25
635.333	10.25
636.094	9.25
636.855	10.25
637.615	8.25
638.376	12.25
639.136	9.25
639.896	9.25
640.657	10.25
641.417	7.25
642.177	8.25
642.937	9.25
643.697	7.25
644.457	6.25
645.216	8.25
645.976	10.25
646.736	8.25
647.495	9.25
648.255	7.25
649.014	6.25
649.774	6.25
650.533	5.25
651.292	6.25
652.051	6.25
652.81	5.25
653.569	5.25
654.328	6.25
655.087	5.25
655.846	7.25
656.604	5.25
657.363	6.25
658.121	6.25
658.88	5.25
659.638	6.25
660.397	5.25
661.155	5.25
661.913	5.25
662.671	3.25
663.429	5.25
664.187	5.25
664.945	4.25
665.703	5.25
666.46	5.25
667.218	4.25
667.976	2.25
668.733	1.25
669.49	2.25
670.248	4.25
671.005	4.25
671.762	4.25
672.519	3.25
673.276	3.25
674.033	4.25
674.79	3.25
675.547	4.25
676.304	4.25
677.06	4.25
677.817	1.25
678.574	2.25
679.33	2.25
680.086	0.25
680.843	4.25
681.599	3.25
682.355	4.25
683.111	2.25
683.867	2.25
684.623	4.25
685.379	3.25
686.135	3.25
686.89	3.25
687.646	2.25
688.402	4.25
689.157	0.25
689.912	4.25
690.668	4.25
691.423	2.25
692.178	5.25
692.933	1.25
693.688	4.25
694.443	2.25
695.198	3.25
695.953	2.25
696.708	0.25
697.462	2.25
698.217	1.25
698.972	5.25
699.726	1.25
700.48	2.25
701.235	2.25
701.989	2.25
702.743	5.25
703.497	3.25
704.251	3.25
705.005	1.25
705.759	2.25
706.513	3.25
707.266	3.25
708.02	3.25
708.774	2.25
709.527	2.25
710.28	2.25
711.034	4.25
711.787	1.25
712.54	2.25
713.293	4.25
714.046	0.25
714.799	5.25
715.552	2.25
716.305	5.25
717.058	4.25
717.81	3.25
718.563	2.25
719.315	3.25
720.068	4.25
720.82	3.25
721.573	4.25
722.325	4.25
723.077	3.25
723.829	3.25
724.581	3.25
725.333	3.25
726.085	4.25
726.836	5.25
727.588	4.25
728.34	1.25
729.091	2.25
729.843	4.25
730.594	4.25
731.346	5.25
732.097	3.25
732.848	7.25
733.599	5.25
734.35	4.25
735.101	4.25
735.852	5.25
736.603	3.25
737.354	3.25
738.104	3.25
738.855	2.25
739.605	2.25
740.356	3.25
741.106	3.25
741.856	4.25
742.607	3.25
743.357	3.25
744.107	5.25
744.857	4.25
745.607	3.25
746.357	2.25
747.106	1.25
747.856	5.25
748.606	3.25
749.355	4.25
750.105	6.25
750.854	4.25
751.603	4.25
752.353	5.25
753.102	1.25
753.851	5.25
754.6	4.25
755.349	5.25
756.098	4.25
756.847	3.25
757.595	6.25
758.344	2.25
759.093	3.25
759.841	6.25
760.589	7.25
761.338	4.25
762.086	3.25
762.834	4.25
763.582	3.25
764.331	2.25
765.079	4.25
765.826	6.25
766.574	5.25
767.322	6.25
768.07	5.25
768.817	4.25
769.565	5.25
770.312	3.25
771.06	7.25
771.807	4.25
772.554	6.25
773.302	7.25
774.049	5.25
774.796	7.25
775.543	9.25
776.29	7.25
777.036	7.25
777.783	7.25
778.53	6.25
779.276	8.25
780.023	7.25
780.769	5.25
781.516	7.25
782.262	6.25
783.008	9.25
783.754	8.25
784.5	9.25
785.246	6.25
785.992	9.25
786.738	10.25
787.484	6.25
788.23	8.25
788.975	8.25
789.721	9.25
790.466	8.25
791.212	9.25
791.957	4.25
792.702	10.25
793.447	5.25
794.193	8.25
794.938	9.25
795.683	8.25
796.427	6.25
797.172	5.25
797.917	7.25
798.662	8.25
799.406	10.25
800.151	6.25
800.895	6.25
801.64	6.25
802.384	6.25
803.128	7.25
803.872	7.25
804.616	5.25
805.36	5.25
806.104	5.25
806.848	4.25
807.592	5.25
808.336	5.25
809.079	5.25
809.823	3.25
810.566	4.25
811.31	5.25
812.053	4.25
812.796	6.25
813.539	5.25
814.283	3.25
815.026	4.25
815.769	4.25
816.511	2.25
817.254	2.25
817.997	5.25
818.74	2.25
819.482	4.25
820.225	2.25
820.967	3.25
821.71	2.25
822.452	3.25
823.194	3.25
823.936	4.25
824.678	1.25
825.42	3.25
826.162	3.25
826.904	2.25
827.646	4.25
828.388	5.25
829.129	1.25
829.871	2.25
830.612	1.25
831.354	3.25
832.095	1.25
832.836	1.25
833.577	1.25
834.319	3.25
835.06	5.25
835.801	2.25
836.542	3.25
837.282	3.25
838.023	3.25
838.764	4.25
839.504	4.25
840.245	5.25
840.985	3.25
841.726	2.25
842.466	1.25
843.206	2.25
843.946	0.25
844.687	2.25
845.427	3.25
846.166	1.25
846.906	1.25
847.646	2.25
848.386	3.25
849.125	4.25
849.865	1.25
850.605	4.25
851.344	4.25
852.083	3.25
852.823	-0.75
853.562	0.25
854.301	2.25
855.04	2.25
855.779	2.25
856.518	3.25
857.257	1.25
857.995	2.25
858.734	0.25
859.473	1.25
860.211	2.25
860.95	3.25
861.688	3.25
862.426	1.25
863.165	4.25
863.903	1.25
864.641	1.25
865.379	1.25
866.117	4.25
866.855	3.25
867.593	1.25
868.33	1.25
869.068	0.25
869.806	-0.75
870.543	-0.75
871.28	1.25
872.018	1.25
872.755	0.25
873.492	1.25
874.229	0.25
874.967	1.25
875.703	1.25
876.44	2.25
877.177	0.25
877.914	0.25
878.651	-0.75
879.387	2.25
880.124	0.25
880.86	3.25
881.597	0.25
882.333	2.25
883.069	-0.75
883.806	0.25
884.542	1.25
885.278	0.25
886.014	1.25
886.749	1.25
887.485	1.25
888.221	0.25
888.957	-0.75
889.692	-0.75
890.428	1.25
891.163	-2.75
891.899	-0.75
892.634	2.25
893.369	1.25
894.104	-0.75
894.839	1.25
895.574	0.25
896.309	0.25
897.044	1.25
897.779	1.25
898.514	0.25
899.248	1.25
899.983	-0.75
900.717	0.25
901.452	0.25
902.186	-2.75
902.92	0.25
903.654	-0.75
904.389	-2.75
905.123	0.25
905.857	-0.75
906.59	0.25
907.324	1.25
908.058	1.25
908.792	-1.75
909.525	-0.75
910.259	0.25
910.992	0.25
911.726	0.25
912.459	-0.75
913.192	0.25
913.925	-0.75
914.658	-0.75
915.391	0.25
916.124	-1.75
916.857	1.25
917.59	0.25
918.323	-2.75
919.055	-1.75
919.788	0.25
920.521	0.25
921.253	-0.75
921.985	-0.75
922.718	0.25
923.45	-0.75
924.182	-0.75
924.914	-2.75
925.646	-0.75
926.378	-0.75
927.11	1.25
927.841	-0.75
928.573	0.25
929.305	-0.75
930.036	-0.75
930.768	0.25
931.499	-0.75
932.23	0.25
932.962	0.25
933.693	-2.75
934.424	1.25
935.155	-0.75
935.886	1.25
936.617	-1.75
937.348	-2.75
938.078	-0.75
938.809	-1.75
939.54	-0.75
940.27	-1.75
941.001	0.25
941.731	-2.75
942.461	-2.75
943.191	-0.75
943.922	-2.75
944.652	1.25
945.382	0.25
946.112	0.25
946.841	0.25
947.571	-1.75
948.301	1.25
949.031	0.25
949.76	-0.75
950.49	-0.75
951.219	-2.75
951.948	1.25
952.678	-0.75
953.407	0.25
954.136	2.25
954.865	2.25
955.594	-1.75
956.323	-0.75
957.052	0.25
957.78	-1.75
958.509	2.25
959.238	-0.75
959.966	0.25
960.695	0.25
961.423	0.25
962.151	-0.75
962.88	-2.75
963.608	0.25
964.336	0.25
965.064	-0.75
965.792	-0.75
966.52	-1.75
967.247	0.25
967.975	-0.75
968.703	0.25
969.43	-0.75
970.158	-0.75
970.885	-0.75
971.613	1.25
972.34	1.25
973.067	-1.75
973.794	1.25
974.521	-1.75
975.248	-1.75
975.975	0.25
976.702	1.25
977.429	0.25
978.156	-0.75
978.882	-0.75
979.609	0.25
980.335	0.25
981.062	0.25
981.788	-2.75
982.514	-1.75
983.24	-0.75
983.967	-0.75
984.693	1.25
985.419	-2.75
986.144	-0.75
986.87	-1.75
987.596	0.25
988.322	0.25
989.047	-1.75
989.773	1.25
990.498	-0.75
991.224	2.25
991.949	0.25
992.674	0.25
993.399	1.25
994.124	-0.75
994.849	1.25
995.574	-0.75
996.299	-0.75
997.024	1.25
997.749	-0.75
998.473	-1.75
999.198	-2.75
999.922	0.25
1000.647	-2.75
1001.371	5.25
1002.095	-0.75
1002.82	0.25
1003.544	-1.75
1004.268	2.25
1004.992	0.25
1005.716	0.25
1006.439	0.25
1007.163	0.25
1007.887	-0.75
1008.611	-0.75
1009.334	-0.75
1010.058	1.25
1010.781	1.25
1011.504	-1.75
1012.228	-0.75
1012.951	-0.75
1013.674	-2.75
1014.397	0.25
1015.12	0.25
