节点500_285_QEPB04081__683__15-06-54-904.txt的数据

Date: Wed Nov 12 15:06:54 CST 2025
User: PC
Spectrometer: QEPB0408
触发模式: 0
积分时间 (秒): 1.000000E-2
Scans to average: 1
启用暗噪声校正: true
启用非线性校正: false
滑动平均宽度: 0
X轴模式: Wavelengths
Number of Pixels in Spectrum: 1044
>>>>>Begin Spectral Data<<<<<
220.843	1.62
221.644	2.62
222.444	3.62
223.244	2.62
224.045	1.62
224.845	2.62
225.645	1.62
226.445	2.62
227.245	-0.38
228.045	2.62
228.845	4.62
229.645	4.62
230.444	2.62
231.244	0.62
232.043	2.62
232.843	1.62
233.642	4.62
234.442	1.62
235.241	3.62
236.04	5.62
236.839	2.62
237.638	4.62
238.437	4.62
239.236	4.62
240.035	3.62
240.833	3.62
241.632	6.62
242.43	3.62
243.229	4.62
244.027	4.62
244.826	4.62
245.624	5.62
246.422	3.62
247.22	4.62
248.018	4.62
248.816	7.62
249.614	5.62
250.412	2.62
251.21	8.62
252.007	6.62
252.805	6.62
253.602	6.62
254.4	10.62
255.197	9.62
255.994	9.62
256.791	8.62
257.589	7.62
258.386	6.62
259.183	8.62
259.979	11.62
260.776	9.62
261.573	10.62
262.37	10.62
263.166	9.62
263.963	12.62
264.759	11.62
265.556	9.62
266.352	10.62
267.148	12.62
267.944	13.62
268.74	9.62
269.536	14.62
270.332	13.62
271.128	14.62
271.924	14.62
272.719	12.62
273.515	16.62
274.311	14.62
275.106	17.62
275.901	16.62
276.697	14.62
277.492	18.62
278.287	18.62
279.082	17.62
279.877	14.62
280.672	16.62
281.467	20.62
282.262	16.62
283.056	18.62
283.851	19.62
284.646	19.62
285.44	18.62
286.234	16.62
287.029	19.62
287.823	17.62
288.617	21.62
289.411	19.62
290.205	19.62
290.999	18.62
291.793	18.62
292.587	16.62
293.381	17.62
294.174	20.62
294.968	14.62
295.761	17.62
296.555	13.62
297.348	15.62
298.141	13.62
298.935	14.62
299.728	17.62
300.521	14.62
301.314	14.62
302.107	12.62
302.899	10.62
303.692	14.62
304.485	12.62
305.277	14.62
306.07	15.62
306.862	11.62
307.655	12.62
308.447	13.62
309.239	12.62
310.031	10.62
310.823	9.62
311.615	11.62
312.407	9.62
313.199	9.62
313.991	10.62
314.783	8.62
315.574	7.62
316.366	9.62
317.157	10.62
317.949	10.62
318.74	7.62
319.531	9.62
320.322	8.62
321.113	7.62
321.904	7.62
322.695	9.62
323.486	6.62
324.277	8.62
325.068	7.62
325.858	6.62
326.649	8.62
327.439	9.62
328.23	6.62
329.02	5.62
329.81	6.62
330.6	7.62
331.391	6.62
332.181	6.62
332.971	5.62
333.76	8.62
334.55	8.62
335.34	7.62
336.13	6.62
336.919	4.62
337.709	7.62
338.498	6.62
339.287	6.62
340.077	5.62
340.866	7.62
341.655	9.62
342.444	4.62
343.233	7.62
344.022	7.62
344.811	9.62
345.6	7.62
346.388	7.62
347.177	5.62
347.965	7.62
348.754	6.62
349.542	5.62
350.33	6.62
351.119	4.62
351.907	6.62
352.695	5.62
353.483	6.62
354.271	6.62
355.059	6.62
355.846	7.62
356.634	4.62
357.422	4.62
358.209	6.62
358.997	4.62
359.784	6.62
360.571	5.62
361.359	6.62
362.146	9.62
362.933	4.62
363.72	7.62
364.507	4.62
365.294	8.62
366.081	4.62
366.867	6.62
367.654	8.62
368.44	5.62
369.227	6.62
370.013	4.62
370.8	9.62
371.586	5.62
372.372	6.62
373.158	4.62
373.944	4.62
374.73	6.62
375.516	5.62
376.302	3.62
377.088	4.62
377.873	4.62
378.659	3.62
379.445	6.62
380.23	5.62
381.015	5.62
381.801	4.62
382.586	5.62
383.371	7.62
384.156	5.62
384.941	5.62
385.726	8.62
386.511	7.62
387.296	6.62
388.08	4.62
388.865	8.62
389.649	6.62
390.434	6.62
391.218	6.62
392.003	9.62
392.787	5.62
393.571	5.62
394.355	7.62
395.139	5.62
395.923	7.62
396.707	7.62
397.491	5.62
398.274	7.62
399.058	7.62
399.842	9.62
400.625	6.62
401.408	7.62
402.192	6.62
402.975	5.62
403.758	6.62
404.541	7.62
405.324	7.62
406.107	6.62
406.89	5.62
407.673	7.62
408.456	7.62
409.238	9.62
410.021	6.62
410.803	9.62
411.586	6.62
412.368	8.62
413.151	9.62
413.933	8.62
414.715	9.62
415.497	9.62
416.279	7.62
417.061	10.62
417.843	9.62
418.624	11.62
419.406	11.62
420.188	10.62
420.969	10.62
421.751	10.62
422.532	11.62
423.313	9.62
424.095	11.62
424.876	11.62
425.657	10.62
426.438	12.62
427.219	12.62
428	11.62
428.78	14.62
429.561	11.62
430.342	14.62
431.122	13.62
431.903	15.62
432.683	13.62
433.464	16.62
434.244	15.62
435.024	15.62
435.804	18.62
436.584	17.62
437.364	21.62
438.144	17.62
438.924	21.62
439.704	21.62
440.483	21.62
441.263	21.62
442.042	29.62
442.822	24.62
443.601	30.62
444.38	30.62
445.16	34.62
445.939	35.62
446.718	38.62
447.497	39.62
448.276	46.62
449.054	49.62
449.833	52.62
450.612	57.62
451.391	61.62
452.169	69.62
452.948	71.62
453.726	81.62
454.504	87.62
455.282	104.62
456.061	108.62
456.839	115.62
457.617	130.62
458.395	146.62
459.172	162.62
459.95	181.62
460.728	202.62
461.506	224.62
462.283	253.62
463.061	282.62
463.838	320.62
464.615	357.62
465.393	390.62
466.17	433.62
466.947	479.62
467.724	530.62
468.501	596.62
469.278	668.62
470.055	725.62
470.831	810.62
471.608	891.62
472.385	1001.62
473.161	1086.62
473.938	1211.62
474.714	1328.62
475.49	1469.62
476.266	1610.62
477.043	1759.62
477.819	1911.62
478.595	2131.62
479.371	2332.62
480.146	2562.62
480.922	2776.62
481.698	3067.62
482.473	3360.62
483.249	3646.62
484.024	3996.62
484.8	4382.62
485.575	4782.62
486.35	5258.62
487.126	5690.62
487.901	6224.62
488.676	6780.62
489.451	7383.62
490.225	8011.62
491	8697.62
491.775	9496.62
492.55	10297.62
493.324	11123.62
494.099	11918.62
494.873	12871.62
495.647	13822.62
496.422	14823.62
497.196	15841.62
497.97	16890.62
498.744	17956.62
499.518	19042.62
500.292	20073.62
501.066	21015.62
501.839	22020.62
502.613	22923.62
503.387	23739.62
504.16	24487.62
504.934	24869.62
505.707	25244.62
506.48	25461.62
507.253	25563.62
508.027	25449.62
508.8	25440.62
509.573	25176.62
510.346	24791.62
511.118	24261.62
511.891	23675.62
512.664	22995.62
513.437	22281.62
514.209	21492.62
514.982	20651.62
515.754	19773.62
516.526	19000.62
517.298	18280.62
518.071	17496.62
518.843	16817.62
519.615	16161.62
520.387	15504.62
521.159	14950.62
521.93	14311.62
522.702	13797.62
523.474	13185.62
524.245	12620.62
525.017	12082.62
525.788	11676.62
526.56	11138.62
527.331	10642.62
528.102	10178.62
528.873	9696.62
529.644	9269.62
530.415	8833.62
531.186	8424.62
531.957	8018.62
532.728	7634.62
533.498	7258.62
534.269	6830.62
535.039	6489.62
535.81	6162.62
536.58	5805.62
537.351	5468.62
538.121	5179.62
538.891	4882.62
539.661	4663.62
540.431	4406.62
541.201	4131.62
541.971	3935.62
542.741	3726.62
543.51	3548.62
544.28	3337.62
545.05	3199.62
545.819	3030.62
546.588	2887.62
547.358	2757.62
548.127	2606.62
548.896	2501.62
549.665	2382.62
550.434	2229.62
551.203	2103.62
551.972	2009.62
552.741	1894.62
553.51	1797.62
554.278	1696.62
555.047	1585.62
555.815	1515.62
556.584	1439.62
557.352	1365.62
558.121	1284.62
558.889	1227.62
559.657	1142.62
560.425	1077.62
561.193	1017.62
561.961	961.62
562.729	920.62
563.496	860.62
564.264	819.62
565.032	763.62
565.799	730.62
566.567	689.62
567.334	644.62
568.101	614.62
568.869	589.62
569.636	542.62
570.403	518.62
571.17	485.62
571.937	459.62
572.704	430.62
573.471	411.62
574.237	390.62
575.004	361.62
575.771	341.62
576.537	318.62
577.303	306.62
578.07	286.62
578.836	270.62
579.602	248.62
580.368	245.62
581.134	225.62
581.9	222.62
582.666	205.62
583.432	189.62
584.198	184.62
584.964	175.62
585.729	167.62
586.495	158.62
587.26	149.62
588.025	144.62
588.791	132.62
589.556	133.62
590.321	122.62
591.086	115.62
591.851	109.62
592.616	98.62
593.381	97.62
594.146	91.62
594.911	88.62
595.675	84.62
596.44	80.62
597.204	77.62
597.969	74.62
598.733	71.62
599.497	65.62
600.261	63.62
601.025	62.62
601.79	58.62
602.553	55.62
603.317	52.62
604.081	50.62
604.845	46.62
605.609	46.62
606.372	45.62
607.136	45.62
607.899	42.62
608.662	39.62
609.426	39.62
610.189	38.62
610.952	34.62
611.715	34.62
612.478	30.62
613.241	31.62
614.004	28.62
614.767	28.62
615.529	27.62
616.292	29.62
617.055	25.62
617.817	22.62
618.579	26.62
619.342	23.62
620.104	22.62
620.866	22.62
621.628	21.62
622.39	20.62
623.152	18.62
623.914	18.62
624.676	17.62
625.438	18.62
626.199	18.62
626.961	17.62
627.722	14.62
628.484	14.62
629.245	14.62
630.006	14.62
630.768	16.62
631.529	12.62
632.29	10.62
633.051	13.62
633.812	12.62
634.573	16.62
635.333	14.62
636.094	11.62
636.855	11.62
637.615	12.62
638.376	9.62
639.136	11.62
639.896	11.62
640.657	10.62
641.417	8.62
642.177	12.62
642.937	9.62
643.697	9.62
644.457	11.62
645.216	7.62
645.976	7.62
646.736	9.62
647.495	8.62
648.255	7.62
649.014	10.62
649.774	5.62
650.533	6.62
651.292	7.62
652.051	8.62
652.81	6.62
653.569	5.62
654.328	5.62
655.087	7.62
655.846	8.62
656.604	7.62
657.363	4.62
658.121	7.62
658.88	7.62
659.638	6.62
660.397	7.62
661.155	6.62
661.913	7.62
662.671	7.62
663.429	6.62
664.187	5.62
664.945	6.62
665.703	6.62
666.46	4.62
667.218	5.62
667.976	3.62
668.733	4.62
669.49	4.62
670.248	6.62
671.005	6.62
671.762	5.62
672.519	5.62
673.276	6.62
674.033	5.62
674.79	5.62
675.547	4.62
676.304	6.62
677.06	5.62
677.817	3.62
678.574	5.62
679.33	7.62
680.086	3.62
680.843	2.62
681.599	6.62
682.355	5.62
683.111	6.62
683.867	2.62
684.623	5.62
685.379	4.62
686.135	2.62
686.89	5.62
687.646	5.62
688.402	5.62
689.157	5.62
689.912	6.62
690.668	6.62
691.423	4.62
692.178	6.62
692.933	3.62
693.688	2.62
694.443	4.62
695.198	5.62
695.953	3.62
696.708	4.62
697.462	4.62
698.217	3.62
698.972	5.62
699.726	6.62
700.48	6.62
701.235	5.62
701.989	5.62
702.743	4.62
703.497	3.62
704.251	4.62
705.005	3.62
705.759	3.62
706.513	4.62
707.266	4.62
708.02	5.62
708.774	3.62
709.527	4.62
710.28	4.62
711.034	4.62
711.787	4.62
712.54	2.62
713.293	6.62
714.046	4.62
714.799	4.62
715.552	4.62
716.305	5.62
717.058	5.62
717.81	4.62
718.563	5.62
719.315	5.62
720.068	3.62
720.82	4.62
721.573	2.62
722.325	4.62
723.077	1.62
723.829	4.62
724.581	7.62
725.333	3.62
726.085	7.62
726.836	2.62
727.588	4.62
728.34	5.62
729.091	3.62
729.843	6.62
730.594	6.62
731.346	6.62
732.097	5.62
732.848	2.62
733.599	4.62
734.35	4.62
735.101	4.62
735.852	5.62
736.603	5.62
737.354	4.62
738.104	6.62
738.855	4.62
739.605	5.62
740.356	4.62
741.106	5.62
741.856	3.62
742.607	3.62
743.357	4.62
744.107	5.62
744.857	4.62
745.607	5.62
746.357	4.62
747.106	5.62
747.856	5.62
748.606	5.62
749.355	5.62
750.105	5.62
750.854	5.62
751.603	4.62
752.353	7.62
753.102	4.62
753.851	7.62
754.6	6.62
755.349	4.62
756.098	6.62
756.847	6.62
757.595	6.62
758.344	5.62
759.093	5.62
759.841	6.62
760.589	5.62
761.338	5.62
762.086	4.62
762.834	7.62
763.582	6.62
764.331	6.62
765.079	4.62
765.826	7.62
766.574	9.62
767.322	6.62
768.07	7.62
768.817	7.62
769.565	7.62
770.312	5.62
771.06	4.62
771.807	8.62
772.554	5.62
773.302	9.62
774.049	7.62
774.796	7.62
775.543	6.62
776.29	8.62
777.036	6.62
777.783	5.62
778.53	9.62
779.276	9.62
780.023	8.62
780.769	10.62
781.516	9.62
782.262	9.62
783.008	9.62
783.754	8.62
784.5	9.62
785.246	7.62
785.992	9.62
786.738	8.62
787.484	7.62
788.23	9.62
788.975	7.62
789.721	9.62
790.466	8.62
791.212	9.62
791.957	8.62
792.702	9.62
793.447	8.62
794.193	8.62
794.938	7.62
795.683	6.62
796.427	7.62
797.172	6.62
797.917	8.62
798.662	10.62
799.406	6.62
800.151	7.62
800.895	6.62
801.64	5.62
802.384	9.62
803.128	7.62
803.872	6.62
804.616	4.62
805.36	7.62
806.104	7.62
806.848	7.62
807.592	7.62
808.336	5.62
809.079	7.62
809.823	4.62
810.566	3.62
811.31	7.62
812.053	3.62
812.796	5.62
813.539	6.62
814.283	6.62
815.026	5.62
815.769	7.62
816.511	5.62
817.254	4.62
817.997	6.62
818.74	3.62
819.482	7.62
820.225	4.62
820.967	5.62
821.71	5.62
822.452	4.62
823.194	6.62
823.936	6.62
824.678	3.62
825.42	4.62
826.162	5.62
826.904	4.62
827.646	3.62
828.388	7.62
829.129	5.62
829.871	3.62
830.612	4.62
831.354	2.62
832.095	4.62
832.836	3.62
833.577	5.62
834.319	2.62
835.06	5.62
835.801	2.62
836.542	3.62
837.282	4.62
838.023	4.62
838.764	5.62
839.504	3.62
840.245	5.62
840.985	2.62
841.726	3.62
842.466	4.62
843.206	4.62
843.946	5.62
844.687	5.62
845.427	2.62
846.166	4.62
846.906	1.62
847.646	2.62
848.386	4.62
849.125	5.62
849.865	4.62
850.605	5.62
851.344	2.62
852.083	2.62
852.823	4.62
853.562	2.62
854.301	3.62
855.04	1.62
855.779	2.62
856.518	4.62
857.257	2.62
857.995	2.62
858.734	2.62
859.473	3.62
860.211	4.62
860.95	1.62
861.688	4.62
862.426	1.62
863.165	2.62
863.903	0.62
864.641	1.62
865.379	2.62
866.117	1.62
866.855	5.62
867.593	3.62
868.33	1.62
869.068	2.62
869.806	2.62
870.543	4.62
871.28	3.62
872.018	0.62
872.755	3.62
873.492	0.62
874.229	2.62
874.967	1.62
875.703	2.62
876.44	0.62
877.177	3.62
877.914	2.62
878.651	1.62
879.387	0.62
880.124	1.62
880.86	2.62
881.597	1.62
882.333	1.62
883.069	4.62
883.806	0.62
884.542	1.62
885.278	-0.38
886.014	0.62
886.749	1.62
887.485	0.62
888.221	0.62
888.957	-0.38
889.692	0.62
890.428	-1.38
891.163	1.62
891.899	1.62
892.634	0.62
893.369	3.62
894.104	2.62
894.839	3.62
895.574	0.62
896.309	2.62
897.044	0.62
897.779	0.62
898.514	0.62
899.248	1.62
899.983	3.62
900.717	-0.38
901.452	2.62
902.186	1.62
902.92	1.62
903.654	0.62
904.389	0.62
905.123	1.62
905.857	2.62
906.59	2.62
907.324	0.62
908.058	0.62
908.792	2.62
909.525	1.62
910.259	2.62
910.992	1.62
911.726	1.62
912.459	0.62
913.192	-0.38
913.925	0.62
914.658	-1.38
915.391	1.62
916.124	-0.38
916.857	2.62
917.59	0.62
918.323	-1.38
919.055	2.62
919.788	2.62
920.521	-1.38
921.253	1.62
921.985	1.62
922.718	0.62
923.45	-2.38
924.182	1.62
924.914	1.62
925.646	0.62
926.378	0.62
927.11	-0.38
927.841	0.62
928.573	0.62
929.305	0.62
930.036	1.62
930.768	1.62
931.499	0.62
932.23	-0.38
932.962	-0.38
933.693	1.62
934.424	2.62
935.155	0.62
935.886	-1.38
936.617	1.62
937.348	-0.38
938.078	-0.38
938.809	-1.38
939.54	1.62
940.27	1.62
941.001	-1.38
941.731	-0.38
942.461	0.62
943.191	0.62
943.922	0.62
944.652	2.62
945.382	1.62
946.112	0.62
946.841	0.62
947.571	1.62
948.301	1.62
949.031	0.62
949.76	0.62
950.49	0.62
951.219	-0.38
951.948	1.62
952.678	0.62
953.407	1.62
954.136	-0.38
954.865	2.62
955.594	0.62
956.323	-1.38
957.052	2.62
957.78	-0.38
958.509	-1.38
959.238	0.62
959.966	0.62
960.695	1.62
961.423	-0.38
962.151	1.62
962.88	1.62
963.608	3.62
964.336	2.62
965.064	1.62
965.792	2.62
966.52	1.62
967.247	-0.38
967.975	1.62
968.703	2.62
969.43	1.62
970.158	0.62
970.885	0.62
971.613	1.62
972.34	1.62
973.067	2.62
973.794	2.62
974.521	2.62
975.248	0.62
975.975	0.62
976.702	-0.38
977.429	3.62
978.156	0.62
978.882	3.62
979.609	0.62
980.335	0.62
981.062	0.62
981.788	-1.38
982.514	0.62
983.24	0.62
983.967	0.62
984.693	0.62
985.419	-0.38
986.144	-0.38
986.87	1.62
987.596	0.62
988.322	1.62
989.047	-1.38
989.773	1.62
990.498	3.62
991.224	2.62
991.949	0.62
992.674	-0.38
993.399	-0.38
994.124	-0.38
994.849	1.62
995.574	1.62
996.299	4.62
997.024	-0.38
997.749	-1.38
998.473	1.62
999.198	-1.38
999.922	0.62
1000.647	1.62
1001.371	5.62
1002.095	-0.38
1002.82	-1.38
1003.544	-0.38
1004.268	1.62
1004.992	2.62
1005.716	0.62
1006.439	1.62
1007.163	1.62
1007.887	2.62
1008.611	-0.38
1009.334	0.62
1010.058	1.62
1010.781	0.62
1011.504	1.62
1012.228	4.62
1012.951	-1.38
1013.674	-1.38
1014.397	1.62
1015.12	-2.38
