节点500_285_QEPB04081__307__15-00-39-753.txt的数据

Date: Wed Nov 12 15:00:39 CST 2025
User: PC
Spectrometer: QEPB0408
触发模式: 0
积分时间 (秒): 1.000000E-2
Scans to average: 1
启用暗噪声校正: true
启用非线性校正: false
滑动平均宽度: 0
X轴模式: Wavelengths
Number of Pixels in Spectrum: 1044
>>>>>Begin Spectral Data<<<<<
220.843	0
221.644	1
222.444	0
223.244	0
224.045	-1
224.845	5
225.645	3
226.445	2
227.245	3
228.045	0
228.845	2
229.645	1
230.444	2
231.244	3
232.043	1
232.843	0
233.642	4
234.442	3
235.241	1
236.04	2
236.839	6
237.638	4
238.437	4
239.236	1
240.035	4
240.833	2
241.632	4
242.43	3
243.229	5
244.027	4
244.826	5
245.624	3
246.422	7
247.22	6
248.018	6
248.816	6
249.614	7
250.412	5
251.21	6
252.007	6
252.805	5
253.602	6
254.4	5
255.197	6
255.994	7
256.791	9
257.589	5
258.386	8
259.183	10
259.979	9
260.776	12
261.573	9
262.37	9
263.166	11
263.963	10
264.759	12
265.556	11
266.352	13
267.148	15
267.944	16
268.74	13
269.536	13
270.332	14
271.128	13
271.924	15
272.719	17
273.515	15
274.311	17
275.106	16
275.901	17
276.697	16
277.492	16
278.287	13
279.082	16
279.877	18
280.672	19
281.467	18
282.262	20
283.056	19
283.851	18
284.646	20
285.44	21
286.234	19
287.029	17
287.823	19
288.617	16
289.411	20
290.205	15
290.999	17
291.793	19
292.587	19
293.381	16
294.174	17
294.968	18
295.761	16
296.555	17
297.348	14
298.141	12
298.935	17
299.728	13
300.521	13
301.314	14
302.107	12
302.899	13
303.692	13
304.485	13
305.277	12
306.07	13
306.862	13
307.655	14
308.447	11
309.239	9
310.031	12
310.823	12
311.615	9
312.407	12
313.199	10
313.991	9
314.783	10
315.574	9
316.366	9
317.157	8
317.949	10
318.74	6
319.531	9
320.322	3
321.113	7
321.904	6
322.695	10
323.486	7
324.277	8
325.068	9
325.858	5
326.649	7
327.439	7
328.23	7
329.02	7
329.81	5
330.6	6
331.391	5
332.181	7
332.971	6
333.76	5
334.55	8
335.34	7
336.13	7
336.919	5
337.709	8
338.498	8
339.287	4
340.077	8
340.866	4
341.655	6
342.444	6
343.233	4
344.022	6
344.811	6
345.6	7
346.388	5
347.177	7
347.965	6
348.754	4
349.542	6
350.33	3
351.119	4
351.907	6
352.695	1
353.483	4
354.271	3
355.059	4
355.846	5
356.634	5
357.422	5
358.209	9
358.997	5
359.784	7
360.571	4
361.359	6
362.146	4
362.933	7
363.72	6
364.507	5
365.294	7
366.081	7
366.867	5
367.654	3
368.44	6
369.227	3
370.013	6
370.8	4
371.586	2
372.372	5
373.158	4
373.944	4
374.73	4
375.516	3
376.302	4
377.088	4
377.873	2
378.659	1
379.445	6
380.23	5
381.015	4
381.801	6
382.586	2
383.371	4
384.156	6
384.941	3
385.726	6
386.511	6
387.296	7
388.08	3
388.865	6
389.649	4
390.434	6
391.218	5
392.003	6
392.787	6
393.571	7
394.355	7
395.139	6
395.923	6
396.707	5
397.491	6
398.274	7
399.058	4
399.842	6
400.625	6
401.408	7
402.192	8
402.975	7
403.758	7
404.541	5
405.324	4
406.107	8
406.89	7
407.673	9
408.456	7
409.238	7
410.021	9
410.803	8
411.586	9
412.368	9
413.151	8
413.933	9
414.715	8
415.497	8
416.279	9
417.061	8
417.843	8
418.624	11
419.406	12
420.188	8
420.969	10
421.751	9
422.532	9
423.313	10
424.095	13
424.876	11
425.657	13
426.438	14
427.219	10
428	13
428.78	11
429.561	12
430.342	13
431.122	15
431.903	16
432.683	14
433.464	14
434.244	17
435.024	15
435.804	15
436.584	16
437.364	16
438.144	20
438.924	21
439.704	22
440.483	22
441.263	25
442.042	25
442.822	28
443.601	26
444.38	27
445.16	33
445.939	32
446.718	35
447.497	37
448.276	40
449.054	42
449.833	48
450.612	51
451.391	55
452.169	62
452.948	67
453.726	73
454.504	81
455.282	92
456.061	98
456.839	111
457.617	118
458.395	131
459.172	147
459.95	161
460.728	182
461.506	201
462.283	225
463.061	258
463.838	287
464.615	311
465.393	353
466.17	393
466.947	440
467.724	501
468.501	549
469.278	607
470.055	683
470.831	761
471.608	842
472.385	937
473.161	1045
473.938	1149
474.714	1280
475.49	1423
476.266	1570
477.043	1740
477.819	1918
478.595	2134
479.371	2374
480.146	2575
480.922	2848
481.698	3168
482.473	3490
483.249	3830
484.024	4236
484.8	4648
485.575	5124
486.35	5611
487.126	6169
487.901	6777
488.676	7403
489.451	8113
490.225	8866
491	9745
491.775	10647
492.55	11632
493.324	12583
494.099	13529
494.873	14604
495.647	15713
496.422	16852
497.196	18068
497.97	19282
498.744	20526
499.518	21709
500.292	22804
501.066	23958
501.839	24963
502.613	25741
503.387	26574
504.16	27209
504.934	27493
505.707	27639
506.48	27651
507.253	27507
508.027	27243
508.8	26964
509.573	26520
510.346	25896
511.118	25054
511.891	24243
512.664	23316
513.437	22467
514.209	21521
514.982	20680
515.754	19753
516.526	18817
517.298	18020
518.071	17220
518.843	16559
519.615	15944
520.387	15229
521.159	14747
521.93	14078
522.702	13557
523.474	12944
524.245	12377
525.017	11884
525.788	11443
526.56	10943
527.331	10395
528.102	9953
528.873	9457
529.644	9003
530.415	8553
531.186	8136
531.957	7690
532.728	7316
533.498	6883
534.269	6539
535.039	6198
535.81	5840
536.58	5531
537.351	5188
538.121	4881
538.891	4660
539.661	4396
540.431	4120
541.201	3919
541.971	3697
542.741	3515
543.51	3328
544.28	3198
545.05	3036
545.819	2880
546.588	2740
547.358	2593
548.127	2464
548.896	2349
549.665	2229
550.434	2101
551.203	1983
551.972	1878
552.741	1776
553.51	1683
554.278	1579
555.047	1503
555.815	1412
556.584	1340
557.352	1268
558.121	1195
558.889	1127
559.657	1063
560.425	1005
561.193	944
561.961	887
562.729	843
563.496	785
564.264	761
565.032	708
565.799	683
566.567	641
567.334	602
568.101	577
568.869	540
569.636	512
570.403	476
571.17	447
571.937	422
572.704	412
573.471	376
574.237	357
575.004	341
575.771	316
576.537	295
577.303	277
578.07	267
578.836	250
579.602	235
580.368	217
581.134	204
581.9	203
582.666	189
583.432	177
584.198	165
584.964	160
585.729	153
586.495	143
587.26	137
588.025	127
588.791	121
589.556	116
590.321	110
591.086	103
591.851	98
592.616	94
593.381	89
594.146	85
594.911	83
595.675	80
596.44	73
597.204	72
597.969	67
598.733	68
599.497	62
600.261	62
601.025	55
601.79	56
602.553	48
603.317	48
604.081	47
604.845	44
605.609	45
606.372	41
607.136	42
607.899	35
608.662	34
609.426	35
610.189	32
610.952	33
611.715	32
612.478	28
613.241	30
614.004	25
614.767	25
615.529	24
616.292	25
617.055	21
617.817	23
618.579	21
619.342	22
620.104	19
620.866	21
621.628	20
622.39	20
623.152	19
623.914	18
624.676	16
625.438	19
626.199	15
626.961	15
627.722	14
628.484	11
629.245	14
630.006	13
630.768	14
631.529	15
632.29	12
633.051	14
633.812	10
634.573	12
635.333	10
636.094	9
636.855	11
637.615	10
638.376	11
639.136	8
639.896	10
640.657	7
641.417	7
642.177	9
642.937	8
643.697	9
644.457	7
645.216	6
645.976	6
646.736	7
647.495	6
648.255	8
649.014	7
649.774	7
650.533	9
651.292	7
652.051	3
652.81	5
653.569	7
654.328	6
655.087	6
655.846	7
656.604	4
657.363	4
658.121	7
658.88	4
659.638	6
660.397	7
661.155	2
661.913	4
662.671	7
663.429	5
664.187	4
664.945	6
665.703	1
666.46	4
667.218	6
667.976	5
668.733	3
669.49	3
670.248	3
671.005	4
671.762	2
672.519	5
673.276	3
674.033	5
674.79	3
675.547	3
676.304	3
677.06	0
677.817	6
678.574	3
679.33	4
680.086	3
680.843	2
681.599	3
682.355	4
683.111	4
683.867	3
684.623	2
685.379	0
686.135	3
686.89	4
687.646	3
688.402	3
689.157	2
689.912	2
690.668	5
691.423	5
692.178	5
692.933	4
693.688	3
694.443	5
695.198	4
695.953	5
696.708	4
697.462	4
698.217	3
698.972	4
699.726	2
700.48	2
701.235	3
701.989	3
702.743	4
703.497	3
704.251	1
705.005	3
705.759	2
706.513	2
707.266	5
708.02	3
708.774	3
709.527	3
710.28	4
711.034	3
711.787	2
712.54	3
713.293	3
714.046	3
714.799	1
715.552	3
716.305	4
717.058	3
717.81	3
718.563	3
719.315	3
720.068	2
720.82	2
721.573	3
722.325	3
723.077	1
723.829	3
724.581	5
725.333	3
726.085	3
726.836	3
727.588	2
728.34	6
729.091	3
729.843	4
730.594	3
731.346	2
732.097	5
732.848	2
733.599	4
734.35	6
735.101	2
735.852	5
736.603	4
737.354	3
738.104	4
738.855	4
739.605	6
740.356	5
741.106	4
741.856	3
742.607	4
743.357	2
744.107	2
744.857	1
745.607	4
746.357	4
747.106	3
747.856	5
748.606	3
749.355	5
750.105	4
750.854	4
751.603	4
752.353	3
753.102	5
753.851	6
754.6	3
755.349	6
756.098	4
756.847	6
757.595	6
758.344	6
759.093	6
759.841	4
760.589	7
761.338	4
762.086	6
762.834	6
763.582	7
764.331	6
765.079	4
765.826	9
766.574	9
767.322	6
768.07	7
768.817	6
769.565	6
770.312	7
771.06	9
771.807	8
772.554	8
773.302	7
774.049	7
774.796	8
775.543	8
776.29	8
777.036	6
777.783	6
778.53	9
779.276	7
780.023	9
780.769	7
781.516	6
782.262	7
783.008	6
783.754	9
784.5	9
785.246	9
785.992	12
786.738	8
787.484	8
788.23	9
788.975	8
789.721	8
790.466	11
791.212	8
791.957	8
792.702	8
793.447	9
794.193	9
794.938	9
795.683	10
796.427	7
797.172	6
797.917	10
798.662	6
799.406	9
800.151	9
800.895	5
801.64	7
802.384	7
803.128	7
803.872	6
804.616	7
805.36	6
806.104	5
806.848	6
807.592	4
808.336	6
809.079	5
809.823	4
810.566	3
811.31	4
812.053	6
812.796	5
813.539	6
814.283	5
815.026	5
815.769	6
816.511	4
817.254	5
817.997	4
818.74	5
819.482	4
820.225	0
820.967	3
821.71	2
822.452	4
823.194	4
823.936	5
824.678	6
825.42	4
826.162	4
826.904	3
827.646	4
828.388	6
829.129	1
829.871	2
830.612	3
831.354	4
832.095	3
832.836	4
833.577	1
834.319	3
835.06	4
835.801	3
836.542	1
837.282	4
838.023	2
838.764	3
839.504	2
840.245	4
840.985	2
841.726	3
842.466	4
843.206	3
843.946	4
844.687	1
845.427	1
846.166	2
846.906	5
847.646	2
848.386	5
849.125	3
849.865	2
850.605	5
851.344	1
852.083	1
852.823	1
853.562	2
854.301	3
855.04	2
855.779	1
856.518	4
857.257	3
857.995	3
858.734	1
859.473	0
860.211	0
860.95	0
861.688	4
862.426	0
863.165	1
863.903	0
864.641	2
865.379	2
866.117	4
866.855	3
867.593	2
868.33	0
869.068	-1
869.806	2
870.543	2
871.28	1
872.018	1
872.755	0
873.492	2
874.229	-1
874.967	2
875.703	1
876.44	1
877.177	1
877.914	1
878.651	1
879.387	0
880.124	1
880.86	0
881.597	1
882.333	0
883.069	1
883.806	0
884.542	0
885.278	-3
886.014	1
886.749	0
887.485	1
888.221	0
888.957	2
889.692	2
890.428	0
891.163	0
891.899	1
892.634	3
893.369	1
894.104	0
894.839	-1
895.574	-2
896.309	1
897.044	1
897.779	0
898.514	1
899.248	0
899.983	0
900.717	1
901.452	2
902.186	-1
902.92	0
903.654	0
904.389	0
905.123	3
905.857	-1
906.59	-1
907.324	2
908.058	-3
908.792	1
909.525	-1
910.259	0
910.992	-1
911.726	0
912.459	-1
913.192	0
913.925	0
914.658	0
915.391	2
916.124	-2
916.857	-1
917.59	-1
918.323	-2
919.055	0
919.788	-1
920.521	0
921.253	0
921.985	-3
922.718	-1
923.45	-2
924.182	1
924.914	-4
925.646	-3
926.378	1
927.11	-1
927.841	1
928.573	-1
929.305	1
930.036	1
930.768	0
931.499	1
932.23	-2
932.962	0
933.693	0
934.424	0
935.155	0
935.886	-3
936.617	0
937.348	-1
938.078	0
938.809	-1
939.54	-1
940.27	0
941.001	-1
941.731	-3
942.461	0
943.191	-2
943.922	-1
944.652	-1
945.382	1
946.112	-1
946.841	1
947.571	-1
948.301	1
949.031	-2
949.76	0
950.49	0
951.219	-1
951.948	0
952.678	1
953.407	-1
954.136	2
954.865	0
955.594	-1
956.323	0
957.052	-1
957.78	0
958.509	-2
959.238	-1
959.966	-2
960.695	0
961.423	1
962.151	-1
962.88	1
963.608	1
964.336	-1
965.064	-2
965.792	0
966.52	0
967.247	-1
967.975	-1
968.703	0
969.43	-1
970.158	0
970.885	-1
971.613	-1
972.34	-1
973.067	1
973.794	0
974.521	0
975.248	-2
975.975	-2
976.702	-1
977.429	0
978.156	-2
978.882	-3
979.609	-1
980.335	1
981.062	-1
981.788	-1
982.514	1
983.24	-1
983.967	-1
984.693	0
985.419	-2
986.144	1
986.87	1
987.596	0
988.322	0
989.047	0
989.773	-1
990.498	-1
991.224	-1
991.949	0
992.674	-2
993.399	0
994.124	0
994.849	-2
995.574	1
996.299	-1
997.024	0
997.749	0
998.473	-1
999.198	-1
999.922	-1
1000.647	1
1001.371	5
1002.095	0
1002.82	-2
1003.544	-2
1004.268	1
1004.992	0
1005.716	0
1006.439	0
1007.163	1
1007.887	1
1008.611	0
1009.334	0
1010.058	-1
1010.781	-1
1011.504	0
1012.228	0
1012.951	0
1013.674	-1
1014.397	1
1015.12	-1
