节点500_285_QEPB04081__718__15-07-29-800.txt的数据

Date: Wed Nov 12 15:07:29 CST 2025
User: PC
Spectrometer: QEPB0408
触发模式: 0
积分时间 (秒): 1.000000E-2
Scans to average: 1
启用暗噪声校正: true
启用非线性校正: false
滑动平均宽度: 0
X轴模式: Wavelengths
Number of Pixels in Spectrum: 1044
>>>>>Begin Spectral Data<<<<<
220.843	-0.38
221.644	-0.38
222.444	2.62
223.244	1.62
224.045	2.62
224.845	0.62
225.645	0.62
226.445	1.62
227.245	0.62
228.045	2.62
228.845	1.62
229.645	3.62
230.444	1.62
231.244	1.62
232.043	1.62
232.843	4.62
233.642	2.62
234.442	4.62
235.241	3.62
236.04	3.62
236.839	5.62
237.638	3.62
238.437	1.62
239.236	2.62
240.035	2.62
240.833	4.62
241.632	3.62
242.43	5.62
243.229	1.62
244.027	2.62
244.826	4.62
245.624	5.62
246.422	6.62
247.22	2.62
248.018	5.62
248.816	5.62
249.614	5.62
250.412	4.62
251.21	6.62
252.007	7.62
252.805	5.62
253.602	7.62
254.4	5.62
255.197	7.62
255.994	7.62
256.791	8.62
257.589	6.62
258.386	8.62
259.183	5.62
259.979	8.62
260.776	11.62
261.573	10.62
262.37	6.62
263.166	11.62
263.963	9.62
264.759	10.62
265.556	8.62
266.352	12.62
267.148	12.62
267.944	13.62
268.74	14.62
269.536	11.62
270.332	13.62
271.128	13.62
271.924	13.62
272.719	13.62
273.515	12.62
274.311	13.62
275.106	15.62
275.901	13.62
276.697	13.62
277.492	15.62
278.287	17.62
279.082	16.62
279.877	16.62
280.672	15.62
281.467	16.62
282.262	16.62
283.056	17.62
283.851	15.62
284.646	16.62
285.44	16.62
286.234	18.62
287.029	15.62
287.823	16.62
288.617	16.62
289.411	15.62
290.205	17.62
290.999	17.62
291.793	18.62
292.587	20.62
293.381	14.62
294.174	15.62
294.968	13.62
295.761	16.62
296.555	13.62
297.348	14.62
298.141	13.62
298.935	17.62
299.728	14.62
300.521	14.62
301.314	13.62
302.107	12.62
302.899	13.62
303.692	14.62
304.485	13.62
305.277	13.62
306.07	13.62
306.862	12.62
307.655	12.62
308.447	12.62
309.239	11.62
310.031	12.62
310.823	11.62
311.615	10.62
312.407	9.62
313.199	11.62
313.991	11.62
314.783	9.62
315.574	7.62
316.366	8.62
317.157	9.62
317.949	5.62
318.74	7.62
319.531	8.62
320.322	8.62
321.113	7.62
321.904	5.62
322.695	7.62
323.486	4.62
324.277	7.62
325.068	7.62
325.858	5.62
326.649	5.62
327.439	7.62
328.23	4.62
329.02	6.62
329.81	7.62
330.6	6.62
331.391	3.62
332.181	5.62
332.971	6.62
333.76	7.62
334.55	7.62
335.34	7.62
336.13	6.62
336.919	5.62
337.709	6.62
338.498	5.62
339.287	4.62
340.077	7.62
340.866	3.62
341.655	6.62
342.444	5.62
343.233	6.62
344.022	7.62
344.811	7.62
345.6	5.62
346.388	4.62
347.177	3.62
347.965	6.62
348.754	5.62
349.542	7.62
350.33	4.62
351.119	8.62
351.907	3.62
352.695	3.62
353.483	5.62
354.271	4.62
355.059	4.62
355.846	4.62
356.634	6.62
357.422	4.62
358.209	5.62
358.997	5.62
359.784	4.62
360.571	3.62
361.359	5.62
362.146	4.62
362.933	5.62
363.72	6.62
364.507	6.62
365.294	4.62
366.081	4.62
366.867	1.62
367.654	1.62
368.44	5.62
369.227	1.62
370.013	4.62
370.8	3.62
371.586	5.62
372.372	3.62
373.158	7.62
373.944	6.62
374.73	4.62
375.516	4.62
376.302	3.62
377.088	5.62
377.873	6.62
378.659	5.62
379.445	3.62
380.23	7.62
381.015	6.62
381.801	5.62
382.586	4.62
383.371	4.62
384.156	5.62
384.941	5.62
385.726	4.62
386.511	3.62
387.296	7.62
388.08	4.62
388.865	4.62
389.649	5.62
390.434	4.62
391.218	2.62
392.003	4.62
392.787	2.62
393.571	5.62
394.355	5.62
395.139	4.62
395.923	6.62
396.707	4.62
397.491	7.62
398.274	5.62
399.058	4.62
399.842	5.62
400.625	4.62
401.408	6.62
402.192	5.62
402.975	5.62
403.758	7.62
404.541	4.62
405.324	10.62
406.107	4.62
406.89	7.62
407.673	6.62
408.456	7.62
409.238	7.62
410.021	3.62
410.803	7.62
411.586	7.62
412.368	7.62
413.151	8.62
413.933	5.62
414.715	7.62
415.497	9.62
416.279	9.62
417.061	7.62
417.843	10.62
418.624	9.62
419.406	11.62
420.188	9.62
420.969	8.62
421.751	9.62
422.532	8.62
423.313	8.62
424.095	9.62
424.876	6.62
425.657	10.62
426.438	10.62
427.219	12.62
428	13.62
428.78	11.62
429.561	12.62
430.342	12.62
431.122	16.62
431.903	11.62
432.683	13.62
433.464	16.62
434.244	17.62
435.024	16.62
435.804	17.62
436.584	20.62
437.364	17.62
438.144	19.62
438.924	21.62
439.704	19.62
440.483	22.62
441.263	22.62
442.042	23.62
442.822	29.62
443.601	29.62
444.38	29.62
445.16	34.62
445.939	36.62
446.718	37.62
447.497	41.62
448.276	42.62
449.054	45.62
449.833	50.62
450.612	57.62
451.391	64.62
452.169	65.62
452.948	73.62
453.726	82.62
454.504	91.62
455.282	100.62
456.061	107.62
456.839	120.62
457.617	134.62
458.395	150.62
459.172	162.62
459.95	183.62
460.728	203.62
461.506	234.62
462.283	252.62
463.061	287.62
463.838	320.62
464.615	355.62
465.393	389.62
466.17	434.62
466.947	492.62
467.724	541.62
468.501	593.62
469.278	673.62
470.055	734.62
470.831	820.62
471.608	907.62
472.385	992.62
473.161	1089.62
473.938	1221.62
474.714	1329.62
475.49	1456.62
476.266	1607.62
477.043	1766.62
477.819	1929.62
478.595	2137.62
479.371	2296.62
480.146	2556.62
480.922	2806.62
481.698	3061.62
482.473	3312.62
483.249	3683.62
484.024	3977.62
484.8	4336.62
485.575	4790.62
486.35	5209.62
487.126	5671.62
487.901	6160.62
488.676	6714.62
489.451	7318.62
490.225	7937.62
491	8633.62
491.775	9385.62
492.55	10218.62
493.324	10985.62
494.099	11764.62
494.873	12663.62
495.647	13620.62
496.422	14614.62
497.196	15598.62
497.97	16705.62
498.744	17713.62
499.518	18803.62
500.292	19830.62
501.066	20799.62
501.839	21731.62
502.613	22641.62
503.387	23433.62
504.16	24170.62
504.934	24605.62
505.707	24994.62
506.48	25218.62
507.253	25299.62
508.027	25318.62
508.8	25297.62
509.573	25119.62
510.346	24713.62
511.118	24171.62
511.891	23601.62
512.664	22941.62
513.437	22266.62
514.209	21481.62
514.982	20676.62
515.754	19873.62
516.526	19089.62
517.298	18282.62
518.071	17545.62
518.843	16868.62
519.615	16272.62
520.387	15632.62
521.159	14986.62
521.93	14359.62
522.702	13834.62
523.474	13294.62
524.245	12703.62
525.017	12199.62
525.788	11735.62
526.56	11209.62
527.331	10682.62
528.102	10262.62
528.873	9763.62
529.644	9386.62
530.415	8910.62
531.186	8513.62
531.957	8048.62
532.728	7717.62
533.498	7328.62
534.269	6896.62
535.039	6516.62
535.81	6226.62
536.58	5855.62
537.351	5507.62
538.121	5239.62
538.891	4955.62
539.661	4691.62
540.431	4425.62
541.201	4158.62
541.971	3963.62
542.741	3738.62
543.51	3568.62
544.28	3390.62
545.05	3241.62
545.819	3060.62
546.588	2905.62
547.358	2763.62
548.127	2647.62
548.896	2507.62
549.665	2374.62
550.434	2244.62
551.203	2139.62
551.972	2040.62
552.741	1907.62
553.51	1824.62
554.278	1716.62
555.047	1643.62
555.815	1535.62
556.584	1452.62
557.352	1365.62
558.121	1289.62
558.889	1211.62
559.657	1163.62
560.425	1098.62
561.193	1025.62
561.961	980.62
562.729	923.62
563.496	860.62
564.264	816.62
565.032	760.62
565.799	729.62
566.567	701.62
567.334	654.62
568.101	620.62
568.869	583.62
569.636	554.62
570.403	516.62
571.17	484.62
571.937	458.62
572.704	428.62
573.471	409.62
574.237	396.62
575.004	367.62
575.771	346.62
576.537	323.62
577.303	304.62
578.07	286.62
578.836	270.62
579.602	251.62
580.368	240.62
581.134	228.62
581.9	219.62
582.666	200.62
583.432	195.62
584.198	184.62
584.964	170.62
585.729	163.62
586.495	157.62
587.26	151.62
588.025	139.62
588.791	133.62
589.556	123.62
590.321	122.62
591.086	115.62
591.851	105.62
592.616	102.62
593.381	99.62
594.146	94.62
594.911	90.62
595.675	85.62
596.44	78.62
597.204	75.62
597.969	76.62
598.733	70.62
599.497	68.62
600.261	64.62
601.025	64.62
601.79	54.62
602.553	52.62
603.317	53.62
604.081	51.62
604.845	46.62
605.609	47.62
606.372	41.62
607.136	48.62
607.899	39.62
608.662	38.62
609.426	35.62
610.189	37.62
610.952	33.62
611.715	34.62
612.478	30.62
613.241	28.62
614.004	28.62
614.767	27.62
615.529	26.62
616.292	27.62
617.055	25.62
617.817	25.62
618.579	20.62
619.342	28.62
620.104	21.62
620.866	20.62
621.628	21.62
622.39	18.62
623.152	19.62
623.914	17.62
624.676	16.62
625.438	15.62
626.199	16.62
626.961	17.62
627.722	15.62
628.484	15.62
629.245	13.62
630.006	15.62
630.768	10.62
631.529	11.62
632.29	13.62
633.051	10.62
633.812	11.62
634.573	13.62
635.333	11.62
636.094	11.62
636.855	10.62
637.615	13.62
638.376	10.62
639.136	11.62
639.896	6.62
640.657	11.62
641.417	10.62
642.177	8.62
642.937	9.62
643.697	7.62
644.457	9.62
645.216	9.62
645.976	9.62
646.736	8.62
647.495	7.62
648.255	6.62
649.014	8.62
649.774	8.62
650.533	5.62
651.292	3.62
652.051	6.62
652.81	4.62
653.569	6.62
654.328	6.62
655.087	4.62
655.846	4.62
656.604	6.62
657.363	6.62
658.121	6.62
658.88	6.62
659.638	3.62
660.397	4.62
661.155	5.62
661.913	2.62
662.671	8.62
663.429	5.62
664.187	5.62
664.945	5.62
665.703	4.62
666.46	4.62
667.218	6.62
667.976	6.62
668.733	5.62
669.49	2.62
670.248	3.62
671.005	3.62
671.762	3.62
672.519	6.62
673.276	2.62
674.033	5.62
674.79	3.62
675.547	3.62
676.304	3.62
677.06	1.62
677.817	4.62
678.574	4.62
679.33	2.62
680.086	3.62
680.843	3.62
681.599	2.62
682.355	3.62
683.111	4.62
683.867	1.62
684.623	3.62
685.379	6.62
686.135	3.62
686.89	0.62
687.646	3.62
688.402	2.62
689.157	6.62
689.912	4.62
690.668	4.62
691.423	5.62
692.178	2.62
692.933	2.62
693.688	1.62
694.443	3.62
695.198	2.62
695.953	1.62
696.708	3.62
697.462	4.62
698.217	4.62
698.972	1.62
699.726	2.62
700.48	2.62
701.235	2.62
701.989	3.62
702.743	3.62
703.497	3.62
704.251	1.62
705.005	3.62
705.759	4.62
706.513	3.62
707.266	3.62
708.02	2.62
708.774	3.62
709.527	4.62
710.28	1.62
711.034	5.62
711.787	2.62
712.54	2.62
713.293	1.62
714.046	2.62
714.799	1.62
715.552	5.62
716.305	1.62
717.058	2.62
717.81	5.62
718.563	3.62
719.315	3.62
720.068	4.62
720.82	4.62
721.573	4.62
722.325	4.62
723.077	4.62
723.829	2.62
724.581	2.62
725.333	2.62
726.085	3.62
726.836	4.62
727.588	2.62
728.34	4.62
729.091	4.62
729.843	3.62
730.594	3.62
731.346	4.62
732.097	2.62
732.848	2.62
733.599	4.62
734.35	3.62
735.101	3.62
735.852	7.62
736.603	2.62
737.354	0.62
738.104	4.62
738.855	4.62
739.605	4.62
740.356	1.62
741.106	1.62
741.856	3.62
742.607	4.62
743.357	4.62
744.107	5.62
744.857	4.62
745.607	3.62
746.357	5.62
747.106	5.62
747.856	2.62
748.606	4.62
749.355	5.62
750.105	4.62
750.854	3.62
751.603	6.62
752.353	2.62
753.102	4.62
753.851	4.62
754.6	4.62
755.349	6.62
756.098	5.62
756.847	3.62
757.595	4.62
758.344	5.62
759.093	3.62
759.841	3.62
760.589	9.62
761.338	4.62
762.086	6.62
762.834	4.62
763.582	6.62
764.331	7.62
765.079	5.62
765.826	6.62
766.574	5.62
767.322	5.62
768.07	5.62
768.817	4.62
769.565	7.62
770.312	6.62
771.06	8.62
771.807	4.62
772.554	6.62
773.302	6.62
774.049	5.62
774.796	7.62
775.543	5.62
776.29	7.62
777.036	5.62
777.783	7.62
778.53	7.62
779.276	8.62
780.023	8.62
780.769	8.62
781.516	6.62
782.262	9.62
783.008	7.62
783.754	7.62
784.5	6.62
785.246	6.62
785.992	7.62
786.738	6.62
787.484	6.62
788.23	8.62
788.975	5.62
789.721	6.62
790.466	8.62
791.212	7.62
791.957	10.62
792.702	8.62
793.447	4.62
794.193	6.62
794.938	6.62
795.683	9.62
796.427	3.62
797.172	7.62
797.917	8.62
798.662	5.62
799.406	8.62
800.151	7.62
800.895	5.62
801.64	8.62
802.384	6.62
803.128	5.62
803.872	6.62
804.616	7.62
805.36	7.62
806.104	5.62
806.848	4.62
807.592	6.62
808.336	5.62
809.079	5.62
809.823	6.62
810.566	5.62
811.31	5.62
812.053	5.62
812.796	5.62
813.539	2.62
814.283	7.62
815.026	5.62
815.769	4.62
816.511	5.62
817.254	4.62
817.997	3.62
818.74	4.62
819.482	2.62
820.225	6.62
820.967	4.62
821.71	2.62
822.452	5.62
823.194	1.62
823.936	5.62
824.678	3.62
825.42	3.62
826.162	4.62
826.904	2.62
827.646	3.62
828.388	4.62
829.129	5.62
829.871	3.62
830.612	1.62
831.354	5.62
832.095	4.62
832.836	3.62
833.577	3.62
834.319	2.62
835.06	3.62
835.801	5.62
836.542	2.62
837.282	5.62
838.023	2.62
838.764	3.62
839.504	2.62
840.245	4.62
840.985	1.62
841.726	4.62
842.466	2.62
843.206	2.62
843.946	3.62
844.687	2.62
845.427	3.62
846.166	4.62
846.906	4.62
847.646	4.62
848.386	3.62
849.125	1.62
849.865	0.62
850.605	1.62
851.344	2.62
852.083	2.62
852.823	1.62
853.562	3.62
854.301	2.62
855.04	1.62
855.779	2.62
856.518	-0.38
857.257	0.62
857.995	1.62
858.734	1.62
859.473	2.62
860.211	0.62
860.95	0.62
861.688	1.62
862.426	2.62
863.165	0.62
863.903	1.62
864.641	3.62
865.379	-1.38
866.117	1.62
866.855	2.62
867.593	1.62
868.33	1.62
869.068	2.62
869.806	3.62
870.543	0.62
871.28	3.62
872.018	1.62
872.755	0.62
873.492	0.62
874.229	0.62
874.967	2.62
875.703	-0.38
876.44	3.62
877.177	3.62
877.914	2.62
878.651	1.62
879.387	2.62
880.124	-0.38
880.86	-2.38
881.597	1.62
882.333	1.62
883.069	2.62
883.806	-0.38
884.542	-1.38
885.278	0.62
886.014	2.62
886.749	1.62
887.485	0.62
888.221	0.62
888.957	1.62
889.692	0.62
890.428	0.62
891.163	-1.38
891.899	0.62
892.634	-1.38
893.369	0.62
894.104	1.62
894.839	-0.38
895.574	1.62
896.309	1.62
897.044	1.62
897.779	-0.38
898.514	1.62
899.248	0.62
899.983	-1.38
900.717	0.62
901.452	1.62
902.186	-0.38
902.92	-1.38
903.654	0.62
904.389	-0.38
905.123	0.62
905.857	-0.38
906.59	1.62
907.324	0.62
908.058	1.62
908.792	1.62
909.525	1.62
910.259	-0.38
910.992	0.62
911.726	1.62
912.459	3.62
913.192	0.62
913.925	-0.38
914.658	-0.38
915.391	-0.38
916.124	0.62
916.857	1.62
917.59	-1.38
918.323	-0.38
919.055	-2.38
919.788	1.62
920.521	0.62
921.253	-0.38
921.985	1.62
922.718	-0.38
923.45	0.62
924.182	0.62
924.914	-0.38
925.646	-0.38
926.378	0.62
927.11	-0.38
927.841	-1.38
928.573	1.62
929.305	-1.38
930.036	0.62
930.768	0.62
931.499	1.62
932.23	0.62
932.962	-0.38
933.693	0.62
934.424	0.62
935.155	0.62
935.886	0.62
936.617	2.62
937.348	-0.38
938.078	0.62
938.809	0.62
939.54	-2.38
940.27	0.62
941.001	-2.38
941.731	-1.38
942.461	-2.38
943.191	-0.38
943.922	0.62
944.652	0.62
945.382	-0.38
946.112	0.62
946.841	-2.38
947.571	-1.38
948.301	1.62
949.031	0.62
949.76	0.62
950.49	-0.38
951.219	-0.38
951.948	0.62
952.678	-0.38
953.407	-0.38
954.136	1.62
954.865	-0.38
955.594	-0.38
956.323	-0.38
957.052	-0.38
957.78	2.62
958.509	-0.38
959.238	1.62
959.966	-0.38
960.695	1.62
961.423	0.62
962.151	-0.38
962.88	-0.38
963.608	1.62
964.336	-0.38
965.064	0.62
965.792	-1.38
966.52	-0.38
967.247	0.62
967.975	0.62
968.703	-1.38
969.43	0.62
970.158	-0.38
970.885	-2.38
971.613	-0.38
972.34	-2.38
973.067	-0.38
973.794	0.62
974.521	-0.38
975.248	-1.38
975.975	-0.38
976.702	1.62
977.429	-2.38
978.156	0.62
978.882	1.62
979.609	1.62
980.335	0.62
981.062	-1.38
981.788	2.62
982.514	0.62
983.24	-2.38
983.967	0.62
984.693	0.62
985.419	1.62
986.144	-1.38
986.87	1.62
987.596	-0.38
988.322	0.62
989.047	1.62
989.773	0.62
990.498	-1.38
991.224	-0.38
991.949	-0.38
992.674	-0.38
993.399	-0.38
994.124	1.62
994.849	0.62
995.574	0.62
996.299	-0.38
997.024	-0.38
997.749	-1.38
998.473	-0.38
999.198	0.62
999.922	-0.38
1000.647	-0.38
1001.371	2.62
1002.095	-0.38
1002.82	0.62
1003.544	-1.38
1004.268	1.62
1004.992	1.62
1005.716	0.62
1006.439	-0.38
1007.163	-0.38
1007.887	0.62
1008.611	-2.38
1009.334	1.62
1010.058	-0.38
1010.781	-0.38
1011.504	1.62
1012.228	-0.38
1012.951	0.62
1013.674	-0.38
1014.397	-1.38
1015.12	-0.38
