节点500_285_QEPB04081__126__14-57-39-231.txt的数据

Date: Wed Nov 12 14:57:39 CST 2025
User: PC
Spectrometer: QEPB0408
触发模式: 0
积分时间 (秒): 1.000000E-2
Scans to average: 1
启用暗噪声校正: true
启用非线性校正: false
滑动平均宽度: 0
X轴模式: Wavelengths
Number of Pixels in Spectrum: 1044
>>>>>Begin Spectral Data<<<<<
220.843	3.12
221.644	2.12
222.444	2.12
223.244	3.12
224.045	3.12
224.845	3.12
225.645	2.12
226.445	2.12
227.245	2.12
228.045	5.12
228.845	3.12
229.645	3.12
230.444	2.12
231.244	2.12
232.043	4.12
232.843	4.12
233.642	3.12
234.442	3.12
235.241	8.12
236.04	2.12
236.839	5.12
237.638	3.12
238.437	4.12
239.236	7.12
240.035	5.12
240.833	4.12
241.632	7.12
242.43	5.12
243.229	8.12
244.027	7.12
244.826	6.12
245.624	5.12
246.422	6.12
247.22	6.12
248.018	6.12
248.816	8.12
249.614	7.12
250.412	5.12
251.21	6.12
252.007	11.12
252.805	7.12
253.602	8.12
254.4	9.12
255.197	8.12
255.994	7.12
256.791	8.12
257.589	10.12
258.386	11.12
259.183	8.12
259.979	13.12
260.776	11.12
261.573	10.12
262.37	11.12
263.166	14.12
263.963	11.12
264.759	12.12
265.556	14.12
266.352	14.12
267.148	15.12
267.944	13.12
268.74	14.12
269.536	14.12
270.332	14.12
271.128	16.12
271.924	13.12
272.719	14.12
273.515	18.12
274.311	16.12
275.106	20.12
275.901	18.12
276.697	20.12
277.492	17.12
278.287	16.12
279.082	22.12
279.877	23.12
280.672	18.12
281.467	20.12
282.262	21.12
283.056	20.12
283.851	19.12
284.646	19.12
285.44	20.12
286.234	17.12
287.029	19.12
287.823	19.12
288.617	21.12
289.411	18.12
290.205	17.12
290.999	18.12
291.793	18.12
292.587	19.12
293.381	18.12
294.174	17.12
294.968	18.12
295.761	18.12
296.555	16.12
297.348	18.12
298.141	18.12
298.935	18.12
299.728	17.12
300.521	15.12
301.314	14.12
302.107	12.12
302.899	10.12
303.692	12.12
304.485	12.12
305.277	12.12
306.07	14.12
306.862	12.12
307.655	13.12
308.447	10.12
309.239	11.12
310.031	14.12
310.823	14.12
311.615	10.12
312.407	10.12
313.199	13.12
313.991	9.12
314.783	9.12
315.574	10.12
316.366	8.12
317.157	7.12
317.949	10.12
318.74	8.12
319.531	10.12
320.322	9.12
321.113	9.12
321.904	8.12
322.695	6.12
323.486	7.12
324.277	6.12
325.068	10.12
325.858	5.12
326.649	7.12
327.439	8.12
328.23	8.12
329.02	6.12
329.81	5.12
330.6	6.12
331.391	6.12
332.181	9.12
332.971	6.12
333.76	9.12
334.55	7.12
335.34	7.12
336.13	6.12
336.919	4.12
337.709	7.12
338.498	7.12
339.287	8.12
340.077	6.12
340.866	5.12
341.655	8.12
342.444	5.12
343.233	6.12
344.022	8.12
344.811	5.12
345.6	6.12
346.388	7.12
347.177	8.12
347.965	7.12
348.754	7.12
349.542	5.12
350.33	3.12
351.119	7.12
351.907	8.12
352.695	9.12
353.483	7.12
354.271	5.12
355.059	7.12
355.846	8.12
356.634	5.12
357.422	6.12
358.209	5.12
358.997	9.12
359.784	6.12
360.571	8.12
361.359	7.12
362.146	8.12
362.933	7.12
363.72	7.12
364.507	7.12
365.294	5.12
366.081	8.12
366.867	6.12
367.654	4.12
368.44	5.12
369.227	5.12
370.013	8.12
370.8	7.12
371.586	7.12
372.372	7.12
373.158	5.12
373.944	7.12
374.73	7.12
375.516	6.12
376.302	4.12
377.088	5.12
377.873	6.12
378.659	5.12
379.445	7.12
380.23	5.12
381.015	5.12
381.801	6.12
382.586	6.12
383.371	4.12
384.156	4.12
384.941	6.12
385.726	4.12
386.511	6.12
387.296	8.12
388.08	5.12
388.865	7.12
389.649	6.12
390.434	6.12
391.218	6.12
392.003	6.12
392.787	10.12
393.571	5.12
394.355	6.12
395.139	7.12
395.923	7.12
396.707	7.12
397.491	7.12
398.274	8.12
399.058	6.12
399.842	7.12
400.625	10.12
401.408	6.12
402.192	9.12
402.975	8.12
403.758	7.12
404.541	8.12
405.324	8.12
406.107	7.12
406.89	8.12
407.673	8.12
408.456	7.12
409.238	9.12
410.021	7.12
410.803	8.12
411.586	10.12
412.368	10.12
413.151	11.12
413.933	8.12
414.715	12.12
415.497	11.12
416.279	9.12
417.061	12.12
417.843	10.12
418.624	8.12
419.406	11.12
420.188	10.12
420.969	12.12
421.751	9.12
422.532	9.12
423.313	14.12
424.095	11.12
424.876	13.12
425.657	14.12
426.438	14.12
427.219	12.12
428	12.12
428.78	14.12
429.561	12.12
430.342	16.12
431.122	12.12
431.903	15.12
432.683	17.12
433.464	17.12
434.244	18.12
435.024	17.12
435.804	20.12
436.584	17.12
437.364	20.12
438.144	16.12
438.924	21.12
439.704	24.12
440.483	20.12
441.263	24.12
442.042	23.12
442.822	23.12
443.601	29.12
444.38	27.12
445.16	31.12
445.939	30.12
446.718	37.12
447.497	38.12
448.276	41.12
449.054	44.12
449.833	46.12
450.612	50.12
451.391	54.12
452.169	57.12
452.948	64.12
453.726	68.12
454.504	80.12
455.282	78.12
456.061	91.12
456.839	102.12
457.617	114.12
458.395	126.12
459.172	141.12
459.95	152.12
460.728	168.12
461.506	195.12
462.283	214.12
463.061	230.12
463.838	266.12
464.615	299.12
465.393	332.12
466.17	372.12
466.947	413.12
467.724	467.12
468.501	509.12
469.278	580.12
470.055	639.12
470.831	712.12
471.608	798.12
472.385	895.12
473.161	983.12
473.938	1103.12
474.714	1215.12
475.49	1342.12
476.266	1496.12
477.043	1681.12
477.819	1854.12
478.595	2066.12
479.371	2261.12
480.146	2528.12
480.922	2780.12
481.698	3074.12
482.473	3416.12
483.249	3769.12
484.024	4161.12
484.8	4614.12
485.575	5066.12
486.35	5610.12
487.126	6179.12
487.901	6810.12
488.676	7448.12
489.451	8174.12
490.225	8974.12
491	9830.12
491.775	10794.12
492.55	11754.12
493.324	12785.12
494.099	13789.12
494.873	14925.12
495.647	16134.12
496.422	17322.12
497.196	18525.12
497.97	19767.12
498.744	20996.12
499.518	22226.12
500.292	23382.12
501.066	24386.12
501.839	25356.12
502.613	26186.12
503.387	26860.12
504.16	27387.12
504.934	27639.12
505.707	27671.12
506.48	27594.12
507.253	27434.12
508.027	26993.12
508.8	26531.12
509.573	25982.12
510.346	25207.12
511.118	24435.12
511.891	23534.12
512.664	22673.12
513.437	21679.12
514.209	20746.12
514.982	19815.12
515.754	18935.12
516.526	18021.12
517.298	17263.12
518.071	16471.12
518.843	15916.12
519.615	15233.12
520.387	14677.12
521.159	14061.12
521.93	13503.12
522.702	12970.12
523.474	12406.12
524.245	11928.12
525.017	11349.12
525.788	10908.12
526.56	10424.12
527.331	9915.12
528.102	9477.12
528.873	8985.12
529.644	8545.12
530.415	8174.12
531.186	7671.12
531.957	7286.12
532.728	6916.12
533.498	6526.12
534.269	6162.12
535.039	5826.12
535.81	5464.12
536.58	5166.12
537.351	4880.12
538.121	4614.12
538.891	4355.12
539.661	4133.12
540.431	3877.12
541.201	3685.12
541.971	3483.12
542.741	3298.12
543.51	3135.12
544.28	2997.12
545.05	2865.12
545.819	2697.12
546.588	2575.12
547.358	2457.12
548.127	2321.12
548.896	2203.12
549.665	2097.12
550.434	1958.12
551.203	1880.12
551.972	1752.12
552.741	1668.12
553.51	1592.12
554.278	1482.12
555.047	1401.12
555.815	1325.12
556.584	1249.12
557.352	1186.12
558.121	1110.12
558.889	1037.12
559.657	992.12
560.425	928.12
561.193	878.12
561.961	826.12
562.729	785.12
563.496	746.12
564.264	703.12
565.032	670.12
565.799	634.12
566.567	599.12
567.334	556.12
568.101	521.12
568.869	500.12
569.636	475.12
570.403	447.12
571.17	419.12
571.937	399.12
572.704	375.12
573.471	358.12
574.237	334.12
575.004	315.12
575.771	290.12
576.537	276.12
577.303	250.12
578.07	249.12
578.836	230.12
579.602	216.12
580.368	205.12
581.134	200.12
581.9	190.12
582.666	174.12
583.432	166.12
584.198	155.12
584.964	146.12
585.729	145.12
586.495	132.12
587.26	128.12
588.025	126.12
588.791	114.12
589.556	109.12
590.321	103.12
591.086	103.12
591.851	89.12
592.616	88.12
593.381	84.12
594.146	83.12
594.911	79.12
595.675	75.12
596.44	69.12
597.204	70.12
597.969	61.12
598.733	63.12
599.497	59.12
600.261	56.12
601.025	51.12
601.79	50.12
602.553	47.12
603.317	48.12
604.081	45.12
604.845	44.12
605.609	43.12
606.372	43.12
607.136	37.12
607.899	37.12
608.662	39.12
609.426	33.12
610.189	30.12
610.952	31.12
611.715	34.12
612.478	31.12
613.241	31.12
614.004	26.12
614.767	27.12
615.529	25.12
616.292	24.12
617.055	26.12
617.817	23.12
618.579	22.12
619.342	21.12
620.104	20.12
620.866	20.12
621.628	19.12
622.39	21.12
623.152	20.12
623.914	18.12
624.676	17.12
625.438	17.12
626.199	15.12
626.961	15.12
627.722	14.12
628.484	15.12
629.245	11.12
630.006	13.12
630.768	15.12
631.529	15.12
632.29	15.12
633.051	12.12
633.812	13.12
634.573	13.12
635.333	13.12
636.094	12.12
636.855	10.12
637.615	10.12
638.376	8.12
639.136	10.12
639.896	10.12
640.657	12.12
641.417	11.12
642.177	7.12
642.937	9.12
643.697	9.12
644.457	11.12
645.216	10.12
645.976	11.12
646.736	8.12
647.495	5.12
648.255	8.12
649.014	9.12
649.774	7.12
650.533	7.12
651.292	8.12
652.051	6.12
652.81	10.12
653.569	9.12
654.328	6.12
655.087	7.12
655.846	7.12
656.604	6.12
657.363	9.12
658.121	5.12
658.88	7.12
659.638	7.12
660.397	5.12
661.155	5.12
661.913	6.12
662.671	7.12
663.429	4.12
664.187	6.12
664.945	8.12
665.703	4.12
666.46	6.12
667.218	6.12
667.976	6.12
668.733	7.12
669.49	5.12
670.248	6.12
671.005	6.12
671.762	4.12
672.519	6.12
673.276	5.12
674.033	5.12
674.79	5.12
675.547	5.12
676.304	5.12
677.06	3.12
677.817	4.12
678.574	6.12
679.33	5.12
680.086	6.12
680.843	6.12
681.599	6.12
682.355	2.12
683.111	6.12
683.867	4.12
684.623	5.12
685.379	3.12
686.135	4.12
686.89	4.12
687.646	5.12
688.402	4.12
689.157	3.12
689.912	4.12
690.668	5.12
691.423	7.12
692.178	5.12
692.933	3.12
693.688	6.12
694.443	2.12
695.198	5.12
695.953	3.12
696.708	3.12
697.462	6.12
698.217	2.12
698.972	4.12
699.726	5.12
700.48	4.12
701.235	4.12
701.989	5.12
702.743	5.12
703.497	6.12
704.251	7.12
705.005	7.12
705.759	3.12
706.513	1.12
707.266	4.12
708.02	5.12
708.774	6.12
709.527	3.12
710.28	6.12
711.034	3.12
711.787	6.12
712.54	5.12
713.293	7.12
714.046	4.12
714.799	3.12
715.552	2.12
716.305	3.12
717.058	5.12
717.81	4.12
718.563	6.12
719.315	7.12
720.068	7.12
720.82	4.12
721.573	3.12
722.325	5.12
723.077	5.12
723.829	6.12
724.581	5.12
725.333	5.12
726.085	5.12
726.836	3.12
727.588	5.12
728.34	2.12
729.091	4.12
729.843	7.12
730.594	3.12
731.346	6.12
732.097	5.12
732.848	5.12
733.599	2.12
734.35	5.12
735.101	3.12
735.852	4.12
736.603	4.12
737.354	4.12
738.104	5.12
738.855	4.12
739.605	4.12
740.356	7.12
741.106	7.12
741.856	5.12
742.607	5.12
743.357	6.12
744.107	5.12
744.857	5.12
745.607	8.12
746.357	6.12
747.106	5.12
747.856	6.12
748.606	4.12
749.355	8.12
750.105	3.12
750.854	5.12
751.603	6.12
752.353	6.12
753.102	9.12
753.851	8.12
754.6	8.12
755.349	9.12
756.098	7.12
756.847	7.12
757.595	9.12
758.344	7.12
759.093	8.12
759.841	4.12
760.589	8.12
761.338	6.12
762.086	6.12
762.834	6.12
763.582	7.12
764.331	7.12
765.079	8.12
765.826	7.12
766.574	8.12
767.322	8.12
768.07	6.12
768.817	8.12
769.565	8.12
770.312	10.12
771.06	9.12
771.807	8.12
772.554	8.12
773.302	8.12
774.049	8.12
774.796	9.12
775.543	7.12
776.29	10.12
777.036	10.12
777.783	13.12
778.53	8.12
779.276	9.12
780.023	10.12
780.769	11.12
781.516	11.12
782.262	9.12
783.008	11.12
783.754	11.12
784.5	10.12
785.246	10.12
785.992	9.12
786.738	11.12
787.484	13.12
788.23	11.12
788.975	10.12
789.721	8.12
790.466	10.12
791.212	9.12
791.957	9.12
792.702	8.12
793.447	7.12
794.193	8.12
794.938	8.12
795.683	10.12
796.427	9.12
797.172	7.12
797.917	10.12
798.662	8.12
799.406	8.12
800.151	7.12
800.895	8.12
801.64	6.12
802.384	8.12
803.128	11.12
803.872	7.12
804.616	9.12
805.36	10.12
806.104	5.12
806.848	7.12
807.592	7.12
808.336	8.12
809.079	7.12
809.823	7.12
810.566	6.12
811.31	6.12
812.053	6.12
812.796	7.12
813.539	5.12
814.283	7.12
815.026	5.12
815.769	6.12
816.511	3.12
817.254	4.12
817.997	6.12
818.74	6.12
819.482	5.12
820.225	2.12
820.967	4.12
821.71	6.12
822.452	4.12
823.194	6.12
823.936	6.12
824.678	6.12
825.42	5.12
826.162	5.12
826.904	4.12
827.646	5.12
828.388	4.12
829.129	4.12
829.871	5.12
830.612	6.12
831.354	5.12
832.095	5.12
832.836	4.12
833.577	5.12
834.319	5.12
835.06	4.12
835.801	5.12
836.542	4.12
837.282	4.12
838.023	3.12
838.764	3.12
839.504	4.12
840.245	6.12
840.985	4.12
841.726	3.12
842.466	7.12
843.206	2.12
843.946	4.12
844.687	4.12
845.427	3.12
846.166	6.12
846.906	3.12
847.646	2.12
848.386	4.12
849.125	2.12
849.865	4.12
850.605	3.12
851.344	2.12
852.083	4.12
852.823	2.12
853.562	4.12
854.301	2.12
855.04	2.12
855.779	4.12
856.518	2.12
857.257	2.12
857.995	2.12
858.734	3.12
859.473	3.12
860.211	1.12
860.95	2.12
861.688	2.12
862.426	4.12
863.165	1.12
863.903	4.12
864.641	4.12
865.379	1.12
866.117	-0.88
866.855	2.12
867.593	0.12
868.33	3.12
869.068	3.12
869.806	2.12
870.543	3.12
871.28	2.12
872.018	3.12
872.755	3.12
873.492	-0.88
874.229	3.12
874.967	0.12
875.703	1.12
876.44	3.12
877.177	2.12
877.914	3.12
878.651	1.12
879.387	1.12
880.124	0.12
880.86	-0.88
881.597	2.12
882.333	1.12
883.069	2.12
883.806	0.12
884.542	2.12
885.278	4.12
886.014	2.12
886.749	2.12
887.485	1.12
888.221	2.12
888.957	2.12
889.692	2.12
890.428	1.12
891.163	1.12
891.899	2.12
892.634	-1.88
893.369	1.12
894.104	2.12
894.839	2.12
895.574	-0.88
896.309	1.12
897.044	0.12
897.779	2.12
898.514	0.12
899.248	1.12
899.983	2.12
900.717	0.12
901.452	2.12
902.186	1.12
902.92	3.12
903.654	1.12
904.389	0.12
905.123	0.12
905.857	1.12
906.59	1.12
907.324	0.12
908.058	2.12
908.792	0.12
909.525	3.12
910.259	0.12
910.992	3.12
911.726	1.12
912.459	1.12
913.192	1.12
913.925	-0.88
914.658	2.12
915.391	2.12
916.124	0.12
916.857	0.12
917.59	2.12
918.323	2.12
919.055	2.12
919.788	0.12
920.521	-0.88
921.253	2.12
921.985	3.12
922.718	2.12
923.45	1.12
924.182	4.12
924.914	0.12
925.646	1.12
926.378	0.12
927.11	1.12
927.841	-0.88
928.573	0.12
929.305	2.12
930.036	2.12
930.768	2.12
931.499	2.12
932.23	2.12
932.962	2.12
933.693	3.12
934.424	1.12
935.155	1.12
935.886	3.12
936.617	0.12
937.348	2.12
938.078	0.12
938.809	2.12
939.54	3.12
940.27	3.12
941.001	1.12
941.731	1.12
942.461	3.12
943.191	-1.88
943.922	3.12
944.652	2.12
945.382	-0.88
946.112	3.12
946.841	1.12
947.571	2.12
948.301	1.12
949.031	1.12
949.76	0.12
950.49	2.12
951.219	2.12
951.948	1.12
952.678	4.12
953.407	0.12
954.136	2.12
954.865	0.12
955.594	-1.88
956.323	3.12
957.052	0.12
957.78	0.12
958.509	1.12
959.238	-0.88
959.966	1.12
960.695	0.12
961.423	1.12
962.151	1.12
962.88	0.12
963.608	2.12
964.336	1.12
965.064	0.12
965.792	2.12
966.52	2.12
967.247	2.12
967.975	-1.88
968.703	1.12
969.43	0.12
970.158	1.12
970.885	2.12
971.613	2.12
972.34	1.12
973.067	2.12
973.794	3.12
974.521	0.12
975.248	1.12
975.975	2.12
976.702	-1.88
977.429	3.12
978.156	2.12
978.882	2.12
979.609	2.12
980.335	-0.88
981.062	1.12
981.788	-1.88
982.514	2.12
983.24	0.12
983.967	1.12
984.693	2.12
985.419	-0.88
986.144	0.12
986.87	1.12
987.596	0.12
988.322	0.12
989.047	1.12
989.773	3.12
990.498	1.12
991.224	2.12
991.949	0.12
992.674	1.12
993.399	2.12
994.124	0.12
994.849	1.12
995.574	1.12
996.299	1.12
997.024	0.12
997.749	0.12
998.473	1.12
999.198	0.12
999.922	1.12
1000.647	-0.88
1001.371	2.12
1002.095	-0.88
1002.82	0.12
1003.544	-1.88
1004.268	2.12
1004.992	2.12
1005.716	2.12
1006.439	4.12
1007.163	3.12
1007.887	4.12
1008.611	2.12
1009.334	2.12
1010.058	2.12
1010.781	1.12
1011.504	1.12
1012.228	2.12
1012.951	-0.88
1013.674	2.12
1014.397	0.12
1015.12	-0.88
