节点500_285_QEPB04081__807__15-08-58-735.txt的数据

Date: Wed Nov 12 15:08:58 CST 2025
User: PC
Spectrometer: QEPB0408
触发模式: 0
积分时间 (秒): 1.000000E-2
Scans to average: 1
启用暗噪声校正: true
启用非线性校正: false
滑动平均宽度: 0
X轴模式: Wavelengths
Number of Pixels in Spectrum: 1044
>>>>>Begin Spectral Data<<<<<
220.843	0.5
221.644	1.5
222.444	1.5
223.244	1.5
224.045	2.5
224.845	0.5
225.645	-2.5
226.445	4.5
227.245	2.5
228.045	1.5
228.845	3.5
229.645	1.5
230.444	2.5
231.244	2.5
232.043	1.5
232.843	2.5
233.642	3.5
234.442	4.5
235.241	1.5
236.04	2.5
236.839	4.5
237.638	2.5
238.437	2.5
239.236	1.5
240.035	1.5
240.833	5.5
241.632	2.5
242.43	1.5
243.229	4.5
244.027	5.5
244.826	4.5
245.624	4.5
246.422	4.5
247.22	6.5
248.018	5.5
248.816	5.5
249.614	4.5
250.412	6.5
251.21	5.5
252.007	5.5
252.805	8.5
253.602	4.5
254.4	5.5
255.197	6.5
255.994	6.5
256.791	7.5
257.589	7.5
258.386	5.5
259.183	5.5
259.979	8.5
260.776	8.5
261.573	7.5
262.37	8.5
263.166	10.5
263.963	8.5
264.759	9.5
265.556	8.5
266.352	9.5
267.148	10.5
267.944	12.5
268.74	11.5
269.536	13.5
270.332	10.5
271.128	13.5
271.924	12.5
272.719	12.5
273.515	14.5
274.311	12.5
275.106	15.5
275.901	13.5
276.697	16.5
277.492	12.5
278.287	12.5
279.082	14.5
279.877	15.5
280.672	13.5
281.467	16.5
282.262	17.5
283.056	17.5
283.851	15.5
284.646	16.5
285.44	16.5
286.234	15.5
287.029	17.5
287.823	17.5
288.617	14.5
289.411	20.5
290.205	16.5
290.999	18.5
291.793	18.5
292.587	17.5
293.381	15.5
294.174	17.5
294.968	13.5
295.761	13.5
296.555	15.5
297.348	13.5
298.141	11.5
298.935	14.5
299.728	14.5
300.521	10.5
301.314	14.5
302.107	13.5
302.899	12.5
303.692	12.5
304.485	9.5
305.277	10.5
306.07	11.5
306.862	13.5
307.655	10.5
308.447	12.5
309.239	14.5
310.031	12.5
310.823	11.5
311.615	8.5
312.407	9.5
313.199	6.5
313.991	6.5
314.783	8.5
315.574	7.5
316.366	8.5
317.157	6.5
317.949	7.5
318.74	7.5
319.531	6.5
320.322	9.5
321.113	7.5
321.904	8.5
322.695	7.5
323.486	6.5
324.277	6.5
325.068	5.5
325.858	7.5
326.649	8.5
327.439	4.5
328.23	6.5
329.02	5.5
329.81	5.5
330.6	3.5
331.391	8.5
332.181	7.5
332.971	6.5
333.76	4.5
334.55	4.5
335.34	6.5
336.13	5.5
336.919	5.5
337.709	7.5
338.498	6.5
339.287	5.5
340.077	4.5
340.866	5.5
341.655	6.5
342.444	8.5
343.233	6.5
344.022	6.5
344.811	7.5
345.6	5.5
346.388	5.5
347.177	3.5
347.965	3.5
348.754	6.5
349.542	3.5
350.33	7.5
351.119	3.5
351.907	7.5
352.695	4.5
353.483	3.5
354.271	5.5
355.059	4.5
355.846	6.5
356.634	3.5
357.422	4.5
358.209	5.5
358.997	6.5
359.784	6.5
360.571	2.5
361.359	5.5
362.146	5.5
362.933	4.5
363.72	6.5
364.507	5.5
365.294	4.5
366.081	6.5
366.867	6.5
367.654	6.5
368.44	6.5
369.227	3.5
370.013	4.5
370.8	4.5
371.586	4.5
372.372	4.5
373.158	2.5
373.944	3.5
374.73	3.5
375.516	3.5
376.302	5.5
377.088	4.5
377.873	3.5
378.659	5.5
379.445	4.5
380.23	5.5
381.015	2.5
381.801	2.5
382.586	3.5
383.371	4.5
384.156	3.5
384.941	2.5
385.726	5.5
386.511	4.5
387.296	3.5
388.08	5.5
388.865	6.5
389.649	2.5
390.434	5.5
391.218	4.5
392.003	6.5
392.787	5.5
393.571	6.5
394.355	3.5
395.139	5.5
395.923	6.5
396.707	6.5
397.491	5.5
398.274	7.5
399.058	5.5
399.842	4.5
400.625	5.5
401.408	5.5
402.192	8.5
402.975	6.5
403.758	9.5
404.541	7.5
405.324	8.5
406.107	7.5
406.89	7.5
407.673	5.5
408.456	6.5
409.238	5.5
410.021	8.5
410.803	7.5
411.586	9.5
412.368	6.5
413.151	7.5
413.933	7.5
414.715	11.5
415.497	6.5
416.279	8.5
417.061	8.5
417.843	8.5
418.624	8.5
419.406	9.5
420.188	6.5
420.969	8.5
421.751	8.5
422.532	10.5
423.313	8.5
424.095	6.5
424.876	11.5
425.657	11.5
426.438	11.5
427.219	8.5
428	11.5
428.78	12.5
429.561	12.5
430.342	12.5
431.122	12.5
431.903	15.5
432.683	13.5
433.464	15.5
434.244	16.5
435.024	13.5
435.804	18.5
436.584	16.5
437.364	22.5
438.144	19.5
438.924	21.5
439.704	22.5
440.483	23.5
441.263	23.5
442.042	25.5
442.822	25.5
443.601	27.5
444.38	31.5
445.16	31.5
445.939	35.5
446.718	38.5
447.497	37.5
448.276	41.5
449.054	44.5
449.833	53.5
450.612	55.5
451.391	60.5
452.169	67.5
452.948	74.5
453.726	84.5
454.504	90.5
455.282	97.5
456.061	110.5
456.839	121.5
457.617	136.5
458.395	148.5
459.172	165.5
459.95	186.5
460.728	205.5
461.506	234.5
462.283	260.5
463.061	281.5
463.838	326.5
464.615	359.5
465.393	394.5
466.17	438.5
466.947	489.5
467.724	543.5
468.501	605.5
469.278	668.5
470.055	732.5
470.831	812.5
471.608	899.5
472.385	1006.5
473.161	1095.5
473.938	1206.5
474.714	1338.5
475.49	1467.5
476.266	1606.5
477.043	1756.5
477.819	1912.5
478.595	2139.5
479.371	2320.5
480.146	2563.5
480.922	2801.5
481.698	3044.5
482.473	3355.5
483.249	3625.5
484.024	3965.5
484.8	4357.5
485.575	4717.5
486.35	5176.5
487.126	5623.5
487.901	6116.5
488.676	6638.5
489.451	7192.5
490.225	7834.5
491	8543.5
491.775	9284.5
492.55	10032.5
493.324	10819.5
494.099	11625.5
494.873	12488.5
495.647	13406.5
496.422	14293.5
497.196	15319.5
497.97	16396.5
498.744	17470.5
499.518	18442.5
500.292	19450.5
501.066	20433.5
501.839	21394.5
502.613	22274.5
503.387	23119.5
504.16	23844.5
504.934	24366.5
505.707	24655.5
506.48	24925.5
507.253	25060.5
508.027	25071.5
508.8	25010.5
509.573	24933.5
510.346	24580.5
511.118	24018.5
511.891	23453.5
512.664	22854.5
513.437	22198.5
514.209	21471.5
514.982	20671.5
515.754	19858.5
516.526	19115.5
517.298	18307.5
518.071	17551.5
518.843	16893.5
519.615	16281.5
520.387	15626.5
521.159	15036.5
521.93	14377.5
522.702	13863.5
523.474	13273.5
524.245	12722.5
525.017	12192.5
525.788	11722.5
526.56	11189.5
527.331	10717.5
528.102	10279.5
528.873	9844.5
529.644	9354.5
530.415	8959.5
531.186	8513.5
531.957	8095.5
532.728	7726.5
533.498	7349.5
534.269	6914.5
535.039	6582.5
535.81	6231.5
536.58	5894.5
537.351	5561.5
538.121	5262.5
538.891	4998.5
539.661	4714.5
540.431	4455.5
541.201	4212.5
541.971	4010.5
542.741	3775.5
543.51	3583.5
544.28	3433.5
545.05	3240.5
545.819	3070.5
546.588	2922.5
547.358	2792.5
548.127	2648.5
548.896	2530.5
549.665	2415.5
550.434	2273.5
551.203	2137.5
551.972	2041.5
552.741	1940.5
553.51	1841.5
554.278	1722.5
555.047	1643.5
555.815	1549.5
556.584	1468.5
557.352	1387.5
558.121	1308.5
558.889	1233.5
559.657	1164.5
560.425	1110.5
561.193	1033.5
561.961	987.5
562.729	925.5
563.496	881.5
564.264	834.5
565.032	781.5
565.799	754.5
566.567	710.5
567.334	678.5
568.101	622.5
568.869	590.5
569.636	551.5
570.403	527.5
571.17	486.5
571.937	466.5
572.704	444.5
573.471	423.5
574.237	397.5
575.004	379.5
575.771	349.5
576.537	325.5
577.303	306.5
578.07	290.5
578.836	270.5
579.602	258.5
580.368	239.5
581.134	229.5
581.9	218.5
582.666	213.5
583.432	196.5
584.198	186.5
584.964	178.5
585.729	172.5
586.495	155.5
587.26	152.5
588.025	144.5
588.791	135.5
589.556	131.5
590.321	120.5
591.086	113.5
591.851	108.5
592.616	100.5
593.381	103.5
594.146	89.5
594.911	87.5
595.675	86.5
596.44	78.5
597.204	77.5
597.969	69.5
598.733	74.5
599.497	65.5
600.261	63.5
601.025	60.5
601.79	58.5
602.553	53.5
603.317	53.5
604.081	51.5
604.845	48.5
605.609	48.5
606.372	44.5
607.136	44.5
607.899	43.5
608.662	40.5
609.426	36.5
610.189	38.5
610.952	38.5
611.715	30.5
612.478	30.5
613.241	35.5
614.004	26.5
614.767	27.5
615.529	28.5
616.292	27.5
617.055	23.5
617.817	22.5
618.579	24.5
619.342	23.5
620.104	22.5
620.866	18.5
621.628	19.5
622.39	19.5
623.152	19.5
623.914	19.5
624.676	17.5
625.438	17.5
626.199	16.5
626.961	14.5
627.722	17.5
628.484	16.5
629.245	14.5
630.006	13.5
630.768	14.5
631.529	13.5
632.29	12.5
633.051	10.5
633.812	10.5
634.573	14.5
635.333	9.5
636.094	10.5
636.855	11.5
637.615	8.5
638.376	9.5
639.136	8.5
639.896	10.5
640.657	9.5
641.417	9.5
642.177	9.5
642.937	6.5
643.697	10.5
644.457	10.5
645.216	9.5
645.976	6.5
646.736	8.5
647.495	9.5
648.255	5.5
649.014	8.5
649.774	7.5
650.533	6.5
651.292	7.5
652.051	3.5
652.81	9.5
653.569	4.5
654.328	6.5
655.087	5.5
655.846	6.5
656.604	6.5
657.363	5.5
658.121	5.5
658.88	6.5
659.638	6.5
660.397	7.5
661.155	5.5
661.913	6.5
662.671	4.5
663.429	5.5
664.187	1.5
664.945	6.5
665.703	5.5
666.46	3.5
667.218	5.5
667.976	5.5
668.733	4.5
669.49	4.5
670.248	5.5
671.005	5.5
671.762	3.5
672.519	5.5
673.276	3.5
674.033	4.5
674.79	4.5
675.547	3.5
676.304	3.5
677.06	3.5
677.817	2.5
678.574	2.5
679.33	5.5
680.086	3.5
680.843	4.5
681.599	0.5
682.355	3.5
683.111	3.5
683.867	3.5
684.623	4.5
685.379	4.5
686.135	4.5
686.89	3.5
687.646	3.5
688.402	3.5
689.157	4.5
689.912	1.5
690.668	1.5
691.423	2.5
692.178	3.5
692.933	1.5
693.688	3.5
694.443	3.5
695.198	4.5
695.953	4.5
696.708	3.5
697.462	2.5
698.217	3.5
698.972	3.5
699.726	0.5
700.48	3.5
701.235	3.5
701.989	1.5
702.743	3.5
703.497	2.5
704.251	2.5
705.005	1.5
705.759	0.5
706.513	1.5
707.266	1.5
708.02	3.5
708.774	4.5
709.527	0.5
710.28	4.5
711.034	3.5
711.787	2.5
712.54	4.5
713.293	3.5
714.046	2.5
714.799	3.5
715.552	3.5
716.305	2.5
717.058	1.5
717.81	1.5
718.563	4.5
719.315	4.5
720.068	1.5
720.82	3.5
721.573	-0.5
722.325	2.5
723.077	2.5
723.829	1.5
724.581	1.5
725.333	3.5
726.085	4.5
726.836	4.5
727.588	4.5
728.34	2.5
729.091	4.5
729.843	4.5
730.594	3.5
731.346	5.5
732.097	3.5
732.848	3.5
733.599	3.5
734.35	4.5
735.101	4.5
735.852	2.5
736.603	3.5
737.354	1.5
738.104	4.5
738.855	5.5
739.605	5.5
740.356	6.5
741.106	2.5
741.856	5.5
742.607	6.5
743.357	4.5
744.107	4.5
744.857	5.5
745.607	3.5
746.357	3.5
747.106	3.5
747.856	4.5
748.606	3.5
749.355	5.5
750.105	2.5
750.854	3.5
751.603	3.5
752.353	3.5
753.102	1.5
753.851	4.5
754.6	3.5
755.349	6.5
756.098	4.5
756.847	5.5
757.595	4.5
758.344	3.5
759.093	5.5
759.841	2.5
760.589	3.5
761.338	6.5
762.086	2.5
762.834	2.5
763.582	6.5
764.331	6.5
765.079	5.5
765.826	6.5
766.574	8.5
767.322	7.5
768.07	5.5
768.817	7.5
769.565	5.5
770.312	6.5
771.06	6.5
771.807	6.5
772.554	5.5
773.302	7.5
774.049	5.5
774.796	5.5
775.543	6.5
776.29	4.5
777.036	8.5
777.783	6.5
778.53	7.5
779.276	9.5
780.023	6.5
780.769	9.5
781.516	6.5
782.262	9.5
783.008	7.5
783.754	6.5
784.5	7.5
785.246	5.5
785.992	7.5
786.738	7.5
787.484	7.5
788.23	6.5
788.975	7.5
789.721	6.5
790.466	9.5
791.212	10.5
791.957	6.5
792.702	10.5
793.447	7.5
794.193	6.5
794.938	10.5
795.683	5.5
796.427	8.5
797.172	5.5
797.917	4.5
798.662	5.5
799.406	6.5
800.151	8.5
800.895	6.5
801.64	5.5
802.384	4.5
803.128	7.5
803.872	7.5
804.616	6.5
805.36	7.5
806.104	5.5
806.848	4.5
807.592	5.5
808.336	3.5
809.079	5.5
809.823	3.5
810.566	6.5
811.31	3.5
812.053	5.5
812.796	4.5
813.539	3.5
814.283	7.5
815.026	5.5
815.769	3.5
816.511	5.5
817.254	1.5
817.997	5.5
818.74	3.5
819.482	3.5
820.225	4.5
820.967	1.5
821.71	2.5
822.452	2.5
823.194	4.5
823.936	3.5
824.678	3.5
825.42	2.5
826.162	4.5
826.904	3.5
827.646	0.5
828.388	4.5
829.129	3.5
829.871	5.5
830.612	3.5
831.354	2.5
832.095	4.5
832.836	2.5
833.577	1.5
834.319	4.5
835.06	3.5
835.801	3.5
836.542	4.5
837.282	0.5
838.023	2.5
838.764	4.5
839.504	1.5
840.245	4.5
840.985	2.5
841.726	3.5
842.466	5.5
843.206	3.5
843.946	2.5
844.687	2.5
845.427	2.5
846.166	1.5
846.906	3.5
847.646	4.5
848.386	1.5
849.125	2.5
849.865	1.5
850.605	2.5
851.344	1.5
852.083	1.5
852.823	2.5
853.562	-0.5
854.301	2.5
855.04	2.5
855.779	1.5
856.518	0.5
857.257	-0.5
857.995	0.5
858.734	1.5
859.473	2.5
860.211	1.5
860.95	4.5
861.688	2.5
862.426	-0.5
863.165	2.5
863.903	0.5
864.641	2.5
865.379	0.5
866.117	1.5
866.855	0.5
867.593	-0.5
868.33	1.5
869.068	2.5
869.806	0.5
870.543	0.5
871.28	0.5
872.018	1.5
872.755	-0.5
873.492	1.5
874.229	1.5
874.967	1.5
875.703	-2.5
876.44	0.5
877.177	1.5
877.914	1.5
878.651	0.5
879.387	4.5
880.124	-0.5
880.86	1.5
881.597	1.5
882.333	2.5
883.069	0.5
883.806	1.5
884.542	-1.5
885.278	1.5
886.014	1.5
886.749	0.5
887.485	2.5
888.221	-0.5
888.957	-0.5
889.692	2.5
890.428	-0.5
891.163	-0.5
891.899	-0.5
892.634	0.5
893.369	0.5
894.104	-0.5
894.839	1.5
895.574	0.5
896.309	0.5
897.044	-1.5
897.779	2.5
898.514	-0.5
899.248	1.5
899.983	2.5
900.717	0.5
901.452	0.5
902.186	-2.5
902.92	1.5
903.654	1.5
904.389	-0.5
905.123	1.5
905.857	-0.5
906.59	-0.5
907.324	0.5
908.058	0.5
908.792	0.5
909.525	-0.5
910.259	1.5
910.992	-2.5
911.726	-0.5
912.459	1.5
913.192	0.5
913.925	-0.5
914.658	-0.5
915.391	-1.5
916.124	-2.5
916.857	0.5
917.59	-0.5
918.323	-0.5
919.055	-0.5
919.788	1.5
920.521	1.5
921.253	-2.5
921.985	0.5
922.718	0.5
923.45	-0.5
924.182	2.5
924.914	-0.5
925.646	-0.5
926.378	-0.5
927.11	0.5
927.841	-2.5
928.573	1.5
929.305	-0.5
930.036	-0.5
930.768	0.5
931.499	-0.5
932.23	1.5
932.962	0.5
933.693	-1.5
934.424	-0.5
935.155	-0.5
935.886	-0.5
936.617	2.5
937.348	0.5
938.078	0.5
938.809	-2.5
939.54	0.5
940.27	0.5
941.001	-1.5
941.731	-0.5
942.461	1.5
943.191	1.5
943.922	-0.5
944.652	2.5
945.382	-2.5
946.112	0.5
946.841	1.5
947.571	0.5
948.301	0.5
949.031	0.5
949.76	0.5
950.49	0.5
951.219	0.5
951.948	-0.5
952.678	-1.5
953.407	0.5
954.136	-3.5
954.865	-0.5
955.594	0.5
956.323	1.5
957.052	-0.5
957.78	-1.5
958.509	-1.5
959.238	0.5
959.966	1.5
960.695	-1.5
961.423	-1.5
962.151	-0.5
962.88	-0.5
963.608	0.5
964.336	-0.5
965.064	-0.5
965.792	-0.5
966.52	0.5
967.247	-1.5
967.975	-0.5
968.703	-0.5
969.43	-0.5
970.158	-0.5
970.885	0.5
971.613	-0.5
972.34	-1.5
973.067	-0.5
973.794	1.5
974.521	1.5
975.248	0.5
975.975	-1.5
976.702	0.5
977.429	-0.5
978.156	-0.5
978.882	-1.5
979.609	1.5
980.335	-0.5
981.062	-0.5
981.788	1.5
982.514	-1.5
983.24	-2.5
983.967	1.5
984.693	-2.5
985.419	1.5
986.144	-0.5
986.87	1.5
987.596	0.5
988.322	-0.5
989.047	0.5
989.773	-1.5
990.498	-0.5
991.224	0.5
991.949	-0.5
992.674	-0.5
993.399	0.5
994.124	-0.5
994.849	-0.5
995.574	-2.5
996.299	-0.5
997.024	0.5
997.749	-0.5
998.473	-0.5
999.198	-2.5
999.922	-1.5
1000.647	0.5
1001.371	1.5
1002.095	-0.5
1002.82	-2.5
1003.544	-1.5
1004.268	0.5
1004.992	-0.5
1005.716	0.5
1006.439	1.5
1007.163	0.5
1007.887	0.5
1008.611	-0.5
1009.334	-2.5
1010.058	0.5
1010.781	-0.5
1011.504	-0.5
1012.228	1.5
1012.951	-0.5
1013.674	2.5
1014.397	1.5
1015.12	-0.5
