节点500_285_QEPB04081__298__15-00-30-772.txt的数据

Date: Wed Nov 12 15:00:30 CST 2025
User: PC
Spectrometer: QEPB0408
触发模式: 0
积分时间 (秒): 1.000000E-2
Scans to average: 1
启用暗噪声校正: true
启用非线性校正: false
滑动平均宽度: 0
X轴模式: Wavelengths
Number of Pixels in Spectrum: 1044
>>>>>Begin Spectral Data<<<<<
220.843	1.62
221.644	1.62
222.444	3.62
223.244	1.62
224.045	3.62
224.845	3.62
225.645	2.62
226.445	3.62
227.245	1.62
228.045	1.62
228.845	2.62
229.645	1.62
230.444	4.62
231.244	2.62
232.043	4.62
232.843	2.62
233.642	3.62
234.442	4.62
235.241	4.62
236.04	3.62
236.839	4.62
237.638	2.62
238.437	4.62
239.236	4.62
240.035	6.62
240.833	3.62
241.632	3.62
242.43	6.62
243.229	6.62
244.027	3.62
244.826	4.62
245.624	7.62
246.422	6.62
247.22	7.62
248.018	6.62
248.816	6.62
249.614	7.62
250.412	8.62
251.21	9.62
252.007	7.62
252.805	7.62
253.602	5.62
254.4	6.62
255.197	5.62
255.994	9.62
256.791	9.62
257.589	9.62
258.386	8.62
259.183	9.62
259.979	9.62
260.776	8.62
261.573	8.62
262.37	12.62
263.166	8.62
263.963	10.62
264.759	11.62
265.556	11.62
266.352	10.62
267.148	12.62
267.944	12.62
268.74	13.62
269.536	13.62
270.332	13.62
271.128	13.62
271.924	16.62
272.719	13.62
273.515	17.62
274.311	17.62
275.106	16.62
275.901	16.62
276.697	16.62
277.492	18.62
278.287	16.62
279.082	16.62
279.877	16.62
280.672	17.62
281.467	17.62
282.262	21.62
283.056	19.62
283.851	18.62
284.646	18.62
285.44	19.62
286.234	17.62
287.029	17.62
287.823	18.62
288.617	17.62
289.411	18.62
290.205	17.62
290.999	18.62
291.793	21.62
292.587	18.62
293.381	15.62
294.174	16.62
294.968	16.62
295.761	14.62
296.555	15.62
297.348	13.62
298.141	14.62
298.935	18.62
299.728	13.62
300.521	16.62
301.314	13.62
302.107	14.62
302.899	13.62
303.692	15.62
304.485	12.62
305.277	11.62
306.07	12.62
306.862	11.62
307.655	13.62
308.447	10.62
309.239	12.62
310.031	12.62
310.823	9.62
311.615	9.62
312.407	8.62
313.199	11.62
313.991	8.62
314.783	9.62
315.574	9.62
316.366	8.62
317.157	10.62
317.949	10.62
318.74	6.62
319.531	9.62
320.322	10.62
321.113	9.62
321.904	7.62
322.695	6.62
323.486	4.62
324.277	6.62
325.068	5.62
325.858	6.62
326.649	9.62
327.439	8.62
328.23	6.62
329.02	6.62
329.81	8.62
330.6	4.62
331.391	7.62
332.181	7.62
332.971	4.62
333.76	6.62
334.55	6.62
335.34	5.62
336.13	7.62
336.919	4.62
337.709	7.62
338.498	6.62
339.287	6.62
340.077	6.62
340.866	6.62
341.655	6.62
342.444	5.62
343.233	6.62
344.022	5.62
344.811	5.62
345.6	5.62
346.388	7.62
347.177	5.62
347.965	3.62
348.754	6.62
349.542	6.62
350.33	5.62
351.119	5.62
351.907	4.62
352.695	8.62
353.483	9.62
354.271	5.62
355.059	6.62
355.846	6.62
356.634	6.62
357.422	6.62
358.209	5.62
358.997	6.62
359.784	4.62
360.571	3.62
361.359	4.62
362.146	6.62
362.933	6.62
363.72	5.62
364.507	4.62
365.294	4.62
366.081	5.62
366.867	6.62
367.654	3.62
368.44	3.62
369.227	5.62
370.013	5.62
370.8	4.62
371.586	7.62
372.372	3.62
373.158	3.62
373.944	5.62
374.73	3.62
375.516	4.62
376.302	3.62
377.088	6.62
377.873	4.62
378.659	4.62
379.445	4.62
380.23	4.62
381.015	6.62
381.801	5.62
382.586	7.62
383.371	4.62
384.156	3.62
384.941	7.62
385.726	2.62
386.511	4.62
387.296	5.62
388.08	5.62
388.865	5.62
389.649	4.62
390.434	6.62
391.218	5.62
392.003	6.62
392.787	3.62
393.571	5.62
394.355	4.62
395.139	7.62
395.923	7.62
396.707	6.62
397.491	6.62
398.274	8.62
399.058	6.62
399.842	7.62
400.625	6.62
401.408	7.62
402.192	6.62
402.975	5.62
403.758	6.62
404.541	7.62
405.324	5.62
406.107	8.62
406.89	8.62
407.673	8.62
408.456	7.62
409.238	7.62
410.021	7.62
410.803	8.62
411.586	7.62
412.368	9.62
413.151	11.62
413.933	11.62
414.715	7.62
415.497	6.62
416.279	8.62
417.061	8.62
417.843	7.62
418.624	9.62
419.406	9.62
420.188	8.62
420.969	11.62
421.751	13.62
422.532	9.62
423.313	10.62
424.095	11.62
424.876	9.62
425.657	11.62
426.438	12.62
427.219	11.62
428	14.62
428.78	13.62
429.561	13.62
430.342	14.62
431.122	13.62
431.903	11.62
432.683	15.62
433.464	13.62
434.244	15.62
435.024	15.62
435.804	20.62
436.584	16.62
437.364	20.62
438.144	18.62
438.924	18.62
439.704	19.62
440.483	23.62
441.263	23.62
442.042	25.62
442.822	28.62
443.601	28.62
444.38	33.62
445.16	32.62
445.939	33.62
446.718	33.62
447.497	36.62
448.276	39.62
449.054	42.62
449.833	47.62
450.612	50.62
451.391	57.62
452.169	60.62
452.948	67.62
453.726	73.62
454.504	81.62
455.282	91.62
456.061	95.62
456.839	110.62
457.617	123.62
458.395	128.62
459.172	151.62
459.95	167.62
460.728	179.62
461.506	205.62
462.283	229.62
463.061	253.62
463.838	281.62
464.615	322.62
465.393	356.62
466.17	399.62
466.947	448.62
467.724	485.62
468.501	546.62
469.278	613.62
470.055	677.62
470.831	757.62
471.608	845.62
472.385	949.62
473.161	1031.62
473.938	1160.62
474.714	1278.62
475.49	1412.62
476.266	1573.62
477.043	1725.62
477.819	1918.62
478.595	2133.62
479.371	2350.62
480.146	2583.62
480.922	2861.62
481.698	3168.62
482.473	3511.62
483.249	3837.62
484.024	4242.62
484.8	4641.62
485.575	5121.62
486.35	5612.62
487.126	6133.62
487.901	6745.62
488.676	7409.62
489.451	8173.62
490.225	8913.62
491	9743.62
491.775	10659.62
492.55	11607.62
493.324	12575.62
494.099	13613.62
494.873	14641.62
495.647	15770.62
496.422	16976.62
497.196	18148.62
497.97	19332.62
498.744	20640.62
499.518	21766.62
500.292	22896.62
501.066	23978.62
501.839	24992.62
502.613	25873.62
503.387	26615.62
504.16	27190.62
504.934	27586.62
505.707	27739.62
506.48	27705.62
507.253	27599.62
508.027	27293.62
508.8	26975.62
509.573	26526.62
510.346	25861.62
511.118	25042.62
511.891	24241.62
512.664	23369.62
513.437	22467.62
514.209	21489.62
514.982	20583.62
515.754	19681.62
516.526	18878.62
517.298	17989.62
518.071	17203.62
518.843	16545.62
519.615	15934.62
520.387	15318.62
521.159	14686.62
521.93	14113.62
522.702	13552.62
523.474	12971.62
524.245	12365.62
525.017	11877.62
525.788	11448.62
526.56	10903.62
527.331	10395.62
528.102	9904.62
528.873	9466.62
529.644	8957.62
530.415	8547.62
531.186	8080.62
531.957	7649.62
532.728	7291.62
533.498	6868.62
534.269	6505.62
535.039	6155.62
535.81	5824.62
536.58	5484.62
537.351	5179.62
538.121	4895.62
538.891	4617.62
539.661	4399.62
540.431	4135.62
541.201	3885.62
541.971	3701.62
542.741	3500.62
543.51	3346.62
544.28	3186.62
545.05	3009.62
545.819	2861.62
546.588	2717.62
547.358	2580.62
548.127	2472.62
548.896	2342.62
549.665	2212.62
550.434	2097.62
551.203	1980.62
551.972	1874.62
552.741	1786.62
553.51	1678.62
554.278	1576.62
555.047	1492.62
555.815	1409.62
556.584	1339.62
557.352	1266.62
558.121	1186.62
558.889	1123.62
559.657	1059.62
560.425	1004.62
561.193	947.62
561.961	891.62
562.729	843.62
563.496	788.62
564.264	745.62
565.032	712.62
565.799	677.62
566.567	637.62
567.334	602.62
568.101	573.62
568.869	541.62
569.636	503.62
570.403	475.62
571.17	443.62
571.937	417.62
572.704	396.62
573.471	376.62
574.237	352.62
575.004	336.62
575.771	315.62
576.537	290.62
577.303	280.62
578.07	265.62
578.836	241.62
579.602	229.62
580.368	221.62
581.134	207.62
581.9	199.62
582.666	187.62
583.432	179.62
584.198	168.62
584.964	162.62
585.729	152.62
586.495	145.62
587.26	138.62
588.025	123.62
588.791	119.62
589.556	118.62
590.321	108.62
591.086	102.62
591.851	98.62
592.616	93.62
593.381	88.62
594.146	84.62
594.911	79.62
595.675	77.62
596.44	73.62
597.204	71.62
597.969	67.62
598.733	63.62
599.497	61.62
600.261	60.62
601.025	57.62
601.79	51.62
602.553	54.62
603.317	50.62
604.081	47.62
604.845	44.62
605.609	41.62
606.372	41.62
607.136	41.62
607.899	39.62
608.662	39.62
609.426	32.62
610.189	34.62
610.952	29.62
611.715	33.62
612.478	29.62
613.241	29.62
614.004	29.62
614.767	24.62
615.529	27.62
616.292	25.62
617.055	25.62
617.817	20.62
618.579	23.62
619.342	22.62
620.104	18.62
620.866	20.62
621.628	20.62
622.39	19.62
623.152	19.62
623.914	17.62
624.676	18.62
625.438	17.62
626.199	15.62
626.961	16.62
627.722	17.62
628.484	13.62
629.245	15.62
630.006	12.62
630.768	13.62
631.529	14.62
632.29	12.62
633.051	10.62
633.812	13.62
634.573	11.62
635.333	11.62
636.094	12.62
636.855	9.62
637.615	12.62
638.376	7.62
639.136	11.62
639.896	10.62
640.657	9.62
641.417	10.62
642.177	8.62
642.937	10.62
643.697	8.62
644.457	7.62
645.216	8.62
645.976	7.62
646.736	8.62
647.495	7.62
648.255	9.62
649.014	7.62
649.774	9.62
650.533	6.62
651.292	6.62
652.051	5.62
652.81	5.62
653.569	6.62
654.328	6.62
655.087	6.62
655.846	8.62
656.604	5.62
657.363	6.62
658.121	4.62
658.88	4.62
659.638	6.62
660.397	8.62
661.155	6.62
661.913	2.62
662.671	4.62
663.429	2.62
664.187	5.62
664.945	4.62
665.703	4.62
666.46	6.62
667.218	4.62
667.976	6.62
668.733	2.62
669.49	4.62
670.248	4.62
671.005	3.62
671.762	5.62
672.519	4.62
673.276	3.62
674.033	5.62
674.79	2.62
675.547	3.62
676.304	3.62
677.06	3.62
677.817	2.62
678.574	4.62
679.33	5.62
680.086	2.62
680.843	4.62
681.599	4.62
682.355	4.62
683.111	5.62
683.867	3.62
684.623	0.62
685.379	1.62
686.135	4.62
686.89	4.62
687.646	2.62
688.402	3.62
689.157	3.62
689.912	5.62
690.668	4.62
691.423	3.62
692.178	3.62
692.933	4.62
693.688	4.62
694.443	3.62
695.198	4.62
695.953	3.62
696.708	3.62
697.462	4.62
698.217	4.62
698.972	2.62
699.726	4.62
700.48	5.62
701.235	1.62
701.989	4.62
702.743	4.62
703.497	2.62
704.251	2.62
705.005	1.62
705.759	4.62
706.513	4.62
707.266	2.62
708.02	4.62
708.774	1.62
709.527	1.62
710.28	3.62
711.034	3.62
711.787	3.62
712.54	4.62
713.293	3.62
714.046	3.62
714.799	4.62
715.552	2.62
716.305	1.62
717.058	1.62
717.81	2.62
718.563	3.62
719.315	2.62
720.068	4.62
720.82	2.62
721.573	5.62
722.325	5.62
723.077	2.62
723.829	4.62
724.581	1.62
725.333	2.62
726.085	3.62
726.836	5.62
727.588	4.62
728.34	3.62
729.091	4.62
729.843	4.62
730.594	2.62
731.346	5.62
732.097	3.62
732.848	6.62
733.599	2.62
734.35	4.62
735.101	3.62
735.852	2.62
736.603	3.62
737.354	2.62
738.104	5.62
738.855	3.62
739.605	5.62
740.356	4.62
741.106	3.62
741.856	4.62
742.607	3.62
743.357	5.62
744.107	5.62
744.857	5.62
745.607	6.62
746.357	4.62
747.106	4.62
747.856	5.62
748.606	5.62
749.355	5.62
750.105	0.62
750.854	5.62
751.603	4.62
752.353	2.62
753.102	4.62
753.851	6.62
754.6	6.62
755.349	3.62
756.098	5.62
756.847	5.62
757.595	7.62
758.344	6.62
759.093	5.62
759.841	7.62
760.589	7.62
761.338	7.62
762.086	4.62
762.834	7.62
763.582	9.62
764.331	7.62
765.079	2.62
765.826	6.62
766.574	6.62
767.322	6.62
768.07	6.62
768.817	6.62
769.565	6.62
770.312	8.62
771.06	8.62
771.807	6.62
772.554	8.62
773.302	5.62
774.049	8.62
774.796	5.62
775.543	7.62
776.29	8.62
777.036	6.62
777.783	10.62
778.53	9.62
779.276	10.62
780.023	7.62
780.769	9.62
781.516	7.62
782.262	7.62
783.008	10.62
783.754	8.62
784.5	9.62
785.246	7.62
785.992	10.62
786.738	8.62
787.484	9.62
788.23	9.62
788.975	8.62
789.721	8.62
790.466	9.62
791.212	6.62
791.957	7.62
792.702	9.62
793.447	6.62
794.193	7.62
794.938	7.62
795.683	8.62
796.427	7.62
797.172	6.62
797.917	6.62
798.662	8.62
799.406	7.62
800.151	6.62
800.895	7.62
801.64	6.62
802.384	5.62
803.128	8.62
803.872	7.62
804.616	6.62
805.36	5.62
806.104	5.62
806.848	6.62
807.592	6.62
808.336	4.62
809.079	5.62
809.823	3.62
810.566	6.62
811.31	4.62
812.053	5.62
812.796	5.62
813.539	4.62
814.283	4.62
815.026	6.62
815.769	4.62
816.511	4.62
817.254	2.62
817.997	6.62
818.74	4.62
819.482	5.62
820.225	3.62
820.967	3.62
821.71	4.62
822.452	3.62
823.194	3.62
823.936	4.62
824.678	5.62
825.42	6.62
826.162	4.62
826.904	3.62
827.646	5.62
828.388	1.62
829.129	2.62
829.871	1.62
830.612	1.62
831.354	3.62
832.095	1.62
832.836	3.62
833.577	2.62
834.319	3.62
835.06	3.62
835.801	3.62
836.542	5.62
837.282	4.62
838.023	3.62
838.764	1.62
839.504	1.62
840.245	2.62
840.985	1.62
841.726	2.62
842.466	1.62
843.206	2.62
843.946	3.62
844.687	3.62
845.427	2.62
846.166	3.62
846.906	4.62
847.646	4.62
848.386	2.62
849.125	3.62
849.865	2.62
850.605	3.62
851.344	1.62
852.083	2.62
852.823	3.62
853.562	2.62
854.301	2.62
855.04	2.62
855.779	5.62
856.518	3.62
857.257	2.62
857.995	5.62
858.734	3.62
859.473	1.62
860.211	2.62
860.95	1.62
861.688	1.62
862.426	2.62
863.165	1.62
863.903	1.62
864.641	2.62
865.379	1.62
866.117	1.62
866.855	3.62
867.593	1.62
868.33	2.62
869.068	1.62
869.806	4.62
870.543	0.62
871.28	2.62
872.018	0.62
872.755	1.62
873.492	-0.38
874.229	2.62
874.967	0.62
875.703	1.62
876.44	1.62
877.177	-0.38
877.914	-0.38
878.651	1.62
879.387	-0.38
880.124	1.62
880.86	1.62
881.597	1.62
882.333	2.62
883.069	0.62
883.806	0.62
884.542	0.62
885.278	0.62
886.014	-0.38
886.749	0.62
887.485	-0.38
888.221	-0.38
888.957	0.62
889.692	-1.38
890.428	1.62
891.163	1.62
891.899	-1.38
892.634	0.62
893.369	-0.38
894.104	0.62
894.839	-0.38
895.574	4.62
896.309	1.62
897.044	0.62
897.779	-2.38
898.514	1.62
899.248	0.62
899.983	1.62
900.717	0.62
901.452	-0.38
902.186	0.62
902.92	2.62
903.654	1.62
904.389	1.62
905.123	-2.38
905.857	0.62
906.59	1.62
907.324	0.62
908.058	2.62
908.792	0.62
909.525	0.62
910.259	0.62
910.992	0.62
911.726	1.62
912.459	-1.38
913.192	0.62
913.925	1.62
914.658	-1.38
915.391	-0.38
916.124	-0.38
916.857	1.62
917.59	-0.38
918.323	-0.38
919.055	1.62
919.788	0.62
920.521	-0.38
921.253	-2.38
921.985	1.62
922.718	0.62
923.45	-0.38
924.182	0.62
924.914	0.62
925.646	-0.38
926.378	-1.38
927.11	1.62
927.841	-0.38
928.573	-0.38
929.305	-0.38
930.036	-2.38
930.768	-0.38
931.499	0.62
932.23	0.62
932.962	1.62
933.693	-0.38
934.424	0.62
935.155	1.62
935.886	0.62
936.617	-0.38
937.348	0.62
938.078	0.62
938.809	-0.38
939.54	-2.38
940.27	-1.38
941.001	-0.38
941.731	-1.38
942.461	-0.38
943.191	-1.38
943.922	-1.38
944.652	2.62
945.382	-0.38
946.112	0.62
946.841	-1.38
947.571	0.62
948.301	0.62
949.031	0.62
949.76	0.62
950.49	-0.38
951.219	0.62
951.948	0.62
952.678	-1.38
953.407	-0.38
954.136	0.62
954.865	1.62
955.594	0.62
956.323	2.62
957.052	2.62
957.78	1.62
958.509	1.62
959.238	1.62
959.966	1.62
960.695	0.62
961.423	1.62
962.151	0.62
962.88	1.62
963.608	1.62
964.336	1.62
965.064	-0.38
965.792	-0.38
966.52	-0.38
967.247	1.62
967.975	-0.38
968.703	0.62
969.43	1.62
970.158	-0.38
970.885	1.62
971.613	-1.38
972.34	-0.38
973.067	1.62
973.794	-0.38
974.521	-2.38
975.248	-0.38
975.975	0.62
976.702	-0.38
977.429	1.62
978.156	1.62
978.882	-1.38
979.609	-1.38
980.335	-0.38
981.062	-0.38
981.788	0.62
982.514	2.62
983.24	1.62
983.967	1.62
984.693	-1.38
985.419	1.62
986.144	0.62
986.87	0.62
987.596	0.62
988.322	0.62
989.047	0.62
989.773	0.62
990.498	2.62
991.224	-0.38
991.949	-0.38
992.674	1.62
993.399	-0.38
994.124	-0.38
994.849	1.62
995.574	-0.38
996.299	0.62
997.024	0.62
997.749	-0.38
998.473	0.62
999.198	-0.38
999.922	-1.38
1000.647	0.62
1001.371	3.62
1002.095	-1.38
1002.82	-2.38
1003.544	-1.38
1004.268	0.62
1004.992	0.62
1005.716	-0.38
1006.439	1.62
1007.163	1.62
1007.887	1.62
1008.611	-0.38
1009.334	2.62
1010.058	-2.38
1010.781	1.62
1011.504	-0.38
1012.228	0.62
1012.951	1.62
1013.674	0.62
1014.397	0.62
1015.12	-1.38
