节点500_285_QEPB04081__671__15-06-42-974.txt的数据

Date: Wed Nov 12 15:06:42 CST 2025
User: PC
Spectrometer: QEPB0408
触发模式: 0
积分时间 (秒): 1.000000E-2
Scans to average: 1
启用暗噪声校正: true
启用非线性校正: false
滑动平均宽度: 0
X轴模式: Wavelengths
Number of Pixels in Spectrum: 1044
>>>>>Begin Spectral Data<<<<<
220.843	2.88
221.644	2.88
222.444	0.88
223.244	0.88
224.045	0.88
224.845	-1.12
225.645	1.88
226.445	2.88
227.245	1.88
228.045	0.88
228.845	0.88
229.645	1.88
230.444	1.88
231.244	2.88
232.043	3.88
232.843	2.88
233.642	3.88
234.442	2.88
235.241	4.88
236.04	1.88
236.839	4.88
237.638	5.88
238.437	3.88
239.236	4.88
240.035	3.88
240.833	3.88
241.632	4.88
242.43	2.88
243.229	5.88
244.027	4.88
244.826	6.88
245.624	6.88
246.422	5.88
247.22	9.88
248.018	3.88
248.816	7.88
249.614	3.88
250.412	5.88
251.21	5.88
252.007	5.88
252.805	6.88
253.602	6.88
254.4	8.88
255.197	9.88
255.994	6.88
256.791	5.88
257.589	9.88
258.386	9.88
259.183	11.88
259.979	7.88
260.776	8.88
261.573	7.88
262.37	10.88
263.166	7.88
263.963	7.88
264.759	8.88
265.556	10.88
266.352	12.88
267.148	10.88
267.944	12.88
268.74	10.88
269.536	12.88
270.332	16.88
271.128	13.88
271.924	15.88
272.719	16.88
273.515	15.88
274.311	14.88
275.106	16.88
275.901	16.88
276.697	12.88
277.492	16.88
278.287	12.88
279.082	17.88
279.877	18.88
280.672	16.88
281.467	17.88
282.262	13.88
283.056	16.88
283.851	15.88
284.646	17.88
285.44	15.88
286.234	16.88
287.029	14.88
287.823	15.88
288.617	16.88
289.411	16.88
290.205	16.88
290.999	16.88
291.793	16.88
292.587	18.88
293.381	13.88
294.174	16.88
294.968	17.88
295.761	13.88
296.555	13.88
297.348	13.88
298.141	12.88
298.935	13.88
299.728	14.88
300.521	15.88
301.314	13.88
302.107	16.88
302.899	10.88
303.692	11.88
304.485	12.88
305.277	12.88
306.07	11.88
306.862	10.88
307.655	10.88
308.447	10.88
309.239	11.88
310.031	9.88
310.823	11.88
311.615	10.88
312.407	8.88
313.199	10.88
313.991	11.88
314.783	8.88
315.574	7.88
316.366	9.88
317.157	7.88
317.949	6.88
318.74	8.88
319.531	7.88
320.322	6.88
321.113	8.88
321.904	6.88
322.695	6.88
323.486	5.88
324.277	8.88
325.068	5.88
325.858	6.88
326.649	8.88
327.439	5.88
328.23	8.88
329.02	3.88
329.81	4.88
330.6	8.88
331.391	5.88
332.181	6.88
332.971	5.88
333.76	9.88
334.55	5.88
335.34	8.88
336.13	5.88
336.919	4.88
337.709	6.88
338.498	5.88
339.287	6.88
340.077	7.88
340.866	6.88
341.655	4.88
342.444	3.88
343.233	5.88
344.022	5.88
344.811	8.88
345.6	6.88
346.388	5.88
347.177	7.88
347.965	4.88
348.754	4.88
349.542	6.88
350.33	6.88
351.119	2.88
351.907	6.88
352.695	6.88
353.483	4.88
354.271	6.88
355.059	4.88
355.846	3.88
356.634	6.88
357.422	3.88
358.209	5.88
358.997	4.88
359.784	4.88
360.571	7.88
361.359	4.88
362.146	5.88
362.933	5.88
363.72	4.88
364.507	3.88
365.294	6.88
366.081	4.88
366.867	3.88
367.654	5.88
368.44	4.88
369.227	5.88
370.013	4.88
370.8	6.88
371.586	5.88
372.372	5.88
373.158	2.88
373.944	3.88
374.73	6.88
375.516	3.88
376.302	2.88
377.088	5.88
377.873	6.88
378.659	4.88
379.445	5.88
380.23	5.88
381.015	7.88
381.801	4.88
382.586	4.88
383.371	3.88
384.156	2.88
384.941	4.88
385.726	6.88
386.511	5.88
387.296	6.88
388.08	4.88
388.865	2.88
389.649	7.88
390.434	4.88
391.218	5.88
392.003	6.88
392.787	4.88
393.571	5.88
394.355	4.88
395.139	3.88
395.923	6.88
396.707	7.88
397.491	6.88
398.274	6.88
399.058	5.88
399.842	6.88
400.625	6.88
401.408	6.88
402.192	5.88
402.975	7.88
403.758	5.88
404.541	8.88
405.324	4.88
406.107	9.88
406.89	5.88
407.673	7.88
408.456	9.88
409.238	8.88
410.021	9.88
410.803	9.88
411.586	8.88
412.368	7.88
413.151	7.88
413.933	8.88
414.715	7.88
415.497	8.88
416.279	5.88
417.061	7.88
417.843	7.88
418.624	10.88
419.406	7.88
420.188	9.88
420.969	8.88
421.751	10.88
422.532	10.88
423.313	8.88
424.095	9.88
424.876	11.88
425.657	10.88
426.438	11.88
427.219	12.88
428	12.88
428.78	15.88
429.561	12.88
430.342	12.88
431.122	13.88
431.903	13.88
432.683	13.88
433.464	14.88
434.244	16.88
435.024	13.88
435.804	17.88
436.584	19.88
437.364	21.88
438.144	17.88
438.924	18.88
439.704	23.88
440.483	23.88
441.263	23.88
442.042	24.88
442.822	24.88
443.601	27.88
444.38	30.88
445.16	32.88
445.939	33.88
446.718	42.88
447.497	39.88
448.276	44.88
449.054	43.88
449.833	52.88
450.612	56.88
451.391	61.88
452.169	65.88
452.948	71.88
453.726	84.88
454.504	87.88
455.282	100.88
456.061	111.88
456.839	120.88
457.617	129.88
458.395	143.88
459.172	157.88
459.95	185.88
460.728	204.88
461.506	222.88
462.283	256.88
463.061	277.88
463.838	313.88
464.615	348.88
465.393	387.88
466.17	436.88
466.947	473.88
467.724	533.88
468.501	592.88
469.278	661.88
470.055	729.88
470.831	806.88
471.608	893.88
472.385	985.88
473.161	1088.88
473.938	1184.88
474.714	1315.88
475.49	1459.88
476.266	1603.88
477.043	1765.88
477.819	1939.88
478.595	2131.88
479.371	2339.88
480.146	2568.88
480.922	2816.88
481.698	3080.88
482.473	3360.88
483.249	3694.88
484.024	4028.88
484.8	4413.88
485.575	4792.88
486.35	5255.88
487.126	5736.88
487.901	6232.88
488.676	6795.88
489.451	7416.88
490.225	8083.88
491	8805.88
491.775	9555.88
492.55	10371.88
493.324	11168.88
494.099	12059.88
494.873	12895.88
495.647	13922.88
496.422	14924.88
497.196	15971.88
497.97	17037.88
498.744	18083.88
499.518	19133.88
500.292	20246.88
501.066	21255.88
501.839	22187.88
502.613	23070.88
503.387	23953.88
504.16	24633.88
504.934	25053.88
505.707	25436.88
506.48	25643.88
507.253	25685.88
508.027	25666.88
508.8	25611.88
509.573	25440.88
510.346	24954.88
511.118	24396.88
511.891	23787.88
512.664	23066.88
513.437	22379.88
514.209	21481.88
514.982	20725.88
515.754	19919.88
516.526	19048.88
517.298	18286.88
518.071	17492.88
518.843	16904.88
519.615	16263.88
520.387	15596.88
521.159	15039.88
521.93	14404.88
522.702	13839.88
523.474	13336.88
524.245	12699.88
525.017	12142.88
525.788	11705.88
526.56	11176.88
527.331	10681.88
528.102	10257.88
528.873	9768.88
529.644	9322.88
530.415	8875.88
531.186	8461.88
531.957	7995.88
532.728	7628.88
533.498	7282.88
534.269	6873.88
535.039	6512.88
535.81	6153.88
536.58	5821.88
537.351	5459.88
538.121	5186.88
538.891	4924.88
539.661	4660.88
540.431	4397.88
541.201	4149.88
541.971	3923.88
542.741	3737.88
543.51	3528.88
544.28	3401.88
545.05	3199.88
545.819	3037.88
546.588	2901.88
547.358	2758.88
548.127	2630.88
548.896	2470.88
549.665	2370.88
550.434	2249.88
551.203	2123.88
551.972	2014.88
552.741	1913.88
553.51	1812.88
554.278	1712.88
555.047	1612.88
555.815	1530.88
556.584	1433.88
557.352	1342.88
558.121	1279.88
558.889	1203.88
559.657	1151.88
560.425	1098.88
561.193	1025.88
561.961	966.88
562.729	902.88
563.496	861.88
564.264	817.88
565.032	771.88
565.799	740.88
566.567	692.88
567.334	649.88
568.101	626.88
568.869	579.88
569.636	546.88
570.403	507.88
571.17	478.88
571.937	455.88
572.704	434.88
573.471	400.88
574.237	384.88
575.004	363.88
575.771	343.88
576.537	318.88
577.303	297.88
578.07	292.88
578.836	271.88
579.602	249.88
580.368	235.88
581.134	228.88
581.9	214.88
582.666	199.88
583.432	194.88
584.198	189.88
584.964	177.88
585.729	165.88
586.495	155.88
587.26	145.88
588.025	141.88
588.791	132.88
589.556	124.88
590.321	123.88
591.086	109.88
591.851	107.88
592.616	100.88
593.381	95.88
594.146	88.88
594.911	91.88
595.675	83.88
596.44	80.88
597.204	77.88
597.969	69.88
598.733	72.88
599.497	66.88
600.261	63.88
601.025	62.88
601.79	54.88
602.553	55.88
603.317	55.88
604.081	49.88
604.845	50.88
605.609	46.88
606.372	45.88
607.136	42.88
607.899	43.88
608.662	40.88
609.426	35.88
610.189	36.88
610.952	34.88
611.715	32.88
612.478	30.88
613.241	30.88
614.004	24.88
614.767	27.88
615.529	27.88
616.292	23.88
617.055	24.88
617.817	27.88
618.579	22.88
619.342	21.88
620.104	23.88
620.866	20.88
621.628	18.88
622.39	21.88
623.152	19.88
623.914	19.88
624.676	18.88
625.438	16.88
626.199	17.88
626.961	14.88
627.722	16.88
628.484	14.88
629.245	13.88
630.006	15.88
630.768	14.88
631.529	12.88
632.29	12.88
633.051	12.88
633.812	10.88
634.573	13.88
635.333	12.88
636.094	12.88
636.855	11.88
637.615	11.88
638.376	10.88
639.136	9.88
639.896	9.88
640.657	11.88
641.417	8.88
642.177	6.88
642.937	9.88
643.697	9.88
644.457	9.88
645.216	8.88
645.976	9.88
646.736	8.88
647.495	8.88
648.255	6.88
649.014	9.88
649.774	7.88
650.533	7.88
651.292	6.88
652.051	6.88
652.81	6.88
653.569	5.88
654.328	8.88
655.087	7.88
655.846	7.88
656.604	6.88
657.363	5.88
658.121	6.88
658.88	3.88
659.638	6.88
660.397	5.88
661.155	3.88
661.913	5.88
662.671	5.88
663.429	4.88
664.187	4.88
664.945	7.88
665.703	3.88
666.46	4.88
667.218	5.88
667.976	5.88
668.733	4.88
669.49	5.88
670.248	4.88
671.005	5.88
671.762	2.88
672.519	2.88
673.276	4.88
674.033	3.88
674.79	4.88
675.547	3.88
676.304	3.88
677.06	1.88
677.817	3.88
678.574	4.88
679.33	2.88
680.086	1.88
680.843	0.88
681.599	5.88
682.355	4.88
683.111	4.88
683.867	1.88
684.623	2.88
685.379	2.88
686.135	2.88
686.89	4.88
687.646	3.88
688.402	3.88
689.157	4.88
689.912	1.88
690.668	5.88
691.423	3.88
692.178	3.88
692.933	4.88
693.688	3.88
694.443	7.88
695.198	4.88
695.953	3.88
696.708	1.88
697.462	4.88
698.217	4.88
698.972	1.88
699.726	2.88
700.48	4.88
701.235	3.88
701.989	2.88
702.743	1.88
703.497	3.88
704.251	1.88
705.005	4.88
705.759	3.88
706.513	3.88
707.266	6.88
708.02	3.88
708.774	2.88
709.527	3.88
710.28	4.88
711.034	4.88
711.787	2.88
712.54	4.88
713.293	2.88
714.046	3.88
714.799	5.88
715.552	4.88
716.305	2.88
717.058	1.88
717.81	4.88
718.563	2.88
719.315	4.88
720.068	2.88
720.82	4.88
721.573	4.88
722.325	3.88
723.077	0.88
723.829	2.88
724.581	3.88
725.333	2.88
726.085	3.88
726.836	3.88
727.588	1.88
728.34	3.88
729.091	3.88
729.843	4.88
730.594	3.88
731.346	6.88
732.097	4.88
732.848	2.88
733.599	4.88
734.35	3.88
735.101	1.88
735.852	1.88
736.603	6.88
737.354	4.88
738.104	3.88
738.855	5.88
739.605	2.88
740.356	4.88
741.106	3.88
741.856	3.88
742.607	5.88
743.357	4.88
744.107	5.88
744.857	2.88
745.607	3.88
746.357	5.88
747.106	1.88
747.856	5.88
748.606	6.88
749.355	5.88
750.105	4.88
750.854	4.88
751.603	5.88
752.353	5.88
753.102	4.88
753.851	3.88
754.6	6.88
755.349	6.88
756.098	4.88
756.847	3.88
757.595	2.88
758.344	4.88
759.093	5.88
759.841	4.88
760.589	5.88
761.338	6.88
762.086	3.88
762.834	4.88
763.582	6.88
764.331	7.88
765.079	6.88
765.826	5.88
766.574	9.88
767.322	6.88
768.07	4.88
768.817	6.88
769.565	7.88
770.312	3.88
771.06	6.88
771.807	5.88
772.554	6.88
773.302	7.88
774.049	5.88
774.796	7.88
775.543	8.88
776.29	9.88
777.036	4.88
777.783	8.88
778.53	7.88
779.276	7.88
780.023	8.88
780.769	6.88
781.516	7.88
782.262	7.88
783.008	7.88
783.754	7.88
784.5	9.88
785.246	7.88
785.992	6.88
786.738	7.88
787.484	6.88
788.23	8.88
788.975	7.88
789.721	7.88
790.466	8.88
791.212	5.88
791.957	8.88
792.702	6.88
793.447	5.88
794.193	6.88
794.938	7.88
795.683	8.88
796.427	7.88
797.172	9.88
797.917	6.88
798.662	7.88
799.406	4.88
800.151	4.88
800.895	6.88
801.64	4.88
802.384	7.88
803.128	7.88
803.872	7.88
804.616	5.88
805.36	7.88
806.104	4.88
806.848	2.88
807.592	7.88
808.336	6.88
809.079	6.88
809.823	5.88
810.566	5.88
811.31	6.88
812.053	4.88
812.796	3.88
813.539	4.88
814.283	5.88
815.026	3.88
815.769	4.88
816.511	4.88
817.254	4.88
817.997	3.88
818.74	5.88
819.482	5.88
820.225	5.88
820.967	3.88
821.71	5.88
822.452	6.88
823.194	3.88
823.936	0.88
824.678	1.88
825.42	5.88
826.162	2.88
826.904	5.88
827.646	1.88
828.388	5.88
829.129	3.88
829.871	2.88
830.612	3.88
831.354	3.88
832.095	3.88
832.836	1.88
833.577	0.88
834.319	6.88
835.06	2.88
835.801	2.88
836.542	2.88
837.282	4.88
838.023	1.88
838.764	3.88
839.504	0.88
840.245	3.88
840.985	2.88
841.726	2.88
842.466	2.88
843.206	2.88
843.946	-0.12
844.687	3.88
845.427	1.88
846.166	4.88
846.906	2.88
847.646	1.88
848.386	3.88
849.125	3.88
849.865	2.88
850.605	1.88
851.344	4.88
852.083	1.88
852.823	1.88
853.562	3.88
854.301	1.88
855.04	1.88
855.779	1.88
856.518	2.88
857.257	2.88
857.995	0.88
858.734	0.88
859.473	1.88
860.211	-0.12
860.95	0.88
861.688	2.88
862.426	1.88
863.165	2.88
863.903	1.88
864.641	0.88
865.379	2.88
866.117	0.88
866.855	2.88
867.593	-0.12
868.33	1.88
869.068	0.88
869.806	-0.12
870.543	1.88
871.28	3.88
872.018	0.88
872.755	1.88
873.492	1.88
874.229	0.88
874.967	0.88
875.703	2.88
876.44	1.88
877.177	0.88
877.914	-3.12
878.651	0.88
879.387	-1.12
880.124	0.88
880.86	-2.12
881.597	1.88
882.333	-1.12
883.069	0.88
883.806	-0.12
884.542	0.88
885.278	1.88
886.014	0.88
886.749	-1.12
887.485	-0.12
888.221	0.88
888.957	-0.12
889.692	0.88
890.428	1.88
891.163	-0.12
891.899	-0.12
892.634	0.88
893.369	1.88
894.104	0.88
894.839	0.88
895.574	1.88
896.309	0.88
897.044	0.88
897.779	0.88
898.514	1.88
899.248	0.88
899.983	0.88
900.717	0.88
901.452	-0.12
902.186	-0.12
902.92	0.88
903.654	-0.12
904.389	1.88
905.123	-0.12
905.857	0.88
906.59	-0.12
907.324	3.88
908.058	0.88
908.792	0.88
909.525	-0.12
910.259	-0.12
910.992	-2.12
911.726	-1.12
912.459	-0.12
913.192	0.88
913.925	-2.12
914.658	1.88
915.391	-0.12
916.124	-0.12
916.857	0.88
917.59	1.88
918.323	0.88
919.055	-1.12
919.788	1.88
920.521	0.88
921.253	1.88
921.985	0.88
922.718	-0.12
923.45	-1.12
924.182	-0.12
924.914	0.88
925.646	-0.12
926.378	0.88
927.11	0.88
927.841	-0.12
928.573	-0.12
929.305	-0.12
930.036	-1.12
930.768	-2.12
931.499	0.88
932.23	-0.12
932.962	0.88
933.693	-1.12
934.424	-1.12
935.155	1.88
935.886	-0.12
936.617	-0.12
937.348	1.88
938.078	-0.12
938.809	1.88
939.54	-1.12
940.27	-0.12
941.001	-1.12
941.731	-0.12
942.461	2.88
943.191	-2.12
943.922	-0.12
944.652	-1.12
945.382	-2.12
946.112	-1.12
946.841	0.88
947.571	-0.12
948.301	-2.12
949.031	1.88
949.76	-3.12
950.49	1.88
951.219	-1.12
951.948	-1.12
952.678	-0.12
953.407	0.88
954.136	-0.12
954.865	-0.12
955.594	-0.12
956.323	0.88
957.052	-0.12
957.78	0.88
958.509	0.88
959.238	0.88
959.966	-0.12
960.695	0.88
961.423	-1.12
962.151	0.88
962.88	0.88
963.608	-1.12
964.336	-1.12
965.064	0.88
965.792	-1.12
966.52	0.88
967.247	1.88
967.975	1.88
968.703	1.88
969.43	0.88
970.158	-1.12
970.885	0.88
971.613	-0.12
972.34	-0.12
973.067	0.88
973.794	-0.12
974.521	0.88
975.248	0.88
975.975	1.88
976.702	-0.12
977.429	0.88
978.156	-0.12
978.882	-0.12
979.609	1.88
980.335	-1.12
981.062	0.88
981.788	-0.12
982.514	-0.12
983.24	-0.12
983.967	0.88
984.693	0.88
985.419	-1.12
986.144	-0.12
986.87	0.88
987.596	-1.12
988.322	2.88
989.047	-2.12
989.773	-2.12
990.498	-1.12
991.224	-2.12
991.949	0.88
992.674	-0.12
993.399	0.88
994.124	0.88
994.849	0.88
995.574	-1.12
996.299	-3.12
997.024	0.88
997.749	-0.12
998.473	1.88
999.198	-0.12
999.922	-1.12
1000.647	-2.12
1001.371	5.88
1002.095	-0.12
1002.82	-2.12
1003.544	-0.12
1004.268	1.88
1004.992	1.88
1005.716	1.88
1006.439	0.88
1007.163	3.88
1007.887	-0.12
1008.611	-0.12
1009.334	1.88
1010.058	-0.12
1010.781	0.88
1011.504	-0.12
1012.228	-2.12
1012.951	-0.12
1013.674	-2.12
1014.397	-0.12
1015.12	-1.12
