节点500_285_QEPB04081__853__15-09-44-720.txt的数据

Date: Wed Nov 12 15:09:44 CST 2025
User: PC
Spectrometer: QEPB0408
触发模式: 0
积分时间 (秒): 1.000000E-2
Scans to average: 1
启用暗噪声校正: true
启用非线性校正: false
滑动平均宽度: 0
X轴模式: Wavelengths
Number of Pixels in Spectrum: 1044
>>>>>Begin Spectral Data<<<<<
220.843	-0.25
221.644	1.75
222.444	2.75
223.244	0.75
224.045	0.75
224.845	1.75
225.645	1.75
226.445	-0.25
227.245	1.75
228.045	0.75
228.845	3.75
229.645	4.75
230.444	1.75
231.244	3.75
232.043	4.75
232.843	3.75
233.642	1.75
234.442	3.75
235.241	3.75
236.04	1.75
236.839	1.75
237.638	3.75
238.437	3.75
239.236	3.75
240.035	4.75
240.833	3.75
241.632	2.75
242.43	4.75
243.229	5.75
244.027	4.75
244.826	4.75
245.624	3.75
246.422	5.75
247.22	4.75
248.018	5.75
248.816	6.75
249.614	4.75
250.412	4.75
251.21	5.75
252.007	4.75
252.805	4.75
253.602	8.75
254.4	7.75
255.197	6.75
255.994	6.75
256.791	5.75
257.589	7.75
258.386	6.75
259.183	8.75
259.979	7.75
260.776	7.75
261.573	9.75
262.37	8.75
263.166	7.75
263.963	9.75
264.759	11.75
265.556	8.75
266.352	8.75
267.148	12.75
267.944	12.75
268.74	12.75
269.536	11.75
270.332	13.75
271.128	14.75
271.924	13.75
272.719	14.75
273.515	14.75
274.311	13.75
275.106	13.75
275.901	13.75
276.697	17.75
277.492	12.75
278.287	18.75
279.082	13.75
279.877	18.75
280.672	13.75
281.467	13.75
282.262	13.75
283.056	14.75
283.851	16.75
284.646	14.75
285.44	16.75
286.234	16.75
287.029	16.75
287.823	16.75
288.617	17.75
289.411	16.75
290.205	13.75
290.999	16.75
291.793	18.75
292.587	17.75
293.381	13.75
294.174	15.75
294.968	15.75
295.761	10.75
296.555	15.75
297.348	14.75
298.141	14.75
298.935	17.75
299.728	11.75
300.521	15.75
301.314	13.75
302.107	11.75
302.899	10.75
303.692	9.75
304.485	12.75
305.277	10.75
306.07	14.75
306.862	11.75
307.655	10.75
308.447	10.75
309.239	10.75
310.031	10.75
310.823	9.75
311.615	11.75
312.407	8.75
313.199	7.75
313.991	9.75
314.783	9.75
315.574	10.75
316.366	6.75
317.157	6.75
317.949	7.75
318.74	8.75
319.531	7.75
320.322	7.75
321.113	7.75
321.904	7.75
322.695	6.75
323.486	5.75
324.277	6.75
325.068	10.75
325.858	8.75
326.649	5.75
327.439	4.75
328.23	5.75
329.02	5.75
329.81	5.75
330.6	4.75
331.391	5.75
332.181	5.75
332.971	6.75
333.76	7.75
334.55	7.75
335.34	4.75
336.13	6.75
336.919	5.75
337.709	5.75
338.498	4.75
339.287	5.75
340.077	5.75
340.866	4.75
341.655	4.75
342.444	5.75
343.233	4.75
344.022	5.75
344.811	5.75
345.6	6.75
346.388	6.75
347.177	4.75
347.965	6.75
348.754	4.75
349.542	5.75
350.33	5.75
351.119	6.75
351.907	6.75
352.695	5.75
353.483	5.75
354.271	6.75
355.059	6.75
355.846	3.75
356.634	5.75
357.422	5.75
358.209	4.75
358.997	4.75
359.784	4.75
360.571	7.75
361.359	4.75
362.146	5.75
362.933	4.75
363.72	2.75
364.507	3.75
365.294	2.75
366.081	5.75
366.867	5.75
367.654	3.75
368.44	4.75
369.227	4.75
370.013	4.75
370.8	4.75
371.586	4.75
372.372	4.75
373.158	4.75
373.944	4.75
374.73	5.75
375.516	5.75
376.302	1.75
377.088	4.75
377.873	3.75
378.659	3.75
379.445	5.75
380.23	3.75
381.015	4.75
381.801	3.75
382.586	5.75
383.371	4.75
384.156	2.75
384.941	3.75
385.726	2.75
386.511	5.75
387.296	6.75
388.08	5.75
388.865	6.75
389.649	5.75
390.434	6.75
391.218	3.75
392.003	4.75
392.787	3.75
393.571	6.75
394.355	6.75
395.139	4.75
395.923	7.75
396.707	5.75
397.491	8.75
398.274	4.75
399.058	6.75
399.842	4.75
400.625	5.75
401.408	7.75
402.192	5.75
402.975	7.75
403.758	5.75
404.541	8.75
405.324	7.75
406.107	7.75
406.89	8.75
407.673	5.75
408.456	6.75
409.238	9.75
410.021	8.75
410.803	8.75
411.586	7.75
412.368	9.75
413.151	6.75
413.933	7.75
414.715	12.75
415.497	6.75
416.279	8.75
417.061	8.75
417.843	10.75
418.624	6.75
419.406	10.75
420.188	7.75
420.969	9.75
421.751	10.75
422.532	9.75
423.313	10.75
424.095	11.75
424.876	10.75
425.657	9.75
426.438	11.75
427.219	10.75
428	9.75
428.78	13.75
429.561	14.75
430.342	10.75
431.122	13.75
431.903	16.75
432.683	13.75
433.464	15.75
434.244	14.75
435.024	15.75
435.804	16.75
436.584	17.75
437.364	16.75
438.144	18.75
438.924	21.75
439.704	21.75
440.483	23.75
441.263	23.75
442.042	27.75
442.822	26.75
443.601	31.75
444.38	29.75
445.16	30.75
445.939	31.75
446.718	37.75
447.497	43.75
448.276	49.75
449.054	48.75
449.833	53.75
450.612	56.75
451.391	62.75
452.169	65.75
452.948	74.75
453.726	80.75
454.504	95.75
455.282	103.75
456.061	111.75
456.839	124.75
457.617	139.75
458.395	149.75
459.172	165.75
459.95	191.75
460.728	214.75
461.506	236.75
462.283	267.75
463.061	286.75
463.838	318.75
464.615	361.75
465.393	405.75
466.17	440.75
466.947	490.75
467.724	539.75
468.501	599.75
469.278	673.75
470.055	746.75
470.831	819.75
471.608	902.75
472.385	1005.75
473.161	1103.75
473.938	1216.75
474.714	1340.75
475.49	1459.75
476.266	1607.75
477.043	1760.75
477.819	1935.75
478.595	2116.75
479.371	2327.75
480.146	2558.75
480.922	2783.75
481.698	3047.75
482.473	3294.75
483.249	3620.75
484.024	3948.75
484.8	4326.75
485.575	4695.75
486.35	5119.75
487.126	5561.75
487.901	6035.75
488.676	6575.75
489.451	7156.75
490.225	7798.75
491	8392.75
491.775	9142.75
492.55	9905.75
493.324	10683.75
494.099	11425.75
494.873	12288.75
495.647	13188.75
496.422	14135.75
497.196	15131.75
497.97	16136.75
498.744	17153.75
499.518	18157.75
500.292	19156.75
501.066	20176.75
501.839	21113.75
502.613	21985.75
503.387	22794.75
504.16	23527.75
504.934	24017.75
505.707	24379.75
506.48	24618.75
507.253	24836.75
508.027	24877.75
508.8	24814.75
509.573	24752.75
510.346	24431.75
511.118	23892.75
511.891	23434.75
512.664	22817.75
513.437	22157.75
514.209	21406.75
514.982	20729.75
515.754	19877.75
516.526	19008.75
517.298	18313.75
518.071	17568.75
518.843	16973.75
519.615	16292.75
520.387	15685.75
521.159	15081.75
521.93	14417.75
522.702	13890.75
523.474	13282.75
524.245	12753.75
525.017	12247.75
525.788	11768.75
526.56	11225.75
527.331	10758.75
528.102	10325.75
528.873	9848.75
529.644	9424.75
530.415	9015.75
531.186	8572.75
531.957	8168.75
532.728	7757.75
533.498	7401.75
534.269	6947.75
535.039	6611.75
535.81	6246.75
536.58	5915.75
537.351	5606.75
538.121	5286.75
538.891	5009.75
539.661	4753.75
540.431	4491.75
541.201	4236.75
541.971	4041.75
542.741	3796.75
543.51	3615.75
544.28	3434.75
545.05	3289.75
545.819	3102.75
546.588	2960.75
547.358	2813.75
548.127	2680.75
548.896	2553.75
549.665	2413.75
550.434	2310.75
551.203	2165.75
551.972	2061.75
552.741	1943.75
553.51	1843.75
554.278	1745.75
555.047	1657.75
555.815	1561.75
556.584	1479.75
557.352	1416.75
558.121	1324.75
558.889	1234.75
559.657	1174.75
560.425	1100.75
561.193	1044.75
561.961	1003.75
562.729	932.75
563.496	894.75
564.264	845.75
565.032	791.75
565.799	740.75
566.567	710.75
567.334	667.75
568.101	633.75
568.869	597.75
569.636	557.75
570.403	529.75
571.17	496.75
571.937	463.75
572.704	444.75
573.471	419.75
574.237	402.75
575.004	372.75
575.771	353.75
576.537	323.75
577.303	311.75
578.07	288.75
578.836	277.75
579.602	263.75
580.368	249.75
581.134	243.75
581.9	221.75
582.666	211.75
583.432	200.75
584.198	187.75
584.964	182.75
585.729	167.75
586.495	156.75
587.26	156.75
588.025	144.75
588.791	135.75
589.556	127.75
590.321	123.75
591.086	118.75
591.851	111.75
592.616	103.75
593.381	95.75
594.146	99.75
594.911	90.75
595.675	85.75
596.44	80.75
597.204	79.75
597.969	73.75
598.733	69.75
599.497	68.75
600.261	63.75
601.025	61.75
601.79	58.75
602.553	57.75
603.317	52.75
604.081	51.75
604.845	48.75
605.609	44.75
606.372	44.75
607.136	42.75
607.899	39.75
608.662	37.75
609.426	36.75
610.189	35.75
610.952	34.75
611.715	34.75
612.478	33.75
613.241	31.75
614.004	28.75
614.767	26.75
615.529	30.75
616.292	28.75
617.055	25.75
617.817	23.75
618.579	23.75
619.342	20.75
620.104	24.75
620.866	22.75
621.628	22.75
622.39	21.75
623.152	19.75
623.914	19.75
624.676	18.75
625.438	16.75
626.199	17.75
626.961	14.75
627.722	18.75
628.484	18.75
629.245	13.75
630.006	15.75
630.768	13.75
631.529	15.75
632.29	11.75
633.051	11.75
633.812	13.75
634.573	12.75
635.333	10.75
636.094	8.75
636.855	12.75
637.615	9.75
638.376	10.75
639.136	9.75
639.896	7.75
640.657	11.75
641.417	9.75
642.177	10.75
642.937	8.75
643.697	8.75
644.457	9.75
645.216	8.75
645.976	6.75
646.736	7.75
647.495	7.75
648.255	7.75
649.014	7.75
649.774	4.75
650.533	3.75
651.292	4.75
652.051	3.75
652.81	3.75
653.569	7.75
654.328	6.75
655.087	6.75
655.846	4.75
656.604	7.75
657.363	5.75
658.121	5.75
658.88	6.75
659.638	3.75
660.397	5.75
661.155	4.75
661.913	4.75
662.671	3.75
663.429	5.75
664.187	4.75
664.945	2.75
665.703	5.75
666.46	1.75
667.218	5.75
667.976	4.75
668.733	3.75
669.49	6.75
670.248	4.75
671.005	6.75
671.762	4.75
672.519	2.75
673.276	4.75
674.033	1.75
674.79	4.75
675.547	4.75
676.304	4.75
677.06	5.75
677.817	1.75
678.574	4.75
679.33	2.75
680.086	4.75
680.843	3.75
681.599	3.75
682.355	5.75
683.111	3.75
683.867	2.75
684.623	3.75
685.379	3.75
686.135	2.75
686.89	2.75
687.646	3.75
688.402	3.75
689.157	1.75
689.912	1.75
690.668	2.75
691.423	1.75
692.178	1.75
692.933	2.75
693.688	1.75
694.443	1.75
695.198	1.75
695.953	4.75
696.708	4.75
697.462	2.75
698.217	3.75
698.972	4.75
699.726	2.75
700.48	1.75
701.235	5.75
701.989	4.75
702.743	5.75
703.497	4.75
704.251	0.75
705.005	3.75
705.759	3.75
706.513	2.75
707.266	2.75
708.02	5.75
708.774	3.75
709.527	1.75
710.28	4.75
711.034	2.75
711.787	1.75
712.54	4.75
713.293	4.75
714.046	4.75
714.799	4.75
715.552	1.75
716.305	4.75
717.058	2.75
717.81	1.75
718.563	1.75
719.315	3.75
720.068	4.75
720.82	5.75
721.573	3.75
722.325	4.75
723.077	0.75
723.829	3.75
724.581	2.75
725.333	2.75
726.085	3.75
726.836	0.75
727.588	4.75
728.34	3.75
729.091	0.75
729.843	1.75
730.594	4.75
731.346	4.75
732.097	3.75
732.848	2.75
733.599	4.75
734.35	3.75
735.101	3.75
735.852	3.75
736.603	1.75
737.354	4.75
738.104	4.75
738.855	4.75
739.605	1.75
740.356	5.75
741.106	3.75
741.856	4.75
742.607	2.75
743.357	4.75
744.107	4.75
744.857	4.75
745.607	4.75
746.357	4.75
747.106	4.75
747.856	2.75
748.606	3.75
749.355	5.75
750.105	6.75
750.854	3.75
751.603	6.75
752.353	6.75
753.102	4.75
753.851	3.75
754.6	4.75
755.349	4.75
756.098	5.75
756.847	4.75
757.595	7.75
758.344	4.75
759.093	4.75
759.841	6.75
760.589	6.75
761.338	5.75
762.086	8.75
762.834	6.75
763.582	5.75
764.331	6.75
765.079	6.75
765.826	5.75
766.574	4.75
767.322	3.75
768.07	5.75
768.817	6.75
769.565	6.75
770.312	4.75
771.06	6.75
771.807	3.75
772.554	7.75
773.302	7.75
774.049	8.75
774.796	6.75
775.543	8.75
776.29	7.75
777.036	8.75
777.783	5.75
778.53	8.75
779.276	7.75
780.023	6.75
780.769	7.75
781.516	7.75
782.262	6.75
783.008	5.75
783.754	3.75
784.5	8.75
785.246	6.75
785.992	7.75
786.738	5.75
787.484	7.75
788.23	7.75
788.975	8.75
789.721	8.75
790.466	8.75
791.212	6.75
791.957	6.75
792.702	6.75
793.447	5.75
794.193	6.75
794.938	6.75
795.683	8.75
796.427	7.75
797.172	4.75
797.917	6.75
798.662	8.75
799.406	6.75
800.151	6.75
800.895	6.75
801.64	6.75
802.384	6.75
803.128	7.75
803.872	5.75
804.616	5.75
805.36	7.75
806.104	6.75
806.848	2.75
807.592	4.75
808.336	4.75
809.079	6.75
809.823	5.75
810.566	5.75
811.31	6.75
812.053	4.75
812.796	2.75
813.539	6.75
814.283	4.75
815.026	5.75
815.769	1.75
816.511	3.75
817.254	3.75
817.997	5.75
818.74	5.75
819.482	3.75
820.225	6.75
820.967	4.75
821.71	3.75
822.452	4.75
823.194	5.75
823.936	3.75
824.678	3.75
825.42	3.75
826.162	2.75
826.904	5.75
827.646	0.75
828.388	3.75
829.129	6.75
829.871	3.75
830.612	2.75
831.354	1.75
832.095	2.75
832.836	5.75
833.577	3.75
834.319	3.75
835.06	-1.25
835.801	4.75
836.542	1.75
837.282	3.75
838.023	3.75
838.764	3.75
839.504	3.75
840.245	4.75
840.985	4.75
841.726	3.75
842.466	3.75
843.206	0.75
843.946	4.75
844.687	1.75
845.427	3.75
846.166	2.75
846.906	0.75
847.646	3.75
848.386	4.75
849.125	0.75
849.865	3.75
850.605	0.75
851.344	3.75
852.083	1.75
852.823	2.75
853.562	1.75
854.301	0.75
855.04	2.75
855.779	-1.25
856.518	1.75
857.257	1.75
857.995	1.75
858.734	1.75
859.473	3.75
860.211	1.75
860.95	3.75
861.688	3.75
862.426	1.75
863.165	0.75
863.903	0.75
864.641	0.75
865.379	0.75
866.117	0.75
866.855	1.75
867.593	0.75
868.33	1.75
869.068	-0.25
869.806	0.75
870.543	3.75
871.28	2.75
872.018	-0.25
872.755	2.75
873.492	2.75
874.229	2.75
874.967	3.75
875.703	0.75
876.44	1.75
877.177	1.75
877.914	0.75
878.651	0.75
879.387	1.75
880.124	0.75
880.86	0.75
881.597	1.75
882.333	0.75
883.069	1.75
883.806	2.75
884.542	0.75
885.278	-0.25
886.014	0.75
886.749	-0.25
887.485	1.75
888.221	0.75
888.957	-0.25
889.692	-0.25
890.428	-0.25
891.163	-0.25
891.899	-0.25
892.634	0.75
893.369	-0.25
894.104	-0.25
894.839	2.75
895.574	-2.25
896.309	2.75
897.044	-1.25
897.779	1.75
898.514	-1.25
899.248	-0.25
899.983	0.75
900.717	2.75
901.452	0.75
902.186	-0.25
902.92	0.75
903.654	-0.25
904.389	0.75
905.123	0.75
905.857	0.75
906.59	0.75
907.324	2.75
908.058	-1.25
908.792	-0.25
909.525	-2.25
910.259	0.75
910.992	0.75
911.726	0.75
912.459	1.75
913.192	-0.25
913.925	-0.25
914.658	-0.25
915.391	0.75
916.124	-0.25
916.857	-1.25
917.59	0.75
918.323	0.75
919.055	1.75
919.788	0.75
920.521	0.75
921.253	-0.25
921.985	0.75
922.718	-1.25
923.45	-1.25
924.182	2.75
924.914	-0.25
925.646	-1.25
926.378	0.75
927.11	-2.25
927.841	0.75
928.573	0.75
929.305	0.75
930.036	0.75
930.768	-1.25
931.499	-0.25
932.23	-0.25
932.962	0.75
933.693	1.75
934.424	0.75
935.155	-0.25
935.886	-2.25
936.617	0.75
937.348	0.75
938.078	-1.25
938.809	0.75
939.54	-0.25
940.27	1.75
941.001	-1.25
941.731	0.75
942.461	-0.25
943.191	0.75
943.922	0.75
944.652	-2.25
945.382	-2.25
946.112	-0.25
946.841	-0.25
947.571	-0.25
948.301	-0.25
949.031	0.75
949.76	-0.25
950.49	0.75
951.219	2.75
951.948	-0.25
952.678	-1.25
953.407	-0.25
954.136	-0.25
954.865	-1.25
955.594	-0.25
956.323	-0.25
957.052	1.75
957.78	-1.25
958.509	1.75
959.238	-2.25
959.966	-0.25
960.695	2.75
961.423	0.75
962.151	-2.25
962.88	-0.25
963.608	0.75
964.336	1.75
965.064	-0.25
965.792	-0.25
966.52	0.75
967.247	1.75
967.975	0.75
968.703	1.75
969.43	-0.25
970.158	-0.25
970.885	-0.25
971.613	-2.25
972.34	0.75
973.067	0.75
973.794	-0.25
974.521	-1.25
975.248	0.75
975.975	-2.25
976.702	-0.25
977.429	1.75
978.156	-0.25
978.882	-1.25
979.609	-1.25
980.335	-1.25
981.062	-2.25
981.788	-0.25
982.514	-1.25
983.24	1.75
983.967	-0.25
984.693	0.75
985.419	-2.25
986.144	1.75
986.87	0.75
987.596	-0.25
988.322	-0.25
989.047	-0.25
989.773	0.75
990.498	-1.25
991.224	-0.25
991.949	0.75
992.674	0.75
993.399	-0.25
994.124	-1.25
994.849	-2.25
995.574	0.75
996.299	0.75
997.024	-2.25
997.749	0.75
998.473	0.75
999.198	1.75
999.922	-0.25
1000.647	-2.25
1001.371	4.75
1002.095	-1.25
1002.82	0.75
1003.544	-1.25
1004.268	0.75
1004.992	0.75
1005.716	2.75
1006.439	1.75
1007.163	0.75
1007.887	2.75
1008.611	0.75
1009.334	-0.25
1010.058	0.75
1010.781	-1.25
1011.504	0.75
1012.228	0.75
1012.951	-0.25
1013.674	-0.25
1014.397	-2.25
1015.12	-0.25
