节点500_285_QEPB04081__47__14-56-20-384.txt的数据

Date: Wed Nov 12 14:56:20 CST 2025
User: PC
Spectrometer: QEPB0408
触发模式: 0
积分时间 (秒): 1.000000E-2
Scans to average: 1
启用暗噪声校正: true
启用非线性校正: false
滑动平均宽度: 0
X轴模式: Wavelengths
Number of Pixels in Spectrum: 1044
>>>>>Begin Spectral Data<<<<<
220.843	-0.88
221.644	3.12
222.444	4.12
223.244	1.12
224.045	1.12
224.845	1.12
225.645	3.12
226.445	3.12
227.245	2.12
228.045	3.12
228.845	5.12
229.645	2.12
230.444	4.12
231.244	2.12
232.043	3.12
232.843	1.12
233.642	6.12
234.442	3.12
235.241	3.12
236.04	4.12
236.839	4.12
237.638	3.12
238.437	3.12
239.236	4.12
240.035	5.12
240.833	4.12
241.632	4.12
242.43	5.12
243.229	4.12
244.027	6.12
244.826	7.12
245.624	7.12
246.422	5.12
247.22	6.12
248.018	6.12
248.816	7.12
249.614	6.12
250.412	7.12
251.21	8.12
252.007	6.12
252.805	10.12
253.602	7.12
254.4	8.12
255.197	9.12
255.994	11.12
256.791	10.12
257.589	9.12
258.386	10.12
259.183	9.12
259.979	7.12
260.776	14.12
261.573	12.12
262.37	13.12
263.166	10.12
263.963	14.12
264.759	11.12
265.556	13.12
266.352	13.12
267.148	13.12
267.944	14.12
268.74	13.12
269.536	18.12
270.332	16.12
271.128	17.12
271.924	15.12
272.719	16.12
273.515	21.12
274.311	22.12
275.106	19.12
275.901	20.12
276.697	21.12
277.492	20.12
278.287	18.12
279.082	20.12
279.877	23.12
280.672	20.12
281.467	20.12
282.262	19.12
283.056	21.12
283.851	23.12
284.646	19.12
285.44	20.12
286.234	20.12
287.029	22.12
287.823	22.12
288.617	20.12
289.411	18.12
290.205	16.12
290.999	21.12
291.793	19.12
292.587	19.12
293.381	18.12
294.174	15.12
294.968	21.12
295.761	17.12
296.555	15.12
297.348	15.12
298.141	16.12
298.935	15.12
299.728	15.12
300.521	17.12
301.314	16.12
302.107	14.12
302.899	15.12
303.692	13.12
304.485	13.12
305.277	10.12
306.07	11.12
306.862	14.12
307.655	11.12
308.447	12.12
309.239	11.12
310.031	14.12
310.823	10.12
311.615	10.12
312.407	12.12
313.199	11.12
313.991	8.12
314.783	9.12
315.574	9.12
316.366	9.12
317.157	11.12
317.949	10.12
318.74	7.12
319.531	9.12
320.322	8.12
321.113	9.12
321.904	7.12
322.695	7.12
323.486	7.12
324.277	7.12
325.068	5.12
325.858	7.12
326.649	6.12
327.439	8.12
328.23	5.12
329.02	8.12
329.81	7.12
330.6	7.12
331.391	6.12
332.181	4.12
332.971	4.12
333.76	6.12
334.55	5.12
335.34	6.12
336.13	9.12
336.919	5.12
337.709	6.12
338.498	7.12
339.287	7.12
340.077	8.12
340.866	8.12
341.655	6.12
342.444	9.12
343.233	8.12
344.022	6.12
344.811	4.12
345.6	3.12
346.388	8.12
347.177	5.12
347.965	7.12
348.754	5.12
349.542	7.12
350.33	6.12
351.119	3.12
351.907	6.12
352.695	4.12
353.483	6.12
354.271	8.12
355.059	5.12
355.846	7.12
356.634	5.12
357.422	6.12
358.209	6.12
358.997	5.12
359.784	5.12
360.571	7.12
361.359	5.12
362.146	8.12
362.933	5.12
363.72	6.12
364.507	3.12
365.294	5.12
366.081	5.12
366.867	7.12
367.654	6.12
368.44	2.12
369.227	5.12
370.013	6.12
370.8	5.12
371.586	6.12
372.372	9.12
373.158	6.12
373.944	2.12
374.73	5.12
375.516	4.12
376.302	7.12
377.088	5.12
377.873	6.12
378.659	4.12
379.445	4.12
380.23	5.12
381.015	4.12
381.801	6.12
382.586	5.12
383.371	5.12
384.156	8.12
384.941	6.12
385.726	6.12
386.511	5.12
387.296	2.12
388.08	6.12
388.865	5.12
389.649	6.12
390.434	5.12
391.218	5.12
392.003	5.12
392.787	4.12
393.571	6.12
394.355	7.12
395.139	6.12
395.923	7.12
396.707	4.12
397.491	9.12
398.274	8.12
399.058	7.12
399.842	7.12
400.625	7.12
401.408	9.12
402.192	8.12
402.975	8.12
403.758	6.12
404.541	9.12
405.324	7.12
406.107	11.12
406.89	8.12
407.673	7.12
408.456	8.12
409.238	9.12
410.021	9.12
410.803	9.12
411.586	7.12
412.368	9.12
413.151	11.12
413.933	10.12
414.715	9.12
415.497	10.12
416.279	9.12
417.061	12.12
417.843	9.12
418.624	11.12
419.406	11.12
420.188	11.12
420.969	8.12
421.751	9.12
422.532	14.12
423.313	12.12
424.095	11.12
424.876	11.12
425.657	9.12
426.438	9.12
427.219	13.12
428	13.12
428.78	13.12
429.561	14.12
430.342	12.12
431.122	15.12
431.903	14.12
432.683	13.12
433.464	17.12
434.244	16.12
435.024	20.12
435.804	19.12
436.584	18.12
437.364	19.12
438.144	19.12
438.924	18.12
439.704	18.12
440.483	23.12
441.263	24.12
442.042	25.12
442.822	25.12
443.601	28.12
444.38	30.12
445.16	33.12
445.939	31.12
446.718	33.12
447.497	37.12
448.276	40.12
449.054	42.12
449.833	45.12
450.612	46.12
451.391	55.12
452.169	57.12
452.948	59.12
453.726	69.12
454.504	72.12
455.282	83.12
456.061	89.12
456.839	102.12
457.617	112.12
458.395	122.12
459.172	137.12
459.95	148.12
460.728	166.12
461.506	187.12
462.283	204.12
463.061	233.12
463.838	257.12
464.615	295.12
465.393	324.12
466.17	357.12
466.947	415.12
467.724	461.12
468.501	511.12
469.278	561.12
470.055	635.12
470.831	717.12
471.608	801.12
472.385	885.12
473.161	1000.12
473.938	1116.12
474.714	1243.12
475.49	1373.12
476.266	1538.12
477.043	1697.12
477.819	1881.12
478.595	2090.12
479.371	2312.12
480.146	2573.12
480.922	2884.12
481.698	3179.12
482.473	3527.12
483.249	3902.12
484.024	4335.12
484.8	4810.12
485.575	5311.12
486.35	5839.12
487.126	6484.12
487.901	7160.12
488.676	7916.12
489.451	8679.12
490.225	9578.12
491	10503.12
491.775	11496.12
492.55	12547.12
493.324	13659.12
494.099	14788.12
494.873	15979.12
495.647	17279.12
496.422	18544.12
497.196	19855.12
497.97	21217.12
498.744	22544.12
499.518	23755.12
500.292	24914.12
501.066	26043.12
501.839	27011.12
502.613	27791.12
503.387	28450.12
504.16	28979.12
504.934	29183.12
505.707	29077.12
506.48	28983.12
507.253	28580.12
508.027	28131.12
508.8	27583.12
509.573	26941.12
510.346	26128.12
511.118	25155.12
511.891	24171.12
512.664	23242.12
513.437	22199.12
514.209	21226.12
514.982	20280.12
515.754	19264.12
516.526	18439.12
517.298	17553.12
518.071	16808.12
518.843	16159.12
519.615	15574.12
520.387	14929.12
521.159	14340.12
521.93	13764.12
522.702	13254.12
523.474	12697.12
524.245	12183.12
525.017	11580.12
525.788	11149.12
526.56	10611.12
527.331	10069.12
528.102	9624.12
528.873	9132.12
529.644	8627.12
530.415	8225.12
531.186	7767.12
531.957	7325.12
532.728	6993.12
533.498	6570.12
534.269	6173.12
535.039	5825.12
535.81	5510.12
536.58	5217.12
537.351	4921.12
538.121	4617.12
538.891	4368.12
539.661	4107.12
540.431	3904.12
541.201	3684.12
541.971	3514.12
542.741	3338.12
543.51	3166.12
544.28	3016.12
545.05	2881.12
545.819	2735.12
546.588	2578.12
547.358	2448.12
548.127	2325.12
548.896	2222.12
549.665	2085.12
550.434	1999.12
551.203	1887.12
551.972	1779.12
552.741	1673.12
553.51	1584.12
554.278	1487.12
555.047	1407.12
555.815	1317.12
556.584	1242.12
557.352	1186.12
558.121	1112.12
558.889	1038.12
559.657	996.12
560.425	936.12
561.193	877.12
561.961	838.12
562.729	782.12
563.496	740.12
564.264	699.12
565.032	667.12
565.799	619.12
566.567	597.12
567.334	562.12
568.101	535.12
568.869	499.12
569.636	463.12
570.403	440.12
571.17	420.12
571.937	395.12
572.704	371.12
573.471	348.12
574.237	328.12
575.004	310.12
575.771	299.12
576.537	273.12
577.303	257.12
578.07	243.12
578.836	231.12
579.602	217.12
580.368	210.12
581.134	198.12
581.9	189.12
582.666	177.12
583.432	161.12
584.198	158.12
584.964	148.12
585.729	142.12
586.495	136.12
587.26	128.12
588.025	117.12
588.791	118.12
589.556	111.12
590.321	104.12
591.086	98.12
591.851	94.12
592.616	90.12
593.381	83.12
594.146	82.12
594.911	79.12
595.675	71.12
596.44	68.12
597.204	68.12
597.969	63.12
598.733	64.12
599.497	57.12
600.261	55.12
601.025	57.12
601.79	50.12
602.553	51.12
603.317	48.12
604.081	46.12
604.845	42.12
605.609	40.12
606.372	39.12
607.136	38.12
607.899	37.12
608.662	37.12
609.426	33.12
610.189	35.12
610.952	29.12
611.715	30.12
612.478	28.12
613.241	29.12
614.004	29.12
614.767	23.12
615.529	25.12
616.292	22.12
617.055	24.12
617.817	23.12
618.579	25.12
619.342	23.12
620.104	21.12
620.866	21.12
621.628	17.12
622.39	18.12
623.152	18.12
623.914	15.12
624.676	17.12
625.438	15.12
626.199	17.12
626.961	15.12
627.722	14.12
628.484	15.12
629.245	12.12
630.006	14.12
630.768	14.12
631.529	11.12
632.29	13.12
633.051	12.12
633.812	11.12
634.573	9.12
635.333	10.12
636.094	11.12
636.855	11.12
637.615	8.12
638.376	11.12
639.136	11.12
639.896	9.12
640.657	7.12
641.417	8.12
642.177	7.12
642.937	10.12
643.697	8.12
644.457	9.12
645.216	7.12
645.976	8.12
646.736	7.12
647.495	6.12
648.255	7.12
649.014	7.12
649.774	6.12
650.533	8.12
651.292	7.12
652.051	6.12
652.81	5.12
653.569	6.12
654.328	7.12
655.087	3.12
655.846	7.12
656.604	6.12
657.363	5.12
658.121	5.12
658.88	6.12
659.638	6.12
660.397	4.12
661.155	5.12
661.913	7.12
662.671	7.12
663.429	6.12
664.187	4.12
664.945	5.12
665.703	3.12
666.46	7.12
667.218	2.12
667.976	4.12
668.733	6.12
669.49	6.12
670.248	5.12
671.005	5.12
671.762	2.12
672.519	5.12
673.276	6.12
674.033	6.12
674.79	4.12
675.547	7.12
676.304	6.12
677.06	5.12
677.817	5.12
678.574	3.12
679.33	4.12
680.086	6.12
680.843	3.12
681.599	5.12
682.355	6.12
683.111	3.12
683.867	4.12
684.623	6.12
685.379	4.12
686.135	6.12
686.89	4.12
687.646	4.12
688.402	6.12
689.157	5.12
689.912	5.12
690.668	3.12
691.423	4.12
692.178	3.12
692.933	5.12
693.688	3.12
694.443	3.12
695.198	4.12
695.953	3.12
696.708	2.12
697.462	4.12
698.217	3.12
698.972	4.12
699.726	6.12
700.48	2.12
701.235	6.12
701.989	5.12
702.743	3.12
703.497	3.12
704.251	1.12
705.005	5.12
705.759	3.12
706.513	4.12
707.266	4.12
708.02	5.12
708.774	5.12
709.527	4.12
710.28	5.12
711.034	1.12
711.787	4.12
712.54	2.12
713.293	6.12
714.046	3.12
714.799	3.12
715.552	4.12
716.305	6.12
717.058	4.12
717.81	6.12
718.563	2.12
719.315	5.12
720.068	2.12
720.82	5.12
721.573	5.12
722.325	3.12
723.077	4.12
723.829	5.12
724.581	5.12
725.333	4.12
726.085	3.12
726.836	5.12
727.588	5.12
728.34	5.12
729.091	4.12
729.843	4.12
730.594	4.12
731.346	4.12
732.097	6.12
732.848	4.12
733.599	5.12
734.35	3.12
735.101	4.12
735.852	4.12
736.603	4.12
737.354	6.12
738.104	6.12
738.855	5.12
739.605	5.12
740.356	5.12
741.106	4.12
741.856	4.12
742.607	4.12
743.357	3.12
744.107	5.12
744.857	6.12
745.607	5.12
746.357	5.12
747.106	4.12
747.856	7.12
748.606	5.12
749.355	7.12
750.105	6.12
750.854	5.12
751.603	7.12
752.353	5.12
753.102	7.12
753.851	5.12
754.6	6.12
755.349	5.12
756.098	4.12
756.847	8.12
757.595	7.12
758.344	7.12
759.093	6.12
759.841	6.12
760.589	7.12
761.338	8.12
762.086	10.12
762.834	8.12
763.582	6.12
764.331	8.12
765.079	4.12
765.826	7.12
766.574	11.12
767.322	5.12
768.07	8.12
768.817	7.12
769.565	9.12
770.312	8.12
771.06	5.12
771.807	10.12
772.554	9.12
773.302	12.12
774.049	8.12
774.796	9.12
775.543	9.12
776.29	7.12
777.036	8.12
777.783	6.12
778.53	10.12
779.276	9.12
780.023	9.12
780.769	9.12
781.516	7.12
782.262	11.12
783.008	9.12
783.754	9.12
784.5	9.12
785.246	8.12
785.992	8.12
786.738	6.12
787.484	11.12
788.23	9.12
788.975	7.12
789.721	8.12
790.466	10.12
791.212	9.12
791.957	7.12
792.702	8.12
793.447	7.12
794.193	10.12
794.938	10.12
795.683	9.12
796.427	9.12
797.172	7.12
797.917	7.12
798.662	9.12
799.406	9.12
800.151	10.12
800.895	8.12
801.64	9.12
802.384	6.12
803.128	6.12
803.872	6.12
804.616	7.12
805.36	7.12
806.104	4.12
806.848	7.12
807.592	4.12
808.336	6.12
809.079	4.12
809.823	3.12
810.566	6.12
811.31	4.12
812.053	3.12
812.796	6.12
813.539	6.12
814.283	5.12
815.026	5.12
815.769	4.12
816.511	6.12
817.254	4.12
817.997	5.12
818.74	2.12
819.482	5.12
820.225	6.12
820.967	3.12
821.71	4.12
822.452	4.12
823.194	3.12
823.936	6.12
824.678	3.12
825.42	5.12
826.162	6.12
826.904	5.12
827.646	3.12
828.388	6.12
829.129	6.12
829.871	5.12
830.612	3.12
831.354	4.12
832.095	5.12
832.836	4.12
833.577	5.12
834.319	5.12
835.06	4.12
835.801	6.12
836.542	3.12
837.282	4.12
838.023	4.12
838.764	3.12
839.504	4.12
840.245	4.12
840.985	4.12
841.726	5.12
842.466	4.12
843.206	2.12
843.946	3.12
844.687	3.12
845.427	1.12
846.166	1.12
846.906	2.12
847.646	4.12
848.386	5.12
849.125	3.12
849.865	0.12
850.605	4.12
851.344	3.12
852.083	4.12
852.823	2.12
853.562	2.12
854.301	2.12
855.04	3.12
855.779	4.12
856.518	1.12
857.257	1.12
857.995	2.12
858.734	1.12
859.473	2.12
860.211	1.12
860.95	3.12
861.688	3.12
862.426	5.12
863.165	3.12
863.903	2.12
864.641	3.12
865.379	2.12
866.117	1.12
866.855	-0.88
867.593	-0.88
868.33	1.12
869.068	2.12
869.806	2.12
870.543	2.12
871.28	4.12
872.018	0.12
872.755	2.12
873.492	3.12
874.229	-0.88
874.967	3.12
875.703	2.12
876.44	1.12
877.177	2.12
877.914	1.12
878.651	1.12
879.387	1.12
880.124	1.12
880.86	-0.88
881.597	2.12
882.333	1.12
883.069	-0.88
883.806	0.12
884.542	1.12
885.278	1.12
886.014	4.12
886.749	0.12
887.485	0.12
888.221	2.12
888.957	3.12
889.692	-1.88
890.428	-1.88
891.163	2.12
891.899	2.12
892.634	2.12
893.369	1.12
894.104	1.12
894.839	0.12
895.574	2.12
896.309	2.12
897.044	1.12
897.779	0.12
898.514	0.12
899.248	1.12
899.983	1.12
900.717	-0.88
901.452	1.12
902.186	1.12
902.92	0.12
903.654	2.12
904.389	1.12
905.123	0.12
905.857	0.12
906.59	-0.88
907.324	-0.88
908.058	0.12
908.792	1.12
909.525	2.12
910.259	-0.88
910.992	0.12
911.726	1.12
912.459	1.12
913.192	1.12
913.925	-1.88
914.658	2.12
915.391	2.12
916.124	0.12
916.857	-0.88
917.59	1.12
918.323	1.12
919.055	0.12
919.788	0.12
920.521	2.12
921.253	3.12
921.985	1.12
922.718	1.12
923.45	0.12
924.182	2.12
924.914	-1.88
925.646	0.12
926.378	-0.88
927.11	-0.88
927.841	2.12
928.573	0.12
929.305	1.12
930.036	1.12
930.768	0.12
931.499	0.12
932.23	-1.88
932.962	1.12
933.693	-0.88
934.424	2.12
935.155	3.12
935.886	-0.88
936.617	0.12
937.348	1.12
938.078	0.12
938.809	2.12
939.54	0.12
940.27	1.12
941.001	-0.88
941.731	1.12
942.461	-1.88
943.191	-0.88
943.922	1.12
944.652	-0.88
945.382	1.12
946.112	0.12
946.841	1.12
947.571	1.12
948.301	-0.88
949.031	1.12
949.76	-0.88
950.49	1.12
951.219	0.12
951.948	0.12
952.678	1.12
953.407	-0.88
954.136	1.12
954.865	-0.88
955.594	-1.88
956.323	0.12
957.052	-1.88
957.78	0.12
958.509	-1.88
959.238	3.12
959.966	2.12
960.695	-0.88
961.423	0.12
962.151	-1.88
962.88	-0.88
963.608	0.12
964.336	-0.88
965.064	0.12
965.792	0.12
966.52	2.12
967.247	0.12
967.975	2.12
968.703	0.12
969.43	1.12
970.158	-0.88
970.885	0.12
971.613	-0.88
972.34	0.12
973.067	-0.88
973.794	0.12
974.521	1.12
975.248	0.12
975.975	-0.88
976.702	0.12
977.429	1.12
978.156	-0.88
978.882	0.12
979.609	1.12
980.335	2.12
981.062	1.12
981.788	1.12
982.514	-0.88
983.24	1.12
983.967	1.12
984.693	-0.88
985.419	0.12
986.144	0.12
986.87	0.12
987.596	1.12
988.322	1.12
989.047	0.12
989.773	1.12
990.498	0.12
991.224	-1.88
991.949	-0.88
992.674	0.12
993.399	-0.88
994.124	1.12
994.849	1.12
995.574	-0.88
996.299	1.12
997.024	-2.88
997.749	0.12
998.473	0.12
999.198	0.12
999.922	1.12
1000.647	1.12
1001.371	4.12
1002.095	-0.88
1002.82	1.12
1003.544	-1.88
1004.268	1.12
1004.992	3.12
1005.716	0.12
1006.439	0.12
1007.163	3.12
1007.887	1.12
1008.611	1.12
1009.334	0.12
1010.058	1.12
1010.781	2.12
1011.504	0.12
1012.228	-0.88
1012.951	-0.88
1013.674	0.12
1014.397	0.12
1015.12	-1.88
