节点500_285_QEPB04081__316__15-00-48-756.txt的数据

Date: Wed Nov 12 15:00:48 CST 2025
User: PC
Spectrometer: QEPB0408
触发模式: 0
积分时间 (秒): 1.000000E-2
Scans to average: 1
启用暗噪声校正: true
启用非线性校正: false
滑动平均宽度: 0
X轴模式: Wavelengths
Number of Pixels in Spectrum: 1044
>>>>>Begin Spectral Data<<<<<
220.843	3.12
221.644	0.12
222.444	2.12
223.244	3.12
224.045	2.12
224.845	2.12
225.645	2.12
226.445	2.12
227.245	5.12
228.045	5.12
228.845	3.12
229.645	4.12
230.444	3.12
231.244	4.12
232.043	3.12
232.843	2.12
233.642	5.12
234.442	5.12
235.241	2.12
236.04	2.12
236.839	8.12
237.638	4.12
238.437	2.12
239.236	5.12
240.035	3.12
240.833	7.12
241.632	4.12
242.43	3.12
243.229	6.12
244.027	5.12
244.826	8.12
245.624	4.12
246.422	7.12
247.22	6.12
248.018	6.12
248.816	6.12
249.614	7.12
250.412	9.12
251.21	8.12
252.007	7.12
252.805	8.12
253.602	7.12
254.4	7.12
255.197	7.12
255.994	10.12
256.791	6.12
257.589	10.12
258.386	10.12
259.183	10.12
259.979	10.12
260.776	9.12
261.573	13.12
262.37	10.12
263.166	13.12
263.963	12.12
264.759	13.12
265.556	14.12
266.352	13.12
267.148	16.12
267.944	14.12
268.74	13.12
269.536	13.12
270.332	14.12
271.128	15.12
271.924	16.12
272.719	15.12
273.515	18.12
274.311	16.12
275.106	18.12
275.901	14.12
276.697	20.12
277.492	17.12
278.287	18.12
279.082	17.12
279.877	19.12
280.672	18.12
281.467	19.12
282.262	20.12
283.056	21.12
283.851	18.12
284.646	18.12
285.44	18.12
286.234	21.12
287.029	19.12
287.823	18.12
288.617	21.12
289.411	18.12
290.205	20.12
290.999	18.12
291.793	17.12
292.587	20.12
293.381	18.12
294.174	18.12
294.968	16.12
295.761	19.12
296.555	15.12
297.348	17.12
298.141	16.12
298.935	16.12
299.728	18.12
300.521	14.12
301.314	16.12
302.107	15.12
302.899	14.12
303.692	15.12
304.485	13.12
305.277	14.12
306.07	12.12
306.862	14.12
307.655	15.12
308.447	13.12
309.239	14.12
310.031	11.12
310.823	12.12
311.615	9.12
312.407	9.12
313.199	11.12
313.991	10.12
314.783	9.12
315.574	10.12
316.366	12.12
317.157	7.12
317.949	8.12
318.74	10.12
319.531	9.12
320.322	11.12
321.113	6.12
321.904	10.12
322.695	9.12
323.486	9.12
324.277	10.12
325.068	9.12
325.858	6.12
326.649	10.12
327.439	7.12
328.23	7.12
329.02	7.12
329.81	8.12
330.6	8.12
331.391	7.12
332.181	10.12
332.971	6.12
333.76	8.12
334.55	6.12
335.34	8.12
336.13	4.12
336.919	6.12
337.709	7.12
338.498	7.12
339.287	9.12
340.077	6.12
340.866	6.12
341.655	7.12
342.444	6.12
343.233	6.12
344.022	6.12
344.811	5.12
345.6	6.12
346.388	6.12
347.177	6.12
347.965	7.12
348.754	8.12
349.542	6.12
350.33	6.12
351.119	6.12
351.907	8.12
352.695	4.12
353.483	9.12
354.271	6.12
355.059	6.12
355.846	8.12
356.634	7.12
357.422	6.12
358.209	7.12
358.997	6.12
359.784	8.12
360.571	4.12
361.359	7.12
362.146	4.12
362.933	4.12
363.72	6.12
364.507	7.12
365.294	7.12
366.081	5.12
366.867	8.12
367.654	5.12
368.44	5.12
369.227	5.12
370.013	4.12
370.8	5.12
371.586	5.12
372.372	5.12
373.158	6.12
373.944	4.12
374.73	6.12
375.516	7.12
376.302	7.12
377.088	5.12
377.873	4.12
378.659	4.12
379.445	5.12
380.23	5.12
381.015	8.12
381.801	7.12
382.586	8.12
383.371	4.12
384.156	8.12
384.941	5.12
385.726	7.12
386.511	7.12
387.296	4.12
388.08	5.12
388.865	7.12
389.649	6.12
390.434	7.12
391.218	5.12
392.003	7.12
392.787	5.12
393.571	6.12
394.355	5.12
395.139	6.12
395.923	6.12
396.707	6.12
397.491	7.12
398.274	8.12
399.058	7.12
399.842	7.12
400.625	7.12
401.408	11.12
402.192	6.12
402.975	11.12
403.758	6.12
404.541	6.12
405.324	5.12
406.107	6.12
406.89	7.12
407.673	8.12
408.456	9.12
409.238	8.12
410.021	8.12
410.803	9.12
411.586	9.12
412.368	10.12
413.151	7.12
413.933	11.12
414.715	10.12
415.497	10.12
416.279	11.12
417.061	11.12
417.843	11.12
418.624	12.12
419.406	12.12
420.188	9.12
420.969	12.12
421.751	12.12
422.532	11.12
423.313	13.12
424.095	14.12
424.876	12.12
425.657	14.12
426.438	11.12
427.219	14.12
428	12.12
428.78	13.12
429.561	14.12
430.342	15.12
431.122	17.12
431.903	16.12
432.683	16.12
433.464	17.12
434.244	15.12
435.024	16.12
435.804	18.12
436.584	18.12
437.364	17.12
438.144	19.12
438.924	24.12
439.704	24.12
440.483	22.12
441.263	26.12
442.042	26.12
442.822	28.12
443.601	30.12
444.38	30.12
445.16	32.12
445.939	34.12
446.718	35.12
447.497	39.12
448.276	44.12
449.054	49.12
449.833	48.12
450.612	50.12
451.391	58.12
452.169	64.12
452.948	71.12
453.726	77.12
454.504	80.12
455.282	92.12
456.061	102.12
456.839	108.12
457.617	125.12
458.395	136.12
459.172	154.12
459.95	165.12
460.728	185.12
461.506	207.12
462.283	232.12
463.061	252.12
463.838	289.12
464.615	320.12
465.393	359.12
466.17	398.12
466.947	452.12
467.724	500.12
468.501	555.12
469.278	617.12
470.055	686.12
470.831	757.12
471.608	851.12
472.385	942.12
473.161	1059.12
473.938	1167.12
474.714	1286.12
475.49	1413.12
476.266	1580.12
477.043	1756.12
477.819	1924.12
478.595	2142.12
479.371	2322.12
480.146	2598.12
480.922	2844.12
481.698	3146.12
482.473	3504.12
483.249	3814.12
484.024	4219.12
484.8	4626.12
485.575	5128.12
486.35	5626.12
487.126	6170.12
487.901	6728.12
488.676	7390.12
489.451	8115.12
490.225	8851.12
491	9684.12
491.775	10590.12
492.55	11538.12
493.324	12499.12
494.099	13492.12
494.873	14564.12
495.647	15676.12
496.422	16839.12
497.196	18058.12
497.97	19195.12
498.744	20453.12
499.518	21649.12
500.292	22780.12
501.066	23853.12
501.839	24790.12
502.613	25658.12
503.387	26477.12
504.16	27107.12
504.934	27441.12
505.707	27558.12
506.48	27636.12
507.253	27506.12
508.027	27230.12
508.8	26886.12
509.573	26488.12
510.346	25821.12
511.118	25003.12
511.891	24203.12
512.664	23398.12
513.437	22445.12
514.209	21528.12
514.982	20669.12
515.754	19727.12
516.526	18875.12
517.298	18017.12
518.071	17174.12
518.843	16528.12
519.615	15994.12
520.387	15298.12
521.159	14753.12
521.93	14119.12
522.702	13583.12
523.474	13044.12
524.245	12416.12
525.017	11922.12
525.788	11460.12
526.56	10882.12
527.331	10351.12
528.102	9901.12
528.873	9496.12
529.644	8996.12
530.415	8584.12
531.186	8154.12
531.957	7673.12
532.728	7336.12
533.498	6925.12
534.269	6561.12
535.039	6204.12
535.81	5833.12
536.58	5517.12
537.351	5150.12
538.121	4908.12
538.891	4644.12
539.661	4411.12
540.431	4114.12
541.201	3917.12
541.971	3742.12
542.741	3537.12
543.51	3339.12
544.28	3186.12
545.05	3045.12
545.819	2905.12
546.588	2736.12
547.358	2600.12
548.127	2481.12
548.896	2362.12
549.665	2206.12
550.434	2119.12
551.203	1988.12
551.972	1884.12
552.741	1754.12
553.51	1688.12
554.278	1610.12
555.047	1495.12
555.815	1422.12
556.584	1338.12
557.352	1264.12
558.121	1183.12
558.889	1131.12
559.657	1073.12
560.425	1004.12
561.193	947.12
561.961	888.12
562.729	835.12
563.496	794.12
564.264	752.12
565.032	717.12
565.799	669.12
566.567	640.12
567.334	594.12
568.101	568.12
568.869	535.12
569.636	513.12
570.403	473.12
571.17	454.12
571.937	425.12
572.704	406.12
573.471	376.12
574.237	357.12
575.004	333.12
575.771	313.12
576.537	302.12
577.303	281.12
578.07	263.12
578.836	252.12
579.602	236.12
580.368	221.12
581.134	208.12
581.9	201.12
582.666	182.12
583.432	182.12
584.198	173.12
584.964	160.12
585.729	155.12
586.495	149.12
587.26	138.12
588.025	129.12
588.791	124.12
589.556	116.12
590.321	113.12
591.086	105.12
591.851	97.12
592.616	95.12
593.381	88.12
594.146	88.12
594.911	81.12
595.675	77.12
596.44	72.12
597.204	73.12
597.969	66.12
598.733	64.12
599.497	64.12
600.261	61.12
601.025	56.12
601.79	55.12
602.553	53.12
603.317	49.12
604.081	48.12
604.845	41.12
605.609	43.12
606.372	44.12
607.136	43.12
607.899	38.12
608.662	40.12
609.426	35.12
610.189	32.12
610.952	35.12
611.715	32.12
612.478	31.12
613.241	31.12
614.004	27.12
614.767	26.12
615.529	28.12
616.292	26.12
617.055	26.12
617.817	22.12
618.579	23.12
619.342	22.12
620.104	21.12
620.866	21.12
621.628	20.12
622.39	19.12
623.152	21.12
623.914	18.12
624.676	17.12
625.438	18.12
626.199	17.12
626.961	16.12
627.722	16.12
628.484	14.12
629.245	12.12
630.006	16.12
630.768	15.12
631.529	12.12
632.29	13.12
633.051	14.12
633.812	15.12
634.573	11.12
635.333	12.12
636.094	13.12
636.855	14.12
637.615	10.12
638.376	12.12
639.136	11.12
639.896	12.12
640.657	11.12
641.417	9.12
642.177	10.12
642.937	9.12
643.697	9.12
644.457	10.12
645.216	9.12
645.976	8.12
646.736	6.12
647.495	10.12
648.255	9.12
649.014	9.12
649.774	6.12
650.533	7.12
651.292	8.12
652.051	7.12
652.81	7.12
653.569	7.12
654.328	7.12
655.087	8.12
655.846	6.12
656.604	7.12
657.363	6.12
658.121	8.12
658.88	6.12
659.638	7.12
660.397	8.12
661.155	5.12
661.913	7.12
662.671	5.12
663.429	4.12
664.187	5.12
664.945	8.12
665.703	4.12
666.46	6.12
667.218	5.12
667.976	3.12
668.733	8.12
669.49	6.12
670.248	4.12
671.005	8.12
671.762	5.12
672.519	5.12
673.276	5.12
674.033	6.12
674.79	6.12
675.547	4.12
676.304	7.12
677.06	3.12
677.817	4.12
678.574	6.12
679.33	3.12
680.086	5.12
680.843	3.12
681.599	4.12
682.355	3.12
683.111	2.12
683.867	6.12
684.623	8.12
685.379	4.12
686.135	3.12
686.89	5.12
687.646	5.12
688.402	4.12
689.157	4.12
689.912	5.12
690.668	4.12
691.423	5.12
692.178	3.12
692.933	4.12
693.688	4.12
694.443	3.12
695.198	3.12
695.953	6.12
696.708	4.12
697.462	2.12
698.217	4.12
698.972	4.12
699.726	4.12
700.48	6.12
701.235	3.12
701.989	3.12
702.743	3.12
703.497	4.12
704.251	4.12
705.005	5.12
705.759	5.12
706.513	5.12
707.266	3.12
708.02	3.12
708.774	1.12
709.527	4.12
710.28	5.12
711.034	2.12
711.787	2.12
712.54	4.12
713.293	5.12
714.046	1.12
714.799	6.12
715.552	2.12
716.305	3.12
717.058	3.12
717.81	3.12
718.563	7.12
719.315	4.12
720.068	4.12
720.82	4.12
721.573	5.12
722.325	4.12
723.077	5.12
723.829	4.12
724.581	2.12
725.333	6.12
726.085	1.12
726.836	5.12
727.588	5.12
728.34	7.12
729.091	2.12
729.843	3.12
730.594	4.12
731.346	4.12
732.097	5.12
732.848	3.12
733.599	2.12
734.35	5.12
735.101	5.12
735.852	5.12
736.603	5.12
737.354	4.12
738.104	4.12
738.855	5.12
739.605	3.12
740.356	7.12
741.106	6.12
741.856	6.12
742.607	6.12
743.357	5.12
744.107	2.12
744.857	5.12
745.607	5.12
746.357	5.12
747.106	3.12
747.856	6.12
748.606	4.12
749.355	6.12
750.105	4.12
750.854	5.12
751.603	6.12
752.353	4.12
753.102	5.12
753.851	4.12
754.6	6.12
755.349	5.12
756.098	5.12
756.847	3.12
757.595	6.12
758.344	5.12
759.093	7.12
759.841	8.12
760.589	8.12
761.338	5.12
762.086	9.12
762.834	7.12
763.582	6.12
764.331	8.12
765.079	7.12
765.826	7.12
766.574	10.12
767.322	7.12
768.07	6.12
768.817	7.12
769.565	7.12
770.312	8.12
771.06	6.12
771.807	9.12
772.554	7.12
773.302	8.12
774.049	8.12
774.796	8.12
775.543	8.12
776.29	8.12
777.036	8.12
777.783	9.12
778.53	8.12
779.276	9.12
780.023	10.12
780.769	9.12
781.516	10.12
782.262	11.12
783.008	10.12
783.754	8.12
784.5	10.12
785.246	7.12
785.992	9.12
786.738	9.12
787.484	11.12
788.23	10.12
788.975	9.12
789.721	8.12
790.466	6.12
791.212	10.12
791.957	8.12
792.702	7.12
793.447	8.12
794.193	9.12
794.938	7.12
795.683	8.12
796.427	8.12
797.172	7.12
797.917	8.12
798.662	9.12
799.406	7.12
800.151	6.12
800.895	7.12
801.64	9.12
802.384	8.12
803.128	7.12
803.872	9.12
804.616	6.12
805.36	7.12
806.104	5.12
806.848	6.12
807.592	6.12
808.336	5.12
809.079	8.12
809.823	5.12
810.566	7.12
811.31	6.12
812.053	6.12
812.796	6.12
813.539	7.12
814.283	7.12
815.026	6.12
815.769	4.12
816.511	5.12
817.254	6.12
817.997	6.12
818.74	6.12
819.482	7.12
820.225	5.12
820.967	7.12
821.71	5.12
822.452	5.12
823.194	3.12
823.936	5.12
824.678	5.12
825.42	4.12
826.162	5.12
826.904	6.12
827.646	5.12
828.388	6.12
829.129	3.12
829.871	6.12
830.612	3.12
831.354	2.12
832.095	2.12
832.836	4.12
833.577	5.12
834.319	4.12
835.06	4.12
835.801	5.12
836.542	5.12
837.282	3.12
838.023	3.12
838.764	6.12
839.504	4.12
840.245	6.12
840.985	2.12
841.726	6.12
842.466	5.12
843.206	4.12
843.946	5.12
844.687	3.12
845.427	5.12
846.166	3.12
846.906	3.12
847.646	5.12
848.386	3.12
849.125	6.12
849.865	3.12
850.605	4.12
851.344	4.12
852.083	4.12
852.823	5.12
853.562	4.12
854.301	2.12
855.04	3.12
855.779	3.12
856.518	4.12
857.257	3.12
857.995	2.12
858.734	2.12
859.473	4.12
860.211	2.12
860.95	1.12
861.688	4.12
862.426	2.12
863.165	2.12
863.903	2.12
864.641	4.12
865.379	0.12
866.117	1.12
866.855	2.12
867.593	2.12
868.33	2.12
869.068	1.12
869.806	3.12
870.543	1.12
871.28	1.12
872.018	1.12
872.755	3.12
873.492	2.12
874.229	2.12
874.967	4.12
875.703	2.12
876.44	-0.88
877.177	0.12
877.914	2.12
878.651	1.12
879.387	3.12
880.124	1.12
880.86	1.12
881.597	-1.88
882.333	3.12
883.069	2.12
883.806	0.12
884.542	0.12
885.278	2.12
886.014	0.12
886.749	-0.88
887.485	0.12
888.221	2.12
888.957	2.12
889.692	2.12
890.428	1.12
891.163	2.12
891.899	2.12
892.634	0.12
893.369	0.12
894.104	0.12
894.839	0.12
895.574	1.12
896.309	3.12
897.044	3.12
897.779	1.12
898.514	3.12
899.248	2.12
899.983	1.12
900.717	1.12
901.452	1.12
902.186	2.12
902.92	1.12
903.654	-1.88
904.389	1.12
905.123	2.12
905.857	0.12
906.59	1.12
907.324	0.12
908.058	0.12
908.792	2.12
909.525	0.12
910.259	1.12
910.992	1.12
911.726	2.12
912.459	1.12
913.192	0.12
913.925	1.12
914.658	-0.88
915.391	0.12
916.124	0.12
916.857	0.12
917.59	2.12
918.323	1.12
919.055	2.12
919.788	2.12
920.521	-1.88
921.253	1.12
921.985	1.12
922.718	0.12
923.45	1.12
924.182	2.12
924.914	0.12
925.646	-0.88
926.378	2.12
927.11	-0.88
927.841	1.12
928.573	1.12
929.305	1.12
930.036	2.12
930.768	1.12
931.499	2.12
932.23	1.12
932.962	0.12
933.693	-0.88
934.424	1.12
935.155	0.12
935.886	-0.88
936.617	-1.88
937.348	0.12
938.078	1.12
938.809	0.12
939.54	0.12
940.27	0.12
941.001	1.12
941.731	2.12
942.461	-0.88
943.191	0.12
943.922	0.12
944.652	2.12
945.382	1.12
946.112	0.12
946.841	1.12
947.571	0.12
948.301	0.12
949.031	2.12
949.76	0.12
950.49	-0.88
951.219	0.12
951.948	2.12
952.678	3.12
953.407	1.12
954.136	2.12
954.865	0.12
955.594	-0.88
956.323	1.12
957.052	0.12
957.78	1.12
958.509	-0.88
959.238	1.12
959.966	2.12
960.695	2.12
961.423	1.12
962.151	1.12
962.88	1.12
963.608	1.12
964.336	1.12
965.064	2.12
965.792	1.12
966.52	1.12
967.247	0.12
967.975	0.12
968.703	0.12
969.43	1.12
970.158	1.12
970.885	1.12
971.613	2.12
972.34	0.12
973.067	2.12
973.794	0.12
974.521	1.12
975.248	-0.88
975.975	-0.88
976.702	1.12
977.429	0.12
978.156	1.12
978.882	0.12
979.609	0.12
980.335	2.12
981.062	-0.88
981.788	1.12
982.514	3.12
983.24	2.12
983.967	1.12
984.693	-0.88
985.419	3.12
986.144	1.12
986.87	0.12
987.596	1.12
988.322	0.12
989.047	4.12
989.773	0.12
990.498	2.12
991.224	3.12
991.949	2.12
992.674	2.12
993.399	-0.88
994.124	1.12
994.849	0.12
995.574	1.12
996.299	0.12
997.024	-1.88
997.749	-0.88
998.473	0.12
999.198	2.12
999.922	0.12
1000.647	0.12
1001.371	3.12
1002.095	-1.88
1002.82	1.12
1003.544	0.12
1004.268	0.12
1004.992	4.12
1005.716	-1.88
1006.439	2.12
1007.163	4.12
1007.887	4.12
1008.611	2.12
1009.334	0.12
1010.058	2.12
1010.781	0.12
1011.504	0.12
1012.228	2.12
1012.951	-1.88
1013.674	-0.88
1014.397	-1.88
1015.12	2.12
