节点500_285_QEPB04081__651__15-06-23-020.txt的数据

Date: Wed Nov 12 15:06:23 CST 2025
User: PC
Spectrometer: QEPB0408
触发模式: 0
积分时间 (秒): 1.000000E-2
Scans to average: 1
启用暗噪声校正: true
启用非线性校正: false
滑动平均宽度: 0
X轴模式: Wavelengths
Number of Pixels in Spectrum: 1044
>>>>>Begin Spectral Data<<<<<
220.843	1.38
221.644	0.38
222.444	1.38
223.244	0.38
224.045	3.38
224.845	0.38
225.645	1.38
226.445	2.38
227.245	1.38
228.045	2.38
228.845	2.38
229.645	3.38
230.444	1.38
231.244	4.38
232.043	3.38
232.843	3.38
233.642	5.38
234.442	-0.62
235.241	4.38
236.04	2.38
236.839	4.38
237.638	2.38
238.437	3.38
239.236	4.38
240.035	2.38
240.833	2.38
241.632	4.38
242.43	5.38
243.229	4.38
244.027	1.38
244.826	5.38
245.624	5.38
246.422	4.38
247.22	5.38
248.018	3.38
248.816	5.38
249.614	4.38
250.412	5.38
251.21	4.38
252.007	7.38
252.805	5.38
253.602	7.38
254.4	6.38
255.197	7.38
255.994	7.38
256.791	5.38
257.589	6.38
258.386	6.38
259.183	9.38
259.979	8.38
260.776	8.38
261.573	9.38
262.37	6.38
263.166	11.38
263.963	9.38
264.759	8.38
265.556	9.38
266.352	9.38
267.148	13.38
267.944	9.38
268.74	11.38
269.536	13.38
270.332	12.38
271.128	12.38
271.924	14.38
272.719	15.38
273.515	13.38
274.311	12.38
275.106	13.38
275.901	14.38
276.697	17.38
277.492	16.38
278.287	15.38
279.082	16.38
279.877	17.38
280.672	17.38
281.467	15.38
282.262	18.38
283.056	16.38
283.851	16.38
284.646	18.38
285.44	15.38
286.234	18.38
287.029	19.38
287.823	16.38
288.617	17.38
289.411	19.38
290.205	16.38
290.999	16.38
291.793	17.38
292.587	17.38
293.381	15.38
294.174	16.38
294.968	14.38
295.761	16.38
296.555	16.38
297.348	14.38
298.141	13.38
298.935	15.38
299.728	16.38
300.521	12.38
301.314	11.38
302.107	12.38
302.899	14.38
303.692	9.38
304.485	9.38
305.277	15.38
306.07	10.38
306.862	11.38
307.655	10.38
308.447	12.38
309.239	10.38
310.031	6.38
310.823	9.38
311.615	10.38
312.407	12.38
313.199	9.38
313.991	9.38
314.783	8.38
315.574	9.38
316.366	9.38
317.157	7.38
317.949	8.38
318.74	8.38
319.531	8.38
320.322	6.38
321.113	6.38
321.904	7.38
322.695	6.38
323.486	7.38
324.277	7.38
325.068	5.38
325.858	8.38
326.649	6.38
327.439	6.38
328.23	6.38
329.02	8.38
329.81	7.38
330.6	3.38
331.391	5.38
332.181	6.38
332.971	6.38
333.76	7.38
334.55	4.38
335.34	6.38
336.13	5.38
336.919	6.38
337.709	4.38
338.498	6.38
339.287	5.38
340.077	6.38
340.866	5.38
341.655	3.38
342.444	5.38
343.233	5.38
344.022	8.38
344.811	4.38
345.6	6.38
346.388	6.38
347.177	3.38
347.965	6.38
348.754	5.38
349.542	5.38
350.33	4.38
351.119	5.38
351.907	5.38
352.695	4.38
353.483	6.38
354.271	4.38
355.059	5.38
355.846	4.38
356.634	4.38
357.422	5.38
358.209	4.38
358.997	8.38
359.784	6.38
360.571	5.38
361.359	4.38
362.146	5.38
362.933	2.38
363.72	5.38
364.507	4.38
365.294	3.38
366.081	1.38
366.867	5.38
367.654	4.38
368.44	7.38
369.227	2.38
370.013	5.38
370.8	6.38
371.586	2.38
372.372	5.38
373.158	5.38
373.944	4.38
374.73	5.38
375.516	4.38
376.302	4.38
377.088	3.38
377.873	7.38
378.659	5.38
379.445	5.38
380.23	4.38
381.015	7.38
381.801	3.38
382.586	1.38
383.371	6.38
384.156	4.38
384.941	7.38
385.726	4.38
386.511	5.38
387.296	5.38
388.08	4.38
388.865	4.38
389.649	4.38
390.434	4.38
391.218	4.38
392.003	3.38
392.787	5.38
393.571	5.38
394.355	5.38
395.139	6.38
395.923	5.38
396.707	4.38
397.491	5.38
398.274	7.38
399.058	5.38
399.842	8.38
400.625	7.38
401.408	7.38
402.192	5.38
402.975	8.38
403.758	6.38
404.541	5.38
405.324	8.38
406.107	7.38
406.89	5.38
407.673	4.38
408.456	6.38
409.238	8.38
410.021	8.38
410.803	6.38
411.586	9.38
412.368	8.38
413.151	8.38
413.933	6.38
414.715	7.38
415.497	8.38
416.279	9.38
417.061	8.38
417.843	8.38
418.624	12.38
419.406	6.38
420.188	8.38
420.969	8.38
421.751	9.38
422.532	9.38
423.313	10.38
424.095	11.38
424.876	10.38
425.657	11.38
426.438	13.38
427.219	12.38
428	10.38
428.78	12.38
429.561	11.38
430.342	15.38
431.122	11.38
431.903	13.38
432.683	11.38
433.464	14.38
434.244	15.38
435.024	16.38
435.804	14.38
436.584	17.38
437.364	19.38
438.144	19.38
438.924	22.38
439.704	23.38
440.483	22.38
441.263	22.38
442.042	27.38
442.822	27.38
443.601	28.38
444.38	27.38
445.16	32.38
445.939	35.38
446.718	35.38
447.497	38.38
448.276	45.38
449.054	50.38
449.833	56.38
450.612	56.38
451.391	62.38
452.169	67.38
452.948	72.38
453.726	76.38
454.504	89.38
455.282	95.38
456.061	106.38
456.839	117.38
457.617	133.38
458.395	145.38
459.172	165.38
459.95	184.38
460.728	204.38
461.506	225.38
462.283	251.38
463.061	279.38
463.838	307.38
464.615	345.38
465.393	389.38
466.17	429.38
466.947	481.38
467.724	542.38
468.501	595.38
469.278	661.38
470.055	713.38
470.831	805.38
471.608	894.38
472.385	985.38
473.161	1084.38
473.938	1201.38
474.714	1332.38
475.49	1453.38
476.266	1611.38
477.043	1764.38
477.819	1943.38
478.595	2123.38
479.371	2350.38
480.146	2573.38
480.922	2844.38
481.698	3094.38
482.473	3385.38
483.249	3685.38
484.024	4066.38
484.8	4428.38
485.575	4847.38
486.35	5278.38
487.126	5758.38
487.901	6296.38
488.676	6862.38
489.451	7505.38
490.225	8156.38
491	8846.38
491.775	9602.38
492.55	10461.38
493.324	11249.38
494.099	12112.38
494.873	12985.38
495.647	14039.38
496.422	15046.38
497.196	16100.38
497.97	17211.38
498.744	18252.38
499.518	19326.38
500.292	20379.38
501.066	21417.38
501.839	22360.38
502.613	23271.38
503.387	24102.38
504.16	24822.38
504.934	25286.38
505.707	25627.38
506.48	25766.38
507.253	25886.38
508.027	25837.38
508.8	25740.38
509.573	25441.38
510.346	25072.38
511.118	24495.38
511.891	23854.38
512.664	23131.38
513.437	22447.38
514.209	21525.38
514.982	20818.38
515.754	19898.38
516.526	19115.38
517.298	18341.38
518.071	17590.38
518.843	16913.38
519.615	16220.38
520.387	15618.38
521.159	15006.38
521.93	14391.38
522.702	13848.38
523.474	13274.38
524.245	12697.38
525.017	12185.38
525.788	11654.38
526.56	11150.38
527.331	10669.38
528.102	10191.38
528.873	9769.38
529.644	9306.38
530.415	8921.38
531.186	8419.38
531.957	8021.38
532.728	7679.38
533.498	7280.38
534.269	6855.38
535.039	6511.38
535.81	6125.38
536.58	5830.38
537.351	5459.38
538.121	5167.38
538.891	4906.38
539.661	4622.38
540.431	4387.38
541.201	4139.38
541.971	3933.38
542.741	3733.38
543.51	3547.38
544.28	3361.38
545.05	3209.38
545.819	3035.38
546.588	2877.38
547.358	2744.38
548.127	2617.38
548.896	2500.38
549.665	2351.38
550.434	2234.38
551.203	2138.38
551.972	2000.38
552.741	1891.38
553.51	1797.38
554.278	1695.38
555.047	1603.38
555.815	1510.38
556.584	1428.38
557.352	1356.38
558.121	1276.38
558.889	1208.38
559.657	1144.38
560.425	1080.38
561.193	1025.38
561.961	960.38
562.729	905.38
563.496	855.38
564.264	812.38
565.032	767.38
565.799	721.38
566.567	688.38
567.334	651.38
568.101	609.38
568.869	574.38
569.636	542.38
570.403	514.38
571.17	483.38
571.937	453.38
572.704	428.38
573.471	408.38
574.237	384.38
575.004	364.38
575.771	342.38
576.537	312.38
577.303	302.38
578.07	287.38
578.836	269.38
579.602	248.38
580.368	237.38
581.134	228.38
581.9	220.38
582.666	202.38
583.432	193.38
584.198	181.38
584.964	175.38
585.729	166.38
586.495	155.38
587.26	150.38
588.025	139.38
588.791	129.38
589.556	124.38
590.321	120.38
591.086	111.38
591.851	106.38
592.616	104.38
593.381	93.38
594.146	89.38
594.911	82.38
595.675	82.38
596.44	81.38
597.204	76.38
597.969	73.38
598.733	68.38
599.497	64.38
600.261	64.38
601.025	60.38
601.79	57.38
602.553	56.38
603.317	53.38
604.081	51.38
604.845	47.38
605.609	44.38
606.372	44.38
607.136	41.38
607.899	40.38
608.662	38.38
609.426	37.38
610.189	34.38
610.952	36.38
611.715	32.38
612.478	29.38
613.241	31.38
614.004	28.38
614.767	29.38
615.529	25.38
616.292	28.38
617.055	27.38
617.817	23.38
618.579	20.38
619.342	23.38
620.104	23.38
620.866	21.38
621.628	21.38
622.39	19.38
623.152	18.38
623.914	16.38
624.676	16.38
625.438	15.38
626.199	16.38
626.961	16.38
627.722	16.38
628.484	15.38
629.245	14.38
630.006	13.38
630.768	14.38
631.529	13.38
632.29	11.38
633.051	13.38
633.812	12.38
634.573	10.38
635.333	9.38
636.094	9.38
636.855	9.38
637.615	8.38
638.376	11.38
639.136	12.38
639.896	8.38
640.657	8.38
641.417	11.38
642.177	10.38
642.937	9.38
643.697	9.38
644.457	8.38
645.216	9.38
645.976	8.38
646.736	9.38
647.495	10.38
648.255	7.38
649.014	7.38
649.774	7.38
650.533	6.38
651.292	6.38
652.051	5.38
652.81	7.38
653.569	7.38
654.328	7.38
655.087	6.38
655.846	6.38
656.604	6.38
657.363	5.38
658.121	6.38
658.88	4.38
659.638	7.38
660.397	4.38
661.155	7.38
661.913	4.38
662.671	4.38
663.429	4.38
664.187	2.38
664.945	5.38
665.703	4.38
666.46	2.38
667.218	4.38
667.976	4.38
668.733	4.38
669.49	2.38
670.248	3.38
671.005	4.38
671.762	3.38
672.519	2.38
673.276	2.38
674.033	4.38
674.79	4.38
675.547	4.38
676.304	5.38
677.06	3.38
677.817	3.38
678.574	1.38
679.33	5.38
680.086	5.38
680.843	3.38
681.599	3.38
682.355	4.38
683.111	2.38
683.867	1.38
684.623	4.38
685.379	4.38
686.135	2.38
686.89	5.38
687.646	2.38
688.402	4.38
689.157	1.38
689.912	6.38
690.668	4.38
691.423	0.38
692.178	5.38
692.933	3.38
693.688	2.38
694.443	1.38
695.198	2.38
695.953	3.38
696.708	4.38
697.462	3.38
698.217	2.38
698.972	3.38
699.726	4.38
700.48	3.38
701.235	1.38
701.989	2.38
702.743	4.38
703.497	2.38
704.251	1.38
705.005	1.38
705.759	2.38
706.513	3.38
707.266	4.38
708.02	2.38
708.774	3.38
709.527	3.38
710.28	3.38
711.034	1.38
711.787	2.38
712.54	1.38
713.293	3.38
714.046	2.38
714.799	1.38
715.552	1.38
716.305	4.38
717.058	5.38
717.81	2.38
718.563	4.38
719.315	1.38
720.068	5.38
720.82	1.38
721.573	2.38
722.325	3.38
723.077	0.38
723.829	3.38
724.581	3.38
725.333	4.38
726.085	2.38
726.836	3.38
727.588	2.38
728.34	5.38
729.091	2.38
729.843	2.38
730.594	3.38
731.346	3.38
732.097	1.38
732.848	2.38
733.599	2.38
734.35	4.38
735.101	3.38
735.852	3.38
736.603	4.38
737.354	3.38
738.104	5.38
738.855	1.38
739.605	4.38
740.356	4.38
741.106	4.38
741.856	4.38
742.607	1.38
743.357	3.38
744.107	3.38
744.857	4.38
745.607	5.38
746.357	6.38
747.106	5.38
747.856	3.38
748.606	6.38
749.355	3.38
750.105	4.38
750.854	3.38
751.603	3.38
752.353	4.38
753.102	3.38
753.851	6.38
754.6	6.38
755.349	4.38
756.098	7.38
756.847	4.38
757.595	4.38
758.344	5.38
759.093	3.38
759.841	3.38
760.589	5.38
761.338	5.38
762.086	5.38
762.834	6.38
763.582	6.38
764.331	5.38
765.079	6.38
765.826	5.38
766.574	6.38
767.322	5.38
768.07	6.38
768.817	6.38
769.565	6.38
770.312	8.38
771.06	5.38
771.807	5.38
772.554	5.38
773.302	7.38
774.049	5.38
774.796	6.38
775.543	7.38
776.29	7.38
777.036	7.38
777.783	5.38
778.53	8.38
779.276	7.38
780.023	6.38
780.769	6.38
781.516	7.38
782.262	8.38
783.008	8.38
783.754	6.38
784.5	7.38
785.246	7.38
785.992	7.38
786.738	7.38
787.484	8.38
788.23	6.38
788.975	7.38
789.721	9.38
790.466	7.38
791.212	6.38
791.957	7.38
792.702	7.38
793.447	7.38
794.193	4.38
794.938	6.38
795.683	5.38
796.427	9.38
797.172	8.38
797.917	7.38
798.662	8.38
799.406	9.38
800.151	8.38
800.895	5.38
801.64	9.38
802.384	6.38
803.128	5.38
803.872	5.38
804.616	3.38
805.36	6.38
806.104	4.38
806.848	6.38
807.592	6.38
808.336	6.38
809.079	3.38
809.823	4.38
810.566	5.38
811.31	5.38
812.053	3.38
812.796	5.38
813.539	4.38
814.283	4.38
815.026	2.38
815.769	5.38
816.511	4.38
817.254	2.38
817.997	3.38
818.74	4.38
819.482	2.38
820.225	5.38
820.967	6.38
821.71	3.38
822.452	3.38
823.194	4.38
823.936	1.38
824.678	5.38
825.42	4.38
826.162	3.38
826.904	4.38
827.646	3.38
828.388	4.38
829.129	4.38
829.871	3.38
830.612	3.38
831.354	2.38
832.095	4.38
832.836	2.38
833.577	2.38
834.319	3.38
835.06	4.38
835.801	3.38
836.542	0.38
837.282	4.38
838.023	1.38
838.764	2.38
839.504	2.38
840.245	2.38
840.985	2.38
841.726	0.38
842.466	1.38
843.206	2.38
843.946	1.38
844.687	1.38
845.427	0.38
846.166	3.38
846.906	2.38
847.646	3.38
848.386	5.38
849.125	2.38
849.865	2.38
850.605	2.38
851.344	4.38
852.083	2.38
852.823	1.38
853.562	1.38
854.301	2.38
855.04	2.38
855.779	3.38
856.518	2.38
857.257	2.38
857.995	0.38
858.734	1.38
859.473	3.38
860.211	2.38
860.95	2.38
861.688	3.38
862.426	3.38
863.165	4.38
863.903	2.38
864.641	1.38
865.379	2.38
866.117	0.38
866.855	1.38
867.593	1.38
868.33	4.38
869.068	0.38
869.806	1.38
870.543	3.38
871.28	1.38
872.018	1.38
872.755	-0.62
873.492	2.38
874.229	1.38
874.967	2.38
875.703	0.38
876.44	0.38
877.177	0.38
877.914	0.38
878.651	-0.62
879.387	-0.62
880.124	0.38
880.86	0.38
881.597	-0.62
882.333	0.38
883.069	1.38
883.806	-0.62
884.542	0.38
885.278	0.38
886.014	1.38
886.749	-0.62
887.485	1.38
888.221	0.38
888.957	-0.62
889.692	0.38
890.428	-1.62
891.163	0.38
891.899	0.38
892.634	-0.62
893.369	-0.62
894.104	-0.62
894.839	-0.62
895.574	-2.62
896.309	0.38
897.044	-0.62
897.779	-0.62
898.514	1.38
899.248	1.38
899.983	-1.62
900.717	0.38
901.452	0.38
902.186	2.38
902.92	0.38
903.654	1.38
904.389	0.38
905.123	2.38
905.857	-0.62
906.59	1.38
907.324	-0.62
908.058	0.38
908.792	0.38
909.525	-1.62
910.259	-0.62
910.992	1.38
911.726	0.38
912.459	-0.62
913.192	-2.62
913.925	1.38
914.658	-0.62
915.391	-0.62
916.124	-0.62
916.857	0.38
917.59	-1.62
918.323	1.38
919.055	-0.62
919.788	0.38
920.521	1.38
921.253	1.38
921.985	1.38
922.718	0.38
923.45	-0.62
924.182	-0.62
924.914	-1.62
925.646	1.38
926.378	-2.62
927.11	0.38
927.841	-1.62
928.573	-2.62
929.305	0.38
930.036	0.38
930.768	0.38
931.499	-1.62
932.23	0.38
932.962	0.38
933.693	-1.62
934.424	-0.62
935.155	0.38
935.886	-0.62
936.617	-1.62
937.348	1.38
938.078	1.38
938.809	-1.62
939.54	-1.62
940.27	-0.62
941.001	-0.62
941.731	0.38
942.461	0.38
943.191	0.38
943.922	0.38
944.652	0.38
945.382	-0.62
946.112	1.38
946.841	1.38
947.571	-1.62
948.301	-0.62
949.031	-2.62
949.76	-1.62
950.49	-0.62
951.219	-0.62
951.948	2.38
952.678	-2.62
953.407	1.38
954.136	-0.62
954.865	-0.62
955.594	0.38
956.323	0.38
957.052	0.38
957.78	1.38
958.509	1.38
959.238	-1.62
959.966	-1.62
960.695	1.38
961.423	2.38
962.151	-0.62
962.88	-0.62
963.608	-0.62
964.336	0.38
965.064	-0.62
965.792	0.38
966.52	3.38
967.247	0.38
967.975	-1.62
968.703	0.38
969.43	-0.62
970.158	0.38
970.885	1.38
971.613	-2.62
972.34	0.38
973.067	-0.62
973.794	1.38
974.521	-2.62
975.248	-0.62
975.975	-1.62
976.702	-0.62
977.429	-0.62
978.156	-0.62
978.882	0.38
979.609	1.38
980.335	-1.62
981.062	-1.62
981.788	-0.62
982.514	0.38
983.24	0.38
983.967	-2.62
984.693	-0.62
985.419	-0.62
986.144	2.38
986.87	-1.62
987.596	-1.62
988.322	-0.62
989.047	0.38
989.773	0.38
990.498	-1.62
991.224	-0.62
991.949	-0.62
992.674	-0.62
993.399	-0.62
994.124	0.38
994.849	1.38
995.574	0.38
996.299	-0.62
997.024	0.38
997.749	1.38
998.473	0.38
999.198	-1.62
999.922	-0.62
1000.647	-2.62
1001.371	1.38
1002.095	-1.62
1002.82	-0.62
1003.544	-0.62
1004.268	2.38
1004.992	0.38
1005.716	2.38
1006.439	2.38
1007.163	-0.62
1007.887	0.38
1008.611	1.38
1009.334	0.38
1010.058	1.38
1010.781	-0.62
1011.504	0.38
1012.228	-1.62
1012.951	0.38
1013.674	-0.62
1014.397	1.38
1015.12	0.38
