节点500_285_QEPB04081__452__15-03-04-549.txt的数据

Date: Wed Nov 12 15:03:04 CST 2025
User: PC
Spectrometer: QEPB0408
触发模式: 0
积分时间 (秒): 1.000000E-2
Scans to average: 1
启用暗噪声校正: true
启用非线性校正: false
滑动平均宽度: 0
X轴模式: Wavelengths
Number of Pixels in Spectrum: 1044
>>>>>Begin Spectral Data<<<<<
220.843	2.62
221.644	2.62
222.444	4.62
223.244	2.62
224.045	0.62
224.845	4.62
225.645	1.62
226.445	2.62
227.245	2.62
228.045	3.62
228.845	5.62
229.645	1.62
230.444	2.62
231.244	3.62
232.043	2.62
232.843	2.62
233.642	2.62
234.442	3.62
235.241	3.62
236.04	5.62
236.839	5.62
237.638	4.62
238.437	5.62
239.236	5.62
240.035	3.62
240.833	3.62
241.632	6.62
242.43	4.62
243.229	4.62
244.027	4.62
244.826	4.62
245.624	5.62
246.422	8.62
247.22	7.62
248.018	6.62
248.816	6.62
249.614	6.62
250.412	6.62
251.21	9.62
252.007	5.62
252.805	6.62
253.602	8.62
254.4	7.62
255.197	9.62
255.994	8.62
256.791	11.62
257.589	7.62
258.386	10.62
259.183	9.62
259.979	9.62
260.776	8.62
261.573	10.62
262.37	9.62
263.166	10.62
263.963	11.62
264.759	14.62
265.556	14.62
266.352	13.62
267.148	12.62
267.944	15.62
268.74	12.62
269.536	13.62
270.332	14.62
271.128	15.62
271.924	15.62
272.719	12.62
273.515	16.62
274.311	18.62
275.106	15.62
275.901	18.62
276.697	16.62
277.492	18.62
278.287	17.62
279.082	16.62
279.877	18.62
280.672	18.62
281.467	18.62
282.262	17.62
283.056	19.62
283.851	18.62
284.646	19.62
285.44	19.62
286.234	16.62
287.029	19.62
287.823	23.62
288.617	18.62
289.411	19.62
290.205	19.62
290.999	21.62
291.793	17.62
292.587	18.62
293.381	18.62
294.174	17.62
294.968	17.62
295.761	14.62
296.555	16.62
297.348	17.62
298.141	13.62
298.935	18.62
299.728	17.62
300.521	17.62
301.314	13.62
302.107	16.62
302.899	14.62
303.692	10.62
304.485	12.62
305.277	12.62
306.07	14.62
306.862	10.62
307.655	13.62
308.447	12.62
309.239	12.62
310.031	10.62
310.823	8.62
311.615	13.62
312.407	10.62
313.199	12.62
313.991	9.62
314.783	7.62
315.574	10.62
316.366	8.62
317.157	7.62
317.949	8.62
318.74	9.62
319.531	7.62
320.322	7.62
321.113	6.62
321.904	5.62
322.695	7.62
323.486	10.62
324.277	9.62
325.068	10.62
325.858	7.62
326.649	6.62
327.439	7.62
328.23	7.62
329.02	9.62
329.81	7.62
330.6	6.62
331.391	7.62
332.181	7.62
332.971	7.62
333.76	6.62
334.55	5.62
335.34	7.62
336.13	10.62
336.919	6.62
337.709	7.62
338.498	6.62
339.287	5.62
340.077	6.62
340.866	7.62
341.655	6.62
342.444	8.62
343.233	4.62
344.022	5.62
344.811	4.62
345.6	8.62
346.388	5.62
347.177	6.62
347.965	6.62
348.754	7.62
349.542	7.62
350.33	4.62
351.119	4.62
351.907	5.62
352.695	7.62
353.483	8.62
354.271	7.62
355.059	8.62
355.846	2.62
356.634	6.62
357.422	4.62
358.209	5.62
358.997	6.62
359.784	6.62
360.571	4.62
361.359	4.62
362.146	6.62
362.933	7.62
363.72	5.62
364.507	7.62
365.294	6.62
366.081	6.62
366.867	7.62
367.654	3.62
368.44	7.62
369.227	3.62
370.013	3.62
370.8	5.62
371.586	3.62
372.372	4.62
373.158	3.62
373.944	6.62
374.73	5.62
375.516	5.62
376.302	4.62
377.088	6.62
377.873	3.62
378.659	3.62
379.445	4.62
380.23	5.62
381.015	7.62
381.801	6.62
382.586	6.62
383.371	6.62
384.156	5.62
384.941	8.62
385.726	6.62
386.511	6.62
387.296	4.62
388.08	4.62
388.865	6.62
389.649	7.62
390.434	8.62
391.218	5.62
392.003	4.62
392.787	6.62
393.571	5.62
394.355	6.62
395.139	6.62
395.923	8.62
396.707	6.62
397.491	6.62
398.274	4.62
399.058	6.62
399.842	6.62
400.625	8.62
401.408	8.62
402.192	7.62
402.975	7.62
403.758	7.62
404.541	7.62
405.324	8.62
406.107	9.62
406.89	8.62
407.673	11.62
408.456	10.62
409.238	7.62
410.021	10.62
410.803	8.62
411.586	9.62
412.368	8.62
413.151	9.62
413.933	8.62
414.715	9.62
415.497	9.62
416.279	8.62
417.061	12.62
417.843	10.62
418.624	11.62
419.406	9.62
420.188	10.62
420.969	11.62
421.751	10.62
422.532	13.62
423.313	11.62
424.095	12.62
424.876	12.62
425.657	12.62
426.438	13.62
427.219	13.62
428	13.62
428.78	14.62
429.561	14.62
430.342	13.62
431.122	16.62
431.903	16.62
432.683	14.62
433.464	16.62
434.244	14.62
435.024	16.62
435.804	15.62
436.584	18.62
437.364	21.62
438.144	18.62
438.924	21.62
439.704	19.62
440.483	23.62
441.263	24.62
442.042	23.62
442.822	30.62
443.601	29.62
444.38	29.62
445.16	30.62
445.939	31.62
446.718	38.62
447.497	37.62
448.276	40.62
449.054	46.62
449.833	48.62
450.612	54.62
451.391	57.62
452.169	66.62
452.948	74.62
453.726	79.62
454.504	86.62
455.282	91.62
456.061	104.62
456.839	115.62
457.617	129.62
458.395	135.62
459.172	152.62
459.95	171.62
460.728	188.62
461.506	215.62
462.283	233.62
463.061	270.62
463.838	298.62
464.615	323.62
465.393	369.62
466.17	413.62
466.947	462.62
467.724	515.62
468.501	573.62
469.278	624.62
470.055	712.62
470.831	781.62
471.608	869.62
472.385	962.62
473.161	1072.62
473.938	1190.62
474.714	1317.62
475.49	1442.62
476.266	1591.62
477.043	1753.62
477.819	1928.62
478.595	2122.62
479.371	2348.62
480.146	2597.62
480.922	2869.62
481.698	3144.62
482.473	3422.62
483.249	3777.62
484.024	4154.62
484.8	4595.62
485.575	5006.62
486.35	5481.62
487.126	5994.62
487.901	6595.62
488.676	7203.62
489.451	7888.62
490.225	8614.62
491	9356.62
491.775	10229.62
492.55	11169.62
493.324	12046.62
494.099	13015.62
494.873	13991.62
495.647	15083.62
496.422	16221.62
497.196	17340.62
497.97	18504.62
498.744	19639.62
499.518	20804.62
500.292	21930.62
501.066	22953.62
501.839	23965.62
502.613	24904.62
503.387	25672.62
504.16	26302.62
504.934	26722.62
505.707	26836.62
506.48	27027.62
507.253	27020.62
508.027	26792.62
508.8	26568.62
509.573	26141.62
510.346	25570.62
511.118	24890.62
511.891	24102.62
512.664	23374.62
513.437	22491.62
514.209	21621.62
514.982	20717.62
515.754	19830.62
516.526	18941.62
517.298	18182.62
518.071	17382.62
518.843	16709.62
519.615	16061.62
520.387	15436.62
521.159	14794.62
521.93	14197.62
522.702	13671.62
523.474	13119.62
524.245	12524.62
525.017	12007.62
525.788	11560.62
526.56	11064.62
527.331	10524.62
528.102	10049.62
528.873	9609.62
529.644	9123.62
530.415	8661.62
531.186	8239.62
531.957	7824.62
532.728	7441.62
533.498	7057.62
534.269	6652.62
535.039	6299.62
535.81	5946.62
536.58	5596.62
537.351	5281.62
538.121	5020.62
538.891	4744.62
539.661	4493.62
540.431	4248.62
541.201	4009.62
541.971	3808.62
542.741	3586.62
543.51	3429.62
544.28	3256.62
545.05	3083.62
545.819	2938.62
546.588	2805.62
547.358	2658.62
548.127	2519.62
548.896	2372.62
549.665	2279.62
550.434	2156.62
551.203	2031.62
551.972	1934.62
552.741	1811.62
553.51	1731.62
554.278	1629.62
555.047	1534.62
555.815	1458.62
556.584	1382.62
557.352	1290.62
558.121	1225.62
558.889	1170.62
559.657	1092.62
560.425	1030.62
561.193	971.62
561.961	927.62
562.729	874.62
563.496	813.62
564.264	769.62
565.032	734.62
565.799	699.62
566.567	656.62
567.334	620.62
568.101	590.62
568.869	554.62
569.636	517.62
570.403	489.62
571.17	461.62
571.937	426.62
572.704	409.62
573.471	393.62
574.237	367.62
575.004	350.62
575.771	318.62
576.537	311.62
577.303	290.62
578.07	278.62
578.836	255.62
579.602	242.62
580.368	227.62
581.134	221.62
581.9	206.62
582.666	198.62
583.432	189.62
584.198	173.62
584.964	165.62
585.729	159.62
586.495	149.62
587.26	139.62
588.025	130.62
588.791	128.62
589.556	123.62
590.321	114.62
591.086	112.62
591.851	102.62
592.616	99.62
593.381	94.62
594.146	91.62
594.911	82.62
595.675	78.62
596.44	74.62
597.204	72.62
597.969	68.62
598.733	66.62
599.497	65.62
600.261	58.62
601.025	56.62
601.79	57.62
602.553	54.62
603.317	50.62
604.081	50.62
604.845	48.62
605.609	42.62
606.372	47.62
607.136	41.62
607.899	39.62
608.662	38.62
609.426	35.62
610.189	35.62
610.952	34.62
611.715	34.62
612.478	29.62
613.241	26.62
614.004	27.62
614.767	24.62
615.529	27.62
616.292	27.62
617.055	25.62
617.817	26.62
618.579	25.62
619.342	23.62
620.104	23.62
620.866	21.62
621.628	21.62
622.39	20.62
623.152	19.62
623.914	20.62
624.676	20.62
625.438	17.62
626.199	17.62
626.961	14.62
627.722	14.62
628.484	15.62
629.245	15.62
630.006	16.62
630.768	14.62
631.529	14.62
632.29	14.62
633.051	12.62
633.812	17.62
634.573	10.62
635.333	12.62
636.094	12.62
636.855	12.62
637.615	11.62
638.376	10.62
639.136	10.62
639.896	10.62
640.657	11.62
641.417	10.62
642.177	11.62
642.937	6.62
643.697	11.62
644.457	9.62
645.216	8.62
645.976	8.62
646.736	8.62
647.495	8.62
648.255	8.62
649.014	8.62
649.774	9.62
650.533	8.62
651.292	6.62
652.051	10.62
652.81	6.62
653.569	7.62
654.328	6.62
655.087	8.62
655.846	6.62
656.604	6.62
657.363	6.62
658.121	9.62
658.88	4.62
659.638	7.62
660.397	5.62
661.155	4.62
661.913	3.62
662.671	5.62
663.429	6.62
664.187	2.62
664.945	4.62
665.703	6.62
666.46	4.62
667.218	6.62
667.976	5.62
668.733	6.62
669.49	5.62
670.248	4.62
671.005	5.62
671.762	3.62
672.519	2.62
673.276	5.62
674.033	4.62
674.79	5.62
675.547	4.62
676.304	2.62
677.06	5.62
677.817	5.62
678.574	4.62
679.33	5.62
680.086	6.62
680.843	6.62
681.599	5.62
682.355	5.62
683.111	3.62
683.867	5.62
684.623	7.62
685.379	7.62
686.135	3.62
686.89	4.62
687.646	4.62
688.402	4.62
689.157	6.62
689.912	4.62
690.668	1.62
691.423	2.62
692.178	3.62
692.933	4.62
693.688	7.62
694.443	2.62
695.198	6.62
695.953	6.62
696.708	4.62
697.462	3.62
698.217	4.62
698.972	3.62
699.726	4.62
700.48	4.62
701.235	2.62
701.989	4.62
702.743	2.62
703.497	4.62
704.251	5.62
705.005	4.62
705.759	4.62
706.513	5.62
707.266	5.62
708.02	4.62
708.774	3.62
709.527	3.62
710.28	4.62
711.034	6.62
711.787	3.62
712.54	3.62
713.293	2.62
714.046	5.62
714.799	6.62
715.552	4.62
716.305	3.62
717.058	3.62
717.81	3.62
718.563	5.62
719.315	3.62
720.068	5.62
720.82	3.62
721.573	2.62
722.325	5.62
723.077	2.62
723.829	3.62
724.581	2.62
725.333	5.62
726.085	4.62
726.836	6.62
727.588	2.62
728.34	6.62
729.091	5.62
729.843	7.62
730.594	2.62
731.346	2.62
732.097	5.62
732.848	3.62
733.599	1.62
734.35	2.62
735.101	3.62
735.852	5.62
736.603	2.62
737.354	4.62
738.104	7.62
738.855	4.62
739.605	4.62
740.356	3.62
741.106	6.62
741.856	3.62
742.607	4.62
743.357	5.62
744.107	3.62
744.857	6.62
745.607	0.62
746.357	4.62
747.106	6.62
747.856	4.62
748.606	6.62
749.355	6.62
750.105	5.62
750.854	6.62
751.603	4.62
752.353	6.62
753.102	3.62
753.851	6.62
754.6	7.62
755.349	5.62
756.098	6.62
756.847	6.62
757.595	6.62
758.344	5.62
759.093	7.62
759.841	7.62
760.589	5.62
761.338	8.62
762.086	5.62
762.834	5.62
763.582	5.62
764.331	6.62
765.079	6.62
765.826	7.62
766.574	6.62
767.322	5.62
768.07	7.62
768.817	4.62
769.565	7.62
770.312	8.62
771.06	6.62
771.807	7.62
772.554	8.62
773.302	7.62
774.049	6.62
774.796	7.62
775.543	8.62
776.29	7.62
777.036	9.62
777.783	10.62
778.53	9.62
779.276	10.62
780.023	9.62
780.769	7.62
781.516	10.62
782.262	9.62
783.008	8.62
783.754	10.62
784.5	8.62
785.246	6.62
785.992	6.62
786.738	9.62
787.484	9.62
788.23	10.62
788.975	10.62
789.721	8.62
790.466	9.62
791.212	10.62
791.957	6.62
792.702	9.62
793.447	10.62
794.193	6.62
794.938	8.62
795.683	7.62
796.427	8.62
797.172	9.62
797.917	10.62
798.662	10.62
799.406	9.62
800.151	7.62
800.895	8.62
801.64	7.62
802.384	6.62
803.128	10.62
803.872	7.62
804.616	6.62
805.36	8.62
806.104	9.62
806.848	9.62
807.592	4.62
808.336	5.62
809.079	7.62
809.823	4.62
810.566	6.62
811.31	4.62
812.053	5.62
812.796	7.62
813.539	2.62
814.283	7.62
815.026	5.62
815.769	6.62
816.511	5.62
817.254	5.62
817.997	5.62
818.74	5.62
819.482	8.62
820.225	3.62
820.967	4.62
821.71	4.62
822.452	5.62
823.194	4.62
823.936	5.62
824.678	5.62
825.42	3.62
826.162	3.62
826.904	4.62
827.646	2.62
828.388	2.62
829.129	4.62
829.871	5.62
830.612	4.62
831.354	5.62
832.095	4.62
832.836	5.62
833.577	3.62
834.319	2.62
835.06	6.62
835.801	5.62
836.542	4.62
837.282	3.62
838.023	1.62
838.764	5.62
839.504	2.62
840.245	4.62
840.985	4.62
841.726	4.62
842.466	4.62
843.206	3.62
843.946	3.62
844.687	2.62
845.427	3.62
846.166	5.62
846.906	1.62
847.646	5.62
848.386	3.62
849.125	4.62
849.865	5.62
850.605	4.62
851.344	6.62
852.083	3.62
852.823	4.62
853.562	4.62
854.301	5.62
855.04	2.62
855.779	1.62
856.518	3.62
857.257	2.62
857.995	2.62
858.734	3.62
859.473	3.62
860.211	4.62
860.95	3.62
861.688	3.62
862.426	1.62
863.165	2.62
863.903	3.62
864.641	3.62
865.379	1.62
866.117	0.62
866.855	2.62
867.593	1.62
868.33	2.62
869.068	4.62
869.806	1.62
870.543	3.62
871.28	1.62
872.018	1.62
872.755	0.62
873.492	1.62
874.229	2.62
874.967	1.62
875.703	1.62
876.44	1.62
877.177	1.62
877.914	4.62
878.651	2.62
879.387	-0.38
880.124	1.62
880.86	-0.38
881.597	2.62
882.333	3.62
883.069	1.62
883.806	3.62
884.542	1.62
885.278	0.62
886.014	-0.38
886.749	0.62
887.485	1.62
888.221	1.62
888.957	-0.38
889.692	3.62
890.428	-0.38
891.163	1.62
891.899	1.62
892.634	0.62
893.369	1.62
894.104	-0.38
894.839	2.62
895.574	2.62
896.309	2.62
897.044	3.62
897.779	2.62
898.514	2.62
899.248	2.62
899.983	1.62
900.717	4.62
901.452	1.62
902.186	2.62
902.92	0.62
903.654	-0.38
904.389	0.62
905.123	0.62
905.857	0.62
906.59	0.62
907.324	2.62
908.058	1.62
908.792	2.62
909.525	2.62
910.259	2.62
910.992	3.62
911.726	2.62
912.459	3.62
913.192	-0.38
913.925	1.62
914.658	0.62
915.391	1.62
916.124	2.62
916.857	-1.38
917.59	-0.38
918.323	1.62
919.055	2.62
919.788	1.62
920.521	0.62
921.253	-0.38
921.985	-0.38
922.718	0.62
923.45	0.62
924.182	-1.38
924.914	2.62
925.646	1.62
926.378	2.62
927.11	1.62
927.841	0.62
928.573	-1.38
929.305	-0.38
930.036	1.62
930.768	0.62
931.499	0.62
932.23	-0.38
932.962	0.62
933.693	0.62
934.424	0.62
935.155	0.62
935.886	-1.38
936.617	2.62
937.348	1.62
938.078	1.62
938.809	0.62
939.54	-0.38
940.27	0.62
941.001	0.62
941.731	1.62
942.461	2.62
943.191	-1.38
943.922	-1.38
944.652	0.62
945.382	2.62
946.112	0.62
946.841	1.62
947.571	-0.38
948.301	0.62
949.031	0.62
949.76	-2.38
950.49	0.62
951.219	1.62
951.948	2.62
952.678	1.62
953.407	0.62
954.136	1.62
954.865	-0.38
955.594	0.62
956.323	0.62
957.052	0.62
957.78	0.62
958.509	-0.38
959.238	1.62
959.966	-1.38
960.695	0.62
961.423	-0.38
962.151	0.62
962.88	2.62
963.608	-1.38
964.336	-0.38
965.064	0.62
965.792	-0.38
966.52	-0.38
967.247	0.62
967.975	1.62
968.703	0.62
969.43	2.62
970.158	-1.38
970.885	1.62
971.613	1.62
972.34	-1.38
973.067	1.62
973.794	0.62
974.521	-1.38
975.248	0.62
975.975	-0.38
976.702	1.62
977.429	-0.38
978.156	-0.38
978.882	0.62
979.609	0.62
980.335	2.62
981.062	-1.38
981.788	0.62
982.514	0.62
983.24	2.62
983.967	0.62
984.693	-0.38
985.419	2.62
986.144	0.62
986.87	0.62
987.596	0.62
988.322	1.62
989.047	0.62
989.773	-0.38
990.498	2.62
991.224	-1.38
991.949	1.62
992.674	0.62
993.399	0.62
994.124	-0.38
994.849	-1.38
995.574	-1.38
996.299	1.62
997.024	-0.38
997.749	2.62
998.473	0.62
999.198	0.62
999.922	0.62
1000.647	3.62
1001.371	3.62
1002.095	0.62
1002.82	-2.38
1003.544	1.62
1004.268	1.62
1004.992	1.62
1005.716	2.62
1006.439	1.62
1007.163	3.62
1007.887	2.62
1008.611	0.62
1009.334	-0.38
1010.058	2.62
1010.781	-0.38
1011.504	0.62
1012.228	0.62
1012.951	-0.38
1013.674	0.62
1014.397	-1.38
1015.12	-2.38
