节点500_285_QEPB04081__34__14-56-08-416.txt的数据

Date: Wed Nov 12 14:56:08 CST 2025
User: PC
Spectrometer: QEPB0408
触发模式: 0
积分时间 (秒): 1.000000E-2
Scans to average: 1
启用暗噪声校正: true
启用非线性校正: false
滑动平均宽度: 0
X轴模式: Wavelengths
Number of Pixels in Spectrum: 1044
>>>>>Begin Spectral Data<<<<<
220.843	-1.12
221.644	1.88
222.444	1.88
223.244	1.88
224.045	4.88
224.845	2.88
225.645	-0.12
226.445	2.88
227.245	2.88
228.045	0.88
228.845	1.88
229.645	0.88
230.444	1.88
231.244	2.88
232.043	1.88
232.843	2.88
233.642	2.88
234.442	2.88
235.241	2.88
236.04	4.88
236.839	3.88
237.638	4.88
238.437	1.88
239.236	2.88
240.035	2.88
240.833	5.88
241.632	5.88
242.43	4.88
243.229	5.88
244.027	3.88
244.826	3.88
245.624	3.88
246.422	4.88
247.22	3.88
248.018	7.88
248.816	6.88
249.614	4.88
250.412	6.88
251.21	5.88
252.007	7.88
252.805	5.88
253.602	7.88
254.4	8.88
255.197	7.88
255.994	7.88
256.791	6.88
257.589	8.88
258.386	8.88
259.183	7.88
259.979	10.88
260.776	12.88
261.573	9.88
262.37	9.88
263.166	10.88
263.963	10.88
264.759	11.88
265.556	14.88
266.352	11.88
267.148	12.88
267.944	12.88
268.74	12.88
269.536	14.88
270.332	13.88
271.128	14.88
271.924	15.88
272.719	17.88
273.515	14.88
274.311	14.88
275.106	16.88
275.901	14.88
276.697	18.88
277.492	16.88
278.287	17.88
279.082	20.88
279.877	17.88
280.672	16.88
281.467	15.88
282.262	15.88
283.056	17.88
283.851	15.88
284.646	17.88
285.44	16.88
286.234	18.88
287.029	15.88
287.823	18.88
288.617	16.88
289.411	17.88
290.205	17.88
290.999	16.88
291.793	14.88
292.587	16.88
293.381	16.88
294.174	18.88
294.968	16.88
295.761	15.88
296.555	14.88
297.348	14.88
298.141	15.88
298.935	15.88
299.728	10.88
300.521	15.88
301.314	11.88
302.107	13.88
302.899	13.88
303.692	12.88
304.485	10.88
305.277	12.88
306.07	10.88
306.862	11.88
307.655	9.88
308.447	8.88
309.239	10.88
310.031	10.88
310.823	9.88
311.615	9.88
312.407	8.88
313.199	10.88
313.991	9.88
314.783	7.88
315.574	9.88
316.366	6.88
317.157	7.88
317.949	5.88
318.74	7.88
319.531	5.88
320.322	6.88
321.113	6.88
321.904	7.88
322.695	8.88
323.486	7.88
324.277	5.88
325.068	6.88
325.858	7.88
326.649	6.88
327.439	5.88
328.23	7.88
329.02	6.88
329.81	4.88
330.6	6.88
331.391	5.88
332.181	2.88
332.971	7.88
333.76	6.88
334.55	4.88
335.34	3.88
336.13	5.88
336.919	4.88
337.709	3.88
338.498	6.88
339.287	5.88
340.077	2.88
340.866	3.88
341.655	6.88
342.444	5.88
343.233	4.88
344.022	2.88
344.811	3.88
345.6	9.88
346.388	5.88
347.177	6.88
347.965	6.88
348.754	6.88
349.542	5.88
350.33	6.88
351.119	6.88
351.907	8.88
352.695	4.88
353.483	5.88
354.271	4.88
355.059	5.88
355.846	4.88
356.634	5.88
357.422	5.88
358.209	3.88
358.997	5.88
359.784	4.88
360.571	3.88
361.359	5.88
362.146	3.88
362.933	5.88
363.72	4.88
364.507	5.88
365.294	3.88
366.081	3.88
366.867	5.88
367.654	1.88
368.44	3.88
369.227	4.88
370.013	5.88
370.8	3.88
371.586	3.88
372.372	5.88
373.158	5.88
373.944	6.88
374.73	5.88
375.516	2.88
376.302	4.88
377.088	3.88
377.873	5.88
378.659	6.88
379.445	4.88
380.23	5.88
381.015	5.88
381.801	6.88
382.586	5.88
383.371	8.88
384.156	3.88
384.941	3.88
385.726	6.88
386.511	2.88
387.296	5.88
388.08	5.88
388.865	3.88
389.649	4.88
390.434	4.88
391.218	5.88
392.003	5.88
392.787	5.88
393.571	3.88
394.355	5.88
395.139	5.88
395.923	5.88
396.707	6.88
397.491	8.88
398.274	5.88
399.058	6.88
399.842	7.88
400.625	7.88
401.408	5.88
402.192	9.88
402.975	6.88
403.758	5.88
404.541	8.88
405.324	4.88
406.107	5.88
406.89	7.88
407.673	5.88
408.456	5.88
409.238	4.88
410.021	8.88
410.803	7.88
411.586	9.88
412.368	9.88
413.151	6.88
413.933	7.88
414.715	8.88
415.497	10.88
416.279	8.88
417.061	11.88
417.843	7.88
418.624	8.88
419.406	8.88
420.188	8.88
420.969	6.88
421.751	10.88
422.532	10.88
423.313	8.88
424.095	12.88
424.876	11.88
425.657	12.88
426.438	10.88
427.219	12.88
428	12.88
428.78	13.88
429.561	12.88
430.342	12.88
431.122	15.88
431.903	11.88
432.683	14.88
433.464	10.88
434.244	13.88
435.024	14.88
435.804	16.88
436.584	19.88
437.364	16.88
438.144	17.88
438.924	16.88
439.704	20.88
440.483	19.88
441.263	19.88
442.042	24.88
442.822	22.88
443.601	26.88
444.38	25.88
445.16	28.88
445.939	32.88
446.718	30.88
447.497	31.88
448.276	34.88
449.054	38.88
449.833	40.88
450.612	44.88
451.391	50.88
452.169	51.88
452.948	56.88
453.726	64.88
454.504	65.88
455.282	73.88
456.061	81.88
456.839	90.88
457.617	102.88
458.395	107.88
459.172	125.88
459.95	138.88
460.728	151.88
461.506	164.88
462.283	191.88
463.061	211.88
463.838	242.88
464.615	260.88
465.393	297.88
466.17	334.88
466.947	378.88
467.724	414.88
468.501	464.88
469.278	512.88
470.055	570.88
470.831	645.88
471.608	730.88
472.385	811.88
473.161	898.88
473.938	1010.88
474.714	1113.88
475.49	1242.88
476.266	1400.88
477.043	1548.88
477.819	1714.88
478.595	1893.88
479.371	2121.88
480.146	2340.88
480.922	2614.88
481.698	2911.88
482.473	3243.88
483.249	3547.88
484.024	3940.88
484.8	4347.88
485.575	4812.88
486.35	5338.88
487.126	5911.88
487.901	6526.88
488.676	7198.88
489.451	7861.88
490.225	8695.88
491	9535.88
491.775	10483.88
492.55	11464.88
493.324	12440.88
494.099	13436.88
494.873	14539.88
495.647	15711.88
496.422	16922.88
497.196	18033.88
497.97	19232.88
498.744	20462.88
499.518	21644.88
500.292	22690.88
501.066	23685.88
501.839	24526.88
502.613	25263.88
503.387	25927.88
504.16	26331.88
504.934	26430.88
505.707	26531.88
506.48	26303.88
507.253	26103.88
508.027	25560.88
508.8	25072.88
509.573	24440.88
510.346	23688.88
511.118	22805.88
511.891	21914.88
512.664	21038.88
513.437	20162.88
514.209	19238.88
514.982	18391.88
515.754	17530.88
516.526	16691.88
517.298	15959.88
518.071	15317.88
518.843	14706.88
519.615	14132.88
520.387	13572.88
521.159	13032.88
521.93	12510.88
522.702	12016.88
523.474	11535.88
524.245	10999.88
525.017	10460.88
525.788	10055.88
526.56	9595.88
527.331	9171.88
528.102	8713.88
528.873	8258.88
529.644	7828.88
530.415	7451.88
531.186	7035.88
531.957	6642.88
532.728	6306.88
533.498	5948.88
534.269	5626.88
535.039	5312.88
535.81	5012.88
536.58	4728.88
537.351	4424.88
538.121	4217.88
538.891	3955.88
539.661	3760.88
540.431	3576.88
541.201	3345.88
541.971	3176.88
542.741	3031.88
543.51	2870.88
544.28	2735.88
545.05	2603.88
545.819	2489.88
546.588	2358.88
547.358	2228.88
548.127	2122.88
548.896	2013.88
549.665	1908.88
550.434	1806.88
551.203	1712.88
551.972	1590.88
552.741	1517.88
553.51	1422.88
554.278	1344.88
555.047	1271.88
555.815	1199.88
556.584	1126.88
557.352	1048.88
558.121	1009.88
558.889	943.88
559.657	908.88
560.425	840.88
561.193	788.88
561.961	761.88
562.729	716.88
563.496	681.88
564.264	634.88
565.032	606.88
565.799	571.88
566.567	541.88
567.334	507.88
568.101	480.88
568.869	455.88
569.636	418.88
570.403	394.88
571.17	374.88
571.937	353.88
572.704	336.88
573.471	317.88
574.237	305.88
575.004	288.88
575.771	266.88
576.537	248.88
577.303	227.88
578.07	224.88
578.836	206.88
579.602	202.88
580.368	188.88
581.134	178.88
581.9	165.88
582.666	159.88
583.432	147.88
584.198	137.88
584.964	131.88
585.729	131.88
586.495	121.88
587.26	117.88
588.025	110.88
588.791	100.88
589.556	97.88
590.321	91.88
591.086	87.88
591.851	82.88
592.616	80.88
593.381	74.88
594.146	70.88
594.911	68.88
595.675	63.88
596.44	64.88
597.204	60.88
597.969	56.88
598.733	54.88
599.497	51.88
600.261	49.88
601.025	46.88
601.79	44.88
602.553	44.88
603.317	45.88
604.081	40.88
604.845	37.88
605.609	37.88
606.372	35.88
607.136	33.88
607.899	36.88
608.662	33.88
609.426	31.88
610.189	31.88
610.952	27.88
611.715	25.88
612.478	25.88
613.241	27.88
614.004	22.88
614.767	23.88
615.529	18.88
616.292	20.88
617.055	19.88
617.817	19.88
618.579	20.88
619.342	19.88
620.104	16.88
620.866	19.88
621.628	16.88
622.39	18.88
623.152	14.88
623.914	16.88
624.676	14.88
625.438	12.88
626.199	15.88
626.961	12.88
627.722	12.88
628.484	12.88
629.245	15.88
630.006	12.88
630.768	13.88
631.529	11.88
632.29	9.88
633.051	12.88
633.812	8.88
634.573	9.88
635.333	11.88
636.094	8.88
636.855	10.88
637.615	7.88
638.376	12.88
639.136	11.88
639.896	8.88
640.657	8.88
641.417	6.88
642.177	8.88
642.937	6.88
643.697	8.88
644.457	7.88
645.216	6.88
645.976	7.88
646.736	7.88
647.495	5.88
648.255	6.88
649.014	5.88
649.774	8.88
650.533	4.88
651.292	6.88
652.051	7.88
652.81	7.88
653.569	7.88
654.328	3.88
655.087	5.88
655.846	7.88
656.604	3.88
657.363	6.88
658.121	5.88
658.88	5.88
659.638	2.88
660.397	6.88
661.155	5.88
661.913	5.88
662.671	3.88
663.429	5.88
664.187	4.88
664.945	2.88
665.703	5.88
666.46	4.88
667.218	4.88
667.976	6.88
668.733	2.88
669.49	4.88
670.248	5.88
671.005	3.88
671.762	3.88
672.519	3.88
673.276	2.88
674.033	6.88
674.79	4.88
675.547	2.88
676.304	0.88
677.06	5.88
677.817	4.88
678.574	2.88
679.33	2.88
680.086	1.88
680.843	3.88
681.599	3.88
682.355	4.88
683.111	6.88
683.867	2.88
684.623	0.88
685.379	1.88
686.135	5.88
686.89	3.88
687.646	3.88
688.402	3.88
689.157	2.88
689.912	4.88
690.668	2.88
691.423	4.88
692.178	2.88
692.933	2.88
693.688	3.88
694.443	4.88
695.198	5.88
695.953	2.88
696.708	5.88
697.462	3.88
698.217	3.88
698.972	3.88
699.726	3.88
700.48	4.88
701.235	3.88
701.989	3.88
702.743	5.88
703.497	2.88
704.251	1.88
705.005	2.88
705.759	4.88
706.513	4.88
707.266	3.88
708.02	2.88
708.774	0.88
709.527	3.88
710.28	0.88
711.034	2.88
711.787	5.88
712.54	5.88
713.293	3.88
714.046	0.88
714.799	3.88
715.552	2.88
716.305	3.88
717.058	2.88
717.81	3.88
718.563	1.88
719.315	6.88
720.068	2.88
720.82	3.88
721.573	3.88
722.325	3.88
723.077	0.88
723.829	3.88
724.581	3.88
725.333	4.88
726.085	3.88
726.836	3.88
727.588	2.88
728.34	7.88
729.091	5.88
729.843	3.88
730.594	2.88
731.346	4.88
732.097	1.88
732.848	3.88
733.599	3.88
734.35	5.88
735.101	4.88
735.852	6.88
736.603	1.88
737.354	3.88
738.104	5.88
738.855	3.88
739.605	4.88
740.356	4.88
741.106	4.88
741.856	3.88
742.607	5.88
743.357	3.88
744.107	2.88
744.857	5.88
745.607	5.88
746.357	3.88
747.106	3.88
747.856	4.88
748.606	4.88
749.355	4.88
750.105	6.88
750.854	5.88
751.603	8.88
752.353	4.88
753.102	7.88
753.851	6.88
754.6	4.88
755.349	6.88
756.098	5.88
756.847	3.88
757.595	4.88
758.344	6.88
759.093	2.88
759.841	4.88
760.589	5.88
761.338	4.88
762.086	6.88
762.834	8.88
763.582	5.88
764.331	6.88
765.079	5.88
765.826	7.88
766.574	4.88
767.322	7.88
768.07	8.88
768.817	5.88
769.565	7.88
770.312	7.88
771.06	7.88
771.807	6.88
772.554	7.88
773.302	7.88
774.049	4.88
774.796	8.88
775.543	6.88
776.29	9.88
777.036	8.88
777.783	6.88
778.53	9.88
779.276	8.88
780.023	9.88
780.769	7.88
781.516	11.88
782.262	8.88
783.008	7.88
783.754	7.88
784.5	6.88
785.246	8.88
785.992	9.88
786.738	9.88
787.484	9.88
788.23	6.88
788.975	8.88
789.721	5.88
790.466	8.88
791.212	6.88
791.957	7.88
792.702	8.88
793.447	8.88
794.193	7.88
794.938	5.88
795.683	7.88
796.427	8.88
797.172	7.88
797.917	8.88
798.662	6.88
799.406	4.88
800.151	7.88
800.895	4.88
801.64	6.88
802.384	3.88
803.128	8.88
803.872	5.88
804.616	6.88
805.36	5.88
806.104	4.88
806.848	5.88
807.592	5.88
808.336	3.88
809.079	3.88
809.823	4.88
810.566	2.88
811.31	3.88
812.053	6.88
812.796	4.88
813.539	4.88
814.283	2.88
815.026	5.88
815.769	5.88
816.511	5.88
817.254	3.88
817.997	5.88
818.74	5.88
819.482	5.88
820.225	2.88
820.967	3.88
821.71	1.88
822.452	4.88
823.194	3.88
823.936	2.88
824.678	2.88
825.42	1.88
826.162	3.88
826.904	3.88
827.646	1.88
828.388	3.88
829.129	3.88
829.871	5.88
830.612	3.88
831.354	2.88
832.095	3.88
832.836	2.88
833.577	2.88
834.319	4.88
835.06	1.88
835.801	1.88
836.542	1.88
837.282	3.88
838.023	2.88
838.764	1.88
839.504	2.88
840.245	5.88
840.985	5.88
841.726	2.88
842.466	2.88
843.206	3.88
843.946	2.88
844.687	1.88
845.427	0.88
846.166	2.88
846.906	4.88
847.646	4.88
848.386	1.88
849.125	3.88
849.865	2.88
850.605	3.88
851.344	4.88
852.083	2.88
852.823	1.88
853.562	1.88
854.301	1.88
855.04	0.88
855.779	-0.12
856.518	1.88
857.257	3.88
857.995	2.88
858.734	2.88
859.473	2.88
860.211	2.88
860.95	3.88
861.688	3.88
862.426	0.88
863.165	0.88
863.903	1.88
864.641	1.88
865.379	1.88
866.117	0.88
866.855	1.88
867.593	0.88
868.33	0.88
869.068	2.88
869.806	0.88
870.543	1.88
871.28	1.88
872.018	-1.12
872.755	1.88
873.492	0.88
874.229	3.88
874.967	1.88
875.703	-0.12
876.44	1.88
877.177	0.88
877.914	0.88
878.651	-0.12
879.387	0.88
880.124	1.88
880.86	0.88
881.597	1.88
882.333	-1.12
883.069	2.88
883.806	-1.12
884.542	0.88
885.278	1.88
886.014	1.88
886.749	0.88
887.485	0.88
888.221	1.88
888.957	1.88
889.692	-0.12
890.428	2.88
891.163	-0.12
891.899	1.88
892.634	-0.12
893.369	0.88
894.104	2.88
894.839	0.88
895.574	3.88
896.309	1.88
897.044	-0.12
897.779	1.88
898.514	0.88
899.248	1.88
899.983	-0.12
900.717	-0.12
901.452	0.88
902.186	0.88
902.92	1.88
903.654	-0.12
904.389	-0.12
905.123	3.88
905.857	-0.12
906.59	0.88
907.324	-1.12
908.058	-0.12
908.792	2.88
909.525	0.88
910.259	0.88
910.992	0.88
911.726	1.88
912.459	-0.12
913.192	-0.12
913.925	-0.12
914.658	-2.12
915.391	0.88
916.124	-0.12
916.857	-1.12
917.59	-0.12
918.323	1.88
919.055	0.88
919.788	0.88
920.521	-1.12
921.253	-0.12
921.985	-0.12
922.718	0.88
923.45	-0.12
924.182	-1.12
924.914	-1.12
925.646	-0.12
926.378	-1.12
927.11	-0.12
927.841	0.88
928.573	-0.12
929.305	-0.12
930.036	0.88
930.768	0.88
931.499	1.88
932.23	-1.12
932.962	0.88
933.693	-2.12
934.424	-1.12
935.155	0.88
935.886	0.88
936.617	2.88
937.348	-2.12
938.078	0.88
938.809	0.88
939.54	-1.12
940.27	-0.12
941.001	-2.12
941.731	0.88
942.461	-1.12
943.191	0.88
943.922	-0.12
944.652	0.88
945.382	-2.12
946.112	-1.12
946.841	-1.12
947.571	-0.12
948.301	-0.12
949.031	-1.12
949.76	-0.12
950.49	-1.12
951.219	-1.12
951.948	-0.12
952.678	-1.12
953.407	0.88
954.136	-1.12
954.865	-0.12
955.594	0.88
956.323	0.88
957.052	-0.12
957.78	-1.12
958.509	0.88
959.238	0.88
959.966	-0.12
960.695	-0.12
961.423	1.88
962.151	-1.12
962.88	-0.12
963.608	-0.12
964.336	0.88
965.064	-1.12
965.792	0.88
966.52	-1.12
967.247	-1.12
967.975	0.88
968.703	-0.12
969.43	0.88
970.158	0.88
970.885	-0.12
971.613	0.88
972.34	-1.12
973.067	0.88
973.794	-0.12
974.521	-1.12
975.248	0.88
975.975	-1.12
976.702	-1.12
977.429	0.88
978.156	1.88
978.882	0.88
979.609	-0.12
980.335	-1.12
981.062	0.88
981.788	0.88
982.514	-0.12
983.24	-1.12
983.967	0.88
984.693	-0.12
985.419	0.88
986.144	-1.12
986.87	-1.12
987.596	0.88
988.322	-0.12
989.047	0.88
989.773	-1.12
990.498	-0.12
991.224	0.88
991.949	0.88
992.674	-0.12
993.399	-1.12
994.124	1.88
994.849	1.88
995.574	-1.12
996.299	-0.12
997.024	0.88
997.749	0.88
998.473	-1.12
999.198	1.88
999.922	0.88
1000.647	-1.12
1001.371	4.88
1002.095	-2.12
1002.82	-0.12
1003.544	-1.12
1004.268	0.88
1004.992	0.88
1005.716	1.88
1006.439	1.88
1007.163	1.88
1007.887	1.88
1008.611	2.88
1009.334	-0.12
1010.058	-0.12
1010.781	-0.12
1011.504	-1.12
1012.228	-0.12
1012.951	-0.12
1013.674	-0.12
1014.397	-0.12
1015.12	-1.12
