节点500_285_QEPB04081__204__14-58-57-075.txt的数据

Date: Wed Nov 12 14:58:57 CST 2025
User: PC
Spectrometer: QEPB0408
触发模式: 0
积分时间 (秒): 1.000000E-2
Scans to average: 1
启用暗噪声校正: true
启用非线性校正: false
滑动平均宽度: 0
X轴模式: Wavelengths
Number of Pixels in Spectrum: 1044
>>>>>Begin Spectral Data<<<<<
220.843	-0.62
221.644	0.38
222.444	0.38
223.244	2.38
224.045	2.38
224.845	2.38
225.645	1.38
226.445	2.38
227.245	2.38
228.045	0.38
228.845	5.38
229.645	1.38
230.444	1.38
231.244	4.38
232.043	2.38
232.843	2.38
233.642	4.38
234.442	3.38
235.241	4.38
236.04	4.38
236.839	5.38
237.638	3.38
238.437	4.38
239.236	4.38
240.035	3.38
240.833	3.38
241.632	6.38
242.43	3.38
243.229	3.38
244.027	3.38
244.826	6.38
245.624	4.38
246.422	5.38
247.22	4.38
248.018	4.38
248.816	6.38
249.614	5.38
250.412	8.38
251.21	7.38
252.007	4.38
252.805	6.38
253.602	6.38
254.4	7.38
255.197	9.38
255.994	9.38
256.791	10.38
257.589	6.38
258.386	9.38
259.183	10.38
259.979	8.38
260.776	11.38
261.573	11.38
262.37	9.38
263.166	13.38
263.963	12.38
264.759	10.38
265.556	10.38
266.352	12.38
267.148	13.38
267.944	11.38
268.74	16.38
269.536	14.38
270.332	13.38
271.128	14.38
271.924	15.38
272.719	18.38
273.515	15.38
274.311	15.38
275.106	19.38
275.901	19.38
276.697	17.38
277.492	16.38
278.287	19.38
279.082	19.38
279.877	18.38
280.672	20.38
281.467	13.38
282.262	18.38
283.056	16.38
283.851	17.38
284.646	19.38
285.44	19.38
286.234	19.38
287.029	20.38
287.823	20.38
288.617	18.38
289.411	19.38
290.205	19.38
290.999	17.38
291.793	20.38
292.587	19.38
293.381	18.38
294.174	17.38
294.968	16.38
295.761	16.38
296.555	14.38
297.348	15.38
298.141	15.38
298.935	19.38
299.728	15.38
300.521	15.38
301.314	15.38
302.107	11.38
302.899	12.38
303.692	11.38
304.485	15.38
305.277	9.38
306.07	11.38
306.862	12.38
307.655	11.38
308.447	13.38
309.239	14.38
310.031	10.38
310.823	10.38
311.615	9.38
312.407	8.38
313.199	10.38
313.991	9.38
314.783	10.38
315.574	8.38
316.366	9.38
317.157	8.38
317.949	9.38
318.74	7.38
319.531	5.38
320.322	10.38
321.113	7.38
321.904	7.38
322.695	8.38
323.486	8.38
324.277	8.38
325.068	5.38
325.858	7.38
326.649	7.38
327.439	7.38
328.23	7.38
329.02	3.38
329.81	7.38
330.6	8.38
331.391	6.38
332.181	7.38
332.971	8.38
333.76	8.38
334.55	5.38
335.34	8.38
336.13	7.38
336.919	6.38
337.709	4.38
338.498	6.38
339.287	7.38
340.077	5.38
340.866	7.38
341.655	7.38
342.444	4.38
343.233	4.38
344.022	3.38
344.811	7.38
345.6	3.38
346.388	8.38
347.177	7.38
347.965	5.38
348.754	6.38
349.542	5.38
350.33	8.38
351.119	6.38
351.907	6.38
352.695	6.38
353.483	4.38
354.271	5.38
355.059	4.38
355.846	8.38
356.634	6.38
357.422	5.38
358.209	7.38
358.997	4.38
359.784	6.38
360.571	7.38
361.359	5.38
362.146	5.38
362.933	4.38
363.72	4.38
364.507	6.38
365.294	5.38
366.081	5.38
366.867	2.38
367.654	6.38
368.44	6.38
369.227	2.38
370.013	5.38
370.8	5.38
371.586	5.38
372.372	4.38
373.158	4.38
373.944	3.38
374.73	3.38
375.516	2.38
376.302	6.38
377.088	6.38
377.873	4.38
378.659	5.38
379.445	3.38
380.23	4.38
381.015	6.38
381.801	5.38
382.586	6.38
383.371	6.38
384.156	6.38
384.941	7.38
385.726	4.38
386.511	3.38
387.296	5.38
388.08	5.38
388.865	3.38
389.649	8.38
390.434	5.38
391.218	7.38
392.003	3.38
392.787	6.38
393.571	8.38
394.355	5.38
395.139	5.38
395.923	6.38
396.707	4.38
397.491	5.38
398.274	6.38
399.058	8.38
399.842	6.38
400.625	5.38
401.408	5.38
402.192	6.38
402.975	8.38
403.758	6.38
404.541	6.38
405.324	7.38
406.107	5.38
406.89	7.38
407.673	7.38
408.456	7.38
409.238	4.38
410.021	8.38
410.803	8.38
411.586	9.38
412.368	8.38
413.151	8.38
413.933	9.38
414.715	10.38
415.497	8.38
416.279	12.38
417.061	9.38
417.843	9.38
418.624	9.38
419.406	10.38
420.188	9.38
420.969	10.38
421.751	14.38
422.532	9.38
423.313	13.38
424.095	9.38
424.876	11.38
425.657	12.38
426.438	11.38
427.219	11.38
428	13.38
428.78	11.38
429.561	13.38
430.342	13.38
431.122	15.38
431.903	13.38
432.683	15.38
433.464	14.38
434.244	17.38
435.024	18.38
435.804	16.38
436.584	18.38
437.364	16.38
438.144	21.38
438.924	21.38
439.704	20.38
440.483	25.38
441.263	24.38
442.042	25.38
442.822	27.38
443.601	27.38
444.38	31.38
445.16	33.38
445.939	32.38
446.718	34.38
447.497	37.38
448.276	44.38
449.054	43.38
449.833	48.38
450.612	51.38
451.391	57.38
452.169	58.38
452.948	66.38
453.726	74.38
454.504	82.38
455.282	88.38
456.061	94.38
456.839	108.38
457.617	117.38
458.395	131.38
459.172	147.38
459.95	156.38
460.728	182.38
461.506	197.38
462.283	225.38
463.061	249.38
463.838	275.38
464.615	309.38
465.393	342.38
466.17	392.38
466.947	435.38
467.724	489.38
468.501	536.38
469.278	610.38
470.055	675.38
470.831	747.38
471.608	840.38
472.385	931.38
473.161	1035.38
473.938	1158.38
474.714	1257.38
475.49	1414.38
476.266	1556.38
477.043	1733.38
477.819	1917.38
478.595	2127.38
479.371	2363.38
480.146	2585.38
480.922	2865.38
481.698	3175.38
482.473	3509.38
483.249	3845.38
484.024	4248.38
484.8	4691.38
485.575	5150.38
486.35	5685.38
487.126	6262.38
487.901	6904.38
488.676	7549.38
489.451	8305.38
490.225	9064.38
491	9929.38
491.775	10910.38
492.55	11865.38
493.324	12832.38
494.099	13865.38
494.873	14955.38
495.647	16160.38
496.422	17380.38
497.196	18566.38
497.97	19867.38
498.744	21083.38
499.518	22297.38
500.292	23454.38
501.066	24484.38
501.839	25454.38
502.613	26341.38
503.387	27129.38
504.16	27725.38
504.934	28000.38
505.707	28082.38
506.48	28089.38
507.253	27921.38
508.027	27599.38
508.8	27144.38
509.573	26702.38
510.346	25948.38
511.118	25074.38
511.891	24238.38
512.664	23363.38
513.437	22427.38
514.209	21507.38
514.982	20556.38
515.754	19616.38
516.526	18703.38
517.298	17913.38
518.071	17167.38
518.843	16489.38
519.615	15886.38
520.387	15235.38
521.159	14612.38
521.93	14061.38
522.702	13489.38
523.474	12876.38
524.245	12366.38
525.017	11845.38
525.788	11338.38
526.56	10854.38
527.331	10295.38
528.102	9872.38
528.873	9384.38
529.644	8910.38
530.415	8455.38
531.186	8044.38
531.957	7606.38
532.728	7248.38
533.498	6828.38
534.269	6423.38
535.039	6085.38
535.81	5749.38
536.58	5435.38
537.351	5123.38
538.121	4829.38
538.891	4574.38
539.661	4322.38
540.431	4067.38
541.201	3850.38
541.971	3669.38
542.741	3468.38
543.51	3289.38
544.28	3130.38
545.05	2997.38
545.819	2824.38
546.588	2709.38
547.358	2550.38
548.127	2439.38
548.896	2305.38
549.665	2173.38
550.434	2070.38
551.203	1952.38
551.972	1857.38
552.741	1739.38
553.51	1658.38
554.278	1565.38
555.047	1474.38
555.815	1394.38
556.584	1308.38
557.352	1246.38
558.121	1177.38
558.889	1099.38
559.657	1048.38
560.425	985.38
561.193	919.38
561.961	879.38
562.729	843.38
563.496	787.38
564.264	724.38
565.032	697.38
565.799	665.38
566.567	634.38
567.334	592.38
568.101	563.38
568.869	535.38
569.636	491.38
570.403	469.38
571.17	439.38
571.937	416.38
572.704	390.38
573.471	373.38
574.237	358.38
575.004	328.38
575.771	313.38
576.537	289.38
577.303	273.38
578.07	263.38
578.836	245.38
579.602	233.38
580.368	219.38
581.134	214.38
581.9	192.38
582.666	182.38
583.432	175.38
584.198	165.38
584.964	160.38
585.729	146.38
586.495	145.38
587.26	134.38
588.025	129.38
588.791	123.38
589.556	110.38
590.321	108.38
591.086	102.38
591.851	96.38
592.616	95.38
593.381	91.38
594.146	86.38
594.911	80.38
595.675	73.38
596.44	75.38
597.204	67.38
597.969	68.38
598.733	60.38
599.497	62.38
600.261	57.38
601.025	53.38
601.79	55.38
602.553	48.38
603.317	47.38
604.081	45.38
604.845	44.38
605.609	39.38
606.372	39.38
607.136	38.38
607.899	38.38
608.662	39.38
609.426	36.38
610.189	34.38
610.952	29.38
611.715	30.38
612.478	29.38
613.241	28.38
614.004	30.38
614.767	26.38
615.529	29.38
616.292	27.38
617.055	22.38
617.817	25.38
618.579	20.38
619.342	22.38
620.104	23.38
620.866	19.38
621.628	20.38
622.39	18.38
623.152	19.38
623.914	16.38
624.676	17.38
625.438	17.38
626.199	14.38
626.961	13.38
627.722	13.38
628.484	14.38
629.245	16.38
630.006	17.38
630.768	13.38
631.529	13.38
632.29	11.38
633.051	11.38
633.812	13.38
634.573	9.38
635.333	11.38
636.094	12.38
636.855	10.38
637.615	9.38
638.376	12.38
639.136	12.38
639.896	8.38
640.657	8.38
641.417	10.38
642.177	6.38
642.937	8.38
643.697	7.38
644.457	9.38
645.216	9.38
645.976	7.38
646.736	9.38
647.495	7.38
648.255	9.38
649.014	6.38
649.774	6.38
650.533	9.38
651.292	7.38
652.051	9.38
652.81	6.38
653.569	5.38
654.328	7.38
655.087	5.38
655.846	7.38
656.604	7.38
657.363	6.38
658.121	6.38
658.88	7.38
659.638	7.38
660.397	6.38
661.155	6.38
661.913	4.38
662.671	6.38
663.429	3.38
664.187	5.38
664.945	3.38
665.703	4.38
666.46	5.38
667.218	5.38
667.976	6.38
668.733	5.38
669.49	5.38
670.248	7.38
671.005	2.38
671.762	5.38
672.519	3.38
673.276	4.38
674.033	4.38
674.79	4.38
675.547	7.38
676.304	3.38
677.06	2.38
677.817	5.38
678.574	3.38
679.33	3.38
680.086	6.38
680.843	5.38
681.599	4.38
682.355	5.38
683.111	3.38
683.867	2.38
684.623	5.38
685.379	2.38
686.135	4.38
686.89	3.38
687.646	4.38
688.402	5.38
689.157	2.38
689.912	2.38
690.668	2.38
691.423	1.38
692.178	3.38
692.933	3.38
693.688	3.38
694.443	4.38
695.198	1.38
695.953	3.38
696.708	2.38
697.462	3.38
698.217	1.38
698.972	2.38
699.726	1.38
700.48	4.38
701.235	1.38
701.989	4.38
702.743	3.38
703.497	4.38
704.251	2.38
705.005	4.38
705.759	3.38
706.513	3.38
707.266	3.38
708.02	4.38
708.774	2.38
709.527	2.38
710.28	2.38
711.034	1.38
711.787	4.38
712.54	1.38
713.293	3.38
714.046	4.38
714.799	4.38
715.552	2.38
716.305	4.38
717.058	5.38
717.81	1.38
718.563	2.38
719.315	3.38
720.068	2.38
720.82	4.38
721.573	3.38
722.325	5.38
723.077	5.38
723.829	4.38
724.581	3.38
725.333	4.38
726.085	2.38
726.836	3.38
727.588	4.38
728.34	3.38
729.091	2.38
729.843	4.38
730.594	4.38
731.346	5.38
732.097	2.38
732.848	3.38
733.599	2.38
734.35	1.38
735.101	6.38
735.852	4.38
736.603	4.38
737.354	5.38
738.104	2.38
738.855	6.38
739.605	4.38
740.356	8.38
741.106	2.38
741.856	5.38
742.607	3.38
743.357	7.38
744.107	7.38
744.857	3.38
745.607	4.38
746.357	6.38
747.106	5.38
747.856	4.38
748.606	4.38
749.355	4.38
750.105	5.38
750.854	4.38
751.603	4.38
752.353	5.38
753.102	7.38
753.851	5.38
754.6	6.38
755.349	4.38
756.098	5.38
756.847	7.38
757.595	4.38
758.344	6.38
759.093	7.38
759.841	5.38
760.589	6.38
761.338	5.38
762.086	6.38
762.834	5.38
763.582	8.38
764.331	8.38
765.079	5.38
765.826	6.38
766.574	5.38
767.322	8.38
768.07	6.38
768.817	10.38
769.565	7.38
770.312	7.38
771.06	7.38
771.807	7.38
772.554	11.38
773.302	8.38
774.049	6.38
774.796	7.38
775.543	7.38
776.29	10.38
777.036	9.38
777.783	8.38
778.53	9.38
779.276	10.38
780.023	9.38
780.769	7.38
781.516	9.38
782.262	8.38
783.008	10.38
783.754	10.38
784.5	10.38
785.246	8.38
785.992	8.38
786.738	11.38
787.484	8.38
788.23	10.38
788.975	7.38
789.721	9.38
790.466	8.38
791.212	7.38
791.957	10.38
792.702	9.38
793.447	7.38
794.193	8.38
794.938	9.38
795.683	9.38
796.427	6.38
797.172	9.38
797.917	9.38
798.662	10.38
799.406	7.38
800.151	7.38
800.895	6.38
801.64	7.38
802.384	9.38
803.128	8.38
803.872	6.38
804.616	7.38
805.36	7.38
806.104	6.38
806.848	6.38
807.592	7.38
808.336	6.38
809.079	5.38
809.823	3.38
810.566	5.38
811.31	7.38
812.053	4.38
812.796	7.38
813.539	5.38
814.283	5.38
815.026	5.38
815.769	4.38
816.511	4.38
817.254	4.38
817.997	2.38
818.74	4.38
819.482	3.38
820.225	4.38
820.967	5.38
821.71	4.38
822.452	4.38
823.194	3.38
823.936	5.38
824.678	2.38
825.42	2.38
826.162	5.38
826.904	1.38
827.646	5.38
828.388	4.38
829.129	2.38
829.871	2.38
830.612	4.38
831.354	3.38
832.095	2.38
832.836	1.38
833.577	1.38
834.319	3.38
835.06	2.38
835.801	3.38
836.542	3.38
837.282	5.38
838.023	4.38
838.764	4.38
839.504	2.38
840.245	2.38
840.985	1.38
841.726	3.38
842.466	1.38
843.206	5.38
843.946	3.38
844.687	3.38
845.427	0.38
846.166	0.38
846.906	0.38
847.646	0.38
848.386	2.38
849.125	3.38
849.865	0.38
850.605	2.38
851.344	3.38
852.083	4.38
852.823	4.38
853.562	2.38
854.301	2.38
855.04	0.38
855.779	3.38
856.518	3.38
857.257	2.38
857.995	4.38
858.734	0.38
859.473	2.38
860.211	3.38
860.95	3.38
861.688	1.38
862.426	1.38
863.165	3.38
863.903	2.38
864.641	1.38
865.379	3.38
866.117	1.38
866.855	1.38
867.593	0.38
868.33	1.38
869.068	0.38
869.806	3.38
870.543	2.38
871.28	2.38
872.018	1.38
872.755	-0.62
873.492	1.38
874.229	1.38
874.967	2.38
875.703	0.38
876.44	1.38
877.177	1.38
877.914	0.38
878.651	0.38
879.387	1.38
880.124	1.38
880.86	-0.62
881.597	0.38
882.333	1.38
883.069	0.38
883.806	0.38
884.542	-0.62
885.278	-0.62
886.014	0.38
886.749	0.38
887.485	0.38
888.221	-0.62
888.957	1.38
889.692	1.38
890.428	-1.62
891.163	0.38
891.899	-0.62
892.634	1.38
893.369	2.38
894.104	0.38
894.839	0.38
895.574	-0.62
896.309	3.38
897.044	1.38
897.779	2.38
898.514	0.38
899.248	-0.62
899.983	1.38
900.717	1.38
901.452	1.38
902.186	0.38
902.92	1.38
903.654	0.38
904.389	0.38
905.123	-0.62
905.857	1.38
906.59	2.38
907.324	1.38
908.058	-0.62
908.792	-0.62
909.525	0.38
910.259	1.38
910.992	-0.62
911.726	1.38
912.459	0.38
913.192	1.38
913.925	-0.62
914.658	-0.62
915.391	0.38
916.124	0.38
916.857	-0.62
917.59	-0.62
918.323	0.38
919.055	1.38
919.788	0.38
920.521	0.38
921.253	0.38
921.985	-0.62
922.718	0.38
923.45	-1.62
924.182	0.38
924.914	-2.62
925.646	0.38
926.378	0.38
927.11	-1.62
927.841	-0.62
928.573	-1.62
929.305	1.38
930.036	0.38
930.768	-0.62
931.499	0.38
932.23	2.38
932.962	-0.62
933.693	-0.62
934.424	0.38
935.155	0.38
935.886	-2.62
936.617	0.38
937.348	0.38
938.078	-1.62
938.809	0.38
939.54	-1.62
940.27	-0.62
941.001	-0.62
941.731	3.38
942.461	-0.62
943.191	-2.62
943.922	-0.62
944.652	-2.62
945.382	0.38
946.112	-0.62
946.841	0.38
947.571	1.38
948.301	-1.62
949.031	0.38
949.76	0.38
950.49	1.38
951.219	1.38
951.948	0.38
952.678	1.38
953.407	-0.62
954.136	1.38
954.865	2.38
955.594	-0.62
956.323	1.38
957.052	-0.62
957.78	1.38
958.509	-1.62
959.238	-0.62
959.966	-1.62
960.695	0.38
961.423	3.38
962.151	-0.62
962.88	1.38
963.608	2.38
964.336	0.38
965.064	0.38
965.792	-1.62
966.52	-2.62
967.247	0.38
967.975	1.38
968.703	0.38
969.43	-1.62
970.158	-0.62
970.885	-2.62
971.613	0.38
972.34	1.38
973.067	-0.62
973.794	1.38
974.521	-0.62
975.248	-0.62
975.975	-1.62
976.702	0.38
977.429	-2.62
978.156	2.38
978.882	0.38
979.609	-2.62
980.335	1.38
981.062	0.38
981.788	-0.62
982.514	1.38
983.24	0.38
983.967	-1.62
984.693	-0.62
985.419	1.38
986.144	-2.62
986.87	-1.62
987.596	-0.62
988.322	-1.62
989.047	2.38
989.773	-0.62
990.498	1.38
991.224	0.38
991.949	0.38
992.674	0.38
993.399	-0.62
994.124	-0.62
994.849	-1.62
995.574	0.38
996.299	-0.62
997.024	-0.62
997.749	0.38
998.473	-1.62
999.198	0.38
999.922	2.38
1000.647	-0.62
1001.371	4.38
1002.095	-0.62
1002.82	-2.62
1003.544	-3.62
1004.268	1.38
1004.992	3.38
1005.716	1.38
1006.439	0.38
1007.163	-0.62
1007.887	1.38
1008.611	1.38
1009.334	-1.62
1010.058	-0.62
1010.781	0.38
1011.504	1.38
1012.228	1.38
1012.951	1.38
1013.674	2.38
1014.397	-0.62
1015.12	-0.62
