节点500_285_QEPB04081__626__15-05-58-092.txt的数据

Date: Wed Nov 12 15:05:58 CST 2025
User: PC
Spectrometer: QEPB0408
触发模式: 0
积分时间 (秒): 1.000000E-2
Scans to average: 1
启用暗噪声校正: true
启用非线性校正: false
滑动平均宽度: 0
X轴模式: Wavelengths
Number of Pixels in Spectrum: 1044
>>>>>Begin Spectral Data<<<<<
220.843	-1.75
221.644	1.25
222.444	0.25
223.244	0.25
224.045	5.25
224.845	2.25
225.645	3.25
226.445	2.25
227.245	1.25
228.045	3.25
228.845	4.25
229.645	3.25
230.444	1.25
231.244	4.25
232.043	4.25
232.843	2.25
233.642	2.25
234.442	4.25
235.241	4.25
236.04	3.25
236.839	3.25
237.638	5.25
238.437	5.25
239.236	3.25
240.035	3.25
240.833	3.25
241.632	7.25
242.43	6.25
243.229	4.25
244.027	4.25
244.826	7.25
245.624	5.25
246.422	6.25
247.22	6.25
248.018	4.25
248.816	5.25
249.614	6.25
250.412	8.25
251.21	8.25
252.007	7.25
252.805	8.25
253.602	7.25
254.4	6.25
255.197	6.25
255.994	9.25
256.791	10.25
257.589	9.25
258.386	8.25
259.183	11.25
259.979	10.25
260.776	10.25
261.573	8.25
262.37	10.25
263.166	11.25
263.963	10.25
264.759	8.25
265.556	12.25
266.352	14.25
267.148	13.25
267.944	13.25
268.74	12.25
269.536	12.25
270.332	13.25
271.128	13.25
271.924	14.25
272.719	12.25
273.515	14.25
274.311	14.25
275.106	18.25
275.901	14.25
276.697	17.25
277.492	17.25
278.287	18.25
279.082	16.25
279.877	17.25
280.672	18.25
281.467	18.25
282.262	16.25
283.056	18.25
283.851	19.25
284.646	19.25
285.44	19.25
286.234	19.25
287.029	19.25
287.823	18.25
288.617	16.25
289.411	17.25
290.205	16.25
290.999	16.25
291.793	18.25
292.587	16.25
293.381	15.25
294.174	17.25
294.968	15.25
295.761	16.25
296.555	14.25
297.348	12.25
298.141	19.25
298.935	16.25
299.728	11.25
300.521	14.25
301.314	13.25
302.107	13.25
302.899	13.25
303.692	17.25
304.485	13.25
305.277	16.25
306.07	14.25
306.862	13.25
307.655	14.25
308.447	12.25
309.239	14.25
310.031	9.25
310.823	10.25
311.615	12.25
312.407	9.25
313.199	10.25
313.991	9.25
314.783	11.25
315.574	9.25
316.366	9.25
317.157	8.25
317.949	9.25
318.74	9.25
319.531	7.25
320.322	8.25
321.113	6.25
321.904	7.25
322.695	8.25
323.486	7.25
324.277	10.25
325.068	7.25
325.858	6.25
326.649	8.25
327.439	9.25
328.23	7.25
329.02	7.25
329.81	6.25
330.6	7.25
331.391	4.25
332.181	8.25
332.971	9.25
333.76	6.25
334.55	5.25
335.34	6.25
336.13	7.25
336.919	5.25
337.709	5.25
338.498	8.25
339.287	7.25
340.077	6.25
340.866	9.25
341.655	6.25
342.444	7.25
343.233	6.25
344.022	5.25
344.811	9.25
345.6	4.25
346.388	6.25
347.177	6.25
347.965	7.25
348.754	5.25
349.542	7.25
350.33	5.25
351.119	7.25
351.907	6.25
352.695	9.25
353.483	5.25
354.271	4.25
355.059	6.25
355.846	6.25
356.634	4.25
357.422	7.25
358.209	5.25
358.997	6.25
359.784	7.25
360.571	6.25
361.359	6.25
362.146	8.25
362.933	4.25
363.72	7.25
364.507	8.25
365.294	6.25
366.081	7.25
366.867	5.25
367.654	4.25
368.44	6.25
369.227	5.25
370.013	4.25
370.8	6.25
371.586	5.25
372.372	6.25
373.158	6.25
373.944	5.25
374.73	5.25
375.516	5.25
376.302	5.25
377.088	7.25
377.873	6.25
378.659	6.25
379.445	6.25
380.23	6.25
381.015	5.25
381.801	7.25
382.586	4.25
383.371	6.25
384.156	6.25
384.941	3.25
385.726	4.25
386.511	5.25
387.296	5.25
388.08	5.25
388.865	6.25
389.649	6.25
390.434	5.25
391.218	6.25
392.003	7.25
392.787	6.25
393.571	8.25
394.355	7.25
395.139	9.25
395.923	7.25
396.707	6.25
397.491	8.25
398.274	8.25
399.058	8.25
399.842	6.25
400.625	7.25
401.408	7.25
402.192	6.25
402.975	6.25
403.758	5.25
404.541	7.25
405.324	6.25
406.107	9.25
406.89	7.25
407.673	8.25
408.456	6.25
409.238	6.25
410.021	9.25
410.803	10.25
411.586	7.25
412.368	9.25
413.151	8.25
413.933	7.25
414.715	9.25
415.497	8.25
416.279	7.25
417.061	11.25
417.843	8.25
418.624	9.25
419.406	10.25
420.188	8.25
420.969	9.25
421.751	11.25
422.532	10.25
423.313	12.25
424.095	10.25
424.876	8.25
425.657	11.25
426.438	13.25
427.219	13.25
428	11.25
428.78	12.25
429.561	11.25
430.342	12.25
431.122	13.25
431.903	15.25
432.683	16.25
433.464	17.25
434.244	14.25
435.024	16.25
435.804	17.25
436.584	19.25
437.364	19.25
438.144	19.25
438.924	21.25
439.704	22.25
440.483	20.25
441.263	24.25
442.042	25.25
442.822	29.25
443.601	29.25
444.38	32.25
445.16	32.25
445.939	34.25
446.718	37.25
447.497	40.25
448.276	46.25
449.054	47.25
449.833	54.25
450.612	55.25
451.391	61.25
452.169	66.25
452.948	74.25
453.726	81.25
454.504	86.25
455.282	98.25
456.061	104.25
456.839	120.25
457.617	137.25
458.395	140.25
459.172	165.25
459.95	182.25
460.728	204.25
461.506	220.25
462.283	250.25
463.061	276.25
463.838	310.25
464.615	347.25
465.393	381.25
466.17	428.25
466.947	471.25
467.724	525.25
468.501	583.25
469.278	654.25
470.055	723.25
470.831	810.25
471.608	894.25
472.385	978.25
473.161	1086.25
473.938	1207.25
474.714	1320.25
475.49	1466.25
476.266	1619.25
477.043	1773.25
477.819	1957.25
478.595	2143.25
479.371	2347.25
480.146	2583.25
480.922	2841.25
481.698	3095.25
482.473	3406.25
483.249	3720.25
484.024	4097.25
484.8	4474.25
485.575	4878.25
486.35	5301.25
487.126	5777.25
487.901	6298.25
488.676	6918.25
489.451	7542.25
490.225	8226.25
491	8936.25
491.775	9738.25
492.55	10592.25
493.324	11392.25
494.099	12279.25
494.873	13201.25
495.647	14192.25
496.422	15225.25
497.196	16306.25
497.97	17419.25
498.744	18480.25
499.518	19593.25
500.292	20677.25
501.066	21611.25
501.839	22647.25
502.613	23532.25
503.387	24321.25
504.16	25042.25
504.934	25472.25
505.707	25774.25
506.48	25963.25
507.253	26019.25
508.027	25944.25
508.8	25848.25
509.573	25630.25
510.346	25197.25
511.118	24547.25
511.891	23894.25
512.664	23216.25
513.437	22385.25
514.209	21587.25
514.982	20759.25
515.754	19933.25
516.526	19102.25
517.298	18344.25
518.071	17575.25
518.843	16829.25
519.615	16272.25
520.387	15630.25
521.159	14970.25
521.93	14392.25
522.702	13795.25
523.474	13260.25
524.245	12710.25
525.017	12041.25
525.788	11665.25
526.56	11161.25
527.331	10623.25
528.102	10165.25
528.873	9742.25
529.644	9262.25
530.415	8914.25
531.186	8435.25
531.957	7995.25
532.728	7612.25
533.498	7231.25
534.269	6829.25
535.039	6466.25
535.81	6123.25
536.58	5804.25
537.351	5465.25
538.121	5122.25
538.891	4859.25
539.661	4618.25
540.431	4371.25
541.201	4118.25
541.971	3897.25
542.741	3701.25
543.51	3496.25
544.28	3349.25
545.05	3183.25
545.819	3033.25
546.588	2869.25
547.358	2759.25
548.127	2598.25
548.896	2455.25
549.665	2339.25
550.434	2227.25
551.203	2100.25
551.972	1999.25
552.741	1895.25
553.51	1782.25
554.278	1694.25
555.047	1581.25
555.815	1512.25
556.584	1440.25
557.352	1333.25
558.121	1262.25
558.889	1195.25
559.657	1133.25
560.425	1075.25
561.193	1002.25
561.961	956.25
562.729	898.25
563.496	853.25
564.264	800.25
565.032	770.25
565.799	721.25
566.567	675.25
567.334	642.25
568.101	610.25
568.869	569.25
569.636	539.25
570.403	508.25
571.17	485.25
571.937	459.25
572.704	417.25
573.471	408.25
574.237	378.25
575.004	352.25
575.771	341.25
576.537	308.25
577.303	300.25
578.07	283.25
578.836	263.25
579.602	256.25
580.368	232.25
581.134	227.25
581.9	212.25
582.666	201.25
583.432	193.25
584.198	179.25
584.964	177.25
585.729	162.25
586.495	156.25
587.26	147.25
588.025	140.25
588.791	131.25
589.556	122.25
590.321	118.25
591.086	114.25
591.851	107.25
592.616	97.25
593.381	93.25
594.146	98.25
594.911	91.25
595.675	84.25
596.44	81.25
597.204	76.25
597.969	72.25
598.733	66.25
599.497	62.25
600.261	64.25
601.025	60.25
601.79	60.25
602.553	56.25
603.317	53.25
604.081	49.25
604.845	46.25
605.609	46.25
606.372	47.25
607.136	42.25
607.899	43.25
608.662	39.25
609.426	38.25
610.189	37.25
610.952	36.25
611.715	30.25
612.478	32.25
613.241	30.25
614.004	29.25
614.767	27.25
615.529	30.25
616.292	24.25
617.055	25.25
617.817	26.25
618.579	23.25
619.342	25.25
620.104	21.25
620.866	22.25
621.628	20.25
622.39	20.25
623.152	22.25
623.914	19.25
624.676	19.25
625.438	17.25
626.199	16.25
626.961	15.25
627.722	16.25
628.484	16.25
629.245	15.25
630.006	13.25
630.768	14.25
631.529	12.25
632.29	10.25
633.051	9.25
633.812	10.25
634.573	15.25
635.333	12.25
636.094	11.25
636.855	12.25
637.615	8.25
638.376	10.25
639.136	9.25
639.896	7.25
640.657	9.25
641.417	12.25
642.177	10.25
642.937	9.25
643.697	10.25
644.457	8.25
645.216	9.25
645.976	9.25
646.736	9.25
647.495	10.25
648.255	9.25
649.014	9.25
649.774	7.25
650.533	7.25
651.292	8.25
652.051	5.25
652.81	7.25
653.569	10.25
654.328	6.25
655.087	6.25
655.846	5.25
656.604	5.25
657.363	7.25
658.121	5.25
658.88	7.25
659.638	5.25
660.397	6.25
661.155	4.25
661.913	6.25
662.671	5.25
663.429	4.25
664.187	6.25
664.945	2.25
665.703	4.25
666.46	5.25
667.218	4.25
667.976	5.25
668.733	4.25
669.49	7.25
670.248	3.25
671.005	8.25
671.762	4.25
672.519	4.25
673.276	7.25
674.033	3.25
674.79	2.25
675.547	3.25
676.304	5.25
677.06	4.25
677.817	3.25
678.574	5.25
679.33	3.25
680.086	3.25
680.843	6.25
681.599	4.25
682.355	2.25
683.111	4.25
683.867	3.25
684.623	4.25
685.379	3.25
686.135	3.25
686.89	5.25
687.646	3.25
688.402	4.25
689.157	6.25
689.912	2.25
690.668	5.25
691.423	4.25
692.178	3.25
692.933	6.25
693.688	2.25
694.443	4.25
695.198	2.25
695.953	3.25
696.708	4.25
697.462	6.25
698.217	4.25
698.972	4.25
699.726	4.25
700.48	4.25
701.235	6.25
701.989	2.25
702.743	4.25
703.497	5.25
704.251	3.25
705.005	3.25
705.759	5.25
706.513	4.25
707.266	3.25
708.02	3.25
708.774	4.25
709.527	5.25
710.28	4.25
711.034	3.25
711.787	5.25
712.54	2.25
713.293	4.25
714.046	4.25
714.799	2.25
715.552	3.25
716.305	4.25
717.058	2.25
717.81	5.25
718.563	5.25
719.315	6.25
720.068	6.25
720.82	4.25
721.573	2.25
722.325	5.25
723.077	4.25
723.829	3.25
724.581	3.25
725.333	3.25
726.085	5.25
726.836	4.25
727.588	1.25
728.34	3.25
729.091	4.25
729.843	5.25
730.594	2.25
731.346	3.25
732.097	3.25
732.848	5.25
733.599	5.25
734.35	5.25
735.101	5.25
735.852	5.25
736.603	4.25
737.354	6.25
738.104	5.25
738.855	5.25
739.605	4.25
740.356	8.25
741.106	5.25
741.856	4.25
742.607	4.25
743.357	3.25
744.107	5.25
744.857	4.25
745.607	7.25
746.357	6.25
747.106	4.25
747.856	5.25
748.606	5.25
749.355	2.25
750.105	5.25
750.854	5.25
751.603	6.25
752.353	5.25
753.102	6.25
753.851	5.25
754.6	6.25
755.349	7.25
756.098	4.25
756.847	7.25
757.595	6.25
758.344	7.25
759.093	4.25
759.841	4.25
760.589	5.25
761.338	5.25
762.086	6.25
762.834	4.25
763.582	7.25
764.331	8.25
765.079	7.25
765.826	6.25
766.574	8.25
767.322	5.25
768.07	6.25
768.817	8.25
769.565	6.25
770.312	8.25
771.06	7.25
771.807	8.25
772.554	8.25
773.302	9.25
774.049	9.25
774.796	6.25
775.543	8.25
776.29	7.25
777.036	6.25
777.783	8.25
778.53	9.25
779.276	10.25
780.023	7.25
780.769	6.25
781.516	8.25
782.262	10.25
783.008	10.25
783.754	10.25
784.5	9.25
785.246	8.25
785.992	6.25
786.738	9.25
787.484	6.25
788.23	10.25
788.975	8.25
789.721	9.25
790.466	4.25
791.212	9.25
791.957	8.25
792.702	8.25
793.447	10.25
794.193	10.25
794.938	10.25
795.683	6.25
796.427	6.25
797.172	6.25
797.917	10.25
798.662	8.25
799.406	8.25
800.151	6.25
800.895	6.25
801.64	6.25
802.384	9.25
803.128	9.25
803.872	9.25
804.616	7.25
805.36	8.25
806.104	8.25
806.848	4.25
807.592	7.25
808.336	6.25
809.079	5.25
809.823	6.25
810.566	5.25
811.31	5.25
812.053	4.25
812.796	5.25
813.539	4.25
814.283	5.25
815.026	7.25
815.769	4.25
816.511	5.25
817.254	4.25
817.997	4.25
818.74	5.25
819.482	5.25
820.225	4.25
820.967	4.25
821.71	7.25
822.452	1.25
823.194	5.25
823.936	6.25
824.678	5.25
825.42	3.25
826.162	6.25
826.904	4.25
827.646	5.25
828.388	1.25
829.129	2.25
829.871	4.25
830.612	4.25
831.354	5.25
832.095	2.25
832.836	5.25
833.577	4.25
834.319	5.25
835.06	4.25
835.801	4.25
836.542	4.25
837.282	4.25
838.023	3.25
838.764	5.25
839.504	3.25
840.245	4.25
840.985	2.25
841.726	4.25
842.466	2.25
843.206	3.25
843.946	1.25
844.687	4.25
845.427	2.25
846.166	4.25
846.906	3.25
847.646	2.25
848.386	4.25
849.125	2.25
849.865	1.25
850.605	4.25
851.344	3.25
852.083	3.25
852.823	2.25
853.562	3.25
854.301	2.25
855.04	3.25
855.779	4.25
856.518	1.25
857.257	2.25
857.995	2.25
858.734	2.25
859.473	1.25
860.211	2.25
860.95	4.25
861.688	4.25
862.426	3.25
863.165	1.25
863.903	2.25
864.641	0.25
865.379	3.25
866.117	3.25
866.855	1.25
867.593	1.25
868.33	4.25
869.068	2.25
869.806	2.25
870.543	2.25
871.28	1.25
872.018	1.25
872.755	3.25
873.492	2.25
874.229	0.25
874.967	2.25
875.703	1.25
876.44	1.25
877.177	1.25
877.914	3.25
878.651	3.25
879.387	1.25
880.124	1.25
880.86	2.25
881.597	3.25
882.333	-0.75
883.069	2.25
883.806	2.25
884.542	-0.75
885.278	2.25
886.014	1.25
886.749	2.25
887.485	2.25
888.221	0.25
888.957	-1.75
889.692	0.25
890.428	0.25
891.163	0.25
891.899	1.25
892.634	2.25
893.369	2.25
894.104	0.25
894.839	1.25
895.574	0.25
896.309	0.25
897.044	0.25
897.779	2.25
898.514	-1.75
899.248	2.25
899.983	0.25
900.717	0.25
901.452	0.25
902.186	0.25
902.92	2.25
903.654	0.25
904.389	0.25
905.123	2.25
905.857	-0.75
906.59	3.25
907.324	4.25
908.058	1.25
908.792	1.25
909.525	3.25
910.259	-0.75
910.992	1.25
911.726	2.25
912.459	-0.75
913.192	1.25
913.925	0.25
914.658	3.25
915.391	1.25
916.124	0.25
916.857	0.25
917.59	1.25
918.323	1.25
919.055	1.25
919.788	0.25
920.521	0.25
921.253	2.25
921.985	0.25
922.718	-0.75
923.45	-1.75
924.182	1.25
924.914	1.25
925.646	0.25
926.378	0.25
927.11	0.25
927.841	1.25
928.573	1.25
929.305	1.25
930.036	2.25
930.768	0.25
931.499	-0.75
932.23	0.25
932.962	0.25
933.693	2.25
934.424	-1.75
935.155	2.25
935.886	0.25
936.617	-0.75
937.348	0.25
938.078	-1.75
938.809	1.25
939.54	1.25
940.27	1.25
941.001	3.25
941.731	-1.75
942.461	2.25
943.191	0.25
943.922	-0.75
944.652	0.25
945.382	1.25
946.112	1.25
946.841	1.25
947.571	2.25
948.301	0.25
949.031	0.25
949.76	1.25
950.49	2.25
951.219	-0.75
951.948	-0.75
952.678	1.25
953.407	1.25
954.136	0.25
954.865	0.25
955.594	-0.75
956.323	0.25
957.052	3.25
957.78	2.25
958.509	1.25
959.238	0.25
959.966	-1.75
960.695	-0.75
961.423	0.25
962.151	-1.75
962.88	1.25
963.608	0.25
964.336	-0.75
965.064	1.25
965.792	-0.75
966.52	1.25
967.247	1.25
967.975	1.25
968.703	2.25
969.43	0.25
970.158	0.25
970.885	-1.75
971.613	1.25
972.34	2.25
973.067	1.25
973.794	1.25
974.521	2.25
975.248	-0.75
975.975	-2.75
976.702	1.25
977.429	1.25
978.156	-1.75
978.882	1.25
979.609	1.25
980.335	2.25
981.062	0.25
981.788	1.25
982.514	2.25
983.24	2.25
983.967	0.25
984.693	-1.75
985.419	0.25
986.144	0.25
986.87	2.25
987.596	-1.75
988.322	0.25
989.047	-1.75
989.773	-0.75
990.498	-2.75
991.224	0.25
991.949	0.25
992.674	1.25
993.399	0.25
994.124	4.25
994.849	-1.75
995.574	0.25
996.299	-1.75
997.024	-1.75
997.749	0.25
998.473	2.25
999.198	2.25
999.922	1.25
1000.647	2.25
1001.371	3.25
1002.095	-0.75
1002.82	-1.75
1003.544	-0.75
1004.268	3.25
1004.992	2.25
1005.716	0.25
1006.439	3.25
1007.163	0.25
1007.887	1.25
1008.611	0.25
1009.334	-1.75
1010.058	0.25
1010.781	-0.75
1011.504	1.25
1012.228	-0.75
1012.951	-0.75
1013.674	1.25
1014.397	0.25
1015.12	-0.75
