节点500_285_QEPB04081__475__15-03-27-482.txt的数据

Date: Wed Nov 12 15:03:27 CST 2025
User: PC
Spectrometer: QEPB0408
触发模式: 0
积分时间 (秒): 1.000000E-2
Scans to average: 1
启用暗噪声校正: true
启用非线性校正: false
滑动平均宽度: 0
X轴模式: Wavelengths
Number of Pixels in Spectrum: 1044
>>>>>Begin Spectral Data<<<<<
220.843	4.38
221.644	0.38
222.444	2.38
223.244	3.38
224.045	-0.62
224.845	3.38
225.645	3.38
226.445	3.38
227.245	4.38
228.045	3.38
228.845	6.38
229.645	3.38
230.444	3.38
231.244	3.38
232.043	4.38
232.843	4.38
233.642	4.38
234.442	5.38
235.241	4.38
236.04	4.38
236.839	5.38
237.638	3.38
238.437	3.38
239.236	4.38
240.035	5.38
240.833	4.38
241.632	5.38
242.43	5.38
243.229	5.38
244.027	3.38
244.826	8.38
245.624	5.38
246.422	5.38
247.22	6.38
248.018	5.38
248.816	6.38
249.614	5.38
250.412	6.38
251.21	9.38
252.007	7.38
252.805	6.38
253.602	8.38
254.4	6.38
255.197	6.38
255.994	8.38
256.791	7.38
257.589	9.38
258.386	8.38
259.183	10.38
259.979	8.38
260.776	12.38
261.573	13.38
262.37	13.38
263.166	11.38
263.963	13.38
264.759	13.38
265.556	10.38
266.352	14.38
267.148	15.38
267.944	15.38
268.74	15.38
269.536	15.38
270.332	15.38
271.128	12.38
271.924	17.38
272.719	15.38
273.515	16.38
274.311	15.38
275.106	17.38
275.901	18.38
276.697	16.38
277.492	18.38
278.287	19.38
279.082	21.38
279.877	19.38
280.672	18.38
281.467	17.38
282.262	18.38
283.056	17.38
283.851	18.38
284.646	16.38
285.44	18.38
286.234	17.38
287.029	18.38
287.823	18.38
288.617	21.38
289.411	18.38
290.205	18.38
290.999	21.38
291.793	17.38
292.587	19.38
293.381	19.38
294.174	14.38
294.968	21.38
295.761	16.38
296.555	15.38
297.348	17.38
298.141	13.38
298.935	19.38
299.728	16.38
300.521	15.38
301.314	13.38
302.107	14.38
302.899	12.38
303.692	12.38
304.485	14.38
305.277	12.38
306.07	13.38
306.862	12.38
307.655	15.38
308.447	11.38
309.239	14.38
310.031	10.38
310.823	9.38
311.615	10.38
312.407	9.38
313.199	9.38
313.991	11.38
314.783	9.38
315.574	10.38
316.366	9.38
317.157	8.38
317.949	7.38
318.74	9.38
319.531	6.38
320.322	12.38
321.113	6.38
321.904	6.38
322.695	10.38
323.486	7.38
324.277	7.38
325.068	9.38
325.858	6.38
326.649	9.38
327.439	7.38
328.23	9.38
329.02	9.38
329.81	6.38
330.6	6.38
331.391	8.38
332.181	7.38
332.971	7.38
333.76	7.38
334.55	6.38
335.34	7.38
336.13	8.38
336.919	6.38
337.709	8.38
338.498	8.38
339.287	7.38
340.077	7.38
340.866	4.38
341.655	10.38
342.444	5.38
343.233	4.38
344.022	6.38
344.811	9.38
345.6	8.38
346.388	7.38
347.177	8.38
347.965	6.38
348.754	8.38
349.542	7.38
350.33	6.38
351.119	7.38
351.907	7.38
352.695	5.38
353.483	5.38
354.271	5.38
355.059	4.38
355.846	7.38
356.634	6.38
357.422	4.38
358.209	5.38
358.997	8.38
359.784	6.38
360.571	5.38
361.359	3.38
362.146	7.38
362.933	6.38
363.72	6.38
364.507	5.38
365.294	5.38
366.081	6.38
366.867	3.38
367.654	7.38
368.44	5.38
369.227	6.38
370.013	6.38
370.8	4.38
371.586	6.38
372.372	6.38
373.158	5.38
373.944	7.38
374.73	4.38
375.516	6.38
376.302	4.38
377.088	5.38
377.873	5.38
378.659	7.38
379.445	6.38
380.23	3.38
381.015	4.38
381.801	4.38
382.586	5.38
383.371	6.38
384.156	4.38
384.941	8.38
385.726	8.38
386.511	6.38
387.296	4.38
388.08	8.38
388.865	8.38
389.649	4.38
390.434	6.38
391.218	8.38
392.003	6.38
392.787	6.38
393.571	6.38
394.355	6.38
395.139	4.38
395.923	3.38
396.707	7.38
397.491	7.38
398.274	7.38
399.058	8.38
399.842	9.38
400.625	6.38
401.408	9.38
402.192	6.38
402.975	7.38
403.758	8.38
404.541	10.38
405.324	8.38
406.107	7.38
406.89	8.38
407.673	10.38
408.456	8.38
409.238	9.38
410.021	10.38
410.803	9.38
411.586	7.38
412.368	9.38
413.151	5.38
413.933	10.38
414.715	8.38
415.497	7.38
416.279	13.38
417.061	9.38
417.843	11.38
418.624	9.38
419.406	11.38
420.188	9.38
420.969	10.38
421.751	14.38
422.532	10.38
423.313	11.38
424.095	10.38
424.876	12.38
425.657	13.38
426.438	10.38
427.219	15.38
428	12.38
428.78	12.38
429.561	15.38
430.342	15.38
431.122	15.38
431.903	14.38
432.683	15.38
433.464	16.38
434.244	16.38
435.024	17.38
435.804	18.38
436.584	18.38
437.364	18.38
438.144	19.38
438.924	20.38
439.704	20.38
440.483	25.38
441.263	23.38
442.042	24.38
442.822	27.38
443.601	26.38
444.38	27.38
445.16	32.38
445.939	33.38
446.718	38.38
447.497	38.38
448.276	45.38
449.054	44.38
449.833	49.38
450.612	50.38
451.391	59.38
452.169	66.38
452.948	72.38
453.726	75.38
454.504	84.38
455.282	93.38
456.061	103.38
456.839	112.38
457.617	127.38
458.395	138.38
459.172	153.38
459.95	173.38
460.728	194.38
461.506	213.38
462.283	240.38
463.061	268.38
463.838	301.38
464.615	335.38
465.393	362.38
466.17	411.38
466.947	461.38
467.724	510.38
468.501	571.38
469.278	632.38
470.055	711.38
470.831	770.38
471.608	866.38
472.385	968.38
473.161	1067.38
473.938	1180.38
474.714	1313.38
475.49	1435.38
476.266	1584.38
477.043	1759.38
477.819	1936.38
478.595	2137.38
479.371	2337.38
480.146	2588.38
480.922	2845.38
481.698	3130.38
482.473	3457.38
483.249	3785.38
484.024	4128.38
484.8	4558.38
485.575	4981.38
486.35	5462.38
487.126	5994.38
487.901	6564.38
488.676	7154.38
489.451	7805.38
490.225	8597.38
491	9328.38
491.775	10212.38
492.55	11084.38
493.324	12014.38
494.099	12958.38
494.873	13946.38
495.647	15026.38
496.422	16143.38
497.196	17235.38
497.97	18422.38
498.744	19641.38
499.518	20659.38
500.292	21828.38
501.066	22925.38
501.839	23796.38
502.613	24771.38
503.387	25520.38
504.16	26172.38
504.934	26600.38
505.707	26765.38
506.48	26848.38
507.253	26886.38
508.027	26750.38
508.8	26502.38
509.573	26106.38
510.346	25483.38
511.118	24837.38
511.891	24107.38
512.664	23262.38
513.437	22543.38
514.209	21601.38
514.982	20759.38
515.754	19797.38
516.526	18951.38
517.298	18164.38
518.071	17337.38
518.843	16744.38
519.615	16070.38
520.387	15408.38
521.159	14775.38
521.93	14230.38
522.702	13689.38
523.474	13090.38
524.245	12547.38
525.017	11982.38
525.788	11583.38
526.56	11047.38
527.331	10521.38
528.102	10048.38
528.873	9597.38
529.644	9073.38
530.415	8722.38
531.186	8241.38
531.957	7879.38
532.728	7473.38
533.498	7071.38
534.269	6677.38
535.039	6279.38
535.81	5955.38
536.58	5640.38
537.351	5270.38
538.121	5017.38
538.891	4739.38
539.661	4481.38
540.431	4236.38
541.201	4008.38
541.971	3796.38
542.741	3597.38
543.51	3428.38
544.28	3255.38
545.05	3114.38
545.819	2942.38
546.588	2777.38
547.358	2658.38
548.127	2526.38
548.896	2400.38
549.665	2278.38
550.434	2150.38
551.203	2062.38
551.972	1937.38
552.741	1809.38
553.51	1730.38
554.278	1636.38
555.047	1530.38
555.815	1445.38
556.584	1363.38
557.352	1298.38
558.121	1233.38
558.889	1153.38
559.657	1108.38
560.425	1028.38
561.193	967.38
561.961	914.38
562.729	866.38
563.496	820.38
564.264	761.38
565.032	726.38
565.799	700.38
566.567	662.38
567.334	627.38
568.101	582.38
568.869	551.38
569.636	526.38
570.403	479.38
571.17	457.38
571.937	439.38
572.704	404.38
573.471	387.38
574.237	370.38
575.004	349.38
575.771	322.38
576.537	305.38
577.303	282.38
578.07	276.38
578.836	254.38
579.602	243.38
580.368	229.38
581.134	218.38
581.9	210.38
582.666	191.38
583.432	179.38
584.198	177.38
584.964	168.38
585.729	158.38
586.495	145.38
587.26	141.38
588.025	139.38
588.791	129.38
589.556	123.38
590.321	116.38
591.086	106.38
591.851	104.38
592.616	98.38
593.381	91.38
594.146	91.38
594.911	85.38
595.675	79.38
596.44	79.38
597.204	72.38
597.969	72.38
598.733	71.38
599.497	66.38
600.261	63.38
601.025	57.38
601.79	53.38
602.553	52.38
603.317	51.38
604.081	46.38
604.845	47.38
605.609	46.38
606.372	42.38
607.136	40.38
607.899	43.38
608.662	36.38
609.426	36.38
610.189	30.38
610.952	33.38
611.715	32.38
612.478	33.38
613.241	32.38
614.004	27.38
614.767	28.38
615.529	27.38
616.292	26.38
617.055	24.38
617.817	26.38
618.579	24.38
619.342	20.38
620.104	23.38
620.866	20.38
621.628	20.38
622.39	19.38
623.152	20.38
623.914	17.38
624.676	18.38
625.438	17.38
626.199	18.38
626.961	15.38
627.722	18.38
628.484	14.38
629.245	15.38
630.006	13.38
630.768	16.38
631.529	15.38
632.29	11.38
633.051	13.38
633.812	13.38
634.573	13.38
635.333	12.38
636.094	10.38
636.855	10.38
637.615	11.38
638.376	10.38
639.136	9.38
639.896	11.38
640.657	9.38
641.417	10.38
642.177	8.38
642.937	10.38
643.697	10.38
644.457	11.38
645.216	11.38
645.976	8.38
646.736	8.38
647.495	8.38
648.255	8.38
649.014	10.38
649.774	10.38
650.533	7.38
651.292	7.38
652.051	4.38
652.81	7.38
653.569	5.38
654.328	10.38
655.087	8.38
655.846	5.38
656.604	9.38
657.363	5.38
658.121	6.38
658.88	7.38
659.638	4.38
660.397	8.38
661.155	6.38
661.913	6.38
662.671	4.38
663.429	8.38
664.187	6.38
664.945	9.38
665.703	6.38
666.46	5.38
667.218	4.38
667.976	5.38
668.733	4.38
669.49	5.38
670.248	4.38
671.005	6.38
671.762	6.38
672.519	4.38
673.276	3.38
674.033	8.38
674.79	3.38
675.547	4.38
676.304	5.38
677.06	5.38
677.817	6.38
678.574	5.38
679.33	4.38
680.086	5.38
680.843	4.38
681.599	5.38
682.355	5.38
683.111	5.38
683.867	4.38
684.623	5.38
685.379	5.38
686.135	6.38
686.89	4.38
687.646	6.38
688.402	2.38
689.157	3.38
689.912	5.38
690.668	4.38
691.423	3.38
692.178	2.38
692.933	4.38
693.688	5.38
694.443	4.38
695.198	5.38
695.953	7.38
696.708	5.38
697.462	6.38
698.217	5.38
698.972	4.38
699.726	3.38
700.48	4.38
701.235	4.38
701.989	5.38
702.743	2.38
703.497	4.38
704.251	4.38
705.005	6.38
705.759	3.38
706.513	4.38
707.266	4.38
708.02	3.38
708.774	3.38
709.527	4.38
710.28	5.38
711.034	3.38
711.787	2.38
712.54	4.38
713.293	3.38
714.046	4.38
714.799	3.38
715.552	4.38
716.305	3.38
717.058	3.38
717.81	4.38
718.563	5.38
719.315	2.38
720.068	5.38
720.82	6.38
721.573	1.38
722.325	4.38
723.077	1.38
723.829	3.38
724.581	5.38
725.333	4.38
726.085	6.38
726.836	5.38
727.588	6.38
728.34	4.38
729.091	4.38
729.843	3.38
730.594	4.38
731.346	5.38
732.097	4.38
732.848	1.38
733.599	5.38
734.35	5.38
735.101	6.38
735.852	6.38
736.603	4.38
737.354	6.38
738.104	4.38
738.855	5.38
739.605	6.38
740.356	4.38
741.106	4.38
741.856	5.38
742.607	4.38
743.357	5.38
744.107	5.38
744.857	6.38
745.607	6.38
746.357	4.38
747.106	6.38
747.856	6.38
748.606	7.38
749.355	7.38
750.105	4.38
750.854	4.38
751.603	5.38
752.353	5.38
753.102	6.38
753.851	4.38
754.6	8.38
755.349	6.38
756.098	6.38
756.847	7.38
757.595	5.38
758.344	9.38
759.093	8.38
759.841	9.38
760.589	9.38
761.338	7.38
762.086	6.38
762.834	5.38
763.582	6.38
764.331	9.38
765.079	8.38
765.826	6.38
766.574	8.38
767.322	8.38
768.07	5.38
768.817	9.38
769.565	9.38
770.312	8.38
771.06	10.38
771.807	6.38
772.554	9.38
773.302	7.38
774.049	7.38
774.796	7.38
775.543	5.38
776.29	11.38
777.036	8.38
777.783	9.38
778.53	6.38
779.276	7.38
780.023	8.38
780.769	8.38
781.516	9.38
782.262	10.38
783.008	10.38
783.754	7.38
784.5	10.38
785.246	8.38
785.992	6.38
786.738	11.38
787.484	6.38
788.23	10.38
788.975	7.38
789.721	7.38
790.466	7.38
791.212	8.38
791.957	9.38
792.702	11.38
793.447	10.38
794.193	9.38
794.938	7.38
795.683	9.38
796.427	6.38
797.172	6.38
797.917	11.38
798.662	8.38
799.406	10.38
800.151	9.38
800.895	8.38
801.64	7.38
802.384	6.38
803.128	8.38
803.872	6.38
804.616	9.38
805.36	7.38
806.104	7.38
806.848	7.38
807.592	7.38
808.336	5.38
809.079	7.38
809.823	4.38
810.566	9.38
811.31	9.38
812.053	4.38
812.796	5.38
813.539	5.38
814.283	3.38
815.026	4.38
815.769	4.38
816.511	3.38
817.254	2.38
817.997	6.38
818.74	6.38
819.482	3.38
820.225	6.38
820.967	5.38
821.71	5.38
822.452	6.38
823.194	4.38
823.936	5.38
824.678	3.38
825.42	4.38
826.162	5.38
826.904	6.38
827.646	3.38
828.388	3.38
829.129	2.38
829.871	5.38
830.612	3.38
831.354	2.38
832.095	5.38
832.836	2.38
833.577	5.38
834.319	5.38
835.06	3.38
835.801	5.38
836.542	4.38
837.282	2.38
838.023	4.38
838.764	4.38
839.504	5.38
840.245	4.38
840.985	4.38
841.726	2.38
842.466	2.38
843.206	5.38
843.946	5.38
844.687	2.38
845.427	4.38
846.166	3.38
846.906	5.38
847.646	4.38
848.386	2.38
849.125	4.38
849.865	5.38
850.605	2.38
851.344	3.38
852.083	5.38
852.823	4.38
853.562	2.38
854.301	3.38
855.04	3.38
855.779	2.38
856.518	4.38
857.257	3.38
857.995	3.38
858.734	3.38
859.473	6.38
860.211	0.38
860.95	4.38
861.688	1.38
862.426	1.38
863.165	2.38
863.903	2.38
864.641	3.38
865.379	1.38
866.117	5.38
866.855	1.38
867.593	1.38
868.33	3.38
869.068	1.38
869.806	3.38
870.543	3.38
871.28	3.38
872.018	1.38
872.755	3.38
873.492	1.38
874.229	1.38
874.967	1.38
875.703	1.38
876.44	1.38
877.177	0.38
877.914	1.38
878.651	1.38
879.387	2.38
880.124	2.38
880.86	0.38
881.597	-0.62
882.333	1.38
883.069	1.38
883.806	0.38
884.542	2.38
885.278	2.38
886.014	0.38
886.749	2.38
887.485	3.38
888.221	0.38
888.957	4.38
889.692	2.38
890.428	3.38
891.163	2.38
891.899	0.38
892.634	0.38
893.369	2.38
894.104	2.38
894.839	2.38
895.574	4.38
896.309	1.38
897.044	0.38
897.779	3.38
898.514	1.38
899.248	2.38
899.983	2.38
900.717	-1.62
901.452	1.38
902.186	2.38
902.92	0.38
903.654	-0.62
904.389	2.38
905.123	0.38
905.857	1.38
906.59	1.38
907.324	0.38
908.058	1.38
908.792	-0.62
909.525	2.38
910.259	1.38
910.992	2.38
911.726	-0.62
912.459	1.38
913.192	1.38
913.925	0.38
914.658	2.38
915.391	2.38
916.124	1.38
916.857	2.38
917.59	0.38
918.323	1.38
919.055	1.38
919.788	0.38
920.521	0.38
921.253	1.38
921.985	1.38
922.718	1.38
923.45	2.38
924.182	1.38
924.914	2.38
925.646	1.38
926.378	0.38
927.11	4.38
927.841	2.38
928.573	1.38
929.305	-1.62
930.036	0.38
930.768	-0.62
931.499	-0.62
932.23	1.38
932.962	1.38
933.693	1.38
934.424	-1.62
935.155	-0.62
935.886	-0.62
936.617	-0.62
937.348	1.38
938.078	0.38
938.809	1.38
939.54	2.38
940.27	3.38
941.001	2.38
941.731	-0.62
942.461	0.38
943.191	-0.62
943.922	-0.62
944.652	1.38
945.382	-1.62
946.112	2.38
946.841	0.38
947.571	1.38
948.301	-0.62
949.031	1.38
949.76	2.38
950.49	-1.62
951.219	2.38
951.948	0.38
952.678	-0.62
953.407	2.38
954.136	2.38
954.865	1.38
955.594	1.38
956.323	2.38
957.052	2.38
957.78	-0.62
958.509	-0.62
959.238	0.38
959.966	1.38
960.695	-0.62
961.423	2.38
962.151	2.38
962.88	0.38
963.608	-1.62
964.336	1.38
965.064	-2.62
965.792	1.38
966.52	1.38
967.247	2.38
967.975	1.38
968.703	0.38
969.43	0.38
970.158	2.38
970.885	0.38
971.613	0.38
972.34	1.38
973.067	1.38
973.794	0.38
974.521	1.38
975.248	0.38
975.975	-0.62
976.702	1.38
977.429	2.38
978.156	1.38
978.882	1.38
979.609	0.38
980.335	1.38
981.062	3.38
981.788	0.38
982.514	1.38
983.24	1.38
983.967	1.38
984.693	0.38
985.419	2.38
986.144	0.38
986.87	-1.62
987.596	-1.62
988.322	1.38
989.047	0.38
989.773	2.38
990.498	-0.62
991.224	1.38
991.949	1.38
992.674	2.38
993.399	-0.62
994.124	0.38
994.849	1.38
995.574	2.38
996.299	1.38
997.024	2.38
997.749	0.38
998.473	1.38
999.198	1.38
999.922	0.38
1000.647	0.38
1001.371	3.38
1002.095	2.38
1002.82	-0.62
1003.544	-0.62
1004.268	2.38
1004.992	0.38
1005.716	0.38
1006.439	1.38
1007.163	0.38
1007.887	0.38
1008.611	0.38
1009.334	-1.62
1010.058	1.38
1010.781	2.38
1011.504	0.38
1012.228	3.38
1012.951	-0.62
1013.674	-1.62
1014.397	-1.62
1015.12	-0.62
