节点500_285_QEPB04081__46__14-56-19-393.txt的数据

Date: Wed Nov 12 14:56:19 CST 2025
User: PC
Spectrometer: QEPB0408
触发模式: 0
积分时间 (秒): 1.000000E-2
Scans to average: 1
启用暗噪声校正: true
启用非线性校正: false
滑动平均宽度: 0
X轴模式: Wavelengths
Number of Pixels in Spectrum: 1044
>>>>>Begin Spectral Data<<<<<
220.843	1.5
221.644	0.5
222.444	1.5
223.244	-1.5
224.045	2.5
224.845	1.5
225.645	2.5
226.445	1.5
227.245	2.5
228.045	2.5
228.845	0.5
229.645	5.5
230.444	-0.5
231.244	4.5
232.043	3.5
232.843	2.5
233.642	3.5
234.442	4.5
235.241	2.5
236.04	1.5
236.839	2.5
237.638	5.5
238.437	4.5
239.236	3.5
240.035	2.5
240.833	3.5
241.632	5.5
242.43	4.5
243.229	5.5
244.027	5.5
244.826	5.5
245.624	4.5
246.422	5.5
247.22	4.5
248.018	4.5
248.816	4.5
249.614	5.5
250.412	8.5
251.21	4.5
252.007	7.5
252.805	6.5
253.602	6.5
254.4	6.5
255.197	7.5
255.994	7.5
256.791	7.5
257.589	6.5
258.386	9.5
259.183	9.5
259.979	10.5
260.776	9.5
261.573	10.5
262.37	9.5
263.166	14.5
263.963	12.5
264.759	11.5
265.556	11.5
266.352	12.5
267.148	11.5
267.944	16.5
268.74	15.5
269.536	13.5
270.332	16.5
271.128	16.5
271.924	19.5
272.719	18.5
273.515	15.5
274.311	18.5
275.106	17.5
275.901	18.5
276.697	19.5
277.492	19.5
278.287	18.5
279.082	18.5
279.877	16.5
280.672	20.5
281.467	18.5
282.262	16.5
283.056	20.5
283.851	18.5
284.646	19.5
285.44	19.5
286.234	18.5
287.029	20.5
287.823	18.5
288.617	17.5
289.411	20.5
290.205	16.5
290.999	18.5
291.793	19.5
292.587	17.5
293.381	19.5
294.174	17.5
294.968	15.5
295.761	15.5
296.555	15.5
297.348	13.5
298.141	18.5
298.935	16.5
299.728	14.5
300.521	12.5
301.314	10.5
302.107	11.5
302.899	12.5
303.692	12.5
304.485	13.5
305.277	12.5
306.07	10.5
306.862	10.5
307.655	10.5
308.447	11.5
309.239	11.5
310.031	12.5
310.823	9.5
311.615	10.5
312.407	10.5
313.199	9.5
313.991	6.5
314.783	6.5
315.574	8.5
316.366	7.5
317.157	8.5
317.949	6.5
318.74	5.5
319.531	8.5
320.322	6.5
321.113	7.5
321.904	7.5
322.695	7.5
323.486	8.5
324.277	5.5
325.068	6.5
325.858	6.5
326.649	5.5
327.439	7.5
328.23	8.5
329.02	4.5
329.81	3.5
330.6	7.5
331.391	6.5
332.181	7.5
332.971	7.5
333.76	7.5
334.55	5.5
335.34	5.5
336.13	4.5
336.919	5.5
337.709	6.5
338.498	5.5
339.287	7.5
340.077	5.5
340.866	6.5
341.655	5.5
342.444	5.5
343.233	4.5
344.022	5.5
344.811	5.5
345.6	6.5
346.388	5.5
347.177	6.5
347.965	5.5
348.754	5.5
349.542	6.5
350.33	6.5
351.119	5.5
351.907	6.5
352.695	4.5
353.483	5.5
354.271	4.5
355.059	4.5
355.846	5.5
356.634	4.5
357.422	4.5
358.209	7.5
358.997	4.5
359.784	5.5
360.571	4.5
361.359	7.5
362.146	4.5
362.933	7.5
363.72	4.5
364.507	4.5
365.294	6.5
366.081	4.5
366.867	5.5
367.654	2.5
368.44	3.5
369.227	6.5
370.013	3.5
370.8	4.5
371.586	4.5
372.372	5.5
373.158	4.5
373.944	3.5
374.73	5.5
375.516	2.5
376.302	6.5
377.088	4.5
377.873	4.5
378.659	4.5
379.445	3.5
380.23	5.5
381.015	6.5
381.801	4.5
382.586	5.5
383.371	4.5
384.156	4.5
384.941	4.5
385.726	5.5
386.511	4.5
387.296	4.5
388.08	5.5
388.865	5.5
389.649	3.5
390.434	5.5
391.218	6.5
392.003	6.5
392.787	7.5
393.571	5.5
394.355	6.5
395.139	5.5
395.923	5.5
396.707	6.5
397.491	8.5
398.274	7.5
399.058	5.5
399.842	6.5
400.625	6.5
401.408	6.5
402.192	5.5
402.975	4.5
403.758	5.5
404.541	9.5
405.324	6.5
406.107	5.5
406.89	8.5
407.673	7.5
408.456	9.5
409.238	8.5
410.021	7.5
410.803	9.5
411.586	10.5
412.368	7.5
413.151	8.5
413.933	8.5
414.715	10.5
415.497	8.5
416.279	7.5
417.061	10.5
417.843	9.5
418.624	9.5
419.406	10.5
420.188	9.5
420.969	9.5
421.751	10.5
422.532	9.5
423.313	10.5
424.095	10.5
424.876	8.5
425.657	12.5
426.438	12.5
427.219	11.5
428	12.5
428.78	15.5
429.561	15.5
430.342	12.5
431.122	12.5
431.903	11.5
432.683	13.5
433.464	15.5
434.244	15.5
435.024	16.5
435.804	16.5
436.584	18.5
437.364	17.5
438.144	18.5
438.924	20.5
439.704	22.5
440.483	22.5
441.263	22.5
442.042	23.5
442.822	28.5
443.601	26.5
444.38	28.5
445.16	32.5
445.939	33.5
446.718	31.5
447.497	35.5
448.276	39.5
449.054	40.5
449.833	42.5
450.612	49.5
451.391	53.5
452.169	58.5
452.948	58.5
453.726	67.5
454.504	73.5
455.282	84.5
456.061	90.5
456.839	99.5
457.617	110.5
458.395	117.5
459.172	134.5
459.95	149.5
460.728	168.5
461.506	184.5
462.283	208.5
463.061	227.5
463.838	266.5
464.615	287.5
465.393	328.5
466.17	372.5
466.947	409.5
467.724	459.5
468.501	517.5
469.278	574.5
470.055	641.5
470.831	710.5
471.608	800.5
472.385	896.5
473.161	995.5
473.938	1118.5
474.714	1244.5
475.49	1356.5
476.266	1523.5
477.043	1703.5
477.819	1900.5
478.595	2087.5
479.371	2352.5
480.146	2586.5
480.922	2873.5
481.698	3200.5
482.473	3530.5
483.249	3915.5
484.024	4341.5
484.8	4793.5
485.575	5298.5
486.35	5856.5
487.126	6470.5
487.901	7152.5
488.676	7913.5
489.451	8690.5
490.225	9567.5
491	10482.5
491.775	11494.5
492.55	12595.5
493.324	13659.5
494.099	14804.5
494.873	15963.5
495.647	17342.5
496.422	18564.5
497.196	19800.5
497.97	21209.5
498.744	22563.5
499.518	23747.5
500.292	24957.5
501.066	26045.5
501.839	26961.5
502.613	27770.5
503.387	28378.5
504.16	28982.5
504.934	29132.5
505.707	29112.5
506.48	28974.5
507.253	28600.5
508.027	28163.5
508.8	27627.5
509.573	26948.5
510.346	26049.5
511.118	25174.5
511.891	24105.5
512.664	23187.5
513.437	22153.5
514.209	21163.5
514.982	20229.5
515.754	19280.5
516.526	18360.5
517.298	17577.5
518.071	16777.5
518.843	16162.5
519.615	15527.5
520.387	14974.5
521.159	14247.5
521.93	13784.5
522.702	13226.5
523.474	12676.5
524.245	12150.5
525.017	11547.5
525.788	11110.5
526.56	10587.5
527.331	10058.5
528.102	9618.5
528.873	9110.5
529.644	8648.5
530.415	8221.5
531.186	7754.5
531.957	7343.5
532.728	6965.5
533.498	6564.5
534.269	6211.5
535.039	5841.5
535.81	5500.5
536.58	5192.5
537.351	4867.5
538.121	4622.5
538.891	4410.5
539.661	4138.5
540.431	3923.5
541.201	3692.5
541.971	3503.5
542.741	3330.5
543.51	3170.5
544.28	3024.5
545.05	2864.5
545.819	2728.5
546.588	2588.5
547.358	2437.5
548.127	2319.5
548.896	2210.5
549.665	2093.5
550.434	1993.5
551.203	1878.5
551.972	1772.5
552.741	1687.5
553.51	1584.5
554.278	1491.5
555.047	1397.5
555.815	1328.5
556.584	1245.5
557.352	1164.5
558.121	1121.5
558.889	1039.5
559.657	975.5
560.425	937.5
561.193	868.5
561.961	813.5
562.729	781.5
563.496	741.5
564.264	707.5
565.032	652.5
565.799	624.5
566.567	587.5
567.334	567.5
568.101	526.5
568.869	500.5
569.636	462.5
570.403	439.5
571.17	413.5
571.937	385.5
572.704	374.5
573.471	345.5
574.237	335.5
575.004	316.5
575.771	289.5
576.537	275.5
577.303	255.5
578.07	242.5
578.836	228.5
579.602	216.5
580.368	200.5
581.134	197.5
581.9	185.5
582.666	173.5
583.432	167.5
584.198	157.5
584.964	152.5
585.729	140.5
586.495	135.5
587.26	124.5
588.025	121.5
588.791	113.5
589.556	103.5
590.321	95.5
591.086	100.5
591.851	90.5
592.616	88.5
593.381	88.5
594.146	80.5
594.911	72.5
595.675	68.5
596.44	70.5
597.204	63.5
597.969	63.5
598.733	61.5
599.497	57.5
600.261	53.5
601.025	48.5
601.79	49.5
602.553	47.5
603.317	46.5
604.081	45.5
604.845	44.5
605.609	40.5
606.372	38.5
607.136	38.5
607.899	37.5
608.662	35.5
609.426	33.5
610.189	29.5
610.952	29.5
611.715	30.5
612.478	28.5
613.241	28.5
614.004	26.5
614.767	28.5
615.529	24.5
616.292	21.5
617.055	22.5
617.817	18.5
618.579	22.5
619.342	21.5
620.104	21.5
620.866	22.5
621.628	19.5
622.39	18.5
623.152	16.5
623.914	19.5
624.676	14.5
625.438	16.5
626.199	15.5
626.961	14.5
627.722	16.5
628.484	12.5
629.245	14.5
630.006	12.5
630.768	11.5
631.529	12.5
632.29	10.5
633.051	11.5
633.812	12.5
634.573	8.5
635.333	13.5
636.094	8.5
636.855	10.5
637.615	8.5
638.376	8.5
639.136	7.5
639.896	7.5
640.657	7.5
641.417	9.5
642.177	8.5
642.937	7.5
643.697	6.5
644.457	7.5
645.216	8.5
645.976	7.5
646.736	5.5
647.495	8.5
648.255	6.5
649.014	5.5
649.774	8.5
650.533	6.5
651.292	9.5
652.051	6.5
652.81	6.5
653.569	4.5
654.328	5.5
655.087	7.5
655.846	4.5
656.604	6.5
657.363	5.5
658.121	3.5
658.88	7.5
659.638	4.5
660.397	2.5
661.155	6.5
661.913	4.5
662.671	3.5
663.429	3.5
664.187	6.5
664.945	3.5
665.703	4.5
666.46	6.5
667.218	3.5
667.976	3.5
668.733	5.5
669.49	4.5
670.248	4.5
671.005	5.5
671.762	3.5
672.519	2.5
673.276	5.5
674.033	3.5
674.79	3.5
675.547	4.5
676.304	2.5
677.06	2.5
677.817	3.5
678.574	2.5
679.33	3.5
680.086	3.5
680.843	2.5
681.599	3.5
682.355	4.5
683.111	4.5
683.867	2.5
684.623	2.5
685.379	4.5
686.135	4.5
686.89	3.5
687.646	3.5
688.402	3.5
689.157	4.5
689.912	4.5
690.668	4.5
691.423	3.5
692.178	4.5
692.933	3.5
693.688	4.5
694.443	4.5
695.198	2.5
695.953	3.5
696.708	3.5
697.462	5.5
698.217	1.5
698.972	3.5
699.726	3.5
700.48	0.5
701.235	2.5
701.989	2.5
702.743	3.5
703.497	5.5
704.251	3.5
705.005	1.5
705.759	2.5
706.513	2.5
707.266	1.5
708.02	0.5
708.774	3.5
709.527	2.5
710.28	3.5
711.034	1.5
711.787	2.5
712.54	2.5
713.293	4.5
714.046	4.5
714.799	0.5
715.552	6.5
716.305	2.5
717.058	2.5
717.81	3.5
718.563	3.5
719.315	3.5
720.068	5.5
720.82	3.5
721.573	3.5
722.325	3.5
723.077	2.5
723.829	2.5
724.581	3.5
725.333	4.5
726.085	2.5
726.836	4.5
727.588	2.5
728.34	3.5
729.091	1.5
729.843	4.5
730.594	4.5
731.346	2.5
732.097	3.5
732.848	0.5
733.599	2.5
734.35	3.5
735.101	3.5
735.852	4.5
736.603	5.5
737.354	5.5
738.104	3.5
738.855	5.5
739.605	2.5
740.356	5.5
741.106	5.5
741.856	5.5
742.607	4.5
743.357	7.5
744.107	5.5
744.857	4.5
745.607	6.5
746.357	4.5
747.106	4.5
747.856	5.5
748.606	5.5
749.355	3.5
750.105	6.5
750.854	3.5
751.603	4.5
752.353	6.5
753.102	6.5
753.851	7.5
754.6	3.5
755.349	5.5
756.098	7.5
756.847	3.5
757.595	5.5
758.344	6.5
759.093	5.5
759.841	4.5
760.589	6.5
761.338	8.5
762.086	6.5
762.834	6.5
763.582	5.5
764.331	6.5
765.079	4.5
765.826	9.5
766.574	8.5
767.322	5.5
768.07	7.5
768.817	6.5
769.565	10.5
770.312	5.5
771.06	8.5
771.807	7.5
772.554	7.5
773.302	6.5
774.049	6.5
774.796	8.5
775.543	9.5
776.29	8.5
777.036	8.5
777.783	6.5
778.53	10.5
779.276	6.5
780.023	12.5
780.769	7.5
781.516	9.5
782.262	8.5
783.008	7.5
783.754	9.5
784.5	9.5
785.246	9.5
785.992	9.5
786.738	8.5
787.484	10.5
788.23	10.5
788.975	8.5
789.721	10.5
790.466	9.5
791.212	9.5
791.957	7.5
792.702	8.5
793.447	7.5
794.193	9.5
794.938	8.5
795.683	7.5
796.427	6.5
797.172	7.5
797.917	8.5
798.662	6.5
799.406	6.5
800.151	8.5
800.895	7.5
801.64	6.5
802.384	5.5
803.128	6.5
803.872	6.5
804.616	2.5
805.36	6.5
806.104	6.5
806.848	3.5
807.592	6.5
808.336	3.5
809.079	8.5
809.823	5.5
810.566	6.5
811.31	6.5
812.053	4.5
812.796	3.5
813.539	5.5
814.283	2.5
815.026	3.5
815.769	6.5
816.511	7.5
817.254	5.5
817.997	2.5
818.74	2.5
819.482	2.5
820.225	5.5
820.967	4.5
821.71	3.5
822.452	2.5
823.194	3.5
823.936	1.5
824.678	2.5
825.42	2.5
826.162	2.5
826.904	0.5
827.646	4.5
828.388	5.5
829.129	3.5
829.871	2.5
830.612	3.5
831.354	0.5
832.095	4.5
832.836	3.5
833.577	5.5
834.319	0.5
835.06	3.5
835.801	5.5
836.542	3.5
837.282	2.5
838.023	3.5
838.764	1.5
839.504	2.5
840.245	3.5
840.985	2.5
841.726	1.5
842.466	4.5
843.206	4.5
843.946	3.5
844.687	2.5
845.427	1.5
846.166	2.5
846.906	1.5
847.646	1.5
848.386	1.5
849.125	0.5
849.865	3.5
850.605	0.5
851.344	2.5
852.083	3.5
852.823	2.5
853.562	1.5
854.301	2.5
855.04	3.5
855.779	0.5
856.518	1.5
857.257	2.5
857.995	0.5
858.734	5.5
859.473	1.5
860.211	2.5
860.95	3.5
861.688	0.5
862.426	0.5
863.165	1.5
863.903	1.5
864.641	3.5
865.379	3.5
866.117	2.5
866.855	0.5
867.593	2.5
868.33	0.5
869.068	2.5
869.806	-0.5
870.543	0.5
871.28	0.5
872.018	3.5
872.755	0.5
873.492	2.5
874.229	1.5
874.967	1.5
875.703	0.5
876.44	-0.5
877.177	1.5
877.914	-0.5
878.651	0.5
879.387	-0.5
880.124	0.5
880.86	-0.5
881.597	1.5
882.333	-0.5
883.069	1.5
883.806	2.5
884.542	-0.5
885.278	0.5
886.014	-0.5
886.749	0.5
887.485	1.5
888.221	0.5
888.957	1.5
889.692	1.5
890.428	1.5
891.163	-0.5
891.899	2.5
892.634	0.5
893.369	-0.5
894.104	1.5
894.839	0.5
895.574	1.5
896.309	0.5
897.044	-1.5
897.779	0.5
898.514	1.5
899.248	2.5
899.983	1.5
900.717	0.5
901.452	0.5
902.186	0.5
902.92	0.5
903.654	0.5
904.389	0.5
905.123	0.5
905.857	0.5
906.59	-0.5
907.324	-0.5
908.058	0.5
908.792	-0.5
909.525	1.5
910.259	1.5
910.992	-1.5
911.726	2.5
912.459	-0.5
913.192	1.5
913.925	-0.5
914.658	-1.5
915.391	1.5
916.124	-1.5
916.857	0.5
917.59	0.5
918.323	-0.5
919.055	0.5
919.788	-1.5
920.521	0.5
921.253	0.5
921.985	-0.5
922.718	0.5
923.45	0.5
924.182	-0.5
924.914	-1.5
925.646	0.5
926.378	0.5
927.11	-0.5
927.841	0.5
928.573	0.5
929.305	0.5
930.036	-0.5
930.768	0.5
931.499	-1.5
932.23	-2.5
932.962	0.5
933.693	-0.5
934.424	-0.5
935.155	-0.5
935.886	-0.5
936.617	0.5
937.348	-1.5
938.078	2.5
938.809	0.5
939.54	-1.5
940.27	0.5
941.001	0.5
941.731	0.5
942.461	-0.5
943.191	2.5
943.922	-0.5
944.652	-1.5
945.382	0.5
946.112	1.5
946.841	-0.5
947.571	-1.5
948.301	1.5
949.031	-0.5
949.76	-1.5
950.49	-3.5
951.219	-2.5
951.948	-0.5
952.678	1.5
953.407	-2.5
954.136	0.5
954.865	-2.5
955.594	1.5
956.323	-0.5
957.052	0.5
957.78	-2.5
958.509	-0.5
959.238	2.5
959.966	-2.5
960.695	-0.5
961.423	-0.5
962.151	-1.5
962.88	-0.5
963.608	-1.5
964.336	0.5
965.064	-1.5
965.792	0.5
966.52	-1.5
967.247	-1.5
967.975	0.5
968.703	-1.5
969.43	0.5
970.158	0.5
970.885	-1.5
971.613	-1.5
972.34	-2.5
973.067	0.5
973.794	-0.5
974.521	0.5
975.248	1.5
975.975	0.5
976.702	-0.5
977.429	-0.5
978.156	0.5
978.882	0.5
979.609	-0.5
980.335	1.5
981.062	-2.5
981.788	0.5
982.514	0.5
983.24	-0.5
983.967	1.5
984.693	0.5
985.419	-0.5
986.144	0.5
986.87	-3.5
987.596	-0.5
988.322	-0.5
989.047	-0.5
989.773	0.5
990.498	-0.5
991.224	-0.5
991.949	0.5
992.674	0.5
993.399	-1.5
994.124	0.5
994.849	-1.5
995.574	-0.5
996.299	-0.5
997.024	0.5
997.749	0.5
998.473	-2.5
999.198	0.5
999.922	-1.5
1000.647	-0.5
1001.371	3.5
1002.095	-0.5
1002.82	-0.5
1003.544	-2.5
1004.268	0.5
1004.992	0.5
1005.716	2.5
1006.439	-0.5
1007.163	-0.5
1007.887	2.5
1008.611	0.5
1009.334	-1.5
1010.058	-0.5
1010.781	2.5
1011.504	0.5
1012.228	-0.5
1012.951	0.5
1013.674	-0.5
1014.397	-0.5
1015.12	0.5
