节点500_285_QEPB04081__62__14-56-35-347.txt的数据

Date: Wed Nov 12 14:56:35 CST 2025
User: PC
Spectrometer: QEPB0408
触发模式: 0
积分时间 (秒): 1.000000E-2
Scans to average: 1
启用暗噪声校正: true
启用非线性校正: false
滑动平均宽度: 0
X轴模式: Wavelengths
Number of Pixels in Spectrum: 1044
>>>>>Begin Spectral Data<<<<<
220.843	1
221.644	1
222.444	2
223.244	0
224.045	4
224.845	2
225.645	3
226.445	2
227.245	0
228.045	3
228.845	2
229.645	2
230.444	3
231.244	1
232.043	5
232.843	3
233.642	5
234.442	3
235.241	4
236.04	3
236.839	4
237.638	3
238.437	6
239.236	4
240.035	6
240.833	4
241.632	4
242.43	6
243.229	5
244.027	6
244.826	6
245.624	6
246.422	6
247.22	6
248.018	10
248.816	9
249.614	5
250.412	7
251.21	7
252.007	7
252.805	8
253.602	8
254.4	7
255.197	9
255.994	8
256.791	7
257.589	11
258.386	9
259.183	10
259.979	9
260.776	12
261.573	11
262.37	10
263.166	13
263.963	12
264.759	12
265.556	11
266.352	14
267.148	14
267.944	13
268.74	14
269.536	16
270.332	17
271.128	17
271.924	16
272.719	17
273.515	16
274.311	20
275.106	16
275.901	19
276.697	17
277.492	17
278.287	21
279.082	20
279.877	23
280.672	20
281.467	21
282.262	20
283.056	21
283.851	22
284.646	21
285.44	18
286.234	20
287.029	20
287.823	19
288.617	18
289.411	17
290.205	22
290.999	18
291.793	18
292.587	18
293.381	18
294.174	18
294.968	17
295.761	16
296.555	17
297.348	16
298.141	16
298.935	17
299.728	16
300.521	14
301.314	15
302.107	13
302.899	12
303.692	12
304.485	12
305.277	13
306.07	11
306.862	15
307.655	13
308.447	10
309.239	11
310.031	14
310.823	11
311.615	9
312.407	10
313.199	9
313.991	8
314.783	9
315.574	12
316.366	11
317.157	9
317.949	6
318.74	7
319.531	10
320.322	8
321.113	5
321.904	9
322.695	11
323.486	7
324.277	9
325.068	7
325.858	5
326.649	7
327.439	5
328.23	7
329.02	5
329.81	9
330.6	8
331.391	7
332.181	6
332.971	9
333.76	6
334.55	7
335.34	7
336.13	6
336.919	9
337.709	8
338.498	7
339.287	5
340.077	6
340.866	5
341.655	6
342.444	4
343.233	6
344.022	7
344.811	7
345.6	9
346.388	5
347.177	5
347.965	5
348.754	8
349.542	6
350.33	5
351.119	7
351.907	4
352.695	7
353.483	8
354.271	5
355.059	7
355.846	2
356.634	7
357.422	3
358.209	6
358.997	4
359.784	6
360.571	6
361.359	4
362.146	7
362.933	4
363.72	6
364.507	5
365.294	5
366.081	4
366.867	6
367.654	6
368.44	4
369.227	5
370.013	5
370.8	5
371.586	4
372.372	7
373.158	5
373.944	6
374.73	8
375.516	7
376.302	4
377.088	5
377.873	3
378.659	6
379.445	6
380.23	4
381.015	5
381.801	7
382.586	6
383.371	6
384.156	5
384.941	4
385.726	4
386.511	3
387.296	4
388.08	6
388.865	7
389.649	6
390.434	9
391.218	7
392.003	6
392.787	7
393.571	5
394.355	7
395.139	6
395.923	8
396.707	5
397.491	6
398.274	6
399.058	8
399.842	7
400.625	7
401.408	6
402.192	8
402.975	6
403.758	9
404.541	8
405.324	6
406.107	9
406.89	7
407.673	8
408.456	9
409.238	10
410.021	5
410.803	9
411.586	10
412.368	9
413.151	11
413.933	9
414.715	9
415.497	9
416.279	10
417.061	10
417.843	10
418.624	10
419.406	10
420.188	9
420.969	9
421.751	8
422.532	13
423.313	12
424.095	13
424.876	13
425.657	13
426.438	16
427.219	11
428	13
428.78	14
429.561	13
430.342	11
431.122	11
431.903	16
432.683	17
433.464	15
434.244	16
435.024	17
435.804	18
436.584	16
437.364	21
438.144	20
438.924	17
439.704	20
440.483	17
441.263	25
442.042	26
442.822	29
443.601	29
444.38	28
445.16	29
445.939	31
446.718	36
447.497	37
448.276	41
449.054	45
449.833	45
450.612	51
451.391	52
452.169	61
452.948	62
453.726	70
454.504	74
455.282	80
456.061	92
456.839	101
457.617	110
458.395	125
459.172	135
459.95	148
460.728	172
461.506	187
462.283	214
463.061	238
463.838	264
464.615	296
465.393	330
466.17	370
466.947	415
467.724	462
468.501	521
469.278	582
470.055	646
470.831	729
471.608	817
472.385	901
473.161	1001
473.938	1125
474.714	1251
475.49	1376
476.266	1546
477.043	1717
477.819	1904
478.595	2107
479.371	2343
480.146	2582
480.922	2897
481.698	3199
482.473	3542
483.249	3924
484.024	4312
484.8	4797
485.575	5305
486.35	5812
487.126	6435
487.901	7093
488.676	7807
489.451	8639
490.225	9463
491	10427
491.775	11362
492.55	12442
493.324	13517
494.099	14561
494.873	15824
495.647	17067
496.422	18299
497.196	19603
497.97	20935
498.744	22278
499.518	23454
500.292	24668
501.066	25727
501.839	26604
502.613	27557
503.387	28200
504.16	28743
504.934	28935
505.707	28978
506.48	28782
507.253	28530
508.027	28020
508.8	27561
509.573	26936
510.346	26130
511.118	25204
511.891	24204
512.664	23240
513.437	22296
514.209	21322
514.982	20385
515.754	19421
516.526	18471
517.298	17760
518.071	16953
518.843	16235
519.615	15703
520.387	15015
521.159	14445
521.93	13848
522.702	13292
523.474	12784
524.245	12191
525.017	11663
525.788	11207
526.56	10663
527.331	10159
528.102	9684
528.873	9209
529.644	8717
530.415	8267
531.186	7841
531.957	7431
532.728	7022
533.498	6643
534.269	6248
535.039	5923
535.81	5583
536.58	5251
537.351	4930
538.121	4677
538.891	4443
539.661	4192
540.431	3961
541.201	3738
541.971	3561
542.741	3349
543.51	3199
544.28	3057
545.05	2908
545.819	2758
546.588	2610
547.358	2485
548.127	2371
548.896	2223
549.665	2125
550.434	2008
551.203	1894
551.972	1799
552.741	1703
553.51	1597
554.278	1497
555.047	1422
555.815	1338
556.584	1271
557.352	1193
558.121	1121
558.889	1051
559.657	1000
560.425	945
561.193	894
561.961	842
562.729	801
563.496	754
564.264	697
565.032	681
565.799	639
566.567	607
567.334	575
568.101	528
568.869	501
569.636	479
570.403	449
571.17	427
571.937	396
572.704	383
573.471	358
574.237	339
575.004	315
575.771	301
576.537	279
577.303	265
578.07	250
578.836	230
579.602	223
580.368	219
581.134	201
581.9	183
582.666	176
583.432	172
584.198	159
584.964	147
585.729	145
586.495	135
587.26	127
588.025	123
588.791	121
589.556	108
590.321	104
591.086	101
591.851	91
592.616	93
593.381	84
594.146	81
594.911	76
595.675	74
596.44	70
597.204	68
597.969	68
598.733	63
599.497	60
600.261	53
601.025	53
601.79	52
602.553	50
603.317	47
604.081	44
604.845	41
605.609	42
606.372	37
607.136	41
607.899	35
608.662	36
609.426	33
610.189	34
610.952	32
611.715	26
612.478	30
613.241	26
614.004	27
614.767	25
615.529	24
616.292	23
617.055	23
617.817	23
618.579	20
619.342	22
620.104	18
620.866	19
621.628	19
622.39	17
623.152	20
623.914	19
624.676	18
625.438	14
626.199	16
626.961	15
627.722	13
628.484	14
629.245	16
630.006	11
630.768	13
631.529	10
632.29	15
633.051	12
633.812	10
634.573	14
635.333	9
636.094	10
636.855	6
637.615	10
638.376	11
639.136	9
639.896	8
640.657	8
641.417	10
642.177	12
642.937	7
643.697	8
644.457	8
645.216	7
645.976	7
646.736	7
647.495	8
648.255	9
649.014	7
649.774	8
650.533	10
651.292	6
652.051	7
652.81	6
653.569	5
654.328	6
655.087	7
655.846	8
656.604	5
657.363	5
658.121	8
658.88	3
659.638	6
660.397	4
661.155	4
661.913	4
662.671	6
663.429	6
664.187	5
664.945	6
665.703	5
666.46	4
667.218	6
667.976	5
668.733	7
669.49	5
670.248	6
671.005	8
671.762	3
672.519	5
673.276	4
674.033	4
674.79	4
675.547	4
676.304	5
677.06	3
677.817	6
678.574	2
679.33	4
680.086	5
680.843	4
681.599	3
682.355	2
683.111	6
683.867	3
684.623	1
685.379	3
686.135	4
686.89	1
687.646	4
688.402	5
689.157	2
689.912	5
690.668	4
691.423	3
692.178	2
692.933	3
693.688	1
694.443	4
695.198	2
695.953	4
696.708	4
697.462	2
698.217	4
698.972	4
699.726	2
700.48	2
701.235	4
701.989	5
702.743	3
703.497	4
704.251	3
705.005	4
705.759	2
706.513	3
707.266	4
708.02	3
708.774	3
709.527	4
710.28	4
711.034	3
711.787	2
712.54	3
713.293	1
714.046	4
714.799	0
715.552	2
716.305	4
717.058	4
717.81	4
718.563	4
719.315	6
720.068	3
720.82	3
721.573	5
722.325	5
723.077	6
723.829	3
724.581	6
725.333	4
726.085	-1
726.836	5
727.588	1
728.34	5
729.091	5
729.843	5
730.594	5
731.346	2
732.097	3
732.848	6
733.599	5
734.35	4
735.101	5
735.852	5
736.603	3
737.354	4
738.104	5
738.855	5
739.605	5
740.356	6
741.106	6
741.856	3
742.607	7
743.357	5
744.107	4
744.857	5
745.607	6
746.357	4
747.106	3
747.856	3
748.606	3
749.355	7
750.105	7
750.854	6
751.603	7
752.353	4
753.102	6
753.851	5
754.6	6
755.349	5
756.098	8
756.847	9
757.595	6
758.344	6
759.093	5
759.841	6
760.589	6
761.338	7
762.086	8
762.834	7
763.582	6
764.331	9
765.079	6
765.826	6
766.574	10
767.322	5
768.07	8
768.817	6
769.565	6
770.312	7
771.06	4
771.807	7
772.554	8
773.302	10
774.049	6
774.796	8
775.543	9
776.29	8
777.036	9
777.783	8
778.53	9
779.276	10
780.023	11
780.769	10
781.516	10
782.262	9
783.008	8
783.754	9
784.5	9
785.246	4
785.992	9
786.738	8
787.484	9
788.23	7
788.975	8
789.721	9
790.466	10
791.212	8
791.957	7
792.702	8
793.447	8
794.193	9
794.938	6
795.683	9
796.427	9
797.172	9
797.917	8
798.662	8
799.406	6
800.151	8
800.895	5
801.64	9
802.384	7
803.128	7
803.872	8
804.616	7
805.36	7
806.104	8
806.848	5
807.592	6
808.336	7
809.079	6
809.823	8
810.566	6
811.31	6
812.053	5
812.796	4
813.539	4
814.283	7
815.026	3
815.769	5
816.511	6
817.254	6
817.997	6
818.74	6
819.482	4
820.225	2
820.967	3
821.71	5
822.452	4
823.194	6
823.936	3
824.678	3
825.42	3
826.162	1
826.904	4
827.646	2
828.388	4
829.129	4
829.871	3
830.612	4
831.354	3
832.095	6
832.836	3
833.577	2
834.319	3
835.06	1
835.801	3
836.542	3
837.282	4
838.023	5
838.764	2
839.504	3
840.245	5
840.985	1
841.726	5
842.466	1
843.206	4
843.946	1
844.687	5
845.427	3
846.166	3
846.906	4
847.646	3
848.386	4
849.125	6
849.865	4
850.605	5
851.344	0
852.083	3
852.823	4
853.562	3
854.301	3
855.04	2
855.779	4
856.518	2
857.257	5
857.995	4
858.734	2
859.473	1
860.211	2
860.95	5
861.688	3
862.426	1
863.165	2
863.903	3
864.641	0
865.379	2
866.117	1
866.855	2
867.593	0
868.33	2
869.068	4
869.806	1
870.543	1
871.28	2
872.018	1
872.755	2
873.492	1
874.229	1
874.967	2
875.703	0
876.44	4
877.177	3
877.914	1
878.651	-2
879.387	1
880.124	1
880.86	2
881.597	1
882.333	3
883.069	0
883.806	2
884.542	1
885.278	0
886.014	2
886.749	0
887.485	1
888.221	1
888.957	3
889.692	0
890.428	-1
891.163	1
891.899	0
892.634	-1
893.369	-1
894.104	1
894.839	1
895.574	-1
896.309	-1
897.044	-1
897.779	2
898.514	0
899.248	2
899.983	0
900.717	0
901.452	1
902.186	1
902.92	0
903.654	0
904.389	0
905.123	0
905.857	-1
906.59	2
907.324	1
908.058	1
908.792	1
909.525	1
910.259	0
910.992	0
911.726	2
912.459	2
913.192	-1
913.925	1
914.658	2
915.391	2
916.124	1
916.857	-1
917.59	1
918.323	2
919.055	3
919.788	1
920.521	2
921.253	1
921.985	0
922.718	0
923.45	1
924.182	-1
924.914	-2
925.646	1
926.378	0
927.11	0
927.841	-1
928.573	-1
929.305	-2
930.036	1
930.768	-1
931.499	2
932.23	1
932.962	-2
933.693	2
934.424	2
935.155	-3
935.886	1
936.617	0
937.348	0
938.078	1
938.809	3
939.54	-1
940.27	0
941.001	-1
941.731	0
942.461	0
943.191	1
943.922	2
944.652	-1
945.382	1
946.112	-2
946.841	1
947.571	1
948.301	2
949.031	3
949.76	-1
950.49	-1
951.219	0
951.948	2
952.678	0
953.407	2
954.136	0
954.865	-1
955.594	1
956.323	0
957.052	2
957.78	0
958.509	-3
959.238	1
959.966	1
960.695	-1
961.423	0
962.151	-1
962.88	0
963.608	-1
964.336	0
965.064	1
965.792	0
966.52	-1
967.247	1
967.975	0
968.703	2
969.43	0
970.158	-1
970.885	0
971.613	1
972.34	-1
973.067	0
973.794	1
974.521	0
975.248	1
975.975	1
976.702	3
977.429	0
978.156	0
978.882	0
979.609	1
980.335	0
981.062	1
981.788	1
982.514	-1
983.24	-1
983.967	2
984.693	2
985.419	0
986.144	0
986.87	1
987.596	1
988.322	0
989.047	-1
989.773	0
990.498	0
991.224	0
991.949	0
992.674	0
993.399	-1
994.124	1
994.849	1
995.574	0
996.299	1
997.024	1
997.749	2
998.473	-1
999.198	0
999.922	2
1000.647	0
1001.371	3
1002.095	0
1002.82	-2
1003.544	-2
1004.268	1
1004.992	-1
1005.716	1
1006.439	3
1007.163	1
1007.887	-1
1008.611	-1
1009.334	1
1010.058	-1
1010.781	1
1011.504	2
1012.228	1
1012.951	-1
1013.674	0
1014.397	1
1015.12	1
