节点500_285_QEPB04081__149__14-58-02-180.txt的数据

Date: Wed Nov 12 14:58:02 CST 2025
User: PC
Spectrometer: QEPB0408
触发模式: 0
积分时间 (秒): 1.000000E-2
Scans to average: 1
启用暗噪声校正: true
启用非线性校正: false
滑动平均宽度: 0
X轴模式: Wavelengths
Number of Pixels in Spectrum: 1044
>>>>>Begin Spectral Data<<<<<
220.843	0.38
221.644	1.38
222.444	1.38
223.244	4.38
224.045	1.38
224.845	1.38
225.645	1.38
226.445	3.38
227.245	4.38
228.045	1.38
228.845	5.38
229.645	3.38
230.444	2.38
231.244	3.38
232.043	1.38
232.843	3.38
233.642	2.38
234.442	3.38
235.241	5.38
236.04	2.38
236.839	4.38
237.638	3.38
238.437	6.38
239.236	4.38
240.035	4.38
240.833	3.38
241.632	6.38
242.43	4.38
243.229	5.38
244.027	6.38
244.826	6.38
245.624	5.38
246.422	6.38
247.22	5.38
248.018	7.38
248.816	4.38
249.614	5.38
250.412	6.38
251.21	8.38
252.007	5.38
252.805	5.38
253.602	8.38
254.4	7.38
255.197	9.38
255.994	7.38
256.791	7.38
257.589	9.38
258.386	6.38
259.183	9.38
259.979	10.38
260.776	10.38
261.573	10.38
262.37	11.38
263.166	13.38
263.963	12.38
264.759	11.38
265.556	13.38
266.352	11.38
267.148	12.38
267.944	14.38
268.74	16.38
269.536	15.38
270.332	14.38
271.128	13.38
271.924	13.38
272.719	15.38
273.515	15.38
274.311	19.38
275.106	16.38
275.901	19.38
276.697	15.38
277.492	18.38
278.287	17.38
279.082	18.38
279.877	20.38
280.672	17.38
281.467	19.38
282.262	17.38
283.056	17.38
283.851	20.38
284.646	21.38
285.44	18.38
286.234	21.38
287.029	20.38
287.823	19.38
288.617	18.38
289.411	17.38
290.205	19.38
290.999	19.38
291.793	17.38
292.587	20.38
293.381	20.38
294.174	18.38
294.968	15.38
295.761	15.38
296.555	14.38
297.348	13.38
298.141	15.38
298.935	17.38
299.728	17.38
300.521	15.38
301.314	15.38
302.107	14.38
302.899	13.38
303.692	14.38
304.485	11.38
305.277	12.38
306.07	11.38
306.862	11.38
307.655	14.38
308.447	12.38
309.239	10.38
310.031	13.38
310.823	9.38
311.615	10.38
312.407	12.38
313.199	10.38
313.991	9.38
314.783	8.38
315.574	9.38
316.366	8.38
317.157	9.38
317.949	10.38
318.74	8.38
319.531	7.38
320.322	7.38
321.113	5.38
321.904	6.38
322.695	7.38
323.486	8.38
324.277	8.38
325.068	8.38
325.858	6.38
326.649	7.38
327.439	6.38
328.23	7.38
329.02	7.38
329.81	7.38
330.6	6.38
331.391	6.38
332.181	8.38
332.971	5.38
333.76	6.38
334.55	7.38
335.34	8.38
336.13	4.38
336.919	7.38
337.709	6.38
338.498	5.38
339.287	3.38
340.077	4.38
340.866	7.38
341.655	6.38
342.444	6.38
343.233	8.38
344.022	6.38
344.811	6.38
345.6	5.38
346.388	6.38
347.177	8.38
347.965	5.38
348.754	8.38
349.542	3.38
350.33	6.38
351.119	5.38
351.907	6.38
352.695	6.38
353.483	6.38
354.271	6.38
355.059	4.38
355.846	5.38
356.634	4.38
357.422	4.38
358.209	5.38
358.997	6.38
359.784	5.38
360.571	10.38
361.359	4.38
362.146	8.38
362.933	3.38
363.72	5.38
364.507	6.38
365.294	6.38
366.081	5.38
366.867	5.38
367.654	7.38
368.44	6.38
369.227	6.38
370.013	2.38
370.8	5.38
371.586	6.38
372.372	5.38
373.158	9.38
373.944	4.38
374.73	2.38
375.516	4.38
376.302	5.38
377.088	3.38
377.873	4.38
378.659	7.38
379.445	4.38
380.23	5.38
381.015	8.38
381.801	3.38
382.586	6.38
383.371	3.38
384.156	6.38
384.941	5.38
385.726	5.38
386.511	3.38
387.296	3.38
388.08	6.38
388.865	4.38
389.649	6.38
390.434	4.38
391.218	5.38
392.003	7.38
392.787	8.38
393.571	5.38
394.355	6.38
395.139	7.38
395.923	8.38
396.707	3.38
397.491	6.38
398.274	3.38
399.058	5.38
399.842	9.38
400.625	8.38
401.408	9.38
402.192	7.38
402.975	9.38
403.758	7.38
404.541	6.38
405.324	7.38
406.107	6.38
406.89	7.38
407.673	7.38
408.456	7.38
409.238	9.38
410.021	8.38
410.803	6.38
411.586	11.38
412.368	10.38
413.151	9.38
413.933	7.38
414.715	7.38
415.497	8.38
416.279	13.38
417.061	11.38
417.843	7.38
418.624	9.38
419.406	9.38
420.188	11.38
420.969	9.38
421.751	13.38
422.532	12.38
423.313	11.38
424.095	12.38
424.876	11.38
425.657	14.38
426.438	13.38
427.219	11.38
428	14.38
428.78	11.38
429.561	12.38
430.342	15.38
431.122	15.38
431.903	15.38
432.683	12.38
433.464	13.38
434.244	15.38
435.024	19.38
435.804	18.38
436.584	18.38
437.364	17.38
438.144	20.38
438.924	19.38
439.704	20.38
440.483	24.38
441.263	23.38
442.042	24.38
442.822	26.38
443.601	28.38
444.38	31.38
445.16	29.38
445.939	33.38
446.718	36.38
447.497	35.38
448.276	41.38
449.054	44.38
449.833	47.38
450.612	51.38
451.391	54.38
452.169	59.38
452.948	66.38
453.726	69.38
454.504	79.38
455.282	85.38
456.061	94.38
456.839	103.38
457.617	115.38
458.395	125.38
459.172	147.38
459.95	159.38
460.728	176.38
461.506	195.38
462.283	216.38
463.061	253.38
463.838	275.38
464.615	311.38
465.393	335.38
466.17	383.38
466.947	432.38
467.724	475.38
468.501	540.38
469.278	597.38
470.055	665.38
470.831	743.38
471.608	823.38
472.385	923.38
473.161	1024.38
473.938	1141.38
474.714	1267.38
475.49	1389.38
476.266	1555.38
477.043	1732.38
477.819	1924.38
478.595	2116.38
479.371	2346.38
480.146	2602.38
480.922	2873.38
481.698	3163.38
482.473	3516.38
483.249	3880.38
484.024	4290.38
484.8	4710.38
485.575	5212.38
486.35	5743.38
487.126	6303.38
487.901	6938.38
488.676	7629.38
489.451	8410.38
490.225	9194.38
491	10067.38
491.775	11012.38
492.55	12042.38
493.324	13057.38
494.099	14105.38
494.873	15241.38
495.647	16480.38
496.422	17688.38
497.196	18957.38
497.97	20232.38
498.744	21488.38
499.518	22635.38
500.292	23816.38
501.066	24959.38
501.839	25957.38
502.613	26682.38
503.387	27478.38
504.16	28008.38
504.934	28290.38
505.707	28357.38
506.48	28362.38
507.253	28166.38
508.027	27758.38
508.8	27352.38
509.573	26757.38
510.346	26029.38
511.118	25165.38
511.891	24251.38
512.664	23344.38
513.437	22392.38
514.209	21430.38
514.982	20491.38
515.754	19568.38
516.526	18648.38
517.298	17866.38
518.071	17117.38
518.843	16439.38
519.615	15772.38
520.387	15192.38
521.159	14537.38
521.93	13997.38
522.702	13418.38
523.474	12920.38
524.245	12263.38
525.017	11791.38
525.788	11335.38
526.56	10785.38
527.331	10277.38
528.102	9810.38
528.873	9322.38
529.644	8825.38
530.415	8435.38
531.186	7990.38
531.957	7577.38
532.728	7185.38
533.498	6758.38
534.269	6398.38
535.039	6026.38
535.81	5696.38
536.58	5366.38
537.351	5056.38
538.121	4769.38
538.891	4558.38
539.661	4291.38
540.431	4035.38
541.201	3800.38
541.971	3618.38
542.741	3455.38
543.51	3263.38
544.28	3090.38
545.05	2954.38
545.819	2798.38
546.588	2689.38
547.358	2551.38
548.127	2410.38
548.896	2258.38
549.665	2163.38
550.434	2060.38
551.203	1948.38
551.972	1833.38
552.741	1727.38
553.51	1635.38
554.278	1542.38
555.047	1459.38
555.815	1363.38
556.584	1293.38
557.352	1224.38
558.121	1156.38
558.889	1094.38
559.657	1034.38
560.425	977.38
561.193	917.38
561.961	858.38
562.729	816.38
563.496	774.38
564.264	729.38
565.032	687.38
565.799	667.38
566.567	613.38
567.334	571.38
568.101	550.38
568.869	521.38
569.636	494.38
570.403	454.38
571.17	430.38
571.937	406.38
572.704	388.38
573.471	366.38
574.237	341.38
575.004	327.38
575.771	306.38
576.537	289.38
577.303	269.38
578.07	252.38
578.836	241.38
579.602	227.38
580.368	211.38
581.134	203.38
581.9	187.38
582.666	184.38
583.432	173.38
584.198	167.38
584.964	153.38
585.729	144.38
586.495	139.38
587.26	130.38
588.025	126.38
588.791	121.38
589.556	112.38
590.321	101.38
591.086	99.38
591.851	98.38
592.616	92.38
593.381	89.38
594.146	81.38
594.911	78.38
595.675	75.38
596.44	75.38
597.204	69.38
597.969	67.38
598.733	62.38
599.497	60.38
600.261	61.38
601.025	52.38
601.79	54.38
602.553	49.38
603.317	46.38
604.081	46.38
604.845	44.38
605.609	43.38
606.372	40.38
607.136	37.38
607.899	38.38
608.662	37.38
609.426	33.38
610.189	34.38
610.952	32.38
611.715	27.38
612.478	31.38
613.241	29.38
614.004	27.38
614.767	26.38
615.529	24.38
616.292	24.38
617.055	21.38
617.817	24.38
618.579	23.38
619.342	19.38
620.104	22.38
620.866	19.38
621.628	17.38
622.39	18.38
623.152	18.38
623.914	17.38
624.676	15.38
625.438	18.38
626.199	15.38
626.961	15.38
627.722	15.38
628.484	13.38
629.245	15.38
630.006	14.38
630.768	13.38
631.529	11.38
632.29	11.38
633.051	10.38
633.812	11.38
634.573	11.38
635.333	11.38
636.094	8.38
636.855	11.38
637.615	10.38
638.376	9.38
639.136	11.38
639.896	9.38
640.657	11.38
641.417	10.38
642.177	7.38
642.937	9.38
643.697	10.38
644.457	6.38
645.216	6.38
645.976	9.38
646.736	5.38
647.495	9.38
648.255	9.38
649.014	9.38
649.774	7.38
650.533	7.38
651.292	6.38
652.051	5.38
652.81	7.38
653.569	6.38
654.328	5.38
655.087	6.38
655.846	8.38
656.604	7.38
657.363	5.38
658.121	5.38
658.88	8.38
659.638	6.38
660.397	7.38
661.155	5.38
661.913	8.38
662.671	4.38
663.429	4.38
664.187	6.38
664.945	6.38
665.703	4.38
666.46	5.38
667.218	6.38
667.976	5.38
668.733	2.38
669.49	4.38
670.248	4.38
671.005	6.38
671.762	6.38
672.519	5.38
673.276	4.38
674.033	4.38
674.79	4.38
675.547	4.38
676.304	4.38
677.06	1.38
677.817	4.38
678.574	3.38
679.33	1.38
680.086	1.38
680.843	5.38
681.599	3.38
682.355	3.38
683.111	3.38
683.867	5.38
684.623	3.38
685.379	3.38
686.135	2.38
686.89	6.38
687.646	4.38
688.402	3.38
689.157	4.38
689.912	2.38
690.668	2.38
691.423	3.38
692.178	5.38
692.933	4.38
693.688	3.38
694.443	4.38
695.198	3.38
695.953	5.38
696.708	3.38
697.462	6.38
698.217	3.38
698.972	4.38
699.726	1.38
700.48	5.38
701.235	3.38
701.989	5.38
702.743	2.38
703.497	6.38
704.251	3.38
705.005	2.38
705.759	4.38
706.513	4.38
707.266	4.38
708.02	5.38
708.774	3.38
709.527	2.38
710.28	2.38
711.034	2.38
711.787	3.38
712.54	4.38
713.293	2.38
714.046	3.38
714.799	5.38
715.552	1.38
716.305	5.38
717.058	4.38
717.81	5.38
718.563	4.38
719.315	3.38
720.068	1.38
720.82	4.38
721.573	4.38
722.325	5.38
723.077	5.38
723.829	3.38
724.581	4.38
725.333	5.38
726.085	0.38
726.836	4.38
727.588	4.38
728.34	3.38
729.091	5.38
729.843	1.38
730.594	6.38
731.346	2.38
732.097	3.38
732.848	4.38
733.599	3.38
734.35	5.38
735.101	4.38
735.852	6.38
736.603	4.38
737.354	4.38
738.104	5.38
738.855	4.38
739.605	5.38
740.356	5.38
741.106	7.38
741.856	5.38
742.607	2.38
743.357	3.38
744.107	3.38
744.857	3.38
745.607	4.38
746.357	2.38
747.106	3.38
747.856	4.38
748.606	5.38
749.355	4.38
750.105	5.38
750.854	5.38
751.603	3.38
752.353	5.38
753.102	4.38
753.851	4.38
754.6	3.38
755.349	5.38
756.098	6.38
756.847	3.38
757.595	5.38
758.344	5.38
759.093	7.38
759.841	6.38
760.589	6.38
761.338	5.38
762.086	5.38
762.834	5.38
763.582	3.38
764.331	6.38
765.079	7.38
765.826	6.38
766.574	7.38
767.322	7.38
768.07	8.38
768.817	8.38
769.565	7.38
770.312	9.38
771.06	7.38
771.807	9.38
772.554	7.38
773.302	10.38
774.049	7.38
774.796	9.38
775.543	10.38
776.29	7.38
777.036	12.38
777.783	7.38
778.53	7.38
779.276	8.38
780.023	8.38
780.769	9.38
781.516	9.38
782.262	9.38
783.008	9.38
783.754	7.38
784.5	10.38
785.246	7.38
785.992	10.38
786.738	7.38
787.484	11.38
788.23	10.38
788.975	10.38
789.721	11.38
790.466	10.38
791.212	8.38
791.957	10.38
792.702	6.38
793.447	9.38
794.193	8.38
794.938	9.38
795.683	7.38
796.427	9.38
797.172	8.38
797.917	8.38
798.662	6.38
799.406	8.38
800.151	7.38
800.895	7.38
801.64	7.38
802.384	6.38
803.128	5.38
803.872	7.38
804.616	7.38
805.36	7.38
806.104	4.38
806.848	9.38
807.592	7.38
808.336	7.38
809.079	6.38
809.823	6.38
810.566	6.38
811.31	8.38
812.053	4.38
812.796	6.38
813.539	3.38
814.283	5.38
815.026	3.38
815.769	6.38
816.511	4.38
817.254	4.38
817.997	4.38
818.74	5.38
819.482	5.38
820.225	5.38
820.967	3.38
821.71	2.38
822.452	6.38
823.194	5.38
823.936	3.38
824.678	4.38
825.42	4.38
826.162	3.38
826.904	3.38
827.646	4.38
828.388	6.38
829.129	3.38
829.871	3.38
830.612	3.38
831.354	3.38
832.095	3.38
832.836	3.38
833.577	5.38
834.319	2.38
835.06	3.38
835.801	4.38
836.542	5.38
837.282	2.38
838.023	2.38
838.764	2.38
839.504	3.38
840.245	3.38
840.985	3.38
841.726	2.38
842.466	4.38
843.206	3.38
843.946	0.38
844.687	2.38
845.427	2.38
846.166	2.38
846.906	2.38
847.646	3.38
848.386	2.38
849.125	1.38
849.865	4.38
850.605	3.38
851.344	5.38
852.083	1.38
852.823	5.38
853.562	3.38
854.301	3.38
855.04	4.38
855.779	3.38
856.518	2.38
857.257	3.38
857.995	-0.62
858.734	4.38
859.473	3.38
860.211	6.38
860.95	2.38
861.688	1.38
862.426	0.38
863.165	2.38
863.903	2.38
864.641	1.38
865.379	3.38
866.117	2.38
866.855	0.38
867.593	2.38
868.33	0.38
869.068	2.38
869.806	1.38
870.543	1.38
871.28	0.38
872.018	-1.62
872.755	3.38
873.492	1.38
874.229	-0.62
874.967	1.38
875.703	-1.62
876.44	2.38
877.177	0.38
877.914	1.38
878.651	2.38
879.387	0.38
880.124	-0.62
880.86	1.38
881.597	1.38
882.333	1.38
883.069	-0.62
883.806	0.38
884.542	0.38
885.278	2.38
886.014	0.38
886.749	2.38
887.485	1.38
888.221	0.38
888.957	1.38
889.692	2.38
890.428	2.38
891.163	0.38
891.899	0.38
892.634	2.38
893.369	1.38
894.104	0.38
894.839	0.38
895.574	1.38
896.309	1.38
897.044	1.38
897.779	4.38
898.514	2.38
899.248	1.38
899.983	-1.62
900.717	0.38
901.452	2.38
902.186	0.38
902.92	1.38
903.654	0.38
904.389	1.38
905.123	0.38
905.857	-1.62
906.59	1.38
907.324	-0.62
908.058	1.38
908.792	1.38
909.525	-0.62
910.259	0.38
910.992	1.38
911.726	1.38
912.459	1.38
913.192	-0.62
913.925	-0.62
914.658	2.38
915.391	1.38
916.124	1.38
916.857	1.38
917.59	0.38
918.323	0.38
919.055	-0.62
919.788	-0.62
920.521	0.38
921.253	0.38
921.985	-0.62
922.718	-0.62
923.45	1.38
924.182	0.38
924.914	-0.62
925.646	0.38
926.378	1.38
927.11	-0.62
927.841	1.38
928.573	0.38
929.305	1.38
930.036	2.38
930.768	1.38
931.499	1.38
932.23	-1.62
932.962	0.38
933.693	1.38
934.424	0.38
935.155	-0.62
935.886	0.38
936.617	0.38
937.348	1.38
938.078	0.38
938.809	-0.62
939.54	-1.62
940.27	1.38
941.001	1.38
941.731	1.38
942.461	-2.62
943.191	2.38
943.922	0.38
944.652	0.38
945.382	-1.62
946.112	1.38
946.841	4.38
947.571	1.38
948.301	0.38
949.031	-0.62
949.76	2.38
950.49	-0.62
951.219	-1.62
951.948	-0.62
952.678	-0.62
953.407	0.38
954.136	-1.62
954.865	0.38
955.594	2.38
956.323	2.38
957.052	1.38
957.78	2.38
958.509	1.38
959.238	1.38
959.966	-0.62
960.695	0.38
961.423	-1.62
962.151	1.38
962.88	-0.62
963.608	-0.62
964.336	-0.62
965.064	1.38
965.792	-0.62
966.52	-1.62
967.247	0.38
967.975	-1.62
968.703	-1.62
969.43	-0.62
970.158	0.38
970.885	2.38
971.613	0.38
972.34	1.38
973.067	-1.62
973.794	-0.62
974.521	0.38
975.248	-0.62
975.975	2.38
976.702	0.38
977.429	1.38
978.156	0.38
978.882	-3.62
979.609	2.38
980.335	-1.62
981.062	-1.62
981.788	1.38
982.514	0.38
983.24	0.38
983.967	-0.62
984.693	1.38
985.419	1.38
986.144	0.38
986.87	-0.62
987.596	0.38
988.322	0.38
989.047	-0.62
989.773	-1.62
990.498	0.38
991.224	-0.62
991.949	2.38
992.674	0.38
993.399	-0.62
994.124	1.38
994.849	0.38
995.574	-0.62
996.299	-0.62
997.024	0.38
997.749	1.38
998.473	-1.62
999.198	-1.62
999.922	2.38
1000.647	-0.62
1001.371	2.38
1002.095	-0.62
1002.82	0.38
1003.544	-1.62
1004.268	1.38
1004.992	-0.62
1005.716	1.38
1006.439	2.38
1007.163	2.38
1007.887	1.38
1008.611	-0.62
1009.334	0.38
1010.058	0.38
1010.781	-0.62
1011.504	1.38
1012.228	-1.62
1012.951	0.38
1013.674	-0.62
1014.397	-0.62
1015.12	0.38
