节点500_285_QEPB04081__431__15-02-43-542.txt的数据

Date: Wed Nov 12 15:02:43 CST 2025
User: PC
Spectrometer: QEPB0408
触发模式: 0
积分时间 (秒): 1.000000E-2
Scans to average: 1
启用暗噪声校正: true
启用非线性校正: false
滑动平均宽度: 0
X轴模式: Wavelengths
Number of Pixels in Spectrum: 1044
>>>>>Begin Spectral Data<<<<<
220.843	2.38
221.644	2.38
222.444	-0.62
223.244	2.38
224.045	3.38
224.845	2.38
225.645	0.38
226.445	4.38
227.245	0.38
228.045	2.38
228.845	5.38
229.645	3.38
230.444	1.38
231.244	2.38
232.043	4.38
232.843	4.38
233.642	2.38
234.442	5.38
235.241	5.38
236.04	3.38
236.839	3.38
237.638	2.38
238.437	7.38
239.236	3.38
240.035	5.38
240.833	5.38
241.632	2.38
242.43	3.38
243.229	3.38
244.027	5.38
244.826	3.38
245.624	6.38
246.422	5.38
247.22	8.38
248.018	7.38
248.816	6.38
249.614	7.38
250.412	6.38
251.21	6.38
252.007	7.38
252.805	7.38
253.602	9.38
254.4	7.38
255.197	7.38
255.994	6.38
256.791	7.38
257.589	13.38
258.386	9.38
259.183	10.38
259.979	9.38
260.776	6.38
261.573	9.38
262.37	8.38
263.166	12.38
263.963	10.38
264.759	13.38
265.556	10.38
266.352	12.38
267.148	10.38
267.944	13.38
268.74	14.38
269.536	13.38
270.332	15.38
271.128	14.38
271.924	12.38
272.719	18.38
273.515	16.38
274.311	15.38
275.106	17.38
275.901	17.38
276.697	14.38
277.492	15.38
278.287	18.38
279.082	17.38
279.877	19.38
280.672	18.38
281.467	17.38
282.262	20.38
283.056	20.38
283.851	17.38
284.646	18.38
285.44	18.38
286.234	21.38
287.029	17.38
287.823	21.38
288.617	20.38
289.411	20.38
290.205	18.38
290.999	18.38
291.793	18.38
292.587	18.38
293.381	18.38
294.174	19.38
294.968	20.38
295.761	15.38
296.555	16.38
297.348	15.38
298.141	14.38
298.935	18.38
299.728	14.38
300.521	14.38
301.314	14.38
302.107	16.38
302.899	14.38
303.692	11.38
304.485	17.38
305.277	13.38
306.07	12.38
306.862	13.38
307.655	14.38
308.447	13.38
309.239	14.38
310.031	12.38
310.823	10.38
311.615	9.38
312.407	10.38
313.199	9.38
313.991	9.38
314.783	10.38
315.574	9.38
316.366	9.38
317.157	7.38
317.949	10.38
318.74	10.38
319.531	8.38
320.322	7.38
321.113	8.38
321.904	7.38
322.695	6.38
323.486	9.38
324.277	6.38
325.068	8.38
325.858	6.38
326.649	5.38
327.439	7.38
328.23	7.38
329.02	8.38
329.81	8.38
330.6	5.38
331.391	9.38
332.181	6.38
332.971	7.38
333.76	6.38
334.55	6.38
335.34	9.38
336.13	5.38
336.919	7.38
337.709	6.38
338.498	5.38
339.287	8.38
340.077	8.38
340.866	7.38
341.655	5.38
342.444	6.38
343.233	6.38
344.022	9.38
344.811	6.38
345.6	5.38
346.388	6.38
347.177	5.38
347.965	5.38
348.754	7.38
349.542	6.38
350.33	8.38
351.119	5.38
351.907	6.38
352.695	6.38
353.483	8.38
354.271	6.38
355.059	5.38
355.846	5.38
356.634	5.38
357.422	7.38
358.209	3.38
358.997	6.38
359.784	6.38
360.571	4.38
361.359	6.38
362.146	4.38
362.933	6.38
363.72	7.38
364.507	5.38
365.294	7.38
366.081	7.38
366.867	5.38
367.654	3.38
368.44	5.38
369.227	5.38
370.013	4.38
370.8	2.38
371.586	5.38
372.372	5.38
373.158	2.38
373.944	7.38
374.73	4.38
375.516	4.38
376.302	6.38
377.088	5.38
377.873	8.38
378.659	3.38
379.445	5.38
380.23	7.38
381.015	7.38
381.801	5.38
382.586	5.38
383.371	6.38
384.156	6.38
384.941	5.38
385.726	6.38
386.511	6.38
387.296	5.38
388.08	6.38
388.865	6.38
389.649	7.38
390.434	5.38
391.218	7.38
392.003	5.38
392.787	6.38
393.571	5.38
394.355	6.38
395.139	7.38
395.923	5.38
396.707	6.38
397.491	5.38
398.274	5.38
399.058	8.38
399.842	5.38
400.625	8.38
401.408	7.38
402.192	8.38
402.975	6.38
403.758	8.38
404.541	9.38
405.324	8.38
406.107	8.38
406.89	6.38
407.673	7.38
408.456	7.38
409.238	7.38
410.021	10.38
410.803	9.38
411.586	9.38
412.368	7.38
413.151	9.38
413.933	9.38
414.715	9.38
415.497	7.38
416.279	9.38
417.061	10.38
417.843	9.38
418.624	10.38
419.406	8.38
420.188	7.38
420.969	10.38
421.751	12.38
422.532	11.38
423.313	13.38
424.095	13.38
424.876	12.38
425.657	12.38
426.438	13.38
427.219	12.38
428	11.38
428.78	15.38
429.561	13.38
430.342	16.38
431.122	12.38
431.903	15.38
432.683	16.38
433.464	15.38
434.244	14.38
435.024	14.38
435.804	17.38
436.584	19.38
437.364	19.38
438.144	20.38
438.924	22.38
439.704	20.38
440.483	21.38
441.263	24.38
442.042	26.38
442.822	30.38
443.601	29.38
444.38	27.38
445.16	32.38
445.939	38.38
446.718	40.38
447.497	39.38
448.276	43.38
449.054	46.38
449.833	49.38
450.612	53.38
451.391	57.38
452.169	64.38
452.948	71.38
453.726	74.38
454.504	82.38
455.282	90.38
456.061	102.38
456.839	112.38
457.617	124.38
458.395	137.38
459.172	155.38
459.95	171.38
460.728	187.38
461.506	209.38
462.283	237.38
463.061	269.38
463.838	290.38
464.615	326.38
465.393	370.38
466.17	414.38
466.947	464.38
467.724	513.38
468.501	565.38
469.278	630.38
470.055	695.38
470.831	785.38
471.608	863.38
472.385	976.38
473.161	1057.38
473.938	1168.38
474.714	1295.38
475.49	1440.38
476.266	1581.38
477.043	1744.38
477.819	1939.38
478.595	2127.38
479.371	2358.38
480.146	2593.38
480.922	2848.38
481.698	3139.38
482.473	3446.38
483.249	3780.38
484.024	4161.38
484.8	4562.38
485.575	5015.38
486.35	5506.38
487.126	6038.38
487.901	6590.38
488.676	7217.38
489.451	7903.38
490.225	8614.38
491	9402.38
491.775	10298.38
492.55	11177.38
493.324	12107.38
494.099	13037.38
494.873	14040.38
495.647	15161.38
496.422	16284.38
497.196	17415.38
497.97	18617.38
498.744	19754.38
499.518	20841.38
500.292	22017.38
501.066	23058.38
501.839	24058.38
502.613	24929.38
503.387	25655.38
504.16	26386.38
504.934	26742.38
505.707	26891.38
506.48	27045.38
507.253	27041.38
508.027	26786.38
508.8	26502.38
509.573	26168.38
510.346	25581.38
511.118	24828.38
511.891	24173.38
512.664	23336.38
513.437	22533.38
514.209	21568.38
514.982	20730.38
515.754	19816.38
516.526	18965.38
517.298	18158.38
518.071	17380.38
518.843	16649.38
519.615	16043.38
520.387	15426.38
521.159	14833.38
521.93	14265.38
522.702	13641.38
523.474	13099.38
524.245	12528.38
525.017	11985.38
525.788	11557.38
526.56	10996.38
527.331	10477.38
528.102	10014.38
528.873	9550.38
529.644	9095.38
530.415	8707.38
531.186	8268.38
531.957	7804.38
532.728	7412.38
533.498	7042.38
534.269	6667.38
535.039	6289.38
535.81	5958.38
536.58	5593.38
537.351	5265.38
538.121	5026.38
538.891	4719.38
539.661	4462.38
540.431	4216.38
541.201	3991.38
541.971	3775.38
542.741	3577.38
543.51	3429.38
544.28	3238.38
545.05	3083.38
545.819	2922.38
546.588	2776.38
547.358	2642.38
548.127	2517.38
548.896	2390.38
549.665	2258.38
550.434	2145.38
551.203	2033.38
551.972	1948.38
552.741	1807.38
553.51	1731.38
554.278	1624.38
555.047	1533.38
555.815	1453.38
556.584	1360.38
557.352	1296.38
558.121	1229.38
558.889	1153.38
559.657	1075.38
560.425	1038.38
561.193	955.38
561.961	902.38
562.729	868.38
563.496	812.38
564.264	769.38
565.032	737.38
565.799	689.38
566.567	653.38
567.334	609.38
568.101	583.38
568.869	553.38
569.636	513.38
570.403	488.38
571.17	455.38
571.937	437.38
572.704	408.38
573.471	397.38
574.237	369.38
575.004	343.38
575.771	321.38
576.537	305.38
577.303	286.38
578.07	270.38
578.836	251.38
579.602	235.38
580.368	227.38
581.134	211.38
581.9	208.38
582.666	192.38
583.432	188.38
584.198	177.38
584.964	164.38
585.729	154.38
586.495	151.38
587.26	141.38
588.025	128.38
588.791	124.38
589.556	118.38
590.321	111.38
591.086	106.38
591.851	102.38
592.616	103.38
593.381	95.38
594.146	91.38
594.911	83.38
595.675	82.38
596.44	80.38
597.204	70.38
597.969	71.38
598.733	67.38
599.497	66.38
600.261	62.38
601.025	59.38
601.79	51.38
602.553	51.38
603.317	52.38
604.081	51.38
604.845	44.38
605.609	46.38
606.372	42.38
607.136	43.38
607.899	39.38
608.662	40.38
609.426	37.38
610.189	35.38
610.952	33.38
611.715	32.38
612.478	31.38
613.241	31.38
614.004	31.38
614.767	25.38
615.529	27.38
616.292	25.38
617.055	23.38
617.817	23.38
618.579	22.38
619.342	21.38
620.104	23.38
620.866	22.38
621.628	23.38
622.39	18.38
623.152	19.38
623.914	17.38
624.676	20.38
625.438	14.38
626.199	17.38
626.961	16.38
627.722	14.38
628.484	15.38
629.245	12.38
630.006	13.38
630.768	13.38
631.529	16.38
632.29	13.38
633.051	12.38
633.812	13.38
634.573	12.38
635.333	12.38
636.094	13.38
636.855	13.38
637.615	9.38
638.376	9.38
639.136	10.38
639.896	11.38
640.657	10.38
641.417	10.38
642.177	7.38
642.937	10.38
643.697	8.38
644.457	11.38
645.216	9.38
645.976	7.38
646.736	8.38
647.495	6.38
648.255	8.38
649.014	8.38
649.774	7.38
650.533	8.38
651.292	7.38
652.051	7.38
652.81	6.38
653.569	6.38
654.328	8.38
655.087	5.38
655.846	8.38
656.604	7.38
657.363	7.38
658.121	5.38
658.88	7.38
659.638	6.38
660.397	7.38
661.155	6.38
661.913	5.38
662.671	6.38
663.429	8.38
664.187	3.38
664.945	6.38
665.703	4.38
666.46	6.38
667.218	5.38
667.976	5.38
668.733	6.38
669.49	6.38
670.248	3.38
671.005	5.38
671.762	5.38
672.519	4.38
673.276	7.38
674.033	4.38
674.79	5.38
675.547	4.38
676.304	6.38
677.06	3.38
677.817	5.38
678.574	5.38
679.33	6.38
680.086	4.38
680.843	7.38
681.599	3.38
682.355	5.38
683.111	6.38
683.867	4.38
684.623	4.38
685.379	2.38
686.135	5.38
686.89	5.38
687.646	2.38
688.402	6.38
689.157	3.38
689.912	6.38
690.668	5.38
691.423	4.38
692.178	1.38
692.933	5.38
693.688	5.38
694.443	4.38
695.198	3.38
695.953	3.38
696.708	5.38
697.462	4.38
698.217	5.38
698.972	4.38
699.726	1.38
700.48	6.38
701.235	5.38
701.989	3.38
702.743	6.38
703.497	4.38
704.251	4.38
705.005	5.38
705.759	6.38
706.513	1.38
707.266	4.38
708.02	6.38
708.774	6.38
709.527	4.38
710.28	1.38
711.034	4.38
711.787	1.38
712.54	5.38
713.293	3.38
714.046	5.38
714.799	4.38
715.552	4.38
716.305	3.38
717.058	3.38
717.81	2.38
718.563	4.38
719.315	4.38
720.068	7.38
720.82	3.38
721.573	4.38
722.325	3.38
723.077	2.38
723.829	4.38
724.581	2.38
725.333	2.38
726.085	3.38
726.836	4.38
727.588	5.38
728.34	3.38
729.091	6.38
729.843	5.38
730.594	6.38
731.346	3.38
732.097	5.38
732.848	4.38
733.599	4.38
734.35	4.38
735.101	4.38
735.852	5.38
736.603	4.38
737.354	4.38
738.104	8.38
738.855	4.38
739.605	8.38
740.356	3.38
741.106	4.38
741.856	7.38
742.607	5.38
743.357	6.38
744.107	6.38
744.857	6.38
745.607	5.38
746.357	4.38
747.106	6.38
747.856	3.38
748.606	6.38
749.355	5.38
750.105	5.38
750.854	5.38
751.603	6.38
752.353	7.38
753.102	5.38
753.851	5.38
754.6	6.38
755.349	8.38
756.098	5.38
756.847	5.38
757.595	5.38
758.344	5.38
759.093	7.38
759.841	4.38
760.589	6.38
761.338	6.38
762.086	6.38
762.834	5.38
763.582	6.38
764.331	8.38
765.079	7.38
765.826	9.38
766.574	9.38
767.322	6.38
768.07	7.38
768.817	9.38
769.565	8.38
770.312	7.38
771.06	9.38
771.807	8.38
772.554	8.38
773.302	11.38
774.049	6.38
774.796	8.38
775.543	9.38
776.29	6.38
777.036	9.38
777.783	9.38
778.53	8.38
779.276	10.38
780.023	8.38
780.769	11.38
781.516	7.38
782.262	10.38
783.008	10.38
783.754	7.38
784.5	9.38
785.246	7.38
785.992	8.38
786.738	9.38
787.484	8.38
788.23	12.38
788.975	9.38
789.721	10.38
790.466	10.38
791.212	8.38
791.957	10.38
792.702	7.38
793.447	8.38
794.193	9.38
794.938	8.38
795.683	8.38
796.427	7.38
797.172	9.38
797.917	9.38
798.662	10.38
799.406	5.38
800.151	8.38
800.895	7.38
801.64	7.38
802.384	8.38
803.128	5.38
803.872	6.38
804.616	7.38
805.36	2.38
806.104	6.38
806.848	6.38
807.592	5.38
808.336	2.38
809.079	6.38
809.823	6.38
810.566	7.38
811.31	6.38
812.053	8.38
812.796	7.38
813.539	6.38
814.283	6.38
815.026	6.38
815.769	6.38
816.511	3.38
817.254	6.38
817.997	4.38
818.74	2.38
819.482	3.38
820.225	4.38
820.967	4.38
821.71	4.38
822.452	4.38
823.194	4.38
823.936	6.38
824.678	5.38
825.42	5.38
826.162	6.38
826.904	3.38
827.646	6.38
828.388	4.38
829.129	4.38
829.871	4.38
830.612	4.38
831.354	2.38
832.095	2.38
832.836	4.38
833.577	5.38
834.319	4.38
835.06	5.38
835.801	4.38
836.542	4.38
837.282	2.38
838.023	2.38
838.764	5.38
839.504	3.38
840.245	4.38
840.985	3.38
841.726	3.38
842.466	4.38
843.206	1.38
843.946	4.38
844.687	2.38
845.427	5.38
846.166	0.38
846.906	2.38
847.646	2.38
848.386	2.38
849.125	5.38
849.865	6.38
850.605	5.38
851.344	4.38
852.083	2.38
852.823	2.38
853.562	3.38
854.301	3.38
855.04	3.38
855.779	5.38
856.518	4.38
857.257	1.38
857.995	4.38
858.734	2.38
859.473	3.38
860.211	4.38
860.95	3.38
861.688	1.38
862.426	3.38
863.165	4.38
863.903	2.38
864.641	0.38
865.379	1.38
866.117	2.38
866.855	4.38
867.593	4.38
868.33	1.38
869.068	3.38
869.806	0.38
870.543	2.38
871.28	1.38
872.018	4.38
872.755	3.38
873.492	1.38
874.229	0.38
874.967	4.38
875.703	1.38
876.44	4.38
877.177	1.38
877.914	1.38
878.651	1.38
879.387	2.38
880.124	1.38
880.86	2.38
881.597	1.38
882.333	1.38
883.069	2.38
883.806	0.38
884.542	0.38
885.278	1.38
886.014	0.38
886.749	0.38
887.485	1.38
888.221	1.38
888.957	2.38
889.692	2.38
890.428	0.38
891.163	0.38
891.899	2.38
892.634	0.38
893.369	1.38
894.104	1.38
894.839	2.38
895.574	2.38
896.309	0.38
897.044	3.38
897.779	-1.62
898.514	2.38
899.248	0.38
899.983	3.38
900.717	0.38
901.452	0.38
902.186	2.38
902.92	0.38
903.654	0.38
904.389	1.38
905.123	1.38
905.857	0.38
906.59	0.38
907.324	1.38
908.058	-0.62
908.792	1.38
909.525	0.38
910.259	1.38
910.992	1.38
911.726	-0.62
912.459	0.38
913.192	0.38
913.925	0.38
914.658	2.38
915.391	2.38
916.124	1.38
916.857	1.38
917.59	0.38
918.323	1.38
919.055	-0.62
919.788	2.38
920.521	0.38
921.253	1.38
921.985	-1.62
922.718	1.38
923.45	1.38
924.182	0.38
924.914	1.38
925.646	-0.62
926.378	0.38
927.11	3.38
927.841	3.38
928.573	-0.62
929.305	1.38
930.036	1.38
930.768	2.38
931.499	1.38
932.23	4.38
932.962	1.38
933.693	0.38
934.424	1.38
935.155	0.38
935.886	2.38
936.617	0.38
937.348	-1.62
938.078	0.38
938.809	0.38
939.54	0.38
940.27	2.38
941.001	1.38
941.731	1.38
942.461	0.38
943.191	-0.62
943.922	0.38
944.652	-0.62
945.382	-0.62
946.112	0.38
946.841	1.38
947.571	0.38
948.301	1.38
949.031	1.38
949.76	2.38
950.49	0.38
951.219	0.38
951.948	-0.62
952.678	1.38
953.407	0.38
954.136	0.38
954.865	0.38
955.594	1.38
956.323	1.38
957.052	1.38
957.78	2.38
958.509	0.38
959.238	2.38
959.966	1.38
960.695	-1.62
961.423	0.38
962.151	-1.62
962.88	-1.62
963.608	0.38
964.336	-0.62
965.064	2.38
965.792	2.38
966.52	2.38
967.247	1.38
967.975	2.38
968.703	1.38
969.43	1.38
970.158	1.38
970.885	-0.62
971.613	2.38
972.34	0.38
973.067	2.38
973.794	1.38
974.521	-0.62
975.248	2.38
975.975	-1.62
976.702	3.38
977.429	1.38
978.156	0.38
978.882	-0.62
979.609	0.38
980.335	0.38
981.062	-1.62
981.788	1.38
982.514	-1.62
983.24	1.38
983.967	0.38
984.693	-1.62
985.419	2.38
986.144	2.38
986.87	1.38
987.596	2.38
988.322	-0.62
989.047	0.38
989.773	0.38
990.498	0.38
991.224	-1.62
991.949	1.38
992.674	2.38
993.399	2.38
994.124	0.38
994.849	0.38
995.574	1.38
996.299	0.38
997.024	-0.62
997.749	0.38
998.473	1.38
999.198	0.38
999.922	0.38
1000.647	0.38
1001.371	2.38
1002.095	-1.62
1002.82	-1.62
1003.544	0.38
1004.268	0.38
1004.992	1.38
1005.716	0.38
1006.439	0.38
1007.163	2.38
1007.887	2.38
1008.611	1.38
1009.334	1.38
1010.058	0.38
1010.781	0.38
1011.504	1.38
1012.228	2.38
1012.951	-1.62
1013.674	-0.62
1014.397	3.38
1015.12	-0.62
