节点500_285_QEPB04081__440__15-02-52-546.txt的数据

Date: Wed Nov 12 15:02:52 CST 2025
User: PC
Spectrometer: QEPB0408
触发模式: 0
积分时间 (秒): 1.000000E-2
Scans to average: 1
启用暗噪声校正: true
启用非线性校正: false
滑动平均宽度: 0
X轴模式: Wavelengths
Number of Pixels in Spectrum: 1044
>>>>>Begin Spectral Data<<<<<
220.843	0.38
221.644	4.38
222.444	2.38
223.244	4.38
224.045	2.38
224.845	0.38
225.645	2.38
226.445	1.38
227.245	2.38
228.045	4.38
228.845	3.38
229.645	2.38
230.444	5.38
231.244	4.38
232.043	3.38
232.843	3.38
233.642	4.38
234.442	3.38
235.241	5.38
236.04	2.38
236.839	4.38
237.638	5.38
238.437	3.38
239.236	2.38
240.035	5.38
240.833	4.38
241.632	4.38
242.43	5.38
243.229	4.38
244.027	6.38
244.826	6.38
245.624	5.38
246.422	6.38
247.22	5.38
248.018	6.38
248.816	6.38
249.614	7.38
250.412	4.38
251.21	5.38
252.007	9.38
252.805	5.38
253.602	7.38
254.4	8.38
255.197	7.38
255.994	6.38
256.791	8.38
257.589	8.38
258.386	8.38
259.183	10.38
259.979	10.38
260.776	9.38
261.573	10.38
262.37	10.38
263.166	14.38
263.963	10.38
264.759	10.38
265.556	11.38
266.352	13.38
267.148	14.38
267.944	13.38
268.74	14.38
269.536	14.38
270.332	14.38
271.128	15.38
271.924	13.38
272.719	16.38
273.515	18.38
274.311	17.38
275.106	17.38
275.901	17.38
276.697	19.38
277.492	21.38
278.287	21.38
279.082	16.38
279.877	15.38
280.672	19.38
281.467	19.38
282.262	20.38
283.056	21.38
283.851	21.38
284.646	19.38
285.44	18.38
286.234	20.38
287.029	21.38
287.823	19.38
288.617	18.38
289.411	16.38
290.205	19.38
290.999	18.38
291.793	18.38
292.587	21.38
293.381	19.38
294.174	17.38
294.968	16.38
295.761	13.38
296.555	14.38
297.348	16.38
298.141	13.38
298.935	17.38
299.728	17.38
300.521	15.38
301.314	17.38
302.107	16.38
302.899	12.38
303.692	14.38
304.485	12.38
305.277	16.38
306.07	12.38
306.862	15.38
307.655	13.38
308.447	12.38
309.239	12.38
310.031	13.38
310.823	12.38
311.615	12.38
312.407	10.38
313.199	12.38
313.991	12.38
314.783	10.38
315.574	10.38
316.366	9.38
317.157	10.38
317.949	9.38
318.74	8.38
319.531	7.38
320.322	7.38
321.113	7.38
321.904	7.38
322.695	8.38
323.486	9.38
324.277	7.38
325.068	7.38
325.858	8.38
326.649	8.38
327.439	6.38
328.23	6.38
329.02	8.38
329.81	8.38
330.6	7.38
331.391	6.38
332.181	6.38
332.971	8.38
333.76	7.38
334.55	7.38
335.34	9.38
336.13	6.38
336.919	5.38
337.709	6.38
338.498	8.38
339.287	6.38
340.077	7.38
340.866	8.38
341.655	7.38
342.444	8.38
343.233	7.38
344.022	8.38
344.811	7.38
345.6	4.38
346.388	8.38
347.177	8.38
347.965	7.38
348.754	6.38
349.542	3.38
350.33	6.38
351.119	6.38
351.907	7.38
352.695	4.38
353.483	8.38
354.271	7.38
355.059	8.38
355.846	5.38
356.634	5.38
357.422	5.38
358.209	6.38
358.997	5.38
359.784	8.38
360.571	5.38
361.359	4.38
362.146	5.38
362.933	6.38
363.72	4.38
364.507	5.38
365.294	6.38
366.081	7.38
366.867	6.38
367.654	4.38
368.44	5.38
369.227	6.38
370.013	4.38
370.8	5.38
371.586	4.38
372.372	6.38
373.158	6.38
373.944	9.38
374.73	5.38
375.516	3.38
376.302	6.38
377.088	4.38
377.873	7.38
378.659	7.38
379.445	5.38
380.23	8.38
381.015	4.38
381.801	7.38
382.586	3.38
383.371	5.38
384.156	6.38
384.941	7.38
385.726	3.38
386.511	6.38
387.296	6.38
388.08	6.38
388.865	8.38
389.649	6.38
390.434	3.38
391.218	6.38
392.003	7.38
392.787	7.38
393.571	8.38
394.355	5.38
395.139	8.38
395.923	6.38
396.707	4.38
397.491	4.38
398.274	7.38
399.058	8.38
399.842	5.38
400.625	6.38
401.408	6.38
402.192	8.38
402.975	9.38
403.758	7.38
404.541	7.38
405.324	8.38
406.107	8.38
406.89	7.38
407.673	11.38
408.456	9.38
409.238	8.38
410.021	8.38
410.803	8.38
411.586	9.38
412.368	9.38
413.151	9.38
413.933	10.38
414.715	8.38
415.497	10.38
416.279	9.38
417.061	9.38
417.843	10.38
418.624	10.38
419.406	11.38
420.188	10.38
420.969	11.38
421.751	11.38
422.532	12.38
423.313	11.38
424.095	11.38
424.876	14.38
425.657	10.38
426.438	13.38
427.219	14.38
428	12.38
428.78	13.38
429.561	14.38
430.342	14.38
431.122	16.38
431.903	17.38
432.683	16.38
433.464	16.38
434.244	16.38
435.024	15.38
435.804	16.38
436.584	16.38
437.364	22.38
438.144	22.38
438.924	21.38
439.704	23.38
440.483	23.38
441.263	26.38
442.042	24.38
442.822	29.38
443.601	28.38
444.38	30.38
445.16	31.38
445.939	34.38
446.718	37.38
447.497	42.38
448.276	41.38
449.054	44.38
449.833	48.38
450.612	54.38
451.391	57.38
452.169	64.38
452.948	70.38
453.726	76.38
454.504	83.38
455.282	91.38
456.061	105.38
456.839	115.38
457.617	125.38
458.395	142.38
459.172	161.38
459.95	171.38
460.728	190.38
461.506	210.38
462.283	236.38
463.061	264.38
463.838	296.38
464.615	328.38
465.393	364.38
466.17	408.38
466.947	449.38
467.724	520.38
468.501	568.38
469.278	632.38
470.055	699.38
470.831	779.38
471.608	855.38
472.385	961.38
473.161	1063.38
473.938	1175.38
474.714	1297.38
475.49	1442.38
476.266	1599.38
477.043	1757.38
477.819	1930.38
478.595	2150.38
479.371	2357.38
480.146	2575.38
480.922	2844.38
481.698	3116.38
482.473	3447.38
483.249	3774.38
484.024	4158.38
484.8	4589.38
485.575	5009.38
486.35	5483.38
487.126	6034.38
487.901	6600.38
488.676	7206.38
489.451	7883.38
490.225	8615.38
491	9413.38
491.775	10273.38
492.55	11170.38
493.324	12104.38
494.099	13038.38
494.873	14040.38
495.647	15155.38
496.422	16237.38
497.196	17387.38
497.97	18515.38
498.744	19687.38
499.518	20922.38
500.292	21952.38
501.066	23036.38
501.839	23968.38
502.613	24866.38
503.387	25697.38
504.16	26296.38
504.934	26715.38
505.707	26923.38
506.48	27034.38
507.253	27067.38
508.027	26859.38
508.8	26471.38
509.573	26180.38
510.346	25587.38
511.118	24848.38
511.891	24152.38
512.664	23346.38
513.437	22534.38
514.209	21594.38
514.982	20759.38
515.754	19871.38
516.526	18978.38
517.298	18160.38
518.071	17373.38
518.843	16640.38
519.615	16054.38
520.387	15449.38
521.159	14854.38
521.93	14224.38
522.702	13644.38
523.474	13101.38
524.245	12545.38
525.017	11970.38
525.788	11595.38
526.56	11049.38
527.331	10532.38
528.102	10089.38
528.873	9586.38
529.644	9133.38
530.415	8724.38
531.186	8264.38
531.957	7793.38
532.728	7412.38
533.498	7052.38
534.269	6678.38
535.039	6303.38
535.81	5960.38
536.58	5616.38
537.351	5297.38
538.121	5027.38
538.891	4734.38
539.661	4511.38
540.431	4222.38
541.201	4016.38
541.971	3786.38
542.741	3575.38
543.51	3406.38
544.28	3227.38
545.05	3086.38
545.819	2946.38
546.588	2785.38
547.358	2657.38
548.127	2512.38
548.896	2391.38
549.665	2272.38
550.434	2160.38
551.203	2025.38
551.972	1945.38
552.741	1832.38
553.51	1718.38
554.278	1632.38
555.047	1525.38
555.815	1458.38
556.584	1370.38
557.352	1289.38
558.121	1221.38
558.889	1155.38
559.657	1088.38
560.425	1034.38
561.193	979.38
561.961	922.38
562.729	870.38
563.496	812.38
564.264	777.38
565.032	727.38
565.799	684.38
566.567	656.38
567.334	614.38
568.101	578.38
568.869	557.38
569.636	524.38
570.403	493.38
571.17	464.38
571.937	434.38
572.704	409.38
573.471	390.38
574.237	374.38
575.004	350.38
575.771	325.38
576.537	305.38
577.303	286.38
578.07	275.38
578.836	257.38
579.602	240.38
580.368	228.38
581.134	220.38
581.9	202.38
582.666	191.38
583.432	184.38
584.198	170.38
584.964	164.38
585.729	158.38
586.495	144.38
587.26	139.38
588.025	134.38
588.791	128.38
589.556	119.38
590.321	114.38
591.086	108.38
591.851	101.38
592.616	99.38
593.381	90.38
594.146	91.38
594.911	81.38
595.675	75.38
596.44	76.38
597.204	73.38
597.969	69.38
598.733	69.38
599.497	64.38
600.261	62.38
601.025	61.38
601.79	58.38
602.553	54.38
603.317	54.38
604.081	51.38
604.845	48.38
605.609	46.38
606.372	45.38
607.136	42.38
607.899	39.38
608.662	37.38
609.426	36.38
610.189	34.38
610.952	30.38
611.715	33.38
612.478	34.38
613.241	28.38
614.004	27.38
614.767	30.38
615.529	25.38
616.292	26.38
617.055	26.38
617.817	26.38
618.579	21.38
619.342	22.38
620.104	23.38
620.866	21.38
621.628	20.38
622.39	19.38
623.152	21.38
623.914	18.38
624.676	19.38
625.438	14.38
626.199	14.38
626.961	16.38
627.722	18.38
628.484	15.38
629.245	15.38
630.006	11.38
630.768	16.38
631.529	13.38
632.29	16.38
633.051	14.38
633.812	13.38
634.573	14.38
635.333	11.38
636.094	10.38
636.855	12.38
637.615	12.38
638.376	8.38
639.136	8.38
639.896	12.38
640.657	9.38
641.417	11.38
642.177	8.38
642.937	8.38
643.697	10.38
644.457	7.38
645.216	10.38
645.976	10.38
646.736	10.38
647.495	7.38
648.255	8.38
649.014	8.38
649.774	8.38
650.533	9.38
651.292	7.38
652.051	6.38
652.81	11.38
653.569	8.38
654.328	7.38
655.087	7.38
655.846	6.38
656.604	6.38
657.363	6.38
658.121	4.38
658.88	7.38
659.638	4.38
660.397	3.38
661.155	7.38
661.913	7.38
662.671	6.38
663.429	7.38
664.187	6.38
664.945	6.38
665.703	4.38
666.46	6.38
667.218	7.38
667.976	4.38
668.733	5.38
669.49	7.38
670.248	6.38
671.005	5.38
671.762	5.38
672.519	1.38
673.276	4.38
674.033	6.38
674.79	4.38
675.547	6.38
676.304	5.38
677.06	5.38
677.817	5.38
678.574	2.38
679.33	7.38
680.086	4.38
680.843	4.38
681.599	3.38
682.355	3.38
683.111	4.38
683.867	5.38
684.623	5.38
685.379	6.38
686.135	4.38
686.89	5.38
687.646	1.38
688.402	6.38
689.157	6.38
689.912	4.38
690.668	5.38
691.423	4.38
692.178	4.38
692.933	4.38
693.688	4.38
694.443	4.38
695.198	5.38
695.953	3.38
696.708	4.38
697.462	5.38
698.217	3.38
698.972	5.38
699.726	3.38
700.48	4.38
701.235	6.38
701.989	2.38
702.743	4.38
703.497	2.38
704.251	5.38
705.005	4.38
705.759	4.38
706.513	4.38
707.266	3.38
708.02	7.38
708.774	4.38
709.527	3.38
710.28	2.38
711.034	4.38
711.787	4.38
712.54	2.38
713.293	2.38
714.046	4.38
714.799	4.38
715.552	5.38
716.305	3.38
717.058	4.38
717.81	2.38
718.563	5.38
719.315	6.38
720.068	4.38
720.82	4.38
721.573	4.38
722.325	5.38
723.077	4.38
723.829	4.38
724.581	5.38
725.333	3.38
726.085	5.38
726.836	2.38
727.588	4.38
728.34	5.38
729.091	3.38
729.843	5.38
730.594	4.38
731.346	4.38
732.097	4.38
732.848	4.38
733.599	4.38
734.35	5.38
735.101	4.38
735.852	5.38
736.603	7.38
737.354	5.38
738.104	5.38
738.855	3.38
739.605	4.38
740.356	7.38
741.106	4.38
741.856	5.38
742.607	5.38
743.357	6.38
744.107	6.38
744.857	5.38
745.607	6.38
746.357	4.38
747.106	5.38
747.856	6.38
748.606	5.38
749.355	7.38
750.105	5.38
750.854	4.38
751.603	5.38
752.353	6.38
753.102	7.38
753.851	6.38
754.6	7.38
755.349	7.38
756.098	7.38
756.847	5.38
757.595	6.38
758.344	6.38
759.093	5.38
759.841	6.38
760.589	7.38
761.338	8.38
762.086	6.38
762.834	7.38
763.582	4.38
764.331	5.38
765.079	6.38
765.826	6.38
766.574	6.38
767.322	6.38
768.07	9.38
768.817	7.38
769.565	7.38
770.312	6.38
771.06	8.38
771.807	6.38
772.554	9.38
773.302	8.38
774.049	6.38
774.796	8.38
775.543	10.38
776.29	7.38
777.036	9.38
777.783	8.38
778.53	5.38
779.276	6.38
780.023	10.38
780.769	8.38
781.516	7.38
782.262	9.38
783.008	9.38
783.754	9.38
784.5	7.38
785.246	10.38
785.992	8.38
786.738	10.38
787.484	7.38
788.23	9.38
788.975	9.38
789.721	7.38
790.466	7.38
791.212	9.38
791.957	9.38
792.702	8.38
793.447	9.38
794.193	10.38
794.938	10.38
795.683	7.38
796.427	8.38
797.172	8.38
797.917	9.38
798.662	9.38
799.406	8.38
800.151	7.38
800.895	7.38
801.64	6.38
802.384	9.38
803.128	9.38
803.872	6.38
804.616	7.38
805.36	8.38
806.104	6.38
806.848	6.38
807.592	5.38
808.336	5.38
809.079	6.38
809.823	8.38
810.566	6.38
811.31	6.38
812.053	8.38
812.796	7.38
813.539	6.38
814.283	7.38
815.026	4.38
815.769	1.38
816.511	7.38
817.254	3.38
817.997	7.38
818.74	6.38
819.482	5.38
820.225	6.38
820.967	6.38
821.71	5.38
822.452	4.38
823.194	3.38
823.936	6.38
824.678	6.38
825.42	5.38
826.162	6.38
826.904	7.38
827.646	6.38
828.388	3.38
829.129	5.38
829.871	1.38
830.612	3.38
831.354	4.38
832.095	7.38
832.836	4.38
833.577	4.38
834.319	4.38
835.06	3.38
835.801	4.38
836.542	4.38
837.282	2.38
838.023	4.38
838.764	3.38
839.504	3.38
840.245	4.38
840.985	4.38
841.726	0.38
842.466	4.38
843.206	4.38
843.946	2.38
844.687	3.38
845.427	4.38
846.166	3.38
846.906	4.38
847.646	2.38
848.386	3.38
849.125	2.38
849.865	2.38
850.605	5.38
851.344	1.38
852.083	2.38
852.823	4.38
853.562	4.38
854.301	2.38
855.04	3.38
855.779	2.38
856.518	2.38
857.257	2.38
857.995	2.38
858.734	2.38
859.473	2.38
860.211	2.38
860.95	2.38
861.688	2.38
862.426	1.38
863.165	2.38
863.903	3.38
864.641	2.38
865.379	3.38
866.117	1.38
866.855	1.38
867.593	1.38
868.33	3.38
869.068	2.38
869.806	1.38
870.543	2.38
871.28	2.38
872.018	2.38
872.755	3.38
873.492	2.38
874.229	0.38
874.967	1.38
875.703	1.38
876.44	2.38
877.177	1.38
877.914	2.38
878.651	-0.62
879.387	2.38
880.124	2.38
880.86	2.38
881.597	2.38
882.333	0.38
883.069	0.38
883.806	1.38
884.542	2.38
885.278	0.38
886.014	2.38
886.749	2.38
887.485	2.38
888.221	1.38
888.957	2.38
889.692	0.38
890.428	2.38
891.163	0.38
891.899	1.38
892.634	0.38
893.369	2.38
894.104	0.38
894.839	0.38
895.574	1.38
896.309	2.38
897.044	0.38
897.779	1.38
898.514	2.38
899.248	3.38
899.983	1.38
900.717	1.38
901.452	0.38
902.186	-1.62
902.92	2.38
903.654	0.38
904.389	2.38
905.123	-0.62
905.857	2.38
906.59	1.38
907.324	3.38
908.058	1.38
908.792	2.38
909.525	1.38
910.259	0.38
910.992	3.38
911.726	2.38
912.459	0.38
913.192	1.38
913.925	0.38
914.658	3.38
915.391	3.38
916.124	2.38
916.857	1.38
917.59	1.38
918.323	-1.62
919.055	2.38
919.788	0.38
920.521	0.38
921.253	1.38
921.985	1.38
922.718	1.38
923.45	0.38
924.182	1.38
924.914	1.38
925.646	-0.62
926.378	1.38
927.11	-0.62
927.841	0.38
928.573	-0.62
929.305	1.38
930.036	1.38
930.768	0.38
931.499	1.38
932.23	0.38
932.962	1.38
933.693	2.38
934.424	0.38
935.155	-0.62
935.886	3.38
936.617	0.38
937.348	1.38
938.078	0.38
938.809	-1.62
939.54	0.38
940.27	2.38
941.001	-0.62
941.731	0.38
942.461	1.38
943.191	1.38
943.922	-0.62
944.652	1.38
945.382	1.38
946.112	2.38
946.841	2.38
947.571	1.38
948.301	0.38
949.031	1.38
949.76	-1.62
950.49	1.38
951.219	2.38
951.948	-0.62
952.678	2.38
953.407	-0.62
954.136	1.38
954.865	2.38
955.594	0.38
956.323	2.38
957.052	1.38
957.78	0.38
958.509	-0.62
959.238	0.38
959.966	1.38
960.695	-0.62
961.423	1.38
962.151	1.38
962.88	-1.62
963.608	2.38
964.336	-1.62
965.064	1.38
965.792	-0.62
966.52	0.38
967.247	-0.62
967.975	1.38
968.703	0.38
969.43	2.38
970.158	2.38
970.885	1.38
971.613	1.38
972.34	2.38
973.067	2.38
973.794	0.38
974.521	0.38
975.248	0.38
975.975	1.38
976.702	0.38
977.429	2.38
978.156	-0.62
978.882	1.38
979.609	-0.62
980.335	2.38
981.062	2.38
981.788	-0.62
982.514	1.38
983.24	1.38
983.967	2.38
984.693	1.38
985.419	3.38
986.144	-0.62
986.87	2.38
987.596	3.38
988.322	1.38
989.047	1.38
989.773	-0.62
990.498	-0.62
991.224	-0.62
991.949	0.38
992.674	-0.62
993.399	-1.62
994.124	3.38
994.849	0.38
995.574	0.38
996.299	1.38
997.024	-0.62
997.749	0.38
998.473	0.38
999.198	1.38
999.922	1.38
1000.647	0.38
1001.371	1.38
1002.095	-0.62
1002.82	-2.62
1003.544	1.38
1004.268	2.38
1004.992	-0.62
1005.716	2.38
1006.439	2.38
1007.163	1.38
1007.887	2.38
1008.611	-1.62
1009.334	-0.62
1010.058	-1.62
1010.781	-1.62
1011.504	1.38
1012.228	1.38
1012.951	-1.62
1013.674	2.38
1014.397	-0.62
1015.12	0.38
