节点500_285_QEPB04081__655__15-06-27-004.txt的数据

Date: Wed Nov 12 15:06:27 CST 2025
User: PC
Spectrometer: QEPB0408
触发模式: 0
积分时间 (秒): 1.000000E-2
Scans to average: 1
启用暗噪声校正: true
启用非线性校正: false
滑动平均宽度: 0
X轴模式: Wavelengths
Number of Pixels in Spectrum: 1044
>>>>>Begin Spectral Data<<<<<
220.843	0.75
221.644	2.75
222.444	1.75
223.244	1.75
224.045	3.75
224.845	0.75
225.645	1.75
226.445	-1.25
227.245	3.75
228.045	2.75
228.845	3.75
229.645	1.75
230.444	0.75
231.244	3.75
232.043	1.75
232.843	2.75
233.642	2.75
234.442	1.75
235.241	3.75
236.04	1.75
236.839	2.75
237.638	2.75
238.437	0.75
239.236	3.75
240.035	2.75
240.833	3.75
241.632	4.75
242.43	2.75
243.229	2.75
244.027	3.75
244.826	6.75
245.624	3.75
246.422	6.75
247.22	5.75
248.018	6.75
248.816	4.75
249.614	4.75
250.412	4.75
251.21	4.75
252.007	7.75
252.805	4.75
253.602	7.75
254.4	6.75
255.197	7.75
255.994	7.75
256.791	6.75
257.589	7.75
258.386	6.75
259.183	9.75
259.979	10.75
260.776	10.75
261.573	7.75
262.37	7.75
263.166	9.75
263.963	9.75
264.759	11.75
265.556	12.75
266.352	9.75
267.148	13.75
267.944	11.75
268.74	11.75
269.536	13.75
270.332	13.75
271.128	11.75
271.924	11.75
272.719	13.75
273.515	13.75
274.311	15.75
275.106	14.75
275.901	15.75
276.697	15.75
277.492	17.75
278.287	16.75
279.082	17.75
279.877	14.75
280.672	17.75
281.467	15.75
282.262	15.75
283.056	15.75
283.851	16.75
284.646	17.75
285.44	14.75
286.234	13.75
287.029	14.75
287.823	15.75
288.617	17.75
289.411	17.75
290.205	16.75
290.999	17.75
291.793	16.75
292.587	16.75
293.381	18.75
294.174	16.75
294.968	13.75
295.761	15.75
296.555	13.75
297.348	12.75
298.141	12.75
298.935	15.75
299.728	12.75
300.521	12.75
301.314	12.75
302.107	13.75
302.899	13.75
303.692	13.75
304.485	13.75
305.277	13.75
306.07	13.75
306.862	12.75
307.655	10.75
308.447	9.75
309.239	13.75
310.031	9.75
310.823	9.75
311.615	10.75
312.407	9.75
313.199	8.75
313.991	9.75
314.783	9.75
315.574	8.75
316.366	7.75
317.157	6.75
317.949	7.75
318.74	8.75
319.531	9.75
320.322	7.75
321.113	8.75
321.904	8.75
322.695	5.75
323.486	6.75
324.277	3.75
325.068	7.75
325.858	7.75
326.649	8.75
327.439	6.75
328.23	6.75
329.02	8.75
329.81	5.75
330.6	4.75
331.391	7.75
332.181	5.75
332.971	7.75
333.76	4.75
334.55	5.75
335.34	3.75
336.13	4.75
336.919	5.75
337.709	4.75
338.498	6.75
339.287	6.75
340.077	6.75
340.866	5.75
341.655	5.75
342.444	6.75
343.233	6.75
344.022	7.75
344.811	4.75
345.6	4.75
346.388	6.75
347.177	5.75
347.965	5.75
348.754	5.75
349.542	6.75
350.33	5.75
351.119	5.75
351.907	4.75
352.695	4.75
353.483	5.75
354.271	6.75
355.059	6.75
355.846	3.75
356.634	3.75
357.422	6.75
358.209	7.75
358.997	5.75
359.784	5.75
360.571	1.75
361.359	1.75
362.146	1.75
362.933	3.75
363.72	1.75
364.507	6.75
365.294	3.75
366.081	2.75
366.867	5.75
367.654	4.75
368.44	4.75
369.227	3.75
370.013	4.75
370.8	4.75
371.586	5.75
372.372	3.75
373.158	4.75
373.944	5.75
374.73	3.75
375.516	4.75
376.302	3.75
377.088	6.75
377.873	2.75
378.659	2.75
379.445	4.75
380.23	6.75
381.015	3.75
381.801	7.75
382.586	2.75
383.371	7.75
384.156	6.75
384.941	4.75
385.726	2.75
386.511	7.75
387.296	5.75
388.08	4.75
388.865	3.75
389.649	4.75
390.434	4.75
391.218	5.75
392.003	4.75
392.787	5.75
393.571	4.75
394.355	6.75
395.139	7.75
395.923	3.75
396.707	5.75
397.491	3.75
398.274	6.75
399.058	4.75
399.842	4.75
400.625	4.75
401.408	5.75
402.192	8.75
402.975	5.75
403.758	8.75
404.541	7.75
405.324	9.75
406.107	4.75
406.89	6.75
407.673	8.75
408.456	6.75
409.238	8.75
410.021	9.75
410.803	7.75
411.586	5.75
412.368	9.75
413.151	7.75
413.933	6.75
414.715	8.75
415.497	9.75
416.279	8.75
417.061	9.75
417.843	8.75
418.624	12.75
419.406	7.75
420.188	8.75
420.969	9.75
421.751	6.75
422.532	10.75
423.313	8.75
424.095	12.75
424.876	11.75
425.657	15.75
426.438	12.75
427.219	8.75
428	12.75
428.78	12.75
429.561	14.75
430.342	12.75
431.122	14.75
431.903	15.75
432.683	13.75
433.464	16.75
434.244	14.75
435.024	18.75
435.804	12.75
436.584	18.75
437.364	19.75
438.144	19.75
438.924	18.75
439.704	18.75
440.483	24.75
441.263	24.75
442.042	24.75
442.822	27.75
443.601	27.75
444.38	28.75
445.16	32.75
445.939	34.75
446.718	35.75
447.497	39.75
448.276	42.75
449.054	45.75
449.833	52.75
450.612	58.75
451.391	63.75
452.169	63.75
452.948	71.75
453.726	78.75
454.504	90.75
455.282	100.75
456.061	106.75
456.839	118.75
457.617	128.75
458.395	145.75
459.172	166.75
459.95	182.75
460.728	204.75
461.506	219.75
462.283	251.75
463.061	285.75
463.838	309.75
464.615	350.75
465.393	391.75
466.17	427.75
466.947	476.75
467.724	533.75
468.501	592.75
469.278	655.75
470.055	727.75
470.831	808.75
471.608	888.75
472.385	986.75
473.161	1084.75
473.938	1207.75
474.714	1321.75
475.49	1467.75
476.266	1610.75
477.043	1790.75
477.819	1949.75
478.595	2137.75
479.371	2365.75
480.146	2571.75
480.922	2802.75
481.698	3082.75
482.473	3356.75
483.249	3705.75
484.024	4061.75
484.8	4435.75
485.575	4841.75
486.35	5292.75
487.126	5757.75
487.901	6263.75
488.676	6881.75
489.451	7457.75
490.225	8092.75
491	8818.75
491.775	9630.75
492.55	10448.75
493.324	11281.75
494.099	12124.75
494.873	13036.75
495.647	14007.75
496.422	15038.75
497.196	16081.75
497.97	17172.75
498.744	18251.75
499.518	19304.75
500.292	20401.75
501.066	21399.75
501.839	22382.75
502.613	23188.75
503.387	24121.75
504.16	24750.75
504.934	25213.75
505.707	25520.75
506.48	25768.75
507.253	25797.75
508.027	25805.75
508.8	25690.75
509.573	25477.75
510.346	25009.75
511.118	24425.75
511.891	23823.75
512.664	23096.75
513.437	22450.75
514.209	21585.75
514.982	20778.75
515.754	19959.75
516.526	19105.75
517.298	18338.75
518.071	17591.75
518.843	16931.75
519.615	16268.75
520.387	15610.75
521.159	15001.75
521.93	14392.75
522.702	13802.75
523.474	13259.75
524.245	12711.75
525.017	12166.75
525.788	11726.75
526.56	11172.75
527.331	10671.75
528.102	10194.75
528.873	9772.75
529.644	9310.75
530.415	8924.75
531.186	8465.75
531.957	8070.75
532.728	7675.75
533.498	7269.75
534.269	6880.75
535.039	6492.75
535.81	6163.75
536.58	5797.75
537.351	5454.75
538.121	5177.75
538.891	4882.75
539.661	4655.75
540.431	4384.75
541.201	4170.75
541.971	3926.75
542.741	3760.75
543.51	3530.75
544.28	3367.75
545.05	3190.75
545.819	3065.75
546.588	2880.75
547.358	2731.75
548.127	2611.75
548.896	2519.75
549.665	2353.75
550.434	2259.75
551.203	2122.75
551.972	2032.75
552.741	1887.75
553.51	1786.75
554.278	1706.75
555.047	1606.75
555.815	1525.75
556.584	1441.75
557.352	1353.75
558.121	1288.75
558.889	1204.75
559.657	1151.75
560.425	1080.75
561.193	1009.75
561.961	952.75
562.729	915.75
563.496	857.75
564.264	818.75
565.032	758.75
565.799	723.75
566.567	684.75
567.334	645.75
568.101	621.75
568.869	572.75
569.636	538.75
570.403	513.75
571.17	481.75
571.937	454.75
572.704	435.75
573.471	404.75
574.237	382.75
575.004	357.75
575.771	349.75
576.537	320.75
577.303	302.75
578.07	285.75
578.836	273.75
579.602	250.75
580.368	234.75
581.134	228.75
581.9	211.75
582.666	205.75
583.432	193.75
584.198	180.75
584.964	175.75
585.729	164.75
586.495	155.75
587.26	150.75
588.025	141.75
588.791	129.75
589.556	124.75
590.321	120.75
591.086	109.75
591.851	101.75
592.616	100.75
593.381	95.75
594.146	91.75
594.911	92.75
595.675	83.75
596.44	78.75
597.204	75.75
597.969	71.75
598.733	71.75
599.497	68.75
600.261	63.75
601.025	58.75
601.79	59.75
602.553	53.75
603.317	53.75
604.081	50.75
604.845	48.75
605.609	49.75
606.372	41.75
607.136	42.75
607.899	40.75
608.662	39.75
609.426	36.75
610.189	36.75
610.952	36.75
611.715	34.75
612.478	29.75
613.241	25.75
614.004	30.75
614.767	28.75
615.529	26.75
616.292	26.75
617.055	25.75
617.817	28.75
618.579	20.75
619.342	21.75
620.104	21.75
620.866	19.75
621.628	21.75
622.39	17.75
623.152	20.75
623.914	21.75
624.676	17.75
625.438	17.75
626.199	16.75
626.961	15.75
627.722	14.75
628.484	15.75
629.245	12.75
630.006	13.75
630.768	13.75
631.529	9.75
632.29	11.75
633.051	11.75
633.812	12.75
634.573	11.75
635.333	11.75
636.094	11.75
636.855	9.75
637.615	8.75
638.376	11.75
639.136	9.75
639.896	9.75
640.657	10.75
641.417	10.75
642.177	9.75
642.937	9.75
643.697	5.75
644.457	8.75
645.216	10.75
645.976	8.75
646.736	9.75
647.495	5.75
648.255	9.75
649.014	7.75
649.774	5.75
650.533	9.75
651.292	5.75
652.051	5.75
652.81	6.75
653.569	5.75
654.328	7.75
655.087	4.75
655.846	6.75
656.604	5.75
657.363	4.75
658.121	3.75
658.88	5.75
659.638	3.75
660.397	5.75
661.155	6.75
661.913	5.75
662.671	2.75
663.429	6.75
664.187	3.75
664.945	2.75
665.703	2.75
666.46	3.75
667.218	3.75
667.976	4.75
668.733	3.75
669.49	2.75
670.248	4.75
671.005	5.75
671.762	4.75
672.519	4.75
673.276	4.75
674.033	5.75
674.79	4.75
675.547	2.75
676.304	3.75
677.06	3.75
677.817	4.75
678.574	4.75
679.33	3.75
680.086	2.75
680.843	5.75
681.599	3.75
682.355	3.75
683.111	4.75
683.867	3.75
684.623	0.75
685.379	4.75
686.135	3.75
686.89	4.75
687.646	3.75
688.402	4.75
689.157	2.75
689.912	4.75
690.668	3.75
691.423	3.75
692.178	2.75
692.933	3.75
693.688	3.75
694.443	4.75
695.198	3.75
695.953	3.75
696.708	2.75
697.462	5.75
698.217	1.75
698.972	3.75
699.726	3.75
700.48	3.75
701.235	1.75
701.989	2.75
702.743	3.75
703.497	3.75
704.251	4.75
705.005	1.75
705.759	2.75
706.513	3.75
707.266	1.75
708.02	2.75
708.774	3.75
709.527	3.75
710.28	2.75
711.034	2.75
711.787	3.75
712.54	4.75
713.293	3.75
714.046	3.75
714.799	3.75
715.552	0.75
716.305	3.75
717.058	3.75
717.81	3.75
718.563	1.75
719.315	1.75
720.068	4.75
720.82	3.75
721.573	3.75
722.325	1.75
723.077	2.75
723.829	1.75
724.581	5.75
725.333	2.75
726.085	3.75
726.836	2.75
727.588	1.75
728.34	3.75
729.091	5.75
729.843	3.75
730.594	2.75
731.346	2.75
732.097	4.75
732.848	3.75
733.599	5.75
734.35	5.75
735.101	2.75
735.852	2.75
736.603	4.75
737.354	0.75
738.104	3.75
738.855	3.75
739.605	4.75
740.356	2.75
741.106	2.75
741.856	3.75
742.607	2.75
743.357	5.75
744.107	6.75
744.857	4.75
745.607	1.75
746.357	5.75
747.106	4.75
747.856	3.75
748.606	5.75
749.355	4.75
750.105	3.75
750.854	3.75
751.603	5.75
752.353	4.75
753.102	5.75
753.851	6.75
754.6	5.75
755.349	7.75
756.098	4.75
756.847	4.75
757.595	4.75
758.344	5.75
759.093	4.75
759.841	6.75
760.589	5.75
761.338	5.75
762.086	4.75
762.834	6.75
763.582	2.75
764.331	5.75
765.079	5.75
765.826	6.75
766.574	5.75
767.322	5.75
768.07	6.75
768.817	5.75
769.565	4.75
770.312	5.75
771.06	5.75
771.807	7.75
772.554	6.75
773.302	7.75
774.049	8.75
774.796	5.75
775.543	6.75
776.29	8.75
777.036	8.75
777.783	6.75
778.53	7.75
779.276	7.75
780.023	9.75
780.769	8.75
781.516	7.75
782.262	6.75
783.008	7.75
783.754	9.75
784.5	11.75
785.246	8.75
785.992	9.75
786.738	7.75
787.484	7.75
788.23	5.75
788.975	8.75
789.721	8.75
790.466	5.75
791.212	7.75
791.957	8.75
792.702	8.75
793.447	6.75
794.193	6.75
794.938	6.75
795.683	6.75
796.427	7.75
797.172	7.75
797.917	9.75
798.662	8.75
799.406	5.75
800.151	4.75
800.895	6.75
801.64	6.75
802.384	2.75
803.128	7.75
803.872	5.75
804.616	7.75
805.36	6.75
806.104	4.75
806.848	8.75
807.592	4.75
808.336	6.75
809.079	4.75
809.823	6.75
810.566	2.75
811.31	3.75
812.053	5.75
812.796	5.75
813.539	3.75
814.283	6.75
815.026	3.75
815.769	5.75
816.511	4.75
817.254	4.75
817.997	4.75
818.74	3.75
819.482	3.75
820.225	2.75
820.967	2.75
821.71	3.75
822.452	3.75
823.194	5.75
823.936	3.75
824.678	4.75
825.42	1.75
826.162	4.75
826.904	3.75
827.646	4.75
828.388	3.75
829.129	3.75
829.871	2.75
830.612	3.75
831.354	3.75
832.095	3.75
832.836	4.75
833.577	4.75
834.319	4.75
835.06	2.75
835.801	2.75
836.542	5.75
837.282	4.75
838.023	2.75
838.764	4.75
839.504	1.75
840.245	2.75
840.985	2.75
841.726	3.75
842.466	1.75
843.206	3.75
843.946	1.75
844.687	0.75
845.427	1.75
846.166	1.75
846.906	1.75
847.646	1.75
848.386	3.75
849.125	2.75
849.865	2.75
850.605	2.75
851.344	1.75
852.083	2.75
852.823	3.75
853.562	0.75
854.301	1.75
855.04	1.75
855.779	2.75
856.518	1.75
857.257	2.75
857.995	1.75
858.734	2.75
859.473	1.75
860.211	-0.25
860.95	1.75
861.688	1.75
862.426	1.75
863.165	1.75
863.903	1.75
864.641	4.75
865.379	0.75
866.117	0.75
866.855	1.75
867.593	3.75
868.33	1.75
869.068	1.75
869.806	1.75
870.543	0.75
871.28	1.75
872.018	1.75
872.755	0.75
873.492	1.75
874.229	0.75
874.967	1.75
875.703	-0.25
876.44	2.75
877.177	1.75
877.914	0.75
878.651	0.75
879.387	-0.25
880.124	0.75
880.86	1.75
881.597	2.75
882.333	1.75
883.069	0.75
883.806	0.75
884.542	-0.25
885.278	2.75
886.014	0.75
886.749	2.75
887.485	-1.25
888.221	0.75
888.957	1.75
889.692	0.75
890.428	-0.25
891.163	-0.25
891.899	-1.25
892.634	1.75
893.369	1.75
894.104	1.75
894.839	1.75
895.574	1.75
896.309	-0.25
897.044	2.75
897.779	-0.25
898.514	-0.25
899.248	1.75
899.983	1.75
900.717	-1.25
901.452	1.75
902.186	0.75
902.92	1.75
903.654	-2.25
904.389	0.75
905.123	0.75
905.857	1.75
906.59	-0.25
907.324	2.75
908.058	2.75
908.792	-1.25
909.525	1.75
910.259	0.75
910.992	-2.25
911.726	0.75
912.459	-2.25
913.192	1.75
913.925	0.75
914.658	-1.25
915.391	0.75
916.124	0.75
916.857	0.75
917.59	-0.25
918.323	1.75
919.055	-1.25
919.788	-0.25
920.521	-0.25
921.253	1.75
921.985	-0.25
922.718	-0.25
923.45	-0.25
924.182	-1.25
924.914	-1.25
925.646	-0.25
926.378	1.75
927.11	0.75
927.841	-0.25
928.573	0.75
929.305	-1.25
930.036	-1.25
930.768	-0.25
931.499	-0.25
932.23	-1.25
932.962	-1.25
933.693	-0.25
934.424	0.75
935.155	0.75
935.886	-0.25
936.617	0.75
937.348	0.75
938.078	1.75
938.809	0.75
939.54	0.75
940.27	0.75
941.001	-2.25
941.731	-0.25
942.461	1.75
943.191	-0.25
943.922	-0.25
944.652	0.75
945.382	-1.25
946.112	-1.25
946.841	0.75
947.571	-0.25
948.301	0.75
949.031	-3.25
949.76	-1.25
950.49	-0.25
951.219	0.75
951.948	-0.25
952.678	2.75
953.407	-1.25
954.136	0.75
954.865	-0.25
955.594	-1.25
956.323	-1.25
957.052	-2.25
957.78	0.75
958.509	0.75
959.238	0.75
959.966	2.75
960.695	-0.25
961.423	-0.25
962.151	0.75
962.88	-0.25
963.608	-1.25
964.336	-1.25
965.064	-1.25
965.792	-2.25
966.52	-0.25
967.247	0.75
967.975	-0.25
968.703	-0.25
969.43	-2.25
970.158	1.75
970.885	-1.25
971.613	0.75
972.34	-0.25
973.067	-2.25
973.794	0.75
974.521	-2.25
975.248	1.75
975.975	0.75
976.702	-0.25
977.429	-2.25
978.156	-2.25
978.882	0.75
979.609	-1.25
980.335	-0.25
981.062	-0.25
981.788	-0.25
982.514	-1.25
983.24	-1.25
983.967	0.75
984.693	-0.25
985.419	-0.25
986.144	-2.25
986.87	-1.25
987.596	0.75
988.322	-1.25
989.047	-0.25
989.773	1.75
990.498	1.75
991.224	0.75
991.949	-1.25
992.674	0.75
993.399	0.75
994.124	0.75
994.849	-0.25
995.574	-2.25
996.299	1.75
997.024	0.75
997.749	0.75
998.473	0.75
999.198	-1.25
999.922	0.75
1000.647	-0.25
1001.371	1.75
1002.095	-2.25
1002.82	-0.25
1003.544	-0.25
1004.268	-0.25
1004.992	1.75
1005.716	-0.25
1006.439	-0.25
1007.163	-0.25
1007.887	1.75
1008.611	0.75
1009.334	0.75
1010.058	-0.25
1010.781	-0.25
1011.504	-1.25
1012.228	-0.25
1012.951	-2.25
1013.674	0.75
1014.397	-0.25
1015.12	2.75
