节点500_285_QEPB04081__426__15-02-38-560.txt的数据

Date: Wed Nov 12 15:02:38 CST 2025
User: PC
Spectrometer: QEPB0408
触发模式: 0
积分时间 (秒): 1.000000E-2
Scans to average: 1
启用暗噪声校正: true
启用非线性校正: false
滑动平均宽度: 0
X轴模式: Wavelengths
Number of Pixels in Spectrum: 1044
>>>>>Begin Spectral Data<<<<<
220.843	2.12
221.644	0.12
222.444	2.12
223.244	0.12
224.045	5.12
224.845	2.12
225.645	3.12
226.445	1.12
227.245	3.12
228.045	5.12
228.845	3.12
229.645	2.12
230.444	4.12
231.244	3.12
232.043	4.12
232.843	3.12
233.642	5.12
234.442	5.12
235.241	2.12
236.04	4.12
236.839	4.12
237.638	5.12
238.437	2.12
239.236	6.12
240.035	5.12
240.833	4.12
241.632	7.12
242.43	5.12
243.229	5.12
244.027	3.12
244.826	5.12
245.624	6.12
246.422	6.12
247.22	3.12
248.018	5.12
248.816	8.12
249.614	4.12
250.412	5.12
251.21	8.12
252.007	4.12
252.805	7.12
253.602	9.12
254.4	7.12
255.197	8.12
255.994	7.12
256.791	7.12
257.589	9.12
258.386	9.12
259.183	8.12
259.979	10.12
260.776	10.12
261.573	9.12
262.37	9.12
263.166	13.12
263.963	12.12
264.759	10.12
265.556	13.12
266.352	13.12
267.148	13.12
267.944	12.12
268.74	11.12
269.536	14.12
270.332	14.12
271.128	14.12
271.924	13.12
272.719	16.12
273.515	14.12
274.311	15.12
275.106	16.12
275.901	15.12
276.697	16.12
277.492	20.12
278.287	15.12
279.082	17.12
279.877	17.12
280.672	17.12
281.467	18.12
282.262	18.12
283.056	19.12
283.851	18.12
284.646	18.12
285.44	18.12
286.234	20.12
287.029	18.12
287.823	19.12
288.617	18.12
289.411	18.12
290.205	20.12
290.999	21.12
291.793	17.12
292.587	17.12
293.381	17.12
294.174	17.12
294.968	18.12
295.761	17.12
296.555	17.12
297.348	14.12
298.141	17.12
298.935	17.12
299.728	16.12
300.521	16.12
301.314	16.12
302.107	14.12
302.899	13.12
303.692	14.12
304.485	13.12
305.277	12.12
306.07	13.12
306.862	13.12
307.655	12.12
308.447	13.12
309.239	14.12
310.031	11.12
310.823	12.12
311.615	11.12
312.407	13.12
313.199	9.12
313.991	10.12
314.783	13.12
315.574	10.12
316.366	11.12
317.157	10.12
317.949	10.12
318.74	10.12
319.531	9.12
320.322	9.12
321.113	8.12
321.904	6.12
322.695	6.12
323.486	8.12
324.277	7.12
325.068	8.12
325.858	7.12
326.649	5.12
327.439	4.12
328.23	8.12
329.02	6.12
329.81	8.12
330.6	7.12
331.391	6.12
332.181	6.12
332.971	6.12
333.76	9.12
334.55	6.12
335.34	6.12
336.13	8.12
336.919	5.12
337.709	8.12
338.498	7.12
339.287	6.12
340.077	8.12
340.866	7.12
341.655	7.12
342.444	7.12
343.233	6.12
344.022	6.12
344.811	7.12
345.6	8.12
346.388	6.12
347.177	9.12
347.965	5.12
348.754	5.12
349.542	8.12
350.33	6.12
351.119	7.12
351.907	7.12
352.695	8.12
353.483	4.12
354.271	7.12
355.059	5.12
355.846	7.12
356.634	7.12
357.422	6.12
358.209	7.12
358.997	6.12
359.784	4.12
360.571	4.12
361.359	5.12
362.146	7.12
362.933	4.12
363.72	7.12
364.507	7.12
365.294	5.12
366.081	7.12
366.867	4.12
367.654	4.12
368.44	5.12
369.227	6.12
370.013	6.12
370.8	7.12
371.586	5.12
372.372	3.12
373.158	5.12
373.944	4.12
374.73	5.12
375.516	6.12
376.302	8.12
377.088	7.12
377.873	5.12
378.659	7.12
379.445	5.12
380.23	5.12
381.015	6.12
381.801	8.12
382.586	6.12
383.371	4.12
384.156	4.12
384.941	5.12
385.726	5.12
386.511	6.12
387.296	4.12
388.08	6.12
388.865	5.12
389.649	4.12
390.434	5.12
391.218	5.12
392.003	5.12
392.787	5.12
393.571	8.12
394.355	5.12
395.139	5.12
395.923	6.12
396.707	8.12
397.491	7.12
398.274	7.12
399.058	8.12
399.842	7.12
400.625	7.12
401.408	6.12
402.192	7.12
402.975	7.12
403.758	10.12
404.541	7.12
405.324	10.12
406.107	7.12
406.89	9.12
407.673	9.12
408.456	9.12
409.238	8.12
410.021	9.12
410.803	10.12
411.586	7.12
412.368	9.12
413.151	11.12
413.933	10.12
414.715	9.12
415.497	10.12
416.279	9.12
417.061	9.12
417.843	9.12
418.624	9.12
419.406	12.12
420.188	8.12
420.969	11.12
421.751	10.12
422.532	11.12
423.313	10.12
424.095	10.12
424.876	11.12
425.657	12.12
426.438	12.12
427.219	13.12
428	14.12
428.78	13.12
429.561	14.12
430.342	13.12
431.122	13.12
431.903	16.12
432.683	14.12
433.464	14.12
434.244	14.12
435.024	17.12
435.804	18.12
436.584	16.12
437.364	22.12
438.144	20.12
438.924	19.12
439.704	22.12
440.483	22.12
441.263	26.12
442.042	22.12
442.822	24.12
443.601	29.12
444.38	30.12
445.16	32.12
445.939	35.12
446.718	38.12
447.497	40.12
448.276	43.12
449.054	43.12
449.833	50.12
450.612	54.12
451.391	55.12
452.169	62.12
452.948	68.12
453.726	77.12
454.504	83.12
455.282	89.12
456.061	100.12
456.839	120.12
457.617	124.12
458.395	140.12
459.172	148.12
459.95	174.12
460.728	193.12
461.506	205.12
462.283	230.12
463.061	265.12
463.838	296.12
464.615	327.12
465.393	364.12
466.17	417.12
466.947	454.12
467.724	512.12
468.501	567.12
469.278	635.12
470.055	702.12
470.831	782.12
471.608	875.12
472.385	971.12
473.161	1072.12
473.938	1172.12
474.714	1302.12
475.49	1440.12
476.266	1577.12
477.043	1761.12
477.819	1941.12
478.595	2143.12
479.371	2361.12
480.146	2586.12
480.922	2844.12
481.698	3144.12
482.473	3444.12
483.249	3779.12
484.024	4170.12
484.8	4588.12
485.575	5056.12
486.35	5518.12
487.126	6035.12
487.901	6615.12
488.676	7235.12
489.451	7944.12
490.225	8641.12
491	9432.12
491.775	10301.12
492.55	11219.12
493.324	12089.12
494.099	13041.12
494.873	14072.12
495.647	15162.12
496.422	16286.12
497.196	17413.12
497.97	18584.12
498.744	19767.12
499.518	20853.12
500.292	21977.12
501.066	23030.12
501.839	24110.12
502.613	24913.12
503.387	25753.12
504.16	26326.12
504.934	26717.12
505.707	26950.12
506.48	27070.12
507.253	27018.12
508.027	26866.12
508.8	26522.12
509.573	26182.12
510.346	25628.12
511.118	24878.12
511.891	24151.12
512.664	23349.12
513.437	22535.12
514.209	21589.12
514.982	20728.12
515.754	19806.12
516.526	18948.12
517.298	18129.12
518.071	17388.12
518.843	16702.12
519.615	16064.12
520.387	15463.12
521.159	14756.12
521.93	14202.12
522.702	13624.12
523.474	13058.12
524.245	12486.12
525.017	12016.12
525.788	11565.12
526.56	11009.12
527.331	10471.12
528.102	10054.12
528.873	9555.12
529.644	9134.12
530.415	8679.12
531.186	8223.12
531.957	7807.12
532.728	7404.12
533.498	7053.12
534.269	6664.12
535.039	6278.12
535.81	5933.12
536.58	5630.12
537.351	5302.12
538.121	4999.12
538.891	4734.12
539.661	4491.12
540.431	4237.12
541.201	3996.12
541.971	3785.12
542.741	3584.12
543.51	3408.12
544.28	3237.12
545.05	3101.12
545.819	2931.12
546.588	2766.12
547.358	2653.12
548.127	2522.12
548.896	2384.12
549.665	2277.12
550.434	2140.12
551.203	2020.12
551.972	1928.12
552.741	1816.12
553.51	1723.12
554.278	1635.12
555.047	1535.12
555.815	1445.12
556.584	1373.12
557.352	1289.12
558.121	1229.12
558.889	1136.12
559.657	1078.12
560.425	1022.12
561.193	949.12
561.961	924.12
562.729	869.12
563.496	819.12
564.264	772.12
565.032	737.12
565.799	695.12
566.567	651.12
567.334	601.12
568.101	581.12
568.869	555.12
569.636	508.12
570.403	482.12
571.17	458.12
571.937	430.12
572.704	413.12
573.471	383.12
574.237	366.12
575.004	353.12
575.771	322.12
576.537	303.12
577.303	287.12
578.07	270.12
578.836	252.12
579.602	242.12
580.368	234.12
581.134	217.12
581.9	203.12
582.666	193.12
583.432	184.12
584.198	176.12
584.964	166.12
585.729	155.12
586.495	149.12
587.26	144.12
588.025	133.12
588.791	127.12
589.556	117.12
590.321	116.12
591.086	106.12
591.851	104.12
592.616	95.12
593.381	86.12
594.146	90.12
594.911	84.12
595.675	76.12
596.44	75.12
597.204	74.12
597.969	69.12
598.733	69.12
599.497	60.12
600.261	64.12
601.025	55.12
601.79	54.12
602.553	51.12
603.317	54.12
604.081	48.12
604.845	48.12
605.609	46.12
606.372	44.12
607.136	40.12
607.899	38.12
608.662	36.12
609.426	36.12
610.189	32.12
610.952	34.12
611.715	32.12
612.478	35.12
613.241	33.12
614.004	29.12
614.767	30.12
615.529	23.12
616.292	26.12
617.055	26.12
617.817	22.12
618.579	25.12
619.342	23.12
620.104	23.12
620.866	20.12
621.628	24.12
622.39	20.12
623.152	16.12
623.914	17.12
624.676	17.12
625.438	18.12
626.199	15.12
626.961	19.12
627.722	15.12
628.484	14.12
629.245	13.12
630.006	14.12
630.768	14.12
631.529	14.12
632.29	14.12
633.051	14.12
633.812	13.12
634.573	13.12
635.333	12.12
636.094	11.12
636.855	10.12
637.615	11.12
638.376	9.12
639.136	9.12
639.896	12.12
640.657	9.12
641.417	10.12
642.177	11.12
642.937	8.12
643.697	11.12
644.457	8.12
645.216	8.12
645.976	8.12
646.736	8.12
647.495	7.12
648.255	8.12
649.014	7.12
649.774	7.12
650.533	8.12
651.292	7.12
652.051	5.12
652.81	5.12
653.569	5.12
654.328	7.12
655.087	8.12
655.846	6.12
656.604	6.12
657.363	6.12
658.121	7.12
658.88	8.12
659.638	4.12
660.397	6.12
661.155	6.12
661.913	5.12
662.671	4.12
663.429	7.12
664.187	6.12
664.945	5.12
665.703	4.12
666.46	4.12
667.218	6.12
667.976	5.12
668.733	6.12
669.49	5.12
670.248	5.12
671.005	6.12
671.762	2.12
672.519	4.12
673.276	4.12
674.033	5.12
674.79	7.12
675.547	6.12
676.304	4.12
677.06	4.12
677.817	4.12
678.574	3.12
679.33	3.12
680.086	4.12
680.843	4.12
681.599	6.12
682.355	3.12
683.111	6.12
683.867	5.12
684.623	1.12
685.379	1.12
686.135	6.12
686.89	6.12
687.646	4.12
688.402	4.12
689.157	2.12
689.912	5.12
690.668	4.12
691.423	2.12
692.178	4.12
692.933	4.12
693.688	4.12
694.443	4.12
695.198	3.12
695.953	5.12
696.708	2.12
697.462	5.12
698.217	2.12
698.972	4.12
699.726	3.12
700.48	4.12
701.235	5.12
701.989	4.12
702.743	4.12
703.497	2.12
704.251	4.12
705.005	3.12
705.759	5.12
706.513	5.12
707.266	2.12
708.02	4.12
708.774	5.12
709.527	2.12
710.28	5.12
711.034	3.12
711.787	5.12
712.54	5.12
713.293	3.12
714.046	4.12
714.799	4.12
715.552	3.12
716.305	4.12
717.058	3.12
717.81	1.12
718.563	3.12
719.315	6.12
720.068	4.12
720.82	2.12
721.573	7.12
722.325	4.12
723.077	4.12
723.829	5.12
724.581	4.12
725.333	3.12
726.085	6.12
726.836	3.12
727.588	2.12
728.34	4.12
729.091	4.12
729.843	3.12
730.594	6.12
731.346	6.12
732.097	6.12
732.848	4.12
733.599	6.12
734.35	4.12
735.101	4.12
735.852	4.12
736.603	5.12
737.354	3.12
738.104	4.12
738.855	5.12
739.605	4.12
740.356	3.12
741.106	4.12
741.856	3.12
742.607	5.12
743.357	7.12
744.107	3.12
744.857	4.12
745.607	2.12
746.357	7.12
747.106	5.12
747.856	8.12
748.606	5.12
749.355	3.12
750.105	7.12
750.854	5.12
751.603	6.12
752.353	5.12
753.102	7.12
753.851	5.12
754.6	5.12
755.349	5.12
756.098	6.12
756.847	6.12
757.595	5.12
758.344	6.12
759.093	8.12
759.841	6.12
760.589	6.12
761.338	7.12
762.086	7.12
762.834	6.12
763.582	7.12
764.331	8.12
765.079	4.12
765.826	7.12
766.574	6.12
767.322	6.12
768.07	8.12
768.817	7.12
769.565	7.12
770.312	9.12
771.06	9.12
771.807	9.12
772.554	8.12
773.302	7.12
774.049	8.12
774.796	8.12
775.543	9.12
776.29	9.12
777.036	10.12
777.783	9.12
778.53	8.12
779.276	9.12
780.023	10.12
780.769	9.12
781.516	8.12
782.262	9.12
783.008	11.12
783.754	7.12
784.5	9.12
785.246	8.12
785.992	9.12
786.738	9.12
787.484	10.12
788.23	8.12
788.975	10.12
789.721	10.12
790.466	8.12
791.212	10.12
791.957	7.12
792.702	7.12
793.447	9.12
794.193	9.12
794.938	8.12
795.683	8.12
796.427	11.12
797.172	8.12
797.917	9.12
798.662	8.12
799.406	10.12
800.151	7.12
800.895	7.12
801.64	8.12
802.384	9.12
803.128	5.12
803.872	4.12
804.616	7.12
805.36	8.12
806.104	4.12
806.848	8.12
807.592	4.12
808.336	7.12
809.079	5.12
809.823	7.12
810.566	5.12
811.31	6.12
812.053	6.12
812.796	6.12
813.539	6.12
814.283	4.12
815.026	4.12
815.769	6.12
816.511	5.12
817.254	4.12
817.997	3.12
818.74	6.12
819.482	5.12
820.225	5.12
820.967	5.12
821.71	4.12
822.452	7.12
823.194	0.12
823.936	4.12
824.678	3.12
825.42	5.12
826.162	5.12
826.904	2.12
827.646	4.12
828.388	3.12
829.129	3.12
829.871	5.12
830.612	2.12
831.354	3.12
832.095	4.12
832.836	4.12
833.577	4.12
834.319	5.12
835.06	4.12
835.801	4.12
836.542	2.12
837.282	2.12
838.023	3.12
838.764	4.12
839.504	3.12
840.245	5.12
840.985	2.12
841.726	3.12
842.466	4.12
843.206	2.12
843.946	3.12
844.687	2.12
845.427	2.12
846.166	4.12
846.906	5.12
847.646	4.12
848.386	3.12
849.125	2.12
849.865	4.12
850.605	4.12
851.344	2.12
852.083	5.12
852.823	5.12
853.562	4.12
854.301	3.12
855.04	3.12
855.779	3.12
856.518	3.12
857.257	2.12
857.995	3.12
858.734	3.12
859.473	3.12
860.211	2.12
860.95	4.12
861.688	3.12
862.426	4.12
863.165	3.12
863.903	1.12
864.641	4.12
865.379	2.12
866.117	2.12
866.855	2.12
867.593	2.12
868.33	0.12
869.068	2.12
869.806	2.12
870.543	2.12
871.28	2.12
872.018	3.12
872.755	0.12
873.492	2.12
874.229	2.12
874.967	1.12
875.703	3.12
876.44	3.12
877.177	2.12
877.914	0.12
878.651	0.12
879.387	1.12
880.124	1.12
880.86	0.12
881.597	2.12
882.333	3.12
883.069	0.12
883.806	0.12
884.542	2.12
885.278	3.12
886.014	1.12
886.749	2.12
887.485	2.12
888.221	1.12
888.957	1.12
889.692	2.12
890.428	2.12
891.163	2.12
891.899	0.12
892.634	0.12
893.369	1.12
894.104	2.12
894.839	2.12
895.574	2.12
896.309	0.12
897.044	3.12
897.779	0.12
898.514	0.12
899.248	0.12
899.983	0.12
900.717	1.12
901.452	2.12
902.186	1.12
902.92	2.12
903.654	1.12
904.389	0.12
905.123	3.12
905.857	3.12
906.59	-0.88
907.324	2.12
908.058	2.12
908.792	1.12
909.525	2.12
910.259	0.12
910.992	3.12
911.726	1.12
912.459	-1.88
913.192	2.12
913.925	1.12
914.658	1.12
915.391	1.12
916.124	1.12
916.857	1.12
917.59	-1.88
918.323	0.12
919.055	1.12
919.788	0.12
920.521	-0.88
921.253	0.12
921.985	2.12
922.718	0.12
923.45	1.12
924.182	1.12
924.914	0.12
925.646	1.12
926.378	1.12
927.11	1.12
927.841	1.12
928.573	-0.88
929.305	0.12
930.036	-2.88
930.768	0.12
931.499	0.12
932.23	1.12
932.962	0.12
933.693	3.12
934.424	-0.88
935.155	0.12
935.886	2.12
936.617	0.12
937.348	1.12
938.078	2.12
938.809	1.12
939.54	0.12
940.27	-0.88
941.001	0.12
941.731	0.12
942.461	0.12
943.191	2.12
943.922	-1.88
944.652	0.12
945.382	0.12
946.112	-0.88
946.841	1.12
947.571	-1.88
948.301	0.12
949.031	-0.88
949.76	2.12
950.49	1.12
951.219	1.12
951.948	1.12
952.678	2.12
953.407	0.12
954.136	2.12
954.865	1.12
955.594	1.12
956.323	0.12
957.052	1.12
957.78	2.12
958.509	0.12
959.238	0.12
959.966	0.12
960.695	0.12
961.423	-0.88
962.151	2.12
962.88	1.12
963.608	0.12
964.336	-0.88
965.064	1.12
965.792	2.12
966.52	-0.88
967.247	1.12
967.975	0.12
968.703	1.12
969.43	0.12
970.158	0.12
970.885	2.12
971.613	1.12
972.34	-0.88
973.067	1.12
973.794	-1.88
974.521	0.12
975.248	-2.88
975.975	0.12
976.702	1.12
977.429	2.12
978.156	2.12
978.882	1.12
979.609	1.12
980.335	0.12
981.062	3.12
981.788	-0.88
982.514	0.12
983.24	-1.88
983.967	-0.88
984.693	1.12
985.419	1.12
986.144	-2.88
986.87	-0.88
987.596	0.12
988.322	0.12
989.047	2.12
989.773	3.12
990.498	1.12
991.224	1.12
991.949	0.12
992.674	1.12
993.399	1.12
994.124	-2.88
994.849	2.12
995.574	1.12
996.299	3.12
997.024	1.12
997.749	2.12
998.473	0.12
999.198	1.12
999.922	3.12
1000.647	1.12
1001.371	1.12
1002.095	-0.88
1002.82	-1.88
1003.544	1.12
1004.268	2.12
1004.992	1.12
1005.716	0.12
1006.439	4.12
1007.163	2.12
1007.887	4.12
1008.611	0.12
1009.334	2.12
1010.058	-0.88
1010.781	0.12
1011.504	0.12
1012.228	0.12
1012.951	-0.88
1013.674	2.12
1014.397	-1.88
1015.12	1.12
