节点500_285_QEPB04081__767__15-08-18-798.txt的数据

Date: Wed Nov 12 15:08:18 CST 2025
User: PC
Spectrometer: QEPB0408
触发模式: 0
积分时间 (秒): 1.000000E-2
Scans to average: 1
启用暗噪声校正: true
启用非线性校正: false
滑动平均宽度: 0
X轴模式: Wavelengths
Number of Pixels in Spectrum: 1044
>>>>>Begin Spectral Data<<<<<
220.843	2.62
221.644	1.62
222.444	2.62
223.244	1.62
224.045	4.62
224.845	1.62
225.645	5.62
226.445	1.62
227.245	3.62
228.045	3.62
228.845	2.62
229.645	1.62
230.444	3.62
231.244	3.62
232.043	2.62
232.843	2.62
233.642	5.62
234.442	7.62
235.241	4.62
236.04	3.62
236.839	2.62
237.638	4.62
238.437	2.62
239.236	4.62
240.035	3.62
240.833	4.62
241.632	5.62
242.43	2.62
243.229	4.62
244.027	2.62
244.826	3.62
245.624	6.62
246.422	6.62
247.22	6.62
248.018	4.62
248.816	8.62
249.614	5.62
250.412	9.62
251.21	4.62
252.007	8.62
252.805	5.62
253.602	5.62
254.4	6.62
255.197	8.62
255.994	8.62
256.791	7.62
257.589	9.62
258.386	8.62
259.183	9.62
259.979	11.62
260.776	7.62
261.573	7.62
262.37	10.62
263.166	8.62
263.963	9.62
264.759	9.62
265.556	10.62
266.352	10.62
267.148	12.62
267.944	13.62
268.74	10.62
269.536	10.62
270.332	12.62
271.128	13.62
271.924	14.62
272.719	14.62
273.515	16.62
274.311	15.62
275.106	17.62
275.901	16.62
276.697	16.62
277.492	15.62
278.287	13.62
279.082	16.62
279.877	15.62
280.672	18.62
281.467	15.62
282.262	17.62
283.056	17.62
283.851	18.62
284.646	18.62
285.44	14.62
286.234	18.62
287.029	18.62
287.823	15.62
288.617	19.62
289.411	16.62
290.205	17.62
290.999	14.62
291.793	16.62
292.587	15.62
293.381	16.62
294.174	16.62
294.968	15.62
295.761	15.62
296.555	17.62
297.348	16.62
298.141	12.62
298.935	16.62
299.728	12.62
300.521	15.62
301.314	16.62
302.107	12.62
302.899	13.62
303.692	12.62
304.485	12.62
305.277	13.62
306.07	11.62
306.862	14.62
307.655	11.62
308.447	14.62
309.239	12.62
310.031	11.62
310.823	11.62
311.615	10.62
312.407	9.62
313.199	11.62
313.991	9.62
314.783	8.62
315.574	8.62
316.366	6.62
317.157	9.62
317.949	7.62
318.74	8.62
319.531	7.62
320.322	8.62
321.113	7.62
321.904	8.62
322.695	8.62
323.486	5.62
324.277	6.62
325.068	8.62
325.858	6.62
326.649	8.62
327.439	7.62
328.23	6.62
329.02	7.62
329.81	7.62
330.6	5.62
331.391	6.62
332.181	6.62
332.971	5.62
333.76	8.62
334.55	8.62
335.34	7.62
336.13	7.62
336.919	7.62
337.709	6.62
338.498	7.62
339.287	4.62
340.077	4.62
340.866	4.62
341.655	6.62
342.444	6.62
343.233	7.62
344.022	6.62
344.811	5.62
345.6	6.62
346.388	7.62
347.177	7.62
347.965	6.62
348.754	6.62
349.542	5.62
350.33	7.62
351.119	7.62
351.907	4.62
352.695	5.62
353.483	5.62
354.271	5.62
355.059	4.62
355.846	6.62
356.634	3.62
357.422	5.62
358.209	6.62
358.997	5.62
359.784	5.62
360.571	4.62
361.359	6.62
362.146	6.62
362.933	5.62
363.72	6.62
364.507	7.62
365.294	6.62
366.081	5.62
366.867	5.62
367.654	6.62
368.44	4.62
369.227	4.62
370.013	5.62
370.8	4.62
371.586	4.62
372.372	5.62
373.158	6.62
373.944	9.62
374.73	3.62
375.516	7.62
376.302	6.62
377.088	5.62
377.873	4.62
378.659	3.62
379.445	4.62
380.23	6.62
381.015	5.62
381.801	3.62
382.586	4.62
383.371	4.62
384.156	6.62
384.941	6.62
385.726	4.62
386.511	5.62
387.296	8.62
388.08	5.62
388.865	5.62
389.649	5.62
390.434	7.62
391.218	7.62
392.003	5.62
392.787	7.62
393.571	4.62
394.355	7.62
395.139	6.62
395.923	5.62
396.707	5.62
397.491	7.62
398.274	8.62
399.058	5.62
399.842	6.62
400.625	8.62
401.408	6.62
402.192	4.62
402.975	5.62
403.758	6.62
404.541	5.62
405.324	6.62
406.107	6.62
406.89	7.62
407.673	6.62
408.456	7.62
409.238	7.62
410.021	6.62
410.803	8.62
411.586	9.62
412.368	7.62
413.151	6.62
413.933	9.62
414.715	10.62
415.497	7.62
416.279	8.62
417.061	9.62
417.843	9.62
418.624	7.62
419.406	10.62
420.188	9.62
420.969	8.62
421.751	13.62
422.532	11.62
423.313	10.62
424.095	10.62
424.876	11.62
425.657	12.62
426.438	12.62
427.219	10.62
428	12.62
428.78	12.62
429.561	14.62
430.342	12.62
431.122	14.62
431.903	15.62
432.683	13.62
433.464	14.62
434.244	15.62
435.024	17.62
435.804	19.62
436.584	21.62
437.364	18.62
438.144	20.62
438.924	21.62
439.704	21.62
440.483	25.62
441.263	23.62
442.042	26.62
442.822	27.62
443.601	29.62
444.38	33.62
445.16	33.62
445.939	39.62
446.718	37.62
447.497	42.62
448.276	42.62
449.054	50.62
449.833	51.62
450.612	60.62
451.391	63.62
452.169	69.62
452.948	74.62
453.726	83.62
454.504	85.62
455.282	100.62
456.061	103.62
456.839	124.62
457.617	139.62
458.395	155.62
459.172	171.62
459.95	186.62
460.728	203.62
461.506	231.62
462.283	254.62
463.061	285.62
463.838	318.62
464.615	358.62
465.393	387.62
466.17	446.62
466.947	490.62
467.724	545.62
468.501	593.62
469.278	666.62
470.055	732.62
470.831	805.62
471.608	911.62
472.385	986.62
473.161	1088.62
473.938	1206.62
474.714	1333.62
475.49	1473.62
476.266	1601.62
477.043	1761.62
477.819	1958.62
478.595	2127.62
479.371	2324.62
480.146	2542.62
480.922	2795.62
481.698	3052.62
482.473	3334.62
483.249	3661.62
484.024	3985.62
484.8	4361.62
485.575	4737.62
486.35	5162.62
487.126	5641.62
487.901	6152.62
488.676	6686.62
489.451	7304.62
490.225	7891.62
491	8580.62
491.775	9323.62
492.55	10075.62
493.324	10919.62
494.099	11701.62
494.873	12571.62
495.647	13526.62
496.422	14477.62
497.196	15490.62
497.97	16569.62
498.744	17543.62
499.518	18611.62
500.292	19680.62
501.066	20654.62
501.839	21557.62
502.613	22471.62
503.387	23272.62
504.16	24017.62
504.934	24486.62
505.707	24783.62
506.48	25131.62
507.253	25298.62
508.027	25184.62
508.8	25184.62
509.573	25024.62
510.346	24695.62
511.118	24092.62
511.891	23621.62
512.664	22941.62
513.437	22270.62
514.209	21517.62
514.982	20685.62
515.754	19890.62
516.526	19093.62
517.298	18341.62
518.071	17546.62
518.843	16914.62
519.615	16268.62
520.387	15603.62
521.159	15014.62
521.93	14385.62
522.702	13870.62
523.474	13265.62
524.245	12668.62
525.017	12205.62
525.788	11760.62
526.56	11236.62
527.331	10684.62
528.102	10287.62
528.873	9818.62
529.644	9348.62
530.415	8948.62
531.186	8544.62
531.957	8092.62
532.728	7717.62
533.498	7303.62
534.269	6929.62
535.039	6564.62
535.81	6225.62
536.58	5900.62
537.351	5535.62
538.121	5249.62
538.891	4973.62
539.661	4708.62
540.431	4432.62
541.201	4183.62
541.971	3987.62
542.741	3767.62
543.51	3590.62
544.28	3399.62
545.05	3273.62
545.819	3075.62
546.588	2933.62
547.358	2792.62
548.127	2656.62
548.896	2522.62
549.665	2384.62
550.434	2266.62
551.203	2139.62
551.972	2027.62
552.741	1933.62
553.51	1819.62
554.278	1728.62
555.047	1646.62
555.815	1542.62
556.584	1453.62
557.352	1376.62
558.121	1303.62
558.889	1229.62
559.657	1186.62
560.425	1104.62
561.193	1044.62
561.961	980.62
562.729	930.62
563.496	865.62
564.264	820.62
565.032	785.62
565.799	726.62
566.567	703.62
567.334	663.62
568.101	626.62
568.869	583.62
569.636	557.62
570.403	520.62
571.17	507.62
571.937	463.62
572.704	449.62
573.471	416.62
574.237	396.62
575.004	375.62
575.771	344.62
576.537	326.62
577.303	302.62
578.07	293.62
578.836	282.62
579.602	259.62
580.368	244.62
581.134	238.62
581.9	219.62
582.666	202.62
583.432	204.62
584.198	188.62
584.964	179.62
585.729	165.62
586.495	167.62
587.26	152.62
588.025	145.62
588.791	136.62
589.556	127.62
590.321	123.62
591.086	114.62
591.851	112.62
592.616	107.62
593.381	97.62
594.146	92.62
594.911	90.62
595.675	86.62
596.44	82.62
597.204	74.62
597.969	73.62
598.733	70.62
599.497	70.62
600.261	71.62
601.025	59.62
601.79	56.62
602.553	54.62
603.317	55.62
604.081	53.62
604.845	51.62
605.609	48.62
606.372	47.62
607.136	41.62
607.899	41.62
608.662	43.62
609.426	39.62
610.189	34.62
610.952	34.62
611.715	33.62
612.478	34.62
613.241	32.62
614.004	30.62
614.767	29.62
615.529	27.62
616.292	27.62
617.055	27.62
617.817	25.62
618.579	25.62
619.342	23.62
620.104	22.62
620.866	19.62
621.628	21.62
622.39	22.62
623.152	18.62
623.914	18.62
624.676	17.62
625.438	18.62
626.199	16.62
626.961	16.62
627.722	14.62
628.484	18.62
629.245	15.62
630.006	14.62
630.768	14.62
631.529	13.62
632.29	16.62
633.051	16.62
633.812	13.62
634.573	12.62
635.333	14.62
636.094	13.62
636.855	10.62
637.615	13.62
638.376	9.62
639.136	11.62
639.896	10.62
640.657	10.62
641.417	10.62
642.177	9.62
642.937	8.62
643.697	9.62
644.457	9.62
645.216	8.62
645.976	9.62
646.736	8.62
647.495	8.62
648.255	7.62
649.014	8.62
649.774	7.62
650.533	5.62
651.292	6.62
652.051	9.62
652.81	7.62
653.569	7.62
654.328	5.62
655.087	8.62
655.846	5.62
656.604	4.62
657.363	8.62
658.121	7.62
658.88	4.62
659.638	7.62
660.397	5.62
661.155	7.62
661.913	7.62
662.671	6.62
663.429	5.62
664.187	5.62
664.945	6.62
665.703	4.62
666.46	6.62
667.218	6.62
667.976	5.62
668.733	5.62
669.49	3.62
670.248	3.62
671.005	5.62
671.762	3.62
672.519	3.62
673.276	5.62
674.033	4.62
674.79	4.62
675.547	4.62
676.304	3.62
677.06	6.62
677.817	5.62
678.574	4.62
679.33	6.62
680.086	3.62
680.843	3.62
681.599	3.62
682.355	6.62
683.111	2.62
683.867	5.62
684.623	4.62
685.379	2.62
686.135	5.62
686.89	5.62
687.646	4.62
688.402	4.62
689.157	1.62
689.912	2.62
690.668	5.62
691.423	4.62
692.178	4.62
692.933	5.62
693.688	2.62
694.443	4.62
695.198	6.62
695.953	4.62
696.708	4.62
697.462	4.62
698.217	2.62
698.972	5.62
699.726	4.62
700.48	4.62
701.235	3.62
701.989	4.62
702.743	1.62
703.497	3.62
704.251	5.62
705.005	0.62
705.759	3.62
706.513	3.62
707.266	2.62
708.02	3.62
708.774	5.62
709.527	3.62
710.28	2.62
711.034	4.62
711.787	3.62
712.54	1.62
713.293	5.62
714.046	1.62
714.799	6.62
715.552	5.62
716.305	5.62
717.058	3.62
717.81	1.62
718.563	4.62
719.315	2.62
720.068	5.62
720.82	2.62
721.573	4.62
722.325	3.62
723.077	4.62
723.829	6.62
724.581	4.62
725.333	3.62
726.085	2.62
726.836	6.62
727.588	1.62
728.34	2.62
729.091	4.62
729.843	5.62
730.594	5.62
731.346	2.62
732.097	7.62
732.848	2.62
733.599	3.62
734.35	2.62
735.101	1.62
735.852	2.62
736.603	3.62
737.354	2.62
738.104	5.62
738.855	3.62
739.605	5.62
740.356	3.62
741.106	5.62
741.856	4.62
742.607	5.62
743.357	4.62
744.107	6.62
744.857	4.62
745.607	6.62
746.357	4.62
747.106	6.62
747.856	7.62
748.606	4.62
749.355	6.62
750.105	5.62
750.854	4.62
751.603	3.62
752.353	5.62
753.102	5.62
753.851	7.62
754.6	4.62
755.349	6.62
756.098	5.62
756.847	5.62
757.595	5.62
758.344	6.62
759.093	5.62
759.841	5.62
760.589	5.62
761.338	7.62
762.086	6.62
762.834	3.62
763.582	7.62
764.331	5.62
765.079	6.62
765.826	7.62
766.574	4.62
767.322	7.62
768.07	7.62
768.817	6.62
769.565	7.62
770.312	5.62
771.06	7.62
771.807	6.62
772.554	6.62
773.302	8.62
774.049	6.62
774.796	8.62
775.543	8.62
776.29	8.62
777.036	8.62
777.783	7.62
778.53	8.62
779.276	9.62
780.023	7.62
780.769	9.62
781.516	6.62
782.262	7.62
783.008	9.62
783.754	7.62
784.5	7.62
785.246	8.62
785.992	6.62
786.738	9.62
787.484	8.62
788.23	6.62
788.975	11.62
789.721	8.62
790.466	10.62
791.212	7.62
791.957	8.62
792.702	6.62
793.447	7.62
794.193	9.62
794.938	7.62
795.683	6.62
796.427	8.62
797.172	7.62
797.917	5.62
798.662	7.62
799.406	7.62
800.151	5.62
800.895	8.62
801.64	6.62
802.384	7.62
803.128	7.62
803.872	4.62
804.616	7.62
805.36	6.62
806.104	7.62
806.848	8.62
807.592	7.62
808.336	7.62
809.079	3.62
809.823	6.62
810.566	3.62
811.31	5.62
812.053	6.62
812.796	5.62
813.539	6.62
814.283	4.62
815.026	4.62
815.769	5.62
816.511	5.62
817.254	5.62
817.997	7.62
818.74	4.62
819.482	7.62
820.225	3.62
820.967	4.62
821.71	4.62
822.452	3.62
823.194	6.62
823.936	6.62
824.678	6.62
825.42	2.62
826.162	6.62
826.904	2.62
827.646	6.62
828.388	5.62
829.129	5.62
829.871	4.62
830.612	3.62
831.354	5.62
832.095	2.62
832.836	4.62
833.577	5.62
834.319	3.62
835.06	3.62
835.801	5.62
836.542	2.62
837.282	1.62
838.023	3.62
838.764	4.62
839.504	3.62
840.245	4.62
840.985	-0.38
841.726	3.62
842.466	3.62
843.206	3.62
843.946	5.62
844.687	3.62
845.427	3.62
846.166	2.62
846.906	4.62
847.646	2.62
848.386	5.62
849.125	2.62
849.865	3.62
850.605	4.62
851.344	2.62
852.083	3.62
852.823	1.62
853.562	4.62
854.301	1.62
855.04	3.62
855.779	1.62
856.518	2.62
857.257	4.62
857.995	1.62
858.734	3.62
859.473	3.62
860.211	1.62
860.95	3.62
861.688	2.62
862.426	3.62
863.165	2.62
863.903	2.62
864.641	2.62
865.379	4.62
866.117	2.62
866.855	1.62
867.593	2.62
868.33	2.62
869.068	-0.38
869.806	2.62
870.543	2.62
871.28	2.62
872.018	1.62
872.755	-0.38
873.492	3.62
874.229	3.62
874.967	0.62
875.703	2.62
876.44	2.62
877.177	2.62
877.914	0.62
878.651	1.62
879.387	2.62
880.124	3.62
880.86	1.62
881.597	2.62
882.333	0.62
883.069	0.62
883.806	1.62
884.542	0.62
885.278	2.62
886.014	1.62
886.749	2.62
887.485	1.62
888.221	1.62
888.957	2.62
889.692	0.62
890.428	2.62
891.163	-0.38
891.899	1.62
892.634	0.62
893.369	-1.38
894.104	0.62
894.839	1.62
895.574	1.62
896.309	0.62
897.044	-0.38
897.779	1.62
898.514	1.62
899.248	1.62
899.983	2.62
900.717	-1.38
901.452	1.62
902.186	2.62
902.92	1.62
903.654	-0.38
904.389	1.62
905.123	0.62
905.857	1.62
906.59	0.62
907.324	-0.38
908.058	0.62
908.792	0.62
909.525	1.62
910.259	2.62
910.992	1.62
911.726	2.62
912.459	2.62
913.192	-1.38
913.925	1.62
914.658	1.62
915.391	0.62
916.124	-0.38
916.857	0.62
917.59	-1.38
918.323	1.62
919.055	-1.38
919.788	1.62
920.521	1.62
921.253	1.62
921.985	0.62
922.718	1.62
923.45	1.62
924.182	-1.38
924.914	2.62
925.646	2.62
926.378	0.62
927.11	0.62
927.841	1.62
928.573	-0.38
929.305	1.62
930.036	0.62
930.768	1.62
931.499	-0.38
932.23	1.62
932.962	-0.38
933.693	1.62
934.424	1.62
935.155	1.62
935.886	-1.38
936.617	-0.38
937.348	2.62
938.078	1.62
938.809	2.62
939.54	-1.38
940.27	-0.38
941.001	0.62
941.731	-1.38
942.461	1.62
943.191	0.62
943.922	1.62
944.652	1.62
945.382	0.62
946.112	2.62
946.841	1.62
947.571	3.62
948.301	1.62
949.031	0.62
949.76	-0.38
950.49	-2.38
951.219	1.62
951.948	-1.38
952.678	-1.38
953.407	1.62
954.136	-0.38
954.865	0.62
955.594	1.62
956.323	1.62
957.052	1.62
957.78	1.62
958.509	-0.38
959.238	-0.38
959.966	1.62
960.695	-0.38
961.423	2.62
962.151	-0.38
962.88	1.62
963.608	0.62
964.336	-0.38
965.064	-1.38
965.792	-0.38
966.52	-0.38
967.247	1.62
967.975	0.62
968.703	1.62
969.43	-0.38
970.158	2.62
970.885	-1.38
971.613	0.62
972.34	1.62
973.067	0.62
973.794	1.62
974.521	0.62
975.248	-0.38
975.975	0.62
976.702	-0.38
977.429	1.62
978.156	-0.38
978.882	1.62
979.609	2.62
980.335	0.62
981.062	1.62
981.788	-0.38
982.514	-0.38
983.24	-0.38
983.967	-0.38
984.693	-0.38
985.419	0.62
986.144	1.62
986.87	0.62
987.596	1.62
988.322	0.62
989.047	1.62
989.773	-1.38
990.498	1.62
991.224	-0.38
991.949	1.62
992.674	2.62
993.399	1.62
994.124	1.62
994.849	0.62
995.574	1.62
996.299	-0.38
997.024	0.62
997.749	-1.38
998.473	-1.38
999.198	0.62
999.922	2.62
1000.647	0.62
1001.371	2.62
1002.095	-1.38
1002.82	-1.38
1003.544	-1.38
1004.268	4.62
1004.992	1.62
1005.716	2.62
1006.439	1.62
1007.163	-0.38
1007.887	2.62
1008.611	2.62
1009.334	1.62
1010.058	1.62
1010.781	2.62
1011.504	1.62
1012.228	-1.38
1012.951	0.62
1013.674	0.62
1014.397	-1.38
1015.12	1.62
