节点500_285_QEPB04081__790__15-08-41-765.txt的数据

Date: Wed Nov 12 15:08:41 CST 2025
User: PC
Spectrometer: QEPB0408
触发模式: 0
积分时间 (秒): 1.000000E-2
Scans to average: 1
启用暗噪声校正: true
启用非线性校正: false
滑动平均宽度: 0
X轴模式: Wavelengths
Number of Pixels in Spectrum: 1044
>>>>>Begin Spectral Data<<<<<
220.843	2.5
221.644	2.5
222.444	2.5
223.244	3.5
224.045	3.5
224.845	2.5
225.645	3.5
226.445	2.5
227.245	3.5
228.045	3.5
228.845	6.5
229.645	5.5
230.444	2.5
231.244	2.5
232.043	4.5
232.843	3.5
233.642	4.5
234.442	3.5
235.241	4.5
236.04	3.5
236.839	2.5
237.638	6.5
238.437	5.5
239.236	6.5
240.035	5.5
240.833	5.5
241.632	6.5
242.43	5.5
243.229	5.5
244.027	4.5
244.826	7.5
245.624	2.5
246.422	5.5
247.22	7.5
248.018	5.5
248.816	7.5
249.614	7.5
250.412	5.5
251.21	7.5
252.007	3.5
252.805	4.5
253.602	9.5
254.4	9.5
255.197	7.5
255.994	8.5
256.791	9.5
257.589	4.5
258.386	7.5
259.183	9.5
259.979	7.5
260.776	7.5
261.573	10.5
262.37	11.5
263.166	9.5
263.963	13.5
264.759	10.5
265.556	10.5
266.352	11.5
267.148	8.5
267.944	11.5
268.74	10.5
269.536	14.5
270.332	14.5
271.128	15.5
271.924	12.5
272.719	11.5
273.515	12.5
274.311	13.5
275.106	14.5
275.901	12.5
276.697	15.5
277.492	14.5
278.287	15.5
279.082	16.5
279.877	16.5
280.672	15.5
281.467	18.5
282.262	16.5
283.056	18.5
283.851	15.5
284.646	17.5
285.44	16.5
286.234	15.5
287.029	18.5
287.823	15.5
288.617	17.5
289.411	15.5
290.205	15.5
290.999	17.5
291.793	16.5
292.587	19.5
293.381	15.5
294.174	15.5
294.968	15.5
295.761	10.5
296.555	15.5
297.348	12.5
298.141	15.5
298.935	15.5
299.728	14.5
300.521	14.5
301.314	13.5
302.107	11.5
302.899	14.5
303.692	13.5
304.485	13.5
305.277	13.5
306.07	12.5
306.862	12.5
307.655	9.5
308.447	11.5
309.239	13.5
310.031	11.5
310.823	13.5
311.615	11.5
312.407	10.5
313.199	5.5
313.991	9.5
314.783	8.5
315.574	8.5
316.366	10.5
317.157	6.5
317.949	9.5
318.74	8.5
319.531	6.5
320.322	8.5
321.113	9.5
321.904	8.5
322.695	7.5
323.486	8.5
324.277	10.5
325.068	8.5
325.858	9.5
326.649	8.5
327.439	6.5
328.23	5.5
329.02	7.5
329.81	7.5
330.6	7.5
331.391	6.5
332.181	8.5
332.971	5.5
333.76	7.5
334.55	7.5
335.34	8.5
336.13	6.5
336.919	7.5
337.709	5.5
338.498	7.5
339.287	7.5
340.077	8.5
340.866	6.5
341.655	5.5
342.444	4.5
343.233	6.5
344.022	7.5
344.811	5.5
345.6	6.5
346.388	8.5
347.177	6.5
347.965	6.5
348.754	7.5
349.542	7.5
350.33	8.5
351.119	5.5
351.907	8.5
352.695	4.5
353.483	7.5
354.271	7.5
355.059	5.5
355.846	6.5
356.634	6.5
357.422	6.5
358.209	7.5
358.997	6.5
359.784	7.5
360.571	6.5
361.359	7.5
362.146	6.5
362.933	5.5
363.72	6.5
364.507	3.5
365.294	6.5
366.081	5.5
366.867	6.5
367.654	5.5
368.44	3.5
369.227	5.5
370.013	6.5
370.8	6.5
371.586	4.5
372.372	6.5
373.158	4.5
373.944	6.5
374.73	5.5
375.516	3.5
376.302	6.5
377.088	6.5
377.873	5.5
378.659	6.5
379.445	4.5
380.23	6.5
381.015	7.5
381.801	6.5
382.586	7.5
383.371	6.5
384.156	7.5
384.941	5.5
385.726	5.5
386.511	6.5
387.296	6.5
388.08	6.5
388.865	6.5
389.649	6.5
390.434	5.5
391.218	5.5
392.003	5.5
392.787	6.5
393.571	6.5
394.355	4.5
395.139	5.5
395.923	6.5
396.707	6.5
397.491	4.5
398.274	7.5
399.058	8.5
399.842	7.5
400.625	8.5
401.408	7.5
402.192	8.5
402.975	6.5
403.758	9.5
404.541	10.5
405.324	6.5
406.107	8.5
406.89	6.5
407.673	6.5
408.456	9.5
409.238	6.5
410.021	6.5
410.803	6.5
411.586	8.5
412.368	10.5
413.151	9.5
413.933	9.5
414.715	7.5
415.497	12.5
416.279	8.5
417.061	8.5
417.843	8.5
418.624	9.5
419.406	10.5
420.188	7.5
420.969	10.5
421.751	8.5
422.532	10.5
423.313	11.5
424.095	7.5
424.876	14.5
425.657	10.5
426.438	9.5
427.219	10.5
428	13.5
428.78	13.5
429.561	11.5
430.342	12.5
431.122	14.5
431.903	15.5
432.683	13.5
433.464	14.5
434.244	17.5
435.024	15.5
435.804	18.5
436.584	16.5
437.364	19.5
438.144	20.5
438.924	18.5
439.704	21.5
440.483	22.5
441.263	25.5
442.042	21.5
442.822	28.5
443.601	24.5
444.38	29.5
445.16	30.5
445.939	33.5
446.718	33.5
447.497	38.5
448.276	42.5
449.054	42.5
449.833	47.5
450.612	51.5
451.391	57.5
452.169	61.5
452.948	69.5
453.726	74.5
454.504	83.5
455.282	90.5
456.061	102.5
456.839	105.5
457.617	124.5
458.395	136.5
459.172	147.5
459.95	168.5
460.728	189.5
461.506	204.5
462.283	226.5
463.061	255.5
463.838	287.5
464.615	320.5
465.393	355.5
466.17	385.5
466.947	435.5
467.724	480.5
468.501	534.5
469.278	596.5
470.055	650.5
470.831	707.5
471.608	801.5
472.385	885.5
473.161	960.5
473.938	1075.5
474.714	1189.5
475.49	1300.5
476.266	1416.5
477.043	1581.5
477.819	1718.5
478.595	1898.5
479.371	2063.5
480.146	2271.5
480.922	2493.5
481.698	2715.5
482.473	2968.5
483.249	3237.5
484.024	3549.5
484.8	3855.5
485.575	4192.5
486.35	4596.5
487.126	4971.5
487.901	5442.5
488.676	5904.5
489.451	6437.5
490.225	6963.5
491	7577.5
491.775	8229.5
492.55	8920.5
493.324	9651.5
494.099	10357.5
494.873	11091.5
495.647	11941.5
496.422	12827.5
497.196	13712.5
497.97	14592.5
498.744	15550.5
499.518	16450.5
500.292	17345.5
501.066	18274.5
501.839	19086.5
502.613	19934.5
503.387	20655.5
504.16	21195.5
504.934	21621.5
505.707	21962.5
506.48	22251.5
507.253	22286.5
508.027	22261.5
508.8	22286.5
509.573	22132.5
510.346	21874.5
511.118	21378.5
511.891	20868.5
512.664	20297.5
513.437	19665.5
514.209	18979.5
514.982	18313.5
515.754	17595.5
516.526	16926.5
517.298	16224.5
518.071	15532.5
518.843	14995.5
519.615	14450.5
520.387	13911.5
521.159	13308.5
521.93	12757.5
522.702	12285.5
523.474	11768.5
524.245	11259.5
525.017	10803.5
525.788	10400.5
526.56	9946.5
527.331	9490.5
528.102	9097.5
528.873	8717.5
529.644	8291.5
530.415	7914.5
531.186	7556.5
531.957	7155.5
532.728	6876.5
533.498	6514.5
534.269	6155.5
535.039	5852.5
535.81	5516.5
536.58	5222.5
537.351	4926.5
538.121	4652.5
538.891	4446.5
539.661	4171.5
540.431	3929.5
541.201	3702.5
541.971	3525.5
542.741	3346.5
543.51	3181.5
544.28	3052.5
545.05	2866.5
545.819	2734.5
546.588	2596.5
547.358	2464.5
548.127	2348.5
548.896	2226.5
549.665	2117.5
550.434	2019.5
551.203	1917.5
551.972	1825.5
552.741	1705.5
553.51	1628.5
554.278	1531.5
555.047	1451.5
555.815	1364.5
556.584	1293.5
557.352	1223.5
558.121	1150.5
558.889	1095.5
559.657	1036.5
560.425	978.5
561.193	922.5
561.961	869.5
562.729	821.5
563.496	778.5
564.264	731.5
565.032	692.5
565.799	662.5
566.567	615.5
567.334	582.5
568.101	562.5
568.869	527.5
569.636	494.5
570.403	463.5
571.17	433.5
571.937	413.5
572.704	394.5
573.471	370.5
574.237	344.5
575.004	339.5
575.771	300.5
576.537	289.5
577.303	275.5
578.07	256.5
578.836	245.5
579.602	224.5
580.368	220.5
581.134	208.5
581.9	199.5
582.666	186.5
583.432	173.5
584.198	163.5
584.964	158.5
585.729	149.5
586.495	139.5
587.26	137.5
588.025	124.5
588.791	117.5
589.556	117.5
590.321	105.5
591.086	103.5
591.851	99.5
592.616	91.5
593.381	90.5
594.146	85.5
594.911	82.5
595.675	77.5
596.44	77.5
597.204	69.5
597.969	66.5
598.733	64.5
599.497	58.5
600.261	58.5
601.025	57.5
601.79	54.5
602.553	54.5
603.317	48.5
604.081	48.5
604.845	45.5
605.609	43.5
606.372	40.5
607.136	38.5
607.899	36.5
608.662	35.5
609.426	37.5
610.189	34.5
610.952	35.5
611.715	29.5
612.478	30.5
613.241	26.5
614.004	28.5
614.767	27.5
615.529	26.5
616.292	25.5
617.055	25.5
617.817	22.5
618.579	21.5
619.342	22.5
620.104	23.5
620.866	19.5
621.628	20.5
622.39	20.5
623.152	17.5
623.914	18.5
624.676	17.5
625.438	15.5
626.199	18.5
626.961	18.5
627.722	15.5
628.484	14.5
629.245	16.5
630.006	13.5
630.768	15.5
631.529	14.5
632.29	12.5
633.051	10.5
633.812	12.5
634.573	11.5
635.333	13.5
636.094	11.5
636.855	11.5
637.615	8.5
638.376	12.5
639.136	8.5
639.896	12.5
640.657	9.5
641.417	11.5
642.177	10.5
642.937	11.5
643.697	7.5
644.457	8.5
645.216	7.5
645.976	6.5
646.736	7.5
647.495	9.5
648.255	6.5
649.014	7.5
649.774	8.5
650.533	10.5
651.292	6.5
652.051	8.5
652.81	10.5
653.569	6.5
654.328	7.5
655.087	8.5
655.846	7.5
656.604	8.5
657.363	5.5
658.121	8.5
658.88	6.5
659.638	5.5
660.397	7.5
661.155	5.5
661.913	7.5
662.671	6.5
663.429	8.5
664.187	6.5
664.945	7.5
665.703	6.5
666.46	5.5
667.218	5.5
667.976	4.5
668.733	6.5
669.49	6.5
670.248	6.5
671.005	6.5
671.762	5.5
672.519	4.5
673.276	5.5
674.033	5.5
674.79	5.5
675.547	7.5
676.304	8.5
677.06	5.5
677.817	5.5
678.574	4.5
679.33	7.5
680.086	4.5
680.843	4.5
681.599	6.5
682.355	6.5
683.111	3.5
683.867	4.5
684.623	4.5
685.379	6.5
686.135	2.5
686.89	6.5
687.646	5.5
688.402	5.5
689.157	5.5
689.912	4.5
690.668	3.5
691.423	5.5
692.178	3.5
692.933	5.5
693.688	6.5
694.443	3.5
695.198	4.5
695.953	3.5
696.708	4.5
697.462	6.5
698.217	2.5
698.972	3.5
699.726	2.5
700.48	4.5
701.235	3.5
701.989	4.5
702.743	5.5
703.497	4.5
704.251	6.5
705.005	5.5
705.759	3.5
706.513	5.5
707.266	3.5
708.02	3.5
708.774	1.5
709.527	2.5
710.28	6.5
711.034	3.5
711.787	3.5
712.54	3.5
713.293	6.5
714.046	5.5
714.799	3.5
715.552	4.5
716.305	2.5
717.058	4.5
717.81	4.5
718.563	5.5
719.315	2.5
720.068	4.5
720.82	5.5
721.573	5.5
722.325	3.5
723.077	5.5
723.829	4.5
724.581	4.5
725.333	5.5
726.085	5.5
726.836	4.5
727.588	5.5
728.34	6.5
729.091	6.5
729.843	5.5
730.594	4.5
731.346	5.5
732.097	5.5
732.848	5.5
733.599	4.5
734.35	4.5
735.101	4.5
735.852	5.5
736.603	3.5
737.354	4.5
738.104	8.5
738.855	4.5
739.605	5.5
740.356	4.5
741.106	5.5
741.856	4.5
742.607	4.5
743.357	6.5
744.107	5.5
744.857	4.5
745.607	6.5
746.357	4.5
747.106	5.5
747.856	5.5
748.606	6.5
749.355	5.5
750.105	5.5
750.854	4.5
751.603	3.5
752.353	7.5
753.102	8.5
753.851	3.5
754.6	6.5
755.349	5.5
756.098	4.5
756.847	4.5
757.595	6.5
758.344	7.5
759.093	6.5
759.841	6.5
760.589	5.5
761.338	5.5
762.086	6.5
762.834	9.5
763.582	8.5
764.331	5.5
765.079	5.5
765.826	4.5
766.574	6.5
767.322	5.5
768.07	6.5
768.817	8.5
769.565	5.5
770.312	7.5
771.06	7.5
771.807	7.5
772.554	8.5
773.302	6.5
774.049	6.5
774.796	7.5
775.543	9.5
776.29	8.5
777.036	8.5
777.783	6.5
778.53	8.5
779.276	6.5
780.023	6.5
780.769	6.5
781.516	9.5
782.262	10.5
783.008	10.5
783.754	11.5
784.5	9.5
785.246	10.5
785.992	9.5
786.738	8.5
787.484	10.5
788.23	5.5
788.975	10.5
789.721	9.5
790.466	9.5
791.212	9.5
791.957	7.5
792.702	10.5
793.447	9.5
794.193	8.5
794.938	7.5
795.683	6.5
796.427	6.5
797.172	8.5
797.917	8.5
798.662	7.5
799.406	7.5
800.151	6.5
800.895	6.5
801.64	6.5
802.384	7.5
803.128	8.5
803.872	7.5
804.616	6.5
805.36	7.5
806.104	4.5
806.848	5.5
807.592	5.5
808.336	6.5
809.079	2.5
809.823	6.5
810.566	7.5
811.31	7.5
812.053	5.5
812.796	5.5
813.539	7.5
814.283	6.5
815.026	4.5
815.769	8.5
816.511	3.5
817.254	8.5
817.997	6.5
818.74	4.5
819.482	3.5
820.225	5.5
820.967	5.5
821.71	6.5
822.452	7.5
823.194	3.5
823.936	4.5
824.678	5.5
825.42	4.5
826.162	5.5
826.904	5.5
827.646	7.5
828.388	6.5
829.129	3.5
829.871	6.5
830.612	3.5
831.354	5.5
832.095	5.5
832.836	5.5
833.577	5.5
834.319	3.5
835.06	3.5
835.801	6.5
836.542	6.5
837.282	3.5
838.023	4.5
838.764	2.5
839.504	2.5
840.245	6.5
840.985	4.5
841.726	3.5
842.466	3.5
843.206	6.5
843.946	4.5
844.687	3.5
845.427	1.5
846.166	3.5
846.906	1.5
847.646	6.5
848.386	6.5
849.125	4.5
849.865	3.5
850.605	4.5
851.344	4.5
852.083	2.5
852.823	3.5
853.562	2.5
854.301	3.5
855.04	4.5
855.779	2.5
856.518	2.5
857.257	2.5
857.995	5.5
858.734	3.5
859.473	5.5
860.211	2.5
860.95	2.5
861.688	2.5
862.426	3.5
863.165	3.5
863.903	3.5
864.641	3.5
865.379	3.5
866.117	3.5
866.855	2.5
867.593	3.5
868.33	1.5
869.068	1.5
869.806	4.5
870.543	1.5
871.28	3.5
872.018	5.5
872.755	2.5
873.492	4.5
874.229	1.5
874.967	2.5
875.703	3.5
876.44	2.5
877.177	0.5
877.914	2.5
878.651	3.5
879.387	1.5
880.124	2.5
880.86	4.5
881.597	1.5
882.333	2.5
883.069	2.5
883.806	2.5
884.542	2.5
885.278	4.5
886.014	1.5
886.749	2.5
887.485	2.5
888.221	-0.5
888.957	4.5
889.692	0.5
890.428	2.5
891.163	3.5
891.899	1.5
892.634	1.5
893.369	2.5
894.104	3.5
894.839	3.5
895.574	2.5
896.309	3.5
897.044	0.5
897.779	1.5
898.514	1.5
899.248	1.5
899.983	2.5
900.717	-0.5
901.452	2.5
902.186	-0.5
902.92	2.5
903.654	1.5
904.389	-0.5
905.123	1.5
905.857	0.5
906.59	2.5
907.324	0.5
908.058	2.5
908.792	2.5
909.525	1.5
910.259	2.5
910.992	0.5
911.726	3.5
912.459	2.5
913.192	0.5
913.925	1.5
914.658	3.5
915.391	1.5
916.124	0.5
916.857	-0.5
917.59	1.5
918.323	2.5
919.055	1.5
919.788	0.5
920.521	0.5
921.253	3.5
921.985	2.5
922.718	2.5
923.45	1.5
924.182	1.5
924.914	1.5
925.646	1.5
926.378	0.5
927.11	5.5
927.841	2.5
928.573	2.5
929.305	2.5
930.036	2.5
930.768	3.5
931.499	0.5
932.23	1.5
932.962	-0.5
933.693	2.5
934.424	0.5
935.155	-0.5
935.886	3.5
936.617	1.5
937.348	1.5
938.078	2.5
938.809	1.5
939.54	3.5
940.27	2.5
941.001	2.5
941.731	1.5
942.461	1.5
943.191	0.5
943.922	3.5
944.652	2.5
945.382	3.5
946.112	4.5
946.841	0.5
947.571	-0.5
948.301	1.5
949.031	2.5
949.76	0.5
950.49	2.5
951.219	1.5
951.948	-0.5
952.678	1.5
953.407	1.5
954.136	1.5
954.865	3.5
955.594	2.5
956.323	0.5
957.052	-0.5
957.78	2.5
958.509	2.5
959.238	0.5
959.966	1.5
960.695	1.5
961.423	1.5
962.151	3.5
962.88	1.5
963.608	2.5
964.336	3.5
965.064	1.5
965.792	1.5
966.52	0.5
967.247	2.5
967.975	3.5
968.703	2.5
969.43	0.5
970.158	1.5
970.885	0.5
971.613	1.5
972.34	0.5
973.067	0.5
973.794	3.5
974.521	1.5
975.248	2.5
975.975	0.5
976.702	1.5
977.429	3.5
978.156	0.5
978.882	0.5
979.609	-0.5
980.335	1.5
981.062	2.5
981.788	1.5
982.514	2.5
983.24	2.5
983.967	0.5
984.693	2.5
985.419	2.5
986.144	1.5
986.87	0.5
987.596	1.5
988.322	1.5
989.047	2.5
989.773	0.5
990.498	1.5
991.224	3.5
991.949	1.5
992.674	0.5
993.399	0.5
994.124	1.5
994.849	0.5
995.574	2.5
996.299	2.5
997.024	1.5
997.749	2.5
998.473	0.5
999.198	1.5
999.922	2.5
1000.647	0.5
1001.371	3.5
1002.095	-0.5
1002.82	-1.5
1003.544	-0.5
1004.268	2.5
1004.992	1.5
1005.716	1.5
1006.439	1.5
1007.163	3.5
1007.887	2.5
1008.611	2.5
1009.334	0.5
1010.058	3.5
1010.781	1.5
1011.504	2.5
1012.228	-0.5
1012.951	-1.5
1013.674	2.5
1014.397	-1.5
1015.12	-0.5
