节点500_285_QEPB04081__65__14-56-38-341.txt的数据

Date: Wed Nov 12 14:56:38 CST 2025
User: PC
Spectrometer: QEPB0408
触发模式: 0
积分时间 (秒): 1.000000E-2
Scans to average: 1
启用暗噪声校正: true
启用非线性校正: false
滑动平均宽度: 0
X轴模式: Wavelengths
Number of Pixels in Spectrum: 1044
>>>>>Begin Spectral Data<<<<<
220.843	1
221.644	1
222.444	2
223.244	0
224.045	0
224.845	2
225.645	2
226.445	3
227.245	2
228.045	5
228.845	3
229.645	1
230.444	3
231.244	2
232.043	5
232.843	1
233.642	4
234.442	5
235.241	2
236.04	2
236.839	2
237.638	5
238.437	5
239.236	4
240.035	5
240.833	6
241.632	6
242.43	5
243.229	5
244.027	5
244.826	5
245.624	4
246.422	3
247.22	4
248.018	7
248.816	7
249.614	6
250.412	6
251.21	6
252.007	8
252.805	8
253.602	8
254.4	9
255.197	10
255.994	8
256.791	6
257.589	9
258.386	9
259.183	11
259.979	8
260.776	12
261.573	11
262.37	11
263.166	13
263.963	12
264.759	13
265.556	13
266.352	15
267.148	13
267.944	15
268.74	14
269.536	16
270.332	16
271.128	17
271.924	17
272.719	18
273.515	15
274.311	16
275.106	19
275.901	19
276.697	19
277.492	18
278.287	20
279.082	18
279.877	19
280.672	16
281.467	19
282.262	21
283.056	20
283.851	19
284.646	17
285.44	18
286.234	18
287.029	18
287.823	19
288.617	20
289.411	20
290.205	20
290.999	19
291.793	19
292.587	16
293.381	17
294.174	20
294.968	20
295.761	16
296.555	15
297.348	15
298.141	15
298.935	20
299.728	15
300.521	14
301.314	17
302.107	15
302.899	13
303.692	13
304.485	12
305.277	14
306.07	14
306.862	12
307.655	11
308.447	13
309.239	12
310.031	11
310.823	12
311.615	10
312.407	10
313.199	9
313.991	11
314.783	10
315.574	8
316.366	12
317.157	7
317.949	9
318.74	7
319.531	7
320.322	7
321.113	8
321.904	8
322.695	9
323.486	7
324.277	8
325.068	7
325.858	8
326.649	9
327.439	7
328.23	8
329.02	8
329.81	7
330.6	6
331.391	7
332.181	6
332.971	6
333.76	6
334.55	6
335.34	5
336.13	6
336.919	7
337.709	6
338.498	6
339.287	6
340.077	4
340.866	7
341.655	7
342.444	6
343.233	6
344.022	7
344.811	7
345.6	5
346.388	8
347.177	5
347.965	7
348.754	5
349.542	7
350.33	9
351.119	3
351.907	3
352.695	8
353.483	5
354.271	3
355.059	7
355.846	3
356.634	5
357.422	5
358.209	6
358.997	7
359.784	5
360.571	5
361.359	7
362.146	7
362.933	5
363.72	7
364.507	4
365.294	5
366.081	3
366.867	5
367.654	5
368.44	3
369.227	5
370.013	3
370.8	3
371.586	5
372.372	5
373.158	6
373.944	3
374.73	4
375.516	6
376.302	6
377.088	7
377.873	5
378.659	6
379.445	7
380.23	6
381.015	5
381.801	5
382.586	4
383.371	7
384.156	6
384.941	4
385.726	7
386.511	6
387.296	7
388.08	7
388.865	5
389.649	7
390.434	6
391.218	5
392.003	5
392.787	8
393.571	8
394.355	7
395.139	6
395.923	6
396.707	6
397.491	9
398.274	7
399.058	6
399.842	7
400.625	6
401.408	6
402.192	6
402.975	9
403.758	8
404.541	10
405.324	9
406.107	9
406.89	10
407.673	9
408.456	8
409.238	10
410.021	9
410.803	9
411.586	7
412.368	10
413.151	7
413.933	8
414.715	8
415.497	9
416.279	9
417.061	10
417.843	10
418.624	10
419.406	10
420.188	12
420.969	11
421.751	10
422.532	11
423.313	10
424.095	10
424.876	14
425.657	9
426.438	15
427.219	13
428	15
428.78	13
429.561	13
430.342	12
431.122	14
431.903	14
432.683	13
433.464	15
434.244	15
435.024	19
435.804	19
436.584	17
437.364	19
438.144	19
438.924	20
439.704	22
440.483	25
441.263	24
442.042	25
442.822	25
443.601	25
444.38	26
445.16	31
445.939	30
446.718	37
447.497	37
448.276	42
449.054	43
449.833	47
450.612	46
451.391	56
452.169	61
452.948	64
453.726	69
454.504	75
455.282	82
456.061	94
456.839	100
457.617	114
458.395	128
459.172	137
459.95	157
460.728	166
461.506	192
462.283	209
463.061	236
463.838	265
464.615	301
465.393	329
466.17	375
466.947	417
467.724	464
468.501	516
469.278	586
470.055	656
470.831	718
471.608	811
472.385	908
473.161	1005
473.938	1124
474.714	1246
475.49	1397
476.266	1535
477.043	1713
477.819	1914
478.595	2111
479.371	2354
480.146	2593
480.922	2888
481.698	3186
482.473	3535
483.249	3893
484.024	4348
484.8	4770
485.575	5290
486.35	5830
487.126	6420
487.901	7082
488.676	7811
489.451	8664
490.225	9407
491	10383
491.775	11367
492.55	12438
493.324	13456
494.099	14618
494.873	15739
495.647	17038
496.422	18242
497.196	19561
497.97	20897
498.744	22140
499.518	23393
500.292	24530
501.066	25668
501.839	26639
502.613	27497
503.387	28212
504.16	28669
504.934	28766
505.707	28936
506.48	28817
507.253	28520
508.027	28068
508.8	27583
509.573	26893
510.346	26133
511.118	25138
511.891	24300
512.664	23279
513.437	22267
514.209	21260
514.982	20414
515.754	19425
516.526	18557
517.298	17677
518.071	16940
518.843	16231
519.615	15639
520.387	15029
521.159	14425
521.93	13861
522.702	13300
523.474	12733
524.245	12209
525.017	11679
525.788	11240
526.56	10665
527.331	10142
528.102	9709
528.873	9240
529.644	8751
530.415	8321
531.186	7880
531.957	7425
532.728	7046
533.498	6667
534.269	6256
535.039	5916
535.81	5593
536.58	5267
537.351	4969
538.121	4681
538.891	4458
539.661	4201
540.431	3954
541.201	3768
541.971	3564
542.741	3361
543.51	3215
544.28	3071
545.05	2904
545.819	2761
546.588	2609
547.358	2498
548.127	2348
548.896	2238
549.665	2137
550.434	2007
551.203	1903
551.972	1791
552.741	1693
553.51	1608
554.278	1509
555.047	1428
555.815	1328
556.584	1263
557.352	1204
558.121	1129
558.889	1062
559.657	1009
560.425	950
561.193	894
561.961	840
562.729	806
563.496	751
564.264	711
565.032	685
565.799	641
566.567	598
567.334	573
568.101	545
568.869	509
569.636	477
570.403	449
571.17	424
571.937	400
572.704	380
573.471	358
574.237	339
575.004	314
575.771	295
576.537	280
577.303	261
578.07	247
578.836	240
579.602	224
580.368	208
581.134	195
581.9	190
582.666	179
583.432	165
584.198	160
584.964	144
585.729	145
586.495	136
587.26	129
588.025	124
588.791	119
589.556	110
590.321	102
591.086	97
591.851	96
592.616	91
593.381	83
594.146	78
594.911	79
595.675	73
596.44	68
597.204	69
597.969	64
598.733	66
599.497	59
600.261	58
601.025	53
601.79	50
602.553	49
603.317	44
604.081	46
604.845	42
605.609	39
606.372	41
607.136	37
607.899	35
608.662	37
609.426	33
610.189	35
610.952	30
611.715	33
612.478	30
613.241	29
614.004	29
614.767	24
615.529	25
616.292	21
617.055	26
617.817	24
618.579	22
619.342	21
620.104	19
620.866	19
621.628	21
622.39	20
623.152	18
623.914	18
624.676	17
625.438	16
626.199	17
626.961	15
627.722	13
628.484	14
629.245	16
630.006	11
630.768	13
631.529	15
632.29	12
633.051	12
633.812	11
634.573	13
635.333	11
636.094	12
636.855	13
637.615	12
638.376	9
639.136	9
639.896	9
640.657	10
641.417	7
642.177	9
642.937	7
643.697	7
644.457	8
645.216	8
645.976	9
646.736	7
647.495	10
648.255	9
649.014	10
649.774	8
650.533	6
651.292	8
652.051	7
652.81	7
653.569	6
654.328	5
655.087	5
655.846	8
656.604	5
657.363	6
658.121	5
658.88	5
659.638	8
660.397	6
661.155	7
661.913	4
662.671	4
663.429	8
664.187	5
664.945	7
665.703	3
666.46	6
667.218	6
667.976	7
668.733	4
669.49	6
670.248	5
671.005	3
671.762	2
672.519	6
673.276	4
674.033	6
674.79	5
675.547	4
676.304	5
677.06	3
677.817	6
678.574	6
679.33	3
680.086	2
680.843	4
681.599	3
682.355	5
683.111	5
683.867	4
684.623	5
685.379	5
686.135	4
686.89	5
687.646	5
688.402	4
689.157	1
689.912	4
690.668	1
691.423	5
692.178	5
692.933	3
693.688	4
694.443	5
695.198	3
695.953	2
696.708	4
697.462	7
698.217	4
698.972	6
699.726	6
700.48	5
701.235	6
701.989	5
702.743	5
703.497	4
704.251	4
705.005	5
705.759	4
706.513	3
707.266	5
708.02	3
708.774	3
709.527	6
710.28	5
711.034	2
711.787	6
712.54	3
713.293	1
714.046	2
714.799	2
715.552	4
716.305	2
717.058	4
717.81	4
718.563	3
719.315	4
720.068	1
720.82	5
721.573	3
722.325	2
723.077	7
723.829	3
724.581	4
725.333	3
726.085	3
726.836	4
727.588	3
728.34	4
729.091	1
729.843	6
730.594	4
731.346	5
732.097	4
732.848	2
733.599	6
734.35	4
735.101	5
735.852	5
736.603	5
737.354	3
738.104	4
738.855	4
739.605	4
740.356	6
741.106	5
741.856	3
742.607	4
743.357	4
744.107	7
744.857	8
745.607	3
746.357	7
747.106	3
747.856	6
748.606	5
749.355	3
750.105	5
750.854	4
751.603	4
752.353	6
753.102	6
753.851	6
754.6	5
755.349	8
756.098	5
756.847	8
757.595	7
758.344	5
759.093	7
759.841	7
760.589	9
761.338	5
762.086	8
762.834	8
763.582	7
764.331	8
765.079	6
765.826	6
766.574	6
767.322	7
768.07	8
768.817	7
769.565	8
770.312	8
771.06	7
771.807	9
772.554	7
773.302	9
774.049	8
774.796	8
775.543	7
776.29	8
777.036	9
777.783	8
778.53	8
779.276	7
780.023	7
780.769	9
781.516	11
782.262	7
783.008	8
783.754	11
784.5	9
785.246	9
785.992	10
786.738	10
787.484	8
788.23	10
788.975	7
789.721	9
790.466	6
791.212	10
791.957	9
792.702	8
793.447	9
794.193	9
794.938	7
795.683	7
796.427	9
797.172	7
797.917	7
798.662	7
799.406	7
800.151	7
800.895	9
801.64	8
802.384	8
803.128	10
803.872	6
804.616	5
805.36	7
806.104	6
806.848	5
807.592	6
808.336	8
809.079	7
809.823	3
810.566	7
811.31	2
812.053	5
812.796	5
813.539	5
814.283	7
815.026	6
815.769	3
816.511	7
817.254	6
817.997	6
818.74	4
819.482	7
820.225	4
820.967	4
821.71	2
822.452	1
823.194	4
823.936	5
824.678	5
825.42	4
826.162	6
826.904	3
827.646	5
828.388	2
829.129	6
829.871	4
830.612	1
831.354	0
832.095	5
832.836	3
833.577	6
834.319	2
835.06	3
835.801	3
836.542	5
837.282	3
838.023	3
838.764	3
839.504	4
840.245	4
840.985	5
841.726	1
842.466	3
843.206	4
843.946	6
844.687	2
845.427	3
846.166	3
846.906	2
847.646	1
848.386	3
849.125	2
849.865	1
850.605	1
851.344	3
852.083	4
852.823	0
853.562	3
854.301	4
855.04	4
855.779	1
856.518	2
857.257	2
857.995	2
858.734	5
859.473	2
860.211	3
860.95	3
861.688	3
862.426	3
863.165	-1
863.903	3
864.641	3
865.379	2
866.117	4
866.855	4
867.593	3
868.33	0
869.068	0
869.806	5
870.543	0
871.28	2
872.018	1
872.755	2
873.492	1
874.229	2
874.967	1
875.703	1
876.44	2
877.177	1
877.914	1
878.651	2
879.387	1
880.124	1
880.86	-1
881.597	2
882.333	0
883.069	3
883.806	0
884.542	0
885.278	1
886.014	-1
886.749	0
887.485	-1
888.221	0
888.957	2
889.692	0
890.428	1
891.163	0
891.899	1
892.634	1
893.369	2
894.104	1
894.839	0
895.574	1
896.309	1
897.044	1
897.779	-1
898.514	0
899.248	1
899.983	0
900.717	-1
901.452	1
902.186	2
902.92	2
903.654	-1
904.389	1
905.123	-2
905.857	-1
906.59	1
907.324	1
908.058	1
908.792	-1
909.525	1
910.259	1
910.992	1
911.726	0
912.459	0
913.192	0
913.925	1
914.658	-2
915.391	0
916.124	-2
916.857	2
917.59	1
918.323	0
919.055	0
919.788	0
920.521	-1
921.253	-1
921.985	1
922.718	0
923.45	1
924.182	-1
924.914	0
925.646	-1
926.378	0
927.11	0
927.841	-1
928.573	1
929.305	1
930.036	1
930.768	2
931.499	1
932.23	2
932.962	2
933.693	-1
934.424	0
935.155	2
935.886	2
936.617	0
937.348	-1
938.078	1
938.809	1
939.54	1
940.27	0
941.001	0
941.731	0
942.461	-1
943.191	0
943.922	1
944.652	1
945.382	-1
946.112	-3
946.841	0
947.571	0
948.301	-1
949.031	2
949.76	2
950.49	-2
951.219	2
951.948	1
952.678	2
953.407	1
954.136	-1
954.865	2
955.594	0
956.323	-2
957.052	0
957.78	0
958.509	0
959.238	1
959.966	0
960.695	1
961.423	1
962.151	0
962.88	1
963.608	-1
964.336	-1
965.064	0
965.792	-1
966.52	0
967.247	1
967.975	2
968.703	1
969.43	-1
970.158	0
970.885	-2
971.613	1
972.34	0
973.067	-1
973.794	1
974.521	0
975.248	1
975.975	1
976.702	0
977.429	2
978.156	0
978.882	0
979.609	1
980.335	0
981.062	-1
981.788	0
982.514	0
983.24	1
983.967	0
984.693	1
985.419	0
986.144	1
986.87	1
987.596	0
988.322	1
989.047	1
989.773	1
990.498	2
991.224	0
991.949	-2
992.674	-1
993.399	0
994.124	0
994.849	0
995.574	0
996.299	0
997.024	0
997.749	-1
998.473	1
999.198	0
999.922	1
1000.647	-2
1001.371	5
1002.095	-1
1002.82	-1
1003.544	-1
1004.268	0
1004.992	1
1005.716	-1
1006.439	2
1007.163	-1
1007.887	4
1008.611	1
1009.334	1
1010.058	1
1010.781	-2
1011.504	0
1012.228	-1
1012.951	0
1013.674	-1
1014.397	-1
1015.12	0
