节点500_285_QEPB04081__468__15-03-20-520.txt的数据

Date: Wed Nov 12 15:03:20 CST 2025
User: PC
Spectrometer: QEPB0408
触发模式: 0
积分时间 (秒): 1.000000E-2
Scans to average: 1
启用暗噪声校正: true
启用非线性校正: false
滑动平均宽度: 0
X轴模式: Wavelengths
Number of Pixels in Spectrum: 1044
>>>>>Begin Spectral Data<<<<<
220.843	0.38
221.644	2.38
222.444	0.38
223.244	3.38
224.045	2.38
224.845	1.38
225.645	2.38
226.445	2.38
227.245	3.38
228.045	1.38
228.845	1.38
229.645	3.38
230.444	0.38
231.244	2.38
232.043	2.38
232.843	4.38
233.642	3.38
234.442	4.38
235.241	4.38
236.04	5.38
236.839	4.38
237.638	3.38
238.437	4.38
239.236	3.38
240.035	3.38
240.833	7.38
241.632	4.38
242.43	7.38
243.229	4.38
244.027	5.38
244.826	5.38
245.624	4.38
246.422	7.38
247.22	8.38
248.018	4.38
248.816	6.38
249.614	4.38
250.412	6.38
251.21	6.38
252.007	6.38
252.805	8.38
253.602	7.38
254.4	8.38
255.197	7.38
255.994	6.38
256.791	8.38
257.589	9.38
258.386	8.38
259.183	9.38
259.979	12.38
260.776	10.38
261.573	9.38
262.37	11.38
263.166	11.38
263.963	12.38
264.759	12.38
265.556	12.38
266.352	11.38
267.148	12.38
267.944	13.38
268.74	12.38
269.536	15.38
270.332	15.38
271.128	17.38
271.924	12.38
272.719	17.38
273.515	15.38
274.311	17.38
275.106	14.38
275.901	16.38
276.697	21.38
277.492	17.38
278.287	17.38
279.082	20.38
279.877	17.38
280.672	19.38
281.467	18.38
282.262	20.38
283.056	21.38
283.851	18.38
284.646	18.38
285.44	20.38
286.234	20.38
287.029	18.38
287.823	21.38
288.617	19.38
289.411	17.38
290.205	19.38
290.999	18.38
291.793	18.38
292.587	17.38
293.381	15.38
294.174	16.38
294.968	14.38
295.761	18.38
296.555	13.38
297.348	17.38
298.141	16.38
298.935	17.38
299.728	14.38
300.521	15.38
301.314	13.38
302.107	12.38
302.899	13.38
303.692	14.38
304.485	11.38
305.277	13.38
306.07	12.38
306.862	13.38
307.655	14.38
308.447	12.38
309.239	13.38
310.031	14.38
310.823	8.38
311.615	8.38
312.407	11.38
313.199	10.38
313.991	10.38
314.783	11.38
315.574	9.38
316.366	10.38
317.157	10.38
317.949	9.38
318.74	8.38
319.531	9.38
320.322	8.38
321.113	6.38
321.904	10.38
322.695	9.38
323.486	9.38
324.277	7.38
325.068	7.38
325.858	10.38
326.649	7.38
327.439	7.38
328.23	8.38
329.02	7.38
329.81	7.38
330.6	7.38
331.391	7.38
332.181	7.38
332.971	7.38
333.76	7.38
334.55	6.38
335.34	6.38
336.13	5.38
336.919	6.38
337.709	7.38
338.498	5.38
339.287	7.38
340.077	6.38
340.866	4.38
341.655	7.38
342.444	6.38
343.233	5.38
344.022	8.38
344.811	4.38
345.6	9.38
346.388	6.38
347.177	6.38
347.965	7.38
348.754	5.38
349.542	6.38
350.33	6.38
351.119	6.38
351.907	8.38
352.695	8.38
353.483	7.38
354.271	5.38
355.059	6.38
355.846	6.38
356.634	8.38
357.422	6.38
358.209	7.38
358.997	4.38
359.784	6.38
360.571	6.38
361.359	6.38
362.146	7.38
362.933	7.38
363.72	9.38
364.507	3.38
365.294	7.38
366.081	4.38
366.867	6.38
367.654	4.38
368.44	4.38
369.227	6.38
370.013	5.38
370.8	4.38
371.586	2.38
372.372	6.38
373.158	7.38
373.944	4.38
374.73	5.38
375.516	7.38
376.302	5.38
377.088	4.38
377.873	5.38
378.659	4.38
379.445	4.38
380.23	5.38
381.015	4.38
381.801	5.38
382.586	4.38
383.371	4.38
384.156	5.38
384.941	5.38
385.726	6.38
386.511	8.38
387.296	6.38
388.08	5.38
388.865	7.38
389.649	9.38
390.434	7.38
391.218	9.38
392.003	7.38
392.787	7.38
393.571	8.38
394.355	8.38
395.139	6.38
395.923	7.38
396.707	4.38
397.491	7.38
398.274	4.38
399.058	6.38
399.842	7.38
400.625	10.38
401.408	6.38
402.192	7.38
402.975	9.38
403.758	8.38
404.541	7.38
405.324	5.38
406.107	9.38
406.89	8.38
407.673	9.38
408.456	8.38
409.238	7.38
410.021	8.38
410.803	7.38
411.586	9.38
412.368	7.38
413.151	7.38
413.933	8.38
414.715	8.38
415.497	10.38
416.279	7.38
417.061	8.38
417.843	8.38
418.624	10.38
419.406	12.38
420.188	7.38
420.969	11.38
421.751	7.38
422.532	10.38
423.313	14.38
424.095	13.38
424.876	13.38
425.657	13.38
426.438	12.38
427.219	13.38
428	14.38
428.78	14.38
429.561	13.38
430.342	16.38
431.122	13.38
431.903	14.38
432.683	18.38
433.464	15.38
434.244	18.38
435.024	17.38
435.804	18.38
436.584	16.38
437.364	18.38
438.144	21.38
438.924	18.38
439.704	22.38
440.483	23.38
441.263	25.38
442.042	27.38
442.822	28.38
443.601	28.38
444.38	30.38
445.16	32.38
445.939	34.38
446.718	37.38
447.497	40.38
448.276	41.38
449.054	46.38
449.833	48.38
450.612	51.38
451.391	62.38
452.169	61.38
452.948	71.38
453.726	77.38
454.504	87.38
455.282	96.38
456.061	102.38
456.839	111.38
457.617	127.38
458.395	137.38
459.172	153.38
459.95	167.38
460.728	191.38
461.506	210.38
462.283	238.38
463.061	262.38
463.838	298.38
464.615	334.38
465.393	367.38
466.17	416.38
466.947	458.38
467.724	514.38
468.501	567.38
469.278	640.38
470.055	702.38
470.831	770.38
471.608	856.38
472.385	963.38
473.161	1064.38
473.938	1185.38
474.714	1299.38
475.49	1439.38
476.266	1592.38
477.043	1764.38
477.819	1927.38
478.595	2145.38
479.371	2342.38
480.146	2565.38
480.922	2839.38
481.698	3110.38
482.473	3438.38
483.249	3803.38
484.024	4135.38
484.8	4552.38
485.575	4975.38
486.35	5484.38
487.126	6007.38
487.901	6582.38
488.676	7195.38
489.451	7886.38
490.225	8621.38
491	9380.38
491.775	10234.38
492.55	11134.38
493.324	12040.38
494.099	12942.38
494.873	14006.38
495.647	15045.38
496.422	16174.38
497.196	17322.38
497.97	18449.38
498.744	19576.38
499.518	20740.38
500.292	21903.38
501.066	22978.38
501.839	23880.38
502.613	24831.38
503.387	25575.38
504.16	26317.38
504.934	26648.38
505.707	26815.38
506.48	26894.38
507.253	26940.38
508.027	26702.38
508.8	26490.38
509.573	26183.38
510.346	25605.38
511.118	24890.38
511.891	24107.38
512.664	23353.38
513.437	22501.38
514.209	21619.38
514.982	20729.38
515.754	19858.38
516.526	18939.38
517.298	18179.38
518.071	17415.38
518.843	16720.38
519.615	16050.38
520.387	15447.38
521.159	14813.38
521.93	14218.38
522.702	13689.38
523.474	13149.38
524.245	12551.38
525.017	12050.38
525.788	11570.38
526.56	11063.38
527.331	10546.38
528.102	10076.38
528.873	9572.38
529.644	9134.38
530.415	8699.38
531.186	8252.38
531.957	7843.38
532.728	7449.38
533.498	7098.38
534.269	6688.38
535.039	6310.38
535.81	5947.38
536.58	5620.38
537.351	5302.38
538.121	4995.38
538.891	4772.38
539.661	4499.38
540.431	4220.38
541.201	4023.38
541.971	3812.38
542.741	3622.38
543.51	3419.38
544.28	3261.38
545.05	3100.38
545.819	2937.38
546.588	2801.38
547.358	2667.38
548.127	2514.38
548.896	2399.38
549.665	2276.38
550.434	2152.38
551.203	2041.38
551.972	1934.38
552.741	1838.38
553.51	1722.38
554.278	1627.38
555.047	1549.38
555.815	1453.38
556.584	1380.38
557.352	1301.38
558.121	1227.38
558.889	1148.38
559.657	1096.38
560.425	1026.38
561.193	970.38
561.961	915.38
562.729	874.38
563.496	822.38
564.264	782.38
565.032	732.38
565.799	702.38
566.567	668.38
567.334	619.38
568.101	577.38
568.869	558.38
569.636	513.38
570.403	492.38
571.17	461.38
571.937	439.38
572.704	404.38
573.471	391.38
574.237	364.38
575.004	352.38
575.771	329.38
576.537	307.38
577.303	287.38
578.07	274.38
578.836	253.38
579.602	244.38
580.368	229.38
581.134	225.38
581.9	206.38
582.666	196.38
583.432	185.38
584.198	175.38
584.964	165.38
585.729	159.38
586.495	145.38
587.26	144.38
588.025	137.38
588.791	121.38
589.556	119.38
590.321	117.38
591.086	101.38
591.851	98.38
592.616	99.38
593.381	90.38
594.146	87.38
594.911	84.38
595.675	79.38
596.44	81.38
597.204	77.38
597.969	70.38
598.733	70.38
599.497	67.38
600.261	59.38
601.025	60.38
601.79	53.38
602.553	53.38
603.317	54.38
604.081	51.38
604.845	45.38
605.609	48.38
606.372	39.38
607.136	42.38
607.899	41.38
608.662	36.38
609.426	37.38
610.189	34.38
610.952	33.38
611.715	32.38
612.478	35.38
613.241	30.38
614.004	30.38
614.767	25.38
615.529	25.38
616.292	26.38
617.055	23.38
617.817	24.38
618.579	25.38
619.342	25.38
620.104	23.38
620.866	20.38
621.628	20.38
622.39	20.38
623.152	19.38
623.914	18.38
624.676	17.38
625.438	19.38
626.199	17.38
626.961	16.38
627.722	14.38
628.484	16.38
629.245	13.38
630.006	18.38
630.768	16.38
631.529	11.38
632.29	13.38
633.051	12.38
633.812	12.38
634.573	12.38
635.333	10.38
636.094	13.38
636.855	12.38
637.615	12.38
638.376	11.38
639.136	10.38
639.896	10.38
640.657	8.38
641.417	10.38
642.177	11.38
642.937	9.38
643.697	6.38
644.457	9.38
645.216	9.38
645.976	9.38
646.736	7.38
647.495	8.38
648.255	6.38
649.014	4.38
649.774	8.38
650.533	7.38
651.292	4.38
652.051	7.38
652.81	7.38
653.569	7.38
654.328	4.38
655.087	7.38
655.846	4.38
656.604	5.38
657.363	5.38
658.121	6.38
658.88	7.38
659.638	6.38
660.397	9.38
661.155	6.38
661.913	3.38
662.671	5.38
663.429	5.38
664.187	4.38
664.945	6.38
665.703	6.38
666.46	5.38
667.218	5.38
667.976	6.38
668.733	7.38
669.49	6.38
670.248	3.38
671.005	5.38
671.762	4.38
672.519	4.38
673.276	5.38
674.033	5.38
674.79	4.38
675.547	2.38
676.304	5.38
677.06	6.38
677.817	5.38
678.574	8.38
679.33	4.38
680.086	3.38
680.843	4.38
681.599	2.38
682.355	4.38
683.111	4.38
683.867	4.38
684.623	4.38
685.379	5.38
686.135	5.38
686.89	3.38
687.646	6.38
688.402	4.38
689.157	6.38
689.912	5.38
690.668	0.38
691.423	5.38
692.178	3.38
692.933	4.38
693.688	4.38
694.443	4.38
695.198	1.38
695.953	2.38
696.708	4.38
697.462	5.38
698.217	5.38
698.972	5.38
699.726	3.38
700.48	4.38
701.235	4.38
701.989	3.38
702.743	5.38
703.497	3.38
704.251	2.38
705.005	2.38
705.759	4.38
706.513	5.38
707.266	5.38
708.02	4.38
708.774	3.38
709.527	3.38
710.28	2.38
711.034	1.38
711.787	4.38
712.54	4.38
713.293	4.38
714.046	1.38
714.799	5.38
715.552	3.38
716.305	4.38
717.058	6.38
717.81	3.38
718.563	6.38
719.315	4.38
720.068	5.38
720.82	5.38
721.573	5.38
722.325	5.38
723.077	3.38
723.829	4.38
724.581	1.38
725.333	5.38
726.085	4.38
726.836	2.38
727.588	5.38
728.34	4.38
729.091	5.38
729.843	5.38
730.594	3.38
731.346	4.38
732.097	4.38
732.848	6.38
733.599	2.38
734.35	7.38
735.101	5.38
735.852	4.38
736.603	4.38
737.354	3.38
738.104	7.38
738.855	7.38
739.605	5.38
740.356	4.38
741.106	4.38
741.856	7.38
742.607	6.38
743.357	5.38
744.107	4.38
744.857	5.38
745.607	3.38
746.357	4.38
747.106	5.38
747.856	2.38
748.606	6.38
749.355	3.38
750.105	5.38
750.854	3.38
751.603	4.38
752.353	6.38
753.102	4.38
753.851	4.38
754.6	6.38
755.349	5.38
756.098	4.38
756.847	7.38
757.595	3.38
758.344	5.38
759.093	8.38
759.841	5.38
760.589	7.38
761.338	7.38
762.086	8.38
762.834	8.38
763.582	7.38
764.331	6.38
765.079	6.38
765.826	7.38
766.574	7.38
767.322	7.38
768.07	8.38
768.817	8.38
769.565	7.38
770.312	7.38
771.06	9.38
771.807	7.38
772.554	8.38
773.302	8.38
774.049	11.38
774.796	7.38
775.543	9.38
776.29	7.38
777.036	10.38
777.783	7.38
778.53	11.38
779.276	7.38
780.023	9.38
780.769	10.38
781.516	9.38
782.262	9.38
783.008	12.38
783.754	10.38
784.5	10.38
785.246	7.38
785.992	9.38
786.738	8.38
787.484	10.38
788.23	10.38
788.975	7.38
789.721	10.38
790.466	8.38
791.212	7.38
791.957	9.38
792.702	8.38
793.447	8.38
794.193	11.38
794.938	8.38
795.683	7.38
796.427	6.38
797.172	9.38
797.917	7.38
798.662	6.38
799.406	7.38
800.151	9.38
800.895	4.38
801.64	8.38
802.384	5.38
803.128	5.38
803.872	8.38
804.616	6.38
805.36	6.38
806.104	5.38
806.848	6.38
807.592	5.38
808.336	7.38
809.079	6.38
809.823	5.38
810.566	6.38
811.31	5.38
812.053	4.38
812.796	6.38
813.539	4.38
814.283	7.38
815.026	4.38
815.769	8.38
816.511	3.38
817.254	6.38
817.997	5.38
818.74	5.38
819.482	5.38
820.225	6.38
820.967	5.38
821.71	5.38
822.452	4.38
823.194	4.38
823.936	6.38
824.678	4.38
825.42	5.38
826.162	5.38
826.904	4.38
827.646	4.38
828.388	3.38
829.129	3.38
829.871	3.38
830.612	4.38
831.354	3.38
832.095	4.38
832.836	3.38
833.577	5.38
834.319	3.38
835.06	2.38
835.801	5.38
836.542	4.38
837.282	5.38
838.023	2.38
838.764	2.38
839.504	6.38
840.245	2.38
840.985	3.38
841.726	3.38
842.466	5.38
843.206	4.38
843.946	6.38
844.687	2.38
845.427	4.38
846.166	3.38
846.906	2.38
847.646	3.38
848.386	2.38
849.125	4.38
849.865	3.38
850.605	2.38
851.344	3.38
852.083	2.38
852.823	2.38
853.562	4.38
854.301	4.38
855.04	2.38
855.779	1.38
856.518	5.38
857.257	0.38
857.995	3.38
858.734	2.38
859.473	2.38
860.211	5.38
860.95	2.38
861.688	0.38
862.426	0.38
863.165	2.38
863.903	5.38
864.641	3.38
865.379	3.38
866.117	0.38
866.855	4.38
867.593	3.38
868.33	2.38
869.068	2.38
869.806	1.38
870.543	1.38
871.28	1.38
872.018	2.38
872.755	3.38
873.492	1.38
874.229	2.38
874.967	5.38
875.703	3.38
876.44	0.38
877.177	-0.62
877.914	2.38
878.651	3.38
879.387	2.38
880.124	2.38
880.86	1.38
881.597	0.38
882.333	2.38
883.069	-1.62
883.806	-0.62
884.542	1.38
885.278	-0.62
886.014	0.38
886.749	0.38
887.485	2.38
888.221	2.38
888.957	2.38
889.692	2.38
890.428	-1.62
891.163	1.38
891.899	2.38
892.634	0.38
893.369	0.38
894.104	1.38
894.839	3.38
895.574	1.38
896.309	1.38
897.044	-0.62
897.779	0.38
898.514	1.38
899.248	0.38
899.983	1.38
900.717	0.38
901.452	-0.62
902.186	2.38
902.92	0.38
903.654	0.38
904.389	0.38
905.123	-0.62
905.857	0.38
906.59	0.38
907.324	0.38
908.058	0.38
908.792	1.38
909.525	1.38
910.259	-0.62
910.992	0.38
911.726	1.38
912.459	0.38
913.192	-0.62
913.925	1.38
914.658	-1.62
915.391	0.38
916.124	0.38
916.857	-2.62
917.59	0.38
918.323	-1.62
919.055	4.38
919.788	1.38
920.521	1.38
921.253	3.38
921.985	-0.62
922.718	-0.62
923.45	-0.62
924.182	2.38
924.914	1.38
925.646	-0.62
926.378	-0.62
927.11	1.38
927.841	2.38
928.573	-1.62
929.305	-0.62
930.036	1.38
930.768	0.38
931.499	4.38
932.23	0.38
932.962	0.38
933.693	1.38
934.424	0.38
935.155	1.38
935.886	2.38
936.617	2.38
937.348	0.38
938.078	2.38
938.809	2.38
939.54	2.38
940.27	0.38
941.001	2.38
941.731	1.38
942.461	0.38
943.191	0.38
943.922	2.38
944.652	1.38
945.382	2.38
946.112	-1.62
946.841	1.38
947.571	0.38
948.301	2.38
949.031	-0.62
949.76	0.38
950.49	2.38
951.219	-0.62
951.948	1.38
952.678	-1.62
953.407	2.38
954.136	-0.62
954.865	1.38
955.594	2.38
956.323	0.38
957.052	0.38
957.78	0.38
958.509	-0.62
959.238	1.38
959.966	0.38
960.695	1.38
961.423	1.38
962.151	-1.62
962.88	0.38
963.608	-0.62
964.336	1.38
965.064	3.38
965.792	-1.62
966.52	-0.62
967.247	1.38
967.975	0.38
968.703	1.38
969.43	1.38
970.158	2.38
970.885	-0.62
971.613	2.38
972.34	-0.62
973.067	-0.62
973.794	0.38
974.521	2.38
975.248	-0.62
975.975	-0.62
976.702	2.38
977.429	-0.62
978.156	1.38
978.882	0.38
979.609	2.38
980.335	2.38
981.062	1.38
981.788	0.38
982.514	0.38
983.24	0.38
983.967	-1.62
984.693	2.38
985.419	1.38
986.144	0.38
986.87	1.38
987.596	0.38
988.322	1.38
989.047	-1.62
989.773	1.38
990.498	0.38
991.224	0.38
991.949	-0.62
992.674	-0.62
993.399	0.38
994.124	1.38
994.849	2.38
995.574	-0.62
996.299	0.38
997.024	2.38
997.749	-0.62
998.473	1.38
999.198	0.38
999.922	2.38
1000.647	0.38
1001.371	2.38
1002.095	0.38
1002.82	0.38
1003.544	-2.62
1004.268	3.38
1004.992	2.38
1005.716	1.38
1006.439	-0.62
1007.163	1.38
1007.887	1.38
1008.611	2.38
1009.334	1.38
1010.058	-0.62
1010.781	1.38
1011.504	1.38
1012.228	0.38
1012.951	0.38
1013.674	-0.62
1014.397	-0.62
1015.12	0.38
