节点500_285_QEPB04081__581__15-05-13-199.txt的数据

Date: Wed Nov 12 15:05:13 CST 2025
User: PC
Spectrometer: QEPB0408
触发模式: 0
积分时间 (秒): 1.000000E-2
Scans to average: 1
启用暗噪声校正: true
启用非线性校正: false
滑动平均宽度: 0
X轴模式: Wavelengths
Number of Pixels in Spectrum: 1044
>>>>>Begin Spectral Data<<<<<
220.843	1.75
221.644	-0.25
222.444	1.75
223.244	0.75
224.045	1.75
224.845	0.75
225.645	0.75
226.445	1.75
227.245	4.75
228.045	1.75
228.845	1.75
229.645	0.75
230.444	2.75
231.244	1.75
232.043	2.75
232.843	1.75
233.642	2.75
234.442	2.75
235.241	4.75
236.04	3.75
236.839	4.75
237.638	5.75
238.437	3.75
239.236	3.75
240.035	3.75
240.833	2.75
241.632	3.75
242.43	4.75
243.229	4.75
244.027	3.75
244.826	4.75
245.624	4.75
246.422	5.75
247.22	5.75
248.018	5.75
248.816	6.75
249.614	7.75
250.412	5.75
251.21	5.75
252.007	6.75
252.805	7.75
253.602	5.75
254.4	5.75
255.197	4.75
255.994	8.75
256.791	8.75
257.589	6.75
258.386	7.75
259.183	6.75
259.979	9.75
260.776	8.75
261.573	7.75
262.37	9.75
263.166	8.75
263.963	10.75
264.759	10.75
265.556	9.75
266.352	10.75
267.148	13.75
267.944	12.75
268.74	8.75
269.536	12.75
270.332	16.75
271.128	13.75
271.924	11.75
272.719	12.75
273.515	14.75
274.311	13.75
275.106	15.75
275.901	18.75
276.697	16.75
277.492	16.75
278.287	17.75
279.082	19.75
279.877	15.75
280.672	15.75
281.467	16.75
282.262	17.75
283.056	17.75
283.851	15.75
284.646	16.75
285.44	18.75
286.234	16.75
287.029	18.75
287.823	17.75
288.617	14.75
289.411	16.75
290.205	16.75
290.999	15.75
291.793	15.75
292.587	16.75
293.381	17.75
294.174	15.75
294.968	17.75
295.761	13.75
296.555	12.75
297.348	12.75
298.141	15.75
298.935	15.75
299.728	13.75
300.521	13.75
301.314	14.75
302.107	15.75
302.899	10.75
303.692	13.75
304.485	7.75
305.277	12.75
306.07	14.75
306.862	12.75
307.655	12.75
308.447	9.75
309.239	10.75
310.031	13.75
310.823	9.75
311.615	11.75
312.407	10.75
313.199	9.75
313.991	8.75
314.783	6.75
315.574	9.75
316.366	9.75
317.157	11.75
317.949	9.75
318.74	8.75
319.531	6.75
320.322	7.75
321.113	7.75
321.904	7.75
322.695	8.75
323.486	4.75
324.277	5.75
325.068	6.75
325.858	4.75
326.649	5.75
327.439	5.75
328.23	7.75
329.02	6.75
329.81	5.75
330.6	5.75
331.391	6.75
332.181	3.75
332.971	7.75
333.76	9.75
334.55	4.75
335.34	6.75
336.13	3.75
336.919	3.75
337.709	8.75
338.498	7.75
339.287	8.75
340.077	6.75
340.866	6.75
341.655	3.75
342.444	4.75
343.233	6.75
344.022	5.75
344.811	5.75
345.6	5.75
346.388	5.75
347.177	5.75
347.965	6.75
348.754	5.75
349.542	6.75
350.33	6.75
351.119	5.75
351.907	6.75
352.695	4.75
353.483	3.75
354.271	5.75
355.059	5.75
355.846	7.75
356.634	6.75
357.422	6.75
358.209	4.75
358.997	3.75
359.784	4.75
360.571	3.75
361.359	6.75
362.146	5.75
362.933	5.75
363.72	5.75
364.507	4.75
365.294	4.75
366.081	3.75
366.867	4.75
367.654	2.75
368.44	6.75
369.227	4.75
370.013	3.75
370.8	4.75
371.586	4.75
372.372	4.75
373.158	7.75
373.944	5.75
374.73	4.75
375.516	4.75
376.302	2.75
377.088	4.75
377.873	3.75
378.659	5.75
379.445	5.75
380.23	4.75
381.015	2.75
381.801	3.75
382.586	6.75
383.371	1.75
384.156	7.75
384.941	3.75
385.726	6.75
386.511	6.75
387.296	5.75
388.08	5.75
388.865	4.75
389.649	5.75
390.434	5.75
391.218	6.75
392.003	3.75
392.787	4.75
393.571	4.75
394.355	5.75
395.139	7.75
395.923	4.75
396.707	3.75
397.491	6.75
398.274	6.75
399.058	7.75
399.842	6.75
400.625	6.75
401.408	6.75
402.192	4.75
402.975	6.75
403.758	5.75
404.541	6.75
405.324	7.75
406.107	7.75
406.89	7.75
407.673	7.75
408.456	8.75
409.238	8.75
410.021	6.75
410.803	8.75
411.586	7.75
412.368	8.75
413.151	6.75
413.933	9.75
414.715	8.75
415.497	8.75
416.279	9.75
417.061	7.75
417.843	9.75
418.624	8.75
419.406	8.75
420.188	9.75
420.969	9.75
421.751	8.75
422.532	9.75
423.313	8.75
424.095	8.75
424.876	13.75
425.657	13.75
426.438	9.75
427.219	11.75
428	12.75
428.78	12.75
429.561	11.75
430.342	12.75
431.122	10.75
431.903	13.75
432.683	15.75
433.464	13.75
434.244	16.75
435.024	15.75
435.804	18.75
436.584	19.75
437.364	18.75
438.144	19.75
438.924	20.75
439.704	20.75
440.483	21.75
441.263	25.75
442.042	25.75
442.822	27.75
443.601	25.75
444.38	29.75
445.16	35.75
445.939	33.75
446.718	37.75
447.497	40.75
448.276	45.75
449.054	44.75
449.833	51.75
450.612	54.75
451.391	56.75
452.169	64.75
452.948	74.75
453.726	77.75
454.504	87.75
455.282	91.75
456.061	106.75
456.839	118.75
457.617	130.75
458.395	142.75
459.172	155.75
459.95	179.75
460.728	192.75
461.506	221.75
462.283	244.75
463.061	268.75
463.838	310.75
464.615	345.75
465.393	387.75
466.17	420.75
466.947	476.75
467.724	520.75
468.501	588.75
469.278	646.75
470.055	712.75
470.831	799.75
471.608	880.75
472.385	974.75
473.161	1084.75
473.938	1204.75
474.714	1314.75
475.49	1464.75
476.266	1603.75
477.043	1776.75
477.819	1936.75
478.595	2156.75
479.371	2351.75
480.146	2583.75
480.922	2843.75
481.698	3107.75
482.473	3409.75
483.249	3726.75
484.024	4105.75
484.8	4488.75
485.575	4927.75
486.35	5405.75
487.126	5863.75
487.901	6454.75
488.676	7025.75
489.451	7666.75
490.225	8336.75
491	9098.75
491.775	9906.75
492.55	10765.75
493.324	11581.75
494.099	12545.75
494.873	13501.75
495.647	14503.75
496.422	15542.75
497.196	16665.75
497.97	17762.75
498.744	18874.75
499.518	20019.75
500.292	21068.75
501.066	22085.75
501.839	23105.75
502.613	23931.75
503.387	24696.75
504.16	25455.75
504.934	25849.75
505.707	26133.75
506.48	26331.75
507.253	26329.75
508.027	26292.75
508.8	26062.75
509.573	25838.75
510.346	25358.75
511.118	24735.75
511.891	23998.75
512.664	23284.75
513.437	22559.75
514.209	21592.75
514.982	20840.75
515.754	19958.75
516.526	19130.75
517.298	18309.75
518.071	17502.75
518.843	16859.75
519.615	16208.75
520.387	15615.75
521.159	14981.75
521.93	14346.75
522.702	13792.75
523.474	13254.75
524.245	12662.75
525.017	12122.75
525.788	11711.75
526.56	11191.75
527.331	10632.75
528.102	10174.75
528.873	9743.75
529.644	9261.75
530.415	8821.75
531.186	8362.75
531.957	7958.75
532.728	7612.75
533.498	7209.75
534.269	6803.75
535.039	6447.75
535.81	6074.75
536.58	5773.75
537.351	5417.75
538.121	5103.75
538.891	4842.75
539.661	4591.75
540.431	4335.75
541.201	4100.75
541.971	3875.75
542.741	3687.75
543.51	3494.75
544.28	3342.75
545.05	3160.75
545.819	3001.75
546.588	2849.75
547.358	2721.75
548.127	2579.75
548.896	2449.75
549.665	2323.75
550.434	2197.75
551.203	2100.75
551.972	1998.75
552.741	1863.75
553.51	1755.75
554.278	1676.75
555.047	1576.75
555.815	1492.75
556.584	1417.75
557.352	1334.75
558.121	1253.75
558.889	1193.75
559.657	1129.75
560.425	1064.75
561.193	1003.75
561.961	936.75
562.729	883.75
563.496	834.75
564.264	798.75
565.032	761.75
565.799	709.75
566.567	681.75
567.334	637.75
568.101	614.75
568.869	571.75
569.636	530.75
570.403	498.75
571.17	479.75
571.937	452.75
572.704	424.75
573.471	402.75
574.237	375.75
575.004	360.75
575.771	338.75
576.537	313.75
577.303	292.75
578.07	289.75
578.836	264.75
579.602	253.75
580.368	232.75
581.134	222.75
581.9	212.75
582.666	196.75
583.432	186.75
584.198	177.75
584.964	172.75
585.729	163.75
586.495	151.75
587.26	143.75
588.025	131.75
588.791	127.75
589.556	123.75
590.321	117.75
591.086	113.75
591.851	104.75
592.616	96.75
593.381	93.75
594.146	89.75
594.911	84.75
595.675	80.75
596.44	75.75
597.204	72.75
597.969	69.75
598.733	70.75
599.497	65.75
600.261	62.75
601.025	58.75
601.79	55.75
602.553	53.75
603.317	52.75
604.081	50.75
604.845	45.75
605.609	44.75
606.372	41.75
607.136	42.75
607.899	40.75
608.662	36.75
609.426	33.75
610.189	35.75
610.952	33.75
611.715	32.75
612.478	29.75
613.241	27.75
614.004	31.75
614.767	27.75
615.529	26.75
616.292	27.75
617.055	25.75
617.817	21.75
618.579	22.75
619.342	24.75
620.104	23.75
620.866	24.75
621.628	17.75
622.39	20.75
623.152	19.75
623.914	17.75
624.676	19.75
625.438	15.75
626.199	17.75
626.961	18.75
627.722	14.75
628.484	15.75
629.245	12.75
630.006	13.75
630.768	14.75
631.529	14.75
632.29	15.75
633.051	13.75
633.812	13.75
634.573	11.75
635.333	10.75
636.094	12.75
636.855	11.75
637.615	13.75
638.376	9.75
639.136	10.75
639.896	9.75
640.657	7.75
641.417	8.75
642.177	13.75
642.937	9.75
643.697	6.75
644.457	9.75
645.216	7.75
645.976	8.75
646.736	8.75
647.495	6.75
648.255	8.75
649.014	8.75
649.774	6.75
650.533	6.75
651.292	7.75
652.051	5.75
652.81	7.75
653.569	7.75
654.328	4.75
655.087	6.75
655.846	3.75
656.604	6.75
657.363	6.75
658.121	7.75
658.88	4.75
659.638	6.75
660.397	8.75
661.155	6.75
661.913	5.75
662.671	6.75
663.429	5.75
664.187	5.75
664.945	4.75
665.703	3.75
666.46	6.75
667.218	4.75
667.976	4.75
668.733	2.75
669.49	3.75
670.248	3.75
671.005	4.75
671.762	3.75
672.519	1.75
673.276	6.75
674.033	5.75
674.79	4.75
675.547	4.75
676.304	4.75
677.06	4.75
677.817	4.75
678.574	4.75
679.33	3.75
680.086	1.75
680.843	3.75
681.599	3.75
682.355	4.75
683.111	1.75
683.867	3.75
684.623	4.75
685.379	1.75
686.135	4.75
686.89	1.75
687.646	4.75
688.402	3.75
689.157	4.75
689.912	4.75
690.668	0.75
691.423	3.75
692.178	1.75
692.933	5.75
693.688	3.75
694.443	3.75
695.198	3.75
695.953	1.75
696.708	2.75
697.462	3.75
698.217	3.75
698.972	2.75
699.726	3.75
700.48	2.75
701.235	3.75
701.989	4.75
702.743	3.75
703.497	1.75
704.251	4.75
705.005	1.75
705.759	1.75
706.513	2.75
707.266	2.75
708.02	2.75
708.774	2.75
709.527	3.75
710.28	4.75
711.034	5.75
711.787	3.75
712.54	3.75
713.293	1.75
714.046	3.75
714.799	2.75
715.552	3.75
716.305	2.75
717.058	-1.25
717.81	2.75
718.563	3.75
719.315	4.75
720.068	0.75
720.82	2.75
721.573	3.75
722.325	4.75
723.077	4.75
723.829	4.75
724.581	1.75
725.333	5.75
726.085	2.75
726.836	3.75
727.588	2.75
728.34	4.75
729.091	5.75
729.843	4.75
730.594	3.75
731.346	2.75
732.097	4.75
732.848	4.75
733.599	3.75
734.35	5.75
735.101	4.75
735.852	5.75
736.603	4.75
737.354	5.75
738.104	3.75
738.855	4.75
739.605	6.75
740.356	3.75
741.106	4.75
741.856	4.75
742.607	2.75
743.357	3.75
744.107	-0.25
744.857	5.75
745.607	2.75
746.357	2.75
747.106	4.75
747.856	2.75
748.606	5.75
749.355	3.75
750.105	5.75
750.854	6.75
751.603	8.75
752.353	4.75
753.102	5.75
753.851	5.75
754.6	5.75
755.349	5.75
756.098	5.75
756.847	6.75
757.595	7.75
758.344	4.75
759.093	3.75
759.841	6.75
760.589	2.75
761.338	5.75
762.086	5.75
762.834	5.75
763.582	4.75
764.331	7.75
765.079	5.75
765.826	7.75
766.574	7.75
767.322	5.75
768.07	7.75
768.817	7.75
769.565	7.75
770.312	7.75
771.06	5.75
771.807	4.75
772.554	4.75
773.302	5.75
774.049	8.75
774.796	7.75
775.543	7.75
776.29	5.75
777.036	7.75
777.783	8.75
778.53	6.75
779.276	9.75
780.023	7.75
780.769	7.75
781.516	9.75
782.262	7.75
783.008	6.75
783.754	8.75
784.5	7.75
785.246	7.75
785.992	7.75
786.738	8.75
787.484	6.75
788.23	7.75
788.975	7.75
789.721	9.75
790.466	7.75
791.212	9.75
791.957	9.75
792.702	9.75
793.447	8.75
794.193	7.75
794.938	7.75
795.683	7.75
796.427	6.75
797.172	9.75
797.917	7.75
798.662	5.75
799.406	6.75
800.151	6.75
800.895	7.75
801.64	8.75
802.384	5.75
803.128	6.75
803.872	7.75
804.616	5.75
805.36	8.75
806.104	5.75
806.848	6.75
807.592	4.75
808.336	4.75
809.079	4.75
809.823	6.75
810.566	6.75
811.31	4.75
812.053	5.75
812.796	5.75
813.539	4.75
814.283	6.75
815.026	5.75
815.769	2.75
816.511	3.75
817.254	5.75
817.997	6.75
818.74	4.75
819.482	4.75
820.225	4.75
820.967	4.75
821.71	4.75
822.452	5.75
823.194	3.75
823.936	3.75
824.678	4.75
825.42	3.75
826.162	4.75
826.904	2.75
827.646	2.75
828.388	2.75
829.129	1.75
829.871	4.75
830.612	1.75
831.354	6.75
832.095	1.75
832.836	2.75
833.577	6.75
834.319	2.75
835.06	1.75
835.801	2.75
836.542	2.75
837.282	3.75
838.023	0.75
838.764	3.75
839.504	1.75
840.245	5.75
840.985	1.75
841.726	0.75
842.466	3.75
843.206	3.75
843.946	3.75
844.687	1.75
845.427	1.75
846.166	0.75
846.906	3.75
847.646	3.75
848.386	2.75
849.125	2.75
849.865	1.75
850.605	3.75
851.344	1.75
852.083	1.75
852.823	2.75
853.562	1.75
854.301	1.75
855.04	0.75
855.779	2.75
856.518	3.75
857.257	2.75
857.995	1.75
858.734	3.75
859.473	2.75
860.211	1.75
860.95	3.75
861.688	3.75
862.426	1.75
863.165	1.75
863.903	0.75
864.641	2.75
865.379	2.75
866.117	0.75
866.855	0.75
867.593	1.75
868.33	1.75
869.068	1.75
869.806	2.75
870.543	1.75
871.28	0.75
872.018	1.75
872.755	-1.25
873.492	1.75
874.229	0.75
874.967	0.75
875.703	-0.25
876.44	0.75
877.177	-0.25
877.914	-1.25
878.651	1.75
879.387	0.75
880.124	2.75
880.86	0.75
881.597	-1.25
882.333	0.75
883.069	0.75
883.806	1.75
884.542	-0.25
885.278	0.75
886.014	-0.25
886.749	-0.25
887.485	-1.25
888.221	1.75
888.957	0.75
889.692	-1.25
890.428	0.75
891.163	-1.25
891.899	-0.25
892.634	-0.25
893.369	-0.25
894.104	0.75
894.839	0.75
895.574	-2.25
896.309	1.75
897.044	-0.25
897.779	-0.25
898.514	0.75
899.248	-1.25
899.983	-1.25
900.717	-0.25
901.452	-0.25
902.186	0.75
902.92	0.75
903.654	0.75
904.389	-0.25
905.123	0.75
905.857	-2.25
906.59	0.75
907.324	1.75
908.058	1.75
908.792	-0.25
909.525	-1.25
910.259	3.75
910.992	-1.25
911.726	0.75
912.459	0.75
913.192	-0.25
913.925	1.75
914.658	-0.25
915.391	-0.25
916.124	0.75
916.857	1.75
917.59	-1.25
918.323	-0.25
919.055	-1.25
919.788	-0.25
920.521	0.75
921.253	-1.25
921.985	1.75
922.718	-2.25
923.45	-0.25
924.182	-0.25
924.914	-2.25
925.646	-1.25
926.378	0.75
927.11	0.75
927.841	-1.25
928.573	-0.25
929.305	0.75
930.036	-1.25
930.768	0.75
931.499	-0.25
932.23	-1.25
932.962	0.75
933.693	-0.25
934.424	1.75
935.155	0.75
935.886	-2.25
936.617	-0.25
937.348	-0.25
938.078	1.75
938.809	-0.25
939.54	-0.25
940.27	-3.25
941.001	0.75
941.731	0.75
942.461	-0.25
943.191	0.75
943.922	-0.25
944.652	0.75
945.382	-0.25
946.112	-2.25
946.841	1.75
947.571	-1.25
948.301	-1.25
949.031	-2.25
949.76	1.75
950.49	0.75
951.219	-1.25
951.948	-0.25
952.678	-1.25
953.407	-1.25
954.136	-2.25
954.865	1.75
955.594	0.75
956.323	0.75
957.052	0.75
957.78	-2.25
958.509	1.75
959.238	2.75
959.966	-0.25
960.695	-0.25
961.423	-1.25
962.151	1.75
962.88	-0.25
963.608	-0.25
964.336	1.75
965.064	-0.25
965.792	-0.25
966.52	-0.25
967.247	-2.25
967.975	2.75
968.703	-1.25
969.43	1.75
970.158	-0.25
970.885	1.75
971.613	-1.25
972.34	-1.25
973.067	-2.25
973.794	1.75
974.521	1.75
975.248	-1.25
975.975	0.75
976.702	0.75
977.429	2.75
978.156	0.75
978.882	-2.25
979.609	-0.25
980.335	-2.25
981.062	-0.25
981.788	-1.25
982.514	0.75
983.24	0.75
983.967	1.75
984.693	0.75
985.419	0.75
986.144	1.75
986.87	0.75
987.596	-0.25
988.322	-1.25
989.047	-2.25
989.773	2.75
990.498	-2.25
991.224	0.75
991.949	0.75
992.674	-0.25
993.399	-0.25
994.124	1.75
994.849	-0.25
995.574	0.75
996.299	-2.25
997.024	0.75
997.749	-0.25
998.473	1.75
999.198	-1.25
999.922	1.75
1000.647	0.75
1001.371	2.75
1002.095	-0.25
1002.82	-2.25
1003.544	-0.25
1004.268	0.75
1004.992	0.75
1005.716	-0.25
1006.439	1.75
1007.163	-0.25
1007.887	1.75
1008.611	1.75
1009.334	-0.25
1010.058	-1.25
1010.781	1.75
1011.504	-1.25
1012.228	-0.25
1012.951	-0.25
1013.674	-0.25
1014.397	-0.25
1015.12	0.75
