节点500_285_QEPB04081__17__14-55-51-473.txt的数据

Date: Wed Nov 12 14:55:51 CST 2025
User: PC
Spectrometer: QEPB0408
触发模式: 0
积分时间 (秒): 1.000000E-2
Scans to average: 1
启用暗噪声校正: true
启用非线性校正: false
滑动平均宽度: 0
X轴模式: Wavelengths
Number of Pixels in Spectrum: 1044
>>>>>Begin Spectral Data<<<<<
220.843	0
221.644	1
222.444	3
223.244	0
224.045	2
224.845	2
225.645	0
226.445	3
227.245	0
228.045	2
228.845	2
229.645	2
230.444	3
231.244	3
232.043	3
232.843	2
233.642	3
234.442	3
235.241	1
236.04	2
236.839	5
237.638	4
238.437	3
239.236	4
240.035	3
240.833	5
241.632	3
242.43	1
243.229	5
244.027	3
244.826	6
245.624	5
246.422	5
247.22	8
248.018	3
248.816	7
249.614	7
250.412	6
251.21	7
252.007	6
252.805	6
253.602	8
254.4	7
255.197	6
255.994	9
256.791	8
257.589	11
258.386	9
259.183	9
259.979	11
260.776	12
261.573	9
262.37	11
263.166	10
263.963	14
264.759	12
265.556	9
266.352	13
267.148	13
267.944	15
268.74	18
269.536	15
270.332	16
271.128	16
271.924	18
272.719	19
273.515	20
274.311	19
275.106	15
275.901	19
276.697	18
277.492	20
278.287	16
279.082	19
279.877	19
280.672	20
281.467	22
282.262	21
283.056	20
283.851	18
284.646	21
285.44	19
286.234	20
287.029	19
287.823	18
288.617	20
289.411	19
290.205	17
290.999	22
291.793	19
292.587	20
293.381	16
294.174	15
294.968	17
295.761	17
296.555	16
297.348	15
298.141	12
298.935	18
299.728	15
300.521	14
301.314	14
302.107	12
302.899	13
303.692	11
304.485	12
305.277	12
306.07	11
306.862	12
307.655	10
308.447	10
309.239	12
310.031	14
310.823	10
311.615	10
312.407	9
313.199	10
313.991	9
314.783	8
315.574	10
316.366	10
317.157	7
317.949	9
318.74	7
319.531	5
320.322	7
321.113	7
321.904	8
322.695	8
323.486	6
324.277	8
325.068	8
325.858	7
326.649	6
327.439	8
328.23	8
329.02	6
329.81	6
330.6	6
331.391	6
332.181	4
332.971	7
333.76	8
334.55	5
335.34	6
336.13	5
336.919	6
337.709	5
338.498	4
339.287	5
340.077	5
340.866	5
341.655	8
342.444	6
343.233	5
344.022	4
344.811	5
345.6	5
346.388	7
347.177	5
347.965	6
348.754	6
349.542	3
350.33	5
351.119	5
351.907	6
352.695	5
353.483	4
354.271	5
355.059	6
355.846	4
356.634	5
357.422	5
358.209	5
358.997	7
359.784	5
360.571	6
361.359	4
362.146	4
362.933	5
363.72	5
364.507	4
365.294	7
366.081	5
366.867	6
367.654	4
368.44	7
369.227	3
370.013	4
370.8	4
371.586	4
372.372	1
373.158	5
373.944	8
374.73	5
375.516	4
376.302	5
377.088	5
377.873	3
378.659	4
379.445	7
380.23	5
381.015	4
381.801	4
382.586	4
383.371	7
384.156	7
384.941	6
385.726	5
386.511	6
387.296	6
388.08	7
388.865	5
389.649	8
390.434	5
391.218	6
392.003	7
392.787	7
393.571	5
394.355	5
395.139	4
395.923	5
396.707	4
397.491	4
398.274	6
399.058	5
399.842	6
400.625	5
401.408	6
402.192	6
402.975	7
403.758	9
404.541	7
405.324	9
406.107	7
406.89	7
407.673	8
408.456	8
409.238	8
410.021	8
410.803	9
411.586	8
412.368	8
413.151	9
413.933	8
414.715	10
415.497	7
416.279	11
417.061	9
417.843	6
418.624	12
419.406	8
420.188	10
420.969	10
421.751	10
422.532	12
423.313	9
424.095	13
424.876	10
425.657	12
426.438	14
427.219	10
428	12
428.78	11
429.561	14
430.342	12
431.122	14
431.903	16
432.683	16
433.464	15
434.244	16
435.024	15
435.804	21
436.584	18
437.364	23
438.144	17
438.924	22
439.704	24
440.483	24
441.263	24
442.042	23
442.822	26
443.601	26
444.38	28
445.16	28
445.939	33
446.718	36
447.497	40
448.276	37
449.054	42
449.833	47
450.612	49
451.391	54
452.169	60
452.948	61
453.726	69
454.504	75
455.282	86
456.061	90
456.839	97
457.617	107
458.395	119
459.172	136
459.95	148
460.728	170
461.506	191
462.283	207
463.061	235
463.838	269
464.615	288
465.393	328
466.17	369
466.947	423
467.724	458
468.501	503
469.278	578
470.055	646
470.831	725
471.608	807
472.385	895
473.161	1014
473.938	1120
474.714	1241
475.49	1379
476.266	1546
477.043	1712
477.819	1921
478.595	2126
479.371	2352
480.146	2620
480.922	2903
481.698	3245
482.473	3607
483.249	3952
484.024	4387
484.8	4867
485.575	5388
486.35	5963
487.126	6568
487.901	7223
488.676	7983
489.451	8814
490.225	9667
491	10596
491.775	11650
492.55	12707
493.324	13840
494.099	15007
494.873	16232
495.647	17477
496.422	18812
497.196	20113
497.97	21483
498.744	22802
499.518	24077
500.292	25242
501.066	26342
501.839	27270
502.613	28046
503.387	28824
504.16	29303
504.934	29532
505.707	29456
506.48	29355
507.253	28929
508.027	28454
508.8	27889
509.573	27181
510.346	26385
511.118	25334
511.891	24404
512.664	23437
513.437	22466
514.209	21412
514.982	20453
515.754	19476
516.526	18587
517.298	17786
518.071	16972
518.843	16318
519.615	15686
520.387	15088
521.159	14527
521.93	13915
522.702	13293
523.474	12796
524.245	12254
525.017	11678
525.788	11222
526.56	10700
527.331	10170
528.102	9694
528.873	9209
529.644	8728
530.415	8286
531.186	7856
531.957	7411
532.728	6982
533.498	6598
534.269	6241
535.039	5902
535.81	5553
536.58	5272
537.351	4907
538.121	4665
538.891	4408
539.661	4169
540.431	3915
541.201	3747
541.971	3547
542.741	3342
543.51	3221
544.28	3039
545.05	2888
545.819	2766
546.588	2608
547.358	2471
548.127	2370
548.896	2244
549.665	2097
550.434	2007
551.203	1877
551.972	1782
552.741	1672
553.51	1599
554.278	1502
555.047	1424
555.815	1334
556.584	1258
557.352	1176
558.121	1106
558.889	1054
559.657	1001
560.425	931
561.193	882
561.961	840
562.729	800
563.496	742
564.264	710
565.032	666
565.799	632
566.567	597
567.334	567
568.101	539
568.869	506
569.636	472
570.403	436
571.17	416
571.937	404
572.704	374
573.471	354
574.237	334
575.004	312
575.771	289
576.537	276
577.303	267
578.07	245
578.836	232
579.602	213
580.368	204
581.134	190
581.9	191
582.666	177
583.432	164
584.198	156
584.964	150
585.729	140
586.495	135
587.26	129
588.025	122
588.791	119
589.556	108
590.321	102
591.086	98
591.851	90
592.616	84
593.381	86
594.146	81
594.911	79
595.675	76
596.44	71
597.204	69
597.969	63
598.733	61
599.497	56
600.261	53
601.025	51
601.79	53
602.553	47
603.317	49
604.081	45
604.845	43
605.609	41
606.372	40
607.136	36
607.899	37
608.662	36
609.426	35
610.189	32
610.952	28
611.715	26
612.478	30
613.241	25
614.004	28
614.767	23
615.529	22
616.292	26
617.055	23
617.817	22
618.579	21
619.342	17
620.104	19
620.866	16
621.628	20
622.39	22
623.152	15
623.914	19
624.676	12
625.438	15
626.199	15
626.961	16
627.722	11
628.484	13
629.245	13
630.006	13
630.768	12
631.529	10
632.29	10
633.051	11
633.812	11
634.573	12
635.333	10
636.094	11
636.855	10
637.615	8
638.376	9
639.136	8
639.896	9
640.657	7
641.417	8
642.177	9
642.937	8
643.697	9
644.457	7
645.216	9
645.976	7
646.736	7
647.495	7
648.255	8
649.014	8
649.774	8
650.533	5
651.292	8
652.051	5
652.81	6
653.569	5
654.328	5
655.087	4
655.846	5
656.604	4
657.363	5
658.121	3
658.88	5
659.638	6
660.397	6
661.155	5
661.913	4
662.671	3
663.429	4
664.187	5
664.945	3
665.703	3
666.46	5
667.218	2
667.976	5
668.733	1
669.49	4
670.248	4
671.005	5
671.762	4
672.519	5
673.276	3
674.033	1
674.79	4
675.547	4
676.304	4
677.06	4
677.817	3
678.574	1
679.33	3
680.086	4
680.843	5
681.599	2
682.355	3
683.111	2
683.867	5
684.623	5
685.379	1
686.135	3
686.89	2
687.646	4
688.402	5
689.157	3
689.912	2
690.668	5
691.423	5
692.178	3
692.933	5
693.688	3
694.443	2
695.198	3
695.953	3
696.708	5
697.462	4
698.217	5
698.972	-1
699.726	1
700.48	0
701.235	5
701.989	3
702.743	1
703.497	1
704.251	2
705.005	-1
705.759	5
706.513	3
707.266	2
708.02	4
708.774	2
709.527	3
710.28	3
711.034	2
711.787	3
712.54	3
713.293	7
714.046	3
714.799	5
715.552	4
716.305	5
717.058	5
717.81	3
718.563	4
719.315	5
720.068	5
720.82	2
721.573	3
722.325	5
723.077	5
723.829	5
724.581	3
725.333	6
726.085	2
726.836	2
727.588	5
728.34	3
729.091	6
729.843	6
730.594	3
731.346	3
732.097	3
732.848	6
733.599	5
734.35	4
735.101	4
735.852	2
736.603	2
737.354	4
738.104	5
738.855	3
739.605	2
740.356	5
741.106	3
741.856	4
742.607	4
743.357	5
744.107	4
744.857	3
745.607	2
746.357	5
747.106	5
747.856	5
748.606	3
749.355	4
750.105	5
750.854	3
751.603	5
752.353	4
753.102	5
753.851	4
754.6	7
755.349	6
756.098	5
756.847	6
757.595	8
758.344	6
759.093	6
759.841	5
760.589	5
761.338	6
762.086	6
762.834	8
763.582	6
764.331	6
765.079	6
765.826	6
766.574	6
767.322	7
768.07	8
768.817	8
769.565	6
770.312	7
771.06	7
771.807	7
772.554	10
773.302	6
774.049	8
774.796	7
775.543	8
776.29	10
777.036	10
777.783	7
778.53	11
779.276	6
780.023	10
780.769	7
781.516	9
782.262	9
783.008	9
783.754	8
784.5	8
785.246	11
785.992	9
786.738	11
787.484	10
788.23	8
788.975	12
789.721	7
790.466	9
791.212	10
791.957	7
792.702	6
793.447	6
794.193	9
794.938	10
795.683	8
796.427	10
797.172	5
797.917	6
798.662	6
799.406	7
800.151	8
800.895	6
801.64	8
802.384	8
803.128	6
803.872	4
804.616	6
805.36	7
806.104	4
806.848	4
807.592	5
808.336	8
809.079	7
809.823	7
810.566	6
811.31	4
812.053	5
812.796	4
813.539	5
814.283	2
815.026	5
815.769	6
816.511	5
817.254	7
817.997	5
818.74	5
819.482	3
820.225	3
820.967	6
821.71	3
822.452	4
823.194	2
823.936	5
824.678	6
825.42	5
826.162	5
826.904	4
827.646	3
828.388	3
829.129	3
829.871	5
830.612	2
831.354	3
832.095	4
832.836	2
833.577	3
834.319	4
835.06	4
835.801	4
836.542	4
837.282	2
838.023	3
838.764	8
839.504	4
840.245	3
840.985	3
841.726	3
842.466	3
843.206	5
843.946	1
844.687	3
845.427	3
846.166	1
846.906	2
847.646	0
848.386	5
849.125	2
849.865	2
850.605	-1
851.344	0
852.083	5
852.823	1
853.562	3
854.301	1
855.04	0
855.779	2
856.518	2
857.257	2
857.995	0
858.734	1
859.473	1
860.211	1
860.95	3
861.688	3
862.426	3
863.165	1
863.903	2
864.641	-2
865.379	1
866.117	0
866.855	1
867.593	3
868.33	0
869.068	2
869.806	2
870.543	0
871.28	2
872.018	0
872.755	2
873.492	2
874.229	1
874.967	2
875.703	-2
876.44	1
877.177	-1
877.914	0
878.651	0
879.387	-1
880.124	1
880.86	0
881.597	0
882.333	1
883.069	1
883.806	1
884.542	2
885.278	0
886.014	-1
886.749	2
887.485	1
888.221	0
888.957	0
889.692	-1
890.428	1
891.163	1
891.899	0
892.634	1
893.369	-1
894.104	-1
894.839	1
895.574	0
896.309	1
897.044	0
897.779	0
898.514	0
899.248	0
899.983	0
900.717	1
901.452	0
902.186	-3
902.92	0
903.654	-1
904.389	-2
905.123	-1
905.857	0
906.59	0
907.324	0
908.058	2
908.792	-1
909.525	-2
910.259	2
910.992	-1
911.726	3
912.459	0
913.192	0
913.925	-1
914.658	-2
915.391	0
916.124	-1
916.857	-1
917.59	-1
918.323	1
919.055	-3
919.788	0
920.521	0
921.253	0
921.985	-1
922.718	0
923.45	-1
924.182	0
924.914	0
925.646	0
926.378	-1
927.11	0
927.841	-1
928.573	-1
929.305	0
930.036	1
930.768	-1
931.499	-1
932.23	0
932.962	1
933.693	0
934.424	0
935.155	0
935.886	-1
936.617	0
937.348	0
938.078	-1
938.809	0
939.54	-1
940.27	0
941.001	0
941.731	-1
942.461	0
943.191	1
943.922	-2
944.652	-1
945.382	-2
946.112	0
946.841	1
947.571	0
948.301	-1
949.031	2
949.76	-1
950.49	-1
951.219	0
951.948	0
952.678	-1
953.407	-2
954.136	1
954.865	-2
955.594	0
956.323	-1
957.052	0
957.78	-1
958.509	-1
959.238	1
959.966	0
960.695	-2
961.423	-2
962.151	-1
962.88	0
963.608	0
964.336	-2
965.064	-1
965.792	-1
966.52	0
967.247	-2
967.975	-2
968.703	2
969.43	-1
970.158	1
970.885	0
971.613	-1
972.34	0
973.067	-2
973.794	0
974.521	-2
975.248	0
975.975	-1
976.702	-2
977.429	0
978.156	-1
978.882	1
979.609	-1
980.335	-1
981.062	-2
981.788	-1
982.514	-1
983.24	0
983.967	2
984.693	-2
985.419	0
986.144	0
986.87	-1
987.596	1
988.322	-1
989.047	-3
989.773	-1
990.498	-2
991.224	0
991.949	-1
992.674	-1
993.399	0
994.124	0
994.849	0
995.574	-1
996.299	-1
997.024	0
997.749	-1
998.473	2
999.198	0
999.922	0
1000.647	-2
1001.371	3
1002.095	-2
1002.82	0
1003.544	0
1004.268	1
1004.992	1
1005.716	1
1006.439	1
1007.163	1
1007.887	1
1008.611	0
1009.334	0
1010.058	-1
1010.781	-1
1011.504	0
1012.228	0
1012.951	0
1013.674	-2
1014.397	0
1015.12	1
