节点500_285_QEPB04081__230__14-59-22-993.txt的数据

Date: Wed Nov 12 14:59:22 CST 2025
User: PC
Spectrometer: QEPB0408
触发模式: 0
积分时间 (秒): 1.000000E-2
Scans to average: 1
启用暗噪声校正: true
启用非线性校正: false
滑动平均宽度: 0
X轴模式: Wavelengths
Number of Pixels in Spectrum: 1044
>>>>>Begin Spectral Data<<<<<
220.843	1.88
221.644	0.88
222.444	1.88
223.244	3.88
224.045	1.88
224.845	2.88
225.645	3.88
226.445	2.88
227.245	2.88
228.045	4.88
228.845	1.88
229.645	3.88
230.444	1.88
231.244	2.88
232.043	5.88
232.843	2.88
233.642	2.88
234.442	2.88
235.241	3.88
236.04	2.88
236.839	3.88
237.638	3.88
238.437	3.88
239.236	3.88
240.035	5.88
240.833	3.88
241.632	3.88
242.43	6.88
243.229	2.88
244.027	5.88
244.826	6.88
245.624	5.88
246.422	6.88
247.22	4.88
248.018	4.88
248.816	5.88
249.614	6.88
250.412	6.88
251.21	7.88
252.007	6.88
252.805	6.88
253.602	7.88
254.4	7.88
255.197	6.88
255.994	9.88
256.791	9.88
257.589	9.88
258.386	8.88
259.183	11.88
259.979	9.88
260.776	10.88
261.573	11.88
262.37	8.88
263.166	12.88
263.963	8.88
264.759	14.88
265.556	13.88
266.352	10.88
267.148	16.88
267.944	11.88
268.74	13.88
269.536	13.88
270.332	14.88
271.128	17.88
271.924	17.88
272.719	17.88
273.515	15.88
274.311	17.88
275.106	14.88
275.901	17.88
276.697	19.88
277.492	19.88
278.287	17.88
279.082	16.88
279.877	21.88
280.672	17.88
281.467	17.88
282.262	19.88
283.056	18.88
283.851	20.88
284.646	18.88
285.44	18.88
286.234	19.88
287.029	18.88
287.823	20.88
288.617	19.88
289.411	20.88
290.205	19.88
290.999	19.88
291.793	18.88
292.587	16.88
293.381	21.88
294.174	16.88
294.968	18.88
295.761	12.88
296.555	13.88
297.348	15.88
298.141	16.88
298.935	17.88
299.728	16.88
300.521	16.88
301.314	15.88
302.107	12.88
302.899	13.88
303.692	13.88
304.485	11.88
305.277	13.88
306.07	11.88
306.862	11.88
307.655	13.88
308.447	12.88
309.239	10.88
310.031	10.88
310.823	11.88
311.615	10.88
312.407	7.88
313.199	10.88
313.991	8.88
314.783	7.88
315.574	10.88
316.366	6.88
317.157	10.88
317.949	11.88
318.74	5.88
319.531	8.88
320.322	9.88
321.113	7.88
321.904	6.88
322.695	9.88
323.486	7.88
324.277	9.88
325.068	9.88
325.858	6.88
326.649	6.88
327.439	4.88
328.23	9.88
329.02	8.88
329.81	5.88
330.6	6.88
331.391	6.88
332.181	3.88
332.971	6.88
333.76	8.88
334.55	6.88
335.34	5.88
336.13	5.88
336.919	7.88
337.709	7.88
338.498	9.88
339.287	7.88
340.077	5.88
340.866	7.88
341.655	5.88
342.444	6.88
343.233	6.88
344.022	6.88
344.811	6.88
345.6	4.88
346.388	5.88
347.177	4.88
347.965	5.88
348.754	6.88
349.542	5.88
350.33	7.88
351.119	5.88
351.907	7.88
352.695	7.88
353.483	6.88
354.271	6.88
355.059	5.88
355.846	6.88
356.634	5.88
357.422	4.88
358.209	6.88
358.997	7.88
359.784	8.88
360.571	5.88
361.359	6.88
362.146	6.88
362.933	7.88
363.72	5.88
364.507	2.88
365.294	6.88
366.081	6.88
366.867	4.88
367.654	6.88
368.44	5.88
369.227	6.88
370.013	4.88
370.8	5.88
371.586	6.88
372.372	6.88
373.158	6.88
373.944	3.88
374.73	4.88
375.516	4.88
376.302	7.88
377.088	5.88
377.873	6.88
378.659	6.88
379.445	5.88
380.23	5.88
381.015	5.88
381.801	6.88
382.586	4.88
383.371	4.88
384.156	6.88
384.941	5.88
385.726	4.88
386.511	5.88
387.296	3.88
388.08	6.88
388.865	3.88
389.649	6.88
390.434	8.88
391.218	5.88
392.003	4.88
392.787	7.88
393.571	4.88
394.355	8.88
395.139	6.88
395.923	7.88
396.707	7.88
397.491	7.88
398.274	8.88
399.058	7.88
399.842	8.88
400.625	4.88
401.408	4.88
402.192	4.88
402.975	6.88
403.758	6.88
404.541	8.88
405.324	9.88
406.107	6.88
406.89	5.88
407.673	6.88
408.456	8.88
409.238	10.88
410.021	5.88
410.803	8.88
411.586	7.88
412.368	7.88
413.151	7.88
413.933	9.88
414.715	8.88
415.497	7.88
416.279	9.88
417.061	9.88
417.843	10.88
418.624	8.88
419.406	10.88
420.188	9.88
420.969	9.88
421.751	12.88
422.532	9.88
423.313	10.88
424.095	9.88
424.876	13.88
425.657	13.88
426.438	10.88
427.219	11.88
428	10.88
428.78	13.88
429.561	14.88
430.342	11.88
431.122	14.88
431.903	16.88
432.683	17.88
433.464	17.88
434.244	14.88
435.024	15.88
435.804	19.88
436.584	19.88
437.364	15.88
438.144	20.88
438.924	17.88
439.704	23.88
440.483	21.88
441.263	24.88
442.042	24.88
442.822	25.88
443.601	27.88
444.38	27.88
445.16	32.88
445.939	34.88
446.718	34.88
447.497	39.88
448.276	43.88
449.054	42.88
449.833	44.88
450.612	51.88
451.391	61.88
452.169	61.88
452.948	61.88
453.726	74.88
454.504	77.88
455.282	87.88
456.061	94.88
456.839	102.88
457.617	118.88
458.395	136.88
459.172	144.88
459.95	160.88
460.728	181.88
461.506	209.88
462.283	222.88
463.061	250.88
463.838	281.88
464.615	315.88
465.393	341.88
466.17	392.88
466.947	428.88
467.724	492.88
468.501	538.88
469.278	604.88
470.055	681.88
470.831	752.88
471.608	834.88
472.385	935.88
473.161	1042.88
473.938	1146.88
474.714	1283.88
475.49	1419.88
476.266	1574.88
477.043	1745.88
477.819	1911.88
478.595	2122.88
479.371	2323.88
480.146	2611.88
480.922	2864.88
481.698	3151.88
482.473	3502.88
483.249	3854.88
484.024	4234.88
484.8	4690.88
485.575	5141.88
486.35	5671.88
487.126	6247.88
487.901	6844.88
488.676	7478.88
489.451	8198.88
490.225	9010.88
491	9858.88
491.775	10820.88
492.55	11852.88
493.324	12759.88
494.099	13763.88
494.873	14839.88
495.647	16019.88
496.422	17208.88
497.196	18449.88
497.97	19685.88
498.744	20901.88
499.518	22098.88
500.292	23327.88
501.066	24303.88
501.839	25333.88
502.613	26154.88
503.387	26886.88
504.16	27534.88
504.934	27788.88
505.707	27948.88
506.48	27981.88
507.253	27776.88
508.027	27498.88
508.8	27141.88
509.573	26652.88
510.346	25913.88
511.118	25100.88
511.891	24243.88
512.664	23419.88
513.437	22446.88
514.209	21520.88
514.982	20632.88
515.754	19706.88
516.526	18774.88
517.298	17966.88
518.071	17172.88
518.843	16487.88
519.615	15862.88
520.387	15214.88
521.159	14594.88
521.93	14054.88
522.702	13522.88
523.474	12905.88
524.245	12368.88
525.017	11837.88
525.788	11434.88
526.56	10899.88
527.331	10359.88
528.102	9851.88
528.873	9397.88
529.644	8921.88
530.415	8514.88
531.186	8048.88
531.957	7617.88
532.728	7264.88
533.498	6844.88
534.269	6482.88
535.039	6125.88
535.81	5785.88
536.58	5486.88
537.351	5140.88
538.121	4877.88
538.891	4578.88
539.661	4362.88
540.431	4093.88
541.201	3908.88
541.971	3686.88
542.741	3477.88
543.51	3308.88
544.28	3151.88
545.05	3017.88
545.819	2849.88
546.588	2712.88
547.358	2557.88
548.127	2433.88
548.896	2319.88
549.665	2196.88
550.434	2079.88
551.203	1964.88
551.972	1871.88
552.741	1767.88
553.51	1676.88
554.278	1578.88
555.047	1485.88
555.815	1393.88
556.584	1322.88
557.352	1245.88
558.121	1174.88
558.889	1115.88
559.657	1041.88
560.425	993.88
561.193	931.88
561.961	863.88
562.729	827.88
563.496	791.88
564.264	746.88
565.032	701.88
565.799	662.88
566.567	631.88
567.334	590.88
568.101	567.88
568.869	529.88
569.636	500.88
570.403	468.88
571.17	439.88
571.937	417.88
572.704	391.88
573.471	374.88
574.237	357.88
575.004	330.88
575.771	313.88
576.537	292.88
577.303	281.88
578.07	262.88
578.836	244.88
579.602	228.88
580.368	222.88
581.134	206.88
581.9	194.88
582.666	184.88
583.432	176.88
584.198	165.88
584.964	156.88
585.729	151.88
586.495	142.88
587.26	135.88
588.025	125.88
588.791	124.88
589.556	119.88
590.321	109.88
591.086	101.88
591.851	97.88
592.616	92.88
593.381	87.88
594.146	83.88
594.911	77.88
595.675	80.88
596.44	74.88
597.204	70.88
597.969	70.88
598.733	67.88
599.497	60.88
600.261	60.88
601.025	58.88
601.79	54.88
602.553	53.88
603.317	49.88
604.081	47.88
604.845	44.88
605.609	42.88
606.372	39.88
607.136	40.88
607.899	38.88
608.662	37.88
609.426	34.88
610.189	33.88
610.952	31.88
611.715	33.88
612.478	29.88
613.241	29.88
614.004	25.88
614.767	30.88
615.529	27.88
616.292	24.88
617.055	24.88
617.817	24.88
618.579	21.88
619.342	23.88
620.104	20.88
620.866	21.88
621.628	23.88
622.39	20.88
623.152	18.88
623.914	17.88
624.676	17.88
625.438	16.88
626.199	16.88
626.961	16.88
627.722	15.88
628.484	15.88
629.245	13.88
630.006	12.88
630.768	13.88
631.529	12.88
632.29	13.88
633.051	11.88
633.812	10.88
634.573	9.88
635.333	13.88
636.094	9.88
636.855	11.88
637.615	10.88
638.376	9.88
639.136	10.88
639.896	9.88
640.657	10.88
641.417	7.88
642.177	10.88
642.937	7.88
643.697	7.88
644.457	8.88
645.216	7.88
645.976	8.88
646.736	7.88
647.495	7.88
648.255	7.88
649.014	7.88
649.774	10.88
650.533	9.88
651.292	6.88
652.051	8.88
652.81	7.88
653.569	6.88
654.328	6.88
655.087	9.88
655.846	6.88
656.604	8.88
657.363	5.88
658.121	5.88
658.88	6.88
659.638	2.88
660.397	2.88
661.155	5.88
661.913	3.88
662.671	4.88
663.429	5.88
664.187	6.88
664.945	3.88
665.703	3.88
666.46	6.88
667.218	2.88
667.976	4.88
668.733	5.88
669.49	6.88
670.248	3.88
671.005	6.88
671.762	3.88
672.519	4.88
673.276	6.88
674.033	4.88
674.79	3.88
675.547	4.88
676.304	5.88
677.06	3.88
677.817	2.88
678.574	4.88
679.33	6.88
680.086	5.88
680.843	4.88
681.599	3.88
682.355	5.88
683.111	4.88
683.867	3.88
684.623	4.88
685.379	3.88
686.135	1.88
686.89	1.88
687.646	2.88
688.402	5.88
689.157	2.88
689.912	4.88
690.668	3.88
691.423	4.88
692.178	2.88
692.933	2.88
693.688	3.88
694.443	-0.12
695.198	4.88
695.953	3.88
696.708	2.88
697.462	4.88
698.217	3.88
698.972	4.88
699.726	3.88
700.48	4.88
701.235	3.88
701.989	5.88
702.743	3.88
703.497	0.88
704.251	4.88
705.005	4.88
705.759	3.88
706.513	3.88
707.266	3.88
708.02	5.88
708.774	2.88
709.527	3.88
710.28	0.88
711.034	5.88
711.787	1.88
712.54	2.88
713.293	2.88
714.046	3.88
714.799	2.88
715.552	3.88
716.305	5.88
717.058	4.88
717.81	6.88
718.563	4.88
719.315	4.88
720.068	4.88
720.82	2.88
721.573	1.88
722.325	3.88
723.077	2.88
723.829	3.88
724.581	3.88
725.333	2.88
726.085	3.88
726.836	3.88
727.588	5.88
728.34	1.88
729.091	6.88
729.843	3.88
730.594	3.88
731.346	2.88
732.097	4.88
732.848	2.88
733.599	3.88
734.35	2.88
735.101	3.88
735.852	3.88
736.603	3.88
737.354	3.88
738.104	5.88
738.855	3.88
739.605	4.88
740.356	5.88
741.106	3.88
741.856	3.88
742.607	7.88
743.357	3.88
744.107	6.88
744.857	2.88
745.607	3.88
746.357	3.88
747.106	5.88
747.856	3.88
748.606	6.88
749.355	5.88
750.105	4.88
750.854	7.88
751.603	6.88
752.353	4.88
753.102	7.88
753.851	4.88
754.6	6.88
755.349	5.88
756.098	7.88
756.847	2.88
757.595	6.88
758.344	6.88
759.093	4.88
759.841	7.88
760.589	6.88
761.338	7.88
762.086	4.88
762.834	3.88
763.582	8.88
764.331	6.88
765.079	8.88
765.826	5.88
766.574	7.88
767.322	5.88
768.07	5.88
768.817	6.88
769.565	6.88
770.312	4.88
771.06	6.88
771.807	6.88
772.554	9.88
773.302	4.88
774.049	8.88
774.796	7.88
775.543	8.88
776.29	8.88
777.036	8.88
777.783	7.88
778.53	7.88
779.276	9.88
780.023	8.88
780.769	9.88
781.516	8.88
782.262	7.88
783.008	10.88
783.754	8.88
784.5	9.88
785.246	8.88
785.992	7.88
786.738	8.88
787.484	8.88
788.23	8.88
788.975	9.88
789.721	7.88
790.466	8.88
791.212	7.88
791.957	8.88
792.702	7.88
793.447	10.88
794.193	7.88
794.938	7.88
795.683	9.88
796.427	10.88
797.172	6.88
797.917	9.88
798.662	6.88
799.406	7.88
800.151	6.88
800.895	7.88
801.64	6.88
802.384	7.88
803.128	5.88
803.872	7.88
804.616	6.88
805.36	4.88
806.104	6.88
806.848	6.88
807.592	3.88
808.336	3.88
809.079	5.88
809.823	6.88
810.566	6.88
811.31	6.88
812.053	5.88
812.796	4.88
813.539	5.88
814.283	5.88
815.026	5.88
815.769	5.88
816.511	5.88
817.254	5.88
817.997	5.88
818.74	3.88
819.482	5.88
820.225	3.88
820.967	5.88
821.71	5.88
822.452	6.88
823.194	0.88
823.936	5.88
824.678	4.88
825.42	5.88
826.162	4.88
826.904	0.88
827.646	1.88
828.388	4.88
829.129	6.88
829.871	3.88
830.612	2.88
831.354	2.88
832.095	4.88
832.836	3.88
833.577	3.88
834.319	3.88
835.06	1.88
835.801	1.88
836.542	4.88
837.282	1.88
838.023	3.88
838.764	3.88
839.504	2.88
840.245	4.88
840.985	4.88
841.726	2.88
842.466	1.88
843.206	4.88
843.946	6.88
844.687	1.88
845.427	3.88
846.166	1.88
846.906	2.88
847.646	2.88
848.386	2.88
849.125	3.88
849.865	1.88
850.605	5.88
851.344	2.88
852.083	0.88
852.823	3.88
853.562	1.88
854.301	1.88
855.04	3.88
855.779	1.88
856.518	3.88
857.257	3.88
857.995	1.88
858.734	0.88
859.473	2.88
860.211	1.88
860.95	1.88
861.688	1.88
862.426	2.88
863.165	3.88
863.903	4.88
864.641	1.88
865.379	0.88
866.117	-0.12
866.855	0.88
867.593	4.88
868.33	1.88
869.068	3.88
869.806	2.88
870.543	-0.12
871.28	-0.12
872.018	2.88
872.755	0.88
873.492	1.88
874.229	1.88
874.967	0.88
875.703	0.88
876.44	2.88
877.177	0.88
877.914	0.88
878.651	2.88
879.387	-0.12
880.124	2.88
880.86	-0.12
881.597	1.88
882.333	1.88
883.069	0.88
883.806	1.88
884.542	-0.12
885.278	0.88
886.014	3.88
886.749	-0.12
887.485	1.88
888.221	1.88
888.957	0.88
889.692	4.88
890.428	0.88
891.163	0.88
891.899	-0.12
892.634	-0.12
893.369	-0.12
894.104	1.88
894.839	0.88
895.574	-0.12
896.309	-0.12
897.044	1.88
897.779	2.88
898.514	1.88
899.248	-2.12
899.983	0.88
900.717	-1.12
901.452	1.88
902.186	1.88
902.92	0.88
903.654	0.88
904.389	-0.12
905.123	1.88
905.857	-0.12
906.59	0.88
907.324	-1.12
908.058	3.88
908.792	2.88
909.525	-2.12
910.259	-0.12
910.992	-0.12
911.726	4.88
912.459	0.88
913.192	-0.12
913.925	-0.12
914.658	-0.12
915.391	1.88
916.124	0.88
916.857	1.88
917.59	0.88
918.323	-0.12
919.055	0.88
919.788	0.88
920.521	1.88
921.253	-1.12
921.985	0.88
922.718	1.88
923.45	-2.12
924.182	-0.12
924.914	-2.12
925.646	0.88
926.378	1.88
927.11	0.88
927.841	-1.12
928.573	-0.12
929.305	-0.12
930.036	0.88
930.768	0.88
931.499	1.88
932.23	-0.12
932.962	0.88
933.693	1.88
934.424	2.88
935.155	0.88
935.886	1.88
936.617	-2.12
937.348	-1.12
938.078	1.88
938.809	-0.12
939.54	1.88
940.27	-1.12
941.001	1.88
941.731	-0.12
942.461	0.88
943.191	1.88
943.922	-0.12
944.652	1.88
945.382	1.88
946.112	-1.12
946.841	-0.12
947.571	-0.12
948.301	1.88
949.031	-0.12
949.76	-0.12
950.49	1.88
951.219	-0.12
951.948	-0.12
952.678	2.88
953.407	0.88
954.136	-1.12
954.865	-1.12
955.594	-0.12
956.323	-2.12
957.052	2.88
957.78	0.88
958.509	-0.12
959.238	0.88
959.966	0.88
960.695	-0.12
961.423	2.88
962.151	-0.12
962.88	-0.12
963.608	0.88
964.336	-0.12
965.064	0.88
965.792	1.88
966.52	0.88
967.247	-0.12
967.975	0.88
968.703	-1.12
969.43	3.88
970.158	0.88
970.885	3.88
971.613	2.88
972.34	1.88
973.067	0.88
973.794	-3.12
974.521	1.88
975.248	1.88
975.975	0.88
976.702	1.88
977.429	0.88
978.156	0.88
978.882	0.88
979.609	1.88
980.335	-0.12
981.062	0.88
981.788	0.88
982.514	0.88
983.24	1.88
983.967	-2.12
984.693	-0.12
985.419	-0.12
986.144	-1.12
986.87	0.88
987.596	-1.12
988.322	-0.12
989.047	0.88
989.773	1.88
990.498	0.88
991.224	0.88
991.949	0.88
992.674	0.88
993.399	1.88
994.124	0.88
994.849	-1.12
995.574	0.88
996.299	0.88
997.024	-1.12
997.749	-0.12
998.473	-2.12
999.198	0.88
999.922	0.88
1000.647	1.88
1001.371	0.88
1002.095	-1.12
1002.82	-1.12
1003.544	-2.12
1004.268	3.88
1004.992	-0.12
1005.716	0.88
1006.439	0.88
1007.163	1.88
1007.887	3.88
1008.611	0.88
1009.334	-0.12
1010.058	1.88
1010.781	-0.12
1011.504	1.88
1012.228	0.88
1012.951	1.88
1013.674	0.88
1014.397	1.88
1015.12	-1.12
