节点500_285_QEPB04081__208__14-59-01-079.txt的数据

Date: Wed Nov 12 14:59:01 CST 2025
User: PC
Spectrometer: QEPB0408
触发模式: 0
积分时间 (秒): 1.000000E-2
Scans to average: 1
启用暗噪声校正: true
启用非线性校正: false
滑动平均宽度: 0
X轴模式: Wavelengths
Number of Pixels in Spectrum: 1044
>>>>>Begin Spectral Data<<<<<
220.843	2.12
221.644	0.12
222.444	0.12
223.244	2.12
224.045	3.12
224.845	1.12
225.645	3.12
226.445	3.12
227.245	-0.88
228.045	2.12
228.845	1.12
229.645	-0.88
230.444	1.12
231.244	2.12
232.043	3.12
232.843	3.12
233.642	1.12
234.442	2.12
235.241	4.12
236.04	3.12
236.839	1.12
237.638	3.12
238.437	1.12
239.236	2.12
240.035	6.12
240.833	5.12
241.632	5.12
242.43	4.12
243.229	7.12
244.027	6.12
244.826	5.12
245.624	8.12
246.422	6.12
247.22	4.12
248.018	7.12
248.816	5.12
249.614	6.12
250.412	6.12
251.21	5.12
252.007	6.12
252.805	9.12
253.602	7.12
254.4	9.12
255.197	6.12
255.994	5.12
256.791	11.12
257.589	7.12
258.386	9.12
259.183	7.12
259.979	7.12
260.776	9.12
261.573	11.12
262.37	10.12
263.166	12.12
263.963	10.12
264.759	11.12
265.556	11.12
266.352	9.12
267.148	12.12
267.944	14.12
268.74	15.12
269.536	15.12
270.332	14.12
271.128	12.12
271.924	18.12
272.719	14.12
273.515	16.12
274.311	16.12
275.106	13.12
275.901	18.12
276.697	17.12
277.492	15.12
278.287	19.12
279.082	17.12
279.877	19.12
280.672	20.12
281.467	17.12
282.262	20.12
283.056	20.12
283.851	17.12
284.646	16.12
285.44	17.12
286.234	16.12
287.029	18.12
287.823	18.12
288.617	17.12
289.411	19.12
290.205	15.12
290.999	18.12
291.793	16.12
292.587	18.12
293.381	17.12
294.174	15.12
294.968	16.12
295.761	14.12
296.555	14.12
297.348	17.12
298.141	13.12
298.935	15.12
299.728	13.12
300.521	14.12
301.314	13.12
302.107	12.12
302.899	13.12
303.692	13.12
304.485	12.12
305.277	11.12
306.07	12.12
306.862	11.12
307.655	12.12
308.447	11.12
309.239	10.12
310.031	12.12
310.823	9.12
311.615	10.12
312.407	9.12
313.199	10.12
313.991	10.12
314.783	8.12
315.574	7.12
316.366	8.12
317.157	8.12
317.949	9.12
318.74	7.12
319.531	8.12
320.322	7.12
321.113	9.12
321.904	6.12
322.695	6.12
323.486	6.12
324.277	5.12
325.068	6.12
325.858	5.12
326.649	6.12
327.439	6.12
328.23	5.12
329.02	7.12
329.81	6.12
330.6	5.12
331.391	7.12
332.181	7.12
332.971	7.12
333.76	6.12
334.55	5.12
335.34	7.12
336.13	5.12
336.919	7.12
337.709	7.12
338.498	9.12
339.287	7.12
340.077	6.12
340.866	7.12
341.655	7.12
342.444	5.12
343.233	2.12
344.022	6.12
344.811	8.12
345.6	6.12
346.388	6.12
347.177	5.12
347.965	5.12
348.754	6.12
349.542	6.12
350.33	6.12
351.119	6.12
351.907	5.12
352.695	5.12
353.483	5.12
354.271	5.12
355.059	6.12
355.846	5.12
356.634	4.12
357.422	5.12
358.209	5.12
358.997	6.12
359.784	6.12
360.571	6.12
361.359	5.12
362.146	3.12
362.933	4.12
363.72	5.12
364.507	5.12
365.294	4.12
366.081	2.12
366.867	5.12
367.654	5.12
368.44	3.12
369.227	3.12
370.013	6.12
370.8	4.12
371.586	4.12
372.372	4.12
373.158	5.12
373.944	6.12
374.73	5.12
375.516	7.12
376.302	7.12
377.088	5.12
377.873	6.12
378.659	8.12
379.445	4.12
380.23	6.12
381.015	4.12
381.801	4.12
382.586	2.12
383.371	4.12
384.156	2.12
384.941	4.12
385.726	4.12
386.511	5.12
387.296	5.12
388.08	5.12
388.865	6.12
389.649	5.12
390.434	5.12
391.218	5.12
392.003	4.12
392.787	8.12
393.571	6.12
394.355	5.12
395.139	4.12
395.923	4.12
396.707	7.12
397.491	5.12
398.274	7.12
399.058	8.12
399.842	6.12
400.625	8.12
401.408	5.12
402.192	7.12
402.975	7.12
403.758	9.12
404.541	7.12
405.324	6.12
406.107	9.12
406.89	7.12
407.673	9.12
408.456	7.12
409.238	6.12
410.021	5.12
410.803	8.12
411.586	9.12
412.368	7.12
413.151	8.12
413.933	6.12
414.715	8.12
415.497	10.12
416.279	9.12
417.061	7.12
417.843	9.12
418.624	9.12
419.406	9.12
420.188	9.12
420.969	10.12
421.751	9.12
422.532	10.12
423.313	11.12
424.095	9.12
424.876	9.12
425.657	8.12
426.438	10.12
427.219	13.12
428	12.12
428.78	11.12
429.561	13.12
430.342	16.12
431.122	10.12
431.903	14.12
432.683	16.12
433.464	13.12
434.244	16.12
435.024	14.12
435.804	19.12
436.584	17.12
437.364	18.12
438.144	17.12
438.924	21.12
439.704	22.12
440.483	20.12
441.263	25.12
442.042	25.12
442.822	24.12
443.601	26.12
444.38	27.12
445.16	27.12
445.939	32.12
446.718	34.12
447.497	35.12
448.276	40.12
449.054	44.12
449.833	43.12
450.612	50.12
451.391	51.12
452.169	56.12
452.948	62.12
453.726	65.12
454.504	75.12
455.282	84.12
456.061	94.12
456.839	103.12
457.617	115.12
458.395	129.12
459.172	141.12
459.95	157.12
460.728	174.12
461.506	197.12
462.283	217.12
463.061	242.12
463.838	271.12
464.615	298.12
465.393	347.12
466.17	380.12
466.947	429.12
467.724	473.12
468.501	526.12
469.278	583.12
470.055	654.12
470.831	730.12
471.608	806.12
472.385	908.12
473.161	1001.12
473.938	1113.12
474.714	1230.12
475.49	1366.12
476.266	1512.12
477.043	1681.12
477.819	1875.12
478.595	2063.12
479.371	2272.12
480.146	2510.12
480.922	2783.12
481.698	3079.12
482.473	3386.12
483.249	3748.12
484.024	4133.12
484.8	4561.12
485.575	5039.12
486.35	5520.12
487.126	6053.12
487.901	6670.12
488.676	7327.12
489.451	8016.12
490.225	8794.12
491	9625.12
491.775	10568.12
492.55	11502.12
493.324	12446.12
494.099	13481.12
494.873	14485.12
495.647	15686.12
496.422	16826.12
497.196	18093.12
497.97	19187.12
498.744	20391.12
499.518	21569.12
500.292	22727.12
501.066	23761.12
501.839	24676.12
502.613	25555.12
503.387	26307.12
504.16	26911.12
504.934	27195.12
505.707	27242.12
506.48	27260.12
507.253	27081.12
508.027	26728.12
508.8	26433.12
509.573	25808.12
510.346	25220.12
511.118	24318.12
511.891	23546.12
512.664	22646.12
513.437	21803.12
514.209	20804.12
514.982	19936.12
515.754	19059.12
516.526	18161.12
517.298	17374.12
518.071	16619.12
518.843	16000.12
519.615	15398.12
520.387	14757.12
521.159	14205.12
521.93	13580.12
522.702	13047.12
523.474	12499.12
524.245	11974.12
525.017	11467.12
525.788	11002.12
526.56	10500.12
527.331	10023.12
528.102	9584.12
528.873	9099.12
529.644	8644.12
530.415	8202.12
531.186	7779.12
531.957	7375.12
532.728	7020.12
533.498	6635.12
534.269	6265.12
535.039	5901.12
535.81	5607.12
536.58	5279.12
537.351	4961.12
538.121	4677.12
538.891	4445.12
539.661	4201.12
540.431	3961.12
541.201	3753.12
541.971	3556.12
542.741	3350.12
543.51	3189.12
544.28	3047.12
545.05	2897.12
545.819	2747.12
546.588	2617.12
547.358	2481.12
548.127	2336.12
548.896	2227.12
549.665	2116.12
550.434	2013.12
551.203	1920.12
551.972	1806.12
552.741	1709.12
553.51	1608.12
554.278	1500.12
555.047	1429.12
555.815	1328.12
556.584	1286.12
557.352	1207.12
558.121	1138.12
558.889	1059.12
559.657	1013.12
560.425	947.12
561.193	901.12
561.961	850.12
562.729	790.12
563.496	759.12
564.264	716.12
565.032	684.12
565.799	646.12
566.567	616.12
567.334	571.12
568.101	543.12
568.869	507.12
569.636	486.12
570.403	452.12
571.17	415.12
571.937	404.12
572.704	375.12
573.471	361.12
574.237	342.12
575.004	312.12
575.771	301.12
576.537	277.12
577.303	275.12
578.07	252.12
578.836	231.12
579.602	224.12
580.368	213.12
581.134	201.12
581.9	185.12
582.666	178.12
583.432	166.12
584.198	168.12
584.964	154.12
585.729	148.12
586.495	136.12
587.26	131.12
588.025	127.12
588.791	113.12
589.556	111.12
590.321	105.12
591.086	96.12
591.851	94.12
592.616	90.12
593.381	88.12
594.146	80.12
594.911	78.12
595.675	74.12
596.44	67.12
597.204	65.12
597.969	64.12
598.733	64.12
599.497	59.12
600.261	56.12
601.025	54.12
601.79	51.12
602.553	48.12
603.317	45.12
604.081	46.12
604.845	43.12
605.609	39.12
606.372	41.12
607.136	37.12
607.899	38.12
608.662	34.12
609.426	32.12
610.189	30.12
610.952	28.12
611.715	28.12
612.478	24.12
613.241	27.12
614.004	23.12
614.767	26.12
615.529	24.12
616.292	23.12
617.055	25.12
617.817	24.12
618.579	23.12
619.342	20.12
620.104	18.12
620.866	19.12
621.628	19.12
622.39	19.12
623.152	17.12
623.914	16.12
624.676	15.12
625.438	14.12
626.199	14.12
626.961	14.12
627.722	16.12
628.484	12.12
629.245	13.12
630.006	15.12
630.768	12.12
631.529	15.12
632.29	12.12
633.051	10.12
633.812	13.12
634.573	11.12
635.333	12.12
636.094	8.12
636.855	10.12
637.615	10.12
638.376	8.12
639.136	8.12
639.896	8.12
640.657	11.12
641.417	6.12
642.177	7.12
642.937	9.12
643.697	6.12
644.457	8.12
645.216	9.12
645.976	7.12
646.736	8.12
647.495	9.12
648.255	6.12
649.014	7.12
649.774	7.12
650.533	4.12
651.292	7.12
652.051	6.12
652.81	9.12
653.569	7.12
654.328	6.12
655.087	6.12
655.846	7.12
656.604	4.12
657.363	6.12
658.121	6.12
658.88	4.12
659.638	5.12
660.397	6.12
661.155	6.12
661.913	3.12
662.671	7.12
663.429	3.12
664.187	5.12
664.945	1.12
665.703	5.12
666.46	5.12
667.218	6.12
667.976	5.12
668.733	5.12
669.49	7.12
670.248	3.12
671.005	4.12
671.762	7.12
672.519	5.12
673.276	6.12
674.033	2.12
674.79	7.12
675.547	4.12
676.304	5.12
677.06	6.12
677.817	4.12
678.574	4.12
679.33	3.12
680.086	2.12
680.843	2.12
681.599	4.12
682.355	5.12
683.111	2.12
683.867	5.12
684.623	3.12
685.379	1.12
686.135	1.12
686.89	3.12
687.646	3.12
688.402	2.12
689.157	3.12
689.912	5.12
690.668	4.12
691.423	3.12
692.178	4.12
692.933	5.12
693.688	0.12
694.443	5.12
695.198	4.12
695.953	3.12
696.708	4.12
697.462	3.12
698.217	5.12
698.972	2.12
699.726	5.12
700.48	4.12
701.235	3.12
701.989	4.12
702.743	2.12
703.497	3.12
704.251	1.12
705.005	3.12
705.759	5.12
706.513	2.12
707.266	1.12
708.02	2.12
708.774	2.12
709.527	2.12
710.28	3.12
711.034	3.12
711.787	2.12
712.54	4.12
713.293	5.12
714.046	3.12
714.799	6.12
715.552	4.12
716.305	3.12
717.058	3.12
717.81	5.12
718.563	3.12
719.315	3.12
720.068	4.12
720.82	3.12
721.573	4.12
722.325	3.12
723.077	1.12
723.829	4.12
724.581	3.12
725.333	3.12
726.085	4.12
726.836	6.12
727.588	4.12
728.34	4.12
729.091	4.12
729.843	1.12
730.594	5.12
731.346	4.12
732.097	4.12
732.848	5.12
733.599	2.12
734.35	5.12
735.101	3.12
735.852	5.12
736.603	5.12
737.354	5.12
738.104	2.12
738.855	4.12
739.605	5.12
740.356	4.12
741.106	5.12
741.856	3.12
742.607	5.12
743.357	4.12
744.107	2.12
744.857	7.12
745.607	5.12
746.357	6.12
747.106	2.12
747.856	5.12
748.606	4.12
749.355	5.12
750.105	4.12
750.854	4.12
751.603	5.12
752.353	6.12
753.102	5.12
753.851	5.12
754.6	3.12
755.349	5.12
756.098	6.12
756.847	5.12
757.595	5.12
758.344	4.12
759.093	4.12
759.841	3.12
760.589	3.12
761.338	9.12
762.086	6.12
762.834	8.12
763.582	6.12
764.331	6.12
765.079	6.12
765.826	6.12
766.574	6.12
767.322	7.12
768.07	7.12
768.817	5.12
769.565	6.12
770.312	9.12
771.06	5.12
771.807	7.12
772.554	7.12
773.302	6.12
774.049	10.12
774.796	5.12
775.543	4.12
776.29	7.12
777.036	7.12
777.783	8.12
778.53	9.12
779.276	6.12
780.023	6.12
780.769	8.12
781.516	9.12
782.262	10.12
783.008	8.12
783.754	7.12
784.5	9.12
785.246	9.12
785.992	9.12
786.738	10.12
787.484	8.12
788.23	10.12
788.975	9.12
789.721	9.12
790.466	9.12
791.212	9.12
791.957	9.12
792.702	7.12
793.447	6.12
794.193	8.12
794.938	8.12
795.683	11.12
796.427	8.12
797.172	9.12
797.917	5.12
798.662	9.12
799.406	9.12
800.151	5.12
800.895	6.12
801.64	5.12
802.384	7.12
803.128	7.12
803.872	6.12
804.616	6.12
805.36	8.12
806.104	6.12
806.848	3.12
807.592	6.12
808.336	6.12
809.079	6.12
809.823	5.12
810.566	5.12
811.31	5.12
812.053	4.12
812.796	6.12
813.539	7.12
814.283	3.12
815.026	7.12
815.769	3.12
816.511	5.12
817.254	3.12
817.997	3.12
818.74	3.12
819.482	4.12
820.225	3.12
820.967	3.12
821.71	4.12
822.452	2.12
823.194	4.12
823.936	7.12
824.678	4.12
825.42	4.12
826.162	4.12
826.904	5.12
827.646	3.12
828.388	5.12
829.129	5.12
829.871	4.12
830.612	4.12
831.354	3.12
832.095	3.12
832.836	3.12
833.577	3.12
834.319	3.12
835.06	2.12
835.801	5.12
836.542	1.12
837.282	2.12
838.023	1.12
838.764	5.12
839.504	4.12
840.245	4.12
840.985	1.12
841.726	3.12
842.466	4.12
843.206	3.12
843.946	1.12
844.687	3.12
845.427	3.12
846.166	4.12
846.906	5.12
847.646	1.12
848.386	3.12
849.125	1.12
849.865	0.12
850.605	-0.88
851.344	0.12
852.083	4.12
852.823	1.12
853.562	1.12
854.301	1.12
855.04	4.12
855.779	1.12
856.518	1.12
857.257	3.12
857.995	4.12
858.734	2.12
859.473	2.12
860.211	4.12
860.95	0.12
861.688	1.12
862.426	0.12
863.165	1.12
863.903	3.12
864.641	2.12
865.379	1.12
866.117	0.12
866.855	-0.88
867.593	2.12
868.33	1.12
869.068	-0.88
869.806	0.12
870.543	0.12
871.28	2.12
872.018	1.12
872.755	-0.88
873.492	-0.88
874.229	1.12
874.967	-1.88
875.703	0.12
876.44	0.12
877.177	-0.88
877.914	2.12
878.651	0.12
879.387	0.12
880.124	3.12
880.86	0.12
881.597	-0.88
882.333	-0.88
883.069	-0.88
883.806	1.12
884.542	0.12
885.278	1.12
886.014	1.12
886.749	-0.88
887.485	0.12
888.221	-2.88
888.957	1.12
889.692	1.12
890.428	3.12
891.163	-2.88
891.899	2.12
892.634	-0.88
893.369	-0.88
894.104	2.12
894.839	0.12
895.574	1.12
896.309	-0.88
897.044	0.12
897.779	2.12
898.514	-0.88
899.248	-0.88
899.983	0.12
900.717	0.12
901.452	0.12
902.186	-0.88
902.92	2.12
903.654	0.12
904.389	0.12
905.123	1.12
905.857	0.12
906.59	3.12
907.324	-0.88
908.058	0.12
908.792	1.12
909.525	1.12
910.259	0.12
910.992	1.12
911.726	3.12
912.459	-0.88
913.192	1.12
913.925	1.12
914.658	0.12
915.391	-1.88
916.124	-0.88
916.857	-0.88
917.59	-0.88
918.323	-0.88
919.055	0.12
919.788	-0.88
920.521	0.12
921.253	-0.88
921.985	-0.88
922.718	1.12
923.45	0.12
924.182	1.12
924.914	-0.88
925.646	0.12
926.378	0.12
927.11	0.12
927.841	1.12
928.573	1.12
929.305	1.12
930.036	-2.88
930.768	1.12
931.499	0.12
932.23	-1.88
932.962	0.12
933.693	-0.88
934.424	2.12
935.155	1.12
935.886	0.12
936.617	1.12
937.348	1.12
938.078	-0.88
938.809	-0.88
939.54	0.12
940.27	-1.88
941.001	-0.88
941.731	-0.88
942.461	0.12
943.191	1.12
943.922	0.12
944.652	1.12
945.382	-2.88
946.112	-1.88
946.841	1.12
947.571	0.12
948.301	-0.88
949.031	-0.88
949.76	0.12
950.49	-0.88
951.219	-0.88
951.948	-1.88
952.678	-2.88
953.407	0.12
954.136	-0.88
954.865	-0.88
955.594	-0.88
956.323	-0.88
957.052	0.12
957.78	0.12
958.509	-0.88
959.238	-1.88
959.966	-2.88
960.695	0.12
961.423	-2.88
962.151	-0.88
962.88	-0.88
963.608	0.12
964.336	-1.88
965.064	-2.88
965.792	2.12
966.52	1.12
967.247	0.12
967.975	-0.88
968.703	0.12
969.43	1.12
970.158	-0.88
970.885	-0.88
971.613	0.12
972.34	-0.88
973.067	-0.88
973.794	1.12
974.521	0.12
975.248	-0.88
975.975	0.12
976.702	-0.88
977.429	-1.88
978.156	0.12
978.882	-2.88
979.609	0.12
980.335	-0.88
981.062	2.12
981.788	3.12
982.514	1.12
983.24	-0.88
983.967	-0.88
984.693	1.12
985.419	-2.88
986.144	-0.88
986.87	0.12
987.596	-2.88
988.322	0.12
989.047	0.12
989.773	1.12
990.498	-0.88
991.224	0.12
991.949	-0.88
992.674	1.12
993.399	1.12
994.124	-1.88
994.849	-1.88
995.574	1.12
996.299	0.12
997.024	0.12
997.749	-0.88
998.473	3.12
999.198	-1.88
999.922	1.12
1000.647	0.12
1001.371	4.12
1002.095	-1.88
1002.82	-1.88
1003.544	-2.88
1004.268	2.12
1004.992	1.12
1005.716	1.12
1006.439	1.12
1007.163	1.12
1007.887	0.12
1008.611	2.12
1009.334	1.12
1010.058	0.12
1010.781	0.12
1011.504	1.12
1012.228	-0.88
1012.951	1.12
1013.674	-0.88
1014.397	1.12
1015.12	1.12
