节点500_285_QEPB04081__304__15-00-36-760.txt的数据

Date: Wed Nov 12 15:00:36 CST 2025
User: PC
Spectrometer: QEPB0408
触发模式: 0
积分时间 (秒): 1.000000E-2
Scans to average: 1
启用暗噪声校正: true
启用非线性校正: false
滑动平均宽度: 0
X轴模式: Wavelengths
Number of Pixels in Spectrum: 1044
>>>>>Begin Spectral Data<<<<<
220.843	0.88
221.644	-0.12
222.444	2.88
223.244	-0.12
224.045	2.88
224.845	0.88
225.645	0.88
226.445	1.88
227.245	0.88
228.045	2.88
228.845	3.88
229.645	0.88
230.444	1.88
231.244	0.88
232.043	3.88
232.843	3.88
233.642	1.88
234.442	1.88
235.241	0.88
236.04	3.88
236.839	4.88
237.638	1.88
238.437	4.88
239.236	3.88
240.035	0.88
240.833	2.88
241.632	3.88
242.43	2.88
243.229	5.88
244.027	5.88
244.826	2.88
245.624	4.88
246.422	5.88
247.22	3.88
248.018	6.88
248.816	7.88
249.614	4.88
250.412	4.88
251.21	7.88
252.007	3.88
252.805	6.88
253.602	5.88
254.4	5.88
255.197	5.88
255.994	5.88
256.791	8.88
257.589	8.88
258.386	8.88
259.183	7.88
259.979	6.88
260.776	10.88
261.573	9.88
262.37	10.88
263.166	8.88
263.963	11.88
264.759	10.88
265.556	10.88
266.352	11.88
267.148	12.88
267.944	13.88
268.74	12.88
269.536	12.88
270.332	14.88
271.128	11.88
271.924	14.88
272.719	12.88
273.515	13.88
274.311	13.88
275.106	14.88
275.901	18.88
276.697	15.88
277.492	20.88
278.287	17.88
279.082	16.88
279.877	17.88
280.672	16.88
281.467	19.88
282.262	19.88
283.056	20.88
283.851	15.88
284.646	17.88
285.44	18.88
286.234	17.88
287.029	17.88
287.823	16.88
288.617	18.88
289.411	18.88
290.205	16.88
290.999	17.88
291.793	15.88
292.587	15.88
293.381	19.88
294.174	13.88
294.968	11.88
295.761	13.88
296.555	11.88
297.348	14.88
298.141	13.88
298.935	14.88
299.728	14.88
300.521	15.88
301.314	13.88
302.107	12.88
302.899	10.88
303.692	11.88
304.485	10.88
305.277	11.88
306.07	10.88
306.862	10.88
307.655	11.88
308.447	11.88
309.239	12.88
310.031	9.88
310.823	7.88
311.615	7.88
312.407	8.88
313.199	8.88
313.991	7.88
314.783	8.88
315.574	10.88
316.366	5.88
317.157	8.88
317.949	5.88
318.74	8.88
319.531	7.88
320.322	6.88
321.113	7.88
321.904	8.88
322.695	6.88
323.486	8.88
324.277	5.88
325.068	6.88
325.858	6.88
326.649	3.88
327.439	5.88
328.23	4.88
329.02	5.88
329.81	4.88
330.6	4.88
331.391	5.88
332.181	8.88
332.971	5.88
333.76	5.88
334.55	4.88
335.34	5.88
336.13	4.88
336.919	4.88
337.709	2.88
338.498	4.88
339.287	5.88
340.077	3.88
340.866	5.88
341.655	6.88
342.444	7.88
343.233	1.88
344.022	7.88
344.811	4.88
345.6	6.88
346.388	5.88
347.177	5.88
347.965	3.88
348.754	6.88
349.542	4.88
350.33	1.88
351.119	5.88
351.907	4.88
352.695	2.88
353.483	4.88
354.271	4.88
355.059	5.88
355.846	4.88
356.634	3.88
357.422	6.88
358.209	4.88
358.997	4.88
359.784	4.88
360.571	3.88
361.359	1.88
362.146	3.88
362.933	3.88
363.72	7.88
364.507	4.88
365.294	2.88
366.081	4.88
366.867	3.88
367.654	3.88
368.44	3.88
369.227	3.88
370.013	4.88
370.8	5.88
371.586	7.88
372.372	2.88
373.158	0.88
373.944	4.88
374.73	4.88
375.516	3.88
376.302	5.88
377.088	4.88
377.873	6.88
378.659	6.88
379.445	6.88
380.23	3.88
381.015	3.88
381.801	2.88
382.586	4.88
383.371	3.88
384.156	4.88
384.941	7.88
385.726	0.88
386.511	4.88
387.296	4.88
388.08	4.88
388.865	4.88
389.649	3.88
390.434	2.88
391.218	4.88
392.003	3.88
392.787	2.88
393.571	4.88
394.355	2.88
395.139	5.88
395.923	4.88
396.707	7.88
397.491	4.88
398.274	4.88
399.058	4.88
399.842	5.88
400.625	4.88
401.408	7.88
402.192	7.88
402.975	4.88
403.758	5.88
404.541	3.88
405.324	7.88
406.107	7.88
406.89	4.88
407.673	8.88
408.456	8.88
409.238	6.88
410.021	8.88
410.803	4.88
411.586	6.88
412.368	6.88
413.151	6.88
413.933	6.88
414.715	7.88
415.497	6.88
416.279	5.88
417.061	10.88
417.843	9.88
418.624	8.88
419.406	6.88
420.188	9.88
420.969	8.88
421.751	9.88
422.532	10.88
423.313	9.88
424.095	11.88
424.876	10.88
425.657	11.88
426.438	9.88
427.219	11.88
428	12.88
428.78	14.88
429.561	11.88
430.342	12.88
431.122	11.88
431.903	12.88
432.683	12.88
433.464	18.88
434.244	14.88
435.024	19.88
435.804	19.88
436.584	12.88
437.364	17.88
438.144	16.88
438.924	18.88
439.704	18.88
440.483	18.88
441.263	22.88
442.042	23.88
442.822	23.88
443.601	25.88
444.38	29.88
445.16	29.88
445.939	31.88
446.718	34.88
447.497	36.88
448.276	42.88
449.054	44.88
449.833	45.88
450.612	51.88
451.391	56.88
452.169	57.88
452.948	65.88
453.726	76.88
454.504	79.88
455.282	86.88
456.061	92.88
456.839	102.88
457.617	120.88
458.395	132.88
459.172	147.88
459.95	167.88
460.728	184.88
461.506	207.88
462.283	229.88
463.061	257.88
463.838	285.88
464.615	323.88
465.393	349.88
466.17	388.88
466.947	442.88
467.724	492.88
468.501	550.88
469.278	605.88
470.055	686.88
470.831	749.88
471.608	840.88
472.385	930.88
473.161	1048.88
473.938	1159.88
474.714	1285.88
475.49	1423.88
476.266	1575.88
477.043	1729.88
477.819	1910.88
478.595	2128.88
479.371	2342.88
480.146	2570.88
480.922	2866.88
481.698	3165.88
482.473	3469.88
483.249	3854.88
484.024	4249.88
484.8	4648.88
485.575	5089.88
486.35	5632.88
487.126	6182.88
487.901	6773.88
488.676	7455.88
489.451	8144.88
490.225	8882.88
491	9739.88
491.775	10648.88
492.55	11593.88
493.324	12590.88
494.099	13553.88
494.873	14555.88
495.647	15762.88
496.422	16893.88
497.196	18113.88
497.97	19275.88
498.744	20549.88
499.518	21730.88
500.292	22906.88
501.066	23939.88
501.839	24886.88
502.613	25804.88
503.387	26620.88
504.16	27190.88
504.934	27510.88
505.707	27655.88
506.48	27716.88
507.253	27505.88
508.027	27259.88
508.8	26923.88
509.573	26488.88
510.346	25877.88
511.118	25057.88
511.891	24210.88
512.664	23370.88
513.437	22443.88
514.209	21519.88
514.982	20645.88
515.754	19680.88
516.526	18795.88
517.298	18010.88
518.071	17193.88
518.843	16547.88
519.615	15955.88
520.387	15320.88
521.159	14659.88
521.93	14066.88
522.702	13546.88
523.474	12970.88
524.245	12377.88
525.017	11889.88
525.788	11447.88
526.56	10888.88
527.331	10359.88
528.102	9898.88
528.873	9451.88
529.644	8948.88
530.415	8577.88
531.186	8087.88
531.957	7708.88
532.728	7311.88
533.498	6934.88
534.269	6508.88
535.039	6170.88
535.81	5810.88
536.58	5499.88
537.351	5193.88
538.121	4879.88
538.891	4624.88
539.661	4390.88
540.431	4133.88
541.201	3913.88
541.971	3702.88
542.741	3520.88
543.51	3320.88
544.28	3188.88
545.05	3016.88
545.819	2877.88
546.588	2739.88
547.358	2607.88
548.127	2482.88
548.896	2335.88
549.665	2220.88
550.434	2093.88
551.203	1982.88
551.972	1874.88
552.741	1783.88
553.51	1695.88
554.278	1591.88
555.047	1498.88
555.815	1417.88
556.584	1337.88
557.352	1259.88
558.121	1183.88
558.889	1117.88
559.657	1053.88
560.425	998.88
561.193	934.88
561.961	876.88
562.729	850.88
563.496	795.88
564.264	741.88
565.032	703.88
565.799	671.88
566.567	640.88
567.334	607.88
568.101	560.88
568.869	535.88
569.636	493.88
570.403	465.88
571.17	453.88
571.937	429.88
572.704	395.88
573.471	376.88
574.237	348.88
575.004	331.88
575.771	316.88
576.537	294.88
577.303	277.88
578.07	260.88
578.836	253.88
579.602	227.88
580.368	222.88
581.134	202.88
581.9	191.88
582.666	184.88
583.432	181.88
584.198	166.88
584.964	156.88
585.729	150.88
586.495	140.88
587.26	137.88
588.025	129.88
588.791	123.88
589.556	114.88
590.321	114.88
591.086	105.88
591.851	99.88
592.616	94.88
593.381	88.88
594.146	87.88
594.911	78.88
595.675	77.88
596.44	72.88
597.204	67.88
597.969	65.88
598.733	60.88
599.497	61.88
600.261	58.88
601.025	52.88
601.79	56.88
602.553	49.88
603.317	49.88
604.081	47.88
604.845	42.88
605.609	41.88
606.372	40.88
607.136	40.88
607.899	39.88
608.662	35.88
609.426	31.88
610.189	32.88
610.952	30.88
611.715	30.88
612.478	28.88
613.241	27.88
614.004	26.88
614.767	24.88
615.529	25.88
616.292	24.88
617.055	22.88
617.817	22.88
618.579	22.88
619.342	21.88
620.104	20.88
620.866	15.88
621.628	17.88
622.39	16.88
623.152	20.88
623.914	16.88
624.676	15.88
625.438	16.88
626.199	12.88
626.961	13.88
627.722	14.88
628.484	14.88
629.245	12.88
630.006	11.88
630.768	10.88
631.529	12.88
632.29	12.88
633.051	12.88
633.812	11.88
634.573	10.88
635.333	9.88
636.094	10.88
636.855	10.88
637.615	9.88
638.376	10.88
639.136	8.88
639.896	8.88
640.657	6.88
641.417	8.88
642.177	8.88
642.937	4.88
643.697	7.88
644.457	9.88
645.216	8.88
645.976	4.88
646.736	4.88
647.495	6.88
648.255	5.88
649.014	8.88
649.774	2.88
650.533	5.88
651.292	5.88
652.051	5.88
652.81	8.88
653.569	5.88
654.328	5.88
655.087	5.88
655.846	3.88
656.604	4.88
657.363	6.88
658.121	5.88
658.88	3.88
659.638	4.88
660.397	5.88
661.155	4.88
661.913	4.88
662.671	5.88
663.429	4.88
664.187	2.88
664.945	2.88
665.703	3.88
666.46	2.88
667.218	3.88
667.976	3.88
668.733	2.88
669.49	3.88
670.248	3.88
671.005	5.88
671.762	5.88
672.519	3.88
673.276	1.88
674.033	2.88
674.79	1.88
675.547	3.88
676.304	0.88
677.06	3.88
677.817	3.88
678.574	1.88
679.33	4.88
680.086	2.88
680.843	3.88
681.599	3.88
682.355	4.88
683.111	2.88
683.867	3.88
684.623	2.88
685.379	3.88
686.135	3.88
686.89	5.88
687.646	3.88
688.402	2.88
689.157	1.88
689.912	4.88
690.668	-0.12
691.423	2.88
692.178	4.88
692.933	1.88
693.688	2.88
694.443	4.88
695.198	1.88
695.953	3.88
696.708	0.88
697.462	4.88
698.217	3.88
698.972	0.88
699.726	-1.12
700.48	2.88
701.235	3.88
701.989	1.88
702.743	3.88
703.497	3.88
704.251	2.88
705.005	1.88
705.759	1.88
706.513	1.88
707.266	-0.12
708.02	2.88
708.774	2.88
709.527	2.88
710.28	0.88
711.034	0.88
711.787	2.88
712.54	-1.12
713.293	4.88
714.046	2.88
714.799	2.88
715.552	2.88
716.305	5.88
717.058	4.88
717.81	2.88
718.563	2.88
719.315	2.88
720.068	4.88
720.82	2.88
721.573	2.88
722.325	3.88
723.077	2.88
723.829	2.88
724.581	-0.12
725.333	-0.12
726.085	2.88
726.836	3.88
727.588	1.88
728.34	1.88
729.091	2.88
729.843	2.88
730.594	2.88
731.346	3.88
732.097	5.88
732.848	1.88
733.599	2.88
734.35	3.88
735.101	2.88
735.852	2.88
736.603	3.88
737.354	5.88
738.104	4.88
738.855	2.88
739.605	0.88
740.356	3.88
741.106	3.88
741.856	5.88
742.607	5.88
743.357	3.88
744.107	4.88
744.857	0.88
745.607	2.88
746.357	5.88
747.106	2.88
747.856	6.88
748.606	5.88
749.355	5.88
750.105	3.88
750.854	4.88
751.603	4.88
752.353	3.88
753.102	5.88
753.851	4.88
754.6	6.88
755.349	4.88
756.098	3.88
756.847	3.88
757.595	3.88
758.344	5.88
759.093	4.88
759.841	4.88
760.589	5.88
761.338	6.88
762.086	2.88
762.834	5.88
763.582	4.88
764.331	4.88
765.079	8.88
765.826	5.88
766.574	5.88
767.322	7.88
768.07	5.88
768.817	7.88
769.565	7.88
770.312	6.88
771.06	4.88
771.807	5.88
772.554	6.88
773.302	7.88
774.049	7.88
774.796	5.88
775.543	7.88
776.29	6.88
777.036	4.88
777.783	8.88
778.53	6.88
779.276	6.88
780.023	6.88
780.769	7.88
781.516	7.88
782.262	6.88
783.008	9.88
783.754	5.88
784.5	6.88
785.246	5.88
785.992	8.88
786.738	6.88
787.484	7.88
788.23	7.88
788.975	6.88
789.721	7.88
790.466	7.88
791.212	8.88
791.957	6.88
792.702	7.88
793.447	7.88
794.193	7.88
794.938	5.88
795.683	7.88
796.427	5.88
797.172	9.88
797.917	6.88
798.662	3.88
799.406	7.88
800.151	8.88
800.895	7.88
801.64	6.88
802.384	6.88
803.128	7.88
803.872	6.88
804.616	7.88
805.36	6.88
806.104	5.88
806.848	3.88
807.592	4.88
808.336	5.88
809.079	3.88
809.823	5.88
810.566	4.88
811.31	4.88
812.053	2.88
812.796	3.88
813.539	4.88
814.283	3.88
815.026	5.88
815.769	0.88
816.511	1.88
817.254	2.88
817.997	4.88
818.74	4.88
819.482	2.88
820.225	5.88
820.967	4.88
821.71	4.88
822.452	5.88
823.194	2.88
823.936	4.88
824.678	3.88
825.42	2.88
826.162	4.88
826.904	3.88
827.646	3.88
828.388	2.88
829.129	-0.12
829.871	2.88
830.612	2.88
831.354	2.88
832.095	0.88
832.836	3.88
833.577	3.88
834.319	-0.12
835.06	2.88
835.801	2.88
836.542	1.88
837.282	1.88
838.023	1.88
838.764	1.88
839.504	2.88
840.245	2.88
840.985	3.88
841.726	1.88
842.466	3.88
843.206	3.88
843.946	1.88
844.687	2.88
845.427	2.88
846.166	3.88
846.906	0.88
847.646	-1.12
848.386	1.88
849.125	-0.12
849.865	0.88
850.605	0.88
851.344	0.88
852.083	0.88
852.823	1.88
853.562	1.88
854.301	-1.12
855.04	0.88
855.779	0.88
856.518	0.88
857.257	1.88
857.995	-0.12
858.734	2.88
859.473	2.88
860.211	1.88
860.95	-0.12
861.688	1.88
862.426	1.88
863.165	-0.12
863.903	1.88
864.641	-0.12
865.379	0.88
866.117	0.88
866.855	0.88
867.593	1.88
868.33	0.88
869.068	1.88
869.806	1.88
870.543	-2.12
871.28	-0.12
872.018	-2.12
872.755	-0.12
873.492	-0.12
874.229	1.88
874.967	1.88
875.703	-1.12
876.44	-0.12
877.177	-1.12
877.914	-2.12
878.651	1.88
879.387	0.88
880.124	-1.12
880.86	1.88
881.597	-0.12
882.333	1.88
883.069	-2.12
883.806	0.88
884.542	-0.12
885.278	1.88
886.014	-1.12
886.749	-0.12
887.485	-0.12
888.221	-1.12
888.957	2.88
889.692	-1.12
890.428	1.88
891.163	0.88
891.899	1.88
892.634	0.88
893.369	1.88
894.104	0.88
894.839	-2.12
895.574	-0.12
896.309	-0.12
897.044	-3.12
897.779	-1.12
898.514	-0.12
899.248	0.88
899.983	0.88
900.717	0.88
901.452	0.88
902.186	-1.12
902.92	0.88
903.654	-2.12
904.389	0.88
905.123	-1.12
905.857	-3.12
906.59	-1.12
907.324	-0.12
908.058	-0.12
908.792	-1.12
909.525	-2.12
910.259	-3.12
910.992	-1.12
911.726	-1.12
912.459	-1.12
913.192	-1.12
913.925	-1.12
914.658	0.88
915.391	-1.12
916.124	0.88
916.857	0.88
917.59	-1.12
918.323	-0.12
919.055	-0.12
919.788	0.88
920.521	-0.12
921.253	0.88
921.985	0.88
922.718	-0.12
923.45	-1.12
924.182	-2.12
924.914	-1.12
925.646	-2.12
926.378	-2.12
927.11	0.88
927.841	-0.12
928.573	-1.12
929.305	-2.12
930.036	-1.12
930.768	-0.12
931.499	-0.12
932.23	-1.12
932.962	-1.12
933.693	-1.12
934.424	-2.12
935.155	1.88
935.886	-1.12
936.617	-0.12
937.348	-0.12
938.078	-0.12
938.809	-2.12
939.54	-2.12
940.27	-1.12
941.001	-2.12
941.731	-0.12
942.461	1.88
943.191	-0.12
943.922	-0.12
944.652	0.88
945.382	-1.12
946.112	0.88
946.841	-1.12
947.571	-0.12
948.301	-1.12
949.031	-1.12
949.76	-0.12
950.49	-0.12
951.219	1.88
951.948	0.88
952.678	-0.12
953.407	-2.12
954.136	-0.12
954.865	-2.12
955.594	-1.12
956.323	-0.12
957.052	-0.12
957.78	-1.12
958.509	-0.12
959.238	-0.12
959.966	-3.12
960.695	-0.12
961.423	-2.12
962.151	-0.12
962.88	-1.12
963.608	-0.12
964.336	-1.12
965.064	0.88
965.792	-0.12
966.52	-2.12
967.247	-2.12
967.975	-1.12
968.703	-1.12
969.43	-0.12
970.158	0.88
970.885	1.88
971.613	-1.12
972.34	0.88
973.067	-2.12
973.794	-1.12
974.521	-1.12
975.248	-3.12
975.975	-1.12
976.702	-0.12
977.429	-0.12
978.156	-1.12
978.882	-0.12
979.609	-1.12
980.335	0.88
981.062	-0.12
981.788	-0.12
982.514	-1.12
983.24	0.88
983.967	-2.12
984.693	-1.12
985.419	-1.12
986.144	1.88
986.87	-1.12
987.596	-2.12
988.322	-0.12
989.047	-0.12
989.773	-0.12
990.498	-0.12
991.224	-1.12
991.949	1.88
992.674	-2.12
993.399	0.88
994.124	-4.12
994.849	-0.12
995.574	-1.12
996.299	-0.12
997.024	-0.12
997.749	-1.12
998.473	-3.12
999.198	-0.12
999.922	-2.12
1000.647	-0.12
1001.371	2.88
1002.095	0.88
1002.82	-3.12
1003.544	-1.12
1004.268	-3.12
1004.992	-1.12
1005.716	-0.12
1006.439	0.88
1007.163	1.88
1007.887	0.88
1008.611	-1.12
1009.334	-1.12
1010.058	-2.12
1010.781	-0.12
1011.504	-0.12
1012.228	0.88
1012.951	-0.12
1013.674	0.88
1014.397	-1.12
1015.12	0.88
