节点500_285_QEPB04081__513__15-04-05-337.txt的数据

Date: Wed Nov 12 15:04:05 CST 2025
User: PC
Spectrometer: QEPB0408
触发模式: 0
积分时间 (秒): 1.000000E-2
Scans to average: 1
启用暗噪声校正: true
启用非线性校正: false
滑动平均宽度: 0
X轴模式: Wavelengths
Number of Pixels in Spectrum: 1044
>>>>>Begin Spectral Data<<<<<
220.843	2.88
221.644	1.88
222.444	-0.12
223.244	0.88
224.045	1.88
224.845	1.88
225.645	1.88
226.445	2.88
227.245	1.88
228.045	1.88
228.845	3.88
229.645	2.88
230.444	2.88
231.244	3.88
232.043	4.88
232.843	2.88
233.642	4.88
234.442	-0.12
235.241	5.88
236.04	3.88
236.839	4.88
237.638	4.88
238.437	3.88
239.236	2.88
240.035	4.88
240.833	3.88
241.632	2.88
242.43	3.88
243.229	3.88
244.027	4.88
244.826	5.88
245.624	3.88
246.422	4.88
247.22	6.88
248.018	2.88
248.816	7.88
249.614	4.88
250.412	6.88
251.21	5.88
252.007	6.88
252.805	8.88
253.602	5.88
254.4	7.88
255.197	8.88
255.994	6.88
256.791	8.88
257.589	6.88
258.386	11.88
259.183	6.88
259.979	7.88
260.776	8.88
261.573	9.88
262.37	9.88
263.166	9.88
263.963	11.88
264.759	11.88
265.556	11.88
266.352	9.88
267.148	13.88
267.944	13.88
268.74	11.88
269.536	15.88
270.332	12.88
271.128	13.88
271.924	12.88
272.719	13.88
273.515	16.88
274.311	12.88
275.106	17.88
275.901	14.88
276.697	19.88
277.492	15.88
278.287	16.88
279.082	17.88
279.877	18.88
280.672	16.88
281.467	15.88
282.262	15.88
283.056	18.88
283.851	17.88
284.646	19.88
285.44	16.88
286.234	16.88
287.029	17.88
287.823	17.88
288.617	20.88
289.411	19.88
290.205	18.88
290.999	14.88
291.793	18.88
292.587	19.88
293.381	15.88
294.174	17.88
294.968	11.88
295.761	17.88
296.555	14.88
297.348	12.88
298.141	16.88
298.935	17.88
299.728	16.88
300.521	13.88
301.314	13.88
302.107	13.88
302.899	14.88
303.692	13.88
304.485	9.88
305.277	14.88
306.07	13.88
306.862	11.88
307.655	10.88
308.447	11.88
309.239	12.88
310.031	11.88
310.823	11.88
311.615	10.88
312.407	7.88
313.199	7.88
313.991	8.88
314.783	12.88
315.574	9.88
316.366	8.88
317.157	8.88
317.949	7.88
318.74	9.88
319.531	7.88
320.322	9.88
321.113	9.88
321.904	7.88
322.695	6.88
323.486	8.88
324.277	9.88
325.068	6.88
325.858	9.88
326.649	6.88
327.439	3.88
328.23	5.88
329.02	5.88
329.81	6.88
330.6	9.88
331.391	7.88
332.181	7.88
332.971	4.88
333.76	5.88
334.55	6.88
335.34	5.88
336.13	5.88
336.919	3.88
337.709	5.88
338.498	4.88
339.287	7.88
340.077	4.88
340.866	6.88
341.655	7.88
342.444	5.88
343.233	8.88
344.022	3.88
344.811	6.88
345.6	4.88
346.388	6.88
347.177	7.88
347.965	4.88
348.754	5.88
349.542	5.88
350.33	5.88
351.119	5.88
351.907	2.88
352.695	4.88
353.483	6.88
354.271	7.88
355.059	4.88
355.846	5.88
356.634	4.88
357.422	2.88
358.209	6.88
358.997	4.88
359.784	6.88
360.571	5.88
361.359	5.88
362.146	6.88
362.933	4.88
363.72	3.88
364.507	5.88
365.294	5.88
366.081	3.88
366.867	4.88
367.654	7.88
368.44	4.88
369.227	6.88
370.013	4.88
370.8	5.88
371.586	6.88
372.372	3.88
373.158	5.88
373.944	6.88
374.73	6.88
375.516	5.88
376.302	3.88
377.088	3.88
377.873	2.88
378.659	4.88
379.445	4.88
380.23	5.88
381.015	5.88
381.801	4.88
382.586	5.88
383.371	6.88
384.156	5.88
384.941	5.88
385.726	6.88
386.511	5.88
387.296	4.88
388.08	8.88
388.865	4.88
389.649	4.88
390.434	8.88
391.218	6.88
392.003	5.88
392.787	5.88
393.571	7.88
394.355	4.88
395.139	5.88
395.923	5.88
396.707	5.88
397.491	7.88
398.274	6.88
399.058	7.88
399.842	6.88
400.625	6.88
401.408	8.88
402.192	7.88
402.975	8.88
403.758	7.88
404.541	7.88
405.324	8.88
406.107	5.88
406.89	8.88
407.673	9.88
408.456	8.88
409.238	8.88
410.021	7.88
410.803	5.88
411.586	5.88
412.368	9.88
413.151	8.88
413.933	9.88
414.715	12.88
415.497	9.88
416.279	8.88
417.061	9.88
417.843	9.88
418.624	8.88
419.406	11.88
420.188	8.88
420.969	9.88
421.751	9.88
422.532	11.88
423.313	11.88
424.095	11.88
424.876	11.88
425.657	9.88
426.438	10.88
427.219	12.88
428	12.88
428.78	13.88
429.561	14.88
430.342	13.88
431.122	14.88
431.903	15.88
432.683	13.88
433.464	15.88
434.244	17.88
435.024	15.88
435.804	17.88
436.584	18.88
437.364	19.88
438.144	18.88
438.924	21.88
439.704	18.88
440.483	23.88
441.263	22.88
442.042	26.88
442.822	27.88
443.601	28.88
444.38	30.88
445.16	31.88
445.939	34.88
446.718	36.88
447.497	38.88
448.276	40.88
449.054	48.88
449.833	51.88
450.612	54.88
451.391	60.88
452.169	61.88
452.948	70.88
453.726	79.88
454.504	82.88
455.282	95.88
456.061	101.88
456.839	115.88
457.617	129.88
458.395	140.88
459.172	155.88
459.95	173.88
460.728	189.88
461.506	219.88
462.283	246.88
463.061	262.88
463.838	304.88
464.615	335.88
465.393	369.88
466.17	420.88
466.947	465.88
467.724	521.88
468.501	572.88
469.278	645.88
470.055	703.88
470.831	783.88
471.608	883.88
472.385	970.88
473.161	1062.88
473.938	1188.88
474.714	1303.88
475.49	1448.88
476.266	1595.88
477.043	1765.88
477.819	1927.88
478.595	2143.88
479.371	2352.88
480.146	2586.88
480.922	2838.88
481.698	3132.88
482.473	3431.88
483.249	3749.88
484.024	4115.88
484.8	4532.88
485.575	4960.88
486.35	5430.88
487.126	5925.88
487.901	6500.88
488.676	7110.88
489.451	7766.88
490.225	8474.88
491	9230.88
491.775	10074.88
492.55	10932.88
493.324	11863.88
494.099	12773.88
494.873	13693.88
495.647	14814.88
496.422	15853.88
497.196	16974.88
497.97	18140.88
498.744	19294.88
499.518	20437.88
500.292	21520.88
501.066	22545.88
501.839	23486.88
502.613	24401.88
503.387	25184.88
504.16	25861.88
504.934	26254.88
505.707	26509.88
506.48	26667.88
507.253	26703.88
508.027	26518.88
508.8	26237.88
509.573	25952.88
510.346	25501.88
511.118	24786.88
511.891	24061.88
512.664	23297.88
513.437	22448.88
514.209	21541.88
514.982	20772.88
515.754	19893.88
516.526	19032.88
517.298	18191.88
518.071	17360.88
518.843	16714.88
519.615	16090.88
520.387	15453.88
521.159	14845.88
521.93	14251.88
522.702	13682.88
523.474	13134.88
524.245	12564.88
525.017	12023.88
525.788	11589.88
526.56	11074.88
527.331	10563.88
528.102	10142.88
528.873	9654.88
529.644	9199.88
530.415	8720.88
531.186	8284.88
531.957	7853.88
532.728	7470.88
533.498	7135.88
534.269	6717.88
535.039	6330.88
535.81	6008.88
536.58	5670.88
537.351	5345.88
538.121	5090.88
538.891	4808.88
539.661	4524.88
540.431	4288.88
541.201	4021.88
541.971	3815.88
542.741	3619.88
543.51	3463.88
544.28	3254.88
545.05	3114.88
545.819	2967.88
546.588	2841.88
547.358	2688.88
548.127	2548.88
548.896	2420.88
549.665	2298.88
550.434	2167.88
551.203	2065.88
551.972	1950.88
552.741	1847.88
553.51	1735.88
554.278	1643.88
555.047	1556.88
555.815	1468.88
556.584	1385.88
557.352	1319.88
558.121	1234.88
558.889	1185.88
559.657	1110.88
560.425	1045.88
561.193	973.88
561.961	924.88
562.729	887.88
563.496	831.88
564.264	783.88
565.032	734.88
565.799	701.88
566.567	667.88
567.334	621.88
568.101	594.88
568.869	557.88
569.636	523.88
570.403	493.88
571.17	477.88
571.937	444.88
572.704	410.88
573.471	391.88
574.237	375.88
575.004	344.88
575.771	326.88
576.537	314.88
577.303	287.88
578.07	275.88
578.836	257.88
579.602	242.88
580.368	233.88
581.134	217.88
581.9	212.88
582.666	203.88
583.432	187.88
584.198	178.88
584.964	169.88
585.729	156.88
586.495	152.88
587.26	149.88
588.025	135.88
588.791	126.88
589.556	124.88
590.321	116.88
591.086	108.88
591.851	103.88
592.616	101.88
593.381	97.88
594.146	89.88
594.911	84.88
595.675	83.88
596.44	78.88
597.204	71.88
597.969	70.88
598.733	68.88
599.497	62.88
600.261	57.88
601.025	54.88
601.79	53.88
602.553	58.88
603.317	51.88
604.081	48.88
604.845	45.88
605.609	44.88
606.372	41.88
607.136	42.88
607.899	42.88
608.662	36.88
609.426	37.88
610.189	38.88
610.952	32.88
611.715	32.88
612.478	29.88
613.241	30.88
614.004	29.88
614.767	29.88
615.529	25.88
616.292	27.88
617.055	23.88
617.817	22.88
618.579	25.88
619.342	24.88
620.104	20.88
620.866	20.88
621.628	23.88
622.39	19.88
623.152	20.88
623.914	17.88
624.676	17.88
625.438	19.88
626.199	13.88
626.961	14.88
627.722	12.88
628.484	13.88
629.245	10.88
630.006	13.88
630.768	15.88
631.529	10.88
632.29	12.88
633.051	13.88
633.812	13.88
634.573	9.88
635.333	12.88
636.094	9.88
636.855	9.88
637.615	10.88
638.376	11.88
639.136	11.88
639.896	10.88
640.657	9.88
641.417	7.88
642.177	11.88
642.937	10.88
643.697	7.88
644.457	9.88
645.216	7.88
645.976	6.88
646.736	7.88
647.495	9.88
648.255	6.88
649.014	6.88
649.774	7.88
650.533	6.88
651.292	8.88
652.051	5.88
652.81	7.88
653.569	6.88
654.328	5.88
655.087	7.88
655.846	6.88
656.604	7.88
657.363	3.88
658.121	6.88
658.88	4.88
659.638	3.88
660.397	7.88
661.155	5.88
661.913	5.88
662.671	3.88
663.429	6.88
664.187	3.88
664.945	3.88
665.703	5.88
666.46	4.88
667.218	5.88
667.976	5.88
668.733	5.88
669.49	6.88
670.248	4.88
671.005	4.88
671.762	5.88
672.519	6.88
673.276	6.88
674.033	3.88
674.79	3.88
675.547	2.88
676.304	3.88
677.06	2.88
677.817	4.88
678.574	3.88
679.33	4.88
680.086	0.88
680.843	2.88
681.599	2.88
682.355	2.88
683.111	3.88
683.867	3.88
684.623	3.88
685.379	3.88
686.135	2.88
686.89	3.88
687.646	4.88
688.402	3.88
689.157	3.88
689.912	2.88
690.668	2.88
691.423	1.88
692.178	6.88
692.933	3.88
693.688	2.88
694.443	2.88
695.198	4.88
695.953	4.88
696.708	1.88
697.462	2.88
698.217	3.88
698.972	2.88
699.726	3.88
700.48	2.88
701.235	3.88
701.989	0.88
702.743	3.88
703.497	3.88
704.251	4.88
705.005	5.88
705.759	2.88
706.513	3.88
707.266	2.88
708.02	1.88
708.774	3.88
709.527	2.88
710.28	3.88
711.034	3.88
711.787	4.88
712.54	2.88
713.293	3.88
714.046	4.88
714.799	1.88
715.552	2.88
716.305	1.88
717.058	3.88
717.81	2.88
718.563	3.88
719.315	4.88
720.068	2.88
720.82	3.88
721.573	4.88
722.325	4.88
723.077	3.88
723.829	3.88
724.581	3.88
725.333	5.88
726.085	2.88
726.836	3.88
727.588	4.88
728.34	3.88
729.091	4.88
729.843	4.88
730.594	3.88
731.346	3.88
732.097	1.88
732.848	5.88
733.599	5.88
734.35	4.88
735.101	5.88
735.852	6.88
736.603	6.88
737.354	3.88
738.104	4.88
738.855	3.88
739.605	3.88
740.356	2.88
741.106	3.88
741.856	1.88
742.607	4.88
743.357	2.88
744.107	4.88
744.857	4.88
745.607	5.88
746.357	4.88
747.106	5.88
747.856	3.88
748.606	1.88
749.355	5.88
750.105	4.88
750.854	4.88
751.603	3.88
752.353	1.88
753.102	5.88
753.851	3.88
754.6	7.88
755.349	4.88
756.098	6.88
756.847	6.88
757.595	6.88
758.344	6.88
759.093	6.88
759.841	7.88
760.589	3.88
761.338	5.88
762.086	5.88
762.834	5.88
763.582	5.88
764.331	7.88
765.079	6.88
765.826	6.88
766.574	5.88
767.322	6.88
768.07	7.88
768.817	6.88
769.565	6.88
770.312	6.88
771.06	6.88
771.807	6.88
772.554	9.88
773.302	6.88
774.049	6.88
774.796	7.88
775.543	6.88
776.29	7.88
777.036	5.88
777.783	7.88
778.53	8.88
779.276	9.88
780.023	8.88
780.769	6.88
781.516	10.88
782.262	6.88
783.008	8.88
783.754	5.88
784.5	8.88
785.246	8.88
785.992	8.88
786.738	11.88
787.484	5.88
788.23	10.88
788.975	9.88
789.721	8.88
790.466	9.88
791.212	5.88
791.957	8.88
792.702	9.88
793.447	8.88
794.193	8.88
794.938	9.88
795.683	7.88
796.427	6.88
797.172	8.88
797.917	5.88
798.662	7.88
799.406	3.88
800.151	9.88
800.895	6.88
801.64	5.88
802.384	7.88
803.128	4.88
803.872	7.88
804.616	7.88
805.36	4.88
806.104	4.88
806.848	4.88
807.592	7.88
808.336	5.88
809.079	2.88
809.823	5.88
810.566	4.88
811.31	4.88
812.053	6.88
812.796	4.88
813.539	4.88
814.283	6.88
815.026	5.88
815.769	3.88
816.511	5.88
817.254	3.88
817.997	3.88
818.74	4.88
819.482	4.88
820.225	3.88
820.967	3.88
821.71	6.88
822.452	3.88
823.194	3.88
823.936	5.88
824.678	2.88
825.42	4.88
826.162	3.88
826.904	5.88
827.646	3.88
828.388	5.88
829.129	4.88
829.871	2.88
830.612	8.88
831.354	3.88
832.095	4.88
832.836	1.88
833.577	2.88
834.319	3.88
835.06	2.88
835.801	4.88
836.542	0.88
837.282	3.88
838.023	3.88
838.764	3.88
839.504	4.88
840.245	1.88
840.985	2.88
841.726	2.88
842.466	2.88
843.206	3.88
843.946	1.88
844.687	4.88
845.427	0.88
846.166	0.88
846.906	2.88
847.646	1.88
848.386	3.88
849.125	3.88
849.865	5.88
850.605	3.88
851.344	4.88
852.083	3.88
852.823	3.88
853.562	3.88
854.301	3.88
855.04	3.88
855.779	1.88
856.518	3.88
857.257	4.88
857.995	0.88
858.734	2.88
859.473	1.88
860.211	1.88
860.95	2.88
861.688	1.88
862.426	4.88
863.165	-0.12
863.903	4.88
864.641	0.88
865.379	3.88
866.117	0.88
866.855	1.88
867.593	1.88
868.33	0.88
869.068	0.88
869.806	-1.12
870.543	-0.12
871.28	1.88
872.018	0.88
872.755	1.88
873.492	1.88
874.229	2.88
874.967	1.88
875.703	-0.12
876.44	2.88
877.177	0.88
877.914	2.88
878.651	2.88
879.387	1.88
880.124	3.88
880.86	-0.12
881.597	1.88
882.333	-0.12
883.069	2.88
883.806	1.88
884.542	-0.12
885.278	0.88
886.014	0.88
886.749	2.88
887.485	0.88
888.221	1.88
888.957	3.88
889.692	-0.12
890.428	0.88
891.163	0.88
891.899	-1.12
892.634	0.88
893.369	-0.12
894.104	0.88
894.839	1.88
895.574	-0.12
896.309	-0.12
897.044	1.88
897.779	0.88
898.514	-0.12
899.248	-0.12
899.983	0.88
900.717	1.88
901.452	0.88
902.186	-0.12
902.92	-0.12
903.654	-0.12
904.389	2.88
905.123	-0.12
905.857	0.88
906.59	-2.12
907.324	-0.12
908.058	1.88
908.792	-0.12
909.525	1.88
910.259	-1.12
910.992	0.88
911.726	-0.12
912.459	-0.12
913.192	-0.12
913.925	0.88
914.658	-1.12
915.391	-1.12
916.124	2.88
916.857	-0.12
917.59	-2.12
918.323	-0.12
919.055	0.88
919.788	2.88
920.521	1.88
921.253	0.88
921.985	-0.12
922.718	-0.12
923.45	-1.12
924.182	-0.12
924.914	1.88
925.646	1.88
926.378	-0.12
927.11	0.88
927.841	0.88
928.573	0.88
929.305	-0.12
930.036	1.88
930.768	0.88
931.499	-2.12
932.23	0.88
932.962	0.88
933.693	1.88
934.424	0.88
935.155	-1.12
935.886	-0.12
936.617	0.88
937.348	-0.12
938.078	-1.12
938.809	1.88
939.54	-0.12
940.27	0.88
941.001	1.88
941.731	-1.12
942.461	0.88
943.191	-1.12
943.922	1.88
944.652	3.88
945.382	-0.12
946.112	-1.12
946.841	-0.12
947.571	-1.12
948.301	-1.12
949.031	-0.12
949.76	0.88
950.49	-3.12
951.219	-0.12
951.948	1.88
952.678	1.88
953.407	-0.12
954.136	-0.12
954.865	-0.12
955.594	0.88
956.323	2.88
957.052	0.88
957.78	-1.12
958.509	0.88
959.238	0.88
959.966	0.88
960.695	-1.12
961.423	0.88
962.151	1.88
962.88	0.88
963.608	-2.12
964.336	-0.12
965.064	0.88
965.792	-0.12
966.52	0.88
967.247	2.88
967.975	-0.12
968.703	-2.12
969.43	-0.12
970.158	2.88
970.885	-0.12
971.613	-0.12
972.34	-0.12
973.067	-1.12
973.794	-0.12
974.521	-2.12
975.248	1.88
975.975	0.88
976.702	0.88
977.429	-0.12
978.156	-2.12
978.882	-0.12
979.609	0.88
980.335	1.88
981.062	-0.12
981.788	-0.12
982.514	0.88
983.24	-0.12
983.967	-0.12
984.693	-2.12
985.419	0.88
986.144	1.88
986.87	-1.12
987.596	1.88
988.322	-0.12
989.047	0.88
989.773	-2.12
990.498	0.88
991.224	0.88
991.949	-0.12
992.674	-1.12
993.399	-1.12
994.124	0.88
994.849	-0.12
995.574	-2.12
996.299	-0.12
997.024	-1.12
997.749	0.88
998.473	0.88
999.198	-1.12
999.922	2.88
1000.647	-3.12
1001.371	3.88
1002.095	-1.12
1002.82	-2.12
1003.544	-2.12
1004.268	0.88
1004.992	-0.12
1005.716	1.88
1006.439	-1.12
1007.163	2.88
1007.887	1.88
1008.611	-0.12
1009.334	-0.12
1010.058	-0.12
1010.781	-1.12
1011.504	-0.12
1012.228	0.88
1012.951	-0.12
1013.674	1.88
1014.397	-0.12
1015.12	-0.12
