节点500_285_QEPB04081__105__14-57-18-286.txt的数据

Date: Wed Nov 12 14:57:18 CST 2025
User: PC
Spectrometer: QEPB0408
触发模式: 0
积分时间 (秒): 1.000000E-2
Scans to average: 1
启用暗噪声校正: true
启用非线性校正: false
滑动平均宽度: 0
X轴模式: Wavelengths
Number of Pixels in Spectrum: 1044
>>>>>Begin Spectral Data<<<<<
220.843	2.12
221.644	1.12
222.444	3.12
223.244	1.12
224.045	2.12
224.845	4.12
225.645	1.12
226.445	3.12
227.245	3.12
228.045	2.12
228.845	3.12
229.645	1.12
230.444	4.12
231.244	1.12
232.043	4.12
232.843	4.12
233.642	3.12
234.442	5.12
235.241	1.12
236.04	4.12
236.839	3.12
237.638	3.12
238.437	5.12
239.236	3.12
240.035	4.12
240.833	4.12
241.632	4.12
242.43	4.12
243.229	4.12
244.027	6.12
244.826	3.12
245.624	7.12
246.422	5.12
247.22	5.12
248.018	5.12
248.816	6.12
249.614	8.12
250.412	3.12
251.21	7.12
252.007	8.12
252.805	8.12
253.602	9.12
254.4	9.12
255.197	9.12
255.994	8.12
256.791	10.12
257.589	11.12
258.386	8.12
259.183	11.12
259.979	13.12
260.776	11.12
261.573	10.12
262.37	9.12
263.166	13.12
263.963	11.12
264.759	11.12
265.556	12.12
266.352	14.12
267.148	12.12
267.944	15.12
268.74	11.12
269.536	16.12
270.332	14.12
271.128	14.12
271.924	16.12
272.719	17.12
273.515	19.12
274.311	17.12
275.106	16.12
275.901	17.12
276.697	18.12
277.492	20.12
278.287	19.12
279.082	19.12
279.877	21.12
280.672	20.12
281.467	20.12
282.262	19.12
283.056	20.12
283.851	21.12
284.646	21.12
285.44	18.12
286.234	21.12
287.029	19.12
287.823	19.12
288.617	17.12
289.411	20.12
290.205	16.12
290.999	18.12
291.793	19.12
292.587	19.12
293.381	18.12
294.174	18.12
294.968	15.12
295.761	18.12
296.555	16.12
297.348	15.12
298.141	17.12
298.935	13.12
299.728	15.12
300.521	15.12
301.314	14.12
302.107	12.12
302.899	13.12
303.692	13.12
304.485	13.12
305.277	10.12
306.07	12.12
306.862	12.12
307.655	11.12
308.447	13.12
309.239	9.12
310.031	10.12
310.823	9.12
311.615	9.12
312.407	11.12
313.199	8.12
313.991	8.12
314.783	11.12
315.574	11.12
316.366	7.12
317.157	7.12
317.949	8.12
318.74	9.12
319.531	9.12
320.322	7.12
321.113	5.12
321.904	7.12
322.695	6.12
323.486	6.12
324.277	7.12
325.068	5.12
325.858	7.12
326.649	7.12
327.439	7.12
328.23	6.12
329.02	7.12
329.81	7.12
330.6	5.12
331.391	7.12
332.181	5.12
332.971	7.12
333.76	8.12
334.55	6.12
335.34	6.12
336.13	9.12
336.919	8.12
337.709	7.12
338.498	6.12
339.287	8.12
340.077	5.12
340.866	6.12
341.655	5.12
342.444	9.12
343.233	6.12
344.022	8.12
344.811	7.12
345.6	7.12
346.388	7.12
347.177	7.12
347.965	7.12
348.754	5.12
349.542	4.12
350.33	7.12
351.119	6.12
351.907	6.12
352.695	5.12
353.483	6.12
354.271	7.12
355.059	6.12
355.846	7.12
356.634	4.12
357.422	5.12
358.209	5.12
358.997	5.12
359.784	6.12
360.571	7.12
361.359	6.12
362.146	7.12
362.933	5.12
363.72	5.12
364.507	5.12
365.294	7.12
366.081	3.12
366.867	6.12
367.654	4.12
368.44	4.12
369.227	5.12
370.013	4.12
370.8	4.12
371.586	6.12
372.372	7.12
373.158	3.12
373.944	2.12
374.73	6.12
375.516	5.12
376.302	4.12
377.088	5.12
377.873	4.12
378.659	8.12
379.445	5.12
380.23	3.12
381.015	7.12
381.801	4.12
382.586	6.12
383.371	3.12
384.156	5.12
384.941	6.12
385.726	6.12
386.511	4.12
387.296	5.12
388.08	6.12
388.865	4.12
389.649	6.12
390.434	6.12
391.218	6.12
392.003	6.12
392.787	7.12
393.571	5.12
394.355	7.12
395.139	6.12
395.923	7.12
396.707	7.12
397.491	7.12
398.274	6.12
399.058	6.12
399.842	6.12
400.625	7.12
401.408	6.12
402.192	7.12
402.975	10.12
403.758	9.12
404.541	7.12
405.324	7.12
406.107	8.12
406.89	9.12
407.673	6.12
408.456	8.12
409.238	7.12
410.021	8.12
410.803	9.12
411.586	9.12
412.368	8.12
413.151	8.12
413.933	8.12
414.715	9.12
415.497	8.12
416.279	8.12
417.061	9.12
417.843	10.12
418.624	12.12
419.406	11.12
420.188	12.12
420.969	12.12
421.751	12.12
422.532	11.12
423.313	12.12
424.095	12.12
424.876	11.12
425.657	13.12
426.438	11.12
427.219	13.12
428	15.12
428.78	12.12
429.561	12.12
430.342	13.12
431.122	14.12
431.903	13.12
432.683	13.12
433.464	17.12
434.244	16.12
435.024	14.12
435.804	21.12
436.584	22.12
437.364	19.12
438.144	21.12
438.924	21.12
439.704	18.12
440.483	23.12
441.263	25.12
442.042	23.12
442.822	25.12
443.601	26.12
444.38	29.12
445.16	33.12
445.939	32.12
446.718	35.12
447.497	39.12
448.276	41.12
449.054	41.12
449.833	48.12
450.612	49.12
451.391	58.12
452.169	58.12
452.948	62.12
453.726	72.12
454.504	72.12
455.282	85.12
456.061	91.12
456.839	99.12
457.617	109.12
458.395	129.12
459.172	143.12
459.95	156.12
460.728	176.12
461.506	191.12
462.283	216.12
463.061	243.12
463.838	272.12
464.615	300.12
465.393	332.12
466.17	373.12
466.947	424.12
467.724	476.12
468.501	520.12
469.278	590.12
470.055	649.12
470.831	726.12
471.608	809.12
472.385	919.12
473.161	1021.12
473.938	1130.12
474.714	1260.12
475.49	1396.12
476.266	1549.12
477.043	1719.12
477.819	1921.12
478.595	2122.12
479.371	2349.12
480.146	2608.12
480.922	2877.12
481.698	3191.12
482.473	3520.12
483.249	3901.12
484.024	4287.12
484.8	4763.12
485.575	5228.12
486.35	5768.12
487.126	6367.12
487.901	7051.12
488.676	7704.12
489.451	8484.12
490.225	9296.12
491	10222.12
491.775	11174.12
492.55	12178.12
493.324	13276.12
494.099	14310.12
494.873	15435.12
495.647	16705.12
496.422	17969.12
497.196	19227.12
497.97	20529.12
498.744	21777.12
499.518	23018.12
500.292	24156.12
501.066	25240.12
501.839	26185.12
502.613	27046.12
503.387	27679.12
504.16	28372.12
504.934	28523.12
505.707	28655.12
506.48	28579.12
507.253	28329.12
508.027	27975.12
508.8	27403.12
509.573	26832.12
510.346	26080.12
511.118	25090.12
511.891	24235.12
512.664	23360.12
513.437	22366.12
514.209	21352.12
514.982	20428.12
515.754	19495.12
516.526	18609.12
517.298	17766.12
518.071	16996.12
518.843	16298.12
519.615	15717.12
520.387	15085.12
521.159	14484.12
521.93	13936.12
522.702	13389.12
523.474	12813.12
524.245	12260.12
525.017	11728.12
525.788	11277.12
526.56	10783.12
527.331	10241.12
528.102	9735.12
528.873	9282.12
529.644	8775.12
530.415	8355.12
531.186	7903.12
531.957	7511.12
532.728	7103.12
533.498	6740.12
534.269	6328.12
535.039	5992.12
535.81	5688.12
536.58	5321.12
537.351	5004.12
538.121	4724.12
538.891	4518.12
539.661	4236.12
540.431	4013.12
541.201	3766.12
541.971	3586.12
542.741	3399.12
543.51	3243.12
544.28	3064.12
545.05	2941.12
545.819	2777.12
546.588	2642.12
547.358	2519.12
548.127	2384.12
548.896	2261.12
549.665	2160.12
550.434	2035.12
551.203	1933.12
551.972	1815.12
552.741	1712.12
553.51	1628.12
554.278	1527.12
555.047	1437.12
555.815	1352.12
556.584	1274.12
557.352	1214.12
558.121	1129.12
558.889	1079.12
559.657	1016.12
560.425	959.12
561.193	908.12
561.961	854.12
562.729	805.12
563.496	774.12
564.264	726.12
565.032	678.12
565.799	643.12
566.567	603.12
567.334	573.12
568.101	540.12
568.869	511.12
569.636	481.12
570.403	454.12
571.17	429.12
571.937	408.12
572.704	381.12
573.471	363.12
574.237	344.12
575.004	323.12
575.771	304.12
576.537	288.12
577.303	268.12
578.07	251.12
578.836	238.12
579.602	224.12
580.368	219.12
581.134	193.12
581.9	188.12
582.666	179.12
583.432	171.12
584.198	162.12
584.964	150.12
585.729	147.12
586.495	142.12
587.26	133.12
588.025	123.12
588.791	119.12
589.556	111.12
590.321	106.12
591.086	98.12
591.851	96.12
592.616	93.12
593.381	87.12
594.146	83.12
594.911	80.12
595.675	72.12
596.44	73.12
597.204	67.12
597.969	66.12
598.733	65.12
599.497	56.12
600.261	57.12
601.025	55.12
601.79	53.12
602.553	52.12
603.317	42.12
604.081	46.12
604.845	41.12
605.609	43.12
606.372	39.12
607.136	40.12
607.899	35.12
608.662	32.12
609.426	36.12
610.189	34.12
610.952	31.12
611.715	31.12
612.478	28.12
613.241	25.12
614.004	28.12
614.767	26.12
615.529	24.12
616.292	24.12
617.055	22.12
617.817	21.12
618.579	21.12
619.342	21.12
620.104	20.12
620.866	21.12
621.628	23.12
622.39	18.12
623.152	19.12
623.914	17.12
624.676	17.12
625.438	15.12
626.199	15.12
626.961	11.12
627.722	16.12
628.484	13.12
629.245	15.12
630.006	13.12
630.768	12.12
631.529	11.12
632.29	13.12
633.051	13.12
633.812	11.12
634.573	10.12
635.333	11.12
636.094	9.12
636.855	9.12
637.615	10.12
638.376	9.12
639.136	10.12
639.896	11.12
640.657	9.12
641.417	7.12
642.177	8.12
642.937	8.12
643.697	8.12
644.457	9.12
645.216	6.12
645.976	10.12
646.736	8.12
647.495	6.12
648.255	9.12
649.014	6.12
649.774	8.12
650.533	8.12
651.292	5.12
652.051	7.12
652.81	8.12
653.569	4.12
654.328	3.12
655.087	6.12
655.846	6.12
656.604	8.12
657.363	5.12
658.121	6.12
658.88	8.12
659.638	7.12
660.397	7.12
661.155	5.12
661.913	6.12
662.671	7.12
663.429	5.12
664.187	6.12
664.945	5.12
665.703	6.12
666.46	4.12
667.218	3.12
667.976	4.12
668.733	6.12
669.49	4.12
670.248	7.12
671.005	3.12
671.762	4.12
672.519	3.12
673.276	4.12
674.033	5.12
674.79	5.12
675.547	6.12
676.304	4.12
677.06	4.12
677.817	4.12
678.574	3.12
679.33	5.12
680.086	6.12
680.843	3.12
681.599	1.12
682.355	6.12
683.111	5.12
683.867	3.12
684.623	5.12
685.379	1.12
686.135	3.12
686.89	4.12
687.646	6.12
688.402	6.12
689.157	4.12
689.912	4.12
690.668	2.12
691.423	4.12
692.178	4.12
692.933	5.12
693.688	5.12
694.443	3.12
695.198	3.12
695.953	4.12
696.708	3.12
697.462	2.12
698.217	3.12
698.972	3.12
699.726	5.12
700.48	2.12
701.235	3.12
701.989	3.12
702.743	4.12
703.497	4.12
704.251	2.12
705.005	3.12
705.759	1.12
706.513	4.12
707.266	5.12
708.02	4.12
708.774	3.12
709.527	5.12
710.28	3.12
711.034	4.12
711.787	5.12
712.54	2.12
713.293	3.12
714.046	2.12
714.799	5.12
715.552	2.12
716.305	3.12
717.058	4.12
717.81	7.12
718.563	3.12
719.315	4.12
720.068	2.12
720.82	2.12
721.573	3.12
722.325	3.12
723.077	4.12
723.829	7.12
724.581	4.12
725.333	3.12
726.085	4.12
726.836	2.12
727.588	3.12
728.34	2.12
729.091	4.12
729.843	7.12
730.594	3.12
731.346	4.12
732.097	4.12
732.848	3.12
733.599	2.12
734.35	3.12
735.101	5.12
735.852	1.12
736.603	4.12
737.354	4.12
738.104	3.12
738.855	4.12
739.605	6.12
740.356	6.12
741.106	6.12
741.856	5.12
742.607	4.12
743.357	4.12
744.107	4.12
744.857	5.12
745.607	4.12
746.357	3.12
747.106	6.12
747.856	5.12
748.606	8.12
749.355	6.12
750.105	5.12
750.854	6.12
751.603	5.12
752.353	4.12
753.102	3.12
753.851	5.12
754.6	7.12
755.349	4.12
756.098	4.12
756.847	6.12
757.595	7.12
758.344	5.12
759.093	10.12
759.841	4.12
760.589	7.12
761.338	5.12
762.086	6.12
762.834	8.12
763.582	9.12
764.331	6.12
765.079	7.12
765.826	7.12
766.574	9.12
767.322	8.12
768.07	6.12
768.817	7.12
769.565	9.12
770.312	8.12
771.06	6.12
771.807	8.12
772.554	7.12
773.302	8.12
774.049	9.12
774.796	9.12
775.543	9.12
776.29	7.12
777.036	8.12
777.783	9.12
778.53	9.12
779.276	8.12
780.023	11.12
780.769	8.12
781.516	8.12
782.262	9.12
783.008	9.12
783.754	8.12
784.5	10.12
785.246	7.12
785.992	7.12
786.738	9.12
787.484	9.12
788.23	7.12
788.975	8.12
789.721	10.12
790.466	9.12
791.212	6.12
791.957	10.12
792.702	9.12
793.447	9.12
794.193	8.12
794.938	8.12
795.683	9.12
796.427	7.12
797.172	8.12
797.917	9.12
798.662	9.12
799.406	11.12
800.151	7.12
800.895	10.12
801.64	8.12
802.384	8.12
803.128	7.12
803.872	7.12
804.616	8.12
805.36	7.12
806.104	7.12
806.848	5.12
807.592	8.12
808.336	5.12
809.079	4.12
809.823	7.12
810.566	5.12
811.31	7.12
812.053	7.12
812.796	6.12
813.539	5.12
814.283	2.12
815.026	7.12
815.769	5.12
816.511	4.12
817.254	5.12
817.997	5.12
818.74	5.12
819.482	3.12
820.225	5.12
820.967	5.12
821.71	3.12
822.452	2.12
823.194	4.12
823.936	5.12
824.678	4.12
825.42	3.12
826.162	5.12
826.904	2.12
827.646	7.12
828.388	3.12
829.129	6.12
829.871	3.12
830.612	3.12
831.354	5.12
832.095	2.12
832.836	5.12
833.577	4.12
834.319	3.12
835.06	5.12
835.801	1.12
836.542	4.12
837.282	2.12
838.023	3.12
838.764	3.12
839.504	1.12
840.245	5.12
840.985	4.12
841.726	3.12
842.466	3.12
843.206	3.12
843.946	5.12
844.687	1.12
845.427	4.12
846.166	4.12
846.906	4.12
847.646	3.12
848.386	2.12
849.125	4.12
849.865	3.12
850.605	3.12
851.344	3.12
852.083	1.12
852.823	3.12
853.562	1.12
854.301	5.12
855.04	4.12
855.779	3.12
856.518	2.12
857.257	1.12
857.995	0.12
858.734	3.12
859.473	4.12
860.211	2.12
860.95	2.12
861.688	1.12
862.426	2.12
863.165	1.12
863.903	3.12
864.641	1.12
865.379	1.12
866.117	1.12
866.855	3.12
867.593	0.12
868.33	1.12
869.068	0.12
869.806	0.12
870.543	-0.88
871.28	1.12
872.018	1.12
872.755	1.12
873.492	0.12
874.229	4.12
874.967	3.12
875.703	3.12
876.44	1.12
877.177	1.12
877.914	1.12
878.651	1.12
879.387	0.12
880.124	0.12
880.86	0.12
881.597	3.12
882.333	0.12
883.069	-0.88
883.806	1.12
884.542	1.12
885.278	2.12
886.014	0.12
886.749	1.12
887.485	-0.88
888.221	2.12
888.957	1.12
889.692	0.12
890.428	0.12
891.163	1.12
891.899	0.12
892.634	2.12
893.369	1.12
894.104	-0.88
894.839	1.12
895.574	0.12
896.309	-0.88
897.044	2.12
897.779	1.12
898.514	2.12
899.248	-0.88
899.983	2.12
900.717	1.12
901.452	2.12
902.186	1.12
902.92	-0.88
903.654	0.12
904.389	-1.88
905.123	1.12
905.857	1.12
906.59	-0.88
907.324	0.12
908.058	3.12
908.792	0.12
909.525	1.12
910.259	0.12
910.992	2.12
911.726	-0.88
912.459	2.12
913.192	1.12
913.925	-0.88
914.658	1.12
915.391	1.12
916.124	2.12
916.857	1.12
917.59	-0.88
918.323	1.12
919.055	1.12
919.788	0.12
920.521	1.12
921.253	0.12
921.985	0.12
922.718	1.12
923.45	0.12
924.182	-0.88
924.914	0.12
925.646	-2.88
926.378	0.12
927.11	-0.88
927.841	0.12
928.573	1.12
929.305	0.12
930.036	-0.88
930.768	0.12
931.499	-0.88
932.23	-0.88
932.962	-1.88
933.693	-0.88
934.424	-0.88
935.155	1.12
935.886	-0.88
936.617	3.12
937.348	0.12
938.078	-0.88
938.809	0.12
939.54	-0.88
940.27	-0.88
941.001	2.12
941.731	0.12
942.461	1.12
943.191	0.12
943.922	0.12
944.652	-0.88
945.382	0.12
946.112	1.12
946.841	-1.88
947.571	3.12
948.301	1.12
949.031	-0.88
949.76	1.12
950.49	0.12
951.219	3.12
951.948	-1.88
952.678	1.12
953.407	1.12
954.136	-0.88
954.865	-0.88
955.594	-1.88
956.323	1.12
957.052	1.12
957.78	-0.88
958.509	0.12
959.238	2.12
959.966	2.12
960.695	1.12
961.423	0.12
962.151	-0.88
962.88	2.12
963.608	0.12
964.336	-0.88
965.064	0.12
965.792	0.12
966.52	1.12
967.247	-0.88
967.975	1.12
968.703	-0.88
969.43	-0.88
970.158	0.12
970.885	0.12
971.613	1.12
972.34	0.12
973.067	-0.88
973.794	1.12
974.521	-0.88
975.248	-1.88
975.975	0.12
976.702	1.12
977.429	0.12
978.156	2.12
978.882	0.12
979.609	-0.88
980.335	-1.88
981.062	1.12
981.788	-0.88
982.514	0.12
983.24	-0.88
983.967	-0.88
984.693	3.12
985.419	0.12
986.144	1.12
986.87	1.12
987.596	0.12
988.322	0.12
989.047	-0.88
989.773	-0.88
990.498	0.12
991.224	-0.88
991.949	1.12
992.674	-1.88
993.399	-0.88
994.124	1.12
994.849	0.12
995.574	-0.88
996.299	-0.88
997.024	0.12
997.749	-0.88
998.473	-0.88
999.198	-0.88
999.922	2.12
1000.647	-0.88
1001.371	3.12
1002.095	-2.88
1002.82	-1.88
1003.544	0.12
1004.268	0.12
1004.992	0.12
1005.716	1.12
1006.439	1.12
1007.163	1.12
1007.887	3.12
1008.611	1.12
1009.334	-0.88
1010.058	-1.88
1010.781	-0.88
1011.504	0.12
1012.228	0.12
1012.951	0.12
1013.674	0.12
1014.397	0.12
1015.12	1.12
