节点500_285_QEPB04081__162__14-58-15-172.txt的数据

Date: Wed Nov 12 14:58:15 CST 2025
User: PC
Spectrometer: QEPB0408
触发模式: 0
积分时间 (秒): 1.000000E-2
Scans to average: 1
启用暗噪声校正: true
启用非线性校正: false
滑动平均宽度: 0
X轴模式: Wavelengths
Number of Pixels in Spectrum: 1044
>>>>>Begin Spectral Data<<<<<
220.843	1.38
221.644	0.38
222.444	1.38
223.244	4.38
224.045	1.38
224.845	4.38
225.645	2.38
226.445	0.38
227.245	1.38
228.045	1.38
228.845	3.38
229.645	1.38
230.444	2.38
231.244	3.38
232.043	3.38
232.843	3.38
233.642	2.38
234.442	4.38
235.241	5.38
236.04	2.38
236.839	2.38
237.638	4.38
238.437	5.38
239.236	3.38
240.035	3.38
240.833	3.38
241.632	4.38
242.43	5.38
243.229	4.38
244.027	3.38
244.826	5.38
245.624	4.38
246.422	6.38
247.22	4.38
248.018	4.38
248.816	5.38
249.614	7.38
250.412	5.38
251.21	6.38
252.007	5.38
252.805	5.38
253.602	9.38
254.4	7.38
255.197	7.38
255.994	8.38
256.791	8.38
257.589	10.38
258.386	9.38
259.183	10.38
259.979	11.38
260.776	9.38
261.573	13.38
262.37	11.38
263.166	12.38
263.963	12.38
264.759	11.38
265.556	11.38
266.352	13.38
267.148	14.38
267.944	14.38
268.74	15.38
269.536	15.38
270.332	13.38
271.128	14.38
271.924	16.38
272.719	16.38
273.515	17.38
274.311	19.38
275.106	13.38
275.901	16.38
276.697	18.38
277.492	13.38
278.287	17.38
279.082	20.38
279.877	19.38
280.672	19.38
281.467	16.38
282.262	19.38
283.056	20.38
283.851	17.38
284.646	19.38
285.44	18.38
286.234	20.38
287.029	20.38
287.823	20.38
288.617	17.38
289.411	16.38
290.205	20.38
290.999	18.38
291.793	17.38
292.587	17.38
293.381	16.38
294.174	18.38
294.968	16.38
295.761	16.38
296.555	16.38
297.348	16.38
298.141	16.38
298.935	15.38
299.728	15.38
300.521	13.38
301.314	15.38
302.107	12.38
302.899	10.38
303.692	12.38
304.485	13.38
305.277	12.38
306.07	16.38
306.862	13.38
307.655	10.38
308.447	11.38
309.239	13.38
310.031	13.38
310.823	8.38
311.615	9.38
312.407	9.38
313.199	9.38
313.991	8.38
314.783	9.38
315.574	9.38
316.366	8.38
317.157	9.38
317.949	7.38
318.74	8.38
319.531	7.38
320.322	7.38
321.113	8.38
321.904	7.38
322.695	9.38
323.486	8.38
324.277	10.38
325.068	5.38
325.858	6.38
326.649	4.38
327.439	6.38
328.23	7.38
329.02	6.38
329.81	7.38
330.6	4.38
331.391	3.38
332.181	10.38
332.971	6.38
333.76	9.38
334.55	6.38
335.34	5.38
336.13	5.38
336.919	7.38
337.709	5.38
338.498	4.38
339.287	5.38
340.077	8.38
340.866	7.38
341.655	7.38
342.444	6.38
343.233	5.38
344.022	5.38
344.811	7.38
345.6	2.38
346.388	5.38
347.177	8.38
347.965	6.38
348.754	7.38
349.542	7.38
350.33	7.38
351.119	8.38
351.907	4.38
352.695	7.38
353.483	3.38
354.271	6.38
355.059	5.38
355.846	5.38
356.634	7.38
357.422	4.38
358.209	6.38
358.997	5.38
359.784	6.38
360.571	6.38
361.359	4.38
362.146	5.38
362.933	6.38
363.72	6.38
364.507	6.38
365.294	6.38
366.081	6.38
366.867	7.38
367.654	6.38
368.44	3.38
369.227	2.38
370.013	4.38
370.8	6.38
371.586	5.38
372.372	5.38
373.158	7.38
373.944	5.38
374.73	6.38
375.516	5.38
376.302	4.38
377.088	6.38
377.873	4.38
378.659	7.38
379.445	6.38
380.23	5.38
381.015	5.38
381.801	4.38
382.586	5.38
383.371	3.38
384.156	3.38
384.941	6.38
385.726	4.38
386.511	6.38
387.296	7.38
388.08	7.38
388.865	6.38
389.649	6.38
390.434	4.38
391.218	6.38
392.003	7.38
392.787	5.38
393.571	8.38
394.355	7.38
395.139	5.38
395.923	7.38
396.707	5.38
397.491	7.38
398.274	7.38
399.058	6.38
399.842	8.38
400.625	8.38
401.408	8.38
402.192	6.38
402.975	7.38
403.758	7.38
404.541	6.38
405.324	9.38
406.107	7.38
406.89	8.38
407.673	7.38
408.456	6.38
409.238	10.38
410.021	5.38
410.803	8.38
411.586	9.38
412.368	9.38
413.151	8.38
413.933	9.38
414.715	8.38
415.497	6.38
416.279	8.38
417.061	10.38
417.843	10.38
418.624	12.38
419.406	8.38
420.188	8.38
420.969	10.38
421.751	9.38
422.532	13.38
423.313	12.38
424.095	13.38
424.876	10.38
425.657	12.38
426.438	12.38
427.219	13.38
428	10.38
428.78	14.38
429.561	12.38
430.342	12.38
431.122	18.38
431.903	14.38
432.683	14.38
433.464	18.38
434.244	15.38
435.024	16.38
435.804	18.38
436.584	19.38
437.364	18.38
438.144	18.38
438.924	21.38
439.704	20.38
440.483	23.38
441.263	24.38
442.042	26.38
442.822	28.38
443.601	28.38
444.38	27.38
445.16	29.38
445.939	32.38
446.718	35.38
447.497	40.38
448.276	42.38
449.054	42.38
449.833	46.38
450.612	51.38
451.391	53.38
452.169	57.38
452.948	64.38
453.726	70.38
454.504	76.38
455.282	83.38
456.061	95.38
456.839	102.38
457.617	120.38
458.395	129.38
459.172	141.38
459.95	157.38
460.728	176.38
461.506	195.38
462.283	221.38
463.061	246.38
463.838	275.38
464.615	305.38
465.393	342.38
466.17	390.38
466.947	431.38
467.724	488.38
468.501	529.38
469.278	591.38
470.055	667.38
470.831	755.38
471.608	825.38
472.385	924.38
473.161	1036.38
473.938	1136.38
474.714	1257.38
475.49	1396.38
476.266	1574.38
477.043	1729.38
477.819	1904.38
478.595	2119.38
479.371	2348.38
480.146	2594.38
480.922	2867.38
481.698	3185.38
482.473	3497.38
483.249	3864.38
484.024	4266.38
484.8	4697.38
485.575	5189.38
486.35	5714.38
487.126	6294.38
487.901	6953.38
488.676	7621.38
489.451	8335.38
490.225	9171.38
491	10017.38
491.775	10929.38
492.55	11983.38
493.324	13035.38
494.099	14041.38
494.873	15120.38
495.647	16332.38
496.422	17579.38
497.196	18801.38
497.97	20108.38
498.744	21409.38
499.518	22497.38
500.292	23660.38
501.066	24871.38
501.839	25718.38
502.613	26628.38
503.387	27343.38
504.16	27898.38
504.934	28201.38
505.707	28299.38
506.48	28256.38
507.253	28090.38
508.027	27691.38
508.8	27258.38
509.573	26683.38
510.346	25973.38
511.118	25119.38
511.891	24281.38
512.664	23399.38
513.437	22489.38
514.209	21478.38
514.982	20421.38
515.754	19621.38
516.526	18699.38
517.298	17932.38
518.071	17081.38
518.843	16417.38
519.615	15844.38
520.387	15189.38
521.159	14539.38
521.93	14012.38
522.702	13408.38
523.474	12881.38
524.245	12271.38
525.017	11838.38
525.788	11362.38
526.56	10813.38
527.331	10277.38
528.102	9797.38
528.873	9380.38
529.644	8896.38
530.415	8437.38
531.186	7957.38
531.957	7544.38
532.728	7192.38
533.498	6771.38
534.269	6420.38
535.039	6056.38
535.81	5720.38
536.58	5379.38
537.351	5062.38
538.121	4840.38
538.891	4538.38
539.661	4299.38
540.431	4058.38
541.201	3833.38
541.971	3652.38
542.741	3450.38
543.51	3287.38
544.28	3104.38
545.05	2979.38
545.819	2819.38
546.588	2667.38
547.358	2552.38
548.127	2415.38
548.896	2284.38
549.665	2167.38
550.434	2079.38
551.203	1941.38
551.972	1839.38
552.741	1740.38
553.51	1650.38
554.278	1556.38
555.047	1473.38
555.815	1388.38
556.584	1293.38
557.352	1233.38
558.121	1157.38
558.889	1083.38
559.657	1035.38
560.425	981.38
561.193	932.38
561.961	871.38
562.729	821.38
563.496	788.38
564.264	727.38
565.032	702.38
565.799	660.38
566.567	617.38
567.334	588.38
568.101	558.38
568.869	519.38
569.636	488.38
570.403	466.38
571.17	437.38
571.937	410.38
572.704	386.38
573.471	371.38
574.237	343.38
575.004	324.38
575.771	298.38
576.537	289.38
577.303	266.38
578.07	247.38
578.836	237.38
579.602	225.38
580.368	215.38
581.134	205.38
581.9	196.38
582.666	183.38
583.432	175.38
584.198	163.38
584.964	155.38
585.729	148.38
586.495	137.38
587.26	133.38
588.025	130.38
588.791	120.38
589.556	109.38
590.321	104.38
591.086	103.38
591.851	99.38
592.616	93.38
593.381	86.38
594.146	82.38
594.911	79.38
595.675	78.38
596.44	70.38
597.204	72.38
597.969	70.38
598.733	63.38
599.497	60.38
600.261	59.38
601.025	51.38
601.79	50.38
602.553	49.38
603.317	47.38
604.081	47.38
604.845	43.38
605.609	38.38
606.372	39.38
607.136	40.38
607.899	37.38
608.662	36.38
609.426	36.38
610.189	31.38
610.952	31.38
611.715	30.38
612.478	31.38
613.241	28.38
614.004	26.38
614.767	26.38
615.529	25.38
616.292	27.38
617.055	20.38
617.817	23.38
618.579	22.38
619.342	22.38
620.104	21.38
620.866	21.38
621.628	20.38
622.39	19.38
623.152	18.38
623.914	17.38
624.676	18.38
625.438	15.38
626.199	15.38
626.961	13.38
627.722	13.38
628.484	12.38
629.245	12.38
630.006	15.38
630.768	12.38
631.529	13.38
632.29	11.38
633.051	13.38
633.812	10.38
634.573	12.38
635.333	10.38
636.094	10.38
636.855	11.38
637.615	10.38
638.376	9.38
639.136	8.38
639.896	9.38
640.657	7.38
641.417	10.38
642.177	9.38
642.937	8.38
643.697	9.38
644.457	11.38
645.216	6.38
645.976	9.38
646.736	5.38
647.495	7.38
648.255	8.38
649.014	6.38
649.774	6.38
650.533	8.38
651.292	5.38
652.051	6.38
652.81	6.38
653.569	7.38
654.328	4.38
655.087	6.38
655.846	8.38
656.604	6.38
657.363	7.38
658.121	7.38
658.88	6.38
659.638	8.38
660.397	4.38
661.155	3.38
661.913	6.38
662.671	4.38
663.429	3.38
664.187	7.38
664.945	6.38
665.703	4.38
666.46	3.38
667.218	4.38
667.976	6.38
668.733	4.38
669.49	4.38
670.248	3.38
671.005	6.38
671.762	5.38
672.519	3.38
673.276	3.38
674.033	4.38
674.79	5.38
675.547	2.38
676.304	5.38
677.06	4.38
677.817	4.38
678.574	3.38
679.33	1.38
680.086	6.38
680.843	4.38
681.599	3.38
682.355	5.38
683.111	3.38
683.867	3.38
684.623	4.38
685.379	3.38
686.135	5.38
686.89	4.38
687.646	3.38
688.402	2.38
689.157	2.38
689.912	3.38
690.668	3.38
691.423	4.38
692.178	2.38
692.933	4.38
693.688	2.38
694.443	3.38
695.198	5.38
695.953	4.38
696.708	4.38
697.462	4.38
698.217	1.38
698.972	1.38
699.726	2.38
700.48	5.38
701.235	4.38
701.989	3.38
702.743	4.38
703.497	2.38
704.251	4.38
705.005	5.38
705.759	3.38
706.513	4.38
707.266	4.38
708.02	4.38
708.774	7.38
709.527	3.38
710.28	2.38
711.034	3.38
711.787	6.38
712.54	3.38
713.293	2.38
714.046	5.38
714.799	2.38
715.552	1.38
716.305	3.38
717.058	3.38
717.81	3.38
718.563	4.38
719.315	4.38
720.068	6.38
720.82	5.38
721.573	4.38
722.325	2.38
723.077	3.38
723.829	2.38
724.581	4.38
725.333	4.38
726.085	2.38
726.836	4.38
727.588	5.38
728.34	4.38
729.091	4.38
729.843	3.38
730.594	3.38
731.346	3.38
732.097	5.38
732.848	3.38
733.599	4.38
734.35	5.38
735.101	3.38
735.852	4.38
736.603	4.38
737.354	6.38
738.104	4.38
738.855	3.38
739.605	2.38
740.356	4.38
741.106	5.38
741.856	4.38
742.607	4.38
743.357	4.38
744.107	5.38
744.857	6.38
745.607	4.38
746.357	2.38
747.106	4.38
747.856	5.38
748.606	6.38
749.355	6.38
750.105	4.38
750.854	5.38
751.603	4.38
752.353	7.38
753.102	5.38
753.851	8.38
754.6	6.38
755.349	4.38
756.098	6.38
756.847	7.38
757.595	3.38
758.344	1.38
759.093	3.38
759.841	5.38
760.589	6.38
761.338	6.38
762.086	6.38
762.834	6.38
763.582	7.38
764.331	6.38
765.079	7.38
765.826	4.38
766.574	9.38
767.322	7.38
768.07	8.38
768.817	7.38
769.565	7.38
770.312	8.38
771.06	5.38
771.807	7.38
772.554	5.38
773.302	7.38
774.049	7.38
774.796	9.38
775.543	8.38
776.29	7.38
777.036	7.38
777.783	7.38
778.53	8.38
779.276	9.38
780.023	6.38
780.769	11.38
781.516	9.38
782.262	11.38
783.008	9.38
783.754	9.38
784.5	6.38
785.246	10.38
785.992	9.38
786.738	8.38
787.484	10.38
788.23	8.38
788.975	8.38
789.721	9.38
790.466	8.38
791.212	9.38
791.957	6.38
792.702	9.38
793.447	8.38
794.193	9.38
794.938	7.38
795.683	8.38
796.427	8.38
797.172	8.38
797.917	6.38
798.662	7.38
799.406	8.38
800.151	9.38
800.895	7.38
801.64	6.38
802.384	9.38
803.128	4.38
803.872	6.38
804.616	7.38
805.36	7.38
806.104	5.38
806.848	7.38
807.592	6.38
808.336	6.38
809.079	5.38
809.823	5.38
810.566	4.38
811.31	6.38
812.053	4.38
812.796	5.38
813.539	5.38
814.283	5.38
815.026	4.38
815.769	5.38
816.511	2.38
817.254	5.38
817.997	5.38
818.74	5.38
819.482	4.38
820.225	3.38
820.967	6.38
821.71	5.38
822.452	2.38
823.194	5.38
823.936	1.38
824.678	3.38
825.42	5.38
826.162	3.38
826.904	3.38
827.646	3.38
828.388	4.38
829.129	4.38
829.871	4.38
830.612	1.38
831.354	3.38
832.095	4.38
832.836	2.38
833.577	2.38
834.319	5.38
835.06	2.38
835.801	3.38
836.542	2.38
837.282	4.38
838.023	5.38
838.764	3.38
839.504	3.38
840.245	4.38
840.985	3.38
841.726	3.38
842.466	1.38
843.206	4.38
843.946	5.38
844.687	3.38
845.427	3.38
846.166	2.38
846.906	3.38
847.646	3.38
848.386	4.38
849.125	1.38
849.865	4.38
850.605	3.38
851.344	2.38
852.083	4.38
852.823	2.38
853.562	1.38
854.301	1.38
855.04	3.38
855.779	2.38
856.518	3.38
857.257	4.38
857.995	-0.62
858.734	2.38
859.473	1.38
860.211	3.38
860.95	1.38
861.688	3.38
862.426	1.38
863.165	2.38
863.903	3.38
864.641	2.38
865.379	1.38
866.117	2.38
866.855	0.38
867.593	2.38
868.33	1.38
869.068	1.38
869.806	1.38
870.543	1.38
871.28	2.38
872.018	1.38
872.755	0.38
873.492	-0.62
874.229	-0.62
874.967	3.38
875.703	2.38
876.44	1.38
877.177	0.38
877.914	-0.62
878.651	-0.62
879.387	1.38
880.124	1.38
880.86	-0.62
881.597	0.38
882.333	1.38
883.069	0.38
883.806	1.38
884.542	1.38
885.278	0.38
886.014	-0.62
886.749	1.38
887.485	3.38
888.221	1.38
888.957	0.38
889.692	1.38
890.428	-0.62
891.163	1.38
891.899	1.38
892.634	2.38
893.369	-1.62
894.104	-0.62
894.839	0.38
895.574	-1.62
896.309	-1.62
897.044	0.38
897.779	2.38
898.514	-0.62
899.248	0.38
899.983	-0.62
900.717	0.38
901.452	-0.62
902.186	-0.62
902.92	0.38
903.654	0.38
904.389	0.38
905.123	-0.62
905.857	0.38
906.59	1.38
907.324	-0.62
908.058	2.38
908.792	2.38
909.525	-2.62
910.259	-0.62
910.992	1.38
911.726	2.38
912.459	2.38
913.192	-2.62
913.925	-0.62
914.658	0.38
915.391	1.38
916.124	-1.62
916.857	1.38
917.59	0.38
918.323	2.38
919.055	2.38
919.788	-0.62
920.521	1.38
921.253	0.38
921.985	-0.62
922.718	-1.62
923.45	0.38
924.182	-0.62
924.914	-1.62
925.646	1.38
926.378	-0.62
927.11	1.38
927.841	0.38
928.573	-2.62
929.305	2.38
930.036	1.38
930.768	1.38
931.499	-0.62
932.23	-1.62
932.962	2.38
933.693	-0.62
934.424	-0.62
935.155	2.38
935.886	3.38
936.617	-0.62
937.348	1.38
938.078	1.38
938.809	-0.62
939.54	-1.62
940.27	-0.62
941.001	-0.62
941.731	-0.62
942.461	0.38
943.191	0.38
943.922	-0.62
944.652	0.38
945.382	2.38
946.112	-0.62
946.841	-0.62
947.571	-0.62
948.301	0.38
949.031	-0.62
949.76	0.38
950.49	1.38
951.219	2.38
951.948	-1.62
952.678	0.38
953.407	1.38
954.136	-0.62
954.865	-0.62
955.594	0.38
956.323	0.38
957.052	-0.62
957.78	-2.62
958.509	1.38
959.238	-0.62
959.966	-0.62
960.695	0.38
961.423	0.38
962.151	0.38
962.88	-0.62
963.608	0.38
964.336	-1.62
965.064	-1.62
965.792	0.38
966.52	-1.62
967.247	1.38
967.975	1.38
968.703	-0.62
969.43	-0.62
970.158	-1.62
970.885	0.38
971.613	-0.62
972.34	-0.62
973.067	1.38
973.794	1.38
974.521	-0.62
975.248	-0.62
975.975	1.38
976.702	-0.62
977.429	-0.62
978.156	0.38
978.882	1.38
979.609	2.38
980.335	1.38
981.062	1.38
981.788	-0.62
982.514	2.38
983.24	1.38
983.967	0.38
984.693	-0.62
985.419	-0.62
986.144	-0.62
986.87	-0.62
987.596	-0.62
988.322	2.38
989.047	2.38
989.773	1.38
990.498	1.38
991.224	-0.62
991.949	2.38
992.674	2.38
993.399	1.38
994.124	1.38
994.849	0.38
995.574	-0.62
996.299	-0.62
997.024	1.38
997.749	0.38
998.473	1.38
999.198	0.38
999.922	-0.62
1000.647	-0.62
1001.371	0.38
1002.095	1.38
1002.82	-1.62
1003.544	-2.62
1004.268	1.38
1004.992	1.38
1005.716	3.38
1006.439	0.38
1007.163	0.38
1007.887	1.38
1008.611	1.38
1009.334	1.38
1010.058	-0.62
1010.781	2.38
1011.504	0.38
1012.228	0.38
1012.951	0.38
1013.674	0.38
1014.397	1.38
1015.12	0.38
