节点500_285_QEPB04081__147__14-58-00-176.txt的数据

Date: Wed Nov 12 14:58:00 CST 2025
User: PC
Spectrometer: QEPB0408
触发模式: 0
积分时间 (秒): 1.000000E-2
Scans to average: 1
启用暗噪声校正: true
启用非线性校正: false
滑动平均宽度: 0
X轴模式: Wavelengths
Number of Pixels in Spectrum: 1044
>>>>>Begin Spectral Data<<<<<
220.843	0.88
221.644	0.88
222.444	0.88
223.244	0.88
224.045	0.88
224.845	0.88
225.645	-0.12
226.445	0.88
227.245	1.88
228.045	-0.12
228.845	0.88
229.645	1.88
230.444	1.88
231.244	2.88
232.043	0.88
232.843	3.88
233.642	1.88
234.442	3.88
235.241	4.88
236.04	3.88
236.839	1.88
237.638	1.88
238.437	5.88
239.236	0.88
240.035	4.88
240.833	2.88
241.632	0.88
242.43	4.88
243.229	2.88
244.027	6.88
244.826	7.88
245.624	5.88
246.422	5.88
247.22	5.88
248.018	5.88
248.816	5.88
249.614	5.88
250.412	8.88
251.21	5.88
252.007	4.88
252.805	6.88
253.602	10.88
254.4	7.88
255.197	5.88
255.994	7.88
256.791	9.88
257.589	7.88
258.386	6.88
259.183	8.88
259.979	9.88
260.776	8.88
261.573	11.88
262.37	9.88
263.166	10.88
263.963	12.88
264.759	10.88
265.556	11.88
266.352	10.88
267.148	14.88
267.944	10.88
268.74	15.88
269.536	15.88
270.332	12.88
271.128	15.88
271.924	14.88
272.719	16.88
273.515	16.88
274.311	18.88
275.106	17.88
275.901	17.88
276.697	18.88
277.492	15.88
278.287	18.88
279.082	16.88
279.877	16.88
280.672	20.88
281.467	16.88
282.262	17.88
283.056	19.88
283.851	20.88
284.646	17.88
285.44	19.88
286.234	22.88
287.029	18.88
287.823	19.88
288.617	18.88
289.411	17.88
290.205	20.88
290.999	16.88
291.793	17.88
292.587	15.88
293.381	17.88
294.174	17.88
294.968	15.88
295.761	17.88
296.555	16.88
297.348	15.88
298.141	15.88
298.935	16.88
299.728	15.88
300.521	13.88
301.314	12.88
302.107	14.88
302.899	11.88
303.692	13.88
304.485	11.88
305.277	11.88
306.07	10.88
306.862	12.88
307.655	12.88
308.447	10.88
309.239	11.88
310.031	8.88
310.823	8.88
311.615	11.88
312.407	9.88
313.199	9.88
313.991	10.88
314.783	11.88
315.574	6.88
316.366	8.88
317.157	7.88
317.949	7.88
318.74	7.88
319.531	5.88
320.322	8.88
321.113	6.88
321.904	6.88
322.695	6.88
323.486	6.88
324.277	8.88
325.068	10.88
325.858	8.88
326.649	6.88
327.439	4.88
328.23	5.88
329.02	4.88
329.81	5.88
330.6	5.88
331.391	4.88
332.181	3.88
332.971	4.88
333.76	6.88
334.55	6.88
335.34	6.88
336.13	5.88
336.919	8.88
337.709	7.88
338.498	4.88
339.287	4.88
340.077	4.88
340.866	6.88
341.655	4.88
342.444	7.88
343.233	3.88
344.022	4.88
344.811	6.88
345.6	2.88
346.388	4.88
347.177	5.88
347.965	5.88
348.754	8.88
349.542	7.88
350.33	6.88
351.119	5.88
351.907	5.88
352.695	8.88
353.483	5.88
354.271	6.88
355.059	7.88
355.846	4.88
356.634	3.88
357.422	3.88
358.209	3.88
358.997	4.88
359.784	5.88
360.571	5.88
361.359	6.88
362.146	6.88
362.933	4.88
363.72	2.88
364.507	5.88
365.294	4.88
366.081	4.88
366.867	3.88
367.654	2.88
368.44	2.88
369.227	2.88
370.013	2.88
370.8	4.88
371.586	4.88
372.372	5.88
373.158	4.88
373.944	4.88
374.73	5.88
375.516	3.88
376.302	2.88
377.088	4.88
377.873	6.88
378.659	4.88
379.445	3.88
380.23	4.88
381.015	4.88
381.801	2.88
382.586	4.88
383.371	5.88
384.156	5.88
384.941	5.88
385.726	4.88
386.511	4.88
387.296	4.88
388.08	3.88
388.865	3.88
389.649	6.88
390.434	5.88
391.218	5.88
392.003	7.88
392.787	6.88
393.571	4.88
394.355	7.88
395.139	2.88
395.923	8.88
396.707	5.88
397.491	5.88
398.274	6.88
399.058	6.88
399.842	6.88
400.625	7.88
401.408	6.88
402.192	6.88
402.975	4.88
403.758	6.88
404.541	7.88
405.324	6.88
406.107	7.88
406.89	6.88
407.673	7.88
408.456	8.88
409.238	9.88
410.021	8.88
410.803	8.88
411.586	7.88
412.368	7.88
413.151	6.88
413.933	5.88
414.715	7.88
415.497	9.88
416.279	7.88
417.061	10.88
417.843	8.88
418.624	8.88
419.406	10.88
420.188	10.88
420.969	9.88
421.751	11.88
422.532	8.88
423.313	11.88
424.095	10.88
424.876	9.88
425.657	11.88
426.438	14.88
427.219	10.88
428	13.88
428.78	13.88
429.561	11.88
430.342	11.88
431.122	15.88
431.903	14.88
432.683	12.88
433.464	15.88
434.244	15.88
435.024	18.88
435.804	15.88
436.584	15.88
437.364	18.88
438.144	16.88
438.924	20.88
439.704	20.88
440.483	21.88
441.263	23.88
442.042	24.88
442.822	26.88
443.601	25.88
444.38	27.88
445.16	32.88
445.939	32.88
446.718	37.88
447.497	33.88
448.276	39.88
449.054	43.88
449.833	43.88
450.612	52.88
451.391	55.88
452.169	55.88
452.948	62.88
453.726	71.88
454.504	77.88
455.282	86.88
456.061	95.88
456.839	103.88
457.617	110.88
458.395	126.88
459.172	144.88
459.95	158.88
460.728	179.88
461.506	199.88
462.283	215.88
463.061	243.88
463.838	275.88
464.615	307.88
465.393	350.88
466.17	380.88
466.947	428.88
467.724	478.88
468.501	529.88
469.278	599.88
470.055	658.88
470.831	743.88
471.608	821.88
472.385	914.88
473.161	1024.88
473.938	1140.88
474.714	1256.88
475.49	1409.88
476.266	1555.88
477.043	1715.88
477.819	1906.88
478.595	2118.88
479.371	2360.88
480.146	2587.88
480.922	2880.88
481.698	3169.88
482.473	3519.88
483.249	3879.88
484.024	4276.88
484.8	4697.88
485.575	5221.88
486.35	5761.88
487.126	6324.88
487.901	6958.88
488.676	7670.88
489.451	8382.88
490.225	9192.88
491	10122.88
491.775	11040.88
492.55	12073.88
493.324	13091.88
494.099	14153.88
494.873	15256.88
495.647	16473.88
496.422	17683.88
497.196	18947.88
497.97	20232.88
498.744	21429.88
499.518	22672.88
500.292	23865.88
501.066	24976.88
501.839	25884.88
502.613	26809.88
503.387	27480.88
504.16	28036.88
504.934	28303.88
505.707	28418.88
506.48	28362.88
507.253	28180.88
508.027	27795.88
508.8	27305.88
509.573	26730.88
510.346	26052.88
511.118	25150.88
511.891	24280.88
512.664	23416.88
513.437	22432.88
514.209	21384.88
514.982	20545.88
515.754	19602.88
516.526	18729.88
517.298	17840.88
518.071	17041.88
518.843	16458.88
519.615	15764.88
520.387	15187.88
521.159	14561.88
521.93	13935.88
522.702	13442.88
523.474	12882.88
524.245	12324.88
525.017	11793.88
525.788	11313.88
526.56	10788.88
527.331	10284.88
528.102	9811.88
528.873	9350.88
529.644	8839.88
530.415	8378.88
531.186	7965.88
531.957	7541.88
532.728	7141.88
533.498	6770.88
534.269	6395.88
535.039	6036.88
535.81	5687.88
536.58	5371.88
537.351	5045.88
538.121	4789.88
538.891	4535.88
539.661	4273.88
540.431	4040.88
541.201	3799.88
541.971	3620.88
542.741	3454.88
543.51	3254.88
544.28	3100.88
545.05	2956.88
545.819	2815.88
546.588	2664.88
547.358	2523.88
548.127	2403.88
548.896	2277.88
549.665	2190.88
550.434	2069.88
551.203	1946.88
551.972	1818.88
552.741	1721.88
553.51	1639.88
554.278	1539.88
555.047	1466.88
555.815	1367.88
556.584	1295.88
557.352	1225.88
558.121	1155.88
558.889	1084.88
559.657	1028.88
560.425	978.88
561.193	921.88
561.961	862.88
562.729	825.88
563.496	765.88
564.264	721.88
565.032	697.88
565.799	653.88
566.567	610.88
567.334	586.88
568.101	550.88
568.869	521.88
569.636	491.88
570.403	456.88
571.17	435.88
571.937	409.88
572.704	393.88
573.471	358.88
574.237	338.88
575.004	326.88
575.771	301.88
576.537	286.88
577.303	267.88
578.07	246.88
578.836	240.88
579.602	229.88
580.368	209.88
581.134	205.88
581.9	190.88
582.666	178.88
583.432	168.88
584.198	164.88
584.964	153.88
585.729	147.88
586.495	141.88
587.26	133.88
588.025	121.88
588.791	120.88
589.556	112.88
590.321	107.88
591.086	102.88
591.851	94.88
592.616	91.88
593.381	85.88
594.146	79.88
594.911	76.88
595.675	71.88
596.44	72.88
597.204	68.88
597.969	66.88
598.733	60.88
599.497	57.88
600.261	56.88
601.025	54.88
601.79	50.88
602.553	48.88
603.317	48.88
604.081	45.88
604.845	42.88
605.609	41.88
606.372	40.88
607.136	37.88
607.899	38.88
608.662	35.88
609.426	33.88
610.189	32.88
610.952	32.88
611.715	33.88
612.478	28.88
613.241	28.88
614.004	25.88
614.767	27.88
615.529	24.88
616.292	26.88
617.055	25.88
617.817	20.88
618.579	21.88
619.342	20.88
620.104	19.88
620.866	20.88
621.628	19.88
622.39	17.88
623.152	16.88
623.914	14.88
624.676	14.88
625.438	17.88
626.199	15.88
626.961	14.88
627.722	15.88
628.484	13.88
629.245	13.88
630.006	13.88
630.768	12.88
631.529	10.88
632.29	10.88
633.051	12.88
633.812	11.88
634.573	10.88
635.333	12.88
636.094	7.88
636.855	10.88
637.615	9.88
638.376	7.88
639.136	7.88
639.896	8.88
640.657	8.88
641.417	5.88
642.177	8.88
642.937	6.88
643.697	7.88
644.457	8.88
645.216	7.88
645.976	7.88
646.736	8.88
647.495	8.88
648.255	7.88
649.014	6.88
649.774	6.88
650.533	5.88
651.292	6.88
652.051	4.88
652.81	7.88
653.569	4.88
654.328	4.88
655.087	7.88
655.846	3.88
656.604	6.88
657.363	6.88
658.121	4.88
658.88	4.88
659.638	3.88
660.397	6.88
661.155	4.88
661.913	4.88
662.671	4.88
663.429	5.88
664.187	2.88
664.945	2.88
665.703	3.88
666.46	2.88
667.218	4.88
667.976	3.88
668.733	5.88
669.49	4.88
670.248	2.88
671.005	4.88
671.762	4.88
672.519	5.88
673.276	5.88
674.033	2.88
674.79	1.88
675.547	5.88
676.304	4.88
677.06	2.88
677.817	1.88
678.574	1.88
679.33	3.88
680.086	4.88
680.843	3.88
681.599	1.88
682.355	4.88
683.111	2.88
683.867	2.88
684.623	0.88
685.379	2.88
686.135	1.88
686.89	3.88
687.646	4.88
688.402	2.88
689.157	2.88
689.912	4.88
690.668	0.88
691.423	2.88
692.178	2.88
692.933	1.88
693.688	4.88
694.443	3.88
695.198	3.88
695.953	2.88
696.708	5.88
697.462	0.88
698.217	4.88
698.972	4.88
699.726	2.88
700.48	3.88
701.235	3.88
701.989	2.88
702.743	4.88
703.497	1.88
704.251	2.88
705.005	3.88
705.759	2.88
706.513	2.88
707.266	3.88
708.02	4.88
708.774	1.88
709.527	0.88
710.28	2.88
711.034	0.88
711.787	2.88
712.54	2.88
713.293	1.88
714.046	3.88
714.799	3.88
715.552	2.88
716.305	2.88
717.058	1.88
717.81	2.88
718.563	5.88
719.315	1.88
720.068	4.88
720.82	3.88
721.573	2.88
722.325	1.88
723.077	2.88
723.829	4.88
724.581	3.88
725.333	2.88
726.085	3.88
726.836	2.88
727.588	1.88
728.34	2.88
729.091	3.88
729.843	3.88
730.594	4.88
731.346	3.88
732.097	2.88
732.848	2.88
733.599	4.88
734.35	4.88
735.101	4.88
735.852	2.88
736.603	1.88
737.354	4.88
738.104	2.88
738.855	2.88
739.605	5.88
740.356	3.88
741.106	3.88
741.856	2.88
742.607	0.88
743.357	2.88
744.107	3.88
744.857	5.88
745.607	3.88
746.357	2.88
747.106	2.88
747.856	3.88
748.606	5.88
749.355	3.88
750.105	3.88
750.854	4.88
751.603	5.88
752.353	4.88
753.102	0.88
753.851	5.88
754.6	5.88
755.349	4.88
756.098	6.88
756.847	5.88
757.595	5.88
758.344	8.88
759.093	6.88
759.841	5.88
760.589	6.88
761.338	5.88
762.086	3.88
762.834	6.88
763.582	5.88
764.331	6.88
765.079	5.88
765.826	5.88
766.574	4.88
767.322	7.88
768.07	6.88
768.817	10.88
769.565	6.88
770.312	6.88
771.06	6.88
771.807	6.88
772.554	6.88
773.302	7.88
774.049	7.88
774.796	6.88
775.543	6.88
776.29	8.88
777.036	7.88
777.783	6.88
778.53	7.88
779.276	8.88
780.023	4.88
780.769	7.88
781.516	7.88
782.262	7.88
783.008	8.88
783.754	8.88
784.5	9.88
785.246	9.88
785.992	8.88
786.738	9.88
787.484	6.88
788.23	10.88
788.975	6.88
789.721	7.88
790.466	6.88
791.212	6.88
791.957	8.88
792.702	7.88
793.447	9.88
794.193	5.88
794.938	8.88
795.683	8.88
796.427	9.88
797.172	6.88
797.917	6.88
798.662	9.88
799.406	7.88
800.151	7.88
800.895	8.88
801.64	6.88
802.384	6.88
803.128	7.88
803.872	6.88
804.616	6.88
805.36	4.88
806.104	6.88
806.848	6.88
807.592	7.88
808.336	6.88
809.079	6.88
809.823	7.88
810.566	5.88
811.31	4.88
812.053	4.88
812.796	6.88
813.539	7.88
814.283	3.88
815.026	5.88
815.769	2.88
816.511	4.88
817.254	5.88
817.997	4.88
818.74	4.88
819.482	3.88
820.225	2.88
820.967	4.88
821.71	4.88
822.452	6.88
823.194	3.88
823.936	2.88
824.678	4.88
825.42	5.88
826.162	5.88
826.904	3.88
827.646	4.88
828.388	3.88
829.129	4.88
829.871	1.88
830.612	1.88
831.354	-2.12
832.095	4.88
832.836	2.88
833.577	3.88
834.319	4.88
835.06	3.88
835.801	2.88
836.542	3.88
837.282	1.88
838.023	3.88
838.764	0.88
839.504	2.88
840.245	2.88
840.985	3.88
841.726	5.88
842.466	0.88
843.206	3.88
843.946	1.88
844.687	4.88
845.427	2.88
846.166	2.88
846.906	1.88
847.646	0.88
848.386	2.88
849.125	1.88
849.865	4.88
850.605	1.88
851.344	-1.12
852.083	4.88
852.823	2.88
853.562	0.88
854.301	2.88
855.04	0.88
855.779	2.88
856.518	2.88
857.257	2.88
857.995	1.88
858.734	1.88
859.473	0.88
860.211	0.88
860.95	1.88
861.688	1.88
862.426	2.88
863.165	0.88
863.903	1.88
864.641	0.88
865.379	1.88
866.117	0.88
866.855	0.88
867.593	2.88
868.33	1.88
869.068	-0.12
869.806	2.88
870.543	0.88
871.28	0.88
872.018	2.88
872.755	2.88
873.492	1.88
874.229	0.88
874.967	-0.12
875.703	1.88
876.44	0.88
877.177	-0.12
877.914	0.88
878.651	1.88
879.387	-1.12
880.124	1.88
880.86	-1.12
881.597	0.88
882.333	-0.12
883.069	0.88
883.806	0.88
884.542	1.88
885.278	0.88
886.014	1.88
886.749	-1.12
887.485	0.88
888.221	-0.12
888.957	-1.12
889.692	0.88
890.428	-0.12
891.163	0.88
891.899	1.88
892.634	0.88
893.369	1.88
894.104	-0.12
894.839	1.88
895.574	-0.12
896.309	1.88
897.044	-1.12
897.779	-0.12
898.514	0.88
899.248	0.88
899.983	-0.12
900.717	1.88
901.452	-0.12
902.186	-1.12
902.92	1.88
903.654	2.88
904.389	-1.12
905.123	-1.12
905.857	0.88
906.59	1.88
907.324	-1.12
908.058	-0.12
908.792	-2.12
909.525	-2.12
910.259	-0.12
910.992	-1.12
911.726	-0.12
912.459	-2.12
913.192	-1.12
913.925	-1.12
914.658	-0.12
915.391	1.88
916.124	-1.12
916.857	-1.12
917.59	0.88
918.323	1.88
919.055	0.88
919.788	-0.12
920.521	0.88
921.253	0.88
921.985	-1.12
922.718	1.88
923.45	0.88
924.182	-0.12
924.914	0.88
925.646	-1.12
926.378	-0.12
927.11	0.88
927.841	0.88
928.573	-0.12
929.305	-0.12
930.036	-0.12
930.768	0.88
931.499	0.88
932.23	-0.12
932.962	0.88
933.693	1.88
934.424	-1.12
935.155	-0.12
935.886	0.88
936.617	1.88
937.348	-1.12
938.078	-0.12
938.809	0.88
939.54	-3.12
940.27	0.88
941.001	-3.12
941.731	-1.12
942.461	-1.12
943.191	0.88
943.922	-1.12
944.652	0.88
945.382	-1.12
946.112	-0.12
946.841	0.88
947.571	-2.12
948.301	-1.12
949.031	1.88
949.76	-1.12
950.49	-0.12
951.219	-1.12
951.948	0.88
952.678	-0.12
953.407	-1.12
954.136	-2.12
954.865	0.88
955.594	0.88
956.323	-0.12
957.052	-0.12
957.78	-1.12
958.509	-1.12
959.238	0.88
959.966	-0.12
960.695	-0.12
961.423	2.88
962.151	-1.12
962.88	0.88
963.608	-1.12
964.336	-1.12
965.064	-0.12
965.792	-0.12
966.52	-0.12
967.247	-1.12
967.975	-0.12
968.703	-1.12
969.43	-0.12
970.158	0.88
970.885	-0.12
971.613	-1.12
972.34	-2.12
973.067	1.88
973.794	0.88
974.521	-2.12
975.248	0.88
975.975	-1.12
976.702	0.88
977.429	0.88
978.156	0.88
978.882	-0.12
979.609	-2.12
980.335	0.88
981.062	0.88
981.788	-0.12
982.514	-0.12
983.24	1.88
983.967	-0.12
984.693	-3.12
985.419	-0.12
986.144	0.88
986.87	0.88
987.596	0.88
988.322	-0.12
989.047	-0.12
989.773	-0.12
990.498	-2.12
991.224	-1.12
991.949	-1.12
992.674	0.88
993.399	0.88
994.124	-1.12
994.849	-0.12
995.574	-0.12
996.299	-2.12
997.024	-2.12
997.749	-0.12
998.473	-0.12
999.198	1.88
999.922	0.88
1000.647	-0.12
1001.371	3.88
1002.095	-0.12
1002.82	-1.12
1003.544	-0.12
1004.268	0.88
1004.992	2.88
1005.716	-0.12
1006.439	-0.12
1007.163	1.88
1007.887	1.88
1008.611	-0.12
1009.334	0.88
1010.058	-0.12
1010.781	-1.12
1011.504	1.88
1012.228	-2.12
1012.951	0.88
1013.674	-0.12
1014.397	-1.12
1015.12	-2.12
