节点500_285_QEPB04081__343__15-01-15-698.txt的数据

Date: Wed Nov 12 15:01:15 CST 2025
User: PC
Spectrometer: QEPB0408
触发模式: 0
积分时间 (秒): 1.000000E-2
Scans to average: 1
启用暗噪声校正: true
启用非线性校正: false
滑动平均宽度: 0
X轴模式: Wavelengths
Number of Pixels in Spectrum: 1044
>>>>>Begin Spectral Data<<<<<
220.843	1.5
221.644	-0.5
222.444	0.5
223.244	1.5
224.045	1.5
224.845	3.5
225.645	2.5
226.445	0.5
227.245	3.5
228.045	1.5
228.845	2.5
229.645	1.5
230.444	3.5
231.244	3.5
232.043	1.5
232.843	3.5
233.642	1.5
234.442	3.5
235.241	5.5
236.04	1.5
236.839	4.5
237.638	3.5
238.437	3.5
239.236	3.5
240.035	3.5
240.833	6.5
241.632	5.5
242.43	4.5
243.229	5.5
244.027	5.5
244.826	4.5
245.624	7.5
246.422	4.5
247.22	5.5
248.018	7.5
248.816	5.5
249.614	6.5
250.412	6.5
251.21	5.5
252.007	5.5
252.805	5.5
253.602	6.5
254.4	6.5
255.197	9.5
255.994	4.5
256.791	7.5
257.589	10.5
258.386	9.5
259.183	9.5
259.979	10.5
260.776	9.5
261.573	9.5
262.37	10.5
263.166	13.5
263.963	11.5
264.759	14.5
265.556	10.5
266.352	12.5
267.148	14.5
267.944	12.5
268.74	14.5
269.536	11.5
270.332	13.5
271.128	13.5
271.924	16.5
272.719	14.5
273.515	15.5
274.311	16.5
275.106	17.5
275.901	16.5
276.697	18.5
277.492	17.5
278.287	18.5
279.082	19.5
279.877	18.5
280.672	20.5
281.467	17.5
282.262	20.5
283.056	18.5
283.851	19.5
284.646	16.5
285.44	19.5
286.234	20.5
287.029	17.5
287.823	19.5
288.617	18.5
289.411	19.5
290.205	18.5
290.999	17.5
291.793	20.5
292.587	19.5
293.381	16.5
294.174	14.5
294.968	15.5
295.761	16.5
296.555	12.5
297.348	16.5
298.141	11.5
298.935	14.5
299.728	17.5
300.521	11.5
301.314	13.5
302.107	12.5
302.899	12.5
303.692	12.5
304.485	10.5
305.277	14.5
306.07	11.5
306.862	14.5
307.655	10.5
308.447	9.5
309.239	11.5
310.031	14.5
310.823	9.5
311.615	8.5
312.407	8.5
313.199	7.5
313.991	10.5
314.783	8.5
315.574	7.5
316.366	11.5
317.157	8.5
317.949	9.5
318.74	10.5
319.531	8.5
320.322	7.5
321.113	9.5
321.904	7.5
322.695	6.5
323.486	8.5
324.277	6.5
325.068	5.5
325.858	8.5
326.649	8.5
327.439	9.5
328.23	4.5
329.02	7.5
329.81	5.5
330.6	5.5
331.391	7.5
332.181	7.5
332.971	6.5
333.76	8.5
334.55	6.5
335.34	4.5
336.13	5.5
336.919	6.5
337.709	8.5
338.498	5.5
339.287	6.5
340.077	5.5
340.866	5.5
341.655	6.5
342.444	6.5
343.233	6.5
344.022	6.5
344.811	5.5
345.6	7.5
346.388	4.5
347.177	5.5
347.965	3.5
348.754	7.5
349.542	7.5
350.33	4.5
351.119	7.5
351.907	5.5
352.695	5.5
353.483	6.5
354.271	4.5
355.059	3.5
355.846	5.5
356.634	3.5
357.422	6.5
358.209	3.5
358.997	3.5
359.784	6.5
360.571	4.5
361.359	5.5
362.146	7.5
362.933	8.5
363.72	5.5
364.507	5.5
365.294	5.5
366.081	4.5
366.867	4.5
367.654	4.5
368.44	5.5
369.227	5.5
370.013	4.5
370.8	5.5
371.586	5.5
372.372	6.5
373.158	5.5
373.944	6.5
374.73	5.5
375.516	3.5
376.302	4.5
377.088	3.5
377.873	6.5
378.659	4.5
379.445	3.5
380.23	5.5
381.015	5.5
381.801	3.5
382.586	6.5
383.371	7.5
384.156	5.5
384.941	3.5
385.726	4.5
386.511	5.5
387.296	5.5
388.08	3.5
388.865	4.5
389.649	5.5
390.434	3.5
391.218	6.5
392.003	5.5
392.787	5.5
393.571	7.5
394.355	5.5
395.139	6.5
395.923	6.5
396.707	3.5
397.491	5.5
398.274	6.5
399.058	8.5
399.842	5.5
400.625	5.5
401.408	4.5
402.192	8.5
402.975	6.5
403.758	5.5
404.541	6.5
405.324	5.5
406.107	7.5
406.89	8.5
407.673	7.5
408.456	8.5
409.238	4.5
410.021	7.5
410.803	8.5
411.586	6.5
412.368	7.5
413.151	6.5
413.933	11.5
414.715	7.5
415.497	10.5
416.279	8.5
417.061	8.5
417.843	13.5
418.624	8.5
419.406	9.5
420.188	11.5
420.969	13.5
421.751	9.5
422.532	11.5
423.313	9.5
424.095	10.5
424.876	13.5
425.657	9.5
426.438	12.5
427.219	12.5
428	12.5
428.78	12.5
429.561	13.5
430.342	14.5
431.122	12.5
431.903	13.5
432.683	15.5
433.464	13.5
434.244	18.5
435.024	16.5
435.804	18.5
436.584	18.5
437.364	18.5
438.144	20.5
438.924	20.5
439.704	20.5
440.483	22.5
441.263	21.5
442.042	24.5
442.822	26.5
443.601	30.5
444.38	26.5
445.16	32.5
445.939	35.5
446.718	36.5
447.497	37.5
448.276	39.5
449.054	45.5
449.833	47.5
450.612	53.5
451.391	53.5
452.169	59.5
452.948	71.5
453.726	71.5
454.504	83.5
455.282	92.5
456.061	97.5
456.839	108.5
457.617	121.5
458.395	134.5
459.172	149.5
459.95	169.5
460.728	184.5
461.506	206.5
462.283	237.5
463.061	251.5
463.838	288.5
464.615	316.5
465.393	365.5
466.17	393.5
466.947	444.5
467.724	503.5
468.501	553.5
469.278	626.5
470.055	682.5
470.831	754.5
471.608	854.5
472.385	934.5
473.161	1059.5
473.938	1166.5
474.714	1286.5
475.49	1426.5
476.266	1576.5
477.043	1747.5
477.819	1919.5
478.595	2112.5
479.371	2330.5
480.146	2590.5
480.922	2864.5
481.698	3150.5
482.473	3471.5
483.249	3807.5
484.024	4207.5
484.8	4629.5
485.575	5070.5
486.35	5570.5
487.126	6107.5
487.901	6716.5
488.676	7345.5
489.451	8032.5
490.225	8838.5
491	9619.5
491.775	10491.5
492.55	11452.5
493.324	12412.5
494.099	13433.5
494.873	14429.5
495.647	15605.5
496.422	16741.5
497.196	17885.5
497.97	19019.5
498.744	20235.5
499.518	21395.5
500.292	22569.5
501.066	23646.5
501.839	24597.5
502.613	25547.5
503.387	26304.5
504.16	26852.5
504.934	27237.5
505.707	27416.5
506.48	27502.5
507.253	27406.5
508.027	27097.5
508.8	26734.5
509.573	26393.5
510.346	25700.5
511.118	24993.5
511.891	24205.5
512.664	23390.5
513.437	22487.5
514.209	21533.5
514.982	20692.5
515.754	19716.5
516.526	18891.5
517.298	18092.5
518.071	17287.5
518.843	16649.5
519.615	15946.5
520.387	15370.5
521.159	14787.5
521.93	14147.5
522.702	13607.5
523.474	13020.5
524.245	12459.5
525.017	11927.5
525.788	11440.5
526.56	10930.5
527.331	10417.5
528.102	9965.5
528.873	9480.5
529.644	9040.5
530.415	8593.5
531.186	8163.5
531.957	7721.5
532.728	7363.5
533.498	6981.5
534.269	6565.5
535.039	6207.5
535.81	5878.5
536.58	5553.5
537.351	5191.5
538.121	4948.5
538.891	4703.5
539.661	4421.5
540.431	4161.5
541.201	3949.5
541.971	3733.5
542.741	3526.5
543.51	3384.5
544.28	3206.5
545.05	3046.5
545.819	2888.5
546.588	2753.5
547.358	2615.5
548.127	2461.5
548.896	2340.5
549.665	2231.5
550.434	2107.5
551.203	1996.5
551.972	1895.5
552.741	1797.5
553.51	1700.5
554.278	1594.5
555.047	1506.5
555.815	1423.5
556.584	1347.5
557.352	1278.5
558.121	1190.5
558.889	1122.5
559.657	1070.5
560.425	1015.5
561.193	945.5
561.961	894.5
562.729	864.5
563.496	809.5
564.264	757.5
565.032	713.5
565.799	678.5
566.567	641.5
567.334	609.5
568.101	567.5
568.869	539.5
569.636	514.5
570.403	483.5
571.17	448.5
571.937	429.5
572.704	405.5
573.471	379.5
574.237	360.5
575.004	340.5
575.771	322.5
576.537	299.5
577.303	282.5
578.07	264.5
578.836	247.5
579.602	238.5
580.368	222.5
581.134	212.5
581.9	205.5
582.666	191.5
583.432	174.5
584.198	172.5
584.964	162.5
585.729	150.5
586.495	147.5
587.26	141.5
588.025	126.5
588.791	126.5
589.556	115.5
590.321	110.5
591.086	103.5
591.851	100.5
592.616	97.5
593.381	88.5
594.146	88.5
594.911	83.5
595.675	79.5
596.44	74.5
597.204	72.5
597.969	67.5
598.733	67.5
599.497	62.5
600.261	56.5
601.025	57.5
601.79	55.5
602.553	49.5
603.317	50.5
604.081	44.5
604.845	45.5
605.609	44.5
606.372	38.5
607.136	38.5
607.899	38.5
608.662	33.5
609.426	36.5
610.189	33.5
610.952	32.5
611.715	30.5
612.478	32.5
613.241	27.5
614.004	29.5
614.767	26.5
615.529	26.5
616.292	21.5
617.055	22.5
617.817	23.5
618.579	22.5
619.342	21.5
620.104	20.5
620.866	17.5
621.628	21.5
622.39	21.5
623.152	20.5
623.914	19.5
624.676	16.5
625.438	16.5
626.199	14.5
626.961	11.5
627.722	15.5
628.484	15.5
629.245	13.5
630.006	14.5
630.768	15.5
631.529	11.5
632.29	12.5
633.051	10.5
633.812	11.5
634.573	13.5
635.333	9.5
636.094	11.5
636.855	11.5
637.615	13.5
638.376	11.5
639.136	11.5
639.896	8.5
640.657	8.5
641.417	10.5
642.177	9.5
642.937	8.5
643.697	10.5
644.457	7.5
645.216	7.5
645.976	6.5
646.736	9.5
647.495	8.5
648.255	8.5
649.014	5.5
649.774	7.5
650.533	8.5
651.292	8.5
652.051	8.5
652.81	5.5
653.569	4.5
654.328	6.5
655.087	4.5
655.846	8.5
656.604	8.5
657.363	5.5
658.121	5.5
658.88	7.5
659.638	5.5
660.397	3.5
661.155	5.5
661.913	4.5
662.671	2.5
663.429	7.5
664.187	3.5
664.945	6.5
665.703	5.5
666.46	4.5
667.218	3.5
667.976	4.5
668.733	5.5
669.49	4.5
670.248	6.5
671.005	4.5
671.762	3.5
672.519	4.5
673.276	3.5
674.033	5.5
674.79	6.5
675.547	2.5
676.304	4.5
677.06	5.5
677.817	4.5
678.574	4.5
679.33	4.5
680.086	3.5
680.843	3.5
681.599	4.5
682.355	2.5
683.111	4.5
683.867	4.5
684.623	3.5
685.379	4.5
686.135	4.5
686.89	2.5
687.646	2.5
688.402	6.5
689.157	3.5
689.912	3.5
690.668	4.5
691.423	2.5
692.178	4.5
692.933	3.5
693.688	5.5
694.443	4.5
695.198	2.5
695.953	3.5
696.708	5.5
697.462	4.5
698.217	1.5
698.972	3.5
699.726	4.5
700.48	4.5
701.235	3.5
701.989	2.5
702.743	4.5
703.497	3.5
704.251	5.5
705.005	2.5
705.759	2.5
706.513	3.5
707.266	1.5
708.02	3.5
708.774	5.5
709.527	1.5
710.28	6.5
711.034	3.5
711.787	4.5
712.54	4.5
713.293	3.5
714.046	1.5
714.799	3.5
715.552	3.5
716.305	4.5
717.058	2.5
717.81	1.5
718.563	4.5
719.315	5.5
720.068	1.5
720.82	4.5
721.573	0.5
722.325	2.5
723.077	3.5
723.829	4.5
724.581	4.5
725.333	2.5
726.085	5.5
726.836	2.5
727.588	3.5
728.34	4.5
729.091	2.5
729.843	5.5
730.594	4.5
731.346	4.5
732.097	2.5
732.848	3.5
733.599	5.5
734.35	2.5
735.101	5.5
735.852	6.5
736.603	3.5
737.354	2.5
738.104	4.5
738.855	4.5
739.605	6.5
740.356	5.5
741.106	5.5
741.856	3.5
742.607	4.5
743.357	4.5
744.107	3.5
744.857	5.5
745.607	2.5
746.357	6.5
747.106	6.5
747.856	4.5
748.606	5.5
749.355	6.5
750.105	2.5
750.854	3.5
751.603	6.5
752.353	5.5
753.102	9.5
753.851	4.5
754.6	5.5
755.349	6.5
756.098	4.5
756.847	1.5
757.595	4.5
758.344	3.5
759.093	3.5
759.841	7.5
760.589	6.5
761.338	6.5
762.086	5.5
762.834	3.5
763.582	4.5
764.331	6.5
765.079	5.5
765.826	5.5
766.574	4.5
767.322	8.5
768.07	4.5
768.817	7.5
769.565	6.5
770.312	6.5
771.06	7.5
771.807	6.5
772.554	8.5
773.302	9.5
774.049	9.5
774.796	9.5
775.543	7.5
776.29	8.5
777.036	7.5
777.783	9.5
778.53	8.5
779.276	8.5
780.023	8.5
780.769	8.5
781.516	10.5
782.262	8.5
783.008	10.5
783.754	8.5
784.5	7.5
785.246	7.5
785.992	5.5
786.738	11.5
787.484	8.5
788.23	10.5
788.975	8.5
789.721	9.5
790.466	7.5
791.212	7.5
791.957	9.5
792.702	10.5
793.447	7.5
794.193	10.5
794.938	5.5
795.683	9.5
796.427	6.5
797.172	8.5
797.917	7.5
798.662	6.5
799.406	6.5
800.151	6.5
800.895	7.5
801.64	6.5
802.384	6.5
803.128	8.5
803.872	4.5
804.616	7.5
805.36	7.5
806.104	6.5
806.848	5.5
807.592	6.5
808.336	5.5
809.079	5.5
809.823	7.5
810.566	4.5
811.31	4.5
812.053	7.5
812.796	4.5
813.539	3.5
814.283	4.5
815.026	7.5
815.769	6.5
816.511	8.5
817.254	7.5
817.997	3.5
818.74	6.5
819.482	4.5
820.225	3.5
820.967	5.5
821.71	3.5
822.452	2.5
823.194	4.5
823.936	4.5
824.678	3.5
825.42	5.5
826.162	2.5
826.904	4.5
827.646	4.5
828.388	4.5
829.129	6.5
829.871	2.5
830.612	4.5
831.354	3.5
832.095	3.5
832.836	4.5
833.577	4.5
834.319	2.5
835.06	3.5
835.801	3.5
836.542	3.5
837.282	2.5
838.023	3.5
838.764	1.5
839.504	1.5
840.245	4.5
840.985	5.5
841.726	3.5
842.466	2.5
843.206	3.5
843.946	2.5
844.687	6.5
845.427	3.5
846.166	2.5
846.906	1.5
847.646	3.5
848.386	3.5
849.125	1.5
849.865	1.5
850.605	1.5
851.344	3.5
852.083	2.5
852.823	0.5
853.562	3.5
854.301	2.5
855.04	1.5
855.779	2.5
856.518	2.5
857.257	1.5
857.995	-0.5
858.734	2.5
859.473	1.5
860.211	2.5
860.95	2.5
861.688	1.5
862.426	4.5
863.165	1.5
863.903	3.5
864.641	1.5
865.379	2.5
866.117	3.5
866.855	3.5
867.593	3.5
868.33	1.5
869.068	0.5
869.806	3.5
870.543	0.5
871.28	4.5
872.018	-0.5
872.755	0.5
873.492	2.5
874.229	1.5
874.967	3.5
875.703	0.5
876.44	-0.5
877.177	2.5
877.914	1.5
878.651	1.5
879.387	-1.5
880.124	3.5
880.86	-0.5
881.597	1.5
882.333	2.5
883.069	1.5
883.806	1.5
884.542	1.5
885.278	1.5
886.014	-0.5
886.749	0.5
887.485	0.5
888.221	0.5
888.957	1.5
889.692	1.5
890.428	3.5
891.163	0.5
891.899	1.5
892.634	2.5
893.369	1.5
894.104	1.5
894.839	1.5
895.574	0.5
896.309	0.5
897.044	-0.5
897.779	-1.5
898.514	2.5
899.248	1.5
899.983	-0.5
900.717	1.5
901.452	0.5
902.186	-0.5
902.92	2.5
903.654	0.5
904.389	0.5
905.123	1.5
905.857	2.5
906.59	2.5
907.324	0.5
908.058	1.5
908.792	2.5
909.525	1.5
910.259	3.5
910.992	1.5
911.726	0.5
912.459	0.5
913.192	-0.5
913.925	2.5
914.658	0.5
915.391	-0.5
916.124	2.5
916.857	-0.5
917.59	-0.5
918.323	0.5
919.055	-0.5
919.788	0.5
920.521	0.5
921.253	-1.5
921.985	-0.5
922.718	-1.5
923.45	-0.5
924.182	0.5
924.914	1.5
925.646	1.5
926.378	1.5
927.11	0.5
927.841	-0.5
928.573	3.5
929.305	0.5
930.036	-0.5
930.768	1.5
931.499	-0.5
932.23	2.5
932.962	1.5
933.693	2.5
934.424	0.5
935.155	-0.5
935.886	0.5
936.617	-0.5
937.348	1.5
938.078	1.5
938.809	-3.5
939.54	-1.5
940.27	2.5
941.001	1.5
941.731	-0.5
942.461	0.5
943.191	-0.5
943.922	-0.5
944.652	1.5
945.382	0.5
946.112	2.5
946.841	1.5
947.571	0.5
948.301	0.5
949.031	-0.5
949.76	0.5
950.49	0.5
951.219	-0.5
951.948	-0.5
952.678	-2.5
953.407	0.5
954.136	0.5
954.865	0.5
955.594	-0.5
956.323	1.5
957.052	1.5
957.78	-1.5
958.509	0.5
959.238	1.5
959.966	0.5
960.695	-0.5
961.423	-2.5
962.151	0.5
962.88	-1.5
963.608	0.5
964.336	1.5
965.064	0.5
965.792	1.5
966.52	-0.5
967.247	2.5
967.975	1.5
968.703	-0.5
969.43	1.5
970.158	1.5
970.885	-1.5
971.613	-0.5
972.34	0.5
973.067	0.5
973.794	-2.5
974.521	0.5
975.248	1.5
975.975	0.5
976.702	1.5
977.429	1.5
978.156	1.5
978.882	-0.5
979.609	-1.5
980.335	-1.5
981.062	3.5
981.788	0.5
982.514	1.5
983.24	1.5
983.967	-0.5
984.693	1.5
985.419	-1.5
986.144	1.5
986.87	0.5
987.596	0.5
988.322	-0.5
989.047	1.5
989.773	1.5
990.498	1.5
991.224	1.5
991.949	1.5
992.674	0.5
993.399	2.5
994.124	-2.5
994.849	1.5
995.574	-0.5
996.299	1.5
997.024	0.5
997.749	-2.5
998.473	-1.5
999.198	0.5
999.922	1.5
1000.647	-1.5
1001.371	3.5
1002.095	-1.5
1002.82	0.5
1003.544	-1.5
1004.268	1.5
1004.992	1.5
1005.716	0.5
1006.439	-0.5
1007.163	2.5
1007.887	2.5
1008.611	-0.5
1009.334	-0.5
1010.058	-1.5
1010.781	0.5
1011.504	-0.5
1012.228	-0.5
1012.951	0.5
1013.674	-1.5
1014.397	0.5
1015.12	-0.5
