节点500_285_QEPB04081__83__14-56-56-316.txt的数据

Date: Wed Nov 12 14:56:56 CST 2025
User: PC
Spectrometer: QEPB0408
触发模式: 0
积分时间 (秒): 1.000000E-2
Scans to average: 1
启用暗噪声校正: true
启用非线性校正: false
滑动平均宽度: 0
X轴模式: Wavelengths
Number of Pixels in Spectrum: 1044
>>>>>Begin Spectral Data<<<<<
220.843	2.25
221.644	3.25
222.444	0.25
223.244	2.25
224.045	3.25
224.845	2.25
225.645	2.25
226.445	2.25
227.245	1.25
228.045	0.25
228.845	4.25
229.645	2.25
230.444	5.25
231.244	4.25
232.043	4.25
232.843	3.25
233.642	1.25
234.442	4.25
235.241	6.25
236.04	3.25
236.839	4.25
237.638	1.25
238.437	3.25
239.236	3.25
240.035	4.25
240.833	4.25
241.632	5.25
242.43	4.25
243.229	4.25
244.027	5.25
244.826	8.25
245.624	5.25
246.422	8.25
247.22	7.25
248.018	6.25
248.816	7.25
249.614	5.25
250.412	7.25
251.21	7.25
252.007	7.25
252.805	7.25
253.602	5.25
254.4	8.25
255.197	9.25
255.994	9.25
256.791	9.25
257.589	8.25
258.386	10.25
259.183	8.25
259.979	8.25
260.776	11.25
261.573	9.25
262.37	11.25
263.166	9.25
263.963	11.25
264.759	13.25
265.556	13.25
266.352	14.25
267.148	13.25
267.944	14.25
268.74	16.25
269.536	14.25
270.332	17.25
271.128	18.25
271.924	15.25
272.719	17.25
273.515	17.25
274.311	17.25
275.106	20.25
275.901	17.25
276.697	17.25
277.492	17.25
278.287	20.25
279.082	20.25
279.877	17.25
280.672	19.25
281.467	19.25
282.262	17.25
283.056	20.25
283.851	18.25
284.646	22.25
285.44	18.25
286.234	19.25
287.029	22.25
287.823	18.25
288.617	20.25
289.411	15.25
290.205	23.25
290.999	19.25
291.793	19.25
292.587	18.25
293.381	20.25
294.174	18.25
294.968	17.25
295.761	16.25
296.555	13.25
297.348	15.25
298.141	17.25
298.935	14.25
299.728	16.25
300.521	15.25
301.314	15.25
302.107	15.25
302.899	13.25
303.692	15.25
304.485	13.25
305.277	15.25
306.07	13.25
306.862	12.25
307.655	13.25
308.447	14.25
309.239	11.25
310.031	11.25
310.823	12.25
311.615	10.25
312.407	11.25
313.199	9.25
313.991	7.25
314.783	9.25
315.574	9.25
316.366	10.25
317.157	8.25
317.949	9.25
318.74	10.25
319.531	7.25
320.322	9.25
321.113	7.25
321.904	7.25
322.695	7.25
323.486	7.25
324.277	8.25
325.068	7.25
325.858	6.25
326.649	7.25
327.439	7.25
328.23	7.25
329.02	7.25
329.81	6.25
330.6	7.25
331.391	7.25
332.181	4.25
332.971	8.25
333.76	7.25
334.55	6.25
335.34	6.25
336.13	6.25
336.919	4.25
337.709	5.25
338.498	8.25
339.287	4.25
340.077	7.25
340.866	7.25
341.655	5.25
342.444	7.25
343.233	3.25
344.022	8.25
344.811	5.25
345.6	10.25
346.388	5.25
347.177	8.25
347.965	6.25
348.754	5.25
349.542	8.25
350.33	5.25
351.119	7.25
351.907	6.25
352.695	6.25
353.483	7.25
354.271	5.25
355.059	9.25
355.846	8.25
356.634	6.25
357.422	6.25
358.209	6.25
358.997	6.25
359.784	6.25
360.571	7.25
361.359	4.25
362.146	5.25
362.933	6.25
363.72	3.25
364.507	5.25
365.294	5.25
366.081	5.25
366.867	5.25
367.654	3.25
368.44	5.25
369.227	6.25
370.013	5.25
370.8	5.25
371.586	3.25
372.372	6.25
373.158	5.25
373.944	7.25
374.73	4.25
375.516	2.25
376.302	6.25
377.088	5.25
377.873	6.25
378.659	5.25
379.445	5.25
380.23	6.25
381.015	7.25
381.801	3.25
382.586	5.25
383.371	6.25
384.156	3.25
384.941	3.25
385.726	5.25
386.511	4.25
387.296	6.25
388.08	6.25
388.865	7.25
389.649	5.25
390.434	5.25
391.218	4.25
392.003	7.25
392.787	7.25
393.571	4.25
394.355	7.25
395.139	6.25
395.923	5.25
396.707	6.25
397.491	5.25
398.274	8.25
399.058	9.25
399.842	7.25
400.625	7.25
401.408	9.25
402.192	7.25
402.975	9.25
403.758	8.25
404.541	6.25
405.324	8.25
406.107	7.25
406.89	8.25
407.673	10.25
408.456	8.25
409.238	9.25
410.021	7.25
410.803	7.25
411.586	11.25
412.368	10.25
413.151	11.25
413.933	9.25
414.715	9.25
415.497	10.25
416.279	6.25
417.061	7.25
417.843	8.25
418.624	8.25
419.406	11.25
420.188	10.25
420.969	11.25
421.751	11.25
422.532	11.25
423.313	11.25
424.095	12.25
424.876	13.25
425.657	11.25
426.438	11.25
427.219	12.25
428	11.25
428.78	13.25
429.561	12.25
430.342	13.25
431.122	15.25
431.903	15.25
432.683	16.25
433.464	15.25
434.244	18.25
435.024	17.25
435.804	16.25
436.584	17.25
437.364	18.25
438.144	21.25
438.924	15.25
439.704	21.25
440.483	20.25
441.263	21.25
442.042	25.25
442.822	28.25
443.601	28.25
444.38	28.25
445.16	30.25
445.939	34.25
446.718	36.25
447.497	37.25
448.276	41.25
449.054	44.25
449.833	46.25
450.612	48.25
451.391	55.25
452.169	57.25
452.948	62.25
453.726	71.25
454.504	80.25
455.282	82.25
456.061	89.25
456.839	105.25
457.617	112.25
458.395	123.25
459.172	139.25
459.95	157.25
460.728	174.25
461.506	187.25
462.283	216.25
463.061	243.25
463.838	269.25
464.615	305.25
465.393	334.25
466.17	382.25
466.947	414.25
467.724	471.25
468.501	520.25
469.278	587.25
470.055	656.25
470.831	733.25
471.608	819.25
472.385	918.25
473.161	1012.25
473.938	1117.25
474.714	1267.25
475.49	1390.25
476.266	1546.25
477.043	1704.25
477.819	1911.25
478.595	2122.25
479.371	2334.25
480.146	2589.25
480.922	2883.25
481.698	3173.25
482.473	3529.25
483.249	3884.25
484.024	4324.25
484.8	4776.25
485.575	5263.25
486.35	5833.25
487.126	6411.25
487.901	7058.25
488.676	7717.25
489.451	8526.25
490.225	9401.25
491	10271.25
491.775	11275.25
492.55	12310.25
493.324	13378.25
494.099	14442.25
494.873	15611.25
495.647	16860.25
496.422	18080.25
497.196	19363.25
497.97	20691.25
498.744	21955.25
499.518	23153.25
500.292	24353.25
501.066	25461.25
501.839	26414.25
502.613	27233.25
503.387	28023.25
504.16	28501.25
504.934	28616.25
505.707	28709.25
506.48	28684.25
507.253	28490.25
508.027	27907.25
508.8	27547.25
509.573	26840.25
510.346	26119.25
511.118	25186.25
511.891	24198.25
512.664	23309.25
513.437	22316.25
514.209	21353.25
514.982	20458.25
515.754	19475.25
516.526	18597.25
517.298	17721.25
518.071	16994.25
518.843	16275.25
519.615	15694.25
520.387	15021.25
521.159	14503.25
521.93	13899.25
522.702	13346.25
523.474	12809.25
524.245	12254.25
525.017	11695.25
525.788	11223.25
526.56	10678.25
527.331	10213.25
528.102	9720.25
528.873	9207.25
529.644	8772.25
530.415	8341.25
531.186	7921.25
531.957	7462.25
532.728	7074.25
533.498	6709.25
534.269	6307.25
535.039	5963.25
535.81	5658.25
536.58	5306.25
537.351	4964.25
538.121	4725.25
538.891	4447.25
539.661	4229.25
540.431	3989.25
541.201	3763.25
541.971	3568.25
542.741	3392.25
543.51	3210.25
544.28	3094.25
545.05	2916.25
545.819	2790.25
546.588	2616.25
547.358	2506.25
548.127	2378.25
548.896	2230.25
549.665	2130.25
550.434	2025.25
551.203	1907.25
551.972	1810.25
552.741	1693.25
553.51	1609.25
554.278	1521.25
555.047	1425.25
555.815	1343.25
556.584	1275.25
557.352	1219.25
558.121	1128.25
558.889	1061.25
559.657	1005.25
560.425	965.25
561.193	900.25
561.961	854.25
562.729	803.25
563.496	760.25
564.264	719.25
565.032	688.25
565.799	633.25
566.567	607.25
567.334	577.25
568.101	537.25
568.869	516.25
569.636	477.25
570.403	448.25
571.17	425.25
571.937	406.25
572.704	384.25
573.471	351.25
574.237	338.25
575.004	327.25
575.771	302.25
576.537	282.25
577.303	268.25
578.07	252.25
578.836	236.25
579.602	217.25
580.368	206.25
581.134	198.25
581.9	186.25
582.666	180.25
583.432	167.25
584.198	158.25
584.964	155.25
585.729	148.25
586.495	140.25
587.26	135.25
588.025	121.25
588.791	117.25
589.556	111.25
590.321	109.25
591.086	97.25
591.851	93.25
592.616	89.25
593.381	84.25
594.146	86.25
594.911	78.25
595.675	76.25
596.44	72.25
597.204	69.25
597.969	62.25
598.733	59.25
599.497	57.25
600.261	57.25
601.025	56.25
601.79	49.25
602.553	50.25
603.317	48.25
604.081	45.25
604.845	43.25
605.609	44.25
606.372	40.25
607.136	39.25
607.899	37.25
608.662	38.25
609.426	37.25
610.189	34.25
610.952	31.25
611.715	28.25
612.478	29.25
613.241	26.25
614.004	27.25
614.767	29.25
615.529	25.25
616.292	24.25
617.055	22.25
617.817	24.25
618.579	22.25
619.342	23.25
620.104	19.25
620.866	19.25
621.628	20.25
622.39	20.25
623.152	18.25
623.914	17.25
624.676	17.25
625.438	16.25
626.199	16.25
626.961	16.25
627.722	13.25
628.484	12.25
629.245	13.25
630.006	13.25
630.768	13.25
631.529	11.25
632.29	12.25
633.051	13.25
633.812	11.25
634.573	13.25
635.333	12.25
636.094	12.25
636.855	12.25
637.615	11.25
638.376	8.25
639.136	7.25
639.896	12.25
640.657	9.25
641.417	9.25
642.177	10.25
642.937	9.25
643.697	9.25
644.457	9.25
645.216	7.25
645.976	7.25
646.736	9.25
647.495	8.25
648.255	9.25
649.014	8.25
649.774	6.25
650.533	8.25
651.292	7.25
652.051	6.25
652.81	8.25
653.569	7.25
654.328	7.25
655.087	5.25
655.846	7.25
656.604	6.25
657.363	6.25
658.121	8.25
658.88	5.25
659.638	9.25
660.397	5.25
661.155	6.25
661.913	4.25
662.671	4.25
663.429	7.25
664.187	5.25
664.945	6.25
665.703	5.25
666.46	5.25
667.218	5.25
667.976	7.25
668.733	5.25
669.49	3.25
670.248	1.25
671.005	4.25
671.762	6.25
672.519	6.25
673.276	4.25
674.033	4.25
674.79	3.25
675.547	6.25
676.304	7.25
677.06	4.25
677.817	5.25
678.574	5.25
679.33	4.25
680.086	4.25
680.843	2.25
681.599	2.25
682.355	5.25
683.111	5.25
683.867	3.25
684.623	1.25
685.379	5.25
686.135	3.25
686.89	3.25
687.646	1.25
688.402	3.25
689.157	3.25
689.912	5.25
690.668	5.25
691.423	5.25
692.178	4.25
692.933	3.25
693.688	2.25
694.443	3.25
695.198	5.25
695.953	4.25
696.708	4.25
697.462	2.25
698.217	5.25
698.972	4.25
699.726	5.25
700.48	2.25
701.235	2.25
701.989	3.25
702.743	3.25
703.497	3.25
704.251	3.25
705.005	4.25
705.759	5.25
706.513	2.25
707.266	3.25
708.02	4.25
708.774	3.25
709.527	5.25
710.28	3.25
711.034	2.25
711.787	3.25
712.54	2.25
713.293	3.25
714.046	5.25
714.799	4.25
715.552	2.25
716.305	6.25
717.058	4.25
717.81	6.25
718.563	3.25
719.315	3.25
720.068	6.25
720.82	2.25
721.573	4.25
722.325	2.25
723.077	3.25
723.829	1.25
724.581	3.25
725.333	5.25
726.085	1.25
726.836	1.25
727.588	6.25
728.34	4.25
729.091	4.25
729.843	2.25
730.594	6.25
731.346	2.25
732.097	3.25
732.848	4.25
733.599	5.25
734.35	5.25
735.101	4.25
735.852	3.25
736.603	5.25
737.354	5.25
738.104	5.25
738.855	4.25
739.605	6.25
740.356	6.25
741.106	5.25
741.856	4.25
742.607	6.25
743.357	5.25
744.107	4.25
744.857	6.25
745.607	5.25
746.357	4.25
747.106	5.25
747.856	3.25
748.606	7.25
749.355	4.25
750.105	5.25
750.854	5.25
751.603	6.25
752.353	3.25
753.102	6.25
753.851	5.25
754.6	7.25
755.349	7.25
756.098	8.25
756.847	6.25
757.595	7.25
758.344	5.25
759.093	7.25
759.841	7.25
760.589	4.25
761.338	7.25
762.086	7.25
762.834	7.25
763.582	8.25
764.331	7.25
765.079	6.25
765.826	7.25
766.574	6.25
767.322	4.25
768.07	8.25
768.817	6.25
769.565	7.25
770.312	9.25
771.06	6.25
771.807	7.25
772.554	7.25
773.302	8.25
774.049	8.25
774.796	6.25
775.543	9.25
776.29	7.25
777.036	8.25
777.783	9.25
778.53	9.25
779.276	9.25
780.023	9.25
780.769	9.25
781.516	9.25
782.262	10.25
783.008	10.25
783.754	9.25
784.5	13.25
785.246	8.25
785.992	11.25
786.738	7.25
787.484	11.25
788.23	9.25
788.975	11.25
789.721	8.25
790.466	9.25
791.212	11.25
791.957	7.25
792.702	8.25
793.447	9.25
794.193	7.25
794.938	9.25
795.683	9.25
796.427	7.25
797.172	9.25
797.917	8.25
798.662	7.25
799.406	7.25
800.151	10.25
800.895	6.25
801.64	9.25
802.384	7.25
803.128	7.25
803.872	7.25
804.616	7.25
805.36	5.25
806.104	7.25
806.848	6.25
807.592	6.25
808.336	3.25
809.079	5.25
809.823	6.25
810.566	6.25
811.31	5.25
812.053	6.25
812.796	7.25
813.539	6.25
814.283	4.25
815.026	6.25
815.769	5.25
816.511	5.25
817.254	4.25
817.997	5.25
818.74	6.25
819.482	4.25
820.225	5.25
820.967	4.25
821.71	5.25
822.452	4.25
823.194	3.25
823.936	5.25
824.678	3.25
825.42	4.25
826.162	4.25
826.904	4.25
827.646	4.25
828.388	4.25
829.129	3.25
829.871	5.25
830.612	5.25
831.354	3.25
832.095	2.25
832.836	5.25
833.577	4.25
834.319	6.25
835.06	5.25
835.801	4.25
836.542	3.25
837.282	4.25
838.023	2.25
838.764	1.25
839.504	4.25
840.245	3.25
840.985	4.25
841.726	4.25
842.466	3.25
843.206	2.25
843.946	3.25
844.687	1.25
845.427	3.25
846.166	3.25
846.906	0.25
847.646	2.25
848.386	2.25
849.125	1.25
849.865	4.25
850.605	3.25
851.344	4.25
852.083	1.25
852.823	2.25
853.562	2.25
854.301	3.25
855.04	4.25
855.779	1.25
856.518	1.25
857.257	3.25
857.995	2.25
858.734	4.25
859.473	2.25
860.211	3.25
860.95	4.25
861.688	2.25
862.426	2.25
863.165	1.25
863.903	3.25
864.641	2.25
865.379	2.25
866.117	2.25
866.855	1.25
867.593	2.25
868.33	1.25
869.068	2.25
869.806	0.25
870.543	3.25
871.28	1.25
872.018	2.25
872.755	0.25
873.492	1.25
874.229	1.25
874.967	1.25
875.703	0.25
876.44	1.25
877.177	2.25
877.914	1.25
878.651	-0.75
879.387	-1.75
880.124	1.25
880.86	1.25
881.597	2.25
882.333	-0.75
883.069	1.25
883.806	0.25
884.542	0.25
885.278	1.25
886.014	0.25
886.749	-0.75
887.485	1.25
888.221	4.25
888.957	2.25
889.692	3.25
890.428	0.25
891.163	-0.75
891.899	-0.75
892.634	2.25
893.369	1.25
894.104	3.25
894.839	1.25
895.574	1.25
896.309	3.25
897.044	-1.75
897.779	0.25
898.514	0.25
899.248	1.25
899.983	0.25
900.717	0.25
901.452	-0.75
902.186	1.25
902.92	2.25
903.654	1.25
904.389	-1.75
905.123	2.25
905.857	0.25
906.59	2.25
907.324	3.25
908.058	2.25
908.792	2.25
909.525	-0.75
910.259	1.25
910.992	1.25
911.726	1.25
912.459	0.25
913.192	0.25
913.925	1.25
914.658	-0.75
915.391	1.25
916.124	1.25
916.857	-0.75
917.59	3.25
918.323	-0.75
919.055	0.25
919.788	-1.75
920.521	0.25
921.253	-0.75
921.985	-0.75
922.718	3.25
923.45	1.25
924.182	2.25
924.914	-0.75
925.646	1.25
926.378	2.25
927.11	-1.75
927.841	1.25
928.573	-0.75
929.305	3.25
930.036	1.25
930.768	1.25
931.499	-0.75
932.23	0.25
932.962	0.25
933.693	-0.75
934.424	1.25
935.155	-0.75
935.886	1.25
936.617	-0.75
937.348	0.25
938.078	-0.75
938.809	-0.75
939.54	-0.75
940.27	-2.75
941.001	-1.75
941.731	2.25
942.461	-0.75
943.191	-1.75
943.922	1.25
944.652	0.25
945.382	0.25
946.112	1.25
946.841	-0.75
947.571	0.25
948.301	1.25
949.031	-0.75
949.76	0.25
950.49	1.25
951.219	0.25
951.948	0.25
952.678	1.25
953.407	1.25
954.136	1.25
954.865	-0.75
955.594	0.25
956.323	-0.75
957.052	0.25
957.78	-0.75
958.509	-1.75
959.238	1.25
959.966	1.25
960.695	-0.75
961.423	-1.75
962.151	1.25
962.88	0.25
963.608	0.25
964.336	0.25
965.064	1.25
965.792	1.25
966.52	1.25
967.247	-0.75
967.975	0.25
968.703	1.25
969.43	-0.75
970.158	1.25
970.885	-0.75
971.613	0.25
972.34	-0.75
973.067	2.25
973.794	0.25
974.521	0.25
975.248	-0.75
975.975	0.25
976.702	3.25
977.429	-0.75
978.156	0.25
978.882	-1.75
979.609	-0.75
980.335	0.25
981.062	0.25
981.788	1.25
982.514	0.25
983.24	0.25
983.967	2.25
984.693	0.25
985.419	1.25
986.144	2.25
986.87	0.25
987.596	2.25
988.322	-0.75
989.047	0.25
989.773	-1.75
990.498	2.25
991.224	1.25
991.949	-0.75
992.674	1.25
993.399	-1.75
994.124	0.25
994.849	0.25
995.574	-0.75
996.299	1.25
997.024	0.25
997.749	-0.75
998.473	1.25
999.198	1.25
999.922	-0.75
1000.647	2.25
1001.371	3.25
1002.095	-1.75
1002.82	-0.75
1003.544	-0.75
1004.268	2.25
1004.992	2.25
1005.716	-0.75
1006.439	1.25
1007.163	-0.75
1007.887	4.25
1008.611	1.25
1009.334	0.25
1010.058	2.25
1010.781	1.25
1011.504	-0.75
1012.228	0.25
1012.951	-0.75
1013.674	-0.75
1014.397	0.25
1015.12	1.25
