节点500_285_QEPB04081__593__15-05-25-202.txt的数据

Date: Wed Nov 12 15:05:25 CST 2025
User: PC
Spectrometer: QEPB0408
触发模式: 0
积分时间 (秒): 1.000000E-2
Scans to average: 1
启用暗噪声校正: true
启用非线性校正: false
滑动平均宽度: 0
X轴模式: Wavelengths
Number of Pixels in Spectrum: 1044
>>>>>Begin Spectral Data<<<<<
220.843	2.38
221.644	3.38
222.444	3.38
223.244	3.38
224.045	4.38
224.845	2.38
225.645	3.38
226.445	2.38
227.245	4.38
228.045	3.38
228.845	2.38
229.645	1.38
230.444	4.38
231.244	2.38
232.043	3.38
232.843	6.38
233.642	5.38
234.442	2.38
235.241	2.38
236.04	2.38
236.839	5.38
237.638	7.38
238.437	5.38
239.236	3.38
240.035	3.38
240.833	3.38
241.632	3.38
242.43	5.38
243.229	5.38
244.027	4.38
244.826	6.38
245.624	7.38
246.422	8.38
247.22	6.38
248.018	6.38
248.816	6.38
249.614	5.38
250.412	6.38
251.21	6.38
252.007	7.38
252.805	6.38
253.602	8.38
254.4	7.38
255.197	6.38
255.994	7.38
256.791	9.38
257.589	9.38
258.386	8.38
259.183	10.38
259.979	10.38
260.776	10.38
261.573	13.38
262.37	10.38
263.166	9.38
263.963	8.38
264.759	10.38
265.556	10.38
266.352	12.38
267.148	12.38
267.944	9.38
268.74	13.38
269.536	16.38
270.332	14.38
271.128	13.38
271.924	14.38
272.719	15.38
273.515	13.38
274.311	14.38
275.106	16.38
275.901	18.38
276.697	17.38
277.492	16.38
278.287	14.38
279.082	19.38
279.877	16.38
280.672	19.38
281.467	18.38
282.262	16.38
283.056	18.38
283.851	17.38
284.646	22.38
285.44	17.38
286.234	20.38
287.029	20.38
287.823	17.38
288.617	19.38
289.411	18.38
290.205	18.38
290.999	18.38
291.793	17.38
292.587	17.38
293.381	18.38
294.174	15.38
294.968	14.38
295.761	18.38
296.555	15.38
297.348	14.38
298.141	14.38
298.935	18.38
299.728	15.38
300.521	14.38
301.314	14.38
302.107	11.38
302.899	13.38
303.692	12.38
304.485	11.38
305.277	15.38
306.07	15.38
306.862	10.38
307.655	14.38
308.447	12.38
309.239	12.38
310.031	11.38
310.823	10.38
311.615	9.38
312.407	11.38
313.199	11.38
313.991	10.38
314.783	10.38
315.574	10.38
316.366	10.38
317.157	8.38
317.949	9.38
318.74	9.38
319.531	10.38
320.322	7.38
321.113	9.38
321.904	9.38
322.695	8.38
323.486	7.38
324.277	7.38
325.068	6.38
325.858	6.38
326.649	8.38
327.439	9.38
328.23	6.38
329.02	8.38
329.81	9.38
330.6	6.38
331.391	7.38
332.181	5.38
332.971	7.38
333.76	5.38
334.55	7.38
335.34	10.38
336.13	7.38
336.919	4.38
337.709	5.38
338.498	8.38
339.287	7.38
340.077	7.38
340.866	7.38
341.655	8.38
342.444	8.38
343.233	7.38
344.022	7.38
344.811	8.38
345.6	5.38
346.388	6.38
347.177	4.38
347.965	8.38
348.754	5.38
349.542	9.38
350.33	8.38
351.119	5.38
351.907	7.38
352.695	3.38
353.483	7.38
354.271	6.38
355.059	6.38
355.846	5.38
356.634	4.38
357.422	7.38
358.209	8.38
358.997	9.38
359.784	6.38
360.571	6.38
361.359	6.38
362.146	5.38
362.933	6.38
363.72	6.38
364.507	5.38
365.294	6.38
366.081	4.38
366.867	5.38
367.654	2.38
368.44	7.38
369.227	6.38
370.013	7.38
370.8	4.38
371.586	6.38
372.372	5.38
373.158	4.38
373.944	7.38
374.73	6.38
375.516	5.38
376.302	5.38
377.088	6.38
377.873	4.38
378.659	7.38
379.445	5.38
380.23	6.38
381.015	6.38
381.801	6.38
382.586	6.38
383.371	4.38
384.156	5.38
384.941	5.38
385.726	6.38
386.511	6.38
387.296	7.38
388.08	5.38
388.865	9.38
389.649	6.38
390.434	6.38
391.218	8.38
392.003	5.38
392.787	6.38
393.571	6.38
394.355	7.38
395.139	7.38
395.923	5.38
396.707	10.38
397.491	7.38
398.274	8.38
399.058	7.38
399.842	6.38
400.625	5.38
401.408	7.38
402.192	5.38
402.975	9.38
403.758	5.38
404.541	9.38
405.324	8.38
406.107	5.38
406.89	8.38
407.673	9.38
408.456	7.38
409.238	7.38
410.021	9.38
410.803	8.38
411.586	9.38
412.368	8.38
413.151	8.38
413.933	11.38
414.715	9.38
415.497	11.38
416.279	10.38
417.061	9.38
417.843	10.38
418.624	8.38
419.406	10.38
420.188	9.38
420.969	12.38
421.751	9.38
422.532	13.38
423.313	10.38
424.095	10.38
424.876	11.38
425.657	9.38
426.438	12.38
427.219	12.38
428	13.38
428.78	12.38
429.561	14.38
430.342	14.38
431.122	12.38
431.903	17.38
432.683	12.38
433.464	16.38
434.244	19.38
435.024	18.38
435.804	17.38
436.584	18.38
437.364	20.38
438.144	20.38
438.924	23.38
439.704	24.38
440.483	25.38
441.263	23.38
442.042	24.38
442.822	25.38
443.601	29.38
444.38	28.38
445.16	36.38
445.939	31.38
446.718	38.38
447.497	41.38
448.276	45.38
449.054	50.38
449.833	55.38
450.612	55.38
451.391	61.38
452.169	63.38
452.948	73.38
453.726	81.38
454.504	87.38
455.282	97.38
456.061	107.38
456.839	113.38
457.617	130.38
458.395	147.38
459.172	159.38
459.95	177.38
460.728	203.38
461.506	225.38
462.283	247.38
463.061	276.38
463.838	304.38
464.615	349.38
465.393	387.38
466.17	426.38
466.947	472.38
467.724	522.38
468.501	582.38
469.278	652.38
470.055	729.38
470.831	802.38
471.608	891.38
472.385	989.38
473.161	1089.38
473.938	1205.38
474.714	1314.38
475.49	1453.38
476.266	1610.38
477.043	1752.38
477.819	1944.38
478.595	2145.38
479.371	2359.38
480.146	2585.38
480.922	2846.38
481.698	3114.38
482.473	3410.38
483.249	3719.38
484.024	4093.38
484.8	4494.38
485.575	4941.38
486.35	5385.38
487.126	5870.38
487.901	6445.38
488.676	6966.38
489.451	7611.38
490.225	8312.38
491	9048.38
491.775	9901.38
492.55	10746.38
493.324	11551.38
494.099	12474.38
494.873	13409.38
495.647	14443.38
496.422	15460.38
497.196	16584.38
497.97	17700.38
498.744	18773.38
499.518	19892.38
500.292	20957.38
501.066	22053.38
501.839	22988.38
502.613	23838.38
503.387	24724.38
504.16	25400.38
504.934	25802.38
505.707	26055.38
506.48	26207.38
507.253	26249.38
508.027	26193.38
508.8	26023.38
509.573	25792.38
510.346	25278.38
511.118	24661.38
511.891	23936.38
512.664	23291.38
513.437	22476.38
514.209	21621.38
514.982	20793.38
515.754	19950.38
516.526	19146.38
517.298	18364.38
518.071	17498.38
518.843	16876.38
519.615	16238.38
520.387	15568.38
521.159	15019.38
521.93	14362.38
522.702	13830.38
523.474	13208.38
524.245	12701.38
525.017	12106.38
525.788	11641.38
526.56	11158.38
527.331	10626.38
528.102	10177.38
528.873	9769.38
529.644	9285.38
530.415	8877.38
531.186	8417.38
531.957	7935.38
532.728	7598.38
533.498	7217.38
534.269	6795.38
535.039	6454.38
535.81	6098.38
536.58	5748.38
537.351	5437.38
538.121	5136.38
538.891	4855.38
539.661	4592.38
540.431	4326.38
541.201	4092.38
541.971	3892.38
542.741	3684.38
543.51	3510.38
544.28	3344.38
545.05	3154.38
545.819	3036.38
546.588	2887.38
547.358	2718.38
548.127	2590.38
548.896	2467.38
549.665	2340.38
550.434	2208.38
551.203	2097.38
551.972	1972.38
552.741	1888.38
553.51	1784.38
554.278	1685.38
555.047	1589.38
555.815	1512.38
556.584	1420.38
557.352	1350.38
558.121	1271.38
558.889	1190.38
559.657	1132.38
560.425	1073.38
561.193	1005.38
561.961	942.38
562.729	905.38
563.496	839.38
564.264	803.38
565.032	745.38
565.799	716.38
566.567	674.38
567.334	643.38
568.101	601.38
568.869	569.38
569.636	537.38
570.403	504.38
571.17	473.38
571.937	444.38
572.704	419.38
573.471	399.38
574.237	385.38
575.004	353.38
575.771	340.38
576.537	314.38
577.303	302.38
578.07	284.38
578.836	267.38
579.602	250.38
580.368	235.38
581.134	226.38
581.9	215.38
582.666	201.38
583.432	195.38
584.198	177.38
584.964	172.38
585.729	165.38
586.495	154.38
587.26	148.38
588.025	139.38
588.791	134.38
589.556	124.38
590.321	124.38
591.086	107.38
591.851	106.38
592.616	101.38
593.381	96.38
594.146	92.38
594.911	89.38
595.675	81.38
596.44	81.38
597.204	75.38
597.969	75.38
598.733	70.38
599.497	64.38
600.261	67.38
601.025	56.38
601.79	58.38
602.553	52.38
603.317	50.38
604.081	48.38
604.845	51.38
605.609	47.38
606.372	45.38
607.136	45.38
607.899	42.38
608.662	39.38
609.426	36.38
610.189	36.38
610.952	33.38
611.715	35.38
612.478	32.38
613.241	32.38
614.004	27.38
614.767	27.38
615.529	28.38
616.292	25.38
617.055	26.38
617.817	23.38
618.579	25.38
619.342	23.38
620.104	21.38
620.866	19.38
621.628	19.38
622.39	22.38
623.152	20.38
623.914	16.38
624.676	21.38
625.438	17.38
626.199	18.38
626.961	18.38
627.722	16.38
628.484	17.38
629.245	14.38
630.006	14.38
630.768	12.38
631.529	11.38
632.29	10.38
633.051	11.38
633.812	11.38
634.573	12.38
635.333	13.38
636.094	13.38
636.855	11.38
637.615	10.38
638.376	11.38
639.136	10.38
639.896	9.38
640.657	10.38
641.417	8.38
642.177	11.38
642.937	7.38
643.697	11.38
644.457	9.38
645.216	10.38
645.976	8.38
646.736	8.38
647.495	8.38
648.255	8.38
649.014	9.38
649.774	8.38
650.533	6.38
651.292	8.38
652.051	7.38
652.81	5.38
653.569	7.38
654.328	9.38
655.087	6.38
655.846	4.38
656.604	7.38
657.363	5.38
658.121	6.38
658.88	9.38
659.638	4.38
660.397	4.38
661.155	6.38
661.913	6.38
662.671	9.38
663.429	6.38
664.187	5.38
664.945	4.38
665.703	5.38
666.46	4.38
667.218	7.38
667.976	6.38
668.733	4.38
669.49	6.38
670.248	4.38
671.005	5.38
671.762	4.38
672.519	7.38
673.276	7.38
674.033	4.38
674.79	6.38
675.547	5.38
676.304	5.38
677.06	5.38
677.817	6.38
678.574	4.38
679.33	3.38
680.086	5.38
680.843	5.38
681.599	3.38
682.355	5.38
683.111	4.38
683.867	4.38
684.623	2.38
685.379	6.38
686.135	5.38
686.89	6.38
687.646	2.38
688.402	3.38
689.157	4.38
689.912	4.38
690.668	3.38
691.423	4.38
692.178	4.38
692.933	4.38
693.688	6.38
694.443	4.38
695.198	3.38
695.953	3.38
696.708	6.38
697.462	5.38
698.217	6.38
698.972	1.38
699.726	5.38
700.48	1.38
701.235	3.38
701.989	4.38
702.743	4.38
703.497	5.38
704.251	1.38
705.005	6.38
705.759	4.38
706.513	5.38
707.266	2.38
708.02	3.38
708.774	3.38
709.527	3.38
710.28	4.38
711.034	5.38
711.787	2.38
712.54	4.38
713.293	4.38
714.046	4.38
714.799	3.38
715.552	3.38
716.305	3.38
717.058	3.38
717.81	4.38
718.563	4.38
719.315	4.38
720.068	5.38
720.82	2.38
721.573	2.38
722.325	4.38
723.077	4.38
723.829	5.38
724.581	3.38
725.333	3.38
726.085	5.38
726.836	3.38
727.588	4.38
728.34	3.38
729.091	4.38
729.843	3.38
730.594	5.38
731.346	6.38
732.097	5.38
732.848	3.38
733.599	7.38
734.35	3.38
735.101	2.38
735.852	5.38
736.603	4.38
737.354	5.38
738.104	4.38
738.855	6.38
739.605	7.38
740.356	7.38
741.106	4.38
741.856	5.38
742.607	5.38
743.357	3.38
744.107	7.38
744.857	6.38
745.607	4.38
746.357	7.38
747.106	4.38
747.856	5.38
748.606	3.38
749.355	6.38
750.105	2.38
750.854	5.38
751.603	5.38
752.353	6.38
753.102	5.38
753.851	5.38
754.6	5.38
755.349	5.38
756.098	7.38
756.847	5.38
757.595	7.38
758.344	9.38
759.093	5.38
759.841	6.38
760.589	5.38
761.338	7.38
762.086	4.38
762.834	6.38
763.582	9.38
764.331	7.38
765.079	8.38
765.826	6.38
766.574	6.38
767.322	7.38
768.07	7.38
768.817	6.38
769.565	8.38
770.312	5.38
771.06	5.38
771.807	7.38
772.554	7.38
773.302	7.38
774.049	7.38
774.796	9.38
775.543	6.38
776.29	8.38
777.036	8.38
777.783	9.38
778.53	10.38
779.276	9.38
780.023	8.38
780.769	9.38
781.516	11.38
782.262	6.38
783.008	8.38
783.754	10.38
784.5	5.38
785.246	8.38
785.992	9.38
786.738	9.38
787.484	8.38
788.23	10.38
788.975	7.38
789.721	8.38
790.466	9.38
791.212	8.38
791.957	9.38
792.702	10.38
793.447	8.38
794.193	7.38
794.938	9.38
795.683	8.38
796.427	7.38
797.172	7.38
797.917	10.38
798.662	8.38
799.406	5.38
800.151	5.38
800.895	9.38
801.64	8.38
802.384	6.38
803.128	7.38
803.872	7.38
804.616	8.38
805.36	4.38
806.104	7.38
806.848	6.38
807.592	3.38
808.336	5.38
809.079	7.38
809.823	7.38
810.566	5.38
811.31	8.38
812.053	5.38
812.796	4.38
813.539	8.38
814.283	5.38
815.026	5.38
815.769	6.38
816.511	6.38
817.254	4.38
817.997	4.38
818.74	5.38
819.482	6.38
820.225	5.38
820.967	4.38
821.71	2.38
822.452	6.38
823.194	6.38
823.936	5.38
824.678	5.38
825.42	4.38
826.162	2.38
826.904	5.38
827.646	2.38
828.388	6.38
829.129	5.38
829.871	5.38
830.612	2.38
831.354	5.38
832.095	3.38
832.836	3.38
833.577	1.38
834.319	5.38
835.06	4.38
835.801	3.38
836.542	5.38
837.282	4.38
838.023	6.38
838.764	2.38
839.504	5.38
840.245	3.38
840.985	3.38
841.726	4.38
842.466	4.38
843.206	4.38
843.946	5.38
844.687	4.38
845.427	2.38
846.166	2.38
846.906	1.38
847.646	3.38
848.386	4.38
849.125	2.38
849.865	4.38
850.605	3.38
851.344	2.38
852.083	4.38
852.823	2.38
853.562	2.38
854.301	2.38
855.04	1.38
855.779	2.38
856.518	4.38
857.257	4.38
857.995	4.38
858.734	3.38
859.473	3.38
860.211	2.38
860.95	1.38
861.688	4.38
862.426	2.38
863.165	2.38
863.903	1.38
864.641	2.38
865.379	2.38
866.117	4.38
866.855	3.38
867.593	2.38
868.33	4.38
869.068	2.38
869.806	1.38
870.543	1.38
871.28	3.38
872.018	0.38
872.755	1.38
873.492	0.38
874.229	2.38
874.967	2.38
875.703	1.38
876.44	1.38
877.177	0.38
877.914	1.38
878.651	1.38
879.387	0.38
880.124	2.38
880.86	1.38
881.597	3.38
882.333	1.38
883.069	3.38
883.806	0.38
884.542	0.38
885.278	2.38
886.014	1.38
886.749	3.38
887.485	2.38
888.221	2.38
888.957	2.38
889.692	1.38
890.428	2.38
891.163	-0.62
891.899	4.38
892.634	2.38
893.369	0.38
894.104	2.38
894.839	2.38
895.574	1.38
896.309	-0.62
897.044	0.38
897.779	2.38
898.514	1.38
899.248	2.38
899.983	0.38
900.717	1.38
901.452	2.38
902.186	1.38
902.92	-0.62
903.654	2.38
904.389	1.38
905.123	2.38
905.857	1.38
906.59	0.38
907.324	1.38
908.058	0.38
908.792	0.38
909.525	2.38
910.259	0.38
910.992	2.38
911.726	1.38
912.459	1.38
913.192	2.38
913.925	1.38
914.658	2.38
915.391	0.38
916.124	0.38
916.857	1.38
917.59	1.38
918.323	2.38
919.055	-0.62
919.788	3.38
920.521	1.38
921.253	0.38
921.985	1.38
922.718	1.38
923.45	2.38
924.182	0.38
924.914	2.38
925.646	0.38
926.378	-0.62
927.11	0.38
927.841	-2.62
928.573	0.38
929.305	0.38
930.036	-0.62
930.768	1.38
931.499	3.38
932.23	0.38
932.962	-0.62
933.693	2.38
934.424	1.38
935.155	0.38
935.886	1.38
936.617	0.38
937.348	0.38
938.078	1.38
938.809	0.38
939.54	2.38
940.27	1.38
941.001	0.38
941.731	1.38
942.461	-0.62
943.191	0.38
943.922	1.38
944.652	1.38
945.382	-0.62
946.112	0.38
946.841	1.38
947.571	2.38
948.301	1.38
949.031	2.38
949.76	-1.62
950.49	2.38
951.219	1.38
951.948	1.38
952.678	1.38
953.407	0.38
954.136	0.38
954.865	0.38
955.594	1.38
956.323	2.38
957.052	1.38
957.78	-0.62
958.509	2.38
959.238	4.38
959.966	1.38
960.695	0.38
961.423	1.38
962.151	1.38
962.88	2.38
963.608	2.38
964.336	2.38
965.064	2.38
965.792	1.38
966.52	-0.62
967.247	-1.62
967.975	1.38
968.703	1.38
969.43	2.38
970.158	1.38
970.885	-1.62
971.613	1.38
972.34	0.38
973.067	1.38
973.794	-0.62
974.521	-0.62
975.248	0.38
975.975	0.38
976.702	1.38
977.429	1.38
978.156	0.38
978.882	1.38
979.609	3.38
980.335	1.38
981.062	0.38
981.788	0.38
982.514	0.38
983.24	-1.62
983.967	2.38
984.693	0.38
985.419	0.38
986.144	1.38
986.87	2.38
987.596	0.38
988.322	1.38
989.047	0.38
989.773	0.38
990.498	1.38
991.224	1.38
991.949	0.38
992.674	1.38
993.399	-1.62
994.124	0.38
994.849	-0.62
995.574	1.38
996.299	0.38
997.024	2.38
997.749	1.38
998.473	1.38
999.198	0.38
999.922	2.38
1000.647	0.38
1001.371	4.38
1002.095	0.38
1002.82	-1.62
1003.544	-2.62
1004.268	2.38
1004.992	2.38
1005.716	1.38
1006.439	-0.62
1007.163	2.38
1007.887	3.38
1008.611	1.38
1009.334	-0.62
1010.058	-0.62
1010.781	0.38
1011.504	2.38
1012.228	1.38
1012.951	0.38
1013.674	0.38
1014.397	-1.62
1015.12	0.38
