节点500_285_QEPB04081__330__15-01-02-708.txt的数据

Date: Wed Nov 12 15:01:02 CST 2025
User: PC
Spectrometer: QEPB0408
触发模式: 0
积分时间 (秒): 1.000000E-2
Scans to average: 1
启用暗噪声校正: true
启用非线性校正: false
滑动平均宽度: 0
X轴模式: Wavelengths
Number of Pixels in Spectrum: 1044
>>>>>Begin Spectral Data<<<<<
220.843	2.12
221.644	1.12
222.444	1.12
223.244	1.12
224.045	1.12
224.845	-0.88
225.645	0.12
226.445	0.12
227.245	4.12
228.045	1.12
228.845	1.12
229.645	3.12
230.444	-0.88
231.244	3.12
232.043	5.12
232.843	2.12
233.642	2.12
234.442	2.12
235.241	4.12
236.04	3.12
236.839	0.12
237.638	4.12
238.437	4.12
239.236	1.12
240.035	3.12
240.833	2.12
241.632	3.12
242.43	4.12
243.229	3.12
244.027	4.12
244.826	3.12
245.624	4.12
246.422	7.12
247.22	3.12
248.018	6.12
248.816	6.12
249.614	6.12
250.412	5.12
251.21	3.12
252.007	6.12
252.805	5.12
253.602	8.12
254.4	6.12
255.197	6.12
255.994	7.12
256.791	7.12
257.589	9.12
258.386	9.12
259.183	8.12
259.979	9.12
260.776	9.12
261.573	10.12
262.37	14.12
263.166	12.12
263.963	13.12
264.759	10.12
265.556	13.12
266.352	11.12
267.148	14.12
267.944	12.12
268.74	15.12
269.536	13.12
270.332	16.12
271.128	13.12
271.924	15.12
272.719	16.12
273.515	19.12
274.311	16.12
275.106	15.12
275.901	14.12
276.697	17.12
277.492	15.12
278.287	19.12
279.082	18.12
279.877	19.12
280.672	19.12
281.467	14.12
282.262	18.12
283.056	19.12
283.851	19.12
284.646	18.12
285.44	19.12
286.234	17.12
287.029	19.12
287.823	17.12
288.617	16.12
289.411	17.12
290.205	17.12
290.999	17.12
291.793	19.12
292.587	17.12
293.381	16.12
294.174	16.12
294.968	15.12
295.761	15.12
296.555	14.12
297.348	17.12
298.141	13.12
298.935	16.12
299.728	15.12
300.521	12.12
301.314	15.12
302.107	16.12
302.899	13.12
303.692	11.12
304.485	12.12
305.277	13.12
306.07	11.12
306.862	12.12
307.655	11.12
308.447	12.12
309.239	10.12
310.031	12.12
310.823	10.12
311.615	8.12
312.407	9.12
313.199	9.12
313.991	9.12
314.783	5.12
315.574	7.12
316.366	7.12
317.157	9.12
317.949	8.12
318.74	8.12
319.531	7.12
320.322	6.12
321.113	8.12
321.904	7.12
322.695	7.12
323.486	7.12
324.277	5.12
325.068	7.12
325.858	6.12
326.649	7.12
327.439	6.12
328.23	6.12
329.02	8.12
329.81	5.12
330.6	7.12
331.391	5.12
332.181	6.12
332.971	8.12
333.76	6.12
334.55	8.12
335.34	8.12
336.13	5.12
336.919	5.12
337.709	6.12
338.498	5.12
339.287	5.12
340.077	6.12
340.866	7.12
341.655	7.12
342.444	6.12
343.233	7.12
344.022	6.12
344.811	8.12
345.6	6.12
346.388	5.12
347.177	6.12
347.965	7.12
348.754	6.12
349.542	4.12
350.33	5.12
351.119	4.12
351.907	6.12
352.695	4.12
353.483	4.12
354.271	5.12
355.059	4.12
355.846	7.12
356.634	4.12
357.422	6.12
358.209	5.12
358.997	7.12
359.784	6.12
360.571	4.12
361.359	6.12
362.146	5.12
362.933	6.12
363.72	4.12
364.507	5.12
365.294	7.12
366.081	6.12
366.867	3.12
367.654	3.12
368.44	4.12
369.227	4.12
370.013	1.12
370.8	6.12
371.586	6.12
372.372	6.12
373.158	5.12
373.944	6.12
374.73	4.12
375.516	3.12
376.302	5.12
377.088	6.12
377.873	2.12
378.659	7.12
379.445	5.12
380.23	3.12
381.015	3.12
381.801	6.12
382.586	6.12
383.371	6.12
384.156	5.12
384.941	6.12
385.726	9.12
386.511	5.12
387.296	6.12
388.08	7.12
388.865	6.12
389.649	5.12
390.434	6.12
391.218	6.12
392.003	5.12
392.787	6.12
393.571	4.12
394.355	4.12
395.139	5.12
395.923	6.12
396.707	7.12
397.491	6.12
398.274	3.12
399.058	6.12
399.842	6.12
400.625	8.12
401.408	6.12
402.192	7.12
402.975	7.12
403.758	6.12
404.541	6.12
405.324	5.12
406.107	8.12
406.89	7.12
407.673	8.12
408.456	6.12
409.238	7.12
410.021	6.12
410.803	9.12
411.586	8.12
412.368	9.12
413.151	9.12
413.933	11.12
414.715	10.12
415.497	8.12
416.279	10.12
417.061	8.12
417.843	6.12
418.624	10.12
419.406	7.12
420.188	9.12
420.969	10.12
421.751	10.12
422.532	9.12
423.313	13.12
424.095	11.12
424.876	10.12
425.657	11.12
426.438	11.12
427.219	10.12
428	11.12
428.78	13.12
429.561	11.12
430.342	13.12
431.122	15.12
431.903	15.12
432.683	14.12
433.464	16.12
434.244	15.12
435.024	16.12
435.804	17.12
436.584	15.12
437.364	16.12
438.144	18.12
438.924	19.12
439.704	22.12
440.483	22.12
441.263	23.12
442.042	25.12
442.822	25.12
443.601	29.12
444.38	28.12
445.16	30.12
445.939	33.12
446.718	38.12
447.497	38.12
448.276	44.12
449.054	41.12
449.833	50.12
450.612	52.12
451.391	57.12
452.169	61.12
452.948	69.12
453.726	75.12
454.504	84.12
455.282	88.12
456.061	102.12
456.839	109.12
457.617	118.12
458.395	136.12
459.172	152.12
459.95	167.12
460.728	184.12
461.506	203.12
462.283	230.12
463.061	262.12
463.838	293.12
464.615	318.12
465.393	366.12
466.17	395.12
466.947	433.12
467.724	491.12
468.501	555.12
469.278	617.12
470.055	692.12
470.831	763.12
471.608	852.12
472.385	930.12
473.161	1049.12
473.938	1178.12
474.714	1288.12
475.49	1430.12
476.266	1587.12
477.043	1726.12
477.819	1937.12
478.595	2128.12
479.371	2335.12
480.146	2601.12
480.922	2853.12
481.698	3130.12
482.473	3463.12
483.249	3804.12
484.024	4205.12
484.8	4589.12
485.575	5122.12
486.35	5596.12
487.126	6139.12
487.901	6755.12
488.676	7386.12
489.451	8074.12
490.225	8844.12
491	9642.12
491.775	10525.12
492.55	11541.12
493.324	12441.12
494.099	13442.12
494.873	14454.12
495.647	15637.12
496.422	16832.12
497.196	17970.12
497.97	19141.12
498.744	20384.12
499.518	21507.12
500.292	22698.12
501.066	23818.12
501.839	24721.12
502.613	25563.12
503.387	26352.12
504.16	26987.12
504.934	27312.12
505.707	27522.12
506.48	27556.12
507.253	27455.12
508.027	27201.12
508.8	26849.12
509.573	26417.12
510.346	25822.12
511.118	25025.12
511.891	24233.12
512.664	23449.12
513.437	22496.12
514.209	21587.12
514.982	20671.12
515.754	19748.12
516.526	18870.12
517.298	18053.12
518.071	17244.12
518.843	16583.12
519.615	15966.12
520.387	15353.12
521.159	14757.12
521.93	14157.12
522.702	13528.12
523.474	13015.12
524.245	12461.12
525.017	11902.12
525.788	11444.12
526.56	10932.12
527.331	10409.12
528.102	9976.12
528.873	9480.12
529.644	9008.12
530.415	8584.12
531.186	8140.12
531.957	7728.12
532.728	7366.12
533.498	6925.12
534.269	6545.12
535.039	6201.12
535.81	5861.12
536.58	5522.12
537.351	5180.12
538.121	4917.12
538.891	4666.12
539.661	4407.12
540.431	4159.12
541.201	3926.12
541.971	3721.12
542.741	3543.12
543.51	3354.12
544.28	3179.12
545.05	3067.12
545.819	2885.12
546.588	2731.12
547.358	2601.12
548.127	2487.12
548.896	2350.12
549.665	2240.12
550.434	2100.12
551.203	2000.12
551.972	1891.12
552.741	1781.12
553.51	1688.12
554.278	1617.12
555.047	1500.12
555.815	1410.12
556.584	1342.12
557.352	1270.12
558.121	1188.12
558.889	1135.12
559.657	1069.12
560.425	1015.12
561.193	946.12
561.961	893.12
562.729	847.12
563.496	801.12
564.264	749.12
565.032	713.12
565.799	688.12
566.567	642.12
567.334	599.12
568.101	576.12
568.869	541.12
569.636	508.12
570.403	479.12
571.17	445.12
571.937	424.12
572.704	406.12
573.471	378.12
574.237	360.12
575.004	340.12
575.771	317.12
576.537	302.12
577.303	283.12
578.07	269.12
578.836	252.12
579.602	236.12
580.368	224.12
581.134	214.12
581.9	200.12
582.666	186.12
583.432	176.12
584.198	169.12
584.964	160.12
585.729	151.12
586.495	145.12
587.26	137.12
588.025	131.12
588.791	123.12
589.556	114.12
590.321	108.12
591.086	103.12
591.851	97.12
592.616	95.12
593.381	91.12
594.146	83.12
594.911	80.12
595.675	78.12
596.44	70.12
597.204	72.12
597.969	68.12
598.733	63.12
599.497	62.12
600.261	63.12
601.025	56.12
601.79	50.12
602.553	50.12
603.317	49.12
604.081	47.12
604.845	45.12
605.609	41.12
606.372	43.12
607.136	41.12
607.899	38.12
608.662	39.12
609.426	33.12
610.189	33.12
610.952	33.12
611.715	31.12
612.478	29.12
613.241	28.12
614.004	26.12
614.767	27.12
615.529	26.12
616.292	25.12
617.055	22.12
617.817	22.12
618.579	22.12
619.342	22.12
620.104	22.12
620.866	20.12
621.628	22.12
622.39	19.12
623.152	17.12
623.914	17.12
624.676	15.12
625.438	17.12
626.199	13.12
626.961	15.12
627.722	15.12
628.484	16.12
629.245	13.12
630.006	14.12
630.768	13.12
631.529	13.12
632.29	10.12
633.051	13.12
633.812	10.12
634.573	11.12
635.333	11.12
636.094	10.12
636.855	9.12
637.615	11.12
638.376	11.12
639.136	8.12
639.896	10.12
640.657	9.12
641.417	8.12
642.177	9.12
642.937	9.12
643.697	8.12
644.457	7.12
645.216	7.12
645.976	7.12
646.736	9.12
647.495	5.12
648.255	8.12
649.014	6.12
649.774	6.12
650.533	7.12
651.292	9.12
652.051	6.12
652.81	8.12
653.569	6.12
654.328	7.12
655.087	5.12
655.846	5.12
656.604	7.12
657.363	3.12
658.121	7.12
658.88	5.12
659.638	6.12
660.397	5.12
661.155	4.12
661.913	7.12
662.671	6.12
663.429	4.12
664.187	4.12
664.945	4.12
665.703	4.12
666.46	4.12
667.218	6.12
667.976	4.12
668.733	6.12
669.49	3.12
670.248	6.12
671.005	6.12
671.762	3.12
672.519	5.12
673.276	4.12
674.033	5.12
674.79	5.12
675.547	4.12
676.304	5.12
677.06	2.12
677.817	5.12
678.574	3.12
679.33	2.12
680.086	3.12
680.843	3.12
681.599	4.12
682.355	4.12
683.111	5.12
683.867	4.12
684.623	3.12
685.379	4.12
686.135	2.12
686.89	5.12
687.646	3.12
688.402	3.12
689.157	3.12
689.912	1.12
690.668	5.12
691.423	5.12
692.178	2.12
692.933	3.12
693.688	4.12
694.443	3.12
695.198	3.12
695.953	4.12
696.708	3.12
697.462	2.12
698.217	2.12
698.972	2.12
699.726	4.12
700.48	5.12
701.235	1.12
701.989	1.12
702.743	2.12
703.497	0.12
704.251	2.12
705.005	3.12
705.759	5.12
706.513	5.12
707.266	4.12
708.02	2.12
708.774	3.12
709.527	1.12
710.28	3.12
711.034	3.12
711.787	1.12
712.54	4.12
713.293	2.12
714.046	3.12
714.799	3.12
715.552	1.12
716.305	3.12
717.058	2.12
717.81	4.12
718.563	4.12
719.315	4.12
720.068	4.12
720.82	3.12
721.573	3.12
722.325	3.12
723.077	1.12
723.829	4.12
724.581	4.12
725.333	2.12
726.085	4.12
726.836	4.12
727.588	3.12
728.34	4.12
729.091	3.12
729.843	3.12
730.594	3.12
731.346	2.12
732.097	4.12
732.848	2.12
733.599	4.12
734.35	5.12
735.101	2.12
735.852	3.12
736.603	3.12
737.354	5.12
738.104	4.12
738.855	4.12
739.605	5.12
740.356	6.12
741.106	5.12
741.856	3.12
742.607	4.12
743.357	4.12
744.107	4.12
744.857	6.12
745.607	5.12
746.357	2.12
747.106	4.12
747.856	3.12
748.606	2.12
749.355	4.12
750.105	3.12
750.854	3.12
751.603	7.12
752.353	5.12
753.102	5.12
753.851	5.12
754.6	5.12
755.349	6.12
756.098	4.12
756.847	6.12
757.595	6.12
758.344	5.12
759.093	6.12
759.841	4.12
760.589	6.12
761.338	6.12
762.086	5.12
762.834	6.12
763.582	6.12
764.331	7.12
765.079	7.12
765.826	8.12
766.574	7.12
767.322	7.12
768.07	7.12
768.817	6.12
769.565	7.12
770.312	7.12
771.06	7.12
771.807	7.12
772.554	8.12
773.302	6.12
774.049	7.12
774.796	9.12
775.543	6.12
776.29	8.12
777.036	6.12
777.783	7.12
778.53	9.12
779.276	9.12
780.023	8.12
780.769	8.12
781.516	8.12
782.262	7.12
783.008	7.12
783.754	8.12
784.5	7.12
785.246	8.12
785.992	9.12
786.738	9.12
787.484	8.12
788.23	8.12
788.975	7.12
789.721	7.12
790.466	7.12
791.212	7.12
791.957	9.12
792.702	9.12
793.447	6.12
794.193	7.12
794.938	7.12
795.683	10.12
796.427	10.12
797.172	7.12
797.917	7.12
798.662	7.12
799.406	9.12
800.151	7.12
800.895	8.12
801.64	9.12
802.384	6.12
803.128	7.12
803.872	5.12
804.616	5.12
805.36	6.12
806.104	5.12
806.848	7.12
807.592	5.12
808.336	4.12
809.079	8.12
809.823	5.12
810.566	6.12
811.31	5.12
812.053	8.12
812.796	6.12
813.539	5.12
814.283	7.12
815.026	5.12
815.769	6.12
816.511	2.12
817.254	7.12
817.997	4.12
818.74	5.12
819.482	4.12
820.225	6.12
820.967	3.12
821.71	3.12
822.452	5.12
823.194	3.12
823.936	5.12
824.678	4.12
825.42	1.12
826.162	4.12
826.904	4.12
827.646	5.12
828.388	4.12
829.129	3.12
829.871	3.12
830.612	4.12
831.354	4.12
832.095	3.12
832.836	2.12
833.577	2.12
834.319	2.12
835.06	3.12
835.801	2.12
836.542	2.12
837.282	3.12
838.023	2.12
838.764	4.12
839.504	3.12
840.245	3.12
840.985	4.12
841.726	3.12
842.466	2.12
843.206	4.12
843.946	0.12
844.687	2.12
845.427	1.12
846.166	3.12
846.906	3.12
847.646	3.12
848.386	3.12
849.125	3.12
849.865	1.12
850.605	2.12
851.344	2.12
852.083	3.12
852.823	3.12
853.562	3.12
854.301	2.12
855.04	0.12
855.779	1.12
856.518	2.12
857.257	2.12
857.995	2.12
858.734	1.12
859.473	2.12
860.211	1.12
860.95	1.12
861.688	3.12
862.426	2.12
863.165	2.12
863.903	0.12
864.641	4.12
865.379	3.12
866.117	0.12
866.855	0.12
867.593	3.12
868.33	1.12
869.068	2.12
869.806	1.12
870.543	2.12
871.28	2.12
872.018	1.12
872.755	1.12
873.492	1.12
874.229	1.12
874.967	2.12
875.703	-0.88
876.44	3.12
877.177	1.12
877.914	0.12
878.651	2.12
879.387	1.12
880.124	2.12
880.86	0.12
881.597	-0.88
882.333	2.12
883.069	0.12
883.806	1.12
884.542	1.12
885.278	1.12
886.014	0.12
886.749	-0.88
887.485	1.12
888.221	0.12
888.957	1.12
889.692	1.12
890.428	1.12
891.163	-0.88
891.899	-0.88
892.634	1.12
893.369	1.12
894.104	1.12
894.839	0.12
895.574	1.12
896.309	-0.88
897.044	0.12
897.779	0.12
898.514	2.12
899.248	-0.88
899.983	1.12
900.717	0.12
901.452	3.12
902.186	0.12
902.92	-0.88
903.654	0.12
904.389	3.12
905.123	0.12
905.857	-1.88
906.59	-0.88
907.324	1.12
908.058	2.12
908.792	2.12
909.525	-2.88
910.259	-0.88
910.992	0.12
911.726	0.12
912.459	2.12
913.192	-0.88
913.925	2.12
914.658	-0.88
915.391	-0.88
916.124	0.12
916.857	1.12
917.59	-0.88
918.323	-0.88
919.055	1.12
919.788	1.12
920.521	0.12
921.253	-0.88
921.985	0.12
922.718	2.12
923.45	1.12
924.182	-0.88
924.914	-0.88
925.646	-0.88
926.378	0.12
927.11	1.12
927.841	0.12
928.573	0.12
929.305	-0.88
930.036	1.12
930.768	0.12
931.499	-0.88
932.23	0.12
932.962	1.12
933.693	1.12
934.424	-1.88
935.155	-0.88
935.886	0.12
936.617	0.12
937.348	1.12
938.078	-0.88
938.809	-0.88
939.54	1.12
940.27	2.12
941.001	1.12
941.731	1.12
942.461	-1.88
943.191	1.12
943.922	-0.88
944.652	2.12
945.382	-0.88
946.112	1.12
946.841	0.12
947.571	-0.88
948.301	0.12
949.031	-1.88
949.76	0.12
950.49	1.12
951.219	-0.88
951.948	0.12
952.678	0.12
953.407	1.12
954.136	1.12
954.865	-0.88
955.594	0.12
956.323	1.12
957.052	1.12
957.78	0.12
958.509	-0.88
959.238	-0.88
959.966	-0.88
960.695	-0.88
961.423	-1.88
962.151	-1.88
962.88	-0.88
963.608	0.12
964.336	1.12
965.064	-1.88
965.792	-1.88
966.52	1.12
967.247	0.12
967.975	-0.88
968.703	-2.88
969.43	-1.88
970.158	-0.88
970.885	-0.88
971.613	1.12
972.34	1.12
973.067	0.12
973.794	-0.88
974.521	1.12
975.248	-0.88
975.975	0.12
976.702	-0.88
977.429	1.12
978.156	-0.88
978.882	1.12
979.609	0.12
980.335	-0.88
981.062	-1.88
981.788	-2.88
982.514	-0.88
983.24	1.12
983.967	-1.88
984.693	-0.88
985.419	-0.88
986.144	-0.88
986.87	1.12
987.596	-1.88
988.322	-0.88
989.047	0.12
989.773	0.12
990.498	-1.88
991.224	0.12
991.949	-1.88
992.674	-1.88
993.399	1.12
994.124	-1.88
994.849	-1.88
995.574	0.12
996.299	-1.88
997.024	0.12
997.749	-2.88
998.473	1.12
999.198	-0.88
999.922	-0.88
1000.647	1.12
1001.371	5.12
1002.095	-0.88
1002.82	0.12
1003.544	-2.88
1004.268	3.12
1004.992	1.12
1005.716	0.12
1006.439	0.12
1007.163	2.12
1007.887	4.12
1008.611	-0.88
1009.334	-1.88
1010.058	-1.88
1010.781	-0.88
1011.504	-0.88
1012.228	0.12
1012.951	-0.88
1013.674	1.12
1014.397	0.12
1015.12	-1.88
