节点500_285_QEPB04081__675__15-06-46-965.txt的数据

Date: Wed Nov 12 15:06:46 CST 2025
User: PC
Spectrometer: QEPB0408
触发模式: 0
积分时间 (秒): 1.000000E-2
Scans to average: 1
启用暗噪声校正: true
启用非线性校正: false
滑动平均宽度: 0
X轴模式: Wavelengths
Number of Pixels in Spectrum: 1044
>>>>>Begin Spectral Data<<<<<
220.843	3.75
221.644	1.75
222.444	-0.25
223.244	1.75
224.045	1.75
224.845	0.75
225.645	2.75
226.445	3.75
227.245	1.75
228.045	-0.25
228.845	1.75
229.645	3.75
230.444	1.75
231.244	2.75
232.043	1.75
232.843	1.75
233.642	4.75
234.442	1.75
235.241	3.75
236.04	4.75
236.839	3.75
237.638	3.75
238.437	3.75
239.236	5.75
240.035	1.75
240.833	2.75
241.632	5.75
242.43	3.75
243.229	4.75
244.027	5.75
244.826	4.75
245.624	4.75
246.422	3.75
247.22	4.75
248.018	5.75
248.816	5.75
249.614	5.75
250.412	5.75
251.21	5.75
252.007	4.75
252.805	6.75
253.602	6.75
254.4	4.75
255.197	7.75
255.994	8.75
256.791	6.75
257.589	7.75
258.386	9.75
259.183	7.75
259.979	7.75
260.776	9.75
261.573	6.75
262.37	6.75
263.166	10.75
263.963	10.75
264.759	9.75
265.556	11.75
266.352	12.75
267.148	9.75
267.944	10.75
268.74	9.75
269.536	10.75
270.332	16.75
271.128	14.75
271.924	10.75
272.719	12.75
273.515	13.75
274.311	13.75
275.106	14.75
275.901	15.75
276.697	13.75
277.492	15.75
278.287	14.75
279.082	19.75
279.877	12.75
280.672	15.75
281.467	15.75
282.262	18.75
283.056	17.75
283.851	14.75
284.646	15.75
285.44	17.75
286.234	17.75
287.029	16.75
287.823	15.75
288.617	17.75
289.411	14.75
290.205	15.75
290.999	16.75
291.793	15.75
292.587	13.75
293.381	15.75
294.174	17.75
294.968	16.75
295.761	15.75
296.555	15.75
297.348	13.75
298.141	14.75
298.935	15.75
299.728	15.75
300.521	14.75
301.314	14.75
302.107	13.75
302.899	13.75
303.692	12.75
304.485	10.75
305.277	12.75
306.07	10.75
306.862	13.75
307.655	11.75
308.447	10.75
309.239	10.75
310.031	10.75
310.823	11.75
311.615	9.75
312.407	10.75
313.199	10.75
313.991	7.75
314.783	9.75
315.574	7.75
316.366	8.75
317.157	9.75
317.949	6.75
318.74	5.75
319.531	10.75
320.322	6.75
321.113	3.75
321.904	6.75
322.695	8.75
323.486	7.75
324.277	8.75
325.068	3.75
325.858	8.75
326.649	5.75
327.439	6.75
328.23	7.75
329.02	6.75
329.81	8.75
330.6	5.75
331.391	5.75
332.181	5.75
332.971	6.75
333.76	3.75
334.55	3.75
335.34	6.75
336.13	5.75
336.919	9.75
337.709	1.75
338.498	7.75
339.287	5.75
340.077	3.75
340.866	7.75
341.655	5.75
342.444	5.75
343.233	5.75
344.022	5.75
344.811	5.75
345.6	6.75
346.388	6.75
347.177	2.75
347.965	5.75
348.754	6.75
349.542	5.75
350.33	3.75
351.119	5.75
351.907	6.75
352.695	7.75
353.483	6.75
354.271	5.75
355.059	4.75
355.846	4.75
356.634	3.75
357.422	5.75
358.209	7.75
358.997	6.75
359.784	5.75
360.571	4.75
361.359	3.75
362.146	4.75
362.933	5.75
363.72	4.75
364.507	4.75
365.294	6.75
366.081	3.75
366.867	4.75
367.654	4.75
368.44	5.75
369.227	4.75
370.013	3.75
370.8	3.75
371.586	3.75
372.372	3.75
373.158	2.75
373.944	2.75
374.73	4.75
375.516	2.75
376.302	3.75
377.088	5.75
377.873	3.75
378.659	2.75
379.445	3.75
380.23	4.75
381.015	5.75
381.801	3.75
382.586	6.75
383.371	4.75
384.156	5.75
384.941	5.75
385.726	4.75
386.511	3.75
387.296	6.75
388.08	1.75
388.865	3.75
389.649	4.75
390.434	5.75
391.218	5.75
392.003	5.75
392.787	7.75
393.571	4.75
394.355	5.75
395.139	7.75
395.923	2.75
396.707	7.75
397.491	4.75
398.274	7.75
399.058	8.75
399.842	9.75
400.625	6.75
401.408	3.75
402.192	5.75
402.975	5.75
403.758	4.75
404.541	7.75
405.324	6.75
406.107	6.75
406.89	7.75
407.673	4.75
408.456	7.75
409.238	7.75
410.021	4.75
410.803	8.75
411.586	9.75
412.368	8.75
413.151	10.75
413.933	9.75
414.715	7.75
415.497	9.75
416.279	6.75
417.061	10.75
417.843	7.75
418.624	9.75
419.406	8.75
420.188	7.75
420.969	7.75
421.751	9.75
422.532	11.75
423.313	9.75
424.095	8.75
424.876	8.75
425.657	9.75
426.438	9.75
427.219	11.75
428	11.75
428.78	11.75
429.561	11.75
430.342	12.75
431.122	13.75
431.903	16.75
432.683	13.75
433.464	16.75
434.244	16.75
435.024	15.75
435.804	16.75
436.584	16.75
437.364	18.75
438.144	17.75
438.924	22.75
439.704	19.75
440.483	20.75
441.263	21.75
442.042	23.75
442.822	24.75
443.601	28.75
444.38	30.75
445.16	32.75
445.939	36.75
446.718	35.75
447.497	40.75
448.276	45.75
449.054	48.75
449.833	51.75
450.612	58.75
451.391	57.75
452.169	67.75
452.948	72.75
453.726	80.75
454.504	88.75
455.282	96.75
456.061	108.75
456.839	125.75
457.617	132.75
458.395	147.75
459.172	162.75
459.95	189.75
460.728	202.75
461.506	233.75
462.283	250.75
463.061	280.75
463.838	309.75
464.615	346.75
465.393	392.75
466.17	430.75
466.947	478.75
467.724	541.75
468.501	585.75
469.278	660.75
470.055	725.75
470.831	803.75
471.608	897.75
472.385	982.75
473.161	1080.75
473.938	1191.75
474.714	1334.75
475.49	1469.75
476.266	1606.75
477.043	1769.75
477.819	1950.75
478.595	2118.75
479.371	2316.75
480.146	2546.75
480.922	2796.75
481.698	3087.75
482.473	3372.75
483.249	3697.75
484.024	4017.75
484.8	4415.75
485.575	4828.75
486.35	5264.75
487.126	5726.75
487.901	6188.75
488.676	6819.75
489.451	7410.75
490.225	8052.75
491	8759.75
491.775	9550.75
492.55	10345.75
493.324	11202.75
494.099	12034.75
494.873	12908.75
495.647	13857.75
496.422	14885.75
497.196	15935.75
497.97	17018.75
498.744	18076.75
499.518	19145.75
500.292	20223.75
501.066	21264.75
501.839	22165.75
502.613	23070.75
503.387	23916.75
504.16	24558.75
504.934	25056.75
505.707	25402.75
506.48	25517.75
507.253	25666.75
508.027	25703.75
508.8	25642.75
509.573	25366.75
510.346	24921.75
511.118	24396.75
511.891	23762.75
512.664	23091.75
513.437	22368.75
514.209	21493.75
514.982	20739.75
515.754	19898.75
516.526	19096.75
517.298	18304.75
518.071	17522.75
518.843	16869.75
519.615	16241.75
520.387	15582.75
521.159	14946.75
521.93	14373.75
522.702	13844.75
523.474	13261.75
524.245	12692.75
525.017	12192.75
525.788	11703.75
526.56	11154.75
527.331	10665.75
528.102	10204.75
528.873	9763.75
529.644	9265.75
530.415	8925.75
531.186	8478.75
531.957	8020.75
532.728	7671.75
533.498	7283.75
534.269	6877.75
535.039	6508.75
535.81	6170.75
536.58	5817.75
537.351	5480.75
538.121	5199.75
538.891	4895.75
539.661	4649.75
540.431	4393.75
541.201	4154.75
541.971	3941.75
542.741	3720.75
543.51	3545.75
544.28	3377.75
545.05	3229.75
545.819	3054.75
546.588	2907.75
547.358	2743.75
548.127	2616.75
548.896	2517.75
549.665	2359.75
550.434	2234.75
551.203	2110.75
551.972	2008.75
552.741	1896.75
553.51	1814.75
554.278	1703.75
555.047	1611.75
555.815	1518.75
556.584	1447.75
557.352	1357.75
558.121	1287.75
558.889	1212.75
559.657	1149.75
560.425	1081.75
561.193	1013.75
561.961	956.75
562.729	898.75
563.496	864.75
564.264	818.75
565.032	771.75
565.799	744.75
566.567	685.75
567.334	646.75
568.101	622.75
568.869	576.75
569.636	544.75
570.403	513.75
571.17	488.75
571.937	462.75
572.704	445.75
573.471	413.75
574.237	379.75
575.004	368.75
575.771	337.75
576.537	322.75
577.303	308.75
578.07	284.75
578.836	268.75
579.602	250.75
580.368	239.75
581.134	224.75
581.9	214.75
582.666	199.75
583.432	195.75
584.198	182.75
584.964	176.75
585.729	166.75
586.495	151.75
587.26	146.75
588.025	138.75
588.791	131.75
589.556	125.75
590.321	115.75
591.086	110.75
591.851	101.75
592.616	99.75
593.381	93.75
594.146	92.75
594.911	85.75
595.675	82.75
596.44	78.75
597.204	77.75
597.969	72.75
598.733	68.75
599.497	67.75
600.261	62.75
601.025	62.75
601.79	53.75
602.553	53.75
603.317	48.75
604.081	51.75
604.845	50.75
605.609	47.75
606.372	42.75
607.136	43.75
607.899	42.75
608.662	38.75
609.426	40.75
610.189	37.75
610.952	32.75
611.715	30.75
612.478	31.75
613.241	29.75
614.004	27.75
614.767	31.75
615.529	27.75
616.292	26.75
617.055	24.75
617.817	24.75
618.579	25.75
619.342	23.75
620.104	24.75
620.866	23.75
621.628	19.75
622.39	16.75
623.152	18.75
623.914	18.75
624.676	16.75
625.438	18.75
626.199	17.75
626.961	14.75
627.722	16.75
628.484	15.75
629.245	15.75
630.006	12.75
630.768	12.75
631.529	15.75
632.29	12.75
633.051	13.75
633.812	13.75
634.573	15.75
635.333	10.75
636.094	13.75
636.855	11.75
637.615	8.75
638.376	9.75
639.136	7.75
639.896	9.75
640.657	8.75
641.417	9.75
642.177	7.75
642.937	8.75
643.697	7.75
644.457	9.75
645.216	6.75
645.976	8.75
646.736	7.75
647.495	6.75
648.255	6.75
649.014	5.75
649.774	6.75
650.533	8.75
651.292	7.75
652.051	4.75
652.81	7.75
653.569	7.75
654.328	8.75
655.087	5.75
655.846	6.75
656.604	6.75
657.363	7.75
658.121	6.75
658.88	6.75
659.638	6.75
660.397	4.75
661.155	3.75
661.913	5.75
662.671	4.75
663.429	6.75
664.187	6.75
664.945	5.75
665.703	5.75
666.46	3.75
667.218	4.75
667.976	2.75
668.733	6.75
669.49	3.75
670.248	4.75
671.005	3.75
671.762	2.75
672.519	5.75
673.276	4.75
674.033	4.75
674.79	5.75
675.547	3.75
676.304	2.75
677.06	2.75
677.817	4.75
678.574	4.75
679.33	4.75
680.086	2.75
680.843	1.75
681.599	1.75
682.355	3.75
683.111	1.75
683.867	2.75
684.623	3.75
685.379	3.75
686.135	1.75
686.89	4.75
687.646	4.75
688.402	5.75
689.157	4.75
689.912	3.75
690.668	3.75
691.423	2.75
692.178	4.75
692.933	0.75
693.688	5.75
694.443	5.75
695.198	6.75
695.953	2.75
696.708	3.75
697.462	3.75
698.217	2.75
698.972	2.75
699.726	3.75
700.48	2.75
701.235	4.75
701.989	1.75
702.743	4.75
703.497	4.75
704.251	3.75
705.005	2.75
705.759	1.75
706.513	4.75
707.266	3.75
708.02	5.75
708.774	2.75
709.527	4.75
710.28	1.75
711.034	0.75
711.787	4.75
712.54	4.75
713.293	1.75
714.046	4.75
714.799	3.75
715.552	1.75
716.305	3.75
717.058	2.75
717.81	2.75
718.563	2.75
719.315	2.75
720.068	2.75
720.82	4.75
721.573	0.75
722.325	1.75
723.077	4.75
723.829	4.75
724.581	4.75
725.333	2.75
726.085	3.75
726.836	1.75
727.588	4.75
728.34	2.75
729.091	2.75
729.843	2.75
730.594	3.75
731.346	0.75
732.097	3.75
732.848	5.75
733.599	3.75
734.35	2.75
735.101	4.75
735.852	3.75
736.603	4.75
737.354	1.75
738.104	3.75
738.855	4.75
739.605	4.75
740.356	2.75
741.106	0.75
741.856	3.75
742.607	4.75
743.357	4.75
744.107	4.75
744.857	5.75
745.607	4.75
746.357	2.75
747.106	3.75
747.856	2.75
748.606	4.75
749.355	4.75
750.105	3.75
750.854	6.75
751.603	3.75
752.353	4.75
753.102	4.75
753.851	4.75
754.6	4.75
755.349	3.75
756.098	6.75
756.847	6.75
757.595	3.75
758.344	5.75
759.093	3.75
759.841	5.75
760.589	4.75
761.338	5.75
762.086	3.75
762.834	5.75
763.582	6.75
764.331	6.75
765.079	6.75
765.826	5.75
766.574	6.75
767.322	4.75
768.07	6.75
768.817	6.75
769.565	5.75
770.312	8.75
771.06	6.75
771.807	5.75
772.554	6.75
773.302	6.75
774.049	4.75
774.796	6.75
775.543	6.75
776.29	6.75
777.036	9.75
777.783	7.75
778.53	7.75
779.276	8.75
780.023	9.75
780.769	5.75
781.516	8.75
782.262	7.75
783.008	7.75
783.754	8.75
784.5	10.75
785.246	5.75
785.992	7.75
786.738	7.75
787.484	8.75
788.23	6.75
788.975	6.75
789.721	9.75
790.466	7.75
791.212	7.75
791.957	6.75
792.702	8.75
793.447	4.75
794.193	8.75
794.938	8.75
795.683	6.75
796.427	10.75
797.172	6.75
797.917	5.75
798.662	8.75
799.406	6.75
800.151	8.75
800.895	8.75
801.64	8.75
802.384	4.75
803.128	6.75
803.872	5.75
804.616	4.75
805.36	6.75
806.104	6.75
806.848	5.75
807.592	6.75
808.336	3.75
809.079	4.75
809.823	6.75
810.566	6.75
811.31	3.75
812.053	4.75
812.796	5.75
813.539	4.75
814.283	5.75
815.026	4.75
815.769	6.75
816.511	6.75
817.254	4.75
817.997	3.75
818.74	3.75
819.482	2.75
820.225	1.75
820.967	6.75
821.71	4.75
822.452	4.75
823.194	6.75
823.936	4.75
824.678	4.75
825.42	4.75
826.162	4.75
826.904	3.75
827.646	6.75
828.388	4.75
829.129	1.75
829.871	3.75
830.612	2.75
831.354	3.75
832.095	0.75
832.836	2.75
833.577	4.75
834.319	3.75
835.06	3.75
835.801	2.75
836.542	2.75
837.282	0.75
838.023	1.75
838.764	2.75
839.504	1.75
840.245	2.75
840.985	3.75
841.726	2.75
842.466	3.75
843.206	3.75
843.946	2.75
844.687	1.75
845.427	3.75
846.166	5.75
846.906	4.75
847.646	2.75
848.386	0.75
849.125	2.75
849.865	0.75
850.605	3.75
851.344	1.75
852.083	1.75
852.823	3.75
853.562	2.75
854.301	2.75
855.04	3.75
855.779	1.75
856.518	4.75
857.257	2.75
857.995	1.75
858.734	2.75
859.473	0.75
860.211	1.75
860.95	2.75
861.688	0.75
862.426	1.75
863.165	1.75
863.903	-0.25
864.641	1.75
865.379	2.75
866.117	0.75
866.855	2.75
867.593	0.75
868.33	1.75
869.068	1.75
869.806	0.75
870.543	0.75
871.28	-0.25
872.018	1.75
872.755	-0.25
873.492	2.75
874.229	-0.25
874.967	1.75
875.703	0.75
876.44	1.75
877.177	1.75
877.914	1.75
878.651	-0.25
879.387	1.75
880.124	1.75
880.86	1.75
881.597	1.75
882.333	1.75
883.069	0.75
883.806	0.75
884.542	-0.25
885.278	0.75
886.014	0.75
886.749	-0.25
887.485	-1.25
888.221	1.75
888.957	0.75
889.692	-0.25
890.428	0.75
891.163	-0.25
891.899	0.75
892.634	0.75
893.369	-0.25
894.104	-0.25
894.839	1.75
895.574	1.75
896.309	0.75
897.044	3.75
897.779	1.75
898.514	0.75
899.248	1.75
899.983	-0.25
900.717	-0.25
901.452	2.75
902.186	0.75
902.92	1.75
903.654	1.75
904.389	-1.25
905.123	0.75
905.857	0.75
906.59	1.75
907.324	0.75
908.058	-0.25
908.792	1.75
909.525	-0.25
910.259	0.75
910.992	-2.25
911.726	-0.25
912.459	-0.25
913.192	-1.25
913.925	-0.25
914.658	0.75
915.391	0.75
916.124	-0.25
916.857	1.75
917.59	-0.25
918.323	0.75
919.055	0.75
919.788	0.75
920.521	1.75
921.253	-2.25
921.985	-0.25
922.718	-0.25
923.45	1.75
924.182	0.75
924.914	-1.25
925.646	-0.25
926.378	-0.25
927.11	-1.25
927.841	0.75
928.573	0.75
929.305	-2.25
930.036	-0.25
930.768	-0.25
931.499	0.75
932.23	-0.25
932.962	0.75
933.693	-0.25
934.424	-0.25
935.155	-1.25
935.886	-0.25
936.617	-0.25
937.348	-0.25
938.078	-1.25
938.809	-1.25
939.54	0.75
940.27	-0.25
941.001	0.75
941.731	0.75
942.461	-1.25
943.191	-0.25
943.922	-0.25
944.652	-0.25
945.382	-2.25
946.112	-1.25
946.841	-2.25
947.571	1.75
948.301	-1.25
949.031	-0.25
949.76	1.75
950.49	-0.25
951.219	-1.25
951.948	1.75
952.678	0.75
953.407	0.75
954.136	-1.25
954.865	0.75
955.594	1.75
956.323	-1.25
957.052	-0.25
957.78	0.75
958.509	-0.25
959.238	0.75
959.966	-0.25
960.695	1.75
961.423	-2.25
962.151	1.75
962.88	0.75
963.608	-0.25
964.336	-2.25
965.064	0.75
965.792	0.75
966.52	-1.25
967.247	0.75
967.975	-1.25
968.703	-0.25
969.43	-0.25
970.158	-0.25
970.885	-0.25
971.613	1.75
972.34	-2.25
973.067	-1.25
973.794	0.75
974.521	1.75
975.248	1.75
975.975	-1.25
976.702	-0.25
977.429	-0.25
978.156	1.75
978.882	1.75
979.609	0.75
980.335	-0.25
981.062	-0.25
981.788	-0.25
982.514	-0.25
983.24	-2.25
983.967	0.75
984.693	-2.25
985.419	-1.25
986.144	-1.25
986.87	0.75
987.596	0.75
988.322	-1.25
989.047	1.75
989.773	-0.25
990.498	-2.25
991.224	2.75
991.949	0.75
992.674	-1.25
993.399	0.75
994.124	-0.25
994.849	0.75
995.574	-0.25
996.299	0.75
997.024	1.75
997.749	-0.25
998.473	0.75
999.198	-0.25
999.922	0.75
1000.647	-0.25
1001.371	3.75
1002.095	-1.25
1002.82	-1.25
1003.544	0.75
1004.268	1.75
1004.992	1.75
1005.716	0.75
1006.439	-0.25
1007.163	-0.25
1007.887	0.75
1008.611	1.75
1009.334	-0.25
1010.058	-0.25
1010.781	1.75
1011.504	-1.25
1012.228	-0.25
1012.951	-1.25
1013.674	-1.25
1014.397	1.75
1015.12	-1.25
