节点500_285_QEPB04081__736__15-07-47-809.txt的数据

Date: Wed Nov 12 15:07:47 CST 2025
User: PC
Spectrometer: QEPB0408
触发模式: 0
积分时间 (秒): 1.000000E-2
Scans to average: 1
启用暗噪声校正: true
启用非线性校正: false
滑动平均宽度: 0
X轴模式: Wavelengths
Number of Pixels in Spectrum: 1044
>>>>>Begin Spectral Data<<<<<
220.843	2.75
221.644	2.75
222.444	1.75
223.244	1.75
224.045	1.75
224.845	1.75
225.645	2.75
226.445	2.75
227.245	3.75
228.045	2.75
228.845	1.75
229.645	3.75
230.444	2.75
231.244	0.75
232.043	3.75
232.843	1.75
233.642	2.75
234.442	3.75
235.241	3.75
236.04	5.75
236.839	4.75
237.638	4.75
238.437	4.75
239.236	2.75
240.035	2.75
240.833	4.75
241.632	2.75
242.43	1.75
243.229	6.75
244.027	2.75
244.826	2.75
245.624	2.75
246.422	7.75
247.22	3.75
248.018	3.75
248.816	6.75
249.614	4.75
250.412	4.75
251.21	6.75
252.007	2.75
252.805	8.75
253.602	5.75
254.4	3.75
255.197	8.75
255.994	5.75
256.791	6.75
257.589	8.75
258.386	7.75
259.183	7.75
259.979	10.75
260.776	7.75
261.573	8.75
262.37	9.75
263.166	8.75
263.963	9.75
264.759	9.75
265.556	11.75
266.352	9.75
267.148	11.75
267.944	12.75
268.74	9.75
269.536	11.75
270.332	9.75
271.128	10.75
271.924	14.75
272.719	14.75
273.515	14.75
274.311	13.75
275.106	12.75
275.901	13.75
276.697	14.75
277.492	13.75
278.287	13.75
279.082	13.75
279.877	15.75
280.672	17.75
281.467	17.75
282.262	14.75
283.056	15.75
283.851	15.75
284.646	15.75
285.44	15.75
286.234	18.75
287.029	17.75
287.823	16.75
288.617	17.75
289.411	17.75
290.205	16.75
290.999	15.75
291.793	14.75
292.587	15.75
293.381	16.75
294.174	15.75
294.968	14.75
295.761	13.75
296.555	13.75
297.348	11.75
298.141	14.75
298.935	13.75
299.728	16.75
300.521	15.75
301.314	15.75
302.107	12.75
302.899	12.75
303.692	12.75
304.485	13.75
305.277	11.75
306.07	15.75
306.862	10.75
307.655	11.75
308.447	12.75
309.239	11.75
310.031	13.75
310.823	9.75
311.615	9.75
312.407	6.75
313.199	9.75
313.991	8.75
314.783	9.75
315.574	9.75
316.366	9.75
317.157	5.75
317.949	9.75
318.74	6.75
319.531	6.75
320.322	6.75
321.113	3.75
321.904	7.75
322.695	8.75
323.486	5.75
324.277	7.75
325.068	5.75
325.858	5.75
326.649	7.75
327.439	5.75
328.23	4.75
329.02	4.75
329.81	7.75
330.6	5.75
331.391	7.75
332.181	6.75
332.971	5.75
333.76	7.75
334.55	3.75
335.34	6.75
336.13	5.75
336.919	6.75
337.709	4.75
338.498	4.75
339.287	7.75
340.077	5.75
340.866	6.75
341.655	8.75
342.444	4.75
343.233	7.75
344.022	5.75
344.811	6.75
345.6	4.75
346.388	7.75
347.177	5.75
347.965	2.75
348.754	6.75
349.542	5.75
350.33	6.75
351.119	6.75
351.907	4.75
352.695	6.75
353.483	2.75
354.271	4.75
355.059	7.75
355.846	5.75
356.634	6.75
357.422	6.75
358.209	5.75
358.997	4.75
359.784	6.75
360.571	4.75
361.359	3.75
362.146	2.75
362.933	4.75
363.72	5.75
364.507	2.75
365.294	6.75
366.081	2.75
366.867	5.75
367.654	5.75
368.44	4.75
369.227	5.75
370.013	4.75
370.8	8.75
371.586	6.75
372.372	4.75
373.158	5.75
373.944	5.75
374.73	2.75
375.516	4.75
376.302	4.75
377.088	5.75
377.873	5.75
378.659	3.75
379.445	5.75
380.23	6.75
381.015	4.75
381.801	4.75
382.586	2.75
383.371	6.75
384.156	4.75
384.941	5.75
385.726	5.75
386.511	4.75
387.296	7.75
388.08	5.75
388.865	4.75
389.649	6.75
390.434	3.75
391.218	4.75
392.003	4.75
392.787	3.75
393.571	6.75
394.355	6.75
395.139	4.75
395.923	3.75
396.707	8.75
397.491	5.75
398.274	4.75
399.058	8.75
399.842	5.75
400.625	6.75
401.408	6.75
402.192	6.75
402.975	6.75
403.758	7.75
404.541	5.75
405.324	6.75
406.107	6.75
406.89	5.75
407.673	7.75
408.456	7.75
409.238	6.75
410.021	8.75
410.803	9.75
411.586	10.75
412.368	8.75
413.151	8.75
413.933	8.75
414.715	6.75
415.497	6.75
416.279	6.75
417.061	6.75
417.843	7.75
418.624	9.75
419.406	9.75
420.188	8.75
420.969	9.75
421.751	8.75
422.532	9.75
423.313	9.75
424.095	11.75
424.876	12.75
425.657	9.75
426.438	10.75
427.219	10.75
428	9.75
428.78	11.75
429.561	9.75
430.342	11.75
431.122	13.75
431.903	13.75
432.683	14.75
433.464	13.75
434.244	13.75
435.024	16.75
435.804	17.75
436.584	18.75
437.364	20.75
438.144	18.75
438.924	19.75
439.704	18.75
440.483	23.75
441.263	25.75
442.042	26.75
442.822	28.75
443.601	27.75
444.38	27.75
445.16	32.75
445.939	34.75
446.718	37.75
447.497	42.75
448.276	41.75
449.054	43.75
449.833	51.75
450.612	58.75
451.391	60.75
452.169	70.75
452.948	71.75
453.726	81.75
454.504	89.75
455.282	95.75
456.061	112.75
456.839	121.75
457.617	140.75
458.395	151.75
459.172	170.75
459.95	181.75
460.728	205.75
461.506	224.75
462.283	255.75
463.061	284.75
463.838	319.75
464.615	353.75
465.393	400.75
466.17	436.75
466.947	487.75
467.724	541.75
468.501	596.75
469.278	670.75
470.055	739.75
470.831	804.75
471.608	904.75
472.385	996.75
473.161	1092.75
473.938	1192.75
474.714	1339.75
475.49	1470.75
476.266	1615.75
477.043	1780.75
477.819	1943.75
478.595	2117.75
479.371	2312.75
480.146	2540.75
480.922	2797.75
481.698	3077.75
482.473	3318.75
483.249	3639.75
484.024	4006.75
484.8	4361.75
485.575	4765.75
486.35	5160.75
487.126	5654.75
487.901	6150.75
488.676	6691.75
489.451	7337.75
490.225	7949.75
491	8640.75
491.775	9401.75
492.55	10188.75
493.324	10972.75
494.099	11744.75
494.873	12638.75
495.647	13546.75
496.422	14561.75
497.196	15576.75
497.97	16640.75
498.744	17740.75
499.518	18689.75
500.292	19754.75
501.066	20797.75
501.839	21655.75
502.613	22581.75
503.387	23471.75
504.16	24133.75
504.934	24590.75
505.707	24947.75
506.48	25215.75
507.253	25300.75
508.027	25307.75
508.8	25240.75
509.573	25152.75
510.346	24719.75
511.118	24236.75
511.891	23645.75
512.664	22964.75
513.437	22251.75
514.209	21481.75
514.982	20754.75
515.754	19918.75
516.526	19075.75
517.298	18280.75
518.071	17508.75
518.843	16916.75
519.615	16305.75
520.387	15649.75
521.159	15008.75
521.93	14420.75
522.702	13867.75
523.474	13304.75
524.245	12743.75
525.017	12213.75
525.788	11777.75
526.56	11215.75
527.331	10689.75
528.102	10261.75
528.873	9793.75
529.644	9380.75
530.415	8964.75
531.186	8489.75
531.957	8066.75
532.728	7741.75
533.498	7321.75
534.269	6909.75
535.039	6569.75
535.81	6177.75
536.58	5872.75
537.351	5525.75
538.121	5238.75
538.891	4958.75
539.661	4697.75
540.431	4422.75
541.201	4189.75
541.971	3983.75
542.741	3745.75
543.51	3585.75
544.28	3403.75
545.05	3264.75
545.819	3057.75
546.588	2915.75
547.358	2781.75
548.127	2650.75
548.896	2511.75
549.665	2388.75
550.434	2261.75
551.203	2135.75
551.972	2025.75
552.741	1925.75
553.51	1810.75
554.278	1724.75
555.047	1626.75
555.815	1533.75
556.584	1450.75
557.352	1392.75
558.121	1309.75
558.889	1224.75
559.657	1157.75
560.425	1085.75
561.193	1022.75
561.961	975.75
562.729	923.75
563.496	877.75
564.264	824.75
565.032	786.75
565.799	740.75
566.567	688.75
567.334	659.75
568.101	625.75
568.869	584.75
569.636	546.75
570.403	517.75
571.17	487.75
571.937	463.75
572.704	442.75
573.471	415.75
574.237	382.75
575.004	367.75
575.771	345.75
576.537	320.75
577.303	312.75
578.07	292.75
578.836	268.75
579.602	255.75
580.368	244.75
581.134	234.75
581.9	224.75
582.666	206.75
583.432	192.75
584.198	185.75
584.964	174.75
585.729	168.75
586.495	160.75
587.26	152.75
588.025	143.75
588.791	134.75
589.556	130.75
590.321	117.75
591.086	114.75
591.851	114.75
592.616	103.75
593.381	95.75
594.146	92.75
594.911	85.75
595.675	86.75
596.44	79.75
597.204	75.75
597.969	69.75
598.733	69.75
599.497	66.75
600.261	69.75
601.025	61.75
601.79	56.75
602.553	55.75
603.317	51.75
604.081	50.75
604.845	47.75
605.609	48.75
606.372	42.75
607.136	41.75
607.899	43.75
608.662	40.75
609.426	37.75
610.189	35.75
610.952	34.75
611.715	33.75
612.478	29.75
613.241	33.75
614.004	29.75
614.767	28.75
615.529	27.75
616.292	27.75
617.055	20.75
617.817	21.75
618.579	23.75
619.342	20.75
620.104	21.75
620.866	21.75
621.628	21.75
622.39	19.75
623.152	19.75
623.914	17.75
624.676	15.75
625.438	15.75
626.199	17.75
626.961	16.75
627.722	15.75
628.484	16.75
629.245	14.75
630.006	13.75
630.768	11.75
631.529	12.75
632.29	13.75
633.051	13.75
633.812	10.75
634.573	12.75
635.333	9.75
636.094	11.75
636.855	7.75
637.615	9.75
638.376	13.75
639.136	8.75
639.896	8.75
640.657	11.75
641.417	8.75
642.177	8.75
642.937	9.75
643.697	7.75
644.457	8.75
645.216	6.75
645.976	8.75
646.736	6.75
647.495	7.75
648.255	9.75
649.014	7.75
649.774	3.75
650.533	5.75
651.292	6.75
652.051	5.75
652.81	6.75
653.569	6.75
654.328	3.75
655.087	4.75
655.846	6.75
656.604	8.75
657.363	4.75
658.121	6.75
658.88	2.75
659.638	5.75
660.397	5.75
661.155	6.75
661.913	7.75
662.671	3.75
663.429	3.75
664.187	4.75
664.945	4.75
665.703	3.75
666.46	6.75
667.218	5.75
667.976	5.75
668.733	7.75
669.49	3.75
670.248	6.75
671.005	6.75
671.762	6.75
672.519	5.75
673.276	3.75
674.033	4.75
674.79	5.75
675.547	3.75
676.304	2.75
677.06	3.75
677.817	4.75
678.574	2.75
679.33	4.75
680.086	5.75
680.843	1.75
681.599	4.75
682.355	2.75
683.111	4.75
683.867	4.75
684.623	4.75
685.379	3.75
686.135	3.75
686.89	3.75
687.646	2.75
688.402	2.75
689.157	3.75
689.912	2.75
690.668	4.75
691.423	4.75
692.178	3.75
692.933	2.75
693.688	4.75
694.443	2.75
695.198	2.75
695.953	3.75
696.708	1.75
697.462	2.75
698.217	3.75
698.972	3.75
699.726	0.75
700.48	2.75
701.235	1.75
701.989	2.75
702.743	2.75
703.497	2.75
704.251	4.75
705.005	1.75
705.759	2.75
706.513	2.75
707.266	0.75
708.02	3.75
708.774	2.75
709.527	0.75
710.28	1.75
711.034	3.75
711.787	3.75
712.54	1.75
713.293	5.75
714.046	3.75
714.799	2.75
715.552	1.75
716.305	2.75
717.058	5.75
717.81	2.75
718.563	4.75
719.315	3.75
720.068	2.75
720.82	4.75
721.573	5.75
722.325	4.75
723.077	3.75
723.829	3.75
724.581	1.75
725.333	2.75
726.085	3.75
726.836	3.75
727.588	3.75
728.34	1.75
729.091	2.75
729.843	2.75
730.594	5.75
731.346	4.75
732.097	3.75
732.848	3.75
733.599	2.75
734.35	2.75
735.101	2.75
735.852	3.75
736.603	2.75
737.354	1.75
738.104	3.75
738.855	4.75
739.605	3.75
740.356	0.75
741.106	1.75
741.856	4.75
742.607	4.75
743.357	6.75
744.107	4.75
744.857	5.75
745.607	3.75
746.357	2.75
747.106	4.75
747.856	5.75
748.606	4.75
749.355	3.75
750.105	5.75
750.854	4.75
751.603	2.75
752.353	5.75
753.102	5.75
753.851	5.75
754.6	7.75
755.349	3.75
756.098	3.75
756.847	2.75
757.595	4.75
758.344	6.75
759.093	6.75
759.841	4.75
760.589	5.75
761.338	5.75
762.086	5.75
762.834	6.75
763.582	5.75
764.331	5.75
765.079	4.75
765.826	3.75
766.574	4.75
767.322	6.75
768.07	6.75
768.817	7.75
769.565	5.75
770.312	6.75
771.06	6.75
771.807	4.75
772.554	5.75
773.302	6.75
774.049	5.75
774.796	4.75
775.543	6.75
776.29	7.75
777.036	7.75
777.783	6.75
778.53	5.75
779.276	8.75
780.023	9.75
780.769	5.75
781.516	7.75
782.262	6.75
783.008	7.75
783.754	6.75
784.5	5.75
785.246	8.75
785.992	7.75
786.738	9.75
787.484	7.75
788.23	7.75
788.975	7.75
789.721	8.75
790.466	4.75
791.212	8.75
791.957	6.75
792.702	6.75
793.447	10.75
794.193	6.75
794.938	5.75
795.683	5.75
796.427	8.75
797.172	6.75
797.917	6.75
798.662	6.75
799.406	5.75
800.151	7.75
800.895	5.75
801.64	4.75
802.384	9.75
803.128	5.75
803.872	4.75
804.616	4.75
805.36	6.75
806.104	6.75
806.848	6.75
807.592	4.75
808.336	3.75
809.079	3.75
809.823	1.75
810.566	3.75
811.31	4.75
812.053	5.75
812.796	3.75
813.539	4.75
814.283	5.75
815.026	5.75
815.769	5.75
816.511	2.75
817.254	4.75
817.997	3.75
818.74	2.75
819.482	3.75
820.225	4.75
820.967	4.75
821.71	3.75
822.452	1.75
823.194	5.75
823.936	4.75
824.678	3.75
825.42	3.75
826.162	2.75
826.904	4.75
827.646	1.75
828.388	4.75
829.129	2.75
829.871	3.75
830.612	2.75
831.354	3.75
832.095	1.75
832.836	0.75
833.577	4.75
834.319	2.75
835.06	3.75
835.801	4.75
836.542	4.75
837.282	5.75
838.023	2.75
838.764	3.75
839.504	0.75
840.245	4.75
840.985	3.75
841.726	1.75
842.466	1.75
843.206	1.75
843.946	2.75
844.687	1.75
845.427	1.75
846.166	3.75
846.906	2.75
847.646	3.75
848.386	2.75
849.125	2.75
849.865	3.75
850.605	0.75
851.344	2.75
852.083	-0.25
852.823	3.75
853.562	1.75
854.301	3.75
855.04	2.75
855.779	1.75
856.518	1.75
857.257	-0.25
857.995	1.75
858.734	1.75
859.473	1.75
860.211	1.75
860.95	3.75
861.688	2.75
862.426	-0.25
863.165	2.75
863.903	1.75
864.641	1.75
865.379	0.75
866.117	1.75
866.855	0.75
867.593	1.75
868.33	1.75
869.068	0.75
869.806	-0.25
870.543	3.75
871.28	1.75
872.018	2.75
872.755	1.75
873.492	2.75
874.229	-0.25
874.967	0.75
875.703	1.75
876.44	0.75
877.177	1.75
877.914	1.75
878.651	2.75
879.387	1.75
880.124	-0.25
880.86	2.75
881.597	-0.25
882.333	-0.25
883.069	-0.25
883.806	-2.25
884.542	1.75
885.278	-0.25
886.014	0.75
886.749	1.75
887.485	1.75
888.221	0.75
888.957	1.75
889.692	-0.25
890.428	0.75
891.163	-0.25
891.899	1.75
892.634	0.75
893.369	-0.25
894.104	-0.25
894.839	0.75
895.574	0.75
896.309	0.75
897.044	-0.25
897.779	0.75
898.514	0.75
899.248	0.75
899.983	1.75
900.717	-0.25
901.452	-1.25
902.186	0.75
902.92	-0.25
903.654	0.75
904.389	-2.25
905.123	-0.25
905.857	-2.25
906.59	0.75
907.324	0.75
908.058	0.75
908.792	0.75
909.525	-2.25
910.259	-1.25
910.992	0.75
911.726	0.75
912.459	0.75
913.192	-3.25
913.925	0.75
914.658	0.75
915.391	1.75
916.124	-0.25
916.857	-0.25
917.59	-2.25
918.323	-1.25
919.055	1.75
919.788	0.75
920.521	1.75
921.253	-0.25
921.985	2.75
922.718	0.75
923.45	-0.25
924.182	0.75
924.914	-0.25
925.646	-1.25
926.378	-0.25
927.11	-2.25
927.841	1.75
928.573	-2.25
929.305	1.75
930.036	-0.25
930.768	0.75
931.499	-0.25
932.23	-0.25
932.962	-0.25
933.693	0.75
934.424	0.75
935.155	-3.25
935.886	-1.25
936.617	1.75
937.348	-1.25
938.078	-0.25
938.809	-0.25
939.54	0.75
940.27	-2.25
941.001	-0.25
941.731	0.75
942.461	0.75
943.191	-0.25
943.922	-0.25
944.652	-0.25
945.382	1.75
946.112	0.75
946.841	0.75
947.571	-1.25
948.301	-1.25
949.031	1.75
949.76	-1.25
950.49	0.75
951.219	-2.25
951.948	0.75
952.678	-2.25
953.407	-1.25
954.136	-0.25
954.865	1.75
955.594	0.75
956.323	-1.25
957.052	1.75
957.78	-1.25
958.509	-1.25
959.238	-2.25
959.966	-0.25
960.695	-0.25
961.423	-0.25
962.151	-1.25
962.88	-1.25
963.608	-1.25
964.336	0.75
965.064	-1.25
965.792	-1.25
966.52	0.75
967.247	-0.25
967.975	-1.25
968.703	-0.25
969.43	1.75
970.158	0.75
970.885	0.75
971.613	-0.25
972.34	0.75
973.067	1.75
973.794	0.75
974.521	-1.25
975.248	-1.25
975.975	-1.25
976.702	-1.25
977.429	0.75
978.156	0.75
978.882	0.75
979.609	-1.25
980.335	-2.25
981.062	-0.25
981.788	-1.25
982.514	-2.25
983.24	0.75
983.967	-2.25
984.693	0.75
985.419	-2.25
986.144	-0.25
986.87	-1.25
987.596	0.75
988.322	-0.25
989.047	0.75
989.773	-0.25
990.498	0.75
991.224	-0.25
991.949	-1.25
992.674	0.75
993.399	-0.25
994.124	-0.25
994.849	0.75
995.574	-1.25
996.299	0.75
997.024	-0.25
997.749	-1.25
998.473	-0.25
999.198	0.75
999.922	-0.25
1000.647	1.75
1001.371	2.75
1002.095	-1.25
1002.82	-3.25
1003.544	-0.25
1004.268	1.75
1004.992	2.75
1005.716	-0.25
1006.439	4.75
1007.163	0.75
1007.887	1.75
1008.611	-0.25
1009.334	0.75
1010.058	-1.25
1010.781	0.75
1011.504	-1.25
1012.228	-0.25
1012.951	0.75
1013.674	1.75
1014.397	-0.25
1015.12	-0.25
