节点500_285_QEPB04081__295__15-00-27-773.txt的数据

Date: Wed Nov 12 15:00:27 CST 2025
User: PC
Spectrometer: QEPB0408
触发模式: 0
积分时间 (秒): 1.000000E-2
Scans to average: 1
启用暗噪声校正: true
启用非线性校正: false
滑动平均宽度: 0
X轴模式: Wavelengths
Number of Pixels in Spectrum: 1044
>>>>>Begin Spectral Data<<<<<
220.843	2
221.644	1
222.444	1
223.244	2
224.045	2
224.845	1
225.645	2
226.445	3
227.245	4
228.045	4
228.845	2
229.645	6
230.444	2
231.244	3
232.043	3
232.843	2
233.642	3
234.442	4
235.241	4
236.04	3
236.839	5
237.638	4
238.437	6
239.236	3
240.035	6
240.833	5
241.632	5
242.43	7
243.229	5
244.027	8
244.826	4
245.624	7
246.422	6
247.22	5
248.018	5
248.816	6
249.614	8
250.412	8
251.21	8
252.007	9
252.805	7
253.602	6
254.4	7
255.197	8
255.994	7
256.791	10
257.589	10
258.386	10
259.183	11
259.979	12
260.776	13
261.573	9
262.37	12
263.166	12
263.963	13
264.759	12
265.556	16
266.352	10
267.148	13
267.944	14
268.74	14
269.536	14
270.332	13
271.128	16
271.924	14
272.719	17
273.515	15
274.311	15
275.106	17
275.901	18
276.697	18
277.492	17
278.287	18
279.082	20
279.877	19
280.672	18
281.467	17
282.262	19
283.056	20
283.851	20
284.646	21
285.44	18
286.234	18
287.029	19
287.823	26
288.617	17
289.411	17
290.205	18
290.999	17
291.793	17
292.587	18
293.381	17
294.174	18
294.968	17
295.761	18
296.555	16
297.348	19
298.141	16
298.935	14
299.728	14
300.521	17
301.314	12
302.107	14
302.899	14
303.692	13
304.485	14
305.277	14
306.07	13
306.862	16
307.655	14
308.447	13
309.239	13
310.031	13
310.823	13
311.615	11
312.407	10
313.199	10
313.991	11
314.783	9
315.574	11
316.366	8
317.157	9
317.949	9
318.74	8
319.531	9
320.322	7
321.113	10
321.904	7
322.695	8
323.486	9
324.277	8
325.068	6
325.858	9
326.649	5
327.439	6
328.23	10
329.02	6
329.81	5
330.6	8
331.391	7
332.181	6
332.971	7
333.76	8
334.55	3
335.34	8
336.13	6
336.919	7
337.709	8
338.498	6
339.287	7
340.077	6
340.866	9
341.655	6
342.444	10
343.233	8
344.022	6
344.811	7
345.6	6
346.388	9
347.177	6
347.965	7
348.754	6
349.542	7
350.33	7
351.119	6
351.907	7
352.695	6
353.483	7
354.271	6
355.059	6
355.846	4
356.634	6
357.422	5
358.209	4
358.997	7
359.784	5
360.571	7
361.359	7
362.146	4
362.933	6
363.72	7
364.507	3
365.294	7
366.081	6
366.867	5
367.654	5
368.44	6
369.227	5
370.013	4
370.8	6
371.586	5
372.372	8
373.158	7
373.944	6
374.73	7
375.516	3
376.302	5
377.088	4
377.873	6
378.659	4
379.445	4
380.23	5
381.015	6
381.801	4
382.586	6
383.371	6
384.156	6
384.941	6
385.726	5
386.511	8
387.296	7
388.08	4
388.865	4
389.649	7
390.434	5
391.218	7
392.003	7
392.787	6
393.571	8
394.355	7
395.139	7
395.923	7
396.707	8
397.491	8
398.274	7
399.058	7
399.842	6
400.625	6
401.408	8
402.192	6
402.975	10
403.758	7
404.541	10
405.324	7
406.107	10
406.89	9
407.673	7
408.456	10
409.238	8
410.021	7
410.803	7
411.586	8
412.368	10
413.151	9
413.933	9
414.715	7
415.497	10
416.279	11
417.061	11
417.843	9
418.624	8
419.406	9
420.188	11
420.969	12
421.751	13
422.532	13
423.313	11
424.095	10
424.876	14
425.657	11
426.438	12
427.219	14
428	15
428.78	13
429.561	13
430.342	14
431.122	15
431.903	15
432.683	16
433.464	15
434.244	17
435.024	18
435.804	18
436.584	19
437.364	22
438.144	19
438.924	21
439.704	24
440.483	25
441.263	25
442.042	27
442.822	29
443.601	27
444.38	28
445.16	33
445.939	35
446.718	37
447.497	39
448.276	42
449.054	46
449.833	50
450.612	50
451.391	59
452.169	59
452.948	66
453.726	76
454.504	82
455.282	88
456.061	98
456.839	109
457.617	120
458.395	133
459.172	148
459.95	162
460.728	182
461.506	210
462.283	232
463.061	258
463.838	288
464.615	323
465.393	354
466.17	391
466.947	442
467.724	501
468.501	552
469.278	609
470.055	678
470.831	768
471.608	850
472.385	931
473.161	1048
473.938	1162
474.714	1288
475.49	1407
476.266	1562
477.043	1741
477.819	1922
478.595	2148
479.371	2337
480.146	2585
480.922	2865
481.698	3154
482.473	3495
483.249	3828
484.024	4226
484.8	4637
485.575	5102
486.35	5615
487.126	6192
487.901	6799
488.676	7408
489.451	8182
490.225	8924
491	9729
491.775	10653
492.55	11628
493.324	12607
494.099	13569
494.873	14646
495.647	15776
496.422	16981
497.196	18160
497.97	19437
498.744	20608
499.518	21784
500.292	22973
501.066	24019
501.839	24990
502.613	25794
503.387	26588
504.16	27225
504.934	27559
505.707	27672
506.48	27759
507.253	27590
508.027	27235
508.8	26953
509.573	26445
510.346	25823
511.118	25017
511.891	24218
512.664	23356
513.437	22433
514.209	21508
514.982	20568
515.754	19655
516.526	18814
517.298	17940
518.071	17146
518.843	16571
519.615	15885
520.387	15287
521.159	14658
521.93	14011
522.702	13506
523.474	12942
524.245	12376
525.017	11811
525.788	11432
526.56	10900
527.331	10367
528.102	9910
528.873	9467
529.644	8964
530.415	8540
531.186	8080
531.957	7682
532.728	7301
533.498	6908
534.269	6505
535.039	6148
535.81	5799
536.58	5488
537.351	5142
538.121	4869
538.891	4599
539.661	4393
540.431	4124
541.201	3897
541.971	3679
542.741	3514
543.51	3344
544.28	3169
545.05	2988
545.819	2855
546.588	2717
547.358	2581
548.127	2458
548.896	2341
549.665	2219
550.434	2102
551.203	1994
551.972	1865
552.741	1769
553.51	1675
554.278	1603
555.047	1496
555.815	1406
556.584	1330
557.352	1253
558.121	1178
558.889	1125
559.657	1060
560.425	991
561.193	939
561.961	886
562.729	847
563.496	810
564.264	744
565.032	712
565.799	669
566.567	640
567.334	592
568.101	570
568.869	533
569.636	505
570.403	469
571.17	453
571.937	425
572.704	397
573.471	377
574.237	355
575.004	332
575.771	308
576.537	297
577.303	280
578.07	271
578.836	254
579.602	234
580.368	227
581.134	206
581.9	197
582.666	190
583.432	179
584.198	168
584.964	161
585.729	150
586.495	143
587.26	133
588.025	123
588.791	121
589.556	117
590.321	107
591.086	106
591.851	100
592.616	98
593.381	92
594.146	86
594.911	86
595.675	80
596.44	77
597.204	70
597.969	67
598.733	63
599.497	63
600.261	61
601.025	55
601.79	55
602.553	56
603.317	51
604.081	49
604.845	47
605.609	44
606.372	43
607.136	40
607.899	38
608.662	38
609.426	37
610.189	34
610.952	32
611.715	30
612.478	32
613.241	30
614.004	26
614.767	28
615.529	25
616.292	24
617.055	22
617.817	22
618.579	23
619.342	25
620.104	23
620.866	19
621.628	22
622.39	18
623.152	18
623.914	19
624.676	18
625.438	18
626.199	15
626.961	16
627.722	14
628.484	17
629.245	16
630.006	14
630.768	12
631.529	12
632.29	12
633.051	14
633.812	14
634.573	12
635.333	11
636.094	12
636.855	10
637.615	11
638.376	10
639.136	10
639.896	9
640.657	10
641.417	10
642.177	11
642.937	11
643.697	8
644.457	7
645.216	9
645.976	9
646.736	7
647.495	11
648.255	6
649.014	6
649.774	9
650.533	5
651.292	6
652.051	5
652.81	8
653.569	7
654.328	8
655.087	6
655.846	5
656.604	5
657.363	6
658.121	7
658.88	6
659.638	5
660.397	7
661.155	8
661.913	8
662.671	6
663.429	6
664.187	7
664.945	5
665.703	5
666.46	3
667.218	6
667.976	4
668.733	5
669.49	7
670.248	6
671.005	8
671.762	6
672.519	8
673.276	4
674.033	4
674.79	5
675.547	5
676.304	6
677.06	5
677.817	5
678.574	5
679.33	3
680.086	6
680.843	4
681.599	5
682.355	3
683.111	6
683.867	5
684.623	3
685.379	3
686.135	4
686.89	4
687.646	7
688.402	5
689.157	3
689.912	4
690.668	5
691.423	4
692.178	5
692.933	4
693.688	5
694.443	5
695.198	4
695.953	4
696.708	6
697.462	4
698.217	5
698.972	6
699.726	2
700.48	7
701.235	2
701.989	2
702.743	4
703.497	4
704.251	4
705.005	5
705.759	3
706.513	2
707.266	4
708.02	3
708.774	5
709.527	0
710.28	6
711.034	3
711.787	4
712.54	5
713.293	3
714.046	8
714.799	5
715.552	3
716.305	3
717.058	7
717.81	5
718.563	3
719.315	5
720.068	3
720.82	4
721.573	4
722.325	2
723.077	4
723.829	4
724.581	2
725.333	5
726.085	4
726.836	6
727.588	3
728.34	4
729.091	2
729.843	5
730.594	4
731.346	3
732.097	5
732.848	5
733.599	4
734.35	4
735.101	5
735.852	7
736.603	5
737.354	5
738.104	5
738.855	5
739.605	4
740.356	5
741.106	6
741.856	4
742.607	4
743.357	6
744.107	5
744.857	5
745.607	6
746.357	8
747.106	3
747.856	5
748.606	6
749.355	6
750.105	4
750.854	5
751.603	5
752.353	5
753.102	8
753.851	7
754.6	5
755.349	6
756.098	4
756.847	6
757.595	5
758.344	6
759.093	4
759.841	6
760.589	9
761.338	9
762.086	8
762.834	8
763.582	6
764.331	6
765.079	7
765.826	9
766.574	7
767.322	9
768.07	9
768.817	7
769.565	8
770.312	7
771.06	7
771.807	8
772.554	8
773.302	7
774.049	5
774.796	11
775.543	7
776.29	8
777.036	10
777.783	8
778.53	10
779.276	7
780.023	8
780.769	8
781.516	9
782.262	9
783.008	9
783.754	11
784.5	11
785.246	10
785.992	5
786.738	7
787.484	12
788.23	7
788.975	12
789.721	9
790.466	8
791.212	9
791.957	8
792.702	8
793.447	8
794.193	10
794.938	8
795.683	7
796.427	9
797.172	7
797.917	11
798.662	7
799.406	8
800.151	10
800.895	7
801.64	7
802.384	8
803.128	9
803.872	6
804.616	8
805.36	9
806.104	7
806.848	10
807.592	7
808.336	8
809.079	7
809.823	4
810.566	4
811.31	4
812.053	7
812.796	5
813.539	6
814.283	5
815.026	4
815.769	5
816.511	5
817.254	6
817.997	5
818.74	2
819.482	4
820.225	4
820.967	8
821.71	7
822.452	2
823.194	5
823.936	1
824.678	7
825.42	3
826.162	7
826.904	5
827.646	4
828.388	4
829.129	3
829.871	4
830.612	2
831.354	6
832.095	4
832.836	5
833.577	5
834.319	4
835.06	3
835.801	4
836.542	2
837.282	4
838.023	1
838.764	3
839.504	3
840.245	3
840.985	3
841.726	4
842.466	5
843.206	3
843.946	5
844.687	2
845.427	4
846.166	2
846.906	3
847.646	4
848.386	2
849.125	3
849.865	4
850.605	3
851.344	3
852.083	3
852.823	3
853.562	4
854.301	4
855.04	2
855.779	3
856.518	2
857.257	1
857.995	2
858.734	2
859.473	2
860.211	4
860.95	2
861.688	5
862.426	2
863.165	2
863.903	3
864.641	1
865.379	2
866.117	1
866.855	2
867.593	3
868.33	3
869.068	2
869.806	1
870.543	2
871.28	2
872.018	3
872.755	2
873.492	2
874.229	5
874.967	2
875.703	3
876.44	1
877.177	0
877.914	5
878.651	1
879.387	1
880.124	0
880.86	2
881.597	2
882.333	1
883.069	2
883.806	0
884.542	2
885.278	-1
886.014	1
886.749	3
887.485	1
888.221	1
888.957	2
889.692	-2
890.428	-2
891.163	0
891.899	1
892.634	1
893.369	3
894.104	1
894.839	0
895.574	4
896.309	0
897.044	2
897.779	2
898.514	0
899.248	0
899.983	-1
900.717	-1
901.452	2
902.186	0
902.92	1
903.654	1
904.389	0
905.123	0
905.857	2
906.59	0
907.324	1
908.058	1
908.792	0
909.525	2
910.259	0
910.992	2
911.726	2
912.459	2
913.192	-3
913.925	1
914.658	2
915.391	1
916.124	1
916.857	2
917.59	1
918.323	2
919.055	-1
919.788	0
920.521	0
921.253	0
921.985	-1
922.718	1
923.45	2
924.182	0
924.914	1
925.646	1
926.378	2
927.11	2
927.841	1
928.573	0
929.305	-2
930.036	1
930.768	1
931.499	0
932.23	-1
932.962	1
933.693	1
934.424	-1
935.155	0
935.886	1
936.617	-1
937.348	1
938.078	0
938.809	0
939.54	1
940.27	1
941.001	0
941.731	-1
942.461	0
943.191	-2
943.922	-1
944.652	1
945.382	2
946.112	2
946.841	0
947.571	-1
948.301	2
949.031	3
949.76	0
950.49	2
951.219	-1
951.948	-3
952.678	2
953.407	0
954.136	1
954.865	2
955.594	1
956.323	1
957.052	1
957.78	2
958.509	0
959.238	1
959.966	1
960.695	0
961.423	0
962.151	0
962.88	0
963.608	0
964.336	3
965.064	-1
965.792	-1
966.52	2
967.247	0
967.975	1
968.703	2
969.43	-1
970.158	2
970.885	-1
971.613	1
972.34	-1
973.067	0
973.794	0
974.521	1
975.248	3
975.975	0
976.702	1
977.429	1
978.156	-1
978.882	1
979.609	0
980.335	2
981.062	0
981.788	1
982.514	0
983.24	-1
983.967	2
984.693	1
985.419	1
986.144	-1
986.87	-1
987.596	1
988.322	-1
989.047	2
989.773	2
990.498	-1
991.224	0
991.949	-2
992.674	1
993.399	2
994.124	1
994.849	-1
995.574	1
996.299	2
997.024	0
997.749	1
998.473	2
999.198	2
999.922	0
1000.647	1
1001.371	2
1002.095	0
1002.82	-2
1003.544	0
1004.268	3
1004.992	0
1005.716	1
1006.439	5
1007.163	3
1007.887	2
1008.611	0
1009.334	0
1010.058	3
1010.781	1
1011.504	2
1012.228	0
1012.951	0
1013.674	1
1014.397	-1
1015.12	0
