节点500_285_QEPB04081__247__14-59-39-907.txt的数据

Date: Wed Nov 12 14:59:39 CST 2025
User: PC
Spectrometer: QEPB0408
触发模式: 0
积分时间 (秒): 1.000000E-2
Scans to average: 1
启用暗噪声校正: true
启用非线性校正: false
滑动平均宽度: 0
X轴模式: Wavelengths
Number of Pixels in Spectrum: 1044
>>>>>Begin Spectral Data<<<<<
220.843	1.75
221.644	-0.25
222.444	0.75
223.244	3.75
224.045	3.75
224.845	1.75
225.645	1.75
226.445	-0.25
227.245	4.75
228.045	1.75
228.845	0.75
229.645	2.75
230.444	-0.25
231.244	1.75
232.043	2.75
232.843	2.75
233.642	-0.25
234.442	0.75
235.241	3.75
236.04	1.75
236.839	1.75
237.638	3.75
238.437	5.75
239.236	5.75
240.035	2.75
240.833	3.75
241.632	5.75
242.43	3.75
243.229	2.75
244.027	5.75
244.826	4.75
245.624	3.75
246.422	3.75
247.22	4.75
248.018	5.75
248.816	3.75
249.614	5.75
250.412	6.75
251.21	7.75
252.007	4.75
252.805	5.75
253.602	7.75
254.4	6.75
255.197	8.75
255.994	8.75
256.791	5.75
257.589	8.75
258.386	8.75
259.183	8.75
259.979	11.75
260.776	8.75
261.573	8.75
262.37	10.75
263.166	10.75
263.963	8.75
264.759	10.75
265.556	11.75
266.352	11.75
267.148	15.75
267.944	11.75
268.74	12.75
269.536	13.75
270.332	14.75
271.128	15.75
271.924	14.75
272.719	16.75
273.515	14.75
274.311	14.75
275.106	14.75
275.901	15.75
276.697	16.75
277.492	15.75
278.287	17.75
279.082	18.75
279.877	15.75
280.672	17.75
281.467	17.75
282.262	19.75
283.056	16.75
283.851	17.75
284.646	20.75
285.44	18.75
286.234	22.75
287.029	17.75
287.823	17.75
288.617	17.75
289.411	19.75
290.205	19.75
290.999	16.75
291.793	15.75
292.587	14.75
293.381	18.75
294.174	16.75
294.968	16.75
295.761	12.75
296.555	13.75
297.348	12.75
298.141	12.75
298.935	14.75
299.728	15.75
300.521	13.75
301.314	10.75
302.107	12.75
302.899	12.75
303.692	11.75
304.485	10.75
305.277	12.75
306.07	11.75
306.862	12.75
307.655	11.75
308.447	9.75
309.239	11.75
310.031	11.75
310.823	10.75
311.615	6.75
312.407	9.75
313.199	8.75
313.991	7.75
314.783	8.75
315.574	6.75
316.366	5.75
317.157	8.75
317.949	7.75
318.74	9.75
319.531	7.75
320.322	6.75
321.113	5.75
321.904	7.75
322.695	5.75
323.486	5.75
324.277	7.75
325.068	6.75
325.858	4.75
326.649	7.75
327.439	7.75
328.23	6.75
329.02	6.75
329.81	6.75
330.6	4.75
331.391	8.75
332.181	6.75
332.971	3.75
333.76	4.75
334.55	6.75
335.34	5.75
336.13	6.75
336.919	4.75
337.709	3.75
338.498	6.75
339.287	6.75
340.077	4.75
340.866	5.75
341.655	7.75
342.444	6.75
343.233	6.75
344.022	4.75
344.811	6.75
345.6	6.75
346.388	4.75
347.177	4.75
347.965	5.75
348.754	6.75
349.542	5.75
350.33	5.75
351.119	4.75
351.907	4.75
352.695	5.75
353.483	1.75
354.271	5.75
355.059	5.75
355.846	4.75
356.634	3.75
357.422	3.75
358.209	5.75
358.997	5.75
359.784	5.75
360.571	2.75
361.359	3.75
362.146	8.75
362.933	3.75
363.72	4.75
364.507	3.75
365.294	6.75
366.081	4.75
366.867	3.75
367.654	5.75
368.44	5.75
369.227	2.75
370.013	3.75
370.8	5.75
371.586	5.75
372.372	3.75
373.158	6.75
373.944	1.75
374.73	3.75
375.516	4.75
376.302	3.75
377.088	4.75
377.873	4.75
378.659	4.75
379.445	5.75
380.23	6.75
381.015	3.75
381.801	3.75
382.586	4.75
383.371	4.75
384.156	6.75
384.941	2.75
385.726	4.75
386.511	3.75
387.296	4.75
388.08	3.75
388.865	5.75
389.649	2.75
390.434	5.75
391.218	3.75
392.003	6.75
392.787	5.75
393.571	3.75
394.355	4.75
395.139	5.75
395.923	6.75
396.707	5.75
397.491	4.75
398.274	6.75
399.058	6.75
399.842	6.75
400.625	4.75
401.408	7.75
402.192	7.75
402.975	8.75
403.758	7.75
404.541	9.75
405.324	5.75
406.107	3.75
406.89	8.75
407.673	4.75
408.456	5.75
409.238	8.75
410.021	7.75
410.803	8.75
411.586	9.75
412.368	9.75
413.151	7.75
413.933	8.75
414.715	8.75
415.497	8.75
416.279	7.75
417.061	8.75
417.843	8.75
418.624	8.75
419.406	9.75
420.188	9.75
420.969	9.75
421.751	8.75
422.532	10.75
423.313	9.75
424.095	9.75
424.876	7.75
425.657	10.75
426.438	10.75
427.219	13.75
428	10.75
428.78	12.75
429.561	15.75
430.342	13.75
431.122	18.75
431.903	14.75
432.683	11.75
433.464	12.75
434.244	13.75
435.024	17.75
435.804	16.75
436.584	18.75
437.364	18.75
438.144	20.75
438.924	19.75
439.704	21.75
440.483	19.75
441.263	18.75
442.042	25.75
442.822	24.75
443.601	30.75
444.38	28.75
445.16	31.75
445.939	32.75
446.718	32.75
447.497	37.75
448.276	40.75
449.054	43.75
449.833	51.75
450.612	48.75
451.391	53.75
452.169	60.75
452.948	65.75
453.726	73.75
454.504	79.75
455.282	88.75
456.061	98.75
456.839	108.75
457.617	117.75
458.395	134.75
459.172	148.75
459.95	165.75
460.728	180.75
461.506	204.75
462.283	223.75
463.061	256.75
463.838	280.75
464.615	312.75
465.393	351.75
466.17	398.75
466.947	442.75
467.724	499.75
468.501	556.75
469.278	613.75
470.055	684.75
470.831	753.75
471.608	838.75
472.385	933.75
473.161	1023.75
473.938	1164.75
474.714	1276.75
475.49	1422.75
476.266	1566.75
477.043	1722.75
477.819	1913.75
478.595	2130.75
479.371	2362.75
480.146	2610.75
480.922	2850.75
481.698	3169.75
482.473	3493.75
483.249	3843.75
484.024	4233.75
484.8	4663.75
485.575	5141.75
486.35	5652.75
487.126	6196.75
487.901	6835.75
488.676	7456.75
489.451	8185.75
490.225	8967.75
491	9784.75
491.775	10738.75
492.55	11702.75
493.324	12722.75
494.099	13682.75
494.873	14758.75
495.647	15977.75
496.422	17094.75
497.196	18342.75
497.97	19573.75
498.744	20776.75
499.518	21998.75
500.292	23115.75
501.066	24193.75
501.839	25157.75
502.613	26057.75
503.387	26819.75
504.16	27432.75
504.934	27653.75
505.707	27828.75
506.48	27851.75
507.253	27660.75
508.027	27436.75
508.8	26987.75
509.573	26574.75
510.346	25930.75
511.118	25076.75
511.891	24289.75
512.664	23398.75
513.437	22445.75
514.209	21440.75
514.982	20595.75
515.754	19693.75
516.526	18786.75
517.298	17989.75
518.071	17224.75
518.843	16574.75
519.615	15922.75
520.387	15291.75
521.159	14657.75
521.93	14128.75
522.702	13526.75
523.474	12954.75
524.245	12361.75
525.017	11869.75
525.788	11422.75
526.56	10943.75
527.331	10372.75
528.102	9900.75
528.873	9461.75
529.644	8928.75
530.415	8529.75
531.186	8042.75
531.957	7632.75
532.728	7284.75
533.498	6879.75
534.269	6475.75
535.039	6132.75
535.81	5764.75
536.58	5473.75
537.351	5160.75
538.121	4862.75
538.891	4582.75
539.661	4367.75
540.431	4099.75
541.201	3860.75
541.971	3700.75
542.741	3473.75
543.51	3312.75
544.28	3162.75
545.05	3000.75
545.819	2866.75
546.588	2716.75
547.358	2582.75
548.127	2437.75
548.896	2328.75
549.665	2198.75
550.434	2095.75
551.203	1986.75
551.972	1859.75
552.741	1781.75
553.51	1676.75
554.278	1568.75
555.047	1480.75
555.815	1398.75
556.584	1319.75
557.352	1264.75
558.121	1188.75
558.889	1114.75
559.657	1055.75
560.425	993.75
561.193	938.75
561.961	885.75
562.729	832.75
563.496	786.75
564.264	750.75
565.032	707.75
565.799	666.75
566.567	630.75
567.334	584.75
568.101	565.75
568.869	536.75
569.636	492.75
570.403	467.75
571.17	444.75
571.937	417.75
572.704	392.75
573.471	372.75
574.237	362.75
575.004	328.75
575.771	310.75
576.537	287.75
577.303	272.75
578.07	263.75
578.836	243.75
579.602	225.75
580.368	221.75
581.134	208.75
581.9	196.75
582.666	179.75
583.432	180.75
584.198	168.75
584.964	156.75
585.729	147.75
586.495	142.75
587.26	135.75
588.025	132.75
588.791	117.75
589.556	114.75
590.321	107.75
591.086	99.75
591.851	97.75
592.616	92.75
593.381	89.75
594.146	83.75
594.911	79.75
595.675	76.75
596.44	72.75
597.204	69.75
597.969	66.75
598.733	66.75
599.497	63.75
600.261	59.75
601.025	55.75
601.79	51.75
602.553	53.75
603.317	48.75
604.081	49.75
604.845	45.75
605.609	41.75
606.372	41.75
607.136	38.75
607.899	36.75
608.662	35.75
609.426	35.75
610.189	33.75
610.952	34.75
611.715	28.75
612.478	28.75
613.241	23.75
614.004	26.75
614.767	27.75
615.529	24.75
616.292	24.75
617.055	24.75
617.817	23.75
618.579	22.75
619.342	19.75
620.104	21.75
620.866	20.75
621.628	18.75
622.39	20.75
623.152	19.75
623.914	18.75
624.676	17.75
625.438	16.75
626.199	16.75
626.961	13.75
627.722	13.75
628.484	13.75
629.245	11.75
630.006	15.75
630.768	13.75
631.529	12.75
632.29	11.75
633.051	10.75
633.812	11.75
634.573	10.75
635.333	9.75
636.094	8.75
636.855	8.75
637.615	8.75
638.376	8.75
639.136	9.75
639.896	7.75
640.657	8.75
641.417	8.75
642.177	6.75
642.937	5.75
643.697	9.75
644.457	4.75
645.216	6.75
645.976	8.75
646.736	7.75
647.495	6.75
648.255	6.75
649.014	6.75
649.774	7.75
650.533	5.75
651.292	6.75
652.051	6.75
652.81	4.75
653.569	3.75
654.328	5.75
655.087	3.75
655.846	5.75
656.604	4.75
657.363	4.75
658.121	3.75
658.88	4.75
659.638	4.75
660.397	4.75
661.155	4.75
661.913	3.75
662.671	5.75
663.429	2.75
664.187	4.75
664.945	5.75
665.703	3.75
666.46	7.75
667.218	4.75
667.976	2.75
668.733	4.75
669.49	3.75
670.248	7.75
671.005	0.75
671.762	5.75
672.519	5.75
673.276	1.75
674.033	2.75
674.79	2.75
675.547	5.75
676.304	4.75
677.06	3.75
677.817	2.75
678.574	2.75
679.33	4.75
680.086	3.75
680.843	5.75
681.599	4.75
682.355	1.75
683.111	2.75
683.867	1.75
684.623	2.75
685.379	0.75
686.135	1.75
686.89	2.75
687.646	2.75
688.402	3.75
689.157	1.75
689.912	7.75
690.668	1.75
691.423	0.75
692.178	2.75
692.933	2.75
693.688	4.75
694.443	1.75
695.198	6.75
695.953	4.75
696.708	3.75
697.462	3.75
698.217	0.75
698.972	3.75
699.726	3.75
700.48	4.75
701.235	1.75
701.989	3.75
702.743	4.75
703.497	0.75
704.251	3.75
705.005	2.75
705.759	2.75
706.513	2.75
707.266	2.75
708.02	6.75
708.774	3.75
709.527	2.75
710.28	1.75
711.034	2.75
711.787	1.75
712.54	2.75
713.293	2.75
714.046	2.75
714.799	1.75
715.552	2.75
716.305	1.75
717.058	3.75
717.81	0.75
718.563	4.75
719.315	3.75
720.068	2.75
720.82	1.75
721.573	3.75
722.325	4.75
723.077	2.75
723.829	0.75
724.581	2.75
725.333	4.75
726.085	1.75
726.836	1.75
727.588	1.75
728.34	4.75
729.091	3.75
729.843	2.75
730.594	4.75
731.346	5.75
732.097	-0.25
732.848	5.75
733.599	3.75
734.35	2.75
735.101	5.75
735.852	1.75
736.603	3.75
737.354	2.75
738.104	1.75
738.855	1.75
739.605	3.75
740.356	3.75
741.106	3.75
741.856	4.75
742.607	2.75
743.357	2.75
744.107	5.75
744.857	3.75
745.607	3.75
746.357	4.75
747.106	3.75
747.856	3.75
748.606	1.75
749.355	3.75
750.105	2.75
750.854	4.75
751.603	3.75
752.353	3.75
753.102	3.75
753.851	5.75
754.6	4.75
755.349	3.75
756.098	3.75
756.847	6.75
757.595	4.75
758.344	6.75
759.093	4.75
759.841	4.75
760.589	4.75
761.338	5.75
762.086	4.75
762.834	6.75
763.582	6.75
764.331	3.75
765.079	6.75
765.826	6.75
766.574	6.75
767.322	8.75
768.07	6.75
768.817	8.75
769.565	7.75
770.312	8.75
771.06	8.75
771.807	9.75
772.554	5.75
773.302	7.75
774.049	7.75
774.796	7.75
775.543	6.75
776.29	7.75
777.036	7.75
777.783	8.75
778.53	9.75
779.276	9.75
780.023	8.75
780.769	6.75
781.516	8.75
782.262	9.75
783.008	5.75
783.754	8.75
784.5	8.75
785.246	5.75
785.992	8.75
786.738	7.75
787.484	6.75
788.23	8.75
788.975	6.75
789.721	2.75
790.466	7.75
791.212	8.75
791.957	7.75
792.702	7.75
793.447	8.75
794.193	7.75
794.938	6.75
795.683	6.75
796.427	6.75
797.172	5.75
797.917	6.75
798.662	5.75
799.406	6.75
800.151	7.75
800.895	5.75
801.64	4.75
802.384	7.75
803.128	6.75
803.872	5.75
804.616	6.75
805.36	3.75
806.104	5.75
806.848	4.75
807.592	5.75
808.336	5.75
809.079	5.75
809.823	5.75
810.566	3.75
811.31	3.75
812.053	4.75
812.796	3.75
813.539	3.75
814.283	3.75
815.026	5.75
815.769	4.75
816.511	5.75
817.254	4.75
817.997	2.75
818.74	4.75
819.482	3.75
820.225	2.75
820.967	5.75
821.71	2.75
822.452	3.75
823.194	1.75
823.936	6.75
824.678	1.75
825.42	3.75
826.162	4.75
826.904	2.75
827.646	0.75
828.388	4.75
829.129	3.75
829.871	0.75
830.612	2.75
831.354	2.75
832.095	3.75
832.836	2.75
833.577	0.75
834.319	0.75
835.06	4.75
835.801	1.75
836.542	3.75
837.282	3.75
838.023	2.75
838.764	1.75
839.504	2.75
840.245	3.75
840.985	3.75
841.726	3.75
842.466	0.75
843.206	1.75
843.946	3.75
844.687	0.75
845.427	1.75
846.166	0.75
846.906	2.75
847.646	1.75
848.386	1.75
849.125	0.75
849.865	-0.25
850.605	0.75
851.344	0.75
852.083	4.75
852.823	3.75
853.562	3.75
854.301	1.75
855.04	-0.25
855.779	0.75
856.518	2.75
857.257	2.75
857.995	2.75
858.734	1.75
859.473	3.75
860.211	0.75
860.95	0.75
861.688	0.75
862.426	0.75
863.165	2.75
863.903	-0.25
864.641	1.75
865.379	2.75
866.117	1.75
866.855	0.75
867.593	2.75
868.33	1.75
869.068	0.75
869.806	-0.25
870.543	-0.25
871.28	0.75
872.018	0.75
872.755	-0.25
873.492	1.75
874.229	1.75
874.967	-0.25
875.703	0.75
876.44	-0.25
877.177	-0.25
877.914	1.75
878.651	1.75
879.387	-0.25
880.124	2.75
880.86	1.75
881.597	-1.25
882.333	-0.25
883.069	0.75
883.806	-1.25
884.542	0.75
885.278	0.75
886.014	-1.25
886.749	0.75
887.485	-0.25
888.221	-0.25
888.957	-0.25
889.692	0.75
890.428	2.75
891.163	2.75
891.899	-0.25
892.634	-0.25
893.369	-2.25
894.104	0.75
894.839	1.75
895.574	-0.25
896.309	0.75
897.044	-2.25
897.779	-2.25
898.514	-1.25
899.248	0.75
899.983	2.75
900.717	0.75
901.452	0.75
902.186	-1.25
902.92	0.75
903.654	0.75
904.389	-0.25
905.123	-0.25
905.857	-0.25
906.59	-0.25
907.324	-1.25
908.058	-3.25
908.792	0.75
909.525	1.75
910.259	1.75
910.992	-1.25
911.726	-0.25
912.459	-0.25
913.192	-1.25
913.925	-1.25
914.658	-1.25
915.391	3.75
916.124	1.75
916.857	0.75
917.59	-1.25
918.323	-1.25
919.055	1.75
919.788	0.75
920.521	-1.25
921.253	-2.25
921.985	-0.25
922.718	0.75
923.45	-0.25
924.182	1.75
924.914	-1.25
925.646	-0.25
926.378	-1.25
927.11	-1.25
927.841	-0.25
928.573	-1.25
929.305	-0.25
930.036	-1.25
930.768	2.75
931.499	-1.25
932.23	-3.25
932.962	0.75
933.693	-1.25
934.424	-1.25
935.155	-1.25
935.886	-0.25
936.617	-1.25
937.348	-1.25
938.078	-1.25
938.809	-1.25
939.54	-1.25
940.27	-0.25
941.001	-2.25
941.731	0.75
942.461	0.75
943.191	-1.25
943.922	-1.25
944.652	1.75
945.382	-0.25
946.112	-1.25
946.841	0.75
947.571	0.75
948.301	-1.25
949.031	-1.25
949.76	-0.25
950.49	1.75
951.219	-2.25
951.948	-1.25
952.678	-1.25
953.407	1.75
954.136	-1.25
954.865	-0.25
955.594	-1.25
956.323	1.75
957.052	-0.25
957.78	-0.25
958.509	-0.25
959.238	0.75
959.966	-1.25
960.695	-1.25
961.423	0.75
962.151	2.75
962.88	-0.25
963.608	-1.25
964.336	-1.25
965.064	-1.25
965.792	-1.25
966.52	0.75
967.247	1.75
967.975	-0.25
968.703	-0.25
969.43	-1.25
970.158	-1.25
970.885	0.75
971.613	-1.25
972.34	-1.25
973.067	-0.25
973.794	0.75
974.521	0.75
975.248	-1.25
975.975	-1.25
976.702	0.75
977.429	-0.25
978.156	-0.25
978.882	-1.25
979.609	-0.25
980.335	0.75
981.062	0.75
981.788	-0.25
982.514	-0.25
983.24	0.75
983.967	0.75
984.693	-1.25
985.419	1.75
986.144	0.75
986.87	1.75
987.596	-2.25
988.322	0.75
989.047	-0.25
989.773	0.75
990.498	-1.25
991.224	-1.25
991.949	-1.25
992.674	0.75
993.399	0.75
994.124	-3.25
994.849	-0.25
995.574	-0.25
996.299	-0.25
997.024	-1.25
997.749	-1.25
998.473	0.75
999.198	-0.25
999.922	-3.25
1000.647	-1.25
1001.371	1.75
1002.095	-0.25
1002.82	-0.25
1003.544	-1.25
1004.268	0.75
1004.992	0.75
1005.716	-0.25
1006.439	1.75
1007.163	1.75
1007.887	2.75
1008.611	0.75
1009.334	0.75
1010.058	-0.25
1010.781	1.75
1011.504	0.75
1012.228	-2.25
1012.951	0.75
1013.674	-1.25
1014.397	-0.25
1015.12	0.75
