节点500_285_QEPB04081__161__14-58-14-181.txt的数据

Date: Wed Nov 12 14:58:14 CST 2025
User: PC
Spectrometer: QEPB0408
触发模式: 0
积分时间 (秒): 1.000000E-2
Scans to average: 1
启用暗噪声校正: true
启用非线性校正: false
滑动平均宽度: 0
X轴模式: Wavelengths
Number of Pixels in Spectrum: 1044
>>>>>Begin Spectral Data<<<<<
220.843	3.5
221.644	0.5
222.444	0.5
223.244	3.5
224.045	2.5
224.845	3.5
225.645	3.5
226.445	2.5
227.245	1.5
228.045	3.5
228.845	3.5
229.645	-0.5
230.444	2.5
231.244	1.5
232.043	6.5
232.843	3.5
233.642	3.5
234.442	3.5
235.241	5.5
236.04	4.5
236.839	3.5
237.638	1.5
238.437	5.5
239.236	5.5
240.035	6.5
240.833	4.5
241.632	6.5
242.43	4.5
243.229	8.5
244.027	4.5
244.826	4.5
245.624	7.5
246.422	5.5
247.22	2.5
248.018	5.5
248.816	8.5
249.614	7.5
250.412	4.5
251.21	5.5
252.007	7.5
252.805	7.5
253.602	5.5
254.4	8.5
255.197	6.5
255.994	10.5
256.791	6.5
257.589	7.5
258.386	11.5
259.183	9.5
259.979	8.5
260.776	9.5
261.573	9.5
262.37	10.5
263.166	12.5
263.963	13.5
264.759	14.5
265.556	11.5
266.352	13.5
267.148	11.5
267.944	14.5
268.74	13.5
269.536	18.5
270.332	17.5
271.128	18.5
271.924	15.5
272.719	18.5
273.515	16.5
274.311	17.5
275.106	15.5
275.901	17.5
276.697	16.5
277.492	16.5
278.287	16.5
279.082	16.5
279.877	16.5
280.672	17.5
281.467	20.5
282.262	19.5
283.056	21.5
283.851	19.5
284.646	17.5
285.44	19.5
286.234	17.5
287.029	17.5
287.823	17.5
288.617	19.5
289.411	17.5
290.205	18.5
290.999	19.5
291.793	16.5
292.587	17.5
293.381	19.5
294.174	17.5
294.968	17.5
295.761	16.5
296.555	13.5
297.348	16.5
298.141	15.5
298.935	14.5
299.728	15.5
300.521	16.5
301.314	11.5
302.107	13.5
302.899	13.5
303.692	13.5
304.485	15.5
305.277	13.5
306.07	13.5
306.862	12.5
307.655	12.5
308.447	11.5
309.239	11.5
310.031	11.5
310.823	9.5
311.615	10.5
312.407	10.5
313.199	9.5
313.991	11.5
314.783	10.5
315.574	11.5
316.366	9.5
317.157	7.5
317.949	9.5
318.74	7.5
319.531	6.5
320.322	5.5
321.113	7.5
321.904	8.5
322.695	5.5
323.486	6.5
324.277	6.5
325.068	6.5
325.858	7.5
326.649	5.5
327.439	6.5
328.23	8.5
329.02	7.5
329.81	4.5
330.6	7.5
331.391	6.5
332.181	8.5
332.971	7.5
333.76	5.5
334.55	7.5
335.34	7.5
336.13	6.5
336.919	5.5
337.709	4.5
338.498	6.5
339.287	3.5
340.077	8.5
340.866	5.5
341.655	6.5
342.444	4.5
343.233	5.5
344.022	7.5
344.811	6.5
345.6	6.5
346.388	7.5
347.177	3.5
347.965	8.5
348.754	4.5
349.542	6.5
350.33	5.5
351.119	5.5
351.907	6.5
352.695	5.5
353.483	7.5
354.271	5.5
355.059	4.5
355.846	5.5
356.634	5.5
357.422	6.5
358.209	3.5
358.997	7.5
359.784	5.5
360.571	5.5
361.359	4.5
362.146	4.5
362.933	5.5
363.72	6.5
364.507	5.5
365.294	5.5
366.081	4.5
366.867	6.5
367.654	3.5
368.44	6.5
369.227	6.5
370.013	4.5
370.8	5.5
371.586	4.5
372.372	5.5
373.158	6.5
373.944	5.5
374.73	6.5
375.516	4.5
376.302	8.5
377.088	6.5
377.873	5.5
378.659	8.5
379.445	5.5
380.23	6.5
381.015	4.5
381.801	6.5
382.586	4.5
383.371	4.5
384.156	5.5
384.941	4.5
385.726	5.5
386.511	6.5
387.296	5.5
388.08	6.5
388.865	4.5
389.649	4.5
390.434	6.5
391.218	6.5
392.003	6.5
392.787	5.5
393.571	6.5
394.355	8.5
395.139	5.5
395.923	4.5
396.707	6.5
397.491	5.5
398.274	3.5
399.058	5.5
399.842	6.5
400.625	7.5
401.408	5.5
402.192	6.5
402.975	7.5
403.758	9.5
404.541	9.5
405.324	6.5
406.107	6.5
406.89	5.5
407.673	9.5
408.456	9.5
409.238	7.5
410.021	8.5
410.803	6.5
411.586	10.5
412.368	6.5
413.151	9.5
413.933	8.5
414.715	9.5
415.497	9.5
416.279	9.5
417.061	11.5
417.843	8.5
418.624	10.5
419.406	10.5
420.188	10.5
420.969	9.5
421.751	9.5
422.532	9.5
423.313	9.5
424.095	10.5
424.876	13.5
425.657	12.5
426.438	13.5
427.219	12.5
428	12.5
428.78	13.5
429.561	13.5
430.342	14.5
431.122	13.5
431.903	12.5
432.683	14.5
433.464	15.5
434.244	13.5
435.024	17.5
435.804	15.5
436.584	19.5
437.364	18.5
438.144	19.5
438.924	20.5
439.704	22.5
440.483	23.5
441.263	22.5
442.042	26.5
442.822	26.5
443.601	27.5
444.38	27.5
445.16	29.5
445.939	33.5
446.718	34.5
447.497	41.5
448.276	41.5
449.054	46.5
449.833	46.5
450.612	49.5
451.391	55.5
452.169	60.5
452.948	63.5
453.726	73.5
454.504	76.5
455.282	84.5
456.061	93.5
456.839	103.5
457.617	115.5
458.395	132.5
459.172	147.5
459.95	159.5
460.728	179.5
461.506	198.5
462.283	217.5
463.061	243.5
463.838	274.5
464.615	305.5
465.393	350.5
466.17	376.5
466.947	438.5
467.724	472.5
468.501	540.5
469.278	593.5
470.055	672.5
470.831	745.5
471.608	828.5
472.385	927.5
473.161	1043.5
473.938	1139.5
474.714	1268.5
475.49	1391.5
476.266	1558.5
477.043	1731.5
477.819	1915.5
478.595	2128.5
479.371	2347.5
480.146	2585.5
480.922	2864.5
481.698	3191.5
482.473	3507.5
483.249	3856.5
484.024	4272.5
484.8	4712.5
485.575	5182.5
486.35	5724.5
487.126	6280.5
487.901	6960.5
488.676	7601.5
489.451	8366.5
490.225	9149.5
491	10005.5
491.775	10985.5
492.55	11947.5
493.324	13017.5
494.099	14023.5
494.873	15127.5
495.647	16353.5
496.422	17575.5
497.196	18848.5
497.97	20099.5
498.744	21318.5
499.518	22495.5
500.292	23732.5
501.066	24810.5
501.839	25745.5
502.613	26585.5
503.387	27339.5
504.16	27900.5
504.934	28174.5
505.707	28277.5
506.48	28224.5
507.253	28011.5
508.027	27627.5
508.8	27331.5
509.573	26688.5
510.346	26006.5
511.118	25106.5
511.891	24269.5
512.664	23429.5
513.437	22481.5
514.209	21467.5
514.982	20552.5
515.754	19573.5
516.526	18723.5
517.298	17907.5
518.071	17029.5
518.843	16410.5
519.615	15794.5
520.387	15145.5
521.159	14546.5
521.93	13985.5
522.702	13455.5
523.474	12868.5
524.245	12341.5
525.017	11752.5
525.788	11299.5
526.56	10840.5
527.331	10306.5
528.102	9819.5
528.873	9332.5
529.644	8877.5
530.415	8442.5
531.186	7969.5
531.957	7578.5
532.728	7179.5
533.498	6793.5
534.269	6397.5
535.039	6054.5
535.81	5724.5
536.58	5371.5
537.351	5074.5
538.121	4808.5
538.891	4560.5
539.661	4301.5
540.431	4049.5
541.201	3831.5
541.971	3638.5
542.741	3455.5
543.51	3265.5
544.28	3144.5
545.05	2977.5
545.819	2845.5
546.588	2683.5
547.358	2551.5
548.127	2425.5
548.896	2307.5
549.665	2162.5
550.434	2047.5
551.203	1948.5
551.972	1841.5
552.741	1743.5
553.51	1642.5
554.278	1541.5
555.047	1466.5
555.815	1373.5
556.584	1295.5
557.352	1236.5
558.121	1152.5
558.889	1101.5
559.657	1024.5
560.425	974.5
561.193	931.5
561.961	860.5
562.729	822.5
563.496	775.5
564.264	732.5
565.032	687.5
565.799	653.5
566.567	614.5
567.334	588.5
568.101	554.5
568.869	530.5
569.636	493.5
570.403	462.5
571.17	435.5
571.937	419.5
572.704	392.5
573.471	365.5
574.237	350.5
575.004	326.5
575.771	308.5
576.537	287.5
577.303	275.5
578.07	260.5
578.836	243.5
579.602	228.5
580.368	211.5
581.134	205.5
581.9	188.5
582.666	182.5
583.432	175.5
584.198	162.5
584.964	158.5
585.729	150.5
586.495	142.5
587.26	131.5
588.025	126.5
588.791	117.5
589.556	110.5
590.321	109.5
591.086	101.5
591.851	98.5
592.616	89.5
593.381	87.5
594.146	82.5
594.911	81.5
595.675	72.5
596.44	73.5
597.204	70.5
597.969	65.5
598.733	61.5
599.497	61.5
600.261	56.5
601.025	55.5
601.79	49.5
602.553	50.5
603.317	51.5
604.081	45.5
604.845	44.5
605.609	39.5
606.372	40.5
607.136	38.5
607.899	38.5
608.662	38.5
609.426	32.5
610.189	33.5
610.952	31.5
611.715	32.5
612.478	29.5
613.241	29.5
614.004	31.5
614.767	25.5
615.529	24.5
616.292	24.5
617.055	22.5
617.817	24.5
618.579	22.5
619.342	21.5
620.104	21.5
620.866	21.5
621.628	17.5
622.39	17.5
623.152	17.5
623.914	15.5
624.676	16.5
625.438	16.5
626.199	14.5
626.961	17.5
627.722	13.5
628.484	13.5
629.245	11.5
630.006	11.5
630.768	13.5
631.529	11.5
632.29	10.5
633.051	12.5
633.812	11.5
634.573	11.5
635.333	12.5
636.094	10.5
636.855	10.5
637.615	7.5
638.376	9.5
639.136	11.5
639.896	8.5
640.657	11.5
641.417	7.5
642.177	10.5
642.937	9.5
643.697	7.5
644.457	6.5
645.216	10.5
645.976	6.5
646.736	8.5
647.495	10.5
648.255	6.5
649.014	9.5
649.774	4.5
650.533	5.5
651.292	7.5
652.051	6.5
652.81	9.5
653.569	6.5
654.328	7.5
655.087	5.5
655.846	7.5
656.604	6.5
657.363	9.5
658.121	4.5
658.88	3.5
659.638	7.5
660.397	5.5
661.155	7.5
661.913	5.5
662.671	7.5
663.429	5.5
664.187	3.5
664.945	5.5
665.703	5.5
666.46	5.5
667.218	5.5
667.976	3.5
668.733	2.5
669.49	3.5
670.248	2.5
671.005	2.5
671.762	5.5
672.519	3.5
673.276	2.5
674.033	5.5
674.79	4.5
675.547	3.5
676.304	5.5
677.06	5.5
677.817	5.5
678.574	4.5
679.33	4.5
680.086	3.5
680.843	3.5
681.599	3.5
682.355	4.5
683.111	5.5
683.867	5.5
684.623	4.5
685.379	4.5
686.135	4.5
686.89	3.5
687.646	5.5
688.402	6.5
689.157	5.5
689.912	5.5
690.668	3.5
691.423	2.5
692.178	4.5
692.933	3.5
693.688	3.5
694.443	3.5
695.198	4.5
695.953	6.5
696.708	1.5
697.462	3.5
698.217	3.5
698.972	2.5
699.726	1.5
700.48	4.5
701.235	4.5
701.989	4.5
702.743	5.5
703.497	4.5
704.251	4.5
705.005	4.5
705.759	3.5
706.513	5.5
707.266	2.5
708.02	3.5
708.774	3.5
709.527	1.5
710.28	2.5
711.034	2.5
711.787	4.5
712.54	3.5
713.293	4.5
714.046	3.5
714.799	2.5
715.552	4.5
716.305	4.5
717.058	3.5
717.81	4.5
718.563	2.5
719.315	5.5
720.068	2.5
720.82	3.5
721.573	1.5
722.325	4.5
723.077	2.5
723.829	3.5
724.581	4.5
725.333	5.5
726.085	4.5
726.836	4.5
727.588	1.5
728.34	4.5
729.091	3.5
729.843	4.5
730.594	4.5
731.346	2.5
732.097	5.5
732.848	2.5
733.599	5.5
734.35	4.5
735.101	4.5
735.852	3.5
736.603	4.5
737.354	6.5
738.104	3.5
738.855	5.5
739.605	3.5
740.356	3.5
741.106	6.5
741.856	2.5
742.607	6.5
743.357	4.5
744.107	6.5
744.857	5.5
745.607	5.5
746.357	3.5
747.106	5.5
747.856	8.5
748.606	4.5
749.355	5.5
750.105	3.5
750.854	6.5
751.603	6.5
752.353	5.5
753.102	5.5
753.851	6.5
754.6	5.5
755.349	6.5
756.098	1.5
756.847	4.5
757.595	4.5
758.344	6.5
759.093	7.5
759.841	7.5
760.589	4.5
761.338	4.5
762.086	7.5
762.834	6.5
763.582	7.5
764.331	5.5
765.079	8.5
765.826	6.5
766.574	7.5
767.322	7.5
768.07	6.5
768.817	7.5
769.565	5.5
770.312	5.5
771.06	9.5
771.807	9.5
772.554	10.5
773.302	7.5
774.049	7.5
774.796	9.5
775.543	4.5
776.29	7.5
777.036	6.5
777.783	8.5
778.53	9.5
779.276	8.5
780.023	9.5
780.769	11.5
781.516	12.5
782.262	7.5
783.008	9.5
783.754	11.5
784.5	9.5
785.246	11.5
785.992	9.5
786.738	11.5
787.484	7.5
788.23	9.5
788.975	9.5
789.721	8.5
790.466	7.5
791.212	9.5
791.957	9.5
792.702	9.5
793.447	5.5
794.193	9.5
794.938	8.5
795.683	9.5
796.427	9.5
797.172	8.5
797.917	6.5
798.662	7.5
799.406	5.5
800.151	6.5
800.895	5.5
801.64	8.5
802.384	5.5
803.128	9.5
803.872	7.5
804.616	4.5
805.36	7.5
806.104	6.5
806.848	6.5
807.592	5.5
808.336	8.5
809.079	4.5
809.823	6.5
810.566	5.5
811.31	6.5
812.053	7.5
812.796	3.5
813.539	5.5
814.283	5.5
815.026	4.5
815.769	6.5
816.511	8.5
817.254	4.5
817.997	5.5
818.74	6.5
819.482	4.5
820.225	2.5
820.967	4.5
821.71	3.5
822.452	6.5
823.194	4.5
823.936	3.5
824.678	4.5
825.42	1.5
826.162	3.5
826.904	3.5
827.646	6.5
828.388	3.5
829.129	4.5
829.871	4.5
830.612	3.5
831.354	4.5
832.095	4.5
832.836	3.5
833.577	2.5
834.319	5.5
835.06	4.5
835.801	4.5
836.542	4.5
837.282	5.5
838.023	2.5
838.764	4.5
839.504	4.5
840.245	3.5
840.985	3.5
841.726	3.5
842.466	4.5
843.206	2.5
843.946	3.5
844.687	1.5
845.427	2.5
846.166	3.5
846.906	1.5
847.646	6.5
848.386	1.5
849.125	4.5
849.865	2.5
850.605	3.5
851.344	2.5
852.083	3.5
852.823	2.5
853.562	2.5
854.301	0.5
855.04	3.5
855.779	1.5
856.518	3.5
857.257	2.5
857.995	1.5
858.734	1.5
859.473	2.5
860.211	1.5
860.95	1.5
861.688	1.5
862.426	1.5
863.165	3.5
863.903	3.5
864.641	1.5
865.379	4.5
866.117	1.5
866.855	3.5
867.593	2.5
868.33	1.5
869.068	1.5
869.806	3.5
870.543	1.5
871.28	1.5
872.018	1.5
872.755	1.5
873.492	1.5
874.229	3.5
874.967	-0.5
875.703	2.5
876.44	0.5
877.177	1.5
877.914	1.5
878.651	-1.5
879.387	1.5
880.124	2.5
880.86	-0.5
881.597	-0.5
882.333	1.5
883.069	3.5
883.806	0.5
884.542	4.5
885.278	1.5
886.014	0.5
886.749	0.5
887.485	-0.5
888.221	-0.5
888.957	0.5
889.692	0.5
890.428	1.5
891.163	1.5
891.899	2.5
892.634	-0.5
893.369	1.5
894.104	1.5
894.839	0.5
895.574	0.5
896.309	1.5
897.044	-0.5
897.779	-0.5
898.514	2.5
899.248	0.5
899.983	1.5
900.717	2.5
901.452	0.5
902.186	-0.5
902.92	1.5
903.654	0.5
904.389	-0.5
905.123	-0.5
905.857	1.5
906.59	-0.5
907.324	1.5
908.058	1.5
908.792	0.5
909.525	1.5
910.259	-1.5
910.992	1.5
911.726	-0.5
912.459	1.5
913.192	-0.5
913.925	-1.5
914.658	2.5
915.391	1.5
916.124	0.5
916.857	1.5
917.59	-0.5
918.323	1.5
919.055	-0.5
919.788	2.5
920.521	-1.5
921.253	1.5
921.985	0.5
922.718	0.5
923.45	1.5
924.182	-1.5
924.914	1.5
925.646	3.5
926.378	-2.5
927.11	1.5
927.841	-2.5
928.573	1.5
929.305	0.5
930.036	-1.5
930.768	1.5
931.499	1.5
932.23	-0.5
932.962	-0.5
933.693	-0.5
934.424	0.5
935.155	-0.5
935.886	0.5
936.617	0.5
937.348	-0.5
938.078	0.5
938.809	-1.5
939.54	-1.5
940.27	-0.5
941.001	1.5
941.731	-2.5
942.461	-1.5
943.191	-0.5
943.922	-0.5
944.652	0.5
945.382	-1.5
946.112	0.5
946.841	0.5
947.571	0.5
948.301	2.5
949.031	1.5
949.76	1.5
950.49	-1.5
951.219	0.5
951.948	-0.5
952.678	-1.5
953.407	-0.5
954.136	-0.5
954.865	0.5
955.594	1.5
956.323	-0.5
957.052	0.5
957.78	0.5
958.509	1.5
959.238	-0.5
959.966	2.5
960.695	-0.5
961.423	0.5
962.151	-0.5
962.88	-2.5
963.608	-0.5
964.336	-0.5
965.064	-0.5
965.792	0.5
966.52	-0.5
967.247	-0.5
967.975	0.5
968.703	0.5
969.43	0.5
970.158	0.5
970.885	1.5
971.613	1.5
972.34	2.5
973.067	-0.5
973.794	2.5
974.521	0.5
975.248	-0.5
975.975	-0.5
976.702	-0.5
977.429	0.5
978.156	0.5
978.882	-0.5
979.609	0.5
980.335	0.5
981.062	1.5
981.788	0.5
982.514	2.5
983.24	1.5
983.967	0.5
984.693	-0.5
985.419	0.5
986.144	1.5
986.87	1.5
987.596	-1.5
988.322	0.5
989.047	1.5
989.773	1.5
990.498	0.5
991.224	1.5
991.949	-0.5
992.674	2.5
993.399	-0.5
994.124	0.5
994.849	0.5
995.574	-1.5
996.299	-1.5
997.024	1.5
997.749	0.5
998.473	1.5
999.198	-1.5
999.922	-0.5
1000.647	1.5
1001.371	3.5
1002.095	-4.5
1002.82	0.5
1003.544	-0.5
1004.268	2.5
1004.992	1.5
1005.716	1.5
1006.439	2.5
1007.163	1.5
1007.887	0.5
1008.611	0.5
1009.334	1.5
1010.058	-0.5
1010.781	1.5
1011.504	3.5
1012.228	-0.5
1012.951	-0.5
1013.674	0.5
1014.397	0.5
1015.12	0.5
