节点500_285_QEPB04081__775__15-08-26-783.txt的数据

Date: Wed Nov 12 15:08:26 CST 2025
User: PC
Spectrometer: QEPB0408
触发模式: 0
积分时间 (秒): 1.000000E-2
Scans to average: 1
启用暗噪声校正: true
启用非线性校正: false
滑动平均宽度: 0
X轴模式: Wavelengths
Number of Pixels in Spectrum: 1044
>>>>>Begin Spectral Data<<<<<
220.843	-1.12
221.644	3.88
222.444	0.88
223.244	0.88
224.045	1.88
224.845	1.88
225.645	2.88
226.445	2.88
227.245	2.88
228.045	4.88
228.845	1.88
229.645	2.88
230.444	0.88
231.244	0.88
232.043	3.88
232.843	2.88
233.642	4.88
234.442	3.88
235.241	3.88
236.04	4.88
236.839	5.88
237.638	2.88
238.437	3.88
239.236	4.88
240.035	1.88
240.833	5.88
241.632	2.88
242.43	1.88
243.229	3.88
244.027	3.88
244.826	4.88
245.624	3.88
246.422	2.88
247.22	5.88
248.018	4.88
248.816	6.88
249.614	4.88
250.412	7.88
251.21	3.88
252.007	8.88
252.805	5.88
253.602	7.88
254.4	5.88
255.197	7.88
255.994	6.88
256.791	5.88
257.589	9.88
258.386	8.88
259.183	5.88
259.979	7.88
260.776	6.88
261.573	10.88
262.37	9.88
263.166	9.88
263.963	8.88
264.759	9.88
265.556	9.88
266.352	9.88
267.148	13.88
267.944	10.88
268.74	12.88
269.536	13.88
270.332	10.88
271.128	13.88
271.924	16.88
272.719	15.88
273.515	13.88
274.311	13.88
275.106	11.88
275.901	12.88
276.697	12.88
277.492	13.88
278.287	15.88
279.082	14.88
279.877	13.88
280.672	16.88
281.467	14.88
282.262	18.88
283.056	13.88
283.851	14.88
284.646	18.88
285.44	15.88
286.234	13.88
287.029	15.88
287.823	16.88
288.617	17.88
289.411	18.88
290.205	16.88
290.999	16.88
291.793	16.88
292.587	15.88
293.381	17.88
294.174	16.88
294.968	15.88
295.761	12.88
296.555	13.88
297.348	13.88
298.141	14.88
298.935	15.88
299.728	15.88
300.521	12.88
301.314	12.88
302.107	13.88
302.899	13.88
303.692	12.88
304.485	13.88
305.277	12.88
306.07	13.88
306.862	12.88
307.655	11.88
308.447	10.88
309.239	12.88
310.031	9.88
310.823	12.88
311.615	9.88
312.407	10.88
313.199	8.88
313.991	8.88
314.783	7.88
315.574	8.88
316.366	8.88
317.157	7.88
317.949	7.88
318.74	7.88
319.531	7.88
320.322	6.88
321.113	7.88
321.904	5.88
322.695	6.88
323.486	8.88
324.277	8.88
325.068	5.88
325.858	4.88
326.649	4.88
327.439	5.88
328.23	6.88
329.02	5.88
329.81	5.88
330.6	5.88
331.391	7.88
332.181	5.88
332.971	5.88
333.76	4.88
334.55	8.88
335.34	6.88
336.13	3.88
336.919	6.88
337.709	6.88
338.498	5.88
339.287	7.88
340.077	5.88
340.866	5.88
341.655	3.88
342.444	5.88
343.233	7.88
344.022	4.88
344.811	6.88
345.6	5.88
346.388	3.88
347.177	5.88
347.965	8.88
348.754	4.88
349.542	7.88
350.33	6.88
351.119	6.88
351.907	3.88
352.695	3.88
353.483	4.88
354.271	6.88
355.059	3.88
355.846	5.88
356.634	5.88
357.422	5.88
358.209	4.88
358.997	5.88
359.784	4.88
360.571	3.88
361.359	6.88
362.146	4.88
362.933	3.88
363.72	3.88
364.507	4.88
365.294	5.88
366.081	4.88
366.867	3.88
367.654	5.88
368.44	5.88
369.227	4.88
370.013	6.88
370.8	4.88
371.586	4.88
372.372	4.88
373.158	3.88
373.944	5.88
374.73	4.88
375.516	4.88
376.302	3.88
377.088	3.88
377.873	2.88
378.659	4.88
379.445	6.88
380.23	2.88
381.015	5.88
381.801	5.88
382.586	6.88
383.371	3.88
384.156	0.88
384.941	4.88
385.726	4.88
386.511	3.88
387.296	5.88
388.08	5.88
388.865	5.88
389.649	3.88
390.434	6.88
391.218	5.88
392.003	1.88
392.787	2.88
393.571	4.88
394.355	6.88
395.139	5.88
395.923	4.88
396.707	5.88
397.491	5.88
398.274	4.88
399.058	3.88
399.842	7.88
400.625	6.88
401.408	7.88
402.192	3.88
402.975	8.88
403.758	7.88
404.541	5.88
405.324	7.88
406.107	5.88
406.89	8.88
407.673	6.88
408.456	5.88
409.238	7.88
410.021	8.88
410.803	5.88
411.586	9.88
412.368	7.88
413.151	7.88
413.933	6.88
414.715	9.88
415.497	8.88
416.279	6.88
417.061	7.88
417.843	7.88
418.624	9.88
419.406	6.88
420.188	9.88
420.969	8.88
421.751	8.88
422.532	9.88
423.313	9.88
424.095	10.88
424.876	7.88
425.657	11.88
426.438	9.88
427.219	8.88
428	8.88
428.78	12.88
429.561	14.88
430.342	12.88
431.122	10.88
431.903	14.88
432.683	12.88
433.464	16.88
434.244	13.88
435.024	17.88
435.804	13.88
436.584	14.88
437.364	18.88
438.144	19.88
438.924	20.88
439.704	18.88
440.483	21.88
441.263	23.88
442.042	25.88
442.822	27.88
443.601	27.88
444.38	28.88
445.16	31.88
445.939	34.88
446.718	37.88
447.497	41.88
448.276	45.88
449.054	45.88
449.833	50.88
450.612	57.88
451.391	63.88
452.169	64.88
452.948	76.88
453.726	81.88
454.504	89.88
455.282	100.88
456.061	110.88
456.839	122.88
457.617	134.88
458.395	150.88
459.172	169.88
459.95	183.88
460.728	214.88
461.506	236.88
462.283	253.88
463.061	286.88
463.838	321.88
464.615	357.88
465.393	396.88
466.17	438.88
466.947	493.88
467.724	547.88
468.501	602.88
469.278	655.88
470.055	737.88
470.831	823.88
471.608	889.88
472.385	1000.88
473.161	1088.88
473.938	1221.88
474.714	1331.88
475.49	1468.88
476.266	1607.88
477.043	1766.88
477.819	1942.88
478.595	2121.88
479.371	2342.88
480.146	2537.88
480.922	2802.88
481.698	3068.88
482.473	3359.88
483.249	3632.88
484.024	3993.88
484.8	4352.88
485.575	4728.88
486.35	5170.88
487.126	5628.88
487.901	6141.88
488.676	6697.88
489.451	7254.88
490.225	7863.88
491	8561.88
491.775	9303.88
492.55	10118.88
493.324	10892.88
494.099	11649.88
494.873	12579.88
495.647	13499.88
496.422	14515.88
497.196	15445.88
497.97	16456.88
498.744	17576.88
499.518	18613.88
500.292	19585.88
501.066	20642.88
501.839	21544.88
502.613	22443.88
503.387	23343.88
504.16	24010.88
504.934	24462.88
505.707	24800.88
506.48	25058.88
507.253	25226.88
508.027	25232.88
508.8	25123.88
509.573	25036.88
510.346	24672.88
511.118	24098.88
511.891	23561.88
512.664	22985.88
513.437	22264.88
514.209	21440.88
514.982	20679.88
515.754	19898.88
516.526	19084.88
517.298	18359.88
518.071	17574.88
518.843	16901.88
519.615	16230.88
520.387	15633.88
521.159	15004.88
521.93	14377.88
522.702	13834.88
523.474	13287.88
524.245	12714.88
525.017	12199.88
525.788	11743.88
526.56	11222.88
527.331	10676.88
528.102	10265.88
528.873	9821.88
529.644	9360.88
530.415	8938.88
531.186	8493.88
531.957	8102.88
532.728	7711.88
533.498	7362.88
534.269	6923.88
535.039	6561.88
535.81	6224.88
536.58	5866.88
537.351	5528.88
538.121	5237.88
538.891	4975.88
539.661	4710.88
540.431	4444.88
541.201	4203.88
541.971	3980.88
542.741	3760.88
543.51	3603.88
544.28	3426.88
545.05	3259.88
545.819	3076.88
546.588	2928.88
547.358	2792.88
548.127	2651.88
548.896	2521.88
549.665	2418.88
550.434	2266.88
551.203	2146.88
551.972	2031.88
552.741	1922.88
553.51	1837.88
554.278	1738.88
555.047	1637.88
555.815	1554.88
556.584	1464.88
557.352	1374.88
558.121	1325.88
558.889	1216.88
559.657	1167.88
560.425	1100.88
561.193	1030.88
561.961	971.88
562.729	927.88
563.496	883.88
564.264	822.88
565.032	782.88
565.799	743.88
566.567	691.88
567.334	662.88
568.101	624.88
568.869	591.88
569.636	553.88
570.403	518.88
571.17	491.88
571.937	460.88
572.704	445.88
573.471	413.88
574.237	387.88
575.004	368.88
575.771	353.88
576.537	326.88
577.303	305.88
578.07	290.88
578.836	269.88
579.602	262.88
580.368	240.88
581.134	235.88
581.9	217.88
582.666	208.88
583.432	190.88
584.198	189.88
584.964	183.88
585.729	168.88
586.495	154.88
587.26	152.88
588.025	138.88
588.791	133.88
589.556	132.88
590.321	121.88
591.086	113.88
591.851	103.88
592.616	103.88
593.381	96.88
594.146	90.88
594.911	87.88
595.675	84.88
596.44	81.88
597.204	77.88
597.969	73.88
598.733	68.88
599.497	68.88
600.261	66.88
601.025	61.88
601.79	56.88
602.553	54.88
603.317	54.88
604.081	49.88
604.845	47.88
605.609	45.88
606.372	43.88
607.136	42.88
607.899	40.88
608.662	37.88
609.426	38.88
610.189	36.88
610.952	34.88
611.715	32.88
612.478	33.88
613.241	32.88
614.004	27.88
614.767	28.88
615.529	26.88
616.292	24.88
617.055	24.88
617.817	24.88
618.579	24.88
619.342	22.88
620.104	23.88
620.866	23.88
621.628	20.88
622.39	17.88
623.152	17.88
623.914	20.88
624.676	19.88
625.438	18.88
626.199	19.88
626.961	15.88
627.722	16.88
628.484	12.88
629.245	11.88
630.006	13.88
630.768	15.88
631.529	12.88
632.29	12.88
633.051	10.88
633.812	14.88
634.573	11.88
635.333	12.88
636.094	9.88
636.855	10.88
637.615	9.88
638.376	10.88
639.136	9.88
639.896	9.88
640.657	10.88
641.417	9.88
642.177	8.88
642.937	7.88
643.697	7.88
644.457	10.88
645.216	6.88
645.976	5.88
646.736	8.88
647.495	6.88
648.255	6.88
649.014	7.88
649.774	7.88
650.533	7.88
651.292	5.88
652.051	6.88
652.81	5.88
653.569	6.88
654.328	5.88
655.087	5.88
655.846	4.88
656.604	4.88
657.363	6.88
658.121	4.88
658.88	6.88
659.638	5.88
660.397	5.88
661.155	6.88
661.913	3.88
662.671	6.88
663.429	4.88
664.187	4.88
664.945	3.88
665.703	3.88
666.46	5.88
667.218	4.88
667.976	5.88
668.733	3.88
669.49	3.88
670.248	5.88
671.005	4.88
671.762	6.88
672.519	5.88
673.276	3.88
674.033	3.88
674.79	2.88
675.547	3.88
676.304	4.88
677.06	5.88
677.817	4.88
678.574	2.88
679.33	2.88
680.086	3.88
680.843	3.88
681.599	2.88
682.355	4.88
683.111	4.88
683.867	2.88
684.623	4.88
685.379	1.88
686.135	2.88
686.89	2.88
687.646	4.88
688.402	3.88
689.157	1.88
689.912	3.88
690.668	3.88
691.423	3.88
692.178	1.88
692.933	4.88
693.688	1.88
694.443	1.88
695.198	4.88
695.953	4.88
696.708	1.88
697.462	4.88
698.217	5.88
698.972	2.88
699.726	0.88
700.48	4.88
701.235	0.88
701.989	3.88
702.743	3.88
703.497	2.88
704.251	2.88
705.005	1.88
705.759	4.88
706.513	2.88
707.266	4.88
708.02	1.88
708.774	2.88
709.527	4.88
710.28	2.88
711.034	1.88
711.787	0.88
712.54	3.88
713.293	1.88
714.046	2.88
714.799	4.88
715.552	1.88
716.305	3.88
717.058	4.88
717.81	5.88
718.563	1.88
719.315	3.88
720.068	4.88
720.82	2.88
721.573	4.88
722.325	3.88
723.077	3.88
723.829	1.88
724.581	2.88
725.333	3.88
726.085	3.88
726.836	5.88
727.588	1.88
728.34	4.88
729.091	3.88
729.843	2.88
730.594	3.88
731.346	4.88
732.097	2.88
732.848	2.88
733.599	3.88
734.35	4.88
735.101	2.88
735.852	4.88
736.603	2.88
737.354	4.88
738.104	4.88
738.855	1.88
739.605	1.88
740.356	4.88
741.106	3.88
741.856	1.88
742.607	5.88
743.357	3.88
744.107	3.88
744.857	4.88
745.607	3.88
746.357	4.88
747.106	3.88
747.856	4.88
748.606	3.88
749.355	4.88
750.105	5.88
750.854	3.88
751.603	5.88
752.353	3.88
753.102	4.88
753.851	5.88
754.6	5.88
755.349	6.88
756.098	3.88
756.847	2.88
757.595	4.88
758.344	5.88
759.093	2.88
759.841	2.88
760.589	6.88
761.338	4.88
762.086	4.88
762.834	2.88
763.582	4.88
764.331	5.88
765.079	6.88
765.826	5.88
766.574	7.88
767.322	7.88
768.07	5.88
768.817	3.88
769.565	7.88
770.312	5.88
771.06	8.88
771.807	4.88
772.554	6.88
773.302	7.88
774.049	7.88
774.796	6.88
775.543	5.88
776.29	5.88
777.036	5.88
777.783	5.88
778.53	5.88
779.276	4.88
780.023	6.88
780.769	5.88
781.516	7.88
782.262	8.88
783.008	8.88
783.754	4.88
784.5	5.88
785.246	8.88
785.992	6.88
786.738	6.88
787.484	8.88
788.23	8.88
788.975	6.88
789.721	6.88
790.466	6.88
791.212	6.88
791.957	8.88
792.702	8.88
793.447	4.88
794.193	7.88
794.938	8.88
795.683	6.88
796.427	7.88
797.172	7.88
797.917	7.88
798.662	4.88
799.406	7.88
800.151	7.88
800.895	8.88
801.64	3.88
802.384	6.88
803.128	6.88
803.872	4.88
804.616	6.88
805.36	4.88
806.104	5.88
806.848	7.88
807.592	5.88
808.336	6.88
809.079	4.88
809.823	6.88
810.566	2.88
811.31	5.88
812.053	4.88
812.796	5.88
813.539	6.88
814.283	4.88
815.026	6.88
815.769	5.88
816.511	4.88
817.254	5.88
817.997	3.88
818.74	5.88
819.482	2.88
820.225	3.88
820.967	3.88
821.71	4.88
822.452	0.88
823.194	3.88
823.936	3.88
824.678	1.88
825.42	5.88
826.162	4.88
826.904	3.88
827.646	0.88
828.388	2.88
829.129	3.88
829.871	3.88
830.612	4.88
831.354	3.88
832.095	1.88
832.836	4.88
833.577	2.88
834.319	1.88
835.06	-0.12
835.801	1.88
836.542	5.88
837.282	1.88
838.023	4.88
838.764	1.88
839.504	2.88
840.245	2.88
840.985	1.88
841.726	0.88
842.466	0.88
843.206	1.88
843.946	4.88
844.687	3.88
845.427	2.88
846.166	1.88
846.906	2.88
847.646	1.88
848.386	1.88
849.125	2.88
849.865	2.88
850.605	1.88
851.344	0.88
852.083	1.88
852.823	-0.12
853.562	1.88
854.301	2.88
855.04	1.88
855.779	1.88
856.518	1.88
857.257	1.88
857.995	2.88
858.734	3.88
859.473	1.88
860.211	2.88
860.95	-0.12
861.688	2.88
862.426	3.88
863.165	-0.12
863.903	1.88
864.641	1.88
865.379	-0.12
866.117	3.88
866.855	1.88
867.593	2.88
868.33	0.88
869.068	1.88
869.806	1.88
870.543	-1.12
871.28	0.88
872.018	-0.12
872.755	0.88
873.492	1.88
874.229	0.88
874.967	0.88
875.703	-0.12
876.44	-0.12
877.177	0.88
877.914	0.88
878.651	0.88
879.387	-0.12
880.124	-0.12
880.86	-0.12
881.597	2.88
882.333	2.88
883.069	-0.12
883.806	2.88
884.542	-0.12
885.278	1.88
886.014	0.88
886.749	1.88
887.485	1.88
888.221	1.88
888.957	-2.12
889.692	0.88
890.428	1.88
891.163	0.88
891.899	-0.12
892.634	-0.12
893.369	-2.12
894.104	1.88
894.839	-1.12
895.574	-0.12
896.309	0.88
897.044	1.88
897.779	-0.12
898.514	-0.12
899.248	1.88
899.983	-1.12
900.717	-0.12
901.452	1.88
902.186	-1.12
902.92	0.88
903.654	0.88
904.389	1.88
905.123	-0.12
905.857	-0.12
906.59	-2.12
907.324	0.88
908.058	0.88
908.792	-2.12
909.525	0.88
910.259	-1.12
910.992	0.88
911.726	1.88
912.459	-1.12
913.192	0.88
913.925	0.88
914.658	-0.12
915.391	-0.12
916.124	-0.12
916.857	1.88
917.59	-2.12
918.323	1.88
919.055	-2.12
919.788	-0.12
920.521	0.88
921.253	-0.12
921.985	0.88
922.718	-0.12
923.45	-1.12
924.182	-2.12
924.914	-1.12
925.646	-0.12
926.378	0.88
927.11	0.88
927.841	1.88
928.573	-0.12
929.305	-1.12
930.036	0.88
930.768	0.88
931.499	1.88
932.23	0.88
932.962	0.88
933.693	-1.12
934.424	-0.12
935.155	-1.12
935.886	-0.12
936.617	-0.12
937.348	-0.12
938.078	0.88
938.809	-0.12
939.54	-0.12
940.27	0.88
941.001	-2.12
941.731	-2.12
942.461	0.88
943.191	-3.12
943.922	-0.12
944.652	0.88
945.382	-0.12
946.112	-1.12
946.841	-2.12
947.571	2.88
948.301	-1.12
949.031	-0.12
949.76	-1.12
950.49	0.88
951.219	-1.12
951.948	0.88
952.678	1.88
953.407	-2.12
954.136	0.88
954.865	1.88
955.594	-0.12
956.323	-0.12
957.052	-0.12
957.78	0.88
958.509	-0.12
959.238	-0.12
959.966	-2.12
960.695	-0.12
961.423	-1.12
962.151	-0.12
962.88	0.88
963.608	-1.12
964.336	-1.12
965.064	0.88
965.792	-2.12
966.52	-0.12
967.247	-0.12
967.975	-0.12
968.703	-0.12
969.43	-1.12
970.158	-0.12
970.885	-0.12
971.613	1.88
972.34	0.88
973.067	1.88
973.794	0.88
974.521	0.88
975.248	1.88
975.975	0.88
976.702	-1.12
977.429	0.88
978.156	-0.12
978.882	-0.12
979.609	0.88
980.335	1.88
981.062	-0.12
981.788	2.88
982.514	-1.12
983.24	-0.12
983.967	-0.12
984.693	-0.12
985.419	0.88
986.144	0.88
986.87	0.88
987.596	-2.12
988.322	1.88
989.047	-0.12
989.773	-2.12
990.498	0.88
991.224	-0.12
991.949	-0.12
992.674	-3.12
993.399	-0.12
994.124	-1.12
994.849	-0.12
995.574	0.88
996.299	-0.12
997.024	0.88
997.749	0.88
998.473	0.88
999.198	0.88
999.922	0.88
1000.647	-0.12
1001.371	3.88
1002.095	-0.12
1002.82	0.88
1003.544	-2.12
1004.268	2.88
1004.992	0.88
1005.716	-0.12
1006.439	2.88
1007.163	0.88
1007.887	1.88
1008.611	0.88
1009.334	-1.12
1010.058	0.88
1010.781	1.88
1011.504	0.88
1012.228	-0.12
1012.951	0.88
1013.674	-1.12
1014.397	-4.12
1015.12	1.88
