节点500_285_QEPB04081__643__15-06-15-048.txt的数据

Date: Wed Nov 12 15:06:15 CST 2025
User: PC
Spectrometer: QEPB0408
触发模式: 0
积分时间 (秒): 1.000000E-2
Scans to average: 1
启用暗噪声校正: true
启用非线性校正: false
滑动平均宽度: 0
X轴模式: Wavelengths
Number of Pixels in Spectrum: 1044
>>>>>Begin Spectral Data<<<<<
220.843	1.25
221.644	2.25
222.444	2.25
223.244	1.25
224.045	1.25
224.845	1.25
225.645	1.25
226.445	1.25
227.245	5.25
228.045	2.25
228.845	4.25
229.645	2.25
230.444	3.25
231.244	4.25
232.043	3.25
232.843	2.25
233.642	2.25
234.442	1.25
235.241	5.25
236.04	4.25
236.839	3.25
237.638	4.25
238.437	1.25
239.236	2.25
240.035	4.25
240.833	6.25
241.632	5.25
242.43	4.25
243.229	4.25
244.027	7.25
244.826	5.25
245.624	6.25
246.422	5.25
247.22	2.25
248.018	6.25
248.816	7.25
249.614	4.25
250.412	5.25
251.21	6.25
252.007	6.25
252.805	5.25
253.602	9.25
254.4	8.25
255.197	8.25
255.994	7.25
256.791	9.25
257.589	9.25
258.386	8.25
259.183	7.25
259.979	9.25
260.776	10.25
261.573	10.25
262.37	9.25
263.166	12.25
263.963	11.25
264.759	10.25
265.556	10.25
266.352	13.25
267.148	13.25
267.944	11.25
268.74	11.25
269.536	12.25
270.332	13.25
271.128	14.25
271.924	14.25
272.719	14.25
273.515	13.25
274.311	14.25
275.106	16.25
275.901	14.25
276.697	17.25
277.492	17.25
278.287	17.25
279.082	17.25
279.877	19.25
280.672	21.25
281.467	17.25
282.262	18.25
283.056	19.25
283.851	20.25
284.646	20.25
285.44	16.25
286.234	20.25
287.029	20.25
287.823	19.25
288.617	17.25
289.411	18.25
290.205	18.25
290.999	16.25
291.793	17.25
292.587	16.25
293.381	18.25
294.174	16.25
294.968	17.25
295.761	16.25
296.555	10.25
297.348	14.25
298.141	14.25
298.935	16.25
299.728	13.25
300.521	16.25
301.314	12.25
302.107	14.25
302.899	12.25
303.692	12.25
304.485	9.25
305.277	14.25
306.07	9.25
306.862	12.25
307.655	12.25
308.447	14.25
309.239	9.25
310.031	10.25
310.823	12.25
311.615	7.25
312.407	12.25
313.199	13.25
313.991	10.25
314.783	10.25
315.574	9.25
316.366	10.25
317.157	7.25
317.949	11.25
318.74	8.25
319.531	6.25
320.322	8.25
321.113	6.25
321.904	8.25
322.695	8.25
323.486	8.25
324.277	8.25
325.068	8.25
325.858	4.25
326.649	5.25
327.439	8.25
328.23	6.25
329.02	6.25
329.81	6.25
330.6	6.25
331.391	7.25
332.181	7.25
332.971	5.25
333.76	6.25
334.55	8.25
335.34	8.25
336.13	9.25
336.919	5.25
337.709	5.25
338.498	5.25
339.287	6.25
340.077	6.25
340.866	7.25
341.655	7.25
342.444	6.25
343.233	5.25
344.022	6.25
344.811	7.25
345.6	6.25
346.388	6.25
347.177	4.25
347.965	7.25
348.754	7.25
349.542	7.25
350.33	7.25
351.119	4.25
351.907	5.25
352.695	4.25
353.483	7.25
354.271	6.25
355.059	5.25
355.846	5.25
356.634	4.25
357.422	6.25
358.209	4.25
358.997	6.25
359.784	4.25
360.571	4.25
361.359	3.25
362.146	5.25
362.933	6.25
363.72	5.25
364.507	6.25
365.294	4.25
366.081	6.25
366.867	6.25
367.654	5.25
368.44	4.25
369.227	5.25
370.013	7.25
370.8	4.25
371.586	5.25
372.372	7.25
373.158	6.25
373.944	6.25
374.73	7.25
375.516	4.25
376.302	8.25
377.088	4.25
377.873	4.25
378.659	4.25
379.445	4.25
380.23	7.25
381.015	5.25
381.801	5.25
382.586	4.25
383.371	6.25
384.156	7.25
384.941	5.25
385.726	5.25
386.511	4.25
387.296	5.25
388.08	6.25
388.865	4.25
389.649	4.25
390.434	6.25
391.218	5.25
392.003	6.25
392.787	5.25
393.571	5.25
394.355	7.25
395.139	6.25
395.923	6.25
396.707	6.25
397.491	6.25
398.274	6.25
399.058	8.25
399.842	8.25
400.625	7.25
401.408	6.25
402.192	7.25
402.975	7.25
403.758	8.25
404.541	7.25
405.324	6.25
406.107	4.25
406.89	8.25
407.673	9.25
408.456	6.25
409.238	8.25
410.021	8.25
410.803	9.25
411.586	8.25
412.368	9.25
413.151	8.25
413.933	7.25
414.715	9.25
415.497	9.25
416.279	12.25
417.061	10.25
417.843	6.25
418.624	11.25
419.406	9.25
420.188	9.25
420.969	10.25
421.751	11.25
422.532	12.25
423.313	12.25
424.095	9.25
424.876	10.25
425.657	14.25
426.438	12.25
427.219	11.25
428	14.25
428.78	12.25
429.561	14.25
430.342	16.25
431.122	14.25
431.903	15.25
432.683	14.25
433.464	16.25
434.244	13.25
435.024	18.25
435.804	17.25
436.584	18.25
437.364	20.25
438.144	21.25
438.924	22.25
439.704	20.25
440.483	23.25
441.263	23.25
442.042	26.25
442.822	29.25
443.601	27.25
444.38	31.25
445.16	29.25
445.939	37.25
446.718	41.25
447.497	40.25
448.276	41.25
449.054	45.25
449.833	48.25
450.612	54.25
451.391	64.25
452.169	66.25
452.948	73.25
453.726	82.25
454.504	90.25
455.282	95.25
456.061	104.25
456.839	122.25
457.617	133.25
458.395	147.25
459.172	161.25
459.95	181.25
460.728	203.25
461.506	227.25
462.283	254.25
463.061	287.25
463.838	308.25
464.615	344.25
465.393	390.25
466.17	428.25
466.947	478.25
467.724	525.25
468.501	596.25
469.278	657.25
470.055	727.25
470.831	805.25
471.608	905.25
472.385	988.25
473.161	1095.25
473.938	1198.25
474.714	1328.25
475.49	1466.25
476.266	1591.25
477.043	1757.25
477.819	1939.25
478.595	2137.25
479.371	2347.25
480.146	2570.25
480.922	2820.25
481.698	3110.25
482.473	3375.25
483.249	3721.25
484.024	4041.25
484.8	4441.25
485.575	4845.25
486.35	5283.25
487.126	5761.25
487.901	6285.25
488.676	6901.25
489.451	7501.25
490.225	8183.25
491	8840.25
491.775	9642.25
492.55	10512.25
493.324	11330.25
494.099	12183.25
494.873	13058.25
495.647	14083.25
496.422	15116.25
497.196	16167.25
497.97	17264.25
498.744	18367.25
499.518	19363.25
500.292	20481.25
501.066	21485.25
501.839	22442.25
502.613	23330.25
503.387	24200.25
504.16	24846.25
504.934	25348.25
505.707	25611.25
506.48	25851.25
507.253	25941.25
508.027	25823.25
508.8	25717.25
509.573	25476.25
510.346	25074.25
511.118	24434.25
511.891	23842.25
512.664	23048.25
513.437	22368.25
514.209	21559.25
514.982	20757.25
515.754	19870.25
516.526	19062.25
517.298	18258.25
518.071	17554.25
518.843	16835.25
519.615	16302.25
520.387	15601.25
521.159	15017.25
521.93	14324.25
522.702	13828.25
523.474	13242.25
524.245	12670.25
525.017	12149.25
525.788	11673.25
526.56	11161.25
527.331	10647.25
528.102	10217.25
528.873	9761.25
529.644	9324.25
530.415	8875.25
531.186	8441.25
531.957	8021.25
532.728	7631.25
533.498	7261.25
534.269	6861.25
535.039	6502.25
535.81	6118.25
536.58	5772.25
537.351	5439.25
538.121	5172.25
538.891	4914.25
539.661	4640.25
540.431	4366.25
541.201	4112.25
541.971	3945.25
542.741	3711.25
543.51	3520.25
544.28	3360.25
545.05	3198.25
545.819	3037.25
546.588	2892.25
547.358	2740.25
548.127	2632.25
548.896	2494.25
549.665	2362.25
550.434	2227.25
551.203	2106.25
551.972	1987.25
552.741	1872.25
553.51	1801.25
554.278	1688.25
555.047	1619.25
555.815	1511.25
556.584	1428.25
557.352	1360.25
558.121	1281.25
558.889	1213.25
559.657	1136.25
560.425	1082.25
561.193	1012.25
561.961	962.25
562.729	906.25
563.496	863.25
564.264	809.25
565.032	764.25
565.799	724.25
566.567	682.25
567.334	651.25
568.101	612.25
568.869	578.25
569.636	542.25
570.403	507.25
571.17	474.25
571.937	458.25
572.704	437.25
573.471	413.25
574.237	380.25
575.004	360.25
575.771	346.25
576.537	321.25
577.303	302.25
578.07	279.25
578.836	271.25
579.602	251.25
580.368	241.25
581.134	227.25
581.9	219.25
582.666	201.25
583.432	190.25
584.198	180.25
584.964	168.25
585.729	165.25
586.495	157.25
587.26	146.25
588.025	139.25
588.791	130.25
589.556	126.25
590.321	117.25
591.086	114.25
591.851	106.25
592.616	100.25
593.381	93.25
594.146	96.25
594.911	86.25
595.675	85.25
596.44	84.25
597.204	75.25
597.969	75.25
598.733	70.25
599.497	65.25
600.261	64.25
601.025	55.25
601.79	56.25
602.553	55.25
603.317	50.25
604.081	48.25
604.845	49.25
605.609	44.25
606.372	43.25
607.136	43.25
607.899	42.25
608.662	41.25
609.426	38.25
610.189	36.25
610.952	34.25
611.715	31.25
612.478	32.25
613.241	32.25
614.004	30.25
614.767	26.25
615.529	28.25
616.292	26.25
617.055	26.25
617.817	24.25
618.579	25.25
619.342	21.25
620.104	21.25
620.866	22.25
621.628	21.25
622.39	21.25
623.152	19.25
623.914	19.25
624.676	17.25
625.438	16.25
626.199	18.25
626.961	13.25
627.722	14.25
628.484	15.25
629.245	17.25
630.006	14.25
630.768	12.25
631.529	15.25
632.29	12.25
633.051	10.25
633.812	14.25
634.573	14.25
635.333	13.25
636.094	9.25
636.855	14.25
637.615	9.25
638.376	11.25
639.136	12.25
639.896	9.25
640.657	11.25
641.417	9.25
642.177	10.25
642.937	8.25
643.697	10.25
644.457	10.25
645.216	9.25
645.976	10.25
646.736	7.25
647.495	10.25
648.255	7.25
649.014	7.25
649.774	8.25
650.533	8.25
651.292	6.25
652.051	7.25
652.81	7.25
653.569	7.25
654.328	8.25
655.087	5.25
655.846	7.25
656.604	6.25
657.363	6.25
658.121	7.25
658.88	5.25
659.638	8.25
660.397	5.25
661.155	5.25
661.913	8.25
662.671	4.25
663.429	7.25
664.187	4.25
664.945	6.25
665.703	4.25
666.46	7.25
667.218	4.25
667.976	6.25
668.733	5.25
669.49	4.25
670.248	6.25
671.005	5.25
671.762	3.25
672.519	5.25
673.276	2.25
674.033	6.25
674.79	5.25
675.547	3.25
676.304	4.25
677.06	4.25
677.817	5.25
678.574	3.25
679.33	5.25
680.086	4.25
680.843	5.25
681.599	3.25
682.355	5.25
683.111	5.25
683.867	4.25
684.623	4.25
685.379	3.25
686.135	2.25
686.89	2.25
687.646	4.25
688.402	5.25
689.157	4.25
689.912	6.25
690.668	5.25
691.423	2.25
692.178	1.25
692.933	3.25
693.688	5.25
694.443	1.25
695.198	3.25
695.953	5.25
696.708	3.25
697.462	6.25
698.217	3.25
698.972	6.25
699.726	2.25
700.48	2.25
701.235	4.25
701.989	4.25
702.743	5.25
703.497	3.25
704.251	5.25
705.005	4.25
705.759	4.25
706.513	5.25
707.266	4.25
708.02	4.25
708.774	4.25
709.527	3.25
710.28	3.25
711.034	3.25
711.787	3.25
712.54	2.25
713.293	4.25
714.046	2.25
714.799	5.25
715.552	4.25
716.305	4.25
717.058	6.25
717.81	2.25
718.563	2.25
719.315	4.25
720.068	3.25
720.82	5.25
721.573	2.25
722.325	6.25
723.077	2.25
723.829	5.25
724.581	5.25
725.333	5.25
726.085	2.25
726.836	4.25
727.588	4.25
728.34	6.25
729.091	2.25
729.843	4.25
730.594	4.25
731.346	6.25
732.097	3.25
732.848	1.25
733.599	3.25
734.35	3.25
735.101	5.25
735.852	3.25
736.603	5.25
737.354	4.25
738.104	4.25
738.855	4.25
739.605	4.25
740.356	4.25
741.106	5.25
741.856	3.25
742.607	5.25
743.357	2.25
744.107	4.25
744.857	3.25
745.607	5.25
746.357	4.25
747.106	6.25
747.856	5.25
748.606	3.25
749.355	5.25
750.105	4.25
750.854	5.25
751.603	4.25
752.353	6.25
753.102	7.25
753.851	4.25
754.6	5.25
755.349	4.25
756.098	7.25
756.847	5.25
757.595	7.25
758.344	7.25
759.093	3.25
759.841	5.25
760.589	4.25
761.338	4.25
762.086	6.25
762.834	8.25
763.582	8.25
764.331	5.25
765.079	7.25
765.826	4.25
766.574	6.25
767.322	8.25
768.07	7.25
768.817	9.25
769.565	6.25
770.312	7.25
771.06	6.25
771.807	9.25
772.554	7.25
773.302	9.25
774.049	8.25
774.796	7.25
775.543	6.25
776.29	9.25
777.036	8.25
777.783	8.25
778.53	8.25
779.276	8.25
780.023	6.25
780.769	10.25
781.516	8.25
782.262	6.25
783.008	9.25
783.754	8.25
784.5	10.25
785.246	7.25
785.992	8.25
786.738	7.25
787.484	9.25
788.23	9.25
788.975	8.25
789.721	8.25
790.466	9.25
791.212	7.25
791.957	8.25
792.702	7.25
793.447	8.25
794.193	9.25
794.938	10.25
795.683	7.25
796.427	8.25
797.172	7.25
797.917	7.25
798.662	7.25
799.406	6.25
800.151	9.25
800.895	8.25
801.64	5.25
802.384	9.25
803.128	6.25
803.872	6.25
804.616	4.25
805.36	5.25
806.104	6.25
806.848	5.25
807.592	8.25
808.336	7.25
809.079	7.25
809.823	6.25
810.566	5.25
811.31	5.25
812.053	5.25
812.796	7.25
813.539	6.25
814.283	5.25
815.026	4.25
815.769	8.25
816.511	3.25
817.254	6.25
817.997	6.25
818.74	4.25
819.482	5.25
820.225	5.25
820.967	2.25
821.71	4.25
822.452	5.25
823.194	4.25
823.936	6.25
824.678	6.25
825.42	5.25
826.162	3.25
826.904	5.25
827.646	5.25
828.388	4.25
829.129	4.25
829.871	3.25
830.612	6.25
831.354	3.25
832.095	7.25
832.836	2.25
833.577	1.25
834.319	1.25
835.06	2.25
835.801	3.25
836.542	1.25
837.282	5.25
838.023	3.25
838.764	4.25
839.504	2.25
840.245	2.25
840.985	3.25
841.726	5.25
842.466	3.25
843.206	3.25
843.946	2.25
844.687	2.25
845.427	3.25
846.166	3.25
846.906	-0.75
847.646	2.25
848.386	2.25
849.125	1.25
849.865	5.25
850.605	4.25
851.344	3.25
852.083	4.25
852.823	3.25
853.562	5.25
854.301	0.25
855.04	4.25
855.779	4.25
856.518	5.25
857.257	3.25
857.995	3.25
858.734	4.25
859.473	1.25
860.211	2.25
860.95	3.25
861.688	4.25
862.426	3.25
863.165	2.25
863.903	0.25
864.641	3.25
865.379	2.25
866.117	2.25
866.855	6.25
867.593	0.25
868.33	1.25
869.068	2.25
869.806	-0.75
870.543	1.25
871.28	2.25
872.018	3.25
872.755	1.25
873.492	1.25
874.229	1.25
874.967	0.25
875.703	1.25
876.44	3.25
877.177	2.25
877.914	3.25
878.651	3.25
879.387	0.25
880.124	2.25
880.86	-0.75
881.597	1.25
882.333	2.25
883.069	1.25
883.806	1.25
884.542	1.25
885.278	0.25
886.014	1.25
886.749	2.25
887.485	1.25
888.221	3.25
888.957	0.25
889.692	0.25
890.428	3.25
891.163	1.25
891.899	3.25
892.634	3.25
893.369	-1.75
894.104	1.25
894.839	1.25
895.574	0.25
896.309	2.25
897.044	0.25
897.779	0.25
898.514	2.25
899.248	0.25
899.983	1.25
900.717	3.25
901.452	3.25
902.186	1.25
902.92	-0.75
903.654	1.25
904.389	0.25
905.123	2.25
905.857	0.25
906.59	2.25
907.324	0.25
908.058	0.25
908.792	2.25
909.525	-0.75
910.259	3.25
910.992	0.25
911.726	-0.75
912.459	0.25
913.192	1.25
913.925	2.25
914.658	2.25
915.391	1.25
916.124	2.25
916.857	0.25
917.59	1.25
918.323	-0.75
919.055	2.25
919.788	0.25
920.521	-1.75
921.253	-1.75
921.985	0.25
922.718	1.25
923.45	0.25
924.182	0.25
924.914	0.25
925.646	0.25
926.378	-0.75
927.11	-1.75
927.841	1.25
928.573	2.25
929.305	0.25
930.036	0.25
930.768	0.25
931.499	-0.75
932.23	2.25
932.962	0.25
933.693	-1.75
934.424	1.25
935.155	2.25
935.886	2.25
936.617	2.25
937.348	0.25
938.078	1.25
938.809	1.25
939.54	-1.75
940.27	0.25
941.001	-0.75
941.731	1.25
942.461	1.25
943.191	1.25
943.922	2.25
944.652	1.25
945.382	0.25
946.112	-0.75
946.841	-1.75
947.571	1.25
948.301	2.25
949.031	2.25
949.76	2.25
950.49	2.25
951.219	2.25
951.948	1.25
952.678	0.25
953.407	0.25
954.136	0.25
954.865	-0.75
955.594	0.25
956.323	-0.75
957.052	1.25
957.78	1.25
958.509	1.25
959.238	2.25
959.966	1.25
960.695	0.25
961.423	1.25
962.151	0.25
962.88	1.25
963.608	-0.75
964.336	0.25
965.064	-1.75
965.792	1.25
966.52	1.25
967.247	0.25
967.975	0.25
968.703	0.25
969.43	-1.75
970.158	0.25
970.885	3.25
971.613	1.25
972.34	1.25
973.067	-0.75
973.794	-1.75
974.521	2.25
975.248	-0.75
975.975	-0.75
976.702	2.25
977.429	1.25
978.156	-0.75
978.882	-1.75
979.609	-0.75
980.335	-0.75
981.062	1.25
981.788	0.25
982.514	-0.75
983.24	0.25
983.967	1.25
984.693	1.25
985.419	0.25
986.144	0.25
986.87	0.25
987.596	-1.75
988.322	-0.75
989.047	-1.75
989.773	0.25
990.498	1.25
991.224	-0.75
991.949	2.25
992.674	0.25
993.399	0.25
994.124	0.25
994.849	1.25
995.574	1.25
996.299	0.25
997.024	2.25
997.749	-0.75
998.473	1.25
999.198	2.25
999.922	2.25
1000.647	1.25
1001.371	4.25
1002.095	-2.75
1002.82	1.25
1003.544	-2.75
1004.268	0.25
1004.992	1.25
1005.716	1.25
1006.439	2.25
1007.163	3.25
1007.887	3.25
1008.611	1.25
1009.334	0.25
1010.058	2.25
1010.781	1.25
1011.504	0.25
1012.228	0.25
1012.951	0.25
1013.674	0.25
1014.397	1.25
1015.12	-1.75
