节点500_285_QEPB04081__854__15-09-45-715.txt的数据

Date: Wed Nov 12 15:09:45 CST 2025
User: PC
Spectrometer: QEPB0408
触发模式: 0
积分时间 (秒): 1.000000E-2
Scans to average: 1
启用暗噪声校正: true
启用非线性校正: false
滑动平均宽度: 0
X轴模式: Wavelengths
Number of Pixels in Spectrum: 1044
>>>>>Begin Spectral Data<<<<<
220.843	1.12
221.644	2.12
222.444	2.12
223.244	1.12
224.045	1.12
224.845	2.12
225.645	2.12
226.445	2.12
227.245	1.12
228.045	3.12
228.845	3.12
229.645	2.12
230.444	3.12
231.244	2.12
232.043	3.12
232.843	4.12
233.642	3.12
234.442	3.12
235.241	5.12
236.04	2.12
236.839	5.12
237.638	2.12
238.437	3.12
239.236	4.12
240.035	4.12
240.833	3.12
241.632	6.12
242.43	7.12
243.229	7.12
244.027	3.12
244.826	3.12
245.624	4.12
246.422	5.12
247.22	6.12
248.018	5.12
248.816	5.12
249.614	6.12
250.412	6.12
251.21	7.12
252.007	8.12
252.805	7.12
253.602	7.12
254.4	6.12
255.197	3.12
255.994	8.12
256.791	7.12
257.589	6.12
258.386	7.12
259.183	8.12
259.979	8.12
260.776	9.12
261.573	11.12
262.37	10.12
263.166	9.12
263.963	10.12
264.759	10.12
265.556	12.12
266.352	12.12
267.148	11.12
267.944	10.12
268.74	12.12
269.536	11.12
270.332	11.12
271.128	13.12
271.924	12.12
272.719	14.12
273.515	13.12
274.311	12.12
275.106	12.12
275.901	15.12
276.697	15.12
277.492	17.12
278.287	15.12
279.082	17.12
279.877	17.12
280.672	16.12
281.467	16.12
282.262	16.12
283.056	16.12
283.851	16.12
284.646	16.12
285.44	16.12
286.234	16.12
287.029	20.12
287.823	16.12
288.617	17.12
289.411	16.12
290.205	18.12
290.999	13.12
291.793	16.12
292.587	15.12
293.381	15.12
294.174	13.12
294.968	14.12
295.761	16.12
296.555	14.12
297.348	17.12
298.141	14.12
298.935	17.12
299.728	14.12
300.521	14.12
301.314	14.12
302.107	12.12
302.899	13.12
303.692	14.12
304.485	11.12
305.277	14.12
306.07	12.12
306.862	14.12
307.655	13.12
308.447	12.12
309.239	12.12
310.031	11.12
310.823	10.12
311.615	9.12
312.407	9.12
313.199	8.12
313.991	11.12
314.783	10.12
315.574	9.12
316.366	9.12
317.157	7.12
317.949	7.12
318.74	10.12
319.531	5.12
320.322	7.12
321.113	6.12
321.904	8.12
322.695	7.12
323.486	10.12
324.277	6.12
325.068	7.12
325.858	7.12
326.649	7.12
327.439	9.12
328.23	7.12
329.02	5.12
329.81	6.12
330.6	7.12
331.391	6.12
332.181	7.12
332.971	7.12
333.76	8.12
334.55	8.12
335.34	6.12
336.13	7.12
336.919	6.12
337.709	4.12
338.498	6.12
339.287	4.12
340.077	8.12
340.866	5.12
341.655	5.12
342.444	5.12
343.233	5.12
344.022	5.12
344.811	7.12
345.6	6.12
346.388	7.12
347.177	7.12
347.965	6.12
348.754	3.12
349.542	7.12
350.33	8.12
351.119	5.12
351.907	6.12
352.695	7.12
353.483	7.12
354.271	5.12
355.059	5.12
355.846	3.12
356.634	6.12
357.422	5.12
358.209	5.12
358.997	5.12
359.784	7.12
360.571	6.12
361.359	6.12
362.146	4.12
362.933	5.12
363.72	4.12
364.507	7.12
365.294	8.12
366.081	5.12
366.867	5.12
367.654	4.12
368.44	4.12
369.227	5.12
370.013	7.12
370.8	6.12
371.586	5.12
372.372	7.12
373.158	5.12
373.944	4.12
374.73	4.12
375.516	5.12
376.302	5.12
377.088	2.12
377.873	5.12
378.659	5.12
379.445	6.12
380.23	5.12
381.015	6.12
381.801	5.12
382.586	4.12
383.371	6.12
384.156	4.12
384.941	4.12
385.726	5.12
386.511	4.12
387.296	5.12
388.08	6.12
388.865	3.12
389.649	6.12
390.434	7.12
391.218	6.12
392.003	7.12
392.787	6.12
393.571	5.12
394.355	7.12
395.139	6.12
395.923	5.12
396.707	4.12
397.491	5.12
398.274	5.12
399.058	7.12
399.842	7.12
400.625	7.12
401.408	8.12
402.192	7.12
402.975	4.12
403.758	10.12
404.541	5.12
405.324	7.12
406.107	7.12
406.89	6.12
407.673	6.12
408.456	8.12
409.238	8.12
410.021	8.12
410.803	9.12
411.586	8.12
412.368	8.12
413.151	9.12
413.933	6.12
414.715	9.12
415.497	9.12
416.279	9.12
417.061	9.12
417.843	8.12
418.624	12.12
419.406	9.12
420.188	10.12
420.969	10.12
421.751	10.12
422.532	10.12
423.313	9.12
424.095	12.12
424.876	10.12
425.657	10.12
426.438	12.12
427.219	12.12
428	10.12
428.78	13.12
429.561	12.12
430.342	14.12
431.122	17.12
431.903	14.12
432.683	14.12
433.464	14.12
434.244	16.12
435.024	16.12
435.804	17.12
436.584	18.12
437.364	17.12
438.144	18.12
438.924	21.12
439.704	20.12
440.483	22.12
441.263	24.12
442.042	27.12
442.822	26.12
443.601	28.12
444.38	33.12
445.16	34.12
445.939	34.12
446.718	38.12
447.497	43.12
448.276	44.12
449.054	47.12
449.833	57.12
450.612	57.12
451.391	64.12
452.169	69.12
452.948	78.12
453.726	85.12
454.504	91.12
455.282	106.12
456.061	113.12
456.839	123.12
457.617	145.12
458.395	154.12
459.172	172.12
459.95	191.12
460.728	211.12
461.506	240.12
462.283	270.12
463.061	293.12
463.838	330.12
464.615	361.12
465.393	397.12
466.17	433.12
466.947	493.12
467.724	554.12
468.501	601.12
469.278	673.12
470.055	731.12
470.831	817.12
471.608	903.12
472.385	1007.12
473.161	1088.12
473.938	1218.12
474.714	1340.12
475.49	1472.12
476.266	1611.12
477.043	1770.12
477.819	1950.12
478.595	2103.12
479.371	2349.12
480.146	2540.12
480.922	2775.12
481.698	3050.12
482.473	3329.12
483.249	3605.12
484.024	3964.12
484.8	4312.12
485.575	4668.12
486.35	5095.12
487.126	5559.12
487.901	6044.12
488.676	6567.12
489.451	7154.12
490.225	7776.12
491	8426.12
491.775	9141.12
492.55	9910.12
493.324	10687.12
494.099	11468.12
494.873	12288.12
495.647	13197.12
496.422	14125.12
497.196	15143.12
497.97	16117.12
498.744	17120.12
499.518	18119.12
500.292	19191.12
501.066	20128.12
501.839	21119.12
502.613	21968.12
503.387	22834.12
504.16	23566.12
504.934	24071.12
505.707	24392.12
506.48	24679.12
507.253	24842.12
508.027	24894.12
508.8	24880.12
509.573	24798.12
510.346	24411.12
511.118	23950.12
511.891	23392.12
512.664	22830.12
513.437	22187.12
514.209	21382.12
514.982	20698.12
515.754	19869.12
516.526	19033.12
517.298	18344.12
518.071	17593.12
518.843	16966.12
519.615	16274.12
520.387	15676.12
521.159	15050.12
521.93	14392.12
522.702	13862.12
523.474	13349.12
524.245	12712.12
525.017	12225.12
525.788	11762.12
526.56	11260.12
527.331	10721.12
528.102	10286.12
528.873	9849.12
529.644	9396.12
530.415	9040.12
531.186	8586.12
531.957	8165.12
532.728	7783.12
533.498	7373.12
534.269	6985.12
535.039	6643.12
535.81	6288.12
536.58	5946.12
537.351	5636.12
538.121	5296.12
538.891	5011.12
539.661	4735.12
540.431	4497.12
541.201	4248.12
541.971	4015.12
542.741	3817.12
543.51	3638.12
544.28	3446.12
545.05	3286.12
545.819	3116.12
546.588	2952.12
547.358	2814.12
548.127	2684.12
548.896	2559.12
549.665	2404.12
550.434	2313.12
551.203	2173.12
551.972	2055.12
552.741	1954.12
553.51	1849.12
554.278	1747.12
555.047	1657.12
555.815	1566.12
556.584	1480.12
557.352	1386.12
558.121	1320.12
558.889	1244.12
559.657	1179.12
560.425	1104.12
561.193	1034.12
561.961	998.12
562.729	949.12
563.496	874.12
564.264	832.12
565.032	799.12
565.799	745.12
566.567	717.12
567.334	674.12
568.101	629.12
568.869	607.12
569.636	558.12
570.403	527.12
571.17	497.12
571.937	470.12
572.704	445.12
573.471	420.12
574.237	397.12
575.004	378.12
575.771	349.12
576.537	329.12
577.303	303.12
578.07	299.12
578.836	282.12
579.602	261.12
580.368	243.12
581.134	236.12
581.9	225.12
582.666	209.12
583.432	195.12
584.198	191.12
584.964	187.12
585.729	166.12
586.495	160.12
587.26	158.12
588.025	145.12
588.791	136.12
589.556	131.12
590.321	122.12
591.086	117.12
591.851	109.12
592.616	107.12
593.381	99.12
594.146	94.12
594.911	91.12
595.675	87.12
596.44	83.12
597.204	77.12
597.969	75.12
598.733	71.12
599.497	71.12
600.261	64.12
601.025	62.12
601.79	61.12
602.553	54.12
603.317	57.12
604.081	53.12
604.845	50.12
605.609	44.12
606.372	45.12
607.136	44.12
607.899	39.12
608.662	39.12
609.426	39.12
610.189	36.12
610.952	33.12
611.715	34.12
612.478	33.12
613.241	31.12
614.004	30.12
614.767	32.12
615.529	28.12
616.292	26.12
617.055	27.12
617.817	25.12
618.579	25.12
619.342	22.12
620.104	22.12
620.866	20.12
621.628	22.12
622.39	20.12
623.152	19.12
623.914	20.12
624.676	20.12
625.438	15.12
626.199	16.12
626.961	17.12
627.722	18.12
628.484	17.12
629.245	16.12
630.006	16.12
630.768	17.12
631.529	13.12
632.29	12.12
633.051	10.12
633.812	15.12
634.573	13.12
635.333	12.12
636.094	12.12
636.855	9.12
637.615	12.12
638.376	11.12
639.136	11.12
639.896	13.12
640.657	11.12
641.417	9.12
642.177	9.12
642.937	10.12
643.697	8.12
644.457	10.12
645.216	6.12
645.976	7.12
646.736	8.12
647.495	7.12
648.255	8.12
649.014	4.12
649.774	5.12
650.533	7.12
651.292	10.12
652.051	9.12
652.81	7.12
653.569	7.12
654.328	7.12
655.087	7.12
655.846	5.12
656.604	5.12
657.363	8.12
658.121	7.12
658.88	4.12
659.638	6.12
660.397	6.12
661.155	5.12
661.913	5.12
662.671	6.12
663.429	5.12
664.187	5.12
664.945	7.12
665.703	6.12
666.46	7.12
667.218	4.12
667.976	5.12
668.733	4.12
669.49	5.12
670.248	6.12
671.005	5.12
671.762	5.12
672.519	4.12
673.276	7.12
674.033	5.12
674.79	3.12
675.547	3.12
676.304	3.12
677.06	3.12
677.817	4.12
678.574	3.12
679.33	4.12
680.086	5.12
680.843	6.12
681.599	5.12
682.355	4.12
683.111	4.12
683.867	6.12
684.623	4.12
685.379	6.12
686.135	3.12
686.89	3.12
687.646	4.12
688.402	4.12
689.157	5.12
689.912	3.12
690.668	2.12
691.423	1.12
692.178	2.12
692.933	3.12
693.688	5.12
694.443	4.12
695.198	2.12
695.953	4.12
696.708	6.12
697.462	2.12
698.217	5.12
698.972	3.12
699.726	3.12
700.48	3.12
701.235	4.12
701.989	4.12
702.743	2.12
703.497	5.12
704.251	4.12
705.005	4.12
705.759	3.12
706.513	4.12
707.266	6.12
708.02	3.12
708.774	4.12
709.527	2.12
710.28	2.12
711.034	4.12
711.787	2.12
712.54	5.12
713.293	2.12
714.046	3.12
714.799	4.12
715.552	2.12
716.305	3.12
717.058	6.12
717.81	2.12
718.563	1.12
719.315	3.12
720.068	2.12
720.82	5.12
721.573	5.12
722.325	4.12
723.077	5.12
723.829	5.12
724.581	5.12
725.333	3.12
726.085	1.12
726.836	5.12
727.588	3.12
728.34	4.12
729.091	4.12
729.843	3.12
730.594	4.12
731.346	4.12
732.097	5.12
732.848	2.12
733.599	4.12
734.35	6.12
735.101	6.12
735.852	5.12
736.603	3.12
737.354	4.12
738.104	4.12
738.855	6.12
739.605	6.12
740.356	1.12
741.106	5.12
741.856	6.12
742.607	5.12
743.357	5.12
744.107	5.12
744.857	6.12
745.607	5.12
746.357	3.12
747.106	5.12
747.856	6.12
748.606	5.12
749.355	4.12
750.105	4.12
750.854	2.12
751.603	5.12
752.353	2.12
753.102	8.12
753.851	3.12
754.6	5.12
755.349	6.12
756.098	3.12
756.847	5.12
757.595	3.12
758.344	8.12
759.093	4.12
759.841	4.12
760.589	4.12
761.338	6.12
762.086	6.12
762.834	2.12
763.582	5.12
764.331	5.12
765.079	5.12
765.826	7.12
766.574	6.12
767.322	7.12
768.07	9.12
768.817	4.12
769.565	8.12
770.312	6.12
771.06	6.12
771.807	6.12
772.554	7.12
773.302	6.12
774.049	7.12
774.796	6.12
775.543	8.12
776.29	7.12
777.036	6.12
777.783	8.12
778.53	6.12
779.276	7.12
780.023	7.12
780.769	8.12
781.516	7.12
782.262	6.12
783.008	8.12
783.754	8.12
784.5	6.12
785.246	9.12
785.992	8.12
786.738	9.12
787.484	6.12
788.23	10.12
788.975	8.12
789.721	7.12
790.466	8.12
791.212	6.12
791.957	9.12
792.702	7.12
793.447	8.12
794.193	7.12
794.938	7.12
795.683	8.12
796.427	6.12
797.172	5.12
797.917	5.12
798.662	6.12
799.406	8.12
800.151	8.12
800.895	8.12
801.64	5.12
802.384	8.12
803.128	8.12
803.872	6.12
804.616	5.12
805.36	6.12
806.104	6.12
806.848	7.12
807.592	5.12
808.336	6.12
809.079	6.12
809.823	7.12
810.566	6.12
811.31	6.12
812.053	5.12
812.796	6.12
813.539	3.12
814.283	6.12
815.026	5.12
815.769	5.12
816.511	4.12
817.254	4.12
817.997	4.12
818.74	5.12
819.482	5.12
820.225	6.12
820.967	3.12
821.71	4.12
822.452	4.12
823.194	5.12
823.936	3.12
824.678	2.12
825.42	5.12
826.162	4.12
826.904	4.12
827.646	3.12
828.388	5.12
829.129	2.12
829.871	3.12
830.612	5.12
831.354	4.12
832.095	3.12
832.836	3.12
833.577	4.12
834.319	6.12
835.06	5.12
835.801	2.12
836.542	3.12
837.282	3.12
838.023	4.12
838.764	3.12
839.504	2.12
840.245	3.12
840.985	6.12
841.726	3.12
842.466	4.12
843.206	4.12
843.946	5.12
844.687	3.12
845.427	1.12
846.166	3.12
846.906	1.12
847.646	6.12
848.386	3.12
849.125	4.12
849.865	5.12
850.605	1.12
851.344	4.12
852.083	3.12
852.823	3.12
853.562	2.12
854.301	1.12
855.04	3.12
855.779	2.12
856.518	3.12
857.257	3.12
857.995	5.12
858.734	2.12
859.473	2.12
860.211	3.12
860.95	5.12
861.688	3.12
862.426	4.12
863.165	2.12
863.903	3.12
864.641	2.12
865.379	1.12
866.117	0.12
866.855	-0.88
867.593	2.12
868.33	3.12
869.068	4.12
869.806	2.12
870.543	3.12
871.28	0.12
872.018	1.12
872.755	3.12
873.492	1.12
874.229	3.12
874.967	-0.88
875.703	4.12
876.44	1.12
877.177	0.12
877.914	2.12
878.651	2.12
879.387	1.12
880.124	0.12
880.86	1.12
881.597	0.12
882.333	3.12
883.069	0.12
883.806	0.12
884.542	1.12
885.278	0.12
886.014	2.12
886.749	2.12
887.485	1.12
888.221	2.12
888.957	-1.88
889.692	-1.88
890.428	1.12
891.163	2.12
891.899	-0.88
892.634	0.12
893.369	5.12
894.104	0.12
894.839	1.12
895.574	0.12
896.309	1.12
897.044	0.12
897.779	2.12
898.514	2.12
899.248	0.12
899.983	-0.88
900.717	-0.88
901.452	-0.88
902.186	0.12
902.92	-1.88
903.654	2.12
904.389	1.12
905.123	0.12
905.857	1.12
906.59	-0.88
907.324	0.12
908.058	0.12
908.792	0.12
909.525	2.12
910.259	0.12
910.992	3.12
911.726	-0.88
912.459	0.12
913.192	1.12
913.925	-1.88
914.658	2.12
915.391	2.12
916.124	1.12
916.857	1.12
917.59	1.12
918.323	0.12
919.055	2.12
919.788	2.12
920.521	1.12
921.253	0.12
921.985	0.12
922.718	2.12
923.45	-1.88
924.182	1.12
924.914	0.12
925.646	0.12
926.378	1.12
927.11	0.12
927.841	1.12
928.573	2.12
929.305	1.12
930.036	0.12
930.768	-1.88
931.499	0.12
932.23	0.12
932.962	1.12
933.693	-0.88
934.424	1.12
935.155	2.12
935.886	1.12
936.617	2.12
937.348	0.12
938.078	2.12
938.809	-1.88
939.54	-1.88
940.27	1.12
941.001	-0.88
941.731	1.12
942.461	0.12
943.191	-1.88
943.922	1.12
944.652	1.12
945.382	0.12
946.112	0.12
946.841	3.12
947.571	-0.88
948.301	1.12
949.031	-1.88
949.76	1.12
950.49	1.12
951.219	2.12
951.948	0.12
952.678	0.12
953.407	-1.88
954.136	2.12
954.865	1.12
955.594	-1.88
956.323	0.12
957.052	-0.88
957.78	1.12
958.509	4.12
959.238	1.12
959.966	-1.88
960.695	1.12
961.423	1.12
962.151	2.12
962.88	-0.88
963.608	-0.88
964.336	1.12
965.064	-1.88
965.792	2.12
966.52	-0.88
967.247	0.12
967.975	0.12
968.703	0.12
969.43	0.12
970.158	0.12
970.885	0.12
971.613	-1.88
972.34	-1.88
973.067	0.12
973.794	-1.88
974.521	-0.88
975.248	-1.88
975.975	0.12
976.702	1.12
977.429	1.12
978.156	1.12
978.882	1.12
979.609	0.12
980.335	-0.88
981.062	1.12
981.788	1.12
982.514	-0.88
983.24	1.12
983.967	1.12
984.693	2.12
985.419	1.12
986.144	1.12
986.87	1.12
987.596	0.12
988.322	2.12
989.047	0.12
989.773	2.12
990.498	-0.88
991.224	0.12
991.949	1.12
992.674	0.12
993.399	1.12
994.124	0.12
994.849	2.12
995.574	1.12
996.299	0.12
997.024	1.12
997.749	-1.88
998.473	2.12
999.198	-0.88
999.922	-0.88
1000.647	0.12
1001.371	2.12
1002.095	0.12
1002.82	-1.88
1003.544	-1.88
1004.268	1.12
1004.992	2.12
1005.716	1.12
1006.439	2.12
1007.163	0.12
1007.887	3.12
1008.611	0.12
1009.334	0.12
1010.058	1.12
1010.781	2.12
1011.504	-0.88
1012.228	4.12
1012.951	3.12
1013.674	1.12
1014.397	-0.88
1015.12	-1.88
