节点500_285_QEPB04081__809__15-09-00-724.txt的数据

Date: Wed Nov 12 15:09:00 CST 2025
User: PC
Spectrometer: QEPB0408
触发模式: 0
积分时间 (秒): 1.000000E-2
Scans to average: 1
启用暗噪声校正: true
启用非线性校正: false
滑动平均宽度: 0
X轴模式: Wavelengths
Number of Pixels in Spectrum: 1044
>>>>>Begin Spectral Data<<<<<
220.843	0.88
221.644	1.88
222.444	2.88
223.244	0.88
224.045	2.88
224.845	1.88
225.645	2.88
226.445	1.88
227.245	1.88
228.045	3.88
228.845	0.88
229.645	1.88
230.444	-0.12
231.244	1.88
232.043	2.88
232.843	1.88
233.642	3.88
234.442	1.88
235.241	2.88
236.04	4.88
236.839	1.88
237.638	4.88
238.437	3.88
239.236	3.88
240.035	1.88
240.833	3.88
241.632	2.88
242.43	1.88
243.229	2.88
244.027	2.88
244.826	3.88
245.624	3.88
246.422	4.88
247.22	5.88
248.018	4.88
248.816	6.88
249.614	4.88
250.412	2.88
251.21	3.88
252.007	6.88
252.805	8.88
253.602	8.88
254.4	4.88
255.197	6.88
255.994	5.88
256.791	7.88
257.589	5.88
258.386	7.88
259.183	7.88
259.979	7.88
260.776	7.88
261.573	8.88
262.37	9.88
263.166	6.88
263.963	7.88
264.759	11.88
265.556	9.88
266.352	11.88
267.148	8.88
267.944	8.88
268.74	10.88
269.536	9.88
270.332	12.88
271.128	11.88
271.924	13.88
272.719	12.88
273.515	15.88
274.311	13.88
275.106	16.88
275.901	13.88
276.697	15.88
277.492	12.88
278.287	14.88
279.082	15.88
279.877	14.88
280.672	16.88
281.467	13.88
282.262	14.88
283.056	13.88
283.851	15.88
284.646	16.88
285.44	13.88
286.234	16.88
287.029	18.88
287.823	18.88
288.617	16.88
289.411	15.88
290.205	14.88
290.999	16.88
291.793	16.88
292.587	21.88
293.381	15.88
294.174	16.88
294.968	15.88
295.761	13.88
296.555	14.88
297.348	15.88
298.141	15.88
298.935	15.88
299.728	12.88
300.521	13.88
301.314	13.88
302.107	16.88
302.899	13.88
303.692	12.88
304.485	13.88
305.277	14.88
306.07	12.88
306.862	11.88
307.655	13.88
308.447	11.88
309.239	10.88
310.031	8.88
310.823	11.88
311.615	8.88
312.407	8.88
313.199	9.88
313.991	8.88
314.783	6.88
315.574	8.88
316.366	8.88
317.157	6.88
317.949	7.88
318.74	8.88
319.531	8.88
320.322	6.88
321.113	9.88
321.904	7.88
322.695	7.88
323.486	7.88
324.277	8.88
325.068	8.88
325.858	5.88
326.649	6.88
327.439	5.88
328.23	6.88
329.02	6.88
329.81	5.88
330.6	5.88
331.391	5.88
332.181	5.88
332.971	5.88
333.76	7.88
334.55	4.88
335.34	3.88
336.13	4.88
336.919	6.88
337.709	5.88
338.498	4.88
339.287	4.88
340.077	4.88
340.866	8.88
341.655	4.88
342.444	6.88
343.233	4.88
344.022	2.88
344.811	5.88
345.6	8.88
346.388	6.88
347.177	6.88
347.965	4.88
348.754	5.88
349.542	4.88
350.33	6.88
351.119	3.88
351.907	6.88
352.695	5.88
353.483	5.88
354.271	7.88
355.059	4.88
355.846	3.88
356.634	5.88
357.422	5.88
358.209	5.88
358.997	3.88
359.784	8.88
360.571	4.88
361.359	5.88
362.146	4.88
362.933	4.88
363.72	6.88
364.507	2.88
365.294	5.88
366.081	6.88
366.867	6.88
367.654	3.88
368.44	3.88
369.227	4.88
370.013	4.88
370.8	6.88
371.586	4.88
372.372	5.88
373.158	5.88
373.944	5.88
374.73	5.88
375.516	2.88
376.302	4.88
377.088	4.88
377.873	6.88
378.659	6.88
379.445	5.88
380.23	6.88
381.015	3.88
381.801	6.88
382.586	4.88
383.371	4.88
384.156	4.88
384.941	1.88
385.726	4.88
386.511	4.88
387.296	3.88
388.08	3.88
388.865	1.88
389.649	5.88
390.434	2.88
391.218	6.88
392.003	4.88
392.787	5.88
393.571	8.88
394.355	7.88
395.139	6.88
395.923	6.88
396.707	3.88
397.491	6.88
398.274	6.88
399.058	5.88
399.842	5.88
400.625	8.88
401.408	5.88
402.192	9.88
402.975	5.88
403.758	6.88
404.541	6.88
405.324	4.88
406.107	7.88
406.89	6.88
407.673	8.88
408.456	6.88
409.238	5.88
410.021	7.88
410.803	8.88
411.586	7.88
412.368	6.88
413.151	9.88
413.933	6.88
414.715	6.88
415.497	10.88
416.279	6.88
417.061	10.88
417.843	9.88
418.624	8.88
419.406	10.88
420.188	10.88
420.969	11.88
421.751	9.88
422.532	8.88
423.313	11.88
424.095	10.88
424.876	9.88
425.657	7.88
426.438	10.88
427.219	9.88
428	10.88
428.78	10.88
429.561	10.88
430.342	13.88
431.122	13.88
431.903	14.88
432.683	11.88
433.464	14.88
434.244	15.88
435.024	16.88
435.804	16.88
436.584	15.88
437.364	19.88
438.144	18.88
438.924	19.88
439.704	21.88
440.483	21.88
441.263	22.88
442.042	25.88
442.822	27.88
443.601	29.88
444.38	30.88
445.16	33.88
445.939	32.88
446.718	38.88
447.497	40.88
448.276	47.88
449.054	47.88
449.833	54.88
450.612	59.88
451.391	61.88
452.169	69.88
452.948	74.88
453.726	85.88
454.504	90.88
455.282	98.88
456.061	108.88
456.839	119.88
457.617	143.88
458.395	152.88
459.172	169.88
459.95	185.88
460.728	212.88
461.506	226.88
462.283	259.88
463.061	295.88
463.838	313.88
464.615	358.88
465.393	400.88
466.17	438.88
466.947	486.88
467.724	539.88
468.501	600.88
469.278	670.88
470.055	743.88
470.831	818.88
471.608	902.88
472.385	1005.88
473.161	1117.88
473.938	1199.88
474.714	1340.88
475.49	1460.88
476.266	1604.88
477.043	1770.88
477.819	1938.88
478.595	2113.88
479.371	2324.88
480.146	2557.88
480.922	2788.88
481.698	3050.88
482.473	3354.88
483.249	3637.88
484.024	3984.88
484.8	4339.88
485.575	4693.88
486.35	5146.88
487.126	5599.88
487.901	6113.88
488.676	6650.88
489.451	7225.88
490.225	7828.88
491	8470.88
491.775	9258.88
492.55	10033.88
493.324	10795.88
494.099	11578.88
494.873	12428.88
495.647	13400.88
496.422	14374.88
497.196	15382.88
497.97	16358.88
498.744	17446.88
499.518	18441.88
500.292	19484.88
501.066	20418.88
501.839	21396.88
502.613	22276.88
503.387	23052.88
504.16	23762.88
504.934	24328.88
505.707	24636.88
506.48	24933.88
507.253	25076.88
508.027	25039.88
508.8	25038.88
509.573	24921.88
510.346	24562.88
511.118	24057.88
511.891	23449.88
512.664	22843.88
513.437	22123.88
514.209	21399.88
514.982	20645.88
515.754	19850.88
516.526	19086.88
517.298	18269.88
518.071	17553.88
518.843	16853.88
519.615	16284.88
520.387	15631.88
521.159	15000.88
521.93	14413.88
522.702	13870.88
523.474	13277.88
524.245	12714.88
525.017	12167.88
525.788	11735.88
526.56	11228.88
527.331	10719.88
528.102	10232.88
528.873	9825.88
529.644	9377.88
530.415	8938.88
531.186	8528.88
531.957	8096.88
532.728	7740.88
533.498	7327.88
534.269	6941.88
535.039	6612.88
535.81	6259.88
536.58	5907.88
537.351	5550.88
538.121	5227.88
538.891	4985.88
539.661	4737.88
540.431	4470.88
541.201	4216.88
541.971	3973.88
542.741	3787.88
543.51	3583.88
544.28	3425.88
545.05	3243.88
545.819	3097.88
546.588	2933.88
547.358	2797.88
548.127	2646.88
548.896	2533.88
549.665	2402.88
550.434	2285.88
551.203	2147.88
551.972	2026.88
552.741	1936.88
553.51	1813.88
554.278	1730.88
555.047	1649.88
555.815	1557.88
556.584	1475.88
557.352	1375.88
558.121	1314.88
558.889	1229.88
559.657	1158.88
560.425	1119.88
561.193	1028.88
561.961	977.88
562.729	925.88
563.496	877.88
564.264	830.88
565.032	780.88
565.799	733.88
566.567	702.88
567.334	670.88
568.101	629.88
568.869	598.88
569.636	552.88
570.403	532.88
571.17	495.88
571.937	462.88
572.704	438.88
573.471	420.88
574.237	400.88
575.004	371.88
575.771	348.88
576.537	331.88
577.303	310.88
578.07	303.88
578.836	275.88
579.602	261.88
580.368	248.88
581.134	235.88
581.9	223.88
582.666	204.88
583.432	196.88
584.198	178.88
584.964	177.88
585.729	162.88
586.495	158.88
587.26	152.88
588.025	143.88
588.791	133.88
589.556	129.88
590.321	115.88
591.086	116.88
591.851	110.88
592.616	104.88
593.381	102.88
594.146	93.88
594.911	92.88
595.675	84.88
596.44	82.88
597.204	80.88
597.969	72.88
598.733	73.88
599.497	64.88
600.261	66.88
601.025	62.88
601.79	61.88
602.553	56.88
603.317	51.88
604.081	49.88
604.845	46.88
605.609	47.88
606.372	42.88
607.136	47.88
607.899	37.88
608.662	42.88
609.426	36.88
610.189	36.88
610.952	39.88
611.715	35.88
612.478	32.88
613.241	31.88
614.004	29.88
614.767	27.88
615.529	25.88
616.292	27.88
617.055	25.88
617.817	26.88
618.579	25.88
619.342	22.88
620.104	22.88
620.866	20.88
621.628	22.88
622.39	18.88
623.152	20.88
623.914	20.88
624.676	16.88
625.438	18.88
626.199	15.88
626.961	16.88
627.722	14.88
628.484	16.88
629.245	12.88
630.006	12.88
630.768	12.88
631.529	15.88
632.29	14.88
633.051	13.88
633.812	11.88
634.573	11.88
635.333	11.88
636.094	10.88
636.855	11.88
637.615	7.88
638.376	11.88
639.136	10.88
639.896	10.88
640.657	9.88
641.417	8.88
642.177	9.88
642.937	6.88
643.697	9.88
644.457	8.88
645.216	8.88
645.976	7.88
646.736	6.88
647.495	7.88
648.255	6.88
649.014	6.88
649.774	7.88
650.533	7.88
651.292	7.88
652.051	5.88
652.81	6.88
653.569	4.88
654.328	6.88
655.087	3.88
655.846	7.88
656.604	6.88
657.363	4.88
658.121	6.88
658.88	5.88
659.638	5.88
660.397	4.88
661.155	5.88
661.913	4.88
662.671	3.88
663.429	5.88
664.187	6.88
664.945	5.88
665.703	1.88
666.46	2.88
667.218	5.88
667.976	4.88
668.733	5.88
669.49	1.88
670.248	4.88
671.005	4.88
671.762	4.88
672.519	5.88
673.276	4.88
674.033	4.88
674.79	4.88
675.547	3.88
676.304	3.88
677.06	2.88
677.817	3.88
678.574	4.88
679.33	2.88
680.086	3.88
680.843	3.88
681.599	3.88
682.355	4.88
683.111	4.88
683.867	3.88
684.623	4.88
685.379	3.88
686.135	3.88
686.89	3.88
687.646	2.88
688.402	4.88
689.157	2.88
689.912	3.88
690.668	1.88
691.423	4.88
692.178	4.88
692.933	0.88
693.688	3.88
694.443	2.88
695.198	4.88
695.953	3.88
696.708	2.88
697.462	3.88
698.217	3.88
698.972	2.88
699.726	3.88
700.48	1.88
701.235	2.88
701.989	3.88
702.743	2.88
703.497	4.88
704.251	-0.12
705.005	4.88
705.759	2.88
706.513	1.88
707.266	3.88
708.02	5.88
708.774	4.88
709.527	3.88
710.28	4.88
711.034	1.88
711.787	3.88
712.54	1.88
713.293	1.88
714.046	3.88
714.799	2.88
715.552	2.88
716.305	-0.12
717.058	0.88
717.81	3.88
718.563	4.88
719.315	2.88
720.068	3.88
720.82	4.88
721.573	1.88
722.325	3.88
723.077	3.88
723.829	2.88
724.581	2.88
725.333	3.88
726.085	2.88
726.836	0.88
727.588	2.88
728.34	4.88
729.091	5.88
729.843	3.88
730.594	4.88
731.346	3.88
732.097	4.88
732.848	4.88
733.599	2.88
734.35	5.88
735.101	2.88
735.852	4.88
736.603	2.88
737.354	1.88
738.104	5.88
738.855	7.88
739.605	4.88
740.356	5.88
741.106	3.88
741.856	4.88
742.607	3.88
743.357	3.88
744.107	5.88
744.857	3.88
745.607	6.88
746.357	3.88
747.106	2.88
747.856	2.88
748.606	5.88
749.355	4.88
750.105	4.88
750.854	4.88
751.603	2.88
752.353	5.88
753.102	5.88
753.851	5.88
754.6	6.88
755.349	6.88
756.098	5.88
756.847	3.88
757.595	5.88
758.344	5.88
759.093	4.88
759.841	6.88
760.589	3.88
761.338	6.88
762.086	2.88
762.834	5.88
763.582	6.88
764.331	5.88
765.079	5.88
765.826	3.88
766.574	5.88
767.322	5.88
768.07	5.88
768.817	6.88
769.565	4.88
770.312	1.88
771.06	6.88
771.807	6.88
772.554	5.88
773.302	8.88
774.049	3.88
774.796	6.88
775.543	8.88
776.29	8.88
777.036	7.88
777.783	7.88
778.53	6.88
779.276	7.88
780.023	6.88
780.769	8.88
781.516	5.88
782.262	6.88
783.008	7.88
783.754	8.88
784.5	9.88
785.246	4.88
785.992	7.88
786.738	3.88
787.484	8.88
788.23	8.88
788.975	8.88
789.721	8.88
790.466	7.88
791.212	7.88
791.957	5.88
792.702	6.88
793.447	6.88
794.193	9.88
794.938	9.88
795.683	7.88
796.427	8.88
797.172	6.88
797.917	6.88
798.662	8.88
799.406	7.88
800.151	7.88
800.895	6.88
801.64	6.88
802.384	7.88
803.128	8.88
803.872	6.88
804.616	5.88
805.36	4.88
806.104	5.88
806.848	5.88
807.592	6.88
808.336	6.88
809.079	4.88
809.823	4.88
810.566	7.88
811.31	5.88
812.053	5.88
812.796	3.88
813.539	4.88
814.283	5.88
815.026	3.88
815.769	4.88
816.511	3.88
817.254	4.88
817.997	4.88
818.74	6.88
819.482	4.88
820.225	2.88
820.967	6.88
821.71	5.88
822.452	1.88
823.194	4.88
823.936	4.88
824.678	3.88
825.42	0.88
826.162	5.88
826.904	2.88
827.646	3.88
828.388	3.88
829.129	2.88
829.871	2.88
830.612	3.88
831.354	1.88
832.095	4.88
832.836	2.88
833.577	4.88
834.319	3.88
835.06	2.88
835.801	3.88
836.542	3.88
837.282	3.88
838.023	1.88
838.764	4.88
839.504	3.88
840.245	5.88
840.985	2.88
841.726	5.88
842.466	3.88
843.206	-0.12
843.946	1.88
844.687	1.88
845.427	3.88
846.166	2.88
846.906	1.88
847.646	1.88
848.386	1.88
849.125	4.88
849.865	0.88
850.605	3.88
851.344	0.88
852.083	2.88
852.823	2.88
853.562	0.88
854.301	1.88
855.04	1.88
855.779	1.88
856.518	1.88
857.257	1.88
857.995	1.88
858.734	0.88
859.473	2.88
860.211	1.88
860.95	2.88
861.688	1.88
862.426	3.88
863.165	3.88
863.903	2.88
864.641	1.88
865.379	2.88
866.117	1.88
866.855	-0.12
867.593	1.88
868.33	2.88
869.068	-0.12
869.806	0.88
870.543	-1.12
871.28	2.88
872.018	0.88
872.755	0.88
873.492	1.88
874.229	-0.12
874.967	2.88
875.703	1.88
876.44	0.88
877.177	1.88
877.914	-0.12
878.651	1.88
879.387	1.88
880.124	0.88
880.86	-2.12
881.597	-0.12
882.333	1.88
883.069	1.88
883.806	0.88
884.542	-0.12
885.278	1.88
886.014	1.88
886.749	-0.12
887.485	1.88
888.221	1.88
888.957	-0.12
889.692	-1.12
890.428	-0.12
891.163	1.88
891.899	-0.12
892.634	0.88
893.369	0.88
894.104	0.88
894.839	1.88
895.574	-1.12
896.309	-0.12
897.044	-0.12
897.779	0.88
898.514	-0.12
899.248	-2.12
899.983	0.88
900.717	-0.12
901.452	1.88
902.186	0.88
902.92	-0.12
903.654	1.88
904.389	0.88
905.123	1.88
905.857	-0.12
906.59	-0.12
907.324	0.88
908.058	0.88
908.792	-0.12
909.525	-2.12
910.259	0.88
910.992	-2.12
911.726	0.88
912.459	0.88
913.192	0.88
913.925	0.88
914.658	0.88
915.391	1.88
916.124	-2.12
916.857	1.88
917.59	1.88
918.323	0.88
919.055	-0.12
919.788	-1.12
920.521	-1.12
921.253	-1.12
921.985	-2.12
922.718	-2.12
923.45	-0.12
924.182	0.88
924.914	-2.12
925.646	-1.12
926.378	-2.12
927.11	0.88
927.841	0.88
928.573	1.88
929.305	-1.12
930.036	0.88
930.768	-1.12
931.499	-2.12
932.23	0.88
932.962	1.88
933.693	-0.12
934.424	1.88
935.155	-1.12
935.886	0.88
936.617	-0.12
937.348	-1.12
938.078	0.88
938.809	-0.12
939.54	0.88
940.27	0.88
941.001	0.88
941.731	-2.12
942.461	-1.12
943.191	0.88
943.922	1.88
944.652	1.88
945.382	-0.12
946.112	-0.12
946.841	-0.12
947.571	0.88
948.301	-1.12
949.031	-2.12
949.76	0.88
950.49	-0.12
951.219	0.88
951.948	0.88
952.678	-1.12
953.407	1.88
954.136	0.88
954.865	-0.12
955.594	-0.12
956.323	2.88
957.052	-2.12
957.78	-1.12
958.509	0.88
959.238	0.88
959.966	0.88
960.695	0.88
961.423	0.88
962.151	-1.12
962.88	-1.12
963.608	-0.12
964.336	0.88
965.064	-1.12
965.792	0.88
966.52	0.88
967.247	-0.12
967.975	1.88
968.703	-0.12
969.43	-0.12
970.158	-1.12
970.885	-0.12
971.613	0.88
972.34	-0.12
973.067	-1.12
973.794	0.88
974.521	-0.12
975.248	-0.12
975.975	-0.12
976.702	1.88
977.429	-0.12
978.156	0.88
978.882	-0.12
979.609	-2.12
980.335	-0.12
981.062	-1.12
981.788	-0.12
982.514	2.88
983.24	-1.12
983.967	-0.12
984.693	-0.12
985.419	0.88
986.144	-0.12
986.87	-1.12
987.596	1.88
988.322	0.88
989.047	0.88
989.773	-0.12
990.498	-0.12
991.224	1.88
991.949	-1.12
992.674	2.88
993.399	-1.12
994.124	-0.12
994.849	-0.12
995.574	-0.12
996.299	-0.12
997.024	-0.12
997.749	-0.12
998.473	-1.12
999.198	-1.12
999.922	0.88
1000.647	0.88
1001.371	2.88
1002.095	-2.12
1002.82	0.88
1003.544	-1.12
1004.268	0.88
1004.992	0.88
1005.716	-0.12
1006.439	-0.12
1007.163	1.88
1007.887	-0.12
1008.611	-0.12
1009.334	1.88
1010.058	-0.12
1010.781	-1.12
1011.504	0.88
1012.228	-0.12
1012.951	-0.12
1013.674	-0.12
1014.397	-0.12
1015.12	-0.12
