节点500_285_QEPB04081__30__14-56-04-429.txt的数据

Date: Wed Nov 12 14:56:04 CST 2025
User: PC
Spectrometer: QEPB0408
触发模式: 0
积分时间 (秒): 1.000000E-2
Scans to average: 1
启用暗噪声校正: true
启用非线性校正: false
滑动平均宽度: 0
X轴模式: Wavelengths
Number of Pixels in Spectrum: 1044
>>>>>Begin Spectral Data<<<<<
220.843	2
221.644	5
222.444	2
223.244	0
224.045	1
224.845	4
225.645	2
226.445	2
227.245	3
228.045	2
228.845	0
229.645	4
230.444	3
231.244	2
232.043	3
232.843	2
233.642	5
234.442	3
235.241	3
236.04	2
236.839	4
237.638	3
238.437	4
239.236	4
240.035	5
240.833	3
241.632	5
242.43	7
243.229	2
244.027	5
244.826	7
245.624	5
246.422	7
247.22	5
248.018	6
248.816	7
249.614	6
250.412	8
251.21	6
252.007	6
252.805	6
253.602	9
254.4	5
255.197	10
255.994	7
256.791	7
257.589	9
258.386	10
259.183	8
259.979	11
260.776	9
261.573	12
262.37	10
263.166	14
263.963	16
264.759	11
265.556	12
266.352	12
267.148	14
267.944	14
268.74	15
269.536	14
270.332	15
271.128	18
271.924	17
272.719	16
273.515	20
274.311	16
275.106	20
275.901	18
276.697	20
277.492	17
278.287	19
279.082	18
279.877	19
280.672	22
281.467	18
282.262	20
283.056	18
283.851	18
284.646	18
285.44	21
286.234	22
287.029	17
287.823	17
288.617	23
289.411	17
290.205	19
290.999	17
291.793	20
292.587	18
293.381	17
294.174	19
294.968	17
295.761	17
296.555	16
297.348	14
298.141	13
298.935	15
299.728	12
300.521	14
301.314	13
302.107	13
302.899	11
303.692	12
304.485	13
305.277	13
306.07	12
306.862	11
307.655	12
308.447	11
309.239	10
310.031	12
310.823	10
311.615	9
312.407	9
313.199	8
313.991	5
314.783	8
315.574	9
316.366	6
317.157	7
317.949	8
318.74	9
319.531	6
320.322	9
321.113	7
321.904	4
322.695	8
323.486	8
324.277	5
325.068	8
325.858	5
326.649	8
327.439	6
328.23	8
329.02	6
329.81	5
330.6	7
331.391	7
332.181	6
332.971	6
333.76	6
334.55	7
335.34	3
336.13	6
336.919	7
337.709	7
338.498	5
339.287	6
340.077	3
340.866	6
341.655	7
342.444	7
343.233	6
344.022	6
344.811	4
345.6	5
346.388	3
347.177	8
347.965	4
348.754	7
349.542	7
350.33	5
351.119	6
351.907	3
352.695	5
353.483	4
354.271	3
355.059	6
355.846	4
356.634	6
357.422	2
358.209	6
358.997	4
359.784	5
360.571	4
361.359	3
362.146	5
362.933	5
363.72	3
364.507	6
365.294	4
366.081	4
366.867	3
367.654	6
368.44	3
369.227	5
370.013	5
370.8	5
371.586	4
372.372	4
373.158	5
373.944	3
374.73	4
375.516	5
376.302	5
377.088	5
377.873	5
378.659	1
379.445	4
380.23	5
381.015	6
381.801	6
382.586	4
383.371	3
384.156	4
384.941	6
385.726	4
386.511	7
387.296	5
388.08	3
388.865	5
389.649	5
390.434	4
391.218	6
392.003	5
392.787	5
393.571	5
394.355	6
395.139	5
395.923	4
396.707	6
397.491	8
398.274	6
399.058	7
399.842	6
400.625	6
401.408	6
402.192	8
402.975	7
403.758	9
404.541	9
405.324	9
406.107	8
406.89	9
407.673	8
408.456	7
409.238	8
410.021	7
410.803	5
411.586	7
412.368	7
413.151	9
413.933	10
414.715	9
415.497	9
416.279	9
417.061	9
417.843	8
418.624	11
419.406	9
420.188	11
420.969	10
421.751	8
422.532	13
423.313	7
424.095	10
424.876	11
425.657	10
426.438	11
427.219	9
428	14
428.78	12
429.561	12
430.342	13
431.122	17
431.903	16
432.683	14
433.464	15
434.244	16
435.024	15
435.804	14
436.584	15
437.364	15
438.144	16
438.924	22
439.704	20
440.483	22
441.263	24
442.042	25
442.822	26
443.601	27
444.38	27
445.16	29
445.939	34
446.718	35
447.497	36
448.276	39
449.054	42
449.833	43
450.612	46
451.391	53
452.169	59
452.948	63
453.726	64
454.504	76
455.282	84
456.061	90
456.839	96
457.617	112
458.395	118
459.172	136
459.95	150
460.728	169
461.506	181
462.283	208
463.061	235
463.838	265
464.615	289
465.393	327
466.17	371
466.947	417
467.724	457
468.501	518
469.278	586
470.055	639
470.831	726
471.608	805
472.385	896
473.161	1011
473.938	1116
474.714	1249
475.49	1391
476.266	1542
477.043	1712
477.819	1905
478.595	2119
479.371	2362
480.146	2621
480.922	2910
481.698	3214
482.473	3583
483.249	3957
484.024	4407
484.8	4871
485.575	5380
486.35	5934
487.126	6576
487.901	7240
488.676	7966
489.451	8810
490.225	9688
491	10568
491.775	11617
492.55	12716
493.324	13814
494.099	14901
494.873	16146
495.647	17438
496.422	18814
497.196	20088
497.97	21409
498.744	22777
499.518	24017
500.292	25236
501.066	26306
501.839	27243
502.613	28098
503.387	28835
504.16	29317
504.934	29432
505.707	29433
506.48	29271
507.253	28917
508.027	28365
508.8	27964
509.573	27178
510.346	26359
511.118	25388
511.891	24403
512.664	23441
513.437	22415
514.209	21433
514.982	20489
515.754	19408
516.526	18554
517.298	17802
518.071	16917
518.843	16324
519.615	15695
520.387	15070
521.159	14500
521.93	13875
522.702	13318
523.474	12790
524.245	12219
525.017	11705
525.788	11237
526.56	10713
527.331	10178
528.102	9697
528.873	9194
529.644	8742
530.415	8289
531.186	7835
531.957	7416
532.728	7041
533.498	6636
534.269	6242
535.039	5898
535.81	5564
536.58	5274
537.351	4933
538.121	4682
538.891	4435
539.661	4162
540.431	3946
541.201	3724
541.971	3534
542.741	3344
543.51	3181
544.28	3026
545.05	2895
545.819	2742
546.588	2595
547.358	2477
548.127	2360
548.896	2220
549.665	2128
550.434	2006
551.203	1877
551.972	1788
552.741	1681
553.51	1588
554.278	1495
555.047	1419
555.815	1322
556.584	1270
557.352	1179
558.121	1114
558.889	1050
559.657	1000
560.425	929
561.193	889
561.961	826
562.729	793
563.496	752
564.264	715
565.032	669
565.799	637
566.567	602
567.334	563
568.101	533
568.869	505
569.636	474
570.403	442
571.17	419
571.937	399
572.704	376
573.471	362
574.237	331
575.004	314
575.771	295
576.537	273
577.303	264
578.07	249
578.836	227
579.602	219
580.368	204
581.134	197
581.9	190
582.666	170
583.432	168
584.198	158
584.964	148
585.729	143
586.495	134
587.26	126
588.025	128
588.791	114
589.556	106
590.321	103
591.086	95
591.851	92
592.616	86
593.381	85
594.146	83
594.911	78
595.675	73
596.44	74
597.204	68
597.969	64
598.733	59
599.497	60
600.261	56
601.025	54
601.79	48
602.553	48
603.317	47
604.081	44
604.845	39
605.609	40
606.372	39
607.136	39
607.899	35
608.662	33
609.426	33
610.189	31
610.952	30
611.715	29
612.478	28
613.241	30
614.004	26
614.767	28
615.529	24
616.292	23
617.055	25
617.817	22
618.579	22
619.342	20
620.104	23
620.866	22
621.628	16
622.39	17
623.152	16
623.914	15
624.676	17
625.438	16
626.199	15
626.961	15
627.722	19
628.484	13
629.245	9
630.006	9
630.768	13
631.529	11
632.29	11
633.051	12
633.812	11
634.573	11
635.333	11
636.094	11
636.855	8
637.615	8
638.376	10
639.136	9
639.896	8
640.657	10
641.417	7
642.177	8
642.937	9
643.697	9
644.457	7
645.216	6
645.976	11
646.736	7
647.495	8
648.255	8
649.014	5
649.774	7
650.533	4
651.292	7
652.051	5
652.81	5
653.569	6
654.328	6
655.087	6
655.846	5
656.604	6
657.363	6
658.121	4
658.88	6
659.638	3
660.397	7
661.155	4
661.913	5
662.671	6
663.429	3
664.187	4
664.945	3
665.703	5
666.46	5
667.218	2
667.976	5
668.733	7
669.49	3
670.248	3
671.005	5
671.762	6
672.519	5
673.276	6
674.033	2
674.79	2
675.547	6
676.304	2
677.06	5
677.817	5
678.574	4
679.33	3
680.086	2
680.843	2
681.599	2
682.355	5
683.111	4
683.867	4
684.623	3
685.379	1
686.135	5
686.89	2
687.646	1
688.402	2
689.157	3
689.912	2
690.668	2
691.423	2
692.178	3
692.933	4
693.688	4
694.443	4
695.198	2
695.953	6
696.708	3
697.462	2
698.217	0
698.972	3
699.726	2
700.48	5
701.235	4
701.989	0
702.743	4
703.497	4
704.251	2
705.005	4
705.759	2
706.513	4
707.266	3
708.02	4
708.774	1
709.527	5
710.28	4
711.034	1
711.787	3
712.54	2
713.293	2
714.046	3
714.799	3
715.552	3
716.305	3
717.058	4
717.81	3
718.563	7
719.315	2
720.068	3
720.82	4
721.573	3
722.325	3
723.077	1
723.829	3
724.581	4
725.333	0
726.085	4
726.836	5
727.588	4
728.34	2
729.091	4
729.843	3
730.594	4
731.346	4
732.097	0
732.848	5
733.599	4
734.35	0
735.101	3
735.852	3
736.603	5
737.354	2
738.104	3
738.855	4
739.605	5
740.356	3
741.106	4
741.856	4
742.607	6
743.357	4
744.107	2
744.857	5
745.607	4
746.357	3
747.106	5
747.856	7
748.606	4
749.355	6
750.105	6
750.854	5
751.603	6
752.353	5
753.102	6
753.851	6
754.6	4
755.349	5
756.098	6
756.847	4
757.595	7
758.344	4
759.093	5
759.841	5
760.589	5
761.338	8
762.086	7
762.834	5
763.582	6
764.331	7
765.079	4
765.826	7
766.574	9
767.322	5
768.07	7
768.817	9
769.565	6
770.312	6
771.06	6
771.807	6
772.554	6
773.302	10
774.049	9
774.796	9
775.543	7
776.29	9
777.036	10
777.783	10
778.53	8
779.276	6
780.023	8
780.769	8
781.516	6
782.262	7
783.008	8
783.754	8
784.5	8
785.246	8
785.992	9
786.738	9
787.484	10
788.23	8
788.975	6
789.721	6
790.466	9
791.212	9
791.957	7
792.702	9
793.447	11
794.193	8
794.938	7
795.683	8
796.427	9
797.172	8
797.917	6
798.662	9
799.406	7
800.151	8
800.895	7
801.64	9
802.384	6
803.128	10
803.872	7
804.616	5
805.36	5
806.104	7
806.848	6
807.592	6
808.336	4
809.079	7
809.823	4
810.566	7
811.31	5
812.053	6
812.796	3
813.539	4
814.283	4
815.026	4
815.769	5
816.511	4
817.254	3
817.997	4
818.74	5
819.482	4
820.225	6
820.967	4
821.71	4
822.452	6
823.194	4
823.936	3
824.678	5
825.42	5
826.162	1
826.904	3
827.646	3
828.388	5
829.129	4
829.871	4
830.612	3
831.354	3
832.095	4
832.836	4
833.577	0
834.319	3
835.06	3
835.801	4
836.542	1
837.282	5
838.023	3
838.764	2
839.504	4
840.245	1
840.985	3
841.726	3
842.466	2
843.206	3
843.946	1
844.687	2
845.427	2
846.166	3
846.906	2
847.646	4
848.386	2
849.125	3
849.865	1
850.605	2
851.344	1
852.083	0
852.823	0
853.562	3
854.301	1
855.04	3
855.779	2
856.518	2
857.257	1
857.995	2
858.734	2
859.473	3
860.211	0
860.95	1
861.688	1
862.426	1
863.165	2
863.903	0
864.641	0
865.379	2
866.117	2
866.855	1
867.593	2
868.33	1
869.068	-1
869.806	-1
870.543	-1
871.28	1
872.018	1
872.755	1
873.492	2
874.229	2
874.967	-1
875.703	1
876.44	1
877.177	-1
877.914	0
878.651	1
879.387	0
880.124	1
880.86	0
881.597	1
882.333	-2
883.069	-1
883.806	2
884.542	0
885.278	3
886.014	0
886.749	0
887.485	0
888.221	-1
888.957	0
889.692	0
890.428	0
891.163	-3
891.899	0
892.634	0
893.369	0
894.104	0
894.839	-1
895.574	1
896.309	0
897.044	1
897.779	0
898.514	-1
899.248	0
899.983	-2
900.717	0
901.452	-1
902.186	-1
902.92	1
903.654	-2
904.389	0
905.123	0
905.857	-3
906.59	0
907.324	-2
908.058	0
908.792	0
909.525	-3
910.259	1
910.992	2
911.726	-2
912.459	2
913.192	-2
913.925	2
914.658	-1
915.391	0
916.124	-1
916.857	0
917.59	0
918.323	0
919.055	0
919.788	0
920.521	2
921.253	0
921.985	1
922.718	-1
923.45	0
924.182	0
924.914	0
925.646	0
926.378	0
927.11	0
927.841	1
928.573	0
929.305	-2
930.036	-1
930.768	0
931.499	-2
932.23	0
932.962	0
933.693	0
934.424	0
935.155	0
935.886	-1
936.617	2
937.348	-1
938.078	0
938.809	-1
939.54	-2
940.27	2
941.001	-1
941.731	1
942.461	-2
943.191	1
943.922	-1
944.652	0
945.382	-1
946.112	0
946.841	0
947.571	0
948.301	-1
949.031	1
949.76	1
950.49	0
951.219	-1
951.948	1
952.678	-1
953.407	-1
954.136	-3
954.865	-2
955.594	1
956.323	-1
957.052	0
957.78	1
958.509	-1
959.238	0
959.966	0
960.695	0
961.423	0
962.151	0
962.88	-1
963.608	-2
964.336	0
965.064	-2
965.792	-4
966.52	-1
967.247	-2
967.975	1
968.703	-2
969.43	-1
970.158	0
970.885	0
971.613	-2
972.34	-2
973.067	-1
973.794	-1
974.521	-2
975.248	0
975.975	-2
976.702	-1
977.429	-2
978.156	-2
978.882	1
979.609	-1
980.335	1
981.062	0
981.788	-1
982.514	0
983.24	0
983.967	0
984.693	-1
985.419	0
986.144	1
986.87	-1
987.596	-2
988.322	0
989.047	1
989.773	-1
990.498	0
991.224	-1
991.949	-1
992.674	0
993.399	0
994.124	0
994.849	0
995.574	-1
996.299	-1
997.024	0
997.749	0
998.473	-1
999.198	0
999.922	0
1000.647	-3
1001.371	4
1002.095	-1
1002.82	-2
1003.544	-1
1004.268	-1
1004.992	-1
1005.716	-1
1006.439	-1
1007.163	1
1007.887	1
1008.611	0
1009.334	-1
1010.058	-1
1010.781	-1
1011.504	-1
1012.228	0
1012.951	0
1013.674	-1
1014.397	0
1015.12	1
