节点500_285_QEPB04081__87__14-57-00-288.txt的数据

Date: Wed Nov 12 14:57:00 CST 2025
User: PC
Spectrometer: QEPB0408
触发模式: 0
积分时间 (秒): 1.000000E-2
Scans to average: 1
启用暗噪声校正: true
启用非线性校正: false
滑动平均宽度: 0
X轴模式: Wavelengths
Number of Pixels in Spectrum: 1044
>>>>>Begin Spectral Data<<<<<
220.843	2.5
221.644	1.5
222.444	5.5
223.244	2.5
224.045	4.5
224.845	1.5
225.645	2.5
226.445	1.5
227.245	1.5
228.045	4.5
228.845	3.5
229.645	2.5
230.444	4.5
231.244	4.5
232.043	5.5
232.843	2.5
233.642	4.5
234.442	4.5
235.241	2.5
236.04	2.5
236.839	4.5
237.638	4.5
238.437	3.5
239.236	3.5
240.035	5.5
240.833	3.5
241.632	4.5
242.43	5.5
243.229	5.5
244.027	6.5
244.826	4.5
245.624	7.5
246.422	4.5
247.22	8.5
248.018	6.5
248.816	3.5
249.614	7.5
250.412	7.5
251.21	8.5
252.007	6.5
252.805	9.5
253.602	5.5
254.4	8.5
255.197	7.5
255.994	10.5
256.791	7.5
257.589	9.5
258.386	9.5
259.183	10.5
259.979	11.5
260.776	11.5
261.573	11.5
262.37	14.5
263.166	13.5
263.963	12.5
264.759	14.5
265.556	13.5
266.352	15.5
267.148	13.5
267.944	12.5
268.74	15.5
269.536	16.5
270.332	17.5
271.128	15.5
271.924	18.5
272.719	17.5
273.515	13.5
274.311	19.5
275.106	18.5
275.901	17.5
276.697	18.5
277.492	19.5
278.287	18.5
279.082	16.5
279.877	18.5
280.672	17.5
281.467	19.5
282.262	16.5
283.056	19.5
283.851	23.5
284.646	19.5
285.44	20.5
286.234	18.5
287.029	20.5
287.823	16.5
288.617	21.5
289.411	20.5
290.205	19.5
290.999	20.5
291.793	18.5
292.587	19.5
293.381	16.5
294.174	15.5
294.968	18.5
295.761	16.5
296.555	16.5
297.348	14.5
298.141	15.5
298.935	19.5
299.728	17.5
300.521	16.5
301.314	11.5
302.107	14.5
302.899	13.5
303.692	11.5
304.485	15.5
305.277	11.5
306.07	12.5
306.862	13.5
307.655	9.5
308.447	13.5
309.239	10.5
310.031	13.5
310.823	12.5
311.615	11.5
312.407	9.5
313.199	10.5
313.991	7.5
314.783	9.5
315.574	9.5
316.366	10.5
317.157	9.5
317.949	8.5
318.74	9.5
319.531	7.5
320.322	9.5
321.113	5.5
321.904	8.5
322.695	6.5
323.486	6.5
324.277	7.5
325.068	7.5
325.858	7.5
326.649	7.5
327.439	6.5
328.23	6.5
329.02	7.5
329.81	6.5
330.6	5.5
331.391	6.5
332.181	8.5
332.971	7.5
333.76	4.5
334.55	7.5
335.34	7.5
336.13	5.5
336.919	9.5
337.709	5.5
338.498	4.5
339.287	8.5
340.077	7.5
340.866	6.5
341.655	5.5
342.444	7.5
343.233	7.5
344.022	5.5
344.811	7.5
345.6	6.5
346.388	8.5
347.177	4.5
347.965	7.5
348.754	6.5
349.542	4.5
350.33	7.5
351.119	7.5
351.907	5.5
352.695	5.5
353.483	7.5
354.271	5.5
355.059	3.5
355.846	4.5
356.634	5.5
357.422	5.5
358.209	5.5
358.997	6.5
359.784	6.5
360.571	5.5
361.359	5.5
362.146	4.5
362.933	6.5
363.72	5.5
364.507	3.5
365.294	6.5
366.081	4.5
366.867	7.5
367.654	6.5
368.44	6.5
369.227	6.5
370.013	4.5
370.8	5.5
371.586	4.5
372.372	3.5
373.158	7.5
373.944	5.5
374.73	7.5
375.516	5.5
376.302	6.5
377.088	5.5
377.873	6.5
378.659	6.5
379.445	5.5
380.23	4.5
381.015	5.5
381.801	4.5
382.586	6.5
383.371	4.5
384.156	7.5
384.941	5.5
385.726	4.5
386.511	7.5
387.296	5.5
388.08	6.5
388.865	3.5
389.649	6.5
390.434	7.5
391.218	4.5
392.003	5.5
392.787	5.5
393.571	6.5
394.355	4.5
395.139	6.5
395.923	5.5
396.707	6.5
397.491	6.5
398.274	7.5
399.058	8.5
399.842	8.5
400.625	5.5
401.408	9.5
402.192	8.5
402.975	8.5
403.758	7.5
404.541	9.5
405.324	9.5
406.107	7.5
406.89	7.5
407.673	7.5
408.456	8.5
409.238	7.5
410.021	8.5
410.803	8.5
411.586	6.5
412.368	9.5
413.151	7.5
413.933	9.5
414.715	10.5
415.497	9.5
416.279	8.5
417.061	9.5
417.843	9.5
418.624	8.5
419.406	10.5
420.188	10.5
420.969	6.5
421.751	11.5
422.532	9.5
423.313	12.5
424.095	12.5
424.876	13.5
425.657	13.5
426.438	12.5
427.219	10.5
428	11.5
428.78	12.5
429.561	15.5
430.342	11.5
431.122	17.5
431.903	15.5
432.683	16.5
433.464	16.5
434.244	15.5
435.024	17.5
435.804	17.5
436.584	19.5
437.364	16.5
438.144	20.5
438.924	20.5
439.704	20.5
440.483	22.5
441.263	22.5
442.042	23.5
442.822	30.5
443.601	29.5
444.38	30.5
445.16	29.5
445.939	32.5
446.718	35.5
447.497	38.5
448.276	36.5
449.054	42.5
449.833	47.5
450.612	49.5
451.391	52.5
452.169	57.5
452.948	66.5
453.726	73.5
454.504	77.5
455.282	81.5
456.061	93.5
456.839	103.5
457.617	115.5
458.395	125.5
459.172	142.5
459.95	159.5
460.728	172.5
461.506	189.5
462.283	219.5
463.061	241.5
463.838	267.5
464.615	297.5
465.393	338.5
466.17	374.5
466.947	417.5
467.724	473.5
468.501	523.5
469.278	590.5
470.055	653.5
470.831	731.5
471.608	823.5
472.385	911.5
473.161	1005.5
473.938	1128.5
474.714	1254.5
475.49	1405.5
476.266	1552.5
477.043	1734.5
477.819	1917.5
478.595	2113.5
479.371	2327.5
480.146	2601.5
480.922	2891.5
481.698	3186.5
482.473	3534.5
483.249	3875.5
484.024	4315.5
484.8	4772.5
485.575	5275.5
486.35	5822.5
487.126	6412.5
487.901	7067.5
488.676	7762.5
489.451	8507.5
490.225	9394.5
491	10268.5
491.775	11264.5
492.55	12287.5
493.324	13325.5
494.099	14437.5
494.873	15579.5
495.647	16853.5
496.422	18075.5
497.196	19308.5
497.97	20614.5
498.744	21922.5
499.518	23128.5
500.292	24273.5
501.066	25442.5
501.839	26389.5
502.613	27276.5
503.387	27887.5
504.16	28517.5
504.934	28742.5
505.707	28725.5
506.48	28665.5
507.253	28408.5
508.027	27901.5
508.8	27475.5
509.573	26904.5
510.346	26085.5
511.118	25173.5
511.891	24218.5
512.664	23326.5
513.437	22333.5
514.209	21357.5
514.982	20365.5
515.754	19468.5
516.526	18557.5
517.298	17716.5
518.071	16994.5
518.843	16311.5
519.615	15703.5
520.387	15102.5
521.159	14477.5
521.93	13939.5
522.702	13365.5
523.474	12808.5
524.245	12293.5
525.017	11714.5
525.788	11285.5
526.56	10711.5
527.331	10217.5
528.102	9772.5
528.873	9269.5
529.644	8789.5
530.415	8341.5
531.186	7925.5
531.957	7487.5
532.728	7133.5
533.498	6717.5
534.269	6324.5
535.039	5963.5
535.81	5632.5
536.58	5322.5
537.351	5004.5
538.121	4712.5
538.891	4493.5
539.661	4241.5
540.431	3981.5
541.201	3758.5
541.971	3566.5
542.741	3359.5
543.51	3213.5
544.28	3075.5
545.05	2932.5
545.819	2794.5
546.588	2623.5
547.358	2517.5
548.127	2366.5
548.896	2247.5
549.665	2145.5
550.434	2042.5
551.203	1923.5
551.972	1805.5
552.741	1701.5
553.51	1617.5
554.278	1520.5
555.047	1440.5
555.815	1345.5
556.584	1271.5
557.352	1215.5
558.121	1131.5
558.889	1061.5
559.657	1003.5
560.425	966.5
561.193	898.5
561.961	851.5
562.729	804.5
563.496	770.5
564.264	725.5
565.032	680.5
565.799	636.5
566.567	602.5
567.334	581.5
568.101	543.5
568.869	515.5
569.636	477.5
570.403	448.5
571.17	432.5
571.937	404.5
572.704	379.5
573.471	363.5
574.237	341.5
575.004	318.5
575.771	298.5
576.537	288.5
577.303	259.5
578.07	249.5
578.836	235.5
579.602	218.5
580.368	206.5
581.134	202.5
581.9	192.5
582.666	180.5
583.432	174.5
584.198	165.5
584.964	150.5
585.729	144.5
586.495	140.5
587.26	133.5
588.025	130.5
588.791	115.5
589.556	111.5
590.321	105.5
591.086	100.5
591.851	94.5
592.616	90.5
593.381	87.5
594.146	81.5
594.911	76.5
595.675	75.5
596.44	73.5
597.204	67.5
597.969	62.5
598.733	61.5
599.497	58.5
600.261	58.5
601.025	54.5
601.79	50.5
602.553	48.5
603.317	48.5
604.081	46.5
604.845	46.5
605.609	41.5
606.372	39.5
607.136	37.5
607.899	40.5
608.662	34.5
609.426	35.5
610.189	30.5
610.952	31.5
611.715	32.5
612.478	27.5
613.241	30.5
614.004	26.5
614.767	27.5
615.529	25.5
616.292	23.5
617.055	20.5
617.817	23.5
618.579	22.5
619.342	21.5
620.104	22.5
620.866	18.5
621.628	19.5
622.39	19.5
623.152	17.5
623.914	19.5
624.676	19.5
625.438	17.5
626.199	15.5
626.961	14.5
627.722	17.5
628.484	12.5
629.245	13.5
630.006	12.5
630.768	12.5
631.529	12.5
632.29	9.5
633.051	14.5
633.812	13.5
634.573	11.5
635.333	10.5
636.094	9.5
636.855	10.5
637.615	9.5
638.376	9.5
639.136	9.5
639.896	10.5
640.657	10.5
641.417	10.5
642.177	9.5
642.937	8.5
643.697	8.5
644.457	8.5
645.216	9.5
645.976	9.5
646.736	8.5
647.495	8.5
648.255	8.5
649.014	5.5
649.774	7.5
650.533	5.5
651.292	7.5
652.051	6.5
652.81	6.5
653.569	6.5
654.328	6.5
655.087	5.5
655.846	8.5
656.604	7.5
657.363	7.5
658.121	5.5
658.88	6.5
659.638	3.5
660.397	7.5
661.155	6.5
661.913	5.5
662.671	6.5
663.429	4.5
664.187	5.5
664.945	5.5
665.703	4.5
666.46	3.5
667.218	4.5
667.976	6.5
668.733	4.5
669.49	8.5
670.248	5.5
671.005	2.5
671.762	3.5
672.519	4.5
673.276	4.5
674.033	5.5
674.79	2.5
675.547	6.5
676.304	5.5
677.06	4.5
677.817	5.5
678.574	5.5
679.33	5.5
680.086	6.5
680.843	2.5
681.599	3.5
682.355	4.5
683.111	4.5
683.867	4.5
684.623	4.5
685.379	5.5
686.135	5.5
686.89	2.5
687.646	5.5
688.402	3.5
689.157	3.5
689.912	5.5
690.668	5.5
691.423	4.5
692.178	3.5
692.933	3.5
693.688	3.5
694.443	4.5
695.198	4.5
695.953	3.5
696.708	5.5
697.462	4.5
698.217	2.5
698.972	2.5
699.726	2.5
700.48	3.5
701.235	3.5
701.989	4.5
702.743	3.5
703.497	3.5
704.251	3.5
705.005	4.5
705.759	7.5
706.513	5.5
707.266	4.5
708.02	3.5
708.774	2.5
709.527	4.5
710.28	3.5
711.034	3.5
711.787	3.5
712.54	4.5
713.293	7.5
714.046	4.5
714.799	4.5
715.552	5.5
716.305	2.5
717.058	3.5
717.81	2.5
718.563	3.5
719.315	6.5
720.068	3.5
720.82	4.5
721.573	4.5
722.325	4.5
723.077	3.5
723.829	4.5
724.581	4.5
725.333	5.5
726.085	2.5
726.836	3.5
727.588	2.5
728.34	4.5
729.091	3.5
729.843	4.5
730.594	4.5
731.346	4.5
732.097	4.5
732.848	6.5
733.599	3.5
734.35	4.5
735.101	4.5
735.852	6.5
736.603	4.5
737.354	3.5
738.104	6.5
738.855	6.5
739.605	3.5
740.356	3.5
741.106	1.5
741.856	3.5
742.607	3.5
743.357	3.5
744.107	3.5
744.857	7.5
745.607	3.5
746.357	3.5
747.106	5.5
747.856	5.5
748.606	6.5
749.355	5.5
750.105	3.5
750.854	6.5
751.603	3.5
752.353	4.5
753.102	5.5
753.851	6.5
754.6	8.5
755.349	6.5
756.098	8.5
756.847	3.5
757.595	6.5
758.344	7.5
759.093	6.5
759.841	5.5
760.589	4.5
761.338	5.5
762.086	8.5
762.834	5.5
763.582	6.5
764.331	8.5
765.079	8.5
765.826	8.5
766.574	9.5
767.322	8.5
768.07	7.5
768.817	9.5
769.565	7.5
770.312	6.5
771.06	9.5
771.807	8.5
772.554	9.5
773.302	9.5
774.049	9.5
774.796	7.5
775.543	8.5
776.29	7.5
777.036	7.5
777.783	10.5
778.53	9.5
779.276	10.5
780.023	8.5
780.769	8.5
781.516	9.5
782.262	9.5
783.008	11.5
783.754	9.5
784.5	9.5
785.246	9.5
785.992	9.5
786.738	10.5
787.484	9.5
788.23	10.5
788.975	6.5
789.721	10.5
790.466	9.5
791.212	8.5
791.957	6.5
792.702	12.5
793.447	7.5
794.193	11.5
794.938	8.5
795.683	9.5
796.427	10.5
797.172	8.5
797.917	8.5
798.662	7.5
799.406	6.5
800.151	7.5
800.895	7.5
801.64	8.5
802.384	6.5
803.128	8.5
803.872	8.5
804.616	7.5
805.36	6.5
806.104	5.5
806.848	8.5
807.592	7.5
808.336	6.5
809.079	5.5
809.823	6.5
810.566	8.5
811.31	4.5
812.053	7.5
812.796	5.5
813.539	5.5
814.283	3.5
815.026	7.5
815.769	7.5
816.511	5.5
817.254	3.5
817.997	4.5
818.74	3.5
819.482	5.5
820.225	3.5
820.967	4.5
821.71	5.5
822.452	5.5
823.194	3.5
823.936	4.5
824.678	4.5
825.42	5.5
826.162	2.5
826.904	2.5
827.646	3.5
828.388	5.5
829.129	3.5
829.871	3.5
830.612	4.5
831.354	3.5
832.095	2.5
832.836	2.5
833.577	5.5
834.319	2.5
835.06	4.5
835.801	3.5
836.542	2.5
837.282	5.5
838.023	4.5
838.764	4.5
839.504	2.5
840.245	6.5
840.985	3.5
841.726	4.5
842.466	2.5
843.206	4.5
843.946	1.5
844.687	3.5
845.427	3.5
846.166	5.5
846.906	2.5
847.646	4.5
848.386	1.5
849.125	3.5
849.865	2.5
850.605	4.5
851.344	5.5
852.083	6.5
852.823	4.5
853.562	3.5
854.301	2.5
855.04	2.5
855.779	0.5
856.518	2.5
857.257	2.5
857.995	4.5
858.734	1.5
859.473	3.5
860.211	3.5
860.95	0.5
861.688	2.5
862.426	3.5
863.165	2.5
863.903	3.5
864.641	2.5
865.379	1.5
866.117	1.5
866.855	0.5
867.593	-0.5
868.33	1.5
869.068	1.5
869.806	1.5
870.543	1.5
871.28	2.5
872.018	3.5
872.755	1.5
873.492	0.5
874.229	1.5
874.967	-0.5
875.703	2.5
876.44	1.5
877.177	0.5
877.914	1.5
878.651	-0.5
879.387	1.5
880.124	-0.5
880.86	1.5
881.597	1.5
882.333	0.5
883.069	2.5
883.806	0.5
884.542	3.5
885.278	0.5
886.014	2.5
886.749	0.5
887.485	-0.5
888.221	2.5
888.957	0.5
889.692	0.5
890.428	0.5
891.163	2.5
891.899	1.5
892.634	-1.5
893.369	1.5
894.104	0.5
894.839	1.5
895.574	2.5
896.309	0.5
897.044	1.5
897.779	-0.5
898.514	-2.5
899.248	-0.5
899.983	-0.5
900.717	1.5
901.452	0.5
902.186	2.5
902.92	0.5
903.654	0.5
904.389	0.5
905.123	2.5
905.857	0.5
906.59	2.5
907.324	1.5
908.058	-0.5
908.792	1.5
909.525	0.5
910.259	1.5
910.992	1.5
911.726	2.5
912.459	0.5
913.192	1.5
913.925	0.5
914.658	0.5
915.391	-0.5
916.124	2.5
916.857	1.5
917.59	-2.5
918.323	0.5
919.055	1.5
919.788	0.5
920.521	-0.5
921.253	2.5
921.985	0.5
922.718	1.5
923.45	2.5
924.182	-0.5
924.914	-0.5
925.646	-0.5
926.378	1.5
927.11	3.5
927.841	0.5
928.573	2.5
929.305	0.5
930.036	1.5
930.768	0.5
931.499	-1.5
932.23	0.5
932.962	-0.5
933.693	1.5
934.424	-0.5
935.155	1.5
935.886	-0.5
936.617	0.5
937.348	-0.5
938.078	0.5
938.809	3.5
939.54	0.5
940.27	0.5
941.001	0.5
941.731	1.5
942.461	3.5
943.191	0.5
943.922	-1.5
944.652	0.5
945.382	1.5
946.112	1.5
946.841	-1.5
947.571	2.5
948.301	1.5
949.031	1.5
949.76	0.5
950.49	-0.5
951.219	0.5
951.948	1.5
952.678	0.5
953.407	2.5
954.136	1.5
954.865	-0.5
955.594	1.5
956.323	3.5
957.052	2.5
957.78	-2.5
958.509	1.5
959.238	0.5
959.966	-0.5
960.695	-0.5
961.423	-1.5
962.151	0.5
962.88	-1.5
963.608	0.5
964.336	-1.5
965.064	2.5
965.792	0.5
966.52	1.5
967.247	0.5
967.975	0.5
968.703	-0.5
969.43	-0.5
970.158	1.5
970.885	-0.5
971.613	1.5
972.34	-2.5
973.067	-1.5
973.794	2.5
974.521	1.5
975.248	3.5
975.975	1.5
976.702	-0.5
977.429	-0.5
978.156	-1.5
978.882	-0.5
979.609	-0.5
980.335	-0.5
981.062	3.5
981.788	0.5
982.514	3.5
983.24	0.5
983.967	0.5
984.693	-0.5
985.419	-0.5
986.144	-0.5
986.87	-0.5
987.596	1.5
988.322	0.5
989.047	0.5
989.773	1.5
990.498	-2.5
991.224	1.5
991.949	0.5
992.674	2.5
993.399	3.5
994.124	2.5
994.849	-0.5
995.574	-0.5
996.299	0.5
997.024	-0.5
997.749	1.5
998.473	1.5
999.198	-1.5
999.922	0.5
1000.647	1.5
1001.371	4.5
1002.095	-0.5
1002.82	-0.5
1003.544	-0.5
1004.268	-0.5
1004.992	1.5
1005.716	-0.5
1006.439	1.5
1007.163	2.5
1007.887	3.5
1008.611	3.5
1009.334	2.5
1010.058	0.5
1010.781	-0.5
1011.504	-0.5
1012.228	-1.5
1012.951	-2.5
1013.674	-2.5
1014.397	1.5
1015.12	0.5
