节点500_285_QEPB04081__107__14-57-20-283.txt的数据

Date: Wed Nov 12 14:57:20 CST 2025
User: PC
Spectrometer: QEPB0408
触发模式: 0
积分时间 (秒): 1.000000E-2
Scans to average: 1
启用暗噪声校正: true
启用非线性校正: false
滑动平均宽度: 0
X轴模式: Wavelengths
Number of Pixels in Spectrum: 1044
>>>>>Begin Spectral Data<<<<<
220.843	1.38
221.644	2.38
222.444	1.38
223.244	1.38
224.045	0.38
224.845	3.38
225.645	1.38
226.445	0.38
227.245	2.38
228.045	3.38
228.845	5.38
229.645	3.38
230.444	2.38
231.244	0.38
232.043	4.38
232.843	2.38
233.642	5.38
234.442	5.38
235.241	2.38
236.04	3.38
236.839	3.38
237.638	3.38
238.437	5.38
239.236	3.38
240.035	4.38
240.833	5.38
241.632	1.38
242.43	2.38
243.229	5.38
244.027	7.38
244.826	5.38
245.624	5.38
246.422	5.38
247.22	3.38
248.018	5.38
248.816	7.38
249.614	7.38
250.412	8.38
251.21	5.38
252.007	6.38
252.805	6.38
253.602	9.38
254.4	8.38
255.197	6.38
255.994	11.38
256.791	7.38
257.589	9.38
258.386	9.38
259.183	10.38
259.979	14.38
260.776	13.38
261.573	9.38
262.37	9.38
263.166	11.38
263.963	10.38
264.759	14.38
265.556	14.38
266.352	13.38
267.148	13.38
267.944	13.38
268.74	15.38
269.536	17.38
270.332	15.38
271.128	14.38
271.924	19.38
272.719	20.38
273.515	18.38
274.311	18.38
275.106	15.38
275.901	20.38
276.697	16.38
277.492	19.38
278.287	18.38
279.082	21.38
279.877	17.38
280.672	18.38
281.467	19.38
282.262	19.38
283.056	19.38
283.851	19.38
284.646	18.38
285.44	18.38
286.234	21.38
287.029	18.38
287.823	19.38
288.617	22.38
289.411	19.38
290.205	20.38
290.999	18.38
291.793	19.38
292.587	16.38
293.381	17.38
294.174	17.38
294.968	13.38
295.761	15.38
296.555	14.38
297.348	15.38
298.141	15.38
298.935	14.38
299.728	15.38
300.521	13.38
301.314	11.38
302.107	14.38
302.899	14.38
303.692	12.38
304.485	12.38
305.277	13.38
306.07	13.38
306.862	12.38
307.655	12.38
308.447	11.38
309.239	13.38
310.031	12.38
310.823	13.38
311.615	9.38
312.407	9.38
313.199	11.38
313.991	9.38
314.783	10.38
315.574	9.38
316.366	8.38
317.157	9.38
317.949	7.38
318.74	8.38
319.531	7.38
320.322	8.38
321.113	6.38
321.904	10.38
322.695	8.38
323.486	5.38
324.277	6.38
325.068	5.38
325.858	7.38
326.649	8.38
327.439	6.38
328.23	5.38
329.02	5.38
329.81	9.38
330.6	6.38
331.391	6.38
332.181	7.38
332.971	6.38
333.76	5.38
334.55	6.38
335.34	6.38
336.13	6.38
336.919	5.38
337.709	7.38
338.498	7.38
339.287	7.38
340.077	6.38
340.866	6.38
341.655	7.38
342.444	3.38
343.233	7.38
344.022	6.38
344.811	5.38
345.6	4.38
346.388	6.38
347.177	5.38
347.965	7.38
348.754	5.38
349.542	8.38
350.33	5.38
351.119	6.38
351.907	7.38
352.695	5.38
353.483	6.38
354.271	6.38
355.059	5.38
355.846	6.38
356.634	7.38
357.422	6.38
358.209	4.38
358.997	6.38
359.784	4.38
360.571	5.38
361.359	4.38
362.146	6.38
362.933	7.38
363.72	7.38
364.507	5.38
365.294	5.38
366.081	4.38
366.867	5.38
367.654	3.38
368.44	6.38
369.227	3.38
370.013	6.38
370.8	5.38
371.586	6.38
372.372	4.38
373.158	7.38
373.944	5.38
374.73	3.38
375.516	5.38
376.302	5.38
377.088	6.38
377.873	5.38
378.659	7.38
379.445	4.38
380.23	5.38
381.015	4.38
381.801	5.38
382.586	5.38
383.371	6.38
384.156	5.38
384.941	4.38
385.726	4.38
386.511	6.38
387.296	7.38
388.08	5.38
388.865	6.38
389.649	5.38
390.434	6.38
391.218	6.38
392.003	6.38
392.787	7.38
393.571	5.38
394.355	6.38
395.139	6.38
395.923	7.38
396.707	9.38
397.491	5.38
398.274	6.38
399.058	7.38
399.842	6.38
400.625	7.38
401.408	10.38
402.192	7.38
402.975	7.38
403.758	6.38
404.541	6.38
405.324	7.38
406.107	7.38
406.89	6.38
407.673	9.38
408.456	6.38
409.238	7.38
410.021	9.38
410.803	10.38
411.586	8.38
412.368	9.38
413.151	8.38
413.933	7.38
414.715	9.38
415.497	8.38
416.279	9.38
417.061	9.38
417.843	9.38
418.624	11.38
419.406	10.38
420.188	11.38
420.969	11.38
421.751	8.38
422.532	14.38
423.313	8.38
424.095	12.38
424.876	8.38
425.657	11.38
426.438	13.38
427.219	12.38
428	13.38
428.78	12.38
429.561	13.38
430.342	12.38
431.122	13.38
431.903	15.38
432.683	13.38
433.464	16.38
434.244	16.38
435.024	13.38
435.804	17.38
436.584	17.38
437.364	20.38
438.144	20.38
438.924	19.38
439.704	23.38
440.483	22.38
441.263	26.38
442.042	27.38
442.822	23.38
443.601	25.38
444.38	32.38
445.16	33.38
445.939	34.38
446.718	35.38
447.497	38.38
448.276	37.38
449.054	44.38
449.833	45.38
450.612	52.38
451.391	55.38
452.169	62.38
452.948	63.38
453.726	71.38
454.504	72.38
455.282	85.38
456.061	91.38
456.839	100.38
457.617	117.38
458.395	125.38
459.172	139.38
459.95	158.38
460.728	175.38
461.506	193.38
462.283	218.38
463.061	247.38
463.838	275.38
464.615	299.38
465.393	336.38
466.17	376.38
466.947	425.38
467.724	462.38
468.501	525.38
469.278	590.38
470.055	660.38
470.831	740.38
471.608	822.38
472.385	915.38
473.161	1030.38
473.938	1132.38
474.714	1259.38
475.49	1403.38
476.266	1566.38
477.043	1739.38
477.819	1901.38
478.595	2100.38
479.371	2324.38
480.146	2591.38
480.922	2871.38
481.698	3183.38
482.473	3521.38
483.249	3882.38
484.024	4296.38
484.8	4751.38
485.575	5204.38
486.35	5760.38
487.126	6383.38
487.901	7032.38
488.676	7702.38
489.451	8488.38
490.225	9278.38
491	10204.38
491.775	11167.38
492.55	12190.38
493.324	13262.38
494.099	14302.38
494.873	15417.38
495.647	16669.38
496.422	17977.38
497.196	19172.38
497.97	20517.38
498.744	21720.38
499.518	23040.38
500.292	24152.38
501.066	25319.38
501.839	26197.38
502.613	27044.38
503.387	27794.38
504.16	28350.38
504.934	28545.38
505.707	28521.38
506.48	28521.38
507.253	28273.38
508.027	27846.38
508.8	27428.38
509.573	26852.38
510.346	26030.38
511.118	25180.38
511.891	24324.38
512.664	23357.38
513.437	22357.38
514.209	21370.38
514.982	20478.38
515.754	19513.38
516.526	18603.38
517.298	17790.38
518.071	16971.38
518.843	16353.38
519.615	15748.38
520.387	15098.38
521.159	14543.38
521.93	13933.38
522.702	13401.38
523.474	12794.38
524.245	12234.38
525.017	11681.38
525.788	11265.38
526.56	10725.38
527.331	10221.38
528.102	9710.38
528.873	9264.38
529.644	8806.38
530.415	8378.38
531.186	7920.38
531.957	7474.38
532.728	7123.38
533.498	6715.38
534.269	6308.38
535.039	5985.38
535.81	5671.38
536.58	5316.38
537.351	5026.38
538.121	4766.38
538.891	4504.38
539.661	4240.38
540.431	3982.38
541.201	3797.38
541.971	3574.38
542.741	3433.38
543.51	3253.38
544.28	3083.38
545.05	2929.38
545.819	2788.38
546.588	2652.38
547.358	2509.38
548.127	2374.38
548.896	2285.38
549.665	2138.38
550.434	2018.38
551.203	1927.38
551.972	1812.38
552.741	1702.38
553.51	1618.38
554.278	1539.38
555.047	1437.38
555.815	1358.38
556.584	1274.38
557.352	1211.38
558.121	1138.38
558.889	1070.38
559.657	1030.38
560.425	961.38
561.193	907.38
561.961	846.38
562.729	803.38
563.496	760.38
564.264	718.38
565.032	684.38
565.799	641.38
566.567	604.38
567.334	583.38
568.101	538.38
568.869	519.38
569.636	487.38
570.403	454.38
571.17	430.38
571.937	406.38
572.704	385.38
573.471	356.38
574.237	337.38
575.004	316.38
575.771	308.38
576.537	281.38
577.303	271.38
578.07	257.38
578.836	233.38
579.602	220.38
580.368	211.38
581.134	204.38
581.9	186.38
582.666	177.38
583.432	165.38
584.198	164.38
584.964	151.38
585.729	147.38
586.495	141.38
587.26	132.38
588.025	125.38
588.791	118.38
589.556	114.38
590.321	106.38
591.086	99.38
591.851	95.38
592.616	89.38
593.381	89.38
594.146	84.38
594.911	79.38
595.675	72.38
596.44	69.38
597.204	66.38
597.969	68.38
598.733	65.38
599.497	59.38
600.261	57.38
601.025	53.38
601.79	53.38
602.553	51.38
603.317	42.38
604.081	43.38
604.845	44.38
605.609	40.38
606.372	42.38
607.136	37.38
607.899	37.38
608.662	37.38
609.426	36.38
610.189	31.38
610.952	34.38
611.715	33.38
612.478	27.38
613.241	29.38
614.004	25.38
614.767	23.38
615.529	26.38
616.292	22.38
617.055	24.38
617.817	26.38
618.579	23.38
619.342	22.38
620.104	23.38
620.866	19.38
621.628	19.38
622.39	19.38
623.152	18.38
623.914	17.38
624.676	18.38
625.438	17.38
626.199	16.38
626.961	16.38
627.722	14.38
628.484	13.38
629.245	13.38
630.006	13.38
630.768	11.38
631.529	13.38
632.29	13.38
633.051	13.38
633.812	11.38
634.573	10.38
635.333	11.38
636.094	13.38
636.855	11.38
637.615	9.38
638.376	11.38
639.136	8.38
639.896	10.38
640.657	10.38
641.417	11.38
642.177	7.38
642.937	7.38
643.697	8.38
644.457	9.38
645.216	8.38
645.976	7.38
646.736	7.38
647.495	8.38
648.255	5.38
649.014	8.38
649.774	5.38
650.533	9.38
651.292	7.38
652.051	5.38
652.81	8.38
653.569	8.38
654.328	7.38
655.087	8.38
655.846	7.38
656.604	7.38
657.363	7.38
658.121	5.38
658.88	6.38
659.638	10.38
660.397	6.38
661.155	6.38
661.913	6.38
662.671	5.38
663.429	5.38
664.187	5.38
664.945	3.38
665.703	4.38
666.46	6.38
667.218	5.38
667.976	4.38
668.733	5.38
669.49	6.38
670.248	2.38
671.005	2.38
671.762	7.38
672.519	5.38
673.276	4.38
674.033	4.38
674.79	2.38
675.547	6.38
676.304	3.38
677.06	4.38
677.817	2.38
678.574	4.38
679.33	2.38
680.086	4.38
680.843	5.38
681.599	5.38
682.355	6.38
683.111	2.38
683.867	4.38
684.623	3.38
685.379	3.38
686.135	4.38
686.89	2.38
687.646	3.38
688.402	4.38
689.157	1.38
689.912	6.38
690.668	3.38
691.423	4.38
692.178	3.38
692.933	2.38
693.688	2.38
694.443	5.38
695.198	3.38
695.953	1.38
696.708	6.38
697.462	2.38
698.217	2.38
698.972	5.38
699.726	3.38
700.48	3.38
701.235	5.38
701.989	2.38
702.743	4.38
703.497	4.38
704.251	2.38
705.005	5.38
705.759	3.38
706.513	4.38
707.266	1.38
708.02	5.38
708.774	2.38
709.527	3.38
710.28	3.38
711.034	4.38
711.787	4.38
712.54	2.38
713.293	4.38
714.046	2.38
714.799	4.38
715.552	3.38
716.305	2.38
717.058	3.38
717.81	3.38
718.563	4.38
719.315	4.38
720.068	5.38
720.82	3.38
721.573	4.38
722.325	5.38
723.077	2.38
723.829	3.38
724.581	3.38
725.333	2.38
726.085	4.38
726.836	2.38
727.588	3.38
728.34	0.38
729.091	6.38
729.843	3.38
730.594	4.38
731.346	3.38
732.097	6.38
732.848	3.38
733.599	4.38
734.35	3.38
735.101	5.38
735.852	4.38
736.603	5.38
737.354	2.38
738.104	6.38
738.855	3.38
739.605	4.38
740.356	6.38
741.106	6.38
741.856	4.38
742.607	5.38
743.357	6.38
744.107	5.38
744.857	5.38
745.607	6.38
746.357	5.38
747.106	8.38
747.856	6.38
748.606	3.38
749.355	4.38
750.105	6.38
750.854	5.38
751.603	8.38
752.353	6.38
753.102	7.38
753.851	4.38
754.6	6.38
755.349	7.38
756.098	7.38
756.847	9.38
757.595	8.38
758.344	6.38
759.093	8.38
759.841	6.38
760.589	8.38
761.338	5.38
762.086	6.38
762.834	6.38
763.582	8.38
764.331	7.38
765.079	6.38
765.826	8.38
766.574	7.38
767.322	7.38
768.07	6.38
768.817	6.38
769.565	8.38
770.312	10.38
771.06	9.38
771.807	6.38
772.554	9.38
773.302	6.38
774.049	9.38
774.796	10.38
775.543	8.38
776.29	11.38
777.036	7.38
777.783	9.38
778.53	9.38
779.276	7.38
780.023	9.38
780.769	9.38
781.516	8.38
782.262	9.38
783.008	12.38
783.754	10.38
784.5	10.38
785.246	11.38
785.992	10.38
786.738	7.38
787.484	9.38
788.23	9.38
788.975	11.38
789.721	6.38
790.466	8.38
791.212	10.38
791.957	8.38
792.702	9.38
793.447	7.38
794.193	7.38
794.938	7.38
795.683	8.38
796.427	8.38
797.172	7.38
797.917	10.38
798.662	6.38
799.406	8.38
800.151	6.38
800.895	6.38
801.64	8.38
802.384	6.38
803.128	7.38
803.872	5.38
804.616	6.38
805.36	6.38
806.104	4.38
806.848	8.38
807.592	6.38
808.336	5.38
809.079	7.38
809.823	5.38
810.566	7.38
811.31	3.38
812.053	6.38
812.796	5.38
813.539	8.38
814.283	5.38
815.026	6.38
815.769	5.38
816.511	3.38
817.254	4.38
817.997	6.38
818.74	3.38
819.482	4.38
820.225	6.38
820.967	4.38
821.71	6.38
822.452	6.38
823.194	4.38
823.936	4.38
824.678	6.38
825.42	2.38
826.162	4.38
826.904	5.38
827.646	4.38
828.388	6.38
829.129	4.38
829.871	4.38
830.612	4.38
831.354	1.38
832.095	5.38
832.836	1.38
833.577	4.38
834.319	2.38
835.06	3.38
835.801	2.38
836.542	4.38
837.282	4.38
838.023	1.38
838.764	5.38
839.504	3.38
840.245	4.38
840.985	4.38
841.726	1.38
842.466	5.38
843.206	3.38
843.946	2.38
844.687	2.38
845.427	1.38
846.166	3.38
846.906	2.38
847.646	4.38
848.386	1.38
849.125	2.38
849.865	2.38
850.605	3.38
851.344	2.38
852.083	3.38
852.823	4.38
853.562	3.38
854.301	2.38
855.04	1.38
855.779	2.38
856.518	3.38
857.257	2.38
857.995	0.38
858.734	2.38
859.473	-0.62
860.211	5.38
860.95	1.38
861.688	3.38
862.426	3.38
863.165	2.38
863.903	2.38
864.641	2.38
865.379	2.38
866.117	1.38
866.855	2.38
867.593	1.38
868.33	1.38
869.068	2.38
869.806	2.38
870.543	1.38
871.28	1.38
872.018	2.38
872.755	1.38
873.492	0.38
874.229	1.38
874.967	2.38
875.703	0.38
876.44	0.38
877.177	0.38
877.914	1.38
878.651	-0.62
879.387	-1.62
880.124	-0.62
880.86	0.38
881.597	3.38
882.333	-0.62
883.069	1.38
883.806	2.38
884.542	1.38
885.278	1.38
886.014	1.38
886.749	3.38
887.485	1.38
888.221	2.38
888.957	1.38
889.692	-0.62
890.428	1.38
891.163	-1.62
891.899	1.38
892.634	1.38
893.369	2.38
894.104	2.38
894.839	2.38
895.574	1.38
896.309	2.38
897.044	1.38
897.779	1.38
898.514	1.38
899.248	1.38
899.983	0.38
900.717	-1.62
901.452	1.38
902.186	-0.62
902.92	-0.62
903.654	-0.62
904.389	1.38
905.123	2.38
905.857	3.38
906.59	0.38
907.324	2.38
908.058	-0.62
908.792	1.38
909.525	-0.62
910.259	-0.62
910.992	3.38
911.726	1.38
912.459	1.38
913.192	1.38
913.925	0.38
914.658	1.38
915.391	0.38
916.124	0.38
916.857	1.38
917.59	1.38
918.323	0.38
919.055	1.38
919.788	1.38
920.521	0.38
921.253	0.38
921.985	1.38
922.718	0.38
923.45	1.38
924.182	-1.62
924.914	1.38
925.646	2.38
926.378	0.38
927.11	0.38
927.841	0.38
928.573	-0.62
929.305	2.38
930.036	1.38
930.768	0.38
931.499	-1.62
932.23	1.38
932.962	-0.62
933.693	0.38
934.424	0.38
935.155	0.38
935.886	1.38
936.617	-0.62
937.348	1.38
938.078	0.38
938.809	-0.62
939.54	2.38
940.27	0.38
941.001	1.38
941.731	2.38
942.461	1.38
943.191	1.38
943.922	1.38
944.652	-0.62
945.382	-0.62
946.112	0.38
946.841	1.38
947.571	0.38
948.301	1.38
949.031	-0.62
949.76	2.38
950.49	-2.62
951.219	0.38
951.948	0.38
952.678	0.38
953.407	-0.62
954.136	-0.62
954.865	-1.62
955.594	-0.62
956.323	1.38
957.052	0.38
957.78	0.38
958.509	0.38
959.238	1.38
959.966	2.38
960.695	-0.62
961.423	-2.62
962.151	1.38
962.88	-0.62
963.608	0.38
964.336	1.38
965.064	-0.62
965.792	-0.62
966.52	0.38
967.247	-0.62
967.975	-0.62
968.703	1.38
969.43	0.38
970.158	0.38
970.885	-0.62
971.613	1.38
972.34	0.38
973.067	3.38
973.794	0.38
974.521	0.38
975.248	0.38
975.975	2.38
976.702	-0.62
977.429	1.38
978.156	2.38
978.882	1.38
979.609	-0.62
980.335	-0.62
981.062	0.38
981.788	-0.62
982.514	-0.62
983.24	0.38
983.967	0.38
984.693	2.38
985.419	-1.62
986.144	1.38
986.87	1.38
987.596	2.38
988.322	2.38
989.047	0.38
989.773	1.38
990.498	1.38
991.224	0.38
991.949	0.38
992.674	-0.62
993.399	0.38
994.124	-1.62
994.849	1.38
995.574	0.38
996.299	-0.62
997.024	-0.62
997.749	-1.62
998.473	1.38
999.198	1.38
999.922	0.38
1000.647	-0.62
1001.371	2.38
1002.095	-0.62
1002.82	0.38
1003.544	-0.62
1004.268	-0.62
1004.992	0.38
1005.716	1.38
1006.439	1.38
1007.163	4.38
1007.887	0.38
1008.611	0.38
1009.334	0.38
1010.058	-0.62
1010.781	1.38
1011.504	1.38
1012.228	1.38
1012.951	0.38
1013.674	-1.62
1014.397	0.38
1015.12	-0.62
