节点500_285_QEPB04081__399__15-02-11-629.txt的数据

Date: Wed Nov 12 15:02:11 CST 2025
User: PC
Spectrometer: QEPB0408
触发模式: 0
积分时间 (秒): 1.000000E-2
Scans to average: 1
启用暗噪声校正: true
启用非线性校正: false
滑动平均宽度: 0
X轴模式: Wavelengths
Number of Pixels in Spectrum: 1044
>>>>>Begin Spectral Data<<<<<
220.843	3.75
221.644	2.75
222.444	3.75
223.244	0.75
224.045	2.75
224.845	4.75
225.645	1.75
226.445	5.75
227.245	4.75
228.045	2.75
228.845	1.75
229.645	3.75
230.444	3.75
231.244	2.75
232.043	4.75
232.843	3.75
233.642	6.75
234.442	2.75
235.241	3.75
236.04	6.75
236.839	2.75
237.638	3.75
238.437	5.75
239.236	5.75
240.035	2.75
240.833	2.75
241.632	5.75
242.43	4.75
243.229	4.75
244.027	3.75
244.826	2.75
245.624	5.75
246.422	4.75
247.22	7.75
248.018	4.75
248.816	6.75
249.614	4.75
250.412	5.75
251.21	6.75
252.007	6.75
252.805	8.75
253.602	6.75
254.4	5.75
255.197	7.75
255.994	9.75
256.791	9.75
257.589	8.75
258.386	11.75
259.183	10.75
259.979	10.75
260.776	10.75
261.573	8.75
262.37	10.75
263.166	12.75
263.963	11.75
264.759	14.75
265.556	10.75
266.352	12.75
267.148	10.75
267.944	14.75
268.74	13.75
269.536	14.75
270.332	14.75
271.128	15.75
271.924	15.75
272.719	14.75
273.515	17.75
274.311	16.75
275.106	17.75
275.901	16.75
276.697	13.75
277.492	17.75
278.287	18.75
279.082	20.75
279.877	16.75
280.672	17.75
281.467	20.75
282.262	22.75
283.056	19.75
283.851	20.75
284.646	19.75
285.44	18.75
286.234	19.75
287.029	20.75
287.823	20.75
288.617	18.75
289.411	16.75
290.205	18.75
290.999	19.75
291.793	18.75
292.587	18.75
293.381	18.75
294.174	16.75
294.968	18.75
295.761	16.75
296.555	14.75
297.348	18.75
298.141	16.75
298.935	19.75
299.728	14.75
300.521	16.75
301.314	16.75
302.107	16.75
302.899	12.75
303.692	13.75
304.485	12.75
305.277	14.75
306.07	14.75
306.862	11.75
307.655	12.75
308.447	11.75
309.239	13.75
310.031	10.75
310.823	10.75
311.615	12.75
312.407	11.75
313.199	10.75
313.991	12.75
314.783	10.75
315.574	10.75
316.366	8.75
317.157	10.75
317.949	8.75
318.74	8.75
319.531	5.75
320.322	8.75
321.113	8.75
321.904	7.75
322.695	8.75
323.486	9.75
324.277	7.75
325.068	7.75
325.858	7.75
326.649	7.75
327.439	7.75
328.23	7.75
329.02	6.75
329.81	6.75
330.6	6.75
331.391	4.75
332.181	8.75
332.971	7.75
333.76	8.75
334.55	6.75
335.34	7.75
336.13	8.75
336.919	7.75
337.709	9.75
338.498	5.75
339.287	9.75
340.077	7.75
340.866	6.75
341.655	6.75
342.444	5.75
343.233	7.75
344.022	6.75
344.811	6.75
345.6	10.75
346.388	9.75
347.177	6.75
347.965	5.75
348.754	9.75
349.542	7.75
350.33	5.75
351.119	7.75
351.907	5.75
352.695	9.75
353.483	6.75
354.271	7.75
355.059	6.75
355.846	4.75
356.634	6.75
357.422	4.75
358.209	6.75
358.997	6.75
359.784	3.75
360.571	3.75
361.359	4.75
362.146	6.75
362.933	6.75
363.72	4.75
364.507	4.75
365.294	6.75
366.081	6.75
366.867	5.75
367.654	7.75
368.44	5.75
369.227	6.75
370.013	6.75
370.8	4.75
371.586	6.75
372.372	4.75
373.158	6.75
373.944	6.75
374.73	5.75
375.516	3.75
376.302	1.75
377.088	7.75
377.873	3.75
378.659	4.75
379.445	6.75
380.23	3.75
381.015	5.75
381.801	4.75
382.586	7.75
383.371	6.75
384.156	6.75
384.941	5.75
385.726	2.75
386.511	6.75
387.296	6.75
388.08	4.75
388.865	5.75
389.649	7.75
390.434	6.75
391.218	5.75
392.003	7.75
392.787	7.75
393.571	6.75
394.355	6.75
395.139	7.75
395.923	6.75
396.707	8.75
397.491	7.75
398.274	4.75
399.058	6.75
399.842	8.75
400.625	5.75
401.408	6.75
402.192	10.75
402.975	9.75
403.758	8.75
404.541	7.75
405.324	10.75
406.107	7.75
406.89	4.75
407.673	7.75
408.456	5.75
409.238	9.75
410.021	8.75
410.803	8.75
411.586	9.75
412.368	8.75
413.151	7.75
413.933	8.75
414.715	10.75
415.497	10.75
416.279	11.75
417.061	9.75
417.843	10.75
418.624	10.75
419.406	9.75
420.188	10.75
420.969	12.75
421.751	11.75
422.532	11.75
423.313	11.75
424.095	12.75
424.876	12.75
425.657	13.75
426.438	9.75
427.219	13.75
428	12.75
428.78	11.75
429.561	10.75
430.342	13.75
431.122	13.75
431.903	14.75
432.683	17.75
433.464	17.75
434.244	15.75
435.024	16.75
435.804	18.75
436.584	19.75
437.364	19.75
438.144	21.75
438.924	21.75
439.704	22.75
440.483	24.75
441.263	25.75
442.042	27.75
442.822	26.75
443.601	28.75
444.38	30.75
445.16	32.75
445.939	33.75
446.718	36.75
447.497	41.75
448.276	45.75
449.054	44.75
449.833	53.75
450.612	56.75
451.391	59.75
452.169	63.75
452.948	71.75
453.726	76.75
454.504	83.75
455.282	93.75
456.061	101.75
456.839	109.75
457.617	130.75
458.395	138.75
459.172	156.75
459.95	171.75
460.728	199.75
461.506	209.75
462.283	233.75
463.061	258.75
463.838	289.75
464.615	324.75
465.393	365.75
466.17	411.75
466.947	450.75
467.724	500.75
468.501	574.75
469.278	628.75
470.055	698.75
470.831	770.75
471.608	863.75
472.385	962.75
473.161	1047.75
473.938	1169.75
474.714	1294.75
475.49	1446.75
476.266	1608.75
477.043	1749.75
477.819	1946.75
478.595	2149.75
479.371	2341.75
480.146	2595.75
480.922	2854.75
481.698	3132.75
482.473	3439.75
483.249	3799.75
484.024	4182.75
484.8	4577.75
485.575	5036.75
486.35	5525.75
487.126	6054.75
487.901	6642.75
488.676	7259.75
489.451	7935.75
490.225	8665.75
491	9488.75
491.775	10320.75
492.55	11266.75
493.324	12198.75
494.099	13126.75
494.873	14170.75
495.647	15286.75
496.422	16405.75
497.196	17558.75
497.97	18724.75
498.744	19893.75
499.518	21107.75
500.292	22122.75
501.066	23202.75
501.839	24186.75
502.613	25123.75
503.387	25891.75
504.16	26478.75
504.934	26898.75
505.707	27097.75
506.48	27183.75
507.253	27171.75
508.027	26885.75
508.8	26659.75
509.573	26267.75
510.346	25712.75
511.118	24962.75
511.891	24172.75
512.664	23331.75
513.437	22447.75
514.209	21556.75
514.982	20713.75
515.754	19826.75
516.526	18948.75
517.298	18106.75
518.071	17294.75
518.843	16687.75
519.615	16019.75
520.387	15404.75
521.159	14782.75
521.93	14222.75
522.702	13612.75
523.474	13117.75
524.245	12487.75
525.017	12003.75
525.788	11524.75
526.56	10950.75
527.331	10425.75
528.102	10040.75
528.873	9578.75
529.644	9058.75
530.415	8673.75
531.186	8233.75
531.957	7793.75
532.728	7411.75
533.498	7021.75
534.269	6618.75
535.039	6257.75
535.81	5941.75
536.58	5611.75
537.351	5296.75
538.121	5001.75
538.891	4720.75
539.661	4473.75
540.431	4211.75
541.201	3967.75
541.971	3784.75
542.741	3562.75
543.51	3386.75
544.28	3208.75
545.05	3083.75
545.819	2920.75
546.588	2758.75
547.358	2638.75
548.127	2503.75
548.896	2372.75
549.665	2264.75
550.434	2130.75
551.203	2022.75
551.972	1921.75
552.741	1811.75
553.51	1728.75
554.278	1634.75
555.047	1532.75
555.815	1441.75
556.584	1366.75
557.352	1295.75
558.121	1207.75
558.889	1151.75
559.657	1077.75
560.425	1013.75
561.193	963.75
561.961	909.75
562.729	863.75
563.496	809.75
564.264	771.75
565.032	728.75
565.799	692.75
566.567	652.75
567.334	619.75
568.101	575.75
568.869	540.75
569.636	509.75
570.403	492.75
571.17	456.75
571.937	425.75
572.704	412.75
573.471	386.75
574.237	368.75
575.004	347.75
575.771	322.75
576.537	312.75
577.303	290.75
578.07	269.75
578.836	251.75
579.602	241.75
580.368	227.75
581.134	213.75
581.9	204.75
582.666	193.75
583.432	187.75
584.198	175.75
584.964	167.75
585.729	154.75
586.495	149.75
587.26	140.75
588.025	130.75
588.791	124.75
589.556	119.75
590.321	111.75
591.086	107.75
591.851	102.75
592.616	99.75
593.381	91.75
594.146	87.75
594.911	84.75
595.675	79.75
596.44	77.75
597.204	75.75
597.969	69.75
598.733	69.75
599.497	65.75
600.261	63.75
601.025	54.75
601.79	55.75
602.553	53.75
603.317	48.75
604.081	51.75
604.845	47.75
605.609	47.75
606.372	43.75
607.136	40.75
607.899	41.75
608.662	38.75
609.426	40.75
610.189	32.75
610.952	34.75
611.715	31.75
612.478	28.75
613.241	31.75
614.004	27.75
614.767	29.75
615.529	29.75
616.292	25.75
617.055	25.75
617.817	22.75
618.579	21.75
619.342	22.75
620.104	19.75
620.866	22.75
621.628	22.75
622.39	21.75
623.152	19.75
623.914	19.75
624.676	17.75
625.438	16.75
626.199	16.75
626.961	13.75
627.722	15.75
628.484	14.75
629.245	14.75
630.006	17.75
630.768	15.75
631.529	14.75
632.29	13.75
633.051	13.75
633.812	12.75
634.573	11.75
635.333	12.75
636.094	11.75
636.855	14.75
637.615	9.75
638.376	11.75
639.136	14.75
639.896	9.75
640.657	10.75
641.417	10.75
642.177	11.75
642.937	9.75
643.697	9.75
644.457	9.75
645.216	5.75
645.976	8.75
646.736	9.75
647.495	8.75
648.255	6.75
649.014	5.75
649.774	8.75
650.533	6.75
651.292	6.75
652.051	8.75
652.81	9.75
653.569	5.75
654.328	4.75
655.087	8.75
655.846	7.75
656.604	6.75
657.363	6.75
658.121	5.75
658.88	8.75
659.638	6.75
660.397	6.75
661.155	5.75
661.913	5.75
662.671	7.75
663.429	5.75
664.187	6.75
664.945	6.75
665.703	5.75
666.46	6.75
667.218	4.75
667.976	2.75
668.733	5.75
669.49	4.75
670.248	5.75
671.005	4.75
671.762	4.75
672.519	7.75
673.276	4.75
674.033	6.75
674.79	8.75
675.547	3.75
676.304	3.75
677.06	5.75
677.817	5.75
678.574	4.75
679.33	5.75
680.086	3.75
680.843	5.75
681.599	4.75
682.355	6.75
683.111	4.75
683.867	5.75
684.623	4.75
685.379	4.75
686.135	5.75
686.89	3.75
687.646	5.75
688.402	4.75
689.157	3.75
689.912	4.75
690.668	4.75
691.423	6.75
692.178	4.75
692.933	4.75
693.688	4.75
694.443	7.75
695.198	4.75
695.953	4.75
696.708	5.75
697.462	4.75
698.217	2.75
698.972	4.75
699.726	3.75
700.48	1.75
701.235	4.75
701.989	5.75
702.743	3.75
703.497	4.75
704.251	3.75
705.005	5.75
705.759	4.75
706.513	1.75
707.266	4.75
708.02	3.75
708.774	4.75
709.527	5.75
710.28	4.75
711.034	4.75
711.787	1.75
712.54	5.75
713.293	4.75
714.046	5.75
714.799	3.75
715.552	3.75
716.305	5.75
717.058	3.75
717.81	5.75
718.563	4.75
719.315	6.75
720.068	2.75
720.82	2.75
721.573	3.75
722.325	4.75
723.077	4.75
723.829	2.75
724.581	5.75
725.333	4.75
726.085	3.75
726.836	3.75
727.588	3.75
728.34	3.75
729.091	3.75
729.843	5.75
730.594	3.75
731.346	4.75
732.097	5.75
732.848	2.75
733.599	5.75
734.35	5.75
735.101	6.75
735.852	5.75
736.603	2.75
737.354	4.75
738.104	5.75
738.855	4.75
739.605	5.75
740.356	5.75
741.106	5.75
741.856	4.75
742.607	4.75
743.357	5.75
744.107	4.75
744.857	4.75
745.607	3.75
746.357	5.75
747.106	6.75
747.856	6.75
748.606	3.75
749.355	6.75
750.105	5.75
750.854	6.75
751.603	7.75
752.353	3.75
753.102	4.75
753.851	6.75
754.6	4.75
755.349	5.75
756.098	4.75
756.847	6.75
757.595	7.75
758.344	6.75
759.093	7.75
759.841	5.75
760.589	7.75
761.338	5.75
762.086	6.75
762.834	9.75
763.582	4.75
764.331	7.75
765.079	9.75
765.826	8.75
766.574	6.75
767.322	4.75
768.07	6.75
768.817	6.75
769.565	8.75
770.312	9.75
771.06	8.75
771.807	6.75
772.554	6.75
773.302	4.75
774.049	8.75
774.796	10.75
775.543	9.75
776.29	10.75
777.036	8.75
777.783	7.75
778.53	9.75
779.276	9.75
780.023	10.75
780.769	9.75
781.516	9.75
782.262	10.75
783.008	7.75
783.754	9.75
784.5	11.75
785.246	9.75
785.992	10.75
786.738	10.75
787.484	10.75
788.23	7.75
788.975	7.75
789.721	8.75
790.466	9.75
791.212	11.75
791.957	8.75
792.702	8.75
793.447	10.75
794.193	8.75
794.938	8.75
795.683	5.75
796.427	9.75
797.172	7.75
797.917	10.75
798.662	6.75
799.406	6.75
800.151	8.75
800.895	6.75
801.64	9.75
802.384	7.75
803.128	8.75
803.872	8.75
804.616	5.75
805.36	5.75
806.104	6.75
806.848	8.75
807.592	7.75
808.336	7.75
809.079	6.75
809.823	6.75
810.566	5.75
811.31	7.75
812.053	7.75
812.796	7.75
813.539	3.75
814.283	5.75
815.026	4.75
815.769	5.75
816.511	5.75
817.254	5.75
817.997	1.75
818.74	3.75
819.482	5.75
820.225	3.75
820.967	6.75
821.71	6.75
822.452	3.75
823.194	3.75
823.936	4.75
824.678	5.75
825.42	4.75
826.162	6.75
826.904	4.75
827.646	4.75
828.388	6.75
829.129	3.75
829.871	5.75
830.612	7.75
831.354	1.75
832.095	4.75
832.836	4.75
833.577	1.75
834.319	4.75
835.06	5.75
835.801	3.75
836.542	1.75
837.282	4.75
838.023	4.75
838.764	7.75
839.504	2.75
840.245	4.75
840.985	3.75
841.726	4.75
842.466	3.75
843.206	4.75
843.946	6.75
844.687	4.75
845.427	2.75
846.166	3.75
846.906	2.75
847.646	3.75
848.386	2.75
849.125	5.75
849.865	2.75
850.605	1.75
851.344	1.75
852.083	3.75
852.823	4.75
853.562	1.75
854.301	-0.25
855.04	5.75
855.779	4.75
856.518	4.75
857.257	1.75
857.995	4.75
858.734	4.75
859.473	2.75
860.211	2.75
860.95	4.75
861.688	3.75
862.426	-0.25
863.165	2.75
863.903	2.75
864.641	4.75
865.379	2.75
866.117	2.75
866.855	3.75
867.593	1.75
868.33	2.75
869.068	2.75
869.806	2.75
870.543	3.75
871.28	-0.25
872.018	2.75
872.755	1.75
873.492	3.75
874.229	2.75
874.967	1.75
875.703	2.75
876.44	-0.25
877.177	4.75
877.914	3.75
878.651	1.75
879.387	2.75
880.124	2.75
880.86	2.75
881.597	1.75
882.333	2.75
883.069	4.75
883.806	3.75
884.542	2.75
885.278	2.75
886.014	2.75
886.749	0.75
887.485	2.75
888.221	0.75
888.957	0.75
889.692	3.75
890.428	-0.25
891.163	0.75
891.899	0.75
892.634	1.75
893.369	3.75
894.104	2.75
894.839	2.75
895.574	0.75
896.309	2.75
897.044	2.75
897.779	2.75
898.514	0.75
899.248	0.75
899.983	1.75
900.717	-1.25
901.452	1.75
902.186	2.75
902.92	1.75
903.654	2.75
904.389	-1.25
905.123	2.75
905.857	1.75
906.59	1.75
907.324	1.75
908.058	0.75
908.792	0.75
909.525	2.75
910.259	1.75
910.992	3.75
911.726	4.75
912.459	1.75
913.192	0.75
913.925	1.75
914.658	1.75
915.391	2.75
916.124	2.75
916.857	2.75
917.59	2.75
918.323	0.75
919.055	1.75
919.788	-0.25
920.521	1.75
921.253	2.75
921.985	3.75
922.718	0.75
923.45	1.75
924.182	-2.25
924.914	0.75
925.646	2.75
926.378	-0.25
927.11	1.75
927.841	2.75
928.573	-0.25
929.305	0.75
930.036	0.75
930.768	-0.25
931.499	0.75
932.23	1.75
932.962	1.75
933.693	0.75
934.424	1.75
935.155	-0.25
935.886	-2.25
936.617	0.75
937.348	1.75
938.078	1.75
938.809	-0.25
939.54	1.75
940.27	-1.25
941.001	1.75
941.731	0.75
942.461	1.75
943.191	2.75
943.922	1.75
944.652	-1.25
945.382	3.75
946.112	0.75
946.841	1.75
947.571	1.75
948.301	1.75
949.031	0.75
949.76	0.75
950.49	0.75
951.219	1.75
951.948	1.75
952.678	-0.25
953.407	0.75
954.136	2.75
954.865	1.75
955.594	1.75
956.323	1.75
957.052	0.75
957.78	1.75
958.509	2.75
959.238	0.75
959.966	-0.25
960.695	1.75
961.423	-1.25
962.151	0.75
962.88	1.75
963.608	1.75
964.336	0.75
965.064	2.75
965.792	-0.25
966.52	0.75
967.247	1.75
967.975	1.75
968.703	0.75
969.43	0.75
970.158	0.75
970.885	-0.25
971.613	0.75
972.34	1.75
973.067	-0.25
973.794	0.75
974.521	1.75
975.248	1.75
975.975	3.75
976.702	-1.25
977.429	1.75
978.156	2.75
978.882	0.75
979.609	1.75
980.335	0.75
981.062	2.75
981.788	0.75
982.514	1.75
983.24	-1.25
983.967	1.75
984.693	1.75
985.419	1.75
986.144	1.75
986.87	1.75
987.596	-0.25
988.322	1.75
989.047	0.75
989.773	1.75
990.498	2.75
991.224	0.75
991.949	2.75
992.674	1.75
993.399	0.75
994.124	1.75
994.849	-0.25
995.574	2.75
996.299	2.75
997.024	0.75
997.749	2.75
998.473	2.75
999.198	0.75
999.922	0.75
1000.647	-0.25
1001.371	1.75
1002.095	-1.25
1002.82	-0.25
1003.544	-0.25
1004.268	2.75
1004.992	1.75
1005.716	1.75
1006.439	2.75
1007.163	1.75
1007.887	1.75
1008.611	2.75
1009.334	0.75
1010.058	-0.25
1010.781	1.75
1011.504	0.75
1012.228	1.75
1012.951	-0.25
1013.674	-0.25
1014.397	0.75
1015.12	-0.25
