节点500_285_QEPB04081__114__14-57-27-264.txt的数据

Date: Wed Nov 12 14:57:27 CST 2025
User: PC
Spectrometer: QEPB0408
触发模式: 0
积分时间 (秒): 1.000000E-2
Scans to average: 1
启用暗噪声校正: true
启用非线性校正: false
滑动平均宽度: 0
X轴模式: Wavelengths
Number of Pixels in Spectrum: 1044
>>>>>Begin Spectral Data<<<<<
220.843	2.75
221.644	1.75
222.444	1.75
223.244	3.75
224.045	2.75
224.845	3.75
225.645	2.75
226.445	2.75
227.245	3.75
228.045	1.75
228.845	1.75
229.645	2.75
230.444	4.75
231.244	0.75
232.043	3.75
232.843	4.75
233.642	3.75
234.442	6.75
235.241	4.75
236.04	3.75
236.839	5.75
237.638	3.75
238.437	3.75
239.236	4.75
240.035	5.75
240.833	4.75
241.632	5.75
242.43	5.75
243.229	4.75
244.027	6.75
244.826	4.75
245.624	4.75
246.422	6.75
247.22	7.75
248.018	5.75
248.816	7.75
249.614	8.75
250.412	8.75
251.21	7.75
252.007	8.75
252.805	6.75
253.602	5.75
254.4	4.75
255.197	5.75
255.994	7.75
256.791	7.75
257.589	10.75
258.386	8.75
259.183	8.75
259.979	10.75
260.776	9.75
261.573	11.75
262.37	12.75
263.166	9.75
263.963	11.75
264.759	15.75
265.556	13.75
266.352	13.75
267.148	12.75
267.944	13.75
268.74	13.75
269.536	16.75
270.332	15.75
271.128	11.75
271.924	13.75
272.719	18.75
273.515	18.75
274.311	16.75
275.106	17.75
275.901	17.75
276.697	18.75
277.492	17.75
278.287	16.75
279.082	18.75
279.877	19.75
280.672	20.75
281.467	19.75
282.262	20.75
283.056	21.75
283.851	18.75
284.646	19.75
285.44	19.75
286.234	20.75
287.029	22.75
287.823	18.75
288.617	17.75
289.411	17.75
290.205	18.75
290.999	16.75
291.793	20.75
292.587	16.75
293.381	18.75
294.174	14.75
294.968	17.75
295.761	16.75
296.555	11.75
297.348	13.75
298.141	15.75
298.935	14.75
299.728	16.75
300.521	17.75
301.314	15.75
302.107	12.75
302.899	13.75
303.692	13.75
304.485	13.75
305.277	12.75
306.07	13.75
306.862	12.75
307.655	13.75
308.447	14.75
309.239	13.75
310.031	9.75
310.823	12.75
311.615	12.75
312.407	8.75
313.199	11.75
313.991	11.75
314.783	9.75
315.574	8.75
316.366	9.75
317.157	9.75
317.949	10.75
318.74	8.75
319.531	9.75
320.322	7.75
321.113	10.75
321.904	9.75
322.695	7.75
323.486	6.75
324.277	7.75
325.068	6.75
325.858	11.75
326.649	7.75
327.439	6.75
328.23	7.75
329.02	7.75
329.81	6.75
330.6	7.75
331.391	7.75
332.181	7.75
332.971	7.75
333.76	7.75
334.55	4.75
335.34	7.75
336.13	6.75
336.919	7.75
337.709	9.75
338.498	6.75
339.287	5.75
340.077	6.75
340.866	5.75
341.655	6.75
342.444	6.75
343.233	5.75
344.022	6.75
344.811	10.75
345.6	4.75
346.388	6.75
347.177	7.75
347.965	3.75
348.754	5.75
349.542	5.75
350.33	5.75
351.119	9.75
351.907	6.75
352.695	6.75
353.483	6.75
354.271	8.75
355.059	4.75
355.846	5.75
356.634	8.75
357.422	4.75
358.209	6.75
358.997	6.75
359.784	4.75
360.571	5.75
361.359	6.75
362.146	5.75
362.933	4.75
363.72	7.75
364.507	5.75
365.294	6.75
366.081	6.75
366.867	3.75
367.654	7.75
368.44	4.75
369.227	5.75
370.013	5.75
370.8	6.75
371.586	6.75
372.372	3.75
373.158	5.75
373.944	6.75
374.73	5.75
375.516	5.75
376.302	3.75
377.088	4.75
377.873	4.75
378.659	5.75
379.445	0.75
380.23	6.75
381.015	4.75
381.801	6.75
382.586	4.75
383.371	4.75
384.156	5.75
384.941	6.75
385.726	2.75
386.511	6.75
387.296	6.75
388.08	6.75
388.865	5.75
389.649	5.75
390.434	4.75
391.218	4.75
392.003	6.75
392.787	4.75
393.571	6.75
394.355	5.75
395.139	8.75
395.923	5.75
396.707	7.75
397.491	8.75
398.274	6.75
399.058	5.75
399.842	8.75
400.625	4.75
401.408	7.75
402.192	4.75
402.975	9.75
403.758	7.75
404.541	8.75
405.324	8.75
406.107	8.75
406.89	8.75
407.673	8.75
408.456	9.75
409.238	7.75
410.021	8.75
410.803	7.75
411.586	9.75
412.368	10.75
413.151	8.75
413.933	10.75
414.715	9.75
415.497	8.75
416.279	11.75
417.061	8.75
417.843	9.75
418.624	8.75
419.406	11.75
420.188	9.75
420.969	9.75
421.751	9.75
422.532	11.75
423.313	11.75
424.095	10.75
424.876	12.75
425.657	11.75
426.438	9.75
427.219	9.75
428	10.75
428.78	13.75
429.561	13.75
430.342	13.75
431.122	15.75
431.903	15.75
432.683	15.75
433.464	15.75
434.244	13.75
435.024	16.75
435.804	17.75
436.584	17.75
437.364	19.75
438.144	19.75
438.924	20.75
439.704	21.75
440.483	21.75
441.263	24.75
442.042	21.75
442.822	26.75
443.601	28.75
444.38	26.75
445.16	31.75
445.939	32.75
446.718	35.75
447.497	38.75
448.276	40.75
449.054	44.75
449.833	48.75
450.612	51.75
451.391	52.75
452.169	61.75
452.948	62.75
453.726	70.75
454.504	76.75
455.282	79.75
456.061	94.75
456.839	101.75
457.617	113.75
458.395	128.75
459.172	142.75
459.95	155.75
460.728	171.75
461.506	199.75
462.283	219.75
463.061	245.75
463.838	270.75
464.615	307.75
465.393	335.75
466.17	381.75
466.947	423.75
467.724	472.75
468.501	534.75
469.278	591.75
470.055	669.75
470.831	738.75
471.608	827.75
472.385	924.75
473.161	1012.75
473.938	1131.75
474.714	1258.75
475.49	1400.75
476.266	1565.75
477.043	1728.75
477.819	1892.75
478.595	2118.75
479.371	2351.75
480.146	2592.75
480.922	2874.75
481.698	3157.75
482.473	3535.75
483.249	3869.75
484.024	4267.75
484.8	4751.75
485.575	5234.75
486.35	5767.75
487.126	6357.75
487.901	7008.75
488.676	7691.75
489.451	8473.75
490.225	9283.75
491	10204.75
491.775	11152.75
492.55	12186.75
493.324	13261.75
494.099	14288.75
494.873	15439.75
495.647	16641.75
496.422	17929.75
497.196	19154.75
497.97	20468.75
498.744	21705.75
499.518	22923.75
500.292	24102.75
501.066	25180.75
501.839	26137.75
502.613	27001.75
503.387	27720.75
504.16	28253.75
504.934	28474.75
505.707	28554.75
506.48	28473.75
507.253	28247.75
508.027	27929.75
508.8	27384.75
509.573	26809.75
510.346	26039.75
511.118	25192.75
511.891	24307.75
512.664	23325.75
513.437	22393.75
514.209	21334.75
514.982	20410.75
515.754	19494.75
516.526	18657.75
517.298	17795.75
518.071	17003.75
518.843	16336.75
519.615	15735.75
520.387	15122.75
521.159	14450.75
521.93	13943.75
522.702	13408.75
523.474	12816.75
524.245	12208.75
525.017	11713.75
525.788	11255.75
526.56	10735.75
527.331	10239.75
528.102	9735.75
528.873	9305.75
529.644	8780.75
530.415	8383.75
531.186	7931.75
531.957	7495.75
532.728	7111.75
533.498	6751.75
534.269	6317.75
535.039	5972.75
535.81	5640.75
536.58	5344.75
537.351	5010.75
538.121	4763.75
538.891	4497.75
539.661	4252.75
540.431	4024.75
541.201	3795.75
541.971	3592.75
542.741	3442.75
543.51	3217.75
544.28	3077.75
545.05	2937.75
545.819	2792.75
546.588	2636.75
547.358	2497.75
548.127	2404.75
548.896	2240.75
549.665	2146.75
550.434	2027.75
551.203	1940.75
551.972	1835.75
552.741	1717.75
553.51	1647.75
554.278	1538.75
555.047	1439.75
555.815	1357.75
556.584	1288.75
557.352	1211.75
558.121	1159.75
558.889	1073.75
559.657	1022.75
560.425	962.75
561.193	904.75
561.961	853.75
562.729	809.75
563.496	762.75
564.264	716.75
565.032	688.75
565.799	648.75
566.567	607.75
567.334	571.75
568.101	547.75
568.869	516.75
569.636	482.75
570.403	462.75
571.17	436.75
571.937	401.75
572.704	387.75
573.471	362.75
574.237	351.75
575.004	314.75
575.771	307.75
576.537	284.75
577.303	267.75
578.07	255.75
578.836	238.75
579.602	220.75
580.368	213.75
581.134	199.75
581.9	188.75
582.666	182.75
583.432	172.75
584.198	166.75
584.964	154.75
585.729	147.75
586.495	142.75
587.26	133.75
588.025	124.75
588.791	115.75
589.556	112.75
590.321	109.75
591.086	98.75
591.851	94.75
592.616	90.75
593.381	82.75
594.146	82.75
594.911	80.75
595.675	73.75
596.44	72.75
597.204	67.75
597.969	65.75
598.733	63.75
599.497	62.75
600.261	58.75
601.025	55.75
601.79	52.75
602.553	52.75
603.317	46.75
604.081	46.75
604.845	44.75
605.609	40.75
606.372	38.75
607.136	38.75
607.899	37.75
608.662	35.75
609.426	34.75
610.189	32.75
610.952	31.75
611.715	32.75
612.478	28.75
613.241	29.75
614.004	28.75
614.767	25.75
615.529	24.75
616.292	24.75
617.055	26.75
617.817	22.75
618.579	24.75
619.342	19.75
620.104	22.75
620.866	19.75
621.628	17.75
622.39	18.75
623.152	19.75
623.914	17.75
624.676	17.75
625.438	17.75
626.199	16.75
626.961	14.75
627.722	14.75
628.484	14.75
629.245	14.75
630.006	12.75
630.768	13.75
631.529	14.75
632.29	13.75
633.051	11.75
633.812	9.75
634.573	12.75
635.333	14.75
636.094	10.75
636.855	13.75
637.615	9.75
638.376	9.75
639.136	11.75
639.896	9.75
640.657	10.75
641.417	8.75
642.177	9.75
642.937	8.75
643.697	10.75
644.457	8.75
645.216	9.75
645.976	9.75
646.736	7.75
647.495	7.75
648.255	8.75
649.014	7.75
649.774	7.75
650.533	5.75
651.292	5.75
652.051	10.75
652.81	8.75
653.569	6.75
654.328	6.75
655.087	5.75
655.846	8.75
656.604	6.75
657.363	7.75
658.121	7.75
658.88	5.75
659.638	2.75
660.397	5.75
661.155	6.75
661.913	6.75
662.671	6.75
663.429	6.75
664.187	4.75
664.945	5.75
665.703	3.75
666.46	3.75
667.218	5.75
667.976	6.75
668.733	6.75
669.49	3.75
670.248	4.75
671.005	5.75
671.762	6.75
672.519	5.75
673.276	4.75
674.033	4.75
674.79	5.75
675.547	5.75
676.304	5.75
677.06	4.75
677.817	3.75
678.574	5.75
679.33	2.75
680.086	6.75
680.843	4.75
681.599	4.75
682.355	4.75
683.111	3.75
683.867	6.75
684.623	3.75
685.379	5.75
686.135	2.75
686.89	2.75
687.646	2.75
688.402	3.75
689.157	4.75
689.912	4.75
690.668	4.75
691.423	4.75
692.178	2.75
692.933	5.75
693.688	2.75
694.443	5.75
695.198	4.75
695.953	4.75
696.708	3.75
697.462	1.75
698.217	3.75
698.972	5.75
699.726	3.75
700.48	2.75
701.235	3.75
701.989	4.75
702.743	2.75
703.497	1.75
704.251	1.75
705.005	3.75
705.759	4.75
706.513	2.75
707.266	2.75
708.02	3.75
708.774	4.75
709.527	3.75
710.28	3.75
711.034	3.75
711.787	4.75
712.54	3.75
713.293	3.75
714.046	4.75
714.799	3.75
715.552	3.75
716.305	4.75
717.058	3.75
717.81	4.75
718.563	2.75
719.315	3.75
720.068	5.75
720.82	4.75
721.573	3.75
722.325	2.75
723.077	3.75
723.829	2.75
724.581	3.75
725.333	3.75
726.085	2.75
726.836	3.75
727.588	3.75
728.34	2.75
729.091	5.75
729.843	3.75
730.594	3.75
731.346	2.75
732.097	4.75
732.848	4.75
733.599	2.75
734.35	6.75
735.101	4.75
735.852	1.75
736.603	5.75
737.354	3.75
738.104	4.75
738.855	5.75
739.605	7.75
740.356	5.75
741.106	4.75
741.856	4.75
742.607	4.75
743.357	4.75
744.107	5.75
744.857	4.75
745.607	9.75
746.357	4.75
747.106	6.75
747.856	5.75
748.606	4.75
749.355	5.75
750.105	6.75
750.854	5.75
751.603	4.75
752.353	10.75
753.102	7.75
753.851	5.75
754.6	7.75
755.349	6.75
756.098	3.75
756.847	5.75
757.595	7.75
758.344	7.75
759.093	8.75
759.841	6.75
760.589	4.75
761.338	6.75
762.086	6.75
762.834	5.75
763.582	6.75
764.331	4.75
765.079	7.75
765.826	5.75
766.574	9.75
767.322	8.75
768.07	8.75
768.817	10.75
769.565	3.75
770.312	6.75
771.06	5.75
771.807	8.75
772.554	9.75
773.302	8.75
774.049	8.75
774.796	9.75
775.543	8.75
776.29	9.75
777.036	8.75
777.783	9.75
778.53	6.75
779.276	10.75
780.023	10.75
780.769	10.75
781.516	10.75
782.262	10.75
783.008	9.75
783.754	7.75
784.5	9.75
785.246	8.75
785.992	8.75
786.738	8.75
787.484	9.75
788.23	12.75
788.975	8.75
789.721	9.75
790.466	8.75
791.212	8.75
791.957	9.75
792.702	9.75
793.447	9.75
794.193	7.75
794.938	8.75
795.683	6.75
796.427	6.75
797.172	8.75
797.917	9.75
798.662	7.75
799.406	5.75
800.151	6.75
800.895	7.75
801.64	7.75
802.384	9.75
803.128	7.75
803.872	11.75
804.616	6.75
805.36	6.75
806.104	8.75
806.848	6.75
807.592	7.75
808.336	6.75
809.079	5.75
809.823	7.75
810.566	7.75
811.31	7.75
812.053	7.75
812.796	7.75
813.539	5.75
814.283	4.75
815.026	4.75
815.769	5.75
816.511	4.75
817.254	6.75
817.997	5.75
818.74	3.75
819.482	6.75
820.225	5.75
820.967	3.75
821.71	5.75
822.452	4.75
823.194	4.75
823.936	7.75
824.678	4.75
825.42	1.75
826.162	4.75
826.904	1.75
827.646	4.75
828.388	2.75
829.129	3.75
829.871	3.75
830.612	2.75
831.354	2.75
832.095	1.75
832.836	4.75
833.577	3.75
834.319	4.75
835.06	6.75
835.801	4.75
836.542	3.75
837.282	1.75
838.023	3.75
838.764	2.75
839.504	3.75
840.245	4.75
840.985	4.75
841.726	4.75
842.466	5.75
843.206	2.75
843.946	3.75
844.687	1.75
845.427	4.75
846.166	4.75
846.906	4.75
847.646	3.75
848.386	4.75
849.125	1.75
849.865	0.75
850.605	5.75
851.344	2.75
852.083	2.75
852.823	5.75
853.562	1.75
854.301	4.75
855.04	1.75
855.779	2.75
856.518	3.75
857.257	3.75
857.995	2.75
858.734	3.75
859.473	1.75
860.211	1.75
860.95	-0.25
861.688	3.75
862.426	1.75
863.165	-0.25
863.903	1.75
864.641	2.75
865.379	4.75
866.117	3.75
866.855	1.75
867.593	0.75
868.33	1.75
869.068	1.75
869.806	0.75
870.543	3.75
871.28	0.75
872.018	-0.25
872.755	0.75
873.492	0.75
874.229	1.75
874.967	3.75
875.703	2.75
876.44	0.75
877.177	0.75
877.914	3.75
878.651	2.75
879.387	1.75
880.124	-0.25
880.86	2.75
881.597	-0.25
882.333	1.75
883.069	-0.25
883.806	2.75
884.542	2.75
885.278	0.75
886.014	3.75
886.749	0.75
887.485	1.75
888.221	-0.25
888.957	3.75
889.692	0.75
890.428	-0.25
891.163	-0.25
891.899	1.75
892.634	2.75
893.369	1.75
894.104	0.75
894.839	3.75
895.574	0.75
896.309	1.75
897.044	1.75
897.779	0.75
898.514	1.75
899.248	-1.25
899.983	1.75
900.717	0.75
901.452	-0.25
902.186	-0.25
902.92	-1.25
903.654	3.75
904.389	0.75
905.123	1.75
905.857	1.75
906.59	0.75
907.324	1.75
908.058	0.75
908.792	1.75
909.525	0.75
910.259	1.75
910.992	0.75
911.726	1.75
912.459	2.75
913.192	0.75
913.925	0.75
914.658	-1.25
915.391	0.75
916.124	-0.25
916.857	0.75
917.59	1.75
918.323	-0.25
919.055	1.75
919.788	0.75
920.521	0.75
921.253	1.75
921.985	-0.25
922.718	1.75
923.45	2.75
924.182	1.75
924.914	-0.25
925.646	-1.25
926.378	-0.25
927.11	-0.25
927.841	2.75
928.573	-1.25
929.305	1.75
930.036	1.75
930.768	1.75
931.499	-0.25
932.23	0.75
932.962	-0.25
933.693	-0.25
934.424	0.75
935.155	2.75
935.886	0.75
936.617	1.75
937.348	0.75
938.078	0.75
938.809	0.75
939.54	2.75
940.27	-0.25
941.001	2.75
941.731	-0.25
942.461	1.75
943.191	0.75
943.922	3.75
944.652	-0.25
945.382	2.75
946.112	1.75
946.841	0.75
947.571	0.75
948.301	1.75
949.031	-0.25
949.76	-0.25
950.49	1.75
951.219	0.75
951.948	-0.25
952.678	0.75
953.407	-2.25
954.136	0.75
954.865	-1.25
955.594	2.75
956.323	1.75
957.052	0.75
957.78	1.75
958.509	-0.25
959.238	-2.25
959.966	0.75
960.695	-0.25
961.423	-0.25
962.151	1.75
962.88	0.75
963.608	-0.25
964.336	-0.25
965.064	1.75
965.792	-0.25
966.52	-0.25
967.247	-0.25
967.975	1.75
968.703	0.75
969.43	-0.25
970.158	0.75
970.885	-1.25
971.613	-0.25
972.34	0.75
973.067	-0.25
973.794	2.75
974.521	0.75
975.248	-1.25
975.975	-0.25
976.702	-0.25
977.429	0.75
978.156	-1.25
978.882	0.75
979.609	-0.25
980.335	1.75
981.062	1.75
981.788	-0.25
982.514	-0.25
983.24	-0.25
983.967	0.75
984.693	-1.25
985.419	1.75
986.144	2.75
986.87	1.75
987.596	1.75
988.322	0.75
989.047	1.75
989.773	-2.25
990.498	4.75
991.224	0.75
991.949	-0.25
992.674	-1.25
993.399	-0.25
994.124	-0.25
994.849	-0.25
995.574	0.75
996.299	3.75
997.024	-1.25
997.749	1.75
998.473	1.75
999.198	-0.25
999.922	-0.25
1000.647	1.75
1001.371	4.75
1002.095	-0.25
1002.82	-2.25
1003.544	1.75
1004.268	0.75
1004.992	-2.25
1005.716	1.75
1006.439	1.75
1007.163	0.75
1007.887	1.75
1008.611	1.75
1009.334	1.75
1010.058	0.75
1010.781	0.75
1011.504	3.75
1012.228	1.75
1012.951	-0.25
1013.674	-1.25
1014.397	-0.25
1015.12	-2.25
