节点500_285_QEPB04081__680__15-06-51-936.txt的数据

Date: Wed Nov 12 15:06:51 CST 2025
User: PC
Spectrometer: QEPB0408
触发模式: 0
积分时间 (秒): 1.000000E-2
Scans to average: 1
启用暗噪声校正: true
启用非线性校正: false
滑动平均宽度: 0
X轴模式: Wavelengths
Number of Pixels in Spectrum: 1044
>>>>>Begin Spectral Data<<<<<
220.843	1.38
221.644	2.38
222.444	-0.62
223.244	2.38
224.045	2.38
224.845	2.38
225.645	-0.62
226.445	1.38
227.245	1.38
228.045	1.38
228.845	3.38
229.645	2.38
230.444	2.38
231.244	4.38
232.043	2.38
232.843	2.38
233.642	2.38
234.442	3.38
235.241	3.38
236.04	3.38
236.839	4.38
237.638	3.38
238.437	5.38
239.236	3.38
240.035	3.38
240.833	4.38
241.632	4.38
242.43	4.38
243.229	5.38
244.027	4.38
244.826	3.38
245.624	3.38
246.422	4.38
247.22	6.38
248.018	6.38
248.816	5.38
249.614	4.38
250.412	6.38
251.21	5.38
252.007	5.38
252.805	5.38
253.602	6.38
254.4	7.38
255.197	6.38
255.994	8.38
256.791	5.38
257.589	8.38
258.386	9.38
259.183	9.38
259.979	7.38
260.776	8.38
261.573	8.38
262.37	7.38
263.166	10.38
263.963	10.38
264.759	10.38
265.556	10.38
266.352	11.38
267.148	10.38
267.944	9.38
268.74	12.38
269.536	11.38
270.332	13.38
271.128	13.38
271.924	12.38
272.719	12.38
273.515	12.38
274.311	15.38
275.106	13.38
275.901	15.38
276.697	12.38
277.492	16.38
278.287	17.38
279.082	11.38
279.877	16.38
280.672	14.38
281.467	15.38
282.262	15.38
283.056	17.38
283.851	17.38
284.646	17.38
285.44	15.38
286.234	16.38
287.029	15.38
287.823	17.38
288.617	13.38
289.411	14.38
290.205	16.38
290.999	18.38
291.793	13.38
292.587	16.38
293.381	14.38
294.174	14.38
294.968	13.38
295.761	15.38
296.555	14.38
297.348	12.38
298.141	10.38
298.935	16.38
299.728	13.38
300.521	13.38
301.314	14.38
302.107	11.38
302.899	13.38
303.692	11.38
304.485	13.38
305.277	10.38
306.07	11.38
306.862	10.38
307.655	14.38
308.447	12.38
309.239	10.38
310.031	12.38
310.823	10.38
311.615	10.38
312.407	6.38
313.199	9.38
313.991	8.38
314.783	9.38
315.574	9.38
316.366	8.38
317.157	7.38
317.949	9.38
318.74	8.38
319.531	6.38
320.322	9.38
321.113	7.38
321.904	7.38
322.695	7.38
323.486	7.38
324.277	4.38
325.068	8.38
325.858	7.38
326.649	6.38
327.439	7.38
328.23	5.38
329.02	8.38
329.81	5.38
330.6	5.38
331.391	4.38
332.181	3.38
332.971	5.38
333.76	5.38
334.55	7.38
335.34	8.38
336.13	5.38
336.919	7.38
337.709	6.38
338.498	7.38
339.287	4.38
340.077	7.38
340.866	4.38
341.655	6.38
342.444	8.38
343.233	7.38
344.022	6.38
344.811	4.38
345.6	5.38
346.388	4.38
347.177	5.38
347.965	4.38
348.754	4.38
349.542	6.38
350.33	4.38
351.119	7.38
351.907	4.38
352.695	6.38
353.483	2.38
354.271	5.38
355.059	6.38
355.846	4.38
356.634	6.38
357.422	3.38
358.209	4.38
358.997	5.38
359.784	2.38
360.571	4.38
361.359	6.38
362.146	4.38
362.933	4.38
363.72	7.38
364.507	4.38
365.294	4.38
366.081	5.38
366.867	2.38
367.654	5.38
368.44	5.38
369.227	7.38
370.013	5.38
370.8	4.38
371.586	5.38
372.372	4.38
373.158	5.38
373.944	7.38
374.73	4.38
375.516	5.38
376.302	4.38
377.088	6.38
377.873	5.38
378.659	5.38
379.445	4.38
380.23	5.38
381.015	6.38
381.801	3.38
382.586	6.38
383.371	5.38
384.156	2.38
384.941	4.38
385.726	6.38
386.511	6.38
387.296	4.38
388.08	6.38
388.865	5.38
389.649	5.38
390.434	7.38
391.218	5.38
392.003	4.38
392.787	6.38
393.571	5.38
394.355	5.38
395.139	6.38
395.923	4.38
396.707	5.38
397.491	7.38
398.274	8.38
399.058	7.38
399.842	8.38
400.625	5.38
401.408	4.38
402.192	5.38
402.975	6.38
403.758	6.38
404.541	8.38
405.324	5.38
406.107	5.38
406.89	6.38
407.673	7.38
408.456	8.38
409.238	6.38
410.021	8.38
410.803	8.38
411.586	7.38
412.368	8.38
413.151	7.38
413.933	7.38
414.715	6.38
415.497	8.38
416.279	7.38
417.061	9.38
417.843	11.38
418.624	8.38
419.406	9.38
420.188	9.38
420.969	10.38
421.751	10.38
422.532	8.38
423.313	11.38
424.095	10.38
424.876	12.38
425.657	9.38
426.438	11.38
427.219	11.38
428	9.38
428.78	11.38
429.561	12.38
430.342	11.38
431.122	13.38
431.903	13.38
432.683	11.38
433.464	13.38
434.244	17.38
435.024	14.38
435.804	16.38
436.584	15.38
437.364	18.38
438.144	20.38
438.924	17.38
439.704	20.38
440.483	22.38
441.263	22.38
442.042	21.38
442.822	25.38
443.601	27.38
444.38	28.38
445.16	30.38
445.939	33.38
446.718	35.38
447.497	39.38
448.276	40.38
449.054	45.38
449.833	46.38
450.612	52.38
451.391	57.38
452.169	62.38
452.948	64.38
453.726	74.38
454.504	81.38
455.282	89.38
456.061	93.38
456.839	111.38
457.617	120.38
458.395	136.38
459.172	149.38
459.95	164.38
460.728	193.38
461.506	208.38
462.283	232.38
463.061	259.38
463.838	285.38
464.615	325.38
465.393	356.38
466.17	394.38
466.947	438.38
467.724	489.38
468.501	546.38
469.278	615.38
470.055	665.38
470.831	738.38
471.608	832.38
472.385	905.38
473.161	1009.38
473.938	1100.38
474.714	1212.38
475.49	1343.38
476.266	1458.38
477.043	1610.38
477.819	1767.38
478.595	1952.38
479.371	2152.38
480.146	2329.38
480.922	2567.38
481.698	2827.38
482.473	3091.38
483.249	3366.38
484.024	3698.38
484.8	4050.38
485.575	4391.38
486.35	4798.38
487.126	5231.38
487.901	5698.38
488.676	6234.38
489.451	6814.38
490.225	7378.38
491	8042.38
491.775	8739.38
492.55	9484.38
493.324	10211.38
494.099	10973.38
494.873	11788.38
495.647	12716.38
496.422	13613.38
497.196	14569.38
497.97	15522.38
498.744	16561.38
499.518	17542.38
500.292	18440.38
501.066	19456.38
501.839	20240.38
502.613	21073.38
503.387	21815.38
504.16	22516.38
504.934	22873.38
505.707	23212.38
506.48	23360.38
507.253	23461.38
508.027	23427.38
508.8	23324.38
509.573	23156.38
510.346	22808.38
511.118	22282.38
511.891	21732.38
512.664	21072.38
513.437	20388.38
514.209	19627.38
514.982	18944.38
515.754	18162.38
516.526	17388.38
517.298	16723.38
518.071	16073.38
518.843	15467.38
519.615	14873.38
520.387	14297.38
521.159	13731.38
521.93	13141.38
522.702	12700.38
523.474	12133.38
524.245	11617.38
525.017	11140.38
525.788	10689.38
526.56	10215.38
527.331	9745.38
528.102	9313.38
528.873	8957.38
529.644	8510.38
530.415	8119.38
531.186	7728.38
531.957	7347.38
532.728	6998.38
533.498	6666.38
534.269	6272.38
535.039	5954.38
535.81	5642.38
536.58	5347.38
537.351	5052.38
538.121	4767.38
538.891	4500.38
539.661	4263.38
540.431	4013.38
541.201	3798.38
541.971	3587.38
542.741	3416.38
543.51	3243.38
544.28	3084.38
545.05	2940.38
545.819	2791.38
546.588	2659.38
547.358	2527.38
548.127	2404.38
548.896	2273.38
549.665	2153.38
550.434	2055.38
551.203	1941.38
551.972	1850.38
552.741	1722.38
553.51	1650.38
554.278	1554.38
555.047	1464.38
555.815	1377.38
556.584	1317.38
557.352	1235.38
558.121	1163.38
558.889	1102.38
559.657	1054.38
560.425	996.38
561.193	934.38
561.961	881.38
562.729	832.38
563.496	783.38
564.264	742.38
565.032	697.38
565.799	668.38
566.567	628.38
567.334	585.38
568.101	565.38
568.869	536.38
569.636	506.38
570.403	469.38
571.17	435.38
571.937	413.38
572.704	398.38
573.471	366.38
574.237	351.38
575.004	334.38
575.771	308.38
576.537	295.38
577.303	280.38
578.07	261.38
578.836	242.38
579.602	227.38
580.368	214.38
581.134	213.38
581.9	198.38
582.666	188.38
583.432	177.38
584.198	169.38
584.964	160.38
585.729	152.38
586.495	142.38
587.26	136.38
588.025	127.38
588.791	126.38
589.556	117.38
590.321	112.38
591.086	102.38
591.851	99.38
592.616	92.38
593.381	91.38
594.146	83.38
594.911	83.38
595.675	81.38
596.44	70.38
597.204	67.38
597.969	69.38
598.733	63.38
599.497	62.38
600.261	59.38
601.025	54.38
601.79	54.38
602.553	47.38
603.317	47.38
604.081	46.38
604.845	46.38
605.609	42.38
606.372	43.38
607.136	41.38
607.899	38.38
608.662	38.38
609.426	37.38
610.189	36.38
610.952	29.38
611.715	28.38
612.478	32.38
613.241	28.38
614.004	27.38
614.767	25.38
615.529	26.38
616.292	25.38
617.055	23.38
617.817	25.38
618.579	24.38
619.342	22.38
620.104	20.38
620.866	20.38
621.628	20.38
622.39	19.38
623.152	18.38
623.914	16.38
624.676	18.38
625.438	17.38
626.199	14.38
626.961	14.38
627.722	13.38
628.484	14.38
629.245	13.38
630.006	13.38
630.768	13.38
631.529	12.38
632.29	13.38
633.051	10.38
633.812	11.38
634.573	11.38
635.333	14.38
636.094	9.38
636.855	9.38
637.615	9.38
638.376	9.38
639.136	11.38
639.896	8.38
640.657	8.38
641.417	9.38
642.177	8.38
642.937	9.38
643.697	8.38
644.457	8.38
645.216	6.38
645.976	6.38
646.736	9.38
647.495	6.38
648.255	10.38
649.014	5.38
649.774	7.38
650.533	7.38
651.292	9.38
652.051	8.38
652.81	6.38
653.569	6.38
654.328	7.38
655.087	8.38
655.846	5.38
656.604	7.38
657.363	8.38
658.121	5.38
658.88	5.38
659.638	6.38
660.397	5.38
661.155	4.38
661.913	5.38
662.671	5.38
663.429	3.38
664.187	5.38
664.945	8.38
665.703	5.38
666.46	3.38
667.218	4.38
667.976	8.38
668.733	4.38
669.49	5.38
670.248	6.38
671.005	6.38
671.762	7.38
672.519	3.38
673.276	5.38
674.033	4.38
674.79	5.38
675.547	5.38
676.304	6.38
677.06	6.38
677.817	3.38
678.574	4.38
679.33	2.38
680.086	3.38
680.843	3.38
681.599	5.38
682.355	5.38
683.111	3.38
683.867	4.38
684.623	4.38
685.379	0.38
686.135	4.38
686.89	3.38
687.646	5.38
688.402	1.38
689.157	4.38
689.912	4.38
690.668	2.38
691.423	1.38
692.178	4.38
692.933	3.38
693.688	4.38
694.443	4.38
695.198	4.38
695.953	3.38
696.708	1.38
697.462	5.38
698.217	5.38
698.972	4.38
699.726	3.38
700.48	4.38
701.235	4.38
701.989	2.38
702.743	2.38
703.497	7.38
704.251	-0.62
705.005	6.38
705.759	5.38
706.513	3.38
707.266	4.38
708.02	3.38
708.774	5.38
709.527	4.38
710.28	3.38
711.034	3.38
711.787	3.38
712.54	5.38
713.293	3.38
714.046	2.38
714.799	1.38
715.552	2.38
716.305	2.38
717.058	5.38
717.81	4.38
718.563	2.38
719.315	6.38
720.068	4.38
720.82	0.38
721.573	3.38
722.325	1.38
723.077	5.38
723.829	2.38
724.581	3.38
725.333	6.38
726.085	4.38
726.836	5.38
727.588	4.38
728.34	5.38
729.091	4.38
729.843	5.38
730.594	4.38
731.346	5.38
732.097	4.38
732.848	3.38
733.599	6.38
734.35	3.38
735.101	5.38
735.852	4.38
736.603	3.38
737.354	5.38
738.104	3.38
738.855	3.38
739.605	3.38
740.356	5.38
741.106	5.38
741.856	2.38
742.607	5.38
743.357	2.38
744.107	3.38
744.857	7.38
745.607	3.38
746.357	3.38
747.106	3.38
747.856	5.38
748.606	4.38
749.355	5.38
750.105	4.38
750.854	5.38
751.603	7.38
752.353	3.38
753.102	6.38
753.851	6.38
754.6	5.38
755.349	6.38
756.098	5.38
756.847	7.38
757.595	4.38
758.344	8.38
759.093	3.38
759.841	6.38
760.589	5.38
761.338	5.38
762.086	7.38
762.834	6.38
763.582	5.38
764.331	7.38
765.079	6.38
765.826	6.38
766.574	6.38
767.322	8.38
768.07	4.38
768.817	8.38
769.565	7.38
770.312	6.38
771.06	5.38
771.807	6.38
772.554	7.38
773.302	6.38
774.049	5.38
774.796	6.38
775.543	5.38
776.29	8.38
777.036	5.38
777.783	10.38
778.53	7.38
779.276	7.38
780.023	9.38
780.769	7.38
781.516	10.38
782.262	6.38
783.008	7.38
783.754	7.38
784.5	7.38
785.246	7.38
785.992	8.38
786.738	9.38
787.484	8.38
788.23	9.38
788.975	6.38
789.721	5.38
790.466	10.38
791.212	7.38
791.957	8.38
792.702	6.38
793.447	7.38
794.193	5.38
794.938	6.38
795.683	8.38
796.427	3.38
797.172	6.38
797.917	7.38
798.662	7.38
799.406	6.38
800.151	6.38
800.895	5.38
801.64	6.38
802.384	8.38
803.128	3.38
803.872	4.38
804.616	7.38
805.36	7.38
806.104	8.38
806.848	4.38
807.592	5.38
808.336	5.38
809.079	5.38
809.823	7.38
810.566	3.38
811.31	5.38
812.053	4.38
812.796	6.38
813.539	4.38
814.283	4.38
815.026	8.38
815.769	2.38
816.511	2.38
817.254	4.38
817.997	2.38
818.74	5.38
819.482	7.38
820.225	3.38
820.967	4.38
821.71	2.38
822.452	4.38
823.194	1.38
823.936	4.38
824.678	4.38
825.42	3.38
826.162	4.38
826.904	2.38
827.646	3.38
828.388	1.38
829.129	2.38
829.871	4.38
830.612	5.38
831.354	4.38
832.095	3.38
832.836	4.38
833.577	3.38
834.319	4.38
835.06	2.38
835.801	3.38
836.542	2.38
837.282	3.38
838.023	6.38
838.764	2.38
839.504	3.38
840.245	6.38
840.985	3.38
841.726	1.38
842.466	3.38
843.206	2.38
843.946	4.38
844.687	1.38
845.427	4.38
846.166	1.38
846.906	4.38
847.646	2.38
848.386	2.38
849.125	2.38
849.865	4.38
850.605	4.38
851.344	4.38
852.083	1.38
852.823	2.38
853.562	3.38
854.301	2.38
855.04	3.38
855.779	2.38
856.518	2.38
857.257	2.38
857.995	0.38
858.734	2.38
859.473	4.38
860.211	0.38
860.95	3.38
861.688	1.38
862.426	2.38
863.165	2.38
863.903	1.38
864.641	2.38
865.379	1.38
866.117	2.38
866.855	3.38
867.593	3.38
868.33	2.38
869.068	1.38
869.806	1.38
870.543	3.38
871.28	1.38
872.018	2.38
872.755	1.38
873.492	1.38
874.229	1.38
874.967	1.38
875.703	2.38
876.44	3.38
877.177	1.38
877.914	-0.62
878.651	0.38
879.387	2.38
880.124	1.38
880.86	-0.62
881.597	3.38
882.333	0.38
883.069	2.38
883.806	1.38
884.542	3.38
885.278	2.38
886.014	3.38
886.749	1.38
887.485	0.38
888.221	4.38
888.957	0.38
889.692	-1.62
890.428	2.38
891.163	1.38
891.899	-0.62
892.634	0.38
893.369	4.38
894.104	0.38
894.839	1.38
895.574	-0.62
896.309	2.38
897.044	1.38
897.779	3.38
898.514	0.38
899.248	1.38
899.983	-1.62
900.717	-0.62
901.452	-0.62
902.186	0.38
902.92	2.38
903.654	0.38
904.389	0.38
905.123	-0.62
905.857	1.38
906.59	-0.62
907.324	1.38
908.058	-1.62
908.792	0.38
909.525	3.38
910.259	0.38
910.992	1.38
911.726	2.38
912.459	1.38
913.192	-0.62
913.925	1.38
914.658	1.38
915.391	-0.62
916.124	2.38
916.857	1.38
917.59	0.38
918.323	3.38
919.055	1.38
919.788	1.38
920.521	-1.62
921.253	0.38
921.985	2.38
922.718	2.38
923.45	0.38
924.182	-1.62
924.914	2.38
925.646	2.38
926.378	1.38
927.11	1.38
927.841	-1.62
928.573	4.38
929.305	0.38
930.036	-1.62
930.768	-1.62
931.499	0.38
932.23	1.38
932.962	2.38
933.693	1.38
934.424	-0.62
935.155	0.38
935.886	1.38
936.617	-0.62
937.348	2.38
938.078	1.38
938.809	2.38
939.54	0.38
940.27	1.38
941.001	0.38
941.731	0.38
942.461	1.38
943.191	1.38
943.922	1.38
944.652	-0.62
945.382	0.38
946.112	2.38
946.841	2.38
947.571	1.38
948.301	0.38
949.031	1.38
949.76	0.38
950.49	2.38
951.219	1.38
951.948	-1.62
952.678	3.38
953.407	0.38
954.136	1.38
954.865	-0.62
955.594	-0.62
956.323	2.38
957.052	1.38
957.78	1.38
958.509	1.38
959.238	3.38
959.966	0.38
960.695	-0.62
961.423	2.38
962.151	0.38
962.88	3.38
963.608	0.38
964.336	2.38
965.064	3.38
965.792	-1.62
966.52	0.38
967.247	0.38
967.975	0.38
968.703	-0.62
969.43	1.38
970.158	1.38
970.885	1.38
971.613	1.38
972.34	-0.62
973.067	1.38
973.794	0.38
974.521	-0.62
975.248	0.38
975.975	-0.62
976.702	-0.62
977.429	0.38
978.156	0.38
978.882	2.38
979.609	-0.62
980.335	-0.62
981.062	-0.62
981.788	0.38
982.514	0.38
983.24	-1.62
983.967	-0.62
984.693	1.38
985.419	-1.62
986.144	-0.62
986.87	0.38
987.596	0.38
988.322	2.38
989.047	2.38
989.773	0.38
990.498	1.38
991.224	0.38
991.949	1.38
992.674	-1.62
993.399	-1.62
994.124	-0.62
994.849	-1.62
995.574	0.38
996.299	0.38
997.024	-0.62
997.749	1.38
998.473	-1.62
999.198	0.38
999.922	-1.62
1000.647	0.38
1001.371	3.38
1002.095	-1.62
1002.82	-2.62
1003.544	-0.62
1004.268	2.38
1004.992	1.38
1005.716	1.38
1006.439	1.38
1007.163	2.38
1007.887	3.38
1008.611	0.38
1009.334	-0.62
1010.058	-0.62
1010.781	1.38
1011.504	1.38
1012.228	0.38
1012.951	1.38
1013.674	0.38
1014.397	-1.62
1015.12	1.38
