节点500_285_QEPB04081__91__14-57-04-284.txt的数据

Date: Wed Nov 12 14:57:04 CST 2025
User: PC
Spectrometer: QEPB0408
触发模式: 0
积分时间 (秒): 1.000000E-2
Scans to average: 1
启用暗噪声校正: true
启用非线性校正: false
滑动平均宽度: 0
X轴模式: Wavelengths
Number of Pixels in Spectrum: 1044
>>>>>Begin Spectral Data<<<<<
220.843	1.75
221.644	1.75
222.444	1.75
223.244	4.75
224.045	1.75
224.845	4.75
225.645	2.75
226.445	2.75
227.245	2.75
228.045	2.75
228.845	4.75
229.645	2.75
230.444	2.75
231.244	3.75
232.043	5.75
232.843	5.75
233.642	3.75
234.442	4.75
235.241	2.75
236.04	5.75
236.839	4.75
237.638	5.75
238.437	3.75
239.236	3.75
240.035	4.75
240.833	3.75
241.632	4.75
242.43	5.75
243.229	4.75
244.027	4.75
244.826	6.75
245.624	4.75
246.422	5.75
247.22	6.75
248.018	6.75
248.816	7.75
249.614	8.75
250.412	6.75
251.21	6.75
252.007	5.75
252.805	6.75
253.602	10.75
254.4	8.75
255.197	7.75
255.994	10.75
256.791	9.75
257.589	11.75
258.386	8.75
259.183	10.75
259.979	10.75
260.776	10.75
261.573	9.75
262.37	12.75
263.166	11.75
263.963	14.75
264.759	9.75
265.556	13.75
266.352	15.75
267.148	12.75
267.944	13.75
268.74	15.75
269.536	15.75
270.332	19.75
271.128	14.75
271.924	15.75
272.719	18.75
273.515	17.75
274.311	19.75
275.106	18.75
275.901	18.75
276.697	18.75
277.492	15.75
278.287	21.75
279.082	18.75
279.877	17.75
280.672	20.75
281.467	20.75
282.262	19.75
283.056	19.75
283.851	18.75
284.646	21.75
285.44	21.75
286.234	22.75
287.029	22.75
287.823	22.75
288.617	19.75
289.411	17.75
290.205	17.75
290.999	18.75
291.793	19.75
292.587	19.75
293.381	18.75
294.174	18.75
294.968	16.75
295.761	14.75
296.555	18.75
297.348	16.75
298.141	15.75
298.935	17.75
299.728	15.75
300.521	14.75
301.314	15.75
302.107	15.75
302.899	14.75
303.692	13.75
304.485	13.75
305.277	15.75
306.07	12.75
306.862	11.75
307.655	10.75
308.447	12.75
309.239	11.75
310.031	13.75
310.823	14.75
311.615	10.75
312.407	9.75
313.199	9.75
313.991	10.75
314.783	9.75
315.574	8.75
316.366	9.75
317.157	10.75
317.949	8.75
318.74	9.75
319.531	9.75
320.322	7.75
321.113	6.75
321.904	9.75
322.695	7.75
323.486	5.75
324.277	9.75
325.068	7.75
325.858	7.75
326.649	6.75
327.439	6.75
328.23	7.75
329.02	7.75
329.81	7.75
330.6	6.75
331.391	6.75
332.181	9.75
332.971	6.75
333.76	6.75
334.55	7.75
335.34	5.75
336.13	6.75
336.919	7.75
337.709	5.75
338.498	6.75
339.287	7.75
340.077	5.75
340.866	7.75
341.655	8.75
342.444	6.75
343.233	5.75
344.022	6.75
344.811	6.75
345.6	5.75
346.388	8.75
347.177	7.75
347.965	5.75
348.754	9.75
349.542	6.75
350.33	6.75
351.119	7.75
351.907	4.75
352.695	6.75
353.483	7.75
354.271	6.75
355.059	6.75
355.846	5.75
356.634	8.75
357.422	4.75
358.209	6.75
358.997	6.75
359.784	6.75
360.571	7.75
361.359	7.75
362.146	5.75
362.933	4.75
363.72	6.75
364.507	5.75
365.294	4.75
366.081	5.75
366.867	6.75
367.654	7.75
368.44	6.75
369.227	3.75
370.013	5.75
370.8	3.75
371.586	7.75
372.372	6.75
373.158	6.75
373.944	6.75
374.73	5.75
375.516	9.75
376.302	5.75
377.088	6.75
377.873	5.75
378.659	5.75
379.445	5.75
380.23	4.75
381.015	6.75
381.801	6.75
382.586	4.75
383.371	5.75
384.156	5.75
384.941	6.75
385.726	5.75
386.511	5.75
387.296	6.75
388.08	5.75
388.865	5.75
389.649	5.75
390.434	7.75
391.218	5.75
392.003	6.75
392.787	5.75
393.571	5.75
394.355	6.75
395.139	5.75
395.923	7.75
396.707	8.75
397.491	4.75
398.274	9.75
399.058	5.75
399.842	8.75
400.625	6.75
401.408	9.75
402.192	5.75
402.975	8.75
403.758	9.75
404.541	6.75
405.324	8.75
406.107	7.75
406.89	8.75
407.673	8.75
408.456	6.75
409.238	9.75
410.021	8.75
410.803	8.75
411.586	8.75
412.368	9.75
413.151	8.75
413.933	9.75
414.715	9.75
415.497	8.75
416.279	7.75
417.061	12.75
417.843	10.75
418.624	10.75
419.406	11.75
420.188	10.75
420.969	11.75
421.751	11.75
422.532	11.75
423.313	9.75
424.095	10.75
424.876	12.75
425.657	10.75
426.438	12.75
427.219	14.75
428	13.75
428.78	15.75
429.561	13.75
430.342	13.75
431.122	15.75
431.903	17.75
432.683	16.75
433.464	17.75
434.244	17.75
435.024	19.75
435.804	20.75
436.584	18.75
437.364	20.75
438.144	19.75
438.924	20.75
439.704	24.75
440.483	22.75
441.263	23.75
442.042	21.75
442.822	27.75
443.601	27.75
444.38	31.75
445.16	31.75
445.939	30.75
446.718	35.75
447.497	35.75
448.276	40.75
449.054	43.75
449.833	49.75
450.612	52.75
451.391	54.75
452.169	59.75
452.948	65.75
453.726	71.75
454.504	78.75
455.282	85.75
456.061	90.75
456.839	104.75
457.617	113.75
458.395	127.75
459.172	139.75
459.95	158.75
460.728	174.75
461.506	193.75
462.283	214.75
463.061	242.75
463.838	276.75
464.615	298.75
465.393	332.75
466.17	385.75
466.947	427.75
467.724	464.75
468.501	537.75
469.278	591.75
470.055	665.75
470.831	728.75
471.608	821.75
472.385	920.75
473.161	1024.75
473.938	1131.75
474.714	1259.75
475.49	1391.75
476.266	1547.75
477.043	1739.75
477.819	1908.75
478.595	2125.75
479.371	2333.75
480.146	2606.75
480.922	2856.75
481.698	3186.75
482.473	3536.75
483.249	3908.75
484.024	4300.75
484.8	4762.75
485.575	5241.75
486.35	5814.75
487.126	6406.75
487.901	7077.75
488.676	7782.75
489.451	8499.75
490.225	9366.75
491	10262.75
491.775	11194.75
492.55	12255.75
493.324	13298.75
494.099	14420.75
494.873	15537.75
495.647	16750.75
496.422	18103.75
497.196	19327.75
497.97	20637.75
498.744	21886.75
499.518	23124.75
500.292	24274.75
501.066	25376.75
501.839	26301.75
502.613	27215.75
503.387	27888.75
504.16	28446.75
504.934	28655.75
505.707	28659.75
506.48	28601.75
507.253	28359.75
508.027	27948.75
508.8	27475.75
509.573	26799.75
510.346	26065.75
511.118	25173.75
511.891	24206.75
512.664	23300.75
513.437	22310.75
514.209	21401.75
514.982	20438.75
515.754	19454.75
516.526	18569.75
517.298	17735.75
518.071	16995.75
518.843	16343.75
519.615	15699.75
520.387	15082.75
521.159	14503.75
521.93	13930.75
522.702	13349.75
523.474	12744.75
524.245	12269.75
525.017	11697.75
525.788	11237.75
526.56	10709.75
527.331	10238.75
528.102	9734.75
528.873	9233.75
529.644	8771.75
530.415	8322.75
531.186	7901.75
531.957	7484.75
532.728	7078.75
533.498	6709.75
534.269	6333.75
535.039	5997.75
535.81	5621.75
536.58	5331.75
537.351	5004.75
538.121	4721.75
538.891	4487.75
539.661	4225.75
540.431	4005.75
541.201	3789.75
541.971	3602.75
542.741	3409.75
543.51	3219.75
544.28	3071.75
545.05	2935.75
545.819	2784.75
546.588	2647.75
547.358	2509.75
548.127	2374.75
548.896	2256.75
549.665	2156.75
550.434	2025.75
551.203	1913.75
551.972	1823.75
552.741	1714.75
553.51	1622.75
554.278	1525.75
555.047	1426.75
555.815	1359.75
556.584	1278.75
557.352	1206.75
558.121	1154.75
558.889	1071.75
559.657	1013.75
560.425	957.75
561.193	899.75
561.961	855.75
562.729	809.75
563.496	754.75
564.264	715.75
565.032	685.75
565.799	645.75
566.567	610.75
567.334	580.75
568.101	539.75
568.869	510.75
569.636	484.75
570.403	450.75
571.17	428.75
571.937	406.75
572.704	381.75
573.471	356.75
574.237	340.75
575.004	324.75
575.771	306.75
576.537	274.75
577.303	266.75
578.07	251.75
578.836	239.75
579.602	222.75
580.368	212.75
581.134	197.75
581.9	192.75
582.666	184.75
583.432	168.75
584.198	159.75
584.964	151.75
585.729	147.75
586.495	137.75
587.26	135.75
588.025	126.75
588.791	120.75
589.556	113.75
590.321	106.75
591.086	101.75
591.851	94.75
592.616	91.75
593.381	87.75
594.146	82.75
594.911	77.75
595.675	76.75
596.44	72.75
597.204	67.75
597.969	67.75
598.733	68.75
599.497	58.75
600.261	53.75
601.025	51.75
601.79	50.75
602.553	47.75
603.317	47.75
604.081	42.75
604.845	41.75
605.609	42.75
606.372	42.75
607.136	40.75
607.899	41.75
608.662	36.75
609.426	33.75
610.189	36.75
610.952	30.75
611.715	33.75
612.478	29.75
613.241	27.75
614.004	26.75
614.767	27.75
615.529	27.75
616.292	22.75
617.055	23.75
617.817	22.75
618.579	21.75
619.342	22.75
620.104	20.75
620.866	23.75
621.628	20.75
622.39	19.75
623.152	19.75
623.914	19.75
624.676	16.75
625.438	16.75
626.199	15.75
626.961	15.75
627.722	14.75
628.484	14.75
629.245	13.75
630.006	15.75
630.768	13.75
631.529	13.75
632.29	11.75
633.051	14.75
633.812	10.75
634.573	13.75
635.333	12.75
636.094	12.75
636.855	10.75
637.615	10.75
638.376	10.75
639.136	12.75
639.896	11.75
640.657	10.75
641.417	7.75
642.177	8.75
642.937	11.75
643.697	7.75
644.457	10.75
645.216	8.75
645.976	9.75
646.736	8.75
647.495	7.75
648.255	5.75
649.014	9.75
649.774	5.75
650.533	6.75
651.292	7.75
652.051	8.75
652.81	7.75
653.569	7.75
654.328	6.75
655.087	7.75
655.846	7.75
656.604	4.75
657.363	5.75
658.121	7.75
658.88	9.75
659.638	6.75
660.397	5.75
661.155	5.75
661.913	5.75
662.671	8.75
663.429	2.75
664.187	6.75
664.945	6.75
665.703	4.75
666.46	5.75
667.218	5.75
667.976	7.75
668.733	4.75
669.49	5.75
670.248	3.75
671.005	6.75
671.762	7.75
672.519	3.75
673.276	5.75
674.033	4.75
674.79	5.75
675.547	5.75
676.304	4.75
677.06	2.75
677.817	5.75
678.574	1.75
679.33	3.75
680.086	4.75
680.843	5.75
681.599	3.75
682.355	3.75
683.111	4.75
683.867	3.75
684.623	4.75
685.379	6.75
686.135	2.75
686.89	4.75
687.646	6.75
688.402	6.75
689.157	3.75
689.912	2.75
690.668	5.75
691.423	2.75
692.178	6.75
692.933	5.75
693.688	5.75
694.443	2.75
695.198	6.75
695.953	3.75
696.708	3.75
697.462	3.75
698.217	3.75
698.972	4.75
699.726	4.75
700.48	6.75
701.235	4.75
701.989	2.75
702.743	4.75
703.497	2.75
704.251	1.75
705.005	5.75
705.759	3.75
706.513	3.75
707.266	5.75
708.02	5.75
708.774	3.75
709.527	3.75
710.28	5.75
711.034	4.75
711.787	4.75
712.54	3.75
713.293	1.75
714.046	1.75
714.799	4.75
715.552	4.75
716.305	4.75
717.058	4.75
717.81	4.75
718.563	3.75
719.315	4.75
720.068	4.75
720.82	5.75
721.573	3.75
722.325	4.75
723.077	3.75
723.829	2.75
724.581	2.75
725.333	5.75
726.085	2.75
726.836	3.75
727.588	4.75
728.34	6.75
729.091	-0.25
729.843	5.75
730.594	4.75
731.346	5.75
732.097	5.75
732.848	5.75
733.599	3.75
734.35	5.75
735.101	3.75
735.852	3.75
736.603	3.75
737.354	5.75
738.104	4.75
738.855	7.75
739.605	4.75
740.356	5.75
741.106	4.75
741.856	5.75
742.607	6.75
743.357	3.75
744.107	7.75
744.857	4.75
745.607	4.75
746.357	6.75
747.106	2.75
747.856	6.75
748.606	6.75
749.355	5.75
750.105	7.75
750.854	4.75
751.603	7.75
752.353	9.75
753.102	6.75
753.851	5.75
754.6	5.75
755.349	7.75
756.098	5.75
756.847	6.75
757.595	4.75
758.344	7.75
759.093	7.75
759.841	5.75
760.589	7.75
761.338	6.75
762.086	6.75
762.834	7.75
763.582	8.75
764.331	5.75
765.079	7.75
765.826	8.75
766.574	6.75
767.322	8.75
768.07	7.75
768.817	7.75
769.565	8.75
770.312	9.75
771.06	9.75
771.807	5.75
772.554	10.75
773.302	10.75
774.049	9.75
774.796	7.75
775.543	7.75
776.29	10.75
777.036	9.75
777.783	7.75
778.53	8.75
779.276	8.75
780.023	9.75
780.769	7.75
781.516	10.75
782.262	10.75
783.008	11.75
783.754	9.75
784.5	7.75
785.246	10.75
785.992	7.75
786.738	11.75
787.484	10.75
788.23	11.75
788.975	8.75
789.721	11.75
790.466	9.75
791.212	11.75
791.957	9.75
792.702	9.75
793.447	8.75
794.193	10.75
794.938	9.75
795.683	8.75
796.427	11.75
797.172	9.75
797.917	5.75
798.662	8.75
799.406	8.75
800.151	8.75
800.895	8.75
801.64	10.75
802.384	4.75
803.128	6.75
803.872	7.75
804.616	7.75
805.36	7.75
806.104	6.75
806.848	7.75
807.592	6.75
808.336	5.75
809.079	5.75
809.823	6.75
810.566	5.75
811.31	3.75
812.053	4.75
812.796	4.75
813.539	5.75
814.283	8.75
815.026	7.75
815.769	7.75
816.511	3.75
817.254	6.75
817.997	4.75
818.74	2.75
819.482	6.75
820.225	4.75
820.967	5.75
821.71	5.75
822.452	3.75
823.194	5.75
823.936	4.75
824.678	1.75
825.42	6.75
826.162	2.75
826.904	4.75
827.646	1.75
828.388	4.75
829.129	3.75
829.871	1.75
830.612	2.75
831.354	4.75
832.095	4.75
832.836	5.75
833.577	2.75
834.319	2.75
835.06	5.75
835.801	4.75
836.542	4.75
837.282	2.75
838.023	4.75
838.764	5.75
839.504	3.75
840.245	3.75
840.985	2.75
841.726	2.75
842.466	1.75
843.206	5.75
843.946	5.75
844.687	1.75
845.427	3.75
846.166	4.75
846.906	1.75
847.646	2.75
848.386	3.75
849.125	3.75
849.865	4.75
850.605	3.75
851.344	1.75
852.083	-0.25
852.823	3.75
853.562	2.75
854.301	2.75
855.04	2.75
855.779	2.75
856.518	2.75
857.257	2.75
857.995	3.75
858.734	0.75
859.473	1.75
860.211	1.75
860.95	0.75
861.688	2.75
862.426	3.75
863.165	1.75
863.903	1.75
864.641	1.75
865.379	3.75
866.117	2.75
866.855	0.75
867.593	1.75
868.33	2.75
869.068	1.75
869.806	0.75
870.543	2.75
871.28	4.75
872.018	1.75
872.755	2.75
873.492	0.75
874.229	1.75
874.967	2.75
875.703	2.75
876.44	1.75
877.177	2.75
877.914	1.75
878.651	1.75
879.387	1.75
880.124	2.75
880.86	0.75
881.597	1.75
882.333	-0.25
883.069	1.75
883.806	3.75
884.542	2.75
885.278	1.75
886.014	2.75
886.749	0.75
887.485	0.75
888.221	2.75
888.957	1.75
889.692	3.75
890.428	2.75
891.163	1.75
891.899	3.75
892.634	0.75
893.369	0.75
894.104	1.75
894.839	0.75
895.574	1.75
896.309	-0.25
897.044	1.75
897.779	0.75
898.514	1.75
899.248	1.75
899.983	-1.25
900.717	1.75
901.452	2.75
902.186	3.75
902.92	1.75
903.654	0.75
904.389	0.75
905.123	1.75
905.857	0.75
906.59	0.75
907.324	3.75
908.058	1.75
908.792	1.75
909.525	2.75
910.259	-0.25
910.992	2.75
911.726	3.75
912.459	1.75
913.192	0.75
913.925	0.75
914.658	1.75
915.391	0.75
916.124	1.75
916.857	1.75
917.59	0.75
918.323	1.75
919.055	-0.25
919.788	1.75
920.521	-0.25
921.253	0.75
921.985	2.75
922.718	-0.25
923.45	0.75
924.182	0.75
924.914	-0.25
925.646	1.75
926.378	0.75
927.11	0.75
927.841	0.75
928.573	2.75
929.305	0.75
930.036	0.75
930.768	3.75
931.499	-0.25
932.23	1.75
932.962	0.75
933.693	1.75
934.424	-0.25
935.155	1.75
935.886	2.75
936.617	0.75
937.348	0.75
938.078	-0.25
938.809	0.75
939.54	2.75
940.27	-1.25
941.001	1.75
941.731	0.75
942.461	0.75
943.191	0.75
943.922	-0.25
944.652	0.75
945.382	0.75
946.112	0.75
946.841	0.75
947.571	1.75
948.301	0.75
949.031	-1.25
949.76	0.75
950.49	-0.25
951.219	1.75
951.948	1.75
952.678	1.75
953.407	-0.25
954.136	0.75
954.865	2.75
955.594	1.75
956.323	-0.25
957.052	0.75
957.78	-0.25
958.509	1.75
959.238	1.75
959.966	0.75
960.695	0.75
961.423	0.75
962.151	1.75
962.88	0.75
963.608	2.75
964.336	1.75
965.064	-0.25
965.792	1.75
966.52	-0.25
967.247	1.75
967.975	0.75
968.703	1.75
969.43	0.75
970.158	-2.25
970.885	1.75
971.613	-0.25
972.34	1.75
973.067	0.75
973.794	0.75
974.521	-1.25
975.248	-0.25
975.975	1.75
976.702	1.75
977.429	-1.25
978.156	1.75
978.882	-0.25
979.609	0.75
980.335	1.75
981.062	0.75
981.788	1.75
982.514	-0.25
983.24	0.75
983.967	1.75
984.693	1.75
985.419	2.75
986.144	1.75
986.87	0.75
987.596	-0.25
988.322	0.75
989.047	0.75
989.773	1.75
990.498	2.75
991.224	-0.25
991.949	0.75
992.674	1.75
993.399	-1.25
994.124	1.75
994.849	-0.25
995.574	1.75
996.299	-0.25
997.024	1.75
997.749	-0.25
998.473	2.75
999.198	0.75
999.922	-0.25
1000.647	-0.25
1001.371	1.75
1002.095	0.75
1002.82	-1.25
1003.544	0.75
1004.268	1.75
1004.992	0.75
1005.716	1.75
1006.439	-0.25
1007.163	-0.25
1007.887	0.75
1008.611	-0.25
1009.334	0.75
1010.058	-0.25
1010.781	0.75
1011.504	-0.25
1012.228	2.75
1012.951	-1.25
1013.674	-1.25
1014.397	0.75
1015.12	-0.25
