节点500_285_QEPB04081__639__15-06-11-054.txt的数据

Date: Wed Nov 12 15:06:11 CST 2025
User: PC
Spectrometer: QEPB0408
触发模式: 0
积分时间 (秒): 1.000000E-2
Scans to average: 1
启用暗噪声校正: true
启用非线性校正: false
滑动平均宽度: 0
X轴模式: Wavelengths
Number of Pixels in Spectrum: 1044
>>>>>Begin Spectral Data<<<<<
220.843	-0.25
221.644	0.75
222.444	3.75
223.244	2.75
224.045	3.75
224.845	2.75
225.645	1.75
226.445	1.75
227.245	2.75
228.045	2.75
228.845	0.75
229.645	3.75
230.444	2.75
231.244	1.75
232.043	2.75
232.843	2.75
233.642	3.75
234.442	3.75
235.241	5.75
236.04	3.75
236.839	3.75
237.638	4.75
238.437	2.75
239.236	5.75
240.035	5.75
240.833	3.75
241.632	4.75
242.43	7.75
243.229	4.75
244.027	7.75
244.826	7.75
245.624	5.75
246.422	6.75
247.22	7.75
248.018	4.75
248.816	4.75
249.614	6.75
250.412	5.75
251.21	7.75
252.007	8.75
252.805	5.75
253.602	5.75
254.4	8.75
255.197	6.75
255.994	6.75
256.791	6.75
257.589	8.75
258.386	10.75
259.183	9.75
259.979	9.75
260.776	11.75
261.573	8.75
262.37	11.75
263.166	10.75
263.963	9.75
264.759	8.75
265.556	10.75
266.352	13.75
267.148	11.75
267.944	12.75
268.74	13.75
269.536	13.75
270.332	12.75
271.128	13.75
271.924	14.75
272.719	15.75
273.515	15.75
274.311	17.75
275.106	18.75
275.901	17.75
276.697	16.75
277.492	19.75
278.287	14.75
279.082	18.75
279.877	18.75
280.672	18.75
281.467	20.75
282.262	18.75
283.056	19.75
283.851	18.75
284.646	18.75
285.44	17.75
286.234	17.75
287.029	18.75
287.823	20.75
288.617	17.75
289.411	15.75
290.205	17.75
290.999	18.75
291.793	16.75
292.587	19.75
293.381	20.75
294.174	15.75
294.968	14.75
295.761	16.75
296.555	16.75
297.348	13.75
298.141	16.75
298.935	16.75
299.728	15.75
300.521	17.75
301.314	14.75
302.107	13.75
302.899	11.75
303.692	12.75
304.485	14.75
305.277	12.75
306.07	12.75
306.862	14.75
307.655	13.75
308.447	11.75
309.239	14.75
310.031	11.75
310.823	8.75
311.615	10.75
312.407	11.75
313.199	11.75
313.991	7.75
314.783	12.75
315.574	9.75
316.366	11.75
317.157	8.75
317.949	6.75
318.74	10.75
319.531	9.75
320.322	6.75
321.113	6.75
321.904	9.75
322.695	7.75
323.486	7.75
324.277	8.75
325.068	8.75
325.858	6.75
326.649	8.75
327.439	9.75
328.23	8.75
329.02	7.75
329.81	8.75
330.6	5.75
331.391	6.75
332.181	6.75
332.971	5.75
333.76	6.75
334.55	6.75
335.34	7.75
336.13	6.75
336.919	8.75
337.709	7.75
338.498	3.75
339.287	6.75
340.077	6.75
340.866	5.75
341.655	5.75
342.444	4.75
343.233	7.75
344.022	6.75
344.811	5.75
345.6	5.75
346.388	8.75
347.177	6.75
347.965	5.75
348.754	5.75
349.542	6.75
350.33	4.75
351.119	5.75
351.907	4.75
352.695	5.75
353.483	6.75
354.271	4.75
355.059	6.75
355.846	5.75
356.634	6.75
357.422	8.75
358.209	6.75
358.997	5.75
359.784	5.75
360.571	5.75
361.359	4.75
362.146	4.75
362.933	5.75
363.72	4.75
364.507	4.75
365.294	4.75
366.081	7.75
366.867	6.75
367.654	4.75
368.44	5.75
369.227	4.75
370.013	5.75
370.8	4.75
371.586	6.75
372.372	2.75
373.158	4.75
373.944	3.75
374.73	6.75
375.516	6.75
376.302	4.75
377.088	4.75
377.873	7.75
378.659	4.75
379.445	5.75
380.23	6.75
381.015	6.75
381.801	5.75
382.586	5.75
383.371	5.75
384.156	7.75
384.941	6.75
385.726	6.75
386.511	6.75
387.296	6.75
388.08	3.75
388.865	5.75
389.649	6.75
390.434	7.75
391.218	5.75
392.003	5.75
392.787	5.75
393.571	8.75
394.355	7.75
395.139	5.75
395.923	4.75
396.707	7.75
397.491	5.75
398.274	5.75
399.058	9.75
399.842	7.75
400.625	9.75
401.408	6.75
402.192	8.75
402.975	5.75
403.758	7.75
404.541	9.75
405.324	7.75
406.107	9.75
406.89	8.75
407.673	9.75
408.456	10.75
409.238	5.75
410.021	10.75
410.803	8.75
411.586	8.75
412.368	8.75
413.151	9.75
413.933	7.75
414.715	8.75
415.497	9.75
416.279	9.75
417.061	7.75
417.843	11.75
418.624	10.75
419.406	9.75
420.188	10.75
420.969	10.75
421.751	10.75
422.532	11.75
423.313	11.75
424.095	10.75
424.876	12.75
425.657	12.75
426.438	12.75
427.219	10.75
428	13.75
428.78	14.75
429.561	14.75
430.342	14.75
431.122	14.75
431.903	15.75
432.683	15.75
433.464	12.75
434.244	18.75
435.024	16.75
435.804	18.75
436.584	18.75
437.364	18.75
438.144	20.75
438.924	21.75
439.704	20.75
440.483	24.75
441.263	23.75
442.042	24.75
442.822	27.75
443.601	30.75
444.38	31.75
445.16	33.75
445.939	34.75
446.718	39.75
447.497	38.75
448.276	43.75
449.054	48.75
449.833	49.75
450.612	55.75
451.391	63.75
452.169	68.75
452.948	77.75
453.726	76.75
454.504	87.75
455.282	98.75
456.061	109.75
456.839	117.75
457.617	130.75
458.395	151.75
459.172	166.75
459.95	183.75
460.728	201.75
461.506	230.75
462.283	253.75
463.061	277.75
463.838	312.75
464.615	346.75
465.393	382.75
466.17	432.75
466.947	480.75
467.724	538.75
468.501	587.75
469.278	671.75
470.055	717.75
470.831	804.75
471.608	900.75
472.385	993.75
473.161	1093.75
473.938	1195.75
474.714	1326.75
475.49	1455.75
476.266	1603.75
477.043	1770.75
477.819	1941.75
478.595	2125.75
479.371	2334.75
480.146	2566.75
480.922	2820.75
481.698	3095.75
482.473	3394.75
483.249	3717.75
484.024	4053.75
484.8	4431.75
485.575	4871.75
486.35	5322.75
487.126	5805.75
487.901	6345.75
488.676	6870.75
489.451	7499.75
490.225	8180.75
491	8847.75
491.775	9650.75
492.55	10511.75
493.324	11385.75
494.099	12194.75
494.873	13128.75
495.647	14101.75
496.422	15160.75
497.196	16146.75
497.97	17302.75
498.744	18421.75
499.518	19404.75
500.292	20515.75
501.066	21527.75
501.839	22494.75
502.613	23397.75
503.387	24258.75
504.16	24887.75
504.934	25334.75
505.707	25692.75
506.48	25845.75
507.253	25950.75
508.027	25839.75
508.8	25722.75
509.573	25537.75
510.346	25110.75
511.118	24562.75
511.891	23905.75
512.664	23145.75
513.437	22397.75
514.209	21594.75
514.982	20785.75
515.754	19936.75
516.526	19079.75
517.298	18295.75
518.071	17531.75
518.843	16945.75
519.615	16249.75
520.387	15625.75
521.159	15045.75
521.93	14385.75
522.702	13830.75
523.474	13198.75
524.245	12685.75
525.017	12142.75
525.788	11673.75
526.56	11174.75
527.331	10655.75
528.102	10195.75
528.873	9745.75
529.644	9317.75
530.415	8870.75
531.186	8436.75
531.957	8011.75
532.728	7689.75
533.498	7210.75
534.269	6840.75
535.039	6495.75
535.81	6119.75
536.58	5794.75
537.351	5489.75
538.121	5152.75
538.891	4882.75
539.661	4624.75
540.431	4379.75
541.201	4130.75
541.971	3921.75
542.741	3705.75
543.51	3538.75
544.28	3358.75
545.05	3200.75
545.819	3040.75
546.588	2892.75
547.358	2726.75
548.127	2598.75
548.896	2488.75
549.665	2368.75
550.434	2223.75
551.203	2119.75
551.972	2000.75
552.741	1898.75
553.51	1788.75
554.278	1695.75
555.047	1606.75
555.815	1502.75
556.584	1441.75
557.352	1345.75
558.121	1285.75
558.889	1212.75
559.657	1147.75
560.425	1082.75
561.193	1020.75
561.961	954.75
562.729	904.75
563.496	854.75
564.264	813.75
565.032	753.75
565.799	719.75
566.567	688.75
567.334	640.75
568.101	605.75
568.869	579.75
569.636	539.75
570.403	510.75
571.17	479.75
571.937	460.75
572.704	429.75
573.471	410.75
574.237	381.75
575.004	359.75
575.771	345.75
576.537	322.75
577.303	296.75
578.07	280.75
578.836	263.75
579.602	255.75
580.368	236.75
581.134	229.75
581.9	218.75
582.666	205.75
583.432	198.75
584.198	183.75
584.964	177.75
585.729	163.75
586.495	152.75
587.26	148.75
588.025	135.75
588.791	126.75
589.556	122.75
590.321	117.75
591.086	112.75
591.851	109.75
592.616	101.75
593.381	96.75
594.146	93.75
594.911	87.75
595.675	87.75
596.44	78.75
597.204	76.75
597.969	77.75
598.733	70.75
599.497	65.75
600.261	63.75
601.025	62.75
601.79	63.75
602.553	54.75
603.317	55.75
604.081	50.75
604.845	51.75
605.609	49.75
606.372	41.75
607.136	42.75
607.899	40.75
608.662	41.75
609.426	37.75
610.189	38.75
610.952	37.75
611.715	34.75
612.478	34.75
613.241	33.75
614.004	28.75
614.767	25.75
615.529	28.75
616.292	26.75
617.055	26.75
617.817	27.75
618.579	22.75
619.342	25.75
620.104	21.75
620.866	21.75
621.628	17.75
622.39	20.75
623.152	20.75
623.914	18.75
624.676	19.75
625.438	18.75
626.199	18.75
626.961	18.75
627.722	14.75
628.484	14.75
629.245	14.75
630.006	14.75
630.768	13.75
631.529	12.75
632.29	12.75
633.051	11.75
633.812	12.75
634.573	10.75
635.333	12.75
636.094	10.75
636.855	11.75
637.615	12.75
638.376	11.75
639.136	12.75
639.896	10.75
640.657	9.75
641.417	12.75
642.177	9.75
642.937	9.75
643.697	10.75
644.457	8.75
645.216	6.75
645.976	9.75
646.736	6.75
647.495	8.75
648.255	9.75
649.014	10.75
649.774	9.75
650.533	7.75
651.292	5.75
652.051	8.75
652.81	6.75
653.569	10.75
654.328	7.75
655.087	6.75
655.846	6.75
656.604	9.75
657.363	8.75
658.121	8.75
658.88	7.75
659.638	7.75
660.397	4.75
661.155	7.75
661.913	9.75
662.671	6.75
663.429	4.75
664.187	6.75
664.945	6.75
665.703	3.75
666.46	4.75
667.218	7.75
667.976	7.75
668.733	3.75
669.49	5.75
670.248	4.75
671.005	6.75
671.762	6.75
672.519	5.75
673.276	6.75
674.033	6.75
674.79	6.75
675.547	7.75
676.304	2.75
677.06	5.75
677.817	4.75
678.574	3.75
679.33	4.75
680.086	7.75
680.843	3.75
681.599	5.75
682.355	5.75
683.111	3.75
683.867	4.75
684.623	4.75
685.379	5.75
686.135	6.75
686.89	5.75
687.646	5.75
688.402	5.75
689.157	3.75
689.912	6.75
690.668	4.75
691.423	4.75
692.178	2.75
692.933	4.75
693.688	5.75
694.443	3.75
695.198	3.75
695.953	4.75
696.708	5.75
697.462	2.75
698.217	5.75
698.972	3.75
699.726	5.75
700.48	4.75
701.235	4.75
701.989	3.75
702.743	2.75
703.497	4.75
704.251	6.75
705.005	5.75
705.759	3.75
706.513	3.75
707.266	6.75
708.02	1.75
708.774	2.75
709.527	2.75
710.28	3.75
711.034	6.75
711.787	2.75
712.54	4.75
713.293	2.75
714.046	6.75
714.799	4.75
715.552	3.75
716.305	3.75
717.058	3.75
717.81	5.75
718.563	3.75
719.315	3.75
720.068	4.75
720.82	2.75
721.573	4.75
722.325	3.75
723.077	4.75
723.829	5.75
724.581	5.75
725.333	5.75
726.085	4.75
726.836	3.75
727.588	2.75
728.34	5.75
729.091	2.75
729.843	3.75
730.594	6.75
731.346	5.75
732.097	3.75
732.848	4.75
733.599	3.75
734.35	5.75
735.101	5.75
735.852	5.75
736.603	2.75
737.354	5.75
738.104	5.75
738.855	4.75
739.605	4.75
740.356	2.75
741.106	4.75
741.856	7.75
742.607	4.75
743.357	5.75
744.107	4.75
744.857	4.75
745.607	6.75
746.357	6.75
747.106	5.75
747.856	5.75
748.606	7.75
749.355	5.75
750.105	6.75
750.854	7.75
751.603	6.75
752.353	5.75
753.102	4.75
753.851	7.75
754.6	4.75
755.349	4.75
756.098	7.75
756.847	6.75
757.595	4.75
758.344	6.75
759.093	4.75
759.841	8.75
760.589	6.75
761.338	5.75
762.086	4.75
762.834	6.75
763.582	7.75
764.331	6.75
765.079	7.75
765.826	8.75
766.574	6.75
767.322	5.75
768.07	5.75
768.817	6.75
769.565	7.75
770.312	5.75
771.06	7.75
771.807	7.75
772.554	7.75
773.302	10.75
774.049	3.75
774.796	8.75
775.543	7.75
776.29	8.75
777.036	10.75
777.783	7.75
778.53	8.75
779.276	7.75
780.023	9.75
780.769	6.75
781.516	6.75
782.262	8.75
783.008	7.75
783.754	10.75
784.5	7.75
785.246	9.75
785.992	9.75
786.738	10.75
787.484	7.75
788.23	7.75
788.975	8.75
789.721	7.75
790.466	9.75
791.212	6.75
791.957	7.75
792.702	8.75
793.447	9.75
794.193	8.75
794.938	9.75
795.683	10.75
796.427	10.75
797.172	11.75
797.917	7.75
798.662	9.75
799.406	7.75
800.151	7.75
800.895	7.75
801.64	6.75
802.384	7.75
803.128	7.75
803.872	8.75
804.616	6.75
805.36	8.75
806.104	7.75
806.848	7.75
807.592	4.75
808.336	7.75
809.079	6.75
809.823	5.75
810.566	5.75
811.31	7.75
812.053	6.75
812.796	3.75
813.539	3.75
814.283	6.75
815.026	8.75
815.769	7.75
816.511	5.75
817.254	4.75
817.997	6.75
818.74	5.75
819.482	4.75
820.225	4.75
820.967	3.75
821.71	5.75
822.452	2.75
823.194	4.75
823.936	6.75
824.678	3.75
825.42	6.75
826.162	4.75
826.904	2.75
827.646	2.75
828.388	5.75
829.129	5.75
829.871	4.75
830.612	3.75
831.354	3.75
832.095	3.75
832.836	5.75
833.577	2.75
834.319	3.75
835.06	3.75
835.801	3.75
836.542	5.75
837.282	2.75
838.023	2.75
838.764	4.75
839.504	3.75
840.245	2.75
840.985	4.75
841.726	5.75
842.466	3.75
843.206	3.75
843.946	4.75
844.687	2.75
845.427	3.75
846.166	2.75
846.906	4.75
847.646	2.75
848.386	3.75
849.125	5.75
849.865	4.75
850.605	5.75
851.344	2.75
852.083	6.75
852.823	3.75
853.562	1.75
854.301	2.75
855.04	1.75
855.779	0.75
856.518	2.75
857.257	4.75
857.995	2.75
858.734	0.75
859.473	5.75
860.211	1.75
860.95	1.75
861.688	1.75
862.426	2.75
863.165	1.75
863.903	0.75
864.641	2.75
865.379	-1.25
866.117	3.75
866.855	3.75
867.593	0.75
868.33	2.75
869.068	1.75
869.806	-0.25
870.543	1.75
871.28	1.75
872.018	1.75
872.755	2.75
873.492	1.75
874.229	2.75
874.967	2.75
875.703	1.75
876.44	1.75
877.177	3.75
877.914	0.75
878.651	1.75
879.387	1.75
880.124	0.75
880.86	2.75
881.597	0.75
882.333	0.75
883.069	2.75
883.806	1.75
884.542	1.75
885.278	1.75
886.014	1.75
886.749	0.75
887.485	2.75
888.221	0.75
888.957	3.75
889.692	0.75
890.428	2.75
891.163	2.75
891.899	1.75
892.634	1.75
893.369	1.75
894.104	-0.25
894.839	2.75
895.574	1.75
896.309	2.75
897.044	3.75
897.779	3.75
898.514	2.75
899.248	1.75
899.983	1.75
900.717	1.75
901.452	0.75
902.186	1.75
902.92	0.75
903.654	2.75
904.389	-2.25
905.123	-1.25
905.857	2.75
906.59	0.75
907.324	0.75
908.058	4.75
908.792	1.75
909.525	0.75
910.259	2.75
910.992	0.75
911.726	-0.25
912.459	-0.25
913.192	-0.25
913.925	1.75
914.658	1.75
915.391	-0.25
916.124	-0.25
916.857	1.75
917.59	2.75
918.323	0.75
919.055	2.75
919.788	1.75
920.521	1.75
921.253	0.75
921.985	0.75
922.718	1.75
923.45	0.75
924.182	0.75
924.914	0.75
925.646	0.75
926.378	1.75
927.11	1.75
927.841	-0.25
928.573	3.75
929.305	-1.25
930.036	0.75
930.768	-1.25
931.499	1.75
932.23	3.75
932.962	1.75
933.693	-1.25
934.424	0.75
935.155	0.75
935.886	-0.25
936.617	1.75
937.348	1.75
938.078	1.75
938.809	1.75
939.54	-1.25
940.27	-2.25
941.001	0.75
941.731	0.75
942.461	3.75
943.191	0.75
943.922	0.75
944.652	1.75
945.382	0.75
946.112	1.75
946.841	0.75
947.571	2.75
948.301	1.75
949.031	-0.25
949.76	0.75
950.49	1.75
951.219	0.75
951.948	2.75
952.678	1.75
953.407	2.75
954.136	-0.25
954.865	1.75
955.594	0.75
956.323	1.75
957.052	-1.25
957.78	0.75
958.509	4.75
959.238	1.75
959.966	-0.25
960.695	0.75
961.423	-0.25
962.151	-0.25
962.88	2.75
963.608	0.75
964.336	-0.25
965.064	1.75
965.792	2.75
966.52	2.75
967.247	1.75
967.975	0.75
968.703	1.75
969.43	1.75
970.158	0.75
970.885	-1.25
971.613	2.75
972.34	1.75
973.067	0.75
973.794	1.75
974.521	0.75
975.248	-1.25
975.975	1.75
976.702	2.75
977.429	-0.25
978.156	0.75
978.882	1.75
979.609	-0.25
980.335	1.75
981.062	1.75
981.788	-1.25
982.514	0.75
983.24	0.75
983.967	2.75
984.693	1.75
985.419	-0.25
986.144	-1.25
986.87	2.75
987.596	-0.25
988.322	0.75
989.047	0.75
989.773	-1.25
990.498	-0.25
991.224	1.75
991.949	2.75
992.674	-0.25
993.399	0.75
994.124	1.75
994.849	-1.25
995.574	2.75
996.299	-0.25
997.024	0.75
997.749	2.75
998.473	0.75
999.198	2.75
999.922	1.75
1000.647	1.75
1001.371	2.75
1002.095	-0.25
1002.82	-3.25
1003.544	-0.25
1004.268	1.75
1004.992	1.75
1005.716	2.75
1006.439	-1.25
1007.163	3.75
1007.887	1.75
1008.611	2.75
1009.334	-1.25
1010.058	2.75
1010.781	-0.25
1011.504	-0.25
1012.228	0.75
1012.951	-0.25
1013.674	-1.25
1014.397	0.75
1015.12	1.75
