节点500_285_QEPB04081__737__15-07-48-812.txt的数据

Date: Wed Nov 12 15:07:48 CST 2025
User: PC
Spectrometer: QEPB0408
触发模式: 0
积分时间 (秒): 1.000000E-2
Scans to average: 1
启用暗噪声校正: true
启用非线性校正: false
滑动平均宽度: 0
X轴模式: Wavelengths
Number of Pixels in Spectrum: 1044
>>>>>Begin Spectral Data<<<<<
220.843	0.25
221.644	1.25
222.444	0.25
223.244	2.25
224.045	4.25
224.845	2.25
225.645	2.25
226.445	4.25
227.245	2.25
228.045	4.25
228.845	3.25
229.645	3.25
230.444	4.25
231.244	3.25
232.043	3.25
232.843	1.25
233.642	3.25
234.442	2.25
235.241	3.25
236.04	4.25
236.839	3.25
237.638	2.25
238.437	3.25
239.236	3.25
240.035	4.25
240.833	5.25
241.632	6.25
242.43	5.25
243.229	4.25
244.027	4.25
244.826	7.25
245.624	5.25
246.422	5.25
247.22	6.25
248.018	6.25
248.816	6.25
249.614	6.25
250.412	5.25
251.21	7.25
252.007	5.25
252.805	5.25
253.602	7.25
254.4	5.25
255.197	6.25
255.994	7.25
256.791	7.25
257.589	7.25
258.386	7.25
259.183	9.25
259.979	8.25
260.776	9.25
261.573	9.25
262.37	12.25
263.166	11.25
263.963	12.25
264.759	11.25
265.556	13.25
266.352	12.25
267.148	12.25
267.944	12.25
268.74	10.25
269.536	12.25
270.332	16.25
271.128	12.25
271.924	13.25
272.719	16.25
273.515	15.25
274.311	14.25
275.106	14.25
275.901	14.25
276.697	15.25
277.492	18.25
278.287	18.25
279.082	18.25
279.877	17.25
280.672	15.25
281.467	17.25
282.262	16.25
283.056	20.25
283.851	15.25
284.646	17.25
285.44	17.25
286.234	17.25
287.029	17.25
287.823	16.25
288.617	17.25
289.411	14.25
290.205	17.25
290.999	19.25
291.793	16.25
292.587	19.25
293.381	17.25
294.174	16.25
294.968	17.25
295.761	13.25
296.555	16.25
297.348	14.25
298.141	14.25
298.935	14.25
299.728	15.25
300.521	13.25
301.314	13.25
302.107	14.25
302.899	14.25
303.692	14.25
304.485	14.25
305.277	11.25
306.07	10.25
306.862	13.25
307.655	15.25
308.447	13.25
309.239	14.25
310.031	9.25
310.823	10.25
311.615	10.25
312.407	9.25
313.199	9.25
313.991	9.25
314.783	10.25
315.574	8.25
316.366	11.25
317.157	8.25
317.949	10.25
318.74	9.25
319.531	8.25
320.322	8.25
321.113	7.25
321.904	8.25
322.695	8.25
323.486	7.25
324.277	5.25
325.068	6.25
325.858	9.25
326.649	6.25
327.439	8.25
328.23	8.25
329.02	6.25
329.81	7.25
330.6	7.25
331.391	7.25
332.181	7.25
332.971	7.25
333.76	7.25
334.55	9.25
335.34	6.25
336.13	7.25
336.919	8.25
337.709	4.25
338.498	6.25
339.287	4.25
340.077	9.25
340.866	6.25
341.655	7.25
342.444	7.25
343.233	8.25
344.022	8.25
344.811	4.25
345.6	3.25
346.388	10.25
347.177	7.25
347.965	6.25
348.754	4.25
349.542	6.25
350.33	6.25
351.119	5.25
351.907	6.25
352.695	7.25
353.483	8.25
354.271	5.25
355.059	6.25
355.846	6.25
356.634	5.25
357.422	4.25
358.209	6.25
358.997	6.25
359.784	5.25
360.571	6.25
361.359	9.25
362.146	7.25
362.933	6.25
363.72	3.25
364.507	5.25
365.294	5.25
366.081	3.25
366.867	7.25
367.654	5.25
368.44	4.25
369.227	5.25
370.013	5.25
370.8	6.25
371.586	5.25
372.372	3.25
373.158	1.25
373.944	6.25
374.73	6.25
375.516	5.25
376.302	7.25
377.088	5.25
377.873	3.25
378.659	7.25
379.445	4.25
380.23	5.25
381.015	5.25
381.801	4.25
382.586	5.25
383.371	5.25
384.156	5.25
384.941	4.25
385.726	8.25
386.511	3.25
387.296	5.25
388.08	2.25
388.865	7.25
389.649	4.25
390.434	6.25
391.218	8.25
392.003	6.25
392.787	6.25
393.571	6.25
394.355	3.25
395.139	6.25
395.923	6.25
396.707	6.25
397.491	5.25
398.274	7.25
399.058	5.25
399.842	5.25
400.625	8.25
401.408	8.25
402.192	6.25
402.975	8.25
403.758	9.25
404.541	9.25
405.324	6.25
406.107	9.25
406.89	8.25
407.673	6.25
408.456	7.25
409.238	6.25
410.021	8.25
410.803	9.25
411.586	10.25
412.368	9.25
413.151	8.25
413.933	8.25
414.715	9.25
415.497	8.25
416.279	8.25
417.061	10.25
417.843	8.25
418.624	8.25
419.406	11.25
420.188	11.25
420.969	13.25
421.751	11.25
422.532	9.25
423.313	10.25
424.095	12.25
424.876	11.25
425.657	9.25
426.438	11.25
427.219	10.25
428	13.25
428.78	15.25
429.561	12.25
430.342	12.25
431.122	12.25
431.903	13.25
432.683	14.25
433.464	14.25
434.244	16.25
435.024	15.25
435.804	16.25
436.584	17.25
437.364	19.25
438.144	21.25
438.924	17.25
439.704	19.25
440.483	22.25
441.263	25.25
442.042	26.25
442.822	25.25
443.601	30.25
444.38	28.25
445.16	31.25
445.939	35.25
446.718	39.25
447.497	41.25
448.276	46.25
449.054	50.25
449.833	53.25
450.612	56.25
451.391	64.25
452.169	65.25
452.948	72.25
453.726	82.25
454.504	93.25
455.282	105.25
456.061	109.25
456.839	118.25
457.617	139.25
458.395	151.25
459.172	168.25
459.95	184.25
460.728	205.25
461.506	231.25
462.283	255.25
463.061	288.25
463.838	313.25
464.615	356.25
465.393	402.25
466.17	438.25
466.947	484.25
467.724	539.25
468.501	605.25
469.278	670.25
470.055	731.25
470.831	818.25
471.608	890.25
472.385	993.25
473.161	1099.25
473.938	1206.25
474.714	1345.25
475.49	1452.25
476.266	1616.25
477.043	1778.25
477.819	1953.25
478.595	2120.25
479.371	2322.25
480.146	2559.25
480.922	2781.25
481.698	3088.25
482.473	3349.25
483.249	3653.25
484.024	3989.25
484.8	4382.25
485.575	4764.25
486.35	5199.25
487.126	5633.25
487.901	6140.25
488.676	6701.25
489.451	7277.25
490.225	7971.25
491	8626.25
491.775	9378.25
492.55	10191.25
493.324	10967.25
494.099	11776.25
494.873	12632.25
495.647	13614.25
496.422	14558.25
497.196	15605.25
497.97	16633.25
498.744	17673.25
499.518	18741.25
500.292	19807.25
501.066	20755.25
501.839	21716.25
502.613	22625.25
503.387	23501.25
504.16	24145.25
504.934	24614.25
505.707	24946.25
506.48	25206.25
507.253	25393.25
508.027	25345.25
508.8	25287.25
509.573	25112.25
510.346	24753.25
511.118	24240.25
511.891	23630.25
512.664	23016.25
513.437	22309.25
514.209	21465.25
514.982	20728.25
515.754	19900.25
516.526	19142.25
517.298	18343.25
518.071	17578.25
518.843	16927.25
519.615	16248.25
520.387	15714.25
521.159	15015.25
521.93	14399.25
522.702	13867.25
523.474	13288.25
524.245	12739.25
525.017	12237.25
525.788	11709.25
526.56	11206.25
527.331	10729.25
528.102	10302.25
528.873	9849.25
529.644	9333.25
530.415	8964.25
531.186	8475.25
531.957	8081.25
532.728	7720.25
533.498	7339.25
534.269	6946.25
535.039	6580.25
535.81	6213.25
536.58	5882.25
537.351	5528.25
538.121	5237.25
538.891	4999.25
539.661	4690.25
540.431	4455.25
541.201	4202.25
541.971	3995.25
542.741	3778.25
543.51	3568.25
544.28	3403.25
545.05	3245.25
545.819	3073.25
546.588	2912.25
547.358	2768.25
548.127	2653.25
548.896	2522.25
549.665	2405.25
550.434	2264.25
551.203	2135.25
551.972	2031.25
552.741	1911.25
553.51	1819.25
554.278	1722.25
555.047	1638.25
555.815	1542.25
556.584	1461.25
557.352	1387.25
558.121	1310.25
558.889	1218.25
559.657	1162.25
560.425	1106.25
561.193	1023.25
561.961	981.25
562.729	918.25
563.496	872.25
564.264	820.25
565.032	778.25
565.799	728.25
566.567	694.25
567.334	654.25
568.101	618.25
568.869	586.25
569.636	554.25
570.403	530.25
571.17	487.25
571.937	469.25
572.704	438.25
573.471	410.25
574.237	390.25
575.004	368.25
575.771	347.25
576.537	330.25
577.303	305.25
578.07	290.25
578.836	270.25
579.602	257.25
580.368	249.25
581.134	229.25
581.9	218.25
582.666	210.25
583.432	196.25
584.198	186.25
584.964	178.25
585.729	166.25
586.495	163.25
587.26	149.25
588.025	143.25
588.791	133.25
589.556	126.25
590.321	115.25
591.086	118.25
591.851	109.25
592.616	102.25
593.381	99.25
594.146	95.25
594.911	90.25
595.675	86.25
596.44	81.25
597.204	81.25
597.969	73.25
598.733	75.25
599.497	68.25
600.261	65.25
601.025	60.25
601.79	57.25
602.553	56.25
603.317	53.25
604.081	52.25
604.845	49.25
605.609	49.25
606.372	45.25
607.136	42.25
607.899	43.25
608.662	43.25
609.426	35.25
610.189	37.25
610.952	33.25
611.715	33.25
612.478	35.25
613.241	32.25
614.004	26.25
614.767	29.25
615.529	27.25
616.292	29.25
617.055	23.25
617.817	24.25
618.579	23.25
619.342	24.25
620.104	22.25
620.866	25.25
621.628	21.25
622.39	20.25
623.152	20.25
623.914	18.25
624.676	18.25
625.438	19.25
626.199	17.25
626.961	18.25
627.722	16.25
628.484	13.25
629.245	16.25
630.006	12.25
630.768	14.25
631.529	12.25
632.29	14.25
633.051	15.25
633.812	13.25
634.573	12.25
635.333	13.25
636.094	10.25
636.855	12.25
637.615	10.25
638.376	11.25
639.136	10.25
639.896	10.25
640.657	11.25
641.417	9.25
642.177	9.25
642.937	6.25
643.697	11.25
644.457	8.25
645.216	8.25
645.976	10.25
646.736	10.25
647.495	11.25
648.255	8.25
649.014	7.25
649.774	8.25
650.533	9.25
651.292	7.25
652.051	8.25
652.81	7.25
653.569	7.25
654.328	7.25
655.087	7.25
655.846	6.25
656.604	4.25
657.363	6.25
658.121	5.25
658.88	5.25
659.638	4.25
660.397	6.25
661.155	7.25
661.913	5.25
662.671	5.25
663.429	7.25
664.187	5.25
664.945	5.25
665.703	4.25
666.46	5.25
667.218	4.25
667.976	5.25
668.733	6.25
669.49	6.25
670.248	7.25
671.005	4.25
671.762	7.25
672.519	2.25
673.276	3.25
674.033	3.25
674.79	2.25
675.547	5.25
676.304	3.25
677.06	3.25
677.817	5.25
678.574	3.25
679.33	4.25
680.086	7.25
680.843	6.25
681.599	5.25
682.355	3.25
683.111	5.25
683.867	1.25
684.623	5.25
685.379	2.25
686.135	2.25
686.89	5.25
687.646	3.25
688.402	4.25
689.157	4.25
689.912	4.25
690.668	3.25
691.423	3.25
692.178	6.25
692.933	2.25
693.688	5.25
694.443	4.25
695.198	4.25
695.953	3.25
696.708	3.25
697.462	4.25
698.217	3.25
698.972	4.25
699.726	5.25
700.48	2.25
701.235	5.25
701.989	4.25
702.743	3.25
703.497	2.25
704.251	5.25
705.005	4.25
705.759	4.25
706.513	4.25
707.266	3.25
708.02	3.25
708.774	4.25
709.527	4.25
710.28	3.25
711.034	4.25
711.787	5.25
712.54	1.25
713.293	4.25
714.046	2.25
714.799	4.25
715.552	3.25
716.305	5.25
717.058	3.25
717.81	4.25
718.563	3.25
719.315	3.25
720.068	2.25
720.82	7.25
721.573	2.25
722.325	3.25
723.077	2.25
723.829	5.25
724.581	5.25
725.333	4.25
726.085	2.25
726.836	1.25
727.588	4.25
728.34	3.25
729.091	5.25
729.843	3.25
730.594	3.25
731.346	4.25
732.097	2.25
732.848	6.25
733.599	3.25
734.35	3.25
735.101	6.25
735.852	3.25
736.603	5.25
737.354	4.25
738.104	5.25
738.855	5.25
739.605	5.25
740.356	5.25
741.106	4.25
741.856	5.25
742.607	2.25
743.357	5.25
744.107	3.25
744.857	2.25
745.607	3.25
746.357	5.25
747.106	2.25
747.856	4.25
748.606	3.25
749.355	3.25
750.105	5.25
750.854	6.25
751.603	3.25
752.353	6.25
753.102	5.25
753.851	6.25
754.6	4.25
755.349	7.25
756.098	6.25
756.847	6.25
757.595	5.25
758.344	6.25
759.093	5.25
759.841	6.25
760.589	7.25
761.338	6.25
762.086	5.25
762.834	8.25
763.582	4.25
764.331	6.25
765.079	5.25
765.826	6.25
766.574	6.25
767.322	5.25
768.07	6.25
768.817	7.25
769.565	6.25
770.312	9.25
771.06	6.25
771.807	6.25
772.554	11.25
773.302	6.25
774.049	7.25
774.796	7.25
775.543	9.25
776.29	6.25
777.036	8.25
777.783	7.25
778.53	5.25
779.276	9.25
780.023	7.25
780.769	9.25
781.516	8.25
782.262	8.25
783.008	9.25
783.754	9.25
784.5	8.25
785.246	9.25
785.992	8.25
786.738	10.25
787.484	9.25
788.23	8.25
788.975	8.25
789.721	9.25
790.466	8.25
791.212	8.25
791.957	7.25
792.702	8.25
793.447	10.25
794.193	7.25
794.938	8.25
795.683	8.25
796.427	10.25
797.172	7.25
797.917	6.25
798.662	10.25
799.406	7.25
800.151	7.25
800.895	10.25
801.64	6.25
802.384	7.25
803.128	6.25
803.872	7.25
804.616	5.25
805.36	7.25
806.104	6.25
806.848	6.25
807.592	6.25
808.336	7.25
809.079	7.25
809.823	3.25
810.566	6.25
811.31	7.25
812.053	7.25
812.796	5.25
813.539	3.25
814.283	5.25
815.026	6.25
815.769	5.25
816.511	5.25
817.254	4.25
817.997	5.25
818.74	7.25
819.482	5.25
820.225	7.25
820.967	4.25
821.71	5.25
822.452	4.25
823.194	5.25
823.936	2.25
824.678	7.25
825.42	2.25
826.162	7.25
826.904	4.25
827.646	2.25
828.388	3.25
829.129	4.25
829.871	5.25
830.612	5.25
831.354	5.25
832.095	4.25
832.836	6.25
833.577	4.25
834.319	2.25
835.06	5.25
835.801	5.25
836.542	3.25
837.282	6.25
838.023	4.25
838.764	6.25
839.504	4.25
840.245	2.25
840.985	5.25
841.726	2.25
842.466	3.25
843.206	2.25
843.946	4.25
844.687	4.25
845.427	4.25
846.166	6.25
846.906	1.25
847.646	3.25
848.386	2.25
849.125	4.25
849.865	5.25
850.605	4.25
851.344	4.25
852.083	2.25
852.823	4.25
853.562	3.25
854.301	1.25
855.04	3.25
855.779	1.25
856.518	1.25
857.257	2.25
857.995	4.25
858.734	5.25
859.473	4.25
860.211	2.25
860.95	2.25
861.688	3.25
862.426	2.25
863.165	1.25
863.903	2.25
864.641	2.25
865.379	4.25
866.117	3.25
866.855	3.25
867.593	3.25
868.33	3.25
869.068	3.25
869.806	1.25
870.543	0.25
871.28	2.25
872.018	2.25
872.755	2.25
873.492	2.25
874.229	0.25
874.967	2.25
875.703	0.25
876.44	1.25
877.177	2.25
877.914	1.25
878.651	3.25
879.387	2.25
880.124	1.25
880.86	0.25
881.597	1.25
882.333	1.25
883.069	3.25
883.806	1.25
884.542	1.25
885.278	0.25
886.014	2.25
886.749	2.25
887.485	3.25
888.221	0.25
888.957	1.25
889.692	2.25
890.428	1.25
891.163	2.25
891.899	2.25
892.634	2.25
893.369	1.25
894.104	0.25
894.839	0.25
895.574	3.25
896.309	1.25
897.044	0.25
897.779	3.25
898.514	1.25
899.248	3.25
899.983	2.25
900.717	1.25
901.452	2.25
902.186	2.25
902.92	2.25
903.654	3.25
904.389	0.25
905.123	1.25
905.857	1.25
906.59	2.25
907.324	1.25
908.058	3.25
908.792	-1.75
909.525	-1.75
910.259	0.25
910.992	2.25
911.726	-1.75
912.459	1.25
913.192	-0.75
913.925	0.25
914.658	0.25
915.391	1.25
916.124	0.25
916.857	1.25
917.59	1.25
918.323	0.25
919.055	0.25
919.788	1.25
920.521	-0.75
921.253	1.25
921.985	0.25
922.718	-0.75
923.45	1.25
924.182	0.25
924.914	-1.75
925.646	0.25
926.378	0.25
927.11	1.25
927.841	1.25
928.573	0.25
929.305	2.25
930.036	3.25
930.768	2.25
931.499	1.25
932.23	0.25
932.962	2.25
933.693	-0.75
934.424	1.25
935.155	-2.75
935.886	0.25
936.617	1.25
937.348	2.25
938.078	0.25
938.809	-1.75
939.54	4.25
940.27	0.25
941.001	2.25
941.731	0.25
942.461	-1.75
943.191	1.25
943.922	1.25
944.652	2.25
945.382	2.25
946.112	-0.75
946.841	1.25
947.571	-0.75
948.301	1.25
949.031	1.25
949.76	2.25
950.49	-0.75
951.219	1.25
951.948	0.25
952.678	-0.75
953.407	1.25
954.136	1.25
954.865	2.25
955.594	-0.75
956.323	1.25
957.052	1.25
957.78	1.25
958.509	2.25
959.238	2.25
959.966	0.25
960.695	0.25
961.423	1.25
962.151	0.25
962.88	1.25
963.608	1.25
964.336	1.25
965.064	-1.75
965.792	-1.75
966.52	0.25
967.247	-0.75
967.975	1.25
968.703	-1.75
969.43	0.25
970.158	2.25
970.885	0.25
971.613	-1.75
972.34	1.25
973.067	-1.75
973.794	1.25
974.521	0.25
975.248	-0.75
975.975	1.25
976.702	2.25
977.429	0.25
978.156	0.25
978.882	0.25
979.609	1.25
980.335	1.25
981.062	1.25
981.788	0.25
982.514	1.25
983.24	-0.75
983.967	0.25
984.693	-0.75
985.419	0.25
986.144	1.25
986.87	-1.75
987.596	1.25
988.322	0.25
989.047	1.25
989.773	2.25
990.498	0.25
991.224	1.25
991.949	-1.75
992.674	1.25
993.399	1.25
994.124	1.25
994.849	1.25
995.574	2.25
996.299	3.25
997.024	-0.75
997.749	0.25
998.473	1.25
999.198	0.25
999.922	0.25
1000.647	0.25
1001.371	4.25
1002.095	-0.75
1002.82	-0.75
1003.544	-0.75
1004.268	2.25
1004.992	1.25
1005.716	-0.75
1006.439	2.25
1007.163	2.25
1007.887	3.25
1008.611	-1.75
1009.334	0.25
1010.058	-0.75
1010.781	-1.75
1011.504	2.25
1012.228	1.25
1012.951	-1.75
1013.674	0.25
1014.397	1.25
1015.12	-1.75
