节点500_285_QEPB04081__664__15-06-35-979.txt的数据

Date: Wed Nov 12 15:06:35 CST 2025
User: PC
Spectrometer: QEPB0408
触发模式: 0
积分时间 (秒): 1.000000E-2
Scans to average: 1
启用暗噪声校正: true
启用非线性校正: false
滑动平均宽度: 0
X轴模式: Wavelengths
Number of Pixels in Spectrum: 1044
>>>>>Begin Spectral Data<<<<<
220.843	1
221.644	3
222.444	1
223.244	2
224.045	1
224.845	1
225.645	2
226.445	1
227.245	1
228.045	3
228.845	3
229.645	4
230.444	4
231.244	4
232.043	2
232.843	3
233.642	4
234.442	5
235.241	5
236.04	3
236.839	6
237.638	5
238.437	5
239.236	4
240.035	5
240.833	6
241.632	3
242.43	6
243.229	3
244.027	4
244.826	6
245.624	5
246.422	5
247.22	6
248.018	4
248.816	6
249.614	6
250.412	5
251.21	7
252.007	7
252.805	8
253.602	5
254.4	5
255.197	6
255.994	9
256.791	8
257.589	7
258.386	8
259.183	9
259.979	9
260.776	9
261.573	8
262.37	9
263.166	10
263.963	9
264.759	10
265.556	12
266.352	9
267.148	12
267.944	13
268.74	13
269.536	13
270.332	16
271.128	11
271.924	15
272.719	16
273.515	13
274.311	17
275.106	14
275.901	16
276.697	17
277.492	15
278.287	16
279.082	15
279.877	20
280.672	16
281.467	17
282.262	16
283.056	15
283.851	18
284.646	17
285.44	15
286.234	18
287.029	18
287.823	21
288.617	16
289.411	15
290.205	18
290.999	20
291.793	15
292.587	21
293.381	15
294.174	16
294.968	18
295.761	17
296.555	14
297.348	16
298.141	14
298.935	14
299.728	17
300.521	15
301.314	16
302.107	12
302.899	14
303.692	11
304.485	15
305.277	12
306.07	10
306.862	13
307.655	9
308.447	13
309.239	12
310.031	13
310.823	10
311.615	13
312.407	10
313.199	9
313.991	12
314.783	10
315.574	10
316.366	9
317.157	7
317.949	7
318.74	8
319.531	10
320.322	8
321.113	8
321.904	8
322.695	8
323.486	9
324.277	7
325.068	8
325.858	10
326.649	6
327.439	8
328.23	6
329.02	8
329.81	6
330.6	9
331.391	7
332.181	7
332.971	5
333.76	7
334.55	6
335.34	5
336.13	7
336.919	7
337.709	7
338.498	8
339.287	6
340.077	9
340.866	6
341.655	6
342.444	7
343.233	6
344.022	8
344.811	3
345.6	6
346.388	6
347.177	7
347.965	6
348.754	6
349.542	8
350.33	4
351.119	6
351.907	7
352.695	6
353.483	7
354.271	4
355.059	7
355.846	7
356.634	8
357.422	4
358.209	5
358.997	9
359.784	5
360.571	9
361.359	5
362.146	3
362.933	7
363.72	5
364.507	6
365.294	4
366.081	4
366.867	5
367.654	4
368.44	5
369.227	5
370.013	5
370.8	5
371.586	5
372.372	8
373.158	6
373.944	4
374.73	6
375.516	8
376.302	4
377.088	4
377.873	5
378.659	5
379.445	5
380.23	5
381.015	6
381.801	5
382.586	6
383.371	5
384.156	4
384.941	5
385.726	6
386.511	6
387.296	4
388.08	4
388.865	8
389.649	7
390.434	6
391.218	6
392.003	6
392.787	6
393.571	6
394.355	5
395.139	9
395.923	8
396.707	6
397.491	6
398.274	7
399.058	6
399.842	8
400.625	7
401.408	6
402.192	7
402.975	9
403.758	5
404.541	8
405.324	9
406.107	9
406.89	5
407.673	7
408.456	6
409.238	8
410.021	8
410.803	7
411.586	8
412.368	7
413.151	11
413.933	10
414.715	11
415.497	9
416.279	9
417.061	9
417.843	10
418.624	11
419.406	7
420.188	8
420.969	11
421.751	12
422.532	12
423.313	10
424.095	11
424.876	12
425.657	11
426.438	13
427.219	10
428	10
428.78	13
429.561	10
430.342	14
431.122	14
431.903	15
432.683	14
433.464	14
434.244	14
435.024	15
435.804	20
436.584	18
437.364	19
438.144	19
438.924	23
439.704	21
440.483	23
441.263	22
442.042	25
442.822	27
443.601	28
444.38	31
445.16	33
445.939	36
446.718	36
447.497	41
448.276	47
449.054	46
449.833	54
450.612	57
451.391	62
452.169	66
452.948	70
453.726	83
454.504	90
455.282	98
456.061	111
456.839	124
457.617	133
458.395	145
459.172	168
459.95	184
460.728	205
461.506	222
462.283	257
463.061	277
463.838	320
464.615	347
465.393	386
466.17	433
466.947	483
467.724	530
468.501	590
469.278	652
470.055	746
470.831	805
471.608	909
472.385	989
473.161	1091
473.938	1194
474.714	1336
475.49	1452
476.266	1618
477.043	1761
477.819	1943
478.595	2129
479.371	2354
480.146	2555
480.922	2814
481.698	3079
482.473	3377
483.249	3702
484.024	4062
484.8	4404
485.575	4832
486.35	5269
487.126	5730
487.901	6234
488.676	6808
489.451	7424
490.225	8099
491	8755
491.775	9575
492.55	10407
493.324	11207
494.099	12045
494.873	12984
495.647	13913
496.422	15006
497.196	16033
497.97	17067
498.744	18126
499.518	19218
500.292	20263
501.066	21290
501.839	22242
502.613	23146
503.387	23912
504.16	24665
504.934	25136
505.707	25465
506.48	25637
507.253	25721
508.027	25722
508.8	25642
509.573	25415
510.346	25069
511.118	24443
511.891	23774
512.664	23067
513.437	22394
514.209	21499
514.982	20734
515.754	19919
516.526	19020
517.298	18309
518.071	17497
518.843	16869
519.615	16263
520.387	15638
521.159	15050
521.93	14349
522.702	13853
523.474	13298
524.245	12697
525.017	12123
525.788	11749
526.56	11202
527.331	10681
528.102	10196
528.873	9756
529.644	9296
530.415	8877
531.186	8483
531.957	8048
532.728	7669
533.498	7277
534.269	6873
535.039	6524
535.81	6135
536.58	5841
537.351	5485
538.121	5181
538.891	4904
539.661	4662
540.431	4401
541.201	4155
541.971	3947
542.741	3728
543.51	3550
544.28	3376
545.05	3215
545.819	3066
546.588	2892
547.358	2751
548.127	2611
548.896	2492
549.665	2363
550.434	2257
551.203	2119
551.972	2002
552.741	1902
553.51	1813
554.278	1707
555.047	1611
555.815	1518
556.584	1437
557.352	1363
558.121	1280
558.889	1204
559.657	1149
560.425	1088
561.193	1018
561.961	970
562.729	905
563.496	868
564.264	805
565.032	765
565.799	722
566.567	689
567.334	654
568.101	613
568.869	573
569.636	551
570.403	508
571.17	476
571.937	464
572.704	433
573.471	402
574.237	382
575.004	364
575.771	335
576.537	317
577.303	299
578.07	294
578.836	268
579.602	252
580.368	244
581.134	229
581.9	218
582.666	207
583.432	195
584.198	185
584.964	179
585.729	162
586.495	154
587.26	152
588.025	142
588.791	131
589.556	124
590.321	122
591.086	112
591.851	105
592.616	103
593.381	96
594.146	92
594.911	90
595.675	83
596.44	79
597.204	75
597.969	76
598.733	70
599.497	65
600.261	67
601.025	60
601.79	57
602.553	54
603.317	53
604.081	52
604.845	50
605.609	47
606.372	43
607.136	41
607.899	45
608.662	40
609.426	37
610.189	36
610.952	34
611.715	34
612.478	30
613.241	30
614.004	31
614.767	26
615.529	27
616.292	29
617.055	26
617.817	26
618.579	23
619.342	23
620.104	22
620.866	23
621.628	22
622.39	21
623.152	18
623.914	18
624.676	16
625.438	19
626.199	17
626.961	17
627.722	17
628.484	14
629.245	16
630.006	17
630.768	15
631.529	13
632.29	13
633.051	14
633.812	13
634.573	11
635.333	10
636.094	14
636.855	13
637.615	12
638.376	9
639.136	9
639.896	10
640.657	10
641.417	9
642.177	9
642.937	8
643.697	7
644.457	9
645.216	8
645.976	8
646.736	9
647.495	8
648.255	9
649.014	8
649.774	9
650.533	8
651.292	7
652.051	7
652.81	4
653.569	7
654.328	8
655.087	8
655.846	8
656.604	5
657.363	7
658.121	6
658.88	7
659.638	6
660.397	4
661.155	5
661.913	6
662.671	7
663.429	4
664.187	2
664.945	6
665.703	4
666.46	6
667.218	4
667.976	4
668.733	5
669.49	7
670.248	5
671.005	5
671.762	5
672.519	4
673.276	4
674.033	2
674.79	4
675.547	4
676.304	3
677.06	6
677.817	6
678.574	5
679.33	6
680.086	4
680.843	4
681.599	3
682.355	5
683.111	6
683.867	4
684.623	4
685.379	5
686.135	7
686.89	4
687.646	5
688.402	4
689.157	3
689.912	6
690.668	4
691.423	5
692.178	2
692.933	4
693.688	1
694.443	4
695.198	3
695.953	5
696.708	5
697.462	4
698.217	3
698.972	5
699.726	3
700.48	3
701.235	5
701.989	3
702.743	5
703.497	3
704.251	3
705.005	4
705.759	1
706.513	3
707.266	3
708.02	5
708.774	2
709.527	4
710.28	1
711.034	3
711.787	4
712.54	2
713.293	5
714.046	2
714.799	4
715.552	5
716.305	4
717.058	4
717.81	4
718.563	6
719.315	3
720.068	3
720.82	3
721.573	5
722.325	4
723.077	1
723.829	3
724.581	2
725.333	4
726.085	4
726.836	3
727.588	4
728.34	4
729.091	3
729.843	3
730.594	3
731.346	5
732.097	1
732.848	4
733.599	5
734.35	4
735.101	5
735.852	5
736.603	4
737.354	4
738.104	4
738.855	3
739.605	5
740.356	3
741.106	4
741.856	6
742.607	2
743.357	2
744.107	3
744.857	4
745.607	4
746.357	5
747.106	2
747.856	4
748.606	8
749.355	5
750.105	4
750.854	7
751.603	5
752.353	7
753.102	5
753.851	6
754.6	7
755.349	6
756.098	7
756.847	5
757.595	4
758.344	6
759.093	4
759.841	8
760.589	5
761.338	4
762.086	6
762.834	4
763.582	5
764.331	7
765.079	8
765.826	8
766.574	9
767.322	8
768.07	9
768.817	6
769.565	9
770.312	8
771.06	6
771.807	9
772.554	8
773.302	5
774.049	7
774.796	9
775.543	6
776.29	4
777.036	10
777.783	8
778.53	10
779.276	9
780.023	7
780.769	9
781.516	7
782.262	8
783.008	9
783.754	11
784.5	10
785.246	9
785.992	8
786.738	5
787.484	9
788.23	8
788.975	9
789.721	8
790.466	6
791.212	8
791.957	8
792.702	7
793.447	9
794.193	9
794.938	9
795.683	10
796.427	9
797.172	9
797.917	6
798.662	6
799.406	5
800.151	8
800.895	7
801.64	6
802.384	7
803.128	8
803.872	6
804.616	8
805.36	7
806.104	3
806.848	7
807.592	8
808.336	5
809.079	6
809.823	6
810.566	6
811.31	6
812.053	5
812.796	6
813.539	5
814.283	5
815.026	4
815.769	5
816.511	7
817.254	6
817.997	5
818.74	7
819.482	4
820.225	4
820.967	3
821.71	4
822.452	5
823.194	4
823.936	5
824.678	6
825.42	1
826.162	3
826.904	6
827.646	3
828.388	4
829.129	4
829.871	5
830.612	5
831.354	4
832.095	2
832.836	4
833.577	6
834.319	2
835.06	3
835.801	4
836.542	5
837.282	4
838.023	3
838.764	1
839.504	3
840.245	5
840.985	4
841.726	6
842.466	5
843.206	4
843.946	3
844.687	4
845.427	3
846.166	4
846.906	3
847.646	3
848.386	1
849.125	4
849.865	2
850.605	4
851.344	2
852.083	3
852.823	3
853.562	3
854.301	3
855.04	2
855.779	1
856.518	0
857.257	1
857.995	3
858.734	2
859.473	3
860.211	4
860.95	1
861.688	2
862.426	1
863.165	0
863.903	0
864.641	3
865.379	2
866.117	4
866.855	1
867.593	0
868.33	2
869.068	1
869.806	1
870.543	0
871.28	2
872.018	2
872.755	2
873.492	3
874.229	0
874.967	1
875.703	2
876.44	3
877.177	1
877.914	2
878.651	2
879.387	2
880.124	3
880.86	1
881.597	2
882.333	2
883.069	0
883.806	2
884.542	2
885.278	1
886.014	1
886.749	0
887.485	-1
888.221	0
888.957	3
889.692	0
890.428	4
891.163	1
891.899	1
892.634	0
893.369	-1
894.104	3
894.839	1
895.574	1
896.309	2
897.044	0
897.779	3
898.514	-1
899.248	2
899.983	1
900.717	0
901.452	-1
902.186	0
902.92	1
903.654	-2
904.389	-1
905.123	0
905.857	0
906.59	4
907.324	0
908.058	0
908.792	-1
909.525	0
910.259	-2
910.992	1
911.726	0
912.459	0
913.192	-1
913.925	0
914.658	0
915.391	0
916.124	0
916.857	1
917.59	1
918.323	1
919.055	2
919.788	1
920.521	0
921.253	0
921.985	1
922.718	0
923.45	2
924.182	1
924.914	-1
925.646	0
926.378	2
927.11	1
927.841	1
928.573	0
929.305	0
930.036	-1
930.768	2
931.499	-1
932.23	1
932.962	0
933.693	0
934.424	-2
935.155	-1
935.886	0
936.617	-2
937.348	-1
938.078	1
938.809	1
939.54	0
940.27	-1
941.001	0
941.731	1
942.461	-1
943.191	1
943.922	-1
944.652	2
945.382	1
946.112	0
946.841	1
947.571	0
948.301	0
949.031	-1
949.76	2
950.49	1
951.219	-1
951.948	2
952.678	-2
953.407	2
954.136	0
954.865	0
955.594	2
956.323	-2
957.052	0
957.78	1
958.509	1
959.238	0
959.966	1
960.695	0
961.423	0
962.151	1
962.88	1
963.608	0
964.336	-2
965.064	0
965.792	-2
966.52	-2
967.247	0
967.975	1
968.703	1
969.43	1
970.158	0
970.885	1
971.613	1
972.34	1
973.067	-1
973.794	2
974.521	1
975.248	-1
975.975	-1
976.702	1
977.429	1
978.156	1
978.882	0
979.609	2
980.335	1
981.062	2
981.788	0
982.514	1
983.24	0
983.967	0
984.693	1
985.419	3
986.144	1
986.87	0
987.596	1
988.322	0
989.047	1
989.773	3
990.498	1
991.224	1
991.949	2
992.674	1
993.399	1
994.124	0
994.849	0
995.574	1
996.299	0
997.024	2
997.749	0
998.473	0
999.198	-2
999.922	4
1000.647	-1
1001.371	2
1002.095	2
1002.82	1
1003.544	-3
1004.268	2
1004.992	0
1005.716	4
1006.439	1
1007.163	2
1007.887	3
1008.611	0
1009.334	2
1010.058	-1
1010.781	2
1011.504	1
1012.228	0
1012.951	-1
1013.674	2
1014.397	-1
1015.12	-2
