节点500_285_QEPB04081__455__15-03-07-548.txt的数据

Date: Wed Nov 12 15:03:07 CST 2025
User: PC
Spectrometer: QEPB0408
触发模式: 0
积分时间 (秒): 1.000000E-2
Scans to average: 1
启用暗噪声校正: true
启用非线性校正: false
滑动平均宽度: 0
X轴模式: Wavelengths
Number of Pixels in Spectrum: 1044
>>>>>Begin Spectral Data<<<<<
220.843	3
221.644	-1
222.444	1
223.244	3
224.045	3
224.845	1
225.645	3
226.445	3
227.245	5
228.045	3
228.845	5
229.645	4
230.444	2
231.244	2
232.043	4
232.843	3
233.642	3
234.442	6
235.241	4
236.04	3
236.839	3
237.638	3
238.437	4
239.236	2
240.035	5
240.833	5
241.632	4
242.43	2
243.229	5
244.027	7
244.826	3
245.624	5
246.422	7
247.22	5
248.018	6
248.816	4
249.614	5
250.412	4
251.21	8
252.007	7
252.805	7
253.602	8
254.4	6
255.197	9
255.994	8
256.791	8
257.589	10
258.386	10
259.183	9
259.979	9
260.776	12
261.573	10
262.37	11
263.166	10
263.963	11
264.759	15
265.556	12
266.352	12
267.148	15
267.944	12
268.74	12
269.536	14
270.332	14
271.128	14
271.924	13
272.719	13
273.515	14
274.311	16
275.106	17
275.901	18
276.697	17
277.492	17
278.287	16
279.082	19
279.877	17
280.672	18
281.467	21
282.262	19
283.056	18
283.851	17
284.646	18
285.44	21
286.234	20
287.029	17
287.823	19
288.617	16
289.411	16
290.205	18
290.999	19
291.793	21
292.587	17
293.381	17
294.174	17
294.968	17
295.761	14
296.555	15
297.348	18
298.141	16
298.935	17
299.728	16
300.521	15
301.314	14
302.107	16
302.899	14
303.692	13
304.485	14
305.277	14
306.07	12
306.862	14
307.655	13
308.447	12
309.239	12
310.031	15
310.823	11
311.615	9
312.407	12
313.199	11
313.991	11
314.783	9
315.574	11
316.366	11
317.157	10
317.949	8
318.74	8
319.531	10
320.322	9
321.113	9
321.904	9
322.695	7
323.486	5
324.277	5
325.068	8
325.858	7
326.649	6
327.439	8
328.23	7
329.02	6
329.81	8
330.6	8
331.391	6
332.181	6
332.971	10
333.76	5
334.55	9
335.34	8
336.13	5
336.919	8
337.709	5
338.498	5
339.287	6
340.077	9
340.866	7
341.655	4
342.444	9
343.233	5
344.022	7
344.811	6
345.6	6
346.388	7
347.177	7
347.965	7
348.754	7
349.542	8
350.33	4
351.119	8
351.907	8
352.695	4
353.483	8
354.271	7
355.059	8
355.846	6
356.634	6
357.422	4
358.209	6
358.997	7
359.784	6
360.571	7
361.359	5
362.146	6
362.933	7
363.72	4
364.507	4
365.294	6
366.081	5
366.867	5
367.654	4
368.44	3
369.227	5
370.013	5
370.8	4
371.586	7
372.372	6
373.158	5
373.944	7
374.73	7
375.516	5
376.302	4
377.088	4
377.873	7
378.659	5
379.445	6
380.23	5
381.015	8
381.801	7
382.586	7
383.371	7
384.156	5
384.941	3
385.726	4
386.511	5
387.296	6
388.08	4
388.865	8
389.649	7
390.434	6
391.218	5
392.003	6
392.787	5
393.571	3
394.355	8
395.139	7
395.923	6
396.707	8
397.491	7
398.274	8
399.058	7
399.842	8
400.625	10
401.408	7
402.192	10
402.975	7
403.758	8
404.541	7
405.324	8
406.107	9
406.89	5
407.673	8
408.456	5
409.238	8
410.021	7
410.803	8
411.586	10
412.368	7
413.151	9
413.933	9
414.715	12
415.497	12
416.279	11
417.061	10
417.843	8
418.624	11
419.406	9
420.188	9
420.969	12
421.751	12
422.532	11
423.313	9
424.095	12
424.876	12
425.657	11
426.438	12
427.219	12
428	9
428.78	15
429.561	14
430.342	15
431.122	14
431.903	12
432.683	14
433.464	17
434.244	16
435.024	17
435.804	19
436.584	17
437.364	18
438.144	20
438.924	21
439.704	23
440.483	24
441.263	26
442.042	26
442.822	27
443.601	30
444.38	33
445.16	35
445.939	34
446.718	40
447.497	38
448.276	42
449.054	46
449.833	52
450.612	55
451.391	53
452.169	68
452.948	72
453.726	76
454.504	81
455.282	92
456.061	100
456.839	112
457.617	127
458.395	141
459.172	153
459.95	176
460.728	188
461.506	215
462.283	237
463.061	263
463.838	296
464.615	330
465.393	366
466.17	400
466.947	461
467.724	515
468.501	568
469.278	633
470.055	702
470.831	784
471.608	866
472.385	956
473.161	1068
473.938	1189
474.714	1299
475.49	1439
476.266	1587
477.043	1755
477.819	1934
478.595	2139
479.371	2360
480.146	2605
480.922	2849
481.698	3133
482.473	3421
483.249	3786
484.024	4169
484.8	4592
485.575	5005
486.35	5488
487.126	6001
487.901	6598
488.676	7242
489.451	7895
490.225	8590
491	9329
491.775	10211
492.55	11152
493.324	12086
494.099	13035
494.873	14024
495.647	15106
496.422	16156
497.196	17259
497.97	18521
498.744	19666
499.518	20833
500.292	21938
501.066	22932
501.839	23917
502.613	24861
503.387	25678
504.16	26253
504.934	26629
505.707	26879
506.48	27042
507.253	26979
508.027	26758
508.8	26544
509.573	26137
510.346	25545
511.118	24873
511.891	24126
512.664	23337
513.437	22475
514.209	21582
514.982	20714
515.754	19838
516.526	18965
517.298	18203
518.071	17389
518.843	16718
519.615	16046
520.387	15480
521.159	14811
521.93	14284
522.702	13649
523.474	13104
524.245	12552
525.017	12001
525.788	11516
526.56	11077
527.331	10513
528.102	10082
528.873	9575
529.644	9127
530.415	8666
531.186	8272
531.957	7826
532.728	7458
533.498	7077
534.269	6655
535.039	6324
535.81	5963
536.58	5639
537.351	5286
538.121	5011
538.891	4736
539.661	4471
540.431	4230
541.201	4002
541.971	3771
542.741	3598
543.51	3445
544.28	3254
545.05	3115
545.819	2945
546.588	2802
547.358	2633
548.127	2526
548.896	2397
549.665	2263
550.434	2147
551.203	2040
551.972	1925
552.741	1815
553.51	1718
554.278	1638
555.047	1530
555.815	1464
556.584	1371
557.352	1293
558.121	1232
558.889	1161
559.657	1100
560.425	1031
561.193	961
561.961	907
562.729	870
563.496	813
564.264	774
565.032	728
565.799	707
566.567	653
567.334	621
568.101	576
568.869	550
569.636	519
570.403	486
571.17	462
571.937	432
572.704	409
573.471	385
574.237	365
575.004	339
575.771	325
576.537	310
577.303	295
578.07	273
578.836	259
579.602	240
580.368	231
581.134	216
581.9	201
582.666	190
583.432	183
584.198	178
584.964	166
585.729	156
586.495	151
587.26	144
588.025	130
588.791	128
589.556	119
590.321	113
591.086	107
591.851	101
592.616	95
593.381	94
594.146	89
594.911	83
595.675	78
596.44	77
597.204	71
597.969	72
598.733	64
599.497	64
600.261	61
601.025	57
601.79	55
602.553	50
603.317	49
604.081	51
604.845	44
605.609	46
606.372	42
607.136	41
607.899	42
608.662	38
609.426	37
610.189	35
610.952	34
611.715	32
612.478	30
613.241	30
614.004	29
614.767	26
615.529	31
616.292	28
617.055	25
617.817	25
618.579	23
619.342	22
620.104	20
620.866	23
621.628	22
622.39	19
623.152	18
623.914	18
624.676	18
625.438	19
626.199	17
626.961	18
627.722	17
628.484	16
629.245	14
630.006	14
630.768	13
631.529	13
632.29	15
633.051	13
633.812	15
634.573	8
635.333	12
636.094	12
636.855	11
637.615	10
638.376	10
639.136	9
639.896	9
640.657	10
641.417	11
642.177	10
642.937	8
643.697	8
644.457	10
645.216	8
645.976	8
646.736	9
647.495	10
648.255	8
649.014	10
649.774	6
650.533	8
651.292	6
652.051	8
652.81	7
653.569	7
654.328	6
655.087	3
655.846	6
656.604	6
657.363	8
658.121	6
658.88	7
659.638	5
660.397	7
661.155	8
661.913	7
662.671	5
663.429	5
664.187	7
664.945	5
665.703	6
666.46	4
667.218	5
667.976	7
668.733	3
669.49	7
670.248	5
671.005	5
671.762	6
672.519	3
673.276	4
674.033	5
674.79	3
675.547	4
676.304	4
677.06	6
677.817	4
678.574	4
679.33	5
680.086	6
680.843	3
681.599	5
682.355	5
683.111	3
683.867	5
684.623	4
685.379	4
686.135	4
686.89	3
687.646	5
688.402	4
689.157	5
689.912	5
690.668	5
691.423	5
692.178	4
692.933	4
693.688	4
694.443	3
695.198	5
695.953	6
696.708	5
697.462	3
698.217	6
698.972	7
699.726	3
700.48	4
701.235	2
701.989	4
702.743	3
703.497	3
704.251	4
705.005	5
705.759	3
706.513	4
707.266	4
708.02	4
708.774	4
709.527	6
710.28	3
711.034	3
711.787	3
712.54	3
713.293	6
714.046	4
714.799	4
715.552	3
716.305	5
717.058	4
717.81	3
718.563	4
719.315	4
720.068	5
720.82	4
721.573	4
722.325	5
723.077	2
723.829	2
724.581	1
725.333	7
726.085	4
726.836	4
727.588	4
728.34	2
729.091	4
729.843	5
730.594	6
731.346	3
732.097	5
732.848	4
733.599	4
734.35	4
735.101	4
735.852	5
736.603	6
737.354	2
738.104	4
738.855	5
739.605	5
740.356	4
741.106	5
741.856	2
742.607	6
743.357	5
744.107	6
744.857	6
745.607	3
746.357	5
747.106	6
747.856	3
748.606	5
749.355	4
750.105	4
750.854	5
751.603	5
752.353	4
753.102	3
753.851	8
754.6	2
755.349	6
756.098	7
756.847	7
757.595	6
758.344	4
759.093	5
759.841	5
760.589	6
761.338	7
762.086	7
762.834	6
763.582	3
764.331	9
765.079	8
765.826	6
766.574	7
767.322	8
768.07	6
768.817	6
769.565	8
770.312	8
771.06	8
771.807	6
772.554	6
773.302	9
774.049	7
774.796	9
775.543	9
776.29	8
777.036	8
777.783	8
778.53	9
779.276	10
780.023	9
780.769	9
781.516	10
782.262	7
783.008	10
783.754	11
784.5	9
785.246	8
785.992	10
786.738	8
787.484	9
788.23	10
788.975	9
789.721	7
790.466	8
791.212	9
791.957	8
792.702	9
793.447	6
794.193	7
794.938	9
795.683	9
796.427	10
797.172	7
797.917	9
798.662	7
799.406	5
800.151	7
800.895	6
801.64	8
802.384	8
803.128	9
803.872	8
804.616	8
805.36	5
806.104	5
806.848	8
807.592	8
808.336	6
809.079	8
809.823	5
810.566	6
811.31	3
812.053	7
812.796	6
813.539	7
814.283	6
815.026	6
815.769	5
816.511	5
817.254	7
817.997	5
818.74	5
819.482	4
820.225	2
820.967	4
821.71	5
822.452	4
823.194	4
823.936	5
824.678	4
825.42	6
826.162	6
826.904	2
827.646	2
828.388	4
829.129	4
829.871	7
830.612	4
831.354	7
832.095	4
832.836	7
833.577	4
834.319	1
835.06	6
835.801	3
836.542	5
837.282	5
838.023	2
838.764	6
839.504	2
840.245	2
840.985	5
841.726	1
842.466	2
843.206	3
843.946	3
844.687	3
845.427	3
846.166	3
846.906	3
847.646	4
848.386	1
849.125	6
849.865	5
850.605	4
851.344	3
852.083	1
852.823	2
853.562	3
854.301	4
855.04	3
855.779	4
856.518	1
857.257	1
857.995	3
858.734	2
859.473	2
860.211	2
860.95	4
861.688	3
862.426	4
863.165	3
863.903	2
864.641	2
865.379	3
866.117	2
866.855	2
867.593	2
868.33	4
869.068	3
869.806	0
870.543	2
871.28	1
872.018	2
872.755	0
873.492	1
874.229	3
874.967	0
875.703	1
876.44	1
877.177	1
877.914	0
878.651	1
879.387	4
880.124	1
880.86	0
881.597	0
882.333	2
883.069	1
883.806	-1
884.542	2
885.278	0
886.014	3
886.749	1
887.485	2
888.221	2
888.957	1
889.692	0
890.428	0
891.163	3
891.899	-1
892.634	1
893.369	2
894.104	0
894.839	0
895.574	2
896.309	3
897.044	4
897.779	2
898.514	0
899.248	1
899.983	1
900.717	0
901.452	1
902.186	3
902.92	-2
903.654	0
904.389	-1
905.123	1
905.857	1
906.59	2
907.324	2
908.058	-2
908.792	2
909.525	1
910.259	1
910.992	0
911.726	0
912.459	2
913.192	1
913.925	2
914.658	2
915.391	1
916.124	2
916.857	0
917.59	1
918.323	0
919.055	0
919.788	1
920.521	-3
921.253	1
921.985	-1
922.718	1
923.45	0
924.182	3
924.914	1
925.646	0
926.378	2
927.11	-2
927.841	0
928.573	1
929.305	0
930.036	0
930.768	1
931.499	0
932.23	1
932.962	2
933.693	1
934.424	2
935.155	2
935.886	-3
936.617	3
937.348	-1
938.078	0
938.809	2
939.54	-2
940.27	2
941.001	-1
941.731	2
942.461	0
943.191	2
943.922	0
944.652	1
945.382	1
946.112	1
946.841	0
947.571	1
948.301	1
949.031	2
949.76	0
950.49	2
951.219	0
951.948	1
952.678	-1
953.407	-1
954.136	-2
954.865	0
955.594	1
956.323	1
957.052	1
957.78	4
958.509	-1
959.238	2
959.966	0
960.695	0
961.423	0
962.151	-1
962.88	0
963.608	0
964.336	1
965.064	1
965.792	1
966.52	2
967.247	0
967.975	2
968.703	1
969.43	0
970.158	-1
970.885	1
971.613	1
972.34	2
973.067	0
973.794	1
974.521	1
975.248	0
975.975	0
976.702	0
977.429	0
978.156	1
978.882	-2
979.609	2
980.335	1
981.062	1
981.788	2
982.514	0
983.24	-2
983.967	-1
984.693	1
985.419	1
986.144	1
986.87	-1
987.596	2
988.322	2
989.047	-1
989.773	1
990.498	2
991.224	0
991.949	3
992.674	1
993.399	-1
994.124	0
994.849	1
995.574	0
996.299	0
997.024	2
997.749	-1
998.473	0
999.198	1
999.922	2
1000.647	0
1001.371	4
1002.095	0
1002.82	-1
1003.544	-1
1004.268	1
1004.992	2
1005.716	1
1006.439	3
1007.163	2
1007.887	1
1008.611	1
1009.334	1
1010.058	-1
1010.781	1
1011.504	0
1012.228	-2
1012.951	1
1013.674	0
1014.397	-2
1015.12	-1
