节点500_285_QEPB04081__450__15-03-02-550.txt的数据

Date: Wed Nov 12 15:03:02 CST 2025
User: PC
Spectrometer: QEPB0408
触发模式: 0
积分时间 (秒): 1.000000E-2
Scans to average: 1
启用暗噪声校正: true
启用非线性校正: false
滑动平均宽度: 0
X轴模式: Wavelengths
Number of Pixels in Spectrum: 1044
>>>>>Begin Spectral Data<<<<<
220.843	0.88
221.644	-0.12
222.444	0.88
223.244	0.88
224.045	1.88
224.845	0.88
225.645	1.88
226.445	1.88
227.245	0.88
228.045	2.88
228.845	1.88
229.645	0.88
230.444	4.88
231.244	2.88
232.043	2.88
232.843	2.88
233.642	3.88
234.442	2.88
235.241	3.88
236.04	2.88
236.839	0.88
237.638	1.88
238.437	4.88
239.236	2.88
240.035	2.88
240.833	6.88
241.632	3.88
242.43	5.88
243.229	5.88
244.027	6.88
244.826	4.88
245.624	6.88
246.422	6.88
247.22	3.88
248.018	6.88
248.816	5.88
249.614	5.88
250.412	4.88
251.21	5.88
252.007	5.88
252.805	4.88
253.602	7.88
254.4	7.88
255.197	7.88
255.994	8.88
256.791	7.88
257.589	8.88
258.386	9.88
259.183	9.88
259.979	9.88
260.776	9.88
261.573	11.88
262.37	13.88
263.166	11.88
263.963	10.88
264.759	11.88
265.556	10.88
266.352	10.88
267.148	12.88
267.944	14.88
268.74	9.88
269.536	12.88
270.332	14.88
271.128	15.88
271.924	13.88
272.719	13.88
273.515	15.88
274.311	15.88
275.106	14.88
275.901	16.88
276.697	18.88
277.492	15.88
278.287	17.88
279.082	17.88
279.877	17.88
280.672	14.88
281.467	16.88
282.262	19.88
283.056	17.88
283.851	16.88
284.646	16.88
285.44	19.88
286.234	17.88
287.029	17.88
287.823	18.88
288.617	16.88
289.411	16.88
290.205	17.88
290.999	17.88
291.793	14.88
292.587	16.88
293.381	16.88
294.174	17.88
294.968	18.88
295.761	16.88
296.555	16.88
297.348	14.88
298.141	11.88
298.935	16.88
299.728	11.88
300.521	13.88
301.314	15.88
302.107	15.88
302.899	13.88
303.692	11.88
304.485	13.88
305.277	12.88
306.07	12.88
306.862	11.88
307.655	10.88
308.447	10.88
309.239	13.88
310.031	10.88
310.823	11.88
311.615	9.88
312.407	9.88
313.199	9.88
313.991	7.88
314.783	9.88
315.574	8.88
316.366	8.88
317.157	6.88
317.949	7.88
318.74	4.88
319.531	7.88
320.322	6.88
321.113	6.88
321.904	4.88
322.695	6.88
323.486	4.88
324.277	5.88
325.068	9.88
325.858	6.88
326.649	6.88
327.439	7.88
328.23	6.88
329.02	4.88
329.81	4.88
330.6	6.88
331.391	5.88
332.181	7.88
332.971	5.88
333.76	6.88
334.55	6.88
335.34	6.88
336.13	7.88
336.919	7.88
337.709	6.88
338.498	7.88
339.287	4.88
340.077	6.88
340.866	4.88
341.655	8.88
342.444	4.88
343.233	3.88
344.022	5.88
344.811	4.88
345.6	6.88
346.388	6.88
347.177	5.88
347.965	3.88
348.754	3.88
349.542	4.88
350.33	3.88
351.119	4.88
351.907	4.88
352.695	5.88
353.483	4.88
354.271	7.88
355.059	5.88
355.846	5.88
356.634	6.88
357.422	6.88
358.209	5.88
358.997	6.88
359.784	3.88
360.571	7.88
361.359	4.88
362.146	5.88
362.933	5.88
363.72	4.88
364.507	7.88
365.294	4.88
366.081	4.88
366.867	6.88
367.654	4.88
368.44	5.88
369.227	6.88
370.013	5.88
370.8	4.88
371.586	5.88
372.372	4.88
373.158	6.88
373.944	5.88
374.73	6.88
375.516	3.88
376.302	3.88
377.088	6.88
377.873	4.88
378.659	3.88
379.445	5.88
380.23	1.88
381.015	5.88
381.801	5.88
382.586	6.88
383.371	3.88
384.156	6.88
384.941	5.88
385.726	5.88
386.511	6.88
387.296	7.88
388.08	3.88
388.865	3.88
389.649	2.88
390.434	6.88
391.218	4.88
392.003	5.88
392.787	5.88
393.571	6.88
394.355	5.88
395.139	7.88
395.923	5.88
396.707	7.88
397.491	4.88
398.274	7.88
399.058	7.88
399.842	7.88
400.625	5.88
401.408	7.88
402.192	6.88
402.975	4.88
403.758	8.88
404.541	5.88
405.324	9.88
406.107	5.88
406.89	7.88
407.673	6.88
408.456	6.88
409.238	7.88
410.021	6.88
410.803	5.88
411.586	7.88
412.368	11.88
413.151	9.88
413.933	9.88
414.715	7.88
415.497	9.88
416.279	9.88
417.061	8.88
417.843	8.88
418.624	11.88
419.406	9.88
420.188	9.88
420.969	10.88
421.751	9.88
422.532	11.88
423.313	9.88
424.095	11.88
424.876	11.88
425.657	13.88
426.438	11.88
427.219	12.88
428	11.88
428.78	14.88
429.561	12.88
430.342	13.88
431.122	15.88
431.903	12.88
432.683	13.88
433.464	15.88
434.244	15.88
435.024	11.88
435.804	15.88
436.584	14.88
437.364	19.88
438.144	17.88
438.924	20.88
439.704	17.88
440.483	22.88
441.263	24.88
442.042	24.88
442.822	26.88
443.601	26.88
444.38	28.88
445.16	31.88
445.939	35.88
446.718	34.88
447.497	37.88
448.276	43.88
449.054	41.88
449.833	51.88
450.612	53.88
451.391	58.88
452.169	64.88
452.948	70.88
453.726	79.88
454.504	86.88
455.282	93.88
456.061	101.88
456.839	111.88
457.617	124.88
458.395	135.88
459.172	152.88
459.95	174.88
460.728	189.88
461.506	212.88
462.283	232.88
463.061	265.88
463.838	298.88
464.615	326.88
465.393	368.88
466.17	406.88
466.947	464.88
467.724	506.88
468.501	572.88
469.278	638.88
470.055	695.88
470.831	767.88
471.608	868.88
472.385	950.88
473.161	1065.88
473.938	1173.88
474.714	1313.88
475.49	1430.88
476.266	1600.88
477.043	1746.88
477.819	1933.88
478.595	2104.88
479.371	2327.88
480.146	2576.88
480.922	2864.88
481.698	3118.88
482.473	3450.88
483.249	3776.88
484.024	4164.88
484.8	4545.88
485.575	4999.88
486.35	5500.88
487.126	6032.88
487.901	6572.88
488.676	7216.88
489.451	7882.88
490.225	8588.88
491	9364.88
491.775	10247.88
492.55	11130.88
493.324	12080.88
494.099	12981.88
494.873	13992.88
495.647	15083.88
496.422	16247.88
497.196	17279.88
497.97	18485.88
498.744	19652.88
499.518	20845.88
500.292	21897.88
501.066	22955.88
501.839	23895.88
502.613	24859.88
503.387	25629.88
504.16	26237.88
504.934	26654.88
505.707	26836.88
506.48	26993.88
507.253	27014.88
508.027	26765.88
508.8	26450.88
509.573	26094.88
510.346	25571.88
511.118	24798.88
511.891	24110.88
512.664	23287.88
513.437	22456.88
514.209	21556.88
514.982	20765.88
515.754	19853.88
516.526	18947.88
517.298	18173.88
518.071	17329.88
518.843	16656.88
519.615	16057.88
520.387	15462.88
521.159	14774.88
521.93	14220.88
522.702	13655.88
523.474	13118.88
524.245	12531.88
525.017	12023.88
525.788	11534.88
526.56	11023.88
527.331	10526.88
528.102	10039.88
528.873	9571.88
529.644	9129.88
530.415	8699.88
531.186	8251.88
531.957	7848.88
532.728	7409.88
533.498	7055.88
534.269	6654.88
535.039	6311.88
535.81	5932.88
536.58	5614.88
537.351	5279.88
538.121	5011.88
538.891	4761.88
539.661	4472.88
540.431	4226.88
541.201	3997.88
541.971	3776.88
542.741	3579.88
543.51	3411.88
544.28	3273.88
545.05	3101.88
545.819	2941.88
546.588	2789.88
547.358	2670.88
548.127	2527.88
548.896	2391.88
549.665	2263.88
550.434	2140.88
551.203	2042.88
551.972	1923.88
552.741	1821.88
553.51	1717.88
554.278	1639.88
555.047	1551.88
555.815	1446.88
556.584	1361.88
557.352	1296.88
558.121	1211.88
558.889	1159.88
559.657	1092.88
560.425	1035.88
561.193	970.88
561.961	915.88
562.729	863.88
563.496	811.88
564.264	774.88
565.032	741.88
565.799	694.88
566.567	657.88
567.334	628.88
568.101	586.88
568.869	551.88
569.636	513.88
570.403	481.88
571.17	458.88
571.937	431.88
572.704	401.88
573.471	393.88
574.237	362.88
575.004	343.88
575.771	327.88
576.537	302.88
577.303	287.88
578.07	273.88
578.836	254.88
579.602	239.88
580.368	224.88
581.134	214.88
581.9	203.88
582.666	198.88
583.432	182.88
584.198	173.88
584.964	165.88
585.729	155.88
586.495	151.88
587.26	141.88
588.025	132.88
588.791	128.88
589.556	120.88
590.321	109.88
591.086	108.88
591.851	100.88
592.616	97.88
593.381	92.88
594.146	81.88
594.911	83.88
595.675	81.88
596.44	76.88
597.204	73.88
597.969	71.88
598.733	66.88
599.497	64.88
600.261	60.88
601.025	60.88
601.79	55.88
602.553	53.88
603.317	50.88
604.081	49.88
604.845	45.88
605.609	42.88
606.372	45.88
607.136	36.88
607.899	38.88
608.662	36.88
609.426	38.88
610.189	35.88
610.952	33.88
611.715	30.88
612.478	33.88
613.241	29.88
614.004	27.88
614.767	26.88
615.529	27.88
616.292	25.88
617.055	24.88
617.817	23.88
618.579	22.88
619.342	22.88
620.104	18.88
620.866	19.88
621.628	21.88
622.39	20.88
623.152	20.88
623.914	15.88
624.676	18.88
625.438	16.88
626.199	15.88
626.961	16.88
627.722	15.88
628.484	14.88
629.245	12.88
630.006	13.88
630.768	13.88
631.529	13.88
632.29	12.88
633.051	10.88
633.812	11.88
634.573	10.88
635.333	11.88
636.094	10.88
636.855	11.88
637.615	12.88
638.376	9.88
639.136	10.88
639.896	9.88
640.657	9.88
641.417	9.88
642.177	8.88
642.937	10.88
643.697	6.88
644.457	7.88
645.216	6.88
645.976	7.88
646.736	8.88
647.495	7.88
648.255	7.88
649.014	7.88
649.774	8.88
650.533	8.88
651.292	6.88
652.051	7.88
652.81	5.88
653.569	4.88
654.328	5.88
655.087	5.88
655.846	6.88
656.604	7.88
657.363	7.88
658.121	5.88
658.88	5.88
659.638	5.88
660.397	6.88
661.155	5.88
661.913	3.88
662.671	5.88
663.429	3.88
664.187	4.88
664.945	6.88
665.703	2.88
666.46	4.88
667.218	1.88
667.976	6.88
668.733	4.88
669.49	6.88
670.248	3.88
671.005	5.88
671.762	3.88
672.519	3.88
673.276	4.88
674.033	2.88
674.79	2.88
675.547	6.88
676.304	3.88
677.06	4.88
677.817	2.88
678.574	6.88
679.33	2.88
680.086	4.88
680.843	5.88
681.599	5.88
682.355	3.88
683.111	3.88
683.867	4.88
684.623	5.88
685.379	4.88
686.135	5.88
686.89	3.88
687.646	5.88
688.402	4.88
689.157	3.88
689.912	3.88
690.668	2.88
691.423	6.88
692.178	4.88
692.933	3.88
693.688	3.88
694.443	4.88
695.198	0.88
695.953	1.88
696.708	5.88
697.462	3.88
698.217	4.88
698.972	3.88
699.726	4.88
700.48	4.88
701.235	1.88
701.989	2.88
702.743	3.88
703.497	1.88
704.251	0.88
705.005	3.88
705.759	4.88
706.513	2.88
707.266	2.88
708.02	2.88
708.774	4.88
709.527	0.88
710.28	2.88
711.034	3.88
711.787	4.88
712.54	3.88
713.293	1.88
714.046	3.88
714.799	3.88
715.552	2.88
716.305	3.88
717.058	2.88
717.81	4.88
718.563	2.88
719.315	4.88
720.068	6.88
720.82	1.88
721.573	4.88
722.325	2.88
723.077	3.88
723.829	3.88
724.581	1.88
725.333	4.88
726.085	2.88
726.836	2.88
727.588	1.88
728.34	1.88
729.091	2.88
729.843	3.88
730.594	1.88
731.346	5.88
732.097	2.88
732.848	3.88
733.599	3.88
734.35	4.88
735.101	5.88
735.852	1.88
736.603	3.88
737.354	2.88
738.104	2.88
738.855	5.88
739.605	5.88
740.356	4.88
741.106	3.88
741.856	2.88
742.607	5.88
743.357	3.88
744.107	5.88
744.857	3.88
745.607	1.88
746.357	4.88
747.106	4.88
747.856	6.88
748.606	5.88
749.355	3.88
750.105	3.88
750.854	3.88
751.603	2.88
752.353	3.88
753.102	6.88
753.851	6.88
754.6	3.88
755.349	8.88
756.098	4.88
756.847	8.88
757.595	7.88
758.344	5.88
759.093	6.88
759.841	7.88
760.589	8.88
761.338	5.88
762.086	8.88
762.834	3.88
763.582	7.88
764.331	7.88
765.079	4.88
765.826	7.88
766.574	5.88
767.322	6.88
768.07	6.88
768.817	8.88
769.565	4.88
770.312	5.88
771.06	7.88
771.807	9.88
772.554	6.88
773.302	6.88
774.049	6.88
774.796	6.88
775.543	7.88
776.29	8.88
777.036	11.88
777.783	8.88
778.53	9.88
779.276	6.88
780.023	10.88
780.769	9.88
781.516	7.88
782.262	11.88
783.008	3.88
783.754	8.88
784.5	10.88
785.246	8.88
785.992	7.88
786.738	8.88
787.484	8.88
788.23	8.88
788.975	9.88
789.721	7.88
790.466	10.88
791.212	10.88
791.957	9.88
792.702	7.88
793.447	7.88
794.193	7.88
794.938	8.88
795.683	9.88
796.427	7.88
797.172	7.88
797.917	6.88
798.662	8.88
799.406	6.88
800.151	5.88
800.895	6.88
801.64	7.88
802.384	6.88
803.128	6.88
803.872	7.88
804.616	8.88
805.36	7.88
806.104	5.88
806.848	3.88
807.592	4.88
808.336	6.88
809.079	7.88
809.823	5.88
810.566	3.88
811.31	3.88
812.053	6.88
812.796	4.88
813.539	3.88
814.283	3.88
815.026	4.88
815.769	5.88
816.511	2.88
817.254	4.88
817.997	4.88
818.74	6.88
819.482	4.88
820.225	5.88
820.967	6.88
821.71	1.88
822.452	3.88
823.194	5.88
823.936	5.88
824.678	5.88
825.42	2.88
826.162	4.88
826.904	3.88
827.646	2.88
828.388	5.88
829.129	2.88
829.871	3.88
830.612	4.88
831.354	3.88
832.095	6.88
832.836	3.88
833.577	2.88
834.319	1.88
835.06	4.88
835.801	3.88
836.542	4.88
837.282	0.88
838.023	3.88
838.764	3.88
839.504	3.88
840.245	1.88
840.985	3.88
841.726	1.88
842.466	3.88
843.206	1.88
843.946	3.88
844.687	2.88
845.427	4.88
846.166	3.88
846.906	4.88
847.646	4.88
848.386	2.88
849.125	3.88
849.865	3.88
850.605	4.88
851.344	2.88
852.083	4.88
852.823	1.88
853.562	2.88
854.301	2.88
855.04	1.88
855.779	2.88
856.518	1.88
857.257	1.88
857.995	3.88
858.734	3.88
859.473	4.88
860.211	0.88
860.95	-0.12
861.688	2.88
862.426	1.88
863.165	1.88
863.903	0.88
864.641	0.88
865.379	3.88
866.117	-0.12
866.855	4.88
867.593	1.88
868.33	1.88
869.068	1.88
869.806	1.88
870.543	1.88
871.28	0.88
872.018	0.88
872.755	1.88
873.492	0.88
874.229	1.88
874.967	0.88
875.703	1.88
876.44	1.88
877.177	2.88
877.914	0.88
878.651	-2.12
879.387	-0.12
880.124	1.88
880.86	1.88
881.597	1.88
882.333	3.88
883.069	2.88
883.806	2.88
884.542	2.88
885.278	-0.12
886.014	1.88
886.749	0.88
887.485	1.88
888.221	2.88
888.957	1.88
889.692	1.88
890.428	-0.12
891.163	1.88
891.899	-0.12
892.634	-1.12
893.369	-0.12
894.104	1.88
894.839	1.88
895.574	0.88
896.309	1.88
897.044	1.88
897.779	-0.12
898.514	-0.12
899.248	-0.12
899.983	-1.12
900.717	1.88
901.452	-0.12
902.186	0.88
902.92	-0.12
903.654	-0.12
904.389	0.88
905.123	-0.12
905.857	1.88
906.59	1.88
907.324	0.88
908.058	0.88
908.792	0.88
909.525	-2.12
910.259	1.88
910.992	0.88
911.726	-0.12
912.459	-1.12
913.192	1.88
913.925	0.88
914.658	1.88
915.391	-1.12
916.124	-1.12
916.857	0.88
917.59	0.88
918.323	-0.12
919.055	1.88
919.788	-0.12
920.521	-0.12
921.253	0.88
921.985	1.88
922.718	-0.12
923.45	-1.12
924.182	3.88
924.914	2.88
925.646	0.88
926.378	1.88
927.11	-0.12
927.841	0.88
928.573	-0.12
929.305	0.88
930.036	0.88
930.768	-0.12
931.499	-0.12
932.23	-1.12
932.962	-1.12
933.693	-0.12
934.424	-0.12
935.155	1.88
935.886	1.88
936.617	-0.12
937.348	-0.12
938.078	0.88
938.809	0.88
939.54	-1.12
940.27	0.88
941.001	1.88
941.731	1.88
942.461	-0.12
943.191	1.88
943.922	-0.12
944.652	0.88
945.382	1.88
946.112	-0.12
946.841	-1.12
947.571	-0.12
948.301	-0.12
949.031	0.88
949.76	-1.12
950.49	0.88
951.219	0.88
951.948	-0.12
952.678	0.88
953.407	1.88
954.136	-0.12
954.865	-2.12
955.594	2.88
956.323	0.88
957.052	-0.12
957.78	0.88
958.509	1.88
959.238	-2.12
959.966	1.88
960.695	-0.12
961.423	-0.12
962.151	-0.12
962.88	0.88
963.608	-2.12
964.336	0.88
965.064	-0.12
965.792	1.88
966.52	1.88
967.247	1.88
967.975	1.88
968.703	0.88
969.43	-1.12
970.158	-0.12
970.885	-1.12
971.613	1.88
972.34	-1.12
973.067	-0.12
973.794	-1.12
974.521	2.88
975.248	-1.12
975.975	1.88
976.702	1.88
977.429	-1.12
978.156	1.88
978.882	2.88
979.609	0.88
980.335	0.88
981.062	-1.12
981.788	-0.12
982.514	-0.12
983.24	0.88
983.967	-0.12
984.693	1.88
985.419	0.88
986.144	0.88
986.87	1.88
987.596	0.88
988.322	1.88
989.047	-0.12
989.773	1.88
990.498	-0.12
991.224	2.88
991.949	-0.12
992.674	-0.12
993.399	-2.12
994.124	-3.12
994.849	1.88
995.574	0.88
996.299	2.88
997.024	-0.12
997.749	-0.12
998.473	0.88
999.198	1.88
999.922	-0.12
1000.647	0.88
1001.371	3.88
1002.095	1.88
1002.82	-3.12
1003.544	-1.12
1004.268	3.88
1004.992	0.88
1005.716	2.88
1006.439	-0.12
1007.163	1.88
1007.887	0.88
1008.611	0.88
1009.334	0.88
1010.058	1.88
1010.781	0.88
1011.504	0.88
1012.228	-0.12
1012.951	1.88
1013.674	-1.12
1014.397	-0.12
1015.12	-2.12
