节点500_285_QEPB04081__676__15-06-47-960.txt的数据

Date: Wed Nov 12 15:06:47 CST 2025
User: PC
Spectrometer: QEPB0408
触发模式: 0
积分时间 (秒): 1.000000E-2
Scans to average: 1
启用暗噪声校正: true
启用非线性校正: false
滑动平均宽度: 0
X轴模式: Wavelengths
Number of Pixels in Spectrum: 1044
>>>>>Begin Spectral Data<<<<<
220.843	2.62
221.644	2.62
222.444	0.62
223.244	0.62
224.045	1.62
224.845	1.62
225.645	3.62
226.445	1.62
227.245	1.62
228.045	0.62
228.845	-0.38
229.645	1.62
230.444	1.62
231.244	0.62
232.043	2.62
232.843	0.62
233.642	2.62
234.442	1.62
235.241	5.62
236.04	1.62
236.839	3.62
237.638	3.62
238.437	0.62
239.236	0.62
240.035	5.62
240.833	3.62
241.632	1.62
242.43	1.62
243.229	4.62
244.027	2.62
244.826	4.62
245.624	6.62
246.422	1.62
247.22	6.62
248.018	5.62
248.816	6.62
249.614	4.62
250.412	4.62
251.21	4.62
252.007	6.62
252.805	3.62
253.602	2.62
254.4	7.62
255.197	5.62
255.994	5.62
256.791	6.62
257.589	6.62
258.386	8.62
259.183	8.62
259.979	8.62
260.776	8.62
261.573	9.62
262.37	8.62
263.166	8.62
263.963	11.62
264.759	10.62
265.556	11.62
266.352	13.62
267.148	11.62
267.944	9.62
268.74	11.62
269.536	13.62
270.332	11.62
271.128	11.62
271.924	11.62
272.719	11.62
273.515	12.62
274.311	13.62
275.106	17.62
275.901	12.62
276.697	12.62
277.492	16.62
278.287	15.62
279.082	14.62
279.877	16.62
280.672	18.62
281.467	13.62
282.262	17.62
283.056	16.62
283.851	15.62
284.646	14.62
285.44	15.62
286.234	17.62
287.029	18.62
287.823	18.62
288.617	14.62
289.411	15.62
290.205	16.62
290.999	16.62
291.793	19.62
292.587	17.62
293.381	14.62
294.174	17.62
294.968	13.62
295.761	15.62
296.555	13.62
297.348	12.62
298.141	11.62
298.935	14.62
299.728	15.62
300.521	13.62
301.314	13.62
302.107	11.62
302.899	9.62
303.692	11.62
304.485	9.62
305.277	13.62
306.07	11.62
306.862	13.62
307.655	13.62
308.447	10.62
309.239	9.62
310.031	11.62
310.823	11.62
311.615	11.62
312.407	8.62
313.199	9.62
313.991	6.62
314.783	7.62
315.574	10.62
316.366	4.62
317.157	10.62
317.949	7.62
318.74	7.62
319.531	7.62
320.322	7.62
321.113	5.62
321.904	7.62
322.695	5.62
323.486	6.62
324.277	7.62
325.068	6.62
325.858	8.62
326.649	8.62
327.439	4.62
328.23	5.62
329.02	7.62
329.81	7.62
330.6	7.62
331.391	5.62
332.181	10.62
332.971	6.62
333.76	5.62
334.55	4.62
335.34	4.62
336.13	6.62
336.919	6.62
337.709	5.62
338.498	7.62
339.287	6.62
340.077	4.62
340.866	6.62
341.655	6.62
342.444	6.62
343.233	5.62
344.022	4.62
344.811	4.62
345.6	6.62
346.388	6.62
347.177	5.62
347.965	5.62
348.754	5.62
349.542	4.62
350.33	6.62
351.119	4.62
351.907	5.62
352.695	2.62
353.483	5.62
354.271	3.62
355.059	5.62
355.846	5.62
356.634	6.62
357.422	5.62
358.209	3.62
358.997	5.62
359.784	7.62
360.571	5.62
361.359	5.62
362.146	5.62
362.933	8.62
363.72	5.62
364.507	4.62
365.294	6.62
366.081	1.62
366.867	5.62
367.654	3.62
368.44	4.62
369.227	3.62
370.013	2.62
370.8	4.62
371.586	2.62
372.372	5.62
373.158	4.62
373.944	3.62
374.73	4.62
375.516	3.62
376.302	6.62
377.088	4.62
377.873	2.62
378.659	4.62
379.445	2.62
380.23	5.62
381.015	4.62
381.801	4.62
382.586	4.62
383.371	7.62
384.156	4.62
384.941	4.62
385.726	3.62
386.511	6.62
387.296	5.62
388.08	4.62
388.865	5.62
389.649	3.62
390.434	4.62
391.218	6.62
392.003	3.62
392.787	6.62
393.571	4.62
394.355	6.62
395.139	5.62
395.923	4.62
396.707	5.62
397.491	7.62
398.274	5.62
399.058	4.62
399.842	5.62
400.625	6.62
401.408	4.62
402.192	6.62
402.975	5.62
403.758	6.62
404.541	3.62
405.324	5.62
406.107	5.62
406.89	6.62
407.673	6.62
408.456	7.62
409.238	5.62
410.021	6.62
410.803	8.62
411.586	7.62
412.368	4.62
413.151	8.62
413.933	5.62
414.715	7.62
415.497	10.62
416.279	9.62
417.061	11.62
417.843	9.62
418.624	8.62
419.406	8.62
420.188	9.62
420.969	10.62
421.751	8.62
422.532	10.62
423.313	10.62
424.095	8.62
424.876	11.62
425.657	11.62
426.438	10.62
427.219	11.62
428	9.62
428.78	10.62
429.561	12.62
430.342	16.62
431.122	15.62
431.903	15.62
432.683	10.62
433.464	15.62
434.244	18.62
435.024	13.62
435.804	17.62
436.584	19.62
437.364	18.62
438.144	17.62
438.924	20.62
439.704	22.62
440.483	21.62
441.263	24.62
442.042	23.62
442.822	27.62
443.601	25.62
444.38	27.62
445.16	31.62
445.939	35.62
446.718	38.62
447.497	39.62
448.276	40.62
449.054	47.62
449.833	50.62
450.612	57.62
451.391	60.62
452.169	68.62
452.948	74.62
453.726	81.62
454.504	83.62
455.282	97.62
456.061	110.62
456.839	120.62
457.617	133.62
458.395	149.62
459.172	161.62
459.95	181.62
460.728	204.62
461.506	224.62
462.283	257.62
463.061	277.62
463.838	313.62
464.615	348.62
465.393	388.62
466.17	443.62
466.947	483.62
467.724	533.62
468.501	593.62
469.278	661.62
470.055	724.62
470.831	801.62
471.608	895.62
472.385	984.62
473.161	1096.62
473.938	1206.62
474.714	1326.62
475.49	1470.62
476.266	1599.62
477.043	1753.62
477.819	1943.62
478.595	2132.62
479.371	2336.62
480.146	2589.62
480.922	2803.62
481.698	3076.62
482.473	3348.62
483.249	3672.62
484.024	4042.62
484.8	4420.62
485.575	4811.62
486.35	5268.62
487.126	5729.62
487.901	6244.62
488.676	6816.62
489.451	7445.62
490.225	8061.62
491	8762.62
491.775	9573.62
492.55	10367.62
493.324	11157.62
494.099	12023.62
494.873	12858.62
495.647	13886.62
496.422	14861.62
497.196	15947.62
497.97	17008.62
498.744	18106.62
499.518	19146.62
500.292	20181.62
501.066	21210.62
501.839	22170.62
502.613	23054.62
503.387	23862.62
504.16	24612.62
504.934	25002.62
505.707	25368.62
506.48	25547.62
507.253	25655.62
508.027	25683.62
508.8	25567.62
509.573	25340.62
510.346	25001.62
511.118	24398.62
511.891	23776.62
512.664	23138.62
513.437	22312.62
514.209	21493.62
514.982	20789.62
515.754	19931.62
516.526	19068.62
517.298	18286.62
518.071	17585.62
518.843	16913.62
519.615	16277.62
520.387	15600.62
521.159	14994.62
521.93	14376.62
522.702	13860.62
523.474	13268.62
524.245	12685.62
525.017	12132.62
525.788	11714.62
526.56	11173.62
527.331	10673.62
528.102	10232.62
528.873	9804.62
529.644	9309.62
530.415	8921.62
531.186	8455.62
531.957	8022.62
532.728	7650.62
533.498	7292.62
534.269	6872.62
535.039	6509.62
535.81	6174.62
536.58	5837.62
537.351	5485.62
538.121	5189.62
538.891	4894.62
539.661	4632.62
540.431	4381.62
541.201	4134.62
541.971	3898.62
542.741	3741.62
543.51	3544.62
544.28	3377.62
545.05	3218.62
545.819	3041.62
546.588	2895.62
547.358	2746.62
548.127	2633.62
548.896	2486.62
549.665	2347.62
550.434	2234.62
551.203	2114.62
551.972	2017.62
552.741	1901.62
553.51	1797.62
554.278	1714.62
555.047	1616.62
555.815	1519.62
556.584	1435.62
557.352	1362.62
558.121	1280.62
558.889	1220.62
559.657	1148.62
560.425	1099.62
561.193	1020.62
561.961	952.62
562.729	910.62
563.496	864.62
564.264	814.62
565.032	767.62
565.799	717.62
566.567	692.62
567.334	656.62
568.101	626.62
568.869	581.62
569.636	556.62
570.403	506.62
571.17	490.62
571.937	457.62
572.704	433.62
573.471	410.62
574.237	389.62
575.004	359.62
575.771	340.62
576.537	326.62
577.303	302.62
578.07	288.62
578.836	268.62
579.602	250.62
580.368	232.62
581.134	228.62
581.9	217.62
582.666	202.62
583.432	196.62
584.198	184.62
584.964	172.62
585.729	164.62
586.495	158.62
587.26	152.62
588.025	142.62
588.791	132.62
589.556	125.62
590.321	117.62
591.086	114.62
591.851	105.62
592.616	104.62
593.381	91.62
594.146	90.62
594.911	87.62
595.675	81.62
596.44	77.62
597.204	78.62
597.969	73.62
598.733	72.62
599.497	65.62
600.261	63.62
601.025	62.62
601.79	59.62
602.553	49.62
603.317	51.62
604.081	51.62
604.845	51.62
605.609	46.62
606.372	43.62
607.136	40.62
607.899	42.62
608.662	38.62
609.426	38.62
610.189	36.62
610.952	32.62
611.715	32.62
612.478	31.62
613.241	29.62
614.004	29.62
614.767	29.62
615.529	25.62
616.292	28.62
617.055	22.62
617.817	25.62
618.579	24.62
619.342	22.62
620.104	21.62
620.866	20.62
621.628	19.62
622.39	18.62
623.152	19.62
623.914	20.62
624.676	18.62
625.438	14.62
626.199	16.62
626.961	16.62
627.722	15.62
628.484	13.62
629.245	13.62
630.006	11.62
630.768	11.62
631.529	12.62
632.29	12.62
633.051	11.62
633.812	9.62
634.573	13.62
635.333	8.62
636.094	10.62
636.855	9.62
637.615	9.62
638.376	9.62
639.136	10.62
639.896	9.62
640.657	11.62
641.417	8.62
642.177	9.62
642.937	8.62
643.697	8.62
644.457	4.62
645.216	8.62
645.976	7.62
646.736	8.62
647.495	9.62
648.255	6.62
649.014	8.62
649.774	6.62
650.533	4.62
651.292	6.62
652.051	5.62
652.81	3.62
653.569	7.62
654.328	8.62
655.087	6.62
655.846	4.62
656.604	5.62
657.363	7.62
658.121	3.62
658.88	5.62
659.638	5.62
660.397	5.62
661.155	3.62
661.913	6.62
662.671	5.62
663.429	4.62
664.187	5.62
664.945	3.62
665.703	3.62
666.46	4.62
667.218	2.62
667.976	2.62
668.733	5.62
669.49	5.62
670.248	5.62
671.005	1.62
671.762	2.62
672.519	6.62
673.276	2.62
674.033	3.62
674.79	2.62
675.547	3.62
676.304	3.62
677.06	4.62
677.817	3.62
678.574	3.62
679.33	1.62
680.086	3.62
680.843	3.62
681.599	6.62
682.355	3.62
683.111	3.62
683.867	3.62
684.623	2.62
685.379	4.62
686.135	3.62
686.89	2.62
687.646	4.62
688.402	4.62
689.157	1.62
689.912	3.62
690.668	0.62
691.423	3.62
692.178	2.62
692.933	1.62
693.688	1.62
694.443	2.62
695.198	3.62
695.953	3.62
696.708	2.62
697.462	1.62
698.217	5.62
698.972	1.62
699.726	1.62
700.48	2.62
701.235	3.62
701.989	1.62
702.743	1.62
703.497	1.62
704.251	1.62
705.005	1.62
705.759	4.62
706.513	4.62
707.266	1.62
708.02	4.62
708.774	2.62
709.527	4.62
710.28	1.62
711.034	2.62
711.787	4.62
712.54	2.62
713.293	3.62
714.046	3.62
714.799	2.62
715.552	3.62
716.305	2.62
717.058	1.62
717.81	3.62
718.563	2.62
719.315	3.62
720.068	1.62
720.82	2.62
721.573	4.62
722.325	2.62
723.077	4.62
723.829	3.62
724.581	3.62
725.333	1.62
726.085	3.62
726.836	1.62
727.588	4.62
728.34	1.62
729.091	3.62
729.843	2.62
730.594	1.62
731.346	4.62
732.097	1.62
732.848	2.62
733.599	1.62
734.35	2.62
735.101	1.62
735.852	3.62
736.603	4.62
737.354	4.62
738.104	4.62
738.855	2.62
739.605	4.62
740.356	3.62
741.106	2.62
741.856	4.62
742.607	4.62
743.357	5.62
744.107	2.62
744.857	4.62
745.607	6.62
746.357	3.62
747.106	3.62
747.856	1.62
748.606	3.62
749.355	2.62
750.105	2.62
750.854	5.62
751.603	6.62
752.353	4.62
753.102	4.62
753.851	4.62
754.6	6.62
755.349	5.62
756.098	6.62
756.847	4.62
757.595	6.62
758.344	4.62
759.093	3.62
759.841	4.62
760.589	5.62
761.338	5.62
762.086	6.62
762.834	4.62
763.582	4.62
764.331	4.62
765.079	6.62
765.826	5.62
766.574	7.62
767.322	4.62
768.07	4.62
768.817	4.62
769.565	4.62
770.312	3.62
771.06	5.62
771.807	6.62
772.554	7.62
773.302	9.62
774.049	5.62
774.796	5.62
775.543	5.62
776.29	6.62
777.036	5.62
777.783	6.62
778.53	6.62
779.276	5.62
780.023	7.62
780.769	7.62
781.516	6.62
782.262	7.62
783.008	8.62
783.754	8.62
784.5	8.62
785.246	8.62
785.992	8.62
786.738	6.62
787.484	6.62
788.23	6.62
788.975	8.62
789.721	7.62
790.466	6.62
791.212	7.62
791.957	8.62
792.702	7.62
793.447	6.62
794.193	7.62
794.938	7.62
795.683	5.62
796.427	8.62
797.172	4.62
797.917	8.62
798.662	5.62
799.406	8.62
800.151	4.62
800.895	6.62
801.64	6.62
802.384	5.62
803.128	5.62
803.872	6.62
804.616	5.62
805.36	7.62
806.104	4.62
806.848	5.62
807.592	2.62
808.336	4.62
809.079	5.62
809.823	3.62
810.566	2.62
811.31	4.62
812.053	5.62
812.796	4.62
813.539	4.62
814.283	5.62
815.026	5.62
815.769	1.62
816.511	1.62
817.254	5.62
817.997	4.62
818.74	4.62
819.482	6.62
820.225	5.62
820.967	4.62
821.71	0.62
822.452	3.62
823.194	2.62
823.936	5.62
824.678	5.62
825.42	1.62
826.162	5.62
826.904	3.62
827.646	3.62
828.388	2.62
829.129	4.62
829.871	2.62
830.612	2.62
831.354	1.62
832.095	2.62
832.836	2.62
833.577	0.62
834.319	1.62
835.06	3.62
835.801	4.62
836.542	2.62
837.282	1.62
838.023	2.62
838.764	3.62
839.504	4.62
840.245	3.62
840.985	2.62
841.726	1.62
842.466	3.62
843.206	2.62
843.946	2.62
844.687	0.62
845.427	3.62
846.166	2.62
846.906	2.62
847.646	3.62
848.386	1.62
849.125	4.62
849.865	0.62
850.605	0.62
851.344	1.62
852.083	1.62
852.823	1.62
853.562	1.62
854.301	1.62
855.04	1.62
855.779	1.62
856.518	-0.38
857.257	1.62
857.995	1.62
858.734	2.62
859.473	3.62
860.211	0.62
860.95	1.62
861.688	3.62
862.426	1.62
863.165	3.62
863.903	1.62
864.641	-0.38
865.379	0.62
866.117	2.62
866.855	3.62
867.593	3.62
868.33	1.62
869.068	-2.38
869.806	2.62
870.543	0.62
871.28	0.62
872.018	0.62
872.755	1.62
873.492	2.62
874.229	-2.38
874.967	3.62
875.703	0.62
876.44	-0.38
877.177	0.62
877.914	-1.38
878.651	1.62
879.387	2.62
880.124	1.62
880.86	2.62
881.597	-1.38
882.333	1.62
883.069	-0.38
883.806	1.62
884.542	0.62
885.278	1.62
886.014	1.62
886.749	-0.38
887.485	-0.38
888.221	-0.38
888.957	0.62
889.692	-0.38
890.428	-0.38
891.163	-0.38
891.899	-0.38
892.634	0.62
893.369	0.62
894.104	1.62
894.839	0.62
895.574	0.62
896.309	0.62
897.044	-0.38
897.779	0.62
898.514	1.62
899.248	-0.38
899.983	0.62
900.717	-1.38
901.452	-0.38
902.186	-0.38
902.92	2.62
903.654	-0.38
904.389	-0.38
905.123	-0.38
905.857	-1.38
906.59	-0.38
907.324	-0.38
908.058	-0.38
908.792	-0.38
909.525	-1.38
910.259	-1.38
910.992	-0.38
911.726	0.62
912.459	-2.38
913.192	2.62
913.925	0.62
914.658	-1.38
915.391	-0.38
916.124	-2.38
916.857	-0.38
917.59	1.62
918.323	0.62
919.055	1.62
919.788	-0.38
920.521	-1.38
921.253	-2.38
921.985	1.62
922.718	1.62
923.45	0.62
924.182	1.62
924.914	-0.38
925.646	-1.38
926.378	-0.38
927.11	1.62
927.841	-2.38
928.573	0.62
929.305	0.62
930.036	-2.38
930.768	-0.38
931.499	0.62
932.23	-1.38
932.962	-0.38
933.693	-3.38
934.424	-0.38
935.155	-1.38
935.886	0.62
936.617	-1.38
937.348	-2.38
938.078	-1.38
938.809	-2.38
939.54	-1.38
940.27	-0.38
941.001	-1.38
941.731	-1.38
942.461	-0.38
943.191	-1.38
943.922	-2.38
944.652	0.62
945.382	-0.38
946.112	0.62
946.841	-0.38
947.571	0.62
948.301	-1.38
949.031	-1.38
949.76	-0.38
950.49	-0.38
951.219	-0.38
951.948	1.62
952.678	-0.38
953.407	0.62
954.136	-0.38
954.865	-1.38
955.594	0.62
956.323	-1.38
957.052	-2.38
957.78	1.62
958.509	-0.38
959.238	-1.38
959.966	-0.38
960.695	0.62
961.423	-2.38
962.151	-0.38
962.88	0.62
963.608	0.62
964.336	-0.38
965.064	0.62
965.792	0.62
966.52	0.62
967.247	-0.38
967.975	-0.38
968.703	-0.38
969.43	-0.38
970.158	0.62
970.885	-2.38
971.613	-1.38
972.34	0.62
973.067	-0.38
973.794	-0.38
974.521	-2.38
975.248	-1.38
975.975	-0.38
976.702	-2.38
977.429	-0.38
978.156	-0.38
978.882	-1.38
979.609	-0.38
980.335	-0.38
981.062	0.62
981.788	-2.38
982.514	0.62
983.24	-0.38
983.967	0.62
984.693	-2.38
985.419	-0.38
986.144	0.62
986.87	-1.38
987.596	0.62
988.322	-2.38
989.047	0.62
989.773	1.62
990.498	1.62
991.224	0.62
991.949	-0.38
992.674	-0.38
993.399	-1.38
994.124	-0.38
994.849	-0.38
995.574	-1.38
996.299	0.62
997.024	-0.38
997.749	0.62
998.473	0.62
999.198	-0.38
999.922	-0.38
1000.647	-2.38
1001.371	3.62
1002.095	-1.38
1002.82	-0.38
1003.544	-1.38
1004.268	0.62
1004.992	0.62
1005.716	-2.38
1006.439	0.62
1007.163	-0.38
1007.887	2.62
1008.611	1.62
1009.334	0.62
1010.058	-1.38
1010.781	0.62
1011.504	-2.38
1012.228	0.62
1012.951	0.62
1013.674	-0.38
1014.397	-0.38
1015.12	-0.38
