节点500_285_QEPB04081__693__15-07-04-854.txt的数据

Date: Wed Nov 12 15:07:04 CST 2025
User: PC
Spectrometer: QEPB0408
触发模式: 0
积分时间 (秒): 1.000000E-2
Scans to average: 1
启用暗噪声校正: true
启用非线性校正: false
滑动平均宽度: 0
X轴模式: Wavelengths
Number of Pixels in Spectrum: 1044
>>>>>Begin Spectral Data<<<<<
220.843	2.25
221.644	3.25
222.444	2.25
223.244	3.25
224.045	1.25
224.845	2.25
225.645	3.25
226.445	1.25
227.245	4.25
228.045	3.25
228.845	2.25
229.645	3.25
230.444	3.25
231.244	2.25
232.043	3.25
232.843	1.25
233.642	2.25
234.442	3.25
235.241	4.25
236.04	3.25
236.839	4.25
237.638	3.25
238.437	4.25
239.236	5.25
240.035	1.25
240.833	4.25
241.632	5.25
242.43	5.25
243.229	4.25
244.027	6.25
244.826	6.25
245.624	5.25
246.422	7.25
247.22	5.25
248.018	3.25
248.816	5.25
249.614	4.25
250.412	4.25
251.21	8.25
252.007	6.25
252.805	8.25
253.602	7.25
254.4	7.25
255.197	6.25
255.994	8.25
256.791	8.25
257.589	5.25
258.386	6.25
259.183	10.25
259.979	11.25
260.776	8.25
261.573	9.25
262.37	10.25
263.166	7.25
263.963	12.25
264.759	10.25
265.556	10.25
266.352	11.25
267.148	9.25
267.944	10.25
268.74	13.25
269.536	10.25
270.332	11.25
271.128	12.25
271.924	16.25
272.719	13.25
273.515	16.25
274.311	13.25
275.106	18.25
275.901	13.25
276.697	18.25
277.492	14.25
278.287	16.25
279.082	18.25
279.877	17.25
280.672	17.25
281.467	18.25
282.262	16.25
283.056	19.25
283.851	17.25
284.646	18.25
285.44	18.25
286.234	17.25
287.029	19.25
287.823	16.25
288.617	16.25
289.411	15.25
290.205	17.25
290.999	17.25
291.793	18.25
292.587	18.25
293.381	18.25
294.174	17.25
294.968	14.25
295.761	15.25
296.555	15.25
297.348	14.25
298.141	17.25
298.935	15.25
299.728	16.25
300.521	14.25
301.314	14.25
302.107	14.25
302.899	13.25
303.692	13.25
304.485	14.25
305.277	13.25
306.07	14.25
306.862	14.25
307.655	11.25
308.447	14.25
309.239	13.25
310.031	11.25
310.823	12.25
311.615	10.25
312.407	10.25
313.199	11.25
313.991	8.25
314.783	10.25
315.574	9.25
316.366	11.25
317.157	8.25
317.949	8.25
318.74	8.25
319.531	8.25
320.322	8.25
321.113	5.25
321.904	10.25
322.695	8.25
323.486	6.25
324.277	5.25
325.068	6.25
325.858	8.25
326.649	5.25
327.439	6.25
328.23	6.25
329.02	7.25
329.81	8.25
330.6	4.25
331.391	6.25
332.181	5.25
332.971	8.25
333.76	7.25
334.55	9.25
335.34	7.25
336.13	6.25
336.919	6.25
337.709	7.25
338.498	8.25
339.287	6.25
340.077	3.25
340.866	7.25
341.655	5.25
342.444	8.25
343.233	5.25
344.022	7.25
344.811	6.25
345.6	3.25
346.388	5.25
347.177	7.25
347.965	7.25
348.754	9.25
349.542	5.25
350.33	7.25
351.119	6.25
351.907	7.25
352.695	6.25
353.483	8.25
354.271	7.25
355.059	6.25
355.846	6.25
356.634	5.25
357.422	8.25
358.209	4.25
358.997	7.25
359.784	6.25
360.571	4.25
361.359	6.25
362.146	6.25
362.933	6.25
363.72	4.25
364.507	5.25
365.294	4.25
366.081	6.25
366.867	5.25
367.654	5.25
368.44	4.25
369.227	6.25
370.013	6.25
370.8	5.25
371.586	3.25
372.372	5.25
373.158	6.25
373.944	5.25
374.73	5.25
375.516	4.25
376.302	7.25
377.088	4.25
377.873	5.25
378.659	5.25
379.445	5.25
380.23	5.25
381.015	4.25
381.801	4.25
382.586	5.25
383.371	7.25
384.156	5.25
384.941	6.25
385.726	5.25
386.511	5.25
387.296	6.25
388.08	6.25
388.865	5.25
389.649	6.25
390.434	4.25
391.218	5.25
392.003	3.25
392.787	8.25
393.571	6.25
394.355	6.25
395.139	5.25
395.923	4.25
396.707	9.25
397.491	5.25
398.274	6.25
399.058	10.25
399.842	7.25
400.625	4.25
401.408	6.25
402.192	7.25
402.975	6.25
403.758	7.25
404.541	7.25
405.324	10.25
406.107	6.25
406.89	8.25
407.673	8.25
408.456	8.25
409.238	10.25
410.021	10.25
410.803	9.25
411.586	9.25
412.368	8.25
413.151	10.25
413.933	6.25
414.715	10.25
415.497	10.25
416.279	8.25
417.061	13.25
417.843	9.25
418.624	10.25
419.406	9.25
420.188	9.25
420.969	10.25
421.751	10.25
422.532	11.25
423.313	11.25
424.095	12.25
424.876	13.25
425.657	9.25
426.438	11.25
427.219	12.25
428	13.25
428.78	11.25
429.561	13.25
430.342	11.25
431.122	12.25
431.903	14.25
432.683	17.25
433.464	19.25
434.244	18.25
435.024	17.25
435.804	18.25
436.584	18.25
437.364	19.25
438.144	18.25
438.924	21.25
439.704	21.25
440.483	24.25
441.263	23.25
442.042	24.25
442.822	29.25
443.601	31.25
444.38	32.25
445.16	34.25
445.939	35.25
446.718	41.25
447.497	39.25
448.276	43.25
449.054	46.25
449.833	52.25
450.612	58.25
451.391	62.25
452.169	69.25
452.948	74.25
453.726	83.25
454.504	87.25
455.282	97.25
456.061	106.25
456.839	120.25
457.617	133.25
458.395	147.25
459.172	165.25
459.95	184.25
460.728	204.25
461.506	227.25
462.283	251.25
463.061	283.25
463.838	320.25
464.615	352.25
465.393	393.25
466.17	430.25
466.947	483.25
467.724	525.25
468.501	596.25
469.278	655.25
470.055	730.25
470.831	806.25
471.608	897.25
472.385	990.25
473.161	1093.25
473.938	1197.25
474.714	1335.25
475.49	1447.25
476.266	1617.25
477.043	1745.25
477.819	1926.25
478.595	2135.25
479.371	2334.25
480.146	2563.25
480.922	2786.25
481.698	3051.25
482.473	3356.25
483.249	3680.25
484.024	4016.25
484.8	4383.25
485.575	4796.25
486.35	5225.25
487.126	5686.25
487.901	6221.25
488.676	6783.25
489.451	7341.25
490.225	8026.25
491	8692.25
491.775	9474.25
492.55	10286.25
493.324	11069.25
494.099	11880.25
494.873	12827.25
495.647	13793.25
496.422	14823.25
497.196	15842.25
497.97	16877.25
498.744	17928.25
499.518	18942.25
500.292	20060.25
501.066	21024.25
501.839	21964.25
502.613	22918.25
503.387	23705.25
504.16	24398.25
504.934	24872.25
505.707	25181.25
506.48	25430.25
507.253	25484.25
508.027	25533.25
508.8	25478.25
509.573	25233.25
510.346	24787.25
511.118	24242.25
511.891	23604.25
512.664	22982.25
513.437	22238.25
514.209	21489.25
514.982	20670.25
515.754	19779.25
516.526	19032.25
517.298	18253.25
518.071	17602.25
518.843	16829.25
519.615	16167.25
520.387	15592.25
521.159	14942.25
521.93	14319.25
522.702	13824.25
523.474	13197.25
524.245	12670.25
525.017	12066.25
525.788	11683.25
526.56	11197.25
527.331	10680.25
528.102	10208.25
528.873	9760.25
529.644	9304.25
530.415	8867.25
531.186	8419.25
531.957	8057.25
532.728	7663.25
533.498	7261.25
534.269	6871.25
535.039	6477.25
535.81	6134.25
536.58	5788.25
537.351	5509.25
538.121	5209.25
538.891	4908.25
539.661	4642.25
540.431	4404.25
541.201	4154.25
541.971	3938.25
542.741	3724.25
543.51	3539.25
544.28	3352.25
545.05	3199.25
545.819	3055.25
546.588	2913.25
547.358	2765.25
548.127	2623.25
548.896	2481.25
549.665	2351.25
550.434	2233.25
551.203	2111.25
551.972	2017.25
552.741	1901.25
553.51	1813.25
554.278	1717.25
555.047	1591.25
555.815	1527.25
556.584	1449.25
557.352	1355.25
558.121	1278.25
558.889	1218.25
559.657	1154.25
560.425	1084.25
561.193	1015.25
561.961	951.25
562.729	906.25
563.496	875.25
564.264	815.25
565.032	764.25
565.799	723.25
566.567	681.25
567.334	649.25
568.101	621.25
568.869	581.25
569.636	538.25
570.403	515.25
571.17	487.25
571.937	454.25
572.704	437.25
573.471	412.25
574.237	388.25
575.004	366.25
575.771	345.25
576.537	322.25
577.303	309.25
578.07	286.25
578.836	272.25
579.602	254.25
580.368	243.25
581.134	225.25
581.9	217.25
582.666	206.25
583.432	195.25
584.198	182.25
584.964	179.25
585.729	165.25
586.495	158.25
587.26	146.25
588.025	138.25
588.791	136.25
589.556	124.25
590.321	123.25
591.086	110.25
591.851	110.25
592.616	107.25
593.381	95.25
594.146	91.25
594.911	88.25
595.675	90.25
596.44	77.25
597.204	79.25
597.969	71.25
598.733	70.25
599.497	65.25
600.261	66.25
601.025	57.25
601.79	61.25
602.553	55.25
603.317	55.25
604.081	48.25
604.845	47.25
605.609	43.25
606.372	44.25
607.136	42.25
607.899	41.25
608.662	42.25
609.426	38.25
610.189	38.25
610.952	37.25
611.715	33.25
612.478	31.25
613.241	30.25
614.004	27.25
614.767	31.25
615.529	25.25
616.292	27.25
617.055	25.25
617.817	28.25
618.579	22.25
619.342	21.25
620.104	22.25
620.866	23.25
621.628	20.25
622.39	20.25
623.152	17.25
623.914	20.25
624.676	17.25
625.438	16.25
626.199	18.25
626.961	15.25
627.722	14.25
628.484	17.25
629.245	16.25
630.006	13.25
630.768	15.25
631.529	12.25
632.29	14.25
633.051	14.25
633.812	13.25
634.573	14.25
635.333	13.25
636.094	9.25
636.855	12.25
637.615	9.25
638.376	13.25
639.136	9.25
639.896	10.25
640.657	9.25
641.417	9.25
642.177	10.25
642.937	8.25
643.697	8.25
644.457	8.25
645.216	9.25
645.976	7.25
646.736	7.25
647.495	8.25
648.255	7.25
649.014	7.25
649.774	8.25
650.533	7.25
651.292	7.25
652.051	8.25
652.81	8.25
653.569	5.25
654.328	6.25
655.087	6.25
655.846	6.25
656.604	5.25
657.363	6.25
658.121	7.25
658.88	4.25
659.638	7.25
660.397	5.25
661.155	5.25
661.913	7.25
662.671	4.25
663.429	5.25
664.187	4.25
664.945	4.25
665.703	2.25
666.46	3.25
667.218	6.25
667.976	6.25
668.733	5.25
669.49	6.25
670.248	4.25
671.005	3.25
671.762	3.25
672.519	6.25
673.276	5.25
674.033	4.25
674.79	2.25
675.547	2.25
676.304	7.25
677.06	4.25
677.817	5.25
678.574	2.25
679.33	6.25
680.086	4.25
680.843	5.25
681.599	5.25
682.355	4.25
683.111	5.25
683.867	6.25
684.623	6.25
685.379	5.25
686.135	5.25
686.89	6.25
687.646	4.25
688.402	6.25
689.157	3.25
689.912	5.25
690.668	5.25
691.423	4.25
692.178	4.25
692.933	3.25
693.688	3.25
694.443	4.25
695.198	5.25
695.953	3.25
696.708	5.25
697.462	5.25
698.217	3.25
698.972	4.25
699.726	3.25
700.48	5.25
701.235	3.25
701.989	1.25
702.743	4.25
703.497	3.25
704.251	3.25
705.005	3.25
705.759	4.25
706.513	5.25
707.266	3.25
708.02	5.25
708.774	4.25
709.527	5.25
710.28	2.25
711.034	6.25
711.787	4.25
712.54	0.25
713.293	5.25
714.046	1.25
714.799	4.25
715.552	5.25
716.305	2.25
717.058	3.25
717.81	2.25
718.563	3.25
719.315	4.25
720.068	5.25
720.82	3.25
721.573	4.25
722.325	5.25
723.077	1.25
723.829	5.25
724.581	2.25
725.333	1.25
726.085	5.25
726.836	5.25
727.588	2.25
728.34	4.25
729.091	5.25
729.843	2.25
730.594	6.25
731.346	4.25
732.097	2.25
732.848	5.25
733.599	4.25
734.35	4.25
735.101	2.25
735.852	3.25
736.603	5.25
737.354	5.25
738.104	5.25
738.855	3.25
739.605	5.25
740.356	3.25
741.106	3.25
741.856	4.25
742.607	6.25
743.357	3.25
744.107	5.25
744.857	5.25
745.607	4.25
746.357	5.25
747.106	6.25
747.856	5.25
748.606	7.25
749.355	3.25
750.105	3.25
750.854	3.25
751.603	5.25
752.353	4.25
753.102	5.25
753.851	5.25
754.6	6.25
755.349	6.25
756.098	5.25
756.847	7.25
757.595	6.25
758.344	7.25
759.093	4.25
759.841	5.25
760.589	4.25
761.338	6.25
762.086	6.25
762.834	7.25
763.582	7.25
764.331	7.25
765.079	5.25
765.826	5.25
766.574	6.25
767.322	7.25
768.07	6.25
768.817	8.25
769.565	4.25
770.312	4.25
771.06	7.25
771.807	7.25
772.554	8.25
773.302	9.25
774.049	7.25
774.796	5.25
775.543	6.25
776.29	9.25
777.036	7.25
777.783	9.25
778.53	8.25
779.276	7.25
780.023	6.25
780.769	9.25
781.516	6.25
782.262	8.25
783.008	7.25
783.754	9.25
784.5	9.25
785.246	8.25
785.992	6.25
786.738	7.25
787.484	8.25
788.23	7.25
788.975	9.25
789.721	8.25
790.466	7.25
791.212	9.25
791.957	7.25
792.702	9.25
793.447	8.25
794.193	9.25
794.938	8.25
795.683	8.25
796.427	12.25
797.172	7.25
797.917	8.25
798.662	9.25
799.406	7.25
800.151	9.25
800.895	7.25
801.64	6.25
802.384	7.25
803.128	7.25
803.872	7.25
804.616	9.25
805.36	8.25
806.104	6.25
806.848	7.25
807.592	5.25
808.336	6.25
809.079	3.25
809.823	5.25
810.566	3.25
811.31	6.25
812.053	5.25
812.796	7.25
813.539	6.25
814.283	4.25
815.026	6.25
815.769	4.25
816.511	5.25
817.254	5.25
817.997	5.25
818.74	5.25
819.482	5.25
820.225	7.25
820.967	5.25
821.71	4.25
822.452	3.25
823.194	3.25
823.936	2.25
824.678	5.25
825.42	5.25
826.162	5.25
826.904	6.25
827.646	3.25
828.388	4.25
829.129	5.25
829.871	3.25
830.612	5.25
831.354	5.25
832.095	4.25
832.836	5.25
833.577	6.25
834.319	5.25
835.06	4.25
835.801	1.25
836.542	2.25
837.282	3.25
838.023	3.25
838.764	3.25
839.504	3.25
840.245	6.25
840.985	4.25
841.726	2.25
842.466	2.25
843.206	2.25
843.946	2.25
844.687	3.25
845.427	2.25
846.166	4.25
846.906	1.25
847.646	3.25
848.386	1.25
849.125	3.25
849.865	2.25
850.605	2.25
851.344	6.25
852.083	4.25
852.823	3.25
853.562	4.25
854.301	5.25
855.04	3.25
855.779	2.25
856.518	1.25
857.257	1.25
857.995	2.25
858.734	3.25
859.473	3.25
860.211	1.25
860.95	1.25
861.688	3.25
862.426	3.25
863.165	4.25
863.903	2.25
864.641	1.25
865.379	1.25
866.117	1.25
866.855	2.25
867.593	1.25
868.33	1.25
869.068	1.25
869.806	3.25
870.543	2.25
871.28	2.25
872.018	2.25
872.755	2.25
873.492	2.25
874.229	1.25
874.967	1.25
875.703	4.25
876.44	2.25
877.177	2.25
877.914	2.25
878.651	1.25
879.387	1.25
880.124	0.25
880.86	1.25
881.597	0.25
882.333	2.25
883.069	1.25
883.806	2.25
884.542	1.25
885.278	2.25
886.014	0.25
886.749	-0.75
887.485	1.25
888.221	2.25
888.957	0.25
889.692	2.25
890.428	1.25
891.163	2.25
891.899	1.25
892.634	2.25
893.369	4.25
894.104	0.25
894.839	1.25
895.574	3.25
896.309	2.25
897.044	1.25
897.779	2.25
898.514	2.25
899.248	0.25
899.983	1.25
900.717	1.25
901.452	1.25
902.186	0.25
902.92	0.25
903.654	1.25
904.389	-0.75
905.123	0.25
905.857	0.25
906.59	1.25
907.324	2.25
908.058	-0.75
908.792	2.25
909.525	2.25
910.259	2.25
910.992	1.25
911.726	1.25
912.459	-0.75
913.192	-0.75
913.925	1.25
914.658	-0.75
915.391	0.25
916.124	2.25
916.857	1.25
917.59	0.25
918.323	-1.75
919.055	0.25
919.788	0.25
920.521	-0.75
921.253	0.25
921.985	1.25
922.718	-1.75
923.45	1.25
924.182	1.25
924.914	-0.75
925.646	-1.75
926.378	4.25
927.11	1.25
927.841	0.25
928.573	0.25
929.305	0.25
930.036	1.25
930.768	-0.75
931.499	0.25
932.23	1.25
932.962	0.25
933.693	-0.75
934.424	0.25
935.155	1.25
935.886	2.25
936.617	1.25
937.348	-0.75
938.078	0.25
938.809	-1.75
939.54	2.25
940.27	0.25
941.001	0.25
941.731	1.25
942.461	-1.75
943.191	0.25
943.922	-0.75
944.652	3.25
945.382	2.25
946.112	0.25
946.841	0.25
947.571	0.25
948.301	0.25
949.031	0.25
949.76	2.25
950.49	-1.75
951.219	0.25
951.948	2.25
952.678	3.25
953.407	0.25
954.136	0.25
954.865	2.25
955.594	1.25
956.323	1.25
957.052	2.25
957.78	1.25
958.509	0.25
959.238	0.25
959.966	-1.75
960.695	0.25
961.423	-0.75
962.151	1.25
962.88	0.25
963.608	0.25
964.336	-1.75
965.064	-0.75
965.792	1.25
966.52	-2.75
967.247	3.25
967.975	1.25
968.703	2.25
969.43	1.25
970.158	0.25
970.885	0.25
971.613	-0.75
972.34	0.25
973.067	0.25
973.794	1.25
974.521	0.25
975.248	0.25
975.975	1.25
976.702	1.25
977.429	2.25
978.156	1.25
978.882	0.25
979.609	0.25
980.335	-0.75
981.062	2.25
981.788	-0.75
982.514	0.25
983.24	2.25
983.967	-0.75
984.693	1.25
985.419	1.25
986.144	-0.75
986.87	1.25
987.596	1.25
988.322	1.25
989.047	-1.75
989.773	0.25
990.498	-1.75
991.224	0.25
991.949	1.25
992.674	-1.75
993.399	0.25
994.124	-0.75
994.849	0.25
995.574	-0.75
996.299	2.25
997.024	0.25
997.749	1.25
998.473	2.25
999.198	-0.75
999.922	0.25
1000.647	-0.75
1001.371	2.25
1002.095	0.25
1002.82	-0.75
1003.544	-1.75
1004.268	2.25
1004.992	2.25
1005.716	1.25
1006.439	1.25
1007.163	1.25
1007.887	2.25
1008.611	1.25
1009.334	0.25
1010.058	1.25
1010.781	0.25
1011.504	1.25
1012.228	1.25
1012.951	0.25
1013.674	1.25
1014.397	0.25
1015.12	-1.75
