节点500_285_QEPB04081__93__14-57-06-289.txt的数据

Date: Wed Nov 12 14:57:06 CST 2025
User: PC
Spectrometer: QEPB0408
触发模式: 0
积分时间 (秒): 1.000000E-2
Scans to average: 1
启用暗噪声校正: true
启用非线性校正: false
滑动平均宽度: 0
X轴模式: Wavelengths
Number of Pixels in Spectrum: 1044
>>>>>Begin Spectral Data<<<<<
220.843	3.38
221.644	1.38
222.444	1.38
223.244	2.38
224.045	4.38
224.845	2.38
225.645	3.38
226.445	4.38
227.245	3.38
228.045	4.38
228.845	5.38
229.645	3.38
230.444	5.38
231.244	5.38
232.043	3.38
232.843	6.38
233.642	6.38
234.442	2.38
235.241	7.38
236.04	4.38
236.839	4.38
237.638	6.38
238.437	6.38
239.236	6.38
240.035	6.38
240.833	6.38
241.632	5.38
242.43	6.38
243.229	5.38
244.027	7.38
244.826	7.38
245.624	6.38
246.422	5.38
247.22	4.38
248.018	6.38
248.816	6.38
249.614	6.38
250.412	7.38
251.21	6.38
252.007	6.38
252.805	9.38
253.602	9.38
254.4	7.38
255.197	7.38
255.994	8.38
256.791	9.38
257.589	8.38
258.386	11.38
259.183	11.38
259.979	11.38
260.776	10.38
261.573	13.38
262.37	13.38
263.166	14.38
263.963	14.38
264.759	13.38
265.556	13.38
266.352	14.38
267.148	14.38
267.944	17.38
268.74	15.38
269.536	17.38
270.332	15.38
271.128	18.38
271.924	16.38
272.719	16.38
273.515	20.38
274.311	17.38
275.106	19.38
275.901	20.38
276.697	18.38
277.492	18.38
278.287	18.38
279.082	20.38
279.877	18.38
280.672	20.38
281.467	18.38
282.262	21.38
283.056	20.38
283.851	19.38
284.646	22.38
285.44	21.38
286.234	21.38
287.029	20.38
287.823	21.38
288.617	21.38
289.411	20.38
290.205	21.38
290.999	21.38
291.793	18.38
292.587	18.38
293.381	16.38
294.174	20.38
294.968	17.38
295.761	15.38
296.555	18.38
297.348	15.38
298.141	17.38
298.935	19.38
299.728	16.38
300.521	16.38
301.314	16.38
302.107	14.38
302.899	12.38
303.692	14.38
304.485	12.38
305.277	14.38
306.07	14.38
306.862	16.38
307.655	13.38
308.447	12.38
309.239	13.38
310.031	12.38
310.823	10.38
311.615	12.38
312.407	10.38
313.199	10.38
313.991	11.38
314.783	11.38
315.574	11.38
316.366	8.38
317.157	9.38
317.949	10.38
318.74	11.38
319.531	9.38
320.322	7.38
321.113	10.38
321.904	6.38
322.695	9.38
323.486	10.38
324.277	11.38
325.068	9.38
325.858	7.38
326.649	8.38
327.439	7.38
328.23	8.38
329.02	9.38
329.81	7.38
330.6	9.38
331.391	8.38
332.181	7.38
332.971	5.38
333.76	8.38
334.55	7.38
335.34	7.38
336.13	7.38
336.919	9.38
337.709	9.38
338.498	10.38
339.287	7.38
340.077	8.38
340.866	6.38
341.655	7.38
342.444	8.38
343.233	6.38
344.022	6.38
344.811	7.38
345.6	5.38
346.388	7.38
347.177	6.38
347.965	6.38
348.754	6.38
349.542	7.38
350.33	7.38
351.119	9.38
351.907	7.38
352.695	7.38
353.483	5.38
354.271	5.38
355.059	6.38
355.846	6.38
356.634	7.38
357.422	8.38
358.209	8.38
358.997	7.38
359.784	8.38
360.571	7.38
361.359	8.38
362.146	5.38
362.933	4.38
363.72	5.38
364.507	6.38
365.294	5.38
366.081	6.38
366.867	6.38
367.654	6.38
368.44	7.38
369.227	5.38
370.013	7.38
370.8	6.38
371.586	4.38
372.372	5.38
373.158	5.38
373.944	6.38
374.73	8.38
375.516	5.38
376.302	6.38
377.088	4.38
377.873	5.38
378.659	6.38
379.445	7.38
380.23	7.38
381.015	7.38
381.801	5.38
382.586	7.38
383.371	7.38
384.156	5.38
384.941	6.38
385.726	6.38
386.511	7.38
387.296	5.38
388.08	5.38
388.865	8.38
389.649	5.38
390.434	5.38
391.218	7.38
392.003	7.38
392.787	9.38
393.571	6.38
394.355	6.38
395.139	6.38
395.923	7.38
396.707	7.38
397.491	6.38
398.274	6.38
399.058	8.38
399.842	6.38
400.625	8.38
401.408	6.38
402.192	8.38
402.975	7.38
403.758	7.38
404.541	9.38
405.324	6.38
406.107	10.38
406.89	8.38
407.673	10.38
408.456	10.38
409.238	9.38
410.021	10.38
410.803	8.38
411.586	9.38
412.368	9.38
413.151	11.38
413.933	11.38
414.715	11.38
415.497	12.38
416.279	11.38
417.061	11.38
417.843	10.38
418.624	12.38
419.406	12.38
420.188	9.38
420.969	9.38
421.751	12.38
422.532	11.38
423.313	11.38
424.095	12.38
424.876	14.38
425.657	14.38
426.438	13.38
427.219	14.38
428	14.38
428.78	15.38
429.561	14.38
430.342	16.38
431.122	14.38
431.903	16.38
432.683	18.38
433.464	17.38
434.244	20.38
435.024	19.38
435.804	18.38
436.584	19.38
437.364	20.38
438.144	23.38
438.924	22.38
439.704	22.38
440.483	23.38
441.263	20.38
442.042	26.38
442.822	26.38
443.601	30.38
444.38	28.38
445.16	32.38
445.939	30.38
446.718	35.38
447.497	38.38
448.276	40.38
449.054	46.38
449.833	47.38
450.612	55.38
451.391	59.38
452.169	58.38
452.948	64.38
453.726	70.38
454.504	79.38
455.282	84.38
456.061	95.38
456.839	106.38
457.617	114.38
458.395	127.38
459.172	146.38
459.95	155.38
460.728	175.38
461.506	193.38
462.283	213.38
463.061	239.38
463.838	269.38
464.615	303.38
465.393	335.38
466.17	387.38
466.947	425.38
467.724	476.38
468.501	526.38
469.278	579.38
470.055	657.38
470.831	728.38
471.608	811.38
472.385	916.38
473.161	1012.38
473.938	1144.38
474.714	1263.38
475.49	1401.38
476.266	1547.38
477.043	1719.38
477.819	1923.38
478.595	2112.38
479.371	2341.38
480.146	2617.38
480.922	2890.38
481.698	3197.38
482.473	3528.38
483.249	3910.38
484.024	4298.38
484.8	4778.38
485.575	5230.38
486.35	5818.38
487.126	6398.38
487.901	7083.38
488.676	7747.38
489.451	8503.38
490.225	9341.38
491	10261.38
491.775	11174.38
492.55	12232.38
493.324	13324.38
494.099	14419.38
494.873	15530.38
495.647	16769.38
496.422	18015.38
497.196	19320.38
497.97	20617.38
498.744	21875.38
499.518	23136.38
500.292	24264.38
501.066	25365.38
501.839	26303.38
502.613	27101.38
503.387	27866.38
504.16	28425.38
504.934	28661.38
505.707	28722.38
506.48	28607.38
507.253	28362.38
508.027	27942.38
508.8	27516.38
509.573	26857.38
510.346	26069.38
511.118	25156.38
511.891	24291.38
512.664	23366.38
513.437	22385.38
514.209	21386.38
514.982	20467.38
515.754	19460.38
516.526	18598.38
517.298	17822.38
518.071	16988.38
518.843	16350.38
519.615	15769.38
520.387	15114.38
521.159	14509.38
521.93	13918.38
522.702	13405.38
523.474	12812.38
524.245	12273.38
525.017	11729.38
525.788	11293.38
526.56	10711.38
527.331	10217.38
528.102	9753.38
528.873	9211.38
529.644	8781.38
530.415	8350.38
531.186	7911.38
531.957	7501.38
532.728	7111.38
533.498	6697.38
534.269	6306.38
535.039	5961.38
535.81	5645.38
536.58	5323.38
537.351	5012.38
538.121	4722.38
538.891	4490.38
539.661	4261.38
540.431	4013.38
541.201	3773.38
541.971	3589.38
542.741	3402.38
543.51	3228.38
544.28	3070.38
545.05	2931.38
545.819	2784.38
546.588	2656.38
547.358	2506.38
548.127	2371.38
548.896	2257.38
549.665	2141.38
550.434	2019.38
551.203	1907.38
551.972	1813.38
552.741	1723.38
553.51	1629.38
554.278	1519.38
555.047	1445.38
555.815	1361.38
556.584	1291.38
557.352	1221.38
558.121	1149.38
558.889	1062.38
559.657	1021.38
560.425	961.38
561.193	907.38
561.961	853.38
562.729	807.38
563.496	764.38
564.264	717.38
565.032	681.38
565.799	643.38
566.567	605.38
567.334	565.38
568.101	553.38
568.869	513.38
569.636	478.38
570.403	455.38
571.17	427.38
571.937	412.38
572.704	379.38
573.471	358.38
574.237	341.38
575.004	316.38
575.771	305.38
576.537	290.38
577.303	274.38
578.07	253.38
578.836	238.38
579.602	224.38
580.368	209.38
581.134	204.38
581.9	186.38
582.666	184.38
583.432	174.38
584.198	156.38
584.964	156.38
585.729	149.38
586.495	142.38
587.26	130.38
588.025	129.38
588.791	119.38
589.556	114.38
590.321	108.38
591.086	102.38
591.851	97.38
592.616	93.38
593.381	86.38
594.146	87.38
594.911	78.38
595.675	77.38
596.44	72.38
597.204	71.38
597.969	65.38
598.733	61.38
599.497	61.38
600.261	58.38
601.025	58.38
601.79	54.38
602.553	48.38
603.317	50.38
604.081	46.38
604.845	45.38
605.609	42.38
606.372	38.38
607.136	40.38
607.899	38.38
608.662	36.38
609.426	35.38
610.189	33.38
610.952	34.38
611.715	30.38
612.478	32.38
613.241	30.38
614.004	28.38
614.767	29.38
615.529	28.38
616.292	26.38
617.055	27.38
617.817	25.38
618.579	21.38
619.342	22.38
620.104	22.38
620.866	21.38
621.628	20.38
622.39	20.38
623.152	18.38
623.914	19.38
624.676	16.38
625.438	16.38
626.199	14.38
626.961	18.38
627.722	15.38
628.484	16.38
629.245	15.38
630.006	13.38
630.768	15.38
631.529	13.38
632.29	15.38
633.051	10.38
633.812	14.38
634.573	11.38
635.333	11.38
636.094	13.38
636.855	11.38
637.615	13.38
638.376	10.38
639.136	10.38
639.896	12.38
640.657	9.38
641.417	10.38
642.177	11.38
642.937	10.38
643.697	8.38
644.457	8.38
645.216	9.38
645.976	10.38
646.736	11.38
647.495	6.38
648.255	6.38
649.014	8.38
649.774	7.38
650.533	8.38
651.292	9.38
652.051	8.38
652.81	8.38
653.569	6.38
654.328	7.38
655.087	6.38
655.846	8.38
656.604	8.38
657.363	7.38
658.121	6.38
658.88	5.38
659.638	5.38
660.397	7.38
661.155	9.38
661.913	5.38
662.671	5.38
663.429	6.38
664.187	6.38
664.945	6.38
665.703	5.38
666.46	5.38
667.218	5.38
667.976	4.38
668.733	5.38
669.49	8.38
670.248	4.38
671.005	6.38
671.762	6.38
672.519	5.38
673.276	6.38
674.033	4.38
674.79	6.38
675.547	5.38
676.304	5.38
677.06	6.38
677.817	4.38
678.574	7.38
679.33	4.38
680.086	4.38
680.843	6.38
681.599	5.38
682.355	4.38
683.111	7.38
683.867	5.38
684.623	7.38
685.379	4.38
686.135	5.38
686.89	5.38
687.646	6.38
688.402	6.38
689.157	6.38
689.912	4.38
690.668	5.38
691.423	4.38
692.178	4.38
692.933	5.38
693.688	2.38
694.443	5.38
695.198	4.38
695.953	4.38
696.708	6.38
697.462	8.38
698.217	6.38
698.972	1.38
699.726	5.38
700.48	3.38
701.235	2.38
701.989	4.38
702.743	4.38
703.497	6.38
704.251	5.38
705.005	5.38
705.759	5.38
706.513	3.38
707.266	5.38
708.02	3.38
708.774	5.38
709.527	5.38
710.28	3.38
711.034	3.38
711.787	3.38
712.54	5.38
713.293	4.38
714.046	5.38
714.799	6.38
715.552	3.38
716.305	4.38
717.058	5.38
717.81	4.38
718.563	3.38
719.315	5.38
720.068	5.38
720.82	2.38
721.573	8.38
722.325	4.38
723.077	5.38
723.829	4.38
724.581	3.38
725.333	3.38
726.085	4.38
726.836	6.38
727.588	4.38
728.34	5.38
729.091	5.38
729.843	5.38
730.594	5.38
731.346	5.38
732.097	4.38
732.848	7.38
733.599	4.38
734.35	7.38
735.101	4.38
735.852	6.38
736.603	5.38
737.354	7.38
738.104	4.38
738.855	4.38
739.605	6.38
740.356	5.38
741.106	6.38
741.856	4.38
742.607	5.38
743.357	3.38
744.107	5.38
744.857	9.38
745.607	7.38
746.357	6.38
747.106	6.38
747.856	4.38
748.606	7.38
749.355	5.38
750.105	4.38
750.854	8.38
751.603	4.38
752.353	6.38
753.102	6.38
753.851	6.38
754.6	6.38
755.349	6.38
756.098	9.38
756.847	6.38
757.595	8.38
758.344	6.38
759.093	5.38
759.841	7.38
760.589	7.38
761.338	8.38
762.086	6.38
762.834	8.38
763.582	7.38
764.331	8.38
765.079	8.38
765.826	8.38
766.574	10.38
767.322	8.38
768.07	10.38
768.817	10.38
769.565	8.38
770.312	10.38
771.06	9.38
771.807	8.38
772.554	10.38
773.302	9.38
774.049	8.38
774.796	10.38
775.543	11.38
776.29	8.38
777.036	9.38
777.783	10.38
778.53	9.38
779.276	11.38
780.023	10.38
780.769	13.38
781.516	9.38
782.262	11.38
783.008	10.38
783.754	9.38
784.5	11.38
785.246	8.38
785.992	12.38
786.738	10.38
787.484	10.38
788.23	9.38
788.975	10.38
789.721	9.38
790.466	9.38
791.212	11.38
791.957	8.38
792.702	7.38
793.447	12.38
794.193	12.38
794.938	7.38
795.683	8.38
796.427	8.38
797.172	8.38
797.917	6.38
798.662	6.38
799.406	6.38
800.151	8.38
800.895	8.38
801.64	6.38
802.384	8.38
803.128	9.38
803.872	8.38
804.616	8.38
805.36	7.38
806.104	8.38
806.848	8.38
807.592	7.38
808.336	6.38
809.079	5.38
809.823	6.38
810.566	5.38
811.31	8.38
812.053	6.38
812.796	8.38
813.539	7.38
814.283	7.38
815.026	7.38
815.769	5.38
816.511	5.38
817.254	3.38
817.997	7.38
818.74	6.38
819.482	5.38
820.225	5.38
820.967	7.38
821.71	4.38
822.452	5.38
823.194	5.38
823.936	4.38
824.678	4.38
825.42	5.38
826.162	7.38
826.904	4.38
827.646	7.38
828.388	4.38
829.129	5.38
829.871	6.38
830.612	4.38
831.354	4.38
832.095	4.38
832.836	3.38
833.577	7.38
834.319	5.38
835.06	3.38
835.801	5.38
836.542	6.38
837.282	4.38
838.023	3.38
838.764	2.38
839.504	5.38
840.245	4.38
840.985	4.38
841.726	4.38
842.466	4.38
843.206	6.38
843.946	6.38
844.687	3.38
845.427	4.38
846.166	2.38
846.906	5.38
847.646	2.38
848.386	6.38
849.125	6.38
849.865	4.38
850.605	4.38
851.344	3.38
852.083	4.38
852.823	3.38
853.562	3.38
854.301	3.38
855.04	4.38
855.779	4.38
856.518	3.38
857.257	5.38
857.995	2.38
858.734	3.38
859.473	3.38
860.211	3.38
860.95	1.38
861.688	4.38
862.426	3.38
863.165	3.38
863.903	2.38
864.641	3.38
865.379	2.38
866.117	4.38
866.855	2.38
867.593	2.38
868.33	2.38
869.068	2.38
869.806	3.38
870.543	1.38
871.28	3.38
872.018	4.38
872.755	2.38
873.492	0.38
874.229	2.38
874.967	3.38
875.703	3.38
876.44	3.38
877.177	1.38
877.914	2.38
878.651	1.38
879.387	0.38
880.124	2.38
880.86	1.38
881.597	0.38
882.333	2.38
883.069	2.38
883.806	2.38
884.542	2.38
885.278	4.38
886.014	2.38
886.749	-0.62
887.485	0.38
888.221	1.38
888.957	1.38
889.692	2.38
890.428	2.38
891.163	3.38
891.899	2.38
892.634	4.38
893.369	3.38
894.104	2.38
894.839	2.38
895.574	1.38
896.309	2.38
897.044	2.38
897.779	1.38
898.514	2.38
899.248	3.38
899.983	2.38
900.717	0.38
901.452	2.38
902.186	0.38
902.92	1.38
903.654	1.38
904.389	0.38
905.123	3.38
905.857	1.38
906.59	3.38
907.324	0.38
908.058	2.38
908.792	3.38
909.525	2.38
910.259	1.38
910.992	0.38
911.726	0.38
912.459	3.38
913.192	1.38
913.925	3.38
914.658	1.38
915.391	2.38
916.124	1.38
916.857	1.38
917.59	2.38
918.323	1.38
919.055	3.38
919.788	0.38
920.521	2.38
921.253	3.38
921.985	1.38
922.718	0.38
923.45	1.38
924.182	1.38
924.914	1.38
925.646	4.38
926.378	0.38
927.11	0.38
927.841	0.38
928.573	2.38
929.305	-0.62
930.036	-0.62
930.768	0.38
931.499	1.38
932.23	0.38
932.962	2.38
933.693	2.38
934.424	2.38
935.155	0.38
935.886	1.38
936.617	1.38
937.348	-0.62
938.078	2.38
938.809	1.38
939.54	0.38
940.27	0.38
941.001	1.38
941.731	0.38
942.461	-0.62
943.191	-0.62
943.922	0.38
944.652	1.38
945.382	2.38
946.112	2.38
946.841	3.38
947.571	1.38
948.301	-0.62
949.031	3.38
949.76	0.38
950.49	2.38
951.219	0.38
951.948	2.38
952.678	2.38
953.407	1.38
954.136	2.38
954.865	1.38
955.594	1.38
956.323	1.38
957.052	1.38
957.78	2.38
958.509	0.38
959.238	3.38
959.966	1.38
960.695	2.38
961.423	0.38
962.151	1.38
962.88	0.38
963.608	2.38
964.336	0.38
965.064	3.38
965.792	1.38
966.52	2.38
967.247	1.38
967.975	2.38
968.703	1.38
969.43	1.38
970.158	-0.62
970.885	2.38
971.613	0.38
972.34	3.38
973.067	4.38
973.794	-0.62
974.521	2.38
975.248	0.38
975.975	1.38
976.702	0.38
977.429	3.38
978.156	3.38
978.882	0.38
979.609	2.38
980.335	2.38
981.062	-0.62
981.788	2.38
982.514	0.38
983.24	0.38
983.967	1.38
984.693	1.38
985.419	3.38
986.144	1.38
986.87	1.38
987.596	0.38
988.322	2.38
989.047	0.38
989.773	2.38
990.498	4.38
991.224	2.38
991.949	2.38
992.674	0.38
993.399	2.38
994.124	2.38
994.849	1.38
995.574	0.38
996.299	-0.62
997.024	0.38
997.749	-1.62
998.473	1.38
999.198	1.38
999.922	2.38
1000.647	2.38
1001.371	4.38
1002.095	-1.62
1002.82	-0.62
1003.544	-2.62
1004.268	1.38
1004.992	2.38
1005.716	1.38
1006.439	2.38
1007.163	0.38
1007.887	2.38
1008.611	1.38
1009.334	1.38
1010.058	1.38
1010.781	0.38
1011.504	2.38
1012.228	2.38
1012.951	-1.62
1013.674	1.38
1014.397	-0.62
1015.12	1.38
