节点500_285_QEPB04081__356__15-01-28-687.txt的数据

Date: Wed Nov 12 15:01:28 CST 2025
User: PC
Spectrometer: QEPB0408
触发模式: 0
积分时间 (秒): 1.000000E-2
Scans to average: 1
启用暗噪声校正: true
启用非线性校正: false
滑动平均宽度: 0
X轴模式: Wavelengths
Number of Pixels in Spectrum: 1044
>>>>>Begin Spectral Data<<<<<
220.843	4.88
221.644	0.88
222.444	1.88
223.244	0.88
224.045	2.88
224.845	2.88
225.645	3.88
226.445	2.88
227.245	2.88
228.045	2.88
228.845	4.88
229.645	1.88
230.444	2.88
231.244	3.88
232.043	2.88
232.843	2.88
233.642	3.88
234.442	-0.12
235.241	3.88
236.04	2.88
236.839	3.88
237.638	4.88
238.437	1.88
239.236	3.88
240.035	5.88
240.833	5.88
241.632	6.88
242.43	2.88
243.229	4.88
244.027	4.88
244.826	6.88
245.624	5.88
246.422	4.88
247.22	4.88
248.018	4.88
248.816	5.88
249.614	6.88
250.412	4.88
251.21	7.88
252.007	6.88
252.805	5.88
253.602	5.88
254.4	7.88
255.197	6.88
255.994	6.88
256.791	9.88
257.589	9.88
258.386	9.88
259.183	10.88
259.979	10.88
260.776	10.88
261.573	12.88
262.37	10.88
263.166	10.88
263.963	11.88
264.759	11.88
265.556	12.88
266.352	12.88
267.148	12.88
267.944	11.88
268.74	12.88
269.536	13.88
270.332	14.88
271.128	13.88
271.924	16.88
272.719	15.88
273.515	15.88
274.311	17.88
275.106	18.88
275.901	16.88
276.697	14.88
277.492	17.88
278.287	17.88
279.082	15.88
279.877	17.88
280.672	20.88
281.467	20.88
282.262	17.88
283.056	18.88
283.851	18.88
284.646	20.88
285.44	17.88
286.234	17.88
287.029	20.88
287.823	16.88
288.617	22.88
289.411	16.88
290.205	17.88
290.999	17.88
291.793	18.88
292.587	17.88
293.381	16.88
294.174	19.88
294.968	15.88
295.761	15.88
296.555	17.88
297.348	13.88
298.141	14.88
298.935	15.88
299.728	13.88
300.521	12.88
301.314	14.88
302.107	13.88
302.899	12.88
303.692	13.88
304.485	12.88
305.277	12.88
306.07	12.88
306.862	11.88
307.655	11.88
308.447	11.88
309.239	10.88
310.031	13.88
310.823	10.88
311.615	9.88
312.407	9.88
313.199	13.88
313.991	8.88
314.783	8.88
315.574	9.88
316.366	7.88
317.157	9.88
317.949	7.88
318.74	10.88
319.531	7.88
320.322	8.88
321.113	4.88
321.904	7.88
322.695	7.88
323.486	8.88
324.277	8.88
325.068	7.88
325.858	7.88
326.649	7.88
327.439	5.88
328.23	4.88
329.02	7.88
329.81	5.88
330.6	7.88
331.391	5.88
332.181	7.88
332.971	6.88
333.76	7.88
334.55	6.88
335.34	7.88
336.13	4.88
336.919	5.88
337.709	5.88
338.498	7.88
339.287	6.88
340.077	5.88
340.866	5.88
341.655	7.88
342.444	5.88
343.233	6.88
344.022	4.88
344.811	5.88
345.6	7.88
346.388	4.88
347.177	6.88
347.965	5.88
348.754	3.88
349.542	5.88
350.33	4.88
351.119	6.88
351.907	4.88
352.695	6.88
353.483	6.88
354.271	4.88
355.059	6.88
355.846	8.88
356.634	3.88
357.422	5.88
358.209	4.88
358.997	4.88
359.784	3.88
360.571	3.88
361.359	6.88
362.146	2.88
362.933	5.88
363.72	6.88
364.507	5.88
365.294	2.88
366.081	6.88
366.867	4.88
367.654	3.88
368.44	3.88
369.227	4.88
370.013	6.88
370.8	3.88
371.586	6.88
372.372	4.88
373.158	5.88
373.944	5.88
374.73	4.88
375.516	3.88
376.302	4.88
377.088	5.88
377.873	3.88
378.659	6.88
379.445	8.88
380.23	2.88
381.015	5.88
381.801	4.88
382.586	4.88
383.371	6.88
384.156	3.88
384.941	4.88
385.726	4.88
386.511	5.88
387.296	5.88
388.08	8.88
388.865	6.88
389.649	4.88
390.434	5.88
391.218	5.88
392.003	6.88
392.787	4.88
393.571	6.88
394.355	7.88
395.139	5.88
395.923	6.88
396.707	8.88
397.491	4.88
398.274	9.88
399.058	7.88
399.842	6.88
400.625	6.88
401.408	7.88
402.192	4.88
402.975	6.88
403.758	5.88
404.541	8.88
405.324	8.88
406.107	7.88
406.89	7.88
407.673	7.88
408.456	8.88
409.238	9.88
410.021	8.88
410.803	7.88
411.586	8.88
412.368	7.88
413.151	9.88
413.933	7.88
414.715	6.88
415.497	8.88
416.279	9.88
417.061	8.88
417.843	10.88
418.624	9.88
419.406	9.88
420.188	9.88
420.969	9.88
421.751	12.88
422.532	8.88
423.313	12.88
424.095	11.88
424.876	10.88
425.657	10.88
426.438	11.88
427.219	12.88
428	14.88
428.78	12.88
429.561	12.88
430.342	13.88
431.122	13.88
431.903	13.88
432.683	16.88
433.464	14.88
434.244	17.88
435.024	15.88
435.804	17.88
436.584	19.88
437.364	19.88
438.144	18.88
438.924	18.88
439.704	22.88
440.483	19.88
441.263	20.88
442.042	25.88
442.822	26.88
443.601	27.88
444.38	30.88
445.16	29.88
445.939	34.88
446.718	36.88
447.497	39.88
448.276	42.88
449.054	47.88
449.833	51.88
450.612	50.88
451.391	57.88
452.169	59.88
452.948	66.88
453.726	73.88
454.504	80.88
455.282	88.88
456.061	100.88
456.839	108.88
457.617	118.88
458.395	127.88
459.172	152.88
459.95	160.88
460.728	191.88
461.506	207.88
462.283	231.88
463.061	258.88
463.838	289.88
464.615	319.88
465.393	358.88
466.17	396.88
466.947	441.88
467.724	497.88
468.501	562.88
469.278	612.88
470.055	681.88
470.831	765.88
471.608	848.88
472.385	944.88
473.161	1049.88
473.938	1172.88
474.714	1277.88
475.49	1432.88
476.266	1577.88
477.043	1755.88
477.819	1941.88
478.595	2114.88
479.371	2338.88
480.146	2598.88
480.922	2872.88
481.698	3177.88
482.473	3446.88
483.249	3804.88
484.024	4208.88
484.8	4603.88
485.575	5083.88
486.35	5583.88
487.126	6116.88
487.901	6700.88
488.676	7339.88
489.451	8040.88
490.225	8796.88
491	9591.88
491.775	10504.88
492.55	11414.88
493.324	12405.88
494.099	13322.88
494.873	14448.88
495.647	15518.88
496.422	16665.88
497.196	17856.88
497.97	19037.88
498.744	20221.88
499.518	21365.88
500.292	22555.88
501.066	23611.88
501.839	24536.88
502.613	25488.88
503.387	26270.88
504.16	26959.88
504.934	27234.88
505.707	27350.88
506.48	27420.88
507.253	27365.88
508.027	27093.88
508.8	26815.88
509.573	26390.88
510.346	25852.88
511.118	25052.88
511.891	24200.88
512.664	23384.88
513.437	22468.88
514.209	21535.88
514.982	20738.88
515.754	19752.88
516.526	18909.88
517.298	18056.88
518.071	17228.88
518.843	16617.88
519.615	15996.88
520.387	15412.88
521.159	14757.88
521.93	14176.88
522.702	13587.88
523.474	13041.88
524.245	12496.88
525.017	11943.88
525.788	11486.88
526.56	10942.88
527.331	10445.88
528.102	9975.88
528.873	9540.88
529.644	9029.88
530.415	8603.88
531.186	8171.88
531.957	7755.88
532.728	7362.88
533.498	6975.88
534.269	6578.88
535.039	6263.88
535.81	5871.88
536.58	5557.88
537.351	5221.88
538.121	4945.88
538.891	4683.88
539.661	4446.88
540.431	4157.88
541.201	3899.88
541.971	3729.88
542.741	3541.88
543.51	3363.88
544.28	3188.88
545.05	3038.88
545.819	2906.88
546.588	2755.88
547.358	2639.88
548.127	2481.88
548.896	2344.88
549.665	2226.88
550.434	2106.88
551.203	2000.88
551.972	1909.88
552.741	1791.88
553.51	1716.88
554.278	1580.88
555.047	1501.88
555.815	1434.88
556.584	1361.88
557.352	1276.88
558.121	1198.88
558.889	1138.88
559.657	1063.88
560.425	1012.88
561.193	958.88
561.961	897.88
562.729	855.88
563.496	796.88
564.264	766.88
565.032	723.88
565.799	685.88
566.567	653.88
567.334	606.88
568.101	576.88
568.869	537.88
569.636	502.88
570.403	482.88
571.17	455.88
571.937	431.88
572.704	400.88
573.471	379.88
574.237	357.88
575.004	339.88
575.771	320.88
576.537	297.88
577.303	280.88
578.07	261.88
578.836	248.88
579.602	232.88
580.368	224.88
581.134	213.88
581.9	204.88
582.666	190.88
583.432	177.88
584.198	168.88
584.964	162.88
585.729	154.88
586.495	146.88
587.26	144.88
588.025	134.88
588.791	123.88
589.556	116.88
590.321	108.88
591.086	106.88
591.851	99.88
592.616	95.88
593.381	93.88
594.146	85.88
594.911	82.88
595.675	79.88
596.44	75.88
597.204	70.88
597.969	70.88
598.733	65.88
599.497	65.88
600.261	56.88
601.025	58.88
601.79	54.88
602.553	51.88
603.317	47.88
604.081	48.88
604.845	46.88
605.609	43.88
606.372	39.88
607.136	38.88
607.899	39.88
608.662	38.88
609.426	35.88
610.189	31.88
610.952	33.88
611.715	30.88
612.478	28.88
613.241	29.88
614.004	27.88
614.767	28.88
615.529	24.88
616.292	24.88
617.055	24.88
617.817	23.88
618.579	24.88
619.342	20.88
620.104	20.88
620.866	20.88
621.628	21.88
622.39	20.88
623.152	19.88
623.914	18.88
624.676	19.88
625.438	17.88
626.199	15.88
626.961	14.88
627.722	16.88
628.484	16.88
629.245	14.88
630.006	14.88
630.768	11.88
631.529	15.88
632.29	11.88
633.051	15.88
633.812	13.88
634.573	13.88
635.333	13.88
636.094	9.88
636.855	8.88
637.615	9.88
638.376	9.88
639.136	10.88
639.896	8.88
640.657	8.88
641.417	8.88
642.177	8.88
642.937	9.88
643.697	6.88
644.457	9.88
645.216	8.88
645.976	7.88
646.736	8.88
647.495	7.88
648.255	9.88
649.014	6.88
649.774	6.88
650.533	5.88
651.292	8.88
652.051	6.88
652.81	5.88
653.569	8.88
654.328	5.88
655.087	5.88
655.846	4.88
656.604	5.88
657.363	3.88
658.121	6.88
658.88	7.88
659.638	5.88
660.397	5.88
661.155	6.88
661.913	3.88
662.671	5.88
663.429	4.88
664.187	4.88
664.945	6.88
665.703	5.88
666.46	5.88
667.218	5.88
667.976	6.88
668.733	3.88
669.49	5.88
670.248	4.88
671.005	6.88
671.762	3.88
672.519	6.88
673.276	3.88
674.033	6.88
674.79	5.88
675.547	1.88
676.304	3.88
677.06	3.88
677.817	4.88
678.574	4.88
679.33	4.88
680.086	5.88
680.843	3.88
681.599	1.88
682.355	3.88
683.111	4.88
683.867	4.88
684.623	6.88
685.379	3.88
686.135	1.88
686.89	4.88
687.646	7.88
688.402	3.88
689.157	4.88
689.912	1.88
690.668	4.88
691.423	1.88
692.178	4.88
692.933	3.88
693.688	3.88
694.443	1.88
695.198	3.88
695.953	2.88
696.708	4.88
697.462	2.88
698.217	4.88
698.972	2.88
699.726	5.88
700.48	3.88
701.235	3.88
701.989	3.88
702.743	4.88
703.497	5.88
704.251	4.88
705.005	4.88
705.759	4.88
706.513	2.88
707.266	5.88
708.02	1.88
708.774	3.88
709.527	3.88
710.28	3.88
711.034	3.88
711.787	2.88
712.54	1.88
713.293	4.88
714.046	2.88
714.799	3.88
715.552	3.88
716.305	1.88
717.058	5.88
717.81	3.88
718.563	2.88
719.315	4.88
720.068	3.88
720.82	3.88
721.573	1.88
722.325	4.88
723.077	3.88
723.829	4.88
724.581	4.88
725.333	4.88
726.085	3.88
726.836	3.88
727.588	5.88
728.34	5.88
729.091	6.88
729.843	3.88
730.594	3.88
731.346	2.88
732.097	5.88
732.848	4.88
733.599	2.88
734.35	6.88
735.101	4.88
735.852	3.88
736.603	3.88
737.354	5.88
738.104	4.88
738.855	5.88
739.605	4.88
740.356	3.88
741.106	6.88
741.856	4.88
742.607	3.88
743.357	6.88
744.107	5.88
744.857	4.88
745.607	4.88
746.357	4.88
747.106	5.88
747.856	4.88
748.606	4.88
749.355	3.88
750.105	5.88
750.854	4.88
751.603	5.88
752.353	6.88
753.102	2.88
753.851	6.88
754.6	8.88
755.349	3.88
756.098	3.88
756.847	5.88
757.595	4.88
758.344	5.88
759.093	7.88
759.841	7.88
760.589	6.88
761.338	7.88
762.086	6.88
762.834	5.88
763.582	7.88
764.331	5.88
765.079	6.88
765.826	6.88
766.574	4.88
767.322	8.88
768.07	4.88
768.817	7.88
769.565	7.88
770.312	6.88
771.06	7.88
771.807	7.88
772.554	5.88
773.302	7.88
774.049	6.88
774.796	8.88
775.543	9.88
776.29	8.88
777.036	9.88
777.783	8.88
778.53	10.88
779.276	6.88
780.023	10.88
780.769	10.88
781.516	6.88
782.262	9.88
783.008	8.88
783.754	7.88
784.5	9.88
785.246	9.88
785.992	10.88
786.738	9.88
787.484	10.88
788.23	8.88
788.975	10.88
789.721	7.88
790.466	7.88
791.212	8.88
791.957	7.88
792.702	10.88
793.447	8.88
794.193	9.88
794.938	8.88
795.683	8.88
796.427	9.88
797.172	6.88
797.917	9.88
798.662	7.88
799.406	6.88
800.151	7.88
800.895	6.88
801.64	6.88
802.384	6.88
803.128	7.88
803.872	7.88
804.616	7.88
805.36	8.88
806.104	5.88
806.848	7.88
807.592	4.88
808.336	4.88
809.079	4.88
809.823	3.88
810.566	7.88
811.31	2.88
812.053	5.88
812.796	3.88
813.539	3.88
814.283	5.88
815.026	5.88
815.769	4.88
816.511	3.88
817.254	6.88
817.997	4.88
818.74	5.88
819.482	4.88
820.225	4.88
820.967	4.88
821.71	5.88
822.452	3.88
823.194	2.88
823.936	4.88
824.678	5.88
825.42	2.88
826.162	5.88
826.904	4.88
827.646	4.88
828.388	4.88
829.129	2.88
829.871	3.88
830.612	4.88
831.354	2.88
832.095	4.88
832.836	1.88
833.577	3.88
834.319	3.88
835.06	3.88
835.801	4.88
836.542	3.88
837.282	4.88
838.023	2.88
838.764	2.88
839.504	1.88
840.245	1.88
840.985	4.88
841.726	2.88
842.466	5.88
843.206	3.88
843.946	2.88
844.687	1.88
845.427	6.88
846.166	2.88
846.906	4.88
847.646	4.88
848.386	3.88
849.125	2.88
849.865	1.88
850.605	4.88
851.344	1.88
852.083	3.88
852.823	4.88
853.562	0.88
854.301	-0.12
855.04	3.88
855.779	1.88
856.518	2.88
857.257	1.88
857.995	4.88
858.734	1.88
859.473	1.88
860.211	1.88
860.95	3.88
861.688	2.88
862.426	1.88
863.165	0.88
863.903	1.88
864.641	4.88
865.379	1.88
866.117	0.88
866.855	0.88
867.593	2.88
868.33	1.88
869.068	-1.12
869.806	2.88
870.543	1.88
871.28	-0.12
872.018	1.88
872.755	1.88
873.492	2.88
874.229	1.88
874.967	0.88
875.703	0.88
876.44	2.88
877.177	3.88
877.914	-2.12
878.651	2.88
879.387	-0.12
880.124	1.88
880.86	1.88
881.597	1.88
882.333	0.88
883.069	3.88
883.806	-2.12
884.542	0.88
885.278	-0.12
886.014	0.88
886.749	1.88
887.485	0.88
888.221	1.88
888.957	0.88
889.692	2.88
890.428	-0.12
891.163	2.88
891.899	1.88
892.634	-0.12
893.369	-0.12
894.104	-2.12
894.839	1.88
895.574	-0.12
896.309	-0.12
897.044	0.88
897.779	0.88
898.514	1.88
899.248	1.88
899.983	1.88
900.717	1.88
901.452	0.88
902.186	-0.12
902.92	-0.12
903.654	1.88
904.389	-1.12
905.123	1.88
905.857	-1.12
906.59	-0.12
907.324	-0.12
908.058	0.88
908.792	1.88
909.525	-0.12
910.259	-1.12
910.992	1.88
911.726	1.88
912.459	-1.12
913.192	-0.12
913.925	2.88
914.658	-0.12
915.391	1.88
916.124	-0.12
916.857	0.88
917.59	0.88
918.323	-1.12
919.055	-1.12
919.788	0.88
920.521	1.88
921.253	-0.12
921.985	-0.12
922.718	0.88
923.45	0.88
924.182	0.88
924.914	0.88
925.646	-1.12
926.378	0.88
927.11	-1.12
927.841	-0.12
928.573	0.88
929.305	1.88
930.036	1.88
930.768	1.88
931.499	2.88
932.23	0.88
932.962	1.88
933.693	-0.12
934.424	0.88
935.155	-1.12
935.886	-0.12
936.617	0.88
937.348	-0.12
938.078	0.88
938.809	0.88
939.54	-1.12
940.27	-0.12
941.001	-2.12
941.731	-2.12
942.461	-0.12
943.191	1.88
943.922	-1.12
944.652	-0.12
945.382	-0.12
946.112	-1.12
946.841	-0.12
947.571	0.88
948.301	0.88
949.031	0.88
949.76	-0.12
950.49	-0.12
951.219	0.88
951.948	-1.12
952.678	-1.12
953.407	-0.12
954.136	-1.12
954.865	-2.12
955.594	-1.12
956.323	2.88
957.052	0.88
957.78	1.88
958.509	-0.12
959.238	-1.12
959.966	-0.12
960.695	-1.12
961.423	0.88
962.151	1.88
962.88	0.88
963.608	0.88
964.336	1.88
965.064	1.88
965.792	0.88
966.52	-0.12
967.247	1.88
967.975	0.88
968.703	-1.12
969.43	1.88
970.158	-0.12
970.885	0.88
971.613	0.88
972.34	-2.12
973.067	-0.12
973.794	-1.12
974.521	-1.12
975.248	-2.12
975.975	0.88
976.702	-1.12
977.429	1.88
978.156	-2.12
978.882	1.88
979.609	1.88
980.335	-0.12
981.062	0.88
981.788	1.88
982.514	-2.12
983.24	0.88
983.967	-0.12
984.693	-0.12
985.419	1.88
986.144	1.88
986.87	-0.12
987.596	-2.12
988.322	0.88
989.047	0.88
989.773	-1.12
990.498	2.88
991.224	-2.12
991.949	0.88
992.674	-0.12
993.399	-0.12
994.124	-0.12
994.849	0.88
995.574	0.88
996.299	-2.12
997.024	0.88
997.749	-0.12
998.473	-0.12
999.198	1.88
999.922	-1.12
1000.647	-1.12
1001.371	3.88
1002.095	-2.12
1002.82	-0.12
1003.544	-3.12
1004.268	1.88
1004.992	0.88
1005.716	1.88
1006.439	1.88
1007.163	3.88
1007.887	2.88
1008.611	0.88
1009.334	1.88
1010.058	0.88
1010.781	-0.12
1011.504	-0.12
1012.228	-2.12
1012.951	0.88
1013.674	-0.12
1014.397	0.88
1015.12	-0.12
