节点500_285_QEPB04081__677__15-06-48-954.txt的数据

Date: Wed Nov 12 15:06:48 CST 2025
User: PC
Spectrometer: QEPB0408
触发模式: 0
积分时间 (秒): 1.000000E-2
Scans to average: 1
启用暗噪声校正: true
启用非线性校正: false
滑动平均宽度: 0
X轴模式: Wavelengths
Number of Pixels in Spectrum: 1044
>>>>>Begin Spectral Data<<<<<
220.843	1.88
221.644	1.88
222.444	0.88
223.244	1.88
224.045	1.88
224.845	-0.12
225.645	1.88
226.445	-0.12
227.245	1.88
228.045	0.88
228.845	1.88
229.645	3.88
230.444	2.88
231.244	4.88
232.043	0.88
232.843	2.88
233.642	2.88
234.442	6.88
235.241	3.88
236.04	3.88
236.839	4.88
237.638	4.88
238.437	4.88
239.236	3.88
240.035	4.88
240.833	2.88
241.632	6.88
242.43	1.88
243.229	4.88
244.027	4.88
244.826	4.88
245.624	5.88
246.422	4.88
247.22	4.88
248.018	5.88
248.816	4.88
249.614	6.88
250.412	4.88
251.21	4.88
252.007	5.88
252.805	5.88
253.602	4.88
254.4	7.88
255.197	8.88
255.994	6.88
256.791	6.88
257.589	9.88
258.386	7.88
259.183	7.88
259.979	8.88
260.776	9.88
261.573	7.88
262.37	7.88
263.166	8.88
263.963	6.88
264.759	9.88
265.556	7.88
266.352	10.88
267.148	11.88
267.944	11.88
268.74	11.88
269.536	11.88
270.332	13.88
271.128	10.88
271.924	14.88
272.719	14.88
273.515	15.88
274.311	12.88
275.106	14.88
275.901	15.88
276.697	13.88
277.492	14.88
278.287	17.88
279.082	16.88
279.877	18.88
280.672	17.88
281.467	16.88
282.262	13.88
283.056	16.88
283.851	19.88
284.646	17.88
285.44	17.88
286.234	17.88
287.029	16.88
287.823	19.88
288.617	17.88
289.411	18.88
290.205	14.88
290.999	14.88
291.793	13.88
292.587	16.88
293.381	17.88
294.174	16.88
294.968	17.88
295.761	13.88
296.555	16.88
297.348	15.88
298.141	12.88
298.935	13.88
299.728	12.88
300.521	13.88
301.314	13.88
302.107	14.88
302.899	11.88
303.692	12.88
304.485	13.88
305.277	13.88
306.07	11.88
306.862	12.88
307.655	11.88
308.447	9.88
309.239	11.88
310.031	12.88
310.823	11.88
311.615	9.88
312.407	9.88
313.199	9.88
313.991	11.88
314.783	9.88
315.574	11.88
316.366	7.88
317.157	9.88
317.949	7.88
318.74	8.88
319.531	8.88
320.322	6.88
321.113	7.88
321.904	6.88
322.695	6.88
323.486	8.88
324.277	5.88
325.068	4.88
325.858	7.88
326.649	8.88
327.439	7.88
328.23	4.88
329.02	7.88
329.81	8.88
330.6	5.88
331.391	6.88
332.181	7.88
332.971	6.88
333.76	6.88
334.55	8.88
335.34	5.88
336.13	5.88
336.919	6.88
337.709	4.88
338.498	5.88
339.287	2.88
340.077	5.88
340.866	6.88
341.655	7.88
342.444	6.88
343.233	6.88
344.022	6.88
344.811	3.88
345.6	3.88
346.388	6.88
347.177	6.88
347.965	5.88
348.754	6.88
349.542	4.88
350.33	4.88
351.119	6.88
351.907	5.88
352.695	4.88
353.483	3.88
354.271	6.88
355.059	3.88
355.846	5.88
356.634	6.88
357.422	5.88
358.209	4.88
358.997	4.88
359.784	4.88
360.571	5.88
361.359	3.88
362.146	5.88
362.933	5.88
363.72	4.88
364.507	5.88
365.294	4.88
366.081	6.88
366.867	3.88
367.654	3.88
368.44	4.88
369.227	3.88
370.013	5.88
370.8	4.88
371.586	7.88
372.372	3.88
373.158	5.88
373.944	2.88
374.73	3.88
375.516	4.88
376.302	3.88
377.088	4.88
377.873	6.88
378.659	3.88
379.445	6.88
380.23	2.88
381.015	4.88
381.801	6.88
382.586	4.88
383.371	2.88
384.156	3.88
384.941	4.88
385.726	4.88
386.511	7.88
387.296	6.88
388.08	6.88
388.865	4.88
389.649	5.88
390.434	7.88
391.218	5.88
392.003	4.88
392.787	5.88
393.571	4.88
394.355	4.88
395.139	5.88
395.923	6.88
396.707	5.88
397.491	7.88
398.274	6.88
399.058	5.88
399.842	5.88
400.625	5.88
401.408	7.88
402.192	4.88
402.975	9.88
403.758	5.88
404.541	7.88
405.324	8.88
406.107	5.88
406.89	8.88
407.673	6.88
408.456	7.88
409.238	8.88
410.021	8.88
410.803	7.88
411.586	6.88
412.368	7.88
413.151	7.88
413.933	6.88
414.715	9.88
415.497	6.88
416.279	8.88
417.061	6.88
417.843	9.88
418.624	8.88
419.406	9.88
420.188	8.88
420.969	9.88
421.751	8.88
422.532	9.88
423.313	8.88
424.095	9.88
424.876	9.88
425.657	11.88
426.438	9.88
427.219	13.88
428	9.88
428.78	11.88
429.561	12.88
430.342	11.88
431.122	14.88
431.903	14.88
432.683	16.88
433.464	13.88
434.244	13.88
435.024	16.88
435.804	15.88
436.584	17.88
437.364	19.88
438.144	18.88
438.924	21.88
439.704	23.88
440.483	23.88
441.263	23.88
442.042	27.88
442.822	28.88
443.601	30.88
444.38	33.88
445.16	31.88
445.939	35.88
446.718	35.88
447.497	41.88
448.276	41.88
449.054	47.88
449.833	53.88
450.612	54.88
451.391	61.88
452.169	68.88
452.948	74.88
453.726	81.88
454.504	88.88
455.282	104.88
456.061	108.88
456.839	120.88
457.617	134.88
458.395	147.88
459.172	162.88
459.95	183.88
460.728	205.88
461.506	224.88
462.283	249.88
463.061	287.88
463.838	315.88
464.615	351.88
465.393	383.88
466.17	435.88
466.947	477.88
467.724	539.88
468.501	592.88
469.278	656.88
470.055	736.88
470.831	809.88
471.608	903.88
472.385	994.88
473.161	1093.88
473.938	1201.88
474.714	1326.88
475.49	1450.88
476.266	1606.88
477.043	1777.88
477.819	1927.88
478.595	2123.88
479.371	2328.88
480.146	2554.88
480.922	2801.88
481.698	3089.88
482.473	3361.88
483.249	3698.88
484.024	4025.88
484.8	4419.88
485.575	4834.88
486.35	5265.88
487.126	5722.88
487.901	6246.88
488.676	6809.88
489.451	7421.88
490.225	8091.88
491	8783.88
491.775	9546.88
492.55	10371.88
493.324	11175.88
494.099	12031.88
494.873	12901.88
495.647	13893.88
496.422	14859.88
497.196	16010.88
497.97	17071.88
498.744	18136.88
499.518	19210.88
500.292	20219.88
501.066	21213.88
501.839	22162.88
502.613	23124.88
503.387	23886.88
504.16	24555.88
504.934	25104.88
505.707	25447.88
506.48	25626.88
507.253	25734.88
508.027	25726.88
508.8	25619.88
509.573	25403.88
510.346	24944.88
511.118	24365.88
511.891	23792.88
512.664	23121.88
513.437	22361.88
514.209	21485.88
514.982	20771.88
515.754	19925.88
516.526	19091.88
517.298	18317.88
518.071	17561.88
518.843	16946.88
519.615	16209.88
520.387	15618.88
521.159	15042.88
521.93	14403.88
522.702	13831.88
523.474	13224.88
524.245	12687.88
525.017	12153.88
525.788	11725.88
526.56	11172.88
527.331	10700.88
528.102	10196.88
528.873	9752.88
529.644	9312.88
530.415	8896.88
531.186	8463.88
531.957	8037.88
532.728	7699.88
533.498	7289.88
534.269	6888.88
535.039	6515.88
535.81	6188.88
536.58	5819.88
537.351	5481.88
538.121	5181.88
538.891	4909.88
539.661	4702.88
540.431	4407.88
541.201	4148.88
541.971	3949.88
542.741	3730.88
543.51	3552.88
544.28	3368.88
545.05	3192.88
545.819	3050.88
546.588	2916.88
547.358	2746.88
548.127	2627.88
548.896	2489.88
549.665	2378.88
550.434	2237.88
551.203	2114.88
551.972	2012.88
552.741	1907.88
553.51	1798.88
554.278	1700.88
555.047	1611.88
555.815	1523.88
556.584	1449.88
557.352	1364.88
558.121	1299.88
558.889	1215.88
559.657	1156.88
560.425	1081.88
561.193	1022.88
561.961	962.88
562.729	902.88
563.496	859.88
564.264	821.88
565.032	777.88
565.799	736.88
566.567	689.88
567.334	647.88
568.101	607.88
568.869	579.88
569.636	548.88
570.403	524.88
571.17	480.88
571.937	458.88
572.704	440.88
573.471	402.88
574.237	391.88
575.004	362.88
575.771	345.88
576.537	323.88
577.303	308.88
578.07	292.88
578.836	269.88
579.602	250.88
580.368	236.88
581.134	231.88
581.9	219.88
582.666	209.88
583.432	197.88
584.198	187.88
584.964	178.88
585.729	166.88
586.495	153.88
587.26	147.88
588.025	134.88
588.791	135.88
589.556	122.88
590.321	115.88
591.086	111.88
591.851	106.88
592.616	100.88
593.381	96.88
594.146	92.88
594.911	86.88
595.675	84.88
596.44	77.88
597.204	72.88
597.969	72.88
598.733	72.88
599.497	63.88
600.261	65.88
601.025	58.88
601.79	57.88
602.553	52.88
603.317	53.88
604.081	47.88
604.845	46.88
605.609	41.88
606.372	45.88
607.136	41.88
607.899	40.88
608.662	43.88
609.426	37.88
610.189	32.88
610.952	34.88
611.715	33.88
612.478	31.88
613.241	30.88
614.004	29.88
614.767	25.88
615.529	27.88
616.292	25.88
617.055	25.88
617.817	25.88
618.579	21.88
619.342	21.88
620.104	20.88
620.866	21.88
621.628	21.88
622.39	20.88
623.152	17.88
623.914	19.88
624.676	21.88
625.438	16.88
626.199	15.88
626.961	15.88
627.722	16.88
628.484	15.88
629.245	13.88
630.006	15.88
630.768	13.88
631.529	13.88
632.29	13.88
633.051	11.88
633.812	13.88
634.573	10.88
635.333	13.88
636.094	11.88
636.855	12.88
637.615	11.88
638.376	7.88
639.136	9.88
639.896	11.88
640.657	8.88
641.417	10.88
642.177	7.88
642.937	9.88
643.697	8.88
644.457	7.88
645.216	7.88
645.976	6.88
646.736	7.88
647.495	6.88
648.255	8.88
649.014	7.88
649.774	7.88
650.533	9.88
651.292	6.88
652.051	8.88
652.81	4.88
653.569	6.88
654.328	7.88
655.087	8.88
655.846	6.88
656.604	5.88
657.363	4.88
658.121	3.88
658.88	5.88
659.638	3.88
660.397	4.88
661.155	5.88
661.913	4.88
662.671	4.88
663.429	6.88
664.187	3.88
664.945	3.88
665.703	5.88
666.46	3.88
667.218	3.88
667.976	4.88
668.733	3.88
669.49	4.88
670.248	5.88
671.005	4.88
671.762	3.88
672.519	5.88
673.276	3.88
674.033	3.88
674.79	1.88
675.547	2.88
676.304	2.88
677.06	4.88
677.817	3.88
678.574	4.88
679.33	3.88
680.086	2.88
680.843	5.88
681.599	6.88
682.355	3.88
683.111	3.88
683.867	3.88
684.623	3.88
685.379	3.88
686.135	5.88
686.89	4.88
687.646	5.88
688.402	4.88
689.157	2.88
689.912	1.88
690.668	4.88
691.423	2.88
692.178	3.88
692.933	3.88
693.688	3.88
694.443	0.88
695.198	4.88
695.953	1.88
696.708	6.88
697.462	2.88
698.217	-0.12
698.972	3.88
699.726	3.88
700.48	4.88
701.235	2.88
701.989	4.88
702.743	2.88
703.497	1.88
704.251	4.88
705.005	3.88
705.759	2.88
706.513	2.88
707.266	4.88
708.02	1.88
708.774	2.88
709.527	4.88
710.28	3.88
711.034	3.88
711.787	2.88
712.54	0.88
713.293	3.88
714.046	4.88
714.799	5.88
715.552	1.88
716.305	2.88
717.058	1.88
717.81	1.88
718.563	3.88
719.315	1.88
720.068	5.88
720.82	2.88
721.573	2.88
722.325	3.88
723.077	3.88
723.829	6.88
724.581	3.88
725.333	4.88
726.085	2.88
726.836	1.88
727.588	2.88
728.34	5.88
729.091	3.88
729.843	2.88
730.594	4.88
731.346	1.88
732.097	2.88
732.848	4.88
733.599	5.88
734.35	3.88
735.101	5.88
735.852	4.88
736.603	4.88
737.354	3.88
738.104	2.88
738.855	2.88
739.605	3.88
740.356	3.88
741.106	4.88
741.856	4.88
742.607	5.88
743.357	4.88
744.107	0.88
744.857	5.88
745.607	3.88
746.357	3.88
747.106	4.88
747.856	3.88
748.606	3.88
749.355	4.88
750.105	5.88
750.854	2.88
751.603	5.88
752.353	3.88
753.102	4.88
753.851	7.88
754.6	5.88
755.349	3.88
756.098	5.88
756.847	6.88
757.595	4.88
758.344	6.88
759.093	5.88
759.841	3.88
760.589	4.88
761.338	4.88
762.086	4.88
762.834	6.88
763.582	4.88
764.331	5.88
765.079	6.88
765.826	6.88
766.574	8.88
767.322	7.88
768.07	4.88
768.817	5.88
769.565	8.88
770.312	3.88
771.06	8.88
771.807	7.88
772.554	7.88
773.302	4.88
774.049	6.88
774.796	6.88
775.543	6.88
776.29	6.88
777.036	5.88
777.783	6.88
778.53	5.88
779.276	4.88
780.023	9.88
780.769	8.88
781.516	5.88
782.262	9.88
783.008	7.88
783.754	5.88
784.5	8.88
785.246	8.88
785.992	6.88
786.738	8.88
787.484	7.88
788.23	6.88
788.975	7.88
789.721	8.88
790.466	8.88
791.212	6.88
791.957	4.88
792.702	9.88
793.447	6.88
794.193	6.88
794.938	5.88
795.683	8.88
796.427	5.88
797.172	5.88
797.917	7.88
798.662	6.88
799.406	7.88
800.151	7.88
800.895	7.88
801.64	6.88
802.384	8.88
803.128	6.88
803.872	6.88
804.616	3.88
805.36	6.88
806.104	5.88
806.848	6.88
807.592	6.88
808.336	5.88
809.079	6.88
809.823	6.88
810.566	5.88
811.31	5.88
812.053	4.88
812.796	3.88
813.539	6.88
814.283	5.88
815.026	3.88
815.769	1.88
816.511	4.88
817.254	5.88
817.997	4.88
818.74	5.88
819.482	2.88
820.225	4.88
820.967	4.88
821.71	4.88
822.452	4.88
823.194	2.88
823.936	5.88
824.678	1.88
825.42	3.88
826.162	4.88
826.904	4.88
827.646	2.88
828.388	3.88
829.129	2.88
829.871	4.88
830.612	1.88
831.354	2.88
832.095	2.88
832.836	1.88
833.577	2.88
834.319	4.88
835.06	3.88
835.801	1.88
836.542	4.88
837.282	0.88
838.023	1.88
838.764	3.88
839.504	2.88
840.245	2.88
840.985	2.88
841.726	3.88
842.466	0.88
843.206	1.88
843.946	1.88
844.687	3.88
845.427	3.88
846.166	2.88
846.906	3.88
847.646	4.88
848.386	4.88
849.125	1.88
849.865	2.88
850.605	0.88
851.344	2.88
852.083	3.88
852.823	0.88
853.562	4.88
854.301	1.88
855.04	2.88
855.779	1.88
856.518	3.88
857.257	4.88
857.995	1.88
858.734	2.88
859.473	2.88
860.211	2.88
860.95	3.88
861.688	2.88
862.426	2.88
863.165	1.88
863.903	2.88
864.641	1.88
865.379	1.88
866.117	3.88
866.855	0.88
867.593	2.88
868.33	1.88
869.068	2.88
869.806	1.88
870.543	2.88
871.28	2.88
872.018	-0.12
872.755	2.88
873.492	-0.12
874.229	0.88
874.967	0.88
875.703	1.88
876.44	2.88
877.177	0.88
877.914	0.88
878.651	2.88
879.387	1.88
880.124	2.88
880.86	0.88
881.597	0.88
882.333	0.88
883.069	2.88
883.806	0.88
884.542	0.88
885.278	1.88
886.014	2.88
886.749	-0.12
887.485	0.88
888.221	1.88
888.957	-0.12
889.692	0.88
890.428	1.88
891.163	-0.12
891.899	1.88
892.634	-1.12
893.369	1.88
894.104	-0.12
894.839	0.88
895.574	-1.12
896.309	1.88
897.044	-0.12
897.779	-1.12
898.514	0.88
899.248	1.88
899.983	-0.12
900.717	-1.12
901.452	0.88
902.186	1.88
902.92	0.88
903.654	2.88
904.389	-0.12
905.123	-1.12
905.857	0.88
906.59	0.88
907.324	1.88
908.058	4.88
908.792	0.88
909.525	1.88
910.259	-0.12
910.992	0.88
911.726	-0.12
912.459	0.88
913.192	0.88
913.925	0.88
914.658	0.88
915.391	1.88
916.124	-0.12
916.857	0.88
917.59	-0.12
918.323	0.88
919.055	-0.12
919.788	-0.12
920.521	-1.12
921.253	-0.12
921.985	-0.12
922.718	-0.12
923.45	-0.12
924.182	-2.12
924.914	1.88
925.646	-1.12
926.378	-2.12
927.11	0.88
927.841	-0.12
928.573	-0.12
929.305	0.88
930.036	-0.12
930.768	-1.12
931.499	2.88
932.23	0.88
932.962	-2.12
933.693	0.88
934.424	-0.12
935.155	-0.12
935.886	0.88
936.617	0.88
937.348	0.88
938.078	-0.12
938.809	-2.12
939.54	-1.12
940.27	0.88
941.001	0.88
941.731	0.88
942.461	0.88
943.191	-2.12
943.922	0.88
944.652	-0.12
945.382	-2.12
946.112	0.88
946.841	-0.12
947.571	-0.12
948.301	0.88
949.031	-0.12
949.76	0.88
950.49	-3.12
951.219	0.88
951.948	-2.12
952.678	-0.12
953.407	-1.12
954.136	0.88
954.865	1.88
955.594	-2.12
956.323	-0.12
957.052	1.88
957.78	1.88
958.509	1.88
959.238	0.88
959.966	0.88
960.695	2.88
961.423	0.88
962.151	0.88
962.88	0.88
963.608	1.88
964.336	0.88
965.064	0.88
965.792	-1.12
966.52	-0.12
967.247	-0.12
967.975	-0.12
968.703	-2.12
969.43	0.88
970.158	1.88
970.885	-1.12
971.613	-0.12
972.34	-2.12
973.067	-0.12
973.794	0.88
974.521	-1.12
975.248	1.88
975.975	-2.12
976.702	-2.12
977.429	0.88
978.156	0.88
978.882	0.88
979.609	0.88
980.335	0.88
981.062	1.88
981.788	1.88
982.514	-1.12
983.24	-0.12
983.967	-0.12
984.693	-2.12
985.419	1.88
986.144	0.88
986.87	-1.12
987.596	-1.12
988.322	-0.12
989.047	0.88
989.773	1.88
990.498	-0.12
991.224	-0.12
991.949	0.88
992.674	-0.12
993.399	1.88
994.124	1.88
994.849	-1.12
995.574	0.88
996.299	-0.12
997.024	-1.12
997.749	0.88
998.473	-0.12
999.198	-0.12
999.922	0.88
1000.647	0.88
1001.371	3.88
1002.095	-2.12
1002.82	-0.12
1003.544	-2.12
1004.268	-0.12
1004.992	1.88
1005.716	1.88
1006.439	-1.12
1007.163	0.88
1007.887	0.88
1008.611	-0.12
1009.334	-1.12
1010.058	1.88
1010.781	0.88
1011.504	-0.12
1012.228	-1.12
1012.951	-0.12
1013.674	0.88
1014.397	-0.12
1015.12	-0.12
