节点500_285_QEPB04081__570__15-05-02-205.txt的数据

Date: Wed Nov 12 15:05:02 CST 2025
User: PC
Spectrometer: QEPB0408
触发模式: 0
积分时间 (秒): 1.000000E-2
Scans to average: 1
启用暗噪声校正: true
启用非线性校正: false
滑动平均宽度: 0
X轴模式: Wavelengths
Number of Pixels in Spectrum: 1044
>>>>>Begin Spectral Data<<<<<
220.843	0.88
221.644	0.88
222.444	-0.12
223.244	0.88
224.045	3.88
224.845	2.88
225.645	4.88
226.445	1.88
227.245	0.88
228.045	3.88
228.845	1.88
229.645	2.88
230.444	2.88
231.244	3.88
232.043	3.88
232.843	2.88
233.642	4.88
234.442	3.88
235.241	2.88
236.04	3.88
236.839	4.88
237.638	2.88
238.437	3.88
239.236	3.88
240.035	1.88
240.833	4.88
241.632	4.88
242.43	4.88
243.229	3.88
244.027	4.88
244.826	7.88
245.624	5.88
246.422	5.88
247.22	5.88
248.018	4.88
248.816	7.88
249.614	5.88
250.412	4.88
251.21	4.88
252.007	7.88
252.805	5.88
253.602	6.88
254.4	7.88
255.197	8.88
255.994	6.88
256.791	9.88
257.589	7.88
258.386	7.88
259.183	8.88
259.979	9.88
260.776	10.88
261.573	9.88
262.37	8.88
263.166	11.88
263.963	12.88
264.759	10.88
265.556	13.88
266.352	9.88
267.148	11.88
267.944	11.88
268.74	12.88
269.536	15.88
270.332	11.88
271.128	13.88
271.924	15.88
272.719	16.88
273.515	15.88
274.311	13.88
275.106	16.88
275.901	16.88
276.697	13.88
277.492	17.88
278.287	16.88
279.082	17.88
279.877	15.88
280.672	19.88
281.467	15.88
282.262	15.88
283.056	16.88
283.851	15.88
284.646	18.88
285.44	13.88
286.234	15.88
287.029	17.88
287.823	15.88
288.617	18.88
289.411	18.88
290.205	20.88
290.999	17.88
291.793	17.88
292.587	16.88
293.381	15.88
294.174	19.88
294.968	13.88
295.761	13.88
296.555	14.88
297.348	15.88
298.141	14.88
298.935	17.88
299.728	14.88
300.521	12.88
301.314	15.88
302.107	13.88
302.899	12.88
303.692	14.88
304.485	12.88
305.277	14.88
306.07	12.88
306.862	10.88
307.655	13.88
308.447	9.88
309.239	9.88
310.031	12.88
310.823	9.88
311.615	9.88
312.407	6.88
313.199	10.88
313.991	11.88
314.783	9.88
315.574	9.88
316.366	5.88
317.157	8.88
317.949	6.88
318.74	7.88
319.531	6.88
320.322	7.88
321.113	7.88
321.904	7.88
322.695	7.88
323.486	6.88
324.277	6.88
325.068	9.88
325.858	7.88
326.649	7.88
327.439	4.88
328.23	7.88
329.02	6.88
329.81	6.88
330.6	7.88
331.391	6.88
332.181	3.88
332.971	6.88
333.76	7.88
334.55	6.88
335.34	4.88
336.13	6.88
336.919	6.88
337.709	6.88
338.498	6.88
339.287	5.88
340.077	7.88
340.866	5.88
341.655	4.88
342.444	5.88
343.233	7.88
344.022	4.88
344.811	5.88
345.6	4.88
346.388	6.88
347.177	7.88
347.965	3.88
348.754	6.88
349.542	6.88
350.33	5.88
351.119	3.88
351.907	3.88
352.695	6.88
353.483	4.88
354.271	6.88
355.059	4.88
355.846	4.88
356.634	5.88
357.422	4.88
358.209	4.88
358.997	4.88
359.784	6.88
360.571	5.88
361.359	5.88
362.146	5.88
362.933	3.88
363.72	5.88
364.507	6.88
365.294	3.88
366.081	4.88
366.867	4.88
367.654	4.88
368.44	4.88
369.227	4.88
370.013	6.88
370.8	3.88
371.586	2.88
372.372	4.88
373.158	5.88
373.944	5.88
374.73	4.88
375.516	5.88
376.302	2.88
377.088	5.88
377.873	3.88
378.659	7.88
379.445	3.88
380.23	4.88
381.015	6.88
381.801	4.88
382.586	6.88
383.371	4.88
384.156	6.88
384.941	4.88
385.726	3.88
386.511	4.88
387.296	4.88
388.08	4.88
388.865	6.88
389.649	4.88
390.434	4.88
391.218	4.88
392.003	4.88
392.787	3.88
393.571	7.88
394.355	7.88
395.139	5.88
395.923	6.88
396.707	5.88
397.491	6.88
398.274	7.88
399.058	5.88
399.842	6.88
400.625	8.88
401.408	6.88
402.192	4.88
402.975	8.88
403.758	4.88
404.541	7.88
405.324	8.88
406.107	7.88
406.89	7.88
407.673	7.88
408.456	6.88
409.238	7.88
410.021	8.88
410.803	5.88
411.586	4.88
412.368	7.88
413.151	9.88
413.933	5.88
414.715	11.88
415.497	6.88
416.279	9.88
417.061	7.88
417.843	10.88
418.624	9.88
419.406	10.88
420.188	8.88
420.969	6.88
421.751	10.88
422.532	6.88
423.313	12.88
424.095	9.88
424.876	9.88
425.657	12.88
426.438	11.88
427.219	12.88
428	11.88
428.78	10.88
429.561	13.88
430.342	13.88
431.122	13.88
431.903	13.88
432.683	16.88
433.464	15.88
434.244	16.88
435.024	15.88
435.804	16.88
436.584	15.88
437.364	17.88
438.144	21.88
438.924	17.88
439.704	22.88
440.483	20.88
441.263	26.88
442.042	22.88
442.822	26.88
443.601	26.88
444.38	28.88
445.16	33.88
445.939	33.88
446.718	34.88
447.497	40.88
448.276	41.88
449.054	44.88
449.833	48.88
450.612	55.88
451.391	55.88
452.169	68.88
452.948	72.88
453.726	73.88
454.504	87.88
455.282	94.88
456.061	106.88
456.839	121.88
457.617	131.88
458.395	149.88
459.172	157.88
459.95	172.88
460.728	191.88
461.506	219.88
462.283	245.88
463.061	275.88
463.838	308.88
464.615	335.88
465.393	375.88
466.17	433.88
466.947	464.88
467.724	518.88
468.501	579.88
469.278	641.88
470.055	710.88
470.831	804.88
471.608	885.88
472.385	976.88
473.161	1094.88
473.938	1183.88
474.714	1316.88
475.49	1456.88
476.266	1603.88
477.043	1769.88
477.819	1946.88
478.595	2142.88
479.371	2357.88
480.146	2571.88
480.922	2826.88
481.698	3118.88
482.473	3425.88
483.249	3748.88
484.024	4109.88
484.8	4505.88
485.575	4931.88
486.35	5397.88
487.126	5891.88
487.901	6443.88
488.676	7059.88
489.451	7666.88
490.225	8375.88
491	9112.88
491.775	9887.88
492.55	10767.88
493.324	11637.88
494.099	12564.88
494.873	13497.88
495.647	14530.88
496.422	15622.88
497.196	16697.88
497.97	17851.88
498.744	18924.88
499.518	20042.88
500.292	21114.88
501.066	22201.88
501.839	23133.88
502.613	24066.88
503.387	24850.88
504.16	25541.88
504.934	25984.88
505.707	26172.88
506.48	26416.88
507.253	26477.88
508.027	26336.88
508.8	26180.88
509.573	25869.88
510.346	25365.88
511.118	24700.88
511.891	24082.88
512.664	23278.88
513.437	22585.88
514.209	21686.88
514.982	20811.88
515.754	19945.88
516.526	19129.88
517.298	18296.88
518.071	17542.88
518.843	16799.88
519.615	16228.88
520.387	15573.88
521.159	14930.88
521.93	14319.88
522.702	13773.88
523.474	13225.88
524.245	12654.88
525.017	12151.88
525.788	11663.88
526.56	11096.88
527.331	10614.88
528.102	10177.88
528.873	9716.88
529.644	9199.88
530.415	8824.88
531.186	8339.88
531.957	7961.88
532.728	7569.88
533.498	7179.88
534.269	6798.88
535.039	6417.88
535.81	6062.88
536.58	5723.88
537.351	5389.88
538.121	5113.88
538.891	4854.88
539.661	4557.88
540.431	4326.88
541.201	4079.88
541.971	3849.88
542.741	3687.88
543.51	3492.88
544.28	3287.88
545.05	3163.88
545.819	2989.88
546.588	2837.88
547.358	2707.88
548.127	2583.88
548.896	2458.88
549.665	2334.88
550.434	2207.88
551.203	2077.88
551.972	1979.88
552.741	1848.88
553.51	1772.88
554.278	1668.88
555.047	1573.88
555.815	1487.88
556.584	1393.88
557.352	1332.88
558.121	1263.88
558.889	1190.88
559.657	1116.88
560.425	1066.88
561.193	1000.88
561.961	937.88
562.729	896.88
563.496	844.88
564.264	792.88
565.032	761.88
565.799	710.88
566.567	675.88
567.334	634.88
568.101	610.88
568.869	567.88
569.636	536.88
570.403	499.88
571.17	472.88
571.937	447.88
572.704	419.88
573.471	396.88
574.237	375.88
575.004	358.88
575.771	336.88
576.537	311.88
577.303	299.88
578.07	274.88
578.836	264.88
579.602	249.88
580.368	238.88
581.134	222.88
581.9	209.88
582.666	204.88
583.432	192.88
584.198	174.88
584.964	175.88
585.729	163.88
586.495	150.88
587.26	141.88
588.025	138.88
588.791	126.88
589.556	119.88
590.321	116.88
591.086	108.88
591.851	104.88
592.616	101.88
593.381	91.88
594.146	87.88
594.911	89.88
595.675	81.88
596.44	80.88
597.204	72.88
597.969	71.88
598.733	65.88
599.497	67.88
600.261	62.88
601.025	57.88
601.79	56.88
602.553	54.88
603.317	51.88
604.081	48.88
604.845	49.88
605.609	43.88
606.372	43.88
607.136	42.88
607.899	36.88
608.662	41.88
609.426	35.88
610.189	36.88
610.952	31.88
611.715	30.88
612.478	31.88
613.241	29.88
614.004	29.88
614.767	29.88
615.529	25.88
616.292	25.88
617.055	22.88
617.817	25.88
618.579	24.88
619.342	23.88
620.104	20.88
620.866	21.88
621.628	20.88
622.39	16.88
623.152	21.88
623.914	18.88
624.676	17.88
625.438	16.88
626.199	16.88
626.961	14.88
627.722	15.88
628.484	15.88
629.245	13.88
630.006	13.88
630.768	16.88
631.529	13.88
632.29	15.88
633.051	13.88
633.812	13.88
634.573	14.88
635.333	11.88
636.094	9.88
636.855	9.88
637.615	9.88
638.376	10.88
639.136	9.88
639.896	7.88
640.657	9.88
641.417	10.88
642.177	7.88
642.937	9.88
643.697	11.88
644.457	9.88
645.216	8.88
645.976	9.88
646.736	5.88
647.495	8.88
648.255	7.88
649.014	7.88
649.774	6.88
650.533	7.88
651.292	6.88
652.051	5.88
652.81	6.88
653.569	5.88
654.328	5.88
655.087	7.88
655.846	6.88
656.604	5.88
657.363	4.88
658.121	7.88
658.88	4.88
659.638	6.88
660.397	3.88
661.155	5.88
661.913	5.88
662.671	6.88
663.429	5.88
664.187	2.88
664.945	3.88
665.703	3.88
666.46	4.88
667.218	4.88
667.976	1.88
668.733	4.88
669.49	2.88
670.248	4.88
671.005	3.88
671.762	4.88
672.519	5.88
673.276	6.88
674.033	2.88
674.79	3.88
675.547	2.88
676.304	4.88
677.06	3.88
677.817	4.88
678.574	3.88
679.33	6.88
680.086	1.88
680.843	3.88
681.599	5.88
682.355	5.88
683.111	3.88
683.867	3.88
684.623	2.88
685.379	3.88
686.135	3.88
686.89	4.88
687.646	4.88
688.402	4.88
689.157	1.88
689.912	2.88
690.668	4.88
691.423	3.88
692.178	3.88
692.933	2.88
693.688	4.88
694.443	4.88
695.198	5.88
695.953	5.88
696.708	1.88
697.462	4.88
698.217	2.88
698.972	1.88
699.726	3.88
700.48	4.88
701.235	3.88
701.989	3.88
702.743	1.88
703.497	1.88
704.251	5.88
705.005	4.88
705.759	1.88
706.513	2.88
707.266	1.88
708.02	4.88
708.774	2.88
709.527	3.88
710.28	1.88
711.034	3.88
711.787	1.88
712.54	1.88
713.293	1.88
714.046	3.88
714.799	3.88
715.552	3.88
716.305	4.88
717.058	1.88
717.81	3.88
718.563	3.88
719.315	1.88
720.068	3.88
720.82	4.88
721.573	4.88
722.325	1.88
723.077	4.88
723.829	4.88
724.581	0.88
725.333	2.88
726.085	3.88
726.836	2.88
727.588	3.88
728.34	2.88
729.091	2.88
729.843	3.88
730.594	3.88
731.346	3.88
732.097	2.88
732.848	4.88
733.599	1.88
734.35	4.88
735.101	3.88
735.852	4.88
736.603	5.88
737.354	4.88
738.104	2.88
738.855	4.88
739.605	3.88
740.356	4.88
741.106	1.88
741.856	6.88
742.607	5.88
743.357	1.88
744.107	4.88
744.857	3.88
745.607	3.88
746.357	1.88
747.106	7.88
747.856	1.88
748.606	4.88
749.355	5.88
750.105	2.88
750.854	2.88
751.603	3.88
752.353	4.88
753.102	6.88
753.851	4.88
754.6	4.88
755.349	4.88
756.098	5.88
756.847	4.88
757.595	5.88
758.344	4.88
759.093	6.88
759.841	4.88
760.589	6.88
761.338	1.88
762.086	2.88
762.834	5.88
763.582	5.88
764.331	6.88
765.079	7.88
765.826	1.88
766.574	8.88
767.322	5.88
768.07	8.88
768.817	7.88
769.565	7.88
770.312	8.88
771.06	6.88
771.807	6.88
772.554	6.88
773.302	5.88
774.049	7.88
774.796	4.88
775.543	7.88
776.29	7.88
777.036	8.88
777.783	6.88
778.53	8.88
779.276	8.88
780.023	7.88
780.769	6.88
781.516	5.88
782.262	7.88
783.008	7.88
783.754	4.88
784.5	9.88
785.246	6.88
785.992	8.88
786.738	7.88
787.484	7.88
788.23	8.88
788.975	7.88
789.721	4.88
790.466	10.88
791.212	9.88
791.957	5.88
792.702	7.88
793.447	8.88
794.193	6.88
794.938	8.88
795.683	7.88
796.427	7.88
797.172	5.88
797.917	5.88
798.662	7.88
799.406	7.88
800.151	5.88
800.895	3.88
801.64	7.88
802.384	9.88
803.128	6.88
803.872	5.88
804.616	4.88
805.36	6.88
806.104	6.88
806.848	6.88
807.592	4.88
808.336	5.88
809.079	6.88
809.823	4.88
810.566	6.88
811.31	4.88
812.053	6.88
812.796	7.88
813.539	3.88
814.283	6.88
815.026	3.88
815.769	6.88
816.511	2.88
817.254	5.88
817.997	4.88
818.74	4.88
819.482	3.88
820.225	3.88
820.967	3.88
821.71	4.88
822.452	2.88
823.194	2.88
823.936	2.88
824.678	2.88
825.42	4.88
826.162	3.88
826.904	2.88
827.646	3.88
828.388	3.88
829.129	3.88
829.871	4.88
830.612	3.88
831.354	3.88
832.095	4.88
832.836	2.88
833.577	2.88
834.319	1.88
835.06	4.88
835.801	1.88
836.542	2.88
837.282	0.88
838.023	1.88
838.764	2.88
839.504	1.88
840.245	4.88
840.985	1.88
841.726	1.88
842.466	2.88
843.206	3.88
843.946	5.88
844.687	3.88
845.427	4.88
846.166	2.88
846.906	2.88
847.646	2.88
848.386	-0.12
849.125	3.88
849.865	1.88
850.605	2.88
851.344	3.88
852.083	2.88
852.823	2.88
853.562	1.88
854.301	3.88
855.04	1.88
855.779	0.88
856.518	1.88
857.257	0.88
857.995	3.88
858.734	1.88
859.473	2.88
860.211	1.88
860.95	1.88
861.688	3.88
862.426	0.88
863.165	2.88
863.903	1.88
864.641	0.88
865.379	1.88
866.117	1.88
866.855	2.88
867.593	1.88
868.33	2.88
869.068	0.88
869.806	-1.12
870.543	2.88
871.28	1.88
872.018	3.88
872.755	-0.12
873.492	2.88
874.229	0.88
874.967	1.88
875.703	2.88
876.44	0.88
877.177	-0.12
877.914	-0.12
878.651	0.88
879.387	0.88
880.124	0.88
880.86	1.88
881.597	0.88
882.333	1.88
883.069	1.88
883.806	-0.12
884.542	-1.12
885.278	-1.12
886.014	2.88
886.749	1.88
887.485	0.88
888.221	0.88
888.957	0.88
889.692	1.88
890.428	-2.12
891.163	1.88
891.899	-0.12
892.634	1.88
893.369	0.88
894.104	-2.12
894.839	0.88
895.574	2.88
896.309	3.88
897.044	0.88
897.779	0.88
898.514	0.88
899.248	-0.12
899.983	2.88
900.717	-2.12
901.452	2.88
902.186	0.88
902.92	-0.12
903.654	1.88
904.389	-0.12
905.123	-0.12
905.857	0.88
906.59	-0.12
907.324	1.88
908.058	-1.12
908.792	1.88
909.525	0.88
910.259	2.88
910.992	0.88
911.726	-0.12
912.459	2.88
913.192	0.88
913.925	1.88
914.658	-0.12
915.391	1.88
916.124	-0.12
916.857	0.88
917.59	1.88
918.323	-1.12
919.055	1.88
919.788	1.88
920.521	-0.12
921.253	0.88
921.985	-0.12
922.718	-0.12
923.45	-2.12
924.182	0.88
924.914	0.88
925.646	0.88
926.378	-2.12
927.11	-1.12
927.841	2.88
928.573	0.88
929.305	0.88
930.036	1.88
930.768	-0.12
931.499	-1.12
932.23	1.88
932.962	-1.12
933.693	-2.12
934.424	-1.12
935.155	1.88
935.886	-0.12
936.617	-0.12
937.348	-0.12
938.078	0.88
938.809	-0.12
939.54	0.88
940.27	0.88
941.001	-0.12
941.731	-0.12
942.461	0.88
943.191	-1.12
943.922	-0.12
944.652	-1.12
945.382	0.88
946.112	-1.12
946.841	1.88
947.571	-0.12
948.301	-1.12
949.031	-0.12
949.76	-0.12
950.49	-0.12
951.219	-1.12
951.948	0.88
952.678	-1.12
953.407	-0.12
954.136	-0.12
954.865	-1.12
955.594	0.88
956.323	1.88
957.052	0.88
957.78	0.88
958.509	-0.12
959.238	0.88
959.966	-1.12
960.695	-0.12
961.423	0.88
962.151	-0.12
962.88	-0.12
963.608	-1.12
964.336	1.88
965.064	-0.12
965.792	-0.12
966.52	-1.12
967.247	-0.12
967.975	-0.12
968.703	0.88
969.43	-0.12
970.158	0.88
970.885	-0.12
971.613	-0.12
972.34	0.88
973.067	-1.12
973.794	-1.12
974.521	-0.12
975.248	0.88
975.975	-0.12
976.702	-0.12
977.429	-0.12
978.156	-0.12
978.882	-0.12
979.609	-2.12
980.335	-0.12
981.062	-0.12
981.788	-2.12
982.514	0.88
983.24	-1.12
983.967	-0.12
984.693	1.88
985.419	-0.12
986.144	1.88
986.87	0.88
987.596	-2.12
988.322	-0.12
989.047	0.88
989.773	0.88
990.498	-1.12
991.224	-1.12
991.949	1.88
992.674	-0.12
993.399	0.88
994.124	0.88
994.849	1.88
995.574	1.88
996.299	0.88
997.024	-0.12
997.749	-0.12
998.473	-0.12
999.198	-0.12
999.922	-0.12
1000.647	0.88
1001.371	2.88
1002.095	-0.12
1002.82	-2.12
1003.544	-1.12
1004.268	0.88
1004.992	1.88
1005.716	0.88
1006.439	1.88
1007.163	1.88
1007.887	3.88
1008.611	0.88
1009.334	2.88
1010.058	-1.12
1010.781	1.88
1011.504	-2.12
1012.228	1.88
1012.951	-0.12
1013.674	-0.12
1014.397	0.88
1015.12	-0.12
