节点500_285_QEPB04081__123__14-57-36-241.txt的数据

Date: Wed Nov 12 14:57:36 CST 2025
User: PC
Spectrometer: QEPB0408
触发模式: 0
积分时间 (秒): 1.000000E-2
Scans to average: 1
启用暗噪声校正: true
启用非线性校正: false
滑动平均宽度: 0
X轴模式: Wavelengths
Number of Pixels in Spectrum: 1044
>>>>>Begin Spectral Data<<<<<
220.843	2.5
221.644	3.5
222.444	3.5
223.244	2.5
224.045	2.5
224.845	3.5
225.645	4.5
226.445	3.5
227.245	1.5
228.045	5.5
228.845	2.5
229.645	4.5
230.444	4.5
231.244	6.5
232.043	2.5
232.843	2.5
233.642	3.5
234.442	4.5
235.241	1.5
236.04	3.5
236.839	2.5
237.638	1.5
238.437	3.5
239.236	8.5
240.035	4.5
240.833	4.5
241.632	3.5
242.43	4.5
243.229	6.5
244.027	4.5
244.826	6.5
245.624	4.5
246.422	5.5
247.22	6.5
248.018	3.5
248.816	9.5
249.614	5.5
250.412	4.5
251.21	7.5
252.007	6.5
252.805	9.5
253.602	7.5
254.4	8.5
255.197	8.5
255.994	8.5
256.791	7.5
257.589	7.5
258.386	10.5
259.183	10.5
259.979	9.5
260.776	9.5
261.573	9.5
262.37	11.5
263.166	12.5
263.963	13.5
264.759	12.5
265.556	13.5
266.352	12.5
267.148	13.5
267.944	11.5
268.74	14.5
269.536	14.5
270.332	15.5
271.128	16.5
271.924	15.5
272.719	14.5
273.515	18.5
274.311	18.5
275.106	17.5
275.901	18.5
276.697	18.5
277.492	22.5
278.287	21.5
279.082	20.5
279.877	19.5
280.672	17.5
281.467	18.5
282.262	18.5
283.056	19.5
283.851	19.5
284.646	18.5
285.44	18.5
286.234	19.5
287.029	21.5
287.823	19.5
288.617	17.5
289.411	19.5
290.205	19.5
290.999	20.5
291.793	19.5
292.587	18.5
293.381	19.5
294.174	17.5
294.968	16.5
295.761	15.5
296.555	17.5
297.348	16.5
298.141	13.5
298.935	19.5
299.728	15.5
300.521	15.5
301.314	14.5
302.107	13.5
302.899	15.5
303.692	15.5
304.485	12.5
305.277	16.5
306.07	11.5
306.862	13.5
307.655	10.5
308.447	11.5
309.239	12.5
310.031	13.5
310.823	8.5
311.615	7.5
312.407	13.5
313.199	11.5
313.991	11.5
314.783	7.5
315.574	9.5
316.366	7.5
317.157	7.5
317.949	9.5
318.74	5.5
319.531	8.5
320.322	9.5
321.113	7.5
321.904	9.5
322.695	6.5
323.486	5.5
324.277	6.5
325.068	7.5
325.858	6.5
326.649	6.5
327.439	4.5
328.23	6.5
329.02	7.5
329.81	6.5
330.6	7.5
331.391	6.5
332.181	6.5
332.971	7.5
333.76	6.5
334.55	9.5
335.34	6.5
336.13	7.5
336.919	4.5
337.709	6.5
338.498	7.5
339.287	5.5
340.077	6.5
340.866	5.5
341.655	6.5
342.444	4.5
343.233	7.5
344.022	7.5
344.811	2.5
345.6	4.5
346.388	8.5
347.177	4.5
347.965	8.5
348.754	6.5
349.542	6.5
350.33	3.5
351.119	3.5
351.907	4.5
352.695	6.5
353.483	8.5
354.271	8.5
355.059	6.5
355.846	5.5
356.634	6.5
357.422	6.5
358.209	8.5
358.997	6.5
359.784	6.5
360.571	5.5
361.359	4.5
362.146	3.5
362.933	6.5
363.72	5.5
364.507	5.5
365.294	5.5
366.081	4.5
366.867	6.5
367.654	5.5
368.44	5.5
369.227	7.5
370.013	4.5
370.8	5.5
371.586	2.5
372.372	5.5
373.158	6.5
373.944	6.5
374.73	6.5
375.516	4.5
376.302	7.5
377.088	6.5
377.873	6.5
378.659	9.5
379.445	5.5
380.23	5.5
381.015	6.5
381.801	4.5
382.586	4.5
383.371	6.5
384.156	4.5
384.941	2.5
385.726	6.5
386.511	4.5
387.296	6.5
388.08	6.5
388.865	5.5
389.649	6.5
390.434	7.5
391.218	8.5
392.003	7.5
392.787	5.5
393.571	5.5
394.355	6.5
395.139	7.5
395.923	3.5
396.707	6.5
397.491	7.5
398.274	7.5
399.058	7.5
399.842	8.5
400.625	6.5
401.408	6.5
402.192	9.5
402.975	5.5
403.758	7.5
404.541	9.5
405.324	7.5
406.107	8.5
406.89	7.5
407.673	7.5
408.456	10.5
409.238	10.5
410.021	8.5
410.803	7.5
411.586	10.5
412.368	7.5
413.151	9.5
413.933	10.5
414.715	9.5
415.497	12.5
416.279	8.5
417.061	6.5
417.843	11.5
418.624	10.5
419.406	9.5
420.188	9.5
420.969	10.5
421.751	10.5
422.532	12.5
423.313	10.5
424.095	11.5
424.876	13.5
425.657	10.5
426.438	12.5
427.219	13.5
428	12.5
428.78	15.5
429.561	11.5
430.342	13.5
431.122	14.5
431.903	16.5
432.683	13.5
433.464	17.5
434.244	15.5
435.024	16.5
435.804	15.5
436.584	18.5
437.364	18.5
438.144	19.5
438.924	19.5
439.704	22.5
440.483	23.5
441.263	22.5
442.042	26.5
442.822	27.5
443.601	28.5
444.38	26.5
445.16	30.5
445.939	35.5
446.718	32.5
447.497	39.5
448.276	39.5
449.054	43.5
449.833	49.5
450.612	53.5
451.391	56.5
452.169	58.5
452.948	67.5
453.726	71.5
454.504	77.5
455.282	87.5
456.061	90.5
456.839	103.5
457.617	114.5
458.395	125.5
459.172	141.5
459.95	157.5
460.728	171.5
461.506	196.5
462.283	221.5
463.061	239.5
463.838	268.5
464.615	305.5
465.393	339.5
466.17	386.5
466.947	424.5
467.724	480.5
468.501	528.5
469.278	584.5
470.055	657.5
470.831	740.5
471.608	822.5
472.385	919.5
473.161	1010.5
473.938	1133.5
474.714	1258.5
475.49	1409.5
476.266	1567.5
477.043	1728.5
477.819	1919.5
478.595	2129.5
479.371	2332.5
480.146	2599.5
480.922	2887.5
481.698	3188.5
482.473	3519.5
483.249	3879.5
484.024	4282.5
484.8	4748.5
485.575	5226.5
486.35	5761.5
487.126	6337.5
487.901	7021.5
488.676	7693.5
489.451	8452.5
490.225	9263.5
491	10169.5
491.775	11153.5
492.55	12153.5
493.324	13219.5
494.099	14264.5
494.873	15418.5
495.647	16618.5
496.422	17874.5
497.196	19080.5
497.97	20470.5
498.744	21637.5
499.518	22881.5
500.292	24033.5
501.066	25166.5
501.839	26113.5
502.613	26973.5
503.387	27697.5
504.16	28227.5
504.934	28457.5
505.707	28577.5
506.48	28432.5
507.253	28261.5
508.027	27800.5
508.8	27348.5
509.573	26741.5
510.346	26037.5
511.118	25178.5
511.891	24271.5
512.664	23358.5
513.437	22355.5
514.209	21354.5
514.982	20466.5
515.754	19486.5
516.526	18577.5
517.298	17843.5
518.071	16987.5
518.843	16392.5
519.615	15727.5
520.387	15131.5
521.159	14500.5
521.93	13941.5
522.702	13370.5
523.474	12829.5
524.245	12302.5
525.017	11692.5
525.788	11267.5
526.56	10766.5
527.331	10209.5
528.102	9758.5
528.873	9269.5
529.644	8808.5
530.415	8400.5
531.186	7912.5
531.957	7464.5
532.728	7136.5
533.498	6718.5
534.269	6347.5
535.039	5965.5
535.81	5677.5
536.58	5345.5
537.351	5012.5
538.121	4762.5
538.891	4495.5
539.661	4246.5
540.431	4022.5
541.201	3774.5
541.971	3597.5
542.741	3412.5
543.51	3243.5
544.28	3074.5
545.05	2953.5
545.819	2801.5
546.588	2665.5
547.358	2521.5
548.127	2399.5
548.896	2254.5
549.665	2162.5
550.434	2035.5
551.203	1928.5
551.972	1815.5
552.741	1731.5
553.51	1636.5
554.278	1531.5
555.047	1433.5
555.815	1367.5
556.584	1284.5
557.352	1223.5
558.121	1155.5
558.889	1085.5
559.657	1014.5
560.425	963.5
561.193	904.5
561.961	864.5
562.729	808.5
563.496	764.5
564.264	732.5
565.032	692.5
565.799	652.5
566.567	619.5
567.334	574.5
568.101	551.5
568.869	509.5
569.636	490.5
570.403	448.5
571.17	431.5
571.937	407.5
572.704	385.5
573.471	363.5
574.237	340.5
575.004	322.5
575.771	301.5
576.537	282.5
577.303	273.5
578.07	249.5
578.836	238.5
579.602	227.5
580.368	208.5
581.134	204.5
581.9	193.5
582.666	178.5
583.432	170.5
584.198	160.5
584.964	156.5
585.729	148.5
586.495	142.5
587.26	133.5
588.025	121.5
588.791	120.5
589.556	116.5
590.321	106.5
591.086	101.5
591.851	95.5
592.616	93.5
593.381	84.5
594.146	83.5
594.911	77.5
595.675	74.5
596.44	69.5
597.204	72.5
597.969	64.5
598.733	61.5
599.497	57.5
600.261	58.5
601.025	56.5
601.79	51.5
602.553	47.5
603.317	48.5
604.081	44.5
604.845	44.5
605.609	45.5
606.372	41.5
607.136	39.5
607.899	40.5
608.662	36.5
609.426	34.5
610.189	32.5
610.952	31.5
611.715	29.5
612.478	28.5
613.241	26.5
614.004	27.5
614.767	24.5
615.529	28.5
616.292	25.5
617.055	24.5
617.817	22.5
618.579	21.5
619.342	21.5
620.104	20.5
620.866	19.5
621.628	20.5
622.39	18.5
623.152	18.5
623.914	18.5
624.676	15.5
625.438	19.5
626.199	16.5
626.961	13.5
627.722	15.5
628.484	16.5
629.245	15.5
630.006	11.5
630.768	14.5
631.529	10.5
632.29	11.5
633.051	13.5
633.812	14.5
634.573	11.5
635.333	10.5
636.094	10.5
636.855	10.5
637.615	11.5
638.376	7.5
639.136	8.5
639.896	10.5
640.657	9.5
641.417	12.5
642.177	9.5
642.937	10.5
643.697	9.5
644.457	8.5
645.216	9.5
645.976	6.5
646.736	7.5
647.495	8.5
648.255	6.5
649.014	7.5
649.774	5.5
650.533	6.5
651.292	5.5
652.051	7.5
652.81	7.5
653.569	6.5
654.328	5.5
655.087	5.5
655.846	6.5
656.604	7.5
657.363	6.5
658.121	8.5
658.88	4.5
659.638	7.5
660.397	6.5
661.155	7.5
661.913	5.5
662.671	5.5
663.429	6.5
664.187	5.5
664.945	3.5
665.703	6.5
666.46	5.5
667.218	3.5
667.976	3.5
668.733	6.5
669.49	3.5
670.248	4.5
671.005	3.5
671.762	4.5
672.519	6.5
673.276	4.5
674.033	4.5
674.79	4.5
675.547	4.5
676.304	6.5
677.06	2.5
677.817	4.5
678.574	3.5
679.33	5.5
680.086	4.5
680.843	4.5
681.599	5.5
682.355	5.5
683.111	3.5
683.867	4.5
684.623	4.5
685.379	2.5
686.135	3.5
686.89	5.5
687.646	0.5
688.402	4.5
689.157	3.5
689.912	3.5
690.668	2.5
691.423	4.5
692.178	5.5
692.933	3.5
693.688	3.5
694.443	4.5
695.198	4.5
695.953	4.5
696.708	1.5
697.462	1.5
698.217	3.5
698.972	4.5
699.726	3.5
700.48	4.5
701.235	2.5
701.989	3.5
702.743	3.5
703.497	2.5
704.251	3.5
705.005	5.5
705.759	4.5
706.513	4.5
707.266	5.5
708.02	3.5
708.774	3.5
709.527	0.5
710.28	4.5
711.034	5.5
711.787	4.5
712.54	4.5
713.293	3.5
714.046	4.5
714.799	3.5
715.552	2.5
716.305	6.5
717.058	3.5
717.81	2.5
718.563	3.5
719.315	4.5
720.068	5.5
720.82	5.5
721.573	5.5
722.325	3.5
723.077	3.5
723.829	2.5
724.581	5.5
725.333	3.5
726.085	6.5
726.836	4.5
727.588	3.5
728.34	2.5
729.091	3.5
729.843	5.5
730.594	3.5
731.346	1.5
732.097	4.5
732.848	2.5
733.599	5.5
734.35	4.5
735.101	2.5
735.852	3.5
736.603	5.5
737.354	4.5
738.104	5.5
738.855	2.5
739.605	7.5
740.356	3.5
741.106	4.5
741.856	5.5
742.607	4.5
743.357	4.5
744.107	6.5
744.857	6.5
745.607	4.5
746.357	4.5
747.106	5.5
747.856	4.5
748.606	6.5
749.355	4.5
750.105	5.5
750.854	3.5
751.603	5.5
752.353	3.5
753.102	3.5
753.851	6.5
754.6	3.5
755.349	4.5
756.098	4.5
756.847	7.5
757.595	6.5
758.344	6.5
759.093	6.5
759.841	5.5
760.589	7.5
761.338	5.5
762.086	4.5
762.834	7.5
763.582	7.5
764.331	4.5
765.079	6.5
765.826	7.5
766.574	4.5
767.322	8.5
768.07	7.5
768.817	6.5
769.565	10.5
770.312	7.5
771.06	9.5
771.807	7.5
772.554	8.5
773.302	10.5
774.049	7.5
774.796	7.5
775.543	11.5
776.29	9.5
777.036	10.5
777.783	8.5
778.53	10.5
779.276	8.5
780.023	8.5
780.769	8.5
781.516	6.5
782.262	8.5
783.008	8.5
783.754	10.5
784.5	8.5
785.246	8.5
785.992	9.5
786.738	11.5
787.484	11.5
788.23	8.5
788.975	10.5
789.721	7.5
790.466	7.5
791.212	10.5
791.957	8.5
792.702	8.5
793.447	9.5
794.193	9.5
794.938	8.5
795.683	9.5
796.427	8.5
797.172	8.5
797.917	10.5
798.662	10.5
799.406	8.5
800.151	5.5
800.895	4.5
801.64	11.5
802.384	9.5
803.128	6.5
803.872	9.5
804.616	6.5
805.36	7.5
806.104	7.5
806.848	6.5
807.592	8.5
808.336	5.5
809.079	6.5
809.823	5.5
810.566	7.5
811.31	5.5
812.053	4.5
812.796	7.5
813.539	7.5
814.283	6.5
815.026	5.5
815.769	7.5
816.511	7.5
817.254	6.5
817.997	3.5
818.74	3.5
819.482	5.5
820.225	6.5
820.967	4.5
821.71	4.5
822.452	5.5
823.194	5.5
823.936	5.5
824.678	6.5
825.42	5.5
826.162	3.5
826.904	1.5
827.646	1.5
828.388	3.5
829.129	3.5
829.871	3.5
830.612	3.5
831.354	1.5
832.095	5.5
832.836	3.5
833.577	5.5
834.319	5.5
835.06	4.5
835.801	4.5
836.542	2.5
837.282	6.5
838.023	2.5
838.764	3.5
839.504	3.5
840.245	3.5
840.985	3.5
841.726	4.5
842.466	4.5
843.206	3.5
843.946	3.5
844.687	5.5
845.427	3.5
846.166	2.5
846.906	3.5
847.646	2.5
848.386	3.5
849.125	1.5
849.865	5.5
850.605	3.5
851.344	3.5
852.083	3.5
852.823	1.5
853.562	2.5
854.301	3.5
855.04	4.5
855.779	2.5
856.518	3.5
857.257	3.5
857.995	2.5
858.734	2.5
859.473	3.5
860.211	3.5
860.95	2.5
861.688	2.5
862.426	3.5
863.165	1.5
863.903	1.5
864.641	0.5
865.379	0.5
866.117	1.5
866.855	2.5
867.593	2.5
868.33	1.5
869.068	2.5
869.806	2.5
870.543	2.5
871.28	0.5
872.018	2.5
872.755	2.5
873.492	1.5
874.229	0.5
874.967	0.5
875.703	-0.5
876.44	1.5
877.177	-0.5
877.914	1.5
878.651	0.5
879.387	1.5
880.124	0.5
880.86	-1.5
881.597	1.5
882.333	2.5
883.069	1.5
883.806	2.5
884.542	1.5
885.278	0.5
886.014	-0.5
886.749	3.5
887.485	2.5
888.221	-0.5
888.957	1.5
889.692	-0.5
890.428	0.5
891.163	-1.5
891.899	-0.5
892.634	1.5
893.369	-0.5
894.104	2.5
894.839	1.5
895.574	1.5
896.309	3.5
897.044	1.5
897.779	0.5
898.514	-0.5
899.248	0.5
899.983	1.5
900.717	2.5
901.452	2.5
902.186	1.5
902.92	0.5
903.654	-0.5
904.389	-0.5
905.123	0.5
905.857	1.5
906.59	-0.5
907.324	0.5
908.058	2.5
908.792	-2.5
909.525	0.5
910.259	1.5
910.992	-0.5
911.726	2.5
912.459	-0.5
913.192	1.5
913.925	1.5
914.658	4.5
915.391	1.5
916.124	2.5
916.857	1.5
917.59	0.5
918.323	-0.5
919.055	1.5
919.788	1.5
920.521	3.5
921.253	-1.5
921.985	1.5
922.718	1.5
923.45	1.5
924.182	0.5
924.914	0.5
925.646	0.5
926.378	1.5
927.11	-0.5
927.841	-0.5
928.573	0.5
929.305	1.5
930.036	-1.5
930.768	-0.5
931.499	0.5
932.23	1.5
932.962	-0.5
933.693	0.5
934.424	2.5
935.155	-2.5
935.886	1.5
936.617	-0.5
937.348	1.5
938.078	0.5
938.809	-1.5
939.54	-0.5
940.27	1.5
941.001	0.5
941.731	-0.5
942.461	0.5
943.191	-0.5
943.922	3.5
944.652	0.5
945.382	0.5
946.112	1.5
946.841	3.5
947.571	-1.5
948.301	1.5
949.031	-1.5
949.76	0.5
950.49	-0.5
951.219	0.5
951.948	-0.5
952.678	-0.5
953.407	2.5
954.136	0.5
954.865	-0.5
955.594	1.5
956.323	-0.5
957.052	0.5
957.78	-1.5
958.509	1.5
959.238	-0.5
959.966	1.5
960.695	0.5
961.423	-1.5
962.151	0.5
962.88	0.5
963.608	-1.5
964.336	0.5
965.064	0.5
965.792	1.5
966.52	-2.5
967.247	0.5
967.975	-1.5
968.703	0.5
969.43	1.5
970.158	0.5
970.885	0.5
971.613	3.5
972.34	-1.5
973.067	1.5
973.794	1.5
974.521	1.5
975.248	3.5
975.975	0.5
976.702	0.5
977.429	1.5
978.156	1.5
978.882	0.5
979.609	2.5
980.335	0.5
981.062	1.5
981.788	-0.5
982.514	-1.5
983.24	-0.5
983.967	0.5
984.693	0.5
985.419	-0.5
986.144	1.5
986.87	0.5
987.596	0.5
988.322	0.5
989.047	0.5
989.773	1.5
990.498	-1.5
991.224	0.5
991.949	0.5
992.674	-1.5
993.399	2.5
994.124	0.5
994.849	-0.5
995.574	-0.5
996.299	1.5
997.024	1.5
997.749	-0.5
998.473	-0.5
999.198	-0.5
999.922	0.5
1000.647	-0.5
1001.371	3.5
1002.095	-2.5
1002.82	-2.5
1003.544	0.5
1004.268	1.5
1004.992	1.5
1005.716	0.5
1006.439	1.5
1007.163	4.5
1007.887	3.5
1008.611	2.5
1009.334	2.5
1010.058	-1.5
1010.781	0.5
1011.504	0.5
1012.228	-0.5
1012.951	1.5
1013.674	-0.5
1014.397	0.5
1015.12	-0.5
