节点500_285_QEPB04081__199__14-58-52-098.txt的数据

Date: Wed Nov 12 14:58:52 CST 2025
User: PC
Spectrometer: QEPB0408
触发模式: 0
积分时间 (秒): 1.000000E-2
Scans to average: 1
启用暗噪声校正: true
启用非线性校正: false
滑动平均宽度: 0
X轴模式: Wavelengths
Number of Pixels in Spectrum: 1044
>>>>>Begin Spectral Data<<<<<
220.843	0.25
221.644	0.25
222.444	1.25
223.244	0.25
224.045	3.25
224.845	2.25
225.645	3.25
226.445	1.25
227.245	2.25
228.045	2.25
228.845	2.25
229.645	3.25
230.444	1.25
231.244	2.25
232.043	3.25
232.843	3.25
233.642	3.25
234.442	5.25
235.241	3.25
236.04	2.25
236.839	3.25
237.638	3.25
238.437	4.25
239.236	4.25
240.035	3.25
240.833	6.25
241.632	1.25
242.43	2.25
243.229	5.25
244.027	3.25
244.826	4.25
245.624	5.25
246.422	6.25
247.22	3.25
248.018	4.25
248.816	6.25
249.614	5.25
250.412	5.25
251.21	6.25
252.007	7.25
252.805	8.25
253.602	8.25
254.4	9.25
255.197	9.25
255.994	9.25
256.791	8.25
257.589	9.25
258.386	9.25
259.183	8.25
259.979	9.25
260.776	9.25
261.573	9.25
262.37	9.25
263.166	10.25
263.963	11.25
264.759	12.25
265.556	8.25
266.352	14.25
267.148	12.25
267.944	13.25
268.74	12.25
269.536	16.25
270.332	13.25
271.128	14.25
271.924	14.25
272.719	17.25
273.515	18.25
274.311	17.25
275.106	17.25
275.901	17.25
276.697	18.25
277.492	17.25
278.287	15.25
279.082	20.25
279.877	17.25
280.672	20.25
281.467	19.25
282.262	20.25
283.056	20.25
283.851	19.25
284.646	18.25
285.44	20.25
286.234	21.25
287.029	16.25
287.823	19.25
288.617	17.25
289.411	21.25
290.205	19.25
290.999	17.25
291.793	19.25
292.587	17.25
293.381	17.25
294.174	18.25
294.968	16.25
295.761	15.25
296.555	15.25
297.348	14.25
298.141	15.25
298.935	16.25
299.728	15.25
300.521	15.25
301.314	15.25
302.107	14.25
302.899	14.25
303.692	11.25
304.485	12.25
305.277	11.25
306.07	11.25
306.862	12.25
307.655	13.25
308.447	11.25
309.239	11.25
310.031	9.25
310.823	11.25
311.615	10.25
312.407	11.25
313.199	10.25
313.991	9.25
314.783	8.25
315.574	9.25
316.366	7.25
317.157	8.25
317.949	7.25
318.74	9.25
319.531	9.25
320.322	8.25
321.113	6.25
321.904	8.25
322.695	7.25
323.486	7.25
324.277	10.25
325.068	7.25
325.858	7.25
326.649	8.25
327.439	3.25
328.23	6.25
329.02	4.25
329.81	6.25
330.6	9.25
331.391	5.25
332.181	6.25
332.971	6.25
333.76	7.25
334.55	6.25
335.34	7.25
336.13	7.25
336.919	2.25
337.709	6.25
338.498	6.25
339.287	7.25
340.077	6.25
340.866	5.25
341.655	7.25
342.444	7.25
343.233	8.25
344.022	6.25
344.811	8.25
345.6	4.25
346.388	5.25
347.177	9.25
347.965	5.25
348.754	7.25
349.542	5.25
350.33	7.25
351.119	5.25
351.907	8.25
352.695	6.25
353.483	3.25
354.271	5.25
355.059	6.25
355.846	5.25
356.634	6.25
357.422	5.25
358.209	4.25
358.997	7.25
359.784	7.25
360.571	5.25
361.359	5.25
362.146	6.25
362.933	1.25
363.72	6.25
364.507	4.25
365.294	4.25
366.081	6.25
366.867	6.25
367.654	3.25
368.44	3.25
369.227	3.25
370.013	6.25
370.8	4.25
371.586	5.25
372.372	5.25
373.158	6.25
373.944	4.25
374.73	4.25
375.516	4.25
376.302	4.25
377.088	5.25
377.873	4.25
378.659	6.25
379.445	5.25
380.23	5.25
381.015	5.25
381.801	5.25
382.586	6.25
383.371	6.25
384.156	7.25
384.941	6.25
385.726	4.25
386.511	9.25
387.296	5.25
388.08	5.25
388.865	3.25
389.649	6.25
390.434	6.25
391.218	4.25
392.003	5.25
392.787	6.25
393.571	7.25
394.355	7.25
395.139	8.25
395.923	6.25
396.707	4.25
397.491	7.25
398.274	3.25
399.058	6.25
399.842	7.25
400.625	8.25
401.408	7.25
402.192	9.25
402.975	8.25
403.758	5.25
404.541	6.25
405.324	8.25
406.107	7.25
406.89	8.25
407.673	8.25
408.456	9.25
409.238	8.25
410.021	6.25
410.803	9.25
411.586	7.25
412.368	6.25
413.151	9.25
413.933	10.25
414.715	8.25
415.497	7.25
416.279	8.25
417.061	9.25
417.843	9.25
418.624	10.25
419.406	9.25
420.188	10.25
420.969	12.25
421.751	12.25
422.532	10.25
423.313	9.25
424.095	11.25
424.876	11.25
425.657	12.25
426.438	9.25
427.219	12.25
428	13.25
428.78	13.25
429.561	11.25
430.342	13.25
431.122	12.25
431.903	13.25
432.683	17.25
433.464	15.25
434.244	16.25
435.024	19.25
435.804	14.25
436.584	17.25
437.364	21.25
438.144	18.25
438.924	20.25
439.704	21.25
440.483	25.25
441.263	22.25
442.042	25.25
442.822	27.25
443.601	27.25
444.38	29.25
445.16	31.25
445.939	32.25
446.718	33.25
447.497	35.25
448.276	40.25
449.054	44.25
449.833	46.25
450.612	49.25
451.391	55.25
452.169	62.25
452.948	69.25
453.726	70.25
454.504	79.25
455.282	88.25
456.061	93.25
456.839	108.25
457.617	117.25
458.395	132.25
459.172	143.25
459.95	156.25
460.728	179.25
461.506	203.25
462.283	223.25
463.061	251.25
463.838	274.25
464.615	313.25
465.393	343.25
466.17	396.25
466.947	435.25
467.724	485.25
468.501	538.25
469.278	606.25
470.055	674.25
470.831	753.25
471.608	838.25
472.385	945.25
473.161	1021.25
473.938	1137.25
474.714	1278.25
475.49	1410.25
476.266	1565.25
477.043	1733.25
477.819	1917.25
478.595	2125.25
479.371	2349.25
480.146	2604.25
480.922	2847.25
481.698	3161.25
482.473	3471.25
483.249	3865.25
484.024	4262.25
484.8	4716.25
485.575	5144.25
486.35	5682.25
487.126	6257.25
487.901	6870.25
488.676	7567.25
489.451	8294.25
490.225	9117.25
491	9965.25
491.775	10875.25
492.55	11856.25
493.324	12861.25
494.099	13904.25
494.873	14959.25
495.647	16166.25
496.422	17379.25
497.196	18552.25
497.97	19856.25
498.744	21075.25
499.518	22273.25
500.292	23418.25
501.066	24531.25
501.839	25462.25
502.613	26299.25
503.387	27103.25
504.16	27668.25
504.934	28059.25
505.707	28103.25
506.48	28034.25
507.253	27873.25
508.027	27563.25
508.8	27184.25
509.573	26647.25
510.346	26013.25
511.118	25109.25
511.891	24255.25
512.664	23335.25
513.437	22472.25
514.209	21426.25
514.982	20565.25
515.754	19565.25
516.526	18689.25
517.298	17936.25
518.071	17163.25
518.843	16501.25
519.615	15836.25
520.387	15267.25
521.159	14574.25
521.93	14058.25
522.702	13515.25
523.474	12887.25
524.245	12341.25
525.017	11814.25
525.788	11372.25
526.56	10845.25
527.331	10326.25
528.102	9835.25
528.873	9367.25
529.644	8913.25
530.415	8503.25
531.186	7999.25
531.957	7597.25
532.728	7221.25
533.498	6847.25
534.269	6459.25
535.039	6095.25
535.81	5742.25
536.58	5415.25
537.351	5091.25
538.121	4822.25
538.891	4565.25
539.661	4320.25
540.431	4072.25
541.201	3869.25
541.971	3632.25
542.741	3452.25
543.51	3301.25
544.28	3141.25
545.05	2986.25
545.819	2828.25
546.588	2687.25
547.358	2580.25
548.127	2435.25
548.896	2316.25
549.665	2200.25
550.434	2082.25
551.203	1962.25
551.972	1848.25
552.741	1745.25
553.51	1653.25
554.278	1574.25
555.047	1464.25
555.815	1405.25
556.584	1309.25
557.352	1232.25
558.121	1189.25
558.889	1104.25
559.657	1035.25
560.425	983.25
561.193	925.25
561.961	873.25
562.729	819.25
563.496	777.25
564.264	734.25
565.032	705.25
565.799	659.25
566.567	616.25
567.334	581.25
568.101	554.25
568.869	526.25
569.636	493.25
570.403	463.25
571.17	436.25
571.937	409.25
572.704	393.25
573.471	369.25
574.237	349.25
575.004	323.25
575.771	306.25
576.537	283.25
577.303	282.25
578.07	255.25
578.836	247.25
579.602	234.25
580.368	212.25
581.134	203.25
581.9	192.25
582.666	183.25
583.432	175.25
584.198	166.25
584.964	157.25
585.729	150.25
586.495	144.25
587.26	132.25
588.025	124.25
588.791	118.25
589.556	113.25
590.321	107.25
591.086	104.25
591.851	98.25
592.616	91.25
593.381	90.25
594.146	88.25
594.911	82.25
595.675	77.25
596.44	72.25
597.204	69.25
597.969	66.25
598.733	64.25
599.497	61.25
600.261	57.25
601.025	53.25
601.79	52.25
602.553	51.25
603.317	49.25
604.081	46.25
604.845	45.25
605.609	41.25
606.372	42.25
607.136	41.25
607.899	38.25
608.662	31.25
609.426	32.25
610.189	33.25
610.952	30.25
611.715	27.25
612.478	30.25
613.241	26.25
614.004	29.25
614.767	27.25
615.529	29.25
616.292	24.25
617.055	20.25
617.817	22.25
618.579	24.25
619.342	19.25
620.104	19.25
620.866	19.25
621.628	21.25
622.39	21.25
623.152	18.25
623.914	17.25
624.676	18.25
625.438	13.25
626.199	15.25
626.961	15.25
627.722	16.25
628.484	13.25
629.245	16.25
630.006	12.25
630.768	18.25
631.529	12.25
632.29	13.25
633.051	11.25
633.812	13.25
634.573	11.25
635.333	9.25
636.094	12.25
636.855	11.25
637.615	10.25
638.376	11.25
639.136	9.25
639.896	9.25
640.657	9.25
641.417	9.25
642.177	11.25
642.937	8.25
643.697	7.25
644.457	8.25
645.216	6.25
645.976	6.25
646.736	7.25
647.495	5.25
648.255	9.25
649.014	8.25
649.774	7.25
650.533	9.25
651.292	8.25
652.051	5.25
652.81	5.25
653.569	3.25
654.328	7.25
655.087	8.25
655.846	7.25
656.604	7.25
657.363	7.25
658.121	5.25
658.88	4.25
659.638	5.25
660.397	5.25
661.155	6.25
661.913	3.25
662.671	7.25
663.429	4.25
664.187	5.25
664.945	4.25
665.703	6.25
666.46	5.25
667.218	3.25
667.976	3.25
668.733	5.25
669.49	5.25
670.248	4.25
671.005	3.25
671.762	5.25
672.519	6.25
673.276	6.25
674.033	6.25
674.79	2.25
675.547	3.25
676.304	4.25
677.06	4.25
677.817	5.25
678.574	5.25
679.33	5.25
680.086	3.25
680.843	3.25
681.599	5.25
682.355	4.25
683.111	3.25
683.867	3.25
684.623	5.25
685.379	3.25
686.135	4.25
686.89	4.25
687.646	3.25
688.402	5.25
689.157	4.25
689.912	4.25
690.668	4.25
691.423	4.25
692.178	5.25
692.933	2.25
693.688	3.25
694.443	3.25
695.198	4.25
695.953	4.25
696.708	2.25
697.462	3.25
698.217	3.25
698.972	3.25
699.726	4.25
700.48	2.25
701.235	3.25
701.989	2.25
702.743	2.25
703.497	1.25
704.251	2.25
705.005	6.25
705.759	3.25
706.513	5.25
707.266	2.25
708.02	5.25
708.774	3.25
709.527	2.25
710.28	3.25
711.034	2.25
711.787	3.25
712.54	2.25
713.293	4.25
714.046	3.25
714.799	1.25
715.552	4.25
716.305	1.25
717.058	3.25
717.81	2.25
718.563	3.25
719.315	2.25
720.068	4.25
720.82	3.25
721.573	2.25
722.325	3.25
723.077	0.25
723.829	4.25
724.581	4.25
725.333	1.25
726.085	6.25
726.836	2.25
727.588	2.25
728.34	4.25
729.091	3.25
729.843	3.25
730.594	4.25
731.346	4.25
732.097	3.25
732.848	4.25
733.599	4.25
734.35	4.25
735.101	2.25
735.852	4.25
736.603	4.25
737.354	5.25
738.104	2.25
738.855	4.25
739.605	4.25
740.356	4.25
741.106	4.25
741.856	3.25
742.607	6.25
743.357	5.25
744.107	6.25
744.857	4.25
745.607	7.25
746.357	5.25
747.106	4.25
747.856	4.25
748.606	5.25
749.355	4.25
750.105	4.25
750.854	1.25
751.603	6.25
752.353	2.25
753.102	5.25
753.851	5.25
754.6	3.25
755.349	3.25
756.098	5.25
756.847	3.25
757.595	8.25
758.344	6.25
759.093	5.25
759.841	6.25
760.589	6.25
761.338	6.25
762.086	7.25
762.834	6.25
763.582	6.25
764.331	7.25
765.079	7.25
765.826	7.25
766.574	7.25
767.322	9.25
768.07	6.25
768.817	6.25
769.565	8.25
770.312	6.25
771.06	8.25
771.807	8.25
772.554	6.25
773.302	8.25
774.049	6.25
774.796	9.25
775.543	7.25
776.29	8.25
777.036	8.25
777.783	7.25
778.53	10.25
779.276	7.25
780.023	7.25
780.769	10.25
781.516	9.25
782.262	8.25
783.008	7.25
783.754	9.25
784.5	9.25
785.246	8.25
785.992	7.25
786.738	7.25
787.484	6.25
788.23	7.25
788.975	9.25
789.721	9.25
790.466	10.25
791.212	8.25
791.957	5.25
792.702	8.25
793.447	8.25
794.193	7.25
794.938	7.25
795.683	7.25
796.427	7.25
797.172	6.25
797.917	8.25
798.662	8.25
799.406	6.25
800.151	5.25
800.895	5.25
801.64	7.25
802.384	7.25
803.128	4.25
803.872	6.25
804.616	6.25
805.36	9.25
806.104	5.25
806.848	5.25
807.592	6.25
808.336	5.25
809.079	4.25
809.823	4.25
810.566	5.25
811.31	4.25
812.053	6.25
812.796	5.25
813.539	7.25
814.283	5.25
815.026	5.25
815.769	5.25
816.511	4.25
817.254	5.25
817.997	6.25
818.74	4.25
819.482	6.25
820.225	6.25
820.967	4.25
821.71	6.25
822.452	3.25
823.194	6.25
823.936	3.25
824.678	5.25
825.42	2.25
826.162	6.25
826.904	3.25
827.646	5.25
828.388	3.25
829.129	2.25
829.871	3.25
830.612	3.25
831.354	3.25
832.095	3.25
832.836	3.25
833.577	5.25
834.319	2.25
835.06	4.25
835.801	4.25
836.542	2.25
837.282	3.25
838.023	1.25
838.764	4.25
839.504	2.25
840.245	4.25
840.985	3.25
841.726	3.25
842.466	2.25
843.206	3.25
843.946	2.25
844.687	6.25
845.427	4.25
846.166	2.25
846.906	6.25
847.646	2.25
848.386	3.25
849.125	2.25
849.865	3.25
850.605	4.25
851.344	1.25
852.083	3.25
852.823	2.25
853.562	3.25
854.301	5.25
855.04	3.25
855.779	2.25
856.518	1.25
857.257	2.25
857.995	4.25
858.734	1.25
859.473	2.25
860.211	2.25
860.95	3.25
861.688	1.25
862.426	3.25
863.165	0.25
863.903	2.25
864.641	1.25
865.379	1.25
866.117	0.25
866.855	-0.75
867.593	0.25
868.33	0.25
869.068	1.25
869.806	0.25
870.543	4.25
871.28	2.25
872.018	2.25
872.755	1.25
873.492	1.25
874.229	3.25
874.967	2.25
875.703	0.25
876.44	0.25
877.177	1.25
877.914	0.25
878.651	1.25
879.387	1.25
880.124	-0.75
880.86	1.25
881.597	2.25
882.333	0.25
883.069	1.25
883.806	2.25
884.542	0.25
885.278	-0.75
886.014	0.25
886.749	0.25
887.485	-0.75
888.221	0.25
888.957	1.25
889.692	-0.75
890.428	-0.75
891.163	0.25
891.899	1.25
892.634	0.25
893.369	1.25
894.104	0.25
894.839	0.25
895.574	1.25
896.309	0.25
897.044	2.25
897.779	-2.75
898.514	1.25
899.248	-0.75
899.983	1.25
900.717	2.25
901.452	0.25
902.186	1.25
902.92	-0.75
903.654	1.25
904.389	-0.75
905.123	1.25
905.857	0.25
906.59	-0.75
907.324	1.25
908.058	1.25
908.792	0.25
909.525	2.25
910.259	-0.75
910.992	0.25
911.726	0.25
912.459	-0.75
913.192	0.25
913.925	0.25
914.658	-0.75
915.391	-1.75
916.124	0.25
916.857	1.25
917.59	0.25
918.323	1.25
919.055	0.25
919.788	-0.75
920.521	-0.75
921.253	0.25
921.985	0.25
922.718	-0.75
923.45	-1.75
924.182	-0.75
924.914	2.25
925.646	1.25
926.378	-0.75
927.11	1.25
927.841	0.25
928.573	1.25
929.305	0.25
930.036	1.25
930.768	1.25
931.499	-1.75
932.23	-0.75
932.962	-2.75
933.693	0.25
934.424	1.25
935.155	1.25
935.886	1.25
936.617	0.25
937.348	-0.75
938.078	0.25
938.809	1.25
939.54	0.25
940.27	-0.75
941.001	-0.75
941.731	1.25
942.461	1.25
943.191	1.25
943.922	-0.75
944.652	0.25
945.382	-0.75
946.112	-1.75
946.841	0.25
947.571	1.25
948.301	0.25
949.031	0.25
949.76	1.25
950.49	1.25
951.219	1.25
951.948	-0.75
952.678	-1.75
953.407	0.25
954.136	-0.75
954.865	0.25
955.594	-0.75
956.323	0.25
957.052	-0.75
957.78	0.25
958.509	-0.75
959.238	0.25
959.966	1.25
960.695	-0.75
961.423	1.25
962.151	0.25
962.88	0.25
963.608	-0.75
964.336	-0.75
965.064	2.25
965.792	0.25
966.52	-0.75
967.247	-0.75
967.975	-1.75
968.703	-1.75
969.43	1.25
970.158	1.25
970.885	1.25
971.613	-1.75
972.34	1.25
973.067	-0.75
973.794	-0.75
974.521	-0.75
975.248	0.25
975.975	-1.75
976.702	0.25
977.429	2.25
978.156	-0.75
978.882	-0.75
979.609	0.25
980.335	1.25
981.062	1.25
981.788	-0.75
982.514	1.25
983.24	0.25
983.967	0.25
984.693	-0.75
985.419	-0.75
986.144	0.25
986.87	-1.75
987.596	0.25
988.322	-0.75
989.047	0.25
989.773	0.25
990.498	-1.75
991.224	1.25
991.949	0.25
992.674	1.25
993.399	0.25
994.124	-0.75
994.849	-0.75
995.574	-1.75
996.299	1.25
997.024	0.25
997.749	2.25
998.473	2.25
999.198	-1.75
999.922	2.25
1000.647	-1.75
1001.371	5.25
1002.095	-0.75
1002.82	-0.75
1003.544	-2.75
1004.268	1.25
1004.992	0.25
1005.716	1.25
1006.439	2.25
1007.163	1.25
1007.887	1.25
1008.611	2.25
1009.334	0.25
1010.058	0.25
1010.781	0.25
1011.504	-0.75
1012.228	1.25
1012.951	-0.75
1013.674	0.25
1014.397	-1.75
1015.12	1.25
