节点500_285_QEPB04081__569__15-05-01-208.txt的数据

Date: Wed Nov 12 15:05:01 CST 2025
User: PC
Spectrometer: QEPB0408
触发模式: 0
积分时间 (秒): 1.000000E-2
Scans to average: 1
启用暗噪声校正: true
启用非线性校正: false
滑动平均宽度: 0
X轴模式: Wavelengths
Number of Pixels in Spectrum: 1044
>>>>>Begin Spectral Data<<<<<
220.843	3.25
221.644	1.25
222.444	3.25
223.244	1.25
224.045	2.25
224.845	2.25
225.645	2.25
226.445	2.25
227.245	4.25
228.045	2.25
228.845	2.25
229.645	1.25
230.444	5.25
231.244	2.25
232.043	5.25
232.843	1.25
233.642	3.25
234.442	4.25
235.241	6.25
236.04	5.25
236.839	2.25
237.638	5.25
238.437	5.25
239.236	4.25
240.035	5.25
240.833	3.25
241.632	6.25
242.43	3.25
243.229	4.25
244.027	4.25
244.826	4.25
245.624	5.25
246.422	3.25
247.22	7.25
248.018	6.25
248.816	5.25
249.614	6.25
250.412	6.25
251.21	9.25
252.007	6.25
252.805	6.25
253.602	10.25
254.4	5.25
255.197	8.25
255.994	7.25
256.791	6.25
257.589	8.25
258.386	7.25
259.183	9.25
259.979	10.25
260.776	11.25
261.573	11.25
262.37	11.25
263.166	12.25
263.963	11.25
264.759	13.25
265.556	12.25
266.352	12.25
267.148	13.25
267.944	13.25
268.74	13.25
269.536	11.25
270.332	14.25
271.128	13.25
271.924	15.25
272.719	17.25
273.515	15.25
274.311	18.25
275.106	14.25
275.901	18.25
276.697	18.25
277.492	18.25
278.287	17.25
279.082	17.25
279.877	17.25
280.672	17.25
281.467	17.25
282.262	16.25
283.056	16.25
283.851	22.25
284.646	17.25
285.44	17.25
286.234	18.25
287.029	19.25
287.823	18.25
288.617	19.25
289.411	19.25
290.205	18.25
290.999	19.25
291.793	16.25
292.587	18.25
293.381	17.25
294.174	16.25
294.968	17.25
295.761	15.25
296.555	17.25
297.348	13.25
298.141	15.25
298.935	16.25
299.728	16.25
300.521	16.25
301.314	14.25
302.107	16.25
302.899	15.25
303.692	13.25
304.485	14.25
305.277	10.25
306.07	13.25
306.862	10.25
307.655	14.25
308.447	12.25
309.239	13.25
310.031	11.25
310.823	11.25
311.615	10.25
312.407	10.25
313.199	9.25
313.991	9.25
314.783	9.25
315.574	9.25
316.366	9.25
317.157	9.25
317.949	8.25
318.74	7.25
319.531	8.25
320.322	8.25
321.113	7.25
321.904	9.25
322.695	7.25
323.486	7.25
324.277	10.25
325.068	6.25
325.858	7.25
326.649	8.25
327.439	7.25
328.23	6.25
329.02	6.25
329.81	7.25
330.6	8.25
331.391	6.25
332.181	7.25
332.971	7.25
333.76	8.25
334.55	6.25
335.34	7.25
336.13	6.25
336.919	3.25
337.709	9.25
338.498	4.25
339.287	7.25
340.077	7.25
340.866	8.25
341.655	6.25
342.444	6.25
343.233	8.25
344.022	6.25
344.811	5.25
345.6	7.25
346.388	6.25
347.177	7.25
347.965	5.25
348.754	7.25
349.542	7.25
350.33	6.25
351.119	5.25
351.907	6.25
352.695	6.25
353.483	5.25
354.271	5.25
355.059	5.25
355.846	7.25
356.634	6.25
357.422	6.25
358.209	6.25
358.997	7.25
359.784	5.25
360.571	5.25
361.359	5.25
362.146	3.25
362.933	6.25
363.72	6.25
364.507	6.25
365.294	6.25
366.081	5.25
366.867	5.25
367.654	4.25
368.44	5.25
369.227	2.25
370.013	4.25
370.8	6.25
371.586	4.25
372.372	6.25
373.158	1.25
373.944	4.25
374.73	7.25
375.516	5.25
376.302	4.25
377.088	3.25
377.873	5.25
378.659	6.25
379.445	5.25
380.23	6.25
381.015	4.25
381.801	5.25
382.586	5.25
383.371	5.25
384.156	4.25
384.941	5.25
385.726	7.25
386.511	8.25
387.296	5.25
388.08	4.25
388.865	5.25
389.649	7.25
390.434	3.25
391.218	6.25
392.003	5.25
392.787	6.25
393.571	8.25
394.355	7.25
395.139	6.25
395.923	5.25
396.707	4.25
397.491	7.25
398.274	5.25
399.058	4.25
399.842	7.25
400.625	5.25
401.408	6.25
402.192	6.25
402.975	7.25
403.758	9.25
404.541	6.25
405.324	5.25
406.107	4.25
406.89	5.25
407.673	7.25
408.456	8.25
409.238	9.25
410.021	6.25
410.803	6.25
411.586	9.25
412.368	9.25
413.151	11.25
413.933	8.25
414.715	9.25
415.497	9.25
416.279	9.25
417.061	9.25
417.843	10.25
418.624	7.25
419.406	8.25
420.188	10.25
420.969	11.25
421.751	10.25
422.532	12.25
423.313	10.25
424.095	11.25
424.876	11.25
425.657	13.25
426.438	11.25
427.219	12.25
428	12.25
428.78	14.25
429.561	11.25
430.342	13.25
431.122	15.25
431.903	14.25
432.683	11.25
433.464	11.25
434.244	16.25
435.024	17.25
435.804	16.25
436.584	19.25
437.364	22.25
438.144	21.25
438.924	22.25
439.704	20.25
440.483	22.25
441.263	26.25
442.042	24.25
442.822	28.25
443.601	28.25
444.38	32.25
445.16	30.25
445.939	37.25
446.718	35.25
447.497	37.25
448.276	41.25
449.054	47.25
449.833	50.25
450.612	58.25
451.391	58.25
452.169	63.25
452.948	73.25
453.726	79.25
454.504	89.25
455.282	93.25
456.061	106.25
456.839	118.25
457.617	130.25
458.395	143.25
459.172	157.25
459.95	182.25
460.728	202.25
461.506	217.25
462.283	248.25
463.061	273.25
463.838	303.25
464.615	340.25
465.393	374.25
466.17	426.25
466.947	476.25
467.724	529.25
468.501	584.25
469.278	643.25
470.055	716.25
470.831	796.25
471.608	885.25
472.385	973.25
473.161	1090.25
473.938	1190.25
474.714	1325.25
475.49	1442.25
476.266	1600.25
477.043	1776.25
477.819	1948.25
478.595	2147.25
479.371	2364.25
480.146	2587.25
480.922	2849.25
481.698	3106.25
482.473	3426.25
483.249	3748.25
484.024	4104.25
484.8	4505.25
485.575	4919.25
486.35	5389.25
487.126	5891.25
487.901	6430.25
488.676	7050.25
489.451	7705.25
490.225	8405.25
491	9096.25
491.775	9928.25
492.55	10810.25
493.324	11645.25
494.099	12613.25
494.873	13481.25
495.647	14602.25
496.422	15668.25
497.196	16703.25
497.97	17898.25
498.744	19000.25
499.518	20110.25
500.292	21191.25
501.066	22250.25
501.839	23119.25
502.613	24038.25
503.387	24910.25
504.16	25596.25
504.934	25977.25
505.707	26238.25
506.48	26487.25
507.253	26483.25
508.027	26334.25
508.8	26097.25
509.573	25851.25
510.346	25350.25
511.118	24743.25
511.891	24019.25
512.664	23343.25
513.437	22595.25
514.209	21649.25
514.982	20816.25
515.754	19935.25
516.526	19104.25
517.298	18319.25
518.071	17503.25
518.843	16826.25
519.615	16224.25
520.387	15554.25
521.159	14992.25
521.93	14327.25
522.702	13778.25
523.474	13218.25
524.245	12623.25
525.017	12107.25
525.788	11692.25
526.56	11130.25
527.331	10648.25
528.102	10158.25
528.873	9703.25
529.644	9206.25
530.415	8811.25
531.186	8398.25
531.957	7940.25
532.728	7568.25
533.498	7187.25
534.269	6780.25
535.039	6425.25
535.81	6080.25
536.58	5768.25
537.351	5410.25
538.121	5114.25
538.891	4834.25
539.661	4560.25
540.431	4327.25
541.201	4080.25
541.971	3852.25
542.741	3667.25
543.51	3494.25
544.28	3329.25
545.05	3154.25
545.819	3000.25
546.588	2848.25
547.358	2708.25
548.127	2574.25
548.896	2449.25
549.665	2312.25
550.434	2189.25
551.203	2084.25
551.972	1969.25
552.741	1859.25
553.51	1760.25
554.278	1673.25
555.047	1586.25
555.815	1499.25
556.584	1403.25
557.352	1344.25
558.121	1250.25
558.889	1191.25
559.657	1109.25
560.425	1063.25
561.193	998.25
561.961	946.25
562.729	892.25
563.496	845.25
564.264	787.25
565.032	756.25
565.799	713.25
566.567	667.25
567.334	638.25
568.101	607.25
568.869	570.25
569.636	530.25
570.403	501.25
571.17	474.25
571.937	442.25
572.704	425.25
573.471	401.25
574.237	370.25
575.004	355.25
575.771	332.25
576.537	312.25
577.303	296.25
578.07	282.25
578.836	260.25
579.602	249.25
580.368	231.25
581.134	221.25
581.9	213.25
582.666	206.25
583.432	189.25
584.198	181.25
584.964	174.25
585.729	162.25
586.495	154.25
587.26	147.25
588.025	137.25
588.791	127.25
589.556	121.25
590.321	116.25
591.086	112.25
591.851	105.25
592.616	100.25
593.381	96.25
594.146	91.25
594.911	89.25
595.675	79.25
596.44	77.25
597.204	76.25
597.969	71.25
598.733	67.25
599.497	69.25
600.261	63.25
601.025	59.25
601.79	59.25
602.553	57.25
603.317	53.25
604.081	52.25
604.845	50.25
605.609	47.25
606.372	45.25
607.136	44.25
607.899	44.25
608.662	39.25
609.426	36.25
610.189	38.25
610.952	32.25
611.715	34.25
612.478	31.25
613.241	29.25
614.004	30.25
614.767	25.25
615.529	28.25
616.292	26.25
617.055	25.25
617.817	25.25
618.579	24.25
619.342	27.25
620.104	23.25
620.866	19.25
621.628	19.25
622.39	18.25
623.152	19.25
623.914	17.25
624.676	21.25
625.438	17.25
626.199	17.25
626.961	17.25
627.722	17.25
628.484	18.25
629.245	16.25
630.006	13.25
630.768	15.25
631.529	13.25
632.29	14.25
633.051	14.25
633.812	13.25
634.573	10.25
635.333	12.25
636.094	11.25
636.855	14.25
637.615	10.25
638.376	11.25
639.136	13.25
639.896	8.25
640.657	5.25
641.417	11.25
642.177	11.25
642.937	13.25
643.697	6.25
644.457	8.25
645.216	8.25
645.976	8.25
646.736	8.25
647.495	7.25
648.255	8.25
649.014	8.25
649.774	8.25
650.533	9.25
651.292	7.25
652.051	10.25
652.81	6.25
653.569	7.25
654.328	5.25
655.087	9.25
655.846	5.25
656.604	5.25
657.363	7.25
658.121	6.25
658.88	6.25
659.638	6.25
660.397	6.25
661.155	4.25
661.913	6.25
662.671	5.25
663.429	6.25
664.187	4.25
664.945	5.25
665.703	5.25
666.46	3.25
667.218	6.25
667.976	7.25
668.733	6.25
669.49	4.25
670.248	5.25
671.005	4.25
671.762	7.25
672.519	4.25
673.276	6.25
674.033	6.25
674.79	4.25
675.547	5.25
676.304	3.25
677.06	4.25
677.817	4.25
678.574	5.25
679.33	0.25
680.086	0.25
680.843	6.25
681.599	4.25
682.355	3.25
683.111	6.25
683.867	4.25
684.623	1.25
685.379	3.25
686.135	7.25
686.89	2.25
687.646	5.25
688.402	2.25
689.157	3.25
689.912	4.25
690.668	4.25
691.423	3.25
692.178	4.25
692.933	4.25
693.688	0.25
694.443	3.25
695.198	2.25
695.953	5.25
696.708	4.25
697.462	5.25
698.217	2.25
698.972	5.25
699.726	3.25
700.48	2.25
701.235	1.25
701.989	3.25
702.743	3.25
703.497	4.25
704.251	2.25
705.005	3.25
705.759	4.25
706.513	3.25
707.266	2.25
708.02	6.25
708.774	2.25
709.527	4.25
710.28	2.25
711.034	4.25
711.787	4.25
712.54	4.25
713.293	3.25
714.046	2.25
714.799	4.25
715.552	4.25
716.305	5.25
717.058	5.25
717.81	3.25
718.563	2.25
719.315	5.25
720.068	4.25
720.82	4.25
721.573	3.25
722.325	4.25
723.077	2.25
723.829	5.25
724.581	3.25
725.333	5.25
726.085	4.25
726.836	4.25
727.588	4.25
728.34	1.25
729.091	7.25
729.843	1.25
730.594	4.25
731.346	4.25
732.097	2.25
732.848	6.25
733.599	4.25
734.35	5.25
735.101	5.25
735.852	5.25
736.603	4.25
737.354	5.25
738.104	5.25
738.855	2.25
739.605	6.25
740.356	6.25
741.106	4.25
741.856	8.25
742.607	3.25
743.357	5.25
744.107	5.25
744.857	4.25
745.607	5.25
746.357	5.25
747.106	6.25
747.856	5.25
748.606	5.25
749.355	4.25
750.105	4.25
750.854	2.25
751.603	6.25
752.353	5.25
753.102	4.25
753.851	4.25
754.6	3.25
755.349	6.25
756.098	5.25
756.847	6.25
757.595	8.25
758.344	3.25
759.093	8.25
759.841	6.25
760.589	5.25
761.338	6.25
762.086	5.25
762.834	4.25
763.582	5.25
764.331	2.25
765.079	7.25
765.826	8.25
766.574	7.25
767.322	7.25
768.07	7.25
768.817	8.25
769.565	7.25
770.312	8.25
771.06	6.25
771.807	8.25
772.554	7.25
773.302	7.25
774.049	9.25
774.796	9.25
775.543	10.25
776.29	7.25
777.036	8.25
777.783	7.25
778.53	8.25
779.276	10.25
780.023	9.25
780.769	7.25
781.516	7.25
782.262	9.25
783.008	7.25
783.754	8.25
784.5	7.25
785.246	8.25
785.992	8.25
786.738	8.25
787.484	9.25
788.23	10.25
788.975	9.25
789.721	9.25
790.466	8.25
791.212	13.25
791.957	7.25
792.702	10.25
793.447	8.25
794.193	8.25
794.938	6.25
795.683	8.25
796.427	10.25
797.172	8.25
797.917	11.25
798.662	7.25
799.406	6.25
800.151	8.25
800.895	4.25
801.64	7.25
802.384	8.25
803.128	5.25
803.872	4.25
804.616	5.25
805.36	9.25
806.104	7.25
806.848	6.25
807.592	9.25
808.336	8.25
809.079	6.25
809.823	7.25
810.566	5.25
811.31	8.25
812.053	8.25
812.796	5.25
813.539	3.25
814.283	8.25
815.026	5.25
815.769	6.25
816.511	5.25
817.254	7.25
817.997	4.25
818.74	5.25
819.482	4.25
820.225	4.25
820.967	4.25
821.71	4.25
822.452	5.25
823.194	6.25
823.936	5.25
824.678	5.25
825.42	4.25
826.162	5.25
826.904	5.25
827.646	4.25
828.388	5.25
829.129	4.25
829.871	2.25
830.612	3.25
831.354	5.25
832.095	2.25
832.836	3.25
833.577	2.25
834.319	2.25
835.06	6.25
835.801	2.25
836.542	3.25
837.282	1.25
838.023	3.25
838.764	5.25
839.504	3.25
840.245	5.25
840.985	5.25
841.726	4.25
842.466	2.25
843.206	3.25
843.946	4.25
844.687	4.25
845.427	2.25
846.166	2.25
846.906	2.25
847.646	2.25
848.386	3.25
849.125	2.25
849.865	4.25
850.605	3.25
851.344	2.25
852.083	2.25
852.823	5.25
853.562	3.25
854.301	4.25
855.04	1.25
855.779	4.25
856.518	4.25
857.257	2.25
857.995	3.25
858.734	2.25
859.473	4.25
860.211	2.25
860.95	1.25
861.688	2.25
862.426	2.25
863.165	4.25
863.903	2.25
864.641	5.25
865.379	3.25
866.117	1.25
866.855	2.25
867.593	3.25
868.33	2.25
869.068	2.25
869.806	-0.75
870.543	1.25
871.28	-1.75
872.018	2.25
872.755	1.25
873.492	1.25
874.229	2.25
874.967	2.25
875.703	1.25
876.44	0.25
877.177	2.25
877.914	2.25
878.651	2.25
879.387	-0.75
880.124	0.25
880.86	2.25
881.597	0.25
882.333	1.25
883.069	1.25
883.806	2.25
884.542	0.25
885.278	1.25
886.014	1.25
886.749	0.25
887.485	4.25
888.221	-1.75
888.957	0.25
889.692	1.25
890.428	0.25
891.163	1.25
891.899	0.25
892.634	2.25
893.369	1.25
894.104	0.25
894.839	0.25
895.574	0.25
896.309	2.25
897.044	2.25
897.779	1.25
898.514	3.25
899.248	1.25
899.983	2.25
900.717	0.25
901.452	1.25
902.186	0.25
902.92	4.25
903.654	1.25
904.389	-1.75
905.123	0.25
905.857	1.25
906.59	0.25
907.324	-0.75
908.058	0.25
908.792	-1.75
909.525	0.25
910.259	0.25
910.992	-1.75
911.726	2.25
912.459	2.25
913.192	1.25
913.925	0.25
914.658	-0.75
915.391	1.25
916.124	1.25
916.857	2.25
917.59	2.25
918.323	0.25
919.055	0.25
919.788	1.25
920.521	1.25
921.253	0.25
921.985	-0.75
922.718	1.25
923.45	2.25
924.182	0.25
924.914	0.25
925.646	1.25
926.378	0.25
927.11	2.25
927.841	2.25
928.573	-1.75
929.305	1.25
930.036	-1.75
930.768	-1.75
931.499	1.25
932.23	0.25
932.962	-1.75
933.693	-1.75
934.424	0.25
935.155	-0.75
935.886	0.25
936.617	0.25
937.348	-0.75
938.078	0.25
938.809	1.25
939.54	1.25
940.27	0.25
941.001	-1.75
941.731	0.25
942.461	-0.75
943.191	0.25
943.922	-0.75
944.652	2.25
945.382	0.25
946.112	1.25
946.841	-0.75
947.571	-0.75
948.301	-0.75
949.031	-0.75
949.76	0.25
950.49	0.25
951.219	0.25
951.948	1.25
952.678	0.25
953.407	1.25
954.136	2.25
954.865	3.25
955.594	1.25
956.323	2.25
957.052	1.25
957.78	0.25
958.509	0.25
959.238	-1.75
959.966	1.25
960.695	-0.75
961.423	-0.75
962.151	1.25
962.88	-0.75
963.608	0.25
964.336	0.25
965.064	-1.75
965.792	1.25
966.52	-0.75
967.247	0.25
967.975	1.25
968.703	-0.75
969.43	1.25
970.158	0.25
970.885	1.25
971.613	0.25
972.34	1.25
973.067	-0.75
973.794	2.25
974.521	1.25
975.248	0.25
975.975	1.25
976.702	1.25
977.429	2.25
978.156	0.25
978.882	2.25
979.609	1.25
980.335	-0.75
981.062	2.25
981.788	-0.75
982.514	0.25
983.24	2.25
983.967	1.25
984.693	0.25
985.419	-0.75
986.144	1.25
986.87	1.25
987.596	1.25
988.322	0.25
989.047	0.25
989.773	-1.75
990.498	0.25
991.224	2.25
991.949	-1.75
992.674	-2.75
993.399	-1.75
994.124	1.25
994.849	-0.75
995.574	-0.75
996.299	1.25
997.024	1.25
997.749	2.25
998.473	1.25
999.198	1.25
999.922	0.25
1000.647	-0.75
1001.371	2.25
1002.095	2.25
1002.82	-1.75
1003.544	-1.75
1004.268	0.25
1004.992	3.25
1005.716	1.25
1006.439	1.25
1007.163	5.25
1007.887	2.25
1008.611	3.25
1009.334	0.25
1010.058	1.25
1010.781	-0.75
1011.504	-0.75
1012.228	1.25
1012.951	1.25
1013.674	-1.75
1014.397	1.25
1015.12	-1.75
