节点500_285_QEPB04081__502__15-03-54-391.txt的数据

Date: Wed Nov 12 15:03:54 CST 2025
User: PC
Spectrometer: QEPB0408
触发模式: 0
积分时间 (秒): 1.000000E-2
Scans to average: 1
启用暗噪声校正: true
启用非线性校正: false
滑动平均宽度: 0
X轴模式: Wavelengths
Number of Pixels in Spectrum: 1044
>>>>>Begin Spectral Data<<<<<
220.843	2.38
221.644	2.38
222.444	2.38
223.244	3.38
224.045	1.38
224.845	5.38
225.645	3.38
226.445	1.38
227.245	2.38
228.045	4.38
228.845	4.38
229.645	3.38
230.444	2.38
231.244	4.38
232.043	4.38
232.843	4.38
233.642	3.38
234.442	2.38
235.241	4.38
236.04	3.38
236.839	4.38
237.638	2.38
238.437	5.38
239.236	1.38
240.035	5.38
240.833	4.38
241.632	4.38
242.43	4.38
243.229	4.38
244.027	4.38
244.826	5.38
245.624	7.38
246.422	5.38
247.22	5.38
248.018	4.38
248.816	5.38
249.614	7.38
250.412	7.38
251.21	7.38
252.007	8.38
252.805	7.38
253.602	7.38
254.4	4.38
255.197	7.38
255.994	9.38
256.791	6.38
257.589	9.38
258.386	7.38
259.183	11.38
259.979	7.38
260.776	8.38
261.573	9.38
262.37	8.38
263.166	12.38
263.963	9.38
264.759	12.38
265.556	12.38
266.352	11.38
267.148	10.38
267.944	10.38
268.74	12.38
269.536	11.38
270.332	13.38
271.128	14.38
271.924	15.38
272.719	14.38
273.515	14.38
274.311	15.38
275.106	17.38
275.901	15.38
276.697	17.38
277.492	14.38
278.287	19.38
279.082	16.38
279.877	18.38
280.672	18.38
281.467	18.38
282.262	19.38
283.056	19.38
283.851	17.38
284.646	17.38
285.44	19.38
286.234	18.38
287.029	18.38
287.823	19.38
288.617	19.38
289.411	16.38
290.205	15.38
290.999	17.38
291.793	14.38
292.587	16.38
293.381	19.38
294.174	16.38
294.968	18.38
295.761	16.38
296.555	16.38
297.348	13.38
298.141	13.38
298.935	17.38
299.728	13.38
300.521	14.38
301.314	17.38
302.107	13.38
302.899	14.38
303.692	14.38
304.485	13.38
305.277	12.38
306.07	13.38
306.862	15.38
307.655	12.38
308.447	11.38
309.239	11.38
310.031	13.38
310.823	13.38
311.615	11.38
312.407	10.38
313.199	10.38
313.991	10.38
314.783	9.38
315.574	10.38
316.366	9.38
317.157	8.38
317.949	8.38
318.74	7.38
319.531	7.38
320.322	8.38
321.113	8.38
321.904	8.38
322.695	7.38
323.486	8.38
324.277	7.38
325.068	6.38
325.858	7.38
326.649	9.38
327.439	7.38
328.23	8.38
329.02	7.38
329.81	6.38
330.6	8.38
331.391	6.38
332.181	8.38
332.971	7.38
333.76	6.38
334.55	7.38
335.34	9.38
336.13	8.38
336.919	8.38
337.709	7.38
338.498	5.38
339.287	8.38
340.077	8.38
340.866	7.38
341.655	8.38
342.444	6.38
343.233	8.38
344.022	7.38
344.811	5.38
345.6	9.38
346.388	6.38
347.177	5.38
347.965	5.38
348.754	5.38
349.542	8.38
350.33	6.38
351.119	8.38
351.907	6.38
352.695	5.38
353.483	6.38
354.271	4.38
355.059	5.38
355.846	6.38
356.634	4.38
357.422	5.38
358.209	7.38
358.997	6.38
359.784	4.38
360.571	6.38
361.359	6.38
362.146	7.38
362.933	4.38
363.72	5.38
364.507	5.38
365.294	5.38
366.081	6.38
366.867	3.38
367.654	6.38
368.44	7.38
369.227	5.38
370.013	5.38
370.8	5.38
371.586	5.38
372.372	7.38
373.158	4.38
373.944	5.38
374.73	4.38
375.516	4.38
376.302	3.38
377.088	6.38
377.873	5.38
378.659	6.38
379.445	7.38
380.23	3.38
381.015	4.38
381.801	6.38
382.586	3.38
383.371	7.38
384.156	5.38
384.941	4.38
385.726	3.38
386.511	8.38
387.296	5.38
388.08	5.38
388.865	6.38
389.649	4.38
390.434	7.38
391.218	6.38
392.003	6.38
392.787	4.38
393.571	5.38
394.355	6.38
395.139	5.38
395.923	5.38
396.707	5.38
397.491	7.38
398.274	8.38
399.058	5.38
399.842	6.38
400.625	7.38
401.408	9.38
402.192	8.38
402.975	6.38
403.758	6.38
404.541	7.38
405.324	8.38
406.107	5.38
406.89	11.38
407.673	6.38
408.456	9.38
409.238	9.38
410.021	7.38
410.803	8.38
411.586	10.38
412.368	9.38
413.151	9.38
413.933	8.38
414.715	9.38
415.497	8.38
416.279	11.38
417.061	9.38
417.843	10.38
418.624	10.38
419.406	11.38
420.188	10.38
420.969	7.38
421.751	10.38
422.532	10.38
423.313	10.38
424.095	10.38
424.876	10.38
425.657	14.38
426.438	13.38
427.219	12.38
428	12.38
428.78	13.38
429.561	17.38
430.342	13.38
431.122	16.38
431.903	13.38
432.683	14.38
433.464	19.38
434.244	16.38
435.024	18.38
435.804	18.38
436.584	20.38
437.364	20.38
438.144	18.38
438.924	23.38
439.704	21.38
440.483	21.38
441.263	28.38
442.042	24.38
442.822	25.38
443.601	26.38
444.38	29.38
445.16	32.38
445.939	37.38
446.718	37.38
447.497	38.38
448.276	42.38
449.054	49.38
449.833	49.38
450.612	54.38
451.391	60.38
452.169	66.38
452.948	67.38
453.726	77.38
454.504	86.38
455.282	93.38
456.061	101.38
456.839	115.38
457.617	133.38
458.395	138.38
459.172	156.38
459.95	169.38
460.728	193.38
461.506	216.38
462.283	242.38
463.061	267.38
463.838	302.38
464.615	341.38
465.393	370.38
466.17	416.38
466.947	453.38
467.724	517.38
468.501	570.38
469.278	640.38
470.055	707.38
470.831	791.38
471.608	864.38
472.385	970.38
473.161	1082.38
473.938	1182.38
474.714	1319.38
475.49	1442.38
476.266	1604.38
477.043	1743.38
477.819	1956.38
478.595	2144.38
479.371	2354.38
480.146	2583.38
480.922	2860.38
481.698	3111.38
482.473	3431.38
483.249	3762.38
484.024	4148.38
484.8	4532.38
485.575	4960.38
486.35	5432.38
487.126	5956.38
487.901	6538.38
488.676	7153.38
489.451	7798.38
490.225	8534.38
491	9268.38
491.775	10120.38
492.55	11000.38
493.324	11860.38
494.099	12802.38
494.873	13751.38
495.647	14863.38
496.422	15978.38
497.196	17078.38
497.97	18229.38
498.744	19348.38
499.518	20426.38
500.292	21568.38
501.066	22650.38
501.839	23566.38
502.613	24512.38
503.387	25275.38
504.16	25979.38
504.934	26378.38
505.707	26593.38
506.48	26715.38
507.253	26793.38
508.027	26546.38
508.8	26267.38
509.573	26041.38
510.346	25468.38
511.118	24823.38
511.891	24056.38
512.664	23337.38
513.437	22509.38
514.209	21656.38
514.982	20753.38
515.754	19793.38
516.526	18984.38
517.298	18172.38
518.071	17414.38
518.843	16703.38
519.615	16104.38
520.387	15463.38
521.159	14854.38
521.93	14247.38
522.702	13704.38
523.474	13185.38
524.245	12560.38
525.017	12055.38
525.788	11604.38
526.56	11074.38
527.331	10580.38
528.102	10114.38
528.873	9648.38
529.644	9151.38
530.415	8721.38
531.186	8298.38
531.957	7857.38
532.728	7514.38
533.498	7117.38
534.269	6702.38
535.039	6329.38
535.81	5992.38
536.58	5690.38
537.351	5336.38
538.121	5062.38
538.891	4760.38
539.661	4509.38
540.431	4273.38
541.201	4035.38
541.971	3814.38
542.741	3626.38
543.51	3417.38
544.28	3269.38
545.05	3106.38
545.819	2975.38
546.588	2816.38
547.358	2681.38
548.127	2560.38
548.896	2406.38
549.665	2279.38
550.434	2168.38
551.203	2056.38
551.972	1947.38
552.741	1839.38
553.51	1755.38
554.278	1655.38
555.047	1546.38
555.815	1479.38
556.584	1387.38
557.352	1314.38
558.121	1234.38
558.889	1156.38
559.657	1116.38
560.425	1046.38
561.193	991.38
561.961	938.38
562.729	876.38
563.496	824.38
564.264	781.38
565.032	738.38
565.799	700.38
566.567	658.38
567.334	618.38
568.101	587.38
568.869	561.38
569.636	522.38
570.403	490.38
571.17	465.38
571.937	440.38
572.704	415.38
573.471	391.38
574.237	370.38
575.004	354.38
575.771	328.38
576.537	310.38
577.303	297.38
578.07	275.38
578.836	258.38
579.602	241.38
580.368	230.38
581.134	218.38
581.9	210.38
582.666	196.38
583.432	183.38
584.198	176.38
584.964	167.38
585.729	158.38
586.495	153.38
587.26	140.38
588.025	135.38
588.791	128.38
589.556	122.38
590.321	117.38
591.086	109.38
591.851	100.38
592.616	97.38
593.381	94.38
594.146	89.38
594.911	87.38
595.675	80.38
596.44	74.38
597.204	73.38
597.969	70.38
598.733	67.38
599.497	61.38
600.261	62.38
601.025	55.38
601.79	54.38
602.553	55.38
603.317	49.38
604.081	49.38
604.845	46.38
605.609	44.38
606.372	44.38
607.136	43.38
607.899	37.38
608.662	38.38
609.426	38.38
610.189	40.38
610.952	34.38
611.715	32.38
612.478	31.38
613.241	29.38
614.004	27.38
614.767	28.38
615.529	26.38
616.292	25.38
617.055	25.38
617.817	24.38
618.579	25.38
619.342	22.38
620.104	19.38
620.866	21.38
621.628	18.38
622.39	20.38
623.152	20.38
623.914	19.38
624.676	20.38
625.438	17.38
626.199	17.38
626.961	18.38
627.722	15.38
628.484	16.38
629.245	14.38
630.006	13.38
630.768	11.38
631.529	14.38
632.29	12.38
633.051	12.38
633.812	12.38
634.573	14.38
635.333	12.38
636.094	10.38
636.855	10.38
637.615	12.38
638.376	10.38
639.136	10.38
639.896	6.38
640.657	9.38
641.417	9.38
642.177	10.38
642.937	10.38
643.697	6.38
644.457	8.38
645.216	7.38
645.976	8.38
646.736	8.38
647.495	7.38
648.255	9.38
649.014	5.38
649.774	7.38
650.533	9.38
651.292	5.38
652.051	6.38
652.81	8.38
653.569	7.38
654.328	6.38
655.087	7.38
655.846	5.38
656.604	5.38
657.363	9.38
658.121	6.38
658.88	6.38
659.638	7.38
660.397	8.38
661.155	5.38
661.913	7.38
662.671	6.38
663.429	7.38
664.187	7.38
664.945	7.38
665.703	6.38
666.46	7.38
667.218	1.38
667.976	5.38
668.733	6.38
669.49	6.38
670.248	4.38
671.005	8.38
671.762	5.38
672.519	5.38
673.276	4.38
674.033	5.38
674.79	4.38
675.547	3.38
676.304	6.38
677.06	4.38
677.817	3.38
678.574	3.38
679.33	3.38
680.086	6.38
680.843	3.38
681.599	3.38
682.355	7.38
683.111	6.38
683.867	4.38
684.623	3.38
685.379	4.38
686.135	4.38
686.89	5.38
687.646	4.38
688.402	3.38
689.157	4.38
689.912	4.38
690.668	3.38
691.423	4.38
692.178	5.38
692.933	5.38
693.688	5.38
694.443	5.38
695.198	4.38
695.953	4.38
696.708	4.38
697.462	4.38
698.217	3.38
698.972	3.38
699.726	5.38
700.48	3.38
701.235	3.38
701.989	5.38
702.743	3.38
703.497	3.38
704.251	3.38
705.005	4.38
705.759	2.38
706.513	1.38
707.266	7.38
708.02	6.38
708.774	4.38
709.527	5.38
710.28	5.38
711.034	3.38
711.787	3.38
712.54	2.38
713.293	3.38
714.046	5.38
714.799	4.38
715.552	3.38
716.305	5.38
717.058	5.38
717.81	4.38
718.563	4.38
719.315	5.38
720.068	1.38
720.82	4.38
721.573	2.38
722.325	1.38
723.077	4.38
723.829	5.38
724.581	4.38
725.333	3.38
726.085	2.38
726.836	4.38
727.588	2.38
728.34	4.38
729.091	2.38
729.843	5.38
730.594	2.38
731.346	4.38
732.097	3.38
732.848	6.38
733.599	5.38
734.35	5.38
735.101	3.38
735.852	6.38
736.603	5.38
737.354	4.38
738.104	4.38
738.855	3.38
739.605	4.38
740.356	4.38
741.106	6.38
741.856	4.38
742.607	5.38
743.357	5.38
744.107	4.38
744.857	5.38
745.607	7.38
746.357	6.38
747.106	6.38
747.856	6.38
748.606	6.38
749.355	6.38
750.105	6.38
750.854	3.38
751.603	5.38
752.353	6.38
753.102	6.38
753.851	7.38
754.6	5.38
755.349	6.38
756.098	6.38
756.847	6.38
757.595	5.38
758.344	6.38
759.093	7.38
759.841	5.38
760.589	6.38
761.338	6.38
762.086	8.38
762.834	6.38
763.582	8.38
764.331	7.38
765.079	8.38
765.826	7.38
766.574	5.38
767.322	8.38
768.07	8.38
768.817	7.38
769.565	7.38
770.312	8.38
771.06	8.38
771.807	6.38
772.554	7.38
773.302	7.38
774.049	7.38
774.796	8.38
775.543	9.38
776.29	8.38
777.036	9.38
777.783	6.38
778.53	8.38
779.276	9.38
780.023	7.38
780.769	8.38
781.516	10.38
782.262	9.38
783.008	9.38
783.754	10.38
784.5	6.38
785.246	8.38
785.992	9.38
786.738	10.38
787.484	7.38
788.23	8.38
788.975	9.38
789.721	7.38
790.466	11.38
791.212	8.38
791.957	7.38
792.702	9.38
793.447	8.38
794.193	7.38
794.938	10.38
795.683	7.38
796.427	7.38
797.172	10.38
797.917	7.38
798.662	7.38
799.406	9.38
800.151	8.38
800.895	7.38
801.64	9.38
802.384	10.38
803.128	7.38
803.872	6.38
804.616	7.38
805.36	6.38
806.104	5.38
806.848	8.38
807.592	4.38
808.336	8.38
809.079	7.38
809.823	7.38
810.566	5.38
811.31	6.38
812.053	5.38
812.796	7.38
813.539	8.38
814.283	2.38
815.026	4.38
815.769	5.38
816.511	3.38
817.254	5.38
817.997	4.38
818.74	5.38
819.482	4.38
820.225	5.38
820.967	6.38
821.71	3.38
822.452	4.38
823.194	4.38
823.936	6.38
824.678	3.38
825.42	5.38
826.162	6.38
826.904	3.38
827.646	6.38
828.388	5.38
829.129	4.38
829.871	4.38
830.612	3.38
831.354	4.38
832.095	1.38
832.836	5.38
833.577	4.38
834.319	4.38
835.06	5.38
835.801	1.38
836.542	4.38
837.282	4.38
838.023	4.38
838.764	5.38
839.504	3.38
840.245	5.38
840.985	2.38
841.726	5.38
842.466	4.38
843.206	2.38
843.946	2.38
844.687	3.38
845.427	2.38
846.166	2.38
846.906	3.38
847.646	4.38
848.386	3.38
849.125	3.38
849.865	0.38
850.605	6.38
851.344	3.38
852.083	4.38
852.823	4.38
853.562	2.38
854.301	2.38
855.04	2.38
855.779	1.38
856.518	3.38
857.257	0.38
857.995	3.38
858.734	2.38
859.473	2.38
860.211	0.38
860.95	2.38
861.688	3.38
862.426	3.38
863.165	2.38
863.903	1.38
864.641	2.38
865.379	1.38
866.117	2.38
866.855	1.38
867.593	1.38
868.33	2.38
869.068	1.38
869.806	2.38
870.543	4.38
871.28	-0.62
872.018	3.38
872.755	0.38
873.492	1.38
874.229	2.38
874.967	0.38
875.703	2.38
876.44	0.38
877.177	2.38
877.914	0.38
878.651	1.38
879.387	0.38
880.124	1.38
880.86	1.38
881.597	1.38
882.333	2.38
883.069	2.38
883.806	1.38
884.542	3.38
885.278	-0.62
886.014	-0.62
886.749	2.38
887.485	2.38
888.221	0.38
888.957	2.38
889.692	3.38
890.428	1.38
891.163	1.38
891.899	1.38
892.634	2.38
893.369	-1.62
894.104	1.38
894.839	2.38
895.574	0.38
896.309	1.38
897.044	0.38
897.779	1.38
898.514	1.38
899.248	1.38
899.983	1.38
900.717	0.38
901.452	2.38
902.186	1.38
902.92	0.38
903.654	1.38
904.389	3.38
905.123	0.38
905.857	0.38
906.59	2.38
907.324	-0.62
908.058	0.38
908.792	1.38
909.525	0.38
910.259	-1.62
910.992	2.38
911.726	1.38
912.459	0.38
913.192	0.38
913.925	0.38
914.658	0.38
915.391	2.38
916.124	-0.62
916.857	0.38
917.59	2.38
918.323	2.38
919.055	0.38
919.788	-0.62
920.521	-1.62
921.253	3.38
921.985	2.38
922.718	0.38
923.45	0.38
924.182	-0.62
924.914	-0.62
925.646	1.38
926.378	-0.62
927.11	1.38
927.841	1.38
928.573	-1.62
929.305	1.38
930.036	1.38
930.768	-0.62
931.499	1.38
932.23	1.38
932.962	0.38
933.693	-1.62
934.424	2.38
935.155	2.38
935.886	0.38
936.617	0.38
937.348	-1.62
938.078	-1.62
938.809	1.38
939.54	-1.62
940.27	0.38
941.001	-0.62
941.731	1.38
942.461	-1.62
943.191	-0.62
943.922	0.38
944.652	0.38
945.382	2.38
946.112	0.38
946.841	-1.62
947.571	-1.62
948.301	0.38
949.031	-0.62
949.76	2.38
950.49	0.38
951.219	2.38
951.948	1.38
952.678	0.38
953.407	1.38
954.136	0.38
954.865	1.38
955.594	0.38
956.323	1.38
957.052	-0.62
957.78	1.38
958.509	2.38
959.238	0.38
959.966	0.38
960.695	-0.62
961.423	1.38
962.151	2.38
962.88	-0.62
963.608	3.38
964.336	1.38
965.064	0.38
965.792	1.38
966.52	0.38
967.247	0.38
967.975	-0.62
968.703	0.38
969.43	0.38
970.158	0.38
970.885	1.38
971.613	-0.62
972.34	1.38
973.067	0.38
973.794	0.38
974.521	0.38
975.248	-0.62
975.975	2.38
976.702	1.38
977.429	3.38
978.156	1.38
978.882	0.38
979.609	2.38
980.335	1.38
981.062	1.38
981.788	1.38
982.514	-0.62
983.24	2.38
983.967	0.38
984.693	1.38
985.419	0.38
986.144	2.38
986.87	-1.62
987.596	1.38
988.322	1.38
989.047	1.38
989.773	0.38
990.498	0.38
991.224	2.38
991.949	1.38
992.674	0.38
993.399	1.38
994.124	-1.62
994.849	1.38
995.574	1.38
996.299	-0.62
997.024	0.38
997.749	-0.62
998.473	1.38
999.198	-1.62
999.922	2.38
1000.647	1.38
1001.371	3.38
1002.095	-0.62
1002.82	-1.62
1003.544	0.38
1004.268	0.38
1004.992	2.38
1005.716	2.38
1006.439	1.38
1007.163	1.38
1007.887	1.38
1008.611	1.38
1009.334	0.38
1010.058	1.38
1010.781	0.38
1011.504	1.38
1012.228	2.38
1012.951	-0.62
1013.674	1.38
1014.397	-0.62
1015.12	-1.62
