节点500_285_QEPB04081__549__15-04-41-296.txt的数据

Date: Wed Nov 12 15:04:41 CST 2025
User: PC
Spectrometer: QEPB0408
触发模式: 0
积分时间 (秒): 1.000000E-2
Scans to average: 1
启用暗噪声校正: true
启用非线性校正: false
滑动平均宽度: 0
X轴模式: Wavelengths
Number of Pixels in Spectrum: 1044
>>>>>Begin Spectral Data<<<<<
220.843	2.5
221.644	5.5
222.444	1.5
223.244	1.5
224.045	0.5
224.845	2.5
225.645	1.5
226.445	4.5
227.245	3.5
228.045	2.5
228.845	4.5
229.645	4.5
230.444	3.5
231.244	2.5
232.043	2.5
232.843	3.5
233.642	2.5
234.442	3.5
235.241	5.5
236.04	3.5
236.839	2.5
237.638	5.5
238.437	4.5
239.236	2.5
240.035	6.5
240.833	3.5
241.632	6.5
242.43	6.5
243.229	5.5
244.027	7.5
244.826	6.5
245.624	7.5
246.422	4.5
247.22	5.5
248.018	6.5
248.816	8.5
249.614	7.5
250.412	5.5
251.21	6.5
252.007	8.5
252.805	8.5
253.602	7.5
254.4	8.5
255.197	9.5
255.994	7.5
256.791	9.5
257.589	9.5
258.386	9.5
259.183	10.5
259.979	11.5
260.776	10.5
261.573	9.5
262.37	10.5
263.166	13.5
263.963	12.5
264.759	13.5
265.556	11.5
266.352	12.5
267.148	11.5
267.944	10.5
268.74	17.5
269.536	12.5
270.332	14.5
271.128	14.5
271.924	16.5
272.719	17.5
273.515	17.5
274.311	14.5
275.106	14.5
275.901	16.5
276.697	14.5
277.492	15.5
278.287	16.5
279.082	18.5
279.877	16.5
280.672	19.5
281.467	19.5
282.262	17.5
283.056	19.5
283.851	21.5
284.646	16.5
285.44	20.5
286.234	18.5
287.029	19.5
287.823	20.5
288.617	18.5
289.411	19.5
290.205	18.5
290.999	18.5
291.793	19.5
292.587	20.5
293.381	18.5
294.174	17.5
294.968	13.5
295.761	15.5
296.555	17.5
297.348	14.5
298.141	15.5
298.935	15.5
299.728	15.5
300.521	14.5
301.314	14.5
302.107	15.5
302.899	14.5
303.692	12.5
304.485	14.5
305.277	12.5
306.07	12.5
306.862	16.5
307.655	13.5
308.447	13.5
309.239	13.5
310.031	12.5
310.823	10.5
311.615	12.5
312.407	10.5
313.199	10.5
313.991	7.5
314.783	10.5
315.574	10.5
316.366	8.5
317.157	8.5
317.949	10.5
318.74	8.5
319.531	8.5
320.322	8.5
321.113	7.5
321.904	9.5
322.695	9.5
323.486	6.5
324.277	7.5
325.068	9.5
325.858	6.5
326.649	6.5
327.439	8.5
328.23	5.5
329.02	8.5
329.81	8.5
330.6	6.5
331.391	7.5
332.181	6.5
332.971	8.5
333.76	7.5
334.55	5.5
335.34	6.5
336.13	7.5
336.919	7.5
337.709	7.5
338.498	6.5
339.287	6.5
340.077	7.5
340.866	6.5
341.655	8.5
342.444	5.5
343.233	7.5
344.022	7.5
344.811	5.5
345.6	7.5
346.388	7.5
347.177	7.5
347.965	9.5
348.754	6.5
349.542	7.5
350.33	3.5
351.119	7.5
351.907	7.5
352.695	7.5
353.483	7.5
354.271	7.5
355.059	8.5
355.846	4.5
356.634	4.5
357.422	6.5
358.209	6.5
358.997	5.5
359.784	4.5
360.571	6.5
361.359	3.5
362.146	6.5
362.933	3.5
363.72	6.5
364.507	5.5
365.294	2.5
366.081	7.5
366.867	5.5
367.654	4.5
368.44	5.5
369.227	2.5
370.013	4.5
370.8	4.5
371.586	7.5
372.372	4.5
373.158	7.5
373.944	8.5
374.73	5.5
375.516	6.5
376.302	2.5
377.088	5.5
377.873	8.5
378.659	7.5
379.445	3.5
380.23	5.5
381.015	6.5
381.801	7.5
382.586	7.5
383.371	6.5
384.156	4.5
384.941	5.5
385.726	7.5
386.511	5.5
387.296	6.5
388.08	8.5
388.865	7.5
389.649	5.5
390.434	6.5
391.218	4.5
392.003	10.5
392.787	5.5
393.571	5.5
394.355	7.5
395.139	5.5
395.923	7.5
396.707	7.5
397.491	7.5
398.274	7.5
399.058	4.5
399.842	7.5
400.625	5.5
401.408	7.5
402.192	8.5
402.975	6.5
403.758	5.5
404.541	8.5
405.324	6.5
406.107	9.5
406.89	8.5
407.673	7.5
408.456	10.5
409.238	8.5
410.021	7.5
410.803	9.5
411.586	7.5
412.368	7.5
413.151	8.5
413.933	8.5
414.715	10.5
415.497	8.5
416.279	9.5
417.061	11.5
417.843	10.5
418.624	10.5
419.406	11.5
420.188	12.5
420.969	10.5
421.751	11.5
422.532	10.5
423.313	12.5
424.095	13.5
424.876	10.5
425.657	12.5
426.438	13.5
427.219	13.5
428	12.5
428.78	13.5
429.561	14.5
430.342	14.5
431.122	16.5
431.903	13.5
432.683	17.5
433.464	17.5
434.244	16.5
435.024	14.5
435.804	17.5
436.584	19.5
437.364	21.5
438.144	22.5
438.924	21.5
439.704	21.5
440.483	23.5
441.263	23.5
442.042	25.5
442.822	25.5
443.601	27.5
444.38	30.5
445.16	32.5
445.939	35.5
446.718	38.5
447.497	39.5
448.276	44.5
449.054	49.5
449.833	53.5
450.612	52.5
451.391	61.5
452.169	67.5
452.948	72.5
453.726	81.5
454.504	86.5
455.282	95.5
456.061	103.5
456.839	121.5
457.617	128.5
458.395	138.5
459.172	164.5
459.95	175.5
460.728	198.5
461.506	221.5
462.283	243.5
463.061	277.5
463.838	304.5
464.615	338.5
465.393	374.5
466.17	420.5
466.947	474.5
467.724	521.5
468.501	572.5
469.278	640.5
470.055	721.5
470.831	783.5
471.608	883.5
472.385	961.5
473.161	1077.5
473.938	1190.5
474.714	1326.5
475.49	1461.5
476.266	1599.5
477.043	1756.5
477.819	1933.5
478.595	2120.5
479.371	2363.5
480.146	2593.5
480.922	2854.5
481.698	3109.5
482.473	3410.5
483.249	3758.5
484.024	4128.5
484.8	4520.5
485.575	4977.5
486.35	5419.5
487.126	5923.5
487.901	6472.5
488.676	7062.5
489.451	7717.5
490.225	8434.5
491	9161.5
491.775	10037.5
492.55	10888.5
493.324	11751.5
494.099	12679.5
494.873	13661.5
495.647	14699.5
496.422	15780.5
497.196	16851.5
497.97	18033.5
498.744	19160.5
499.518	20233.5
500.292	21361.5
501.066	22389.5
501.839	23373.5
502.613	24228.5
503.387	25096.5
504.16	25778.5
504.934	26202.5
505.707	26419.5
506.48	26553.5
507.253	26655.5
508.027	26452.5
508.8	26281.5
509.573	25909.5
510.346	25429.5
511.118	24811.5
511.891	24151.5
512.664	23350.5
513.437	22515.5
514.209	21605.5
514.982	20843.5
515.754	19916.5
516.526	19136.5
517.298	18280.5
518.071	17411.5
518.843	16791.5
519.615	16183.5
520.387	15548.5
521.159	14929.5
521.93	14336.5
522.702	13816.5
523.474	13182.5
524.245	12643.5
525.017	12102.5
525.788	11616.5
526.56	11127.5
527.331	10608.5
528.102	10175.5
528.873	9683.5
529.644	9185.5
530.415	8773.5
531.186	8359.5
531.957	7929.5
532.728	7584.5
533.498	7151.5
534.269	6750.5
535.039	6361.5
535.81	6013.5
536.58	5724.5
537.351	5384.5
538.121	5103.5
538.891	4850.5
539.661	4548.5
540.431	4325.5
541.201	4079.5
541.971	3849.5
542.741	3650.5
543.51	3488.5
544.28	3308.5
545.05	3137.5
545.819	2994.5
546.588	2820.5
547.358	2699.5
548.127	2573.5
548.896	2439.5
549.665	2320.5
550.434	2181.5
551.203	2074.5
551.972	1980.5
552.741	1859.5
553.51	1777.5
554.278	1663.5
555.047	1562.5
555.815	1476.5
556.584	1403.5
557.352	1332.5
558.121	1260.5
558.889	1190.5
559.657	1117.5
560.425	1046.5
561.193	995.5
561.961	935.5
562.729	891.5
563.496	836.5
564.264	808.5
565.032	750.5
565.799	706.5
566.567	677.5
567.334	640.5
568.101	599.5
568.869	565.5
569.636	519.5
570.403	499.5
571.17	464.5
571.937	450.5
572.704	423.5
573.471	397.5
574.237	373.5
575.004	350.5
575.771	329.5
576.537	318.5
577.303	296.5
578.07	275.5
578.836	253.5
579.602	244.5
580.368	230.5
581.134	217.5
581.9	212.5
582.666	199.5
583.432	189.5
584.198	176.5
584.964	169.5
585.729	161.5
586.495	154.5
587.26	146.5
588.025	141.5
588.791	128.5
589.556	124.5
590.321	120.5
591.086	111.5
591.851	105.5
592.616	98.5
593.381	92.5
594.146	89.5
594.911	88.5
595.675	86.5
596.44	74.5
597.204	74.5
597.969	73.5
598.733	69.5
599.497	63.5
600.261	58.5
601.025	61.5
601.79	56.5
602.553	53.5
603.317	51.5
604.081	50.5
604.845	47.5
605.609	43.5
606.372	44.5
607.136	46.5
607.899	41.5
608.662	41.5
609.426	40.5
610.189	37.5
610.952	37.5
611.715	33.5
612.478	30.5
613.241	30.5
614.004	30.5
614.767	29.5
615.529	28.5
616.292	26.5
617.055	27.5
617.817	24.5
618.579	26.5
619.342	25.5
620.104	22.5
620.866	21.5
621.628	19.5
622.39	20.5
623.152	17.5
623.914	20.5
624.676	20.5
625.438	22.5
626.199	17.5
626.961	16.5
627.722	16.5
628.484	16.5
629.245	14.5
630.006	14.5
630.768	13.5
631.529	14.5
632.29	13.5
633.051	12.5
633.812	11.5
634.573	12.5
635.333	12.5
636.094	12.5
636.855	12.5
637.615	11.5
638.376	12.5
639.136	12.5
639.896	9.5
640.657	12.5
641.417	12.5
642.177	7.5
642.937	9.5
643.697	8.5
644.457	11.5
645.216	9.5
645.976	12.5
646.736	8.5
647.495	10.5
648.255	9.5
649.014	7.5
649.774	5.5
650.533	10.5
651.292	9.5
652.051	8.5
652.81	11.5
653.569	8.5
654.328	7.5
655.087	6.5
655.846	7.5
656.604	8.5
657.363	4.5
658.121	7.5
658.88	7.5
659.638	9.5
660.397	7.5
661.155	5.5
661.913	6.5
662.671	5.5
663.429	5.5
664.187	6.5
664.945	5.5
665.703	4.5
666.46	6.5
667.218	6.5
667.976	3.5
668.733	5.5
669.49	4.5
670.248	5.5
671.005	5.5
671.762	3.5
672.519	5.5
673.276	2.5
674.033	5.5
674.79	7.5
675.547	4.5
676.304	5.5
677.06	5.5
677.817	4.5
678.574	5.5
679.33	7.5
680.086	5.5
680.843	4.5
681.599	4.5
682.355	3.5
683.111	8.5
683.867	3.5
684.623	5.5
685.379	4.5
686.135	2.5
686.89	4.5
687.646	6.5
688.402	5.5
689.157	4.5
689.912	4.5
690.668	7.5
691.423	1.5
692.178	2.5
692.933	2.5
693.688	4.5
694.443	5.5
695.198	3.5
695.953	2.5
696.708	5.5
697.462	5.5
698.217	2.5
698.972	6.5
699.726	5.5
700.48	2.5
701.235	5.5
701.989	4.5
702.743	5.5
703.497	4.5
704.251	3.5
705.005	4.5
705.759	1.5
706.513	5.5
707.266	5.5
708.02	5.5
708.774	5.5
709.527	2.5
710.28	5.5
711.034	2.5
711.787	4.5
712.54	5.5
713.293	5.5
714.046	4.5
714.799	5.5
715.552	6.5
716.305	4.5
717.058	6.5
717.81	5.5
718.563	3.5
719.315	4.5
720.068	4.5
720.82	4.5
721.573	2.5
722.325	3.5
723.077	4.5
723.829	5.5
724.581	4.5
725.333	2.5
726.085	5.5
726.836	5.5
727.588	3.5
728.34	4.5
729.091	3.5
729.843	7.5
730.594	3.5
731.346	5.5
732.097	4.5
732.848	2.5
733.599	4.5
734.35	4.5
735.101	5.5
735.852	3.5
736.603	5.5
737.354	3.5
738.104	2.5
738.855	6.5
739.605	3.5
740.356	6.5
741.106	5.5
741.856	4.5
742.607	4.5
743.357	6.5
744.107	3.5
744.857	5.5
745.607	5.5
746.357	4.5
747.106	7.5
747.856	2.5
748.606	3.5
749.355	4.5
750.105	4.5
750.854	4.5
751.603	5.5
752.353	5.5
753.102	6.5
753.851	5.5
754.6	5.5
755.349	7.5
756.098	7.5
756.847	6.5
757.595	5.5
758.344	5.5
759.093	5.5
759.841	5.5
760.589	6.5
761.338	6.5
762.086	6.5
762.834	6.5
763.582	8.5
764.331	7.5
765.079	6.5
765.826	4.5
766.574	6.5
767.322	7.5
768.07	5.5
768.817	7.5
769.565	7.5
770.312	8.5
771.06	4.5
771.807	11.5
772.554	5.5
773.302	8.5
774.049	6.5
774.796	8.5
775.543	7.5
776.29	12.5
777.036	6.5
777.783	6.5
778.53	9.5
779.276	10.5
780.023	8.5
780.769	8.5
781.516	8.5
782.262	9.5
783.008	12.5
783.754	8.5
784.5	9.5
785.246	8.5
785.992	7.5
786.738	8.5
787.484	8.5
788.23	9.5
788.975	7.5
789.721	10.5
790.466	6.5
791.212	10.5
791.957	8.5
792.702	10.5
793.447	8.5
794.193	10.5
794.938	7.5
795.683	11.5
796.427	10.5
797.172	8.5
797.917	7.5
798.662	7.5
799.406	6.5
800.151	7.5
800.895	9.5
801.64	5.5
802.384	8.5
803.128	6.5
803.872	6.5
804.616	7.5
805.36	7.5
806.104	7.5
806.848	6.5
807.592	6.5
808.336	7.5
809.079	6.5
809.823	6.5
810.566	5.5
811.31	4.5
812.053	4.5
812.796	6.5
813.539	6.5
814.283	5.5
815.026	6.5
815.769	5.5
816.511	4.5
817.254	5.5
817.997	5.5
818.74	5.5
819.482	4.5
820.225	5.5
820.967	3.5
821.71	6.5
822.452	4.5
823.194	1.5
823.936	5.5
824.678	4.5
825.42	5.5
826.162	2.5
826.904	5.5
827.646	4.5
828.388	4.5
829.129	4.5
829.871	3.5
830.612	4.5
831.354	5.5
832.095	4.5
832.836	4.5
833.577	2.5
834.319	4.5
835.06	3.5
835.801	5.5
836.542	5.5
837.282	4.5
838.023	5.5
838.764	2.5
839.504	4.5
840.245	3.5
840.985	3.5
841.726	5.5
842.466	2.5
843.206	3.5
843.946	3.5
844.687	5.5
845.427	2.5
846.166	2.5
846.906	2.5
847.646	2.5
848.386	4.5
849.125	1.5
849.865	5.5
850.605	2.5
851.344	2.5
852.083	3.5
852.823	1.5
853.562	3.5
854.301	2.5
855.04	1.5
855.779	2.5
856.518	1.5
857.257	3.5
857.995	3.5
858.734	2.5
859.473	5.5
860.211	1.5
860.95	2.5
861.688	2.5
862.426	4.5
863.165	2.5
863.903	2.5
864.641	2.5
865.379	4.5
866.117	2.5
866.855	3.5
867.593	3.5
868.33	1.5
869.068	0.5
869.806	2.5
870.543	2.5
871.28	2.5
872.018	2.5
872.755	2.5
873.492	2.5
874.229	3.5
874.967	2.5
875.703	2.5
876.44	3.5
877.177	-0.5
877.914	4.5
878.651	2.5
879.387	-0.5
880.124	0.5
880.86	5.5
881.597	1.5
882.333	2.5
883.069	1.5
883.806	2.5
884.542	0.5
885.278	2.5
886.014	-1.5
886.749	1.5
887.485	2.5
888.221	1.5
888.957	3.5
889.692	-1.5
890.428	1.5
891.163	0.5
891.899	5.5
892.634	1.5
893.369	0.5
894.104	2.5
894.839	-0.5
895.574	1.5
896.309	2.5
897.044	0.5
897.779	1.5
898.514	0.5
899.248	1.5
899.983	-1.5
900.717	2.5
901.452	0.5
902.186	0.5
902.92	1.5
903.654	1.5
904.389	2.5
905.123	-0.5
905.857	0.5
906.59	0.5
907.324	2.5
908.058	2.5
908.792	0.5
909.525	0.5
910.259	-1.5
910.992	1.5
911.726	0.5
912.459	0.5
913.192	1.5
913.925	-0.5
914.658	1.5
915.391	0.5
916.124	0.5
916.857	0.5
917.59	-0.5
918.323	0.5
919.055	2.5
919.788	2.5
920.521	0.5
921.253	1.5
921.985	1.5
922.718	0.5
923.45	2.5
924.182	0.5
924.914	2.5
925.646	1.5
926.378	0.5
927.11	0.5
927.841	0.5
928.573	1.5
929.305	-0.5
930.036	-0.5
930.768	2.5
931.499	-0.5
932.23	0.5
932.962	-0.5
933.693	2.5
934.424	0.5
935.155	-0.5
935.886	0.5
936.617	2.5
937.348	0.5
938.078	2.5
938.809	1.5
939.54	-0.5
940.27	0.5
941.001	0.5
941.731	1.5
942.461	0.5
943.191	1.5
943.922	1.5
944.652	0.5
945.382	1.5
946.112	2.5
946.841	1.5
947.571	-0.5
948.301	-1.5
949.031	1.5
949.76	1.5
950.49	2.5
951.219	1.5
951.948	0.5
952.678	1.5
953.407	-1.5
954.136	-0.5
954.865	0.5
955.594	-1.5
956.323	0.5
957.052	-0.5
957.78	2.5
958.509	0.5
959.238	-1.5
959.966	1.5
960.695	-0.5
961.423	2.5
962.151	1.5
962.88	0.5
963.608	0.5
964.336	1.5
965.064	1.5
965.792	-2.5
966.52	-0.5
967.247	1.5
967.975	0.5
968.703	2.5
969.43	-0.5
970.158	1.5
970.885	1.5
971.613	0.5
972.34	0.5
973.067	0.5
973.794	4.5
974.521	-1.5
975.248	1.5
975.975	1.5
976.702	-1.5
977.429	1.5
978.156	0.5
978.882	-0.5
979.609	1.5
980.335	0.5
981.062	1.5
981.788	0.5
982.514	0.5
983.24	-2.5
983.967	0.5
984.693	2.5
985.419	0.5
986.144	2.5
986.87	-0.5
987.596	0.5
988.322	0.5
989.047	3.5
989.773	1.5
990.498	1.5
991.224	2.5
991.949	-0.5
992.674	0.5
993.399	1.5
994.124	1.5
994.849	1.5
995.574	0.5
996.299	2.5
997.024	-0.5
997.749	1.5
998.473	-0.5
999.198	2.5
999.922	1.5
1000.647	0.5
1001.371	4.5
1002.095	-1.5
1002.82	-1.5
1003.544	-1.5
1004.268	1.5
1004.992	1.5
1005.716	2.5
1006.439	0.5
1007.163	2.5
1007.887	3.5
1008.611	0.5
1009.334	2.5
1010.058	0.5
1010.781	1.5
1011.504	-0.5
1012.228	1.5
1012.951	-1.5
1013.674	1.5
1014.397	-1.5
1015.12	1.5
