节点500_285_QEPB04081__630__15-06-02-088.txt的数据

Date: Wed Nov 12 15:06:02 CST 2025
User: PC
Spectrometer: QEPB0408
触发模式: 0
积分时间 (秒): 1.000000E-2
Scans to average: 1
启用暗噪声校正: true
启用非线性校正: false
滑动平均宽度: 0
X轴模式: Wavelengths
Number of Pixels in Spectrum: 1044
>>>>>Begin Spectral Data<<<<<
220.843	1.38
221.644	1.38
222.444	3.38
223.244	3.38
224.045	2.38
224.845	2.38
225.645	1.38
226.445	0.38
227.245	2.38
228.045	1.38
228.845	1.38
229.645	2.38
230.444	2.38
231.244	5.38
232.043	0.38
232.843	5.38
233.642	6.38
234.442	4.38
235.241	5.38
236.04	4.38
236.839	5.38
237.638	3.38
238.437	6.38
239.236	4.38
240.035	5.38
240.833	3.38
241.632	3.38
242.43	4.38
243.229	4.38
244.027	5.38
244.826	5.38
245.624	5.38
246.422	4.38
247.22	5.38
248.018	6.38
248.816	5.38
249.614	5.38
250.412	5.38
251.21	8.38
252.007	8.38
252.805	8.38
253.602	7.38
254.4	7.38
255.197	6.38
255.994	7.38
256.791	7.38
257.589	10.38
258.386	9.38
259.183	9.38
259.979	9.38
260.776	8.38
261.573	10.38
262.37	9.38
263.166	10.38
263.963	11.38
264.759	10.38
265.556	9.38
266.352	12.38
267.148	13.38
267.944	9.38
268.74	15.38
269.536	13.38
270.332	14.38
271.128	13.38
271.924	12.38
272.719	16.38
273.515	16.38
274.311	14.38
275.106	15.38
275.901	17.38
276.697	13.38
277.492	17.38
278.287	18.38
279.082	15.38
279.877	15.38
280.672	17.38
281.467	18.38
282.262	19.38
283.056	18.38
283.851	16.38
284.646	20.38
285.44	16.38
286.234	18.38
287.029	18.38
287.823	19.38
288.617	16.38
289.411	18.38
290.205	18.38
290.999	17.38
291.793	18.38
292.587	14.38
293.381	17.38
294.174	17.38
294.968	17.38
295.761	15.38
296.555	15.38
297.348	16.38
298.141	16.38
298.935	16.38
299.728	16.38
300.521	13.38
301.314	13.38
302.107	12.38
302.899	14.38
303.692	14.38
304.485	13.38
305.277	12.38
306.07	10.38
306.862	14.38
307.655	11.38
308.447	13.38
309.239	12.38
310.031	12.38
310.823	11.38
311.615	10.38
312.407	11.38
313.199	10.38
313.991	9.38
314.783	9.38
315.574	12.38
316.366	8.38
317.157	7.38
317.949	10.38
318.74	7.38
319.531	8.38
320.322	7.38
321.113	9.38
321.904	7.38
322.695	7.38
323.486	8.38
324.277	8.38
325.068	9.38
325.858	8.38
326.649	7.38
327.439	4.38
328.23	5.38
329.02	4.38
329.81	7.38
330.6	6.38
331.391	5.38
332.181	6.38
332.971	5.38
333.76	5.38
334.55	9.38
335.34	5.38
336.13	6.38
336.919	6.38
337.709	9.38
338.498	7.38
339.287	6.38
340.077	5.38
340.866	7.38
341.655	4.38
342.444	5.38
343.233	5.38
344.022	7.38
344.811	7.38
345.6	7.38
346.388	6.38
347.177	6.38
347.965	9.38
348.754	6.38
349.542	6.38
350.33	5.38
351.119	7.38
351.907	7.38
352.695	8.38
353.483	7.38
354.271	6.38
355.059	5.38
355.846	6.38
356.634	4.38
357.422	6.38
358.209	5.38
358.997	4.38
359.784	8.38
360.571	6.38
361.359	6.38
362.146	3.38
362.933	6.38
363.72	7.38
364.507	5.38
365.294	4.38
366.081	4.38
366.867	4.38
367.654	4.38
368.44	5.38
369.227	6.38
370.013	7.38
370.8	5.38
371.586	6.38
372.372	6.38
373.158	8.38
373.944	3.38
374.73	4.38
375.516	6.38
376.302	5.38
377.088	5.38
377.873	6.38
378.659	4.38
379.445	7.38
380.23	4.38
381.015	5.38
381.801	5.38
382.586	3.38
383.371	4.38
384.156	6.38
384.941	5.38
385.726	6.38
386.511	7.38
387.296	7.38
388.08	6.38
388.865	9.38
389.649	6.38
390.434	5.38
391.218	4.38
392.003	4.38
392.787	5.38
393.571	7.38
394.355	6.38
395.139	3.38
395.923	5.38
396.707	8.38
397.491	6.38
398.274	5.38
399.058	4.38
399.842	8.38
400.625	7.38
401.408	8.38
402.192	8.38
402.975	7.38
403.758	6.38
404.541	6.38
405.324	8.38
406.107	6.38
406.89	9.38
407.673	9.38
408.456	8.38
409.238	8.38
410.021	8.38
410.803	9.38
411.586	9.38
412.368	8.38
413.151	9.38
413.933	9.38
414.715	8.38
415.497	8.38
416.279	7.38
417.061	12.38
417.843	10.38
418.624	14.38
419.406	8.38
420.188	9.38
420.969	12.38
421.751	10.38
422.532	11.38
423.313	11.38
424.095	10.38
424.876	13.38
425.657	12.38
426.438	11.38
427.219	12.38
428	14.38
428.78	10.38
429.561	14.38
430.342	12.38
431.122	16.38
431.903	13.38
432.683	15.38
433.464	16.38
434.244	14.38
435.024	18.38
435.804	18.38
436.584	22.38
437.364	19.38
438.144	18.38
438.924	21.38
439.704	20.38
440.483	24.38
441.263	21.38
442.042	28.38
442.822	26.38
443.601	27.38
444.38	31.38
445.16	29.38
445.939	36.38
446.718	34.38
447.497	41.38
448.276	40.38
449.054	48.38
449.833	52.38
450.612	57.38
451.391	64.38
452.169	64.38
452.948	73.38
453.726	77.38
454.504	86.38
455.282	98.38
456.061	108.38
456.839	122.38
457.617	136.38
458.395	140.38
459.172	164.38
459.95	176.38
460.728	202.38
461.506	222.38
462.283	246.38
463.061	278.38
463.838	306.38
464.615	346.38
465.393	391.38
466.17	433.38
466.947	477.38
467.724	535.38
468.501	591.38
469.278	659.38
470.055	722.38
470.831	811.38
471.608	881.38
472.385	980.38
473.161	1091.38
473.938	1191.38
474.714	1319.38
475.49	1458.38
476.266	1616.38
477.043	1768.38
477.819	1955.38
478.595	2134.38
479.371	2362.38
480.146	2595.38
480.922	2837.38
481.698	3094.38
482.473	3390.38
483.249	3715.38
484.024	4087.38
484.8	4450.38
485.575	4853.38
486.35	5341.38
487.126	5776.38
487.901	6348.38
488.676	6914.38
489.451	7553.38
490.225	8222.38
491	8919.38
491.775	9706.38
492.55	10561.38
493.324	11421.38
494.099	12250.38
494.873	13157.38
495.647	14187.38
496.422	15181.38
497.196	16277.38
497.97	17368.38
498.744	18506.38
499.518	19548.38
500.292	20612.38
501.066	21656.38
501.839	22611.38
502.613	23466.38
503.387	24357.38
504.16	25041.38
504.934	25487.38
505.707	25754.38
506.48	25940.38
507.253	26026.38
508.027	25993.38
508.8	25829.38
509.573	25555.38
510.346	25155.38
511.118	24552.38
511.891	23868.38
512.664	23237.38
513.437	22436.38
514.209	21617.38
514.982	20759.38
515.754	19937.38
516.526	19094.38
517.298	18341.38
518.071	17523.38
518.843	16825.38
519.615	16162.38
520.387	15602.38
521.159	14954.38
521.93	14360.38
522.702	13842.38
523.474	13225.38
524.245	12668.38
525.017	12162.38
525.788	11736.38
526.56	11202.38
527.331	10666.38
528.102	10180.38
528.873	9756.38
529.644	9285.38
530.415	8866.38
531.186	8436.38
531.957	8001.38
532.728	7625.38
533.498	7229.38
534.269	6838.38
535.039	6464.38
535.81	6149.38
536.58	5794.38
537.351	5457.38
538.121	5153.38
538.891	4880.38
539.661	4626.38
540.431	4380.38
541.201	4126.38
541.971	3913.38
542.741	3701.38
543.51	3518.38
544.28	3367.38
545.05	3176.38
545.819	3037.38
546.588	2893.38
547.358	2757.38
548.127	2627.38
548.896	2475.38
549.665	2359.38
550.434	2234.38
551.203	2092.38
551.972	2000.38
552.741	1891.38
553.51	1787.38
554.278	1691.38
555.047	1612.38
555.815	1497.38
556.584	1430.38
557.352	1355.38
558.121	1279.38
558.889	1193.38
559.657	1147.38
560.425	1079.38
561.193	1011.38
561.961	954.38
562.729	901.38
563.496	861.38
564.264	813.38
565.032	764.38
565.799	723.38
566.567	692.38
567.334	646.38
568.101	609.38
568.869	571.38
569.636	535.38
570.403	509.38
571.17	476.38
571.937	451.38
572.704	425.38
573.471	403.38
574.237	378.38
575.004	356.38
575.771	339.38
576.537	321.38
577.303	301.38
578.07	284.38
578.836	263.38
579.602	252.38
580.368	237.38
581.134	229.38
581.9	216.38
582.666	205.38
583.432	190.38
584.198	182.38
584.964	175.38
585.729	162.38
586.495	150.38
587.26	151.38
588.025	140.38
588.791	132.38
589.556	127.38
590.321	124.38
591.086	113.38
591.851	104.38
592.616	100.38
593.381	96.38
594.146	93.38
594.911	84.38
595.675	78.38
596.44	78.38
597.204	75.38
597.969	71.38
598.733	68.38
599.497	67.38
600.261	62.38
601.025	58.38
601.79	58.38
602.553	58.38
603.317	55.38
604.081	51.38
604.845	47.38
605.609	49.38
606.372	42.38
607.136	42.38
607.899	44.38
608.662	37.38
609.426	36.38
610.189	37.38
610.952	34.38
611.715	30.38
612.478	34.38
613.241	32.38
614.004	29.38
614.767	30.38
615.529	27.38
616.292	26.38
617.055	24.38
617.817	24.38
618.579	27.38
619.342	23.38
620.104	22.38
620.866	25.38
621.628	24.38
622.39	18.38
623.152	18.38
623.914	17.38
624.676	19.38
625.438	18.38
626.199	18.38
626.961	18.38
627.722	17.38
628.484	15.38
629.245	16.38
630.006	14.38
630.768	17.38
631.529	12.38
632.29	15.38
633.051	14.38
633.812	13.38
634.573	13.38
635.333	11.38
636.094	11.38
636.855	11.38
637.615	12.38
638.376	11.38
639.136	9.38
639.896	12.38
640.657	10.38
641.417	10.38
642.177	10.38
642.937	9.38
643.697	10.38
644.457	8.38
645.216	10.38
645.976	8.38
646.736	9.38
647.495	9.38
648.255	7.38
649.014	10.38
649.774	5.38
650.533	10.38
651.292	10.38
652.051	7.38
652.81	9.38
653.569	5.38
654.328	8.38
655.087	5.38
655.846	6.38
656.604	6.38
657.363	3.38
658.121	8.38
658.88	4.38
659.638	6.38
660.397	6.38
661.155	5.38
661.913	6.38
662.671	5.38
663.429	4.38
664.187	3.38
664.945	6.38
665.703	6.38
666.46	5.38
667.218	7.38
667.976	5.38
668.733	4.38
669.49	7.38
670.248	5.38
671.005	6.38
671.762	4.38
672.519	6.38
673.276	6.38
674.033	5.38
674.79	4.38
675.547	4.38
676.304	6.38
677.06	4.38
677.817	5.38
678.574	4.38
679.33	3.38
680.086	5.38
680.843	4.38
681.599	7.38
682.355	5.38
683.111	6.38
683.867	4.38
684.623	5.38
685.379	2.38
686.135	5.38
686.89	5.38
687.646	2.38
688.402	4.38
689.157	1.38
689.912	5.38
690.668	2.38
691.423	5.38
692.178	5.38
692.933	4.38
693.688	7.38
694.443	3.38
695.198	5.38
695.953	2.38
696.708	1.38
697.462	3.38
698.217	2.38
698.972	5.38
699.726	3.38
700.48	2.38
701.235	4.38
701.989	4.38
702.743	3.38
703.497	3.38
704.251	6.38
705.005	5.38
705.759	5.38
706.513	6.38
707.266	1.38
708.02	4.38
708.774	4.38
709.527	4.38
710.28	2.38
711.034	1.38
711.787	2.38
712.54	1.38
713.293	2.38
714.046	3.38
714.799	3.38
715.552	2.38
716.305	4.38
717.058	4.38
717.81	3.38
718.563	5.38
719.315	4.38
720.068	3.38
720.82	4.38
721.573	2.38
722.325	4.38
723.077	6.38
723.829	4.38
724.581	4.38
725.333	3.38
726.085	6.38
726.836	2.38
727.588	4.38
728.34	4.38
729.091	6.38
729.843	3.38
730.594	6.38
731.346	4.38
732.097	2.38
732.848	4.38
733.599	5.38
734.35	3.38
735.101	5.38
735.852	2.38
736.603	5.38
737.354	6.38
738.104	3.38
738.855	6.38
739.605	4.38
740.356	4.38
741.106	5.38
741.856	5.38
742.607	5.38
743.357	7.38
744.107	4.38
744.857	5.38
745.607	6.38
746.357	4.38
747.106	5.38
747.856	6.38
748.606	4.38
749.355	3.38
750.105	3.38
750.854	6.38
751.603	4.38
752.353	5.38
753.102	7.38
753.851	7.38
754.6	4.38
755.349	5.38
756.098	8.38
756.847	4.38
757.595	7.38
758.344	6.38
759.093	5.38
759.841	6.38
760.589	6.38
761.338	6.38
762.086	6.38
762.834	5.38
763.582	7.38
764.331	8.38
765.079	6.38
765.826	6.38
766.574	7.38
767.322	7.38
768.07	7.38
768.817	5.38
769.565	5.38
770.312	7.38
771.06	7.38
771.807	8.38
772.554	7.38
773.302	6.38
774.049	6.38
774.796	10.38
775.543	7.38
776.29	8.38
777.036	8.38
777.783	9.38
778.53	6.38
779.276	8.38
780.023	7.38
780.769	8.38
781.516	6.38
782.262	10.38
783.008	10.38
783.754	8.38
784.5	7.38
785.246	6.38
785.992	9.38
786.738	9.38
787.484	10.38
788.23	8.38
788.975	5.38
789.721	11.38
790.466	10.38
791.212	7.38
791.957	10.38
792.702	8.38
793.447	7.38
794.193	8.38
794.938	9.38
795.683	9.38
796.427	7.38
797.172	7.38
797.917	7.38
798.662	5.38
799.406	8.38
800.151	6.38
800.895	6.38
801.64	9.38
802.384	7.38
803.128	8.38
803.872	6.38
804.616	5.38
805.36	8.38
806.104	8.38
806.848	5.38
807.592	8.38
808.336	4.38
809.079	6.38
809.823	5.38
810.566	7.38
811.31	8.38
812.053	6.38
812.796	6.38
813.539	4.38
814.283	4.38
815.026	4.38
815.769	4.38
816.511	5.38
817.254	4.38
817.997	7.38
818.74	5.38
819.482	3.38
820.225	2.38
820.967	5.38
821.71	4.38
822.452	3.38
823.194	5.38
823.936	5.38
824.678	6.38
825.42	4.38
826.162	4.38
826.904	4.38
827.646	3.38
828.388	6.38
829.129	6.38
829.871	4.38
830.612	4.38
831.354	2.38
832.095	5.38
832.836	5.38
833.577	5.38
834.319	5.38
835.06	5.38
835.801	5.38
836.542	1.38
837.282	6.38
838.023	5.38
838.764	5.38
839.504	4.38
840.245	5.38
840.985	3.38
841.726	3.38
842.466	2.38
843.206	4.38
843.946	3.38
844.687	5.38
845.427	1.38
846.166	4.38
846.906	2.38
847.646	5.38
848.386	5.38
849.125	3.38
849.865	4.38
850.605	2.38
851.344	3.38
852.083	3.38
852.823	2.38
853.562	3.38
854.301	1.38
855.04	3.38
855.779	2.38
856.518	2.38
857.257	4.38
857.995	0.38
858.734	2.38
859.473	4.38
860.211	2.38
860.95	3.38
861.688	4.38
862.426	0.38
863.165	2.38
863.903	1.38
864.641	2.38
865.379	3.38
866.117	2.38
866.855	3.38
867.593	2.38
868.33	-1.62
869.068	1.38
869.806	0.38
870.543	0.38
871.28	0.38
872.018	1.38
872.755	0.38
873.492	2.38
874.229	1.38
874.967	1.38
875.703	0.38
876.44	-0.62
877.177	3.38
877.914	1.38
878.651	2.38
879.387	5.38
880.124	1.38
880.86	0.38
881.597	3.38
882.333	3.38
883.069	2.38
883.806	2.38
884.542	2.38
885.278	2.38
886.014	3.38
886.749	1.38
887.485	-0.62
888.221	2.38
888.957	0.38
889.692	3.38
890.428	2.38
891.163	0.38
891.899	1.38
892.634	0.38
893.369	3.38
894.104	2.38
894.839	1.38
895.574	2.38
896.309	0.38
897.044	3.38
897.779	0.38
898.514	2.38
899.248	2.38
899.983	5.38
900.717	2.38
901.452	-0.62
902.186	0.38
902.92	1.38
903.654	0.38
904.389	1.38
905.123	2.38
905.857	1.38
906.59	0.38
907.324	0.38
908.058	-0.62
908.792	2.38
909.525	2.38
910.259	0.38
910.992	-0.62
911.726	0.38
912.459	1.38
913.192	3.38
913.925	0.38
914.658	1.38
915.391	1.38
916.124	3.38
916.857	-0.62
917.59	0.38
918.323	-0.62
919.055	0.38
919.788	0.38
920.521	0.38
921.253	0.38
921.985	1.38
922.718	0.38
923.45	0.38
924.182	-1.62
924.914	3.38
925.646	0.38
926.378	0.38
927.11	-0.62
927.841	-0.62
928.573	0.38
929.305	0.38
930.036	0.38
930.768	-0.62
931.499	3.38
932.23	0.38
932.962	0.38
933.693	2.38
934.424	0.38
935.155	2.38
935.886	2.38
936.617	1.38
937.348	1.38
938.078	1.38
938.809	-0.62
939.54	-0.62
940.27	-0.62
941.001	-0.62
941.731	2.38
942.461	1.38
943.191	1.38
943.922	1.38
944.652	0.38
945.382	0.38
946.112	0.38
946.841	0.38
947.571	1.38
948.301	0.38
949.031	1.38
949.76	0.38
950.49	3.38
951.219	-0.62
951.948	2.38
952.678	-1.62
953.407	0.38
954.136	2.38
954.865	-1.62
955.594	0.38
956.323	2.38
957.052	-0.62
957.78	3.38
958.509	0.38
959.238	0.38
959.966	0.38
960.695	0.38
961.423	-0.62
962.151	0.38
962.88	0.38
963.608	0.38
964.336	1.38
965.064	1.38
965.792	0.38
966.52	1.38
967.247	-0.62
967.975	1.38
968.703	0.38
969.43	-2.62
970.158	-1.62
970.885	0.38
971.613	0.38
972.34	1.38
973.067	-1.62
973.794	0.38
974.521	2.38
975.248	2.38
975.975	1.38
976.702	-1.62
977.429	1.38
978.156	-1.62
978.882	0.38
979.609	2.38
980.335	-0.62
981.062	1.38
981.788	0.38
982.514	1.38
983.24	-0.62
983.967	1.38
984.693	-0.62
985.419	1.38
986.144	1.38
986.87	0.38
987.596	-1.62
988.322	1.38
989.047	1.38
989.773	0.38
990.498	2.38
991.224	1.38
991.949	-0.62
992.674	-0.62
993.399	2.38
994.124	1.38
994.849	-0.62
995.574	1.38
996.299	2.38
997.024	0.38
997.749	-1.62
998.473	1.38
999.198	1.38
999.922	-1.62
1000.647	1.38
1001.371	2.38
1002.095	-1.62
1002.82	-0.62
1003.544	0.38
1004.268	4.38
1004.992	1.38
1005.716	1.38
1006.439	2.38
1007.163	1.38
1007.887	3.38
1008.611	1.38
1009.334	0.38
1010.058	0.38
1010.781	0.38
1011.504	1.38
1012.228	1.38
1012.951	1.38
1013.674	0.38
1014.397	-0.62
1015.12	-1.62
