节点500_285_QEPB04081__717__15-07-28-810.txt的数据

Date: Wed Nov 12 15:07:28 CST 2025
User: PC
Spectrometer: QEPB0408
触发模式: 0
积分时间 (秒): 1.000000E-2
Scans to average: 1
启用暗噪声校正: true
启用非线性校正: false
滑动平均宽度: 0
X轴模式: Wavelengths
Number of Pixels in Spectrum: 1044
>>>>>Begin Spectral Data<<<<<
220.843	0
221.644	2
222.444	3
223.244	2
224.045	2
224.845	2
225.645	4
226.445	3
227.245	5
228.045	1
228.845	3
229.645	4
230.444	3
231.244	2
232.043	3
232.843	3
233.642	3
234.442	2
235.241	5
236.04	4
236.839	6
237.638	4
238.437	3
239.236	6
240.035	5
240.833	4
241.632	3
242.43	6
243.229	5
244.027	6
244.826	7
245.624	3
246.422	6
247.22	5
248.018	4
248.816	7
249.614	4
250.412	6
251.21	6
252.007	7
252.805	5
253.602	5
254.4	9
255.197	7
255.994	8
256.791	9
257.589	8
258.386	9
259.183	9
259.979	9
260.776	9
261.573	8
262.37	8
263.166	9
263.963	10
264.759	13
265.556	11
266.352	11
267.148	10
267.944	10
268.74	11
269.536	14
270.332	14
271.128	12
271.924	12
272.719	13
273.515	13
274.311	14
275.106	13
275.901	17
276.697	15
277.492	16
278.287	19
279.082	16
279.877	18
280.672	18
281.467	17
282.262	19
283.056	18
283.851	21
284.646	19
285.44	20
286.234	18
287.029	18
287.823	18
288.617	16
289.411	18
290.205	14
290.999	16
291.793	17
292.587	14
293.381	16
294.174	14
294.968	13
295.761	15
296.555	13
297.348	13
298.141	15
298.935	18
299.728	14
300.521	14
301.314	12
302.107	13
302.899	15
303.692	13
304.485	12
305.277	11
306.07	14
306.862	12
307.655	12
308.447	13
309.239	14
310.031	13
310.823	10
311.615	12
312.407	9
313.199	10
313.991	7
314.783	7
315.574	9
316.366	10
317.157	7
317.949	9
318.74	4
319.531	10
320.322	7
321.113	8
321.904	7
322.695	9
323.486	9
324.277	7
325.068	8
325.858	6
326.649	7
327.439	7
328.23	6
329.02	8
329.81	8
330.6	7
331.391	5
332.181	8
332.971	7
333.76	6
334.55	8
335.34	7
336.13	7
336.919	6
337.709	5
338.498	8
339.287	5
340.077	6
340.866	6
341.655	7
342.444	7
343.233	5
344.022	6
344.811	7
345.6	6
346.388	6
347.177	6
347.965	7
348.754	6
349.542	7
350.33	5
351.119	8
351.907	6
352.695	7
353.483	7
354.271	5
355.059	7
355.846	6
356.634	5
357.422	7
358.209	4
358.997	8
359.784	5
360.571	6
361.359	2
362.146	8
362.933	3
363.72	6
364.507	5
365.294	5
366.081	6
366.867	6
367.654	6
368.44	4
369.227	4
370.013	4
370.8	4
371.586	7
372.372	4
373.158	7
373.944	5
374.73	6
375.516	7
376.302	4
377.088	5
377.873	8
378.659	3
379.445	7
380.23	5
381.015	7
381.801	4
382.586	5
383.371	4
384.156	6
384.941	5
385.726	4
386.511	5
387.296	5
388.08	6
388.865	7
389.649	6
390.434	6
391.218	7
392.003	5
392.787	7
393.571	6
394.355	8
395.139	4
395.923	8
396.707	7
397.491	8
398.274	6
399.058	7
399.842	5
400.625	7
401.408	7
402.192	7
402.975	7
403.758	7
404.541	4
405.324	8
406.107	10
406.89	9
407.673	7
408.456	6
409.238	9
410.021	7
410.803	9
411.586	10
412.368	10
413.151	7
413.933	8
414.715	10
415.497	7
416.279	10
417.061	10
417.843	9
418.624	11
419.406	10
420.188	9
420.969	10
421.751	11
422.532	10
423.313	8
424.095	12
424.876	11
425.657	12
426.438	13
427.219	12
428	14
428.78	11
429.561	13
430.342	13
431.122	12
431.903	15
432.683	11
433.464	16
434.244	14
435.024	16
435.804	20
436.584	19
437.364	18
438.144	20
438.924	22
439.704	23
440.483	22
441.263	24
442.042	24
442.822	27
443.601	29
444.38	31
445.16	35
445.939	35
446.718	34
447.497	42
448.276	44
449.054	46
449.833	52
450.612	54
451.391	62
452.169	65
452.948	73
453.726	83
454.504	86
455.282	99
456.061	108
456.839	122
457.617	140
458.395	150
459.172	170
459.95	183
460.728	204
461.506	226
462.283	257
463.061	286
463.838	312
464.615	351
465.393	395
466.17	431
466.947	487
467.724	545
468.501	598
469.278	665
470.055	736
470.831	811
471.608	907
472.385	995
473.161	1099
473.938	1203
474.714	1329
475.49	1461
476.266	1604
477.043	1778
477.819	1950
478.595	2117
479.371	2322
480.146	2547
480.922	2809
481.698	3073
482.473	3328
483.249	3651
484.024	3992
484.8	4348
485.575	4777
486.35	5198
487.126	5638
487.901	6160
488.676	6707
489.451	7320
490.225	7969
491	8629
491.775	9391
492.55	10205
493.324	11024
494.099	11831
494.873	12660
495.647	13647
496.422	14652
497.196	15658
497.97	16699
498.744	17773
499.518	18756
500.292	19804
501.066	20769
501.839	21751
502.613	22646
503.387	23439
504.16	24168
504.934	24693
505.707	24935
506.48	25251
507.253	25385
508.027	25294
508.8	25271
509.573	25053
510.346	24713
511.118	24206
511.891	23631
512.664	22969
513.437	22250
514.209	21497
514.982	20688
515.754	19881
516.526	19079
517.298	18317
518.071	17496
518.843	16845
519.615	16239
520.387	15646
521.159	14994
521.93	14395
522.702	13839
523.474	13237
524.245	12672
525.017	12154
525.788	11715
526.56	11209
527.331	10660
528.102	10259
528.873	9779
529.644	9353
530.415	8926
531.186	8488
531.957	8043
532.728	7686
533.498	7331
534.269	6851
535.039	6538
535.81	6215
536.58	5856
537.351	5527
538.121	5198
538.891	4952
539.661	4702
540.431	4401
541.201	4189
541.971	3962
542.741	3737
543.51	3565
544.28	3420
545.05	3237
545.819	3089
546.588	2930
547.358	2786
548.127	2657
548.896	2499
549.665	2376
550.434	2255
551.203	2155
551.972	2026
552.741	1921
553.51	1806
554.278	1718
555.047	1642
555.815	1523
556.584	1446
557.352	1385
558.121	1294
558.889	1235
559.657	1165
560.425	1090
561.193	1029
561.961	967
562.729	921
563.496	865
564.264	833
565.032	788
565.799	740
566.567	701
567.334	653
568.101	617
568.869	589
569.636	552
570.403	520
571.17	493
571.937	462
572.704	440
573.471	411
574.237	386
575.004	370
575.771	350
576.537	336
577.303	305
578.07	296
578.836	274
579.602	255
580.368	241
581.134	236
581.9	219
582.666	207
583.432	193
584.198	194
584.964	175
585.729	165
586.495	159
587.26	148
588.025	142
588.791	132
589.556	128
590.321	120
591.086	116
591.851	109
592.616	106
593.381	100
594.146	92
594.911	90
595.675	83
596.44	82
597.204	74
597.969	74
598.733	70
599.497	67
600.261	66
601.025	62
601.79	61
602.553	55
603.317	53
604.081	54
604.845	50
605.609	49
606.372	45
607.136	44
607.899	42
608.662	41
609.426	40
610.189	36
610.952	37
611.715	36
612.478	35
613.241	33
614.004	29
614.767	30
615.529	27
616.292	30
617.055	25
617.817	26
618.579	26
619.342	25
620.104	23
620.866	20
621.628	20
622.39	21
623.152	21
623.914	19
624.676	19
625.438	17
626.199	15
626.961	17
627.722	17
628.484	16
629.245	14
630.006	14
630.768	13
631.529	14
632.29	13
633.051	13
633.812	13
634.573	10
635.333	12
636.094	13
636.855	13
637.615	10
638.376	12
639.136	10
639.896	10
640.657	8
641.417	8
642.177	10
642.937	9
643.697	9
644.457	8
645.216	9
645.976	9
646.736	5
647.495	7
648.255	10
649.014	7
649.774	8
650.533	8
651.292	5
652.051	8
652.81	8
653.569	6
654.328	5
655.087	4
655.846	7
656.604	2
657.363	6
658.121	6
658.88	7
659.638	7
660.397	6
661.155	6
661.913	5
662.671	6
663.429	6
664.187	5
664.945	5
665.703	3
666.46	6
667.218	7
667.976	5
668.733	5
669.49	5
670.248	4
671.005	3
671.762	4
672.519	6
673.276	5
674.033	6
674.79	2
675.547	5
676.304	4
677.06	5
677.817	5
678.574	5
679.33	2
680.086	2
680.843	4
681.599	2
682.355	6
683.111	5
683.867	3
684.623	3
685.379	5
686.135	4
686.89	3
687.646	5
688.402	2
689.157	5
689.912	0
690.668	2
691.423	4
692.178	6
692.933	3
693.688	4
694.443	5
695.198	6
695.953	4
696.708	5
697.462	5
698.217	5
698.972	3
699.726	4
700.48	4
701.235	2
701.989	6
702.743	5
703.497	4
704.251	4
705.005	1
705.759	2
706.513	3
707.266	4
708.02	3
708.774	4
709.527	4
710.28	5
711.034	3
711.787	5
712.54	3
713.293	3
714.046	4
714.799	5
715.552	4
716.305	6
717.058	6
717.81	5
718.563	2
719.315	2
720.068	1
720.82	3
721.573	5
722.325	7
723.077	1
723.829	4
724.581	2
725.333	5
726.085	3
726.836	6
727.588	2
728.34	4
729.091	6
729.843	4
730.594	4
731.346	5
732.097	3
732.848	5
733.599	5
734.35	4
735.101	5
735.852	2
736.603	6
737.354	2
738.104	4
738.855	3
739.605	4
740.356	4
741.106	4
741.856	5
742.607	6
743.357	5
744.107	4
744.857	4
745.607	4
746.357	4
747.106	5
747.856	6
748.606	3
749.355	6
750.105	5
750.854	5
751.603	3
752.353	4
753.102	2
753.851	7
754.6	7
755.349	7
756.098	4
756.847	3
757.595	5
758.344	5
759.093	6
759.841	6
760.589	3
761.338	9
762.086	4
762.834	7
763.582	6
764.331	7
765.079	4
765.826	7
766.574	8
767.322	8
768.07	8
768.817	5
769.565	7
770.312	8
771.06	5
771.807	4
772.554	6
773.302	6
774.049	8
774.796	6
775.543	9
776.29	10
777.036	6
777.783	5
778.53	10
779.276	5
780.023	6
780.769	7
781.516	8
782.262	9
783.008	7
783.754	8
784.5	9
785.246	7
785.992	7
786.738	8
787.484	8
788.23	6
788.975	9
789.721	9
790.466	9
791.212	10
791.957	7
792.702	7
793.447	9
794.193	8
794.938	8
795.683	8
796.427	7
797.172	5
797.917	9
798.662	7
799.406	9
800.151	6
800.895	7
801.64	8
802.384	5
803.128	6
803.872	9
804.616	7
805.36	7
806.104	3
806.848	6
807.592	5
808.336	6
809.079	5
809.823	7
810.566	5
811.31	6
812.053	6
812.796	7
813.539	5
814.283	4
815.026	6
815.769	5
816.511	2
817.254	8
817.997	3
818.74	5
819.482	5
820.225	5
820.967	2
821.71	5
822.452	5
823.194	5
823.936	5
824.678	6
825.42	1
826.162	6
826.904	5
827.646	5
828.388	6
829.129	5
829.871	2
830.612	5
831.354	1
832.095	5
832.836	5
833.577	5
834.319	4
835.06	3
835.801	3
836.542	4
837.282	4
838.023	3
838.764	1
839.504	5
840.245	4
840.985	2
841.726	4
842.466	3
843.206	3
843.946	3
844.687	2
845.427	4
846.166	4
846.906	5
847.646	4
848.386	4
849.125	4
849.865	2
850.605	4
851.344	2
852.083	3
852.823	1
853.562	2
854.301	2
855.04	1
855.779	4
856.518	1
857.257	2
857.995	2
858.734	3
859.473	2
860.211	4
860.95	1
861.688	2
862.426	5
863.165	1
863.903	3
864.641	4
865.379	1
866.117	5
866.855	1
867.593	5
868.33	0
869.068	2
869.806	0
870.543	2
871.28	3
872.018	2
872.755	3
873.492	1
874.229	2
874.967	2
875.703	0
876.44	1
877.177	2
877.914	4
878.651	2
879.387	-1
880.124	1
880.86	1
881.597	1
882.333	1
883.069	0
883.806	-1
884.542	0
885.278	5
886.014	1
886.749	3
887.485	0
888.221	1
888.957	2
889.692	-1
890.428	3
891.163	1
891.899	3
892.634	0
893.369	0
894.104	1
894.839	2
895.574	1
896.309	1
897.044	0
897.779	2
898.514	-2
899.248	2
899.983	0
900.717	1
901.452	1
902.186	-1
902.92	0
903.654	-2
904.389	0
905.123	-1
905.857	1
906.59	2
907.324	0
908.058	2
908.792	0
909.525	-1
910.259	0
910.992	0
911.726	0
912.459	0
913.192	2
913.925	-2
914.658	0
915.391	-2
916.124	2
916.857	2
917.59	1
918.323	1
919.055	0
919.788	0
920.521	1
921.253	0
921.985	0
922.718	0
923.45	0
924.182	-1
924.914	1
925.646	2
926.378	0
927.11	2
927.841	-2
928.573	1
929.305	2
930.036	0
930.768	0
931.499	-1
932.23	2
932.962	0
933.693	0
934.424	2
935.155	0
935.886	0
936.617	-1
937.348	2
938.078	-2
938.809	1
939.54	0
940.27	0
941.001	-1
941.731	1
942.461	1
943.191	1
943.922	1
944.652	-1
945.382	-1
946.112	2
946.841	-1
947.571	-1
948.301	0
949.031	1
949.76	0
950.49	-2
951.219	0
951.948	-1
952.678	1
953.407	-1
954.136	1
954.865	0
955.594	2
956.323	0
957.052	1
957.78	0
958.509	0
959.238	-2
959.966	0
960.695	1
961.423	1
962.151	-1
962.88	2
963.608	-2
964.336	-1
965.064	2
965.792	0
966.52	1
967.247	1
967.975	0
968.703	1
969.43	0
970.158	0
970.885	-1
971.613	1
972.34	0
973.067	-2
973.794	2
974.521	1
975.248	0
975.975	0
976.702	1
977.429	2
978.156	2
978.882	2
979.609	0
980.335	2
981.062	1
981.788	2
982.514	3
983.24	-2
983.967	2
984.693	2
985.419	1
986.144	0
986.87	-1
987.596	-1
988.322	0
989.047	1
989.773	-1
990.498	2
991.224	0
991.949	1
992.674	0
993.399	-1
994.124	1
994.849	2
995.574	0
996.299	1
997.024	0
997.749	0
998.473	0
999.198	2
999.922	0
1000.647	0
1001.371	3
1002.095	-2
1002.82	1
1003.544	-4
1004.268	1
1004.992	1
1005.716	1
1006.439	1
1007.163	0
1007.887	4
1008.611	2
1009.334	1
1010.058	-1
1010.781	-1
1011.504	1
1012.228	1
1012.951	1
1013.674	2
1014.397	0
1015.12	-1
