节点500_285_QEPB04081__201__14-58-54-085.txt的数据

Date: Wed Nov 12 14:58:54 CST 2025
User: PC
Spectrometer: QEPB0408
触发模式: 0
积分时间 (秒): 1.000000E-2
Scans to average: 1
启用暗噪声校正: true
启用非线性校正: false
滑动平均宽度: 0
X轴模式: Wavelengths
Number of Pixels in Spectrum: 1044
>>>>>Begin Spectral Data<<<<<
220.843	1.38
221.644	1.38
222.444	2.38
223.244	3.38
224.045	3.38
224.845	2.38
225.645	4.38
226.445	0.38
227.245	1.38
228.045	5.38
228.845	2.38
229.645	1.38
230.444	2.38
231.244	4.38
232.043	3.38
232.843	1.38
233.642	1.38
234.442	3.38
235.241	5.38
236.04	5.38
236.839	3.38
237.638	3.38
238.437	4.38
239.236	6.38
240.035	4.38
240.833	4.38
241.632	4.38
242.43	5.38
243.229	5.38
244.027	4.38
244.826	7.38
245.624	3.38
246.422	5.38
247.22	5.38
248.018	6.38
248.816	7.38
249.614	7.38
250.412	6.38
251.21	6.38
252.007	5.38
252.805	7.38
253.602	5.38
254.4	6.38
255.197	6.38
255.994	8.38
256.791	6.38
257.589	8.38
258.386	9.38
259.183	9.38
259.979	11.38
260.776	8.38
261.573	9.38
262.37	9.38
263.166	11.38
263.963	13.38
264.759	12.38
265.556	11.38
266.352	11.38
267.148	14.38
267.944	12.38
268.74	12.38
269.536	15.38
270.332	13.38
271.128	14.38
271.924	15.38
272.719	15.38
273.515	16.38
274.311	15.38
275.106	17.38
275.901	16.38
276.697	17.38
277.492	19.38
278.287	18.38
279.082	17.38
279.877	17.38
280.672	18.38
281.467	18.38
282.262	21.38
283.056	20.38
283.851	18.38
284.646	21.38
285.44	18.38
286.234	17.38
287.029	19.38
287.823	17.38
288.617	18.38
289.411	19.38
290.205	20.38
290.999	19.38
291.793	18.38
292.587	19.38
293.381	19.38
294.174	21.38
294.968	17.38
295.761	16.38
296.555	13.38
297.348	16.38
298.141	12.38
298.935	14.38
299.728	13.38
300.521	13.38
301.314	15.38
302.107	12.38
302.899	11.38
303.692	15.38
304.485	12.38
305.277	11.38
306.07	12.38
306.862	11.38
307.655	12.38
308.447	12.38
309.239	12.38
310.031	11.38
310.823	9.38
311.615	12.38
312.407	10.38
313.199	10.38
313.991	9.38
314.783	8.38
315.574	11.38
316.366	8.38
317.157	11.38
317.949	8.38
318.74	7.38
319.531	9.38
320.322	8.38
321.113	5.38
321.904	6.38
322.695	10.38
323.486	5.38
324.277	8.38
325.068	8.38
325.858	7.38
326.649	8.38
327.439	8.38
328.23	9.38
329.02	6.38
329.81	6.38
330.6	6.38
331.391	6.38
332.181	3.38
332.971	5.38
333.76	8.38
334.55	5.38
335.34	6.38
336.13	5.38
336.919	4.38
337.709	9.38
338.498	7.38
339.287	8.38
340.077	4.38
340.866	4.38
341.655	4.38
342.444	5.38
343.233	6.38
344.022	5.38
344.811	5.38
345.6	6.38
346.388	7.38
347.177	5.38
347.965	8.38
348.754	5.38
349.542	8.38
350.33	5.38
351.119	7.38
351.907	4.38
352.695	4.38
353.483	6.38
354.271	3.38
355.059	5.38
355.846	4.38
356.634	4.38
357.422	5.38
358.209	4.38
358.997	7.38
359.784	6.38
360.571	6.38
361.359	7.38
362.146	4.38
362.933	5.38
363.72	5.38
364.507	5.38
365.294	5.38
366.081	6.38
366.867	3.38
367.654	5.38
368.44	5.38
369.227	6.38
370.013	4.38
370.8	5.38
371.586	6.38
372.372	6.38
373.158	4.38
373.944	5.38
374.73	3.38
375.516	4.38
376.302	4.38
377.088	5.38
377.873	3.38
378.659	5.38
379.445	4.38
380.23	3.38
381.015	7.38
381.801	4.38
382.586	6.38
383.371	2.38
384.156	5.38
384.941	4.38
385.726	6.38
386.511	5.38
387.296	6.38
388.08	6.38
388.865	4.38
389.649	4.38
390.434	6.38
391.218	5.38
392.003	6.38
392.787	5.38
393.571	6.38
394.355	3.38
395.139	7.38
395.923	6.38
396.707	7.38
397.491	7.38
398.274	5.38
399.058	6.38
399.842	8.38
400.625	6.38
401.408	7.38
402.192	9.38
402.975	7.38
403.758	5.38
404.541	5.38
405.324	8.38
406.107	6.38
406.89	6.38
407.673	7.38
408.456	6.38
409.238	9.38
410.021	7.38
410.803	9.38
411.586	7.38
412.368	8.38
413.151	9.38
413.933	9.38
414.715	8.38
415.497	7.38
416.279	11.38
417.061	8.38
417.843	8.38
418.624	11.38
419.406	8.38
420.188	11.38
420.969	9.38
421.751	10.38
422.532	10.38
423.313	11.38
424.095	13.38
424.876	10.38
425.657	10.38
426.438	13.38
427.219	9.38
428	15.38
428.78	11.38
429.561	14.38
430.342	12.38
431.122	13.38
431.903	13.38
432.683	12.38
433.464	17.38
434.244	15.38
435.024	19.38
435.804	16.38
436.584	16.38
437.364	18.38
438.144	18.38
438.924	23.38
439.704	22.38
440.483	24.38
441.263	24.38
442.042	25.38
442.822	26.38
443.601	26.38
444.38	28.38
445.16	33.38
445.939	33.38
446.718	34.38
447.497	37.38
448.276	41.38
449.054	44.38
449.833	49.38
450.612	46.38
451.391	55.38
452.169	63.38
452.948	62.38
453.726	71.38
454.504	81.38
455.282	88.38
456.061	99.38
456.839	105.38
457.617	117.38
458.395	125.38
459.172	140.38
459.95	160.38
460.728	176.38
461.506	205.38
462.283	221.38
463.061	251.38
463.838	279.38
464.615	317.38
465.393	351.38
466.17	390.38
466.947	435.38
467.724	477.38
468.501	540.38
469.278	609.38
470.055	672.38
470.831	744.38
471.608	837.38
472.385	929.38
473.161	1025.38
473.938	1154.38
474.714	1293.38
475.49	1412.38
476.266	1559.38
477.043	1752.38
477.819	1921.38
478.595	2125.38
479.371	2350.38
480.146	2605.38
480.922	2854.38
481.698	3172.38
482.473	3488.38
483.249	3851.38
484.024	4252.38
484.8	4690.38
485.575	5141.38
486.35	5655.38
487.126	6272.38
487.901	6887.38
488.676	7538.38
489.451	8297.38
490.225	9065.38
491	9926.38
491.775	10873.38
492.55	11858.38
493.324	12889.38
494.099	13854.38
494.873	14978.38
495.647	16194.38
496.422	17371.38
497.196	18594.38
497.97	19840.38
498.744	21083.38
499.518	22257.38
500.292	23395.38
501.066	24599.38
501.839	25500.38
502.613	26375.38
503.387	27105.38
504.16	27770.38
504.934	28041.38
505.707	28139.38
506.48	28061.38
507.253	27844.38
508.027	27540.38
508.8	27189.38
509.573	26658.38
510.346	26050.38
511.118	25121.38
511.891	24331.38
512.664	23357.38
513.437	22424.38
514.209	21436.38
514.982	20584.38
515.754	19596.38
516.526	18771.38
517.298	17921.38
518.071	17130.38
518.843	16449.38
519.615	15858.38
520.387	15249.38
521.159	14618.38
521.93	13994.38
522.702	13481.38
523.474	12895.38
524.245	12343.38
525.017	11809.38
525.788	11342.38
526.56	10865.38
527.331	10334.38
528.102	9875.38
528.873	9353.38
529.644	8909.38
530.415	8481.38
531.186	8023.38
531.957	7598.38
532.728	7195.38
533.498	6826.38
534.269	6432.38
535.039	6101.38
535.81	5759.38
536.58	5436.38
537.351	5088.38
538.121	4829.38
538.891	4578.38
539.661	4348.38
540.431	4113.38
541.201	3846.38
541.971	3667.38
542.741	3467.38
543.51	3298.38
544.28	3161.38
545.05	2986.38
545.819	2841.38
546.588	2712.38
547.358	2548.38
548.127	2434.38
548.896	2304.38
549.665	2197.38
550.434	2081.38
551.203	1963.38
551.972	1863.38
552.741	1754.38
553.51	1678.38
554.278	1566.38
555.047	1457.38
555.815	1384.38
556.584	1312.38
557.352	1236.38
558.121	1170.38
558.889	1104.38
559.657	1043.38
560.425	986.38
561.193	915.38
561.961	868.38
562.729	820.38
563.496	790.38
564.264	739.38
565.032	698.38
565.799	657.38
566.567	622.38
567.334	587.38
568.101	556.38
568.869	523.38
569.636	498.38
570.403	458.38
571.17	437.38
571.937	410.38
572.704	387.38
573.471	369.38
574.237	357.38
575.004	333.38
575.771	309.38
576.537	291.38
577.303	267.38
578.07	259.38
578.836	249.38
579.602	231.38
580.368	214.38
581.134	206.38
581.9	199.38
582.666	184.38
583.432	175.38
584.198	168.38
584.964	155.38
585.729	149.38
586.495	142.38
587.26	133.38
588.025	126.38
588.791	123.38
589.556	112.38
590.321	104.38
591.086	106.38
591.851	94.38
592.616	95.38
593.381	89.38
594.146	88.38
594.911	81.38
595.675	77.38
596.44	73.38
597.204	71.38
597.969	66.38
598.733	62.38
599.497	62.38
600.261	58.38
601.025	57.38
601.79	50.38
602.553	50.38
603.317	51.38
604.081	46.38
604.845	43.38
605.609	41.38
606.372	39.38
607.136	38.38
607.899	40.38
608.662	33.38
609.426	33.38
610.189	32.38
610.952	32.38
611.715	31.38
612.478	28.38
613.241	30.38
614.004	27.38
614.767	26.38
615.529	24.38
616.292	25.38
617.055	25.38
617.817	24.38
618.579	23.38
619.342	22.38
620.104	20.38
620.866	23.38
621.628	23.38
622.39	16.38
623.152	17.38
623.914	18.38
624.676	17.38
625.438	18.38
626.199	15.38
626.961	14.38
627.722	14.38
628.484	13.38
629.245	14.38
630.006	13.38
630.768	13.38
631.529	13.38
632.29	9.38
633.051	13.38
633.812	11.38
634.573	13.38
635.333	10.38
636.094	14.38
636.855	10.38
637.615	10.38
638.376	8.38
639.136	10.38
639.896	7.38
640.657	10.38
641.417	6.38
642.177	9.38
642.937	7.38
643.697	6.38
644.457	9.38
645.216	8.38
645.976	8.38
646.736	6.38
647.495	7.38
648.255	9.38
649.014	7.38
649.774	6.38
650.533	7.38
651.292	8.38
652.051	6.38
652.81	4.38
653.569	5.38
654.328	6.38
655.087	6.38
655.846	6.38
656.604	7.38
657.363	6.38
658.121	7.38
658.88	6.38
659.638	4.38
660.397	6.38
661.155	4.38
661.913	7.38
662.671	7.38
663.429	3.38
664.187	7.38
664.945	5.38
665.703	4.38
666.46	2.38
667.218	4.38
667.976	5.38
668.733	2.38
669.49	6.38
670.248	3.38
671.005	3.38
671.762	6.38
672.519	6.38
673.276	3.38
674.033	5.38
674.79	2.38
675.547	4.38
676.304	5.38
677.06	3.38
677.817	3.38
678.574	4.38
679.33	4.38
680.086	4.38
680.843	2.38
681.599	3.38
682.355	2.38
683.111	4.38
683.867	7.38
684.623	4.38
685.379	4.38
686.135	3.38
686.89	3.38
687.646	4.38
688.402	4.38
689.157	4.38
689.912	2.38
690.668	5.38
691.423	1.38
692.178	4.38
692.933	5.38
693.688	4.38
694.443	3.38
695.198	1.38
695.953	5.38
696.708	4.38
697.462	3.38
698.217	3.38
698.972	2.38
699.726	3.38
700.48	2.38
701.235	4.38
701.989	3.38
702.743	3.38
703.497	4.38
704.251	1.38
705.005	1.38
705.759	3.38
706.513	3.38
707.266	6.38
708.02	3.38
708.774	2.38
709.527	0.38
710.28	5.38
711.034	1.38
711.787	0.38
712.54	3.38
713.293	4.38
714.046	3.38
714.799	1.38
715.552	3.38
716.305	2.38
717.058	3.38
717.81	5.38
718.563	3.38
719.315	4.38
720.068	4.38
720.82	0.38
721.573	1.38
722.325	4.38
723.077	3.38
723.829	3.38
724.581	6.38
725.333	5.38
726.085	2.38
726.836	1.38
727.588	5.38
728.34	4.38
729.091	5.38
729.843	1.38
730.594	2.38
731.346	2.38
732.097	5.38
732.848	5.38
733.599	4.38
734.35	6.38
735.101	2.38
735.852	4.38
736.603	3.38
737.354	5.38
738.104	2.38
738.855	5.38
739.605	4.38
740.356	5.38
741.106	6.38
741.856	4.38
742.607	4.38
743.357	4.38
744.107	5.38
744.857	6.38
745.607	5.38
746.357	5.38
747.106	4.38
747.856	4.38
748.606	6.38
749.355	4.38
750.105	6.38
750.854	6.38
751.603	6.38
752.353	6.38
753.102	6.38
753.851	5.38
754.6	6.38
755.349	4.38
756.098	6.38
756.847	6.38
757.595	5.38
758.344	5.38
759.093	6.38
759.841	5.38
760.589	7.38
761.338	8.38
762.086	5.38
762.834	7.38
763.582	6.38
764.331	9.38
765.079	6.38
765.826	6.38
766.574	7.38
767.322	6.38
768.07	8.38
768.817	8.38
769.565	9.38
770.312	6.38
771.06	8.38
771.807	6.38
772.554	7.38
773.302	8.38
774.049	5.38
774.796	6.38
775.543	8.38
776.29	7.38
777.036	9.38
777.783	7.38
778.53	6.38
779.276	11.38
780.023	8.38
780.769	9.38
781.516	8.38
782.262	9.38
783.008	9.38
783.754	10.38
784.5	8.38
785.246	8.38
785.992	9.38
786.738	9.38
787.484	9.38
788.23	8.38
788.975	8.38
789.721	7.38
790.466	7.38
791.212	9.38
791.957	9.38
792.702	6.38
793.447	9.38
794.193	9.38
794.938	8.38
795.683	7.38
796.427	7.38
797.172	8.38
797.917	5.38
798.662	5.38
799.406	6.38
800.151	9.38
800.895	5.38
801.64	6.38
802.384	6.38
803.128	6.38
803.872	7.38
804.616	6.38
805.36	6.38
806.104	7.38
806.848	6.38
807.592	6.38
808.336	7.38
809.079	4.38
809.823	5.38
810.566	5.38
811.31	4.38
812.053	6.38
812.796	4.38
813.539	1.38
814.283	6.38
815.026	5.38
815.769	5.38
816.511	6.38
817.254	4.38
817.997	7.38
818.74	1.38
819.482	3.38
820.225	4.38
820.967	4.38
821.71	3.38
822.452	2.38
823.194	3.38
823.936	3.38
824.678	4.38
825.42	3.38
826.162	4.38
826.904	3.38
827.646	4.38
828.388	1.38
829.129	4.38
829.871	1.38
830.612	4.38
831.354	0.38
832.095	5.38
832.836	3.38
833.577	3.38
834.319	4.38
835.06	3.38
835.801	6.38
836.542	2.38
837.282	3.38
838.023	3.38
838.764	3.38
839.504	3.38
840.245	4.38
840.985	2.38
841.726	3.38
842.466	1.38
843.206	2.38
843.946	2.38
844.687	3.38
845.427	1.38
846.166	2.38
846.906	2.38
847.646	5.38
848.386	4.38
849.125	4.38
849.865	3.38
850.605	-0.62
851.344	0.38
852.083	3.38
852.823	2.38
853.562	5.38
854.301	0.38
855.04	2.38
855.779	0.38
856.518	2.38
857.257	0.38
857.995	1.38
858.734	4.38
859.473	2.38
860.211	2.38
860.95	1.38
861.688	1.38
862.426	3.38
863.165	0.38
863.903	1.38
864.641	1.38
865.379	1.38
866.117	1.38
866.855	-0.62
867.593	0.38
868.33	-2.62
869.068	0.38
869.806	-1.62
870.543	-0.62
871.28	1.38
872.018	2.38
872.755	1.38
873.492	-0.62
874.229	1.38
874.967	0.38
875.703	-1.62
876.44	2.38
877.177	1.38
877.914	1.38
878.651	-1.62
879.387	2.38
880.124	-0.62
880.86	0.38
881.597	1.38
882.333	-0.62
883.069	1.38
883.806	0.38
884.542	1.38
885.278	2.38
886.014	0.38
886.749	1.38
887.485	0.38
888.221	-0.62
888.957	0.38
889.692	-0.62
890.428	-1.62
891.163	0.38
891.899	3.38
892.634	2.38
893.369	-0.62
894.104	0.38
894.839	-0.62
895.574	2.38
896.309	1.38
897.044	0.38
897.779	0.38
898.514	-0.62
899.248	0.38
899.983	-1.62
900.717	0.38
901.452	0.38
902.186	0.38
902.92	-0.62
903.654	-0.62
904.389	3.38
905.123	1.38
905.857	1.38
906.59	0.38
907.324	-0.62
908.058	1.38
908.792	-0.62
909.525	-0.62
910.259	-0.62
910.992	1.38
911.726	-0.62
912.459	0.38
913.192	-0.62
913.925	-0.62
914.658	1.38
915.391	0.38
916.124	1.38
916.857	0.38
917.59	0.38
918.323	1.38
919.055	0.38
919.788	2.38
920.521	-0.62
921.253	1.38
921.985	1.38
922.718	-1.62
923.45	0.38
924.182	1.38
924.914	-0.62
925.646	-2.62
926.378	-0.62
927.11	-0.62
927.841	1.38
928.573	3.38
929.305	2.38
930.036	-0.62
930.768	-1.62
931.499	-0.62
932.23	0.38
932.962	1.38
933.693	-0.62
934.424	-0.62
935.155	-1.62
935.886	0.38
936.617	-1.62
937.348	3.38
938.078	-2.62
938.809	1.38
939.54	1.38
940.27	1.38
941.001	1.38
941.731	0.38
942.461	0.38
943.191	0.38
943.922	0.38
944.652	0.38
945.382	0.38
946.112	0.38
946.841	-1.62
947.571	0.38
948.301	0.38
949.031	-0.62
949.76	0.38
950.49	-1.62
951.219	3.38
951.948	0.38
952.678	-0.62
953.407	1.38
954.136	-0.62
954.865	3.38
955.594	-0.62
956.323	0.38
957.052	-0.62
957.78	-1.62
958.509	1.38
959.238	-0.62
959.966	1.38
960.695	1.38
961.423	1.38
962.151	2.38
962.88	2.38
963.608	2.38
964.336	-1.62
965.064	0.38
965.792	1.38
966.52	-0.62
967.247	0.38
967.975	-0.62
968.703	0.38
969.43	-0.62
970.158	0.38
970.885	0.38
971.613	-1.62
972.34	0.38
973.067	-0.62
973.794	1.38
974.521	0.38
975.248	-0.62
975.975	1.38
976.702	0.38
977.429	0.38
978.156	0.38
978.882	0.38
979.609	-0.62
980.335	-0.62
981.062	-0.62
981.788	0.38
982.514	0.38
983.24	-0.62
983.967	1.38
984.693	-0.62
985.419	-0.62
986.144	-1.62
986.87	0.38
987.596	-0.62
988.322	-0.62
989.047	1.38
989.773	0.38
990.498	-1.62
991.224	1.38
991.949	2.38
992.674	-0.62
993.399	0.38
994.124	1.38
994.849	0.38
995.574	-2.62
996.299	0.38
997.024	1.38
997.749	1.38
998.473	0.38
999.198	1.38
999.922	1.38
1000.647	-0.62
1001.371	3.38
1002.095	0.38
1002.82	-0.62
1003.544	-1.62
1004.268	1.38
1004.992	0.38
1005.716	0.38
1006.439	1.38
1007.163	0.38
1007.887	1.38
1008.611	-0.62
1009.334	0.38
1010.058	-1.62
1010.781	-0.62
1011.504	0.38
1012.228	2.38
1012.951	-2.62
1013.674	1.38
1014.397	1.38
1015.12	-1.62
