节点500_285_QEPB04081__609__15-05-41-126.txt的数据

Date: Wed Nov 12 15:05:41 CST 2025
User: PC
Spectrometer: QEPB0408
触发模式: 0
积分时间 (秒): 1.000000E-2
Scans to average: 1
启用暗噪声校正: true
启用非线性校正: false
滑动平均宽度: 0
X轴模式: Wavelengths
Number of Pixels in Spectrum: 1044
>>>>>Begin Spectral Data<<<<<
220.843	0.38
221.644	2.38
222.444	0.38
223.244	4.38
224.045	2.38
224.845	1.38
225.645	3.38
226.445	1.38
227.245	1.38
228.045	2.38
228.845	3.38
229.645	0.38
230.444	3.38
231.244	2.38
232.043	4.38
232.843	4.38
233.642	4.38
234.442	5.38
235.241	1.38
236.04	2.38
236.839	4.38
237.638	6.38
238.437	5.38
239.236	7.38
240.035	5.38
240.833	7.38
241.632	3.38
242.43	4.38
243.229	5.38
244.027	3.38
244.826	5.38
245.624	4.38
246.422	3.38
247.22	5.38
248.018	7.38
248.816	5.38
249.614	3.38
250.412	6.38
251.21	6.38
252.007	7.38
252.805	7.38
253.602	6.38
254.4	8.38
255.197	6.38
255.994	7.38
256.791	5.38
257.589	9.38
258.386	8.38
259.183	8.38
259.979	13.38
260.776	7.38
261.573	10.38
262.37	11.38
263.166	8.38
263.963	11.38
264.759	10.38
265.556	11.38
266.352	13.38
267.148	13.38
267.944	13.38
268.74	15.38
269.536	13.38
270.332	11.38
271.128	14.38
271.924	13.38
272.719	16.38
273.515	12.38
274.311	13.38
275.106	16.38
275.901	16.38
276.697	17.38
277.492	17.38
278.287	17.38
279.082	15.38
279.877	17.38
280.672	18.38
281.467	15.38
282.262	17.38
283.056	18.38
283.851	16.38
284.646	17.38
285.44	19.38
286.234	16.38
287.029	19.38
287.823	16.38
288.617	17.38
289.411	18.38
290.205	16.38
290.999	19.38
291.793	16.38
292.587	19.38
293.381	18.38
294.174	17.38
294.968	16.38
295.761	13.38
296.555	15.38
297.348	16.38
298.141	13.38
298.935	16.38
299.728	14.38
300.521	14.38
301.314	15.38
302.107	12.38
302.899	13.38
303.692	14.38
304.485	10.38
305.277	14.38
306.07	11.38
306.862	11.38
307.655	10.38
308.447	14.38
309.239	12.38
310.031	11.38
310.823	10.38
311.615	9.38
312.407	10.38
313.199	8.38
313.991	10.38
314.783	10.38
315.574	9.38
316.366	9.38
317.157	9.38
317.949	8.38
318.74	6.38
319.531	8.38
320.322	8.38
321.113	4.38
321.904	6.38
322.695	8.38
323.486	9.38
324.277	7.38
325.068	8.38
325.858	7.38
326.649	8.38
327.439	8.38
328.23	7.38
329.02	7.38
329.81	8.38
330.6	6.38
331.391	7.38
332.181	6.38
332.971	8.38
333.76	5.38
334.55	7.38
335.34	6.38
336.13	6.38
336.919	6.38
337.709	6.38
338.498	6.38
339.287	6.38
340.077	7.38
340.866	8.38
341.655	5.38
342.444	7.38
343.233	7.38
344.022	5.38
344.811	6.38
345.6	4.38
346.388	6.38
347.177	6.38
347.965	9.38
348.754	6.38
349.542	5.38
350.33	5.38
351.119	6.38
351.907	9.38
352.695	7.38
353.483	6.38
354.271	7.38
355.059	7.38
355.846	5.38
356.634	4.38
357.422	6.38
358.209	2.38
358.997	8.38
359.784	5.38
360.571	4.38
361.359	4.38
362.146	5.38
362.933	5.38
363.72	5.38
364.507	4.38
365.294	6.38
366.081	6.38
366.867	6.38
367.654	4.38
368.44	8.38
369.227	6.38
370.013	7.38
370.8	4.38
371.586	5.38
372.372	5.38
373.158	6.38
373.944	4.38
374.73	3.38
375.516	9.38
376.302	7.38
377.088	1.38
377.873	5.38
378.659	5.38
379.445	5.38
380.23	3.38
381.015	4.38
381.801	3.38
382.586	8.38
383.371	5.38
384.156	5.38
384.941	6.38
385.726	5.38
386.511	5.38
387.296	8.38
388.08	4.38
388.865	4.38
389.649	5.38
390.434	6.38
391.218	5.38
392.003	6.38
392.787	6.38
393.571	5.38
394.355	7.38
395.139	7.38
395.923	4.38
396.707	6.38
397.491	5.38
398.274	7.38
399.058	5.38
399.842	8.38
400.625	8.38
401.408	7.38
402.192	7.38
402.975	8.38
403.758	7.38
404.541	7.38
405.324	9.38
406.107	7.38
406.89	7.38
407.673	4.38
408.456	9.38
409.238	9.38
410.021	7.38
410.803	7.38
411.586	8.38
412.368	7.38
413.151	8.38
413.933	9.38
414.715	8.38
415.497	10.38
416.279	7.38
417.061	8.38
417.843	10.38
418.624	11.38
419.406	11.38
420.188	10.38
420.969	11.38
421.751	10.38
422.532	10.38
423.313	10.38
424.095	11.38
424.876	9.38
425.657	11.38
426.438	12.38
427.219	12.38
428	11.38
428.78	13.38
429.561	16.38
430.342	15.38
431.122	12.38
431.903	14.38
432.683	13.38
433.464	17.38
434.244	17.38
435.024	16.38
435.804	17.38
436.584	19.38
437.364	18.38
438.144	20.38
438.924	23.38
439.704	19.38
440.483	23.38
441.263	24.38
442.042	25.38
442.822	26.38
443.601	29.38
444.38	30.38
445.16	33.38
445.939	32.38
446.718	38.38
447.497	39.38
448.276	46.38
449.054	49.38
449.833	49.38
450.612	56.38
451.391	60.38
452.169	64.38
452.948	71.38
453.726	77.38
454.504	90.38
455.282	97.38
456.061	106.38
456.839	117.38
457.617	131.38
458.395	142.38
459.172	157.38
459.95	175.38
460.728	196.38
461.506	222.38
462.283	246.38
463.061	278.38
463.838	309.38
464.615	336.38
465.393	385.38
466.17	420.38
466.947	482.38
467.724	525.38
468.501	575.38
469.278	655.38
470.055	728.38
470.831	794.38
471.608	876.38
472.385	971.38
473.161	1089.38
473.938	1190.38
474.714	1315.38
475.49	1448.38
476.266	1605.38
477.043	1771.38
477.819	1946.38
478.595	2139.38
479.371	2333.38
480.146	2570.38
480.922	2820.38
481.698	3094.38
482.473	3404.38
483.249	3730.38
484.024	4055.38
484.8	4470.38
485.575	4874.38
486.35	5334.38
487.126	5810.38
487.901	6369.38
488.676	6957.38
489.451	7577.38
490.225	8274.38
491	8989.38
491.775	9810.38
492.55	10636.38
493.324	11501.38
494.099	12349.38
494.873	13291.38
495.647	14347.38
496.422	15327.38
497.196	16449.38
497.97	17503.38
498.744	18664.38
499.518	19754.38
500.292	20801.38
501.066	21856.38
501.839	22778.38
502.613	23697.38
503.387	24549.38
504.16	25246.38
504.934	25651.38
505.707	25938.38
506.48	26069.38
507.253	26188.38
508.027	26105.38
508.8	25927.38
509.573	25679.38
510.346	25210.38
511.118	24593.38
511.891	23878.38
512.664	23178.38
513.437	22396.38
514.209	21522.38
514.982	20748.38
515.754	19896.38
516.526	19038.38
517.298	18236.38
518.071	17503.38
518.843	16845.38
519.615	16229.38
520.387	15568.38
521.159	14941.38
521.93	14309.38
522.702	13761.38
523.474	13201.38
524.245	12656.38
525.017	12126.38
525.788	11662.38
526.56	11141.38
527.331	10627.38
528.102	10181.38
528.873	9738.38
529.644	9256.38
530.415	8841.38
531.186	8406.38
531.957	7971.38
532.728	7582.38
533.498	7199.38
534.269	6821.38
535.039	6445.38
535.81	6059.38
536.58	5751.38
537.351	5421.38
538.121	5143.38
538.891	4845.38
539.661	4595.38
540.431	4316.38
541.201	4065.38
541.971	3885.38
542.741	3645.38
543.51	3506.38
544.28	3340.38
545.05	3175.38
545.819	3010.38
546.588	2854.38
547.358	2724.38
548.127	2589.38
548.896	2458.38
549.665	2341.38
550.434	2214.38
551.203	2091.38
551.972	1998.38
552.741	1868.38
553.51	1780.38
554.278	1674.38
555.047	1584.38
555.815	1509.38
556.584	1415.38
557.352	1348.38
558.121	1261.38
558.889	1192.38
559.657	1138.38
560.425	1065.38
561.193	999.38
561.961	954.38
562.729	905.38
563.496	852.38
564.264	791.38
565.032	764.38
565.799	713.38
566.567	690.38
567.334	649.38
568.101	603.38
568.869	568.38
569.636	544.38
570.403	510.38
571.17	476.38
571.937	446.38
572.704	422.38
573.471	407.38
574.237	377.38
575.004	356.38
575.771	329.38
576.537	316.38
577.303	301.38
578.07	283.38
578.836	267.38
579.602	253.38
580.368	237.38
581.134	229.38
581.9	208.38
582.666	195.38
583.432	191.38
584.198	184.38
584.964	176.38
585.729	158.38
586.495	154.38
587.26	143.38
588.025	138.38
588.791	127.38
589.556	124.38
590.321	114.38
591.086	111.38
591.851	104.38
592.616	96.38
593.381	93.38
594.146	90.38
594.911	87.38
595.675	86.38
596.44	78.38
597.204	74.38
597.969	72.38
598.733	70.38
599.497	66.38
600.261	62.38
601.025	57.38
601.79	56.38
602.553	56.38
603.317	51.38
604.081	51.38
604.845	50.38
605.609	46.38
606.372	44.38
607.136	42.38
607.899	40.38
608.662	37.38
609.426	37.38
610.189	34.38
610.952	34.38
611.715	35.38
612.478	32.38
613.241	33.38
614.004	25.38
614.767	30.38
615.529	26.38
616.292	27.38
617.055	25.38
617.817	28.38
618.579	26.38
619.342	23.38
620.104	24.38
620.866	24.38
621.628	22.38
622.39	20.38
623.152	19.38
623.914	19.38
624.676	19.38
625.438	15.38
626.199	20.38
626.961	18.38
627.722	17.38
628.484	13.38
629.245	14.38
630.006	15.38
630.768	14.38
631.529	13.38
632.29	14.38
633.051	10.38
633.812	12.38
634.573	12.38
635.333	12.38
636.094	12.38
636.855	12.38
637.615	9.38
638.376	12.38
639.136	11.38
639.896	10.38
640.657	10.38
641.417	8.38
642.177	8.38
642.937	7.38
643.697	9.38
644.457	10.38
645.216	7.38
645.976	8.38
646.736	10.38
647.495	9.38
648.255	4.38
649.014	7.38
649.774	8.38
650.533	7.38
651.292	8.38
652.051	7.38
652.81	7.38
653.569	6.38
654.328	7.38
655.087	5.38
655.846	8.38
656.604	7.38
657.363	5.38
658.121	7.38
658.88	5.38
659.638	5.38
660.397	8.38
661.155	6.38
661.913	4.38
662.671	7.38
663.429	8.38
664.187	4.38
664.945	7.38
665.703	4.38
666.46	5.38
667.218	5.38
667.976	4.38
668.733	6.38
669.49	6.38
670.248	5.38
671.005	4.38
671.762	5.38
672.519	5.38
673.276	6.38
674.033	5.38
674.79	4.38
675.547	4.38
676.304	5.38
677.06	5.38
677.817	8.38
678.574	7.38
679.33	4.38
680.086	2.38
680.843	5.38
681.599	5.38
682.355	3.38
683.111	3.38
683.867	3.38
684.623	6.38
685.379	2.38
686.135	2.38
686.89	7.38
687.646	4.38
688.402	5.38
689.157	5.38
689.912	3.38
690.668	4.38
691.423	3.38
692.178	4.38
692.933	3.38
693.688	5.38
694.443	4.38
695.198	3.38
695.953	3.38
696.708	4.38
697.462	5.38
698.217	1.38
698.972	3.38
699.726	2.38
700.48	4.38
701.235	3.38
701.989	6.38
702.743	4.38
703.497	3.38
704.251	1.38
705.005	2.38
705.759	5.38
706.513	3.38
707.266	3.38
708.02	4.38
708.774	1.38
709.527	3.38
710.28	3.38
711.034	1.38
711.787	4.38
712.54	4.38
713.293	6.38
714.046	4.38
714.799	2.38
715.552	1.38
716.305	5.38
717.058	5.38
717.81	4.38
718.563	3.38
719.315	4.38
720.068	3.38
720.82	2.38
721.573	5.38
722.325	5.38
723.077	5.38
723.829	5.38
724.581	3.38
725.333	4.38
726.085	5.38
726.836	2.38
727.588	2.38
728.34	4.38
729.091	5.38
729.843	4.38
730.594	2.38
731.346	4.38
732.097	3.38
732.848	5.38
733.599	6.38
734.35	4.38
735.101	3.38
735.852	4.38
736.603	4.38
737.354	4.38
738.104	3.38
738.855	4.38
739.605	6.38
740.356	4.38
741.106	2.38
741.856	4.38
742.607	3.38
743.357	4.38
744.107	5.38
744.857	5.38
745.607	6.38
746.357	2.38
747.106	4.38
747.856	4.38
748.606	2.38
749.355	3.38
750.105	2.38
750.854	3.38
751.603	5.38
752.353	5.38
753.102	6.38
753.851	4.38
754.6	8.38
755.349	5.38
756.098	5.38
756.847	5.38
757.595	8.38
758.344	5.38
759.093	5.38
759.841	8.38
760.589	4.38
761.338	6.38
762.086	6.38
762.834	6.38
763.582	7.38
764.331	5.38
765.079	7.38
765.826	6.38
766.574	7.38
767.322	7.38
768.07	9.38
768.817	6.38
769.565	6.38
770.312	8.38
771.06	6.38
771.807	8.38
772.554	6.38
773.302	6.38
774.049	6.38
774.796	6.38
775.543	9.38
776.29	6.38
777.036	8.38
777.783	7.38
778.53	9.38
779.276	9.38
780.023	8.38
780.769	8.38
781.516	10.38
782.262	6.38
783.008	7.38
783.754	7.38
784.5	9.38
785.246	10.38
785.992	8.38
786.738	11.38
787.484	8.38
788.23	8.38
788.975	6.38
789.721	8.38
790.466	7.38
791.212	8.38
791.957	8.38
792.702	8.38
793.447	8.38
794.193	8.38
794.938	7.38
795.683	7.38
796.427	9.38
797.172	5.38
797.917	4.38
798.662	11.38
799.406	9.38
800.151	9.38
800.895	9.38
801.64	6.38
802.384	8.38
803.128	7.38
803.872	9.38
804.616	6.38
805.36	8.38
806.104	8.38
806.848	4.38
807.592	7.38
808.336	5.38
809.079	6.38
809.823	4.38
810.566	6.38
811.31	5.38
812.053	5.38
812.796	6.38
813.539	7.38
814.283	5.38
815.026	4.38
815.769	3.38
816.511	6.38
817.254	3.38
817.997	6.38
818.74	3.38
819.482	5.38
820.225	4.38
820.967	6.38
821.71	5.38
822.452	5.38
823.194	6.38
823.936	2.38
824.678	5.38
825.42	4.38
826.162	5.38
826.904	4.38
827.646	4.38
828.388	3.38
829.129	4.38
829.871	2.38
830.612	4.38
831.354	3.38
832.095	3.38
832.836	3.38
833.577	2.38
834.319	3.38
835.06	5.38
835.801	4.38
836.542	2.38
837.282	4.38
838.023	4.38
838.764	5.38
839.504	2.38
840.245	2.38
840.985	4.38
841.726	2.38
842.466	4.38
843.206	4.38
843.946	3.38
844.687	4.38
845.427	2.38
846.166	2.38
846.906	3.38
847.646	4.38
848.386	5.38
849.125	3.38
849.865	3.38
850.605	3.38
851.344	2.38
852.083	1.38
852.823	4.38
853.562	2.38
854.301	2.38
855.04	1.38
855.779	5.38
856.518	2.38
857.257	1.38
857.995	5.38
858.734	3.38
859.473	2.38
860.211	3.38
860.95	4.38
861.688	3.38
862.426	3.38
863.165	2.38
863.903	1.38
864.641	2.38
865.379	1.38
866.117	1.38
866.855	2.38
867.593	2.38
868.33	2.38
869.068	3.38
869.806	1.38
870.543	5.38
871.28	1.38
872.018	0.38
872.755	0.38
873.492	2.38
874.229	2.38
874.967	1.38
875.703	0.38
876.44	2.38
877.177	3.38
877.914	2.38
878.651	-0.62
879.387	1.38
880.124	0.38
880.86	1.38
881.597	1.38
882.333	1.38
883.069	2.38
883.806	0.38
884.542	2.38
885.278	1.38
886.014	1.38
886.749	1.38
887.485	1.38
888.221	0.38
888.957	1.38
889.692	2.38
890.428	2.38
891.163	0.38
891.899	0.38
892.634	-1.62
893.369	1.38
894.104	2.38
894.839	0.38
895.574	0.38
896.309	2.38
897.044	-0.62
897.779	-1.62
898.514	2.38
899.248	2.38
899.983	1.38
900.717	2.38
901.452	0.38
902.186	3.38
902.92	1.38
903.654	0.38
904.389	0.38
905.123	-0.62
905.857	1.38
906.59	0.38
907.324	1.38
908.058	-1.62
908.792	2.38
909.525	1.38
910.259	1.38
910.992	2.38
911.726	1.38
912.459	1.38
913.192	0.38
913.925	1.38
914.658	1.38
915.391	0.38
916.124	2.38
916.857	-0.62
917.59	-0.62
918.323	1.38
919.055	-1.62
919.788	2.38
920.521	1.38
921.253	1.38
921.985	1.38
922.718	4.38
923.45	-0.62
924.182	-2.62
924.914	3.38
925.646	0.38
926.378	0.38
927.11	-0.62
927.841	0.38
928.573	1.38
929.305	1.38
930.036	-1.62
930.768	-1.62
931.499	3.38
932.23	-0.62
932.962	0.38
933.693	-0.62
934.424	2.38
935.155	0.38
935.886	2.38
936.617	2.38
937.348	1.38
938.078	2.38
938.809	0.38
939.54	-1.62
940.27	2.38
941.001	0.38
941.731	0.38
942.461	1.38
943.191	0.38
943.922	3.38
944.652	0.38
945.382	-1.62
946.112	-0.62
946.841	2.38
947.571	2.38
948.301	2.38
949.031	0.38
949.76	-1.62
950.49	2.38
951.219	-0.62
951.948	-2.62
952.678	2.38
953.407	-0.62
954.136	1.38
954.865	2.38
955.594	-0.62
956.323	0.38
957.052	-1.62
957.78	0.38
958.509	1.38
959.238	2.38
959.966	4.38
960.695	2.38
961.423	2.38
962.151	0.38
962.88	-1.62
963.608	-0.62
964.336	0.38
965.064	-1.62
965.792	0.38
966.52	1.38
967.247	1.38
967.975	2.38
968.703	0.38
969.43	1.38
970.158	0.38
970.885	1.38
971.613	0.38
972.34	1.38
973.067	1.38
973.794	-1.62
974.521	1.38
975.248	0.38
975.975	-0.62
976.702	0.38
977.429	1.38
978.156	2.38
978.882	0.38
979.609	2.38
980.335	0.38
981.062	1.38
981.788	1.38
982.514	1.38
983.24	-0.62
983.967	0.38
984.693	0.38
985.419	0.38
986.144	1.38
986.87	2.38
987.596	-0.62
988.322	0.38
989.047	0.38
989.773	-0.62
990.498	-0.62
991.224	-1.62
991.949	1.38
992.674	-1.62
993.399	0.38
994.124	0.38
994.849	1.38
995.574	1.38
996.299	0.38
997.024	-1.62
997.749	0.38
998.473	1.38
999.198	3.38
999.922	-0.62
1000.647	1.38
1001.371	2.38
1002.095	-1.62
1002.82	-1.62
1003.544	-1.62
1004.268	3.38
1004.992	0.38
1005.716	2.38
1006.439	4.38
1007.163	0.38
1007.887	2.38
1008.611	-1.62
1009.334	1.38
1010.058	-0.62
1010.781	1.38
1011.504	1.38
1012.228	2.38
1012.951	0.38
1013.674	0.38
1014.397	0.38
1015.12	1.38
