节点500_285_QEPB04081__322__15-00-54-736.txt的数据

Date: Wed Nov 12 15:00:54 CST 2025
User: PC
Spectrometer: QEPB0408
触发模式: 0
积分时间 (秒): 1.000000E-2
Scans to average: 1
启用暗噪声校正: true
启用非线性校正: false
滑动平均宽度: 0
X轴模式: Wavelengths
Number of Pixels in Spectrum: 1044
>>>>>Begin Spectral Data<<<<<
220.843	-0.38
221.644	-1.38
222.444	0.62
223.244	0.62
224.045	2.62
224.845	0.62
225.645	1.62
226.445	3.62
227.245	1.62
228.045	3.62
228.845	1.62
229.645	2.62
230.444	1.62
231.244	2.62
232.043	3.62
232.843	1.62
233.642	3.62
234.442	4.62
235.241	3.62
236.04	1.62
236.839	5.62
237.638	3.62
238.437	3.62
239.236	3.62
240.035	3.62
240.833	2.62
241.632	5.62
242.43	2.62
243.229	6.62
244.027	4.62
244.826	6.62
245.624	5.62
246.422	4.62
247.22	6.62
248.018	2.62
248.816	5.62
249.614	7.62
250.412	7.62
251.21	6.62
252.007	2.62
252.805	8.62
253.602	6.62
254.4	10.62
255.197	7.62
255.994	7.62
256.791	8.62
257.589	7.62
258.386	9.62
259.183	10.62
259.979	11.62
260.776	9.62
261.573	9.62
262.37	11.62
263.166	12.62
263.963	12.62
264.759	11.62
265.556	12.62
266.352	8.62
267.148	10.62
267.944	12.62
268.74	13.62
269.536	16.62
270.332	13.62
271.128	15.62
271.924	16.62
272.719	13.62
273.515	17.62
274.311	16.62
275.106	18.62
275.901	17.62
276.697	16.62
277.492	16.62
278.287	17.62
279.082	17.62
279.877	19.62
280.672	16.62
281.467	18.62
282.262	18.62
283.056	21.62
283.851	19.62
284.646	18.62
285.44	16.62
286.234	18.62
287.029	17.62
287.823	17.62
288.617	15.62
289.411	18.62
290.205	19.62
290.999	18.62
291.793	13.62
292.587	19.62
293.381	16.62
294.174	17.62
294.968	17.62
295.761	13.62
296.555	16.62
297.348	14.62
298.141	13.62
298.935	15.62
299.728	13.62
300.521	14.62
301.314	13.62
302.107	14.62
302.899	13.62
303.692	14.62
304.485	11.62
305.277	11.62
306.07	13.62
306.862	10.62
307.655	11.62
308.447	10.62
309.239	11.62
310.031	11.62
310.823	10.62
311.615	11.62
312.407	8.62
313.199	11.62
313.991	9.62
314.783	8.62
315.574	10.62
316.366	9.62
317.157	7.62
317.949	8.62
318.74	7.62
319.531	9.62
320.322	6.62
321.113	10.62
321.904	5.62
322.695	6.62
323.486	5.62
324.277	5.62
325.068	7.62
325.858	4.62
326.649	6.62
327.439	7.62
328.23	7.62
329.02	8.62
329.81	7.62
330.6	7.62
331.391	5.62
332.181	7.62
332.971	7.62
333.76	6.62
334.55	6.62
335.34	8.62
336.13	6.62
336.919	6.62
337.709	6.62
338.498	7.62
339.287	5.62
340.077	6.62
340.866	5.62
341.655	8.62
342.444	4.62
343.233	6.62
344.022	4.62
344.811	2.62
345.6	7.62
346.388	7.62
347.177	4.62
347.965	8.62
348.754	6.62
349.542	5.62
350.33	3.62
351.119	7.62
351.907	5.62
352.695	6.62
353.483	7.62
354.271	5.62
355.059	3.62
355.846	2.62
356.634	6.62
357.422	6.62
358.209	1.62
358.997	5.62
359.784	6.62
360.571	6.62
361.359	6.62
362.146	6.62
362.933	4.62
363.72	6.62
364.507	4.62
365.294	6.62
366.081	6.62
366.867	5.62
367.654	5.62
368.44	5.62
369.227	4.62
370.013	6.62
370.8	5.62
371.586	5.62
372.372	6.62
373.158	4.62
373.944	6.62
374.73	5.62
375.516	6.62
376.302	5.62
377.088	4.62
377.873	5.62
378.659	3.62
379.445	3.62
380.23	5.62
381.015	5.62
381.801	2.62
382.586	4.62
383.371	7.62
384.156	5.62
384.941	4.62
385.726	4.62
386.511	4.62
387.296	5.62
388.08	5.62
388.865	5.62
389.649	4.62
390.434	6.62
391.218	4.62
392.003	7.62
392.787	5.62
393.571	5.62
394.355	5.62
395.139	5.62
395.923	6.62
396.707	8.62
397.491	5.62
398.274	5.62
399.058	6.62
399.842	9.62
400.625	5.62
401.408	6.62
402.192	8.62
402.975	6.62
403.758	8.62
404.541	7.62
405.324	7.62
406.107	8.62
406.89	9.62
407.673	6.62
408.456	8.62
409.238	10.62
410.021	8.62
410.803	4.62
411.586	8.62
412.368	9.62
413.151	8.62
413.933	7.62
414.715	8.62
415.497	8.62
416.279	7.62
417.061	9.62
417.843	6.62
418.624	8.62
419.406	8.62
420.188	9.62
420.969	9.62
421.751	10.62
422.532	9.62
423.313	9.62
424.095	13.62
424.876	13.62
425.657	11.62
426.438	11.62
427.219	9.62
428	12.62
428.78	11.62
429.561	12.62
430.342	12.62
431.122	16.62
431.903	15.62
432.683	13.62
433.464	13.62
434.244	14.62
435.024	17.62
435.804	15.62
436.584	18.62
437.364	18.62
438.144	18.62
438.924	21.62
439.704	23.62
440.483	24.62
441.263	24.62
442.042	28.62
442.822	28.62
443.601	27.62
444.38	26.62
445.16	34.62
445.939	31.62
446.718	33.62
447.497	38.62
448.276	42.62
449.054	42.62
449.833	49.62
450.612	53.62
451.391	58.62
452.169	63.62
452.948	67.62
453.726	75.62
454.504	78.62
455.282	90.62
456.061	100.62
456.839	110.62
457.617	123.62
458.395	136.62
459.172	153.62
459.95	164.62
460.728	185.62
461.506	204.62
462.283	230.62
463.061	252.62
463.838	285.62
464.615	320.62
465.393	365.62
466.17	392.62
466.947	451.62
467.724	491.62
468.501	556.62
469.278	612.62
470.055	689.62
470.831	755.62
471.608	861.62
472.385	947.62
473.161	1049.62
473.938	1170.62
474.714	1280.62
475.49	1427.62
476.266	1581.62
477.043	1758.62
477.819	1946.62
478.595	2138.62
479.371	2353.62
480.146	2601.62
480.922	2865.62
481.698	3163.62
482.473	3479.62
483.249	3811.62
484.024	4185.62
484.8	4646.62
485.575	5077.62
486.35	5608.62
487.126	6117.62
487.901	6739.62
488.676	7388.62
489.451	8092.62
490.225	8846.62
491	9681.62
491.775	10520.62
492.55	11499.62
493.324	12458.62
494.099	13452.62
494.873	14487.62
495.647	15657.62
496.422	16804.62
497.196	18011.62
497.97	19194.62
498.744	20407.62
499.518	21547.62
500.292	22695.62
501.066	23803.62
501.839	24683.62
502.613	25656.62
503.387	26453.62
504.16	27058.62
504.934	27399.62
505.707	27547.62
506.48	27568.62
507.253	27491.62
508.027	27208.62
508.8	26906.62
509.573	26444.62
510.346	25800.62
511.118	25028.62
511.891	24221.62
512.664	23416.62
513.437	22445.62
514.209	21590.62
514.982	20652.62
515.754	19774.62
516.526	18822.62
517.298	17988.62
518.071	17274.62
518.843	16589.62
519.615	15962.62
520.387	15323.62
521.159	14722.62
521.93	14119.62
522.702	13549.62
523.474	13027.62
524.245	12453.62
525.017	11953.62
525.788	11435.62
526.56	10957.62
527.331	10444.62
528.102	9969.62
528.873	9509.62
529.644	8984.62
530.415	8593.62
531.186	8147.62
531.957	7718.62
532.728	7340.62
533.498	6969.62
534.269	6544.62
535.039	6187.62
535.81	5885.62
536.58	5528.62
537.351	5181.62
538.121	4896.62
538.891	4632.62
539.661	4415.62
540.431	4159.62
541.201	3917.62
541.971	3729.62
542.741	3500.62
543.51	3356.62
544.28	3204.62
545.05	3046.62
545.819	2898.62
546.588	2742.62
547.358	2617.62
548.127	2480.62
548.896	2372.62
549.665	2239.62
550.434	2103.62
551.203	1998.62
551.972	1891.62
552.741	1782.62
553.51	1668.62
554.278	1593.62
555.047	1499.62
555.815	1434.62
556.584	1344.62
557.352	1268.62
558.121	1196.62
558.889	1138.62
559.657	1060.62
560.425	1003.62
561.193	946.62
561.961	898.62
562.729	848.62
563.496	802.62
564.264	759.62
565.032	724.62
565.799	681.62
566.567	640.62
567.334	610.62
568.101	570.62
568.869	537.62
569.636	509.62
570.403	482.62
571.17	444.62
571.937	426.62
572.704	399.62
573.471	381.62
574.237	348.62
575.004	335.62
575.771	320.62
576.537	301.62
577.303	282.62
578.07	271.62
578.836	249.62
579.602	226.62
580.368	219.62
581.134	217.62
581.9	199.62
582.666	193.62
583.432	178.62
584.198	167.62
584.964	159.62
585.729	155.62
586.495	141.62
587.26	137.62
588.025	129.62
588.791	120.62
589.556	116.62
590.321	113.62
591.086	105.62
591.851	103.62
592.616	95.62
593.381	92.62
594.146	84.62
594.911	80.62
595.675	80.62
596.44	72.62
597.204	71.62
597.969	71.62
598.733	63.62
599.497	63.62
600.261	59.62
601.025	56.62
601.79	54.62
602.553	53.62
603.317	47.62
604.081	44.62
604.845	47.62
605.609	43.62
606.372	45.62
607.136	40.62
607.899	35.62
608.662	35.62
609.426	38.62
610.189	32.62
610.952	31.62
611.715	31.62
612.478	31.62
613.241	29.62
614.004	25.62
614.767	28.62
615.529	26.62
616.292	25.62
617.055	22.62
617.817	22.62
618.579	20.62
619.342	23.62
620.104	21.62
620.866	22.62
621.628	20.62
622.39	19.62
623.152	16.62
623.914	16.62
624.676	17.62
625.438	16.62
626.199	18.62
626.961	16.62
627.722	14.62
628.484	17.62
629.245	14.62
630.006	11.62
630.768	14.62
631.529	10.62
632.29	13.62
633.051	11.62
633.812	10.62
634.573	9.62
635.333	11.62
636.094	13.62
636.855	10.62
637.615	10.62
638.376	10.62
639.136	9.62
639.896	8.62
640.657	11.62
641.417	8.62
642.177	6.62
642.937	7.62
643.697	8.62
644.457	9.62
645.216	7.62
645.976	7.62
646.736	6.62
647.495	6.62
648.255	8.62
649.014	6.62
649.774	8.62
650.533	6.62
651.292	6.62
652.051	7.62
652.81	5.62
653.569	5.62
654.328	5.62
655.087	3.62
655.846	8.62
656.604	6.62
657.363	8.62
658.121	8.62
658.88	6.62
659.638	4.62
660.397	8.62
661.155	5.62
661.913	6.62
662.671	6.62
663.429	6.62
664.187	4.62
664.945	3.62
665.703	6.62
666.46	6.62
667.218	6.62
667.976	3.62
668.733	5.62
669.49	3.62
670.248	5.62
671.005	4.62
671.762	7.62
672.519	6.62
673.276	5.62
674.033	3.62
674.79	3.62
675.547	4.62
676.304	3.62
677.06	6.62
677.817	3.62
678.574	2.62
679.33	3.62
680.086	3.62
680.843	3.62
681.599	4.62
682.355	4.62
683.111	3.62
683.867	2.62
684.623	4.62
685.379	3.62
686.135	4.62
686.89	3.62
687.646	2.62
688.402	2.62
689.157	2.62
689.912	2.62
690.668	3.62
691.423	3.62
692.178	7.62
692.933	3.62
693.688	3.62
694.443	1.62
695.198	4.62
695.953	2.62
696.708	3.62
697.462	4.62
698.217	3.62
698.972	2.62
699.726	6.62
700.48	2.62
701.235	4.62
701.989	3.62
702.743	3.62
703.497	3.62
704.251	3.62
705.005	4.62
705.759	3.62
706.513	4.62
707.266	1.62
708.02	3.62
708.774	4.62
709.527	3.62
710.28	2.62
711.034	2.62
711.787	3.62
712.54	2.62
713.293	5.62
714.046	2.62
714.799	1.62
715.552	2.62
716.305	0.62
717.058	3.62
717.81	3.62
718.563	3.62
719.315	6.62
720.068	4.62
720.82	2.62
721.573	4.62
722.325	4.62
723.077	4.62
723.829	6.62
724.581	4.62
725.333	4.62
726.085	3.62
726.836	3.62
727.588	6.62
728.34	3.62
729.091	6.62
729.843	4.62
730.594	3.62
731.346	3.62
732.097	1.62
732.848	4.62
733.599	4.62
734.35	4.62
735.101	4.62
735.852	2.62
736.603	5.62
737.354	1.62
738.104	5.62
738.855	3.62
739.605	3.62
740.356	4.62
741.106	3.62
741.856	5.62
742.607	2.62
743.357	5.62
744.107	5.62
744.857	0.62
745.607	7.62
746.357	3.62
747.106	4.62
747.856	3.62
748.606	4.62
749.355	6.62
750.105	4.62
750.854	4.62
751.603	3.62
752.353	4.62
753.102	4.62
753.851	4.62
754.6	4.62
755.349	6.62
756.098	6.62
756.847	6.62
757.595	7.62
758.344	5.62
759.093	5.62
759.841	6.62
760.589	6.62
761.338	6.62
762.086	6.62
762.834	5.62
763.582	8.62
764.331	6.62
765.079	5.62
765.826	5.62
766.574	6.62
767.322	7.62
768.07	8.62
768.817	7.62
769.565	7.62
770.312	6.62
771.06	7.62
771.807	9.62
772.554	7.62
773.302	8.62
774.049	8.62
774.796	8.62
775.543	10.62
776.29	10.62
777.036	11.62
777.783	8.62
778.53	9.62
779.276	8.62
780.023	8.62
780.769	11.62
781.516	8.62
782.262	8.62
783.008	8.62
783.754	9.62
784.5	8.62
785.246	6.62
785.992	9.62
786.738	9.62
787.484	10.62
788.23	6.62
788.975	6.62
789.721	8.62
790.466	10.62
791.212	7.62
791.957	8.62
792.702	7.62
793.447	8.62
794.193	7.62
794.938	7.62
795.683	10.62
796.427	8.62
797.172	7.62
797.917	6.62
798.662	8.62
799.406	5.62
800.151	7.62
800.895	5.62
801.64	5.62
802.384	6.62
803.128	7.62
803.872	5.62
804.616	7.62
805.36	8.62
806.104	5.62
806.848	5.62
807.592	7.62
808.336	7.62
809.079	6.62
809.823	5.62
810.566	5.62
811.31	5.62
812.053	6.62
812.796	3.62
813.539	2.62
814.283	5.62
815.026	4.62
815.769	3.62
816.511	5.62
817.254	3.62
817.997	5.62
818.74	5.62
819.482	3.62
820.225	4.62
820.967	3.62
821.71	4.62
822.452	3.62
823.194	4.62
823.936	5.62
824.678	2.62
825.42	4.62
826.162	3.62
826.904	2.62
827.646	1.62
828.388	2.62
829.129	2.62
829.871	4.62
830.612	3.62
831.354	4.62
832.095	5.62
832.836	2.62
833.577	3.62
834.319	3.62
835.06	2.62
835.801	4.62
836.542	1.62
837.282	1.62
838.023	1.62
838.764	1.62
839.504	3.62
840.245	2.62
840.985	4.62
841.726	2.62
842.466	3.62
843.206	3.62
843.946	2.62
844.687	3.62
845.427	4.62
846.166	4.62
846.906	3.62
847.646	1.62
848.386	4.62
849.125	2.62
849.865	3.62
850.605	3.62
851.344	1.62
852.083	2.62
852.823	4.62
853.562	2.62
854.301	3.62
855.04	2.62
855.779	1.62
856.518	1.62
857.257	-0.38
857.995	2.62
858.734	0.62
859.473	2.62
860.211	2.62
860.95	3.62
861.688	3.62
862.426	2.62
863.165	3.62
863.903	0.62
864.641	1.62
865.379	1.62
866.117	0.62
866.855	1.62
867.593	1.62
868.33	1.62
869.068	1.62
869.806	1.62
870.543	1.62
871.28	0.62
872.018	-1.38
872.755	1.62
873.492	4.62
874.229	1.62
874.967	-1.38
875.703	3.62
876.44	1.62
877.177	0.62
877.914	2.62
878.651	0.62
879.387	0.62
880.124	0.62
880.86	0.62
881.597	1.62
882.333	1.62
883.069	-0.38
883.806	1.62
884.542	0.62
885.278	-0.38
886.014	1.62
886.749	1.62
887.485	-0.38
888.221	1.62
888.957	3.62
889.692	-0.38
890.428	-0.38
891.163	0.62
891.899	1.62
892.634	-0.38
893.369	-1.38
894.104	3.62
894.839	-0.38
895.574	0.62
896.309	0.62
897.044	-0.38
897.779	0.62
898.514	0.62
899.248	0.62
899.983	0.62
900.717	1.62
901.452	0.62
902.186	-0.38
902.92	1.62
903.654	0.62
904.389	-0.38
905.123	0.62
905.857	-1.38
906.59	0.62
907.324	3.62
908.058	2.62
908.792	-1.38
909.525	2.62
910.259	0.62
910.992	0.62
911.726	0.62
912.459	0.62
913.192	0.62
913.925	-0.38
914.658	0.62
915.391	1.62
916.124	-0.38
916.857	0.62
917.59	-0.38
918.323	0.62
919.055	0.62
919.788	1.62
920.521	0.62
921.253	0.62
921.985	0.62
922.718	0.62
923.45	0.62
924.182	-0.38
924.914	-0.38
925.646	-0.38
926.378	-3.38
927.11	1.62
927.841	0.62
928.573	-0.38
929.305	-0.38
930.036	1.62
930.768	0.62
931.499	0.62
932.23	-0.38
932.962	1.62
933.693	-0.38
934.424	0.62
935.155	-1.38
935.886	2.62
936.617	-0.38
937.348	0.62
938.078	0.62
938.809	-0.38
939.54	-0.38
940.27	-0.38
941.001	1.62
941.731	1.62
942.461	-2.38
943.191	-0.38
943.922	-0.38
944.652	1.62
945.382	-1.38
946.112	-0.38
946.841	1.62
947.571	1.62
948.301	0.62
949.031	0.62
949.76	1.62
950.49	-0.38
951.219	0.62
951.948	-1.38
952.678	0.62
953.407	-0.38
954.136	-1.38
954.865	1.62
955.594	1.62
956.323	0.62
957.052	-0.38
957.78	1.62
958.509	-0.38
959.238	-0.38
959.966	1.62
960.695	0.62
961.423	-0.38
962.151	0.62
962.88	-0.38
963.608	1.62
964.336	1.62
965.064	1.62
965.792	-0.38
966.52	1.62
967.247	0.62
967.975	-0.38
968.703	3.62
969.43	0.62
970.158	0.62
970.885	0.62
971.613	-0.38
972.34	1.62
973.067	-1.38
973.794	0.62
974.521	0.62
975.248	-0.38
975.975	1.62
976.702	0.62
977.429	1.62
978.156	1.62
978.882	-0.38
979.609	0.62
980.335	0.62
981.062	-1.38
981.788	-0.38
982.514	1.62
983.24	0.62
983.967	1.62
984.693	-0.38
985.419	-1.38
986.144	0.62
986.87	-2.38
987.596	0.62
988.322	-0.38
989.047	-1.38
989.773	1.62
990.498	-0.38
991.224	-0.38
991.949	0.62
992.674	-0.38
993.399	-0.38
994.124	-0.38
994.849	0.62
995.574	-0.38
996.299	1.62
997.024	-0.38
997.749	1.62
998.473	-0.38
999.198	1.62
999.922	1.62
1000.647	-0.38
1001.371	4.62
1002.095	-2.38
1002.82	-0.38
1003.544	-1.38
1004.268	0.62
1004.992	1.62
1005.716	0.62
1006.439	0.62
1007.163	2.62
1007.887	3.62
1008.611	-0.38
1009.334	-1.38
1010.058	-0.38
1010.781	-0.38
1011.504	1.62
1012.228	0.62
1012.951	-0.38
1013.674	0.62
1014.397	0.62
1015.12	-1.38
