节点500_285_QEPB04081__656__15-06-27-998.txt的数据

Date: Wed Nov 12 15:06:27 CST 2025
User: PC
Spectrometer: QEPB0408
触发模式: 0
积分时间 (秒): 1.000000E-2
Scans to average: 1
启用暗噪声校正: true
启用非线性校正: false
滑动平均宽度: 0
X轴模式: Wavelengths
Number of Pixels in Spectrum: 1044
>>>>>Begin Spectral Data<<<<<
220.843	1.25
221.644	3.25
222.444	0.25
223.244	0.25
224.045	0.25
224.845	2.25
225.645	1.25
226.445	1.25
227.245	0.25
228.045	2.25
228.845	1.25
229.645	1.25
230.444	1.25
231.244	1.25
232.043	3.25
232.843	1.25
233.642	1.25
234.442	4.25
235.241	2.25
236.04	5.25
236.839	3.25
237.638	4.25
238.437	5.25
239.236	2.25
240.035	2.25
240.833	2.25
241.632	5.25
242.43	3.25
243.229	4.25
244.027	5.25
244.826	3.25
245.624	6.25
246.422	3.25
247.22	4.25
248.018	6.25
248.816	4.25
249.614	5.25
250.412	6.25
251.21	8.25
252.007	4.25
252.805	7.25
253.602	5.25
254.4	4.25
255.197	5.25
255.994	5.25
256.791	6.25
257.589	4.25
258.386	10.25
259.183	7.25
259.979	7.25
260.776	8.25
261.573	10.25
262.37	8.25
263.166	5.25
263.963	10.25
264.759	12.25
265.556	11.25
266.352	10.25
267.148	12.25
267.944	11.25
268.74	12.25
269.536	13.25
270.332	11.25
271.128	14.25
271.924	13.25
272.719	15.25
273.515	14.25
274.311	15.25
275.106	15.25
275.901	15.25
276.697	16.25
277.492	16.25
278.287	14.25
279.082	14.25
279.877	17.25
280.672	17.25
281.467	16.25
282.262	15.25
283.056	17.25
283.851	14.25
284.646	15.25
285.44	15.25
286.234	17.25
287.029	16.25
287.823	15.25
288.617	16.25
289.411	18.25
290.205	15.25
290.999	16.25
291.793	15.25
292.587	18.25
293.381	13.25
294.174	15.25
294.968	15.25
295.761	14.25
296.555	12.25
297.348	14.25
298.141	14.25
298.935	16.25
299.728	13.25
300.521	9.25
301.314	12.25
302.107	13.25
302.899	12.25
303.692	12.25
304.485	12.25
305.277	13.25
306.07	13.25
306.862	13.25
307.655	12.25
308.447	9.25
309.239	11.25
310.031	9.25
310.823	10.25
311.615	9.25
312.407	11.25
313.199	9.25
313.991	9.25
314.783	8.25
315.574	7.25
316.366	8.25
317.157	10.25
317.949	6.25
318.74	5.25
319.531	8.25
320.322	10.25
321.113	8.25
321.904	6.25
322.695	6.25
323.486	4.25
324.277	7.25
325.068	8.25
325.858	8.25
326.649	6.25
327.439	6.25
328.23	9.25
329.02	4.25
329.81	7.25
330.6	7.25
331.391	6.25
332.181	8.25
332.971	3.25
333.76	5.25
334.55	6.25
335.34	8.25
336.13	7.25
336.919	5.25
337.709	4.25
338.498	4.25
339.287	6.25
340.077	6.25
340.866	8.25
341.655	3.25
342.444	3.25
343.233	6.25
344.022	4.25
344.811	5.25
345.6	5.25
346.388	8.25
347.177	6.25
347.965	7.25
348.754	6.25
349.542	2.25
350.33	6.25
351.119	5.25
351.907	3.25
352.695	6.25
353.483	5.25
354.271	5.25
355.059	6.25
355.846	5.25
356.634	3.25
357.422	3.25
358.209	4.25
358.997	4.25
359.784	5.25
360.571	1.25
361.359	6.25
362.146	3.25
362.933	3.25
363.72	3.25
364.507	4.25
365.294	7.25
366.081	4.25
366.867	4.25
367.654	4.25
368.44	5.25
369.227	5.25
370.013	4.25
370.8	4.25
371.586	4.25
372.372	4.25
373.158	6.25
373.944	3.25
374.73	4.25
375.516	5.25
376.302	4.25
377.088	5.25
377.873	4.25
378.659	3.25
379.445	4.25
380.23	7.25
381.015	5.25
381.801	4.25
382.586	7.25
383.371	5.25
384.156	7.25
384.941	5.25
385.726	5.25
386.511	5.25
387.296	3.25
388.08	6.25
388.865	5.25
389.649	6.25
390.434	4.25
391.218	5.25
392.003	6.25
392.787	5.25
393.571	6.25
394.355	5.25
395.139	5.25
395.923	6.25
396.707	6.25
397.491	5.25
398.274	3.25
399.058	4.25
399.842	5.25
400.625	5.25
401.408	5.25
402.192	6.25
402.975	5.25
403.758	5.25
404.541	7.25
405.324	8.25
406.107	8.25
406.89	4.25
407.673	6.25
408.456	6.25
409.238	5.25
410.021	8.25
410.803	6.25
411.586	9.25
412.368	7.25
413.151	11.25
413.933	9.25
414.715	7.25
415.497	9.25
416.279	8.25
417.061	8.25
417.843	7.25
418.624	10.25
419.406	10.25
420.188	7.25
420.969	9.25
421.751	8.25
422.532	11.25
423.313	10.25
424.095	9.25
424.876	10.25
425.657	11.25
426.438	12.25
427.219	11.25
428	11.25
428.78	11.25
429.561	10.25
430.342	13.25
431.122	13.25
431.903	14.25
432.683	15.25
433.464	13.25
434.244	17.25
435.024	13.25
435.804	17.25
436.584	16.25
437.364	15.25
438.144	20.25
438.924	18.25
439.704	22.25
440.483	22.25
441.263	22.25
442.042	25.25
442.822	28.25
443.601	30.25
444.38	30.25
445.16	34.25
445.939	33.25
446.718	36.25
447.497	39.25
448.276	45.25
449.054	44.25
449.833	47.25
450.612	55.25
451.391	60.25
452.169	66.25
452.948	70.25
453.726	79.25
454.504	89.25
455.282	99.25
456.061	103.25
456.839	118.25
457.617	134.25
458.395	147.25
459.172	165.25
459.95	185.25
460.728	203.25
461.506	233.25
462.283	253.25
463.061	282.25
463.838	315.25
464.615	351.25
465.393	386.25
466.17	428.25
466.947	472.25
467.724	536.25
468.501	584.25
469.278	652.25
470.055	732.25
470.831	810.25
471.608	882.25
472.385	985.25
473.161	1089.25
473.938	1202.25
474.714	1334.25
475.49	1451.25
476.266	1606.25
477.043	1752.25
477.819	1936.25
478.595	2131.25
479.371	2332.25
480.146	2553.25
480.922	2815.25
481.698	3084.25
482.473	3383.25
483.249	3701.25
484.024	4024.25
484.8	4431.25
485.575	4824.25
486.35	5273.25
487.126	5753.25
487.901	6261.25
488.676	6826.25
489.451	7475.25
490.225	8111.25
491	8828.25
491.775	9614.25
492.55	10407.25
493.324	11205.25
494.099	12116.25
494.873	12952.25
495.647	14028.25
496.422	14967.25
497.196	16008.25
497.97	17168.25
498.744	18168.25
499.518	19253.25
500.292	20388.25
501.066	21330.25
501.839	22291.25
502.613	23165.25
503.387	24032.25
504.16	24739.25
504.934	25148.25
505.707	25574.25
506.48	25700.25
507.253	25771.25
508.027	25724.25
508.8	25647.25
509.573	25467.25
510.346	24997.25
511.118	24367.25
511.891	23779.25
512.664	23115.25
513.437	22364.25
514.209	21514.25
514.982	20715.25
515.754	19872.25
516.526	19077.25
517.298	18281.25
518.071	17570.25
518.843	16867.25
519.615	16301.25
520.387	15572.25
521.159	14939.25
521.93	14371.25
522.702	13791.25
523.474	13254.25
524.245	12649.25
525.017	12175.25
525.788	11667.25
526.56	11217.25
527.331	10659.25
528.102	10188.25
528.873	9737.25
529.644	9289.25
530.415	8894.25
531.186	8476.25
531.957	8009.25
532.728	7664.25
533.498	7278.25
534.269	6884.25
535.039	6491.25
535.81	6142.25
536.58	5832.25
537.351	5494.25
538.121	5205.25
538.891	4901.25
539.661	4643.25
540.431	4369.25
541.201	4115.25
541.971	3915.25
542.741	3720.25
543.51	3530.25
544.28	3353.25
545.05	3195.25
545.819	3053.25
546.588	2896.25
547.358	2746.25
548.127	2638.25
548.896	2477.25
549.665	2356.25
550.434	2231.25
551.203	2107.25
551.972	1992.25
552.741	1898.25
553.51	1776.25
554.278	1705.25
555.047	1602.25
555.815	1516.25
556.584	1438.25
557.352	1351.25
558.121	1262.25
558.889	1224.25
559.657	1154.25
560.425	1072.25
561.193	1021.25
561.961	953.25
562.729	905.25
563.496	857.25
564.264	811.25
565.032	769.25
565.799	728.25
566.567	686.25
567.334	650.25
568.101	609.25
568.869	574.25
569.636	537.25
570.403	507.25
571.17	472.25
571.937	451.25
572.704	437.25
573.471	408.25
574.237	380.25
575.004	364.25
575.771	340.25
576.537	324.25
577.303	301.25
578.07	284.25
578.836	267.25
579.602	247.25
580.368	235.25
581.134	224.25
581.9	213.25
582.666	201.25
583.432	191.25
584.198	178.25
584.964	171.25
585.729	163.25
586.495	155.25
587.26	145.25
588.025	137.25
588.791	133.25
589.556	125.25
590.321	117.25
591.086	113.25
591.851	105.25
592.616	98.25
593.381	99.25
594.146	94.25
594.911	86.25
595.675	82.25
596.44	80.25
597.204	78.25
597.969	73.25
598.733	70.25
599.497	67.25
600.261	61.25
601.025	62.25
601.79	57.25
602.553	54.25
603.317	54.25
604.081	48.25
604.845	49.25
605.609	45.25
606.372	45.25
607.136	39.25
607.899	38.25
608.662	39.25
609.426	41.25
610.189	35.25
610.952	33.25
611.715	30.25
612.478	30.25
613.241	29.25
614.004	27.25
614.767	29.25
615.529	26.25
616.292	25.25
617.055	25.25
617.817	24.25
618.579	23.25
619.342	23.25
620.104	22.25
620.866	22.25
621.628	21.25
622.39	19.25
623.152	17.25
623.914	18.25
624.676	16.25
625.438	18.25
626.199	15.25
626.961	14.25
627.722	17.25
628.484	17.25
629.245	13.25
630.006	15.25
630.768	11.25
631.529	12.25
632.29	10.25
633.051	13.25
633.812	11.25
634.573	12.25
635.333	11.25
636.094	9.25
636.855	8.25
637.615	12.25
638.376	13.25
639.136	10.25
639.896	10.25
640.657	10.25
641.417	8.25
642.177	10.25
642.937	9.25
643.697	6.25
644.457	8.25
645.216	9.25
645.976	9.25
646.736	8.25
647.495	9.25
648.255	9.25
649.014	7.25
649.774	7.25
650.533	6.25
651.292	7.25
652.051	5.25
652.81	9.25
653.569	6.25
654.328	6.25
655.087	6.25
655.846	4.25
656.604	6.25
657.363	6.25
658.121	6.25
658.88	6.25
659.638	6.25
660.397	6.25
661.155	4.25
661.913	5.25
662.671	6.25
663.429	3.25
664.187	5.25
664.945	5.25
665.703	5.25
666.46	6.25
667.218	5.25
667.976	3.25
668.733	7.25
669.49	5.25
670.248	5.25
671.005	7.25
671.762	3.25
672.519	2.25
673.276	3.25
674.033	3.25
674.79	4.25
675.547	3.25
676.304	2.25
677.06	2.25
677.817	3.25
678.574	4.25
679.33	3.25
680.086	4.25
680.843	0.25
681.599	5.25
682.355	2.25
683.111	3.25
683.867	4.25
684.623	3.25
685.379	5.25
686.135	2.25
686.89	3.25
687.646	2.25
688.402	2.25
689.157	4.25
689.912	3.25
690.668	3.25
691.423	4.25
692.178	3.25
692.933	2.25
693.688	3.25
694.443	2.25
695.198	1.25
695.953	4.25
696.708	2.25
697.462	3.25
698.217	2.25
698.972	2.25
699.726	6.25
700.48	1.25
701.235	4.25
701.989	2.25
702.743	4.25
703.497	4.25
704.251	4.25
705.005	5.25
705.759	3.25
706.513	3.25
707.266	3.25
708.02	1.25
708.774	4.25
709.527	2.25
710.28	3.25
711.034	2.25
711.787	1.25
712.54	5.25
713.293	1.25
714.046	4.25
714.799	3.25
715.552	6.25
716.305	6.25
717.058	1.25
717.81	3.25
718.563	1.25
719.315	4.25
720.068	3.25
720.82	4.25
721.573	2.25
722.325	2.25
723.077	3.25
723.829	0.25
724.581	3.25
725.333	4.25
726.085	4.25
726.836	4.25
727.588	3.25
728.34	5.25
729.091	4.25
729.843	4.25
730.594	4.25
731.346	4.25
732.097	4.25
732.848	2.25
733.599	4.25
734.35	4.25
735.101	4.25
735.852	0.25
736.603	3.25
737.354	5.25
738.104	1.25
738.855	5.25
739.605	4.25
740.356	4.25
741.106	3.25
741.856	1.25
742.607	4.25
743.357	4.25
744.107	4.25
744.857	4.25
745.607	4.25
746.357	5.25
747.106	2.25
747.856	7.25
748.606	3.25
749.355	6.25
750.105	5.25
750.854	5.25
751.603	5.25
752.353	2.25
753.102	4.25
753.851	3.25
754.6	4.25
755.349	4.25
756.098	5.25
756.847	5.25
757.595	3.25
758.344	6.25
759.093	4.25
759.841	3.25
760.589	4.25
761.338	5.25
762.086	5.25
762.834	5.25
763.582	6.25
764.331	4.25
765.079	5.25
765.826	5.25
766.574	4.25
767.322	6.25
768.07	4.25
768.817	8.25
769.565	7.25
770.312	5.25
771.06	4.25
771.807	7.25
772.554	5.25
773.302	6.25
774.049	5.25
774.796	8.25
775.543	4.25
776.29	6.25
777.036	10.25
777.783	5.25
778.53	8.25
779.276	8.25
780.023	6.25
780.769	5.25
781.516	9.25
782.262	6.25
783.008	6.25
783.754	8.25
784.5	6.25
785.246	7.25
785.992	7.25
786.738	8.25
787.484	8.25
788.23	11.25
788.975	9.25
789.721	6.25
790.466	7.25
791.212	9.25
791.957	9.25
792.702	6.25
793.447	9.25
794.193	9.25
794.938	7.25
795.683	8.25
796.427	7.25
797.172	6.25
797.917	6.25
798.662	5.25
799.406	7.25
800.151	6.25
800.895	8.25
801.64	5.25
802.384	6.25
803.128	3.25
803.872	4.25
804.616	8.25
805.36	6.25
806.104	6.25
806.848	4.25
807.592	5.25
808.336	5.25
809.079	5.25
809.823	5.25
810.566	3.25
811.31	5.25
812.053	6.25
812.796	2.25
813.539	5.25
814.283	5.25
815.026	7.25
815.769	1.25
816.511	3.25
817.254	4.25
817.997	5.25
818.74	4.25
819.482	4.25
820.225	6.25
820.967	4.25
821.71	4.25
822.452	3.25
823.194	1.25
823.936	3.25
824.678	2.25
825.42	2.25
826.162	1.25
826.904	5.25
827.646	3.25
828.388	4.25
829.129	4.25
829.871	3.25
830.612	4.25
831.354	3.25
832.095	5.25
832.836	3.25
833.577	3.25
834.319	3.25
835.06	3.25
835.801	2.25
836.542	5.25
837.282	4.25
838.023	1.25
838.764	4.25
839.504	3.25
840.245	2.25
840.985	3.25
841.726	3.25
842.466	2.25
843.206	2.25
843.946	0.25
844.687	0.25
845.427	1.25
846.166	1.25
846.906	2.25
847.646	2.25
848.386	4.25
849.125	2.25
849.865	5.25
850.605	1.25
851.344	2.25
852.083	1.25
852.823	0.25
853.562	2.25
854.301	0.25
855.04	3.25
855.779	1.25
856.518	2.25
857.257	2.25
857.995	2.25
858.734	4.25
859.473	3.25
860.211	1.25
860.95	-0.75
861.688	1.25
862.426	3.25
863.165	0.25
863.903	2.25
864.641	-0.75
865.379	2.25
866.117	1.25
866.855	0.25
867.593	1.25
868.33	0.25
869.068	3.25
869.806	1.25
870.543	2.25
871.28	-0.75
872.018	1.25
872.755	2.25
873.492	-0.75
874.229	2.25
874.967	-0.75
875.703	1.25
876.44	1.25
877.177	0.25
877.914	-0.75
878.651	-0.75
879.387	1.25
880.124	0.25
880.86	4.25
881.597	0.25
882.333	-0.75
883.069	-0.75
883.806	0.25
884.542	0.25
885.278	0.25
886.014	-1.75
886.749	-1.75
887.485	0.25
888.221	0.25
888.957	1.25
889.692	1.25
890.428	-0.75
891.163	0.25
891.899	0.25
892.634	-2.75
893.369	1.25
894.104	-0.75
894.839	2.25
895.574	0.25
896.309	-1.75
897.044	-0.75
897.779	-1.75
898.514	1.25
899.248	0.25
899.983	0.25
900.717	1.25
901.452	-0.75
902.186	3.25
902.92	0.25
903.654	1.25
904.389	-2.75
905.123	-0.75
905.857	0.25
906.59	0.25
907.324	2.25
908.058	-0.75
908.792	1.25
909.525	0.25
910.259	-1.75
910.992	1.25
911.726	-0.75
912.459	-0.75
913.192	2.25
913.925	0.25
914.658	1.25
915.391	1.25
916.124	0.25
916.857	-0.75
917.59	-0.75
918.323	1.25
919.055	2.25
919.788	-0.75
920.521	0.25
921.253	1.25
921.985	1.25
922.718	0.25
923.45	-0.75
924.182	-1.75
924.914	-0.75
925.646	1.25
926.378	1.25
927.11	-0.75
927.841	-0.75
928.573	-0.75
929.305	-2.75
930.036	0.25
930.768	-1.75
931.499	0.25
932.23	0.25
932.962	1.25
933.693	-0.75
934.424	-0.75
935.155	0.25
935.886	-0.75
936.617	1.25
937.348	-0.75
938.078	-0.75
938.809	-0.75
939.54	0.25
940.27	-0.75
941.001	0.25
941.731	0.25
942.461	0.25
943.191	-0.75
943.922	0.25
944.652	1.25
945.382	-2.75
946.112	0.25
946.841	0.25
947.571	0.25
948.301	-1.75
949.031	0.25
949.76	-1.75
950.49	0.25
951.219	0.25
951.948	-0.75
952.678	0.25
953.407	-1.75
954.136	-0.75
954.865	0.25
955.594	-0.75
956.323	0.25
957.052	-0.75
957.78	1.25
958.509	0.25
959.238	1.25
959.966	2.25
960.695	0.25
961.423	1.25
962.151	-0.75
962.88	0.25
963.608	0.25
964.336	-0.75
965.064	0.25
965.792	1.25
966.52	-0.75
967.247	0.25
967.975	0.25
968.703	-2.75
969.43	0.25
970.158	-0.75
970.885	1.25
971.613	-0.75
972.34	1.25
973.067	0.25
973.794	-0.75
974.521	0.25
975.248	-0.75
975.975	-1.75
976.702	-0.75
977.429	0.25
978.156	0.25
978.882	-0.75
979.609	1.25
980.335	-0.75
981.062	-1.75
981.788	-1.75
982.514	-2.75
983.24	0.25
983.967	0.25
984.693	1.25
985.419	0.25
986.144	-0.75
986.87	0.25
987.596	-0.75
988.322	-0.75
989.047	-1.75
989.773	1.25
990.498	1.25
991.224	-1.75
991.949	0.25
992.674	-2.75
993.399	1.25
994.124	-0.75
994.849	-0.75
995.574	1.25
996.299	-2.75
997.024	0.25
997.749	1.25
998.473	2.25
999.198	-2.75
999.922	1.25
1000.647	1.25
1001.371	3.25
1002.095	-1.75
1002.82	0.25
1003.544	-0.75
1004.268	-0.75
1004.992	0.25
1005.716	0.25
1006.439	0.25
1007.163	-0.75
1007.887	0.25
1008.611	1.25
1009.334	-0.75
1010.058	1.25
1010.781	0.25
1011.504	-0.75
1012.228	0.25
1012.951	0.25
1013.674	-2.75
1014.397	-0.75
1015.12	2.25
