节点500_285_QEPB04081__324__15-00-56-718.txt的数据

Date: Wed Nov 12 15:00:56 CST 2025
User: PC
Spectrometer: QEPB0408
触发模式: 0
积分时间 (秒): 1.000000E-2
Scans to average: 1
启用暗噪声校正: true
启用非线性校正: false
滑动平均宽度: 0
X轴模式: Wavelengths
Number of Pixels in Spectrum: 1044
>>>>>Begin Spectral Data<<<<<
220.843	0.5
221.644	3.5
222.444	1.5
223.244	-0.5
224.045	1.5
224.845	2.5
225.645	1.5
226.445	2.5
227.245	2.5
228.045	1.5
228.845	2.5
229.645	2.5
230.444	2.5
231.244	2.5
232.043	3.5
232.843	2.5
233.642	4.5
234.442	4.5
235.241	5.5
236.04	6.5
236.839	3.5
237.638	4.5
238.437	4.5
239.236	3.5
240.035	5.5
240.833	3.5
241.632	3.5
242.43	3.5
243.229	3.5
244.027	1.5
244.826	5.5
245.624	3.5
246.422	7.5
247.22	5.5
248.018	3.5
248.816	5.5
249.614	6.5
250.412	4.5
251.21	4.5
252.007	5.5
252.805	4.5
253.602	5.5
254.4	10.5
255.197	10.5
255.994	6.5
256.791	7.5
257.589	8.5
258.386	9.5
259.183	9.5
259.979	11.5
260.776	11.5
261.573	8.5
262.37	9.5
263.166	11.5
263.963	13.5
264.759	11.5
265.556	12.5
266.352	13.5
267.148	13.5
267.944	12.5
268.74	10.5
269.536	12.5
270.332	13.5
271.128	13.5
271.924	16.5
272.719	15.5
273.515	17.5
274.311	16.5
275.106	17.5
275.901	16.5
276.697	17.5
277.492	13.5
278.287	17.5
279.082	16.5
279.877	15.5
280.672	18.5
281.467	20.5
282.262	18.5
283.056	20.5
283.851	19.5
284.646	19.5
285.44	19.5
286.234	20.5
287.029	16.5
287.823	18.5
288.617	17.5
289.411	16.5
290.205	18.5
290.999	16.5
291.793	19.5
292.587	19.5
293.381	15.5
294.174	18.5
294.968	14.5
295.761	15.5
296.555	15.5
297.348	14.5
298.141	15.5
298.935	17.5
299.728	14.5
300.521	12.5
301.314	13.5
302.107	13.5
302.899	12.5
303.692	13.5
304.485	10.5
305.277	13.5
306.07	12.5
306.862	16.5
307.655	13.5
308.447	12.5
309.239	11.5
310.031	8.5
310.823	11.5
311.615	9.5
312.407	11.5
313.199	11.5
313.991	8.5
314.783	7.5
315.574	8.5
316.366	8.5
317.157	7.5
317.949	8.5
318.74	7.5
319.531	6.5
320.322	10.5
321.113	6.5
321.904	7.5
322.695	9.5
323.486	6.5
324.277	4.5
325.068	5.5
325.858	5.5
326.649	6.5
327.439	7.5
328.23	7.5
329.02	4.5
329.81	8.5
330.6	5.5
331.391	8.5
332.181	7.5
332.971	4.5
333.76	7.5
334.55	6.5
335.34	7.5
336.13	4.5
336.919	5.5
337.709	5.5
338.498	6.5
339.287	4.5
340.077	4.5
340.866	7.5
341.655	6.5
342.444	3.5
343.233	4.5
344.022	7.5
344.811	5.5
345.6	4.5
346.388	5.5
347.177	5.5
347.965	6.5
348.754	6.5
349.542	4.5
350.33	6.5
351.119	5.5
351.907	5.5
352.695	4.5
353.483	5.5
354.271	7.5
355.059	5.5
355.846	5.5
356.634	5.5
357.422	2.5
358.209	7.5
358.997	4.5
359.784	7.5
360.571	5.5
361.359	4.5
362.146	3.5
362.933	3.5
363.72	3.5
364.507	4.5
365.294	3.5
366.081	2.5
366.867	3.5
367.654	2.5
368.44	3.5
369.227	5.5
370.013	6.5
370.8	2.5
371.586	3.5
372.372	6.5
373.158	5.5
373.944	4.5
374.73	4.5
375.516	4.5
376.302	3.5
377.088	7.5
377.873	4.5
378.659	3.5
379.445	4.5
380.23	4.5
381.015	6.5
381.801	4.5
382.586	6.5
383.371	5.5
384.156	5.5
384.941	6.5
385.726	4.5
386.511	4.5
387.296	6.5
388.08	6.5
388.865	5.5
389.649	6.5
390.434	6.5
391.218	4.5
392.003	7.5
392.787	3.5
393.571	5.5
394.355	5.5
395.139	8.5
395.923	5.5
396.707	4.5
397.491	7.5
398.274	3.5
399.058	3.5
399.842	4.5
400.625	6.5
401.408	6.5
402.192	4.5
402.975	8.5
403.758	6.5
404.541	3.5
405.324	8.5
406.107	5.5
406.89	6.5
407.673	5.5
408.456	9.5
409.238	7.5
410.021	7.5
410.803	8.5
411.586	8.5
412.368	8.5
413.151	6.5
413.933	9.5
414.715	7.5
415.497	8.5
416.279	8.5
417.061	7.5
417.843	10.5
418.624	8.5
419.406	7.5
420.188	9.5
420.969	10.5
421.751	10.5
422.532	10.5
423.313	11.5
424.095	11.5
424.876	10.5
425.657	9.5
426.438	10.5
427.219	14.5
428	10.5
428.78	13.5
429.561	13.5
430.342	11.5
431.122	13.5
431.903	13.5
432.683	18.5
433.464	16.5
434.244	14.5
435.024	17.5
435.804	17.5
436.584	20.5
437.364	17.5
438.144	18.5
438.924	21.5
439.704	22.5
440.483	21.5
441.263	21.5
442.042	25.5
442.822	26.5
443.601	27.5
444.38	27.5
445.16	32.5
445.939	35.5
446.718	37.5
447.497	39.5
448.276	44.5
449.054	44.5
449.833	45.5
450.612	52.5
451.391	58.5
452.169	61.5
452.948	65.5
453.726	71.5
454.504	79.5
455.282	91.5
456.061	99.5
456.839	110.5
457.617	123.5
458.395	134.5
459.172	147.5
459.95	169.5
460.728	189.5
461.506	204.5
462.283	228.5
463.061	258.5
463.838	293.5
464.615	317.5
465.393	359.5
466.17	395.5
466.947	451.5
467.724	496.5
468.501	562.5
469.278	622.5
470.055	685.5
470.831	756.5
471.608	847.5
472.385	954.5
473.161	1038.5
473.938	1158.5
474.714	1293.5
475.49	1423.5
476.266	1573.5
477.043	1736.5
477.819	1927.5
478.595	2139.5
479.371	2326.5
480.146	2597.5
480.922	2849.5
481.698	3157.5
482.473	3463.5
483.249	3839.5
484.024	4215.5
484.8	4630.5
485.575	5073.5
486.35	5561.5
487.126	6123.5
487.901	6749.5
488.676	7361.5
489.451	8096.5
490.225	8871.5
491	9653.5
491.775	10544.5
492.55	11515.5
493.324	12487.5
494.099	13410.5
494.873	14484.5
495.647	15607.5
496.422	16829.5
497.196	18003.5
497.97	19212.5
498.744	20394.5
499.518	21501.5
500.292	22662.5
501.066	23792.5
501.839	24736.5
502.613	25635.5
503.387	26407.5
504.16	27041.5
504.934	27321.5
505.707	27493.5
506.48	27538.5
507.253	27461.5
508.027	27168.5
508.8	26912.5
509.573	26431.5
510.346	25798.5
511.118	25092.5
511.891	24223.5
512.664	23349.5
513.437	22487.5
514.209	21521.5
514.982	20680.5
515.754	19761.5
516.526	18831.5
517.298	18056.5
518.071	17215.5
518.843	16510.5
519.615	15926.5
520.387	15315.5
521.159	14783.5
521.93	14103.5
522.702	13617.5
523.474	13003.5
524.245	12461.5
525.017	11921.5
525.788	11412.5
526.56	10942.5
527.331	10401.5
528.102	9928.5
528.873	9510.5
529.644	9001.5
530.415	8588.5
531.186	8138.5
531.957	7685.5
532.728	7327.5
533.498	6959.5
534.269	6559.5
535.039	6210.5
535.81	5871.5
536.58	5511.5
537.351	5208.5
538.121	4887.5
538.891	4671.5
539.661	4392.5
540.431	4138.5
541.201	3916.5
541.971	3718.5
542.741	3538.5
543.51	3356.5
544.28	3193.5
545.05	3036.5
545.819	2885.5
546.588	2726.5
547.358	2616.5
548.127	2477.5
548.896	2358.5
549.665	2239.5
550.434	2095.5
551.203	1998.5
551.972	1885.5
552.741	1792.5
553.51	1693.5
554.278	1605.5
555.047	1496.5
555.815	1425.5
556.584	1353.5
557.352	1277.5
558.121	1202.5
558.889	1129.5
559.657	1076.5
560.425	1009.5
561.193	956.5
561.961	892.5
562.729	854.5
563.496	792.5
564.264	753.5
565.032	715.5
565.799	680.5
566.567	642.5
567.334	604.5
568.101	569.5
568.869	535.5
569.636	501.5
570.403	484.5
571.17	454.5
571.937	428.5
572.704	399.5
573.471	375.5
574.237	355.5
575.004	337.5
575.771	315.5
576.537	304.5
577.303	277.5
578.07	265.5
578.836	249.5
579.602	234.5
580.368	226.5
581.134	216.5
581.9	198.5
582.666	189.5
583.432	180.5
584.198	169.5
584.964	157.5
585.729	153.5
586.495	145.5
587.26	139.5
588.025	131.5
588.791	121.5
589.556	117.5
590.321	116.5
591.086	100.5
591.851	100.5
592.616	95.5
593.381	88.5
594.146	86.5
594.911	81.5
595.675	76.5
596.44	72.5
597.204	72.5
597.969	65.5
598.733	67.5
599.497	61.5
600.261	59.5
601.025	53.5
601.79	52.5
602.553	47.5
603.317	47.5
604.081	46.5
604.845	50.5
605.609	43.5
606.372	41.5
607.136	41.5
607.899	37.5
608.662	37.5
609.426	37.5
610.189	34.5
610.952	35.5
611.715	30.5
612.478	30.5
613.241	29.5
614.004	28.5
614.767	26.5
615.529	23.5
616.292	26.5
617.055	22.5
617.817	23.5
618.579	24.5
619.342	22.5
620.104	22.5
620.866	22.5
621.628	23.5
622.39	21.5
623.152	17.5
623.914	17.5
624.676	18.5
625.438	15.5
626.199	17.5
626.961	15.5
627.722	14.5
628.484	16.5
629.245	16.5
630.006	13.5
630.768	11.5
631.529	15.5
632.29	12.5
633.051	13.5
633.812	11.5
634.573	11.5
635.333	9.5
636.094	7.5
636.855	10.5
637.615	10.5
638.376	10.5
639.136	9.5
639.896	9.5
640.657	8.5
641.417	9.5
642.177	9.5
642.937	9.5
643.697	8.5
644.457	9.5
645.216	9.5
645.976	8.5
646.736	6.5
647.495	7.5
648.255	6.5
649.014	7.5
649.774	7.5
650.533	7.5
651.292	7.5
652.051	7.5
652.81	9.5
653.569	6.5
654.328	6.5
655.087	5.5
655.846	5.5
656.604	7.5
657.363	8.5
658.121	6.5
658.88	7.5
659.638	5.5
660.397	4.5
661.155	5.5
661.913	5.5
662.671	5.5
663.429	5.5
664.187	5.5
664.945	2.5
665.703	6.5
666.46	3.5
667.218	5.5
667.976	5.5
668.733	5.5
669.49	4.5
670.248	4.5
671.005	3.5
671.762	3.5
672.519	3.5
673.276	2.5
674.033	3.5
674.79	4.5
675.547	4.5
676.304	5.5
677.06	5.5
677.817	3.5
678.574	4.5
679.33	2.5
680.086	4.5
680.843	2.5
681.599	5.5
682.355	5.5
683.111	5.5
683.867	5.5
684.623	1.5
685.379	2.5
686.135	5.5
686.89	4.5
687.646	7.5
688.402	1.5
689.157	6.5
689.912	1.5
690.668	5.5
691.423	4.5
692.178	4.5
692.933	2.5
693.688	6.5
694.443	2.5
695.198	1.5
695.953	3.5
696.708	4.5
697.462	5.5
698.217	6.5
698.972	2.5
699.726	1.5
700.48	3.5
701.235	3.5
701.989	3.5
702.743	4.5
703.497	5.5
704.251	3.5
705.005	3.5
705.759	2.5
706.513	1.5
707.266	4.5
708.02	1.5
708.774	4.5
709.527	1.5
710.28	5.5
711.034	3.5
711.787	3.5
712.54	3.5
713.293	3.5
714.046	3.5
714.799	3.5
715.552	2.5
716.305	1.5
717.058	5.5
717.81	4.5
718.563	6.5
719.315	3.5
720.068	3.5
720.82	2.5
721.573	3.5
722.325	3.5
723.077	4.5
723.829	4.5
724.581	4.5
725.333	3.5
726.085	3.5
726.836	3.5
727.588	1.5
728.34	5.5
729.091	1.5
729.843	3.5
730.594	1.5
731.346	1.5
732.097	4.5
732.848	3.5
733.599	4.5
734.35	6.5
735.101	4.5
735.852	4.5
736.603	3.5
737.354	4.5
738.104	2.5
738.855	4.5
739.605	5.5
740.356	1.5
741.106	4.5
741.856	3.5
742.607	2.5
743.357	5.5
744.107	3.5
744.857	5.5
745.607	3.5
746.357	5.5
747.106	6.5
747.856	6.5
748.606	4.5
749.355	6.5
750.105	6.5
750.854	6.5
751.603	5.5
752.353	5.5
753.102	1.5
753.851	3.5
754.6	7.5
755.349	7.5
756.098	3.5
756.847	6.5
757.595	7.5
758.344	6.5
759.093	5.5
759.841	5.5
760.589	5.5
761.338	9.5
762.086	4.5
762.834	5.5
763.582	6.5
764.331	8.5
765.079	7.5
765.826	6.5
766.574	7.5
767.322	5.5
768.07	9.5
768.817	7.5
769.565	8.5
770.312	7.5
771.06	7.5
771.807	8.5
772.554	6.5
773.302	7.5
774.049	4.5
774.796	9.5
775.543	8.5
776.29	7.5
777.036	6.5
777.783	7.5
778.53	7.5
779.276	9.5
780.023	10.5
780.769	9.5
781.516	7.5
782.262	9.5
783.008	8.5
783.754	9.5
784.5	9.5
785.246	10.5
785.992	9.5
786.738	5.5
787.484	10.5
788.23	8.5
788.975	9.5
789.721	11.5
790.466	8.5
791.212	8.5
791.957	9.5
792.702	9.5
793.447	7.5
794.193	6.5
794.938	8.5
795.683	5.5
796.427	6.5
797.172	5.5
797.917	7.5
798.662	8.5
799.406	7.5
800.151	8.5
800.895	8.5
801.64	5.5
802.384	5.5
803.128	6.5
803.872	8.5
804.616	7.5
805.36	7.5
806.104	5.5
806.848	5.5
807.592	6.5
808.336	5.5
809.079	5.5
809.823	3.5
810.566	6.5
811.31	6.5
812.053	6.5
812.796	4.5
813.539	3.5
814.283	6.5
815.026	6.5
815.769	5.5
816.511	3.5
817.254	3.5
817.997	3.5
818.74	2.5
819.482	5.5
820.225	3.5
820.967	3.5
821.71	5.5
822.452	4.5
823.194	4.5
823.936	2.5
824.678	6.5
825.42	4.5
826.162	4.5
826.904	4.5
827.646	5.5
828.388	4.5
829.129	1.5
829.871	3.5
830.612	1.5
831.354	4.5
832.095	3.5
832.836	2.5
833.577	4.5
834.319	3.5
835.06	4.5
835.801	3.5
836.542	4.5
837.282	4.5
838.023	5.5
838.764	2.5
839.504	2.5
840.245	4.5
840.985	4.5
841.726	3.5
842.466	3.5
843.206	3.5
843.946	2.5
844.687	3.5
845.427	2.5
846.166	3.5
846.906	2.5
847.646	2.5
848.386	1.5
849.125	3.5
849.865	4.5
850.605	1.5
851.344	3.5
852.083	2.5
852.823	0.5
853.562	1.5
854.301	1.5
855.04	1.5
855.779	4.5
856.518	1.5
857.257	3.5
857.995	3.5
858.734	1.5
859.473	2.5
860.211	1.5
860.95	2.5
861.688	3.5
862.426	1.5
863.165	0.5
863.903	1.5
864.641	0.5
865.379	1.5
866.117	1.5
866.855	3.5
867.593	-0.5
868.33	1.5
869.068	2.5
869.806	1.5
870.543	0.5
871.28	1.5
872.018	2.5
872.755	3.5
873.492	1.5
874.229	-0.5
874.967	2.5
875.703	0.5
876.44	0.5
877.177	1.5
877.914	1.5
878.651	-1.5
879.387	1.5
880.124	-1.5
880.86	-0.5
881.597	-0.5
882.333	0.5
883.069	-1.5
883.806	0.5
884.542	3.5
885.278	1.5
886.014	3.5
886.749	-0.5
887.485	2.5
888.221	2.5
888.957	-0.5
889.692	-0.5
890.428	2.5
891.163	2.5
891.899	1.5
892.634	-1.5
893.369	-0.5
894.104	-2.5
894.839	0.5
895.574	1.5
896.309	-0.5
897.044	2.5
897.779	-0.5
898.514	0.5
899.248	0.5
899.983	-1.5
900.717	0.5
901.452	1.5
902.186	-0.5
902.92	-0.5
903.654	1.5
904.389	0.5
905.123	-0.5
905.857	1.5
906.59	1.5
907.324	-1.5
908.058	1.5
908.792	-0.5
909.525	0.5
910.259	-0.5
910.992	0.5
911.726	-0.5
912.459	2.5
913.192	0.5
913.925	-0.5
914.658	-0.5
915.391	1.5
916.124	-0.5
916.857	-1.5
917.59	3.5
918.323	1.5
919.055	1.5
919.788	1.5
920.521	2.5
921.253	2.5
921.985	-0.5
922.718	0.5
923.45	1.5
924.182	-2.5
924.914	1.5
925.646	0.5
926.378	-0.5
927.11	-1.5
927.841	0.5
928.573	-0.5
929.305	-0.5
930.036	1.5
930.768	-0.5
931.499	1.5
932.23	0.5
932.962	-2.5
933.693	-1.5
934.424	0.5
935.155	-0.5
935.886	0.5
936.617	0.5
937.348	0.5
938.078	-0.5
938.809	-1.5
939.54	-0.5
940.27	0.5
941.001	-0.5
941.731	0.5
942.461	1.5
943.191	-1.5
943.922	-0.5
944.652	1.5
945.382	-0.5
946.112	0.5
946.841	-0.5
947.571	-2.5
948.301	-2.5
949.031	-0.5
949.76	-0.5
950.49	1.5
951.219	2.5
951.948	1.5
952.678	-0.5
953.407	-0.5
954.136	-0.5
954.865	-0.5
955.594	0.5
956.323	0.5
957.052	-1.5
957.78	1.5
958.509	0.5
959.238	-0.5
959.966	-0.5
960.695	-0.5
961.423	1.5
962.151	-0.5
962.88	1.5
963.608	0.5
964.336	1.5
965.064	0.5
965.792	-1.5
966.52	-0.5
967.247	0.5
967.975	1.5
968.703	-0.5
969.43	0.5
970.158	-0.5
970.885	-1.5
971.613	0.5
972.34	1.5
973.067	0.5
973.794	1.5
974.521	-0.5
975.248	-1.5
975.975	-0.5
976.702	0.5
977.429	-1.5
978.156	-3.5
978.882	1.5
979.609	0.5
980.335	-0.5
981.062	-0.5
981.788	-0.5
982.514	1.5
983.24	2.5
983.967	0.5
984.693	-0.5
985.419	0.5
986.144	0.5
986.87	-1.5
987.596	1.5
988.322	-0.5
989.047	0.5
989.773	-0.5
990.498	0.5
991.224	1.5
991.949	-2.5
992.674	1.5
993.399	0.5
994.124	0.5
994.849	0.5
995.574	-2.5
996.299	0.5
997.024	-1.5
997.749	1.5
998.473	1.5
999.198	0.5
999.922	1.5
1000.647	-1.5
1001.371	3.5
1002.095	-2.5
1002.82	0.5
1003.544	-1.5
1004.268	3.5
1004.992	1.5
1005.716	1.5
1006.439	0.5
1007.163	1.5
1007.887	1.5
1008.611	0.5
1009.334	2.5
1010.058	-1.5
1010.781	1.5
1011.504	0.5
1012.228	1.5
1012.951	0.5
1013.674	1.5
1014.397	0.5
1015.12	-2.5
