节点500_285_QEPB04081__328__15-01-00-706.txt的数据

Date: Wed Nov 12 15:01:00 CST 2025
User: PC
Spectrometer: QEPB0408
触发模式: 0
积分时间 (秒): 1.000000E-2
Scans to average: 1
启用暗噪声校正: true
启用非线性校正: false
滑动平均宽度: 0
X轴模式: Wavelengths
Number of Pixels in Spectrum: 1044
>>>>>Begin Spectral Data<<<<<
220.843	2.12
221.644	2.12
222.444	2.12
223.244	2.12
224.045	1.12
224.845	2.12
225.645	3.12
226.445	2.12
227.245	5.12
228.045	4.12
228.845	3.12
229.645	2.12
230.444	2.12
231.244	2.12
232.043	4.12
232.843	4.12
233.642	1.12
234.442	4.12
235.241	6.12
236.04	4.12
236.839	7.12
237.638	1.12
238.437	4.12
239.236	4.12
240.035	4.12
240.833	5.12
241.632	6.12
242.43	4.12
243.229	6.12
244.027	4.12
244.826	6.12
245.624	7.12
246.422	5.12
247.22	5.12
248.018	6.12
248.816	7.12
249.614	7.12
250.412	7.12
251.21	5.12
252.007	4.12
252.805	7.12
253.602	4.12
254.4	7.12
255.197	6.12
255.994	10.12
256.791	10.12
257.589	9.12
258.386	7.12
259.183	10.12
259.979	10.12
260.776	9.12
261.573	11.12
262.37	12.12
263.166	12.12
263.963	10.12
264.759	12.12
265.556	12.12
266.352	14.12
267.148	13.12
267.944	14.12
268.74	14.12
269.536	16.12
270.332	17.12
271.128	14.12
271.924	16.12
272.719	17.12
273.515	16.12
274.311	15.12
275.106	15.12
275.901	14.12
276.697	21.12
277.492	19.12
278.287	18.12
279.082	20.12
279.877	16.12
280.672	19.12
281.467	18.12
282.262	17.12
283.056	17.12
283.851	20.12
284.646	19.12
285.44	18.12
286.234	19.12
287.029	16.12
287.823	19.12
288.617	18.12
289.411	17.12
290.205	20.12
290.999	17.12
291.793	17.12
292.587	21.12
293.381	17.12
294.174	18.12
294.968	17.12
295.761	19.12
296.555	17.12
297.348	15.12
298.141	13.12
298.935	18.12
299.728	15.12
300.521	14.12
301.314	15.12
302.107	13.12
302.899	13.12
303.692	16.12
304.485	12.12
305.277	15.12
306.07	11.12
306.862	14.12
307.655	12.12
308.447	13.12
309.239	13.12
310.031	12.12
310.823	12.12
311.615	11.12
312.407	10.12
313.199	10.12
313.991	9.12
314.783	10.12
315.574	10.12
316.366	9.12
317.157	9.12
317.949	9.12
318.74	10.12
319.531	9.12
320.322	7.12
321.113	9.12
321.904	6.12
322.695	8.12
323.486	8.12
324.277	9.12
325.068	8.12
325.858	8.12
326.649	7.12
327.439	6.12
328.23	8.12
329.02	7.12
329.81	7.12
330.6	6.12
331.391	9.12
332.181	6.12
332.971	5.12
333.76	4.12
334.55	5.12
335.34	7.12
336.13	5.12
336.919	7.12
337.709	7.12
338.498	7.12
339.287	9.12
340.077	6.12
340.866	5.12
341.655	8.12
342.444	7.12
343.233	7.12
344.022	5.12
344.811	5.12
345.6	6.12
346.388	6.12
347.177	5.12
347.965	7.12
348.754	7.12
349.542	5.12
350.33	9.12
351.119	7.12
351.907	4.12
352.695	6.12
353.483	5.12
354.271	7.12
355.059	5.12
355.846	6.12
356.634	7.12
357.422	7.12
358.209	7.12
358.997	6.12
359.784	4.12
360.571	5.12
361.359	4.12
362.146	7.12
362.933	5.12
363.72	4.12
364.507	4.12
365.294	6.12
366.081	6.12
366.867	4.12
367.654	8.12
368.44	6.12
369.227	8.12
370.013	5.12
370.8	6.12
371.586	7.12
372.372	7.12
373.158	6.12
373.944	6.12
374.73	4.12
375.516	6.12
376.302	7.12
377.088	5.12
377.873	6.12
378.659	9.12
379.445	5.12
380.23	6.12
381.015	7.12
381.801	6.12
382.586	6.12
383.371	5.12
384.156	8.12
384.941	5.12
385.726	6.12
386.511	7.12
387.296	5.12
388.08	7.12
388.865	6.12
389.649	6.12
390.434	5.12
391.218	5.12
392.003	6.12
392.787	2.12
393.571	7.12
394.355	6.12
395.139	9.12
395.923	6.12
396.707	5.12
397.491	6.12
398.274	8.12
399.058	7.12
399.842	6.12
400.625	9.12
401.408	7.12
402.192	7.12
402.975	8.12
403.758	6.12
404.541	9.12
405.324	6.12
406.107	7.12
406.89	8.12
407.673	9.12
408.456	9.12
409.238	8.12
410.021	8.12
410.803	10.12
411.586	9.12
412.368	8.12
413.151	7.12
413.933	9.12
414.715	8.12
415.497	12.12
416.279	9.12
417.061	8.12
417.843	12.12
418.624	8.12
419.406	11.12
420.188	12.12
420.969	11.12
421.751	10.12
422.532	11.12
423.313	10.12
424.095	12.12
424.876	12.12
425.657	14.12
426.438	9.12
427.219	14.12
428	11.12
428.78	11.12
429.561	12.12
430.342	16.12
431.122	16.12
431.903	16.12
432.683	14.12
433.464	14.12
434.244	16.12
435.024	18.12
435.804	18.12
436.584	18.12
437.364	21.12
438.144	21.12
438.924	22.12
439.704	21.12
440.483	21.12
441.263	20.12
442.042	26.12
442.822	28.12
443.601	29.12
444.38	28.12
445.16	32.12
445.939	36.12
446.718	35.12
447.497	40.12
448.276	43.12
449.054	46.12
449.833	50.12
450.612	54.12
451.391	59.12
452.169	63.12
452.948	67.12
453.726	74.12
454.504	83.12
455.282	88.12
456.061	100.12
456.839	114.12
457.617	122.12
458.395	135.12
459.172	146.12
459.95	165.12
460.728	185.12
461.506	208.12
462.283	231.12
463.061	261.12
463.838	293.12
464.615	328.12
465.393	360.12
466.17	399.12
466.947	449.12
467.724	494.12
468.501	558.12
469.278	613.12
470.055	683.12
470.831	770.12
471.608	844.12
472.385	947.12
473.161	1061.12
473.938	1167.12
474.714	1287.12
475.49	1441.12
476.266	1572.12
477.043	1729.12
477.819	1935.12
478.595	2139.12
479.371	2354.12
480.146	2583.12
480.922	2867.12
481.698	3145.12
482.473	3468.12
483.249	3803.12
484.024	4203.12
484.8	4648.12
485.575	5079.12
486.35	5612.12
487.126	6129.12
487.901	6757.12
488.676	7360.12
489.451	8094.12
490.225	8838.12
491	9665.12
491.775	10579.12
492.55	11554.12
493.324	12473.12
494.099	13451.12
494.873	14483.12
495.647	15591.12
496.422	16782.12
497.196	17947.12
497.97	19195.12
498.744	20350.12
499.518	21510.12
500.292	22674.12
501.066	23768.12
501.839	24660.12
502.613	25544.12
503.387	26417.12
504.16	27070.12
504.934	27321.12
505.707	27428.12
506.48	27538.12
507.253	27467.12
508.027	27127.12
508.8	26860.12
509.573	26483.12
510.346	25779.12
511.118	25060.12
511.891	24197.12
512.664	23316.12
513.437	22481.12
514.209	21564.12
514.982	20709.12
515.754	19830.12
516.526	18866.12
517.298	18051.12
518.071	17260.12
518.843	16580.12
519.615	15978.12
520.387	15330.12
521.159	14703.12
521.93	14145.12
522.702	13578.12
523.474	13004.12
524.245	12441.12
525.017	11958.12
525.788	11463.12
526.56	10942.12
527.331	10391.12
528.102	9953.12
528.873	9532.12
529.644	9033.12
530.415	8605.12
531.186	8185.12
531.957	7702.12
532.728	7314.12
533.498	6969.12
534.269	6564.12
535.039	6204.12
535.81	5840.12
536.58	5504.12
537.351	5222.12
538.121	4887.12
538.891	4652.12
539.661	4393.12
540.431	4164.12
541.201	3918.12
541.971	3734.12
542.741	3548.12
543.51	3350.12
544.28	3192.12
545.05	3049.12
545.819	2904.12
546.588	2740.12
547.358	2598.12
548.127	2476.12
548.896	2344.12
549.665	2233.12
550.434	2108.12
551.203	2003.12
551.972	1886.12
552.741	1788.12
553.51	1702.12
554.278	1593.12
555.047	1508.12
555.815	1426.12
556.584	1347.12
557.352	1272.12
558.121	1191.12
558.889	1128.12
559.657	1058.12
560.425	1013.12
561.193	939.12
561.961	894.12
562.729	845.12
563.496	807.12
564.264	758.12
565.032	709.12
565.799	682.12
566.567	647.12
567.334	610.12
568.101	573.12
568.869	538.12
569.636	510.12
570.403	474.12
571.17	458.12
571.937	422.12
572.704	400.12
573.471	384.12
574.237	360.12
575.004	336.12
575.771	321.12
576.537	298.12
577.303	282.12
578.07	265.12
578.836	258.12
579.602	238.12
580.368	228.12
581.134	208.12
581.9	205.12
582.666	196.12
583.432	179.12
584.198	167.12
584.964	164.12
585.729	151.12
586.495	152.12
587.26	141.12
588.025	134.12
588.791	123.12
589.556	117.12
590.321	110.12
591.086	104.12
591.851	97.12
592.616	96.12
593.381	88.12
594.146	86.12
594.911	80.12
595.675	78.12
596.44	76.12
597.204	71.12
597.969	74.12
598.733	69.12
599.497	60.12
600.261	61.12
601.025	58.12
601.79	53.12
602.553	53.12
603.317	53.12
604.081	45.12
604.845	46.12
605.609	41.12
606.372	40.12
607.136	39.12
607.899	39.12
608.662	37.12
609.426	36.12
610.189	36.12
610.952	34.12
611.715	30.12
612.478	28.12
613.241	27.12
614.004	27.12
614.767	28.12
615.529	25.12
616.292	26.12
617.055	28.12
617.817	24.12
618.579	22.12
619.342	23.12
620.104	21.12
620.866	22.12
621.628	23.12
622.39	18.12
623.152	18.12
623.914	19.12
624.676	16.12
625.438	14.12
626.199	18.12
626.961	17.12
627.722	17.12
628.484	14.12
629.245	15.12
630.006	14.12
630.768	13.12
631.529	13.12
632.29	12.12
633.051	15.12
633.812	11.12
634.573	12.12
635.333	13.12
636.094	11.12
636.855	12.12
637.615	12.12
638.376	11.12
639.136	12.12
639.896	9.12
640.657	8.12
641.417	9.12
642.177	10.12
642.937	7.12
643.697	9.12
644.457	10.12
645.216	8.12
645.976	9.12
646.736	8.12
647.495	9.12
648.255	7.12
649.014	9.12
649.774	11.12
650.533	8.12
651.292	8.12
652.051	10.12
652.81	9.12
653.569	5.12
654.328	8.12
655.087	7.12
655.846	6.12
656.604	9.12
657.363	5.12
658.121	5.12
658.88	7.12
659.638	4.12
660.397	7.12
661.155	8.12
661.913	7.12
662.671	7.12
663.429	4.12
664.187	5.12
664.945	5.12
665.703	7.12
666.46	6.12
667.218	5.12
667.976	5.12
668.733	4.12
669.49	5.12
670.248	5.12
671.005	7.12
671.762	3.12
672.519	6.12
673.276	4.12
674.033	4.12
674.79	2.12
675.547	5.12
676.304	6.12
677.06	3.12
677.817	5.12
678.574	5.12
679.33	5.12
680.086	3.12
680.843	6.12
681.599	7.12
682.355	4.12
683.111	6.12
683.867	6.12
684.623	4.12
685.379	5.12
686.135	5.12
686.89	4.12
687.646	3.12
688.402	3.12
689.157	6.12
689.912	5.12
690.668	3.12
691.423	3.12
692.178	3.12
692.933	3.12
693.688	3.12
694.443	4.12
695.198	5.12
695.953	3.12
696.708	3.12
697.462	3.12
698.217	5.12
698.972	4.12
699.726	4.12
700.48	5.12
701.235	5.12
701.989	4.12
702.743	6.12
703.497	4.12
704.251	5.12
705.005	4.12
705.759	4.12
706.513	4.12
707.266	3.12
708.02	7.12
708.774	4.12
709.527	4.12
710.28	4.12
711.034	4.12
711.787	7.12
712.54	7.12
713.293	5.12
714.046	4.12
714.799	3.12
715.552	3.12
716.305	4.12
717.058	6.12
717.81	3.12
718.563	3.12
719.315	5.12
720.068	4.12
720.82	6.12
721.573	6.12
722.325	4.12
723.077	3.12
723.829	4.12
724.581	3.12
725.333	4.12
726.085	3.12
726.836	4.12
727.588	5.12
728.34	3.12
729.091	2.12
729.843	5.12
730.594	5.12
731.346	5.12
732.097	6.12
732.848	4.12
733.599	3.12
734.35	6.12
735.101	3.12
735.852	5.12
736.603	5.12
737.354	6.12
738.104	4.12
738.855	5.12
739.605	2.12
740.356	4.12
741.106	7.12
741.856	6.12
742.607	6.12
743.357	6.12
744.107	4.12
744.857	5.12
745.607	4.12
746.357	6.12
747.106	6.12
747.856	6.12
748.606	6.12
749.355	6.12
750.105	7.12
750.854	5.12
751.603	6.12
752.353	6.12
753.102	4.12
753.851	7.12
754.6	5.12
755.349	9.12
756.098	4.12
756.847	8.12
757.595	6.12
758.344	4.12
759.093	7.12
759.841	5.12
760.589	6.12
761.338	6.12
762.086	4.12
762.834	7.12
763.582	7.12
764.331	7.12
765.079	4.12
765.826	9.12
766.574	5.12
767.322	8.12
768.07	10.12
768.817	8.12
769.565	8.12
770.312	10.12
771.06	6.12
771.807	8.12
772.554	9.12
773.302	9.12
774.049	9.12
774.796	9.12
775.543	9.12
776.29	10.12
777.036	10.12
777.783	10.12
778.53	7.12
779.276	6.12
780.023	10.12
780.769	9.12
781.516	8.12
782.262	8.12
783.008	9.12
783.754	8.12
784.5	10.12
785.246	8.12
785.992	10.12
786.738	9.12
787.484	10.12
788.23	9.12
788.975	9.12
789.721	9.12
790.466	10.12
791.212	10.12
791.957	10.12
792.702	9.12
793.447	9.12
794.193	9.12
794.938	10.12
795.683	9.12
796.427	10.12
797.172	9.12
797.917	7.12
798.662	6.12
799.406	7.12
800.151	9.12
800.895	5.12
801.64	8.12
802.384	6.12
803.128	9.12
803.872	6.12
804.616	8.12
805.36	7.12
806.104	6.12
806.848	9.12
807.592	4.12
808.336	7.12
809.079	6.12
809.823	5.12
810.566	6.12
811.31	5.12
812.053	8.12
812.796	9.12
813.539	4.12
814.283	7.12
815.026	5.12
815.769	6.12
816.511	5.12
817.254	6.12
817.997	5.12
818.74	5.12
819.482	6.12
820.225	5.12
820.967	5.12
821.71	4.12
822.452	5.12
823.194	5.12
823.936	4.12
824.678	6.12
825.42	4.12
826.162	5.12
826.904	6.12
827.646	6.12
828.388	8.12
829.129	4.12
829.871	7.12
830.612	3.12
831.354	3.12
832.095	4.12
832.836	4.12
833.577	3.12
834.319	4.12
835.06	1.12
835.801	4.12
836.542	3.12
837.282	4.12
838.023	3.12
838.764	3.12
839.504	3.12
840.245	6.12
840.985	4.12
841.726	2.12
842.466	3.12
843.206	6.12
843.946	2.12
844.687	2.12
845.427	2.12
846.166	4.12
846.906	2.12
847.646	4.12
848.386	4.12
849.125	2.12
849.865	3.12
850.605	5.12
851.344	1.12
852.083	3.12
852.823	3.12
853.562	2.12
854.301	4.12
855.04	1.12
855.779	1.12
856.518	4.12
857.257	2.12
857.995	1.12
858.734	3.12
859.473	2.12
860.211	3.12
860.95	0.12
861.688	1.12
862.426	2.12
863.165	2.12
863.903	3.12
864.641	4.12
865.379	3.12
866.117	2.12
866.855	2.12
867.593	1.12
868.33	3.12
869.068	4.12
869.806	2.12
870.543	4.12
871.28	2.12
872.018	2.12
872.755	3.12
873.492	5.12
874.229	2.12
874.967	-0.88
875.703	1.12
876.44	-0.88
877.177	3.12
877.914	3.12
878.651	2.12
879.387	2.12
880.124	1.12
880.86	0.12
881.597	1.12
882.333	0.12
883.069	2.12
883.806	1.12
884.542	2.12
885.278	0.12
886.014	3.12
886.749	-1.88
887.485	2.12
888.221	1.12
888.957	1.12
889.692	2.12
890.428	1.12
891.163	2.12
891.899	1.12
892.634	0.12
893.369	2.12
894.104	0.12
894.839	2.12
895.574	-1.88
896.309	4.12
897.044	3.12
897.779	0.12
898.514	2.12
899.248	2.12
899.983	0.12
900.717	1.12
901.452	1.12
902.186	3.12
902.92	-0.88
903.654	1.12
904.389	-0.88
905.123	1.12
905.857	2.12
906.59	3.12
907.324	0.12
908.058	2.12
908.792	1.12
909.525	1.12
910.259	1.12
910.992	-1.88
911.726	0.12
912.459	0.12
913.192	1.12
913.925	0.12
914.658	-0.88
915.391	2.12
916.124	1.12
916.857	1.12
917.59	0.12
918.323	1.12
919.055	2.12
919.788	0.12
920.521	1.12
921.253	2.12
921.985	1.12
922.718	1.12
923.45	0.12
924.182	0.12
924.914	1.12
925.646	0.12
926.378	2.12
927.11	-0.88
927.841	2.12
928.573	2.12
929.305	1.12
930.036	2.12
930.768	0.12
931.499	2.12
932.23	-0.88
932.962	-0.88
933.693	0.12
934.424	2.12
935.155	2.12
935.886	0.12
936.617	2.12
937.348	0.12
938.078	1.12
938.809	1.12
939.54	0.12
940.27	-0.88
941.001	1.12
941.731	0.12
942.461	1.12
943.191	0.12
943.922	0.12
944.652	-0.88
945.382	2.12
946.112	2.12
946.841	1.12
947.571	2.12
948.301	2.12
949.031	1.12
949.76	1.12
950.49	-0.88
951.219	-0.88
951.948	1.12
952.678	1.12
953.407	-0.88
954.136	2.12
954.865	0.12
955.594	-0.88
956.323	0.12
957.052	-0.88
957.78	0.12
958.509	-0.88
959.238	2.12
959.966	1.12
960.695	0.12
961.423	0.12
962.151	-0.88
962.88	1.12
963.608	-0.88
964.336	2.12
965.064	1.12
965.792	2.12
966.52	1.12
967.247	2.12
967.975	3.12
968.703	-1.88
969.43	2.12
970.158	1.12
970.885	2.12
971.613	1.12
972.34	1.12
973.067	0.12
973.794	0.12
974.521	3.12
975.248	0.12
975.975	-0.88
976.702	1.12
977.429	1.12
978.156	1.12
978.882	0.12
979.609	0.12
980.335	-0.88
981.062	1.12
981.788	3.12
982.514	0.12
983.24	1.12
983.967	0.12
984.693	-1.88
985.419	1.12
986.144	0.12
986.87	1.12
987.596	2.12
988.322	2.12
989.047	2.12
989.773	0.12
990.498	1.12
991.224	0.12
991.949	2.12
992.674	2.12
993.399	1.12
994.124	0.12
994.849	1.12
995.574	-0.88
996.299	2.12
997.024	1.12
997.749	1.12
998.473	2.12
999.198	2.12
999.922	1.12
1000.647	3.12
1001.371	5.12
1002.095	-0.88
1002.82	-1.88
1003.544	-0.88
1004.268	1.12
1004.992	1.12
1005.716	0.12
1006.439	2.12
1007.163	4.12
1007.887	2.12
1008.611	0.12
1009.334	0.12
1010.058	2.12
1010.781	0.12
1011.504	-0.88
1012.228	0.12
1012.951	-0.88
1013.674	1.12
1014.397	-1.88
1015.12	0.12
