节点500_285_QEPB04081__686__15-06-57-900.txt的数据

Date: Wed Nov 12 15:06:57 CST 2025
User: PC
Spectrometer: QEPB0408
触发模式: 0
积分时间 (秒): 1.000000E-2
Scans to average: 1
启用暗噪声校正: true
启用非线性校正: false
滑动平均宽度: 0
X轴模式: Wavelengths
Number of Pixels in Spectrum: 1044
>>>>>Begin Spectral Data<<<<<
220.843	3.12
221.644	2.12
222.444	1.12
223.244	4.12
224.045	0.12
224.845	0.12
225.645	5.12
226.445	2.12
227.245	1.12
228.045	3.12
228.845	3.12
229.645	2.12
230.444	4.12
231.244	3.12
232.043	1.12
232.843	3.12
233.642	4.12
234.442	3.12
235.241	2.12
236.04	4.12
236.839	4.12
237.638	4.12
238.437	7.12
239.236	4.12
240.035	6.12
240.833	5.12
241.632	6.12
242.43	5.12
243.229	5.12
244.027	6.12
244.826	6.12
245.624	5.12
246.422	5.12
247.22	5.12
248.018	7.12
248.816	8.12
249.614	7.12
250.412	6.12
251.21	7.12
252.007	9.12
252.805	7.12
253.602	8.12
254.4	6.12
255.197	7.12
255.994	9.12
256.791	9.12
257.589	7.12
258.386	9.12
259.183	8.12
259.979	8.12
260.776	9.12
261.573	10.12
262.37	11.12
263.166	8.12
263.963	11.12
264.759	12.12
265.556	12.12
266.352	12.12
267.148	13.12
267.944	12.12
268.74	14.12
269.536	11.12
270.332	15.12
271.128	11.12
271.924	14.12
272.719	13.12
273.515	13.12
274.311	15.12
275.106	14.12
275.901	17.12
276.697	13.12
277.492	15.12
278.287	14.12
279.082	14.12
279.877	18.12
280.672	16.12
281.467	19.12
282.262	17.12
283.056	18.12
283.851	20.12
284.646	16.12
285.44	18.12
286.234	14.12
287.029	18.12
287.823	18.12
288.617	19.12
289.411	13.12
290.205	18.12
290.999	17.12
291.793	18.12
292.587	17.12
293.381	17.12
294.174	16.12
294.968	16.12
295.761	14.12
296.555	16.12
297.348	14.12
298.141	13.12
298.935	16.12
299.728	13.12
300.521	15.12
301.314	13.12
302.107	12.12
302.899	14.12
303.692	13.12
304.485	13.12
305.277	13.12
306.07	14.12
306.862	13.12
307.655	11.12
308.447	13.12
309.239	11.12
310.031	12.12
310.823	11.12
311.615	10.12
312.407	10.12
313.199	11.12
313.991	10.12
314.783	9.12
315.574	10.12
316.366	8.12
317.157	8.12
317.949	7.12
318.74	10.12
319.531	7.12
320.322	6.12
321.113	9.12
321.904	6.12
322.695	10.12
323.486	9.12
324.277	6.12
325.068	10.12
325.858	6.12
326.649	8.12
327.439	6.12
328.23	6.12
329.02	6.12
329.81	6.12
330.6	7.12
331.391	7.12
332.181	8.12
332.971	8.12
333.76	7.12
334.55	7.12
335.34	6.12
336.13	7.12
336.919	5.12
337.709	7.12
338.498	6.12
339.287	8.12
340.077	8.12
340.866	5.12
341.655	5.12
342.444	6.12
343.233	8.12
344.022	7.12
344.811	6.12
345.6	4.12
346.388	6.12
347.177	8.12
347.965	6.12
348.754	6.12
349.542	6.12
350.33	8.12
351.119	6.12
351.907	5.12
352.695	7.12
353.483	3.12
354.271	8.12
355.059	6.12
355.846	7.12
356.634	4.12
357.422	6.12
358.209	7.12
358.997	6.12
359.784	7.12
360.571	4.12
361.359	5.12
362.146	5.12
362.933	6.12
363.72	6.12
364.507	4.12
365.294	6.12
366.081	4.12
366.867	6.12
367.654	7.12
368.44	6.12
369.227	5.12
370.013	4.12
370.8	7.12
371.586	7.12
372.372	3.12
373.158	4.12
373.944	5.12
374.73	3.12
375.516	8.12
376.302	5.12
377.088	5.12
377.873	5.12
378.659	7.12
379.445	4.12
380.23	6.12
381.015	5.12
381.801	5.12
382.586	5.12
383.371	4.12
384.156	5.12
384.941	4.12
385.726	5.12
386.511	8.12
387.296	4.12
388.08	8.12
388.865	4.12
389.649	8.12
390.434	6.12
391.218	6.12
392.003	7.12
392.787	4.12
393.571	4.12
394.355	6.12
395.139	6.12
395.923	6.12
396.707	7.12
397.491	7.12
398.274	4.12
399.058	4.12
399.842	7.12
400.625	7.12
401.408	5.12
402.192	6.12
402.975	7.12
403.758	8.12
404.541	7.12
405.324	9.12
406.107	6.12
406.89	7.12
407.673	6.12
408.456	9.12
409.238	6.12
410.021	9.12
410.803	8.12
411.586	7.12
412.368	10.12
413.151	9.12
413.933	9.12
414.715	10.12
415.497	9.12
416.279	8.12
417.061	9.12
417.843	11.12
418.624	9.12
419.406	11.12
420.188	11.12
420.969	8.12
421.751	10.12
422.532	8.12
423.313	9.12
424.095	11.12
424.876	12.12
425.657	12.12
426.438	12.12
427.219	12.12
428	12.12
428.78	14.12
429.561	11.12
430.342	14.12
431.122	12.12
431.903	14.12
432.683	17.12
433.464	12.12
434.244	14.12
435.024	16.12
435.804	17.12
436.584	16.12
437.364	19.12
438.144	24.12
438.924	21.12
439.704	20.12
440.483	22.12
441.263	25.12
442.042	27.12
442.822	28.12
443.601	26.12
444.38	32.12
445.16	35.12
445.939	33.12
446.718	36.12
447.497	39.12
448.276	42.12
449.054	47.12
449.833	51.12
450.612	57.12
451.391	62.12
452.169	65.12
452.948	76.12
453.726	81.12
454.504	92.12
455.282	97.12
456.061	106.12
456.839	119.12
457.617	134.12
458.395	150.12
459.172	162.12
459.95	181.12
460.728	208.12
461.506	226.12
462.283	251.12
463.061	279.12
463.838	321.12
464.615	352.12
465.393	386.12
466.17	436.12
466.947	482.12
467.724	532.12
468.501	590.12
469.278	651.12
470.055	724.12
470.831	807.12
471.608	888.12
472.385	984.12
473.161	1102.12
473.938	1204.12
474.714	1332.12
475.49	1467.12
476.266	1606.12
477.043	1753.12
477.819	1945.12
478.595	2116.12
479.371	2354.12
480.146	2546.12
480.922	2803.12
481.698	3058.12
482.473	3357.12
483.249	3660.12
484.024	4010.12
484.8	4378.12
485.575	4807.12
486.35	5246.12
487.126	5687.12
487.901	6228.12
488.676	6797.12
489.451	7398.12
490.225	8030.12
491	8751.12
491.775	9474.12
492.55	10318.12
493.324	11096.12
494.099	11980.12
494.873	12826.12
495.647	13876.12
496.422	14811.12
497.196	15889.12
497.97	16967.12
498.744	17988.12
499.518	18969.12
500.292	20051.12
501.066	21091.12
501.839	22021.12
502.613	22966.12
503.387	23772.12
504.16	24481.12
504.934	24953.12
505.707	25213.12
506.48	25495.12
507.253	25555.12
508.027	25537.12
508.8	25477.12
509.573	25233.12
510.346	24830.12
511.118	24234.12
511.891	23671.12
512.664	22959.12
513.437	22240.12
514.209	21465.12
514.982	20678.12
515.754	19802.12
516.526	19042.12
517.298	18233.12
518.071	17488.12
518.843	16830.12
519.615	16198.12
520.387	15585.12
521.159	14920.12
521.93	14291.12
522.702	13808.12
523.474	13235.12
524.245	12613.12
525.017	12104.12
525.788	11689.12
526.56	11155.12
527.331	10613.12
528.102	10226.12
528.873	9747.12
529.644	9258.12
530.415	8857.12
531.186	8460.12
531.957	8039.12
532.728	7643.12
533.498	7254.12
534.269	6840.12
535.039	6481.12
535.81	6160.12
536.58	5801.12
537.351	5494.12
538.121	5183.12
538.891	4907.12
539.661	4645.12
540.431	4407.12
541.201	4115.12
541.971	3929.12
542.741	3703.12
543.51	3545.12
544.28	3384.12
545.05	3207.12
545.819	3043.12
546.588	2896.12
547.358	2752.12
548.127	2626.12
548.896	2505.12
549.665	2354.12
550.434	2246.12
551.203	2133.12
551.972	2020.12
552.741	1914.12
553.51	1792.12
554.278	1690.12
555.047	1617.12
555.815	1528.12
556.584	1435.12
557.352	1361.12
558.121	1266.12
558.889	1210.12
559.657	1146.12
560.425	1082.12
561.193	1028.12
561.961	968.12
562.729	914.12
563.496	865.12
564.264	803.12
565.032	766.12
565.799	726.12
566.567	693.12
567.334	650.12
568.101	614.12
568.869	583.12
569.636	546.12
570.403	519.12
571.17	483.12
571.937	455.12
572.704	430.12
573.471	406.12
574.237	388.12
575.004	365.12
575.771	345.12
576.537	319.12
577.303	301.12
578.07	291.12
578.836	266.12
579.602	252.12
580.368	236.12
581.134	231.12
581.9	214.12
582.666	206.12
583.432	195.12
584.198	181.12
584.964	173.12
585.729	163.12
586.495	162.12
587.26	155.12
588.025	139.12
588.791	131.12
589.556	126.12
590.321	114.12
591.086	117.12
591.851	104.12
592.616	100.12
593.381	96.12
594.146	89.12
594.911	86.12
595.675	86.12
596.44	78.12
597.204	73.12
597.969	72.12
598.733	68.12
599.497	65.12
600.261	65.12
601.025	59.12
601.79	60.12
602.553	55.12
603.317	52.12
604.081	47.12
604.845	45.12
605.609	45.12
606.372	45.12
607.136	42.12
607.899	42.12
608.662	41.12
609.426	38.12
610.189	38.12
610.952	36.12
611.715	38.12
612.478	34.12
613.241	31.12
614.004	30.12
614.767	29.12
615.529	28.12
616.292	26.12
617.055	24.12
617.817	24.12
618.579	23.12
619.342	21.12
620.104	22.12
620.866	24.12
621.628	22.12
622.39	19.12
623.152	20.12
623.914	19.12
624.676	21.12
625.438	17.12
626.199	16.12
626.961	16.12
627.722	17.12
628.484	12.12
629.245	18.12
630.006	12.12
630.768	15.12
631.529	15.12
632.29	12.12
633.051	10.12
633.812	12.12
634.573	10.12
635.333	13.12
636.094	10.12
636.855	12.12
637.615	11.12
638.376	11.12
639.136	11.12
639.896	8.12
640.657	8.12
641.417	10.12
642.177	6.12
642.937	10.12
643.697	7.12
644.457	10.12
645.216	7.12
645.976	6.12
646.736	7.12
647.495	8.12
648.255	7.12
649.014	9.12
649.774	8.12
650.533	8.12
651.292	5.12
652.051	6.12
652.81	6.12
653.569	8.12
654.328	4.12
655.087	7.12
655.846	4.12
656.604	8.12
657.363	6.12
658.121	5.12
658.88	8.12
659.638	4.12
660.397	6.12
661.155	6.12
661.913	5.12
662.671	6.12
663.429	5.12
664.187	8.12
664.945	4.12
665.703	5.12
666.46	5.12
667.218	4.12
667.976	6.12
668.733	3.12
669.49	4.12
670.248	4.12
671.005	2.12
671.762	6.12
672.519	3.12
673.276	3.12
674.033	3.12
674.79	3.12
675.547	4.12
676.304	3.12
677.06	3.12
677.817	3.12
678.574	3.12
679.33	3.12
680.086	4.12
680.843	5.12
681.599	5.12
682.355	2.12
683.111	5.12
683.867	3.12
684.623	4.12
685.379	5.12
686.135	2.12
686.89	4.12
687.646	4.12
688.402	1.12
689.157	4.12
689.912	3.12
690.668	4.12
691.423	6.12
692.178	2.12
692.933	2.12
693.688	4.12
694.443	8.12
695.198	2.12
695.953	5.12
696.708	3.12
697.462	3.12
698.217	2.12
698.972	4.12
699.726	2.12
700.48	4.12
701.235	5.12
701.989	3.12
702.743	5.12
703.497	3.12
704.251	3.12
705.005	0.12
705.759	5.12
706.513	5.12
707.266	5.12
708.02	2.12
708.774	4.12
709.527	4.12
710.28	6.12
711.034	2.12
711.787	3.12
712.54	5.12
713.293	3.12
714.046	3.12
714.799	2.12
715.552	5.12
716.305	1.12
717.058	4.12
717.81	4.12
718.563	6.12
719.315	4.12
720.068	2.12
720.82	3.12
721.573	5.12
722.325	3.12
723.077	6.12
723.829	4.12
724.581	5.12
725.333	0.12
726.085	5.12
726.836	4.12
727.588	3.12
728.34	5.12
729.091	5.12
729.843	4.12
730.594	4.12
731.346	4.12
732.097	2.12
732.848	4.12
733.599	5.12
734.35	4.12
735.101	3.12
735.852	5.12
736.603	5.12
737.354	4.12
738.104	5.12
738.855	4.12
739.605	6.12
740.356	4.12
741.106	5.12
741.856	5.12
742.607	4.12
743.357	4.12
744.107	5.12
744.857	5.12
745.607	5.12
746.357	6.12
747.106	4.12
747.856	7.12
748.606	3.12
749.355	5.12
750.105	6.12
750.854	2.12
751.603	6.12
752.353	6.12
753.102	5.12
753.851	4.12
754.6	5.12
755.349	6.12
756.098	6.12
756.847	6.12
757.595	4.12
758.344	4.12
759.093	5.12
759.841	4.12
760.589	6.12
761.338	3.12
762.086	6.12
762.834	4.12
763.582	5.12
764.331	8.12
765.079	4.12
765.826	6.12
766.574	8.12
767.322	7.12
768.07	6.12
768.817	5.12
769.565	7.12
770.312	6.12
771.06	8.12
771.807	7.12
772.554	8.12
773.302	7.12
774.049	7.12
774.796	8.12
775.543	6.12
776.29	9.12
777.036	10.12
777.783	7.12
778.53	7.12
779.276	7.12
780.023	10.12
780.769	7.12
781.516	8.12
782.262	9.12
783.008	6.12
783.754	9.12
784.5	8.12
785.246	8.12
785.992	8.12
786.738	7.12
787.484	10.12
788.23	10.12
788.975	8.12
789.721	8.12
790.466	10.12
791.212	7.12
791.957	8.12
792.702	7.12
793.447	7.12
794.193	7.12
794.938	6.12
795.683	10.12
796.427	10.12
797.172	9.12
797.917	6.12
798.662	7.12
799.406	10.12
800.151	7.12
800.895	11.12
801.64	5.12
802.384	7.12
803.128	9.12
803.872	8.12
804.616	8.12
805.36	7.12
806.104	6.12
806.848	7.12
807.592	5.12
808.336	5.12
809.079	7.12
809.823	4.12
810.566	4.12
811.31	5.12
812.053	6.12
812.796	5.12
813.539	5.12
814.283	5.12
815.026	5.12
815.769	6.12
816.511	5.12
817.254	4.12
817.997	5.12
818.74	5.12
819.482	3.12
820.225	6.12
820.967	5.12
821.71	4.12
822.452	5.12
823.194	3.12
823.936	4.12
824.678	6.12
825.42	4.12
826.162	6.12
826.904	7.12
827.646	4.12
828.388	3.12
829.129	7.12
829.871	2.12
830.612	4.12
831.354	4.12
832.095	4.12
832.836	6.12
833.577	5.12
834.319	4.12
835.06	2.12
835.801	4.12
836.542	5.12
837.282	3.12
838.023	5.12
838.764	3.12
839.504	2.12
840.245	4.12
840.985	4.12
841.726	4.12
842.466	5.12
843.206	5.12
843.946	4.12
844.687	4.12
845.427	1.12
846.166	2.12
846.906	3.12
847.646	3.12
848.386	4.12
849.125	4.12
849.865	5.12
850.605	3.12
851.344	3.12
852.083	4.12
852.823	2.12
853.562	2.12
854.301	1.12
855.04	2.12
855.779	3.12
856.518	0.12
857.257	5.12
857.995	1.12
858.734	5.12
859.473	3.12
860.211	3.12
860.95	1.12
861.688	5.12
862.426	3.12
863.165	2.12
863.903	3.12
864.641	1.12
865.379	3.12
866.117	3.12
866.855	0.12
867.593	1.12
868.33	1.12
869.068	2.12
869.806	1.12
870.543	0.12
871.28	2.12
872.018	4.12
872.755	-0.88
873.492	2.12
874.229	2.12
874.967	1.12
875.703	1.12
876.44	3.12
877.177	0.12
877.914	2.12
878.651	2.12
879.387	-1.88
880.124	1.12
880.86	2.12
881.597	3.12
882.333	1.12
883.069	1.12
883.806	2.12
884.542	2.12
885.278	5.12
886.014	2.12
886.749	1.12
887.485	-0.88
888.221	0.12
888.957	2.12
889.692	1.12
890.428	-0.88
891.163	0.12
891.899	1.12
892.634	0.12
893.369	0.12
894.104	3.12
894.839	2.12
895.574	2.12
896.309	1.12
897.044	1.12
897.779	1.12
898.514	2.12
899.248	0.12
899.983	1.12
900.717	1.12
901.452	-0.88
902.186	2.12
902.92	-1.88
903.654	0.12
904.389	3.12
905.123	1.12
905.857	1.12
906.59	1.12
907.324	1.12
908.058	-0.88
908.792	3.12
909.525	1.12
910.259	0.12
910.992	0.12
911.726	1.12
912.459	2.12
913.192	1.12
913.925	0.12
914.658	0.12
915.391	0.12
916.124	2.12
916.857	0.12
917.59	1.12
918.323	0.12
919.055	1.12
919.788	0.12
920.521	-1.88
921.253	1.12
921.985	-0.88
922.718	0.12
923.45	2.12
924.182	1.12
924.914	1.12
925.646	-1.88
926.378	1.12
927.11	-0.88
927.841	-0.88
928.573	2.12
929.305	-0.88
930.036	-1.88
930.768	0.12
931.499	1.12
932.23	2.12
932.962	2.12
933.693	0.12
934.424	0.12
935.155	1.12
935.886	0.12
936.617	1.12
937.348	0.12
938.078	-1.88
938.809	0.12
939.54	1.12
940.27	0.12
941.001	1.12
941.731	2.12
942.461	1.12
943.191	1.12
943.922	1.12
944.652	1.12
945.382	2.12
946.112	0.12
946.841	-0.88
947.571	0.12
948.301	-0.88
949.031	1.12
949.76	-0.88
950.49	0.12
951.219	2.12
951.948	1.12
952.678	2.12
953.407	-1.88
954.136	2.12
954.865	-0.88
955.594	-0.88
956.323	0.12
957.052	-0.88
957.78	-0.88
958.509	-1.88
959.238	1.12
959.966	1.12
960.695	0.12
961.423	0.12
962.151	1.12
962.88	1.12
963.608	-0.88
964.336	0.12
965.064	1.12
965.792	0.12
966.52	0.12
967.247	0.12
967.975	3.12
968.703	0.12
969.43	1.12
970.158	-0.88
970.885	1.12
971.613	0.12
972.34	1.12
973.067	2.12
973.794	0.12
974.521	0.12
975.248	1.12
975.975	0.12
976.702	0.12
977.429	-0.88
978.156	2.12
978.882	2.12
979.609	2.12
980.335	1.12
981.062	0.12
981.788	2.12
982.514	-0.88
983.24	0.12
983.967	1.12
984.693	1.12
985.419	0.12
986.144	-0.88
986.87	-0.88
987.596	2.12
988.322	2.12
989.047	1.12
989.773	1.12
990.498	1.12
991.224	0.12
991.949	1.12
992.674	2.12
993.399	1.12
994.124	0.12
994.849	1.12
995.574	0.12
996.299	-1.88
997.024	-1.88
997.749	2.12
998.473	1.12
999.198	2.12
999.922	-0.88
1000.647	1.12
1001.371	0.12
1002.095	2.12
1002.82	0.12
1003.544	-0.88
1004.268	2.12
1004.992	-1.88
1005.716	3.12
1006.439	1.12
1007.163	3.12
1007.887	0.12
1008.611	-0.88
1009.334	3.12
1010.058	2.12
1010.781	1.12
1011.504	1.12
1012.228	0.12
1012.951	-1.88
1013.674	0.12
1014.397	0.12
1015.12	0.12
