节点500_285_QEPB04081__591__15-05-23-191.txt的数据

Date: Wed Nov 12 15:05:23 CST 2025
User: PC
Spectrometer: QEPB0408
触发模式: 0
积分时间 (秒): 1.000000E-2
Scans to average: 1
启用暗噪声校正: true
启用非线性校正: false
滑动平均宽度: 0
X轴模式: Wavelengths
Number of Pixels in Spectrum: 1044
>>>>>Begin Spectral Data<<<<<
220.843	2.5
221.644	2.5
222.444	0.5
223.244	2.5
224.045	1.5
224.845	2.5
225.645	1.5
226.445	2.5
227.245	4.5
228.045	0.5
228.845	4.5
229.645	1.5
230.444	3.5
231.244	1.5
232.043	0.5
232.843	4.5
233.642	4.5
234.442	4.5
235.241	4.5
236.04	5.5
236.839	6.5
237.638	4.5
238.437	5.5
239.236	4.5
240.035	4.5
240.833	3.5
241.632	4.5
242.43	7.5
243.229	4.5
244.027	5.5
244.826	5.5
245.624	5.5
246.422	4.5
247.22	4.5
248.018	6.5
248.816	6.5
249.614	7.5
250.412	8.5
251.21	6.5
252.007	11.5
252.805	8.5
253.602	6.5
254.4	8.5
255.197	7.5
255.994	8.5
256.791	9.5
257.589	8.5
258.386	9.5
259.183	7.5
259.979	10.5
260.776	9.5
261.573	9.5
262.37	10.5
263.166	12.5
263.963	9.5
264.759	11.5
265.556	11.5
266.352	11.5
267.148	10.5
267.944	11.5
268.74	11.5
269.536	13.5
270.332	14.5
271.128	14.5
271.924	14.5
272.719	14.5
273.515	15.5
274.311	16.5
275.106	10.5
275.901	15.5
276.697	16.5
277.492	18.5
278.287	16.5
279.082	17.5
279.877	16.5
280.672	17.5
281.467	18.5
282.262	17.5
283.056	17.5
283.851	20.5
284.646	18.5
285.44	18.5
286.234	18.5
287.029	16.5
287.823	22.5
288.617	17.5
289.411	18.5
290.205	20.5
290.999	18.5
291.793	17.5
292.587	18.5
293.381	15.5
294.174	17.5
294.968	16.5
295.761	14.5
296.555	13.5
297.348	14.5
298.141	17.5
298.935	17.5
299.728	15.5
300.521	13.5
301.314	15.5
302.107	13.5
302.899	16.5
303.692	14.5
304.485	12.5
305.277	12.5
306.07	12.5
306.862	14.5
307.655	13.5
308.447	10.5
309.239	14.5
310.031	14.5
310.823	12.5
311.615	10.5
312.407	11.5
313.199	9.5
313.991	12.5
314.783	11.5
315.574	9.5
316.366	8.5
317.157	7.5
317.949	9.5
318.74	8.5
319.531	10.5
320.322	7.5
321.113	7.5
321.904	5.5
322.695	9.5
323.486	7.5
324.277	4.5
325.068	6.5
325.858	8.5
326.649	6.5
327.439	7.5
328.23	8.5
329.02	9.5
329.81	7.5
330.6	8.5
331.391	7.5
332.181	6.5
332.971	8.5
333.76	5.5
334.55	5.5
335.34	4.5
336.13	6.5
336.919	4.5
337.709	6.5
338.498	8.5
339.287	7.5
340.077	8.5
340.866	6.5
341.655	6.5
342.444	10.5
343.233	5.5
344.022	7.5
344.811	7.5
345.6	5.5
346.388	4.5
347.177	4.5
347.965	8.5
348.754	6.5
349.542	7.5
350.33	7.5
351.119	5.5
351.907	5.5
352.695	5.5
353.483	5.5
354.271	5.5
355.059	7.5
355.846	5.5
356.634	8.5
357.422	8.5
358.209	5.5
358.997	4.5
359.784	6.5
360.571	4.5
361.359	4.5
362.146	6.5
362.933	3.5
363.72	7.5
364.507	4.5
365.294	4.5
366.081	4.5
366.867	8.5
367.654	3.5
368.44	4.5
369.227	5.5
370.013	4.5
370.8	5.5
371.586	3.5
372.372	2.5
373.158	4.5
373.944	4.5
374.73	4.5
375.516	7.5
376.302	5.5
377.088	5.5
377.873	5.5
378.659	5.5
379.445	5.5
380.23	3.5
381.015	4.5
381.801	4.5
382.586	5.5
383.371	6.5
384.156	4.5
384.941	6.5
385.726	8.5
386.511	4.5
387.296	7.5
388.08	6.5
388.865	5.5
389.649	8.5
390.434	8.5
391.218	7.5
392.003	6.5
392.787	7.5
393.571	6.5
394.355	8.5
395.139	7.5
395.923	5.5
396.707	6.5
397.491	5.5
398.274	8.5
399.058	4.5
399.842	7.5
400.625	7.5
401.408	8.5
402.192	7.5
402.975	9.5
403.758	9.5
404.541	8.5
405.324	6.5
406.107	8.5
406.89	5.5
407.673	7.5
408.456	8.5
409.238	10.5
410.021	8.5
410.803	8.5
411.586	10.5
412.368	8.5
413.151	8.5
413.933	9.5
414.715	10.5
415.497	8.5
416.279	9.5
417.061	9.5
417.843	9.5
418.624	9.5
419.406	10.5
420.188	10.5
420.969	9.5
421.751	13.5
422.532	9.5
423.313	10.5
424.095	12.5
424.876	11.5
425.657	14.5
426.438	11.5
427.219	10.5
428	14.5
428.78	14.5
429.561	14.5
430.342	13.5
431.122	14.5
431.903	14.5
432.683	14.5
433.464	14.5
434.244	17.5
435.024	17.5
435.804	16.5
436.584	19.5
437.364	18.5
438.144	19.5
438.924	22.5
439.704	23.5
440.483	23.5
441.263	21.5
442.042	26.5
442.822	25.5
443.601	27.5
444.38	30.5
445.16	34.5
445.939	34.5
446.718	38.5
447.497	38.5
448.276	44.5
449.054	46.5
449.833	53.5
450.612	56.5
451.391	61.5
452.169	66.5
452.948	69.5
453.726	82.5
454.504	90.5
455.282	95.5
456.061	106.5
456.839	118.5
457.617	134.5
458.395	145.5
459.172	162.5
459.95	186.5
460.728	202.5
461.506	225.5
462.283	241.5
463.061	281.5
463.838	310.5
464.615	346.5
465.393	386.5
466.17	422.5
466.947	478.5
467.724	531.5
468.501	588.5
469.278	645.5
470.055	725.5
470.831	800.5
471.608	890.5
472.385	981.5
473.161	1085.5
473.938	1211.5
474.714	1324.5
475.49	1455.5
476.266	1613.5
477.043	1783.5
477.819	1948.5
478.595	2136.5
479.371	2340.5
480.146	2576.5
480.922	2835.5
481.698	3109.5
482.473	3421.5
483.249	3741.5
484.024	4098.5
484.8	4491.5
485.575	4913.5
486.35	5396.5
487.126	5867.5
487.901	6395.5
488.676	6984.5
489.451	7660.5
490.225	8298.5
491	9093.5
491.775	9873.5
492.55	10760.5
493.324	11597.5
494.099	12466.5
494.873	13391.5
495.647	14440.5
496.422	15427.5
497.196	16571.5
497.97	17689.5
498.744	18791.5
499.518	19944.5
500.292	20963.5
501.066	21971.5
501.839	22992.5
502.613	23885.5
503.387	24693.5
504.16	25364.5
504.934	25812.5
505.707	26116.5
506.48	26259.5
507.253	26332.5
508.027	26244.5
508.8	26053.5
509.573	25765.5
510.346	25327.5
511.118	24672.5
511.891	23991.5
512.664	23302.5
513.437	22560.5
514.209	21576.5
514.982	20766.5
515.754	19982.5
516.526	19054.5
517.298	18309.5
518.071	17528.5
518.843	16870.5
519.615	16213.5
520.387	15591.5
521.159	14971.5
521.93	14374.5
522.702	13780.5
523.474	13238.5
524.245	12667.5
525.017	12114.5
525.788	11695.5
526.56	11146.5
527.331	10643.5
528.102	10163.5
528.873	9739.5
529.644	9234.5
530.415	8843.5
531.186	8393.5
531.957	7959.5
532.728	7594.5
533.498	7209.5
534.269	6792.5
535.039	6428.5
535.81	6064.5
536.58	5771.5
537.351	5414.5
538.121	5112.5
538.891	4865.5
539.661	4608.5
540.431	4377.5
541.201	4104.5
541.971	3913.5
542.741	3678.5
543.51	3534.5
544.28	3335.5
545.05	3170.5
545.819	3016.5
546.588	2868.5
547.358	2726.5
548.127	2590.5
548.896	2461.5
549.665	2330.5
550.434	2210.5
551.203	2097.5
551.972	1983.5
552.741	1870.5
553.51	1782.5
554.278	1678.5
555.047	1597.5
555.815	1518.5
556.584	1419.5
557.352	1336.5
558.121	1259.5
558.889	1193.5
559.657	1136.5
560.425	1072.5
561.193	999.5
561.961	954.5
562.729	892.5
563.496	834.5
564.264	794.5
565.032	754.5
565.799	715.5
566.567	671.5
567.334	644.5
568.101	607.5
568.869	570.5
569.636	535.5
570.403	505.5
571.17	482.5
571.937	460.5
572.704	432.5
573.471	404.5
574.237	377.5
575.004	364.5
575.771	335.5
576.537	314.5
577.303	294.5
578.07	284.5
578.836	263.5
579.602	250.5
580.368	232.5
581.134	223.5
581.9	209.5
582.666	204.5
583.432	191.5
584.198	180.5
584.964	174.5
585.729	163.5
586.495	158.5
587.26	145.5
588.025	140.5
588.791	130.5
589.556	124.5
590.321	118.5
591.086	109.5
591.851	106.5
592.616	104.5
593.381	95.5
594.146	91.5
594.911	90.5
595.675	83.5
596.44	80.5
597.204	75.5
597.969	70.5
598.733	68.5
599.497	69.5
600.261	64.5
601.025	60.5
601.79	56.5
602.553	55.5
603.317	55.5
604.081	52.5
604.845	49.5
605.609	45.5
606.372	44.5
607.136	41.5
607.899	38.5
608.662	41.5
609.426	37.5
610.189	35.5
610.952	34.5
611.715	33.5
612.478	30.5
613.241	33.5
614.004	27.5
614.767	28.5
615.529	27.5
616.292	29.5
617.055	25.5
617.817	24.5
618.579	24.5
619.342	26.5
620.104	22.5
620.866	20.5
621.628	20.5
622.39	19.5
623.152	19.5
623.914	19.5
624.676	20.5
625.438	17.5
626.199	17.5
626.961	18.5
627.722	18.5
628.484	16.5
629.245	16.5
630.006	16.5
630.768	14.5
631.529	16.5
632.29	13.5
633.051	14.5
633.812	12.5
634.573	12.5
635.333	11.5
636.094	13.5
636.855	14.5
637.615	11.5
638.376	11.5
639.136	10.5
639.896	10.5
640.657	12.5
641.417	8.5
642.177	10.5
642.937	7.5
643.697	8.5
644.457	6.5
645.216	10.5
645.976	9.5
646.736	7.5
647.495	7.5
648.255	8.5
649.014	8.5
649.774	8.5
650.533	6.5
651.292	8.5
652.051	6.5
652.81	6.5
653.569	7.5
654.328	8.5
655.087	5.5
655.846	6.5
656.604	6.5
657.363	8.5
658.121	7.5
658.88	5.5
659.638	7.5
660.397	6.5
661.155	4.5
661.913	5.5
662.671	5.5
663.429	10.5
664.187	5.5
664.945	3.5
665.703	5.5
666.46	2.5
667.218	7.5
667.976	5.5
668.733	6.5
669.49	5.5
670.248	5.5
671.005	4.5
671.762	5.5
672.519	6.5
673.276	5.5
674.033	7.5
674.79	2.5
675.547	4.5
676.304	5.5
677.06	2.5
677.817	3.5
678.574	4.5
679.33	4.5
680.086	6.5
680.843	3.5
681.599	6.5
682.355	4.5
683.111	3.5
683.867	4.5
684.623	5.5
685.379	2.5
686.135	3.5
686.89	3.5
687.646	3.5
688.402	3.5
689.157	3.5
689.912	1.5
690.668	4.5
691.423	4.5
692.178	6.5
692.933	3.5
693.688	5.5
694.443	6.5
695.198	5.5
695.953	6.5
696.708	4.5
697.462	4.5
698.217	5.5
698.972	4.5
699.726	4.5
700.48	3.5
701.235	5.5
701.989	5.5
702.743	4.5
703.497	4.5
704.251	2.5
705.005	3.5
705.759	2.5
706.513	2.5
707.266	2.5
708.02	6.5
708.774	1.5
709.527	5.5
710.28	3.5
711.034	1.5
711.787	4.5
712.54	4.5
713.293	1.5
714.046	5.5
714.799	5.5
715.552	4.5
716.305	2.5
717.058	6.5
717.81	3.5
718.563	3.5
719.315	3.5
720.068	1.5
720.82	4.5
721.573	4.5
722.325	4.5
723.077	6.5
723.829	5.5
724.581	4.5
725.333	3.5
726.085	5.5
726.836	4.5
727.588	2.5
728.34	4.5
729.091	3.5
729.843	3.5
730.594	0.5
731.346	5.5
732.097	4.5
732.848	6.5
733.599	5.5
734.35	4.5
735.101	5.5
735.852	6.5
736.603	5.5
737.354	4.5
738.104	2.5
738.855	6.5
739.605	3.5
740.356	4.5
741.106	4.5
741.856	5.5
742.607	4.5
743.357	7.5
744.107	4.5
744.857	5.5
745.607	3.5
746.357	4.5
747.106	7.5
747.856	5.5
748.606	3.5
749.355	6.5
750.105	2.5
750.854	7.5
751.603	6.5
752.353	4.5
753.102	6.5
753.851	5.5
754.6	6.5
755.349	5.5
756.098	6.5
756.847	6.5
757.595	4.5
758.344	7.5
759.093	6.5
759.841	7.5
760.589	5.5
761.338	6.5
762.086	4.5
762.834	4.5
763.582	3.5
764.331	6.5
765.079	9.5
765.826	4.5
766.574	7.5
767.322	10.5
768.07	6.5
768.817	7.5
769.565	7.5
770.312	5.5
771.06	8.5
771.807	8.5
772.554	7.5
773.302	8.5
774.049	7.5
774.796	8.5
775.543	7.5
776.29	7.5
777.036	6.5
777.783	5.5
778.53	8.5
779.276	9.5
780.023	10.5
780.769	10.5
781.516	9.5
782.262	9.5
783.008	8.5
783.754	6.5
784.5	11.5
785.246	6.5
785.992	9.5
786.738	9.5
787.484	7.5
788.23	9.5
788.975	7.5
789.721	10.5
790.466	8.5
791.212	8.5
791.957	8.5
792.702	9.5
793.447	7.5
794.193	9.5
794.938	9.5
795.683	10.5
796.427	6.5
797.172	6.5
797.917	7.5
798.662	8.5
799.406	5.5
800.151	9.5
800.895	8.5
801.64	6.5
802.384	10.5
803.128	6.5
803.872	7.5
804.616	7.5
805.36	6.5
806.104	5.5
806.848	6.5
807.592	7.5
808.336	8.5
809.079	6.5
809.823	5.5
810.566	4.5
811.31	5.5
812.053	4.5
812.796	6.5
813.539	2.5
814.283	5.5
815.026	5.5
815.769	6.5
816.511	6.5
817.254	3.5
817.997	7.5
818.74	7.5
819.482	5.5
820.225	4.5
820.967	5.5
821.71	4.5
822.452	3.5
823.194	4.5
823.936	1.5
824.678	5.5
825.42	5.5
826.162	4.5
826.904	5.5
827.646	4.5
828.388	6.5
829.129	4.5
829.871	4.5
830.612	4.5
831.354	3.5
832.095	5.5
832.836	4.5
833.577	3.5
834.319	6.5
835.06	4.5
835.801	7.5
836.542	5.5
837.282	5.5
838.023	4.5
838.764	3.5
839.504	4.5
840.245	2.5
840.985	4.5
841.726	5.5
842.466	4.5
843.206	2.5
843.946	2.5
844.687	5.5
845.427	1.5
846.166	2.5
846.906	3.5
847.646	3.5
848.386	4.5
849.125	0.5
849.865	3.5
850.605	3.5
851.344	3.5
852.083	3.5
852.823	2.5
853.562	5.5
854.301	3.5
855.04	1.5
855.779	3.5
856.518	4.5
857.257	1.5
857.995	2.5
858.734	2.5
859.473	2.5
860.211	3.5
860.95	2.5
861.688	1.5
862.426	4.5
863.165	2.5
863.903	2.5
864.641	2.5
865.379	2.5
866.117	0.5
866.855	-1.5
867.593	1.5
868.33	1.5
869.068	4.5
869.806	1.5
870.543	2.5
871.28	4.5
872.018	3.5
872.755	2.5
873.492	2.5
874.229	2.5
874.967	1.5
875.703	2.5
876.44	2.5
877.177	2.5
877.914	3.5
878.651	2.5
879.387	-0.5
880.124	2.5
880.86	2.5
881.597	0.5
882.333	1.5
883.069	1.5
883.806	4.5
884.542	2.5
885.278	2.5
886.014	-1.5
886.749	0.5
887.485	1.5
888.221	2.5
888.957	1.5
889.692	2.5
890.428	1.5
891.163	1.5
891.899	2.5
892.634	1.5
893.369	0.5
894.104	1.5
894.839	1.5
895.574	1.5
896.309	2.5
897.044	1.5
897.779	2.5
898.514	0.5
899.248	1.5
899.983	0.5
900.717	0.5
901.452	-1.5
902.186	3.5
902.92	0.5
903.654	2.5
904.389	2.5
905.123	2.5
905.857	-0.5
906.59	0.5
907.324	0.5
908.058	1.5
908.792	0.5
909.525	1.5
910.259	1.5
910.992	2.5
911.726	0.5
912.459	1.5
913.192	0.5
913.925	0.5
914.658	0.5
915.391	0.5
916.124	0.5
916.857	2.5
917.59	1.5
918.323	0.5
919.055	-0.5
919.788	0.5
920.521	-0.5
921.253	1.5
921.985	1.5
922.718	0.5
923.45	1.5
924.182	-0.5
924.914	0.5
925.646	1.5
926.378	1.5
927.11	1.5
927.841	1.5
928.573	2.5
929.305	1.5
930.036	0.5
930.768	0.5
931.499	0.5
932.23	4.5
932.962	0.5
933.693	0.5
934.424	1.5
935.155	3.5
935.886	-0.5
936.617	0.5
937.348	0.5
938.078	1.5
938.809	2.5
939.54	1.5
940.27	1.5
941.001	-0.5
941.731	0.5
942.461	0.5
943.191	0.5
943.922	-1.5
944.652	0.5
945.382	0.5
946.112	2.5
946.841	2.5
947.571	-0.5
948.301	1.5
949.031	0.5
949.76	1.5
950.49	1.5
951.219	-0.5
951.948	1.5
952.678	2.5
953.407	0.5
954.136	0.5
954.865	1.5
955.594	1.5
956.323	-1.5
957.052	-1.5
957.78	0.5
958.509	0.5
959.238	0.5
959.966	-0.5
960.695	0.5
961.423	1.5
962.151	1.5
962.88	1.5
963.608	-1.5
964.336	-0.5
965.064	1.5
965.792	1.5
966.52	0.5
967.247	0.5
967.975	2.5
968.703	0.5
969.43	0.5
970.158	-1.5
970.885	-0.5
971.613	1.5
972.34	0.5
973.067	1.5
973.794	2.5
974.521	-0.5
975.248	-0.5
975.975	0.5
976.702	2.5
977.429	-1.5
978.156	0.5
978.882	0.5
979.609	-2.5
980.335	0.5
981.062	0.5
981.788	1.5
982.514	0.5
983.24	3.5
983.967	0.5
984.693	0.5
985.419	0.5
986.144	1.5
986.87	3.5
987.596	0.5
988.322	1.5
989.047	1.5
989.773	2.5
990.498	1.5
991.224	0.5
991.949	1.5
992.674	1.5
993.399	0.5
994.124	0.5
994.849	0.5
995.574	1.5
996.299	0.5
997.024	0.5
997.749	-0.5
998.473	0.5
999.198	1.5
999.922	1.5
1000.647	2.5
1001.371	4.5
1002.095	-1.5
1002.82	-0.5
1003.544	-1.5
1004.268	1.5
1004.992	1.5
1005.716	1.5
1006.439	2.5
1007.163	3.5
1007.887	1.5
1008.611	1.5
1009.334	1.5
1010.058	0.5
1010.781	0.5
1011.504	2.5
1012.228	-0.5
1012.951	-1.5
1013.674	2.5
1014.397	-0.5
1015.12	-1.5
