节点500_285_QEPB04081__157__14-58-10-184.txt的数据

Date: Wed Nov 12 14:58:10 CST 2025
User: PC
Spectrometer: QEPB0408
触发模式: 0
积分时间 (秒): 1.000000E-2
Scans to average: 1
启用暗噪声校正: true
启用非线性校正: false
滑动平均宽度: 0
X轴模式: Wavelengths
Number of Pixels in Spectrum: 1044
>>>>>Begin Spectral Data<<<<<
220.843	1
221.644	1
222.444	1
223.244	2
224.045	1
224.845	2
225.645	2
226.445	2
227.245	2
228.045	0
228.845	3
229.645	2
230.444	2
231.244	4
232.043	4
232.843	1
233.642	3
234.442	3
235.241	2
236.04	5
236.839	1
237.638	2
238.437	4
239.236	3
240.035	5
240.833	2
241.632	5
242.43	4
243.229	3
244.027	4
244.826	4
245.624	4
246.422	4
247.22	7
248.018	7
248.816	7
249.614	7
250.412	8
251.21	8
252.007	8
252.805	7
253.602	6
254.4	5
255.197	6
255.994	10
256.791	7
257.589	9
258.386	8
259.183	9
259.979	8
260.776	10
261.573	11
262.37	11
263.166	11
263.963	13
264.759	12
265.556	13
266.352	13
267.148	13
267.944	12
268.74	13
269.536	16
270.332	16
271.128	15
271.924	17
272.719	17
273.515	17
274.311	19
275.106	20
275.901	21
276.697	17
277.492	17
278.287	19
279.082	19
279.877	19
280.672	19
281.467	17
282.262	21
283.056	17
283.851	21
284.646	19
285.44	17
286.234	18
287.029	18
287.823	21
288.617	17
289.411	19
290.205	17
290.999	18
291.793	15
292.587	19
293.381	16
294.174	15
294.968	16
295.761	17
296.555	18
297.348	15
298.141	13
298.935	17
299.728	14
300.521	11
301.314	14
302.107	12
302.899	11
303.692	11
304.485	13
305.277	13
306.07	13
306.862	10
307.655	13
308.447	13
309.239	8
310.031	12
310.823	10
311.615	11
312.407	11
313.199	10
313.991	9
314.783	8
315.574	6
316.366	9
317.157	6
317.949	9
318.74	9
319.531	8
320.322	7
321.113	5
321.904	7
322.695	8
323.486	7
324.277	8
325.068	6
325.858	7
326.649	6
327.439	7
328.23	6
329.02	8
329.81	6
330.6	5
331.391	6
332.181	5
332.971	6
333.76	7
334.55	6
335.34	6
336.13	5
336.919	4
337.709	7
338.498	5
339.287	6
340.077	6
340.866	7
341.655	7
342.444	6
343.233	9
344.022	5
344.811	4
345.6	6
346.388	7
347.177	5
347.965	6
348.754	5
349.542	4
350.33	8
351.119	6
351.907	5
352.695	5
353.483	6
354.271	5
355.059	5
355.846	8
356.634	5
357.422	6
358.209	6
358.997	6
359.784	7
360.571	7
361.359	6
362.146	4
362.933	6
363.72	7
364.507	4
365.294	9
366.081	6
366.867	4
367.654	4
368.44	4
369.227	4
370.013	2
370.8	5
371.586	5
372.372	6
373.158	5
373.944	3
374.73	5
375.516	2
376.302	7
377.088	5
377.873	3
378.659	5
379.445	7
380.23	8
381.015	5
381.801	4
382.586	5
383.371	3
384.156	4
384.941	9
385.726	6
386.511	3
387.296	4
388.08	6
388.865	6
389.649	7
390.434	7
391.218	7
392.003	7
392.787	5
393.571	5
394.355	8
395.139	3
395.923	7
396.707	5
397.491	7
398.274	6
399.058	9
399.842	6
400.625	7
401.408	7
402.192	8
402.975	6
403.758	8
404.541	7
405.324	9
406.107	7
406.89	9
407.673	7
408.456	7
409.238	6
410.021	9
410.803	10
411.586	8
412.368	11
413.151	11
413.933	8
414.715	8
415.497	9
416.279	11
417.061	10
417.843	9
418.624	9
419.406	10
420.188	10
420.969	9
421.751	11
422.532	13
423.313	11
424.095	11
424.876	10
425.657	11
426.438	10
427.219	13
428	12
428.78	14
429.561	13
430.342	11
431.122	14
431.903	13
432.683	13
433.464	18
434.244	19
435.024	15
435.804	17
436.584	19
437.364	19
438.144	19
438.924	21
439.704	21
440.483	23
441.263	20
442.042	23
442.822	25
443.601	25
444.38	30
445.16	31
445.939	33
446.718	32
447.497	35
448.276	39
449.054	43
449.833	50
450.612	48
451.391	53
452.169	59
452.948	61
453.726	68
454.504	77
455.282	90
456.061	91
456.839	108
457.617	114
458.395	125
459.172	138
459.95	160
460.728	178
461.506	205
462.283	223
463.061	245
463.838	274
464.615	311
465.393	345
466.17	382
466.947	429
467.724	480
468.501	536
469.278	607
470.055	673
470.831	744
471.608	831
472.385	918
473.161	1032
473.938	1149
474.714	1271
475.49	1402
476.266	1578
477.043	1730
477.819	1916
478.595	2131
479.371	2341
480.146	2601
480.922	2873
481.698	3155
482.473	3500
483.249	3873
484.024	4271
484.8	4698
485.575	5202
486.35	5725
487.126	6283
487.901	6929
488.676	7604
489.451	8346
490.225	9178
491	9989
491.775	11025
492.55	11979
493.324	13003
494.099	14055
494.873	15177
495.647	16383
496.422	17623
497.196	18843
497.97	20128
498.744	21372
499.518	22648
500.292	23792
501.066	24885
501.839	25783
502.613	26624
503.387	27467
504.16	27913
504.934	28220
505.707	28256
506.48	28198
507.253	28086
508.027	27682
508.8	27354
509.573	26713
510.346	26029
511.118	25131
511.891	24265
512.664	23328
513.437	22381
514.209	21450
514.982	20505
515.754	19600
516.526	18741
517.298	17908
518.071	17046
518.843	16467
519.615	15798
520.387	15169
521.159	14575
521.93	13950
522.702	13404
523.474	12863
524.245	12277
525.017	11790
525.788	11364
526.56	10829
527.331	10297
528.102	9839
528.873	9358
529.644	8859
530.415	8433
531.186	7978
531.957	7558
532.728	7172
533.498	6771
534.269	6401
535.039	6061
535.81	5685
536.58	5373
537.351	5058
538.121	4797
538.891	4558
539.661	4290
540.431	4061
541.201	3820
541.971	3637
542.741	3430
543.51	3273
544.28	3127
545.05	2982
545.819	2811
546.588	2674
547.358	2531
548.127	2411
548.896	2302
549.665	2180
550.434	2057
551.203	1957
551.972	1836
552.741	1737
553.51	1645
554.278	1539
555.047	1456
555.815	1382
556.584	1297
557.352	1229
558.121	1171
558.889	1087
559.657	1033
560.425	975
561.193	914
561.961	858
562.729	829
563.496	768
564.264	733
565.032	698
565.799	652
566.567	621
567.334	588
568.101	558
568.869	519
569.636	493
570.403	461
571.17	431
571.937	404
572.704	381
573.471	372
574.237	345
575.004	327
575.771	312
576.537	293
577.303	273
578.07	253
578.836	239
579.602	231
580.368	216
581.134	196
581.9	192
582.666	180
583.432	172
584.198	162
584.964	150
585.729	141
586.495	140
587.26	138
588.025	123
588.791	119
589.556	110
590.321	107
591.086	101
591.851	93
592.616	92
593.381	86
594.146	80
594.911	82
595.675	75
596.44	71
597.204	70
597.969	67
598.733	64
599.497	61
600.261	54
601.025	53
601.79	56
602.553	48
603.317	52
604.081	45
604.845	47
605.609	44
606.372	38
607.136	39
607.899	36
608.662	36
609.426	31
610.189	33
610.952	32
611.715	32
612.478	30
613.241	27
614.004	28
614.767	26
615.529	27
616.292	23
617.055	20
617.817	24
618.579	22
619.342	20
620.104	21
620.866	17
621.628	19
622.39	20
623.152	17
623.914	17
624.676	18
625.438	16
626.199	15
626.961	14
627.722	15
628.484	13
629.245	16
630.006	13
630.768	11
631.529	12
632.29	12
633.051	12
633.812	12
634.573	11
635.333	11
636.094	12
636.855	8
637.615	9
638.376	10
639.136	5
639.896	11
640.657	11
641.417	10
642.177	10
642.937	6
643.697	8
644.457	10
645.216	11
645.976	7
646.736	9
647.495	7
648.255	5
649.014	7
649.774	6
650.533	5
651.292	9
652.051	7
652.81	8
653.569	7
654.328	5
655.087	8
655.846	7
656.604	5
657.363	5
658.121	7
658.88	8
659.638	5
660.397	8
661.155	5
661.913	6
662.671	5
663.429	1
664.187	6
664.945	2
665.703	5
666.46	5
667.218	7
667.976	4
668.733	5
669.49	3
670.248	4
671.005	5
671.762	6
672.519	4
673.276	4
674.033	5
674.79	5
675.547	5
676.304	2
677.06	3
677.817	5
678.574	5
679.33	7
680.086	5
680.843	4
681.599	3
682.355	4
683.111	3
683.867	3
684.623	3
685.379	4
686.135	2
686.89	4
687.646	4
688.402	2
689.157	4
689.912	3
690.668	4
691.423	4
692.178	2
692.933	4
693.688	1
694.443	3
695.198	3
695.953	3
696.708	5
697.462	4
698.217	5
698.972	5
699.726	5
700.48	3
701.235	2
701.989	5
702.743	4
703.497	4
704.251	3
705.005	2
705.759	3
706.513	2
707.266	3
708.02	1
708.774	3
709.527	5
710.28	3
711.034	3
711.787	3
712.54	5
713.293	3
714.046	3
714.799	4
715.552	3
716.305	4
717.058	3
717.81	3
718.563	5
719.315	3
720.068	3
720.82	1
721.573	2
722.325	5
723.077	6
723.829	3
724.581	4
725.333	3
726.085	1
726.836	4
727.588	6
728.34	4
729.091	3
729.843	3
730.594	3
731.346	4
732.097	5
732.848	3
733.599	3
734.35	1
735.101	3
735.852	6
736.603	6
737.354	3
738.104	5
738.855	2
739.605	5
740.356	4
741.106	3
741.856	4
742.607	5
743.357	3
744.107	5
744.857	6
745.607	6
746.357	4
747.106	4
747.856	2
748.606	4
749.355	6
750.105	6
750.854	6
751.603	4
752.353	5
753.102	7
753.851	7
754.6	5
755.349	2
756.098	5
756.847	4
757.595	4
758.344	5
759.093	6
759.841	6
760.589	6
761.338	8
762.086	3
762.834	8
763.582	6
764.331	6
765.079	8
765.826	6
766.574	7
767.322	6
768.07	7
768.817	8
769.565	8
770.312	6
771.06	6
771.807	8
772.554	8
773.302	7
774.049	9
774.796	9
775.543	9
776.29	9
777.036	11
777.783	10
778.53	7
779.276	8
780.023	11
780.769	10
781.516	10
782.262	11
783.008	12
783.754	10
784.5	9
785.246	7
785.992	8
786.738	8
787.484	9
788.23	9
788.975	8
789.721	12
790.466	6
791.212	12
791.957	8
792.702	11
793.447	8
794.193	8
794.938	9
795.683	9
796.427	7
797.172	8
797.917	7
798.662	8
799.406	8
800.151	7
800.895	9
801.64	7
802.384	9
803.128	6
803.872	8
804.616	6
805.36	6
806.104	6
806.848	8
807.592	6
808.336	7
809.079	6
809.823	6
810.566	4
811.31	6
812.053	6
812.796	9
813.539	2
814.283	4
815.026	4
815.769	5
816.511	4
817.254	5
817.997	6
818.74	6
819.482	3
820.225	4
820.967	6
821.71	6
822.452	1
823.194	4
823.936	1
824.678	3
825.42	3
826.162	2
826.904	1
827.646	2
828.388	5
829.129	3
829.871	4
830.612	3
831.354	3
832.095	4
832.836	4
833.577	3
834.319	3
835.06	2
835.801	5
836.542	4
837.282	6
838.023	4
838.764	4
839.504	2
840.245	2
840.985	2
841.726	4
842.466	0
843.206	5
843.946	1
844.687	3
845.427	3
846.166	3
846.906	5
847.646	4
848.386	2
849.125	4
849.865	4
850.605	1
851.344	4
852.083	4
852.823	2
853.562	4
854.301	1
855.04	2
855.779	5
856.518	3
857.257	3
857.995	2
858.734	5
859.473	1
860.211	0
860.95	-1
861.688	2
862.426	2
863.165	0
863.903	0
864.641	2
865.379	2
866.117	2
866.855	1
867.593	3
868.33	2
869.068	3
869.806	-1
870.543	1
871.28	2
872.018	2
872.755	1
873.492	2
874.229	0
874.967	2
875.703	2
876.44	3
877.177	1
877.914	2
878.651	-1
879.387	0
880.124	2
880.86	-1
881.597	0
882.333	2
883.069	1
883.806	1
884.542	0
885.278	2
886.014	0
886.749	2
887.485	1
888.221	3
888.957	3
889.692	-1
890.428	1
891.163	3
891.899	0
892.634	-1
893.369	-1
894.104	1
894.839	-1
895.574	0
896.309	0
897.044	0
897.779	-1
898.514	-2
899.248	2
899.983	-1
900.717	0
901.452	0
902.186	-1
902.92	0
903.654	-2
904.389	1
905.123	0
905.857	1
906.59	-2
907.324	0
908.058	0
908.792	0
909.525	0
910.259	1
910.992	-1
911.726	0
912.459	1
913.192	0
913.925	2
914.658	2
915.391	0
916.124	1
916.857	1
917.59	-1
918.323	0
919.055	-1
919.788	1
920.521	1
921.253	-2
921.985	0
922.718	1
923.45	1
924.182	2
924.914	1
925.646	-1
926.378	-1
927.11	-1
927.841	-2
928.573	-2
929.305	0
930.036	-1
930.768	2
931.499	-1
932.23	-2
932.962	3
933.693	-2
934.424	2
935.155	1
935.886	0
936.617	-2
937.348	-1
938.078	0
938.809	0
939.54	-1
940.27	0
941.001	-1
941.731	-1
942.461	0
943.191	-1
943.922	1
944.652	1
945.382	1
946.112	0
946.841	0
947.571	-1
948.301	1
949.031	1
949.76	-1
950.49	-1
951.219	-1
951.948	2
952.678	0
953.407	0
954.136	0
954.865	-1
955.594	1
956.323	1
957.052	1
957.78	1
958.509	1
959.238	-2
959.966	0
960.695	2
961.423	0
962.151	-2
962.88	1
963.608	2
964.336	1
965.064	-2
965.792	-1
966.52	1
967.247	0
967.975	0
968.703	2
969.43	0
970.158	0
970.885	-1
971.613	-1
972.34	-1
973.067	0
973.794	-3
974.521	3
975.248	-1
975.975	0
976.702	1
977.429	-1
978.156	3
978.882	1
979.609	0
980.335	0
981.062	0
981.788	-2
982.514	0
983.24	1
983.967	0
984.693	2
985.419	0
986.144	2
986.87	-1
987.596	2
988.322	1
989.047	1
989.773	-2
990.498	0
991.224	1
991.949	0
992.674	-1
993.399	1
994.124	-2
994.849	0
995.574	0
996.299	1
997.024	-1
997.749	-1
998.473	0
999.198	0
999.922	-3
1000.647	2
1001.371	6
1002.095	-1
1002.82	-3
1003.544	1
1004.268	-1
1004.992	1
1005.716	0
1006.439	0
1007.163	1
1007.887	0
1008.611	-1
1009.334	0
1010.058	1
1010.781	2
1011.504	2
1012.228	0
1012.951	-1
1013.674	0
1014.397	-1
1015.12	-1
