节点500_285_QEPB04081__112__14-57-25-266.txt的数据

Date: Wed Nov 12 14:57:25 CST 2025
User: PC
Spectrometer: QEPB0408
触发模式: 0
积分时间 (秒): 1.000000E-2
Scans to average: 1
启用暗噪声校正: true
启用非线性校正: false
滑动平均宽度: 0
X轴模式: Wavelengths
Number of Pixels in Spectrum: 1044
>>>>>Begin Spectral Data<<<<<
220.843	1.75
221.644	2.75
222.444	0.75
223.244	3.75
224.045	4.75
224.845	2.75
225.645	0.75
226.445	2.75
227.245	3.75
228.045	1.75
228.845	5.75
229.645	3.75
230.444	1.75
231.244	3.75
232.043	0.75
232.843	3.75
233.642	1.75
234.442	4.75
235.241	2.75
236.04	4.75
236.839	6.75
237.638	2.75
238.437	5.75
239.236	5.75
240.035	5.75
240.833	7.75
241.632	3.75
242.43	6.75
243.229	4.75
244.027	7.75
244.826	4.75
245.624	6.75
246.422	5.75
247.22	6.75
248.018	7.75
248.816	6.75
249.614	4.75
250.412	6.75
251.21	4.75
252.007	8.75
252.805	8.75
253.602	10.75
254.4	7.75
255.197	8.75
255.994	9.75
256.791	8.75
257.589	10.75
258.386	8.75
259.183	9.75
259.979	12.75
260.776	9.75
261.573	11.75
262.37	13.75
263.166	13.75
263.963	9.75
264.759	12.75
265.556	11.75
266.352	12.75
267.148	12.75
267.944	11.75
268.74	11.75
269.536	15.75
270.332	13.75
271.128	16.75
271.924	15.75
272.719	18.75
273.515	17.75
274.311	18.75
275.106	18.75
275.901	20.75
276.697	19.75
277.492	18.75
278.287	17.75
279.082	18.75
279.877	19.75
280.672	21.75
281.467	20.75
282.262	20.75
283.056	18.75
283.851	19.75
284.646	22.75
285.44	17.75
286.234	21.75
287.029	17.75
287.823	19.75
288.617	20.75
289.411	18.75
290.205	18.75
290.999	17.75
291.793	22.75
292.587	19.75
293.381	16.75
294.174	21.75
294.968	15.75
295.761	17.75
296.555	13.75
297.348	18.75
298.141	12.75
298.935	16.75
299.728	17.75
300.521	16.75
301.314	14.75
302.107	13.75
302.899	13.75
303.692	13.75
304.485	14.75
305.277	12.75
306.07	12.75
306.862	13.75
307.655	12.75
308.447	11.75
309.239	11.75
310.031	12.75
310.823	11.75
311.615	11.75
312.407	10.75
313.199	10.75
313.991	9.75
314.783	10.75
315.574	10.75
316.366	7.75
317.157	9.75
317.949	5.75
318.74	9.75
319.531	9.75
320.322	8.75
321.113	9.75
321.904	6.75
322.695	7.75
323.486	6.75
324.277	9.75
325.068	6.75
325.858	7.75
326.649	6.75
327.439	6.75
328.23	7.75
329.02	6.75
329.81	6.75
330.6	3.75
331.391	9.75
332.181	7.75
332.971	4.75
333.76	6.75
334.55	5.75
335.34	7.75
336.13	7.75
336.919	5.75
337.709	5.75
338.498	4.75
339.287	6.75
340.077	6.75
340.866	5.75
341.655	4.75
342.444	6.75
343.233	5.75
344.022	7.75
344.811	6.75
345.6	6.75
346.388	3.75
347.177	9.75
347.965	5.75
348.754	5.75
349.542	6.75
350.33	5.75
351.119	6.75
351.907	5.75
352.695	8.75
353.483	6.75
354.271	7.75
355.059	4.75
355.846	6.75
356.634	5.75
357.422	6.75
358.209	5.75
358.997	5.75
359.784	5.75
360.571	5.75
361.359	8.75
362.146	5.75
362.933	7.75
363.72	4.75
364.507	6.75
365.294	5.75
366.081	6.75
366.867	6.75
367.654	6.75
368.44	4.75
369.227	6.75
370.013	7.75
370.8	4.75
371.586	6.75
372.372	6.75
373.158	7.75
373.944	8.75
374.73	4.75
375.516	6.75
376.302	5.75
377.088	5.75
377.873	6.75
378.659	3.75
379.445	6.75
380.23	4.75
381.015	5.75
381.801	4.75
382.586	8.75
383.371	5.75
384.156	5.75
384.941	6.75
385.726	5.75
386.511	4.75
387.296	7.75
388.08	4.75
388.865	6.75
389.649	5.75
390.434	4.75
391.218	8.75
392.003	5.75
392.787	7.75
393.571	6.75
394.355	7.75
395.139	5.75
395.923	8.75
396.707	7.75
397.491	4.75
398.274	6.75
399.058	7.75
399.842	10.75
400.625	9.75
401.408	9.75
402.192	6.75
402.975	8.75
403.758	6.75
404.541	8.75
405.324	10.75
406.107	7.75
406.89	5.75
407.673	6.75
408.456	9.75
409.238	9.75
410.021	9.75
410.803	8.75
411.586	9.75
412.368	9.75
413.151	12.75
413.933	8.75
414.715	8.75
415.497	9.75
416.279	8.75
417.061	9.75
417.843	9.75
418.624	10.75
419.406	9.75
420.188	10.75
420.969	11.75
421.751	10.75
422.532	11.75
423.313	12.75
424.095	12.75
424.876	11.75
425.657	11.75
426.438	13.75
427.219	14.75
428	12.75
428.78	12.75
429.561	14.75
430.342	13.75
431.122	16.75
431.903	13.75
432.683	13.75
433.464	17.75
434.244	16.75
435.024	17.75
435.804	16.75
436.584	18.75
437.364	20.75
438.144	21.75
438.924	22.75
439.704	23.75
440.483	23.75
441.263	25.75
442.042	25.75
442.822	27.75
443.601	27.75
444.38	29.75
445.16	31.75
445.939	30.75
446.718	37.75
447.497	35.75
448.276	39.75
449.054	46.75
449.833	45.75
450.612	50.75
451.391	53.75
452.169	59.75
452.948	64.75
453.726	69.75
454.504	72.75
455.282	84.75
456.061	99.75
456.839	107.75
457.617	113.75
458.395	127.75
459.172	142.75
459.95	159.75
460.728	172.75
461.506	196.75
462.283	211.75
463.061	242.75
463.838	268.75
464.615	297.75
465.393	341.75
466.17	375.75
466.947	423.75
467.724	470.75
468.501	523.75
469.278	589.75
470.055	665.75
470.831	741.75
471.608	822.75
472.385	903.75
473.161	1027.75
473.938	1132.75
474.714	1257.75
475.49	1401.75
476.266	1546.75
477.043	1718.75
477.819	1918.75
478.595	2127.75
479.371	2333.75
480.146	2605.75
480.922	2862.75
481.698	3190.75
482.473	3543.75
483.249	3875.75
484.024	4280.75
484.8	4745.75
485.575	5231.75
486.35	5778.75
487.126	6367.75
487.901	7001.75
488.676	7692.75
489.451	8478.75
490.225	9318.75
491	10194.75
491.775	11165.75
492.55	12138.75
493.324	13238.75
494.099	14271.75
494.873	15451.75
495.647	16658.75
496.422	17943.75
497.196	19151.75
497.97	20476.75
498.744	21763.75
499.518	22977.75
500.292	24136.75
501.066	25237.75
501.839	26142.75
502.613	27089.75
503.387	27667.75
504.16	28252.75
504.934	28579.75
505.707	28548.75
506.48	28473.75
507.253	28231.75
508.027	27862.75
508.8	27468.75
509.573	26757.75
510.346	25994.75
511.118	25143.75
511.891	24263.75
512.664	23315.75
513.437	22332.75
514.209	21332.75
514.982	20410.75
515.754	19476.75
516.526	18560.75
517.298	17795.75
518.071	17024.75
518.843	16349.75
519.615	15711.75
520.387	15104.75
521.159	14496.75
521.93	13979.75
522.702	13372.75
523.474	12856.75
524.245	12305.75
525.017	11695.75
525.788	11286.75
526.56	10761.75
527.331	10200.75
528.102	9788.75
528.873	9270.75
529.644	8790.75
530.415	8363.75
531.186	7921.75
531.957	7511.75
532.728	7133.75
533.498	6758.75
534.269	6315.75
535.039	5986.75
535.81	5689.75
536.58	5311.75
537.351	5015.75
538.121	4742.75
538.891	4509.75
539.661	4249.75
540.431	4006.75
541.201	3787.75
541.971	3600.75
542.741	3393.75
543.51	3241.75
544.28	3076.75
545.05	2937.75
545.819	2783.75
546.588	2649.75
547.358	2500.75
548.127	2372.75
548.896	2262.75
549.665	2128.75
550.434	2041.75
551.203	1928.75
551.972	1823.75
552.741	1715.75
553.51	1608.75
554.278	1547.75
555.047	1448.75
555.815	1359.75
556.584	1280.75
557.352	1215.75
558.121	1136.75
558.889	1078.75
559.657	1014.75
560.425	959.75
561.193	902.75
561.961	865.75
562.729	818.75
563.496	755.75
564.264	725.75
565.032	682.75
565.799	646.75
566.567	609.75
567.334	583.75
568.101	545.75
568.869	513.75
569.636	482.75
570.403	459.75
571.17	432.75
571.937	408.75
572.704	393.75
573.471	363.75
574.237	345.75
575.004	324.75
575.771	306.75
576.537	286.75
577.303	267.75
578.07	256.75
578.836	238.75
579.602	221.75
580.368	209.75
581.134	202.75
581.9	193.75
582.666	173.75
583.432	166.75
584.198	161.75
584.964	153.75
585.729	142.75
586.495	140.75
587.26	130.75
588.025	116.75
588.791	111.75
589.556	113.75
590.321	107.75
591.086	98.75
591.851	96.75
592.616	93.75
593.381	86.75
594.146	81.75
594.911	75.75
595.675	78.75
596.44	68.75
597.204	66.75
597.969	65.75
598.733	64.75
599.497	61.75
600.261	55.75
601.025	56.75
601.79	52.75
602.553	52.75
603.317	47.75
604.081	47.75
604.845	41.75
605.609	45.75
606.372	39.75
607.136	39.75
607.899	35.75
608.662	35.75
609.426	35.75
610.189	31.75
610.952	31.75
611.715	30.75
612.478	29.75
613.241	29.75
614.004	27.75
614.767	25.75
615.529	26.75
616.292	23.75
617.055	25.75
617.817	22.75
618.579	24.75
619.342	21.75
620.104	20.75
620.866	22.75
621.628	21.75
622.39	20.75
623.152	20.75
623.914	19.75
624.676	16.75
625.438	14.75
626.199	17.75
626.961	12.75
627.722	13.75
628.484	13.75
629.245	14.75
630.006	13.75
630.768	12.75
631.529	15.75
632.29	11.75
633.051	12.75
633.812	15.75
634.573	11.75
635.333	13.75
636.094	11.75
636.855	10.75
637.615	11.75
638.376	9.75
639.136	9.75
639.896	7.75
640.657	10.75
641.417	10.75
642.177	8.75
642.937	9.75
643.697	6.75
644.457	8.75
645.216	9.75
645.976	7.75
646.736	7.75
647.495	8.75
648.255	9.75
649.014	7.75
649.774	7.75
650.533	7.75
651.292	5.75
652.051	5.75
652.81	5.75
653.569	7.75
654.328	6.75
655.087	7.75
655.846	3.75
656.604	5.75
657.363	6.75
658.121	6.75
658.88	8.75
659.638	7.75
660.397	5.75
661.155	8.75
661.913	3.75
662.671	4.75
663.429	4.75
664.187	4.75
664.945	4.75
665.703	7.75
666.46	4.75
667.218	4.75
667.976	5.75
668.733	4.75
669.49	6.75
670.248	4.75
671.005	3.75
671.762	4.75
672.519	3.75
673.276	3.75
674.033	3.75
674.79	2.75
675.547	4.75
676.304	5.75
677.06	6.75
677.817	1.75
678.574	3.75
679.33	3.75
680.086	4.75
680.843	5.75
681.599	3.75
682.355	4.75
683.111	5.75
683.867	4.75
684.623	3.75
685.379	5.75
686.135	3.75
686.89	3.75
687.646	5.75
688.402	2.75
689.157	3.75
689.912	5.75
690.668	4.75
691.423	3.75
692.178	3.75
692.933	5.75
693.688	2.75
694.443	5.75
695.198	3.75
695.953	3.75
696.708	3.75
697.462	4.75
698.217	2.75
698.972	4.75
699.726	4.75
700.48	4.75
701.235	3.75
701.989	3.75
702.743	3.75
703.497	1.75
704.251	4.75
705.005	1.75
705.759	2.75
706.513	5.75
707.266	3.75
708.02	5.75
708.774	3.75
709.527	3.75
710.28	4.75
711.034	2.75
711.787	4.75
712.54	5.75
713.293	3.75
714.046	2.75
714.799	3.75
715.552	3.75
716.305	2.75
717.058	3.75
717.81	6.75
718.563	5.75
719.315	3.75
720.068	2.75
720.82	3.75
721.573	3.75
722.325	6.75
723.077	3.75
723.829	3.75
724.581	6.75
725.333	1.75
726.085	4.75
726.836	3.75
727.588	5.75
728.34	7.75
729.091	3.75
729.843	3.75
730.594	4.75
731.346	5.75
732.097	4.75
732.848	6.75
733.599	5.75
734.35	4.75
735.101	5.75
735.852	5.75
736.603	7.75
737.354	2.75
738.104	4.75
738.855	6.75
739.605	6.75
740.356	5.75
741.106	6.75
741.856	5.75
742.607	4.75
743.357	4.75
744.107	6.75
744.857	4.75
745.607	5.75
746.357	6.75
747.106	3.75
747.856	5.75
748.606	4.75
749.355	4.75
750.105	4.75
750.854	4.75
751.603	6.75
752.353	5.75
753.102	4.75
753.851	6.75
754.6	9.75
755.349	4.75
756.098	8.75
756.847	5.75
757.595	4.75
758.344	5.75
759.093	4.75
759.841	8.75
760.589	5.75
761.338	6.75
762.086	4.75
762.834	4.75
763.582	7.75
764.331	6.75
765.079	6.75
765.826	7.75
766.574	7.75
767.322	8.75
768.07	8.75
768.817	9.75
769.565	8.75
770.312	9.75
771.06	7.75
771.807	7.75
772.554	10.75
773.302	7.75
774.049	11.75
774.796	9.75
775.543	9.75
776.29	8.75
777.036	8.75
777.783	10.75
778.53	11.75
779.276	9.75
780.023	8.75
780.769	5.75
781.516	8.75
782.262	8.75
783.008	9.75
783.754	8.75
784.5	10.75
785.246	10.75
785.992	8.75
786.738	8.75
787.484	8.75
788.23	9.75
788.975	9.75
789.721	8.75
790.466	9.75
791.212	8.75
791.957	8.75
792.702	6.75
793.447	7.75
794.193	7.75
794.938	8.75
795.683	7.75
796.427	9.75
797.172	8.75
797.917	9.75
798.662	8.75
799.406	11.75
800.151	8.75
800.895	8.75
801.64	6.75
802.384	7.75
803.128	7.75
803.872	8.75
804.616	9.75
805.36	6.75
806.104	7.75
806.848	7.75
807.592	4.75
808.336	6.75
809.079	4.75
809.823	3.75
810.566	4.75
811.31	6.75
812.053	4.75
812.796	3.75
813.539	5.75
814.283	4.75
815.026	7.75
815.769	6.75
816.511	7.75
817.254	6.75
817.997	4.75
818.74	6.75
819.482	6.75
820.225	4.75
820.967	2.75
821.71	4.75
822.452	6.75
823.194	4.75
823.936	3.75
824.678	3.75
825.42	5.75
826.162	4.75
826.904	3.75
827.646	4.75
828.388	4.75
829.129	3.75
829.871	3.75
830.612	3.75
831.354	3.75
832.095	3.75
832.836	3.75
833.577	4.75
834.319	4.75
835.06	3.75
835.801	2.75
836.542	2.75
837.282	4.75
838.023	4.75
838.764	4.75
839.504	3.75
840.245	4.75
840.985	4.75
841.726	4.75
842.466	4.75
843.206	2.75
843.946	2.75
844.687	1.75
845.427	4.75
846.166	3.75
846.906	2.75
847.646	4.75
848.386	1.75
849.125	3.75
849.865	3.75
850.605	2.75
851.344	5.75
852.083	2.75
852.823	5.75
853.562	1.75
854.301	5.75
855.04	2.75
855.779	1.75
856.518	2.75
857.257	1.75
857.995	2.75
858.734	0.75
859.473	3.75
860.211	1.75
860.95	1.75
861.688	1.75
862.426	0.75
863.165	1.75
863.903	4.75
864.641	0.75
865.379	4.75
866.117	2.75
866.855	2.75
867.593	-1.25
868.33	3.75
869.068	2.75
869.806	1.75
870.543	0.75
871.28	1.75
872.018	3.75
872.755	1.75
873.492	0.75
874.229	2.75
874.967	3.75
875.703	0.75
876.44	1.75
877.177	2.75
877.914	0.75
878.651	1.75
879.387	2.75
880.124	0.75
880.86	3.75
881.597	1.75
882.333	1.75
883.069	1.75
883.806	-0.25
884.542	1.75
885.278	1.75
886.014	1.75
886.749	0.75
887.485	-0.25
888.221	-0.25
888.957	1.75
889.692	1.75
890.428	1.75
891.163	-0.25
891.899	1.75
892.634	0.75
893.369	-0.25
894.104	-1.25
894.839	1.75
895.574	-1.25
896.309	1.75
897.044	2.75
897.779	-2.25
898.514	0.75
899.248	1.75
899.983	0.75
900.717	1.75
901.452	-0.25
902.186	2.75
902.92	-0.25
903.654	1.75
904.389	1.75
905.123	1.75
905.857	-0.25
906.59	0.75
907.324	1.75
908.058	1.75
908.792	1.75
909.525	-0.25
910.259	2.75
910.992	1.75
911.726	-0.25
912.459	-0.25
913.192	0.75
913.925	2.75
914.658	2.75
915.391	-0.25
916.124	1.75
916.857	1.75
917.59	1.75
918.323	3.75
919.055	1.75
919.788	1.75
920.521	-1.25
921.253	-0.25
921.985	-1.25
922.718	-0.25
923.45	2.75
924.182	-0.25
924.914	0.75
925.646	-0.25
926.378	-1.25
927.11	3.75
927.841	0.75
928.573	1.75
929.305	-0.25
930.036	0.75
930.768	-0.25
931.499	-0.25
932.23	1.75
932.962	0.75
933.693	2.75
934.424	1.75
935.155	1.75
935.886	1.75
936.617	-1.25
937.348	-0.25
938.078	1.75
938.809	1.75
939.54	0.75
940.27	0.75
941.001	-0.25
941.731	-0.25
942.461	0.75
943.191	-1.25
943.922	0.75
944.652	-0.25
945.382	-0.25
946.112	1.75
946.841	0.75
947.571	-1.25
948.301	-0.25
949.031	1.75
949.76	-0.25
950.49	0.75
951.219	1.75
951.948	1.75
952.678	1.75
953.407	2.75
954.136	1.75
954.865	1.75
955.594	0.75
956.323	0.75
957.052	0.75
957.78	1.75
958.509	0.75
959.238	0.75
959.966	2.75
960.695	-0.25
961.423	2.75
962.151	-0.25
962.88	-0.25
963.608	0.75
964.336	1.75
965.064	-0.25
965.792	1.75
966.52	-0.25
967.247	1.75
967.975	-0.25
968.703	0.75
969.43	0.75
970.158	-0.25
970.885	2.75
971.613	-0.25
972.34	-2.25
973.067	0.75
973.794	1.75
974.521	-0.25
975.248	0.75
975.975	-0.25
976.702	-1.25
977.429	3.75
978.156	1.75
978.882	-1.25
979.609	0.75
980.335	-0.25
981.062	3.75
981.788	-0.25
982.514	-1.25
983.24	0.75
983.967	1.75
984.693	0.75
985.419	-0.25
986.144	1.75
986.87	0.75
987.596	-0.25
988.322	2.75
989.047	1.75
989.773	3.75
990.498	0.75
991.224	2.75
991.949	-0.25
992.674	2.75
993.399	2.75
994.124	-0.25
994.849	1.75
995.574	-1.25
996.299	0.75
997.024	1.75
997.749	0.75
998.473	1.75
999.198	-0.25
999.922	2.75
1000.647	0.75
1001.371	2.75
1002.095	-1.25
1002.82	-0.25
1003.544	-1.25
1004.268	0.75
1004.992	0.75
1005.716	0.75
1006.439	0.75
1007.163	1.75
1007.887	3.75
1008.611	2.75
1009.334	-1.25
1010.058	1.75
1010.781	0.75
1011.504	-1.25
1012.228	-1.25
1012.951	-0.25
1013.674	-0.25
1014.397	-0.25
1015.12	0.75
