节点500_285_QEPB04081__608__15-05-40-133.txt的数据

Date: Wed Nov 12 15:05:40 CST 2025
User: PC
Spectrometer: QEPB0408
触发模式: 0
积分时间 (秒): 1.000000E-2
Scans to average: 1
启用暗噪声校正: true
启用非线性校正: false
滑动平均宽度: 0
X轴模式: Wavelengths
Number of Pixels in Spectrum: 1044
>>>>>Begin Spectral Data<<<<<
220.843	1
221.644	0
222.444	3
223.244	1
224.045	2
224.845	2
225.645	1
226.445	4
227.245	3
228.045	5
228.845	1
229.645	1
230.444	1
231.244	1
232.043	2
232.843	4
233.642	4
234.442	2
235.241	3
236.04	2
236.839	2
237.638	2
238.437	3
239.236	4
240.035	4
240.833	1
241.632	3
242.43	1
243.229	6
244.027	7
244.826	3
245.624	6
246.422	4
247.22	6
248.018	5
248.816	5
249.614	5
250.412	5
251.21	7
252.007	8
252.805	7
253.602	5
254.4	9
255.197	7
255.994	7
256.791	7
257.589	9
258.386	11
259.183	10
259.979	8
260.776	9
261.573	10
262.37	8
263.166	9
263.963	9
264.759	10
265.556	12
266.352	12
267.148	12
267.944	12
268.74	12
269.536	15
270.332	12
271.128	14
271.924	14
272.719	16
273.515	15
274.311	15
275.106	17
275.901	17
276.697	15
277.492	15
278.287	14
279.082	17
279.877	16
280.672	16
281.467	17
282.262	19
283.056	18
283.851	18
284.646	17
285.44	21
286.234	17
287.029	17
287.823	18
288.617	17
289.411	15
290.205	17
290.999	18
291.793	16
292.587	17
293.381	14
294.174	18
294.968	19
295.761	16
296.555	14
297.348	14
298.141	15
298.935	17
299.728	16
300.521	14
301.314	14
302.107	15
302.899	12
303.692	12
304.485	11
305.277	10
306.07	11
306.862	12
307.655	12
308.447	11
309.239	13
310.031	14
310.823	12
311.615	10
312.407	11
313.199	11
313.991	10
314.783	5
315.574	10
316.366	9
317.157	7
317.949	8
318.74	7
319.531	7
320.322	9
321.113	9
321.904	9
322.695	7
323.486	7
324.277	9
325.068	8
325.858	6
326.649	7
327.439	6
328.23	7
329.02	9
329.81	6
330.6	7
331.391	7
332.181	3
332.971	7
333.76	7
334.55	7
335.34	5
336.13	7
336.919	6
337.709	7
338.498	5
339.287	6
340.077	5
340.866	5
341.655	7
342.444	5
343.233	6
344.022	7
344.811	6
345.6	6
346.388	5
347.177	5
347.965	7
348.754	7
349.542	6
350.33	6
351.119	5
351.907	6
352.695	3
353.483	6
354.271	7
355.059	6
355.846	5
356.634	6
357.422	7
358.209	8
358.997	6
359.784	5
360.571	2
361.359	4
362.146	5
362.933	4
363.72	6
364.507	4
365.294	5
366.081	7
366.867	4
367.654	5
368.44	3
369.227	7
370.013	5
370.8	5
371.586	5
372.372	4
373.158	6
373.944	5
374.73	3
375.516	6
376.302	5
377.088	6
377.873	3
378.659	7
379.445	7
380.23	5
381.015	4
381.801	5
382.586	8
383.371	4
384.156	4
384.941	4
385.726	6
386.511	7
387.296	4
388.08	8
388.865	4
389.649	6
390.434	4
391.218	6
392.003	4
392.787	3
393.571	4
394.355	4
395.139	7
395.923	8
396.707	6
397.491	9
398.274	6
399.058	8
399.842	7
400.625	7
401.408	5
402.192	6
402.975	7
403.758	6
404.541	9
405.324	6
406.107	7
406.89	10
407.673	9
408.456	9
409.238	7
410.021	6
410.803	7
411.586	9
412.368	10
413.151	8
413.933	10
414.715	8
415.497	9
416.279	8
417.061	10
417.843	9
418.624	10
419.406	11
420.188	9
420.969	14
421.751	12
422.532	8
423.313	12
424.095	12
424.876	11
425.657	11
426.438	12
427.219	14
428	12
428.78	12
429.561	13
430.342	12
431.122	12
431.903	15
432.683	16
433.464	16
434.244	18
435.024	15
435.804	16
436.584	18
437.364	20
438.144	21
438.924	19
439.704	22
440.483	23
441.263	26
442.042	24
442.822	28
443.601	30
444.38	28
445.16	32
445.939	35
446.718	37
447.497	44
448.276	40
449.054	49
449.833	53
450.612	57
451.391	58
452.169	66
452.948	73
453.726	81
454.504	86
455.282	98
456.061	96
456.839	117
457.617	134
458.395	143
459.172	162
459.95	179
460.728	198
461.506	220
462.283	254
463.061	272
463.838	309
464.615	339
465.393	377
466.17	424
466.947	469
467.724	528
468.501	578
469.278	642
470.055	719
470.831	792
471.608	883
472.385	981
473.161	1077
473.938	1205
474.714	1320
475.49	1448
476.266	1594
477.043	1751
477.819	1939
478.595	2139
479.371	2342
480.146	2572
480.922	2812
481.698	3089
482.473	3398
483.249	3748
484.024	4083
484.8	4472
485.575	4898
486.35	5317
487.126	5841
487.901	6382
488.676	6929
489.451	7564
490.225	8224
491	8976
491.775	9794
492.55	10638
493.324	11490
494.099	12334
494.873	13248
495.647	14260
496.422	15344
497.196	16421
497.97	17550
498.744	18598
499.518	19694
500.292	20843
501.066	21847
501.839	22810
502.613	23733
503.387	24603
504.16	25222
504.934	25643
505.707	25995
506.48	26119
507.253	26144
508.027	26019
508.8	25836
509.573	25742
510.346	25223
511.118	24593
511.891	23865
512.664	23219
513.437	22413
514.209	21566
514.982	20830
515.754	19906
516.526	19039
517.298	18279
518.071	17492
518.843	16791
519.615	16196
520.387	15558
521.159	14925
521.93	14314
522.702	13799
523.474	13250
524.245	12579
525.017	12117
525.788	11597
526.56	11154
527.331	10617
528.102	10139
528.873	9715
529.644	9265
530.415	8840
531.186	8408
531.957	7972
532.728	7572
533.498	7246
534.269	6814
535.039	6455
535.81	6094
536.58	5750
537.351	5393
538.121	5133
538.891	4853
539.661	4601
540.431	4333
541.201	4108
541.971	3889
542.741	3648
543.51	3488
544.28	3323
545.05	3157
545.819	3009
546.588	2848
547.358	2718
548.127	2598
548.896	2454
549.665	2326
550.434	2206
551.203	2075
551.972	1990
552.741	1877
553.51	1765
554.278	1674
555.047	1580
555.815	1496
556.584	1421
557.352	1346
558.121	1257
558.889	1190
559.657	1137
560.425	1063
561.193	1004
561.961	937
562.729	905
563.496	850
564.264	802
565.032	751
565.799	719
566.567	674
567.334	649
568.101	598
568.869	568
569.636	541
570.403	513
571.17	479
571.937	447
572.704	419
573.471	397
574.237	382
575.004	360
575.771	337
576.537	322
577.303	293
578.07	281
578.836	263
579.602	247
580.368	234
581.134	224
581.9	209
582.666	202
583.432	189
584.198	182
584.964	172
585.729	157
586.495	152
587.26	146
588.025	138
588.791	126
589.556	125
590.321	120
591.086	108
591.851	110
592.616	98
593.381	95
594.146	93
594.911	85
595.675	84
596.44	82
597.204	74
597.969	73
598.733	68
599.497	66
600.261	64
601.025	62
601.79	54
602.553	58
603.317	50
604.081	51
604.845	49
605.609	46
606.372	44
607.136	40
607.899	39
608.662	41
609.426	39
610.189	35
610.952	35
611.715	33
612.478	32
613.241	30
614.004	30
614.767	26
615.529	27
616.292	25
617.055	26
617.817	24
618.579	25
619.342	22
620.104	24
620.866	21
621.628	22
622.39	19
623.152	19
623.914	18
624.676	19
625.438	13
626.199	18
626.961	19
627.722	14
628.484	15
629.245	16
630.006	15
630.768	12
631.529	13
632.29	13
633.051	14
633.812	14
634.573	10
635.333	8
636.094	11
636.855	10
637.615	12
638.376	13
639.136	8
639.896	8
640.657	6
641.417	9
642.177	8
642.937	7
643.697	7
644.457	9
645.216	10
645.976	9
646.736	8
647.495	9
648.255	6
649.014	5
649.774	9
650.533	7
651.292	10
652.051	7
652.81	7
653.569	7
654.328	6
655.087	6
655.846	5
656.604	6
657.363	4
658.121	6
658.88	6
659.638	5
660.397	7
661.155	5
661.913	5
662.671	5
663.429	4
664.187	7
664.945	4
665.703	4
666.46	6
667.218	4
667.976	4
668.733	2
669.49	7
670.248	3
671.005	5
671.762	5
672.519	5
673.276	4
674.033	1
674.79	5
675.547	3
676.304	5
677.06	3
677.817	4
678.574	3
679.33	2
680.086	5
680.843	4
681.599	3
682.355	4
683.111	2
683.867	4
684.623	3
685.379	3
686.135	3
686.89	4
687.646	4
688.402	3
689.157	4
689.912	4
690.668	4
691.423	3
692.178	1
692.933	4
693.688	3
694.443	4
695.198	2
695.953	4
696.708	3
697.462	4
698.217	4
698.972	4
699.726	4
700.48	2
701.235	1
701.989	5
702.743	4
703.497	2
704.251	2
705.005	3
705.759	3
706.513	3
707.266	4
708.02	1
708.774	2
709.527	5
710.28	4
711.034	2
711.787	5
712.54	4
713.293	3
714.046	4
714.799	4
715.552	3
716.305	2
717.058	3
717.81	4
718.563	3
719.315	2
720.068	5
720.82	2
721.573	3
722.325	0
723.077	5
723.829	4
724.581	4
725.333	3
726.085	4
726.836	3
727.588	3
728.34	2
729.091	4
729.843	3
730.594	3
731.346	2
732.097	3
732.848	4
733.599	5
734.35	4
735.101	5
735.852	7
736.603	5
737.354	7
738.104	5
738.855	3
739.605	3
740.356	7
741.106	1
741.856	3
742.607	6
743.357	6
744.107	6
744.857	4
745.607	6
746.357	5
747.106	6
747.856	5
748.606	5
749.355	6
750.105	4
750.854	4
751.603	5
752.353	3
753.102	7
753.851	6
754.6	6
755.349	6
756.098	4
756.847	5
757.595	8
758.344	6
759.093	5
759.841	5
760.589	7
761.338	6
762.086	5
762.834	5
763.582	7
764.331	5
765.079	7
765.826	9
766.574	6
767.322	9
768.07	7
768.817	5
769.565	7
770.312	5
771.06	8
771.807	8
772.554	8
773.302	8
774.049	5
774.796	8
775.543	9
776.29	6
777.036	9
777.783	9
778.53	7
779.276	10
780.023	11
780.769	9
781.516	6
782.262	9
783.008	8
783.754	9
784.5	6
785.246	10
785.992	10
786.738	8
787.484	8
788.23	10
788.975	8
789.721	7
790.466	8
791.212	8
791.957	9
792.702	9
793.447	8
794.193	9
794.938	6
795.683	9
796.427	7
797.172	7
797.917	10
798.662	6
799.406	6
800.151	8
800.895	8
801.64	7
802.384	8
803.128	6
803.872	7
804.616	7
805.36	6
806.104	7
806.848	7
807.592	6
808.336	4
809.079	7
809.823	5
810.566	5
811.31	6
812.053	3
812.796	6
813.539	7
814.283	5
815.026	6
815.769	7
816.511	4
817.254	7
817.997	4
818.74	4
819.482	5
820.225	4
820.967	4
821.71	4
822.452	5
823.194	3
823.936	2
824.678	6
825.42	6
826.162	3
826.904	3
827.646	5
828.388	4
829.129	4
829.871	4
830.612	2
831.354	5
832.095	4
832.836	5
833.577	2
834.319	2
835.06	5
835.801	3
836.542	3
837.282	2
838.023	5
838.764	3
839.504	3
840.245	3
840.985	4
841.726	4
842.466	2
843.206	5
843.946	2
844.687	4
845.427	5
846.166	3
846.906	4
847.646	2
848.386	3
849.125	2
849.865	3
850.605	3
851.344	2
852.083	3
852.823	3
853.562	5
854.301	2
855.04	1
855.779	2
856.518	2
857.257	5
857.995	2
858.734	4
859.473	2
860.211	4
860.95	3
861.688	1
862.426	2
863.165	1
863.903	2
864.641	1
865.379	-1
866.117	2
866.855	4
867.593	3
868.33	2
869.068	1
869.806	0
870.543	2
871.28	4
872.018	2
872.755	2
873.492	3
874.229	0
874.967	2
875.703	0
876.44	1
877.177	0
877.914	3
878.651	1
879.387	0
880.124	2
880.86	2
881.597	1
882.333	1
883.069	0
883.806	2
884.542	0
885.278	2
886.014	-1
886.749	1
887.485	3
888.221	2
888.957	0
889.692	-1
890.428	1
891.163	-2
891.899	3
892.634	2
893.369	1
894.104	1
894.839	0
895.574	2
896.309	0
897.044	2
897.779	0
898.514	-1
899.248	0
899.983	0
900.717	1
901.452	1
902.186	-2
902.92	1
903.654	-2
904.389	1
905.123	2
905.857	2
906.59	-2
907.324	1
908.058	-1
908.792	1
909.525	2
910.259	0
910.992	2
911.726	-1
912.459	1
913.192	0
913.925	0
914.658	-1
915.391	1
916.124	1
916.857	0
917.59	0
918.323	0
919.055	1
919.788	0
920.521	0
921.253	1
921.985	1
922.718	-2
923.45	1
924.182	-1
924.914	0
925.646	1
926.378	1
927.11	-2
927.841	1
928.573	0
929.305	-2
930.036	2
930.768	1
931.499	1
932.23	-2
932.962	0
933.693	1
934.424	0
935.155	-2
935.886	1
936.617	-1
937.348	0
938.078	-2
938.809	-2
939.54	-1
940.27	0
941.001	1
941.731	-3
942.461	0
943.191	-1
943.922	1
944.652	-1
945.382	1
946.112	1
946.841	-3
947.571	0
948.301	1
949.031	1
949.76	1
950.49	1
951.219	2
951.948	2
952.678	0
953.407	-1
954.136	-1
954.865	1
955.594	-2
956.323	-2
957.052	0
957.78	1
958.509	1
959.238	1
959.966	-3
960.695	-1
961.423	0
962.151	1
962.88	-1
963.608	0
964.336	-1
965.064	-1
965.792	-2
966.52	2
967.247	1
967.975	1
968.703	1
969.43	-1
970.158	-1
970.885	-2
971.613	0
972.34	2
973.067	1
973.794	1
974.521	1
975.248	2
975.975	-1
976.702	0
977.429	2
978.156	0
978.882	1
979.609	0
980.335	-1
981.062	-1
981.788	-1
982.514	0
983.24	1
983.967	-2
984.693	0
985.419	0
986.144	1
986.87	-1
987.596	2
988.322	-1
989.047	0
989.773	0
990.498	2
991.224	0
991.949	-1
992.674	0
993.399	-1
994.124	0
994.849	0
995.574	0
996.299	-2
997.024	0
997.749	1
998.473	-2
999.198	0
999.922	1
1000.647	-1
1001.371	3
1002.095	0
1002.82	-1
1003.544	-2
1004.268	3
1004.992	1
1005.716	1
1006.439	2
1007.163	1
1007.887	1
1008.611	1
1009.334	-1
1010.058	-2
1010.781	-1
1011.504	0
1012.228	1
1012.951	-1
1013.674	1
1014.397	0
1015.12	0
