节点500_285_QEPB04081__796__15-08-47-760.txt的数据

Date: Wed Nov 12 15:08:47 CST 2025
User: PC
Spectrometer: QEPB0408
触发模式: 0
积分时间 (秒): 1.000000E-2
Scans to average: 1
启用暗噪声校正: true
启用非线性校正: false
滑动平均宽度: 0
X轴模式: Wavelengths
Number of Pixels in Spectrum: 1044
>>>>>Begin Spectral Data<<<<<
220.843	2.62
221.644	0.62
222.444	3.62
223.244	1.62
224.045	2.62
224.845	4.62
225.645	1.62
226.445	2.62
227.245	3.62
228.045	1.62
228.845	3.62
229.645	1.62
230.444	4.62
231.244	2.62
232.043	4.62
232.843	3.62
233.642	4.62
234.442	4.62
235.241	3.62
236.04	5.62
236.839	4.62
237.638	5.62
238.437	3.62
239.236	4.62
240.035	3.62
240.833	2.62
241.632	4.62
242.43	3.62
243.229	6.62
244.027	3.62
244.826	6.62
245.624	7.62
246.422	4.62
247.22	6.62
248.018	6.62
248.816	5.62
249.614	7.62
250.412	6.62
251.21	6.62
252.007	6.62
252.805	8.62
253.602	4.62
254.4	7.62
255.197	7.62
255.994	8.62
256.791	6.62
257.589	8.62
258.386	7.62
259.183	7.62
259.979	9.62
260.776	8.62
261.573	9.62
262.37	9.62
263.166	11.62
263.963	12.62
264.759	8.62
265.556	10.62
266.352	12.62
267.148	12.62
267.944	14.62
268.74	14.62
269.536	11.62
270.332	16.62
271.128	12.62
271.924	14.62
272.719	14.62
273.515	15.62
274.311	12.62
275.106	13.62
275.901	17.62
276.697	15.62
277.492	14.62
278.287	18.62
279.082	17.62
279.877	15.62
280.672	15.62
281.467	17.62
282.262	16.62
283.056	17.62
283.851	17.62
284.646	18.62
285.44	17.62
286.234	17.62
287.029	18.62
287.823	17.62
288.617	18.62
289.411	17.62
290.205	17.62
290.999	18.62
291.793	18.62
292.587	17.62
293.381	16.62
294.174	16.62
294.968	14.62
295.761	15.62
296.555	18.62
297.348	16.62
298.141	15.62
298.935	15.62
299.728	13.62
300.521	14.62
301.314	14.62
302.107	13.62
302.899	12.62
303.692	12.62
304.485	12.62
305.277	14.62
306.07	12.62
306.862	14.62
307.655	12.62
308.447	10.62
309.239	12.62
310.031	12.62
310.823	11.62
311.615	10.62
312.407	9.62
313.199	10.62
313.991	9.62
314.783	9.62
315.574	5.62
316.366	8.62
317.157	6.62
317.949	9.62
318.74	8.62
319.531	8.62
320.322	7.62
321.113	8.62
321.904	8.62
322.695	7.62
323.486	3.62
324.277	8.62
325.068	10.62
325.858	7.62
326.649	7.62
327.439	9.62
328.23	7.62
329.02	8.62
329.81	10.62
330.6	5.62
331.391	7.62
332.181	6.62
332.971	6.62
333.76	6.62
334.55	7.62
335.34	8.62
336.13	7.62
336.919	7.62
337.709	4.62
338.498	6.62
339.287	7.62
340.077	6.62
340.866	6.62
341.655	5.62
342.444	5.62
343.233	6.62
344.022	5.62
344.811	7.62
345.6	3.62
346.388	9.62
347.177	7.62
347.965	7.62
348.754	6.62
349.542	7.62
350.33	7.62
351.119	6.62
351.907	6.62
352.695	6.62
353.483	6.62
354.271	7.62
355.059	5.62
355.846	4.62
356.634	3.62
357.422	5.62
358.209	5.62
358.997	5.62
359.784	5.62
360.571	2.62
361.359	4.62
362.146	4.62
362.933	3.62
363.72	7.62
364.507	3.62
365.294	6.62
366.081	5.62
366.867	6.62
367.654	4.62
368.44	5.62
369.227	5.62
370.013	4.62
370.8	4.62
371.586	5.62
372.372	6.62
373.158	5.62
373.944	3.62
374.73	6.62
375.516	5.62
376.302	4.62
377.088	5.62
377.873	5.62
378.659	5.62
379.445	5.62
380.23	5.62
381.015	6.62
381.801	5.62
382.586	4.62
383.371	6.62
384.156	5.62
384.941	5.62
385.726	5.62
386.511	4.62
387.296	7.62
388.08	4.62
388.865	6.62
389.649	6.62
390.434	6.62
391.218	8.62
392.003	4.62
392.787	7.62
393.571	7.62
394.355	6.62
395.139	7.62
395.923	5.62
396.707	8.62
397.491	6.62
398.274	8.62
399.058	5.62
399.842	6.62
400.625	5.62
401.408	7.62
402.192	8.62
402.975	8.62
403.758	6.62
404.541	8.62
405.324	6.62
406.107	7.62
406.89	7.62
407.673	9.62
408.456	6.62
409.238	9.62
410.021	10.62
410.803	9.62
411.586	10.62
412.368	7.62
413.151	7.62
413.933	6.62
414.715	12.62
415.497	7.62
416.279	11.62
417.061	10.62
417.843	7.62
418.624	8.62
419.406	9.62
420.188	10.62
420.969	7.62
421.751	10.62
422.532	11.62
423.313	13.62
424.095	10.62
424.876	11.62
425.657	12.62
426.438	12.62
427.219	11.62
428	10.62
428.78	12.62
429.561	15.62
430.342	13.62
431.122	15.62
431.903	16.62
432.683	14.62
433.464	16.62
434.244	13.62
435.024	17.62
435.804	17.62
436.584	18.62
437.364	19.62
438.144	18.62
438.924	21.62
439.704	22.62
440.483	24.62
441.263	25.62
442.042	25.62
442.822	26.62
443.601	29.62
444.38	32.62
445.16	32.62
445.939	36.62
446.718	38.62
447.497	42.62
448.276	46.62
449.054	53.62
449.833	53.62
450.612	54.62
451.391	58.62
452.169	68.62
452.948	75.62
453.726	86.62
454.504	89.62
455.282	99.62
456.061	112.62
456.839	120.62
457.617	139.62
458.395	151.62
459.172	170.62
459.95	182.62
460.728	203.62
461.506	230.62
462.283	265.62
463.061	288.62
463.838	315.62
464.615	355.62
465.393	394.62
466.17	438.62
466.947	491.62
467.724	549.62
468.501	595.62
469.278	665.62
470.055	735.62
470.831	818.62
471.608	912.62
472.385	1004.62
473.161	1096.62
473.938	1206.62
474.714	1327.62
475.49	1458.62
476.266	1614.62
477.043	1763.62
477.819	1942.62
478.595	2124.62
479.371	2318.62
480.146	2531.62
480.922	2802.62
481.698	3071.62
482.473	3336.62
483.249	3632.62
484.024	3952.62
484.8	4352.62
485.575	4739.62
486.35	5161.62
487.126	5611.62
487.901	6130.62
488.676	6638.62
489.451	7242.62
490.225	7876.62
491	8530.62
491.775	9282.62
492.55	10037.62
493.324	10843.62
494.099	11582.62
494.873	12523.62
495.647	13456.62
496.422	14378.62
497.196	15397.62
497.97	16452.62
498.744	17478.62
499.518	18510.62
500.292	19534.62
501.066	20511.62
501.839	21461.62
502.613	22353.62
503.387	23200.62
504.16	23886.62
504.934	24377.62
505.707	24810.62
506.48	24946.62
507.253	25111.62
508.027	25155.62
508.8	25047.62
509.573	24870.62
510.346	24529.62
511.118	24036.62
511.891	23497.62
512.664	22860.62
513.437	22138.62
514.209	21444.62
514.982	20651.62
515.754	19839.62
516.526	19055.62
517.298	18270.62
518.071	17582.62
518.843	16825.62
519.615	16221.62
520.387	15633.62
521.159	14983.62
521.93	14377.62
522.702	13807.62
523.474	13287.62
524.245	12710.62
525.017	12168.62
525.788	11740.62
526.56	11151.62
527.331	10703.62
528.102	10233.62
528.873	9813.62
529.644	9337.62
530.415	8952.62
531.186	8493.62
531.957	8079.62
532.728	7689.62
533.498	7306.62
534.269	6897.62
535.039	6562.62
535.81	6193.62
536.58	5885.62
537.351	5549.62
538.121	5233.62
538.891	4964.62
539.661	4717.62
540.431	4434.62
541.201	4199.62
541.971	3993.62
542.741	3768.62
543.51	3595.62
544.28	3427.62
545.05	3275.62
545.819	3089.62
546.588	2935.62
547.358	2785.62
548.127	2660.62
548.896	2512.62
549.665	2389.62
550.434	2260.62
551.203	2134.62
551.972	2046.62
552.741	1922.62
553.51	1825.62
554.278	1730.62
555.047	1648.62
555.815	1541.62
556.584	1462.62
557.352	1377.62
558.121	1300.62
558.889	1229.62
559.657	1156.62
560.425	1108.62
561.193	1041.62
561.961	975.62
562.729	925.62
563.496	875.62
564.264	830.62
565.032	785.62
565.799	742.62
566.567	702.62
567.334	665.62
568.101	627.62
568.869	590.62
569.636	548.62
570.403	513.62
571.17	491.62
571.937	465.62
572.704	436.62
573.471	416.62
574.237	392.62
575.004	368.62
575.771	346.62
576.537	320.62
577.303	306.62
578.07	296.62
578.836	277.62
579.602	251.62
580.368	245.62
581.134	233.62
581.9	214.62
582.666	209.62
583.432	198.62
584.198	188.62
584.964	176.62
585.729	173.62
586.495	165.62
587.26	152.62
588.025	140.62
588.791	138.62
589.556	132.62
590.321	118.62
591.086	112.62
591.851	113.62
592.616	105.62
593.381	100.62
594.146	96.62
594.911	88.62
595.675	88.62
596.44	79.62
597.204	76.62
597.969	75.62
598.733	73.62
599.497	69.62
600.261	63.62
601.025	59.62
601.79	62.62
602.553	54.62
603.317	56.62
604.081	53.62
604.845	49.62
605.609	49.62
606.372	47.62
607.136	42.62
607.899	39.62
608.662	40.62
609.426	41.62
610.189	34.62
610.952	37.62
611.715	32.62
612.478	34.62
613.241	31.62
614.004	28.62
614.767	31.62
615.529	27.62
616.292	25.62
617.055	26.62
617.817	25.62
618.579	26.62
619.342	23.62
620.104	21.62
620.866	24.62
621.628	22.62
622.39	18.62
623.152	18.62
623.914	21.62
624.676	18.62
625.438	18.62
626.199	16.62
626.961	16.62
627.722	16.62
628.484	15.62
629.245	15.62
630.006	13.62
630.768	13.62
631.529	14.62
632.29	15.62
633.051	12.62
633.812	10.62
634.573	15.62
635.333	12.62
636.094	10.62
636.855	10.62
637.615	11.62
638.376	10.62
639.136	12.62
639.896	10.62
640.657	8.62
641.417	8.62
642.177	9.62
642.937	8.62
643.697	11.62
644.457	9.62
645.216	8.62
645.976	7.62
646.736	8.62
647.495	9.62
648.255	11.62
649.014	9.62
649.774	6.62
650.533	5.62
651.292	8.62
652.051	10.62
652.81	8.62
653.569	5.62
654.328	7.62
655.087	9.62
655.846	7.62
656.604	7.62
657.363	8.62
658.121	7.62
658.88	6.62
659.638	7.62
660.397	6.62
661.155	6.62
661.913	6.62
662.671	3.62
663.429	4.62
664.187	7.62
664.945	4.62
665.703	3.62
666.46	4.62
667.218	4.62
667.976	7.62
668.733	5.62
669.49	6.62
670.248	5.62
671.005	4.62
671.762	3.62
672.519	6.62
673.276	4.62
674.033	4.62
674.79	3.62
675.547	7.62
676.304	3.62
677.06	7.62
677.817	5.62
678.574	2.62
679.33	4.62
680.086	4.62
680.843	4.62
681.599	6.62
682.355	3.62
683.111	3.62
683.867	3.62
684.623	4.62
685.379	5.62
686.135	6.62
686.89	6.62
687.646	2.62
688.402	4.62
689.157	4.62
689.912	3.62
690.668	5.62
691.423	4.62
692.178	4.62
692.933	1.62
693.688	2.62
694.443	3.62
695.198	4.62
695.953	3.62
696.708	5.62
697.462	5.62
698.217	3.62
698.972	4.62
699.726	2.62
700.48	5.62
701.235	5.62
701.989	1.62
702.743	5.62
703.497	4.62
704.251	3.62
705.005	2.62
705.759	5.62
706.513	4.62
707.266	4.62
708.02	3.62
708.774	2.62
709.527	5.62
710.28	4.62
711.034	2.62
711.787	4.62
712.54	4.62
713.293	4.62
714.046	3.62
714.799	3.62
715.552	3.62
716.305	4.62
717.058	4.62
717.81	3.62
718.563	3.62
719.315	4.62
720.068	4.62
720.82	3.62
721.573	3.62
722.325	3.62
723.077	2.62
723.829	2.62
724.581	3.62
725.333	5.62
726.085	5.62
726.836	3.62
727.588	5.62
728.34	4.62
729.091	2.62
729.843	4.62
730.594	5.62
731.346	3.62
732.097	6.62
732.848	4.62
733.599	3.62
734.35	6.62
735.101	4.62
735.852	5.62
736.603	3.62
737.354	3.62
738.104	5.62
738.855	1.62
739.605	5.62
740.356	5.62
741.106	4.62
741.856	2.62
742.607	3.62
743.357	8.62
744.107	4.62
744.857	3.62
745.607	2.62
746.357	4.62
747.106	7.62
747.856	4.62
748.606	6.62
749.355	3.62
750.105	4.62
750.854	4.62
751.603	5.62
752.353	7.62
753.102	4.62
753.851	6.62
754.6	5.62
755.349	4.62
756.098	5.62
756.847	5.62
757.595	6.62
758.344	4.62
759.093	5.62
759.841	7.62
760.589	7.62
761.338	4.62
762.086	4.62
762.834	6.62
763.582	7.62
764.331	5.62
765.079	3.62
765.826	5.62
766.574	5.62
767.322	4.62
768.07	7.62
768.817	7.62
769.565	7.62
770.312	5.62
771.06	6.62
771.807	10.62
772.554	5.62
773.302	8.62
774.049	7.62
774.796	6.62
775.543	8.62
776.29	6.62
777.036	7.62
777.783	6.62
778.53	9.62
779.276	8.62
780.023	7.62
780.769	7.62
781.516	7.62
782.262	8.62
783.008	7.62
783.754	5.62
784.5	9.62
785.246	9.62
785.992	7.62
786.738	10.62
787.484	7.62
788.23	8.62
788.975	8.62
789.721	9.62
790.466	7.62
791.212	10.62
791.957	7.62
792.702	9.62
793.447	9.62
794.193	9.62
794.938	8.62
795.683	5.62
796.427	11.62
797.172	5.62
797.917	8.62
798.662	7.62
799.406	8.62
800.151	8.62
800.895	7.62
801.64	10.62
802.384	6.62
803.128	6.62
803.872	6.62
804.616	6.62
805.36	4.62
806.104	6.62
806.848	7.62
807.592	7.62
808.336	8.62
809.079	5.62
809.823	4.62
810.566	4.62
811.31	3.62
812.053	7.62
812.796	7.62
813.539	6.62
814.283	7.62
815.026	5.62
815.769	5.62
816.511	4.62
817.254	5.62
817.997	1.62
818.74	5.62
819.482	5.62
820.225	4.62
820.967	6.62
821.71	4.62
822.452	3.62
823.194	4.62
823.936	5.62
824.678	2.62
825.42	2.62
826.162	4.62
826.904	3.62
827.646	4.62
828.388	5.62
829.129	4.62
829.871	2.62
830.612	3.62
831.354	4.62
832.095	5.62
832.836	4.62
833.577	4.62
834.319	2.62
835.06	5.62
835.801	2.62
836.542	2.62
837.282	3.62
838.023	4.62
838.764	4.62
839.504	4.62
840.245	5.62
840.985	1.62
841.726	4.62
842.466	5.62
843.206	4.62
843.946	1.62
844.687	1.62
845.427	4.62
846.166	2.62
846.906	3.62
847.646	3.62
848.386	4.62
849.125	4.62
849.865	2.62
850.605	3.62
851.344	2.62
852.083	2.62
852.823	3.62
853.562	0.62
854.301	4.62
855.04	2.62
855.779	3.62
856.518	2.62
857.257	3.62
857.995	3.62
858.734	1.62
859.473	2.62
860.211	4.62
860.95	2.62
861.688	3.62
862.426	3.62
863.165	1.62
863.903	0.62
864.641	2.62
865.379	2.62
866.117	1.62
866.855	2.62
867.593	0.62
868.33	2.62
869.068	2.62
869.806	1.62
870.543	4.62
871.28	2.62
872.018	-0.38
872.755	2.62
873.492	1.62
874.229	1.62
874.967	2.62
875.703	0.62
876.44	1.62
877.177	3.62
877.914	0.62
878.651	2.62
879.387	-0.38
880.124	1.62
880.86	1.62
881.597	1.62
882.333	0.62
883.069	1.62
883.806	0.62
884.542	0.62
885.278	2.62
886.014	1.62
886.749	1.62
887.485	1.62
888.221	0.62
888.957	-0.38
889.692	3.62
890.428	1.62
891.163	2.62
891.899	-0.38
892.634	3.62
893.369	2.62
894.104	2.62
894.839	1.62
895.574	2.62
896.309	1.62
897.044	-0.38
897.779	-0.38
898.514	0.62
899.248	2.62
899.983	-0.38
900.717	0.62
901.452	0.62
902.186	0.62
902.92	-0.38
903.654	1.62
904.389	1.62
905.123	1.62
905.857	2.62
906.59	1.62
907.324	0.62
908.058	1.62
908.792	-1.38
909.525	-0.38
910.259	0.62
910.992	2.62
911.726	2.62
912.459	1.62
913.192	0.62
913.925	-1.38
914.658	-0.38
915.391	1.62
916.124	1.62
916.857	2.62
917.59	0.62
918.323	0.62
919.055	1.62
919.788	0.62
920.521	-0.38
921.253	1.62
921.985	0.62
922.718	0.62
923.45	2.62
924.182	0.62
924.914	2.62
925.646	2.62
926.378	-1.38
927.11	2.62
927.841	1.62
928.573	3.62
929.305	2.62
930.036	0.62
930.768	-0.38
931.499	-0.38
932.23	2.62
932.962	1.62
933.693	2.62
934.424	2.62
935.155	1.62
935.886	1.62
936.617	-0.38
937.348	1.62
938.078	0.62
938.809	0.62
939.54	-0.38
940.27	-0.38
941.001	2.62
941.731	0.62
942.461	0.62
943.191	3.62
943.922	1.62
944.652	1.62
945.382	2.62
946.112	-1.38
946.841	1.62
947.571	1.62
948.301	1.62
949.031	-0.38
949.76	1.62
950.49	1.62
951.219	2.62
951.948	0.62
952.678	1.62
953.407	-1.38
954.136	2.62
954.865	1.62
955.594	-0.38
956.323	2.62
957.052	0.62
957.78	2.62
958.509	0.62
959.238	-0.38
959.966	2.62
960.695	0.62
961.423	-1.38
962.151	0.62
962.88	1.62
963.608	-0.38
964.336	-0.38
965.064	0.62
965.792	-0.38
966.52	0.62
967.247	0.62
967.975	0.62
968.703	0.62
969.43	0.62
970.158	2.62
970.885	0.62
971.613	1.62
972.34	0.62
973.067	-0.38
973.794	3.62
974.521	-1.38
975.248	-0.38
975.975	-2.38
976.702	1.62
977.429	-1.38
978.156	-1.38
978.882	2.62
979.609	0.62
980.335	-2.38
981.062	1.62
981.788	-0.38
982.514	2.62
983.24	-1.38
983.967	1.62
984.693	1.62
985.419	2.62
986.144	0.62
986.87	0.62
987.596	1.62
988.322	0.62
989.047	0.62
989.773	1.62
990.498	0.62
991.224	0.62
991.949	2.62
992.674	0.62
993.399	1.62
994.124	1.62
994.849	0.62
995.574	-0.38
996.299	-0.38
997.024	2.62
997.749	-0.38
998.473	-1.38
999.198	1.62
999.922	1.62
1000.647	0.62
1001.371	2.62
1002.095	-1.38
1002.82	-0.38
1003.544	-1.38
1004.268	1.62
1004.992	-0.38
1005.716	-0.38
1006.439	1.62
1007.163	3.62
1007.887	2.62
1008.611	-0.38
1009.334	0.62
1010.058	2.62
1010.781	0.62
1011.504	2.62
1012.228	1.62
1012.951	0.62
1013.674	0.62
1014.397	-1.38
1015.12	0.62
