节点500_285_QEPB04081__777__15-08-28-789.txt的数据

Date: Wed Nov 12 15:08:28 CST 2025
User: PC
Spectrometer: QEPB0408
触发模式: 0
积分时间 (秒): 1.000000E-2
Scans to average: 1
启用暗噪声校正: true
启用非线性校正: false
滑动平均宽度: 0
X轴模式: Wavelengths
Number of Pixels in Spectrum: 1044
>>>>>Begin Spectral Data<<<<<
220.843	3.75
221.644	1.75
222.444	-0.25
223.244	0.75
224.045	1.75
224.845	1.75
225.645	1.75
226.445	0.75
227.245	-2.25
228.045	2.75
228.845	-0.25
229.645	2.75
230.444	6.75
231.244	0.75
232.043	0.75
232.843	4.75
233.642	3.75
234.442	2.75
235.241	2.75
236.04	3.75
236.839	3.75
237.638	1.75
238.437	2.75
239.236	5.75
240.035	4.75
240.833	3.75
241.632	3.75
242.43	5.75
243.229	3.75
244.027	4.75
244.826	5.75
245.624	2.75
246.422	4.75
247.22	5.75
248.018	5.75
248.816	3.75
249.614	3.75
250.412	4.75
251.21	5.75
252.007	5.75
252.805	8.75
253.602	5.75
254.4	7.75
255.197	4.75
255.994	8.75
256.791	5.75
257.589	7.75
258.386	8.75
259.183	8.75
259.979	5.75
260.776	6.75
261.573	7.75
262.37	8.75
263.166	8.75
263.963	9.75
264.759	8.75
265.556	11.75
266.352	8.75
267.148	11.75
267.944	9.75
268.74	12.75
269.536	12.75
270.332	13.75
271.128	10.75
271.924	12.75
272.719	13.75
273.515	13.75
274.311	12.75
275.106	15.75
275.901	12.75
276.697	13.75
277.492	14.75
278.287	15.75
279.082	16.75
279.877	15.75
280.672	14.75
281.467	15.75
282.262	15.75
283.056	17.75
283.851	15.75
284.646	16.75
285.44	14.75
286.234	17.75
287.029	15.75
287.823	15.75
288.617	16.75
289.411	14.75
290.205	16.75
290.999	15.75
291.793	16.75
292.587	15.75
293.381	15.75
294.174	16.75
294.968	15.75
295.761	14.75
296.555	11.75
297.348	12.75
298.141	13.75
298.935	13.75
299.728	15.75
300.521	13.75
301.314	15.75
302.107	11.75
302.899	13.75
303.692	12.75
304.485	13.75
305.277	11.75
306.07	9.75
306.862	13.75
307.655	13.75
308.447	13.75
309.239	12.75
310.031	7.75
310.823	10.75
311.615	9.75
312.407	11.75
313.199	7.75
313.991	9.75
314.783	9.75
315.574	8.75
316.366	10.75
317.157	7.75
317.949	5.75
318.74	7.75
319.531	6.75
320.322	7.75
321.113	6.75
321.904	7.75
322.695	4.75
323.486	8.75
324.277	7.75
325.068	4.75
325.858	6.75
326.649	7.75
327.439	7.75
328.23	4.75
329.02	7.75
329.81	5.75
330.6	5.75
331.391	6.75
332.181	6.75
332.971	6.75
333.76	5.75
334.55	7.75
335.34	5.75
336.13	4.75
336.919	4.75
337.709	6.75
338.498	6.75
339.287	5.75
340.077	3.75
340.866	3.75
341.655	4.75
342.444	7.75
343.233	6.75
344.022	6.75
344.811	5.75
345.6	3.75
346.388	6.75
347.177	6.75
347.965	4.75
348.754	4.75
349.542	5.75
350.33	2.75
351.119	5.75
351.907	4.75
352.695	4.75
353.483	4.75
354.271	4.75
355.059	6.75
355.846	5.75
356.634	2.75
357.422	3.75
358.209	4.75
358.997	3.75
359.784	4.75
360.571	5.75
361.359	4.75
362.146	3.75
362.933	4.75
363.72	3.75
364.507	3.75
365.294	6.75
366.081	4.75
366.867	5.75
367.654	4.75
368.44	5.75
369.227	3.75
370.013	5.75
370.8	5.75
371.586	6.75
372.372	4.75
373.158	4.75
373.944	6.75
374.73	3.75
375.516	3.75
376.302	6.75
377.088	5.75
377.873	4.75
378.659	4.75
379.445	5.75
380.23	4.75
381.015	3.75
381.801	4.75
382.586	2.75
383.371	3.75
384.156	3.75
384.941	5.75
385.726	6.75
386.511	3.75
387.296	6.75
388.08	4.75
388.865	4.75
389.649	5.75
390.434	4.75
391.218	4.75
392.003	4.75
392.787	4.75
393.571	4.75
394.355	5.75
395.139	3.75
395.923	5.75
396.707	5.75
397.491	2.75
398.274	6.75
399.058	5.75
399.842	5.75
400.625	7.75
401.408	4.75
402.192	3.75
402.975	6.75
403.758	7.75
404.541	6.75
405.324	5.75
406.107	5.75
406.89	3.75
407.673	7.75
408.456	4.75
409.238	10.75
410.021	6.75
410.803	7.75
411.586	6.75
412.368	5.75
413.151	9.75
413.933	7.75
414.715	9.75
415.497	9.75
416.279	7.75
417.061	9.75
417.843	7.75
418.624	7.75
419.406	9.75
420.188	10.75
420.969	5.75
421.751	8.75
422.532	9.75
423.313	8.75
424.095	7.75
424.876	12.75
425.657	9.75
426.438	12.75
427.219	9.75
428	10.75
428.78	10.75
429.561	12.75
430.342	12.75
431.122	11.75
431.903	10.75
432.683	9.75
433.464	15.75
434.244	14.75
435.024	16.75
435.804	15.75
436.584	16.75
437.364	19.75
438.144	18.75
438.924	20.75
439.704	19.75
440.483	23.75
441.263	25.75
442.042	25.75
442.822	24.75
443.601	29.75
444.38	29.75
445.16	29.75
445.939	38.75
446.718	40.75
447.497	41.75
448.276	41.75
449.054	52.75
449.833	49.75
450.612	57.75
451.391	61.75
452.169	67.75
452.948	71.75
453.726	85.75
454.504	91.75
455.282	98.75
456.061	107.75
456.839	122.75
457.617	135.75
458.395	151.75
459.172	164.75
459.95	184.75
460.728	206.75
461.506	222.75
462.283	258.75
463.061	285.75
463.838	326.75
464.615	362.75
465.393	393.75
466.17	428.75
466.947	492.75
467.724	546.75
468.501	605.75
469.278	675.75
470.055	733.75
470.831	826.75
471.608	899.75
472.385	1003.75
473.161	1083.75
473.938	1208.75
474.714	1337.75
475.49	1466.75
476.266	1596.75
477.043	1772.75
477.819	1951.75
478.595	2134.75
479.371	2335.75
480.146	2533.75
480.922	2789.75
481.698	3040.75
482.473	3332.75
483.249	3653.75
484.024	3994.75
484.8	4362.75
485.575	4729.75
486.35	5167.75
487.126	5625.75
487.901	6149.75
488.676	6692.75
489.451	7288.75
490.225	7896.75
491	8574.75
491.775	9294.75
492.55	10078.75
493.324	10868.75
494.099	11678.75
494.873	12537.75
495.647	13497.75
496.422	14465.75
497.196	15447.75
497.97	16488.75
498.744	17521.75
499.518	18572.75
500.292	19620.75
501.066	20604.75
501.839	21597.75
502.613	22425.75
503.387	23302.75
504.16	23969.75
504.934	24512.75
505.707	24808.75
506.48	25018.75
507.253	25159.75
508.027	25220.75
508.8	25165.75
509.573	25011.75
510.346	24627.75
511.118	24155.75
511.891	23588.75
512.664	23014.75
513.437	22223.75
514.209	21444.75
514.982	20678.75
515.754	19907.75
516.526	19088.75
517.298	18352.75
518.071	17599.75
518.843	16903.75
519.615	16253.75
520.387	15653.75
521.159	15002.75
521.93	14420.75
522.702	13823.75
523.474	13264.75
524.245	12704.75
525.017	12168.75
525.788	11713.75
526.56	11218.75
527.331	10697.75
528.102	10236.75
528.873	9814.75
529.644	9334.75
530.415	8956.75
531.186	8515.75
531.957	8088.75
532.728	7706.75
533.498	7313.75
534.269	6946.75
535.039	6578.75
535.81	6213.75
536.58	5888.75
537.351	5527.75
538.121	5244.75
538.891	4961.75
539.661	4720.75
540.431	4436.75
541.201	4191.75
541.971	3967.75
542.741	3758.75
543.51	3598.75
544.28	3423.75
545.05	3261.75
545.819	3071.75
546.588	2926.75
547.358	2777.75
548.127	2647.75
548.896	2518.75
549.665	2409.75
550.434	2280.75
551.203	2134.75
551.972	2027.75
552.741	1917.75
553.51	1823.75
554.278	1726.75
555.047	1652.75
555.815	1542.75
556.584	1467.75
557.352	1376.75
558.121	1309.75
558.889	1237.75
559.657	1173.75
560.425	1100.75
561.193	1033.75
561.961	980.75
562.729	918.75
563.496	881.75
564.264	828.75
565.032	783.75
565.799	747.75
566.567	695.75
567.334	663.75
568.101	609.75
568.869	584.75
569.636	550.75
570.403	520.75
571.17	488.75
571.937	466.75
572.704	436.75
573.471	409.75
574.237	387.75
575.004	367.75
575.771	350.75
576.537	329.75
577.303	312.75
578.07	296.75
578.836	271.75
579.602	258.75
580.368	243.75
581.134	236.75
581.9	220.75
582.666	204.75
583.432	196.75
584.198	184.75
584.964	176.75
585.729	167.75
586.495	156.75
587.26	149.75
588.025	143.75
588.791	134.75
589.556	126.75
590.321	123.75
591.086	112.75
591.851	110.75
592.616	105.75
593.381	97.75
594.146	91.75
594.911	91.75
595.675	86.75
596.44	80.75
597.204	75.75
597.969	72.75
598.733	68.75
599.497	66.75
600.261	60.75
601.025	60.75
601.79	59.75
602.553	58.75
603.317	50.75
604.081	47.75
604.845	47.75
605.609	46.75
606.372	45.75
607.136	41.75
607.899	39.75
608.662	38.75
609.426	38.75
610.189	33.75
610.952	33.75
611.715	32.75
612.478	32.75
613.241	32.75
614.004	32.75
614.767	28.75
615.529	26.75
616.292	25.75
617.055	21.75
617.817	24.75
618.579	24.75
619.342	22.75
620.104	22.75
620.866	20.75
621.628	17.75
622.39	20.75
623.152	18.75
623.914	17.75
624.676	19.75
625.438	16.75
626.199	16.75
626.961	18.75
627.722	13.75
628.484	14.75
629.245	15.75
630.006	13.75
630.768	10.75
631.529	13.75
632.29	10.75
633.051	12.75
633.812	10.75
634.573	11.75
635.333	12.75
636.094	9.75
636.855	12.75
637.615	11.75
638.376	7.75
639.136	10.75
639.896	9.75
640.657	10.75
641.417	9.75
642.177	8.75
642.937	7.75
643.697	9.75
644.457	6.75
645.216	6.75
645.976	7.75
646.736	7.75
647.495	7.75
648.255	8.75
649.014	5.75
649.774	8.75
650.533	7.75
651.292	5.75
652.051	5.75
652.81	6.75
653.569	5.75
654.328	7.75
655.087	5.75
655.846	4.75
656.604	5.75
657.363	7.75
658.121	6.75
658.88	4.75
659.638	6.75
660.397	4.75
661.155	4.75
661.913	6.75
662.671	4.75
663.429	6.75
664.187	4.75
664.945	4.75
665.703	2.75
666.46	3.75
667.218	1.75
667.976	5.75
668.733	3.75
669.49	3.75
670.248	4.75
671.005	2.75
671.762	4.75
672.519	3.75
673.276	5.75
674.033	1.75
674.79	4.75
675.547	4.75
676.304	4.75
677.06	4.75
677.817	3.75
678.574	1.75
679.33	0.75
680.086	0.75
680.843	2.75
681.599	2.75
682.355	1.75
683.111	3.75
683.867	4.75
684.623	4.75
685.379	3.75
686.135	3.75
686.89	4.75
687.646	4.75
688.402	4.75
689.157	2.75
689.912	1.75
690.668	4.75
691.423	2.75
692.178	3.75
692.933	2.75
693.688	3.75
694.443	2.75
695.198	2.75
695.953	1.75
696.708	5.75
697.462	3.75
698.217	1.75
698.972	2.75
699.726	3.75
700.48	2.75
701.235	3.75
701.989	2.75
702.743	4.75
703.497	4.75
704.251	3.75
705.005	-0.25
705.759	3.75
706.513	4.75
707.266	3.75
708.02	1.75
708.774	4.75
709.527	2.75
710.28	3.75
711.034	0.75
711.787	3.75
712.54	3.75
713.293	1.75
714.046	1.75
714.799	2.75
715.552	4.75
716.305	2.75
717.058	2.75
717.81	3.75
718.563	1.75
719.315	2.75
720.068	4.75
720.82	2.75
721.573	3.75
722.325	1.75
723.077	2.75
723.829	4.75
724.581	1.75
725.333	1.75
726.085	2.75
726.836	5.75
727.588	3.75
728.34	4.75
729.091	3.75
729.843	0.75
730.594	3.75
731.346	4.75
732.097	3.75
732.848	4.75
733.599	3.75
734.35	4.75
735.101	5.75
735.852	1.75
736.603	4.75
737.354	5.75
738.104	1.75
738.855	6.75
739.605	3.75
740.356	3.75
741.106	3.75
741.856	4.75
742.607	4.75
743.357	4.75
744.107	4.75
744.857	4.75
745.607	3.75
746.357	6.75
747.106	4.75
747.856	5.75
748.606	4.75
749.355	2.75
750.105	4.75
750.854	2.75
751.603	3.75
752.353	5.75
753.102	6.75
753.851	6.75
754.6	3.75
755.349	4.75
756.098	1.75
756.847	5.75
757.595	4.75
758.344	2.75
759.093	4.75
759.841	4.75
760.589	3.75
761.338	3.75
762.086	6.75
762.834	6.75
763.582	3.75
764.331	4.75
765.079	5.75
765.826	5.75
766.574	6.75
767.322	6.75
768.07	6.75
768.817	5.75
769.565	6.75
770.312	7.75
771.06	4.75
771.807	6.75
772.554	5.75
773.302	8.75
774.049	7.75
774.796	4.75
775.543	6.75
776.29	8.75
777.036	4.75
777.783	8.75
778.53	7.75
779.276	7.75
780.023	7.75
780.769	6.75
781.516	7.75
782.262	7.75
783.008	7.75
783.754	6.75
784.5	8.75
785.246	9.75
785.992	8.75
786.738	5.75
787.484	7.75
788.23	5.75
788.975	8.75
789.721	8.75
790.466	6.75
791.212	6.75
791.957	7.75
792.702	9.75
793.447	4.75
794.193	8.75
794.938	5.75
795.683	5.75
796.427	6.75
797.172	6.75
797.917	5.75
798.662	5.75
799.406	8.75
800.151	6.75
800.895	6.75
801.64	5.75
802.384	4.75
803.128	8.75
803.872	7.75
804.616	4.75
805.36	7.75
806.104	4.75
806.848	7.75
807.592	4.75
808.336	3.75
809.079	3.75
809.823	4.75
810.566	4.75
811.31	4.75
812.053	4.75
812.796	4.75
813.539	6.75
814.283	1.75
815.026	4.75
815.769	3.75
816.511	3.75
817.254	5.75
817.997	4.75
818.74	3.75
819.482	3.75
820.225	1.75
820.967	5.75
821.71	6.75
822.452	2.75
823.194	4.75
823.936	3.75
824.678	4.75
825.42	2.75
826.162	5.75
826.904	3.75
827.646	2.75
828.388	1.75
829.129	4.75
829.871	3.75
830.612	4.75
831.354	4.75
832.095	1.75
832.836	2.75
833.577	1.75
834.319	2.75
835.06	2.75
835.801	2.75
836.542	2.75
837.282	2.75
838.023	4.75
838.764	2.75
839.504	1.75
840.245	4.75
840.985	0.75
841.726	5.75
842.466	1.75
843.206	2.75
843.946	4.75
844.687	2.75
845.427	3.75
846.166	1.75
846.906	1.75
847.646	5.75
848.386	1.75
849.125	3.75
849.865	2.75
850.605	2.75
851.344	3.75
852.083	3.75
852.823	4.75
853.562	2.75
854.301	1.75
855.04	2.75
855.779	0.75
856.518	1.75
857.257	1.75
857.995	1.75
858.734	2.75
859.473	3.75
860.211	1.75
860.95	0.75
861.688	1.75
862.426	0.75
863.165	1.75
863.903	0.75
864.641	-0.25
865.379	1.75
866.117	1.75
866.855	0.75
867.593	1.75
868.33	2.75
869.068	-0.25
869.806	1.75
870.543	2.75
871.28	1.75
872.018	1.75
872.755	0.75
873.492	-1.25
874.229	-0.25
874.967	2.75
875.703	0.75
876.44	2.75
877.177	-0.25
877.914	0.75
878.651	0.75
879.387	1.75
880.124	-0.25
880.86	-1.25
881.597	1.75
882.333	1.75
883.069	1.75
883.806	-0.25
884.542	0.75
885.278	1.75
886.014	-1.25
886.749	1.75
887.485	-0.25
888.221	-0.25
888.957	0.75
889.692	-0.25
890.428	-1.25
891.163	0.75
891.899	1.75
892.634	-0.25
893.369	0.75
894.104	1.75
894.839	1.75
895.574	1.75
896.309	1.75
897.044	-0.25
897.779	2.75
898.514	-1.25
899.248	0.75
899.983	0.75
900.717	1.75
901.452	-1.25
902.186	1.75
902.92	-1.25
903.654	1.75
904.389	1.75
905.123	0.75
905.857	-0.25
906.59	0.75
907.324	0.75
908.058	0.75
908.792	-2.25
909.525	1.75
910.259	-0.25
910.992	1.75
911.726	0.75
912.459	-2.25
913.192	1.75
913.925	0.75
914.658	-1.25
915.391	-0.25
916.124	-1.25
916.857	-0.25
917.59	-0.25
918.323	-0.25
919.055	-2.25
919.788	-0.25
920.521	0.75
921.253	-0.25
921.985	-0.25
922.718	0.75
923.45	-0.25
924.182	-2.25
924.914	0.75
925.646	1.75
926.378	1.75
927.11	-0.25
927.841	1.75
928.573	-0.25
929.305	-0.25
930.036	3.75
930.768	0.75
931.499	-0.25
932.23	1.75
932.962	-1.25
933.693	2.75
934.424	0.75
935.155	-1.25
935.886	-0.25
936.617	-2.25
937.348	-1.25
938.078	1.75
938.809	1.75
939.54	-0.25
940.27	2.75
941.001	-0.25
941.731	-0.25
942.461	-2.25
943.191	0.75
943.922	0.75
944.652	2.75
945.382	0.75
946.112	0.75
946.841	-0.25
947.571	0.75
948.301	-2.25
949.031	-1.25
949.76	1.75
950.49	-2.25
951.219	-0.25
951.948	2.75
952.678	0.75
953.407	-0.25
954.136	0.75
954.865	-0.25
955.594	-1.25
956.323	0.75
957.052	-0.25
957.78	1.75
958.509	-2.25
959.238	1.75
959.966	0.75
960.695	-0.25
961.423	1.75
962.151	-3.25
962.88	-0.25
963.608	0.75
964.336	0.75
965.064	0.75
965.792	-1.25
966.52	0.75
967.247	0.75
967.975	-1.25
968.703	1.75
969.43	1.75
970.158	1.75
970.885	-0.25
971.613	0.75
972.34	-0.25
973.067	-1.25
973.794	-0.25
974.521	-0.25
975.248	1.75
975.975	-1.25
976.702	0.75
977.429	0.75
978.156	-2.25
978.882	-0.25
979.609	-0.25
980.335	2.75
981.062	2.75
981.788	-0.25
982.514	0.75
983.24	-2.25
983.967	0.75
984.693	-1.25
985.419	-1.25
986.144	-1.25
986.87	-0.25
987.596	-1.25
988.322	0.75
989.047	0.75
989.773	0.75
990.498	0.75
991.224	-2.25
991.949	-0.25
992.674	1.75
993.399	-1.25
994.124	-0.25
994.849	-1.25
995.574	-0.25
996.299	1.75
997.024	-0.25
997.749	-0.25
998.473	0.75
999.198	-3.25
999.922	-0.25
1000.647	-2.25
1001.371	4.75
1002.095	-2.25
1002.82	-1.25
1003.544	-0.25
1004.268	1.75
1004.992	0.75
1005.716	1.75
1006.439	0.75
1007.163	0.75
1007.887	1.75
1008.611	-2.25
1009.334	-1.25
1010.058	1.75
1010.781	-2.25
1011.504	0.75
1012.228	-1.25
1012.951	-1.25
1013.674	-1.25
1014.397	-0.25
1015.12	1.75
