节点500_285_QEPB04081__787__15-08-38-768.txt的数据

Date: Wed Nov 12 15:08:38 CST 2025
User: PC
Spectrometer: QEPB0408
触发模式: 0
积分时间 (秒): 1.000000E-2
Scans to average: 1
启用暗噪声校正: true
启用非线性校正: false
滑动平均宽度: 0
X轴模式: Wavelengths
Number of Pixels in Spectrum: 1044
>>>>>Begin Spectral Data<<<<<
220.843	0.38
221.644	0.38
222.444	0.38
223.244	1.38
224.045	1.38
224.845	1.38
225.645	2.38
226.445	1.38
227.245	2.38
228.045	2.38
228.845	-0.62
229.645	2.38
230.444	1.38
231.244	0.38
232.043	3.38
232.843	3.38
233.642	3.38
234.442	1.38
235.241	4.38
236.04	1.38
236.839	3.38
237.638	1.38
238.437	2.38
239.236	3.38
240.035	3.38
240.833	2.38
241.632	2.38
242.43	2.38
243.229	5.38
244.027	3.38
244.826	4.38
245.624	1.38
246.422	5.38
247.22	4.38
248.018	4.38
248.816	5.38
249.614	5.38
250.412	4.38
251.21	6.38
252.007	4.38
252.805	5.38
253.602	4.38
254.4	5.38
255.197	6.38
255.994	8.38
256.791	7.38
257.589	6.38
258.386	8.38
259.183	10.38
259.979	6.38
260.776	7.38
261.573	7.38
262.37	10.38
263.166	12.38
263.963	8.38
264.759	10.38
265.556	11.38
266.352	10.38
267.148	9.38
267.944	11.38
268.74	10.38
269.536	13.38
270.332	14.38
271.128	12.38
271.924	13.38
272.719	13.38
273.515	13.38
274.311	13.38
275.106	12.38
275.901	13.38
276.697	15.38
277.492	15.38
278.287	15.38
279.082	13.38
279.877	18.38
280.672	16.38
281.467	16.38
282.262	15.38
283.056	18.38
283.851	16.38
284.646	14.38
285.44	17.38
286.234	14.38
287.029	14.38
287.823	17.38
288.617	15.38
289.411	17.38
290.205	17.38
290.999	17.38
291.793	15.38
292.587	14.38
293.381	15.38
294.174	15.38
294.968	15.38
295.761	12.38
296.555	13.38
297.348	13.38
298.141	12.38
298.935	15.38
299.728	11.38
300.521	14.38
301.314	13.38
302.107	13.38
302.899	13.38
303.692	12.38
304.485	16.38
305.277	12.38
306.07	13.38
306.862	10.38
307.655	13.38
308.447	12.38
309.239	12.38
310.031	12.38
310.823	11.38
311.615	11.38
312.407	11.38
313.199	9.38
313.991	8.38
314.783	8.38
315.574	9.38
316.366	8.38
317.157	9.38
317.949	9.38
318.74	8.38
319.531	7.38
320.322	5.38
321.113	8.38
321.904	6.38
322.695	7.38
323.486	8.38
324.277	7.38
325.068	5.38
325.858	6.38
326.649	5.38
327.439	6.38
328.23	4.38
329.02	6.38
329.81	5.38
330.6	8.38
331.391	5.38
332.181	7.38
332.971	6.38
333.76	6.38
334.55	5.38
335.34	5.38
336.13	4.38
336.919	5.38
337.709	9.38
338.498	5.38
339.287	5.38
340.077	4.38
340.866	3.38
341.655	6.38
342.444	5.38
343.233	6.38
344.022	5.38
344.811	4.38
345.6	5.38
346.388	6.38
347.177	6.38
347.965	6.38
348.754	4.38
349.542	5.38
350.33	6.38
351.119	5.38
351.907	4.38
352.695	4.38
353.483	2.38
354.271	5.38
355.059	6.38
355.846	3.38
356.634	7.38
357.422	3.38
358.209	3.38
358.997	4.38
359.784	5.38
360.571	5.38
361.359	4.38
362.146	5.38
362.933	5.38
363.72	5.38
364.507	6.38
365.294	2.38
366.081	4.38
366.867	3.38
367.654	5.38
368.44	3.38
369.227	4.38
370.013	4.38
370.8	3.38
371.586	2.38
372.372	3.38
373.158	6.38
373.944	3.38
374.73	3.38
375.516	5.38
376.302	4.38
377.088	5.38
377.873	5.38
378.659	5.38
379.445	4.38
380.23	2.38
381.015	3.38
381.801	3.38
382.586	6.38
383.371	3.38
384.156	3.38
384.941	2.38
385.726	3.38
386.511	3.38
387.296	5.38
388.08	4.38
388.865	5.38
389.649	4.38
390.434	6.38
391.218	3.38
392.003	6.38
392.787	4.38
393.571	4.38
394.355	3.38
395.139	6.38
395.923	7.38
396.707	5.38
397.491	8.38
398.274	7.38
399.058	5.38
399.842	7.38
400.625	6.38
401.408	6.38
402.192	7.38
402.975	7.38
403.758	5.38
404.541	5.38
405.324	9.38
406.107	3.38
406.89	6.38
407.673	6.38
408.456	8.38
409.238	6.38
410.021	6.38
410.803	6.38
411.586	6.38
412.368	9.38
413.151	6.38
413.933	5.38
414.715	7.38
415.497	8.38
416.279	8.38
417.061	9.38
417.843	8.38
418.624	10.38
419.406	6.38
420.188	9.38
420.969	9.38
421.751	11.38
422.532	7.38
423.313	9.38
424.095	9.38
424.876	9.38
425.657	10.38
426.438	9.38
427.219	11.38
428	10.38
428.78	13.38
429.561	10.38
430.342	13.38
431.122	13.38
431.903	11.38
432.683	14.38
433.464	15.38
434.244	16.38
435.024	16.38
435.804	13.38
436.584	17.38
437.364	19.38
438.144	20.38
438.924	19.38
439.704	23.38
440.483	23.38
441.263	22.38
442.042	24.38
442.822	25.38
443.601	29.38
444.38	30.38
445.16	35.38
445.939	35.38
446.718	37.38
447.497	42.38
448.276	43.38
449.054	47.38
449.833	49.38
450.612	56.38
451.391	61.38
452.169	67.38
452.948	79.38
453.726	77.38
454.504	91.38
455.282	100.38
456.061	111.38
456.839	122.38
457.617	141.38
458.395	148.38
459.172	165.38
459.95	188.38
460.728	210.38
461.506	225.38
462.283	258.38
463.061	280.38
463.838	317.38
464.615	356.38
465.393	391.38
466.17	435.38
466.947	492.38
467.724	550.38
468.501	608.38
469.278	663.38
470.055	740.38
470.831	816.38
471.608	905.38
472.385	1003.38
473.161	1101.38
473.938	1192.38
474.714	1327.38
475.49	1464.38
476.266	1621.38
477.043	1757.38
477.819	1935.38
478.595	2124.38
479.371	2323.38
480.146	2553.38
480.922	2786.38
481.698	3046.38
482.473	3331.38
483.249	3652.38
484.024	3993.38
484.8	4359.38
485.575	4746.38
486.35	5157.38
487.126	5590.38
487.901	6116.38
488.676	6668.38
489.451	7259.38
490.225	7881.38
491	8557.38
491.775	9295.38
492.55	10091.38
493.324	10909.38
494.099	11674.38
494.873	12554.38
495.647	13495.38
496.422	14458.38
497.196	15478.38
497.97	16436.38
498.744	17530.38
499.518	18529.38
500.292	19635.38
501.066	20588.38
501.839	21489.38
502.613	22400.38
503.387	23202.38
504.16	24015.38
504.934	24432.38
505.707	24797.38
506.48	25084.38
507.253	25162.38
508.027	25104.38
508.8	25088.38
509.573	24959.38
510.346	24578.38
511.118	24138.38
511.891	23516.38
512.664	22907.38
513.437	22295.38
514.209	21447.38
514.982	20681.38
515.754	19900.38
516.526	19094.38
517.298	18336.38
518.071	17562.38
518.843	16896.38
519.615	16282.38
520.387	15640.38
521.159	15023.38
521.93	14369.38
522.702	13831.38
523.474	13288.38
524.245	12682.38
525.017	12182.38
525.788	11740.38
526.56	11238.38
527.331	10716.38
528.102	10303.38
528.873	9805.38
529.644	9346.38
530.415	8988.38
531.186	8493.38
531.957	8066.38
532.728	7751.38
533.498	7355.38
534.269	6949.38
535.039	6573.38
535.81	6225.38
536.58	5884.38
537.351	5553.38
538.121	5274.38
538.891	4971.38
539.661	4717.38
540.431	4446.38
541.201	4184.38
541.971	3985.38
542.741	3783.38
543.51	3585.38
544.28	3410.38
545.05	3261.38
545.819	3112.38
546.588	2939.38
547.358	2786.38
548.127	2671.38
548.896	2520.38
549.665	2387.38
550.434	2264.38
551.203	2144.38
551.972	2045.38
552.741	1933.38
553.51	1835.38
554.278	1744.38
555.047	1649.38
555.815	1554.38
556.584	1463.38
557.352	1379.38
558.121	1311.38
558.889	1236.38
559.657	1175.38
560.425	1097.38
561.193	1032.38
561.961	977.38
562.729	924.38
563.496	873.38
564.264	828.38
565.032	779.38
565.799	744.38
566.567	703.38
567.334	663.38
568.101	628.38
568.869	594.38
569.636	555.38
570.403	518.38
571.17	487.38
571.937	459.38
572.704	436.38
573.471	413.38
574.237	392.38
575.004	376.38
575.771	345.38
576.537	330.38
577.303	313.38
578.07	290.38
578.836	272.38
579.602	247.38
580.368	241.38
581.134	232.38
581.9	217.38
582.666	213.38
583.432	192.38
584.198	193.38
584.964	175.38
585.729	169.38
586.495	160.38
587.26	145.38
588.025	143.38
588.791	136.38
589.556	127.38
590.321	119.38
591.086	115.38
591.851	110.38
592.616	108.38
593.381	98.38
594.146	96.38
594.911	88.38
595.675	83.38
596.44	83.38
597.204	81.38
597.969	76.38
598.733	67.38
599.497	67.38
600.261	63.38
601.025	61.38
601.79	53.38
602.553	61.38
603.317	51.38
604.081	48.38
604.845	49.38
605.609	46.38
606.372	45.38
607.136	43.38
607.899	44.38
608.662	38.38
609.426	37.38
610.189	36.38
610.952	33.38
611.715	34.38
612.478	33.38
613.241	32.38
614.004	29.38
614.767	29.38
615.529	24.38
616.292	27.38
617.055	24.38
617.817	26.38
618.579	23.38
619.342	24.38
620.104	20.38
620.866	22.38
621.628	21.38
622.39	20.38
623.152	19.38
623.914	18.38
624.676	18.38
625.438	17.38
626.199	15.38
626.961	14.38
627.722	13.38
628.484	15.38
629.245	15.38
630.006	12.38
630.768	13.38
631.529	10.38
632.29	13.38
633.051	12.38
633.812	11.38
634.573	9.38
635.333	10.38
636.094	9.38
636.855	10.38
637.615	11.38
638.376	10.38
639.136	11.38
639.896	6.38
640.657	9.38
641.417	9.38
642.177	9.38
642.937	8.38
643.697	9.38
644.457	8.38
645.216	8.38
645.976	8.38
646.736	9.38
647.495	5.38
648.255	6.38
649.014	6.38
649.774	8.38
650.533	6.38
651.292	7.38
652.051	8.38
652.81	7.38
653.569	4.38
654.328	6.38
655.087	5.38
655.846	4.38
656.604	7.38
657.363	5.38
658.121	6.38
658.88	3.38
659.638	5.38
660.397	6.38
661.155	4.38
661.913	6.38
662.671	6.38
663.429	5.38
664.187	4.38
664.945	5.38
665.703	4.38
666.46	3.38
667.218	4.38
667.976	3.38
668.733	5.38
669.49	6.38
670.248	3.38
671.005	3.38
671.762	2.38
672.519	7.38
673.276	3.38
674.033	2.38
674.79	3.38
675.547	1.38
676.304	5.38
677.06	3.38
677.817	3.38
678.574	2.38
679.33	0.38
680.086	4.38
680.843	1.38
681.599	3.38
682.355	2.38
683.111	1.38
683.867	3.38
684.623	2.38
685.379	4.38
686.135	3.38
686.89	2.38
687.646	1.38
688.402	2.38
689.157	3.38
689.912	3.38
690.668	3.38
691.423	-0.62
692.178	1.38
692.933	3.38
693.688	6.38
694.443	4.38
695.198	3.38
695.953	3.38
696.708	2.38
697.462	4.38
698.217	1.38
698.972	3.38
699.726	4.38
700.48	1.38
701.235	0.38
701.989	0.38
702.743	4.38
703.497	2.38
704.251	3.38
705.005	3.38
705.759	1.38
706.513	1.38
707.266	1.38
708.02	4.38
708.774	1.38
709.527	1.38
710.28	2.38
711.034	4.38
711.787	1.38
712.54	2.38
713.293	4.38
714.046	2.38
714.799	2.38
715.552	4.38
716.305	3.38
717.058	3.38
717.81	3.38
718.563	2.38
719.315	2.38
720.068	1.38
720.82	6.38
721.573	3.38
722.325	3.38
723.077	2.38
723.829	4.38
724.581	2.38
725.333	2.38
726.085	1.38
726.836	5.38
727.588	4.38
728.34	3.38
729.091	2.38
729.843	3.38
730.594	2.38
731.346	2.38
732.097	4.38
732.848	2.38
733.599	2.38
734.35	3.38
735.101	3.38
735.852	2.38
736.603	3.38
737.354	1.38
738.104	2.38
738.855	3.38
739.605	3.38
740.356	2.38
741.106	4.38
741.856	2.38
742.607	5.38
743.357	4.38
744.107	3.38
744.857	4.38
745.607	5.38
746.357	4.38
747.106	2.38
747.856	3.38
748.606	3.38
749.355	4.38
750.105	4.38
750.854	4.38
751.603	3.38
752.353	2.38
753.102	4.38
753.851	6.38
754.6	5.38
755.349	5.38
756.098	6.38
756.847	4.38
757.595	4.38
758.344	4.38
759.093	5.38
759.841	4.38
760.589	7.38
761.338	4.38
762.086	5.38
762.834	5.38
763.582	5.38
764.331	2.38
765.079	4.38
765.826	5.38
766.574	8.38
767.322	5.38
768.07	6.38
768.817	6.38
769.565	5.38
770.312	7.38
771.06	7.38
771.807	6.38
772.554	2.38
773.302	6.38
774.049	5.38
774.796	7.38
775.543	5.38
776.29	5.38
777.036	5.38
777.783	4.38
778.53	4.38
779.276	9.38
780.023	7.38
780.769	5.38
781.516	7.38
782.262	5.38
783.008	7.38
783.754	6.38
784.5	6.38
785.246	8.38
785.992	7.38
786.738	7.38
787.484	5.38
788.23	10.38
788.975	6.38
789.721	6.38
790.466	6.38
791.212	7.38
791.957	7.38
792.702	5.38
793.447	7.38
794.193	6.38
794.938	6.38
795.683	8.38
796.427	6.38
797.172	8.38
797.917	5.38
798.662	8.38
799.406	6.38
800.151	4.38
800.895	5.38
801.64	6.38
802.384	8.38
803.128	3.38
803.872	5.38
804.616	5.38
805.36	3.38
806.104	6.38
806.848	4.38
807.592	5.38
808.336	3.38
809.079	3.38
809.823	7.38
810.566	6.38
811.31	4.38
812.053	1.38
812.796	3.38
813.539	2.38
814.283	6.38
815.026	5.38
815.769	5.38
816.511	4.38
817.254	4.38
817.997	4.38
818.74	4.38
819.482	6.38
820.225	3.38
820.967	4.38
821.71	3.38
822.452	3.38
823.194	3.38
823.936	3.38
824.678	3.38
825.42	3.38
826.162	4.38
826.904	4.38
827.646	4.38
828.388	3.38
829.129	2.38
829.871	4.38
830.612	4.38
831.354	4.38
832.095	2.38
832.836	1.38
833.577	2.38
834.319	3.38
835.06	3.38
835.801	1.38
836.542	1.38
837.282	3.38
838.023	1.38
838.764	3.38
839.504	3.38
840.245	4.38
840.985	1.38
841.726	1.38
842.466	0.38
843.206	-0.62
843.946	2.38
844.687	2.38
845.427	1.38
846.166	1.38
846.906	1.38
847.646	2.38
848.386	6.38
849.125	2.38
849.865	1.38
850.605	1.38
851.344	2.38
852.083	1.38
852.823	3.38
853.562	3.38
854.301	2.38
855.04	1.38
855.779	-0.62
856.518	2.38
857.257	1.38
857.995	1.38
858.734	1.38
859.473	1.38
860.211	3.38
860.95	-0.62
861.688	3.38
862.426	0.38
863.165	0.38
863.903	1.38
864.641	-0.62
865.379	3.38
866.117	2.38
866.855	1.38
867.593	0.38
868.33	2.38
869.068	1.38
869.806	0.38
870.543	2.38
871.28	-1.62
872.018	1.38
872.755	-0.62
873.492	2.38
874.229	1.38
874.967	-2.62
875.703	1.38
876.44	0.38
877.177	0.38
877.914	-0.62
878.651	0.38
879.387	1.38
880.124	-0.62
880.86	0.38
881.597	2.38
882.333	2.38
883.069	1.38
883.806	1.38
884.542	1.38
885.278	0.38
886.014	2.38
886.749	-0.62
887.485	0.38
888.221	1.38
888.957	-0.62
889.692	-1.62
890.428	0.38
891.163	-0.62
891.899	-0.62
892.634	-1.62
893.369	1.38
894.104	0.38
894.839	0.38
895.574	-1.62
896.309	1.38
897.044	3.38
897.779	-0.62
898.514	0.38
899.248	0.38
899.983	-2.62
900.717	-0.62
901.452	0.38
902.186	0.38
902.92	0.38
903.654	1.38
904.389	-0.62
905.123	1.38
905.857	0.38
906.59	0.38
907.324	1.38
908.058	0.38
908.792	-0.62
909.525	-0.62
910.259	0.38
910.992	0.38
911.726	1.38
912.459	0.38
913.192	-0.62
913.925	3.38
914.658	0.38
915.391	0.38
916.124	-0.62
916.857	-1.62
917.59	-0.62
918.323	-0.62
919.055	1.38
919.788	-2.62
920.521	0.38
921.253	0.38
921.985	-2.62
922.718	-0.62
923.45	-0.62
924.182	1.38
924.914	-0.62
925.646	0.38
926.378	2.38
927.11	0.38
927.841	0.38
928.573	0.38
929.305	0.38
930.036	0.38
930.768	-1.62
931.499	-0.62
932.23	-2.62
932.962	0.38
933.693	-1.62
934.424	-0.62
935.155	-0.62
935.886	-0.62
936.617	0.38
937.348	-1.62
938.078	-0.62
938.809	-2.62
939.54	-1.62
940.27	0.38
941.001	-0.62
941.731	-0.62
942.461	-0.62
943.191	-1.62
943.922	-0.62
944.652	-1.62
945.382	-2.62
946.112	0.38
946.841	-1.62
947.571	-0.62
948.301	-1.62
949.031	-1.62
949.76	-0.62
950.49	0.38
951.219	1.38
951.948	-0.62
952.678	-0.62
953.407	-0.62
954.136	-0.62
954.865	-1.62
955.594	0.38
956.323	-0.62
957.052	0.38
957.78	-0.62
958.509	-0.62
959.238	0.38
959.966	-0.62
960.695	1.38
961.423	0.38
962.151	0.38
962.88	0.38
963.608	1.38
964.336	-0.62
965.064	-1.62
965.792	-0.62
966.52	0.38
967.247	-1.62
967.975	-1.62
968.703	0.38
969.43	1.38
970.158	-0.62
970.885	0.38
971.613	0.38
972.34	-0.62
973.067	-0.62
973.794	1.38
974.521	2.38
975.248	-0.62
975.975	0.38
976.702	0.38
977.429	-0.62
978.156	0.38
978.882	0.38
979.609	-0.62
980.335	0.38
981.062	0.38
981.788	0.38
982.514	1.38
983.24	-0.62
983.967	-0.62
984.693	0.38
985.419	-1.62
986.144	-0.62
986.87	1.38
987.596	-0.62
988.322	-0.62
989.047	-0.62
989.773	1.38
990.498	-1.62
991.224	-0.62
991.949	0.38
992.674	1.38
993.399	-2.62
994.124	-0.62
994.849	2.38
995.574	0.38
996.299	0.38
997.024	-0.62
997.749	-1.62
998.473	-2.62
999.198	-2.62
999.922	0.38
1000.647	-0.62
1001.371	1.38
1002.095	0.38
1002.82	-2.62
1003.544	0.38
1004.268	2.38
1004.992	-0.62
1005.716	1.38
1006.439	0.38
1007.163	-0.62
1007.887	0.38
1008.611	-2.62
1009.334	0.38
1010.058	-2.62
1010.781	-0.62
1011.504	-0.62
1012.228	-0.62
1012.951	0.38
1013.674	1.38
1014.397	0.38
1015.12	-1.62
