节点500_285_QEPB04081__60__14-56-33-343.txt的数据

Date: Wed Nov 12 14:56:33 CST 2025
User: PC
Spectrometer: QEPB0408
触发模式: 0
积分时间 (秒): 1.000000E-2
Scans to average: 1
启用暗噪声校正: true
启用非线性校正: false
滑动平均宽度: 0
X轴模式: Wavelengths
Number of Pixels in Spectrum: 1044
>>>>>Begin Spectral Data<<<<<
220.843	0.5
221.644	4.5
222.444	2.5
223.244	5.5
224.045	0.5
224.845	3.5
225.645	1.5
226.445	3.5
227.245	3.5
228.045	3.5
228.845	3.5
229.645	4.5
230.444	2.5
231.244	5.5
232.043	3.5
232.843	5.5
233.642	5.5
234.442	4.5
235.241	4.5
236.04	6.5
236.839	4.5
237.638	2.5
238.437	6.5
239.236	4.5
240.035	6.5
240.833	3.5
241.632	4.5
242.43	3.5
243.229	5.5
244.027	3.5
244.826	5.5
245.624	7.5
246.422	4.5
247.22	5.5
248.018	5.5
248.816	7.5
249.614	7.5
250.412	6.5
251.21	9.5
252.007	7.5
252.805	7.5
253.602	8.5
254.4	6.5
255.197	8.5
255.994	9.5
256.791	9.5
257.589	9.5
258.386	9.5
259.183	11.5
259.979	10.5
260.776	9.5
261.573	11.5
262.37	14.5
263.166	10.5
263.963	13.5
264.759	12.5
265.556	14.5
266.352	13.5
267.148	16.5
267.944	13.5
268.74	16.5
269.536	14.5
270.332	16.5
271.128	15.5
271.924	16.5
272.719	17.5
273.515	19.5
274.311	15.5
275.106	19.5
275.901	19.5
276.697	17.5
277.492	21.5
278.287	20.5
279.082	20.5
279.877	21.5
280.672	18.5
281.467	19.5
282.262	19.5
283.056	21.5
283.851	19.5
284.646	20.5
285.44	20.5
286.234	19.5
287.029	20.5
287.823	19.5
288.617	19.5
289.411	20.5
290.205	19.5
290.999	18.5
291.793	20.5
292.587	19.5
293.381	19.5
294.174	18.5
294.968	17.5
295.761	17.5
296.555	16.5
297.348	15.5
298.141	14.5
298.935	15.5
299.728	15.5
300.521	15.5
301.314	13.5
302.107	16.5
302.899	13.5
303.692	13.5
304.485	14.5
305.277	11.5
306.07	11.5
306.862	11.5
307.655	12.5
308.447	11.5
309.239	12.5
310.031	10.5
310.823	10.5
311.615	9.5
312.407	9.5
313.199	9.5
313.991	9.5
314.783	7.5
315.574	8.5
316.366	10.5
317.157	7.5
317.949	10.5
318.74	7.5
319.531	8.5
320.322	9.5
321.113	7.5
321.904	7.5
322.695	8.5
323.486	10.5
324.277	6.5
325.068	6.5
325.858	9.5
326.649	6.5
327.439	8.5
328.23	6.5
329.02	7.5
329.81	7.5
330.6	6.5
331.391	8.5
332.181	6.5
332.971	7.5
333.76	7.5
334.55	6.5
335.34	6.5
336.13	6.5
336.919	5.5
337.709	6.5
338.498	9.5
339.287	7.5
340.077	7.5
340.866	6.5
341.655	5.5
342.444	6.5
343.233	6.5
344.022	7.5
344.811	7.5
345.6	5.5
346.388	7.5
347.177	10.5
347.965	8.5
348.754	8.5
349.542	7.5
350.33	4.5
351.119	9.5
351.907	5.5
352.695	5.5
353.483	5.5
354.271	5.5
355.059	5.5
355.846	6.5
356.634	7.5
357.422	5.5
358.209	5.5
358.997	3.5
359.784	6.5
360.571	7.5
361.359	4.5
362.146	6.5
362.933	6.5
363.72	6.5
364.507	6.5
365.294	5.5
366.081	4.5
366.867	4.5
367.654	6.5
368.44	2.5
369.227	7.5
370.013	7.5
370.8	8.5
371.586	5.5
372.372	5.5
373.158	5.5
373.944	6.5
374.73	5.5
375.516	5.5
376.302	4.5
377.088	6.5
377.873	3.5
378.659	7.5
379.445	5.5
380.23	4.5
381.015	6.5
381.801	6.5
382.586	5.5
383.371	6.5
384.156	6.5
384.941	5.5
385.726	8.5
386.511	6.5
387.296	6.5
388.08	5.5
388.865	7.5
389.649	5.5
390.434	6.5
391.218	6.5
392.003	7.5
392.787	7.5
393.571	8.5
394.355	9.5
395.139	7.5
395.923	8.5
396.707	6.5
397.491	6.5
398.274	6.5
399.058	7.5
399.842	6.5
400.625	7.5
401.408	7.5
402.192	9.5
402.975	6.5
403.758	7.5
404.541	7.5
405.324	8.5
406.107	8.5
406.89	11.5
407.673	9.5
408.456	8.5
409.238	8.5
410.021	7.5
410.803	6.5
411.586	7.5
412.368	9.5
413.151	9.5
413.933	8.5
414.715	9.5
415.497	10.5
416.279	12.5
417.061	9.5
417.843	12.5
418.624	11.5
419.406	6.5
420.188	13.5
420.969	9.5
421.751	13.5
422.532	13.5
423.313	11.5
424.095	13.5
424.876	11.5
425.657	9.5
426.438	12.5
427.219	13.5
428	13.5
428.78	13.5
429.561	17.5
430.342	15.5
431.122	15.5
431.903	13.5
432.683	15.5
433.464	17.5
434.244	15.5
435.024	19.5
435.804	19.5
436.584	19.5
437.364	22.5
438.144	19.5
438.924	19.5
439.704	21.5
440.483	22.5
441.263	26.5
442.042	24.5
442.822	29.5
443.601	28.5
444.38	29.5
445.16	33.5
445.939	32.5
446.718	32.5
447.497	38.5
448.276	40.5
449.054	44.5
449.833	47.5
450.612	51.5
451.391	50.5
452.169	56.5
452.948	66.5
453.726	70.5
454.504	80.5
455.282	82.5
456.061	98.5
456.839	102.5
457.617	112.5
458.395	124.5
459.172	136.5
459.95	158.5
460.728	164.5
461.506	190.5
462.283	213.5
463.061	237.5
463.838	267.5
464.615	304.5
465.393	333.5
466.17	365.5
466.947	411.5
467.724	455.5
468.501	515.5
469.278	578.5
470.055	652.5
470.831	720.5
471.608	802.5
472.385	897.5
473.161	1002.5
473.938	1126.5
474.714	1243.5
475.49	1379.5
476.266	1543.5
477.043	1725.5
477.819	1897.5
478.595	2111.5
479.371	2347.5
480.146	2599.5
480.922	2871.5
481.698	3187.5
482.473	3564.5
483.249	3915.5
484.024	4342.5
484.8	4788.5
485.575	5287.5
486.35	5868.5
487.126	6419.5
487.901	7154.5
488.676	7840.5
489.451	8634.5
490.225	9481.5
491	10411.5
491.775	11416.5
492.55	12435.5
493.324	13509.5
494.099	14651.5
494.873	15814.5
495.647	17096.5
496.422	18389.5
497.196	19643.5
497.97	20993.5
498.744	22247.5
499.518	23499.5
500.292	24640.5
501.066	25731.5
501.839	26733.5
502.613	27538.5
503.387	28253.5
504.16	28759.5
504.934	28946.5
505.707	28983.5
506.48	28874.5
507.253	28510.5
508.027	28124.5
508.8	27599.5
509.573	26871.5
510.346	26157.5
511.118	25168.5
511.891	24251.5
512.664	23295.5
513.437	22354.5
514.209	21303.5
514.982	20335.5
515.754	19400.5
516.526	18486.5
517.298	17665.5
518.071	16939.5
518.843	16329.5
519.615	15579.5
520.387	14993.5
521.159	14439.5
521.93	13859.5
522.702	13300.5
523.474	12799.5
524.245	12177.5
525.017	11688.5
525.788	11228.5
526.56	10679.5
527.331	10116.5
528.102	9655.5
528.873	9187.5
529.644	8749.5
530.415	8313.5
531.186	7832.5
531.957	7417.5
532.728	7016.5
533.498	6639.5
534.269	6248.5
535.039	5863.5
535.81	5586.5
536.58	5259.5
537.351	4938.5
538.121	4685.5
538.891	4459.5
539.661	4218.5
540.431	3939.5
541.201	3737.5
541.971	3554.5
542.741	3357.5
543.51	3184.5
544.28	3037.5
545.05	2887.5
545.819	2763.5
546.588	2624.5
547.358	2472.5
548.127	2346.5
548.896	2217.5
549.665	2121.5
550.434	2007.5
551.203	1890.5
551.972	1792.5
552.741	1704.5
553.51	1601.5
554.278	1502.5
555.047	1410.5
555.815	1352.5
556.584	1284.5
557.352	1199.5
558.121	1114.5
558.889	1057.5
559.657	1008.5
560.425	946.5
561.193	887.5
561.961	839.5
562.729	790.5
563.496	763.5
564.264	707.5
565.032	662.5
565.799	637.5
566.567	604.5
567.334	570.5
568.101	541.5
568.869	502.5
569.636	475.5
570.403	449.5
571.17	427.5
571.937	398.5
572.704	376.5
573.471	355.5
574.237	338.5
575.004	318.5
575.771	300.5
576.537	275.5
577.303	266.5
578.07	251.5
578.836	235.5
579.602	222.5
580.368	204.5
581.134	193.5
581.9	192.5
582.666	179.5
583.432	162.5
584.198	160.5
584.964	152.5
585.729	145.5
586.495	138.5
587.26	131.5
588.025	123.5
588.791	111.5
589.556	114.5
590.321	103.5
591.086	100.5
591.851	93.5
592.616	87.5
593.381	82.5
594.146	81.5
594.911	76.5
595.675	78.5
596.44	71.5
597.204	67.5
597.969	64.5
598.733	58.5
599.497	59.5
600.261	60.5
601.025	57.5
601.79	51.5
602.553	50.5
603.317	48.5
604.081	47.5
604.845	43.5
605.609	41.5
606.372	43.5
607.136	36.5
607.899	35.5
608.662	39.5
609.426	35.5
610.189	33.5
610.952	31.5
611.715	30.5
612.478	27.5
613.241	25.5
614.004	27.5
614.767	25.5
615.529	26.5
616.292	24.5
617.055	22.5
617.817	21.5
618.579	24.5
619.342	19.5
620.104	22.5
620.866	20.5
621.628	20.5
622.39	21.5
623.152	18.5
623.914	18.5
624.676	18.5
625.438	18.5
626.199	14.5
626.961	17.5
627.722	14.5
628.484	14.5
629.245	12.5
630.006	15.5
630.768	13.5
631.529	14.5
632.29	14.5
633.051	13.5
633.812	13.5
634.573	13.5
635.333	12.5
636.094	10.5
636.855	12.5
637.615	12.5
638.376	8.5
639.136	9.5
639.896	7.5
640.657	10.5
641.417	9.5
642.177	11.5
642.937	9.5
643.697	9.5
644.457	7.5
645.216	8.5
645.976	7.5
646.736	8.5
647.495	8.5
648.255	11.5
649.014	8.5
649.774	7.5
650.533	7.5
651.292	7.5
652.051	7.5
652.81	4.5
653.569	8.5
654.328	5.5
655.087	6.5
655.846	8.5
656.604	5.5
657.363	7.5
658.121	5.5
658.88	3.5
659.638	7.5
660.397	5.5
661.155	7.5
661.913	6.5
662.671	7.5
663.429	4.5
664.187	6.5
664.945	5.5
665.703	6.5
666.46	6.5
667.218	4.5
667.976	3.5
668.733	6.5
669.49	4.5
670.248	7.5
671.005	6.5
671.762	4.5
672.519	7.5
673.276	5.5
674.033	4.5
674.79	4.5
675.547	5.5
676.304	4.5
677.06	4.5
677.817	6.5
678.574	3.5
679.33	3.5
680.086	6.5
680.843	4.5
681.599	3.5
682.355	2.5
683.111	4.5
683.867	3.5
684.623	4.5
685.379	4.5
686.135	3.5
686.89	5.5
687.646	2.5
688.402	5.5
689.157	4.5
689.912	2.5
690.668	4.5
691.423	4.5
692.178	3.5
692.933	5.5
693.688	4.5
694.443	4.5
695.198	4.5
695.953	4.5
696.708	3.5
697.462	1.5
698.217	5.5
698.972	5.5
699.726	2.5
700.48	4.5
701.235	4.5
701.989	2.5
702.743	6.5
703.497	2.5
704.251	2.5
705.005	2.5
705.759	3.5
706.513	4.5
707.266	1.5
708.02	3.5
708.774	3.5
709.527	2.5
710.28	3.5
711.034	3.5
711.787	5.5
712.54	4.5
713.293	3.5
714.046	3.5
714.799	1.5
715.552	4.5
716.305	5.5
717.058	3.5
717.81	4.5
718.563	4.5
719.315	5.5
720.068	4.5
720.82	4.5
721.573	5.5
722.325	2.5
723.077	4.5
723.829	1.5
724.581	3.5
725.333	6.5
726.085	3.5
726.836	3.5
727.588	3.5
728.34	5.5
729.091	7.5
729.843	5.5
730.594	7.5
731.346	3.5
732.097	6.5
732.848	4.5
733.599	4.5
734.35	4.5
735.101	6.5
735.852	4.5
736.603	2.5
737.354	6.5
738.104	6.5
738.855	4.5
739.605	5.5
740.356	5.5
741.106	4.5
741.856	3.5
742.607	7.5
743.357	5.5
744.107	4.5
744.857	7.5
745.607	6.5
746.357	6.5
747.106	7.5
747.856	6.5
748.606	5.5
749.355	2.5
750.105	6.5
750.854	6.5
751.603	3.5
752.353	6.5
753.102	5.5
753.851	8.5
754.6	6.5
755.349	9.5
756.098	6.5
756.847	5.5
757.595	6.5
758.344	5.5
759.093	7.5
759.841	5.5
760.589	8.5
761.338	6.5
762.086	7.5
762.834	8.5
763.582	6.5
764.331	9.5
765.079	7.5
765.826	5.5
766.574	8.5
767.322	7.5
768.07	8.5
768.817	9.5
769.565	7.5
770.312	6.5
771.06	8.5
771.807	10.5
772.554	8.5
773.302	11.5
774.049	7.5
774.796	10.5
775.543	9.5
776.29	5.5
777.036	11.5
777.783	9.5
778.53	9.5
779.276	9.5
780.023	9.5
780.769	13.5
781.516	9.5
782.262	11.5
783.008	13.5
783.754	9.5
784.5	10.5
785.246	7.5
785.992	10.5
786.738	9.5
787.484	9.5
788.23	8.5
788.975	9.5
789.721	10.5
790.466	8.5
791.212	11.5
791.957	9.5
792.702	9.5
793.447	10.5
794.193	8.5
794.938	9.5
795.683	7.5
796.427	8.5
797.172	8.5
797.917	8.5
798.662	7.5
799.406	7.5
800.151	11.5
800.895	8.5
801.64	7.5
802.384	9.5
803.128	6.5
803.872	8.5
804.616	5.5
805.36	9.5
806.104	6.5
806.848	7.5
807.592	7.5
808.336	7.5
809.079	7.5
809.823	7.5
810.566	8.5
811.31	5.5
812.053	7.5
812.796	6.5
813.539	5.5
814.283	7.5
815.026	3.5
815.769	5.5
816.511	7.5
817.254	5.5
817.997	5.5
818.74	4.5
819.482	3.5
820.225	3.5
820.967	5.5
821.71	6.5
822.452	4.5
823.194	7.5
823.936	4.5
824.678	3.5
825.42	5.5
826.162	4.5
826.904	6.5
827.646	4.5
828.388	3.5
829.129	1.5
829.871	4.5
830.612	6.5
831.354	4.5
832.095	4.5
832.836	5.5
833.577	3.5
834.319	3.5
835.06	6.5
835.801	4.5
836.542	4.5
837.282	3.5
838.023	5.5
838.764	0.5
839.504	2.5
840.245	2.5
840.985	4.5
841.726	3.5
842.466	1.5
843.206	5.5
843.946	3.5
844.687	4.5
845.427	3.5
846.166	3.5
846.906	2.5
847.646	3.5
848.386	3.5
849.125	3.5
849.865	3.5
850.605	2.5
851.344	4.5
852.083	4.5
852.823	2.5
853.562	2.5
854.301	2.5
855.04	3.5
855.779	3.5
856.518	0.5
857.257	2.5
857.995	3.5
858.734	5.5
859.473	2.5
860.211	1.5
860.95	3.5
861.688	1.5
862.426	2.5
863.165	1.5
863.903	4.5
864.641	4.5
865.379	1.5
866.117	2.5
866.855	3.5
867.593	2.5
868.33	4.5
869.068	3.5
869.806	0.5
870.543	2.5
871.28	4.5
872.018	2.5
872.755	1.5
873.492	1.5
874.229	0.5
874.967	2.5
875.703	0.5
876.44	1.5
877.177	1.5
877.914	0.5
878.651	1.5
879.387	1.5
880.124	2.5
880.86	2.5
881.597	1.5
882.333	2.5
883.069	0.5
883.806	1.5
884.542	0.5
885.278	2.5
886.014	2.5
886.749	1.5
887.485	1.5
888.221	2.5
888.957	1.5
889.692	1.5
890.428	2.5
891.163	2.5
891.899	-1.5
892.634	2.5
893.369	0.5
894.104	0.5
894.839	1.5
895.574	1.5
896.309	0.5
897.044	1.5
897.779	4.5
898.514	2.5
899.248	1.5
899.983	2.5
900.717	-1.5
901.452	0.5
902.186	0.5
902.92	3.5
903.654	1.5
904.389	1.5
905.123	1.5
905.857	-1.5
906.59	1.5
907.324	2.5
908.058	1.5
908.792	3.5
909.525	-0.5
910.259	3.5
910.992	1.5
911.726	1.5
912.459	1.5
913.192	3.5
913.925	1.5
914.658	0.5
915.391	0.5
916.124	1.5
916.857	3.5
917.59	-0.5
918.323	1.5
919.055	0.5
919.788	1.5
920.521	0.5
921.253	1.5
921.985	2.5
922.718	-0.5
923.45	-2.5
924.182	-0.5
924.914	-0.5
925.646	0.5
926.378	0.5
927.11	0.5
927.841	2.5
928.573	2.5
929.305	2.5
930.036	2.5
930.768	-0.5
931.499	3.5
932.23	-0.5
932.962	-0.5
933.693	1.5
934.424	1.5
935.155	1.5
935.886	-0.5
936.617	0.5
937.348	2.5
938.078	-1.5
938.809	0.5
939.54	0.5
940.27	-0.5
941.001	1.5
941.731	3.5
942.461	-0.5
943.191	-1.5
943.922	1.5
944.652	0.5
945.382	4.5
946.112	1.5
946.841	2.5
947.571	0.5
948.301	1.5
949.031	2.5
949.76	1.5
950.49	0.5
951.219	-0.5
951.948	0.5
952.678	-0.5
953.407	-1.5
954.136	2.5
954.865	2.5
955.594	2.5
956.323	0.5
957.052	1.5
957.78	1.5
958.509	0.5
959.238	1.5
959.966	-0.5
960.695	1.5
961.423	1.5
962.151	1.5
962.88	1.5
963.608	0.5
964.336	-0.5
965.064	-0.5
965.792	0.5
966.52	0.5
967.247	0.5
967.975	-0.5
968.703	0.5
969.43	0.5
970.158	1.5
970.885	0.5
971.613	1.5
972.34	1.5
973.067	1.5
973.794	-0.5
974.521	0.5
975.248	-1.5
975.975	-0.5
976.702	0.5
977.429	1.5
978.156	1.5
978.882	1.5
979.609	-0.5
980.335	-0.5
981.062	0.5
981.788	2.5
982.514	3.5
983.24	0.5
983.967	1.5
984.693	1.5
985.419	3.5
986.144	0.5
986.87	-1.5
987.596	-0.5
988.322	-0.5
989.047	1.5
989.773	-0.5
990.498	0.5
991.224	2.5
991.949	2.5
992.674	2.5
993.399	-0.5
994.124	0.5
994.849	1.5
995.574	-0.5
996.299	0.5
997.024	-1.5
997.749	2.5
998.473	0.5
999.198	-0.5
999.922	1.5
1000.647	1.5
1001.371	4.5
1002.095	-1.5
1002.82	-0.5
1003.544	-2.5
1004.268	0.5
1004.992	3.5
1005.716	0.5
1006.439	3.5
1007.163	3.5
1007.887	1.5
1008.611	0.5
1009.334	0.5
1010.058	0.5
1010.781	1.5
1011.504	1.5
1012.228	0.5
1012.951	-0.5
1013.674	1.5
1014.397	-0.5
1015.12	-0.5
