节点500_285_QEPB04081__379__15-01-51-668.txt的数据

Date: Wed Nov 12 15:01:51 CST 2025
User: PC
Spectrometer: QEPB0408
触发模式: 0
积分时间 (秒): 1.000000E-2
Scans to average: 1
启用暗噪声校正: true
启用非线性校正: false
滑动平均宽度: 0
X轴模式: Wavelengths
Number of Pixels in Spectrum: 1044
>>>>>Begin Spectral Data<<<<<
220.843	1.5
221.644	3.5
222.444	2.5
223.244	0.5
224.045	1.5
224.845	1.5
225.645	1.5
226.445	1.5
227.245	1.5
228.045	2.5
228.845	5.5
229.645	2.5
230.444	4.5
231.244	4.5
232.043	4.5
232.843	5.5
233.642	4.5
234.442	5.5
235.241	3.5
236.04	4.5
236.839	5.5
237.638	5.5
238.437	3.5
239.236	5.5
240.035	5.5
240.833	4.5
241.632	5.5
242.43	6.5
243.229	3.5
244.027	4.5
244.826	3.5
245.624	5.5
246.422	5.5
247.22	6.5
248.018	8.5
248.816	3.5
249.614	7.5
250.412	9.5
251.21	7.5
252.007	8.5
252.805	6.5
253.602	7.5
254.4	7.5
255.197	8.5
255.994	8.5
256.791	5.5
257.589	8.5
258.386	10.5
259.183	12.5
259.979	11.5
260.776	10.5
261.573	9.5
262.37	10.5
263.166	12.5
263.963	11.5
264.759	12.5
265.556	11.5
266.352	12.5
267.148	14.5
267.944	15.5
268.74	14.5
269.536	17.5
270.332	17.5
271.128	15.5
271.924	16.5
272.719	15.5
273.515	15.5
274.311	21.5
275.106	17.5
275.901	17.5
276.697	18.5
277.492	17.5
278.287	18.5
279.082	18.5
279.877	21.5
280.672	19.5
281.467	19.5
282.262	21.5
283.056	18.5
283.851	20.5
284.646	18.5
285.44	18.5
286.234	22.5
287.029	18.5
287.823	20.5
288.617	21.5
289.411	20.5
290.205	18.5
290.999	17.5
291.793	20.5
292.587	17.5
293.381	18.5
294.174	20.5
294.968	20.5
295.761	16.5
296.555	16.5
297.348	15.5
298.141	14.5
298.935	17.5
299.728	16.5
300.521	12.5
301.314	13.5
302.107	14.5
302.899	14.5
303.692	12.5
304.485	13.5
305.277	15.5
306.07	14.5
306.862	14.5
307.655	10.5
308.447	14.5
309.239	11.5
310.031	10.5
310.823	12.5
311.615	11.5
312.407	8.5
313.199	10.5
313.991	10.5
314.783	9.5
315.574	10.5
316.366	11.5
317.157	8.5
317.949	8.5
318.74	8.5
319.531	10.5
320.322	6.5
321.113	9.5
321.904	8.5
322.695	7.5
323.486	9.5
324.277	5.5
325.068	7.5
325.858	6.5
326.649	6.5
327.439	8.5
328.23	7.5
329.02	7.5
329.81	7.5
330.6	5.5
331.391	8.5
332.181	6.5
332.971	8.5
333.76	6.5
334.55	6.5
335.34	6.5
336.13	9.5
336.919	7.5
337.709	8.5
338.498	7.5
339.287	6.5
340.077	6.5
340.866	6.5
341.655	5.5
342.444	6.5
343.233	5.5
344.022	7.5
344.811	6.5
345.6	6.5
346.388	8.5
347.177	6.5
347.965	7.5
348.754	6.5
349.542	9.5
350.33	6.5
351.119	7.5
351.907	6.5
352.695	6.5
353.483	9.5
354.271	8.5
355.059	7.5
355.846	6.5
356.634	5.5
357.422	6.5
358.209	7.5
358.997	7.5
359.784	7.5
360.571	8.5
361.359	4.5
362.146	5.5
362.933	5.5
363.72	7.5
364.507	4.5
365.294	6.5
366.081	7.5
366.867	5.5
367.654	4.5
368.44	6.5
369.227	2.5
370.013	4.5
370.8	5.5
371.586	4.5
372.372	5.5
373.158	7.5
373.944	8.5
374.73	6.5
375.516	8.5
376.302	7.5
377.088	6.5
377.873	6.5
378.659	2.5
379.445	8.5
380.23	6.5
381.015	7.5
381.801	6.5
382.586	4.5
383.371	8.5
384.156	6.5
384.941	4.5
385.726	5.5
386.511	5.5
387.296	6.5
388.08	4.5
388.865	7.5
389.649	6.5
390.434	5.5
391.218	8.5
392.003	5.5
392.787	7.5
393.571	7.5
394.355	7.5
395.139	6.5
395.923	7.5
396.707	6.5
397.491	5.5
398.274	7.5
399.058	7.5
399.842	6.5
400.625	7.5
401.408	8.5
402.192	8.5
402.975	8.5
403.758	9.5
404.541	6.5
405.324	8.5
406.107	9.5
406.89	8.5
407.673	10.5
408.456	9.5
409.238	8.5
410.021	8.5
410.803	7.5
411.586	10.5
412.368	9.5
413.151	8.5
413.933	8.5
414.715	10.5
415.497	10.5
416.279	10.5
417.061	8.5
417.843	10.5
418.624	12.5
419.406	11.5
420.188	10.5
420.969	10.5
421.751	10.5
422.532	9.5
423.313	8.5
424.095	13.5
424.876	10.5
425.657	10.5
426.438	12.5
427.219	12.5
428	14.5
428.78	12.5
429.561	15.5
430.342	15.5
431.122	15.5
431.903	16.5
432.683	13.5
433.464	20.5
434.244	15.5
435.024	15.5
435.804	20.5
436.584	18.5
437.364	19.5
438.144	17.5
438.924	21.5
439.704	20.5
440.483	26.5
441.263	23.5
442.042	27.5
442.822	25.5
443.601	27.5
444.38	33.5
445.16	32.5
445.939	32.5
446.718	36.5
447.497	40.5
448.276	46.5
449.054	45.5
449.833	50.5
450.612	52.5
451.391	56.5
452.169	64.5
452.948	70.5
453.726	78.5
454.504	79.5
455.282	91.5
456.061	99.5
456.839	112.5
457.617	127.5
458.395	138.5
459.172	152.5
459.95	165.5
460.728	181.5
461.506	215.5
462.283	238.5
463.061	265.5
463.838	297.5
464.615	318.5
465.393	370.5
466.17	403.5
466.947	450.5
467.724	500.5
468.501	560.5
469.278	618.5
470.055	698.5
470.831	770.5
471.608	854.5
472.385	949.5
473.161	1050.5
473.938	1163.5
474.714	1300.5
475.49	1435.5
476.266	1580.5
477.043	1749.5
477.819	1933.5
478.595	2126.5
479.371	2350.5
480.146	2590.5
480.922	2848.5
481.698	3155.5
482.473	3468.5
483.249	3818.5
484.024	4215.5
484.8	4612.5
485.575	5059.5
486.35	5535.5
487.126	6069.5
487.901	6708.5
488.676	7325.5
489.451	8034.5
490.225	8750.5
491	9556.5
491.775	10464.5
492.55	11334.5
493.324	12335.5
494.099	13219.5
494.873	14320.5
495.647	15436.5
496.422	16534.5
497.196	17724.5
497.97	18894.5
498.744	20147.5
499.518	21254.5
500.292	22372.5
501.066	23475.5
501.839	24429.5
502.613	25326.5
503.387	26117.5
504.16	26726.5
504.934	27067.5
505.707	27334.5
506.48	27381.5
507.253	27286.5
508.027	27074.5
508.8	26695.5
509.573	26295.5
510.346	25723.5
511.118	24983.5
511.891	24198.5
512.664	23318.5
513.437	22484.5
514.209	21578.5
514.982	20699.5
515.754	19845.5
516.526	18939.5
517.298	18057.5
518.071	17265.5
518.843	16665.5
519.615	16018.5
520.387	15392.5
521.159	14756.5
521.93	14201.5
522.702	13604.5
523.474	13042.5
524.245	12484.5
525.017	11964.5
525.788	11533.5
526.56	11002.5
527.331	10426.5
528.102	10018.5
528.873	9544.5
529.644	9082.5
530.415	8643.5
531.186	8193.5
531.957	7724.5
532.728	7376.5
533.498	6990.5
534.269	6577.5
535.039	6233.5
535.81	5884.5
536.58	5562.5
537.351	5247.5
538.121	4960.5
538.891	4678.5
539.661	4435.5
540.431	4190.5
541.201	3959.5
541.971	3762.5
542.741	3559.5
543.51	3383.5
544.28	3229.5
545.05	3066.5
545.819	2912.5
546.588	2760.5
547.358	2636.5
548.127	2503.5
548.896	2364.5
549.665	2249.5
550.434	2136.5
551.203	2008.5
551.972	1920.5
552.741	1792.5
553.51	1701.5
554.278	1617.5
555.047	1520.5
555.815	1432.5
556.584	1358.5
557.352	1283.5
558.121	1207.5
558.889	1142.5
559.657	1081.5
560.425	1007.5
561.193	956.5
561.961	898.5
562.729	849.5
563.496	802.5
564.264	762.5
565.032	710.5
565.799	683.5
566.567	653.5
567.334	610.5
568.101	575.5
568.869	539.5
569.636	517.5
570.403	481.5
571.17	455.5
571.937	426.5
572.704	405.5
573.471	386.5
574.237	362.5
575.004	330.5
575.771	322.5
576.537	295.5
577.303	293.5
578.07	268.5
578.836	254.5
579.602	238.5
580.368	230.5
581.134	217.5
581.9	201.5
582.666	190.5
583.432	183.5
584.198	174.5
584.964	163.5
585.729	157.5
586.495	144.5
587.26	138.5
588.025	129.5
588.791	129.5
589.556	116.5
590.321	110.5
591.086	110.5
591.851	98.5
592.616	92.5
593.381	87.5
594.146	87.5
594.911	80.5
595.675	79.5
596.44	76.5
597.204	74.5
597.969	70.5
598.733	68.5
599.497	62.5
600.261	58.5
601.025	59.5
601.79	54.5
602.553	51.5
603.317	49.5
604.081	47.5
604.845	46.5
605.609	42.5
606.372	44.5
607.136	41.5
607.899	38.5
608.662	38.5
609.426	38.5
610.189	37.5
610.952	34.5
611.715	34.5
612.478	33.5
613.241	29.5
614.004	29.5
614.767	28.5
615.529	25.5
616.292	25.5
617.055	23.5
617.817	24.5
618.579	21.5
619.342	24.5
620.104	22.5
620.866	24.5
621.628	21.5
622.39	21.5
623.152	20.5
623.914	19.5
624.676	18.5
625.438	17.5
626.199	18.5
626.961	16.5
627.722	17.5
628.484	15.5
629.245	16.5
630.006	15.5
630.768	14.5
631.529	14.5
632.29	14.5
633.051	13.5
633.812	14.5
634.573	13.5
635.333	11.5
636.094	13.5
636.855	12.5
637.615	12.5
638.376	11.5
639.136	11.5
639.896	11.5
640.657	10.5
641.417	10.5
642.177	9.5
642.937	11.5
643.697	9.5
644.457	9.5
645.216	9.5
645.976	8.5
646.736	6.5
647.495	8.5
648.255	9.5
649.014	7.5
649.774	8.5
650.533	11.5
651.292	7.5
652.051	8.5
652.81	7.5
653.569	8.5
654.328	9.5
655.087	7.5
655.846	7.5
656.604	8.5
657.363	6.5
658.121	2.5
658.88	6.5
659.638	8.5
660.397	8.5
661.155	7.5
661.913	4.5
662.671	5.5
663.429	4.5
664.187	5.5
664.945	5.5
665.703	6.5
666.46	8.5
667.218	2.5
667.976	7.5
668.733	5.5
669.49	9.5
670.248	6.5
671.005	6.5
671.762	4.5
672.519	5.5
673.276	5.5
674.033	5.5
674.79	5.5
675.547	6.5
676.304	3.5
677.06	2.5
677.817	4.5
678.574	7.5
679.33	4.5
680.086	2.5
680.843	5.5
681.599	2.5
682.355	4.5
683.111	3.5
683.867	5.5
684.623	5.5
685.379	4.5
686.135	4.5
686.89	4.5
687.646	5.5
688.402	4.5
689.157	4.5
689.912	3.5
690.668	3.5
691.423	6.5
692.178	5.5
692.933	6.5
693.688	4.5
694.443	0.5
695.198	3.5
695.953	4.5
696.708	3.5
697.462	3.5
698.217	4.5
698.972	5.5
699.726	4.5
700.48	4.5
701.235	3.5
701.989	4.5
702.743	5.5
703.497	3.5
704.251	7.5
705.005	3.5
705.759	5.5
706.513	6.5
707.266	3.5
708.02	3.5
708.774	4.5
709.527	5.5
710.28	6.5
711.034	8.5
711.787	6.5
712.54	6.5
713.293	3.5
714.046	2.5
714.799	4.5
715.552	4.5
716.305	3.5
717.058	4.5
717.81	4.5
718.563	4.5
719.315	3.5
720.068	3.5
720.82	2.5
721.573	5.5
722.325	5.5
723.077	4.5
723.829	6.5
724.581	1.5
725.333	5.5
726.085	6.5
726.836	4.5
727.588	5.5
728.34	5.5
729.091	4.5
729.843	3.5
730.594	6.5
731.346	6.5
732.097	3.5
732.848	5.5
733.599	4.5
734.35	5.5
735.101	3.5
735.852	3.5
736.603	5.5
737.354	4.5
738.104	5.5
738.855	5.5
739.605	4.5
740.356	4.5
741.106	4.5
741.856	6.5
742.607	6.5
743.357	7.5
744.107	4.5
744.857	5.5
745.607	7.5
746.357	7.5
747.106	5.5
747.856	5.5
748.606	7.5
749.355	5.5
750.105	6.5
750.854	5.5
751.603	4.5
752.353	7.5
753.102	3.5
753.851	7.5
754.6	5.5
755.349	5.5
756.098	5.5
756.847	6.5
757.595	7.5
758.344	6.5
759.093	6.5
759.841	8.5
760.589	6.5
761.338	6.5
762.086	7.5
762.834	5.5
763.582	7.5
764.331	8.5
765.079	3.5
765.826	7.5
766.574	8.5
767.322	9.5
768.07	8.5
768.817	9.5
769.565	8.5
770.312	8.5
771.06	5.5
771.807	9.5
772.554	13.5
773.302	8.5
774.049	9.5
774.796	10.5
775.543	6.5
776.29	8.5
777.036	9.5
777.783	8.5
778.53	9.5
779.276	8.5
780.023	9.5
780.769	9.5
781.516	11.5
782.262	10.5
783.008	11.5
783.754	10.5
784.5	9.5
785.246	8.5
785.992	10.5
786.738	10.5
787.484	11.5
788.23	10.5
788.975	6.5
789.721	9.5
790.466	9.5
791.212	8.5
791.957	6.5
792.702	9.5
793.447	7.5
794.193	9.5
794.938	8.5
795.683	8.5
796.427	8.5
797.172	9.5
797.917	9.5
798.662	9.5
799.406	6.5
800.151	7.5
800.895	5.5
801.64	8.5
802.384	5.5
803.128	6.5
803.872	9.5
804.616	9.5
805.36	8.5
806.104	6.5
806.848	6.5
807.592	6.5
808.336	6.5
809.079	7.5
809.823	7.5
810.566	6.5
811.31	4.5
812.053	5.5
812.796	9.5
813.539	5.5
814.283	7.5
815.026	7.5
815.769	6.5
816.511	6.5
817.254	5.5
817.997	3.5
818.74	6.5
819.482	6.5
820.225	3.5
820.967	6.5
821.71	5.5
822.452	5.5
823.194	6.5
823.936	5.5
824.678	3.5
825.42	6.5
826.162	6.5
826.904	2.5
827.646	2.5
828.388	4.5
829.129	5.5
829.871	4.5
830.612	4.5
831.354	4.5
832.095	7.5
832.836	4.5
833.577	3.5
834.319	4.5
835.06	5.5
835.801	4.5
836.542	3.5
837.282	3.5
838.023	3.5
838.764	7.5
839.504	3.5
840.245	2.5
840.985	3.5
841.726	4.5
842.466	3.5
843.206	5.5
843.946	4.5
844.687	5.5
845.427	2.5
846.166	3.5
846.906	2.5
847.646	3.5
848.386	3.5
849.125	4.5
849.865	3.5
850.605	2.5
851.344	3.5
852.083	4.5
852.823	6.5
853.562	5.5
854.301	0.5
855.04	2.5
855.779	4.5
856.518	2.5
857.257	3.5
857.995	3.5
858.734	2.5
859.473	3.5
860.211	3.5
860.95	1.5
861.688	1.5
862.426	7.5
863.165	1.5
863.903	4.5
864.641	4.5
865.379	4.5
866.117	1.5
866.855	4.5
867.593	1.5
868.33	1.5
869.068	1.5
869.806	1.5
870.543	3.5
871.28	3.5
872.018	1.5
872.755	1.5
873.492	2.5
874.229	2.5
874.967	1.5
875.703	1.5
876.44	2.5
877.177	3.5
877.914	3.5
878.651	4.5
879.387	2.5
880.124	0.5
880.86	2.5
881.597	3.5
882.333	1.5
883.069	2.5
883.806	1.5
884.542	1.5
885.278	0.5
886.014	3.5
886.749	1.5
887.485	3.5
888.221	3.5
888.957	-0.5
889.692	1.5
890.428	2.5
891.163	-0.5
891.899	2.5
892.634	1.5
893.369	3.5
894.104	3.5
894.839	1.5
895.574	2.5
896.309	-1.5
897.044	2.5
897.779	1.5
898.514	1.5
899.248	2.5
899.983	2.5
900.717	0.5
901.452	1.5
902.186	1.5
902.92	0.5
903.654	2.5
904.389	0.5
905.123	0.5
905.857	0.5
906.59	0.5
907.324	2.5
908.058	-0.5
908.792	1.5
909.525	2.5
910.259	0.5
910.992	2.5
911.726	-1.5
912.459	4.5
913.192	0.5
913.925	0.5
914.658	2.5
915.391	0.5
916.124	1.5
916.857	2.5
917.59	1.5
918.323	3.5
919.055	2.5
919.788	3.5
920.521	-0.5
921.253	1.5
921.985	1.5
922.718	1.5
923.45	1.5
924.182	4.5
924.914	0.5
925.646	1.5
926.378	1.5
927.11	1.5
927.841	2.5
928.573	0.5
929.305	0.5
930.036	1.5
930.768	2.5
931.499	3.5
932.23	-0.5
932.962	1.5
933.693	2.5
934.424	0.5
935.155	0.5
935.886	0.5
936.617	1.5
937.348	0.5
938.078	1.5
938.809	0.5
939.54	0.5
940.27	1.5
941.001	2.5
941.731	0.5
942.461	0.5
943.191	0.5
943.922	0.5
944.652	-0.5
945.382	2.5
946.112	-0.5
946.841	0.5
947.571	2.5
948.301	-1.5
949.031	0.5
949.76	2.5
950.49	1.5
951.219	0.5
951.948	1.5
952.678	0.5
953.407	0.5
954.136	1.5
954.865	3.5
955.594	0.5
956.323	1.5
957.052	0.5
957.78	2.5
958.509	2.5
959.238	2.5
959.966	0.5
960.695	2.5
961.423	3.5
962.151	2.5
962.88	1.5
963.608	1.5
964.336	3.5
965.064	0.5
965.792	1.5
966.52	5.5
967.247	1.5
967.975	2.5
968.703	2.5
969.43	1.5
970.158	-0.5
970.885	-0.5
971.613	0.5
972.34	1.5
973.067	-0.5
973.794	2.5
974.521	0.5
975.248	-0.5
975.975	0.5
976.702	1.5
977.429	1.5
978.156	1.5
978.882	2.5
979.609	0.5
980.335	0.5
981.062	1.5
981.788	3.5
982.514	3.5
983.24	-0.5
983.967	0.5
984.693	1.5
985.419	4.5
986.144	0.5
986.87	1.5
987.596	0.5
988.322	-0.5
989.047	-0.5
989.773	0.5
990.498	0.5
991.224	0.5
991.949	1.5
992.674	0.5
993.399	1.5
994.124	1.5
994.849	2.5
995.574	0.5
996.299	0.5
997.024	-0.5
997.749	3.5
998.473	-0.5
999.198	-1.5
999.922	0.5
1000.647	0.5
1001.371	4.5
1002.095	0.5
1002.82	-1.5
1003.544	-4.5
1004.268	1.5
1004.992	1.5
1005.716	-1.5
1006.439	3.5
1007.163	2.5
1007.887	2.5
1008.611	-0.5
1009.334	2.5
1010.058	3.5
1010.781	-0.5
1011.504	4.5
1012.228	-1.5
1012.951	1.5
1013.674	1.5
1014.397	0.5
1015.12	-2.5
