节点500_285_QEPB04081__641__15-06-13-041.txt的数据

Date: Wed Nov 12 15:06:13 CST 2025
User: PC
Spectrometer: QEPB0408
触发模式: 0
积分时间 (秒): 1.000000E-2
Scans to average: 1
启用暗噪声校正: true
启用非线性校正: false
滑动平均宽度: 0
X轴模式: Wavelengths
Number of Pixels in Spectrum: 1044
>>>>>Begin Spectral Data<<<<<
220.843	1.88
221.644	1.88
222.444	1.88
223.244	1.88
224.045	2.88
224.845	1.88
225.645	1.88
226.445	0.88
227.245	0.88
228.045	3.88
228.845	1.88
229.645	1.88
230.444	1.88
231.244	4.88
232.043	1.88
232.843	2.88
233.642	3.88
234.442	4.88
235.241	5.88
236.04	1.88
236.839	3.88
237.638	4.88
238.437	4.88
239.236	2.88
240.035	1.88
240.833	3.88
241.632	4.88
242.43	1.88
243.229	3.88
244.027	3.88
244.826	3.88
245.624	4.88
246.422	3.88
247.22	6.88
248.018	4.88
248.816	7.88
249.614	2.88
250.412	4.88
251.21	3.88
252.007	10.88
252.805	6.88
253.602	4.88
254.4	5.88
255.197	7.88
255.994	6.88
256.791	5.88
257.589	6.88
258.386	6.88
259.183	6.88
259.979	7.88
260.776	9.88
261.573	8.88
262.37	6.88
263.166	9.88
263.963	9.88
264.759	8.88
265.556	8.88
266.352	10.88
267.148	11.88
267.944	13.88
268.74	10.88
269.536	14.88
270.332	12.88
271.128	14.88
271.924	12.88
272.719	13.88
273.515	12.88
274.311	13.88
275.106	14.88
275.901	14.88
276.697	16.88
277.492	17.88
278.287	16.88
279.082	16.88
279.877	15.88
280.672	19.88
281.467	16.88
282.262	18.88
283.056	17.88
283.851	21.88
284.646	22.88
285.44	14.88
286.234	17.88
287.029	17.88
287.823	16.88
288.617	17.88
289.411	16.88
290.205	20.88
290.999	18.88
291.793	17.88
292.587	16.88
293.381	14.88
294.174	14.88
294.968	15.88
295.761	14.88
296.555	15.88
297.348	14.88
298.141	16.88
298.935	15.88
299.728	13.88
300.521	14.88
301.314	13.88
302.107	13.88
302.899	13.88
303.692	10.88
304.485	13.88
305.277	13.88
306.07	11.88
306.862	13.88
307.655	8.88
308.447	13.88
309.239	12.88
310.031	10.88
310.823	11.88
311.615	8.88
312.407	8.88
313.199	9.88
313.991	7.88
314.783	12.88
315.574	9.88
316.366	10.88
317.157	9.88
317.949	6.88
318.74	7.88
319.531	6.88
320.322	6.88
321.113	5.88
321.904	6.88
322.695	7.88
323.486	6.88
324.277	8.88
325.068	3.88
325.858	5.88
326.649	5.88
327.439	7.88
328.23	6.88
329.02	5.88
329.81	6.88
330.6	5.88
331.391	6.88
332.181	7.88
332.971	6.88
333.76	6.88
334.55	6.88
335.34	5.88
336.13	1.88
336.919	6.88
337.709	8.88
338.498	8.88
339.287	4.88
340.077	5.88
340.866	6.88
341.655	6.88
342.444	4.88
343.233	6.88
344.022	3.88
344.811	6.88
345.6	6.88
346.388	4.88
347.177	7.88
347.965	4.88
348.754	4.88
349.542	5.88
350.33	4.88
351.119	6.88
351.907	4.88
352.695	5.88
353.483	5.88
354.271	6.88
355.059	4.88
355.846	6.88
356.634	6.88
357.422	6.88
358.209	6.88
358.997	5.88
359.784	4.88
360.571	7.88
361.359	7.88
362.146	6.88
362.933	5.88
363.72	4.88
364.507	4.88
365.294	3.88
366.081	3.88
366.867	2.88
367.654	3.88
368.44	5.88
369.227	3.88
370.013	4.88
370.8	6.88
371.586	4.88
372.372	4.88
373.158	3.88
373.944	3.88
374.73	4.88
375.516	5.88
376.302	3.88
377.088	4.88
377.873	5.88
378.659	5.88
379.445	4.88
380.23	4.88
381.015	4.88
381.801	3.88
382.586	5.88
383.371	7.88
384.156	5.88
384.941	4.88
385.726	5.88
386.511	4.88
387.296	4.88
388.08	3.88
388.865	4.88
389.649	8.88
390.434	3.88
391.218	6.88
392.003	4.88
392.787	4.88
393.571	7.88
394.355	6.88
395.139	8.88
395.923	4.88
396.707	5.88
397.491	6.88
398.274	7.88
399.058	5.88
399.842	4.88
400.625	5.88
401.408	6.88
402.192	8.88
402.975	6.88
403.758	8.88
404.541	8.88
405.324	6.88
406.107	5.88
406.89	6.88
407.673	7.88
408.456	7.88
409.238	7.88
410.021	9.88
410.803	8.88
411.586	8.88
412.368	6.88
413.151	6.88
413.933	8.88
414.715	10.88
415.497	7.88
416.279	7.88
417.061	7.88
417.843	8.88
418.624	8.88
419.406	10.88
420.188	8.88
420.969	9.88
421.751	7.88
422.532	10.88
423.313	9.88
424.095	10.88
424.876	12.88
425.657	9.88
426.438	9.88
427.219	10.88
428	11.88
428.78	15.88
429.561	12.88
430.342	12.88
431.122	13.88
431.903	13.88
432.683	14.88
433.464	16.88
434.244	15.88
435.024	15.88
435.804	16.88
436.584	15.88
437.364	18.88
438.144	18.88
438.924	20.88
439.704	18.88
440.483	21.88
441.263	24.88
442.042	23.88
442.822	27.88
443.601	26.88
444.38	30.88
445.16	30.88
445.939	32.88
446.718	38.88
447.497	38.88
448.276	44.88
449.054	44.88
449.833	47.88
450.612	55.88
451.391	56.88
452.169	65.88
452.948	72.88
453.726	79.88
454.504	85.88
455.282	97.88
456.061	104.88
456.839	119.88
457.617	134.88
458.395	142.88
459.172	165.88
459.95	185.88
460.728	200.88
461.506	223.88
462.283	245.88
463.061	282.88
463.838	311.88
464.615	350.88
465.393	391.88
466.17	423.88
466.947	481.88
467.724	533.88
468.501	588.88
469.278	651.88
470.055	732.88
470.831	793.88
471.608	892.88
472.385	988.88
473.161	1098.88
473.938	1196.88
474.714	1317.88
475.49	1465.88
476.266	1606.88
477.043	1772.88
477.819	1935.88
478.595	2136.88
479.371	2344.88
480.146	2550.88
480.922	2813.88
481.698	3077.88
482.473	3384.88
483.249	3703.88
484.024	4070.88
484.8	4431.88
485.575	4829.88
486.35	5289.88
487.126	5768.88
487.901	6295.88
488.676	6840.88
489.451	7479.88
490.225	8145.88
491	8907.88
491.775	9596.88
492.55	10466.88
493.324	11301.88
494.099	12140.88
494.873	13057.88
495.647	14130.88
496.422	15086.88
497.196	16171.88
497.97	17206.88
498.744	18338.88
499.518	19447.88
500.292	20450.88
501.066	21562.88
501.839	22348.88
502.613	23407.88
503.387	24202.88
504.16	24846.88
504.934	25284.88
505.707	25643.88
506.48	25814.88
507.253	25885.88
508.027	25864.88
508.8	25747.88
509.573	25478.88
510.346	25054.88
511.118	24406.88
511.891	23845.88
512.664	23134.88
513.437	22377.88
514.209	21507.88
514.982	20756.88
515.754	19911.88
516.526	19028.88
517.298	18323.88
518.071	17554.88
518.843	16867.88
519.615	16210.88
520.387	15564.88
521.159	14960.88
521.93	14321.88
522.702	13787.88
523.474	13278.88
524.245	12646.88
525.017	12120.88
525.788	11683.88
526.56	11148.88
527.331	10631.88
528.102	10193.88
528.873	9705.88
529.644	9281.88
530.415	8863.88
531.186	8445.88
531.957	8009.88
532.728	7613.88
533.498	7234.88
534.269	6828.88
535.039	6479.88
535.81	6141.88
536.58	5773.88
537.351	5456.88
538.121	5157.88
538.891	4888.88
539.661	4624.88
540.431	4374.88
541.201	4123.88
541.971	3895.88
542.741	3709.88
543.51	3518.88
544.28	3366.88
545.05	3193.88
545.819	3028.88
546.588	2882.88
547.358	2739.88
548.127	2589.88
548.896	2487.88
549.665	2358.88
550.434	2232.88
551.203	2129.88
551.972	2014.88
552.741	1887.88
553.51	1791.88
554.278	1692.88
555.047	1597.88
555.815	1510.88
556.584	1420.88
557.352	1354.88
558.121	1269.88
558.889	1219.88
559.657	1152.88
560.425	1071.88
561.193	1012.88
561.961	956.88
562.729	906.88
563.496	849.88
564.264	808.88
565.032	768.88
565.799	722.88
566.567	684.88
567.334	640.88
568.101	612.88
568.869	581.88
569.636	534.88
570.403	509.88
571.17	484.88
571.937	457.88
572.704	431.88
573.471	397.88
574.237	380.88
575.004	362.88
575.771	346.88
576.537	317.88
577.303	298.88
578.07	280.88
578.836	269.88
579.602	251.88
580.368	239.88
581.134	230.88
581.9	208.88
582.666	201.88
583.432	193.88
584.198	178.88
584.964	173.88
585.729	167.88
586.495	153.88
587.26	149.88
588.025	137.88
588.791	126.88
589.556	127.88
590.321	115.88
591.086	113.88
591.851	109.88
592.616	100.88
593.381	97.88
594.146	95.88
594.911	84.88
595.675	83.88
596.44	79.88
597.204	71.88
597.969	70.88
598.733	68.88
599.497	66.88
600.261	63.88
601.025	60.88
601.79	53.88
602.553	58.88
603.317	53.88
604.081	51.88
604.845	50.88
605.609	45.88
606.372	42.88
607.136	41.88
607.899	40.88
608.662	39.88
609.426	37.88
610.189	35.88
610.952	34.88
611.715	35.88
612.478	32.88
613.241	29.88
614.004	28.88
614.767	25.88
615.529	26.88
616.292	26.88
617.055	28.88
617.817	23.88
618.579	21.88
619.342	22.88
620.104	20.88
620.866	17.88
621.628	20.88
622.39	20.88
623.152	19.88
623.914	16.88
624.676	16.88
625.438	17.88
626.199	16.88
626.961	15.88
627.722	18.88
628.484	14.88
629.245	15.88
630.006	16.88
630.768	12.88
631.529	13.88
632.29	11.88
633.051	12.88
633.812	11.88
634.573	10.88
635.333	10.88
636.094	9.88
636.855	11.88
637.615	11.88
638.376	9.88
639.136	9.88
639.896	7.88
640.657	8.88
641.417	9.88
642.177	11.88
642.937	9.88
643.697	9.88
644.457	8.88
645.216	6.88
645.976	9.88
646.736	6.88
647.495	7.88
648.255	9.88
649.014	6.88
649.774	4.88
650.533	9.88
651.292	7.88
652.051	5.88
652.81	6.88
653.569	3.88
654.328	7.88
655.087	6.88
655.846	7.88
656.604	7.88
657.363	7.88
658.121	6.88
658.88	7.88
659.638	7.88
660.397	8.88
661.155	4.88
661.913	5.88
662.671	4.88
663.429	6.88
664.187	1.88
664.945	4.88
665.703	3.88
666.46	2.88
667.218	6.88
667.976	5.88
668.733	4.88
669.49	4.88
670.248	3.88
671.005	3.88
671.762	2.88
672.519	4.88
673.276	4.88
674.033	3.88
674.79	4.88
675.547	3.88
676.304	3.88
677.06	3.88
677.817	3.88
678.574	3.88
679.33	5.88
680.086	3.88
680.843	4.88
681.599	3.88
682.355	3.88
683.111	5.88
683.867	3.88
684.623	3.88
685.379	4.88
686.135	2.88
686.89	5.88
687.646	4.88
688.402	2.88
689.157	5.88
689.912	5.88
690.668	3.88
691.423	2.88
692.178	4.88
692.933	1.88
693.688	2.88
694.443	3.88
695.198	3.88
695.953	3.88
696.708	3.88
697.462	5.88
698.217	3.88
698.972	1.88
699.726	3.88
700.48	3.88
701.235	1.88
701.989	3.88
702.743	3.88
703.497	4.88
704.251	3.88
705.005	3.88
705.759	1.88
706.513	2.88
707.266	1.88
708.02	4.88
708.774	4.88
709.527	-0.12
710.28	4.88
711.034	1.88
711.787	4.88
712.54	1.88
713.293	1.88
714.046	3.88
714.799	3.88
715.552	3.88
716.305	3.88
717.058	1.88
717.81	3.88
718.563	6.88
719.315	4.88
720.068	1.88
720.82	5.88
721.573	3.88
722.325	3.88
723.077	3.88
723.829	2.88
724.581	1.88
725.333	1.88
726.085	3.88
726.836	2.88
727.588	3.88
728.34	3.88
729.091	1.88
729.843	5.88
730.594	2.88
731.346	2.88
732.097	3.88
732.848	1.88
733.599	3.88
734.35	4.88
735.101	4.88
735.852	4.88
736.603	4.88
737.354	4.88
738.104	5.88
738.855	3.88
739.605	3.88
740.356	5.88
741.106	5.88
741.856	4.88
742.607	5.88
743.357	3.88
744.107	3.88
744.857	3.88
745.607	5.88
746.357	2.88
747.106	5.88
747.856	6.88
748.606	4.88
749.355	6.88
750.105	3.88
750.854	4.88
751.603	4.88
752.353	2.88
753.102	6.88
753.851	3.88
754.6	3.88
755.349	2.88
756.098	6.88
756.847	4.88
757.595	6.88
758.344	5.88
759.093	3.88
759.841	5.88
760.589	5.88
761.338	5.88
762.086	3.88
762.834	2.88
763.582	6.88
764.331	3.88
765.079	6.88
765.826	5.88
766.574	6.88
767.322	5.88
768.07	7.88
768.817	8.88
769.565	5.88
770.312	5.88
771.06	7.88
771.807	4.88
772.554	5.88
773.302	7.88
774.049	4.88
774.796	5.88
775.543	8.88
776.29	7.88
777.036	7.88
777.783	8.88
778.53	7.88
779.276	7.88
780.023	8.88
780.769	6.88
781.516	7.88
782.262	7.88
783.008	5.88
783.754	8.88
784.5	11.88
785.246	7.88
785.992	8.88
786.738	9.88
787.484	6.88
788.23	7.88
788.975	5.88
789.721	7.88
790.466	6.88
791.212	9.88
791.957	6.88
792.702	6.88
793.447	5.88
794.193	5.88
794.938	8.88
795.683	9.88
796.427	8.88
797.172	8.88
797.917	6.88
798.662	6.88
799.406	8.88
800.151	6.88
800.895	6.88
801.64	8.88
802.384	5.88
803.128	4.88
803.872	7.88
804.616	5.88
805.36	6.88
806.104	3.88
806.848	7.88
807.592	4.88
808.336	5.88
809.079	3.88
809.823	3.88
810.566	6.88
811.31	6.88
812.053	3.88
812.796	4.88
813.539	4.88
814.283	5.88
815.026	6.88
815.769	3.88
816.511	3.88
817.254	5.88
817.997	4.88
818.74	2.88
819.482	7.88
820.225	4.88
820.967	3.88
821.71	4.88
822.452	4.88
823.194	4.88
823.936	4.88
824.678	4.88
825.42	3.88
826.162	3.88
826.904	4.88
827.646	3.88
828.388	3.88
829.129	1.88
829.871	2.88
830.612	4.88
831.354	1.88
832.095	3.88
832.836	2.88
833.577	2.88
834.319	5.88
835.06	3.88
835.801	3.88
836.542	3.88
837.282	4.88
838.023	3.88
838.764	0.88
839.504	3.88
840.245	1.88
840.985	5.88
841.726	3.88
842.466	1.88
843.206	1.88
843.946	1.88
844.687	4.88
845.427	1.88
846.166	-0.12
846.906	3.88
847.646	3.88
848.386	0.88
849.125	2.88
849.865	4.88
850.605	4.88
851.344	2.88
852.083	0.88
852.823	0.88
853.562	1.88
854.301	3.88
855.04	3.88
855.779	2.88
856.518	2.88
857.257	0.88
857.995	-1.12
858.734	4.88
859.473	2.88
860.211	2.88
860.95	0.88
861.688	1.88
862.426	3.88
863.165	1.88
863.903	1.88
864.641	-0.12
865.379	0.88
866.117	-0.12
866.855	0.88
867.593	1.88
868.33	0.88
869.068	0.88
869.806	-0.12
870.543	-0.12
871.28	0.88
872.018	0.88
872.755	1.88
873.492	-0.12
874.229	1.88
874.967	1.88
875.703	1.88
876.44	0.88
877.177	-2.12
877.914	0.88
878.651	0.88
879.387	0.88
880.124	3.88
880.86	0.88
881.597	1.88
882.333	2.88
883.069	0.88
883.806	0.88
884.542	0.88
885.278	-1.12
886.014	0.88
886.749	0.88
887.485	0.88
888.221	1.88
888.957	0.88
889.692	0.88
890.428	-1.12
891.163	-0.12
891.899	0.88
892.634	-0.12
893.369	1.88
894.104	0.88
894.839	0.88
895.574	1.88
896.309	-1.12
897.044	1.88
897.779	0.88
898.514	-1.12
899.248	0.88
899.983	-1.12
900.717	0.88
901.452	2.88
902.186	0.88
902.92	0.88
903.654	1.88
904.389	0.88
905.123	2.88
905.857	-0.12
906.59	0.88
907.324	0.88
908.058	2.88
908.792	-0.12
909.525	0.88
910.259	-1.12
910.992	-0.12
911.726	0.88
912.459	1.88
913.192	-0.12
913.925	1.88
914.658	0.88
915.391	-0.12
916.124	2.88
916.857	-2.12
917.59	-0.12
918.323	0.88
919.055	-0.12
919.788	0.88
920.521	-2.12
921.253	-1.12
921.985	1.88
922.718	1.88
923.45	-0.12
924.182	0.88
924.914	-0.12
925.646	-0.12
926.378	-0.12
927.11	0.88
927.841	0.88
928.573	-0.12
929.305	1.88
930.036	2.88
930.768	-1.12
931.499	0.88
932.23	1.88
932.962	0.88
933.693	-0.12
934.424	0.88
935.155	-0.12
935.886	-0.12
936.617	-0.12
937.348	0.88
938.078	0.88
938.809	0.88
939.54	-2.12
940.27	1.88
941.001	-1.12
941.731	2.88
942.461	-0.12
943.191	0.88
943.922	-0.12
944.652	-0.12
945.382	1.88
946.112	-0.12
946.841	0.88
947.571	-0.12
948.301	0.88
949.031	0.88
949.76	-0.12
950.49	1.88
951.219	-1.12
951.948	-0.12
952.678	-1.12
953.407	-3.12
954.136	0.88
954.865	-0.12
955.594	0.88
956.323	-0.12
957.052	-0.12
957.78	-1.12
958.509	-0.12
959.238	0.88
959.966	-2.12
960.695	0.88
961.423	-0.12
962.151	0.88
962.88	-0.12
963.608	0.88
964.336	-0.12
965.064	-0.12
965.792	2.88
966.52	0.88
967.247	-1.12
967.975	1.88
968.703	0.88
969.43	-1.12
970.158	1.88
970.885	-1.12
971.613	-0.12
972.34	-2.12
973.067	0.88
973.794	-2.12
974.521	-0.12
975.248	-1.12
975.975	-0.12
976.702	1.88
977.429	-0.12
978.156	-0.12
978.882	0.88
979.609	-0.12
980.335	1.88
981.062	-0.12
981.788	0.88
982.514	-1.12
983.24	0.88
983.967	-1.12
984.693	-0.12
985.419	-1.12
986.144	0.88
986.87	0.88
987.596	-2.12
988.322	0.88
989.047	1.88
989.773	1.88
990.498	0.88
991.224	1.88
991.949	-0.12
992.674	-0.12
993.399	-0.12
994.124	-0.12
994.849	-0.12
995.574	1.88
996.299	-2.12
997.024	1.88
997.749	1.88
998.473	-2.12
999.198	-2.12
999.922	-0.12
1000.647	-0.12
1001.371	1.88
1002.095	-1.12
1002.82	-0.12
1003.544	-2.12
1004.268	2.88
1004.992	0.88
1005.716	-2.12
1006.439	1.88
1007.163	1.88
1007.887	2.88
1008.611	-0.12
1009.334	1.88
1010.058	-2.12
1010.781	-0.12
1011.504	-0.12
1012.228	-0.12
1012.951	-0.12
1013.674	-0.12
1014.397	-0.12
1015.12	1.88
