节点500_285_QEPB04081__246__14-59-38-915.txt的数据

Date: Wed Nov 12 14:59:38 CST 2025
User: PC
Spectrometer: QEPB0408
触发模式: 0
积分时间 (秒): 1.000000E-2
Scans to average: 1
启用暗噪声校正: true
启用非线性校正: false
滑动平均宽度: 0
X轴模式: Wavelengths
Number of Pixels in Spectrum: 1044
>>>>>Begin Spectral Data<<<<<
220.843	2
221.644	4
222.444	0
223.244	5
224.045	4
224.845	3
225.645	2
226.445	4
227.245	3
228.045	4
228.845	4
229.645	4
230.444	1
231.244	5
232.043	2
232.843	3
233.642	4
234.442	3
235.241	5
236.04	4
236.839	4
237.638	4
238.437	4
239.236	4
240.035	4
240.833	5
241.632	6
242.43	4
243.229	2
244.027	5
244.826	6
245.624	4
246.422	5
247.22	7
248.018	9
248.816	6
249.614	8
250.412	8
251.21	5
252.007	6
252.805	8
253.602	8
254.4	8
255.197	9
255.994	9
256.791	5
257.589	9
258.386	9
259.183	10
259.979	11
260.776	11
261.573	10
262.37	10
263.166	12
263.963	11
264.759	14
265.556	12
266.352	11
267.148	16
267.944	14
268.74	15
269.536	13
270.332	13
271.128	17
271.924	16
272.719	14
273.515	14
274.311	17
275.106	16
275.901	16
276.697	21
277.492	17
278.287	19
279.082	19
279.877	21
280.672	21
281.467	21
282.262	20
283.056	23
283.851	21
284.646	19
285.44	18
286.234	20
287.029	19
287.823	20
288.617	18
289.411	19
290.205	18
290.999	21
291.793	20
292.587	19
293.381	21
294.174	18
294.968	18
295.761	16
296.555	17
297.348	15
298.141	17
298.935	16
299.728	14
300.521	14
301.314	17
302.107	16
302.899	15
303.692	12
304.485	14
305.277	14
306.07	11
306.862	15
307.655	12
308.447	13
309.239	12
310.031	11
310.823	12
311.615	13
312.407	12
313.199	9
313.991	10
314.783	12
315.574	10
316.366	8
317.157	8
317.949	8
318.74	9
319.531	8
320.322	9
321.113	8
321.904	9
322.695	7
323.486	6
324.277	8
325.068	7
325.858	8
326.649	7
327.439	10
328.23	7
329.02	6
329.81	6
330.6	7
331.391	9
332.181	7
332.971	5
333.76	9
334.55	7
335.34	6
336.13	4
336.919	8
337.709	7
338.498	7
339.287	4
340.077	5
340.866	5
341.655	6
342.444	7
343.233	7
344.022	8
344.811	8
345.6	6
346.388	6
347.177	7
347.965	6
348.754	6
349.542	8
350.33	6
351.119	7
351.907	5
352.695	6
353.483	4
354.271	8
355.059	7
355.846	4
356.634	5
357.422	4
358.209	6
358.997	8
359.784	4
360.571	6
361.359	6
362.146	5
362.933	8
363.72	4
364.507	3
365.294	5
366.081	4
366.867	3
367.654	5
368.44	6
369.227	3
370.013	5
370.8	7
371.586	6
372.372	4
373.158	4
373.944	5
374.73	5
375.516	4
376.302	4
377.088	6
377.873	7
378.659	5
379.445	5
380.23	8
381.015	4
381.801	6
382.586	6
383.371	5
384.156	7
384.941	7
385.726	6
386.511	7
387.296	7
388.08	8
388.865	9
389.649	6
390.434	5
391.218	9
392.003	6
392.787	7
393.571	6
394.355	8
395.139	6
395.923	5
396.707	7
397.491	6
398.274	8
399.058	6
399.842	9
400.625	8
401.408	6
402.192	7
402.975	7
403.758	7
404.541	6
405.324	7
406.107	6
406.89	8
407.673	8
408.456	10
409.238	8
410.021	10
410.803	9
411.586	11
412.368	10
413.151	10
413.933	7
414.715	11
415.497	8
416.279	11
417.061	12
417.843	10
418.624	10
419.406	11
420.188	10
420.969	10
421.751	9
422.532	11
423.313	11
424.095	12
424.876	10
425.657	14
426.438	12
427.219	11
428	12
428.78	14
429.561	11
430.342	15
431.122	17
431.903	15
432.683	14
433.464	16
434.244	16
435.024	16
435.804	17
436.584	19
437.364	20
438.144	19
438.924	20
439.704	25
440.483	22
441.263	26
442.042	29
442.822	24
443.601	26
444.38	28
445.16	30
445.939	34
446.718	36
447.497	37
448.276	40
449.054	44
449.833	48
450.612	54
451.391	56
452.169	60
452.948	65
453.726	72
454.504	79
455.282	90
456.061	96
456.839	113
457.617	123
458.395	139
459.172	148
459.95	168
460.728	185
461.506	202
462.283	233
463.061	252
463.838	284
464.615	319
465.393	355
466.17	391
466.947	447
467.724	489
468.501	553
469.278	608
470.055	668
470.831	755
471.608	841
472.385	939
473.161	1047
473.938	1145
474.714	1270
475.49	1421
476.266	1564
477.043	1736
477.819	1925
478.595	2129
479.371	2346
480.146	2609
480.922	2865
481.698	3178
482.473	3503
483.249	3842
484.024	4223
484.8	4658
485.575	5163
486.35	5661
487.126	6212
487.901	6813
488.676	7499
489.451	8206
490.225	8976
491	9779
491.775	10774
492.55	11741
493.324	12705
494.099	13720
494.873	14794
495.647	15936
496.422	17105
497.196	18317
497.97	19606
498.744	20759
499.518	21965
500.292	23080
501.066	24218
501.839	25153
502.613	26048
503.387	26748
504.16	27384
504.934	27722
505.707	27869
506.48	27843
507.253	27681
508.027	27489
508.8	27000
509.573	26625
510.346	25917
511.118	25080
511.891	24215
512.664	23348
513.437	22480
514.209	21521
514.982	20610
515.754	19699
516.526	18778
517.298	17998
518.071	17215
518.843	16555
519.615	15896
520.387	15254
521.159	14627
521.93	14056
522.702	13510
523.474	12936
524.245	12392
525.017	11864
525.788	11382
526.56	10901
527.331	10381
528.102	9909
528.873	9379
529.644	8972
530.415	8526
531.186	8102
531.957	7681
532.728	7241
533.498	6929
534.269	6492
535.039	6142
535.81	5793
536.58	5467
537.351	5136
538.121	4872
538.891	4600
539.661	4378
540.431	4097
541.201	3875
541.971	3676
542.741	3491
543.51	3345
544.28	3175
545.05	3011
545.819	2873
546.588	2706
547.358	2576
548.127	2460
548.896	2333
549.665	2209
550.434	2106
551.203	1975
551.972	1868
552.741	1787
553.51	1674
554.278	1582
555.047	1487
555.815	1403
556.584	1325
557.352	1240
558.121	1183
558.889	1125
559.657	1044
560.425	991
561.193	939
561.961	894
562.729	840
563.496	782
564.264	741
565.032	708
565.799	671
566.567	633
567.334	596
568.101	572
568.869	533
569.636	501
570.403	469
571.17	444
571.937	425
572.704	394
573.471	382
574.237	352
575.004	334
575.771	313
576.537	297
577.303	277
578.07	265
578.836	246
579.602	231
580.368	222
581.134	210
581.9	199
582.666	189
583.432	176
584.198	167
584.964	161
585.729	148
586.495	144
587.26	137
588.025	132
588.791	122
589.556	113
590.321	108
591.086	102
591.851	98
592.616	98
593.381	88
594.146	85
594.911	82
595.675	82
596.44	72
597.204	72
597.969	71
598.733	66
599.497	65
600.261	60
601.025	57
601.79	54
602.553	53
603.317	49
604.081	49
604.845	47
605.609	43
606.372	39
607.136	40
607.899	40
608.662	37
609.426	36
610.189	36
610.952	34
611.715	33
612.478	31
613.241	28
614.004	30
614.767	26
615.529	27
616.292	24
617.055	25
617.817	26
618.579	24
619.342	18
620.104	19
620.866	21
621.628	18
622.39	21
623.152	21
623.914	17
624.676	18
625.438	18
626.199	18
626.961	18
627.722	16
628.484	13
629.245	12
630.006	11
630.768	13
631.529	13
632.29	13
633.051	9
633.812	12
634.573	12
635.333	12
636.094	13
636.855	12
637.615	10
638.376	9
639.136	12
639.896	11
640.657	11
641.417	11
642.177	8
642.937	12
643.697	10
644.457	9
645.216	10
645.976	10
646.736	9
647.495	9
648.255	7
649.014	7
649.774	9
650.533	7
651.292	6
652.051	6
652.81	7
653.569	8
654.328	8
655.087	7
655.846	9
656.604	5
657.363	8
658.121	6
658.88	8
659.638	4
660.397	5
661.155	7
661.913	6
662.671	6
663.429	6
664.187	8
664.945	4
665.703	6
666.46	6
667.218	5
667.976	7
668.733	6
669.49	7
670.248	4
671.005	6
671.762	7
672.519	5
673.276	5
674.033	4
674.79	4
675.547	0
676.304	6
677.06	7
677.817	4
678.574	4
679.33	6
680.086	5
680.843	6
681.599	4
682.355	6
683.111	5
683.867	5
684.623	4
685.379	4
686.135	3
686.89	2
687.646	4
688.402	3
689.157	2
689.912	4
690.668	4
691.423	5
692.178	6
692.933	2
693.688	4
694.443	5
695.198	4
695.953	4
696.708	5
697.462	2
698.217	4
698.972	3
699.726	6
700.48	4
701.235	5
701.989	3
702.743	2
703.497	4
704.251	4
705.005	3
705.759	4
706.513	5
707.266	4
708.02	5
708.774	3
709.527	2
710.28	4
711.034	4
711.787	7
712.54	5
713.293	3
714.046	3
714.799	4
715.552	5
716.305	3
717.058	5
717.81	4
718.563	3
719.315	6
720.068	3
720.82	4
721.573	3
722.325	5
723.077	2
723.829	5
724.581	4
725.333	5
726.085	2
726.836	2
727.588	4
728.34	5
729.091	6
729.843	7
730.594	4
731.346	4
732.097	6
732.848	5
733.599	4
734.35	7
735.101	6
735.852	4
736.603	4
737.354	2
738.104	5
738.855	4
739.605	6
740.356	5
741.106	4
741.856	6
742.607	3
743.357	8
744.107	4
744.857	4
745.607	3
746.357	6
747.106	6
747.856	3
748.606	7
749.355	9
750.105	8
750.854	6
751.603	4
752.353	7
753.102	5
753.851	7
754.6	7
755.349	7
756.098	4
756.847	7
757.595	5
758.344	5
759.093	7
759.841	7
760.589	7
761.338	6
762.086	7
762.834	8
763.582	8
764.331	6
765.079	7
765.826	9
766.574	7
767.322	7
768.07	8
768.817	8
769.565	7
770.312	8
771.06	6
771.807	8
772.554	9
773.302	8
774.049	8
774.796	7
775.543	10
776.29	10
777.036	7
777.783	10
778.53	10
779.276	7
780.023	9
780.769	12
781.516	12
782.262	7
783.008	11
783.754	11
784.5	11
785.246	8
785.992	9
786.738	9
787.484	8
788.23	10
788.975	10
789.721	9
790.466	10
791.212	9
791.957	10
792.702	9
793.447	9
794.193	8
794.938	12
795.683	9
796.427	8
797.172	8
797.917	8
798.662	8
799.406	7
800.151	8
800.895	9
801.64	8
802.384	5
803.128	8
803.872	8
804.616	8
805.36	5
806.104	6
806.848	8
807.592	4
808.336	7
809.079	5
809.823	5
810.566	5
811.31	6
812.053	4
812.796	8
813.539	7
814.283	7
815.026	6
815.769	3
816.511	5
817.254	4
817.997	6
818.74	6
819.482	5
820.225	6
820.967	6
821.71	4
822.452	5
823.194	3
823.936	5
824.678	5
825.42	6
826.162	6
826.904	3
827.646	4
828.388	3
829.129	5
829.871	3
830.612	6
831.354	4
832.095	4
832.836	5
833.577	2
834.319	5
835.06	5
835.801	4
836.542	5
837.282	3
838.023	2
838.764	3
839.504	3
840.245	1
840.985	4
841.726	3
842.466	1
843.206	4
843.946	4
844.687	4
845.427	4
846.166	1
846.906	3
847.646	2
848.386	4
849.125	4
849.865	4
850.605	0
851.344	4
852.083	2
852.823	3
853.562	5
854.301	2
855.04	1
855.779	2
856.518	3
857.257	5
857.995	1
858.734	2
859.473	3
860.211	3
860.95	1
861.688	1
862.426	2
863.165	4
863.903	1
864.641	2
865.379	2
866.117	2
866.855	1
867.593	3
868.33	1
869.068	3
869.806	2
870.543	0
871.28	-1
872.018	2
872.755	2
873.492	3
874.229	2
874.967	3
875.703	0
876.44	1
877.177	1
877.914	3
878.651	3
879.387	1
880.124	4
880.86	2
881.597	-1
882.333	5
883.069	0
883.806	1
884.542	-2
885.278	2
886.014	-1
886.749	2
887.485	2
888.221	0
888.957	3
889.692	2
890.428	0
891.163	4
891.899	-2
892.634	0
893.369	1
894.104	4
894.839	0
895.574	2
896.309	2
897.044	1
897.779	1
898.514	1
899.248	2
899.983	1
900.717	1
901.452	1
902.186	1
902.92	2
903.654	0
904.389	2
905.123	0
905.857	1
906.59	-1
907.324	-1
908.058	2
908.792	2
909.525	0
910.259	1
910.992	0
911.726	0
912.459	1
913.192	2
913.925	1
914.658	0
915.391	0
916.124	0
916.857	1
917.59	2
918.323	1
919.055	1
919.788	2
920.521	2
921.253	-1
921.985	3
922.718	0
923.45	2
924.182	1
924.914	0
925.646	1
926.378	1
927.11	0
927.841	2
928.573	-2
929.305	0
930.036	0
930.768	2
931.499	2
932.23	0
932.962	2
933.693	2
934.424	-1
935.155	1
935.886	-1
936.617	-2
937.348	-1
938.078	2
938.809	1
939.54	0
940.27	-1
941.001	1
941.731	1
942.461	1
943.191	0
943.922	-2
944.652	1
945.382	0
946.112	1
946.841	1
947.571	2
948.301	1
949.031	1
949.76	2
950.49	2
951.219	3
951.948	1
952.678	-1
953.407	2
954.136	1
954.865	2
955.594	0
956.323	1
957.052	1
957.78	-1
958.509	1
959.238	-1
959.966	0
960.695	0
961.423	-1
962.151	0
962.88	2
963.608	0
964.336	0
965.064	1
965.792	-1
966.52	-1
967.247	2
967.975	-1
968.703	0
969.43	0
970.158	1
970.885	2
971.613	2
972.34	1
973.067	1
973.794	-1
974.521	-2
975.248	-2
975.975	2
976.702	1
977.429	3
978.156	0
978.882	-3
979.609	0
980.335	0
981.062	3
981.788	2
982.514	-1
983.24	-2
983.967	1
984.693	3
985.419	-1
986.144	1
986.87	-1
987.596	0
988.322	0
989.047	3
989.773	1
990.498	1
991.224	1
991.949	1
992.674	2
993.399	0
994.124	2
994.849	1
995.574	1
996.299	2
997.024	2
997.749	-2
998.473	0
999.198	1
999.922	0
1000.647	-1
1001.371	3
1002.095	0
1002.82	-1
1003.544	-1
1004.268	2
1004.992	1
1005.716	2
1006.439	2
1007.163	2
1007.887	2
1008.611	0
1009.334	2
1010.058	0
1010.781	1
1011.504	2
1012.228	2
1012.951	0
1013.674	-1
1014.397	0
1015.12	0
