节点500_285_QEPB04081__464__15-03-16-525.txt的数据

Date: Wed Nov 12 15:03:16 CST 2025
User: PC
Spectrometer: QEPB0408
触发模式: 0
积分时间 (秒): 1.000000E-2
Scans to average: 1
启用暗噪声校正: true
启用非线性校正: false
滑动平均宽度: 0
X轴模式: Wavelengths
Number of Pixels in Spectrum: 1044
>>>>>Begin Spectral Data<<<<<
220.843	1.12
221.644	1.12
222.444	1.12
223.244	1.12
224.045	2.12
224.845	2.12
225.645	4.12
226.445	4.12
227.245	1.12
228.045	3.12
228.845	3.12
229.645	2.12
230.444	1.12
231.244	2.12
232.043	1.12
232.843	3.12
233.642	5.12
234.442	2.12
235.241	2.12
236.04	5.12
236.839	4.12
237.638	5.12
238.437	4.12
239.236	5.12
240.035	3.12
240.833	6.12
241.632	4.12
242.43	3.12
243.229	6.12
244.027	3.12
244.826	6.12
245.624	5.12
246.422	4.12
247.22	6.12
248.018	7.12
248.816	5.12
249.614	6.12
250.412	9.12
251.21	6.12
252.007	7.12
252.805	8.12
253.602	8.12
254.4	7.12
255.197	5.12
255.994	7.12
256.791	8.12
257.589	9.12
258.386	10.12
259.183	10.12
259.979	11.12
260.776	8.12
261.573	11.12
262.37	8.12
263.166	10.12
263.963	11.12
264.759	11.12
265.556	13.12
266.352	13.12
267.148	11.12
267.944	13.12
268.74	13.12
269.536	12.12
270.332	15.12
271.128	14.12
271.924	15.12
272.719	14.12
273.515	18.12
274.311	15.12
275.106	16.12
275.901	19.12
276.697	16.12
277.492	16.12
278.287	18.12
279.082	17.12
279.877	19.12
280.672	21.12
281.467	18.12
282.262	20.12
283.056	20.12
283.851	18.12
284.646	18.12
285.44	18.12
286.234	19.12
287.029	19.12
287.823	18.12
288.617	20.12
289.411	20.12
290.205	18.12
290.999	20.12
291.793	20.12
292.587	18.12
293.381	19.12
294.174	16.12
294.968	15.12
295.761	20.12
296.555	14.12
297.348	14.12
298.141	15.12
298.935	18.12
299.728	18.12
300.521	10.12
301.314	17.12
302.107	13.12
302.899	13.12
303.692	14.12
304.485	13.12
305.277	14.12
306.07	13.12
306.862	13.12
307.655	13.12
308.447	12.12
309.239	13.12
310.031	12.12
310.823	14.12
311.615	10.12
312.407	8.12
313.199	12.12
313.991	11.12
314.783	11.12
315.574	8.12
316.366	8.12
317.157	8.12
317.949	10.12
318.74	8.12
319.531	10.12
320.322	9.12
321.113	10.12
321.904	8.12
322.695	8.12
323.486	6.12
324.277	9.12
325.068	7.12
325.858	8.12
326.649	6.12
327.439	6.12
328.23	8.12
329.02	6.12
329.81	5.12
330.6	6.12
331.391	8.12
332.181	7.12
332.971	7.12
333.76	6.12
334.55	6.12
335.34	8.12
336.13	7.12
336.919	7.12
337.709	7.12
338.498	7.12
339.287	7.12
340.077	5.12
340.866	8.12
341.655	8.12
342.444	7.12
343.233	8.12
344.022	7.12
344.811	9.12
345.6	7.12
346.388	9.12
347.177	4.12
347.965	7.12
348.754	5.12
349.542	3.12
350.33	5.12
351.119	5.12
351.907	7.12
352.695	9.12
353.483	4.12
354.271	7.12
355.059	4.12
355.846	6.12
356.634	3.12
357.422	7.12
358.209	6.12
358.997	5.12
359.784	7.12
360.571	4.12
361.359	7.12
362.146	7.12
362.933	5.12
363.72	6.12
364.507	6.12
365.294	7.12
366.081	6.12
366.867	7.12
367.654	4.12
368.44	7.12
369.227	6.12
370.013	6.12
370.8	7.12
371.586	7.12
372.372	3.12
373.158	7.12
373.944	7.12
374.73	8.12
375.516	6.12
376.302	5.12
377.088	7.12
377.873	6.12
378.659	5.12
379.445	4.12
380.23	6.12
381.015	5.12
381.801	3.12
382.586	6.12
383.371	5.12
384.156	5.12
384.941	4.12
385.726	6.12
386.511	4.12
387.296	6.12
388.08	5.12
388.865	6.12
389.649	7.12
390.434	8.12
391.218	4.12
392.003	6.12
392.787	6.12
393.571	7.12
394.355	6.12
395.139	8.12
395.923	7.12
396.707	11.12
397.491	5.12
398.274	6.12
399.058	7.12
399.842	7.12
400.625	7.12
401.408	8.12
402.192	8.12
402.975	6.12
403.758	8.12
404.541	7.12
405.324	6.12
406.107	11.12
406.89	8.12
407.673	8.12
408.456	10.12
409.238	7.12
410.021	6.12
410.803	8.12
411.586	11.12
412.368	9.12
413.151	7.12
413.933	9.12
414.715	9.12
415.497	9.12
416.279	9.12
417.061	13.12
417.843	11.12
418.624	9.12
419.406	11.12
420.188	8.12
420.969	11.12
421.751	10.12
422.532	14.12
423.313	10.12
424.095	10.12
424.876	14.12
425.657	10.12
426.438	13.12
427.219	13.12
428	13.12
428.78	11.12
429.561	14.12
430.342	14.12
431.122	14.12
431.903	14.12
432.683	16.12
433.464	14.12
434.244	15.12
435.024	15.12
435.804	19.12
436.584	17.12
437.364	19.12
438.144	19.12
438.924	19.12
439.704	22.12
440.483	21.12
441.263	23.12
442.042	25.12
442.822	28.12
443.601	28.12
444.38	32.12
445.16	32.12
445.939	34.12
446.718	35.12
447.497	40.12
448.276	44.12
449.054	45.12
449.833	49.12
450.612	53.12
451.391	59.12
452.169	60.12
452.948	71.12
453.726	72.12
454.504	86.12
455.282	90.12
456.061	105.12
456.839	111.12
457.617	124.12
458.395	142.12
459.172	154.12
459.95	172.12
460.728	196.12
461.506	212.12
462.283	241.12
463.061	268.12
463.838	297.12
464.615	333.12
465.393	371.12
466.17	412.12
466.947	455.12
467.724	509.12
468.501	571.12
469.278	634.12
470.055	697.12
470.831	773.12
471.608	865.12
472.385	965.12
473.161	1063.12
473.938	1181.12
474.714	1303.12
475.49	1440.12
476.266	1595.12
477.043	1758.12
477.819	1944.12
478.595	2127.12
479.371	2340.12
480.146	2579.12
480.922	2844.12
481.698	3132.12
482.473	3431.12
483.249	3769.12
484.024	4140.12
484.8	4557.12
485.575	5005.12
486.35	5485.12
487.126	6028.12
487.901	6592.12
488.676	7189.12
489.451	7879.12
490.225	8568.12
491	9360.12
491.775	10243.12
492.55	11128.12
493.324	12017.12
494.099	12971.12
494.873	13942.12
495.647	15052.12
496.422	16169.12
497.196	17298.12
497.97	18462.12
498.744	19588.12
499.518	20779.12
500.292	21836.12
501.066	22950.12
501.839	23983.12
502.613	24801.12
503.387	25580.12
504.16	26266.12
504.934	26679.12
505.707	26874.12
506.48	26958.12
507.253	26951.12
508.027	26774.12
508.8	26543.12
509.573	26123.12
510.346	25488.12
511.118	24836.12
511.891	24142.12
512.664	23369.12
513.437	22543.12
514.209	21551.12
514.982	20766.12
515.754	19873.12
516.526	18947.12
517.298	18162.12
518.071	17327.12
518.843	16694.12
519.615	16012.12
520.387	15426.12
521.159	14832.12
521.93	14264.12
522.702	13685.12
523.474	13098.12
524.245	12621.12
525.017	11978.12
525.788	11573.12
526.56	11017.12
527.331	10518.12
528.102	10085.12
528.873	9571.12
529.644	9085.12
530.415	8676.12
531.186	8285.12
531.957	7838.12
532.728	7433.12
533.498	7072.12
534.269	6670.12
535.039	6286.12
535.81	5949.12
536.58	5611.12
537.351	5293.12
538.121	4995.12
538.891	4758.12
539.661	4468.12
540.431	4236.12
541.201	3993.12
541.971	3808.12
542.741	3600.12
543.51	3422.12
544.28	3246.12
545.05	3085.12
545.819	2956.12
546.588	2818.12
547.358	2656.12
548.127	2509.12
548.896	2384.12
549.665	2274.12
550.434	2159.12
551.203	2036.12
551.972	1939.12
552.741	1825.12
553.51	1717.12
554.278	1657.12
555.047	1528.12
555.815	1434.12
556.584	1368.12
557.352	1301.12
558.121	1216.12
558.889	1156.12
559.657	1095.12
560.425	1016.12
561.193	982.12
561.961	914.12
562.729	857.12
563.496	818.12
564.264	776.12
565.032	734.12
565.799	697.12
566.567	654.12
567.334	618.12
568.101	584.12
568.869	561.12
569.636	512.12
570.403	486.12
571.17	461.12
571.937	440.12
572.704	419.12
573.471	385.12
574.237	376.12
575.004	353.12
575.771	320.12
576.537	313.12
577.303	284.12
578.07	274.12
578.836	253.12
579.602	239.12
580.368	228.12
581.134	219.12
581.9	204.12
582.666	197.12
583.432	175.12
584.198	173.12
584.964	169.12
585.729	158.12
586.495	154.12
587.26	143.12
588.025	135.12
588.791	131.12
589.556	119.12
590.321	114.12
591.086	109.12
591.851	105.12
592.616	98.12
593.381	90.12
594.146	87.12
594.911	84.12
595.675	84.12
596.44	77.12
597.204	71.12
597.969	75.12
598.733	68.12
599.497	67.12
600.261	60.12
601.025	61.12
601.79	55.12
602.553	52.12
603.317	53.12
604.081	46.12
604.845	48.12
605.609	44.12
606.372	43.12
607.136	42.12
607.899	42.12
608.662	38.12
609.426	39.12
610.189	37.12
610.952	36.12
611.715	33.12
612.478	35.12
613.241	28.12
614.004	31.12
614.767	27.12
615.529	29.12
616.292	25.12
617.055	28.12
617.817	26.12
618.579	25.12
619.342	21.12
620.104	21.12
620.866	20.12
621.628	21.12
622.39	19.12
623.152	21.12
623.914	19.12
624.676	17.12
625.438	16.12
626.199	16.12
626.961	18.12
627.722	15.12
628.484	16.12
629.245	12.12
630.006	16.12
630.768	14.12
631.529	14.12
632.29	15.12
633.051	12.12
633.812	14.12
634.573	13.12
635.333	13.12
636.094	11.12
636.855	10.12
637.615	10.12
638.376	10.12
639.136	8.12
639.896	10.12
640.657	11.12
641.417	10.12
642.177	11.12
642.937	10.12
643.697	9.12
644.457	10.12
645.216	8.12
645.976	7.12
646.736	5.12
647.495	9.12
648.255	9.12
649.014	8.12
649.774	7.12
650.533	5.12
651.292	7.12
652.051	8.12
652.81	7.12
653.569	7.12
654.328	6.12
655.087	6.12
655.846	9.12
656.604	5.12
657.363	6.12
658.121	6.12
658.88	7.12
659.638	6.12
660.397	4.12
661.155	7.12
661.913	6.12
662.671	4.12
663.429	7.12
664.187	6.12
664.945	5.12
665.703	6.12
666.46	7.12
667.218	5.12
667.976	5.12
668.733	4.12
669.49	6.12
670.248	4.12
671.005	7.12
671.762	5.12
672.519	6.12
673.276	5.12
674.033	4.12
674.79	4.12
675.547	5.12
676.304	3.12
677.06	2.12
677.817	4.12
678.574	6.12
679.33	7.12
680.086	3.12
680.843	6.12
681.599	3.12
682.355	6.12
683.111	3.12
683.867	5.12
684.623	5.12
685.379	4.12
686.135	4.12
686.89	5.12
687.646	2.12
688.402	6.12
689.157	4.12
689.912	4.12
690.668	3.12
691.423	4.12
692.178	5.12
692.933	5.12
693.688	5.12
694.443	3.12
695.198	4.12
695.953	4.12
696.708	4.12
697.462	4.12
698.217	3.12
698.972	5.12
699.726	5.12
700.48	6.12
701.235	3.12
701.989	6.12
702.743	4.12
703.497	4.12
704.251	3.12
705.005	4.12
705.759	6.12
706.513	1.12
707.266	4.12
708.02	6.12
708.774	3.12
709.527	3.12
710.28	2.12
711.034	5.12
711.787	1.12
712.54	4.12
713.293	5.12
714.046	4.12
714.799	5.12
715.552	3.12
716.305	6.12
717.058	7.12
717.81	4.12
718.563	3.12
719.315	3.12
720.068	4.12
720.82	2.12
721.573	6.12
722.325	5.12
723.077	2.12
723.829	5.12
724.581	3.12
725.333	2.12
726.085	5.12
726.836	6.12
727.588	4.12
728.34	2.12
729.091	5.12
729.843	1.12
730.594	5.12
731.346	5.12
732.097	6.12
732.848	5.12
733.599	6.12
734.35	5.12
735.101	5.12
735.852	7.12
736.603	4.12
737.354	5.12
738.104	3.12
738.855	6.12
739.605	5.12
740.356	7.12
741.106	4.12
741.856	5.12
742.607	4.12
743.357	7.12
744.107	4.12
744.857	7.12
745.607	6.12
746.357	6.12
747.106	5.12
747.856	4.12
748.606	7.12
749.355	5.12
750.105	5.12
750.854	8.12
751.603	6.12
752.353	5.12
753.102	4.12
753.851	8.12
754.6	5.12
755.349	6.12
756.098	6.12
756.847	4.12
757.595	7.12
758.344	6.12
759.093	8.12
759.841	8.12
760.589	6.12
761.338	8.12
762.086	5.12
762.834	8.12
763.582	7.12
764.331	6.12
765.079	6.12
765.826	7.12
766.574	8.12
767.322	7.12
768.07	8.12
768.817	6.12
769.565	8.12
770.312	8.12
771.06	7.12
771.807	6.12
772.554	8.12
773.302	9.12
774.049	6.12
774.796	9.12
775.543	8.12
776.29	6.12
777.036	8.12
777.783	8.12
778.53	9.12
779.276	10.12
780.023	9.12
780.769	7.12
781.516	7.12
782.262	10.12
783.008	7.12
783.754	9.12
784.5	8.12
785.246	10.12
785.992	9.12
786.738	9.12
787.484	8.12
788.23	8.12
788.975	9.12
789.721	11.12
790.466	8.12
791.212	8.12
791.957	10.12
792.702	8.12
793.447	8.12
794.193	6.12
794.938	10.12
795.683	9.12
796.427	10.12
797.172	10.12
797.917	8.12
798.662	9.12
799.406	7.12
800.151	8.12
800.895	8.12
801.64	4.12
802.384	7.12
803.128	8.12
803.872	7.12
804.616	7.12
805.36	10.12
806.104	7.12
806.848	7.12
807.592	9.12
808.336	6.12
809.079	8.12
809.823	6.12
810.566	7.12
811.31	8.12
812.053	6.12
812.796	6.12
813.539	7.12
814.283	6.12
815.026	6.12
815.769	3.12
816.511	5.12
817.254	5.12
817.997	6.12
818.74	3.12
819.482	6.12
820.225	4.12
820.967	4.12
821.71	5.12
822.452	1.12
823.194	5.12
823.936	4.12
824.678	6.12
825.42	4.12
826.162	3.12
826.904	4.12
827.646	2.12
828.388	5.12
829.129	2.12
829.871	3.12
830.612	5.12
831.354	4.12
832.095	6.12
832.836	2.12
833.577	4.12
834.319	3.12
835.06	3.12
835.801	4.12
836.542	2.12
837.282	6.12
838.023	6.12
838.764	3.12
839.504	2.12
840.245	4.12
840.985	3.12
841.726	1.12
842.466	4.12
843.206	2.12
843.946	3.12
844.687	3.12
845.427	2.12
846.166	0.12
846.906	0.12
847.646	4.12
848.386	2.12
849.125	3.12
849.865	3.12
850.605	4.12
851.344	5.12
852.083	4.12
852.823	3.12
853.562	2.12
854.301	3.12
855.04	4.12
855.779	5.12
856.518	4.12
857.257	4.12
857.995	3.12
858.734	3.12
859.473	1.12
860.211	3.12
860.95	2.12
861.688	4.12
862.426	4.12
863.165	2.12
863.903	0.12
864.641	3.12
865.379	0.12
866.117	2.12
866.855	2.12
867.593	2.12
868.33	3.12
869.068	-0.88
869.806	0.12
870.543	1.12
871.28	2.12
872.018	4.12
872.755	2.12
873.492	2.12
874.229	2.12
874.967	3.12
875.703	3.12
876.44	2.12
877.177	2.12
877.914	1.12
878.651	0.12
879.387	0.12
880.124	1.12
880.86	4.12
881.597	0.12
882.333	3.12
883.069	0.12
883.806	-1.88
884.542	4.12
885.278	1.12
886.014	3.12
886.749	1.12
887.485	1.12
888.221	1.12
888.957	2.12
889.692	0.12
890.428	1.12
891.163	1.12
891.899	1.12
892.634	0.12
893.369	1.12
894.104	2.12
894.839	1.12
895.574	1.12
896.309	1.12
897.044	1.12
897.779	0.12
898.514	0.12
899.248	1.12
899.983	3.12
900.717	1.12
901.452	0.12
902.186	-0.88
902.92	1.12
903.654	1.12
904.389	1.12
905.123	2.12
905.857	1.12
906.59	0.12
907.324	1.12
908.058	2.12
908.792	3.12
909.525	2.12
910.259	1.12
910.992	1.12
911.726	-0.88
912.459	1.12
913.192	1.12
913.925	2.12
914.658	-1.88
915.391	0.12
916.124	1.12
916.857	1.12
917.59	-0.88
918.323	2.12
919.055	1.12
919.788	0.12
920.521	0.12
921.253	0.12
921.985	1.12
922.718	3.12
923.45	2.12
924.182	-0.88
924.914	1.12
925.646	0.12
926.378	0.12
927.11	1.12
927.841	1.12
928.573	0.12
929.305	0.12
930.036	0.12
930.768	1.12
931.499	1.12
932.23	1.12
932.962	0.12
933.693	-0.88
934.424	-0.88
935.155	2.12
935.886	0.12
936.617	1.12
937.348	0.12
938.078	1.12
938.809	-1.88
939.54	1.12
940.27	3.12
941.001	0.12
941.731	-0.88
942.461	0.12
943.191	2.12
943.922	2.12
944.652	-1.88
945.382	1.12
946.112	2.12
946.841	2.12
947.571	0.12
948.301	0.12
949.031	1.12
949.76	1.12
950.49	0.12
951.219	-0.88
951.948	2.12
952.678	1.12
953.407	0.12
954.136	0.12
954.865	3.12
955.594	-0.88
956.323	1.12
957.052	1.12
957.78	2.12
958.509	0.12
959.238	0.12
959.966	0.12
960.695	3.12
961.423	-0.88
962.151	-0.88
962.88	2.12
963.608	0.12
964.336	-1.88
965.064	0.12
965.792	-1.88
966.52	1.12
967.247	0.12
967.975	2.12
968.703	-0.88
969.43	0.12
970.158	0.12
970.885	0.12
971.613	1.12
972.34	0.12
973.067	0.12
973.794	-1.88
974.521	1.12
975.248	1.12
975.975	1.12
976.702	1.12
977.429	0.12
978.156	0.12
978.882	2.12
979.609	1.12
980.335	2.12
981.062	2.12
981.788	-0.88
982.514	-1.88
983.24	1.12
983.967	1.12
984.693	1.12
985.419	-1.88
986.144	-0.88
986.87	0.12
987.596	-0.88
988.322	-0.88
989.047	2.12
989.773	4.12
990.498	1.12
991.224	1.12
991.949	-0.88
992.674	-0.88
993.399	0.12
994.124	1.12
994.849	-0.88
995.574	1.12
996.299	1.12
997.024	3.12
997.749	2.12
998.473	0.12
999.198	0.12
999.922	0.12
1000.647	0.12
1001.371	3.12
1002.095	-0.88
1002.82	-1.88
1003.544	-1.88
1004.268	0.12
1004.992	1.12
1005.716	-0.88
1006.439	2.12
1007.163	0.12
1007.887	2.12
1008.611	1.12
1009.334	0.12
1010.058	1.12
1010.781	1.12
1011.504	1.12
1012.228	1.12
1012.951	1.12
1013.674	0.12
1014.397	1.12
1015.12	-0.88
