节点500_285_QEPB04081__678__15-06-49-951.txt的数据

Date: Wed Nov 12 15:06:49 CST 2025
User: PC
Spectrometer: QEPB0408
触发模式: 0
积分时间 (秒): 1.000000E-2
Scans to average: 1
启用暗噪声校正: true
启用非线性校正: false
滑动平均宽度: 0
X轴模式: Wavelengths
Number of Pixels in Spectrum: 1044
>>>>>Begin Spectral Data<<<<<
220.843	2.12
221.644	4.12
222.444	-0.88
223.244	3.12
224.045	0.12
224.845	1.12
225.645	1.12
226.445	5.12
227.245	1.12
228.045	3.12
228.845	3.12
229.645	2.12
230.444	2.12
231.244	2.12
232.043	3.12
232.843	4.12
233.642	4.12
234.442	4.12
235.241	2.12
236.04	2.12
236.839	4.12
237.638	2.12
238.437	6.12
239.236	4.12
240.035	3.12
240.833	4.12
241.632	5.12
242.43	4.12
243.229	7.12
244.027	4.12
244.826	6.12
245.624	5.12
246.422	5.12
247.22	4.12
248.018	6.12
248.816	5.12
249.614	6.12
250.412	5.12
251.21	5.12
252.007	6.12
252.805	9.12
253.602	6.12
254.4	8.12
255.197	7.12
255.994	8.12
256.791	6.12
257.589	8.12
258.386	7.12
259.183	9.12
259.979	10.12
260.776	10.12
261.573	9.12
262.37	9.12
263.166	11.12
263.963	11.12
264.759	11.12
265.556	12.12
266.352	11.12
267.148	13.12
267.944	16.12
268.74	13.12
269.536	13.12
270.332	12.12
271.128	15.12
271.924	14.12
272.719	15.12
273.515	13.12
274.311	16.12
275.106	14.12
275.901	15.12
276.697	13.12
277.492	17.12
278.287	13.12
279.082	17.12
279.877	17.12
280.672	17.12
281.467	19.12
282.262	15.12
283.056	19.12
283.851	17.12
284.646	15.12
285.44	19.12
286.234	17.12
287.029	17.12
287.823	18.12
288.617	16.12
289.411	17.12
290.205	15.12
290.999	15.12
291.793	15.12
292.587	17.12
293.381	20.12
294.174	16.12
294.968	14.12
295.761	15.12
296.555	15.12
297.348	14.12
298.141	16.12
298.935	16.12
299.728	14.12
300.521	12.12
301.314	13.12
302.107	12.12
302.899	12.12
303.692	11.12
304.485	13.12
305.277	10.12
306.07	13.12
306.862	11.12
307.655	13.12
308.447	12.12
309.239	12.12
310.031	9.12
310.823	13.12
311.615	12.12
312.407	9.12
313.199	10.12
313.991	11.12
314.783	9.12
315.574	10.12
316.366	6.12
317.157	11.12
317.949	7.12
318.74	8.12
319.531	7.12
320.322	8.12
321.113	9.12
321.904	7.12
322.695	8.12
323.486	6.12
324.277	10.12
325.068	9.12
325.858	6.12
326.649	5.12
327.439	9.12
328.23	6.12
329.02	6.12
329.81	7.12
330.6	6.12
331.391	8.12
332.181	9.12
332.971	6.12
333.76	5.12
334.55	6.12
335.34	7.12
336.13	8.12
336.919	6.12
337.709	6.12
338.498	5.12
339.287	6.12
340.077	6.12
340.866	8.12
341.655	5.12
342.444	4.12
343.233	7.12
344.022	7.12
344.811	5.12
345.6	5.12
346.388	5.12
347.177	6.12
347.965	4.12
348.754	7.12
349.542	6.12
350.33	7.12
351.119	5.12
351.907	6.12
352.695	6.12
353.483	5.12
354.271	5.12
355.059	6.12
355.846	7.12
356.634	5.12
357.422	5.12
358.209	4.12
358.997	5.12
359.784	6.12
360.571	6.12
361.359	4.12
362.146	5.12
362.933	4.12
363.72	5.12
364.507	8.12
365.294	5.12
366.081	5.12
366.867	5.12
367.654	4.12
368.44	4.12
369.227	6.12
370.013	2.12
370.8	6.12
371.586	7.12
372.372	5.12
373.158	6.12
373.944	5.12
374.73	5.12
375.516	5.12
376.302	5.12
377.088	6.12
377.873	5.12
378.659	3.12
379.445	6.12
380.23	4.12
381.015	4.12
381.801	6.12
382.586	6.12
383.371	4.12
384.156	6.12
384.941	6.12
385.726	5.12
386.511	7.12
387.296	3.12
388.08	5.12
388.865	5.12
389.649	7.12
390.434	6.12
391.218	5.12
392.003	6.12
392.787	5.12
393.571	6.12
394.355	5.12
395.139	8.12
395.923	5.12
396.707	6.12
397.491	8.12
398.274	5.12
399.058	9.12
399.842	8.12
400.625	5.12
401.408	8.12
402.192	8.12
402.975	8.12
403.758	9.12
404.541	8.12
405.324	6.12
406.107	7.12
406.89	9.12
407.673	7.12
408.456	8.12
409.238	7.12
410.021	8.12
410.803	8.12
411.586	9.12
412.368	8.12
413.151	9.12
413.933	9.12
414.715	10.12
415.497	7.12
416.279	8.12
417.061	5.12
417.843	9.12
418.624	9.12
419.406	9.12
420.188	11.12
420.969	10.12
421.751	10.12
422.532	9.12
423.313	11.12
424.095	12.12
424.876	12.12
425.657	12.12
426.438	11.12
427.219	13.12
428	10.12
428.78	14.12
429.561	12.12
430.342	13.12
431.122	14.12
431.903	13.12
432.683	16.12
433.464	14.12
434.244	17.12
435.024	18.12
435.804	16.12
436.584	19.12
437.364	21.12
438.144	20.12
438.924	19.12
439.704	22.12
440.483	24.12
441.263	23.12
442.042	26.12
442.822	28.12
443.601	33.12
444.38	33.12
445.16	32.12
445.939	34.12
446.718	39.12
447.497	43.12
448.276	42.12
449.054	48.12
449.833	54.12
450.612	53.12
451.391	59.12
452.169	69.12
452.948	75.12
453.726	85.12
454.504	85.12
455.282	97.12
456.061	109.12
456.839	120.12
457.617	132.12
458.395	145.12
459.172	166.12
459.95	186.12
460.728	207.12
461.506	230.12
462.283	256.12
463.061	284.12
463.838	312.12
464.615	344.12
465.393	387.12
466.17	437.12
466.947	488.12
467.724	535.12
468.501	587.12
469.278	651.12
470.055	722.12
470.831	801.12
471.608	892.12
472.385	993.12
473.161	1086.12
473.938	1214.12
474.714	1328.12
475.49	1462.12
476.266	1606.12
477.043	1758.12
477.819	1953.12
478.595	2142.12
479.371	2329.12
480.146	2563.12
480.922	2792.12
481.698	3072.12
482.473	3388.12
483.249	3690.12
484.024	4024.12
484.8	4403.12
485.575	4797.12
486.35	5270.12
487.126	5718.12
487.901	6285.12
488.676	6806.12
489.451	7447.12
490.225	8100.12
491	8733.12
491.775	9552.12
492.55	10340.12
493.324	11239.12
494.099	12031.12
494.873	12894.12
495.647	13912.12
496.422	14875.12
497.196	15934.12
497.97	16968.12
498.744	18108.12
499.518	19144.12
500.292	20197.12
501.066	21215.12
501.839	22115.12
502.613	23111.12
503.387	23851.12
504.16	24625.12
504.934	25069.12
505.707	25397.12
506.48	25632.12
507.253	25639.12
508.027	25632.12
508.8	25533.12
509.573	25367.12
510.346	24916.12
511.118	24372.12
511.891	23822.12
512.664	23093.12
513.437	22376.12
514.209	21536.12
514.982	20784.12
515.754	19939.12
516.526	19103.12
517.298	18362.12
518.071	17581.12
518.843	16898.12
519.615	16253.12
520.387	15630.12
521.159	14972.12
521.93	14426.12
522.702	13801.12
523.474	13246.12
524.245	12674.12
525.017	12167.12
525.788	11699.12
526.56	11222.12
527.331	10674.12
528.102	10224.12
528.873	9754.12
529.644	9352.12
530.415	8906.12
531.186	8478.12
531.957	8028.12
532.728	7696.12
533.498	7295.12
534.269	6884.12
535.039	6510.12
535.81	6156.12
536.58	5820.12
537.351	5493.12
538.121	5188.12
538.891	4923.12
539.661	4656.12
540.431	4401.12
541.201	4157.12
541.971	3941.12
542.741	3722.12
543.51	3552.12
544.28	3407.12
545.05	3216.12
545.819	3054.12
546.588	2893.12
547.358	2745.12
548.127	2621.12
548.896	2492.12
549.665	2359.12
550.434	2227.12
551.203	2125.12
551.972	2029.12
552.741	1885.12
553.51	1805.12
554.278	1707.12
555.047	1611.12
555.815	1530.12
556.584	1445.12
557.352	1377.12
558.121	1296.12
558.889	1219.12
559.657	1150.12
560.425	1093.12
561.193	1025.12
561.961	970.12
562.729	918.12
563.496	867.12
564.264	821.12
565.032	777.12
565.799	737.12
566.567	702.12
567.334	650.12
568.101	618.12
568.869	579.12
569.636	544.12
570.403	513.12
571.17	481.12
571.937	460.12
572.704	426.12
573.471	407.12
574.237	385.12
575.004	356.12
575.771	344.12
576.537	315.12
577.303	302.12
578.07	286.12
578.836	270.12
579.602	257.12
580.368	242.12
581.134	225.12
581.9	218.12
582.666	202.12
583.432	197.12
584.198	184.12
584.964	178.12
585.729	160.12
586.495	162.12
587.26	149.12
588.025	144.12
588.791	133.12
589.556	125.12
590.321	114.12
591.086	113.12
591.851	110.12
592.616	99.12
593.381	96.12
594.146	92.12
594.911	89.12
595.675	87.12
596.44	77.12
597.204	76.12
597.969	72.12
598.733	75.12
599.497	69.12
600.261	62.12
601.025	60.12
601.79	59.12
602.553	53.12
603.317	51.12
604.081	53.12
604.845	50.12
605.609	44.12
606.372	44.12
607.136	43.12
607.899	41.12
608.662	42.12
609.426	39.12
610.189	37.12
610.952	35.12
611.715	35.12
612.478	33.12
613.241	32.12
614.004	28.12
614.767	26.12
615.529	28.12
616.292	25.12
617.055	26.12
617.817	26.12
618.579	26.12
619.342	22.12
620.104	23.12
620.866	20.12
621.628	20.12
622.39	20.12
623.152	21.12
623.914	18.12
624.676	18.12
625.438	18.12
626.199	16.12
626.961	18.12
627.722	15.12
628.484	13.12
629.245	16.12
630.006	13.12
630.768	14.12
631.529	16.12
632.29	14.12
633.051	14.12
633.812	12.12
634.573	8.12
635.333	11.12
636.094	10.12
636.855	11.12
637.615	12.12
638.376	10.12
639.136	7.12
639.896	9.12
640.657	9.12
641.417	10.12
642.177	9.12
642.937	10.12
643.697	8.12
644.457	8.12
645.216	6.12
645.976	9.12
646.736	7.12
647.495	9.12
648.255	6.12
649.014	7.12
649.774	7.12
650.533	5.12
651.292	8.12
652.051	7.12
652.81	8.12
653.569	7.12
654.328	3.12
655.087	7.12
655.846	8.12
656.604	7.12
657.363	6.12
658.121	5.12
658.88	6.12
659.638	7.12
660.397	5.12
661.155	5.12
661.913	6.12
662.671	5.12
663.429	7.12
664.187	6.12
664.945	4.12
665.703	7.12
666.46	7.12
667.218	6.12
667.976	6.12
668.733	1.12
669.49	4.12
670.248	3.12
671.005	5.12
671.762	5.12
672.519	2.12
673.276	2.12
674.033	4.12
674.79	5.12
675.547	4.12
676.304	3.12
677.06	5.12
677.817	5.12
678.574	3.12
679.33	2.12
680.086	4.12
680.843	4.12
681.599	4.12
682.355	3.12
683.111	7.12
683.867	4.12
684.623	6.12
685.379	7.12
686.135	3.12
686.89	6.12
687.646	4.12
688.402	3.12
689.157	3.12
689.912	3.12
690.668	4.12
691.423	4.12
692.178	3.12
692.933	4.12
693.688	4.12
694.443	4.12
695.198	3.12
695.953	6.12
696.708	4.12
697.462	2.12
698.217	5.12
698.972	3.12
699.726	5.12
700.48	7.12
701.235	3.12
701.989	5.12
702.743	3.12
703.497	4.12
704.251	2.12
705.005	3.12
705.759	1.12
706.513	6.12
707.266	2.12
708.02	4.12
708.774	4.12
709.527	4.12
710.28	3.12
711.034	3.12
711.787	4.12
712.54	3.12
713.293	3.12
714.046	4.12
714.799	2.12
715.552	5.12
716.305	4.12
717.058	4.12
717.81	2.12
718.563	5.12
719.315	3.12
720.068	4.12
720.82	6.12
721.573	2.12
722.325	4.12
723.077	3.12
723.829	2.12
724.581	6.12
725.333	2.12
726.085	4.12
726.836	4.12
727.588	2.12
728.34	4.12
729.091	3.12
729.843	3.12
730.594	3.12
731.346	4.12
732.097	5.12
732.848	3.12
733.599	4.12
734.35	3.12
735.101	5.12
735.852	5.12
736.603	5.12
737.354	5.12
738.104	3.12
738.855	4.12
739.605	6.12
740.356	7.12
741.106	5.12
741.856	4.12
742.607	4.12
743.357	6.12
744.107	8.12
744.857	6.12
745.607	6.12
746.357	5.12
747.106	3.12
747.856	4.12
748.606	4.12
749.355	6.12
750.105	5.12
750.854	4.12
751.603	4.12
752.353	7.12
753.102	4.12
753.851	4.12
754.6	5.12
755.349	5.12
756.098	5.12
756.847	5.12
757.595	8.12
758.344	7.12
759.093	7.12
759.841	5.12
760.589	5.12
761.338	7.12
762.086	6.12
762.834	6.12
763.582	8.12
764.331	9.12
765.079	7.12
765.826	8.12
766.574	5.12
767.322	6.12
768.07	7.12
768.817	5.12
769.565	8.12
770.312	5.12
771.06	7.12
771.807	9.12
772.554	6.12
773.302	6.12
774.049	8.12
774.796	7.12
775.543	5.12
776.29	8.12
777.036	6.12
777.783	9.12
778.53	8.12
779.276	8.12
780.023	10.12
780.769	9.12
781.516	6.12
782.262	8.12
783.008	9.12
783.754	7.12
784.5	7.12
785.246	8.12
785.992	8.12
786.738	8.12
787.484	7.12
788.23	8.12
788.975	9.12
789.721	6.12
790.466	6.12
791.212	7.12
791.957	8.12
792.702	7.12
793.447	8.12
794.193	6.12
794.938	6.12
795.683	6.12
796.427	5.12
797.172	9.12
797.917	4.12
798.662	5.12
799.406	10.12
800.151	10.12
800.895	8.12
801.64	7.12
802.384	7.12
803.128	6.12
803.872	6.12
804.616	5.12
805.36	6.12
806.104	3.12
806.848	5.12
807.592	6.12
808.336	4.12
809.079	6.12
809.823	8.12
810.566	7.12
811.31	6.12
812.053	4.12
812.796	6.12
813.539	4.12
814.283	6.12
815.026	7.12
815.769	5.12
816.511	2.12
817.254	4.12
817.997	9.12
818.74	4.12
819.482	5.12
820.225	6.12
820.967	3.12
821.71	5.12
822.452	4.12
823.194	6.12
823.936	5.12
824.678	3.12
825.42	4.12
826.162	3.12
826.904	5.12
827.646	2.12
828.388	4.12
829.129	5.12
829.871	2.12
830.612	4.12
831.354	3.12
832.095	5.12
832.836	2.12
833.577	3.12
834.319	4.12
835.06	5.12
835.801	4.12
836.542	2.12
837.282	4.12
838.023	2.12
838.764	4.12
839.504	5.12
840.245	5.12
840.985	4.12
841.726	1.12
842.466	4.12
843.206	4.12
843.946	3.12
844.687	2.12
845.427	2.12
846.166	4.12
846.906	1.12
847.646	2.12
848.386	2.12
849.125	1.12
849.865	2.12
850.605	2.12
851.344	2.12
852.083	4.12
852.823	3.12
853.562	4.12
854.301	2.12
855.04	5.12
855.779	2.12
856.518	1.12
857.257	5.12
857.995	1.12
858.734	4.12
859.473	2.12
860.211	5.12
860.95	1.12
861.688	0.12
862.426	3.12
863.165	0.12
863.903	5.12
864.641	2.12
865.379	2.12
866.117	1.12
866.855	2.12
867.593	3.12
868.33	-0.88
869.068	4.12
869.806	2.12
870.543	1.12
871.28	2.12
872.018	2.12
872.755	1.12
873.492	1.12
874.229	3.12
874.967	-0.88
875.703	2.12
876.44	0.12
877.177	1.12
877.914	1.12
878.651	1.12
879.387	3.12
880.124	1.12
880.86	1.12
881.597	1.12
882.333	3.12
883.069	2.12
883.806	1.12
884.542	1.12
885.278	1.12
886.014	1.12
886.749	1.12
887.485	1.12
888.221	1.12
888.957	0.12
889.692	2.12
890.428	2.12
891.163	1.12
891.899	0.12
892.634	2.12
893.369	2.12
894.104	0.12
894.839	0.12
895.574	2.12
896.309	1.12
897.044	1.12
897.779	2.12
898.514	1.12
899.248	-1.88
899.983	0.12
900.717	2.12
901.452	0.12
902.186	1.12
902.92	3.12
903.654	1.12
904.389	1.12
905.123	-0.88
905.857	1.12
906.59	0.12
907.324	-0.88
908.058	0.12
908.792	1.12
909.525	1.12
910.259	1.12
910.992	2.12
911.726	1.12
912.459	2.12
913.192	1.12
913.925	0.12
914.658	-0.88
915.391	1.12
916.124	0.12
916.857	1.12
917.59	1.12
918.323	0.12
919.055	4.12
919.788	1.12
920.521	0.12
921.253	0.12
921.985	1.12
922.718	0.12
923.45	-0.88
924.182	2.12
924.914	0.12
925.646	-1.88
926.378	0.12
927.11	-2.88
927.841	0.12
928.573	-1.88
929.305	2.12
930.036	1.12
930.768	0.12
931.499	0.12
932.23	0.12
932.962	2.12
933.693	1.12
934.424	2.12
935.155	1.12
935.886	2.12
936.617	-0.88
937.348	-0.88
938.078	0.12
938.809	1.12
939.54	1.12
940.27	2.12
941.001	0.12
941.731	2.12
942.461	2.12
943.191	1.12
943.922	-0.88
944.652	1.12
945.382	2.12
946.112	0.12
946.841	-0.88
947.571	0.12
948.301	1.12
949.031	0.12
949.76	0.12
950.49	0.12
951.219	1.12
951.948	0.12
952.678	0.12
953.407	-0.88
954.136	1.12
954.865	0.12
955.594	1.12
956.323	-1.88
957.052	-1.88
957.78	-0.88
958.509	-0.88
959.238	0.12
959.966	-1.88
960.695	2.12
961.423	0.12
962.151	-1.88
962.88	2.12
963.608	-2.88
964.336	1.12
965.064	0.12
965.792	1.12
966.52	-0.88
967.247	0.12
967.975	0.12
968.703	1.12
969.43	0.12
970.158	0.12
970.885	1.12
971.613	-2.88
972.34	0.12
973.067	0.12
973.794	0.12
974.521	-1.88
975.248	1.12
975.975	-0.88
976.702	0.12
977.429	1.12
978.156	0.12
978.882	0.12
979.609	0.12
980.335	0.12
981.062	-2.88
981.788	0.12
982.514	-0.88
983.24	-0.88
983.967	-0.88
984.693	2.12
985.419	0.12
986.144	1.12
986.87	-0.88
987.596	1.12
988.322	2.12
989.047	1.12
989.773	0.12
990.498	-0.88
991.224	0.12
991.949	1.12
992.674	0.12
993.399	2.12
994.124	1.12
994.849	0.12
995.574	-0.88
996.299	1.12
997.024	1.12
997.749	-0.88
998.473	0.12
999.198	-0.88
999.922	1.12
1000.647	1.12
1001.371	2.12
1002.095	0.12
1002.82	-0.88
1003.544	-0.88
1004.268	1.12
1004.992	1.12
1005.716	0.12
1006.439	2.12
1007.163	2.12
1007.887	0.12
1008.611	1.12
1009.334	1.12
1010.058	1.12
1010.781	2.12
1011.504	0.12
1012.228	0.12
1012.951	-0.88
1013.674	-0.88
1014.397	0.12
1015.12	1.12
