节点500_285_QEPB04081__473__15-03-25-496.txt的数据

Date: Wed Nov 12 15:03:25 CST 2025
User: PC
Spectrometer: QEPB0408
触发模式: 0
积分时间 (秒): 1.000000E-2
Scans to average: 1
启用暗噪声校正: true
启用非线性校正: false
滑动平均宽度: 0
X轴模式: Wavelengths
Number of Pixels in Spectrum: 1044
>>>>>Begin Spectral Data<<<<<
220.843	0.88
221.644	-0.12
222.444	-0.12
223.244	-0.12
224.045	2.88
224.845	1.88
225.645	0.88
226.445	2.88
227.245	2.88
228.045	2.88
228.845	2.88
229.645	1.88
230.444	0.88
231.244	1.88
232.043	3.88
232.843	1.88
233.642	3.88
234.442	2.88
235.241	3.88
236.04	4.88
236.839	3.88
237.638	4.88
238.437	3.88
239.236	5.88
240.035	4.88
240.833	3.88
241.632	3.88
242.43	6.88
243.229	4.88
244.027	3.88
244.826	4.88
245.624	4.88
246.422	5.88
247.22	6.88
248.018	4.88
248.816	5.88
249.614	4.88
250.412	5.88
251.21	3.88
252.007	5.88
252.805	4.88
253.602	6.88
254.4	5.88
255.197	7.88
255.994	7.88
256.791	6.88
257.589	6.88
258.386	7.88
259.183	9.88
259.979	7.88
260.776	9.88
261.573	9.88
262.37	9.88
263.166	12.88
263.963	9.88
264.759	7.88
265.556	11.88
266.352	13.88
267.148	9.88
267.944	12.88
268.74	13.88
269.536	13.88
270.332	13.88
271.128	14.88
271.924	13.88
272.719	11.88
273.515	13.88
274.311	16.88
275.106	18.88
275.901	15.88
276.697	13.88
277.492	17.88
278.287	17.88
279.082	15.88
279.877	16.88
280.672	15.88
281.467	17.88
282.262	18.88
283.056	13.88
283.851	15.88
284.646	17.88
285.44	17.88
286.234	17.88
287.029	15.88
287.823	15.88
288.617	17.88
289.411	17.88
290.205	15.88
290.999	21.88
291.793	16.88
292.587	12.88
293.381	15.88
294.174	14.88
294.968	17.88
295.761	14.88
296.555	15.88
297.348	17.88
298.141	13.88
298.935	15.88
299.728	12.88
300.521	15.88
301.314	11.88
302.107	9.88
302.899	13.88
303.692	11.88
304.485	11.88
305.277	12.88
306.07	12.88
306.862	14.88
307.655	12.88
308.447	12.88
309.239	9.88
310.031	11.88
310.823	9.88
311.615	10.88
312.407	8.88
313.199	8.88
313.991	10.88
314.783	8.88
315.574	9.88
316.366	9.88
317.157	7.88
317.949	7.88
318.74	6.88
319.531	6.88
320.322	6.88
321.113	7.88
321.904	5.88
322.695	7.88
323.486	9.88
324.277	5.88
325.068	8.88
325.858	7.88
326.649	8.88
327.439	7.88
328.23	6.88
329.02	5.88
329.81	6.88
330.6	7.88
331.391	3.88
332.181	5.88
332.971	7.88
333.76	4.88
334.55	5.88
335.34	4.88
336.13	2.88
336.919	8.88
337.709	7.88
338.498	3.88
339.287	6.88
340.077	6.88
340.866	5.88
341.655	4.88
342.444	3.88
343.233	6.88
344.022	6.88
344.811	6.88
345.6	6.88
346.388	3.88
347.177	6.88
347.965	5.88
348.754	6.88
349.542	6.88
350.33	8.88
351.119	5.88
351.907	6.88
352.695	5.88
353.483	4.88
354.271	5.88
355.059	3.88
355.846	6.88
356.634	5.88
357.422	7.88
358.209	4.88
358.997	7.88
359.784	6.88
360.571	5.88
361.359	5.88
362.146	4.88
362.933	7.88
363.72	4.88
364.507	4.88
365.294	5.88
366.081	2.88
366.867	6.88
367.654	3.88
368.44	3.88
369.227	6.88
370.013	5.88
370.8	4.88
371.586	6.88
372.372	3.88
373.158	3.88
373.944	5.88
374.73	3.88
375.516	5.88
376.302	4.88
377.088	4.88
377.873	4.88
378.659	4.88
379.445	4.88
380.23	4.88
381.015	4.88
381.801	5.88
382.586	3.88
383.371	5.88
384.156	4.88
384.941	4.88
385.726	4.88
386.511	5.88
387.296	6.88
388.08	4.88
388.865	4.88
389.649	4.88
390.434	4.88
391.218	4.88
392.003	6.88
392.787	7.88
393.571	4.88
394.355	6.88
395.139	9.88
395.923	4.88
396.707	4.88
397.491	4.88
398.274	8.88
399.058	3.88
399.842	4.88
400.625	7.88
401.408	5.88
402.192	7.88
402.975	7.88
403.758	7.88
404.541	8.88
405.324	8.88
406.107	5.88
406.89	5.88
407.673	6.88
408.456	6.88
409.238	9.88
410.021	7.88
410.803	8.88
411.586	6.88
412.368	6.88
413.151	8.88
413.933	6.88
414.715	7.88
415.497	7.88
416.279	11.88
417.061	9.88
417.843	8.88
418.624	7.88
419.406	10.88
420.188	9.88
420.969	9.88
421.751	9.88
422.532	10.88
423.313	13.88
424.095	12.88
424.876	12.88
425.657	12.88
426.438	12.88
427.219	12.88
428	9.88
428.78	10.88
429.561	12.88
430.342	11.88
431.122	15.88
431.903	15.88
432.683	15.88
433.464	15.88
434.244	18.88
435.024	15.88
435.804	16.88
436.584	18.88
437.364	17.88
438.144	16.88
438.924	20.88
439.704	21.88
440.483	23.88
441.263	23.88
442.042	25.88
442.822	24.88
443.601	27.88
444.38	28.88
445.16	30.88
445.939	33.88
446.718	34.88
447.497	37.88
448.276	41.88
449.054	47.88
449.833	48.88
450.612	51.88
451.391	60.88
452.169	64.88
452.948	69.88
453.726	77.88
454.504	81.88
455.282	94.88
456.061	99.88
456.839	111.88
457.617	125.88
458.395	133.88
459.172	151.88
459.95	169.88
460.728	186.88
461.506	219.88
462.283	232.88
463.061	263.88
463.838	300.88
464.615	332.88
465.393	365.88
466.17	413.88
466.947	461.88
467.724	506.88
468.501	557.88
469.278	632.88
470.055	696.88
470.831	781.88
471.608	851.88
472.385	959.88
473.161	1052.88
473.938	1166.88
474.714	1307.88
475.49	1448.88
476.266	1580.88
477.043	1744.88
477.819	1936.88
478.595	2112.88
479.371	2359.88
480.146	2575.88
480.922	2833.88
481.698	3116.88
482.473	3431.88
483.249	3783.88
484.024	4134.88
484.8	4547.88
485.575	4976.88
486.35	5450.88
487.126	5992.88
487.901	6529.88
488.676	7162.88
489.451	7838.88
490.225	8535.88
491	9346.88
491.775	10196.88
492.55	11079.88
493.324	12006.88
494.099	12919.88
494.873	13929.88
495.647	15029.88
496.422	16097.88
497.196	17210.88
497.97	18390.88
498.744	19620.88
499.518	20609.88
500.292	21757.88
501.066	22900.88
501.839	23790.88
502.613	24717.88
503.387	25505.88
504.16	26266.88
504.934	26526.88
505.707	26629.88
506.48	26872.88
507.253	26899.88
508.027	26612.88
508.8	26374.88
509.573	26078.88
510.346	25476.88
511.118	24846.88
511.891	24053.88
512.664	23262.88
513.437	22364.88
514.209	21527.88
514.982	20694.88
515.754	19797.88
516.526	18879.88
517.298	18115.88
518.071	17317.88
518.843	16641.88
519.615	16035.88
520.387	15372.88
521.159	14831.88
521.93	14221.88
522.702	13607.88
523.474	13079.88
524.245	12509.88
525.017	11976.88
525.788	11554.88
526.56	11004.88
527.331	10486.88
528.102	10013.88
528.873	9553.88
529.644	9089.88
530.415	8713.88
531.186	8242.88
531.957	7779.88
532.728	7448.88
533.498	7063.88
534.269	6671.88
535.039	6284.88
535.81	5926.88
536.58	5615.88
537.351	5323.88
538.121	5000.88
538.891	4777.88
539.661	4481.88
540.431	4247.88
541.201	3992.88
541.971	3812.88
542.741	3605.88
543.51	3406.88
544.28	3236.88
545.05	3077.88
545.819	2929.88
546.588	2784.88
547.358	2657.88
548.127	2497.88
548.896	2402.88
549.665	2260.88
550.434	2164.88
551.203	2026.88
551.972	1927.88
552.741	1822.88
553.51	1728.88
554.278	1631.88
555.047	1539.88
555.815	1449.88
556.584	1369.88
557.352	1307.88
558.121	1212.88
558.889	1147.88
559.657	1087.88
560.425	1049.88
561.193	969.88
561.961	909.88
562.729	868.88
563.496	824.88
564.264	765.88
565.032	734.88
565.799	694.88
566.567	654.88
567.334	619.88
568.101	585.88
568.869	545.88
569.636	512.88
570.403	479.88
571.17	456.88
571.937	431.88
572.704	416.88
573.471	379.88
574.237	365.88
575.004	346.88
575.771	329.88
576.537	302.88
577.303	286.88
578.07	271.88
578.836	251.88
579.602	240.88
580.368	222.88
581.134	217.88
581.9	210.88
582.666	196.88
583.432	181.88
584.198	172.88
584.964	161.88
585.729	157.88
586.495	145.88
587.26	141.88
588.025	132.88
588.791	126.88
589.556	119.88
590.321	111.88
591.086	108.88
591.851	106.88
592.616	94.88
593.381	94.88
594.146	88.88
594.911	82.88
595.675	80.88
596.44	76.88
597.204	70.88
597.969	68.88
598.733	66.88
599.497	64.88
600.261	61.88
601.025	59.88
601.79	55.88
602.553	53.88
603.317	53.88
604.081	46.88
604.845	47.88
605.609	44.88
606.372	41.88
607.136	41.88
607.899	37.88
608.662	36.88
609.426	36.88
610.189	34.88
610.952	32.88
611.715	32.88
612.478	31.88
613.241	29.88
614.004	28.88
614.767	29.88
615.529	25.88
616.292	24.88
617.055	24.88
617.817	24.88
618.579	23.88
619.342	23.88
620.104	20.88
620.866	22.88
621.628	17.88
622.39	18.88
623.152	16.88
623.914	16.88
624.676	17.88
625.438	16.88
626.199	15.88
626.961	16.88
627.722	17.88
628.484	13.88
629.245	13.88
630.006	14.88
630.768	12.88
631.529	12.88
632.29	14.88
633.051	11.88
633.812	13.88
634.573	11.88
635.333	10.88
636.094	8.88
636.855	10.88
637.615	10.88
638.376	9.88
639.136	10.88
639.896	9.88
640.657	8.88
641.417	8.88
642.177	9.88
642.937	9.88
643.697	9.88
644.457	7.88
645.216	9.88
645.976	6.88
646.736	8.88
647.495	8.88
648.255	6.88
649.014	6.88
649.774	6.88
650.533	7.88
651.292	6.88
652.051	7.88
652.81	4.88
653.569	3.88
654.328	5.88
655.087	6.88
655.846	5.88
656.604	6.88
657.363	3.88
658.121	4.88
658.88	4.88
659.638	4.88
660.397	7.88
661.155	6.88
661.913	2.88
662.671	4.88
663.429	4.88
664.187	6.88
664.945	1.88
665.703	3.88
666.46	5.88
667.218	1.88
667.976	5.88
668.733	4.88
669.49	6.88
670.248	4.88
671.005	4.88
671.762	5.88
672.519	5.88
673.276	5.88
674.033	1.88
674.79	5.88
675.547	3.88
676.304	4.88
677.06	4.88
677.817	3.88
678.574	3.88
679.33	3.88
680.086	3.88
680.843	3.88
681.599	1.88
682.355	3.88
683.111	3.88
683.867	5.88
684.623	4.88
685.379	5.88
686.135	2.88
686.89	3.88
687.646	1.88
688.402	3.88
689.157	3.88
689.912	3.88
690.668	2.88
691.423	1.88
692.178	1.88
692.933	4.88
693.688	2.88
694.443	4.88
695.198	3.88
695.953	2.88
696.708	4.88
697.462	2.88
698.217	1.88
698.972	1.88
699.726	3.88
700.48	2.88
701.235	4.88
701.989	3.88
702.743	0.88
703.497	0.88
704.251	3.88
705.005	3.88
705.759	3.88
706.513	0.88
707.266	4.88
708.02	2.88
708.774	2.88
709.527	2.88
710.28	2.88
711.034	4.88
711.787	2.88
712.54	4.88
713.293	3.88
714.046	3.88
714.799	3.88
715.552	0.88
716.305	4.88
717.058	2.88
717.81	2.88
718.563	3.88
719.315	1.88
720.068	2.88
720.82	3.88
721.573	3.88
722.325	1.88
723.077	3.88
723.829	3.88
724.581	4.88
725.333	1.88
726.085	2.88
726.836	3.88
727.588	5.88
728.34	1.88
729.091	1.88
729.843	3.88
730.594	4.88
731.346	2.88
732.097	1.88
732.848	1.88
733.599	2.88
734.35	5.88
735.101	2.88
735.852	7.88
736.603	3.88
737.354	4.88
738.104	1.88
738.855	5.88
739.605	4.88
740.356	4.88
741.106	4.88
741.856	4.88
742.607	3.88
743.357	5.88
744.107	3.88
744.857	4.88
745.607	3.88
746.357	2.88
747.106	4.88
747.856	4.88
748.606	2.88
749.355	3.88
750.105	5.88
750.854	3.88
751.603	5.88
752.353	3.88
753.102	4.88
753.851	4.88
754.6	3.88
755.349	4.88
756.098	6.88
756.847	5.88
757.595	4.88
758.344	3.88
759.093	4.88
759.841	6.88
760.589	4.88
761.338	5.88
762.086	7.88
762.834	5.88
763.582	7.88
764.331	6.88
765.079	2.88
765.826	7.88
766.574	7.88
767.322	5.88
768.07	8.88
768.817	6.88
769.565	8.88
770.312	8.88
771.06	7.88
771.807	8.88
772.554	4.88
773.302	7.88
774.049	7.88
774.796	10.88
775.543	8.88
776.29	8.88
777.036	7.88
777.783	7.88
778.53	5.88
779.276	6.88
780.023	6.88
780.769	5.88
781.516	8.88
782.262	9.88
783.008	7.88
783.754	7.88
784.5	7.88
785.246	7.88
785.992	8.88
786.738	8.88
787.484	7.88
788.23	7.88
788.975	9.88
789.721	9.88
790.466	9.88
791.212	8.88
791.957	7.88
792.702	6.88
793.447	6.88
794.193	6.88
794.938	8.88
795.683	7.88
796.427	6.88
797.172	6.88
797.917	8.88
798.662	8.88
799.406	6.88
800.151	5.88
800.895	4.88
801.64	6.88
802.384	7.88
803.128	6.88
803.872	6.88
804.616	7.88
805.36	3.88
806.104	5.88
806.848	5.88
807.592	4.88
808.336	7.88
809.079	5.88
809.823	3.88
810.566	5.88
811.31	3.88
812.053	5.88
812.796	4.88
813.539	6.88
814.283	3.88
815.026	6.88
815.769	4.88
816.511	4.88
817.254	5.88
817.997	5.88
818.74	1.88
819.482	3.88
820.225	2.88
820.967	5.88
821.71	2.88
822.452	3.88
823.194	4.88
823.936	4.88
824.678	6.88
825.42	3.88
826.162	4.88
826.904	2.88
827.646	4.88
828.388	4.88
829.129	3.88
829.871	2.88
830.612	1.88
831.354	4.88
832.095	3.88
832.836	1.88
833.577	1.88
834.319	2.88
835.06	2.88
835.801	3.88
836.542	2.88
837.282	3.88
838.023	0.88
838.764	2.88
839.504	3.88
840.245	3.88
840.985	3.88
841.726	4.88
842.466	1.88
843.206	3.88
843.946	5.88
844.687	2.88
845.427	1.88
846.166	3.88
846.906	3.88
847.646	0.88
848.386	5.88
849.125	1.88
849.865	2.88
850.605	4.88
851.344	2.88
852.083	0.88
852.823	3.88
853.562	1.88
854.301	4.88
855.04	-0.12
855.779	1.88
856.518	3.88
857.257	0.88
857.995	1.88
858.734	-0.12
859.473	1.88
860.211	1.88
860.95	0.88
861.688	3.88
862.426	2.88
863.165	3.88
863.903	-0.12
864.641	1.88
865.379	1.88
866.117	0.88
866.855	0.88
867.593	1.88
868.33	2.88
869.068	1.88
869.806	2.88
870.543	1.88
871.28	1.88
872.018	2.88
872.755	-1.12
873.492	2.88
874.229	1.88
874.967	0.88
875.703	1.88
876.44	2.88
877.177	0.88
877.914	0.88
878.651	0.88
879.387	-0.12
880.124	1.88
880.86	0.88
881.597	-0.12
882.333	1.88
883.069	-0.12
883.806	0.88
884.542	0.88
885.278	-0.12
886.014	4.88
886.749	-0.12
887.485	0.88
888.221	0.88
888.957	1.88
889.692	-0.12
890.428	0.88
891.163	0.88
891.899	0.88
892.634	1.88
893.369	1.88
894.104	-0.12
894.839	1.88
895.574	0.88
896.309	0.88
897.044	-1.12
897.779	0.88
898.514	1.88
899.248	0.88
899.983	0.88
900.717	-1.12
901.452	-0.12
902.186	-0.12
902.92	0.88
903.654	0.88
904.389	-0.12
905.123	-0.12
905.857	-0.12
906.59	2.88
907.324	0.88
908.058	1.88
908.792	1.88
909.525	0.88
910.259	-0.12
910.992	-0.12
911.726	1.88
912.459	0.88
913.192	-1.12
913.925	1.88
914.658	1.88
915.391	0.88
916.124	-0.12
916.857	2.88
917.59	0.88
918.323	0.88
919.055	-0.12
919.788	-1.12
920.521	-0.12
921.253	0.88
921.985	0.88
922.718	0.88
923.45	-0.12
924.182	1.88
924.914	-2.12
925.646	1.88
926.378	0.88
927.11	-2.12
927.841	1.88
928.573	0.88
929.305	-0.12
930.036	-0.12
930.768	-0.12
931.499	-0.12
932.23	-0.12
932.962	-0.12
933.693	0.88
934.424	0.88
935.155	-1.12
935.886	-0.12
936.617	-0.12
937.348	-1.12
938.078	1.88
938.809	-1.12
939.54	-0.12
940.27	-1.12
941.001	0.88
941.731	-2.12
942.461	0.88
943.191	0.88
943.922	-2.12
944.652	-1.12
945.382	0.88
946.112	-1.12
946.841	-0.12
947.571	0.88
948.301	1.88
949.031	-1.12
949.76	0.88
950.49	-0.12
951.219	-1.12
951.948	-0.12
952.678	0.88
953.407	1.88
954.136	1.88
954.865	1.88
955.594	0.88
956.323	0.88
957.052	-0.12
957.78	1.88
958.509	0.88
959.238	-0.12
959.966	0.88
960.695	1.88
961.423	-0.12
962.151	1.88
962.88	-1.12
963.608	-0.12
964.336	-0.12
965.064	-0.12
965.792	-1.12
966.52	-2.12
967.247	1.88
967.975	1.88
968.703	-1.12
969.43	-0.12
970.158	-1.12
970.885	1.88
971.613	-0.12
972.34	1.88
973.067	0.88
973.794	-1.12
974.521	0.88
975.248	-0.12
975.975	1.88
976.702	0.88
977.429	1.88
978.156	-2.12
978.882	-0.12
979.609	0.88
980.335	-1.12
981.062	-0.12
981.788	-2.12
982.514	0.88
983.24	-0.12
983.967	-1.12
984.693	0.88
985.419	1.88
986.144	0.88
986.87	0.88
987.596	-0.12
988.322	-0.12
989.047	0.88
989.773	0.88
990.498	-1.12
991.224	-1.12
991.949	-1.12
992.674	1.88
993.399	1.88
994.124	-1.12
994.849	1.88
995.574	2.88
996.299	-0.12
997.024	-0.12
997.749	-2.12
998.473	-1.12
999.198	0.88
999.922	0.88
1000.647	-0.12
1001.371	1.88
1002.095	-0.12
1002.82	-0.12
1003.544	-0.12
1004.268	0.88
1004.992	0.88
1005.716	2.88
1006.439	1.88
1007.163	1.88
1007.887	-1.12
1008.611	0.88
1009.334	0.88
1010.058	-0.12
1010.781	-1.12
1011.504	1.88
1012.228	0.88
1012.951	-0.12
1013.674	1.88
1014.397	-0.12
1015.12	-3.12
