节点500_285_QEPB04081__857__15-09-48-701.txt的数据

Date: Wed Nov 12 15:09:48 CST 2025
User: PC
Spectrometer: QEPB0408
触发模式: 0
积分时间 (秒): 1.000000E-2
Scans to average: 1
启用暗噪声校正: true
启用非线性校正: false
滑动平均宽度: 0
X轴模式: Wavelengths
Number of Pixels in Spectrum: 1044
>>>>>Begin Spectral Data<<<<<
220.843	1.12
221.644	2.12
222.444	1.12
223.244	1.12
224.045	3.12
224.845	2.12
225.645	2.12
226.445	3.12
227.245	3.12
228.045	3.12
228.845	2.12
229.645	5.12
230.444	3.12
231.244	3.12
232.043	5.12
232.843	1.12
233.642	5.12
234.442	3.12
235.241	4.12
236.04	5.12
236.839	4.12
237.638	5.12
238.437	4.12
239.236	7.12
240.035	4.12
240.833	8.12
241.632	3.12
242.43	5.12
243.229	5.12
244.027	4.12
244.826	6.12
245.624	5.12
246.422	3.12
247.22	7.12
248.018	5.12
248.816	7.12
249.614	8.12
250.412	8.12
251.21	7.12
252.007	6.12
252.805	8.12
253.602	8.12
254.4	11.12
255.197	8.12
255.994	7.12
256.791	7.12
257.589	7.12
258.386	8.12
259.183	6.12
259.979	9.12
260.776	8.12
261.573	11.12
262.37	12.12
263.166	10.12
263.963	13.12
264.759	9.12
265.556	12.12
266.352	14.12
267.148	13.12
267.944	12.12
268.74	10.12
269.536	15.12
270.332	13.12
271.128	13.12
271.924	10.12
272.719	13.12
273.515	14.12
274.311	15.12
275.106	17.12
275.901	15.12
276.697	16.12
277.492	17.12
278.287	17.12
279.082	18.12
279.877	16.12
280.672	15.12
281.467	18.12
282.262	20.12
283.056	17.12
283.851	18.12
284.646	17.12
285.44	16.12
286.234	19.12
287.029	17.12
287.823	19.12
288.617	16.12
289.411	17.12
290.205	20.12
290.999	18.12
291.793	18.12
292.587	18.12
293.381	15.12
294.174	14.12
294.968	17.12
295.761	17.12
296.555	16.12
297.348	16.12
298.141	18.12
298.935	17.12
299.728	15.12
300.521	14.12
301.314	16.12
302.107	13.12
302.899	14.12
303.692	14.12
304.485	12.12
305.277	13.12
306.07	11.12
306.862	12.12
307.655	13.12
308.447	14.12
309.239	13.12
310.031	12.12
310.823	10.12
311.615	11.12
312.407	12.12
313.199	11.12
313.991	10.12
314.783	11.12
315.574	10.12
316.366	11.12
317.157	8.12
317.949	12.12
318.74	11.12
319.531	8.12
320.322	8.12
321.113	8.12
321.904	9.12
322.695	9.12
323.486	10.12
324.277	9.12
325.068	10.12
325.858	6.12
326.649	7.12
327.439	8.12
328.23	8.12
329.02	7.12
329.81	9.12
330.6	6.12
331.391	6.12
332.181	6.12
332.971	9.12
333.76	6.12
334.55	8.12
335.34	7.12
336.13	7.12
336.919	10.12
337.709	8.12
338.498	8.12
339.287	10.12
340.077	8.12
340.866	8.12
341.655	6.12
342.444	5.12
343.233	8.12
344.022	6.12
344.811	8.12
345.6	7.12
346.388	8.12
347.177	4.12
347.965	7.12
348.754	7.12
349.542	8.12
350.33	6.12
351.119	4.12
351.907	9.12
352.695	6.12
353.483	6.12
354.271	7.12
355.059	7.12
355.846	8.12
356.634	4.12
357.422	9.12
358.209	6.12
358.997	7.12
359.784	8.12
360.571	7.12
361.359	6.12
362.146	6.12
362.933	6.12
363.72	8.12
364.507	7.12
365.294	6.12
366.081	8.12
366.867	7.12
367.654	5.12
368.44	6.12
369.227	5.12
370.013	6.12
370.8	6.12
371.586	5.12
372.372	4.12
373.158	4.12
373.944	8.12
374.73	3.12
375.516	8.12
376.302	6.12
377.088	6.12
377.873	7.12
378.659	6.12
379.445	5.12
380.23	8.12
381.015	7.12
381.801	6.12
382.586	6.12
383.371	8.12
384.156	5.12
384.941	7.12
385.726	5.12
386.511	5.12
387.296	6.12
388.08	8.12
388.865	7.12
389.649	6.12
390.434	6.12
391.218	7.12
392.003	6.12
392.787	6.12
393.571	4.12
394.355	6.12
395.139	3.12
395.923	6.12
396.707	7.12
397.491	6.12
398.274	6.12
399.058	7.12
399.842	6.12
400.625	8.12
401.408	9.12
402.192	9.12
402.975	8.12
403.758	7.12
404.541	8.12
405.324	9.12
406.107	8.12
406.89	8.12
407.673	8.12
408.456	7.12
409.238	9.12
410.021	8.12
410.803	8.12
411.586	9.12
412.368	11.12
413.151	9.12
413.933	7.12
414.715	12.12
415.497	10.12
416.279	10.12
417.061	9.12
417.843	10.12
418.624	10.12
419.406	11.12
420.188	11.12
420.969	11.12
421.751	10.12
422.532	11.12
423.313	12.12
424.095	11.12
424.876	14.12
425.657	12.12
426.438	13.12
427.219	13.12
428	13.12
428.78	12.12
429.561	14.12
430.342	13.12
431.122	15.12
431.903	17.12
432.683	14.12
433.464	18.12
434.244	14.12
435.024	17.12
435.804	16.12
436.584	20.12
437.364	19.12
438.144	20.12
438.924	22.12
439.704	21.12
440.483	24.12
441.263	26.12
442.042	28.12
442.822	28.12
443.601	26.12
444.38	31.12
445.16	35.12
445.939	37.12
446.718	39.12
447.497	42.12
448.276	45.12
449.054	54.12
449.833	51.12
450.612	62.12
451.391	64.12
452.169	69.12
452.948	77.12
453.726	84.12
454.504	95.12
455.282	104.12
456.061	111.12
456.839	125.12
457.617	141.12
458.395	151.12
459.172	171.12
459.95	191.12
460.728	209.12
461.506	235.12
462.283	262.12
463.061	294.12
463.838	328.12
464.615	360.12
465.393	399.12
466.17	442.12
466.947	499.12
467.724	557.12
468.501	595.12
469.278	678.12
470.055	743.12
470.831	813.12
471.608	915.12
472.385	1009.12
473.161	1108.12
473.938	1214.12
474.714	1346.12
475.49	1458.12
476.266	1614.12
477.043	1750.12
477.819	1944.12
478.595	2129.12
479.371	2330.12
480.146	2548.12
480.922	2775.12
481.698	3036.12
482.473	3327.12
483.249	3618.12
484.024	3954.12
484.8	4306.12
485.575	4687.12
486.35	5123.12
487.126	5552.12
487.901	6056.12
488.676	6575.12
489.451	7140.12
490.225	7788.12
491	8408.12
491.775	9149.12
492.55	9903.12
493.324	10667.12
494.099	11446.12
494.873	12238.12
495.647	13187.12
496.422	14129.12
497.196	15121.12
497.97	16137.12
498.744	17137.12
499.518	18124.12
500.292	19162.12
501.066	20138.12
501.839	21113.12
502.613	21960.12
503.387	22804.12
504.16	23518.12
504.934	24011.12
505.707	24348.12
506.48	24698.12
507.253	24845.12
508.027	24862.12
508.8	24823.12
509.573	24758.12
510.346	24405.12
511.118	23941.12
511.891	23464.12
512.664	22831.12
513.437	22145.12
514.209	21380.12
514.982	20698.12
515.754	19892.12
516.526	19039.12
517.298	18313.12
518.071	17671.12
518.843	16926.12
519.615	16328.12
520.387	15696.12
521.159	15073.12
521.93	14445.12
522.702	13880.12
523.474	13330.12
524.245	12734.12
525.017	12201.12
525.788	11783.12
526.56	11234.12
527.331	10745.12
528.102	10329.12
528.873	9917.12
529.644	9402.12
530.415	8990.12
531.186	8566.12
531.957	8131.12
532.728	7778.12
533.498	7388.12
534.269	6989.12
535.039	6639.12
535.81	6287.12
536.58	5935.12
537.351	5600.12
538.121	5303.12
538.891	5027.12
539.661	4753.12
540.431	4504.12
541.201	4245.12
541.971	4007.12
542.741	3804.12
543.51	3637.12
544.28	3459.12
545.05	3276.12
545.819	3123.12
546.588	2970.12
547.358	2788.12
548.127	2679.12
548.896	2558.12
549.665	2417.12
550.434	2301.12
551.203	2159.12
551.972	2063.12
552.741	1947.12
553.51	1845.12
554.278	1765.12
555.047	1667.12
555.815	1558.12
556.584	1473.12
557.352	1401.12
558.121	1317.12
558.889	1257.12
559.657	1183.12
560.425	1115.12
561.193	1052.12
561.961	995.12
562.729	953.12
563.496	892.12
564.264	834.12
565.032	792.12
565.799	755.12
566.567	707.12
567.334	676.12
568.101	632.12
568.869	595.12
569.636	563.12
570.403	524.12
571.17	494.12
571.937	467.12
572.704	447.12
573.471	416.12
574.237	401.12
575.004	374.12
575.771	353.12
576.537	338.12
577.303	317.12
578.07	298.12
578.836	282.12
579.602	263.12
580.368	251.12
581.134	235.12
581.9	225.12
582.666	213.12
583.432	198.12
584.198	190.12
584.964	181.12
585.729	173.12
586.495	166.12
587.26	153.12
588.025	146.12
588.791	138.12
589.556	133.12
590.321	126.12
591.086	115.12
591.851	113.12
592.616	107.12
593.381	97.12
594.146	99.12
594.911	92.12
595.675	89.12
596.44	89.12
597.204	79.12
597.969	74.12
598.733	72.12
599.497	73.12
600.261	67.12
601.025	66.12
601.79	62.12
602.553	56.12
603.317	54.12
604.081	54.12
604.845	50.12
605.609	49.12
606.372	46.12
607.136	42.12
607.899	42.12
608.662	39.12
609.426	37.12
610.189	38.12
610.952	38.12
611.715	35.12
612.478	33.12
613.241	34.12
614.004	31.12
614.767	27.12
615.529	29.12
616.292	25.12
617.055	30.12
617.817	26.12
618.579	24.12
619.342	25.12
620.104	25.12
620.866	21.12
621.628	19.12
622.39	23.12
623.152	23.12
623.914	20.12
624.676	19.12
625.438	17.12
626.199	18.12
626.961	21.12
627.722	15.12
628.484	19.12
629.245	16.12
630.006	15.12
630.768	18.12
631.529	16.12
632.29	13.12
633.051	14.12
633.812	13.12
634.573	14.12
635.333	14.12
636.094	11.12
636.855	13.12
637.615	11.12
638.376	12.12
639.136	13.12
639.896	10.12
640.657	9.12
641.417	11.12
642.177	11.12
642.937	10.12
643.697	10.12
644.457	10.12
645.216	7.12
645.976	9.12
646.736	8.12
647.495	8.12
648.255	10.12
649.014	7.12
649.774	8.12
650.533	7.12
651.292	7.12
652.051	8.12
652.81	6.12
653.569	7.12
654.328	8.12
655.087	8.12
655.846	7.12
656.604	7.12
657.363	8.12
658.121	6.12
658.88	5.12
659.638	7.12
660.397	8.12
661.155	7.12
661.913	4.12
662.671	5.12
663.429	4.12
664.187	8.12
664.945	7.12
665.703	5.12
666.46	6.12
667.218	6.12
667.976	5.12
668.733	4.12
669.49	6.12
670.248	6.12
671.005	5.12
671.762	7.12
672.519	4.12
673.276	4.12
674.033	3.12
674.79	6.12
675.547	8.12
676.304	6.12
677.06	5.12
677.817	6.12
678.574	8.12
679.33	4.12
680.086	4.12
680.843	6.12
681.599	2.12
682.355	4.12
683.111	4.12
683.867	4.12
684.623	3.12
685.379	6.12
686.135	4.12
686.89	6.12
687.646	5.12
688.402	6.12
689.157	3.12
689.912	6.12
690.668	4.12
691.423	5.12
692.178	5.12
692.933	4.12
693.688	2.12
694.443	5.12
695.198	4.12
695.953	5.12
696.708	7.12
697.462	5.12
698.217	4.12
698.972	3.12
699.726	6.12
700.48	3.12
701.235	3.12
701.989	4.12
702.743	3.12
703.497	6.12
704.251	3.12
705.005	5.12
705.759	3.12
706.513	5.12
707.266	7.12
708.02	4.12
708.774	3.12
709.527	5.12
710.28	6.12
711.034	4.12
711.787	2.12
712.54	5.12
713.293	2.12
714.046	5.12
714.799	4.12
715.552	1.12
716.305	3.12
717.058	6.12
717.81	5.12
718.563	4.12
719.315	3.12
720.068	4.12
720.82	2.12
721.573	6.12
722.325	3.12
723.077	6.12
723.829	6.12
724.581	6.12
725.333	6.12
726.085	5.12
726.836	6.12
727.588	3.12
728.34	3.12
729.091	5.12
729.843	5.12
730.594	3.12
731.346	5.12
732.097	4.12
732.848	5.12
733.599	5.12
734.35	4.12
735.101	4.12
735.852	4.12
736.603	6.12
737.354	5.12
738.104	5.12
738.855	3.12
739.605	4.12
740.356	7.12
741.106	6.12
741.856	6.12
742.607	6.12
743.357	5.12
744.107	6.12
744.857	7.12
745.607	6.12
746.357	6.12
747.106	5.12
747.856	5.12
748.606	5.12
749.355	5.12
750.105	7.12
750.854	6.12
751.603	3.12
752.353	5.12
753.102	5.12
753.851	6.12
754.6	6.12
755.349	6.12
756.098	8.12
756.847	7.12
757.595	6.12
758.344	7.12
759.093	8.12
759.841	7.12
760.589	8.12
761.338	4.12
762.086	7.12
762.834	9.12
763.582	5.12
764.331	7.12
765.079	6.12
765.826	6.12
766.574	4.12
767.322	9.12
768.07	8.12
768.817	9.12
769.565	7.12
770.312	7.12
771.06	10.12
771.807	6.12
772.554	9.12
773.302	8.12
774.049	7.12
774.796	7.12
775.543	9.12
776.29	9.12
777.036	9.12
777.783	9.12
778.53	7.12
779.276	9.12
780.023	10.12
780.769	9.12
781.516	10.12
782.262	9.12
783.008	11.12
783.754	10.12
784.5	11.12
785.246	9.12
785.992	8.12
786.738	10.12
787.484	9.12
788.23	8.12
788.975	10.12
789.721	8.12
790.466	7.12
791.212	6.12
791.957	9.12
792.702	8.12
793.447	9.12
794.193	8.12
794.938	8.12
795.683	8.12
796.427	8.12
797.172	9.12
797.917	10.12
798.662	9.12
799.406	10.12
800.151	8.12
800.895	7.12
801.64	8.12
802.384	9.12
803.128	9.12
803.872	8.12
804.616	8.12
805.36	6.12
806.104	5.12
806.848	8.12
807.592	6.12
808.336	6.12
809.079	6.12
809.823	7.12
810.566	8.12
811.31	6.12
812.053	5.12
812.796	5.12
813.539	7.12
814.283	4.12
815.026	6.12
815.769	4.12
816.511	6.12
817.254	7.12
817.997	5.12
818.74	7.12
819.482	6.12
820.225	6.12
820.967	3.12
821.71	6.12
822.452	6.12
823.194	5.12
823.936	7.12
824.678	4.12
825.42	6.12
826.162	4.12
826.904	5.12
827.646	3.12
828.388	3.12
829.129	5.12
829.871	4.12
830.612	6.12
831.354	4.12
832.095	4.12
832.836	3.12
833.577	5.12
834.319	4.12
835.06	3.12
835.801	6.12
836.542	5.12
837.282	5.12
838.023	5.12
838.764	5.12
839.504	6.12
840.245	3.12
840.985	6.12
841.726	5.12
842.466	3.12
843.206	5.12
843.946	3.12
844.687	6.12
845.427	5.12
846.166	4.12
846.906	5.12
847.646	4.12
848.386	3.12
849.125	4.12
849.865	7.12
850.605	4.12
851.344	5.12
852.083	3.12
852.823	5.12
853.562	4.12
854.301	2.12
855.04	5.12
855.779	2.12
856.518	5.12
857.257	4.12
857.995	4.12
858.734	3.12
859.473	3.12
860.211	5.12
860.95	4.12
861.688	4.12
862.426	3.12
863.165	3.12
863.903	4.12
864.641	4.12
865.379	4.12
866.117	4.12
866.855	3.12
867.593	4.12
868.33	2.12
869.068	4.12
869.806	5.12
870.543	3.12
871.28	3.12
872.018	1.12
872.755	2.12
873.492	1.12
874.229	3.12
874.967	0.12
875.703	3.12
876.44	3.12
877.177	3.12
877.914	1.12
878.651	1.12
879.387	3.12
880.124	1.12
880.86	2.12
881.597	2.12
882.333	1.12
883.069	3.12
883.806	3.12
884.542	4.12
885.278	5.12
886.014	3.12
886.749	2.12
887.485	4.12
888.221	4.12
888.957	0.12
889.692	3.12
890.428	2.12
891.163	3.12
891.899	-0.88
892.634	1.12
893.369	-0.88
894.104	3.12
894.839	2.12
895.574	1.12
896.309	-0.88
897.044	1.12
897.779	4.12
898.514	1.12
899.248	2.12
899.983	0.12
900.717	1.12
901.452	-0.88
902.186	2.12
902.92	1.12
903.654	0.12
904.389	1.12
905.123	1.12
905.857	-0.88
906.59	2.12
907.324	2.12
908.058	2.12
908.792	1.12
909.525	3.12
910.259	2.12
910.992	2.12
911.726	2.12
912.459	3.12
913.192	2.12
913.925	3.12
914.658	1.12
915.391	2.12
916.124	3.12
916.857	-2.88
917.59	1.12
918.323	2.12
919.055	2.12
919.788	2.12
920.521	1.12
921.253	1.12
921.985	2.12
922.718	2.12
923.45	1.12
924.182	2.12
924.914	1.12
925.646	2.12
926.378	1.12
927.11	-0.88
927.841	3.12
928.573	1.12
929.305	2.12
930.036	2.12
930.768	4.12
931.499	2.12
932.23	2.12
932.962	3.12
933.693	0.12
934.424	2.12
935.155	2.12
935.886	1.12
936.617	1.12
937.348	1.12
938.078	3.12
938.809	-0.88
939.54	3.12
940.27	3.12
941.001	1.12
941.731	2.12
942.461	2.12
943.191	3.12
943.922	1.12
944.652	1.12
945.382	2.12
946.112	2.12
946.841	2.12
947.571	1.12
948.301	1.12
949.031	0.12
949.76	1.12
950.49	0.12
951.219	1.12
951.948	2.12
952.678	1.12
953.407	2.12
954.136	2.12
954.865	1.12
955.594	3.12
956.323	2.12
957.052	0.12
957.78	1.12
958.509	0.12
959.238	1.12
959.966	0.12
960.695	2.12
961.423	1.12
962.151	2.12
962.88	2.12
963.608	-0.88
964.336	1.12
965.064	1.12
965.792	3.12
966.52	-0.88
967.247	-0.88
967.975	-0.88
968.703	3.12
969.43	1.12
970.158	2.12
970.885	-0.88
971.613	0.12
972.34	0.12
973.067	1.12
973.794	1.12
974.521	0.12
975.248	-0.88
975.975	1.12
976.702	1.12
977.429	2.12
978.156	1.12
978.882	2.12
979.609	1.12
980.335	2.12
981.062	2.12
981.788	1.12
982.514	1.12
983.24	2.12
983.967	-1.88
984.693	1.12
985.419	1.12
986.144	1.12
986.87	2.12
987.596	3.12
988.322	-0.88
989.047	-0.88
989.773	2.12
990.498	1.12
991.224	3.12
991.949	3.12
992.674	1.12
993.399	0.12
994.124	-0.88
994.849	3.12
995.574	-0.88
996.299	2.12
997.024	2.12
997.749	2.12
998.473	-0.88
999.198	1.12
999.922	1.12
1000.647	2.12
1001.371	4.12
1002.095	-0.88
1002.82	0.12
1003.544	-2.88
1004.268	2.12
1004.992	5.12
1005.716	-0.88
1006.439	3.12
1007.163	3.12
1007.887	5.12
1008.611	1.12
1009.334	2.12
1010.058	1.12
1010.781	2.12
1011.504	3.12
1012.228	1.12
1012.951	-0.88
1013.674	-0.88
1014.397	2.12
1015.12	-0.88
