节点500_285_QEPB04081__255__14-59-47-879.txt的数据

Date: Wed Nov 12 14:59:47 CST 2025
User: PC
Spectrometer: QEPB0408
触发模式: 0
积分时间 (秒): 1.000000E-2
Scans to average: 1
启用暗噪声校正: true
启用非线性校正: false
滑动平均宽度: 0
X轴模式: Wavelengths
Number of Pixels in Spectrum: 1044
>>>>>Begin Spectral Data<<<<<
220.843	0.75
221.644	2.75
222.444	1.75
223.244	1.75
224.045	1.75
224.845	2.75
225.645	3.75
226.445	2.75
227.245	3.75
228.045	4.75
228.845	3.75
229.645	3.75
230.444	2.75
231.244	4.75
232.043	4.75
232.843	3.75
233.642	3.75
234.442	2.75
235.241	3.75
236.04	2.75
236.839	3.75
237.638	4.75
238.437	2.75
239.236	6.75
240.035	3.75
240.833	4.75
241.632	4.75
242.43	4.75
243.229	3.75
244.027	4.75
244.826	7.75
245.624	4.75
246.422	7.75
247.22	4.75
248.018	3.75
248.816	5.75
249.614	3.75
250.412	6.75
251.21	6.75
252.007	6.75
252.805	5.75
253.602	10.75
254.4	9.75
255.197	6.75
255.994	8.75
256.791	9.75
257.589	8.75
258.386	9.75
259.183	8.75
259.979	8.75
260.776	11.75
261.573	11.75
262.37	10.75
263.166	9.75
263.963	12.75
264.759	10.75
265.556	10.75
266.352	12.75
267.148	9.75
267.944	15.75
268.74	15.75
269.536	13.75
270.332	13.75
271.128	17.75
271.924	14.75
272.719	17.75
273.515	16.75
274.311	15.75
275.106	17.75
275.901	17.75
276.697	18.75
277.492	19.75
278.287	17.75
279.082	18.75
279.877	20.75
280.672	18.75
281.467	16.75
282.262	17.75
283.056	18.75
283.851	19.75
284.646	21.75
285.44	16.75
286.234	18.75
287.029	20.75
287.823	19.75
288.617	18.75
289.411	19.75
290.205	17.75
290.999	20.75
291.793	20.75
292.587	16.75
293.381	17.75
294.174	16.75
294.968	16.75
295.761	15.75
296.555	16.75
297.348	14.75
298.141	16.75
298.935	19.75
299.728	15.75
300.521	16.75
301.314	13.75
302.107	13.75
302.899	11.75
303.692	14.75
304.485	11.75
305.277	15.75
306.07	11.75
306.862	13.75
307.655	15.75
308.447	12.75
309.239	11.75
310.031	11.75
310.823	10.75
311.615	11.75
312.407	10.75
313.199	10.75
313.991	11.75
314.783	10.75
315.574	8.75
316.366	7.75
317.157	7.75
317.949	9.75
318.74	9.75
319.531	8.75
320.322	8.75
321.113	7.75
321.904	8.75
322.695	8.75
323.486	5.75
324.277	8.75
325.068	7.75
325.858	6.75
326.649	6.75
327.439	7.75
328.23	8.75
329.02	5.75
329.81	6.75
330.6	7.75
331.391	6.75
332.181	5.75
332.971	6.75
333.76	7.75
334.55	6.75
335.34	6.75
336.13	7.75
336.919	5.75
337.709	5.75
338.498	5.75
339.287	7.75
340.077	7.75
340.866	5.75
341.655	5.75
342.444	4.75
343.233	5.75
344.022	8.75
344.811	7.75
345.6	7.75
346.388	6.75
347.177	6.75
347.965	7.75
348.754	5.75
349.542	4.75
350.33	5.75
351.119	6.75
351.907	5.75
352.695	3.75
353.483	6.75
354.271	7.75
355.059	6.75
355.846	4.75
356.634	6.75
357.422	3.75
358.209	4.75
358.997	5.75
359.784	7.75
360.571	4.75
361.359	5.75
362.146	6.75
362.933	3.75
363.72	3.75
364.507	6.75
365.294	4.75
366.081	7.75
366.867	5.75
367.654	4.75
368.44	7.75
369.227	6.75
370.013	7.75
370.8	4.75
371.586	3.75
372.372	3.75
373.158	6.75
373.944	5.75
374.73	5.75
375.516	7.75
376.302	2.75
377.088	3.75
377.873	3.75
378.659	6.75
379.445	5.75
380.23	4.75
381.015	5.75
381.801	2.75
382.586	6.75
383.371	3.75
384.156	5.75
384.941	6.75
385.726	3.75
386.511	6.75
387.296	5.75
388.08	6.75
388.865	6.75
389.649	8.75
390.434	6.75
391.218	7.75
392.003	8.75
392.787	4.75
393.571	6.75
394.355	3.75
395.139	4.75
395.923	5.75
396.707	5.75
397.491	8.75
398.274	6.75
399.058	7.75
399.842	5.75
400.625	8.75
401.408	7.75
402.192	5.75
402.975	7.75
403.758	7.75
404.541	5.75
405.324	9.75
406.107	7.75
406.89	5.75
407.673	9.75
408.456	8.75
409.238	7.75
410.021	11.75
410.803	8.75
411.586	6.75
412.368	10.75
413.151	11.75
413.933	9.75
414.715	9.75
415.497	7.75
416.279	7.75
417.061	9.75
417.843	11.75
418.624	10.75
419.406	11.75
420.188	9.75
420.969	8.75
421.751	11.75
422.532	9.75
423.313	10.75
424.095	12.75
424.876	9.75
425.657	12.75
426.438	11.75
427.219	13.75
428	12.75
428.78	11.75
429.561	14.75
430.342	12.75
431.122	16.75
431.903	15.75
432.683	15.75
433.464	15.75
434.244	17.75
435.024	14.75
435.804	18.75
436.584	18.75
437.364	17.75
438.144	17.75
438.924	19.75
439.704	18.75
440.483	21.75
441.263	22.75
442.042	26.75
442.822	28.75
443.601	26.75
444.38	28.75
445.16	31.75
445.939	33.75
446.718	35.75
447.497	40.75
448.276	39.75
449.054	41.75
449.833	50.75
450.612	50.75
451.391	57.75
452.169	63.75
452.948	66.75
453.726	73.75
454.504	79.75
455.282	91.75
456.061	99.75
456.839	111.75
457.617	120.75
458.395	131.75
459.172	145.75
459.95	159.75
460.728	177.75
461.506	203.75
462.283	225.75
463.061	257.75
463.838	285.75
464.615	311.75
465.393	349.75
466.17	394.75
466.947	443.75
467.724	488.75
468.501	549.75
469.278	612.75
470.055	667.75
470.831	758.75
471.608	838.75
472.385	942.75
473.161	1049.75
473.938	1160.75
474.714	1280.75
475.49	1417.75
476.266	1575.75
477.043	1732.75
477.819	1919.75
478.595	2139.75
479.371	2341.75
480.146	2595.75
480.922	2858.75
481.698	3155.75
482.473	3470.75
483.249	3862.75
484.024	4229.75
484.8	4675.75
485.575	5096.75
486.35	5640.75
487.126	6198.75
487.901	6793.75
488.676	7461.75
489.451	8213.75
490.225	8938.75
491	9802.75
491.775	10717.75
492.55	11707.75
493.324	12671.75
494.099	13686.75
494.873	14809.75
495.647	15890.75
496.422	17106.75
497.196	18309.75
497.97	19504.75
498.744	20718.75
499.518	21925.75
500.292	23046.75
501.066	24149.75
501.839	25139.75
502.613	26054.75
503.387	26780.75
504.16	27331.75
504.934	27629.75
505.707	27767.75
506.48	27842.75
507.253	27625.75
508.027	27321.75
508.8	27068.75
509.573	26552.75
510.346	25865.75
511.118	24998.75
511.891	24283.75
512.664	23379.75
513.437	22480.75
514.209	21617.75
514.982	20599.75
515.754	19693.75
516.526	18795.75
517.298	18025.75
518.071	17211.75
518.843	16559.75
519.615	15920.75
520.387	15273.75
521.159	14614.75
521.93	14096.75
522.702	13489.75
523.474	12937.75
524.245	12428.75
525.017	11862.75
525.788	11414.75
526.56	10869.75
527.331	10341.75
528.102	9899.75
528.873	9452.75
529.644	8974.75
530.415	8536.75
531.186	8073.75
531.957	7634.75
532.728	7271.75
533.498	6869.75
534.269	6497.75
535.039	6120.75
535.81	5795.75
536.58	5489.75
537.351	5152.75
538.121	4863.75
538.891	4598.75
539.661	4385.75
540.431	4119.75
541.201	3886.75
541.971	3694.75
542.741	3490.75
543.51	3300.75
544.28	3170.75
545.05	3037.75
545.819	2862.75
546.588	2726.75
547.358	2578.75
548.127	2451.75
548.896	2336.75
549.665	2209.75
550.434	2081.75
551.203	1977.75
551.972	1872.75
552.741	1761.75
553.51	1684.75
554.278	1584.75
555.047	1504.75
555.815	1411.75
556.584	1339.75
557.352	1248.75
558.121	1188.75
558.889	1117.75
559.657	1053.75
560.425	998.75
561.193	938.75
561.961	893.75
562.729	829.75
563.496	794.75
564.264	740.75
565.032	705.75
565.799	671.75
566.567	636.75
567.334	593.75
568.101	564.75
568.869	522.75
569.636	498.75
570.403	474.75
571.17	438.75
571.937	421.75
572.704	396.75
573.471	372.75
574.237	357.75
575.004	334.75
575.771	318.75
576.537	297.75
577.303	276.75
578.07	265.75
578.836	245.75
579.602	235.75
580.368	220.75
581.134	209.75
581.9	195.75
582.666	182.75
583.432	175.75
584.198	172.75
584.964	165.75
585.729	154.75
586.495	146.75
587.26	139.75
588.025	125.75
588.791	123.75
589.556	116.75
590.321	110.75
591.086	104.75
591.851	98.75
592.616	91.75
593.381	92.75
594.146	85.75
594.911	78.75
595.675	79.75
596.44	77.75
597.204	68.75
597.969	69.75
598.733	67.75
599.497	63.75
600.261	56.75
601.025	56.75
601.79	49.75
602.553	50.75
603.317	51.75
604.081	46.75
604.845	46.75
605.609	43.75
606.372	42.75
607.136	39.75
607.899	40.75
608.662	37.75
609.426	34.75
610.189	34.75
610.952	33.75
611.715	31.75
612.478	29.75
613.241	29.75
614.004	25.75
614.767	26.75
615.529	25.75
616.292	21.75
617.055	24.75
617.817	23.75
618.579	19.75
619.342	20.75
620.104	19.75
620.866	20.75
621.628	19.75
622.39	19.75
623.152	19.75
623.914	18.75
624.676	16.75
625.438	13.75
626.199	16.75
626.961	16.75
627.722	13.75
628.484	17.75
629.245	12.75
630.006	13.75
630.768	14.75
631.529	11.75
632.29	13.75
633.051	10.75
633.812	10.75
634.573	8.75
635.333	11.75
636.094	9.75
636.855	11.75
637.615	11.75
638.376	10.75
639.136	9.75
639.896	11.75
640.657	10.75
641.417	11.75
642.177	11.75
642.937	8.75
643.697	7.75
644.457	8.75
645.216	7.75
645.976	8.75
646.736	5.75
647.495	8.75
648.255	6.75
649.014	5.75
649.774	5.75
650.533	7.75
651.292	4.75
652.051	6.75
652.81	5.75
653.569	4.75
654.328	5.75
655.087	8.75
655.846	6.75
656.604	6.75
657.363	7.75
658.121	6.75
658.88	7.75
659.638	6.75
660.397	6.75
661.155	7.75
661.913	3.75
662.671	5.75
663.429	4.75
664.187	5.75
664.945	6.75
665.703	4.75
666.46	4.75
667.218	5.75
667.976	3.75
668.733	5.75
669.49	3.75
670.248	5.75
671.005	3.75
671.762	7.75
672.519	2.75
673.276	5.75
674.033	3.75
674.79	2.75
675.547	4.75
676.304	3.75
677.06	6.75
677.817	5.75
678.574	3.75
679.33	4.75
680.086	4.75
680.843	3.75
681.599	4.75
682.355	5.75
683.111	6.75
683.867	1.75
684.623	3.75
685.379	2.75
686.135	2.75
686.89	3.75
687.646	4.75
688.402	4.75
689.157	4.75
689.912	2.75
690.668	1.75
691.423	4.75
692.178	3.75
692.933	2.75
693.688	4.75
694.443	2.75
695.198	3.75
695.953	2.75
696.708	2.75
697.462	4.75
698.217	1.75
698.972	3.75
699.726	3.75
700.48	3.75
701.235	1.75
701.989	2.75
702.743	2.75
703.497	2.75
704.251	2.75
705.005	3.75
705.759	2.75
706.513	4.75
707.266	1.75
708.02	5.75
708.774	3.75
709.527	2.75
710.28	3.75
711.034	3.75
711.787	2.75
712.54	2.75
713.293	1.75
714.046	1.75
714.799	1.75
715.552	2.75
716.305	3.75
717.058	3.75
717.81	1.75
718.563	4.75
719.315	5.75
720.068	4.75
720.82	2.75
721.573	3.75
722.325	5.75
723.077	2.75
723.829	3.75
724.581	3.75
725.333	5.75
726.085	3.75
726.836	3.75
727.588	4.75
728.34	3.75
729.091	3.75
729.843	3.75
730.594	4.75
731.346	5.75
732.097	3.75
732.848	3.75
733.599	4.75
734.35	3.75
735.101	3.75
735.852	1.75
736.603	4.75
737.354	3.75
738.104	6.75
738.855	5.75
739.605	4.75
740.356	5.75
741.106	3.75
741.856	5.75
742.607	6.75
743.357	4.75
744.107	4.75
744.857	4.75
745.607	5.75
746.357	4.75
747.106	3.75
747.856	3.75
748.606	3.75
749.355	5.75
750.105	4.75
750.854	6.75
751.603	3.75
752.353	6.75
753.102	4.75
753.851	3.75
754.6	5.75
755.349	5.75
756.098	7.75
756.847	5.75
757.595	7.75
758.344	4.75
759.093	4.75
759.841	7.75
760.589	7.75
761.338	7.75
762.086	6.75
762.834	5.75
763.582	10.75
764.331	8.75
765.079	6.75
765.826	8.75
766.574	6.75
767.322	7.75
768.07	7.75
768.817	5.75
769.565	7.75
770.312	10.75
771.06	5.75
771.807	8.75
772.554	4.75
773.302	6.75
774.049	7.75
774.796	7.75
775.543	7.75
776.29	9.75
777.036	6.75
777.783	10.75
778.53	8.75
779.276	10.75
780.023	10.75
780.769	6.75
781.516	9.75
782.262	7.75
783.008	9.75
783.754	7.75
784.5	8.75
785.246	7.75
785.992	8.75
786.738	10.75
787.484	8.75
788.23	8.75
788.975	8.75
789.721	8.75
790.466	7.75
791.212	6.75
791.957	7.75
792.702	8.75
793.447	9.75
794.193	8.75
794.938	10.75
795.683	7.75
796.427	8.75
797.172	7.75
797.917	7.75
798.662	5.75
799.406	8.75
800.151	6.75
800.895	7.75
801.64	6.75
802.384	9.75
803.128	6.75
803.872	4.75
804.616	5.75
805.36	6.75
806.104	7.75
806.848	3.75
807.592	3.75
808.336	7.75
809.079	4.75
809.823	6.75
810.566	5.75
811.31	4.75
812.053	3.75
812.796	6.75
813.539	6.75
814.283	3.75
815.026	6.75
815.769	4.75
816.511	3.75
817.254	4.75
817.997	4.75
818.74	5.75
819.482	5.75
820.225	5.75
820.967	3.75
821.71	6.75
822.452	5.75
823.194	4.75
823.936	5.75
824.678	5.75
825.42	3.75
826.162	2.75
826.904	2.75
827.646	5.75
828.388	5.75
829.129	5.75
829.871	1.75
830.612	3.75
831.354	4.75
832.095	3.75
832.836	3.75
833.577	3.75
834.319	2.75
835.06	4.75
835.801	1.75
836.542	2.75
837.282	2.75
838.023	5.75
838.764	1.75
839.504	2.75
840.245	4.75
840.985	3.75
841.726	4.75
842.466	4.75
843.206	2.75
843.946	2.75
844.687	0.75
845.427	1.75
846.166	3.75
846.906	1.75
847.646	4.75
848.386	4.75
849.125	1.75
849.865	2.75
850.605	3.75
851.344	2.75
852.083	5.75
852.823	3.75
853.562	3.75
854.301	3.75
855.04	3.75
855.779	2.75
856.518	0.75
857.257	2.75
857.995	0.75
858.734	1.75
859.473	2.75
860.211	1.75
860.95	1.75
861.688	2.75
862.426	3.75
863.165	3.75
863.903	0.75
864.641	1.75
865.379	1.75
866.117	0.75
866.855	0.75
867.593	3.75
868.33	4.75
869.068	1.75
869.806	1.75
870.543	2.75
871.28	0.75
872.018	0.75
872.755	1.75
873.492	1.75
874.229	-0.25
874.967	5.75
875.703	1.75
876.44	0.75
877.177	2.75
877.914	0.75
878.651	1.75
879.387	3.75
880.124	0.75
880.86	-0.25
881.597	2.75
882.333	2.75
883.069	1.75
883.806	2.75
884.542	-1.25
885.278	1.75
886.014	-0.25
886.749	0.75
887.485	2.75
888.221	0.75
888.957	0.75
889.692	-0.25
890.428	1.75
891.163	1.75
891.899	0.75
892.634	3.75
893.369	-1.25
894.104	4.75
894.839	1.75
895.574	1.75
896.309	1.75
897.044	1.75
897.779	1.75
898.514	-0.25
899.248	-0.25
899.983	0.75
900.717	-0.25
901.452	0.75
902.186	1.75
902.92	1.75
903.654	1.75
904.389	-0.25
905.123	0.75
905.857	1.75
906.59	1.75
907.324	-2.25
908.058	3.75
908.792	0.75
909.525	-2.25
910.259	0.75
910.992	-1.25
911.726	-0.25
912.459	-0.25
913.192	-1.25
913.925	-0.25
914.658	-0.25
915.391	1.75
916.124	-0.25
916.857	1.75
917.59	-0.25
918.323	0.75
919.055	1.75
919.788	-0.25
920.521	1.75
921.253	-0.25
921.985	-2.25
922.718	0.75
923.45	-0.25
924.182	-0.25
924.914	-0.25
925.646	1.75
926.378	1.75
927.11	-1.25
927.841	-1.25
928.573	-0.25
929.305	2.75
930.036	-0.25
930.768	1.75
931.499	-0.25
932.23	0.75
932.962	0.75
933.693	-1.25
934.424	-0.25
935.155	-0.25
935.886	0.75
936.617	-1.25
937.348	-1.25
938.078	0.75
938.809	-1.25
939.54	1.75
940.27	0.75
941.001	-1.25
941.731	1.75
942.461	-0.25
943.191	0.75
943.922	-0.25
944.652	-1.25
945.382	-1.25
946.112	-1.25
946.841	-0.25
947.571	-0.25
948.301	1.75
949.031	0.75
949.76	-0.25
950.49	1.75
951.219	-0.25
951.948	1.75
952.678	0.75
953.407	-1.25
954.136	-0.25
954.865	0.75
955.594	0.75
956.323	-2.25
957.052	2.75
957.78	1.75
958.509	1.75
959.238	0.75
959.966	0.75
960.695	-0.25
961.423	-1.25
962.151	1.75
962.88	-0.25
963.608	-0.25
964.336	0.75
965.064	-0.25
965.792	3.75
966.52	0.75
967.247	-0.25
967.975	1.75
968.703	-1.25
969.43	-0.25
970.158	-0.25
970.885	-1.25
971.613	-0.25
972.34	1.75
973.067	-1.25
973.794	-0.25
974.521	1.75
975.248	0.75
975.975	1.75
976.702	-1.25
977.429	0.75
978.156	-0.25
978.882	-0.25
979.609	0.75
980.335	0.75
981.062	0.75
981.788	1.75
982.514	0.75
983.24	1.75
983.967	0.75
984.693	0.75
985.419	0.75
986.144	-0.25
986.87	-0.25
987.596	-2.25
988.322	2.75
989.047	0.75
989.773	0.75
990.498	1.75
991.224	-0.25
991.949	2.75
992.674	-1.25
993.399	-3.25
994.124	-0.25
994.849	0.75
995.574	1.75
996.299	0.75
997.024	-0.25
997.749	2.75
998.473	0.75
999.198	1.75
999.922	0.75
1000.647	2.75
1001.371	5.75
1002.095	0.75
1002.82	-1.25
1003.544	-2.25
1004.268	0.75
1004.992	0.75
1005.716	2.75
1006.439	3.75
1007.163	1.75
1007.887	3.75
1008.611	-1.25
1009.334	1.75
1010.058	-1.25
1010.781	0.75
1011.504	1.75
1012.228	0.75
1012.951	-2.25
1013.674	-2.25
1014.397	0.75
1015.12	0.75
