节点500_285_QEPB04081__443__15-02-55-554.txt的数据

Date: Wed Nov 12 15:02:55 CST 2025
User: PC
Spectrometer: QEPB0408
触发模式: 0
积分时间 (秒): 1.000000E-2
Scans to average: 1
启用暗噪声校正: true
启用非线性校正: false
滑动平均宽度: 0
X轴模式: Wavelengths
Number of Pixels in Spectrum: 1044
>>>>>Begin Spectral Data<<<<<
220.843	2.62
221.644	2.62
222.444	-0.38
223.244	1.62
224.045	3.62
224.845	2.62
225.645	0.62
226.445	4.62
227.245	0.62
228.045	3.62
228.845	2.62
229.645	0.62
230.444	2.62
231.244	3.62
232.043	4.62
232.843	5.62
233.642	2.62
234.442	3.62
235.241	3.62
236.04	2.62
236.839	4.62
237.638	4.62
238.437	4.62
239.236	3.62
240.035	6.62
240.833	2.62
241.632	3.62
242.43	5.62
243.229	5.62
244.027	4.62
244.826	7.62
245.624	5.62
246.422	5.62
247.22	6.62
248.018	5.62
248.816	5.62
249.614	8.62
250.412	4.62
251.21	7.62
252.007	5.62
252.805	7.62
253.602	6.62
254.4	6.62
255.197	7.62
255.994	8.62
256.791	7.62
257.589	6.62
258.386	10.62
259.183	8.62
259.979	7.62
260.776	9.62
261.573	9.62
262.37	10.62
263.166	9.62
263.963	8.62
264.759	11.62
265.556	11.62
266.352	11.62
267.148	11.62
267.944	10.62
268.74	12.62
269.536	13.62
270.332	13.62
271.128	15.62
271.924	15.62
272.719	15.62
273.515	18.62
274.311	15.62
275.106	17.62
275.901	16.62
276.697	17.62
277.492	17.62
278.287	18.62
279.082	17.62
279.877	19.62
280.672	14.62
281.467	18.62
282.262	15.62
283.056	16.62
283.851	16.62
284.646	17.62
285.44	17.62
286.234	16.62
287.029	15.62
287.823	18.62
288.617	20.62
289.411	16.62
290.205	16.62
290.999	15.62
291.793	17.62
292.587	19.62
293.381	18.62
294.174	16.62
294.968	17.62
295.761	13.62
296.555	16.62
297.348	15.62
298.141	17.62
298.935	16.62
299.728	14.62
300.521	15.62
301.314	11.62
302.107	12.62
302.899	12.62
303.692	11.62
304.485	13.62
305.277	13.62
306.07	13.62
306.862	12.62
307.655	14.62
308.447	11.62
309.239	10.62
310.031	12.62
310.823	8.62
311.615	9.62
312.407	9.62
313.199	8.62
313.991	9.62
314.783	12.62
315.574	8.62
316.366	8.62
317.157	6.62
317.949	5.62
318.74	9.62
319.531	10.62
320.322	5.62
321.113	8.62
321.904	8.62
322.695	6.62
323.486	5.62
324.277	7.62
325.068	9.62
325.858	9.62
326.649	5.62
327.439	7.62
328.23	7.62
329.02	6.62
329.81	6.62
330.6	5.62
331.391	8.62
332.181	8.62
332.971	6.62
333.76	7.62
334.55	5.62
335.34	5.62
336.13	5.62
336.919	7.62
337.709	5.62
338.498	3.62
339.287	5.62
340.077	6.62
340.866	5.62
341.655	6.62
342.444	5.62
343.233	6.62
344.022	3.62
344.811	5.62
345.6	5.62
346.388	4.62
347.177	4.62
347.965	4.62
348.754	7.62
349.542	4.62
350.33	4.62
351.119	7.62
351.907	3.62
352.695	5.62
353.483	4.62
354.271	7.62
355.059	4.62
355.846	5.62
356.634	8.62
357.422	3.62
358.209	7.62
358.997	5.62
359.784	7.62
360.571	4.62
361.359	6.62
362.146	4.62
362.933	4.62
363.72	4.62
364.507	2.62
365.294	2.62
366.081	4.62
366.867	2.62
367.654	4.62
368.44	5.62
369.227	4.62
370.013	2.62
370.8	6.62
371.586	4.62
372.372	5.62
373.158	6.62
373.944	1.62
374.73	6.62
375.516	6.62
376.302	3.62
377.088	2.62
377.873	1.62
378.659	7.62
379.445	5.62
380.23	3.62
381.015	6.62
381.801	4.62
382.586	5.62
383.371	6.62
384.156	4.62
384.941	5.62
385.726	3.62
386.511	3.62
387.296	6.62
388.08	5.62
388.865	5.62
389.649	7.62
390.434	4.62
391.218	3.62
392.003	4.62
392.787	3.62
393.571	7.62
394.355	4.62
395.139	4.62
395.923	5.62
396.707	4.62
397.491	7.62
398.274	6.62
399.058	3.62
399.842	6.62
400.625	6.62
401.408	8.62
402.192	7.62
402.975	6.62
403.758	8.62
404.541	5.62
405.324	7.62
406.107	4.62
406.89	6.62
407.673	7.62
408.456	7.62
409.238	9.62
410.021	8.62
410.803	8.62
411.586	5.62
412.368	6.62
413.151	6.62
413.933	8.62
414.715	7.62
415.497	8.62
416.279	9.62
417.061	8.62
417.843	8.62
418.624	9.62
419.406	8.62
420.188	7.62
420.969	10.62
421.751	9.62
422.532	9.62
423.313	13.62
424.095	9.62
424.876	10.62
425.657	12.62
426.438	10.62
427.219	13.62
428	12.62
428.78	12.62
429.561	13.62
430.342	11.62
431.122	13.62
431.903	14.62
432.683	15.62
433.464	15.62
434.244	15.62
435.024	18.62
435.804	15.62
436.584	17.62
437.364	17.62
438.144	18.62
438.924	20.62
439.704	16.62
440.483	21.62
441.263	23.62
442.042	25.62
442.822	24.62
443.601	24.62
444.38	31.62
445.16	33.62
445.939	30.62
446.718	34.62
447.497	39.62
448.276	44.62
449.054	46.62
449.833	47.62
450.612	52.62
451.391	60.62
452.169	59.62
452.948	70.62
453.726	76.62
454.504	82.62
455.282	89.62
456.061	99.62
456.839	108.62
457.617	121.62
458.395	136.62
459.172	163.62
459.95	168.62
460.728	196.62
461.506	212.62
462.283	237.62
463.061	271.62
463.838	296.62
464.615	333.62
465.393	369.62
466.17	408.62
466.947	463.62
467.724	507.62
468.501	571.62
469.278	625.62
470.055	708.62
470.831	763.62
471.608	854.62
472.385	956.62
473.161	1074.62
473.938	1180.62
474.714	1309.62
475.49	1453.62
476.266	1581.62
477.043	1749.62
477.819	1916.62
478.595	2142.62
479.371	2343.62
480.146	2592.62
480.922	2853.62
481.698	3119.62
482.473	3456.62
483.249	3762.62
484.024	4133.62
484.8	4596.62
485.575	4981.62
486.35	5460.62
487.126	6017.62
487.901	6589.62
488.676	7203.62
489.451	7866.62
490.225	8596.62
491	9358.62
491.775	10285.62
492.55	11149.62
493.324	12057.62
494.099	13014.62
494.873	13985.62
495.647	15094.62
496.422	16241.62
497.196	17355.62
497.97	18471.62
498.744	19683.62
499.518	20773.62
500.292	21904.62
501.066	22976.62
501.839	23842.62
502.613	24871.62
503.387	25664.62
504.16	26307.62
504.934	26671.62
505.707	26899.62
506.48	26993.62
507.253	26985.62
508.027	26753.62
508.8	26475.62
509.573	26164.62
510.346	25595.62
511.118	24897.62
511.891	24074.62
512.664	23324.62
513.437	22421.62
514.209	21611.62
514.982	20744.62
515.754	19784.62
516.526	18949.62
517.298	18198.62
518.071	17323.62
518.843	16668.62
519.615	16016.62
520.387	15388.62
521.159	14793.62
521.93	14188.62
522.702	13655.62
523.474	13085.62
524.245	12530.62
525.017	12027.62
525.788	11534.62
526.56	11054.62
527.331	10506.62
528.102	10057.62
528.873	9589.62
529.644	9107.62
530.415	8684.62
531.186	8276.62
531.957	7842.62
532.728	7435.62
533.498	7052.62
534.269	6648.62
535.039	6261.62
535.81	5969.62
536.58	5639.62
537.351	5295.62
538.121	5005.62
538.891	4721.62
539.661	4495.62
540.431	4243.62
541.201	3997.62
541.971	3788.62
542.741	3586.62
543.51	3436.62
544.28	3245.62
545.05	3094.62
545.819	2917.62
546.588	2803.62
547.358	2653.62
548.127	2517.62
548.896	2387.62
549.665	2275.62
550.434	2142.62
551.203	2047.62
551.972	1932.62
552.741	1814.62
553.51	1732.62
554.278	1633.62
555.047	1536.62
555.815	1442.62
556.584	1363.62
557.352	1288.62
558.121	1221.62
558.889	1144.62
559.657	1103.62
560.425	1030.62
561.193	974.62
561.961	932.62
562.729	859.62
563.496	817.62
564.264	780.62
565.032	729.62
565.799	689.62
566.567	666.62
567.334	618.62
568.101	569.62
568.869	544.62
569.636	527.62
570.403	489.62
571.17	460.62
571.937	434.62
572.704	405.62
573.471	392.62
574.237	357.62
575.004	345.62
575.771	327.62
576.537	314.62
577.303	289.62
578.07	271.62
578.836	246.62
579.602	237.62
580.368	220.62
581.134	214.62
581.9	208.62
582.666	194.62
583.432	184.62
584.198	172.62
584.964	164.62
585.729	153.62
586.495	144.62
587.26	137.62
588.025	126.62
588.791	127.62
589.556	119.62
590.321	111.62
591.086	106.62
591.851	103.62
592.616	96.62
593.381	90.62
594.146	85.62
594.911	82.62
595.675	80.62
596.44	78.62
597.204	73.62
597.969	69.62
598.733	64.62
599.497	64.62
600.261	59.62
601.025	59.62
601.79	56.62
602.553	50.62
603.317	50.62
604.081	50.62
604.845	45.62
605.609	46.62
606.372	42.62
607.136	37.62
607.899	36.62
608.662	38.62
609.426	35.62
610.189	35.62
610.952	33.62
611.715	35.62
612.478	31.62
613.241	29.62
614.004	29.62
614.767	27.62
615.529	27.62
616.292	26.62
617.055	23.62
617.817	24.62
618.579	20.62
619.342	22.62
620.104	20.62
620.866	20.62
621.628	24.62
622.39	17.62
623.152	20.62
623.914	16.62
624.676	15.62
625.438	18.62
626.199	15.62
626.961	15.62
627.722	14.62
628.484	12.62
629.245	16.62
630.006	12.62
630.768	15.62
631.529	14.62
632.29	9.62
633.051	13.62
633.812	10.62
634.573	12.62
635.333	10.62
636.094	11.62
636.855	10.62
637.615	8.62
638.376	9.62
639.136	11.62
639.896	9.62
640.657	8.62
641.417	9.62
642.177	9.62
642.937	7.62
643.697	8.62
644.457	7.62
645.216	9.62
645.976	9.62
646.736	6.62
647.495	6.62
648.255	7.62
649.014	9.62
649.774	8.62
650.533	5.62
651.292	5.62
652.051	3.62
652.81	5.62
653.569	5.62
654.328	7.62
655.087	4.62
655.846	5.62
656.604	6.62
657.363	5.62
658.121	5.62
658.88	5.62
659.638	5.62
660.397	6.62
661.155	4.62
661.913	7.62
662.671	0.62
663.429	5.62
664.187	7.62
664.945	6.62
665.703	4.62
666.46	4.62
667.218	5.62
667.976	5.62
668.733	4.62
669.49	3.62
670.248	6.62
671.005	4.62
671.762	2.62
672.519	7.62
673.276	4.62
674.033	3.62
674.79	5.62
675.547	4.62
676.304	4.62
677.06	1.62
677.817	4.62
678.574	3.62
679.33	3.62
680.086	2.62
680.843	3.62
681.599	6.62
682.355	6.62
683.111	1.62
683.867	5.62
684.623	0.62
685.379	3.62
686.135	3.62
686.89	2.62
687.646	3.62
688.402	3.62
689.157	1.62
689.912	5.62
690.668	5.62
691.423	2.62
692.178	4.62
692.933	1.62
693.688	4.62
694.443	4.62
695.198	2.62
695.953	2.62
696.708	2.62
697.462	0.62
698.217	3.62
698.972	2.62
699.726	1.62
700.48	3.62
701.235	3.62
701.989	3.62
702.743	6.62
703.497	4.62
704.251	2.62
705.005	3.62
705.759	3.62
706.513	4.62
707.266	4.62
708.02	1.62
708.774	3.62
709.527	1.62
710.28	3.62
711.034	0.62
711.787	5.62
712.54	3.62
713.293	1.62
714.046	1.62
714.799	3.62
715.552	7.62
716.305	2.62
717.058	6.62
717.81	4.62
718.563	2.62
719.315	1.62
720.068	2.62
720.82	3.62
721.573	1.62
722.325	6.62
723.077	2.62
723.829	1.62
724.581	4.62
725.333	1.62
726.085	2.62
726.836	3.62
727.588	1.62
728.34	4.62
729.091	1.62
729.843	3.62
730.594	2.62
731.346	2.62
732.097	4.62
732.848	2.62
733.599	4.62
734.35	3.62
735.101	3.62
735.852	3.62
736.603	4.62
737.354	5.62
738.104	2.62
738.855	4.62
739.605	5.62
740.356	5.62
741.106	4.62
741.856	4.62
742.607	4.62
743.357	3.62
744.107	4.62
744.857	3.62
745.607	4.62
746.357	3.62
747.106	1.62
747.856	4.62
748.606	3.62
749.355	5.62
750.105	3.62
750.854	4.62
751.603	3.62
752.353	5.62
753.102	7.62
753.851	6.62
754.6	7.62
755.349	6.62
756.098	4.62
756.847	5.62
757.595	3.62
758.344	5.62
759.093	5.62
759.841	6.62
760.589	4.62
761.338	4.62
762.086	6.62
762.834	6.62
763.582	6.62
764.331	5.62
765.079	5.62
765.826	6.62
766.574	5.62
767.322	7.62
768.07	5.62
768.817	5.62
769.565	5.62
770.312	7.62
771.06	6.62
771.807	5.62
772.554	7.62
773.302	8.62
774.049	4.62
774.796	7.62
775.543	6.62
776.29	8.62
777.036	5.62
777.783	8.62
778.53	6.62
779.276	7.62
780.023	7.62
780.769	7.62
781.516	7.62
782.262	8.62
783.008	9.62
783.754	6.62
784.5	7.62
785.246	9.62
785.992	6.62
786.738	7.62
787.484	8.62
788.23	7.62
788.975	9.62
789.721	9.62
790.466	8.62
791.212	9.62
791.957	7.62
792.702	7.62
793.447	5.62
794.193	9.62
794.938	5.62
795.683	9.62
796.427	4.62
797.172	7.62
797.917	7.62
798.662	7.62
799.406	7.62
800.151	8.62
800.895	8.62
801.64	5.62
802.384	6.62
803.128	6.62
803.872	6.62
804.616	6.62
805.36	7.62
806.104	5.62
806.848	5.62
807.592	5.62
808.336	7.62
809.079	5.62
809.823	5.62
810.566	7.62
811.31	4.62
812.053	4.62
812.796	4.62
813.539	6.62
814.283	4.62
815.026	4.62
815.769	4.62
816.511	4.62
817.254	3.62
817.997	4.62
818.74	7.62
819.482	6.62
820.225	3.62
820.967	3.62
821.71	1.62
822.452	5.62
823.194	3.62
823.936	4.62
824.678	4.62
825.42	1.62
826.162	4.62
826.904	3.62
827.646	5.62
828.388	1.62
829.129	1.62
829.871	7.62
830.612	3.62
831.354	4.62
832.095	1.62
832.836	3.62
833.577	2.62
834.319	4.62
835.06	2.62
835.801	2.62
836.542	3.62
837.282	3.62
838.023	2.62
838.764	1.62
839.504	2.62
840.245	2.62
840.985	1.62
841.726	3.62
842.466	2.62
843.206	3.62
843.946	1.62
844.687	1.62
845.427	2.62
846.166	-0.38
846.906	3.62
847.646	2.62
848.386	2.62
849.125	4.62
849.865	1.62
850.605	2.62
851.344	2.62
852.083	3.62
852.823	2.62
853.562	2.62
854.301	3.62
855.04	2.62
855.779	1.62
856.518	1.62
857.257	2.62
857.995	2.62
858.734	3.62
859.473	1.62
860.211	0.62
860.95	1.62
861.688	1.62
862.426	1.62
863.165	2.62
863.903	1.62
864.641	1.62
865.379	-2.38
866.117	-1.38
866.855	0.62
867.593	1.62
868.33	-0.38
869.068	0.62
869.806	0.62
870.543	-0.38
871.28	1.62
872.018	-2.38
872.755	2.62
873.492	0.62
874.229	0.62
874.967	1.62
875.703	0.62
876.44	2.62
877.177	1.62
877.914	0.62
878.651	2.62
879.387	1.62
880.124	0.62
880.86	2.62
881.597	1.62
882.333	0.62
883.069	2.62
883.806	0.62
884.542	0.62
885.278	-0.38
886.014	0.62
886.749	1.62
887.485	0.62
888.221	-0.38
888.957	2.62
889.692	1.62
890.428	0.62
891.163	-0.38
891.899	0.62
892.634	0.62
893.369	-2.38
894.104	1.62
894.839	-1.38
895.574	-0.38
896.309	1.62
897.044	1.62
897.779	1.62
898.514	0.62
899.248	3.62
899.983	-0.38
900.717	0.62
901.452	-0.38
902.186	0.62
902.92	0.62
903.654	-0.38
904.389	-0.38
905.123	1.62
905.857	-1.38
906.59	-0.38
907.324	0.62
908.058	1.62
908.792	-0.38
909.525	0.62
910.259	1.62
910.992	-1.38
911.726	2.62
912.459	1.62
913.192	0.62
913.925	-1.38
914.658	0.62
915.391	-0.38
916.124	-0.38
916.857	0.62
917.59	0.62
918.323	2.62
919.055	-2.38
919.788	-0.38
920.521	-1.38
921.253	-2.38
921.985	-1.38
922.718	0.62
923.45	-0.38
924.182	-1.38
924.914	1.62
925.646	0.62
926.378	-2.38
927.11	0.62
927.841	0.62
928.573	-0.38
929.305	-1.38
930.036	0.62
930.768	0.62
931.499	-1.38
932.23	1.62
932.962	1.62
933.693	-0.38
934.424	1.62
935.155	-1.38
935.886	0.62
936.617	-1.38
937.348	0.62
938.078	-0.38
938.809	-0.38
939.54	0.62
940.27	0.62
941.001	0.62
941.731	0.62
942.461	-0.38
943.191	0.62
943.922	-1.38
944.652	0.62
945.382	-0.38
946.112	1.62
946.841	-0.38
947.571	0.62
948.301	1.62
949.031	1.62
949.76	1.62
950.49	1.62
951.219	-0.38
951.948	-1.38
952.678	-0.38
953.407	1.62
954.136	-1.38
954.865	-0.38
955.594	-1.38
956.323	-0.38
957.052	0.62
957.78	-2.38
958.509	-0.38
959.238	-0.38
959.966	0.62
960.695	-0.38
961.423	0.62
962.151	0.62
962.88	-2.38
963.608	0.62
964.336	-0.38
965.064	1.62
965.792	-2.38
966.52	-0.38
967.247	0.62
967.975	-0.38
968.703	0.62
969.43	-0.38
970.158	-0.38
970.885	0.62
971.613	-1.38
972.34	1.62
973.067	-1.38
973.794	-0.38
974.521	0.62
975.248	-0.38
975.975	0.62
976.702	-0.38
977.429	0.62
978.156	2.62
978.882	-1.38
979.609	0.62
980.335	0.62
981.062	0.62
981.788	-2.38
982.514	-0.38
983.24	-0.38
983.967	-1.38
984.693	-0.38
985.419	0.62
986.144	1.62
986.87	0.62
987.596	0.62
988.322	-0.38
989.047	-0.38
989.773	-0.38
990.498	-0.38
991.224	1.62
991.949	-1.38
992.674	0.62
993.399	1.62
994.124	0.62
994.849	0.62
995.574	-0.38
996.299	1.62
997.024	-0.38
997.749	-0.38
998.473	-0.38
999.198	-2.38
999.922	-0.38
1000.647	-1.38
1001.371	1.62
1002.095	-1.38
1002.82	0.62
1003.544	-2.38
1004.268	1.62
1004.992	1.62
1005.716	-1.38
1006.439	0.62
1007.163	4.62
1007.887	2.62
1008.611	-0.38
1009.334	-0.38
1010.058	-0.38
1010.781	0.62
1011.504	0.62
1012.228	-1.38
1012.951	0.62
1013.674	1.62
1014.397	-1.38
1015.12	0.62
