节点500_285_QEPB04081__122__14-57-35-251.txt的数据

Date: Wed Nov 12 14:57:35 CST 2025
User: PC
Spectrometer: QEPB0408
触发模式: 0
积分时间 (秒): 1.000000E-2
Scans to average: 1
启用暗噪声校正: true
启用非线性校正: false
滑动平均宽度: 0
X轴模式: Wavelengths
Number of Pixels in Spectrum: 1044
>>>>>Begin Spectral Data<<<<<
220.843	1.25
221.644	0.25
222.444	1.25
223.244	3.25
224.045	0.25
224.845	-0.75
225.645	3.25
226.445	0.25
227.245	4.25
228.045	4.25
228.845	3.25
229.645	3.25
230.444	4.25
231.244	4.25
232.043	5.25
232.843	1.25
233.642	4.25
234.442	3.25
235.241	3.25
236.04	2.25
236.839	3.25
237.638	4.25
238.437	5.25
239.236	2.25
240.035	2.25
240.833	4.25
241.632	3.25
242.43	5.25
243.229	5.25
244.027	6.25
244.826	6.25
245.624	5.25
246.422	5.25
247.22	6.25
248.018	7.25
248.816	8.25
249.614	8.25
250.412	8.25
251.21	4.25
252.007	8.25
252.805	9.25
253.602	8.25
254.4	9.25
255.197	8.25
255.994	10.25
256.791	9.25
257.589	9.25
258.386	11.25
259.183	9.25
259.979	10.25
260.776	10.25
261.573	11.25
262.37	9.25
263.166	13.25
263.963	12.25
264.759	9.25
265.556	14.25
266.352	13.25
267.148	15.25
267.944	13.25
268.74	13.25
269.536	16.25
270.332	14.25
271.128	16.25
271.924	17.25
272.719	17.25
273.515	18.25
274.311	16.25
275.106	19.25
275.901	16.25
276.697	19.25
277.492	20.25
278.287	17.25
279.082	19.25
279.877	17.25
280.672	22.25
281.467	19.25
282.262	18.25
283.056	18.25
283.851	19.25
284.646	21.25
285.44	19.25
286.234	20.25
287.029	22.25
287.823	18.25
288.617	21.25
289.411	20.25
290.205	20.25
290.999	15.25
291.793	20.25
292.587	19.25
293.381	17.25
294.174	20.25
294.968	17.25
295.761	16.25
296.555	17.25
297.348	16.25
298.141	13.25
298.935	16.25
299.728	14.25
300.521	16.25
301.314	15.25
302.107	13.25
302.899	13.25
303.692	13.25
304.485	12.25
305.277	15.25
306.07	13.25
306.862	12.25
307.655	13.25
308.447	13.25
309.239	14.25
310.031	11.25
310.823	12.25
311.615	12.25
312.407	9.25
313.199	8.25
313.991	6.25
314.783	8.25
315.574	7.25
316.366	9.25
317.157	10.25
317.949	7.25
318.74	7.25
319.531	7.25
320.322	7.25
321.113	8.25
321.904	6.25
322.695	9.25
323.486	7.25
324.277	8.25
325.068	7.25
325.858	10.25
326.649	6.25
327.439	5.25
328.23	11.25
329.02	4.25
329.81	7.25
330.6	7.25
331.391	7.25
332.181	7.25
332.971	7.25
333.76	7.25
334.55	6.25
335.34	6.25
336.13	6.25
336.919	6.25
337.709	6.25
338.498	5.25
339.287	7.25
340.077	6.25
340.866	7.25
341.655	6.25
342.444	5.25
343.233	8.25
344.022	8.25
344.811	8.25
345.6	6.25
346.388	6.25
347.177	8.25
347.965	3.25
348.754	5.25
349.542	5.25
350.33	8.25
351.119	5.25
351.907	4.25
352.695	6.25
353.483	8.25
354.271	6.25
355.059	5.25
355.846	5.25
356.634	9.25
357.422	6.25
358.209	5.25
358.997	3.25
359.784	5.25
360.571	5.25
361.359	3.25
362.146	5.25
362.933	4.25
363.72	7.25
364.507	4.25
365.294	7.25
366.081	4.25
366.867	4.25
367.654	6.25
368.44	5.25
369.227	6.25
370.013	4.25
370.8	4.25
371.586	6.25
372.372	7.25
373.158	5.25
373.944	5.25
374.73	5.25
375.516	7.25
376.302	5.25
377.088	5.25
377.873	6.25
378.659	6.25
379.445	4.25
380.23	5.25
381.015	5.25
381.801	5.25
382.586	5.25
383.371	4.25
384.156	4.25
384.941	5.25
385.726	5.25
386.511	5.25
387.296	5.25
388.08	5.25
388.865	8.25
389.649	6.25
390.434	6.25
391.218	4.25
392.003	8.25
392.787	3.25
393.571	4.25
394.355	6.25
395.139	4.25
395.923	11.25
396.707	6.25
397.491	7.25
398.274	4.25
399.058	7.25
399.842	7.25
400.625	6.25
401.408	9.25
402.192	7.25
402.975	6.25
403.758	7.25
404.541	7.25
405.324	7.25
406.107	9.25
406.89	8.25
407.673	7.25
408.456	7.25
409.238	7.25
410.021	6.25
410.803	9.25
411.586	9.25
412.368	9.25
413.151	11.25
413.933	9.25
414.715	10.25
415.497	11.25
416.279	9.25
417.061	9.25
417.843	7.25
418.624	11.25
419.406	6.25
420.188	11.25
420.969	11.25
421.751	10.25
422.532	11.25
423.313	11.25
424.095	11.25
424.876	12.25
425.657	11.25
426.438	11.25
427.219	11.25
428	13.25
428.78	12.25
429.561	12.25
430.342	14.25
431.122	16.25
431.903	14.25
432.683	15.25
433.464	13.25
434.244	15.25
435.024	16.25
435.804	22.25
436.584	18.25
437.364	17.25
438.144	19.25
438.924	21.25
439.704	21.25
440.483	22.25
441.263	27.25
442.042	21.25
442.822	25.25
443.601	28.25
444.38	31.25
445.16	31.25
445.939	31.25
446.718	36.25
447.497	38.25
448.276	41.25
449.054	42.25
449.833	45.25
450.612	49.25
451.391	53.25
452.169	60.25
452.948	62.25
453.726	67.25
454.504	75.25
455.282	86.25
456.061	95.25
456.839	103.25
457.617	115.25
458.395	128.25
459.172	143.25
459.95	153.25
460.728	173.25
461.506	197.25
462.283	217.25
463.061	244.25
463.838	271.25
464.615	304.25
465.393	338.25
466.17	377.25
466.947	427.25
467.724	470.25
468.501	534.25
469.278	595.25
470.055	648.25
470.831	734.25
471.608	824.25
472.385	916.25
473.161	1016.25
473.938	1127.25
474.714	1250.25
475.49	1390.25
476.266	1550.25
477.043	1710.25
477.819	1915.25
478.595	2103.25
479.371	2340.25
480.146	2602.25
480.922	2875.25
481.698	3196.25
482.473	3511.25
483.249	3881.25
484.024	4269.25
484.8	4733.25
485.575	5251.25
486.35	5783.25
487.126	6365.25
487.901	7003.25
488.676	7691.25
489.451	8438.25
490.225	9275.25
491	10169.25
491.775	11145.25
492.55	12147.25
493.324	13194.25
494.099	14255.25
494.873	15426.25
495.647	16645.25
496.422	17898.25
497.196	19091.25
497.97	20433.25
498.744	21683.25
499.518	22912.25
500.292	24017.25
501.066	25150.25
501.839	26133.25
502.613	26944.25
503.387	27696.25
504.16	28213.25
504.934	28464.25
505.707	28576.25
506.48	28457.25
507.253	28228.25
508.027	27816.25
508.8	27356.25
509.573	26859.25
510.346	26018.25
511.118	25137.25
511.891	24241.25
512.664	23318.25
513.437	22377.25
514.209	21348.25
514.982	20483.25
515.754	19488.25
516.526	18636.25
517.298	17799.25
518.071	17032.25
518.843	16386.25
519.615	15712.25
520.387	15133.25
521.159	14503.25
521.93	13926.25
522.702	13389.25
523.474	12806.25
524.245	12278.25
525.017	11743.25
525.788	11296.25
526.56	10757.25
527.331	10262.25
528.102	9745.25
528.873	9252.25
529.644	8839.25
530.415	8389.25
531.186	7916.25
531.957	7503.25
532.728	7122.25
533.498	6755.25
534.269	6347.25
535.039	6006.25
535.81	5656.25
536.58	5330.25
537.351	4983.25
538.121	4744.25
538.891	4501.25
539.661	4275.25
540.431	4015.25
541.201	3778.25
541.971	3600.25
542.741	3425.25
543.51	3246.25
544.28	3092.25
545.05	2942.25
545.819	2793.25
546.588	2656.25
547.358	2527.25
548.127	2387.25
548.896	2284.25
549.665	2155.25
550.434	2021.25
551.203	1925.25
551.972	1836.25
552.741	1712.25
553.51	1621.25
554.278	1532.25
555.047	1442.25
555.815	1370.25
556.584	1282.25
557.352	1213.25
558.121	1148.25
558.889	1068.25
559.657	1021.25
560.425	975.25
561.193	908.25
561.961	853.25
562.729	807.25
563.496	754.25
564.264	733.25
565.032	685.25
565.799	649.25
566.567	616.25
567.334	574.25
568.101	550.25
568.869	521.25
569.636	489.25
570.403	457.25
571.17	438.25
571.937	403.25
572.704	381.25
573.471	364.25
574.237	336.25
575.004	330.25
575.771	300.25
576.537	283.25
577.303	267.25
578.07	255.25
578.836	236.25
579.602	218.25
580.368	216.25
581.134	203.25
581.9	190.25
582.666	184.25
583.432	171.25
584.198	165.25
584.964	153.25
585.729	144.25
586.495	140.25
587.26	131.25
588.025	121.25
588.791	117.25
589.556	110.25
590.321	103.25
591.086	98.25
591.851	94.25
592.616	92.25
593.381	87.25
594.146	83.25
594.911	83.25
595.675	75.25
596.44	75.25
597.204	68.25
597.969	67.25
598.733	65.25
599.497	59.25
600.261	57.25
601.025	54.25
601.79	51.25
602.553	50.25
603.317	44.25
604.081	41.25
604.845	45.25
605.609	41.25
606.372	41.25
607.136	38.25
607.899	42.25
608.662	39.25
609.426	35.25
610.189	31.25
610.952	33.25
611.715	33.25
612.478	31.25
613.241	26.25
614.004	28.25
614.767	26.25
615.529	25.25
616.292	24.25
617.055	26.25
617.817	21.25
618.579	20.25
619.342	22.25
620.104	21.25
620.866	21.25
621.628	19.25
622.39	20.25
623.152	18.25
623.914	16.25
624.676	17.25
625.438	15.25
626.199	15.25
626.961	15.25
627.722	15.25
628.484	13.25
629.245	15.25
630.006	13.25
630.768	14.25
631.529	12.25
632.29	13.25
633.051	15.25
633.812	12.25
634.573	10.25
635.333	12.25
636.094	11.25
636.855	9.25
637.615	12.25
638.376	10.25
639.136	9.25
639.896	9.25
640.657	9.25
641.417	9.25
642.177	5.25
642.937	9.25
643.697	10.25
644.457	8.25
645.216	8.25
645.976	6.25
646.736	9.25
647.495	9.25
648.255	9.25
649.014	6.25
649.774	8.25
650.533	5.25
651.292	7.25
652.051	7.25
652.81	7.25
653.569	6.25
654.328	6.25
655.087	6.25
655.846	4.25
656.604	5.25
657.363	7.25
658.121	4.25
658.88	8.25
659.638	5.25
660.397	7.25
661.155	6.25
661.913	5.25
662.671	6.25
663.429	4.25
664.187	3.25
664.945	4.25
665.703	8.25
666.46	5.25
667.218	3.25
667.976	4.25
668.733	5.25
669.49	6.25
670.248	4.25
671.005	6.25
671.762	5.25
672.519	5.25
673.276	6.25
674.033	4.25
674.79	5.25
675.547	3.25
676.304	3.25
677.06	5.25
677.817	6.25
678.574	5.25
679.33	4.25
680.086	5.25
680.843	5.25
681.599	4.25
682.355	5.25
683.111	4.25
683.867	5.25
684.623	3.25
685.379	3.25
686.135	4.25
686.89	2.25
687.646	1.25
688.402	4.25
689.157	3.25
689.912	5.25
690.668	2.25
691.423	4.25
692.178	5.25
692.933	4.25
693.688	3.25
694.443	3.25
695.198	4.25
695.953	2.25
696.708	1.25
697.462	5.25
698.217	4.25
698.972	2.25
699.726	5.25
700.48	2.25
701.235	2.25
701.989	4.25
702.743	3.25
703.497	3.25
704.251	3.25
705.005	2.25
705.759	4.25
706.513	2.25
707.266	4.25
708.02	3.25
708.774	3.25
709.527	3.25
710.28	2.25
711.034	3.25
711.787	1.25
712.54	4.25
713.293	3.25
714.046	2.25
714.799	5.25
715.552	3.25
716.305	3.25
717.058	3.25
717.81	4.25
718.563	3.25
719.315	3.25
720.068	3.25
720.82	4.25
721.573	3.25
722.325	6.25
723.077	4.25
723.829	4.25
724.581	3.25
725.333	4.25
726.085	4.25
726.836	2.25
727.588	5.25
728.34	5.25
729.091	5.25
729.843	4.25
730.594	3.25
731.346	3.25
732.097	1.25
732.848	5.25
733.599	1.25
734.35	4.25
735.101	5.25
735.852	2.25
736.603	3.25
737.354	4.25
738.104	4.25
738.855	3.25
739.605	4.25
740.356	4.25
741.106	3.25
741.856	5.25
742.607	4.25
743.357	3.25
744.107	6.25
744.857	5.25
745.607	4.25
746.357	3.25
747.106	3.25
747.856	6.25
748.606	6.25
749.355	8.25
750.105	5.25
750.854	7.25
751.603	7.25
752.353	5.25
753.102	4.25
753.851	5.25
754.6	9.25
755.349	6.25
756.098	7.25
756.847	4.25
757.595	5.25
758.344	5.25
759.093	5.25
759.841	7.25
760.589	7.25
761.338	6.25
762.086	7.25
762.834	6.25
763.582	5.25
764.331	6.25
765.079	9.25
765.826	6.25
766.574	7.25
767.322	9.25
768.07	5.25
768.817	8.25
769.565	8.25
770.312	7.25
771.06	7.25
771.807	8.25
772.554	8.25
773.302	8.25
774.049	7.25
774.796	6.25
775.543	8.25
776.29	9.25
777.036	9.25
777.783	10.25
778.53	9.25
779.276	7.25
780.023	10.25
780.769	7.25
781.516	8.25
782.262	9.25
783.008	13.25
783.754	11.25
784.5	9.25
785.246	9.25
785.992	9.25
786.738	8.25
787.484	9.25
788.23	8.25
788.975	7.25
789.721	9.25
790.466	7.25
791.212	7.25
791.957	10.25
792.702	11.25
793.447	9.25
794.193	8.25
794.938	6.25
795.683	10.25
796.427	7.25
797.172	8.25
797.917	8.25
798.662	8.25
799.406	7.25
800.151	7.25
800.895	11.25
801.64	7.25
802.384	6.25
803.128	7.25
803.872	5.25
804.616	5.25
805.36	8.25
806.104	6.25
806.848	6.25
807.592	6.25
808.336	7.25
809.079	8.25
809.823	7.25
810.566	5.25
811.31	7.25
812.053	7.25
812.796	6.25
813.539	6.25
814.283	6.25
815.026	6.25
815.769	6.25
816.511	4.25
817.254	4.25
817.997	5.25
818.74	4.25
819.482	3.25
820.225	6.25
820.967	7.25
821.71	2.25
822.452	4.25
823.194	4.25
823.936	3.25
824.678	4.25
825.42	3.25
826.162	4.25
826.904	4.25
827.646	4.25
828.388	2.25
829.129	4.25
829.871	2.25
830.612	3.25
831.354	5.25
832.095	4.25
832.836	4.25
833.577	3.25
834.319	1.25
835.06	1.25
835.801	1.25
836.542	5.25
837.282	4.25
838.023	4.25
838.764	3.25
839.504	1.25
840.245	4.25
840.985	1.25
841.726	4.25
842.466	3.25
843.206	4.25
843.946	4.25
844.687	1.25
845.427	2.25
846.166	2.25
846.906	3.25
847.646	3.25
848.386	3.25
849.125	5.25
849.865	3.25
850.605	3.25
851.344	3.25
852.083	1.25
852.823	4.25
853.562	2.25
854.301	2.25
855.04	1.25
855.779	3.25
856.518	1.25
857.257	3.25
857.995	3.25
858.734	1.25
859.473	4.25
860.211	5.25
860.95	-0.75
861.688	1.25
862.426	3.25
863.165	2.25
863.903	1.25
864.641	2.25
865.379	0.25
866.117	2.25
866.855	3.25
867.593	1.25
868.33	0.25
869.068	2.25
869.806	1.25
870.543	1.25
871.28	-0.75
872.018	1.25
872.755	0.25
873.492	0.25
874.229	0.25
874.967	0.25
875.703	1.25
876.44	0.25
877.177	1.25
877.914	0.25
878.651	1.25
879.387	0.25
880.124	1.25
880.86	3.25
881.597	1.25
882.333	0.25
883.069	0.25
883.806	0.25
884.542	-0.75
885.278	-0.75
886.014	4.25
886.749	-0.75
887.485	0.25
888.221	1.25
888.957	1.25
889.692	1.25
890.428	0.25
891.163	0.25
891.899	0.25
892.634	0.25
893.369	1.25
894.104	1.25
894.839	1.25
895.574	1.25
896.309	1.25
897.044	1.25
897.779	2.25
898.514	1.25
899.248	0.25
899.983	1.25
900.717	-0.75
901.452	0.25
902.186	1.25
902.92	1.25
903.654	4.25
904.389	-0.75
905.123	0.25
905.857	1.25
906.59	0.25
907.324	1.25
908.058	0.25
908.792	1.25
909.525	-0.75
910.259	-1.75
910.992	0.25
911.726	-0.75
912.459	0.25
913.192	1.25
913.925	0.25
914.658	-0.75
915.391	-0.75
916.124	0.25
916.857	-0.75
917.59	-0.75
918.323	-0.75
919.055	0.25
919.788	1.25
920.521	0.25
921.253	-0.75
921.985	-2.75
922.718	0.25
923.45	-0.75
924.182	0.25
924.914	1.25
925.646	-0.75
926.378	1.25
927.11	0.25
927.841	-0.75
928.573	1.25
929.305	-0.75
930.036	-0.75
930.768	-0.75
931.499	3.25
932.23	1.25
932.962	2.25
933.693	1.25
934.424	-1.75
935.155	0.25
935.886	1.25
936.617	-0.75
937.348	1.25
938.078	2.25
938.809	2.25
939.54	-0.75
940.27	0.25
941.001	-0.75
941.731	0.25
942.461	-0.75
943.191	-0.75
943.922	0.25
944.652	-0.75
945.382	2.25
946.112	0.25
946.841	0.25
947.571	2.25
948.301	-1.75
949.031	1.25
949.76	-2.75
950.49	2.25
951.219	-0.75
951.948	2.25
952.678	2.25
953.407	-0.75
954.136	1.25
954.865	-0.75
955.594	-0.75
956.323	-0.75
957.052	-2.75
957.78	3.25
958.509	-0.75
959.238	-0.75
959.966	0.25
960.695	0.25
961.423	1.25
962.151	-0.75
962.88	2.25
963.608	1.25
964.336	1.25
965.064	1.25
965.792	-2.75
966.52	2.25
967.247	1.25
967.975	0.25
968.703	1.25
969.43	0.25
970.158	2.25
970.885	1.25
971.613	1.25
972.34	-1.75
973.067	-0.75
973.794	0.25
974.521	-0.75
975.248	0.25
975.975	0.25
976.702	0.25
977.429	-0.75
978.156	0.25
978.882	0.25
979.609	1.25
980.335	1.25
981.062	1.25
981.788	-0.75
982.514	-0.75
983.24	-0.75
983.967	1.25
984.693	-0.75
985.419	0.25
986.144	-0.75
986.87	1.25
987.596	0.25
988.322	1.25
989.047	1.25
989.773	-0.75
990.498	2.25
991.224	1.25
991.949	0.25
992.674	0.25
993.399	1.25
994.124	0.25
994.849	1.25
995.574	-0.75
996.299	1.25
997.024	-2.75
997.749	-1.75
998.473	2.25
999.198	2.25
999.922	1.25
1000.647	1.25
1001.371	3.25
1002.095	-0.75
1002.82	0.25
1003.544	-2.75
1004.268	3.25
1004.992	-1.75
1005.716	-0.75
1006.439	0.25
1007.163	1.25
1007.887	3.25
1008.611	2.25
1009.334	-0.75
1010.058	1.25
1010.781	1.25
1011.504	0.25
1012.228	1.25
1012.951	0.25
1013.674	0.25
1014.397	-0.75
1015.12	0.25
