节点500_285_QEPB04081__155__14-58-08-185.txt的数据

Date: Wed Nov 12 14:58:08 CST 2025
User: PC
Spectrometer: QEPB0408
触发模式: 0
积分时间 (秒): 1.000000E-2
Scans to average: 1
启用暗噪声校正: true
启用非线性校正: false
滑动平均宽度: 0
X轴模式: Wavelengths
Number of Pixels in Spectrum: 1044
>>>>>Begin Spectral Data<<<<<
220.843	4
221.644	1
222.444	3
223.244	4
224.045	2
224.845	0
225.645	2
226.445	5
227.245	4
228.045	2
228.845	3
229.645	3
230.444	5
231.244	5
232.043	3
232.843	2
233.642	3
234.442	5
235.241	4
236.04	5
236.839	4
237.638	4
238.437	5
239.236	4
240.035	5
240.833	4
241.632	5
242.43	4
243.229	5
244.027	6
244.826	7
245.624	7
246.422	6
247.22	6
248.018	7
248.816	6
249.614	8
250.412	5
251.21	6
252.007	6
252.805	8
253.602	10
254.4	8
255.197	10
255.994	10
256.791	8
257.589	8
258.386	10
259.183	9
259.979	9
260.776	11
261.573	10
262.37	11
263.166	11
263.963	11
264.759	12
265.556	14
266.352	13
267.148	15
267.944	15
268.74	15
269.536	14
270.332	14
271.128	16
271.924	16
272.719	19
273.515	18
274.311	16
275.106	18
275.901	17
276.697	20
277.492	18
278.287	19
279.082	17
279.877	18
280.672	19
281.467	20
282.262	22
283.056	20
283.851	21
284.646	20
285.44	20
286.234	22
287.029	20
287.823	20
288.617	21
289.411	20
290.205	17
290.999	21
291.793	19
292.587	17
293.381	18
294.174	18
294.968	19
295.761	16
296.555	17
297.348	16
298.141	18
298.935	17
299.728	14
300.521	15
301.314	16
302.107	13
302.899	15
303.692	11
304.485	11
305.277	12
306.07	12
306.862	12
307.655	12
308.447	13
309.239	11
310.031	12
310.823	12
311.615	11
312.407	12
313.199	10
313.991	10
314.783	10
315.574	9
316.366	11
317.157	12
317.949	10
318.74	10
319.531	8
320.322	9
321.113	6
321.904	7
322.695	8
323.486	10
324.277	8
325.068	8
325.858	8
326.649	8
327.439	10
328.23	5
329.02	6
329.81	5
330.6	7
331.391	11
332.181	6
332.971	4
333.76	8
334.55	6
335.34	7
336.13	7
336.919	7
337.709	6
338.498	8
339.287	4
340.077	8
340.866	6
341.655	7
342.444	6
343.233	7
344.022	5
344.811	8
345.6	6
346.388	8
347.177	5
347.965	6
348.754	6
349.542	6
350.33	7
351.119	4
351.907	7
352.695	7
353.483	6
354.271	6
355.059	6
355.846	7
356.634	6
357.422	8
358.209	5
358.997	8
359.784	5
360.571	6
361.359	6
362.146	7
362.933	6
363.72	6
364.507	4
365.294	8
366.081	7
366.867	6
367.654	4
368.44	5
369.227	4
370.013	3
370.8	6
371.586	4
372.372	6
373.158	5
373.944	7
374.73	7
375.516	5
376.302	6
377.088	5
377.873	4
378.659	6
379.445	5
380.23	6
381.015	6
381.801	6
382.586	5
383.371	5
384.156	5
384.941	5
385.726	5
386.511	7
387.296	7
388.08	5
388.865	8
389.649	7
390.434	6
391.218	6
392.003	6
392.787	8
393.571	8
394.355	6
395.139	8
395.923	8
396.707	7
397.491	8
398.274	8
399.058	8
399.842	6
400.625	7
401.408	8
402.192	7
402.975	10
403.758	8
404.541	8
405.324	8
406.107	6
406.89	7
407.673	9
408.456	8
409.238	6
410.021	8
410.803	9
411.586	7
412.368	11
413.151	9
413.933	10
414.715	10
415.497	10
416.279	10
417.061	11
417.843	10
418.624	9
419.406	10
420.188	10
420.969	14
421.751	10
422.532	13
423.313	14
424.095	11
424.876	13
425.657	10
426.438	13
427.219	12
428	15
428.78	12
429.561	14
430.342	16
431.122	15
431.903	12
432.683	18
433.464	18
434.244	18
435.024	20
435.804	20
436.584	20
437.364	21
438.144	22
438.924	22
439.704	22
440.483	24
441.263	23
442.042	26
442.822	27
443.601	26
444.38	31
445.16	29
445.939	33
446.718	34
447.497	39
448.276	39
449.054	44
449.833	49
450.612	50
451.391	57
452.169	62
452.948	66
453.726	74
454.504	74
455.282	86
456.061	94
456.839	109
457.617	121
458.395	132
459.172	145
459.95	160
460.728	177
461.506	196
462.283	221
463.061	249
463.838	280
464.615	305
465.393	345
466.17	384
466.947	433
467.724	475
468.501	536
469.278	604
470.055	671
470.831	751
471.608	830
472.385	920
473.161	1024
473.938	1140
474.714	1284
475.49	1421
476.266	1566
477.043	1714
477.819	1912
478.595	2112
479.371	2359
480.146	2584
480.922	2864
481.698	3160
482.473	3509
483.249	3889
484.024	4286
484.8	4716
485.575	5197
486.35	5728
487.126	6325
487.901	6936
488.676	7619
489.451	8349
490.225	9237
491	10066
491.775	10978
492.55	12008
493.324	13021
494.099	14065
494.873	15190
495.647	16479
496.422	17596
497.196	18846
497.97	20151
498.744	21431
499.518	22638
500.292	23845
501.066	24911
501.839	25741
502.613	26619
503.387	27430
504.16	27904
504.934	28274
505.707	28349
506.48	28273
507.253	28089
508.027	27730
508.8	27295
509.573	26807
510.346	26023
511.118	25155
511.891	24270
512.664	23336
513.437	22478
514.209	21404
514.982	20515
515.754	19600
516.526	18728
517.298	17880
518.071	17121
518.843	16461
519.615	15826
520.387	15185
521.159	14524
521.93	13952
522.702	13434
523.474	12902
524.245	12364
525.017	11817
525.788	11347
526.56	10797
527.331	10302
528.102	9765
528.873	9338
529.644	8854
530.415	8450
531.186	7995
531.957	7560
532.728	7180
533.498	6792
534.269	6406
535.039	6039
535.81	5713
536.58	5375
537.351	5068
538.121	4821
538.891	4540
539.661	4265
540.431	4044
541.201	3832
541.971	3639
542.741	3429
543.51	3264
544.28	3116
545.05	2954
545.819	2821
546.588	2680
547.358	2562
548.127	2413
548.896	2283
549.665	2172
550.434	2060
551.203	1932
551.972	1822
552.741	1733
553.51	1643
554.278	1550
555.047	1452
555.815	1384
556.584	1297
557.352	1214
558.121	1139
558.889	1101
559.657	1034
560.425	962
561.193	929
561.961	868
562.729	815
563.496	780
564.264	733
565.032	695
565.799	655
566.567	631
567.334	585
568.101	549
568.869	516
569.636	492
570.403	462
571.17	435
571.937	416
572.704	384
573.471	359
574.237	351
575.004	324
575.771	306
576.537	287
577.303	272
578.07	258
578.836	244
579.602	231
580.368	211
581.134	202
581.9	196
582.666	181
583.432	175
584.198	168
584.964	155
585.729	149
586.495	143
587.26	135
588.025	121
588.791	116
589.556	112
590.321	108
591.086	100
591.851	96
592.616	92
593.381	88
594.146	84
594.911	82
595.675	79
596.44	69
597.204	66
597.969	66
598.733	65
599.497	59
600.261	59
601.025	57
601.79	51
602.553	55
603.317	50
604.081	48
604.845	42
605.609	42
606.372	42
607.136	40
607.899	38
608.662	38
609.426	34
610.189	33
610.952	31
611.715	31
612.478	29
613.241	31
614.004	30
614.767	24
615.529	28
616.292	25
617.055	25
617.817	24
618.579	23
619.342	21
620.104	24
620.866	22
621.628	22
622.39	18
623.152	18
623.914	21
624.676	15
625.438	17
626.199	17
626.961	14
627.722	13
628.484	18
629.245	15
630.006	15
630.768	12
631.529	12
632.29	14
633.051	14
633.812	12
634.573	14
635.333	12
636.094	11
636.855	13
637.615	10
638.376	10
639.136	9
639.896	8
640.657	14
641.417	12
642.177	10
642.937	11
643.697	10
644.457	6
645.216	11
645.976	10
646.736	9
647.495	8
648.255	6
649.014	8
649.774	7
650.533	6
651.292	8
652.051	8
652.81	8
653.569	6
654.328	8
655.087	7
655.846	9
656.604	6
657.363	6
658.121	8
658.88	8
659.638	7
660.397	7
661.155	8
661.913	4
662.671	4
663.429	6
664.187	6
664.945	6
665.703	5
666.46	5
667.218	6
667.976	5
668.733	6
669.49	6
670.248	4
671.005	6
671.762	5
672.519	6
673.276	7
674.033	7
674.79	5
675.547	3
676.304	8
677.06	5
677.817	5
678.574	5
679.33	3
680.086	6
680.843	6
681.599	6
682.355	5
683.111	7
683.867	5
684.623	6
685.379	6
686.135	5
686.89	5
687.646	7
688.402	4
689.157	5
689.912	3
690.668	6
691.423	4
692.178	6
692.933	2
693.688	2
694.443	7
695.198	4
695.953	5
696.708	7
697.462	5
698.217	4
698.972	3
699.726	5
700.48	2
701.235	5
701.989	4
702.743	3
703.497	5
704.251	5
705.005	2
705.759	4
706.513	4
707.266	6
708.02	4
708.774	2
709.527	4
710.28	6
711.034	4
711.787	4
712.54	6
713.293	3
714.046	3
714.799	4
715.552	2
716.305	3
717.058	3
717.81	5
718.563	2
719.315	4
720.068	2
720.82	3
721.573	4
722.325	2
723.077	7
723.829	4
724.581	6
725.333	6
726.085	3
726.836	6
727.588	4
728.34	5
729.091	3
729.843	4
730.594	5
731.346	4
732.097	6
732.848	5
733.599	4
734.35	4
735.101	3
735.852	4
736.603	4
737.354	5
738.104	3
738.855	5
739.605	6
740.356	4
741.106	6
741.856	6
742.607	6
743.357	6
744.107	6
744.857	8
745.607	7
746.357	5
747.106	7
747.856	6
748.606	5
749.355	5
750.105	6
750.854	7
751.603	6
752.353	6
753.102	3
753.851	6
754.6	7
755.349	6
756.098	8
756.847	8
757.595	5
758.344	5
759.093	7
759.841	8
760.589	8
761.338	7
762.086	6
762.834	9
763.582	8
764.331	10
765.079	9
765.826	9
766.574	10
767.322	9
768.07	10
768.817	8
769.565	8
770.312	11
771.06	10
771.807	11
772.554	9
773.302	9
774.049	8
774.796	8
775.543	8
776.29	9
777.036	11
777.783	11
778.53	10
779.276	9
780.023	8
780.769	8
781.516	8
782.262	11
783.008	12
783.754	7
784.5	8
785.246	9
785.992	11
786.738	8
787.484	11
788.23	11
788.975	8
789.721	10
790.466	8
791.212	9
791.957	11
792.702	8
793.447	10
794.193	11
794.938	10
795.683	9
796.427	11
797.172	8
797.917	8
798.662	9
799.406	8
800.151	9
800.895	7
801.64	9
802.384	9
803.128	7
803.872	7
804.616	8
805.36	6
806.104	6
806.848	7
807.592	7
808.336	7
809.079	6
809.823	5
810.566	5
811.31	5
812.053	7
812.796	6
813.539	6
814.283	6
815.026	6
815.769	7
816.511	7
817.254	5
817.997	4
818.74	9
819.482	5
820.225	4
820.967	5
821.71	7
822.452	4
823.194	4
823.936	4
824.678	4
825.42	6
826.162	4
826.904	3
827.646	4
828.388	5
829.129	4
829.871	4
830.612	4
831.354	3
832.095	3
832.836	6
833.577	4
834.319	5
835.06	4
835.801	5
836.542	2
837.282	3
838.023	4
838.764	5
839.504	6
840.245	3
840.985	3
841.726	5
842.466	2
843.206	2
843.946	4
844.687	4
845.427	5
846.166	3
846.906	2
847.646	4
848.386	2
849.125	3
849.865	4
850.605	4
851.344	4
852.083	6
852.823	5
853.562	3
854.301	3
855.04	5
855.779	1
856.518	3
857.257	2
857.995	-1
858.734	4
859.473	4
860.211	2
860.95	3
861.688	1
862.426	2
863.165	2
863.903	4
864.641	3
865.379	4
866.117	4
866.855	1
867.593	0
868.33	2
869.068	1
869.806	3
870.543	1
871.28	3
872.018	1
872.755	2
873.492	1
874.229	3
874.967	3
875.703	0
876.44	3
877.177	1
877.914	2
878.651	4
879.387	4
880.124	2
880.86	1
881.597	3
882.333	3
883.069	1
883.806	3
884.542	0
885.278	4
886.014	3
886.749	1
887.485	2
888.221	0
888.957	2
889.692	2
890.428	2
891.163	0
891.899	2
892.634	1
893.369	0
894.104	3
894.839	0
895.574	2
896.309	2
897.044	2
897.779	4
898.514	1
899.248	2
899.983	1
900.717	2
901.452	3
902.186	0
902.92	2
903.654	0
904.389	-1
905.123	-1
905.857	1
906.59	3
907.324	1
908.058	2
908.792	0
909.525	2
910.259	1
910.992	-1
911.726	0
912.459	1
913.192	3
913.925	2
914.658	1
915.391	3
916.124	-1
916.857	1
917.59	1
918.323	2
919.055	3
919.788	0
920.521	0
921.253	1
921.985	2
922.718	1
923.45	2
924.182	0
924.914	1
925.646	0
926.378	0
927.11	1
927.841	0
928.573	1
929.305	-1
930.036	-1
930.768	-1
931.499	0
932.23	1
932.962	2
933.693	1
934.424	2
935.155	0
935.886	1
936.617	-1
937.348	2
938.078	2
938.809	0
939.54	0
940.27	0
941.001	0
941.731	1
942.461	0
943.191	-2
943.922	1
944.652	2
945.382	2
946.112	1
946.841	0
947.571	1
948.301	1
949.031	1
949.76	4
950.49	0
951.219	1
951.948	3
952.678	1
953.407	2
954.136	2
954.865	2
955.594	1
956.323	1
957.052	2
957.78	0
958.509	0
959.238	0
959.966	0
960.695	0
961.423	1
962.151	0
962.88	2
963.608	2
964.336	1
965.064	2
965.792	2
966.52	-1
967.247	2
967.975	1
968.703	2
969.43	0
970.158	1
970.885	1
971.613	0
972.34	2
973.067	0
973.794	2
974.521	0
975.248	0
975.975	2
976.702	0
977.429	0
978.156	0
978.882	0
979.609	1
980.335	0
981.062	1
981.788	2
982.514	0
983.24	-1
983.967	-4
984.693	1
985.419	2
986.144	2
986.87	1
987.596	-1
988.322	2
989.047	0
989.773	2
990.498	2
991.224	0
991.949	1
992.674	1
993.399	2
994.124	2
994.849	1
995.574	1
996.299	0
997.024	3
997.749	1
998.473	2
999.198	0
999.922	2
1000.647	0
1001.371	2
1002.095	-1
1002.82	-2
1003.544	0
1004.268	1
1004.992	2
1005.716	2
1006.439	0
1007.163	3
1007.887	3
1008.611	1
1009.334	0
1010.058	2
1010.781	-1
1011.504	0
1012.228	-1
1012.951	1
1013.674	1
1014.397	0
1015.12	-1
