节点500_285_QEPB04081__118__14-57-31-244.txt的数据

Date: Wed Nov 12 14:57:31 CST 2025
User: PC
Spectrometer: QEPB0408
触发模式: 0
积分时间 (秒): 1.000000E-2
Scans to average: 1
启用暗噪声校正: true
启用非线性校正: false
滑动平均宽度: 0
X轴模式: Wavelengths
Number of Pixels in Spectrum: 1044
>>>>>Begin Spectral Data<<<<<
220.843	5.5
221.644	-0.5
222.444	3.5
223.244	1.5
224.045	2.5
224.845	0.5
225.645	1.5
226.445	0.5
227.245	3.5
228.045	1.5
228.845	2.5
229.645	3.5
230.444	3.5
231.244	3.5
232.043	3.5
232.843	3.5
233.642	6.5
234.442	3.5
235.241	3.5
236.04	3.5
236.839	4.5
237.638	5.5
238.437	4.5
239.236	6.5
240.035	5.5
240.833	4.5
241.632	4.5
242.43	3.5
243.229	5.5
244.027	5.5
244.826	4.5
245.624	3.5
246.422	7.5
247.22	5.5
248.018	7.5
248.816	5.5
249.614	4.5
250.412	7.5
251.21	7.5
252.007	8.5
252.805	7.5
253.602	5.5
254.4	8.5
255.197	11.5
255.994	9.5
256.791	9.5
257.589	7.5
258.386	12.5
259.183	9.5
259.979	13.5
260.776	7.5
261.573	15.5
262.37	12.5
263.166	10.5
263.963	8.5
264.759	11.5
265.556	12.5
266.352	13.5
267.148	16.5
267.944	14.5
268.74	13.5
269.536	15.5
270.332	13.5
271.128	14.5
271.924	16.5
272.719	18.5
273.515	16.5
274.311	20.5
275.106	20.5
275.901	21.5
276.697	16.5
277.492	19.5
278.287	18.5
279.082	16.5
279.877	19.5
280.672	21.5
281.467	20.5
282.262	19.5
283.056	19.5
283.851	18.5
284.646	19.5
285.44	20.5
286.234	20.5
287.029	20.5
287.823	20.5
288.617	21.5
289.411	18.5
290.205	17.5
290.999	18.5
291.793	15.5
292.587	21.5
293.381	17.5
294.174	17.5
294.968	17.5
295.761	17.5
296.555	17.5
297.348	17.5
298.141	16.5
298.935	15.5
299.728	16.5
300.521	15.5
301.314	14.5
302.107	13.5
302.899	13.5
303.692	13.5
304.485	11.5
305.277	11.5
306.07	13.5
306.862	10.5
307.655	13.5
308.447	12.5
309.239	11.5
310.031	12.5
310.823	10.5
311.615	10.5
312.407	10.5
313.199	8.5
313.991	10.5
314.783	13.5
315.574	11.5
316.366	8.5
317.157	11.5
317.949	7.5
318.74	10.5
319.531	6.5
320.322	9.5
321.113	10.5
321.904	8.5
322.695	8.5
323.486	7.5
324.277	9.5
325.068	8.5
325.858	7.5
326.649	10.5
327.439	7.5
328.23	7.5
329.02	8.5
329.81	8.5
330.6	6.5
331.391	5.5
332.181	9.5
332.971	6.5
333.76	6.5
334.55	6.5
335.34	5.5
336.13	6.5
336.919	5.5
337.709	8.5
338.498	6.5
339.287	5.5
340.077	9.5
340.866	4.5
341.655	6.5
342.444	6.5
343.233	6.5
344.022	6.5
344.811	7.5
345.6	5.5
346.388	6.5
347.177	4.5
347.965	6.5
348.754	7.5
349.542	6.5
350.33	5.5
351.119	7.5
351.907	5.5
352.695	3.5
353.483	5.5
354.271	6.5
355.059	5.5
355.846	4.5
356.634	4.5
357.422	6.5
358.209	6.5
358.997	5.5
359.784	6.5
360.571	7.5
361.359	5.5
362.146	5.5
362.933	3.5
363.72	5.5
364.507	2.5
365.294	5.5
366.081	6.5
366.867	4.5
367.654	5.5
368.44	7.5
369.227	5.5
370.013	5.5
370.8	3.5
371.586	7.5
372.372	4.5
373.158	4.5
373.944	3.5
374.73	4.5
375.516	6.5
376.302	6.5
377.088	6.5
377.873	6.5
378.659	4.5
379.445	5.5
380.23	4.5
381.015	4.5
381.801	6.5
382.586	7.5
383.371	4.5
384.156	4.5
384.941	5.5
385.726	5.5
386.511	6.5
387.296	8.5
388.08	4.5
388.865	7.5
389.649	4.5
390.434	5.5
391.218	4.5
392.003	5.5
392.787	7.5
393.571	6.5
394.355	8.5
395.139	5.5
395.923	7.5
396.707	7.5
397.491	6.5
398.274	5.5
399.058	7.5
399.842	8.5
400.625	7.5
401.408	7.5
402.192	9.5
402.975	7.5
403.758	9.5
404.541	7.5
405.324	8.5
406.107	9.5
406.89	7.5
407.673	7.5
408.456	8.5
409.238	10.5
410.021	7.5
410.803	7.5
411.586	7.5
412.368	7.5
413.151	8.5
413.933	8.5
414.715	9.5
415.497	10.5
416.279	9.5
417.061	9.5
417.843	10.5
418.624	12.5
419.406	11.5
420.188	12.5
420.969	11.5
421.751	11.5
422.532	13.5
423.313	10.5
424.095	11.5
424.876	10.5
425.657	12.5
426.438	12.5
427.219	11.5
428	11.5
428.78	12.5
429.561	13.5
430.342	13.5
431.122	13.5
431.903	16.5
432.683	16.5
433.464	16.5
434.244	16.5
435.024	16.5
435.804	17.5
436.584	18.5
437.364	18.5
438.144	21.5
438.924	24.5
439.704	21.5
440.483	21.5
441.263	26.5
442.042	24.5
442.822	28.5
443.601	28.5
444.38	29.5
445.16	29.5
445.939	33.5
446.718	37.5
447.497	37.5
448.276	45.5
449.054	42.5
449.833	43.5
450.612	50.5
451.391	54.5
452.169	57.5
452.948	65.5
453.726	67.5
454.504	79.5
455.282	85.5
456.061	94.5
456.839	105.5
457.617	114.5
458.395	127.5
459.172	140.5
459.95	160.5
460.728	171.5
461.506	198.5
462.283	212.5
463.061	242.5
463.838	270.5
464.615	298.5
465.393	339.5
466.17	377.5
466.947	421.5
467.724	481.5
468.501	526.5
469.278	594.5
470.055	664.5
470.831	736.5
471.608	816.5
472.385	912.5
473.161	1021.5
473.938	1133.5
474.714	1263.5
475.49	1409.5
476.266	1551.5
477.043	1728.5
477.819	1907.5
478.595	2112.5
479.371	2331.5
480.146	2593.5
480.922	2881.5
481.698	3186.5
482.473	3515.5
483.249	3878.5
484.024	4293.5
484.8	4756.5
485.575	5266.5
486.35	5785.5
487.126	6363.5
487.901	7004.5
488.676	7709.5
489.451	8464.5
490.225	9306.5
491	10178.5
491.775	11137.5
492.55	12161.5
493.324	13228.5
494.099	14275.5
494.873	15400.5
495.647	16614.5
496.422	17936.5
497.196	19166.5
497.97	20443.5
498.744	21697.5
499.518	22947.5
500.292	24110.5
501.066	25230.5
501.839	26173.5
502.613	26976.5
503.387	27706.5
504.16	28243.5
504.934	28524.5
505.707	28560.5
506.48	28483.5
507.253	28265.5
508.027	27809.5
508.8	27379.5
509.573	26738.5
510.346	26071.5
511.118	25146.5
511.891	24250.5
512.664	23351.5
513.437	22370.5
514.209	21385.5
514.982	20439.5
515.754	19470.5
516.526	18665.5
517.298	17799.5
518.071	17067.5
518.843	16347.5
519.615	15749.5
520.387	15081.5
521.159	14497.5
521.93	13913.5
522.702	13324.5
523.474	12861.5
524.245	12259.5
525.017	11728.5
525.788	11285.5
526.56	10773.5
527.331	10203.5
528.102	9730.5
528.873	9271.5
529.644	8803.5
530.415	8367.5
531.186	7928.5
531.957	7451.5
532.728	7098.5
533.498	6744.5
534.269	6382.5
535.039	5988.5
535.81	5686.5
536.58	5336.5
537.351	5032.5
538.121	4727.5
538.891	4497.5
539.661	4259.5
540.431	4006.5
541.201	3773.5
541.971	3592.5
542.741	3419.5
543.51	3242.5
544.28	3072.5
545.05	2945.5
545.819	2801.5
546.588	2658.5
547.358	2506.5
548.127	2392.5
548.896	2267.5
549.665	2168.5
550.434	2029.5
551.203	1930.5
551.972	1819.5
552.741	1725.5
553.51	1620.5
554.278	1524.5
555.047	1453.5
555.815	1348.5
556.584	1285.5
557.352	1205.5
558.121	1139.5
558.889	1088.5
559.657	1022.5
560.425	966.5
561.193	903.5
561.961	860.5
562.729	811.5
563.496	763.5
564.264	730.5
565.032	684.5
565.799	647.5
566.567	613.5
567.334	571.5
568.101	545.5
568.869	509.5
569.636	477.5
570.403	462.5
571.17	430.5
571.937	414.5
572.704	390.5
573.471	363.5
574.237	343.5
575.004	333.5
575.771	304.5
576.537	295.5
577.303	269.5
578.07	254.5
578.836	241.5
579.602	221.5
580.368	212.5
581.134	202.5
581.9	190.5
582.666	180.5
583.432	172.5
584.198	162.5
584.964	149.5
585.729	148.5
586.495	140.5
587.26	136.5
588.025	125.5
588.791	117.5
589.556	113.5
590.321	107.5
591.086	99.5
591.851	96.5
592.616	93.5
593.381	88.5
594.146	85.5
594.911	79.5
595.675	78.5
596.44	73.5
597.204	71.5
597.969	63.5
598.733	66.5
599.497	57.5
600.261	60.5
601.025	54.5
601.79	51.5
602.553	48.5
603.317	46.5
604.081	50.5
604.845	44.5
605.609	41.5
606.372	41.5
607.136	37.5
607.899	36.5
608.662	36.5
609.426	35.5
610.189	30.5
610.952	33.5
611.715	31.5
612.478	30.5
613.241	28.5
614.004	27.5
614.767	26.5
615.529	25.5
616.292	23.5
617.055	26.5
617.817	22.5
618.579	23.5
619.342	23.5
620.104	22.5
620.866	17.5
621.628	19.5
622.39	17.5
623.152	18.5
623.914	14.5
624.676	18.5
625.438	16.5
626.199	15.5
626.961	18.5
627.722	16.5
628.484	15.5
629.245	13.5
630.006	13.5
630.768	11.5
631.529	13.5
632.29	11.5
633.051	13.5
633.812	9.5
634.573	10.5
635.333	11.5
636.094	10.5
636.855	11.5
637.615	11.5
638.376	11.5
639.136	10.5
639.896	10.5
640.657	10.5
641.417	10.5
642.177	9.5
642.937	9.5
643.697	8.5
644.457	8.5
645.216	8.5
645.976	5.5
646.736	11.5
647.495	7.5
648.255	8.5
649.014	5.5
649.774	7.5
650.533	8.5
651.292	9.5
652.051	7.5
652.81	4.5
653.569	3.5
654.328	6.5
655.087	4.5
655.846	3.5
656.604	6.5
657.363	6.5
658.121	5.5
658.88	6.5
659.638	4.5
660.397	4.5
661.155	3.5
661.913	5.5
662.671	7.5
663.429	5.5
664.187	3.5
664.945	4.5
665.703	3.5
666.46	6.5
667.218	3.5
667.976	6.5
668.733	1.5
669.49	6.5
670.248	5.5
671.005	4.5
671.762	5.5
672.519	4.5
673.276	5.5
674.033	6.5
674.79	4.5
675.547	6.5
676.304	4.5
677.06	5.5
677.817	3.5
678.574	3.5
679.33	4.5
680.086	2.5
680.843	3.5
681.599	4.5
682.355	6.5
683.111	4.5
683.867	3.5
684.623	5.5
685.379	4.5
686.135	4.5
686.89	4.5
687.646	3.5
688.402	2.5
689.157	1.5
689.912	4.5
690.668	2.5
691.423	2.5
692.178	3.5
692.933	3.5
693.688	6.5
694.443	4.5
695.198	4.5
695.953	5.5
696.708	4.5
697.462	4.5
698.217	1.5
698.972	5.5
699.726	4.5
700.48	5.5
701.235	3.5
701.989	2.5
702.743	3.5
703.497	3.5
704.251	3.5
705.005	3.5
705.759	3.5
706.513	4.5
707.266	5.5
708.02	2.5
708.774	4.5
709.527	3.5
710.28	2.5
711.034	1.5
711.787	4.5
712.54	2.5
713.293	3.5
714.046	3.5
714.799	3.5
715.552	2.5
716.305	3.5
717.058	2.5
717.81	0.5
718.563	3.5
719.315	4.5
720.068	4.5
720.82	4.5
721.573	1.5
722.325	5.5
723.077	4.5
723.829	5.5
724.581	3.5
725.333	3.5
726.085	5.5
726.836	3.5
727.588	5.5
728.34	3.5
729.091	4.5
729.843	3.5
730.594	3.5
731.346	4.5
732.097	3.5
732.848	4.5
733.599	6.5
734.35	2.5
735.101	6.5
735.852	6.5
736.603	5.5
737.354	3.5
738.104	3.5
738.855	4.5
739.605	6.5
740.356	6.5
741.106	5.5
741.856	3.5
742.607	4.5
743.357	5.5
744.107	6.5
744.857	4.5
745.607	6.5
746.357	7.5
747.106	4.5
747.856	5.5
748.606	3.5
749.355	5.5
750.105	5.5
750.854	6.5
751.603	6.5
752.353	4.5
753.102	8.5
753.851	7.5
754.6	6.5
755.349	8.5
756.098	6.5
756.847	7.5
757.595	4.5
758.344	6.5
759.093	6.5
759.841	7.5
760.589	6.5
761.338	5.5
762.086	6.5
762.834	4.5
763.582	8.5
764.331	9.5
765.079	5.5
765.826	8.5
766.574	5.5
767.322	7.5
768.07	7.5
768.817	8.5
769.565	5.5
770.312	8.5
771.06	7.5
771.807	7.5
772.554	9.5
773.302	7.5
774.049	8.5
774.796	7.5
775.543	8.5
776.29	9.5
777.036	9.5
777.783	8.5
778.53	9.5
779.276	10.5
780.023	9.5
780.769	9.5
781.516	8.5
782.262	8.5
783.008	9.5
783.754	11.5
784.5	9.5
785.246	8.5
785.992	10.5
786.738	9.5
787.484	7.5
788.23	8.5
788.975	10.5
789.721	9.5
790.466	9.5
791.212	11.5
791.957	9.5
792.702	9.5
793.447	8.5
794.193	8.5
794.938	7.5
795.683	9.5
796.427	9.5
797.172	8.5
797.917	7.5
798.662	7.5
799.406	7.5
800.151	9.5
800.895	7.5
801.64	8.5
802.384	8.5
803.128	8.5
803.872	7.5
804.616	9.5
805.36	6.5
806.104	7.5
806.848	7.5
807.592	7.5
808.336	5.5
809.079	7.5
809.823	6.5
810.566	6.5
811.31	5.5
812.053	7.5
812.796	4.5
813.539	5.5
814.283	6.5
815.026	6.5
815.769	5.5
816.511	2.5
817.254	5.5
817.997	7.5
818.74	6.5
819.482	4.5
820.225	3.5
820.967	5.5
821.71	4.5
822.452	5.5
823.194	4.5
823.936	5.5
824.678	5.5
825.42	4.5
826.162	9.5
826.904	4.5
827.646	5.5
828.388	8.5
829.129	5.5
829.871	4.5
830.612	5.5
831.354	3.5
832.095	3.5
832.836	1.5
833.577	5.5
834.319	2.5
835.06	5.5
835.801	4.5
836.542	1.5
837.282	3.5
838.023	3.5
838.764	5.5
839.504	7.5
840.245	6.5
840.985	4.5
841.726	3.5
842.466	5.5
843.206	4.5
843.946	5.5
844.687	3.5
845.427	3.5
846.166	5.5
846.906	3.5
847.646	4.5
848.386	3.5
849.125	3.5
849.865	3.5
850.605	4.5
851.344	4.5
852.083	2.5
852.823	4.5
853.562	2.5
854.301	1.5
855.04	3.5
855.779	0.5
856.518	1.5
857.257	2.5
857.995	1.5
858.734	3.5
859.473	3.5
860.211	3.5
860.95	1.5
861.688	2.5
862.426	0.5
863.165	1.5
863.903	1.5
864.641	3.5
865.379	4.5
866.117	3.5
866.855	4.5
867.593	0.5
868.33	3.5
869.068	2.5
869.806	1.5
870.543	2.5
871.28	0.5
872.018	0.5
872.755	1.5
873.492	1.5
874.229	1.5
874.967	1.5
875.703	2.5
876.44	0.5
877.177	3.5
877.914	1.5
878.651	3.5
879.387	0.5
880.124	3.5
880.86	0.5
881.597	0.5
882.333	-1.5
883.069	2.5
883.806	-0.5
884.542	1.5
885.278	0.5
886.014	0.5
886.749	0.5
887.485	2.5
888.221	1.5
888.957	0.5
889.692	1.5
890.428	1.5
891.163	-0.5
891.899	-0.5
892.634	1.5
893.369	1.5
894.104	-0.5
894.839	1.5
895.574	0.5
896.309	2.5
897.044	1.5
897.779	1.5
898.514	-0.5
899.248	2.5
899.983	0.5
900.717	0.5
901.452	1.5
902.186	2.5
902.92	0.5
903.654	0.5
904.389	-0.5
905.123	0.5
905.857	1.5
906.59	1.5
907.324	1.5
908.058	0.5
908.792	0.5
909.525	1.5
910.259	1.5
910.992	2.5
911.726	1.5
912.459	0.5
913.192	-0.5
913.925	-0.5
914.658	1.5
915.391	-0.5
916.124	-0.5
916.857	2.5
917.59	-1.5
918.323	0.5
919.055	1.5
919.788	1.5
920.521	1.5
921.253	1.5
921.985	-0.5
922.718	1.5
923.45	0.5
924.182	0.5
924.914	1.5
925.646	0.5
926.378	-0.5
927.11	1.5
927.841	0.5
928.573	1.5
929.305	0.5
930.036	0.5
930.768	0.5
931.499	0.5
932.23	0.5
932.962	0.5
933.693	2.5
934.424	2.5
935.155	-1.5
935.886	-0.5
936.617	1.5
937.348	1.5
938.078	3.5
938.809	0.5
939.54	-0.5
940.27	0.5
941.001	0.5
941.731	1.5
942.461	1.5
943.191	1.5
943.922	1.5
944.652	1.5
945.382	-0.5
946.112	1.5
946.841	-0.5
947.571	-0.5
948.301	1.5
949.031	-0.5
949.76	0.5
950.49	-1.5
951.219	-0.5
951.948	0.5
952.678	-0.5
953.407	3.5
954.136	-0.5
954.865	1.5
955.594	0.5
956.323	1.5
957.052	1.5
957.78	1.5
958.509	0.5
959.238	1.5
959.966	-0.5
960.695	1.5
961.423	-0.5
962.151	1.5
962.88	-0.5
963.608	1.5
964.336	-0.5
965.064	2.5
965.792	1.5
966.52	-0.5
967.247	-0.5
967.975	0.5
968.703	0.5
969.43	0.5
970.158	-1.5
970.885	0.5
971.613	-1.5
972.34	1.5
973.067	-0.5
973.794	0.5
974.521	-0.5
975.248	-0.5
975.975	0.5
976.702	0.5
977.429	-1.5
978.156	2.5
978.882	0.5
979.609	-0.5
980.335	-1.5
981.062	1.5
981.788	1.5
982.514	1.5
983.24	-1.5
983.967	-0.5
984.693	0.5
985.419	-0.5
986.144	1.5
986.87	-0.5
987.596	-0.5
988.322	1.5
989.047	-0.5
989.773	1.5
990.498	1.5
991.224	-0.5
991.949	1.5
992.674	1.5
993.399	2.5
994.124	0.5
994.849	0.5
995.574	0.5
996.299	1.5
997.024	1.5
997.749	0.5
998.473	0.5
999.198	-1.5
999.922	1.5
1000.647	0.5
1001.371	5.5
1002.095	-0.5
1002.82	-0.5
1003.544	-2.5
1004.268	4.5
1004.992	0.5
1005.716	1.5
1006.439	1.5
1007.163	3.5
1007.887	1.5
1008.611	1.5
1009.334	1.5
1010.058	1.5
1010.781	0.5
1011.504	0.5
1012.228	-0.5
1012.951	0.5
1013.674	-0.5
1014.397	-0.5
1015.12	-1.5
