节点500_285_QEPB04081__101__14-57-14-292.txt的数据

Date: Wed Nov 12 14:57:14 CST 2025
User: PC
Spectrometer: QEPB0408
触发模式: 0
积分时间 (秒): 1.000000E-2
Scans to average: 1
启用暗噪声校正: true
启用非线性校正: false
滑动平均宽度: 0
X轴模式: Wavelengths
Number of Pixels in Spectrum: 1044
>>>>>Begin Spectral Data<<<<<
220.843	-0.62
221.644	1.38
222.444	1.38
223.244	2.38
224.045	0.38
224.845	1.38
225.645	2.38
226.445	0.38
227.245	1.38
228.045	3.38
228.845	4.38
229.645	2.38
230.444	2.38
231.244	3.38
232.043	4.38
232.843	5.38
233.642	2.38
234.442	3.38
235.241	3.38
236.04	3.38
236.839	2.38
237.638	6.38
238.437	4.38
239.236	5.38
240.035	3.38
240.833	2.38
241.632	3.38
242.43	1.38
243.229	4.38
244.027	4.38
244.826	7.38
245.624	6.38
246.422	5.38
247.22	6.38
248.018	5.38
248.816	7.38
249.614	8.38
250.412	6.38
251.21	7.38
252.007	8.38
252.805	8.38
253.602	8.38
254.4	9.38
255.197	7.38
255.994	11.38
256.791	9.38
257.589	8.38
258.386	8.38
259.183	8.38
259.979	10.38
260.776	11.38
261.573	9.38
262.37	7.38
263.166	12.38
263.963	11.38
264.759	11.38
265.556	13.38
266.352	13.38
267.148	11.38
267.944	17.38
268.74	12.38
269.536	13.38
270.332	16.38
271.128	18.38
271.924	18.38
272.719	15.38
273.515	17.38
274.311	16.38
275.106	16.38
275.901	20.38
276.697	21.38
277.492	17.38
278.287	20.38
279.082	19.38
279.877	19.38
280.672	19.38
281.467	19.38
282.262	19.38
283.056	21.38
283.851	17.38
284.646	20.38
285.44	19.38
286.234	19.38
287.029	21.38
287.823	17.38
288.617	20.38
289.411	20.38
290.205	19.38
290.999	16.38
291.793	18.38
292.587	19.38
293.381	17.38
294.174	17.38
294.968	17.38
295.761	17.38
296.555	15.38
297.348	16.38
298.141	17.38
298.935	16.38
299.728	15.38
300.521	15.38
301.314	14.38
302.107	14.38
302.899	13.38
303.692	12.38
304.485	14.38
305.277	11.38
306.07	13.38
306.862	12.38
307.655	14.38
308.447	9.38
309.239	12.38
310.031	9.38
310.823	11.38
311.615	11.38
312.407	9.38
313.199	12.38
313.991	12.38
314.783	7.38
315.574	11.38
316.366	7.38
317.157	8.38
317.949	7.38
318.74	6.38
319.531	7.38
320.322	8.38
321.113	8.38
321.904	7.38
322.695	7.38
323.486	8.38
324.277	6.38
325.068	8.38
325.858	10.38
326.649	6.38
327.439	6.38
328.23	6.38
329.02	6.38
329.81	7.38
330.6	8.38
331.391	7.38
332.181	6.38
332.971	7.38
333.76	7.38
334.55	7.38
335.34	5.38
336.13	5.38
336.919	7.38
337.709	7.38
338.498	6.38
339.287	4.38
340.077	7.38
340.866	5.38
341.655	6.38
342.444	7.38
343.233	6.38
344.022	6.38
344.811	7.38
345.6	8.38
346.388	5.38
347.177	7.38
347.965	5.38
348.754	6.38
349.542	5.38
350.33	7.38
351.119	7.38
351.907	9.38
352.695	6.38
353.483	5.38
354.271	5.38
355.059	7.38
355.846	5.38
356.634	6.38
357.422	4.38
358.209	6.38
358.997	7.38
359.784	7.38
360.571	6.38
361.359	6.38
362.146	6.38
362.933	5.38
363.72	4.38
364.507	5.38
365.294	5.38
366.081	5.38
366.867	6.38
367.654	2.38
368.44	5.38
369.227	6.38
370.013	4.38
370.8	4.38
371.586	4.38
372.372	5.38
373.158	4.38
373.944	5.38
374.73	7.38
375.516	4.38
376.302	8.38
377.088	5.38
377.873	5.38
378.659	4.38
379.445	5.38
380.23	4.38
381.015	4.38
381.801	5.38
382.586	5.38
383.371	2.38
384.156	4.38
384.941	6.38
385.726	6.38
386.511	6.38
387.296	4.38
388.08	6.38
388.865	6.38
389.649	6.38
390.434	4.38
391.218	5.38
392.003	5.38
392.787	5.38
393.571	7.38
394.355	7.38
395.139	8.38
395.923	6.38
396.707	7.38
397.491	6.38
398.274	6.38
399.058	6.38
399.842	7.38
400.625	8.38
401.408	6.38
402.192	8.38
402.975	8.38
403.758	7.38
404.541	7.38
405.324	6.38
406.107	7.38
406.89	8.38
407.673	8.38
408.456	7.38
409.238	8.38
410.021	8.38
410.803	8.38
411.586	10.38
412.368	7.38
413.151	9.38
413.933	9.38
414.715	8.38
415.497	8.38
416.279	9.38
417.061	7.38
417.843	10.38
418.624	8.38
419.406	9.38
420.188	11.38
420.969	9.38
421.751	7.38
422.532	10.38
423.313	14.38
424.095	9.38
424.876	12.38
425.657	13.38
426.438	12.38
427.219	14.38
428	12.38
428.78	13.38
429.561	11.38
430.342	15.38
431.122	13.38
431.903	13.38
432.683	15.38
433.464	14.38
434.244	17.38
435.024	18.38
435.804	17.38
436.584	18.38
437.364	19.38
438.144	23.38
438.924	20.38
439.704	20.38
440.483	23.38
441.263	22.38
442.042	25.38
442.822	26.38
443.601	26.38
444.38	29.38
445.16	30.38
445.939	33.38
446.718	34.38
447.497	39.38
448.276	40.38
449.054	43.38
449.833	47.38
450.612	46.38
451.391	56.38
452.169	62.38
452.948	65.38
453.726	71.38
454.504	76.38
455.282	88.38
456.061	87.38
456.839	105.38
457.617	112.38
458.395	125.38
459.172	141.38
459.95	154.38
460.728	180.38
461.506	194.38
462.283	214.38
463.061	246.38
463.838	271.38
464.615	310.38
465.393	336.38
466.17	376.38
466.947	418.38
467.724	469.38
468.501	521.38
469.278	596.38
470.055	648.38
470.831	735.38
471.608	817.38
472.385	914.38
473.161	1016.38
473.938	1135.38
474.714	1265.38
475.49	1406.38
476.266	1553.38
477.043	1723.38
477.819	1904.38
478.595	2117.38
479.371	2343.38
480.146	2594.38
480.922	2865.38
481.698	3194.38
482.473	3535.38
483.249	3906.38
484.024	4313.38
484.8	4728.38
485.575	5236.38
486.35	5771.38
487.126	6381.38
487.901	7018.38
488.676	7719.38
489.451	8470.38
490.225	9350.38
491	10218.38
491.775	11192.38
492.55	12263.38
493.324	13245.38
494.099	14347.38
494.873	15492.38
495.647	16748.38
496.422	17977.38
497.196	19225.38
497.97	20545.38
498.744	21821.38
499.518	22945.38
500.292	24140.38
501.066	25347.38
501.839	26226.38
502.613	27080.38
503.387	27841.38
504.16	28341.38
504.934	28636.38
505.707	28612.38
506.48	28576.38
507.253	28329.38
508.027	27886.38
508.8	27436.38
509.573	26857.38
510.346	26100.38
511.118	25167.38
511.891	24231.38
512.664	23319.38
513.437	22364.38
514.209	21364.38
514.982	20428.38
515.754	19442.38
516.526	18614.38
517.298	17804.38
518.071	17002.38
518.843	16327.38
519.615	15714.38
520.387	15051.38
521.159	14458.38
521.93	13913.38
522.702	13375.38
523.474	12867.38
524.245	12240.38
525.017	11740.38
525.788	11245.38
526.56	10699.38
527.331	10231.38
528.102	9749.38
528.873	9250.38
529.644	8815.38
530.415	8347.38
531.186	7906.38
531.957	7478.38
532.728	7096.38
533.498	6698.38
534.269	6352.38
535.039	5983.38
535.81	5676.38
536.58	5339.38
537.351	5032.38
538.121	4744.38
538.891	4468.38
539.661	4253.38
540.431	3967.38
541.201	3791.38
541.971	3581.38
542.741	3406.38
543.51	3235.38
544.28	3083.38
545.05	2929.38
545.819	2776.38
546.588	2635.38
547.358	2516.38
548.127	2379.38
548.896	2256.38
549.665	2146.38
550.434	2044.38
551.203	1904.38
551.972	1810.38
552.741	1700.38
553.51	1611.38
554.278	1529.38
555.047	1433.38
555.815	1360.38
556.584	1288.38
557.352	1217.38
558.121	1145.38
558.889	1078.38
559.657	1022.38
560.425	960.38
561.193	906.38
561.961	852.38
562.729	813.38
563.496	761.38
564.264	720.38
565.032	679.38
565.799	655.38
566.567	621.38
567.334	575.38
568.101	541.38
568.869	515.38
569.636	478.38
570.403	457.38
571.17	429.38
571.937	414.38
572.704	375.38
573.471	365.38
574.237	344.38
575.004	316.38
575.771	303.38
576.537	283.38
577.303	268.38
578.07	253.38
578.836	238.38
579.602	219.38
580.368	214.38
581.134	199.38
581.9	186.38
582.666	184.38
583.432	165.38
584.198	163.38
584.964	158.38
585.729	148.38
586.495	137.38
587.26	127.38
588.025	130.38
588.791	118.38
589.556	111.38
590.321	108.38
591.086	100.38
591.851	95.38
592.616	88.38
593.381	86.38
594.146	79.38
594.911	76.38
595.675	76.38
596.44	71.38
597.204	66.38
597.969	63.38
598.733	66.38
599.497	58.38
600.261	58.38
601.025	53.38
601.79	51.38
602.553	51.38
603.317	48.38
604.081	45.38
604.845	42.38
605.609	44.38
606.372	42.38
607.136	40.38
607.899	35.38
608.662	35.38
609.426	37.38
610.189	30.38
610.952	32.38
611.715	29.38
612.478	29.38
613.241	29.38
614.004	27.38
614.767	28.38
615.529	25.38
616.292	24.38
617.055	22.38
617.817	25.38
618.579	23.38
619.342	24.38
620.104	18.38
620.866	22.38
621.628	19.38
622.39	20.38
623.152	19.38
623.914	17.38
624.676	18.38
625.438	15.38
626.199	16.38
626.961	17.38
627.722	14.38
628.484	14.38
629.245	16.38
630.006	12.38
630.768	14.38
631.529	13.38
632.29	14.38
633.051	11.38
633.812	12.38
634.573	12.38
635.333	10.38
636.094	12.38
636.855	11.38
637.615	8.38
638.376	12.38
639.136	9.38
639.896	9.38
640.657	9.38
641.417	11.38
642.177	10.38
642.937	6.38
643.697	8.38
644.457	6.38
645.216	11.38
645.976	8.38
646.736	7.38
647.495	7.38
648.255	7.38
649.014	7.38
649.774	6.38
650.533	8.38
651.292	8.38
652.051	5.38
652.81	8.38
653.569	6.38
654.328	7.38
655.087	5.38
655.846	7.38
656.604	7.38
657.363	5.38
658.121	8.38
658.88	5.38
659.638	5.38
660.397	5.38
661.155	6.38
661.913	5.38
662.671	5.38
663.429	6.38
664.187	6.38
664.945	6.38
665.703	3.38
666.46	4.38
667.218	7.38
667.976	5.38
668.733	5.38
669.49	5.38
670.248	4.38
671.005	6.38
671.762	4.38
672.519	5.38
673.276	5.38
674.033	4.38
674.79	7.38
675.547	5.38
676.304	7.38
677.06	5.38
677.817	3.38
678.574	4.38
679.33	6.38
680.086	4.38
680.843	3.38
681.599	5.38
682.355	3.38
683.111	5.38
683.867	3.38
684.623	4.38
685.379	4.38
686.135	5.38
686.89	3.38
687.646	3.38
688.402	3.38
689.157	2.38
689.912	4.38
690.668	3.38
691.423	3.38
692.178	3.38
692.933	6.38
693.688	4.38
694.443	5.38
695.198	5.38
695.953	4.38
696.708	4.38
697.462	3.38
698.217	3.38
698.972	2.38
699.726	5.38
700.48	1.38
701.235	0.38
701.989	3.38
702.743	1.38
703.497	3.38
704.251	4.38
705.005	3.38
705.759	5.38
706.513	3.38
707.266	3.38
708.02	2.38
708.774	5.38
709.527	3.38
710.28	2.38
711.034	2.38
711.787	0.38
712.54	5.38
713.293	4.38
714.046	5.38
714.799	5.38
715.552	6.38
716.305	3.38
717.058	3.38
717.81	3.38
718.563	1.38
719.315	5.38
720.068	4.38
720.82	3.38
721.573	5.38
722.325	3.38
723.077	2.38
723.829	4.38
724.581	2.38
725.333	6.38
726.085	3.38
726.836	6.38
727.588	3.38
728.34	4.38
729.091	4.38
729.843	3.38
730.594	5.38
731.346	5.38
732.097	5.38
732.848	4.38
733.599	5.38
734.35	4.38
735.101	3.38
735.852	3.38
736.603	4.38
737.354	4.38
738.104	4.38
738.855	5.38
739.605	5.38
740.356	5.38
741.106	3.38
741.856	4.38
742.607	5.38
743.357	6.38
744.107	5.38
744.857	4.38
745.607	2.38
746.357	5.38
747.106	6.38
747.856	6.38
748.606	5.38
749.355	4.38
750.105	6.38
750.854	4.38
751.603	7.38
752.353	4.38
753.102	4.38
753.851	6.38
754.6	5.38
755.349	5.38
756.098	6.38
756.847	5.38
757.595	5.38
758.344	5.38
759.093	6.38
759.841	4.38
760.589	8.38
761.338	9.38
762.086	8.38
762.834	7.38
763.582	7.38
764.331	5.38
765.079	8.38
765.826	6.38
766.574	8.38
767.322	8.38
768.07	7.38
768.817	8.38
769.565	8.38
770.312	7.38
771.06	7.38
771.807	7.38
772.554	6.38
773.302	11.38
774.049	9.38
774.796	9.38
775.543	9.38
776.29	10.38
777.036	8.38
777.783	8.38
778.53	11.38
779.276	8.38
780.023	5.38
780.769	9.38
781.516	9.38
782.262	9.38
783.008	8.38
783.754	11.38
784.5	9.38
785.246	6.38
785.992	9.38
786.738	9.38
787.484	8.38
788.23	7.38
788.975	9.38
789.721	9.38
790.466	8.38
791.212	10.38
791.957	9.38
792.702	7.38
793.447	12.38
794.193	9.38
794.938	8.38
795.683	8.38
796.427	9.38
797.172	7.38
797.917	8.38
798.662	8.38
799.406	7.38
800.151	7.38
800.895	8.38
801.64	8.38
802.384	8.38
803.128	9.38
803.872	5.38
804.616	7.38
805.36	9.38
806.104	7.38
806.848	7.38
807.592	7.38
808.336	6.38
809.079	7.38
809.823	7.38
810.566	3.38
811.31	6.38
812.053	5.38
812.796	7.38
813.539	5.38
814.283	3.38
815.026	4.38
815.769	1.38
816.511	6.38
817.254	7.38
817.997	5.38
818.74	5.38
819.482	5.38
820.225	6.38
820.967	5.38
821.71	3.38
822.452	3.38
823.194	6.38
823.936	5.38
824.678	1.38
825.42	4.38
826.162	6.38
826.904	3.38
827.646	3.38
828.388	3.38
829.129	3.38
829.871	2.38
830.612	2.38
831.354	7.38
832.095	5.38
832.836	4.38
833.577	2.38
834.319	7.38
835.06	3.38
835.801	4.38
836.542	5.38
837.282	2.38
838.023	6.38
838.764	1.38
839.504	1.38
840.245	4.38
840.985	5.38
841.726	4.38
842.466	1.38
843.206	3.38
843.946	0.38
844.687	4.38
845.427	5.38
846.166	4.38
846.906	-0.62
847.646	1.38
848.386	3.38
849.125	3.38
849.865	3.38
850.605	2.38
851.344	0.38
852.083	4.38
852.823	1.38
853.562	4.38
854.301	3.38
855.04	3.38
855.779	3.38
856.518	2.38
857.257	-0.62
857.995	3.38
858.734	5.38
859.473	1.38
860.211	1.38
860.95	3.38
861.688	2.38
862.426	3.38
863.165	1.38
863.903	2.38
864.641	4.38
865.379	1.38
866.117	1.38
866.855	3.38
867.593	1.38
868.33	1.38
869.068	2.38
869.806	2.38
870.543	1.38
871.28	1.38
872.018	2.38
872.755	1.38
873.492	1.38
874.229	-1.62
874.967	-0.62
875.703	2.38
876.44	3.38
877.177	1.38
877.914	2.38
878.651	1.38
879.387	0.38
880.124	3.38
880.86	2.38
881.597	1.38
882.333	0.38
883.069	0.38
883.806	2.38
884.542	1.38
885.278	0.38
886.014	2.38
886.749	2.38
887.485	2.38
888.221	2.38
888.957	1.38
889.692	0.38
890.428	-0.62
891.163	3.38
891.899	1.38
892.634	0.38
893.369	-0.62
894.104	1.38
894.839	1.38
895.574	0.38
896.309	0.38
897.044	-0.62
897.779	1.38
898.514	1.38
899.248	-0.62
899.983	1.38
900.717	1.38
901.452	1.38
902.186	1.38
902.92	2.38
903.654	1.38
904.389	0.38
905.123	-0.62
905.857	-0.62
906.59	3.38
907.324	1.38
908.058	-0.62
908.792	3.38
909.525	1.38
910.259	0.38
910.992	1.38
911.726	0.38
912.459	0.38
913.192	0.38
913.925	1.38
914.658	1.38
915.391	0.38
916.124	0.38
916.857	2.38
917.59	-0.62
918.323	1.38
919.055	1.38
919.788	0.38
920.521	-0.62
921.253	-0.62
921.985	-1.62
922.718	0.38
923.45	-1.62
924.182	0.38
924.914	0.38
925.646	0.38
926.378	-0.62
927.11	2.38
927.841	-0.62
928.573	1.38
929.305	-0.62
930.036	2.38
930.768	-0.62
931.499	-1.62
932.23	-0.62
932.962	-0.62
933.693	-0.62
934.424	1.38
935.155	0.38
935.886	0.38
936.617	0.38
937.348	-0.62
938.078	1.38
938.809	1.38
939.54	2.38
940.27	-0.62
941.001	1.38
941.731	1.38
942.461	0.38
943.191	1.38
943.922	1.38
944.652	1.38
945.382	-0.62
946.112	-0.62
946.841	0.38
947.571	0.38
948.301	0.38
949.031	1.38
949.76	-0.62
950.49	1.38
951.219	-0.62
951.948	3.38
952.678	2.38
953.407	1.38
954.136	0.38
954.865	0.38
955.594	1.38
956.323	3.38
957.052	2.38
957.78	-0.62
958.509	-0.62
959.238	2.38
959.966	0.38
960.695	-0.62
961.423	0.38
962.151	-1.62
962.88	-0.62
963.608	-1.62
964.336	2.38
965.064	-0.62
965.792	0.38
966.52	-0.62
967.247	0.38
967.975	0.38
968.703	0.38
969.43	-0.62
970.158	1.38
970.885	1.38
971.613	0.38
972.34	0.38
973.067	0.38
973.794	1.38
974.521	2.38
975.248	0.38
975.975	-2.62
976.702	0.38
977.429	-0.62
978.156	-0.62
978.882	2.38
979.609	-2.62
980.335	1.38
981.062	1.38
981.788	0.38
982.514	-0.62
983.24	0.38
983.967	-0.62
984.693	-0.62
985.419	-1.62
986.144	0.38
986.87	0.38
987.596	1.38
988.322	0.38
989.047	1.38
989.773	2.38
990.498	0.38
991.224	-0.62
991.949	3.38
992.674	0.38
993.399	0.38
994.124	2.38
994.849	0.38
995.574	0.38
996.299	-0.62
997.024	-1.62
997.749	1.38
998.473	0.38
999.198	1.38
999.922	-0.62
1000.647	0.38
1001.371	4.38
1002.095	-0.62
1002.82	-2.62
1003.544	0.38
1004.268	1.38
1004.992	1.38
1005.716	0.38
1006.439	2.38
1007.163	3.38
1007.887	3.38
1008.611	0.38
1009.334	0.38
1010.058	3.38
1010.781	0.38
1011.504	-0.62
1012.228	0.38
1012.951	-0.62
1013.674	-1.62
1014.397	0.38
1015.12	0.38
