节点500_285_QEPB04081__518__15-04-10-336.txt的数据

Date: Wed Nov 12 15:04:10 CST 2025
User: PC
Spectrometer: QEPB0408
触发模式: 0
积分时间 (秒): 1.000000E-2
Scans to average: 1
启用暗噪声校正: true
启用非线性校正: false
滑动平均宽度: 0
X轴模式: Wavelengths
Number of Pixels in Spectrum: 1044
>>>>>Begin Spectral Data<<<<<
220.843	0.88
221.644	4.88
222.444	3.88
223.244	1.88
224.045	2.88
224.845	3.88
225.645	2.88
226.445	4.88
227.245	3.88
228.045	3.88
228.845	1.88
229.645	2.88
230.444	2.88
231.244	4.88
232.043	2.88
232.843	4.88
233.642	2.88
234.442	4.88
235.241	5.88
236.04	4.88
236.839	4.88
237.638	5.88
238.437	2.88
239.236	4.88
240.035	6.88
240.833	5.88
241.632	7.88
242.43	4.88
243.229	5.88
244.027	5.88
244.826	4.88
245.624	5.88
246.422	2.88
247.22	4.88
248.018	7.88
248.816	8.88
249.614	6.88
250.412	5.88
251.21	6.88
252.007	6.88
252.805	9.88
253.602	9.88
254.4	8.88
255.197	8.88
255.994	10.88
256.791	8.88
257.589	9.88
258.386	9.88
259.183	7.88
259.979	7.88
260.776	8.88
261.573	12.88
262.37	8.88
263.166	13.88
263.963	13.88
264.759	13.88
265.556	10.88
266.352	13.88
267.148	11.88
267.944	12.88
268.74	14.88
269.536	15.88
270.332	14.88
271.128	14.88
271.924	13.88
272.719	14.88
273.515	17.88
274.311	17.88
275.106	16.88
275.901	19.88
276.697	19.88
277.492	20.88
278.287	17.88
279.082	20.88
279.877	16.88
280.672	18.88
281.467	17.88
282.262	19.88
283.056	19.88
283.851	21.88
284.646	20.88
285.44	18.88
286.234	15.88
287.029	21.88
287.823	18.88
288.617	17.88
289.411	17.88
290.205	19.88
290.999	18.88
291.793	18.88
292.587	20.88
293.381	17.88
294.174	17.88
294.968	15.88
295.761	15.88
296.555	16.88
297.348	16.88
298.141	13.88
298.935	15.88
299.728	14.88
300.521	11.88
301.314	15.88
302.107	12.88
302.899	14.88
303.692	12.88
304.485	12.88
305.277	13.88
306.07	11.88
306.862	13.88
307.655	13.88
308.447	15.88
309.239	13.88
310.031	11.88
310.823	12.88
311.615	9.88
312.407	10.88
313.199	11.88
313.991	9.88
314.783	11.88
315.574	11.88
316.366	10.88
317.157	9.88
317.949	8.88
318.74	9.88
319.531	9.88
320.322	10.88
321.113	8.88
321.904	10.88
322.695	7.88
323.486	8.88
324.277	7.88
325.068	6.88
325.858	9.88
326.649	7.88
327.439	8.88
328.23	8.88
329.02	6.88
329.81	8.88
330.6	5.88
331.391	8.88
332.181	7.88
332.971	7.88
333.76	3.88
334.55	8.88
335.34	9.88
336.13	8.88
336.919	9.88
337.709	5.88
338.498	8.88
339.287	7.88
340.077	6.88
340.866	7.88
341.655	5.88
342.444	8.88
343.233	4.88
344.022	5.88
344.811	6.88
345.6	6.88
346.388	6.88
347.177	8.88
347.965	5.88
348.754	7.88
349.542	6.88
350.33	5.88
351.119	3.88
351.907	6.88
352.695	5.88
353.483	4.88
354.271	7.88
355.059	7.88
355.846	9.88
356.634	6.88
357.422	5.88
358.209	7.88
358.997	6.88
359.784	5.88
360.571	6.88
361.359	9.88
362.146	5.88
362.933	5.88
363.72	5.88
364.507	4.88
365.294	8.88
366.081	3.88
366.867	5.88
367.654	5.88
368.44	5.88
369.227	5.88
370.013	3.88
370.8	6.88
371.586	4.88
372.372	7.88
373.158	6.88
373.944	7.88
374.73	2.88
375.516	2.88
376.302	5.88
377.088	7.88
377.873	5.88
378.659	6.88
379.445	7.88
380.23	7.88
381.015	5.88
381.801	7.88
382.586	5.88
383.371	7.88
384.156	7.88
384.941	6.88
385.726	5.88
386.511	4.88
387.296	6.88
388.08	5.88
388.865	5.88
389.649	6.88
390.434	5.88
391.218	7.88
392.003	5.88
392.787	7.88
393.571	8.88
394.355	5.88
395.139	7.88
395.923	7.88
396.707	7.88
397.491	6.88
398.274	7.88
399.058	6.88
399.842	7.88
400.625	5.88
401.408	8.88
402.192	8.88
402.975	6.88
403.758	6.88
404.541	7.88
405.324	4.88
406.107	7.88
406.89	6.88
407.673	7.88
408.456	9.88
409.238	7.88
410.021	9.88
410.803	11.88
411.586	10.88
412.368	10.88
413.151	6.88
413.933	10.88
414.715	9.88
415.497	8.88
416.279	8.88
417.061	10.88
417.843	10.88
418.624	8.88
419.406	10.88
420.188	9.88
420.969	10.88
421.751	9.88
422.532	10.88
423.313	12.88
424.095	10.88
424.876	9.88
425.657	14.88
426.438	13.88
427.219	14.88
428	14.88
428.78	14.88
429.561	13.88
430.342	14.88
431.122	16.88
431.903	15.88
432.683	17.88
433.464	14.88
434.244	16.88
435.024	16.88
435.804	17.88
436.584	18.88
437.364	20.88
438.144	21.88
438.924	20.88
439.704	22.88
440.483	23.88
441.263	23.88
442.042	25.88
442.822	26.88
443.601	31.88
444.38	30.88
445.16	30.88
445.939	33.88
446.718	35.88
447.497	41.88
448.276	41.88
449.054	48.88
449.833	48.88
450.612	55.88
451.391	59.88
452.169	62.88
452.948	67.88
453.726	74.88
454.504	82.88
455.282	94.88
456.061	101.88
456.839	116.88
457.617	124.88
458.395	144.88
459.172	153.88
459.95	177.88
460.728	195.88
461.506	223.88
462.283	243.88
463.061	271.88
463.838	303.88
464.615	337.88
465.393	369.88
466.17	414.88
466.947	474.88
467.724	519.88
468.501	585.88
469.278	632.88
470.055	710.88
470.831	781.88
471.608	871.88
472.385	956.88
473.161	1071.88
473.938	1180.88
474.714	1313.88
475.49	1430.88
476.266	1602.88
477.043	1782.88
477.819	1938.88
478.595	2118.88
479.371	2348.88
480.146	2578.88
480.922	2849.88
481.698	3117.88
482.473	3441.88
483.249	3772.88
484.024	4125.88
484.8	4525.88
485.575	4971.88
486.35	5429.88
487.126	5940.88
487.901	6480.88
488.676	7127.88
489.451	7764.88
490.225	8447.88
491	9245.88
491.775	10054.88
492.55	10925.88
493.324	11845.88
494.099	12752.88
494.873	13687.88
495.647	14751.88
496.422	15857.88
497.196	16961.88
497.97	18066.88
498.744	19206.88
499.518	20318.88
500.292	21465.88
501.066	22500.88
501.839	23434.88
502.613	24350.88
503.387	25186.88
504.16	25799.88
504.934	26192.88
505.707	26502.88
506.48	26627.88
507.253	26717.88
508.027	26509.88
508.8	26275.88
509.573	26000.88
510.346	25486.88
511.118	24758.88
511.891	24065.88
512.664	23321.88
513.437	22498.88
514.209	21583.88
514.982	20721.88
515.754	19848.88
516.526	18988.88
517.298	18219.88
518.071	17392.88
518.843	16772.88
519.615	16028.88
520.387	15468.88
521.159	14828.88
521.93	14267.88
522.702	13694.88
523.474	13126.88
524.245	12574.88
525.017	12048.88
525.788	11632.88
526.56	11112.88
527.331	10570.88
528.102	10120.88
528.873	9642.88
529.644	9184.88
530.415	8738.88
531.186	8323.88
531.957	7888.88
532.728	7516.88
533.498	7121.88
534.269	6705.88
535.039	6347.88
535.81	6015.88
536.58	5675.88
537.351	5378.88
538.121	5062.88
538.891	4803.88
539.661	4521.88
540.431	4280.88
541.201	4037.88
541.971	3826.88
542.741	3624.88
543.51	3468.88
544.28	3301.88
545.05	3146.88
545.819	2984.88
546.588	2822.88
547.358	2669.88
548.127	2538.88
548.896	2414.88
549.665	2302.88
550.434	2170.88
551.203	2059.88
551.972	1961.88
552.741	1835.88
553.51	1738.88
554.278	1651.88
555.047	1565.88
555.815	1474.88
556.584	1397.88
557.352	1308.88
558.121	1239.88
558.889	1168.88
559.657	1103.88
560.425	1051.88
561.193	994.88
561.961	925.88
562.729	884.88
563.496	830.88
564.264	779.88
565.032	745.88
565.799	691.88
566.567	660.88
567.334	624.88
568.101	593.88
568.869	568.88
569.636	533.88
570.403	493.88
571.17	464.88
571.937	449.88
572.704	419.88
573.471	400.88
574.237	368.88
575.004	343.88
575.771	337.88
576.537	312.88
577.303	297.88
578.07	279.88
578.836	260.88
579.602	243.88
580.368	228.88
581.134	220.88
581.9	213.88
582.666	198.88
583.432	186.88
584.198	174.88
584.964	166.88
585.729	160.88
586.495	146.88
587.26	147.88
588.025	133.88
588.791	123.88
589.556	120.88
590.321	116.88
591.086	106.88
591.851	108.88
592.616	96.88
593.381	94.88
594.146	88.88
594.911	82.88
595.675	82.88
596.44	74.88
597.204	72.88
597.969	74.88
598.733	66.88
599.497	66.88
600.261	61.88
601.025	58.88
601.79	54.88
602.553	52.88
603.317	49.88
604.081	51.88
604.845	47.88
605.609	47.88
606.372	47.88
607.136	43.88
607.899	40.88
608.662	39.88
609.426	38.88
610.189	37.88
610.952	33.88
611.715	32.88
612.478	30.88
613.241	33.88
614.004	29.88
614.767	29.88
615.529	29.88
616.292	27.88
617.055	26.88
617.817	23.88
618.579	24.88
619.342	22.88
620.104	20.88
620.866	18.88
621.628	17.88
622.39	20.88
623.152	18.88
623.914	19.88
624.676	19.88
625.438	19.88
626.199	19.88
626.961	15.88
627.722	17.88
628.484	15.88
629.245	16.88
630.006	17.88
630.768	12.88
631.529	15.88
632.29	14.88
633.051	10.88
633.812	12.88
634.573	12.88
635.333	11.88
636.094	11.88
636.855	11.88
637.615	10.88
638.376	9.88
639.136	11.88
639.896	7.88
640.657	11.88
641.417	12.88
642.177	10.88
642.937	9.88
643.697	7.88
644.457	9.88
645.216	8.88
645.976	8.88
646.736	7.88
647.495	5.88
648.255	8.88
649.014	5.88
649.774	8.88
650.533	8.88
651.292	7.88
652.051	6.88
652.81	8.88
653.569	6.88
654.328	6.88
655.087	9.88
655.846	5.88
656.604	6.88
657.363	9.88
658.121	7.88
658.88	7.88
659.638	5.88
660.397	6.88
661.155	6.88
661.913	5.88
662.671	7.88
663.429	3.88
664.187	6.88
664.945	6.88
665.703	5.88
666.46	4.88
667.218	6.88
667.976	5.88
668.733	4.88
669.49	5.88
670.248	4.88
671.005	6.88
671.762	5.88
672.519	5.88
673.276	5.88
674.033	4.88
674.79	5.88
675.547	5.88
676.304	5.88
677.06	6.88
677.817	4.88
678.574	3.88
679.33	5.88
680.086	4.88
680.843	5.88
681.599	3.88
682.355	5.88
683.111	4.88
683.867	7.88
684.623	3.88
685.379	3.88
686.135	6.88
686.89	4.88
687.646	2.88
688.402	7.88
689.157	4.88
689.912	6.88
690.668	5.88
691.423	5.88
692.178	6.88
692.933	3.88
693.688	2.88
694.443	6.88
695.198	6.88
695.953	2.88
696.708	5.88
697.462	5.88
698.217	5.88
698.972	2.88
699.726	6.88
700.48	6.88
701.235	3.88
701.989	3.88
702.743	5.88
703.497	2.88
704.251	4.88
705.005	4.88
705.759	4.88
706.513	3.88
707.266	3.88
708.02	5.88
708.774	6.88
709.527	7.88
710.28	2.88
711.034	3.88
711.787	3.88
712.54	2.88
713.293	5.88
714.046	4.88
714.799	4.88
715.552	5.88
716.305	5.88
717.058	2.88
717.81	5.88
718.563	4.88
719.315	3.88
720.068	6.88
720.82	4.88
721.573	4.88
722.325	3.88
723.077	2.88
723.829	2.88
724.581	1.88
725.333	5.88
726.085	4.88
726.836	3.88
727.588	4.88
728.34	4.88
729.091	4.88
729.843	5.88
730.594	7.88
731.346	5.88
732.097	5.88
732.848	6.88
733.599	5.88
734.35	4.88
735.101	4.88
735.852	4.88
736.603	5.88
737.354	5.88
738.104	6.88
738.855	4.88
739.605	4.88
740.356	5.88
741.106	4.88
741.856	7.88
742.607	5.88
743.357	5.88
744.107	6.88
744.857	6.88
745.607	4.88
746.357	2.88
747.106	5.88
747.856	4.88
748.606	5.88
749.355	3.88
750.105	3.88
750.854	4.88
751.603	5.88
752.353	6.88
753.102	4.88
753.851	8.88
754.6	6.88
755.349	8.88
756.098	6.88
756.847	3.88
757.595	7.88
758.344	5.88
759.093	7.88
759.841	7.88
760.589	5.88
761.338	7.88
762.086	6.88
762.834	9.88
763.582	8.88
764.331	6.88
765.079	9.88
765.826	7.88
766.574	4.88
767.322	7.88
768.07	6.88
768.817	9.88
769.565	6.88
770.312	9.88
771.06	8.88
771.807	6.88
772.554	9.88
773.302	6.88
774.049	8.88
774.796	8.88
775.543	10.88
776.29	7.88
777.036	10.88
777.783	6.88
778.53	12.88
779.276	9.88
780.023	7.88
780.769	9.88
781.516	9.88
782.262	8.88
783.008	8.88
783.754	9.88
784.5	10.88
785.246	11.88
785.992	8.88
786.738	7.88
787.484	10.88
788.23	9.88
788.975	8.88
789.721	9.88
790.466	6.88
791.212	7.88
791.957	8.88
792.702	8.88
793.447	9.88
794.193	8.88
794.938	9.88
795.683	8.88
796.427	8.88
797.172	7.88
797.917	8.88
798.662	7.88
799.406	6.88
800.151	7.88
800.895	6.88
801.64	7.88
802.384	5.88
803.128	6.88
803.872	7.88
804.616	4.88
805.36	9.88
806.104	8.88
806.848	6.88
807.592	7.88
808.336	6.88
809.079	6.88
809.823	4.88
810.566	7.88
811.31	5.88
812.053	5.88
812.796	4.88
813.539	4.88
814.283	2.88
815.026	7.88
815.769	5.88
816.511	6.88
817.254	5.88
817.997	4.88
818.74	4.88
819.482	5.88
820.225	5.88
820.967	4.88
821.71	4.88
822.452	3.88
823.194	5.88
823.936	4.88
824.678	6.88
825.42	4.88
826.162	4.88
826.904	6.88
827.646	1.88
828.388	6.88
829.129	3.88
829.871	5.88
830.612	4.88
831.354	6.88
832.095	3.88
832.836	1.88
833.577	4.88
834.319	2.88
835.06	4.88
835.801	3.88
836.542	4.88
837.282	3.88
838.023	3.88
838.764	5.88
839.504	3.88
840.245	4.88
840.985	3.88
841.726	4.88
842.466	6.88
843.206	1.88
843.946	2.88
844.687	4.88
845.427	2.88
846.166	4.88
846.906	2.88
847.646	5.88
848.386	4.88
849.125	4.88
849.865	2.88
850.605	2.88
851.344	4.88
852.083	2.88
852.823	5.88
853.562	1.88
854.301	4.88
855.04	1.88
855.779	3.88
856.518	4.88
857.257	0.88
857.995	3.88
858.734	1.88
859.473	3.88
860.211	2.88
860.95	3.88
861.688	6.88
862.426	3.88
863.165	5.88
863.903	1.88
864.641	2.88
865.379	2.88
866.117	2.88
866.855	1.88
867.593	2.88
868.33	5.88
869.068	2.88
869.806	2.88
870.543	4.88
871.28	2.88
872.018	2.88
872.755	1.88
873.492	0.88
874.229	1.88
874.967	2.88
875.703	2.88
876.44	3.88
877.177	2.88
877.914	1.88
878.651	2.88
879.387	2.88
880.124	2.88
880.86	2.88
881.597	0.88
882.333	1.88
883.069	2.88
883.806	3.88
884.542	2.88
885.278	0.88
886.014	2.88
886.749	0.88
887.485	2.88
888.221	1.88
888.957	0.88
889.692	2.88
890.428	-0.12
891.163	1.88
891.899	0.88
892.634	3.88
893.369	1.88
894.104	0.88
894.839	4.88
895.574	1.88
896.309	2.88
897.044	0.88
897.779	2.88
898.514	2.88
899.248	1.88
899.983	1.88
900.717	0.88
901.452	2.88
902.186	1.88
902.92	1.88
903.654	-1.12
904.389	0.88
905.123	2.88
905.857	0.88
906.59	1.88
907.324	-1.12
908.058	1.88
908.792	-0.12
909.525	-0.12
910.259	4.88
910.992	1.88
911.726	2.88
912.459	-0.12
913.192	0.88
913.925	1.88
914.658	-1.12
915.391	1.88
916.124	2.88
916.857	2.88
917.59	0.88
918.323	0.88
919.055	2.88
919.788	1.88
920.521	4.88
921.253	0.88
921.985	-0.12
922.718	-1.12
923.45	0.88
924.182	1.88
924.914	-0.12
925.646	1.88
926.378	0.88
927.11	0.88
927.841	2.88
928.573	0.88
929.305	1.88
930.036	1.88
930.768	0.88
931.499	0.88
932.23	0.88
932.962	1.88
933.693	-1.12
934.424	0.88
935.155	-0.12
935.886	2.88
936.617	2.88
937.348	-0.12
938.078	1.88
938.809	-1.12
939.54	0.88
940.27	1.88
941.001	1.88
941.731	0.88
942.461	1.88
943.191	3.88
943.922	0.88
944.652	1.88
945.382	0.88
946.112	0.88
946.841	-0.12
947.571	1.88
948.301	-0.12
949.031	-0.12
949.76	1.88
950.49	-0.12
951.219	0.88
951.948	0.88
952.678	1.88
953.407	-0.12
954.136	1.88
954.865	1.88
955.594	-0.12
956.323	2.88
957.052	1.88
957.78	0.88
958.509	0.88
959.238	1.88
959.966	0.88
960.695	0.88
961.423	0.88
962.151	1.88
962.88	-0.12
963.608	0.88
964.336	1.88
965.064	0.88
965.792	-0.12
966.52	1.88
967.247	2.88
967.975	-1.12
968.703	0.88
969.43	1.88
970.158	-0.12
970.885	0.88
971.613	-0.12
972.34	1.88
973.067	0.88
973.794	0.88
974.521	-0.12
975.248	1.88
975.975	0.88
976.702	1.88
977.429	1.88
978.156	0.88
978.882	0.88
979.609	1.88
980.335	2.88
981.062	3.88
981.788	0.88
982.514	-0.12
983.24	1.88
983.967	1.88
984.693	0.88
985.419	0.88
986.144	1.88
986.87	2.88
987.596	1.88
988.322	0.88
989.047	0.88
989.773	2.88
990.498	2.88
991.224	-2.12
991.949	0.88
992.674	-0.12
993.399	1.88
994.124	0.88
994.849	2.88
995.574	0.88
996.299	1.88
997.024	3.88
997.749	0.88
998.473	0.88
999.198	-0.12
999.922	0.88
1000.647	-1.12
1001.371	2.88
1002.095	-1.12
1002.82	-0.12
1003.544	-1.12
1004.268	0.88
1004.992	0.88
1005.716	1.88
1006.439	2.88
1007.163	3.88
1007.887	2.88
1008.611	1.88
1009.334	2.88
1010.058	1.88
1010.781	2.88
1011.504	0.88
1012.228	1.88
1012.951	0.88
1013.674	-0.12
1014.397	-1.12
1015.12	-0.12
