节点500_285_QEPB04081__423__15-02-35-561.txt的数据

Date: Wed Nov 12 15:02:35 CST 2025
User: PC
Spectrometer: QEPB0408
触发模式: 0
积分时间 (秒): 1.000000E-2
Scans to average: 1
启用暗噪声校正: true
启用非线性校正: false
滑动平均宽度: 0
X轴模式: Wavelengths
Number of Pixels in Spectrum: 1044
>>>>>Begin Spectral Data<<<<<
220.843	2.25
221.644	1.25
222.444	2.25
223.244	1.25
224.045	0.25
224.845	2.25
225.645	1.25
226.445	0.25
227.245	0.25
228.045	3.25
228.845	1.25
229.645	1.25
230.444	3.25
231.244	4.25
232.043	3.25
232.843	1.25
233.642	3.25
234.442	6.25
235.241	6.25
236.04	2.25
236.839	-0.75
237.638	4.25
238.437	4.25
239.236	5.25
240.035	4.25
240.833	3.25
241.632	6.25
242.43	2.25
243.229	3.25
244.027	2.25
244.826	6.25
245.624	4.25
246.422	6.25
247.22	3.25
248.018	2.25
248.816	6.25
249.614	4.25
250.412	3.25
251.21	7.25
252.007	8.25
252.805	6.25
253.602	6.25
254.4	7.25
255.197	5.25
255.994	9.25
256.791	8.25
257.589	8.25
258.386	10.25
259.183	9.25
259.979	8.25
260.776	6.25
261.573	9.25
262.37	8.25
263.166	7.25
263.963	11.25
264.759	12.25
265.556	11.25
266.352	12.25
267.148	10.25
267.944	13.25
268.74	14.25
269.536	11.25
270.332	14.25
271.128	13.25
271.924	15.25
272.719	15.25
273.515	16.25
274.311	17.25
275.106	17.25
275.901	14.25
276.697	16.25
277.492	14.25
278.287	15.25
279.082	16.25
279.877	17.25
280.672	16.25
281.467	18.25
282.262	15.25
283.056	18.25
283.851	18.25
284.646	18.25
285.44	16.25
286.234	19.25
287.029	20.25
287.823	17.25
288.617	20.25
289.411	16.25
290.205	18.25
290.999	18.25
291.793	14.25
292.587	16.25
293.381	16.25
294.174	17.25
294.968	12.25
295.761	15.25
296.555	16.25
297.348	13.25
298.141	17.25
298.935	16.25
299.728	16.25
300.521	12.25
301.314	12.25
302.107	13.25
302.899	12.25
303.692	13.25
304.485	12.25
305.277	12.25
306.07	11.25
306.862	14.25
307.655	12.25
308.447	11.25
309.239	11.25
310.031	13.25
310.823	10.25
311.615	10.25
312.407	9.25
313.199	7.25
313.991	9.25
314.783	9.25
315.574	7.25
316.366	8.25
317.157	6.25
317.949	6.25
318.74	9.25
319.531	7.25
320.322	6.25
321.113	7.25
321.904	6.25
322.695	7.25
323.486	5.25
324.277	8.25
325.068	7.25
325.858	8.25
326.649	6.25
327.439	5.25
328.23	6.25
329.02	7.25
329.81	6.25
330.6	5.25
331.391	5.25
332.181	6.25
332.971	9.25
333.76	6.25
334.55	4.25
335.34	7.25
336.13	5.25
336.919	5.25
337.709	8.25
338.498	6.25
339.287	8.25
340.077	6.25
340.866	5.25
341.655	6.25
342.444	5.25
343.233	6.25
344.022	5.25
344.811	7.25
345.6	7.25
346.388	5.25
347.177	7.25
347.965	4.25
348.754	7.25
349.542	5.25
350.33	4.25
351.119	6.25
351.907	4.25
352.695	6.25
353.483	4.25
354.271	8.25
355.059	6.25
355.846	4.25
356.634	4.25
357.422	3.25
358.209	3.25
358.997	5.25
359.784	6.25
360.571	6.25
361.359	5.25
362.146	6.25
362.933	6.25
363.72	5.25
364.507	3.25
365.294	4.25
366.081	5.25
366.867	3.25
367.654	5.25
368.44	5.25
369.227	6.25
370.013	5.25
370.8	4.25
371.586	6.25
372.372	1.25
373.158	5.25
373.944	5.25
374.73	8.25
375.516	7.25
376.302	3.25
377.088	4.25
377.873	1.25
378.659	4.25
379.445	4.25
380.23	6.25
381.015	5.25
381.801	4.25
382.586	6.25
383.371	4.25
384.156	6.25
384.941	4.25
385.726	2.25
386.511	6.25
387.296	2.25
388.08	5.25
388.865	3.25
389.649	7.25
390.434	5.25
391.218	4.25
392.003	4.25
392.787	5.25
393.571	5.25
394.355	6.25
395.139	6.25
395.923	7.25
396.707	5.25
397.491	7.25
398.274	6.25
399.058	6.25
399.842	4.25
400.625	6.25
401.408	7.25
402.192	7.25
402.975	7.25
403.758	7.25
404.541	9.25
405.324	7.25
406.107	5.25
406.89	8.25
407.673	4.25
408.456	6.25
409.238	8.25
410.021	7.25
410.803	7.25
411.586	7.25
412.368	8.25
413.151	8.25
413.933	8.25
414.715	8.25
415.497	9.25
416.279	9.25
417.061	6.25
417.843	6.25
418.624	8.25
419.406	10.25
420.188	10.25
420.969	9.25
421.751	10.25
422.532	9.25
423.313	11.25
424.095	8.25
424.876	11.25
425.657	12.25
426.438	13.25
427.219	12.25
428	13.25
428.78	13.25
429.561	15.25
430.342	13.25
431.122	14.25
431.903	13.25
432.683	15.25
433.464	13.25
434.244	15.25
435.024	17.25
435.804	15.25
436.584	16.25
437.364	19.25
438.144	17.25
438.924	20.25
439.704	23.25
440.483	19.25
441.263	22.25
442.042	24.25
442.822	24.25
443.601	27.25
444.38	28.25
445.16	28.25
445.939	32.25
446.718	35.25
447.497	41.25
448.276	43.25
449.054	44.25
449.833	49.25
450.612	51.25
451.391	56.25
452.169	62.25
452.948	68.25
453.726	72.25
454.504	81.25
455.282	91.25
456.061	99.25
456.839	113.25
457.617	123.25
458.395	140.25
459.172	155.25
459.95	167.25
460.728	187.25
461.506	208.25
462.283	236.25
463.061	265.25
463.838	295.25
464.615	328.25
465.393	374.25
466.17	405.25
466.947	458.25
467.724	513.25
468.501	570.25
469.278	641.25
470.055	696.25
470.831	774.25
471.608	860.25
472.385	959.25
473.161	1067.25
473.938	1180.25
474.714	1301.25
475.49	1437.25
476.266	1583.25
477.043	1753.25
477.819	1928.25
478.595	2141.25
479.371	2343.25
480.146	2572.25
480.922	2843.25
481.698	3134.25
482.473	3441.25
483.249	3784.25
484.024	4166.25
484.8	4585.25
485.575	5046.25
486.35	5504.25
487.126	6038.25
487.901	6590.25
488.676	7243.25
489.451	7906.25
490.225	8657.25
491	9409.25
491.775	10315.25
492.55	11170.25
493.324	12078.25
494.099	13007.25
494.873	14093.25
495.647	15155.25
496.422	16235.25
497.196	17439.25
497.97	18610.25
498.744	19725.25
499.518	20931.25
500.292	22055.25
501.066	23035.25
501.839	24044.25
502.613	24943.25
503.387	25781.25
504.16	26386.25
504.934	26764.25
505.707	26914.25
506.48	27086.25
507.253	27054.25
508.027	26857.25
508.8	26594.25
509.573	26165.25
510.346	25660.25
511.118	24962.25
511.891	24179.25
512.664	23348.25
513.437	22477.25
514.209	21560.25
514.982	20743.25
515.754	19788.25
516.526	18972.25
517.298	18137.25
518.071	17347.25
518.843	16659.25
519.615	16054.25
520.387	15426.25
521.159	14818.25
521.93	14245.25
522.702	13657.25
523.474	13102.25
524.245	12534.25
525.017	11980.25
525.788	11528.25
526.56	11016.25
527.331	10496.25
528.102	10039.25
528.873	9560.25
529.644	9084.25
530.415	8715.25
531.186	8259.25
531.957	7839.25
532.728	7453.25
533.498	7048.25
534.269	6642.25
535.039	6258.25
535.81	5945.25
536.58	5641.25
537.351	5258.25
538.121	5001.25
538.891	4743.25
539.661	4462.25
540.431	4223.25
541.201	3985.25
541.971	3773.25
542.741	3576.25
543.51	3408.25
544.28	3234.25
545.05	3097.25
545.819	2917.25
546.588	2777.25
547.358	2653.25
548.127	2519.25
548.896	2396.25
549.665	2274.25
550.434	2143.25
551.203	2032.25
551.972	1926.25
552.741	1817.25
553.51	1720.25
554.278	1630.25
555.047	1528.25
555.815	1460.25
556.584	1373.25
557.352	1299.25
558.121	1216.25
558.889	1155.25
559.657	1090.25
560.425	1015.25
561.193	961.25
561.961	917.25
562.729	867.25
563.496	828.25
564.264	775.25
565.032	721.25
565.799	700.25
566.567	661.25
567.334	611.25
568.101	582.25
568.869	546.25
569.636	526.25
570.403	483.25
571.17	451.25
571.937	422.25
572.704	412.25
573.471	379.25
574.237	365.25
575.004	336.25
575.771	318.25
576.537	307.25
577.303	289.25
578.07	274.25
578.836	254.25
579.602	233.25
580.368	227.25
581.134	208.25
581.9	202.25
582.666	195.25
583.432	181.25
584.198	173.25
584.964	167.25
585.729	155.25
586.495	149.25
587.26	137.25
588.025	133.25
588.791	127.25
589.556	122.25
590.321	113.25
591.086	108.25
591.851	102.25
592.616	99.25
593.381	94.25
594.146	87.25
594.911	87.25
595.675	80.25
596.44	79.25
597.204	70.25
597.969	71.25
598.733	64.25
599.497	62.25
600.261	58.25
601.025	56.25
601.79	55.25
602.553	49.25
603.317	48.25
604.081	47.25
604.845	45.25
605.609	44.25
606.372	42.25
607.136	42.25
607.899	37.25
608.662	34.25
609.426	34.25
610.189	35.25
610.952	34.25
611.715	30.25
612.478	30.25
613.241	29.25
614.004	26.25
614.767	27.25
615.529	26.25
616.292	26.25
617.055	24.25
617.817	23.25
618.579	21.25
619.342	21.25
620.104	22.25
620.866	21.25
621.628	19.25
622.39	18.25
623.152	17.25
623.914	17.25
624.676	16.25
625.438	16.25
626.199	13.25
626.961	15.25
627.722	13.25
628.484	15.25
629.245	14.25
630.006	11.25
630.768	14.25
631.529	13.25
632.29	12.25
633.051	10.25
633.812	12.25
634.573	12.25
635.333	13.25
636.094	11.25
636.855	13.25
637.615	10.25
638.376	13.25
639.136	9.25
639.896	8.25
640.657	7.25
641.417	8.25
642.177	8.25
642.937	7.25
643.697	8.25
644.457	7.25
645.216	9.25
645.976	8.25
646.736	8.25
647.495	5.25
648.255	7.25
649.014	8.25
649.774	6.25
650.533	10.25
651.292	4.25
652.051	6.25
652.81	6.25
653.569	4.25
654.328	5.25
655.087	4.25
655.846	6.25
656.604	8.25
657.363	5.25
658.121	5.25
658.88	7.25
659.638	6.25
660.397	6.25
661.155	5.25
661.913	5.25
662.671	4.25
663.429	4.25
664.187	5.25
664.945	5.25
665.703	7.25
666.46	2.25
667.218	3.25
667.976	3.25
668.733	4.25
669.49	2.25
670.248	3.25
671.005	5.25
671.762	4.25
672.519	3.25
673.276	4.25
674.033	3.25
674.79	4.25
675.547	5.25
676.304	3.25
677.06	2.25
677.817	4.25
678.574	4.25
679.33	3.25
680.086	3.25
680.843	4.25
681.599	5.25
682.355	1.25
683.111	3.25
683.867	4.25
684.623	4.25
685.379	2.25
686.135	1.25
686.89	4.25
687.646	1.25
688.402	4.25
689.157	3.25
689.912	3.25
690.668	3.25
691.423	3.25
692.178	3.25
692.933	2.25
693.688	2.25
694.443	4.25
695.198	3.25
695.953	3.25
696.708	4.25
697.462	5.25
698.217	1.25
698.972	4.25
699.726	3.25
700.48	3.25
701.235	4.25
701.989	2.25
702.743	4.25
703.497	3.25
704.251	1.25
705.005	2.25
705.759	2.25
706.513	1.25
707.266	1.25
708.02	5.25
708.774	3.25
709.527	2.25
710.28	1.25
711.034	0.25
711.787	2.25
712.54	3.25
713.293	2.25
714.046	4.25
714.799	0.25
715.552	2.25
716.305	1.25
717.058	3.25
717.81	3.25
718.563	2.25
719.315	2.25
720.068	0.25
720.82	2.25
721.573	3.25
722.325	2.25
723.077	1.25
723.829	2.25
724.581	3.25
725.333	3.25
726.085	4.25
726.836	4.25
727.588	3.25
728.34	4.25
729.091	3.25
729.843	4.25
730.594	5.25
731.346	2.25
732.097	2.25
732.848	1.25
733.599	2.25
734.35	4.25
735.101	1.25
735.852	3.25
736.603	2.25
737.354	5.25
738.104	3.25
738.855	4.25
739.605	5.25
740.356	5.25
741.106	5.25
741.856	4.25
742.607	4.25
743.357	3.25
744.107	5.25
744.857	3.25
745.607	5.25
746.357	3.25
747.106	4.25
747.856	4.25
748.606	2.25
749.355	5.25
750.105	5.25
750.854	5.25
751.603	4.25
752.353	4.25
753.102	5.25
753.851	3.25
754.6	3.25
755.349	6.25
756.098	4.25
756.847	5.25
757.595	5.25
758.344	4.25
759.093	5.25
759.841	5.25
760.589	6.25
761.338	6.25
762.086	4.25
762.834	4.25
763.582	5.25
764.331	6.25
765.079	7.25
765.826	7.25
766.574	4.25
767.322	10.25
768.07	8.25
768.817	6.25
769.565	9.25
770.312	9.25
771.06	7.25
771.807	7.25
772.554	7.25
773.302	5.25
774.049	11.25
774.796	4.25
775.543	5.25
776.29	9.25
777.036	6.25
777.783	7.25
778.53	9.25
779.276	7.25
780.023	6.25
780.769	8.25
781.516	10.25
782.262	6.25
783.008	7.25
783.754	7.25
784.5	8.25
785.246	10.25
785.992	8.25
786.738	9.25
787.484	7.25
788.23	9.25
788.975	5.25
789.721	9.25
790.466	7.25
791.212	7.25
791.957	9.25
792.702	6.25
793.447	5.25
794.193	8.25
794.938	9.25
795.683	7.25
796.427	6.25
797.172	6.25
797.917	7.25
798.662	7.25
799.406	9.25
800.151	8.25
800.895	7.25
801.64	5.25
802.384	8.25
803.128	5.25
803.872	5.25
804.616	9.25
805.36	6.25
806.104	7.25
806.848	4.25
807.592	8.25
808.336	5.25
809.079	6.25
809.823	6.25
810.566	8.25
811.31	5.25
812.053	5.25
812.796	6.25
813.539	4.25
814.283	4.25
815.026	2.25
815.769	5.25
816.511	1.25
817.254	3.25
817.997	5.25
818.74	1.25
819.482	3.25
820.225	5.25
820.967	3.25
821.71	6.25
822.452	4.25
823.194	3.25
823.936	5.25
824.678	2.25
825.42	3.25
826.162	4.25
826.904	3.25
827.646	4.25
828.388	4.25
829.129	3.25
829.871	2.25
830.612	3.25
831.354	4.25
832.095	4.25
832.836	4.25
833.577	4.25
834.319	3.25
835.06	2.25
835.801	4.25
836.542	3.25
837.282	5.25
838.023	3.25
838.764	2.25
839.504	1.25
840.245	2.25
840.985	4.25
841.726	2.25
842.466	5.25
843.206	1.25
843.946	3.25
844.687	2.25
845.427	3.25
846.166	2.25
846.906	1.25
847.646	-0.75
848.386	3.25
849.125	2.25
849.865	1.25
850.605	3.25
851.344	4.25
852.083	1.25
852.823	-0.75
853.562	2.25
854.301	3.25
855.04	1.25
855.779	3.25
856.518	1.25
857.257	0.25
857.995	3.25
858.734	3.25
859.473	4.25
860.211	1.25
860.95	2.25
861.688	1.25
862.426	1.25
863.165	1.25
863.903	1.25
864.641	-0.75
865.379	0.25
866.117	1.25
866.855	1.25
867.593	-0.75
868.33	1.25
869.068	1.25
869.806	2.25
870.543	0.25
871.28	1.25
872.018	2.25
872.755	-2.75
873.492	1.25
874.229	1.25
874.967	1.25
875.703	-0.75
876.44	3.25
877.177	1.25
877.914	0.25
878.651	1.25
879.387	-0.75
880.124	2.25
880.86	-0.75
881.597	-0.75
882.333	-0.75
883.069	1.25
883.806	-0.75
884.542	-0.75
885.278	-0.75
886.014	1.25
886.749	1.25
887.485	3.25
888.221	-0.75
888.957	-1.75
889.692	-1.75
890.428	1.25
891.163	1.25
891.899	1.25
892.634	-0.75
893.369	-0.75
894.104	1.25
894.839	0.25
895.574	0.25
896.309	1.25
897.044	2.25
897.779	1.25
898.514	0.25
899.248	0.25
899.983	0.25
900.717	0.25
901.452	-1.75
902.186	-2.75
902.92	0.25
903.654	0.25
904.389	0.25
905.123	1.25
905.857	-2.75
906.59	1.25
907.324	-0.75
908.058	0.25
908.792	1.25
909.525	1.25
910.259	1.25
910.992	0.25
911.726	-0.75
912.459	-0.75
913.192	-0.75
913.925	-0.75
914.658	-1.75
915.391	0.25
916.124	-2.75
916.857	-0.75
917.59	-0.75
918.323	-0.75
919.055	-0.75
919.788	0.25
920.521	0.25
921.253	-2.75
921.985	-0.75
922.718	-0.75
923.45	2.25
924.182	0.25
924.914	-0.75
925.646	-0.75
926.378	-0.75
927.11	-0.75
927.841	-2.75
928.573	1.25
929.305	1.25
930.036	0.25
930.768	0.25
931.499	0.25
932.23	1.25
932.962	-0.75
933.693	-0.75
934.424	0.25
935.155	1.25
935.886	0.25
936.617	-1.75
937.348	-0.75
938.078	-0.75
938.809	0.25
939.54	0.25
940.27	0.25
941.001	0.25
941.731	1.25
942.461	0.25
943.191	0.25
943.922	1.25
944.652	-1.75
945.382	0.25
946.112	0.25
946.841	-1.75
947.571	0.25
948.301	-0.75
949.031	-2.75
949.76	1.25
950.49	-2.75
951.219	3.25
951.948	1.25
952.678	-0.75
953.407	0.25
954.136	1.25
954.865	0.25
955.594	-0.75
956.323	0.25
957.052	1.25
957.78	-0.75
958.509	1.25
959.238	-1.75
959.966	-0.75
960.695	-0.75
961.423	-1.75
962.151	0.25
962.88	0.25
963.608	0.25
964.336	-0.75
965.064	1.25
965.792	0.25
966.52	-0.75
967.247	-0.75
967.975	0.25
968.703	0.25
969.43	0.25
970.158	0.25
970.885	-0.75
971.613	-0.75
972.34	-0.75
973.067	0.25
973.794	-0.75
974.521	-0.75
975.248	0.25
975.975	-0.75
976.702	1.25
977.429	-0.75
978.156	0.25
978.882	2.25
979.609	1.25
980.335	-0.75
981.062	-0.75
981.788	0.25
982.514	-0.75
983.24	-0.75
983.967	-0.75
984.693	-0.75
985.419	-0.75
986.144	1.25
986.87	-0.75
987.596	1.25
988.322	-0.75
989.047	1.25
989.773	-0.75
990.498	0.25
991.224	1.25
991.949	0.25
992.674	0.25
993.399	1.25
994.124	-1.75
994.849	1.25
995.574	-1.75
996.299	1.25
997.024	-2.75
997.749	-0.75
998.473	1.25
999.198	-0.75
999.922	0.25
1000.647	0.25
1001.371	5.25
1002.095	-1.75
1002.82	-0.75
1003.544	-1.75
1004.268	2.25
1004.992	-0.75
1005.716	-1.75
1006.439	1.25
1007.163	-1.75
1007.887	2.25
1008.611	2.25
1009.334	-0.75
1010.058	0.25
1010.781	1.25
1011.504	-0.75
1012.228	-0.75
1012.951	-0.75
1013.674	0.25
1014.397	1.25
1015.12	-1.75
