节点500_285_QEPB04081__197__14-58-50-091.txt的数据

Date: Wed Nov 12 14:58:50 CST 2025
User: PC
Spectrometer: QEPB0408
触发模式: 0
积分时间 (秒): 1.000000E-2
Scans to average: 1
启用暗噪声校正: true
启用非线性校正: false
滑动平均宽度: 0
X轴模式: Wavelengths
Number of Pixels in Spectrum: 1044
>>>>>Begin Spectral Data<<<<<
220.843	0.5
221.644	2.5
222.444	1.5
223.244	2.5
224.045	1.5
224.845	1.5
225.645	1.5
226.445	3.5
227.245	3.5
228.045	2.5
228.845	3.5
229.645	2.5
230.444	3.5
231.244	1.5
232.043	5.5
232.843	4.5
233.642	3.5
234.442	6.5
235.241	4.5
236.04	6.5
236.839	1.5
237.638	2.5
238.437	5.5
239.236	4.5
240.035	6.5
240.833	5.5
241.632	5.5
242.43	6.5
243.229	6.5
244.027	6.5
244.826	4.5
245.624	3.5
246.422	3.5
247.22	5.5
248.018	7.5
248.816	4.5
249.614	5.5
250.412	4.5
251.21	7.5
252.007	6.5
252.805	7.5
253.602	10.5
254.4	7.5
255.197	6.5
255.994	7.5
256.791	7.5
257.589	8.5
258.386	10.5
259.183	10.5
259.979	9.5
260.776	12.5
261.573	9.5
262.37	8.5
263.166	12.5
263.963	13.5
264.759	13.5
265.556	10.5
266.352	14.5
267.148	12.5
267.944	12.5
268.74	15.5
269.536	15.5
270.332	17.5
271.128	14.5
271.924	16.5
272.719	17.5
273.515	17.5
274.311	18.5
275.106	18.5
275.901	17.5
276.697	16.5
277.492	18.5
278.287	18.5
279.082	17.5
279.877	22.5
280.672	16.5
281.467	18.5
282.262	21.5
283.056	20.5
283.851	16.5
284.646	17.5
285.44	16.5
286.234	19.5
287.029	19.5
287.823	22.5
288.617	18.5
289.411	18.5
290.205	15.5
290.999	17.5
291.793	15.5
292.587	17.5
293.381	17.5
294.174	18.5
294.968	17.5
295.761	16.5
296.555	14.5
297.348	13.5
298.141	15.5
298.935	18.5
299.728	15.5
300.521	15.5
301.314	13.5
302.107	15.5
302.899	16.5
303.692	13.5
304.485	12.5
305.277	11.5
306.07	12.5
306.862	10.5
307.655	13.5
308.447	11.5
309.239	7.5
310.031	12.5
310.823	9.5
311.615	10.5
312.407	9.5
313.199	9.5
313.991	12.5
314.783	10.5
315.574	8.5
316.366	6.5
317.157	9.5
317.949	8.5
318.74	7.5
319.531	8.5
320.322	7.5
321.113	9.5
321.904	8.5
322.695	8.5
323.486	7.5
324.277	5.5
325.068	7.5
325.858	6.5
326.649	6.5
327.439	6.5
328.23	5.5
329.02	7.5
329.81	6.5
330.6	7.5
331.391	6.5
332.181	7.5
332.971	7.5
333.76	5.5
334.55	7.5
335.34	4.5
336.13	8.5
336.919	5.5
337.709	6.5
338.498	4.5
339.287	5.5
340.077	6.5
340.866	6.5
341.655	6.5
342.444	7.5
343.233	6.5
344.022	6.5
344.811	6.5
345.6	10.5
346.388	6.5
347.177	4.5
347.965	5.5
348.754	5.5
349.542	6.5
350.33	7.5
351.119	7.5
351.907	5.5
352.695	6.5
353.483	5.5
354.271	5.5
355.059	6.5
355.846	5.5
356.634	3.5
357.422	5.5
358.209	5.5
358.997	7.5
359.784	6.5
360.571	6.5
361.359	7.5
362.146	6.5
362.933	6.5
363.72	7.5
364.507	8.5
365.294	4.5
366.081	5.5
366.867	6.5
367.654	3.5
368.44	4.5
369.227	5.5
370.013	7.5
370.8	5.5
371.586	5.5
372.372	4.5
373.158	2.5
373.944	6.5
374.73	5.5
375.516	6.5
376.302	7.5
377.088	6.5
377.873	5.5
378.659	4.5
379.445	7.5
380.23	7.5
381.015	5.5
381.801	5.5
382.586	4.5
383.371	4.5
384.156	6.5
384.941	4.5
385.726	6.5
386.511	4.5
387.296	6.5
388.08	3.5
388.865	7.5
389.649	8.5
390.434	6.5
391.218	7.5
392.003	6.5
392.787	7.5
393.571	3.5
394.355	7.5
395.139	9.5
395.923	7.5
396.707	7.5
397.491	6.5
398.274	5.5
399.058	7.5
399.842	9.5
400.625	5.5
401.408	6.5
402.192	7.5
402.975	8.5
403.758	6.5
404.541	6.5
405.324	8.5
406.107	8.5
406.89	6.5
407.673	9.5
408.456	7.5
409.238	9.5
410.021	11.5
410.803	8.5
411.586	10.5
412.368	7.5
413.151	7.5
413.933	8.5
414.715	10.5
415.497	10.5
416.279	6.5
417.061	9.5
417.843	10.5
418.624	10.5
419.406	11.5
420.188	9.5
420.969	11.5
421.751	11.5
422.532	11.5
423.313	10.5
424.095	10.5
424.876	10.5
425.657	12.5
426.438	13.5
427.219	13.5
428	15.5
428.78	13.5
429.561	14.5
430.342	12.5
431.122	15.5
431.903	13.5
432.683	13.5
433.464	15.5
434.244	17.5
435.024	17.5
435.804	18.5
436.584	19.5
437.364	20.5
438.144	20.5
438.924	21.5
439.704	23.5
440.483	23.5
441.263	22.5
442.042	24.5
442.822	25.5
443.601	27.5
444.38	28.5
445.16	33.5
445.939	34.5
446.718	35.5
447.497	36.5
448.276	41.5
449.054	47.5
449.833	52.5
450.612	51.5
451.391	54.5
452.169	61.5
452.948	64.5
453.726	72.5
454.504	79.5
455.282	92.5
456.061	98.5
456.839	102.5
457.617	117.5
458.395	126.5
459.172	149.5
459.95	163.5
460.728	174.5
461.506	202.5
462.283	229.5
463.061	245.5
463.838	283.5
464.615	314.5
465.393	344.5
466.17	382.5
466.947	424.5
467.724	482.5
468.501	532.5
469.278	601.5
470.055	671.5
470.831	741.5
471.608	830.5
472.385	921.5
473.161	1027.5
473.938	1151.5
474.714	1283.5
475.49	1405.5
476.266	1577.5
477.043	1732.5
477.819	1912.5
478.595	2101.5
479.371	2351.5
480.146	2594.5
480.922	2868.5
481.698	3156.5
482.473	3491.5
483.249	3852.5
484.024	4262.5
484.8	4686.5
485.575	5171.5
486.35	5688.5
487.126	6254.5
487.901	6891.5
488.676	7553.5
489.451	8285.5
490.225	9112.5
491	9932.5
491.775	10897.5
492.55	11860.5
493.324	12890.5
494.099	13910.5
494.873	15031.5
495.647	16183.5
496.422	17370.5
497.196	18578.5
497.97	19919.5
498.744	21098.5
499.518	22294.5
500.292	23443.5
501.066	24593.5
501.839	25531.5
502.613	26415.5
503.387	27239.5
504.16	27704.5
504.934	28043.5
505.707	28080.5
506.48	28007.5
507.253	27873.5
508.027	27533.5
508.8	27201.5
509.573	26673.5
510.346	25957.5
511.118	25179.5
511.891	24281.5
512.664	23485.5
513.437	22433.5
514.209	21489.5
514.982	20596.5
515.754	19603.5
516.526	18733.5
517.298	17920.5
518.071	17117.5
518.843	16482.5
519.615	15829.5
520.387	15264.5
521.159	14621.5
521.93	13996.5
522.702	13444.5
523.474	12887.5
524.245	12341.5
525.017	11855.5
525.788	11333.5
526.56	10803.5
527.331	10338.5
528.102	9836.5
528.873	9385.5
529.644	8915.5
530.415	8449.5
531.186	8046.5
531.957	7606.5
532.728	7223.5
533.498	6844.5
534.269	6432.5
535.039	6100.5
535.81	5735.5
536.58	5397.5
537.351	5089.5
538.121	4819.5
538.891	4534.5
539.661	4342.5
540.431	4088.5
541.201	3852.5
541.971	3649.5
542.741	3448.5
543.51	3292.5
544.28	3130.5
545.05	2984.5
545.819	2836.5
546.588	2688.5
547.358	2542.5
548.127	2427.5
548.896	2307.5
549.665	2181.5
550.434	2052.5
551.203	1977.5
551.972	1848.5
552.741	1752.5
553.51	1647.5
554.278	1539.5
555.047	1480.5
555.815	1392.5
556.584	1313.5
557.352	1262.5
558.121	1159.5
558.889	1103.5
559.657	1041.5
560.425	983.5
561.193	927.5
561.961	873.5
562.729	834.5
563.496	781.5
564.264	734.5
565.032	697.5
565.799	669.5
566.567	622.5
567.334	589.5
568.101	556.5
568.869	524.5
569.636	489.5
570.403	458.5
571.17	436.5
571.937	416.5
572.704	388.5
573.471	370.5
574.237	345.5
575.004	325.5
575.771	311.5
576.537	293.5
577.303	280.5
578.07	256.5
578.836	244.5
579.602	230.5
580.368	213.5
581.134	209.5
581.9	194.5
582.666	182.5
583.432	174.5
584.198	163.5
584.964	154.5
585.729	149.5
586.495	141.5
587.26	133.5
588.025	130.5
588.791	121.5
589.556	108.5
590.321	109.5
591.086	101.5
591.851	99.5
592.616	93.5
593.381	87.5
594.146	85.5
594.911	78.5
595.675	76.5
596.44	71.5
597.204	67.5
597.969	65.5
598.733	61.5
599.497	57.5
600.261	58.5
601.025	55.5
601.79	52.5
602.553	51.5
603.317	48.5
604.081	48.5
604.845	43.5
605.609	42.5
606.372	39.5
607.136	40.5
607.899	37.5
608.662	37.5
609.426	38.5
610.189	33.5
610.952	32.5
611.715	31.5
612.478	31.5
613.241	31.5
614.004	25.5
614.767	24.5
615.529	25.5
616.292	27.5
617.055	24.5
617.817	23.5
618.579	22.5
619.342	21.5
620.104	18.5
620.866	21.5
621.628	15.5
622.39	20.5
623.152	17.5
623.914	17.5
624.676	17.5
625.438	16.5
626.199	17.5
626.961	16.5
627.722	17.5
628.484	15.5
629.245	14.5
630.006	14.5
630.768	12.5
631.529	12.5
632.29	12.5
633.051	13.5
633.812	12.5
634.573	11.5
635.333	9.5
636.094	9.5
636.855	10.5
637.615	10.5
638.376	8.5
639.136	11.5
639.896	8.5
640.657	12.5
641.417	11.5
642.177	9.5
642.937	9.5
643.697	9.5
644.457	8.5
645.216	6.5
645.976	7.5
646.736	8.5
647.495	7.5
648.255	8.5
649.014	8.5
649.774	6.5
650.533	7.5
651.292	7.5
652.051	5.5
652.81	7.5
653.569	8.5
654.328	7.5
655.087	4.5
655.846	5.5
656.604	5.5
657.363	8.5
658.121	5.5
658.88	5.5
659.638	3.5
660.397	3.5
661.155	6.5
661.913	7.5
662.671	6.5
663.429	4.5
664.187	4.5
664.945	6.5
665.703	6.5
666.46	3.5
667.218	5.5
667.976	4.5
668.733	6.5
669.49	5.5
670.248	6.5
671.005	4.5
671.762	4.5
672.519	5.5
673.276	2.5
674.033	4.5
674.79	6.5
675.547	3.5
676.304	3.5
677.06	7.5
677.817	2.5
678.574	6.5
679.33	4.5
680.086	3.5
680.843	3.5
681.599	5.5
682.355	2.5
683.111	4.5
683.867	4.5
684.623	4.5
685.379	3.5
686.135	5.5
686.89	4.5
687.646	3.5
688.402	6.5
689.157	6.5
689.912	1.5
690.668	3.5
691.423	2.5
692.178	2.5
692.933	5.5
693.688	4.5
694.443	3.5
695.198	5.5
695.953	2.5
696.708	5.5
697.462	2.5
698.217	4.5
698.972	3.5
699.726	2.5
700.48	4.5
701.235	4.5
701.989	4.5
702.743	3.5
703.497	2.5
704.251	2.5
705.005	3.5
705.759	7.5
706.513	5.5
707.266	4.5
708.02	4.5
708.774	3.5
709.527	3.5
710.28	2.5
711.034	2.5
711.787	3.5
712.54	4.5
713.293	3.5
714.046	2.5
714.799	5.5
715.552	2.5
716.305	5.5
717.058	3.5
717.81	4.5
718.563	5.5
719.315	1.5
720.068	3.5
720.82	3.5
721.573	4.5
722.325	7.5
723.077	2.5
723.829	4.5
724.581	4.5
725.333	6.5
726.085	0.5
726.836	3.5
727.588	5.5
728.34	2.5
729.091	4.5
729.843	1.5
730.594	5.5
731.346	4.5
732.097	4.5
732.848	6.5
733.599	2.5
734.35	4.5
735.101	5.5
735.852	4.5
736.603	3.5
737.354	3.5
738.104	5.5
738.855	4.5
739.605	2.5
740.356	4.5
741.106	3.5
741.856	5.5
742.607	6.5
743.357	3.5
744.107	6.5
744.857	4.5
745.607	4.5
746.357	3.5
747.106	7.5
747.856	4.5
748.606	4.5
749.355	5.5
750.105	4.5
750.854	8.5
751.603	7.5
752.353	5.5
753.102	6.5
753.851	5.5
754.6	4.5
755.349	4.5
756.098	7.5
756.847	7.5
757.595	7.5
758.344	7.5
759.093	6.5
759.841	7.5
760.589	5.5
761.338	5.5
762.086	5.5
762.834	4.5
763.582	7.5
764.331	6.5
765.079	6.5
765.826	6.5
766.574	6.5
767.322	8.5
768.07	7.5
768.817	5.5
769.565	7.5
770.312	7.5
771.06	7.5
771.807	8.5
772.554	7.5
773.302	8.5
774.049	7.5
774.796	7.5
775.543	10.5
776.29	7.5
777.036	8.5
777.783	10.5
778.53	9.5
779.276	8.5
780.023	9.5
780.769	8.5
781.516	10.5
782.262	11.5
783.008	10.5
783.754	8.5
784.5	10.5
785.246	7.5
785.992	8.5
786.738	8.5
787.484	10.5
788.23	12.5
788.975	9.5
789.721	7.5
790.466	9.5
791.212	8.5
791.957	8.5
792.702	7.5
793.447	6.5
794.193	8.5
794.938	7.5
795.683	8.5
796.427	6.5
797.172	9.5
797.917	8.5
798.662	9.5
799.406	9.5
800.151	9.5
800.895	6.5
801.64	7.5
802.384	7.5
803.128	6.5
803.872	4.5
804.616	6.5
805.36	5.5
806.104	6.5
806.848	5.5
807.592	6.5
808.336	6.5
809.079	8.5
809.823	6.5
810.566	5.5
811.31	7.5
812.053	5.5
812.796	6.5
813.539	8.5
814.283	6.5
815.026	6.5
815.769	2.5
816.511	6.5
817.254	2.5
817.997	4.5
818.74	2.5
819.482	3.5
820.225	8.5
820.967	3.5
821.71	6.5
822.452	5.5
823.194	2.5
823.936	3.5
824.678	4.5
825.42	4.5
826.162	3.5
826.904	5.5
827.646	4.5
828.388	3.5
829.129	2.5
829.871	4.5
830.612	2.5
831.354	4.5
832.095	4.5
832.836	6.5
833.577	2.5
834.319	4.5
835.06	4.5
835.801	3.5
836.542	3.5
837.282	3.5
838.023	5.5
838.764	4.5
839.504	3.5
840.245	3.5
840.985	2.5
841.726	3.5
842.466	1.5
843.206	3.5
843.946	3.5
844.687	3.5
845.427	-0.5
846.166	2.5
846.906	1.5
847.646	3.5
848.386	3.5
849.125	3.5
849.865	3.5
850.605	3.5
851.344	5.5
852.083	4.5
852.823	4.5
853.562	5.5
854.301	3.5
855.04	4.5
855.779	1.5
856.518	2.5
857.257	3.5
857.995	2.5
858.734	2.5
859.473	2.5
860.211	0.5
860.95	2.5
861.688	4.5
862.426	4.5
863.165	2.5
863.903	2.5
864.641	3.5
865.379	-0.5
866.117	1.5
866.855	1.5
867.593	1.5
868.33	1.5
869.068	3.5
869.806	2.5
870.543	0.5
871.28	1.5
872.018	3.5
872.755	2.5
873.492	2.5
874.229	0.5
874.967	0.5
875.703	0.5
876.44	2.5
877.177	1.5
877.914	1.5
878.651	0.5
879.387	-0.5
880.124	-0.5
880.86	-1.5
881.597	2.5
882.333	1.5
883.069	1.5
883.806	0.5
884.542	-0.5
885.278	1.5
886.014	0.5
886.749	0.5
887.485	3.5
888.221	0.5
888.957	1.5
889.692	-0.5
890.428	1.5
891.163	-0.5
891.899	0.5
892.634	-0.5
893.369	-0.5
894.104	1.5
894.839	-0.5
895.574	0.5
896.309	-1.5
897.044	0.5
897.779	-0.5
898.514	1.5
899.248	1.5
899.983	0.5
900.717	0.5
901.452	0.5
902.186	0.5
902.92	1.5
903.654	2.5
904.389	2.5
905.123	-0.5
905.857	0.5
906.59	3.5
907.324	1.5
908.058	2.5
908.792	1.5
909.525	0.5
910.259	0.5
910.992	-2.5
911.726	-0.5
912.459	0.5
913.192	-1.5
913.925	1.5
914.658	-2.5
915.391	3.5
916.124	-1.5
916.857	1.5
917.59	1.5
918.323	1.5
919.055	0.5
919.788	1.5
920.521	0.5
921.253	2.5
921.985	3.5
922.718	0.5
923.45	1.5
924.182	1.5
924.914	2.5
925.646	-1.5
926.378	0.5
927.11	1.5
927.841	-0.5
928.573	0.5
929.305	-1.5
930.036	1.5
930.768	-0.5
931.499	-0.5
932.23	0.5
932.962	-0.5
933.693	0.5
934.424	0.5
935.155	-1.5
935.886	0.5
936.617	-1.5
937.348	-1.5
938.078	1.5
938.809	1.5
939.54	1.5
940.27	0.5
941.001	0.5
941.731	0.5
942.461	-0.5
943.191	4.5
943.922	-1.5
944.652	0.5
945.382	0.5
946.112	-1.5
946.841	0.5
947.571	-1.5
948.301	-2.5
949.031	1.5
949.76	-0.5
950.49	2.5
951.219	-1.5
951.948	1.5
952.678	-1.5
953.407	2.5
954.136	0.5
954.865	0.5
955.594	0.5
956.323	0.5
957.052	0.5
957.78	2.5
958.509	-2.5
959.238	-0.5
959.966	-0.5
960.695	2.5
961.423	-0.5
962.151	0.5
962.88	2.5
963.608	-0.5
964.336	0.5
965.064	-0.5
965.792	-0.5
966.52	1.5
967.247	-0.5
967.975	1.5
968.703	0.5
969.43	0.5
970.158	1.5
970.885	2.5
971.613	1.5
972.34	1.5
973.067	0.5
973.794	0.5
974.521	0.5
975.248	-0.5
975.975	1.5
976.702	0.5
977.429	-0.5
978.156	2.5
978.882	-0.5
979.609	0.5
980.335	1.5
981.062	-0.5
981.788	-0.5
982.514	-1.5
983.24	-0.5
983.967	0.5
984.693	2.5
985.419	0.5
986.144	-0.5
986.87	2.5
987.596	0.5
988.322	1.5
989.047	-1.5
989.773	1.5
990.498	0.5
991.224	2.5
991.949	0.5
992.674	0.5
993.399	0.5
994.124	0.5
994.849	-0.5
995.574	-0.5
996.299	0.5
997.024	1.5
997.749	0.5
998.473	0.5
999.198	0.5
999.922	-0.5
1000.647	2.5
1001.371	5.5
1002.095	-1.5
1002.82	-1.5
1003.544	-1.5
1004.268	1.5
1004.992	2.5
1005.716	0.5
1006.439	-0.5
1007.163	1.5
1007.887	1.5
1008.611	0.5
1009.334	0.5
1010.058	1.5
1010.781	1.5
1011.504	-0.5
1012.228	0.5
1012.951	1.5
1013.674	-1.5
1014.397	-1.5
1015.12	0.5
