节点500_285_QEPB04081__490__15-03-42-428.txt的数据

Date: Wed Nov 12 15:03:42 CST 2025
User: PC
Spectrometer: QEPB0408
触发模式: 0
积分时间 (秒): 1.000000E-2
Scans to average: 1
启用暗噪声校正: true
启用非线性校正: false
滑动平均宽度: 0
X轴模式: Wavelengths
Number of Pixels in Spectrum: 1044
>>>>>Begin Spectral Data<<<<<
220.843	3.62
221.644	3.62
222.444	2.62
223.244	1.62
224.045	3.62
224.845	3.62
225.645	3.62
226.445	4.62
227.245	4.62
228.045	2.62
228.845	2.62
229.645	2.62
230.444	3.62
231.244	3.62
232.043	2.62
232.843	3.62
233.642	4.62
234.442	3.62
235.241	4.62
236.04	3.62
236.839	2.62
237.638	6.62
238.437	4.62
239.236	4.62
240.035	3.62
240.833	2.62
241.632	5.62
242.43	6.62
243.229	6.62
244.027	2.62
244.826	5.62
245.624	4.62
246.422	4.62
247.22	6.62
248.018	6.62
248.816	5.62
249.614	7.62
250.412	8.62
251.21	7.62
252.007	6.62
252.805	9.62
253.602	8.62
254.4	7.62
255.197	9.62
255.994	6.62
256.791	8.62
257.589	8.62
258.386	6.62
259.183	7.62
259.979	11.62
260.776	8.62
261.573	10.62
262.37	11.62
263.166	11.62
263.963	13.62
264.759	12.62
265.556	12.62
266.352	12.62
267.148	9.62
267.944	15.62
268.74	14.62
269.536	12.62
270.332	14.62
271.128	15.62
271.924	15.62
272.719	15.62
273.515	18.62
274.311	15.62
275.106	14.62
275.901	18.62
276.697	17.62
277.492	17.62
278.287	20.62
279.082	17.62
279.877	17.62
280.672	18.62
281.467	20.62
282.262	19.62
283.056	21.62
283.851	19.62
284.646	18.62
285.44	19.62
286.234	18.62
287.029	19.62
287.823	18.62
288.617	17.62
289.411	15.62
290.205	17.62
290.999	17.62
291.793	17.62
292.587	18.62
293.381	18.62
294.174	19.62
294.968	18.62
295.761	14.62
296.555	15.62
297.348	14.62
298.141	14.62
298.935	16.62
299.728	17.62
300.521	14.62
301.314	14.62
302.107	14.62
302.899	12.62
303.692	15.62
304.485	13.62
305.277	12.62
306.07	15.62
306.862	13.62
307.655	12.62
308.447	12.62
309.239	13.62
310.031	10.62
310.823	11.62
311.615	9.62
312.407	8.62
313.199	8.62
313.991	9.62
314.783	11.62
315.574	10.62
316.366	10.62
317.157	8.62
317.949	7.62
318.74	9.62
319.531	8.62
320.322	6.62
321.113	9.62
321.904	7.62
322.695	8.62
323.486	6.62
324.277	7.62
325.068	7.62
325.858	7.62
326.649	8.62
327.439	4.62
328.23	7.62
329.02	6.62
329.81	8.62
330.6	6.62
331.391	6.62
332.181	8.62
332.971	4.62
333.76	9.62
334.55	7.62
335.34	4.62
336.13	5.62
336.919	2.62
337.709	8.62
338.498	7.62
339.287	7.62
340.077	6.62
340.866	6.62
341.655	7.62
342.444	6.62
343.233	6.62
344.022	4.62
344.811	6.62
345.6	7.62
346.388	6.62
347.177	7.62
347.965	8.62
348.754	6.62
349.542	6.62
350.33	7.62
351.119	6.62
351.907	7.62
352.695	7.62
353.483	4.62
354.271	7.62
355.059	5.62
355.846	6.62
356.634	7.62
357.422	4.62
358.209	7.62
358.997	7.62
359.784	5.62
360.571	7.62
361.359	3.62
362.146	6.62
362.933	6.62
363.72	5.62
364.507	4.62
365.294	5.62
366.081	4.62
366.867	5.62
367.654	6.62
368.44	4.62
369.227	3.62
370.013	4.62
370.8	6.62
371.586	5.62
372.372	5.62
373.158	6.62
373.944	2.62
374.73	7.62
375.516	5.62
376.302	4.62
377.088	3.62
377.873	5.62
378.659	6.62
379.445	8.62
380.23	6.62
381.015	5.62
381.801	3.62
382.586	6.62
383.371	5.62
384.156	5.62
384.941	5.62
385.726	2.62
386.511	6.62
387.296	4.62
388.08	4.62
388.865	3.62
389.649	7.62
390.434	6.62
391.218	4.62
392.003	10.62
392.787	6.62
393.571	5.62
394.355	5.62
395.139	6.62
395.923	5.62
396.707	5.62
397.491	7.62
398.274	7.62
399.058	6.62
399.842	7.62
400.625	7.62
401.408	8.62
402.192	6.62
402.975	6.62
403.758	5.62
404.541	5.62
405.324	9.62
406.107	7.62
406.89	8.62
407.673	9.62
408.456	9.62
409.238	8.62
410.021	7.62
410.803	8.62
411.586	9.62
412.368	8.62
413.151	10.62
413.933	8.62
414.715	8.62
415.497	10.62
416.279	10.62
417.061	7.62
417.843	10.62
418.624	9.62
419.406	10.62
420.188	10.62
420.969	9.62
421.751	9.62
422.532	12.62
423.313	13.62
424.095	12.62
424.876	11.62
425.657	12.62
426.438	10.62
427.219	11.62
428	12.62
428.78	13.62
429.561	12.62
430.342	14.62
431.122	13.62
431.903	12.62
432.683	16.62
433.464	14.62
434.244	17.62
435.024	17.62
435.804	16.62
436.584	19.62
437.364	22.62
438.144	18.62
438.924	18.62
439.704	22.62
440.483	23.62
441.263	21.62
442.042	27.62
442.822	24.62
443.601	30.62
444.38	29.62
445.16	31.62
445.939	38.62
446.718	35.62
447.497	42.62
448.276	44.62
449.054	49.62
449.833	48.62
450.612	55.62
451.391	61.62
452.169	63.62
452.948	72.62
453.726	77.62
454.504	83.62
455.282	91.62
456.061	102.62
456.839	117.62
457.617	123.62
458.395	141.62
459.172	157.62
459.95	176.62
460.728	192.62
461.506	209.62
462.283	240.62
463.061	262.62
463.838	296.62
464.615	333.62
465.393	365.62
466.17	418.62
466.947	459.62
467.724	517.62
468.501	572.62
469.278	640.62
470.055	708.62
470.831	786.62
471.608	876.62
472.385	969.62
473.161	1067.62
473.938	1188.62
474.714	1302.62
475.49	1432.62
476.266	1596.62
477.043	1766.62
477.819	1934.62
478.595	2133.62
479.371	2337.62
480.146	2593.62
480.922	2838.62
481.698	3134.62
482.473	3450.62
483.249	3761.62
484.024	4116.62
484.8	4546.62
485.575	4969.62
486.35	5475.62
487.126	5969.62
487.901	6554.62
488.676	7156.62
489.451	7804.62
490.225	8510.62
491	9290.62
491.775	10164.62
492.55	11071.62
493.324	11944.62
494.099	12874.62
494.873	13874.62
495.647	14947.62
496.422	16073.62
497.196	17114.62
497.97	18337.62
498.744	19486.62
499.518	20592.62
500.292	21681.62
501.066	22730.62
501.839	23702.62
502.613	24615.62
503.387	25471.62
504.16	26041.62
504.934	26441.62
505.707	26650.62
506.48	26877.62
507.253	26818.62
508.027	26621.62
508.8	26459.62
509.573	26050.62
510.346	25496.62
511.118	24844.62
511.891	24103.62
512.664	23351.62
513.437	22521.62
514.209	21627.62
514.982	20748.62
515.754	19856.62
516.526	18981.62
517.298	18146.62
518.071	17374.62
518.843	16697.62
519.615	16041.62
520.387	15488.62
521.159	14854.62
521.93	14276.62
522.702	13641.62
523.474	13160.62
524.245	12522.62
525.017	12048.62
525.788	11578.62
526.56	11003.62
527.331	10558.62
528.102	10111.62
528.873	9685.62
529.644	9165.62
530.415	8711.62
531.186	8292.62
531.957	7870.62
532.728	7494.62
533.498	7121.62
534.269	6674.62
535.039	6309.62
535.81	5974.62
536.58	5640.62
537.351	5332.62
538.121	5025.62
538.891	4762.62
539.661	4512.62
540.431	4267.62
541.201	3999.62
541.971	3825.62
542.741	3597.62
543.51	3446.62
544.28	3270.62
545.05	3127.62
545.819	2948.62
546.588	2820.62
547.358	2658.62
548.127	2518.62
548.896	2413.62
549.665	2287.62
550.434	2173.62
551.203	2050.62
551.972	1950.62
552.741	1836.62
553.51	1745.62
554.278	1646.62
555.047	1554.62
555.815	1461.62
556.584	1383.62
557.352	1304.62
558.121	1234.62
558.889	1164.62
559.657	1111.62
560.425	1048.62
561.193	968.62
561.961	926.62
562.729	875.62
563.496	830.62
564.264	769.62
565.032	734.62
565.799	694.62
566.567	662.62
567.334	618.62
568.101	593.62
568.869	548.62
569.636	531.62
570.403	487.62
571.17	466.62
571.937	442.62
572.704	410.62
573.471	381.62
574.237	368.62
575.004	350.62
575.771	327.62
576.537	310.62
577.303	294.62
578.07	277.62
578.836	256.62
579.602	239.62
580.368	233.62
581.134	218.62
581.9	211.62
582.666	195.62
583.432	183.62
584.198	177.62
584.964	168.62
585.729	161.62
586.495	154.62
587.26	138.62
588.025	135.62
588.791	123.62
589.556	119.62
590.321	115.62
591.086	109.62
591.851	103.62
592.616	92.62
593.381	92.62
594.146	91.62
594.911	87.62
595.675	80.62
596.44	79.62
597.204	73.62
597.969	69.62
598.733	69.62
599.497	60.62
600.261	64.62
601.025	58.62
601.79	54.62
602.553	55.62
603.317	52.62
604.081	48.62
604.845	45.62
605.609	46.62
606.372	41.62
607.136	40.62
607.899	39.62
608.662	35.62
609.426	37.62
610.189	37.62
610.952	34.62
611.715	33.62
612.478	33.62
613.241	30.62
614.004	29.62
614.767	29.62
615.529	27.62
616.292	28.62
617.055	26.62
617.817	21.62
618.579	21.62
619.342	22.62
620.104	21.62
620.866	21.62
621.628	16.62
622.39	18.62
623.152	16.62
623.914	19.62
624.676	17.62
625.438	20.62
626.199	15.62
626.961	16.62
627.722	17.62
628.484	14.62
629.245	15.62
630.006	14.62
630.768	14.62
631.529	12.62
632.29	13.62
633.051	10.62
633.812	12.62
634.573	14.62
635.333	9.62
636.094	11.62
636.855	12.62
637.615	11.62
638.376	11.62
639.136	7.62
639.896	8.62
640.657	10.62
641.417	9.62
642.177	8.62
642.937	8.62
643.697	9.62
644.457	10.62
645.216	7.62
645.976	11.62
646.736	5.62
647.495	6.62
648.255	6.62
649.014	8.62
649.774	7.62
650.533	9.62
651.292	6.62
652.051	6.62
652.81	7.62
653.569	7.62
654.328	8.62
655.087	6.62
655.846	5.62
656.604	7.62
657.363	6.62
658.121	7.62
658.88	6.62
659.638	4.62
660.397	7.62
661.155	4.62
661.913	4.62
662.671	6.62
663.429	7.62
664.187	7.62
664.945	7.62
665.703	7.62
666.46	6.62
667.218	7.62
667.976	7.62
668.733	5.62
669.49	6.62
670.248	5.62
671.005	2.62
671.762	4.62
672.519	4.62
673.276	4.62
674.033	4.62
674.79	5.62
675.547	3.62
676.304	6.62
677.06	5.62
677.817	4.62
678.574	5.62
679.33	5.62
680.086	4.62
680.843	4.62
681.599	5.62
682.355	2.62
683.111	5.62
683.867	4.62
684.623	6.62
685.379	3.62
686.135	5.62
686.89	4.62
687.646	3.62
688.402	4.62
689.157	4.62
689.912	4.62
690.668	4.62
691.423	5.62
692.178	6.62
692.933	2.62
693.688	7.62
694.443	6.62
695.198	5.62
695.953	3.62
696.708	2.62
697.462	5.62
698.217	5.62
698.972	5.62
699.726	3.62
700.48	3.62
701.235	1.62
701.989	4.62
702.743	1.62
703.497	4.62
704.251	3.62
705.005	3.62
705.759	5.62
706.513	2.62
707.266	2.62
708.02	4.62
708.774	7.62
709.527	4.62
710.28	6.62
711.034	3.62
711.787	4.62
712.54	6.62
713.293	3.62
714.046	4.62
714.799	2.62
715.552	2.62
716.305	3.62
717.058	7.62
717.81	4.62
718.563	4.62
719.315	5.62
720.068	3.62
720.82	2.62
721.573	5.62
722.325	4.62
723.077	4.62
723.829	3.62
724.581	4.62
725.333	2.62
726.085	5.62
726.836	2.62
727.588	7.62
728.34	5.62
729.091	2.62
729.843	4.62
730.594	2.62
731.346	4.62
732.097	3.62
732.848	3.62
733.599	5.62
734.35	5.62
735.101	6.62
735.852	2.62
736.603	7.62
737.354	3.62
738.104	5.62
738.855	4.62
739.605	5.62
740.356	4.62
741.106	4.62
741.856	5.62
742.607	5.62
743.357	2.62
744.107	4.62
744.857	6.62
745.607	6.62
746.357	5.62
747.106	5.62
747.856	4.62
748.606	5.62
749.355	5.62
750.105	2.62
750.854	5.62
751.603	5.62
752.353	8.62
753.102	6.62
753.851	5.62
754.6	7.62
755.349	4.62
756.098	5.62
756.847	8.62
757.595	3.62
758.344	3.62
759.093	6.62
759.841	4.62
760.589	4.62
761.338	6.62
762.086	8.62
762.834	5.62
763.582	6.62
764.331	5.62
765.079	7.62
765.826	9.62
766.574	5.62
767.322	8.62
768.07	7.62
768.817	8.62
769.565	9.62
770.312	6.62
771.06	5.62
771.807	7.62
772.554	8.62
773.302	6.62
774.049	9.62
774.796	8.62
775.543	7.62
776.29	9.62
777.036	6.62
777.783	12.62
778.53	6.62
779.276	9.62
780.023	8.62
780.769	9.62
781.516	9.62
782.262	9.62
783.008	7.62
783.754	8.62
784.5	9.62
785.246	9.62
785.992	8.62
786.738	9.62
787.484	11.62
788.23	8.62
788.975	9.62
789.721	9.62
790.466	10.62
791.212	7.62
791.957	7.62
792.702	8.62
793.447	9.62
794.193	7.62
794.938	6.62
795.683	9.62
796.427	6.62
797.172	6.62
797.917	7.62
798.662	8.62
799.406	9.62
800.151	9.62
800.895	9.62
801.64	7.62
802.384	9.62
803.128	6.62
803.872	9.62
804.616	8.62
805.36	8.62
806.104	5.62
806.848	6.62
807.592	9.62
808.336	6.62
809.079	6.62
809.823	8.62
810.566	5.62
811.31	7.62
812.053	5.62
812.796	6.62
813.539	6.62
814.283	2.62
815.026	5.62
815.769	3.62
816.511	7.62
817.254	6.62
817.997	5.62
818.74	3.62
819.482	4.62
820.225	6.62
820.967	3.62
821.71	5.62
822.452	7.62
823.194	3.62
823.936	7.62
824.678	3.62
825.42	5.62
826.162	4.62
826.904	5.62
827.646	4.62
828.388	4.62
829.129	2.62
829.871	5.62
830.612	7.62
831.354	3.62
832.095	3.62
832.836	2.62
833.577	5.62
834.319	3.62
835.06	4.62
835.801	4.62
836.542	4.62
837.282	3.62
838.023	3.62
838.764	1.62
839.504	4.62
840.245	5.62
840.985	3.62
841.726	2.62
842.466	2.62
843.206	3.62
843.946	5.62
844.687	4.62
845.427	4.62
846.166	3.62
846.906	1.62
847.646	3.62
848.386	5.62
849.125	4.62
849.865	5.62
850.605	4.62
851.344	1.62
852.083	3.62
852.823	1.62
853.562	2.62
854.301	3.62
855.04	3.62
855.779	3.62
856.518	0.62
857.257	3.62
857.995	-0.38
858.734	3.62
859.473	3.62
860.211	2.62
860.95	2.62
861.688	3.62
862.426	4.62
863.165	2.62
863.903	1.62
864.641	2.62
865.379	1.62
866.117	3.62
866.855	0.62
867.593	3.62
868.33	1.62
869.068	3.62
869.806	-0.38
870.543	1.62
871.28	2.62
872.018	0.62
872.755	1.62
873.492	1.62
874.229	1.62
874.967	1.62
875.703	1.62
876.44	1.62
877.177	-0.38
877.914	0.62
878.651	2.62
879.387	0.62
880.124	3.62
880.86	0.62
881.597	5.62
882.333	0.62
883.069	0.62
883.806	2.62
884.542	1.62
885.278	3.62
886.014	0.62
886.749	2.62
887.485	1.62
888.221	-1.38
888.957	2.62
889.692	2.62
890.428	0.62
891.163	2.62
891.899	2.62
892.634	1.62
893.369	0.62
894.104	2.62
894.839	1.62
895.574	1.62
896.309	1.62
897.044	3.62
897.779	0.62
898.514	1.62
899.248	1.62
899.983	0.62
900.717	2.62
901.452	0.62
902.186	1.62
902.92	0.62
903.654	-1.38
904.389	2.62
905.123	1.62
905.857	1.62
906.59	1.62
907.324	1.62
908.058	0.62
908.792	0.62
909.525	2.62
910.259	0.62
910.992	2.62
911.726	-0.38
912.459	0.62
913.192	1.62
913.925	1.62
914.658	2.62
915.391	-0.38
916.124	1.62
916.857	1.62
917.59	1.62
918.323	3.62
919.055	-0.38
919.788	4.62
920.521	2.62
921.253	1.62
921.985	2.62
922.718	-0.38
923.45	-0.38
924.182	0.62
924.914	0.62
925.646	0.62
926.378	0.62
927.11	3.62
927.841	-0.38
928.573	0.62
929.305	0.62
930.036	-0.38
930.768	2.62
931.499	0.62
932.23	0.62
932.962	0.62
933.693	0.62
934.424	0.62
935.155	1.62
935.886	2.62
936.617	-0.38
937.348	0.62
938.078	2.62
938.809	2.62
939.54	0.62
940.27	0.62
941.001	3.62
941.731	-1.38
942.461	0.62
943.191	0.62
943.922	1.62
944.652	1.62
945.382	1.62
946.112	1.62
946.841	-0.38
947.571	0.62
948.301	2.62
949.031	-0.38
949.76	1.62
950.49	1.62
951.219	2.62
951.948	0.62
952.678	0.62
953.407	0.62
954.136	-0.38
954.865	1.62
955.594	-0.38
956.323	0.62
957.052	0.62
957.78	1.62
958.509	3.62
959.238	1.62
959.966	0.62
960.695	0.62
961.423	2.62
962.151	2.62
962.88	2.62
963.608	0.62
964.336	-0.38
965.064	0.62
965.792	0.62
966.52	1.62
967.247	0.62
967.975	-0.38
968.703	1.62
969.43	0.62
970.158	1.62
970.885	0.62
971.613	0.62
972.34	-0.38
973.067	1.62
973.794	0.62
974.521	0.62
975.248	1.62
975.975	2.62
976.702	-1.38
977.429	2.62
978.156	-1.38
978.882	3.62
979.609	0.62
980.335	0.62
981.062	0.62
981.788	-0.38
982.514	2.62
983.24	0.62
983.967	0.62
984.693	0.62
985.419	-0.38
986.144	-0.38
986.87	-1.38
987.596	1.62
988.322	0.62
989.047	1.62
989.773	0.62
990.498	0.62
991.224	1.62
991.949	-1.38
992.674	0.62
993.399	1.62
994.124	-0.38
994.849	0.62
995.574	-0.38
996.299	-0.38
997.024	0.62
997.749	1.62
998.473	-0.38
999.198	1.62
999.922	1.62
1000.647	2.62
1001.371	-0.38
1002.095	-2.38
1002.82	-1.38
1003.544	1.62
1004.268	-1.38
1004.992	3.62
1005.716	3.62
1006.439	1.62
1007.163	1.62
1007.887	1.62
1008.611	1.62
1009.334	-0.38
1010.058	2.62
1010.781	0.62
1011.504	-1.38
1012.228	1.62
1012.951	1.62
1013.674	-1.38
1014.397	0.62
1015.12	1.62
