节点500_285_QEPB04081__825__15-09-16-729.txt的数据

Date: Wed Nov 12 15:09:16 CST 2025
User: PC
Spectrometer: QEPB0408
触发模式: 0
积分时间 (秒): 1.000000E-2
Scans to average: 1
启用暗噪声校正: true
启用非线性校正: false
滑动平均宽度: 0
X轴模式: Wavelengths
Number of Pixels in Spectrum: 1044
>>>>>Begin Spectral Data<<<<<
220.843	2
221.644	2
222.444	1
223.244	2
224.045	2
224.845	3
225.645	2
226.445	0
227.245	2
228.045	4
228.845	0
229.645	4
230.444	4
231.244	5
232.043	2
232.843	3
233.642	4
234.442	3
235.241	3
236.04	1
236.839	3
237.638	2
238.437	4
239.236	3
240.035	5
240.833	4
241.632	3
242.43	4
243.229	7
244.027	5
244.826	5
245.624	3
246.422	4
247.22	3
248.018	5
248.816	8
249.614	4
250.412	7
251.21	4
252.007	6
252.805	9
253.602	6
254.4	6
255.197	7
255.994	8
256.791	7
257.589	8
258.386	10
259.183	9
259.979	9
260.776	10
261.573	7
262.37	8
263.166	8
263.963	7
264.759	9
265.556	8
266.352	12
267.148	10
267.944	11
268.74	13
269.536	14
270.332	12
271.128	14
271.924	14
272.719	17
273.515	13
274.311	14
275.106	15
275.901	16
276.697	14
277.492	14
278.287	15
279.082	15
279.877	14
280.672	17
281.467	14
282.262	18
283.056	14
283.851	18
284.646	16
285.44	17
286.234	16
287.029	17
287.823	15
288.617	16
289.411	19
290.205	18
290.999	18
291.793	17
292.587	17
293.381	14
294.174	17
294.968	16
295.761	15
296.555	14
297.348	13
298.141	14
298.935	16
299.728	14
300.521	14
301.314	11
302.107	14
302.899	13
303.692	11
304.485	14
305.277	15
306.07	12
306.862	10
307.655	12
308.447	12
309.239	9
310.031	13
310.823	10
311.615	10
312.407	8
313.199	9
313.991	10
314.783	8
315.574	9
316.366	9
317.157	7
317.949	12
318.74	7
319.531	7
320.322	10
321.113	8
321.904	6
322.695	5
323.486	7
324.277	7
325.068	9
325.858	6
326.649	6
327.439	6
328.23	5
329.02	6
329.81	5
330.6	8
331.391	6
332.181	5
332.971	5
333.76	4
334.55	7
335.34	7
336.13	6
336.919	6
337.709	5
338.498	6
339.287	7
340.077	8
340.866	4
341.655	6
342.444	8
343.233	5
344.022	5
344.811	5
345.6	6
346.388	6
347.177	5
347.965	9
348.754	4
349.542	6
350.33	5
351.119	6
351.907	5
352.695	3
353.483	4
354.271	4
355.059	5
355.846	6
356.634	6
357.422	6
358.209	5
358.997	7
359.784	5
360.571	6
361.359	5
362.146	5
362.933	5
363.72	5
364.507	7
365.294	4
366.081	6
366.867	6
367.654	4
368.44	5
369.227	2
370.013	4
370.8	4
371.586	6
372.372	4
373.158	5
373.944	2
374.73	5
375.516	8
376.302	4
377.088	5
377.873	5
378.659	4
379.445	4
380.23	4
381.015	6
381.801	2
382.586	8
383.371	3
384.156	2
384.941	6
385.726	4
386.511	6
387.296	4
388.08	5
388.865	7
389.649	5
390.434	9
391.218	4
392.003	6
392.787	4
393.571	8
394.355	5
395.139	4
395.923	7
396.707	6
397.491	7
398.274	6
399.058	5
399.842	8
400.625	4
401.408	9
402.192	6
402.975	6
403.758	7
404.541	5
405.324	7
406.107	6
406.89	7
407.673	5
408.456	9
409.238	6
410.021	6
410.803	9
411.586	5
412.368	8
413.151	7
413.933	5
414.715	9
415.497	6
416.279	9
417.061	8
417.843	9
418.624	9
419.406	9
420.188	12
420.969	10
421.751	11
422.532	9
423.313	8
424.095	9
424.876	10
425.657	13
426.438	12
427.219	10
428	10
428.78	11
429.561	12
430.342	12
431.122	14
431.903	12
432.683	14
433.464	18
434.244	15
435.024	19
435.804	18
436.584	17
437.364	18
438.144	22
438.924	22
439.704	20
440.483	25
441.263	25
442.042	28
442.822	26
443.601	29
444.38	30
445.16	31
445.939	33
446.718	39
447.497	43
448.276	45
449.054	46
449.833	55
450.612	57
451.391	62
452.169	68
452.948	74
453.726	83
454.504	90
455.282	103
456.061	113
456.839	124
457.617	134
458.395	152
459.172	169
459.95	190
460.728	210
461.506	231
462.283	258
463.061	295
463.838	321
464.615	356
465.393	397
466.17	438
466.947	490
467.724	534
468.501	605
469.278	661
470.055	733
470.831	813
471.608	907
472.385	999
473.161	1105
473.938	1208
474.714	1314
475.49	1482
476.266	1607
477.043	1769
477.819	1942
478.595	2116
479.371	2336
480.146	2551
480.922	2774
481.698	3033
482.473	3326
483.249	3628
484.024	3971
484.8	4321
485.575	4715
486.35	5107
487.126	5566
487.901	6089
488.676	6606
489.451	7184
490.225	7818
491	8471
491.775	9209
492.55	9956
493.324	10742
494.099	11556
494.873	12351
495.647	13310
496.422	14267
497.196	15247
497.97	16286
498.744	17297
499.518	18337
500.292	19348
501.066	20308
501.839	21223
502.613	22147
503.387	22933
504.16	23651
504.934	24182
505.707	24526
506.48	24814
507.253	25037
508.027	24991
508.8	24974
509.573	24779
510.346	24529
511.118	24004
511.891	23492
512.664	22818
513.437	22168
514.209	21375
514.982	20684
515.754	19854
516.526	19069
517.298	18316
518.071	17535
518.843	16885
519.615	16310
520.387	15650
521.159	15048
521.93	14411
522.702	13919
523.474	13307
524.245	12743
525.017	12179
525.788	11734
526.56	11226
527.331	10714
528.102	10287
528.873	9848
529.644	9403
530.415	8993
531.186	8519
531.957	8093
532.728	7764
533.498	7372
534.269	6949
535.039	6605
535.81	6266
536.58	5929
537.351	5575
538.121	5260
538.891	4994
539.661	4737
540.431	4465
541.201	4207
541.971	4020
542.741	3791
543.51	3633
544.28	3424
545.05	3274
545.819	3083
546.588	2941
547.358	2806
548.127	2658
548.896	2538
549.665	2405
550.434	2271
551.203	2181
551.972	2032
552.741	1932
553.51	1838
554.278	1741
555.047	1650
555.815	1560
556.584	1482
557.352	1388
558.121	1306
558.889	1242
559.657	1175
560.425	1097
561.193	1039
561.961	985
562.729	933
563.496	881
564.264	828
565.032	790
565.799	748
566.567	687
567.334	662
568.101	634
568.869	596
569.636	555
570.403	529
571.17	492
571.937	471
572.704	445
573.471	420
574.237	395
575.004	368
575.771	355
576.537	322
577.303	303
578.07	299
578.836	271
579.602	262
580.368	245
581.134	238
581.9	225
582.666	206
583.432	197
584.198	189
584.964	179
585.729	172
586.495	165
587.26	151
588.025	144
588.791	134
589.556	128
590.321	121
591.086	118
591.851	110
592.616	105
593.381	99
594.146	97
594.911	93
595.675	89
596.44	81
597.204	76
597.969	78
598.733	69
599.497	65
600.261	66
601.025	59
601.79	57
602.553	52
603.317	52
604.081	53
604.845	51
605.609	48
606.372	45
607.136	43
607.899	44
608.662	37
609.426	36
610.189	38
610.952	33
611.715	35
612.478	33
613.241	30
614.004	31
614.767	29
615.529	30
616.292	26
617.055	25
617.817	28
618.579	23
619.342	25
620.104	22
620.866	20
621.628	21
622.39	19
623.152	21
623.914	19
624.676	20
625.438	17
626.199	19
626.961	16
627.722	17
628.484	16
629.245	15
630.006	15
630.768	14
631.529	13
632.29	14
633.051	14
633.812	13
634.573	13
635.333	11
636.094	11
636.855	13
637.615	10
638.376	9
639.136	11
639.896	8
640.657	11
641.417	10
642.177	8
642.937	6
643.697	8
644.457	9
645.216	6
645.976	12
646.736	8
647.495	8
648.255	9
649.014	7
649.774	7
650.533	5
651.292	7
652.051	5
652.81	7
653.569	7
654.328	6
655.087	5
655.846	5
656.604	4
657.363	8
658.121	4
658.88	5
659.638	6
660.397	6
661.155	7
661.913	6
662.671	5
663.429	5
664.187	7
664.945	5
665.703	4
666.46	6
667.218	6
667.976	5
668.733	4
669.49	6
670.248	4
671.005	7
671.762	4
672.519	4
673.276	3
674.033	3
674.79	4
675.547	3
676.304	5
677.06	3
677.817	4
678.574	6
679.33	2
680.086	5
680.843	4
681.599	2
682.355	5
683.111	5
683.867	7
684.623	2
685.379	3
686.135	2
686.89	4
687.646	5
688.402	2
689.157	4
689.912	4
690.668	3
691.423	5
692.178	6
692.933	2
693.688	3
694.443	3
695.198	1
695.953	3
696.708	2
697.462	4
698.217	6
698.972	3
699.726	0
700.48	4
701.235	4
701.989	3
702.743	3
703.497	2
704.251	5
705.005	4
705.759	4
706.513	4
707.266	6
708.02	3
708.774	3
709.527	3
710.28	4
711.034	4
711.787	3
712.54	3
713.293	2
714.046	5
714.799	2
715.552	5
716.305	6
717.058	1
717.81	5
718.563	4
719.315	3
720.068	3
720.82	3
721.573	4
722.325	3
723.077	2
723.829	5
724.581	3
725.333	4
726.085	4
726.836	4
727.588	4
728.34	5
729.091	3
729.843	3
730.594	6
731.346	3
732.097	4
732.848	6
733.599	5
734.35	4
735.101	3
735.852	2
736.603	3
737.354	5
738.104	2
738.855	4
739.605	4
740.356	2
741.106	5
741.856	2
742.607	5
743.357	3
744.107	5
744.857	6
745.607	4
746.357	5
747.106	2
747.856	6
748.606	4
749.355	3
750.105	5
750.854	2
751.603	7
752.353	6
753.102	5
753.851	8
754.6	6
755.349	5
756.098	5
756.847	4
757.595	5
758.344	5
759.093	4
759.841	5
760.589	6
761.338	5
762.086	4
762.834	9
763.582	6
764.331	6
765.079	6
765.826	6
766.574	5
767.322	8
768.07	5
768.817	7
769.565	6
770.312	8
771.06	7
771.807	6
772.554	8
773.302	9
774.049	7
774.796	7
775.543	10
776.29	9
777.036	5
777.783	8
778.53	7
779.276	8
780.023	5
780.769	7
781.516	9
782.262	9
783.008	8
783.754	10
784.5	6
785.246	8
785.992	9
786.738	8
787.484	7
788.23	9
788.975	10
789.721	6
790.466	9
791.212	6
791.957	9
792.702	9
793.447	7
794.193	8
794.938	7
795.683	8
796.427	8
797.172	10
797.917	4
798.662	7
799.406	6
800.151	4
800.895	6
801.64	7
802.384	6
803.128	5
803.872	6
804.616	6
805.36	6
806.104	9
806.848	6
807.592	6
808.336	5
809.079	5
809.823	6
810.566	6
811.31	4
812.053	8
812.796	7
813.539	6
814.283	4
815.026	5
815.769	3
816.511	6
817.254	6
817.997	4
818.74	5
819.482	3
820.225	4
820.967	6
821.71	3
822.452	3
823.194	5
823.936	3
824.678	4
825.42	5
826.162	5
826.904	4
827.646	4
828.388	2
829.129	4
829.871	4
830.612	3
831.354	2
832.095	3
832.836	5
833.577	4
834.319	4
835.06	4
835.801	5
836.542	2
837.282	5
838.023	3
838.764	2
839.504	2
840.245	2
840.985	2
841.726	2
842.466	4
843.206	2
843.946	2
844.687	2
845.427	1
846.166	3
846.906	1
847.646	2
848.386	4
849.125	5
849.865	2
850.605	2
851.344	2
852.083	4
852.823	2
853.562	1
854.301	1
855.04	2
855.779	3
856.518	1
857.257	2
857.995	1
858.734	2
859.473	2
860.211	3
860.95	4
861.688	2
862.426	2
863.165	1
863.903	2
864.641	2
865.379	0
866.117	1
866.855	1
867.593	3
868.33	2
869.068	2
869.806	2
870.543	5
871.28	2
872.018	1
872.755	1
873.492	-1
874.229	1
874.967	1
875.703	3
876.44	0
877.177	2
877.914	1
878.651	-1
879.387	4
880.124	1
880.86	0
881.597	2
882.333	0
883.069	3
883.806	0
884.542	4
885.278	-3
886.014	0
886.749	2
887.485	1
888.221	0
888.957	1
889.692	1
890.428	1
891.163	1
891.899	2
892.634	0
893.369	3
894.104	2
894.839	1
895.574	0
896.309	1
897.044	1
897.779	-2
898.514	1
899.248	2
899.983	0
900.717	2
901.452	0
902.186	3
902.92	-1
903.654	0
904.389	0
905.123	1
905.857	-1
906.59	-1
907.324	0
908.058	-1
908.792	1
909.525	-2
910.259	0
910.992	1
911.726	-2
912.459	2
913.192	-2
913.925	2
914.658	0
915.391	0
916.124	-1
916.857	1
917.59	1
918.323	1
919.055	2
919.788	1
920.521	-2
921.253	0
921.985	1
922.718	1
923.45	1
924.182	1
924.914	0
925.646	1
926.378	1
927.11	-3
927.841	2
928.573	2
929.305	2
930.036	1
930.768	-2
931.499	3
932.23	1
932.962	0
933.693	-1
934.424	0
935.155	2
935.886	0
936.617	1
937.348	0
938.078	-1
938.809	1
939.54	0
940.27	0
941.001	0
941.731	1
942.461	2
943.191	-1
943.922	0
944.652	-1
945.382	2
946.112	1
946.841	-1
947.571	-2
948.301	-1
949.031	0
949.76	0
950.49	2
951.219	-1
951.948	2
952.678	0
953.407	0
954.136	0
954.865	0
955.594	3
956.323	0
957.052	1
957.78	1
958.509	0
959.238	0
959.966	0
960.695	3
961.423	-1
962.151	-2
962.88	0
963.608	1
964.336	-1
965.064	-1
965.792	-1
966.52	0
967.247	-1
967.975	-3
968.703	-1
969.43	2
970.158	1
970.885	2
971.613	-1
972.34	-2
973.067	3
973.794	1
974.521	3
975.248	-2
975.975	2
976.702	1
977.429	-1
978.156	0
978.882	1
979.609	5
980.335	1
981.062	1
981.788	2
982.514	-2
983.24	0
983.967	0
984.693	1
985.419	1
986.144	-3
986.87	0
987.596	-2
988.322	-1
989.047	0
989.773	1
990.498	1
991.224	2
991.949	0
992.674	0
993.399	1
994.124	2
994.849	-2
995.574	-2
996.299	0
997.024	-1
997.749	-2
998.473	-2
999.198	-1
999.922	0
1000.647	1
1001.371	3
1002.095	0
1002.82	0
1003.544	-2
1004.268	1
1004.992	1
1005.716	-1
1006.439	1
1007.163	-1
1007.887	2
1008.611	0
1009.334	1
1010.058	0
1010.781	-1
1011.504	-2
1012.228	-1
1012.951	0
1013.674	-1
1014.397	2
1015.12	-2
