节点500_285_QEPB04081__78__14-56-51-330.txt的数据

Date: Wed Nov 12 14:56:51 CST 2025
User: PC
Spectrometer: QEPB0408
触发模式: 0
积分时间 (秒): 1.000000E-2
Scans to average: 1
启用暗噪声校正: true
启用非线性校正: false
滑动平均宽度: 0
X轴模式: Wavelengths
Number of Pixels in Spectrum: 1044
>>>>>Begin Spectral Data<<<<<
220.843	3.75
221.644	2.75
222.444	0.75
223.244	-0.25
224.045	0.75
224.845	-0.25
225.645	1.75
226.445	2.75
227.245	2.75
228.045	3.75
228.845	0.75
229.645	2.75
230.444	-0.25
231.244	2.75
232.043	3.75
232.843	1.75
233.642	1.75
234.442	1.75
235.241	2.75
236.04	4.75
236.839	2.75
237.638	4.75
238.437	4.75
239.236	3.75
240.035	2.75
240.833	3.75
241.632	6.75
242.43	0.75
243.229	4.75
244.027	2.75
244.826	5.75
245.624	4.75
246.422	4.75
247.22	6.75
248.018	2.75
248.816	7.75
249.614	5.75
250.412	4.75
251.21	8.75
252.007	5.75
252.805	6.75
253.602	3.75
254.4	7.75
255.197	5.75
255.994	6.75
256.791	8.75
257.589	7.75
258.386	12.75
259.183	7.75
259.979	8.75
260.776	10.75
261.573	7.75
262.37	11.75
263.166	12.75
263.963	9.75
264.759	11.75
265.556	14.75
266.352	12.75
267.148	14.75
267.944	14.75
268.74	12.75
269.536	16.75
270.332	17.75
271.128	16.75
271.924	16.75
272.719	15.75
273.515	16.75
274.311	16.75
275.106	18.75
275.901	17.75
276.697	17.75
277.492	19.75
278.287	17.75
279.082	19.75
279.877	20.75
280.672	13.75
281.467	18.75
282.262	19.75
283.056	18.75
283.851	20.75
284.646	19.75
285.44	20.75
286.234	14.75
287.029	20.75
287.823	18.75
288.617	17.75
289.411	20.75
290.205	16.75
290.999	15.75
291.793	18.75
292.587	15.75
293.381	16.75
294.174	15.75
294.968	14.75
295.761	18.75
296.555	14.75
297.348	15.75
298.141	14.75
298.935	16.75
299.728	13.75
300.521	11.75
301.314	12.75
302.107	15.75
302.899	12.75
303.692	12.75
304.485	12.75
305.277	9.75
306.07	12.75
306.862	9.75
307.655	11.75
308.447	13.75
309.239	11.75
310.031	11.75
310.823	9.75
311.615	11.75
312.407	8.75
313.199	9.75
313.991	8.75
314.783	8.75
315.574	9.75
316.366	6.75
317.157	8.75
317.949	7.75
318.74	7.75
319.531	7.75
320.322	8.75
321.113	9.75
321.904	8.75
322.695	5.75
323.486	7.75
324.277	7.75
325.068	9.75
325.858	8.75
326.649	8.75
327.439	7.75
328.23	5.75
329.02	4.75
329.81	7.75
330.6	6.75
331.391	7.75
332.181	5.75
332.971	6.75
333.76	3.75
334.55	6.75
335.34	5.75
336.13	5.75
336.919	5.75
337.709	4.75
338.498	6.75
339.287	3.75
340.077	6.75
340.866	5.75
341.655	5.75
342.444	7.75
343.233	3.75
344.022	7.75
344.811	4.75
345.6	6.75
346.388	4.75
347.177	3.75
347.965	5.75
348.754	6.75
349.542	4.75
350.33	8.75
351.119	4.75
351.907	7.75
352.695	6.75
353.483	8.75
354.271	5.75
355.059	5.75
355.846	4.75
356.634	5.75
357.422	6.75
358.209	5.75
358.997	6.75
359.784	6.75
360.571	5.75
361.359	5.75
362.146	4.75
362.933	6.75
363.72	3.75
364.507	6.75
365.294	5.75
366.081	4.75
366.867	5.75
367.654	5.75
368.44	4.75
369.227	4.75
370.013	3.75
370.8	4.75
371.586	3.75
372.372	5.75
373.158	5.75
373.944	6.75
374.73	4.75
375.516	5.75
376.302	6.75
377.088	2.75
377.873	4.75
378.659	2.75
379.445	3.75
380.23	4.75
381.015	4.75
381.801	3.75
382.586	6.75
383.371	5.75
384.156	5.75
384.941	3.75
385.726	6.75
386.511	5.75
387.296	5.75
388.08	6.75
388.865	6.75
389.649	4.75
390.434	3.75
391.218	4.75
392.003	3.75
392.787	3.75
393.571	6.75
394.355	5.75
395.139	8.75
395.923	4.75
396.707	6.75
397.491	5.75
398.274	5.75
399.058	6.75
399.842	8.75
400.625	5.75
401.408	7.75
402.192	7.75
402.975	6.75
403.758	4.75
404.541	11.75
405.324	7.75
406.107	5.75
406.89	7.75
407.673	5.75
408.456	8.75
409.238	8.75
410.021	9.75
410.803	7.75
411.586	8.75
412.368	6.75
413.151	9.75
413.933	8.75
414.715	8.75
415.497	11.75
416.279	9.75
417.061	7.75
417.843	7.75
418.624	9.75
419.406	12.75
420.188	9.75
420.969	9.75
421.751	9.75
422.532	10.75
423.313	9.75
424.095	11.75
424.876	10.75
425.657	11.75
426.438	11.75
427.219	12.75
428	12.75
428.78	12.75
429.561	13.75
430.342	12.75
431.122	14.75
431.903	14.75
432.683	13.75
433.464	15.75
434.244	15.75
435.024	17.75
435.804	17.75
436.584	17.75
437.364	18.75
438.144	19.75
438.924	18.75
439.704	21.75
440.483	21.75
441.263	22.75
442.042	24.75
442.822	25.75
443.601	26.75
444.38	28.75
445.16	29.75
445.939	34.75
446.718	33.75
447.497	32.75
448.276	43.75
449.054	45.75
449.833	47.75
450.612	50.75
451.391	54.75
452.169	60.75
452.948	64.75
453.726	68.75
454.504	76.75
455.282	85.75
456.061	95.75
456.839	101.75
457.617	110.75
458.395	125.75
459.172	143.75
459.95	152.75
460.728	171.75
461.506	191.75
462.283	214.75
463.061	232.75
463.838	262.75
464.615	296.75
465.393	339.75
466.17	374.75
466.947	418.75
467.724	465.75
468.501	525.75
469.278	588.75
470.055	655.75
470.831	728.75
471.608	828.75
472.385	912.75
473.161	1014.75
473.938	1115.75
474.714	1249.75
475.49	1402.75
476.266	1559.75
477.043	1703.75
477.819	1906.75
478.595	2105.75
479.371	2341.75
480.146	2599.75
480.922	2864.75
481.698	3196.75
482.473	3552.75
483.249	3897.75
484.024	4283.75
484.8	4761.75
485.575	5250.75
486.35	5814.75
487.126	6412.75
487.901	7076.75
488.676	7758.75
489.451	8554.75
490.225	9389.75
491	10321.75
491.775	11312.75
492.55	12329.75
493.324	13382.75
494.099	14451.75
494.873	15633.75
495.647	16893.75
496.422	18152.75
497.196	19456.75
497.97	20764.75
498.744	22043.75
499.518	23285.75
500.292	24417.75
501.066	25488.75
501.839	26430.75
502.613	27289.75
503.387	28039.75
504.16	28522.75
504.934	28787.75
505.707	28788.75
506.48	28699.75
507.253	28488.75
508.027	27989.75
508.8	27539.75
509.573	26851.75
510.346	26042.75
511.118	25192.75
511.891	24190.75
512.664	23387.75
513.437	22348.75
514.209	21327.75
514.982	20390.75
515.754	19432.75
516.526	18534.75
517.298	17751.75
518.071	16986.75
518.843	16293.75
519.615	15671.75
520.387	15064.75
521.159	14510.75
521.93	13886.75
522.702	13372.75
523.474	12769.75
524.245	12200.75
525.017	11687.75
525.788	11225.75
526.56	10690.75
527.331	10183.75
528.102	9713.75
528.873	9298.75
529.644	8733.75
530.415	8308.75
531.186	7872.75
531.957	7445.75
532.728	7093.75
533.498	6690.75
534.269	6295.75
535.039	5945.75
535.81	5622.75
536.58	5293.75
537.351	5015.75
538.121	4711.75
538.891	4469.75
539.661	4260.75
540.431	3964.75
541.201	3765.75
541.971	3559.75
542.741	3385.75
543.51	3191.75
544.28	3051.75
545.05	2913.75
545.819	2763.75
546.588	2626.75
547.358	2511.75
548.127	2375.75
548.896	2268.75
549.665	2135.75
550.434	2016.75
551.203	1912.75
551.972	1796.75
552.741	1696.75
553.51	1602.75
554.278	1518.75
555.047	1423.75
555.815	1355.75
556.584	1274.75
557.352	1212.75
558.121	1143.75
558.889	1061.75
559.657	1025.75
560.425	942.75
561.193	899.75
561.961	842.75
562.729	806.75
563.496	752.75
564.264	704.75
565.032	685.75
565.799	641.75
566.567	610.75
567.334	577.75
568.101	539.75
568.869	510.75
569.636	473.75
570.403	451.75
571.17	431.75
571.937	406.75
572.704	363.75
573.471	357.75
574.237	333.75
575.004	317.75
575.771	299.75
576.537	280.75
577.303	267.75
578.07	244.75
578.836	231.75
579.602	220.75
580.368	202.75
581.134	198.75
581.9	193.75
582.666	175.75
583.432	168.75
584.198	155.75
584.964	154.75
585.729	140.75
586.495	140.75
587.26	128.75
588.025	126.75
588.791	119.75
589.556	108.75
590.321	105.75
591.086	99.75
591.851	95.75
592.616	90.75
593.381	82.75
594.146	80.75
594.911	78.75
595.675	75.75
596.44	71.75
597.204	62.75
597.969	61.75
598.733	58.75
599.497	60.75
600.261	55.75
601.025	56.75
601.79	51.75
602.553	45.75
603.317	42.75
604.081	43.75
604.845	42.75
605.609	43.75
606.372	38.75
607.136	39.75
607.899	34.75
608.662	35.75
609.426	32.75
610.189	33.75
610.952	30.75
611.715	31.75
612.478	28.75
613.241	25.75
614.004	24.75
614.767	26.75
615.529	22.75
616.292	22.75
617.055	22.75
617.817	23.75
618.579	20.75
619.342	20.75
620.104	21.75
620.866	17.75
621.628	20.75
622.39	18.75
623.152	15.75
623.914	15.75
624.676	17.75
625.438	17.75
626.199	16.75
626.961	15.75
627.722	13.75
628.484	14.75
629.245	12.75
630.006	11.75
630.768	15.75
631.529	12.75
632.29	11.75
633.051	12.75
633.812	12.75
634.573	12.75
635.333	13.75
636.094	10.75
636.855	10.75
637.615	9.75
638.376	8.75
639.136	9.75
639.896	9.75
640.657	8.75
641.417	8.75
642.177	10.75
642.937	10.75
643.697	6.75
644.457	9.75
645.216	7.75
645.976	7.75
646.736	8.75
647.495	7.75
648.255	7.75
649.014	6.75
649.774	7.75
650.533	8.75
651.292	6.75
652.051	6.75
652.81	7.75
653.569	5.75
654.328	6.75
655.087	6.75
655.846	7.75
656.604	5.75
657.363	5.75
658.121	8.75
658.88	4.75
659.638	2.75
660.397	7.75
661.155	3.75
661.913	5.75
662.671	3.75
663.429	4.75
664.187	6.75
664.945	4.75
665.703	5.75
666.46	4.75
667.218	3.75
667.976	3.75
668.733	1.75
669.49	4.75
670.248	2.75
671.005	4.75
671.762	3.75
672.519	5.75
673.276	3.75
674.033	3.75
674.79	3.75
675.547	4.75
676.304	5.75
677.06	4.75
677.817	2.75
678.574	4.75
679.33	4.75
680.086	8.75
680.843	4.75
681.599	4.75
682.355	3.75
683.111	4.75
683.867	2.75
684.623	4.75
685.379	2.75
686.135	2.75
686.89	3.75
687.646	2.75
688.402	4.75
689.157	2.75
689.912	3.75
690.668	4.75
691.423	2.75
692.178	2.75
692.933	2.75
693.688	4.75
694.443	1.75
695.198	2.75
695.953	0.75
696.708	4.75
697.462	1.75
698.217	1.75
698.972	2.75
699.726	4.75
700.48	4.75
701.235	1.75
701.989	2.75
702.743	2.75
703.497	2.75
704.251	2.75
705.005	3.75
705.759	2.75
706.513	1.75
707.266	2.75
708.02	3.75
708.774	2.75
709.527	1.75
710.28	3.75
711.034	4.75
711.787	2.75
712.54	4.75
713.293	2.75
714.046	0.75
714.799	4.75
715.552	4.75
716.305	3.75
717.058	2.75
717.81	3.75
718.563	2.75
719.315	3.75
720.068	4.75
720.82	3.75
721.573	3.75
722.325	3.75
723.077	2.75
723.829	2.75
724.581	1.75
725.333	4.75
726.085	2.75
726.836	3.75
727.588	3.75
728.34	3.75
729.091	4.75
729.843	4.75
730.594	4.75
731.346	5.75
732.097	4.75
732.848	4.75
733.599	2.75
734.35	4.75
735.101	3.75
735.852	2.75
736.603	3.75
737.354	2.75
738.104	3.75
738.855	5.75
739.605	4.75
740.356	5.75
741.106	2.75
741.856	4.75
742.607	3.75
743.357	2.75
744.107	3.75
744.857	4.75
745.607	4.75
746.357	4.75
747.106	5.75
747.856	3.75
748.606	5.75
749.355	6.75
750.105	4.75
750.854	5.75
751.603	2.75
752.353	5.75
753.102	4.75
753.851	4.75
754.6	6.75
755.349	4.75
756.098	7.75
756.847	4.75
757.595	5.75
758.344	5.75
759.093	5.75
759.841	5.75
760.589	5.75
761.338	8.75
762.086	6.75
762.834	6.75
763.582	4.75
764.331	5.75
765.079	5.75
765.826	6.75
766.574	6.75
767.322	7.75
768.07	5.75
768.817	7.75
769.565	7.75
770.312	7.75
771.06	7.75
771.807	8.75
772.554	8.75
773.302	7.75
774.049	7.75
774.796	9.75
775.543	8.75
776.29	7.75
777.036	6.75
777.783	9.75
778.53	8.75
779.276	9.75
780.023	8.75
780.769	9.75
781.516	8.75
782.262	7.75
783.008	8.75
783.754	9.75
784.5	5.75
785.246	8.75
785.992	8.75
786.738	8.75
787.484	8.75
788.23	9.75
788.975	7.75
789.721	9.75
790.466	9.75
791.212	5.75
791.957	10.75
792.702	7.75
793.447	7.75
794.193	8.75
794.938	7.75
795.683	6.75
796.427	10.75
797.172	9.75
797.917	5.75
798.662	8.75
799.406	5.75
800.151	7.75
800.895	8.75
801.64	6.75
802.384	8.75
803.128	8.75
803.872	5.75
804.616	6.75
805.36	5.75
806.104	5.75
806.848	4.75
807.592	9.75
808.336	6.75
809.079	5.75
809.823	4.75
810.566	6.75
811.31	3.75
812.053	6.75
812.796	5.75
813.539	3.75
814.283	3.75
815.026	6.75
815.769	3.75
816.511	1.75
817.254	4.75
817.997	3.75
818.74	5.75
819.482	4.75
820.225	4.75
820.967	4.75
821.71	5.75
822.452	2.75
823.194	4.75
823.936	6.75
824.678	3.75
825.42	3.75
826.162	4.75
826.904	3.75
827.646	5.75
828.388	1.75
829.129	3.75
829.871	2.75
830.612	4.75
831.354	3.75
832.095	2.75
832.836	4.75
833.577	2.75
834.319	2.75
835.06	3.75
835.801	3.75
836.542	4.75
837.282	1.75
838.023	4.75
838.764	2.75
839.504	2.75
840.245	0.75
840.985	2.75
841.726	4.75
842.466	1.75
843.206	2.75
843.946	4.75
844.687	2.75
845.427	2.75
846.166	2.75
846.906	3.75
847.646	1.75
848.386	3.75
849.125	1.75
849.865	1.75
850.605	-0.25
851.344	-0.25
852.083	3.75
852.823	1.75
853.562	1.75
854.301	2.75
855.04	0.75
855.779	4.75
856.518	3.75
857.257	2.75
857.995	2.75
858.734	2.75
859.473	-1.25
860.211	1.75
860.95	1.75
861.688	2.75
862.426	0.75
863.165	2.75
863.903	-0.25
864.641	3.75
865.379	0.75
866.117	0.75
866.855	1.75
867.593	-2.25
868.33	-0.25
869.068	-0.25
869.806	1.75
870.543	0.75
871.28	1.75
872.018	2.75
872.755	2.75
873.492	1.75
874.229	1.75
874.967	-1.25
875.703	1.75
876.44	0.75
877.177	-0.25
877.914	0.75
878.651	2.75
879.387	0.75
880.124	-0.25
880.86	2.75
881.597	1.75
882.333	0.75
883.069	-0.25
883.806	-1.25
884.542	0.75
885.278	-0.25
886.014	-0.25
886.749	-0.25
887.485	0.75
888.221	2.75
888.957	1.75
889.692	1.75
890.428	-0.25
891.163	0.75
891.899	1.75
892.634	-0.25
893.369	-1.25
894.104	1.75
894.839	2.75
895.574	-1.25
896.309	0.75
897.044	-0.25
897.779	-1.25
898.514	-0.25
899.248	-1.25
899.983	-0.25
900.717	-0.25
901.452	-1.25
902.186	2.75
902.92	-1.25
903.654	2.75
904.389	-1.25
905.123	0.75
905.857	-2.25
906.59	0.75
907.324	-1.25
908.058	-2.25
908.792	2.75
909.525	1.75
910.259	-1.25
910.992	0.75
911.726	0.75
912.459	0.75
913.192	-1.25
913.925	-0.25
914.658	-0.25
915.391	-1.25
916.124	-0.25
916.857	-1.25
917.59	0.75
918.323	0.75
919.055	0.75
919.788	-0.25
920.521	0.75
921.253	-0.25
921.985	-2.25
922.718	-0.25
923.45	-1.25
924.182	-1.25
924.914	-2.25
925.646	-1.25
926.378	-0.25
927.11	0.75
927.841	0.75
928.573	-1.25
929.305	1.75
930.036	1.75
930.768	-0.25
931.499	-0.25
932.23	-0.25
932.962	-1.25
933.693	2.75
934.424	-0.25
935.155	-1.25
935.886	-1.25
936.617	0.75
937.348	-1.25
938.078	-0.25
938.809	0.75
939.54	1.75
940.27	0.75
941.001	-0.25
941.731	-0.25
942.461	0.75
943.191	0.75
943.922	-0.25
944.652	2.75
945.382	-0.25
946.112	-0.25
946.841	0.75
947.571	1.75
948.301	-1.25
949.031	-0.25
949.76	-0.25
950.49	0.75
951.219	-0.25
951.948	-1.25
952.678	1.75
953.407	0.75
954.136	-0.25
954.865	-0.25
955.594	-1.25
956.323	-0.25
957.052	0.75
957.78	0.75
958.509	-2.25
959.238	-1.25
959.966	-0.25
960.695	-1.25
961.423	0.75
962.151	-0.25
962.88	0.75
963.608	1.75
964.336	-0.25
965.064	2.75
965.792	-1.25
966.52	0.75
967.247	2.75
967.975	0.75
968.703	0.75
969.43	-0.25
970.158	-1.25
970.885	0.75
971.613	-0.25
972.34	-0.25
973.067	-0.25
973.794	1.75
974.521	-2.25
975.248	1.75
975.975	-0.25
976.702	-3.25
977.429	-1.25
978.156	-0.25
978.882	-0.25
979.609	1.75
980.335	-0.25
981.062	2.75
981.788	1.75
982.514	-0.25
983.24	-1.25
983.967	-0.25
984.693	-1.25
985.419	1.75
986.144	0.75
986.87	-1.25
987.596	-0.25
988.322	-1.25
989.047	-2.25
989.773	-1.25
990.498	-0.25
991.224	0.75
991.949	-1.25
992.674	0.75
993.399	-1.25
994.124	-1.25
994.849	-0.25
995.574	1.75
996.299	-0.25
997.024	0.75
997.749	1.75
998.473	-1.25
999.198	-0.25
999.922	-0.25
1000.647	-0.25
1001.371	3.75
1002.095	-1.25
1002.82	-3.25
1003.544	-2.25
1004.268	0.75
1004.992	-0.25
1005.716	2.75
1006.439	-0.25
1007.163	2.75
1007.887	2.75
1008.611	-0.25
1009.334	-0.25
1010.058	-0.25
1010.781	-0.25
1011.504	0.75
1012.228	1.75
1012.951	0.75
1013.674	1.75
1014.397	0.75
1015.12	-0.25
