节点500_285_QEPB04081__668__15-06-39-994.txt的数据

Date: Wed Nov 12 15:06:39 CST 2025
User: PC
Spectrometer: QEPB0408
触发模式: 0
积分时间 (秒): 1.000000E-2
Scans to average: 1
启用暗噪声校正: true
启用非线性校正: false
滑动平均宽度: 0
X轴模式: Wavelengths
Number of Pixels in Spectrum: 1044
>>>>>Begin Spectral Data<<<<<
220.843	2.5
221.644	-1.5
222.444	1.5
223.244	2.5
224.045	0.5
224.845	1.5
225.645	2.5
226.445	1.5
227.245	3.5
228.045	0.5
228.845	1.5
229.645	0.5
230.444	1.5
231.244	1.5
232.043	3.5
232.843	1.5
233.642	4.5
234.442	3.5
235.241	2.5
236.04	2.5
236.839	3.5
237.638	4.5
238.437	2.5
239.236	2.5
240.035	4.5
240.833	4.5
241.632	3.5
242.43	2.5
243.229	3.5
244.027	1.5
244.826	3.5
245.624	5.5
246.422	6.5
247.22	4.5
248.018	5.5
248.816	4.5
249.614	6.5
250.412	5.5
251.21	5.5
252.007	5.5
252.805	6.5
253.602	4.5
254.4	8.5
255.197	6.5
255.994	6.5
256.791	5.5
257.589	6.5
258.386	8.5
259.183	6.5
259.979	7.5
260.776	9.5
261.573	7.5
262.37	9.5
263.166	8.5
263.963	9.5
264.759	9.5
265.556	8.5
266.352	9.5
267.148	13.5
267.944	12.5
268.74	11.5
269.536	9.5
270.332	13.5
271.128	10.5
271.924	15.5
272.719	13.5
273.515	13.5
274.311	13.5
275.106	16.5
275.901	16.5
276.697	14.5
277.492	15.5
278.287	15.5
279.082	15.5
279.877	16.5
280.672	17.5
281.467	20.5
282.262	15.5
283.056	16.5
283.851	17.5
284.646	16.5
285.44	17.5
286.234	18.5
287.029	16.5
287.823	16.5
288.617	14.5
289.411	15.5
290.205	15.5
290.999	15.5
291.793	14.5
292.587	16.5
293.381	17.5
294.174	16.5
294.968	13.5
295.761	13.5
296.555	11.5
297.348	17.5
298.141	15.5
298.935	15.5
299.728	13.5
300.521	13.5
301.314	13.5
302.107	10.5
302.899	12.5
303.692	13.5
304.485	10.5
305.277	11.5
306.07	13.5
306.862	13.5
307.655	11.5
308.447	12.5
309.239	9.5
310.031	14.5
310.823	11.5
311.615	11.5
312.407	10.5
313.199	8.5
313.991	6.5
314.783	8.5
315.574	9.5
316.366	9.5
317.157	9.5
317.949	6.5
318.74	7.5
319.531	6.5
320.322	7.5
321.113	5.5
321.904	6.5
322.695	7.5
323.486	5.5
324.277	7.5
325.068	6.5
325.858	6.5
326.649	5.5
327.439	3.5
328.23	6.5
329.02	8.5
329.81	9.5
330.6	5.5
331.391	5.5
332.181	5.5
332.971	4.5
333.76	7.5
334.55	7.5
335.34	5.5
336.13	7.5
336.919	6.5
337.709	6.5
338.498	4.5
339.287	7.5
340.077	5.5
340.866	6.5
341.655	4.5
342.444	2.5
343.233	4.5
344.022	6.5
344.811	5.5
345.6	3.5
346.388	4.5
347.177	4.5
347.965	2.5
348.754	7.5
349.542	5.5
350.33	6.5
351.119	6.5
351.907	6.5
352.695	4.5
353.483	4.5
354.271	7.5
355.059	4.5
355.846	3.5
356.634	5.5
357.422	4.5
358.209	7.5
358.997	3.5
359.784	8.5
360.571	4.5
361.359	3.5
362.146	5.5
362.933	7.5
363.72	4.5
364.507	6.5
365.294	6.5
366.081	4.5
366.867	5.5
367.654	1.5
368.44	0.5
369.227	3.5
370.013	3.5
370.8	3.5
371.586	4.5
372.372	3.5
373.158	4.5
373.944	3.5
374.73	4.5
375.516	3.5
376.302	5.5
377.088	5.5
377.873	4.5
378.659	5.5
379.445	3.5
380.23	4.5
381.015	5.5
381.801	3.5
382.586	5.5
383.371	4.5
384.156	4.5
384.941	5.5
385.726	3.5
386.511	6.5
387.296	3.5
388.08	4.5
388.865	4.5
389.649	4.5
390.434	6.5
391.218	4.5
392.003	5.5
392.787	3.5
393.571	7.5
394.355	3.5
395.139	5.5
395.923	3.5
396.707	4.5
397.491	4.5
398.274	5.5
399.058	6.5
399.842	5.5
400.625	4.5
401.408	7.5
402.192	4.5
402.975	6.5
403.758	6.5
404.541	5.5
405.324	5.5
406.107	7.5
406.89	5.5
407.673	4.5
408.456	8.5
409.238	6.5
410.021	7.5
410.803	7.5
411.586	7.5
412.368	7.5
413.151	8.5
413.933	8.5
414.715	8.5
415.497	7.5
416.279	8.5
417.061	9.5
417.843	10.5
418.624	9.5
419.406	9.5
420.188	8.5
420.969	6.5
421.751	11.5
422.532	9.5
423.313	11.5
424.095	8.5
424.876	9.5
425.657	11.5
426.438	12.5
427.219	12.5
428	10.5
428.78	11.5
429.561	11.5
430.342	13.5
431.122	10.5
431.903	16.5
432.683	12.5
433.464	13.5
434.244	15.5
435.024	15.5
435.804	18.5
436.584	16.5
437.364	17.5
438.144	20.5
438.924	17.5
439.704	22.5
440.483	22.5
441.263	23.5
442.042	25.5
442.822	28.5
443.601	27.5
444.38	31.5
445.16	34.5
445.939	33.5
446.718	36.5
447.497	39.5
448.276	38.5
449.054	48.5
449.833	52.5
450.612	54.5
451.391	63.5
452.169	67.5
452.948	70.5
453.726	83.5
454.504	86.5
455.282	98.5
456.061	108.5
456.839	119.5
457.617	133.5
458.395	149.5
459.172	166.5
459.95	181.5
460.728	202.5
461.506	230.5
462.283	253.5
463.061	283.5
463.838	318.5
464.615	345.5
465.393	394.5
466.17	431.5
466.947	480.5
467.724	528.5
468.501	593.5
469.278	649.5
470.055	724.5
470.831	812.5
471.608	887.5
472.385	983.5
473.161	1089.5
473.938	1189.5
474.714	1331.5
475.49	1451.5
476.266	1615.5
477.043	1758.5
477.819	1945.5
478.595	2126.5
479.371	2321.5
480.146	2590.5
480.922	2815.5
481.698	3060.5
482.473	3374.5
483.249	3681.5
484.024	4038.5
484.8	4437.5
485.575	4802.5
486.35	5254.5
487.126	5726.5
487.901	6236.5
488.676	6826.5
489.451	7460.5
490.225	8059.5
491	8780.5
491.775	9585.5
492.55	10395.5
493.324	11196.5
494.099	12098.5
494.873	12917.5
495.647	13944.5
496.422	14901.5
497.196	15962.5
497.97	17008.5
498.744	18077.5
499.518	19168.5
500.292	20253.5
501.066	21285.5
501.839	22252.5
502.613	23146.5
503.387	23934.5
504.16	24687.5
504.934	25077.5
505.707	25467.5
506.48	25636.5
507.253	25699.5
508.027	25667.5
508.8	25616.5
509.573	25405.5
510.346	24941.5
511.118	24412.5
511.891	23727.5
512.664	23126.5
513.437	22345.5
514.209	21526.5
514.982	20746.5
515.754	19882.5
516.526	19123.5
517.298	18283.5
518.071	17530.5
518.843	16876.5
519.615	16241.5
520.387	15616.5
521.159	14996.5
521.93	14418.5
522.702	13813.5
523.474	13269.5
524.245	12683.5
525.017	12171.5
525.788	11700.5
526.56	11185.5
527.331	10662.5
528.102	10252.5
528.873	9714.5
529.644	9295.5
530.415	8902.5
531.186	8461.5
531.957	8060.5
532.728	7662.5
533.498	7268.5
534.269	6902.5
535.039	6501.5
535.81	6165.5
536.58	5805.5
537.351	5492.5
538.121	5166.5
538.891	4932.5
539.661	4670.5
540.431	4386.5
541.201	4133.5
541.971	3944.5
542.741	3729.5
543.51	3564.5
544.28	3375.5
545.05	3223.5
545.819	3041.5
546.588	2886.5
547.358	2760.5
548.127	2616.5
548.896	2489.5
549.665	2369.5
550.434	2251.5
551.203	2108.5
551.972	2010.5
552.741	1893.5
553.51	1786.5
554.278	1695.5
555.047	1612.5
555.815	1534.5
556.584	1441.5
557.352	1367.5
558.121	1284.5
558.889	1199.5
559.657	1162.5
560.425	1087.5
561.193	1017.5
561.961	965.5
562.729	917.5
563.496	860.5
564.264	810.5
565.032	765.5
565.799	728.5
566.567	703.5
567.334	646.5
568.101	607.5
568.869	572.5
569.636	545.5
570.403	520.5
571.17	485.5
571.937	454.5
572.704	428.5
573.471	398.5
574.237	389.5
575.004	363.5
575.771	341.5
576.537	319.5
577.303	305.5
578.07	283.5
578.836	265.5
579.602	250.5
580.368	245.5
581.134	225.5
581.9	214.5
582.666	201.5
583.432	189.5
584.198	183.5
584.964	176.5
585.729	168.5
586.495	159.5
587.26	149.5
588.025	140.5
588.791	135.5
589.556	124.5
590.321	118.5
591.086	112.5
591.851	102.5
592.616	99.5
593.381	95.5
594.146	91.5
594.911	88.5
595.675	85.5
596.44	81.5
597.204	76.5
597.969	71.5
598.733	73.5
599.497	64.5
600.261	61.5
601.025	56.5
601.79	57.5
602.553	54.5
603.317	51.5
604.081	49.5
604.845	45.5
605.609	47.5
606.372	43.5
607.136	42.5
607.899	41.5
608.662	41.5
609.426	33.5
610.189	39.5
610.952	31.5
611.715	36.5
612.478	29.5
613.241	32.5
614.004	28.5
614.767	27.5
615.529	29.5
616.292	27.5
617.055	26.5
617.817	25.5
618.579	23.5
619.342	20.5
620.104	20.5
620.866	20.5
621.628	19.5
622.39	20.5
623.152	19.5
623.914	16.5
624.676	19.5
625.438	14.5
626.199	14.5
626.961	16.5
627.722	14.5
628.484	14.5
629.245	12.5
630.006	13.5
630.768	11.5
631.529	14.5
632.29	11.5
633.051	12.5
633.812	12.5
634.573	9.5
635.333	11.5
636.094	12.5
636.855	10.5
637.615	12.5
638.376	12.5
639.136	8.5
639.896	8.5
640.657	9.5
641.417	6.5
642.177	10.5
642.937	8.5
643.697	10.5
644.457	10.5
645.216	8.5
645.976	5.5
646.736	7.5
647.495	8.5
648.255	6.5
649.014	4.5
649.774	7.5
650.533	6.5
651.292	8.5
652.051	7.5
652.81	5.5
653.569	6.5
654.328	5.5
655.087	5.5
655.846	5.5
656.604	7.5
657.363	7.5
658.121	4.5
658.88	4.5
659.638	6.5
660.397	1.5
661.155	4.5
661.913	5.5
662.671	2.5
663.429	6.5
664.187	2.5
664.945	5.5
665.703	5.5
666.46	2.5
667.218	4.5
667.976	4.5
668.733	5.5
669.49	6.5
670.248	3.5
671.005	5.5
671.762	4.5
672.519	6.5
673.276	5.5
674.033	4.5
674.79	3.5
675.547	2.5
676.304	4.5
677.06	3.5
677.817	3.5
678.574	2.5
679.33	1.5
680.086	4.5
680.843	3.5
681.599	3.5
682.355	3.5
683.111	4.5
683.867	2.5
684.623	1.5
685.379	1.5
686.135	4.5
686.89	1.5
687.646	2.5
688.402	2.5
689.157	3.5
689.912	2.5
690.668	4.5
691.423	3.5
692.178	1.5
692.933	2.5
693.688	1.5
694.443	1.5
695.198	0.5
695.953	3.5
696.708	3.5
697.462	4.5
698.217	3.5
698.972	3.5
699.726	3.5
700.48	0.5
701.235	1.5
701.989	2.5
702.743	2.5
703.497	2.5
704.251	2.5
705.005	3.5
705.759	1.5
706.513	5.5
707.266	1.5
708.02	1.5
708.774	4.5
709.527	2.5
710.28	1.5
711.034	1.5
711.787	3.5
712.54	0.5
713.293	3.5
714.046	3.5
714.799	3.5
715.552	3.5
716.305	2.5
717.058	2.5
717.81	6.5
718.563	2.5
719.315	2.5
720.068	3.5
720.82	1.5
721.573	0.5
722.325	3.5
723.077	4.5
723.829	4.5
724.581	3.5
725.333	2.5
726.085	4.5
726.836	3.5
727.588	3.5
728.34	3.5
729.091	2.5
729.843	3.5
730.594	1.5
731.346	5.5
732.097	5.5
732.848	1.5
733.599	4.5
734.35	2.5
735.101	3.5
735.852	3.5
736.603	2.5
737.354	3.5
738.104	1.5
738.855	4.5
739.605	3.5
740.356	3.5
741.106	2.5
741.856	3.5
742.607	5.5
743.357	3.5
744.107	3.5
744.857	6.5
745.607	5.5
746.357	6.5
747.106	3.5
747.856	3.5
748.606	4.5
749.355	5.5
750.105	5.5
750.854	5.5
751.603	4.5
752.353	2.5
753.102	3.5
753.851	2.5
754.6	3.5
755.349	5.5
756.098	4.5
756.847	3.5
757.595	3.5
758.344	4.5
759.093	3.5
759.841	6.5
760.589	3.5
761.338	5.5
762.086	6.5
762.834	5.5
763.582	4.5
764.331	4.5
765.079	5.5
765.826	6.5
766.574	5.5
767.322	4.5
768.07	3.5
768.817	6.5
769.565	7.5
770.312	4.5
771.06	7.5
771.807	6.5
772.554	5.5
773.302	6.5
774.049	6.5
774.796	5.5
775.543	5.5
776.29	7.5
777.036	7.5
777.783	5.5
778.53	8.5
779.276	6.5
780.023	6.5
780.769	7.5
781.516	6.5
782.262	6.5
783.008	7.5
783.754	8.5
784.5	6.5
785.246	7.5
785.992	7.5
786.738	9.5
787.484	5.5
788.23	9.5
788.975	7.5
789.721	7.5
790.466	7.5
791.212	8.5
791.957	7.5
792.702	9.5
793.447	7.5
794.193	6.5
794.938	5.5
795.683	8.5
796.427	7.5
797.172	7.5
797.917	5.5
798.662	5.5
799.406	6.5
800.151	7.5
800.895	9.5
801.64	5.5
802.384	5.5
803.128	7.5
803.872	5.5
804.616	6.5
805.36	3.5
806.104	6.5
806.848	4.5
807.592	6.5
808.336	5.5
809.079	4.5
809.823	4.5
810.566	4.5
811.31	4.5
812.053	6.5
812.796	6.5
813.539	4.5
814.283	3.5
815.026	4.5
815.769	4.5
816.511	4.5
817.254	3.5
817.997	4.5
818.74	2.5
819.482	4.5
820.225	1.5
820.967	3.5
821.71	4.5
822.452	5.5
823.194	6.5
823.936	1.5
824.678	3.5
825.42	4.5
826.162	3.5
826.904	3.5
827.646	3.5
828.388	3.5
829.129	1.5
829.871	4.5
830.612	3.5
831.354	3.5
832.095	2.5
832.836	1.5
833.577	2.5
834.319	1.5
835.06	0.5
835.801	1.5
836.542	1.5
837.282	4.5
838.023	2.5
838.764	3.5
839.504	1.5
840.245	1.5
840.985	1.5
841.726	3.5
842.466	2.5
843.206	1.5
843.946	1.5
844.687	1.5
845.427	1.5
846.166	0.5
846.906	3.5
847.646	0.5
848.386	4.5
849.125	1.5
849.865	4.5
850.605	2.5
851.344	3.5
852.083	1.5
852.823	1.5
853.562	0.5
854.301	0.5
855.04	3.5
855.779	-0.5
856.518	2.5
857.257	2.5
857.995	0.5
858.734	0.5
859.473	0.5
860.211	3.5
860.95	3.5
861.688	2.5
862.426	3.5
863.165	0.5
863.903	0.5
864.641	3.5
865.379	1.5
866.117	2.5
866.855	1.5
867.593	1.5
868.33	1.5
869.068	-0.5
869.806	0.5
870.543	2.5
871.28	-1.5
872.018	0.5
872.755	2.5
873.492	0.5
874.229	2.5
874.967	-1.5
875.703	1.5
876.44	0.5
877.177	-2.5
877.914	0.5
878.651	1.5
879.387	4.5
880.124	-0.5
880.86	2.5
881.597	-1.5
882.333	-1.5
883.069	1.5
883.806	0.5
884.542	1.5
885.278	2.5
886.014	2.5
886.749	1.5
887.485	-0.5
888.221	-0.5
888.957	-0.5
889.692	-1.5
890.428	0.5
891.163	-0.5
891.899	0.5
892.634	-1.5
893.369	0.5
894.104	-1.5
894.839	-1.5
895.574	1.5
896.309	1.5
897.044	0.5
897.779	-3.5
898.514	1.5
899.248	-0.5
899.983	2.5
900.717	-0.5
901.452	2.5
902.186	0.5
902.92	1.5
903.654	-0.5
904.389	-1.5
905.123	-1.5
905.857	-0.5
906.59	-0.5
907.324	-0.5
908.058	-2.5
908.792	2.5
909.525	-0.5
910.259	-0.5
910.992	0.5
911.726	-0.5
912.459	-0.5
913.192	0.5
913.925	1.5
914.658	0.5
915.391	0.5
916.124	-0.5
916.857	-1.5
917.59	0.5
918.323	0.5
919.055	-0.5
919.788	-0.5
920.521	-0.5
921.253	0.5
921.985	-2.5
922.718	0.5
923.45	1.5
924.182	-2.5
924.914	-0.5
925.646	2.5
926.378	-0.5
927.11	0.5
927.841	-0.5
928.573	1.5
929.305	1.5
930.036	0.5
930.768	-0.5
931.499	0.5
932.23	0.5
932.962	-1.5
933.693	-0.5
934.424	0.5
935.155	1.5
935.886	-1.5
936.617	0.5
937.348	-0.5
938.078	0.5
938.809	2.5
939.54	0.5
940.27	0.5
941.001	-1.5
941.731	-0.5
942.461	-0.5
943.191	-0.5
943.922	0.5
944.652	-1.5
945.382	0.5
946.112	-2.5
946.841	-3.5
947.571	1.5
948.301	0.5
949.031	2.5
949.76	-0.5
950.49	-0.5
951.219	-0.5
951.948	1.5
952.678	-0.5
953.407	0.5
954.136	1.5
954.865	-0.5
955.594	0.5
956.323	-1.5
957.052	1.5
957.78	-0.5
958.509	0.5
959.238	1.5
959.966	-1.5
960.695	-1.5
961.423	-0.5
962.151	-1.5
962.88	-1.5
963.608	-0.5
964.336	1.5
965.064	-2.5
965.792	-2.5
966.52	-0.5
967.247	-3.5
967.975	-0.5
968.703	-0.5
969.43	1.5
970.158	0.5
970.885	-1.5
971.613	-1.5
972.34	1.5
973.067	0.5
973.794	-2.5
974.521	1.5
975.248	-1.5
975.975	0.5
976.702	1.5
977.429	0.5
978.156	0.5
978.882	-2.5
979.609	0.5
980.335	0.5
981.062	0.5
981.788	1.5
982.514	0.5
983.24	1.5
983.967	1.5
984.693	0.5
985.419	0.5
986.144	0.5
986.87	-0.5
987.596	-2.5
988.322	1.5
989.047	-0.5
989.773	0.5
990.498	0.5
991.224	-1.5
991.949	0.5
992.674	0.5
993.399	-1.5
994.124	0.5
994.849	-1.5
995.574	0.5
996.299	0.5
997.024	0.5
997.749	-1.5
998.473	0.5
999.198	-1.5
999.922	-1.5
1000.647	0.5
1001.371	4.5
1002.095	-1.5
1002.82	0.5
1003.544	-0.5
1004.268	0.5
1004.992	0.5
1005.716	-0.5
1006.439	-0.5
1007.163	1.5
1007.887	-0.5
1008.611	0.5
1009.334	1.5
1010.058	-0.5
1010.781	-2.5
1011.504	1.5
1012.228	-2.5
1012.951	-0.5
1013.674	-1.5
1014.397	0.5
1015.12	-1.5
