节点500_285_QEPB04081__638__15-06-10-062.txt的数据

Date: Wed Nov 12 15:06:10 CST 2025
User: PC
Spectrometer: QEPB0408
触发模式: 0
积分时间 (秒): 1.000000E-2
Scans to average: 1
启用暗噪声校正: true
启用非线性校正: false
滑动平均宽度: 0
X轴模式: Wavelengths
Number of Pixels in Spectrum: 1044
>>>>>Begin Spectral Data<<<<<
220.843	0.62
221.644	-2.38
222.444	1.62
223.244	-0.38
224.045	0.62
224.845	-0.38
225.645	4.62
226.445	1.62
227.245	1.62
228.045	3.62
228.845	1.62
229.645	3.62
230.444	1.62
231.244	4.62
232.043	3.62
232.843	3.62
233.642	3.62
234.442	1.62
235.241	2.62
236.04	2.62
236.839	4.62
237.638	4.62
238.437	5.62
239.236	3.62
240.035	2.62
240.833	5.62
241.632	2.62
242.43	3.62
243.229	4.62
244.027	2.62
244.826	4.62
245.624	3.62
246.422	5.62
247.22	1.62
248.018	5.62
248.816	5.62
249.614	4.62
250.412	8.62
251.21	5.62
252.007	3.62
252.805	4.62
253.602	7.62
254.4	6.62
255.197	6.62
255.994	9.62
256.791	6.62
257.589	7.62
258.386	8.62
259.183	6.62
259.979	9.62
260.776	7.62
261.573	7.62
262.37	7.62
263.166	8.62
263.963	12.62
264.759	9.62
265.556	11.62
266.352	8.62
267.148	12.62
267.944	11.62
268.74	11.62
269.536	11.62
270.332	10.62
271.128	15.62
271.924	13.62
272.719	14.62
273.515	14.62
274.311	14.62
275.106	16.62
275.901	13.62
276.697	15.62
277.492	15.62
278.287	13.62
279.082	17.62
279.877	17.62
280.672	17.62
281.467	19.62
282.262	18.62
283.056	18.62
283.851	13.62
284.646	14.62
285.44	16.62
286.234	17.62
287.029	16.62
287.823	16.62
288.617	15.62
289.411	19.62
290.205	19.62
290.999	14.62
291.793	17.62
292.587	15.62
293.381	18.62
294.174	17.62
294.968	16.62
295.761	14.62
296.555	13.62
297.348	14.62
298.141	13.62
298.935	16.62
299.728	15.62
300.521	13.62
301.314	13.62
302.107	11.62
302.899	15.62
303.692	9.62
304.485	11.62
305.277	10.62
306.07	10.62
306.862	13.62
307.655	11.62
308.447	13.62
309.239	8.62
310.031	9.62
310.823	12.62
311.615	10.62
312.407	9.62
313.199	10.62
313.991	10.62
314.783	11.62
315.574	6.62
316.366	9.62
317.157	5.62
317.949	8.62
318.74	8.62
319.531	8.62
320.322	8.62
321.113	6.62
321.904	6.62
322.695	6.62
323.486	5.62
324.277	7.62
325.068	5.62
325.858	7.62
326.649	6.62
327.439	6.62
328.23	7.62
329.02	6.62
329.81	5.62
330.6	4.62
331.391	8.62
332.181	4.62
332.971	2.62
333.76	7.62
334.55	7.62
335.34	5.62
336.13	5.62
336.919	9.62
337.709	4.62
338.498	5.62
339.287	5.62
340.077	4.62
340.866	5.62
341.655	6.62
342.444	5.62
343.233	5.62
344.022	4.62
344.811	4.62
345.6	2.62
346.388	6.62
347.177	5.62
347.965	6.62
348.754	8.62
349.542	5.62
350.33	4.62
351.119	3.62
351.907	4.62
352.695	5.62
353.483	4.62
354.271	4.62
355.059	4.62
355.846	3.62
356.634	7.62
357.422	5.62
358.209	5.62
358.997	5.62
359.784	4.62
360.571	6.62
361.359	4.62
362.146	4.62
362.933	4.62
363.72	2.62
364.507	4.62
365.294	4.62
366.081	4.62
366.867	5.62
367.654	5.62
368.44	6.62
369.227	4.62
370.013	2.62
370.8	4.62
371.586	4.62
372.372	6.62
373.158	4.62
373.944	3.62
374.73	4.62
375.516	3.62
376.302	4.62
377.088	1.62
377.873	4.62
378.659	3.62
379.445	2.62
380.23	6.62
381.015	3.62
381.801	1.62
382.586	3.62
383.371	0.62
384.156	6.62
384.941	3.62
385.726	4.62
386.511	1.62
387.296	6.62
388.08	3.62
388.865	5.62
389.649	3.62
390.434	3.62
391.218	4.62
392.003	5.62
392.787	4.62
393.571	4.62
394.355	5.62
395.139	5.62
395.923	5.62
396.707	6.62
397.491	4.62
398.274	5.62
399.058	8.62
399.842	4.62
400.625	4.62
401.408	4.62
402.192	7.62
402.975	4.62
403.758	6.62
404.541	5.62
405.324	6.62
406.107	5.62
406.89	4.62
407.673	9.62
408.456	7.62
409.238	7.62
410.021	5.62
410.803	6.62
411.586	7.62
412.368	7.62
413.151	6.62
413.933	7.62
414.715	8.62
415.497	9.62
416.279	9.62
417.061	9.62
417.843	7.62
418.624	8.62
419.406	9.62
420.188	9.62
420.969	11.62
421.751	9.62
422.532	10.62
423.313	8.62
424.095	12.62
424.876	11.62
425.657	10.62
426.438	13.62
427.219	9.62
428	11.62
428.78	12.62
429.561	10.62
430.342	12.62
431.122	13.62
431.903	12.62
432.683	12.62
433.464	17.62
434.244	15.62
435.024	17.62
435.804	16.62
436.584	16.62
437.364	18.62
438.144	18.62
438.924	20.62
439.704	21.62
440.483	21.62
441.263	22.62
442.042	20.62
442.822	26.62
443.601	29.62
444.38	27.62
445.16	32.62
445.939	34.62
446.718	34.62
447.497	39.62
448.276	42.62
449.054	47.62
449.833	51.62
450.612	52.62
451.391	59.62
452.169	66.62
452.948	76.62
453.726	80.62
454.504	88.62
455.282	98.62
456.061	110.62
456.839	116.62
457.617	138.62
458.395	145.62
459.172	165.62
459.95	186.62
460.728	197.62
461.506	222.62
462.283	252.62
463.061	281.62
463.838	311.62
464.615	348.62
465.393	386.62
466.17	426.62
466.947	477.62
467.724	533.62
468.501	592.62
469.278	649.62
470.055	726.62
470.831	803.62
471.608	896.62
472.385	986.62
473.161	1088.62
473.938	1208.62
474.714	1335.62
475.49	1467.62
476.266	1614.62
477.043	1765.62
477.819	1920.62
478.595	2136.62
479.371	2352.62
480.146	2567.62
480.922	2809.62
481.698	3095.62
482.473	3393.62
483.249	3698.62
484.024	4075.62
484.8	4447.62
485.575	4852.62
486.35	5313.62
487.126	5785.62
487.901	6320.62
488.676	6877.62
489.451	7514.62
490.225	8185.62
491	8853.62
491.775	9711.62
492.55	10488.62
493.324	11363.62
494.099	12196.62
494.873	13073.62
495.647	14115.62
496.422	15125.62
497.196	16197.62
497.97	17263.62
498.744	18354.62
499.518	19460.62
500.292	20485.62
501.066	21543.62
501.839	22534.62
502.613	23352.62
503.387	24239.62
504.16	24892.62
504.934	25349.62
505.707	25730.62
506.48	25855.62
507.253	25947.62
508.027	25894.62
508.8	25730.62
509.573	25505.62
510.346	25136.62
511.118	24391.62
511.891	23860.62
512.664	23265.62
513.437	22422.62
514.209	21572.62
514.982	20744.62
515.754	19911.62
516.526	19090.62
517.298	18353.62
518.071	17568.62
518.843	16860.62
519.615	16243.62
520.387	15606.62
521.159	15017.62
521.93	14386.62
522.702	13759.62
523.474	13277.62
524.245	12682.62
525.017	12176.62
525.788	11653.62
526.56	11202.62
527.331	10661.62
528.102	10197.62
528.873	9725.62
529.644	9316.62
530.415	8908.62
531.186	8432.62
531.957	8015.62
532.728	7655.62
533.498	7251.62
534.269	6847.62
535.039	6495.62
535.81	6136.62
536.58	5800.62
537.351	5475.62
538.121	5160.62
538.891	4897.62
539.661	4637.62
540.431	4379.62
541.201	4130.62
541.971	3913.62
542.741	3719.62
543.51	3519.62
544.28	3345.62
545.05	3198.62
545.819	3027.62
546.588	2881.62
547.358	2749.62
548.127	2605.62
548.896	2473.62
549.665	2358.62
550.434	2247.62
551.203	2113.62
551.972	2024.62
552.741	1883.62
553.51	1789.62
554.278	1693.62
555.047	1600.62
555.815	1513.62
556.584	1433.62
557.352	1351.62
558.121	1270.62
558.889	1179.62
559.657	1138.62
560.425	1074.62
561.193	996.62
561.961	958.62
562.729	896.62
563.496	847.62
564.264	811.62
565.032	763.62
565.799	710.62
566.567	693.62
567.334	642.62
568.101	608.62
568.869	586.62
569.636	540.62
570.403	513.62
571.17	478.62
571.937	451.62
572.704	432.62
573.471	400.62
574.237	381.62
575.004	357.62
575.771	336.62
576.537	313.62
577.303	305.62
578.07	283.62
578.836	267.62
579.602	254.62
580.368	236.62
581.134	224.62
581.9	213.62
582.666	201.62
583.432	193.62
584.198	180.62
584.964	172.62
585.729	165.62
586.495	149.62
587.26	148.62
588.025	135.62
588.791	129.62
589.556	123.62
590.321	120.62
591.086	113.62
591.851	105.62
592.616	98.62
593.381	96.62
594.146	91.62
594.911	87.62
595.675	78.62
596.44	79.62
597.204	76.62
597.969	71.62
598.733	72.62
599.497	65.62
600.261	62.62
601.025	55.62
601.79	56.62
602.553	53.62
603.317	50.62
604.081	49.62
604.845	46.62
605.609	45.62
606.372	42.62
607.136	44.62
607.899	41.62
608.662	40.62
609.426	38.62
610.189	36.62
610.952	33.62
611.715	33.62
612.478	28.62
613.241	32.62
614.004	27.62
614.767	27.62
615.529	27.62
616.292	24.62
617.055	21.62
617.817	25.62
618.579	22.62
619.342	22.62
620.104	22.62
620.866	20.62
621.628	18.62
622.39	19.62
623.152	16.62
623.914	18.62
624.676	17.62
625.438	15.62
626.199	18.62
626.961	12.62
627.722	16.62
628.484	15.62
629.245	13.62
630.006	12.62
630.768	13.62
631.529	13.62
632.29	12.62
633.051	13.62
633.812	9.62
634.573	12.62
635.333	10.62
636.094	12.62
636.855	8.62
637.615	9.62
638.376	12.62
639.136	10.62
639.896	8.62
640.657	9.62
641.417	8.62
642.177	10.62
642.937	8.62
643.697	9.62
644.457	8.62
645.216	8.62
645.976	9.62
646.736	7.62
647.495	9.62
648.255	7.62
649.014	7.62
649.774	5.62
650.533	6.62
651.292	7.62
652.051	7.62
652.81	5.62
653.569	7.62
654.328	6.62
655.087	4.62
655.846	4.62
656.604	5.62
657.363	2.62
658.121	5.62
658.88	6.62
659.638	5.62
660.397	4.62
661.155	1.62
661.913	4.62
662.671	4.62
663.429	4.62
664.187	2.62
664.945	5.62
665.703	4.62
666.46	4.62
667.218	3.62
667.976	4.62
668.733	5.62
669.49	5.62
670.248	5.62
671.005	3.62
671.762	3.62
672.519	4.62
673.276	4.62
674.033	4.62
674.79	2.62
675.547	3.62
676.304	4.62
677.06	4.62
677.817	4.62
678.574	3.62
679.33	4.62
680.086	4.62
680.843	1.62
681.599	4.62
682.355	2.62
683.111	5.62
683.867	3.62
684.623	2.62
685.379	2.62
686.135	2.62
686.89	3.62
687.646	4.62
688.402	1.62
689.157	2.62
689.912	2.62
690.668	4.62
691.423	2.62
692.178	4.62
692.933	1.62
693.688	5.62
694.443	2.62
695.198	2.62
695.953	1.62
696.708	2.62
697.462	1.62
698.217	3.62
698.972	3.62
699.726	2.62
700.48	1.62
701.235	3.62
701.989	3.62
702.743	4.62
703.497	0.62
704.251	3.62
705.005	1.62
705.759	2.62
706.513	3.62
707.266	4.62
708.02	2.62
708.774	2.62
709.527	2.62
710.28	3.62
711.034	0.62
711.787	4.62
712.54	3.62
713.293	2.62
714.046	2.62
714.799	3.62
715.552	3.62
716.305	2.62
717.058	3.62
717.81	2.62
718.563	2.62
719.315	5.62
720.068	5.62
720.82	5.62
721.573	4.62
722.325	2.62
723.077	2.62
723.829	1.62
724.581	3.62
725.333	3.62
726.085	2.62
726.836	5.62
727.588	0.62
728.34	5.62
729.091	1.62
729.843	3.62
730.594	4.62
731.346	2.62
732.097	3.62
732.848	2.62
733.599	3.62
734.35	1.62
735.101	4.62
735.852	5.62
736.603	2.62
737.354	3.62
738.104	4.62
738.855	2.62
739.605	5.62
740.356	5.62
741.106	1.62
741.856	4.62
742.607	4.62
743.357	1.62
744.107	3.62
744.857	5.62
745.607	4.62
746.357	3.62
747.106	2.62
747.856	5.62
748.606	1.62
749.355	4.62
750.105	3.62
750.854	4.62
751.603	4.62
752.353	3.62
753.102	6.62
753.851	3.62
754.6	5.62
755.349	3.62
756.098	5.62
756.847	4.62
757.595	5.62
758.344	4.62
759.093	3.62
759.841	6.62
760.589	2.62
761.338	6.62
762.086	6.62
762.834	5.62
763.582	7.62
764.331	5.62
765.079	5.62
765.826	4.62
766.574	6.62
767.322	5.62
768.07	3.62
768.817	4.62
769.565	4.62
770.312	9.62
771.06	8.62
771.807	6.62
772.554	5.62
773.302	7.62
774.049	6.62
774.796	6.62
775.543	6.62
776.29	8.62
777.036	5.62
777.783	7.62
778.53	6.62
779.276	6.62
780.023	7.62
780.769	7.62
781.516	6.62
782.262	8.62
783.008	6.62
783.754	6.62
784.5	6.62
785.246	8.62
785.992	7.62
786.738	9.62
787.484	8.62
788.23	7.62
788.975	6.62
789.721	7.62
790.466	6.62
791.212	7.62
791.957	8.62
792.702	7.62
793.447	9.62
794.193	6.62
794.938	6.62
795.683	8.62
796.427	8.62
797.172	8.62
797.917	5.62
798.662	7.62
799.406	7.62
800.151	6.62
800.895	8.62
801.64	5.62
802.384	7.62
803.128	8.62
803.872	5.62
804.616	6.62
805.36	5.62
806.104	6.62
806.848	5.62
807.592	7.62
808.336	5.62
809.079	4.62
809.823	5.62
810.566	5.62
811.31	6.62
812.053	5.62
812.796	4.62
813.539	7.62
814.283	3.62
815.026	5.62
815.769	1.62
816.511	3.62
817.254	4.62
817.997	3.62
818.74	5.62
819.482	3.62
820.225	3.62
820.967	4.62
821.71	4.62
822.452	4.62
823.194	4.62
823.936	3.62
824.678	2.62
825.42	4.62
826.162	3.62
826.904	3.62
827.646	5.62
828.388	5.62
829.129	5.62
829.871	1.62
830.612	6.62
831.354	1.62
832.095	5.62
832.836	2.62
833.577	2.62
834.319	2.62
835.06	0.62
835.801	3.62
836.542	3.62
837.282	3.62
838.023	4.62
838.764	1.62
839.504	4.62
840.245	2.62
840.985	4.62
841.726	1.62
842.466	2.62
843.206	5.62
843.946	2.62
844.687	3.62
845.427	3.62
846.166	2.62
846.906	1.62
847.646	3.62
848.386	3.62
849.125	0.62
849.865	1.62
850.605	3.62
851.344	3.62
852.083	2.62
852.823	1.62
853.562	5.62
854.301	-0.38
855.04	-0.38
855.779	4.62
856.518	2.62
857.257	2.62
857.995	2.62
858.734	4.62
859.473	2.62
860.211	3.62
860.95	0.62
861.688	0.62
862.426	0.62
863.165	0.62
863.903	2.62
864.641	0.62
865.379	0.62
866.117	2.62
866.855	2.62
867.593	0.62
868.33	2.62
869.068	1.62
869.806	0.62
870.543	1.62
871.28	1.62
872.018	2.62
872.755	5.62
873.492	-0.38
874.229	1.62
874.967	2.62
875.703	2.62
876.44	0.62
877.177	0.62
877.914	2.62
878.651	-0.38
879.387	-0.38
880.124	0.62
880.86	0.62
881.597	2.62
882.333	0.62
883.069	0.62
883.806	0.62
884.542	1.62
885.278	-0.38
886.014	1.62
886.749	-0.38
887.485	1.62
888.221	1.62
888.957	0.62
889.692	-0.38
890.428	1.62
891.163	0.62
891.899	1.62
892.634	-2.38
893.369	0.62
894.104	1.62
894.839	0.62
895.574	0.62
896.309	0.62
897.044	-0.38
897.779	-0.38
898.514	-0.38
899.248	0.62
899.983	0.62
900.717	0.62
901.452	-1.38
902.186	1.62
902.92	-0.38
903.654	0.62
904.389	1.62
905.123	1.62
905.857	1.62
906.59	-0.38
907.324	1.62
908.058	1.62
908.792	-0.38
909.525	0.62
910.259	-0.38
910.992	-0.38
911.726	-0.38
912.459	-0.38
913.192	-0.38
913.925	-2.38
914.658	-1.38
915.391	1.62
916.124	1.62
916.857	-0.38
917.59	-0.38
918.323	0.62
919.055	-1.38
919.788	1.62
920.521	1.62
921.253	2.62
921.985	1.62
922.718	-2.38
923.45	1.62
924.182	1.62
924.914	-0.38
925.646	-1.38
926.378	2.62
927.11	-0.38
927.841	-0.38
928.573	1.62
929.305	-2.38
930.036	1.62
930.768	-0.38
931.499	1.62
932.23	0.62
932.962	-0.38
933.693	1.62
934.424	-1.38
935.155	0.62
935.886	-1.38
936.617	0.62
937.348	1.62
938.078	0.62
938.809	0.62
939.54	0.62
940.27	0.62
941.001	1.62
941.731	0.62
942.461	-2.38
943.191	0.62
943.922	1.62
944.652	-0.38
945.382	1.62
946.112	-0.38
946.841	-2.38
947.571	1.62
948.301	-0.38
949.031	-0.38
949.76	-0.38
950.49	-0.38
951.219	-0.38
951.948	0.62
952.678	-0.38
953.407	-1.38
954.136	-0.38
954.865	-1.38
955.594	0.62
956.323	-0.38
957.052	-0.38
957.78	1.62
958.509	1.62
959.238	-0.38
959.966	-0.38
960.695	0.62
961.423	-1.38
962.151	1.62
962.88	1.62
963.608	-0.38
964.336	-0.38
965.064	-0.38
965.792	-0.38
966.52	-0.38
967.247	-1.38
967.975	-2.38
968.703	-0.38
969.43	-0.38
970.158	-2.38
970.885	-2.38
971.613	0.62
972.34	-3.38
973.067	1.62
973.794	-1.38
974.521	-1.38
975.248	0.62
975.975	1.62
976.702	0.62
977.429	1.62
978.156	-0.38
978.882	0.62
979.609	-1.38
980.335	-1.38
981.062	0.62
981.788	0.62
982.514	-0.38
983.24	0.62
983.967	1.62
984.693	0.62
985.419	-0.38
986.144	-2.38
986.87	2.62
987.596	0.62
988.322	-0.38
989.047	0.62
989.773	-2.38
990.498	0.62
991.224	-0.38
991.949	-0.38
992.674	-0.38
993.399	-0.38
994.124	1.62
994.849	-2.38
995.574	-0.38
996.299	-2.38
997.024	-0.38
997.749	-0.38
998.473	-2.38
999.198	-0.38
999.922	0.62
1000.647	0.62
1001.371	3.62
1002.095	-3.38
1002.82	0.62
1003.544	-2.38
1004.268	-0.38
1004.992	2.62
1005.716	-0.38
1006.439	0.62
1007.163	-0.38
1007.887	1.62
1008.611	-0.38
1009.334	-1.38
1010.058	-0.38
1010.781	-0.38
1011.504	-0.38
1012.228	-1.38
1012.951	2.62
1013.674	-0.38
1014.397	-1.38
1015.12	0.62
