节点500_285_QEPB04081__778__15-08-29-788.txt的数据

Date: Wed Nov 12 15:08:29 CST 2025
User: PC
Spectrometer: QEPB0408
触发模式: 0
积分时间 (秒): 1.000000E-2
Scans to average: 1
启用暗噪声校正: true
启用非线性校正: false
滑动平均宽度: 0
X轴模式: Wavelengths
Number of Pixels in Spectrum: 1044
>>>>>Begin Spectral Data<<<<<
220.843	0.62
221.644	1.62
222.444	-0.38
223.244	3.62
224.045	3.62
224.845	2.62
225.645	0.62
226.445	1.62
227.245	1.62
228.045	2.62
228.845	0.62
229.645	1.62
230.444	2.62
231.244	5.62
232.043	2.62
232.843	1.62
233.642	5.62
234.442	1.62
235.241	1.62
236.04	1.62
236.839	5.62
237.638	4.62
238.437	3.62
239.236	1.62
240.035	4.62
240.833	4.62
241.632	2.62
242.43	3.62
243.229	3.62
244.027	2.62
244.826	5.62
245.624	2.62
246.422	5.62
247.22	2.62
248.018	4.62
248.816	4.62
249.614	6.62
250.412	2.62
251.21	5.62
252.007	6.62
252.805	5.62
253.602	7.62
254.4	6.62
255.197	6.62
255.994	6.62
256.791	6.62
257.589	6.62
258.386	6.62
259.183	9.62
259.979	9.62
260.776	9.62
261.573	9.62
262.37	8.62
263.166	8.62
263.963	6.62
264.759	11.62
265.556	11.62
266.352	9.62
267.148	9.62
267.944	9.62
268.74	12.62
269.536	11.62
270.332	14.62
271.128	16.62
271.924	11.62
272.719	13.62
273.515	13.62
274.311	14.62
275.106	12.62
275.901	14.62
276.697	13.62
277.492	13.62
278.287	17.62
279.082	13.62
279.877	15.62
280.672	16.62
281.467	19.62
282.262	17.62
283.056	15.62
283.851	17.62
284.646	15.62
285.44	16.62
286.234	15.62
287.029	15.62
287.823	19.62
288.617	14.62
289.411	17.62
290.205	14.62
290.999	20.62
291.793	17.62
292.587	17.62
293.381	18.62
294.174	15.62
294.968	11.62
295.761	15.62
296.555	16.62
297.348	12.62
298.141	11.62
298.935	15.62
299.728	15.62
300.521	14.62
301.314	13.62
302.107	11.62
302.899	13.62
303.692	13.62
304.485	12.62
305.277	10.62
306.07	13.62
306.862	12.62
307.655	14.62
308.447	11.62
309.239	10.62
310.031	8.62
310.823	7.62
311.615	11.62
312.407	8.62
313.199	10.62
313.991	8.62
314.783	10.62
315.574	8.62
316.366	9.62
317.157	10.62
317.949	7.62
318.74	7.62
319.531	10.62
320.322	8.62
321.113	7.62
321.904	9.62
322.695	4.62
323.486	8.62
324.277	5.62
325.068	5.62
325.858	4.62
326.649	7.62
327.439	8.62
328.23	6.62
329.02	4.62
329.81	6.62
330.6	5.62
331.391	7.62
332.181	7.62
332.971	4.62
333.76	4.62
334.55	5.62
335.34	7.62
336.13	6.62
336.919	5.62
337.709	7.62
338.498	7.62
339.287	4.62
340.077	4.62
340.866	5.62
341.655	5.62
342.444	4.62
343.233	5.62
344.022	6.62
344.811	5.62
345.6	4.62
346.388	3.62
347.177	5.62
347.965	3.62
348.754	6.62
349.542	4.62
350.33	4.62
351.119	5.62
351.907	5.62
352.695	4.62
353.483	4.62
354.271	4.62
355.059	4.62
355.846	5.62
356.634	4.62
357.422	4.62
358.209	4.62
358.997	4.62
359.784	3.62
360.571	5.62
361.359	4.62
362.146	5.62
362.933	3.62
363.72	4.62
364.507	5.62
365.294	5.62
366.081	6.62
366.867	1.62
367.654	5.62
368.44	3.62
369.227	4.62
370.013	4.62
370.8	3.62
371.586	5.62
372.372	3.62
373.158	4.62
373.944	3.62
374.73	5.62
375.516	3.62
376.302	5.62
377.088	7.62
377.873	4.62
378.659	5.62
379.445	4.62
380.23	4.62
381.015	6.62
381.801	1.62
382.586	3.62
383.371	3.62
384.156	5.62
384.941	5.62
385.726	6.62
386.511	4.62
387.296	3.62
388.08	4.62
388.865	5.62
389.649	6.62
390.434	5.62
391.218	3.62
392.003	4.62
392.787	4.62
393.571	6.62
394.355	4.62
395.139	6.62
395.923	7.62
396.707	7.62
397.491	6.62
398.274	6.62
399.058	5.62
399.842	6.62
400.625	5.62
401.408	7.62
402.192	6.62
402.975	5.62
403.758	5.62
404.541	5.62
405.324	7.62
406.107	9.62
406.89	7.62
407.673	7.62
408.456	6.62
409.238	9.62
410.021	7.62
410.803	8.62
411.586	11.62
412.368	9.62
413.151	7.62
413.933	9.62
414.715	8.62
415.497	8.62
416.279	8.62
417.061	7.62
417.843	7.62
418.624	9.62
419.406	6.62
420.188	10.62
420.969	8.62
421.751	11.62
422.532	9.62
423.313	9.62
424.095	9.62
424.876	10.62
425.657	12.62
426.438	11.62
427.219	11.62
428	11.62
428.78	13.62
429.561	12.62
430.342	11.62
431.122	13.62
431.903	12.62
432.683	14.62
433.464	15.62
434.244	13.62
435.024	16.62
435.804	17.62
436.584	17.62
437.364	18.62
438.144	19.62
438.924	20.62
439.704	19.62
440.483	24.62
441.263	24.62
442.042	26.62
442.822	25.62
443.601	28.62
444.38	29.62
445.16	35.62
445.939	34.62
446.718	37.62
447.497	40.62
448.276	45.62
449.054	47.62
449.833	52.62
450.612	56.62
451.391	66.62
452.169	68.62
452.948	74.62
453.726	80.62
454.504	92.62
455.282	97.62
456.061	113.62
456.839	124.62
457.617	136.62
458.395	148.62
459.172	168.62
459.95	193.62
460.728	214.62
461.506	232.62
462.283	256.62
463.061	287.62
463.838	315.62
464.615	353.62
465.393	393.62
466.17	439.62
466.947	483.62
467.724	545.62
468.501	602.62
469.278	666.62
470.055	731.62
470.831	811.62
471.608	913.62
472.385	999.62
473.161	1105.62
473.938	1223.62
474.714	1328.62
475.49	1464.62
476.266	1603.62
477.043	1762.62
477.819	1941.62
478.595	2136.62
479.371	2310.62
480.146	2552.62
480.922	2807.62
481.698	3067.62
482.473	3345.62
483.249	3636.62
484.024	3997.62
484.8	4327.62
485.575	4731.62
486.35	5170.62
487.126	5617.62
487.901	6142.62
488.676	6680.62
489.451	7256.62
490.225	7902.62
491	8577.62
491.775	9315.62
492.55	10136.62
493.324	10892.62
494.099	11664.62
494.873	12560.62
495.647	13501.62
496.422	14488.62
497.196	15450.62
497.97	16522.62
498.744	17538.62
499.518	18597.62
500.292	19655.62
501.066	20642.62
501.839	21537.62
502.613	22423.62
503.387	23278.62
504.16	23981.62
504.934	24417.62
505.707	24752.62
506.48	25049.62
507.253	25136.62
508.027	25177.62
508.8	25125.62
509.573	25053.62
510.346	24636.62
511.118	24157.62
511.891	23575.62
512.664	22901.62
513.437	22231.62
514.209	21435.62
514.982	20701.62
515.754	19941.62
516.526	19039.62
517.298	18316.62
518.071	17590.62
518.843	16879.62
519.615	16285.62
520.387	15621.62
521.159	15035.62
521.93	14397.62
522.702	13902.62
523.474	13304.62
524.245	12705.62
525.017	12188.62
525.788	11757.62
526.56	11252.62
527.331	10713.62
528.102	10261.62
528.873	9789.62
529.644	9401.62
530.415	8933.62
531.186	8502.62
531.957	8076.62
532.728	7713.62
533.498	7339.62
534.269	6922.62
535.039	6598.62
535.81	6235.62
536.58	5867.62
537.351	5537.62
538.121	5237.62
538.891	4963.62
539.661	4705.62
540.431	4469.62
541.201	4207.62
541.971	3969.62
542.741	3770.62
543.51	3592.62
544.28	3405.62
545.05	3236.62
545.819	3097.62
546.588	2926.62
547.358	2766.62
548.127	2621.62
548.896	2517.62
549.665	2398.62
550.434	2248.62
551.203	2147.62
551.972	2041.62
552.741	1917.62
553.51	1849.62
554.278	1741.62
555.047	1647.62
555.815	1546.62
556.584	1457.62
557.352	1386.62
558.121	1309.62
558.889	1234.62
559.657	1167.62
560.425	1099.62
561.193	1033.62
561.961	975.62
562.729	940.62
563.496	872.62
564.264	831.62
565.032	784.62
565.799	736.62
566.567	694.62
567.334	660.62
568.101	628.62
568.869	585.62
569.636	554.62
570.403	527.62
571.17	484.62
571.937	468.62
572.704	432.62
573.471	405.62
574.237	393.62
575.004	363.62
575.771	353.62
576.537	329.62
577.303	308.62
578.07	289.62
578.836	274.62
579.602	259.62
580.368	242.62
581.134	233.62
581.9	218.62
582.666	207.62
583.432	196.62
584.198	193.62
584.964	180.62
585.729	170.62
586.495	156.62
587.26	149.62
588.025	142.62
588.791	136.62
589.556	124.62
590.321	122.62
591.086	113.62
591.851	107.62
592.616	106.62
593.381	95.62
594.146	92.62
594.911	90.62
595.675	92.62
596.44	82.62
597.204	71.62
597.969	74.62
598.733	68.62
599.497	69.62
600.261	64.62
601.025	59.62
601.79	56.62
602.553	56.62
603.317	53.62
604.081	51.62
604.845	48.62
605.609	46.62
606.372	42.62
607.136	44.62
607.899	45.62
608.662	39.62
609.426	37.62
610.189	37.62
610.952	35.62
611.715	31.62
612.478	30.62
613.241	31.62
614.004	32.62
614.767	27.62
615.529	30.62
616.292	26.62
617.055	26.62
617.817	26.62
618.579	24.62
619.342	22.62
620.104	19.62
620.866	22.62
621.628	17.62
622.39	21.62
623.152	20.62
623.914	14.62
624.676	17.62
625.438	15.62
626.199	16.62
626.961	17.62
627.722	15.62
628.484	11.62
629.245	13.62
630.006	14.62
630.768	13.62
631.529	14.62
632.29	12.62
633.051	12.62
633.812	14.62
634.573	12.62
635.333	13.62
636.094	10.62
636.855	9.62
637.615	12.62
638.376	9.62
639.136	9.62
639.896	8.62
640.657	10.62
641.417	8.62
642.177	8.62
642.937	8.62
643.697	7.62
644.457	8.62
645.216	8.62
645.976	9.62
646.736	6.62
647.495	5.62
648.255	6.62
649.014	7.62
649.774	8.62
650.533	6.62
651.292	5.62
652.051	7.62
652.81	7.62
653.569	7.62
654.328	7.62
655.087	7.62
655.846	5.62
656.604	9.62
657.363	6.62
658.121	4.62
658.88	6.62
659.638	2.62
660.397	5.62
661.155	6.62
661.913	4.62
662.671	4.62
663.429	4.62
664.187	2.62
664.945	5.62
665.703	5.62
666.46	3.62
667.218	5.62
667.976	4.62
668.733	5.62
669.49	3.62
670.248	4.62
671.005	2.62
671.762	4.62
672.519	6.62
673.276	4.62
674.033	2.62
674.79	6.62
675.547	4.62
676.304	3.62
677.06	5.62
677.817	2.62
678.574	3.62
679.33	4.62
680.086	4.62
680.843	3.62
681.599	5.62
682.355	2.62
683.111	3.62
683.867	1.62
684.623	3.62
685.379	3.62
686.135	3.62
686.89	3.62
687.646	2.62
688.402	4.62
689.157	4.62
689.912	2.62
690.668	3.62
691.423	2.62
692.178	2.62
692.933	3.62
693.688	4.62
694.443	1.62
695.198	1.62
695.953	5.62
696.708	4.62
697.462	2.62
698.217	3.62
698.972	1.62
699.726	6.62
700.48	1.62
701.235	3.62
701.989	2.62
702.743	3.62
703.497	3.62
704.251	1.62
705.005	2.62
705.759	4.62
706.513	3.62
707.266	1.62
708.02	5.62
708.774	4.62
709.527	3.62
710.28	2.62
711.034	3.62
711.787	3.62
712.54	2.62
713.293	1.62
714.046	3.62
714.799	1.62
715.552	3.62
716.305	4.62
717.058	3.62
717.81	3.62
718.563	0.62
719.315	4.62
720.068	3.62
720.82	3.62
721.573	2.62
722.325	3.62
723.077	1.62
723.829	3.62
724.581	4.62
725.333	1.62
726.085	2.62
726.836	1.62
727.588	3.62
728.34	3.62
729.091	3.62
729.843	1.62
730.594	4.62
731.346	3.62
732.097	1.62
732.848	2.62
733.599	3.62
734.35	4.62
735.101	4.62
735.852	3.62
736.603	3.62
737.354	4.62
738.104	2.62
738.855	2.62
739.605	4.62
740.356	5.62
741.106	3.62
741.856	4.62
742.607	2.62
743.357	4.62
744.107	2.62
744.857	5.62
745.607	2.62
746.357	3.62
747.106	4.62
747.856	3.62
748.606	4.62
749.355	4.62
750.105	5.62
750.854	4.62
751.603	4.62
752.353	2.62
753.102	2.62
753.851	5.62
754.6	3.62
755.349	6.62
756.098	4.62
756.847	3.62
757.595	5.62
758.344	2.62
759.093	1.62
759.841	6.62
760.589	2.62
761.338	5.62
762.086	5.62
762.834	3.62
763.582	6.62
764.331	7.62
765.079	6.62
765.826	6.62
766.574	3.62
767.322	6.62
768.07	4.62
768.817	5.62
769.565	7.62
770.312	6.62
771.06	5.62
771.807	4.62
772.554	8.62
773.302	6.62
774.049	3.62
774.796	6.62
775.543	5.62
776.29	7.62
777.036	4.62
777.783	7.62
778.53	5.62
779.276	7.62
780.023	7.62
780.769	7.62
781.516	5.62
782.262	5.62
783.008	5.62
783.754	9.62
784.5	6.62
785.246	6.62
785.992	6.62
786.738	5.62
787.484	9.62
788.23	8.62
788.975	7.62
789.721	8.62
790.466	8.62
791.212	5.62
791.957	7.62
792.702	9.62
793.447	5.62
794.193	7.62
794.938	6.62
795.683	5.62
796.427	7.62
797.172	7.62
797.917	6.62
798.662	4.62
799.406	7.62
800.151	5.62
800.895	8.62
801.64	5.62
802.384	6.62
803.128	8.62
803.872	5.62
804.616	3.62
805.36	6.62
806.104	8.62
806.848	4.62
807.592	4.62
808.336	4.62
809.079	3.62
809.823	2.62
810.566	1.62
811.31	2.62
812.053	5.62
812.796	4.62
813.539	4.62
814.283	6.62
815.026	4.62
815.769	4.62
816.511	4.62
817.254	3.62
817.997	4.62
818.74	3.62
819.482	0.62
820.225	6.62
820.967	4.62
821.71	4.62
822.452	3.62
823.194	4.62
823.936	4.62
824.678	3.62
825.42	4.62
826.162	5.62
826.904	5.62
827.646	4.62
828.388	0.62
829.129	1.62
829.871	1.62
830.612	2.62
831.354	3.62
832.095	3.62
832.836	3.62
833.577	2.62
834.319	4.62
835.06	1.62
835.801	3.62
836.542	3.62
837.282	1.62
838.023	6.62
838.764	3.62
839.504	5.62
840.245	2.62
840.985	2.62
841.726	2.62
842.466	2.62
843.206	3.62
843.946	4.62
844.687	3.62
845.427	0.62
846.166	2.62
846.906	2.62
847.646	3.62
848.386	4.62
849.125	1.62
849.865	2.62
850.605	2.62
851.344	1.62
852.083	3.62
852.823	1.62
853.562	1.62
854.301	1.62
855.04	3.62
855.779	1.62
856.518	2.62
857.257	-1.38
857.995	-1.38
858.734	0.62
859.473	-0.38
860.211	1.62
860.95	3.62
861.688	1.62
862.426	0.62
863.165	0.62
863.903	2.62
864.641	1.62
865.379	1.62
866.117	2.62
866.855	1.62
867.593	1.62
868.33	1.62
869.068	2.62
869.806	2.62
870.543	0.62
871.28	1.62
872.018	2.62
872.755	0.62
873.492	0.62
874.229	1.62
874.967	1.62
875.703	1.62
876.44	0.62
877.177	1.62
877.914	2.62
878.651	1.62
879.387	1.62
880.124	1.62
880.86	0.62
881.597	1.62
882.333	-0.38
883.069	1.62
883.806	1.62
884.542	2.62
885.278	1.62
886.014	0.62
886.749	0.62
887.485	1.62
888.221	1.62
888.957	3.62
889.692	3.62
890.428	2.62
891.163	-0.38
891.899	0.62
892.634	0.62
893.369	2.62
894.104	0.62
894.839	1.62
895.574	1.62
896.309	-0.38
897.044	0.62
897.779	-0.38
898.514	0.62
899.248	-0.38
899.983	1.62
900.717	0.62
901.452	-0.38
902.186	-0.38
902.92	-0.38
903.654	0.62
904.389	-0.38
905.123	-0.38
905.857	1.62
906.59	-0.38
907.324	-1.38
908.058	-1.38
908.792	0.62
909.525	0.62
910.259	0.62
910.992	-0.38
911.726	-1.38
912.459	0.62
913.192	-2.38
913.925	1.62
914.658	-1.38
915.391	-2.38
916.124	-2.38
916.857	-2.38
917.59	0.62
918.323	-0.38
919.055	-0.38
919.788	2.62
920.521	-0.38
921.253	-0.38
921.985	-1.38
922.718	1.62
923.45	-0.38
924.182	1.62
924.914	0.62
925.646	-0.38
926.378	0.62
927.11	-0.38
927.841	-0.38
928.573	0.62
929.305	0.62
930.036	-0.38
930.768	0.62
931.499	1.62
932.23	1.62
932.962	0.62
933.693	-0.38
934.424	0.62
935.155	0.62
935.886	-0.38
936.617	-1.38
937.348	0.62
938.078	0.62
938.809	0.62
939.54	-2.38
940.27	0.62
941.001	-0.38
941.731	1.62
942.461	-0.38
943.191	1.62
943.922	-2.38
944.652	-0.38
945.382	-0.38
946.112	-1.38
946.841	-0.38
947.571	-0.38
948.301	-2.38
949.031	1.62
949.76	-1.38
950.49	0.62
951.219	-1.38
951.948	1.62
952.678	-1.38
953.407	0.62
954.136	1.62
954.865	-2.38
955.594	0.62
956.323	1.62
957.052	-0.38
957.78	-0.38
958.509	1.62
959.238	-0.38
959.966	1.62
960.695	-0.38
961.423	-1.38
962.151	-0.38
962.88	-1.38
963.608	-2.38
964.336	0.62
965.064	-1.38
965.792	0.62
966.52	-1.38
967.247	-0.38
967.975	-1.38
968.703	-0.38
969.43	0.62
970.158	-2.38
970.885	0.62
971.613	-0.38
972.34	-1.38
973.067	0.62
973.794	-2.38
974.521	0.62
975.248	-0.38
975.975	-0.38
976.702	0.62
977.429	-0.38
978.156	-0.38
978.882	0.62
979.609	-0.38
980.335	-2.38
981.062	-0.38
981.788	0.62
982.514	-0.38
983.24	1.62
983.967	-2.38
984.693	-0.38
985.419	-0.38
986.144	-0.38
986.87	-2.38
987.596	-1.38
988.322	2.62
989.047	-2.38
989.773	-0.38
990.498	-2.38
991.224	-0.38
991.949	0.62
992.674	-0.38
993.399	0.62
994.124	0.62
994.849	0.62
995.574	-1.38
996.299	-2.38
997.024	-1.38
997.749	-0.38
998.473	0.62
999.198	-2.38
999.922	-1.38
1000.647	-1.38
1001.371	3.62
1002.095	-3.38
1002.82	1.62
1003.544	-1.38
1004.268	0.62
1004.992	-0.38
1005.716	-0.38
1006.439	-0.38
1007.163	2.62
1007.887	-1.38
1008.611	-2.38
1009.334	0.62
1010.058	-0.38
1010.781	0.62
1011.504	-2.38
1012.228	1.62
1012.951	0.62
1013.674	0.62
1014.397	-0.38
1015.12	-1.38
