节点500_285_QEPB04081__845__15-09-36-720.txt的数据

Date: Wed Nov 12 15:09:36 CST 2025
User: PC
Spectrometer: QEPB0408
触发模式: 0
积分时间 (秒): 1.000000E-2
Scans to average: 1
启用暗噪声校正: true
启用非线性校正: false
滑动平均宽度: 0
X轴模式: Wavelengths
Number of Pixels in Spectrum: 1044
>>>>>Begin Spectral Data<<<<<
220.843	2
221.644	0
222.444	2
223.244	2
224.045	3
224.845	3
225.645	3
226.445	3
227.245	1
228.045	2
228.845	6
229.645	3
230.444	3
231.244	5
232.043	4
232.843	3
233.642	2
234.442	4
235.241	5
236.04	2
236.839	2
237.638	1
238.437	4
239.236	2
240.035	3
240.833	3
241.632	5
242.43	2
243.229	3
244.027	7
244.826	5
245.624	7
246.422	5
247.22	4
248.018	5
248.816	5
249.614	6
250.412	5
251.21	5
252.007	5
252.805	6
253.602	8
254.4	7
255.197	8
255.994	7
256.791	7
257.589	5
258.386	9
259.183	9
259.979	7
260.776	13
261.573	8
262.37	8
263.166	10
263.963	10
264.759	12
265.556	10
266.352	11
267.148	11
267.944	14
268.74	13
269.536	14
270.332	15
271.128	14
271.924	13
272.719	13
273.515	13
274.311	13
275.106	14
275.901	14
276.697	14
277.492	16
278.287	14
279.082	16
279.877	17
280.672	19
281.467	16
282.262	15
283.056	17
283.851	18
284.646	19
285.44	16
286.234	16
287.029	16
287.823	18
288.617	20
289.411	18
290.205	18
290.999	18
291.793	16
292.587	17
293.381	17
294.174	17
294.968	14
295.761	14
296.555	15
297.348	17
298.141	15
298.935	14
299.728	14
300.521	14
301.314	13
302.107	14
302.899	11
303.692	10
304.485	11
305.277	13
306.07	12
306.862	13
307.655	13
308.447	11
309.239	10
310.031	9
310.823	12
311.615	10
312.407	8
313.199	11
313.991	9
314.783	7
315.574	10
316.366	7
317.157	9
317.949	6
318.74	8
319.531	7
320.322	9
321.113	7
321.904	10
322.695	9
323.486	6
324.277	8
325.068	7
325.858	5
326.649	6
327.439	7
328.23	8
329.02	6
329.81	6
330.6	4
331.391	8
332.181	5
332.971	8
333.76	7
334.55	9
335.34	9
336.13	7
336.919	7
337.709	6
338.498	7
339.287	8
340.077	6
340.866	8
341.655	7
342.444	7
343.233	7
344.022	7
344.811	6
345.6	6
346.388	6
347.177	6
347.965	4
348.754	6
349.542	5
350.33	7
351.119	6
351.907	7
352.695	6
353.483	5
354.271	6
355.059	4
355.846	7
356.634	5
357.422	5
358.209	8
358.997	4
359.784	6
360.571	7
361.359	5
362.146	5
362.933	4
363.72	5
364.507	5
365.294	6
366.081	6
366.867	4
367.654	5
368.44	5
369.227	4
370.013	2
370.8	6
371.586	5
372.372	5
373.158	6
373.944	4
374.73	4
375.516	4
376.302	7
377.088	3
377.873	5
378.659	6
379.445	5
380.23	5
381.015	5
381.801	5
382.586	4
383.371	7
384.156	5
384.941	6
385.726	6
386.511	6
387.296	4
388.08	3
388.865	4
389.649	6
390.434	7
391.218	6
392.003	5
392.787	6
393.571	8
394.355	8
395.139	5
395.923	6
396.707	7
397.491	6
398.274	6
399.058	6
399.842	8
400.625	9
401.408	7
402.192	7
402.975	6
403.758	7
404.541	5
405.324	8
406.107	8
406.89	8
407.673	10
408.456	9
409.238	6
410.021	9
410.803	9
411.586	11
412.368	7
413.151	10
413.933	7
414.715	10
415.497	10
416.279	8
417.061	8
417.843	9
418.624	10
419.406	9
420.188	10
420.969	10
421.751	9
422.532	11
423.313	9
424.095	12
424.876	12
425.657	13
426.438	13
427.219	12
428	14
428.78	14
429.561	10
430.342	14
431.122	14
431.903	13
432.683	19
433.464	14
434.244	18
435.024	14
435.804	16
436.584	18
437.364	21
438.144	20
438.924	20
439.704	24
440.483	23
441.263	25
442.042	24
442.822	27
443.601	30
444.38	34
445.16	32
445.939	37
446.718	37
447.497	41
448.276	45
449.054	48
449.833	55
450.612	60
451.391	67
452.169	70
452.948	69
453.726	81
454.504	93
455.282	107
456.061	114
456.839	127
457.617	138
458.395	154
459.172	172
459.95	192
460.728	213
461.506	236
462.283	260
463.061	289
463.838	318
464.615	360
465.393	399
466.17	444
466.947	491
467.724	545
468.501	606
469.278	679
470.055	751
470.831	818
471.608	904
472.385	1006
473.161	1108
473.938	1219
474.714	1341
475.49	1468
476.266	1628
477.043	1774
477.819	1937
478.595	2100
479.371	2324
480.146	2516
480.922	2778
481.698	3030
482.473	3325
483.249	3635
484.024	3947
484.8	4326
485.575	4714
486.35	5108
487.126	5556
487.901	6051
488.676	6599
489.451	7142
490.225	7782
491	8438
491.775	9144
492.55	9905
493.324	10669
494.099	11483
494.873	12259
495.647	13263
496.422	14123
497.196	15108
497.97	16157
498.744	17185
499.518	18190
500.292	19203
501.066	20191
501.839	21102
502.613	21987
503.387	22817
504.16	23555
504.934	24101
505.707	24413
506.48	24649
507.253	24871
508.027	24926
508.8	24905
509.573	24734
510.346	24380
511.118	23938
511.891	23407
512.664	22790
513.437	22186
514.209	21399
514.982	20660
515.754	19884
516.526	19052
517.298	18305
518.071	17627
518.843	16914
519.615	16266
520.387	15640
521.159	15014
521.93	14445
522.702	13891
523.474	13279
524.245	12759
525.017	12187
525.788	11775
526.56	11251
527.331	10713
528.102	10304
528.873	9873
529.644	9411
530.415	9021
531.186	8579
531.957	8120
532.728	7737
533.498	7384
534.269	6981
535.039	6640
535.81	6261
536.58	5912
537.351	5585
538.121	5324
538.891	5010
539.661	4758
540.431	4477
541.201	4242
541.971	4030
542.741	3822
543.51	3597
544.28	3446
545.05	3302
545.819	3109
546.588	2944
547.358	2821
548.127	2672
548.896	2556
549.665	2416
550.434	2303
551.203	2174
551.972	2062
552.741	1959
553.51	1849
554.278	1767
555.047	1642
555.815	1547
556.584	1481
557.352	1398
558.121	1320
558.889	1244
559.657	1181
560.425	1110
561.193	1055
561.961	1002
562.729	930
563.496	896
564.264	835
565.032	796
565.799	748
566.567	714
567.334	684
568.101	630
568.869	605
569.636	561
570.403	522
571.17	497
571.937	471
572.704	442
573.471	422
574.237	398
575.004	376
575.771	352
576.537	323
577.303	312
578.07	293
578.836	278
579.602	258
580.368	246
581.134	235
581.9	226
582.666	204
583.432	199
584.198	192
584.964	179
585.729	174
586.495	165
587.26	154
588.025	144
588.791	143
589.556	129
590.321	119
591.086	115
591.851	110
592.616	99
593.381	97
594.146	95
594.911	89
595.675	84
596.44	79
597.204	81
597.969	72
598.733	69
599.497	66
600.261	66
601.025	60
601.79	61
602.553	55
603.317	53
604.081	56
604.845	50
605.609	48
606.372	44
607.136	46
607.899	44
608.662	45
609.426	40
610.189	39
610.952	38
611.715	31
612.478	36
613.241	31
614.004	32
614.767	30
615.529	27
616.292	28
617.055	26
617.817	27
618.579	24
619.342	24
620.104	22
620.866	20
621.628	23
622.39	21
623.152	21
623.914	20
624.676	20
625.438	18
626.199	17
626.961	16
627.722	18
628.484	16
629.245	16
630.006	14
630.768	14
631.529	14
632.29	13
633.051	15
633.812	13
634.573	11
635.333	13
636.094	12
636.855	12
637.615	12
638.376	11
639.136	8
639.896	12
640.657	8
641.417	11
642.177	7
642.937	11
643.697	8
644.457	9
645.216	5
645.976	7
646.736	10
647.495	7
648.255	7
649.014	6
649.774	3
650.533	9
651.292	8
652.051	10
652.81	9
653.569	8
654.328	5
655.087	5
655.846	5
656.604	4
657.363	8
658.121	7
658.88	6
659.638	5
660.397	7
661.155	7
661.913	3
662.671	7
663.429	4
664.187	7
664.945	4
665.703	5
666.46	5
667.218	6
667.976	5
668.733	4
669.49	2
670.248	5
671.005	5
671.762	4
672.519	3
673.276	4
674.033	5
674.79	4
675.547	4
676.304	4
677.06	3
677.817	4
678.574	5
679.33	5
680.086	5
680.843	2
681.599	4
682.355	3
683.111	3
683.867	5
684.623	3
685.379	2
686.135	5
686.89	1
687.646	4
688.402	1
689.157	3
689.912	3
690.668	4
691.423	2
692.178	3
692.933	2
693.688	2
694.443	5
695.198	3
695.953	2
696.708	6
697.462	3
698.217	4
698.972	4
699.726	3
700.48	5
701.235	4
701.989	5
702.743	3
703.497	2
704.251	2
705.005	3
705.759	5
706.513	1
707.266	5
708.02	6
708.774	5
709.527	5
710.28	2
711.034	2
711.787	4
712.54	5
713.293	3
714.046	6
714.799	3
715.552	2
716.305	5
717.058	4
717.81	5
718.563	5
719.315	4
720.068	5
720.82	2
721.573	4
722.325	4
723.077	3
723.829	3
724.581	4
725.333	4
726.085	3
726.836	2
727.588	5
728.34	2
729.091	3
729.843	2
730.594	2
731.346	4
732.097	5
732.848	4
733.599	4
734.35	4
735.101	4
735.852	2
736.603	5
737.354	6
738.104	4
738.855	3
739.605	5
740.356	5
741.106	4
741.856	5
742.607	4
743.357	7
744.107	5
744.857	5
745.607	4
746.357	2
747.106	3
747.856	4
748.606	6
749.355	3
750.105	5
750.854	4
751.603	5
752.353	6
753.102	6
753.851	5
754.6	5
755.349	7
756.098	3
756.847	6
757.595	6
758.344	8
759.093	7
759.841	5
760.589	7
761.338	7
762.086	5
762.834	5
763.582	5
764.331	7
765.079	4
765.826	6
766.574	6
767.322	8
768.07	6
768.817	6
769.565	9
770.312	7
771.06	6
771.807	7
772.554	5
773.302	8
774.049	7
774.796	6
775.543	6
776.29	9
777.036	6
777.783	9
778.53	8
779.276	8
780.023	7
780.769	7
781.516	7
782.262	8
783.008	9
783.754	7
784.5	5
785.246	8
785.992	6
786.738	5
787.484	7
788.23	8
788.975	7
789.721	7
790.466	5
791.212	9
791.957	8
792.702	8
793.447	9
794.193	8
794.938	6
795.683	8
796.427	6
797.172	7
797.917	8
798.662	5
799.406	8
800.151	7
800.895	6
801.64	8
802.384	5
803.128	6
803.872	5
804.616	6
805.36	6
806.104	7
806.848	6
807.592	6
808.336	8
809.079	5
809.823	5
810.566	5
811.31	7
812.053	4
812.796	3
813.539	7
814.283	5
815.026	6
815.769	5
816.511	3
817.254	6
817.997	4
818.74	7
819.482	5
820.225	5
820.967	5
821.71	7
822.452	3
823.194	5
823.936	5
824.678	3
825.42	3
826.162	3
826.904	3
827.646	6
828.388	5
829.129	7
829.871	5
830.612	6
831.354	4
832.095	3
832.836	2
833.577	1
834.319	4
835.06	5
835.801	4
836.542	4
837.282	4
838.023	4
838.764	2
839.504	2
840.245	2
840.985	3
841.726	3
842.466	2
843.206	3
843.946	5
844.687	2
845.427	3
846.166	3
846.906	5
847.646	4
848.386	2
849.125	2
849.865	1
850.605	4
851.344	4
852.083	6
852.823	3
853.562	3
854.301	4
855.04	2
855.779	7
856.518	3
857.257	2
857.995	0
858.734	3
859.473	3
860.211	2
860.95	2
861.688	2
862.426	1
863.165	2
863.903	2
864.641	2
865.379	1
866.117	0
866.855	2
867.593	1
868.33	3
869.068	1
869.806	3
870.543	2
871.28	3
872.018	1
872.755	3
873.492	3
874.229	1
874.967	4
875.703	1
876.44	2
877.177	0
877.914	0
878.651	0
879.387	2
880.124	2
880.86	-3
881.597	2
882.333	1
883.069	2
883.806	3
884.542	1
885.278	1
886.014	2
886.749	1
887.485	-1
888.221	3
888.957	0
889.692	3
890.428	-1
891.163	1
891.899	1
892.634	1
893.369	0
894.104	0
894.839	0
895.574	3
896.309	0
897.044	2
897.779	2
898.514	2
899.248	0
899.983	0
900.717	2
901.452	0
902.186	1
902.92	2
903.654	1
904.389	0
905.123	1
905.857	1
906.59	2
907.324	1
908.058	1
908.792	1
909.525	0
910.259	1
910.992	1
911.726	1
912.459	2
913.192	-2
913.925	2
914.658	0
915.391	-2
916.124	1
916.857	0
917.59	2
918.323	0
919.055	-1
919.788	0
920.521	1
921.253	2
921.985	0
922.718	0
923.45	-1
924.182	1
924.914	4
925.646	-2
926.378	1
927.11	1
927.841	1
928.573	2
929.305	0
930.036	1
930.768	1
931.499	0
932.23	0
932.962	1
933.693	2
934.424	-3
935.155	0
935.886	-1
936.617	-1
937.348	2
938.078	-1
938.809	-1
939.54	0
940.27	-1
941.001	0
941.731	0
942.461	0
943.191	0
943.922	1
944.652	-1
945.382	0
946.112	1
946.841	0
947.571	1
948.301	-3
949.031	1
949.76	2
950.49	1
951.219	1
951.948	-1
952.678	2
953.407	0
954.136	2
954.865	-1
955.594	2
956.323	2
957.052	1
957.78	-2
958.509	2
959.238	2
959.966	1
960.695	-1
961.423	1
962.151	2
962.88	0
963.608	0
964.336	1
965.064	1
965.792	0
966.52	-2
967.247	-1
967.975	-1
968.703	0
969.43	2
970.158	0
970.885	-1
971.613	-1
972.34	0
973.067	1
973.794	1
974.521	2
975.248	-2
975.975	2
976.702	1
977.429	0
978.156	1
978.882	0
979.609	-2
980.335	2
981.062	1
981.788	2
982.514	-1
983.24	0
983.967	-1
984.693	0
985.419	2
986.144	0
986.87	0
987.596	0
988.322	2
989.047	1
989.773	1
990.498	-1
991.224	0
991.949	-1
992.674	0
993.399	1
994.124	1
994.849	1
995.574	1
996.299	1
997.024	3
997.749	-2
998.473	1
999.198	1
999.922	1
1000.647	1
1001.371	5
1002.095	-2
1002.82	-1
1003.544	0
1004.268	0
1004.992	5
1005.716	-1
1006.439	3
1007.163	1
1007.887	1
1008.611	0
1009.334	2
1010.058	0
1010.781	0
1011.504	0
1012.228	0
1012.951	-1
1013.674	0
1014.397	-1
1015.12	0
