节点500_285_QEPB04081__548__15-04-40-301.txt的数据

Date: Wed Nov 12 15:04:40 CST 2025
User: PC
Spectrometer: QEPB0408
触发模式: 0
积分时间 (秒): 1.000000E-2
Scans to average: 1
启用暗噪声校正: true
启用非线性校正: false
滑动平均宽度: 0
X轴模式: Wavelengths
Number of Pixels in Spectrum: 1044
>>>>>Begin Spectral Data<<<<<
220.843	1.75
221.644	1.75
222.444	5.75
223.244	2.75
224.045	3.75
224.845	5.75
225.645	1.75
226.445	6.75
227.245	4.75
228.045	4.75
228.845	2.75
229.645	2.75
230.444	2.75
231.244	4.75
232.043	4.75
232.843	3.75
233.642	3.75
234.442	5.75
235.241	5.75
236.04	3.75
236.839	4.75
237.638	2.75
238.437	6.75
239.236	4.75
240.035	5.75
240.833	5.75
241.632	5.75
242.43	4.75
243.229	4.75
244.027	7.75
244.826	5.75
245.624	5.75
246.422	4.75
247.22	6.75
248.018	6.75
248.816	8.75
249.614	6.75
250.412	7.75
251.21	10.75
252.007	5.75
252.805	7.75
253.602	5.75
254.4	8.75
255.197	7.75
255.994	9.75
256.791	8.75
257.589	9.75
258.386	8.75
259.183	10.75
259.979	11.75
260.776	12.75
261.573	9.75
262.37	11.75
263.166	10.75
263.963	10.75
264.759	12.75
265.556	11.75
266.352	14.75
267.148	11.75
267.944	12.75
268.74	14.75
269.536	12.75
270.332	17.75
271.128	14.75
271.924	11.75
272.719	15.75
273.515	18.75
274.311	14.75
275.106	15.75
275.901	15.75
276.697	14.75
277.492	18.75
278.287	17.75
279.082	17.75
279.877	17.75
280.672	16.75
281.467	18.75
282.262	17.75
283.056	18.75
283.851	17.75
284.646	18.75
285.44	17.75
286.234	16.75
287.029	16.75
287.823	19.75
288.617	17.75
289.411	14.75
290.205	16.75
290.999	19.75
291.793	16.75
292.587	19.75
293.381	19.75
294.174	20.75
294.968	19.75
295.761	17.75
296.555	14.75
297.348	12.75
298.141	16.75
298.935	17.75
299.728	18.75
300.521	14.75
301.314	13.75
302.107	14.75
302.899	12.75
303.692	12.75
304.485	11.75
305.277	13.75
306.07	12.75
306.862	11.75
307.655	11.75
308.447	10.75
309.239	14.75
310.031	11.75
310.823	11.75
311.615	11.75
312.407	10.75
313.199	12.75
313.991	11.75
314.783	7.75
315.574	10.75
316.366	9.75
317.157	9.75
317.949	9.75
318.74	10.75
319.531	9.75
320.322	10.75
321.113	10.75
321.904	8.75
322.695	10.75
323.486	8.75
324.277	7.75
325.068	8.75
325.858	9.75
326.649	6.75
327.439	7.75
328.23	8.75
329.02	6.75
329.81	8.75
330.6	7.75
331.391	6.75
332.181	7.75
332.971	8.75
333.76	8.75
334.55	7.75
335.34	5.75
336.13	6.75
336.919	7.75
337.709	8.75
338.498	7.75
339.287	6.75
340.077	9.75
340.866	5.75
341.655	6.75
342.444	5.75
343.233	6.75
344.022	9.75
344.811	6.75
345.6	7.75
346.388	6.75
347.177	6.75
347.965	7.75
348.754	5.75
349.542	10.75
350.33	8.75
351.119	4.75
351.907	4.75
352.695	6.75
353.483	6.75
354.271	5.75
355.059	6.75
355.846	5.75
356.634	8.75
357.422	5.75
358.209	6.75
358.997	6.75
359.784	5.75
360.571	8.75
361.359	5.75
362.146	7.75
362.933	4.75
363.72	7.75
364.507	4.75
365.294	4.75
366.081	5.75
366.867	6.75
367.654	5.75
368.44	5.75
369.227	5.75
370.013	5.75
370.8	5.75
371.586	5.75
372.372	5.75
373.158	4.75
373.944	6.75
374.73	4.75
375.516	6.75
376.302	4.75
377.088	5.75
377.873	6.75
378.659	5.75
379.445	4.75
380.23	7.75
381.015	5.75
381.801	5.75
382.586	6.75
383.371	5.75
384.156	5.75
384.941	4.75
385.726	6.75
386.511	5.75
387.296	7.75
388.08	7.75
388.865	3.75
389.649	5.75
390.434	6.75
391.218	3.75
392.003	7.75
392.787	5.75
393.571	6.75
394.355	5.75
395.139	4.75
395.923	7.75
396.707	9.75
397.491	6.75
398.274	8.75
399.058	7.75
399.842	10.75
400.625	6.75
401.408	9.75
402.192	6.75
402.975	6.75
403.758	6.75
404.541	7.75
405.324	8.75
406.107	8.75
406.89	7.75
407.673	6.75
408.456	8.75
409.238	7.75
410.021	7.75
410.803	9.75
411.586	8.75
412.368	10.75
413.151	8.75
413.933	9.75
414.715	10.75
415.497	9.75
416.279	9.75
417.061	7.75
417.843	7.75
418.624	8.75
419.406	9.75
420.188	9.75
420.969	9.75
421.751	12.75
422.532	10.75
423.313	11.75
424.095	13.75
424.876	10.75
425.657	11.75
426.438	10.75
427.219	12.75
428	12.75
428.78	14.75
429.561	14.75
430.342	13.75
431.122	14.75
431.903	14.75
432.683	15.75
433.464	17.75
434.244	18.75
435.024	18.75
435.804	18.75
436.584	19.75
437.364	18.75
438.144	18.75
438.924	21.75
439.704	24.75
440.483	23.75
441.263	23.75
442.042	26.75
442.822	26.75
443.601	28.75
444.38	33.75
445.16	32.75
445.939	36.75
446.718	35.75
447.497	41.75
448.276	44.75
449.054	47.75
449.833	50.75
450.612	57.75
451.391	59.75
452.169	65.75
452.948	69.75
453.726	76.75
454.504	88.75
455.282	96.75
456.061	104.75
456.839	118.75
457.617	127.75
458.395	143.75
459.172	158.75
459.95	178.75
460.728	197.75
461.506	222.75
462.283	247.75
463.061	271.75
463.838	303.75
464.615	333.75
465.393	378.75
466.17	424.75
466.947	467.75
467.724	525.75
468.501	578.75
469.278	653.75
470.055	716.75
470.831	790.75
471.608	871.75
472.385	965.75
473.161	1069.75
473.938	1194.75
474.714	1315.75
475.49	1448.75
476.266	1590.75
477.043	1769.75
477.819	1935.75
478.595	2129.75
479.371	2358.75
480.146	2574.75
480.922	2839.75
481.698	3105.75
482.473	3408.75
483.249	3753.75
484.024	4119.75
484.8	4516.75
485.575	4971.75
486.35	5404.75
487.126	5921.75
487.901	6497.75
488.676	7081.75
489.451	7749.75
490.225	8472.75
491	9200.75
491.775	10007.75
492.55	10876.75
493.324	11809.75
494.099	12633.75
494.873	13633.75
495.647	14706.75
496.422	15754.75
497.196	16833.75
497.97	17957.75
498.744	19126.75
499.518	20250.75
500.292	21320.75
501.066	22361.75
501.839	23355.75
502.613	24224.75
503.387	25087.75
504.16	25690.75
504.934	26113.75
505.707	26416.75
506.48	26609.75
507.253	26650.75
508.027	26405.75
508.8	26218.75
509.573	25943.75
510.346	25470.75
511.118	24740.75
511.891	24069.75
512.664	23371.75
513.437	22525.75
514.209	21604.75
514.982	20780.75
515.754	19964.75
516.526	19044.75
517.298	18202.75
518.071	17473.75
518.843	16799.75
519.615	16103.75
520.387	15504.75
521.159	14956.75
521.93	14330.75
522.702	13758.75
523.474	13212.75
524.245	12626.75
525.017	12124.75
525.788	11622.75
526.56	11146.75
527.331	10543.75
528.102	10118.75
528.873	9680.75
529.644	9204.75
530.415	8760.75
531.186	8353.75
531.957	7927.75
532.728	7518.75
533.498	7174.75
534.269	6754.75
535.039	6380.75
535.81	6045.75
536.58	5709.75
537.351	5390.75
538.121	5068.75
538.891	4816.75
539.661	4551.75
540.431	4301.75
541.201	4064.75
541.971	3858.75
542.741	3658.75
543.51	3474.75
544.28	3296.75
545.05	3138.75
545.819	2980.75
546.588	2833.75
547.358	2700.75
548.127	2567.75
548.896	2442.75
549.665	2322.75
550.434	2178.75
551.203	2080.75
551.972	1964.75
552.741	1862.75
553.51	1757.75
554.278	1679.75
555.047	1567.75
555.815	1493.75
556.584	1394.75
557.352	1321.75
558.121	1256.75
558.889	1173.75
559.657	1127.75
560.425	1044.75
561.193	986.75
561.961	935.75
562.729	889.75
563.496	832.75
564.264	784.75
565.032	755.75
565.799	707.75
566.567	666.75
567.334	628.75
568.101	597.75
568.869	563.75
569.636	529.75
570.403	491.75
571.17	474.75
571.937	437.75
572.704	419.75
573.471	397.75
574.237	373.75
575.004	352.75
575.771	339.75
576.537	315.75
577.303	293.75
578.07	283.75
578.836	266.75
579.602	243.75
580.368	235.75
581.134	219.75
581.9	210.75
582.666	198.75
583.432	186.75
584.198	179.75
584.964	175.75
585.729	160.75
586.495	155.75
587.26	149.75
588.025	133.75
588.791	124.75
589.556	124.75
590.321	116.75
591.086	109.75
591.851	103.75
592.616	102.75
593.381	97.75
594.146	92.75
594.911	84.75
595.675	79.75
596.44	78.75
597.204	73.75
597.969	74.75
598.733	69.75
599.497	66.75
600.261	60.75
601.025	60.75
601.79	60.75
602.553	58.75
603.317	51.75
604.081	49.75
604.845	48.75
605.609	52.75
606.372	42.75
607.136	43.75
607.899	41.75
608.662	36.75
609.426	38.75
610.189	35.75
610.952	34.75
611.715	31.75
612.478	30.75
613.241	30.75
614.004	31.75
614.767	32.75
615.529	26.75
616.292	26.75
617.055	25.75
617.817	24.75
618.579	23.75
619.342	22.75
620.104	25.75
620.866	23.75
621.628	21.75
622.39	22.75
623.152	19.75
623.914	17.75
624.676	17.75
625.438	19.75
626.199	16.75
626.961	16.75
627.722	15.75
628.484	15.75
629.245	17.75
630.006	17.75
630.768	13.75
631.529	12.75
632.29	14.75
633.051	14.75
633.812	11.75
634.573	14.75
635.333	10.75
636.094	14.75
636.855	11.75
637.615	11.75
638.376	10.75
639.136	12.75
639.896	12.75
640.657	10.75
641.417	10.75
642.177	10.75
642.937	8.75
643.697	7.75
644.457	8.75
645.216	9.75
645.976	9.75
646.736	8.75
647.495	9.75
648.255	7.75
649.014	8.75
649.774	5.75
650.533	5.75
651.292	7.75
652.051	7.75
652.81	10.75
653.569	8.75
654.328	6.75
655.087	5.75
655.846	6.75
656.604	7.75
657.363	7.75
658.121	6.75
658.88	6.75
659.638	7.75
660.397	5.75
661.155	6.75
661.913	6.75
662.671	6.75
663.429	3.75
664.187	8.75
664.945	7.75
665.703	7.75
666.46	5.75
667.218	4.75
667.976	8.75
668.733	5.75
669.49	5.75
670.248	5.75
671.005	4.75
671.762	6.75
672.519	5.75
673.276	3.75
674.033	5.75
674.79	4.75
675.547	4.75
676.304	4.75
677.06	3.75
677.817	6.75
678.574	5.75
679.33	7.75
680.086	5.75
680.843	4.75
681.599	5.75
682.355	2.75
683.111	4.75
683.867	5.75
684.623	6.75
685.379	6.75
686.135	3.75
686.89	4.75
687.646	3.75
688.402	5.75
689.157	4.75
689.912	4.75
690.668	4.75
691.423	4.75
692.178	6.75
692.933	4.75
693.688	4.75
694.443	4.75
695.198	4.75
695.953	5.75
696.708	2.75
697.462	5.75
698.217	3.75
698.972	4.75
699.726	4.75
700.48	1.75
701.235	7.75
701.989	1.75
702.743	3.75
703.497	4.75
704.251	4.75
705.005	4.75
705.759	5.75
706.513	5.75
707.266	2.75
708.02	4.75
708.774	4.75
709.527	2.75
710.28	5.75
711.034	3.75
711.787	5.75
712.54	3.75
713.293	4.75
714.046	7.75
714.799	4.75
715.552	3.75
716.305	2.75
717.058	5.75
717.81	4.75
718.563	4.75
719.315	4.75
720.068	5.75
720.82	7.75
721.573	5.75
722.325	3.75
723.077	6.75
723.829	5.75
724.581	3.75
725.333	5.75
726.085	7.75
726.836	4.75
727.588	4.75
728.34	5.75
729.091	2.75
729.843	3.75
730.594	6.75
731.346	4.75
732.097	4.75
732.848	6.75
733.599	5.75
734.35	3.75
735.101	4.75
735.852	5.75
736.603	2.75
737.354	5.75
738.104	2.75
738.855	6.75
739.605	2.75
740.356	4.75
741.106	4.75
741.856	5.75
742.607	4.75
743.357	4.75
744.107	5.75
744.857	4.75
745.607	4.75
746.357	6.75
747.106	7.75
747.856	8.75
748.606	5.75
749.355	7.75
750.105	3.75
750.854	5.75
751.603	5.75
752.353	5.75
753.102	4.75
753.851	8.75
754.6	5.75
755.349	5.75
756.098	6.75
756.847	8.75
757.595	6.75
758.344	6.75
759.093	7.75
759.841	7.75
760.589	5.75
761.338	7.75
762.086	7.75
762.834	4.75
763.582	9.75
764.331	3.75
765.079	6.75
765.826	7.75
766.574	8.75
767.322	9.75
768.07	5.75
768.817	8.75
769.565	7.75
770.312	7.75
771.06	7.75
771.807	7.75
772.554	8.75
773.302	7.75
774.049	7.75
774.796	8.75
775.543	8.75
776.29	7.75
777.036	10.75
777.783	7.75
778.53	9.75
779.276	7.75
780.023	9.75
780.769	8.75
781.516	9.75
782.262	7.75
783.008	7.75
783.754	7.75
784.5	8.75
785.246	9.75
785.992	8.75
786.738	12.75
787.484	9.75
788.23	9.75
788.975	10.75
789.721	11.75
790.466	10.75
791.212	10.75
791.957	9.75
792.702	6.75
793.447	8.75
794.193	8.75
794.938	8.75
795.683	10.75
796.427	9.75
797.172	10.75
797.917	7.75
798.662	6.75
799.406	10.75
800.151	6.75
800.895	7.75
801.64	4.75
802.384	6.75
803.128	8.75
803.872	7.75
804.616	9.75
805.36	6.75
806.104	8.75
806.848	8.75
807.592	8.75
808.336	7.75
809.079	7.75
809.823	4.75
810.566	6.75
811.31	6.75
812.053	5.75
812.796	5.75
813.539	6.75
814.283	3.75
815.026	3.75
815.769	5.75
816.511	6.75
817.254	5.75
817.997	4.75
818.74	4.75
819.482	5.75
820.225	5.75
820.967	3.75
821.71	3.75
822.452	6.75
823.194	4.75
823.936	4.75
824.678	4.75
825.42	4.75
826.162	3.75
826.904	4.75
827.646	5.75
828.388	3.75
829.129	6.75
829.871	5.75
830.612	4.75
831.354	3.75
832.095	4.75
832.836	2.75
833.577	4.75
834.319	3.75
835.06	3.75
835.801	8.75
836.542	3.75
837.282	4.75
838.023	6.75
838.764	4.75
839.504	5.75
840.245	5.75
840.985	4.75
841.726	4.75
842.466	4.75
843.206	4.75
843.946	5.75
844.687	6.75
845.427	1.75
846.166	4.75
846.906	3.75
847.646	2.75
848.386	5.75
849.125	5.75
849.865	4.75
850.605	3.75
851.344	2.75
852.083	3.75
852.823	2.75
853.562	3.75
854.301	2.75
855.04	3.75
855.779	2.75
856.518	2.75
857.257	2.75
857.995	2.75
858.734	4.75
859.473	2.75
860.211	2.75
860.95	4.75
861.688	4.75
862.426	1.75
863.165	2.75
863.903	2.75
864.641	4.75
865.379	4.75
866.117	2.75
866.855	2.75
867.593	4.75
868.33	2.75
869.068	1.75
869.806	2.75
870.543	1.75
871.28	2.75
872.018	3.75
872.755	3.75
873.492	3.75
874.229	2.75
874.967	4.75
875.703	0.75
876.44	1.75
877.177	-1.25
877.914	2.75
878.651	1.75
879.387	1.75
880.124	1.75
880.86	0.75
881.597	0.75
882.333	1.75
883.069	3.75
883.806	2.75
884.542	2.75
885.278	1.75
886.014	-0.25
886.749	2.75
887.485	0.75
888.221	0.75
888.957	3.75
889.692	0.75
890.428	0.75
891.163	1.75
891.899	1.75
892.634	2.75
893.369	4.75
894.104	3.75
894.839	1.75
895.574	1.75
896.309	1.75
897.044	0.75
897.779	0.75
898.514	0.75
899.248	0.75
899.983	-0.25
900.717	1.75
901.452	-0.25
902.186	2.75
902.92	0.75
903.654	1.75
904.389	2.75
905.123	1.75
905.857	0.75
906.59	1.75
907.324	2.75
908.058	0.75
908.792	0.75
909.525	2.75
910.259	-1.25
910.992	2.75
911.726	2.75
912.459	1.75
913.192	0.75
913.925	1.75
914.658	1.75
915.391	1.75
916.124	-1.25
916.857	1.75
917.59	2.75
918.323	3.75
919.055	0.75
919.788	2.75
920.521	2.75
921.253	0.75
921.985	0.75
922.718	-2.25
923.45	1.75
924.182	1.75
924.914	1.75
925.646	1.75
926.378	1.75
927.11	2.75
927.841	1.75
928.573	1.75
929.305	0.75
930.036	0.75
930.768	-0.25
931.499	-0.25
932.23	-0.25
932.962	2.75
933.693	0.75
934.424	0.75
935.155	0.75
935.886	2.75
936.617	1.75
937.348	2.75
938.078	0.75
938.809	2.75
939.54	1.75
940.27	1.75
941.001	0.75
941.731	0.75
942.461	0.75
943.191	3.75
943.922	0.75
944.652	1.75
945.382	-0.25
946.112	0.75
946.841	1.75
947.571	2.75
948.301	2.75
949.031	0.75
949.76	2.75
950.49	-0.25
951.219	-1.25
951.948	0.75
952.678	1.75
953.407	2.75
954.136	1.75
954.865	-0.25
955.594	0.75
956.323	1.75
957.052	-1.25
957.78	0.75
958.509	3.75
959.238	0.75
959.966	1.75
960.695	-2.25
961.423	2.75
962.151	1.75
962.88	1.75
963.608	0.75
964.336	-0.25
965.064	2.75
965.792	0.75
966.52	0.75
967.247	-0.25
967.975	1.75
968.703	-0.25
969.43	0.75
970.158	0.75
970.885	0.75
971.613	1.75
972.34	0.75
973.067	1.75
973.794	1.75
974.521	0.75
975.248	2.75
975.975	0.75
976.702	2.75
977.429	2.75
978.156	2.75
978.882	0.75
979.609	-0.25
980.335	-0.25
981.062	2.75
981.788	0.75
982.514	2.75
983.24	0.75
983.967	2.75
984.693	1.75
985.419	1.75
986.144	0.75
986.87	2.75
987.596	1.75
988.322	1.75
989.047	1.75
989.773	-0.25
990.498	1.75
991.224	1.75
991.949	1.75
992.674	0.75
993.399	1.75
994.124	0.75
994.849	-1.25
995.574	1.75
996.299	3.75
997.024	0.75
997.749	-0.25
998.473	1.75
999.198	2.75
999.922	0.75
1000.647	1.75
1001.371	1.75
1002.095	-2.25
1002.82	-1.25
1003.544	-1.25
1004.268	2.75
1004.992	1.75
1005.716	0.75
1006.439	2.75
1007.163	4.75
1007.887	4.75
1008.611	3.75
1009.334	-0.25
1010.058	0.75
1010.781	2.75
1011.504	0.75
1012.228	0.75
1012.951	0.75
1013.674	1.75
1014.397	-0.25
1015.12	0.75
