节点500_285_QEPB04081__867__15-09-58-626.txt的数据

Date: Wed Nov 12 15:09:58 CST 2025
User: PC
Spectrometer: QEPB0408
触发模式: 0
积分时间 (秒): 1.000000E-2
Scans to average: 1
启用暗噪声校正: true
启用非线性校正: false
滑动平均宽度: 0
X轴模式: Wavelengths
Number of Pixels in Spectrum: 1044
>>>>>Begin Spectral Data<<<<<
220.843	2.75
221.644	-0.25
222.444	-0.25
223.244	-0.25
224.045	0.75
224.845	1.75
225.645	1.75
226.445	0.75
227.245	3.75
228.045	1.75
228.845	1.75
229.645	1.75
230.444	1.75
231.244	1.75
232.043	4.75
232.843	2.75
233.642	1.75
234.442	1.75
235.241	0.75
236.04	4.75
236.839	3.75
237.638	3.75
238.437	2.75
239.236	4.75
240.035	2.75
240.833	4.75
241.632	4.75
242.43	5.75
243.229	3.75
244.027	4.75
244.826	4.75
245.624	2.75
246.422	5.75
247.22	4.75
248.018	4.75
248.816	4.75
249.614	3.75
250.412	6.75
251.21	5.75
252.007	6.75
252.805	5.75
253.602	6.75
254.4	4.75
255.197	4.75
255.994	6.75
256.791	4.75
257.589	7.75
258.386	6.75
259.183	6.75
259.979	6.75
260.776	5.75
261.573	7.75
262.37	6.75
263.166	8.75
263.963	11.75
264.759	9.75
265.556	8.75
266.352	9.75
267.148	12.75
267.944	9.75
268.74	10.75
269.536	8.75
270.332	12.75
271.128	11.75
271.924	9.75
272.719	13.75
273.515	11.75
274.311	13.75
275.106	11.75
275.901	14.75
276.697	13.75
277.492	13.75
278.287	16.75
279.082	13.75
279.877	15.75
280.672	14.75
281.467	14.75
282.262	13.75
283.056	12.75
283.851	16.75
284.646	16.75
285.44	17.75
286.234	15.75
287.029	14.75
287.823	17.75
288.617	15.75
289.411	17.75
290.205	18.75
290.999	15.75
291.793	17.75
292.587	13.75
293.381	17.75
294.174	14.75
294.968	15.75
295.761	14.75
296.555	13.75
297.348	14.75
298.141	12.75
298.935	17.75
299.728	12.75
300.521	12.75
301.314	13.75
302.107	11.75
302.899	12.75
303.692	11.75
304.485	14.75
305.277	10.75
306.07	10.75
306.862	11.75
307.655	12.75
308.447	11.75
309.239	9.75
310.031	11.75
310.823	12.75
311.615	11.75
312.407	9.75
313.199	9.75
313.991	11.75
314.783	6.75
315.574	10.75
316.366	9.75
317.157	8.75
317.949	9.75
318.74	7.75
319.531	9.75
320.322	5.75
321.113	8.75
321.904	7.75
322.695	4.75
323.486	6.75
324.277	7.75
325.068	8.75
325.858	6.75
326.649	6.75
327.439	5.75
328.23	5.75
329.02	5.75
329.81	5.75
330.6	8.75
331.391	5.75
332.181	4.75
332.971	4.75
333.76	6.75
334.55	7.75
335.34	3.75
336.13	6.75
336.919	5.75
337.709	5.75
338.498	5.75
339.287	6.75
340.077	6.75
340.866	5.75
341.655	4.75
342.444	7.75
343.233	2.75
344.022	4.75
344.811	5.75
345.6	4.75
346.388	4.75
347.177	6.75
347.965	5.75
348.754	3.75
349.542	6.75
350.33	3.75
351.119	6.75
351.907	5.75
352.695	1.75
353.483	5.75
354.271	4.75
355.059	5.75
355.846	7.75
356.634	5.75
357.422	6.75
358.209	3.75
358.997	6.75
359.784	4.75
360.571	7.75
361.359	3.75
362.146	4.75
362.933	3.75
363.72	3.75
364.507	5.75
365.294	3.75
366.081	6.75
366.867	4.75
367.654	4.75
368.44	5.75
369.227	4.75
370.013	4.75
370.8	4.75
371.586	6.75
372.372	5.75
373.158	6.75
373.944	3.75
374.73	2.75
375.516	5.75
376.302	4.75
377.088	5.75
377.873	5.75
378.659	2.75
379.445	4.75
380.23	2.75
381.015	5.75
381.801	4.75
382.586	4.75
383.371	3.75
384.156	3.75
384.941	3.75
385.726	6.75
386.511	4.75
387.296	5.75
388.08	5.75
388.865	5.75
389.649	3.75
390.434	4.75
391.218	3.75
392.003	3.75
392.787	7.75
393.571	4.75
394.355	5.75
395.139	6.75
395.923	6.75
396.707	4.75
397.491	6.75
398.274	5.75
399.058	4.75
399.842	1.75
400.625	4.75
401.408	5.75
402.192	6.75
402.975	6.75
403.758	6.75
404.541	5.75
405.324	4.75
406.107	4.75
406.89	6.75
407.673	5.75
408.456	7.75
409.238	8.75
410.021	6.75
410.803	8.75
411.586	7.75
412.368	8.75
413.151	6.75
413.933	8.75
414.715	9.75
415.497	7.75
416.279	9.75
417.061	8.75
417.843	7.75
418.624	8.75
419.406	8.75
420.188	9.75
420.969	9.75
421.751	11.75
422.532	9.75
423.313	11.75
424.095	9.75
424.876	10.75
425.657	9.75
426.438	12.75
427.219	10.75
428	12.75
428.78	11.75
429.561	14.75
430.342	9.75
431.122	14.75
431.903	15.75
432.683	13.75
433.464	12.75
434.244	19.75
435.024	15.75
435.804	15.75
436.584	17.75
437.364	19.75
438.144	20.75
438.924	20.75
439.704	21.75
440.483	24.75
441.263	22.75
442.042	27.75
442.822	21.75
443.601	27.75
444.38	31.75
445.16	32.75
445.939	37.75
446.718	37.75
447.497	44.75
448.276	45.75
449.054	44.75
449.833	52.75
450.612	57.75
451.391	65.75
452.169	67.75
452.948	75.75
453.726	85.75
454.504	91.75
455.282	101.75
456.061	112.75
456.839	121.75
457.617	140.75
458.395	156.75
459.172	175.75
459.95	195.75
460.728	212.75
461.506	230.75
462.283	259.75
463.061	287.75
463.838	324.75
464.615	361.75
465.393	396.75
466.17	449.75
466.947	488.75
467.724	555.75
468.501	613.75
469.278	669.75
470.055	741.75
470.831	826.75
471.608	907.75
472.385	1012.75
473.161	1104.75
473.938	1204.75
474.714	1342.75
475.49	1485.75
476.266	1603.75
477.043	1774.75
477.819	1938.75
478.595	2114.75
479.371	2326.75
480.146	2543.75
480.922	2785.75
481.698	3039.75
482.473	3312.75
483.249	3633.75
484.024	3940.75
484.8	4294.75
485.575	4683.75
486.35	5093.75
487.126	5556.75
487.901	6016.75
488.676	6568.75
489.451	7138.75
490.225	7738.75
491	8380.75
491.775	9103.75
492.55	9882.75
493.324	10638.75
494.099	11386.75
494.873	12262.75
495.647	13157.75
496.422	14079.75
497.196	15103.75
497.97	16092.75
498.744	17100.75
499.518	18098.75
500.292	19111.75
501.066	20148.75
501.839	20990.75
502.613	21909.75
503.387	22741.75
504.16	23464.75
504.934	23941.75
505.707	24371.75
506.48	24644.75
507.253	24846.75
508.027	24825.75
508.8	24833.75
509.573	24709.75
510.346	24394.75
511.118	23902.75
511.891	23413.75
512.664	22865.75
513.437	22131.75
514.209	21406.75
514.982	20662.75
515.754	19850.75
516.526	19026.75
517.298	18349.75
518.071	17610.75
518.843	16939.75
519.615	16302.75
520.387	15630.75
521.159	15044.75
521.93	14409.75
522.702	13894.75
523.474	13297.75
524.245	12775.75
525.017	12224.75
525.788	11798.75
526.56	11233.75
527.331	10730.75
528.102	10269.75
528.873	9876.75
529.644	9437.75
530.415	8978.75
531.186	8586.75
531.957	8146.75
532.728	7772.75
533.498	7427.75
534.269	6995.75
535.039	6614.75
535.81	6281.75
536.58	5937.75
537.351	5604.75
538.121	5311.75
538.891	5019.75
539.661	4746.75
540.431	4484.75
541.201	4257.75
541.971	4004.75
542.741	3819.75
543.51	3673.75
544.28	3444.75
545.05	3274.75
545.819	3105.75
546.588	2955.75
547.358	2808.75
548.127	2686.75
548.896	2564.75
549.665	2422.75
550.434	2282.75
551.203	2172.75
551.972	2063.75
552.741	1956.75
553.51	1857.75
554.278	1754.75
555.047	1651.75
555.815	1572.75
556.584	1486.75
557.352	1402.75
558.121	1313.75
558.889	1251.75
559.657	1187.75
560.425	1120.75
561.193	1050.75
561.961	988.75
562.729	934.75
563.496	903.75
564.264	828.75
565.032	795.75
565.799	754.75
566.567	715.75
567.334	669.75
568.101	627.75
568.869	595.75
569.636	569.75
570.403	532.75
571.17	503.75
571.937	470.75
572.704	444.75
573.471	416.75
574.237	393.75
575.004	378.75
575.771	339.75
576.537	334.75
577.303	316.75
578.07	302.75
578.836	276.75
579.602	265.75
580.368	251.75
581.134	238.75
581.9	221.75
582.666	214.75
583.432	200.75
584.198	188.75
584.964	179.75
585.729	171.75
586.495	156.75
587.26	154.75
588.025	147.75
588.791	138.75
589.556	127.75
590.321	122.75
591.086	112.75
591.851	110.75
592.616	100.75
593.381	97.75
594.146	95.75
594.911	95.75
595.675	79.75
596.44	82.75
597.204	79.75
597.969	75.75
598.733	70.75
599.497	65.75
600.261	63.75
601.025	64.75
601.79	57.75
602.553	54.75
603.317	55.75
604.081	51.75
604.845	45.75
605.609	47.75
606.372	43.75
607.136	43.75
607.899	40.75
608.662	38.75
609.426	38.75
610.189	36.75
610.952	34.75
611.715	36.75
612.478	29.75
613.241	29.75
614.004	29.75
614.767	26.75
615.529	28.75
616.292	27.75
617.055	26.75
617.817	26.75
618.579	24.75
619.342	25.75
620.104	23.75
620.866	24.75
621.628	19.75
622.39	19.75
623.152	19.75
623.914	16.75
624.676	18.75
625.438	17.75
626.199	14.75
626.961	13.75
627.722	15.75
628.484	12.75
629.245	14.75
630.006	10.75
630.768	9.75
631.529	14.75
632.29	11.75
633.051	13.75
633.812	10.75
634.573	11.75
635.333	12.75
636.094	11.75
636.855	12.75
637.615	10.75
638.376	11.75
639.136	8.75
639.896	8.75
640.657	7.75
641.417	9.75
642.177	11.75
642.937	6.75
643.697	8.75
644.457	7.75
645.216	6.75
645.976	7.75
646.736	5.75
647.495	6.75
648.255	8.75
649.014	6.75
649.774	6.75
650.533	5.75
651.292	6.75
652.051	6.75
652.81	6.75
653.569	8.75
654.328	8.75
655.087	8.75
655.846	4.75
656.604	6.75
657.363	4.75
658.121	6.75
658.88	5.75
659.638	5.75
660.397	5.75
661.155	4.75
661.913	4.75
662.671	3.75
663.429	7.75
664.187	3.75
664.945	5.75
665.703	4.75
666.46	3.75
667.218	5.75
667.976	5.75
668.733	2.75
669.49	4.75
670.248	4.75
671.005	4.75
671.762	4.75
672.519	3.75
673.276	3.75
674.033	5.75
674.79	6.75
675.547	6.75
676.304	4.75
677.06	2.75
677.817	1.75
678.574	4.75
679.33	6.75
680.086	2.75
680.843	2.75
681.599	2.75
682.355	4.75
683.111	4.75
683.867	5.75
684.623	3.75
685.379	4.75
686.135	2.75
686.89	2.75
687.646	4.75
688.402	4.75
689.157	4.75
689.912	0.75
690.668	3.75
691.423	2.75
692.178	4.75
692.933	1.75
693.688	3.75
694.443	2.75
695.198	3.75
695.953	2.75
696.708	2.75
697.462	3.75
698.217	3.75
698.972	3.75
699.726	4.75
700.48	3.75
701.235	3.75
701.989	1.75
702.743	2.75
703.497	2.75
704.251	0.75
705.005	2.75
705.759	2.75
706.513	6.75
707.266	3.75
708.02	1.75
708.774	6.75
709.527	1.75
710.28	3.75
711.034	3.75
711.787	3.75
712.54	2.75
713.293	1.75
714.046	2.75
714.799	2.75
715.552	4.75
716.305	1.75
717.058	1.75
717.81	6.75
718.563	4.75
719.315	3.75
720.068	1.75
720.82	0.75
721.573	3.75
722.325	2.75
723.077	3.75
723.829	2.75
724.581	2.75
725.333	0.75
726.085	1.75
726.836	2.75
727.588	3.75
728.34	5.75
729.091	1.75
729.843	0.75
730.594	3.75
731.346	3.75
732.097	3.75
732.848	1.75
733.599	2.75
734.35	0.75
735.101	3.75
735.852	3.75
736.603	4.75
737.354	6.75
738.104	4.75
738.855	4.75
739.605	4.75
740.356	3.75
741.106	4.75
741.856	5.75
742.607	4.75
743.357	3.75
744.107	3.75
744.857	2.75
745.607	3.75
746.357	3.75
747.106	4.75
747.856	2.75
748.606	5.75
749.355	6.75
750.105	3.75
750.854	6.75
751.603	1.75
752.353	4.75
753.102	2.75
753.851	5.75
754.6	4.75
755.349	3.75
756.098	4.75
756.847	4.75
757.595	4.75
758.344	4.75
759.093	4.75
759.841	5.75
760.589	4.75
761.338	4.75
762.086	4.75
762.834	5.75
763.582	6.75
764.331	5.75
765.079	7.75
765.826	6.75
766.574	2.75
767.322	5.75
768.07	4.75
768.817	5.75
769.565	6.75
770.312	3.75
771.06	5.75
771.807	8.75
772.554	4.75
773.302	5.75
774.049	8.75
774.796	6.75
775.543	9.75
776.29	6.75
777.036	8.75
777.783	6.75
778.53	6.75
779.276	6.75
780.023	5.75
780.769	7.75
781.516	7.75
782.262	4.75
783.008	9.75
783.754	7.75
784.5	6.75
785.246	8.75
785.992	6.75
786.738	8.75
787.484	7.75
788.23	9.75
788.975	7.75
789.721	7.75
790.466	5.75
791.212	8.75
791.957	7.75
792.702	8.75
793.447	7.75
794.193	7.75
794.938	6.75
795.683	6.75
796.427	6.75
797.172	9.75
797.917	9.75
798.662	5.75
799.406	5.75
800.151	7.75
800.895	7.75
801.64	5.75
802.384	5.75
803.128	5.75
803.872	2.75
804.616	5.75
805.36	6.75
806.104	4.75
806.848	3.75
807.592	6.75
808.336	2.75
809.079	7.75
809.823	4.75
810.566	7.75
811.31	5.75
812.053	3.75
812.796	6.75
813.539	3.75
814.283	6.75
815.026	3.75
815.769	5.75
816.511	4.75
817.254	4.75
817.997	4.75
818.74	3.75
819.482	2.75
820.225	2.75
820.967	3.75
821.71	4.75
822.452	2.75
823.194	3.75
823.936	2.75
824.678	3.75
825.42	4.75
826.162	3.75
826.904	1.75
827.646	1.75
828.388	7.75
829.129	2.75
829.871	4.75
830.612	2.75
831.354	2.75
832.095	2.75
832.836	3.75
833.577	1.75
834.319	3.75
835.06	2.75
835.801	1.75
836.542	2.75
837.282	5.75
838.023	2.75
838.764	3.75
839.504	2.75
840.245	2.75
840.985	2.75
841.726	1.75
842.466	1.75
843.206	2.75
843.946	2.75
844.687	3.75
845.427	1.75
846.166	1.75
846.906	3.75
847.646	3.75
848.386	1.75
849.125	1.75
849.865	1.75
850.605	0.75
851.344	-1.25
852.083	2.75
852.823	4.75
853.562	1.75
854.301	2.75
855.04	1.75
855.779	1.75
856.518	2.75
857.257	2.75
857.995	2.75
858.734	0.75
859.473	3.75
860.211	3.75
860.95	1.75
861.688	2.75
862.426	-0.25
863.165	2.75
863.903	2.75
864.641	1.75
865.379	1.75
866.117	-0.25
866.855	0.75
867.593	0.75
868.33	2.75
869.068	0.75
869.806	1.75
870.543	0.75
871.28	1.75
872.018	1.75
872.755	0.75
873.492	3.75
874.229	-1.25
874.967	1.75
875.703	2.75
876.44	0.75
877.177	3.75
877.914	-2.25
878.651	-0.25
879.387	1.75
880.124	1.75
880.86	2.75
881.597	-1.25
882.333	-0.25
883.069	-0.25
883.806	1.75
884.542	-0.25
885.278	-0.25
886.014	1.75
886.749	-1.25
887.485	0.75
888.221	0.75
888.957	-0.25
889.692	1.75
890.428	-0.25
891.163	2.75
891.899	-1.25
892.634	3.75
893.369	2.75
894.104	0.75
894.839	-1.25
895.574	-0.25
896.309	-0.25
897.044	-3.25
897.779	-0.25
898.514	0.75
899.248	-1.25
899.983	-0.25
900.717	-0.25
901.452	-0.25
902.186	-1.25
902.92	-1.25
903.654	0.75
904.389	2.75
905.123	0.75
905.857	-3.25
906.59	0.75
907.324	-0.25
908.058	-0.25
908.792	-0.25
909.525	1.75
910.259	1.75
910.992	1.75
911.726	0.75
912.459	1.75
913.192	-0.25
913.925	0.75
914.658	2.75
915.391	0.75
916.124	-0.25
916.857	0.75
917.59	-1.25
918.323	-0.25
919.055	0.75
919.788	-1.25
920.521	0.75
921.253	1.75
921.985	2.75
922.718	-0.25
923.45	-2.25
924.182	-0.25
924.914	-0.25
925.646	0.75
926.378	-0.25
927.11	1.75
927.841	-0.25
928.573	-2.25
929.305	-1.25
930.036	-0.25
930.768	-0.25
931.499	-2.25
932.23	-1.25
932.962	0.75
933.693	-2.25
934.424	0.75
935.155	-1.25
935.886	0.75
936.617	-0.25
937.348	1.75
938.078	-0.25
938.809	-2.25
939.54	1.75
940.27	-0.25
941.001	0.75
941.731	-1.25
942.461	0.75
943.191	1.75
943.922	-0.25
944.652	-0.25
945.382	-2.25
946.112	-0.25
946.841	-1.25
947.571	0.75
948.301	0.75
949.031	-1.25
949.76	-0.25
950.49	0.75
951.219	0.75
951.948	-1.25
952.678	-2.25
953.407	-0.25
954.136	-0.25
954.865	3.75
955.594	-0.25
956.323	-0.25
957.052	0.75
957.78	0.75
958.509	-0.25
959.238	-1.25
959.966	0.75
960.695	-0.25
961.423	-0.25
962.151	0.75
962.88	-0.25
963.608	0.75
964.336	0.75
965.064	0.75
965.792	0.75
966.52	-1.25
967.247	-0.25
967.975	-0.25
968.703	-1.25
969.43	1.75
970.158	-1.25
970.885	-1.25
971.613	-1.25
972.34	0.75
973.067	-1.25
973.794	0.75
974.521	-1.25
975.248	-0.25
975.975	-0.25
976.702	1.75
977.429	-0.25
978.156	0.75
978.882	-1.25
979.609	0.75
980.335	-0.25
981.062	0.75
981.788	-1.25
982.514	1.75
983.24	0.75
983.967	1.75
984.693	-0.25
985.419	-1.25
986.144	-1.25
986.87	0.75
987.596	-0.25
988.322	-0.25
989.047	-0.25
989.773	-1.25
990.498	-0.25
991.224	-0.25
991.949	-2.25
992.674	-0.25
993.399	-0.25
994.124	0.75
994.849	0.75
995.574	0.75
996.299	-1.25
997.024	-0.25
997.749	0.75
998.473	0.75
999.198	-2.25
999.922	0.75
1000.647	-0.25
1001.371	2.75
1002.095	-2.25
1002.82	1.75
1003.544	-1.25
1004.268	1.75
1004.992	2.75
1005.716	0.75
1006.439	1.75
1007.163	-0.25
1007.887	3.75
1008.611	1.75
1009.334	-1.25
1010.058	-1.25
1010.781	0.75
1011.504	-2.25
1012.228	-2.25
1012.951	-0.25
1013.674	-0.25
1014.397	-0.25
1015.12	-0.25
