节点500_285_QEPB04081__843__15-09-34-731.txt的数据

Date: Wed Nov 12 15:09:34 CST 2025
User: PC
Spectrometer: QEPB0408
触发模式: 0
积分时间 (秒): 1.000000E-2
Scans to average: 1
启用暗噪声校正: true
启用非线性校正: false
滑动平均宽度: 0
X轴模式: Wavelengths
Number of Pixels in Spectrum: 1044
>>>>>Begin Spectral Data<<<<<
220.843	1.38
221.644	-0.62
222.444	3.38
223.244	1.38
224.045	4.38
224.845	3.38
225.645	0.38
226.445	2.38
227.245	2.38
228.045	0.38
228.845	1.38
229.645	1.38
230.444	1.38
231.244	1.38
232.043	1.38
232.843	1.38
233.642	2.38
234.442	2.38
235.241	1.38
236.04	3.38
236.839	3.38
237.638	2.38
238.437	2.38
239.236	3.38
240.035	0.38
240.833	3.38
241.632	2.38
242.43	4.38
243.229	2.38
244.027	4.38
244.826	4.38
245.624	6.38
246.422	3.38
247.22	3.38
248.018	6.38
248.816	4.38
249.614	4.38
250.412	5.38
251.21	5.38
252.007	4.38
252.805	4.38
253.602	2.38
254.4	4.38
255.197	5.38
255.994	3.38
256.791	8.38
257.589	6.38
258.386	8.38
259.183	7.38
259.979	8.38
260.776	4.38
261.573	7.38
262.37	8.38
263.166	5.38
263.963	9.38
264.759	10.38
265.556	10.38
266.352	10.38
267.148	11.38
267.944	11.38
268.74	8.38
269.536	9.38
270.332	9.38
271.128	13.38
271.924	12.38
272.719	11.38
273.515	11.38
274.311	12.38
275.106	13.38
275.901	13.38
276.697	14.38
277.492	14.38
278.287	15.38
279.082	14.38
279.877	15.38
280.672	16.38
281.467	13.38
282.262	14.38
283.056	15.38
283.851	14.38
284.646	17.38
285.44	14.38
286.234	14.38
287.029	17.38
287.823	17.38
288.617	16.38
289.411	15.38
290.205	15.38
290.999	16.38
291.793	15.38
292.587	16.38
293.381	14.38
294.174	15.38
294.968	12.38
295.761	14.38
296.555	12.38
297.348	16.38
298.141	11.38
298.935	14.38
299.728	13.38
300.521	13.38
301.314	13.38
302.107	13.38
302.899	10.38
303.692	13.38
304.485	11.38
305.277	11.38
306.07	9.38
306.862	11.38
307.655	12.38
308.447	11.38
309.239	12.38
310.031	13.38
310.823	12.38
311.615	11.38
312.407	8.38
313.199	9.38
313.991	9.38
314.783	9.38
315.574	5.38
316.366	6.38
317.157	5.38
317.949	7.38
318.74	7.38
319.531	7.38
320.322	8.38
321.113	5.38
321.904	5.38
322.695	5.38
323.486	6.38
324.277	7.38
325.068	4.38
325.858	6.38
326.649	4.38
327.439	5.38
328.23	6.38
329.02	5.38
329.81	5.38
330.6	7.38
331.391	7.38
332.181	3.38
332.971	5.38
333.76	4.38
334.55	7.38
335.34	8.38
336.13	6.38
336.919	5.38
337.709	6.38
338.498	3.38
339.287	6.38
340.077	3.38
340.866	7.38
341.655	6.38
342.444	5.38
343.233	7.38
344.022	4.38
344.811	6.38
345.6	3.38
346.388	4.38
347.177	4.38
347.965	6.38
348.754	7.38
349.542	5.38
350.33	5.38
351.119	6.38
351.907	5.38
352.695	5.38
353.483	5.38
354.271	4.38
355.059	3.38
355.846	4.38
356.634	4.38
357.422	5.38
358.209	4.38
358.997	4.38
359.784	4.38
360.571	4.38
361.359	3.38
362.146	4.38
362.933	4.38
363.72	4.38
364.507	5.38
365.294	5.38
366.081	3.38
366.867	3.38
367.654	6.38
368.44	4.38
369.227	3.38
370.013	4.38
370.8	7.38
371.586	4.38
372.372	6.38
373.158	2.38
373.944	5.38
374.73	6.38
375.516	4.38
376.302	1.38
377.088	3.38
377.873	3.38
378.659	3.38
379.445	6.38
380.23	4.38
381.015	4.38
381.801	4.38
382.586	3.38
383.371	3.38
384.156	5.38
384.941	2.38
385.726	1.38
386.511	3.38
387.296	5.38
388.08	4.38
388.865	4.38
389.649	4.38
390.434	4.38
391.218	4.38
392.003	1.38
392.787	3.38
393.571	6.38
394.355	5.38
395.139	5.38
395.923	4.38
396.707	5.38
397.491	6.38
398.274	5.38
399.058	6.38
399.842	4.38
400.625	4.38
401.408	3.38
402.192	8.38
402.975	7.38
403.758	9.38
404.541	5.38
405.324	7.38
406.107	6.38
406.89	6.38
407.673	9.38
408.456	6.38
409.238	5.38
410.021	8.38
410.803	8.38
411.586	8.38
412.368	5.38
413.151	8.38
413.933	5.38
414.715	6.38
415.497	7.38
416.279	7.38
417.061	6.38
417.843	6.38
418.624	7.38
419.406	8.38
420.188	7.38
420.969	9.38
421.751	9.38
422.532	10.38
423.313	9.38
424.095	11.38
424.876	8.38
425.657	9.38
426.438	9.38
427.219	11.38
428	12.38
428.78	11.38
429.561	12.38
430.342	13.38
431.122	14.38
431.903	15.38
432.683	9.38
433.464	15.38
434.244	14.38
435.024	16.38
435.804	17.38
436.584	18.38
437.364	17.38
438.144	18.38
438.924	20.38
439.704	20.38
440.483	21.38
441.263	26.38
442.042	22.38
442.822	28.38
443.601	28.38
444.38	30.38
445.16	35.38
445.939	34.38
446.718	37.38
447.497	41.38
448.276	47.38
449.054	47.38
449.833	52.38
450.612	55.38
451.391	62.38
452.169	66.38
452.948	73.38
453.726	81.38
454.504	95.38
455.282	102.38
456.061	115.38
456.839	123.38
457.617	135.38
458.395	154.38
459.172	165.38
459.95	196.38
460.728	207.38
461.506	238.38
462.283	269.38
463.061	293.38
463.838	333.38
464.615	358.38
465.393	396.38
466.17	445.38
466.947	493.38
467.724	552.38
468.501	607.38
469.278	661.38
470.055	748.38
470.831	823.38
471.608	906.38
472.385	999.38
473.161	1104.38
473.938	1216.38
474.714	1329.38
475.49	1476.38
476.266	1623.38
477.043	1763.38
477.819	1910.38
478.595	2124.38
479.371	2318.38
480.146	2541.38
480.922	2786.38
481.698	3032.38
482.473	3323.38
483.249	3623.38
484.024	3952.38
484.8	4319.38
485.575	4665.38
486.35	5116.38
487.126	5568.38
487.901	6055.38
488.676	6562.38
489.451	7126.38
490.225	7781.38
491	8419.38
491.775	9133.38
492.55	9915.38
493.324	10739.38
494.099	11405.38
494.873	12253.38
495.647	13176.38
496.422	14159.38
497.196	15102.38
497.97	16158.38
498.744	17207.38
499.518	18200.38
500.292	19153.38
501.066	20208.38
501.839	21065.38
502.613	21969.38
503.387	22792.38
504.16	23586.38
504.934	24049.38
505.707	24398.38
506.48	24653.38
507.253	24845.38
508.027	24873.38
508.8	24821.38
509.573	24734.38
510.346	24395.38
511.118	23974.38
511.891	23376.38
512.664	22747.38
513.437	22115.38
514.209	21385.38
514.982	20666.38
515.754	19830.38
516.526	19092.38
517.298	18310.38
518.071	17643.38
518.843	16927.38
519.615	16298.38
520.387	15755.38
521.159	15024.38
521.93	14425.38
522.702	13848.38
523.474	13317.38
524.245	12725.38
525.017	12185.38
525.788	11775.38
526.56	11241.38
527.331	10732.38
528.102	10254.38
528.873	9832.38
529.644	9373.38
530.415	8972.38
531.186	8533.38
531.957	8136.38
532.728	7713.38
533.498	7368.38
534.269	6975.38
535.039	6604.38
535.81	6260.38
536.58	5925.38
537.351	5566.38
538.121	5292.38
538.891	5023.38
539.661	4726.38
540.431	4479.38
541.201	4241.38
541.971	4003.38
542.741	3793.38
543.51	3624.38
544.28	3426.38
545.05	3286.38
545.819	3089.38
546.588	2954.38
547.358	2818.38
548.127	2674.38
548.896	2526.38
549.665	2418.38
550.434	2286.38
551.203	2167.38
551.972	2061.38
552.741	1932.38
553.51	1845.38
554.278	1752.38
555.047	1643.38
555.815	1549.38
556.584	1487.38
557.352	1403.38
558.121	1339.38
558.889	1247.38
559.657	1171.38
560.425	1114.38
561.193	1057.38
561.961	980.38
562.729	934.38
563.496	891.38
564.264	828.38
565.032	785.38
565.799	748.38
566.567	708.38
567.334	669.38
568.101	630.38
568.869	590.38
569.636	563.38
570.403	524.38
571.17	492.38
571.937	477.38
572.704	441.38
573.471	413.38
574.237	405.38
575.004	372.38
575.771	346.38
576.537	321.38
577.303	306.38
578.07	296.38
578.836	272.38
579.602	258.38
580.368	240.38
581.134	229.38
581.9	224.38
582.666	211.38
583.432	196.38
584.198	193.38
584.964	179.38
585.729	170.38
586.495	161.38
587.26	153.38
588.025	144.38
588.791	137.38
589.556	132.38
590.321	122.38
591.086	117.38
591.851	113.38
592.616	102.38
593.381	97.38
594.146	93.38
594.911	88.38
595.675	83.38
596.44	82.38
597.204	79.38
597.969	74.38
598.733	69.38
599.497	68.38
600.261	65.38
601.025	61.38
601.79	56.38
602.553	52.38
603.317	54.38
604.081	52.38
604.845	47.38
605.609	47.38
606.372	46.38
607.136	44.38
607.899	41.38
608.662	38.38
609.426	39.38
610.189	35.38
610.952	36.38
611.715	32.38
612.478	28.38
613.241	28.38
614.004	29.38
614.767	29.38
615.529	28.38
616.292	26.38
617.055	24.38
617.817	24.38
618.579	23.38
619.342	22.38
620.104	24.38
620.866	20.38
621.628	20.38
622.39	17.38
623.152	19.38
623.914	17.38
624.676	16.38
625.438	17.38
626.199	17.38
626.961	17.38
627.722	14.38
628.484	15.38
629.245	13.38
630.006	15.38
630.768	13.38
631.529	11.38
632.29	14.38
633.051	12.38
633.812	10.38
634.573	11.38
635.333	12.38
636.094	11.38
636.855	11.38
637.615	9.38
638.376	9.38
639.136	14.38
639.896	8.38
640.657	7.38
641.417	9.38
642.177	7.38
642.937	8.38
643.697	9.38
644.457	10.38
645.216	6.38
645.976	7.38
646.736	6.38
647.495	7.38
648.255	7.38
649.014	8.38
649.774	6.38
650.533	5.38
651.292	4.38
652.051	6.38
652.81	4.38
653.569	6.38
654.328	5.38
655.087	5.38
655.846	4.38
656.604	8.38
657.363	6.38
658.121	5.38
658.88	6.38
659.638	3.38
660.397	3.38
661.155	5.38
661.913	3.38
662.671	4.38
663.429	4.38
664.187	5.38
664.945	6.38
665.703	2.38
666.46	4.38
667.218	3.38
667.976	3.38
668.733	3.38
669.49	2.38
670.248	5.38
671.005	2.38
671.762	3.38
672.519	1.38
673.276	6.38
674.033	2.38
674.79	4.38
675.547	2.38
676.304	4.38
677.06	5.38
677.817	4.38
678.574	2.38
679.33	3.38
680.086	3.38
680.843	4.38
681.599	1.38
682.355	4.38
683.111	3.38
683.867	2.38
684.623	2.38
685.379	1.38
686.135	3.38
686.89	4.38
687.646	3.38
688.402	2.38
689.157	4.38
689.912	2.38
690.668	2.38
691.423	6.38
692.178	4.38
692.933	3.38
693.688	3.38
694.443	1.38
695.198	0.38
695.953	3.38
696.708	2.38
697.462	1.38
698.217	2.38
698.972	5.38
699.726	1.38
700.48	3.38
701.235	2.38
701.989	4.38
702.743	4.38
703.497	2.38
704.251	1.38
705.005	1.38
705.759	2.38
706.513	3.38
707.266	3.38
708.02	1.38
708.774	4.38
709.527	2.38
710.28	1.38
711.034	3.38
711.787	1.38
712.54	2.38
713.293	2.38
714.046	4.38
714.799	0.38
715.552	3.38
716.305	2.38
717.058	3.38
717.81	2.38
718.563	2.38
719.315	3.38
720.068	2.38
720.82	2.38
721.573	2.38
722.325	1.38
723.077	2.38
723.829	2.38
724.581	4.38
725.333	1.38
726.085	1.38
726.836	3.38
727.588	3.38
728.34	2.38
729.091	3.38
729.843	2.38
730.594	3.38
731.346	3.38
732.097	3.38
732.848	2.38
733.599	3.38
734.35	2.38
735.101	2.38
735.852	1.38
736.603	3.38
737.354	3.38
738.104	4.38
738.855	3.38
739.605	2.38
740.356	1.38
741.106	3.38
741.856	0.38
742.607	4.38
743.357	6.38
744.107	4.38
744.857	4.38
745.607	4.38
746.357	6.38
747.106	4.38
747.856	5.38
748.606	4.38
749.355	5.38
750.105	5.38
750.854	2.38
751.603	5.38
752.353	3.38
753.102	4.38
753.851	3.38
754.6	4.38
755.349	1.38
756.098	4.38
756.847	7.38
757.595	5.38
758.344	5.38
759.093	6.38
759.841	5.38
760.589	3.38
761.338	6.38
762.086	5.38
762.834	3.38
763.582	6.38
764.331	4.38
765.079	4.38
765.826	5.38
766.574	4.38
767.322	4.38
768.07	3.38
768.817	6.38
769.565	7.38
770.312	6.38
771.06	5.38
771.807	3.38
772.554	6.38
773.302	4.38
774.049	4.38
774.796	4.38
775.543	5.38
776.29	6.38
777.036	5.38
777.783	8.38
778.53	4.38
779.276	9.38
780.023	5.38
780.769	6.38
781.516	9.38
782.262	8.38
783.008	5.38
783.754	7.38
784.5	7.38
785.246	7.38
785.992	7.38
786.738	7.38
787.484	5.38
788.23	9.38
788.975	6.38
789.721	6.38
790.466	8.38
791.212	6.38
791.957	6.38
792.702	7.38
793.447	6.38
794.193	7.38
794.938	8.38
795.683	7.38
796.427	8.38
797.172	7.38
797.917	6.38
798.662	7.38
799.406	6.38
800.151	7.38
800.895	5.38
801.64	4.38
802.384	7.38
803.128	5.38
803.872	3.38
804.616	4.38
805.36	3.38
806.104	6.38
806.848	5.38
807.592	4.38
808.336	7.38
809.079	3.38
809.823	6.38
810.566	4.38
811.31	4.38
812.053	4.38
812.796	4.38
813.539	4.38
814.283	3.38
815.026	3.38
815.769	1.38
816.511	3.38
817.254	0.38
817.997	4.38
818.74	3.38
819.482	2.38
820.225	4.38
820.967	3.38
821.71	2.38
822.452	4.38
823.194	2.38
823.936	3.38
824.678	1.38
825.42	6.38
826.162	3.38
826.904	3.38
827.646	2.38
828.388	2.38
829.129	4.38
829.871	1.38
830.612	3.38
831.354	2.38
832.095	2.38
832.836	5.38
833.577	1.38
834.319	1.38
835.06	1.38
835.801	4.38
836.542	0.38
837.282	3.38
838.023	1.38
838.764	1.38
839.504	3.38
840.245	2.38
840.985	1.38
841.726	3.38
842.466	3.38
843.206	0.38
843.946	2.38
844.687	4.38
845.427	4.38
846.166	2.38
846.906	4.38
847.646	1.38
848.386	1.38
849.125	4.38
849.865	3.38
850.605	1.38
851.344	3.38
852.083	1.38
852.823	2.38
853.562	3.38
854.301	1.38
855.04	3.38
855.779	2.38
856.518	0.38
857.257	2.38
857.995	1.38
858.734	2.38
859.473	0.38
860.211	2.38
860.95	-0.62
861.688	2.38
862.426	1.38
863.165	1.38
863.903	1.38
864.641	-0.62
865.379	2.38
866.117	0.38
866.855	2.38
867.593	1.38
868.33	1.38
869.068	1.38
869.806	1.38
870.543	1.38
871.28	0.38
872.018	1.38
872.755	-0.62
873.492	-0.62
874.229	1.38
874.967	1.38
875.703	-0.62
876.44	-1.62
877.177	-1.62
877.914	-0.62
878.651	-0.62
879.387	0.38
880.124	0.38
880.86	1.38
881.597	2.38
882.333	0.38
883.069	0.38
883.806	0.38
884.542	0.38
885.278	2.38
886.014	1.38
886.749	-0.62
887.485	1.38
888.221	1.38
888.957	-1.62
889.692	-0.62
890.428	3.38
891.163	1.38
891.899	-2.62
892.634	-0.62
893.369	0.38
894.104	-1.62
894.839	2.38
895.574	1.38
896.309	-0.62
897.044	-0.62
897.779	0.38
898.514	1.38
899.248	0.38
899.983	2.38
900.717	-0.62
901.452	1.38
902.186	0.38
902.92	0.38
903.654	-0.62
904.389	1.38
905.123	-1.62
905.857	0.38
906.59	-0.62
907.324	-0.62
908.058	0.38
908.792	-1.62
909.525	-1.62
910.259	0.38
910.992	1.38
911.726	-0.62
912.459	-0.62
913.192	-1.62
913.925	1.38
914.658	-0.62
915.391	-0.62
916.124	-1.62
916.857	-2.62
917.59	1.38
918.323	-0.62
919.055	-0.62
919.788	0.38
920.521	-0.62
921.253	-2.62
921.985	-2.62
922.718	0.38
923.45	-0.62
924.182	-0.62
924.914	-1.62
925.646	0.38
926.378	0.38
927.11	0.38
927.841	0.38
928.573	-2.62
929.305	-0.62
930.036	0.38
930.768	1.38
931.499	-0.62
932.23	-0.62
932.962	1.38
933.693	-2.62
934.424	-0.62
935.155	0.38
935.886	0.38
936.617	1.38
937.348	-0.62
938.078	0.38
938.809	-0.62
939.54	-1.62
940.27	0.38
941.001	1.38
941.731	-1.62
942.461	-1.62
943.191	-1.62
943.922	-1.62
944.652	-1.62
945.382	0.38
946.112	-2.62
946.841	-1.62
947.571	-0.62
948.301	-0.62
949.031	1.38
949.76	1.38
950.49	0.38
951.219	-1.62
951.948	-2.62
952.678	-0.62
953.407	-0.62
954.136	0.38
954.865	-2.62
955.594	1.38
956.323	-0.62
957.052	0.38
957.78	0.38
958.509	-0.62
959.238	-0.62
959.966	-0.62
960.695	0.38
961.423	0.38
962.151	0.38
962.88	-0.62
963.608	0.38
964.336	-0.62
965.064	-1.62
965.792	-0.62
966.52	-0.62
967.247	0.38
967.975	-0.62
968.703	-1.62
969.43	-2.62
970.158	-0.62
970.885	-0.62
971.613	-1.62
972.34	-0.62
973.067	-0.62
973.794	-1.62
974.521	-2.62
975.248	-1.62
975.975	-0.62
976.702	0.38
977.429	-0.62
978.156	-0.62
978.882	-0.62
979.609	-1.62
980.335	-1.62
981.062	0.38
981.788	-2.62
982.514	-1.62
983.24	-0.62
983.967	-2.62
984.693	-1.62
985.419	-0.62
986.144	-0.62
986.87	-0.62
987.596	-0.62
988.322	0.38
989.047	-0.62
989.773	0.38
990.498	0.38
991.224	-2.62
991.949	0.38
992.674	0.38
993.399	1.38
994.124	-0.62
994.849	-0.62
995.574	-0.62
996.299	-1.62
997.024	0.38
997.749	0.38
998.473	-0.62
999.198	-1.62
999.922	1.38
1000.647	0.38
1001.371	3.38
1002.095	-1.62
1002.82	0.38
1003.544	-0.62
1004.268	-2.62
1004.992	-0.62
1005.716	0.38
1006.439	0.38
1007.163	1.38
1007.887	-0.62
1008.611	0.38
1009.334	-2.62
1010.058	0.38
1010.781	1.38
1011.504	-0.62
1012.228	-0.62
1012.951	-0.62
1013.674	-0.62
1014.397	-0.62
1015.12	0.38
