节点500_285_QEPB04081__451__15-03-03-547.txt的数据

Date: Wed Nov 12 15:03:03 CST 2025
User: PC
Spectrometer: QEPB0408
触发模式: 0
积分时间 (秒): 1.000000E-2
Scans to average: 1
启用暗噪声校正: true
启用非线性校正: false
滑动平均宽度: 0
X轴模式: Wavelengths
Number of Pixels in Spectrum: 1044
>>>>>Begin Spectral Data<<<<<
220.843	1.62
221.644	1.62
222.444	3.62
223.244	1.62
224.045	1.62
224.845	3.62
225.645	4.62
226.445	0.62
227.245	0.62
228.045	1.62
228.845	5.62
229.645	2.62
230.444	0.62
231.244	4.62
232.043	3.62
232.843	3.62
233.642	1.62
234.442	1.62
235.241	3.62
236.04	0.62
236.839	2.62
237.638	5.62
238.437	2.62
239.236	1.62
240.035	2.62
240.833	2.62
241.632	4.62
242.43	4.62
243.229	4.62
244.027	5.62
244.826	3.62
245.624	4.62
246.422	6.62
247.22	4.62
248.018	5.62
248.816	5.62
249.614	6.62
250.412	4.62
251.21	6.62
252.007	7.62
252.805	5.62
253.602	4.62
254.4	9.62
255.197	10.62
255.994	6.62
256.791	6.62
257.589	10.62
258.386	7.62
259.183	7.62
259.979	9.62
260.776	8.62
261.573	8.62
262.37	9.62
263.166	12.62
263.963	10.62
264.759	10.62
265.556	8.62
266.352	8.62
267.148	13.62
267.944	13.62
268.74	14.62
269.536	12.62
270.332	16.62
271.128	15.62
271.924	15.62
272.719	13.62
273.515	17.62
274.311	13.62
275.106	13.62
275.901	16.62
276.697	17.62
277.492	17.62
278.287	18.62
279.082	17.62
279.877	16.62
280.672	13.62
281.467	18.62
282.262	19.62
283.056	18.62
283.851	18.62
284.646	19.62
285.44	17.62
286.234	19.62
287.029	18.62
287.823	17.62
288.617	18.62
289.411	17.62
290.205	19.62
290.999	18.62
291.793	17.62
292.587	15.62
293.381	17.62
294.174	15.62
294.968	16.62
295.761	15.62
296.555	16.62
297.348	14.62
298.141	14.62
298.935	15.62
299.728	15.62
300.521	16.62
301.314	15.62
302.107	13.62
302.899	14.62
303.692	13.62
304.485	8.62
305.277	11.62
306.07	13.62
306.862	11.62
307.655	10.62
308.447	12.62
309.239	11.62
310.031	11.62
310.823	11.62
311.615	8.62
312.407	12.62
313.199	9.62
313.991	10.62
314.783	9.62
315.574	7.62
316.366	8.62
317.157	7.62
317.949	11.62
318.74	9.62
319.531	8.62
320.322	8.62
321.113	7.62
321.904	7.62
322.695	8.62
323.486	7.62
324.277	8.62
325.068	7.62
325.858	9.62
326.649	6.62
327.439	7.62
328.23	3.62
329.02	5.62
329.81	5.62
330.6	7.62
331.391	7.62
332.181	6.62
332.971	6.62
333.76	6.62
334.55	4.62
335.34	6.62
336.13	6.62
336.919	6.62
337.709	6.62
338.498	7.62
339.287	4.62
340.077	5.62
340.866	7.62
341.655	6.62
342.444	4.62
343.233	5.62
344.022	7.62
344.811	7.62
345.6	6.62
346.388	5.62
347.177	7.62
347.965	5.62
348.754	5.62
349.542	4.62
350.33	5.62
351.119	4.62
351.907	6.62
352.695	4.62
353.483	6.62
354.271	6.62
355.059	4.62
355.846	5.62
356.634	4.62
357.422	6.62
358.209	2.62
358.997	3.62
359.784	5.62
360.571	4.62
361.359	6.62
362.146	6.62
362.933	5.62
363.72	5.62
364.507	5.62
365.294	5.62
366.081	2.62
366.867	5.62
367.654	6.62
368.44	5.62
369.227	4.62
370.013	5.62
370.8	4.62
371.586	4.62
372.372	4.62
373.158	4.62
373.944	5.62
374.73	4.62
375.516	3.62
376.302	5.62
377.088	5.62
377.873	6.62
378.659	6.62
379.445	6.62
380.23	3.62
381.015	3.62
381.801	4.62
382.586	4.62
383.371	3.62
384.156	4.62
384.941	7.62
385.726	6.62
386.511	7.62
387.296	5.62
388.08	3.62
388.865	4.62
389.649	5.62
390.434	4.62
391.218	4.62
392.003	4.62
392.787	5.62
393.571	4.62
394.355	4.62
395.139	7.62
395.923	7.62
396.707	6.62
397.491	4.62
398.274	5.62
399.058	7.62
399.842	6.62
400.625	5.62
401.408	6.62
402.192	7.62
402.975	7.62
403.758	5.62
404.541	9.62
405.324	5.62
406.107	7.62
406.89	6.62
407.673	6.62
408.456	5.62
409.238	8.62
410.021	8.62
410.803	8.62
411.586	11.62
412.368	8.62
413.151	7.62
413.933	9.62
414.715	4.62
415.497	9.62
416.279	5.62
417.061	7.62
417.843	9.62
418.624	9.62
419.406	9.62
420.188	8.62
420.969	7.62
421.751	8.62
422.532	9.62
423.313	11.62
424.095	10.62
424.876	13.62
425.657	11.62
426.438	13.62
427.219	13.62
428	13.62
428.78	13.62
429.561	10.62
430.342	11.62
431.122	13.62
431.903	14.62
432.683	12.62
433.464	16.62
434.244	14.62
435.024	14.62
435.804	20.62
436.584	18.62
437.364	18.62
438.144	18.62
438.924	18.62
439.704	21.62
440.483	21.62
441.263	24.62
442.042	24.62
442.822	24.62
443.601	26.62
444.38	29.62
445.16	29.62
445.939	29.62
446.718	35.62
447.497	36.62
448.276	42.62
449.054	47.62
449.833	47.62
450.612	51.62
451.391	56.62
452.169	65.62
452.948	70.62
453.726	73.62
454.504	82.62
455.282	93.62
456.061	101.62
456.839	111.62
457.617	129.62
458.395	137.62
459.172	153.62
459.95	171.62
460.728	192.62
461.506	211.62
462.283	237.62
463.061	264.62
463.838	296.62
464.615	333.62
465.393	369.62
466.17	410.62
466.947	460.62
467.724	507.62
468.501	568.62
469.278	638.62
470.055	705.62
470.831	769.62
471.608	864.62
472.385	960.62
473.161	1063.62
473.938	1184.62
474.714	1330.62
475.49	1437.62
476.266	1586.62
477.043	1747.62
477.819	1939.62
478.595	2128.62
479.371	2362.62
480.146	2595.62
480.922	2828.62
481.698	3124.62
482.473	3446.62
483.249	3774.62
484.024	4145.62
484.8	4566.62
485.575	5019.62
486.35	5494.62
487.126	6013.62
487.901	6592.62
488.676	7213.62
489.451	7879.62
490.225	8608.62
491	9386.62
491.775	10265.62
492.55	11137.62
493.324	12042.62
494.099	12937.62
494.873	13970.62
495.647	15115.62
496.422	16196.62
497.196	17336.62
497.97	18520.62
498.744	19652.62
499.518	20811.62
500.292	21896.62
501.066	22960.62
501.839	23950.62
502.613	24845.62
503.387	25682.62
504.16	26269.62
504.934	26660.62
505.707	26884.62
506.48	27006.62
507.253	26973.62
508.027	26759.62
508.8	26553.62
509.573	26029.62
510.346	25565.62
511.118	24872.62
511.891	24140.62
512.664	23289.62
513.437	22538.62
514.209	21582.62
514.982	20762.62
515.754	19891.62
516.526	18931.62
517.298	18121.62
518.071	17302.62
518.843	16711.62
519.615	16054.62
520.387	15494.62
521.159	14804.62
521.93	14209.62
522.702	13621.62
523.474	13110.62
524.245	12512.62
525.017	11996.62
525.788	11574.62
526.56	11039.62
527.331	10473.62
528.102	10068.62
528.873	9609.62
529.644	9117.62
530.415	8669.62
531.186	8245.62
531.957	7860.62
532.728	7485.62
533.498	7071.62
534.269	6662.62
535.039	6269.62
535.81	5986.62
536.58	5638.62
537.351	5282.62
538.121	5016.62
538.891	4735.62
539.661	4482.62
540.431	4237.62
541.201	3997.62
541.971	3808.62
542.741	3587.62
543.51	3411.62
544.28	3272.62
545.05	3069.62
545.819	2952.62
546.588	2796.62
547.358	2642.62
548.127	2532.62
548.896	2403.62
549.665	2269.62
550.434	2135.62
551.203	2045.62
551.972	1920.62
552.741	1827.62
553.51	1715.62
554.278	1625.62
555.047	1527.62
555.815	1468.62
556.584	1380.62
557.352	1299.62
558.121	1209.62
558.889	1160.62
559.657	1094.62
560.425	1040.62
561.193	968.62
561.961	918.62
562.729	871.62
563.496	804.62
564.264	763.62
565.032	733.62
565.799	688.62
566.567	654.62
567.334	614.62
568.101	577.62
568.869	556.62
569.636	519.62
570.403	490.62
571.17	461.62
571.937	443.62
572.704	414.62
573.471	387.62
574.237	371.62
575.004	345.62
575.771	327.62
576.537	305.62
577.303	286.62
578.07	273.62
578.836	253.62
579.602	241.62
580.368	223.62
581.134	220.62
581.9	209.62
582.666	192.62
583.432	183.62
584.198	165.62
584.964	165.62
585.729	161.62
586.495	145.62
587.26	142.62
588.025	129.62
588.791	124.62
589.556	122.62
590.321	114.62
591.086	102.62
591.851	96.62
592.616	96.62
593.381	93.62
594.146	86.62
594.911	86.62
595.675	78.62
596.44	75.62
597.204	76.62
597.969	72.62
598.733	63.62
599.497	59.62
600.261	57.62
601.025	55.62
601.79	55.62
602.553	52.62
603.317	49.62
604.081	47.62
604.845	47.62
605.609	43.62
606.372	40.62
607.136	41.62
607.899	35.62
608.662	37.62
609.426	35.62
610.189	34.62
610.952	33.62
611.715	33.62
612.478	31.62
613.241	28.62
614.004	25.62
614.767	26.62
615.529	27.62
616.292	25.62
617.055	24.62
617.817	24.62
618.579	23.62
619.342	22.62
620.104	21.62
620.866	21.62
621.628	21.62
622.39	19.62
623.152	17.62
623.914	16.62
624.676	16.62
625.438	16.62
626.199	13.62
626.961	17.62
627.722	12.62
628.484	16.62
629.245	13.62
630.006	15.62
630.768	13.62
631.529	14.62
632.29	11.62
633.051	10.62
633.812	12.62
634.573	13.62
635.333	12.62
636.094	12.62
636.855	11.62
637.615	12.62
638.376	9.62
639.136	11.62
639.896	11.62
640.657	8.62
641.417	10.62
642.177	10.62
642.937	9.62
643.697	10.62
644.457	7.62
645.216	7.62
645.976	7.62
646.736	6.62
647.495	6.62
648.255	8.62
649.014	6.62
649.774	5.62
650.533	6.62
651.292	3.62
652.051	6.62
652.81	5.62
653.569	5.62
654.328	5.62
655.087	6.62
655.846	7.62
656.604	3.62
657.363	6.62
658.121	4.62
658.88	5.62
659.638	5.62
660.397	3.62
661.155	7.62
661.913	3.62
662.671	5.62
663.429	4.62
664.187	4.62
664.945	5.62
665.703	6.62
666.46	5.62
667.218	6.62
667.976	4.62
668.733	4.62
669.49	1.62
670.248	6.62
671.005	3.62
671.762	4.62
672.519	4.62
673.276	4.62
674.033	5.62
674.79	3.62
675.547	6.62
676.304	2.62
677.06	3.62
677.817	3.62
678.574	3.62
679.33	3.62
680.086	3.62
680.843	3.62
681.599	3.62
682.355	2.62
683.111	5.62
683.867	3.62
684.623	3.62
685.379	1.62
686.135	3.62
686.89	3.62
687.646	-0.38
688.402	5.62
689.157	0.62
689.912	2.62
690.668	4.62
691.423	4.62
692.178	3.62
692.933	1.62
693.688	4.62
694.443	2.62
695.198	4.62
695.953	2.62
696.708	2.62
697.462	3.62
698.217	2.62
698.972	5.62
699.726	4.62
700.48	4.62
701.235	0.62
701.989	3.62
702.743	3.62
703.497	3.62
704.251	2.62
705.005	2.62
705.759	3.62
706.513	3.62
707.266	3.62
708.02	3.62
708.774	2.62
709.527	3.62
710.28	5.62
711.034	3.62
711.787	4.62
712.54	1.62
713.293	3.62
714.046	0.62
714.799	4.62
715.552	2.62
716.305	3.62
717.058	2.62
717.81	1.62
718.563	2.62
719.315	4.62
720.068	4.62
720.82	3.62
721.573	3.62
722.325	2.62
723.077	2.62
723.829	1.62
724.581	3.62
725.333	5.62
726.085	5.62
726.836	4.62
727.588	3.62
728.34	3.62
729.091	4.62
729.843	4.62
730.594	3.62
731.346	4.62
732.097	2.62
732.848	7.62
733.599	2.62
734.35	4.62
735.101	4.62
735.852	4.62
736.603	6.62
737.354	5.62
738.104	6.62
738.855	4.62
739.605	3.62
740.356	4.62
741.106	1.62
741.856	3.62
742.607	4.62
743.357	2.62
744.107	5.62
744.857	5.62
745.607	5.62
746.357	4.62
747.106	3.62
747.856	3.62
748.606	3.62
749.355	5.62
750.105	4.62
750.854	7.62
751.603	3.62
752.353	5.62
753.102	4.62
753.851	4.62
754.6	4.62
755.349	4.62
756.098	4.62
756.847	1.62
757.595	2.62
758.344	6.62
759.093	6.62
759.841	4.62
760.589	3.62
761.338	4.62
762.086	5.62
762.834	3.62
763.582	6.62
764.331	5.62
765.079	6.62
765.826	7.62
766.574	6.62
767.322	7.62
768.07	6.62
768.817	6.62
769.565	7.62
770.312	10.62
771.06	6.62
771.807	6.62
772.554	8.62
773.302	6.62
774.049	9.62
774.796	9.62
775.543	6.62
776.29	9.62
777.036	6.62
777.783	5.62
778.53	7.62
779.276	8.62
780.023	8.62
780.769	8.62
781.516	8.62
782.262	7.62
783.008	6.62
783.754	9.62
784.5	7.62
785.246	11.62
785.992	8.62
786.738	6.62
787.484	8.62
788.23	8.62
788.975	7.62
789.721	8.62
790.466	9.62
791.212	6.62
791.957	8.62
792.702	6.62
793.447	7.62
794.193	8.62
794.938	6.62
795.683	8.62
796.427	6.62
797.172	10.62
797.917	5.62
798.662	6.62
799.406	4.62
800.151	8.62
800.895	8.62
801.64	9.62
802.384	6.62
803.128	5.62
803.872	5.62
804.616	5.62
805.36	6.62
806.104	6.62
806.848	5.62
807.592	8.62
808.336	8.62
809.079	5.62
809.823	6.62
810.566	7.62
811.31	5.62
812.053	3.62
812.796	5.62
813.539	5.62
814.283	4.62
815.026	3.62
815.769	3.62
816.511	9.62
817.254	2.62
817.997	4.62
818.74	3.62
819.482	4.62
820.225	6.62
820.967	4.62
821.71	5.62
822.452	3.62
823.194	1.62
823.936	4.62
824.678	3.62
825.42	5.62
826.162	2.62
826.904	6.62
827.646	5.62
828.388	4.62
829.129	1.62
829.871	1.62
830.612	3.62
831.354	2.62
832.095	4.62
832.836	1.62
833.577	2.62
834.319	1.62
835.06	1.62
835.801	3.62
836.542	4.62
837.282	3.62
838.023	4.62
838.764	1.62
839.504	5.62
840.245	1.62
840.985	1.62
841.726	3.62
842.466	5.62
843.206	3.62
843.946	0.62
844.687	3.62
845.427	0.62
846.166	3.62
846.906	2.62
847.646	1.62
848.386	1.62
849.125	2.62
849.865	3.62
850.605	3.62
851.344	2.62
852.083	3.62
852.823	1.62
853.562	1.62
854.301	1.62
855.04	1.62
855.779	1.62
856.518	1.62
857.257	2.62
857.995	0.62
858.734	-0.38
859.473	1.62
860.211	2.62
860.95	3.62
861.688	1.62
862.426	0.62
863.165	3.62
863.903	3.62
864.641	-0.38
865.379	0.62
866.117	1.62
866.855	0.62
867.593	0.62
868.33	1.62
869.068	1.62
869.806	2.62
870.543	1.62
871.28	-1.38
872.018	1.62
872.755	1.62
873.492	1.62
874.229	1.62
874.967	1.62
875.703	1.62
876.44	0.62
877.177	1.62
877.914	2.62
878.651	1.62
879.387	1.62
880.124	-0.38
880.86	1.62
881.597	1.62
882.333	-0.38
883.069	1.62
883.806	-0.38
884.542	1.62
885.278	0.62
886.014	0.62
886.749	0.62
887.485	1.62
888.221	1.62
888.957	1.62
889.692	0.62
890.428	1.62
891.163	0.62
891.899	1.62
892.634	-1.38
893.369	1.62
894.104	-0.38
894.839	0.62
895.574	-0.38
896.309	2.62
897.044	2.62
897.779	-0.38
898.514	0.62
899.248	1.62
899.983	-1.38
900.717	0.62
901.452	-1.38
902.186	0.62
902.92	1.62
903.654	-0.38
904.389	0.62
905.123	0.62
905.857	0.62
906.59	-2.38
907.324	-0.38
908.058	-0.38
908.792	0.62
909.525	0.62
910.259	-1.38
910.992	-0.38
911.726	-0.38
912.459	0.62
913.192	1.62
913.925	-1.38
914.658	1.62
915.391	-1.38
916.124	-0.38
916.857	-0.38
917.59	-2.38
918.323	1.62
919.055	-0.38
919.788	0.62
920.521	-0.38
921.253	-0.38
921.985	0.62
922.718	-0.38
923.45	-1.38
924.182	-0.38
924.914	-1.38
925.646	-0.38
926.378	-1.38
927.11	-1.38
927.841	-1.38
928.573	0.62
929.305	-1.38
930.036	0.62
930.768	-1.38
931.499	1.62
932.23	1.62
932.962	-0.38
933.693	1.62
934.424	-0.38
935.155	0.62
935.886	-1.38
936.617	-2.38
937.348	0.62
938.078	-0.38
938.809	0.62
939.54	-0.38
940.27	0.62
941.001	-0.38
941.731	2.62
942.461	-2.38
943.191	0.62
943.922	-0.38
944.652	-0.38
945.382	0.62
946.112	1.62
946.841	-0.38
947.571	0.62
948.301	-0.38
949.031	0.62
949.76	1.62
950.49	-0.38
951.219	-1.38
951.948	0.62
952.678	0.62
953.407	-2.38
954.136	0.62
954.865	-1.38
955.594	-1.38
956.323	-1.38
957.052	0.62
957.78	1.62
958.509	-0.38
959.238	0.62
959.966	0.62
960.695	-0.38
961.423	1.62
962.151	-2.38
962.88	-0.38
963.608	-1.38
964.336	-0.38
965.064	0.62
965.792	0.62
966.52	1.62
967.247	-0.38
967.975	0.62
968.703	-1.38
969.43	-0.38
970.158	0.62
970.885	0.62
971.613	1.62
972.34	-0.38
973.067	-2.38
973.794	1.62
974.521	1.62
975.248	1.62
975.975	-0.38
976.702	-0.38
977.429	0.62
978.156	-1.38
978.882	-0.38
979.609	-0.38
980.335	0.62
981.062	-2.38
981.788	1.62
982.514	-2.38
983.24	0.62
983.967	1.62
984.693	-0.38
985.419	2.62
986.144	-2.38
986.87	-0.38
987.596	-0.38
988.322	0.62
989.047	0.62
989.773	-1.38
990.498	-0.38
991.224	-2.38
991.949	-0.38
992.674	-2.38
993.399	1.62
994.124	-0.38
994.849	-1.38
995.574	0.62
996.299	0.62
997.024	0.62
997.749	0.62
998.473	-1.38
999.198	1.62
999.922	-0.38
1000.647	1.62
1001.371	3.62
1002.095	-0.38
1002.82	-1.38
1003.544	-1.38
1004.268	1.62
1004.992	-0.38
1005.716	0.62
1006.439	1.62
1007.163	1.62
1007.887	1.62
1008.611	0.62
1009.334	1.62
1010.058	0.62
1010.781	-0.38
1011.504	1.62
1012.228	0.62
1012.951	-2.38
1013.674	0.62
1014.397	-0.38
1015.12	1.62
