节点500_285_QEPB04081__15__14-55-49-492.txt的数据

Date: Wed Nov 12 14:55:49 CST 2025
User: PC
Spectrometer: QEPB0408
触发模式: 0
积分时间 (秒): 1.000000E-2
Scans to average: 1
启用暗噪声校正: true
启用非线性校正: false
滑动平均宽度: 0
X轴模式: Wavelengths
Number of Pixels in Spectrum: 1044
>>>>>Begin Spectral Data<<<<<
220.843	2
221.644	3
222.444	3
223.244	3
224.045	2
224.845	1
225.645	3
226.445	4
227.245	2
228.045	3
228.845	1
229.645	3
230.444	4
231.244	5
232.043	3
232.843	4
233.642	4
234.442	3
235.241	3
236.04	4
236.839	6
237.638	6
238.437	4
239.236	5
240.035	5
240.833	4
241.632	6
242.43	5
243.229	4
244.027	6
244.826	5
245.624	5
246.422	7
247.22	7
248.018	5
248.816	9
249.614	6
250.412	7
251.21	8
252.007	8
252.805	7
253.602	10
254.4	7
255.197	6
255.994	9
256.791	9
257.589	10
258.386	9
259.183	8
259.979	13
260.776	12
261.573	11
262.37	12
263.166	11
263.963	13
264.759	14
265.556	17
266.352	15
267.148	12
267.944	16
268.74	14
269.536	16
270.332	17
271.128	19
271.924	17
272.719	19
273.515	18
274.311	17
275.106	19
275.901	21
276.697	20
277.492	19
278.287	19
279.082	23
279.877	20
280.672	21
281.467	17
282.262	20
283.056	20
283.851	20
284.646	19
285.44	19
286.234	21
287.029	20
287.823	20
288.617	22
289.411	19
290.205	19
290.999	17
291.793	24
292.587	17
293.381	20
294.174	22
294.968	19
295.761	17
296.555	17
297.348	16
298.141	14
298.935	18
299.728	17
300.521	17
301.314	13
302.107	14
302.899	12
303.692	16
304.485	13
305.277	14
306.07	11
306.862	13
307.655	10
308.447	12
309.239	11
310.031	11
310.823	13
311.615	10
312.407	8
313.199	11
313.991	9
314.783	11
315.574	10
316.366	10
317.157	8
317.949	8
318.74	10
319.531	10
320.322	10
321.113	10
321.904	7
322.695	9
323.486	8
324.277	6
325.068	9
325.858	6
326.649	7
327.439	7
328.23	7
329.02	7
329.81	9
330.6	9
331.391	6
332.181	8
332.971	6
333.76	8
334.55	7
335.34	8
336.13	7
336.919	5
337.709	9
338.498	6
339.287	8
340.077	6
340.866	5
341.655	6
342.444	6
343.233	9
344.022	5
344.811	7
345.6	7
346.388	7
347.177	6
347.965	6
348.754	7
349.542	7
350.33	6
351.119	8
351.907	4
352.695	6
353.483	7
354.271	5
355.059	7
355.846	6
356.634	9
357.422	6
358.209	5
358.997	8
359.784	6
360.571	5
361.359	6
362.146	5
362.933	5
363.72	6
364.507	5
365.294	6
366.081	6
366.867	6
367.654	5
368.44	6
369.227	7
370.013	7
370.8	5
371.586	5
372.372	5
373.158	5
373.944	6
374.73	6
375.516	7
376.302	5
377.088	3
377.873	5
378.659	5
379.445	9
380.23	4
381.015	6
381.801	5
382.586	5
383.371	7
384.156	4
384.941	7
385.726	8
386.511	4
387.296	7
388.08	5
388.865	8
389.649	4
390.434	7
391.218	7
392.003	7
392.787	9
393.571	6
394.355	7
395.139	8
395.923	6
396.707	8
397.491	5
398.274	7
399.058	5
399.842	5
400.625	6
401.408	9
402.192	9
402.975	8
403.758	7
404.541	8
405.324	5
406.107	7
406.89	7
407.673	9
408.456	7
409.238	8
410.021	11
410.803	8
411.586	9
412.368	10
413.151	8
413.933	8
414.715	9
415.497	10
416.279	9
417.061	10
417.843	10
418.624	8
419.406	12
420.188	10
420.969	10
421.751	10
422.532	13
423.313	13
424.095	11
424.876	13
425.657	12
426.438	15
427.219	16
428	13
428.78	15
429.561	10
430.342	14
431.122	17
431.903	13
432.683	13
433.464	17
434.244	16
435.024	20
435.804	16
436.584	19
437.364	22
438.144	22
438.924	22
439.704	23
440.483	22
441.263	22
442.042	24
442.822	25
443.601	30
444.38	30
445.16	32
445.939	34
446.718	35
447.497	34
448.276	39
449.054	43
449.833	49
450.612	52
451.391	55
452.169	55
452.948	62
453.726	67
454.504	75
455.282	87
456.061	90
456.839	99
457.617	108
458.395	125
459.172	136
459.95	155
460.728	170
461.506	190
462.283	207
463.061	240
463.838	265
464.615	295
465.393	330
466.17	367
466.947	420
467.724	469
468.501	521
469.278	584
470.055	636
470.831	717
471.608	800
472.385	894
473.161	996
473.938	1132
474.714	1241
475.49	1403
476.266	1542
477.043	1721
477.819	1910
478.595	2118
479.371	2352
480.146	2596
480.922	2903
481.698	3215
482.473	3590
483.249	3980
484.024	4366
484.8	4865
485.575	5374
486.35	5956
487.126	6564
487.901	7266
488.676	7994
489.451	8776
490.225	9684
491	10631
491.775	11690
492.55	12768
493.324	13884
494.099	15037
494.873	16224
495.647	17494
496.422	18828
497.196	20099
497.97	21507
498.744	22797
499.518	24133
500.292	25276
501.066	26375
501.839	27279
502.613	28165
503.387	28850
504.16	29335
504.934	29476
505.707	29538
506.48	29292
507.253	29012
508.027	28453
508.8	27874
509.573	27206
510.346	26338
511.118	25308
511.891	24394
512.664	23442
513.437	22455
514.209	21365
514.982	20443
515.754	19449
516.526	18588
517.298	17779
518.071	16970
518.843	16327
519.615	15732
520.387	15064
521.159	14463
521.93	13881
522.702	13412
523.474	12773
524.245	12241
525.017	11714
525.788	11215
526.56	10691
527.331	10147
528.102	9717
528.873	9211
529.644	8740
530.415	8313
531.186	7843
531.957	7411
532.728	7030
533.498	6626
534.269	6282
535.039	5868
535.81	5574
536.58	5249
537.351	4940
538.121	4658
538.891	4416
539.661	4179
540.431	3918
541.201	3730
541.971	3535
542.741	3342
543.51	3180
544.28	3039
545.05	2878
545.819	2737
546.588	2611
547.358	2481
548.127	2372
548.896	2227
549.665	2102
550.434	2013
551.203	1888
551.972	1790
552.741	1691
553.51	1595
554.278	1497
555.047	1415
555.815	1334
556.584	1264
557.352	1195
558.121	1119
558.889	1056
559.657	994
560.425	934
561.193	875
561.961	822
562.729	779
563.496	746
564.264	701
565.032	668
565.799	625
566.567	598
567.334	561
568.101	531
568.869	509
569.636	471
570.403	442
571.17	425
571.937	396
572.704	383
573.471	356
574.237	333
575.004	319
575.771	296
576.537	277
577.303	262
578.07	246
578.836	240
579.602	219
580.368	204
581.134	193
581.9	184
582.666	178
583.432	164
584.198	163
584.964	146
585.729	140
586.495	138
587.26	125
588.025	126
588.791	111
589.556	114
590.321	105
591.086	98
591.851	92
592.616	92
593.381	90
594.146	84
594.911	78
595.675	75
596.44	70
597.204	64
597.969	64
598.733	66
599.497	60
600.261	59
601.025	54
601.79	49
602.553	49
603.317	48
604.081	46
604.845	45
605.609	42
606.372	43
607.136	41
607.899	38
608.662	37
609.426	35
610.189	31
610.952	29
611.715	31
612.478	28
613.241	28
614.004	28
614.767	24
615.529	25
616.292	24
617.055	25
617.817	25
618.579	24
619.342	23
620.104	19
620.866	24
621.628	19
622.39	16
623.152	18
623.914	17
624.676	19
625.438	13
626.199	18
626.961	15
627.722	16
628.484	15
629.245	13
630.006	15
630.768	13
631.529	13
632.29	12
633.051	11
633.812	14
634.573	10
635.333	11
636.094	13
636.855	11
637.615	10
638.376	11
639.136	9
639.896	10
640.657	11
641.417	7
642.177	7
642.937	9
643.697	9
644.457	9
645.216	9
645.976	10
646.736	9
647.495	8
648.255	9
649.014	9
649.774	8
650.533	7
651.292	5
652.051	7
652.81	6
653.569	5
654.328	6
655.087	5
655.846	11
656.604	4
657.363	7
658.121	8
658.88	6
659.638	6
660.397	5
661.155	8
661.913	5
662.671	6
663.429	7
664.187	5
664.945	6
665.703	4
666.46	7
667.218	4
667.976	5
668.733	7
669.49	5
670.248	5
671.005	4
671.762	5
672.519	4
673.276	5
674.033	5
674.79	4
675.547	5
676.304	4
677.06	6
677.817	5
678.574	2
679.33	4
680.086	5
680.843	4
681.599	5
682.355	4
683.111	5
683.867	3
684.623	5
685.379	3
686.135	4
686.89	6
687.646	5
688.402	6
689.157	3
689.912	4
690.668	6
691.423	3
692.178	5
692.933	3
693.688	5
694.443	4
695.198	3
695.953	7
696.708	6
697.462	4
698.217	6
698.972	5
699.726	4
700.48	4
701.235	2
701.989	3
702.743	3
703.497	5
704.251	3
705.005	3
705.759	2
706.513	6
707.266	5
708.02	5
708.774	4
709.527	4
710.28	5
711.034	2
711.787	5
712.54	6
713.293	5
714.046	3
714.799	2
715.552	7
716.305	4
717.058	3
717.81	3
718.563	4
719.315	3
720.068	6
720.82	5
721.573	5
722.325	2
723.077	5
723.829	4
724.581	4
725.333	5
726.085	4
726.836	6
727.588	3
728.34	5
729.091	4
729.843	3
730.594	5
731.346	3
732.097	5
732.848	1
733.599	6
734.35	2
735.101	7
735.852	5
736.603	6
737.354	5
738.104	3
738.855	5
739.605	7
740.356	4
741.106	5
741.856	5
742.607	6
743.357	6
744.107	5
744.857	7
745.607	4
746.357	6
747.106	8
747.856	7
748.606	6
749.355	6
750.105	8
750.854	5
751.603	5
752.353	7
753.102	8
753.851	6
754.6	6
755.349	5
756.098	8
756.847	8
757.595	5
758.344	5
759.093	8
759.841	6
760.589	5
761.338	7
762.086	6
762.834	8
763.582	8
764.331	8
765.079	7
765.826	7
766.574	10
767.322	8
768.07	10
768.817	9
769.565	9
770.312	10
771.06	9
771.807	9
772.554	8
773.302	8
774.049	11
774.796	7
775.543	9
776.29	10
777.036	7
777.783	10
778.53	10
779.276	7
780.023	10
780.769	12
781.516	9
782.262	9
783.008	11
783.754	10
784.5	10
785.246	6
785.992	11
786.738	11
787.484	11
788.23	12
788.975	8
789.721	11
790.466	9
791.212	10
791.957	12
792.702	7
793.447	8
794.193	6
794.938	9
795.683	9
796.427	10
797.172	8
797.917	6
798.662	11
799.406	9
800.151	7
800.895	9
801.64	8
802.384	8
803.128	7
803.872	9
804.616	7
805.36	8
806.104	9
806.848	7
807.592	6
808.336	5
809.079	4
809.823	5
810.566	6
811.31	7
812.053	4
812.796	6
813.539	7
814.283	5
815.026	5
815.769	5
816.511	5
817.254	6
817.997	5
818.74	4
819.482	5
820.225	7
820.967	4
821.71	6
822.452	6
823.194	5
823.936	4
824.678	4
825.42	7
826.162	6
826.904	6
827.646	6
828.388	6
829.129	6
829.871	6
830.612	3
831.354	7
832.095	3
832.836	5
833.577	6
834.319	2
835.06	3
835.801	3
836.542	5
837.282	5
838.023	5
838.764	4
839.504	5
840.245	5
840.985	1
841.726	3
842.466	2
843.206	3
843.946	4
844.687	3
845.427	3
846.166	3
846.906	3
847.646	6
848.386	0
849.125	3
849.865	1
850.605	5
851.344	2
852.083	4
852.823	5
853.562	3
854.301	5
855.04	1
855.779	3
856.518	6
857.257	2
857.995	5
858.734	2
859.473	2
860.211	1
860.95	3
861.688	2
862.426	2
863.165	2
863.903	0
864.641	1
865.379	3
866.117	3
866.855	1
867.593	2
868.33	2
869.068	3
869.806	3
870.543	2
871.28	1
872.018	2
872.755	3
873.492	4
874.229	2
874.967	1
875.703	1
876.44	2
877.177	3
877.914	2
878.651	2
879.387	3
880.124	0
880.86	3
881.597	1
882.333	1
883.069	1
883.806	1
884.542	2
885.278	2
886.014	3
886.749	3
887.485	1
888.221	1
888.957	0
889.692	2
890.428	3
891.163	2
891.899	-1
892.634	2
893.369	2
894.104	1
894.839	2
895.574	1
896.309	2
897.044	3
897.779	1
898.514	1
899.248	3
899.983	1
900.717	2
901.452	1
902.186	1
902.92	2
903.654	-1
904.389	1
905.123	1
905.857	3
906.59	-2
907.324	0
908.058	1
908.792	0
909.525	1
910.259	1
910.992	0
911.726	1
912.459	1
913.192	2
913.925	0
914.658	2
915.391	1
916.124	1
916.857	1
917.59	1
918.323	0
919.055	1
919.788	0
920.521	0
921.253	1
921.985	-1
922.718	0
923.45	2
924.182	1
924.914	2
925.646	0
926.378	0
927.11	0
927.841	-2
928.573	3
929.305	0
930.036	1
930.768	-1
931.499	0
932.23	2
932.962	1
933.693	1
934.424	-1
935.155	1
935.886	2
936.617	-1
937.348	-1
938.078	2
938.809	-1
939.54	2
940.27	1
941.001	1
941.731	0
942.461	-1
943.191	1
943.922	-2
944.652	2
945.382	-1
946.112	3
946.841	2
947.571	0
948.301	1
949.031	-1
949.76	0
950.49	0
951.219	1
951.948	2
952.678	1
953.407	1
954.136	1
954.865	0
955.594	1
956.323	2
957.052	2
957.78	-1
958.509	1
959.238	1
959.966	1
960.695	0
961.423	-2
962.151	1
962.88	-1
963.608	3
964.336	0
965.064	1
965.792	3
966.52	0
967.247	2
967.975	1
968.703	1
969.43	1
970.158	0
970.885	0
971.613	3
972.34	0
973.067	1
973.794	1
974.521	-2
975.248	-2
975.975	0
976.702	-1
977.429	1
978.156	1
978.882	1
979.609	-2
980.335	0
981.062	1
981.788	0
982.514	0
983.24	2
983.967	0
984.693	1
985.419	2
986.144	1
986.87	-1
987.596	3
988.322	1
989.047	0
989.773	0
990.498	3
991.224	-1
991.949	2
992.674	4
993.399	3
994.124	1
994.849	0
995.574	2
996.299	-1
997.024	-1
997.749	0
998.473	1
999.198	1
999.922	-1
1000.647	0
1001.371	4
1002.095	1
1002.82	1
1003.544	-1
1004.268	0
1004.992	1
1005.716	3
1006.439	2
1007.163	1
1007.887	2
1008.611	-1
1009.334	0
1010.058	1
1010.781	2
1011.504	-1
1012.228	-1
1012.951	1
1013.674	0
1014.397	-2
1015.12	-4
