节点500_285_QEPB04081__232__14-59-24-976.txt的数据

Date: Wed Nov 12 14:59:24 CST 2025
User: PC
Spectrometer: QEPB0408
触发模式: 0
积分时间 (秒): 1.000000E-2
Scans to average: 1
启用暗噪声校正: true
启用非线性校正: false
滑动平均宽度: 0
X轴模式: Wavelengths
Number of Pixels in Spectrum: 1044
>>>>>Begin Spectral Data<<<<<
220.843	-0.62
221.644	1.38
222.444	2.38
223.244	0.38
224.045	0.38
224.845	1.38
225.645	0.38
226.445	1.38
227.245	3.38
228.045	0.38
228.845	2.38
229.645	2.38
230.444	2.38
231.244	2.38
232.043	1.38
232.843	2.38
233.642	2.38
234.442	3.38
235.241	3.38
236.04	3.38
236.839	3.38
237.638	3.38
238.437	2.38
239.236	3.38
240.035	2.38
240.833	3.38
241.632	3.38
242.43	2.38
243.229	3.38
244.027	4.38
244.826	2.38
245.624	5.38
246.422	5.38
247.22	2.38
248.018	5.38
248.816	6.38
249.614	4.38
250.412	7.38
251.21	6.38
252.007	6.38
252.805	5.38
253.602	6.38
254.4	8.38
255.197	6.38
255.994	8.38
256.791	7.38
257.589	7.38
258.386	7.38
259.183	7.38
259.979	9.38
260.776	9.38
261.573	11.38
262.37	11.38
263.166	11.38
263.963	11.38
264.759	9.38
265.556	11.38
266.352	13.38
267.148	10.38
267.944	10.38
268.74	14.38
269.536	14.38
270.332	15.38
271.128	15.38
271.924	13.38
272.719	17.38
273.515	15.38
274.311	16.38
275.106	17.38
275.901	14.38
276.697	15.38
277.492	16.38
278.287	17.38
279.082	16.38
279.877	16.38
280.672	20.38
281.467	17.38
282.262	18.38
283.056	18.38
283.851	17.38
284.646	18.38
285.44	19.38
286.234	16.38
287.029	17.38
287.823	16.38
288.617	16.38
289.411	18.38
290.205	16.38
290.999	17.38
291.793	16.38
292.587	19.38
293.381	15.38
294.174	18.38
294.968	16.38
295.761	14.38
296.555	15.38
297.348	13.38
298.141	15.38
298.935	14.38
299.728	12.38
300.521	12.38
301.314	14.38
302.107	11.38
302.899	13.38
303.692	10.38
304.485	12.38
305.277	11.38
306.07	9.38
306.862	10.38
307.655	10.38
308.447	11.38
309.239	11.38
310.031	8.38
310.823	12.38
311.615	10.38
312.407	8.38
313.199	8.38
313.991	8.38
314.783	8.38
315.574	6.38
316.366	9.38
317.157	7.38
317.949	9.38
318.74	7.38
319.531	4.38
320.322	6.38
321.113	7.38
321.904	6.38
322.695	5.38
323.486	6.38
324.277	7.38
325.068	6.38
325.858	7.38
326.649	5.38
327.439	6.38
328.23	5.38
329.02	4.38
329.81	4.38
330.6	5.38
331.391	4.38
332.181	7.38
332.971	4.38
333.76	5.38
334.55	3.38
335.34	7.38
336.13	5.38
336.919	6.38
337.709	5.38
338.498	4.38
339.287	5.38
340.077	4.38
340.866	6.38
341.655	4.38
342.444	5.38
343.233	6.38
344.022	4.38
344.811	4.38
345.6	2.38
346.388	6.38
347.177	5.38
347.965	3.38
348.754	5.38
349.542	3.38
350.33	5.38
351.119	4.38
351.907	6.38
352.695	4.38
353.483	3.38
354.271	3.38
355.059	3.38
355.846	4.38
356.634	4.38
357.422	5.38
358.209	4.38
358.997	5.38
359.784	4.38
360.571	4.38
361.359	4.38
362.146	7.38
362.933	4.38
363.72	3.38
364.507	3.38
365.294	4.38
366.081	2.38
366.867	3.38
367.654	3.38
368.44	3.38
369.227	4.38
370.013	5.38
370.8	4.38
371.586	4.38
372.372	2.38
373.158	6.38
373.944	3.38
374.73	4.38
375.516	4.38
376.302	7.38
377.088	4.38
377.873	3.38
378.659	4.38
379.445	5.38
380.23	6.38
381.015	2.38
381.801	3.38
382.586	5.38
383.371	2.38
384.156	4.38
384.941	2.38
385.726	4.38
386.511	6.38
387.296	6.38
388.08	2.38
388.865	7.38
389.649	5.38
390.434	5.38
391.218	5.38
392.003	5.38
392.787	4.38
393.571	6.38
394.355	6.38
395.139	5.38
395.923	4.38
396.707	6.38
397.491	4.38
398.274	3.38
399.058	8.38
399.842	6.38
400.625	6.38
401.408	6.38
402.192	6.38
402.975	8.38
403.758	3.38
404.541	7.38
405.324	6.38
406.107	8.38
406.89	9.38
407.673	7.38
408.456	7.38
409.238	8.38
410.021	8.38
410.803	6.38
411.586	7.38
412.368	8.38
413.151	7.38
413.933	9.38
414.715	8.38
415.497	5.38
416.279	8.38
417.061	6.38
417.843	8.38
418.624	9.38
419.406	10.38
420.188	9.38
420.969	8.38
421.751	9.38
422.532	9.38
423.313	11.38
424.095	11.38
424.876	11.38
425.657	10.38
426.438	9.38
427.219	10.38
428	10.38
428.78	11.38
429.561	11.38
430.342	16.38
431.122	11.38
431.903	14.38
432.683	12.38
433.464	15.38
434.244	12.38
435.024	17.38
435.804	17.38
436.584	19.38
437.364	19.38
438.144	17.38
438.924	17.38
439.704	18.38
440.483	19.38
441.263	21.38
442.042	26.38
442.822	23.38
443.601	27.38
444.38	25.38
445.16	30.38
445.939	36.38
446.718	32.38
447.497	36.38
448.276	41.38
449.054	46.38
449.833	46.38
450.612	48.38
451.391	53.38
452.169	58.38
452.948	65.38
453.726	68.38
454.504	80.38
455.282	88.38
456.061	93.38
456.839	106.38
457.617	116.38
458.395	132.38
459.172	141.38
459.95	157.38
460.728	181.38
461.506	199.38
462.283	227.38
463.061	248.38
463.838	279.38
464.615	313.38
465.393	346.38
466.17	388.38
466.947	434.38
467.724	485.38
468.501	543.38
469.278	600.38
470.055	676.38
470.831	756.38
471.608	831.38
472.385	932.38
473.161	1050.38
473.938	1158.38
474.714	1289.38
475.49	1418.38
476.266	1578.38
477.043	1734.38
477.819	1927.38
478.595	2111.38
479.371	2352.38
480.146	2580.38
480.922	2883.38
481.698	3167.38
482.473	3492.38
483.249	3843.38
484.024	4245.38
484.8	4661.38
485.575	5151.38
486.35	5669.38
487.126	6201.38
487.901	6842.38
488.676	7475.38
489.451	8217.38
490.225	9021.38
491	9848.38
491.775	10771.38
492.55	11798.38
493.324	12815.38
494.099	13774.38
494.873	14849.38
495.647	16026.38
496.422	17208.38
497.196	18381.38
497.97	19635.38
498.744	20908.38
499.518	22045.38
500.292	23226.38
501.066	24298.38
501.839	25314.38
502.613	26215.38
503.387	26968.38
504.16	27505.38
504.934	27832.38
505.707	27907.38
506.48	27916.38
507.253	27768.38
508.027	27463.38
508.8	27065.38
509.573	26581.38
510.346	25955.38
511.118	25124.38
511.891	24253.38
512.664	23411.38
513.437	22494.38
514.209	21541.38
514.982	20642.38
515.754	19650.38
516.526	18758.38
517.298	17943.38
518.071	17180.38
518.843	16499.38
519.615	15888.38
520.387	15235.38
521.159	14692.38
521.93	14048.38
522.702	13459.38
523.474	12968.38
524.245	12388.38
525.017	11855.38
525.788	11395.38
526.56	10882.38
527.331	10337.38
528.102	9879.38
528.873	9416.38
529.644	8962.38
530.415	8529.38
531.186	8062.38
531.957	7624.38
532.728	7238.38
533.498	6868.38
534.269	6468.38
535.039	6140.38
535.81	5776.38
536.58	5470.38
537.351	5128.38
538.121	4858.38
538.891	4602.38
539.661	4347.38
540.431	4113.38
541.201	3871.38
541.971	3688.38
542.741	3479.38
543.51	3302.38
544.28	3166.38
545.05	3011.38
545.819	2881.38
546.588	2696.38
547.358	2574.38
548.127	2439.38
548.896	2328.38
549.665	2199.38
550.434	2075.38
551.203	1968.38
551.972	1862.38
552.741	1764.38
553.51	1679.38
554.278	1569.38
555.047	1481.38
555.815	1412.38
556.584	1325.38
557.352	1247.38
558.121	1180.38
558.889	1105.38
559.657	1046.38
560.425	988.38
561.193	931.38
561.961	881.38
562.729	834.38
563.496	787.38
564.264	751.38
565.032	704.38
565.799	666.38
566.567	629.38
567.334	586.38
568.101	564.38
568.869	524.38
569.636	492.38
570.403	470.38
571.17	437.38
571.937	416.38
572.704	399.38
573.471	368.38
574.237	352.38
575.004	325.38
575.771	314.38
576.537	294.38
577.303	275.38
578.07	260.38
578.836	250.38
579.602	225.38
580.368	215.38
581.134	201.38
581.9	192.38
582.666	185.38
583.432	177.38
584.198	169.38
584.964	157.38
585.729	151.38
586.495	139.38
587.26	130.38
588.025	126.38
588.791	118.38
589.556	111.38
590.321	108.38
591.086	104.38
591.851	96.38
592.616	92.38
593.381	86.38
594.146	83.38
594.911	78.38
595.675	74.38
596.44	70.38
597.204	70.38
597.969	64.38
598.733	61.38
599.497	62.38
600.261	56.38
601.025	57.38
601.79	51.38
602.553	49.38
603.317	48.38
604.081	43.38
604.845	44.38
605.609	43.38
606.372	38.38
607.136	39.38
607.899	36.38
608.662	35.38
609.426	32.38
610.189	31.38
610.952	27.38
611.715	31.38
612.478	30.38
613.241	24.38
614.004	29.38
614.767	21.38
615.529	25.38
616.292	20.38
617.055	22.38
617.817	22.38
618.579	23.38
619.342	18.38
620.104	18.38
620.866	21.38
621.628	16.38
622.39	17.38
623.152	19.38
623.914	16.38
624.676	17.38
625.438	16.38
626.199	11.38
626.961	15.38
627.722	11.38
628.484	14.38
629.245	12.38
630.006	12.38
630.768	12.38
631.529	11.38
632.29	12.38
633.051	11.38
633.812	9.38
634.573	11.38
635.333	11.38
636.094	10.38
636.855	11.38
637.615	9.38
638.376	10.38
639.136	8.38
639.896	8.38
640.657	6.38
641.417	6.38
642.177	8.38
642.937	7.38
643.697	6.38
644.457	5.38
645.216	8.38
645.976	7.38
646.736	9.38
647.495	7.38
648.255	7.38
649.014	7.38
649.774	1.38
650.533	4.38
651.292	5.38
652.051	4.38
652.81	5.38
653.569	6.38
654.328	6.38
655.087	5.38
655.846	4.38
656.604	5.38
657.363	3.38
658.121	6.38
658.88	6.38
659.638	3.38
660.397	5.38
661.155	5.38
661.913	4.38
662.671	3.38
663.429	2.38
664.187	2.38
664.945	3.38
665.703	1.38
666.46	5.38
667.218	0.38
667.976	3.38
668.733	4.38
669.49	3.38
670.248	4.38
671.005	3.38
671.762	3.38
672.519	4.38
673.276	5.38
674.033	3.38
674.79	3.38
675.547	5.38
676.304	3.38
677.06	2.38
677.817	4.38
678.574	3.38
679.33	3.38
680.086	2.38
680.843	2.38
681.599	1.38
682.355	2.38
683.111	0.38
683.867	1.38
684.623	4.38
685.379	3.38
686.135	5.38
686.89	0.38
687.646	-0.62
688.402	2.38
689.157	2.38
689.912	1.38
690.668	4.38
691.423	2.38
692.178	2.38
692.933	2.38
693.688	3.38
694.443	1.38
695.198	1.38
695.953	2.38
696.708	3.38
697.462	4.38
698.217	3.38
698.972	2.38
699.726	1.38
700.48	2.38
701.235	3.38
701.989	4.38
702.743	1.38
703.497	1.38
704.251	3.38
705.005	2.38
705.759	4.38
706.513	2.38
707.266	3.38
708.02	4.38
708.774	3.38
709.527	2.38
710.28	3.38
711.034	4.38
711.787	2.38
712.54	0.38
713.293	1.38
714.046	2.38
714.799	2.38
715.552	2.38
716.305	0.38
717.058	1.38
717.81	2.38
718.563	0.38
719.315	2.38
720.068	1.38
720.82	3.38
721.573	3.38
722.325	3.38
723.077	2.38
723.829	2.38
724.581	1.38
725.333	2.38
726.085	3.38
726.836	2.38
727.588	2.38
728.34	3.38
729.091	0.38
729.843	3.38
730.594	4.38
731.346	2.38
732.097	0.38
732.848	3.38
733.599	0.38
734.35	2.38
735.101	3.38
735.852	0.38
736.603	1.38
737.354	3.38
738.104	2.38
738.855	1.38
739.605	3.38
740.356	2.38
741.106	0.38
741.856	5.38
742.607	3.38
743.357	4.38
744.107	4.38
744.857	3.38
745.607	2.38
746.357	3.38
747.106	5.38
747.856	5.38
748.606	2.38
749.355	4.38
750.105	4.38
750.854	3.38
751.603	4.38
752.353	7.38
753.102	3.38
753.851	4.38
754.6	4.38
755.349	4.38
756.098	4.38
756.847	4.38
757.595	5.38
758.344	4.38
759.093	3.38
759.841	5.38
760.589	5.38
761.338	5.38
762.086	6.38
762.834	4.38
763.582	7.38
764.331	6.38
765.079	4.38
765.826	4.38
766.574	4.38
767.322	6.38
768.07	5.38
768.817	3.38
769.565	5.38
770.312	8.38
771.06	8.38
771.807	5.38
772.554	6.38
773.302	7.38
774.049	8.38
774.796	5.38
775.543	6.38
776.29	7.38
777.036	6.38
777.783	8.38
778.53	8.38
779.276	7.38
780.023	7.38
780.769	8.38
781.516	6.38
782.262	7.38
783.008	9.38
783.754	8.38
784.5	6.38
785.246	6.38
785.992	7.38
786.738	7.38
787.484	5.38
788.23	8.38
788.975	8.38
789.721	5.38
790.466	7.38
791.212	7.38
791.957	8.38
792.702	7.38
793.447	8.38
794.193	6.38
794.938	7.38
795.683	7.38
796.427	6.38
797.172	7.38
797.917	6.38
798.662	6.38
799.406	7.38
800.151	6.38
800.895	7.38
801.64	5.38
802.384	6.38
803.128	6.38
803.872	7.38
804.616	5.38
805.36	5.38
806.104	5.38
806.848	5.38
807.592	4.38
808.336	5.38
809.079	5.38
809.823	4.38
810.566	5.38
811.31	5.38
812.053	2.38
812.796	4.38
813.539	2.38
814.283	4.38
815.026	6.38
815.769	3.38
816.511	2.38
817.254	3.38
817.997	3.38
818.74	4.38
819.482	4.38
820.225	5.38
820.967	3.38
821.71	3.38
822.452	3.38
823.194	3.38
823.936	1.38
824.678	2.38
825.42	1.38
826.162	2.38
826.904	3.38
827.646	2.38
828.388	1.38
829.129	4.38
829.871	4.38
830.612	3.38
831.354	0.38
832.095	1.38
832.836	2.38
833.577	0.38
834.319	3.38
835.06	5.38
835.801	0.38
836.542	3.38
837.282	1.38
838.023	2.38
838.764	3.38
839.504	1.38
840.245	3.38
840.985	2.38
841.726	2.38
842.466	-0.62
843.206	2.38
843.946	1.38
844.687	3.38
845.427	3.38
846.166	2.38
846.906	3.38
847.646	2.38
848.386	2.38
849.125	2.38
849.865	2.38
850.605	2.38
851.344	-0.62
852.083	4.38
852.823	2.38
853.562	0.38
854.301	0.38
855.04	1.38
855.779	0.38
856.518	1.38
857.257	0.38
857.995	1.38
858.734	-0.62
859.473	0.38
860.211	-3.62
860.95	0.38
861.688	-1.62
862.426	0.38
863.165	1.38
863.903	0.38
864.641	1.38
865.379	0.38
866.117	0.38
866.855	0.38
867.593	1.38
868.33	0.38
869.068	0.38
869.806	1.38
870.543	-0.62
871.28	1.38
872.018	1.38
872.755	1.38
873.492	2.38
874.229	0.38
874.967	0.38
875.703	3.38
876.44	0.38
877.177	0.38
877.914	-1.62
878.651	0.38
879.387	-0.62
880.124	1.38
880.86	-0.62
881.597	0.38
882.333	0.38
883.069	-0.62
883.806	-1.62
884.542	1.38
885.278	0.38
886.014	1.38
886.749	0.38
887.485	-0.62
888.221	-1.62
888.957	0.38
889.692	1.38
890.428	0.38
891.163	-1.62
891.899	0.38
892.634	-1.62
893.369	-0.62
894.104	2.38
894.839	0.38
895.574	-1.62
896.309	0.38
897.044	-0.62
897.779	1.38
898.514	-0.62
899.248	0.38
899.983	0.38
900.717	-1.62
901.452	0.38
902.186	-1.62
902.92	-0.62
903.654	-2.62
904.389	-0.62
905.123	-1.62
905.857	-1.62
906.59	0.38
907.324	1.38
908.058	-1.62
908.792	0.38
909.525	-0.62
910.259	0.38
910.992	1.38
911.726	0.38
912.459	2.38
913.192	-0.62
913.925	-0.62
914.658	-2.62
915.391	-0.62
916.124	-0.62
916.857	-0.62
917.59	-1.62
918.323	-0.62
919.055	0.38
919.788	-1.62
920.521	0.38
921.253	-0.62
921.985	-1.62
922.718	-0.62
923.45	-2.62
924.182	1.38
924.914	-3.62
925.646	0.38
926.378	2.38
927.11	1.38
927.841	1.38
928.573	0.38
929.305	0.38
930.036	0.38
930.768	-1.62
931.499	-0.62
932.23	-0.62
932.962	0.38
933.693	-0.62
934.424	-0.62
935.155	0.38
935.886	-0.62
936.617	0.38
937.348	-3.62
938.078	-0.62
938.809	-0.62
939.54	0.38
940.27	-0.62
941.001	-2.62
941.731	1.38
942.461	-2.62
943.191	0.38
943.922	-2.62
944.652	-0.62
945.382	1.38
946.112	0.38
946.841	-1.62
947.571	0.38
948.301	2.38
949.031	-1.62
949.76	-0.62
950.49	0.38
951.219	0.38
951.948	1.38
952.678	1.38
953.407	0.38
954.136	-1.62
954.865	-1.62
955.594	0.38
956.323	0.38
957.052	-1.62
957.78	-1.62
958.509	0.38
959.238	-0.62
959.966	-1.62
960.695	-0.62
961.423	-0.62
962.151	0.38
962.88	-0.62
963.608	-0.62
964.336	-0.62
965.064	-0.62
965.792	0.38
966.52	-1.62
967.247	-0.62
967.975	-3.62
968.703	-1.62
969.43	0.38
970.158	-1.62
970.885	-0.62
971.613	-0.62
972.34	0.38
973.067	-2.62
973.794	-0.62
974.521	-0.62
975.248	-1.62
975.975	-0.62
976.702	0.38
977.429	-1.62
978.156	-0.62
978.882	-1.62
979.609	-2.62
980.335	2.38
981.062	-1.62
981.788	-1.62
982.514	0.38
983.24	0.38
983.967	-2.62
984.693	0.38
985.419	-2.62
986.144	-2.62
986.87	-1.62
987.596	0.38
988.322	-0.62
989.047	0.38
989.773	-0.62
990.498	-1.62
991.224	-0.62
991.949	-0.62
992.674	0.38
993.399	1.38
994.124	-1.62
994.849	0.38
995.574	-0.62
996.299	-0.62
997.024	-1.62
997.749	-2.62
998.473	-3.62
999.198	-0.62
999.922	0.38
1000.647	-0.62
1001.371	4.38
1002.095	-2.62
1002.82	-0.62
1003.544	-0.62
1004.268	0.38
1004.992	-2.62
1005.716	3.38
1006.439	0.38
1007.163	1.38
1007.887	1.38
1008.611	-0.62
1009.334	1.38
1010.058	-0.62
1010.781	0.38
1011.504	0.38
1012.228	-1.62
1012.951	0.38
1013.674	-0.62
1014.397	-0.62
1015.12	0.38
