节点500_285_QEPB04081__164__14-58-17-165.txt的数据

Date: Wed Nov 12 14:58:17 CST 2025
User: PC
Spectrometer: QEPB0408
触发模式: 0
积分时间 (秒): 1.000000E-2
Scans to average: 1
启用暗噪声校正: true
启用非线性校正: false
滑动平均宽度: 0
X轴模式: Wavelengths
Number of Pixels in Spectrum: 1044
>>>>>Begin Spectral Data<<<<<
220.843	1.75
221.644	0.75
222.444	1.75
223.244	1.75
224.045	2.75
224.845	2.75
225.645	3.75
226.445	1.75
227.245	0.75
228.045	4.75
228.845	1.75
229.645	2.75
230.444	3.75
231.244	2.75
232.043	3.75
232.843	4.75
233.642	3.75
234.442	3.75
235.241	1.75
236.04	3.75
236.839	5.75
237.638	4.75
238.437	4.75
239.236	4.75
240.035	5.75
240.833	3.75
241.632	5.75
242.43	3.75
243.229	6.75
244.027	3.75
244.826	6.75
245.624	6.75
246.422	3.75
247.22	6.75
248.018	6.75
248.816	7.75
249.614	9.75
250.412	7.75
251.21	6.75
252.007	6.75
252.805	7.75
253.602	5.75
254.4	6.75
255.197	7.75
255.994	8.75
256.791	9.75
257.589	8.75
258.386	8.75
259.183	9.75
259.979	8.75
260.776	9.75
261.573	10.75
262.37	11.75
263.166	10.75
263.963	12.75
264.759	10.75
265.556	10.75
266.352	16.75
267.148	13.75
267.944	13.75
268.74	13.75
269.536	16.75
270.332	16.75
271.128	15.75
271.924	16.75
272.719	16.75
273.515	16.75
274.311	17.75
275.106	18.75
275.901	19.75
276.697	16.75
277.492	17.75
278.287	18.75
279.082	19.75
279.877	21.75
280.672	20.75
281.467	19.75
282.262	19.75
283.056	19.75
283.851	16.75
284.646	20.75
285.44	17.75
286.234	17.75
287.029	17.75
287.823	19.75
288.617	19.75
289.411	16.75
290.205	14.75
290.999	17.75
291.793	17.75
292.587	20.75
293.381	16.75
294.174	19.75
294.968	17.75
295.761	15.75
296.555	16.75
297.348	13.75
298.141	14.75
298.935	15.75
299.728	15.75
300.521	13.75
301.314	14.75
302.107	13.75
302.899	12.75
303.692	11.75
304.485	14.75
305.277	15.75
306.07	12.75
306.862	11.75
307.655	13.75
308.447	11.75
309.239	9.75
310.031	12.75
310.823	9.75
311.615	9.75
312.407	8.75
313.199	8.75
313.991	9.75
314.783	9.75
315.574	8.75
316.366	6.75
317.157	7.75
317.949	10.75
318.74	7.75
319.531	9.75
320.322	6.75
321.113	8.75
321.904	8.75
322.695	7.75
323.486	7.75
324.277	6.75
325.068	8.75
325.858	4.75
326.649	7.75
327.439	7.75
328.23	8.75
329.02	6.75
329.81	4.75
330.6	7.75
331.391	7.75
332.181	7.75
332.971	8.75
333.76	6.75
334.55	7.75
335.34	7.75
336.13	8.75
336.919	6.75
337.709	6.75
338.498	7.75
339.287	5.75
340.077	8.75
340.866	6.75
341.655	6.75
342.444	7.75
343.233	5.75
344.022	6.75
344.811	7.75
345.6	8.75
346.388	6.75
347.177	4.75
347.965	5.75
348.754	5.75
349.542	6.75
350.33	4.75
351.119	6.75
351.907	5.75
352.695	4.75
353.483	8.75
354.271	4.75
355.059	6.75
355.846	6.75
356.634	4.75
357.422	5.75
358.209	6.75
358.997	7.75
359.784	7.75
360.571	5.75
361.359	6.75
362.146	3.75
362.933	4.75
363.72	5.75
364.507	5.75
365.294	5.75
366.081	5.75
366.867	5.75
367.654	3.75
368.44	4.75
369.227	4.75
370.013	4.75
370.8	7.75
371.586	4.75
372.372	4.75
373.158	6.75
373.944	5.75
374.73	6.75
375.516	5.75
376.302	7.75
377.088	5.75
377.873	4.75
378.659	4.75
379.445	3.75
380.23	5.75
381.015	3.75
381.801	5.75
382.586	6.75
383.371	8.75
384.156	7.75
384.941	6.75
385.726	7.75
386.511	5.75
387.296	6.75
388.08	3.75
388.865	7.75
389.649	6.75
390.434	5.75
391.218	6.75
392.003	5.75
392.787	7.75
393.571	5.75
394.355	4.75
395.139	5.75
395.923	5.75
396.707	5.75
397.491	5.75
398.274	6.75
399.058	7.75
399.842	5.75
400.625	5.75
401.408	8.75
402.192	7.75
402.975	6.75
403.758	9.75
404.541	5.75
405.324	7.75
406.107	10.75
406.89	8.75
407.673	8.75
408.456	10.75
409.238	9.75
410.021	9.75
410.803	9.75
411.586	9.75
412.368	9.75
413.151	9.75
413.933	7.75
414.715	8.75
415.497	7.75
416.279	9.75
417.061	8.75
417.843	12.75
418.624	9.75
419.406	12.75
420.188	8.75
420.969	12.75
421.751	10.75
422.532	12.75
423.313	11.75
424.095	12.75
424.876	11.75
425.657	11.75
426.438	8.75
427.219	13.75
428	11.75
428.78	13.75
429.561	14.75
430.342	14.75
431.122	14.75
431.903	13.75
432.683	15.75
433.464	13.75
434.244	17.75
435.024	19.75
435.804	20.75
436.584	15.75
437.364	20.75
438.144	17.75
438.924	20.75
439.704	23.75
440.483	21.75
441.263	22.75
442.042	22.75
442.822	25.75
443.601	29.75
444.38	28.75
445.16	32.75
445.939	34.75
446.718	32.75
447.497	36.75
448.276	40.75
449.054	42.75
449.833	44.75
450.612	50.75
451.391	53.75
452.169	60.75
452.948	66.75
453.726	72.75
454.504	75.75
455.282	85.75
456.061	94.75
456.839	105.75
457.617	119.75
458.395	130.75
459.172	141.75
459.95	154.75
460.728	179.75
461.506	201.75
462.283	217.75
463.061	248.75
463.838	275.75
464.615	306.75
465.393	343.75
466.17	385.75
466.947	426.75
467.724	486.75
468.501	537.75
469.278	603.75
470.055	665.75
470.831	744.75
471.608	830.75
472.385	924.75
473.161	1029.75
473.938	1146.75
474.714	1267.75
475.49	1393.75
476.266	1573.75
477.043	1729.75
477.819	1907.75
478.595	2128.75
479.371	2340.75
480.146	2592.75
480.922	2881.75
481.698	3166.75
482.473	3507.75
483.249	3856.75
484.024	4276.75
484.8	4701.75
485.575	5188.75
486.35	5708.75
487.126	6297.75
487.901	6943.75
488.676	7585.75
489.451	8392.75
490.225	9136.75
491	10011.75
491.775	10945.75
492.55	11990.75
493.324	13001.75
494.099	14037.75
494.873	15100.75
495.647	16334.75
496.422	17538.75
497.196	18782.75
497.97	20088.75
498.744	21321.75
499.518	22474.75
500.292	23684.75
501.066	24725.75
501.839	25650.75
502.613	26570.75
503.387	27234.75
504.16	27882.75
504.934	28156.75
505.707	28281.75
506.48	28268.75
507.253	28091.75
508.027	27670.75
508.8	27314.75
509.573	26725.75
510.346	25995.75
511.118	25206.75
511.891	24244.75
512.664	23371.75
513.437	22450.75
514.209	21460.75
514.982	20508.75
515.754	19645.75
516.526	18712.75
517.298	17857.75
518.071	17074.75
518.843	16446.75
519.615	15775.75
520.387	15194.75
521.159	14567.75
521.93	13995.75
522.702	13436.75
523.474	12885.75
524.245	12335.75
525.017	11795.75
525.788	11343.75
526.56	10827.75
527.331	10311.75
528.102	9802.75
528.873	9378.75
529.644	8873.75
530.415	8451.75
531.186	8027.75
531.957	7563.75
532.728	7221.75
533.498	6829.75
534.269	6385.75
535.039	6063.75
535.81	5722.75
536.58	5401.75
537.351	5102.75
538.121	4793.75
538.891	4552.75
539.661	4317.75
540.431	4055.75
541.201	3830.75
541.971	3642.75
542.741	3441.75
543.51	3274.75
544.28	3144.75
545.05	2964.75
545.819	2810.75
546.588	2676.75
547.358	2537.75
548.127	2398.75
548.896	2303.75
549.665	2190.75
550.434	2065.75
551.203	1936.75
551.972	1833.75
552.741	1729.75
553.51	1633.75
554.278	1548.75
555.047	1479.75
555.815	1378.75
556.584	1299.75
557.352	1232.75
558.121	1161.75
558.889	1086.75
559.657	1036.75
560.425	987.75
561.193	919.75
561.961	874.75
562.729	815.75
563.496	781.75
564.264	740.75
565.032	701.75
565.799	655.75
566.567	614.75
567.334	588.75
568.101	546.75
568.869	518.75
569.636	491.75
570.403	461.75
571.17	429.75
571.937	411.75
572.704	393.75
573.471	370.75
574.237	346.75
575.004	333.75
575.771	308.75
576.537	289.75
577.303	272.75
578.07	259.75
578.836	241.75
579.602	221.75
580.368	215.75
581.134	208.75
581.9	194.75
582.666	181.75
583.432	172.75
584.198	166.75
584.964	156.75
585.729	147.75
586.495	140.75
587.26	139.75
588.025	125.75
588.791	118.75
589.556	113.75
590.321	107.75
591.086	102.75
591.851	97.75
592.616	89.75
593.381	88.75
594.146	83.75
594.911	80.75
595.675	75.75
596.44	72.75
597.204	70.75
597.969	66.75
598.733	60.75
599.497	60.75
600.261	55.75
601.025	53.75
601.79	51.75
602.553	49.75
603.317	48.75
604.081	42.75
604.845	44.75
605.609	43.75
606.372	43.75
607.136	39.75
607.899	37.75
608.662	36.75
609.426	32.75
610.189	29.75
610.952	29.75
611.715	31.75
612.478	28.75
613.241	28.75
614.004	26.75
614.767	24.75
615.529	26.75
616.292	22.75
617.055	24.75
617.817	23.75
618.579	20.75
619.342	18.75
620.104	19.75
620.866	22.75
621.628	20.75
622.39	19.75
623.152	16.75
623.914	18.75
624.676	17.75
625.438	16.75
626.199	18.75
626.961	16.75
627.722	16.75
628.484	14.75
629.245	15.75
630.006	14.75
630.768	11.75
631.529	13.75
632.29	15.75
633.051	10.75
633.812	11.75
634.573	10.75
635.333	12.75
636.094	12.75
636.855	9.75
637.615	10.75
638.376	10.75
639.136	11.75
639.896	9.75
640.657	9.75
641.417	9.75
642.177	7.75
642.937	11.75
643.697	7.75
644.457	7.75
645.216	8.75
645.976	8.75
646.736	9.75
647.495	5.75
648.255	9.75
649.014	8.75
649.774	6.75
650.533	5.75
651.292	6.75
652.051	7.75
652.81	5.75
653.569	9.75
654.328	7.75
655.087	7.75
655.846	8.75
656.604	5.75
657.363	7.75
658.121	6.75
658.88	7.75
659.638	5.75
660.397	6.75
661.155	6.75
661.913	6.75
662.671	6.75
663.429	7.75
664.187	6.75
664.945	6.75
665.703	3.75
666.46	5.75
667.218	5.75
667.976	5.75
668.733	6.75
669.49	5.75
670.248	5.75
671.005	4.75
671.762	3.75
672.519	4.75
673.276	3.75
674.033	3.75
674.79	3.75
675.547	5.75
676.304	4.75
677.06	6.75
677.817	2.75
678.574	4.75
679.33	4.75
680.086	2.75
680.843	3.75
681.599	4.75
682.355	3.75
683.111	5.75
683.867	4.75
684.623	5.75
685.379	4.75
686.135	4.75
686.89	6.75
687.646	4.75
688.402	2.75
689.157	4.75
689.912	2.75
690.668	4.75
691.423	3.75
692.178	4.75
692.933	2.75
693.688	7.75
694.443	3.75
695.198	6.75
695.953	5.75
696.708	2.75
697.462	7.75
698.217	2.75
698.972	4.75
699.726	5.75
700.48	4.75
701.235	6.75
701.989	4.75
702.743	2.75
703.497	3.75
704.251	5.75
705.005	4.75
705.759	4.75
706.513	3.75
707.266	4.75
708.02	5.75
708.774	2.75
709.527	1.75
710.28	4.75
711.034	2.75
711.787	3.75
712.54	2.75
713.293	3.75
714.046	3.75
714.799	4.75
715.552	1.75
716.305	1.75
717.058	4.75
717.81	3.75
718.563	2.75
719.315	3.75
720.068	1.75
720.82	3.75
721.573	4.75
722.325	3.75
723.077	3.75
723.829	3.75
724.581	3.75
725.333	3.75
726.085	6.75
726.836	1.75
727.588	2.75
728.34	4.75
729.091	3.75
729.843	6.75
730.594	5.75
731.346	2.75
732.097	3.75
732.848	4.75
733.599	3.75
734.35	3.75
735.101	6.75
735.852	3.75
736.603	3.75
737.354	7.75
738.104	2.75
738.855	5.75
739.605	3.75
740.356	2.75
741.106	4.75
741.856	3.75
742.607	6.75
743.357	3.75
744.107	5.75
744.857	2.75
745.607	2.75
746.357	5.75
747.106	5.75
747.856	3.75
748.606	5.75
749.355	6.75
750.105	4.75
750.854	7.75
751.603	6.75
752.353	3.75
753.102	6.75
753.851	2.75
754.6	4.75
755.349	7.75
756.098	5.75
756.847	6.75
757.595	4.75
758.344	8.75
759.093	5.75
759.841	6.75
760.589	5.75
761.338	6.75
762.086	6.75
762.834	6.75
763.582	8.75
764.331	7.75
765.079	7.75
765.826	8.75
766.574	5.75
767.322	10.75
768.07	6.75
768.817	6.75
769.565	7.75
770.312	8.75
771.06	8.75
771.807	6.75
772.554	10.75
773.302	6.75
774.049	7.75
774.796	7.75
775.543	9.75
776.29	9.75
777.036	8.75
777.783	8.75
778.53	9.75
779.276	8.75
780.023	11.75
780.769	7.75
781.516	10.75
782.262	9.75
783.008	10.75
783.754	9.75
784.5	11.75
785.246	9.75
785.992	8.75
786.738	8.75
787.484	8.75
788.23	10.75
788.975	8.75
789.721	7.75
790.466	11.75
791.212	10.75
791.957	10.75
792.702	9.75
793.447	9.75
794.193	9.75
794.938	9.75
795.683	9.75
796.427	7.75
797.172	10.75
797.917	9.75
798.662	5.75
799.406	6.75
800.151	5.75
800.895	8.75
801.64	7.75
802.384	7.75
803.128	7.75
803.872	8.75
804.616	9.75
805.36	7.75
806.104	7.75
806.848	4.75
807.592	4.75
808.336	4.75
809.079	5.75
809.823	6.75
810.566	5.75
811.31	5.75
812.053	4.75
812.796	3.75
813.539	5.75
814.283	5.75
815.026	4.75
815.769	4.75
816.511	6.75
817.254	5.75
817.997	4.75
818.74	5.75
819.482	3.75
820.225	3.75
820.967	5.75
821.71	1.75
822.452	4.75
823.194	1.75
823.936	5.75
824.678	3.75
825.42	3.75
826.162	6.75
826.904	2.75
827.646	5.75
828.388	4.75
829.129	3.75
829.871	4.75
830.612	1.75
831.354	4.75
832.095	3.75
832.836	4.75
833.577	1.75
834.319	2.75
835.06	2.75
835.801	2.75
836.542	3.75
837.282	1.75
838.023	2.75
838.764	4.75
839.504	2.75
840.245	3.75
840.985	3.75
841.726	3.75
842.466	4.75
843.206	3.75
843.946	2.75
844.687	-0.25
845.427	3.75
846.166	2.75
846.906	3.75
847.646	1.75
848.386	1.75
849.125	5.75
849.865	3.75
850.605	3.75
851.344	2.75
852.083	2.75
852.823	2.75
853.562	3.75
854.301	0.75
855.04	2.75
855.779	3.75
856.518	4.75
857.257	2.75
857.995	3.75
858.734	0.75
859.473	4.75
860.211	3.75
860.95	4.75
861.688	-0.25
862.426	4.75
863.165	2.75
863.903	1.75
864.641	3.75
865.379	5.75
866.117	-0.25
866.855	1.75
867.593	1.75
868.33	3.75
869.068	1.75
869.806	0.75
870.543	1.75
871.28	-0.25
872.018	3.75
872.755	1.75
873.492	2.75
874.229	2.75
874.967	-2.25
875.703	1.75
876.44	1.75
877.177	2.75
877.914	2.75
878.651	3.75
879.387	1.75
880.124	-0.25
880.86	1.75
881.597	1.75
882.333	1.75
883.069	2.75
883.806	0.75
884.542	0.75
885.278	0.75
886.014	1.75
886.749	0.75
887.485	2.75
888.221	0.75
888.957	1.75
889.692	1.75
890.428	1.75
891.163	2.75
891.899	1.75
892.634	0.75
893.369	3.75
894.104	0.75
894.839	-0.25
895.574	1.75
896.309	1.75
897.044	1.75
897.779	0.75
898.514	2.75
899.248	0.75
899.983	1.75
900.717	0.75
901.452	0.75
902.186	3.75
902.92	0.75
903.654	1.75
904.389	1.75
905.123	0.75
905.857	-0.25
906.59	-0.25
907.324	1.75
908.058	0.75
908.792	2.75
909.525	2.75
910.259	-1.25
910.992	-0.25
911.726	-0.25
912.459	-0.25
913.192	-0.25
913.925	0.75
914.658	-0.25
915.391	-2.25
916.124	1.75
916.857	1.75
917.59	2.75
918.323	0.75
919.055	0.75
919.788	3.75
920.521	-1.25
921.253	0.75
921.985	0.75
922.718	0.75
923.45	-2.25
924.182	-0.25
924.914	-0.25
925.646	-0.25
926.378	2.75
927.11	1.75
927.841	-0.25
928.573	0.75
929.305	-0.25
930.036	1.75
930.768	2.75
931.499	2.75
932.23	-0.25
932.962	-0.25
933.693	3.75
934.424	1.75
935.155	0.75
935.886	-0.25
936.617	-0.25
937.348	1.75
938.078	0.75
938.809	0.75
939.54	-1.25
940.27	0.75
941.001	0.75
941.731	1.75
942.461	-1.25
943.191	-0.25
943.922	2.75
944.652	0.75
945.382	1.75
946.112	1.75
946.841	-1.25
947.571	1.75
948.301	-0.25
949.031	2.75
949.76	-2.25
950.49	1.75
951.219	0.75
951.948	0.75
952.678	0.75
953.407	0.75
954.136	-1.25
954.865	2.75
955.594	-1.25
956.323	0.75
957.052	0.75
957.78	0.75
958.509	-0.25
959.238	0.75
959.966	1.75
960.695	-0.25
961.423	1.75
962.151	-0.25
962.88	0.75
963.608	-0.25
964.336	-1.25
965.064	0.75
965.792	1.75
966.52	1.75
967.247	1.75
967.975	0.75
968.703	1.75
969.43	1.75
970.158	1.75
970.885	0.75
971.613	1.75
972.34	-1.25
973.067	-0.25
973.794	1.75
974.521	-0.25
975.248	-0.25
975.975	-1.25
976.702	0.75
977.429	0.75
978.156	-1.25
978.882	-1.25
979.609	-0.25
980.335	1.75
981.062	-0.25
981.788	-0.25
982.514	0.75
983.24	0.75
983.967	-0.25
984.693	-1.25
985.419	-0.25
986.144	-0.25
986.87	2.75
987.596	1.75
988.322	0.75
989.047	1.75
989.773	2.75
990.498	2.75
991.224	1.75
991.949	0.75
992.674	0.75
993.399	1.75
994.124	0.75
994.849	-0.25
995.574	2.75
996.299	3.75
997.024	-0.25
997.749	1.75
998.473	1.75
999.198	-2.25
999.922	-1.25
1000.647	-1.25
1001.371	3.75
1002.095	0.75
1002.82	-2.25
1003.544	-2.25
1004.268	0.75
1004.992	-0.25
1005.716	1.75
1006.439	1.75
1007.163	2.75
1007.887	1.75
1008.611	0.75
1009.334	-0.25
1010.058	0.75
1010.781	-0.25
1011.504	0.75
1012.228	-0.25
1012.951	-0.25
1013.674	1.75
1014.397	-1.25
1015.12	-0.25
