节点500_285_QEPB04081__862__15-09-53-663.txt的数据

Date: Wed Nov 12 15:09:53 CST 2025
User: PC
Spectrometer: QEPB0408
触发模式: 0
积分时间 (秒): 1.000000E-2
Scans to average: 1
启用暗噪声校正: true
启用非线性校正: false
滑动平均宽度: 0
X轴模式: Wavelengths
Number of Pixels in Spectrum: 1044
>>>>>Begin Spectral Data<<<<<
220.843	-0.12
221.644	2.88
222.444	0.88
223.244	0.88
224.045	2.88
224.845	1.88
225.645	4.88
226.445	0.88
227.245	1.88
228.045	2.88
228.845	2.88
229.645	3.88
230.444	1.88
231.244	3.88
232.043	3.88
232.843	1.88
233.642	3.88
234.442	2.88
235.241	4.88
236.04	3.88
236.839	2.88
237.638	4.88
238.437	5.88
239.236	2.88
240.035	4.88
240.833	1.88
241.632	0.88
242.43	5.88
243.229	3.88
244.027	2.88
244.826	2.88
245.624	4.88
246.422	4.88
247.22	3.88
248.018	3.88
248.816	4.88
249.614	6.88
250.412	5.88
251.21	5.88
252.007	2.88
252.805	5.88
253.602	6.88
254.4	5.88
255.197	6.88
255.994	7.88
256.791	5.88
257.589	8.88
258.386	7.88
259.183	9.88
259.979	9.88
260.776	8.88
261.573	10.88
262.37	7.88
263.166	9.88
263.963	10.88
264.759	8.88
265.556	9.88
266.352	10.88
267.148	11.88
267.944	9.88
268.74	11.88
269.536	13.88
270.332	13.88
271.128	13.88
271.924	13.88
272.719	13.88
273.515	12.88
274.311	13.88
275.106	15.88
275.901	13.88
276.697	16.88
277.492	17.88
278.287	16.88
279.082	16.88
279.877	17.88
280.672	15.88
281.467	16.88
282.262	13.88
283.056	15.88
283.851	17.88
284.646	16.88
285.44	15.88
286.234	14.88
287.029	15.88
287.823	17.88
288.617	17.88
289.411	15.88
290.205	15.88
290.999	15.88
291.793	18.88
292.587	15.88
293.381	14.88
294.174	15.88
294.968	16.88
295.761	17.88
296.555	14.88
297.348	15.88
298.141	14.88
298.935	15.88
299.728	13.88
300.521	15.88
301.314	14.88
302.107	13.88
302.899	12.88
303.692	12.88
304.485	15.88
305.277	12.88
306.07	11.88
306.862	12.88
307.655	10.88
308.447	12.88
309.239	10.88
310.031	11.88
310.823	9.88
311.615	9.88
312.407	9.88
313.199	8.88
313.991	10.88
314.783	7.88
315.574	8.88
316.366	8.88
317.157	7.88
317.949	5.88
318.74	7.88
319.531	6.88
320.322	7.88
321.113	8.88
321.904	6.88
322.695	4.88
323.486	6.88
324.277	5.88
325.068	7.88
325.858	3.88
326.649	6.88
327.439	4.88
328.23	6.88
329.02	6.88
329.81	2.88
330.6	7.88
331.391	5.88
332.181	5.88
332.971	7.88
333.76	6.88
334.55	3.88
335.34	5.88
336.13	4.88
336.919	4.88
337.709	3.88
338.498	4.88
339.287	3.88
340.077	6.88
340.866	6.88
341.655	7.88
342.444	5.88
343.233	3.88
344.022	3.88
344.811	4.88
345.6	7.88
346.388	3.88
347.177	5.88
347.965	5.88
348.754	7.88
349.542	6.88
350.33	4.88
351.119	5.88
351.907	6.88
352.695	6.88
353.483	5.88
354.271	5.88
355.059	4.88
355.846	4.88
356.634	4.88
357.422	2.88
358.209	6.88
358.997	4.88
359.784	5.88
360.571	6.88
361.359	4.88
362.146	7.88
362.933	4.88
363.72	5.88
364.507	4.88
365.294	2.88
366.081	3.88
366.867	4.88
367.654	3.88
368.44	5.88
369.227	3.88
370.013	3.88
370.8	2.88
371.586	2.88
372.372	4.88
373.158	4.88
373.944	7.88
374.73	4.88
375.516	4.88
376.302	2.88
377.088	5.88
377.873	3.88
378.659	5.88
379.445	4.88
380.23	5.88
381.015	3.88
381.801	6.88
382.586	5.88
383.371	4.88
384.156	6.88
384.941	6.88
385.726	5.88
386.511	3.88
387.296	3.88
388.08	7.88
388.865	1.88
389.649	4.88
390.434	5.88
391.218	3.88
392.003	5.88
392.787	6.88
393.571	4.88
394.355	7.88
395.139	6.88
395.923	3.88
396.707	4.88
397.491	6.88
398.274	5.88
399.058	5.88
399.842	8.88
400.625	5.88
401.408	7.88
402.192	5.88
402.975	4.88
403.758	6.88
404.541	6.88
405.324	6.88
406.107	7.88
406.89	8.88
407.673	6.88
408.456	4.88
409.238	6.88
410.021	6.88
410.803	5.88
411.586	7.88
412.368	9.88
413.151	9.88
413.933	9.88
414.715	6.88
415.497	6.88
416.279	8.88
417.061	8.88
417.843	6.88
418.624	8.88
419.406	9.88
420.188	10.88
420.969	8.88
421.751	8.88
422.532	11.88
423.313	11.88
424.095	12.88
424.876	13.88
425.657	11.88
426.438	12.88
427.219	12.88
428	11.88
428.78	10.88
429.561	13.88
430.342	11.88
431.122	12.88
431.903	11.88
432.683	15.88
433.464	14.88
434.244	17.88
435.024	13.88
435.804	15.88
436.584	17.88
437.364	19.88
438.144	20.88
438.924	19.88
439.704	22.88
440.483	24.88
441.263	22.88
442.042	25.88
442.822	27.88
443.601	31.88
444.38	29.88
445.16	31.88
445.939	34.88
446.718	33.88
447.497	39.88
448.276	41.88
449.054	51.88
449.833	50.88
450.612	57.88
451.391	59.88
452.169	67.88
452.948	72.88
453.726	84.88
454.504	93.88
455.282	105.88
456.061	114.88
456.839	125.88
457.617	139.88
458.395	157.88
459.172	169.88
459.95	191.88
460.728	211.88
461.506	241.88
462.283	261.88
463.061	295.88
463.838	326.88
464.615	355.88
465.393	403.88
466.17	443.88
466.947	489.88
467.724	545.88
468.501	605.88
469.278	673.88
470.055	752.88
470.831	821.88
471.608	900.88
472.385	993.88
473.161	1103.88
473.938	1221.88
474.714	1331.88
475.49	1456.88
476.266	1613.88
477.043	1760.88
477.819	1935.88
478.595	2116.88
479.371	2320.88
480.146	2505.88
480.922	2780.88
481.698	3028.88
482.473	3314.88
483.249	3631.88
484.024	3931.88
484.8	4298.88
485.575	4681.88
486.35	5117.88
487.126	5532.88
487.901	6035.88
488.676	6528.88
489.451	7122.88
490.225	7735.88
491	8374.88
491.775	9119.88
492.55	9864.88
493.324	10644.88
494.099	11436.88
494.873	12259.88
495.647	13134.88
496.422	14093.88
497.196	15068.88
497.97	16061.88
498.744	17106.88
499.518	18162.88
500.292	19128.88
501.066	20090.88
501.839	20991.88
502.613	21928.88
503.387	22753.88
504.16	23491.88
504.934	23979.88
505.707	24445.88
506.48	24605.88
507.253	24828.88
508.027	24889.88
508.8	24823.88
509.573	24724.88
510.346	24360.88
511.118	23920.88
511.891	23449.88
512.664	22754.88
513.437	22175.88
514.209	21386.88
514.982	20669.88
515.754	19889.88
516.526	19100.88
517.298	18340.88
518.071	17561.88
518.843	16949.88
519.615	16311.88
520.387	15667.88
521.159	15049.88
521.93	14402.88
522.702	13852.88
523.474	13295.88
524.245	12732.88
525.017	12232.88
525.788	11756.88
526.56	11255.88
527.331	10732.88
528.102	10305.88
528.873	9856.88
529.644	9375.88
530.415	9005.88
531.186	8567.88
531.957	8139.88
532.728	7761.88
533.498	7380.88
534.269	6996.88
535.039	6610.88
535.81	6295.88
536.58	5950.88
537.351	5617.88
538.121	5270.88
538.891	5055.88
539.661	4762.88
540.431	4487.88
541.201	4247.88
541.971	4017.88
542.741	3797.88
543.51	3623.88
544.28	3437.88
545.05	3282.88
545.819	3101.88
546.588	2970.88
547.358	2831.88
548.127	2682.88
548.896	2532.88
549.665	2428.88
550.434	2291.88
551.203	2156.88
551.972	2061.88
552.741	1962.88
553.51	1836.88
554.278	1748.88
555.047	1648.88
555.815	1557.88
556.584	1476.88
557.352	1394.88
558.121	1318.88
558.889	1237.88
559.657	1184.88
560.425	1117.88
561.193	1055.88
561.961	993.88
562.729	954.88
563.496	893.88
564.264	834.88
565.032	786.88
565.799	763.88
566.567	709.88
567.334	671.88
568.101	635.88
568.869	591.88
569.636	566.88
570.403	520.88
571.17	500.88
571.937	470.88
572.704	449.88
573.471	420.88
574.237	395.88
575.004	374.88
575.771	355.88
576.537	332.88
577.303	305.88
578.07	284.88
578.836	272.88
579.602	259.88
580.368	245.88
581.134	235.88
581.9	218.88
582.666	210.88
583.432	198.88
584.198	191.88
584.964	177.88
585.729	171.88
586.495	163.88
587.26	153.88
588.025	145.88
588.791	133.88
589.556	128.88
590.321	125.88
591.086	117.88
591.851	110.88
592.616	104.88
593.381	101.88
594.146	92.88
594.911	92.88
595.675	84.88
596.44	80.88
597.204	75.88
597.969	76.88
598.733	70.88
599.497	71.88
600.261	67.88
601.025	63.88
601.79	57.88
602.553	53.88
603.317	50.88
604.081	54.88
604.845	49.88
605.609	44.88
606.372	45.88
607.136	44.88
607.899	40.88
608.662	39.88
609.426	40.88
610.189	36.88
610.952	35.88
611.715	35.88
612.478	29.88
613.241	31.88
614.004	32.88
614.767	27.88
615.529	28.88
616.292	26.88
617.055	26.88
617.817	25.88
618.579	25.88
619.342	20.88
620.104	24.88
620.866	21.88
621.628	21.88
622.39	19.88
623.152	20.88
623.914	19.88
624.676	19.88
625.438	16.88
626.199	18.88
626.961	14.88
627.722	15.88
628.484	13.88
629.245	15.88
630.006	15.88
630.768	13.88
631.529	14.88
632.29	13.88
633.051	14.88
633.812	11.88
634.573	13.88
635.333	13.88
636.094	9.88
636.855	9.88
637.615	9.88
638.376	9.88
639.136	9.88
639.896	9.88
640.657	7.88
641.417	6.88
642.177	9.88
642.937	7.88
643.697	8.88
644.457	7.88
645.216	9.88
645.976	10.88
646.736	7.88
647.495	9.88
648.255	5.88
649.014	6.88
649.774	3.88
650.533	6.88
651.292	7.88
652.051	5.88
652.81	4.88
653.569	5.88
654.328	5.88
655.087	5.88
655.846	4.88
656.604	4.88
657.363	5.88
658.121	4.88
658.88	5.88
659.638	5.88
660.397	6.88
661.155	4.88
661.913	5.88
662.671	5.88
663.429	5.88
664.187	5.88
664.945	3.88
665.703	6.88
666.46	5.88
667.218	5.88
667.976	2.88
668.733	2.88
669.49	1.88
670.248	6.88
671.005	3.88
671.762	3.88
672.519	4.88
673.276	4.88
674.033	3.88
674.79	4.88
675.547	3.88
676.304	3.88
677.06	2.88
677.817	4.88
678.574	3.88
679.33	3.88
680.086	1.88
680.843	3.88
681.599	5.88
682.355	1.88
683.111	3.88
683.867	0.88
684.623	3.88
685.379	3.88
686.135	6.88
686.89	1.88
687.646	4.88
688.402	2.88
689.157	4.88
689.912	2.88
690.668	4.88
691.423	1.88
692.178	2.88
692.933	2.88
693.688	3.88
694.443	3.88
695.198	3.88
695.953	1.88
696.708	4.88
697.462	3.88
698.217	2.88
698.972	3.88
699.726	2.88
700.48	-0.12
701.235	3.88
701.989	3.88
702.743	4.88
703.497	3.88
704.251	3.88
705.005	2.88
705.759	4.88
706.513	4.88
707.266	2.88
708.02	4.88
708.774	2.88
709.527	3.88
710.28	1.88
711.034	0.88
711.787	4.88
712.54	4.88
713.293	3.88
714.046	2.88
714.799	2.88
715.552	3.88
716.305	3.88
717.058	3.88
717.81	3.88
718.563	4.88
719.315	3.88
720.068	1.88
720.82	2.88
721.573	3.88
722.325	3.88
723.077	4.88
723.829	2.88
724.581	3.88
725.333	2.88
726.085	3.88
726.836	1.88
727.588	3.88
728.34	5.88
729.091	2.88
729.843	4.88
730.594	4.88
731.346	2.88
732.097	4.88
732.848	1.88
733.599	4.88
734.35	1.88
735.101	3.88
735.852	1.88
736.603	4.88
737.354	4.88
738.104	3.88
738.855	3.88
739.605	3.88
740.356	3.88
741.106	-0.12
741.856	1.88
742.607	4.88
743.357	2.88
744.107	2.88
744.857	3.88
745.607	3.88
746.357	4.88
747.106	0.88
747.856	2.88
748.606	5.88
749.355	4.88
750.105	6.88
750.854	4.88
751.603	4.88
752.353	2.88
753.102	3.88
753.851	6.88
754.6	4.88
755.349	3.88
756.098	5.88
756.847	6.88
757.595	3.88
758.344	6.88
759.093	4.88
759.841	6.88
760.589	4.88
761.338	4.88
762.086	3.88
762.834	5.88
763.582	5.88
764.331	5.88
765.079	4.88
765.826	4.88
766.574	3.88
767.322	5.88
768.07	5.88
768.817	4.88
769.565	4.88
770.312	6.88
771.06	5.88
771.807	8.88
772.554	4.88
773.302	9.88
774.049	9.88
774.796	5.88
775.543	6.88
776.29	6.88
777.036	7.88
777.783	5.88
778.53	5.88
779.276	6.88
780.023	7.88
780.769	5.88
781.516	5.88
782.262	9.88
783.008	7.88
783.754	9.88
784.5	10.88
785.246	6.88
785.992	5.88
786.738	6.88
787.484	8.88
788.23	7.88
788.975	6.88
789.721	7.88
790.466	4.88
791.212	7.88
791.957	5.88
792.702	7.88
793.447	7.88
794.193	6.88
794.938	6.88
795.683	7.88
796.427	5.88
797.172	5.88
797.917	7.88
798.662	5.88
799.406	5.88
800.151	7.88
800.895	5.88
801.64	6.88
802.384	8.88
803.128	5.88
803.872	4.88
804.616	4.88
805.36	5.88
806.104	4.88
806.848	4.88
807.592	6.88
808.336	5.88
809.079	4.88
809.823	4.88
810.566	6.88
811.31	2.88
812.053	5.88
812.796	4.88
813.539	3.88
814.283	5.88
815.026	4.88
815.769	4.88
816.511	6.88
817.254	4.88
817.997	5.88
818.74	4.88
819.482	5.88
820.225	3.88
820.967	1.88
821.71	6.88
822.452	2.88
823.194	4.88
823.936	4.88
824.678	4.88
825.42	3.88
826.162	5.88
826.904	4.88
827.646	4.88
828.388	1.88
829.129	0.88
829.871	3.88
830.612	1.88
831.354	3.88
832.095	1.88
832.836	2.88
833.577	4.88
834.319	1.88
835.06	1.88
835.801	5.88
836.542	4.88
837.282	4.88
838.023	1.88
838.764	1.88
839.504	2.88
840.245	3.88
840.985	4.88
841.726	1.88
842.466	3.88
843.206	2.88
843.946	1.88
844.687	2.88
845.427	2.88
846.166	2.88
846.906	5.88
847.646	3.88
848.386	0.88
849.125	3.88
849.865	1.88
850.605	3.88
851.344	1.88
852.083	1.88
852.823	3.88
853.562	2.88
854.301	1.88
855.04	3.88
855.779	0.88
856.518	1.88
857.257	2.88
857.995	3.88
858.734	2.88
859.473	3.88
860.211	0.88
860.95	1.88
861.688	2.88
862.426	2.88
863.165	1.88
863.903	0.88
864.641	1.88
865.379	0.88
866.117	-0.12
866.855	3.88
867.593	-0.12
868.33	1.88
869.068	-0.12
869.806	0.88
870.543	0.88
871.28	-0.12
872.018	0.88
872.755	2.88
873.492	2.88
874.229	0.88
874.967	0.88
875.703	0.88
876.44	0.88
877.177	0.88
877.914	0.88
878.651	0.88
879.387	0.88
880.124	2.88
880.86	0.88
881.597	1.88
882.333	0.88
883.069	-0.12
883.806	1.88
884.542	-1.12
885.278	0.88
886.014	-0.12
886.749	-1.12
887.485	-2.12
888.221	1.88
888.957	-0.12
889.692	0.88
890.428	0.88
891.163	1.88
891.899	1.88
892.634	-0.12
893.369	-2.12
894.104	0.88
894.839	-0.12
895.574	-0.12
896.309	0.88
897.044	0.88
897.779	-0.12
898.514	-2.12
899.248	0.88
899.983	-0.12
900.717	-0.12
901.452	0.88
902.186	0.88
902.92	1.88
903.654	-0.12
904.389	1.88
905.123	0.88
905.857	-2.12
906.59	0.88
907.324	-2.12
908.058	-2.12
908.792	-0.12
909.525	0.88
910.259	-0.12
910.992	-1.12
911.726	-0.12
912.459	-1.12
913.192	1.88
913.925	0.88
914.658	1.88
915.391	0.88
916.124	0.88
916.857	-0.12
917.59	-1.12
918.323	1.88
919.055	-0.12
919.788	0.88
920.521	0.88
921.253	1.88
921.985	-0.12
922.718	-2.12
923.45	0.88
924.182	0.88
924.914	-0.12
925.646	0.88
926.378	-1.12
927.11	1.88
927.841	-1.12
928.573	0.88
929.305	-0.12
930.036	0.88
930.768	-0.12
931.499	-1.12
932.23	1.88
932.962	0.88
933.693	2.88
934.424	0.88
935.155	-1.12
935.886	-0.12
936.617	-1.12
937.348	0.88
938.078	0.88
938.809	0.88
939.54	-1.12
940.27	0.88
941.001	1.88
941.731	0.88
942.461	1.88
943.191	1.88
943.922	0.88
944.652	-1.12
945.382	-2.12
946.112	1.88
946.841	-2.12
947.571	0.88
948.301	1.88
949.031	-3.12
949.76	-1.12
950.49	-0.12
951.219	-1.12
951.948	-0.12
952.678	-0.12
953.407	3.88
954.136	-0.12
954.865	0.88
955.594	-0.12
956.323	1.88
957.052	-0.12
957.78	-2.12
958.509	-0.12
959.238	0.88
959.966	0.88
960.695	-0.12
961.423	-1.12
962.151	-1.12
962.88	-0.12
963.608	-1.12
964.336	-0.12
965.064	1.88
965.792	-1.12
966.52	-1.12
967.247	-0.12
967.975	-1.12
968.703	1.88
969.43	1.88
970.158	-1.12
970.885	-2.12
971.613	-0.12
972.34	-0.12
973.067	1.88
973.794	1.88
974.521	-0.12
975.248	-0.12
975.975	-1.12
976.702	0.88
977.429	-1.12
978.156	-2.12
978.882	-0.12
979.609	0.88
980.335	0.88
981.062	1.88
981.788	-0.12
982.514	1.88
983.24	0.88
983.967	1.88
984.693	0.88
985.419	-0.12
986.144	-1.12
986.87	0.88
987.596	-2.12
988.322	0.88
989.047	-1.12
989.773	-0.12
990.498	-0.12
991.224	1.88
991.949	-0.12
992.674	1.88
993.399	-2.12
994.124	-0.12
994.849	-0.12
995.574	-1.12
996.299	-0.12
997.024	-1.12
997.749	-0.12
998.473	-2.12
999.198	0.88
999.922	-0.12
1000.647	-0.12
1001.371	3.88
1002.095	-2.12
1002.82	-0.12
1003.544	-2.12
1004.268	0.88
1004.992	-0.12
1005.716	-0.12
1006.439	-0.12
1007.163	1.88
1007.887	2.88
1008.611	-0.12
1009.334	-0.12
1010.058	1.88
1010.781	-1.12
1011.504	0.88
1012.228	-0.12
1012.951	-1.12
1013.674	0.88
1014.397	-0.12
1015.12	0.88
