节点500_285_QEPB04081__3__14-55-38-490.txt的数据

Date: Wed Nov 12 14:55:38 CST 2025
User: PC
Spectrometer: QEPB0408
触发模式: 0
积分时间 (秒): 1.000000E-2
Scans to average: 1
启用暗噪声校正: true
启用非线性校正: false
滑动平均宽度: 0
X轴模式: Wavelengths
Number of Pixels in Spectrum: 1044
>>>>>Begin Spectral Data<<<<<
220.843	-1.38
221.644	-2.38
222.444	0.62
223.244	-4.38
224.045	1.62
224.845	-3.38
225.645	-1.38
226.445	-2.38
227.245	-1.38
228.045	-3.38
228.845	-3.38
229.645	-2.38
230.444	-1.38
231.244	-1.38
232.043	-1.38
232.843	-3.38
233.642	-1.38
234.442	-3.38
235.241	-3.38
236.04	-2.38
236.839	-2.38
237.638	-2.38
238.437	-1.38
239.236	-2.38
240.035	-2.38
240.833	0.62
241.632	0.62
242.43	0.62
243.229	-2.38
244.027	-2.38
244.826	-1.38
245.624	-1.38
246.422	1.62
247.22	-2.38
248.018	-0.38
248.816	-1.38
249.614	-0.38
250.412	-3.38
251.21	-2.38
252.007	-2.38
252.805	1.62
253.602	-3.38
254.4	-1.38
255.197	-1.38
255.994	-3.38
256.791	-0.38
257.589	0.62
258.386	-3.38
259.183	-1.38
259.979	1.62
260.776	-2.38
261.573	-1.38
262.37	-0.38
263.166	-0.38
263.963	-2.38
264.759	-0.38
265.556	-1.38
266.352	-1.38
267.148	1.62
267.944	-2.38
268.74	-1.38
269.536	-1.38
270.332	-1.38
271.128	-1.38
271.924	0.62
272.719	-0.38
273.515	-1.38
274.311	0.62
275.106	-0.38
275.901	-2.38
276.697	-1.38
277.492	-2.38
278.287	-0.38
279.082	-0.38
279.877	0.62
280.672	-1.38
281.467	-2.38
282.262	-1.38
283.056	-1.38
283.851	-0.38
284.646	-1.38
285.44	-1.38
286.234	-0.38
287.029	-1.38
287.823	-1.38
288.617	-2.38
289.411	-0.38
290.205	-1.38
290.999	-3.38
291.793	-0.38
292.587	-2.38
293.381	0.62
294.174	-0.38
294.968	-1.38
295.761	-0.38
296.555	-3.38
297.348	0.62
298.141	-0.38
298.935	-0.38
299.728	-1.38
300.521	-1.38
301.314	-1.38
302.107	-2.38
302.899	0.62
303.692	-0.38
304.485	-1.38
305.277	-1.38
306.07	-2.38
306.862	1.62
307.655	-0.38
308.447	-1.38
309.239	0.62
310.031	-1.38
310.823	-0.38
311.615	0.62
312.407	-1.38
313.199	0.62
313.991	-2.38
314.783	-0.38
315.574	-1.38
316.366	0.62
317.157	0.62
317.949	-1.38
318.74	-0.38
319.531	-1.38
320.322	-0.38
321.113	-1.38
321.904	-0.38
322.695	0.62
323.486	-0.38
324.277	1.62
325.068	-1.38
325.858	1.62
326.649	0.62
327.439	0.62
328.23	-1.38
329.02	0.62
329.81	-0.38
330.6	-0.38
331.391	-0.38
332.181	-1.38
332.971	-0.38
333.76	-1.38
334.55	0.62
335.34	0.62
336.13	1.62
336.919	-0.38
337.709	0.62
338.498	0.62
339.287	0.62
340.077	-1.38
340.866	0.62
341.655	-1.38
342.444	-1.38
343.233	-1.38
344.022	-0.38
344.811	-1.38
345.6	-1.38
346.388	-0.38
347.177	-1.38
347.965	-2.38
348.754	-0.38
349.542	1.62
350.33	-1.38
351.119	0.62
351.907	-3.38
352.695	0.62
353.483	-0.38
354.271	-0.38
355.059	0.62
355.846	-0.38
356.634	-1.38
357.422	0.62
358.209	0.62
358.997	1.62
359.784	-0.38
360.571	-0.38
361.359	-1.38
362.146	-0.38
362.933	1.62
363.72	0.62
364.507	-0.38
365.294	1.62
366.081	-1.38
366.867	-1.38
367.654	1.62
368.44	-1.38
369.227	-0.38
370.013	-1.38
370.8	-1.38
371.586	1.62
372.372	-1.38
373.158	-0.38
373.944	-0.38
374.73	0.62
375.516	-0.38
376.302	-2.38
377.088	1.62
377.873	-1.38
378.659	0.62
379.445	0.62
380.23	-0.38
381.015	0.62
381.801	0.62
382.586	-0.38
383.371	0.62
384.156	0.62
384.941	0.62
385.726	-0.38
386.511	-1.38
387.296	0.62
388.08	-0.38
388.865	-0.38
389.649	-0.38
390.434	-0.38
391.218	1.62
392.003	-0.38
392.787	0.62
393.571	-3.38
394.355	2.62
395.139	-3.38
395.923	0.62
396.707	1.62
397.491	-1.38
398.274	0.62
399.058	-0.38
399.842	-0.38
400.625	0.62
401.408	-0.38
402.192	0.62
402.975	0.62
403.758	-1.38
404.541	-0.38
405.324	0.62
406.107	0.62
406.89	-0.38
407.673	0.62
408.456	-1.38
409.238	-0.38
410.021	0.62
410.803	-0.38
411.586	-1.38
412.368	-0.38
413.151	-0.38
413.933	-2.38
414.715	0.62
415.497	2.62
416.279	-1.38
417.061	-0.38
417.843	0.62
418.624	-2.38
419.406	-1.38
420.188	-0.38
420.969	0.62
421.751	-0.38
422.532	-1.38
423.313	1.62
424.095	-0.38
424.876	1.62
425.657	0.62
426.438	-1.38
427.219	-1.38
428	-1.38
428.78	-1.38
429.561	-0.38
430.342	-1.38
431.122	0.62
431.903	0.62
432.683	-3.38
433.464	-0.38
434.244	0.62
435.024	-1.38
435.804	-0.38
436.584	-0.38
437.364	0.62
438.144	1.62
438.924	0.62
439.704	0.62
440.483	-1.38
441.263	-1.38
442.042	0.62
442.822	-0.38
443.601	0.62
444.38	-0.38
445.16	0.62
445.939	0.62
446.718	-0.38
447.497	1.62
448.276	0.62
449.054	0.62
449.833	1.62
450.612	-0.38
451.391	1.62
452.169	-2.38
452.948	-0.38
453.726	-0.38
454.504	0.62
455.282	0.62
456.061	0.62
456.839	0.62
457.617	0.62
458.395	-0.38
459.172	-0.38
459.95	1.62
460.728	0.62
461.506	0.62
462.283	-1.38
463.061	0.62
463.838	-3.38
464.615	-0.38
465.393	-2.38
466.17	1.62
466.947	2.62
467.724	0.62
468.501	0.62
469.278	-1.38
470.055	0.62
470.831	0.62
471.608	0.62
472.385	-1.38
473.161	-0.38
473.938	1.62
474.714	-1.38
475.49	0.62
476.266	-1.38
477.043	0.62
477.819	0.62
478.595	0.62
479.371	0.62
480.146	0.62
480.922	-1.38
481.698	1.62
482.473	0.62
483.249	-0.38
484.024	-1.38
484.8	-0.38
485.575	0.62
486.35	-0.38
487.126	1.62
487.901	-1.38
488.676	2.62
489.451	-0.38
490.225	0.62
491	-0.38
491.775	-1.38
492.55	1.62
493.324	-0.38
494.099	0.62
494.873	2.62
495.647	-0.38
496.422	0.62
497.196	-0.38
497.97	2.62
498.744	-0.38
499.518	0.62
500.292	-0.38
501.066	-0.38
501.839	-0.38
502.613	1.62
503.387	-0.38
504.16	-1.38
504.934	-0.38
505.707	0.62
506.48	0.62
507.253	-0.38
508.027	1.62
508.8	1.62
509.573	-0.38
510.346	-0.38
511.118	0.62
511.891	-0.38
512.664	1.62
513.437	-0.38
514.209	-0.38
514.982	-0.38
515.754	-0.38
516.526	3.62
517.298	-0.38
518.071	-0.38
518.843	1.62
519.615	0.62
520.387	1.62
521.159	-0.38
521.93	-0.38
522.702	-0.38
523.474	0.62
524.245	-0.38
525.017	0.62
525.788	-0.38
526.56	2.62
527.331	0.62
528.102	0.62
528.873	-1.38
529.644	1.62
530.415	1.62
531.186	0.62
531.957	0.62
532.728	0.62
533.498	0.62
534.269	-0.38
535.039	0.62
535.81	-2.38
536.58	-0.38
537.351	-0.38
538.121	0.62
538.891	-0.38
539.661	-0.38
540.431	-0.38
541.201	0.62
541.971	0.62
542.741	-1.38
543.51	0.62
544.28	0.62
545.05	-1.38
545.819	0.62
546.588	1.62
547.358	-0.38
548.127	0.62
548.896	1.62
549.665	2.62
550.434	2.62
551.203	-1.38
551.972	1.62
552.741	0.62
553.51	0.62
554.278	0.62
555.047	0.62
555.815	1.62
556.584	-2.38
557.352	1.62
558.121	0.62
558.889	-0.38
559.657	2.62
560.425	0.62
561.193	-1.38
561.961	-0.38
562.729	-0.38
563.496	-1.38
564.264	0.62
565.032	0.62
565.799	-0.38
566.567	0.62
567.334	0.62
568.101	-0.38
568.869	0.62
569.636	-0.38
570.403	-0.38
571.17	-0.38
571.937	0.62
572.704	1.62
573.471	-0.38
574.237	-3.38
575.004	-0.38
575.771	-0.38
576.537	-1.38
577.303	-0.38
578.07	-1.38
578.836	-0.38
579.602	-1.38
580.368	-1.38
581.134	0.62
581.9	1.62
582.666	0.62
583.432	0.62
584.198	-0.38
584.964	-0.38
585.729	-0.38
586.495	-0.38
587.26	-0.38
588.025	-0.38
588.791	0.62
589.556	-0.38
590.321	0.62
591.086	-3.38
591.851	-0.38
592.616	0.62
593.381	0.62
594.146	-0.38
594.911	-0.38
595.675	-0.38
596.44	0.62
597.204	0.62
597.969	-0.38
598.733	2.62
599.497	0.62
600.261	-2.38
601.025	-0.38
601.79	-0.38
602.553	-1.38
603.317	0.62
604.081	0.62
604.845	-1.38
605.609	-1.38
606.372	0.62
607.136	-0.38
607.899	1.62
608.662	0.62
609.426	-0.38
610.189	-0.38
610.952	1.62
611.715	-0.38
612.478	0.62
613.241	-0.38
614.004	-1.38
614.767	-0.38
615.529	0.62
616.292	-0.38
617.055	0.62
617.817	0.62
618.579	-1.38
619.342	-2.38
620.104	0.62
620.866	-0.38
621.628	0.62
622.39	1.62
623.152	0.62
623.914	-0.38
624.676	0.62
625.438	-1.38
626.199	0.62
626.961	-0.38
627.722	-1.38
628.484	0.62
629.245	0.62
630.006	1.62
630.768	-1.38
631.529	-0.38
632.29	0.62
633.051	0.62
633.812	-1.38
634.573	0.62
635.333	0.62
636.094	-1.38
636.855	1.62
637.615	0.62
638.376	0.62
639.136	-0.38
639.896	-2.38
640.657	0.62
641.417	0.62
642.177	0.62
642.937	0.62
643.697	0.62
644.457	-1.38
645.216	-1.38
645.976	1.62
646.736	-0.38
647.495	-1.38
648.255	1.62
649.014	-2.38
649.774	0.62
650.533	-0.38
651.292	-0.38
652.051	-0.38
652.81	1.62
653.569	0.62
654.328	0.62
655.087	-0.38
655.846	-1.38
656.604	0.62
657.363	-0.38
658.121	-3.38
658.88	-0.38
659.638	-0.38
660.397	2.62
661.155	-1.38
661.913	-1.38
662.671	0.62
663.429	0.62
664.187	-0.38
664.945	0.62
665.703	-0.38
666.46	0.62
667.218	0.62
667.976	0.62
668.733	-0.38
669.49	0.62
670.248	3.62
671.005	-0.38
671.762	-0.38
672.519	0.62
673.276	-0.38
674.033	0.62
674.79	-0.38
675.547	0.62
676.304	-0.38
677.06	0.62
677.817	1.62
678.574	1.62
679.33	-1.38
680.086	-1.38
680.843	0.62
681.599	-1.38
682.355	-0.38
683.111	-0.38
683.867	-1.38
684.623	2.62
685.379	-1.38
686.135	-0.38
686.89	-1.38
687.646	-0.38
688.402	0.62
689.157	-1.38
689.912	0.62
690.668	0.62
691.423	-0.38
692.178	-0.38
692.933	-0.38
693.688	-0.38
694.443	0.62
695.198	0.62
695.953	2.62
696.708	0.62
697.462	0.62
698.217	-1.38
698.972	-1.38
699.726	1.62
700.48	0.62
701.235	0.62
701.989	-1.38
702.743	1.62
703.497	-0.38
704.251	-0.38
705.005	0.62
705.759	-1.38
706.513	2.62
707.266	0.62
708.02	2.62
708.774	0.62
709.527	2.62
710.28	1.62
711.034	0.62
711.787	0.62
712.54	-0.38
713.293	1.62
714.046	-1.38
714.799	-2.38
715.552	-0.38
716.305	-0.38
717.058	0.62
717.81	-0.38
718.563	-1.38
719.315	0.62
720.068	-2.38
720.82	0.62
721.573	1.62
722.325	1.62
723.077	-2.38
723.829	-2.38
724.581	1.62
725.333	0.62
726.085	-1.38
726.836	1.62
727.588	-0.38
728.34	-2.38
729.091	0.62
729.843	0.62
730.594	0.62
731.346	-0.38
732.097	-0.38
732.848	-1.38
733.599	-0.38
734.35	3.62
735.101	-0.38
735.852	-1.38
736.603	-1.38
737.354	1.62
738.104	1.62
738.855	0.62
739.605	-1.38
740.356	0.62
741.106	-0.38
741.856	0.62
742.607	2.62
743.357	0.62
744.107	1.62
744.857	-1.38
745.607	-2.38
746.357	0.62
747.106	1.62
747.856	0.62
748.606	1.62
749.355	-0.38
750.105	-0.38
750.854	0.62
751.603	-1.38
752.353	1.62
753.102	-0.38
753.851	0.62
754.6	-1.38
755.349	1.62
756.098	0.62
756.847	0.62
757.595	0.62
758.344	-2.38
759.093	-1.38
759.841	0.62
760.589	-0.38
761.338	0.62
762.086	-1.38
762.834	0.62
763.582	0.62
764.331	-0.38
765.079	-0.38
765.826	-0.38
766.574	1.62
767.322	-1.38
768.07	1.62
768.817	-0.38
769.565	0.62
770.312	2.62
771.06	0.62
771.807	0.62
772.554	1.62
773.302	-0.38
774.049	2.62
774.796	0.62
775.543	-0.38
776.29	-1.38
777.036	-1.38
777.783	-0.38
778.53	-0.38
779.276	0.62
780.023	-0.38
780.769	-0.38
781.516	-0.38
782.262	-2.38
783.008	-2.38
783.754	-2.38
784.5	0.62
785.246	0.62
785.992	-0.38
786.738	0.62
787.484	1.62
788.23	1.62
788.975	-3.38
789.721	1.62
790.466	0.62
791.212	-1.38
791.957	-1.38
792.702	-0.38
793.447	-0.38
794.193	-1.38
794.938	-3.38
795.683	-0.38
796.427	-0.38
797.172	0.62
797.917	-1.38
798.662	-0.38
799.406	2.62
800.151	0.62
800.895	-1.38
801.64	-0.38
802.384	-2.38
803.128	-0.38
803.872	0.62
804.616	0.62
805.36	0.62
806.104	0.62
806.848	-3.38
807.592	0.62
808.336	-2.38
809.079	0.62
809.823	0.62
810.566	-0.38
811.31	1.62
812.053	1.62
812.796	0.62
813.539	0.62
814.283	-2.38
815.026	1.62
815.769	0.62
816.511	0.62
817.254	2.62
817.997	0.62
818.74	-0.38
819.482	-0.38
820.225	2.62
820.967	-1.38
821.71	1.62
822.452	1.62
823.194	0.62
823.936	0.62
824.678	-0.38
825.42	-0.38
826.162	-0.38
826.904	-1.38
827.646	0.62
828.388	1.62
829.129	-0.38
829.871	-0.38
830.612	-2.38
831.354	-0.38
832.095	0.62
832.836	-2.38
833.577	1.62
834.319	-0.38
835.06	-0.38
835.801	-0.38
836.542	-1.38
837.282	-1.38
838.023	0.62
838.764	0.62
839.504	-1.38
840.245	-2.38
840.985	1.62
841.726	1.62
842.466	-1.38
843.206	-1.38
843.946	-1.38
844.687	-1.38
845.427	-2.38
846.166	0.62
846.906	-1.38
847.646	-0.38
848.386	-0.38
849.125	1.62
849.865	-0.38
850.605	-0.38
851.344	1.62
852.083	-1.38
852.823	-0.38
853.562	0.62
854.301	1.62
855.04	0.62
855.779	-0.38
856.518	-0.38
857.257	-0.38
857.995	-0.38
858.734	-0.38
859.473	0.62
860.211	-1.38
860.95	0.62
861.688	-1.38
862.426	1.62
863.165	0.62
863.903	-1.38
864.641	-1.38
865.379	-0.38
866.117	-0.38
866.855	0.62
867.593	0.62
868.33	0.62
869.068	-1.38
869.806	-1.38
870.543	0.62
871.28	-1.38
872.018	2.62
872.755	0.62
873.492	0.62
874.229	0.62
874.967	0.62
875.703	0.62
876.44	1.62
877.177	1.62
877.914	-0.38
878.651	-1.38
879.387	1.62
880.124	-1.38
880.86	-1.38
881.597	-1.38
882.333	1.62
883.069	-0.38
883.806	-0.38
884.542	1.62
885.278	-1.38
886.014	0.62
886.749	0.62
887.485	-0.38
888.221	0.62
888.957	-0.38
889.692	-1.38
890.428	0.62
891.163	-3.38
891.899	-0.38
892.634	0.62
893.369	0.62
894.104	-0.38
894.839	-1.38
895.574	-1.38
896.309	-1.38
897.044	-0.38
897.779	-1.38
898.514	0.62
899.248	-1.38
899.983	-0.38
900.717	1.62
901.452	1.62
902.186	-0.38
902.92	-0.38
903.654	-1.38
904.389	1.62
905.123	-0.38
905.857	0.62
906.59	1.62
907.324	0.62
908.058	1.62
908.792	-1.38
909.525	0.62
910.259	-0.38
910.992	0.62
911.726	-1.38
912.459	-0.38
913.192	-0.38
913.925	-0.38
914.658	0.62
915.391	-1.38
916.124	0.62
916.857	-1.38
917.59	-4.38
918.323	2.62
919.055	-0.38
919.788	1.62
920.521	0.62
921.253	0.62
921.985	-0.38
922.718	-1.38
923.45	-0.38
924.182	-1.38
924.914	0.62
925.646	0.62
926.378	0.62
927.11	0.62
927.841	-1.38
928.573	-0.38
929.305	0.62
930.036	1.62
930.768	1.62
931.499	0.62
932.23	-1.38
932.962	-0.38
933.693	-0.38
934.424	-1.38
935.155	-1.38
935.886	-0.38
936.617	0.62
937.348	-1.38
938.078	-0.38
938.809	0.62
939.54	0.62
940.27	-0.38
941.001	-0.38
941.731	1.62
942.461	0.62
943.191	-0.38
943.922	-1.38
944.652	1.62
945.382	-0.38
946.112	0.62
946.841	0.62
947.571	-0.38
948.301	0.62
949.031	-0.38
949.76	1.62
950.49	-1.38
951.219	-0.38
951.948	-1.38
952.678	0.62
953.407	0.62
954.136	-2.38
954.865	-0.38
955.594	-1.38
956.323	0.62
957.052	0.62
957.78	0.62
958.509	-0.38
959.238	0.62
959.966	-0.38
960.695	-0.38
961.423	-2.38
962.151	0.62
962.88	-1.38
963.608	-0.38
964.336	0.62
965.064	-0.38
965.792	-1.38
966.52	0.62
967.247	-2.38
967.975	0.62
968.703	-2.38
969.43	-1.38
970.158	1.62
970.885	0.62
971.613	0.62
972.34	-2.38
973.067	-0.38
973.794	-0.38
974.521	0.62
975.248	-0.38
975.975	-0.38
976.702	-0.38
977.429	0.62
978.156	0.62
978.882	0.62
979.609	-1.38
980.335	0.62
981.062	-2.38
981.788	-1.38
982.514	-2.38
983.24	-0.38
983.967	1.62
984.693	-1.38
985.419	1.62
986.144	0.62
986.87	-0.38
987.596	-0.38
988.322	2.62
989.047	0.62
989.773	-0.38
990.498	1.62
991.224	-0.38
991.949	0.62
992.674	0.62
993.399	-1.38
994.124	1.62
994.849	-1.38
995.574	-1.38
996.299	2.62
997.024	1.62
997.749	0.62
998.473	-0.38
999.198	0.62
999.922	-0.38
1000.647	0.62
1001.371	3.62
1002.095	-3.38
1002.82	-0.38
1003.544	-2.38
1004.268	-3.38
1004.992	-1.38
1005.716	-3.38
1006.439	-1.38
1007.163	-3.38
1007.887	-1.38
1008.611	2.62
1009.334	-0.38
1010.058	0.62
1010.781	0.62
1011.504	1.62
1012.228	-1.38
1012.951	-0.38
1013.674	0.62
1014.397	0.62
1015.12	1.62
