节点500_285_QEPB04081__342__15-01-14-682.txt的数据

Date: Wed Nov 12 15:01:14 CST 2025
User: PC
Spectrometer: QEPB0408
触发模式: 0
积分时间 (秒): 1.000000E-2
Scans to average: 1
启用暗噪声校正: true
启用非线性校正: false
滑动平均宽度: 0
X轴模式: Wavelengths
Number of Pixels in Spectrum: 1044
>>>>>Begin Spectral Data<<<<<
220.843	2.88
221.644	-1.12
222.444	3.88
223.244	3.88
224.045	3.88
224.845	2.88
225.645	-0.12
226.445	1.88
227.245	1.88
228.045	2.88
228.845	2.88
229.645	2.88
230.444	2.88
231.244	3.88
232.043	4.88
232.843	2.88
233.642	3.88
234.442	4.88
235.241	4.88
236.04	1.88
236.839	4.88
237.638	4.88
238.437	3.88
239.236	3.88
240.035	2.88
240.833	3.88
241.632	3.88
242.43	3.88
243.229	5.88
244.027	4.88
244.826	5.88
245.624	6.88
246.422	3.88
247.22	5.88
248.018	6.88
248.816	6.88
249.614	6.88
250.412	4.88
251.21	6.88
252.007	7.88
252.805	7.88
253.602	7.88
254.4	7.88
255.197	7.88
255.994	8.88
256.791	8.88
257.589	8.88
258.386	8.88
259.183	9.88
259.979	10.88
260.776	9.88
261.573	9.88
262.37	9.88
263.166	12.88
263.963	10.88
264.759	10.88
265.556	11.88
266.352	12.88
267.148	13.88
267.944	11.88
268.74	14.88
269.536	13.88
270.332	16.88
271.128	15.88
271.924	16.88
272.719	15.88
273.515	15.88
274.311	15.88
275.106	16.88
275.901	13.88
276.697	14.88
277.492	19.88
278.287	17.88
279.082	17.88
279.877	17.88
280.672	18.88
281.467	15.88
282.262	20.88
283.056	19.88
283.851	17.88
284.646	20.88
285.44	17.88
286.234	20.88
287.029	20.88
287.823	19.88
288.617	19.88
289.411	16.88
290.205	18.88
290.999	16.88
291.793	17.88
292.587	17.88
293.381	18.88
294.174	19.88
294.968	17.88
295.761	13.88
296.555	16.88
297.348	16.88
298.141	15.88
298.935	15.88
299.728	16.88
300.521	14.88
301.314	13.88
302.107	14.88
302.899	13.88
303.692	11.88
304.485	11.88
305.277	12.88
306.07	13.88
306.862	11.88
307.655	11.88
308.447	10.88
309.239	13.88
310.031	13.88
310.823	11.88
311.615	11.88
312.407	9.88
313.199	9.88
313.991	9.88
314.783	9.88
315.574	9.88
316.366	8.88
317.157	10.88
317.949	9.88
318.74	8.88
319.531	6.88
320.322	6.88
321.113	6.88
321.904	8.88
322.695	6.88
323.486	6.88
324.277	6.88
325.068	7.88
325.858	6.88
326.649	9.88
327.439	7.88
328.23	4.88
329.02	6.88
329.81	5.88
330.6	7.88
331.391	7.88
332.181	5.88
332.971	7.88
333.76	3.88
334.55	6.88
335.34	6.88
336.13	6.88
336.919	7.88
337.709	6.88
338.498	6.88
339.287	9.88
340.077	7.88
340.866	6.88
341.655	6.88
342.444	8.88
343.233	4.88
344.022	7.88
344.811	5.88
345.6	7.88
346.388	5.88
347.177	7.88
347.965	7.88
348.754	6.88
349.542	6.88
350.33	5.88
351.119	6.88
351.907	5.88
352.695	3.88
353.483	5.88
354.271	6.88
355.059	5.88
355.846	4.88
356.634	5.88
357.422	5.88
358.209	5.88
358.997	6.88
359.784	3.88
360.571	5.88
361.359	6.88
362.146	2.88
362.933	6.88
363.72	5.88
364.507	3.88
365.294	4.88
366.081	4.88
366.867	7.88
367.654	5.88
368.44	4.88
369.227	4.88
370.013	4.88
370.8	3.88
371.586	3.88
372.372	4.88
373.158	4.88
373.944	5.88
374.73	4.88
375.516	5.88
376.302	5.88
377.088	4.88
377.873	5.88
378.659	3.88
379.445	7.88
380.23	4.88
381.015	5.88
381.801	5.88
382.586	5.88
383.371	6.88
384.156	4.88
384.941	6.88
385.726	4.88
386.511	5.88
387.296	4.88
388.08	4.88
388.865	8.88
389.649	4.88
390.434	6.88
391.218	4.88
392.003	7.88
392.787	5.88
393.571	6.88
394.355	6.88
395.139	7.88
395.923	5.88
396.707	5.88
397.491	7.88
398.274	6.88
399.058	6.88
399.842	5.88
400.625	5.88
401.408	6.88
402.192	6.88
402.975	4.88
403.758	8.88
404.541	7.88
405.324	6.88
406.107	6.88
406.89	8.88
407.673	6.88
408.456	7.88
409.238	6.88
410.021	5.88
410.803	8.88
411.586	7.88
412.368	7.88
413.151	11.88
413.933	9.88
414.715	8.88
415.497	10.88
416.279	6.88
417.061	9.88
417.843	9.88
418.624	9.88
419.406	10.88
420.188	9.88
420.969	11.88
421.751	11.88
422.532	7.88
423.313	11.88
424.095	12.88
424.876	11.88
425.657	9.88
426.438	11.88
427.219	9.88
428	13.88
428.78	15.88
429.561	11.88
430.342	13.88
431.122	14.88
431.903	15.88
432.683	15.88
433.464	14.88
434.244	14.88
435.024	17.88
435.804	20.88
436.584	19.88
437.364	19.88
438.144	19.88
438.924	21.88
439.704	22.88
440.483	22.88
441.263	25.88
442.042	24.88
442.822	26.88
443.601	26.88
444.38	29.88
445.16	33.88
445.939	32.88
446.718	37.88
447.497	36.88
448.276	41.88
449.054	46.88
449.833	49.88
450.612	50.88
451.391	57.88
452.169	61.88
452.948	72.88
453.726	74.88
454.504	82.88
455.282	87.88
456.061	102.88
456.839	108.88
457.617	121.88
458.395	137.88
459.172	152.88
459.95	166.88
460.728	189.88
461.506	208.88
462.283	229.88
463.061	261.88
463.838	288.88
464.615	323.88
465.393	360.88
466.17	401.88
466.947	447.88
467.724	505.88
468.501	544.88
469.278	620.88
470.055	689.88
470.831	766.88
471.608	855.88
472.385	949.88
473.161	1057.88
473.938	1172.88
474.714	1296.88
475.49	1436.88
476.266	1581.88
477.043	1738.88
477.819	1929.88
478.595	2129.88
479.371	2337.88
480.146	2580.88
480.922	2879.88
481.698	3162.88
482.473	3468.88
483.249	3832.88
484.024	4214.88
484.8	4628.88
485.575	5095.88
486.35	5573.88
487.126	6115.88
487.901	6739.88
488.676	7349.88
489.451	8098.88
490.225	8833.88
491	9609.88
491.775	10517.88
492.55	11457.88
493.324	12409.88
494.099	13394.88
494.873	14410.88
495.647	15526.88
496.422	16711.88
497.196	17924.88
497.97	19105.88
498.744	20313.88
499.518	21405.88
500.292	22547.88
501.066	23666.88
501.839	24589.88
502.613	25531.88
503.387	26311.88
504.16	26965.88
504.934	27219.88
505.707	27331.88
506.48	27533.88
507.253	27495.88
508.027	27124.88
508.8	26797.88
509.573	26375.88
510.346	25814.88
511.118	24995.88
511.891	24229.88
512.664	23371.88
513.437	22582.88
514.209	21507.88
514.982	20717.88
515.754	19832.88
516.526	18898.88
517.298	18097.88
518.071	17242.88
518.843	16555.88
519.615	15958.88
520.387	15346.88
521.159	14729.88
521.93	14126.88
522.702	13597.88
523.474	13028.88
524.245	12460.88
525.017	11946.88
525.788	11463.88
526.56	10934.88
527.331	10410.88
528.102	9955.88
528.873	9478.88
529.644	8993.88
530.415	8590.88
531.186	8176.88
531.957	7791.88
532.728	7352.88
533.498	6954.88
534.269	6586.88
535.039	6227.88
535.81	5836.88
536.58	5551.88
537.351	5238.88
538.121	4916.88
538.891	4681.88
539.661	4382.88
540.431	4150.88
541.201	3933.88
541.971	3742.88
542.741	3513.88
543.51	3383.88
544.28	3203.88
545.05	3033.88
545.819	2886.88
546.588	2752.88
547.358	2613.88
548.127	2491.88
548.896	2365.88
549.665	2240.88
550.434	2120.88
551.203	1994.88
551.972	1916.88
552.741	1792.88
553.51	1698.88
554.278	1604.88
555.047	1501.88
555.815	1416.88
556.584	1350.88
557.352	1275.88
558.121	1207.88
558.889	1142.88
559.657	1073.88
560.425	1009.88
561.193	945.88
561.961	900.88
562.729	846.88
563.496	803.88
564.264	753.88
565.032	709.88
565.799	673.88
566.567	649.88
567.334	596.88
568.101	581.88
568.869	539.88
569.636	511.88
570.403	481.88
571.17	447.88
571.937	423.88
572.704	406.88
573.471	379.88
574.237	355.88
575.004	334.88
575.771	322.88
576.537	293.88
577.303	286.88
578.07	265.88
578.836	247.88
579.602	235.88
580.368	224.88
581.134	209.88
581.9	204.88
582.666	193.88
583.432	182.88
584.198	171.88
584.964	158.88
585.729	155.88
586.495	145.88
587.26	141.88
588.025	127.88
588.791	126.88
589.556	118.88
590.321	109.88
591.086	109.88
591.851	98.88
592.616	88.88
593.381	89.88
594.146	86.88
594.911	77.88
595.675	79.88
596.44	75.88
597.204	69.88
597.969	70.88
598.733	64.88
599.497	60.88
600.261	61.88
601.025	56.88
601.79	52.88
602.553	48.88
603.317	49.88
604.081	48.88
604.845	44.88
605.609	43.88
606.372	45.88
607.136	39.88
607.899	38.88
608.662	35.88
609.426	33.88
610.189	32.88
610.952	33.88
611.715	29.88
612.478	31.88
613.241	30.88
614.004	27.88
614.767	26.88
615.529	27.88
616.292	23.88
617.055	21.88
617.817	24.88
618.579	22.88
619.342	21.88
620.104	19.88
620.866	17.88
621.628	21.88
622.39	19.88
623.152	20.88
623.914	17.88
624.676	16.88
625.438	15.88
626.199	14.88
626.961	16.88
627.722	15.88
628.484	16.88
629.245	12.88
630.006	12.88
630.768	13.88
631.529	13.88
632.29	13.88
633.051	11.88
633.812	13.88
634.573	11.88
635.333	12.88
636.094	12.88
636.855	10.88
637.615	13.88
638.376	7.88
639.136	10.88
639.896	8.88
640.657	8.88
641.417	7.88
642.177	8.88
642.937	8.88
643.697	8.88
644.457	6.88
645.216	5.88
645.976	10.88
646.736	8.88
647.495	7.88
648.255	7.88
649.014	7.88
649.774	8.88
650.533	8.88
651.292	9.88
652.051	6.88
652.81	4.88
653.569	7.88
654.328	8.88
655.087	5.88
655.846	5.88
656.604	4.88
657.363	6.88
658.121	5.88
658.88	5.88
659.638	8.88
660.397	6.88
661.155	4.88
661.913	3.88
662.671	5.88
663.429	4.88
664.187	5.88
664.945	6.88
665.703	3.88
666.46	5.88
667.218	4.88
667.976	5.88
668.733	4.88
669.49	3.88
670.248	5.88
671.005	2.88
671.762	4.88
672.519	5.88
673.276	6.88
674.033	3.88
674.79	1.88
675.547	2.88
676.304	3.88
677.06	5.88
677.817	5.88
678.574	4.88
679.33	4.88
680.086	4.88
680.843	4.88
681.599	6.88
682.355	4.88
683.111	5.88
683.867	4.88
684.623	4.88
685.379	3.88
686.135	5.88
686.89	2.88
687.646	3.88
688.402	6.88
689.157	2.88
689.912	3.88
690.668	2.88
691.423	3.88
692.178	6.88
692.933	2.88
693.688	3.88
694.443	5.88
695.198	3.88
695.953	3.88
696.708	4.88
697.462	4.88
698.217	1.88
698.972	3.88
699.726	0.88
700.48	2.88
701.235	1.88
701.989	5.88
702.743	3.88
703.497	3.88
704.251	1.88
705.005	3.88
705.759	4.88
706.513	3.88
707.266	4.88
708.02	3.88
708.774	4.88
709.527	2.88
710.28	4.88
711.034	2.88
711.787	3.88
712.54	3.88
713.293	4.88
714.046	3.88
714.799	4.88
715.552	3.88
716.305	1.88
717.058	4.88
717.81	4.88
718.563	3.88
719.315	2.88
720.068	2.88
720.82	3.88
721.573	1.88
722.325	3.88
723.077	2.88
723.829	5.88
724.581	5.88
725.333	2.88
726.085	3.88
726.836	2.88
727.588	6.88
728.34	5.88
729.091	4.88
729.843	3.88
730.594	2.88
731.346	3.88
732.097	4.88
732.848	3.88
733.599	3.88
734.35	4.88
735.101	3.88
735.852	4.88
736.603	6.88
737.354	4.88
738.104	4.88
738.855	5.88
739.605	3.88
740.356	2.88
741.106	1.88
741.856	4.88
742.607	2.88
743.357	5.88
744.107	5.88
744.857	3.88
745.607	5.88
746.357	6.88
747.106	6.88
747.856	4.88
748.606	7.88
749.355	4.88
750.105	5.88
750.854	7.88
751.603	4.88
752.353	7.88
753.102	6.88
753.851	5.88
754.6	5.88
755.349	4.88
756.098	3.88
756.847	4.88
757.595	5.88
758.344	6.88
759.093	5.88
759.841	7.88
760.589	2.88
761.338	7.88
762.086	4.88
762.834	6.88
763.582	5.88
764.331	4.88
765.079	6.88
765.826	5.88
766.574	7.88
767.322	4.88
768.07	5.88
768.817	4.88
769.565	7.88
770.312	4.88
771.06	9.88
771.807	5.88
772.554	9.88
773.302	8.88
774.049	7.88
774.796	6.88
775.543	6.88
776.29	6.88
777.036	5.88
777.783	10.88
778.53	8.88
779.276	8.88
780.023	7.88
780.769	8.88
781.516	5.88
782.262	6.88
783.008	8.88
783.754	9.88
784.5	7.88
785.246	8.88
785.992	10.88
786.738	11.88
787.484	7.88
788.23	7.88
788.975	9.88
789.721	7.88
790.466	8.88
791.212	10.88
791.957	9.88
792.702	9.88
793.447	9.88
794.193	7.88
794.938	6.88
795.683	7.88
796.427	8.88
797.172	8.88
797.917	7.88
798.662	7.88
799.406	7.88
800.151	5.88
800.895	8.88
801.64	7.88
802.384	6.88
803.128	6.88
803.872	7.88
804.616	4.88
805.36	9.88
806.104	6.88
806.848	7.88
807.592	6.88
808.336	2.88
809.079	7.88
809.823	5.88
810.566	6.88
811.31	5.88
812.053	4.88
812.796	5.88
813.539	6.88
814.283	5.88
815.026	4.88
815.769	3.88
816.511	6.88
817.254	1.88
817.997	5.88
818.74	4.88
819.482	5.88
820.225	5.88
820.967	3.88
821.71	4.88
822.452	3.88
823.194	4.88
823.936	1.88
824.678	3.88
825.42	1.88
826.162	1.88
826.904	1.88
827.646	3.88
828.388	2.88
829.129	4.88
829.871	1.88
830.612	2.88
831.354	4.88
832.095	3.88
832.836	1.88
833.577	4.88
834.319	4.88
835.06	2.88
835.801	3.88
836.542	1.88
837.282	2.88
838.023	3.88
838.764	3.88
839.504	2.88
840.245	3.88
840.985	3.88
841.726	3.88
842.466	2.88
843.206	2.88
843.946	-0.12
844.687	5.88
845.427	1.88
846.166	3.88
846.906	-2.12
847.646	3.88
848.386	1.88
849.125	1.88
849.865	1.88
850.605	-0.12
851.344	5.88
852.083	4.88
852.823	2.88
853.562	1.88
854.301	1.88
855.04	1.88
855.779	1.88
856.518	2.88
857.257	0.88
857.995	2.88
858.734	1.88
859.473	2.88
860.211	3.88
860.95	1.88
861.688	1.88
862.426	1.88
863.165	1.88
863.903	1.88
864.641	1.88
865.379	1.88
866.117	0.88
866.855	3.88
867.593	1.88
868.33	0.88
869.068	2.88
869.806	0.88
870.543	1.88
871.28	1.88
872.018	2.88
872.755	1.88
873.492	-0.12
874.229	1.88
874.967	0.88
875.703	0.88
876.44	1.88
877.177	-0.12
877.914	1.88
878.651	1.88
879.387	0.88
880.124	-0.12
880.86	1.88
881.597	2.88
882.333	1.88
883.069	1.88
883.806	-1.12
884.542	1.88
885.278	3.88
886.014	-1.12
886.749	2.88
887.485	-0.12
888.221	0.88
888.957	0.88
889.692	-0.12
890.428	1.88
891.163	-0.12
891.899	0.88
892.634	2.88
893.369	-0.12
894.104	-0.12
894.839	-1.12
895.574	1.88
896.309	0.88
897.044	1.88
897.779	-0.12
898.514	0.88
899.248	1.88
899.983	0.88
900.717	0.88
901.452	1.88
902.186	2.88
902.92	1.88
903.654	1.88
904.389	-0.12
905.123	-0.12
905.857	-0.12
906.59	0.88
907.324	-0.12
908.058	2.88
908.792	-0.12
909.525	1.88
910.259	1.88
910.992	0.88
911.726	0.88
912.459	0.88
913.192	1.88
913.925	0.88
914.658	-1.12
915.391	1.88
916.124	1.88
916.857	2.88
917.59	0.88
918.323	1.88
919.055	0.88
919.788	1.88
920.521	0.88
921.253	-0.12
921.985	3.88
922.718	-1.12
923.45	0.88
924.182	1.88
924.914	0.88
925.646	-1.12
926.378	-0.12
927.11	0.88
927.841	0.88
928.573	1.88
929.305	0.88
930.036	-0.12
930.768	-0.12
931.499	0.88
932.23	-0.12
932.962	0.88
933.693	0.88
934.424	-0.12
935.155	0.88
935.886	-0.12
936.617	-1.12
937.348	-0.12
938.078	-2.12
938.809	-0.12
939.54	0.88
940.27	-0.12
941.001	0.88
941.731	-0.12
942.461	2.88
943.191	-0.12
943.922	0.88
944.652	0.88
945.382	0.88
946.112	1.88
946.841	-0.12
947.571	-0.12
948.301	-2.12
949.031	-2.12
949.76	1.88
950.49	0.88
951.219	0.88
951.948	1.88
952.678	-0.12
953.407	-1.12
954.136	0.88
954.865	0.88
955.594	-1.12
956.323	-0.12
957.052	-1.12
957.78	0.88
958.509	-0.12
959.238	-1.12
959.966	1.88
960.695	1.88
961.423	0.88
962.151	-0.12
962.88	-0.12
963.608	-2.12
964.336	0.88
965.064	1.88
965.792	0.88
966.52	-0.12
967.247	-0.12
967.975	2.88
968.703	0.88
969.43	-0.12
970.158	0.88
970.885	1.88
971.613	0.88
972.34	0.88
973.067	-0.12
973.794	0.88
974.521	1.88
975.248	0.88
975.975	1.88
976.702	1.88
977.429	-1.12
978.156	0.88
978.882	-0.12
979.609	1.88
980.335	0.88
981.062	0.88
981.788	0.88
982.514	-0.12
983.24	0.88
983.967	-0.12
984.693	-2.12
985.419	1.88
986.144	-0.12
986.87	-1.12
987.596	0.88
988.322	0.88
989.047	0.88
989.773	-0.12
990.498	0.88
991.224	0.88
991.949	0.88
992.674	1.88
993.399	0.88
994.124	2.88
994.849	2.88
995.574	-1.12
996.299	-0.12
997.024	0.88
997.749	0.88
998.473	-0.12
999.198	-1.12
999.922	-0.12
1000.647	-0.12
1001.371	1.88
1002.095	-0.12
1002.82	-1.12
1003.544	-2.12
1004.268	0.88
1004.992	2.88
1005.716	2.88
1006.439	0.88
1007.163	1.88
1007.887	0.88
1008.611	-0.12
1009.334	-2.12
1010.058	1.88
1010.781	1.88
1011.504	0.88
1012.228	0.88
1012.951	0.88
1013.674	1.88
1014.397	-1.12
1015.12	-0.12
