节点500_285_QEPB04081__338__15-01-10-691.txt的数据

Date: Wed Nov 12 15:01:10 CST 2025
User: PC
Spectrometer: QEPB0408
触发模式: 0
积分时间 (秒): 1.000000E-2
Scans to average: 1
启用暗噪声校正: true
启用非线性校正: false
滑动平均宽度: 0
X轴模式: Wavelengths
Number of Pixels in Spectrum: 1044
>>>>>Begin Spectral Data<<<<<
220.843	2.5
221.644	2.5
222.444	0.5
223.244	1.5
224.045	4.5
224.845	2.5
225.645	1.5
226.445	1.5
227.245	2.5
228.045	3.5
228.845	2.5
229.645	3.5
230.444	2.5
231.244	4.5
232.043	4.5
232.843	5.5
233.642	5.5
234.442	2.5
235.241	4.5
236.04	3.5
236.839	5.5
237.638	5.5
238.437	4.5
239.236	4.5
240.035	3.5
240.833	5.5
241.632	5.5
242.43	6.5
243.229	4.5
244.027	4.5
244.826	5.5
245.624	8.5
246.422	7.5
247.22	5.5
248.018	6.5
248.816	6.5
249.614	10.5
250.412	9.5
251.21	6.5
252.007	7.5
252.805	6.5
253.602	7.5
254.4	8.5
255.197	7.5
255.994	10.5
256.791	10.5
257.589	10.5
258.386	9.5
259.183	8.5
259.979	9.5
260.776	9.5
261.573	12.5
262.37	8.5
263.166	9.5
263.963	11.5
264.759	10.5
265.556	12.5
266.352	11.5
267.148	12.5
267.944	10.5
268.74	12.5
269.536	16.5
270.332	15.5
271.128	15.5
271.924	16.5
272.719	17.5
273.515	17.5
274.311	16.5
275.106	17.5
275.901	17.5
276.697	16.5
277.492	18.5
278.287	18.5
279.082	20.5
279.877	19.5
280.672	16.5
281.467	18.5
282.262	20.5
283.056	18.5
283.851	19.5
284.646	20.5
285.44	18.5
286.234	22.5
287.029	20.5
287.823	18.5
288.617	16.5
289.411	19.5
290.205	19.5
290.999	16.5
291.793	18.5
292.587	17.5
293.381	19.5
294.174	18.5
294.968	19.5
295.761	17.5
296.555	13.5
297.348	16.5
298.141	14.5
298.935	15.5
299.728	16.5
300.521	14.5
301.314	16.5
302.107	14.5
302.899	14.5
303.692	15.5
304.485	12.5
305.277	15.5
306.07	12.5
306.862	14.5
307.655	12.5
308.447	12.5
309.239	12.5
310.031	14.5
310.823	11.5
311.615	11.5
312.407	12.5
313.199	7.5
313.991	11.5
314.783	12.5
315.574	9.5
316.366	11.5
317.157	9.5
317.949	8.5
318.74	9.5
319.531	8.5
320.322	9.5
321.113	8.5
321.904	6.5
322.695	8.5
323.486	8.5
324.277	10.5
325.068	7.5
325.858	10.5
326.649	9.5
327.439	8.5
328.23	8.5
329.02	8.5
329.81	8.5
330.6	6.5
331.391	6.5
332.181	6.5
332.971	7.5
333.76	6.5
334.55	7.5
335.34	8.5
336.13	6.5
336.919	8.5
337.709	7.5
338.498	4.5
339.287	6.5
340.077	4.5
340.866	8.5
341.655	8.5
342.444	5.5
343.233	7.5
344.022	7.5
344.811	7.5
345.6	7.5
346.388	6.5
347.177	7.5
347.965	6.5
348.754	5.5
349.542	5.5
350.33	8.5
351.119	9.5
351.907	7.5
352.695	7.5
353.483	5.5
354.271	7.5
355.059	6.5
355.846	10.5
356.634	4.5
357.422	6.5
358.209	8.5
358.997	8.5
359.784	7.5
360.571	5.5
361.359	7.5
362.146	7.5
362.933	4.5
363.72	8.5
364.507	7.5
365.294	6.5
366.081	7.5
366.867	6.5
367.654	5.5
368.44	5.5
369.227	6.5
370.013	4.5
370.8	6.5
371.586	3.5
372.372	5.5
373.158	6.5
373.944	5.5
374.73	5.5
375.516	5.5
376.302	6.5
377.088	4.5
377.873	4.5
378.659	6.5
379.445	3.5
380.23	5.5
381.015	7.5
381.801	6.5
382.586	5.5
383.371	5.5
384.156	8.5
384.941	6.5
385.726	8.5
386.511	6.5
387.296	2.5
388.08	6.5
388.865	5.5
389.649	7.5
390.434	7.5
391.218	6.5
392.003	7.5
392.787	5.5
393.571	6.5
394.355	5.5
395.139	7.5
395.923	8.5
396.707	7.5
397.491	8.5
398.274	6.5
399.058	7.5
399.842	7.5
400.625	7.5
401.408	7.5
402.192	5.5
402.975	9.5
403.758	6.5
404.541	6.5
405.324	7.5
406.107	6.5
406.89	8.5
407.673	9.5
408.456	8.5
409.238	8.5
410.021	7.5
410.803	8.5
411.586	8.5
412.368	11.5
413.151	9.5
413.933	11.5
414.715	10.5
415.497	11.5
416.279	9.5
417.061	9.5
417.843	9.5
418.624	7.5
419.406	10.5
420.188	10.5
420.969	11.5
421.751	13.5
422.532	10.5
423.313	10.5
424.095	12.5
424.876	12.5
425.657	14.5
426.438	10.5
427.219	15.5
428	12.5
428.78	12.5
429.561	14.5
430.342	12.5
431.122	12.5
431.903	11.5
432.683	15.5
433.464	17.5
434.244	14.5
435.024	18.5
435.804	17.5
436.584	18.5
437.364	20.5
438.144	22.5
438.924	24.5
439.704	23.5
440.483	22.5
441.263	26.5
442.042	26.5
442.822	27.5
443.601	31.5
444.38	29.5
445.16	33.5
445.939	34.5
446.718	37.5
447.497	39.5
448.276	42.5
449.054	46.5
449.833	52.5
450.612	51.5
451.391	56.5
452.169	62.5
452.948	70.5
453.726	72.5
454.504	79.5
455.282	90.5
456.061	96.5
456.839	106.5
457.617	118.5
458.395	138.5
459.172	148.5
459.95	165.5
460.728	183.5
461.506	204.5
462.283	231.5
463.061	258.5
463.838	297.5
464.615	327.5
465.393	362.5
466.17	401.5
466.947	448.5
467.724	498.5
468.501	558.5
469.278	625.5
470.055	679.5
470.831	766.5
471.608	860.5
472.385	948.5
473.161	1046.5
473.938	1165.5
474.714	1278.5
475.49	1440.5
476.266	1582.5
477.043	1763.5
477.819	1937.5
478.595	2139.5
479.371	2358.5
480.146	2595.5
480.922	2854.5
481.698	3148.5
482.473	3475.5
483.249	3815.5
484.024	4227.5
484.8	4640.5
485.575	5091.5
486.35	5596.5
487.126	6125.5
487.901	6718.5
488.676	7337.5
489.451	8076.5
490.225	8846.5
491	9640.5
491.775	10467.5
492.55	11467.5
493.324	12450.5
494.099	13444.5
494.873	14432.5
495.647	15561.5
496.422	16743.5
497.196	17933.5
497.97	19118.5
498.744	20277.5
499.518	21434.5
500.292	22631.5
501.066	23696.5
501.839	24618.5
502.613	25564.5
503.387	26358.5
504.16	26978.5
504.934	27330.5
505.707	27409.5
506.48	27572.5
507.253	27474.5
508.027	27160.5
508.8	26824.5
509.573	26406.5
510.346	25825.5
511.118	24978.5
511.891	24194.5
512.664	23327.5
513.437	22475.5
514.209	21583.5
514.982	20691.5
515.754	19763.5
516.526	18825.5
517.298	18079.5
518.071	17205.5
518.843	16561.5
519.615	16007.5
520.387	15310.5
521.159	14724.5
521.93	14144.5
522.702	13590.5
523.474	13043.5
524.245	12440.5
525.017	11910.5
525.788	11446.5
526.56	10907.5
527.331	10424.5
528.102	9975.5
528.873	9483.5
529.644	8998.5
530.415	8600.5
531.186	8158.5
531.957	7719.5
532.728	7341.5
533.498	6973.5
534.269	6540.5
535.039	6218.5
535.81	5873.5
536.58	5545.5
537.351	5224.5
538.121	4923.5
538.891	4669.5
539.661	4429.5
540.431	4173.5
541.201	3944.5
541.971	3708.5
542.741	3538.5
543.51	3373.5
544.28	3191.5
545.05	3065.5
545.819	2909.5
546.588	2746.5
547.358	2605.5
548.127	2491.5
548.896	2354.5
549.665	2247.5
550.434	2119.5
551.203	2007.5
551.972	1906.5
552.741	1804.5
553.51	1675.5
554.278	1590.5
555.047	1523.5
555.815	1415.5
556.584	1342.5
557.352	1262.5
558.121	1189.5
558.889	1124.5
559.657	1071.5
560.425	1008.5
561.193	944.5
561.961	886.5
562.729	848.5
563.496	803.5
564.264	756.5
565.032	722.5
565.799	674.5
566.567	632.5
567.334	609.5
568.101	578.5
568.869	547.5
569.636	512.5
570.403	486.5
571.17	462.5
571.937	426.5
572.704	409.5
573.471	377.5
574.237	358.5
575.004	338.5
575.771	325.5
576.537	301.5
577.303	281.5
578.07	271.5
578.836	252.5
579.602	232.5
580.368	224.5
581.134	213.5
581.9	203.5
582.666	184.5
583.432	178.5
584.198	164.5
584.964	159.5
585.729	155.5
586.495	148.5
587.26	138.5
588.025	130.5
588.791	119.5
589.556	119.5
590.321	110.5
591.086	104.5
591.851	98.5
592.616	95.5
593.381	89.5
594.146	87.5
594.911	82.5
595.675	81.5
596.44	76.5
597.204	73.5
597.969	70.5
598.733	69.5
599.497	63.5
600.261	62.5
601.025	58.5
601.79	56.5
602.553	52.5
603.317	51.5
604.081	46.5
604.845	48.5
605.609	42.5
606.372	42.5
607.136	40.5
607.899	37.5
608.662	37.5
609.426	36.5
610.189	36.5
610.952	36.5
611.715	30.5
612.478	32.5
613.241	29.5
614.004	27.5
614.767	30.5
615.529	26.5
616.292	26.5
617.055	23.5
617.817	23.5
618.579	25.5
619.342	22.5
620.104	21.5
620.866	20.5
621.628	22.5
622.39	21.5
623.152	18.5
623.914	20.5
624.676	16.5
625.438	21.5
626.199	18.5
626.961	17.5
627.722	15.5
628.484	13.5
629.245	14.5
630.006	14.5
630.768	16.5
631.529	15.5
632.29	14.5
633.051	14.5
633.812	14.5
634.573	12.5
635.333	10.5
636.094	10.5
636.855	11.5
637.615	10.5
638.376	11.5
639.136	10.5
639.896	11.5
640.657	7.5
641.417	8.5
642.177	11.5
642.937	8.5
643.697	9.5
644.457	7.5
645.216	6.5
645.976	8.5
646.736	8.5
647.495	8.5
648.255	7.5
649.014	10.5
649.774	8.5
650.533	7.5
651.292	7.5
652.051	7.5
652.81	7.5
653.569	8.5
654.328	7.5
655.087	9.5
655.846	8.5
656.604	8.5
657.363	8.5
658.121	6.5
658.88	8.5
659.638	6.5
660.397	7.5
661.155	5.5
661.913	7.5
662.671	8.5
663.429	4.5
664.187	4.5
664.945	5.5
665.703	4.5
666.46	5.5
667.218	5.5
667.976	4.5
668.733	6.5
669.49	5.5
670.248	4.5
671.005	5.5
671.762	4.5
672.519	6.5
673.276	3.5
674.033	5.5
674.79	6.5
675.547	3.5
676.304	5.5
677.06	2.5
677.817	4.5
678.574	4.5
679.33	4.5
680.086	4.5
680.843	3.5
681.599	3.5
682.355	5.5
683.111	4.5
683.867	6.5
684.623	3.5
685.379	5.5
686.135	5.5
686.89	2.5
687.646	4.5
688.402	6.5
689.157	4.5
689.912	4.5
690.668	2.5
691.423	4.5
692.178	3.5
692.933	3.5
693.688	2.5
694.443	3.5
695.198	3.5
695.953	2.5
696.708	3.5
697.462	4.5
698.217	5.5
698.972	2.5
699.726	2.5
700.48	2.5
701.235	4.5
701.989	4.5
702.743	3.5
703.497	4.5
704.251	2.5
705.005	6.5
705.759	5.5
706.513	3.5
707.266	3.5
708.02	5.5
708.774	6.5
709.527	5.5
710.28	5.5
711.034	3.5
711.787	4.5
712.54	2.5
713.293	3.5
714.046	4.5
714.799	5.5
715.552	3.5
716.305	4.5
717.058	3.5
717.81	5.5
718.563	1.5
719.315	3.5
720.068	4.5
720.82	4.5
721.573	4.5
722.325	1.5
723.077	5.5
723.829	2.5
724.581	5.5
725.333	2.5
726.085	5.5
726.836	4.5
727.588	4.5
728.34	7.5
729.091	4.5
729.843	4.5
730.594	3.5
731.346	7.5
732.097	6.5
732.848	3.5
733.599	5.5
734.35	5.5
735.101	4.5
735.852	5.5
736.603	5.5
737.354	4.5
738.104	5.5
738.855	6.5
739.605	4.5
740.356	5.5
741.106	6.5
741.856	2.5
742.607	5.5
743.357	2.5
744.107	6.5
744.857	6.5
745.607	7.5
746.357	6.5
747.106	5.5
747.856	6.5
748.606	7.5
749.355	4.5
750.105	7.5
750.854	4.5
751.603	7.5
752.353	6.5
753.102	7.5
753.851	7.5
754.6	3.5
755.349	5.5
756.098	5.5
756.847	6.5
757.595	5.5
758.344	6.5
759.093	6.5
759.841	6.5
760.589	6.5
761.338	4.5
762.086	8.5
762.834	8.5
763.582	8.5
764.331	8.5
765.079	6.5
765.826	9.5
766.574	6.5
767.322	8.5
768.07	8.5
768.817	6.5
769.565	8.5
770.312	7.5
771.06	8.5
771.807	8.5
772.554	8.5
773.302	7.5
774.049	7.5
774.796	8.5
775.543	7.5
776.29	8.5
777.036	9.5
777.783	8.5
778.53	9.5
779.276	8.5
780.023	9.5
780.769	8.5
781.516	11.5
782.262	7.5
783.008	8.5
783.754	10.5
784.5	8.5
785.246	10.5
785.992	11.5
786.738	7.5
787.484	10.5
788.23	9.5
788.975	8.5
789.721	9.5
790.466	10.5
791.212	7.5
791.957	7.5
792.702	9.5
793.447	7.5
794.193	9.5
794.938	10.5
795.683	7.5
796.427	10.5
797.172	8.5
797.917	10.5
798.662	6.5
799.406	9.5
800.151	9.5
800.895	8.5
801.64	7.5
802.384	6.5
803.128	8.5
803.872	5.5
804.616	9.5
805.36	7.5
806.104	4.5
806.848	9.5
807.592	8.5
808.336	8.5
809.079	5.5
809.823	4.5
810.566	7.5
811.31	7.5
812.053	8.5
812.796	4.5
813.539	5.5
814.283	3.5
815.026	5.5
815.769	7.5
816.511	5.5
817.254	6.5
817.997	6.5
818.74	7.5
819.482	4.5
820.225	4.5
820.967	8.5
821.71	4.5
822.452	4.5
823.194	4.5
823.936	4.5
824.678	4.5
825.42	4.5
826.162	5.5
826.904	4.5
827.646	4.5
828.388	4.5
829.129	4.5
829.871	4.5
830.612	3.5
831.354	5.5
832.095	3.5
832.836	3.5
833.577	3.5
834.319	2.5
835.06	3.5
835.801	4.5
836.542	6.5
837.282	2.5
838.023	3.5
838.764	5.5
839.504	2.5
840.245	2.5
840.985	2.5
841.726	4.5
842.466	4.5
843.206	3.5
843.946	2.5
844.687	2.5
845.427	5.5
846.166	2.5
846.906	3.5
847.646	2.5
848.386	2.5
849.125	3.5
849.865	0.5
850.605	2.5
851.344	2.5
852.083	2.5
852.823	4.5
853.562	2.5
854.301	4.5
855.04	2.5
855.779	2.5
856.518	-0.5
857.257	4.5
857.995	3.5
858.734	3.5
859.473	1.5
860.211	2.5
860.95	1.5
861.688	2.5
862.426	5.5
863.165	4.5
863.903	0.5
864.641	2.5
865.379	0.5
866.117	2.5
866.855	2.5
867.593	0.5
868.33	3.5
869.068	0.5
869.806	1.5
870.543	2.5
871.28	1.5
872.018	0.5
872.755	-0.5
873.492	2.5
874.229	2.5
874.967	2.5
875.703	2.5
876.44	3.5
877.177	1.5
877.914	1.5
878.651	5.5
879.387	2.5
880.124	4.5
880.86	2.5
881.597	1.5
882.333	2.5
883.069	1.5
883.806	2.5
884.542	1.5
885.278	1.5
886.014	-1.5
886.749	0.5
887.485	0.5
888.221	0.5
888.957	2.5
889.692	3.5
890.428	1.5
891.163	3.5
891.899	2.5
892.634	1.5
893.369	2.5
894.104	2.5
894.839	-0.5
895.574	-1.5
896.309	1.5
897.044	3.5
897.779	2.5
898.514	2.5
899.248	1.5
899.983	2.5
900.717	-1.5
901.452	0.5
902.186	1.5
902.92	1.5
903.654	2.5
904.389	0.5
905.123	0.5
905.857	0.5
906.59	2.5
907.324	1.5
908.058	1.5
908.792	0.5
909.525	-1.5
910.259	2.5
910.992	1.5
911.726	0.5
912.459	0.5
913.192	-0.5
913.925	0.5
914.658	2.5
915.391	2.5
916.124	0.5
916.857	3.5
917.59	-0.5
918.323	0.5
919.055	0.5
919.788	2.5
920.521	1.5
921.253	1.5
921.985	0.5
922.718	1.5
923.45	-1.5
924.182	3.5
924.914	-0.5
925.646	0.5
926.378	-0.5
927.11	0.5
927.841	1.5
928.573	1.5
929.305	0.5
930.036	0.5
930.768	2.5
931.499	1.5
932.23	-0.5
932.962	0.5
933.693	0.5
934.424	1.5
935.155	0.5
935.886	1.5
936.617	0.5
937.348	0.5
938.078	0.5
938.809	-0.5
939.54	0.5
940.27	1.5
941.001	0.5
941.731	2.5
942.461	1.5
943.191	1.5
943.922	1.5
944.652	1.5
945.382	3.5
946.112	1.5
946.841	0.5
947.571	-0.5
948.301	2.5
949.031	1.5
949.76	1.5
950.49	-0.5
951.219	0.5
951.948	0.5
952.678	2.5
953.407	0.5
954.136	1.5
954.865	0.5
955.594	0.5
956.323	2.5
957.052	2.5
957.78	0.5
958.509	0.5
959.238	-0.5
959.966	0.5
960.695	-0.5
961.423	0.5
962.151	1.5
962.88	-0.5
963.608	0.5
964.336	0.5
965.064	-0.5
965.792	2.5
966.52	0.5
967.247	0.5
967.975	-0.5
968.703	2.5
969.43	3.5
970.158	-1.5
970.885	2.5
971.613	-0.5
972.34	-0.5
973.067	1.5
973.794	0.5
974.521	3.5
975.248	1.5
975.975	-1.5
976.702	1.5
977.429	0.5
978.156	2.5
978.882	-0.5
979.609	0.5
980.335	0.5
981.062	2.5
981.788	1.5
982.514	0.5
983.24	0.5
983.967	0.5
984.693	0.5
985.419	1.5
986.144	1.5
986.87	0.5
987.596	0.5
988.322	-0.5
989.047	2.5
989.773	2.5
990.498	0.5
991.224	-0.5
991.949	2.5
992.674	-1.5
993.399	1.5
994.124	-1.5
994.849	-0.5
995.574	2.5
996.299	0.5
997.024	2.5
997.749	-1.5
998.473	1.5
999.198	0.5
999.922	-0.5
1000.647	2.5
1001.371	2.5
1002.095	0.5
1002.82	-1.5
1003.544	-1.5
1004.268	3.5
1004.992	2.5
1005.716	1.5
1006.439	2.5
1007.163	1.5
1007.887	3.5
1008.611	-1.5
1009.334	3.5
1010.058	0.5
1010.781	-0.5
1011.504	0.5
1012.228	-1.5
1012.951	-0.5
1013.674	0.5
1014.397	-0.5
1015.12	0.5
