节点500_285_QEPB04081__138__14-57-51-205.txt的数据

Date: Wed Nov 12 14:57:51 CST 2025
User: PC
Spectrometer: QEPB0408
触发模式: 0
积分时间 (秒): 1.000000E-2
Scans to average: 1
启用暗噪声校正: true
启用非线性校正: false
滑动平均宽度: 0
X轴模式: Wavelengths
Number of Pixels in Spectrum: 1044
>>>>>Begin Spectral Data<<<<<
220.843	1.88
221.644	-1.12
222.444	-0.12
223.244	0.88
224.045	2.88
224.845	1.88
225.645	2.88
226.445	2.88
227.245	1.88
228.045	2.88
228.845	2.88
229.645	2.88
230.444	2.88
231.244	-0.12
232.043	3.88
232.843	3.88
233.642	3.88
234.442	4.88
235.241	2.88
236.04	3.88
236.839	2.88
237.638	3.88
238.437	1.88
239.236	5.88
240.035	4.88
240.833	2.88
241.632	3.88
242.43	1.88
243.229	3.88
244.027	6.88
244.826	5.88
245.624	3.88
246.422	2.88
247.22	6.88
248.018	8.88
248.816	7.88
249.614	6.88
250.412	7.88
251.21	7.88
252.007	5.88
252.805	7.88
253.602	9.88
254.4	5.88
255.197	6.88
255.994	6.88
256.791	8.88
257.589	6.88
258.386	10.88
259.183	7.88
259.979	8.88
260.776	10.88
261.573	11.88
262.37	9.88
263.166	12.88
263.963	9.88
264.759	10.88
265.556	10.88
266.352	13.88
267.148	12.88
267.944	13.88
268.74	14.88
269.536	11.88
270.332	13.88
271.128	14.88
271.924	15.88
272.719	16.88
273.515	16.88
274.311	16.88
275.106	14.88
275.901	18.88
276.697	20.88
277.492	19.88
278.287	16.88
279.082	17.88
279.877	17.88
280.672	18.88
281.467	21.88
282.262	21.88
283.056	17.88
283.851	18.88
284.646	18.88
285.44	20.88
286.234	19.88
287.029	20.88
287.823	18.88
288.617	20.88
289.411	18.88
290.205	19.88
290.999	18.88
291.793	20.88
292.587	16.88
293.381	16.88
294.174	14.88
294.968	16.88
295.761	14.88
296.555	12.88
297.348	12.88
298.141	15.88
298.935	16.88
299.728	14.88
300.521	14.88
301.314	12.88
302.107	12.88
302.899	12.88
303.692	11.88
304.485	13.88
305.277	11.88
306.07	13.88
306.862	12.88
307.655	12.88
308.447	12.88
309.239	9.88
310.031	11.88
310.823	11.88
311.615	10.88
312.407	6.88
313.199	6.88
313.991	7.88
314.783	8.88
315.574	9.88
316.366	10.88
317.157	8.88
317.949	7.88
318.74	7.88
319.531	8.88
320.322	7.88
321.113	6.88
321.904	4.88
322.695	4.88
323.486	6.88
324.277	5.88
325.068	7.88
325.858	4.88
326.649	6.88
327.439	6.88
328.23	4.88
329.02	7.88
329.81	7.88
330.6	7.88
331.391	7.88
332.181	7.88
332.971	7.88
333.76	6.88
334.55	7.88
335.34	4.88
336.13	4.88
336.919	5.88
337.709	5.88
338.498	6.88
339.287	4.88
340.077	8.88
340.866	5.88
341.655	5.88
342.444	4.88
343.233	5.88
344.022	7.88
344.811	7.88
345.6	5.88
346.388	5.88
347.177	1.88
347.965	6.88
348.754	4.88
349.542	6.88
350.33	4.88
351.119	4.88
351.907	4.88
352.695	5.88
353.483	6.88
354.271	5.88
355.059	5.88
355.846	3.88
356.634	4.88
357.422	5.88
358.209	3.88
358.997	4.88
359.784	5.88
360.571	4.88
361.359	3.88
362.146	3.88
362.933	5.88
363.72	4.88
364.507	5.88
365.294	5.88
366.081	4.88
366.867	3.88
367.654	3.88
368.44	7.88
369.227	6.88
370.013	3.88
370.8	3.88
371.586	3.88
372.372	2.88
373.158	4.88
373.944	3.88
374.73	4.88
375.516	5.88
376.302	4.88
377.088	3.88
377.873	4.88
378.659	2.88
379.445	2.88
380.23	6.88
381.015	5.88
381.801	3.88
382.586	4.88
383.371	5.88
384.156	4.88
384.941	6.88
385.726	5.88
386.511	5.88
387.296	3.88
388.08	4.88
388.865	4.88
389.649	9.88
390.434	7.88
391.218	5.88
392.003	4.88
392.787	7.88
393.571	5.88
394.355	4.88
395.139	6.88
395.923	5.88
396.707	5.88
397.491	4.88
398.274	7.88
399.058	5.88
399.842	5.88
400.625	4.88
401.408	5.88
402.192	8.88
402.975	6.88
403.758	5.88
404.541	5.88
405.324	6.88
406.107	6.88
406.89	8.88
407.673	5.88
408.456	5.88
409.238	8.88
410.021	8.88
410.803	8.88
411.586	7.88
412.368	10.88
413.151	6.88
413.933	8.88
414.715	6.88
415.497	10.88
416.279	6.88
417.061	7.88
417.843	8.88
418.624	10.88
419.406	9.88
420.188	10.88
420.969	10.88
421.751	11.88
422.532	8.88
423.313	12.88
424.095	9.88
424.876	10.88
425.657	11.88
426.438	10.88
427.219	10.88
428	11.88
428.78	11.88
429.561	14.88
430.342	12.88
431.122	15.88
431.903	12.88
432.683	15.88
433.464	12.88
434.244	14.88
435.024	16.88
435.804	16.88
436.584	18.88
437.364	18.88
438.144	17.88
438.924	23.88
439.704	20.88
440.483	22.88
441.263	19.88
442.042	27.88
442.822	25.88
443.601	27.88
444.38	26.88
445.16	27.88
445.939	36.88
446.718	35.88
447.497	35.88
448.276	41.88
449.054	45.88
449.833	47.88
450.612	47.88
451.391	57.88
452.169	55.88
452.948	63.88
453.726	71.88
454.504	75.88
455.282	86.88
456.061	97.88
456.839	106.88
457.617	115.88
458.395	127.88
459.172	141.88
459.95	158.88
460.728	179.88
461.506	192.88
462.283	223.88
463.061	243.88
463.838	269.88
464.615	305.88
465.393	348.88
466.17	382.88
466.947	425.88
467.724	476.88
468.501	530.88
469.278	591.88
470.055	654.88
470.831	742.88
471.608	820.88
472.385	926.88
473.161	1023.88
473.938	1127.88
474.714	1259.88
475.49	1403.88
476.266	1547.88
477.043	1699.88
477.819	1902.88
478.595	2116.88
479.371	2345.88
480.146	2594.88
480.922	2870.88
481.698	3175.88
482.473	3500.88
483.249	3873.88
484.024	4278.88
484.8	4717.88
485.575	5218.88
486.35	5768.88
487.126	6334.88
487.901	6981.88
488.676	7662.88
489.451	8414.88
490.225	9242.88
491	10157.88
491.775	11071.88
492.55	12105.88
493.324	13143.88
494.099	14197.88
494.873	15358.88
495.647	16543.88
496.422	17846.88
497.196	19039.88
497.97	20382.88
498.744	21612.88
499.518	22809.88
500.292	23910.88
501.066	25136.88
501.839	26021.88
502.613	26894.88
503.387	27562.88
504.16	28170.88
504.934	28419.88
505.707	28485.88
506.48	28473.88
507.253	28170.88
508.027	27845.88
508.8	27310.88
509.573	26773.88
510.346	26022.88
511.118	25176.88
511.891	24271.88
512.664	23298.88
513.437	22341.88
514.209	21439.88
514.982	20422.88
515.754	19561.88
516.526	18582.88
517.298	17786.88
518.071	17067.88
518.843	16369.88
519.615	15755.88
520.387	15136.88
521.159	14543.88
521.93	13931.88
522.702	13379.88
523.474	12822.88
524.245	12305.88
525.017	11726.88
525.788	11321.88
526.56	10732.88
527.331	10241.88
528.102	9793.88
528.873	9318.88
529.644	8817.88
530.415	8403.88
531.186	7954.88
531.957	7535.88
532.728	7116.88
533.498	6708.88
534.269	6332.88
535.039	6019.88
535.81	5656.88
536.58	5353.88
537.351	5045.88
538.121	4759.88
538.891	4494.88
539.661	4246.88
540.431	4003.88
541.201	3797.88
541.971	3599.88
542.741	3422.88
543.51	3260.88
544.28	3094.88
545.05	2956.88
545.819	2798.88
546.588	2661.88
547.358	2496.88
548.127	2391.88
548.896	2265.88
549.665	2166.88
550.434	2041.88
551.203	1921.88
551.972	1815.88
552.741	1734.88
553.51	1625.88
554.278	1552.88
555.047	1449.88
555.815	1377.88
556.584	1296.88
557.352	1218.88
558.121	1156.88
558.889	1090.88
559.657	1018.88
560.425	955.88
561.193	908.88
561.961	857.88
562.729	807.88
563.496	768.88
564.264	731.88
565.032	679.88
565.799	652.88
566.567	613.88
567.334	571.88
568.101	547.88
568.869	524.88
569.636	483.88
570.403	462.88
571.17	432.88
571.937	409.88
572.704	378.88
573.471	372.88
574.237	340.88
575.004	324.88
575.771	301.88
576.537	289.88
577.303	266.88
578.07	263.88
578.836	232.88
579.602	224.88
580.368	209.88
581.134	201.88
581.9	193.88
582.666	181.88
583.432	174.88
584.198	163.88
584.964	153.88
585.729	142.88
586.495	139.88
587.26	131.88
588.025	122.88
588.791	116.88
589.556	108.88
590.321	101.88
591.086	102.88
591.851	98.88
592.616	89.88
593.381	85.88
594.146	83.88
594.911	79.88
595.675	75.88
596.44	70.88
597.204	65.88
597.969	66.88
598.733	60.88
599.497	61.88
600.261	54.88
601.025	55.88
601.79	52.88
602.553	48.88
603.317	46.88
604.081	46.88
604.845	42.88
605.609	40.88
606.372	42.88
607.136	38.88
607.899	32.88
608.662	34.88
609.426	34.88
610.189	36.88
610.952	30.88
611.715	28.88
612.478	28.88
613.241	27.88
614.004	28.88
614.767	26.88
615.529	24.88
616.292	24.88
617.055	20.88
617.817	22.88
618.579	22.88
619.342	23.88
620.104	23.88
620.866	19.88
621.628	21.88
622.39	17.88
623.152	18.88
623.914	19.88
624.676	15.88
625.438	16.88
626.199	15.88
626.961	14.88
627.722	14.88
628.484	13.88
629.245	13.88
630.006	12.88
630.768	10.88
631.529	10.88
632.29	12.88
633.051	11.88
633.812	11.88
634.573	10.88
635.333	11.88
636.094	10.88
636.855	10.88
637.615	10.88
638.376	10.88
639.136	11.88
639.896	9.88
640.657	6.88
641.417	8.88
642.177	9.88
642.937	9.88
643.697	7.88
644.457	5.88
645.216	9.88
645.976	8.88
646.736	7.88
647.495	7.88
648.255	6.88
649.014	7.88
649.774	8.88
650.533	5.88
651.292	3.88
652.051	7.88
652.81	8.88
653.569	4.88
654.328	6.88
655.087	4.88
655.846	5.88
656.604	6.88
657.363	4.88
658.121	5.88
658.88	3.88
659.638	5.88
660.397	2.88
661.155	7.88
661.913	4.88
662.671	4.88
663.429	4.88
664.187	3.88
664.945	4.88
665.703	4.88
666.46	4.88
667.218	5.88
667.976	3.88
668.733	4.88
669.49	2.88
670.248	4.88
671.005	2.88
671.762	0.88
672.519	3.88
673.276	4.88
674.033	4.88
674.79	5.88
675.547	2.88
676.304	5.88
677.06	4.88
677.817	2.88
678.574	2.88
679.33	3.88
680.086	2.88
680.843	3.88
681.599	5.88
682.355	3.88
683.111	5.88
683.867	2.88
684.623	4.88
685.379	2.88
686.135	5.88
686.89	2.88
687.646	-0.12
688.402	4.88
689.157	2.88
689.912	2.88
690.668	4.88
691.423	2.88
692.178	3.88
692.933	4.88
693.688	1.88
694.443	4.88
695.198	3.88
695.953	4.88
696.708	2.88
697.462	4.88
698.217	1.88
698.972	2.88
699.726	3.88
700.48	2.88
701.235	3.88
701.989	2.88
702.743	2.88
703.497	2.88
704.251	4.88
705.005	0.88
705.759	2.88
706.513	0.88
707.266	2.88
708.02	5.88
708.774	4.88
709.527	5.88
710.28	4.88
711.034	3.88
711.787	3.88
712.54	3.88
713.293	2.88
714.046	0.88
714.799	3.88
715.552	3.88
716.305	2.88
717.058	4.88
717.81	2.88
718.563	2.88
719.315	2.88
720.068	3.88
720.82	3.88
721.573	-1.12
722.325	3.88
723.077	4.88
723.829	2.88
724.581	2.88
725.333	0.88
726.085	1.88
726.836	4.88
727.588	1.88
728.34	2.88
729.091	2.88
729.843	3.88
730.594	3.88
731.346	4.88
732.097	4.88
732.848	3.88
733.599	2.88
734.35	3.88
735.101	4.88
735.852	3.88
736.603	4.88
737.354	3.88
738.104	3.88
738.855	2.88
739.605	4.88
740.356	3.88
741.106	3.88
741.856	5.88
742.607	3.88
743.357	4.88
744.107	1.88
744.857	3.88
745.607	4.88
746.357	3.88
747.106	7.88
747.856	4.88
748.606	5.88
749.355	7.88
750.105	3.88
750.854	5.88
751.603	4.88
752.353	5.88
753.102	5.88
753.851	4.88
754.6	3.88
755.349	5.88
756.098	5.88
756.847	5.88
757.595	4.88
758.344	5.88
759.093	3.88
759.841	5.88
760.589	4.88
761.338	4.88
762.086	7.88
762.834	4.88
763.582	6.88
764.331	6.88
765.079	5.88
765.826	8.88
766.574	6.88
767.322	9.88
768.07	7.88
768.817	7.88
769.565	6.88
770.312	4.88
771.06	9.88
771.807	5.88
772.554	5.88
773.302	7.88
774.049	9.88
774.796	8.88
775.543	8.88
776.29	11.88
777.036	8.88
777.783	9.88
778.53	9.88
779.276	7.88
780.023	8.88
780.769	7.88
781.516	8.88
782.262	7.88
783.008	8.88
783.754	9.88
784.5	8.88
785.246	8.88
785.992	8.88
786.738	9.88
787.484	9.88
788.23	6.88
788.975	8.88
789.721	9.88
790.466	9.88
791.212	7.88
791.957	7.88
792.702	7.88
793.447	7.88
794.193	8.88
794.938	8.88
795.683	6.88
796.427	5.88
797.172	9.88
797.917	7.88
798.662	6.88
799.406	6.88
800.151	6.88
800.895	5.88
801.64	6.88
802.384	4.88
803.128	4.88
803.872	6.88
804.616	6.88
805.36	6.88
806.104	4.88
806.848	6.88
807.592	5.88
808.336	7.88
809.079	7.88
809.823	4.88
810.566	5.88
811.31	5.88
812.053	4.88
812.796	2.88
813.539	5.88
814.283	5.88
815.026	4.88
815.769	5.88
816.511	3.88
817.254	5.88
817.997	2.88
818.74	3.88
819.482	4.88
820.225	0.88
820.967	2.88
821.71	4.88
822.452	3.88
823.194	4.88
823.936	2.88
824.678	4.88
825.42	4.88
826.162	4.88
826.904	-0.12
827.646	2.88
828.388	2.88
829.129	2.88
829.871	3.88
830.612	1.88
831.354	4.88
832.095	2.88
832.836	0.88
833.577	4.88
834.319	3.88
835.06	5.88
835.801	2.88
836.542	-0.12
837.282	2.88
838.023	1.88
838.764	1.88
839.504	0.88
840.245	3.88
840.985	5.88
841.726	1.88
842.466	3.88
843.206	3.88
843.946	1.88
844.687	3.88
845.427	2.88
846.166	4.88
846.906	2.88
847.646	2.88
848.386	1.88
849.125	2.88
849.865	4.88
850.605	1.88
851.344	2.88
852.083	3.88
852.823	2.88
853.562	3.88
854.301	0.88
855.04	0.88
855.779	0.88
856.518	0.88
857.257	1.88
857.995	2.88
858.734	3.88
859.473	-0.12
860.211	1.88
860.95	1.88
861.688	-0.12
862.426	2.88
863.165	-0.12
863.903	3.88
864.641	-0.12
865.379	0.88
866.117	0.88
866.855	2.88
867.593	0.88
868.33	1.88
869.068	0.88
869.806	1.88
870.543	0.88
871.28	1.88
872.018	2.88
872.755	-1.12
873.492	0.88
874.229	1.88
874.967	1.88
875.703	1.88
876.44	0.88
877.177	-0.12
877.914	-0.12
878.651	0.88
879.387	1.88
880.124	0.88
880.86	-0.12
881.597	0.88
882.333	-1.12
883.069	1.88
883.806	-2.12
884.542	-0.12
885.278	0.88
886.014	-1.12
886.749	-0.12
887.485	-1.12
888.221	0.88
888.957	-1.12
889.692	-2.12
890.428	1.88
891.163	-2.12
891.899	-1.12
892.634	0.88
893.369	1.88
894.104	-1.12
894.839	0.88
895.574	-0.12
896.309	-1.12
897.044	0.88
897.779	0.88
898.514	0.88
899.248	-0.12
899.983	1.88
900.717	-0.12
901.452	-0.12
902.186	2.88
902.92	0.88
903.654	0.88
904.389	0.88
905.123	-2.12
905.857	-0.12
906.59	0.88
907.324	-1.12
908.058	1.88
908.792	0.88
909.525	0.88
910.259	-0.12
910.992	0.88
911.726	-0.12
912.459	-1.12
913.192	0.88
913.925	-1.12
914.658	0.88
915.391	0.88
916.124	0.88
916.857	1.88
917.59	0.88
918.323	0.88
919.055	-1.12
919.788	0.88
920.521	-0.12
921.253	-0.12
921.985	-0.12
922.718	-0.12
923.45	-0.12
924.182	0.88
924.914	-0.12
925.646	-0.12
926.378	-0.12
927.11	0.88
927.841	-0.12
928.573	2.88
929.305	1.88
930.036	0.88
930.768	-0.12
931.499	-0.12
932.23	-0.12
932.962	-1.12
933.693	0.88
934.424	-0.12
935.155	-2.12
935.886	0.88
936.617	-2.12
937.348	-0.12
938.078	-1.12
938.809	-0.12
939.54	-1.12
940.27	-1.12
941.001	-1.12
941.731	-0.12
942.461	0.88
943.191	1.88
943.922	-1.12
944.652	-1.12
945.382	-1.12
946.112	-0.12
946.841	1.88
947.571	0.88
948.301	-0.12
949.031	0.88
949.76	-0.12
950.49	1.88
951.219	-1.12
951.948	-0.12
952.678	-0.12
953.407	-0.12
954.136	-0.12
954.865	-0.12
955.594	-1.12
956.323	1.88
957.052	2.88
957.78	-0.12
958.509	-0.12
959.238	-1.12
959.966	1.88
960.695	-3.12
961.423	-1.12
962.151	-0.12
962.88	0.88
963.608	2.88
964.336	0.88
965.064	0.88
965.792	-1.12
966.52	1.88
967.247	0.88
967.975	-1.12
968.703	0.88
969.43	0.88
970.158	-1.12
970.885	0.88
971.613	-0.12
972.34	-0.12
973.067	-1.12
973.794	-0.12
974.521	-1.12
975.248	-1.12
975.975	-2.12
976.702	-1.12
977.429	-0.12
978.156	-1.12
978.882	-2.12
979.609	0.88
980.335	-2.12
981.062	0.88
981.788	1.88
982.514	0.88
983.24	0.88
983.967	-0.12
984.693	0.88
985.419	-0.12
986.144	-1.12
986.87	-1.12
987.596	-3.12
988.322	1.88
989.047	-1.12
989.773	-1.12
990.498	-3.12
991.224	-0.12
991.949	-1.12
992.674	1.88
993.399	1.88
994.124	-1.12
994.849	-1.12
995.574	-1.12
996.299	-0.12
997.024	-0.12
997.749	0.88
998.473	-1.12
999.198	-0.12
999.922	0.88
1000.647	0.88
1001.371	3.88
1002.095	-1.12
1002.82	-0.12
1003.544	-1.12
1004.268	1.88
1004.992	-0.12
1005.716	0.88
1006.439	-0.12
1007.163	-0.12
1007.887	0.88
1008.611	0.88
1009.334	1.88
1010.058	-1.12
1010.781	0.88
1011.504	0.88
1012.228	1.88
1012.951	-0.12
1013.674	-0.12
1014.397	-1.12
1015.12	-0.12
