节点500_285_QEPB04081__207__14-59-00-084.txt的数据

Date: Wed Nov 12 14:59:00 CST 2025
User: PC
Spectrometer: QEPB0408
触发模式: 0
积分时间 (秒): 1.000000E-2
Scans to average: 1
启用暗噪声校正: true
启用非线性校正: false
滑动平均宽度: 0
X轴模式: Wavelengths
Number of Pixels in Spectrum: 1044
>>>>>Begin Spectral Data<<<<<
220.843	3.5
221.644	1.5
222.444	2.5
223.244	1.5
224.045	3.5
224.845	1.5
225.645	2.5
226.445	4.5
227.245	1.5
228.045	3.5
228.845	1.5
229.645	1.5
230.444	3.5
231.244	2.5
232.043	3.5
232.843	4.5
233.642	4.5
234.442	3.5
235.241	1.5
236.04	3.5
236.839	3.5
237.638	2.5
238.437	4.5
239.236	3.5
240.035	4.5
240.833	3.5
241.632	2.5
242.43	4.5
243.229	6.5
244.027	5.5
244.826	6.5
245.624	6.5
246.422	2.5
247.22	7.5
248.018	7.5
248.816	5.5
249.614	5.5
250.412	7.5
251.21	7.5
252.007	6.5
252.805	7.5
253.602	6.5
254.4	5.5
255.197	7.5
255.994	9.5
256.791	7.5
257.589	6.5
258.386	10.5
259.183	9.5
259.979	8.5
260.776	8.5
261.573	11.5
262.37	9.5
263.166	8.5
263.963	14.5
264.759	12.5
265.556	11.5
266.352	12.5
267.148	13.5
267.944	13.5
268.74	14.5
269.536	13.5
270.332	12.5
271.128	13.5
271.924	16.5
272.719	15.5
273.515	17.5
274.311	17.5
275.106	17.5
275.901	16.5
276.697	13.5
277.492	18.5
278.287	18.5
279.082	19.5
279.877	19.5
280.672	17.5
281.467	21.5
282.262	17.5
283.056	17.5
283.851	19.5
284.646	19.5
285.44	18.5
286.234	17.5
287.029	17.5
287.823	18.5
288.617	18.5
289.411	16.5
290.205	19.5
290.999	19.5
291.793	17.5
292.587	15.5
293.381	19.5
294.174	17.5
294.968	16.5
295.761	14.5
296.555	17.5
297.348	16.5
298.141	12.5
298.935	15.5
299.728	11.5
300.521	15.5
301.314	15.5
302.107	13.5
302.899	11.5
303.692	12.5
304.485	13.5
305.277	11.5
306.07	12.5
306.862	10.5
307.655	11.5
308.447	11.5
309.239	10.5
310.031	12.5
310.823	5.5
311.615	9.5
312.407	9.5
313.199	9.5
313.991	10.5
314.783	10.5
315.574	10.5
316.366	5.5
317.157	7.5
317.949	7.5
318.74	8.5
319.531	9.5
320.322	7.5
321.113	8.5
321.904	6.5
322.695	7.5
323.486	7.5
324.277	8.5
325.068	7.5
325.858	6.5
326.649	7.5
327.439	4.5
328.23	4.5
329.02	6.5
329.81	4.5
330.6	7.5
331.391	6.5
332.181	8.5
332.971	6.5
333.76	6.5
334.55	6.5
335.34	6.5
336.13	6.5
336.919	4.5
337.709	8.5
338.498	5.5
339.287	6.5
340.077	7.5
340.866	5.5
341.655	5.5
342.444	6.5
343.233	5.5
344.022	5.5
344.811	2.5
345.6	6.5
346.388	4.5
347.177	5.5
347.965	6.5
348.754	6.5
349.542	5.5
350.33	7.5
351.119	6.5
351.907	6.5
352.695	3.5
353.483	6.5
354.271	3.5
355.059	7.5
355.846	5.5
356.634	6.5
357.422	6.5
358.209	4.5
358.997	4.5
359.784	3.5
360.571	7.5
361.359	1.5
362.146	6.5
362.933	6.5
363.72	5.5
364.507	5.5
365.294	5.5
366.081	6.5
366.867	5.5
367.654	4.5
368.44	4.5
369.227	3.5
370.013	6.5
370.8	6.5
371.586	1.5
372.372	6.5
373.158	5.5
373.944	4.5
374.73	3.5
375.516	5.5
376.302	7.5
377.088	6.5
377.873	4.5
378.659	2.5
379.445	1.5
380.23	6.5
381.015	5.5
381.801	5.5
382.586	6.5
383.371	6.5
384.156	3.5
384.941	4.5
385.726	6.5
386.511	4.5
387.296	6.5
388.08	3.5
388.865	6.5
389.649	7.5
390.434	5.5
391.218	5.5
392.003	4.5
392.787	6.5
393.571	5.5
394.355	7.5
395.139	6.5
395.923	6.5
396.707	5.5
397.491	5.5
398.274	7.5
399.058	6.5
399.842	5.5
400.625	7.5
401.408	6.5
402.192	6.5
402.975	7.5
403.758	6.5
404.541	7.5
405.324	6.5
406.107	8.5
406.89	5.5
407.673	10.5
408.456	7.5
409.238	7.5
410.021	6.5
410.803	8.5
411.586	9.5
412.368	7.5
413.151	9.5
413.933	9.5
414.715	7.5
415.497	9.5
416.279	9.5
417.061	11.5
417.843	10.5
418.624	10.5
419.406	11.5
420.188	9.5
420.969	10.5
421.751	9.5
422.532	10.5
423.313	10.5
424.095	12.5
424.876	9.5
425.657	13.5
426.438	11.5
427.219	11.5
428	13.5
428.78	13.5
429.561	14.5
430.342	14.5
431.122	11.5
431.903	15.5
432.683	16.5
433.464	15.5
434.244	15.5
435.024	19.5
435.804	16.5
436.584	17.5
437.364	18.5
438.144	16.5
438.924	18.5
439.704	21.5
440.483	20.5
441.263	21.5
442.042	24.5
442.822	26.5
443.601	28.5
444.38	25.5
445.16	31.5
445.939	30.5
446.718	33.5
447.497	38.5
448.276	39.5
449.054	45.5
449.833	45.5
450.612	49.5
451.391	49.5
452.169	58.5
452.948	65.5
453.726	69.5
454.504	77.5
455.282	82.5
456.061	94.5
456.839	101.5
457.617	110.5
458.395	129.5
459.172	138.5
459.95	158.5
460.728	175.5
461.506	197.5
462.283	217.5
463.061	241.5
463.838	273.5
464.615	300.5
465.393	333.5
466.17	383.5
466.947	429.5
467.724	473.5
468.501	524.5
469.278	585.5
470.055	657.5
470.831	726.5
471.608	812.5
472.385	909.5
473.161	1001.5
473.938	1125.5
474.714	1238.5
475.49	1370.5
476.266	1522.5
477.043	1686.5
477.819	1849.5
478.595	2054.5
479.371	2292.5
480.146	2523.5
480.922	2781.5
481.698	3083.5
482.473	3395.5
483.249	3766.5
484.024	4118.5
484.8	4536.5
485.575	5023.5
486.35	5529.5
487.126	6103.5
487.901	6701.5
488.676	7345.5
489.451	8065.5
490.225	8838.5
491	9644.5
491.775	10534.5
492.55	11522.5
493.324	12489.5
494.099	13539.5
494.873	14547.5
495.647	15714.5
496.422	16907.5
497.196	18067.5
497.97	19273.5
498.744	20501.5
499.518	21656.5
500.292	22794.5
501.066	23795.5
501.839	24729.5
502.613	25657.5
503.387	26417.5
504.16	26933.5
504.934	27218.5
505.707	27322.5
506.48	27295.5
507.253	27045.5
508.027	26807.5
508.8	26394.5
509.573	25979.5
510.346	25306.5
511.118	24408.5
511.891	23576.5
512.664	22768.5
513.437	21800.5
514.209	20871.5
514.982	20016.5
515.754	19063.5
516.526	18218.5
517.298	17440.5
518.071	16630.5
518.843	16051.5
519.615	15371.5
520.387	14806.5
521.159	14202.5
521.93	13682.5
522.702	13075.5
523.474	12547.5
524.245	12026.5
525.017	11503.5
525.788	11049.5
526.56	10552.5
527.331	10051.5
528.102	9603.5
528.873	9098.5
529.644	8665.5
530.415	8201.5
531.186	7857.5
531.957	7417.5
532.728	7060.5
533.498	6645.5
534.269	6263.5
535.039	5933.5
535.81	5593.5
536.58	5292.5
537.351	4972.5
538.121	4698.5
538.891	4481.5
539.661	4193.5
540.431	3966.5
541.201	3746.5
541.971	3553.5
542.741	3375.5
543.51	3209.5
544.28	3056.5
545.05	2911.5
545.819	2781.5
546.588	2631.5
547.358	2484.5
548.127	2355.5
548.896	2249.5
549.665	2124.5
550.434	2022.5
551.203	1903.5
551.972	1810.5
552.741	1699.5
553.51	1623.5
554.278	1512.5
555.047	1419.5
555.815	1355.5
556.584	1286.5
557.352	1208.5
558.121	1134.5
558.889	1075.5
559.657	1015.5
560.425	952.5
561.193	907.5
561.961	855.5
562.729	803.5
563.496	766.5
564.264	724.5
565.032	687.5
565.799	635.5
566.567	606.5
567.334	577.5
568.101	544.5
568.869	510.5
569.636	491.5
570.403	452.5
571.17	431.5
571.937	403.5
572.704	378.5
573.471	370.5
574.237	339.5
575.004	322.5
575.771	302.5
576.537	282.5
577.303	268.5
578.07	251.5
578.836	237.5
579.602	222.5
580.368	211.5
581.134	198.5
581.9	188.5
582.666	180.5
583.432	171.5
584.198	166.5
584.964	149.5
585.729	144.5
586.495	137.5
587.26	126.5
588.025	128.5
588.791	117.5
589.556	110.5
590.321	106.5
591.086	101.5
591.851	96.5
592.616	92.5
593.381	85.5
594.146	83.5
594.911	79.5
595.675	75.5
596.44	72.5
597.204	66.5
597.969	66.5
598.733	59.5
599.497	56.5
600.261	59.5
601.025	54.5
601.79	54.5
602.553	48.5
603.317	44.5
604.081	43.5
604.845	42.5
605.609	41.5
606.372	39.5
607.136	35.5
607.899	37.5
608.662	35.5
609.426	36.5
610.189	31.5
610.952	32.5
611.715	30.5
612.478	27.5
613.241	28.5
614.004	26.5
614.767	27.5
615.529	25.5
616.292	21.5
617.055	23.5
617.817	23.5
618.579	26.5
619.342	21.5
620.104	19.5
620.866	19.5
621.628	18.5
622.39	17.5
623.152	19.5
623.914	18.5
624.676	15.5
625.438	16.5
626.199	14.5
626.961	16.5
627.722	13.5
628.484	13.5
629.245	15.5
630.006	15.5
630.768	12.5
631.529	13.5
632.29	11.5
633.051	11.5
633.812	10.5
634.573	11.5
635.333	11.5
636.094	6.5
636.855	11.5
637.615	11.5
638.376	13.5
639.136	9.5
639.896	7.5
640.657	8.5
641.417	6.5
642.177	8.5
642.937	9.5
643.697	6.5
644.457	8.5
645.216	5.5
645.976	10.5
646.736	7.5
647.495	5.5
648.255	5.5
649.014	7.5
649.774	7.5
650.533	6.5
651.292	7.5
652.051	6.5
652.81	5.5
653.569	7.5
654.328	5.5
655.087	6.5
655.846	3.5
656.604	6.5
657.363	6.5
658.121	5.5
658.88	4.5
659.638	4.5
660.397	4.5
661.155	4.5
661.913	4.5
662.671	6.5
663.429	3.5
664.187	4.5
664.945	3.5
665.703	4.5
666.46	4.5
667.218	5.5
667.976	4.5
668.733	3.5
669.49	3.5
670.248	4.5
671.005	4.5
671.762	5.5
672.519	5.5
673.276	4.5
674.033	4.5
674.79	3.5
675.547	4.5
676.304	4.5
677.06	3.5
677.817	3.5
678.574	4.5
679.33	3.5
680.086	4.5
680.843	5.5
681.599	2.5
682.355	5.5
683.111	3.5
683.867	3.5
684.623	1.5
685.379	4.5
686.135	5.5
686.89	5.5
687.646	1.5
688.402	5.5
689.157	5.5
689.912	3.5
690.668	4.5
691.423	4.5
692.178	2.5
692.933	3.5
693.688	3.5
694.443	5.5
695.198	4.5
695.953	1.5
696.708	3.5
697.462	3.5
698.217	3.5
698.972	3.5
699.726	5.5
700.48	3.5
701.235	4.5
701.989	2.5
702.743	3.5
703.497	3.5
704.251	3.5
705.005	4.5
705.759	4.5
706.513	4.5
707.266	4.5
708.02	3.5
708.774	3.5
709.527	1.5
710.28	2.5
711.034	4.5
711.787	0.5
712.54	2.5
713.293	4.5
714.046	2.5
714.799	2.5
715.552	1.5
716.305	1.5
717.058	3.5
717.81	3.5
718.563	4.5
719.315	4.5
720.068	2.5
720.82	3.5
721.573	4.5
722.325	3.5
723.077	6.5
723.829	1.5
724.581	4.5
725.333	5.5
726.085	3.5
726.836	1.5
727.588	5.5
728.34	3.5
729.091	4.5
729.843	4.5
730.594	4.5
731.346	3.5
732.097	3.5
732.848	5.5
733.599	2.5
734.35	4.5
735.101	2.5
735.852	5.5
736.603	4.5
737.354	4.5
738.104	4.5
738.855	2.5
739.605	4.5
740.356	4.5
741.106	7.5
741.856	3.5
742.607	4.5
743.357	3.5
744.107	4.5
744.857	4.5
745.607	3.5
746.357	2.5
747.106	3.5
747.856	5.5
748.606	6.5
749.355	5.5
750.105	6.5
750.854	5.5
751.603	6.5
752.353	6.5
753.102	6.5
753.851	5.5
754.6	6.5
755.349	4.5
756.098	6.5
756.847	5.5
757.595	7.5
758.344	5.5
759.093	6.5
759.841	4.5
760.589	6.5
761.338	7.5
762.086	4.5
762.834	4.5
763.582	7.5
764.331	6.5
765.079	6.5
765.826	9.5
766.574	7.5
767.322	6.5
768.07	8.5
768.817	6.5
769.565	10.5
770.312	7.5
771.06	7.5
771.807	7.5
772.554	6.5
773.302	8.5
774.049	10.5
774.796	9.5
775.543	7.5
776.29	8.5
777.036	11.5
777.783	10.5
778.53	8.5
779.276	7.5
780.023	7.5
780.769	9.5
781.516	7.5
782.262	7.5
783.008	10.5
783.754	7.5
784.5	9.5
785.246	7.5
785.992	9.5
786.738	9.5
787.484	7.5
788.23	10.5
788.975	8.5
789.721	9.5
790.466	8.5
791.212	8.5
791.957	7.5
792.702	7.5
793.447	9.5
794.193	7.5
794.938	7.5
795.683	7.5
796.427	9.5
797.172	7.5
797.917	5.5
798.662	9.5
799.406	7.5
800.151	7.5
800.895	8.5
801.64	6.5
802.384	7.5
803.128	7.5
803.872	10.5
804.616	7.5
805.36	6.5
806.104	7.5
806.848	4.5
807.592	4.5
808.336	3.5
809.079	8.5
809.823	6.5
810.566	5.5
811.31	5.5
812.053	4.5
812.796	6.5
813.539	4.5
814.283	7.5
815.026	2.5
815.769	6.5
816.511	3.5
817.254	5.5
817.997	4.5
818.74	2.5
819.482	7.5
820.225	4.5
820.967	2.5
821.71	4.5
822.452	2.5
823.194	3.5
823.936	4.5
824.678	0.5
825.42	4.5
826.162	3.5
826.904	4.5
827.646	2.5
828.388	4.5
829.129	2.5
829.871	3.5
830.612	4.5
831.354	2.5
832.095	2.5
832.836	4.5
833.577	2.5
834.319	5.5
835.06	4.5
835.801	3.5
836.542	2.5
837.282	4.5
838.023	4.5
838.764	4.5
839.504	3.5
840.245	4.5
840.985	2.5
841.726	3.5
842.466	1.5
843.206	0.5
843.946	3.5
844.687	2.5
845.427	1.5
846.166	1.5
846.906	0.5
847.646	1.5
848.386	1.5
849.125	1.5
849.865	2.5
850.605	1.5
851.344	2.5
852.083	5.5
852.823	4.5
853.562	1.5
854.301	1.5
855.04	3.5
855.779	2.5
856.518	2.5
857.257	1.5
857.995	2.5
858.734	2.5
859.473	1.5
860.211	3.5
860.95	1.5
861.688	-1.5
862.426	1.5
863.165	3.5
863.903	1.5
864.641	2.5
865.379	2.5
866.117	-0.5
866.855	3.5
867.593	1.5
868.33	1.5
869.068	1.5
869.806	2.5
870.543	0.5
871.28	0.5
872.018	0.5
872.755	1.5
873.492	2.5
874.229	0.5
874.967	1.5
875.703	0.5
876.44	1.5
877.177	1.5
877.914	1.5
878.651	-0.5
879.387	1.5
880.124	-0.5
880.86	2.5
881.597	1.5
882.333	1.5
883.069	1.5
883.806	2.5
884.542	-0.5
885.278	-0.5
886.014	0.5
886.749	3.5
887.485	0.5
888.221	2.5
888.957	-0.5
889.692	-0.5
890.428	3.5
891.163	0.5
891.899	1.5
892.634	1.5
893.369	1.5
894.104	1.5
894.839	0.5
895.574	1.5
896.309	0.5
897.044	0.5
897.779	1.5
898.514	-0.5
899.248	1.5
899.983	0.5
900.717	3.5
901.452	-1.5
902.186	1.5
902.92	1.5
903.654	-1.5
904.389	0.5
905.123	0.5
905.857	1.5
906.59	0.5
907.324	0.5
908.058	0.5
908.792	-0.5
909.525	2.5
910.259	2.5
910.992	0.5
911.726	0.5
912.459	-1.5
913.192	0.5
913.925	-2.5
914.658	0.5
915.391	0.5
916.124	0.5
916.857	-1.5
917.59	-0.5
918.323	-0.5
919.055	-0.5
919.788	0.5
920.521	1.5
921.253	2.5
921.985	0.5
922.718	0.5
923.45	0.5
924.182	-0.5
924.914	-0.5
925.646	0.5
926.378	-1.5
927.11	0.5
927.841	0.5
928.573	1.5
929.305	0.5
930.036	0.5
930.768	-0.5
931.499	-1.5
932.23	2.5
932.962	1.5
933.693	1.5
934.424	1.5
935.155	1.5
935.886	1.5
936.617	-0.5
937.348	1.5
938.078	-0.5
938.809	-1.5
939.54	-0.5
940.27	-0.5
941.001	2.5
941.731	-0.5
942.461	-1.5
943.191	1.5
943.922	0.5
944.652	-2.5
945.382	-1.5
946.112	-0.5
946.841	0.5
947.571	-2.5
948.301	-1.5
949.031	-1.5
949.76	1.5
950.49	-0.5
951.219	0.5
951.948	1.5
952.678	2.5
953.407	-0.5
954.136	0.5
954.865	1.5
955.594	-0.5
956.323	1.5
957.052	1.5
957.78	1.5
958.509	2.5
959.238	-0.5
959.966	0.5
960.695	0.5
961.423	0.5
962.151	-0.5
962.88	0.5
963.608	-0.5
964.336	-0.5
965.064	-0.5
965.792	-0.5
966.52	0.5
967.247	1.5
967.975	-2.5
968.703	2.5
969.43	-1.5
970.158	0.5
970.885	1.5
971.613	-0.5
972.34	1.5
973.067	1.5
973.794	0.5
974.521	0.5
975.248	-0.5
975.975	1.5
976.702	-0.5
977.429	-1.5
978.156	-0.5
978.882	-1.5
979.609	-0.5
980.335	0.5
981.062	0.5
981.788	-0.5
982.514	2.5
983.24	0.5
983.967	0.5
984.693	1.5
985.419	0.5
986.144	0.5
986.87	-0.5
987.596	-0.5
988.322	1.5
989.047	-1.5
989.773	-0.5
990.498	-0.5
991.224	1.5
991.949	-0.5
992.674	-0.5
993.399	1.5
994.124	-0.5
994.849	-0.5
995.574	-0.5
996.299	1.5
997.024	1.5
997.749	-0.5
998.473	1.5
999.198	-0.5
999.922	0.5
1000.647	-0.5
1001.371	5.5
1002.095	-0.5
1002.82	-0.5
1003.544	-1.5
1004.268	0.5
1004.992	1.5
1005.716	0.5
1006.439	2.5
1007.163	3.5
1007.887	2.5
1008.611	-0.5
1009.334	0.5
1010.058	0.5
1010.781	1.5
1011.504	-0.5
1012.228	3.5
1012.951	-0.5
1013.674	-0.5
1014.397	0.5
1015.12	-2.5
