节点500_285_QEPB04081__421__15-02-33-553.txt的数据

Date: Wed Nov 12 15:02:33 CST 2025
User: PC
Spectrometer: QEPB0408
触发模式: 0
积分时间 (秒): 1.000000E-2
Scans to average: 1
启用暗噪声校正: true
启用非线性校正: false
滑动平均宽度: 0
X轴模式: Wavelengths
Number of Pixels in Spectrum: 1044
>>>>>Begin Spectral Data<<<<<
220.843	3.5
221.644	0.5
222.444	3.5
223.244	4.5
224.045	4.5
224.845	1.5
225.645	2.5
226.445	1.5
227.245	4.5
228.045	0.5
228.845	4.5
229.645	1.5
230.444	5.5
231.244	3.5
232.043	2.5
232.843	5.5
233.642	4.5
234.442	2.5
235.241	5.5
236.04	6.5
236.839	5.5
237.638	7.5
238.437	4.5
239.236	7.5
240.035	3.5
240.833	5.5
241.632	5.5
242.43	5.5
243.229	3.5
244.027	3.5
244.826	5.5
245.624	5.5
246.422	6.5
247.22	5.5
248.018	7.5
248.816	8.5
249.614	8.5
250.412	5.5
251.21	10.5
252.007	7.5
252.805	5.5
253.602	5.5
254.4	7.5
255.197	9.5
255.994	7.5
256.791	9.5
257.589	8.5
258.386	6.5
259.183	10.5
259.979	9.5
260.776	11.5
261.573	10.5
262.37	10.5
263.166	12.5
263.963	11.5
264.759	11.5
265.556	12.5
266.352	13.5
267.148	10.5
267.944	12.5
268.74	14.5
269.536	13.5
270.332	15.5
271.128	17.5
271.924	13.5
272.719	15.5
273.515	13.5
274.311	16.5
275.106	15.5
275.901	18.5
276.697	18.5
277.492	14.5
278.287	17.5
279.082	17.5
279.877	18.5
280.672	18.5
281.467	18.5
282.262	19.5
283.056	20.5
283.851	18.5
284.646	18.5
285.44	18.5
286.234	18.5
287.029	20.5
287.823	20.5
288.617	19.5
289.411	15.5
290.205	17.5
290.999	17.5
291.793	15.5
292.587	18.5
293.381	19.5
294.174	17.5
294.968	18.5
295.761	14.5
296.555	15.5
297.348	15.5
298.141	15.5
298.935	17.5
299.728	13.5
300.521	15.5
301.314	14.5
302.107	16.5
302.899	14.5
303.692	13.5
304.485	16.5
305.277	11.5
306.07	13.5
306.862	11.5
307.655	14.5
308.447	14.5
309.239	14.5
310.031	12.5
310.823	10.5
311.615	11.5
312.407	12.5
313.199	9.5
313.991	10.5
314.783	7.5
315.574	11.5
316.366	10.5
317.157	9.5
317.949	10.5
318.74	10.5
319.531	11.5
320.322	10.5
321.113	6.5
321.904	8.5
322.695	9.5
323.486	7.5
324.277	7.5
325.068	8.5
325.858	5.5
326.649	8.5
327.439	7.5
328.23	7.5
329.02	8.5
329.81	7.5
330.6	9.5
331.391	5.5
332.181	6.5
332.971	6.5
333.76	9.5
334.55	7.5
335.34	3.5
336.13	9.5
336.919	5.5
337.709	7.5
338.498	8.5
339.287	8.5
340.077	4.5
340.866	6.5
341.655	6.5
342.444	6.5
343.233	4.5
344.022	7.5
344.811	7.5
345.6	7.5
346.388	6.5
347.177	6.5
347.965	5.5
348.754	8.5
349.542	6.5
350.33	6.5
351.119	5.5
351.907	6.5
352.695	6.5
353.483	7.5
354.271	6.5
355.059	5.5
355.846	7.5
356.634	5.5
357.422	6.5
358.209	5.5
358.997	5.5
359.784	5.5
360.571	5.5
361.359	6.5
362.146	5.5
362.933	5.5
363.72	5.5
364.507	4.5
365.294	6.5
366.081	7.5
366.867	5.5
367.654	5.5
368.44	6.5
369.227	5.5
370.013	5.5
370.8	6.5
371.586	3.5
372.372	7.5
373.158	3.5
373.944	5.5
374.73	6.5
375.516	5.5
376.302	6.5
377.088	5.5
377.873	7.5
378.659	6.5
379.445	6.5
380.23	7.5
381.015	4.5
381.801	6.5
382.586	3.5
383.371	6.5
384.156	8.5
384.941	6.5
385.726	6.5
386.511	4.5
387.296	6.5
388.08	6.5
388.865	5.5
389.649	7.5
390.434	8.5
391.218	7.5
392.003	5.5
392.787	7.5
393.571	7.5
394.355	9.5
395.139	4.5
395.923	9.5
396.707	8.5
397.491	6.5
398.274	5.5
399.058	10.5
399.842	5.5
400.625	8.5
401.408	7.5
402.192	7.5
402.975	8.5
403.758	7.5
404.541	7.5
405.324	4.5
406.107	6.5
406.89	8.5
407.673	10.5
408.456	7.5
409.238	7.5
410.021	8.5
410.803	9.5
411.586	9.5
412.368	8.5
413.151	10.5
413.933	11.5
414.715	8.5
415.497	9.5
416.279	10.5
417.061	11.5
417.843	10.5
418.624	9.5
419.406	10.5
420.188	10.5
420.969	11.5
421.751	10.5
422.532	8.5
423.313	12.5
424.095	10.5
424.876	12.5
425.657	9.5
426.438	13.5
427.219	12.5
428	12.5
428.78	16.5
429.561	13.5
430.342	13.5
431.122	14.5
431.903	14.5
432.683	18.5
433.464	18.5
434.244	18.5
435.024	18.5
435.804	18.5
436.584	17.5
437.364	18.5
438.144	19.5
438.924	20.5
439.704	23.5
440.483	23.5
441.263	24.5
442.042	26.5
442.822	28.5
443.601	26.5
444.38	28.5
445.16	31.5
445.939	32.5
446.718	36.5
447.497	38.5
448.276	42.5
449.054	45.5
449.833	47.5
450.612	56.5
451.391	59.5
452.169	66.5
452.948	71.5
453.726	77.5
454.504	82.5
455.282	90.5
456.061	103.5
456.839	111.5
457.617	119.5
458.395	136.5
459.172	151.5
459.95	172.5
460.728	191.5
461.506	221.5
462.283	234.5
463.061	266.5
463.838	295.5
464.615	335.5
465.393	368.5
466.17	412.5
466.947	456.5
467.724	510.5
468.501	566.5
469.278	627.5
470.055	703.5
470.831	781.5
471.608	869.5
472.385	955.5
473.161	1073.5
473.938	1189.5
474.714	1298.5
475.49	1431.5
476.266	1597.5
477.043	1753.5
477.819	1942.5
478.595	2126.5
479.371	2353.5
480.146	2588.5
480.922	2855.5
481.698	3138.5
482.473	3469.5
483.249	3783.5
484.024	4152.5
484.8	4583.5
485.575	5007.5
486.35	5517.5
487.126	6042.5
487.901	6613.5
488.676	7233.5
489.451	7920.5
490.225	8682.5
491	9434.5
491.775	10322.5
492.55	11200.5
493.324	12099.5
494.099	13047.5
494.873	14057.5
495.647	15150.5
496.422	16272.5
497.196	17431.5
497.97	18608.5
498.744	19776.5
499.518	20927.5
500.292	22025.5
501.066	23118.5
501.839	24053.5
502.613	24949.5
503.387	25767.5
504.16	26405.5
504.934	26777.5
505.707	26967.5
506.48	27080.5
507.253	27077.5
508.027	26790.5
508.8	26579.5
509.573	26195.5
510.346	25624.5
511.118	24951.5
511.891	24134.5
512.664	23357.5
513.437	22469.5
514.209	21583.5
514.982	20753.5
515.754	19872.5
516.526	18921.5
517.298	18066.5
518.071	17347.5
518.843	16651.5
519.615	16081.5
520.387	15423.5
521.159	14814.5
521.93	14185.5
522.702	13659.5
523.474	13082.5
524.245	12500.5
525.017	11974.5
525.788	11537.5
526.56	11041.5
527.331	10472.5
528.102	10055.5
528.873	9593.5
529.644	9094.5
530.415	8669.5
531.186	8230.5
531.957	7795.5
532.728	7449.5
533.498	7032.5
534.269	6667.5
535.039	6303.5
535.81	5942.5
536.58	5602.5
537.351	5280.5
538.121	4997.5
538.891	4705.5
539.661	4484.5
540.431	4222.5
541.201	3974.5
541.971	3792.5
542.741	3578.5
543.51	3405.5
544.28	3233.5
545.05	3078.5
545.819	2934.5
546.588	2776.5
547.358	2641.5
548.127	2545.5
548.896	2377.5
549.665	2266.5
550.434	2132.5
551.203	2036.5
551.972	1938.5
552.741	1823.5
553.51	1723.5
554.278	1626.5
555.047	1528.5
555.815	1462.5
556.584	1364.5
557.352	1308.5
558.121	1216.5
558.889	1152.5
559.657	1084.5
560.425	1034.5
561.193	964.5
561.961	908.5
562.729	869.5
563.496	812.5
564.264	769.5
565.032	734.5
565.799	690.5
566.567	656.5
567.334	623.5
568.101	576.5
568.869	556.5
569.636	525.5
570.403	486.5
571.17	460.5
571.937	437.5
572.704	405.5
573.471	386.5
574.237	362.5
575.004	344.5
575.771	324.5
576.537	307.5
577.303	289.5
578.07	273.5
578.836	252.5
579.602	239.5
580.368	228.5
581.134	217.5
581.9	209.5
582.666	195.5
583.432	183.5
584.198	171.5
584.964	164.5
585.729	156.5
586.495	152.5
587.26	142.5
588.025	133.5
588.791	130.5
589.556	122.5
590.321	110.5
591.086	105.5
591.851	99.5
592.616	99.5
593.381	90.5
594.146	85.5
594.911	83.5
595.675	78.5
596.44	79.5
597.204	77.5
597.969	68.5
598.733	67.5
599.497	66.5
600.261	61.5
601.025	61.5
601.79	52.5
602.553	50.5
603.317	52.5
604.081	51.5
604.845	48.5
605.609	43.5
606.372	45.5
607.136	40.5
607.899	39.5
608.662	35.5
609.426	34.5
610.189	36.5
610.952	32.5
611.715	32.5
612.478	32.5
613.241	30.5
614.004	29.5
614.767	26.5
615.529	27.5
616.292	26.5
617.055	24.5
617.817	24.5
618.579	24.5
619.342	22.5
620.104	19.5
620.866	22.5
621.628	20.5
622.39	19.5
623.152	19.5
623.914	18.5
624.676	20.5
625.438	14.5
626.199	16.5
626.961	16.5
627.722	15.5
628.484	16.5
629.245	13.5
630.006	13.5
630.768	16.5
631.529	14.5
632.29	14.5
633.051	13.5
633.812	12.5
634.573	13.5
635.333	11.5
636.094	14.5
636.855	11.5
637.615	11.5
638.376	10.5
639.136	10.5
639.896	10.5
640.657	6.5
641.417	10.5
642.177	10.5
642.937	8.5
643.697	9.5
644.457	8.5
645.216	9.5
645.976	8.5
646.736	7.5
647.495	10.5
648.255	9.5
649.014	9.5
649.774	8.5
650.533	7.5
651.292	7.5
652.051	9.5
652.81	6.5
653.569	8.5
654.328	5.5
655.087	8.5
655.846	6.5
656.604	7.5
657.363	8.5
658.121	5.5
658.88	4.5
659.638	8.5
660.397	5.5
661.155	5.5
661.913	4.5
662.671	7.5
663.429	4.5
664.187	7.5
664.945	6.5
665.703	6.5
666.46	5.5
667.218	5.5
667.976	6.5
668.733	6.5
669.49	7.5
670.248	4.5
671.005	5.5
671.762	8.5
672.519	5.5
673.276	5.5
674.033	4.5
674.79	5.5
675.547	4.5
676.304	5.5
677.06	5.5
677.817	4.5
678.574	3.5
679.33	4.5
680.086	3.5
680.843	6.5
681.599	5.5
682.355	6.5
683.111	4.5
683.867	4.5
684.623	3.5
685.379	4.5
686.135	4.5
686.89	4.5
687.646	6.5
688.402	2.5
689.157	3.5
689.912	3.5
690.668	4.5
691.423	4.5
692.178	4.5
692.933	6.5
693.688	2.5
694.443	1.5
695.198	7.5
695.953	4.5
696.708	6.5
697.462	6.5
698.217	2.5
698.972	7.5
699.726	3.5
700.48	6.5
701.235	6.5
701.989	4.5
702.743	4.5
703.497	4.5
704.251	4.5
705.005	5.5
705.759	3.5
706.513	4.5
707.266	5.5
708.02	1.5
708.774	4.5
709.527	4.5
710.28	4.5
711.034	6.5
711.787	3.5
712.54	4.5
713.293	4.5
714.046	3.5
714.799	3.5
715.552	4.5
716.305	5.5
717.058	4.5
717.81	5.5
718.563	3.5
719.315	3.5
720.068	3.5
720.82	5.5
721.573	5.5
722.325	4.5
723.077	5.5
723.829	3.5
724.581	1.5
725.333	3.5
726.085	4.5
726.836	3.5
727.588	6.5
728.34	2.5
729.091	4.5
729.843	4.5
730.594	4.5
731.346	4.5
732.097	3.5
732.848	4.5
733.599	2.5
734.35	2.5
735.101	4.5
735.852	4.5
736.603	6.5
737.354	3.5
738.104	5.5
738.855	2.5
739.605	5.5
740.356	5.5
741.106	4.5
741.856	6.5
742.607	2.5
743.357	5.5
744.107	6.5
744.857	3.5
745.607	4.5
746.357	6.5
747.106	6.5
747.856	5.5
748.606	6.5
749.355	3.5
750.105	2.5
750.854	4.5
751.603	5.5
752.353	6.5
753.102	4.5
753.851	6.5
754.6	5.5
755.349	7.5
756.098	6.5
756.847	6.5
757.595	8.5
758.344	6.5
759.093	8.5
759.841	5.5
760.589	7.5
761.338	3.5
762.086	6.5
762.834	6.5
763.582	6.5
764.331	7.5
765.079	5.5
765.826	7.5
766.574	8.5
767.322	5.5
768.07	7.5
768.817	8.5
769.565	9.5
770.312	7.5
771.06	8.5
771.807	7.5
772.554	9.5
773.302	9.5
774.049	8.5
774.796	8.5
775.543	9.5
776.29	6.5
777.036	8.5
777.783	10.5
778.53	6.5
779.276	9.5
780.023	7.5
780.769	7.5
781.516	9.5
782.262	10.5
783.008	9.5
783.754	9.5
784.5	8.5
785.246	7.5
785.992	12.5
786.738	9.5
787.484	10.5
788.23	11.5
788.975	7.5
789.721	10.5
790.466	9.5
791.212	10.5
791.957	10.5
792.702	8.5
793.447	7.5
794.193	8.5
794.938	8.5
795.683	7.5
796.427	10.5
797.172	9.5
797.917	9.5
798.662	8.5
799.406	9.5
800.151	7.5
800.895	8.5
801.64	7.5
802.384	7.5
803.128	8.5
803.872	7.5
804.616	6.5
805.36	7.5
806.104	10.5
806.848	5.5
807.592	6.5
808.336	5.5
809.079	7.5
809.823	8.5
810.566	6.5
811.31	7.5
812.053	6.5
812.796	4.5
813.539	5.5
814.283	6.5
815.026	5.5
815.769	5.5
816.511	6.5
817.254	2.5
817.997	5.5
818.74	4.5
819.482	4.5
820.225	6.5
820.967	4.5
821.71	4.5
822.452	2.5
823.194	6.5
823.936	6.5
824.678	6.5
825.42	4.5
826.162	6.5
826.904	3.5
827.646	4.5
828.388	4.5
829.129	4.5
829.871	4.5
830.612	3.5
831.354	2.5
832.095	3.5
832.836	5.5
833.577	3.5
834.319	5.5
835.06	6.5
835.801	5.5
836.542	4.5
837.282	3.5
838.023	5.5
838.764	4.5
839.504	2.5
840.245	3.5
840.985	3.5
841.726	3.5
842.466	3.5
843.206	2.5
843.946	4.5
844.687	3.5
845.427	3.5
846.166	4.5
846.906	2.5
847.646	5.5
848.386	5.5
849.125	2.5
849.865	4.5
850.605	0.5
851.344	7.5
852.083	1.5
852.823	2.5
853.562	2.5
854.301	3.5
855.04	4.5
855.779	2.5
856.518	6.5
857.257	2.5
857.995	2.5
858.734	3.5
859.473	1.5
860.211	3.5
860.95	2.5
861.688	3.5
862.426	0.5
863.165	4.5
863.903	2.5
864.641	3.5
865.379	3.5
866.117	0.5
866.855	2.5
867.593	4.5
868.33	3.5
869.068	3.5
869.806	2.5
870.543	4.5
871.28	1.5
872.018	2.5
872.755	2.5
873.492	3.5
874.229	-0.5
874.967	4.5
875.703	1.5
876.44	1.5
877.177	1.5
877.914	-0.5
878.651	-1.5
879.387	3.5
880.124	1.5
880.86	1.5
881.597	1.5
882.333	1.5
883.069	1.5
883.806	0.5
884.542	3.5
885.278	1.5
886.014	2.5
886.749	0.5
887.485	1.5
888.221	0.5
888.957	2.5
889.692	0.5
890.428	1.5
891.163	0.5
891.899	0.5
892.634	1.5
893.369	1.5
894.104	1.5
894.839	0.5
895.574	1.5
896.309	-0.5
897.044	1.5
897.779	1.5
898.514	0.5
899.248	0.5
899.983	2.5
900.717	2.5
901.452	0.5
902.186	0.5
902.92	-0.5
903.654	0.5
904.389	4.5
905.123	0.5
905.857	2.5
906.59	1.5
907.324	1.5
908.058	-0.5
908.792	2.5
909.525	-0.5
910.259	0.5
910.992	1.5
911.726	2.5
912.459	2.5
913.192	2.5
913.925	-1.5
914.658	0.5
915.391	2.5
916.124	0.5
916.857	-0.5
917.59	2.5
918.323	2.5
919.055	0.5
919.788	0.5
920.521	-0.5
921.253	2.5
921.985	-1.5
922.718	-1.5
923.45	1.5
924.182	-0.5
924.914	1.5
925.646	0.5
926.378	0.5
927.11	0.5
927.841	2.5
928.573	0.5
929.305	0.5
930.036	3.5
930.768	0.5
931.499	2.5
932.23	0.5
932.962	1.5
933.693	2.5
934.424	-0.5
935.155	2.5
935.886	0.5
936.617	0.5
937.348	0.5
938.078	2.5
938.809	0.5
939.54	-0.5
940.27	2.5
941.001	1.5
941.731	0.5
942.461	1.5
943.191	0.5
943.922	0.5
944.652	0.5
945.382	1.5
946.112	2.5
946.841	1.5
947.571	1.5
948.301	-0.5
949.031	-0.5
949.76	1.5
950.49	1.5
951.219	1.5
951.948	1.5
952.678	0.5
953.407	0.5
954.136	1.5
954.865	2.5
955.594	0.5
956.323	2.5
957.052	-1.5
957.78	0.5
958.509	-0.5
959.238	1.5
959.966	0.5
960.695	2.5
961.423	-0.5
962.151	-0.5
962.88	2.5
963.608	0.5
964.336	2.5
965.064	-0.5
965.792	0.5
966.52	2.5
967.247	0.5
967.975	2.5
968.703	0.5
969.43	1.5
970.158	2.5
970.885	1.5
971.613	1.5
972.34	1.5
973.067	-0.5
973.794	1.5
974.521	1.5
975.248	0.5
975.975	-1.5
976.702	2.5
977.429	1.5
978.156	0.5
978.882	0.5
979.609	0.5
980.335	2.5
981.062	-1.5
981.788	1.5
982.514	0.5
983.24	1.5
983.967	-1.5
984.693	-0.5
985.419	3.5
986.144	-0.5
986.87	-1.5
987.596	0.5
988.322	1.5
989.047	-0.5
989.773	0.5
990.498	0.5
991.224	1.5
991.949	2.5
992.674	0.5
993.399	1.5
994.124	2.5
994.849	2.5
995.574	2.5
996.299	4.5
997.024	-0.5
997.749	1.5
998.473	-1.5
999.198	3.5
999.922	1.5
1000.647	1.5
1001.371	3.5
1002.095	-1.5
1002.82	-1.5
1003.544	-0.5
1004.268	-0.5
1004.992	1.5
1005.716	1.5
1006.439	0.5
1007.163	1.5
1007.887	2.5
1008.611	0.5
1009.334	1.5
1010.058	1.5
1010.781	-0.5
1011.504	1.5
1012.228	0.5
1012.951	1.5
1013.674	0.5
1014.397	-0.5
1015.12	-1.5
