节点500_285_QEPB04081__35__14-56-08-433.txt的数据

Date: Wed Nov 12 14:56:08 CST 2025
User: PC
Spectrometer: QEPB0408
触发模式: 0
积分时间 (秒): 1.000000E-2
Scans to average: 1
启用暗噪声校正: true
启用非线性校正: false
滑动平均宽度: 0
X轴模式: Wavelengths
Number of Pixels in Spectrum: 1044
>>>>>Begin Spectral Data<<<<<
220.843	1.25
221.644	0.25
222.444	0.25
223.244	0.25
224.045	1.25
224.845	3.25
225.645	1.25
226.445	0.25
227.245	3.25
228.045	2.25
228.845	0.25
229.645	2.25
230.444	0.25
231.244	4.25
232.043	3.25
232.843	1.25
233.642	5.25
234.442	2.25
235.241	4.25
236.04	1.25
236.839	1.25
237.638	1.25
238.437	4.25
239.236	3.25
240.035	4.25
240.833	4.25
241.632	4.25
242.43	3.25
243.229	5.25
244.027	3.25
244.826	5.25
245.624	5.25
246.422	6.25
247.22	3.25
248.018	5.25
248.816	7.25
249.614	3.25
250.412	6.25
251.21	7.25
252.007	6.25
252.805	6.25
253.602	8.25
254.4	6.25
255.197	6.25
255.994	6.25
256.791	8.25
257.589	9.25
258.386	5.25
259.183	7.25
259.979	11.25
260.776	10.25
261.573	10.25
262.37	10.25
263.166	9.25
263.963	11.25
264.759	10.25
265.556	12.25
266.352	11.25
267.148	12.25
267.944	12.25
268.74	11.25
269.536	15.25
270.332	13.25
271.128	16.25
271.924	17.25
272.719	14.25
273.515	15.25
274.311	16.25
275.106	15.25
275.901	15.25
276.697	16.25
277.492	16.25
278.287	14.25
279.082	17.25
279.877	15.25
280.672	18.25
281.467	16.25
282.262	19.25
283.056	17.25
283.851	17.25
284.646	21.25
285.44	18.25
286.234	18.25
287.029	18.25
287.823	15.25
288.617	16.25
289.411	15.25
290.205	17.25
290.999	15.25
291.793	17.25
292.587	15.25
293.381	15.25
294.174	19.25
294.968	14.25
295.761	14.25
296.555	12.25
297.348	12.25
298.141	13.25
298.935	12.25
299.728	12.25
300.521	12.25
301.314	14.25
302.107	12.25
302.899	10.25
303.692	11.25
304.485	12.25
305.277	12.25
306.07	11.25
306.862	11.25
307.655	11.25
308.447	8.25
309.239	11.25
310.031	9.25
310.823	9.25
311.615	10.25
312.407	8.25
313.199	8.25
313.991	7.25
314.783	8.25
315.574	7.25
316.366	5.25
317.157	7.25
317.949	8.25
318.74	7.25
319.531	6.25
320.322	3.25
321.113	8.25
321.904	5.25
322.695	4.25
323.486	7.25
324.277	6.25
325.068	6.25
325.858	4.25
326.649	10.25
327.439	7.25
328.23	5.25
329.02	7.25
329.81	4.25
330.6	5.25
331.391	7.25
332.181	3.25
332.971	6.25
333.76	5.25
334.55	5.25
335.34	6.25
336.13	6.25
336.919	4.25
337.709	5.25
338.498	2.25
339.287	5.25
340.077	3.25
340.866	4.25
341.655	5.25
342.444	3.25
343.233	4.25
344.022	6.25
344.811	5.25
345.6	3.25
346.388	6.25
347.177	4.25
347.965	5.25
348.754	6.25
349.542	6.25
350.33	3.25
351.119	5.25
351.907	5.25
352.695	5.25
353.483	3.25
354.271	3.25
355.059	4.25
355.846	6.25
356.634	5.25
357.422	3.25
358.209	5.25
358.997	4.25
359.784	3.25
360.571	5.25
361.359	5.25
362.146	3.25
362.933	3.25
363.72	5.25
364.507	3.25
365.294	5.25
366.081	6.25
366.867	5.25
367.654	3.25
368.44	6.25
369.227	5.25
370.013	5.25
370.8	5.25
371.586	4.25
372.372	4.25
373.158	3.25
373.944	2.25
374.73	4.25
375.516	4.25
376.302	3.25
377.088	5.25
377.873	6.25
378.659	2.25
379.445	6.25
380.23	5.25
381.015	3.25
381.801	6.25
382.586	1.25
383.371	5.25
384.156	4.25
384.941	4.25
385.726	7.25
386.511	5.25
387.296	5.25
388.08	5.25
388.865	8.25
389.649	5.25
390.434	2.25
391.218	6.25
392.003	4.25
392.787	7.25
393.571	5.25
394.355	7.25
395.139	5.25
395.923	5.25
396.707	5.25
397.491	3.25
398.274	7.25
399.058	7.25
399.842	5.25
400.625	6.25
401.408	3.25
402.192	7.25
402.975	6.25
403.758	7.25
404.541	7.25
405.324	8.25
406.107	7.25
406.89	7.25
407.673	7.25
408.456	8.25
409.238	6.25
410.021	8.25
410.803	9.25
411.586	8.25
412.368	6.25
413.151	8.25
413.933	8.25
414.715	6.25
415.497	10.25
416.279	6.25
417.061	7.25
417.843	7.25
418.624	12.25
419.406	8.25
420.188	8.25
420.969	8.25
421.751	8.25
422.532	10.25
423.313	9.25
424.095	9.25
424.876	10.25
425.657	11.25
426.438	8.25
427.219	12.25
428	9.25
428.78	10.25
429.561	11.25
430.342	14.25
431.122	13.25
431.903	11.25
432.683	14.25
433.464	11.25
434.244	15.25
435.024	14.25
435.804	16.25
436.584	16.25
437.364	18.25
438.144	16.25
438.924	16.25
439.704	19.25
440.483	18.25
441.263	22.25
442.042	19.25
442.822	23.25
443.601	25.25
444.38	26.25
445.16	28.25
445.939	30.25
446.718	30.25
447.497	35.25
448.276	32.25
449.054	41.25
449.833	38.25
450.612	44.25
451.391	47.25
452.169	51.25
452.948	58.25
453.726	64.25
454.504	69.25
455.282	74.25
456.061	81.25
456.839	94.25
457.617	99.25
458.395	113.25
459.172	123.25
459.95	138.25
460.728	151.25
461.506	169.25
462.283	192.25
463.061	214.25
463.838	234.25
464.615	266.25
465.393	293.25
466.17	331.25
466.947	368.25
467.724	421.25
468.501	463.25
469.278	516.25
470.055	584.25
470.831	645.25
471.608	715.25
472.385	806.25
473.161	896.25
473.938	1018.25
474.714	1113.25
475.49	1261.25
476.266	1401.25
477.043	1540.25
477.819	1703.25
478.595	1911.25
479.371	2109.25
480.146	2369.25
480.922	2611.25
481.698	2904.25
482.473	3217.25
483.249	3544.25
484.024	3950.25
484.8	4374.25
485.575	4823.25
486.35	5387.25
487.126	5895.25
487.901	6529.25
488.676	7131.25
489.451	7895.25
490.225	8701.25
491	9529.25
491.775	10469.25
492.55	11428.25
493.324	12466.25
494.099	13429.25
494.873	14546.25
495.647	15723.25
496.422	16861.25
497.196	18077.25
497.97	19282.25
498.744	20483.25
499.518	21661.25
500.292	22709.25
501.066	23667.25
501.839	24537.25
502.613	25258.25
503.387	25885.25
504.16	26388.25
504.934	26537.25
505.707	26499.25
506.48	26337.25
507.253	26059.25
508.027	25607.25
508.8	25102.25
509.573	24460.25
510.346	23724.25
511.118	22817.25
511.891	21980.25
512.664	21069.25
513.437	20151.25
514.209	19240.25
514.982	18370.25
515.754	17458.25
516.526	16729.25
517.298	15973.25
518.071	15268.25
518.843	14685.25
519.615	14134.25
520.387	13534.25
521.159	12981.25
521.93	12503.25
522.702	11974.25
523.474	11511.25
524.245	11014.25
525.017	10511.25
525.788	10078.25
526.56	9633.25
527.331	9141.25
528.102	8732.25
528.873	8267.25
529.644	7876.25
530.415	7442.25
531.186	7066.25
531.957	6658.25
532.728	6305.25
533.498	5974.25
534.269	5636.25
535.039	5291.25
535.81	5008.25
536.58	4731.25
537.351	4436.25
538.121	4181.25
538.891	3973.25
539.661	3759.25
540.431	3558.25
541.201	3351.25
541.971	3177.25
542.741	3006.25
543.51	2867.25
544.28	2730.25
545.05	2616.25
545.819	2455.25
546.588	2352.25
547.358	2221.25
548.127	2126.25
548.896	1986.25
549.665	1928.25
550.434	1809.25
551.203	1705.25
551.972	1598.25
552.741	1505.25
553.51	1430.25
554.278	1348.25
555.047	1279.25
555.815	1187.25
556.584	1115.25
557.352	1065.25
558.121	999.25
558.889	950.25
559.657	894.25
560.425	841.25
561.193	801.25
561.961	746.25
562.729	712.25
563.496	669.25
564.264	640.25
565.032	596.25
565.799	570.25
566.567	540.25
567.334	509.25
568.101	479.25
568.869	451.25
569.636	430.25
570.403	403.25
571.17	379.25
571.937	357.25
572.704	336.25
573.471	318.25
574.237	299.25
575.004	283.25
575.771	270.25
576.537	259.25
577.303	232.25
578.07	224.25
578.836	211.25
579.602	194.25
580.368	188.25
581.134	175.25
581.9	166.25
582.666	150.25
583.432	150.25
584.198	140.25
584.964	134.25
585.729	127.25
586.495	120.25
587.26	115.25
588.025	109.25
588.791	105.25
589.556	93.25
590.321	98.25
591.086	87.25
591.851	82.25
592.616	77.25
593.381	75.25
594.146	74.25
594.911	72.25
595.675	67.25
596.44	64.25
597.204	60.25
597.969	60.25
598.733	54.25
599.497	54.25
600.261	51.25
601.025	46.25
601.79	51.25
602.553	41.25
603.317	42.25
604.081	40.25
604.845	38.25
605.609	35.25
606.372	34.25
607.136	35.25
607.899	31.25
608.662	32.25
609.426	33.25
610.189	26.25
610.952	30.25
611.715	24.25
612.478	25.25
613.241	27.25
614.004	21.25
614.767	22.25
615.529	22.25
616.292	24.25
617.055	20.25
617.817	23.25
618.579	18.25
619.342	16.25
620.104	17.25
620.866	16.25
621.628	16.25
622.39	15.25
623.152	16.25
623.914	15.25
624.676	13.25
625.438	13.25
626.199	15.25
626.961	11.25
627.722	12.25
628.484	13.25
629.245	13.25
630.006	11.25
630.768	13.25
631.529	11.25
632.29	10.25
633.051	12.25
633.812	8.25
634.573	10.25
635.333	10.25
636.094	10.25
636.855	10.25
637.615	7.25
638.376	10.25
639.136	9.25
639.896	8.25
640.657	8.25
641.417	6.25
642.177	8.25
642.937	8.25
643.697	6.25
644.457	8.25
645.216	7.25
645.976	4.25
646.736	7.25
647.495	6.25
648.255	7.25
649.014	4.25
649.774	6.25
650.533	6.25
651.292	5.25
652.051	7.25
652.81	3.25
653.569	2.25
654.328	5.25
655.087	7.25
655.846	3.25
656.604	5.25
657.363	7.25
658.121	6.25
658.88	5.25
659.638	4.25
660.397	6.25
661.155	4.25
661.913	5.25
662.671	3.25
663.429	3.25
664.187	5.25
664.945	4.25
665.703	3.25
666.46	2.25
667.218	3.25
667.976	6.25
668.733	1.25
669.49	5.25
670.248	0.25
671.005	3.25
671.762	3.25
672.519	4.25
673.276	2.25
674.033	5.25
674.79	1.25
675.547	4.25
676.304	3.25
677.06	5.25
677.817	0.25
678.574	3.25
679.33	3.25
680.086	3.25
680.843	5.25
681.599	3.25
682.355	3.25
683.111	3.25
683.867	3.25
684.623	3.25
685.379	2.25
686.135	2.25
686.89	2.25
687.646	0.25
688.402	3.25
689.157	2.25
689.912	3.25
690.668	3.25
691.423	1.25
692.178	2.25
692.933	3.25
693.688	2.25
694.443	3.25
695.198	3.25
695.953	2.25
696.708	5.25
697.462	3.25
698.217	2.25
698.972	1.25
699.726	3.25
700.48	4.25
701.235	3.25
701.989	2.25
702.743	3.25
703.497	2.25
704.251	1.25
705.005	0.25
705.759	1.25
706.513	4.25
707.266	4.25
708.02	3.25
708.774	0.25
709.527	4.25
710.28	3.25
711.034	2.25
711.787	3.25
712.54	0.25
713.293	5.25
714.046	3.25
714.799	2.25
715.552	1.25
716.305	3.25
717.058	1.25
717.81	1.25
718.563	2.25
719.315	3.25
720.068	3.25
720.82	4.25
721.573	3.25
722.325	2.25
723.077	3.25
723.829	3.25
724.581	4.25
725.333	3.25
726.085	4.25
726.836	3.25
727.588	5.25
728.34	3.25
729.091	1.25
729.843	3.25
730.594	4.25
731.346	3.25
732.097	5.25
732.848	3.25
733.599	1.25
734.35	2.25
735.101	4.25
735.852	1.25
736.603	3.25
737.354	4.25
738.104	5.25
738.855	3.25
739.605	2.25
740.356	2.25
741.106	3.25
741.856	4.25
742.607	2.25
743.357	3.25
744.107	5.25
744.857	4.25
745.607	4.25
746.357	3.25
747.106	4.25
747.856	6.25
748.606	5.25
749.355	4.25
750.105	6.25
750.854	5.25
751.603	4.25
752.353	3.25
753.102	6.25
753.851	5.25
754.6	6.25
755.349	7.25
756.098	5.25
756.847	5.25
757.595	3.25
758.344	6.25
759.093	5.25
759.841	5.25
760.589	7.25
761.338	4.25
762.086	4.25
762.834	5.25
763.582	6.25
764.331	6.25
765.079	6.25
765.826	7.25
766.574	5.25
767.322	8.25
768.07	5.25
768.817	6.25
769.565	6.25
770.312	8.25
771.06	6.25
771.807	7.25
772.554	9.25
773.302	6.25
774.049	9.25
774.796	8.25
775.543	9.25
776.29	9.25
777.036	7.25
777.783	6.25
778.53	10.25
779.276	7.25
780.023	6.25
780.769	5.25
781.516	7.25
782.262	9.25
783.008	7.25
783.754	5.25
784.5	9.25
785.246	7.25
785.992	5.25
786.738	5.25
787.484	7.25
788.23	8.25
788.975	9.25
789.721	8.25
790.466	9.25
791.212	6.25
791.957	6.25
792.702	5.25
793.447	6.25
794.193	9.25
794.938	7.25
795.683	6.25
796.427	9.25
797.172	7.25
797.917	8.25
798.662	5.25
799.406	7.25
800.151	10.25
800.895	6.25
801.64	5.25
802.384	4.25
803.128	6.25
803.872	7.25
804.616	6.25
805.36	6.25
806.104	8.25
806.848	7.25
807.592	5.25
808.336	6.25
809.079	4.25
809.823	6.25
810.566	6.25
811.31	4.25
812.053	3.25
812.796	5.25
813.539	3.25
814.283	2.25
815.026	3.25
815.769	4.25
816.511	6.25
817.254	4.25
817.997	3.25
818.74	5.25
819.482	5.25
820.225	2.25
820.967	4.25
821.71	5.25
822.452	4.25
823.194	3.25
823.936	3.25
824.678	2.25
825.42	4.25
826.162	4.25
826.904	0.25
827.646	3.25
828.388	4.25
829.129	1.25
829.871	4.25
830.612	5.25
831.354	4.25
832.095	2.25
832.836	1.25
833.577	2.25
834.319	2.25
835.06	2.25
835.801	3.25
836.542	2.25
837.282	3.25
838.023	2.25
838.764	3.25
839.504	2.25
840.245	3.25
840.985	4.25
841.726	-0.75
842.466	1.25
843.206	1.25
843.946	1.25
844.687	0.25
845.427	1.25
846.166	3.25
846.906	0.25
847.646	0.25
848.386	2.25
849.125	1.25
849.865	1.25
850.605	0.25
851.344	3.25
852.083	2.25
852.823	3.25
853.562	2.25
854.301	1.25
855.04	1.25
855.779	-0.75
856.518	1.25
857.257	0.25
857.995	2.25
858.734	3.25
859.473	2.25
860.211	1.25
860.95	3.25
861.688	1.25
862.426	1.25
863.165	1.25
863.903	0.25
864.641	1.25
865.379	2.25
866.117	3.25
866.855	0.25
867.593	1.25
868.33	-1.75
869.068	2.25
869.806	1.25
870.543	1.25
871.28	0.25
872.018	0.25
872.755	0.25
873.492	0.25
874.229	-1.75
874.967	1.25
875.703	1.25
876.44	0.25
877.177	0.25
877.914	0.25
878.651	-0.75
879.387	0.25
880.124	-0.75
880.86	0.25
881.597	0.25
882.333	0.25
883.069	0.25
883.806	0.25
884.542	0.25
885.278	1.25
886.014	-0.75
886.749	-0.75
887.485	0.25
888.221	-0.75
888.957	-1.75
889.692	-0.75
890.428	-0.75
891.163	1.25
891.899	1.25
892.634	0.25
893.369	1.25
894.104	1.25
894.839	0.25
895.574	0.25
896.309	1.25
897.044	-0.75
897.779	-0.75
898.514	-0.75
899.248	1.25
899.983	1.25
900.717	-1.75
901.452	-0.75
902.186	0.25
902.92	2.25
903.654	0.25
904.389	1.25
905.123	1.25
905.857	-0.75
906.59	0.25
907.324	-1.75
908.058	-0.75
908.792	0.25
909.525	2.25
910.259	-0.75
910.992	-1.75
911.726	-1.75
912.459	-0.75
913.192	-1.75
913.925	1.25
914.658	-0.75
915.391	0.25
916.124	1.25
916.857	0.25
917.59	1.25
918.323	-1.75
919.055	0.25
919.788	-0.75
920.521	2.25
921.253	0.25
921.985	-0.75
922.718	0.25
923.45	-0.75
924.182	0.25
924.914	0.25
925.646	0.25
926.378	-0.75
927.11	-0.75
927.841	1.25
928.573	0.25
929.305	0.25
930.036	1.25
930.768	-0.75
931.499	-0.75
932.23	-1.75
932.962	-0.75
933.693	-0.75
934.424	0.25
935.155	-0.75
935.886	-0.75
936.617	-1.75
937.348	-0.75
938.078	0.25
938.809	-2.75
939.54	0.25
940.27	0.25
941.001	-0.75
941.731	0.25
942.461	0.25
943.191	0.25
943.922	1.25
944.652	0.25
945.382	1.25
946.112	-1.75
946.841	2.25
947.571	2.25
948.301	-0.75
949.031	-1.75
949.76	0.25
950.49	-0.75
951.219	-3.75
951.948	0.25
952.678	-1.75
953.407	0.25
954.136	-1.75
954.865	-0.75
955.594	-0.75
956.323	0.25
957.052	0.25
957.78	0.25
958.509	-0.75
959.238	1.25
959.966	-0.75
960.695	-0.75
961.423	-0.75
962.151	1.25
962.88	0.25
963.608	-0.75
964.336	0.25
965.064	1.25
965.792	0.25
966.52	-0.75
967.247	-0.75
967.975	1.25
968.703	-0.75
969.43	-2.75
970.158	-0.75
970.885	0.25
971.613	0.25
972.34	-0.75
973.067	1.25
973.794	-1.75
974.521	1.25
975.248	-2.75
975.975	0.25
976.702	0.25
977.429	1.25
978.156	0.25
978.882	-0.75
979.609	-0.75
980.335	-0.75
981.062	0.25
981.788	1.25
982.514	-1.75
983.24	1.25
983.967	-0.75
984.693	0.25
985.419	1.25
986.144	-2.75
986.87	-0.75
987.596	-0.75
988.322	-0.75
989.047	-0.75
989.773	-0.75
990.498	-1.75
991.224	-3.75
991.949	0.25
992.674	-1.75
993.399	1.25
994.124	1.25
994.849	0.25
995.574	1.25
996.299	-0.75
997.024	1.25
997.749	0.25
998.473	0.25
999.198	-0.75
999.922	-2.75
1000.647	1.25
1001.371	4.25
1002.095	0.25
1002.82	-1.75
1003.544	1.25
1004.268	2.25
1004.992	0.25
1005.716	0.25
1006.439	0.25
1007.163	3.25
1007.887	1.25
1008.611	0.25
1009.334	0.25
1010.058	2.25
1010.781	-1.75
1011.504	-2.75
1012.228	-0.75
1012.951	-0.75
1013.674	-0.75
1014.397	-2.75
1015.12	0.25
