节点500_285_QEPB04081__579__15-05-11-203.txt的数据

Date: Wed Nov 12 15:05:11 CST 2025
User: PC
Spectrometer: QEPB0408
触发模式: 0
积分时间 (秒): 1.000000E-2
Scans to average: 1
启用暗噪声校正: true
启用非线性校正: false
滑动平均宽度: 0
X轴模式: Wavelengths
Number of Pixels in Spectrum: 1044
>>>>>Begin Spectral Data<<<<<
220.843	3.62
221.644	-0.38
222.444	1.62
223.244	-1.38
224.045	0.62
224.845	1.62
225.645	0.62
226.445	0.62
227.245	0.62
228.045	3.62
228.845	1.62
229.645	1.62
230.444	2.62
231.244	2.62
232.043	1.62
232.843	2.62
233.642	4.62
234.442	2.62
235.241	4.62
236.04	3.62
236.839	1.62
237.638	1.62
238.437	4.62
239.236	2.62
240.035	1.62
240.833	6.62
241.632	6.62
242.43	1.62
243.229	5.62
244.027	4.62
244.826	5.62
245.624	3.62
246.422	4.62
247.22	6.62
248.018	6.62
248.816	5.62
249.614	5.62
250.412	9.62
251.21	5.62
252.007	5.62
252.805	5.62
253.602	6.62
254.4	8.62
255.197	4.62
255.994	6.62
256.791	8.62
257.589	6.62
258.386	7.62
259.183	8.62
259.979	6.62
260.776	7.62
261.573	9.62
262.37	9.62
263.166	11.62
263.963	11.62
264.759	11.62
265.556	12.62
266.352	11.62
267.148	10.62
267.944	12.62
268.74	11.62
269.536	11.62
270.332	11.62
271.128	15.62
271.924	15.62
272.719	14.62
273.515	14.62
274.311	14.62
275.106	16.62
275.901	17.62
276.697	14.62
277.492	17.62
278.287	16.62
279.082	18.62
279.877	15.62
280.672	17.62
281.467	17.62
282.262	18.62
283.056	18.62
283.851	17.62
284.646	17.62
285.44	17.62
286.234	16.62
287.029	17.62
287.823	19.62
288.617	19.62
289.411	17.62
290.205	16.62
290.999	17.62
291.793	17.62
292.587	15.62
293.381	15.62
294.174	16.62
294.968	17.62
295.761	12.62
296.555	15.62
297.348	13.62
298.141	13.62
298.935	16.62
299.728	11.62
300.521	14.62
301.314	14.62
302.107	14.62
302.899	11.62
303.692	12.62
304.485	12.62
305.277	13.62
306.07	11.62
306.862	13.62
307.655	9.62
308.447	11.62
309.239	13.62
310.031	10.62
310.823	10.62
311.615	10.62
312.407	6.62
313.199	9.62
313.991	7.62
314.783	10.62
315.574	6.62
316.366	8.62
317.157	5.62
317.949	7.62
318.74	7.62
319.531	7.62
320.322	8.62
321.113	6.62
321.904	7.62
322.695	4.62
323.486	6.62
324.277	6.62
325.068	6.62
325.858	6.62
326.649	6.62
327.439	7.62
328.23	6.62
329.02	6.62
329.81	5.62
330.6	6.62
331.391	5.62
332.181	3.62
332.971	4.62
333.76	7.62
334.55	5.62
335.34	8.62
336.13	7.62
336.919	6.62
337.709	6.62
338.498	5.62
339.287	6.62
340.077	5.62
340.866	8.62
341.655	6.62
342.444	4.62
343.233	8.62
344.022	4.62
344.811	7.62
345.6	5.62
346.388	7.62
347.177	6.62
347.965	3.62
348.754	6.62
349.542	8.62
350.33	4.62
351.119	7.62
351.907	6.62
352.695	5.62
353.483	4.62
354.271	3.62
355.059	4.62
355.846	2.62
356.634	5.62
357.422	4.62
358.209	4.62
358.997	3.62
359.784	7.62
360.571	5.62
361.359	3.62
362.146	3.62
362.933	4.62
363.72	6.62
364.507	3.62
365.294	5.62
366.081	5.62
366.867	1.62
367.654	6.62
368.44	3.62
369.227	3.62
370.013	3.62
370.8	4.62
371.586	5.62
372.372	2.62
373.158	4.62
373.944	4.62
374.73	5.62
375.516	6.62
376.302	4.62
377.088	2.62
377.873	4.62
378.659	5.62
379.445	4.62
380.23	4.62
381.015	6.62
381.801	4.62
382.586	4.62
383.371	4.62
384.156	7.62
384.941	2.62
385.726	5.62
386.511	4.62
387.296	4.62
388.08	7.62
388.865	3.62
389.649	3.62
390.434	6.62
391.218	3.62
392.003	7.62
392.787	5.62
393.571	6.62
394.355	5.62
395.139	4.62
395.923	7.62
396.707	6.62
397.491	5.62
398.274	5.62
399.058	8.62
399.842	5.62
400.625	5.62
401.408	6.62
402.192	6.62
402.975	7.62
403.758	5.62
404.541	6.62
405.324	7.62
406.107	5.62
406.89	6.62
407.673	9.62
408.456	8.62
409.238	5.62
410.021	7.62
410.803	5.62
411.586	9.62
412.368	8.62
413.151	8.62
413.933	9.62
414.715	7.62
415.497	7.62
416.279	9.62
417.061	7.62
417.843	10.62
418.624	8.62
419.406	8.62
420.188	9.62
420.969	11.62
421.751	9.62
422.532	9.62
423.313	11.62
424.095	9.62
424.876	11.62
425.657	13.62
426.438	10.62
427.219	11.62
428	11.62
428.78	14.62
429.561	13.62
430.342	13.62
431.122	14.62
431.903	13.62
432.683	14.62
433.464	16.62
434.244	17.62
435.024	17.62
435.804	13.62
436.584	18.62
437.364	18.62
438.144	20.62
438.924	17.62
439.704	20.62
440.483	23.62
441.263	26.62
442.042	25.62
442.822	23.62
443.601	33.62
444.38	31.62
445.16	32.62
445.939	32.62
446.718	38.62
447.497	40.62
448.276	42.62
449.054	47.62
449.833	48.62
450.612	56.62
451.391	55.62
452.169	67.62
452.948	73.62
453.726	77.62
454.504	86.62
455.282	96.62
456.061	99.62
456.839	115.62
457.617	130.62
458.395	143.62
459.172	158.62
459.95	176.62
460.728	199.62
461.506	216.62
462.283	249.62
463.061	266.62
463.838	307.62
464.615	342.62
465.393	374.62
466.17	424.62
466.947	468.62
467.724	528.62
468.501	579.62
469.278	647.62
470.055	716.62
470.831	788.62
471.608	880.62
472.385	980.62
473.161	1070.62
473.938	1197.62
474.714	1326.62
475.49	1457.62
476.266	1606.62
477.043	1773.62
477.819	1949.62
478.595	2122.62
479.371	2348.62
480.146	2575.62
480.922	2838.62
481.698	3115.62
482.473	3405.62
483.249	3769.62
484.024	4095.62
484.8	4497.62
485.575	4931.62
486.35	5396.62
487.126	5897.62
487.901	6410.62
488.676	7035.62
489.451	7663.62
490.225	8376.62
491	9117.62
491.775	9920.62
492.55	10778.62
493.324	11673.62
494.099	12495.62
494.873	13430.62
495.647	14512.62
496.422	15604.62
497.196	16672.62
497.97	17771.62
498.744	18856.62
499.518	19959.62
500.292	21075.62
501.066	22174.62
501.839	23012.62
502.613	23973.62
503.387	24860.62
504.16	25438.62
504.934	25881.62
505.707	26180.62
506.48	26354.62
507.253	26395.62
508.027	26300.62
508.8	26160.62
509.573	25793.62
510.346	25386.62
511.118	24748.62
511.891	23996.62
512.664	23354.62
513.437	22497.62
514.209	21640.62
514.982	20828.62
515.754	19923.62
516.526	19133.62
517.298	18321.62
518.071	17534.62
518.843	16814.62
519.615	16214.62
520.387	15598.62
521.159	14981.62
521.93	14331.62
522.702	13840.62
523.474	13187.62
524.245	12617.62
525.017	12138.62
525.788	11657.62
526.56	11125.62
527.331	10648.62
528.102	10183.62
528.873	9731.62
529.644	9248.62
530.415	8815.62
531.186	8392.62
531.957	7949.62
532.728	7585.62
533.498	7216.62
534.269	6790.62
535.039	6431.62
535.81	6077.62
536.58	5764.62
537.351	5376.62
538.121	5136.62
538.891	4856.62
539.661	4620.62
540.431	4326.62
541.201	4078.62
541.971	3860.62
542.741	3655.62
543.51	3509.62
544.28	3323.62
545.05	3155.62
545.819	3006.62
546.588	2832.62
547.358	2725.62
548.127	2588.62
548.896	2440.62
549.665	2345.62
550.434	2210.62
551.203	2090.62
551.972	1979.62
552.741	1865.62
553.51	1775.62
554.278	1663.62
555.047	1589.62
555.815	1502.62
556.584	1408.62
557.352	1324.62
558.121	1272.62
558.889	1184.62
559.657	1127.62
560.425	1060.62
561.193	1006.62
561.961	935.62
562.729	896.62
563.496	828.62
564.264	796.62
565.032	750.62
565.799	711.62
566.567	679.62
567.334	637.62
568.101	593.62
568.869	571.62
569.636	539.62
570.403	498.62
571.17	476.62
571.937	450.62
572.704	428.62
573.471	396.62
574.237	372.62
575.004	356.62
575.771	335.62
576.537	308.62
577.303	294.62
578.07	279.62
578.836	263.62
579.602	247.62
580.368	238.62
581.134	221.62
581.9	212.62
582.666	204.62
583.432	185.62
584.198	180.62
584.964	171.62
585.729	159.62
586.495	156.62
587.26	145.62
588.025	137.62
588.791	134.62
589.556	119.62
590.321	116.62
591.086	112.62
591.851	107.62
592.616	99.62
593.381	95.62
594.146	88.62
594.911	86.62
595.675	82.62
596.44	76.62
597.204	71.62
597.969	71.62
598.733	68.62
599.497	65.62
600.261	63.62
601.025	57.62
601.79	55.62
602.553	53.62
603.317	53.62
604.081	49.62
604.845	46.62
605.609	47.62
606.372	42.62
607.136	40.62
607.899	36.62
608.662	36.62
609.426	37.62
610.189	36.62
610.952	32.62
611.715	33.62
612.478	28.62
613.241	31.62
614.004	29.62
614.767	27.62
615.529	27.62
616.292	26.62
617.055	20.62
617.817	23.62
618.579	23.62
619.342	21.62
620.104	19.62
620.866	21.62
621.628	19.62
622.39	19.62
623.152	17.62
623.914	17.62
624.676	19.62
625.438	17.62
626.199	14.62
626.961	17.62
627.722	16.62
628.484	15.62
629.245	11.62
630.006	14.62
630.768	14.62
631.529	12.62
632.29	11.62
633.051	9.62
633.812	11.62
634.573	9.62
635.333	12.62
636.094	10.62
636.855	10.62
637.615	9.62
638.376	10.62
639.136	10.62
639.896	7.62
640.657	11.62
641.417	10.62
642.177	6.62
642.937	9.62
643.697	8.62
644.457	7.62
645.216	8.62
645.976	8.62
646.736	6.62
647.495	6.62
648.255	8.62
649.014	8.62
649.774	6.62
650.533	7.62
651.292	6.62
652.051	6.62
652.81	5.62
653.569	7.62
654.328	8.62
655.087	3.62
655.846	6.62
656.604	6.62
657.363	5.62
658.121	6.62
658.88	6.62
659.638	5.62
660.397	3.62
661.155	5.62
661.913	3.62
662.671	7.62
663.429	2.62
664.187	2.62
664.945	6.62
665.703	3.62
666.46	4.62
667.218	6.62
667.976	6.62
668.733	4.62
669.49	4.62
670.248	5.62
671.005	4.62
671.762	5.62
672.519	3.62
673.276	4.62
674.033	5.62
674.79	3.62
675.547	3.62
676.304	6.62
677.06	3.62
677.817	3.62
678.574	6.62
679.33	3.62
680.086	4.62
680.843	3.62
681.599	3.62
682.355	3.62
683.111	2.62
683.867	2.62
684.623	3.62
685.379	1.62
686.135	6.62
686.89	4.62
687.646	3.62
688.402	2.62
689.157	2.62
689.912	3.62
690.668	0.62
691.423	5.62
692.178	3.62
692.933	4.62
693.688	2.62
694.443	2.62
695.198	1.62
695.953	2.62
696.708	2.62
697.462	4.62
698.217	3.62
698.972	2.62
699.726	3.62
700.48	2.62
701.235	2.62
701.989	3.62
702.743	3.62
703.497	4.62
704.251	4.62
705.005	1.62
705.759	2.62
706.513	3.62
707.266	4.62
708.02	6.62
708.774	1.62
709.527	4.62
710.28	3.62
711.034	3.62
711.787	3.62
712.54	2.62
713.293	1.62
714.046	2.62
714.799	4.62
715.552	4.62
716.305	2.62
717.058	5.62
717.81	3.62
718.563	3.62
719.315	1.62
720.068	3.62
720.82	3.62
721.573	0.62
722.325	4.62
723.077	2.62
723.829	2.62
724.581	2.62
725.333	1.62
726.085	3.62
726.836	4.62
727.588	0.62
728.34	3.62
729.091	3.62
729.843	4.62
730.594	3.62
731.346	4.62
732.097	2.62
732.848	3.62
733.599	2.62
734.35	5.62
735.101	3.62
735.852	5.62
736.603	3.62
737.354	5.62
738.104	5.62
738.855	4.62
739.605	2.62
740.356	6.62
741.106	3.62
741.856	4.62
742.607	4.62
743.357	5.62
744.107	3.62
744.857	4.62
745.607	5.62
746.357	3.62
747.106	7.62
747.856	3.62
748.606	4.62
749.355	4.62
750.105	3.62
750.854	5.62
751.603	3.62
752.353	5.62
753.102	4.62
753.851	3.62
754.6	4.62
755.349	5.62
756.098	5.62
756.847	4.62
757.595	4.62
758.344	6.62
759.093	3.62
759.841	7.62
760.589	5.62
761.338	6.62
762.086	5.62
762.834	7.62
763.582	4.62
764.331	7.62
765.079	7.62
765.826	6.62
766.574	7.62
767.322	5.62
768.07	5.62
768.817	8.62
769.565	7.62
770.312	5.62
771.06	4.62
771.807	7.62
772.554	6.62
773.302	8.62
774.049	8.62
774.796	7.62
775.543	8.62
776.29	9.62
777.036	8.62
777.783	8.62
778.53	7.62
779.276	6.62
780.023	6.62
780.769	7.62
781.516	8.62
782.262	7.62
783.008	9.62
783.754	9.62
784.5	10.62
785.246	8.62
785.992	7.62
786.738	8.62
787.484	9.62
788.23	8.62
788.975	9.62
789.721	7.62
790.466	6.62
791.212	7.62
791.957	7.62
792.702	7.62
793.447	8.62
794.193	5.62
794.938	7.62
795.683	7.62
796.427	7.62
797.172	6.62
797.917	8.62
798.662	5.62
799.406	8.62
800.151	7.62
800.895	7.62
801.64	6.62
802.384	5.62
803.128	5.62
803.872	6.62
804.616	6.62
805.36	6.62
806.104	5.62
806.848	6.62
807.592	5.62
808.336	4.62
809.079	3.62
809.823	2.62
810.566	7.62
811.31	4.62
812.053	5.62
812.796	4.62
813.539	2.62
814.283	4.62
815.026	4.62
815.769	6.62
816.511	5.62
817.254	6.62
817.997	3.62
818.74	2.62
819.482	6.62
820.225	3.62
820.967	5.62
821.71	2.62
822.452	2.62
823.194	6.62
823.936	5.62
824.678	2.62
825.42	5.62
826.162	3.62
826.904	4.62
827.646	0.62
828.388	4.62
829.129	2.62
829.871	5.62
830.612	2.62
831.354	3.62
832.095	5.62
832.836	1.62
833.577	1.62
834.319	2.62
835.06	1.62
835.801	4.62
836.542	2.62
837.282	3.62
838.023	2.62
838.764	5.62
839.504	1.62
840.245	1.62
840.985	2.62
841.726	4.62
842.466	3.62
843.206	1.62
843.946	3.62
844.687	3.62
845.427	3.62
846.166	2.62
846.906	3.62
847.646	4.62
848.386	4.62
849.125	2.62
849.865	2.62
850.605	2.62
851.344	3.62
852.083	0.62
852.823	3.62
853.562	3.62
854.301	1.62
855.04	4.62
855.779	2.62
856.518	1.62
857.257	1.62
857.995	-0.38
858.734	0.62
859.473	2.62
860.211	0.62
860.95	2.62
861.688	1.62
862.426	0.62
863.165	3.62
863.903	0.62
864.641	3.62
865.379	1.62
866.117	1.62
866.855	2.62
867.593	0.62
868.33	0.62
869.068	1.62
869.806	0.62
870.543	1.62
871.28	-0.38
872.018	2.62
872.755	0.62
873.492	1.62
874.229	0.62
874.967	3.62
875.703	1.62
876.44	-0.38
877.177	-0.38
877.914	1.62
878.651	-0.38
879.387	-1.38
880.124	-0.38
880.86	0.62
881.597	-0.38
882.333	3.62
883.069	1.62
883.806	0.62
884.542	0.62
885.278	0.62
886.014	1.62
886.749	-0.38
887.485	1.62
888.221	-1.38
888.957	1.62
889.692	1.62
890.428	0.62
891.163	-0.38
891.899	0.62
892.634	2.62
893.369	0.62
894.104	-0.38
894.839	0.62
895.574	0.62
896.309	1.62
897.044	0.62
897.779	-0.38
898.514	-1.38
899.248	1.62
899.983	2.62
900.717	0.62
901.452	0.62
902.186	0.62
902.92	-0.38
903.654	1.62
904.389	1.62
905.123	-0.38
905.857	-1.38
906.59	-2.38
907.324	-0.38
908.058	-1.38
908.792	-0.38
909.525	1.62
910.259	1.62
910.992	-1.38
911.726	1.62
912.459	1.62
913.192	-0.38
913.925	2.62
914.658	0.62
915.391	-0.38
916.124	0.62
916.857	1.62
917.59	-0.38
918.323	0.62
919.055	1.62
919.788	-0.38
920.521	-0.38
921.253	-1.38
921.985	0.62
922.718	0.62
923.45	-0.38
924.182	0.62
924.914	-1.38
925.646	-0.38
926.378	1.62
927.11	-1.38
927.841	-1.38
928.573	0.62
929.305	0.62
930.036	-1.38
930.768	-1.38
931.499	-1.38
932.23	-2.38
932.962	1.62
933.693	1.62
934.424	-0.38
935.155	-2.38
935.886	0.62
936.617	0.62
937.348	-0.38
938.078	0.62
938.809	-1.38
939.54	0.62
940.27	0.62
941.001	-1.38
941.731	0.62
942.461	-0.38
943.191	1.62
943.922	3.62
944.652	0.62
945.382	-0.38
946.112	-0.38
946.841	1.62
947.571	-0.38
948.301	0.62
949.031	0.62
949.76	0.62
950.49	0.62
951.219	1.62
951.948	1.62
952.678	-1.38
953.407	-0.38
954.136	0.62
954.865	0.62
955.594	1.62
956.323	0.62
957.052	1.62
957.78	1.62
958.509	-0.38
959.238	0.62
959.966	-1.38
960.695	-0.38
961.423	0.62
962.151	0.62
962.88	-1.38
963.608	0.62
964.336	-0.38
965.064	0.62
965.792	0.62
966.52	-1.38
967.247	-0.38
967.975	1.62
968.703	-0.38
969.43	1.62
970.158	-1.38
970.885	0.62
971.613	1.62
972.34	-0.38
973.067	-1.38
973.794	-1.38
974.521	0.62
975.248	-2.38
975.975	0.62
976.702	0.62
977.429	-2.38
978.156	1.62
978.882	-1.38
979.609	0.62
980.335	1.62
981.062	1.62
981.788	-0.38
982.514	0.62
983.24	0.62
983.967	-0.38
984.693	-2.38
985.419	0.62
986.144	2.62
986.87	-0.38
987.596	0.62
988.322	-1.38
989.047	-2.38
989.773	0.62
990.498	0.62
991.224	1.62
991.949	0.62
992.674	-3.38
993.399	-2.38
994.124	-0.38
994.849	0.62
995.574	0.62
996.299	-0.38
997.024	-0.38
997.749	-0.38
998.473	-0.38
999.198	-0.38
999.922	0.62
1000.647	1.62
1001.371	2.62
1002.095	-2.38
1002.82	-1.38
1003.544	-1.38
1004.268	2.62
1004.992	2.62
1005.716	-0.38
1006.439	1.62
1007.163	0.62
1007.887	0.62
1008.611	2.62
1009.334	0.62
1010.058	-0.38
1010.781	1.62
1011.504	-0.38
1012.228	0.62
1012.951	0.62
1013.674	0.62
1014.397	2.62
1015.12	-1.38
