节点500_285_QEPB04081__235__14-59-27-963.txt的数据

Date: Wed Nov 12 14:59:27 CST 2025
User: PC
Spectrometer: QEPB0408
触发模式: 0
积分时间 (秒): 1.000000E-2
Scans to average: 1
启用暗噪声校正: true
启用非线性校正: false
滑动平均宽度: 0
X轴模式: Wavelengths
Number of Pixels in Spectrum: 1044
>>>>>Begin Spectral Data<<<<<
220.843	2.38
221.644	0.38
222.444	1.38
223.244	2.38
224.045	0.38
224.845	3.38
225.645	1.38
226.445	2.38
227.245	4.38
228.045	4.38
228.845	0.38
229.645	2.38
230.444	4.38
231.244	4.38
232.043	5.38
232.843	2.38
233.642	3.38
234.442	5.38
235.241	5.38
236.04	4.38
236.839	2.38
237.638	5.38
238.437	5.38
239.236	3.38
240.035	6.38
240.833	2.38
241.632	4.38
242.43	5.38
243.229	4.38
244.027	5.38
244.826	6.38
245.624	3.38
246.422	5.38
247.22	4.38
248.018	5.38
248.816	7.38
249.614	7.38
250.412	4.38
251.21	6.38
252.007	8.38
252.805	7.38
253.602	7.38
254.4	7.38
255.197	9.38
255.994	9.38
256.791	7.38
257.589	10.38
258.386	7.38
259.183	8.38
259.979	9.38
260.776	11.38
261.573	11.38
262.37	9.38
263.166	11.38
263.963	13.38
264.759	10.38
265.556	11.38
266.352	10.38
267.148	13.38
267.944	13.38
268.74	14.38
269.536	15.38
270.332	15.38
271.128	14.38
271.924	17.38
272.719	16.38
273.515	17.38
274.311	16.38
275.106	17.38
275.901	15.38
276.697	20.38
277.492	16.38
278.287	18.38
279.082	19.38
279.877	16.38
280.672	20.38
281.467	21.38
282.262	17.38
283.056	18.38
283.851	19.38
284.646	17.38
285.44	20.38
286.234	21.38
287.029	20.38
287.823	20.38
288.617	17.38
289.411	17.38
290.205	17.38
290.999	17.38
291.793	18.38
292.587	17.38
293.381	19.38
294.174	17.38
294.968	17.38
295.761	18.38
296.555	13.38
297.348	16.38
298.141	13.38
298.935	16.38
299.728	13.38
300.521	14.38
301.314	13.38
302.107	13.38
302.899	16.38
303.692	10.38
304.485	11.38
305.277	11.38
306.07	12.38
306.862	13.38
307.655	12.38
308.447	12.38
309.239	11.38
310.031	7.38
310.823	10.38
311.615	10.38
312.407	11.38
313.199	11.38
313.991	8.38
314.783	10.38
315.574	7.38
316.366	9.38
317.157	10.38
317.949	7.38
318.74	9.38
319.531	8.38
320.322	7.38
321.113	8.38
321.904	9.38
322.695	8.38
323.486	8.38
324.277	7.38
325.068	4.38
325.858	8.38
326.649	8.38
327.439	4.38
328.23	5.38
329.02	4.38
329.81	7.38
330.6	7.38
331.391	7.38
332.181	4.38
332.971	7.38
333.76	6.38
334.55	5.38
335.34	7.38
336.13	8.38
336.919	6.38
337.709	6.38
338.498	6.38
339.287	7.38
340.077	6.38
340.866	4.38
341.655	5.38
342.444	9.38
343.233	6.38
344.022	4.38
344.811	7.38
345.6	4.38
346.388	8.38
347.177	4.38
347.965	3.38
348.754	7.38
349.542	4.38
350.33	8.38
351.119	6.38
351.907	6.38
352.695	3.38
353.483	5.38
354.271	6.38
355.059	4.38
355.846	7.38
356.634	6.38
357.422	5.38
358.209	4.38
358.997	5.38
359.784	3.38
360.571	5.38
361.359	5.38
362.146	5.38
362.933	4.38
363.72	7.38
364.507	5.38
365.294	7.38
366.081	6.38
366.867	4.38
367.654	7.38
368.44	6.38
369.227	5.38
370.013	4.38
370.8	6.38
371.586	5.38
372.372	4.38
373.158	4.38
373.944	1.38
374.73	5.38
375.516	5.38
376.302	4.38
377.088	5.38
377.873	5.38
378.659	8.38
379.445	4.38
380.23	6.38
381.015	7.38
381.801	6.38
382.586	6.38
383.371	4.38
384.156	4.38
384.941	5.38
385.726	6.38
386.511	5.38
387.296	4.38
388.08	5.38
388.865	7.38
389.649	6.38
390.434	5.38
391.218	5.38
392.003	7.38
392.787	4.38
393.571	4.38
394.355	6.38
395.139	5.38
395.923	7.38
396.707	6.38
397.491	6.38
398.274	7.38
399.058	7.38
399.842	5.38
400.625	6.38
401.408	7.38
402.192	4.38
402.975	6.38
403.758	7.38
404.541	5.38
405.324	8.38
406.107	5.38
406.89	8.38
407.673	8.38
408.456	6.38
409.238	7.38
410.021	8.38
410.803	9.38
411.586	8.38
412.368	10.38
413.151	9.38
413.933	8.38
414.715	8.38
415.497	9.38
416.279	10.38
417.061	9.38
417.843	9.38
418.624	7.38
419.406	11.38
420.188	12.38
420.969	9.38
421.751	11.38
422.532	11.38
423.313	12.38
424.095	11.38
424.876	10.38
425.657	13.38
426.438	11.38
427.219	12.38
428	10.38
428.78	15.38
429.561	12.38
430.342	11.38
431.122	15.38
431.903	13.38
432.683	13.38
433.464	15.38
434.244	14.38
435.024	16.38
435.804	18.38
436.584	18.38
437.364	16.38
438.144	21.38
438.924	21.38
439.704	20.38
440.483	24.38
441.263	22.38
442.042	25.38
442.822	24.38
443.601	26.38
444.38	27.38
445.16	32.38
445.939	35.38
446.718	33.38
447.497	37.38
448.276	41.38
449.054	40.38
449.833	47.38
450.612	51.38
451.391	54.38
452.169	63.38
452.948	63.38
453.726	73.38
454.504	79.38
455.282	91.38
456.061	98.38
456.839	105.38
457.617	118.38
458.395	130.38
459.172	151.38
459.95	163.38
460.728	184.38
461.506	201.38
462.283	217.38
463.061	250.38
463.838	277.38
464.615	315.38
465.393	351.38
466.17	387.38
466.947	433.38
467.724	487.38
468.501	542.38
469.278	601.38
470.055	682.38
470.831	752.38
471.608	843.38
472.385	932.38
473.161	1030.38
473.938	1161.38
474.714	1279.38
475.49	1411.38
476.266	1560.38
477.043	1736.38
477.819	1909.38
478.595	2126.38
479.371	2347.38
480.146	2593.38
480.922	2866.38
481.698	3160.38
482.473	3481.38
483.249	3834.38
484.024	4235.38
484.8	4689.38
485.575	5157.38
486.35	5674.38
487.126	6203.38
487.901	6831.38
488.676	7513.38
489.451	8220.38
490.225	9000.38
491	9801.38
491.775	10752.38
492.55	11739.38
493.324	12769.38
494.099	13745.38
494.873	14790.38
495.647	15997.38
496.422	17221.38
497.196	18383.38
497.97	19680.38
498.744	20843.38
499.518	22043.38
500.292	23197.38
501.066	24355.38
501.839	25203.38
502.613	26064.38
503.387	26905.38
504.16	27406.38
504.934	27813.38
505.707	27857.38
506.48	27923.38
507.253	27771.38
508.027	27449.38
508.8	27097.38
509.573	26595.38
510.346	25856.38
511.118	25083.38
511.891	24288.38
512.664	23325.38
513.437	22479.38
514.209	21494.38
514.982	20637.38
515.754	19713.38
516.526	18776.38
517.298	17920.38
518.071	17191.38
518.843	16462.38
519.615	15885.38
520.387	15212.38
521.159	14623.38
521.93	14044.38
522.702	13467.38
523.474	12934.38
524.245	12368.38
525.017	11862.38
525.788	11402.38
526.56	10867.38
527.331	10355.38
528.102	9853.38
528.873	9411.38
529.644	8931.38
530.415	8545.38
531.186	8062.38
531.957	7646.38
532.728	7242.38
533.498	6878.38
534.269	6524.38
535.039	6107.38
535.81	5779.38
536.58	5464.38
537.351	5113.38
538.121	4878.38
538.891	4586.38
539.661	4350.38
540.431	4098.38
541.201	3876.38
541.971	3697.38
542.741	3487.38
543.51	3304.38
544.28	3147.38
545.05	2987.38
545.819	2852.38
546.588	2705.38
547.358	2571.38
548.127	2445.38
548.896	2309.38
549.665	2211.38
550.434	2096.38
551.203	1982.38
551.972	1863.38
552.741	1750.38
553.51	1677.38
554.278	1582.38
555.047	1489.38
555.815	1401.38
556.584	1324.38
557.352	1253.38
558.121	1176.38
558.889	1107.38
559.657	1037.38
560.425	982.38
561.193	929.38
561.961	879.38
562.729	824.38
563.496	792.38
564.264	737.38
565.032	701.38
565.799	671.38
566.567	628.38
567.334	590.38
568.101	552.38
568.869	531.38
569.636	504.38
570.403	469.38
571.17	441.38
571.937	424.38
572.704	397.38
573.471	374.38
574.237	353.38
575.004	332.38
575.771	315.38
576.537	294.38
577.303	279.38
578.07	266.38
578.836	239.38
579.602	227.38
580.368	216.38
581.134	209.38
581.9	194.38
582.666	187.38
583.432	173.38
584.198	167.38
584.964	156.38
585.729	151.38
586.495	145.38
587.26	137.38
588.025	129.38
588.791	123.38
589.556	109.38
590.321	109.38
591.086	104.38
591.851	100.38
592.616	95.38
593.381	88.38
594.146	83.38
594.911	78.38
595.675	75.38
596.44	72.38
597.204	69.38
597.969	65.38
598.733	62.38
599.497	61.38
600.261	58.38
601.025	56.38
601.79	52.38
602.553	48.38
603.317	50.38
604.081	47.38
604.845	44.38
605.609	44.38
606.372	41.38
607.136	42.38
607.899	35.38
608.662	36.38
609.426	33.38
610.189	33.38
610.952	36.38
611.715	31.38
612.478	31.38
613.241	24.38
614.004	28.38
614.767	27.38
615.529	23.38
616.292	25.38
617.055	21.38
617.817	25.38
618.579	21.38
619.342	23.38
620.104	20.38
620.866	19.38
621.628	19.38
622.39	18.38
623.152	19.38
623.914	18.38
624.676	16.38
625.438	16.38
626.199	16.38
626.961	17.38
627.722	14.38
628.484	15.38
629.245	13.38
630.006	16.38
630.768	13.38
631.529	12.38
632.29	14.38
633.051	14.38
633.812	12.38
634.573	13.38
635.333	13.38
636.094	12.38
636.855	9.38
637.615	9.38
638.376	13.38
639.136	11.38
639.896	7.38
640.657	9.38
641.417	11.38
642.177	10.38
642.937	9.38
643.697	6.38
644.457	7.38
645.216	8.38
645.976	6.38
646.736	10.38
647.495	8.38
648.255	8.38
649.014	9.38
649.774	6.38
650.533	8.38
651.292	6.38
652.051	6.38
652.81	4.38
653.569	6.38
654.328	7.38
655.087	6.38
655.846	9.38
656.604	6.38
657.363	7.38
658.121	5.38
658.88	3.38
659.638	4.38
660.397	5.38
661.155	6.38
661.913	4.38
662.671	6.38
663.429	5.38
664.187	6.38
664.945	3.38
665.703	4.38
666.46	5.38
667.218	4.38
667.976	3.38
668.733	6.38
669.49	6.38
670.248	1.38
671.005	7.38
671.762	5.38
672.519	4.38
673.276	2.38
674.033	4.38
674.79	4.38
675.547	4.38
676.304	2.38
677.06	3.38
677.817	4.38
678.574	4.38
679.33	5.38
680.086	3.38
680.843	4.38
681.599	3.38
682.355	4.38
683.111	5.38
683.867	4.38
684.623	4.38
685.379	4.38
686.135	4.38
686.89	3.38
687.646	4.38
688.402	3.38
689.157	3.38
689.912	6.38
690.668	4.38
691.423	1.38
692.178	5.38
692.933	4.38
693.688	4.38
694.443	4.38
695.198	3.38
695.953	3.38
696.708	2.38
697.462	4.38
698.217	3.38
698.972	2.38
699.726	4.38
700.48	3.38
701.235	5.38
701.989	1.38
702.743	3.38
703.497	4.38
704.251	3.38
705.005	2.38
705.759	2.38
706.513	5.38
707.266	4.38
708.02	3.38
708.774	3.38
709.527	2.38
710.28	4.38
711.034	2.38
711.787	3.38
712.54	3.38
713.293	4.38
714.046	3.38
714.799	4.38
715.552	4.38
716.305	3.38
717.058	4.38
717.81	3.38
718.563	3.38
719.315	3.38
720.068	3.38
720.82	4.38
721.573	1.38
722.325	6.38
723.077	2.38
723.829	3.38
724.581	4.38
725.333	4.38
726.085	3.38
726.836	5.38
727.588	3.38
728.34	4.38
729.091	6.38
729.843	5.38
730.594	4.38
731.346	4.38
732.097	4.38
732.848	4.38
733.599	5.38
734.35	2.38
735.101	4.38
735.852	5.38
736.603	4.38
737.354	5.38
738.104	5.38
738.855	4.38
739.605	3.38
740.356	5.38
741.106	3.38
741.856	4.38
742.607	7.38
743.357	4.38
744.107	3.38
744.857	3.38
745.607	5.38
746.357	4.38
747.106	3.38
747.856	3.38
748.606	5.38
749.355	6.38
750.105	3.38
750.854	4.38
751.603	7.38
752.353	4.38
753.102	5.38
753.851	4.38
754.6	6.38
755.349	2.38
756.098	5.38
756.847	6.38
757.595	3.38
758.344	3.38
759.093	7.38
759.841	7.38
760.589	6.38
761.338	5.38
762.086	5.38
762.834	5.38
763.582	7.38
764.331	5.38
765.079	5.38
765.826	9.38
766.574	6.38
767.322	6.38
768.07	6.38
768.817	9.38
769.565	7.38
770.312	6.38
771.06	8.38
771.807	5.38
772.554	6.38
773.302	7.38
774.049	7.38
774.796	7.38
775.543	5.38
776.29	7.38
777.036	7.38
777.783	7.38
778.53	8.38
779.276	10.38
780.023	9.38
780.769	8.38
781.516	8.38
782.262	7.38
783.008	9.38
783.754	8.38
784.5	9.38
785.246	6.38
785.992	9.38
786.738	10.38
787.484	9.38
788.23	10.38
788.975	8.38
789.721	9.38
790.466	9.38
791.212	6.38
791.957	8.38
792.702	6.38
793.447	7.38
794.193	8.38
794.938	9.38
795.683	10.38
796.427	9.38
797.172	8.38
797.917	7.38
798.662	5.38
799.406	6.38
800.151	7.38
800.895	7.38
801.64	8.38
802.384	8.38
803.128	7.38
803.872	8.38
804.616	7.38
805.36	7.38
806.104	5.38
806.848	3.38
807.592	5.38
808.336	7.38
809.079	3.38
809.823	7.38
810.566	9.38
811.31	5.38
812.053	5.38
812.796	3.38
813.539	5.38
814.283	7.38
815.026	4.38
815.769	7.38
816.511	3.38
817.254	5.38
817.997	3.38
818.74	5.38
819.482	5.38
820.225	4.38
820.967	5.38
821.71	2.38
822.452	4.38
823.194	3.38
823.936	4.38
824.678	5.38
825.42	6.38
826.162	2.38
826.904	2.38
827.646	2.38
828.388	2.38
829.129	3.38
829.871	1.38
830.612	2.38
831.354	5.38
832.095	3.38
832.836	2.38
833.577	4.38
834.319	2.38
835.06	2.38
835.801	5.38
836.542	5.38
837.282	4.38
838.023	2.38
838.764	3.38
839.504	2.38
840.245	1.38
840.985	1.38
841.726	3.38
842.466	0.38
843.206	3.38
843.946	1.38
844.687	6.38
845.427	2.38
846.166	2.38
846.906	3.38
847.646	4.38
848.386	2.38
849.125	5.38
849.865	5.38
850.605	3.38
851.344	4.38
852.083	2.38
852.823	2.38
853.562	1.38
854.301	2.38
855.04	1.38
855.779	0.38
856.518	2.38
857.257	1.38
857.995	2.38
858.734	1.38
859.473	1.38
860.211	1.38
860.95	2.38
861.688	2.38
862.426	1.38
863.165	2.38
863.903	3.38
864.641	3.38
865.379	1.38
866.117	2.38
866.855	0.38
867.593	2.38
868.33	0.38
869.068	2.38
869.806	0.38
870.543	0.38
871.28	3.38
872.018	1.38
872.755	1.38
873.492	1.38
874.229	0.38
874.967	1.38
875.703	2.38
876.44	-0.62
877.177	1.38
877.914	-0.62
878.651	1.38
879.387	0.38
880.124	2.38
880.86	3.38
881.597	0.38
882.333	-1.62
883.069	0.38
883.806	0.38
884.542	2.38
885.278	1.38
886.014	1.38
886.749	-0.62
887.485	2.38
888.221	0.38
888.957	1.38
889.692	-0.62
890.428	3.38
891.163	2.38
891.899	-0.62
892.634	-0.62
893.369	2.38
894.104	1.38
894.839	1.38
895.574	1.38
896.309	1.38
897.044	1.38
897.779	-0.62
898.514	-2.62
899.248	-0.62
899.983	1.38
900.717	0.38
901.452	0.38
902.186	0.38
902.92	-0.62
903.654	0.38
904.389	-1.62
905.123	1.38
905.857	-0.62
906.59	1.38
907.324	-0.62
908.058	2.38
908.792	1.38
909.525	-0.62
910.259	0.38
910.992	0.38
911.726	1.38
912.459	-2.62
913.192	2.38
913.925	1.38
914.658	-0.62
915.391	1.38
916.124	1.38
916.857	0.38
917.59	0.38
918.323	-1.62
919.055	1.38
919.788	-0.62
920.521	-0.62
921.253	-0.62
921.985	1.38
922.718	1.38
923.45	0.38
924.182	2.38
924.914	1.38
925.646	1.38
926.378	1.38
927.11	-0.62
927.841	0.38
928.573	1.38
929.305	0.38
930.036	-0.62
930.768	1.38
931.499	-0.62
932.23	-0.62
932.962	-0.62
933.693	1.38
934.424	0.38
935.155	-0.62
935.886	-0.62
936.617	-0.62
937.348	1.38
938.078	1.38
938.809	0.38
939.54	1.38
940.27	0.38
941.001	-0.62
941.731	-0.62
942.461	-0.62
943.191	-0.62
943.922	1.38
944.652	0.38
945.382	1.38
946.112	-1.62
946.841	2.38
947.571	-2.62
948.301	-0.62
949.031	0.38
949.76	-1.62
950.49	0.38
951.219	-0.62
951.948	1.38
952.678	1.38
953.407	-0.62
954.136	-1.62
954.865	-0.62
955.594	1.38
956.323	0.38
957.052	0.38
957.78	-1.62
958.509	0.38
959.238	1.38
959.966	0.38
960.695	1.38
961.423	-0.62
962.151	0.38
962.88	1.38
963.608	-2.62
964.336	-0.62
965.064	0.38
965.792	-0.62
966.52	-0.62
967.247	-1.62
967.975	-1.62
968.703	0.38
969.43	1.38
970.158	-0.62
970.885	-0.62
971.613	-1.62
972.34	1.38
973.067	-0.62
973.794	0.38
974.521	0.38
975.248	-0.62
975.975	-0.62
976.702	0.38
977.429	-1.62
978.156	2.38
978.882	-0.62
979.609	-0.62
980.335	-0.62
981.062	0.38
981.788	1.38
982.514	-2.62
983.24	0.38
983.967	-2.62
984.693	0.38
985.419	-0.62
986.144	1.38
986.87	-0.62
987.596	0.38
988.322	-0.62
989.047	0.38
989.773	0.38
990.498	-0.62
991.224	-2.62
991.949	0.38
992.674	-0.62
993.399	2.38
994.124	-0.62
994.849	0.38
995.574	1.38
996.299	0.38
997.024	-0.62
997.749	-0.62
998.473	-2.62
999.198	-0.62
999.922	-2.62
1000.647	-0.62
1001.371	3.38
1002.095	-2.62
1002.82	-2.62
1003.544	-1.62
1004.268	3.38
1004.992	-1.62
1005.716	1.38
1006.439	3.38
1007.163	0.38
1007.887	3.38
1008.611	0.38
1009.334	-0.62
1010.058	-1.62
1010.781	-0.62
1011.504	1.38
1012.228	2.38
1012.951	1.38
1013.674	0.38
1014.397	0.38
1015.12	1.38
