节点500_285_QEPB04081__497__15-03-49-418.txt的数据

Date: Wed Nov 12 15:03:49 CST 2025
User: PC
Spectrometer: QEPB0408
触发模式: 0
积分时间 (秒): 1.000000E-2
Scans to average: 1
启用暗噪声校正: true
启用非线性校正: false
滑动平均宽度: 0
X轴模式: Wavelengths
Number of Pixels in Spectrum: 1044
>>>>>Begin Spectral Data<<<<<
220.843	2.12
221.644	1.12
222.444	2.12
223.244	2.12
224.045	3.12
224.845	2.12
225.645	-0.88
226.445	0.12
227.245	3.12
228.045	2.12
228.845	4.12
229.645	2.12
230.444	-0.88
231.244	3.12
232.043	3.12
232.843	2.12
233.642	3.12
234.442	3.12
235.241	4.12
236.04	4.12
236.839	2.12
237.638	5.12
238.437	1.12
239.236	3.12
240.035	4.12
240.833	6.12
241.632	3.12
242.43	5.12
243.229	3.12
244.027	4.12
244.826	4.12
245.624	7.12
246.422	6.12
247.22	7.12
248.018	6.12
248.816	8.12
249.614	5.12
250.412	9.12
251.21	5.12
252.007	7.12
252.805	10.12
253.602	7.12
254.4	7.12
255.197	7.12
255.994	9.12
256.791	10.12
257.589	8.12
258.386	9.12
259.183	6.12
259.979	10.12
260.776	8.12
261.573	10.12
262.37	10.12
263.166	11.12
263.963	10.12
264.759	13.12
265.556	10.12
266.352	10.12
267.148	14.12
267.944	13.12
268.74	13.12
269.536	15.12
270.332	14.12
271.128	15.12
271.924	12.12
272.719	15.12
273.515	15.12
274.311	17.12
275.106	17.12
275.901	16.12
276.697	19.12
277.492	18.12
278.287	19.12
279.082	17.12
279.877	17.12
280.672	18.12
281.467	17.12
282.262	17.12
283.056	17.12
283.851	17.12
284.646	18.12
285.44	15.12
286.234	20.12
287.029	15.12
287.823	21.12
288.617	17.12
289.411	19.12
290.205	18.12
290.999	18.12
291.793	19.12
292.587	20.12
293.381	17.12
294.174	18.12
294.968	17.12
295.761	14.12
296.555	14.12
297.348	17.12
298.141	14.12
298.935	15.12
299.728	17.12
300.521	14.12
301.314	13.12
302.107	13.12
302.899	13.12
303.692	16.12
304.485	12.12
305.277	12.12
306.07	14.12
306.862	11.12
307.655	11.12
308.447	11.12
309.239	10.12
310.031	12.12
310.823	9.12
311.615	9.12
312.407	10.12
313.199	13.12
313.991	9.12
314.783	11.12
315.574	10.12
316.366	8.12
317.157	10.12
317.949	10.12
318.74	9.12
319.531	7.12
320.322	8.12
321.113	8.12
321.904	7.12
322.695	7.12
323.486	8.12
324.277	6.12
325.068	8.12
325.858	9.12
326.649	7.12
327.439	7.12
328.23	6.12
329.02	8.12
329.81	7.12
330.6	6.12
331.391	8.12
332.181	4.12
332.971	8.12
333.76	7.12
334.55	6.12
335.34	6.12
336.13	6.12
336.919	5.12
337.709	5.12
338.498	5.12
339.287	7.12
340.077	4.12
340.866	10.12
341.655	6.12
342.444	6.12
343.233	4.12
344.022	7.12
344.811	4.12
345.6	5.12
346.388	6.12
347.177	5.12
347.965	7.12
348.754	6.12
349.542	6.12
350.33	5.12
351.119	4.12
351.907	6.12
352.695	8.12
353.483	6.12
354.271	6.12
355.059	5.12
355.846	8.12
356.634	5.12
357.422	8.12
358.209	5.12
358.997	5.12
359.784	6.12
360.571	5.12
361.359	6.12
362.146	4.12
362.933	5.12
363.72	6.12
364.507	5.12
365.294	5.12
366.081	4.12
366.867	5.12
367.654	5.12
368.44	5.12
369.227	5.12
370.013	2.12
370.8	5.12
371.586	6.12
372.372	4.12
373.158	5.12
373.944	3.12
374.73	5.12
375.516	4.12
376.302	6.12
377.088	9.12
377.873	5.12
378.659	5.12
379.445	6.12
380.23	10.12
381.015	7.12
381.801	7.12
382.586	7.12
383.371	6.12
384.156	6.12
384.941	7.12
385.726	6.12
386.511	6.12
387.296	6.12
388.08	6.12
388.865	6.12
389.649	5.12
390.434	5.12
391.218	8.12
392.003	5.12
392.787	5.12
393.571	6.12
394.355	5.12
395.139	5.12
395.923	5.12
396.707	8.12
397.491	7.12
398.274	6.12
399.058	5.12
399.842	5.12
400.625	6.12
401.408	9.12
402.192	9.12
402.975	6.12
403.758	6.12
404.541	8.12
405.324	7.12
406.107	8.12
406.89	6.12
407.673	6.12
408.456	8.12
409.238	8.12
410.021	7.12
410.803	6.12
411.586	9.12
412.368	10.12
413.151	7.12
413.933	8.12
414.715	8.12
415.497	10.12
416.279	12.12
417.061	10.12
417.843	8.12
418.624	7.12
419.406	10.12
420.188	10.12
420.969	10.12
421.751	10.12
422.532	11.12
423.313	12.12
424.095	11.12
424.876	13.12
425.657	13.12
426.438	12.12
427.219	14.12
428	15.12
428.78	15.12
429.561	12.12
430.342	10.12
431.122	14.12
431.903	14.12
432.683	17.12
433.464	16.12
434.244	16.12
435.024	18.12
435.804	20.12
436.584	20.12
437.364	16.12
438.144	19.12
438.924	22.12
439.704	22.12
440.483	21.12
441.263	23.12
442.042	26.12
442.822	28.12
443.601	27.12
444.38	31.12
445.16	31.12
445.939	32.12
446.718	37.12
447.497	37.12
448.276	40.12
449.054	45.12
449.833	49.12
450.612	54.12
451.391	62.12
452.169	68.12
452.948	69.12
453.726	77.12
454.504	83.12
455.282	94.12
456.061	102.12
456.839	114.12
457.617	127.12
458.395	141.12
459.172	158.12
459.95	171.12
460.728	198.12
461.506	216.12
462.283	241.12
463.061	270.12
463.838	301.12
464.615	330.12
465.393	373.12
466.17	417.12
466.947	470.12
467.724	514.12
468.501	572.12
469.278	630.12
470.055	707.12
470.831	775.12
471.608	868.12
472.385	969.12
473.161	1067.12
473.938	1188.12
474.714	1298.12
475.49	1432.12
476.266	1588.12
477.043	1766.12
477.819	1931.12
478.595	2126.12
479.371	2334.12
480.146	2585.12
480.922	2854.12
481.698	3114.12
482.473	3441.12
483.249	3768.12
484.024	4113.12
484.8	4530.12
485.575	4954.12
486.35	5424.12
487.126	5934.12
487.901	6540.12
488.676	7153.12
489.451	7778.12
490.225	8533.12
491	9278.12
491.775	10122.12
492.55	11045.12
493.324	11909.12
494.099	12773.12
494.873	13819.12
495.647	14851.12
496.422	15963.12
497.196	17114.12
497.97	18243.12
498.744	19447.12
499.518	20506.12
500.292	21642.12
501.066	22682.12
501.839	23623.12
502.613	24544.12
503.387	25333.12
504.16	26017.12
504.934	26357.12
505.707	26586.12
506.48	26730.12
507.253	26758.12
508.027	26570.12
508.8	26277.12
509.573	26015.12
510.346	25520.12
511.118	24817.12
511.891	24067.12
512.664	23346.12
513.437	22540.12
514.209	21567.12
514.982	20692.12
515.754	19799.12
516.526	19031.12
517.298	18193.12
518.071	17370.12
518.843	16710.12
519.615	16130.12
520.387	15485.12
521.159	14834.12
521.93	14256.12
522.702	13665.12
523.474	13156.12
524.245	12553.12
525.017	12030.12
525.788	11568.12
526.56	11061.12
527.331	10563.12
528.102	10108.12
528.873	9601.12
529.644	9145.12
530.415	8735.12
531.186	8310.12
531.957	7844.12
532.728	7473.12
533.498	7094.12
534.269	6694.12
535.039	6328.12
535.81	6008.12
536.58	5669.12
537.351	5333.12
538.121	5040.12
538.891	4754.12
539.661	4525.12
540.431	4242.12
541.201	4020.12
541.971	3841.12
542.741	3610.12
543.51	3429.12
544.28	3269.12
545.05	3116.12
545.819	2955.12
546.588	2826.12
547.358	2677.12
548.127	2534.12
548.896	2392.12
549.665	2283.12
550.434	2169.12
551.203	2045.12
551.972	1939.12
552.741	1837.12
553.51	1741.12
554.278	1642.12
555.047	1552.12
555.815	1451.12
556.584	1375.12
557.352	1320.12
558.121	1236.12
558.889	1159.12
559.657	1101.12
560.425	1039.12
561.193	981.12
561.961	923.12
562.729	868.12
563.496	830.12
564.264	775.12
565.032	740.12
565.799	691.12
566.567	661.12
567.334	620.12
568.101	585.12
568.869	559.12
569.636	528.12
570.403	484.12
571.17	461.12
571.937	434.12
572.704	410.12
573.471	391.12
574.237	376.12
575.004	349.12
575.771	333.12
576.537	312.12
577.303	291.12
578.07	277.12
578.836	253.12
579.602	245.12
580.368	225.12
581.134	216.12
581.9	211.12
582.666	200.12
583.432	189.12
584.198	178.12
584.964	164.12
585.729	158.12
586.495	149.12
587.26	139.12
588.025	136.12
588.791	129.12
589.556	118.12
590.321	115.12
591.086	107.12
591.851	107.12
592.616	100.12
593.381	93.12
594.146	89.12
594.911	83.12
595.675	86.12
596.44	74.12
597.204	73.12
597.969	70.12
598.733	70.12
599.497	64.12
600.261	59.12
601.025	59.12
601.79	56.12
602.553	51.12
603.317	50.12
604.081	50.12
604.845	51.12
605.609	44.12
606.372	47.12
607.136	39.12
607.899	42.12
608.662	41.12
609.426	33.12
610.189	37.12
610.952	34.12
611.715	32.12
612.478	30.12
613.241	30.12
614.004	30.12
614.767	29.12
615.529	27.12
616.292	25.12
617.055	23.12
617.817	25.12
618.579	24.12
619.342	26.12
620.104	22.12
620.866	21.12
621.628	25.12
622.39	19.12
623.152	18.12
623.914	18.12
624.676	16.12
625.438	17.12
626.199	19.12
626.961	17.12
627.722	14.12
628.484	12.12
629.245	16.12
630.006	12.12
630.768	15.12
631.529	13.12
632.29	14.12
633.051	13.12
633.812	13.12
634.573	13.12
635.333	9.12
636.094	14.12
636.855	11.12
637.615	11.12
638.376	9.12
639.136	8.12
639.896	11.12
640.657	8.12
641.417	11.12
642.177	10.12
642.937	10.12
643.697	10.12
644.457	9.12
645.216	8.12
645.976	9.12
646.736	7.12
647.495	5.12
648.255	10.12
649.014	6.12
649.774	7.12
650.533	5.12
651.292	7.12
652.051	7.12
652.81	7.12
653.569	9.12
654.328	5.12
655.087	8.12
655.846	5.12
656.604	7.12
657.363	7.12
658.121	6.12
658.88	7.12
659.638	9.12
660.397	5.12
661.155	5.12
661.913	5.12
662.671	6.12
663.429	2.12
664.187	7.12
664.945	7.12
665.703	9.12
666.46	5.12
667.218	5.12
667.976	7.12
668.733	3.12
669.49	3.12
670.248	7.12
671.005	4.12
671.762	6.12
672.519	4.12
673.276	6.12
674.033	6.12
674.79	4.12
675.547	6.12
676.304	6.12
677.06	4.12
677.817	2.12
678.574	5.12
679.33	6.12
680.086	2.12
680.843	6.12
681.599	5.12
682.355	3.12
683.111	4.12
683.867	5.12
684.623	4.12
685.379	4.12
686.135	5.12
686.89	4.12
687.646	1.12
688.402	4.12
689.157	1.12
689.912	3.12
690.668	3.12
691.423	6.12
692.178	3.12
692.933	3.12
693.688	5.12
694.443	2.12
695.198	5.12
695.953	3.12
696.708	3.12
697.462	5.12
698.217	4.12
698.972	4.12
699.726	4.12
700.48	4.12
701.235	4.12
701.989	4.12
702.743	3.12
703.497	4.12
704.251	4.12
705.005	4.12
705.759	4.12
706.513	6.12
707.266	5.12
708.02	4.12
708.774	2.12
709.527	3.12
710.28	3.12
711.034	4.12
711.787	2.12
712.54	2.12
713.293	4.12
714.046	2.12
714.799	4.12
715.552	1.12
716.305	3.12
717.058	3.12
717.81	4.12
718.563	4.12
719.315	3.12
720.068	3.12
720.82	3.12
721.573	4.12
722.325	4.12
723.077	4.12
723.829	4.12
724.581	4.12
725.333	4.12
726.085	5.12
726.836	3.12
727.588	3.12
728.34	2.12
729.091	2.12
729.843	4.12
730.594	6.12
731.346	5.12
732.097	2.12
732.848	3.12
733.599	4.12
734.35	6.12
735.101	7.12
735.852	2.12
736.603	5.12
737.354	5.12
738.104	5.12
738.855	4.12
739.605	7.12
740.356	4.12
741.106	4.12
741.856	5.12
742.607	5.12
743.357	6.12
744.107	3.12
744.857	4.12
745.607	4.12
746.357	5.12
747.106	6.12
747.856	5.12
748.606	2.12
749.355	5.12
750.105	5.12
750.854	3.12
751.603	5.12
752.353	3.12
753.102	6.12
753.851	7.12
754.6	7.12
755.349	6.12
756.098	6.12
756.847	4.12
757.595	6.12
758.344	6.12
759.093	8.12
759.841	6.12
760.589	7.12
761.338	7.12
762.086	8.12
762.834	7.12
763.582	9.12
764.331	5.12
765.079	7.12
765.826	7.12
766.574	9.12
767.322	8.12
768.07	8.12
768.817	7.12
769.565	5.12
770.312	7.12
771.06	7.12
771.807	9.12
772.554	6.12
773.302	9.12
774.049	7.12
774.796	8.12
775.543	8.12
776.29	6.12
777.036	9.12
777.783	8.12
778.53	10.12
779.276	8.12
780.023	6.12
780.769	8.12
781.516	10.12
782.262	8.12
783.008	10.12
783.754	7.12
784.5	10.12
785.246	10.12
785.992	10.12
786.738	10.12
787.484	9.12
788.23	7.12
788.975	9.12
789.721	9.12
790.466	7.12
791.212	8.12
791.957	6.12
792.702	8.12
793.447	6.12
794.193	9.12
794.938	7.12
795.683	7.12
796.427	8.12
797.172	8.12
797.917	7.12
798.662	6.12
799.406	6.12
800.151	6.12
800.895	8.12
801.64	8.12
802.384	5.12
803.128	7.12
803.872	10.12
804.616	8.12
805.36	9.12
806.104	7.12
806.848	5.12
807.592	6.12
808.336	6.12
809.079	7.12
809.823	7.12
810.566	4.12
811.31	7.12
812.053	4.12
812.796	5.12
813.539	5.12
814.283	3.12
815.026	5.12
815.769	3.12
816.511	5.12
817.254	4.12
817.997	4.12
818.74	4.12
819.482	2.12
820.225	4.12
820.967	3.12
821.71	5.12
822.452	4.12
823.194	7.12
823.936	4.12
824.678	5.12
825.42	4.12
826.162	3.12
826.904	3.12
827.646	5.12
828.388	3.12
829.129	4.12
829.871	5.12
830.612	7.12
831.354	2.12
832.095	3.12
832.836	3.12
833.577	4.12
834.319	3.12
835.06	4.12
835.801	5.12
836.542	5.12
837.282	6.12
838.023	4.12
838.764	4.12
839.504	5.12
840.245	4.12
840.985	4.12
841.726	4.12
842.466	4.12
843.206	1.12
843.946	5.12
844.687	2.12
845.427	3.12
846.166	2.12
846.906	0.12
847.646	2.12
848.386	4.12
849.125	2.12
849.865	2.12
850.605	3.12
851.344	3.12
852.083	2.12
852.823	3.12
853.562	3.12
854.301	2.12
855.04	2.12
855.779	2.12
856.518	2.12
857.257	2.12
857.995	4.12
858.734	2.12
859.473	5.12
860.211	1.12
860.95	1.12
861.688	2.12
862.426	2.12
863.165	3.12
863.903	2.12
864.641	1.12
865.379	2.12
866.117	1.12
866.855	2.12
867.593	1.12
868.33	4.12
869.068	-0.88
869.806	1.12
870.543	3.12
871.28	1.12
872.018	1.12
872.755	0.12
873.492	0.12
874.229	4.12
874.967	0.12
875.703	1.12
876.44	2.12
877.177	2.12
877.914	0.12
878.651	1.12
879.387	2.12
880.124	1.12
880.86	2.12
881.597	2.12
882.333	1.12
883.069	0.12
883.806	2.12
884.542	1.12
885.278	-1.88
886.014	2.12
886.749	2.12
887.485	1.12
888.221	3.12
888.957	2.12
889.692	3.12
890.428	1.12
891.163	0.12
891.899	1.12
892.634	-0.88
893.369	1.12
894.104	-0.88
894.839	-0.88
895.574	-0.88
896.309	2.12
897.044	1.12
897.779	2.12
898.514	3.12
899.248	-1.88
899.983	3.12
900.717	2.12
901.452	1.12
902.186	-0.88
902.92	1.12
903.654	1.12
904.389	0.12
905.123	0.12
905.857	0.12
906.59	0.12
907.324	0.12
908.058	-0.88
908.792	0.12
909.525	1.12
910.259	1.12
910.992	0.12
911.726	-0.88
912.459	1.12
913.192	-0.88
913.925	1.12
914.658	0.12
915.391	-0.88
916.124	2.12
916.857	-0.88
917.59	0.12
918.323	3.12
919.055	-0.88
919.788	1.12
920.521	1.12
921.253	1.12
921.985	1.12
922.718	3.12
923.45	-0.88
924.182	0.12
924.914	0.12
925.646	1.12
926.378	1.12
927.11	-1.88
927.841	1.12
928.573	-0.88
929.305	0.12
930.036	0.12
930.768	1.12
931.499	0.12
932.23	0.12
932.962	1.12
933.693	2.12
934.424	-0.88
935.155	-1.88
935.886	0.12
936.617	1.12
937.348	-0.88
938.078	1.12
938.809	0.12
939.54	1.12
940.27	0.12
941.001	-1.88
941.731	2.12
942.461	2.12
943.191	0.12
943.922	0.12
944.652	0.12
945.382	0.12
946.112	-1.88
946.841	3.12
947.571	0.12
948.301	0.12
949.031	1.12
949.76	0.12
950.49	-0.88
951.219	1.12
951.948	1.12
952.678	1.12
953.407	0.12
954.136	0.12
954.865	0.12
955.594	2.12
956.323	-0.88
957.052	0.12
957.78	-0.88
958.509	1.12
959.238	2.12
959.966	0.12
960.695	-0.88
961.423	0.12
962.151	1.12
962.88	1.12
963.608	1.12
964.336	-1.88
965.064	1.12
965.792	0.12
966.52	0.12
967.247	0.12
967.975	2.12
968.703	1.12
969.43	0.12
970.158	-1.88
970.885	-0.88
971.613	0.12
972.34	-1.88
973.067	1.12
973.794	2.12
974.521	-0.88
975.248	1.12
975.975	0.12
976.702	1.12
977.429	-2.88
978.156	-0.88
978.882	1.12
979.609	1.12
980.335	3.12
981.062	-0.88
981.788	0.12
982.514	-0.88
983.24	-0.88
983.967	1.12
984.693	1.12
985.419	-0.88
986.144	0.12
986.87	2.12
987.596	0.12
988.322	2.12
989.047	0.12
989.773	-1.88
990.498	1.12
991.224	0.12
991.949	2.12
992.674	0.12
993.399	2.12
994.124	0.12
994.849	1.12
995.574	2.12
996.299	1.12
997.024	1.12
997.749	-0.88
998.473	0.12
999.198	1.12
999.922	2.12
1000.647	0.12
1001.371	4.12
1002.095	-1.88
1002.82	0.12
1003.544	-0.88
1004.268	2.12
1004.992	1.12
1005.716	0.12
1006.439	0.12
1007.163	2.12
1007.887	1.12
1008.611	0.12
1009.334	1.12
1010.058	0.12
1010.781	-2.88
1011.504	0.12
1012.228	0.12
1012.951	-0.88
1013.674	-0.88
1014.397	0.12
1015.12	0.12
