节点500_285_QEPB04081__722__15-07-33-791.txt的数据

Date: Wed Nov 12 15:07:33 CST 2025
User: PC
Spectrometer: QEPB0408
触发模式: 0
积分时间 (秒): 1.000000E-2
Scans to average: 1
启用暗噪声校正: true
启用非线性校正: false
滑动平均宽度: 0
X轴模式: Wavelengths
Number of Pixels in Spectrum: 1044
>>>>>Begin Spectral Data<<<<<
220.843	-0.5
221.644	0.5
222.444	-0.5
223.244	-0.5
224.045	2.5
224.845	3.5
225.645	0.5
226.445	0.5
227.245	-0.5
228.045	-0.5
228.845	3.5
229.645	0.5
230.444	3.5
231.244	1.5
232.043	2.5
232.843	4.5
233.642	2.5
234.442	3.5
235.241	3.5
236.04	4.5
236.839	2.5
237.638	3.5
238.437	5.5
239.236	3.5
240.035	3.5
240.833	4.5
241.632	6.5
242.43	5.5
243.229	4.5
244.027	3.5
244.826	4.5
245.624	4.5
246.422	4.5
247.22	6.5
248.018	7.5
248.816	5.5
249.614	5.5
250.412	4.5
251.21	5.5
252.007	5.5
252.805	4.5
253.602	4.5
254.4	6.5
255.197	7.5
255.994	7.5
256.791	8.5
257.589	5.5
258.386	7.5
259.183	8.5
259.979	5.5
260.776	9.5
261.573	7.5
262.37	6.5
263.166	8.5
263.963	10.5
264.759	10.5
265.556	7.5
266.352	11.5
267.148	12.5
267.944	12.5
268.74	10.5
269.536	9.5
270.332	11.5
271.128	10.5
271.924	10.5
272.719	13.5
273.515	14.5
274.311	13.5
275.106	16.5
275.901	13.5
276.697	14.5
277.492	12.5
278.287	15.5
279.082	15.5
279.877	16.5
280.672	14.5
281.467	17.5
282.262	16.5
283.056	16.5
283.851	16.5
284.646	18.5
285.44	18.5
286.234	15.5
287.029	15.5
287.823	16.5
288.617	16.5
289.411	16.5
290.205	15.5
290.999	15.5
291.793	15.5
292.587	19.5
293.381	15.5
294.174	15.5
294.968	15.5
295.761	14.5
296.555	12.5
297.348	15.5
298.141	13.5
298.935	15.5
299.728	12.5
300.521	11.5
301.314	11.5
302.107	13.5
302.899	12.5
303.692	12.5
304.485	10.5
305.277	13.5
306.07	10.5
306.862	11.5
307.655	13.5
308.447	12.5
309.239	12.5
310.031	10.5
310.823	11.5
311.615	10.5
312.407	12.5
313.199	8.5
313.991	9.5
314.783	7.5
315.574	9.5
316.366	6.5
317.157	8.5
317.949	8.5
318.74	7.5
319.531	8.5
320.322	6.5
321.113	7.5
321.904	6.5
322.695	8.5
323.486	5.5
324.277	5.5
325.068	6.5
325.858	6.5
326.649	6.5
327.439	6.5
328.23	6.5
329.02	6.5
329.81	5.5
330.6	8.5
331.391	5.5
332.181	5.5
332.971	6.5
333.76	7.5
334.55	6.5
335.34	8.5
336.13	7.5
336.919	7.5
337.709	6.5
338.498	5.5
339.287	6.5
340.077	3.5
340.866	2.5
341.655	3.5
342.444	5.5
343.233	7.5
344.022	5.5
344.811	6.5
345.6	6.5
346.388	4.5
347.177	7.5
347.965	4.5
348.754	4.5
349.542	6.5
350.33	2.5
351.119	7.5
351.907	4.5
352.695	5.5
353.483	4.5
354.271	4.5
355.059	5.5
355.846	3.5
356.634	4.5
357.422	5.5
358.209	7.5
358.997	6.5
359.784	3.5
360.571	4.5
361.359	4.5
362.146	6.5
362.933	7.5
363.72	5.5
364.507	3.5
365.294	4.5
366.081	6.5
366.867	2.5
367.654	3.5
368.44	5.5
369.227	6.5
370.013	4.5
370.8	4.5
371.586	4.5
372.372	4.5
373.158	4.5
373.944	4.5
374.73	6.5
375.516	2.5
376.302	4.5
377.088	4.5
377.873	3.5
378.659	3.5
379.445	4.5
380.23	4.5
381.015	5.5
381.801	4.5
382.586	4.5
383.371	3.5
384.156	6.5
384.941	3.5
385.726	4.5
386.511	5.5
387.296	4.5
388.08	5.5
388.865	2.5
389.649	6.5
390.434	5.5
391.218	5.5
392.003	7.5
392.787	2.5
393.571	6.5
394.355	4.5
395.139	3.5
395.923	5.5
396.707	6.5
397.491	5.5
398.274	6.5
399.058	6.5
399.842	5.5
400.625	5.5
401.408	6.5
402.192	6.5
402.975	8.5
403.758	6.5
404.541	7.5
405.324	5.5
406.107	6.5
406.89	5.5
407.673	6.5
408.456	8.5
409.238	5.5
410.021	8.5
410.803	8.5
411.586	6.5
412.368	8.5
413.151	5.5
413.933	10.5
414.715	9.5
415.497	7.5
416.279	9.5
417.061	8.5
417.843	9.5
418.624	9.5
419.406	7.5
420.188	9.5
420.969	9.5
421.751	10.5
422.532	8.5
423.313	10.5
424.095	9.5
424.876	12.5
425.657	8.5
426.438	11.5
427.219	11.5
428	11.5
428.78	12.5
429.561	12.5
430.342	14.5
431.122	16.5
431.903	14.5
432.683	13.5
433.464	14.5
434.244	16.5
435.024	13.5
435.804	15.5
436.584	16.5
437.364	19.5
438.144	21.5
438.924	18.5
439.704	23.5
440.483	22.5
441.263	22.5
442.042	24.5
442.822	25.5
443.601	30.5
444.38	29.5
445.16	31.5
445.939	35.5
446.718	36.5
447.497	41.5
448.276	43.5
449.054	48.5
449.833	52.5
450.612	54.5
451.391	63.5
452.169	64.5
452.948	74.5
453.726	81.5
454.504	91.5
455.282	98.5
456.061	106.5
456.839	121.5
457.617	134.5
458.395	149.5
459.172	166.5
459.95	185.5
460.728	204.5
461.506	225.5
462.283	262.5
463.061	285.5
463.838	326.5
464.615	357.5
465.393	383.5
466.17	437.5
466.947	483.5
467.724	531.5
468.501	603.5
469.278	667.5
470.055	741.5
470.831	824.5
471.608	903.5
472.385	982.5
473.161	1093.5
473.938	1206.5
474.714	1316.5
475.49	1449.5
476.266	1592.5
477.043	1756.5
477.819	1951.5
478.595	2128.5
479.371	2333.5
480.146	2555.5
480.922	2787.5
481.698	3045.5
482.473	3343.5
483.249	3654.5
484.024	3982.5
484.8	4397.5
485.575	4750.5
486.35	5207.5
487.126	5653.5
487.901	6169.5
488.676	6720.5
489.451	7324.5
490.225	7943.5
491	8629.5
491.775	9351.5
492.55	10147.5
493.324	10990.5
494.099	11783.5
494.873	12634.5
495.647	13604.5
496.422	14588.5
497.196	15624.5
497.97	16710.5
498.744	17736.5
499.518	18756.5
500.292	19818.5
501.066	20806.5
501.839	21775.5
502.613	22614.5
503.387	23457.5
504.16	24129.5
504.934	24697.5
505.707	24981.5
506.48	25234.5
507.253	25339.5
508.027	25370.5
508.8	25278.5
509.573	25063.5
510.346	24770.5
511.118	24165.5
511.891	23617.5
512.664	23003.5
513.437	22306.5
514.209	21473.5
514.982	20772.5
515.754	19874.5
516.526	19094.5
517.298	18321.5
518.071	17527.5
518.843	16914.5
519.615	16278.5
520.387	15602.5
521.159	15011.5
521.93	14400.5
522.702	13836.5
523.474	13276.5
524.245	12679.5
525.017	12121.5
525.788	11728.5
526.56	11197.5
527.331	10689.5
528.102	10247.5
528.873	9815.5
529.644	9366.5
530.415	8923.5
531.186	8462.5
531.957	8067.5
532.728	7671.5
533.498	7333.5
534.269	6923.5
535.039	6552.5
535.81	6229.5
536.58	5873.5
537.351	5532.5
538.121	5233.5
538.891	4946.5
539.661	4687.5
540.431	4436.5
541.201	4181.5
541.971	3960.5
542.741	3761.5
543.51	3565.5
544.28	3409.5
545.05	3230.5
545.819	3054.5
546.588	2920.5
547.358	2776.5
548.127	2629.5
548.896	2509.5
549.665	2380.5
550.434	2259.5
551.203	2141.5
551.972	2043.5
552.741	1925.5
553.51	1816.5
554.278	1725.5
555.047	1630.5
555.815	1539.5
556.584	1454.5
557.352	1379.5
558.121	1305.5
558.889	1227.5
559.657	1167.5
560.425	1103.5
561.193	1037.5
561.961	976.5
562.729	913.5
563.496	873.5
564.264	807.5
565.032	778.5
565.799	739.5
566.567	695.5
567.334	649.5
568.101	623.5
568.869	584.5
569.636	550.5
570.403	517.5
571.17	488.5
571.937	472.5
572.704	439.5
573.471	404.5
574.237	387.5
575.004	367.5
575.771	337.5
576.537	322.5
577.303	314.5
578.07	288.5
578.836	275.5
579.602	253.5
580.368	246.5
581.134	227.5
581.9	214.5
582.666	198.5
583.432	194.5
584.198	189.5
584.964	174.5
585.729	168.5
586.495	161.5
587.26	147.5
588.025	136.5
588.791	131.5
589.556	127.5
590.321	118.5
591.086	113.5
591.851	107.5
592.616	105.5
593.381	93.5
594.146	93.5
594.911	88.5
595.675	87.5
596.44	84.5
597.204	77.5
597.969	70.5
598.733	69.5
599.497	66.5
600.261	62.5
601.025	59.5
601.79	57.5
602.553	56.5
603.317	53.5
604.081	50.5
604.845	48.5
605.609	43.5
606.372	44.5
607.136	45.5
607.899	42.5
608.662	38.5
609.426	38.5
610.189	35.5
610.952	30.5
611.715	33.5
612.478	32.5
613.241	29.5
614.004	33.5
614.767	27.5
615.529	30.5
616.292	25.5
617.055	27.5
617.817	22.5
618.579	23.5
619.342	23.5
620.104	22.5
620.866	21.5
621.628	18.5
622.39	18.5
623.152	19.5
623.914	16.5
624.676	18.5
625.438	16.5
626.199	16.5
626.961	16.5
627.722	13.5
628.484	17.5
629.245	10.5
630.006	14.5
630.768	12.5
631.529	13.5
632.29	12.5
633.051	14.5
633.812	11.5
634.573	9.5
635.333	9.5
636.094	10.5
636.855	10.5
637.615	9.5
638.376	9.5
639.136	9.5
639.896	10.5
640.657	10.5
641.417	11.5
642.177	8.5
642.937	9.5
643.697	6.5
644.457	9.5
645.216	9.5
645.976	6.5
646.736	6.5
647.495	6.5
648.255	7.5
649.014	7.5
649.774	5.5
650.533	5.5
651.292	8.5
652.051	7.5
652.81	5.5
653.569	6.5
654.328	5.5
655.087	6.5
655.846	4.5
656.604	6.5
657.363	6.5
658.121	3.5
658.88	6.5
659.638	4.5
660.397	6.5
661.155	3.5
661.913	7.5
662.671	5.5
663.429	3.5
664.187	5.5
664.945	4.5
665.703	6.5
666.46	4.5
667.218	2.5
667.976	4.5
668.733	4.5
669.49	4.5
670.248	3.5
671.005	4.5
671.762	4.5
672.519	2.5
673.276	3.5
674.033	2.5
674.79	2.5
675.547	1.5
676.304	3.5
677.06	3.5
677.817	4.5
678.574	5.5
679.33	1.5
680.086	5.5
680.843	3.5
681.599	4.5
682.355	2.5
683.111	2.5
683.867	2.5
684.623	2.5
685.379	4.5
686.135	2.5
686.89	3.5
687.646	4.5
688.402	1.5
689.157	0.5
689.912	2.5
690.668	2.5
691.423	3.5
692.178	2.5
692.933	3.5
693.688	3.5
694.443	4.5
695.198	3.5
695.953	2.5
696.708	2.5
697.462	2.5
698.217	3.5
698.972	2.5
699.726	3.5
700.48	2.5
701.235	5.5
701.989	3.5
702.743	4.5
703.497	1.5
704.251	0.5
705.005	4.5
705.759	2.5
706.513	4.5
707.266	3.5
708.02	0.5
708.774	4.5
709.527	0.5
710.28	2.5
711.034	4.5
711.787	1.5
712.54	4.5
713.293	0.5
714.046	2.5
714.799	4.5
715.552	2.5
716.305	1.5
717.058	2.5
717.81	5.5
718.563	2.5
719.315	4.5
720.068	1.5
720.82	4.5
721.573	4.5
722.325	3.5
723.077	1.5
723.829	0.5
724.581	4.5
725.333	3.5
726.085	2.5
726.836	3.5
727.588	4.5
728.34	3.5
729.091	4.5
729.843	1.5
730.594	3.5
731.346	4.5
732.097	3.5
732.848	3.5
733.599	4.5
734.35	3.5
735.101	4.5
735.852	5.5
736.603	3.5
737.354	3.5
738.104	2.5
738.855	5.5
739.605	3.5
740.356	3.5
741.106	4.5
741.856	4.5
742.607	5.5
743.357	4.5
744.107	3.5
744.857	1.5
745.607	1.5
746.357	4.5
747.106	3.5
747.856	5.5
748.606	4.5
749.355	2.5
750.105	2.5
750.854	3.5
751.603	4.5
752.353	5.5
753.102	5.5
753.851	4.5
754.6	4.5
755.349	4.5
756.098	5.5
756.847	6.5
757.595	4.5
758.344	4.5
759.093	2.5
759.841	7.5
760.589	5.5
761.338	2.5
762.086	7.5
762.834	4.5
763.582	5.5
764.331	5.5
765.079	3.5
765.826	4.5
766.574	5.5
767.322	7.5
768.07	7.5
768.817	7.5
769.565	3.5
770.312	6.5
771.06	5.5
771.807	6.5
772.554	6.5
773.302	5.5
774.049	6.5
774.796	7.5
775.543	8.5
776.29	8.5
777.036	5.5
777.783	8.5
778.53	7.5
779.276	6.5
780.023	7.5
780.769	7.5
781.516	7.5
782.262	8.5
783.008	6.5
783.754	7.5
784.5	7.5
785.246	6.5
785.992	5.5
786.738	6.5
787.484	5.5
788.23	7.5
788.975	7.5
789.721	9.5
790.466	6.5
791.212	6.5
791.957	7.5
792.702	6.5
793.447	7.5
794.193	7.5
794.938	5.5
795.683	10.5
796.427	7.5
797.172	6.5
797.917	5.5
798.662	6.5
799.406	5.5
800.151	5.5
800.895	7.5
801.64	6.5
802.384	6.5
803.128	4.5
803.872	7.5
804.616	8.5
805.36	6.5
806.104	6.5
806.848	3.5
807.592	7.5
808.336	5.5
809.079	5.5
809.823	4.5
810.566	5.5
811.31	6.5
812.053	7.5
812.796	6.5
813.539	4.5
814.283	4.5
815.026	4.5
815.769	6.5
816.511	5.5
817.254	3.5
817.997	1.5
818.74	3.5
819.482	2.5
820.225	3.5
820.967	2.5
821.71	4.5
822.452	1.5
823.194	6.5
823.936	5.5
824.678	4.5
825.42	3.5
826.162	4.5
826.904	4.5
827.646	2.5
828.388	4.5
829.129	3.5
829.871	5.5
830.612	3.5
831.354	2.5
832.095	4.5
832.836	1.5
833.577	3.5
834.319	3.5
835.06	1.5
835.801	3.5
836.542	4.5
837.282	2.5
838.023	2.5
838.764	3.5
839.504	2.5
840.245	3.5
840.985	4.5
841.726	3.5
842.466	4.5
843.206	4.5
843.946	1.5
844.687	3.5
845.427	2.5
846.166	5.5
846.906	3.5
847.646	4.5
848.386	3.5
849.125	3.5
849.865	3.5
850.605	0.5
851.344	3.5
852.083	2.5
852.823	4.5
853.562	4.5
854.301	0.5
855.04	1.5
855.779	2.5
856.518	2.5
857.257	2.5
857.995	1.5
858.734	1.5
859.473	0.5
860.211	3.5
860.95	0.5
861.688	1.5
862.426	3.5
863.165	1.5
863.903	0.5
864.641	1.5
865.379	2.5
866.117	0.5
866.855	0.5
867.593	0.5
868.33	1.5
869.068	0.5
869.806	1.5
870.543	2.5
871.28	1.5
872.018	0.5
872.755	2.5
873.492	-0.5
874.229	0.5
874.967	0.5
875.703	0.5
876.44	1.5
877.177	0.5
877.914	-1.5
878.651	0.5
879.387	0.5
880.124	0.5
880.86	-2.5
881.597	2.5
882.333	0.5
883.069	-0.5
883.806	0.5
884.542	0.5
885.278	0.5
886.014	2.5
886.749	0.5
887.485	-1.5
888.221	0.5
888.957	0.5
889.692	-0.5
890.428	-0.5
891.163	-2.5
891.899	2.5
892.634	0.5
893.369	0.5
894.104	-0.5
894.839	0.5
895.574	1.5
896.309	0.5
897.044	0.5
897.779	-0.5
898.514	-0.5
899.248	0.5
899.983	0.5
900.717	-0.5
901.452	-1.5
902.186	0.5
902.92	0.5
903.654	0.5
904.389	-0.5
905.123	-0.5
905.857	1.5
906.59	-2.5
907.324	2.5
908.058	-0.5
908.792	1.5
909.525	-0.5
910.259	-0.5
910.992	1.5
911.726	-0.5
912.459	2.5
913.192	2.5
913.925	0.5
914.658	0.5
915.391	0.5
916.124	1.5
916.857	0.5
917.59	0.5
918.323	1.5
919.055	-1.5
919.788	1.5
920.521	1.5
921.253	0.5
921.985	-0.5
922.718	-0.5
923.45	-1.5
924.182	-0.5
924.914	1.5
925.646	0.5
926.378	-0.5
927.11	0.5
927.841	-2.5
928.573	-1.5
929.305	-1.5
930.036	-0.5
930.768	-0.5
931.499	0.5
932.23	0.5
932.962	-0.5
933.693	-0.5
934.424	-2.5
935.155	-2.5
935.886	0.5
936.617	-0.5
937.348	-3.5
938.078	0.5
938.809	-0.5
939.54	-1.5
940.27	-0.5
941.001	0.5
941.731	-0.5
942.461	-1.5
943.191	0.5
943.922	0.5
944.652	-1.5
945.382	1.5
946.112	-0.5
946.841	-1.5
947.571	1.5
948.301	-1.5
949.031	-1.5
949.76	-0.5
950.49	0.5
951.219	0.5
951.948	-1.5
952.678	-0.5
953.407	-1.5
954.136	2.5
954.865	0.5
955.594	-1.5
956.323	2.5
957.052	-0.5
957.78	1.5
958.509	0.5
959.238	-1.5
959.966	-1.5
960.695	1.5
961.423	0.5
962.151	-1.5
962.88	1.5
963.608	-1.5
964.336	-0.5
965.064	-0.5
965.792	-0.5
966.52	-1.5
967.247	-0.5
967.975	0.5
968.703	-0.5
969.43	0.5
970.158	-1.5
970.885	-1.5
971.613	-0.5
972.34	0.5
973.067	0.5
973.794	0.5
974.521	-1.5
975.248	0.5
975.975	-1.5
976.702	0.5
977.429	-0.5
978.156	-0.5
978.882	0.5
979.609	0.5
980.335	0.5
981.062	-2.5
981.788	0.5
982.514	-1.5
983.24	-0.5
983.967	0.5
984.693	-0.5
985.419	0.5
986.144	-1.5
986.87	0.5
987.596	-0.5
988.322	1.5
989.047	1.5
989.773	-1.5
990.498	-0.5
991.224	-0.5
991.949	2.5
992.674	0.5
993.399	-1.5
994.124	0.5
994.849	0.5
995.574	0.5
996.299	0.5
997.024	0.5
997.749	-0.5
998.473	-0.5
999.198	0.5
999.922	-3.5
1000.647	-0.5
1001.371	2.5
1002.095	-1.5
1002.82	-1.5
1003.544	-0.5
1004.268	1.5
1004.992	-0.5
1005.716	1.5
1006.439	-0.5
1007.163	-0.5
1007.887	3.5
1008.611	-0.5
1009.334	1.5
1010.058	-0.5
1010.781	-0.5
1011.504	0.5
1012.228	-0.5
1012.951	-0.5
1013.674	0.5
1014.397	1.5
1015.12	-0.5
