节点500_285_QEPB04081__249__14-59-41-894.txt的数据

Date: Wed Nov 12 14:59:41 CST 2025
User: PC
Spectrometer: QEPB0408
触发模式: 0
积分时间 (秒): 1.000000E-2
Scans to average: 1
启用暗噪声校正: true
启用非线性校正: false
滑动平均宽度: 0
X轴模式: Wavelengths
Number of Pixels in Spectrum: 1044
>>>>>Begin Spectral Data<<<<<
220.843	4.38
221.644	2.38
222.444	1.38
223.244	4.38
224.045	1.38
224.845	2.38
225.645	4.38
226.445	0.38
227.245	3.38
228.045	1.38
228.845	2.38
229.645	2.38
230.444	4.38
231.244	3.38
232.043	4.38
232.843	4.38
233.642	4.38
234.442	4.38
235.241	5.38
236.04	3.38
236.839	5.38
237.638	6.38
238.437	5.38
239.236	5.38
240.035	4.38
240.833	3.38
241.632	4.38
242.43	5.38
243.229	4.38
244.027	4.38
244.826	6.38
245.624	3.38
246.422	6.38
247.22	4.38
248.018	5.38
248.816	7.38
249.614	6.38
250.412	8.38
251.21	7.38
252.007	7.38
252.805	10.38
253.602	9.38
254.4	9.38
255.197	8.38
255.994	9.38
256.791	9.38
257.589	10.38
258.386	10.38
259.183	10.38
259.979	11.38
260.776	11.38
261.573	12.38
262.37	9.38
263.166	10.38
263.963	11.38
264.759	10.38
265.556	15.38
266.352	12.38
267.148	14.38
267.944	15.38
268.74	13.38
269.536	14.38
270.332	13.38
271.128	15.38
271.924	15.38
272.719	18.38
273.515	16.38
274.311	18.38
275.106	16.38
275.901	14.38
276.697	18.38
277.492	19.38
278.287	18.38
279.082	18.38
279.877	20.38
280.672	22.38
281.467	20.38
282.262	20.38
283.056	18.38
283.851	20.38
284.646	20.38
285.44	18.38
286.234	20.38
287.029	18.38
287.823	19.38
288.617	19.38
289.411	18.38
290.205	20.38
290.999	16.38
291.793	18.38
292.587	19.38
293.381	15.38
294.174	17.38
294.968	15.38
295.761	18.38
296.555	13.38
297.348	14.38
298.141	15.38
298.935	17.38
299.728	14.38
300.521	14.38
301.314	17.38
302.107	15.38
302.899	15.38
303.692	16.38
304.485	14.38
305.277	16.38
306.07	10.38
306.862	12.38
307.655	12.38
308.447	12.38
309.239	12.38
310.031	11.38
310.823	11.38
311.615	12.38
312.407	13.38
313.199	10.38
313.991	8.38
314.783	11.38
315.574	8.38
316.366	10.38
317.157	9.38
317.949	10.38
318.74	8.38
319.531	7.38
320.322	8.38
321.113	8.38
321.904	7.38
322.695	7.38
323.486	9.38
324.277	9.38
325.068	9.38
325.858	8.38
326.649	6.38
327.439	8.38
328.23	6.38
329.02	7.38
329.81	9.38
330.6	6.38
331.391	7.38
332.181	7.38
332.971	4.38
333.76	8.38
334.55	8.38
335.34	6.38
336.13	8.38
336.919	5.38
337.709	7.38
338.498	9.38
339.287	7.38
340.077	8.38
340.866	7.38
341.655	5.38
342.444	7.38
343.233	6.38
344.022	4.38
344.811	5.38
345.6	8.38
346.388	8.38
347.177	7.38
347.965	9.38
348.754	6.38
349.542	5.38
350.33	8.38
351.119	7.38
351.907	7.38
352.695	6.38
353.483	6.38
354.271	6.38
355.059	4.38
355.846	7.38
356.634	7.38
357.422	4.38
358.209	6.38
358.997	5.38
359.784	8.38
360.571	5.38
361.359	7.38
362.146	7.38
362.933	4.38
363.72	7.38
364.507	3.38
365.294	7.38
366.081	9.38
366.867	4.38
367.654	5.38
368.44	5.38
369.227	6.38
370.013	5.38
370.8	5.38
371.586	6.38
372.372	4.38
373.158	7.38
373.944	6.38
374.73	5.38
375.516	7.38
376.302	6.38
377.088	4.38
377.873	4.38
378.659	7.38
379.445	5.38
380.23	6.38
381.015	5.38
381.801	4.38
382.586	6.38
383.371	3.38
384.156	5.38
384.941	5.38
385.726	6.38
386.511	5.38
387.296	4.38
388.08	7.38
388.865	7.38
389.649	7.38
390.434	7.38
391.218	8.38
392.003	6.38
392.787	5.38
393.571	6.38
394.355	4.38
395.139	5.38
395.923	6.38
396.707	7.38
397.491	6.38
398.274	5.38
399.058	8.38
399.842	7.38
400.625	7.38
401.408	9.38
402.192	10.38
402.975	8.38
403.758	9.38
404.541	8.38
405.324	7.38
406.107	9.38
406.89	7.38
407.673	7.38
408.456	10.38
409.238	8.38
410.021	10.38
410.803	8.38
411.586	8.38
412.368	10.38
413.151	10.38
413.933	12.38
414.715	10.38
415.497	11.38
416.279	10.38
417.061	8.38
417.843	11.38
418.624	7.38
419.406	10.38
420.188	12.38
420.969	10.38
421.751	12.38
422.532	8.38
423.313	11.38
424.095	10.38
424.876	11.38
425.657	12.38
426.438	13.38
427.219	16.38
428	13.38
428.78	14.38
429.561	14.38
430.342	16.38
431.122	14.38
431.903	13.38
432.683	15.38
433.464	16.38
434.244	17.38
435.024	17.38
435.804	17.38
436.584	18.38
437.364	16.38
438.144	21.38
438.924	21.38
439.704	20.38
440.483	20.38
441.263	22.38
442.042	23.38
442.822	25.38
443.601	31.38
444.38	30.38
445.16	30.38
445.939	36.38
446.718	34.38
447.497	38.38
448.276	43.38
449.054	45.38
449.833	47.38
450.612	53.38
451.391	57.38
452.169	61.38
452.948	65.38
453.726	72.38
454.504	79.38
455.282	91.38
456.061	96.38
456.839	108.38
457.617	118.38
458.395	135.38
459.172	148.38
459.95	161.38
460.728	179.38
461.506	200.38
462.283	226.38
463.061	249.38
463.838	277.38
464.615	316.38
465.393	351.38
466.17	398.38
466.947	438.38
467.724	493.38
468.501	550.38
469.278	604.38
470.055	682.38
470.831	749.38
471.608	840.38
472.385	932.38
473.161	1042.38
473.938	1139.38
474.714	1263.38
475.49	1425.38
476.266	1581.38
477.043	1731.38
477.819	1909.38
478.595	2139.38
479.371	2356.38
480.146	2607.38
480.922	2879.38
481.698	3174.38
482.473	3474.38
483.249	3839.38
484.024	4238.38
484.8	4637.38
485.575	5157.38
486.35	5649.38
487.126	6210.38
487.901	6776.38
488.676	7484.38
489.451	8190.38
490.225	8982.38
491	9798.38
491.775	10691.38
492.55	11730.38
493.324	12682.38
494.099	13667.38
494.873	14776.38
495.647	15952.38
496.422	17128.38
497.196	18320.38
497.97	19557.38
498.744	20805.38
499.518	21939.38
500.292	23091.38
501.066	24221.38
501.839	25177.38
502.613	26039.38
503.387	26823.38
504.16	27329.38
504.934	27732.38
505.707	27854.38
506.48	27873.38
507.253	27737.38
508.027	27362.38
508.8	27016.38
509.573	26591.38
510.346	25899.38
511.118	25133.38
511.891	24327.38
512.664	23398.38
513.437	22475.38
514.209	21526.38
514.982	20658.38
515.754	19723.38
516.526	18820.38
517.298	17971.38
518.071	17199.38
518.843	16576.38
519.615	15900.38
520.387	15291.38
521.159	14696.38
521.93	14031.38
522.702	13544.38
523.474	12966.38
524.245	12431.38
525.017	11852.38
525.788	11401.38
526.56	10892.38
527.331	10378.38
528.102	9906.38
528.873	9457.38
529.644	8938.38
530.415	8544.38
531.186	8072.38
531.957	7669.38
532.728	7250.38
533.498	6880.38
534.269	6504.38
535.039	6145.38
535.81	5776.38
536.58	5448.38
537.351	5135.38
538.121	4848.38
538.891	4620.38
539.661	4368.38
540.431	4129.38
541.201	3891.38
541.971	3694.38
542.741	3527.38
543.51	3327.38
544.28	3159.38
545.05	3015.38
545.819	2869.38
546.588	2742.38
547.358	2592.38
548.127	2452.38
548.896	2318.38
549.665	2204.38
550.434	2090.38
551.203	1971.38
551.972	1863.38
552.741	1783.38
553.51	1678.38
554.278	1591.38
555.047	1517.38
555.815	1398.38
556.584	1326.38
557.352	1245.38
558.121	1189.38
558.889	1129.38
559.657	1055.38
560.425	998.38
561.193	931.38
561.961	874.38
562.729	840.38
563.496	790.38
564.264	749.38
565.032	703.38
565.799	673.38
566.567	642.38
567.334	600.38
568.101	565.38
568.869	536.38
569.636	498.38
570.403	467.38
571.17	440.38
571.937	424.38
572.704	392.38
573.471	372.38
574.237	354.38
575.004	330.38
575.771	318.38
576.537	298.38
577.303	273.38
578.07	262.38
578.836	250.38
579.602	233.38
580.368	219.38
581.134	211.38
581.9	192.38
582.666	193.38
583.432	176.38
584.198	169.38
584.964	159.38
585.729	150.38
586.495	145.38
587.26	139.38
588.025	121.38
588.791	118.38
589.556	115.38
590.321	108.38
591.086	101.38
591.851	97.38
592.616	94.38
593.381	87.38
594.146	81.38
594.911	81.38
595.675	76.38
596.44	78.38
597.204	71.38
597.969	69.38
598.733	64.38
599.497	64.38
600.261	58.38
601.025	56.38
601.79	56.38
602.553	51.38
603.317	50.38
604.081	48.38
604.845	47.38
605.609	44.38
606.372	42.38
607.136	41.38
607.899	41.38
608.662	35.38
609.426	34.38
610.189	36.38
610.952	33.38
611.715	33.38
612.478	27.38
613.241	29.38
614.004	29.38
614.767	29.38
615.529	25.38
616.292	26.38
617.055	25.38
617.817	22.38
618.579	23.38
619.342	23.38
620.104	20.38
620.866	21.38
621.628	19.38
622.39	18.38
623.152	18.38
623.914	18.38
624.676	18.38
625.438	17.38
626.199	14.38
626.961	14.38
627.722	16.38
628.484	14.38
629.245	14.38
630.006	14.38
630.768	14.38
631.529	14.38
632.29	14.38
633.051	12.38
633.812	12.38
634.573	10.38
635.333	13.38
636.094	13.38
636.855	10.38
637.615	10.38
638.376	9.38
639.136	10.38
639.896	10.38
640.657	8.38
641.417	10.38
642.177	10.38
642.937	10.38
643.697	8.38
644.457	9.38
645.216	9.38
645.976	9.38
646.736	9.38
647.495	8.38
648.255	9.38
649.014	10.38
649.774	7.38
650.533	8.38
651.292	8.38
652.051	7.38
652.81	4.38
653.569	7.38
654.328	9.38
655.087	8.38
655.846	7.38
656.604	6.38
657.363	5.38
658.121	6.38
658.88	7.38
659.638	8.38
660.397	6.38
661.155	7.38
661.913	5.38
662.671	7.38
663.429	3.38
664.187	5.38
664.945	6.38
665.703	6.38
666.46	4.38
667.218	4.38
667.976	7.38
668.733	3.38
669.49	4.38
670.248	7.38
671.005	5.38
671.762	6.38
672.519	6.38
673.276	4.38
674.033	6.38
674.79	4.38
675.547	6.38
676.304	4.38
677.06	2.38
677.817	4.38
678.574	5.38
679.33	7.38
680.086	4.38
680.843	4.38
681.599	3.38
682.355	4.38
683.111	5.38
683.867	4.38
684.623	7.38
685.379	5.38
686.135	1.38
686.89	2.38
687.646	4.38
688.402	6.38
689.157	5.38
689.912	4.38
690.668	4.38
691.423	3.38
692.178	4.38
692.933	2.38
693.688	3.38
694.443	4.38
695.198	7.38
695.953	4.38
696.708	4.38
697.462	5.38
698.217	2.38
698.972	6.38
699.726	4.38
700.48	4.38
701.235	7.38
701.989	5.38
702.743	4.38
703.497	4.38
704.251	4.38
705.005	3.38
705.759	4.38
706.513	3.38
707.266	7.38
708.02	7.38
708.774	5.38
709.527	3.38
710.28	4.38
711.034	6.38
711.787	2.38
712.54	4.38
713.293	5.38
714.046	3.38
714.799	5.38
715.552	6.38
716.305	3.38
717.058	5.38
717.81	3.38
718.563	5.38
719.315	2.38
720.068	3.38
720.82	3.38
721.573	3.38
722.325	3.38
723.077	2.38
723.829	6.38
724.581	2.38
725.333	5.38
726.085	6.38
726.836	3.38
727.588	4.38
728.34	5.38
729.091	6.38
729.843	5.38
730.594	5.38
731.346	5.38
732.097	5.38
732.848	4.38
733.599	1.38
734.35	3.38
735.101	7.38
735.852	4.38
736.603	6.38
737.354	7.38
738.104	6.38
738.855	4.38
739.605	7.38
740.356	5.38
741.106	5.38
741.856	5.38
742.607	5.38
743.357	6.38
744.107	7.38
744.857	6.38
745.607	5.38
746.357	5.38
747.106	7.38
747.856	6.38
748.606	5.38
749.355	5.38
750.105	6.38
750.854	7.38
751.603	6.38
752.353	9.38
753.102	4.38
753.851	5.38
754.6	4.38
755.349	9.38
756.098	6.38
756.847	6.38
757.595	7.38
758.344	8.38
759.093	4.38
759.841	5.38
760.589	7.38
761.338	9.38
762.086	6.38
762.834	8.38
763.582	6.38
764.331	8.38
765.079	7.38
765.826	8.38
766.574	9.38
767.322	10.38
768.07	8.38
768.817	8.38
769.565	8.38
770.312	8.38
771.06	10.38
771.807	8.38
772.554	7.38
773.302	7.38
774.049	8.38
774.796	8.38
775.543	10.38
776.29	8.38
777.036	9.38
777.783	9.38
778.53	7.38
779.276	8.38
780.023	7.38
780.769	10.38
781.516	9.38
782.262	9.38
783.008	9.38
783.754	9.38
784.5	9.38
785.246	9.38
785.992	7.38
786.738	11.38
787.484	8.38
788.23	10.38
788.975	7.38
789.721	9.38
790.466	9.38
791.212	10.38
791.957	10.38
792.702	10.38
793.447	8.38
794.193	9.38
794.938	5.38
795.683	9.38
796.427	5.38
797.172	10.38
797.917	9.38
798.662	8.38
799.406	8.38
800.151	7.38
800.895	7.38
801.64	6.38
802.384	8.38
803.128	7.38
803.872	8.38
804.616	7.38
805.36	7.38
806.104	6.38
806.848	8.38
807.592	8.38
808.336	7.38
809.079	6.38
809.823	8.38
810.566	4.38
811.31	6.38
812.053	4.38
812.796	6.38
813.539	7.38
814.283	3.38
815.026	5.38
815.769	5.38
816.511	6.38
817.254	4.38
817.997	5.38
818.74	6.38
819.482	6.38
820.225	6.38
820.967	6.38
821.71	6.38
822.452	7.38
823.194	3.38
823.936	7.38
824.678	3.38
825.42	5.38
826.162	5.38
826.904	4.38
827.646	5.38
828.388	4.38
829.129	3.38
829.871	5.38
830.612	5.38
831.354	2.38
832.095	4.38
832.836	5.38
833.577	3.38
834.319	5.38
835.06	2.38
835.801	3.38
836.542	1.38
837.282	5.38
838.023	6.38
838.764	5.38
839.504	3.38
840.245	5.38
840.985	2.38
841.726	4.38
842.466	3.38
843.206	4.38
843.946	5.38
844.687	4.38
845.427	4.38
846.166	3.38
846.906	3.38
847.646	3.38
848.386	5.38
849.125	4.38
849.865	2.38
850.605	4.38
851.344	0.38
852.083	3.38
852.823	5.38
853.562	3.38
854.301	3.38
855.04	3.38
855.779	3.38
856.518	4.38
857.257	2.38
857.995	1.38
858.734	1.38
859.473	2.38
860.211	3.38
860.95	2.38
861.688	3.38
862.426	1.38
863.165	3.38
863.903	1.38
864.641	4.38
865.379	3.38
866.117	3.38
866.855	2.38
867.593	1.38
868.33	2.38
869.068	1.38
869.806	2.38
870.543	2.38
871.28	4.38
872.018	2.38
872.755	0.38
873.492	0.38
874.229	1.38
874.967	1.38
875.703	3.38
876.44	1.38
877.177	1.38
877.914	3.38
878.651	2.38
879.387	0.38
880.124	2.38
880.86	0.38
881.597	0.38
882.333	1.38
883.069	1.38
883.806	0.38
884.542	0.38
885.278	0.38
886.014	2.38
886.749	2.38
887.485	2.38
888.221	0.38
888.957	1.38
889.692	1.38
890.428	1.38
891.163	0.38
891.899	2.38
892.634	0.38
893.369	1.38
894.104	1.38
894.839	1.38
895.574	1.38
896.309	3.38
897.044	1.38
897.779	0.38
898.514	1.38
899.248	2.38
899.983	2.38
900.717	2.38
901.452	4.38
902.186	2.38
902.92	0.38
903.654	2.38
904.389	1.38
905.123	2.38
905.857	0.38
906.59	2.38
907.324	2.38
908.058	-0.62
908.792	3.38
909.525	1.38
910.259	0.38
910.992	0.38
911.726	2.38
912.459	-0.62
913.192	1.38
913.925	1.38
914.658	0.38
915.391	-0.62
916.124	0.38
916.857	1.38
917.59	0.38
918.323	-0.62
919.055	1.38
919.788	0.38
920.521	0.38
921.253	0.38
921.985	1.38
922.718	-0.62
923.45	2.38
924.182	2.38
924.914	1.38
925.646	3.38
926.378	3.38
927.11	1.38
927.841	1.38
928.573	-0.62
929.305	2.38
930.036	-0.62
930.768	1.38
931.499	2.38
932.23	1.38
932.962	2.38
933.693	2.38
934.424	1.38
935.155	-0.62
935.886	1.38
936.617	3.38
937.348	1.38
938.078	0.38
938.809	1.38
939.54	1.38
940.27	0.38
941.001	1.38
941.731	1.38
942.461	-0.62
943.191	2.38
943.922	1.38
944.652	0.38
945.382	-1.62
946.112	1.38
946.841	1.38
947.571	-1.62
948.301	2.38
949.031	-1.62
949.76	0.38
950.49	0.38
951.219	-0.62
951.948	0.38
952.678	0.38
953.407	0.38
954.136	1.38
954.865	2.38
955.594	2.38
956.323	1.38
957.052	1.38
957.78	-1.62
958.509	0.38
959.238	-0.62
959.966	-0.62
960.695	1.38
961.423	0.38
962.151	2.38
962.88	1.38
963.608	1.38
964.336	1.38
965.064	1.38
965.792	2.38
966.52	1.38
967.247	0.38
967.975	0.38
968.703	0.38
969.43	0.38
970.158	1.38
970.885	3.38
971.613	1.38
972.34	-1.62
973.067	0.38
973.794	3.38
974.521	1.38
975.248	1.38
975.975	1.38
976.702	0.38
977.429	-1.62
978.156	0.38
978.882	1.38
979.609	2.38
980.335	0.38
981.062	1.38
981.788	0.38
982.514	-0.62
983.24	1.38
983.967	1.38
984.693	2.38
985.419	1.38
986.144	1.38
986.87	1.38
987.596	-0.62
988.322	1.38
989.047	-0.62
989.773	-1.62
990.498	-0.62
991.224	1.38
991.949	2.38
992.674	-1.62
993.399	1.38
994.124	0.38
994.849	-2.62
995.574	1.38
996.299	-0.62
997.024	1.38
997.749	0.38
998.473	3.38
999.198	0.38
999.922	-2.62
1000.647	2.38
1001.371	2.38
1002.095	0.38
1002.82	-1.62
1003.544	-1.62
1004.268	2.38
1004.992	1.38
1005.716	1.38
1006.439	1.38
1007.163	2.38
1007.887	1.38
1008.611	1.38
1009.334	1.38
1010.058	0.38
1010.781	0.38
1011.504	2.38
1012.228	1.38
1012.951	0.38
1013.674	-0.62
1014.397	-0.62
1015.12	1.38
