节点500_285_QEPB04081__483__15-03-35-441.txt的数据

Date: Wed Nov 12 15:03:35 CST 2025
User: PC
Spectrometer: QEPB0408
触发模式: 0
积分时间 (秒): 1.000000E-2
Scans to average: 1
启用暗噪声校正: true
启用非线性校正: false
滑动平均宽度: 0
X轴模式: Wavelengths
Number of Pixels in Spectrum: 1044
>>>>>Begin Spectral Data<<<<<
220.843	2.38
221.644	1.38
222.444	0.38
223.244	2.38
224.045	3.38
224.845	1.38
225.645	2.38
226.445	4.38
227.245	3.38
228.045	3.38
228.845	3.38
229.645	4.38
230.444	3.38
231.244	3.38
232.043	4.38
232.843	3.38
233.642	4.38
234.442	5.38
235.241	4.38
236.04	6.38
236.839	6.38
237.638	4.38
238.437	2.38
239.236	5.38
240.035	5.38
240.833	3.38
241.632	7.38
242.43	3.38
243.229	2.38
244.027	8.38
244.826	4.38
245.624	5.38
246.422	6.38
247.22	5.38
248.018	6.38
248.816	7.38
249.614	8.38
250.412	7.38
251.21	8.38
252.007	7.38
252.805	6.38
253.602	11.38
254.4	7.38
255.197	9.38
255.994	6.38
256.791	9.38
257.589	9.38
258.386	7.38
259.183	8.38
259.979	11.38
260.776	13.38
261.573	11.38
262.37	11.38
263.166	11.38
263.963	12.38
264.759	14.38
265.556	9.38
266.352	10.38
267.148	11.38
267.944	14.38
268.74	14.38
269.536	13.38
270.332	16.38
271.128	14.38
271.924	16.38
272.719	13.38
273.515	15.38
274.311	15.38
275.106	15.38
275.901	17.38
276.697	16.38
277.492	18.38
278.287	16.38
279.082	17.38
279.877	19.38
280.672	20.38
281.467	19.38
282.262	18.38
283.056	18.38
283.851	20.38
284.646	18.38
285.44	17.38
286.234	17.38
287.029	21.38
287.823	17.38
288.617	16.38
289.411	20.38
290.205	21.38
290.999	20.38
291.793	17.38
292.587	19.38
293.381	18.38
294.174	16.38
294.968	18.38
295.761	15.38
296.555	16.38
297.348	14.38
298.141	13.38
298.935	17.38
299.728	14.38
300.521	17.38
301.314	15.38
302.107	16.38
302.899	15.38
303.692	15.38
304.485	14.38
305.277	13.38
306.07	13.38
306.862	10.38
307.655	13.38
308.447	15.38
309.239	11.38
310.031	12.38
310.823	9.38
311.615	10.38
312.407	12.38
313.199	12.38
313.991	11.38
314.783	9.38
315.574	8.38
316.366	10.38
317.157	10.38
317.949	7.38
318.74	9.38
319.531	8.38
320.322	7.38
321.113	7.38
321.904	9.38
322.695	8.38
323.486	9.38
324.277	6.38
325.068	11.38
325.858	8.38
326.649	10.38
327.439	8.38
328.23	8.38
329.02	9.38
329.81	7.38
330.6	7.38
331.391	5.38
332.181	9.38
332.971	7.38
333.76	8.38
334.55	7.38
335.34	5.38
336.13	9.38
336.919	8.38
337.709	8.38
338.498	6.38
339.287	6.38
340.077	6.38
340.866	5.38
341.655	8.38
342.444	5.38
343.233	5.38
344.022	8.38
344.811	3.38
345.6	6.38
346.388	7.38
347.177	7.38
347.965	7.38
348.754	6.38
349.542	6.38
350.33	6.38
351.119	6.38
351.907	7.38
352.695	7.38
353.483	6.38
354.271	7.38
355.059	8.38
355.846	8.38
356.634	5.38
357.422	4.38
358.209	4.38
358.997	7.38
359.784	6.38
360.571	7.38
361.359	8.38
362.146	5.38
362.933	6.38
363.72	4.38
364.507	6.38
365.294	2.38
366.081	5.38
366.867	5.38
367.654	4.38
368.44	6.38
369.227	6.38
370.013	4.38
370.8	1.38
371.586	5.38
372.372	6.38
373.158	3.38
373.944	5.38
374.73	6.38
375.516	5.38
376.302	5.38
377.088	6.38
377.873	7.38
378.659	5.38
379.445	7.38
380.23	5.38
381.015	6.38
381.801	5.38
382.586	6.38
383.371	5.38
384.156	3.38
384.941	5.38
385.726	6.38
386.511	6.38
387.296	6.38
388.08	3.38
388.865	5.38
389.649	7.38
390.434	5.38
391.218	7.38
392.003	6.38
392.787	8.38
393.571	5.38
394.355	7.38
395.139	8.38
395.923	7.38
396.707	6.38
397.491	3.38
398.274	5.38
399.058	5.38
399.842	6.38
400.625	6.38
401.408	9.38
402.192	7.38
402.975	6.38
403.758	6.38
404.541	6.38
405.324	8.38
406.107	10.38
406.89	9.38
407.673	7.38
408.456	9.38
409.238	10.38
410.021	7.38
410.803	9.38
411.586	7.38
412.368	4.38
413.151	11.38
413.933	7.38
414.715	9.38
415.497	10.38
416.279	7.38
417.061	10.38
417.843	8.38
418.624	10.38
419.406	8.38
420.188	10.38
420.969	11.38
421.751	11.38
422.532	11.38
423.313	10.38
424.095	9.38
424.876	12.38
425.657	11.38
426.438	12.38
427.219	15.38
428	14.38
428.78	13.38
429.561	14.38
430.342	12.38
431.122	13.38
431.903	16.38
432.683	15.38
433.464	19.38
434.244	16.38
435.024	19.38
435.804	19.38
436.584	17.38
437.364	17.38
438.144	17.38
438.924	20.38
439.704	22.38
440.483	22.38
441.263	25.38
442.042	25.38
442.822	25.38
443.601	29.38
444.38	31.38
445.16	35.38
445.939	33.38
446.718	33.38
447.497	39.38
448.276	43.38
449.054	48.38
449.833	50.38
450.612	53.38
451.391	60.38
452.169	60.38
452.948	72.38
453.726	76.38
454.504	84.38
455.282	92.38
456.061	102.38
456.839	113.38
457.617	121.38
458.395	139.38
459.172	152.38
459.95	170.38
460.728	190.38
461.506	216.38
462.283	234.38
463.061	263.38
463.838	295.38
464.615	341.38
465.393	372.38
466.17	410.38
466.947	457.38
467.724	508.38
468.501	567.38
469.278	637.38
470.055	701.38
470.831	779.38
471.608	865.38
472.385	963.38
473.161	1062.38
473.938	1170.38
474.714	1301.38
475.49	1437.38
476.266	1599.38
477.043	1752.38
477.819	1933.38
478.595	2134.38
479.371	2352.38
480.146	2582.38
480.922	2841.38
481.698	3125.38
482.473	3431.38
483.249	3766.38
484.024	4158.38
484.8	4543.38
485.575	5018.38
486.35	5467.38
487.126	5954.38
487.901	6542.38
488.676	7158.38
489.451	7828.38
490.225	8610.38
491	9339.38
491.775	10163.38
492.55	11102.38
493.324	12001.38
494.099	12945.38
494.873	13916.38
495.647	15020.38
496.422	16065.38
497.196	17188.38
497.97	18382.38
498.744	19492.38
499.518	20670.38
500.292	21747.38
501.066	22850.38
501.839	23787.38
502.613	24719.38
503.387	25454.38
504.16	26089.38
504.934	26541.38
505.707	26801.38
506.48	26891.38
507.253	26843.38
508.027	26711.38
508.8	26476.38
509.573	26033.38
510.346	25502.38
511.118	24836.38
511.891	24129.38
512.664	23369.38
513.437	22465.38
514.209	21622.38
514.982	20722.38
515.754	19851.38
516.526	18956.38
517.298	18144.38
518.071	17354.38
518.843	16693.38
519.615	16097.38
520.387	15463.38
521.159	14878.38
521.93	14183.38
522.702	13665.38
523.474	13093.38
524.245	12530.38
525.017	12022.38
525.788	11559.38
526.56	11057.38
527.331	10506.38
528.102	10099.38
528.873	9595.38
529.644	9157.38
530.415	8733.38
531.186	8261.38
531.957	7847.38
532.728	7420.38
533.498	7081.38
534.269	6646.38
535.039	6299.38
535.81	5962.38
536.58	5656.38
537.351	5308.38
538.121	5021.38
538.891	4741.38
539.661	4514.38
540.431	4270.38
541.201	4025.38
541.971	3823.38
542.741	3629.38
543.51	3407.38
544.28	3240.38
545.05	3112.38
545.819	2938.38
546.588	2792.38
547.358	2657.38
548.127	2536.38
548.896	2406.38
549.665	2276.38
550.434	2168.38
551.203	2032.38
551.972	1942.38
552.741	1821.38
553.51	1733.38
554.278	1636.38
555.047	1536.38
555.815	1449.38
556.584	1387.38
557.352	1312.38
558.121	1244.38
558.889	1157.38
559.657	1094.38
560.425	1042.38
561.193	967.38
561.961	920.38
562.729	868.38
563.496	825.38
564.264	791.38
565.032	739.38
565.799	701.38
566.567	668.38
567.334	633.38
568.101	589.38
568.869	553.38
569.636	521.38
570.403	491.38
571.17	464.38
571.937	437.38
572.704	414.38
573.471	382.38
574.237	357.38
575.004	348.38
575.771	322.38
576.537	304.38
577.303	288.38
578.07	268.38
578.836	258.38
579.602	245.38
580.368	221.38
581.134	218.38
581.9	208.38
582.666	197.38
583.432	180.38
584.198	177.38
584.964	166.38
585.729	155.38
586.495	153.38
587.26	143.38
588.025	131.38
588.791	125.38
589.556	120.38
590.321	116.38
591.086	108.38
591.851	101.38
592.616	96.38
593.381	94.38
594.146	91.38
594.911	89.38
595.675	81.38
596.44	75.38
597.204	78.38
597.969	67.38
598.733	66.38
599.497	66.38
600.261	64.38
601.025	58.38
601.79	53.38
602.553	53.38
603.317	50.38
604.081	49.38
604.845	46.38
605.609	42.38
606.372	43.38
607.136	42.38
607.899	40.38
608.662	37.38
609.426	36.38
610.189	35.38
610.952	35.38
611.715	31.38
612.478	30.38
613.241	31.38
614.004	27.38
614.767	28.38
615.529	28.38
616.292	24.38
617.055	26.38
617.817	22.38
618.579	23.38
619.342	21.38
620.104	21.38
620.866	22.38
621.628	18.38
622.39	20.38
623.152	19.38
623.914	18.38
624.676	18.38
625.438	15.38
626.199	18.38
626.961	16.38
627.722	14.38
628.484	17.38
629.245	12.38
630.006	14.38
630.768	14.38
631.529	14.38
632.29	13.38
633.051	15.38
633.812	13.38
634.573	13.38
635.333	13.38
636.094	11.38
636.855	13.38
637.615	10.38
638.376	10.38
639.136	9.38
639.896	8.38
640.657	10.38
641.417	6.38
642.177	12.38
642.937	8.38
643.697	9.38
644.457	10.38
645.216	9.38
645.976	9.38
646.736	8.38
647.495	9.38
648.255	7.38
649.014	8.38
649.774	6.38
650.533	8.38
651.292	7.38
652.051	7.38
652.81	7.38
653.569	6.38
654.328	6.38
655.087	5.38
655.846	7.38
656.604	6.38
657.363	6.38
658.121	7.38
658.88	5.38
659.638	3.38
660.397	6.38
661.155	5.38
661.913	5.38
662.671	6.38
663.429	4.38
664.187	5.38
664.945	4.38
665.703	4.38
666.46	3.38
667.218	4.38
667.976	7.38
668.733	6.38
669.49	5.38
670.248	4.38
671.005	6.38
671.762	2.38
672.519	3.38
673.276	7.38
674.033	1.38
674.79	2.38
675.547	4.38
676.304	5.38
677.06	5.38
677.817	3.38
678.574	4.38
679.33	2.38
680.086	5.38
680.843	4.38
681.599	3.38
682.355	4.38
683.111	3.38
683.867	5.38
684.623	4.38
685.379	3.38
686.135	2.38
686.89	7.38
687.646	5.38
688.402	5.38
689.157	2.38
689.912	1.38
690.668	5.38
691.423	6.38
692.178	3.38
692.933	6.38
693.688	6.38
694.443	3.38
695.198	3.38
695.953	2.38
696.708	4.38
697.462	7.38
698.217	3.38
698.972	4.38
699.726	6.38
700.48	4.38
701.235	3.38
701.989	2.38
702.743	4.38
703.497	3.38
704.251	4.38
705.005	4.38
705.759	2.38
706.513	4.38
707.266	4.38
708.02	0.38
708.774	3.38
709.527	4.38
710.28	3.38
711.034	4.38
711.787	2.38
712.54	3.38
713.293	2.38
714.046	4.38
714.799	5.38
715.552	2.38
716.305	6.38
717.058	3.38
717.81	3.38
718.563	4.38
719.315	4.38
720.068	4.38
720.82	3.38
721.573	6.38
722.325	2.38
723.077	7.38
723.829	2.38
724.581	3.38
725.333	2.38
726.085	4.38
726.836	4.38
727.588	4.38
728.34	2.38
729.091	6.38
729.843	5.38
730.594	3.38
731.346	6.38
732.097	3.38
732.848	2.38
733.599	6.38
734.35	6.38
735.101	5.38
735.852	3.38
736.603	3.38
737.354	5.38
738.104	5.38
738.855	3.38
739.605	4.38
740.356	7.38
741.106	5.38
741.856	5.38
742.607	4.38
743.357	5.38
744.107	4.38
744.857	4.38
745.607	4.38
746.357	5.38
747.106	5.38
747.856	8.38
748.606	3.38
749.355	5.38
750.105	5.38
750.854	5.38
751.603	6.38
752.353	5.38
753.102	7.38
753.851	7.38
754.6	4.38
755.349	6.38
756.098	4.38
756.847	6.38
757.595	7.38
758.344	8.38
759.093	6.38
759.841	6.38
760.589	7.38
761.338	5.38
762.086	4.38
762.834	8.38
763.582	6.38
764.331	6.38
765.079	8.38
765.826	7.38
766.574	7.38
767.322	7.38
768.07	8.38
768.817	7.38
769.565	7.38
770.312	7.38
771.06	9.38
771.807	8.38
772.554	6.38
773.302	7.38
774.049	7.38
774.796	9.38
775.543	8.38
776.29	7.38
777.036	7.38
777.783	10.38
778.53	7.38
779.276	9.38
780.023	8.38
780.769	7.38
781.516	9.38
782.262	10.38
783.008	8.38
783.754	9.38
784.5	6.38
785.246	8.38
785.992	7.38
786.738	9.38
787.484	9.38
788.23	7.38
788.975	7.38
789.721	7.38
790.466	8.38
791.212	7.38
791.957	10.38
792.702	8.38
793.447	8.38
794.193	7.38
794.938	8.38
795.683	11.38
796.427	8.38
797.172	9.38
797.917	9.38
798.662	10.38
799.406	8.38
800.151	9.38
800.895	8.38
801.64	6.38
802.384	6.38
803.128	7.38
803.872	8.38
804.616	7.38
805.36	7.38
806.104	6.38
806.848	7.38
807.592	3.38
808.336	7.38
809.079	6.38
809.823	6.38
810.566	6.38
811.31	7.38
812.053	8.38
812.796	5.38
813.539	5.38
814.283	4.38
815.026	7.38
815.769	5.38
816.511	6.38
817.254	6.38
817.997	3.38
818.74	4.38
819.482	7.38
820.225	7.38
820.967	5.38
821.71	5.38
822.452	7.38
823.194	3.38
823.936	6.38
824.678	1.38
825.42	4.38
826.162	1.38
826.904	2.38
827.646	5.38
828.388	5.38
829.129	7.38
829.871	4.38
830.612	6.38
831.354	6.38
832.095	4.38
832.836	5.38
833.577	4.38
834.319	5.38
835.06	2.38
835.801	3.38
836.542	4.38
837.282	4.38
838.023	4.38
838.764	4.38
839.504	3.38
840.245	4.38
840.985	2.38
841.726	3.38
842.466	1.38
843.206	4.38
843.946	3.38
844.687	3.38
845.427	4.38
846.166	2.38
846.906	3.38
847.646	1.38
848.386	2.38
849.125	3.38
849.865	2.38
850.605	4.38
851.344	4.38
852.083	5.38
852.823	2.38
853.562	2.38
854.301	3.38
855.04	4.38
855.779	2.38
856.518	3.38
857.257	3.38
857.995	2.38
858.734	3.38
859.473	3.38
860.211	2.38
860.95	1.38
861.688	2.38
862.426	7.38
863.165	2.38
863.903	3.38
864.641	3.38
865.379	0.38
866.117	1.38
866.855	1.38
867.593	1.38
868.33	1.38
869.068	2.38
869.806	1.38
870.543	2.38
871.28	3.38
872.018	2.38
872.755	2.38
873.492	3.38
874.229	1.38
874.967	2.38
875.703	2.38
876.44	2.38
877.177	1.38
877.914	1.38
878.651	2.38
879.387	0.38
880.124	2.38
880.86	0.38
881.597	0.38
882.333	1.38
883.069	1.38
883.806	3.38
884.542	3.38
885.278	2.38
886.014	2.38
886.749	0.38
887.485	0.38
888.221	-0.62
888.957	3.38
889.692	1.38
890.428	1.38
891.163	1.38
891.899	2.38
892.634	2.38
893.369	0.38
894.104	2.38
894.839	5.38
895.574	1.38
896.309	2.38
897.044	1.38
897.779	0.38
898.514	-0.62
899.248	3.38
899.983	1.38
900.717	-1.62
901.452	2.38
902.186	0.38
902.92	0.38
903.654	3.38
904.389	0.38
905.123	1.38
905.857	0.38
906.59	2.38
907.324	0.38
908.058	0.38
908.792	-1.62
909.525	-0.62
910.259	0.38
910.992	-1.62
911.726	-0.62
912.459	1.38
913.192	1.38
913.925	2.38
914.658	2.38
915.391	0.38
916.124	-0.62
916.857	3.38
917.59	1.38
918.323	-0.62
919.055	0.38
919.788	-1.62
920.521	-0.62
921.253	1.38
921.985	2.38
922.718	1.38
923.45	0.38
924.182	0.38
924.914	0.38
925.646	1.38
926.378	-0.62
927.11	3.38
927.841	-0.62
928.573	-0.62
929.305	-0.62
930.036	0.38
930.768	0.38
931.499	2.38
932.23	2.38
932.962	1.38
933.693	-0.62
934.424	-0.62
935.155	-0.62
935.886	-0.62
936.617	-1.62
937.348	0.38
938.078	-0.62
938.809	2.38
939.54	-0.62
940.27	1.38
941.001	1.38
941.731	1.38
942.461	0.38
943.191	0.38
943.922	1.38
944.652	2.38
945.382	1.38
946.112	1.38
946.841	2.38
947.571	0.38
948.301	1.38
949.031	1.38
949.76	1.38
950.49	3.38
951.219	0.38
951.948	2.38
952.678	-0.62
953.407	2.38
954.136	-0.62
954.865	0.38
955.594	1.38
956.323	1.38
957.052	0.38
957.78	0.38
958.509	0.38
959.238	0.38
959.966	-1.62
960.695	2.38
961.423	0.38
962.151	0.38
962.88	-0.62
963.608	2.38
964.336	0.38
965.064	2.38
965.792	0.38
966.52	0.38
967.247	2.38
967.975	0.38
968.703	2.38
969.43	-0.62
970.158	1.38
970.885	1.38
971.613	-0.62
972.34	2.38
973.067	0.38
973.794	0.38
974.521	2.38
975.248	-0.62
975.975	1.38
976.702	0.38
977.429	1.38
978.156	-0.62
978.882	1.38
979.609	0.38
980.335	0.38
981.062	0.38
981.788	-0.62
982.514	1.38
983.24	-0.62
983.967	-0.62
984.693	2.38
985.419	1.38
986.144	-0.62
986.87	-0.62
987.596	-0.62
988.322	2.38
989.047	-1.62
989.773	0.38
990.498	0.38
991.224	0.38
991.949	1.38
992.674	0.38
993.399	0.38
994.124	0.38
994.849	-1.62
995.574	0.38
996.299	1.38
997.024	1.38
997.749	-1.62
998.473	-0.62
999.198	-2.62
999.922	0.38
1000.647	1.38
1001.371	4.38
1002.095	-1.62
1002.82	-1.62
1003.544	-0.62
1004.268	1.38
1004.992	0.38
1005.716	3.38
1006.439	-2.62
1007.163	-0.62
1007.887	1.38
1008.611	0.38
1009.334	0.38
1010.058	0.38
1010.781	-0.62
1011.504	0.38
1012.228	0.38
1012.951	0.38
1013.674	-1.62
1014.397	1.38
1015.12	-0.62
