节点500_285_QEPB04081__182__14-58-35-160.txt的数据

Date: Wed Nov 12 14:58:35 CST 2025
User: PC
Spectrometer: QEPB0408
触发模式: 0
积分时间 (秒): 1.000000E-2
Scans to average: 1
启用暗噪声校正: true
启用非线性校正: false
滑动平均宽度: 0
X轴模式: Wavelengths
Number of Pixels in Spectrum: 1044
>>>>>Begin Spectral Data<<<<<
220.843	4.88
221.644	-0.12
222.444	-0.12
223.244	0.88
224.045	2.88
224.845	0.88
225.645	1.88
226.445	2.88
227.245	1.88
228.045	4.88
228.845	1.88
229.645	2.88
230.444	1.88
231.244	2.88
232.043	2.88
232.843	1.88
233.642	3.88
234.442	5.88
235.241	3.88
236.04	3.88
236.839	1.88
237.638	3.88
238.437	1.88
239.236	2.88
240.035	3.88
240.833	3.88
241.632	2.88
242.43	2.88
243.229	4.88
244.027	6.88
244.826	3.88
245.624	5.88
246.422	5.88
247.22	4.88
248.018	5.88
248.816	4.88
249.614	4.88
250.412	4.88
251.21	5.88
252.007	2.88
252.805	7.88
253.602	6.88
254.4	7.88
255.197	6.88
255.994	5.88
256.791	8.88
257.589	9.88
258.386	7.88
259.183	9.88
259.979	8.88
260.776	11.88
261.573	10.88
262.37	11.88
263.166	9.88
263.963	10.88
264.759	12.88
265.556	10.88
266.352	10.88
267.148	12.88
267.944	12.88
268.74	12.88
269.536	12.88
270.332	14.88
271.128	13.88
271.924	17.88
272.719	15.88
273.515	15.88
274.311	17.88
275.106	14.88
275.901	17.88
276.697	19.88
277.492	16.88
278.287	18.88
279.082	16.88
279.877	18.88
280.672	18.88
281.467	18.88
282.262	16.88
283.056	19.88
283.851	19.88
284.646	14.88
285.44	18.88
286.234	16.88
287.029	19.88
287.823	19.88
288.617	20.88
289.411	18.88
290.205	20.88
290.999	18.88
291.793	18.88
292.587	17.88
293.381	17.88
294.174	16.88
294.968	18.88
295.761	13.88
296.555	15.88
297.348	14.88
298.141	18.88
298.935	15.88
299.728	14.88
300.521	14.88
301.314	13.88
302.107	10.88
302.899	12.88
303.692	10.88
304.485	13.88
305.277	12.88
306.07	13.88
306.862	11.88
307.655	12.88
308.447	12.88
309.239	8.88
310.031	10.88
310.823	7.88
311.615	8.88
312.407	10.88
313.199	10.88
313.991	8.88
314.783	9.88
315.574	8.88
316.366	7.88
317.157	9.88
317.949	9.88
318.74	6.88
319.531	6.88
320.322	5.88
321.113	6.88
321.904	7.88
322.695	6.88
323.486	5.88
324.277	7.88
325.068	7.88
325.858	6.88
326.649	7.88
327.439	6.88
328.23	8.88
329.02	5.88
329.81	2.88
330.6	5.88
331.391	6.88
332.181	5.88
332.971	5.88
333.76	2.88
334.55	5.88
335.34	6.88
336.13	7.88
336.919	3.88
337.709	6.88
338.498	7.88
339.287	4.88
340.077	5.88
340.866	6.88
341.655	6.88
342.444	5.88
343.233	4.88
344.022	6.88
344.811	6.88
345.6	7.88
346.388	7.88
347.177	3.88
347.965	8.88
348.754	3.88
349.542	4.88
350.33	6.88
351.119	5.88
351.907	7.88
352.695	6.88
353.483	5.88
354.271	5.88
355.059	3.88
355.846	4.88
356.634	2.88
357.422	5.88
358.209	5.88
358.997	4.88
359.784	3.88
360.571	4.88
361.359	6.88
362.146	2.88
362.933	6.88
363.72	2.88
364.507	4.88
365.294	4.88
366.081	5.88
366.867	4.88
367.654	3.88
368.44	5.88
369.227	2.88
370.013	2.88
370.8	3.88
371.586	5.88
372.372	6.88
373.158	2.88
373.944	3.88
374.73	5.88
375.516	7.88
376.302	3.88
377.088	3.88
377.873	5.88
378.659	2.88
379.445	3.88
380.23	6.88
381.015	2.88
381.801	5.88
382.586	3.88
383.371	5.88
384.156	3.88
384.941	5.88
385.726	4.88
386.511	4.88
387.296	5.88
388.08	4.88
388.865	5.88
389.649	5.88
390.434	3.88
391.218	5.88
392.003	6.88
392.787	6.88
393.571	4.88
394.355	5.88
395.139	4.88
395.923	2.88
396.707	4.88
397.491	5.88
398.274	8.88
399.058	6.88
399.842	6.88
400.625	8.88
401.408	6.88
402.192	7.88
402.975	7.88
403.758	6.88
404.541	6.88
405.324	7.88
406.107	5.88
406.89	6.88
407.673	5.88
408.456	6.88
409.238	6.88
410.021	8.88
410.803	6.88
411.586	7.88
412.368	7.88
413.151	8.88
413.933	5.88
414.715	8.88
415.497	8.88
416.279	8.88
417.061	11.88
417.843	8.88
418.624	8.88
419.406	9.88
420.188	8.88
420.969	7.88
421.751	10.88
422.532	9.88
423.313	9.88
424.095	8.88
424.876	10.88
425.657	9.88
426.438	12.88
427.219	13.88
428	12.88
428.78	13.88
429.561	12.88
430.342	10.88
431.122	11.88
431.903	12.88
432.683	14.88
433.464	14.88
434.244	18.88
435.024	16.88
435.804	16.88
436.584	17.88
437.364	18.88
438.144	21.88
438.924	18.88
439.704	19.88
440.483	21.88
441.263	20.88
442.042	23.88
442.822	23.88
443.601	25.88
444.38	25.88
445.16	30.88
445.939	34.88
446.718	35.88
447.497	37.88
448.276	38.88
449.054	43.88
449.833	45.88
450.612	47.88
451.391	57.88
452.169	59.88
452.948	64.88
453.726	73.88
454.504	78.88
455.282	83.88
456.061	93.88
456.839	101.88
457.617	117.88
458.395	131.88
459.172	145.88
459.95	163.88
460.728	181.88
461.506	195.88
462.283	222.88
463.061	244.88
463.838	269.88
464.615	316.88
465.393	347.88
466.17	390.88
466.947	436.88
467.724	489.88
468.501	534.88
469.278	597.88
470.055	668.88
470.831	742.88
471.608	830.88
472.385	925.88
473.161	1028.88
473.938	1148.88
474.714	1282.88
475.49	1400.88
476.266	1567.88
477.043	1736.88
477.819	1929.88
478.595	2109.88
479.371	2344.88
480.146	2597.88
480.922	2886.88
481.698	3170.88
482.473	3480.88
483.249	3867.88
484.024	4264.88
484.8	4698.88
485.575	5174.88
486.35	5715.88
487.126	6247.88
487.901	6886.88
488.676	7599.88
489.451	8321.88
490.225	9111.88
491	10009.88
491.775	10933.88
492.55	11903.88
493.324	12942.88
494.099	13959.88
494.873	15038.88
495.647	16202.88
496.422	17471.88
497.196	18690.88
497.97	19918.88
498.744	21206.88
499.518	22432.88
500.292	23558.88
501.066	24693.88
501.839	25621.88
502.613	26456.88
503.387	27253.88
504.16	27800.88
504.934	28130.88
505.707	28127.88
506.48	28122.88
507.253	27966.88
508.027	27604.88
508.8	27237.88
509.573	26673.88
510.346	26003.88
511.118	25140.88
511.891	24238.88
512.664	23440.88
513.437	22459.88
514.209	21446.88
514.982	20522.88
515.754	19642.88
516.526	18687.88
517.298	17893.88
518.071	17142.88
518.843	16507.88
519.615	15873.88
520.387	15216.88
521.159	14620.88
521.93	14023.88
522.702	13448.88
523.474	12894.88
524.245	12338.88
525.017	11801.88
525.788	11341.88
526.56	10789.88
527.331	10324.88
528.102	9875.88
528.873	9404.88
529.644	8882.88
530.415	8457.88
531.186	8037.88
531.957	7596.88
532.728	7191.88
533.498	6842.88
534.269	6472.88
535.039	6080.88
535.81	5760.88
536.58	5429.88
537.351	5095.88
538.121	4823.88
538.891	4582.88
539.661	4330.88
540.431	4070.88
541.201	3849.88
541.971	3631.88
542.741	3459.88
543.51	3269.88
544.28	3140.88
545.05	2992.88
545.819	2834.88
546.588	2689.88
547.358	2549.88
548.127	2423.88
548.896	2292.88
549.665	2203.88
550.434	2059.88
551.203	1950.88
551.972	1852.88
552.741	1756.88
553.51	1654.88
554.278	1557.88
555.047	1475.88
555.815	1376.88
556.584	1310.88
557.352	1239.88
558.121	1167.88
558.889	1101.88
559.657	1047.88
560.425	984.88
561.193	924.88
561.961	877.88
562.729	824.88
563.496	780.88
564.264	732.88
565.032	692.88
565.799	659.88
566.567	615.88
567.334	588.88
568.101	554.88
568.869	518.88
569.636	502.88
570.403	462.88
571.17	433.88
571.937	414.88
572.704	386.88
573.471	360.88
574.237	342.88
575.004	327.88
575.771	307.88
576.537	291.88
577.303	273.88
578.07	254.88
578.836	248.88
579.602	229.88
580.368	213.88
581.134	201.88
581.9	191.88
582.666	184.88
583.432	163.88
584.198	159.88
584.964	154.88
585.729	150.88
586.495	140.88
587.26	130.88
588.025	124.88
588.791	115.88
589.556	108.88
590.321	109.88
591.086	104.88
591.851	91.88
592.616	94.88
593.381	89.88
594.146	82.88
594.911	80.88
595.675	73.88
596.44	71.88
597.204	68.88
597.969	65.88
598.733	62.88
599.497	60.88
600.261	58.88
601.025	51.88
601.79	52.88
602.553	50.88
603.317	48.88
604.081	46.88
604.845	42.88
605.609	42.88
606.372	36.88
607.136	37.88
607.899	36.88
608.662	38.88
609.426	33.88
610.189	35.88
610.952	31.88
611.715	30.88
612.478	29.88
613.241	29.88
614.004	25.88
614.767	23.88
615.529	22.88
616.292	24.88
617.055	24.88
617.817	21.88
618.579	21.88
619.342	21.88
620.104	19.88
620.866	20.88
621.628	19.88
622.39	18.88
623.152	16.88
623.914	15.88
624.676	14.88
625.438	18.88
626.199	16.88
626.961	16.88
627.722	15.88
628.484	18.88
629.245	11.88
630.006	14.88
630.768	12.88
631.529	10.88
632.29	10.88
633.051	11.88
633.812	9.88
634.573	10.88
635.333	14.88
636.094	10.88
636.855	9.88
637.615	10.88
638.376	6.88
639.136	9.88
639.896	8.88
640.657	7.88
641.417	8.88
642.177	7.88
642.937	7.88
643.697	7.88
644.457	6.88
645.216	7.88
645.976	8.88
646.736	6.88
647.495	5.88
648.255	8.88
649.014	7.88
649.774	5.88
650.533	7.88
651.292	4.88
652.051	3.88
652.81	6.88
653.569	5.88
654.328	6.88
655.087	6.88
655.846	7.88
656.604	4.88
657.363	5.88
658.121	4.88
658.88	6.88
659.638	3.88
660.397	5.88
661.155	6.88
661.913	2.88
662.671	4.88
663.429	4.88
664.187	4.88
664.945	6.88
665.703	4.88
666.46	4.88
667.218	4.88
667.976	2.88
668.733	2.88
669.49	2.88
670.248	2.88
671.005	5.88
671.762	2.88
672.519	4.88
673.276	5.88
674.033	3.88
674.79	5.88
675.547	4.88
676.304	1.88
677.06	4.88
677.817	5.88
678.574	2.88
679.33	6.88
680.086	2.88
680.843	4.88
681.599	5.88
682.355	3.88
683.111	2.88
683.867	2.88
684.623	5.88
685.379	2.88
686.135	3.88
686.89	3.88
687.646	2.88
688.402	2.88
689.157	1.88
689.912	2.88
690.668	3.88
691.423	2.88
692.178	2.88
692.933	2.88
693.688	3.88
694.443	1.88
695.198	2.88
695.953	2.88
696.708	3.88
697.462	3.88
698.217	2.88
698.972	3.88
699.726	3.88
700.48	5.88
701.235	2.88
701.989	0.88
702.743	4.88
703.497	1.88
704.251	2.88
705.005	2.88
705.759	2.88
706.513	0.88
707.266	2.88
708.02	3.88
708.774	3.88
709.527	2.88
710.28	1.88
711.034	1.88
711.787	2.88
712.54	1.88
713.293	5.88
714.046	3.88
714.799	4.88
715.552	1.88
716.305	2.88
717.058	3.88
717.81	2.88
718.563	3.88
719.315	2.88
720.068	3.88
720.82	4.88
721.573	2.88
722.325	2.88
723.077	2.88
723.829	2.88
724.581	2.88
725.333	2.88
726.085	3.88
726.836	2.88
727.588	2.88
728.34	2.88
729.091	2.88
729.843	3.88
730.594	0.88
731.346	5.88
732.097	3.88
732.848	6.88
733.599	1.88
734.35	0.88
735.101	3.88
735.852	4.88
736.603	3.88
737.354	3.88
738.104	2.88
738.855	4.88
739.605	4.88
740.356	3.88
741.106	3.88
741.856	3.88
742.607	4.88
743.357	2.88
744.107	4.88
744.857	5.88
745.607	5.88
746.357	5.88
747.106	3.88
747.856	4.88
748.606	2.88
749.355	5.88
750.105	5.88
750.854	3.88
751.603	5.88
752.353	5.88
753.102	2.88
753.851	3.88
754.6	7.88
755.349	6.88
756.098	5.88
756.847	5.88
757.595	3.88
758.344	7.88
759.093	5.88
759.841	6.88
760.589	3.88
761.338	5.88
762.086	5.88
762.834	3.88
763.582	6.88
764.331	7.88
765.079	5.88
765.826	6.88
766.574	6.88
767.322	5.88
768.07	6.88
768.817	8.88
769.565	8.88
770.312	4.88
771.06	6.88
771.807	6.88
772.554	7.88
773.302	8.88
774.049	7.88
774.796	9.88
775.543	6.88
776.29	8.88
777.036	7.88
777.783	7.88
778.53	5.88
779.276	7.88
780.023	7.88
780.769	7.88
781.516	8.88
782.262	8.88
783.008	8.88
783.754	6.88
784.5	8.88
785.246	9.88
785.992	9.88
786.738	8.88
787.484	7.88
788.23	6.88
788.975	8.88
789.721	5.88
790.466	9.88
791.212	6.88
791.957	7.88
792.702	10.88
793.447	7.88
794.193	10.88
794.938	7.88
795.683	8.88
796.427	7.88
797.172	4.88
797.917	8.88
798.662	5.88
799.406	7.88
800.151	6.88
800.895	7.88
801.64	6.88
802.384	5.88
803.128	5.88
803.872	5.88
804.616	5.88
805.36	4.88
806.104	6.88
806.848	6.88
807.592	4.88
808.336	2.88
809.079	4.88
809.823	5.88
810.566	7.88
811.31	4.88
812.053	5.88
812.796	5.88
813.539	5.88
814.283	5.88
815.026	3.88
815.769	3.88
816.511	5.88
817.254	4.88
817.997	4.88
818.74	5.88
819.482	4.88
820.225	0.88
820.967	5.88
821.71	4.88
822.452	2.88
823.194	4.88
823.936	3.88
824.678	5.88
825.42	2.88
826.162	2.88
826.904	1.88
827.646	4.88
828.388	0.88
829.129	3.88
829.871	4.88
830.612	3.88
831.354	3.88
832.095	1.88
832.836	-0.12
833.577	3.88
834.319	1.88
835.06	2.88
835.801	2.88
836.542	3.88
837.282	2.88
838.023	2.88
838.764	1.88
839.504	1.88
840.245	2.88
840.985	1.88
841.726	0.88
842.466	3.88
843.206	0.88
843.946	3.88
844.687	2.88
845.427	1.88
846.166	2.88
846.906	1.88
847.646	3.88
848.386	1.88
849.125	0.88
849.865	0.88
850.605	0.88
851.344	3.88
852.083	2.88
852.823	0.88
853.562	4.88
854.301	0.88
855.04	0.88
855.779	2.88
856.518	0.88
857.257	1.88
857.995	5.88
858.734	0.88
859.473	2.88
860.211	0.88
860.95	-0.12
861.688	2.88
862.426	2.88
863.165	-0.12
863.903	1.88
864.641	1.88
865.379	0.88
866.117	0.88
866.855	2.88
867.593	-1.12
868.33	2.88
869.068	0.88
869.806	-1.12
870.543	0.88
871.28	-0.12
872.018	0.88
872.755	-0.12
873.492	0.88
874.229	0.88
874.967	1.88
875.703	1.88
876.44	0.88
877.177	1.88
877.914	0.88
878.651	-1.12
879.387	0.88
880.124	0.88
880.86	-1.12
881.597	-0.12
882.333	1.88
883.069	-1.12
883.806	0.88
884.542	1.88
885.278	0.88
886.014	-0.12
886.749	-0.12
887.485	0.88
888.221	-0.12
888.957	-0.12
889.692	-0.12
890.428	1.88
891.163	-0.12
891.899	0.88
892.634	-2.12
893.369	-1.12
894.104	-0.12
894.839	0.88
895.574	0.88
896.309	1.88
897.044	-0.12
897.779	-3.12
898.514	-0.12
899.248	-1.12
899.983	-1.12
900.717	-1.12
901.452	-0.12
902.186	3.88
902.92	-1.12
903.654	1.88
904.389	0.88
905.123	-2.12
905.857	0.88
906.59	-1.12
907.324	-0.12
908.058	1.88
908.792	-1.12
909.525	0.88
910.259	-0.12
910.992	1.88
911.726	-1.12
912.459	0.88
913.192	-0.12
913.925	-0.12
914.658	-1.12
915.391	0.88
916.124	-1.12
916.857	-2.12
917.59	-1.12
918.323	-2.12
919.055	-0.12
919.788	0.88
920.521	-2.12
921.253	0.88
921.985	1.88
922.718	-0.12
923.45	1.88
924.182	0.88
924.914	1.88
925.646	0.88
926.378	-1.12
927.11	-1.12
927.841	0.88
928.573	-0.12
929.305	-1.12
930.036	-0.12
930.768	-1.12
931.499	1.88
932.23	0.88
932.962	-1.12
933.693	-0.12
934.424	-1.12
935.155	-0.12
935.886	-1.12
936.617	-0.12
937.348	-1.12
938.078	-1.12
938.809	0.88
939.54	-0.12
940.27	-0.12
941.001	0.88
941.731	-1.12
942.461	-0.12
943.191	0.88
943.922	0.88
944.652	-0.12
945.382	0.88
946.112	-1.12
946.841	1.88
947.571	-0.12
948.301	0.88
949.031	0.88
949.76	-1.12
950.49	1.88
951.219	-1.12
951.948	-0.12
952.678	-1.12
953.407	-1.12
954.136	-2.12
954.865	-1.12
955.594	0.88
956.323	0.88
957.052	-0.12
957.78	-1.12
958.509	-0.12
959.238	-3.12
959.966	0.88
960.695	0.88
961.423	-0.12
962.151	-0.12
962.88	-1.12
963.608	-0.12
964.336	-3.12
965.064	-1.12
965.792	-1.12
966.52	-1.12
967.247	-0.12
967.975	-1.12
968.703	-0.12
969.43	-3.12
970.158	-0.12
970.885	-0.12
971.613	-1.12
972.34	-1.12
973.067	-2.12
973.794	0.88
974.521	0.88
975.248	0.88
975.975	-1.12
976.702	0.88
977.429	-0.12
978.156	-1.12
978.882	0.88
979.609	0.88
980.335	1.88
981.062	-0.12
981.788	-0.12
982.514	-3.12
983.24	-2.12
983.967	-1.12
984.693	1.88
985.419	-1.12
986.144	-0.12
986.87	-2.12
987.596	0.88
988.322	-0.12
989.047	0.88
989.773	-0.12
990.498	0.88
991.224	0.88
991.949	-1.12
992.674	1.88
993.399	-1.12
994.124	-0.12
994.849	1.88
995.574	-1.12
996.299	-0.12
997.024	-0.12
997.749	-1.12
998.473	-1.12
999.198	-1.12
999.922	0.88
1000.647	0.88
1001.371	3.88
1002.095	-3.12
1002.82	-1.12
1003.544	-0.12
1004.268	-0.12
1004.992	0.88
1005.716	-1.12
1006.439	0.88
1007.163	1.88
1007.887	1.88
1008.611	1.88
1009.334	-0.12
1010.058	1.88
1010.781	0.88
1011.504	-3.12
1012.228	-1.12
1012.951	-0.12
1013.674	0.88
1014.397	-0.12
1015.12	-0.12
