节点500_285_QEPB04081__297__15-00-29-773.txt的数据

Date: Wed Nov 12 15:00:29 CST 2025
User: PC
Spectrometer: QEPB0408
触发模式: 0
积分时间 (秒): 1.000000E-2
Scans to average: 1
启用暗噪声校正: true
启用非线性校正: false
滑动平均宽度: 0
X轴模式: Wavelengths
Number of Pixels in Spectrum: 1044
>>>>>Begin Spectral Data<<<<<
220.843	2.38
221.644	2.38
222.444	2.38
223.244	1.38
224.045	3.38
224.845	3.38
225.645	-0.62
226.445	1.38
227.245	0.38
228.045	1.38
228.845	3.38
229.645	0.38
230.444	2.38
231.244	1.38
232.043	3.38
232.843	1.38
233.642	4.38
234.442	4.38
235.241	2.38
236.04	5.38
236.839	2.38
237.638	3.38
238.437	6.38
239.236	4.38
240.035	5.38
240.833	3.38
241.632	4.38
242.43	3.38
243.229	2.38
244.027	7.38
244.826	4.38
245.624	3.38
246.422	6.38
247.22	8.38
248.018	3.38
248.816	4.38
249.614	3.38
250.412	7.38
251.21	5.38
252.007	5.38
252.805	9.38
253.602	4.38
254.4	8.38
255.197	8.38
255.994	6.38
256.791	8.38
257.589	8.38
258.386	8.38
259.183	9.38
259.979	7.38
260.776	10.38
261.573	11.38
262.37	11.38
263.166	8.38
263.963	9.38
264.759	11.38
265.556	10.38
266.352	11.38
267.148	13.38
267.944	12.38
268.74	13.38
269.536	15.38
270.332	15.38
271.128	13.38
271.924	16.38
272.719	14.38
273.515	15.38
274.311	17.38
275.106	15.38
275.901	16.38
276.697	18.38
277.492	17.38
278.287	16.38
279.082	14.38
279.877	17.38
280.672	18.38
281.467	19.38
282.262	16.38
283.056	19.38
283.851	17.38
284.646	18.38
285.44	19.38
286.234	16.38
287.029	18.38
287.823	18.38
288.617	17.38
289.411	18.38
290.205	19.38
290.999	21.38
291.793	19.38
292.587	17.38
293.381	18.38
294.174	17.38
294.968	16.38
295.761	15.38
296.555	16.38
297.348	14.38
298.141	16.38
298.935	15.38
299.728	14.38
300.521	12.38
301.314	12.38
302.107	14.38
302.899	15.38
303.692	10.38
304.485	14.38
305.277	13.38
306.07	13.38
306.862	12.38
307.655	13.38
308.447	11.38
309.239	10.38
310.031	13.38
310.823	11.38
311.615	11.38
312.407	11.38
313.199	9.38
313.991	8.38
314.783	6.38
315.574	9.38
316.366	10.38
317.157	8.38
317.949	9.38
318.74	7.38
319.531	7.38
320.322	7.38
321.113	8.38
321.904	7.38
322.695	9.38
323.486	6.38
324.277	5.38
325.068	8.38
325.858	6.38
326.649	5.38
327.439	6.38
328.23	7.38
329.02	5.38
329.81	7.38
330.6	5.38
331.391	6.38
332.181	7.38
332.971	5.38
333.76	6.38
334.55	5.38
335.34	6.38
336.13	7.38
336.919	6.38
337.709	6.38
338.498	6.38
339.287	4.38
340.077	6.38
340.866	5.38
341.655	8.38
342.444	6.38
343.233	5.38
344.022	7.38
344.811	3.38
345.6	7.38
346.388	7.38
347.177	6.38
347.965	6.38
348.754	6.38
349.542	7.38
350.33	5.38
351.119	5.38
351.907	5.38
352.695	4.38
353.483	4.38
354.271	5.38
355.059	5.38
355.846	6.38
356.634	7.38
357.422	7.38
358.209	6.38
358.997	6.38
359.784	4.38
360.571	4.38
361.359	5.38
362.146	5.38
362.933	6.38
363.72	4.38
364.507	6.38
365.294	5.38
366.081	4.38
366.867	6.38
367.654	6.38
368.44	5.38
369.227	5.38
370.013	5.38
370.8	6.38
371.586	5.38
372.372	6.38
373.158	0.38
373.944	5.38
374.73	5.38
375.516	2.38
376.302	5.38
377.088	6.38
377.873	6.38
378.659	2.38
379.445	5.38
380.23	3.38
381.015	4.38
381.801	5.38
382.586	4.38
383.371	5.38
384.156	7.38
384.941	5.38
385.726	5.38
386.511	6.38
387.296	6.38
388.08	4.38
388.865	6.38
389.649	2.38
390.434	4.38
391.218	6.38
392.003	5.38
392.787	4.38
393.571	3.38
394.355	4.38
395.139	3.38
395.923	6.38
396.707	6.38
397.491	4.38
398.274	7.38
399.058	7.38
399.842	5.38
400.625	6.38
401.408	5.38
402.192	6.38
402.975	6.38
403.758	8.38
404.541	7.38
405.324	5.38
406.107	6.38
406.89	6.38
407.673	5.38
408.456	5.38
409.238	11.38
410.021	5.38
410.803	7.38
411.586	7.38
412.368	8.38
413.151	9.38
413.933	9.38
414.715	10.38
415.497	9.38
416.279	9.38
417.061	8.38
417.843	9.38
418.624	10.38
419.406	9.38
420.188	10.38
420.969	13.38
421.751	8.38
422.532	11.38
423.313	10.38
424.095	11.38
424.876	10.38
425.657	9.38
426.438	14.38
427.219	12.38
428	14.38
428.78	10.38
429.561	16.38
430.342	11.38
431.122	13.38
431.903	13.38
432.683	14.38
433.464	16.38
434.244	19.38
435.024	16.38
435.804	15.38
436.584	15.38
437.364	16.38
438.144	19.38
438.924	20.38
439.704	23.38
440.483	19.38
441.263	23.38
442.042	22.38
442.822	27.38
443.601	29.38
444.38	28.38
445.16	34.38
445.939	31.38
446.718	38.38
447.497	38.38
448.276	39.38
449.054	46.38
449.833	47.38
450.612	51.38
451.391	58.38
452.169	62.38
452.948	70.38
453.726	72.38
454.504	78.38
455.282	88.38
456.061	95.38
456.839	105.38
457.617	119.38
458.395	135.38
459.172	147.38
459.95	168.38
460.728	180.38
461.506	203.38
462.283	230.38
463.061	256.38
463.838	287.38
464.615	318.38
465.393	356.38
466.17	391.38
466.947	443.38
467.724	497.38
468.501	541.38
469.278	608.38
470.055	684.38
470.831	758.38
471.608	850.38
472.385	941.38
473.161	1047.38
473.938	1151.38
474.714	1295.38
475.49	1419.38
476.266	1578.38
477.043	1745.38
477.819	1914.38
478.595	2111.38
479.371	2340.38
480.146	2604.38
480.922	2880.38
481.698	3148.38
482.473	3511.38
483.249	3838.38
484.024	4218.38
484.8	4644.38
485.575	5143.38
486.35	5626.38
487.126	6140.38
487.901	6773.38
488.676	7412.38
489.451	8146.38
490.225	8937.38
491	9730.38
491.775	10650.38
492.55	11660.38
493.324	12647.38
494.099	13577.38
494.873	14636.38
495.647	15783.38
496.422	16930.38
497.196	18173.38
497.97	19412.38
498.744	20587.38
499.518	21737.38
500.292	22925.38
501.066	24023.38
501.839	24975.38
502.613	25831.38
503.387	26646.38
504.16	27252.38
504.934	27499.38
505.707	27691.38
506.48	27744.38
507.253	27568.38
508.027	27354.38
508.8	27014.38
509.573	26515.38
510.346	25813.38
511.118	25010.38
511.891	24251.38
512.664	23341.38
513.437	22437.38
514.209	21530.38
514.982	20629.38
515.754	19693.38
516.526	18840.38
517.298	18027.38
518.071	17180.38
518.843	16520.38
519.615	15928.38
520.387	15261.38
521.159	14643.38
521.93	14027.38
522.702	13556.38
523.474	12964.38
524.245	12375.38
525.017	11862.38
525.788	11412.38
526.56	10879.38
527.331	10376.38
528.102	9936.38
528.873	9443.38
529.644	8995.38
530.415	8543.38
531.186	8109.38
531.957	7680.38
532.728	7302.38
533.498	6889.38
534.269	6504.38
535.039	6132.38
535.81	5814.38
536.58	5481.38
537.351	5165.38
538.121	4861.38
538.891	4619.38
539.661	4414.38
540.431	4146.38
541.201	3901.38
541.971	3684.38
542.741	3496.38
543.51	3328.38
544.28	3188.38
545.05	3039.38
545.819	2856.38
546.588	2720.38
547.358	2588.38
548.127	2458.38
548.896	2347.38
549.665	2227.38
550.434	2102.38
551.203	1982.38
551.972	1880.38
552.741	1792.38
553.51	1672.38
554.278	1591.38
555.047	1480.38
555.815	1405.38
556.584	1330.38
557.352	1260.38
558.121	1185.38
558.889	1118.38
559.657	1058.38
560.425	997.38
561.193	944.38
561.961	892.38
562.729	824.38
563.496	788.38
564.264	749.38
565.032	704.38
565.799	663.38
566.567	638.38
567.334	603.38
568.101	559.38
568.869	535.38
569.636	497.38
570.403	481.38
571.17	446.38
571.937	415.38
572.704	394.38
573.471	379.38
574.237	350.38
575.004	335.38
575.771	313.38
576.537	299.38
577.303	281.38
578.07	263.38
578.836	247.38
579.602	226.38
580.368	219.38
581.134	208.38
581.9	201.38
582.666	182.38
583.432	176.38
584.198	171.38
584.964	160.38
585.729	153.38
586.495	145.38
587.26	136.38
588.025	131.38
588.791	124.38
589.556	118.38
590.321	104.38
591.086	102.38
591.851	96.38
592.616	95.38
593.381	87.38
594.146	84.38
594.911	81.38
595.675	81.38
596.44	79.38
597.204	69.38
597.969	70.38
598.733	61.38
599.497	60.38
600.261	57.38
601.025	54.38
601.79	53.38
602.553	49.38
603.317	49.38
604.081	48.38
604.845	46.38
605.609	45.38
606.372	42.38
607.136	42.38
607.899	38.38
608.662	37.38
609.426	32.38
610.189	35.38
610.952	34.38
611.715	29.38
612.478	32.38
613.241	26.38
614.004	27.38
614.767	25.38
615.529	26.38
616.292	26.38
617.055	23.38
617.817	24.38
618.579	24.38
619.342	18.38
620.104	22.38
620.866	20.38
621.628	19.38
622.39	17.38
623.152	16.38
623.914	17.38
624.676	15.38
625.438	17.38
626.199	15.38
626.961	15.38
627.722	11.38
628.484	17.38
629.245	14.38
630.006	13.38
630.768	12.38
631.529	11.38
632.29	9.38
633.051	13.38
633.812	13.38
634.573	11.38
635.333	11.38
636.094	10.38
636.855	9.38
637.615	7.38
638.376	11.38
639.136	8.38
639.896	7.38
640.657	7.38
641.417	6.38
642.177	9.38
642.937	9.38
643.697	8.38
644.457	7.38
645.216	8.38
645.976	6.38
646.736	6.38
647.495	7.38
648.255	6.38
649.014	5.38
649.774	5.38
650.533	8.38
651.292	7.38
652.051	7.38
652.81	8.38
653.569	5.38
654.328	8.38
655.087	5.38
655.846	7.38
656.604	6.38
657.363	6.38
658.121	5.38
658.88	6.38
659.638	7.38
660.397	5.38
661.155	5.38
661.913	5.38
662.671	5.38
663.429	4.38
664.187	2.38
664.945	6.38
665.703	5.38
666.46	6.38
667.218	5.38
667.976	4.38
668.733	5.38
669.49	5.38
670.248	4.38
671.005	4.38
671.762	3.38
672.519	4.38
673.276	3.38
674.033	5.38
674.79	1.38
675.547	6.38
676.304	2.38
677.06	3.38
677.817	5.38
678.574	4.38
679.33	1.38
680.086	4.38
680.843	1.38
681.599	3.38
682.355	4.38
683.111	3.38
683.867	3.38
684.623	4.38
685.379	3.38
686.135	3.38
686.89	4.38
687.646	4.38
688.402	3.38
689.157	5.38
689.912	2.38
690.668	2.38
691.423	3.38
692.178	4.38
692.933	3.38
693.688	4.38
694.443	3.38
695.198	1.38
695.953	3.38
696.708	3.38
697.462	3.38
698.217	6.38
698.972	4.38
699.726	3.38
700.48	2.38
701.235	5.38
701.989	1.38
702.743	5.38
703.497	3.38
704.251	2.38
705.005	4.38
705.759	1.38
706.513	3.38
707.266	4.38
708.02	4.38
708.774	2.38
709.527	3.38
710.28	3.38
711.034	0.38
711.787	2.38
712.54	2.38
713.293	4.38
714.046	2.38
714.799	3.38
715.552	4.38
716.305	1.38
717.058	5.38
717.81	3.38
718.563	1.38
719.315	1.38
720.068	3.38
720.82	3.38
721.573	4.38
722.325	5.38
723.077	5.38
723.829	3.38
724.581	5.38
725.333	3.38
726.085	3.38
726.836	2.38
727.588	3.38
728.34	3.38
729.091	4.38
729.843	2.38
730.594	3.38
731.346	3.38
732.097	5.38
732.848	4.38
733.599	3.38
734.35	3.38
735.101	3.38
735.852	4.38
736.603	3.38
737.354	2.38
738.104	3.38
738.855	1.38
739.605	5.38
740.356	7.38
741.106	3.38
741.856	4.38
742.607	6.38
743.357	4.38
744.107	6.38
744.857	3.38
745.607	6.38
746.357	3.38
747.106	3.38
747.856	3.38
748.606	5.38
749.355	6.38
750.105	4.38
750.854	6.38
751.603	6.38
752.353	6.38
753.102	3.38
753.851	8.38
754.6	5.38
755.349	3.38
756.098	6.38
756.847	5.38
757.595	5.38
758.344	7.38
759.093	6.38
759.841	5.38
760.589	7.38
761.338	3.38
762.086	6.38
762.834	6.38
763.582	7.38
764.331	6.38
765.079	6.38
765.826	7.38
766.574	8.38
767.322	8.38
768.07	9.38
768.817	7.38
769.565	8.38
770.312	6.38
771.06	7.38
771.807	8.38
772.554	7.38
773.302	9.38
774.049	6.38
774.796	11.38
775.543	6.38
776.29	11.38
777.036	8.38
777.783	7.38
778.53	9.38
779.276	7.38
780.023	8.38
780.769	9.38
781.516	9.38
782.262	9.38
783.008	10.38
783.754	9.38
784.5	9.38
785.246	9.38
785.992	9.38
786.738	9.38
787.484	7.38
788.23	8.38
788.975	9.38
789.721	9.38
790.466	8.38
791.212	8.38
791.957	5.38
792.702	10.38
793.447	8.38
794.193	10.38
794.938	9.38
795.683	10.38
796.427	8.38
797.172	9.38
797.917	7.38
798.662	6.38
799.406	9.38
800.151	8.38
800.895	6.38
801.64	7.38
802.384	7.38
803.128	8.38
803.872	5.38
804.616	8.38
805.36	5.38
806.104	6.38
806.848	7.38
807.592	6.38
808.336	5.38
809.079	7.38
809.823	6.38
810.566	6.38
811.31	7.38
812.053	7.38
812.796	3.38
813.539	4.38
814.283	2.38
815.026	7.38
815.769	5.38
816.511	4.38
817.254	5.38
817.997	4.38
818.74	4.38
819.482	4.38
820.225	4.38
820.967	3.38
821.71	3.38
822.452	3.38
823.194	4.38
823.936	5.38
824.678	4.38
825.42	5.38
826.162	4.38
826.904	4.38
827.646	4.38
828.388	2.38
829.129	1.38
829.871	3.38
830.612	1.38
831.354	4.38
832.095	5.38
832.836	3.38
833.577	1.38
834.319	2.38
835.06	3.38
835.801	4.38
836.542	4.38
837.282	5.38
838.023	3.38
838.764	3.38
839.504	3.38
840.245	4.38
840.985	3.38
841.726	5.38
842.466	2.38
843.206	3.38
843.946	3.38
844.687	1.38
845.427	1.38
846.166	3.38
846.906	1.38
847.646	1.38
848.386	0.38
849.125	3.38
849.865	2.38
850.605	1.38
851.344	3.38
852.083	4.38
852.823	3.38
853.562	1.38
854.301	2.38
855.04	2.38
855.779	2.38
856.518	0.38
857.257	2.38
857.995	1.38
858.734	1.38
859.473	4.38
860.211	1.38
860.95	2.38
861.688	2.38
862.426	0.38
863.165	0.38
863.903	3.38
864.641	1.38
865.379	3.38
866.117	2.38
866.855	1.38
867.593	-0.62
868.33	2.38
869.068	0.38
869.806	0.38
870.543	3.38
871.28	2.38
872.018	2.38
872.755	1.38
873.492	1.38
874.229	-0.62
874.967	1.38
875.703	1.38
876.44	-0.62
877.177	1.38
877.914	0.38
878.651	2.38
879.387	0.38
880.124	-0.62
880.86	3.38
881.597	3.38
882.333	0.38
883.069	1.38
883.806	3.38
884.542	-0.62
885.278	1.38
886.014	1.38
886.749	1.38
887.485	0.38
888.221	-0.62
888.957	3.38
889.692	2.38
890.428	-0.62
891.163	1.38
891.899	-0.62
892.634	2.38
893.369	-0.62
894.104	1.38
894.839	-0.62
895.574	-0.62
896.309	2.38
897.044	0.38
897.779	1.38
898.514	0.38
899.248	-1.62
899.983	0.38
900.717	0.38
901.452	0.38
902.186	0.38
902.92	1.38
903.654	0.38
904.389	0.38
905.123	1.38
905.857	1.38
906.59	1.38
907.324	1.38
908.058	0.38
908.792	0.38
909.525	-0.62
910.259	-0.62
910.992	-1.62
911.726	-0.62
912.459	-0.62
913.192	0.38
913.925	1.38
914.658	0.38
915.391	1.38
916.124	2.38
916.857	-0.62
917.59	-2.62
918.323	-0.62
919.055	0.38
919.788	-0.62
920.521	0.38
921.253	2.38
921.985	-1.62
922.718	1.38
923.45	-2.62
924.182	1.38
924.914	-3.62
925.646	-1.62
926.378	0.38
927.11	-1.62
927.841	-0.62
928.573	0.38
929.305	0.38
930.036	-0.62
930.768	-0.62
931.499	0.38
932.23	0.38
932.962	1.38
933.693	-1.62
934.424	-0.62
935.155	-0.62
935.886	-0.62
936.617	0.38
937.348	0.38
938.078	1.38
938.809	0.38
939.54	-0.62
940.27	1.38
941.001	-0.62
941.731	0.38
942.461	-0.62
943.191	1.38
943.922	0.38
944.652	0.38
945.382	-0.62
946.112	-0.62
946.841	0.38
947.571	0.38
948.301	1.38
949.031	0.38
949.76	-0.62
950.49	0.38
951.219	-0.62
951.948	0.38
952.678	1.38
953.407	1.38
954.136	0.38
954.865	0.38
955.594	-0.62
956.323	-0.62
957.052	1.38
957.78	0.38
958.509	-3.62
959.238	0.38
959.966	-1.62
960.695	-0.62
961.423	-1.62
962.151	-0.62
962.88	-1.62
963.608	1.38
964.336	1.38
965.064	1.38
965.792	0.38
966.52	-0.62
967.247	0.38
967.975	1.38
968.703	-0.62
969.43	0.38
970.158	-2.62
970.885	1.38
971.613	2.38
972.34	-1.62
973.067	0.38
973.794	1.38
974.521	0.38
975.248	-0.62
975.975	1.38
976.702	0.38
977.429	1.38
978.156	0.38
978.882	-0.62
979.609	-0.62
980.335	-0.62
981.062	-1.62
981.788	-1.62
982.514	-1.62
983.24	2.38
983.967	-0.62
984.693	1.38
985.419	0.38
986.144	-1.62
986.87	1.38
987.596	-0.62
988.322	1.38
989.047	1.38
989.773	0.38
990.498	-0.62
991.224	0.38
991.949	-1.62
992.674	-1.62
993.399	0.38
994.124	-0.62
994.849	-1.62
995.574	-0.62
996.299	-0.62
997.024	1.38
997.749	-0.62
998.473	-0.62
999.198	0.38
999.922	-1.62
1000.647	0.38
1001.371	1.38
1002.095	-0.62
1002.82	-2.62
1003.544	-1.62
1004.268	0.38
1004.992	0.38
1005.716	0.38
1006.439	-0.62
1007.163	1.38
1007.887	2.38
1008.611	-1.62
1009.334	0.38
1010.058	0.38
1010.781	-0.62
1011.504	1.38
1012.228	-0.62
1012.951	1.38
1013.674	1.38
1014.397	1.38
1015.12	-0.62
