节点500_285_QEPB04081__382__15-01-54-662.txt的数据

Date: Wed Nov 12 15:01:54 CST 2025
User: PC
Spectrometer: QEPB0408
触发模式: 0
积分时间 (秒): 1.000000E-2
Scans to average: 1
启用暗噪声校正: true
启用非线性校正: false
滑动平均宽度: 0
X轴模式: Wavelengths
Number of Pixels in Spectrum: 1044
>>>>>Begin Spectral Data<<<<<
220.843	2.62
221.644	0.62
222.444	0.62
223.244	1.62
224.045	-0.38
224.845	0.62
225.645	2.62
226.445	4.62
227.245	0.62
228.045	-1.38
228.845	1.62
229.645	2.62
230.444	1.62
231.244	1.62
232.043	4.62
232.843	3.62
233.642	3.62
234.442	2.62
235.241	3.62
236.04	2.62
236.839	2.62
237.638	4.62
238.437	3.62
239.236	5.62
240.035	3.62
240.833	5.62
241.632	4.62
242.43	3.62
243.229	4.62
244.027	4.62
244.826	3.62
245.624	5.62
246.422	6.62
247.22	5.62
248.018	5.62
248.816	5.62
249.614	4.62
250.412	5.62
251.21	5.62
252.007	5.62
252.805	5.62
253.602	5.62
254.4	8.62
255.197	7.62
255.994	10.62
256.791	9.62
257.589	6.62
258.386	12.62
259.183	8.62
259.979	10.62
260.776	11.62
261.573	9.62
262.37	9.62
263.166	8.62
263.963	12.62
264.759	11.62
265.556	11.62
266.352	12.62
267.148	11.62
267.944	15.62
268.74	11.62
269.536	12.62
270.332	12.62
271.128	14.62
271.924	16.62
272.719	15.62
273.515	15.62
274.311	18.62
275.106	16.62
275.901	16.62
276.697	16.62
277.492	16.62
278.287	16.62
279.082	16.62
279.877	19.62
280.672	15.62
281.467	19.62
282.262	16.62
283.056	17.62
283.851	19.62
284.646	18.62
285.44	18.62
286.234	20.62
287.029	20.62
287.823	17.62
288.617	17.62
289.411	15.62
290.205	17.62
290.999	17.62
291.793	19.62
292.587	18.62
293.381	16.62
294.174	18.62
294.968	16.62
295.761	16.62
296.555	16.62
297.348	13.62
298.141	13.62
298.935	17.62
299.728	15.62
300.521	12.62
301.314	13.62
302.107	12.62
302.899	11.62
303.692	13.62
304.485	12.62
305.277	11.62
306.07	12.62
306.862	10.62
307.655	11.62
308.447	11.62
309.239	9.62
310.031	11.62
310.823	12.62
311.615	9.62
312.407	10.62
313.199	9.62
313.991	8.62
314.783	7.62
315.574	8.62
316.366	7.62
317.157	8.62
317.949	9.62
318.74	7.62
319.531	7.62
320.322	6.62
321.113	8.62
321.904	5.62
322.695	8.62
323.486	6.62
324.277	6.62
325.068	9.62
325.858	7.62
326.649	6.62
327.439	7.62
328.23	4.62
329.02	4.62
329.81	5.62
330.6	5.62
331.391	4.62
332.181	4.62
332.971	3.62
333.76	6.62
334.55	5.62
335.34	10.62
336.13	6.62
336.919	6.62
337.709	5.62
338.498	5.62
339.287	8.62
340.077	5.62
340.866	6.62
341.655	3.62
342.444	7.62
343.233	5.62
344.022	3.62
344.811	6.62
345.6	3.62
346.388	4.62
347.177	6.62
347.965	4.62
348.754	5.62
349.542	5.62
350.33	8.62
351.119	6.62
351.907	7.62
352.695	6.62
353.483	3.62
354.271	7.62
355.059	4.62
355.846	6.62
356.634	4.62
357.422	7.62
358.209	6.62
358.997	6.62
359.784	4.62
360.571	5.62
361.359	3.62
362.146	6.62
362.933	5.62
363.72	5.62
364.507	5.62
365.294	6.62
366.081	3.62
366.867	3.62
367.654	6.62
368.44	4.62
369.227	5.62
370.013	1.62
370.8	6.62
371.586	4.62
372.372	4.62
373.158	3.62
373.944	4.62
374.73	7.62
375.516	5.62
376.302	2.62
377.088	2.62
377.873	6.62
378.659	5.62
379.445	4.62
380.23	5.62
381.015	4.62
381.801	8.62
382.586	8.62
383.371	4.62
384.156	7.62
384.941	6.62
385.726	5.62
386.511	4.62
387.296	4.62
388.08	5.62
388.865	6.62
389.649	5.62
390.434	5.62
391.218	7.62
392.003	7.62
392.787	5.62
393.571	4.62
394.355	7.62
395.139	6.62
395.923	7.62
396.707	5.62
397.491	5.62
398.274	4.62
399.058	7.62
399.842	6.62
400.625	6.62
401.408	6.62
402.192	6.62
402.975	6.62
403.758	5.62
404.541	8.62
405.324	6.62
406.107	7.62
406.89	5.62
407.673	7.62
408.456	4.62
409.238	5.62
410.021	6.62
410.803	8.62
411.586	11.62
412.368	8.62
413.151	8.62
413.933	10.62
414.715	8.62
415.497	8.62
416.279	9.62
417.061	7.62
417.843	9.62
418.624	10.62
419.406	11.62
420.188	8.62
420.969	10.62
421.751	13.62
422.532	9.62
423.313	13.62
424.095	9.62
424.876	10.62
425.657	9.62
426.438	12.62
427.219	13.62
428	12.62
428.78	13.62
429.561	12.62
430.342	13.62
431.122	13.62
431.903	12.62
432.683	11.62
433.464	15.62
434.244	15.62
435.024	16.62
435.804	15.62
436.584	20.62
437.364	17.62
438.144	19.62
438.924	19.62
439.704	20.62
440.483	22.62
441.263	24.62
442.042	23.62
442.822	24.62
443.601	30.62
444.38	30.62
445.16	31.62
445.939	33.62
446.718	36.62
447.497	38.62
448.276	39.62
449.054	43.62
449.833	46.62
450.612	52.62
451.391	57.62
452.169	63.62
452.948	65.62
453.726	69.62
454.504	85.62
455.282	93.62
456.061	96.62
456.839	111.62
457.617	123.62
458.395	136.62
459.172	147.62
459.95	173.62
460.728	185.62
461.506	215.62
462.283	238.62
463.061	258.62
463.838	294.62
464.615	321.62
465.393	361.62
466.17	409.62
466.947	450.62
467.724	506.62
468.501	559.62
469.278	629.62
470.055	690.62
470.831	760.62
471.608	841.62
472.385	950.62
473.161	1048.62
473.938	1163.62
474.714	1296.62
475.49	1439.62
476.266	1581.62
477.043	1747.62
477.819	1930.62
478.595	2114.62
479.371	2351.62
480.146	2587.62
480.922	2829.62
481.698	3155.62
482.473	3455.62
483.249	3791.62
484.024	4169.62
484.8	4604.62
485.575	5038.62
486.35	5540.62
487.126	6072.62
487.901	6655.62
488.676	7288.62
489.451	8009.62
490.225	8724.62
491	9519.62
491.775	10426.62
492.55	11372.62
493.324	12283.62
494.099	13250.62
494.873	14251.62
495.647	15373.62
496.422	16517.62
497.196	17776.62
497.97	18859.62
498.744	20041.62
499.518	21207.62
500.292	22274.62
501.066	23393.62
501.839	24418.62
502.613	25300.62
503.387	26112.62
504.16	26664.62
504.934	27087.62
505.707	27241.62
506.48	27295.62
507.253	27256.62
508.027	27007.62
508.8	26752.62
509.573	26250.62
510.346	25723.62
511.118	25029.62
511.891	24213.62
512.664	23399.62
513.437	22529.62
514.209	21590.62
514.982	20736.62
515.754	19824.62
516.526	18932.62
517.298	18103.62
518.071	17329.62
518.843	16637.62
519.615	16056.62
520.387	15382.62
521.159	14764.62
521.93	14211.62
522.702	13654.62
523.474	13041.62
524.245	12508.62
525.017	11960.62
525.788	11553.62
526.56	11007.62
527.331	10448.62
528.102	10009.62
528.873	9505.62
529.644	9053.62
530.415	8638.62
531.186	8183.62
531.957	7761.62
532.728	7399.62
533.498	7032.62
534.269	6618.62
535.039	6246.62
535.81	5907.62
536.58	5580.62
537.351	5238.62
538.121	4960.62
538.891	4711.62
539.661	4435.62
540.431	4190.62
541.201	3961.62
541.971	3750.62
542.741	3550.62
543.51	3405.62
544.28	3219.62
545.05	3074.62
545.819	2925.62
546.588	2771.62
547.358	2631.62
548.127	2519.62
548.896	2372.62
549.665	2228.62
550.434	2121.62
551.203	2016.62
551.972	1910.62
552.741	1804.62
553.51	1697.62
554.278	1605.62
555.047	1522.62
555.815	1431.62
556.584	1360.62
557.352	1291.62
558.121	1216.62
558.889	1145.62
559.657	1072.62
560.425	1013.62
561.193	949.62
561.961	910.62
562.729	851.62
563.496	807.62
564.264	760.62
565.032	714.62
565.799	685.62
566.567	654.62
567.334	606.62
568.101	580.62
568.869	541.62
569.636	510.62
570.403	485.62
571.17	459.62
571.937	421.62
572.704	407.62
573.471	387.62
574.237	360.62
575.004	340.62
575.771	314.62
576.537	302.62
577.303	283.62
578.07	268.62
578.836	248.62
579.602	233.62
580.368	225.62
581.134	215.62
581.9	199.62
582.666	189.62
583.432	186.62
584.198	171.62
584.964	166.62
585.729	156.62
586.495	146.62
587.26	138.62
588.025	137.62
588.791	124.62
589.556	117.62
590.321	110.62
591.086	108.62
591.851	98.62
592.616	93.62
593.381	96.62
594.146	90.62
594.911	82.62
595.675	74.62
596.44	73.62
597.204	71.62
597.969	73.62
598.733	66.62
599.497	62.62
600.261	60.62
601.025	54.62
601.79	51.62
602.553	49.62
603.317	50.62
604.081	47.62
604.845	42.62
605.609	43.62
606.372	39.62
607.136	40.62
607.899	41.62
608.662	39.62
609.426	36.62
610.189	34.62
610.952	31.62
611.715	35.62
612.478	31.62
613.241	29.62
614.004	27.62
614.767	26.62
615.529	26.62
616.292	25.62
617.055	25.62
617.817	21.62
618.579	21.62
619.342	23.62
620.104	23.62
620.866	22.62
621.628	20.62
622.39	21.62
623.152	17.62
623.914	20.62
624.676	14.62
625.438	14.62
626.199	16.62
626.961	16.62
627.722	13.62
628.484	13.62
629.245	16.62
630.006	12.62
630.768	12.62
631.529	14.62
632.29	13.62
633.051	11.62
633.812	9.62
634.573	12.62
635.333	12.62
636.094	10.62
636.855	9.62
637.615	8.62
638.376	10.62
639.136	7.62
639.896	10.62
640.657	7.62
641.417	8.62
642.177	8.62
642.937	6.62
643.697	10.62
644.457	7.62
645.216	8.62
645.976	8.62
646.736	7.62
647.495	6.62
648.255	6.62
649.014	8.62
649.774	6.62
650.533	7.62
651.292	8.62
652.051	6.62
652.81	5.62
653.569	5.62
654.328	6.62
655.087	5.62
655.846	4.62
656.604	7.62
657.363	5.62
658.121	8.62
658.88	6.62
659.638	4.62
660.397	5.62
661.155	3.62
661.913	5.62
662.671	3.62
663.429	4.62
664.187	6.62
664.945	2.62
665.703	5.62
666.46	5.62
667.218	2.62
667.976	4.62
668.733	5.62
669.49	2.62
670.248	6.62
671.005	3.62
671.762	2.62
672.519	5.62
673.276	5.62
674.033	6.62
674.79	3.62
675.547	5.62
676.304	4.62
677.06	2.62
677.817	7.62
678.574	3.62
679.33	4.62
680.086	5.62
680.843	1.62
681.599	2.62
682.355	2.62
683.111	2.62
683.867	1.62
684.623	3.62
685.379	2.62
686.135	1.62
686.89	3.62
687.646	1.62
688.402	3.62
689.157	3.62
689.912	4.62
690.668	4.62
691.423	2.62
692.178	2.62
692.933	4.62
693.688	3.62
694.443	4.62
695.198	5.62
695.953	2.62
696.708	3.62
697.462	2.62
698.217	3.62
698.972	2.62
699.726	4.62
700.48	2.62
701.235	6.62
701.989	2.62
702.743	5.62
703.497	2.62
704.251	4.62
705.005	3.62
705.759	4.62
706.513	3.62
707.266	6.62
708.02	3.62
708.774	2.62
709.527	0.62
710.28	0.62
711.034	3.62
711.787	2.62
712.54	3.62
713.293	2.62
714.046	2.62
714.799	1.62
715.552	2.62
716.305	1.62
717.058	3.62
717.81	1.62
718.563	4.62
719.315	3.62
720.068	4.62
720.82	4.62
721.573	3.62
722.325	2.62
723.077	3.62
723.829	5.62
724.581	3.62
725.333	2.62
726.085	5.62
726.836	0.62
727.588	3.62
728.34	4.62
729.091	3.62
729.843	4.62
730.594	3.62
731.346	5.62
732.097	3.62
732.848	3.62
733.599	4.62
734.35	3.62
735.101	3.62
735.852	5.62
736.603	7.62
737.354	1.62
738.104	0.62
738.855	6.62
739.605	2.62
740.356	3.62
741.106	5.62
741.856	5.62
742.607	3.62
743.357	3.62
744.107	5.62
744.857	3.62
745.607	4.62
746.357	6.62
747.106	5.62
747.856	5.62
748.606	3.62
749.355	2.62
750.105	1.62
750.854	6.62
751.603	4.62
752.353	7.62
753.102	3.62
753.851	5.62
754.6	4.62
755.349	5.62
756.098	5.62
756.847	7.62
757.595	6.62
758.344	4.62
759.093	4.62
759.841	2.62
760.589	5.62
761.338	2.62
762.086	6.62
762.834	7.62
763.582	6.62
764.331	5.62
765.079	8.62
765.826	6.62
766.574	6.62
767.322	5.62
768.07	6.62
768.817	9.62
769.565	5.62
770.312	7.62
771.06	6.62
771.807	5.62
772.554	9.62
773.302	4.62
774.049	9.62
774.796	8.62
775.543	5.62
776.29	7.62
777.036	7.62
777.783	9.62
778.53	5.62
779.276	7.62
780.023	9.62
780.769	8.62
781.516	10.62
782.262	7.62
783.008	8.62
783.754	6.62
784.5	9.62
785.246	7.62
785.992	4.62
786.738	8.62
787.484	7.62
788.23	9.62
788.975	7.62
789.721	8.62
790.466	9.62
791.212	6.62
791.957	5.62
792.702	7.62
793.447	8.62
794.193	6.62
794.938	5.62
795.683	6.62
796.427	6.62
797.172	6.62
797.917	5.62
798.662	7.62
799.406	7.62
800.151	4.62
800.895	7.62
801.64	6.62
802.384	4.62
803.128	6.62
803.872	8.62
804.616	6.62
805.36	5.62
806.104	6.62
806.848	6.62
807.592	6.62
808.336	6.62
809.079	5.62
809.823	6.62
810.566	7.62
811.31	4.62
812.053	6.62
812.796	5.62
813.539	4.62
814.283	4.62
815.026	5.62
815.769	5.62
816.511	2.62
817.254	6.62
817.997	1.62
818.74	3.62
819.482	3.62
820.225	5.62
820.967	5.62
821.71	3.62
822.452	4.62
823.194	3.62
823.936	4.62
824.678	1.62
825.42	4.62
826.162	5.62
826.904	1.62
827.646	3.62
828.388	4.62
829.129	2.62
829.871	1.62
830.612	3.62
831.354	3.62
832.095	3.62
832.836	1.62
833.577	1.62
834.319	3.62
835.06	3.62
835.801	2.62
836.542	2.62
837.282	4.62
838.023	3.62
838.764	1.62
839.504	3.62
840.245	5.62
840.985	4.62
841.726	2.62
842.466	2.62
843.206	3.62
843.946	1.62
844.687	3.62
845.427	2.62
846.166	0.62
846.906	5.62
847.646	2.62
848.386	4.62
849.125	3.62
849.865	2.62
850.605	1.62
851.344	1.62
852.083	1.62
852.823	2.62
853.562	2.62
854.301	3.62
855.04	2.62
855.779	1.62
856.518	3.62
857.257	2.62
857.995	2.62
858.734	2.62
859.473	3.62
860.211	2.62
860.95	1.62
861.688	1.62
862.426	2.62
863.165	2.62
863.903	1.62
864.641	2.62
865.379	0.62
866.117	3.62
866.855	-1.38
867.593	2.62
868.33	1.62
869.068	0.62
869.806	0.62
870.543	1.62
871.28	1.62
872.018	0.62
872.755	0.62
873.492	1.62
874.229	1.62
874.967	1.62
875.703	-0.38
876.44	1.62
877.177	1.62
877.914	-0.38
878.651	2.62
879.387	0.62
880.124	3.62
880.86	1.62
881.597	1.62
882.333	0.62
883.069	-0.38
883.806	1.62
884.542	3.62
885.278	2.62
886.014	0.62
886.749	3.62
887.485	0.62
888.221	1.62
888.957	0.62
889.692	-1.38
890.428	1.62
891.163	1.62
891.899	-0.38
892.634	0.62
893.369	0.62
894.104	1.62
894.839	-0.38
895.574	0.62
896.309	-0.38
897.044	-0.38
897.779	-0.38
898.514	-2.38
899.248	1.62
899.983	2.62
900.717	0.62
901.452	1.62
902.186	-2.38
902.92	0.62
903.654	-1.38
904.389	-1.38
905.123	-0.38
905.857	1.62
906.59	-3.38
907.324	-2.38
908.058	0.62
908.792	-0.38
909.525	0.62
910.259	0.62
910.992	1.62
911.726	-0.38
912.459	-0.38
913.192	0.62
913.925	0.62
914.658	2.62
915.391	-0.38
916.124	1.62
916.857	-0.38
917.59	-2.38
918.323	0.62
919.055	0.62
919.788	-0.38
920.521	0.62
921.253	-0.38
921.985	2.62
922.718	-1.38
923.45	1.62
924.182	0.62
924.914	2.62
925.646	0.62
926.378	-0.38
927.11	1.62
927.841	-1.38
928.573	-1.38
929.305	-0.38
930.036	-0.38
930.768	0.62
931.499	-0.38
932.23	0.62
932.962	0.62
933.693	1.62
934.424	-0.38
935.155	-0.38
935.886	0.62
936.617	0.62
937.348	0.62
938.078	-2.38
938.809	2.62
939.54	-0.38
940.27	0.62
941.001	-0.38
941.731	-1.38
942.461	2.62
943.191	0.62
943.922	0.62
944.652	0.62
945.382	-0.38
946.112	0.62
946.841	-0.38
947.571	0.62
948.301	-0.38
949.031	-1.38
949.76	-0.38
950.49	1.62
951.219	-0.38
951.948	-0.38
952.678	-0.38
953.407	1.62
954.136	0.62
954.865	-1.38
955.594	0.62
956.323	2.62
957.052	3.62
957.78	0.62
958.509	0.62
959.238	0.62
959.966	-0.38
960.695	-0.38
961.423	0.62
962.151	-1.38
962.88	1.62
963.608	0.62
964.336	0.62
965.064	1.62
965.792	1.62
966.52	-0.38
967.247	-1.38
967.975	-0.38
968.703	3.62
969.43	-0.38
970.158	-1.38
970.885	-1.38
971.613	-2.38
972.34	0.62
973.067	-2.38
973.794	0.62
974.521	2.62
975.248	0.62
975.975	2.62
976.702	0.62
977.429	-1.38
978.156	1.62
978.882	-0.38
979.609	-1.38
980.335	-0.38
981.062	-0.38
981.788	-0.38
982.514	0.62
983.24	0.62
983.967	-1.38
984.693	-1.38
985.419	-2.38
986.144	1.62
986.87	0.62
987.596	0.62
988.322	0.62
989.047	-0.38
989.773	1.62
990.498	-0.38
991.224	-0.38
991.949	-1.38
992.674	-0.38
993.399	-0.38
994.124	0.62
994.849	1.62
995.574	-0.38
996.299	1.62
997.024	1.62
997.749	-0.38
998.473	-1.38
999.198	-1.38
999.922	0.62
1000.647	0.62
1001.371	4.62
1002.095	-2.38
1002.82	-1.38
1003.544	0.62
1004.268	1.62
1004.992	3.62
1005.716	1.62
1006.439	1.62
1007.163	0.62
1007.887	2.62
1008.611	0.62
1009.334	-0.38
1010.058	0.62
1010.781	-0.38
1011.504	0.62
1012.228	0.62
1012.951	-0.38
1013.674	-2.38
1014.397	0.62
1015.12	0.62
