节点500_285_QEPB04081__479__15-03-31-468.txt的数据

Date: Wed Nov 12 15:03:31 CST 2025
User: PC
Spectrometer: QEPB0408
触发模式: 0
积分时间 (秒): 1.000000E-2
Scans to average: 1
启用暗噪声校正: true
启用非线性校正: false
滑动平均宽度: 0
X轴模式: Wavelengths
Number of Pixels in Spectrum: 1044
>>>>>Begin Spectral Data<<<<<
220.843	2.88
221.644	2.88
222.444	1.88
223.244	3.88
224.045	1.88
224.845	0.88
225.645	3.88
226.445	1.88
227.245	3.88
228.045	0.88
228.845	2.88
229.645	2.88
230.444	3.88
231.244	-0.12
232.043	1.88
232.843	1.88
233.642	2.88
234.442	3.88
235.241	1.88
236.04	1.88
236.839	4.88
237.638	4.88
238.437	5.88
239.236	5.88
240.035	2.88
240.833	3.88
241.632	1.88
242.43	3.88
243.229	3.88
244.027	4.88
244.826	5.88
245.624	2.88
246.422	3.88
247.22	3.88
248.018	6.88
248.816	6.88
249.614	7.88
250.412	6.88
251.21	6.88
252.007	5.88
252.805	5.88
253.602	6.88
254.4	8.88
255.197	8.88
255.994	9.88
256.791	6.88
257.589	8.88
258.386	4.88
259.183	10.88
259.979	9.88
260.776	10.88
261.573	8.88
262.37	11.88
263.166	8.88
263.963	9.88
264.759	11.88
265.556	12.88
266.352	13.88
267.148	11.88
267.944	13.88
268.74	13.88
269.536	12.88
270.332	12.88
271.128	14.88
271.924	12.88
272.719	15.88
273.515	16.88
274.311	12.88
275.106	15.88
275.901	16.88
276.697	13.88
277.492	16.88
278.287	16.88
279.082	17.88
279.877	17.88
280.672	16.88
281.467	18.88
282.262	15.88
283.056	17.88
283.851	17.88
284.646	18.88
285.44	17.88
286.234	17.88
287.029	19.88
287.823	19.88
288.617	15.88
289.411	17.88
290.205	14.88
290.999	17.88
291.793	18.88
292.587	16.88
293.381	17.88
294.174	15.88
294.968	18.88
295.761	14.88
296.555	15.88
297.348	17.88
298.141	13.88
298.935	15.88
299.728	14.88
300.521	14.88
301.314	17.88
302.107	15.88
302.899	13.88
303.692	12.88
304.485	11.88
305.277	11.88
306.07	12.88
306.862	12.88
307.655	10.88
308.447	13.88
309.239	11.88
310.031	12.88
310.823	11.88
311.615	7.88
312.407	8.88
313.199	7.88
313.991	8.88
314.783	9.88
315.574	7.88
316.366	8.88
317.157	8.88
317.949	10.88
318.74	9.88
319.531	8.88
320.322	8.88
321.113	8.88
321.904	9.88
322.695	7.88
323.486	7.88
324.277	6.88
325.068	7.88
325.858	5.88
326.649	5.88
327.439	7.88
328.23	5.88
329.02	7.88
329.81	7.88
330.6	7.88
331.391	6.88
332.181	6.88
332.971	6.88
333.76	5.88
334.55	6.88
335.34	7.88
336.13	5.88
336.919	7.88
337.709	4.88
338.498	6.88
339.287	5.88
340.077	6.88
340.866	5.88
341.655	7.88
342.444	7.88
343.233	7.88
344.022	4.88
344.811	4.88
345.6	5.88
346.388	7.88
347.177	5.88
347.965	6.88
348.754	4.88
349.542	5.88
350.33	5.88
351.119	5.88
351.907	3.88
352.695	7.88
353.483	5.88
354.271	5.88
355.059	4.88
355.846	6.88
356.634	4.88
357.422	4.88
358.209	4.88
358.997	5.88
359.784	6.88
360.571	6.88
361.359	6.88
362.146	4.88
362.933	5.88
363.72	3.88
364.507	4.88
365.294	6.88
366.081	3.88
366.867	5.88
367.654	3.88
368.44	6.88
369.227	4.88
370.013	6.88
370.8	6.88
371.586	3.88
372.372	3.88
373.158	3.88
373.944	7.88
374.73	5.88
375.516	4.88
376.302	5.88
377.088	4.88
377.873	5.88
378.659	3.88
379.445	5.88
380.23	4.88
381.015	3.88
381.801	3.88
382.586	5.88
383.371	5.88
384.156	4.88
384.941	5.88
385.726	4.88
386.511	5.88
387.296	5.88
388.08	5.88
388.865	6.88
389.649	8.88
390.434	4.88
391.218	5.88
392.003	7.88
392.787	5.88
393.571	7.88
394.355	5.88
395.139	6.88
395.923	5.88
396.707	5.88
397.491	7.88
398.274	8.88
399.058	6.88
399.842	7.88
400.625	8.88
401.408	4.88
402.192	8.88
402.975	4.88
403.758	6.88
404.541	8.88
405.324	7.88
406.107	5.88
406.89	6.88
407.673	7.88
408.456	6.88
409.238	8.88
410.021	9.88
410.803	11.88
411.586	7.88
412.368	8.88
413.151	7.88
413.933	7.88
414.715	8.88
415.497	9.88
416.279	7.88
417.061	10.88
417.843	9.88
418.624	10.88
419.406	10.88
420.188	7.88
420.969	9.88
421.751	9.88
422.532	10.88
423.313	9.88
424.095	11.88
424.876	12.88
425.657	11.88
426.438	9.88
427.219	10.88
428	14.88
428.78	13.88
429.561	12.88
430.342	12.88
431.122	14.88
431.903	14.88
432.683	15.88
433.464	16.88
434.244	17.88
435.024	17.88
435.804	16.88
436.584	16.88
437.364	21.88
438.144	18.88
438.924	20.88
439.704	23.88
440.483	23.88
441.263	23.88
442.042	24.88
442.822	25.88
443.601	27.88
444.38	26.88
445.16	33.88
445.939	32.88
446.718	36.88
447.497	41.88
448.276	40.88
449.054	45.88
449.833	49.88
450.612	50.88
451.391	58.88
452.169	66.88
452.948	70.88
453.726	73.88
454.504	84.88
455.282	91.88
456.061	102.88
456.839	109.88
457.617	126.88
458.395	139.88
459.172	154.88
459.95	180.88
460.728	193.88
461.506	216.88
462.283	237.88
463.061	267.88
463.838	296.88
464.615	331.88
465.393	369.88
466.17	406.88
466.947	457.88
467.724	511.88
468.501	566.88
469.278	626.88
470.055	705.88
470.831	780.88
471.608	857.88
472.385	967.88
473.161	1059.88
473.938	1162.88
474.714	1289.88
475.49	1447.88
476.266	1602.88
477.043	1751.88
477.819	1919.88
478.595	2134.88
479.371	2351.88
480.146	2598.88
480.922	2840.88
481.698	3128.88
482.473	3436.88
483.249	3765.88
484.024	4122.88
484.8	4547.88
485.575	4966.88
486.35	5469.88
487.126	6001.88
487.901	6555.88
488.676	7130.88
489.451	7859.88
490.225	8559.88
491	9322.88
491.775	10174.88
492.55	11063.88
493.324	12003.88
494.099	12924.88
494.873	13938.88
495.647	15001.88
496.422	16125.88
497.196	17216.88
497.97	18457.88
498.744	19564.88
499.518	20696.88
500.292	21779.88
501.066	22855.88
501.839	23812.88
502.613	24741.88
503.387	25533.88
504.16	26168.88
504.934	26519.88
505.707	26797.88
506.48	26907.88
507.253	26903.88
508.027	26673.88
508.8	26386.88
509.573	26074.88
510.346	25557.88
511.118	24835.88
511.891	24102.88
512.664	23330.88
513.437	22490.88
514.209	21579.88
514.982	20713.88
515.754	19827.88
516.526	18951.88
517.298	18175.88
518.071	17382.88
518.843	16709.88
519.615	16092.88
520.387	15415.88
521.159	14812.88
521.93	14214.88
522.702	13659.88
523.474	13105.88
524.245	12534.88
525.017	11999.88
525.788	11565.88
526.56	11059.88
527.331	10507.88
528.102	10062.88
528.873	9595.88
529.644	9100.88
530.415	8726.88
531.186	8293.88
531.957	7860.88
532.728	7447.88
533.498	7051.88
534.269	6657.88
535.039	6329.88
535.81	5999.88
536.58	5615.88
537.351	5330.88
538.121	5012.88
538.891	4792.88
539.661	4472.88
540.431	4217.88
541.201	4005.88
541.971	3810.88
542.741	3594.88
543.51	3420.88
544.28	3254.88
545.05	3106.88
545.819	2958.88
546.588	2784.88
547.358	2667.88
548.127	2527.88
548.896	2412.88
549.665	2257.88
550.434	2149.88
551.203	2060.88
551.972	1947.88
552.741	1815.88
553.51	1725.88
554.278	1615.88
555.047	1557.88
555.815	1466.88
556.584	1376.88
557.352	1303.88
558.121	1210.88
558.889	1176.88
559.657	1095.88
560.425	1025.88
561.193	976.88
561.961	916.88
562.729	867.88
563.496	824.88
564.264	776.88
565.032	738.88
565.799	694.88
566.567	660.88
567.334	621.88
568.101	591.88
568.869	558.88
569.636	525.88
570.403	485.88
571.17	461.88
571.937	434.88
572.704	411.88
573.471	390.88
574.237	369.88
575.004	347.88
575.771	323.88
576.537	301.88
577.303	290.88
578.07	272.88
578.836	255.88
579.602	240.88
580.368	226.88
581.134	217.88
581.9	207.88
582.666	193.88
583.432	180.88
584.198	171.88
584.964	166.88
585.729	156.88
586.495	150.88
587.26	137.88
588.025	132.88
588.791	126.88
589.556	120.88
590.321	109.88
591.086	104.88
591.851	100.88
592.616	93.88
593.381	92.88
594.146	89.88
594.911	83.88
595.675	79.88
596.44	82.88
597.204	71.88
597.969	72.88
598.733	63.88
599.497	67.88
600.261	59.88
601.025	57.88
601.79	53.88
602.553	55.88
603.317	55.88
604.081	49.88
604.845	44.88
605.609	43.88
606.372	41.88
607.136	38.88
607.899	37.88
608.662	40.88
609.426	37.88
610.189	35.88
610.952	30.88
611.715	35.88
612.478	28.88
613.241	29.88
614.004	24.88
614.767	25.88
615.529	26.88
616.292	25.88
617.055	24.88
617.817	23.88
618.579	22.88
619.342	21.88
620.104	19.88
620.866	20.88
621.628	18.88
622.39	21.88
623.152	18.88
623.914	16.88
624.676	17.88
625.438	14.88
626.199	16.88
626.961	15.88
627.722	15.88
628.484	13.88
629.245	13.88
630.006	16.88
630.768	12.88
631.529	11.88
632.29	12.88
633.051	9.88
633.812	12.88
634.573	12.88
635.333	11.88
636.094	11.88
636.855	12.88
637.615	11.88
638.376	7.88
639.136	10.88
639.896	8.88
640.657	10.88
641.417	7.88
642.177	9.88
642.937	8.88
643.697	8.88
644.457	9.88
645.216	8.88
645.976	9.88
646.736	8.88
647.495	5.88
648.255	7.88
649.014	3.88
649.774	4.88
650.533	6.88
651.292	6.88
652.051	7.88
652.81	8.88
653.569	5.88
654.328	7.88
655.087	9.88
655.846	4.88
656.604	5.88
657.363	5.88
658.121	4.88
658.88	5.88
659.638	5.88
660.397	8.88
661.155	5.88
661.913	5.88
662.671	4.88
663.429	5.88
664.187	5.88
664.945	3.88
665.703	4.88
666.46	5.88
667.218	4.88
667.976	5.88
668.733	3.88
669.49	4.88
670.248	2.88
671.005	4.88
671.762	1.88
672.519	4.88
673.276	5.88
674.033	3.88
674.79	4.88
675.547	1.88
676.304	3.88
677.06	4.88
677.817	3.88
678.574	4.88
679.33	3.88
680.086	1.88
680.843	5.88
681.599	2.88
682.355	3.88
683.111	2.88
683.867	5.88
684.623	1.88
685.379	3.88
686.135	2.88
686.89	2.88
687.646	1.88
688.402	2.88
689.157	4.88
689.912	2.88
690.668	2.88
691.423	1.88
692.178	1.88
692.933	3.88
693.688	1.88
694.443	3.88
695.198	5.88
695.953	3.88
696.708	6.88
697.462	4.88
698.217	2.88
698.972	3.88
699.726	2.88
700.48	2.88
701.235	1.88
701.989	4.88
702.743	4.88
703.497	1.88
704.251	1.88
705.005	4.88
705.759	4.88
706.513	3.88
707.266	2.88
708.02	4.88
708.774	3.88
709.527	3.88
710.28	-0.12
711.034	2.88
711.787	4.88
712.54	2.88
713.293	2.88
714.046	2.88
714.799	3.88
715.552	2.88
716.305	5.88
717.058	4.88
717.81	3.88
718.563	3.88
719.315	1.88
720.068	2.88
720.82	2.88
721.573	3.88
722.325	3.88
723.077	3.88
723.829	4.88
724.581	3.88
725.333	3.88
726.085	3.88
726.836	4.88
727.588	4.88
728.34	3.88
729.091	4.88
729.843	3.88
730.594	2.88
731.346	4.88
732.097	4.88
732.848	4.88
733.599	4.88
734.35	2.88
735.101	3.88
735.852	6.88
736.603	3.88
737.354	0.88
738.104	3.88
738.855	4.88
739.605	4.88
740.356	2.88
741.106	4.88
741.856	3.88
742.607	5.88
743.357	6.88
744.107	1.88
744.857	3.88
745.607	4.88
746.357	5.88
747.106	5.88
747.856	5.88
748.606	7.88
749.355	2.88
750.105	4.88
750.854	5.88
751.603	3.88
752.353	6.88
753.102	6.88
753.851	4.88
754.6	6.88
755.349	5.88
756.098	6.88
756.847	5.88
757.595	6.88
758.344	4.88
759.093	7.88
759.841	7.88
760.589	4.88
761.338	6.88
762.086	5.88
762.834	6.88
763.582	5.88
764.331	7.88
765.079	5.88
765.826	7.88
766.574	6.88
767.322	6.88
768.07	6.88
768.817	7.88
769.565	6.88
770.312	6.88
771.06	9.88
771.807	4.88
772.554	6.88
773.302	5.88
774.049	5.88
774.796	8.88
775.543	7.88
776.29	6.88
777.036	9.88
777.783	7.88
778.53	9.88
779.276	9.88
780.023	7.88
780.769	7.88
781.516	9.88
782.262	9.88
783.008	7.88
783.754	9.88
784.5	8.88
785.246	7.88
785.992	8.88
786.738	9.88
787.484	7.88
788.23	8.88
788.975	9.88
789.721	7.88
790.466	4.88
791.212	9.88
791.957	8.88
792.702	9.88
793.447	5.88
794.193	8.88
794.938	8.88
795.683	7.88
796.427	6.88
797.172	7.88
797.917	7.88
798.662	8.88
799.406	6.88
800.151	8.88
800.895	7.88
801.64	7.88
802.384	4.88
803.128	6.88
803.872	8.88
804.616	5.88
805.36	7.88
806.104	3.88
806.848	8.88
807.592	6.88
808.336	5.88
809.079	4.88
809.823	3.88
810.566	7.88
811.31	5.88
812.053	7.88
812.796	7.88
813.539	3.88
814.283	2.88
815.026	4.88
815.769	4.88
816.511	2.88
817.254	5.88
817.997	2.88
818.74	5.88
819.482	5.88
820.225	1.88
820.967	4.88
821.71	4.88
822.452	3.88
823.194	5.88
823.936	5.88
824.678	3.88
825.42	5.88
826.162	5.88
826.904	4.88
827.646	4.88
828.388	6.88
829.129	4.88
829.871	4.88
830.612	3.88
831.354	4.88
832.095	3.88
832.836	2.88
833.577	1.88
834.319	4.88
835.06	2.88
835.801	1.88
836.542	1.88
837.282	2.88
838.023	-0.12
838.764	2.88
839.504	1.88
840.245	3.88
840.985	3.88
841.726	2.88
842.466	1.88
843.206	2.88
843.946	3.88
844.687	4.88
845.427	2.88
846.166	3.88
846.906	2.88
847.646	3.88
848.386	3.88
849.125	3.88
849.865	0.88
850.605	0.88
851.344	1.88
852.083	2.88
852.823	0.88
853.562	1.88
854.301	0.88
855.04	0.88
855.779	2.88
856.518	3.88
857.257	1.88
857.995	3.88
858.734	2.88
859.473	2.88
860.211	2.88
860.95	0.88
861.688	2.88
862.426	0.88
863.165	3.88
863.903	2.88
864.641	1.88
865.379	1.88
866.117	2.88
866.855	1.88
867.593	0.88
868.33	2.88
869.068	0.88
869.806	0.88
870.543	0.88
871.28	-0.12
872.018	0.88
872.755	2.88
873.492	-0.12
874.229	1.88
874.967	1.88
875.703	2.88
876.44	-1.12
877.177	-0.12
877.914	-0.12
878.651	-1.12
879.387	1.88
880.124	-1.12
880.86	-1.12
881.597	-2.12
882.333	1.88
883.069	-0.12
883.806	-0.12
884.542	2.88
885.278	0.88
886.014	1.88
886.749	-0.12
887.485	0.88
888.221	-1.12
888.957	-0.12
889.692	0.88
890.428	-0.12
891.163	-0.12
891.899	0.88
892.634	1.88
893.369	1.88
894.104	0.88
894.839	1.88
895.574	1.88
896.309	1.88
897.044	0.88
897.779	-0.12
898.514	1.88
899.248	-0.12
899.983	0.88
900.717	-1.12
901.452	1.88
902.186	-0.12
902.92	-0.12
903.654	-0.12
904.389	1.88
905.123	1.88
905.857	-0.12
906.59	-0.12
907.324	0.88
908.058	0.88
908.792	0.88
909.525	-0.12
910.259	0.88
910.992	-0.12
911.726	-1.12
912.459	0.88
913.192	-0.12
913.925	0.88
914.658	-0.12
915.391	-0.12
916.124	0.88
916.857	-0.12
917.59	0.88
918.323	-1.12
919.055	0.88
919.788	0.88
920.521	-2.12
921.253	0.88
921.985	0.88
922.718	0.88
923.45	1.88
924.182	1.88
924.914	1.88
925.646	-0.12
926.378	2.88
927.11	-0.12
927.841	-0.12
928.573	-0.12
929.305	0.88
930.036	-1.12
930.768	1.88
931.499	-1.12
932.23	-3.12
932.962	2.88
933.693	-0.12
934.424	0.88
935.155	-2.12
935.886	-0.12
936.617	0.88
937.348	-2.12
938.078	-0.12
938.809	-0.12
939.54	-0.12
940.27	0.88
941.001	0.88
941.731	1.88
942.461	-1.12
943.191	-3.12
943.922	-2.12
944.652	0.88
945.382	1.88
946.112	0.88
946.841	-1.12
947.571	0.88
948.301	-0.12
949.031	0.88
949.76	-2.12
950.49	0.88
951.219	-2.12
951.948	-0.12
952.678	-0.12
953.407	0.88
954.136	-0.12
954.865	0.88
955.594	0.88
956.323	0.88
957.052	1.88
957.78	0.88
958.509	-0.12
959.238	-0.12
959.966	2.88
960.695	0.88
961.423	-1.12
962.151	0.88
962.88	-1.12
963.608	0.88
964.336	0.88
965.064	0.88
965.792	0.88
966.52	-0.12
967.247	2.88
967.975	1.88
968.703	-0.12
969.43	0.88
970.158	-1.12
970.885	-0.12
971.613	-0.12
972.34	-0.12
973.067	0.88
973.794	-1.12
974.521	-0.12
975.248	-0.12
975.975	-0.12
976.702	0.88
977.429	0.88
978.156	-0.12
978.882	0.88
979.609	0.88
980.335	-0.12
981.062	-2.12
981.788	-0.12
982.514	-0.12
983.24	0.88
983.967	0.88
984.693	0.88
985.419	1.88
986.144	-0.12
986.87	0.88
987.596	-0.12
988.322	-1.12
989.047	0.88
989.773	-0.12
990.498	-0.12
991.224	0.88
991.949	0.88
992.674	-1.12
993.399	0.88
994.124	0.88
994.849	-2.12
995.574	-0.12
996.299	-1.12
997.024	-2.12
997.749	-2.12
998.473	-0.12
999.198	1.88
999.922	-0.12
1000.647	0.88
1001.371	4.88
1002.095	-0.12
1002.82	-2.12
1003.544	-0.12
1004.268	0.88
1004.992	1.88
1005.716	1.88
1006.439	0.88
1007.163	1.88
1007.887	2.88
1008.611	1.88
1009.334	1.88
1010.058	-0.12
1010.781	-2.12
1011.504	0.88
1012.228	-0.12
1012.951	-2.12
1013.674	-0.12
1014.397	-0.12
1015.12	-0.12
