节点500_285_QEPB04081__659__15-06-30-992.txt的数据

Date: Wed Nov 12 15:06:30 CST 2025
User: PC
Spectrometer: QEPB0408
触发模式: 0
积分时间 (秒): 1.000000E-2
Scans to average: 1
启用暗噪声校正: true
启用非线性校正: false
滑动平均宽度: 0
X轴模式: Wavelengths
Number of Pixels in Spectrum: 1044
>>>>>Begin Spectral Data<<<<<
220.843	1.25
221.644	0.25
222.444	2.25
223.244	4.25
224.045	0.25
224.845	1.25
225.645	1.25
226.445	1.25
227.245	1.25
228.045	2.25
228.845	1.25
229.645	0.25
230.444	2.25
231.244	0.25
232.043	2.25
232.843	3.25
233.642	1.25
234.442	1.25
235.241	1.25
236.04	3.25
236.839	3.25
237.638	1.25
238.437	4.25
239.236	1.25
240.035	5.25
240.833	2.25
241.632	3.25
242.43	3.25
243.229	3.25
244.027	5.25
244.826	4.25
245.624	1.25
246.422	5.25
247.22	6.25
248.018	5.25
248.816	4.25
249.614	5.25
250.412	5.25
251.21	6.25
252.007	7.25
252.805	5.25
253.602	6.25
254.4	4.25
255.197	6.25
255.994	5.25
256.791	6.25
257.589	5.25
258.386	6.25
259.183	9.25
259.979	7.25
260.776	8.25
261.573	8.25
262.37	11.25
263.166	9.25
263.963	9.25
264.759	10.25
265.556	9.25
266.352	10.25
267.148	11.25
267.944	12.25
268.74	13.25
269.536	13.25
270.332	14.25
271.128	12.25
271.924	13.25
272.719	14.25
273.515	15.25
274.311	16.25
275.106	13.25
275.901	14.25
276.697	19.25
277.492	15.25
278.287	15.25
279.082	17.25
279.877	16.25
280.672	17.25
281.467	16.25
282.262	13.25
283.056	17.25
283.851	16.25
284.646	16.25
285.44	20.25
286.234	18.25
287.029	19.25
287.823	17.25
288.617	17.25
289.411	17.25
290.205	17.25
290.999	15.25
291.793	17.25
292.587	17.25
293.381	13.25
294.174	16.25
294.968	13.25
295.761	12.25
296.555	13.25
297.348	16.25
298.141	13.25
298.935	17.25
299.728	13.25
300.521	12.25
301.314	13.25
302.107	14.25
302.899	13.25
303.692	16.25
304.485	11.25
305.277	13.25
306.07	13.25
306.862	11.25
307.655	12.25
308.447	13.25
309.239	12.25
310.031	14.25
310.823	11.25
311.615	11.25
312.407	8.25
313.199	9.25
313.991	9.25
314.783	10.25
315.574	9.25
316.366	8.25
317.157	9.25
317.949	8.25
318.74	7.25
319.531	8.25
320.322	6.25
321.113	9.25
321.904	7.25
322.695	6.25
323.486	9.25
324.277	6.25
325.068	3.25
325.858	5.25
326.649	7.25
327.439	9.25
328.23	6.25
329.02	5.25
329.81	6.25
330.6	7.25
331.391	6.25
332.181	4.25
332.971	4.25
333.76	7.25
334.55	6.25
335.34	5.25
336.13	3.25
336.919	5.25
337.709	6.25
338.498	5.25
339.287	6.25
340.077	5.25
340.866	4.25
341.655	7.25
342.444	5.25
343.233	5.25
344.022	4.25
344.811	4.25
345.6	6.25
346.388	6.25
347.177	6.25
347.965	4.25
348.754	6.25
349.542	3.25
350.33	5.25
351.119	7.25
351.907	2.25
352.695	5.25
353.483	5.25
354.271	5.25
355.059	8.25
355.846	5.25
356.634	2.25
357.422	4.25
358.209	4.25
358.997	6.25
359.784	5.25
360.571	6.25
361.359	4.25
362.146	6.25
362.933	6.25
363.72	3.25
364.507	4.25
365.294	2.25
366.081	4.25
366.867	3.25
367.654	4.25
368.44	4.25
369.227	2.25
370.013	5.25
370.8	3.25
371.586	5.25
372.372	4.25
373.158	3.25
373.944	4.25
374.73	4.25
375.516	7.25
376.302	4.25
377.088	1.25
377.873	2.25
378.659	3.25
379.445	3.25
380.23	4.25
381.015	5.25
381.801	3.25
382.586	5.25
383.371	4.25
384.156	3.25
384.941	4.25
385.726	6.25
386.511	5.25
387.296	4.25
388.08	5.25
388.865	6.25
389.649	4.25
390.434	5.25
391.218	5.25
392.003	7.25
392.787	2.25
393.571	6.25
394.355	7.25
395.139	9.25
395.923	6.25
396.707	5.25
397.491	6.25
398.274	6.25
399.058	5.25
399.842	5.25
400.625	5.25
401.408	6.25
402.192	5.25
402.975	8.25
403.758	5.25
404.541	8.25
405.324	5.25
406.107	6.25
406.89	7.25
407.673	6.25
408.456	10.25
409.238	7.25
410.021	4.25
410.803	6.25
411.586	6.25
412.368	6.25
413.151	9.25
413.933	6.25
414.715	6.25
415.497	7.25
416.279	10.25
417.061	9.25
417.843	9.25
418.624	6.25
419.406	9.25
420.188	11.25
420.969	10.25
421.751	11.25
422.532	10.25
423.313	9.25
424.095	9.25
424.876	9.25
425.657	12.25
426.438	9.25
427.219	13.25
428	12.25
428.78	10.25
429.561	11.25
430.342	12.25
431.122	13.25
431.903	12.25
432.683	16.25
433.464	15.25
434.244	14.25
435.024	14.25
435.804	17.25
436.584	17.25
437.364	17.25
438.144	18.25
438.924	20.25
439.704	21.25
440.483	24.25
441.263	24.25
442.042	28.25
442.822	28.25
443.601	29.25
444.38	27.25
445.16	31.25
445.939	36.25
446.718	38.25
447.497	39.25
448.276	41.25
449.054	45.25
449.833	51.25
450.612	54.25
451.391	62.25
452.169	65.25
452.948	73.25
453.726	79.25
454.504	88.25
455.282	98.25
456.061	109.25
456.839	121.25
457.617	133.25
458.395	150.25
459.172	164.25
459.95	188.25
460.728	199.25
461.506	223.25
462.283	251.25
463.061	277.25
463.838	313.25
464.615	353.25
465.393	388.25
466.17	438.25
466.947	477.25
467.724	528.25
468.501	581.25
469.278	641.25
470.055	728.25
470.831	804.25
471.608	890.25
472.385	994.25
473.161	1085.25
473.938	1200.25
474.714	1335.25
475.49	1463.25
476.266	1608.25
477.043	1784.25
477.819	1936.25
478.595	2136.25
479.371	2350.25
480.146	2553.25
480.922	2820.25
481.698	3082.25
482.473	3378.25
483.249	3715.25
484.024	4028.25
484.8	4432.25
485.575	4824.25
486.35	5281.25
487.126	5744.25
487.901	6285.25
488.676	6818.25
489.451	7453.25
490.225	8118.25
491	8816.25
491.775	9584.25
492.55	10440.25
493.324	11286.25
494.099	12074.25
494.873	13015.25
495.647	13993.25
496.422	14911.25
497.196	16038.25
497.97	17095.25
498.744	18194.25
499.518	19275.25
500.292	20354.25
501.066	21333.25
501.839	22277.25
502.613	23181.25
503.387	24046.25
504.16	24692.25
504.934	25194.25
505.707	25550.25
506.48	25751.25
507.253	25808.25
508.027	25724.25
508.8	25658.25
509.573	25376.25
510.346	25068.25
511.118	24483.25
511.891	23827.25
512.664	23091.25
513.437	22417.25
514.209	21564.25
514.982	20757.25
515.754	19972.25
516.526	19062.25
517.298	18317.25
518.071	17567.25
518.843	16858.25
519.615	16211.25
520.387	15634.25
521.159	14994.25
521.93	14340.25
522.702	13867.25
523.474	13261.25
524.245	12705.25
525.017	12151.25
525.788	11680.25
526.56	11150.25
527.331	10667.25
528.102	10205.25
528.873	9775.25
529.644	9329.25
530.415	8905.25
531.186	8464.25
531.957	8035.25
532.728	7649.25
533.498	7277.25
534.269	6859.25
535.039	6533.25
535.81	6137.25
536.58	5835.25
537.351	5474.25
538.121	5186.25
538.891	4921.25
539.661	4619.25
540.431	4381.25
541.201	4158.25
541.971	3928.25
542.741	3729.25
543.51	3531.25
544.28	3354.25
545.05	3216.25
545.819	3038.25
546.588	2890.25
547.358	2756.25
548.127	2615.25
548.896	2485.25
549.665	2359.25
550.434	2235.25
551.203	2114.25
551.972	2009.25
552.741	1910.25
553.51	1791.25
554.278	1703.25
555.047	1607.25
555.815	1516.25
556.584	1437.25
557.352	1370.25
558.121	1274.25
558.889	1212.25
559.657	1153.25
560.425	1084.25
561.193	1023.25
561.961	955.25
562.729	909.25
563.496	872.25
564.264	803.25
565.032	772.25
565.799	725.25
566.567	680.25
567.334	646.25
568.101	611.25
568.869	586.25
569.636	543.25
570.403	511.25
571.17	487.25
571.937	458.25
572.704	432.25
573.471	406.25
574.237	381.25
575.004	365.25
575.771	336.25
576.537	323.25
577.303	300.25
578.07	289.25
578.836	260.25
579.602	253.25
580.368	237.25
581.134	229.25
581.9	215.25
582.666	202.25
583.432	192.25
584.198	186.25
584.964	172.25
585.729	166.25
586.495	156.25
587.26	149.25
588.025	139.25
588.791	131.25
589.556	122.25
590.321	121.25
591.086	107.25
591.851	106.25
592.616	100.25
593.381	94.25
594.146	89.25
594.911	89.25
595.675	81.25
596.44	77.25
597.204	76.25
597.969	74.25
598.733	66.25
599.497	71.25
600.261	60.25
601.025	61.25
601.79	58.25
602.553	54.25
603.317	51.25
604.081	49.25
604.845	45.25
605.609	45.25
606.372	44.25
607.136	44.25
607.899	41.25
608.662	39.25
609.426	35.25
610.189	34.25
610.952	36.25
611.715	33.25
612.478	33.25
613.241	32.25
614.004	30.25
614.767	28.25
615.529	29.25
616.292	24.25
617.055	24.25
617.817	25.25
618.579	21.25
619.342	24.25
620.104	22.25
620.866	22.25
621.628	19.25
622.39	19.25
623.152	20.25
623.914	18.25
624.676	17.25
625.438	21.25
626.199	18.25
626.961	17.25
627.722	14.25
628.484	15.25
629.245	11.25
630.006	16.25
630.768	13.25
631.529	12.25
632.29	11.25
633.051	10.25
633.812	10.25
634.573	11.25
635.333	10.25
636.094	9.25
636.855	9.25
637.615	9.25
638.376	6.25
639.136	9.25
639.896	7.25
640.657	9.25
641.417	9.25
642.177	8.25
642.937	8.25
643.697	4.25
644.457	7.25
645.216	8.25
645.976	6.25
646.736	8.25
647.495	7.25
648.255	8.25
649.014	6.25
649.774	7.25
650.533	5.25
651.292	7.25
652.051	8.25
652.81	4.25
653.569	6.25
654.328	6.25
655.087	6.25
655.846	5.25
656.604	4.25
657.363	5.25
658.121	4.25
658.88	4.25
659.638	4.25
660.397	6.25
661.155	5.25
661.913	2.25
662.671	5.25
663.429	4.25
664.187	4.25
664.945	4.25
665.703	4.25
666.46	5.25
667.218	4.25
667.976	4.25
668.733	8.25
669.49	3.25
670.248	6.25
671.005	4.25
671.762	5.25
672.519	5.25
673.276	3.25
674.033	3.25
674.79	3.25
675.547	3.25
676.304	2.25
677.06	3.25
677.817	6.25
678.574	5.25
679.33	5.25
680.086	4.25
680.843	1.25
681.599	2.25
682.355	4.25
683.111	3.25
683.867	4.25
684.623	4.25
685.379	5.25
686.135	1.25
686.89	2.25
687.646	1.25
688.402	4.25
689.157	3.25
689.912	1.25
690.668	0.25
691.423	3.25
692.178	3.25
692.933	3.25
693.688	4.25
694.443	2.25
695.198	3.25
695.953	2.25
696.708	4.25
697.462	1.25
698.217	2.25
698.972	1.25
699.726	2.25
700.48	2.25
701.235	2.25
701.989	3.25
702.743	1.25
703.497	2.25
704.251	3.25
705.005	6.25
705.759	4.25
706.513	2.25
707.266	3.25
708.02	2.25
708.774	5.25
709.527	6.25
710.28	2.25
711.034	3.25
711.787	3.25
712.54	1.25
713.293	5.25
714.046	5.25
714.799	4.25
715.552	1.25
716.305	5.25
717.058	3.25
717.81	2.25
718.563	3.25
719.315	4.25
720.068	2.25
720.82	1.25
721.573	4.25
722.325	3.25
723.077	5.25
723.829	2.25
724.581	2.25
725.333	4.25
726.085	3.25
726.836	4.25
727.588	1.25
728.34	4.25
729.091	2.25
729.843	2.25
730.594	1.25
731.346	3.25
732.097	4.25
732.848	3.25
733.599	4.25
734.35	4.25
735.101	2.25
735.852	5.25
736.603	-0.75
737.354	3.25
738.104	4.25
738.855	3.25
739.605	4.25
740.356	3.25
741.106	2.25
741.856	6.25
742.607	3.25
743.357	4.25
744.107	2.25
744.857	1.25
745.607	5.25
746.357	3.25
747.106	2.25
747.856	3.25
748.606	3.25
749.355	4.25
750.105	6.25
750.854	5.25
751.603	3.25
752.353	4.25
753.102	3.25
753.851	5.25
754.6	5.25
755.349	4.25
756.098	6.25
756.847	6.25
757.595	6.25
758.344	5.25
759.093	6.25
759.841	4.25
760.589	3.25
761.338	5.25
762.086	5.25
762.834	7.25
763.582	5.25
764.331	4.25
765.079	6.25
765.826	6.25
766.574	5.25
767.322	6.25
768.07	6.25
768.817	4.25
769.565	6.25
770.312	6.25
771.06	6.25
771.807	6.25
772.554	9.25
773.302	6.25
774.049	6.25
774.796	8.25
775.543	6.25
776.29	6.25
777.036	6.25
777.783	9.25
778.53	5.25
779.276	8.25
780.023	6.25
780.769	9.25
781.516	9.25
782.262	9.25
783.008	5.25
783.754	9.25
784.5	7.25
785.246	7.25
785.992	6.25
786.738	7.25
787.484	5.25
788.23	5.25
788.975	7.25
789.721	8.25
790.466	6.25
791.212	9.25
791.957	7.25
792.702	8.25
793.447	7.25
794.193	6.25
794.938	6.25
795.683	9.25
796.427	5.25
797.172	5.25
797.917	8.25
798.662	8.25
799.406	9.25
800.151	9.25
800.895	6.25
801.64	6.25
802.384	6.25
803.128	7.25
803.872	8.25
804.616	6.25
805.36	7.25
806.104	5.25
806.848	5.25
807.592	4.25
808.336	5.25
809.079	3.25
809.823	4.25
810.566	8.25
811.31	2.25
812.053	4.25
812.796	3.25
813.539	4.25
814.283	4.25
815.026	7.25
815.769	3.25
816.511	5.25
817.254	4.25
817.997	3.25
818.74	6.25
819.482	3.25
820.225	2.25
820.967	3.25
821.71	3.25
822.452	2.25
823.194	2.25
823.936	3.25
824.678	2.25
825.42	4.25
826.162	3.25
826.904	3.25
827.646	5.25
828.388	1.25
829.129	3.25
829.871	4.25
830.612	3.25
831.354	4.25
832.095	3.25
832.836	3.25
833.577	2.25
834.319	2.25
835.06	4.25
835.801	2.25
836.542	2.25
837.282	1.25
838.023	2.25
838.764	3.25
839.504	2.25
840.245	3.25
840.985	2.25
841.726	3.25
842.466	2.25
843.206	2.25
843.946	0.25
844.687	1.25
845.427	4.25
846.166	2.25
846.906	1.25
847.646	4.25
848.386	3.25
849.125	3.25
849.865	0.25
850.605	3.25
851.344	2.25
852.083	6.25
852.823	2.25
853.562	3.25
854.301	0.25
855.04	2.25
855.779	0.25
856.518	2.25
857.257	1.25
857.995	2.25
858.734	2.25
859.473	1.25
860.211	-0.75
860.95	3.25
861.688	-1.75
862.426	2.25
863.165	0.25
863.903	1.25
864.641	1.25
865.379	0.25
866.117	1.25
866.855	0.25
867.593	0.25
868.33	1.25
869.068	0.25
869.806	1.25
870.543	0.25
871.28	2.25
872.018	0.25
872.755	0.25
873.492	-3.75
874.229	0.25
874.967	1.25
875.703	0.25
876.44	1.25
877.177	-0.75
877.914	1.25
878.651	0.25
879.387	1.25
880.124	1.25
880.86	0.25
881.597	0.25
882.333	1.25
883.069	-0.75
883.806	1.25
884.542	-1.75
885.278	-0.75
886.014	1.25
886.749	1.25
887.485	2.25
888.221	0.25
888.957	-1.75
889.692	-0.75
890.428	-1.75
891.163	0.25
891.899	-0.75
892.634	3.25
893.369	-1.75
894.104	-0.75
894.839	0.25
895.574	1.25
896.309	1.25
897.044	-0.75
897.779	-1.75
898.514	-0.75
899.248	0.25
899.983	-0.75
900.717	2.25
901.452	-0.75
902.186	-0.75
902.92	0.25
903.654	2.25
904.389	0.25
905.123	0.25
905.857	-1.75
906.59	-1.75
907.324	0.25
908.058	2.25
908.792	0.25
909.525	1.25
910.259	0.25
910.992	0.25
911.726	0.25
912.459	2.25
913.192	2.25
913.925	0.25
914.658	-0.75
915.391	-0.75
916.124	-0.75
916.857	1.25
917.59	-2.75
918.323	0.25
919.055	-2.75
919.788	-0.75
920.521	2.25
921.253	0.25
921.985	-2.75
922.718	1.25
923.45	-0.75
924.182	-0.75
924.914	1.25
925.646	1.25
926.378	-0.75
927.11	1.25
927.841	-0.75
928.573	0.25
929.305	1.25
930.036	-0.75
930.768	0.25
931.499	0.25
932.23	-2.75
932.962	0.25
933.693	1.25
934.424	-0.75
935.155	0.25
935.886	0.25
936.617	1.25
937.348	1.25
938.078	-0.75
938.809	1.25
939.54	0.25
940.27	-2.75
941.001	0.25
941.731	-1.75
942.461	-3.75
943.191	1.25
943.922	1.25
944.652	0.25
945.382	0.25
946.112	1.25
946.841	-1.75
947.571	-0.75
948.301	0.25
949.031	0.25
949.76	-4.75
950.49	1.25
951.219	1.25
951.948	-2.75
952.678	-1.75
953.407	-0.75
954.136	0.25
954.865	-0.75
955.594	-0.75
956.323	-0.75
957.052	-2.75
957.78	-1.75
958.509	0.25
959.238	-0.75
959.966	-0.75
960.695	1.25
961.423	-0.75
962.151	-0.75
962.88	-0.75
963.608	-0.75
964.336	0.25
965.064	0.25
965.792	-0.75
966.52	0.25
967.247	-0.75
967.975	-1.75
968.703	-0.75
969.43	1.25
970.158	0.25
970.885	-4.75
971.613	-0.75
972.34	-0.75
973.067	1.25
973.794	0.25
974.521	-2.75
975.248	-0.75
975.975	-0.75
976.702	0.25
977.429	-0.75
978.156	0.25
978.882	-1.75
979.609	0.25
980.335	1.25
981.062	-0.75
981.788	0.25
982.514	-0.75
983.24	-2.75
983.967	0.25
984.693	-0.75
985.419	1.25
986.144	1.25
986.87	-0.75
987.596	0.25
988.322	-0.75
989.047	1.25
989.773	-1.75
990.498	1.25
991.224	-1.75
991.949	-2.75
992.674	0.25
993.399	-2.75
994.124	-0.75
994.849	-0.75
995.574	0.25
996.299	-1.75
997.024	-0.75
997.749	0.25
998.473	-0.75
999.198	1.25
999.922	1.25
1000.647	-1.75
1001.371	3.25
1002.095	-2.75
1002.82	1.25
1003.544	-0.75
1004.268	-0.75
1004.992	0.25
1005.716	1.25
1006.439	0.25
1007.163	-1.75
1007.887	0.25
1008.611	-0.75
1009.334	-1.75
1010.058	-0.75
1010.781	1.25
1011.504	-1.75
1012.228	-2.75
1012.951	-0.75
1013.674	1.25
1014.397	-0.75
1015.12	-0.75
