节点500_285_QEPB04081__633__15-06-05-078.txt的数据

Date: Wed Nov 12 15:06:05 CST 2025
User: PC
Spectrometer: QEPB0408
触发模式: 0
积分时间 (秒): 1.000000E-2
Scans to average: 1
启用暗噪声校正: true
启用非线性校正: false
滑动平均宽度: 0
X轴模式: Wavelengths
Number of Pixels in Spectrum: 1044
>>>>>Begin Spectral Data<<<<<
220.843	1.38
221.644	2.38
222.444	0.38
223.244	1.38
224.045	5.38
224.845	0.38
225.645	3.38
226.445	0.38
227.245	4.38
228.045	3.38
228.845	2.38
229.645	1.38
230.444	2.38
231.244	5.38
232.043	3.38
232.843	3.38
233.642	4.38
234.442	2.38
235.241	5.38
236.04	1.38
236.839	5.38
237.638	4.38
238.437	3.38
239.236	3.38
240.035	4.38
240.833	4.38
241.632	3.38
242.43	4.38
243.229	6.38
244.027	5.38
244.826	5.38
245.624	6.38
246.422	6.38
247.22	5.38
248.018	7.38
248.816	5.38
249.614	6.38
250.412	5.38
251.21	6.38
252.007	7.38
252.805	6.38
253.602	7.38
254.4	5.38
255.197	8.38
255.994	8.38
256.791	8.38
257.589	9.38
258.386	9.38
259.183	9.38
259.979	8.38
260.776	9.38
261.573	9.38
262.37	10.38
263.166	10.38
263.963	11.38
264.759	11.38
265.556	10.38
266.352	13.38
267.148	12.38
267.944	10.38
268.74	12.38
269.536	12.38
270.332	15.38
271.128	13.38
271.924	14.38
272.719	15.38
273.515	15.38
274.311	14.38
275.106	14.38
275.901	14.38
276.697	18.38
277.492	16.38
278.287	17.38
279.082	17.38
279.877	19.38
280.672	17.38
281.467	18.38
282.262	19.38
283.056	17.38
283.851	17.38
284.646	17.38
285.44	16.38
286.234	18.38
287.029	17.38
287.823	19.38
288.617	15.38
289.411	18.38
290.205	16.38
290.999	18.38
291.793	16.38
292.587	16.38
293.381	16.38
294.174	19.38
294.968	18.38
295.761	13.38
296.555	14.38
297.348	15.38
298.141	14.38
298.935	18.38
299.728	15.38
300.521	15.38
301.314	16.38
302.107	13.38
302.899	14.38
303.692	13.38
304.485	11.38
305.277	13.38
306.07	13.38
306.862	11.38
307.655	13.38
308.447	13.38
309.239	12.38
310.031	14.38
310.823	11.38
311.615	8.38
312.407	12.38
313.199	9.38
313.991	10.38
314.783	10.38
315.574	8.38
316.366	8.38
317.157	8.38
317.949	10.38
318.74	7.38
319.531	8.38
320.322	7.38
321.113	7.38
321.904	7.38
322.695	6.38
323.486	7.38
324.277	7.38
325.068	9.38
325.858	6.38
326.649	9.38
327.439	6.38
328.23	5.38
329.02	9.38
329.81	7.38
330.6	5.38
331.391	5.38
332.181	3.38
332.971	6.38
333.76	7.38
334.55	7.38
335.34	7.38
336.13	9.38
336.919	8.38
337.709	7.38
338.498	6.38
339.287	6.38
340.077	5.38
340.866	6.38
341.655	5.38
342.444	7.38
343.233	7.38
344.022	7.38
344.811	5.38
345.6	6.38
346.388	8.38
347.177	5.38
347.965	8.38
348.754	7.38
349.542	7.38
350.33	6.38
351.119	7.38
351.907	5.38
352.695	7.38
353.483	6.38
354.271	5.38
355.059	4.38
355.846	6.38
356.634	5.38
357.422	5.38
358.209	5.38
358.997	4.38
359.784	7.38
360.571	6.38
361.359	5.38
362.146	6.38
362.933	5.38
363.72	5.38
364.507	5.38
365.294	4.38
366.081	4.38
366.867	7.38
367.654	5.38
368.44	4.38
369.227	6.38
370.013	5.38
370.8	8.38
371.586	3.38
372.372	6.38
373.158	3.38
373.944	6.38
374.73	5.38
375.516	7.38
376.302	7.38
377.088	7.38
377.873	4.38
378.659	5.38
379.445	6.38
380.23	6.38
381.015	6.38
381.801	4.38
382.586	7.38
383.371	6.38
384.156	5.38
384.941	4.38
385.726	6.38
386.511	4.38
387.296	5.38
388.08	4.38
388.865	7.38
389.649	4.38
390.434	9.38
391.218	5.38
392.003	6.38
392.787	6.38
393.571	5.38
394.355	7.38
395.139	5.38
395.923	9.38
396.707	4.38
397.491	7.38
398.274	8.38
399.058	4.38
399.842	9.38
400.625	7.38
401.408	8.38
402.192	8.38
402.975	7.38
403.758	4.38
404.541	6.38
405.324	8.38
406.107	7.38
406.89	7.38
407.673	9.38
408.456	7.38
409.238	10.38
410.021	7.38
410.803	8.38
411.586	6.38
412.368	8.38
413.151	9.38
413.933	9.38
414.715	9.38
415.497	8.38
416.279	8.38
417.061	10.38
417.843	9.38
418.624	7.38
419.406	9.38
420.188	9.38
420.969	8.38
421.751	11.38
422.532	13.38
423.313	14.38
424.095	13.38
424.876	12.38
425.657	13.38
426.438	12.38
427.219	12.38
428	13.38
428.78	12.38
429.561	12.38
430.342	16.38
431.122	14.38
431.903	15.38
432.683	14.38
433.464	17.38
434.244	15.38
435.024	16.38
435.804	17.38
436.584	17.38
437.364	19.38
438.144	22.38
438.924	21.38
439.704	23.38
440.483	23.38
441.263	25.38
442.042	25.38
442.822	25.38
443.601	26.38
444.38	32.38
445.16	33.38
445.939	37.38
446.718	39.38
447.497	40.38
448.276	41.38
449.054	46.38
449.833	52.38
450.612	55.38
451.391	60.38
452.169	67.38
452.948	75.38
453.726	80.38
454.504	83.38
455.282	96.38
456.061	108.38
456.839	118.38
457.617	129.38
458.395	144.38
459.172	158.38
459.95	172.38
460.728	205.38
461.506	224.38
462.283	248.38
463.061	282.38
463.838	311.38
464.615	354.38
465.393	386.38
466.17	436.38
466.947	486.38
467.724	528.38
468.501	595.38
469.278	649.38
470.055	724.38
470.831	808.38
471.608	890.38
472.385	983.38
473.161	1089.38
473.938	1197.38
474.714	1324.38
475.49	1469.38
476.266	1603.38
477.043	1770.38
477.819	1947.38
478.595	2149.38
479.371	2353.38
480.146	2560.38
480.922	2812.38
481.698	3107.38
482.473	3408.38
483.249	3703.38
484.024	4085.38
484.8	4477.38
485.575	4838.38
486.35	5308.38
487.126	5768.38
487.901	6339.38
488.676	6915.38
489.451	7531.38
490.225	8205.38
491	8900.38
491.775	9730.38
492.55	10523.38
493.324	11380.38
494.099	12222.38
494.873	13129.38
495.647	14110.38
496.422	15201.38
497.196	16211.38
497.97	17312.38
498.744	18402.38
499.518	19491.38
500.292	20547.38
501.066	21584.38
501.839	22535.38
502.613	23456.38
503.387	24285.38
504.16	24923.38
504.934	25450.38
505.707	25737.38
506.48	25863.38
507.253	26042.38
508.027	25949.38
508.8	25751.38
509.573	25589.38
510.346	25061.38
511.118	24527.38
511.891	23842.38
512.664	23170.38
513.437	22398.38
514.209	21590.38
514.982	20783.38
515.754	19916.38
516.526	19073.38
517.298	18278.38
518.071	17524.38
518.843	16856.38
519.615	16236.38
520.387	15627.38
521.159	14976.38
521.93	14391.38
522.702	13793.38
523.474	13245.38
524.245	12650.38
525.017	12140.38
525.788	11705.38
526.56	11156.38
527.331	10642.38
528.102	10179.38
528.873	9736.38
529.644	9290.38
530.415	8833.38
531.186	8420.38
531.957	8009.38
532.728	7672.38
533.498	7276.38
534.269	6815.38
535.039	6499.38
535.81	6134.38
536.58	5803.38
537.351	5439.38
538.121	5138.38
538.891	4892.38
539.661	4624.38
540.431	4361.38
541.201	4135.38
541.971	3914.38
542.741	3721.38
543.51	3519.38
544.28	3341.38
545.05	3196.38
545.819	3033.38
546.588	2885.38
547.358	2752.38
548.127	2618.38
548.896	2485.38
549.665	2361.38
550.434	2215.38
551.203	2114.38
551.972	2000.38
552.741	1893.38
553.51	1788.38
554.278	1689.38
555.047	1591.38
555.815	1514.38
556.584	1435.38
557.352	1352.38
558.121	1277.38
558.889	1208.38
559.657	1138.38
560.425	1072.38
561.193	1012.38
561.961	952.38
562.729	914.38
563.496	850.38
564.264	796.38
565.032	772.38
565.799	723.38
566.567	686.38
567.334	651.38
568.101	607.38
568.869	577.38
569.636	550.38
570.403	506.38
571.17	486.38
571.937	456.38
572.704	436.38
573.471	397.38
574.237	381.38
575.004	367.38
575.771	336.38
576.537	317.38
577.303	297.38
578.07	286.38
578.836	271.38
579.602	257.38
580.368	235.38
581.134	226.38
581.9	215.38
582.666	200.38
583.432	196.38
584.198	182.38
584.964	167.38
585.729	165.38
586.495	158.38
587.26	148.38
588.025	136.38
588.791	133.38
589.556	128.38
590.321	116.38
591.086	112.38
591.851	105.38
592.616	96.38
593.381	92.38
594.146	92.38
594.911	89.38
595.675	82.38
596.44	81.38
597.204	74.38
597.969	73.38
598.733	68.38
599.497	66.38
600.261	65.38
601.025	62.38
601.79	57.38
602.553	57.38
603.317	53.38
604.081	53.38
604.845	49.38
605.609	46.38
606.372	44.38
607.136	43.38
607.899	42.38
608.662	38.38
609.426	36.38
610.189	36.38
610.952	33.38
611.715	26.38
612.478	35.38
613.241	32.38
614.004	30.38
614.767	29.38
615.529	28.38
616.292	26.38
617.055	24.38
617.817	24.38
618.579	23.38
619.342	23.38
620.104	22.38
620.866	20.38
621.628	19.38
622.39	21.38
623.152	18.38
623.914	20.38
624.676	18.38
625.438	20.38
626.199	14.38
626.961	17.38
627.722	17.38
628.484	15.38
629.245	13.38
630.006	11.38
630.768	15.38
631.529	13.38
632.29	12.38
633.051	14.38
633.812	14.38
634.573	12.38
635.333	12.38
636.094	14.38
636.855	10.38
637.615	11.38
638.376	11.38
639.136	10.38
639.896	13.38
640.657	10.38
641.417	10.38
642.177	6.38
642.937	10.38
643.697	9.38
644.457	7.38
645.216	11.38
645.976	8.38
646.736	9.38
647.495	10.38
648.255	9.38
649.014	8.38
649.774	6.38
650.533	6.38
651.292	7.38
652.051	8.38
652.81	7.38
653.569	6.38
654.328	6.38
655.087	5.38
655.846	6.38
656.604	6.38
657.363	4.38
658.121	5.38
658.88	7.38
659.638	6.38
660.397	6.38
661.155	4.38
661.913	6.38
662.671	4.38
663.429	7.38
664.187	4.38
664.945	7.38
665.703	4.38
666.46	3.38
667.218	4.38
667.976	5.38
668.733	3.38
669.49	4.38
670.248	4.38
671.005	4.38
671.762	4.38
672.519	6.38
673.276	3.38
674.033	6.38
674.79	4.38
675.547	5.38
676.304	5.38
677.06	5.38
677.817	4.38
678.574	5.38
679.33	5.38
680.086	5.38
680.843	2.38
681.599	3.38
682.355	4.38
683.111	6.38
683.867	4.38
684.623	4.38
685.379	4.38
686.135	5.38
686.89	6.38
687.646	4.38
688.402	5.38
689.157	2.38
689.912	5.38
690.668	5.38
691.423	4.38
692.178	4.38
692.933	2.38
693.688	5.38
694.443	4.38
695.198	4.38
695.953	2.38
696.708	4.38
697.462	5.38
698.217	4.38
698.972	5.38
699.726	3.38
700.48	5.38
701.235	3.38
701.989	5.38
702.743	4.38
703.497	3.38
704.251	6.38
705.005	4.38
705.759	4.38
706.513	2.38
707.266	3.38
708.02	4.38
708.774	2.38
709.527	4.38
710.28	4.38
711.034	5.38
711.787	5.38
712.54	3.38
713.293	5.38
714.046	5.38
714.799	5.38
715.552	3.38
716.305	6.38
717.058	3.38
717.81	5.38
718.563	4.38
719.315	4.38
720.068	3.38
720.82	5.38
721.573	1.38
722.325	5.38
723.077	5.38
723.829	6.38
724.581	4.38
725.333	6.38
726.085	2.38
726.836	3.38
727.588	3.38
728.34	4.38
729.091	5.38
729.843	2.38
730.594	6.38
731.346	4.38
732.097	2.38
732.848	5.38
733.599	5.38
734.35	5.38
735.101	6.38
735.852	1.38
736.603	3.38
737.354	4.38
738.104	3.38
738.855	5.38
739.605	3.38
740.356	5.38
741.106	5.38
741.856	5.38
742.607	2.38
743.357	4.38
744.107	5.38
744.857	7.38
745.607	5.38
746.357	5.38
747.106	6.38
747.856	6.38
748.606	4.38
749.355	4.38
750.105	3.38
750.854	2.38
751.603	5.38
752.353	5.38
753.102	6.38
753.851	2.38
754.6	4.38
755.349	4.38
756.098	6.38
756.847	6.38
757.595	4.38
758.344	5.38
759.093	6.38
759.841	7.38
760.589	5.38
761.338	6.38
762.086	5.38
762.834	5.38
763.582	7.38
764.331	7.38
765.079	4.38
765.826	6.38
766.574	9.38
767.322	5.38
768.07	5.38
768.817	6.38
769.565	8.38
770.312	9.38
771.06	7.38
771.807	8.38
772.554	7.38
773.302	6.38
774.049	7.38
774.796	10.38
775.543	9.38
776.29	8.38
777.036	10.38
777.783	8.38
778.53	6.38
779.276	7.38
780.023	8.38
780.769	10.38
781.516	7.38
782.262	9.38
783.008	9.38
783.754	6.38
784.5	8.38
785.246	9.38
785.992	8.38
786.738	9.38
787.484	9.38
788.23	8.38
788.975	9.38
789.721	7.38
790.466	8.38
791.212	9.38
791.957	10.38
792.702	8.38
793.447	7.38
794.193	6.38
794.938	7.38
795.683	9.38
796.427	8.38
797.172	8.38
797.917	9.38
798.662	10.38
799.406	7.38
800.151	5.38
800.895	5.38
801.64	7.38
802.384	7.38
803.128	7.38
803.872	6.38
804.616	7.38
805.36	8.38
806.104	6.38
806.848	8.38
807.592	7.38
808.336	5.38
809.079	8.38
809.823	5.38
810.566	5.38
811.31	6.38
812.053	5.38
812.796	3.38
813.539	3.38
814.283	7.38
815.026	7.38
815.769	6.38
816.511	4.38
817.254	6.38
817.997	4.38
818.74	5.38
819.482	5.38
820.225	2.38
820.967	3.38
821.71	4.38
822.452	4.38
823.194	4.38
823.936	3.38
824.678	3.38
825.42	4.38
826.162	3.38
826.904	6.38
827.646	4.38
828.388	5.38
829.129	3.38
829.871	5.38
830.612	3.38
831.354	4.38
832.095	3.38
832.836	5.38
833.577	3.38
834.319	5.38
835.06	1.38
835.801	2.38
836.542	4.38
837.282	4.38
838.023	3.38
838.764	5.38
839.504	3.38
840.245	3.38
840.985	3.38
841.726	2.38
842.466	3.38
843.206	4.38
843.946	3.38
844.687	0.38
845.427	2.38
846.166	5.38
846.906	3.38
847.646	4.38
848.386	2.38
849.125	2.38
849.865	2.38
850.605	2.38
851.344	1.38
852.083	1.38
852.823	2.38
853.562	2.38
854.301	2.38
855.04	3.38
855.779	1.38
856.518	3.38
857.257	2.38
857.995	0.38
858.734	3.38
859.473	3.38
860.211	3.38
860.95	1.38
861.688	4.38
862.426	1.38
863.165	2.38
863.903	2.38
864.641	3.38
865.379	2.38
866.117	1.38
866.855	1.38
867.593	2.38
868.33	2.38
869.068	2.38
869.806	0.38
870.543	2.38
871.28	1.38
872.018	0.38
872.755	2.38
873.492	2.38
874.229	1.38
874.967	-0.62
875.703	4.38
876.44	1.38
877.177	0.38
877.914	1.38
878.651	0.38
879.387	-0.62
880.124	0.38
880.86	2.38
881.597	1.38
882.333	1.38
883.069	0.38
883.806	2.38
884.542	2.38
885.278	-1.62
886.014	2.38
886.749	1.38
887.485	2.38
888.221	2.38
888.957	1.38
889.692	-0.62
890.428	0.38
891.163	0.38
891.899	3.38
892.634	-0.62
893.369	3.38
894.104	2.38
894.839	2.38
895.574	-2.62
896.309	1.38
897.044	0.38
897.779	2.38
898.514	0.38
899.248	-0.62
899.983	3.38
900.717	1.38
901.452	2.38
902.186	0.38
902.92	1.38
903.654	1.38
904.389	0.38
905.123	-0.62
905.857	0.38
906.59	1.38
907.324	3.38
908.058	2.38
908.792	1.38
909.525	0.38
910.259	1.38
910.992	1.38
911.726	1.38
912.459	0.38
913.192	-0.62
913.925	1.38
914.658	0.38
915.391	-1.62
916.124	-0.62
916.857	-1.62
917.59	0.38
918.323	1.38
919.055	0.38
919.788	0.38
920.521	1.38
921.253	1.38
921.985	0.38
922.718	0.38
923.45	1.38
924.182	1.38
924.914	2.38
925.646	0.38
926.378	0.38
927.11	1.38
927.841	0.38
928.573	0.38
929.305	0.38
930.036	0.38
930.768	1.38
931.499	2.38
932.23	-0.62
932.962	0.38
933.693	-1.62
934.424	2.38
935.155	2.38
935.886	0.38
936.617	1.38
937.348	1.38
938.078	-2.62
938.809	-1.62
939.54	0.38
940.27	-0.62
941.001	1.38
941.731	1.38
942.461	-0.62
943.191	1.38
943.922	1.38
944.652	0.38
945.382	-0.62
946.112	1.38
946.841	0.38
947.571	1.38
948.301	1.38
949.031	0.38
949.76	1.38
950.49	-0.62
951.219	-0.62
951.948	0.38
952.678	2.38
953.407	-0.62
954.136	2.38
954.865	0.38
955.594	1.38
956.323	0.38
957.052	-1.62
957.78	1.38
958.509	1.38
959.238	1.38
959.966	0.38
960.695	1.38
961.423	-0.62
962.151	1.38
962.88	0.38
963.608	2.38
964.336	1.38
965.064	-1.62
965.792	2.38
966.52	2.38
967.247	-1.62
967.975	0.38
968.703	-0.62
969.43	1.38
970.158	0.38
970.885	2.38
971.613	0.38
972.34	-0.62
973.067	0.38
973.794	1.38
974.521	0.38
975.248	0.38
975.975	0.38
976.702	0.38
977.429	0.38
978.156	1.38
978.882	1.38
979.609	-1.62
980.335	-1.62
981.062	1.38
981.788	-0.62
982.514	0.38
983.24	-0.62
983.967	1.38
984.693	-0.62
985.419	1.38
986.144	3.38
986.87	1.38
987.596	-1.62
988.322	1.38
989.047	0.38
989.773	0.38
990.498	2.38
991.224	1.38
991.949	0.38
992.674	2.38
993.399	0.38
994.124	0.38
994.849	0.38
995.574	2.38
996.299	0.38
997.024	1.38
997.749	-2.62
998.473	1.38
999.198	-1.62
999.922	0.38
1000.647	0.38
1001.371	4.38
1002.095	-2.62
1002.82	-0.62
1003.544	-1.62
1004.268	1.38
1004.992	1.38
1005.716	1.38
1006.439	3.38
1007.163	2.38
1007.887	3.38
1008.611	0.38
1009.334	1.38
1010.058	1.38
1010.781	2.38
1011.504	1.38
1012.228	-2.62
1012.951	0.38
1013.674	-0.62
1014.397	0.38
1015.12	0.38
