节点500_285_QEPB04081__690__15-07-01-878.txt的数据

Date: Wed Nov 12 15:07:01 CST 2025
User: PC
Spectrometer: QEPB0408
触发模式: 0
积分时间 (秒): 1.000000E-2
Scans to average: 1
启用暗噪声校正: true
启用非线性校正: false
滑动平均宽度: 0
X轴模式: Wavelengths
Number of Pixels in Spectrum: 1044
>>>>>Begin Spectral Data<<<<<
220.843	2.75
221.644	-0.25
222.444	1.75
223.244	1.75
224.045	0.75
224.845	1.75
225.645	0.75
226.445	-0.25
227.245	2.75
228.045	2.75
228.845	2.75
229.645	0.75
230.444	2.75
231.244	2.75
232.043	3.75
232.843	4.75
233.642	3.75
234.442	2.75
235.241	3.75
236.04	1.75
236.839	3.75
237.638	4.75
238.437	4.75
239.236	5.75
240.035	6.75
240.833	3.75
241.632	3.75
242.43	5.75
243.229	3.75
244.027	2.75
244.826	5.75
245.624	2.75
246.422	2.75
247.22	3.75
248.018	5.75
248.816	8.75
249.614	5.75
250.412	4.75
251.21	4.75
252.007	6.75
252.805	6.75
253.602	7.75
254.4	4.75
255.197	5.75
255.994	9.75
256.791	7.75
257.589	4.75
258.386	10.75
259.183	9.75
259.979	6.75
260.776	9.75
261.573	8.75
262.37	9.75
263.166	10.75
263.963	8.75
264.759	9.75
265.556	12.75
266.352	12.75
267.148	9.75
267.944	13.75
268.74	10.75
269.536	12.75
270.332	14.75
271.128	13.75
271.924	13.75
272.719	12.75
273.515	16.75
274.311	12.75
275.106	15.75
275.901	16.75
276.697	15.75
277.492	18.75
278.287	15.75
279.082	16.75
279.877	17.75
280.672	16.75
281.467	17.75
282.262	15.75
283.056	17.75
283.851	15.75
284.646	18.75
285.44	15.75
286.234	16.75
287.029	17.75
287.823	16.75
288.617	16.75
289.411	15.75
290.205	13.75
290.999	17.75
291.793	15.75
292.587	14.75
293.381	16.75
294.174	15.75
294.968	16.75
295.761	17.75
296.555	15.75
297.348	12.75
298.141	14.75
298.935	15.75
299.728	12.75
300.521	13.75
301.314	12.75
302.107	13.75
302.899	15.75
303.692	12.75
304.485	15.75
305.277	12.75
306.07	12.75
306.862	14.75
307.655	9.75
308.447	9.75
309.239	9.75
310.031	11.75
310.823	11.75
311.615	12.75
312.407	9.75
313.199	8.75
313.991	9.75
314.783	11.75
315.574	7.75
316.366	8.75
317.157	8.75
317.949	9.75
318.74	7.75
319.531	5.75
320.322	6.75
321.113	7.75
321.904	5.75
322.695	7.75
323.486	8.75
324.277	8.75
325.068	4.75
325.858	8.75
326.649	6.75
327.439	5.75
328.23	6.75
329.02	5.75
329.81	7.75
330.6	6.75
331.391	6.75
332.181	8.75
332.971	5.75
333.76	5.75
334.55	5.75
335.34	6.75
336.13	7.75
336.919	5.75
337.709	5.75
338.498	5.75
339.287	5.75
340.077	6.75
340.866	6.75
341.655	4.75
342.444	6.75
343.233	4.75
344.022	5.75
344.811	4.75
345.6	4.75
346.388	7.75
347.177	6.75
347.965	5.75
348.754	6.75
349.542	5.75
350.33	5.75
351.119	3.75
351.907	5.75
352.695	4.75
353.483	4.75
354.271	6.75
355.059	6.75
355.846	5.75
356.634	5.75
357.422	4.75
358.209	5.75
358.997	5.75
359.784	4.75
360.571	2.75
361.359	4.75
362.146	4.75
362.933	4.75
363.72	5.75
364.507	3.75
365.294	4.75
366.081	3.75
366.867	3.75
367.654	6.75
368.44	4.75
369.227	3.75
370.013	4.75
370.8	2.75
371.586	5.75
372.372	6.75
373.158	5.75
373.944	3.75
374.73	3.75
375.516	2.75
376.302	5.75
377.088	4.75
377.873	5.75
378.659	4.75
379.445	6.75
380.23	3.75
381.015	5.75
381.801	3.75
382.586	3.75
383.371	4.75
384.156	8.75
384.941	2.75
385.726	5.75
386.511	4.75
387.296	5.75
388.08	5.75
388.865	6.75
389.649	5.75
390.434	5.75
391.218	3.75
392.003	6.75
392.787	3.75
393.571	5.75
394.355	5.75
395.139	6.75
395.923	4.75
396.707	5.75
397.491	6.75
398.274	5.75
399.058	6.75
399.842	5.75
400.625	5.75
401.408	6.75
402.192	7.75
402.975	6.75
403.758	2.75
404.541	6.75
405.324	7.75
406.107	6.75
406.89	8.75
407.673	6.75
408.456	7.75
409.238	7.75
410.021	7.75
410.803	7.75
411.586	7.75
412.368	7.75
413.151	9.75
413.933	7.75
414.715	7.75
415.497	12.75
416.279	9.75
417.061	10.75
417.843	7.75
418.624	7.75
419.406	10.75
420.188	9.75
420.969	11.75
421.751	9.75
422.532	7.75
423.313	9.75
424.095	9.75
424.876	11.75
425.657	11.75
426.438	11.75
427.219	11.75
428	11.75
428.78	10.75
429.561	10.75
430.342	13.75
431.122	12.75
431.903	15.75
432.683	13.75
433.464	15.75
434.244	18.75
435.024	14.75
435.804	17.75
436.584	19.75
437.364	16.75
438.144	20.75
438.924	19.75
439.704	23.75
440.483	25.75
441.263	22.75
442.042	28.75
442.822	25.75
443.601	30.75
444.38	32.75
445.16	32.75
445.939	37.75
446.718	33.75
447.497	39.75
448.276	45.75
449.054	45.75
449.833	49.75
450.612	50.75
451.391	59.75
452.169	67.75
452.948	72.75
453.726	78.75
454.504	89.75
455.282	98.75
456.061	111.75
456.839	123.75
457.617	132.75
458.395	148.75
459.172	163.75
459.95	179.75
460.728	202.75
461.506	223.75
462.283	257.75
463.061	282.75
463.838	315.75
464.615	352.75
465.393	389.75
466.17	429.75
466.947	478.75
467.724	538.75
468.501	588.75
469.278	664.75
470.055	726.75
470.831	811.75
471.608	889.75
472.385	986.75
473.161	1089.75
473.938	1206.75
474.714	1323.75
475.49	1479.75
476.266	1597.75
477.043	1758.75
477.819	1941.75
478.595	2136.75
479.371	2337.75
480.146	2566.75
480.922	2811.75
481.698	3074.75
482.473	3343.75
483.249	3662.75
484.024	4035.75
484.8	4370.75
485.575	4817.75
486.35	5222.75
487.126	5704.75
487.901	6205.75
488.676	6760.75
489.451	7390.75
490.225	8074.75
491	8729.75
491.775	9483.75
492.55	10339.75
493.324	11125.75
494.099	11935.75
494.873	12839.75
495.647	13836.75
496.422	14809.75
497.196	15785.75
497.97	16871.75
498.744	17989.75
499.518	18985.75
500.292	20054.75
501.066	21116.75
501.839	22048.75
502.613	23017.75
503.387	23769.75
504.16	24431.75
504.934	24926.75
505.707	25309.75
506.48	25424.75
507.253	25553.75
508.027	25569.75
508.8	25405.75
509.573	25235.75
510.346	24817.75
511.118	24258.75
511.891	23751.75
512.664	22971.75
513.437	22259.75
514.209	21463.75
514.982	20689.75
515.754	19834.75
516.526	19053.75
517.298	18290.75
518.071	17476.75
518.843	16854.75
519.615	16249.75
520.387	15608.75
521.159	14945.75
521.93	14323.75
522.702	13800.75
523.474	13252.75
524.245	12671.75
525.017	12116.75
525.788	11672.75
526.56	11159.75
527.331	10648.75
528.102	10180.75
528.873	9752.75
529.644	9288.75
530.415	8884.75
531.186	8428.75
531.957	8037.75
532.728	7629.75
533.498	7260.75
534.269	6853.75
535.039	6494.75
535.81	6154.75
536.58	5806.75
537.351	5499.75
538.121	5172.75
538.891	4917.75
539.661	4642.75
540.431	4354.75
541.201	4146.75
541.971	3921.75
542.741	3741.75
543.51	3551.75
544.28	3361.75
545.05	3215.75
545.819	3050.75
546.588	2869.75
547.358	2757.75
548.127	2616.75
548.896	2491.75
549.665	2373.75
550.434	2237.75
551.203	2123.75
551.972	2010.75
552.741	1891.75
553.51	1791.75
554.278	1705.75
555.047	1608.75
555.815	1519.75
556.584	1439.75
557.352	1363.75
558.121	1288.75
558.889	1205.75
559.657	1144.75
560.425	1083.75
561.193	1020.75
561.961	960.75
562.729	903.75
563.496	859.75
564.264	821.75
565.032	765.75
565.799	733.75
566.567	696.75
567.334	651.75
568.101	613.75
568.869	589.75
569.636	547.75
570.403	509.75
571.17	488.75
571.937	459.75
572.704	434.75
573.471	407.75
574.237	383.75
575.004	366.75
575.771	348.75
576.537	316.75
577.303	304.75
578.07	286.75
578.836	276.75
579.602	254.75
580.368	249.75
581.134	229.75
581.9	211.75
582.666	203.75
583.432	196.75
584.198	179.75
584.964	169.75
585.729	171.75
586.495	156.75
587.26	145.75
588.025	140.75
588.791	131.75
589.556	123.75
590.321	115.75
591.086	115.75
591.851	105.75
592.616	104.75
593.381	95.75
594.146	91.75
594.911	88.75
595.675	83.75
596.44	82.75
597.204	74.75
597.969	73.75
598.733	70.75
599.497	66.75
600.261	61.75
601.025	58.75
601.79	57.75
602.553	54.75
603.317	54.75
604.081	52.75
604.845	44.75
605.609	44.75
606.372	47.75
607.136	41.75
607.899	40.75
608.662	40.75
609.426	37.75
610.189	35.75
610.952	33.75
611.715	32.75
612.478	30.75
613.241	30.75
614.004	31.75
614.767	29.75
615.529	25.75
616.292	25.75
617.055	23.75
617.817	24.75
618.579	23.75
619.342	25.75
620.104	19.75
620.866	20.75
621.628	22.75
622.39	19.75
623.152	18.75
623.914	20.75
624.676	17.75
625.438	13.75
626.199	13.75
626.961	14.75
627.722	12.75
628.484	15.75
629.245	13.75
630.006	13.75
630.768	12.75
631.529	14.75
632.29	11.75
633.051	11.75
633.812	11.75
634.573	13.75
635.333	11.75
636.094	11.75
636.855	10.75
637.615	9.75
638.376	11.75
639.136	11.75
639.896	9.75
640.657	9.75
641.417	9.75
642.177	10.75
642.937	8.75
643.697	7.75
644.457	7.75
645.216	8.75
645.976	8.75
646.736	5.75
647.495	7.75
648.255	6.75
649.014	6.75
649.774	8.75
650.533	5.75
651.292	5.75
652.051	6.75
652.81	7.75
653.569	3.75
654.328	7.75
655.087	6.75
655.846	4.75
656.604	6.75
657.363	6.75
658.121	4.75
658.88	5.75
659.638	5.75
660.397	5.75
661.155	4.75
661.913	7.75
662.671	6.75
663.429	6.75
664.187	2.75
664.945	3.75
665.703	5.75
666.46	3.75
667.218	6.75
667.976	4.75
668.733	3.75
669.49	4.75
670.248	3.75
671.005	4.75
671.762	4.75
672.519	3.75
673.276	3.75
674.033	1.75
674.79	3.75
675.547	2.75
676.304	4.75
677.06	4.75
677.817	4.75
678.574	4.75
679.33	2.75
680.086	5.75
680.843	3.75
681.599	3.75
682.355	1.75
683.111	4.75
683.867	4.75
684.623	5.75
685.379	3.75
686.135	2.75
686.89	4.75
687.646	1.75
688.402	2.75
689.157	4.75
689.912	5.75
690.668	4.75
691.423	2.75
692.178	3.75
692.933	0.75
693.688	2.75
694.443	4.75
695.198	1.75
695.953	3.75
696.708	1.75
697.462	3.75
698.217	2.75
698.972	3.75
699.726	2.75
700.48	2.75
701.235	4.75
701.989	3.75
702.743	5.75
703.497	0.75
704.251	3.75
705.005	3.75
705.759	0.75
706.513	1.75
707.266	3.75
708.02	-0.25
708.774	3.75
709.527	4.75
710.28	6.75
711.034	0.75
711.787	2.75
712.54	3.75
713.293	3.75
714.046	1.75
714.799	2.75
715.552	4.75
716.305	2.75
717.058	6.75
717.81	2.75
718.563	4.75
719.315	3.75
720.068	3.75
720.82	3.75
721.573	3.75
722.325	3.75
723.077	0.75
723.829	0.75
724.581	2.75
725.333	1.75
726.085	2.75
726.836	2.75
727.588	2.75
728.34	3.75
729.091	1.75
729.843	5.75
730.594	2.75
731.346	1.75
732.097	4.75
732.848	1.75
733.599	2.75
734.35	4.75
735.101	5.75
735.852	3.75
736.603	2.75
737.354	3.75
738.104	4.75
738.855	2.75
739.605	3.75
740.356	4.75
741.106	4.75
741.856	5.75
742.607	5.75
743.357	2.75
744.107	3.75
744.857	4.75
745.607	4.75
746.357	4.75
747.106	5.75
747.856	2.75
748.606	2.75
749.355	5.75
750.105	3.75
750.854	4.75
751.603	3.75
752.353	4.75
753.102	4.75
753.851	4.75
754.6	5.75
755.349	6.75
756.098	4.75
756.847	6.75
757.595	6.75
758.344	5.75
759.093	2.75
759.841	8.75
760.589	5.75
761.338	4.75
762.086	5.75
762.834	6.75
763.582	7.75
764.331	5.75
765.079	4.75
765.826	6.75
766.574	4.75
767.322	7.75
768.07	3.75
768.817	8.75
769.565	6.75
770.312	7.75
771.06	5.75
771.807	4.75
772.554	6.75
773.302	6.75
774.049	4.75
774.796	5.75
775.543	5.75
776.29	8.75
777.036	5.75
777.783	6.75
778.53	4.75
779.276	7.75
780.023	8.75
780.769	6.75
781.516	8.75
782.262	5.75
783.008	6.75
783.754	9.75
784.5	6.75
785.246	8.75
785.992	8.75
786.738	8.75
787.484	7.75
788.23	7.75
788.975	7.75
789.721	8.75
790.466	7.75
791.212	6.75
791.957	8.75
792.702	8.75
793.447	8.75
794.193	7.75
794.938	8.75
795.683	7.75
796.427	7.75
797.172	6.75
797.917	5.75
798.662	6.75
799.406	7.75
800.151	5.75
800.895	4.75
801.64	6.75
802.384	5.75
803.128	6.75
803.872	7.75
804.616	6.75
805.36	7.75
806.104	4.75
806.848	1.75
807.592	8.75
808.336	6.75
809.079	4.75
809.823	6.75
810.566	5.75
811.31	4.75
812.053	4.75
812.796	4.75
813.539	4.75
814.283	5.75
815.026	7.75
815.769	4.75
816.511	3.75
817.254	3.75
817.997	6.75
818.74	2.75
819.482	4.75
820.225	4.75
820.967	4.75
821.71	4.75
822.452	5.75
823.194	7.75
823.936	2.75
824.678	3.75
825.42	4.75
826.162	3.75
826.904	6.75
827.646	3.75
828.388	3.75
829.129	2.75
829.871	2.75
830.612	4.75
831.354	4.75
832.095	4.75
832.836	3.75
833.577	2.75
834.319	2.75
835.06	1.75
835.801	2.75
836.542	1.75
837.282	2.75
838.023	1.75
838.764	5.75
839.504	3.75
840.245	3.75
840.985	4.75
841.726	1.75
842.466	3.75
843.206	2.75
843.946	4.75
844.687	2.75
845.427	2.75
846.166	5.75
846.906	0.75
847.646	3.75
848.386	1.75
849.125	2.75
849.865	3.75
850.605	2.75
851.344	2.75
852.083	1.75
852.823	2.75
853.562	2.75
854.301	-1.25
855.04	2.75
855.779	1.75
856.518	2.75
857.257	2.75
857.995	2.75
858.734	2.75
859.473	1.75
860.211	0.75
860.95	0.75
861.688	3.75
862.426	1.75
863.165	2.75
863.903	-0.25
864.641	3.75
865.379	1.75
866.117	-0.25
866.855	0.75
867.593	2.75
868.33	1.75
869.068	1.75
869.806	1.75
870.543	3.75
871.28	1.75
872.018	0.75
872.755	-1.25
873.492	2.75
874.229	1.75
874.967	2.75
875.703	1.75
876.44	-0.25
877.177	1.75
877.914	-1.25
878.651	1.75
879.387	-0.25
880.124	0.75
880.86	2.75
881.597	-0.25
882.333	-0.25
883.069	-0.25
883.806	0.75
884.542	1.75
885.278	2.75
886.014	1.75
886.749	-1.25
887.485	0.75
888.221	1.75
888.957	1.75
889.692	0.75
890.428	0.75
891.163	1.75
891.899	0.75
892.634	-0.25
893.369	0.75
894.104	-0.25
894.839	1.75
895.574	-1.25
896.309	-0.25
897.044	1.75
897.779	0.75
898.514	0.75
899.248	0.75
899.983	-1.25
900.717	1.75
901.452	-0.25
902.186	1.75
902.92	0.75
903.654	2.75
904.389	-0.25
905.123	0.75
905.857	0.75
906.59	-0.25
907.324	0.75
908.058	0.75
908.792	0.75
909.525	-0.25
910.259	-2.25
910.992	-0.25
911.726	0.75
912.459	1.75
913.192	1.75
913.925	1.75
914.658	0.75
915.391	2.75
916.124	0.75
916.857	0.75
917.59	1.75
918.323	-1.25
919.055	-0.25
919.788	0.75
920.521	1.75
921.253	-2.25
921.985	1.75
922.718	1.75
923.45	-2.25
924.182	1.75
924.914	0.75
925.646	-0.25
926.378	-0.25
927.11	-0.25
927.841	0.75
928.573	-1.25
929.305	0.75
930.036	-0.25
930.768	2.75
931.499	0.75
932.23	-1.25
932.962	1.75
933.693	3.75
934.424	-0.25
935.155	0.75
935.886	-0.25
936.617	1.75
937.348	-2.25
938.078	-0.25
938.809	-1.25
939.54	0.75
940.27	-2.25
941.001	-1.25
941.731	-1.25
942.461	0.75
943.191	-2.25
943.922	0.75
944.652	-0.25
945.382	0.75
946.112	-1.25
946.841	0.75
947.571	0.75
948.301	0.75
949.031	1.75
949.76	-1.25
950.49	0.75
951.219	0.75
951.948	1.75
952.678	-0.25
953.407	1.75
954.136	0.75
954.865	-2.25
955.594	1.75
956.323	1.75
957.052	-0.25
957.78	0.75
958.509	0.75
959.238	-0.25
959.966	0.75
960.695	-2.25
961.423	-0.25
962.151	-0.25
962.88	1.75
963.608	-0.25
964.336	0.75
965.064	-2.25
965.792	-0.25
966.52	-0.25
967.247	0.75
967.975	-0.25
968.703	-0.25
969.43	-0.25
970.158	-2.25
970.885	0.75
971.613	0.75
972.34	0.75
973.067	-2.25
973.794	-0.25
974.521	-1.25
975.248	0.75
975.975	0.75
976.702	-1.25
977.429	-0.25
978.156	-0.25
978.882	0.75
979.609	0.75
980.335	-0.25
981.062	0.75
981.788	0.75
982.514	-0.25
983.24	0.75
983.967	-3.25
984.693	1.75
985.419	0.75
986.144	0.75
986.87	0.75
987.596	-2.25
988.322	-0.25
989.047	-1.25
989.773	-1.25
990.498	1.75
991.224	0.75
991.949	-0.25
992.674	0.75
993.399	0.75
994.124	-0.25
994.849	0.75
995.574	-0.25
996.299	-1.25
997.024	0.75
997.749	-0.25
998.473	0.75
999.198	1.75
999.922	-1.25
1000.647	-1.25
1001.371	3.75
1002.095	-3.25
1002.82	-0.25
1003.544	0.75
1004.268	1.75
1004.992	3.75
1005.716	1.75
1006.439	0.75
1007.163	0.75
1007.887	1.75
1008.611	0.75
1009.334	0.75
1010.058	1.75
1010.781	2.75
1011.504	0.75
1012.228	0.75
1012.951	0.75
1013.674	1.75
1014.397	-2.25
1015.12	-1.25
