节点500_285_QEPB04081__542__15-04-34-294.txt的数据

Date: Wed Nov 12 15:04:34 CST 2025
User: PC
Spectrometer: QEPB0408
触发模式: 0
积分时间 (秒): 1.000000E-2
Scans to average: 1
启用暗噪声校正: true
启用非线性校正: false
滑动平均宽度: 0
X轴模式: Wavelengths
Number of Pixels in Spectrum: 1044
>>>>>Begin Spectral Data<<<<<
220.843	1.62
221.644	0.62
222.444	1.62
223.244	2.62
224.045	-0.38
224.845	2.62
225.645	2.62
226.445	0.62
227.245	3.62
228.045	2.62
228.845	2.62
229.645	2.62
230.444	3.62
231.244	3.62
232.043	4.62
232.843	4.62
233.642	2.62
234.442	1.62
235.241	3.62
236.04	2.62
236.839	1.62
237.638	2.62
238.437	3.62
239.236	0.62
240.035	3.62
240.833	3.62
241.632	4.62
242.43	5.62
243.229	5.62
244.027	4.62
244.826	4.62
245.624	7.62
246.422	4.62
247.22	4.62
248.018	5.62
248.816	5.62
249.614	6.62
250.412	3.62
251.21	4.62
252.007	6.62
252.805	6.62
253.602	6.62
254.4	6.62
255.197	7.62
255.994	8.62
256.791	8.62
257.589	7.62
258.386	7.62
259.183	6.62
259.979	8.62
260.776	10.62
261.573	8.62
262.37	10.62
263.166	7.62
263.963	11.62
264.759	12.62
265.556	11.62
266.352	13.62
267.148	11.62
267.944	9.62
268.74	10.62
269.536	9.62
270.332	12.62
271.128	12.62
271.924	15.62
272.719	14.62
273.515	14.62
274.311	16.62
275.106	13.62
275.901	15.62
276.697	11.62
277.492	16.62
278.287	18.62
279.082	18.62
279.877	17.62
280.672	17.62
281.467	19.62
282.262	17.62
283.056	18.62
283.851	18.62
284.646	18.62
285.44	19.62
286.234	17.62
287.029	17.62
287.823	16.62
288.617	20.62
289.411	19.62
290.205	17.62
290.999	18.62
291.793	19.62
292.587	15.62
293.381	16.62
294.174	14.62
294.968	16.62
295.761	15.62
296.555	16.62
297.348	14.62
298.141	16.62
298.935	16.62
299.728	13.62
300.521	13.62
301.314	13.62
302.107	13.62
302.899	14.62
303.692	11.62
304.485	10.62
305.277	9.62
306.07	11.62
306.862	11.62
307.655	12.62
308.447	12.62
309.239	12.62
310.031	13.62
310.823	7.62
311.615	9.62
312.407	9.62
313.199	10.62
313.991	8.62
314.783	9.62
315.574	8.62
316.366	8.62
317.157	7.62
317.949	8.62
318.74	7.62
319.531	9.62
320.322	6.62
321.113	5.62
321.904	8.62
322.695	7.62
323.486	8.62
324.277	8.62
325.068	7.62
325.858	5.62
326.649	8.62
327.439	6.62
328.23	7.62
329.02	4.62
329.81	5.62
330.6	8.62
331.391	4.62
332.181	6.62
332.971	8.62
333.76	5.62
334.55	6.62
335.34	6.62
336.13	5.62
336.919	6.62
337.709	6.62
338.498	5.62
339.287	7.62
340.077	5.62
340.866	4.62
341.655	6.62
342.444	6.62
343.233	6.62
344.022	5.62
344.811	6.62
345.6	4.62
346.388	4.62
347.177	6.62
347.965	4.62
348.754	3.62
349.542	6.62
350.33	7.62
351.119	6.62
351.907	5.62
352.695	5.62
353.483	5.62
354.271	4.62
355.059	2.62
355.846	6.62
356.634	5.62
357.422	5.62
358.209	5.62
358.997	4.62
359.784	3.62
360.571	4.62
361.359	6.62
362.146	6.62
362.933	3.62
363.72	5.62
364.507	5.62
365.294	2.62
366.081	4.62
366.867	3.62
367.654	5.62
368.44	4.62
369.227	4.62
370.013	5.62
370.8	4.62
371.586	4.62
372.372	1.62
373.158	2.62
373.944	5.62
374.73	1.62
375.516	4.62
376.302	3.62
377.088	3.62
377.873	4.62
378.659	5.62
379.445	6.62
380.23	3.62
381.015	4.62
381.801	6.62
382.586	5.62
383.371	4.62
384.156	2.62
384.941	4.62
385.726	4.62
386.511	4.62
387.296	2.62
388.08	6.62
388.865	4.62
389.649	2.62
390.434	7.62
391.218	6.62
392.003	5.62
392.787	5.62
393.571	6.62
394.355	4.62
395.139	5.62
395.923	6.62
396.707	8.62
397.491	4.62
398.274	4.62
399.058	8.62
399.842	4.62
400.625	4.62
401.408	5.62
402.192	8.62
402.975	6.62
403.758	8.62
404.541	4.62
405.324	8.62
406.107	6.62
406.89	7.62
407.673	8.62
408.456	6.62
409.238	7.62
410.021	8.62
410.803	8.62
411.586	8.62
412.368	7.62
413.151	8.62
413.933	7.62
414.715	7.62
415.497	8.62
416.279	7.62
417.061	9.62
417.843	9.62
418.624	7.62
419.406	7.62
420.188	6.62
420.969	8.62
421.751	9.62
422.532	11.62
423.313	11.62
424.095	11.62
424.876	10.62
425.657	11.62
426.438	10.62
427.219	12.62
428	12.62
428.78	12.62
429.561	11.62
430.342	13.62
431.122	13.62
431.903	16.62
432.683	13.62
433.464	16.62
434.244	13.62
435.024	14.62
435.804	16.62
436.584	17.62
437.364	20.62
438.144	23.62
438.924	22.62
439.704	21.62
440.483	23.62
441.263	24.62
442.042	22.62
442.822	24.62
443.601	26.62
444.38	28.62
445.16	29.62
445.939	34.62
446.718	36.62
447.497	40.62
448.276	42.62
449.054	45.62
449.833	50.62
450.612	53.62
451.391	56.62
452.169	63.62
452.948	68.62
453.726	74.62
454.504	84.62
455.282	95.62
456.061	105.62
456.839	118.62
457.617	129.62
458.395	146.62
459.172	158.62
459.95	176.62
460.728	193.62
461.506	214.62
462.283	249.62
463.061	269.62
463.838	299.62
464.615	340.62
465.393	368.62
466.17	417.62
466.947	469.62
467.724	521.62
468.501	576.62
469.278	645.62
470.055	705.62
470.831	784.62
471.608	887.62
472.385	969.62
473.161	1065.62
473.938	1178.62
474.714	1312.62
475.49	1449.62
476.266	1591.62
477.043	1750.62
477.819	1937.62
478.595	2125.62
479.371	2351.62
480.146	2579.62
480.922	2837.62
481.698	3084.62
482.473	3432.62
483.249	3754.62
484.024	4113.62
484.8	4494.62
485.575	4925.62
486.35	5422.62
487.126	5921.62
487.901	6466.62
488.676	7048.62
489.451	7708.62
490.225	8404.62
491	9164.62
491.775	9993.62
492.55	10865.62
493.324	11766.62
494.099	12688.62
494.873	13590.62
495.647	14672.62
496.422	15710.62
497.196	16853.62
497.97	17940.62
498.744	19140.62
499.518	20162.62
500.292	21312.62
501.066	22352.62
501.839	23293.62
502.613	24175.62
503.387	25029.62
504.16	25698.62
504.934	26107.62
505.707	26377.62
506.48	26493.62
507.253	26525.62
508.027	26411.62
508.8	26211.62
509.573	25907.62
510.346	25395.62
511.118	24705.62
511.891	23976.62
512.664	23327.62
513.437	22387.62
514.209	21608.62
514.982	20834.62
515.754	19836.62
516.526	19037.62
517.298	18243.62
518.071	17380.62
518.843	16760.62
519.615	16107.62
520.387	15504.62
521.159	14881.62
521.93	14225.62
522.702	13696.62
523.474	13188.62
524.245	12559.62
525.017	12028.62
525.788	11615.62
526.56	11061.62
527.331	10539.62
528.102	10112.62
528.873	9686.62
529.644	9217.62
530.415	8767.62
531.186	8344.62
531.957	7893.62
532.728	7535.62
533.498	7117.62
534.269	6742.62
535.039	6381.62
535.81	6071.62
536.58	5707.62
537.351	5353.62
538.121	5070.62
538.891	4830.62
539.661	4558.62
540.431	4262.62
541.201	4038.62
541.971	3840.62
542.741	3675.62
543.51	3466.62
544.28	3286.62
545.05	3130.62
545.819	2974.62
546.588	2834.62
547.358	2666.62
548.127	2560.62
548.896	2427.62
549.665	2315.62
550.434	2185.62
551.203	2059.62
551.972	1955.62
552.741	1862.62
553.51	1754.62
554.278	1668.62
555.047	1557.62
555.815	1475.62
556.584	1394.62
557.352	1314.62
558.121	1247.62
558.889	1181.62
559.657	1108.62
560.425	1049.62
561.193	987.62
561.961	943.62
562.729	890.62
563.496	829.62
564.264	791.62
565.032	746.62
565.799	713.62
566.567	665.62
567.334	626.62
568.101	598.62
568.869	556.62
569.636	529.62
570.403	490.62
571.17	467.62
571.937	445.62
572.704	422.62
573.471	397.62
574.237	370.62
575.004	350.62
575.771	333.62
576.537	311.62
577.303	291.62
578.07	273.62
578.836	253.62
579.602	243.62
580.368	229.62
581.134	222.62
581.9	208.62
582.666	203.62
583.432	196.62
584.198	173.62
584.964	166.62
585.729	160.62
586.495	150.62
587.26	141.62
588.025	135.62
588.791	128.62
589.556	120.62
590.321	112.62
591.086	110.62
591.851	105.62
592.616	100.62
593.381	94.62
594.146	88.62
594.911	88.62
595.675	80.62
596.44	76.62
597.204	76.62
597.969	67.62
598.733	66.62
599.497	63.62
600.261	63.62
601.025	59.62
601.79	54.62
602.553	52.62
603.317	52.62
604.081	50.62
604.845	47.62
605.609	44.62
606.372	42.62
607.136	42.62
607.899	38.62
608.662	36.62
609.426	37.62
610.189	35.62
610.952	35.62
611.715	32.62
612.478	30.62
613.241	30.62
614.004	26.62
614.767	25.62
615.529	26.62
616.292	28.62
617.055	26.62
617.817	23.62
618.579	21.62
619.342	21.62
620.104	22.62
620.866	19.62
621.628	19.62
622.39	19.62
623.152	18.62
623.914	18.62
624.676	15.62
625.438	17.62
626.199	14.62
626.961	17.62
627.722	17.62
628.484	14.62
629.245	15.62
630.006	12.62
630.768	12.62
631.529	15.62
632.29	15.62
633.051	10.62
633.812	10.62
634.573	11.62
635.333	10.62
636.094	10.62
636.855	9.62
637.615	7.62
638.376	10.62
639.136	7.62
639.896	11.62
640.657	9.62
641.417	6.62
642.177	8.62
642.937	4.62
643.697	6.62
644.457	8.62
645.216	6.62
645.976	8.62
646.736	6.62
647.495	8.62
648.255	5.62
649.014	8.62
649.774	6.62
650.533	6.62
651.292	8.62
652.051	8.62
652.81	4.62
653.569	5.62
654.328	7.62
655.087	5.62
655.846	4.62
656.604	4.62
657.363	2.62
658.121	6.62
658.88	5.62
659.638	4.62
660.397	5.62
661.155	6.62
661.913	5.62
662.671	5.62
663.429	7.62
664.187	5.62
664.945	4.62
665.703	6.62
666.46	4.62
667.218	3.62
667.976	3.62
668.733	7.62
669.49	5.62
670.248	3.62
671.005	2.62
671.762	1.62
672.519	3.62
673.276	2.62
674.033	5.62
674.79	4.62
675.547	2.62
676.304	4.62
677.06	4.62
677.817	3.62
678.574	4.62
679.33	3.62
680.086	2.62
680.843	5.62
681.599	3.62
682.355	2.62
683.111	4.62
683.867	5.62
684.623	5.62
685.379	3.62
686.135	5.62
686.89	4.62
687.646	1.62
688.402	3.62
689.157	4.62
689.912	2.62
690.668	3.62
691.423	2.62
692.178	5.62
692.933	3.62
693.688	2.62
694.443	3.62
695.198	1.62
695.953	3.62
696.708	3.62
697.462	6.62
698.217	4.62
698.972	0.62
699.726	2.62
700.48	3.62
701.235	1.62
701.989	2.62
702.743	3.62
703.497	1.62
704.251	1.62
705.005	1.62
705.759	0.62
706.513	5.62
707.266	5.62
708.02	1.62
708.774	3.62
709.527	4.62
710.28	1.62
711.034	2.62
711.787	2.62
712.54	4.62
713.293	3.62
714.046	5.62
714.799	3.62
715.552	3.62
716.305	3.62
717.058	2.62
717.81	3.62
718.563	1.62
719.315	4.62
720.068	2.62
720.82	6.62
721.573	1.62
722.325	2.62
723.077	1.62
723.829	1.62
724.581	4.62
725.333	3.62
726.085	5.62
726.836	3.62
727.588	2.62
728.34	2.62
729.091	2.62
729.843	7.62
730.594	4.62
731.346	3.62
732.097	2.62
732.848	3.62
733.599	1.62
734.35	0.62
735.101	3.62
735.852	1.62
736.603	4.62
737.354	2.62
738.104	6.62
738.855	3.62
739.605	3.62
740.356	5.62
741.106	3.62
741.856	3.62
742.607	1.62
743.357	5.62
744.107	5.62
744.857	3.62
745.607	4.62
746.357	2.62
747.106	5.62
747.856	4.62
748.606	5.62
749.355	3.62
750.105	6.62
750.854	2.62
751.603	6.62
752.353	4.62
753.102	5.62
753.851	5.62
754.6	4.62
755.349	6.62
756.098	4.62
756.847	6.62
757.595	6.62
758.344	4.62
759.093	3.62
759.841	4.62
760.589	5.62
761.338	5.62
762.086	6.62
762.834	2.62
763.582	4.62
764.331	3.62
765.079	5.62
765.826	6.62
766.574	6.62
767.322	8.62
768.07	4.62
768.817	7.62
769.565	6.62
770.312	6.62
771.06	7.62
771.807	6.62
772.554	7.62
773.302	5.62
774.049	8.62
774.796	6.62
775.543	9.62
776.29	7.62
777.036	7.62
777.783	8.62
778.53	9.62
779.276	7.62
780.023	7.62
780.769	8.62
781.516	8.62
782.262	7.62
783.008	10.62
783.754	7.62
784.5	7.62
785.246	5.62
785.992	6.62
786.738	7.62
787.484	9.62
788.23	8.62
788.975	5.62
789.721	10.62
790.466	6.62
791.212	6.62
791.957	9.62
792.702	7.62
793.447	7.62
794.193	6.62
794.938	9.62
795.683	6.62
796.427	6.62
797.172	8.62
797.917	7.62
798.662	7.62
799.406	9.62
800.151	4.62
800.895	6.62
801.64	5.62
802.384	7.62
803.128	7.62
803.872	5.62
804.616	5.62
805.36	6.62
806.104	6.62
806.848	7.62
807.592	5.62
808.336	4.62
809.079	3.62
809.823	6.62
810.566	7.62
811.31	4.62
812.053	4.62
812.796	4.62
813.539	3.62
814.283	6.62
815.026	5.62
815.769	3.62
816.511	4.62
817.254	5.62
817.997	3.62
818.74	5.62
819.482	1.62
820.225	3.62
820.967	4.62
821.71	2.62
822.452	4.62
823.194	2.62
823.936	3.62
824.678	3.62
825.42	4.62
826.162	5.62
826.904	3.62
827.646	2.62
828.388	4.62
829.129	3.62
829.871	0.62
830.612	3.62
831.354	3.62
832.095	-0.38
832.836	5.62
833.577	4.62
834.319	3.62
835.06	1.62
835.801	4.62
836.542	4.62
837.282	0.62
838.023	5.62
838.764	2.62
839.504	2.62
840.245	1.62
840.985	4.62
841.726	4.62
842.466	3.62
843.206	2.62
843.946	2.62
844.687	5.62
845.427	2.62
846.166	3.62
846.906	5.62
847.646	1.62
848.386	0.62
849.125	2.62
849.865	3.62
850.605	0.62
851.344	4.62
852.083	3.62
852.823	1.62
853.562	3.62
854.301	2.62
855.04	4.62
855.779	2.62
856.518	2.62
857.257	3.62
857.995	0.62
858.734	2.62
859.473	2.62
860.211	1.62
860.95	3.62
861.688	2.62
862.426	2.62
863.165	1.62
863.903	0.62
864.641	-0.38
865.379	-0.38
866.117	1.62
866.855	-0.38
867.593	3.62
868.33	1.62
869.068	3.62
869.806	1.62
870.543	-1.38
871.28	1.62
872.018	1.62
872.755	2.62
873.492	1.62
874.229	1.62
874.967	1.62
875.703	-1.38
876.44	0.62
877.177	1.62
877.914	0.62
878.651	1.62
879.387	-2.38
880.124	0.62
880.86	0.62
881.597	2.62
882.333	0.62
883.069	0.62
883.806	0.62
884.542	-2.38
885.278	1.62
886.014	-0.38
886.749	3.62
887.485	1.62
888.221	3.62
888.957	0.62
889.692	-1.38
890.428	-1.38
891.163	1.62
891.899	0.62
892.634	1.62
893.369	-0.38
894.104	1.62
894.839	0.62
895.574	0.62
896.309	-2.38
897.044	1.62
897.779	-0.38
898.514	1.62
899.248	1.62
899.983	-0.38
900.717	-0.38
901.452	0.62
902.186	-2.38
902.92	-0.38
903.654	0.62
904.389	0.62
905.123	0.62
905.857	3.62
906.59	-0.38
907.324	-0.38
908.058	-2.38
908.792	0.62
909.525	1.62
910.259	1.62
910.992	-1.38
911.726	4.62
912.459	-0.38
913.192	0.62
913.925	0.62
914.658	1.62
915.391	0.62
916.124	2.62
916.857	-1.38
917.59	-0.38
918.323	-0.38
919.055	0.62
919.788	0.62
920.521	0.62
921.253	0.62
921.985	-1.38
922.718	0.62
923.45	1.62
924.182	-1.38
924.914	0.62
925.646	0.62
926.378	-0.38
927.11	0.62
927.841	-0.38
928.573	-0.38
929.305	-0.38
930.036	-2.38
930.768	0.62
931.499	-2.38
932.23	-1.38
932.962	-1.38
933.693	1.62
934.424	-0.38
935.155	0.62
935.886	-0.38
936.617	-1.38
937.348	-0.38
938.078	1.62
938.809	-0.38
939.54	0.62
940.27	-0.38
941.001	-0.38
941.731	-0.38
942.461	1.62
943.191	-0.38
943.922	-0.38
944.652	1.62
945.382	-1.38
946.112	0.62
946.841	0.62
947.571	0.62
948.301	-0.38
949.031	-1.38
949.76	1.62
950.49	0.62
951.219	3.62
951.948	1.62
952.678	-0.38
953.407	1.62
954.136	-1.38
954.865	-0.38
955.594	-1.38
956.323	-2.38
957.052	-0.38
957.78	-0.38
958.509	-0.38
959.238	-1.38
959.966	1.62
960.695	0.62
961.423	0.62
962.151	0.62
962.88	0.62
963.608	-2.38
964.336	1.62
965.064	-0.38
965.792	-0.38
966.52	1.62
967.247	0.62
967.975	-2.38
968.703	1.62
969.43	-1.38
970.158	1.62
970.885	-2.38
971.613	1.62
972.34	-0.38
973.067	-2.38
973.794	-0.38
974.521	-0.38
975.248	2.62
975.975	-0.38
976.702	-1.38
977.429	-0.38
978.156	-0.38
978.882	-0.38
979.609	-2.38
980.335	1.62
981.062	0.62
981.788	0.62
982.514	0.62
983.24	1.62
983.967	-0.38
984.693	-1.38
985.419	0.62
986.144	0.62
986.87	1.62
987.596	1.62
988.322	-0.38
989.047	0.62
989.773	-0.38
990.498	1.62
991.224	1.62
991.949	0.62
992.674	-1.38
993.399	-0.38
994.124	0.62
994.849	-0.38
995.574	-0.38
996.299	0.62
997.024	-0.38
997.749	1.62
998.473	-0.38
999.198	2.62
999.922	1.62
1000.647	-1.38
1001.371	1.62
1002.095	-1.38
1002.82	-0.38
1003.544	-1.38
1004.268	1.62
1004.992	1.62
1005.716	-0.38
1006.439	3.62
1007.163	1.62
1007.887	0.62
1008.611	-1.38
1009.334	0.62
1010.058	1.62
1010.781	0.62
1011.504	-0.38
1012.228	-1.38
1012.951	2.62
1013.674	1.62
1014.397	-3.38
1015.12	0.62
