节点500_285_QEPB04081__607__15-05-39-142.txt的数据

Date: Wed Nov 12 15:05:39 CST 2025
User: PC
Spectrometer: QEPB0408
触发模式: 0
积分时间 (秒): 1.000000E-2
Scans to average: 1
启用暗噪声校正: true
启用非线性校正: false
滑动平均宽度: 0
X轴模式: Wavelengths
Number of Pixels in Spectrum: 1044
>>>>>Begin Spectral Data<<<<<
220.843	0.12
221.644	3.12
222.444	1.12
223.244	1.12
224.045	2.12
224.845	1.12
225.645	1.12
226.445	3.12
227.245	3.12
228.045	1.12
228.845	3.12
229.645	3.12
230.444	5.12
231.244	5.12
232.043	5.12
232.843	3.12
233.642	4.12
234.442	4.12
235.241	4.12
236.04	3.12
236.839	3.12
237.638	5.12
238.437	7.12
239.236	2.12
240.035	3.12
240.833	4.12
241.632	5.12
242.43	5.12
243.229	6.12
244.027	5.12
244.826	6.12
245.624	7.12
246.422	6.12
247.22	5.12
248.018	6.12
248.816	5.12
249.614	6.12
250.412	5.12
251.21	8.12
252.007	7.12
252.805	6.12
253.602	8.12
254.4	6.12
255.197	9.12
255.994	7.12
256.791	9.12
257.589	7.12
258.386	6.12
259.183	10.12
259.979	9.12
260.776	9.12
261.573	10.12
262.37	10.12
263.166	10.12
263.963	10.12
264.759	12.12
265.556	12.12
266.352	12.12
267.148	13.12
267.944	12.12
268.74	14.12
269.536	13.12
270.332	15.12
271.128	17.12
271.924	12.12
272.719	18.12
273.515	16.12
274.311	16.12
275.106	18.12
275.901	16.12
276.697	14.12
277.492	18.12
278.287	17.12
279.082	17.12
279.877	17.12
280.672	18.12
281.467	18.12
282.262	17.12
283.056	17.12
283.851	18.12
284.646	16.12
285.44	20.12
286.234	17.12
287.029	18.12
287.823	17.12
288.617	18.12
289.411	18.12
290.205	19.12
290.999	18.12
291.793	19.12
292.587	17.12
293.381	17.12
294.174	14.12
294.968	18.12
295.761	16.12
296.555	17.12
297.348	16.12
298.141	14.12
298.935	15.12
299.728	13.12
300.521	12.12
301.314	15.12
302.107	13.12
302.899	12.12
303.692	11.12
304.485	12.12
305.277	12.12
306.07	15.12
306.862	13.12
307.655	12.12
308.447	11.12
309.239	10.12
310.031	13.12
310.823	10.12
311.615	9.12
312.407	10.12
313.199	9.12
313.991	9.12
314.783	8.12
315.574	9.12
316.366	8.12
317.157	7.12
317.949	10.12
318.74	9.12
319.531	6.12
320.322	8.12
321.113	8.12
321.904	9.12
322.695	5.12
323.486	9.12
324.277	8.12
325.068	8.12
325.858	7.12
326.649	8.12
327.439	6.12
328.23	7.12
329.02	9.12
329.81	8.12
330.6	6.12
331.391	9.12
332.181	7.12
332.971	8.12
333.76	7.12
334.55	8.12
335.34	7.12
336.13	6.12
336.919	7.12
337.709	5.12
338.498	5.12
339.287	8.12
340.077	5.12
340.866	6.12
341.655	7.12
342.444	8.12
343.233	7.12
344.022	6.12
344.811	5.12
345.6	6.12
346.388	5.12
347.177	7.12
347.965	6.12
348.754	6.12
349.542	4.12
350.33	5.12
351.119	7.12
351.907	6.12
352.695	4.12
353.483	7.12
354.271	7.12
355.059	6.12
355.846	5.12
356.634	5.12
357.422	6.12
358.209	6.12
358.997	8.12
359.784	4.12
360.571	4.12
361.359	5.12
362.146	5.12
362.933	8.12
363.72	6.12
364.507	5.12
365.294	5.12
366.081	6.12
366.867	5.12
367.654	5.12
368.44	5.12
369.227	5.12
370.013	6.12
370.8	5.12
371.586	3.12
372.372	6.12
373.158	5.12
373.944	5.12
374.73	5.12
375.516	5.12
376.302	6.12
377.088	5.12
377.873	6.12
378.659	6.12
379.445	6.12
380.23	5.12
381.015	4.12
381.801	5.12
382.586	4.12
383.371	4.12
384.156	5.12
384.941	5.12
385.726	4.12
386.511	5.12
387.296	4.12
388.08	4.12
388.865	6.12
389.649	3.12
390.434	6.12
391.218	4.12
392.003	5.12
392.787	5.12
393.571	5.12
394.355	10.12
395.139	5.12
395.923	8.12
396.707	7.12
397.491	9.12
398.274	6.12
399.058	6.12
399.842	8.12
400.625	7.12
401.408	6.12
402.192	7.12
402.975	8.12
403.758	5.12
404.541	4.12
405.324	8.12
406.107	7.12
406.89	7.12
407.673	6.12
408.456	8.12
409.238	8.12
410.021	8.12
410.803	9.12
411.586	6.12
412.368	8.12
413.151	8.12
413.933	6.12
414.715	12.12
415.497	6.12
416.279	9.12
417.061	11.12
417.843	9.12
418.624	10.12
419.406	10.12
420.188	12.12
420.969	10.12
421.751	11.12
422.532	9.12
423.313	11.12
424.095	12.12
424.876	10.12
425.657	12.12
426.438	11.12
427.219	12.12
428	14.12
428.78	12.12
429.561	12.12
430.342	14.12
431.122	16.12
431.903	15.12
432.683	13.12
433.464	18.12
434.244	16.12
435.024	18.12
435.804	19.12
436.584	17.12
437.364	18.12
438.144	19.12
438.924	22.12
439.704	22.12
440.483	21.12
441.263	23.12
442.042	22.12
442.822	28.12
443.601	26.12
444.38	30.12
445.16	30.12
445.939	34.12
446.718	37.12
447.497	41.12
448.276	43.12
449.054	46.12
449.833	51.12
450.612	54.12
451.391	62.12
452.169	64.12
452.948	69.12
453.726	78.12
454.504	88.12
455.282	94.12
456.061	110.12
456.839	117.12
457.617	135.12
458.395	145.12
459.172	158.12
459.95	178.12
460.728	202.12
461.506	220.12
462.283	251.12
463.061	274.12
463.838	306.12
464.615	345.12
465.393	375.12
466.17	422.12
466.947	471.12
467.724	520.12
468.501	584.12
469.278	652.12
470.055	713.12
470.831	803.12
471.608	883.12
472.385	966.12
473.161	1086.12
473.938	1204.12
474.714	1330.12
475.49	1462.12
476.266	1593.12
477.043	1764.12
477.819	1936.12
478.595	2110.12
479.371	2357.12
480.146	2550.12
480.922	2818.12
481.698	3129.12
482.473	3414.12
483.249	3727.12
484.024	4096.12
484.8	4483.12
485.575	4859.12
486.35	5328.12
487.126	5815.12
487.901	6364.12
488.676	6934.12
489.451	7591.12
490.225	8288.12
491	8990.12
491.775	9807.12
492.55	10600.12
493.324	11489.12
494.099	12395.12
494.873	13305.12
495.647	14348.12
496.422	15354.12
497.196	16415.12
497.97	17558.12
498.744	18626.12
499.518	19685.12
500.292	20817.12
501.066	21814.12
501.839	22801.12
502.613	23725.12
503.387	24549.12
504.16	25233.12
504.934	25631.12
505.707	25905.12
506.48	26045.12
507.253	26166.12
508.027	26108.12
508.8	25939.12
509.573	25663.12
510.346	25175.12
511.118	24583.12
511.891	23842.12
512.664	23144.12
513.437	22379.12
514.209	21569.12
514.982	20795.12
515.754	19904.12
516.526	19028.12
517.298	18226.12
518.071	17443.12
518.843	16825.12
519.615	16181.12
520.387	15520.12
521.159	14926.12
521.93	14306.12
522.702	13781.12
523.474	13280.12
524.245	12638.12
525.017	12127.12
525.788	11649.12
526.56	11141.12
527.331	10617.12
528.102	10154.12
528.873	9693.12
529.644	9244.12
530.415	8808.12
531.186	8387.12
531.957	7979.12
532.728	7611.12
533.498	7174.12
534.269	6806.12
535.039	6435.12
535.81	6060.12
536.58	5742.12
537.351	5415.12
538.121	5130.12
538.891	4846.12
539.661	4588.12
540.431	4340.12
541.201	4109.12
541.971	3872.12
542.741	3655.12
543.51	3514.12
544.28	3338.12
545.05	3163.12
545.819	3022.12
546.588	2870.12
547.358	2743.12
548.127	2579.12
548.896	2451.12
549.665	2329.12
550.434	2212.12
551.203	2092.12
551.972	1990.12
552.741	1883.12
553.51	1777.12
554.278	1686.12
555.047	1579.12
555.815	1498.12
556.584	1419.12
557.352	1347.12
558.121	1254.12
558.889	1192.12
559.657	1143.12
560.425	1063.12
561.193	1017.12
561.961	938.12
562.729	893.12
563.496	842.12
564.264	804.12
565.032	756.12
565.799	712.12
566.567	686.12
567.334	638.12
568.101	597.12
568.869	573.12
569.636	534.12
570.403	503.12
571.17	475.12
571.937	454.12
572.704	416.12
573.471	403.12
574.237	375.12
575.004	361.12
575.771	334.12
576.537	317.12
577.303	294.12
578.07	284.12
578.836	266.12
579.602	246.12
580.368	234.12
581.134	222.12
581.9	217.12
582.666	201.12
583.432	190.12
584.198	183.12
584.964	170.12
585.729	157.12
586.495	153.12
587.26	148.12
588.025	137.12
588.791	132.12
589.556	120.12
590.321	119.12
591.086	114.12
591.851	106.12
592.616	100.12
593.381	97.12
594.146	88.12
594.911	89.12
595.675	83.12
596.44	79.12
597.204	74.12
597.969	67.12
598.733	67.12
599.497	67.12
600.261	62.12
601.025	59.12
601.79	58.12
602.553	57.12
603.317	51.12
604.081	49.12
604.845	48.12
605.609	42.12
606.372	46.12
607.136	46.12
607.899	41.12
608.662	39.12
609.426	38.12
610.189	35.12
610.952	36.12
611.715	31.12
612.478	34.12
613.241	30.12
614.004	28.12
614.767	30.12
615.529	26.12
616.292	28.12
617.055	26.12
617.817	22.12
618.579	22.12
619.342	23.12
620.104	22.12
620.866	21.12
621.628	20.12
622.39	21.12
623.152	20.12
623.914	18.12
624.676	17.12
625.438	17.12
626.199	17.12
626.961	14.12
627.722	13.12
628.484	16.12
629.245	14.12
630.006	10.12
630.768	14.12
631.529	11.12
632.29	14.12
633.051	12.12
633.812	13.12
634.573	10.12
635.333	9.12
636.094	12.12
636.855	13.12
637.615	9.12
638.376	10.12
639.136	10.12
639.896	8.12
640.657	9.12
641.417	11.12
642.177	10.12
642.937	8.12
643.697	11.12
644.457	9.12
645.216	8.12
645.976	6.12
646.736	9.12
647.495	5.12
648.255	9.12
649.014	10.12
649.774	6.12
650.533	6.12
651.292	7.12
652.051	8.12
652.81	5.12
653.569	6.12
654.328	4.12
655.087	5.12
655.846	8.12
656.604	6.12
657.363	6.12
658.121	7.12
658.88	4.12
659.638	8.12
660.397	6.12
661.155	5.12
661.913	6.12
662.671	4.12
663.429	4.12
664.187	4.12
664.945	6.12
665.703	7.12
666.46	6.12
667.218	6.12
667.976	3.12
668.733	7.12
669.49	3.12
670.248	4.12
671.005	4.12
671.762	6.12
672.519	4.12
673.276	4.12
674.033	5.12
674.79	5.12
675.547	5.12
676.304	7.12
677.06	4.12
677.817	3.12
678.574	5.12
679.33	4.12
680.086	4.12
680.843	4.12
681.599	5.12
682.355	3.12
683.111	4.12
683.867	4.12
684.623	6.12
685.379	3.12
686.135	4.12
686.89	5.12
687.646	2.12
688.402	4.12
689.157	5.12
689.912	4.12
690.668	2.12
691.423	4.12
692.178	3.12
692.933	5.12
693.688	6.12
694.443	4.12
695.198	5.12
695.953	6.12
696.708	3.12
697.462	6.12
698.217	5.12
698.972	7.12
699.726	3.12
700.48	6.12
701.235	3.12
701.989	3.12
702.743	6.12
703.497	3.12
704.251	3.12
705.005	5.12
705.759	2.12
706.513	5.12
707.266	2.12
708.02	5.12
708.774	4.12
709.527	5.12
710.28	2.12
711.034	2.12
711.787	3.12
712.54	5.12
713.293	5.12
714.046	2.12
714.799	4.12
715.552	5.12
716.305	3.12
717.058	4.12
717.81	5.12
718.563	3.12
719.315	5.12
720.068	2.12
720.82	3.12
721.573	4.12
722.325	4.12
723.077	4.12
723.829	3.12
724.581	2.12
725.333	4.12
726.085	4.12
726.836	4.12
727.588	3.12
728.34	5.12
729.091	5.12
729.843	5.12
730.594	3.12
731.346	5.12
732.097	4.12
732.848	5.12
733.599	6.12
734.35	4.12
735.101	6.12
735.852	2.12
736.603	4.12
737.354	4.12
738.104	6.12
738.855	2.12
739.605	4.12
740.356	1.12
741.106	3.12
741.856	5.12
742.607	4.12
743.357	3.12
744.107	7.12
744.857	5.12
745.607	4.12
746.357	5.12
747.106	6.12
747.856	3.12
748.606	6.12
749.355	5.12
750.105	3.12
750.854	6.12
751.603	5.12
752.353	8.12
753.102	6.12
753.851	4.12
754.6	5.12
755.349	6.12
756.098	7.12
756.847	5.12
757.595	6.12
758.344	6.12
759.093	8.12
759.841	5.12
760.589	4.12
761.338	5.12
762.086	7.12
762.834	5.12
763.582	7.12
764.331	5.12
765.079	6.12
765.826	7.12
766.574	5.12
767.322	6.12
768.07	7.12
768.817	9.12
769.565	7.12
770.312	7.12
771.06	7.12
771.807	6.12
772.554	8.12
773.302	5.12
774.049	8.12
774.796	8.12
775.543	7.12
776.29	5.12
777.036	9.12
777.783	10.12
778.53	8.12
779.276	8.12
780.023	8.12
780.769	10.12
781.516	10.12
782.262	7.12
783.008	9.12
783.754	10.12
784.5	8.12
785.246	6.12
785.992	9.12
786.738	10.12
787.484	10.12
788.23	8.12
788.975	7.12
789.721	9.12
790.466	10.12
791.212	7.12
791.957	10.12
792.702	9.12
793.447	9.12
794.193	9.12
794.938	9.12
795.683	8.12
796.427	7.12
797.172	7.12
797.917	6.12
798.662	9.12
799.406	7.12
800.151	8.12
800.895	7.12
801.64	6.12
802.384	6.12
803.128	6.12
803.872	9.12
804.616	6.12
805.36	8.12
806.104	8.12
806.848	7.12
807.592	6.12
808.336	5.12
809.079	6.12
809.823	5.12
810.566	7.12
811.31	6.12
812.053	7.12
812.796	5.12
813.539	7.12
814.283	4.12
815.026	7.12
815.769	5.12
816.511	5.12
817.254	6.12
817.997	4.12
818.74	4.12
819.482	6.12
820.225	6.12
820.967	6.12
821.71	4.12
822.452	3.12
823.194	5.12
823.936	3.12
824.678	3.12
825.42	4.12
826.162	3.12
826.904	5.12
827.646	5.12
828.388	5.12
829.129	4.12
829.871	2.12
830.612	6.12
831.354	4.12
832.095	3.12
832.836	4.12
833.577	4.12
834.319	4.12
835.06	5.12
835.801	2.12
836.542	3.12
837.282	3.12
838.023	4.12
838.764	7.12
839.504	4.12
840.245	4.12
840.985	4.12
841.726	4.12
842.466	4.12
843.206	2.12
843.946	5.12
844.687	4.12
845.427	3.12
846.166	3.12
846.906	3.12
847.646	3.12
848.386	3.12
849.125	4.12
849.865	2.12
850.605	3.12
851.344	3.12
852.083	3.12
852.823	6.12
853.562	0.12
854.301	4.12
855.04	2.12
855.779	3.12
856.518	1.12
857.257	0.12
857.995	2.12
858.734	3.12
859.473	3.12
860.211	2.12
860.95	2.12
861.688	4.12
862.426	1.12
863.165	3.12
863.903	2.12
864.641	2.12
865.379	0.12
866.117	4.12
866.855	4.12
867.593	2.12
868.33	2.12
869.068	0.12
869.806	2.12
870.543	3.12
871.28	1.12
872.018	1.12
872.755	0.12
873.492	0.12
874.229	1.12
874.967	1.12
875.703	2.12
876.44	3.12
877.177	1.12
877.914	2.12
878.651	0.12
879.387	1.12
880.124	2.12
880.86	2.12
881.597	1.12
882.333	-0.88
883.069	2.12
883.806	0.12
884.542	2.12
885.278	2.12
886.014	1.12
886.749	1.12
887.485	-0.88
888.221	2.12
888.957	0.12
889.692	2.12
890.428	-0.88
891.163	2.12
891.899	-0.88
892.634	2.12
893.369	0.12
894.104	1.12
894.839	1.12
895.574	1.12
896.309	0.12
897.044	1.12
897.779	2.12
898.514	0.12
899.248	2.12
899.983	0.12
900.717	1.12
901.452	3.12
902.186	1.12
902.92	0.12
903.654	2.12
904.389	-1.88
905.123	1.12
905.857	-1.88
906.59	0.12
907.324	0.12
908.058	2.12
908.792	0.12
909.525	0.12
910.259	2.12
910.992	1.12
911.726	2.12
912.459	1.12
913.192	0.12
913.925	0.12
914.658	-0.88
915.391	1.12
916.124	1.12
916.857	1.12
917.59	2.12
918.323	-0.88
919.055	0.12
919.788	2.12
920.521	2.12
921.253	0.12
921.985	0.12
922.718	1.12
923.45	0.12
924.182	-0.88
924.914	0.12
925.646	0.12
926.378	0.12
927.11	-1.88
927.841	1.12
928.573	-0.88
929.305	1.12
930.036	1.12
930.768	2.12
931.499	-0.88
932.23	0.12
932.962	2.12
933.693	-1.88
934.424	0.12
935.155	1.12
935.886	-0.88
936.617	2.12
937.348	0.12
938.078	-0.88
938.809	0.12
939.54	2.12
940.27	-1.88
941.001	1.12
941.731	2.12
942.461	-0.88
943.191	2.12
943.922	0.12
944.652	-0.88
945.382	0.12
946.112	0.12
946.841	-1.88
947.571	0.12
948.301	0.12
949.031	0.12
949.76	1.12
950.49	1.12
951.219	0.12
951.948	1.12
952.678	0.12
953.407	0.12
954.136	-0.88
954.865	0.12
955.594	3.12
956.323	1.12
957.052	2.12
957.78	0.12
958.509	2.12
959.238	-0.88
959.966	-0.88
960.695	-0.88
961.423	-1.88
962.151	0.12
962.88	0.12
963.608	-1.88
964.336	0.12
965.064	-1.88
965.792	1.12
966.52	1.12
967.247	1.12
967.975	1.12
968.703	-1.88
969.43	1.12
970.158	0.12
970.885	1.12
971.613	0.12
972.34	0.12
973.067	-0.88
973.794	0.12
974.521	0.12
975.248	-1.88
975.975	-0.88
976.702	0.12
977.429	2.12
978.156	1.12
978.882	-1.88
979.609	2.12
980.335	1.12
981.062	0.12
981.788	0.12
982.514	0.12
983.24	-1.88
983.967	-0.88
984.693	0.12
985.419	-1.88
986.144	2.12
986.87	1.12
987.596	0.12
988.322	1.12
989.047	0.12
989.773	-0.88
990.498	2.12
991.224	0.12
991.949	1.12
992.674	1.12
993.399	0.12
994.124	-0.88
994.849	-0.88
995.574	3.12
996.299	2.12
997.024	-1.88
997.749	-1.88
998.473	1.12
999.198	0.12
999.922	2.12
1000.647	0.12
1001.371	3.12
1002.095	-0.88
1002.82	-1.88
1003.544	-1.88
1004.268	1.12
1004.992	1.12
1005.716	1.12
1006.439	1.12
1007.163	4.12
1007.887	4.12
1008.611	0.12
1009.334	3.12
1010.058	-0.88
1010.781	0.12
1011.504	0.12
1012.228	2.12
1012.951	1.12
1013.674	0.12
1014.397	0.12
1015.12	0.12
