节点500_285_QEPB04081__264__14-59-56-852.txt的数据

Date: Wed Nov 12 14:59:56 CST 2025
User: PC
Spectrometer: QEPB0408
触发模式: 0
积分时间 (秒): 1.000000E-2
Scans to average: 1
启用暗噪声校正: true
启用非线性校正: false
滑动平均宽度: 0
X轴模式: Wavelengths
Number of Pixels in Spectrum: 1044
>>>>>Begin Spectral Data<<<<<
220.843	0.38
221.644	1.38
222.444	-0.62
223.244	0.38
224.045	0.38
224.845	3.38
225.645	2.38
226.445	3.38
227.245	2.38
228.045	2.38
228.845	3.38
229.645	4.38
230.444	1.38
231.244	4.38
232.043	2.38
232.843	2.38
233.642	3.38
234.442	0.38
235.241	1.38
236.04	3.38
236.839	4.38
237.638	6.38
238.437	6.38
239.236	4.38
240.035	3.38
240.833	3.38
241.632	3.38
242.43	6.38
243.229	6.38
244.027	5.38
244.826	3.38
245.624	7.38
246.422	2.38
247.22	6.38
248.018	6.38
248.816	6.38
249.614	5.38
250.412	6.38
251.21	7.38
252.007	6.38
252.805	6.38
253.602	5.38
254.4	7.38
255.197	7.38
255.994	9.38
256.791	7.38
257.589	9.38
258.386	8.38
259.183	9.38
259.979	9.38
260.776	7.38
261.573	10.38
262.37	10.38
263.166	11.38
263.963	10.38
264.759	13.38
265.556	11.38
266.352	13.38
267.148	11.38
267.944	13.38
268.74	12.38
269.536	13.38
270.332	15.38
271.128	13.38
271.924	14.38
272.719	15.38
273.515	17.38
274.311	16.38
275.106	15.38
275.901	19.38
276.697	15.38
277.492	17.38
278.287	15.38
279.082	16.38
279.877	18.38
280.672	17.38
281.467	19.38
282.262	17.38
283.056	16.38
283.851	19.38
284.646	20.38
285.44	20.38
286.234	17.38
287.029	17.38
287.823	17.38
288.617	17.38
289.411	17.38
290.205	18.38
290.999	17.38
291.793	18.38
292.587	18.38
293.381	18.38
294.174	16.38
294.968	17.38
295.761	13.38
296.555	14.38
297.348	13.38
298.141	15.38
298.935	16.38
299.728	16.38
300.521	16.38
301.314	12.38
302.107	15.38
302.899	14.38
303.692	12.38
304.485	13.38
305.277	11.38
306.07	13.38
306.862	13.38
307.655	12.38
308.447	13.38
309.239	12.38
310.031	12.38
310.823	9.38
311.615	10.38
312.407	10.38
313.199	11.38
313.991	9.38
314.783	9.38
315.574	10.38
316.366	8.38
317.157	7.38
317.949	8.38
318.74	9.38
319.531	7.38
320.322	6.38
321.113	6.38
321.904	9.38
322.695	8.38
323.486	7.38
324.277	6.38
325.068	7.38
325.858	4.38
326.649	9.38
327.439	9.38
328.23	8.38
329.02	7.38
329.81	6.38
330.6	5.38
331.391	7.38
332.181	7.38
332.971	6.38
333.76	5.38
334.55	6.38
335.34	7.38
336.13	7.38
336.919	4.38
337.709	6.38
338.498	7.38
339.287	5.38
340.077	5.38
340.866	5.38
341.655	7.38
342.444	4.38
343.233	5.38
344.022	6.38
344.811	3.38
345.6	3.38
346.388	5.38
347.177	6.38
347.965	5.38
348.754	6.38
349.542	5.38
350.33	3.38
351.119	7.38
351.907	5.38
352.695	7.38
353.483	5.38
354.271	3.38
355.059	5.38
355.846	4.38
356.634	7.38
357.422	6.38
358.209	5.38
358.997	5.38
359.784	5.38
360.571	4.38
361.359	6.38
362.146	4.38
362.933	1.38
363.72	4.38
364.507	3.38
365.294	6.38
366.081	4.38
366.867	8.38
367.654	4.38
368.44	4.38
369.227	5.38
370.013	5.38
370.8	6.38
371.586	2.38
372.372	3.38
373.158	5.38
373.944	5.38
374.73	6.38
375.516	4.38
376.302	7.38
377.088	5.38
377.873	3.38
378.659	5.38
379.445	4.38
380.23	3.38
381.015	7.38
381.801	4.38
382.586	5.38
383.371	6.38
384.156	5.38
384.941	6.38
385.726	6.38
386.511	7.38
387.296	6.38
388.08	4.38
388.865	6.38
389.649	6.38
390.434	6.38
391.218	6.38
392.003	4.38
392.787	8.38
393.571	4.38
394.355	6.38
395.139	7.38
395.923	6.38
396.707	4.38
397.491	7.38
398.274	8.38
399.058	6.38
399.842	6.38
400.625	5.38
401.408	6.38
402.192	6.38
402.975	8.38
403.758	8.38
404.541	8.38
405.324	8.38
406.107	9.38
406.89	8.38
407.673	8.38
408.456	8.38
409.238	6.38
410.021	8.38
410.803	8.38
411.586	5.38
412.368	8.38
413.151	8.38
413.933	7.38
414.715	9.38
415.497	9.38
416.279	7.38
417.061	9.38
417.843	8.38
418.624	9.38
419.406	9.38
420.188	9.38
420.969	9.38
421.751	12.38
422.532	12.38
423.313	13.38
424.095	12.38
424.876	13.38
425.657	10.38
426.438	11.38
427.219	10.38
428	11.38
428.78	13.38
429.561	14.38
430.342	11.38
431.122	11.38
431.903	15.38
432.683	16.38
433.464	15.38
434.244	15.38
435.024	15.38
435.804	18.38
436.584	14.38
437.364	20.38
438.144	18.38
438.924	20.38
439.704	22.38
440.483	22.38
441.263	21.38
442.042	25.38
442.822	26.38
443.601	27.38
444.38	28.38
445.16	32.38
445.939	35.38
446.718	36.38
447.497	38.38
448.276	42.38
449.054	43.38
449.833	43.38
450.612	54.38
451.391	57.38
452.169	61.38
452.948	67.38
453.726	74.38
454.504	82.38
455.282	91.38
456.061	98.38
456.839	109.38
457.617	118.38
458.395	130.38
459.172	150.38
459.95	166.38
460.728	180.38
461.506	200.38
462.283	226.38
463.061	253.38
463.838	284.38
464.615	312.38
465.393	351.38
466.17	402.38
466.947	444.38
467.724	488.38
468.501	539.38
469.278	606.38
470.055	674.38
470.831	763.38
471.608	843.38
472.385	941.38
473.161	1045.38
473.938	1145.38
474.714	1280.38
475.49	1416.38
476.266	1563.38
477.043	1731.38
477.819	1922.38
478.595	2129.38
479.371	2352.38
480.146	2602.38
480.922	2847.38
481.698	3158.38
482.473	3472.38
483.249	3831.38
484.024	4232.38
484.8	4657.38
485.575	5126.38
486.35	5656.38
487.126	6188.38
487.901	6825.38
488.676	7447.38
489.451	8170.38
490.225	8964.38
491	9808.38
491.775	10701.38
492.55	11656.38
493.324	12680.38
494.099	13619.38
494.873	14732.38
495.647	15872.38
496.422	17053.38
497.196	18263.38
497.97	19487.38
498.744	20713.38
499.518	21910.38
500.292	23079.38
501.066	24124.38
501.839	25145.38
502.613	25979.38
503.387	26772.38
504.16	27344.38
504.934	27672.38
505.707	27791.38
506.48	27786.38
507.253	27652.38
508.027	27400.38
508.8	27015.38
509.573	26555.38
510.346	25960.38
511.118	25121.38
511.891	24207.38
512.664	23407.38
513.437	22488.38
514.209	21488.38
514.982	20614.38
515.754	19741.38
516.526	18772.38
517.298	17947.38
518.071	17206.38
518.843	16495.38
519.615	15902.38
520.387	15297.38
521.159	14654.38
521.93	14083.38
522.702	13511.38
523.474	12941.38
524.245	12370.38
525.017	11861.38
525.788	11405.38
526.56	10905.38
527.331	10393.38
528.102	9867.38
528.873	9451.38
529.644	8999.38
530.415	8548.38
531.186	8109.38
531.957	7668.38
532.728	7289.38
533.498	6904.38
534.269	6491.38
535.039	6127.38
535.81	5803.38
536.58	5456.38
537.351	5175.38
538.121	4889.38
538.891	4635.38
539.661	4379.38
540.431	4127.38
541.201	3905.38
541.971	3698.38
542.741	3484.38
543.51	3321.38
544.28	3191.38
545.05	3022.38
545.819	2868.38
546.588	2732.38
547.358	2589.38
548.127	2446.38
548.896	2312.38
549.665	2216.38
550.434	2090.38
551.203	1963.38
551.972	1880.38
552.741	1772.38
553.51	1681.38
554.278	1583.38
555.047	1491.38
555.815	1403.38
556.584	1321.38
557.352	1249.38
558.121	1190.38
558.889	1123.38
559.657	1064.38
560.425	992.38
561.193	923.38
561.961	883.38
562.729	840.38
563.496	784.38
564.264	740.38
565.032	704.38
565.799	671.38
566.567	638.38
567.334	599.38
568.101	560.38
568.869	532.38
569.636	505.38
570.403	465.38
571.17	444.38
571.937	417.38
572.704	396.38
573.471	376.38
574.237	358.38
575.004	337.38
575.771	316.38
576.537	294.38
577.303	280.38
578.07	259.38
578.836	249.38
579.602	226.38
580.368	219.38
581.134	209.38
581.9	192.38
582.666	187.38
583.432	170.38
584.198	168.38
584.964	160.38
585.729	150.38
586.495	144.38
587.26	132.38
588.025	126.38
588.791	121.38
589.556	113.38
590.321	108.38
591.086	105.38
591.851	96.38
592.616	97.38
593.381	87.38
594.146	85.38
594.911	80.38
595.675	74.38
596.44	74.38
597.204	68.38
597.969	64.38
598.733	61.38
599.497	63.38
600.261	61.38
601.025	57.38
601.79	57.38
602.553	51.38
603.317	48.38
604.081	45.38
604.845	45.38
605.609	41.38
606.372	42.38
607.136	39.38
607.899	37.38
608.662	37.38
609.426	31.38
610.189	31.38
610.952	36.38
611.715	30.38
612.478	29.38
613.241	31.38
614.004	26.38
614.767	24.38
615.529	25.38
616.292	25.38
617.055	22.38
617.817	23.38
618.579	22.38
619.342	22.38
620.104	20.38
620.866	18.38
621.628	19.38
622.39	19.38
623.152	15.38
623.914	19.38
624.676	16.38
625.438	17.38
626.199	15.38
626.961	16.38
627.722	17.38
628.484	13.38
629.245	17.38
630.006	13.38
630.768	14.38
631.529	13.38
632.29	12.38
633.051	12.38
633.812	11.38
634.573	12.38
635.333	9.38
636.094	12.38
636.855	11.38
637.615	10.38
638.376	11.38
639.136	9.38
639.896	11.38
640.657	9.38
641.417	8.38
642.177	9.38
642.937	8.38
643.697	6.38
644.457	8.38
645.216	9.38
645.976	7.38
646.736	8.38
647.495	7.38
648.255	7.38
649.014	8.38
649.774	7.38
650.533	5.38
651.292	7.38
652.051	5.38
652.81	4.38
653.569	6.38
654.328	5.38
655.087	6.38
655.846	6.38
656.604	6.38
657.363	6.38
658.121	5.38
658.88	3.38
659.638	8.38
660.397	7.38
661.155	5.38
661.913	5.38
662.671	4.38
663.429	7.38
664.187	3.38
664.945	3.38
665.703	4.38
666.46	4.38
667.218	3.38
667.976	3.38
668.733	2.38
669.49	5.38
670.248	4.38
671.005	4.38
671.762	3.38
672.519	4.38
673.276	5.38
674.033	3.38
674.79	3.38
675.547	2.38
676.304	5.38
677.06	1.38
677.817	2.38
678.574	5.38
679.33	3.38
680.086	4.38
680.843	3.38
681.599	3.38
682.355	2.38
683.111	5.38
683.867	4.38
684.623	4.38
685.379	2.38
686.135	0.38
686.89	2.38
687.646	3.38
688.402	3.38
689.157	6.38
689.912	3.38
690.668	2.38
691.423	3.38
692.178	6.38
692.933	3.38
693.688	2.38
694.443	3.38
695.198	3.38
695.953	4.38
696.708	4.38
697.462	5.38
698.217	3.38
698.972	3.38
699.726	3.38
700.48	3.38
701.235	2.38
701.989	2.38
702.743	4.38
703.497	5.38
704.251	2.38
705.005	4.38
705.759	4.38
706.513	2.38
707.266	3.38
708.02	4.38
708.774	3.38
709.527	3.38
710.28	0.38
711.034	3.38
711.787	4.38
712.54	3.38
713.293	6.38
714.046	4.38
714.799	3.38
715.552	5.38
716.305	2.38
717.058	4.38
717.81	3.38
718.563	2.38
719.315	2.38
720.068	1.38
720.82	6.38
721.573	4.38
722.325	5.38
723.077	4.38
723.829	5.38
724.581	3.38
725.333	5.38
726.085	4.38
726.836	3.38
727.588	2.38
728.34	3.38
729.091	4.38
729.843	5.38
730.594	2.38
731.346	0.38
732.097	4.38
732.848	3.38
733.599	4.38
734.35	5.38
735.101	4.38
735.852	5.38
736.603	2.38
737.354	4.38
738.104	3.38
738.855	3.38
739.605	2.38
740.356	3.38
741.106	3.38
741.856	3.38
742.607	4.38
743.357	4.38
744.107	3.38
744.857	5.38
745.607	6.38
746.357	5.38
747.106	4.38
747.856	3.38
748.606	5.38
749.355	5.38
750.105	4.38
750.854	4.38
751.603	7.38
752.353	4.38
753.102	7.38
753.851	6.38
754.6	3.38
755.349	4.38
756.098	4.38
756.847	7.38
757.595	2.38
758.344	5.38
759.093	7.38
759.841	5.38
760.589	5.38
761.338	6.38
762.086	6.38
762.834	5.38
763.582	6.38
764.331	5.38
765.079	6.38
765.826	8.38
766.574	6.38
767.322	5.38
768.07	7.38
768.817	5.38
769.565	6.38
770.312	7.38
771.06	7.38
771.807	7.38
772.554	9.38
773.302	7.38
774.049	11.38
774.796	8.38
775.543	8.38
776.29	7.38
777.036	8.38
777.783	7.38
778.53	9.38
779.276	6.38
780.023	7.38
780.769	8.38
781.516	7.38
782.262	9.38
783.008	6.38
783.754	7.38
784.5	8.38
785.246	7.38
785.992	9.38
786.738	9.38
787.484	9.38
788.23	7.38
788.975	9.38
789.721	11.38
790.466	8.38
791.212	7.38
791.957	9.38
792.702	10.38
793.447	7.38
794.193	6.38
794.938	9.38
795.683	4.38
796.427	6.38
797.172	7.38
797.917	9.38
798.662	9.38
799.406	8.38
800.151	8.38
800.895	7.38
801.64	7.38
802.384	8.38
803.128	5.38
803.872	7.38
804.616	3.38
805.36	7.38
806.104	6.38
806.848	7.38
807.592	4.38
808.336	7.38
809.079	5.38
809.823	5.38
810.566	6.38
811.31	2.38
812.053	6.38
812.796	5.38
813.539	4.38
814.283	6.38
815.026	3.38
815.769	5.38
816.511	5.38
817.254	3.38
817.997	6.38
818.74	4.38
819.482	6.38
820.225	4.38
820.967	1.38
821.71	3.38
822.452	1.38
823.194	6.38
823.936	4.38
824.678	4.38
825.42	2.38
826.162	4.38
826.904	2.38
827.646	1.38
828.388	5.38
829.129	3.38
829.871	4.38
830.612	4.38
831.354	3.38
832.095	3.38
832.836	3.38
833.577	1.38
834.319	2.38
835.06	5.38
835.801	2.38
836.542	2.38
837.282	3.38
838.023	3.38
838.764	4.38
839.504	4.38
840.245	0.38
840.985	2.38
841.726	2.38
842.466	3.38
843.206	3.38
843.946	1.38
844.687	1.38
845.427	3.38
846.166	2.38
846.906	4.38
847.646	2.38
848.386	1.38
849.125	0.38
849.865	1.38
850.605	2.38
851.344	2.38
852.083	-0.62
852.823	3.38
853.562	1.38
854.301	4.38
855.04	2.38
855.779	2.38
856.518	1.38
857.257	1.38
857.995	1.38
858.734	2.38
859.473	1.38
860.211	1.38
860.95	0.38
861.688	2.38
862.426	0.38
863.165	3.38
863.903	0.38
864.641	0.38
865.379	1.38
866.117	1.38
866.855	1.38
867.593	0.38
868.33	0.38
869.068	0.38
869.806	0.38
870.543	2.38
871.28	0.38
872.018	2.38
872.755	3.38
873.492	1.38
874.229	1.38
874.967	1.38
875.703	0.38
876.44	-0.62
877.177	2.38
877.914	0.38
878.651	3.38
879.387	1.38
880.124	-0.62
880.86	-0.62
881.597	3.38
882.333	-0.62
883.069	-0.62
883.806	0.38
884.542	-0.62
885.278	0.38
886.014	1.38
886.749	-0.62
887.485	1.38
888.221	0.38
888.957	-0.62
889.692	1.38
890.428	0.38
891.163	2.38
891.899	-0.62
892.634	0.38
893.369	-1.62
894.104	-1.62
894.839	0.38
895.574	0.38
896.309	2.38
897.044	1.38
897.779	-1.62
898.514	-0.62
899.248	-0.62
899.983	1.38
900.717	-0.62
901.452	1.38
902.186	1.38
902.92	1.38
903.654	-0.62
904.389	0.38
905.123	-0.62
905.857	-0.62
906.59	-0.62
907.324	0.38
908.058	-1.62
908.792	2.38
909.525	2.38
910.259	1.38
910.992	-0.62
911.726	1.38
912.459	-2.62
913.192	-2.62
913.925	1.38
914.658	1.38
915.391	0.38
916.124	0.38
916.857	1.38
917.59	-0.62
918.323	0.38
919.055	2.38
919.788	0.38
920.521	-0.62
921.253	-2.62
921.985	-3.62
922.718	0.38
923.45	1.38
924.182	0.38
924.914	-0.62
925.646	1.38
926.378	1.38
927.11	-0.62
927.841	-0.62
928.573	0.38
929.305	-1.62
930.036	-0.62
930.768	-2.62
931.499	-0.62
932.23	-1.62
932.962	-0.62
933.693	1.38
934.424	-0.62
935.155	0.38
935.886	-1.62
936.617	2.38
937.348	-2.62
938.078	-0.62
938.809	-0.62
939.54	-0.62
940.27	1.38
941.001	-0.62
941.731	-0.62
942.461	0.38
943.191	-0.62
943.922	0.38
944.652	2.38
945.382	0.38
946.112	-0.62
946.841	1.38
947.571	-0.62
948.301	-0.62
949.031	0.38
949.76	0.38
950.49	-0.62
951.219	0.38
951.948	-0.62
952.678	-0.62
953.407	0.38
954.136	0.38
954.865	-1.62
955.594	1.38
956.323	-0.62
957.052	1.38
957.78	0.38
958.509	1.38
959.238	-1.62
959.966	-0.62
960.695	0.38
961.423	1.38
962.151	2.38
962.88	-1.62
963.608	2.38
964.336	0.38
965.064	-1.62
965.792	1.38
966.52	0.38
967.247	0.38
967.975	-1.62
968.703	-0.62
969.43	0.38
970.158	-1.62
970.885	0.38
971.613	-0.62
972.34	-1.62
973.067	-0.62
973.794	0.38
974.521	-0.62
975.248	-1.62
975.975	-2.62
976.702	-2.62
977.429	0.38
978.156	0.38
978.882	2.38
979.609	-1.62
980.335	0.38
981.062	1.38
981.788	1.38
982.514	0.38
983.24	-0.62
983.967	-0.62
984.693	0.38
985.419	-0.62
986.144	-0.62
986.87	-0.62
987.596	1.38
988.322	-1.62
989.047	0.38
989.773	-1.62
990.498	0.38
991.224	-1.62
991.949	-0.62
992.674	-0.62
993.399	-0.62
994.124	0.38
994.849	-2.62
995.574	-0.62
996.299	0.38
997.024	-0.62
997.749	0.38
998.473	-1.62
999.198	-1.62
999.922	-0.62
1000.647	-0.62
1001.371	2.38
1002.095	-0.62
1002.82	0.38
1003.544	-0.62
1004.268	0.38
1004.992	2.38
1005.716	0.38
1006.439	0.38
1007.163	1.38
1007.887	0.38
1008.611	0.38
1009.334	-2.62
1010.058	-0.62
1010.781	-0.62
1011.504	1.38
1012.228	-0.62
1012.951	-0.62
1013.674	-0.62
1014.397	-0.62
1015.12	0.38
