节点500_285_QEPB04081__520__15-04-12-333.txt的数据

Date: Wed Nov 12 15:04:12 CST 2025
User: PC
Spectrometer: QEPB0408
触发模式: 0
积分时间 (秒): 1.000000E-2
Scans to average: 1
启用暗噪声校正: true
启用非线性校正: false
滑动平均宽度: 0
X轴模式: Wavelengths
Number of Pixels in Spectrum: 1044
>>>>>Begin Spectral Data<<<<<
220.843	-1
221.644	4
222.444	-1
223.244	4
224.045	4
224.845	1
225.645	1
226.445	1
227.245	4
228.045	5
228.845	7
229.645	2
230.444	4
231.244	3
232.043	3
232.843	5
233.642	5
234.442	5
235.241	3
236.04	4
236.839	6
237.638	2
238.437	1
239.236	4
240.035	5
240.833	5
241.632	4
242.43	4
243.229	4
244.027	4
244.826	5
245.624	6
246.422	4
247.22	6
248.018	7
248.816	5
249.614	5
250.412	8
251.21	7
252.007	7
252.805	5
253.602	7
254.4	7
255.197	8
255.994	7
256.791	6
257.589	8
258.386	7
259.183	11
259.979	7
260.776	9
261.573	10
262.37	10
263.166	10
263.963	11
264.759	12
265.556	10
266.352	11
267.148	13
267.944	10
268.74	13
269.536	15
270.332	14
271.128	16
271.924	16
272.719	13
273.515	18
274.311	16
275.106	16
275.901	17
276.697	18
277.492	18
278.287	18
279.082	19
279.877	19
280.672	21
281.467	20
282.262	19
283.056	19
283.851	18
284.646	17
285.44	20
286.234	20
287.029	19
287.823	19
288.617	17
289.411	19
290.205	16
290.999	19
291.793	19
292.587	14
293.381	20
294.174	18
294.968	17
295.761	16
296.555	16
297.348	18
298.141	15
298.935	20
299.728	15
300.521	14
301.314	13
302.107	14
302.899	17
303.692	16
304.485	13
305.277	13
306.07	12
306.862	14
307.655	12
308.447	14
309.239	11
310.031	10
310.823	10
311.615	13
312.407	9
313.199	11
313.991	9
314.783	10
315.574	8
316.366	10
317.157	10
317.949	9
318.74	9
319.531	10
320.322	9
321.113	5
321.904	7
322.695	9
323.486	7
324.277	8
325.068	7
325.858	6
326.649	4
327.439	9
328.23	6
329.02	5
329.81	6
330.6	5
331.391	7
332.181	6
332.971	8
333.76	9
334.55	7
335.34	9
336.13	9
336.919	6
337.709	4
338.498	6
339.287	6
340.077	7
340.866	7
341.655	7
342.444	7
343.233	5
344.022	4
344.811	7
345.6	6
346.388	5
347.177	5
347.965	4
348.754	4
349.542	7
350.33	8
351.119	5
351.907	6
352.695	5
353.483	4
354.271	7
355.059	5
355.846	6
356.634	3
357.422	7
358.209	5
358.997	5
359.784	2
360.571	5
361.359	5
362.146	6
362.933	5
363.72	4
364.507	4
365.294	3
366.081	6
366.867	5
367.654	4
368.44	7
369.227	5
370.013	5
370.8	4
371.586	5
372.372	5
373.158	5
373.944	7
374.73	6
375.516	5
376.302	5
377.088	4
377.873	6
378.659	5
379.445	5
380.23	7
381.015	5
381.801	2
382.586	4
383.371	6
384.156	5
384.941	6
385.726	4
386.511	4
387.296	5
388.08	3
388.865	7
389.649	4
390.434	6
391.218	5
392.003	4
392.787	8
393.571	4
394.355	7
395.139	5
395.923	9
396.707	5
397.491	6
398.274	7
399.058	7
399.842	8
400.625	7
401.408	5
402.192	8
402.975	7
403.758	8
404.541	7
405.324	8
406.107	7
406.89	5
407.673	6
408.456	8
409.238	10
410.021	10
410.803	8
411.586	9
412.368	8
413.151	10
413.933	9
414.715	8
415.497	11
416.279	9
417.061	9
417.843	9
418.624	12
419.406	9
420.188	8
420.969	10
421.751	10
422.532	10
423.313	10
424.095	15
424.876	11
425.657	12
426.438	12
427.219	9
428	12
428.78	12
429.561	15
430.342	12
431.122	13
431.903	16
432.683	14
433.464	17
434.244	17
435.024	18
435.804	18
436.584	21
437.364	19
438.144	19
438.924	20
439.704	22
440.483	19
441.263	26
442.042	23
442.822	26
443.601	25
444.38	30
445.16	33
445.939	33
446.718	35
447.497	37
448.276	43
449.054	44
449.833	50
450.612	53
451.391	61
452.169	68
452.948	72
453.726	77
454.504	85
455.282	95
456.061	104
456.839	114
457.617	128
458.395	143
459.172	155
459.95	176
460.728	193
461.506	215
462.283	237
463.061	264
463.838	305
464.615	334
465.393	379
466.17	413
466.947	462
467.724	519
468.501	571
469.278	641
470.055	710
470.831	793
471.608	869
472.385	981
473.161	1079
473.938	1190
474.714	1302
475.49	1457
476.266	1585
477.043	1764
477.819	1933
478.595	2129
479.371	2361
480.146	2591
480.922	2843
481.698	3109
482.473	3419
483.249	3726
484.024	4133
484.8	4529
485.575	4958
486.35	5443
487.126	5915
487.901	6479
488.676	7092
489.451	7747
490.225	8468
491	9216
491.775	10062
492.55	10886
493.324	11836
494.099	12702
494.873	13685
495.647	14735
496.422	15821
497.196	16921
497.97	18088
498.744	19242
499.518	20388
500.292	21450
501.066	22451
501.839	23465
502.613	24360
503.387	25178
504.16	25811
504.934	26202
505.707	26507
506.48	26634
507.253	26663
508.027	26527
508.8	26265
509.573	26043
510.346	25454
511.118	24734
511.891	24071
512.664	23348
513.437	22505
514.209	21570
514.982	20750
515.754	19943
516.526	18989
517.298	18200
518.071	17493
518.843	16727
519.615	16087
520.387	15485
521.159	14954
521.93	14321
522.702	13678
523.474	13150
524.245	12623
525.017	12054
525.788	11614
526.56	11106
527.331	10569
528.102	10092
528.873	9636
529.644	9184
530.415	8753
531.186	8316
531.957	7915
532.728	7514
533.498	7153
534.269	6728
535.039	6360
535.81	5988
536.58	5673
537.351	5347
538.121	5045
538.891	4809
539.661	4550
540.431	4275
541.201	4046
541.971	3825
542.741	3640
543.51	3456
544.28	3283
545.05	3122
545.819	2976
546.588	2809
547.358	2666
548.127	2543
548.896	2432
549.665	2302
550.434	2183
551.203	2066
551.972	1952
552.741	1844
553.51	1750
554.278	1652
555.047	1557
555.815	1465
556.584	1399
557.352	1308
558.121	1239
558.889	1175
559.657	1116
560.425	1045
561.193	990
561.961	929
562.729	875
563.496	837
564.264	782
565.032	740
565.799	714
566.567	674
567.334	627
568.101	601
568.869	557
569.636	526
570.403	506
571.17	467
571.937	440
572.704	421
573.471	394
574.237	373
575.004	356
575.771	331
576.537	305
577.303	288
578.07	282
578.836	259
579.602	244
580.368	229
581.134	221
581.9	206
582.666	198
583.432	188
584.198	177
584.964	171
585.729	155
586.495	149
587.26	145
588.025	133
588.791	129
589.556	118
590.321	117
591.086	106
591.851	105
592.616	96
593.381	96
594.146	89
594.911	88
595.675	83
596.44	80
597.204	73
597.969	66
598.733	69
599.497	68
600.261	63
601.025	60
601.79	59
602.553	53
603.317	51
604.081	47
604.845	49
605.609	47
606.372	43
607.136	39
607.899	41
608.662	40
609.426	34
610.189	35
610.952	33
611.715	37
612.478	30
613.241	34
614.004	29
614.767	26
615.529	27
616.292	26
617.055	27
617.817	24
618.579	21
619.342	19
620.104	22
620.866	24
621.628	21
622.39	19
623.152	18
623.914	18
624.676	17
625.438	17
626.199	16
626.961	18
627.722	14
628.484	16
629.245	13
630.006	16
630.768	12
631.529	14
632.29	13
633.051	14
633.812	15
634.573	13
635.333	13
636.094	10
636.855	12
637.615	12
638.376	12
639.136	8
639.896	10
640.657	13
641.417	11
642.177	10
642.937	9
643.697	9
644.457	11
645.216	7
645.976	8
646.736	7
647.495	8
648.255	7
649.014	9
649.774	8
650.533	8
651.292	6
652.051	8
652.81	7
653.569	7
654.328	7
655.087	8
655.846	7
656.604	7
657.363	7
658.121	4
658.88	8
659.638	5
660.397	6
661.155	5
661.913	4
662.671	6
663.429	6
664.187	4
664.945	4
665.703	6
666.46	6
667.218	5
667.976	6
668.733	6
669.49	6
670.248	7
671.005	5
671.762	2
672.519	4
673.276	5
674.033	5
674.79	4
675.547	5
676.304	5
677.06	6
677.817	3
678.574	6
679.33	5
680.086	7
680.843	2
681.599	4
682.355	5
683.111	2
683.867	5
684.623	6
685.379	5
686.135	6
686.89	4
687.646	4
688.402	4
689.157	5
689.912	1
690.668	5
691.423	5
692.178	1
692.933	4
693.688	4
694.443	5
695.198	4
695.953	4
696.708	7
697.462	3
698.217	4
698.972	3
699.726	4
700.48	2
701.235	5
701.989	4
702.743	3
703.497	4
704.251	3
705.005	4
705.759	1
706.513	4
707.266	4
708.02	4
708.774	5
709.527	3
710.28	-1
711.034	4
711.787	2
712.54	6
713.293	4
714.046	5
714.799	4
715.552	3
716.305	1
717.058	2
717.81	4
718.563	1
719.315	3
720.068	3
720.82	4
721.573	3
722.325	2
723.077	3
723.829	2
724.581	1
725.333	6
726.085	1
726.836	1
727.588	2
728.34	6
729.091	4
729.843	4
730.594	2
731.346	3
732.097	6
732.848	3
733.599	5
734.35	2
735.101	4
735.852	4
736.603	5
737.354	6
738.104	5
738.855	4
739.605	5
740.356	5
741.106	5
741.856	4
742.607	5
743.357	6
744.107	1
744.857	3
745.607	3
746.357	7
747.106	7
747.856	6
748.606	3
749.355	5
750.105	6
750.854	6
751.603	7
752.353	4
753.102	7
753.851	4
754.6	6
755.349	6
756.098	8
756.847	6
757.595	5
758.344	5
759.093	9
759.841	6
760.589	9
761.338	5
762.086	9
762.834	7
763.582	6
764.331	7
765.079	8
765.826	7
766.574	6
767.322	9
768.07	7
768.817	8
769.565	8
770.312	9
771.06	8
771.807	9
772.554	8
773.302	6
774.049	9
774.796	7
775.543	7
776.29	9
777.036	8
777.783	9
778.53	8
779.276	9
780.023	8
780.769	8
781.516	8
782.262	7
783.008	9
783.754	11
784.5	6
785.246	8
785.992	7
786.738	7
787.484	10
788.23	7
788.975	8
789.721	6
790.466	9
791.212	11
791.957	10
792.702	8
793.447	10
794.193	7
794.938	9
795.683	7
796.427	7
797.172	9
797.917	9
798.662	9
799.406	8
800.151	8
800.895	8
801.64	8
802.384	7
803.128	7
803.872	6
804.616	8
805.36	5
806.104	7
806.848	9
807.592	5
808.336	5
809.079	4
809.823	5
810.566	7
811.31	5
812.053	6
812.796	4
813.539	6
814.283	6
815.026	4
815.769	6
816.511	5
817.254	6
817.997	6
818.74	7
819.482	5
820.225	5
820.967	7
821.71	5
822.452	6
823.194	4
823.936	4
824.678	5
825.42	3
826.162	5
826.904	4
827.646	3
828.388	3
829.129	1
829.871	4
830.612	3
831.354	4
832.095	4
832.836	5
833.577	3
834.319	3
835.06	2
835.801	4
836.542	4
837.282	2
838.023	5
838.764	3
839.504	4
840.245	5
840.985	4
841.726	2
842.466	3
843.206	2
843.946	4
844.687	3
845.427	3
846.166	5
846.906	3
847.646	5
848.386	4
849.125	3
849.865	3
850.605	1
851.344	4
852.083	1
852.823	2
853.562	1
854.301	1
855.04	1
855.779	2
856.518	2
857.257	4
857.995	2
858.734	4
859.473	4
860.211	3
860.95	4
861.688	0
862.426	1
863.165	1
863.903	1
864.641	1
865.379	2
866.117	1
866.855	2
867.593	0
868.33	5
869.068	1
869.806	2
870.543	2
871.28	-1
872.018	2
872.755	0
873.492	5
874.229	1
874.967	2
875.703	3
876.44	2
877.177	2
877.914	0
878.651	3
879.387	0
880.124	2
880.86	4
881.597	1
882.333	1
883.069	1
883.806	3
884.542	2
885.278	2
886.014	0
886.749	4
887.485	0
888.221	1
888.957	2
889.692	-1
890.428	1
891.163	2
891.899	0
892.634	1
893.369	0
894.104	0
894.839	1
895.574	2
896.309	3
897.044	-2
897.779	1
898.514	2
899.248	1
899.983	2
900.717	1
901.452	2
902.186	1
902.92	0
903.654	1
904.389	0
905.123	2
905.857	-2
906.59	1
907.324	0
908.058	2
908.792	-1
909.525	0
910.259	1
910.992	0
911.726	2
912.459	1
913.192	2
913.925	0
914.658	-1
915.391	0
916.124	-1
916.857	0
917.59	-1
918.323	0
919.055	-1
919.788	0
920.521	0
921.253	2
921.985	-1
922.718	-2
923.45	-1
924.182	1
924.914	2
925.646	0
926.378	1
927.11	1
927.841	3
928.573	1
929.305	0
930.036	4
930.768	0
931.499	-3
932.23	1
932.962	0
933.693	0
934.424	1
935.155	2
935.886	2
936.617	2
937.348	0
938.078	-2
938.809	1
939.54	0
940.27	-2
941.001	0
941.731	2
942.461	-2
943.191	1
943.922	0
944.652	0
945.382	0
946.112	0
946.841	1
947.571	1
948.301	-2
949.031	1
949.76	1
950.49	2
951.219	-2
951.948	1
952.678	0
953.407	0
954.136	2
954.865	0
955.594	0
956.323	1
957.052	-1
957.78	1
958.509	1
959.238	-1
959.966	1
960.695	0
961.423	0
962.151	1
962.88	2
963.608	-1
964.336	1
965.064	1
965.792	1
966.52	-1
967.247	0
967.975	0
968.703	0
969.43	1
970.158	-1
970.885	0
971.613	-2
972.34	1
973.067	0
973.794	1
974.521	-2
975.248	1
975.975	2
976.702	-1
977.429	2
978.156	0
978.882	-2
979.609	-1
980.335	1
981.062	0
981.788	2
982.514	2
983.24	2
983.967	0
984.693	1
985.419	-2
986.144	0
986.87	0
987.596	1
988.322	2
989.047	-1
989.773	1
990.498	1
991.224	2
991.949	0
992.674	3
993.399	2
994.124	0
994.849	2
995.574	1
996.299	2
997.024	1
997.749	1
998.473	2
999.198	-2
999.922	1
1000.647	-1
1001.371	4
1002.095	1
1002.82	-2
1003.544	-1
1004.268	2
1004.992	1
1005.716	2
1006.439	2
1007.163	3
1007.887	1
1008.611	1
1009.334	0
1010.058	-1
1010.781	1
1011.504	1
1012.228	-1
1012.951	-2
1013.674	-1
1014.397	0
1015.12	1
