节点500_285_QEPB04081__665__15-06-36-982.txt的数据

Date: Wed Nov 12 15:06:36 CST 2025
User: PC
Spectrometer: QEPB0408
触发模式: 0
积分时间 (秒): 1.000000E-2
Scans to average: 1
启用暗噪声校正: true
启用非线性校正: false
滑动平均宽度: 0
X轴模式: Wavelengths
Number of Pixels in Spectrum: 1044
>>>>>Begin Spectral Data<<<<<
220.843	0.62
221.644	1.62
222.444	2.62
223.244	0.62
224.045	0.62
224.845	1.62
225.645	1.62
226.445	-0.38
227.245	1.62
228.045	1.62
228.845	1.62
229.645	-0.38
230.444	2.62
231.244	2.62
232.043	2.62
232.843	2.62
233.642	3.62
234.442	3.62
235.241	4.62
236.04	4.62
236.839	2.62
237.638	2.62
238.437	4.62
239.236	0.62
240.035	5.62
240.833	1.62
241.632	3.62
242.43	4.62
243.229	4.62
244.027	3.62
244.826	4.62
245.624	4.62
246.422	5.62
247.22	5.62
248.018	6.62
248.816	1.62
249.614	7.62
250.412	8.62
251.21	7.62
252.007	3.62
252.805	4.62
253.602	6.62
254.4	5.62
255.197	7.62
255.994	8.62
256.791	7.62
257.589	6.62
258.386	8.62
259.183	9.62
259.979	10.62
260.776	8.62
261.573	9.62
262.37	11.62
263.166	8.62
263.963	10.62
264.759	11.62
265.556	8.62
266.352	10.62
267.148	12.62
267.944	11.62
268.74	11.62
269.536	13.62
270.332	13.62
271.128	13.62
271.924	15.62
272.719	15.62
273.515	13.62
274.311	14.62
275.106	13.62
275.901	16.62
276.697	14.62
277.492	14.62
278.287	15.62
279.082	16.62
279.877	17.62
280.672	13.62
281.467	16.62
282.262	15.62
283.056	17.62
283.851	12.62
284.646	17.62
285.44	18.62
286.234	16.62
287.029	16.62
287.823	18.62
288.617	17.62
289.411	17.62
290.205	15.62
290.999	16.62
291.793	18.62
292.587	17.62
293.381	16.62
294.174	16.62
294.968	16.62
295.761	16.62
296.555	13.62
297.348	15.62
298.141	13.62
298.935	15.62
299.728	13.62
300.521	14.62
301.314	11.62
302.107	14.62
302.899	13.62
303.692	12.62
304.485	10.62
305.277	12.62
306.07	9.62
306.862	8.62
307.655	12.62
308.447	8.62
309.239	12.62
310.031	12.62
310.823	7.62
311.615	11.62
312.407	7.62
313.199	10.62
313.991	7.62
314.783	8.62
315.574	10.62
316.366	7.62
317.157	7.62
317.949	9.62
318.74	6.62
319.531	7.62
320.322	6.62
321.113	8.62
321.904	6.62
322.695	7.62
323.486	8.62
324.277	5.62
325.068	6.62
325.858	5.62
326.649	6.62
327.439	3.62
328.23	6.62
329.02	8.62
329.81	6.62
330.6	6.62
331.391	2.62
332.181	7.62
332.971	5.62
333.76	7.62
334.55	8.62
335.34	7.62
336.13	5.62
336.919	7.62
337.709	6.62
338.498	2.62
339.287	6.62
340.077	6.62
340.866	3.62
341.655	5.62
342.444	4.62
343.233	5.62
344.022	7.62
344.811	9.62
345.6	7.62
346.388	4.62
347.177	6.62
347.965	5.62
348.754	4.62
349.542	5.62
350.33	5.62
351.119	6.62
351.907	6.62
352.695	5.62
353.483	4.62
354.271	5.62
355.059	5.62
355.846	3.62
356.634	3.62
357.422	6.62
358.209	6.62
358.997	6.62
359.784	6.62
360.571	5.62
361.359	4.62
362.146	5.62
362.933	4.62
363.72	7.62
364.507	4.62
365.294	4.62
366.081	3.62
366.867	3.62
367.654	1.62
368.44	7.62
369.227	4.62
370.013	6.62
370.8	4.62
371.586	4.62
372.372	2.62
373.158	3.62
373.944	4.62
374.73	6.62
375.516	7.62
376.302	5.62
377.088	5.62
377.873	3.62
378.659	3.62
379.445	5.62
380.23	4.62
381.015	1.62
381.801	1.62
382.586	5.62
383.371	3.62
384.156	6.62
384.941	4.62
385.726	4.62
386.511	5.62
387.296	5.62
388.08	5.62
388.865	4.62
389.649	5.62
390.434	3.62
391.218	6.62
392.003	6.62
392.787	4.62
393.571	4.62
394.355	5.62
395.139	5.62
395.923	5.62
396.707	5.62
397.491	4.62
398.274	6.62
399.058	7.62
399.842	6.62
400.625	6.62
401.408	5.62
402.192	4.62
402.975	7.62
403.758	7.62
404.541	8.62
405.324	8.62
406.107	5.62
406.89	6.62
407.673	8.62
408.456	6.62
409.238	8.62
410.021	5.62
410.803	5.62
411.586	7.62
412.368	6.62
413.151	6.62
413.933	9.62
414.715	7.62
415.497	10.62
416.279	8.62
417.061	7.62
417.843	10.62
418.624	6.62
419.406	8.62
420.188	10.62
420.969	8.62
421.751	9.62
422.532	9.62
423.313	9.62
424.095	8.62
424.876	10.62
425.657	11.62
426.438	7.62
427.219	12.62
428	12.62
428.78	12.62
429.561	11.62
430.342	12.62
431.122	13.62
431.903	13.62
432.683	15.62
433.464	15.62
434.244	15.62
435.024	17.62
435.804	18.62
436.584	16.62
437.364	17.62
438.144	20.62
438.924	22.62
439.704	19.62
440.483	20.62
441.263	25.62
442.042	23.62
442.822	26.62
443.601	26.62
444.38	32.62
445.16	31.62
445.939	35.62
446.718	36.62
447.497	40.62
448.276	44.62
449.054	49.62
449.833	52.62
450.612	52.62
451.391	60.62
452.169	64.62
452.948	73.62
453.726	79.62
454.504	91.62
455.282	98.62
456.061	104.62
456.839	119.62
457.617	130.62
458.395	148.62
459.172	167.62
459.95	180.62
460.728	205.62
461.506	227.62
462.283	260.62
463.061	282.62
463.838	309.62
464.615	346.62
465.393	384.62
466.17	437.62
466.947	473.62
467.724	535.62
468.501	587.62
469.278	662.62
470.055	729.62
470.831	804.62
471.608	894.62
472.385	992.62
473.161	1095.62
473.938	1194.62
474.714	1307.62
475.49	1473.62
476.266	1596.62
477.043	1769.62
477.819	1930.62
478.595	2123.62
479.371	2320.62
480.146	2567.62
480.922	2807.62
481.698	3101.62
482.473	3386.62
483.249	3699.62
484.024	4045.62
484.8	4442.62
485.575	4845.62
486.35	5265.62
487.126	5712.62
487.901	6302.62
488.676	6811.62
489.451	7458.62
490.225	8092.62
491	8788.62
491.775	9643.62
492.55	10418.62
493.324	11273.62
494.099	12064.62
494.873	12951.62
495.647	13954.62
496.422	14937.62
497.196	16049.62
497.97	17075.62
498.744	18130.62
499.518	19235.62
500.292	20322.62
501.066	21252.62
501.839	22269.62
502.613	23184.62
503.387	23965.62
504.16	24682.62
504.934	25161.62
505.707	25461.62
506.48	25678.62
507.253	25806.62
508.027	25686.62
508.8	25667.62
509.573	25380.62
510.346	24991.62
511.118	24405.62
511.891	23757.62
512.664	23114.62
513.437	22320.62
514.209	21526.62
514.982	20740.62
515.754	19961.62
516.526	19062.62
517.298	18282.62
518.071	17502.62
518.843	16908.62
519.615	16228.62
520.387	15621.62
521.159	14948.62
521.93	14380.62
522.702	13855.62
523.474	13254.62
524.245	12651.62
525.017	12141.62
525.788	11734.62
526.56	11196.62
527.331	10691.62
528.102	10225.62
528.873	9784.62
529.644	9303.62
530.415	8928.62
531.186	8493.62
531.957	8037.62
532.728	7648.62
533.498	7259.62
534.269	6826.62
535.039	6543.62
535.81	6176.62
536.58	5831.62
537.351	5488.62
538.121	5201.62
538.891	4897.62
539.661	4680.62
540.431	4384.62
541.201	4149.62
541.971	3918.62
542.741	3742.62
543.51	3535.62
544.28	3369.62
545.05	3206.62
545.819	3052.62
546.588	2893.62
547.358	2759.62
548.127	2617.62
548.896	2519.62
549.665	2358.62
550.434	2238.62
551.203	2119.62
551.972	2012.62
552.741	1911.62
553.51	1794.62
554.278	1695.62
555.047	1619.62
555.815	1504.62
556.584	1428.62
557.352	1364.62
558.121	1274.62
558.889	1218.62
559.657	1142.62
560.425	1073.62
561.193	1025.62
561.961	959.62
562.729	914.62
563.496	863.62
564.264	817.62
565.032	772.62
565.799	731.62
566.567	691.62
567.334	645.62
568.101	622.62
568.869	584.62
569.636	542.62
570.403	515.62
571.17	481.62
571.937	454.62
572.704	424.62
573.471	412.62
574.237	385.62
575.004	359.62
575.771	342.62
576.537	318.62
577.303	304.62
578.07	291.62
578.836	269.62
579.602	255.62
580.368	233.62
581.134	232.62
581.9	217.62
582.666	201.62
583.432	193.62
584.198	183.62
584.964	175.62
585.729	166.62
586.495	149.62
587.26	149.62
588.025	140.62
588.791	133.62
589.556	125.62
590.321	118.62
591.086	108.62
591.851	106.62
592.616	99.62
593.381	97.62
594.146	94.62
594.911	87.62
595.675	83.62
596.44	77.62
597.204	76.62
597.969	71.62
598.733	66.62
599.497	65.62
600.261	66.62
601.025	60.62
601.79	57.62
602.553	57.62
603.317	50.62
604.081	50.62
604.845	47.62
605.609	45.62
606.372	45.62
607.136	42.62
607.899	37.62
608.662	39.62
609.426	36.62
610.189	35.62
610.952	34.62
611.715	32.62
612.478	31.62
613.241	32.62
614.004	31.62
614.767	29.62
615.529	26.62
616.292	27.62
617.055	29.62
617.817	23.62
618.579	24.62
619.342	24.62
620.104	20.62
620.866	20.62
621.628	21.62
622.39	19.62
623.152	19.62
623.914	17.62
624.676	17.62
625.438	13.62
626.199	16.62
626.961	16.62
627.722	13.62
628.484	14.62
629.245	13.62
630.006	13.62
630.768	13.62
631.529	13.62
632.29	12.62
633.051	12.62
633.812	9.62
634.573	12.62
635.333	9.62
636.094	10.62
636.855	10.62
637.615	10.62
638.376	8.62
639.136	7.62
639.896	8.62
640.657	11.62
641.417	8.62
642.177	8.62
642.937	8.62
643.697	8.62
644.457	6.62
645.216	9.62
645.976	8.62
646.736	4.62
647.495	7.62
648.255	9.62
649.014	6.62
649.774	4.62
650.533	7.62
651.292	6.62
652.051	5.62
652.81	5.62
653.569	6.62
654.328	5.62
655.087	7.62
655.846	5.62
656.604	5.62
657.363	4.62
658.121	4.62
658.88	6.62
659.638	5.62
660.397	6.62
661.155	5.62
661.913	4.62
662.671	3.62
663.429	5.62
664.187	4.62
664.945	5.62
665.703	3.62
666.46	4.62
667.218	4.62
667.976	3.62
668.733	5.62
669.49	5.62
670.248	3.62
671.005	4.62
671.762	4.62
672.519	3.62
673.276	3.62
674.033	5.62
674.79	3.62
675.547	4.62
676.304	5.62
677.06	6.62
677.817	2.62
678.574	3.62
679.33	1.62
680.086	1.62
680.843	3.62
681.599	3.62
682.355	3.62
683.111	3.62
683.867	5.62
684.623	1.62
685.379	3.62
686.135	3.62
686.89	4.62
687.646	5.62
688.402	0.62
689.157	2.62
689.912	2.62
690.668	2.62
691.423	3.62
692.178	3.62
692.933	5.62
693.688	3.62
694.443	3.62
695.198	4.62
695.953	3.62
696.708	5.62
697.462	1.62
698.217	2.62
698.972	3.62
699.726	3.62
700.48	2.62
701.235	1.62
701.989	1.62
702.743	3.62
703.497	5.62
704.251	2.62
705.005	2.62
705.759	5.62
706.513	2.62
707.266	1.62
708.02	1.62
708.774	3.62
709.527	1.62
710.28	1.62
711.034	1.62
711.787	2.62
712.54	4.62
713.293	1.62
714.046	4.62
714.799	4.62
715.552	1.62
716.305	1.62
717.058	2.62
717.81	3.62
718.563	2.62
719.315	4.62
720.068	3.62
720.82	3.62
721.573	4.62
722.325	1.62
723.077	3.62
723.829	1.62
724.581	2.62
725.333	1.62
726.085	2.62
726.836	4.62
727.588	0.62
728.34	5.62
729.091	3.62
729.843	3.62
730.594	3.62
731.346	2.62
732.097	3.62
732.848	4.62
733.599	3.62
734.35	1.62
735.101	4.62
735.852	1.62
736.603	3.62
737.354	2.62
738.104	1.62
738.855	5.62
739.605	3.62
740.356	3.62
741.106	3.62
741.856	2.62
742.607	4.62
743.357	4.62
744.107	4.62
744.857	2.62
745.607	2.62
746.357	2.62
747.106	5.62
747.856	5.62
748.606	5.62
749.355	4.62
750.105	3.62
750.854	3.62
751.603	3.62
752.353	4.62
753.102	5.62
753.851	4.62
754.6	4.62
755.349	5.62
756.098	4.62
756.847	6.62
757.595	3.62
758.344	5.62
759.093	4.62
759.841	5.62
760.589	6.62
761.338	4.62
762.086	3.62
762.834	5.62
763.582	5.62
764.331	6.62
765.079	3.62
765.826	5.62
766.574	7.62
767.322	4.62
768.07	5.62
768.817	8.62
769.565	5.62
770.312	6.62
771.06	8.62
771.807	7.62
772.554	6.62
773.302	8.62
774.049	6.62
774.796	7.62
775.543	6.62
776.29	8.62
777.036	6.62
777.783	4.62
778.53	6.62
779.276	6.62
780.023	10.62
780.769	5.62
781.516	8.62
782.262	7.62
783.008	5.62
783.754	9.62
784.5	7.62
785.246	6.62
785.992	7.62
786.738	7.62
787.484	5.62
788.23	6.62
788.975	7.62
789.721	6.62
790.466	8.62
791.212	4.62
791.957	4.62
792.702	8.62
793.447	7.62
794.193	8.62
794.938	5.62
795.683	8.62
796.427	5.62
797.172	8.62
797.917	7.62
798.662	7.62
799.406	8.62
800.151	6.62
800.895	7.62
801.64	6.62
802.384	6.62
803.128	6.62
803.872	6.62
804.616	5.62
805.36	1.62
806.104	5.62
806.848	5.62
807.592	4.62
808.336	5.62
809.079	5.62
809.823	6.62
810.566	6.62
811.31	5.62
812.053	6.62
812.796	5.62
813.539	2.62
814.283	4.62
815.026	3.62
815.769	2.62
816.511	4.62
817.254	3.62
817.997	4.62
818.74	3.62
819.482	5.62
820.225	3.62
820.967	1.62
821.71	4.62
822.452	3.62
823.194	2.62
823.936	3.62
824.678	2.62
825.42	3.62
826.162	3.62
826.904	4.62
827.646	2.62
828.388	1.62
829.129	4.62
829.871	4.62
830.612	2.62
831.354	3.62
832.095	2.62
832.836	3.62
833.577	1.62
834.319	2.62
835.06	1.62
835.801	4.62
836.542	3.62
837.282	4.62
838.023	4.62
838.764	3.62
839.504	4.62
840.245	3.62
840.985	3.62
841.726	1.62
842.466	3.62
843.206	2.62
843.946	2.62
844.687	0.62
845.427	0.62
846.166	1.62
846.906	2.62
847.646	2.62
848.386	2.62
849.125	0.62
849.865	1.62
850.605	2.62
851.344	1.62
852.083	1.62
852.823	2.62
853.562	3.62
854.301	0.62
855.04	2.62
855.779	1.62
856.518	3.62
857.257	2.62
857.995	0.62
858.734	1.62
859.473	1.62
860.211	0.62
860.95	2.62
861.688	-1.38
862.426	1.62
863.165	2.62
863.903	0.62
864.641	0.62
865.379	-0.38
866.117	0.62
866.855	2.62
867.593	-0.38
868.33	1.62
869.068	-0.38
869.806	-0.38
870.543	4.62
871.28	1.62
872.018	0.62
872.755	1.62
873.492	-0.38
874.229	2.62
874.967	0.62
875.703	0.62
876.44	1.62
877.177	1.62
877.914	0.62
878.651	2.62
879.387	0.62
880.124	1.62
880.86	1.62
881.597	1.62
882.333	-1.38
883.069	1.62
883.806	0.62
884.542	-0.38
885.278	-0.38
886.014	-1.38
886.749	1.62
887.485	-1.38
888.221	0.62
888.957	-1.38
889.692	0.62
890.428	-0.38
891.163	1.62
891.899	0.62
892.634	0.62
893.369	2.62
894.104	1.62
894.839	0.62
895.574	0.62
896.309	0.62
897.044	-0.38
897.779	-0.38
898.514	1.62
899.248	-0.38
899.983	-1.38
900.717	0.62
901.452	-1.38
902.186	0.62
902.92	0.62
903.654	3.62
904.389	-0.38
905.123	0.62
905.857	1.62
906.59	-0.38
907.324	0.62
908.058	-2.38
908.792	1.62
909.525	1.62
910.259	-0.38
910.992	2.62
911.726	0.62
912.459	-0.38
913.192	-2.38
913.925	0.62
914.658	-2.38
915.391	-1.38
916.124	1.62
916.857	-0.38
917.59	0.62
918.323	0.62
919.055	-0.38
919.788	0.62
920.521	-0.38
921.253	-4.38
921.985	-1.38
922.718	-0.38
923.45	1.62
924.182	0.62
924.914	2.62
925.646	-1.38
926.378	0.62
927.11	-2.38
927.841	-0.38
928.573	0.62
929.305	-1.38
930.036	-0.38
930.768	-0.38
931.499	-0.38
932.23	-0.38
932.962	-0.38
933.693	0.62
934.424	0.62
935.155	1.62
935.886	-0.38
936.617	0.62
937.348	0.62
938.078	-0.38
938.809	-2.38
939.54	-1.38
940.27	1.62
941.001	-1.38
941.731	-0.38
942.461	-0.38
943.191	-2.38
943.922	0.62
944.652	0.62
945.382	0.62
946.112	-0.38
946.841	-1.38
947.571	0.62
948.301	-0.38
949.031	0.62
949.76	-2.38
950.49	-0.38
951.219	-0.38
951.948	0.62
952.678	-2.38
953.407	-0.38
954.136	0.62
954.865	1.62
955.594	-0.38
956.323	-2.38
957.052	-1.38
957.78	0.62
958.509	-3.38
959.238	1.62
959.966	-1.38
960.695	-0.38
961.423	-1.38
962.151	1.62
962.88	-0.38
963.608	-2.38
964.336	-1.38
965.064	0.62
965.792	-0.38
966.52	0.62
967.247	1.62
967.975	-0.38
968.703	0.62
969.43	1.62
970.158	-0.38
970.885	-0.38
971.613	-0.38
972.34	-0.38
973.067	0.62
973.794	-1.38
974.521	1.62
975.248	-2.38
975.975	-2.38
976.702	0.62
977.429	-0.38
978.156	0.62
978.882	0.62
979.609	-0.38
980.335	-1.38
981.062	-0.38
981.788	0.62
982.514	-0.38
983.24	1.62
983.967	-0.38
984.693	-1.38
985.419	1.62
986.144	-2.38
986.87	-0.38
987.596	-0.38
988.322	1.62
989.047	-1.38
989.773	1.62
990.498	-1.38
991.224	0.62
991.949	0.62
992.674	0.62
993.399	1.62
994.124	-1.38
994.849	-1.38
995.574	1.62
996.299	0.62
997.024	-0.38
997.749	-0.38
998.473	0.62
999.198	-0.38
999.922	-0.38
1000.647	-0.38
1001.371	3.62
1002.095	-0.38
1002.82	-4.38
1003.544	-2.38
1004.268	0.62
1004.992	0.62
1005.716	-0.38
1006.439	-0.38
1007.163	0.62
1007.887	0.62
1008.611	-0.38
1009.334	0.62
1010.058	-2.38
1010.781	0.62
1011.504	-0.38
1012.228	-1.38
1012.951	1.62
1013.674	-0.38
1014.397	0.62
1015.12	1.62
