节点500_285_QEPB04081__470__15-03-22-508.txt的数据

Date: Wed Nov 12 15:03:22 CST 2025
User: PC
Spectrometer: QEPB0408
触发模式: 0
积分时间 (秒): 1.000000E-2
Scans to average: 1
启用暗噪声校正: true
启用非线性校正: false
滑动平均宽度: 0
X轴模式: Wavelengths
Number of Pixels in Spectrum: 1044
>>>>>Begin Spectral Data<<<<<
220.843	0.25
221.644	1.25
222.444	1.25
223.244	2.25
224.045	3.25
224.845	2.25
225.645	2.25
226.445	2.25
227.245	3.25
228.045	1.25
228.845	2.25
229.645	1.25
230.444	4.25
231.244	3.25
232.043	3.25
232.843	5.25
233.642	5.25
234.442	3.25
235.241	5.25
236.04	5.25
236.839	1.25
237.638	6.25
238.437	5.25
239.236	2.25
240.035	2.25
240.833	5.25
241.632	4.25
242.43	4.25
243.229	4.25
244.027	4.25
244.826	6.25
245.624	4.25
246.422	6.25
247.22	5.25
248.018	8.25
248.816	4.25
249.614	5.25
250.412	7.25
251.21	7.25
252.007	6.25
252.805	6.25
253.602	6.25
254.4	10.25
255.197	9.25
255.994	8.25
256.791	8.25
257.589	10.25
258.386	8.25
259.183	9.25
259.979	9.25
260.776	11.25
261.573	9.25
262.37	11.25
263.166	11.25
263.963	10.25
264.759	13.25
265.556	10.25
266.352	12.25
267.148	14.25
267.944	14.25
268.74	15.25
269.536	12.25
270.332	14.25
271.128	15.25
271.924	14.25
272.719	13.25
273.515	18.25
274.311	17.25
275.106	16.25
275.901	17.25
276.697	16.25
277.492	16.25
278.287	17.25
279.082	17.25
279.877	16.25
280.672	18.25
281.467	18.25
282.262	20.25
283.056	19.25
283.851	19.25
284.646	21.25
285.44	18.25
286.234	18.25
287.029	18.25
287.823	20.25
288.617	18.25
289.411	19.25
290.205	19.25
290.999	21.25
291.793	19.25
292.587	18.25
293.381	16.25
294.174	17.25
294.968	18.25
295.761	15.25
296.555	18.25
297.348	17.25
298.141	14.25
298.935	19.25
299.728	14.25
300.521	13.25
301.314	13.25
302.107	12.25
302.899	15.25
303.692	13.25
304.485	13.25
305.277	14.25
306.07	14.25
306.862	14.25
307.655	14.25
308.447	11.25
309.239	15.25
310.031	15.25
310.823	12.25
311.615	14.25
312.407	10.25
313.199	8.25
313.991	9.25
314.783	9.25
315.574	11.25
316.366	9.25
317.157	9.25
317.949	10.25
318.74	8.25
319.531	10.25
320.322	7.25
321.113	8.25
321.904	6.25
322.695	8.25
323.486	5.25
324.277	8.25
325.068	7.25
325.858	7.25
326.649	9.25
327.439	8.25
328.23	7.25
329.02	7.25
329.81	5.25
330.6	7.25
331.391	7.25
332.181	8.25
332.971	7.25
333.76	6.25
334.55	7.25
335.34	6.25
336.13	7.25
336.919	7.25
337.709	8.25
338.498	8.25
339.287	6.25
340.077	6.25
340.866	4.25
341.655	6.25
342.444	8.25
343.233	9.25
344.022	7.25
344.811	6.25
345.6	6.25
346.388	5.25
347.177	8.25
347.965	8.25
348.754	7.25
349.542	7.25
350.33	5.25
351.119	6.25
351.907	6.25
352.695	9.25
353.483	7.25
354.271	5.25
355.059	7.25
355.846	4.25
356.634	8.25
357.422	7.25
358.209	7.25
358.997	8.25
359.784	5.25
360.571	7.25
361.359	3.25
362.146	5.25
362.933	4.25
363.72	5.25
364.507	7.25
365.294	6.25
366.081	4.25
366.867	6.25
367.654	4.25
368.44	5.25
369.227	5.25
370.013	5.25
370.8	3.25
371.586	7.25
372.372	6.25
373.158	7.25
373.944	7.25
374.73	6.25
375.516	5.25
376.302	7.25
377.088	5.25
377.873	3.25
378.659	4.25
379.445	5.25
380.23	4.25
381.015	4.25
381.801	3.25
382.586	7.25
383.371	5.25
384.156	6.25
384.941	6.25
385.726	5.25
386.511	6.25
387.296	5.25
388.08	5.25
388.865	7.25
389.649	5.25
390.434	8.25
391.218	4.25
392.003	9.25
392.787	5.25
393.571	8.25
394.355	5.25
395.139	7.25
395.923	5.25
396.707	6.25
397.491	6.25
398.274	7.25
399.058	5.25
399.842	8.25
400.625	9.25
401.408	7.25
402.192	8.25
402.975	8.25
403.758	8.25
404.541	8.25
405.324	8.25
406.107	7.25
406.89	7.25
407.673	8.25
408.456	8.25
409.238	9.25
410.021	8.25
410.803	10.25
411.586	9.25
412.368	9.25
413.151	10.25
413.933	4.25
414.715	11.25
415.497	9.25
416.279	9.25
417.061	11.25
417.843	8.25
418.624	10.25
419.406	9.25
420.188	10.25
420.969	11.25
421.751	12.25
422.532	8.25
423.313	9.25
424.095	11.25
424.876	12.25
425.657	10.25
426.438	9.25
427.219	11.25
428	14.25
428.78	13.25
429.561	14.25
430.342	13.25
431.122	14.25
431.903	14.25
432.683	16.25
433.464	14.25
434.244	16.25
435.024	19.25
435.804	15.25
436.584	21.25
437.364	22.25
438.144	23.25
438.924	18.25
439.704	21.25
440.483	26.25
441.263	25.25
442.042	26.25
442.822	29.25
443.601	28.25
444.38	29.25
445.16	32.25
445.939	33.25
446.718	36.25
447.497	39.25
448.276	43.25
449.054	45.25
449.833	52.25
450.612	52.25
451.391	59.25
452.169	69.25
452.948	72.25
453.726	76.25
454.504	82.25
455.282	93.25
456.061	105.25
456.839	115.25
457.617	125.25
458.395	142.25
459.172	153.25
459.95	175.25
460.728	195.25
461.506	214.25
462.283	237.25
463.061	268.25
463.838	298.25
464.615	336.25
465.393	368.25
466.17	418.25
466.947	462.25
467.724	512.25
468.501	576.25
469.278	643.25
470.055	711.25
470.831	795.25
471.608	875.25
472.385	966.25
473.161	1079.25
473.938	1189.25
474.714	1332.25
475.49	1466.25
476.266	1600.25
477.043	1771.25
477.819	1964.25
478.595	2148.25
479.371	2359.25
480.146	2611.25
480.922	2848.25
481.698	3148.25
482.473	3492.25
483.249	3818.25
484.024	4178.25
484.8	4604.25
485.575	5023.25
486.35	5536.25
487.126	6066.25
487.901	6647.25
488.676	7245.25
489.451	7924.25
490.225	8648.25
491	9467.25
491.775	10299.25
492.55	11205.25
493.324	12150.25
494.099	13066.25
494.873	14126.25
495.647	15223.25
496.422	16299.25
497.196	17433.25
497.97	18661.25
498.744	19792.25
499.518	20921.25
500.292	22058.25
501.066	23159.25
501.839	24060.25
502.613	24973.25
503.387	25817.25
504.16	26456.25
504.934	26803.25
505.707	27042.25
506.48	27154.25
507.253	27272.25
508.027	26957.25
508.8	26704.25
509.573	26385.25
510.346	25774.25
511.118	25073.25
511.891	24367.25
512.664	23615.25
513.437	22764.25
514.209	21838.25
514.982	20923.25
515.754	20020.25
516.526	19155.25
517.298	18314.25
518.071	17521.25
518.843	16873.25
519.615	16241.25
520.387	15587.25
521.159	15008.25
521.93	14364.25
522.702	13793.25
523.474	13224.25
524.245	12680.25
525.017	12110.25
525.788	11692.25
526.56	11109.25
527.331	10606.25
528.102	10151.25
528.873	9687.25
529.644	9187.25
530.415	8769.25
531.186	8343.25
531.957	7935.25
532.728	7523.25
533.498	7124.25
534.269	6728.25
535.039	6371.25
535.81	6026.25
536.58	5673.25
537.351	5323.25
538.121	5057.25
538.891	4786.25
539.661	4510.25
540.431	4283.25
541.201	4051.25
541.971	3841.25
542.741	3637.25
543.51	3441.25
544.28	3279.25
545.05	3146.25
545.819	2974.25
546.588	2844.25
547.358	2674.25
548.127	2558.25
548.896	2439.25
549.665	2304.25
550.434	2165.25
551.203	2073.25
551.972	1938.25
552.741	1839.25
553.51	1745.25
554.278	1645.25
555.047	1556.25
555.815	1458.25
556.584	1393.25
557.352	1315.25
558.121	1237.25
558.889	1177.25
559.657	1109.25
560.425	1049.25
561.193	968.25
561.961	931.25
562.729	881.25
563.496	821.25
564.264	778.25
565.032	738.25
565.799	704.25
566.567	664.25
567.334	621.25
568.101	590.25
568.869	564.25
569.636	526.25
570.403	493.25
571.17	465.25
571.937	434.25
572.704	408.25
573.471	394.25
574.237	375.25
575.004	350.25
575.771	335.25
576.537	309.25
577.303	294.25
578.07	282.25
578.836	267.25
579.602	242.25
580.368	230.25
581.134	220.25
581.9	210.25
582.666	198.25
583.432	192.25
584.198	181.25
584.964	164.25
585.729	161.25
586.495	151.25
587.26	143.25
588.025	132.25
588.791	127.25
589.556	122.25
590.321	116.25
591.086	108.25
591.851	102.25
592.616	97.25
593.381	93.25
594.146	86.25
594.911	83.25
595.675	79.25
596.44	79.25
597.204	76.25
597.969	68.25
598.733	67.25
599.497	64.25
600.261	60.25
601.025	59.25
601.79	57.25
602.553	53.25
603.317	51.25
604.081	47.25
604.845	46.25
605.609	45.25
606.372	45.25
607.136	39.25
607.899	40.25
608.662	39.25
609.426	39.25
610.189	37.25
610.952	33.25
611.715	32.25
612.478	32.25
613.241	34.25
614.004	28.25
614.767	28.25
615.529	28.25
616.292	26.25
617.055	25.25
617.817	23.25
618.579	23.25
619.342	21.25
620.104	20.25
620.866	22.25
621.628	18.25
622.39	22.25
623.152	16.25
623.914	19.25
624.676	19.25
625.438	17.25
626.199	17.25
626.961	16.25
627.722	17.25
628.484	14.25
629.245	15.25
630.006	16.25
630.768	12.25
631.529	14.25
632.29	11.25
633.051	15.25
633.812	14.25
634.573	11.25
635.333	13.25
636.094	10.25
636.855	12.25
637.615	11.25
638.376	10.25
639.136	13.25
639.896	10.25
640.657	10.25
641.417	10.25
642.177	11.25
642.937	8.25
643.697	10.25
644.457	9.25
645.216	8.25
645.976	9.25
646.736	8.25
647.495	10.25
648.255	9.25
649.014	9.25
649.774	8.25
650.533	7.25
651.292	9.25
652.051	9.25
652.81	6.25
653.569	6.25
654.328	5.25
655.087	5.25
655.846	5.25
656.604	8.25
657.363	6.25
658.121	5.25
658.88	7.25
659.638	7.25
660.397	5.25
661.155	6.25
661.913	4.25
662.671	3.25
663.429	6.25
664.187	8.25
664.945	6.25
665.703	7.25
666.46	5.25
667.218	6.25
667.976	5.25
668.733	5.25
669.49	5.25
670.248	8.25
671.005	4.25
671.762	5.25
672.519	6.25
673.276	5.25
674.033	4.25
674.79	4.25
675.547	2.25
676.304	5.25
677.06	5.25
677.817	4.25
678.574	5.25
679.33	5.25
680.086	4.25
680.843	3.25
681.599	5.25
682.355	1.25
683.111	3.25
683.867	4.25
684.623	5.25
685.379	6.25
686.135	3.25
686.89	1.25
687.646	4.25
688.402	4.25
689.157	4.25
689.912	4.25
690.668	5.25
691.423	4.25
692.178	3.25
692.933	5.25
693.688	2.25
694.443	3.25
695.198	2.25
695.953	2.25
696.708	3.25
697.462	4.25
698.217	2.25
698.972	2.25
699.726	4.25
700.48	1.25
701.235	4.25
701.989	6.25
702.743	2.25
703.497	5.25
704.251	3.25
705.005	4.25
705.759	4.25
706.513	3.25
707.266	2.25
708.02	3.25
708.774	5.25
709.527	4.25
710.28	4.25
711.034	2.25
711.787	5.25
712.54	2.25
713.293	4.25
714.046	3.25
714.799	2.25
715.552	2.25
716.305	5.25
717.058	3.25
717.81	2.25
718.563	3.25
719.315	5.25
720.068	2.25
720.82	3.25
721.573	5.25
722.325	4.25
723.077	4.25
723.829	5.25
724.581	4.25
725.333	4.25
726.085	4.25
726.836	2.25
727.588	3.25
728.34	4.25
729.091	5.25
729.843	4.25
730.594	2.25
731.346	7.25
732.097	4.25
732.848	5.25
733.599	4.25
734.35	4.25
735.101	4.25
735.852	6.25
736.603	4.25
737.354	4.25
738.104	2.25
738.855	4.25
739.605	4.25
740.356	6.25
741.106	4.25
741.856	5.25
742.607	5.25
743.357	6.25
744.107	7.25
744.857	5.25
745.607	7.25
746.357	4.25
747.106	2.25
747.856	6.25
748.606	4.25
749.355	6.25
750.105	5.25
750.854	6.25
751.603	5.25
752.353	6.25
753.102	5.25
753.851	5.25
754.6	7.25
755.349	3.25
756.098	6.25
756.847	7.25
757.595	5.25
758.344	8.25
759.093	5.25
759.841	6.25
760.589	8.25
761.338	5.25
762.086	6.25
762.834	7.25
763.582	6.25
764.331	8.25
765.079	5.25
765.826	9.25
766.574	7.25
767.322	8.25
768.07	6.25
768.817	6.25
769.565	8.25
770.312	9.25
771.06	8.25
771.807	5.25
772.554	7.25
773.302	7.25
774.049	7.25
774.796	9.25
775.543	5.25
776.29	11.25
777.036	7.25
777.783	8.25
778.53	8.25
779.276	9.25
780.023	9.25
780.769	7.25
781.516	7.25
782.262	8.25
783.008	11.25
783.754	8.25
784.5	8.25
785.246	8.25
785.992	9.25
786.738	8.25
787.484	10.25
788.23	9.25
788.975	9.25
789.721	8.25
790.466	9.25
791.212	8.25
791.957	10.25
792.702	9.25
793.447	9.25
794.193	9.25
794.938	6.25
795.683	9.25
796.427	8.25
797.172	7.25
797.917	7.25
798.662	9.25
799.406	9.25
800.151	8.25
800.895	7.25
801.64	8.25
802.384	9.25
803.128	8.25
803.872	4.25
804.616	8.25
805.36	7.25
806.104	5.25
806.848	8.25
807.592	7.25
808.336	5.25
809.079	4.25
809.823	7.25
810.566	6.25
811.31	5.25
812.053	6.25
812.796	5.25
813.539	5.25
814.283	4.25
815.026	4.25
815.769	5.25
816.511	3.25
817.254	6.25
817.997	5.25
818.74	5.25
819.482	8.25
820.225	4.25
820.967	6.25
821.71	3.25
822.452	6.25
823.194	4.25
823.936	5.25
824.678	5.25
825.42	6.25
826.162	6.25
826.904	6.25
827.646	4.25
828.388	4.25
829.129	4.25
829.871	4.25
830.612	4.25
831.354	5.25
832.095	2.25
832.836	4.25
833.577	6.25
834.319	5.25
835.06	5.25
835.801	2.25
836.542	4.25
837.282	6.25
838.023	6.25
838.764	2.25
839.504	4.25
840.245	4.25
840.985	4.25
841.726	3.25
842.466	1.25
843.206	3.25
843.946	2.25
844.687	4.25
845.427	4.25
846.166	2.25
846.906	3.25
847.646	4.25
848.386	4.25
849.125	4.25
849.865	2.25
850.605	3.25
851.344	2.25
852.083	4.25
852.823	3.25
853.562	4.25
854.301	3.25
855.04	0.25
855.779	5.25
856.518	3.25
857.257	3.25
857.995	2.25
858.734	2.25
859.473	2.25
860.211	1.25
860.95	3.25
861.688	2.25
862.426	3.25
863.165	2.25
863.903	1.25
864.641	1.25
865.379	1.25
866.117	3.25
866.855	0.25
867.593	4.25
868.33	1.25
869.068	0.25
869.806	2.25
870.543	3.25
871.28	3.25
872.018	3.25
872.755	2.25
873.492	3.25
874.229	4.25
874.967	2.25
875.703	1.25
876.44	2.25
877.177	1.25
877.914	1.25
878.651	2.25
879.387	0.25
880.124	-0.75
880.86	2.25
881.597	2.25
882.333	1.25
883.069	3.25
883.806	3.25
884.542	1.25
885.278	2.25
886.014	0.25
886.749	-1.75
887.485	2.25
888.221	0.25
888.957	1.25
889.692	3.25
890.428	1.25
891.163	1.25
891.899	-0.75
892.634	1.25
893.369	1.25
894.104	2.25
894.839	1.25
895.574	2.25
896.309	5.25
897.044	0.25
897.779	-1.75
898.514	-0.75
899.248	2.25
899.983	2.25
900.717	2.25
901.452	-0.75
902.186	0.25
902.92	1.25
903.654	0.25
904.389	-0.75
905.123	1.25
905.857	-0.75
906.59	3.25
907.324	0.25
908.058	2.25
908.792	1.25
909.525	3.25
910.259	1.25
910.992	0.25
911.726	2.25
912.459	2.25
913.192	-0.75
913.925	0.25
914.658	0.25
915.391	1.25
916.124	0.25
916.857	1.25
917.59	0.25
918.323	2.25
919.055	-0.75
919.788	0.25
920.521	1.25
921.253	-0.75
921.985	1.25
922.718	1.25
923.45	-1.75
924.182	1.25
924.914	0.25
925.646	3.25
926.378	1.25
927.11	1.25
927.841	0.25
928.573	-0.75
929.305	2.25
930.036	2.25
930.768	2.25
931.499	-1.75
932.23	-0.75
932.962	1.25
933.693	-0.75
934.424	1.25
935.155	3.25
935.886	1.25
936.617	0.25
937.348	0.25
938.078	0.25
938.809	0.25
939.54	0.25
940.27	0.25
941.001	1.25
941.731	1.25
942.461	-0.75
943.191	2.25
943.922	-0.75
944.652	0.25
945.382	2.25
946.112	-0.75
946.841	0.25
947.571	-0.75
948.301	2.25
949.031	-0.75
949.76	1.25
950.49	0.25
951.219	0.25
951.948	1.25
952.678	-1.75
953.407	1.25
954.136	1.25
954.865	2.25
955.594	1.25
956.323	2.25
957.052	1.25
957.78	1.25
958.509	2.25
959.238	0.25
959.966	1.25
960.695	2.25
961.423	-0.75
962.151	0.25
962.88	1.25
963.608	0.25
964.336	1.25
965.064	1.25
965.792	0.25
966.52	-0.75
967.247	1.25
967.975	1.25
968.703	-0.75
969.43	1.25
970.158	0.25
970.885	-0.75
971.613	2.25
972.34	0.25
973.067	-0.75
973.794	1.25
974.521	2.25
975.248	1.25
975.975	1.25
976.702	0.25
977.429	1.25
978.156	0.25
978.882	0.25
979.609	1.25
980.335	0.25
981.062	0.25
981.788	0.25
982.514	-1.75
983.24	0.25
983.967	0.25
984.693	2.25
985.419	2.25
986.144	-0.75
986.87	0.25
987.596	2.25
988.322	3.25
989.047	-0.75
989.773	-0.75
990.498	1.25
991.224	1.25
991.949	1.25
992.674	2.25
993.399	0.25
994.124	3.25
994.849	1.25
995.574	1.25
996.299	2.25
997.024	0.25
997.749	0.25
998.473	1.25
999.198	0.25
999.922	3.25
1000.647	0.25
1001.371	2.25
1002.095	-0.75
1002.82	-3.75
1003.544	-1.75
1004.268	1.25
1004.992	-0.75
1005.716	0.25
1006.439	0.25
1007.163	3.25
1007.887	1.25
1008.611	0.25
1009.334	0.25
1010.058	-0.75
1010.781	-0.75
1011.504	1.25
1012.228	-0.75
1012.951	2.25
1013.674	1.25
1014.397	0.25
1015.12	0.25
