节点500_285_QEPB04081__789__15-08-40-766.txt的数据

Date: Wed Nov 12 15:08:40 CST 2025
User: PC
Spectrometer: QEPB0408
触发模式: 0
积分时间 (秒): 1.000000E-2
Scans to average: 1
启用暗噪声校正: true
启用非线性校正: false
滑动平均宽度: 0
X轴模式: Wavelengths
Number of Pixels in Spectrum: 1044
>>>>>Begin Spectral Data<<<<<
220.843	1.62
221.644	0.62
222.444	3.62
223.244	1.62
224.045	1.62
224.845	1.62
225.645	-1.38
226.445	1.62
227.245	1.62
228.045	2.62
228.845	1.62
229.645	1.62
230.444	0.62
231.244	0.62
232.043	2.62
232.843	1.62
233.642	3.62
234.442	2.62
235.241	2.62
236.04	6.62
236.839	1.62
237.638	0.62
238.437	2.62
239.236	2.62
240.035	5.62
240.833	6.62
241.632	2.62
242.43	2.62
243.229	2.62
244.027	4.62
244.826	3.62
245.624	6.62
246.422	5.62
247.22	5.62
248.018	6.62
248.816	3.62
249.614	3.62
250.412	2.62
251.21	5.62
252.007	4.62
252.805	7.62
253.602	2.62
254.4	5.62
255.197	6.62
255.994	5.62
256.791	6.62
257.589	8.62
258.386	6.62
259.183	7.62
259.979	7.62
260.776	8.62
261.573	5.62
262.37	7.62
263.166	7.62
263.963	9.62
264.759	8.62
265.556	7.62
266.352	10.62
267.148	7.62
267.944	10.62
268.74	12.62
269.536	9.62
270.332	12.62
271.128	11.62
271.924	12.62
272.719	11.62
273.515	14.62
274.311	10.62
275.106	12.62
275.901	14.62
276.697	12.62
277.492	13.62
278.287	11.62
279.082	14.62
279.877	14.62
280.672	13.62
281.467	12.62
282.262	12.62
283.056	12.62
283.851	14.62
284.646	15.62
285.44	15.62
286.234	13.62
287.029	15.62
287.823	14.62
288.617	14.62
289.411	13.62
290.205	16.62
290.999	14.62
291.793	13.62
292.587	14.62
293.381	13.62
294.174	11.62
294.968	13.62
295.761	12.62
296.555	13.62
297.348	11.62
298.141	12.62
298.935	13.62
299.728	13.62
300.521	11.62
301.314	11.62
302.107	9.62
302.899	11.62
303.692	10.62
304.485	10.62
305.277	9.62
306.07	8.62
306.862	10.62
307.655	11.62
308.447	7.62
309.239	11.62
310.031	8.62
310.823	8.62
311.615	8.62
312.407	4.62
313.199	6.62
313.991	7.62
314.783	9.62
315.574	7.62
316.366	7.62
317.157	9.62
317.949	5.62
318.74	5.62
319.531	6.62
320.322	10.62
321.113	6.62
321.904	7.62
322.695	6.62
323.486	6.62
324.277	6.62
325.068	8.62
325.858	6.62
326.649	5.62
327.439	8.62
328.23	5.62
329.02	5.62
329.81	2.62
330.6	5.62
331.391	8.62
332.181	6.62
332.971	4.62
333.76	4.62
334.55	2.62
335.34	5.62
336.13	8.62
336.919	5.62
337.709	4.62
338.498	5.62
339.287	6.62
340.077	4.62
340.866	6.62
341.655	5.62
342.444	6.62
343.233	6.62
344.022	4.62
344.811	5.62
345.6	5.62
346.388	4.62
347.177	6.62
347.965	5.62
348.754	3.62
349.542	5.62
350.33	8.62
351.119	5.62
351.907	7.62
352.695	5.62
353.483	4.62
354.271	4.62
355.059	4.62
355.846	5.62
356.634	5.62
357.422	5.62
358.209	5.62
358.997	5.62
359.784	5.62
360.571	5.62
361.359	8.62
362.146	1.62
362.933	4.62
363.72	6.62
364.507	2.62
365.294	4.62
366.081	4.62
366.867	4.62
367.654	4.62
368.44	3.62
369.227	4.62
370.013	4.62
370.8	3.62
371.586	3.62
372.372	5.62
373.158	3.62
373.944	4.62
374.73	5.62
375.516	4.62
376.302	2.62
377.088	5.62
377.873	3.62
378.659	4.62
379.445	5.62
380.23	3.62
381.015	4.62
381.801	4.62
382.586	3.62
383.371	2.62
384.156	7.62
384.941	4.62
385.726	5.62
386.511	5.62
387.296	5.62
388.08	5.62
388.865	3.62
389.649	3.62
390.434	6.62
391.218	5.62
392.003	3.62
392.787	4.62
393.571	6.62
394.355	4.62
395.139	5.62
395.923	4.62
396.707	3.62
397.491	5.62
398.274	7.62
399.058	4.62
399.842	5.62
400.625	4.62
401.408	6.62
402.192	7.62
402.975	7.62
403.758	5.62
404.541	5.62
405.324	7.62
406.107	4.62
406.89	6.62
407.673	3.62
408.456	7.62
409.238	5.62
410.021	9.62
410.803	5.62
411.586	8.62
412.368	5.62
413.151	9.62
413.933	7.62
414.715	7.62
415.497	9.62
416.279	5.62
417.061	9.62
417.843	8.62
418.624	7.62
419.406	6.62
420.188	6.62
420.969	7.62
421.751	6.62
422.532	9.62
423.313	9.62
424.095	9.62
424.876	7.62
425.657	10.62
426.438	11.62
427.219	11.62
428	9.62
428.78	10.62
429.561	11.62
430.342	10.62
431.122	11.62
431.903	12.62
432.683	12.62
433.464	11.62
434.244	12.62
435.024	14.62
435.804	14.62
436.584	14.62
437.364	15.62
438.144	16.62
438.924	17.62
439.704	21.62
440.483	20.62
441.263	23.62
442.042	22.62
442.822	25.62
443.601	24.62
444.38	27.62
445.16	27.62
445.939	29.62
446.718	33.62
447.497	37.62
448.276	40.62
449.054	41.62
449.833	41.62
450.612	51.62
451.391	53.62
452.169	60.62
452.948	62.62
453.726	67.62
454.504	78.62
455.282	83.62
456.061	96.62
456.839	109.62
457.617	114.62
458.395	129.62
459.172	145.62
459.95	160.62
460.728	174.62
461.506	200.62
462.283	218.62
463.061	243.62
463.838	270.62
464.615	310.62
465.393	335.62
466.17	378.62
466.947	414.62
467.724	464.62
468.501	509.62
469.278	561.62
470.055	635.62
470.831	698.62
471.608	775.62
472.385	847.62
473.161	927.62
473.938	1025.62
474.714	1136.62
475.49	1244.62
476.266	1371.62
477.043	1487.62
477.819	1630.62
478.595	1810.62
479.371	1986.62
480.146	2144.62
480.922	2353.62
481.698	2577.62
482.473	2840.62
483.249	3086.62
484.024	3375.62
484.8	3687.62
485.575	3983.62
486.35	4376.62
487.126	4750.62
487.901	5189.62
488.676	5637.62
489.451	6162.62
490.225	6666.62
491	7210.62
491.775	7866.62
492.55	8564.62
493.324	9179.62
494.099	9836.62
494.873	10599.62
495.647	11380.62
496.422	12219.62
497.196	13012.62
497.97	13934.62
498.744	14822.62
499.518	15714.62
500.292	16574.62
501.066	17390.62
501.839	18155.62
502.613	18942.62
503.387	19618.62
504.16	20277.62
504.934	20651.62
505.707	21042.62
506.48	21102.62
507.253	21299.62
508.027	21289.62
508.8	21243.62
509.573	21118.62
510.346	20789.62
511.118	20399.62
511.891	19855.62
512.664	19353.62
513.437	18786.62
514.209	18071.62
514.982	17495.62
515.754	16786.62
516.526	16165.62
517.298	15471.62
518.071	14799.62
518.843	14324.62
519.615	13763.62
520.387	13202.62
521.159	12697.62
521.93	12162.62
522.702	11675.62
523.474	11217.62
524.245	10700.62
525.017	10285.62
525.788	9904.62
526.56	9430.62
527.331	9023.62
528.102	8663.62
528.873	8307.62
529.644	7899.62
530.415	7549.62
531.186	7199.62
531.957	6843.62
532.728	6544.62
533.498	6202.62
534.269	5857.62
535.039	5558.62
535.81	5281.62
536.58	4966.62
537.351	4688.62
538.121	4459.62
538.891	4203.62
539.661	3980.62
540.431	3769.62
541.201	3541.62
541.971	3333.62
542.741	3153.62
543.51	3040.62
544.28	2880.62
545.05	2754.62
545.819	2589.62
546.588	2483.62
547.358	2354.62
548.127	2254.62
548.896	2138.62
549.665	2036.62
550.434	1904.62
551.203	1812.62
551.972	1719.62
552.741	1618.62
553.51	1558.62
554.278	1451.62
555.047	1376.62
555.815	1291.62
556.584	1244.62
557.352	1168.62
558.121	1101.62
558.889	1056.62
559.657	986.62
560.425	923.62
561.193	872.62
561.961	833.62
562.729	787.62
563.496	738.62
564.264	702.62
565.032	665.62
565.799	614.62
566.567	593.62
567.334	552.62
568.101	524.62
568.869	502.62
569.636	471.62
570.403	431.62
571.17	410.62
571.937	389.62
572.704	375.62
573.471	349.62
574.237	325.62
575.004	314.62
575.771	293.62
576.537	278.62
577.303	263.62
578.07	248.62
578.836	235.62
579.602	216.62
580.368	211.62
581.134	195.62
581.9	185.62
582.666	175.62
583.432	167.62
584.198	161.62
584.964	151.62
585.729	142.62
586.495	134.62
587.26	125.62
588.025	121.62
588.791	114.62
589.556	107.62
590.321	102.62
591.086	93.62
591.851	92.62
592.616	91.62
593.381	83.62
594.146	79.62
594.911	73.62
595.675	74.62
596.44	66.62
597.204	66.62
597.969	58.62
598.733	59.62
599.497	55.62
600.261	52.62
601.025	51.62
601.79	52.62
602.553	49.62
603.317	45.62
604.081	45.62
604.845	42.62
605.609	38.62
606.372	36.62
607.136	38.62
607.899	35.62
608.662	29.62
609.426	32.62
610.189	30.62
610.952	30.62
611.715	32.62
612.478	27.62
613.241	26.62
614.004	27.62
614.767	25.62
615.529	24.62
616.292	22.62
617.055	23.62
617.817	20.62
618.579	19.62
619.342	19.62
620.104	18.62
620.866	20.62
621.628	20.62
622.39	18.62
623.152	16.62
623.914	16.62
624.676	13.62
625.438	16.62
626.199	15.62
626.961	14.62
627.722	16.62
628.484	13.62
629.245	12.62
630.006	12.62
630.768	12.62
631.529	12.62
632.29	11.62
633.051	8.62
633.812	11.62
634.573	12.62
635.333	9.62
636.094	10.62
636.855	9.62
637.615	9.62
638.376	11.62
639.136	7.62
639.896	8.62
640.657	8.62
641.417	10.62
642.177	5.62
642.937	6.62
643.697	9.62
644.457	6.62
645.216	10.62
645.976	8.62
646.736	7.62
647.495	5.62
648.255	6.62
649.014	6.62
649.774	7.62
650.533	7.62
651.292	6.62
652.051	5.62
652.81	5.62
653.569	6.62
654.328	7.62
655.087	6.62
655.846	4.62
656.604	6.62
657.363	4.62
658.121	7.62
658.88	5.62
659.638	7.62
660.397	6.62
661.155	6.62
661.913	5.62
662.671	5.62
663.429	4.62
664.187	2.62
664.945	5.62
665.703	5.62
666.46	4.62
667.218	4.62
667.976	3.62
668.733	2.62
669.49	4.62
670.248	5.62
671.005	5.62
671.762	4.62
672.519	4.62
673.276	0.62
674.033	4.62
674.79	3.62
675.547	2.62
676.304	4.62
677.06	5.62
677.817	1.62
678.574	5.62
679.33	4.62
680.086	2.62
680.843	5.62
681.599	4.62
682.355	3.62
683.111	4.62
683.867	2.62
684.623	4.62
685.379	2.62
686.135	5.62
686.89	2.62
687.646	2.62
688.402	6.62
689.157	1.62
689.912	3.62
690.668	4.62
691.423	5.62
692.178	3.62
692.933	2.62
693.688	3.62
694.443	2.62
695.198	2.62
695.953	2.62
696.708	3.62
697.462	4.62
698.217	3.62
698.972	4.62
699.726	2.62
700.48	3.62
701.235	4.62
701.989	3.62
702.743	3.62
703.497	1.62
704.251	6.62
705.005	2.62
705.759	3.62
706.513	2.62
707.266	4.62
708.02	3.62
708.774	1.62
709.527	2.62
710.28	5.62
711.034	6.62
711.787	3.62
712.54	4.62
713.293	4.62
714.046	3.62
714.799	3.62
715.552	5.62
716.305	2.62
717.058	5.62
717.81	3.62
718.563	2.62
719.315	3.62
720.068	2.62
720.82	4.62
721.573	2.62
722.325	4.62
723.077	2.62
723.829	3.62
724.581	3.62
725.333	5.62
726.085	3.62
726.836	3.62
727.588	4.62
728.34	1.62
729.091	5.62
729.843	2.62
730.594	2.62
731.346	3.62
732.097	2.62
732.848	3.62
733.599	3.62
734.35	3.62
735.101	3.62
735.852	5.62
736.603	3.62
737.354	3.62
738.104	5.62
738.855	3.62
739.605	4.62
740.356	2.62
741.106	2.62
741.856	2.62
742.607	2.62
743.357	3.62
744.107	5.62
744.857	5.62
745.607	5.62
746.357	2.62
747.106	5.62
747.856	4.62
748.606	4.62
749.355	5.62
750.105	3.62
750.854	4.62
751.603	4.62
752.353	6.62
753.102	5.62
753.851	3.62
754.6	5.62
755.349	4.62
756.098	5.62
756.847	5.62
757.595	5.62
758.344	6.62
759.093	2.62
759.841	6.62
760.589	5.62
761.338	5.62
762.086	3.62
762.834	5.62
763.582	7.62
764.331	5.62
765.079	4.62
765.826	5.62
766.574	5.62
767.322	4.62
768.07	5.62
768.817	4.62
769.565	6.62
770.312	6.62
771.06	7.62
771.807	5.62
772.554	7.62
773.302	6.62
774.049	7.62
774.796	7.62
775.543	6.62
776.29	5.62
777.036	6.62
777.783	6.62
778.53	9.62
779.276	5.62
780.023	7.62
780.769	7.62
781.516	7.62
782.262	6.62
783.008	8.62
783.754	7.62
784.5	6.62
785.246	9.62
785.992	8.62
786.738	8.62
787.484	7.62
788.23	6.62
788.975	5.62
789.721	7.62
790.466	4.62
791.212	7.62
791.957	6.62
792.702	8.62
793.447	6.62
794.193	9.62
794.938	5.62
795.683	5.62
796.427	6.62
797.172	7.62
797.917	7.62
798.662	6.62
799.406	4.62
800.151	6.62
800.895	4.62
801.64	7.62
802.384	4.62
803.128	5.62
803.872	6.62
804.616	5.62
805.36	3.62
806.104	4.62
806.848	5.62
807.592	5.62
808.336	4.62
809.079	3.62
809.823	6.62
810.566	3.62
811.31	4.62
812.053	6.62
812.796	6.62
813.539	4.62
814.283	4.62
815.026	5.62
815.769	4.62
816.511	5.62
817.254	5.62
817.997	2.62
818.74	2.62
819.482	4.62
820.225	2.62
820.967	3.62
821.71	1.62
822.452	2.62
823.194	5.62
823.936	5.62
824.678	3.62
825.42	3.62
826.162	6.62
826.904	5.62
827.646	2.62
828.388	5.62
829.129	1.62
829.871	2.62
830.612	3.62
831.354	5.62
832.095	1.62
832.836	3.62
833.577	2.62
834.319	2.62
835.06	3.62
835.801	3.62
836.542	3.62
837.282	4.62
838.023	0.62
838.764	5.62
839.504	3.62
840.245	4.62
840.985	3.62
841.726	2.62
842.466	2.62
843.206	3.62
843.946	5.62
844.687	2.62
845.427	4.62
846.166	1.62
846.906	2.62
847.646	4.62
848.386	0.62
849.125	3.62
849.865	2.62
850.605	4.62
851.344	2.62
852.083	-0.38
852.823	3.62
853.562	0.62
854.301	0.62
855.04	2.62
855.779	2.62
856.518	3.62
857.257	2.62
857.995	0.62
858.734	3.62
859.473	4.62
860.211	3.62
860.95	3.62
861.688	2.62
862.426	2.62
863.165	2.62
863.903	2.62
864.641	3.62
865.379	0.62
866.117	2.62
866.855	1.62
867.593	1.62
868.33	3.62
869.068	0.62
869.806	1.62
870.543	2.62
871.28	2.62
872.018	2.62
872.755	2.62
873.492	1.62
874.229	1.62
874.967	1.62
875.703	3.62
876.44	1.62
877.177	2.62
877.914	0.62
878.651	0.62
879.387	2.62
880.124	2.62
880.86	2.62
881.597	-1.38
882.333	1.62
883.069	1.62
883.806	3.62
884.542	1.62
885.278	0.62
886.014	1.62
886.749	0.62
887.485	1.62
888.221	2.62
888.957	0.62
889.692	1.62
890.428	2.62
891.163	1.62
891.899	1.62
892.634	1.62
893.369	-1.38
894.104	0.62
894.839	0.62
895.574	1.62
896.309	1.62
897.044	-0.38
897.779	0.62
898.514	1.62
899.248	2.62
899.983	3.62
900.717	0.62
901.452	-1.38
902.186	-0.38
902.92	2.62
903.654	1.62
904.389	2.62
905.123	-0.38
905.857	0.62
906.59	0.62
907.324	-0.38
908.058	1.62
908.792	1.62
909.525	1.62
910.259	-0.38
910.992	0.62
911.726	0.62
912.459	-0.38
913.192	2.62
913.925	0.62
914.658	-0.38
915.391	1.62
916.124	1.62
916.857	0.62
917.59	2.62
918.323	2.62
919.055	-1.38
919.788	1.62
920.521	1.62
921.253	1.62
921.985	1.62
922.718	0.62
923.45	0.62
924.182	1.62
924.914	0.62
925.646	3.62
926.378	-0.38
927.11	2.62
927.841	-0.38
928.573	1.62
929.305	-0.38
930.036	1.62
930.768	0.62
931.499	0.62
932.23	0.62
932.962	0.62
933.693	0.62
934.424	0.62
935.155	-0.38
935.886	-0.38
936.617	1.62
937.348	-0.38
938.078	1.62
938.809	1.62
939.54	1.62
940.27	1.62
941.001	2.62
941.731	0.62
942.461	1.62
943.191	-1.38
943.922	-1.38
944.652	0.62
945.382	1.62
946.112	2.62
946.841	0.62
947.571	-1.38
948.301	-0.38
949.031	-0.38
949.76	1.62
950.49	2.62
951.219	0.62
951.948	0.62
952.678	1.62
953.407	-1.38
954.136	-0.38
954.865	2.62
955.594	1.62
956.323	0.62
957.052	2.62
957.78	1.62
958.509	-1.38
959.238	-0.38
959.966	-0.38
960.695	-1.38
961.423	-0.38
962.151	-1.38
962.88	-1.38
963.608	3.62
964.336	1.62
965.064	0.62
965.792	-0.38
966.52	1.62
967.247	-0.38
967.975	0.62
968.703	2.62
969.43	0.62
970.158	3.62
970.885	1.62
971.613	-1.38
972.34	-0.38
973.067	1.62
973.794	2.62
974.521	0.62
975.248	0.62
975.975	0.62
976.702	0.62
977.429	1.62
978.156	0.62
978.882	1.62
979.609	1.62
980.335	1.62
981.062	-0.38
981.788	0.62
982.514	-1.38
983.24	0.62
983.967	0.62
984.693	0.62
985.419	0.62
986.144	1.62
986.87	3.62
987.596	0.62
988.322	-0.38
989.047	1.62
989.773	-0.38
990.498	2.62
991.224	-0.38
991.949	1.62
992.674	0.62
993.399	1.62
994.124	1.62
994.849	-0.38
995.574	-1.38
996.299	2.62
997.024	-0.38
997.749	0.62
998.473	0.62
999.198	1.62
999.922	0.62
1000.647	1.62
1001.371	2.62
1002.095	-0.38
1002.82	-1.38
1003.544	-0.38
1004.268	0.62
1004.992	0.62
1005.716	1.62
1006.439	1.62
1007.163	2.62
1007.887	1.62
1008.611	0.62
1009.334	-1.38
1010.058	2.62
1010.781	0.62
1011.504	0.62
1012.228	-0.38
1012.951	-0.38
1013.674	-0.38
1014.397	-1.38
1015.12	1.62
