节点500_285_QEPB04081__165__14-58-18-159.txt的数据

Date: Wed Nov 12 14:58:18 CST 2025
User: PC
Spectrometer: QEPB0408
触发模式: 0
积分时间 (秒): 1.000000E-2
Scans to average: 1
启用暗噪声校正: true
启用非线性校正: false
滑动平均宽度: 0
X轴模式: Wavelengths
Number of Pixels in Spectrum: 1044
>>>>>Begin Spectral Data<<<<<
220.843	1.38
221.644	2.38
222.444	1.38
223.244	2.38
224.045	4.38
224.845	2.38
225.645	1.38
226.445	3.38
227.245	3.38
228.045	3.38
228.845	-0.62
229.645	5.38
230.444	3.38
231.244	5.38
232.043	3.38
232.843	3.38
233.642	4.38
234.442	1.38
235.241	3.38
236.04	3.38
236.839	3.38
237.638	5.38
238.437	2.38
239.236	3.38
240.035	2.38
240.833	4.38
241.632	4.38
242.43	2.38
243.229	4.38
244.027	3.38
244.826	6.38
245.624	3.38
246.422	5.38
247.22	6.38
248.018	5.38
248.816	7.38
249.614	7.38
250.412	7.38
251.21	8.38
252.007	6.38
252.805	8.38
253.602	7.38
254.4	7.38
255.197	6.38
255.994	7.38
256.791	9.38
257.589	9.38
258.386	7.38
259.183	8.38
259.979	11.38
260.776	13.38
261.573	9.38
262.37	10.38
263.166	9.38
263.963	11.38
264.759	10.38
265.556	10.38
266.352	12.38
267.148	13.38
267.944	13.38
268.74	11.38
269.536	15.38
270.332	15.38
271.128	14.38
271.924	15.38
272.719	15.38
273.515	17.38
274.311	15.38
275.106	19.38
275.901	15.38
276.697	17.38
277.492	19.38
278.287	20.38
279.082	19.38
279.877	19.38
280.672	20.38
281.467	20.38
282.262	16.38
283.056	21.38
283.851	18.38
284.646	18.38
285.44	20.38
286.234	19.38
287.029	21.38
287.823	18.38
288.617	21.38
289.411	17.38
290.205	19.38
290.999	19.38
291.793	17.38
292.587	19.38
293.381	19.38
294.174	15.38
294.968	17.38
295.761	15.38
296.555	16.38
297.348	14.38
298.141	15.38
298.935	15.38
299.728	15.38
300.521	14.38
301.314	13.38
302.107	15.38
302.899	12.38
303.692	13.38
304.485	12.38
305.277	12.38
306.07	15.38
306.862	12.38
307.655	10.38
308.447	12.38
309.239	11.38
310.031	13.38
310.823	10.38
311.615	12.38
312.407	9.38
313.199	10.38
313.991	7.38
314.783	7.38
315.574	7.38
316.366	9.38
317.157	9.38
317.949	7.38
318.74	6.38
319.531	8.38
320.322	8.38
321.113	8.38
321.904	7.38
322.695	8.38
323.486	6.38
324.277	7.38
325.068	6.38
325.858	8.38
326.649	10.38
327.439	8.38
328.23	5.38
329.02	7.38
329.81	6.38
330.6	8.38
331.391	5.38
332.181	7.38
332.971	7.38
333.76	4.38
334.55	7.38
335.34	6.38
336.13	7.38
336.919	9.38
337.709	9.38
338.498	3.38
339.287	7.38
340.077	5.38
340.866	7.38
341.655	6.38
342.444	6.38
343.233	5.38
344.022	9.38
344.811	5.38
345.6	3.38
346.388	5.38
347.177	5.38
347.965	5.38
348.754	6.38
349.542	7.38
350.33	6.38
351.119	7.38
351.907	5.38
352.695	5.38
353.483	6.38
354.271	4.38
355.059	6.38
355.846	8.38
356.634	6.38
357.422	5.38
358.209	5.38
358.997	5.38
359.784	4.38
360.571	7.38
361.359	3.38
362.146	3.38
362.933	5.38
363.72	5.38
364.507	6.38
365.294	5.38
366.081	7.38
366.867	5.38
367.654	3.38
368.44	6.38
369.227	5.38
370.013	6.38
370.8	3.38
371.586	5.38
372.372	6.38
373.158	2.38
373.944	7.38
374.73	3.38
375.516	1.38
376.302	4.38
377.088	6.38
377.873	7.38
378.659	2.38
379.445	4.38
380.23	4.38
381.015	5.38
381.801	5.38
382.586	5.38
383.371	5.38
384.156	4.38
384.941	2.38
385.726	5.38
386.511	5.38
387.296	6.38
388.08	4.38
388.865	6.38
389.649	3.38
390.434	6.38
391.218	4.38
392.003	4.38
392.787	7.38
393.571	7.38
394.355	6.38
395.139	5.38
395.923	6.38
396.707	7.38
397.491	7.38
398.274	7.38
399.058	6.38
399.842	6.38
400.625	8.38
401.408	5.38
402.192	7.38
402.975	9.38
403.758	7.38
404.541	5.38
405.324	6.38
406.107	8.38
406.89	5.38
407.673	7.38
408.456	9.38
409.238	7.38
410.021	9.38
410.803	7.38
411.586	7.38
412.368	8.38
413.151	7.38
413.933	9.38
414.715	9.38
415.497	9.38
416.279	6.38
417.061	8.38
417.843	9.38
418.624	9.38
419.406	11.38
420.188	9.38
420.969	9.38
421.751	10.38
422.532	13.38
423.313	11.38
424.095	9.38
424.876	10.38
425.657	10.38
426.438	13.38
427.219	10.38
428	15.38
428.78	12.38
429.561	13.38
430.342	15.38
431.122	14.38
431.903	15.38
432.683	16.38
433.464	17.38
434.244	15.38
435.024	20.38
435.804	17.38
436.584	16.38
437.364	21.38
438.144	20.38
438.924	20.38
439.704	23.38
440.483	21.38
441.263	24.38
442.042	25.38
442.822	26.38
443.601	29.38
444.38	27.38
445.16	31.38
445.939	30.38
446.718	32.38
447.497	40.38
448.276	40.38
449.054	46.38
449.833	47.38
450.612	50.38
451.391	61.38
452.169	59.38
452.948	66.38
453.726	72.38
454.504	77.38
455.282	86.38
456.061	96.38
456.839	101.38
457.617	115.38
458.395	128.38
459.172	144.38
459.95	157.38
460.728	177.38
461.506	198.38
462.283	217.38
463.061	249.38
463.838	280.38
464.615	306.38
465.393	343.38
466.17	381.38
466.947	434.38
467.724	478.38
468.501	533.38
469.278	599.38
470.055	663.38
470.831	735.38
471.608	828.38
472.385	920.38
473.161	1019.38
473.938	1155.38
474.714	1263.38
475.49	1400.38
476.266	1556.38
477.043	1732.38
477.819	1927.38
478.595	2130.38
479.371	2343.38
480.146	2596.38
480.922	2852.38
481.698	3174.38
482.473	3515.38
483.249	3852.38
484.024	4281.38
484.8	4688.38
485.575	5174.38
486.35	5740.38
487.126	6313.38
487.901	6918.38
488.676	7608.38
489.451	8352.38
490.225	9158.38
491	10027.38
491.775	10978.38
492.55	11954.38
493.324	13043.38
494.099	14019.38
494.873	15151.38
495.647	16324.38
496.422	17582.38
497.196	18819.38
497.97	20052.38
498.744	21347.38
499.518	22537.38
500.292	23701.38
501.066	24770.38
501.839	25726.38
502.613	26600.38
503.387	27302.38
504.16	27910.38
504.934	28132.38
505.707	28248.38
506.48	28270.38
507.253	28047.38
508.027	27672.38
508.8	27268.38
509.573	26662.38
510.346	26005.38
511.118	25198.38
511.891	24281.38
512.664	23383.38
513.437	22431.38
514.209	21400.38
514.982	20527.38
515.754	19626.38
516.526	18694.38
517.298	17858.38
518.071	17142.38
518.843	16428.38
519.615	15784.38
520.387	15154.38
521.159	14575.38
521.93	13977.38
522.702	13459.38
523.474	12890.38
524.245	12358.38
525.017	11799.38
525.788	11372.38
526.56	10779.38
527.331	10269.38
528.102	9832.38
528.873	9360.38
529.644	8873.38
530.415	8439.38
531.186	7985.38
531.957	7559.38
532.728	7181.38
533.498	6783.38
534.269	6416.38
535.039	6052.38
535.81	5723.38
536.58	5379.38
537.351	5066.38
538.121	4799.38
538.891	4561.38
539.661	4329.38
540.431	4061.38
541.201	3818.38
541.971	3631.38
542.741	3456.38
543.51	3284.38
544.28	3133.38
545.05	2978.38
545.819	2826.38
546.588	2679.38
547.358	2528.38
548.127	2416.38
548.896	2296.38
549.665	2186.38
550.434	2055.38
551.203	1941.38
551.972	1857.38
552.741	1737.38
553.51	1642.38
554.278	1559.38
555.047	1461.38
555.815	1376.38
556.584	1315.38
557.352	1225.38
558.121	1154.38
558.889	1087.38
559.657	1044.38
560.425	982.38
561.193	921.38
561.961	868.38
562.729	811.38
563.496	772.38
564.264	740.38
565.032	692.38
565.799	657.38
566.567	615.38
567.334	582.38
568.101	558.38
568.869	525.38
569.636	492.38
570.403	459.38
571.17	437.38
571.937	410.38
572.704	388.38
573.471	374.38
574.237	347.38
575.004	325.38
575.771	306.38
576.537	296.38
577.303	273.38
578.07	254.38
578.836	245.38
579.602	228.38
580.368	218.38
581.134	209.38
581.9	193.38
582.666	185.38
583.432	171.38
584.198	168.38
584.964	154.38
585.729	147.38
586.495	140.38
587.26	135.38
588.025	127.38
588.791	119.38
589.556	114.38
590.321	102.38
591.086	100.38
591.851	98.38
592.616	91.38
593.381	88.38
594.146	82.38
594.911	80.38
595.675	77.38
596.44	73.38
597.204	67.38
597.969	67.38
598.733	62.38
599.497	60.38
600.261	62.38
601.025	55.38
601.79	50.38
602.553	54.38
603.317	47.38
604.081	47.38
604.845	46.38
605.609	40.38
606.372	41.38
607.136	40.38
607.899	39.38
608.662	36.38
609.426	36.38
610.189	32.38
610.952	31.38
611.715	30.38
612.478	30.38
613.241	31.38
614.004	30.38
614.767	28.38
615.529	27.38
616.292	26.38
617.055	25.38
617.817	22.38
618.579	21.38
619.342	25.38
620.104	20.38
620.866	25.38
621.628	21.38
622.39	17.38
623.152	17.38
623.914	16.38
624.676	19.38
625.438	15.38
626.199	17.38
626.961	15.38
627.722	14.38
628.484	15.38
629.245	14.38
630.006	14.38
630.768	12.38
631.529	13.38
632.29	13.38
633.051	9.38
633.812	10.38
634.573	10.38
635.333	11.38
636.094	9.38
636.855	10.38
637.615	8.38
638.376	8.38
639.136	9.38
639.896	9.38
640.657	11.38
641.417	11.38
642.177	8.38
642.937	8.38
643.697	7.38
644.457	9.38
645.216	10.38
645.976	8.38
646.736	9.38
647.495	7.38
648.255	8.38
649.014	6.38
649.774	8.38
650.533	8.38
651.292	8.38
652.051	6.38
652.81	5.38
653.569	8.38
654.328	6.38
655.087	7.38
655.846	4.38
656.604	3.38
657.363	5.38
658.121	6.38
658.88	4.38
659.638	4.38
660.397	7.38
661.155	7.38
661.913	1.38
662.671	7.38
663.429	3.38
664.187	5.38
664.945	4.38
665.703	3.38
666.46	7.38
667.218	5.38
667.976	5.38
668.733	6.38
669.49	3.38
670.248	4.38
671.005	4.38
671.762	3.38
672.519	3.38
673.276	4.38
674.033	4.38
674.79	2.38
675.547	5.38
676.304	0.38
677.06	4.38
677.817	2.38
678.574	2.38
679.33	2.38
680.086	4.38
680.843	5.38
681.599	6.38
682.355	3.38
683.111	4.38
683.867	3.38
684.623	4.38
685.379	1.38
686.135	2.38
686.89	5.38
687.646	5.38
688.402	4.38
689.157	5.38
689.912	3.38
690.668	5.38
691.423	4.38
692.178	1.38
692.933	3.38
693.688	5.38
694.443	3.38
695.198	2.38
695.953	4.38
696.708	4.38
697.462	3.38
698.217	2.38
698.972	5.38
699.726	2.38
700.48	4.38
701.235	4.38
701.989	1.38
702.743	5.38
703.497	2.38
704.251	4.38
705.005	3.38
705.759	4.38
706.513	2.38
707.266	3.38
708.02	3.38
708.774	3.38
709.527	4.38
710.28	2.38
711.034	3.38
711.787	3.38
712.54	3.38
713.293	3.38
714.046	2.38
714.799	5.38
715.552	3.38
716.305	3.38
717.058	5.38
717.81	2.38
718.563	2.38
719.315	3.38
720.068	4.38
720.82	2.38
721.573	1.38
722.325	5.38
723.077	3.38
723.829	3.38
724.581	5.38
725.333	5.38
726.085	3.38
726.836	3.38
727.588	2.38
728.34	4.38
729.091	1.38
729.843	5.38
730.594	3.38
731.346	5.38
732.097	4.38
732.848	3.38
733.599	5.38
734.35	4.38
735.101	5.38
735.852	2.38
736.603	5.38
737.354	6.38
738.104	4.38
738.855	3.38
739.605	7.38
740.356	4.38
741.106	4.38
741.856	4.38
742.607	5.38
743.357	3.38
744.107	4.38
744.857	4.38
745.607	4.38
746.357	4.38
747.106	6.38
747.856	5.38
748.606	5.38
749.355	6.38
750.105	4.38
750.854	8.38
751.603	6.38
752.353	6.38
753.102	8.38
753.851	7.38
754.6	5.38
755.349	5.38
756.098	7.38
756.847	6.38
757.595	4.38
758.344	4.38
759.093	4.38
759.841	7.38
760.589	5.38
761.338	6.38
762.086	6.38
762.834	4.38
763.582	6.38
764.331	10.38
765.079	8.38
765.826	5.38
766.574	6.38
767.322	6.38
768.07	9.38
768.817	6.38
769.565	7.38
770.312	7.38
771.06	7.38
771.807	6.38
772.554	8.38
773.302	7.38
774.049	9.38
774.796	8.38
775.543	8.38
776.29	9.38
777.036	7.38
777.783	7.38
778.53	7.38
779.276	9.38
780.023	9.38
780.769	9.38
781.516	8.38
782.262	8.38
783.008	12.38
783.754	8.38
784.5	9.38
785.246	7.38
785.992	8.38
786.738	9.38
787.484	7.38
788.23	10.38
788.975	9.38
789.721	8.38
790.466	7.38
791.212	7.38
791.957	9.38
792.702	9.38
793.447	10.38
794.193	6.38
794.938	8.38
795.683	6.38
796.427	7.38
797.172	7.38
797.917	6.38
798.662	9.38
799.406	7.38
800.151	7.38
800.895	6.38
801.64	6.38
802.384	9.38
803.128	8.38
803.872	7.38
804.616	4.38
805.36	8.38
806.104	7.38
806.848	5.38
807.592	6.38
808.336	3.38
809.079	5.38
809.823	5.38
810.566	3.38
811.31	4.38
812.053	6.38
812.796	5.38
813.539	4.38
814.283	3.38
815.026	4.38
815.769	4.38
816.511	4.38
817.254	3.38
817.997	4.38
818.74	6.38
819.482	5.38
820.225	3.38
820.967	3.38
821.71	5.38
822.452	3.38
823.194	3.38
823.936	6.38
824.678	3.38
825.42	4.38
826.162	6.38
826.904	4.38
827.646	4.38
828.388	5.38
829.129	5.38
829.871	6.38
830.612	3.38
831.354	5.38
832.095	1.38
832.836	5.38
833.577	4.38
834.319	6.38
835.06	2.38
835.801	3.38
836.542	3.38
837.282	1.38
838.023	2.38
838.764	2.38
839.504	3.38
840.245	4.38
840.985	2.38
841.726	5.38
842.466	1.38
843.206	4.38
843.946	2.38
844.687	3.38
845.427	3.38
846.166	4.38
846.906	3.38
847.646	4.38
848.386	4.38
849.125	5.38
849.865	2.38
850.605	4.38
851.344	1.38
852.083	3.38
852.823	2.38
853.562	2.38
854.301	2.38
855.04	4.38
855.779	3.38
856.518	2.38
857.257	2.38
857.995	3.38
858.734	2.38
859.473	3.38
860.211	-0.62
860.95	3.38
861.688	3.38
862.426	4.38
863.165	0.38
863.903	1.38
864.641	2.38
865.379	2.38
866.117	1.38
866.855	2.38
867.593	0.38
868.33	3.38
869.068	4.38
869.806	0.38
870.543	4.38
871.28	1.38
872.018	1.38
872.755	1.38
873.492	3.38
874.229	3.38
874.967	2.38
875.703	2.38
876.44	1.38
877.177	3.38
877.914	0.38
878.651	0.38
879.387	0.38
880.124	0.38
880.86	0.38
881.597	2.38
882.333	-0.62
883.069	0.38
883.806	1.38
884.542	0.38
885.278	-0.62
886.014	2.38
886.749	1.38
887.485	1.38
888.221	-0.62
888.957	-0.62
889.692	1.38
890.428	-0.62
891.163	0.38
891.899	1.38
892.634	2.38
893.369	1.38
894.104	-0.62
894.839	1.38
895.574	0.38
896.309	0.38
897.044	1.38
897.779	1.38
898.514	1.38
899.248	2.38
899.983	0.38
900.717	3.38
901.452	0.38
902.186	-0.62
902.92	-0.62
903.654	2.38
904.389	-0.62
905.123	1.38
905.857	-0.62
906.59	0.38
907.324	0.38
908.058	2.38
908.792	-0.62
909.525	0.38
910.259	0.38
910.992	-1.62
911.726	0.38
912.459	3.38
913.192	0.38
913.925	1.38
914.658	-0.62
915.391	-2.62
916.124	1.38
916.857	1.38
917.59	0.38
918.323	0.38
919.055	1.38
919.788	-0.62
920.521	-0.62
921.253	0.38
921.985	-1.62
922.718	1.38
923.45	-1.62
924.182	0.38
924.914	-2.62
925.646	0.38
926.378	1.38
927.11	0.38
927.841	1.38
928.573	1.38
929.305	0.38
930.036	1.38
930.768	0.38
931.499	0.38
932.23	-0.62
932.962	-0.62
933.693	-0.62
934.424	0.38
935.155	2.38
935.886	-0.62
936.617	-0.62
937.348	-0.62
938.078	0.38
938.809	-0.62
939.54	-1.62
940.27	-1.62
941.001	-0.62
941.731	0.38
942.461	2.38
943.191	1.38
943.922	1.38
944.652	1.38
945.382	1.38
946.112	1.38
946.841	2.38
947.571	0.38
948.301	-0.62
949.031	3.38
949.76	1.38
950.49	2.38
951.219	1.38
951.948	2.38
952.678	0.38
953.407	1.38
954.136	2.38
954.865	-1.62
955.594	-0.62
956.323	0.38
957.052	0.38
957.78	1.38
958.509	0.38
959.238	-0.62
959.966	-1.62
960.695	0.38
961.423	-1.62
962.151	-0.62
962.88	0.38
963.608	1.38
964.336	0.38
965.064	0.38
965.792	1.38
966.52	3.38
967.247	-0.62
967.975	1.38
968.703	1.38
969.43	-1.62
970.158	0.38
970.885	-1.62
971.613	0.38
972.34	1.38
973.067	0.38
973.794	1.38
974.521	-0.62
975.248	-1.62
975.975	0.38
976.702	1.38
977.429	0.38
978.156	-1.62
978.882	-0.62
979.609	0.38
980.335	1.38
981.062	0.38
981.788	2.38
982.514	-0.62
983.24	1.38
983.967	1.38
984.693	-1.62
985.419	-0.62
986.144	-0.62
986.87	1.38
987.596	-0.62
988.322	-0.62
989.047	1.38
989.773	-0.62
990.498	-0.62
991.224	2.38
991.949	0.38
992.674	1.38
993.399	-1.62
994.124	1.38
994.849	0.38
995.574	1.38
996.299	1.38
997.024	-0.62
997.749	2.38
998.473	1.38
999.198	0.38
999.922	-0.62
1000.647	1.38
1001.371	4.38
1002.095	-1.62
1002.82	-0.62
1003.544	-2.62
1004.268	0.38
1004.992	2.38
1005.716	1.38
1006.439	0.38
1007.163	0.38
1007.887	1.38
1008.611	1.38
1009.334	-0.62
1010.058	0.38
1010.781	-0.62
1011.504	0.38
1012.228	0.38
1012.951	2.38
1013.674	-0.62
1014.397	-0.62
1015.12	-0.62
