节点500_285_QEPB04081__555__15-04-47-267.txt的数据

Date: Wed Nov 12 15:04:47 CST 2025
User: PC
Spectrometer: QEPB0408
触发模式: 0
积分时间 (秒): 1.000000E-2
Scans to average: 1
启用暗噪声校正: true
启用非线性校正: false
滑动平均宽度: 0
X轴模式: Wavelengths
Number of Pixels in Spectrum: 1044
>>>>>Begin Spectral Data<<<<<
220.843	0.25
221.644	0.25
222.444	1.25
223.244	2.25
224.045	2.25
224.845	3.25
225.645	1.25
226.445	4.25
227.245	2.25
228.045	2.25
228.845	1.25
229.645	1.25
230.444	3.25
231.244	4.25
232.043	2.25
232.843	3.25
233.642	3.25
234.442	2.25
235.241	3.25
236.04	1.25
236.839	2.25
237.638	5.25
238.437	3.25
239.236	4.25
240.035	3.25
240.833	4.25
241.632	4.25
242.43	6.25
243.229	2.25
244.027	5.25
244.826	7.25
245.624	5.25
246.422	6.25
247.22	5.25
248.018	5.25
248.816	6.25
249.614	6.25
250.412	6.25
251.21	7.25
252.007	4.25
252.805	7.25
253.602	6.25
254.4	8.25
255.197	8.25
255.994	5.25
256.791	7.25
257.589	8.25
258.386	7.25
259.183	7.25
259.979	9.25
260.776	7.25
261.573	9.25
262.37	12.25
263.166	9.25
263.963	11.25
264.759	8.25
265.556	9.25
266.352	10.25
267.148	12.25
267.944	11.25
268.74	10.25
269.536	13.25
270.332	12.25
271.128	13.25
271.924	13.25
272.719	11.25
273.515	17.25
274.311	14.25
275.106	16.25
275.901	16.25
276.697	16.25
277.492	17.25
278.287	19.25
279.082	18.25
279.877	15.25
280.672	18.25
281.467	16.25
282.262	17.25
283.056	18.25
283.851	16.25
284.646	18.25
285.44	20.25
286.234	20.25
287.029	17.25
287.823	13.25
288.617	16.25
289.411	20.25
290.205	16.25
290.999	20.25
291.793	15.25
292.587	19.25
293.381	14.25
294.174	17.25
294.968	15.25
295.761	15.25
296.555	15.25
297.348	14.25
298.141	16.25
298.935	17.25
299.728	14.25
300.521	15.25
301.314	15.25
302.107	13.25
302.899	11.25
303.692	14.25
304.485	12.25
305.277	13.25
306.07	11.25
306.862	11.25
307.655	12.25
308.447	12.25
309.239	12.25
310.031	8.25
310.823	11.25
311.615	9.25
312.407	11.25
313.199	9.25
313.991	7.25
314.783	9.25
315.574	10.25
316.366	9.25
317.157	7.25
317.949	7.25
318.74	5.25
319.531	9.25
320.322	8.25
321.113	7.25
321.904	5.25
322.695	9.25
323.486	6.25
324.277	7.25
325.068	6.25
325.858	7.25
326.649	6.25
327.439	6.25
328.23	5.25
329.02	4.25
329.81	5.25
330.6	7.25
331.391	6.25
332.181	9.25
332.971	6.25
333.76	6.25
334.55	6.25
335.34	6.25
336.13	6.25
336.919	4.25
337.709	8.25
338.498	6.25
339.287	6.25
340.077	6.25
340.866	5.25
341.655	4.25
342.444	7.25
343.233	7.25
344.022	5.25
344.811	5.25
345.6	6.25
346.388	5.25
347.177	7.25
347.965	7.25
348.754	5.25
349.542	3.25
350.33	4.25
351.119	5.25
351.907	3.25
352.695	6.25
353.483	3.25
354.271	8.25
355.059	4.25
355.846	5.25
356.634	4.25
357.422	6.25
358.209	7.25
358.997	6.25
359.784	4.25
360.571	6.25
361.359	4.25
362.146	8.25
362.933	5.25
363.72	4.25
364.507	5.25
365.294	1.25
366.081	6.25
366.867	5.25
367.654	5.25
368.44	4.25
369.227	2.25
370.013	4.25
370.8	3.25
371.586	2.25
372.372	4.25
373.158	5.25
373.944	1.25
374.73	5.25
375.516	6.25
376.302	5.25
377.088	6.25
377.873	5.25
378.659	6.25
379.445	5.25
380.23	5.25
381.015	5.25
381.801	4.25
382.586	6.25
383.371	2.25
384.156	3.25
384.941	3.25
385.726	6.25
386.511	5.25
387.296	4.25
388.08	6.25
388.865	4.25
389.649	5.25
390.434	5.25
391.218	5.25
392.003	8.25
392.787	4.25
393.571	7.25
394.355	4.25
395.139	5.25
395.923	7.25
396.707	5.25
397.491	7.25
398.274	5.25
399.058	7.25
399.842	7.25
400.625	5.25
401.408	4.25
402.192	5.25
402.975	9.25
403.758	4.25
404.541	6.25
405.324	7.25
406.107	7.25
406.89	6.25
407.673	5.25
408.456	6.25
409.238	6.25
410.021	9.25
410.803	8.25
411.586	7.25
412.368	9.25
413.151	8.25
413.933	8.25
414.715	8.25
415.497	9.25
416.279	9.25
417.061	9.25
417.843	13.25
418.624	10.25
419.406	9.25
420.188	8.25
420.969	9.25
421.751	11.25
422.532	6.25
423.313	11.25
424.095	12.25
424.876	9.25
425.657	9.25
426.438	12.25
427.219	12.25
428	12.25
428.78	13.25
429.561	16.25
430.342	12.25
431.122	16.25
431.903	14.25
432.683	15.25
433.464	15.25
434.244	17.25
435.024	15.25
435.804	16.25
436.584	19.25
437.364	19.25
438.144	16.25
438.924	19.25
439.704	22.25
440.483	22.25
441.263	22.25
442.042	25.25
442.822	25.25
443.601	30.25
444.38	29.25
445.16	28.25
445.939	30.25
446.718	34.25
447.497	39.25
448.276	41.25
449.054	43.25
449.833	53.25
450.612	54.25
451.391	58.25
452.169	64.25
452.948	72.25
453.726	79.25
454.504	87.25
455.282	92.25
456.061	108.25
456.839	113.25
457.617	132.25
458.395	141.25
459.172	160.25
459.95	168.25
460.728	197.25
461.506	216.25
462.283	242.25
463.061	274.25
463.838	302.25
464.615	339.25
465.393	379.25
466.17	422.25
466.947	462.25
467.724	516.25
468.501	578.25
469.278	651.25
470.055	709.25
470.831	790.25
471.608	881.25
472.385	980.25
473.161	1090.25
473.938	1188.25
474.714	1307.25
475.49	1436.25
476.266	1612.25
477.043	1784.25
477.819	1951.25
478.595	2134.25
479.371	2358.25
480.146	2583.25
480.922	2839.25
481.698	3121.25
482.473	3419.25
483.249	3753.25
484.024	4117.25
484.8	4498.25
485.575	4932.25
486.35	5417.25
487.126	5926.25
487.901	6444.25
488.676	7055.25
489.451	7715.25
490.225	8426.25
491	9175.25
491.775	10005.25
492.55	10899.25
493.324	11730.25
494.099	12677.25
494.873	13585.25
495.647	14713.25
496.422	15719.25
497.196	16863.25
497.97	17891.25
498.744	19119.25
499.518	20218.25
500.292	21313.25
501.066	22365.25
501.839	23297.25
502.613	24249.25
503.387	25011.25
504.16	25726.25
504.934	26048.25
505.707	26392.25
506.48	26532.25
507.253	26601.25
508.027	26388.25
508.8	26229.25
509.573	25903.25
510.346	25391.25
511.118	24800.25
511.891	24121.25
512.664	23329.25
513.437	22509.25
514.209	21664.25
514.982	20801.25
515.754	19969.25
516.526	19062.25
517.298	18259.25
518.071	17420.25
518.843	16861.25
519.615	16191.25
520.387	15524.25
521.159	14919.25
521.93	14342.25
522.702	13752.25
523.474	13181.25
524.245	12605.25
525.017	12053.25
525.788	11645.25
526.56	11115.25
527.331	10626.25
528.102	10117.25
528.873	9677.25
529.644	9226.25
530.415	8779.25
531.186	8349.25
531.957	7932.25
532.728	7542.25
533.498	7177.25
534.269	6756.25
535.039	6415.25
535.81	6046.25
536.58	5715.25
537.351	5393.25
538.121	5101.25
538.891	4821.25
539.661	4572.25
540.431	4301.25
541.201	4085.25
541.971	3854.25
542.741	3643.25
543.51	3481.25
544.28	3312.25
545.05	3141.25
545.819	2996.25
546.588	2851.25
547.358	2680.25
548.127	2550.25
548.896	2452.25
549.665	2306.25
550.434	2181.25
551.203	2058.25
551.972	1974.25
552.741	1849.25
553.51	1773.25
554.278	1660.25
555.047	1582.25
555.815	1484.25
556.584	1393.25
557.352	1326.25
558.121	1257.25
558.889	1190.25
559.657	1118.25
560.425	1040.25
561.193	990.25
561.961	934.25
562.729	891.25
563.496	844.25
564.264	799.25
565.032	744.25
565.799	706.25
566.567	673.25
567.334	629.25
568.101	591.25
568.869	564.25
569.636	531.25
570.403	493.25
571.17	469.25
571.937	437.25
572.704	423.25
573.471	401.25
574.237	377.25
575.004	357.25
575.771	333.25
576.537	318.25
577.303	298.25
578.07	281.25
578.836	262.25
579.602	245.25
580.368	233.25
581.134	218.25
581.9	213.25
582.666	196.25
583.432	194.25
584.198	173.25
584.964	166.25
585.729	163.25
586.495	152.25
587.26	141.25
588.025	137.25
588.791	127.25
589.556	120.25
590.321	117.25
591.086	106.25
591.851	106.25
592.616	100.25
593.381	98.25
594.146	92.25
594.911	89.25
595.675	83.25
596.44	82.25
597.204	75.25
597.969	70.25
598.733	67.25
599.497	64.25
600.261	63.25
601.025	59.25
601.79	55.25
602.553	53.25
603.317	50.25
604.081	47.25
604.845	49.25
605.609	46.25
606.372	42.25
607.136	41.25
607.899	40.25
608.662	37.25
609.426	36.25
610.189	35.25
610.952	31.25
611.715	32.25
612.478	30.25
613.241	29.25
614.004	29.25
614.767	30.25
615.529	29.25
616.292	25.25
617.055	26.25
617.817	21.25
618.579	22.25
619.342	22.25
620.104	22.25
620.866	22.25
621.628	19.25
622.39	20.25
623.152	20.25
623.914	19.25
624.676	14.25
625.438	17.25
626.199	20.25
626.961	18.25
627.722	14.25
628.484	15.25
629.245	14.25
630.006	12.25
630.768	12.25
631.529	12.25
632.29	13.25
633.051	11.25
633.812	10.25
634.573	11.25
635.333	13.25
636.094	10.25
636.855	7.25
637.615	10.25
638.376	10.25
639.136	8.25
639.896	9.25
640.657	9.25
641.417	8.25
642.177	10.25
642.937	7.25
643.697	9.25
644.457	9.25
645.216	9.25
645.976	8.25
646.736	9.25
647.495	7.25
648.255	6.25
649.014	6.25
649.774	7.25
650.533	6.25
651.292	6.25
652.051	6.25
652.81	9.25
653.569	5.25
654.328	6.25
655.087	3.25
655.846	5.25
656.604	2.25
657.363	5.25
658.121	5.25
658.88	4.25
659.638	5.25
660.397	5.25
661.155	4.25
661.913	3.25
662.671	4.25
663.429	3.25
664.187	5.25
664.945	4.25
665.703	5.25
666.46	6.25
667.218	4.25
667.976	2.25
668.733	5.25
669.49	5.25
670.248	4.25
671.005	4.25
671.762	1.25
672.519	5.25
673.276	4.25
674.033	4.25
674.79	4.25
675.547	3.25
676.304	4.25
677.06	1.25
677.817	6.25
678.574	4.25
679.33	4.25
680.086	4.25
680.843	3.25
681.599	1.25
682.355	3.25
683.111	4.25
683.867	3.25
684.623	4.25
685.379	4.25
686.135	1.25
686.89	3.25
687.646	5.25
688.402	2.25
689.157	3.25
689.912	4.25
690.668	2.25
691.423	2.25
692.178	3.25
692.933	0.25
693.688	4.25
694.443	2.25
695.198	0.25
695.953	5.25
696.708	2.25
697.462	3.25
698.217	4.25
698.972	3.25
699.726	2.25
700.48	3.25
701.235	2.25
701.989	1.25
702.743	3.25
703.497	1.25
704.251	4.25
705.005	2.25
705.759	3.25
706.513	4.25
707.266	3.25
708.02	2.25
708.774	2.25
709.527	3.25
710.28	2.25
711.034	1.25
711.787	6.25
712.54	3.25
713.293	4.25
714.046	0.25
714.799	3.25
715.552	2.25
716.305	2.25
717.058	2.25
717.81	2.25
718.563	2.25
719.315	2.25
720.068	3.25
720.82	4.25
721.573	4.25
722.325	3.25
723.077	4.25
723.829	2.25
724.581	3.25
725.333	5.25
726.085	3.25
726.836	2.25
727.588	3.25
728.34	4.25
729.091	6.25
729.843	3.25
730.594	4.25
731.346	3.25
732.097	1.25
732.848	4.25
733.599	4.25
734.35	3.25
735.101	4.25
735.852	5.25
736.603	4.25
737.354	3.25
738.104	3.25
738.855	4.25
739.605	4.25
740.356	5.25
741.106	4.25
741.856	4.25
742.607	5.25
743.357	6.25
744.107	0.25
744.857	4.25
745.607	6.25
746.357	6.25
747.106	7.25
747.856	2.25
748.606	4.25
749.355	3.25
750.105	6.25
750.854	5.25
751.603	6.25
752.353	5.25
753.102	5.25
753.851	1.25
754.6	2.25
755.349	5.25
756.098	4.25
756.847	2.25
757.595	6.25
758.344	6.25
759.093	5.25
759.841	8.25
760.589	4.25
761.338	5.25
762.086	4.25
762.834	8.25
763.582	6.25
764.331	8.25
765.079	5.25
765.826	5.25
766.574	9.25
767.322	3.25
768.07	8.25
768.817	9.25
769.565	5.25
770.312	7.25
771.06	5.25
771.807	6.25
772.554	6.25
773.302	7.25
774.049	6.25
774.796	4.25
775.543	7.25
776.29	8.25
777.036	7.25
777.783	6.25
778.53	8.25
779.276	11.25
780.023	9.25
780.769	7.25
781.516	6.25
782.262	10.25
783.008	8.25
783.754	10.25
784.5	7.25
785.246	9.25
785.992	6.25
786.738	6.25
787.484	6.25
788.23	5.25
788.975	8.25
789.721	9.25
790.466	8.25
791.212	7.25
791.957	9.25
792.702	7.25
793.447	10.25
794.193	9.25
794.938	8.25
795.683	7.25
796.427	8.25
797.172	6.25
797.917	5.25
798.662	7.25
799.406	6.25
800.151	9.25
800.895	6.25
801.64	5.25
802.384	6.25
803.128	6.25
803.872	6.25
804.616	7.25
805.36	6.25
806.104	7.25
806.848	5.25
807.592	5.25
808.336	5.25
809.079	5.25
809.823	5.25
810.566	3.25
811.31	5.25
812.053	6.25
812.796	2.25
813.539	4.25
814.283	5.25
815.026	7.25
815.769	4.25
816.511	5.25
817.254	6.25
817.997	7.25
818.74	5.25
819.482	4.25
820.225	4.25
820.967	4.25
821.71	4.25
822.452	3.25
823.194	3.25
823.936	2.25
824.678	3.25
825.42	2.25
826.162	-0.75
826.904	4.25
827.646	4.25
828.388	3.25
829.129	3.25
829.871	3.25
830.612	3.25
831.354	2.25
832.095	1.25
832.836	2.25
833.577	4.25
834.319	2.25
835.06	0.25
835.801	3.25
836.542	1.25
837.282	4.25
838.023	3.25
838.764	5.25
839.504	1.25
840.245	0.25
840.985	5.25
841.726	2.25
842.466	3.25
843.206	2.25
843.946	1.25
844.687	2.25
845.427	0.25
846.166	4.25
846.906	1.25
847.646	6.25
848.386	1.25
849.125	0.25
849.865	3.25
850.605	2.25
851.344	2.25
852.083	1.25
852.823	2.25
853.562	2.25
854.301	2.25
855.04	3.25
855.779	2.25
856.518	2.25
857.257	0.25
857.995	4.25
858.734	3.25
859.473	1.25
860.211	4.25
860.95	0.25
861.688	-0.75
862.426	1.25
863.165	2.25
863.903	1.25
864.641	1.25
865.379	2.25
866.117	2.25
866.855	2.25
867.593	1.25
868.33	1.25
869.068	3.25
869.806	1.25
870.543	1.25
871.28	0.25
872.018	1.25
872.755	1.25
873.492	1.25
874.229	2.25
874.967	1.25
875.703	0.25
876.44	0.25
877.177	-2.75
877.914	0.25
878.651	-1.75
879.387	2.25
880.124	0.25
880.86	0.25
881.597	1.25
882.333	1.25
883.069	3.25
883.806	1.25
884.542	1.25
885.278	0.25
886.014	1.25
886.749	-0.75
887.485	0.25
888.221	0.25
888.957	1.25
889.692	0.25
890.428	-0.75
891.163	0.25
891.899	2.25
892.634	2.25
893.369	1.25
894.104	-0.75
894.839	1.25
895.574	3.25
896.309	0.25
897.044	-1.75
897.779	-0.75
898.514	2.25
899.248	1.25
899.983	-0.75
900.717	-1.75
901.452	0.25
902.186	1.25
902.92	0.25
903.654	3.25
904.389	0.25
905.123	-0.75
905.857	1.25
906.59	1.25
907.324	0.25
908.058	1.25
908.792	1.25
909.525	0.25
910.259	1.25
910.992	1.25
911.726	-0.75
912.459	1.25
913.192	0.25
913.925	-2.75
914.658	0.25
915.391	0.25
916.124	1.25
916.857	-0.75
917.59	-0.75
918.323	-0.75
919.055	-1.75
919.788	-1.75
920.521	0.25
921.253	0.25
921.985	-1.75
922.718	-1.75
923.45	0.25
924.182	-1.75
924.914	-1.75
925.646	-0.75
926.378	1.25
927.11	0.25
927.841	1.25
928.573	-0.75
929.305	-0.75
930.036	-0.75
930.768	0.25
931.499	-0.75
932.23	0.25
932.962	-0.75
933.693	0.25
934.424	-1.75
935.155	-0.75
935.886	-0.75
936.617	1.25
937.348	-0.75
938.078	0.25
938.809	-0.75
939.54	-0.75
940.27	-0.75
941.001	-1.75
941.731	-0.75
942.461	0.25
943.191	1.25
943.922	-0.75
944.652	1.25
945.382	-1.75
946.112	-1.75
946.841	0.25
947.571	-0.75
948.301	0.25
949.031	-0.75
949.76	0.25
950.49	-0.75
951.219	-0.75
951.948	-1.75
952.678	-0.75
953.407	-1.75
954.136	0.25
954.865	0.25
955.594	-1.75
956.323	2.25
957.052	0.25
957.78	1.25
958.509	-0.75
959.238	0.25
959.966	-0.75
960.695	-2.75
961.423	1.25
962.151	-1.75
962.88	-0.75
963.608	-0.75
964.336	-1.75
965.064	-0.75
965.792	1.25
966.52	-1.75
967.247	3.25
967.975	0.25
968.703	0.25
969.43	-0.75
970.158	-0.75
970.885	0.25
971.613	1.25
972.34	0.25
973.067	1.25
973.794	-2.75
974.521	-0.75
975.248	1.25
975.975	-2.75
976.702	1.25
977.429	-2.75
978.156	0.25
978.882	-0.75
979.609	-1.75
980.335	1.25
981.062	1.25
981.788	-0.75
982.514	-0.75
983.24	-0.75
983.967	0.25
984.693	0.25
985.419	1.25
986.144	0.25
986.87	0.25
987.596	0.25
988.322	1.25
989.047	-0.75
989.773	1.25
990.498	-0.75
991.224	2.25
991.949	-0.75
992.674	-0.75
993.399	0.25
994.124	0.25
994.849	1.25
995.574	0.25
996.299	-1.75
997.024	0.25
997.749	0.25
998.473	-0.75
999.198	0.25
999.922	-1.75
1000.647	0.25
1001.371	4.25
1002.095	-2.75
1002.82	-0.75
1003.544	-0.75
1004.268	1.25
1004.992	0.25
1005.716	0.25
1006.439	0.25
1007.163	-1.75
1007.887	0.25
1008.611	0.25
1009.334	-0.75
1010.058	-0.75
1010.781	-0.75
1011.504	3.25
1012.228	-0.75
1012.951	-1.75
1013.674	2.25
1014.397	0.25
1015.12	-0.75
