节点500_285_QEPB04081__801__15-08-52-755.txt的数据

Date: Wed Nov 12 15:08:52 CST 2025
User: PC
Spectrometer: QEPB0408
触发模式: 0
积分时间 (秒): 1.000000E-2
Scans to average: 1
启用暗噪声校正: true
启用非线性校正: false
滑动平均宽度: 0
X轴模式: Wavelengths
Number of Pixels in Spectrum: 1044
>>>>>Begin Spectral Data<<<<<
220.843	2.25
221.644	4.25
222.444	2.25
223.244	3.25
224.045	0.25
224.845	3.25
225.645	-0.75
226.445	3.25
227.245	4.25
228.045	3.25
228.845	5.25
229.645	5.25
230.444	2.25
231.244	2.25
232.043	4.25
232.843	5.25
233.642	2.25
234.442	4.25
235.241	5.25
236.04	2.25
236.839	6.25
237.638	3.25
238.437	5.25
239.236	3.25
240.035	5.25
240.833	4.25
241.632	4.25
242.43	5.25
243.229	2.25
244.027	3.25
244.826	5.25
245.624	4.25
246.422	6.25
247.22	6.25
248.018	6.25
248.816	6.25
249.614	5.25
250.412	5.25
251.21	4.25
252.007	7.25
252.805	9.25
253.602	8.25
254.4	6.25
255.197	7.25
255.994	5.25
256.791	8.25
257.589	9.25
258.386	8.25
259.183	8.25
259.979	7.25
260.776	7.25
261.573	10.25
262.37	8.25
263.166	11.25
263.963	11.25
264.759	11.25
265.556	12.25
266.352	13.25
267.148	11.25
267.944	12.25
268.74	13.25
269.536	11.25
270.332	13.25
271.128	13.25
271.924	16.25
272.719	14.25
273.515	13.25
274.311	15.25
275.106	16.25
275.901	18.25
276.697	14.25
277.492	16.25
278.287	17.25
279.082	15.25
279.877	16.25
280.672	18.25
281.467	16.25
282.262	17.25
283.056	17.25
283.851	19.25
284.646	14.25
285.44	18.25
286.234	15.25
287.029	16.25
287.823	17.25
288.617	17.25
289.411	18.25
290.205	18.25
290.999	18.25
291.793	17.25
292.587	15.25
293.381	14.25
294.174	16.25
294.968	16.25
295.761	15.25
296.555	14.25
297.348	16.25
298.141	16.25
298.935	16.25
299.728	14.25
300.521	14.25
301.314	15.25
302.107	12.25
302.899	14.25
303.692	14.25
304.485	11.25
305.277	12.25
306.07	14.25
306.862	14.25
307.655	11.25
308.447	13.25
309.239	13.25
310.031	10.25
310.823	10.25
311.615	8.25
312.407	11.25
313.199	10.25
313.991	11.25
314.783	8.25
315.574	10.25
316.366	9.25
317.157	11.25
317.949	7.25
318.74	9.25
319.531	9.25
320.322	7.25
321.113	8.25
321.904	9.25
322.695	7.25
323.486	8.25
324.277	8.25
325.068	8.25
325.858	5.25
326.649	6.25
327.439	6.25
328.23	7.25
329.02	6.25
329.81	6.25
330.6	7.25
331.391	6.25
332.181	7.25
332.971	5.25
333.76	6.25
334.55	8.25
335.34	7.25
336.13	8.25
336.919	7.25
337.709	7.25
338.498	7.25
339.287	4.25
340.077	6.25
340.866	7.25
341.655	7.25
342.444	4.25
343.233	6.25
344.022	6.25
344.811	7.25
345.6	7.25
346.388	4.25
347.177	6.25
347.965	7.25
348.754	7.25
349.542	7.25
350.33	7.25
351.119	7.25
351.907	6.25
352.695	6.25
353.483	5.25
354.271	5.25
355.059	5.25
355.846	5.25
356.634	7.25
357.422	4.25
358.209	5.25
358.997	5.25
359.784	5.25
360.571	6.25
361.359	7.25
362.146	7.25
362.933	5.25
363.72	5.25
364.507	6.25
365.294	2.25
366.081	7.25
366.867	5.25
367.654	7.25
368.44	4.25
369.227	4.25
370.013	8.25
370.8	6.25
371.586	8.25
372.372	2.25
373.158	5.25
373.944	4.25
374.73	4.25
375.516	8.25
376.302	5.25
377.088	6.25
377.873	5.25
378.659	6.25
379.445	4.25
380.23	6.25
381.015	8.25
381.801	5.25
382.586	6.25
383.371	6.25
384.156	6.25
384.941	4.25
385.726	7.25
386.511	9.25
387.296	5.25
388.08	5.25
388.865	6.25
389.649	5.25
390.434	5.25
391.218	5.25
392.003	5.25
392.787	5.25
393.571	7.25
394.355	7.25
395.139	4.25
395.923	6.25
396.707	6.25
397.491	5.25
398.274	8.25
399.058	8.25
399.842	7.25
400.625	4.25
401.408	6.25
402.192	7.25
402.975	8.25
403.758	7.25
404.541	6.25
405.324	7.25
406.107	8.25
406.89	6.25
407.673	9.25
408.456	6.25
409.238	7.25
410.021	8.25
410.803	9.25
411.586	7.25
412.368	8.25
413.151	9.25
413.933	7.25
414.715	8.25
415.497	7.25
416.279	10.25
417.061	9.25
417.843	8.25
418.624	10.25
419.406	8.25
420.188	8.25
420.969	7.25
421.751	10.25
422.532	10.25
423.313	13.25
424.095	11.25
424.876	8.25
425.657	13.25
426.438	6.25
427.219	12.25
428	15.25
428.78	10.25
429.561	13.25
430.342	14.25
431.122	12.25
431.903	14.25
432.683	14.25
433.464	15.25
434.244	15.25
435.024	16.25
435.804	16.25
436.584	18.25
437.364	17.25
438.144	18.25
438.924	20.25
439.704	22.25
440.483	23.25
441.263	23.25
442.042	24.25
442.822	27.25
443.601	29.25
444.38	32.25
445.16	32.25
445.939	38.25
446.718	39.25
447.497	40.25
448.276	45.25
449.054	46.25
449.833	56.25
450.612	59.25
451.391	60.25
452.169	69.25
452.948	81.25
453.726	78.25
454.504	88.25
455.282	105.25
456.061	112.25
456.839	126.25
457.617	134.25
458.395	151.25
459.172	167.25
459.95	186.25
460.728	205.25
461.506	233.25
462.283	257.25
463.061	280.25
463.838	316.25
464.615	360.25
465.393	389.25
466.17	436.25
466.947	495.25
467.724	536.25
468.501	594.25
469.278	658.25
470.055	736.25
470.831	822.25
471.608	896.25
472.385	998.25
473.161	1103.25
473.938	1211.25
474.714	1335.25
475.49	1468.25
476.266	1607.25
477.043	1765.25
477.819	1938.25
478.595	2116.25
479.371	2326.25
480.146	2554.25
480.922	2778.25
481.698	3025.25
482.473	3325.25
483.249	3640.25
484.024	3961.25
484.8	4361.25
485.575	4708.25
486.35	5137.25
487.126	5619.25
487.901	6121.25
488.676	6673.25
489.451	7249.25
490.225	7857.25
491	8536.25
491.775	9247.25
492.55	10068.25
493.324	10837.25
494.099	11592.25
494.873	12462.25
495.647	13423.25
496.422	14381.25
497.196	15397.25
497.97	16418.25
498.744	17461.25
499.518	18473.25
500.292	19547.25
501.066	20515.25
501.839	21472.25
502.613	22349.25
503.387	23205.25
504.16	23841.25
504.934	24361.25
505.707	24692.25
506.48	24939.25
507.253	25044.25
508.027	25160.25
508.8	25053.25
509.573	24938.25
510.346	24552.25
511.118	24024.25
511.891	23482.25
512.664	22878.25
513.437	22168.25
514.209	21407.25
514.982	20663.25
515.754	19772.25
516.526	19061.25
517.298	18317.25
518.071	17543.25
518.843	16837.25
519.615	16242.25
520.387	15642.25
521.159	14979.25
521.93	14400.25
522.702	13827.25
523.474	13270.25
524.245	12669.25
525.017	12201.25
525.788	11703.25
526.56	11179.25
527.331	10690.25
528.102	10229.25
528.873	9803.25
529.644	9362.25
530.415	8923.25
531.186	8503.25
531.957	8059.25
532.728	7730.25
533.498	7337.25
534.269	6910.25
535.039	6558.25
535.81	6224.25
536.58	5861.25
537.351	5553.25
538.121	5254.25
538.891	4965.25
539.661	4696.25
540.431	4453.25
541.201	4194.25
541.971	3980.25
542.741	3786.25
543.51	3577.25
544.28	3436.25
545.05	3254.25
545.819	3085.25
546.588	2945.25
547.358	2763.25
548.127	2661.25
548.896	2530.25
549.665	2399.25
550.434	2260.25
551.203	2152.25
551.972	2041.25
552.741	1922.25
553.51	1820.25
554.278	1741.25
555.047	1631.25
555.815	1545.25
556.584	1458.25
557.352	1370.25
558.121	1307.25
558.889	1231.25
559.657	1182.25
560.425	1097.25
561.193	1035.25
561.961	983.25
562.729	925.25
563.496	884.25
564.264	831.25
565.032	769.25
565.799	748.25
566.567	694.25
567.334	669.25
568.101	616.25
568.869	603.25
569.636	555.25
570.403	521.25
571.17	488.25
571.937	456.25
572.704	448.25
573.471	413.25
574.237	395.25
575.004	373.25
575.771	347.25
576.537	325.25
577.303	305.25
578.07	292.25
578.836	277.25
579.602	256.25
580.368	238.25
581.134	231.25
581.9	219.25
582.666	208.25
583.432	194.25
584.198	186.25
584.964	176.25
585.729	167.25
586.495	160.25
587.26	148.25
588.025	147.25
588.791	134.25
589.556	126.25
590.321	124.25
591.086	110.25
591.851	110.25
592.616	106.25
593.381	96.25
594.146	92.25
594.911	87.25
595.675	86.25
596.44	82.25
597.204	76.25
597.969	76.25
598.733	69.25
599.497	69.25
600.261	63.25
601.025	62.25
601.79	53.25
602.553	56.25
603.317	53.25
604.081	54.25
604.845	50.25
605.609	47.25
606.372	48.25
607.136	41.25
607.899	42.25
608.662	38.25
609.426	37.25
610.189	39.25
610.952	37.25
611.715	34.25
612.478	34.25
613.241	32.25
614.004	30.25
614.767	27.25
615.529	31.25
616.292	25.25
617.055	24.25
617.817	25.25
618.579	21.25
619.342	22.25
620.104	24.25
620.866	20.25
621.628	22.25
622.39	22.25
623.152	21.25
623.914	21.25
624.676	19.25
625.438	19.25
626.199	19.25
626.961	18.25
627.722	15.25
628.484	16.25
629.245	13.25
630.006	17.25
630.768	13.25
631.529	14.25
632.29	16.25
633.051	13.25
633.812	14.25
634.573	11.25
635.333	12.25
636.094	12.25
636.855	13.25
637.615	9.25
638.376	9.25
639.136	10.25
639.896	10.25
640.657	10.25
641.417	11.25
642.177	8.25
642.937	8.25
643.697	10.25
644.457	10.25
645.216	8.25
645.976	10.25
646.736	7.25
647.495	8.25
648.255	7.25
649.014	8.25
649.774	10.25
650.533	6.25
651.292	8.25
652.051	5.25
652.81	7.25
653.569	8.25
654.328	6.25
655.087	7.25
655.846	7.25
656.604	9.25
657.363	6.25
658.121	5.25
658.88	7.25
659.638	7.25
660.397	7.25
661.155	7.25
661.913	6.25
662.671	5.25
663.429	8.25
664.187	5.25
664.945	4.25
665.703	4.25
666.46	5.25
667.218	4.25
667.976	6.25
668.733	5.25
669.49	7.25
670.248	7.25
671.005	3.25
671.762	4.25
672.519	4.25
673.276	6.25
674.033	3.25
674.79	4.25
675.547	4.25
676.304	7.25
677.06	4.25
677.817	3.25
678.574	5.25
679.33	2.25
680.086	5.25
680.843	4.25
681.599	5.25
682.355	5.25
683.111	4.25
683.867	7.25
684.623	4.25
685.379	4.25
686.135	4.25
686.89	4.25
687.646	4.25
688.402	2.25
689.157	3.25
689.912	2.25
690.668	5.25
691.423	6.25
692.178	4.25
692.933	4.25
693.688	5.25
694.443	4.25
695.198	2.25
695.953	4.25
696.708	2.25
697.462	2.25
698.217	5.25
698.972	2.25
699.726	4.25
700.48	2.25
701.235	3.25
701.989	4.25
702.743	3.25
703.497	4.25
704.251	5.25
705.005	6.25
705.759	1.25
706.513	2.25
707.266	4.25
708.02	2.25
708.774	1.25
709.527	4.25
710.28	2.25
711.034	2.25
711.787	2.25
712.54	4.25
713.293	4.25
714.046	4.25
714.799	4.25
715.552	2.25
716.305	5.25
717.058	3.25
717.81	4.25
718.563	5.25
719.315	4.25
720.068	3.25
720.82	5.25
721.573	3.25
722.325	3.25
723.077	4.25
723.829	4.25
724.581	4.25
725.333	6.25
726.085	4.25
726.836	4.25
727.588	2.25
728.34	2.25
729.091	4.25
729.843	2.25
730.594	5.25
731.346	5.25
732.097	4.25
732.848	1.25
733.599	5.25
734.35	3.25
735.101	3.25
735.852	5.25
736.603	4.25
737.354	4.25
738.104	1.25
738.855	3.25
739.605	2.25
740.356	3.25
741.106	6.25
741.856	4.25
742.607	6.25
743.357	5.25
744.107	6.25
744.857	5.25
745.607	3.25
746.357	5.25
747.106	4.25
747.856	6.25
748.606	5.25
749.355	3.25
750.105	4.25
750.854	5.25
751.603	2.25
752.353	6.25
753.102	4.25
753.851	5.25
754.6	6.25
755.349	7.25
756.098	7.25
756.847	7.25
757.595	6.25
758.344	6.25
759.093	5.25
759.841	5.25
760.589	6.25
761.338	5.25
762.086	8.25
762.834	4.25
763.582	9.25
764.331	6.25
765.079	4.25
765.826	7.25
766.574	6.25
767.322	6.25
768.07	7.25
768.817	6.25
769.565	5.25
770.312	7.25
771.06	6.25
771.807	6.25
772.554	8.25
773.302	7.25
774.049	6.25
774.796	8.25
775.543	5.25
776.29	8.25
777.036	5.25
777.783	7.25
778.53	6.25
779.276	8.25
780.023	8.25
780.769	6.25
781.516	7.25
782.262	7.25
783.008	6.25
783.754	9.25
784.5	8.25
785.246	6.25
785.992	8.25
786.738	7.25
787.484	7.25
788.23	9.25
788.975	6.25
789.721	9.25
790.466	9.25
791.212	6.25
791.957	6.25
792.702	9.25
793.447	7.25
794.193	7.25
794.938	8.25
795.683	8.25
796.427	5.25
797.172	8.25
797.917	6.25
798.662	6.25
799.406	5.25
800.151	5.25
800.895	9.25
801.64	5.25
802.384	9.25
803.128	9.25
803.872	6.25
804.616	4.25
805.36	8.25
806.104	5.25
806.848	5.25
807.592	5.25
808.336	5.25
809.079	4.25
809.823	7.25
810.566	7.25
811.31	5.25
812.053	6.25
812.796	6.25
813.539	5.25
814.283	5.25
815.026	5.25
815.769	6.25
816.511	6.25
817.254	5.25
817.997	5.25
818.74	5.25
819.482	5.25
820.225	8.25
820.967	2.25
821.71	6.25
822.452	2.25
823.194	4.25
823.936	2.25
824.678	4.25
825.42	3.25
826.162	2.25
826.904	2.25
827.646	4.25
828.388	3.25
829.129	5.25
829.871	5.25
830.612	5.25
831.354	3.25
832.095	5.25
832.836	6.25
833.577	3.25
834.319	6.25
835.06	1.25
835.801	5.25
836.542	4.25
837.282	2.25
838.023	6.25
838.764	4.25
839.504	6.25
840.245	3.25
840.985	5.25
841.726	5.25
842.466	2.25
843.206	3.25
843.946	2.25
844.687	2.25
845.427	2.25
846.166	3.25
846.906	2.25
847.646	3.25
848.386	5.25
849.125	3.25
849.865	2.25
850.605	2.25
851.344	4.25
852.083	2.25
852.823	4.25
853.562	3.25
854.301	1.25
855.04	4.25
855.779	4.25
856.518	2.25
857.257	5.25
857.995	3.25
858.734	4.25
859.473	2.25
860.211	3.25
860.95	0.25
861.688	2.25
862.426	2.25
863.165	5.25
863.903	2.25
864.641	2.25
865.379	4.25
866.117	4.25
866.855	2.25
867.593	2.25
868.33	2.25
869.068	2.25
869.806	1.25
870.543	0.25
871.28	1.25
872.018	3.25
872.755	2.25
873.492	2.25
874.229	1.25
874.967	2.25
875.703	2.25
876.44	1.25
877.177	2.25
877.914	3.25
878.651	2.25
879.387	1.25
880.124	2.25
880.86	1.25
881.597	2.25
882.333	1.25
883.069	0.25
883.806	3.25
884.542	2.25
885.278	2.25
886.014	0.25
886.749	1.25
887.485	0.25
888.221	3.25
888.957	2.25
889.692	1.25
890.428	2.25
891.163	-1.75
891.899	1.25
892.634	-0.75
893.369	1.25
894.104	-0.75
894.839	3.25
895.574	0.25
896.309	1.25
897.044	1.25
897.779	1.25
898.514	4.25
899.248	1.25
899.983	3.25
900.717	1.25
901.452	2.25
902.186	-0.75
902.92	1.25
903.654	0.25
904.389	-0.75
905.123	0.25
905.857	-0.75
906.59	2.25
907.324	0.25
908.058	0.25
908.792	0.25
909.525	1.25
910.259	0.25
910.992	2.25
911.726	1.25
912.459	0.25
913.192	1.25
913.925	1.25
914.658	2.25
915.391	0.25
916.124	-0.75
916.857	-0.75
917.59	1.25
918.323	1.25
919.055	0.25
919.788	1.25
920.521	1.25
921.253	1.25
921.985	0.25
922.718	0.25
923.45	-1.75
924.182	2.25
924.914	0.25
925.646	-0.75
926.378	1.25
927.11	0.25
927.841	1.25
928.573	0.25
929.305	1.25
930.036	0.25
930.768	1.25
931.499	1.25
932.23	-0.75
932.962	1.25
933.693	0.25
934.424	-0.75
935.155	2.25
935.886	-1.75
936.617	0.25
937.348	0.25
938.078	-0.75
938.809	2.25
939.54	-0.75
940.27	1.25
941.001	0.25
941.731	-0.75
942.461	0.25
943.191	2.25
943.922	-0.75
944.652	-1.75
945.382	1.25
946.112	1.25
946.841	-0.75
947.571	-0.75
948.301	0.25
949.031	0.25
949.76	1.25
950.49	1.25
951.219	-1.75
951.948	0.25
952.678	2.25
953.407	0.25
954.136	1.25
954.865	1.25
955.594	0.25
956.323	2.25
957.052	1.25
957.78	0.25
958.509	2.25
959.238	1.25
959.966	-0.75
960.695	0.25
961.423	-0.75
962.151	4.25
962.88	-0.75
963.608	0.25
964.336	1.25
965.064	0.25
965.792	2.25
966.52	0.25
967.247	2.25
967.975	0.25
968.703	0.25
969.43	2.25
970.158	0.25
970.885	0.25
971.613	2.25
972.34	1.25
973.067	-0.75
973.794	-1.75
974.521	-0.75
975.248	0.25
975.975	1.25
976.702	0.25
977.429	-1.75
978.156	2.25
978.882	0.25
979.609	1.25
980.335	-0.75
981.062	2.25
981.788	0.25
982.514	0.25
983.24	2.25
983.967	-0.75
984.693	1.25
985.419	1.25
986.144	2.25
986.87	1.25
987.596	0.25
988.322	1.25
989.047	0.25
989.773	2.25
990.498	0.25
991.224	0.25
991.949	-0.75
992.674	-0.75
993.399	2.25
994.124	0.25
994.849	1.25
995.574	1.25
996.299	-0.75
997.024	0.25
997.749	-1.75
998.473	1.25
999.198	0.25
999.922	1.25
1000.647	0.25
1001.371	5.25
1002.095	0.25
1002.82	-0.75
1003.544	-1.75
1004.268	3.25
1004.992	1.25
1005.716	1.25
1006.439	2.25
1007.163	1.25
1007.887	2.25
1008.611	0.25
1009.334	1.25
1010.058	1.25
1010.781	2.25
1011.504	1.25
1012.228	2.25
1012.951	0.25
1013.674	1.25
1014.397	-2.75
1015.12	-1.75
