节点500_285_QEPB04081__270__15-00-02-835.txt的数据

Date: Wed Nov 12 15:00:02 CST 2025
User: PC
Spectrometer: QEPB0408
触发模式: 0
积分时间 (秒): 1.000000E-2
Scans to average: 1
启用暗噪声校正: true
启用非线性校正: false
滑动平均宽度: 0
X轴模式: Wavelengths
Number of Pixels in Spectrum: 1044
>>>>>Begin Spectral Data<<<<<
220.843	1.75
221.644	2.75
222.444	0.75
223.244	2.75
224.045	1.75
224.845	3.75
225.645	2.75
226.445	-0.25
227.245	3.75
228.045	2.75
228.845	3.75
229.645	4.75
230.444	2.75
231.244	4.75
232.043	5.75
232.843	4.75
233.642	5.75
234.442	4.75
235.241	3.75
236.04	3.75
236.839	5.75
237.638	2.75
238.437	5.75
239.236	2.75
240.035	3.75
240.833	1.75
241.632	4.75
242.43	5.75
243.229	5.75
244.027	5.75
244.826	4.75
245.624	5.75
246.422	8.75
247.22	5.75
248.018	5.75
248.816	6.75
249.614	8.75
250.412	7.75
251.21	6.75
252.007	7.75
252.805	5.75
253.602	8.75
254.4	7.75
255.197	6.75
255.994	10.75
256.791	7.75
257.589	8.75
258.386	7.75
259.183	8.75
259.979	7.75
260.776	9.75
261.573	7.75
262.37	8.75
263.166	9.75
263.963	9.75
264.759	12.75
265.556	11.75
266.352	11.75
267.148	12.75
267.944	12.75
268.74	16.75
269.536	15.75
270.332	11.75
271.128	14.75
271.924	15.75
272.719	15.75
273.515	15.75
274.311	16.75
275.106	15.75
275.901	18.75
276.697	18.75
277.492	18.75
278.287	17.75
279.082	18.75
279.877	18.75
280.672	18.75
281.467	17.75
282.262	19.75
283.056	21.75
283.851	19.75
284.646	18.75
285.44	17.75
286.234	21.75
287.029	15.75
287.823	18.75
288.617	19.75
289.411	19.75
290.205	19.75
290.999	17.75
291.793	17.75
292.587	15.75
293.381	18.75
294.174	19.75
294.968	18.75
295.761	16.75
296.555	16.75
297.348	10.75
298.141	16.75
298.935	16.75
299.728	17.75
300.521	14.75
301.314	15.75
302.107	13.75
302.899	13.75
303.692	11.75
304.485	12.75
305.277	11.75
306.07	13.75
306.862	13.75
307.655	12.75
308.447	11.75
309.239	11.75
310.031	12.75
310.823	12.75
311.615	10.75
312.407	10.75
313.199	10.75
313.991	9.75
314.783	9.75
315.574	8.75
316.366	9.75
317.157	5.75
317.949	9.75
318.74	8.75
319.531	9.75
320.322	8.75
321.113	8.75
321.904	6.75
322.695	7.75
323.486	4.75
324.277	7.75
325.068	8.75
325.858	6.75
326.649	5.75
327.439	8.75
328.23	8.75
329.02	7.75
329.81	7.75
330.6	7.75
331.391	8.75
332.181	7.75
332.971	4.75
333.76	5.75
334.55	1.75
335.34	5.75
336.13	5.75
336.919	4.75
337.709	8.75
338.498	4.75
339.287	7.75
340.077	6.75
340.866	7.75
341.655	5.75
342.444	5.75
343.233	5.75
344.022	3.75
344.811	8.75
345.6	5.75
346.388	6.75
347.177	4.75
347.965	7.75
348.754	5.75
349.542	5.75
350.33	5.75
351.119	3.75
351.907	6.75
352.695	5.75
353.483	3.75
354.271	6.75
355.059	6.75
355.846	5.75
356.634	4.75
357.422	3.75
358.209	4.75
358.997	5.75
359.784	3.75
360.571	5.75
361.359	5.75
362.146	5.75
362.933	8.75
363.72	6.75
364.507	4.75
365.294	5.75
366.081	5.75
366.867	6.75
367.654	4.75
368.44	4.75
369.227	5.75
370.013	5.75
370.8	5.75
371.586	4.75
372.372	6.75
373.158	5.75
373.944	3.75
374.73	6.75
375.516	3.75
376.302	5.75
377.088	4.75
377.873	5.75
378.659	5.75
379.445	3.75
380.23	6.75
381.015	5.75
381.801	5.75
382.586	3.75
383.371	6.75
384.156	4.75
384.941	6.75
385.726	4.75
386.511	4.75
387.296	6.75
388.08	4.75
388.865	5.75
389.649	5.75
390.434	5.75
391.218	3.75
392.003	3.75
392.787	3.75
393.571	6.75
394.355	5.75
395.139	7.75
395.923	4.75
396.707	7.75
397.491	7.75
398.274	5.75
399.058	6.75
399.842	6.75
400.625	7.75
401.408	5.75
402.192	5.75
402.975	8.75
403.758	5.75
404.541	8.75
405.324	8.75
406.107	6.75
406.89	5.75
407.673	9.75
408.456	9.75
409.238	8.75
410.021	8.75
410.803	7.75
411.586	8.75
412.368	9.75
413.151	6.75
413.933	9.75
414.715	9.75
415.497	8.75
416.279	10.75
417.061	8.75
417.843	10.75
418.624	9.75
419.406	9.75
420.188	9.75
420.969	8.75
421.751	10.75
422.532	10.75
423.313	11.75
424.095	11.75
424.876	11.75
425.657	12.75
426.438	12.75
427.219	11.75
428	12.75
428.78	15.75
429.561	15.75
430.342	14.75
431.122	13.75
431.903	12.75
432.683	16.75
433.464	12.75
434.244	15.75
435.024	17.75
435.804	15.75
436.584	18.75
437.364	19.75
438.144	24.75
438.924	21.75
439.704	23.75
440.483	23.75
441.263	24.75
442.042	24.75
442.822	25.75
443.601	30.75
444.38	28.75
445.16	31.75
445.939	32.75
446.718	34.75
447.497	37.75
448.276	44.75
449.054	43.75
449.833	45.75
450.612	52.75
451.391	57.75
452.169	60.75
452.948	68.75
453.726	74.75
454.504	81.75
455.282	91.75
456.061	96.75
456.839	108.75
457.617	117.75
458.395	136.75
459.172	148.75
459.95	163.75
460.728	185.75
461.506	209.75
462.283	220.75
463.061	258.75
463.838	282.75
464.615	321.75
465.393	347.75
466.17	395.75
466.947	433.75
467.724	497.75
468.501	548.75
469.278	608.75
470.055	681.75
470.831	761.75
471.608	850.75
472.385	924.75
473.161	1035.75
473.938	1162.75
474.714	1278.75
475.49	1433.75
476.266	1580.75
477.043	1746.75
477.819	1913.75
478.595	2112.75
479.371	2350.75
480.146	2597.75
480.922	2863.75
481.698	3180.75
482.473	3480.75
483.249	3819.75
484.024	4230.75
484.8	4648.75
485.575	5103.75
486.35	5633.75
487.126	6199.75
487.901	6780.75
488.676	7473.75
489.451	8158.75
490.225	8948.75
491	9767.75
491.775	10654.75
492.55	11656.75
493.324	12606.75
494.099	13618.75
494.873	14677.75
495.647	15828.75
496.422	17048.75
497.196	18245.75
497.97	19494.75
498.744	20703.75
499.518	21839.75
500.292	23005.75
501.066	24087.75
501.839	25017.75
502.613	25941.75
503.387	26648.75
504.16	27308.75
504.934	27629.75
505.707	27741.75
506.48	27790.75
507.253	27656.75
508.027	27329.75
508.8	27003.75
509.573	26530.75
510.346	25828.75
511.118	25053.75
511.891	24262.75
512.664	23387.75
513.437	22461.75
514.209	21531.75
514.982	20647.75
515.754	19685.75
516.526	18853.75
517.298	17968.75
518.071	17196.75
518.843	16561.75
519.615	15968.75
520.387	15284.75
521.159	14681.75
521.93	14096.75
522.702	13494.75
523.474	12969.75
524.245	12400.75
525.017	11820.75
525.788	11399.75
526.56	10932.75
527.331	10378.75
528.102	9923.75
528.873	9430.75
529.644	9010.75
530.415	8538.75
531.186	8083.75
531.957	7651.75
532.728	7261.75
533.498	6857.75
534.269	6492.75
535.039	6173.75
535.81	5814.75
536.58	5480.75
537.351	5151.75
538.121	4902.75
538.891	4634.75
539.661	4368.75
540.431	4115.75
541.201	3902.75
541.971	3705.75
542.741	3522.75
543.51	3316.75
544.28	3150.75
545.05	3019.75
545.819	2862.75
546.588	2711.75
547.358	2579.75
548.127	2465.75
548.896	2328.75
549.665	2209.75
550.434	2111.75
551.203	1982.75
551.972	1890.75
552.741	1769.75
553.51	1672.75
554.278	1574.75
555.047	1493.75
555.815	1414.75
556.584	1320.75
557.352	1253.75
558.121	1168.75
558.889	1115.75
559.657	1063.75
560.425	989.75
561.193	940.75
561.961	884.75
562.729	836.75
563.496	785.75
564.264	736.75
565.032	705.75
565.799	674.75
566.567	628.75
567.334	597.75
568.101	558.75
568.869	539.75
569.636	504.75
570.403	465.75
571.17	441.75
571.937	416.75
572.704	398.75
573.471	372.75
574.237	353.75
575.004	335.75
575.771	318.75
576.537	295.75
577.303	277.75
578.07	265.75
578.836	247.75
579.602	225.75
580.368	223.75
581.134	209.75
581.9	199.75
582.666	193.75
583.432	179.75
584.198	164.75
584.964	155.75
585.729	153.75
586.495	139.75
587.26	132.75
588.025	135.75
588.791	123.75
589.556	116.75
590.321	105.75
591.086	100.75
591.851	101.75
592.616	93.75
593.381	90.75
594.146	90.75
594.911	84.75
595.675	73.75
596.44	74.75
597.204	73.75
597.969	64.75
598.733	65.75
599.497	61.75
600.261	56.75
601.025	57.75
601.79	53.75
602.553	50.75
603.317	46.75
604.081	46.75
604.845	45.75
605.609	43.75
606.372	46.75
607.136	41.75
607.899	37.75
608.662	37.75
609.426	36.75
610.189	35.75
610.952	29.75
611.715	32.75
612.478	30.75
613.241	28.75
614.004	28.75
614.767	26.75
615.529	27.75
616.292	25.75
617.055	24.75
617.817	25.75
618.579	23.75
619.342	22.75
620.104	20.75
620.866	17.75
621.628	20.75
622.39	21.75
623.152	17.75
623.914	17.75
624.676	16.75
625.438	17.75
626.199	15.75
626.961	16.75
627.722	14.75
628.484	13.75
629.245	14.75
630.006	13.75
630.768	13.75
631.529	12.75
632.29	12.75
633.051	11.75
633.812	11.75
634.573	11.75
635.333	11.75
636.094	9.75
636.855	9.75
637.615	9.75
638.376	7.75
639.136	7.75
639.896	9.75
640.657	9.75
641.417	7.75
642.177	9.75
642.937	12.75
643.697	9.75
644.457	9.75
645.216	7.75
645.976	7.75
646.736	9.75
647.495	8.75
648.255	8.75
649.014	9.75
649.774	7.75
650.533	6.75
651.292	5.75
652.051	7.75
652.81	3.75
653.569	6.75
654.328	5.75
655.087	5.75
655.846	6.75
656.604	6.75
657.363	6.75
658.121	4.75
658.88	9.75
659.638	3.75
660.397	6.75
661.155	4.75
661.913	5.75
662.671	6.75
663.429	2.75
664.187	4.75
664.945	5.75
665.703	4.75
666.46	6.75
667.218	4.75
667.976	4.75
668.733	2.75
669.49	3.75
670.248	4.75
671.005	3.75
671.762	5.75
672.519	4.75
673.276	3.75
674.033	6.75
674.79	4.75
675.547	5.75
676.304	3.75
677.06	4.75
677.817	4.75
678.574	5.75
679.33	2.75
680.086	2.75
680.843	3.75
681.599	2.75
682.355	5.75
683.111	4.75
683.867	4.75
684.623	5.75
685.379	4.75
686.135	5.75
686.89	3.75
687.646	4.75
688.402	2.75
689.157	4.75
689.912	5.75
690.668	2.75
691.423	4.75
692.178	4.75
692.933	1.75
693.688	3.75
694.443	3.75
695.198	4.75
695.953	3.75
696.708	3.75
697.462	4.75
698.217	3.75
698.972	4.75
699.726	0.75
700.48	2.75
701.235	3.75
701.989	0.75
702.743	4.75
703.497	3.75
704.251	4.75
705.005	1.75
705.759	5.75
706.513	3.75
707.266	2.75
708.02	5.75
708.774	1.75
709.527	2.75
710.28	3.75
711.034	1.75
711.787	2.75
712.54	2.75
713.293	0.75
714.046	2.75
714.799	4.75
715.552	4.75
716.305	4.75
717.058	4.75
717.81	2.75
718.563	4.75
719.315	6.75
720.068	3.75
720.82	3.75
721.573	2.75
722.325	3.75
723.077	2.75
723.829	4.75
724.581	2.75
725.333	5.75
726.085	5.75
726.836	3.75
727.588	3.75
728.34	3.75
729.091	2.75
729.843	1.75
730.594	3.75
731.346	4.75
732.097	4.75
732.848	3.75
733.599	4.75
734.35	4.75
735.101	5.75
735.852	3.75
736.603	5.75
737.354	5.75
738.104	4.75
738.855	5.75
739.605	4.75
740.356	3.75
741.106	1.75
741.856	5.75
742.607	3.75
743.357	6.75
744.107	4.75
744.857	3.75
745.607	5.75
746.357	4.75
747.106	4.75
747.856	4.75
748.606	5.75
749.355	5.75
750.105	6.75
750.854	4.75
751.603	4.75
752.353	4.75
753.102	5.75
753.851	5.75
754.6	6.75
755.349	6.75
756.098	6.75
756.847	6.75
757.595	5.75
758.344	6.75
759.093	5.75
759.841	7.75
760.589	5.75
761.338	8.75
762.086	6.75
762.834	9.75
763.582	6.75
764.331	8.75
765.079	6.75
765.826	6.75
766.574	7.75
767.322	6.75
768.07	6.75
768.817	7.75
769.565	7.75
770.312	6.75
771.06	7.75
771.807	9.75
772.554	9.75
773.302	6.75
774.049	9.75
774.796	9.75
775.543	7.75
776.29	8.75
777.036	9.75
777.783	7.75
778.53	7.75
779.276	9.75
780.023	10.75
780.769	8.75
781.516	9.75
782.262	9.75
783.008	8.75
783.754	9.75
784.5	7.75
785.246	8.75
785.992	11.75
786.738	7.75
787.484	8.75
788.23	11.75
788.975	8.75
789.721	10.75
790.466	8.75
791.212	9.75
791.957	9.75
792.702	6.75
793.447	7.75
794.193	7.75
794.938	7.75
795.683	8.75
796.427	8.75
797.172	6.75
797.917	4.75
798.662	7.75
799.406	6.75
800.151	7.75
800.895	7.75
801.64	8.75
802.384	8.75
803.128	6.75
803.872	6.75
804.616	7.75
805.36	6.75
806.104	5.75
806.848	4.75
807.592	8.75
808.336	5.75
809.079	6.75
809.823	4.75
810.566	5.75
811.31	5.75
812.053	5.75
812.796	5.75
813.539	6.75
814.283	5.75
815.026	5.75
815.769	6.75
816.511	5.75
817.254	6.75
817.997	5.75
818.74	5.75
819.482	5.75
820.225	5.75
820.967	2.75
821.71	3.75
822.452	3.75
823.194	5.75
823.936	3.75
824.678	4.75
825.42	3.75
826.162	4.75
826.904	3.75
827.646	2.75
828.388	1.75
829.129	2.75
829.871	1.75
830.612	3.75
831.354	4.75
832.095	5.75
832.836	3.75
833.577	4.75
834.319	3.75
835.06	3.75
835.801	5.75
836.542	4.75
837.282	3.75
838.023	3.75
838.764	3.75
839.504	3.75
840.245	4.75
840.985	3.75
841.726	1.75
842.466	5.75
843.206	4.75
843.946	0.75
844.687	4.75
845.427	0.75
846.166	1.75
846.906	2.75
847.646	0.75
848.386	5.75
849.125	2.75
849.865	3.75
850.605	3.75
851.344	2.75
852.083	2.75
852.823	4.75
853.562	2.75
854.301	2.75
855.04	1.75
855.779	3.75
856.518	0.75
857.257	1.75
857.995	1.75
858.734	3.75
859.473	3.75
860.211	1.75
860.95	1.75
861.688	1.75
862.426	3.75
863.165	1.75
863.903	2.75
864.641	2.75
865.379	0.75
866.117	1.75
866.855	0.75
867.593	0.75
868.33	1.75
869.068	0.75
869.806	3.75
870.543	0.75
871.28	2.75
872.018	1.75
872.755	2.75
873.492	1.75
874.229	1.75
874.967	1.75
875.703	-0.25
876.44	0.75
877.177	2.75
877.914	1.75
878.651	0.75
879.387	1.75
880.124	0.75
880.86	0.75
881.597	0.75
882.333	0.75
883.069	2.75
883.806	0.75
884.542	0.75
885.278	1.75
886.014	1.75
886.749	1.75
887.485	2.75
888.221	0.75
888.957	-0.25
889.692	-0.25
890.428	2.75
891.163	1.75
891.899	1.75
892.634	0.75
893.369	0.75
894.104	0.75
894.839	0.75
895.574	1.75
896.309	-1.25
897.044	1.75
897.779	2.75
898.514	-0.25
899.248	0.75
899.983	0.75
900.717	2.75
901.452	-0.25
902.186	0.75
902.92	1.75
903.654	-0.25
904.389	1.75
905.123	3.75
905.857	-1.25
906.59	-1.25
907.324	0.75
908.058	0.75
908.792	-0.25
909.525	-2.25
910.259	-0.25
910.992	-0.25
911.726	-1.25
912.459	1.75
913.192	-1.25
913.925	-2.25
914.658	-0.25
915.391	0.75
916.124	-0.25
916.857	1.75
917.59	-1.25
918.323	2.75
919.055	-0.25
919.788	0.75
920.521	1.75
921.253	-1.25
921.985	-0.25
922.718	-0.25
923.45	1.75
924.182	-0.25
924.914	0.75
925.646	-0.25
926.378	-1.25
927.11	0.75
927.841	-1.25
928.573	1.75
929.305	1.75
930.036	-3.25
930.768	-0.25
931.499	1.75
932.23	-0.25
932.962	1.75
933.693	-1.25
934.424	-0.25
935.155	-0.25
935.886	-0.25
936.617	0.75
937.348	-0.25
938.078	1.75
938.809	-1.25
939.54	-1.25
940.27	0.75
941.001	0.75
941.731	1.75
942.461	-2.25
943.191	1.75
943.922	0.75
944.652	0.75
945.382	1.75
946.112	-0.25
946.841	0.75
947.571	2.75
948.301	-1.25
949.031	-0.25
949.76	1.75
950.49	3.75
951.219	-2.25
951.948	0.75
952.678	0.75
953.407	-0.25
954.136	0.75
954.865	0.75
955.594	-2.25
956.323	-1.25
957.052	2.75
957.78	-0.25
958.509	2.75
959.238	-0.25
959.966	1.75
960.695	0.75
961.423	-0.25
962.151	0.75
962.88	-0.25
963.608	0.75
964.336	1.75
965.064	0.75
965.792	0.75
966.52	-0.25
967.247	1.75
967.975	0.75
968.703	-0.25
969.43	1.75
970.158	0.75
970.885	1.75
971.613	-0.25
972.34	0.75
973.067	-0.25
973.794	-2.25
974.521	0.75
975.248	0.75
975.975	-1.25
976.702	3.75
977.429	0.75
978.156	1.75
978.882	-0.25
979.609	1.75
980.335	-1.25
981.062	0.75
981.788	-0.25
982.514	-1.25
983.24	-0.25
983.967	-0.25
984.693	0.75
985.419	0.75
986.144	1.75
986.87	0.75
987.596	0.75
988.322	-1.25
989.047	-0.25
989.773	1.75
990.498	-1.25
991.224	1.75
991.949	-0.25
992.674	-1.25
993.399	1.75
994.124	0.75
994.849	0.75
995.574	-2.25
996.299	-1.25
997.024	1.75
997.749	-0.25
998.473	1.75
999.198	1.75
999.922	-0.25
1000.647	3.75
1001.371	1.75
1002.095	-0.25
1002.82	-1.25
1003.544	-0.25
1004.268	1.75
1004.992	1.75
1005.716	1.75
1006.439	0.75
1007.163	-0.25
1007.887	1.75
1008.611	1.75
1009.334	0.75
1010.058	0.75
1010.781	0.75
1011.504	-0.25
1012.228	-1.25
1012.951	-0.25
1013.674	-0.25
1014.397	-0.25
1015.12	0.75
