节点500_285_QEPB04081__429__15-02-41-552.txt的数据

Date: Wed Nov 12 15:02:41 CST 2025
User: PC
Spectrometer: QEPB0408
触发模式: 0
积分时间 (秒): 1.000000E-2
Scans to average: 1
启用暗噪声校正: true
启用非线性校正: false
滑动平均宽度: 0
X轴模式: Wavelengths
Number of Pixels in Spectrum: 1044
>>>>>Begin Spectral Data<<<<<
220.843	2.12
221.644	3.12
222.444	2.12
223.244	2.12
224.045	4.12
224.845	3.12
225.645	4.12
226.445	1.12
227.245	3.12
228.045	2.12
228.845	0.12
229.645	4.12
230.444	3.12
231.244	4.12
232.043	5.12
232.843	4.12
233.642	3.12
234.442	4.12
235.241	3.12
236.04	6.12
236.839	2.12
237.638	3.12
238.437	6.12
239.236	2.12
240.035	7.12
240.833	5.12
241.632	5.12
242.43	5.12
243.229	7.12
244.027	7.12
244.826	4.12
245.624	6.12
246.422	6.12
247.22	7.12
248.018	7.12
248.816	5.12
249.614	6.12
250.412	7.12
251.21	8.12
252.007	5.12
252.805	6.12
253.602	9.12
254.4	6.12
255.197	8.12
255.994	10.12
256.791	9.12
257.589	10.12
258.386	11.12
259.183	10.12
259.979	11.12
260.776	12.12
261.573	10.12
262.37	9.12
263.166	14.12
263.963	15.12
264.759	12.12
265.556	13.12
266.352	12.12
267.148	11.12
267.944	14.12
268.74	15.12
269.536	14.12
270.332	14.12
271.128	18.12
271.924	16.12
272.719	18.12
273.515	14.12
274.311	14.12
275.106	17.12
275.901	17.12
276.697	19.12
277.492	18.12
278.287	19.12
279.082	19.12
279.877	16.12
280.672	15.12
281.467	18.12
282.262	19.12
283.056	17.12
283.851	18.12
284.646	20.12
285.44	17.12
286.234	17.12
287.029	18.12
287.823	17.12
288.617	19.12
289.411	20.12
290.205	18.12
290.999	18.12
291.793	20.12
292.587	18.12
293.381	18.12
294.174	16.12
294.968	16.12
295.761	21.12
296.555	14.12
297.348	16.12
298.141	17.12
298.935	18.12
299.728	16.12
300.521	14.12
301.314	15.12
302.107	13.12
302.899	13.12
303.692	12.12
304.485	12.12
305.277	11.12
306.07	10.12
306.862	13.12
307.655	10.12
308.447	13.12
309.239	12.12
310.031	12.12
310.823	12.12
311.615	11.12
312.407	13.12
313.199	12.12
313.991	13.12
314.783	9.12
315.574	11.12
316.366	8.12
317.157	8.12
317.949	8.12
318.74	8.12
319.531	8.12
320.322	9.12
321.113	9.12
321.904	9.12
322.695	9.12
323.486	10.12
324.277	9.12
325.068	10.12
325.858	9.12
326.649	6.12
327.439	7.12
328.23	6.12
329.02	6.12
329.81	8.12
330.6	9.12
331.391	7.12
332.181	7.12
332.971	8.12
333.76	7.12
334.55	8.12
335.34	6.12
336.13	8.12
336.919	6.12
337.709	9.12
338.498	9.12
339.287	7.12
340.077	7.12
340.866	6.12
341.655	7.12
342.444	7.12
343.233	6.12
344.022	6.12
344.811	6.12
345.6	6.12
346.388	6.12
347.177	4.12
347.965	7.12
348.754	5.12
349.542	6.12
350.33	6.12
351.119	5.12
351.907	7.12
352.695	5.12
353.483	7.12
354.271	4.12
355.059	7.12
355.846	6.12
356.634	6.12
357.422	5.12
358.209	4.12
358.997	8.12
359.784	4.12
360.571	5.12
361.359	5.12
362.146	6.12
362.933	7.12
363.72	6.12
364.507	6.12
365.294	7.12
366.081	6.12
366.867	4.12
367.654	5.12
368.44	7.12
369.227	4.12
370.013	5.12
370.8	4.12
371.586	5.12
372.372	8.12
373.158	6.12
373.944	5.12
374.73	7.12
375.516	4.12
376.302	6.12
377.088	7.12
377.873	6.12
378.659	6.12
379.445	4.12
380.23	6.12
381.015	5.12
381.801	6.12
382.586	3.12
383.371	7.12
384.156	5.12
384.941	6.12
385.726	7.12
386.511	7.12
387.296	5.12
388.08	6.12
388.865	8.12
389.649	4.12
390.434	5.12
391.218	7.12
392.003	5.12
392.787	7.12
393.571	6.12
394.355	8.12
395.139	10.12
395.923	8.12
396.707	7.12
397.491	8.12
398.274	9.12
399.058	5.12
399.842	8.12
400.625	6.12
401.408	7.12
402.192	8.12
402.975	9.12
403.758	8.12
404.541	8.12
405.324	9.12
406.107	8.12
406.89	6.12
407.673	6.12
408.456	8.12
409.238	9.12
410.021	7.12
410.803	6.12
411.586	12.12
412.368	7.12
413.151	8.12
413.933	7.12
414.715	8.12
415.497	9.12
416.279	9.12
417.061	9.12
417.843	8.12
418.624	10.12
419.406	9.12
420.188	10.12
420.969	10.12
421.751	10.12
422.532	12.12
423.313	12.12
424.095	13.12
424.876	13.12
425.657	12.12
426.438	12.12
427.219	10.12
428	13.12
428.78	15.12
429.561	12.12
430.342	14.12
431.122	14.12
431.903	15.12
432.683	15.12
433.464	18.12
434.244	15.12
435.024	15.12
435.804	20.12
436.584	17.12
437.364	20.12
438.144	18.12
438.924	23.12
439.704	22.12
440.483	22.12
441.263	26.12
442.042	25.12
442.822	27.12
443.601	30.12
444.38	30.12
445.16	32.12
445.939	34.12
446.718	38.12
447.497	38.12
448.276	44.12
449.054	47.12
449.833	47.12
450.612	53.12
451.391	59.12
452.169	63.12
452.948	70.12
453.726	78.12
454.504	85.12
455.282	94.12
456.061	101.12
456.839	114.12
457.617	126.12
458.395	136.12
459.172	154.12
459.95	174.12
460.728	194.12
461.506	212.12
462.283	237.12
463.061	264.12
463.838	294.12
464.615	330.12
465.393	369.12
466.17	418.12
466.947	452.12
467.724	509.12
468.501	562.12
469.278	637.12
470.055	696.12
470.831	783.12
471.608	857.12
472.385	964.12
473.161	1050.12
473.938	1179.12
474.714	1313.12
475.49	1442.12
476.266	1594.12
477.043	1741.12
477.819	1930.12
478.595	2126.12
479.371	2344.12
480.146	2589.12
480.922	2863.12
481.698	3137.12
482.473	3448.12
483.249	3799.12
484.024	4173.12
484.8	4599.12
485.575	5013.12
486.35	5486.12
487.126	6042.12
487.901	6590.12
488.676	7211.12
489.451	7890.12
490.225	8656.12
491	9435.12
491.775	10288.12
492.55	11195.12
493.324	12131.12
494.099	13044.12
494.873	14032.12
495.647	15170.12
496.422	16285.12
497.196	17378.12
497.97	18556.12
498.744	19792.12
499.518	20844.12
500.292	22024.12
501.066	23116.12
501.839	24011.12
502.613	24938.12
503.387	25756.12
504.16	26317.12
504.934	26688.12
505.707	26955.12
506.48	27074.12
507.253	27015.12
508.027	26930.12
508.8	26565.12
509.573	26210.12
510.346	25600.12
511.118	24945.12
511.891	24139.12
512.664	23312.12
513.437	22514.12
514.209	21571.12
514.982	20731.12
515.754	19829.12
516.526	18947.12
517.298	18144.12
518.071	17359.12
518.843	16720.12
519.615	16079.12
520.387	15433.12
521.159	14794.12
521.93	14226.12
522.702	13651.12
523.474	13091.12
524.245	12546.12
525.017	11978.12
525.788	11543.12
526.56	11028.12
527.331	10527.12
528.102	10035.12
528.873	9582.12
529.644	9085.12
530.415	8652.12
531.186	8211.12
531.957	7802.12
532.728	7444.12
533.498	7071.12
534.269	6633.12
535.039	6290.12
535.81	5972.12
536.58	5620.12
537.351	5279.12
538.121	5009.12
538.891	4709.12
539.661	4461.12
540.431	4227.12
541.201	3986.12
541.971	3765.12
542.741	3596.12
543.51	3422.12
544.28	3231.12
545.05	3086.12
545.819	2942.12
546.588	2790.12
547.358	2631.12
548.127	2514.12
548.896	2394.12
549.665	2272.12
550.434	2136.12
551.203	2015.12
551.972	1940.12
552.741	1826.12
553.51	1710.12
554.278	1633.12
555.047	1544.12
555.815	1440.12
556.584	1378.12
557.352	1298.12
558.121	1222.12
558.889	1148.12
559.657	1090.12
560.425	1028.12
561.193	970.12
561.961	916.12
562.729	868.12
563.496	819.12
564.264	780.12
565.032	734.12
565.799	686.12
566.567	662.12
567.334	608.12
568.101	574.12
568.869	551.12
569.636	513.12
570.403	500.12
571.17	462.12
571.937	429.12
572.704	409.12
573.471	397.12
574.237	367.12
575.004	349.12
575.771	324.12
576.537	303.12
577.303	291.12
578.07	274.12
578.836	258.12
579.602	235.12
580.368	224.12
581.134	213.12
581.9	201.12
582.666	195.12
583.432	182.12
584.198	174.12
584.964	165.12
585.729	158.12
586.495	145.12
587.26	141.12
588.025	128.12
588.791	128.12
589.556	119.12
590.321	116.12
591.086	107.12
591.851	103.12
592.616	98.12
593.381	91.12
594.146	87.12
594.911	84.12
595.675	83.12
596.44	77.12
597.204	74.12
597.969	71.12
598.733	67.12
599.497	65.12
600.261	63.12
601.025	59.12
601.79	54.12
602.553	54.12
603.317	51.12
604.081	45.12
604.845	47.12
605.609	46.12
606.372	41.12
607.136	41.12
607.899	42.12
608.662	37.12
609.426	33.12
610.189	37.12
610.952	34.12
611.715	34.12
612.478	29.12
613.241	29.12
614.004	30.12
614.767	27.12
615.529	29.12
616.292	27.12
617.055	26.12
617.817	24.12
618.579	19.12
619.342	25.12
620.104	22.12
620.866	21.12
621.628	20.12
622.39	21.12
623.152	19.12
623.914	18.12
624.676	18.12
625.438	17.12
626.199	17.12
626.961	14.12
627.722	17.12
628.484	15.12
629.245	14.12
630.006	14.12
630.768	13.12
631.529	15.12
632.29	13.12
633.051	13.12
633.812	16.12
634.573	12.12
635.333	13.12
636.094	12.12
636.855	11.12
637.615	9.12
638.376	10.12
639.136	12.12
639.896	8.12
640.657	9.12
641.417	8.12
642.177	9.12
642.937	10.12
643.697	8.12
644.457	11.12
645.216	9.12
645.976	8.12
646.736	7.12
647.495	7.12
648.255	8.12
649.014	10.12
649.774	8.12
650.533	8.12
651.292	8.12
652.051	9.12
652.81	8.12
653.569	8.12
654.328	6.12
655.087	7.12
655.846	8.12
656.604	6.12
657.363	9.12
658.121	7.12
658.88	6.12
659.638	8.12
660.397	4.12
661.155	6.12
661.913	6.12
662.671	5.12
663.429	8.12
664.187	6.12
664.945	7.12
665.703	4.12
666.46	5.12
667.218	5.12
667.976	7.12
668.733	5.12
669.49	5.12
670.248	6.12
671.005	5.12
671.762	5.12
672.519	3.12
673.276	4.12
674.033	5.12
674.79	4.12
675.547	5.12
676.304	4.12
677.06	4.12
677.817	5.12
678.574	7.12
679.33	5.12
680.086	4.12
680.843	4.12
681.599	4.12
682.355	8.12
683.111	4.12
683.867	4.12
684.623	3.12
685.379	6.12
686.135	2.12
686.89	6.12
687.646	5.12
688.402	4.12
689.157	2.12
689.912	4.12
690.668	4.12
691.423	5.12
692.178	2.12
692.933	3.12
693.688	6.12
694.443	5.12
695.198	4.12
695.953	3.12
696.708	3.12
697.462	4.12
698.217	4.12
698.972	3.12
699.726	4.12
700.48	5.12
701.235	3.12
701.989	6.12
702.743	6.12
703.497	2.12
704.251	4.12
705.005	3.12
705.759	4.12
706.513	6.12
707.266	2.12
708.02	3.12
708.774	6.12
709.527	4.12
710.28	4.12
711.034	4.12
711.787	4.12
712.54	3.12
713.293	5.12
714.046	5.12
714.799	6.12
715.552	5.12
716.305	5.12
717.058	4.12
717.81	2.12
718.563	7.12
719.315	4.12
720.068	4.12
720.82	5.12
721.573	4.12
722.325	2.12
723.077	1.12
723.829	6.12
724.581	4.12
725.333	6.12
726.085	3.12
726.836	2.12
727.588	4.12
728.34	4.12
729.091	4.12
729.843	5.12
730.594	2.12
731.346	6.12
732.097	3.12
732.848	4.12
733.599	3.12
734.35	4.12
735.101	6.12
735.852	3.12
736.603	5.12
737.354	2.12
738.104	4.12
738.855	5.12
739.605	2.12
740.356	3.12
741.106	5.12
741.856	5.12
742.607	4.12
743.357	6.12
744.107	4.12
744.857	6.12
745.607	6.12
746.357	5.12
747.106	4.12
747.856	6.12
748.606	6.12
749.355	3.12
750.105	6.12
750.854	7.12
751.603	7.12
752.353	6.12
753.102	6.12
753.851	6.12
754.6	7.12
755.349	7.12
756.098	6.12
756.847	6.12
757.595	5.12
758.344	5.12
759.093	6.12
759.841	6.12
760.589	5.12
761.338	5.12
762.086	6.12
762.834	7.12
763.582	6.12
764.331	7.12
765.079	8.12
765.826	7.12
766.574	9.12
767.322	6.12
768.07	7.12
768.817	8.12
769.565	9.12
770.312	7.12
771.06	9.12
771.807	9.12
772.554	9.12
773.302	7.12
774.049	8.12
774.796	7.12
775.543	10.12
776.29	9.12
777.036	8.12
777.783	8.12
778.53	10.12
779.276	11.12
780.023	8.12
780.769	10.12
781.516	9.12
782.262	9.12
783.008	10.12
783.754	8.12
784.5	9.12
785.246	8.12
785.992	8.12
786.738	7.12
787.484	10.12
788.23	11.12
788.975	11.12
789.721	9.12
790.466	9.12
791.212	8.12
791.957	10.12
792.702	10.12
793.447	10.12
794.193	10.12
794.938	9.12
795.683	7.12
796.427	8.12
797.172	8.12
797.917	11.12
798.662	8.12
799.406	7.12
800.151	6.12
800.895	9.12
801.64	9.12
802.384	9.12
803.128	7.12
803.872	9.12
804.616	7.12
805.36	8.12
806.104	8.12
806.848	7.12
807.592	7.12
808.336	3.12
809.079	5.12
809.823	6.12
810.566	6.12
811.31	7.12
812.053	6.12
812.796	6.12
813.539	2.12
814.283	5.12
815.026	6.12
815.769	8.12
816.511	5.12
817.254	5.12
817.997	4.12
818.74	7.12
819.482	3.12
820.225	8.12
820.967	3.12
821.71	4.12
822.452	6.12
823.194	6.12
823.936	5.12
824.678	5.12
825.42	5.12
826.162	5.12
826.904	4.12
827.646	5.12
828.388	5.12
829.129	3.12
829.871	0.12
830.612	5.12
831.354	3.12
832.095	3.12
832.836	5.12
833.577	2.12
834.319	5.12
835.06	4.12
835.801	2.12
836.542	1.12
837.282	4.12
838.023	3.12
838.764	4.12
839.504	3.12
840.245	3.12
840.985	2.12
841.726	1.12
842.466	3.12
843.206	4.12
843.946	2.12
844.687	2.12
845.427	2.12
846.166	3.12
846.906	3.12
847.646	4.12
848.386	4.12
849.125	2.12
849.865	4.12
850.605	4.12
851.344	3.12
852.083	2.12
852.823	3.12
853.562	3.12
854.301	0.12
855.04	4.12
855.779	2.12
856.518	5.12
857.257	2.12
857.995	2.12
858.734	2.12
859.473	3.12
860.211	5.12
860.95	2.12
861.688	2.12
862.426	4.12
863.165	1.12
863.903	0.12
864.641	1.12
865.379	1.12
866.117	3.12
866.855	2.12
867.593	0.12
868.33	1.12
869.068	0.12
869.806	0.12
870.543	2.12
871.28	0.12
872.018	0.12
872.755	1.12
873.492	3.12
874.229	2.12
874.967	-0.88
875.703	2.12
876.44	0.12
877.177	0.12
877.914	2.12
878.651	1.12
879.387	2.12
880.124	1.12
880.86	2.12
881.597	0.12
882.333	0.12
883.069	0.12
883.806	1.12
884.542	1.12
885.278	1.12
886.014	1.12
886.749	1.12
887.485	0.12
888.221	2.12
888.957	0.12
889.692	2.12
890.428	0.12
891.163	1.12
891.899	2.12
892.634	0.12
893.369	1.12
894.104	2.12
894.839	1.12
895.574	2.12
896.309	1.12
897.044	4.12
897.779	0.12
898.514	1.12
899.248	1.12
899.983	0.12
900.717	2.12
901.452	0.12
902.186	0.12
902.92	0.12
903.654	1.12
904.389	0.12
905.123	0.12
905.857	2.12
906.59	-0.88
907.324	1.12
908.058	0.12
908.792	0.12
909.525	2.12
910.259	-0.88
910.992	2.12
911.726	0.12
912.459	2.12
913.192	1.12
913.925	2.12
914.658	0.12
915.391	0.12
916.124	2.12
916.857	0.12
917.59	3.12
918.323	1.12
919.055	1.12
919.788	0.12
920.521	2.12
921.253	0.12
921.985	1.12
922.718	0.12
923.45	1.12
924.182	-0.88
924.914	2.12
925.646	-1.88
926.378	0.12
927.11	-0.88
927.841	1.12
928.573	2.12
929.305	1.12
930.036	1.12
930.768	0.12
931.499	0.12
932.23	0.12
932.962	-0.88
933.693	1.12
934.424	1.12
935.155	1.12
935.886	-0.88
936.617	1.12
937.348	1.12
938.078	1.12
938.809	0.12
939.54	2.12
940.27	-0.88
941.001	0.12
941.731	1.12
942.461	0.12
943.191	-0.88
943.922	2.12
944.652	-0.88
945.382	4.12
946.112	0.12
946.841	0.12
947.571	0.12
948.301	-1.88
949.031	1.12
949.76	-0.88
950.49	-0.88
951.219	0.12
951.948	-0.88
952.678	2.12
953.407	0.12
954.136	2.12
954.865	0.12
955.594	2.12
956.323	0.12
957.052	0.12
957.78	1.12
958.509	0.12
959.238	1.12
959.966	0.12
960.695	-0.88
961.423	-0.88
962.151	0.12
962.88	0.12
963.608	-0.88
964.336	1.12
965.064	1.12
965.792	0.12
966.52	1.12
967.247	0.12
967.975	1.12
968.703	3.12
969.43	1.12
970.158	0.12
970.885	-0.88
971.613	1.12
972.34	-0.88
973.067	-1.88
973.794	1.12
974.521	-0.88
975.248	-1.88
975.975	0.12
976.702	2.12
977.429	1.12
978.156	3.12
978.882	1.12
979.609	2.12
980.335	-0.88
981.062	1.12
981.788	1.12
982.514	2.12
983.24	0.12
983.967	-1.88
984.693	-0.88
985.419	1.12
986.144	1.12
986.87	1.12
987.596	3.12
988.322	-0.88
989.047	1.12
989.773	-0.88
990.498	1.12
991.224	0.12
991.949	-0.88
992.674	0.12
993.399	0.12
994.124	-1.88
994.849	0.12
995.574	0.12
996.299	2.12
997.024	1.12
997.749	0.12
998.473	1.12
999.198	1.12
999.922	2.12
1000.647	0.12
1001.371	2.12
1002.095	-1.88
1002.82	-0.88
1003.544	-0.88
1004.268	1.12
1004.992	0.12
1005.716	2.12
1006.439	3.12
1007.163	3.12
1007.887	2.12
1008.611	0.12
1009.334	3.12
1010.058	-0.88
1010.781	2.12
1011.504	-0.88
1012.228	-1.88
1012.951	1.12
1013.674	-1.88
1014.397	0.12
1015.12	2.12
