节点500_285_QEPB04081__396__15-02-08-647.txt的数据

Date: Wed Nov 12 15:02:08 CST 2025
User: PC
Spectrometer: QEPB0408
触发模式: 0
积分时间 (秒): 1.000000E-2
Scans to average: 1
启用暗噪声校正: true
启用非线性校正: false
滑动平均宽度: 0
X轴模式: Wavelengths
Number of Pixels in Spectrum: 1044
>>>>>Begin Spectral Data<<<<<
220.843	2.12
221.644	2.12
222.444	2.12
223.244	3.12
224.045	5.12
224.845	2.12
225.645	1.12
226.445	3.12
227.245	2.12
228.045	2.12
228.845	3.12
229.645	3.12
230.444	4.12
231.244	5.12
232.043	3.12
232.843	3.12
233.642	3.12
234.442	7.12
235.241	4.12
236.04	4.12
236.839	5.12
237.638	4.12
238.437	6.12
239.236	4.12
240.035	6.12
240.833	4.12
241.632	1.12
242.43	4.12
243.229	4.12
244.027	6.12
244.826	4.12
245.624	4.12
246.422	10.12
247.22	5.12
248.018	7.12
248.816	7.12
249.614	5.12
250.412	6.12
251.21	5.12
252.007	7.12
252.805	9.12
253.602	10.12
254.4	6.12
255.197	6.12
255.994	7.12
256.791	7.12
257.589	9.12
258.386	6.12
259.183	11.12
259.979	7.12
260.776	9.12
261.573	10.12
262.37	10.12
263.166	12.12
263.963	10.12
264.759	15.12
265.556	12.12
266.352	11.12
267.148	14.12
267.944	11.12
268.74	16.12
269.536	14.12
270.332	14.12
271.128	15.12
271.924	15.12
272.719	16.12
273.515	16.12
274.311	15.12
275.106	18.12
275.901	14.12
276.697	17.12
277.492	16.12
278.287	18.12
279.082	17.12
279.877	19.12
280.672	17.12
281.467	18.12
282.262	16.12
283.056	20.12
283.851	18.12
284.646	18.12
285.44	19.12
286.234	18.12
287.029	17.12
287.823	23.12
288.617	17.12
289.411	20.12
290.205	20.12
290.999	17.12
291.793	17.12
292.587	18.12
293.381	17.12
294.174	17.12
294.968	17.12
295.761	12.12
296.555	14.12
297.348	17.12
298.141	11.12
298.935	17.12
299.728	12.12
300.521	17.12
301.314	15.12
302.107	14.12
302.899	13.12
303.692	13.12
304.485	13.12
305.277	14.12
306.07	13.12
306.862	12.12
307.655	14.12
308.447	13.12
309.239	10.12
310.031	10.12
310.823	11.12
311.615	8.12
312.407	12.12
313.199	8.12
313.991	11.12
314.783	9.12
315.574	11.12
316.366	10.12
317.157	6.12
317.949	9.12
318.74	8.12
319.531	10.12
320.322	8.12
321.113	7.12
321.904	7.12
322.695	6.12
323.486	7.12
324.277	8.12
325.068	7.12
325.858	6.12
326.649	7.12
327.439	9.12
328.23	7.12
329.02	9.12
329.81	6.12
330.6	5.12
331.391	8.12
332.181	9.12
332.971	8.12
333.76	8.12
334.55	8.12
335.34	7.12
336.13	5.12
336.919	9.12
337.709	5.12
338.498	7.12
339.287	6.12
340.077	6.12
340.866	3.12
341.655	7.12
342.444	7.12
343.233	6.12
344.022	5.12
344.811	5.12
345.6	8.12
346.388	6.12
347.177	5.12
347.965	7.12
348.754	6.12
349.542	8.12
350.33	8.12
351.119	6.12
351.907	7.12
352.695	5.12
353.483	6.12
354.271	7.12
355.059	7.12
355.846	6.12
356.634	7.12
357.422	7.12
358.209	5.12
358.997	6.12
359.784	6.12
360.571	4.12
361.359	5.12
362.146	7.12
362.933	2.12
363.72	6.12
364.507	4.12
365.294	4.12
366.081	7.12
366.867	6.12
367.654	6.12
368.44	7.12
369.227	5.12
370.013	6.12
370.8	6.12
371.586	6.12
372.372	7.12
373.158	7.12
373.944	7.12
374.73	6.12
375.516	7.12
376.302	6.12
377.088	7.12
377.873	6.12
378.659	6.12
379.445	7.12
380.23	6.12
381.015	7.12
381.801	6.12
382.586	4.12
383.371	7.12
384.156	7.12
384.941	5.12
385.726	5.12
386.511	6.12
387.296	3.12
388.08	5.12
388.865	6.12
389.649	6.12
390.434	6.12
391.218	7.12
392.003	7.12
392.787	6.12
393.571	7.12
394.355	8.12
395.139	7.12
395.923	7.12
396.707	8.12
397.491	4.12
398.274	7.12
399.058	8.12
399.842	7.12
400.625	6.12
401.408	7.12
402.192	8.12
402.975	6.12
403.758	6.12
404.541	10.12
405.324	7.12
406.107	9.12
406.89	8.12
407.673	9.12
408.456	8.12
409.238	11.12
410.021	8.12
410.803	8.12
411.586	10.12
412.368	8.12
413.151	8.12
413.933	9.12
414.715	11.12
415.497	9.12
416.279	9.12
417.061	9.12
417.843	11.12
418.624	11.12
419.406	9.12
420.188	11.12
420.969	11.12
421.751	9.12
422.532	14.12
423.313	12.12
424.095	12.12
424.876	13.12
425.657	11.12
426.438	12.12
427.219	13.12
428	11.12
428.78	12.12
429.561	15.12
430.342	14.12
431.122	12.12
431.903	14.12
432.683	15.12
433.464	16.12
434.244	16.12
435.024	16.12
435.804	16.12
436.584	17.12
437.364	20.12
438.144	21.12
438.924	19.12
439.704	21.12
440.483	21.12
441.263	22.12
442.042	24.12
442.822	25.12
443.601	28.12
444.38	31.12
445.16	33.12
445.939	32.12
446.718	37.12
447.497	39.12
448.276	42.12
449.054	47.12
449.833	51.12
450.612	55.12
451.391	57.12
452.169	61.12
452.948	67.12
453.726	78.12
454.504	85.12
455.282	92.12
456.061	101.12
456.839	111.12
457.617	123.12
458.395	138.12
459.172	150.12
459.95	163.12
460.728	188.12
461.506	210.12
462.283	236.12
463.061	260.12
463.838	297.12
464.615	335.12
465.393	369.12
466.17	411.12
466.947	451.12
467.724	511.12
468.501	559.12
469.278	627.12
470.055	705.12
470.831	781.12
471.608	869.12
472.385	952.12
473.161	1060.12
473.938	1174.12
474.714	1303.12
475.49	1440.12
476.266	1579.12
477.043	1751.12
477.819	1933.12
478.595	2116.12
479.371	2354.12
480.146	2605.12
480.922	2837.12
481.698	3116.12
482.473	3474.12
483.249	3820.12
484.024	4160.12
484.8	4573.12
485.575	5016.12
486.35	5547.12
487.126	6050.12
487.901	6642.12
488.676	7261.12
489.451	7982.12
490.225	8685.12
491	9501.12
491.775	10353.12
492.55	11252.12
493.324	12194.12
494.099	13125.12
494.873	14163.12
495.647	15289.12
496.422	16397.12
497.196	17609.12
497.97	18761.12
498.744	19913.12
499.518	21076.12
500.292	22175.12
501.066	23280.12
501.839	24241.12
502.613	25073.12
503.387	25936.12
504.16	26575.12
504.934	26930.12
505.707	27096.12
506.48	27158.12
507.253	27167.12
508.027	26932.12
508.8	26606.12
509.573	26267.12
510.346	25658.12
511.118	24931.12
511.891	24226.12
512.664	23277.12
513.437	22520.12
514.209	21533.12
514.982	20743.12
515.754	19754.12
516.526	18920.12
517.298	18103.12
518.071	17284.12
518.843	16645.12
519.615	16009.12
520.387	15409.12
521.159	14768.12
521.93	14188.12
522.702	13660.12
523.474	13062.12
524.245	12543.12
525.017	11956.12
525.788	11538.12
526.56	11034.12
527.331	10469.12
528.102	10025.12
528.873	9519.12
529.644	9049.12
530.415	8646.12
531.186	8197.12
531.957	7797.12
532.728	7404.12
533.498	7004.12
534.269	6611.12
535.039	6252.12
535.81	5931.12
536.58	5610.12
537.351	5254.12
538.121	4996.12
538.891	4706.12
539.661	4447.12
540.431	4190.12
541.201	3980.12
541.971	3779.12
542.741	3597.12
543.51	3412.12
544.28	3225.12
545.05	3068.12
545.819	2913.12
546.588	2786.12
547.358	2630.12
548.127	2497.12
548.896	2384.12
549.665	2259.12
550.434	2135.12
551.203	2024.12
551.972	1920.12
552.741	1805.12
553.51	1716.12
554.278	1608.12
555.047	1521.12
555.815	1447.12
556.584	1378.12
557.352	1293.12
558.121	1218.12
558.889	1146.12
559.657	1068.12
560.425	1013.12
561.193	968.12
561.961	907.12
562.729	855.12
563.496	817.12
564.264	756.12
565.032	724.12
565.799	685.12
566.567	663.12
567.334	624.12
568.101	573.12
568.869	538.12
569.636	518.12
570.403	483.12
571.17	453.12
571.937	435.12
572.704	408.12
573.471	382.12
574.237	368.12
575.004	346.12
575.771	321.12
576.537	301.12
577.303	292.12
578.07	267.12
578.836	259.12
579.602	238.12
580.368	226.12
581.134	215.12
581.9	204.12
582.666	194.12
583.432	182.12
584.198	171.12
584.964	164.12
585.729	152.12
586.495	146.12
587.26	143.12
588.025	132.12
588.791	128.12
589.556	112.12
590.321	119.12
591.086	105.12
591.851	100.12
592.616	94.12
593.381	90.12
594.146	88.12
594.911	82.12
595.675	82.12
596.44	75.12
597.204	73.12
597.969	71.12
598.733	68.12
599.497	64.12
600.261	61.12
601.025	57.12
601.79	56.12
602.553	52.12
603.317	50.12
604.081	45.12
604.845	47.12
605.609	42.12
606.372	43.12
607.136	42.12
607.899	37.12
608.662	41.12
609.426	37.12
610.189	32.12
610.952	35.12
611.715	33.12
612.478	32.12
613.241	29.12
614.004	27.12
614.767	26.12
615.529	30.12
616.292	27.12
617.055	23.12
617.817	26.12
618.579	22.12
619.342	21.12
620.104	21.12
620.866	24.12
621.628	22.12
622.39	20.12
623.152	21.12
623.914	19.12
624.676	21.12
625.438	18.12
626.199	15.12
626.961	17.12
627.722	16.12
628.484	15.12
629.245	12.12
630.006	13.12
630.768	12.12
631.529	14.12
632.29	14.12
633.051	10.12
633.812	12.12
634.573	13.12
635.333	11.12
636.094	12.12
636.855	9.12
637.615	9.12
638.376	13.12
639.136	13.12
639.896	9.12
640.657	8.12
641.417	10.12
642.177	10.12
642.937	8.12
643.697	12.12
644.457	10.12
645.216	6.12
645.976	8.12
646.736	8.12
647.495	8.12
648.255	10.12
649.014	6.12
649.774	8.12
650.533	9.12
651.292	7.12
652.051	8.12
652.81	6.12
653.569	6.12
654.328	9.12
655.087	7.12
655.846	8.12
656.604	8.12
657.363	8.12
658.121	7.12
658.88	6.12
659.638	8.12
660.397	5.12
661.155	5.12
661.913	8.12
662.671	7.12
663.429	5.12
664.187	6.12
664.945	5.12
665.703	3.12
666.46	4.12
667.218	8.12
667.976	6.12
668.733	4.12
669.49	5.12
670.248	6.12
671.005	5.12
671.762	6.12
672.519	6.12
673.276	5.12
674.033	9.12
674.79	4.12
675.547	6.12
676.304	5.12
677.06	8.12
677.817	4.12
678.574	4.12
679.33	5.12
680.086	4.12
680.843	2.12
681.599	2.12
682.355	4.12
683.111	4.12
683.867	3.12
684.623	5.12
685.379	6.12
686.135	6.12
686.89	5.12
687.646	6.12
688.402	2.12
689.157	4.12
689.912	4.12
690.668	4.12
691.423	3.12
692.178	4.12
692.933	3.12
693.688	4.12
694.443	4.12
695.198	5.12
695.953	4.12
696.708	3.12
697.462	4.12
698.217	4.12
698.972	3.12
699.726	3.12
700.48	4.12
701.235	2.12
701.989	2.12
702.743	7.12
703.497	4.12
704.251	3.12
705.005	3.12
705.759	6.12
706.513	4.12
707.266	3.12
708.02	5.12
708.774	2.12
709.527	3.12
710.28	3.12
711.034	1.12
711.787	3.12
712.54	2.12
713.293	3.12
714.046	5.12
714.799	4.12
715.552	3.12
716.305	4.12
717.058	4.12
717.81	2.12
718.563	5.12
719.315	3.12
720.068	6.12
720.82	5.12
721.573	6.12
722.325	7.12
723.077	4.12
723.829	5.12
724.581	4.12
725.333	4.12
726.085	3.12
726.836	4.12
727.588	2.12
728.34	2.12
729.091	3.12
729.843	5.12
730.594	6.12
731.346	6.12
732.097	4.12
732.848	3.12
733.599	4.12
734.35	4.12
735.101	3.12
735.852	3.12
736.603	5.12
737.354	2.12
738.104	7.12
738.855	3.12
739.605	3.12
740.356	5.12
741.106	5.12
741.856	5.12
742.607	3.12
743.357	5.12
744.107	4.12
744.857	5.12
745.607	6.12
746.357	6.12
747.106	6.12
747.856	3.12
748.606	8.12
749.355	7.12
750.105	2.12
750.854	4.12
751.603	4.12
752.353	3.12
753.102	3.12
753.851	5.12
754.6	5.12
755.349	7.12
756.098	6.12
756.847	5.12
757.595	5.12
758.344	7.12
759.093	4.12
759.841	4.12
760.589	4.12
761.338	6.12
762.086	7.12
762.834	8.12
763.582	7.12
764.331	7.12
765.079	7.12
765.826	7.12
766.574	6.12
767.322	7.12
768.07	7.12
768.817	9.12
769.565	8.12
770.312	8.12
771.06	6.12
771.807	10.12
772.554	7.12
773.302	10.12
774.049	9.12
774.796	7.12
775.543	7.12
776.29	6.12
777.036	12.12
777.783	8.12
778.53	9.12
779.276	8.12
780.023	7.12
780.769	11.12
781.516	8.12
782.262	9.12
783.008	9.12
783.754	8.12
784.5	7.12
785.246	8.12
785.992	10.12
786.738	9.12
787.484	6.12
788.23	8.12
788.975	8.12
789.721	8.12
790.466	9.12
791.212	9.12
791.957	10.12
792.702	8.12
793.447	11.12
794.193	8.12
794.938	7.12
795.683	7.12
796.427	8.12
797.172	8.12
797.917	9.12
798.662	6.12
799.406	6.12
800.151	8.12
800.895	8.12
801.64	7.12
802.384	6.12
803.128	7.12
803.872	9.12
804.616	6.12
805.36	9.12
806.104	8.12
806.848	5.12
807.592	8.12
808.336	6.12
809.079	5.12
809.823	4.12
810.566	4.12
811.31	4.12
812.053	5.12
812.796	6.12
813.539	4.12
814.283	5.12
815.026	5.12
815.769	8.12
816.511	3.12
817.254	6.12
817.997	4.12
818.74	6.12
819.482	6.12
820.225	6.12
820.967	2.12
821.71	2.12
822.452	1.12
823.194	5.12
823.936	7.12
824.678	5.12
825.42	4.12
826.162	4.12
826.904	4.12
827.646	5.12
828.388	9.12
829.129	4.12
829.871	5.12
830.612	3.12
831.354	3.12
832.095	5.12
832.836	5.12
833.577	2.12
834.319	5.12
835.06	3.12
835.801	2.12
836.542	5.12
837.282	2.12
838.023	3.12
838.764	2.12
839.504	5.12
840.245	2.12
840.985	4.12
841.726	2.12
842.466	1.12
843.206	6.12
843.946	3.12
844.687	2.12
845.427	1.12
846.166	4.12
846.906	3.12
847.646	5.12
848.386	4.12
849.125	4.12
849.865	3.12
850.605	2.12
851.344	5.12
852.083	2.12
852.823	4.12
853.562	2.12
854.301	4.12
855.04	3.12
855.779	0.12
856.518	2.12
857.257	3.12
857.995	2.12
858.734	2.12
859.473	2.12
860.211	3.12
860.95	3.12
861.688	2.12
862.426	5.12
863.165	2.12
863.903	2.12
864.641	2.12
865.379	5.12
866.117	1.12
866.855	2.12
867.593	1.12
868.33	3.12
869.068	5.12
869.806	4.12
870.543	0.12
871.28	2.12
872.018	0.12
872.755	1.12
873.492	1.12
874.229	0.12
874.967	2.12
875.703	3.12
876.44	1.12
877.177	2.12
877.914	3.12
878.651	0.12
879.387	2.12
880.124	0.12
880.86	3.12
881.597	-0.88
882.333	0.12
883.069	0.12
883.806	1.12
884.542	2.12
885.278	0.12
886.014	1.12
886.749	2.12
887.485	-0.88
888.221	1.12
888.957	1.12
889.692	1.12
890.428	1.12
891.163	1.12
891.899	2.12
892.634	-1.88
893.369	1.12
894.104	2.12
894.839	1.12
895.574	1.12
896.309	2.12
897.044	-0.88
897.779	1.12
898.514	2.12
899.248	1.12
899.983	0.12
900.717	0.12
901.452	0.12
902.186	1.12
902.92	0.12
903.654	-0.88
904.389	-0.88
905.123	1.12
905.857	2.12
906.59	-0.88
907.324	1.12
908.058	1.12
908.792	2.12
909.525	0.12
910.259	1.12
910.992	0.12
911.726	2.12
912.459	2.12
913.192	0.12
913.925	-0.88
914.658	1.12
915.391	2.12
916.124	1.12
916.857	1.12
917.59	1.12
918.323	1.12
919.055	-1.88
919.788	2.12
920.521	-1.88
921.253	0.12
921.985	0.12
922.718	0.12
923.45	0.12
924.182	2.12
924.914	2.12
925.646	0.12
926.378	0.12
927.11	1.12
927.841	-0.88
928.573	1.12
929.305	0.12
930.036	2.12
930.768	2.12
931.499	0.12
932.23	0.12
932.962	1.12
933.693	1.12
934.424	1.12
935.155	0.12
935.886	0.12
936.617	2.12
937.348	-1.88
938.078	-1.88
938.809	2.12
939.54	2.12
940.27	1.12
941.001	0.12
941.731	0.12
942.461	1.12
943.191	0.12
943.922	-1.88
944.652	-0.88
945.382	0.12
946.112	3.12
946.841	2.12
947.571	3.12
948.301	0.12
949.031	0.12
949.76	1.12
950.49	0.12
951.219	2.12
951.948	-0.88
952.678	-0.88
953.407	0.12
954.136	1.12
954.865	0.12
955.594	0.12
956.323	2.12
957.052	1.12
957.78	1.12
958.509	1.12
959.238	1.12
959.966	0.12
960.695	1.12
961.423	3.12
962.151	2.12
962.88	2.12
963.608	-0.88
964.336	-0.88
965.064	1.12
965.792	1.12
966.52	3.12
967.247	0.12
967.975	-0.88
968.703	2.12
969.43	1.12
970.158	2.12
970.885	0.12
971.613	0.12
972.34	-0.88
973.067	0.12
973.794	1.12
974.521	-0.88
975.248	2.12
975.975	1.12
976.702	4.12
977.429	-0.88
978.156	0.12
978.882	3.12
979.609	0.12
980.335	1.12
981.062	0.12
981.788	-1.88
982.514	0.12
983.24	1.12
983.967	0.12
984.693	0.12
985.419	3.12
986.144	2.12
986.87	0.12
987.596	0.12
988.322	0.12
989.047	3.12
989.773	1.12
990.498	-0.88
991.224	0.12
991.949	-0.88
992.674	1.12
993.399	-0.88
994.124	0.12
994.849	0.12
995.574	0.12
996.299	1.12
997.024	0.12
997.749	2.12
998.473	1.12
999.198	0.12
999.922	0.12
1000.647	-1.88
1001.371	3.12
1002.095	-2.88
1002.82	-1.88
1003.544	-0.88
1004.268	3.12
1004.992	0.12
1005.716	1.12
1006.439	1.12
1007.163	4.12
1007.887	2.12
1008.611	2.12
1009.334	-1.88
1010.058	1.12
1010.781	0.12
1011.504	1.12
1012.228	2.12
1012.951	-0.88
1013.674	0.12
1014.397	1.12
1015.12	2.12
