节点500_285_QEPB04081__419__15-02-31-562.txt的数据

Date: Wed Nov 12 15:02:31 CST 2025
User: PC
Spectrometer: QEPB0408
触发模式: 0
积分时间 (秒): 1.000000E-2
Scans to average: 1
启用暗噪声校正: true
启用非线性校正: false
滑动平均宽度: 0
X轴模式: Wavelengths
Number of Pixels in Spectrum: 1044
>>>>>Begin Spectral Data<<<<<
220.843	0.38
221.644	0.38
222.444	2.38
223.244	4.38
224.045	2.38
224.845	1.38
225.645	2.38
226.445	2.38
227.245	2.38
228.045	1.38
228.845	2.38
229.645	3.38
230.444	5.38
231.244	5.38
232.043	2.38
232.843	3.38
233.642	3.38
234.442	3.38
235.241	4.38
236.04	3.38
236.839	3.38
237.638	3.38
238.437	3.38
239.236	6.38
240.035	2.38
240.833	4.38
241.632	5.38
242.43	6.38
243.229	4.38
244.027	3.38
244.826	6.38
245.624	3.38
246.422	5.38
247.22	6.38
248.018	6.38
248.816	7.38
249.614	4.38
250.412	8.38
251.21	7.38
252.007	7.38
252.805	9.38
253.602	8.38
254.4	6.38
255.197	8.38
255.994	8.38
256.791	8.38
257.589	9.38
258.386	11.38
259.183	9.38
259.979	8.38
260.776	9.38
261.573	11.38
262.37	11.38
263.166	13.38
263.963	12.38
264.759	10.38
265.556	14.38
266.352	13.38
267.148	14.38
267.944	13.38
268.74	13.38
269.536	14.38
270.332	14.38
271.128	13.38
271.924	16.38
272.719	15.38
273.515	16.38
274.311	17.38
275.106	17.38
275.901	14.38
276.697	16.38
277.492	18.38
278.287	16.38
279.082	16.38
279.877	18.38
280.672	19.38
281.467	20.38
282.262	19.38
283.056	16.38
283.851	17.38
284.646	20.38
285.44	17.38
286.234	18.38
287.029	19.38
287.823	21.38
288.617	18.38
289.411	16.38
290.205	19.38
290.999	19.38
291.793	18.38
292.587	18.38
293.381	19.38
294.174	17.38
294.968	17.38
295.761	14.38
296.555	15.38
297.348	17.38
298.141	13.38
298.935	16.38
299.728	14.38
300.521	14.38
301.314	17.38
302.107	13.38
302.899	13.38
303.692	12.38
304.485	12.38
305.277	14.38
306.07	12.38
306.862	12.38
307.655	13.38
308.447	10.38
309.239	13.38
310.031	14.38
310.823	10.38
311.615	10.38
312.407	10.38
313.199	9.38
313.991	9.38
314.783	9.38
315.574	8.38
316.366	10.38
317.157	8.38
317.949	7.38
318.74	8.38
319.531	6.38
320.322	5.38
321.113	8.38
321.904	8.38
322.695	8.38
323.486	5.38
324.277	7.38
325.068	7.38
325.858	9.38
326.649	8.38
327.439	7.38
328.23	8.38
329.02	5.38
329.81	7.38
330.6	5.38
331.391	7.38
332.181	5.38
332.971	6.38
333.76	5.38
334.55	7.38
335.34	6.38
336.13	6.38
336.919	6.38
337.709	5.38
338.498	4.38
339.287	9.38
340.077	7.38
340.866	7.38
341.655	6.38
342.444	7.38
343.233	5.38
344.022	7.38
344.811	8.38
345.6	4.38
346.388	8.38
347.177	7.38
347.965	7.38
348.754	6.38
349.542	7.38
350.33	8.38
351.119	7.38
351.907	8.38
352.695	6.38
353.483	7.38
354.271	7.38
355.059	6.38
355.846	6.38
356.634	5.38
357.422	5.38
358.209	5.38
358.997	4.38
359.784	4.38
360.571	5.38
361.359	7.38
362.146	4.38
362.933	6.38
363.72	7.38
364.507	6.38
365.294	6.38
366.081	4.38
366.867	5.38
367.654	7.38
368.44	6.38
369.227	4.38
370.013	6.38
370.8	8.38
371.586	6.38
372.372	4.38
373.158	4.38
373.944	5.38
374.73	6.38
375.516	4.38
376.302	6.38
377.088	4.38
377.873	5.38
378.659	6.38
379.445	2.38
380.23	6.38
381.015	4.38
381.801	6.38
382.586	7.38
383.371	5.38
384.156	5.38
384.941	6.38
385.726	8.38
386.511	5.38
387.296	5.38
388.08	5.38
388.865	5.38
389.649	5.38
390.434	5.38
391.218	7.38
392.003	8.38
392.787	4.38
393.571	6.38
394.355	3.38
395.139	7.38
395.923	7.38
396.707	7.38
397.491	7.38
398.274	9.38
399.058	5.38
399.842	7.38
400.625	8.38
401.408	7.38
402.192	7.38
402.975	8.38
403.758	7.38
404.541	9.38
405.324	7.38
406.107	8.38
406.89	8.38
407.673	9.38
408.456	7.38
409.238	6.38
410.021	9.38
410.803	7.38
411.586	10.38
412.368	9.38
413.151	7.38
413.933	10.38
414.715	7.38
415.497	9.38
416.279	9.38
417.061	10.38
417.843	8.38
418.624	11.38
419.406	13.38
420.188	8.38
420.969	12.38
421.751	7.38
422.532	12.38
423.313	11.38
424.095	11.38
424.876	11.38
425.657	12.38
426.438	12.38
427.219	12.38
428	13.38
428.78	14.38
429.561	12.38
430.342	16.38
431.122	15.38
431.903	13.38
432.683	17.38
433.464	14.38
434.244	19.38
435.024	15.38
435.804	16.38
436.584	18.38
437.364	19.38
438.144	19.38
438.924	23.38
439.704	24.38
440.483	22.38
441.263	26.38
442.042	24.38
442.822	24.38
443.601	31.38
444.38	30.38
445.16	32.38
445.939	31.38
446.718	36.38
447.497	39.38
448.276	46.38
449.054	46.38
449.833	51.38
450.612	53.38
451.391	59.38
452.169	62.38
452.948	69.38
453.726	76.38
454.504	85.38
455.282	89.38
456.061	103.38
456.839	113.38
457.617	126.38
458.395	139.38
459.172	149.38
459.95	170.38
460.728	192.38
461.506	209.38
462.283	242.38
463.061	266.38
463.838	299.38
464.615	329.38
465.393	364.38
466.17	404.38
466.947	469.38
467.724	507.38
468.501	554.38
469.278	622.38
470.055	701.38
470.831	773.38
471.608	865.38
472.385	957.38
473.161	1060.38
473.938	1171.38
474.714	1297.38
475.49	1442.38
476.266	1588.38
477.043	1758.38
477.819	1944.38
478.595	2109.38
479.371	2359.38
480.146	2601.38
480.922	2844.38
481.698	3138.38
482.473	3458.38
483.249	3772.38
484.024	4145.38
484.8	4583.38
485.575	5027.38
486.35	5505.38
487.126	6031.38
487.901	6585.38
488.676	7209.38
489.451	7923.38
490.225	8661.38
491	9402.38
491.775	10277.38
492.55	11226.38
493.324	12120.38
494.099	13055.38
494.873	14093.38
495.647	15152.38
496.422	16298.38
497.196	17414.38
497.97	18612.38
498.744	19775.38
499.518	20907.38
500.292	21988.38
501.066	23093.38
501.839	24160.38
502.613	24994.38
503.387	25823.38
504.16	26450.38
504.934	26814.38
505.707	27028.38
506.48	27097.38
507.253	27089.38
508.027	26800.38
508.8	26607.38
509.573	26203.38
510.346	25607.38
511.118	24895.38
511.891	24117.38
512.664	23300.38
513.437	22510.38
514.209	21579.38
514.982	20750.38
515.754	19842.38
516.526	18956.38
517.298	18140.38
518.071	17276.38
518.843	16646.38
519.615	16056.38
520.387	15423.38
521.159	14818.38
521.93	14180.38
522.702	13633.38
523.474	13082.38
524.245	12539.38
525.017	12000.38
525.788	11525.38
526.56	11030.38
527.331	10515.38
528.102	10040.38
528.873	9570.38
529.644	9085.38
530.415	8687.38
531.186	8228.38
531.957	7846.38
532.728	7454.38
533.498	7031.38
534.269	6654.38
535.039	6286.38
535.81	5929.38
536.58	5606.38
537.351	5279.38
538.121	4987.38
538.891	4732.38
539.661	4463.38
540.431	4248.38
541.201	3982.38
541.971	3780.38
542.741	3580.38
543.51	3412.38
544.28	3271.38
545.05	3115.38
545.819	2934.38
546.588	2789.38
547.358	2634.38
548.127	2490.38
548.896	2392.38
549.665	2290.38
550.434	2139.38
551.203	2018.38
551.972	1921.38
552.741	1816.38
553.51	1717.38
554.278	1620.38
555.047	1528.38
555.815	1461.38
556.584	1358.38
557.352	1309.38
558.121	1228.38
558.889	1143.38
559.657	1096.38
560.425	1031.38
561.193	967.38
561.961	912.38
562.729	868.38
563.496	817.38
564.264	769.38
565.032	726.38
565.799	691.38
566.567	651.38
567.334	618.38
568.101	579.38
568.869	550.38
569.636	519.38
570.403	489.38
571.17	462.38
571.937	436.38
572.704	409.38
573.471	381.38
574.237	370.38
575.004	352.38
575.771	321.38
576.537	302.38
577.303	282.38
578.07	272.38
578.836	252.38
579.602	242.38
580.368	226.38
581.134	216.38
581.9	210.38
582.666	189.38
583.432	186.38
584.198	172.38
584.964	166.38
585.729	153.38
586.495	149.38
587.26	142.38
588.025	132.38
588.791	126.38
589.556	118.38
590.321	117.38
591.086	106.38
591.851	104.38
592.616	97.38
593.381	97.38
594.146	88.38
594.911	82.38
595.675	80.38
596.44	78.38
597.204	72.38
597.969	71.38
598.733	70.38
599.497	66.38
600.261	63.38
601.025	58.38
601.79	55.38
602.553	51.38
603.317	48.38
604.081	51.38
604.845	47.38
605.609	47.38
606.372	42.38
607.136	40.38
607.899	36.38
608.662	42.38
609.426	35.38
610.189	35.38
610.952	33.38
611.715	33.38
612.478	32.38
613.241	31.38
614.004	31.38
614.767	27.38
615.529	25.38
616.292	24.38
617.055	22.38
617.817	26.38
618.579	22.38
619.342	22.38
620.104	26.38
620.866	24.38
621.628	19.38
622.39	18.38
623.152	19.38
623.914	18.38
624.676	17.38
625.438	16.38
626.199	15.38
626.961	16.38
627.722	16.38
628.484	17.38
629.245	14.38
630.006	14.38
630.768	15.38
631.529	14.38
632.29	12.38
633.051	12.38
633.812	12.38
634.573	11.38
635.333	10.38
636.094	13.38
636.855	11.38
637.615	13.38
638.376	11.38
639.136	11.38
639.896	7.38
640.657	9.38
641.417	9.38
642.177	9.38
642.937	9.38
643.697	9.38
644.457	9.38
645.216	11.38
645.976	9.38
646.736	9.38
647.495	8.38
648.255	10.38
649.014	8.38
649.774	9.38
650.533	8.38
651.292	8.38
652.051	9.38
652.81	7.38
653.569	7.38
654.328	6.38
655.087	6.38
655.846	5.38
656.604	6.38
657.363	6.38
658.121	7.38
658.88	5.38
659.638	8.38
660.397	8.38
661.155	6.38
661.913	5.38
662.671	6.38
663.429	5.38
664.187	4.38
664.945	7.38
665.703	5.38
666.46	5.38
667.218	6.38
667.976	5.38
668.733	5.38
669.49	8.38
670.248	6.38
671.005	5.38
671.762	5.38
672.519	5.38
673.276	4.38
674.033	4.38
674.79	5.38
675.547	2.38
676.304	8.38
677.06	5.38
677.817	3.38
678.574	4.38
679.33	5.38
680.086	4.38
680.843	4.38
681.599	6.38
682.355	4.38
683.111	4.38
683.867	4.38
684.623	4.38
685.379	5.38
686.135	3.38
686.89	4.38
687.646	2.38
688.402	6.38
689.157	4.38
689.912	5.38
690.668	3.38
691.423	4.38
692.178	6.38
692.933	4.38
693.688	4.38
694.443	4.38
695.198	3.38
695.953	4.38
696.708	5.38
697.462	3.38
698.217	1.38
698.972	7.38
699.726	5.38
700.48	4.38
701.235	3.38
701.989	2.38
702.743	5.38
703.497	4.38
704.251	3.38
705.005	5.38
705.759	2.38
706.513	4.38
707.266	2.38
708.02	3.38
708.774	4.38
709.527	3.38
710.28	2.38
711.034	2.38
711.787	4.38
712.54	3.38
713.293	3.38
714.046	4.38
714.799	3.38
715.552	4.38
716.305	2.38
717.058	4.38
717.81	4.38
718.563	5.38
719.315	2.38
720.068	1.38
720.82	3.38
721.573	3.38
722.325	5.38
723.077	3.38
723.829	5.38
724.581	4.38
725.333	3.38
726.085	6.38
726.836	5.38
727.588	4.38
728.34	3.38
729.091	1.38
729.843	6.38
730.594	3.38
731.346	4.38
732.097	5.38
732.848	7.38
733.599	4.38
734.35	6.38
735.101	6.38
735.852	2.38
736.603	7.38
737.354	4.38
738.104	2.38
738.855	5.38
739.605	5.38
740.356	2.38
741.106	5.38
741.856	5.38
742.607	5.38
743.357	8.38
744.107	4.38
744.857	5.38
745.607	8.38
746.357	6.38
747.106	5.38
747.856	6.38
748.606	3.38
749.355	5.38
750.105	3.38
750.854	7.38
751.603	6.38
752.353	4.38
753.102	7.38
753.851	5.38
754.6	9.38
755.349	3.38
756.098	8.38
756.847	6.38
757.595	5.38
758.344	6.38
759.093	4.38
759.841	5.38
760.589	4.38
761.338	5.38
762.086	5.38
762.834	7.38
763.582	10.38
764.331	5.38
765.079	7.38
765.826	8.38
766.574	7.38
767.322	7.38
768.07	7.38
768.817	10.38
769.565	8.38
770.312	10.38
771.06	10.38
771.807	7.38
772.554	6.38
773.302	7.38
774.049	10.38
774.796	8.38
775.543	8.38
776.29	6.38
777.036	10.38
777.783	10.38
778.53	10.38
779.276	8.38
780.023	11.38
780.769	10.38
781.516	10.38
782.262	8.38
783.008	8.38
783.754	9.38
784.5	10.38
785.246	10.38
785.992	8.38
786.738	10.38
787.484	6.38
788.23	9.38
788.975	10.38
789.721	11.38
790.466	9.38
791.212	6.38
791.957	8.38
792.702	9.38
793.447	10.38
794.193	9.38
794.938	9.38
795.683	10.38
796.427	6.38
797.172	8.38
797.917	6.38
798.662	7.38
799.406	9.38
800.151	8.38
800.895	10.38
801.64	7.38
802.384	6.38
803.128	8.38
803.872	6.38
804.616	8.38
805.36	7.38
806.104	6.38
806.848	4.38
807.592	6.38
808.336	7.38
809.079	4.38
809.823	5.38
810.566	5.38
811.31	8.38
812.053	5.38
812.796	5.38
813.539	5.38
814.283	6.38
815.026	4.38
815.769	5.38
816.511	4.38
817.254	4.38
817.997	2.38
818.74	4.38
819.482	4.38
820.225	6.38
820.967	2.38
821.71	5.38
822.452	6.38
823.194	3.38
823.936	6.38
824.678	5.38
825.42	3.38
826.162	5.38
826.904	5.38
827.646	3.38
828.388	6.38
829.129	3.38
829.871	4.38
830.612	4.38
831.354	3.38
832.095	2.38
832.836	3.38
833.577	4.38
834.319	6.38
835.06	2.38
835.801	4.38
836.542	4.38
837.282	4.38
838.023	4.38
838.764	2.38
839.504	2.38
840.245	3.38
840.985	2.38
841.726	4.38
842.466	3.38
843.206	4.38
843.946	3.38
844.687	5.38
845.427	2.38
846.166	1.38
846.906	3.38
847.646	1.38
848.386	5.38
849.125	3.38
849.865	4.38
850.605	3.38
851.344	1.38
852.083	1.38
852.823	2.38
853.562	4.38
854.301	1.38
855.04	5.38
855.779	1.38
856.518	4.38
857.257	3.38
857.995	2.38
858.734	3.38
859.473	2.38
860.211	3.38
860.95	2.38
861.688	1.38
862.426	3.38
863.165	1.38
863.903	4.38
864.641	0.38
865.379	1.38
866.117	1.38
866.855	2.38
867.593	1.38
868.33	2.38
869.068	5.38
869.806	4.38
870.543	3.38
871.28	2.38
872.018	2.38
872.755	4.38
873.492	2.38
874.229	3.38
874.967	1.38
875.703	1.38
876.44	4.38
877.177	-0.62
877.914	2.38
878.651	2.38
879.387	0.38
880.124	2.38
880.86	1.38
881.597	2.38
882.333	1.38
883.069	0.38
883.806	1.38
884.542	2.38
885.278	3.38
886.014	0.38
886.749	2.38
887.485	1.38
888.221	0.38
888.957	-0.62
889.692	2.38
890.428	2.38
891.163	1.38
891.899	2.38
892.634	2.38
893.369	1.38
894.104	1.38
894.839	0.38
895.574	0.38
896.309	3.38
897.044	1.38
897.779	1.38
898.514	2.38
899.248	0.38
899.983	1.38
900.717	1.38
901.452	-1.62
902.186	0.38
902.92	0.38
903.654	2.38
904.389	0.38
905.123	1.38
905.857	1.38
906.59	0.38
907.324	1.38
908.058	0.38
908.792	2.38
909.525	2.38
910.259	2.38
910.992	2.38
911.726	1.38
912.459	-1.62
913.192	1.38
913.925	-1.62
914.658	0.38
915.391	0.38
916.124	0.38
916.857	2.38
917.59	-0.62
918.323	1.38
919.055	0.38
919.788	2.38
920.521	-0.62
921.253	2.38
921.985	-0.62
922.718	-0.62
923.45	1.38
924.182	-1.62
924.914	1.38
925.646	1.38
926.378	0.38
927.11	2.38
927.841	2.38
928.573	1.38
929.305	-0.62
930.036	-1.62
930.768	1.38
931.499	0.38
932.23	1.38
932.962	0.38
933.693	0.38
934.424	2.38
935.155	-0.62
935.886	-1.62
936.617	-0.62
937.348	1.38
938.078	-2.62
938.809	1.38
939.54	0.38
940.27	1.38
941.001	0.38
941.731	0.38
942.461	2.38
943.191	2.38
943.922	0.38
944.652	-1.62
945.382	0.38
946.112	2.38
946.841	0.38
947.571	1.38
948.301	0.38
949.031	0.38
949.76	0.38
950.49	-0.62
951.219	2.38
951.948	2.38
952.678	1.38
953.407	0.38
954.136	-0.62
954.865	0.38
955.594	0.38
956.323	2.38
957.052	1.38
957.78	3.38
958.509	1.38
959.238	0.38
959.966	1.38
960.695	-0.62
961.423	2.38
962.151	0.38
962.88	-1.62
963.608	1.38
964.336	-1.62
965.064	1.38
965.792	1.38
966.52	0.38
967.247	1.38
967.975	0.38
968.703	0.38
969.43	1.38
970.158	0.38
970.885	0.38
971.613	0.38
972.34	1.38
973.067	0.38
973.794	-0.62
974.521	-1.62
975.248	1.38
975.975	2.38
976.702	2.38
977.429	2.38
978.156	0.38
978.882	1.38
979.609	1.38
980.335	-0.62
981.062	-1.62
981.788	0.38
982.514	2.38
983.24	0.38
983.967	3.38
984.693	0.38
985.419	0.38
986.144	-0.62
986.87	-0.62
987.596	0.38
988.322	0.38
989.047	1.38
989.773	-0.62
990.498	1.38
991.224	1.38
991.949	-1.62
992.674	0.38
993.399	0.38
994.124	2.38
994.849	2.38
995.574	1.38
996.299	-0.62
997.024	0.38
997.749	1.38
998.473	-0.62
999.198	3.38
999.922	0.38
1000.647	0.38
1001.371	3.38
1002.095	-1.62
1002.82	0.38
1003.544	-3.62
1004.268	2.38
1004.992	1.38
1005.716	2.38
1006.439	2.38
1007.163	-0.62
1007.887	4.38
1008.611	1.38
1009.334	1.38
1010.058	0.38
1010.781	2.38
1011.504	-0.62
1012.228	0.38
1012.951	0.38
1013.674	1.38
1014.397	0.38
1015.12	-0.62
