节点500_285_QEPB04081__351__15-01-23-694.txt的数据

Date: Wed Nov 12 15:01:23 CST 2025
User: PC
Spectrometer: QEPB0408
触发模式: 0
积分时间 (秒): 1.000000E-2
Scans to average: 1
启用暗噪声校正: true
启用非线性校正: false
滑动平均宽度: 0
X轴模式: Wavelengths
Number of Pixels in Spectrum: 1044
>>>>>Begin Spectral Data<<<<<
220.843	1.25
221.644	2.25
222.444	3.25
223.244	0.25
224.045	0.25
224.845	0.25
225.645	0.25
226.445	0.25
227.245	1.25
228.045	-0.75
228.845	3.25
229.645	2.25
230.444	3.25
231.244	3.25
232.043	3.25
232.843	2.25
233.642	3.25
234.442	4.25
235.241	1.25
236.04	3.25
236.839	1.25
237.638	2.25
238.437	5.25
239.236	3.25
240.035	4.25
240.833	6.25
241.632	4.25
242.43	5.25
243.229	6.25
244.027	3.25
244.826	4.25
245.624	4.25
246.422	3.25
247.22	7.25
248.018	7.25
248.816	4.25
249.614	5.25
250.412	6.25
251.21	6.25
252.007	7.25
252.805	5.25
253.602	4.25
254.4	8.25
255.197	6.25
255.994	6.25
256.791	8.25
257.589	8.25
258.386	7.25
259.183	7.25
259.979	11.25
260.776	10.25
261.573	8.25
262.37	8.25
263.166	9.25
263.963	11.25
264.759	12.25
265.556	12.25
266.352	13.25
267.148	11.25
267.944	12.25
268.74	14.25
269.536	15.25
270.332	14.25
271.128	15.25
271.924	16.25
272.719	15.25
273.515	17.25
274.311	16.25
275.106	17.25
275.901	17.25
276.697	18.25
277.492	17.25
278.287	19.25
279.082	18.25
279.877	16.25
280.672	21.25
281.467	18.25
282.262	18.25
283.056	15.25
283.851	19.25
284.646	21.25
285.44	18.25
286.234	16.25
287.029	20.25
287.823	19.25
288.617	17.25
289.411	20.25
290.205	17.25
290.999	19.25
291.793	17.25
292.587	17.25
293.381	16.25
294.174	16.25
294.968	17.25
295.761	17.25
296.555	17.25
297.348	13.25
298.141	13.25
298.935	18.25
299.728	16.25
300.521	13.25
301.314	13.25
302.107	12.25
302.899	11.25
303.692	13.25
304.485	13.25
305.277	11.25
306.07	13.25
306.862	13.25
307.655	12.25
308.447	13.25
309.239	12.25
310.031	9.25
310.823	10.25
311.615	8.25
312.407	9.25
313.199	9.25
313.991	7.25
314.783	9.25
315.574	7.25
316.366	7.25
317.157	9.25
317.949	9.25
318.74	8.25
319.531	9.25
320.322	8.25
321.113	7.25
321.904	5.25
322.695	8.25
323.486	7.25
324.277	7.25
325.068	6.25
325.858	8.25
326.649	6.25
327.439	8.25
328.23	6.25
329.02	7.25
329.81	7.25
330.6	8.25
331.391	7.25
332.181	4.25
332.971	6.25
333.76	5.25
334.55	6.25
335.34	4.25
336.13	7.25
336.919	5.25
337.709	6.25
338.498	7.25
339.287	6.25
340.077	6.25
340.866	8.25
341.655	9.25
342.444	6.25
343.233	7.25
344.022	4.25
344.811	3.25
345.6	5.25
346.388	7.25
347.177	4.25
347.965	5.25
348.754	4.25
349.542	8.25
350.33	3.25
351.119	5.25
351.907	5.25
352.695	4.25
353.483	4.25
354.271	6.25
355.059	5.25
355.846	4.25
356.634	5.25
357.422	6.25
358.209	3.25
358.997	9.25
359.784	5.25
360.571	4.25
361.359	4.25
362.146	5.25
362.933	6.25
363.72	4.25
364.507	6.25
365.294	7.25
366.081	5.25
366.867	5.25
367.654	2.25
368.44	4.25
369.227	5.25
370.013	4.25
370.8	4.25
371.586	4.25
372.372	3.25
373.158	3.25
373.944	4.25
374.73	5.25
375.516	4.25
376.302	4.25
377.088	5.25
377.873	6.25
378.659	4.25
379.445	2.25
380.23	4.25
381.015	6.25
381.801	3.25
382.586	3.25
383.371	6.25
384.156	4.25
384.941	4.25
385.726	5.25
386.511	6.25
387.296	5.25
388.08	8.25
388.865	5.25
389.649	6.25
390.434	4.25
391.218	6.25
392.003	6.25
392.787	6.25
393.571	7.25
394.355	6.25
395.139	6.25
395.923	4.25
396.707	5.25
397.491	5.25
398.274	6.25
399.058	7.25
399.842	7.25
400.625	7.25
401.408	6.25
402.192	8.25
402.975	8.25
403.758	9.25
404.541	8.25
405.324	5.25
406.107	6.25
406.89	6.25
407.673	7.25
408.456	8.25
409.238	7.25
410.021	8.25
410.803	7.25
411.586	9.25
412.368	8.25
413.151	11.25
413.933	8.25
414.715	8.25
415.497	7.25
416.279	11.25
417.061	9.25
417.843	10.25
418.624	9.25
419.406	8.25
420.188	8.25
420.969	9.25
421.751	10.25
422.532	11.25
423.313	12.25
424.095	12.25
424.876	11.25
425.657	9.25
426.438	11.25
427.219	13.25
428	12.25
428.78	14.25
429.561	12.25
430.342	14.25
431.122	14.25
431.903	13.25
432.683	14.25
433.464	16.25
434.244	15.25
435.024	16.25
435.804	15.25
436.584	16.25
437.364	17.25
438.144	17.25
438.924	19.25
439.704	20.25
440.483	23.25
441.263	23.25
442.042	25.25
442.822	26.25
443.601	27.25
444.38	29.25
445.16	31.25
445.939	28.25
446.718	36.25
447.497	38.25
448.276	40.25
449.054	46.25
449.833	48.25
450.612	53.25
451.391	55.25
452.169	61.25
452.948	68.25
453.726	78.25
454.504	79.25
455.282	88.25
456.061	102.25
456.839	108.25
457.617	125.25
458.395	133.25
459.172	147.25
459.95	163.25
460.728	184.25
461.506	205.25
462.283	231.25
463.061	259.25
463.838	291.25
464.615	324.25
465.393	357.25
466.17	400.25
466.947	447.25
467.724	493.25
468.501	552.25
469.278	621.25
470.055	701.25
470.831	763.25
471.608	853.25
472.385	937.25
473.161	1058.25
473.938	1151.25
474.714	1291.25
475.49	1421.25
476.266	1575.25
477.043	1757.25
477.819	1935.25
478.595	2138.25
479.371	2351.25
480.146	2601.25
480.922	2852.25
481.698	3154.25
482.473	3456.25
483.249	3814.25
484.024	4176.25
484.8	4610.25
485.575	5059.25
486.35	5575.25
487.126	6106.25
487.901	6713.25
488.676	7352.25
489.451	7999.25
490.225	8845.25
491	9626.25
491.775	10483.25
492.55	11429.25
493.324	12428.25
494.099	13365.25
494.873	14369.25
495.647	15535.25
496.422	16677.25
497.196	17799.25
497.97	19043.25
498.744	20241.25
499.518	21400.25
500.292	22491.25
501.066	23556.25
501.839	24603.25
502.613	25485.25
503.387	26265.25
504.16	26883.25
504.934	27244.25
505.707	27433.25
506.48	27457.25
507.253	27422.25
508.027	27153.25
508.8	26755.25
509.573	26345.25
510.346	25753.25
511.118	24998.25
511.891	24272.25
512.664	23357.25
513.437	22489.25
514.209	21547.25
514.982	20707.25
515.754	19784.25
516.526	18875.25
517.298	18022.25
518.071	17269.25
518.843	16583.25
519.615	15958.25
520.387	15388.25
521.159	14713.25
521.93	14177.25
522.702	13597.25
523.474	13036.25
524.245	12477.25
525.017	11930.25
525.788	11490.25
526.56	10992.25
527.331	10409.25
528.102	10034.25
528.873	9527.25
529.644	9027.25
530.415	8638.25
531.186	8172.25
531.957	7707.25
532.728	7339.25
533.498	7009.25
534.269	6580.25
535.039	6199.25
535.81	5886.25
536.58	5549.25
537.351	5239.25
538.121	4943.25
538.891	4681.25
539.661	4415.25
540.431	4182.25
541.201	3953.25
541.971	3737.25
542.741	3561.25
543.51	3366.25
544.28	3203.25
545.05	3044.25
545.819	2903.25
546.588	2765.25
547.358	2630.25
548.127	2486.25
548.896	2361.25
549.665	2223.25
550.434	2111.25
551.203	1983.25
551.972	1902.25
552.741	1810.25
553.51	1698.25
554.278	1588.25
555.047	1507.25
555.815	1417.25
556.584	1354.25
557.352	1269.25
558.121	1203.25
558.889	1137.25
559.657	1078.25
560.425	1011.25
561.193	953.25
561.961	898.25
562.729	846.25
563.496	803.25
564.264	743.25
565.032	716.25
565.799	682.25
566.567	640.25
567.334	604.25
568.101	573.25
568.869	546.25
569.636	503.25
570.403	473.25
571.17	450.25
571.937	422.25
572.704	403.25
573.471	382.25
574.237	358.25
575.004	346.25
575.771	315.25
576.537	297.25
577.303	284.25
578.07	269.25
578.836	244.25
579.602	239.25
580.368	223.25
581.134	214.25
581.9	202.25
582.666	196.25
583.432	182.25
584.198	168.25
584.964	165.25
585.729	148.25
586.495	143.25
587.26	140.25
588.025	128.25
588.791	126.25
589.556	118.25
590.321	111.25
591.086	102.25
591.851	97.25
592.616	100.25
593.381	86.25
594.146	87.25
594.911	87.25
595.675	77.25
596.44	71.25
597.204	69.25
597.969	68.25
598.733	66.25
599.497	63.25
600.261	61.25
601.025	57.25
601.79	55.25
602.553	47.25
603.317	54.25
604.081	46.25
604.845	44.25
605.609	42.25
606.372	41.25
607.136	37.25
607.899	37.25
608.662	37.25
609.426	31.25
610.189	34.25
610.952	32.25
611.715	33.25
612.478	30.25
613.241	29.25
614.004	29.25
614.767	26.25
615.529	25.25
616.292	25.25
617.055	23.25
617.817	24.25
618.579	21.25
619.342	20.25
620.104	22.25
620.866	19.25
621.628	19.25
622.39	19.25
623.152	19.25
623.914	20.25
624.676	17.25
625.438	19.25
626.199	18.25
626.961	16.25
627.722	15.25
628.484	15.25
629.245	14.25
630.006	15.25
630.768	13.25
631.529	12.25
632.29	13.25
633.051	14.25
633.812	10.25
634.573	11.25
635.333	10.25
636.094	11.25
636.855	10.25
637.615	11.25
638.376	14.25
639.136	9.25
639.896	11.25
640.657	8.25
641.417	8.25
642.177	7.25
642.937	7.25
643.697	9.25
644.457	7.25
645.216	9.25
645.976	7.25
646.736	7.25
647.495	7.25
648.255	6.25
649.014	7.25
649.774	5.25
650.533	6.25
651.292	7.25
652.051	7.25
652.81	6.25
653.569	7.25
654.328	7.25
655.087	6.25
655.846	7.25
656.604	4.25
657.363	5.25
658.121	6.25
658.88	6.25
659.638	6.25
660.397	7.25
661.155	5.25
661.913	6.25
662.671	5.25
663.429	6.25
664.187	3.25
664.945	5.25
665.703	4.25
666.46	6.25
667.218	6.25
667.976	3.25
668.733	6.25
669.49	4.25
670.248	5.25
671.005	4.25
671.762	5.25
672.519	4.25
673.276	3.25
674.033	6.25
674.79	2.25
675.547	4.25
676.304	4.25
677.06	2.25
677.817	3.25
678.574	2.25
679.33	4.25
680.086	3.25
680.843	4.25
681.599	4.25
682.355	1.25
683.111	4.25
683.867	2.25
684.623	5.25
685.379	2.25
686.135	6.25
686.89	4.25
687.646	3.25
688.402	3.25
689.157	6.25
689.912	4.25
690.668	4.25
691.423	3.25
692.178	2.25
692.933	2.25
693.688	4.25
694.443	5.25
695.198	3.25
695.953	1.25
696.708	2.25
697.462	4.25
698.217	4.25
698.972	3.25
699.726	3.25
700.48	2.25
701.235	4.25
701.989	3.25
702.743	4.25
703.497	4.25
704.251	5.25
705.005	2.25
705.759	3.25
706.513	4.25
707.266	4.25
708.02	3.25
708.774	4.25
709.527	2.25
710.28	4.25
711.034	3.25
711.787	3.25
712.54	2.25
713.293	4.25
714.046	3.25
714.799	3.25
715.552	3.25
716.305	3.25
717.058	3.25
717.81	4.25
718.563	2.25
719.315	3.25
720.068	3.25
720.82	2.25
721.573	1.25
722.325	5.25
723.077	4.25
723.829	3.25
724.581	3.25
725.333	4.25
726.085	3.25
726.836	2.25
727.588	2.25
728.34	5.25
729.091	3.25
729.843	2.25
730.594	4.25
731.346	4.25
732.097	3.25
732.848	3.25
733.599	4.25
734.35	5.25
735.101	4.25
735.852	3.25
736.603	5.25
737.354	4.25
738.104	3.25
738.855	3.25
739.605	4.25
740.356	4.25
741.106	4.25
741.856	6.25
742.607	5.25
743.357	5.25
744.107	5.25
744.857	5.25
745.607	6.25
746.357	3.25
747.106	3.25
747.856	3.25
748.606	3.25
749.355	5.25
750.105	6.25
750.854	3.25
751.603	4.25
752.353	4.25
753.102	6.25
753.851	5.25
754.6	5.25
755.349	5.25
756.098	6.25
756.847	5.25
757.595	4.25
758.344	8.25
759.093	6.25
759.841	3.25
760.589	4.25
761.338	5.25
762.086	5.25
762.834	6.25
763.582	7.25
764.331	4.25
765.079	5.25
765.826	5.25
766.574	7.25
767.322	8.25
768.07	9.25
768.817	6.25
769.565	8.25
770.312	6.25
771.06	7.25
771.807	9.25
772.554	6.25
773.302	5.25
774.049	5.25
774.796	7.25
775.543	5.25
776.29	7.25
777.036	7.25
777.783	6.25
778.53	8.25
779.276	8.25
780.023	7.25
780.769	8.25
781.516	11.25
782.262	10.25
783.008	8.25
783.754	8.25
784.5	9.25
785.246	6.25
785.992	8.25
786.738	8.25
787.484	8.25
788.23	10.25
788.975	7.25
789.721	8.25
790.466	8.25
791.212	7.25
791.957	7.25
792.702	5.25
793.447	10.25
794.193	6.25
794.938	7.25
795.683	7.25
796.427	5.25
797.172	8.25
797.917	7.25
798.662	5.25
799.406	5.25
800.151	9.25
800.895	6.25
801.64	7.25
802.384	7.25
803.128	7.25
803.872	6.25
804.616	4.25
805.36	5.25
806.104	9.25
806.848	5.25
807.592	5.25
808.336	5.25
809.079	5.25
809.823	5.25
810.566	5.25
811.31	5.25
812.053	4.25
812.796	5.25
813.539	6.25
814.283	3.25
815.026	6.25
815.769	4.25
816.511	5.25
817.254	6.25
817.997	4.25
818.74	5.25
819.482	3.25
820.225	5.25
820.967	1.25
821.71	3.25
822.452	3.25
823.194	6.25
823.936	2.25
824.678	2.25
825.42	3.25
826.162	5.25
826.904	4.25
827.646	4.25
828.388	4.25
829.129	3.25
829.871	5.25
830.612	3.25
831.354	2.25
832.095	4.25
832.836	5.25
833.577	3.25
834.319	1.25
835.06	2.25
835.801	4.25
836.542	3.25
837.282	3.25
838.023	3.25
838.764	2.25
839.504	3.25
840.245	4.25
840.985	3.25
841.726	3.25
842.466	3.25
843.206	4.25
843.946	1.25
844.687	4.25
845.427	5.25
846.166	4.25
846.906	2.25
847.646	4.25
848.386	3.25
849.125	0.25
849.865	1.25
850.605	5.25
851.344	1.25
852.083	3.25
852.823	2.25
853.562	0.25
854.301	3.25
855.04	1.25
855.779	-0.75
856.518	1.25
857.257	3.25
857.995	-1.75
858.734	3.25
859.473	2.25
860.211	3.25
860.95	1.25
861.688	0.25
862.426	1.25
863.165	1.25
863.903	3.25
864.641	0.25
865.379	2.25
866.117	0.25
866.855	1.25
867.593	4.25
868.33	2.25
869.068	3.25
869.806	1.25
870.543	1.25
871.28	0.25
872.018	1.25
872.755	0.25
873.492	3.25
874.229	1.25
874.967	0.25
875.703	0.25
876.44	2.25
877.177	-0.75
877.914	2.25
878.651	0.25
879.387	0.25
880.124	1.25
880.86	1.25
881.597	0.25
882.333	-0.75
883.069	-0.75
883.806	1.25
884.542	-0.75
885.278	1.25
886.014	0.25
886.749	1.25
887.485	2.25
888.221	0.25
888.957	-1.75
889.692	0.25
890.428	1.25
891.163	1.25
891.899	0.25
892.634	1.25
893.369	0.25
894.104	2.25
894.839	0.25
895.574	-0.75
896.309	0.25
897.044	0.25
897.779	1.25
898.514	0.25
899.248	1.25
899.983	1.25
900.717	0.25
901.452	-0.75
902.186	-1.75
902.92	-0.75
903.654	0.25
904.389	0.25
905.123	1.25
905.857	0.25
906.59	0.25
907.324	-0.75
908.058	-0.75
908.792	0.25
909.525	1.25
910.259	-1.75
910.992	-1.75
911.726	0.25
912.459	1.25
913.192	0.25
913.925	-0.75
914.658	1.25
915.391	0.25
916.124	0.25
916.857	-2.75
917.59	-1.75
918.323	1.25
919.055	-0.75
919.788	1.25
920.521	1.25
921.253	0.25
921.985	1.25
922.718	-3.75
923.45	-0.75
924.182	0.25
924.914	-1.75
925.646	0.25
926.378	-0.75
927.11	-0.75
927.841	-0.75
928.573	-0.75
929.305	-0.75
930.036	-0.75
930.768	1.25
931.499	-1.75
932.23	-0.75
932.962	0.25
933.693	-1.75
934.424	-0.75
935.155	-1.75
935.886	-0.75
936.617	0.25
937.348	1.25
938.078	-1.75
938.809	-2.75
939.54	-0.75
940.27	0.25
941.001	0.25
941.731	-0.75
942.461	0.25
943.191	-0.75
943.922	-0.75
944.652	-0.75
945.382	-2.75
946.112	0.25
946.841	1.25
947.571	-2.75
948.301	-0.75
949.031	-2.75
949.76	0.25
950.49	0.25
951.219	1.25
951.948	0.25
952.678	1.25
953.407	0.25
954.136	-2.75
954.865	0.25
955.594	1.25
956.323	1.25
957.052	0.25
957.78	0.25
958.509	1.25
959.238	-2.75
959.966	0.25
960.695	3.25
961.423	0.25
962.151	1.25
962.88	2.25
963.608	3.25
964.336	-0.75
965.064	-0.75
965.792	-1.75
966.52	-0.75
967.247	-0.75
967.975	-0.75
968.703	0.25
969.43	0.25
970.158	-0.75
970.885	-0.75
971.613	2.25
972.34	2.25
973.067	1.25
973.794	1.25
974.521	-0.75
975.248	-1.75
975.975	2.25
976.702	-0.75
977.429	0.25
978.156	-0.75
978.882	0.25
979.609	0.25
980.335	-1.75
981.062	1.25
981.788	-0.75
982.514	0.25
983.24	-1.75
983.967	0.25
984.693	-0.75
985.419	0.25
986.144	1.25
986.87	1.25
987.596	-0.75
988.322	1.25
989.047	-0.75
989.773	-0.75
990.498	-1.75
991.224	0.25
991.949	-0.75
992.674	1.25
993.399	0.25
994.124	-0.75
994.849	1.25
995.574	0.25
996.299	2.25
997.024	0.25
997.749	-0.75
998.473	1.25
999.198	-0.75
999.922	2.25
1000.647	-1.75
1001.371	3.25
1002.095	1.25
1002.82	-0.75
1003.544	-3.75
1004.268	2.25
1004.992	1.25
1005.716	0.25
1006.439	1.25
1007.163	1.25
1007.887	0.25
1008.611	1.25
1009.334	-1.75
1010.058	0.25
1010.781	-1.75
1011.504	0.25
1012.228	1.25
1012.951	1.25
1013.674	-0.75
1014.397	1.25
1015.12	-1.75
