节点500_285_QEPB04081__543__15-04-35-292.txt的数据

Date: Wed Nov 12 15:04:35 CST 2025
User: PC
Spectrometer: QEPB0408
触发模式: 0
积分时间 (秒): 1.000000E-2
Scans to average: 1
启用暗噪声校正: true
启用非线性校正: false
滑动平均宽度: 0
X轴模式: Wavelengths
Number of Pixels in Spectrum: 1044
>>>>>Begin Spectral Data<<<<<
220.843	0.38
221.644	-1.62
222.444	0.38
223.244	3.38
224.045	0.38
224.845	1.38
225.645	2.38
226.445	1.38
227.245	1.38
228.045	3.38
228.845	0.38
229.645	3.38
230.444	2.38
231.244	3.38
232.043	2.38
232.843	1.38
233.642	5.38
234.442	1.38
235.241	4.38
236.04	3.38
236.839	3.38
237.638	4.38
238.437	1.38
239.236	3.38
240.035	1.38
240.833	2.38
241.632	7.38
242.43	3.38
243.229	5.38
244.027	2.38
244.826	5.38
245.624	6.38
246.422	6.38
247.22	3.38
248.018	5.38
248.816	3.38
249.614	4.38
250.412	5.38
251.21	5.38
252.007	6.38
252.805	4.38
253.602	6.38
254.4	6.38
255.197	6.38
255.994	6.38
256.791	7.38
257.589	7.38
258.386	7.38
259.183	7.38
259.979	10.38
260.776	7.38
261.573	9.38
262.37	9.38
263.166	10.38
263.963	8.38
264.759	8.38
265.556	9.38
266.352	11.38
267.148	10.38
267.944	13.38
268.74	11.38
269.536	13.38
270.332	13.38
271.128	14.38
271.924	13.38
272.719	15.38
273.515	15.38
274.311	14.38
275.106	14.38
275.901	15.38
276.697	15.38
277.492	15.38
278.287	17.38
279.082	17.38
279.877	15.38
280.672	18.38
281.467	16.38
282.262	15.38
283.056	17.38
283.851	18.38
284.646	19.38
285.44	13.38
286.234	17.38
287.029	17.38
287.823	17.38
288.617	14.38
289.411	18.38
290.205	18.38
290.999	18.38
291.793	13.38
292.587	16.38
293.381	16.38
294.174	17.38
294.968	14.38
295.761	16.38
296.555	16.38
297.348	16.38
298.141	13.38
298.935	16.38
299.728	15.38
300.521	12.38
301.314	14.38
302.107	13.38
302.899	12.38
303.692	12.38
304.485	11.38
305.277	11.38
306.07	12.38
306.862	12.38
307.655	11.38
308.447	8.38
309.239	10.38
310.031	9.38
310.823	8.38
311.615	11.38
312.407	8.38
313.199	10.38
313.991	7.38
314.783	9.38
315.574	10.38
316.366	7.38
317.157	8.38
317.949	8.38
318.74	7.38
319.531	6.38
320.322	6.38
321.113	6.38
321.904	7.38
322.695	7.38
323.486	8.38
324.277	5.38
325.068	4.38
325.858	10.38
326.649	5.38
327.439	4.38
328.23	6.38
329.02	3.38
329.81	6.38
330.6	6.38
331.391	8.38
332.181	4.38
332.971	9.38
333.76	5.38
334.55	3.38
335.34	7.38
336.13	5.38
336.919	5.38
337.709	5.38
338.498	4.38
339.287	7.38
340.077	6.38
340.866	6.38
341.655	4.38
342.444	7.38
343.233	7.38
344.022	3.38
344.811	8.38
345.6	6.38
346.388	7.38
347.177	4.38
347.965	6.38
348.754	4.38
349.542	4.38
350.33	6.38
351.119	4.38
351.907	5.38
352.695	6.38
353.483	5.38
354.271	3.38
355.059	4.38
355.846	6.38
356.634	4.38
357.422	5.38
358.209	4.38
358.997	5.38
359.784	6.38
360.571	1.38
361.359	4.38
362.146	4.38
362.933	6.38
363.72	7.38
364.507	5.38
365.294	4.38
366.081	5.38
366.867	3.38
367.654	1.38
368.44	4.38
369.227	4.38
370.013	3.38
370.8	4.38
371.586	4.38
372.372	6.38
373.158	5.38
373.944	5.38
374.73	3.38
375.516	4.38
376.302	5.38
377.088	4.38
377.873	4.38
378.659	5.38
379.445	4.38
380.23	4.38
381.015	3.38
381.801	5.38
382.586	6.38
383.371	2.38
384.156	4.38
384.941	3.38
385.726	3.38
386.511	3.38
387.296	5.38
388.08	5.38
388.865	4.38
389.649	4.38
390.434	4.38
391.218	5.38
392.003	5.38
392.787	4.38
393.571	7.38
394.355	5.38
395.139	5.38
395.923	5.38
396.707	8.38
397.491	4.38
398.274	5.38
399.058	7.38
399.842	7.38
400.625	6.38
401.408	5.38
402.192	8.38
402.975	6.38
403.758	6.38
404.541	6.38
405.324	4.38
406.107	8.38
406.89	5.38
407.673	9.38
408.456	8.38
409.238	6.38
410.021	8.38
410.803	7.38
411.586	8.38
412.368	6.38
413.151	5.38
413.933	8.38
414.715	5.38
415.497	8.38
416.279	6.38
417.061	8.38
417.843	10.38
418.624	7.38
419.406	8.38
420.188	8.38
420.969	9.38
421.751	8.38
422.532	11.38
423.313	11.38
424.095	11.38
424.876	11.38
425.657	9.38
426.438	9.38
427.219	10.38
428	10.38
428.78	11.38
429.561	13.38
430.342	10.38
431.122	11.38
431.903	13.38
432.683	12.38
433.464	14.38
434.244	16.38
435.024	13.38
435.804	19.38
436.584	15.38
437.364	17.38
438.144	21.38
438.924	20.38
439.704	21.38
440.483	22.38
441.263	24.38
442.042	25.38
442.822	24.38
443.601	25.38
444.38	28.38
445.16	33.38
445.939	33.38
446.718	34.38
447.497	40.38
448.276	41.38
449.054	43.38
449.833	45.38
450.612	54.38
451.391	58.38
452.169	65.38
452.948	68.38
453.726	76.38
454.504	84.38
455.282	93.38
456.061	104.38
456.839	110.38
457.617	127.38
458.395	139.38
459.172	152.38
459.95	165.38
460.728	189.38
461.506	212.38
462.283	237.38
463.061	263.38
463.838	293.38
464.615	332.38
465.393	368.38
466.17	410.38
466.947	458.38
467.724	509.38
468.501	552.38
469.278	626.38
470.055	701.38
470.831	774.38
471.608	865.38
472.385	949.38
473.161	1053.38
473.938	1159.38
474.714	1296.38
475.49	1429.38
476.266	1560.38
477.043	1727.38
477.819	1896.38
478.595	2082.38
479.371	2277.38
480.146	2512.38
480.922	2783.38
481.698	3047.38
482.473	3353.38
483.249	3687.38
484.024	4033.38
484.8	4414.38
485.575	4857.38
486.35	5275.38
487.126	5781.38
487.901	6328.38
488.676	6913.38
489.451	7600.38
490.225	8248.38
491	8969.38
491.775	9804.38
492.55	10628.38
493.324	11509.38
494.099	12381.38
494.873	13330.38
495.647	14363.38
496.422	15411.38
497.196	16527.38
497.97	17573.38
498.744	18699.38
499.518	19845.38
500.292	20885.38
501.066	21882.38
501.839	22811.38
502.613	23707.38
503.387	24482.38
504.16	25171.38
504.934	25531.38
505.707	25755.38
506.48	25991.38
507.253	26044.38
508.027	25800.38
508.8	25722.38
509.573	25390.38
510.346	24907.38
511.118	24176.38
511.891	23569.38
512.664	22778.38
513.437	22067.38
514.209	21177.38
514.982	20312.38
515.754	19450.38
516.526	18604.38
517.298	17830.38
518.071	17088.38
518.843	16441.38
519.615	15824.38
520.387	15204.38
521.159	14585.38
521.93	13997.38
522.702	13422.38
523.474	12895.38
524.245	12354.38
525.017	11769.38
525.788	11347.38
526.56	10884.38
527.331	10372.38
528.102	9947.38
528.873	9449.38
529.644	8985.38
530.415	8581.38
531.186	8150.38
531.957	7726.38
532.728	7381.38
533.498	7010.38
534.269	6598.38
535.039	6260.38
535.81	5903.38
536.58	5586.38
537.351	5232.38
538.121	4985.38
538.891	4736.38
539.661	4452.38
540.431	4206.38
541.201	3972.38
541.971	3787.38
542.741	3572.38
543.51	3414.38
544.28	3217.38
545.05	3083.38
545.819	2910.38
546.588	2766.38
547.358	2642.38
548.127	2490.38
548.896	2380.38
549.665	2262.38
550.434	2132.38
551.203	2029.38
551.972	1903.38
552.741	1819.38
553.51	1708.38
554.278	1633.38
555.047	1544.38
555.815	1449.38
556.584	1368.38
557.352	1297.38
558.121	1226.38
558.889	1146.38
559.657	1099.38
560.425	1034.38
561.193	961.38
561.961	915.38
562.729	858.38
563.496	794.38
564.264	773.38
565.032	728.38
565.799	704.38
566.567	648.38
567.334	619.38
568.101	575.38
568.869	545.38
569.636	511.38
570.403	495.38
571.17	459.38
571.937	436.38
572.704	411.38
573.471	389.38
574.237	364.38
575.004	343.38
575.771	320.38
576.537	307.38
577.303	289.38
578.07	269.38
578.836	253.38
579.602	245.38
580.368	226.38
581.134	215.38
581.9	202.38
582.666	190.38
583.432	188.38
584.198	172.38
584.964	162.38
585.729	154.38
586.495	150.38
587.26	143.38
588.025	135.38
588.791	121.38
589.556	111.38
590.321	113.38
591.086	104.38
591.851	101.38
592.616	100.38
593.381	91.38
594.146	92.38
594.911	81.38
595.675	79.38
596.44	74.38
597.204	73.38
597.969	69.38
598.733	65.38
599.497	61.38
600.261	59.38
601.025	59.38
601.79	50.38
602.553	50.38
603.317	50.38
604.081	46.38
604.845	46.38
605.609	41.38
606.372	41.38
607.136	44.38
607.899	38.38
608.662	37.38
609.426	38.38
610.189	34.38
610.952	31.38
611.715	33.38
612.478	28.38
613.241	28.38
614.004	30.38
614.767	26.38
615.529	26.38
616.292	24.38
617.055	22.38
617.817	23.38
618.579	22.38
619.342	24.38
620.104	20.38
620.866	19.38
621.628	20.38
622.39	19.38
623.152	20.38
623.914	18.38
624.676	18.38
625.438	16.38
626.199	17.38
626.961	13.38
627.722	13.38
628.484	14.38
629.245	14.38
630.006	12.38
630.768	14.38
631.529	12.38
632.29	11.38
633.051	13.38
633.812	10.38
634.573	9.38
635.333	12.38
636.094	10.38
636.855	9.38
637.615	12.38
638.376	11.38
639.136	7.38
639.896	9.38
640.657	6.38
641.417	8.38
642.177	8.38
642.937	9.38
643.697	6.38
644.457	6.38
645.216	9.38
645.976	8.38
646.736	8.38
647.495	6.38
648.255	9.38
649.014	4.38
649.774	5.38
650.533	9.38
651.292	6.38
652.051	7.38
652.81	5.38
653.569	7.38
654.328	6.38
655.087	6.38
655.846	6.38
656.604	6.38
657.363	2.38
658.121	5.38
658.88	4.38
659.638	5.38
660.397	5.38
661.155	6.38
661.913	4.38
662.671	3.38
663.429	3.38
664.187	4.38
664.945	3.38
665.703	6.38
666.46	5.38
667.218	3.38
667.976	4.38
668.733	6.38
669.49	3.38
670.248	4.38
671.005	4.38
671.762	5.38
672.519	3.38
673.276	5.38
674.033	6.38
674.79	2.38
675.547	4.38
676.304	2.38
677.06	3.38
677.817	5.38
678.574	4.38
679.33	3.38
680.086	3.38
680.843	5.38
681.599	2.38
682.355	3.38
683.111	2.38
683.867	3.38
684.623	4.38
685.379	3.38
686.135	1.38
686.89	3.38
687.646	1.38
688.402	1.38
689.157	2.38
689.912	5.38
690.668	2.38
691.423	1.38
692.178	3.38
692.933	4.38
693.688	2.38
694.443	3.38
695.198	2.38
695.953	2.38
696.708	2.38
697.462	3.38
698.217	4.38
698.972	3.38
699.726	1.38
700.48	4.38
701.235	2.38
701.989	4.38
702.743	4.38
703.497	1.38
704.251	3.38
705.005	1.38
705.759	3.38
706.513	2.38
707.266	3.38
708.02	3.38
708.774	2.38
709.527	2.38
710.28	0.38
711.034	1.38
711.787	1.38
712.54	3.38
713.293	4.38
714.046	1.38
714.799	3.38
715.552	1.38
716.305	3.38
717.058	4.38
717.81	4.38
718.563	3.38
719.315	3.38
720.068	4.38
720.82	1.38
721.573	2.38
722.325	4.38
723.077	2.38
723.829	2.38
724.581	3.38
725.333	4.38
726.085	3.38
726.836	5.38
727.588	1.38
728.34	4.38
729.091	4.38
729.843	4.38
730.594	4.38
731.346	4.38
732.097	3.38
732.848	4.38
733.599	1.38
734.35	3.38
735.101	3.38
735.852	2.38
736.603	3.38
737.354	1.38
738.104	1.38
738.855	3.38
739.605	2.38
740.356	1.38
741.106	5.38
741.856	5.38
742.607	3.38
743.357	1.38
744.107	4.38
744.857	4.38
745.607	5.38
746.357	4.38
747.106	4.38
747.856	1.38
748.606	3.38
749.355	2.38
750.105	6.38
750.854	3.38
751.603	3.38
752.353	4.38
753.102	3.38
753.851	3.38
754.6	5.38
755.349	5.38
756.098	5.38
756.847	3.38
757.595	5.38
758.344	3.38
759.093	5.38
759.841	3.38
760.589	5.38
761.338	6.38
762.086	4.38
762.834	6.38
763.582	3.38
764.331	6.38
765.079	6.38
765.826	5.38
766.574	7.38
767.322	5.38
768.07	5.38
768.817	5.38
769.565	5.38
770.312	7.38
771.06	4.38
771.807	7.38
772.554	8.38
773.302	7.38
774.049	5.38
774.796	7.38
775.543	7.38
776.29	6.38
777.036	7.38
777.783	6.38
778.53	8.38
779.276	7.38
780.023	6.38
780.769	9.38
781.516	6.38
782.262	8.38
783.008	7.38
783.754	7.38
784.5	10.38
785.246	8.38
785.992	10.38
786.738	9.38
787.484	8.38
788.23	8.38
788.975	11.38
789.721	11.38
790.466	8.38
791.212	9.38
791.957	7.38
792.702	6.38
793.447	9.38
794.193	5.38
794.938	7.38
795.683	6.38
796.427	7.38
797.172	9.38
797.917	8.38
798.662	6.38
799.406	5.38
800.151	7.38
800.895	5.38
801.64	6.38
802.384	7.38
803.128	6.38
803.872	5.38
804.616	6.38
805.36	8.38
806.104	6.38
806.848	6.38
807.592	5.38
808.336	6.38
809.079	7.38
809.823	6.38
810.566	5.38
811.31	7.38
812.053	4.38
812.796	1.38
813.539	4.38
814.283	5.38
815.026	5.38
815.769	4.38
816.511	3.38
817.254	4.38
817.997	4.38
818.74	2.38
819.482	1.38
820.225	5.38
820.967	4.38
821.71	3.38
822.452	4.38
823.194	5.38
823.936	2.38
824.678	4.38
825.42	4.38
826.162	4.38
826.904	3.38
827.646	2.38
828.388	1.38
829.129	4.38
829.871	4.38
830.612	4.38
831.354	4.38
832.095	2.38
832.836	1.38
833.577	1.38
834.319	1.38
835.06	4.38
835.801	2.38
836.542	3.38
837.282	4.38
838.023	1.38
838.764	2.38
839.504	1.38
840.245	2.38
840.985	1.38
841.726	0.38
842.466	3.38
843.206	2.38
843.946	1.38
844.687	4.38
845.427	1.38
846.166	4.38
846.906	0.38
847.646	4.38
848.386	3.38
849.125	2.38
849.865	4.38
850.605	2.38
851.344	4.38
852.083	1.38
852.823	2.38
853.562	1.38
854.301	1.38
855.04	0.38
855.779	4.38
856.518	3.38
857.257	2.38
857.995	1.38
858.734	1.38
859.473	0.38
860.211	2.38
860.95	3.38
861.688	2.38
862.426	0.38
863.165	0.38
863.903	1.38
864.641	0.38
865.379	2.38
866.117	0.38
866.855	2.38
867.593	0.38
868.33	1.38
869.068	2.38
869.806	0.38
870.543	1.38
871.28	2.38
872.018	1.38
872.755	3.38
873.492	0.38
874.229	1.38
874.967	-0.62
875.703	1.38
876.44	1.38
877.177	1.38
877.914	2.38
878.651	2.38
879.387	2.38
880.124	-0.62
880.86	1.38
881.597	-2.62
882.333	0.38
883.069	2.38
883.806	-1.62
884.542	1.38
885.278	0.38
886.014	1.38
886.749	-1.62
887.485	1.38
888.221	0.38
888.957	1.38
889.692	1.38
890.428	-1.62
891.163	1.38
891.899	-1.62
892.634	-0.62
893.369	1.38
894.104	0.38
894.839	1.38
895.574	-0.62
896.309	-1.62
897.044	0.38
897.779	-1.62
898.514	1.38
899.248	0.38
899.983	1.38
900.717	-0.62
901.452	1.38
902.186	-0.62
902.92	-1.62
903.654	0.38
904.389	1.38
905.123	-1.62
905.857	-0.62
906.59	-0.62
907.324	0.38
908.058	0.38
908.792	1.38
909.525	1.38
910.259	-0.62
910.992	-0.62
911.726	-0.62
912.459	-0.62
913.192	-1.62
913.925	1.38
914.658	0.38
915.391	-0.62
916.124	0.38
916.857	-0.62
917.59	1.38
918.323	-0.62
919.055	0.38
919.788	0.38
920.521	-0.62
921.253	1.38
921.985	0.38
922.718	0.38
923.45	-0.62
924.182	-1.62
924.914	-2.62
925.646	-0.62
926.378	0.38
927.11	-1.62
927.841	0.38
928.573	0.38
929.305	0.38
930.036	-0.62
930.768	-1.62
931.499	0.38
932.23	1.38
932.962	0.38
933.693	0.38
934.424	-0.62
935.155	1.38
935.886	0.38
936.617	2.38
937.348	-0.62
938.078	1.38
938.809	-1.62
939.54	1.38
940.27	-2.62
941.001	0.38
941.731	1.38
942.461	-0.62
943.191	-0.62
943.922	-0.62
944.652	-2.62
945.382	1.38
946.112	-1.62
946.841	0.38
947.571	0.38
948.301	0.38
949.031	0.38
949.76	-1.62
950.49	-0.62
951.219	-2.62
951.948	-0.62
952.678	2.38
953.407	0.38
954.136	-0.62
954.865	2.38
955.594	-0.62
956.323	-2.62
957.052	-0.62
957.78	-2.62
958.509	-0.62
959.238	1.38
959.966	-1.62
960.695	-0.62
961.423	-0.62
962.151	-0.62
962.88	-1.62
963.608	-0.62
964.336	0.38
965.064	-1.62
965.792	0.38
966.52	-0.62
967.247	0.38
967.975	-0.62
968.703	-0.62
969.43	-0.62
970.158	-2.62
970.885	1.38
971.613	-0.62
972.34	-0.62
973.067	0.38
973.794	-1.62
974.521	0.38
975.248	-0.62
975.975	-1.62
976.702	-0.62
977.429	-1.62
978.156	-2.62
978.882	-2.62
979.609	-0.62
980.335	-1.62
981.062	1.38
981.788	-0.62
982.514	-2.62
983.24	-0.62
983.967	0.38
984.693	-0.62
985.419	-0.62
986.144	0.38
986.87	-0.62
987.596	-0.62
988.322	-0.62
989.047	-0.62
989.773	-0.62
990.498	2.38
991.224	-0.62
991.949	0.38
992.674	-0.62
993.399	0.38
994.124	-0.62
994.849	2.38
995.574	-0.62
996.299	-2.62
997.024	-0.62
997.749	-0.62
998.473	0.38
999.198	1.38
999.922	0.38
1000.647	-0.62
1001.371	2.38
1002.095	-0.62
1002.82	-0.62
1003.544	-1.62
1004.268	0.38
1004.992	1.38
1005.716	0.38
1006.439	1.38
1007.163	-0.62
1007.887	-0.62
1008.611	-0.62
1009.334	0.38
1010.058	0.38
1010.781	0.38
1011.504	0.38
1012.228	-2.62
1012.951	0.38
1013.674	0.38
1014.397	-0.62
1015.12	0.38
