节点500_285_QEPB04081__565__15-04-57-209.txt的数据

Date: Wed Nov 12 15:04:57 CST 2025
User: PC
Spectrometer: QEPB0408
触发模式: 0
积分时间 (秒): 1.000000E-2
Scans to average: 1
启用暗噪声校正: true
启用非线性校正: false
滑动平均宽度: 0
X轴模式: Wavelengths
Number of Pixels in Spectrum: 1044
>>>>>Begin Spectral Data<<<<<
220.843	0
221.644	0
222.444	-1
223.244	2
224.045	2
224.845	3
225.645	0
226.445	3
227.245	5
228.045	4
228.845	3
229.645	3
230.444	5
231.244	3
232.043	4
232.843	3
233.642	2
234.442	4
235.241	3
236.04	3
236.839	2
237.638	4
238.437	5
239.236	2
240.035	4
240.833	4
241.632	5
242.43	3
243.229	4
244.027	4
244.826	3
245.624	5
246.422	5
247.22	5
248.018	4
248.816	6
249.614	9
250.412	6
251.21	7
252.007	6
252.805	6
253.602	6
254.4	7
255.197	9
255.994	8
256.791	9
257.589	7
258.386	9
259.183	9
259.979	10
260.776	9
261.573	9
262.37	9
263.166	11
263.963	12
264.759	12
265.556	12
266.352	10
267.148	10
267.944	14
268.74	13
269.536	13
270.332	12
271.128	14
271.924	15
272.719	15
273.515	14
274.311	16
275.106	17
275.901	18
276.697	14
277.492	17
278.287	18
279.082	16
279.877	18
280.672	18
281.467	18
282.262	20
283.056	19
283.851	18
284.646	19
285.44	18
286.234	16
287.029	18
287.823	18
288.617	18
289.411	20
290.205	18
290.999	19
291.793	17
292.587	20
293.381	18
294.174	18
294.968	17
295.761	16
296.555	14
297.348	17
298.141	13
298.935	19
299.728	13
300.521	14
301.314	15
302.107	14
302.899	15
303.692	14
304.485	9
305.277	11
306.07	14
306.862	13
307.655	10
308.447	10
309.239	12
310.031	13
310.823	11
311.615	9
312.407	10
313.199	11
313.991	10
314.783	12
315.574	9
316.366	7
317.157	9
317.949	7
318.74	8
319.531	8
320.322	7
321.113	8
321.904	9
322.695	7
323.486	7
324.277	7
325.068	5
325.858	5
326.649	9
327.439	7
328.23	7
329.02	7
329.81	8
330.6	5
331.391	6
332.181	7
332.971	6
333.76	9
334.55	9
335.34	8
336.13	7
336.919	8
337.709	8
338.498	7
339.287	5
340.077	6
340.866	5
341.655	7
342.444	5
343.233	7
344.022	6
344.811	7
345.6	5
346.388	5
347.177	7
347.965	7
348.754	6
349.542	7
350.33	5
351.119	7
351.907	5
352.695	6
353.483	6
354.271	7
355.059	4
355.846	7
356.634	5
357.422	7
358.209	7
358.997	6
359.784	4
360.571	5
361.359	4
362.146	5
362.933	5
363.72	7
364.507	4
365.294	7
366.081	4
366.867	5
367.654	6
368.44	4
369.227	5
370.013	5
370.8	5
371.586	5
372.372	5
373.158	6
373.944	6
374.73	5
375.516	5
376.302	4
377.088	4
377.873	6
378.659	4
379.445	4
380.23	6
381.015	6
381.801	5
382.586	5
383.371	4
384.156	6
384.941	7
385.726	6
386.511	5
387.296	6
388.08	4
388.865	8
389.649	6
390.434	6
391.218	6
392.003	7
392.787	6
393.571	4
394.355	7
395.139	5
395.923	6
396.707	7
397.491	8
398.274	8
399.058	5
399.842	6
400.625	6
401.408	7
402.192	7
402.975	7
403.758	5
404.541	9
405.324	7
406.107	6
406.89	7
407.673	7
408.456	7
409.238	10
410.021	8
410.803	10
411.586	9
412.368	9
413.151	10
413.933	10
414.715	7
415.497	9
416.279	11
417.061	11
417.843	10
418.624	10
419.406	10
420.188	10
420.969	9
421.751	12
422.532	10
423.313	13
424.095	11
424.876	13
425.657	13
426.438	11
427.219	11
428	14
428.78	13
429.561	14
430.342	14
431.122	14
431.903	14
432.683	16
433.464	17
434.244	16
435.024	14
435.804	17
436.584	18
437.364	18
438.144	21
438.924	20
439.704	23
440.483	23
441.263	25
442.042	25
442.822	27
443.601	30
444.38	30
445.16	36
445.939	35
446.718	39
447.497	41
448.276	41
449.054	46
449.833	48
450.612	54
451.391	60
452.169	62
452.948	73
453.726	79
454.504	84
455.282	97
456.061	103
456.839	120
457.617	130
458.395	141
459.172	161
459.95	175
460.728	202
461.506	216
462.283	245
463.061	271
463.838	312
464.615	339
465.393	378
466.17	427
466.947	470
467.724	519
468.501	584
469.278	635
470.055	728
470.831	785
471.608	886
472.385	973
473.161	1087
473.938	1197
474.714	1335
475.49	1445
476.266	1609
477.043	1756
477.819	1953
478.595	2136
479.371	2339
480.146	2586
480.922	2820
481.698	3130
482.473	3423
483.249	3742
484.024	4082
484.8	4518
485.575	4911
486.35	5381
487.126	5899
487.901	6431
488.676	7063
489.451	7723
490.225	8430
491	9152
491.775	9965
492.55	10796
493.324	11724
494.099	12589
494.873	13462
495.647	14605
496.422	15623
497.196	16727
497.97	17901
498.744	18967
499.518	20086
500.292	21218
501.066	22245
501.839	23174
502.613	24148
503.387	24885
504.16	25609
504.934	26000
505.707	26279
506.48	26464
507.253	26522
508.027	26332
508.8	26212
509.573	25940
510.346	25400
511.118	24679
511.891	24076
512.664	23308
513.437	22540
514.209	21649
514.982	20793
515.754	19946
516.526	19133
517.298	18273
518.071	17442
518.843	16843
519.615	16193
520.387	15546
521.159	14939
521.93	14345
522.702	13783
523.474	13211
524.245	12648
525.017	12092
525.788	11643
526.56	11166
527.331	10657
528.102	10143
528.873	9688
529.644	9246
530.415	8819
531.186	8337
531.957	7933
532.728	7616
533.498	7169
534.269	6751
535.039	6397
535.81	6072
536.58	5730
537.351	5376
538.121	5096
538.891	4833
539.661	4581
540.431	4310
541.201	4077
541.971	3856
542.741	3659
543.51	3498
544.28	3314
545.05	3167
545.819	3026
546.588	2855
547.358	2712
548.127	2555
548.896	2434
549.665	2317
550.434	2198
551.203	2082
551.972	1969
552.741	1847
553.51	1759
554.278	1670
555.047	1576
555.815	1498
556.584	1411
557.352	1333
558.121	1258
558.889	1197
559.657	1118
560.425	1068
561.193	994
561.961	936
562.729	889
563.496	847
564.264	790
565.032	755
565.799	716
566.567	674
567.334	641
568.101	602
568.869	565
569.636	535
570.403	504
571.17	469
571.937	446
572.704	425
573.471	398
574.237	379
575.004	356
575.771	335
576.537	316
577.303	296
578.07	277
578.836	267
579.602	247
580.368	234
581.134	221
581.9	205
582.666	201
583.432	190
584.198	180
584.964	169
585.729	162
586.495	150
587.26	146
588.025	134
588.791	128
589.556	122
590.321	117
591.086	112
591.851	107
592.616	103
593.381	96
594.146	90
594.911	85
595.675	83
596.44	80
597.204	73
597.969	72
598.733	70
599.497	64
600.261	66
601.025	62
601.79	58
602.553	55
603.317	52
604.081	52
604.845	51
605.609	45
606.372	40
607.136	41
607.899	41
608.662	37
609.426	37
610.189	34
610.952	35
611.715	29
612.478	27
613.241	30
614.004	28
614.767	27
615.529	26
616.292	27
617.055	22
617.817	22
618.579	22
619.342	20
620.104	23
620.866	23
621.628	20
622.39	23
623.152	21
623.914	20
624.676	16
625.438	15
626.199	18
626.961	18
627.722	18
628.484	14
629.245	13
630.006	13
630.768	14
631.529	14
632.29	14
633.051	13
633.812	14
634.573	13
635.333	10
636.094	14
636.855	12
637.615	9
638.376	9
639.136	10
639.896	9
640.657	9
641.417	10
642.177	7
642.937	9
643.697	10
644.457	9
645.216	10
645.976	10
646.736	9
647.495	8
648.255	7
649.014	9
649.774	6
650.533	10
651.292	7
652.051	9
652.81	7
653.569	6
654.328	8
655.087	5
655.846	7
656.604	6
657.363	8
658.121	7
658.88	4
659.638	6
660.397	4
661.155	3
661.913	4
662.671	6
663.429	7
664.187	4
664.945	4
665.703	4
666.46	5
667.218	5
667.976	2
668.733	5
669.49	5
670.248	4
671.005	7
671.762	5
672.519	4
673.276	3
674.033	5
674.79	2
675.547	4
676.304	3
677.06	3
677.817	5
678.574	6
679.33	3
680.086	5
680.843	3
681.599	5
682.355	4
683.111	4
683.867	1
684.623	6
685.379	4
686.135	2
686.89	3
687.646	3
688.402	6
689.157	3
689.912	3
690.668	5
691.423	2
692.178	2
692.933	2
693.688	3
694.443	5
695.198	3
695.953	4
696.708	2
697.462	4
698.217	4
698.972	2
699.726	4
700.48	5
701.235	2
701.989	2
702.743	5
703.497	0
704.251	4
705.005	0
705.759	3
706.513	4
707.266	5
708.02	5
708.774	2
709.527	5
710.28	1
711.034	4
711.787	4
712.54	4
713.293	6
714.046	2
714.799	2
715.552	3
716.305	3
717.058	5
717.81	5
718.563	4
719.315	4
720.068	3
720.82	5
721.573	4
722.325	3
723.077	3
723.829	3
724.581	3
725.333	3
726.085	4
726.836	6
727.588	3
728.34	3
729.091	5
729.843	5
730.594	3
731.346	4
732.097	3
732.848	2
733.599	4
734.35	5
735.101	4
735.852	4
736.603	4
737.354	4
738.104	4
738.855	4
739.605	2
740.356	4
741.106	4
741.856	5
742.607	5
743.357	5
744.107	4
744.857	7
745.607	6
746.357	3
747.106	4
747.856	6
748.606	5
749.355	4
750.105	5
750.854	7
751.603	4
752.353	6
753.102	4
753.851	6
754.6	5
755.349	6
756.098	7
756.847	5
757.595	6
758.344	5
759.093	5
759.841	7
760.589	3
761.338	7
762.086	7
762.834	6
763.582	8
764.331	5
765.079	6
765.826	8
766.574	8
767.322	7
768.07	7
768.817	7
769.565	6
770.312	9
771.06	5
771.807	10
772.554	5
773.302	9
774.049	7
774.796	6
775.543	6
776.29	7
777.036	10
777.783	8
778.53	8
779.276	6
780.023	10
780.769	9
781.516	10
782.262	9
783.008	10
783.754	8
784.5	9
785.246	8
785.992	8
786.738	9
787.484	8
788.23	12
788.975	9
789.721	10
790.466	10
791.212	9
791.957	8
792.702	8
793.447	11
794.193	9
794.938	11
795.683	10
796.427	7
797.172	9
797.917	8
798.662	7
799.406	8
800.151	9
800.895	5
801.64	8
802.384	7
803.128	8
803.872	5
804.616	7
805.36	5
806.104	7
806.848	7
807.592	9
808.336	7
809.079	8
809.823	3
810.566	6
811.31	4
812.053	4
812.796	7
813.539	4
814.283	5
815.026	7
815.769	5
816.511	4
817.254	3
817.997	7
818.74	3
819.482	5
820.225	4
820.967	4
821.71	3
822.452	3
823.194	6
823.936	4
824.678	5
825.42	6
826.162	4
826.904	4
827.646	4
828.388	4
829.129	3
829.871	5
830.612	3
831.354	4
832.095	5
832.836	5
833.577	5
834.319	5
835.06	4
835.801	3
836.542	3
837.282	3
838.023	4
838.764	7
839.504	3
840.245	3
840.985	3
841.726	6
842.466	5
843.206	3
843.946	3
844.687	3
845.427	2
846.166	2
846.906	3
847.646	5
848.386	3
849.125	4
849.865	2
850.605	1
851.344	1
852.083	3
852.823	3
853.562	4
854.301	2
855.04	4
855.779	3
856.518	2
857.257	1
857.995	4
858.734	2
859.473	1
860.211	3
860.95	4
861.688	5
862.426	2
863.165	1
863.903	3
864.641	1
865.379	-2
866.117	3
866.855	3
867.593	1
868.33	1
869.068	1
869.806	3
870.543	2
871.28	1
872.018	2
872.755	1
873.492	-1
874.229	1
874.967	2
875.703	2
876.44	1
877.177	2
877.914	1
878.651	0
879.387	2
880.124	0
880.86	0
881.597	3
882.333	2
883.069	3
883.806	2
884.542	3
885.278	-1
886.014	3
886.749	2
887.485	1
888.221	2
888.957	1
889.692	2
890.428	0
891.163	1
891.899	2
892.634	1
893.369	2
894.104	2
894.839	1
895.574	2
896.309	0
897.044	2
897.779	0
898.514	-1
899.248	0
899.983	-1
900.717	0
901.452	2
902.186	1
902.92	-2
903.654	3
904.389	-1
905.123	2
905.857	1
906.59	0
907.324	0
908.058	1
908.792	-2
909.525	0
910.259	1
910.992	-1
911.726	1
912.459	1
913.192	0
913.925	-1
914.658	3
915.391	-1
916.124	1
916.857	1
917.59	-1
918.323	-2
919.055	-2
919.788	-2
920.521	2
921.253	2
921.985	0
922.718	0
923.45	0
924.182	1
924.914	2
925.646	3
926.378	-1
927.11	1
927.841	1
928.573	0
929.305	0
930.036	1
930.768	-2
931.499	1
932.23	0
932.962	1
933.693	0
934.424	-1
935.155	1
935.886	1
936.617	0
937.348	2
938.078	0
938.809	2
939.54	0
940.27	1
941.001	1
941.731	0
942.461	1
943.191	1
943.922	2
944.652	-1
945.382	1
946.112	2
946.841	1
947.571	-1
948.301	-1
949.031	-1
949.76	-1
950.49	1
951.219	0
951.948	-1
952.678	1
953.407	0
954.136	1
954.865	0
955.594	0
956.323	2
957.052	0
957.78	1
958.509	1
959.238	3
959.966	-1
960.695	0
961.423	-2
962.151	-1
962.88	0
963.608	1
964.336	0
965.064	-1
965.792	0
966.52	1
967.247	0
967.975	2
968.703	1
969.43	2
970.158	0
970.885	1
971.613	0
972.34	-2
973.067	2
973.794	-2
974.521	2
975.248	0
975.975	0
976.702	1
977.429	1
978.156	0
978.882	2
979.609	-1
980.335	0
981.062	0
981.788	0
982.514	-2
983.24	2
983.967	1
984.693	1
985.419	0
986.144	0
986.87	0
987.596	0
988.322	1
989.047	-2
989.773	0
990.498	1
991.224	1
991.949	1
992.674	-2
993.399	1
994.124	1
994.849	0
995.574	0
996.299	-1
997.024	1
997.749	0
998.473	0
999.198	0
999.922	0
1000.647	2
1001.371	5
1002.095	-1
1002.82	-3
1003.544	-2
1004.268	1
1004.992	2
1005.716	1
1006.439	0
1007.163	3
1007.887	1
1008.611	0
1009.334	1
1010.058	1
1010.781	0
1011.504	0
1012.228	0
1012.951	0
1013.674	0
1014.397	-1
1015.12	2
