节点500_285_QEPB04081__132__14-57-45-217.txt的数据

Date: Wed Nov 12 14:57:45 CST 2025
User: PC
Spectrometer: QEPB0408
触发模式: 0
积分时间 (秒): 1.000000E-2
Scans to average: 1
启用暗噪声校正: true
启用非线性校正: false
滑动平均宽度: 0
X轴模式: Wavelengths
Number of Pixels in Spectrum: 1044
>>>>>Begin Spectral Data<<<<<
220.843	0.75
221.644	0.75
222.444	1.75
223.244	2.75
224.045	2.75
224.845	4.75
225.645	2.75
226.445	2.75
227.245	1.75
228.045	5.75
228.845	-0.25
229.645	2.75
230.444	2.75
231.244	1.75
232.043	4.75
232.843	3.75
233.642	3.75
234.442	3.75
235.241	2.75
236.04	4.75
236.839	3.75
237.638	6.75
238.437	5.75
239.236	5.75
240.035	7.75
240.833	1.75
241.632	4.75
242.43	4.75
243.229	6.75
244.027	3.75
244.826	6.75
245.624	5.75
246.422	7.75
247.22	5.75
248.018	5.75
248.816	4.75
249.614	9.75
250.412	5.75
251.21	5.75
252.007	7.75
252.805	8.75
253.602	5.75
254.4	7.75
255.197	6.75
255.994	7.75
256.791	7.75
257.589	9.75
258.386	9.75
259.183	10.75
259.979	8.75
260.776	10.75
261.573	11.75
262.37	12.75
263.166	9.75
263.963	11.75
264.759	12.75
265.556	11.75
266.352	13.75
267.148	16.75
267.944	16.75
268.74	14.75
269.536	12.75
270.332	15.75
271.128	17.75
271.924	18.75
272.719	17.75
273.515	14.75
274.311	14.75
275.106	18.75
275.901	18.75
276.697	19.75
277.492	18.75
278.287	17.75
279.082	19.75
279.877	19.75
280.672	16.75
281.467	19.75
282.262	20.75
283.056	19.75
283.851	21.75
284.646	19.75
285.44	17.75
286.234	18.75
287.029	17.75
287.823	20.75
288.617	21.75
289.411	17.75
290.205	19.75
290.999	20.75
291.793	20.75
292.587	18.75
293.381	17.75
294.174	14.75
294.968	17.75
295.761	16.75
296.555	14.75
297.348	14.75
298.141	15.75
298.935	13.75
299.728	14.75
300.521	16.75
301.314	16.75
302.107	15.75
302.899	13.75
303.692	11.75
304.485	14.75
305.277	11.75
306.07	12.75
306.862	14.75
307.655	10.75
308.447	10.75
309.239	10.75
310.031	9.75
310.823	9.75
311.615	10.75
312.407	12.75
313.199	8.75
313.991	9.75
314.783	7.75
315.574	6.75
316.366	9.75
317.157	7.75
317.949	9.75
318.74	5.75
319.531	8.75
320.322	8.75
321.113	8.75
321.904	7.75
322.695	6.75
323.486	8.75
324.277	7.75
325.068	8.75
325.858	8.75
326.649	8.75
327.439	7.75
328.23	9.75
329.02	7.75
329.81	7.75
330.6	10.75
331.391	8.75
332.181	6.75
332.971	8.75
333.76	5.75
334.55	5.75
335.34	7.75
336.13	6.75
336.919	5.75
337.709	6.75
338.498	7.75
339.287	6.75
340.077	6.75
340.866	7.75
341.655	7.75
342.444	5.75
343.233	6.75
344.022	6.75
344.811	6.75
345.6	7.75
346.388	5.75
347.177	6.75
347.965	5.75
348.754	6.75
349.542	6.75
350.33	6.75
351.119	8.75
351.907	6.75
352.695	5.75
353.483	6.75
354.271	7.75
355.059	4.75
355.846	4.75
356.634	6.75
357.422	5.75
358.209	5.75
358.997	6.75
359.784	6.75
360.571	5.75
361.359	5.75
362.146	4.75
362.933	8.75
363.72	4.75
364.507	4.75
365.294	4.75
366.081	3.75
366.867	6.75
367.654	3.75
368.44	7.75
369.227	5.75
370.013	4.75
370.8	6.75
371.586	5.75
372.372	6.75
373.158	6.75
373.944	6.75
374.73	6.75
375.516	4.75
376.302	6.75
377.088	6.75
377.873	6.75
378.659	4.75
379.445	5.75
380.23	5.75
381.015	3.75
381.801	4.75
382.586	6.75
383.371	5.75
384.156	5.75
384.941	4.75
385.726	8.75
386.511	6.75
387.296	7.75
388.08	4.75
388.865	3.75
389.649	7.75
390.434	7.75
391.218	7.75
392.003	5.75
392.787	3.75
393.571	6.75
394.355	4.75
395.139	7.75
395.923	6.75
396.707	7.75
397.491	5.75
398.274	7.75
399.058	9.75
399.842	6.75
400.625	7.75
401.408	8.75
402.192	6.75
402.975	6.75
403.758	7.75
404.541	6.75
405.324	6.75
406.107	7.75
406.89	8.75
407.673	7.75
408.456	7.75
409.238	9.75
410.021	9.75
410.803	9.75
411.586	7.75
412.368	8.75
413.151	8.75
413.933	10.75
414.715	10.75
415.497	8.75
416.279	10.75
417.061	9.75
417.843	9.75
418.624	9.75
419.406	9.75
420.188	12.75
420.969	11.75
421.751	10.75
422.532	8.75
423.313	11.75
424.095	9.75
424.876	12.75
425.657	13.75
426.438	11.75
427.219	13.75
428	13.75
428.78	13.75
429.561	13.75
430.342	12.75
431.122	16.75
431.903	16.75
432.683	16.75
433.464	14.75
434.244	15.75
435.024	16.75
435.804	18.75
436.584	16.75
437.364	19.75
438.144	20.75
438.924	22.75
439.704	22.75
440.483	24.75
441.263	25.75
442.042	22.75
442.822	28.75
443.601	29.75
444.38	27.75
445.16	32.75
445.939	31.75
446.718	37.75
447.497	39.75
448.276	43.75
449.054	40.75
449.833	44.75
450.612	48.75
451.391	57.75
452.169	59.75
452.948	65.75
453.726	71.75
454.504	79.75
455.282	83.75
456.061	90.75
456.839	108.75
457.617	115.75
458.395	125.75
459.172	145.75
459.95	152.75
460.728	174.75
461.506	194.75
462.283	216.75
463.061	246.75
463.838	271.75
464.615	303.75
465.393	333.75
466.17	378.75
466.947	425.75
467.724	471.75
468.501	536.75
469.278	596.75
470.055	663.75
470.831	736.75
471.608	821.75
472.385	908.75
473.161	1023.75
473.938	1142.75
474.714	1270.75
475.49	1400.75
476.266	1560.75
477.043	1720.75
477.819	1907.75
478.595	2113.75
479.371	2338.75
480.146	2592.75
480.922	2850.75
481.698	3188.75
482.473	3499.75
483.249	3871.75
484.024	4286.75
484.8	4719.75
485.575	5199.75
486.35	5739.75
487.126	6349.75
487.901	6964.75
488.676	7705.75
489.451	8454.75
490.225	9270.75
491	10170.75
491.775	11121.75
492.55	12134.75
493.324	13155.75
494.099	14253.75
494.873	15416.75
495.647	16575.75
496.422	17864.75
497.196	19070.75
497.97	20369.75
498.744	21615.75
499.518	22827.75
500.292	24053.75
501.066	25058.75
501.839	26086.75
502.613	26893.75
503.387	27613.75
504.16	28225.75
504.934	28427.75
505.707	28464.75
506.48	28455.75
507.253	28253.75
508.027	27826.75
508.8	27397.75
509.573	26803.75
510.346	26046.75
511.118	25116.75
511.891	24203.75
512.664	23336.75
513.437	22366.75
514.209	21492.75
514.982	20442.75
515.754	19540.75
516.526	18694.75
517.298	17840.75
518.071	17041.75
518.843	16352.75
519.615	15739.75
520.387	15106.75
521.159	14515.75
521.93	13937.75
522.702	13394.75
523.474	12850.75
524.245	12283.75
525.017	11739.75
525.788	11305.75
526.56	10737.75
527.331	10233.75
528.102	9781.75
528.873	9307.75
529.644	8811.75
530.415	8363.75
531.186	7917.75
531.957	7493.75
532.728	7140.75
533.498	6748.75
534.269	6329.75
535.039	6003.75
535.81	5676.75
536.58	5336.75
537.351	5047.75
538.121	4762.75
538.891	4519.75
539.661	4257.75
540.431	4003.75
541.201	3779.75
541.971	3603.75
542.741	3413.75
543.51	3252.75
544.28	3086.75
545.05	2947.75
545.819	2780.75
546.588	2660.75
547.358	2495.75
548.127	2391.75
548.896	2272.75
549.665	2153.75
550.434	2046.75
551.203	1932.75
551.972	1816.75
552.741	1716.75
553.51	1633.75
554.278	1519.75
555.047	1431.75
555.815	1354.75
556.584	1280.75
557.352	1216.75
558.121	1144.75
558.889	1088.75
559.657	1017.75
560.425	961.75
561.193	896.75
561.961	855.75
562.729	811.75
563.496	763.75
564.264	726.75
565.032	690.75
565.799	653.75
566.567	612.75
567.334	561.75
568.101	556.75
568.869	520.75
569.636	489.75
570.403	455.75
571.17	425.75
571.937	415.75
572.704	383.75
573.471	365.75
574.237	342.75
575.004	327.75
575.771	300.75
576.537	282.75
577.303	265.75
578.07	249.75
578.836	238.75
579.602	224.75
580.368	205.75
581.134	202.75
581.9	183.75
582.666	182.75
583.432	168.75
584.198	160.75
584.964	153.75
585.729	147.75
586.495	140.75
587.26	128.75
588.025	125.75
588.791	116.75
589.556	109.75
590.321	103.75
591.086	99.75
591.851	98.75
592.616	94.75
593.381	85.75
594.146	83.75
594.911	79.75
595.675	75.75
596.44	71.75
597.204	66.75
597.969	68.75
598.733	63.75
599.497	60.75
600.261	56.75
601.025	55.75
601.79	49.75
602.553	49.75
603.317	49.75
604.081	45.75
604.845	42.75
605.609	41.75
606.372	38.75
607.136	38.75
607.899	36.75
608.662	37.75
609.426	36.75
610.189	33.75
610.952	31.75
611.715	26.75
612.478	29.75
613.241	28.75
614.004	25.75
614.767	25.75
615.529	26.75
616.292	20.75
617.055	21.75
617.817	23.75
618.579	21.75
619.342	22.75
620.104	19.75
620.866	20.75
621.628	17.75
622.39	21.75
623.152	18.75
623.914	17.75
624.676	15.75
625.438	18.75
626.199	15.75
626.961	16.75
627.722	9.75
628.484	15.75
629.245	12.75
630.006	14.75
630.768	13.75
631.529	15.75
632.29	12.75
633.051	12.75
633.812	13.75
634.573	11.75
635.333	11.75
636.094	13.75
636.855	11.75
637.615	10.75
638.376	9.75
639.136	10.75
639.896	10.75
640.657	9.75
641.417	9.75
642.177	8.75
642.937	8.75
643.697	9.75
644.457	9.75
645.216	8.75
645.976	7.75
646.736	7.75
647.495	6.75
648.255	7.75
649.014	6.75
649.774	7.75
650.533	5.75
651.292	8.75
652.051	7.75
652.81	8.75
653.569	7.75
654.328	7.75
655.087	6.75
655.846	7.75
656.604	6.75
657.363	7.75
658.121	6.75
658.88	5.75
659.638	7.75
660.397	4.75
661.155	6.75
661.913	6.75
662.671	4.75
663.429	5.75
664.187	4.75
664.945	4.75
665.703	6.75
666.46	4.75
667.218	3.75
667.976	5.75
668.733	4.75
669.49	4.75
670.248	2.75
671.005	4.75
671.762	6.75
672.519	5.75
673.276	2.75
674.033	5.75
674.79	4.75
675.547	1.75
676.304	5.75
677.06	3.75
677.817	5.75
678.574	1.75
679.33	5.75
680.086	2.75
680.843	6.75
681.599	6.75
682.355	2.75
683.111	5.75
683.867	4.75
684.623	4.75
685.379	2.75
686.135	3.75
686.89	2.75
687.646	2.75
688.402	4.75
689.157	1.75
689.912	3.75
690.668	5.75
691.423	3.75
692.178	5.75
692.933	2.75
693.688	3.75
694.443	2.75
695.198	1.75
695.953	3.75
696.708	4.75
697.462	6.75
698.217	4.75
698.972	1.75
699.726	5.75
700.48	2.75
701.235	4.75
701.989	4.75
702.743	2.75
703.497	4.75
704.251	1.75
705.005	3.75
705.759	3.75
706.513	4.75
707.266	3.75
708.02	1.75
708.774	3.75
709.527	4.75
710.28	3.75
711.034	2.75
711.787	3.75
712.54	4.75
713.293	1.75
714.046	4.75
714.799	4.75
715.552	4.75
716.305	3.75
717.058	3.75
717.81	5.75
718.563	7.75
719.315	3.75
720.068	3.75
720.82	2.75
721.573	4.75
722.325	3.75
723.077	4.75
723.829	4.75
724.581	3.75
725.333	4.75
726.085	2.75
726.836	3.75
727.588	3.75
728.34	4.75
729.091	5.75
729.843	4.75
730.594	4.75
731.346	3.75
732.097	5.75
732.848	2.75
733.599	4.75
734.35	3.75
735.101	2.75
735.852	5.75
736.603	2.75
737.354	5.75
738.104	3.75
738.855	7.75
739.605	3.75
740.356	5.75
741.106	5.75
741.856	3.75
742.607	4.75
743.357	3.75
744.107	3.75
744.857	6.75
745.607	5.75
746.357	3.75
747.106	3.75
747.856	6.75
748.606	3.75
749.355	6.75
750.105	6.75
750.854	5.75
751.603	6.75
752.353	6.75
753.102	7.75
753.851	8.75
754.6	4.75
755.349	8.75
756.098	7.75
756.847	8.75
757.595	7.75
758.344	6.75
759.093	6.75
759.841	9.75
760.589	5.75
761.338	6.75
762.086	7.75
762.834	5.75
763.582	6.75
764.331	6.75
765.079	8.75
765.826	7.75
766.574	6.75
767.322	8.75
768.07	8.75
768.817	7.75
769.565	8.75
770.312	8.75
771.06	6.75
771.807	5.75
772.554	6.75
773.302	10.75
774.049	7.75
774.796	8.75
775.543	10.75
776.29	5.75
777.036	7.75
777.783	9.75
778.53	9.75
779.276	6.75
780.023	8.75
780.769	8.75
781.516	10.75
782.262	7.75
783.008	9.75
783.754	9.75
784.5	8.75
785.246	8.75
785.992	10.75
786.738	9.75
787.484	9.75
788.23	9.75
788.975	11.75
789.721	8.75
790.466	9.75
791.212	10.75
791.957	7.75
792.702	10.75
793.447	9.75
794.193	9.75
794.938	9.75
795.683	7.75
796.427	6.75
797.172	9.75
797.917	7.75
798.662	9.75
799.406	7.75
800.151	9.75
800.895	7.75
801.64	7.75
802.384	6.75
803.128	6.75
803.872	7.75
804.616	4.75
805.36	6.75
806.104	6.75
806.848	5.75
807.592	3.75
808.336	5.75
809.079	5.75
809.823	6.75
810.566	5.75
811.31	5.75
812.053	6.75
812.796	4.75
813.539	6.75
814.283	4.75
815.026	4.75
815.769	2.75
816.511	5.75
817.254	4.75
817.997	2.75
818.74	6.75
819.482	5.75
820.225	3.75
820.967	3.75
821.71	4.75
822.452	6.75
823.194	5.75
823.936	3.75
824.678	3.75
825.42	3.75
826.162	3.75
826.904	4.75
827.646	3.75
828.388	5.75
829.129	3.75
829.871	3.75
830.612	2.75
831.354	2.75
832.095	2.75
832.836	5.75
833.577	4.75
834.319	2.75
835.06	1.75
835.801	5.75
836.542	4.75
837.282	3.75
838.023	3.75
838.764	3.75
839.504	3.75
840.245	1.75
840.985	5.75
841.726	2.75
842.466	4.75
843.206	4.75
843.946	0.75
844.687	1.75
845.427	3.75
846.166	2.75
846.906	0.75
847.646	2.75
848.386	3.75
849.125	1.75
849.865	3.75
850.605	3.75
851.344	1.75
852.083	3.75
852.823	3.75
853.562	1.75
854.301	1.75
855.04	2.75
855.779	2.75
856.518	3.75
857.257	1.75
857.995	2.75
858.734	3.75
859.473	2.75
860.211	3.75
860.95	1.75
861.688	2.75
862.426	1.75
863.165	2.75
863.903	4.75
864.641	3.75
865.379	1.75
866.117	-0.25
866.855	1.75
867.593	0.75
868.33	1.75
869.068	1.75
869.806	2.75
870.543	0.75
871.28	-1.25
872.018	1.75
872.755	1.75
873.492	1.75
874.229	1.75
874.967	2.75
875.703	-0.25
876.44	2.75
877.177	-0.25
877.914	3.75
878.651	1.75
879.387	0.75
880.124	3.75
880.86	0.75
881.597	0.75
882.333	0.75
883.069	0.75
883.806	1.75
884.542	2.75
885.278	1.75
886.014	1.75
886.749	0.75
887.485	1.75
888.221	-2.25
888.957	2.75
889.692	0.75
890.428	1.75
891.163	-0.25
891.899	0.75
892.634	0.75
893.369	2.75
894.104	1.75
894.839	0.75
895.574	-0.25
896.309	2.75
897.044	1.75
897.779	2.75
898.514	0.75
899.248	1.75
899.983	1.75
900.717	1.75
901.452	-1.25
902.186	2.75
902.92	0.75
903.654	-2.25
904.389	0.75
905.123	3.75
905.857	1.75
906.59	0.75
907.324	0.75
908.058	2.75
908.792	1.75
909.525	1.75
910.259	0.75
910.992	1.75
911.726	0.75
912.459	-1.25
913.192	2.75
913.925	1.75
914.658	2.75
915.391	0.75
916.124	-0.25
916.857	2.75
917.59	-0.25
918.323	0.75
919.055	-0.25
919.788	-0.25
920.521	0.75
921.253	0.75
921.985	0.75
922.718	0.75
923.45	1.75
924.182	0.75
924.914	-0.25
925.646	1.75
926.378	0.75
927.11	2.75
927.841	-0.25
928.573	0.75
929.305	3.75
930.036	1.75
930.768	1.75
931.499	-0.25
932.23	0.75
932.962	1.75
933.693	0.75
934.424	2.75
935.155	0.75
935.886	1.75
936.617	-0.25
937.348	3.75
938.078	0.75
938.809	0.75
939.54	0.75
940.27	0.75
941.001	-0.25
941.731	0.75
942.461	-0.25
943.191	-0.25
943.922	-0.25
944.652	1.75
945.382	-0.25
946.112	2.75
946.841	0.75
947.571	0.75
948.301	1.75
949.031	1.75
949.76	0.75
950.49	0.75
951.219	-0.25
951.948	-0.25
952.678	1.75
953.407	1.75
954.136	-0.25
954.865	1.75
955.594	0.75
956.323	-0.25
957.052	0.75
957.78	-0.25
958.509	0.75
959.238	1.75
959.966	0.75
960.695	0.75
961.423	0.75
962.151	1.75
962.88	2.75
963.608	2.75
964.336	1.75
965.064	0.75
965.792	2.75
966.52	0.75
967.247	0.75
967.975	0.75
968.703	1.75
969.43	1.75
970.158	-0.25
970.885	0.75
971.613	0.75
972.34	-0.25
973.067	-1.25
973.794	1.75
974.521	-0.25
975.248	-1.25
975.975	1.75
976.702	1.75
977.429	0.75
978.156	-0.25
978.882	0.75
979.609	2.75
980.335	-1.25
981.062	1.75
981.788	-1.25
982.514	0.75
983.24	-0.25
983.967	0.75
984.693	-0.25
985.419	1.75
986.144	-0.25
986.87	0.75
987.596	-0.25
988.322	0.75
989.047	0.75
989.773	1.75
990.498	1.75
991.224	3.75
991.949	0.75
992.674	-2.25
993.399	2.75
994.124	-1.25
994.849	-2.25
995.574	1.75
996.299	0.75
997.024	-0.25
997.749	0.75
998.473	-0.25
999.198	-1.25
999.922	-0.25
1000.647	0.75
1001.371	3.75
1002.095	-2.25
1002.82	-1.25
1003.544	-0.25
1004.268	1.75
1004.992	2.75
1005.716	1.75
1006.439	0.75
1007.163	1.75
1007.887	-2.25
1008.611	1.75
1009.334	0.75
1010.058	1.75
1010.781	-0.25
1011.504	-0.25
1012.228	-1.25
1012.951	1.75
1013.674	-1.25
1014.397	-0.25
1015.12	-0.25
