节点500_285_QEPB04081__745__15-07-56-808.txt的数据

Date: Wed Nov 12 15:07:56 CST 2025
User: PC
Spectrometer: QEPB0408
触发模式: 0
积分时间 (秒): 1.000000E-2
Scans to average: 1
启用暗噪声校正: true
启用非线性校正: false
滑动平均宽度: 0
X轴模式: Wavelengths
Number of Pixels in Spectrum: 1044
>>>>>Begin Spectral Data<<<<<
220.843	0.25
221.644	3.25
222.444	-0.75
223.244	2.25
224.045	1.25
224.845	2.25
225.645	-0.75
226.445	1.25
227.245	0.25
228.045	3.25
228.845	2.25
229.645	3.25
230.444	4.25
231.244	3.25
232.043	4.25
232.843	1.25
233.642	5.25
234.442	3.25
235.241	3.25
236.04	4.25
236.839	3.25
237.638	4.25
238.437	1.25
239.236	3.25
240.035	1.25
240.833	5.25
241.632	2.25
242.43	4.25
243.229	4.25
244.027	5.25
244.826	6.25
245.624	6.25
246.422	6.25
247.22	6.25
248.018	7.25
248.816	7.25
249.614	4.25
250.412	7.25
251.21	3.25
252.007	7.25
252.805	7.25
253.602	6.25
254.4	5.25
255.197	6.25
255.994	9.25
256.791	4.25
257.589	8.25
258.386	8.25
259.183	6.25
259.979	10.25
260.776	7.25
261.573	9.25
262.37	7.25
263.166	7.25
263.963	11.25
264.759	11.25
265.556	9.25
266.352	8.25
267.148	12.25
267.944	13.25
268.74	14.25
269.536	13.25
270.332	12.25
271.128	14.25
271.924	12.25
272.719	14.25
273.515	14.25
274.311	14.25
275.106	13.25
275.901	15.25
276.697	16.25
277.492	12.25
278.287	14.25
279.082	15.25
279.877	17.25
280.672	19.25
281.467	17.25
282.262	18.25
283.056	17.25
283.851	17.25
284.646	17.25
285.44	17.25
286.234	18.25
287.029	20.25
287.823	17.25
288.617	16.25
289.411	17.25
290.205	14.25
290.999	16.25
291.793	14.25
292.587	14.25
293.381	17.25
294.174	16.25
294.968	16.25
295.761	16.25
296.555	14.25
297.348	14.25
298.141	13.25
298.935	15.25
299.728	13.25
300.521	16.25
301.314	13.25
302.107	12.25
302.899	12.25
303.692	13.25
304.485	13.25
305.277	14.25
306.07	13.25
306.862	13.25
307.655	13.25
308.447	11.25
309.239	10.25
310.031	13.25
310.823	10.25
311.615	8.25
312.407	10.25
313.199	7.25
313.991	8.25
314.783	10.25
315.574	9.25
316.366	10.25
317.157	11.25
317.949	8.25
318.74	9.25
319.531	8.25
320.322	8.25
321.113	9.25
321.904	7.25
322.695	7.25
323.486	8.25
324.277	7.25
325.068	9.25
325.858	8.25
326.649	9.25
327.439	7.25
328.23	7.25
329.02	8.25
329.81	6.25
330.6	6.25
331.391	8.25
332.181	9.25
332.971	6.25
333.76	6.25
334.55	7.25
335.34	7.25
336.13	9.25
336.919	6.25
337.709	6.25
338.498	9.25
339.287	5.25
340.077	7.25
340.866	5.25
341.655	6.25
342.444	9.25
343.233	4.25
344.022	7.25
344.811	5.25
345.6	6.25
346.388	3.25
347.177	6.25
347.965	7.25
348.754	7.25
349.542	5.25
350.33	6.25
351.119	7.25
351.907	5.25
352.695	7.25
353.483	7.25
354.271	5.25
355.059	6.25
355.846	7.25
356.634	5.25
357.422	2.25
358.209	4.25
358.997	6.25
359.784	4.25
360.571	7.25
361.359	3.25
362.146	7.25
362.933	5.25
363.72	4.25
364.507	4.25
365.294	6.25
366.081	7.25
366.867	4.25
367.654	4.25
368.44	6.25
369.227	3.25
370.013	6.25
370.8	4.25
371.586	5.25
372.372	5.25
373.158	5.25
373.944	4.25
374.73	4.25
375.516	2.25
376.302	5.25
377.088	6.25
377.873	3.25
378.659	4.25
379.445	7.25
380.23	3.25
381.015	4.25
381.801	5.25
382.586	5.25
383.371	7.25
384.156	3.25
384.941	6.25
385.726	8.25
386.511	6.25
387.296	4.25
388.08	5.25
388.865	4.25
389.649	2.25
390.434	5.25
391.218	5.25
392.003	8.25
392.787	5.25
393.571	6.25
394.355	5.25
395.139	4.25
395.923	6.25
396.707	6.25
397.491	6.25
398.274	6.25
399.058	6.25
399.842	7.25
400.625	6.25
401.408	6.25
402.192	7.25
402.975	7.25
403.758	6.25
404.541	7.25
405.324	8.25
406.107	5.25
406.89	8.25
407.673	7.25
408.456	9.25
409.238	8.25
410.021	5.25
410.803	6.25
411.586	8.25
412.368	8.25
413.151	9.25
413.933	9.25
414.715	8.25
415.497	8.25
416.279	10.25
417.061	10.25
417.843	9.25
418.624	10.25
419.406	10.25
420.188	9.25
420.969	8.25
421.751	11.25
422.532	12.25
423.313	11.25
424.095	10.25
424.876	9.25
425.657	12.25
426.438	14.25
427.219	14.25
428	14.25
428.78	15.25
429.561	12.25
430.342	14.25
431.122	13.25
431.903	12.25
432.683	14.25
433.464	16.25
434.244	16.25
435.024	18.25
435.804	16.25
436.584	18.25
437.364	17.25
438.144	16.25
438.924	23.25
439.704	22.25
440.483	23.25
441.263	23.25
442.042	26.25
442.822	28.25
443.601	26.25
444.38	33.25
445.16	32.25
445.939	35.25
446.718	37.25
447.497	39.25
448.276	41.25
449.054	49.25
449.833	53.25
450.612	57.25
451.391	65.25
452.169	69.25
452.948	74.25
453.726	83.25
454.504	89.25
455.282	98.25
456.061	109.25
456.839	122.25
457.617	135.25
458.395	149.25
459.172	167.25
459.95	184.25
460.728	207.25
461.506	230.25
462.283	256.25
463.061	285.25
463.838	315.25
464.615	359.25
465.393	388.25
466.17	438.25
466.947	478.25
467.724	546.25
468.501	590.25
469.278	666.25
470.055	735.25
470.831	810.25
471.608	901.25
472.385	1003.25
473.161	1097.25
473.938	1213.25
474.714	1335.25
475.49	1468.25
476.266	1614.25
477.043	1757.25
477.819	1941.25
478.595	2120.25
479.371	2327.25
480.146	2547.25
480.922	2802.25
481.698	3064.25
482.473	3346.25
483.249	3659.25
484.024	4000.25
484.8	4358.25
485.575	4794.25
486.35	5197.25
487.126	5641.25
487.901	6162.25
488.676	6735.25
489.451	7300.25
490.225	7920.25
491	8606.25
491.775	9361.25
492.55	10156.25
493.324	10964.25
494.099	11725.25
494.873	12599.25
495.647	13579.25
496.422	14586.25
497.196	15601.25
497.97	16617.25
498.744	17682.25
499.518	18725.25
500.292	19731.25
501.066	20746.25
501.839	21705.25
502.613	22541.25
503.387	23415.25
504.16	24073.25
504.934	24521.25
505.707	24933.25
506.48	25142.25
507.253	25323.25
508.027	25305.25
508.8	25220.25
509.573	25101.25
510.346	24706.25
511.118	24209.25
511.891	23627.25
512.664	22964.25
513.437	22273.25
514.209	21482.25
514.982	20742.25
515.754	19849.25
516.526	19162.25
517.298	18361.25
518.071	17566.25
518.843	16902.25
519.615	16269.25
520.387	15684.25
521.159	15014.25
521.93	14408.25
522.702	13846.25
523.474	13352.25
524.245	12686.25
525.017	12186.25
525.788	11757.25
526.56	11230.25
527.331	10689.25
528.102	10275.25
528.873	9844.25
529.644	9381.25
530.415	8980.25
531.186	8467.25
531.957	8090.25
532.728	7715.25
533.498	7335.25
534.269	6952.25
535.039	6555.25
535.81	6227.25
536.58	5895.25
537.351	5550.25
538.121	5273.25
538.891	4968.25
539.661	4695.25
540.431	4437.25
541.201	4202.25
541.971	3981.25
542.741	3764.25
543.51	3579.25
544.28	3410.25
545.05	3266.25
545.819	3078.25
546.588	2936.25
547.358	2782.25
548.127	2646.25
548.896	2497.25
549.665	2393.25
550.434	2264.25
551.203	2158.25
551.972	2034.25
552.741	1912.25
553.51	1828.25
554.278	1728.25
555.047	1624.25
555.815	1550.25
556.584	1462.25
557.352	1390.25
558.121	1292.25
558.889	1230.25
559.657	1165.25
560.425	1106.25
561.193	1034.25
561.961	983.25
562.729	915.25
563.496	878.25
564.264	828.25
565.032	775.25
565.799	741.25
566.567	704.25
567.334	666.25
568.101	626.25
568.869	585.25
569.636	559.25
570.403	520.25
571.17	493.25
571.937	460.25
572.704	437.25
573.471	420.25
574.237	389.25
575.004	373.25
575.771	349.25
576.537	325.25
577.303	312.25
578.07	290.25
578.836	272.25
579.602	259.25
580.368	247.25
581.134	231.25
581.9	219.25
582.666	206.25
583.432	197.25
584.198	187.25
584.964	178.25
585.729	171.25
586.495	160.25
587.26	154.25
588.025	145.25
588.791	132.25
589.556	126.25
590.321	123.25
591.086	114.25
591.851	112.25
592.616	105.25
593.381	100.25
594.146	90.25
594.911	89.25
595.675	86.25
596.44	80.25
597.204	80.25
597.969	71.25
598.733	72.25
599.497	68.25
600.261	63.25
601.025	59.25
601.79	57.25
602.553	58.25
603.317	53.25
604.081	48.25
604.845	50.25
605.609	46.25
606.372	46.25
607.136	41.25
607.899	40.25
608.662	42.25
609.426	38.25
610.189	35.25
610.952	33.25
611.715	34.25
612.478	33.25
613.241	32.25
614.004	29.25
614.767	28.25
615.529	30.25
616.292	25.25
617.055	26.25
617.817	25.25
618.579	26.25
619.342	26.25
620.104	22.25
620.866	20.25
621.628	19.25
622.39	20.25
623.152	22.25
623.914	20.25
624.676	17.25
625.438	17.25
626.199	16.25
626.961	17.25
627.722	16.25
628.484	16.25
629.245	12.25
630.006	13.25
630.768	15.25
631.529	15.25
632.29	16.25
633.051	13.25
633.812	16.25
634.573	14.25
635.333	12.25
636.094	12.25
636.855	11.25
637.615	11.25
638.376	12.25
639.136	8.25
639.896	10.25
640.657	8.25
641.417	9.25
642.177	7.25
642.937	10.25
643.697	9.25
644.457	9.25
645.216	6.25
645.976	9.25
646.736	8.25
647.495	4.25
648.255	11.25
649.014	9.25
649.774	6.25
650.533	7.25
651.292	4.25
652.051	5.25
652.81	5.25
653.569	5.25
654.328	7.25
655.087	8.25
655.846	5.25
656.604	4.25
657.363	7.25
658.121	5.25
658.88	8.25
659.638	7.25
660.397	6.25
661.155	7.25
661.913	4.25
662.671	6.25
663.429	7.25
664.187	3.25
664.945	3.25
665.703	6.25
666.46	4.25
667.218	2.25
667.976	5.25
668.733	4.25
669.49	4.25
670.248	6.25
671.005	5.25
671.762	4.25
672.519	5.25
673.276	6.25
674.033	2.25
674.79	7.25
675.547	5.25
676.304	4.25
677.06	4.25
677.817	3.25
678.574	4.25
679.33	3.25
680.086	4.25
680.843	3.25
681.599	3.25
682.355	5.25
683.111	3.25
683.867	3.25
684.623	2.25
685.379	4.25
686.135	3.25
686.89	2.25
687.646	4.25
688.402	6.25
689.157	2.25
689.912	3.25
690.668	5.25
691.423	4.25
692.178	2.25
692.933	4.25
693.688	4.25
694.443	3.25
695.198	6.25
695.953	4.25
696.708	4.25
697.462	2.25
698.217	5.25
698.972	4.25
699.726	2.25
700.48	2.25
701.235	2.25
701.989	5.25
702.743	3.25
703.497	3.25
704.251	4.25
705.005	5.25
705.759	3.25
706.513	2.25
707.266	5.25
708.02	3.25
708.774	3.25
709.527	4.25
710.28	4.25
711.034	3.25
711.787	5.25
712.54	3.25
713.293	4.25
714.046	2.25
714.799	3.25
715.552	5.25
716.305	4.25
717.058	3.25
717.81	4.25
718.563	4.25
719.315	3.25
720.068	4.25
720.82	3.25
721.573	4.25
722.325	3.25
723.077	6.25
723.829	5.25
724.581	5.25
725.333	5.25
726.085	4.25
726.836	4.25
727.588	3.25
728.34	3.25
729.091	4.25
729.843	0.25
730.594	5.25
731.346	4.25
732.097	7.25
732.848	4.25
733.599	5.25
734.35	4.25
735.101	3.25
735.852	3.25
736.603	3.25
737.354	3.25
738.104	4.25
738.855	5.25
739.605	4.25
740.356	5.25
741.106	3.25
741.856	4.25
742.607	6.25
743.357	5.25
744.107	3.25
744.857	4.25
745.607	2.25
746.357	5.25
747.106	4.25
747.856	5.25
748.606	4.25
749.355	6.25
750.105	4.25
750.854	5.25
751.603	4.25
752.353	2.25
753.102	7.25
753.851	7.25
754.6	2.25
755.349	6.25
756.098	6.25
756.847	3.25
757.595	6.25
758.344	6.25
759.093	5.25
759.841	6.25
760.589	4.25
761.338	7.25
762.086	5.25
762.834	7.25
763.582	5.25
764.331	6.25
765.079	7.25
765.826	8.25
766.574	6.25
767.322	6.25
768.07	7.25
768.817	5.25
769.565	5.25
770.312	4.25
771.06	11.25
771.807	8.25
772.554	5.25
773.302	7.25
774.049	6.25
774.796	7.25
775.543	7.25
776.29	7.25
777.036	7.25
777.783	7.25
778.53	8.25
779.276	7.25
780.023	7.25
780.769	6.25
781.516	6.25
782.262	7.25
783.008	7.25
783.754	9.25
784.5	7.25
785.246	8.25
785.992	9.25
786.738	10.25
787.484	8.25
788.23	7.25
788.975	10.25
789.721	10.25
790.466	9.25
791.212	8.25
791.957	8.25
792.702	7.25
793.447	6.25
794.193	9.25
794.938	5.25
795.683	7.25
796.427	7.25
797.172	8.25
797.917	9.25
798.662	7.25
799.406	8.25
800.151	7.25
800.895	4.25
801.64	7.25
802.384	6.25
803.128	7.25
803.872	8.25
804.616	7.25
805.36	5.25
806.104	7.25
806.848	5.25
807.592	8.25
808.336	6.25
809.079	5.25
809.823	5.25
810.566	8.25
811.31	5.25
812.053	7.25
812.796	5.25
813.539	6.25
814.283	5.25
815.026	4.25
815.769	6.25
816.511	7.25
817.254	7.25
817.997	5.25
818.74	5.25
819.482	3.25
820.225	6.25
820.967	5.25
821.71	3.25
822.452	6.25
823.194	3.25
823.936	4.25
824.678	4.25
825.42	4.25
826.162	5.25
826.904	4.25
827.646	6.25
828.388	6.25
829.129	5.25
829.871	5.25
830.612	5.25
831.354	2.25
832.095	3.25
832.836	4.25
833.577	1.25
834.319	5.25
835.06	4.25
835.801	1.25
836.542	2.25
837.282	3.25
838.023	4.25
838.764	2.25
839.504	4.25
840.245	2.25
840.985	3.25
841.726	3.25
842.466	3.25
843.206	4.25
843.946	2.25
844.687	3.25
845.427	3.25
846.166	4.25
846.906	2.25
847.646	3.25
848.386	5.25
849.125	3.25
849.865	4.25
850.605	2.25
851.344	2.25
852.083	2.25
852.823	3.25
853.562	4.25
854.301	2.25
855.04	3.25
855.779	6.25
856.518	1.25
857.257	3.25
857.995	1.25
858.734	2.25
859.473	4.25
860.211	1.25
860.95	2.25
861.688	1.25
862.426	3.25
863.165	1.25
863.903	2.25
864.641	1.25
865.379	0.25
866.117	1.25
866.855	1.25
867.593	2.25
868.33	1.25
869.068	1.25
869.806	1.25
870.543	1.25
871.28	2.25
872.018	3.25
872.755	0.25
873.492	0.25
874.229	2.25
874.967	3.25
875.703	-1.75
876.44	3.25
877.177	0.25
877.914	2.25
878.651	2.25
879.387	1.25
880.124	1.25
880.86	1.25
881.597	2.25
882.333	1.25
883.069	0.25
883.806	2.25
884.542	1.25
885.278	2.25
886.014	0.25
886.749	1.25
887.485	2.25
888.221	2.25
888.957	2.25
889.692	0.25
890.428	1.25
891.163	-0.75
891.899	1.25
892.634	2.25
893.369	1.25
894.104	1.25
894.839	0.25
895.574	0.25
896.309	0.25
897.044	4.25
897.779	0.25
898.514	0.25
899.248	2.25
899.983	1.25
900.717	3.25
901.452	-1.75
902.186	0.25
902.92	2.25
903.654	1.25
904.389	1.25
905.123	1.25
905.857	1.25
906.59	0.25
907.324	2.25
908.058	-1.75
908.792	0.25
909.525	1.25
910.259	0.25
910.992	2.25
911.726	0.25
912.459	-1.75
913.192	1.25
913.925	1.25
914.658	2.25
915.391	0.25
916.124	2.25
916.857	-0.75
917.59	-0.75
918.323	0.25
919.055	0.25
919.788	1.25
920.521	0.25
921.253	-0.75
921.985	3.25
922.718	0.25
923.45	0.25
924.182	0.25
924.914	0.25
925.646	-1.75
926.378	1.25
927.11	1.25
927.841	-1.75
928.573	0.25
929.305	2.25
930.036	1.25
930.768	1.25
931.499	2.25
932.23	1.25
932.962	1.25
933.693	1.25
934.424	2.25
935.155	-0.75
935.886	-0.75
936.617	-0.75
937.348	0.25
938.078	1.25
938.809	1.25
939.54	-1.75
940.27	0.25
941.001	0.25
941.731	0.25
942.461	1.25
943.191	2.25
943.922	2.25
944.652	-0.75
945.382	2.25
946.112	0.25
946.841	-0.75
947.571	-0.75
948.301	1.25
949.031	-0.75
949.76	0.25
950.49	1.25
951.219	-1.75
951.948	1.25
952.678	0.25
953.407	-1.75
954.136	1.25
954.865	-0.75
955.594	1.25
956.323	0.25
957.052	1.25
957.78	1.25
958.509	-0.75
959.238	-0.75
959.966	-0.75
960.695	2.25
961.423	2.25
962.151	0.25
962.88	2.25
963.608	0.25
964.336	0.25
965.064	1.25
965.792	-0.75
966.52	0.25
967.247	1.25
967.975	0.25
968.703	2.25
969.43	1.25
970.158	1.25
970.885	-0.75
971.613	0.25
972.34	-0.75
973.067	0.25
973.794	-1.75
974.521	0.25
975.248	-1.75
975.975	0.25
976.702	0.25
977.429	0.25
978.156	-0.75
978.882	-1.75
979.609	0.25
980.335	0.25
981.062	0.25
981.788	3.25
982.514	-1.75
983.24	-0.75
983.967	1.25
984.693	0.25
985.419	1.25
986.144	0.25
986.87	0.25
987.596	0.25
988.322	1.25
989.047	-1.75
989.773	0.25
990.498	1.25
991.224	-0.75
991.949	1.25
992.674	1.25
993.399	-1.75
994.124	0.25
994.849	-1.75
995.574	0.25
996.299	-1.75
997.024	1.25
997.749	-0.75
998.473	-1.75
999.198	0.25
999.922	0.25
1000.647	2.25
1001.371	2.25
1002.095	-0.75
1002.82	0.25
1003.544	-1.75
1004.268	2.25
1004.992	0.25
1005.716	1.25
1006.439	2.25
1007.163	1.25
1007.887	2.25
1008.611	1.25
1009.334	0.25
1010.058	1.25
1010.781	0.25
1011.504	0.25
1012.228	1.25
1012.951	2.25
1013.674	-1.75
1014.397	0.25
1015.12	-0.75
