节点500_285_QEPB04081__544__15-04-36-290.txt的数据

Date: Wed Nov 12 15:04:36 CST 2025
User: PC
Spectrometer: QEPB0408
触发模式: 0
积分时间 (秒): 1.000000E-2
Scans to average: 1
启用暗噪声校正: true
启用非线性校正: false
滑动平均宽度: 0
X轴模式: Wavelengths
Number of Pixels in Spectrum: 1044
>>>>>Begin Spectral Data<<<<<
220.843	1.62
221.644	0.62
222.444	2.62
223.244	0.62
224.045	3.62
224.845	2.62
225.645	2.62
226.445	2.62
227.245	0.62
228.045	2.62
228.845	2.62
229.645	2.62
230.444	2.62
231.244	0.62
232.043	2.62
232.843	3.62
233.642	4.62
234.442	3.62
235.241	0.62
236.04	2.62
236.839	3.62
237.638	4.62
238.437	1.62
239.236	6.62
240.035	4.62
240.833	3.62
241.632	3.62
242.43	1.62
243.229	2.62
244.027	6.62
244.826	6.62
245.624	4.62
246.422	6.62
247.22	6.62
248.018	4.62
248.816	6.62
249.614	5.62
250.412	5.62
251.21	7.62
252.007	4.62
252.805	9.62
253.602	5.62
254.4	6.62
255.197	5.62
255.994	8.62
256.791	7.62
257.589	7.62
258.386	10.62
259.183	9.62
259.979	8.62
260.776	8.62
261.573	8.62
262.37	11.62
263.166	12.62
263.963	12.62
264.759	9.62
265.556	10.62
266.352	11.62
267.148	9.62
267.944	14.62
268.74	12.62
269.536	13.62
270.332	13.62
271.128	13.62
271.924	17.62
272.719	14.62
273.515	17.62
274.311	15.62
275.106	19.62
275.901	16.62
276.697	19.62
277.492	17.62
278.287	18.62
279.082	17.62
279.877	20.62
280.672	18.62
281.467	17.62
282.262	17.62
283.056	15.62
283.851	15.62
284.646	20.62
285.44	19.62
286.234	18.62
287.029	18.62
287.823	18.62
288.617	17.62
289.411	17.62
290.205	19.62
290.999	19.62
291.793	17.62
292.587	17.62
293.381	17.62
294.174	18.62
294.968	15.62
295.761	15.62
296.555	16.62
297.348	13.62
298.141	15.62
298.935	15.62
299.728	16.62
300.521	11.62
301.314	14.62
302.107	12.62
302.899	11.62
303.692	11.62
304.485	13.62
305.277	13.62
306.07	13.62
306.862	15.62
307.655	13.62
308.447	9.62
309.239	13.62
310.031	9.62
310.823	11.62
311.615	9.62
312.407	10.62
313.199	6.62
313.991	8.62
314.783	9.62
315.574	9.62
316.366	10.62
317.157	10.62
317.949	8.62
318.74	7.62
319.531	6.62
320.322	7.62
321.113	7.62
321.904	7.62
322.695	9.62
323.486	6.62
324.277	6.62
325.068	5.62
325.858	8.62
326.649	8.62
327.439	6.62
328.23	5.62
329.02	6.62
329.81	6.62
330.6	6.62
331.391	6.62
332.181	4.62
332.971	4.62
333.76	6.62
334.55	6.62
335.34	5.62
336.13	6.62
336.919	7.62
337.709	7.62
338.498	5.62
339.287	7.62
340.077	6.62
340.866	6.62
341.655	4.62
342.444	5.62
343.233	6.62
344.022	3.62
344.811	5.62
345.6	5.62
346.388	7.62
347.177	5.62
347.965	4.62
348.754	6.62
349.542	6.62
350.33	4.62
351.119	5.62
351.907	5.62
352.695	6.62
353.483	6.62
354.271	4.62
355.059	6.62
355.846	4.62
356.634	7.62
357.422	5.62
358.209	7.62
358.997	3.62
359.784	6.62
360.571	5.62
361.359	5.62
362.146	5.62
362.933	4.62
363.72	5.62
364.507	5.62
365.294	5.62
366.081	3.62
366.867	4.62
367.654	2.62
368.44	1.62
369.227	5.62
370.013	2.62
370.8	5.62
371.586	5.62
372.372	1.62
373.158	5.62
373.944	3.62
374.73	4.62
375.516	5.62
376.302	5.62
377.088	3.62
377.873	5.62
378.659	5.62
379.445	4.62
380.23	6.62
381.015	4.62
381.801	5.62
382.586	5.62
383.371	2.62
384.156	4.62
384.941	5.62
385.726	4.62
386.511	3.62
387.296	5.62
388.08	3.62
388.865	4.62
389.649	7.62
390.434	5.62
391.218	5.62
392.003	6.62
392.787	4.62
393.571	5.62
394.355	4.62
395.139	7.62
395.923	5.62
396.707	6.62
397.491	4.62
398.274	6.62
399.058	7.62
399.842	6.62
400.625	9.62
401.408	4.62
402.192	6.62
402.975	7.62
403.758	6.62
404.541	5.62
405.324	9.62
406.107	6.62
406.89	6.62
407.673	6.62
408.456	8.62
409.238	9.62
410.021	5.62
410.803	8.62
411.586	7.62
412.368	9.62
413.151	7.62
413.933	8.62
414.715	9.62
415.497	7.62
416.279	8.62
417.061	9.62
417.843	11.62
418.624	9.62
419.406	7.62
420.188	10.62
420.969	9.62
421.751	12.62
422.532	8.62
423.313	11.62
424.095	10.62
424.876	11.62
425.657	12.62
426.438	10.62
427.219	10.62
428	10.62
428.78	10.62
429.561	14.62
430.342	15.62
431.122	13.62
431.903	11.62
432.683	13.62
433.464	15.62
434.244	15.62
435.024	17.62
435.804	16.62
436.584	17.62
437.364	15.62
438.144	17.62
438.924	19.62
439.704	21.62
440.483	23.62
441.263	23.62
442.042	25.62
442.822	28.62
443.601	26.62
444.38	34.62
445.16	29.62
445.939	32.62
446.718	39.62
447.497	42.62
448.276	40.62
449.054	45.62
449.833	51.62
450.612	54.62
451.391	60.62
452.169	63.62
452.948	71.62
453.726	80.62
454.504	87.62
455.282	99.62
456.061	108.62
456.839	121.62
457.617	135.62
458.395	145.62
459.172	161.62
459.95	178.62
460.728	200.62
461.506	229.62
462.283	242.62
463.061	278.62
463.838	307.62
464.615	347.62
465.393	389.62
466.17	430.62
466.947	476.62
467.724	529.62
468.501	592.62
469.278	659.62
470.055	723.62
470.831	816.62
471.608	893.62
472.385	993.62
473.161	1111.62
473.938	1230.62
474.714	1356.62
475.49	1473.62
476.266	1616.62
477.043	1809.62
477.819	1991.62
478.595	2215.62
479.371	2395.62
480.146	2641.62
480.922	2909.62
481.698	3175.62
482.473	3511.62
483.249	3851.62
484.024	4205.62
484.8	4628.62
485.575	5063.62
486.35	5558.62
487.126	6050.62
487.901	6645.62
488.676	7245.62
489.451	7907.62
490.225	8636.62
491	9417.62
491.775	10267.62
492.55	11140.62
493.324	12075.62
494.099	13028.62
494.873	14021.62
495.647	15049.62
496.422	16183.62
497.196	17299.62
497.97	18476.62
498.744	19635.62
499.518	20782.62
500.292	21923.62
501.066	23021.62
501.839	23927.62
502.613	24902.62
503.387	25711.62
504.16	26425.62
504.934	26874.62
505.707	27043.62
506.48	27246.62
507.253	27227.62
508.027	27119.62
508.8	26903.62
509.573	26587.62
510.346	26055.62
511.118	25387.62
511.891	24679.62
512.664	23873.62
513.437	23061.62
514.209	22221.62
514.982	21328.62
515.754	20458.62
516.526	19505.62
517.298	18716.62
518.071	17881.62
518.843	17229.62
519.615	16587.62
520.387	15967.62
521.159	15256.62
521.93	14649.62
522.702	14070.62
523.474	13555.62
524.245	12956.62
525.017	12405.62
525.788	11968.62
526.56	11371.62
527.331	10886.62
528.102	10400.62
528.873	9936.62
529.644	9407.62
530.415	8974.62
531.186	8559.62
531.957	8150.62
532.728	7741.62
533.498	7328.62
534.269	6971.62
535.039	6545.62
535.81	6190.62
536.58	5841.62
537.351	5505.62
538.121	5229.62
538.891	4944.62
539.661	4684.62
540.431	4414.62
541.201	4150.62
541.971	3926.62
542.741	3754.62
543.51	3571.62
544.28	3393.62
545.05	3221.62
545.819	3075.62
546.588	2904.62
547.358	2765.62
548.127	2636.62
548.896	2479.62
549.665	2363.62
550.434	2247.62
551.203	2149.62
551.972	2015.62
552.741	1912.62
553.51	1800.62
554.278	1696.62
555.047	1598.62
555.815	1537.62
556.584	1441.62
557.352	1367.62
558.121	1286.62
558.889	1204.62
559.657	1157.62
560.425	1087.62
561.193	1009.62
561.961	957.62
562.729	919.62
563.496	859.62
564.264	801.62
565.032	773.62
565.799	725.62
566.567	689.62
567.334	644.62
568.101	607.62
568.869	568.62
569.636	544.62
570.403	510.62
571.17	483.62
571.937	452.62
572.704	435.62
573.471	410.62
574.237	392.62
575.004	358.62
575.771	345.62
576.537	317.62
577.303	298.62
578.07	285.62
578.836	274.62
579.602	249.62
580.368	241.62
581.134	221.62
581.9	219.62
582.666	207.62
583.432	192.62
584.198	182.62
584.964	176.62
585.729	166.62
586.495	152.62
587.26	146.62
588.025	137.62
588.791	129.62
589.556	128.62
590.321	118.62
591.086	111.62
591.851	108.62
592.616	103.62
593.381	100.62
594.146	94.62
594.911	86.62
595.675	82.62
596.44	75.62
597.204	81.62
597.969	72.62
598.733	69.62
599.497	63.62
600.261	59.62
601.025	61.62
601.79	57.62
602.553	50.62
603.317	53.62
604.081	49.62
604.845	52.62
605.609	44.62
606.372	45.62
607.136	43.62
607.899	38.62
608.662	40.62
609.426	38.62
610.189	34.62
610.952	36.62
611.715	32.62
612.478	32.62
613.241	30.62
614.004	28.62
614.767	27.62
615.529	27.62
616.292	24.62
617.055	22.62
617.817	25.62
618.579	22.62
619.342	22.62
620.104	21.62
620.866	21.62
621.628	22.62
622.39	17.62
623.152	19.62
623.914	19.62
624.676	18.62
625.438	18.62
626.199	19.62
626.961	15.62
627.722	15.62
628.484	15.62
629.245	13.62
630.006	16.62
630.768	13.62
631.529	12.62
632.29	15.62
633.051	12.62
633.812	9.62
634.573	12.62
635.333	9.62
636.094	13.62
636.855	8.62
637.615	12.62
638.376	10.62
639.136	7.62
639.896	9.62
640.657	7.62
641.417	11.62
642.177	9.62
642.937	9.62
643.697	9.62
644.457	8.62
645.216	6.62
645.976	8.62
646.736	8.62
647.495	8.62
648.255	7.62
649.014	7.62
649.774	7.62
650.533	7.62
651.292	8.62
652.051	8.62
652.81	7.62
653.569	6.62
654.328	7.62
655.087	6.62
655.846	6.62
656.604	4.62
657.363	5.62
658.121	5.62
658.88	3.62
659.638	4.62
660.397	5.62
661.155	8.62
661.913	6.62
662.671	6.62
663.429	4.62
664.187	5.62
664.945	6.62
665.703	5.62
666.46	6.62
667.218	1.62
667.976	4.62
668.733	4.62
669.49	4.62
670.248	3.62
671.005	4.62
671.762	4.62
672.519	3.62
673.276	3.62
674.033	1.62
674.79	4.62
675.547	5.62
676.304	2.62
677.06	5.62
677.817	2.62
678.574	2.62
679.33	2.62
680.086	3.62
680.843	4.62
681.599	2.62
682.355	3.62
683.111	1.62
683.867	3.62
684.623	3.62
685.379	2.62
686.135	3.62
686.89	4.62
687.646	6.62
688.402	5.62
689.157	0.62
689.912	3.62
690.668	2.62
691.423	3.62
692.178	3.62
692.933	3.62
693.688	5.62
694.443	0.62
695.198	3.62
695.953	1.62
696.708	4.62
697.462	2.62
698.217	2.62
698.972	6.62
699.726	4.62
700.48	2.62
701.235	3.62
701.989	2.62
702.743	1.62
703.497	2.62
704.251	5.62
705.005	1.62
705.759	2.62
706.513	5.62
707.266	3.62
708.02	3.62
708.774	5.62
709.527	3.62
710.28	4.62
711.034	3.62
711.787	1.62
712.54	1.62
713.293	4.62
714.046	2.62
714.799	1.62
715.552	4.62
716.305	4.62
717.058	0.62
717.81	6.62
718.563	3.62
719.315	4.62
720.068	4.62
720.82	3.62
721.573	5.62
722.325	4.62
723.077	2.62
723.829	4.62
724.581	2.62
725.333	4.62
726.085	3.62
726.836	2.62
727.588	3.62
728.34	3.62
729.091	2.62
729.843	4.62
730.594	2.62
731.346	2.62
732.097	3.62
732.848	7.62
733.599	4.62
734.35	3.62
735.101	3.62
735.852	2.62
736.603	4.62
737.354	4.62
738.104	4.62
738.855	3.62
739.605	1.62
740.356	3.62
741.106	4.62
741.856	4.62
742.607	2.62
743.357	7.62
744.107	4.62
744.857	3.62
745.607	4.62
746.357	3.62
747.106	6.62
747.856	2.62
748.606	2.62
749.355	5.62
750.105	6.62
750.854	5.62
751.603	3.62
752.353	5.62
753.102	4.62
753.851	4.62
754.6	5.62
755.349	4.62
756.098	5.62
756.847	7.62
757.595	3.62
758.344	3.62
759.093	5.62
759.841	5.62
760.589	5.62
761.338	4.62
762.086	4.62
762.834	3.62
763.582	4.62
764.331	6.62
765.079	7.62
765.826	5.62
766.574	5.62
767.322	6.62
768.07	7.62
768.817	7.62
769.565	6.62
770.312	8.62
771.06	7.62
771.807	8.62
772.554	6.62
773.302	4.62
774.049	6.62
774.796	4.62
775.543	7.62
776.29	7.62
777.036	7.62
777.783	4.62
778.53	8.62
779.276	9.62
780.023	8.62
780.769	8.62
781.516	8.62
782.262	8.62
783.008	8.62
783.754	8.62
784.5	8.62
785.246	6.62
785.992	7.62
786.738	6.62
787.484	8.62
788.23	8.62
788.975	8.62
789.721	8.62
790.466	9.62
791.212	9.62
791.957	7.62
792.702	9.62
793.447	9.62
794.193	7.62
794.938	7.62
795.683	6.62
796.427	6.62
797.172	8.62
797.917	6.62
798.662	8.62
799.406	5.62
800.151	10.62
800.895	9.62
801.64	7.62
802.384	6.62
803.128	5.62
803.872	9.62
804.616	5.62
805.36	3.62
806.104	6.62
806.848	5.62
807.592	7.62
808.336	4.62
809.079	4.62
809.823	7.62
810.566	5.62
811.31	3.62
812.053	3.62
812.796	4.62
813.539	4.62
814.283	6.62
815.026	5.62
815.769	4.62
816.511	4.62
817.254	4.62
817.997	8.62
818.74	3.62
819.482	4.62
820.225	4.62
820.967	3.62
821.71	3.62
822.452	4.62
823.194	3.62
823.936	2.62
824.678	5.62
825.42	5.62
826.162	3.62
826.904	4.62
827.646	1.62
828.388	3.62
829.129	3.62
829.871	2.62
830.612	0.62
831.354	2.62
832.095	5.62
832.836	2.62
833.577	2.62
834.319	3.62
835.06	3.62
835.801	3.62
836.542	3.62
837.282	2.62
838.023	0.62
838.764	3.62
839.504	3.62
840.245	2.62
840.985	3.62
841.726	0.62
842.466	3.62
843.206	4.62
843.946	4.62
844.687	1.62
845.427	2.62
846.166	2.62
846.906	3.62
847.646	3.62
848.386	1.62
849.125	3.62
849.865	3.62
850.605	3.62
851.344	1.62
852.083	2.62
852.823	0.62
853.562	3.62
854.301	2.62
855.04	0.62
855.779	3.62
856.518	2.62
857.257	2.62
857.995	2.62
858.734	3.62
859.473	1.62
860.211	-0.38
860.95	1.62
861.688	1.62
862.426	1.62
863.165	-0.38
863.903	3.62
864.641	1.62
865.379	2.62
866.117	0.62
866.855	0.62
867.593	1.62
868.33	0.62
869.068	0.62
869.806	0.62
870.543	1.62
871.28	2.62
872.018	2.62
872.755	1.62
873.492	-0.38
874.229	-0.38
874.967	0.62
875.703	1.62
876.44	1.62
877.177	-0.38
877.914	0.62
878.651	1.62
879.387	0.62
880.124	0.62
880.86	1.62
881.597	1.62
882.333	1.62
883.069	1.62
883.806	0.62
884.542	1.62
885.278	3.62
886.014	-0.38
886.749	0.62
887.485	0.62
888.221	-0.38
888.957	0.62
889.692	1.62
890.428	2.62
891.163	-1.38
891.899	1.62
892.634	-0.38
893.369	1.62
894.104	1.62
894.839	-0.38
895.574	-0.38
896.309	0.62
897.044	-0.38
897.779	-0.38
898.514	1.62
899.248	-1.38
899.983	-0.38
900.717	0.62
901.452	0.62
902.186	-0.38
902.92	-1.38
903.654	0.62
904.389	-2.38
905.123	2.62
905.857	-0.38
906.59	-0.38
907.324	1.62
908.058	0.62
908.792	-1.38
909.525	1.62
910.259	1.62
910.992	-0.38
911.726	0.62
912.459	1.62
913.192	-1.38
913.925	1.62
914.658	-0.38
915.391	-0.38
916.124	-0.38
916.857	-1.38
917.59	-0.38
918.323	0.62
919.055	-0.38
919.788	-1.38
920.521	-0.38
921.253	1.62
921.985	-0.38
922.718	2.62
923.45	0.62
924.182	1.62
924.914	-0.38
925.646	-0.38
926.378	-1.38
927.11	-0.38
927.841	-0.38
928.573	-0.38
929.305	-2.38
930.036	0.62
930.768	-1.38
931.499	0.62
932.23	-1.38
932.962	-0.38
933.693	-0.38
934.424	-0.38
935.155	-1.38
935.886	-0.38
936.617	0.62
937.348	-1.38
938.078	-0.38
938.809	0.62
939.54	-0.38
940.27	-2.38
941.001	-0.38
941.731	2.62
942.461	1.62
943.191	-0.38
943.922	0.62
944.652	-0.38
945.382	0.62
946.112	1.62
946.841	1.62
947.571	1.62
948.301	0.62
949.031	-0.38
949.76	-0.38
950.49	0.62
951.219	0.62
951.948	-0.38
952.678	0.62
953.407	-2.38
954.136	1.62
954.865	-1.38
955.594	-2.38
956.323	0.62
957.052	-1.38
957.78	2.62
958.509	-1.38
959.238	0.62
959.966	-2.38
960.695	0.62
961.423	1.62
962.151	-0.38
962.88	0.62
963.608	-0.38
964.336	0.62
965.064	-0.38
965.792	-0.38
966.52	-0.38
967.247	0.62
967.975	-0.38
968.703	-0.38
969.43	-0.38
970.158	0.62
970.885	-0.38
971.613	0.62
972.34	-1.38
973.067	-2.38
973.794	0.62
974.521	-2.38
975.248	0.62
975.975	-2.38
976.702	0.62
977.429	-0.38
978.156	-0.38
978.882	-0.38
979.609	-0.38
980.335	-2.38
981.062	-1.38
981.788	-0.38
982.514	-0.38
983.24	-0.38
983.967	-1.38
984.693	-1.38
985.419	-0.38
986.144	-2.38
986.87	-1.38
987.596	-2.38
988.322	-0.38
989.047	0.62
989.773	1.62
990.498	-1.38
991.224	-1.38
991.949	0.62
992.674	1.62
993.399	0.62
994.124	0.62
994.849	-0.38
995.574	-0.38
996.299	-2.38
997.024	2.62
997.749	-0.38
998.473	-0.38
999.198	-0.38
999.922	-0.38
1000.647	-0.38
1001.371	1.62
1002.095	-1.38
1002.82	-2.38
1003.544	-0.38
1004.268	-2.38
1004.992	2.62
1005.716	-0.38
1006.439	-0.38
1007.163	3.62
1007.887	3.62
1008.611	2.62
1009.334	0.62
1010.058	-0.38
1010.781	0.62
1011.504	-1.38
1012.228	-1.38
1012.951	1.62
1013.674	-1.38
1014.397	1.62
1015.12	0.62
