节点500_285_QEPB04081__291__15-00-23-779.txt的数据

Date: Wed Nov 12 15:00:23 CST 2025
User: PC
Spectrometer: QEPB0408
触发模式: 0
积分时间 (秒): 1.000000E-2
Scans to average: 1
启用暗噪声校正: true
启用非线性校正: false
滑动平均宽度: 0
X轴模式: Wavelengths
Number of Pixels in Spectrum: 1044
>>>>>Begin Spectral Data<<<<<
220.843	3.88
221.644	-0.12
222.444	-0.12
223.244	1.88
224.045	1.88
224.845	0.88
225.645	1.88
226.445	1.88
227.245	1.88
228.045	1.88
228.845	2.88
229.645	2.88
230.444	1.88
231.244	2.88
232.043	0.88
232.843	3.88
233.642	3.88
234.442	5.88
235.241	2.88
236.04	3.88
236.839	2.88
237.638	3.88
238.437	3.88
239.236	2.88
240.035	4.88
240.833	4.88
241.632	2.88
242.43	3.88
243.229	3.88
244.027	4.88
244.826	5.88
245.624	1.88
246.422	6.88
247.22	3.88
248.018	4.88
248.816	5.88
249.614	5.88
250.412	6.88
251.21	5.88
252.007	7.88
252.805	7.88
253.602	8.88
254.4	6.88
255.197	4.88
255.994	8.88
256.791	6.88
257.589	11.88
258.386	6.88
259.183	11.88
259.979	8.88
260.776	9.88
261.573	7.88
262.37	9.88
263.166	9.88
263.963	10.88
264.759	8.88
265.556	11.88
266.352	11.88
267.148	9.88
267.944	12.88
268.74	13.88
269.536	12.88
270.332	10.88
271.128	15.88
271.924	14.88
272.719	14.88
273.515	15.88
274.311	13.88
275.106	15.88
275.901	14.88
276.697	16.88
277.492	13.88
278.287	16.88
279.082	15.88
279.877	16.88
280.672	19.88
281.467	16.88
282.262	16.88
283.056	16.88
283.851	19.88
284.646	20.88
285.44	16.88
286.234	17.88
287.029	17.88
287.823	18.88
288.617	15.88
289.411	15.88
290.205	17.88
290.999	16.88
291.793	16.88
292.587	18.88
293.381	16.88
294.174	16.88
294.968	11.88
295.761	19.88
296.555	17.88
297.348	12.88
298.141	13.88
298.935	15.88
299.728	14.88
300.521	11.88
301.314	13.88
302.107	12.88
302.899	7.88
303.692	12.88
304.485	13.88
305.277	11.88
306.07	10.88
306.862	12.88
307.655	9.88
308.447	8.88
309.239	11.88
310.031	7.88
310.823	10.88
311.615	8.88
312.407	8.88
313.199	10.88
313.991	7.88
314.783	9.88
315.574	9.88
316.366	7.88
317.157	7.88
317.949	6.88
318.74	7.88
319.531	6.88
320.322	7.88
321.113	5.88
321.904	7.88
322.695	4.88
323.486	4.88
324.277	6.88
325.068	3.88
325.858	4.88
326.649	6.88
327.439	5.88
328.23	5.88
329.02	7.88
329.81	4.88
330.6	5.88
331.391	6.88
332.181	6.88
332.971	6.88
333.76	3.88
334.55	3.88
335.34	7.88
336.13	6.88
336.919	6.88
337.709	6.88
338.498	5.88
339.287	4.88
340.077	5.88
340.866	8.88
341.655	3.88
342.444	5.88
343.233	3.88
344.022	5.88
344.811	7.88
345.6	5.88
346.388	4.88
347.177	3.88
347.965	6.88
348.754	5.88
349.542	6.88
350.33	4.88
351.119	4.88
351.907	3.88
352.695	4.88
353.483	5.88
354.271	6.88
355.059	5.88
355.846	5.88
356.634	6.88
357.422	4.88
358.209	4.88
358.997	4.88
359.784	6.88
360.571	4.88
361.359	4.88
362.146	6.88
362.933	5.88
363.72	4.88
364.507	4.88
365.294	5.88
366.081	5.88
366.867	5.88
367.654	2.88
368.44	3.88
369.227	3.88
370.013	2.88
370.8	4.88
371.586	6.88
372.372	3.88
373.158	4.88
373.944	4.88
374.73	4.88
375.516	3.88
376.302	6.88
377.088	2.88
377.873	3.88
378.659	5.88
379.445	2.88
380.23	7.88
381.015	4.88
381.801	6.88
382.586	4.88
383.371	2.88
384.156	6.88
384.941	5.88
385.726	6.88
386.511	5.88
387.296	4.88
388.08	5.88
388.865	2.88
389.649	5.88
390.434	4.88
391.218	4.88
392.003	4.88
392.787	4.88
393.571	6.88
394.355	4.88
395.139	5.88
395.923	5.88
396.707	6.88
397.491	3.88
398.274	4.88
399.058	5.88
399.842	4.88
400.625	6.88
401.408	7.88
402.192	6.88
402.975	6.88
403.758	5.88
404.541	6.88
405.324	6.88
406.107	8.88
406.89	7.88
407.673	7.88
408.456	5.88
409.238	9.88
410.021	8.88
410.803	6.88
411.586	7.88
412.368	6.88
413.151	7.88
413.933	9.88
414.715	6.88
415.497	7.88
416.279	8.88
417.061	9.88
417.843	10.88
418.624	9.88
419.406	8.88
420.188	10.88
420.969	9.88
421.751	10.88
422.532	10.88
423.313	9.88
424.095	11.88
424.876	10.88
425.657	11.88
426.438	8.88
427.219	13.88
428	11.88
428.78	10.88
429.561	13.88
430.342	12.88
431.122	12.88
431.903	13.88
432.683	15.88
433.464	14.88
434.244	14.88
435.024	15.88
435.804	15.88
436.584	15.88
437.364	16.88
438.144	18.88
438.924	16.88
439.704	20.88
440.483	21.88
441.263	21.88
442.042	26.88
442.822	22.88
443.601	28.88
444.38	27.88
445.16	26.88
445.939	31.88
446.718	30.88
447.497	33.88
448.276	37.88
449.054	43.88
449.833	41.88
450.612	48.88
451.391	54.88
452.169	54.88
452.948	60.88
453.726	64.88
454.504	72.88
455.282	86.88
456.061	88.88
456.839	102.88
457.617	110.88
458.395	122.88
459.172	136.88
459.95	149.88
460.728	172.88
461.506	183.88
462.283	204.88
463.061	234.88
463.838	256.88
464.615	293.88
465.393	317.88
466.17	360.88
466.947	399.88
467.724	448.88
468.501	503.88
469.278	558.88
470.055	619.88
470.831	700.88
471.608	769.88
472.385	851.88
473.161	951.88
473.938	1055.88
474.714	1161.88
475.49	1298.88
476.266	1445.88
477.043	1590.88
477.819	1758.88
478.595	1950.88
479.371	2134.88
480.146	2356.88
480.922	2620.88
481.698	2889.88
482.473	3165.88
483.249	3481.88
484.024	3859.88
484.8	4237.88
485.575	4652.88
486.35	5109.88
487.126	5619.88
487.901	6184.88
488.676	6766.88
489.451	7429.88
490.225	8163.88
491	8884.88
491.775	9753.88
492.55	10606.88
493.324	11543.88
494.099	12399.88
494.873	13357.88
495.647	14457.88
496.422	15521.88
497.196	16583.88
497.97	17672.88
498.744	18791.88
499.518	19857.88
500.292	20901.88
501.066	21985.88
501.839	22814.88
502.613	23612.88
503.387	24354.88
504.16	24877.88
504.934	25162.88
505.707	25251.88
506.48	25369.88
507.253	25209.88
508.027	24936.88
508.8	24554.88
509.573	24240.88
510.346	23540.88
511.118	22842.88
511.891	22113.88
512.664	21304.88
513.437	20475.88
514.209	19624.88
514.982	18807.88
515.754	18027.88
516.526	17153.88
517.298	16369.88
518.071	15693.88
518.843	15102.88
519.615	14508.88
520.387	13947.88
521.159	13359.88
521.93	12858.88
522.702	12368.88
523.474	11816.88
524.245	11286.88
525.017	10827.88
525.788	10408.88
526.56	9934.88
527.331	9431.88
528.102	9045.88
528.873	8625.88
529.644	8214.88
530.415	7801.88
531.186	7370.88
531.957	7006.88
532.728	6634.88
533.498	6297.88
534.269	5932.88
535.039	5618.88
535.81	5274.88
536.58	5009.88
537.351	4714.88
538.121	4442.88
538.891	4229.88
539.661	3996.88
540.431	3762.88
541.201	3523.88
541.971	3391.88
542.741	3188.88
543.51	3042.88
544.28	2891.88
545.05	2754.88
545.819	2605.88
546.588	2485.88
547.358	2368.88
548.127	2259.88
548.896	2133.88
549.665	2018.88
550.434	1927.88
551.203	1806.88
551.972	1719.88
552.741	1617.88
553.51	1528.88
554.278	1439.88
555.047	1355.88
555.815	1271.88
556.584	1218.88
557.352	1147.88
558.121	1081.88
558.889	1016.88
559.657	964.88
560.425	906.88
561.193	857.88
561.961	812.88
562.729	771.88
563.496	721.88
564.264	677.88
565.032	643.88
565.799	615.88
566.567	589.88
567.334	546.88
568.101	514.88
568.869	482.88
569.636	457.88
570.403	424.88
571.17	407.88
571.937	381.88
572.704	356.88
573.471	350.88
574.237	317.88
575.004	299.88
575.771	285.88
576.537	268.88
577.303	253.88
578.07	242.88
578.836	221.88
579.602	208.88
580.368	203.88
581.134	191.88
581.9	180.88
582.666	175.88
583.432	169.88
584.198	154.88
584.964	143.88
585.729	141.88
586.495	136.88
587.26	122.88
588.025	117.88
588.791	113.88
589.556	111.88
590.321	98.88
591.086	94.88
591.851	86.88
592.616	80.88
593.381	80.88
594.146	77.88
594.911	74.88
595.675	72.88
596.44	68.88
597.204	62.88
597.969	63.88
598.733	62.88
599.497	54.88
600.261	53.88
601.025	51.88
601.79	50.88
602.553	48.88
603.317	45.88
604.081	43.88
604.845	41.88
605.609	40.88
606.372	35.88
607.136	35.88
607.899	33.88
608.662	31.88
609.426	27.88
610.189	29.88
610.952	30.88
611.715	30.88
612.478	27.88
613.241	27.88
614.004	23.88
614.767	22.88
615.529	23.88
616.292	21.88
617.055	23.88
617.817	21.88
618.579	19.88
619.342	17.88
620.104	20.88
620.866	18.88
621.628	15.88
622.39	18.88
623.152	16.88
623.914	15.88
624.676	17.88
625.438	15.88
626.199	14.88
626.961	14.88
627.722	10.88
628.484	13.88
629.245	12.88
630.006	10.88
630.768	9.88
631.529	12.88
632.29	12.88
633.051	13.88
633.812	12.88
634.573	10.88
635.333	8.88
636.094	7.88
636.855	11.88
637.615	9.88
638.376	8.88
639.136	9.88
639.896	7.88
640.657	6.88
641.417	7.88
642.177	7.88
642.937	5.88
643.697	6.88
644.457	8.88
645.216	9.88
645.976	7.88
646.736	5.88
647.495	4.88
648.255	6.88
649.014	8.88
649.774	6.88
650.533	5.88
651.292	6.88
652.051	8.88
652.81	4.88
653.569	5.88
654.328	8.88
655.087	5.88
655.846	4.88
656.604	6.88
657.363	7.88
658.121	4.88
658.88	5.88
659.638	4.88
660.397	6.88
661.155	4.88
661.913	1.88
662.671	3.88
663.429	4.88
664.187	5.88
664.945	5.88
665.703	1.88
666.46	6.88
667.218	5.88
667.976	4.88
668.733	3.88
669.49	5.88
670.248	4.88
671.005	3.88
671.762	4.88
672.519	3.88
673.276	5.88
674.033	5.88
674.79	3.88
675.547	4.88
676.304	5.88
677.06	6.88
677.817	2.88
678.574	3.88
679.33	6.88
680.086	5.88
680.843	5.88
681.599	4.88
682.355	5.88
683.111	5.88
683.867	1.88
684.623	1.88
685.379	1.88
686.135	3.88
686.89	3.88
687.646	5.88
688.402	4.88
689.157	2.88
689.912	2.88
690.668	3.88
691.423	4.88
692.178	3.88
692.933	4.88
693.688	3.88
694.443	1.88
695.198	5.88
695.953	1.88
696.708	4.88
697.462	3.88
698.217	2.88
698.972	0.88
699.726	2.88
700.48	0.88
701.235	1.88
701.989	3.88
702.743	3.88
703.497	1.88
704.251	4.88
705.005	5.88
705.759	6.88
706.513	3.88
707.266	3.88
708.02	2.88
708.774	1.88
709.527	3.88
710.28	1.88
711.034	2.88
711.787	3.88
712.54	2.88
713.293	4.88
714.046	3.88
714.799	5.88
715.552	3.88
716.305	1.88
717.058	4.88
717.81	4.88
718.563	4.88
719.315	2.88
720.068	4.88
720.82	4.88
721.573	5.88
722.325	1.88
723.077	1.88
723.829	5.88
724.581	1.88
725.333	2.88
726.085	3.88
726.836	3.88
727.588	3.88
728.34	1.88
729.091	2.88
729.843	2.88
730.594	3.88
731.346	3.88
732.097	3.88
732.848	1.88
733.599	2.88
734.35	5.88
735.101	1.88
735.852	2.88
736.603	4.88
737.354	3.88
738.104	2.88
738.855	4.88
739.605	3.88
740.356	3.88
741.106	4.88
741.856	3.88
742.607	3.88
743.357	5.88
744.107	3.88
744.857	4.88
745.607	3.88
746.357	3.88
747.106	6.88
747.856	3.88
748.606	4.88
749.355	5.88
750.105	4.88
750.854	6.88
751.603	5.88
752.353	5.88
753.102	3.88
753.851	3.88
754.6	5.88
755.349	5.88
756.098	4.88
756.847	5.88
757.595	6.88
758.344	6.88
759.093	5.88
759.841	4.88
760.589	2.88
761.338	6.88
762.086	5.88
762.834	3.88
763.582	3.88
764.331	8.88
765.079	7.88
765.826	5.88
766.574	5.88
767.322	8.88
768.07	7.88
768.817	8.88
769.565	7.88
770.312	6.88
771.06	7.88
771.807	5.88
772.554	4.88
773.302	6.88
774.049	5.88
774.796	7.88
775.543	8.88
776.29	6.88
777.036	8.88
777.783	8.88
778.53	6.88
779.276	7.88
780.023	6.88
780.769	6.88
781.516	8.88
782.262	9.88
783.008	9.88
783.754	7.88
784.5	6.88
785.246	6.88
785.992	7.88
786.738	9.88
787.484	6.88
788.23	8.88
788.975	6.88
789.721	8.88
790.466	6.88
791.212	9.88
791.957	8.88
792.702	8.88
793.447	6.88
794.193	10.88
794.938	9.88
795.683	7.88
796.427	6.88
797.172	6.88
797.917	7.88
798.662	9.88
799.406	6.88
800.151	8.88
800.895	6.88
801.64	8.88
802.384	2.88
803.128	7.88
803.872	5.88
804.616	5.88
805.36	6.88
806.104	7.88
806.848	4.88
807.592	5.88
808.336	6.88
809.079	5.88
809.823	5.88
810.566	4.88
811.31	4.88
812.053	3.88
812.796	5.88
813.539	4.88
814.283	5.88
815.026	4.88
815.769	3.88
816.511	3.88
817.254	5.88
817.997	5.88
818.74	3.88
819.482	4.88
820.225	1.88
820.967	3.88
821.71	6.88
822.452	2.88
823.194	5.88
823.936	4.88
824.678	2.88
825.42	3.88
826.162	1.88
826.904	3.88
827.646	4.88
828.388	3.88
829.129	2.88
829.871	4.88
830.612	2.88
831.354	2.88
832.095	4.88
832.836	2.88
833.577	1.88
834.319	2.88
835.06	3.88
835.801	4.88
836.542	1.88
837.282	5.88
838.023	1.88
838.764	2.88
839.504	2.88
840.245	0.88
840.985	3.88
841.726	0.88
842.466	4.88
843.206	3.88
843.946	3.88
844.687	1.88
845.427	1.88
846.166	3.88
846.906	1.88
847.646	2.88
848.386	4.88
849.125	2.88
849.865	1.88
850.605	3.88
851.344	0.88
852.083	5.88
852.823	0.88
853.562	3.88
854.301	0.88
855.04	2.88
855.779	4.88
856.518	1.88
857.257	0.88
857.995	0.88
858.734	2.88
859.473	1.88
860.211	1.88
860.95	2.88
861.688	1.88
862.426	1.88
863.165	-1.12
863.903	2.88
864.641	2.88
865.379	1.88
866.117	3.88
866.855	2.88
867.593	1.88
868.33	0.88
869.068	1.88
869.806	1.88
870.543	0.88
871.28	3.88
872.018	2.88
872.755	0.88
873.492	1.88
874.229	1.88
874.967	2.88
875.703	1.88
876.44	2.88
877.177	2.88
877.914	3.88
878.651	1.88
879.387	1.88
880.124	0.88
880.86	0.88
881.597	1.88
882.333	1.88
883.069	1.88
883.806	0.88
884.542	1.88
885.278	0.88
886.014	-1.12
886.749	2.88
887.485	-1.12
888.221	0.88
888.957	2.88
889.692	2.88
890.428	1.88
891.163	0.88
891.899	2.88
892.634	1.88
893.369	-0.12
894.104	0.88
894.839	-0.12
895.574	1.88
896.309	-1.12
897.044	1.88
897.779	-1.12
898.514	-0.12
899.248	2.88
899.983	-1.12
900.717	0.88
901.452	0.88
902.186	0.88
902.92	0.88
903.654	-0.12
904.389	1.88
905.123	-3.12
905.857	1.88
906.59	0.88
907.324	0.88
908.058	1.88
908.792	1.88
909.525	2.88
910.259	0.88
910.992	1.88
911.726	-0.12
912.459	-2.12
913.192	-0.12
913.925	1.88
914.658	-1.12
915.391	1.88
916.124	-0.12
916.857	-0.12
917.59	-1.12
918.323	-0.12
919.055	-2.12
919.788	-0.12
920.521	0.88
921.253	-0.12
921.985	-0.12
922.718	-1.12
923.45	-2.12
924.182	-0.12
924.914	-0.12
925.646	0.88
926.378	-0.12
927.11	1.88
927.841	0.88
928.573	0.88
929.305	-2.12
930.036	1.88
930.768	-0.12
931.499	1.88
932.23	1.88
932.962	0.88
933.693	0.88
934.424	1.88
935.155	-2.12
935.886	-2.12
936.617	-1.12
937.348	0.88
938.078	0.88
938.809	1.88
939.54	1.88
940.27	0.88
941.001	0.88
941.731	-3.12
942.461	-1.12
943.191	-1.12
943.922	-0.12
944.652	2.88
945.382	-0.12
946.112	-0.12
946.841	0.88
947.571	-0.12
948.301	-2.12
949.031	-1.12
949.76	-2.12
950.49	-1.12
951.219	-1.12
951.948	-0.12
952.678	-0.12
953.407	1.88
954.136	-0.12
954.865	2.88
955.594	0.88
956.323	2.88
957.052	-0.12
957.78	-0.12
958.509	-1.12
959.238	-1.12
959.966	0.88
960.695	1.88
961.423	-0.12
962.151	0.88
962.88	-1.12
963.608	-0.12
964.336	0.88
965.064	1.88
965.792	-2.12
966.52	-0.12
967.247	-2.12
967.975	-0.12
968.703	1.88
969.43	1.88
970.158	0.88
970.885	1.88
971.613	-0.12
972.34	1.88
973.067	-1.12
973.794	2.88
974.521	0.88
975.248	0.88
975.975	0.88
976.702	0.88
977.429	1.88
978.156	1.88
978.882	1.88
979.609	1.88
980.335	-0.12
981.062	1.88
981.788	-1.12
982.514	1.88
983.24	0.88
983.967	1.88
984.693	-0.12
985.419	-0.12
986.144	2.88
986.87	0.88
987.596	-0.12
988.322	-0.12
989.047	1.88
989.773	-0.12
990.498	0.88
991.224	0.88
991.949	1.88
992.674	0.88
993.399	0.88
994.124	1.88
994.849	2.88
995.574	-1.12
996.299	0.88
997.024	1.88
997.749	-0.12
998.473	-0.12
999.198	0.88
999.922	-0.12
1000.647	-0.12
1001.371	2.88
1002.095	-0.12
1002.82	-1.12
1003.544	-2.12
1004.268	1.88
1004.992	-0.12
1005.716	1.88
1006.439	1.88
1007.163	0.88
1007.887	-0.12
1008.611	-0.12
1009.334	0.88
1010.058	-1.12
1010.781	0.88
1011.504	0.88
1012.228	1.88
1012.951	0.88
1013.674	-0.12
1014.397	-1.12
1015.12	0.88
