节点500_285_QEPB04081__49__14-56-22-363.txt的数据

Date: Wed Nov 12 14:56:22 CST 2025
User: PC
Spectrometer: QEPB0408
触发模式: 0
积分时间 (秒): 1.000000E-2
Scans to average: 1
启用暗噪声校正: true
启用非线性校正: false
滑动平均宽度: 0
X轴模式: Wavelengths
Number of Pixels in Spectrum: 1044
>>>>>Begin Spectral Data<<<<<
220.843	1.25
221.644	1.25
222.444	3.25
223.244	1.25
224.045	2.25
224.845	3.25
225.645	-0.75
226.445	3.25
227.245	3.25
228.045	1.25
228.845	1.25
229.645	4.25
230.444	4.25
231.244	1.25
232.043	4.25
232.843	4.25
233.642	4.25
234.442	2.25
235.241	3.25
236.04	4.25
236.839	4.25
237.638	3.25
238.437	2.25
239.236	2.25
240.035	5.25
240.833	2.25
241.632	7.25
242.43	6.25
243.229	4.25
244.027	6.25
244.826	5.25
245.624	5.25
246.422	7.25
247.22	5.25
248.018	7.25
248.816	5.25
249.614	6.25
250.412	8.25
251.21	6.25
252.007	7.25
252.805	8.25
253.602	7.25
254.4	8.25
255.197	9.25
255.994	7.25
256.791	9.25
257.589	10.25
258.386	8.25
259.183	12.25
259.979	13.25
260.776	8.25
261.573	9.25
262.37	9.25
263.166	12.25
263.963	11.25
264.759	13.25
265.556	12.25
266.352	16.25
267.148	13.25
267.944	16.25
268.74	17.25
269.536	16.25
270.332	18.25
271.128	16.25
271.924	15.25
272.719	19.25
273.515	18.25
274.311	17.25
275.106	19.25
275.901	17.25
276.697	18.25
277.492	17.25
278.287	18.25
279.082	20.25
279.877	22.25
280.672	22.25
281.467	20.25
282.262	23.25
283.056	18.25
283.851	20.25
284.646	20.25
285.44	19.25
286.234	17.25
287.029	23.25
287.823	21.25
288.617	17.25
289.411	18.25
290.205	20.25
290.999	16.25
291.793	17.25
292.587	19.25
293.381	19.25
294.174	18.25
294.968	16.25
295.761	17.25
296.555	14.25
297.348	14.25
298.141	13.25
298.935	18.25
299.728	16.25
300.521	13.25
301.314	15.25
302.107	10.25
302.899	13.25
303.692	11.25
304.485	11.25
305.277	11.25
306.07	11.25
306.862	17.25
307.655	12.25
308.447	11.25
309.239	14.25
310.031	13.25
310.823	12.25
311.615	11.25
312.407	8.25
313.199	9.25
313.991	10.25
314.783	9.25
315.574	8.25
316.366	11.25
317.157	7.25
317.949	10.25
318.74	8.25
319.531	8.25
320.322	10.25
321.113	7.25
321.904	8.25
322.695	7.25
323.486	6.25
324.277	7.25
325.068	7.25
325.858	7.25
326.649	7.25
327.439	7.25
328.23	5.25
329.02	5.25
329.81	6.25
330.6	5.25
331.391	6.25
332.181	6.25
332.971	8.25
333.76	6.25
334.55	9.25
335.34	7.25
336.13	7.25
336.919	5.25
337.709	4.25
338.498	7.25
339.287	6.25
340.077	5.25
340.866	6.25
341.655	8.25
342.444	7.25
343.233	9.25
344.022	6.25
344.811	5.25
345.6	6.25
346.388	7.25
347.177	7.25
347.965	4.25
348.754	8.25
349.542	5.25
350.33	7.25
351.119	5.25
351.907	8.25
352.695	6.25
353.483	7.25
354.271	6.25
355.059	7.25
355.846	6.25
356.634	6.25
357.422	4.25
358.209	7.25
358.997	1.25
359.784	7.25
360.571	6.25
361.359	4.25
362.146	4.25
362.933	7.25
363.72	6.25
364.507	6.25
365.294	4.25
366.081	7.25
366.867	6.25
367.654	5.25
368.44	7.25
369.227	3.25
370.013	5.25
370.8	5.25
371.586	6.25
372.372	4.25
373.158	4.25
373.944	3.25
374.73	6.25
375.516	3.25
376.302	4.25
377.088	6.25
377.873	5.25
378.659	4.25
379.445	6.25
380.23	6.25
381.015	6.25
381.801	6.25
382.586	6.25
383.371	3.25
384.156	6.25
384.941	6.25
385.726	2.25
386.511	8.25
387.296	6.25
388.08	8.25
388.865	5.25
389.649	5.25
390.434	7.25
391.218	6.25
392.003	5.25
392.787	6.25
393.571	5.25
394.355	7.25
395.139	3.25
395.923	9.25
396.707	7.25
397.491	6.25
398.274	9.25
399.058	6.25
399.842	6.25
400.625	6.25
401.408	7.25
402.192	6.25
402.975	6.25
403.758	6.25
404.541	7.25
405.324	5.25
406.107	8.25
406.89	7.25
407.673	11.25
408.456	6.25
409.238	11.25
410.021	9.25
410.803	8.25
411.586	7.25
412.368	6.25
413.151	11.25
413.933	7.25
414.715	11.25
415.497	9.25
416.279	9.25
417.061	10.25
417.843	11.25
418.624	8.25
419.406	10.25
420.188	9.25
420.969	11.25
421.751	9.25
422.532	10.25
423.313	9.25
424.095	12.25
424.876	14.25
425.657	10.25
426.438	12.25
427.219	13.25
428	15.25
428.78	13.25
429.561	13.25
430.342	14.25
431.122	14.25
431.903	14.25
432.683	13.25
433.464	14.25
434.244	17.25
435.024	18.25
435.804	19.25
436.584	20.25
437.364	18.25
438.144	23.25
438.924	18.25
439.704	23.25
440.483	21.25
441.263	24.25
442.042	24.25
442.822	26.25
443.601	29.25
444.38	31.25
445.16	31.25
445.939	29.25
446.718	34.25
447.497	38.25
448.276	38.25
449.054	43.25
449.833	47.25
450.612	50.25
451.391	52.25
452.169	56.25
452.948	64.25
453.726	64.25
454.504	77.25
455.282	80.25
456.061	92.25
456.839	98.25
457.617	110.25
458.395	121.25
459.172	132.25
459.95	152.25
460.728	170.25
461.506	185.25
462.283	212.25
463.061	238.25
463.838	268.25
464.615	297.25
465.393	327.25
466.17	372.25
466.947	406.25
467.724	465.25
468.501	517.25
469.278	581.25
470.055	644.25
470.831	715.25
471.608	805.25
472.385	889.25
473.161	986.25
473.938	1105.25
474.714	1244.25
475.49	1377.25
476.266	1538.25
477.043	1718.25
477.819	1888.25
478.595	2111.25
479.371	2340.25
480.146	2612.25
480.922	2873.25
481.698	3185.25
482.473	3546.25
483.249	3917.25
484.024	4340.25
484.8	4793.25
485.575	5321.25
486.35	5889.25
487.126	6466.25
487.901	7165.25
488.676	7869.25
489.451	8681.25
490.225	9543.25
491	10507.25
491.775	11503.25
492.55	12572.25
493.324	13685.25
494.099	14754.25
494.873	16003.25
495.647	17268.25
496.422	18561.25
497.196	19855.25
497.97	21165.25
498.744	22464.25
499.518	23730.25
500.292	24970.25
501.066	26041.25
501.839	26945.25
502.613	27797.25
503.387	28534.25
504.16	28931.25
504.934	29162.25
505.707	29166.25
506.48	29000.25
507.253	28683.25
508.027	28111.25
508.8	27673.25
509.573	26916.25
510.346	26131.25
511.118	25171.25
511.891	24203.25
512.664	23224.25
513.437	22169.25
514.209	21203.25
514.982	20280.25
515.754	19341.25
516.526	18422.25
517.298	17603.25
518.071	16770.25
518.843	16219.25
519.615	15536.25
520.387	14952.25
521.159	14362.25
521.93	13727.25
522.702	13240.25
523.474	12695.25
524.245	12111.25
525.017	11603.25
525.788	11132.25
526.56	10611.25
527.331	10082.25
528.102	9625.25
528.873	9149.25
529.644	8642.25
530.415	8221.25
531.186	7749.25
531.957	7369.25
532.728	6957.25
533.498	6594.25
534.269	6177.25
535.039	5864.25
535.81	5524.25
536.58	5231.25
537.351	4910.25
538.121	4645.25
538.891	4414.25
539.661	4146.25
540.431	3920.25
541.201	3686.25
541.971	3520.25
542.741	3339.25
543.51	3168.25
544.28	2992.25
545.05	2865.25
545.819	2719.25
546.588	2586.25
547.358	2452.25
548.127	2319.25
548.896	2223.25
549.665	2104.25
550.434	1997.25
551.203	1886.25
551.972	1764.25
552.741	1677.25
553.51	1604.25
554.278	1488.25
555.047	1407.25
555.815	1327.25
556.584	1252.25
557.352	1174.25
558.121	1107.25
558.889	1046.25
559.657	993.25
560.425	939.25
561.193	873.25
561.961	827.25
562.729	783.25
563.496	752.25
564.264	709.25
565.032	661.25
565.799	630.25
566.567	600.25
567.334	564.25
568.101	532.25
568.869	506.25
569.636	478.25
570.403	450.25
571.17	420.25
571.937	391.25
572.704	376.25
573.471	350.25
574.237	330.25
575.004	316.25
575.771	298.25
576.537	285.25
577.303	257.25
578.07	246.25
578.836	231.25
579.602	210.25
580.368	209.25
581.134	194.25
581.9	185.25
582.666	174.25
583.432	163.25
584.198	158.25
584.964	156.25
585.729	144.25
586.495	139.25
587.26	129.25
588.025	125.25
588.791	114.25
589.556	109.25
590.321	103.25
591.086	98.25
591.851	91.25
592.616	87.25
593.381	84.25
594.146	81.25
594.911	73.25
595.675	77.25
596.44	69.25
597.204	64.25
597.969	64.25
598.733	57.25
599.497	60.25
600.261	58.25
601.025	52.25
601.79	53.25
602.553	50.25
603.317	46.25
604.081	44.25
604.845	43.25
605.609	40.25
606.372	42.25
607.136	35.25
607.899	35.25
608.662	35.25
609.426	35.25
610.189	33.25
610.952	29.25
611.715	30.25
612.478	29.25
613.241	28.25
614.004	26.25
614.767	25.25
615.529	26.25
616.292	25.25
617.055	23.25
617.817	21.25
618.579	22.25
619.342	20.25
620.104	23.25
620.866	18.25
621.628	20.25
622.39	18.25
623.152	20.25
623.914	18.25
624.676	14.25
625.438	15.25
626.199	17.25
626.961	17.25
627.722	15.25
628.484	14.25
629.245	15.25
630.006	12.25
630.768	11.25
631.529	12.25
632.29	13.25
633.051	12.25
633.812	14.25
634.573	12.25
635.333	11.25
636.094	8.25
636.855	9.25
637.615	10.25
638.376	12.25
639.136	6.25
639.896	9.25
640.657	12.25
641.417	11.25
642.177	9.25
642.937	8.25
643.697	10.25
644.457	11.25
645.216	9.25
645.976	10.25
646.736	4.25
647.495	7.25
648.255	7.25
649.014	6.25
649.774	6.25
650.533	9.25
651.292	7.25
652.051	9.25
652.81	6.25
653.569	7.25
654.328	5.25
655.087	7.25
655.846	7.25
656.604	5.25
657.363	5.25
658.121	6.25
658.88	9.25
659.638	5.25
660.397	6.25
661.155	6.25
661.913	5.25
662.671	5.25
663.429	5.25
664.187	9.25
664.945	5.25
665.703	5.25
666.46	6.25
667.218	5.25
667.976	4.25
668.733	7.25
669.49	3.25
670.248	4.25
671.005	7.25
671.762	3.25
672.519	6.25
673.276	5.25
674.033	3.25
674.79	1.25
675.547	3.25
676.304	3.25
677.06	3.25
677.817	4.25
678.574	3.25
679.33	4.25
680.086	4.25
680.843	1.25
681.599	6.25
682.355	3.25
683.111	3.25
683.867	2.25
684.623	5.25
685.379	6.25
686.135	4.25
686.89	5.25
687.646	2.25
688.402	4.25
689.157	6.25
689.912	6.25
690.668	4.25
691.423	3.25
692.178	3.25
692.933	5.25
693.688	3.25
694.443	5.25
695.198	1.25
695.953	2.25
696.708	3.25
697.462	1.25
698.217	4.25
698.972	3.25
699.726	5.25
700.48	0.25
701.235	3.25
701.989	5.25
702.743	2.25
703.497	6.25
704.251	1.25
705.005	2.25
705.759	5.25
706.513	2.25
707.266	4.25
708.02	3.25
708.774	2.25
709.527	5.25
710.28	4.25
711.034	4.25
711.787	4.25
712.54	3.25
713.293	3.25
714.046	4.25
714.799	4.25
715.552	4.25
716.305	4.25
717.058	1.25
717.81	6.25
718.563	7.25
719.315	2.25
720.068	4.25
720.82	3.25
721.573	5.25
722.325	5.25
723.077	3.25
723.829	4.25
724.581	2.25
725.333	4.25
726.085	3.25
726.836	4.25
727.588	1.25
728.34	5.25
729.091	4.25
729.843	1.25
730.594	4.25
731.346	3.25
732.097	5.25
732.848	6.25
733.599	3.25
734.35	5.25
735.101	2.25
735.852	3.25
736.603	4.25
737.354	3.25
738.104	4.25
738.855	4.25
739.605	5.25
740.356	5.25
741.106	7.25
741.856	4.25
742.607	3.25
743.357	4.25
744.107	2.25
744.857	5.25
745.607	6.25
746.357	5.25
747.106	5.25
747.856	5.25
748.606	2.25
749.355	7.25
750.105	4.25
750.854	6.25
751.603	4.25
752.353	4.25
753.102	7.25
753.851	5.25
754.6	6.25
755.349	7.25
756.098	9.25
756.847	5.25
757.595	7.25
758.344	5.25
759.093	3.25
759.841	3.25
760.589	5.25
761.338	7.25
762.086	7.25
762.834	6.25
763.582	6.25
764.331	8.25
765.079	9.25
765.826	8.25
766.574	9.25
767.322	7.25
768.07	9.25
768.817	8.25
769.565	8.25
770.312	8.25
771.06	11.25
771.807	5.25
772.554	9.25
773.302	6.25
774.049	11.25
774.796	10.25
775.543	7.25
776.29	9.25
777.036	8.25
777.783	8.25
778.53	8.25
779.276	11.25
780.023	9.25
780.769	9.25
781.516	13.25
782.262	11.25
783.008	12.25
783.754	12.25
784.5	11.25
785.246	10.25
785.992	9.25
786.738	10.25
787.484	9.25
788.23	8.25
788.975	10.25
789.721	8.25
790.466	10.25
791.212	7.25
791.957	12.25
792.702	10.25
793.447	8.25
794.193	11.25
794.938	8.25
795.683	9.25
796.427	7.25
797.172	7.25
797.917	8.25
798.662	6.25
799.406	6.25
800.151	7.25
800.895	8.25
801.64	8.25
802.384	9.25
803.128	9.25
803.872	8.25
804.616	7.25
805.36	8.25
806.104	6.25
806.848	7.25
807.592	9.25
808.336	7.25
809.079	4.25
809.823	8.25
810.566	7.25
811.31	7.25
812.053	5.25
812.796	8.25
813.539	4.25
814.283	4.25
815.026	5.25
815.769	5.25
816.511	5.25
817.254	5.25
817.997	4.25
818.74	5.25
819.482	6.25
820.225	4.25
820.967	5.25
821.71	4.25
822.452	3.25
823.194	3.25
823.936	5.25
824.678	4.25
825.42	3.25
826.162	5.25
826.904	2.25
827.646	7.25
828.388	3.25
829.129	5.25
829.871	2.25
830.612	1.25
831.354	5.25
832.095	2.25
832.836	4.25
833.577	3.25
834.319	4.25
835.06	2.25
835.801	3.25
836.542	3.25
837.282	2.25
838.023	2.25
838.764	5.25
839.504	2.25
840.245	4.25
840.985	4.25
841.726	6.25
842.466	3.25
843.206	2.25
843.946	4.25
844.687	3.25
845.427	4.25
846.166	4.25
846.906	1.25
847.646	4.25
848.386	2.25
849.125	1.25
849.865	1.25
850.605	4.25
851.344	2.25
852.083	2.25
852.823	4.25
853.562	2.25
854.301	2.25
855.04	1.25
855.779	1.25
856.518	4.25
857.257	2.25
857.995	2.25
858.734	-0.75
859.473	1.25
860.211	1.25
860.95	2.25
861.688	3.25
862.426	2.25
863.165	2.25
863.903	1.25
864.641	1.25
865.379	1.25
866.117	4.25
866.855	1.25
867.593	-0.75
868.33	1.25
869.068	0.25
869.806	1.25
870.543	0.25
871.28	1.25
872.018	3.25
872.755	2.25
873.492	1.25
874.229	0.25
874.967	0.25
875.703	0.25
876.44	3.25
877.177	0.25
877.914	1.25
878.651	2.25
879.387	3.25
880.124	0.25
880.86	2.25
881.597	2.25
882.333	2.25
883.069	-0.75
883.806	-0.75
884.542	1.25
885.278	-0.75
886.014	1.25
886.749	0.25
887.485	0.25
888.221	1.25
888.957	0.25
889.692	2.25
890.428	1.25
891.163	0.25
891.899	1.25
892.634	0.25
893.369	0.25
894.104	0.25
894.839	2.25
895.574	1.25
896.309	2.25
897.044	0.25
897.779	2.25
898.514	0.25
899.248	1.25
899.983	2.25
900.717	-0.75
901.452	1.25
902.186	1.25
902.92	1.25
903.654	1.25
904.389	0.25
905.123	0.25
905.857	1.25
906.59	1.25
907.324	3.25
908.058	-1.75
908.792	1.25
909.525	0.25
910.259	0.25
910.992	2.25
911.726	1.25
912.459	2.25
913.192	-1.75
913.925	1.25
914.658	1.25
915.391	-1.75
916.124	2.25
916.857	1.25
917.59	-0.75
918.323	2.25
919.055	0.25
919.788	1.25
920.521	1.25
921.253	1.25
921.985	1.25
922.718	-0.75
923.45	0.25
924.182	-0.75
924.914	3.25
925.646	0.25
926.378	1.25
927.11	1.25
927.841	-1.75
928.573	1.25
929.305	0.25
930.036	2.25
930.768	1.25
931.499	-0.75
932.23	1.25
932.962	0.25
933.693	1.25
934.424	0.25
935.155	0.25
935.886	2.25
936.617	-2.75
937.348	0.25
938.078	2.25
938.809	-0.75
939.54	3.25
940.27	1.25
941.001	0.25
941.731	0.25
942.461	1.25
943.191	0.25
943.922	0.25
944.652	1.25
945.382	1.25
946.112	0.25
946.841	1.25
947.571	0.25
948.301	-0.75
949.031	-1.75
949.76	0.25
950.49	0.25
951.219	0.25
951.948	0.25
952.678	0.25
953.407	1.25
954.136	1.25
954.865	2.25
955.594	-0.75
956.323	2.25
957.052	2.25
957.78	0.25
958.509	1.25
959.238	-1.75
959.966	2.25
960.695	-0.75
961.423	2.25
962.151	0.25
962.88	-1.75
963.608	1.25
964.336	0.25
965.064	-0.75
965.792	1.25
966.52	-0.75
967.247	1.25
967.975	0.25
968.703	1.25
969.43	1.25
970.158	1.25
970.885	0.25
971.613	1.25
972.34	2.25
973.067	-0.75
973.794	0.25
974.521	0.25
975.248	-0.75
975.975	1.25
976.702	0.25
977.429	2.25
978.156	-0.75
978.882	0.25
979.609	-0.75
980.335	-0.75
981.062	0.25
981.788	-1.75
982.514	1.25
983.24	0.25
983.967	-0.75
984.693	1.25
985.419	1.25
986.144	1.25
986.87	-0.75
987.596	-0.75
988.322	-0.75
989.047	-1.75
989.773	0.25
990.498	2.25
991.224	1.25
991.949	1.25
992.674	0.25
993.399	0.25
994.124	0.25
994.849	-0.75
995.574	1.25
996.299	-1.75
997.024	-1.75
997.749	2.25
998.473	1.25
999.198	-0.75
999.922	2.25
1000.647	0.25
1001.371	3.25
1002.095	0.25
1002.82	-2.75
1003.544	-2.75
1004.268	-0.75
1004.992	3.25
1005.716	1.25
1006.439	0.25
1007.163	3.25
1007.887	1.25
1008.611	1.25
1009.334	1.25
1010.058	1.25
1010.781	0.25
1011.504	1.25
1012.228	0.25
1012.951	0.25
1013.674	-0.75
1014.397	1.25
1015.12	1.25
