节点500_285_QEPB04081__445__15-02-57-565.txt的数据

Date: Wed Nov 12 15:02:57 CST 2025
User: PC
Spectrometer: QEPB0408
触发模式: 0
积分时间 (秒): 1.000000E-2
Scans to average: 1
启用暗噪声校正: true
启用非线性校正: false
滑动平均宽度: 0
X轴模式: Wavelengths
Number of Pixels in Spectrum: 1044
>>>>>Begin Spectral Data<<<<<
220.843	2.25
221.644	-0.75
222.444	2.25
223.244	-0.75
224.045	2.25
224.845	2.25
225.645	1.25
226.445	1.25
227.245	2.25
228.045	1.25
228.845	2.25
229.645	2.25
230.444	4.25
231.244	2.25
232.043	3.25
232.843	4.25
233.642	2.25
234.442	2.25
235.241	1.25
236.04	3.25
236.839	3.25
237.638	5.25
238.437	1.25
239.236	4.25
240.035	5.25
240.833	2.25
241.632	4.25
242.43	4.25
243.229	4.25
244.027	2.25
244.826	3.25
245.624	3.25
246.422	6.25
247.22	5.25
248.018	4.25
248.816	5.25
249.614	4.25
250.412	6.25
251.21	8.25
252.007	2.25
252.805	5.25
253.602	6.25
254.4	6.25
255.197	7.25
255.994	8.25
256.791	7.25
257.589	9.25
258.386	10.25
259.183	8.25
259.979	9.25
260.776	9.25
261.573	9.25
262.37	11.25
263.166	8.25
263.963	10.25
264.759	13.25
265.556	10.25
266.352	10.25
267.148	12.25
267.944	11.25
268.74	11.25
269.536	11.25
270.332	16.25
271.128	13.25
271.924	13.25
272.719	15.25
273.515	16.25
274.311	16.25
275.106	15.25
275.901	14.25
276.697	16.25
277.492	16.25
278.287	19.25
279.082	16.25
279.877	17.25
280.672	15.25
281.467	17.25
282.262	17.25
283.056	20.25
283.851	20.25
284.646	20.25
285.44	19.25
286.234	19.25
287.029	17.25
287.823	17.25
288.617	17.25
289.411	18.25
290.205	17.25
290.999	19.25
291.793	19.25
292.587	18.25
293.381	17.25
294.174	16.25
294.968	16.25
295.761	14.25
296.555	15.25
297.348	14.25
298.141	15.25
298.935	16.25
299.728	13.25
300.521	15.25
301.314	13.25
302.107	13.25
302.899	14.25
303.692	10.25
304.485	14.25
305.277	14.25
306.07	11.25
306.862	12.25
307.655	14.25
308.447	11.25
309.239	11.25
310.031	12.25
310.823	11.25
311.615	10.25
312.407	6.25
313.199	8.25
313.991	7.25
314.783	9.25
315.574	9.25
316.366	9.25
317.157	7.25
317.949	8.25
318.74	9.25
319.531	7.25
320.322	7.25
321.113	7.25
321.904	5.25
322.695	6.25
323.486	6.25
324.277	8.25
325.068	5.25
325.858	4.25
326.649	5.25
327.439	6.25
328.23	4.25
329.02	7.25
329.81	6.25
330.6	4.25
331.391	4.25
332.181	4.25
332.971	4.25
333.76	5.25
334.55	5.25
335.34	7.25
336.13	6.25
336.919	6.25
337.709	8.25
338.498	7.25
339.287	4.25
340.077	5.25
340.866	2.25
341.655	7.25
342.444	6.25
343.233	3.25
344.022	8.25
344.811	3.25
345.6	4.25
346.388	4.25
347.177	4.25
347.965	4.25
348.754	6.25
349.542	7.25
350.33	5.25
351.119	6.25
351.907	3.25
352.695	6.25
353.483	5.25
354.271	6.25
355.059	5.25
355.846	5.25
356.634	6.25
357.422	4.25
358.209	4.25
358.997	5.25
359.784	6.25
360.571	5.25
361.359	5.25
362.146	6.25
362.933	5.25
363.72	4.25
364.507	4.25
365.294	3.25
366.081	2.25
366.867	3.25
367.654	6.25
368.44	6.25
369.227	1.25
370.013	5.25
370.8	4.25
371.586	4.25
372.372	3.25
373.158	4.25
373.944	3.25
374.73	3.25
375.516	4.25
376.302	3.25
377.088	7.25
377.873	7.25
378.659	3.25
379.445	6.25
380.23	3.25
381.015	4.25
381.801	4.25
382.586	6.25
383.371	4.25
384.156	6.25
384.941	3.25
385.726	6.25
386.511	6.25
387.296	4.25
388.08	5.25
388.865	4.25
389.649	6.25
390.434	6.25
391.218	3.25
392.003	5.25
392.787	3.25
393.571	4.25
394.355	6.25
395.139	4.25
395.923	6.25
396.707	5.25
397.491	4.25
398.274	5.25
399.058	5.25
399.842	4.25
400.625	5.25
401.408	7.25
402.192	4.25
402.975	9.25
403.758	5.25
404.541	6.25
405.324	8.25
406.107	8.25
406.89	7.25
407.673	6.25
408.456	9.25
409.238	8.25
410.021	6.25
410.803	10.25
411.586	8.25
412.368	7.25
413.151	8.25
413.933	7.25
414.715	8.25
415.497	8.25
416.279	6.25
417.061	9.25
417.843	10.25
418.624	9.25
419.406	10.25
420.188	9.25
420.969	10.25
421.751	11.25
422.532	11.25
423.313	12.25
424.095	11.25
424.876	11.25
425.657	13.25
426.438	11.25
427.219	12.25
428	12.25
428.78	13.25
429.561	12.25
430.342	13.25
431.122	13.25
431.903	15.25
432.683	15.25
433.464	16.25
434.244	16.25
435.024	13.25
435.804	17.25
436.584	17.25
437.364	16.25
438.144	19.25
438.924	18.25
439.704	19.25
440.483	23.25
441.263	24.25
442.042	25.25
442.822	25.25
443.601	27.25
444.38	29.25
445.16	31.25
445.939	34.25
446.718	34.25
447.497	39.25
448.276	42.25
449.054	45.25
449.833	48.25
450.612	52.25
451.391	58.25
452.169	61.25
452.948	64.25
453.726	75.25
454.504	80.25
455.282	91.25
456.061	100.25
456.839	111.25
457.617	124.25
458.395	140.25
459.172	154.25
459.95	172.25
460.728	189.25
461.506	211.25
462.283	236.25
463.061	263.25
463.838	297.25
464.615	331.25
465.393	371.25
466.17	410.25
466.947	450.25
467.724	510.25
468.501	568.25
469.278	624.25
470.055	701.25
470.831	771.25
471.608	864.25
472.385	957.25
473.161	1061.25
473.938	1189.25
474.714	1305.25
475.49	1437.25
476.266	1596.25
477.043	1742.25
477.819	1924.25
478.595	2139.25
479.371	2342.25
480.146	2575.25
480.922	2837.25
481.698	3120.25
482.473	3457.25
483.249	3798.25
484.024	4144.25
484.8	4552.25
485.575	4985.25
486.35	5504.25
487.126	6045.25
487.901	6554.25
488.676	7209.25
489.451	7912.25
490.225	8589.25
491	9360.25
491.775	10223.25
492.55	11183.25
493.324	12072.25
494.099	12995.25
494.873	14014.25
495.647	15136.25
496.422	16197.25
497.196	17314.25
497.97	18503.25
498.744	19668.25
499.518	20790.25
500.292	21941.25
501.066	23038.25
501.839	23879.25
502.613	24899.25
503.387	25644.25
504.16	26314.25
504.934	26694.25
505.707	26905.25
506.48	27042.25
507.253	26999.25
508.027	26804.25
508.8	26415.25
509.573	26202.25
510.346	25633.25
511.118	24854.25
511.891	24167.25
512.664	23361.25
513.437	22487.25
514.209	21585.25
514.982	20727.25
515.754	19808.25
516.526	18980.25
517.298	18153.25
518.071	17402.25
518.843	16673.25
519.615	16072.25
520.387	15401.25
521.159	14775.25
521.93	14198.25
522.702	13663.25
523.474	13067.25
524.245	12477.25
525.017	11988.25
525.788	11547.25
526.56	10995.25
527.331	10493.25
528.102	10038.25
528.873	9559.25
529.644	9110.25
530.415	8656.25
531.186	8231.25
531.957	7840.25
532.728	7427.25
533.498	7064.25
534.269	6683.25
535.039	6310.25
535.81	5951.25
536.58	5610.25
537.351	5283.25
538.121	5013.25
538.891	4743.25
539.661	4497.25
540.431	4234.25
541.201	4013.25
541.971	3783.25
542.741	3589.25
543.51	3395.25
544.28	3237.25
545.05	3082.25
545.819	2953.25
546.588	2804.25
547.358	2655.25
548.127	2521.25
548.896	2393.25
549.665	2267.25
550.434	2158.25
551.203	2035.25
551.972	1935.25
552.741	1808.25
553.51	1721.25
554.278	1616.25
555.047	1547.25
555.815	1446.25
556.584	1377.25
557.352	1298.25
558.121	1223.25
558.889	1157.25
559.657	1093.25
560.425	1026.25
561.193	967.25
561.961	908.25
562.729	869.25
563.496	818.25
564.264	774.25
565.032	730.25
565.799	683.25
566.567	655.25
567.334	610.25
568.101	586.25
568.869	546.25
569.636	515.25
570.403	489.25
571.17	464.25
571.937	439.25
572.704	414.25
573.471	386.25
574.237	361.25
575.004	345.25
575.771	323.25
576.537	302.25
577.303	284.25
578.07	270.25
578.836	251.25
579.602	240.25
580.368	229.25
581.134	215.25
581.9	200.25
582.666	189.25
583.432	184.25
584.198	173.25
584.964	170.25
585.729	152.25
586.495	150.25
587.26	141.25
588.025	136.25
588.791	124.25
589.556	115.25
590.321	114.25
591.086	107.25
591.851	100.25
592.616	97.25
593.381	89.25
594.146	86.25
594.911	85.25
595.675	77.25
596.44	73.25
597.204	76.25
597.969	72.25
598.733	64.25
599.497	64.25
600.261	60.25
601.025	56.25
601.79	53.25
602.553	52.25
603.317	50.25
604.081	51.25
604.845	48.25
605.609	44.25
606.372	40.25
607.136	43.25
607.899	40.25
608.662	35.25
609.426	37.25
610.189	35.25
610.952	32.25
611.715	32.25
612.478	31.25
613.241	32.25
614.004	28.25
614.767	23.25
615.529	23.25
616.292	26.25
617.055	22.25
617.817	21.25
618.579	23.25
619.342	20.25
620.104	19.25
620.866	20.25
621.628	20.25
622.39	17.25
623.152	19.25
623.914	14.25
624.676	16.25
625.438	16.25
626.199	16.25
626.961	17.25
627.722	15.25
628.484	13.25
629.245	14.25
630.006	11.25
630.768	13.25
631.529	13.25
632.29	9.25
633.051	13.25
633.812	13.25
634.573	9.25
635.333	13.25
636.094	9.25
636.855	9.25
637.615	10.25
638.376	9.25
639.136	9.25
639.896	8.25
640.657	11.25
641.417	9.25
642.177	9.25
642.937	8.25
643.697	6.25
644.457	8.25
645.216	7.25
645.976	6.25
646.736	7.25
647.495	6.25
648.255	8.25
649.014	8.25
649.774	7.25
650.533	6.25
651.292	6.25
652.051	5.25
652.81	6.25
653.569	4.25
654.328	4.25
655.087	4.25
655.846	4.25
656.604	6.25
657.363	6.25
658.121	7.25
658.88	7.25
659.638	5.25
660.397	6.25
661.155	5.25
661.913	5.25
662.671	5.25
663.429	5.25
664.187	3.25
664.945	6.25
665.703	2.25
666.46	3.25
667.218	4.25
667.976	3.25
668.733	4.25
669.49	4.25
670.248	4.25
671.005	4.25
671.762	2.25
672.519	5.25
673.276	5.25
674.033	4.25
674.79	4.25
675.547	1.25
676.304	4.25
677.06	2.25
677.817	3.25
678.574	4.25
679.33	4.25
680.086	1.25
680.843	4.25
681.599	4.25
682.355	4.25
683.111	4.25
683.867	1.25
684.623	2.25
685.379	4.25
686.135	2.25
686.89	4.25
687.646	3.25
688.402	4.25
689.157	3.25
689.912	2.25
690.668	4.25
691.423	1.25
692.178	4.25
692.933	3.25
693.688	2.25
694.443	1.25
695.198	4.25
695.953	1.25
696.708	4.25
697.462	3.25
698.217	5.25
698.972	3.25
699.726	5.25
700.48	3.25
701.235	3.25
701.989	4.25
702.743	1.25
703.497	2.25
704.251	1.25
705.005	4.25
705.759	2.25
706.513	3.25
707.266	4.25
708.02	0.25
708.774	3.25
709.527	2.25
710.28	3.25
711.034	3.25
711.787	2.25
712.54	4.25
713.293	0.25
714.046	4.25
714.799	1.25
715.552	2.25
716.305	4.25
717.058	2.25
717.81	5.25
718.563	4.25
719.315	3.25
720.068	5.25
720.82	3.25
721.573	4.25
722.325	5.25
723.077	2.25
723.829	2.25
724.581	2.25
725.333	1.25
726.085	3.25
726.836	3.25
727.588	4.25
728.34	4.25
729.091	3.25
729.843	3.25
730.594	4.25
731.346	3.25
732.097	3.25
732.848	1.25
733.599	2.25
734.35	5.25
735.101	2.25
735.852	1.25
736.603	3.25
737.354	4.25
738.104	2.25
738.855	5.25
739.605	5.25
740.356	3.25
741.106	5.25
741.856	3.25
742.607	5.25
743.357	3.25
744.107	5.25
744.857	4.25
745.607	2.25
746.357	3.25
747.106	4.25
747.856	3.25
748.606	4.25
749.355	3.25
750.105	4.25
750.854	4.25
751.603	3.25
752.353	4.25
753.102	4.25
753.851	6.25
754.6	5.25
755.349	5.25
756.098	4.25
756.847	6.25
757.595	4.25
758.344	2.25
759.093	5.25
759.841	7.25
760.589	5.25
761.338	6.25
762.086	7.25
762.834	4.25
763.582	5.25
764.331	9.25
765.079	5.25
765.826	7.25
766.574	8.25
767.322	7.25
768.07	7.25
768.817	5.25
769.565	6.25
770.312	10.25
771.06	6.25
771.807	9.25
772.554	5.25
773.302	6.25
774.049	7.25
774.796	9.25
775.543	4.25
776.29	7.25
777.036	8.25
777.783	8.25
778.53	7.25
779.276	9.25
780.023	9.25
780.769	8.25
781.516	6.25
782.262	7.25
783.008	9.25
783.754	7.25
784.5	7.25
785.246	8.25
785.992	7.25
786.738	7.25
787.484	8.25
788.23	7.25
788.975	9.25
789.721	9.25
790.466	8.25
791.212	7.25
791.957	8.25
792.702	12.25
793.447	7.25
794.193	9.25
794.938	6.25
795.683	8.25
796.427	6.25
797.172	8.25
797.917	7.25
798.662	5.25
799.406	6.25
800.151	6.25
800.895	7.25
801.64	9.25
802.384	6.25
803.128	7.25
803.872	3.25
804.616	5.25
805.36	7.25
806.104	5.25
806.848	7.25
807.592	3.25
808.336	7.25
809.079	6.25
809.823	7.25
810.566	7.25
811.31	2.25
812.053	3.25
812.796	4.25
813.539	5.25
814.283	3.25
815.026	3.25
815.769	3.25
816.511	0.25
817.254	6.25
817.997	2.25
818.74	3.25
819.482	4.25
820.225	4.25
820.967	3.25
821.71	5.25
822.452	5.25
823.194	3.25
823.936	5.25
824.678	2.25
825.42	2.25
826.162	3.25
826.904	3.25
827.646	1.25
828.388	2.25
829.129	2.25
829.871	5.25
830.612	1.25
831.354	4.25
832.095	3.25
832.836	3.25
833.577	6.25
834.319	3.25
835.06	2.25
835.801	2.25
836.542	3.25
837.282	3.25
838.023	4.25
838.764	4.25
839.504	1.25
840.245	3.25
840.985	1.25
841.726	3.25
842.466	3.25
843.206	1.25
843.946	3.25
844.687	2.25
845.427	1.25
846.166	3.25
846.906	2.25
847.646	3.25
848.386	2.25
849.125	1.25
849.865	1.25
850.605	1.25
851.344	3.25
852.083	1.25
852.823	1.25
853.562	1.25
854.301	1.25
855.04	1.25
855.779	2.25
856.518	3.25
857.257	1.25
857.995	1.25
858.734	-0.75
859.473	1.25
860.211	1.25
860.95	3.25
861.688	1.25
862.426	1.25
863.165	-0.75
863.903	1.25
864.641	0.25
865.379	1.25
866.117	2.25
866.855	1.25
867.593	-1.75
868.33	1.25
869.068	1.25
869.806	2.25
870.543	1.25
871.28	-1.75
872.018	2.25
872.755	-0.75
873.492	-0.75
874.229	0.25
874.967	1.25
875.703	0.25
876.44	0.25
877.177	1.25
877.914	1.25
878.651	0.25
879.387	1.25
880.124	1.25
880.86	0.25
881.597	0.25
882.333	-0.75
883.069	0.25
883.806	-1.75
884.542	-0.75
885.278	-0.75
886.014	1.25
886.749	-0.75
887.485	1.25
888.221	1.25
888.957	1.25
889.692	-0.75
890.428	0.25
891.163	0.25
891.899	0.25
892.634	0.25
893.369	0.25
894.104	-0.75
894.839	2.25
895.574	-0.75
896.309	3.25
897.044	0.25
897.779	0.25
898.514	0.25
899.248	0.25
899.983	1.25
900.717	-0.75
901.452	0.25
902.186	-3.75
902.92	0.25
903.654	1.25
904.389	1.25
905.123	1.25
905.857	-0.75
906.59	1.25
907.324	0.25
908.058	-0.75
908.792	-0.75
909.525	1.25
910.259	1.25
910.992	1.25
911.726	1.25
912.459	-0.75
913.192	-0.75
913.925	1.25
914.658	-0.75
915.391	1.25
916.124	-1.75
916.857	1.25
917.59	1.25
918.323	0.25
919.055	1.25
919.788	1.25
920.521	2.25
921.253	0.25
921.985	-1.75
922.718	-0.75
923.45	-0.75
924.182	-0.75
924.914	-0.75
925.646	0.25
926.378	0.25
927.11	-0.75
927.841	-0.75
928.573	0.25
929.305	-0.75
930.036	-0.75
930.768	-0.75
931.499	0.25
932.23	0.25
932.962	1.25
933.693	1.25
934.424	-0.75
935.155	1.25
935.886	-0.75
936.617	1.25
937.348	-0.75
938.078	-1.75
938.809	-1.75
939.54	-1.75
940.27	1.25
941.001	-0.75
941.731	-0.75
942.461	-1.75
943.191	3.25
943.922	0.25
944.652	1.25
945.382	-1.75
946.112	-0.75
946.841	1.25
947.571	0.25
948.301	-1.75
949.031	-0.75
949.76	-0.75
950.49	-0.75
951.219	-1.75
951.948	-0.75
952.678	-1.75
953.407	-0.75
954.136	-0.75
954.865	-0.75
955.594	2.25
956.323	0.25
957.052	-0.75
957.78	0.25
958.509	-1.75
959.238	-0.75
959.966	-2.75
960.695	0.25
961.423	-0.75
962.151	0.25
962.88	1.25
963.608	-2.75
964.336	-0.75
965.064	-0.75
965.792	-0.75
966.52	1.25
967.247	-1.75
967.975	0.25
968.703	-0.75
969.43	0.25
970.158	-1.75
970.885	-0.75
971.613	0.25
972.34	0.25
973.067	0.25
973.794	-0.75
974.521	-0.75
975.248	0.25
975.975	1.25
976.702	0.25
977.429	-0.75
978.156	1.25
978.882	0.25
979.609	1.25
980.335	0.25
981.062	-0.75
981.788	1.25
982.514	-1.75
983.24	0.25
983.967	-2.75
984.693	-0.75
985.419	-0.75
986.144	-0.75
986.87	3.25
987.596	-1.75
988.322	0.25
989.047	-1.75
989.773	0.25
990.498	-0.75
991.224	-0.75
991.949	1.25
992.674	0.25
993.399	-0.75
994.124	0.25
994.849	0.25
995.574	0.25
996.299	-1.75
997.024	1.25
997.749	-0.75
998.473	0.25
999.198	-0.75
999.922	-0.75
1000.647	0.25
1001.371	4.25
1002.095	-0.75
1002.82	1.25
1003.544	-2.75
1004.268	1.25
1004.992	-0.75
1005.716	1.25
1006.439	-0.75
1007.163	1.25
1007.887	1.25
1008.611	-1.75
1009.334	-1.75
1010.058	-0.75
1010.781	0.25
1011.504	-0.75
1012.228	-0.75
1012.951	1.25
1013.674	-0.75
1014.397	-1.75
1015.12	-0.75
