节点500_285_QEPB04081__834__15-09-25-732.txt的数据

Date: Wed Nov 12 15:09:25 CST 2025
User: PC
Spectrometer: QEPB0408
触发模式: 0
积分时间 (秒): 1.000000E-2
Scans to average: 1
启用暗噪声校正: true
启用非线性校正: false
滑动平均宽度: 0
X轴模式: Wavelengths
Number of Pixels in Spectrum: 1044
>>>>>Begin Spectral Data<<<<<
220.843	0.38
221.644	1.38
222.444	1.38
223.244	1.38
224.045	2.38
224.845	1.38
225.645	3.38
226.445	1.38
227.245	3.38
228.045	2.38
228.845	2.38
229.645	1.38
230.444	0.38
231.244	3.38
232.043	1.38
232.843	3.38
233.642	2.38
234.442	3.38
235.241	4.38
236.04	-0.62
236.839	3.38
237.638	4.38
238.437	5.38
239.236	2.38
240.035	6.38
240.833	3.38
241.632	4.38
242.43	4.38
243.229	5.38
244.027	3.38
244.826	5.38
245.624	6.38
246.422	4.38
247.22	5.38
248.018	6.38
248.816	4.38
249.614	7.38
250.412	8.38
251.21	6.38
252.007	7.38
252.805	7.38
253.602	8.38
254.4	8.38
255.197	6.38
255.994	7.38
256.791	6.38
257.589	4.38
258.386	7.38
259.183	9.38
259.979	7.38
260.776	8.38
261.573	11.38
262.37	10.38
263.166	7.38
263.963	9.38
264.759	11.38
265.556	10.38
266.352	14.38
267.148	11.38
267.944	13.38
268.74	10.38
269.536	11.38
270.332	16.38
271.128	13.38
271.924	12.38
272.719	15.38
273.515	13.38
274.311	12.38
275.106	15.38
275.901	16.38
276.697	16.38
277.492	14.38
278.287	16.38
279.082	14.38
279.877	15.38
280.672	20.38
281.467	15.38
282.262	16.38
283.056	17.38
283.851	19.38
284.646	16.38
285.44	18.38
286.234	17.38
287.029	17.38
287.823	16.38
288.617	16.38
289.411	18.38
290.205	15.38
290.999	15.38
291.793	18.38
292.587	17.38
293.381	17.38
294.174	18.38
294.968	17.38
295.761	16.38
296.555	16.38
297.348	13.38
298.141	15.38
298.935	18.38
299.728	14.38
300.521	11.38
301.314	15.38
302.107	12.38
302.899	11.38
303.692	11.38
304.485	10.38
305.277	11.38
306.07	13.38
306.862	13.38
307.655	12.38
308.447	11.38
309.239	10.38
310.031	12.38
310.823	8.38
311.615	11.38
312.407	10.38
313.199	9.38
313.991	9.38
314.783	11.38
315.574	8.38
316.366	9.38
317.157	10.38
317.949	6.38
318.74	9.38
319.531	9.38
320.322	6.38
321.113	7.38
321.904	10.38
322.695	7.38
323.486	6.38
324.277	6.38
325.068	6.38
325.858	10.38
326.649	6.38
327.439	5.38
328.23	8.38
329.02	7.38
329.81	8.38
330.6	7.38
331.391	5.38
332.181	5.38
332.971	4.38
333.76	7.38
334.55	8.38
335.34	7.38
336.13	5.38
336.919	6.38
337.709	8.38
338.498	8.38
339.287	7.38
340.077	6.38
340.866	6.38
341.655	7.38
342.444	5.38
343.233	6.38
344.022	4.38
344.811	7.38
345.6	7.38
346.388	8.38
347.177	4.38
347.965	5.38
348.754	7.38
349.542	7.38
350.33	7.38
351.119	5.38
351.907	3.38
352.695	5.38
353.483	7.38
354.271	6.38
355.059	7.38
355.846	5.38
356.634	5.38
357.422	5.38
358.209	8.38
358.997	6.38
359.784	3.38
360.571	5.38
361.359	7.38
362.146	7.38
362.933	4.38
363.72	4.38
364.507	5.38
365.294	2.38
366.081	4.38
366.867	3.38
367.654	6.38
368.44	4.38
369.227	4.38
370.013	6.38
370.8	6.38
371.586	3.38
372.372	4.38
373.158	5.38
373.944	6.38
374.73	6.38
375.516	3.38
376.302	4.38
377.088	5.38
377.873	5.38
378.659	6.38
379.445	2.38
380.23	7.38
381.015	3.38
381.801	4.38
382.586	5.38
383.371	5.38
384.156	5.38
384.941	5.38
385.726	6.38
386.511	5.38
387.296	6.38
388.08	8.38
388.865	5.38
389.649	4.38
390.434	5.38
391.218	8.38
392.003	4.38
392.787	3.38
393.571	6.38
394.355	6.38
395.139	7.38
395.923	3.38
396.707	3.38
397.491	5.38
398.274	6.38
399.058	6.38
399.842	7.38
400.625	5.38
401.408	8.38
402.192	5.38
402.975	7.38
403.758	4.38
404.541	8.38
405.324	6.38
406.107	7.38
406.89	6.38
407.673	4.38
408.456	7.38
409.238	6.38
410.021	10.38
410.803	8.38
411.586	9.38
412.368	8.38
413.151	7.38
413.933	7.38
414.715	8.38
415.497	9.38
416.279	10.38
417.061	7.38
417.843	9.38
418.624	9.38
419.406	10.38
420.188	10.38
420.969	10.38
421.751	11.38
422.532	9.38
423.313	10.38
424.095	12.38
424.876	12.38
425.657	9.38
426.438	12.38
427.219	13.38
428	10.38
428.78	13.38
429.561	13.38
430.342	13.38
431.122	12.38
431.903	13.38
432.683	16.38
433.464	15.38
434.244	16.38
435.024	14.38
435.804	16.38
436.584	18.38
437.364	18.38
438.144	22.38
438.924	19.38
439.704	21.38
440.483	19.38
441.263	22.38
442.042	23.38
442.822	26.38
443.601	28.38
444.38	32.38
445.16	36.38
445.939	37.38
446.718	37.38
447.497	42.38
448.276	45.38
449.054	48.38
449.833	52.38
450.612	60.38
451.391	64.38
452.169	70.38
452.948	77.38
453.726	82.38
454.504	90.38
455.282	101.38
456.061	112.38
456.839	126.38
457.617	141.38
458.395	151.38
459.172	166.38
459.95	188.38
460.728	210.38
461.506	232.38
462.283	263.38
463.061	287.38
463.838	322.38
464.615	366.38
465.393	401.38
466.17	442.38
466.947	483.38
467.724	547.38
468.501	615.38
469.278	670.38
470.055	733.38
470.831	830.38
471.608	905.38
472.385	996.38
473.161	1099.38
473.938	1210.38
474.714	1348.38
475.49	1476.38
476.266	1613.38
477.043	1774.38
477.819	1933.38
478.595	2121.38
479.371	2315.38
480.146	2556.38
480.922	2777.38
481.698	3047.38
482.473	3339.38
483.249	3645.38
484.024	3934.38
484.8	4332.38
485.575	4705.38
486.35	5141.38
487.126	5562.38
487.901	6046.38
488.676	6577.38
489.451	7179.38
490.225	7802.38
491	8405.38
491.775	9173.38
492.55	9926.38
493.324	10726.38
494.099	11470.38
494.873	12334.38
495.647	13254.38
496.422	14159.38
497.196	15223.38
497.97	16189.38
498.744	17287.38
499.518	18220.38
500.292	19227.38
501.066	20254.38
501.839	21169.38
502.613	22116.38
503.387	22926.38
504.16	23647.38
504.934	24100.38
505.707	24538.38
506.48	24723.38
507.253	24901.38
508.027	24988.38
508.8	24951.38
509.573	24813.38
510.346	24467.38
511.118	23998.38
511.891	23427.38
512.664	22827.38
513.437	22225.38
514.209	21438.38
514.982	20731.38
515.754	19878.38
516.526	19054.38
517.298	18304.38
518.071	17538.38
518.843	16899.38
519.615	16345.38
520.387	15681.38
521.159	15040.38
521.93	14453.38
522.702	13879.38
523.474	13336.38
524.245	12727.38
525.017	12245.38
525.788	11764.38
526.56	11249.38
527.331	10689.38
528.102	10300.38
528.873	9815.38
529.644	9384.38
530.415	8979.38
531.186	8570.38
531.957	8109.38
532.728	7719.38
533.498	7385.38
534.269	6956.38
535.039	6599.38
535.81	6267.38
536.58	5907.38
537.351	5606.38
538.121	5284.38
538.891	5006.38
539.661	4733.38
540.431	4494.38
541.201	4232.38
541.971	3995.38
542.741	3812.38
543.51	3595.38
544.28	3448.38
545.05	3275.38
545.819	3104.38
546.588	2950.38
547.358	2819.38
548.127	2683.38
548.896	2561.38
549.665	2418.38
550.434	2289.38
551.203	2162.38
551.972	2055.38
552.741	1956.38
553.51	1842.38
554.278	1732.38
555.047	1649.38
555.815	1552.38
556.584	1470.38
557.352	1404.38
558.121	1324.38
558.889	1253.38
559.657	1186.38
560.425	1110.38
561.193	1053.38
561.961	999.38
562.729	936.38
563.496	883.38
564.264	821.38
565.032	795.38
565.799	746.38
566.567	715.38
567.334	664.38
568.101	630.38
568.869	606.38
569.636	558.38
570.403	523.38
571.17	492.38
571.937	474.38
572.704	441.38
573.471	420.38
574.237	393.38
575.004	366.38
575.771	351.38
576.537	330.38
577.303	310.38
578.07	293.38
578.836	279.38
579.602	256.38
580.368	245.38
581.134	232.38
581.9	225.38
582.666	213.38
583.432	199.38
584.198	185.38
584.964	182.38
585.729	168.38
586.495	162.38
587.26	151.38
588.025	145.38
588.791	137.38
589.556	131.38
590.321	123.38
591.086	115.38
591.851	114.38
592.616	106.38
593.381	101.38
594.146	92.38
594.911	93.38
595.675	84.38
596.44	78.38
597.204	79.38
597.969	73.38
598.733	72.38
599.497	69.38
600.261	63.38
601.025	64.38
601.79	55.38
602.553	56.38
603.317	53.38
604.081	50.38
604.845	50.38
605.609	48.38
606.372	44.38
607.136	41.38
607.899	39.38
608.662	42.38
609.426	38.38
610.189	37.38
610.952	36.38
611.715	32.38
612.478	32.38
613.241	32.38
614.004	30.38
614.767	28.38
615.529	27.38
616.292	28.38
617.055	23.38
617.817	23.38
618.579	28.38
619.342	24.38
620.104	21.38
620.866	19.38
621.628	23.38
622.39	21.38
623.152	23.38
623.914	19.38
624.676	18.38
625.438	17.38
626.199	16.38
626.961	16.38
627.722	15.38
628.484	16.38
629.245	18.38
630.006	15.38
630.768	14.38
631.529	13.38
632.29	10.38
633.051	12.38
633.812	13.38
634.573	12.38
635.333	12.38
636.094	11.38
636.855	12.38
637.615	10.38
638.376	13.38
639.136	9.38
639.896	8.38
640.657	11.38
641.417	10.38
642.177	7.38
642.937	10.38
643.697	6.38
644.457	8.38
645.216	10.38
645.976	9.38
646.736	7.38
647.495	7.38
648.255	7.38
649.014	8.38
649.774	6.38
650.533	7.38
651.292	7.38
652.051	5.38
652.81	8.38
653.569	7.38
654.328	6.38
655.087	5.38
655.846	6.38
656.604	6.38
657.363	5.38
658.121	5.38
658.88	3.38
659.638	3.38
660.397	5.38
661.155	6.38
661.913	4.38
662.671	3.38
663.429	5.38
664.187	4.38
664.945	5.38
665.703	5.38
666.46	5.38
667.218	6.38
667.976	3.38
668.733	5.38
669.49	2.38
670.248	3.38
671.005	7.38
671.762	5.38
672.519	6.38
673.276	6.38
674.033	4.38
674.79	4.38
675.547	5.38
676.304	4.38
677.06	5.38
677.817	4.38
678.574	3.38
679.33	5.38
680.086	4.38
680.843	5.38
681.599	5.38
682.355	3.38
683.111	6.38
683.867	6.38
684.623	4.38
685.379	3.38
686.135	2.38
686.89	2.38
687.646	5.38
688.402	4.38
689.157	5.38
689.912	2.38
690.668	4.38
691.423	3.38
692.178	4.38
692.933	3.38
693.688	4.38
694.443	5.38
695.198	2.38
695.953	4.38
696.708	2.38
697.462	5.38
698.217	5.38
698.972	2.38
699.726	4.38
700.48	3.38
701.235	5.38
701.989	2.38
702.743	2.38
703.497	2.38
704.251	4.38
705.005	5.38
705.759	3.38
706.513	4.38
707.266	3.38
708.02	3.38
708.774	1.38
709.527	5.38
710.28	2.38
711.034	3.38
711.787	0.38
712.54	3.38
713.293	4.38
714.046	4.38
714.799	2.38
715.552	2.38
716.305	1.38
717.058	3.38
717.81	5.38
718.563	4.38
719.315	6.38
720.068	4.38
720.82	1.38
721.573	2.38
722.325	2.38
723.077	2.38
723.829	4.38
724.581	4.38
725.333	1.38
726.085	4.38
726.836	5.38
727.588	5.38
728.34	3.38
729.091	0.38
729.843	4.38
730.594	1.38
731.346	4.38
732.097	1.38
732.848	3.38
733.599	6.38
734.35	4.38
735.101	7.38
735.852	4.38
736.603	3.38
737.354	7.38
738.104	3.38
738.855	3.38
739.605	2.38
740.356	2.38
741.106	2.38
741.856	4.38
742.607	4.38
743.357	4.38
744.107	5.38
744.857	5.38
745.607	5.38
746.357	5.38
747.106	5.38
747.856	6.38
748.606	5.38
749.355	5.38
750.105	4.38
750.854	6.38
751.603	7.38
752.353	6.38
753.102	3.38
753.851	4.38
754.6	4.38
755.349	7.38
756.098	5.38
756.847	6.38
757.595	6.38
758.344	7.38
759.093	5.38
759.841	7.38
760.589	2.38
761.338	8.38
762.086	6.38
762.834	4.38
763.582	6.38
764.331	5.38
765.079	6.38
765.826	5.38
766.574	6.38
767.322	5.38
768.07	6.38
768.817	6.38
769.565	6.38
770.312	9.38
771.06	6.38
771.807	8.38
772.554	6.38
773.302	7.38
774.049	5.38
774.796	7.38
775.543	8.38
776.29	9.38
777.036	9.38
777.783	8.38
778.53	8.38
779.276	8.38
780.023	4.38
780.769	8.38
781.516	8.38
782.262	8.38
783.008	6.38
783.754	8.38
784.5	5.38
785.246	8.38
785.992	10.38
786.738	9.38
787.484	7.38
788.23	8.38
788.975	11.38
789.721	7.38
790.466	7.38
791.212	8.38
791.957	8.38
792.702	7.38
793.447	8.38
794.193	7.38
794.938	7.38
795.683	6.38
796.427	9.38
797.172	6.38
797.917	8.38
798.662	6.38
799.406	8.38
800.151	7.38
800.895	6.38
801.64	6.38
802.384	6.38
803.128	6.38
803.872	8.38
804.616	6.38
805.36	9.38
806.104	7.38
806.848	4.38
807.592	5.38
808.336	5.38
809.079	7.38
809.823	2.38
810.566	6.38
811.31	5.38
812.053	3.38
812.796	6.38
813.539	6.38
814.283	5.38
815.026	4.38
815.769	5.38
816.511	2.38
817.254	7.38
817.997	6.38
818.74	4.38
819.482	2.38
820.225	5.38
820.967	4.38
821.71	5.38
822.452	4.38
823.194	4.38
823.936	3.38
824.678	5.38
825.42	5.38
826.162	5.38
826.904	4.38
827.646	4.38
828.388	4.38
829.129	5.38
829.871	2.38
830.612	7.38
831.354	4.38
832.095	2.38
832.836	2.38
833.577	3.38
834.319	3.38
835.06	4.38
835.801	2.38
836.542	1.38
837.282	4.38
838.023	2.38
838.764	3.38
839.504	4.38
840.245	4.38
840.985	3.38
841.726	4.38
842.466	1.38
843.206	3.38
843.946	5.38
844.687	3.38
845.427	2.38
846.166	4.38
846.906	2.38
847.646	4.38
848.386	3.38
849.125	5.38
849.865	4.38
850.605	1.38
851.344	3.38
852.083	2.38
852.823	2.38
853.562	1.38
854.301	2.38
855.04	0.38
855.779	3.38
856.518	2.38
857.257	2.38
857.995	2.38
858.734	2.38
859.473	1.38
860.211	3.38
860.95	4.38
861.688	2.38
862.426	2.38
863.165	2.38
863.903	2.38
864.641	1.38
865.379	2.38
866.117	-0.62
866.855	0.38
867.593	1.38
868.33	0.38
869.068	0.38
869.806	2.38
870.543	1.38
871.28	2.38
872.018	-1.62
872.755	-0.62
873.492	2.38
874.229	0.38
874.967	1.38
875.703	2.38
876.44	2.38
877.177	0.38
877.914	0.38
878.651	3.38
879.387	0.38
880.124	1.38
880.86	1.38
881.597	-0.62
882.333	0.38
883.069	0.38
883.806	1.38
884.542	0.38
885.278	2.38
886.014	0.38
886.749	2.38
887.485	2.38
888.221	0.38
888.957	1.38
889.692	0.38
890.428	-0.62
891.163	1.38
891.899	0.38
892.634	3.38
893.369	-1.62
894.104	1.38
894.839	2.38
895.574	0.38
896.309	0.38
897.044	2.38
897.779	0.38
898.514	1.38
899.248	-1.62
899.983	-0.62
900.717	0.38
901.452	0.38
902.186	1.38
902.92	0.38
903.654	-0.62
904.389	1.38
905.123	0.38
905.857	1.38
906.59	0.38
907.324	0.38
908.058	1.38
908.792	0.38
909.525	0.38
910.259	2.38
910.992	-1.62
911.726	1.38
912.459	0.38
913.192	1.38
913.925	1.38
914.658	0.38
915.391	3.38
916.124	-1.62
916.857	1.38
917.59	0.38
918.323	-0.62
919.055	0.38
919.788	1.38
920.521	2.38
921.253	-0.62
921.985	1.38
922.718	0.38
923.45	-0.62
924.182	0.38
924.914	0.38
925.646	-0.62
926.378	-2.62
927.11	0.38
927.841	1.38
928.573	1.38
929.305	1.38
930.036	-0.62
930.768	-1.62
931.499	1.38
932.23	0.38
932.962	1.38
933.693	1.38
934.424	0.38
935.155	-1.62
935.886	1.38
936.617	-1.62
937.348	0.38
938.078	1.38
938.809	-0.62
939.54	0.38
940.27	2.38
941.001	1.38
941.731	0.38
942.461	1.38
943.191	1.38
943.922	0.38
944.652	2.38
945.382	0.38
946.112	0.38
946.841	1.38
947.571	-1.62
948.301	0.38
949.031	0.38
949.76	1.38
950.49	1.38
951.219	2.38
951.948	-0.62
952.678	-0.62
953.407	-0.62
954.136	0.38
954.865	-2.62
955.594	-1.62
956.323	-0.62
957.052	2.38
957.78	1.38
958.509	0.38
959.238	0.38
959.966	-0.62
960.695	0.38
961.423	-1.62
962.151	0.38
962.88	1.38
963.608	-0.62
964.336	-2.62
965.064	-0.62
965.792	0.38
966.52	1.38
967.247	1.38
967.975	2.38
968.703	-1.62
969.43	1.38
970.158	0.38
970.885	-1.62
971.613	0.38
972.34	1.38
973.067	1.38
973.794	-0.62
974.521	0.38
975.248	1.38
975.975	0.38
976.702	0.38
977.429	1.38
978.156	-0.62
978.882	1.38
979.609	-0.62
980.335	1.38
981.062	0.38
981.788	-1.62
982.514	0.38
983.24	0.38
983.967	-0.62
984.693	1.38
985.419	1.38
986.144	0.38
986.87	-0.62
987.596	1.38
988.322	-0.62
989.047	1.38
989.773	0.38
990.498	2.38
991.224	-0.62
991.949	-0.62
992.674	2.38
993.399	0.38
994.124	0.38
994.849	-0.62
995.574	1.38
996.299	1.38
997.024	2.38
997.749	2.38
998.473	2.38
999.198	0.38
999.922	-2.62
1000.647	2.38
1001.371	3.38
1002.095	0.38
1002.82	-1.62
1003.544	-0.62
1004.268	1.38
1004.992	0.38
1005.716	2.38
1006.439	0.38
1007.163	3.38
1007.887	2.38
1008.611	-0.62
1009.334	1.38
1010.058	1.38
1010.781	0.38
1011.504	3.38
1012.228	4.38
1012.951	-2.62
1013.674	1.38
1014.397	0.38
1015.12	-0.62
