节点500_285_QEPB04081__444__15-02-56-553.txt的数据

Date: Wed Nov 12 15:02:56 CST 2025
User: PC
Spectrometer: QEPB0408
触发模式: 0
积分时间 (秒): 1.000000E-2
Scans to average: 1
启用暗噪声校正: true
启用非线性校正: false
滑动平均宽度: 0
X轴模式: Wavelengths
Number of Pixels in Spectrum: 1044
>>>>>Begin Spectral Data<<<<<
220.843	0.25
221.644	0.25
222.444	1.25
223.244	1.25
224.045	3.25
224.845	2.25
225.645	3.25
226.445	2.25
227.245	3.25
228.045	2.25
228.845	3.25
229.645	4.25
230.444	3.25
231.244	3.25
232.043	1.25
232.843	3.25
233.642	3.25
234.442	2.25
235.241	6.25
236.04	4.25
236.839	4.25
237.638	5.25
238.437	4.25
239.236	4.25
240.035	5.25
240.833	5.25
241.632	6.25
242.43	3.25
243.229	5.25
244.027	6.25
244.826	7.25
245.624	4.25
246.422	5.25
247.22	3.25
248.018	5.25
248.816	8.25
249.614	7.25
250.412	7.25
251.21	7.25
252.007	8.25
252.805	8.25
253.602	4.25
254.4	8.25
255.197	8.25
255.994	9.25
256.791	8.25
257.589	9.25
258.386	9.25
259.183	8.25
259.979	8.25
260.776	10.25
261.573	10.25
262.37	12.25
263.166	11.25
263.963	13.25
264.759	13.25
265.556	14.25
266.352	12.25
267.148	14.25
267.944	14.25
268.74	11.25
269.536	14.25
270.332	16.25
271.128	16.25
271.924	15.25
272.719	12.25
273.515	13.25
274.311	16.25
275.106	20.25
275.901	16.25
276.697	16.25
277.492	17.25
278.287	15.25
279.082	17.25
279.877	15.25
280.672	17.25
281.467	19.25
282.262	16.25
283.056	18.25
283.851	21.25
284.646	22.25
285.44	18.25
286.234	19.25
287.029	20.25
287.823	19.25
288.617	21.25
289.411	19.25
290.205	20.25
290.999	18.25
291.793	17.25
292.587	16.25
293.381	18.25
294.174	17.25
294.968	15.25
295.761	17.25
296.555	16.25
297.348	16.25
298.141	14.25
298.935	16.25
299.728	15.25
300.521	15.25
301.314	15.25
302.107	14.25
302.899	13.25
303.692	14.25
304.485	14.25
305.277	14.25
306.07	10.25
306.862	13.25
307.655	12.25
308.447	10.25
309.239	12.25
310.031	12.25
310.823	13.25
311.615	11.25
312.407	10.25
313.199	11.25
313.991	9.25
314.783	9.25
315.574	9.25
316.366	10.25
317.157	6.25
317.949	10.25
318.74	10.25
319.531	9.25
320.322	9.25
321.113	8.25
321.904	8.25
322.695	9.25
323.486	7.25
324.277	7.25
325.068	8.25
325.858	7.25
326.649	8.25
327.439	6.25
328.23	8.25
329.02	8.25
329.81	7.25
330.6	8.25
331.391	6.25
332.181	9.25
332.971	6.25
333.76	7.25
334.55	6.25
335.34	7.25
336.13	5.25
336.919	7.25
337.709	8.25
338.498	10.25
339.287	9.25
340.077	4.25
340.866	7.25
341.655	6.25
342.444	6.25
343.233	7.25
344.022	7.25
344.811	8.25
345.6	5.25
346.388	6.25
347.177	7.25
347.965	7.25
348.754	8.25
349.542	6.25
350.33	6.25
351.119	5.25
351.907	7.25
352.695	5.25
353.483	6.25
354.271	5.25
355.059	7.25
355.846	7.25
356.634	6.25
357.422	6.25
358.209	6.25
358.997	4.25
359.784	7.25
360.571	7.25
361.359	7.25
362.146	7.25
362.933	6.25
363.72	2.25
364.507	2.25
365.294	7.25
366.081	4.25
366.867	2.25
367.654	6.25
368.44	4.25
369.227	6.25
370.013	6.25
370.8	3.25
371.586	5.25
372.372	5.25
373.158	5.25
373.944	5.25
374.73	7.25
375.516	7.25
376.302	7.25
377.088	6.25
377.873	4.25
378.659	2.25
379.445	7.25
380.23	5.25
381.015	5.25
381.801	5.25
382.586	6.25
383.371	2.25
384.156	3.25
384.941	5.25
385.726	8.25
386.511	6.25
387.296	6.25
388.08	7.25
388.865	5.25
389.649	7.25
390.434	5.25
391.218	3.25
392.003	7.25
392.787	5.25
393.571	7.25
394.355	6.25
395.139	3.25
395.923	7.25
396.707	7.25
397.491	6.25
398.274	7.25
399.058	9.25
399.842	8.25
400.625	8.25
401.408	9.25
402.192	6.25
402.975	7.25
403.758	7.25
404.541	5.25
405.324	10.25
406.107	8.25
406.89	10.25
407.673	8.25
408.456	8.25
409.238	9.25
410.021	8.25
410.803	9.25
411.586	8.25
412.368	11.25
413.151	8.25
413.933	8.25
414.715	8.25
415.497	9.25
416.279	8.25
417.061	8.25
417.843	10.25
418.624	10.25
419.406	11.25
420.188	10.25
420.969	10.25
421.751	11.25
422.532	12.25
423.313	10.25
424.095	12.25
424.876	13.25
425.657	11.25
426.438	11.25
427.219	14.25
428	14.25
428.78	13.25
429.561	15.25
430.342	14.25
431.122	15.25
431.903	15.25
432.683	14.25
433.464	18.25
434.244	15.25
435.024	18.25
435.804	19.25
436.584	18.25
437.364	19.25
438.144	18.25
438.924	20.25
439.704	20.25
440.483	22.25
441.263	24.25
442.042	26.25
442.822	29.25
443.601	30.25
444.38	30.25
445.16	31.25
445.939	34.25
446.718	35.25
447.497	40.25
448.276	42.25
449.054	46.25
449.833	50.25
450.612	52.25
451.391	56.25
452.169	61.25
452.948	72.25
453.726	77.25
454.504	82.25
455.282	90.25
456.061	101.25
456.839	116.25
457.617	124.25
458.395	135.25
459.172	154.25
459.95	170.25
460.728	196.25
461.506	216.25
462.283	235.25
463.061	268.25
463.838	294.25
464.615	329.25
465.393	372.25
466.17	412.25
466.947	454.25
467.724	506.25
468.501	568.25
469.278	619.25
470.055	695.25
470.831	778.25
471.608	867.25
472.385	956.25
473.161	1057.25
473.938	1170.25
474.714	1306.25
475.49	1441.25
476.266	1573.25
477.043	1756.25
477.819	1948.25
478.595	2132.25
479.371	2344.25
480.146	2582.25
480.922	2834.25
481.698	3126.25
482.473	3432.25
483.249	3793.25
484.024	4146.25
484.8	4568.25
485.575	4993.25
486.35	5505.25
487.126	6026.25
487.901	6609.25
488.676	7212.25
489.451	7885.25
490.225	8613.25
491	9391.25
491.775	10250.25
492.55	11079.25
493.324	12076.25
494.099	13009.25
494.873	14009.25
495.647	15144.25
496.422	16199.25
497.196	17401.25
497.97	18514.25
498.744	19627.25
499.518	20849.25
500.292	21937.25
501.066	23014.25
501.839	23902.25
502.613	24891.25
503.387	25719.25
504.16	26331.25
504.934	26664.25
505.707	26885.25
506.48	27049.25
507.253	26980.25
508.027	26805.25
508.8	26494.25
509.573	26166.25
510.346	25576.25
511.118	24854.25
511.891	24140.25
512.664	23297.25
513.437	22523.25
514.209	21603.25
514.982	20725.25
515.754	19822.25
516.526	18955.25
517.298	18093.25
518.071	17321.25
518.843	16729.25
519.615	16059.25
520.387	15445.25
521.159	14825.25
521.93	14194.25
522.702	13622.25
523.474	13114.25
524.245	12534.25
525.017	12012.25
525.788	11601.25
526.56	11027.25
527.331	10490.25
528.102	10074.25
528.873	9635.25
529.644	9114.25
530.415	8690.25
531.186	8254.25
531.957	7821.25
532.728	7435.25
533.498	7069.25
534.269	6634.25
535.039	6294.25
535.81	5935.25
536.58	5620.25
537.351	5321.25
538.121	4989.25
538.891	4743.25
539.661	4486.25
540.431	4218.25
541.201	3997.25
541.971	3773.25
542.741	3608.25
543.51	3400.25
544.28	3258.25
545.05	3086.25
545.819	2957.25
546.588	2791.25
547.358	2641.25
548.127	2533.25
548.896	2387.25
549.665	2276.25
550.434	2147.25
551.203	2038.25
551.972	1939.25
552.741	1818.25
553.51	1723.25
554.278	1628.25
555.047	1535.25
555.815	1463.25
556.584	1378.25
557.352	1297.25
558.121	1239.25
558.889	1160.25
559.657	1102.25
560.425	1033.25
561.193	963.25
561.961	910.25
562.729	865.25
563.496	811.25
564.264	770.25
565.032	723.25
565.799	692.25
566.567	663.25
567.334	617.25
568.101	587.25
568.869	557.25
569.636	521.25
570.403	487.25
571.17	467.25
571.937	428.25
572.704	413.25
573.471	386.25
574.237	363.25
575.004	346.25
575.771	324.25
576.537	310.25
577.303	294.25
578.07	270.25
578.836	252.25
579.602	241.25
580.368	232.25
581.134	215.25
581.9	207.25
582.666	198.25
583.432	184.25
584.198	177.25
584.964	163.25
585.729	156.25
586.495	148.25
587.26	143.25
588.025	132.25
588.791	123.25
589.556	118.25
590.321	115.25
591.086	106.25
591.851	103.25
592.616	98.25
593.381	92.25
594.146	88.25
594.911	82.25
595.675	76.25
596.44	79.25
597.204	71.25
597.969	68.25
598.733	65.25
599.497	60.25
600.261	60.25
601.025	60.25
601.79	55.25
602.553	54.25
603.317	52.25
604.081	49.25
604.845	47.25
605.609	42.25
606.372	42.25
607.136	45.25
607.899	39.25
608.662	35.25
609.426	37.25
610.189	33.25
610.952	35.25
611.715	36.25
612.478	33.25
613.241	30.25
614.004	30.25
614.767	28.25
615.529	26.25
616.292	26.25
617.055	25.25
617.817	25.25
618.579	23.25
619.342	22.25
620.104	22.25
620.866	19.25
621.628	20.25
622.39	20.25
623.152	17.25
623.914	16.25
624.676	17.25
625.438	19.25
626.199	17.25
626.961	18.25
627.722	14.25
628.484	15.25
629.245	16.25
630.006	11.25
630.768	14.25
631.529	14.25
632.29	13.25
633.051	13.25
633.812	11.25
634.573	15.25
635.333	11.25
636.094	10.25
636.855	11.25
637.615	10.25
638.376	12.25
639.136	8.25
639.896	10.25
640.657	8.25
641.417	7.25
642.177	10.25
642.937	10.25
643.697	10.25
644.457	9.25
645.216	7.25
645.976	11.25
646.736	7.25
647.495	9.25
648.255	8.25
649.014	7.25
649.774	7.25
650.533	6.25
651.292	6.25
652.051	9.25
652.81	7.25
653.569	9.25
654.328	8.25
655.087	6.25
655.846	7.25
656.604	6.25
657.363	4.25
658.121	7.25
658.88	5.25
659.638	7.25
660.397	5.25
661.155	6.25
661.913	4.25
662.671	7.25
663.429	4.25
664.187	6.25
664.945	5.25
665.703	4.25
666.46	5.25
667.218	6.25
667.976	4.25
668.733	7.25
669.49	8.25
670.248	3.25
671.005	6.25
671.762	6.25
672.519	4.25
673.276	4.25
674.033	5.25
674.79	5.25
675.547	6.25
676.304	4.25
677.06	3.25
677.817	7.25
678.574	4.25
679.33	2.25
680.086	5.25
680.843	5.25
681.599	4.25
682.355	5.25
683.111	5.25
683.867	6.25
684.623	4.25
685.379	6.25
686.135	2.25
686.89	5.25
687.646	3.25
688.402	0.25
689.157	6.25
689.912	5.25
690.668	3.25
691.423	4.25
692.178	3.25
692.933	5.25
693.688	4.25
694.443	6.25
695.198	4.25
695.953	5.25
696.708	4.25
697.462	3.25
698.217	6.25
698.972	3.25
699.726	5.25
700.48	5.25
701.235	4.25
701.989	4.25
702.743	3.25
703.497	4.25
704.251	4.25
705.005	5.25
705.759	5.25
706.513	6.25
707.266	5.25
708.02	4.25
708.774	3.25
709.527	3.25
710.28	2.25
711.034	2.25
711.787	4.25
712.54	5.25
713.293	3.25
714.046	5.25
714.799	4.25
715.552	3.25
716.305	4.25
717.058	4.25
717.81	2.25
718.563	2.25
719.315	4.25
720.068	4.25
720.82	2.25
721.573	4.25
722.325	1.25
723.077	4.25
723.829	2.25
724.581	6.25
725.333	3.25
726.085	4.25
726.836	4.25
727.588	4.25
728.34	4.25
729.091	5.25
729.843	1.25
730.594	1.25
731.346	3.25
732.097	4.25
732.848	5.25
733.599	6.25
734.35	4.25
735.101	4.25
735.852	6.25
736.603	4.25
737.354	4.25
738.104	5.25
738.855	6.25
739.605	7.25
740.356	2.25
741.106	4.25
741.856	4.25
742.607	8.25
743.357	5.25
744.107	8.25
744.857	5.25
745.607	4.25
746.357	5.25
747.106	4.25
747.856	6.25
748.606	5.25
749.355	4.25
750.105	2.25
750.854	3.25
751.603	6.25
752.353	4.25
753.102	8.25
753.851	6.25
754.6	6.25
755.349	8.25
756.098	4.25
756.847	3.25
757.595	7.25
758.344	5.25
759.093	8.25
759.841	6.25
760.589	8.25
761.338	5.25
762.086	6.25
762.834	6.25
763.582	5.25
764.331	7.25
765.079	6.25
765.826	7.25
766.574	9.25
767.322	8.25
768.07	6.25
768.817	5.25
769.565	8.25
770.312	7.25
771.06	5.25
771.807	9.25
772.554	8.25
773.302	11.25
774.049	5.25
774.796	8.25
775.543	9.25
776.29	9.25
777.036	8.25
777.783	6.25
778.53	11.25
779.276	6.25
780.023	12.25
780.769	8.25
781.516	10.25
782.262	9.25
783.008	6.25
783.754	9.25
784.5	9.25
785.246	10.25
785.992	10.25
786.738	8.25
787.484	8.25
788.23	6.25
788.975	10.25
789.721	8.25
790.466	9.25
791.212	6.25
791.957	6.25
792.702	8.25
793.447	8.25
794.193	9.25
794.938	8.25
795.683	8.25
796.427	6.25
797.172	7.25
797.917	8.25
798.662	6.25
799.406	8.25
800.151	6.25
800.895	6.25
801.64	9.25
802.384	8.25
803.128	6.25
803.872	8.25
804.616	8.25
805.36	6.25
806.104	8.25
806.848	8.25
807.592	8.25
808.336	8.25
809.079	7.25
809.823	6.25
810.566	5.25
811.31	6.25
812.053	6.25
812.796	5.25
813.539	5.25
814.283	5.25
815.026	7.25
815.769	4.25
816.511	2.25
817.254	7.25
817.997	4.25
818.74	6.25
819.482	3.25
820.225	6.25
820.967	6.25
821.71	6.25
822.452	7.25
823.194	4.25
823.936	4.25
824.678	5.25
825.42	4.25
826.162	6.25
826.904	5.25
827.646	6.25
828.388	5.25
829.129	5.25
829.871	5.25
830.612	2.25
831.354	3.25
832.095	5.25
832.836	5.25
833.577	5.25
834.319	2.25
835.06	5.25
835.801	2.25
836.542	5.25
837.282	4.25
838.023	1.25
838.764	4.25
839.504	2.25
840.245	2.25
840.985	1.25
841.726	4.25
842.466	4.25
843.206	4.25
843.946	3.25
844.687	4.25
845.427	3.25
846.166	4.25
846.906	3.25
847.646	3.25
848.386	3.25
849.125	0.25
849.865	3.25
850.605	2.25
851.344	2.25
852.083	2.25
852.823	2.25
853.562	4.25
854.301	3.25
855.04	1.25
855.779	5.25
856.518	4.25
857.257	3.25
857.995	2.25
858.734	1.25
859.473	2.25
860.211	1.25
860.95	3.25
861.688	1.25
862.426	2.25
863.165	3.25
863.903	0.25
864.641	3.25
865.379	1.25
866.117	2.25
866.855	1.25
867.593	1.25
868.33	2.25
869.068	1.25
869.806	2.25
870.543	2.25
871.28	4.25
872.018	2.25
872.755	0.25
873.492	2.25
874.229	0.25
874.967	1.25
875.703	0.25
876.44	2.25
877.177	1.25
877.914	1.25
878.651	1.25
879.387	2.25
880.124	2.25
880.86	0.25
881.597	0.25
882.333	2.25
883.069	0.25
883.806	4.25
884.542	2.25
885.278	1.25
886.014	1.25
886.749	-1.75
887.485	1.25
888.221	1.25
888.957	2.25
889.692	2.25
890.428	0.25
891.163	0.25
891.899	0.25
892.634	2.25
893.369	0.25
894.104	0.25
894.839	2.25
895.574	2.25
896.309	2.25
897.044	1.25
897.779	1.25
898.514	0.25
899.248	0.25
899.983	1.25
900.717	-0.75
901.452	4.25
902.186	-1.75
902.92	1.25
903.654	0.25
904.389	2.25
905.123	-0.75
905.857	2.25
906.59	0.25
907.324	0.25
908.058	-0.75
908.792	0.25
909.525	0.25
910.259	0.25
910.992	1.25
911.726	2.25
912.459	0.25
913.192	0.25
913.925	0.25
914.658	2.25
915.391	-0.75
916.124	-0.75
916.857	1.25
917.59	0.25
918.323	0.25
919.055	2.25
919.788	-0.75
920.521	1.25
921.253	2.25
921.985	3.25
922.718	0.25
923.45	0.25
924.182	1.25
924.914	-1.75
925.646	1.25
926.378	1.25
927.11	1.25
927.841	2.25
928.573	1.25
929.305	-0.75
930.036	2.25
930.768	-0.75
931.499	1.25
932.23	0.25
932.962	0.25
933.693	-1.75
934.424	2.25
935.155	0.25
935.886	0.25
936.617	0.25
937.348	-1.75
938.078	2.25
938.809	0.25
939.54	1.25
940.27	0.25
941.001	-0.75
941.731	1.25
942.461	1.25
943.191	1.25
943.922	0.25
944.652	0.25
945.382	1.25
946.112	-1.75
946.841	2.25
947.571	-1.75
948.301	-0.75
949.031	-1.75
949.76	-0.75
950.49	1.25
951.219	0.25
951.948	2.25
952.678	1.25
953.407	0.25
954.136	-1.75
954.865	0.25
955.594	0.25
956.323	-0.75
957.052	3.25
957.78	-0.75
958.509	1.25
959.238	0.25
959.966	1.25
960.695	1.25
961.423	-1.75
962.151	0.25
962.88	0.25
963.608	2.25
964.336	0.25
965.064	0.25
965.792	3.25
966.52	-1.75
967.247	1.25
967.975	0.25
968.703	2.25
969.43	1.25
970.158	0.25
970.885	1.25
971.613	0.25
972.34	0.25
973.067	1.25
973.794	0.25
974.521	1.25
975.248	-0.75
975.975	0.25
976.702	-0.75
977.429	1.25
978.156	2.25
978.882	0.25
979.609	-1.75
980.335	-0.75
981.062	0.25
981.788	-0.75
982.514	2.25
983.24	3.25
983.967	1.25
984.693	0.25
985.419	0.25
986.144	2.25
986.87	1.25
987.596	0.25
988.322	0.25
989.047	-0.75
989.773	0.25
990.498	0.25
991.224	1.25
991.949	1.25
992.674	-0.75
993.399	-1.75
994.124	0.25
994.849	1.25
995.574	-0.75
996.299	1.25
997.024	-0.75
997.749	-1.75
998.473	2.25
999.198	-0.75
999.922	2.25
1000.647	-0.75
1001.371	2.25
1002.095	-1.75
1002.82	-1.75
1003.544	0.25
1004.268	0.25
1004.992	2.25
1005.716	1.25
1006.439	2.25
1007.163	2.25
1007.887	1.25
1008.611	0.25
1009.334	0.25
1010.058	-0.75
1010.781	2.25
1011.504	2.25
1012.228	1.25
1012.951	1.25
1013.674	0.25
1014.397	0.25
1015.12	-0.75
