节点500_285_QEPB04081__792__15-08-43-768.txt的数据

Date: Wed Nov 12 15:08:43 CST 2025
User: PC
Spectrometer: QEPB0408
触发模式: 0
积分时间 (秒): 1.000000E-2
Scans to average: 1
启用暗噪声校正: true
启用非线性校正: false
滑动平均宽度: 0
X轴模式: Wavelengths
Number of Pixels in Spectrum: 1044
>>>>>Begin Spectral Data<<<<<
220.843	1.25
221.644	2.25
222.444	5.25
223.244	3.25
224.045	3.25
224.845	3.25
225.645	2.25
226.445	3.25
227.245	2.25
228.045	3.25
228.845	2.25
229.645	1.25
230.444	1.25
231.244	1.25
232.043	2.25
232.843	3.25
233.642	3.25
234.442	0.25
235.241	2.25
236.04	4.25
236.839	2.25
237.638	8.25
238.437	4.25
239.236	3.25
240.035	4.25
240.833	2.25
241.632	5.25
242.43	5.25
243.229	7.25
244.027	6.25
244.826	5.25
245.624	5.25
246.422	5.25
247.22	6.25
248.018	5.25
248.816	4.25
249.614	5.25
250.412	5.25
251.21	8.25
252.007	7.25
252.805	8.25
253.602	7.25
254.4	8.25
255.197	5.25
255.994	8.25
256.791	8.25
257.589	7.25
258.386	7.25
259.183	7.25
259.979	7.25
260.776	7.25
261.573	9.25
262.37	8.25
263.166	13.25
263.963	9.25
264.759	10.25
265.556	11.25
266.352	13.25
267.148	13.25
267.944	12.25
268.74	12.25
269.536	13.25
270.332	12.25
271.128	15.25
271.924	14.25
272.719	14.25
273.515	13.25
274.311	14.25
275.106	15.25
275.901	15.25
276.697	16.25
277.492	17.25
278.287	14.25
279.082	17.25
279.877	15.25
280.672	16.25
281.467	17.25
282.262	18.25
283.056	18.25
283.851	17.25
284.646	16.25
285.44	18.25
286.234	17.25
287.029	18.25
287.823	21.25
288.617	16.25
289.411	18.25
290.205	18.25
290.999	16.25
291.793	18.25
292.587	19.25
293.381	19.25
294.174	20.25
294.968	15.25
295.761	15.25
296.555	14.25
297.348	11.25
298.141	15.25
298.935	16.25
299.728	13.25
300.521	15.25
301.314	14.25
302.107	13.25
302.899	14.25
303.692	13.25
304.485	9.25
305.277	12.25
306.07	15.25
306.862	12.25
307.655	14.25
308.447	12.25
309.239	12.25
310.031	11.25
310.823	12.25
311.615	12.25
312.407	12.25
313.199	9.25
313.991	10.25
314.783	9.25
315.574	8.25
316.366	7.25
317.157	7.25
317.949	7.25
318.74	10.25
319.531	6.25
320.322	7.25
321.113	8.25
321.904	8.25
322.695	7.25
323.486	4.25
324.277	8.25
325.068	7.25
325.858	7.25
326.649	7.25
327.439	7.25
328.23	6.25
329.02	4.25
329.81	8.25
330.6	6.25
331.391	9.25
332.181	7.25
332.971	5.25
333.76	7.25
334.55	5.25
335.34	3.25
336.13	5.25
336.919	6.25
337.709	8.25
338.498	7.25
339.287	7.25
340.077	6.25
340.866	5.25
341.655	6.25
342.444	6.25
343.233	7.25
344.022	5.25
344.811	6.25
345.6	4.25
346.388	7.25
347.177	6.25
347.965	7.25
348.754	6.25
349.542	8.25
350.33	5.25
351.119	5.25
351.907	7.25
352.695	5.25
353.483	7.25
354.271	4.25
355.059	4.25
355.846	7.25
356.634	6.25
357.422	4.25
358.209	6.25
358.997	7.25
359.784	7.25
360.571	5.25
361.359	6.25
362.146	5.25
362.933	4.25
363.72	7.25
364.507	4.25
365.294	7.25
366.081	5.25
366.867	4.25
367.654	7.25
368.44	6.25
369.227	5.25
370.013	5.25
370.8	4.25
371.586	4.25
372.372	6.25
373.158	4.25
373.944	5.25
374.73	6.25
375.516	4.25
376.302	5.25
377.088	4.25
377.873	3.25
378.659	4.25
379.445	5.25
380.23	6.25
381.015	2.25
381.801	5.25
382.586	5.25
383.371	3.25
384.156	6.25
384.941	6.25
385.726	6.25
386.511	5.25
387.296	5.25
388.08	6.25
388.865	5.25
389.649	5.25
390.434	5.25
391.218	5.25
392.003	5.25
392.787	6.25
393.571	5.25
394.355	6.25
395.139	8.25
395.923	5.25
396.707	5.25
397.491	7.25
398.274	7.25
399.058	7.25
399.842	4.25
400.625	7.25
401.408	7.25
402.192	6.25
402.975	7.25
403.758	8.25
404.541	9.25
405.324	8.25
406.107	8.25
406.89	5.25
407.673	9.25
408.456	8.25
409.238	8.25
410.021	7.25
410.803	8.25
411.586	6.25
412.368	7.25
413.151	9.25
413.933	8.25
414.715	9.25
415.497	8.25
416.279	8.25
417.061	9.25
417.843	9.25
418.624	8.25
419.406	9.25
420.188	11.25
420.969	11.25
421.751	10.25
422.532	12.25
423.313	10.25
424.095	12.25
424.876	12.25
425.657	9.25
426.438	11.25
427.219	12.25
428	11.25
428.78	13.25
429.561	10.25
430.342	12.25
431.122	13.25
431.903	14.25
432.683	14.25
433.464	15.25
434.244	15.25
435.024	16.25
435.804	17.25
436.584	18.25
437.364	20.25
438.144	21.25
438.924	22.25
439.704	23.25
440.483	23.25
441.263	27.25
442.042	26.25
442.822	27.25
443.601	30.25
444.38	33.25
445.16	34.25
445.939	33.25
446.718	40.25
447.497	42.25
448.276	48.25
449.054	48.25
449.833	52.25
450.612	52.25
451.391	61.25
452.169	66.25
452.948	72.25
453.726	78.25
454.504	94.25
455.282	95.25
456.061	110.25
456.839	122.25
457.617	136.25
458.395	159.25
459.172	169.25
459.95	183.25
460.728	204.25
461.506	234.25
462.283	257.25
463.061	284.25
463.838	322.25
464.615	359.25
465.393	398.25
466.17	438.25
466.947	484.25
467.724	542.25
468.501	603.25
469.278	653.25
470.055	737.25
470.831	809.25
471.608	902.25
472.385	1012.25
473.161	1082.25
473.938	1192.25
474.714	1333.25
475.49	1447.25
476.266	1600.25
477.043	1761.25
477.819	1922.25
478.595	2109.25
479.371	2316.25
480.146	2518.25
480.922	2768.25
481.698	3036.25
482.473	3329.25
483.249	3616.25
484.024	3940.25
484.8	4323.25
485.575	4691.25
486.35	5120.25
487.126	5589.25
487.901	6085.25
488.676	6595.25
489.451	7220.25
490.225	7806.25
491	8456.25
491.775	9241.25
492.55	10025.25
493.324	10826.25
494.099	11576.25
494.873	12407.25
495.647	13306.25
496.422	14365.25
497.196	15323.25
497.97	16360.25
498.744	17408.25
499.518	18394.25
500.292	19440.25
501.066	20413.25
501.839	21322.25
502.613	22247.25
503.387	23063.25
504.16	23752.25
504.934	24182.25
505.707	24599.25
506.48	24826.25
507.253	24992.25
508.027	24927.25
508.8	24896.25
509.573	24781.25
510.346	24402.25
511.118	23934.25
511.891	23368.25
512.664	22774.25
513.437	22096.25
514.209	21264.25
514.982	20562.25
515.754	19714.25
516.526	18944.25
517.298	18199.25
518.071	17468.25
518.843	16801.25
519.615	16192.25
520.387	15520.25
521.159	14922.25
521.93	14335.25
522.702	13790.25
523.474	13173.25
524.245	12660.25
525.017	12060.25
525.788	11629.25
526.56	11180.25
527.331	10665.25
528.102	10198.25
528.873	9725.25
529.644	9237.25
530.415	8878.25
531.186	8440.25
531.957	8061.25
532.728	7711.25
533.498	7308.25
534.269	6873.25
535.039	6533.25
535.81	6198.25
536.58	5864.25
537.351	5525.25
538.121	5208.25
538.891	4945.25
539.661	4684.25
540.431	4416.25
541.201	4186.25
541.971	3961.25
542.741	3725.25
543.51	3563.25
544.28	3388.25
545.05	3203.25
545.819	3067.25
546.588	2915.25
547.358	2780.25
548.127	2635.25
548.896	2509.25
549.665	2389.25
550.434	2249.25
551.203	2134.25
551.972	2015.25
552.741	1908.25
553.51	1822.25
554.278	1716.25
555.047	1625.25
555.815	1529.25
556.584	1454.25
557.352	1372.25
558.121	1287.25
558.889	1230.25
559.657	1156.25
560.425	1104.25
561.193	1020.25
561.961	978.25
562.729	928.25
563.496	867.25
564.264	830.25
565.032	776.25
565.799	738.25
566.567	709.25
567.334	658.25
568.101	630.25
568.869	586.25
569.636	546.25
570.403	519.25
571.17	479.25
571.937	463.25
572.704	432.25
573.471	415.25
574.237	386.25
575.004	362.25
575.771	343.25
576.537	337.25
577.303	314.25
578.07	294.25
578.836	273.25
579.602	252.25
580.368	244.25
581.134	233.25
581.9	215.25
582.666	210.25
583.432	190.25
584.198	185.25
584.964	177.25
585.729	172.25
586.495	158.25
587.26	149.25
588.025	141.25
588.791	132.25
589.556	130.25
590.321	122.25
591.086	111.25
591.851	105.25
592.616	101.25
593.381	100.25
594.146	91.25
594.911	92.25
595.675	83.25
596.44	81.25
597.204	78.25
597.969	73.25
598.733	69.25
599.497	66.25
600.261	64.25
601.025	60.25
601.79	59.25
602.553	59.25
603.317	52.25
604.081	50.25
604.845	47.25
605.609	46.25
606.372	47.25
607.136	42.25
607.899	42.25
608.662	40.25
609.426	37.25
610.189	37.25
610.952	35.25
611.715	33.25
612.478	31.25
613.241	31.25
614.004	29.25
614.767	28.25
615.529	26.25
616.292	29.25
617.055	29.25
617.817	25.25
618.579	25.25
619.342	21.25
620.104	23.25
620.866	25.25
621.628	23.25
622.39	18.25
623.152	20.25
623.914	18.25
624.676	19.25
625.438	19.25
626.199	18.25
626.961	14.25
627.722	17.25
628.484	17.25
629.245	13.25
630.006	14.25
630.768	15.25
631.529	15.25
632.29	11.25
633.051	14.25
633.812	14.25
634.573	13.25
635.333	10.25
636.094	10.25
636.855	10.25
637.615	12.25
638.376	12.25
639.136	9.25
639.896	10.25
640.657	9.25
641.417	7.25
642.177	9.25
642.937	10.25
643.697	8.25
644.457	8.25
645.216	9.25
645.976	10.25
646.736	9.25
647.495	7.25
648.255	7.25
649.014	9.25
649.774	7.25
650.533	7.25
651.292	5.25
652.051	8.25
652.81	7.25
653.569	8.25
654.328	4.25
655.087	5.25
655.846	7.25
656.604	8.25
657.363	4.25
658.121	5.25
658.88	4.25
659.638	7.25
660.397	4.25
661.155	6.25
661.913	5.25
662.671	5.25
663.429	6.25
664.187	5.25
664.945	5.25
665.703	5.25
666.46	2.25
667.218	3.25
667.976	4.25
668.733	2.25
669.49	5.25
670.248	3.25
671.005	4.25
671.762	2.25
672.519	5.25
673.276	2.25
674.033	5.25
674.79	3.25
675.547	4.25
676.304	5.25
677.06	3.25
677.817	4.25
678.574	4.25
679.33	7.25
680.086	5.25
680.843	5.25
681.599	5.25
682.355	4.25
683.111	5.25
683.867	3.25
684.623	5.25
685.379	3.25
686.135	4.25
686.89	4.25
687.646	2.25
688.402	2.25
689.157	3.25
689.912	4.25
690.668	3.25
691.423	4.25
692.178	5.25
692.933	5.25
693.688	5.25
694.443	3.25
695.198	4.25
695.953	4.25
696.708	3.25
697.462	2.25
698.217	4.25
698.972	1.25
699.726	2.25
700.48	4.25
701.235	2.25
701.989	4.25
702.743	4.25
703.497	1.25
704.251	5.25
705.005	4.25
705.759	2.25
706.513	4.25
707.266	5.25
708.02	4.25
708.774	2.25
709.527	0.25
710.28	3.25
711.034	2.25
711.787	4.25
712.54	4.25
713.293	6.25
714.046	6.25
714.799	2.25
715.552	4.25
716.305	4.25
717.058	6.25
717.81	3.25
718.563	5.25
719.315	2.25
720.068	4.25
720.82	4.25
721.573	2.25
722.325	6.25
723.077	3.25
723.829	3.25
724.581	4.25
725.333	5.25
726.085	2.25
726.836	2.25
727.588	4.25
728.34	2.25
729.091	4.25
729.843	4.25
730.594	1.25
731.346	4.25
732.097	4.25
732.848	4.25
733.599	4.25
734.35	6.25
735.101	2.25
735.852	2.25
736.603	6.25
737.354	3.25
738.104	5.25
738.855	3.25
739.605	2.25
740.356	4.25
741.106	4.25
741.856	5.25
742.607	5.25
743.357	6.25
744.107	3.25
744.857	7.25
745.607	4.25
746.357	7.25
747.106	4.25
747.856	4.25
748.606	4.25
749.355	5.25
750.105	5.25
750.854	4.25
751.603	6.25
752.353	5.25
753.102	3.25
753.851	5.25
754.6	5.25
755.349	5.25
756.098	3.25
756.847	6.25
757.595	5.25
758.344	2.25
759.093	5.25
759.841	8.25
760.589	6.25
761.338	6.25
762.086	5.25
762.834	5.25
763.582	4.25
764.331	6.25
765.079	9.25
765.826	3.25
766.574	5.25
767.322	7.25
768.07	7.25
768.817	7.25
769.565	7.25
770.312	9.25
771.06	6.25
771.807	7.25
772.554	6.25
773.302	6.25
774.049	8.25
774.796	7.25
775.543	6.25
776.29	6.25
777.036	7.25
777.783	6.25
778.53	7.25
779.276	9.25
780.023	6.25
780.769	10.25
781.516	6.25
782.262	7.25
783.008	7.25
783.754	8.25
784.5	9.25
785.246	10.25
785.992	8.25
786.738	6.25
787.484	7.25
788.23	11.25
788.975	7.25
789.721	9.25
790.466	6.25
791.212	8.25
791.957	7.25
792.702	9.25
793.447	5.25
794.193	8.25
794.938	8.25
795.683	5.25
796.427	9.25
797.172	8.25
797.917	7.25
798.662	6.25
799.406	5.25
800.151	7.25
800.895	8.25
801.64	7.25
802.384	7.25
803.128	6.25
803.872	7.25
804.616	5.25
805.36	9.25
806.104	7.25
806.848	5.25
807.592	6.25
808.336	6.25
809.079	5.25
809.823	7.25
810.566	5.25
811.31	4.25
812.053	7.25
812.796	5.25
813.539	6.25
814.283	5.25
815.026	3.25
815.769	6.25
816.511	7.25
817.254	4.25
817.997	6.25
818.74	6.25
819.482	4.25
820.225	4.25
820.967	4.25
821.71	4.25
822.452	7.25
823.194	7.25
823.936	1.25
824.678	5.25
825.42	2.25
826.162	5.25
826.904	6.25
827.646	4.25
828.388	6.25
829.129	5.25
829.871	2.25
830.612	4.25
831.354	3.25
832.095	2.25
832.836	2.25
833.577	4.25
834.319	3.25
835.06	4.25
835.801	6.25
836.542	1.25
837.282	3.25
838.023	2.25
838.764	6.25
839.504	2.25
840.245	1.25
840.985	3.25
841.726	4.25
842.466	2.25
843.206	2.25
843.946	3.25
844.687	4.25
845.427	3.25
846.166	4.25
846.906	2.25
847.646	2.25
848.386	5.25
849.125	3.25
849.865	2.25
850.605	4.25
851.344	2.25
852.083	3.25
852.823	3.25
853.562	2.25
854.301	2.25
855.04	2.25
855.779	3.25
856.518	3.25
857.257	1.25
857.995	1.25
858.734	4.25
859.473	2.25
860.211	1.25
860.95	1.25
861.688	2.25
862.426	1.25
863.165	2.25
863.903	3.25
864.641	2.25
865.379	5.25
866.117	1.25
866.855	5.25
867.593	2.25
868.33	2.25
869.068	3.25
869.806	3.25
870.543	3.25
871.28	2.25
872.018	2.25
872.755	-0.75
873.492	5.25
874.229	1.25
874.967	3.25
875.703	1.25
876.44	2.25
877.177	4.25
877.914	2.25
878.651	2.25
879.387	2.25
880.124	1.25
880.86	0.25
881.597	0.25
882.333	0.25
883.069	-0.75
883.806	3.25
884.542	2.25
885.278	2.25
886.014	2.25
886.749	1.25
887.485	1.25
888.221	1.25
888.957	5.25
889.692	2.25
890.428	1.25
891.163	2.25
891.899	0.25
892.634	0.25
893.369	-0.75
894.104	3.25
894.839	0.25
895.574	0.25
896.309	2.25
897.044	-0.75
897.779	1.25
898.514	0.25
899.248	0.25
899.983	2.25
900.717	1.25
901.452	2.25
902.186	2.25
902.92	1.25
903.654	-0.75
904.389	1.25
905.123	0.25
905.857	0.25
906.59	2.25
907.324	0.25
908.058	1.25
908.792	1.25
909.525	-1.75
910.259	0.25
910.992	1.25
911.726	1.25
912.459	-0.75
913.192	1.25
913.925	0.25
914.658	1.25
915.391	2.25
916.124	1.25
916.857	0.25
917.59	1.25
918.323	1.25
919.055	0.25
919.788	0.25
920.521	-2.75
921.253	2.25
921.985	0.25
922.718	1.25
923.45	0.25
924.182	0.25
924.914	-0.75
925.646	2.25
926.378	-1.75
927.11	2.25
927.841	2.25
928.573	-0.75
929.305	0.25
930.036	1.25
930.768	0.25
931.499	-1.75
932.23	1.25
932.962	-0.75
933.693	1.25
934.424	3.25
935.155	-0.75
935.886	0.25
936.617	1.25
937.348	1.25
938.078	1.25
938.809	0.25
939.54	-0.75
940.27	-0.75
941.001	1.25
941.731	1.25
942.461	0.25
943.191	2.25
943.922	-0.75
944.652	-0.75
945.382	1.25
946.112	2.25
946.841	0.25
947.571	1.25
948.301	-0.75
949.031	0.25
949.76	0.25
950.49	-0.75
951.219	0.25
951.948	1.25
952.678	-0.75
953.407	0.25
954.136	-1.75
954.865	1.25
955.594	0.25
956.323	0.25
957.052	-1.75
957.78	4.25
958.509	0.25
959.238	0.25
959.966	1.25
960.695	0.25
961.423	1.25
962.151	0.25
962.88	-1.75
963.608	0.25
964.336	-0.75
965.064	0.25
965.792	0.25
966.52	-0.75
967.247	0.25
967.975	-0.75
968.703	2.25
969.43	0.25
970.158	1.25
970.885	0.25
971.613	-0.75
972.34	-0.75
973.067	2.25
973.794	-0.75
974.521	1.25
975.248	1.25
975.975	-0.75
976.702	-0.75
977.429	-0.75
978.156	0.25
978.882	0.25
979.609	1.25
980.335	1.25
981.062	2.25
981.788	1.25
982.514	0.25
983.24	0.25
983.967	0.25
984.693	2.25
985.419	1.25
986.144	-1.75
986.87	-0.75
987.596	0.25
988.322	-0.75
989.047	-0.75
989.773	1.25
990.498	1.25
991.224	2.25
991.949	-1.75
992.674	-1.75
993.399	-1.75
994.124	1.25
994.849	0.25
995.574	0.25
996.299	0.25
997.024	1.25
997.749	1.25
998.473	1.25
999.198	1.25
999.922	0.25
1000.647	-1.75
1001.371	3.25
1002.095	-2.75
1002.82	0.25
1003.544	0.25
1004.268	1.25
1004.992	0.25
1005.716	1.25
1006.439	0.25
1007.163	3.25
1007.887	1.25
1008.611	2.25
1009.334	1.25
1010.058	-0.75
1010.781	-0.75
1011.504	1.25
1012.228	2.25
1012.951	0.25
1013.674	1.25
1014.397	-1.75
1015.12	-0.75
