节点500_285_QEPB04081__134__14-57-47-206.txt的数据

Date: Wed Nov 12 14:57:47 CST 2025
User: PC
Spectrometer: QEPB0408
触发模式: 0
积分时间 (秒): 1.000000E-2
Scans to average: 1
启用暗噪声校正: true
启用非线性校正: false
滑动平均宽度: 0
X轴模式: Wavelengths
Number of Pixels in Spectrum: 1044
>>>>>Begin Spectral Data<<<<<
220.843	2.12
221.644	4.12
222.444	3.12
223.244	2.12
224.045	4.12
224.845	1.12
225.645	1.12
226.445	2.12
227.245	4.12
228.045	4.12
228.845	0.12
229.645	2.12
230.444	2.12
231.244	4.12
232.043	5.12
232.843	2.12
233.642	5.12
234.442	4.12
235.241	6.12
236.04	5.12
236.839	5.12
237.638	8.12
238.437	4.12
239.236	5.12
240.035	6.12
240.833	7.12
241.632	7.12
242.43	5.12
243.229	8.12
244.027	2.12
244.826	5.12
245.624	7.12
246.422	6.12
247.22	7.12
248.018	6.12
248.816	5.12
249.614	7.12
250.412	8.12
251.21	6.12
252.007	8.12
252.805	8.12
253.602	5.12
254.4	10.12
255.197	9.12
255.994	7.12
256.791	10.12
257.589	12.12
258.386	8.12
259.183	10.12
259.979	12.12
260.776	12.12
261.573	13.12
262.37	13.12
263.166	11.12
263.963	13.12
264.759	12.12
265.556	13.12
266.352	14.12
267.148	16.12
267.944	14.12
268.74	16.12
269.536	16.12
270.332	16.12
271.128	14.12
271.924	19.12
272.719	17.12
273.515	19.12
274.311	17.12
275.106	19.12
275.901	17.12
276.697	20.12
277.492	20.12
278.287	21.12
279.082	19.12
279.877	20.12
280.672	22.12
281.467	21.12
282.262	18.12
283.056	20.12
283.851	18.12
284.646	20.12
285.44	19.12
286.234	21.12
287.029	20.12
287.823	18.12
288.617	21.12
289.411	22.12
290.205	20.12
290.999	17.12
291.793	18.12
292.587	18.12
293.381	19.12
294.174	21.12
294.968	16.12
295.761	18.12
296.555	18.12
297.348	16.12
298.141	14.12
298.935	16.12
299.728	16.12
300.521	14.12
301.314	14.12
302.107	14.12
302.899	13.12
303.692	16.12
304.485	10.12
305.277	12.12
306.07	13.12
306.862	14.12
307.655	14.12
308.447	14.12
309.239	14.12
310.031	12.12
310.823	11.12
311.615	13.12
312.407	9.12
313.199	9.12
313.991	15.12
314.783	9.12
315.574	12.12
316.366	8.12
317.157	9.12
317.949	10.12
318.74	9.12
319.531	8.12
320.322	8.12
321.113	9.12
321.904	10.12
322.695	9.12
323.486	9.12
324.277	8.12
325.068	8.12
325.858	7.12
326.649	7.12
327.439	9.12
328.23	8.12
329.02	8.12
329.81	8.12
330.6	9.12
331.391	6.12
332.181	7.12
332.971	9.12
333.76	8.12
334.55	8.12
335.34	8.12
336.13	8.12
336.919	9.12
337.709	7.12
338.498	9.12
339.287	7.12
340.077	6.12
340.866	6.12
341.655	6.12
342.444	6.12
343.233	9.12
344.022	7.12
344.811	7.12
345.6	8.12
346.388	9.12
347.177	6.12
347.965	7.12
348.754	8.12
349.542	7.12
350.33	6.12
351.119	8.12
351.907	6.12
352.695	7.12
353.483	7.12
354.271	6.12
355.059	4.12
355.846	4.12
356.634	6.12
357.422	7.12
358.209	6.12
358.997	5.12
359.784	4.12
360.571	8.12
361.359	7.12
362.146	7.12
362.933	5.12
363.72	5.12
364.507	8.12
365.294	5.12
366.081	6.12
366.867	5.12
367.654	4.12
368.44	5.12
369.227	5.12
370.013	6.12
370.8	7.12
371.586	3.12
372.372	4.12
373.158	4.12
373.944	5.12
374.73	4.12
375.516	6.12
376.302	5.12
377.088	7.12
377.873	7.12
378.659	5.12
379.445	6.12
380.23	6.12
381.015	7.12
381.801	7.12
382.586	7.12
383.371	6.12
384.156	5.12
384.941	7.12
385.726	4.12
386.511	6.12
387.296	6.12
388.08	2.12
388.865	7.12
389.649	6.12
390.434	7.12
391.218	6.12
392.003	7.12
392.787	7.12
393.571	6.12
394.355	7.12
395.139	6.12
395.923	6.12
396.707	10.12
397.491	6.12
398.274	10.12
399.058	6.12
399.842	7.12
400.625	10.12
401.408	8.12
402.192	7.12
402.975	7.12
403.758	8.12
404.541	6.12
405.324	7.12
406.107	10.12
406.89	9.12
407.673	9.12
408.456	8.12
409.238	10.12
410.021	9.12
410.803	10.12
411.586	10.12
412.368	7.12
413.151	10.12
413.933	8.12
414.715	9.12
415.497	12.12
416.279	9.12
417.061	12.12
417.843	10.12
418.624	9.12
419.406	10.12
420.188	12.12
420.969	11.12
421.751	11.12
422.532	12.12
423.313	10.12
424.095	13.12
424.876	10.12
425.657	14.12
426.438	14.12
427.219	13.12
428	13.12
428.78	15.12
429.561	16.12
430.342	13.12
431.122	16.12
431.903	12.12
432.683	16.12
433.464	17.12
434.244	18.12
435.024	16.12
435.804	20.12
436.584	18.12
437.364	21.12
438.144	22.12
438.924	22.12
439.704	24.12
440.483	23.12
441.263	25.12
442.042	25.12
442.822	28.12
443.601	29.12
444.38	30.12
445.16	33.12
445.939	34.12
446.718	36.12
447.497	37.12
448.276	40.12
449.054	44.12
449.833	47.12
450.612	53.12
451.391	51.12
452.169	61.12
452.948	64.12
453.726	71.12
454.504	82.12
455.282	84.12
456.061	94.12
456.839	99.12
457.617	113.12
458.395	128.12
459.172	147.12
459.95	158.12
460.728	177.12
461.506	200.12
462.283	214.12
463.061	245.12
463.838	268.12
464.615	302.12
465.393	342.12
466.17	379.12
466.947	431.12
467.724	470.12
468.501	538.12
469.278	599.12
470.055	665.12
470.831	745.12
471.608	821.12
472.385	927.12
473.161	1021.12
473.938	1136.12
474.714	1271.12
475.49	1388.12
476.266	1559.12
477.043	1726.12
477.819	1920.12
478.595	2117.12
479.371	2347.12
480.146	2586.12
480.922	2878.12
481.698	3175.12
482.473	3502.12
483.249	3871.12
484.024	4296.12
484.8	4721.12
485.575	5212.12
486.35	5751.12
487.126	6328.12
487.901	6998.12
488.676	7681.12
489.451	8443.12
490.225	9251.12
491	10147.12
491.775	11144.12
492.55	12144.12
493.324	13130.12
494.099	14240.12
494.873	15334.12
495.647	16584.12
496.422	17849.12
497.196	19036.12
497.97	20391.12
498.744	21628.12
499.518	22856.12
500.292	24033.12
501.066	25070.12
501.839	26019.12
502.613	26945.12
503.387	27671.12
504.16	28183.12
504.934	28372.12
505.707	28528.12
506.48	28424.12
507.253	28208.12
508.027	27773.12
508.8	27317.12
509.573	26753.12
510.346	25985.12
511.118	25154.12
511.891	24224.12
512.664	23273.12
513.437	22414.12
514.209	21336.12
514.982	20488.12
515.754	19536.12
516.526	18621.12
517.298	17817.12
518.071	17018.12
518.843	16340.12
519.615	15785.12
520.387	15130.12
521.159	14516.12
521.93	13964.12
522.702	13438.12
523.474	12819.12
524.245	12270.12
525.017	11694.12
525.788	11263.12
526.56	10735.12
527.331	10245.12
528.102	9759.12
528.873	9286.12
529.644	8792.12
530.415	8397.12
531.186	7927.12
531.957	7505.12
532.728	7125.12
533.498	6756.12
534.269	6353.12
535.039	6028.12
535.81	5662.12
536.58	5342.12
537.351	5048.12
538.121	4775.12
538.891	4498.12
539.661	4275.12
540.431	4026.12
541.201	3772.12
541.971	3600.12
542.741	3409.12
543.51	3245.12
544.28	3094.12
545.05	2905.12
545.819	2817.12
546.588	2647.12
547.358	2542.12
548.127	2404.12
548.896	2266.12
549.665	2166.12
550.434	2045.12
551.203	1919.12
551.972	1815.12
552.741	1721.12
553.51	1625.12
554.278	1547.12
555.047	1458.12
555.815	1362.12
556.584	1280.12
557.352	1220.12
558.121	1145.12
558.889	1074.12
559.657	1023.12
560.425	970.12
561.193	907.12
561.961	857.12
562.729	817.12
563.496	760.12
564.264	734.12
565.032	692.12
565.799	658.12
566.567	610.12
567.334	574.12
568.101	559.12
568.869	523.12
569.636	488.12
570.403	456.12
571.17	430.12
571.937	414.12
572.704	384.12
573.471	362.12
574.237	340.12
575.004	326.12
575.771	303.12
576.537	282.12
577.303	274.12
578.07	258.12
578.836	238.12
579.602	226.12
580.368	219.12
581.134	200.12
581.9	193.12
582.666	180.12
583.432	175.12
584.198	167.12
584.964	154.12
585.729	153.12
586.495	136.12
587.26	137.12
588.025	125.12
588.791	117.12
589.556	109.12
590.321	106.12
591.086	102.12
591.851	101.12
592.616	86.12
593.381	90.12
594.146	83.12
594.911	81.12
595.675	75.12
596.44	71.12
597.204	69.12
597.969	64.12
598.733	65.12
599.497	62.12
600.261	59.12
601.025	53.12
601.79	53.12
602.553	51.12
603.317	47.12
604.081	47.12
604.845	44.12
605.609	40.12
606.372	40.12
607.136	39.12
607.899	37.12
608.662	37.12
609.426	37.12
610.189	35.12
610.952	28.12
611.715	32.12
612.478	28.12
613.241	29.12
614.004	27.12
614.767	27.12
615.529	26.12
616.292	24.12
617.055	24.12
617.817	22.12
618.579	20.12
619.342	20.12
620.104	22.12
620.866	20.12
621.628	19.12
622.39	21.12
623.152	20.12
623.914	20.12
624.676	19.12
625.438	18.12
626.199	18.12
626.961	18.12
627.722	15.12
628.484	15.12
629.245	16.12
630.006	17.12
630.768	14.12
631.529	14.12
632.29	12.12
633.051	14.12
633.812	13.12
634.573	11.12
635.333	12.12
636.094	14.12
636.855	10.12
637.615	9.12
638.376	9.12
639.136	11.12
639.896	10.12
640.657	11.12
641.417	11.12
642.177	13.12
642.937	8.12
643.697	9.12
644.457	9.12
645.216	7.12
645.976	9.12
646.736	9.12
647.495	8.12
648.255	8.12
649.014	9.12
649.774	7.12
650.533	6.12
651.292	8.12
652.051	9.12
652.81	7.12
653.569	8.12
654.328	6.12
655.087	7.12
655.846	7.12
656.604	8.12
657.363	10.12
658.121	5.12
658.88	8.12
659.638	7.12
660.397	7.12
661.155	7.12
661.913	6.12
662.671	7.12
663.429	5.12
664.187	4.12
664.945	4.12
665.703	4.12
666.46	8.12
667.218	5.12
667.976	5.12
668.733	4.12
669.49	7.12
670.248	4.12
671.005	4.12
671.762	7.12
672.519	4.12
673.276	5.12
674.033	5.12
674.79	6.12
675.547	4.12
676.304	3.12
677.06	5.12
677.817	3.12
678.574	4.12
679.33	6.12
680.086	4.12
680.843	6.12
681.599	5.12
682.355	4.12
683.111	6.12
683.867	4.12
684.623	5.12
685.379	5.12
686.135	2.12
686.89	5.12
687.646	4.12
688.402	5.12
689.157	5.12
689.912	5.12
690.668	3.12
691.423	6.12
692.178	4.12
692.933	4.12
693.688	6.12
694.443	4.12
695.198	5.12
695.953	4.12
696.708	4.12
697.462	4.12
698.217	5.12
698.972	4.12
699.726	3.12
700.48	4.12
701.235	3.12
701.989	4.12
702.743	3.12
703.497	3.12
704.251	5.12
705.005	2.12
705.759	5.12
706.513	5.12
707.266	2.12
708.02	6.12
708.774	5.12
709.527	4.12
710.28	4.12
711.034	3.12
711.787	5.12
712.54	6.12
713.293	5.12
714.046	5.12
714.799	4.12
715.552	4.12
716.305	5.12
717.058	4.12
717.81	4.12
718.563	4.12
719.315	5.12
720.068	4.12
720.82	3.12
721.573	5.12
722.325	5.12
723.077	2.12
723.829	4.12
724.581	5.12
725.333	5.12
726.085	6.12
726.836	3.12
727.588	6.12
728.34	6.12
729.091	4.12
729.843	6.12
730.594	6.12
731.346	5.12
732.097	5.12
732.848	6.12
733.599	4.12
734.35	6.12
735.101	6.12
735.852	3.12
736.603	5.12
737.354	7.12
738.104	6.12
738.855	5.12
739.605	6.12
740.356	5.12
741.106	5.12
741.856	4.12
742.607	6.12
743.357	9.12
744.107	7.12
744.857	2.12
745.607	7.12
746.357	6.12
747.106	5.12
747.856	5.12
748.606	6.12
749.355	6.12
750.105	5.12
750.854	8.12
751.603	7.12
752.353	8.12
753.102	5.12
753.851	5.12
754.6	7.12
755.349	8.12
756.098	9.12
756.847	8.12
757.595	4.12
758.344	7.12
759.093	3.12
759.841	5.12
760.589	7.12
761.338	5.12
762.086	6.12
762.834	6.12
763.582	9.12
764.331	7.12
765.079	7.12
765.826	8.12
766.574	8.12
767.322	8.12
768.07	9.12
768.817	10.12
769.565	9.12
770.312	8.12
771.06	8.12
771.807	7.12
772.554	9.12
773.302	8.12
774.049	7.12
774.796	10.12
775.543	9.12
776.29	10.12
777.036	9.12
777.783	9.12
778.53	10.12
779.276	9.12
780.023	9.12
780.769	12.12
781.516	9.12
782.262	8.12
783.008	9.12
783.754	11.12
784.5	10.12
785.246	11.12
785.992	9.12
786.738	11.12
787.484	8.12
788.23	10.12
788.975	10.12
789.721	8.12
790.466	12.12
791.212	10.12
791.957	8.12
792.702	11.12
793.447	9.12
794.193	9.12
794.938	8.12
795.683	12.12
796.427	8.12
797.172	9.12
797.917	9.12
798.662	9.12
799.406	7.12
800.151	6.12
800.895	9.12
801.64	9.12
802.384	8.12
803.128	7.12
803.872	8.12
804.616	7.12
805.36	7.12
806.104	6.12
806.848	3.12
807.592	6.12
808.336	8.12
809.079	5.12
809.823	5.12
810.566	7.12
811.31	7.12
812.053	4.12
812.796	5.12
813.539	6.12
814.283	6.12
815.026	7.12
815.769	8.12
816.511	6.12
817.254	4.12
817.997	4.12
818.74	6.12
819.482	6.12
820.225	5.12
820.967	6.12
821.71	6.12
822.452	4.12
823.194	6.12
823.936	6.12
824.678	4.12
825.42	7.12
826.162	5.12
826.904	6.12
827.646	6.12
828.388	7.12
829.129	5.12
829.871	4.12
830.612	2.12
831.354	5.12
832.095	5.12
832.836	3.12
833.577	6.12
834.319	4.12
835.06	5.12
835.801	2.12
836.542	5.12
837.282	5.12
838.023	6.12
838.764	4.12
839.504	3.12
840.245	4.12
840.985	2.12
841.726	3.12
842.466	3.12
843.206	3.12
843.946	3.12
844.687	2.12
845.427	5.12
846.166	2.12
846.906	2.12
847.646	5.12
848.386	2.12
849.125	3.12
849.865	4.12
850.605	2.12
851.344	3.12
852.083	2.12
852.823	5.12
853.562	2.12
854.301	1.12
855.04	2.12
855.779	4.12
856.518	4.12
857.257	2.12
857.995	6.12
858.734	2.12
859.473	2.12
860.211	5.12
860.95	2.12
861.688	1.12
862.426	1.12
863.165	4.12
863.903	2.12
864.641	2.12
865.379	2.12
866.117	3.12
866.855	3.12
867.593	0.12
868.33	4.12
869.068	3.12
869.806	3.12
870.543	2.12
871.28	3.12
872.018	3.12
872.755	2.12
873.492	3.12
874.229	1.12
874.967	3.12
875.703	2.12
876.44	2.12
877.177	4.12
877.914	2.12
878.651	0.12
879.387	1.12
880.124	4.12
880.86	4.12
881.597	1.12
882.333	4.12
883.069	2.12
883.806	-0.88
884.542	0.12
885.278	0.12
886.014	4.12
886.749	4.12
887.485	1.12
888.221	3.12
888.957	1.12
889.692	5.12
890.428	1.12
891.163	3.12
891.899	2.12
892.634	0.12
893.369	2.12
894.104	0.12
894.839	3.12
895.574	2.12
896.309	0.12
897.044	0.12
897.779	2.12
898.514	0.12
899.248	2.12
899.983	2.12
900.717	1.12
901.452	1.12
902.186	0.12
902.92	-0.88
903.654	2.12
904.389	2.12
905.123	0.12
905.857	3.12
906.59	0.12
907.324	1.12
908.058	2.12
908.792	0.12
909.525	1.12
910.259	1.12
910.992	1.12
911.726	2.12
912.459	3.12
913.192	0.12
913.925	0.12
914.658	0.12
915.391	0.12
916.124	3.12
916.857	0.12
917.59	0.12
918.323	1.12
919.055	3.12
919.788	2.12
920.521	2.12
921.253	1.12
921.985	3.12
922.718	1.12
923.45	0.12
924.182	2.12
924.914	2.12
925.646	1.12
926.378	3.12
927.11	-0.88
927.841	2.12
928.573	2.12
929.305	0.12
930.036	3.12
930.768	1.12
931.499	0.12
932.23	1.12
932.962	1.12
933.693	2.12
934.424	0.12
935.155	2.12
935.886	4.12
936.617	0.12
937.348	1.12
938.078	2.12
938.809	1.12
939.54	0.12
940.27	3.12
941.001	1.12
941.731	2.12
942.461	2.12
943.191	0.12
943.922	1.12
944.652	0.12
945.382	1.12
946.112	3.12
946.841	2.12
947.571	1.12
948.301	1.12
949.031	2.12
949.76	0.12
950.49	0.12
951.219	0.12
951.948	0.12
952.678	0.12
953.407	1.12
954.136	0.12
954.865	0.12
955.594	2.12
956.323	2.12
957.052	1.12
957.78	2.12
958.509	1.12
959.238	2.12
959.966	1.12
960.695	0.12
961.423	3.12
962.151	0.12
962.88	0.12
963.608	0.12
964.336	1.12
965.064	3.12
965.792	-1.88
966.52	2.12
967.247	2.12
967.975	1.12
968.703	2.12
969.43	0.12
970.158	3.12
970.885	0.12
971.613	2.12
972.34	1.12
973.067	0.12
973.794	0.12
974.521	1.12
975.248	0.12
975.975	-0.88
976.702	0.12
977.429	1.12
978.156	1.12
978.882	2.12
979.609	1.12
980.335	3.12
981.062	2.12
981.788	1.12
982.514	2.12
983.24	0.12
983.967	-0.88
984.693	2.12
985.419	1.12
986.144	0.12
986.87	1.12
987.596	1.12
988.322	2.12
989.047	1.12
989.773	0.12
990.498	1.12
991.224	3.12
991.949	1.12
992.674	0.12
993.399	0.12
994.124	4.12
994.849	0.12
995.574	-0.88
996.299	2.12
997.024	-0.88
997.749	0.12
998.473	2.12
999.198	0.12
999.922	1.12
1000.647	2.12
1001.371	3.12
1002.095	-0.88
1002.82	0.12
1003.544	-2.88
1004.268	1.12
1004.992	0.12
1005.716	3.12
1006.439	3.12
1007.163	3.12
1007.887	1.12
1008.611	0.12
1009.334	1.12
1010.058	2.12
1010.781	1.12
1011.504	2.12
1012.228	2.12
1012.951	-0.88
1013.674	-0.88
1014.397	1.12
1015.12	1.12
