节点500_285_QEPB04081__585__15-05-17-187.txt的数据

Date: Wed Nov 12 15:05:17 CST 2025
User: PC
Spectrometer: QEPB0408
触发模式: 0
积分时间 (秒): 1.000000E-2
Scans to average: 1
启用暗噪声校正: true
启用非线性校正: false
滑动平均宽度: 0
X轴模式: Wavelengths
Number of Pixels in Spectrum: 1044
>>>>>Begin Spectral Data<<<<<
220.843	2.88
221.644	1.88
222.444	4.88
223.244	1.88
224.045	2.88
224.845	1.88
225.645	2.88
226.445	3.88
227.245	4.88
228.045	3.88
228.845	5.88
229.645	2.88
230.444	1.88
231.244	2.88
232.043	5.88
232.843	3.88
233.642	3.88
234.442	3.88
235.241	4.88
236.04	6.88
236.839	1.88
237.638	5.88
238.437	4.88
239.236	5.88
240.035	3.88
240.833	2.88
241.632	7.88
242.43	3.88
243.229	7.88
244.027	6.88
244.826	4.88
245.624	2.88
246.422	4.88
247.22	6.88
248.018	6.88
248.816	6.88
249.614	5.88
250.412	6.88
251.21	7.88
252.007	5.88
252.805	8.88
253.602	7.88
254.4	8.88
255.197	8.88
255.994	8.88
256.791	9.88
257.589	7.88
258.386	8.88
259.183	9.88
259.979	10.88
260.776	8.88
261.573	10.88
262.37	11.88
263.166	13.88
263.963	10.88
264.759	13.88
265.556	11.88
266.352	12.88
267.148	10.88
267.944	15.88
268.74	12.88
269.536	13.88
270.332	13.88
271.128	17.88
271.924	16.88
272.719	15.88
273.515	17.88
274.311	17.88
275.106	15.88
275.901	17.88
276.697	16.88
277.492	17.88
278.287	18.88
279.082	15.88
279.877	17.88
280.672	18.88
281.467	17.88
282.262	16.88
283.056	18.88
283.851	18.88
284.646	17.88
285.44	19.88
286.234	15.88
287.029	16.88
287.823	18.88
288.617	18.88
289.411	20.88
290.205	17.88
290.999	18.88
291.793	17.88
292.587	18.88
293.381	17.88
294.174	16.88
294.968	17.88
295.761	12.88
296.555	16.88
297.348	14.88
298.141	14.88
298.935	16.88
299.728	14.88
300.521	14.88
301.314	15.88
302.107	13.88
302.899	13.88
303.692	13.88
304.485	13.88
305.277	12.88
306.07	12.88
306.862	12.88
307.655	14.88
308.447	15.88
309.239	13.88
310.031	14.88
310.823	11.88
311.615	9.88
312.407	10.88
313.199	11.88
313.991	10.88
314.783	9.88
315.574	7.88
316.366	9.88
317.157	8.88
317.949	9.88
318.74	8.88
319.531	12.88
320.322	8.88
321.113	7.88
321.904	6.88
322.695	7.88
323.486	6.88
324.277	8.88
325.068	8.88
325.858	8.88
326.649	8.88
327.439	8.88
328.23	7.88
329.02	6.88
329.81	8.88
330.6	6.88
331.391	6.88
332.181	6.88
332.971	7.88
333.76	9.88
334.55	6.88
335.34	6.88
336.13	8.88
336.919	6.88
337.709	5.88
338.498	6.88
339.287	9.88
340.077	6.88
340.866	5.88
341.655	8.88
342.444	6.88
343.233	7.88
344.022	6.88
344.811	7.88
345.6	6.88
346.388	6.88
347.177	3.88
347.965	6.88
348.754	6.88
349.542	6.88
350.33	4.88
351.119	6.88
351.907	4.88
352.695	9.88
353.483	4.88
354.271	5.88
355.059	5.88
355.846	3.88
356.634	6.88
357.422	4.88
358.209	7.88
358.997	7.88
359.784	5.88
360.571	4.88
361.359	5.88
362.146	4.88
362.933	4.88
363.72	6.88
364.507	4.88
365.294	4.88
366.081	5.88
366.867	6.88
367.654	5.88
368.44	4.88
369.227	7.88
370.013	5.88
370.8	5.88
371.586	6.88
372.372	5.88
373.158	6.88
373.944	4.88
374.73	6.88
375.516	7.88
376.302	7.88
377.088	7.88
377.873	4.88
378.659	6.88
379.445	4.88
380.23	5.88
381.015	5.88
381.801	4.88
382.586	5.88
383.371	5.88
384.156	6.88
384.941	6.88
385.726	5.88
386.511	5.88
387.296	7.88
388.08	6.88
388.865	6.88
389.649	5.88
390.434	6.88
391.218	8.88
392.003	6.88
392.787	5.88
393.571	7.88
394.355	5.88
395.139	4.88
395.923	7.88
396.707	5.88
397.491	7.88
398.274	7.88
399.058	6.88
399.842	6.88
400.625	7.88
401.408	7.88
402.192	6.88
402.975	8.88
403.758	8.88
404.541	7.88
405.324	7.88
406.107	7.88
406.89	8.88
407.673	9.88
408.456	10.88
409.238	7.88
410.021	8.88
410.803	9.88
411.586	8.88
412.368	8.88
413.151	8.88
413.933	8.88
414.715	9.88
415.497	8.88
416.279	9.88
417.061	7.88
417.843	10.88
418.624	9.88
419.406	10.88
420.188	9.88
420.969	11.88
421.751	10.88
422.532	11.88
423.313	12.88
424.095	12.88
424.876	12.88
425.657	10.88
426.438	11.88
427.219	11.88
428	12.88
428.78	10.88
429.561	12.88
430.342	10.88
431.122	13.88
431.903	15.88
432.683	15.88
433.464	17.88
434.244	17.88
435.024	15.88
435.804	18.88
436.584	18.88
437.364	18.88
438.144	16.88
438.924	20.88
439.704	22.88
440.483	23.88
441.263	26.88
442.042	23.88
442.822	29.88
443.601	29.88
444.38	29.88
445.16	32.88
445.939	38.88
446.718	35.88
447.497	40.88
448.276	41.88
449.054	45.88
449.833	49.88
450.612	57.88
451.391	58.88
452.169	65.88
452.948	73.88
453.726	79.88
454.504	84.88
455.282	95.88
456.061	108.88
456.839	118.88
457.617	128.88
458.395	149.88
459.172	166.88
459.95	177.88
460.728	201.88
461.506	220.88
462.283	250.88
463.061	275.88
463.838	308.88
464.615	349.88
465.393	384.88
466.17	434.88
466.947	481.88
467.724	529.88
468.501	592.88
469.278	657.88
470.055	732.88
470.831	803.88
471.608	889.88
472.385	982.88
473.161	1088.88
473.938	1207.88
474.714	1325.88
475.49	1473.88
476.266	1590.88
477.043	1765.88
477.819	1934.88
478.595	2141.88
479.371	2350.88
480.146	2580.88
480.922	2842.88
481.698	3101.88
482.473	3420.88
483.249	3742.88
484.024	4097.88
484.8	4521.88
485.575	4902.88
486.35	5385.88
487.126	5866.88
487.901	6400.88
488.676	7002.88
489.451	7677.88
490.225	8320.88
491	9082.88
491.775	9915.88
492.55	10735.88
493.324	11626.88
494.099	12500.88
494.873	13405.88
495.647	14469.88
496.422	15553.88
497.196	16673.88
497.97	17763.88
498.744	18881.88
499.518	19894.88
500.292	21050.88
501.066	22062.88
501.839	23001.88
502.613	23965.88
503.387	24760.88
504.16	25453.88
504.934	25849.88
505.707	26122.88
506.48	26315.88
507.253	26380.88
508.027	26281.88
508.8	26039.88
509.573	25807.88
510.346	25266.88
511.118	24687.88
511.891	23973.88
512.664	23282.88
513.437	22535.88
514.209	21666.88
514.982	20809.88
515.754	19965.88
516.526	19082.88
517.298	18287.88
518.071	17525.88
518.843	16842.88
519.615	16266.88
520.387	15619.88
521.159	15006.88
521.93	14305.88
522.702	13781.88
523.474	13258.88
524.245	12653.88
525.017	12118.88
525.788	11644.88
526.56	11147.88
527.331	10652.88
528.102	10190.88
528.873	9718.88
529.644	9266.88
530.415	8830.88
531.186	8420.88
531.957	7972.88
532.728	7596.88
533.498	7232.88
534.269	6791.88
535.039	6452.88
535.81	6074.88
536.58	5768.88
537.351	5455.88
538.121	5110.88
538.891	4874.88
539.661	4574.88
540.431	4322.88
541.201	4081.88
541.971	3875.88
542.741	3661.88
543.51	3496.88
544.28	3340.88
545.05	3176.88
545.819	3004.88
546.588	2859.88
547.358	2726.88
548.127	2601.88
548.896	2458.88
549.665	2320.88
550.434	2216.88
551.203	2084.88
551.972	1984.88
552.741	1869.88
553.51	1770.88
554.278	1670.88
555.047	1579.88
555.815	1495.88
556.584	1430.88
557.352	1350.88
558.121	1260.88
558.889	1178.88
559.657	1133.88
560.425	1072.88
561.193	994.88
561.961	943.88
562.729	877.88
563.496	842.88
564.264	790.88
565.032	751.88
565.799	717.88
566.567	667.88
567.334	639.88
568.101	595.88
568.869	560.88
569.636	533.88
570.403	506.88
571.17	482.88
571.937	445.88
572.704	430.88
573.471	396.88
574.237	379.88
575.004	354.88
575.771	338.88
576.537	313.88
577.303	298.88
578.07	280.88
578.836	262.88
579.602	247.88
580.368	228.88
581.134	223.88
581.9	211.88
582.666	200.88
583.432	189.88
584.198	183.88
584.964	172.88
585.729	158.88
586.495	152.88
587.26	146.88
588.025	131.88
588.791	132.88
589.556	122.88
590.321	120.88
591.086	111.88
591.851	103.88
592.616	98.88
593.381	97.88
594.146	92.88
594.911	83.88
595.675	84.88
596.44	76.88
597.204	74.88
597.969	73.88
598.733	66.88
599.497	65.88
600.261	65.88
601.025	57.88
601.79	55.88
602.553	55.88
603.317	50.88
604.081	49.88
604.845	43.88
605.609	46.88
606.372	47.88
607.136	43.88
607.899	42.88
608.662	38.88
609.426	35.88
610.189	37.88
610.952	35.88
611.715	31.88
612.478	33.88
613.241	30.88
614.004	30.88
614.767	26.88
615.529	27.88
616.292	27.88
617.055	22.88
617.817	25.88
618.579	24.88
619.342	24.88
620.104	21.88
620.866	21.88
621.628	21.88
622.39	20.88
623.152	18.88
623.914	19.88
624.676	17.88
625.438	18.88
626.199	18.88
626.961	18.88
627.722	18.88
628.484	16.88
629.245	17.88
630.006	14.88
630.768	14.88
631.529	12.88
632.29	13.88
633.051	11.88
633.812	12.88
634.573	12.88
635.333	10.88
636.094	14.88
636.855	10.88
637.615	10.88
638.376	10.88
639.136	10.88
639.896	11.88
640.657	10.88
641.417	9.88
642.177	8.88
642.937	8.88
643.697	8.88
644.457	6.88
645.216	8.88
645.976	8.88
646.736	11.88
647.495	8.88
648.255	8.88
649.014	10.88
649.774	6.88
650.533	8.88
651.292	9.88
652.051	8.88
652.81	8.88
653.569	7.88
654.328	9.88
655.087	6.88
655.846	6.88
656.604	4.88
657.363	7.88
658.121	6.88
658.88	5.88
659.638	6.88
660.397	6.88
661.155	5.88
661.913	4.88
662.671	6.88
663.429	7.88
664.187	6.88
664.945	6.88
665.703	2.88
666.46	6.88
667.218	5.88
667.976	7.88
668.733	6.88
669.49	4.88
670.248	4.88
671.005	3.88
671.762	4.88
672.519	4.88
673.276	6.88
674.033	7.88
674.79	4.88
675.547	4.88
676.304	4.88
677.06	5.88
677.817	6.88
678.574	3.88
679.33	4.88
680.086	2.88
680.843	5.88
681.599	4.88
682.355	5.88
683.111	6.88
683.867	3.88
684.623	5.88
685.379	4.88
686.135	5.88
686.89	3.88
687.646	6.88
688.402	4.88
689.157	4.88
689.912	6.88
690.668	3.88
691.423	8.88
692.178	2.88
692.933	2.88
693.688	5.88
694.443	5.88
695.198	6.88
695.953	2.88
696.708	3.88
697.462	3.88
698.217	3.88
698.972	3.88
699.726	3.88
700.48	7.88
701.235	3.88
701.989	2.88
702.743	4.88
703.497	1.88
704.251	2.88
705.005	4.88
705.759	4.88
706.513	2.88
707.266	2.88
708.02	3.88
708.774	3.88
709.527	3.88
710.28	1.88
711.034	3.88
711.787	4.88
712.54	4.88
713.293	3.88
714.046	2.88
714.799	4.88
715.552	3.88
716.305	3.88
717.058	5.88
717.81	5.88
718.563	4.88
719.315	3.88
720.068	1.88
720.82	4.88
721.573	4.88
722.325	4.88
723.077	3.88
723.829	3.88
724.581	4.88
725.333	5.88
726.085	3.88
726.836	3.88
727.588	6.88
728.34	2.88
729.091	5.88
729.843	5.88
730.594	3.88
731.346	5.88
732.097	3.88
732.848	4.88
733.599	6.88
734.35	4.88
735.101	3.88
735.852	2.88
736.603	4.88
737.354	5.88
738.104	4.88
738.855	5.88
739.605	4.88
740.356	5.88
741.106	3.88
741.856	3.88
742.607	3.88
743.357	6.88
744.107	4.88
744.857	4.88
745.607	5.88
746.357	5.88
747.106	3.88
747.856	5.88
748.606	5.88
749.355	4.88
750.105	6.88
750.854	5.88
751.603	5.88
752.353	5.88
753.102	4.88
753.851	7.88
754.6	4.88
755.349	6.88
756.098	3.88
756.847	5.88
757.595	6.88
758.344	5.88
759.093	5.88
759.841	7.88
760.589	6.88
761.338	7.88
762.086	6.88
762.834	5.88
763.582	6.88
764.331	6.88
765.079	4.88
765.826	7.88
766.574	6.88
767.322	3.88
768.07	7.88
768.817	8.88
769.565	6.88
770.312	5.88
771.06	7.88
771.807	8.88
772.554	5.88
773.302	9.88
774.049	8.88
774.796	6.88
775.543	10.88
776.29	7.88
777.036	9.88
777.783	10.88
778.53	8.88
779.276	9.88
780.023	6.88
780.769	7.88
781.516	5.88
782.262	8.88
783.008	7.88
783.754	11.88
784.5	8.88
785.246	9.88
785.992	9.88
786.738	7.88
787.484	10.88
788.23	9.88
788.975	8.88
789.721	7.88
790.466	6.88
791.212	8.88
791.957	8.88
792.702	9.88
793.447	9.88
794.193	10.88
794.938	7.88
795.683	7.88
796.427	8.88
797.172	9.88
797.917	9.88
798.662	7.88
799.406	7.88
800.151	7.88
800.895	6.88
801.64	9.88
802.384	7.88
803.128	9.88
803.872	7.88
804.616	7.88
805.36	9.88
806.104	6.88
806.848	6.88
807.592	5.88
808.336	7.88
809.079	5.88
809.823	6.88
810.566	6.88
811.31	5.88
812.053	5.88
812.796	7.88
813.539	4.88
814.283	5.88
815.026	6.88
815.769	6.88
816.511	6.88
817.254	6.88
817.997	4.88
818.74	2.88
819.482	7.88
820.225	3.88
820.967	6.88
821.71	4.88
822.452	5.88
823.194	5.88
823.936	3.88
824.678	4.88
825.42	5.88
826.162	7.88
826.904	2.88
827.646	4.88
828.388	3.88
829.129	4.88
829.871	7.88
830.612	4.88
831.354	5.88
832.095	3.88
832.836	3.88
833.577	4.88
834.319	2.88
835.06	4.88
835.801	4.88
836.542	3.88
837.282	5.88
838.023	5.88
838.764	4.88
839.504	4.88
840.245	1.88
840.985	4.88
841.726	3.88
842.466	5.88
843.206	2.88
843.946	4.88
844.687	1.88
845.427	3.88
846.166	2.88
846.906	5.88
847.646	3.88
848.386	4.88
849.125	2.88
849.865	3.88
850.605	4.88
851.344	2.88
852.083	2.88
852.823	3.88
853.562	3.88
854.301	2.88
855.04	4.88
855.779	2.88
856.518	1.88
857.257	-0.12
857.995	2.88
858.734	-0.12
859.473	3.88
860.211	3.88
860.95	1.88
861.688	3.88
862.426	2.88
863.165	2.88
863.903	2.88
864.641	4.88
865.379	2.88
866.117	0.88
866.855	5.88
867.593	3.88
868.33	2.88
869.068	0.88
869.806	1.88
870.543	1.88
871.28	4.88
872.018	2.88
872.755	1.88
873.492	1.88
874.229	1.88
874.967	1.88
875.703	3.88
876.44	1.88
877.177	1.88
877.914	0.88
878.651	-0.12
879.387	1.88
880.124	3.88
880.86	0.88
881.597	1.88
882.333	0.88
883.069	2.88
883.806	4.88
884.542	2.88
885.278	1.88
886.014	1.88
886.749	1.88
887.485	2.88
888.221	0.88
888.957	2.88
889.692	0.88
890.428	3.88
891.163	0.88
891.899	1.88
892.634	3.88
893.369	1.88
894.104	0.88
894.839	2.88
895.574	2.88
896.309	0.88
897.044	3.88
897.779	1.88
898.514	-0.12
899.248	-0.12
899.983	0.88
900.717	2.88
901.452	0.88
902.186	0.88
902.92	1.88
903.654	2.88
904.389	0.88
905.123	0.88
905.857	1.88
906.59	2.88
907.324	0.88
908.058	2.88
908.792	1.88
909.525	0.88
910.259	3.88
910.992	2.88
911.726	-0.12
912.459	3.88
913.192	-1.12
913.925	-0.12
914.658	1.88
915.391	0.88
916.124	-0.12
916.857	1.88
917.59	1.88
918.323	1.88
919.055	-0.12
919.788	-0.12
920.521	1.88
921.253	0.88
921.985	2.88
922.718	0.88
923.45	0.88
924.182	1.88
924.914	0.88
925.646	1.88
926.378	1.88
927.11	-0.12
927.841	1.88
928.573	0.88
929.305	0.88
930.036	2.88
930.768	-1.12
931.499	2.88
932.23	-0.12
932.962	-0.12
933.693	0.88
934.424	-0.12
935.155	-0.12
935.886	1.88
936.617	0.88
937.348	-1.12
938.078	0.88
938.809	1.88
939.54	-0.12
940.27	0.88
941.001	0.88
941.731	-1.12
942.461	0.88
943.191	0.88
943.922	2.88
944.652	-0.12
945.382	0.88
946.112	1.88
946.841	0.88
947.571	-0.12
948.301	1.88
949.031	1.88
949.76	-0.12
950.49	0.88
951.219	0.88
951.948	1.88
952.678	1.88
953.407	-1.12
954.136	0.88
954.865	-0.12
955.594	1.88
956.323	0.88
957.052	0.88
957.78	1.88
958.509	0.88
959.238	2.88
959.966	-0.12
960.695	1.88
961.423	0.88
962.151	1.88
962.88	0.88
963.608	1.88
964.336	0.88
965.064	-1.12
965.792	0.88
966.52	1.88
967.247	-0.12
967.975	0.88
968.703	-1.12
969.43	2.88
970.158	0.88
970.885	-0.12
971.613	0.88
972.34	-1.12
973.067	1.88
973.794	1.88
974.521	-0.12
975.248	0.88
975.975	0.88
976.702	2.88
977.429	-1.12
978.156	2.88
978.882	0.88
979.609	0.88
980.335	0.88
981.062	1.88
981.788	1.88
982.514	1.88
983.24	0.88
983.967	-0.12
984.693	1.88
985.419	1.88
986.144	-1.12
986.87	3.88
987.596	1.88
988.322	2.88
989.047	0.88
989.773	1.88
990.498	1.88
991.224	2.88
991.949	2.88
992.674	-0.12
993.399	1.88
994.124	-1.12
994.849	0.88
995.574	1.88
996.299	0.88
997.024	-1.12
997.749	2.88
998.473	-1.12
999.198	0.88
999.922	1.88
1000.647	0.88
1001.371	3.88
1002.095	-1.12
1002.82	-1.12
1003.544	-2.12
1004.268	0.88
1004.992	2.88
1005.716	0.88
1006.439	4.88
1007.163	2.88
1007.887	2.88
1008.611	-1.12
1009.334	0.88
1010.058	-0.12
1010.781	0.88
1011.504	2.88
1012.228	-0.12
1012.951	0.88
1013.674	-1.12
1014.397	1.88
1015.12	-1.12
