节点500_285_QEPB04081__150__14-58-03-187.txt的数据

Date: Wed Nov 12 14:58:03 CST 2025
User: PC
Spectrometer: QEPB0408
触发模式: 0
积分时间 (秒): 1.000000E-2
Scans to average: 1
启用暗噪声校正: true
启用非线性校正: false
滑动平均宽度: 0
X轴模式: Wavelengths
Number of Pixels in Spectrum: 1044
>>>>>Begin Spectral Data<<<<<
220.843	2.88
221.644	0.88
222.444	0.88
223.244	2.88
224.045	1.88
224.845	2.88
225.645	1.88
226.445	2.88
227.245	-0.12
228.045	-0.12
228.845	2.88
229.645	2.88
230.444	1.88
231.244	0.88
232.043	3.88
232.843	4.88
233.642	5.88
234.442	0.88
235.241	0.88
236.04	4.88
236.839	1.88
237.638	4.88
238.437	3.88
239.236	0.88
240.035	2.88
240.833	3.88
241.632	2.88
242.43	3.88
243.229	4.88
244.027	4.88
244.826	1.88
245.624	4.88
246.422	5.88
247.22	6.88
248.018	6.88
248.816	7.88
249.614	7.88
250.412	3.88
251.21	5.88
252.007	3.88
252.805	5.88
253.602	6.88
254.4	7.88
255.197	5.88
255.994	6.88
256.791	8.88
257.589	9.88
258.386	7.88
259.183	9.88
259.979	8.88
260.776	10.88
261.573	11.88
262.37	8.88
263.166	9.88
263.963	10.88
264.759	12.88
265.556	11.88
266.352	11.88
267.148	12.88
267.944	15.88
268.74	12.88
269.536	14.88
270.332	15.88
271.128	15.88
271.924	17.88
272.719	17.88
273.515	15.88
274.311	16.88
275.106	17.88
275.901	16.88
276.697	20.88
277.492	17.88
278.287	19.88
279.082	16.88
279.877	19.88
280.672	17.88
281.467	15.88
282.262	21.88
283.056	19.88
283.851	19.88
284.646	17.88
285.44	18.88
286.234	17.88
287.029	19.88
287.823	18.88
288.617	16.88
289.411	18.88
290.205	17.88
290.999	18.88
291.793	17.88
292.587	15.88
293.381	16.88
294.174	16.88
294.968	18.88
295.761	16.88
296.555	13.88
297.348	14.88
298.141	15.88
298.935	14.88
299.728	12.88
300.521	14.88
301.314	14.88
302.107	12.88
302.899	12.88
303.692	12.88
304.485	13.88
305.277	10.88
306.07	11.88
306.862	10.88
307.655	12.88
308.447	12.88
309.239	10.88
310.031	11.88
310.823	9.88
311.615	8.88
312.407	10.88
313.199	8.88
313.991	7.88
314.783	8.88
315.574	11.88
316.366	6.88
317.157	6.88
317.949	10.88
318.74	8.88
319.531	8.88
320.322	7.88
321.113	7.88
321.904	8.88
322.695	4.88
323.486	6.88
324.277	7.88
325.068	6.88
325.858	5.88
326.649	6.88
327.439	8.88
328.23	6.88
329.02	6.88
329.81	5.88
330.6	6.88
331.391	6.88
332.181	5.88
332.971	5.88
333.76	6.88
334.55	5.88
335.34	4.88
336.13	7.88
336.919	6.88
337.709	4.88
338.498	8.88
339.287	5.88
340.077	5.88
340.866	6.88
341.655	2.88
342.444	5.88
343.233	4.88
344.022	6.88
344.811	3.88
345.6	3.88
346.388	4.88
347.177	3.88
347.965	9.88
348.754	3.88
349.542	6.88
350.33	6.88
351.119	4.88
351.907	5.88
352.695	5.88
353.483	5.88
354.271	4.88
355.059	5.88
355.846	3.88
356.634	4.88
357.422	7.88
358.209	6.88
358.997	4.88
359.784	7.88
360.571	4.88
361.359	5.88
362.146	5.88
362.933	3.88
363.72	4.88
364.507	4.88
365.294	6.88
366.081	2.88
366.867	5.88
367.654	3.88
368.44	5.88
369.227	5.88
370.013	5.88
370.8	4.88
371.586	5.88
372.372	4.88
373.158	4.88
373.944	3.88
374.73	5.88
375.516	2.88
376.302	3.88
377.088	4.88
377.873	2.88
378.659	6.88
379.445	5.88
380.23	3.88
381.015	3.88
381.801	4.88
382.586	5.88
383.371	4.88
384.156	5.88
384.941	6.88
385.726	4.88
386.511	4.88
387.296	3.88
388.08	4.88
388.865	3.88
389.649	5.88
390.434	5.88
391.218	8.88
392.003	2.88
392.787	3.88
393.571	3.88
394.355	4.88
395.139	4.88
395.923	5.88
396.707	7.88
397.491	8.88
398.274	6.88
399.058	5.88
399.842	5.88
400.625	6.88
401.408	6.88
402.192	8.88
402.975	6.88
403.758	6.88
404.541	5.88
405.324	4.88
406.107	7.88
406.89	5.88
407.673	7.88
408.456	3.88
409.238	8.88
410.021	7.88
410.803	8.88
411.586	8.88
412.368	9.88
413.151	7.88
413.933	10.88
414.715	10.88
415.497	7.88
416.279	8.88
417.061	7.88
417.843	10.88
418.624	10.88
419.406	8.88
420.188	10.88
420.969	8.88
421.751	10.88
422.532	9.88
423.313	10.88
424.095	11.88
424.876	12.88
425.657	10.88
426.438	9.88
427.219	10.88
428	12.88
428.78	15.88
429.561	12.88
430.342	11.88
431.122	13.88
431.903	12.88
432.683	15.88
433.464	18.88
434.244	18.88
435.024	16.88
435.804	18.88
436.584	18.88
437.364	18.88
438.144	16.88
438.924	17.88
439.704	22.88
440.483	23.88
441.263	22.88
442.042	26.88
442.822	24.88
443.601	31.88
444.38	31.88
445.16	31.88
445.939	34.88
446.718	36.88
447.497	37.88
448.276	38.88
449.054	46.88
449.833	45.88
450.612	48.88
451.391	56.88
452.169	59.88
452.948	67.88
453.726	70.88
454.504	76.88
455.282	83.88
456.061	95.88
456.839	103.88
457.617	115.88
458.395	127.88
459.172	144.88
459.95	155.88
460.728	174.88
461.506	195.88
462.283	216.88
463.061	245.88
463.838	277.88
464.615	305.88
465.393	344.88
466.17	388.88
466.947	432.88
467.724	481.88
468.501	534.88
469.278	593.88
470.055	663.88
470.831	739.88
471.608	818.88
472.385	929.88
473.161	1017.88
473.938	1147.88
474.714	1260.88
475.49	1410.88
476.266	1556.88
477.043	1726.88
477.819	1915.88
478.595	2112.88
479.371	2324.88
480.146	2598.88
480.922	2865.88
481.698	3194.88
482.473	3521.88
483.249	3882.88
484.024	4288.88
484.8	4723.88
485.575	5198.88
486.35	5718.88
487.126	6332.88
487.901	6971.88
488.676	7646.88
489.451	8371.88
490.225	9220.88
491	10062.88
491.775	11026.88
492.55	12040.88
493.324	13092.88
494.099	14070.88
494.873	15232.88
495.647	16413.88
496.422	17653.88
497.196	18955.88
497.97	20199.88
498.744	21462.88
499.518	22649.88
500.292	23813.88
501.066	24871.88
501.839	25859.88
502.613	26677.88
503.387	27447.88
504.16	28088.88
504.934	28236.88
505.707	28343.88
506.48	28311.88
507.253	28120.88
508.027	27675.88
508.8	27302.88
509.573	26760.88
510.346	25995.88
511.118	25121.88
511.891	24355.88
512.664	23414.88
513.437	22415.88
514.209	21399.88
514.982	20496.88
515.754	19601.88
516.526	18711.88
517.298	17888.88
518.071	17084.88
518.843	16427.88
519.615	15790.88
520.387	15168.88
521.159	14550.88
521.93	13929.88
522.702	13420.88
523.474	12890.88
524.245	12328.88
525.017	11796.88
525.788	11310.88
526.56	10827.88
527.331	10258.88
528.102	9834.88
528.873	9331.88
529.644	8846.88
530.415	8436.88
531.186	7963.88
531.957	7530.88
532.728	7189.88
533.498	6784.88
534.269	6396.88
535.039	6019.88
535.81	5674.88
536.58	5373.88
537.351	5059.88
538.121	4761.88
538.891	4525.88
539.661	4266.88
540.431	4019.88
541.201	3822.88
541.971	3602.88
542.741	3447.88
543.51	3255.88
544.28	3108.88
545.05	2955.88
545.819	2806.88
546.588	2680.88
547.358	2552.88
548.127	2402.88
548.896	2270.88
549.665	2170.88
550.434	2047.88
551.203	1920.88
551.972	1819.88
552.741	1719.88
553.51	1648.88
554.278	1545.88
555.047	1468.88
555.815	1385.88
556.584	1285.88
557.352	1226.88
558.121	1159.88
558.889	1087.88
559.657	1028.88
560.425	973.88
561.193	917.88
561.961	866.88
562.729	805.88
563.496	774.88
564.264	734.88
565.032	705.88
565.799	651.88
566.567	613.88
567.334	582.88
568.101	549.88
568.869	515.88
569.636	489.88
570.403	460.88
571.17	427.88
571.937	408.88
572.704	387.88
573.471	363.88
574.237	345.88
575.004	319.88
575.771	305.88
576.537	288.88
577.303	278.88
578.07	258.88
578.836	239.88
579.602	226.88
580.368	216.88
581.134	205.88
581.9	193.88
582.666	186.88
583.432	171.88
584.198	160.88
584.964	153.88
585.729	144.88
586.495	140.88
587.26	132.88
588.025	121.88
588.791	119.88
589.556	111.88
590.321	104.88
591.086	101.88
591.851	92.88
592.616	90.88
593.381	84.88
594.146	81.88
594.911	77.88
595.675	77.88
596.44	71.88
597.204	70.88
597.969	67.88
598.733	60.88
599.497	58.88
600.261	54.88
601.025	54.88
601.79	49.88
602.553	52.88
603.317	50.88
604.081	45.88
604.845	45.88
605.609	41.88
606.372	38.88
607.136	38.88
607.899	32.88
608.662	32.88
609.426	35.88
610.189	34.88
610.952	29.88
611.715	34.88
612.478	28.88
613.241	25.88
614.004	26.88
614.767	28.88
615.529	26.88
616.292	24.88
617.055	23.88
617.817	23.88
618.579	20.88
619.342	21.88
620.104	18.88
620.866	18.88
621.628	21.88
622.39	20.88
623.152	16.88
623.914	15.88
624.676	16.88
625.438	16.88
626.199	13.88
626.961	14.88
627.722	14.88
628.484	14.88
629.245	14.88
630.006	13.88
630.768	13.88
631.529	11.88
632.29	12.88
633.051	10.88
633.812	8.88
634.573	10.88
635.333	10.88
636.094	10.88
636.855	10.88
637.615	10.88
638.376	9.88
639.136	10.88
639.896	11.88
640.657	9.88
641.417	9.88
642.177	8.88
642.937	8.88
643.697	7.88
644.457	7.88
645.216	7.88
645.976	5.88
646.736	7.88
647.495	8.88
648.255	5.88
649.014	4.88
649.774	5.88
650.533	5.88
651.292	5.88
652.051	6.88
652.81	4.88
653.569	4.88
654.328	7.88
655.087	5.88
655.846	4.88
656.604	6.88
657.363	6.88
658.121	4.88
658.88	4.88
659.638	4.88
660.397	2.88
661.155	5.88
661.913	4.88
662.671	5.88
663.429	4.88
664.187	3.88
664.945	5.88
665.703	3.88
666.46	7.88
667.218	4.88
667.976	3.88
668.733	3.88
669.49	2.88
670.248	3.88
671.005	2.88
671.762	2.88
672.519	4.88
673.276	3.88
674.033	4.88
674.79	4.88
675.547	1.88
676.304	4.88
677.06	5.88
677.817	2.88
678.574	3.88
679.33	3.88
680.086	5.88
680.843	3.88
681.599	5.88
682.355	3.88
683.111	3.88
683.867	2.88
684.623	0.88
685.379	4.88
686.135	4.88
686.89	3.88
687.646	0.88
688.402	3.88
689.157	3.88
689.912	1.88
690.668	4.88
691.423	0.88
692.178	3.88
692.933	3.88
693.688	3.88
694.443	4.88
695.198	2.88
695.953	1.88
696.708	3.88
697.462	2.88
698.217	3.88
698.972	1.88
699.726	3.88
700.48	2.88
701.235	3.88
701.989	2.88
702.743	2.88
703.497	2.88
704.251	3.88
705.005	2.88
705.759	0.88
706.513	5.88
707.266	4.88
708.02	2.88
708.774	5.88
709.527	2.88
710.28	2.88
711.034	1.88
711.787	3.88
712.54	2.88
713.293	2.88
714.046	1.88
714.799	1.88
715.552	4.88
716.305	0.88
717.058	4.88
717.81	2.88
718.563	3.88
719.315	1.88
720.068	3.88
720.82	1.88
721.573	3.88
722.325	3.88
723.077	1.88
723.829	2.88
724.581	3.88
725.333	1.88
726.085	4.88
726.836	4.88
727.588	2.88
728.34	4.88
729.091	0.88
729.843	2.88
730.594	2.88
731.346	5.88
732.097	5.88
732.848	2.88
733.599	4.88
734.35	2.88
735.101	2.88
735.852	6.88
736.603	1.88
737.354	4.88
738.104	4.88
738.855	4.88
739.605	6.88
740.356	3.88
741.106	3.88
741.856	4.88
742.607	5.88
743.357	5.88
744.107	6.88
744.857	4.88
745.607	3.88
746.357	5.88
747.106	2.88
747.856	5.88
748.606	4.88
749.355	5.88
750.105	3.88
750.854	5.88
751.603	4.88
752.353	3.88
753.102	4.88
753.851	4.88
754.6	3.88
755.349	5.88
756.098	5.88
756.847	4.88
757.595	7.88
758.344	5.88
759.093	5.88
759.841	6.88
760.589	9.88
761.338	4.88
762.086	7.88
762.834	5.88
763.582	4.88
764.331	6.88
765.079	4.88
765.826	4.88
766.574	5.88
767.322	7.88
768.07	3.88
768.817	8.88
769.565	7.88
770.312	6.88
771.06	6.88
771.807	5.88
772.554	7.88
773.302	6.88
774.049	7.88
774.796	8.88
775.543	7.88
776.29	9.88
777.036	9.88
777.783	8.88
778.53	9.88
779.276	8.88
780.023	7.88
780.769	9.88
781.516	6.88
782.262	8.88
783.008	7.88
783.754	8.88
784.5	9.88
785.246	9.88
785.992	8.88
786.738	8.88
787.484	8.88
788.23	9.88
788.975	8.88
789.721	9.88
790.466	6.88
791.212	6.88
791.957	6.88
792.702	8.88
793.447	8.88
794.193	9.88
794.938	7.88
795.683	8.88
796.427	11.88
797.172	6.88
797.917	4.88
798.662	7.88
799.406	5.88
800.151	6.88
800.895	7.88
801.64	9.88
802.384	6.88
803.128	4.88
803.872	6.88
804.616	6.88
805.36	4.88
806.104	6.88
806.848	5.88
807.592	5.88
808.336	5.88
809.079	6.88
809.823	4.88
810.566	7.88
811.31	5.88
812.053	6.88
812.796	4.88
813.539	4.88
814.283	3.88
815.026	6.88
815.769	5.88
816.511	4.88
817.254	2.88
817.997	3.88
818.74	3.88
819.482	5.88
820.225	4.88
820.967	5.88
821.71	5.88
822.452	2.88
823.194	4.88
823.936	3.88
824.678	4.88
825.42	4.88
826.162	3.88
826.904	5.88
827.646	1.88
828.388	3.88
829.129	2.88
829.871	3.88
830.612	2.88
831.354	5.88
832.095	4.88
832.836	2.88
833.577	3.88
834.319	1.88
835.06	2.88
835.801	2.88
836.542	2.88
837.282	2.88
838.023	3.88
838.764	3.88
839.504	4.88
840.245	1.88
840.985	2.88
841.726	1.88
842.466	3.88
843.206	2.88
843.946	1.88
844.687	3.88
845.427	3.88
846.166	2.88
846.906	3.88
847.646	2.88
848.386	2.88
849.125	-0.12
849.865	0.88
850.605	-0.12
851.344	2.88
852.083	0.88
852.823	2.88
853.562	2.88
854.301	2.88
855.04	1.88
855.779	0.88
856.518	2.88
857.257	2.88
857.995	3.88
858.734	2.88
859.473	1.88
860.211	2.88
860.95	-0.12
861.688	3.88
862.426	1.88
863.165	0.88
863.903	5.88
864.641	1.88
865.379	1.88
866.117	1.88
866.855	1.88
867.593	1.88
868.33	-3.12
869.068	0.88
869.806	0.88
870.543	0.88
871.28	1.88
872.018	1.88
872.755	2.88
873.492	-0.12
874.229	0.88
874.967	2.88
875.703	0.88
876.44	-1.12
877.177	2.88
877.914	0.88
878.651	-1.12
879.387	-0.12
880.124	0.88
880.86	0.88
881.597	1.88
882.333	-1.12
883.069	0.88
883.806	-0.12
884.542	0.88
885.278	-0.12
886.014	-0.12
886.749	0.88
887.485	0.88
888.221	1.88
888.957	-0.12
889.692	1.88
890.428	-0.12
891.163	1.88
891.899	0.88
892.634	0.88
893.369	0.88
894.104	-1.12
894.839	0.88
895.574	0.88
896.309	1.88
897.044	2.88
897.779	-1.12
898.514	-1.12
899.248	-0.12
899.983	0.88
900.717	2.88
901.452	-0.12
902.186	-0.12
902.92	-0.12
903.654	-0.12
904.389	-1.12
905.123	0.88
905.857	0.88
906.59	0.88
907.324	-0.12
908.058	1.88
908.792	0.88
909.525	0.88
910.259	0.88
910.992	-1.12
911.726	0.88
912.459	1.88
913.192	-1.12
913.925	-1.12
914.658	0.88
915.391	-0.12
916.124	1.88
916.857	-0.12
917.59	0.88
918.323	0.88
919.055	-2.12
919.788	-1.12
920.521	0.88
921.253	1.88
921.985	-1.12
922.718	-0.12
923.45	-0.12
924.182	0.88
924.914	-2.12
925.646	2.88
926.378	1.88
927.11	0.88
927.841	0.88
928.573	-0.12
929.305	-1.12
930.036	0.88
930.768	-1.12
931.499	0.88
932.23	0.88
932.962	-0.12
933.693	-1.12
934.424	-2.12
935.155	-4.12
935.886	0.88
936.617	-0.12
937.348	-0.12
938.078	-1.12
938.809	-3.12
939.54	-1.12
940.27	-1.12
941.001	0.88
941.731	-1.12
942.461	0.88
943.191	-0.12
943.922	-2.12
944.652	1.88
945.382	-1.12
946.112	0.88
946.841	1.88
947.571	-2.12
948.301	-1.12
949.031	-0.12
949.76	0.88
950.49	-1.12
951.219	0.88
951.948	-2.12
952.678	-1.12
953.407	0.88
954.136	-3.12
954.865	0.88
955.594	-0.12
956.323	-2.12
957.052	1.88
957.78	-3.12
958.509	-0.12
959.238	-0.12
959.966	0.88
960.695	0.88
961.423	-2.12
962.151	-0.12
962.88	-1.12
963.608	1.88
964.336	-0.12
965.064	0.88
965.792	0.88
966.52	-0.12
967.247	0.88
967.975	0.88
968.703	0.88
969.43	-2.12
970.158	-1.12
970.885	2.88
971.613	-2.12
972.34	-0.12
973.067	-0.12
973.794	0.88
974.521	-0.12
975.248	-0.12
975.975	-2.12
976.702	-2.12
977.429	1.88
978.156	-0.12
978.882	-2.12
979.609	-0.12
980.335	-1.12
981.062	-0.12
981.788	0.88
982.514	0.88
983.24	0.88
983.967	-1.12
984.693	0.88
985.419	-1.12
986.144	-0.12
986.87	-0.12
987.596	-2.12
988.322	1.88
989.047	-4.12
989.773	-1.12
990.498	0.88
991.224	-0.12
991.949	0.88
992.674	-0.12
993.399	-1.12
994.124	-0.12
994.849	-0.12
995.574	-1.12
996.299	-1.12
997.024	-0.12
997.749	-1.12
998.473	0.88
999.198	-1.12
999.922	-1.12
1000.647	-0.12
1001.371	4.88
1002.095	-1.12
1002.82	-0.12
1003.544	0.88
1004.268	1.88
1004.992	-1.12
1005.716	2.88
1006.439	-0.12
1007.163	2.88
1007.887	0.88
1008.611	-0.12
1009.334	0.88
1010.058	-0.12
1010.781	0.88
1011.504	-0.12
1012.228	-1.12
1012.951	-1.12
1013.674	-2.12
1014.397	-0.12
1015.12	-1.12
