节点500_285_QEPB04081__510__15-04-02-358.txt的数据

Date: Wed Nov 12 15:04:02 CST 2025
User: PC
Spectrometer: QEPB0408
触发模式: 0
积分时间 (秒): 1.000000E-2
Scans to average: 1
启用暗噪声校正: true
启用非线性校正: false
滑动平均宽度: 0
X轴模式: Wavelengths
Number of Pixels in Spectrum: 1044
>>>>>Begin Spectral Data<<<<<
220.843	3
221.644	1
222.444	2
223.244	2
224.045	3
224.845	6
225.645	4
226.445	0
227.245	4
228.045	5
228.845	5
229.645	2
230.444	4
231.244	6
232.043	1
232.843	2
233.642	2
234.442	4
235.241	4
236.04	2
236.839	4
237.638	2
238.437	4
239.236	4
240.035	4
240.833	4
241.632	3
242.43	7
243.229	4
244.027	4
244.826	5
245.624	6
246.422	6
247.22	5
248.018	6
248.816	6
249.614	7
250.412	4
251.21	8
252.007	7
252.805	7
253.602	7
254.4	9
255.197	5
255.994	9
256.791	7
257.589	8
258.386	10
259.183	11
259.979	12
260.776	10
261.573	12
262.37	10
263.166	13
263.963	12
264.759	11
265.556	10
266.352	11
267.148	15
267.944	12
268.74	14
269.536	14
270.332	14
271.128	14
271.924	13
272.719	15
273.515	13
274.311	16
275.106	14
275.901	18
276.697	17
277.492	15
278.287	18
279.082	16
279.877	16
280.672	17
281.467	18
282.262	20
283.056	18
283.851	18
284.646	19
285.44	19
286.234	18
287.029	18
287.823	20
288.617	18
289.411	17
290.205	19
290.999	17
291.793	19
292.587	17
293.381	18
294.174	17
294.968	17
295.761	16
296.555	14
297.348	15
298.141	17
298.935	16
299.728	14
300.521	14
301.314	15
302.107	14
302.899	13
303.692	12
304.485	12
305.277	11
306.07	10
306.862	12
307.655	12
308.447	10
309.239	14
310.031	9
310.823	13
311.615	10
312.407	9
313.199	8
313.991	9
314.783	10
315.574	9
316.366	10
317.157	9
317.949	9
318.74	6
319.531	7
320.322	7
321.113	6
321.904	7
322.695	8
323.486	9
324.277	8
325.068	6
325.858	9
326.649	6
327.439	5
328.23	6
329.02	7
329.81	6
330.6	6
331.391	6
332.181	5
332.971	8
333.76	8
334.55	7
335.34	7
336.13	3
336.919	7
337.709	8
338.498	6
339.287	6
340.077	8
340.866	7
341.655	7
342.444	7
343.233	5
344.022	5
344.811	6
345.6	5
346.388	7
347.177	8
347.965	6
348.754	9
349.542	4
350.33	6
351.119	5
351.907	6
352.695	8
353.483	6
354.271	6
355.059	7
355.846	6
356.634	5
357.422	3
358.209	6
358.997	6
359.784	6
360.571	4
361.359	6
362.146	4
362.933	6
363.72	8
364.507	5
365.294	5
366.081	6
366.867	7
367.654	3
368.44	4
369.227	4
370.013	7
370.8	3
371.586	2
372.372	5
373.158	6
373.944	3
374.73	4
375.516	6
376.302	7
377.088	4
377.873	5
378.659	5
379.445	2
380.23	5
381.015	7
381.801	7
382.586	4
383.371	8
384.156	2
384.941	3
385.726	6
386.511	7
387.296	6
388.08	7
388.865	7
389.649	6
390.434	8
391.218	6
392.003	4
392.787	4
393.571	5
394.355	6
395.139	6
395.923	4
396.707	6
397.491	6
398.274	7
399.058	10
399.842	8
400.625	4
401.408	10
402.192	9
402.975	8
403.758	6
404.541	7
405.324	5
406.107	9
406.89	7
407.673	9
408.456	6
409.238	8
410.021	9
410.803	10
411.586	10
412.368	10
413.151	8
413.933	8
414.715	7
415.497	9
416.279	8
417.061	9
417.843	10
418.624	8
419.406	10
420.188	8
420.969	10
421.751	11
422.532	12
423.313	12
424.095	13
424.876	14
425.657	13
426.438	13
427.219	15
428	12
428.78	14
429.561	16
430.342	12
431.122	13
431.903	17
432.683	15
433.464	15
434.244	17
435.024	16
435.804	17
436.584	16
437.364	21
438.144	19
438.924	22
439.704	23
440.483	23
441.263	25
442.042	25
442.822	28
443.601	30
444.38	29
445.16	31
445.939	36
446.718	35
447.497	40
448.276	40
449.054	44
449.833	53
450.612	53
451.391	59
452.169	64
452.948	70
453.726	75
454.504	85
455.282	93
456.061	106
456.839	115
457.617	128
458.395	142
459.172	160
459.95	180
460.728	194
461.506	215
462.283	243
463.061	269
463.838	297
464.615	331
465.393	375
466.17	421
466.947	465
467.724	513
468.501	575
469.278	637
470.055	705
470.831	789
471.608	885
472.385	970
473.161	1066
473.938	1186
474.714	1303
475.49	1446
476.266	1593
477.043	1752
477.819	1929
478.595	2143
479.371	2340
480.146	2571
480.922	2828
481.698	3111
482.473	3453
483.249	3762
484.024	4121
484.8	4543
485.575	4955
486.35	5442
487.126	5963
487.901	6537
488.676	7124
489.451	7785
490.225	8477
491	9247
491.775	10059
492.55	10944
493.324	11880
494.099	12740
494.873	13748
495.647	14813
496.422	15890
497.196	16994
497.97	18108
498.744	19252
499.518	20457
500.292	21539
501.066	22602
501.839	23500
502.613	24463
503.387	25200
504.16	25907
504.934	26328
505.707	26454
506.48	26680
507.253	26685
508.027	26497
508.8	26226
509.573	26018
510.346	25460
511.118	24809
511.891	24147
512.664	23311
513.437	22484
514.209	21569
514.982	20761
515.754	19822
516.526	19032
517.298	18224
518.071	17401
518.843	16771
519.615	16119
520.387	15478
521.159	14902
521.93	14261
522.702	13716
523.474	13129
524.245	12544
525.017	12061
525.788	11610
526.56	11102
527.331	10580
528.102	10112
528.873	9653
529.644	9180
530.415	8745
531.186	8307
531.957	7897
532.728	7494
533.498	7113
534.269	6724
535.039	6326
535.81	6019
536.58	5672
537.351	5336
538.121	5063
538.891	4794
539.661	4542
540.431	4282
541.201	4043
541.971	3824
542.741	3631
543.51	3442
544.28	3267
545.05	3119
545.819	2951
546.588	2837
547.358	2676
548.127	2559
548.896	2418
549.665	2312
550.434	2180
551.203	2054
551.972	1958
552.741	1831
553.51	1751
554.278	1664
555.047	1565
555.815	1453
556.584	1377
557.352	1314
558.121	1246
558.889	1177
559.657	1116
560.425	1036
561.193	988
561.961	928
562.729	879
563.496	838
564.264	775
565.032	738
565.799	710
566.567	669
567.334	629
568.101	594
568.869	553
569.636	520
570.403	490
571.17	463
571.937	443
572.704	417
573.471	394
574.237	372
575.004	353
575.771	327
576.537	302
577.303	297
578.07	278
578.836	249
579.602	247
580.368	226
581.134	217
581.9	206
582.666	200
583.432	182
584.198	175
584.964	168
585.729	159
586.495	154
587.26	143
588.025	139
588.791	124
589.556	122
590.321	113
591.086	106
591.851	102
592.616	98
593.381	94
594.146	88
594.911	86
595.675	82
596.44	77
597.204	72
597.969	69
598.733	68
599.497	66
600.261	61
601.025	62
601.79	56
602.553	52
603.317	51
604.081	50
604.845	49
605.609	43
606.372	47
607.136	41
607.899	41
608.662	38
609.426	36
610.189	34
610.952	33
611.715	36
612.478	32
613.241	30
614.004	30
614.767	29
615.529	25
616.292	25
617.055	25
617.817	23
618.579	25
619.342	25
620.104	21
620.866	22
621.628	21
622.39	22
623.152	19
623.914	18
624.676	17
625.438	16
626.199	18
626.961	17
627.722	14
628.484	17
629.245	15
630.006	15
630.768	15
631.529	15
632.29	14
633.051	12
633.812	14
634.573	11
635.333	11
636.094	12
636.855	12
637.615	15
638.376	11
639.136	11
639.896	9
640.657	10
641.417	10
642.177	10
642.937	11
643.697	10
644.457	7
645.216	8
645.976	7
646.736	9
647.495	7
648.255	9
649.014	5
649.774	7
650.533	9
651.292	7
652.051	7
652.81	8
653.569	6
654.328	6
655.087	5
655.846	8
656.604	7
657.363	7
658.121	8
658.88	6
659.638	7
660.397	6
661.155	5
661.913	6
662.671	8
663.429	4
664.187	4
664.945	7
665.703	5
666.46	6
667.218	7
667.976	8
668.733	4
669.49	6
670.248	6
671.005	5
671.762	7
672.519	5
673.276	6
674.033	4
674.79	2
675.547	4
676.304	4
677.06	4
677.817	4
678.574	5
679.33	4
680.086	3
680.843	3
681.599	3
682.355	4
683.111	6
683.867	6
684.623	6
685.379	2
686.135	3
686.89	2
687.646	6
688.402	4
689.157	3
689.912	3
690.668	3
691.423	5
692.178	3
692.933	6
693.688	4
694.443	5
695.198	3
695.953	5
696.708	6
697.462	4
698.217	5
698.972	2
699.726	2
700.48	5
701.235	1
701.989	4
702.743	5
703.497	3
704.251	5
705.005	3
705.759	4
706.513	2
707.266	5
708.02	1
708.774	2
709.527	4
710.28	2
711.034	2
711.787	3
712.54	5
713.293	4
714.046	2
714.799	4
715.552	1
716.305	4
717.058	5
717.81	2
718.563	3
719.315	4
720.068	4
720.82	2
721.573	4
722.325	3
723.077	5
723.829	5
724.581	5
725.333	5
726.085	6
726.836	5
727.588	4
728.34	5
729.091	4
729.843	3
730.594	5
731.346	6
732.097	3
732.848	5
733.599	7
734.35	2
735.101	4
735.852	3
736.603	3
737.354	2
738.104	4
738.855	4
739.605	7
740.356	3
741.106	5
741.856	4
742.607	5
743.357	5
744.107	2
744.857	8
745.607	5
746.357	5
747.106	4
747.856	7
748.606	6
749.355	4
750.105	3
750.854	4
751.603	6
752.353	5
753.102	7
753.851	7
754.6	5
755.349	7
756.098	4
756.847	4
757.595	6
758.344	8
759.093	7
759.841	7
760.589	4
761.338	4
762.086	7
762.834	7
763.582	7
764.331	8
765.079	5
765.826	8
766.574	8
767.322	6
768.07	9
768.817	7
769.565	7
770.312	8
771.06	7
771.807	8
772.554	7
773.302	10
774.049	7
774.796	8
775.543	10
776.29	7
777.036	8
777.783	7
778.53	9
779.276	8
780.023	9
780.769	7
781.516	9
782.262	10
783.008	9
783.754	7
784.5	10
785.246	7
785.992	8
786.738	9
787.484	10
788.23	9
788.975	8
789.721	10
790.466	10
791.212	10
791.957	8
792.702	9
793.447	9
794.193	10
794.938	8
795.683	8
796.427	9
797.172	7
797.917	9
798.662	7
799.406	10
800.151	8
800.895	9
801.64	8
802.384	9
803.128	8
803.872	12
804.616	9
805.36	6
806.104	8
806.848	6
807.592	3
808.336	7
809.079	8
809.823	6
810.566	8
811.31	7
812.053	6
812.796	5
813.539	6
814.283	6
815.026	4
815.769	5
816.511	7
817.254	5
817.997	5
818.74	5
819.482	6
820.225	3
820.967	5
821.71	2
822.452	3
823.194	5
823.936	3
824.678	3
825.42	5
826.162	6
826.904	4
827.646	3
828.388	6
829.129	5
829.871	3
830.612	2
831.354	5
832.095	5
832.836	4
833.577	5
834.319	4
835.06	4
835.801	3
836.542	5
837.282	5
838.023	4
838.764	6
839.504	2
840.245	5
840.985	5
841.726	4
842.466	2
843.206	3
843.946	5
844.687	5
845.427	4
846.166	4
846.906	3
847.646	4
848.386	3
849.125	2
849.865	3
850.605	3
851.344	4
852.083	5
852.823	4
853.562	5
854.301	3
855.04	3
855.779	4
856.518	1
857.257	2
857.995	5
858.734	2
859.473	3
860.211	1
860.95	3
861.688	2
862.426	1
863.165	3
863.903	2
864.641	2
865.379	2
866.117	0
866.855	2
867.593	4
868.33	4
869.068	4
869.806	1
870.543	1
871.28	2
872.018	3
872.755	2
873.492	4
874.229	1
874.967	1
875.703	2
876.44	3
877.177	4
877.914	2
878.651	-1
879.387	1
880.124	2
880.86	0
881.597	3
882.333	0
883.069	0
883.806	1
884.542	0
885.278	1
886.014	1
886.749	2
887.485	2
888.221	1
888.957	1
889.692	3
890.428	3
891.163	2
891.899	0
892.634	0
893.369	2
894.104	1
894.839	2
895.574	1
896.309	1
897.044	1
897.779	0
898.514	2
899.248	0
899.983	2
900.717	-2
901.452	1
902.186	2
902.92	1
903.654	2
904.389	-2
905.123	2
905.857	0
906.59	3
907.324	-1
908.058	2
908.792	1
909.525	2
910.259	2
910.992	-1
911.726	0
912.459	1
913.192	1
913.925	1
914.658	1
915.391	0
916.124	0
916.857	3
917.59	1
918.323	0
919.055	0
919.788	1
920.521	-1
921.253	1
921.985	1
922.718	-1
923.45	2
924.182	0
924.914	0
925.646	2
926.378	2
927.11	-2
927.841	2
928.573	1
929.305	0
930.036	-2
930.768	0
931.499	1
932.23	1
932.962	1
933.693	2
934.424	-1
935.155	-1
935.886	0
936.617	1
937.348	-1
938.078	-1
938.809	0
939.54	-1
940.27	2
941.001	0
941.731	2
942.461	0
943.191	1
943.922	2
944.652	0
945.382	1
946.112	0
946.841	1
947.571	-2
948.301	2
949.031	0
949.76	0
950.49	0
951.219	0
951.948	0
952.678	3
953.407	1
954.136	2
954.865	0
955.594	2
956.323	0
957.052	2
957.78	0
958.509	0
959.238	1
959.966	0
960.695	0
961.423	0
962.151	-1
962.88	1
963.608	1
964.336	0
965.064	-1
965.792	1
966.52	1
967.247	-2
967.975	1
968.703	0
969.43	1
970.158	1
970.885	1
971.613	0
972.34	-1
973.067	-1
973.794	1
974.521	-1
975.248	-2
975.975	-1
976.702	2
977.429	-1
978.156	-1
978.882	1
979.609	2
980.335	-1
981.062	1
981.788	2
982.514	-1
983.24	-2
983.967	1
984.693	-1
985.419	0
986.144	1
986.87	2
987.596	1
988.322	1
989.047	0
989.773	1
990.498	1
991.224	1
991.949	2
992.674	0
993.399	3
994.124	0
994.849	2
995.574	1
996.299	-1
997.024	3
997.749	2
998.473	0
999.198	0
999.922	2
1000.647	1
1001.371	3
1002.095	0
1002.82	0
1003.544	-1
1004.268	3
1004.992	1
1005.716	2
1006.439	2
1007.163	1
1007.887	3
1008.611	0
1009.334	1
1010.058	-2
1010.781	-2
1011.504	2
1012.228	0
1012.951	0
1013.674	0
1014.397	0
1015.12	-2
