节点500_285_QEPB04081__102__14-57-15-285.txt的数据

Date: Wed Nov 12 14:57:15 CST 2025
User: PC
Spectrometer: QEPB0408
触发模式: 0
积分时间 (秒): 1.000000E-2
Scans to average: 1
启用暗噪声校正: true
启用非线性校正: false
滑动平均宽度: 0
X轴模式: Wavelengths
Number of Pixels in Spectrum: 1044
>>>>>Begin Spectral Data<<<<<
220.843	0.62
221.644	3.62
222.444	-0.38
223.244	0.62
224.045	3.62
224.845	0.62
225.645	1.62
226.445	5.62
227.245	1.62
228.045	1.62
228.845	3.62
229.645	2.62
230.444	3.62
231.244	3.62
232.043	2.62
232.843	1.62
233.642	3.62
234.442	0.62
235.241	2.62
236.04	5.62
236.839	3.62
237.638	1.62
238.437	2.62
239.236	2.62
240.035	0.62
240.833	2.62
241.632	4.62
242.43	1.62
243.229	6.62
244.027	4.62
244.826	5.62
245.624	5.62
246.422	4.62
247.22	5.62
248.018	3.62
248.816	6.62
249.614	7.62
250.412	7.62
251.21	8.62
252.007	6.62
252.805	9.62
253.602	5.62
254.4	7.62
255.197	7.62
255.994	7.62
256.791	6.62
257.589	10.62
258.386	9.62
259.183	7.62
259.979	10.62
260.776	10.62
261.573	10.62
262.37	11.62
263.166	10.62
263.963	11.62
264.759	10.62
265.556	13.62
266.352	11.62
267.148	15.62
267.944	13.62
268.74	12.62
269.536	16.62
270.332	15.62
271.128	16.62
271.924	18.62
272.719	15.62
273.515	17.62
274.311	15.62
275.106	18.62
275.901	18.62
276.697	17.62
277.492	16.62
278.287	15.62
279.082	19.62
279.877	15.62
280.672	18.62
281.467	16.62
282.262	17.62
283.056	18.62
283.851	21.62
284.646	19.62
285.44	18.62
286.234	16.62
287.029	20.62
287.823	17.62
288.617	21.62
289.411	20.62
290.205	15.62
290.999	19.62
291.793	16.62
292.587	19.62
293.381	16.62
294.174	16.62
294.968	18.62
295.761	15.62
296.555	15.62
297.348	14.62
298.141	15.62
298.935	16.62
299.728	15.62
300.521	16.62
301.314	12.62
302.107	15.62
302.899	9.62
303.692	14.62
304.485	12.62
305.277	11.62
306.07	13.62
306.862	10.62
307.655	12.62
308.447	12.62
309.239	11.62
310.031	10.62
310.823	11.62
311.615	10.62
312.407	9.62
313.199	9.62
313.991	6.62
314.783	6.62
315.574	7.62
316.366	8.62
317.157	9.62
317.949	8.62
318.74	7.62
319.531	7.62
320.322	7.62
321.113	7.62
321.904	8.62
322.695	5.62
323.486	7.62
324.277	4.62
325.068	6.62
325.858	4.62
326.649	7.62
327.439	7.62
328.23	2.62
329.02	5.62
329.81	5.62
330.6	5.62
331.391	3.62
332.181	5.62
332.971	4.62
333.76	5.62
334.55	6.62
335.34	4.62
336.13	6.62
336.919	5.62
337.709	6.62
338.498	6.62
339.287	6.62
340.077	3.62
340.866	5.62
341.655	5.62
342.444	5.62
343.233	4.62
344.022	4.62
344.811	5.62
345.6	4.62
346.388	6.62
347.177	6.62
347.965	7.62
348.754	4.62
349.542	7.62
350.33	6.62
351.119	5.62
351.907	4.62
352.695	6.62
353.483	4.62
354.271	5.62
355.059	4.62
355.846	5.62
356.634	6.62
357.422	7.62
358.209	4.62
358.997	6.62
359.784	5.62
360.571	4.62
361.359	4.62
362.146	7.62
362.933	3.62
363.72	5.62
364.507	5.62
365.294	1.62
366.081	3.62
366.867	5.62
367.654	4.62
368.44	4.62
369.227	2.62
370.013	3.62
370.8	6.62
371.586	3.62
372.372	4.62
373.158	3.62
373.944	5.62
374.73	3.62
375.516	3.62
376.302	4.62
377.088	2.62
377.873	4.62
378.659	5.62
379.445	4.62
380.23	0.62
381.015	2.62
381.801	4.62
382.586	5.62
383.371	4.62
384.156	3.62
384.941	4.62
385.726	6.62
386.511	3.62
387.296	5.62
388.08	4.62
388.865	6.62
389.649	3.62
390.434	5.62
391.218	6.62
392.003	3.62
392.787	5.62
393.571	5.62
394.355	6.62
395.139	5.62
395.923	5.62
396.707	7.62
397.491	8.62
398.274	5.62
399.058	6.62
399.842	7.62
400.625	6.62
401.408	5.62
402.192	7.62
402.975	5.62
403.758	7.62
404.541	6.62
405.324	7.62
406.107	6.62
406.89	7.62
407.673	6.62
408.456	7.62
409.238	6.62
410.021	10.62
410.803	8.62
411.586	10.62
412.368	7.62
413.151	9.62
413.933	9.62
414.715	6.62
415.497	9.62
416.279	8.62
417.061	8.62
417.843	7.62
418.624	9.62
419.406	7.62
420.188	9.62
420.969	8.62
421.751	8.62
422.532	9.62
423.313	10.62
424.095	10.62
424.876	12.62
425.657	10.62
426.438	8.62
427.219	13.62
428	11.62
428.78	10.62
429.561	11.62
430.342	14.62
431.122	12.62
431.903	12.62
432.683	13.62
433.464	12.62
434.244	18.62
435.024	16.62
435.804	18.62
436.584	17.62
437.364	18.62
438.144	19.62
438.924	21.62
439.704	20.62
440.483	24.62
441.263	22.62
442.042	25.62
442.822	24.62
443.601	29.62
444.38	28.62
445.16	29.62
445.939	37.62
446.718	32.62
447.497	37.62
448.276	40.62
449.054	40.62
449.833	46.62
450.612	49.62
451.391	53.62
452.169	57.62
452.948	67.62
453.726	67.62
454.504	74.62
455.282	84.62
456.061	92.62
456.839	100.62
457.617	112.62
458.395	125.62
459.172	141.62
459.95	156.62
460.728	172.62
461.506	192.62
462.283	217.62
463.061	243.62
463.838	268.62
464.615	296.62
465.393	336.62
466.17	374.62
466.947	415.62
467.724	473.62
468.501	527.62
469.278	589.62
470.055	653.62
470.831	730.62
471.608	821.62
472.385	914.62
473.161	1006.62
473.938	1124.62
474.714	1263.62
475.49	1404.62
476.266	1554.62
477.043	1715.62
477.819	1927.62
478.595	2121.62
479.371	2344.62
480.146	2604.62
480.922	2854.62
481.698	3170.62
482.473	3519.62
483.249	3889.62
484.024	4308.62
484.8	4740.62
485.575	5245.62
486.35	5773.62
487.126	6358.62
487.901	6996.62
488.676	7741.62
489.451	8492.62
490.225	9322.62
491	10218.62
491.775	11181.62
492.55	12208.62
493.324	13297.62
494.099	14336.62
494.873	15466.62
495.647	16707.62
496.422	18011.62
497.196	19215.62
497.97	20557.62
498.744	21836.62
499.518	22986.62
500.292	24164.62
501.066	25242.62
501.839	26235.62
502.613	27100.62
503.387	27777.62
504.16	28302.62
504.934	28554.62
505.707	28578.62
506.48	28506.62
507.253	28311.62
508.027	27828.62
508.8	27389.62
509.573	26831.62
510.346	26034.62
511.118	25206.62
511.891	24275.62
512.664	23300.62
513.437	22317.62
514.209	21375.62
514.982	20419.62
515.754	19530.62
516.526	18602.62
517.298	17767.62
518.071	16987.62
518.843	16349.62
519.615	15712.62
520.387	15069.62
521.159	14482.62
521.93	13910.62
522.702	13360.62
523.474	12819.62
524.245	12255.62
525.017	11719.62
525.788	11276.62
526.56	10748.62
527.331	10199.62
528.102	9740.62
528.873	9297.62
529.644	8827.62
530.415	8341.62
531.186	7892.62
531.957	7493.62
532.728	7100.62
533.498	6712.62
534.269	6339.62
535.039	5975.62
535.81	5652.62
536.58	5323.62
537.351	5002.62
538.121	4745.62
538.891	4484.62
539.661	4268.62
540.431	4008.62
541.201	3772.62
541.971	3607.62
542.741	3404.62
543.51	3218.62
544.28	3095.62
545.05	2932.62
545.819	2777.62
546.588	2637.62
547.358	2502.62
548.127	2373.62
548.896	2253.62
549.665	2149.62
550.434	2029.62
551.203	1906.62
551.972	1802.62
552.741	1700.62
553.51	1626.62
554.278	1541.62
555.047	1445.62
555.815	1360.62
556.584	1288.62
557.352	1212.62
558.121	1138.62
558.889	1069.62
559.657	1018.62
560.425	962.62
561.193	899.62
561.961	857.62
562.729	809.62
563.496	767.62
564.264	712.62
565.032	694.62
565.799	646.62
566.567	606.62
567.334	568.62
568.101	543.62
568.869	510.62
569.636	476.62
570.403	452.62
571.17	427.62
571.937	412.62
572.704	383.62
573.471	369.62
574.237	340.62
575.004	316.62
575.771	304.62
576.537	282.62
577.303	273.62
578.07	243.62
578.836	235.62
579.602	217.62
580.368	207.62
581.134	207.62
581.9	184.62
582.666	179.62
583.432	174.62
584.198	160.62
584.964	152.62
585.729	145.62
586.495	135.62
587.26	130.62
588.025	120.62
588.791	114.62
589.556	106.62
590.321	107.62
591.086	99.62
591.851	100.62
592.616	90.62
593.381	84.62
594.146	80.62
594.911	77.62
595.675	75.62
596.44	73.62
597.204	66.62
597.969	67.62
598.733	64.62
599.497	57.62
600.261	52.62
601.025	54.62
601.79	51.62
602.553	51.62
603.317	45.62
604.081	43.62
604.845	43.62
605.609	40.62
606.372	38.62
607.136	37.62
607.899	36.62
608.662	35.62
609.426	30.62
610.189	32.62
610.952	30.62
611.715	30.62
612.478	31.62
613.241	28.62
614.004	26.62
614.767	26.62
615.529	26.62
616.292	23.62
617.055	21.62
617.817	22.62
618.579	20.62
619.342	19.62
620.104	23.62
620.866	21.62
621.628	19.62
622.39	15.62
623.152	17.62
623.914	18.62
624.676	14.62
625.438	16.62
626.199	13.62
626.961	16.62
627.722	13.62
628.484	13.62
629.245	17.62
630.006	13.62
630.768	12.62
631.529	10.62
632.29	10.62
633.051	11.62
633.812	10.62
634.573	10.62
635.333	11.62
636.094	10.62
636.855	7.62
637.615	11.62
638.376	9.62
639.136	5.62
639.896	6.62
640.657	8.62
641.417	7.62
642.177	8.62
642.937	8.62
643.697	8.62
644.457	7.62
645.216	8.62
645.976	6.62
646.736	7.62
647.495	7.62
648.255	8.62
649.014	6.62
649.774	6.62
650.533	8.62
651.292	6.62
652.051	7.62
652.81	4.62
653.569	4.62
654.328	6.62
655.087	6.62
655.846	2.62
656.604	5.62
657.363	7.62
658.121	7.62
658.88	3.62
659.638	7.62
660.397	4.62
661.155	5.62
661.913	4.62
662.671	2.62
663.429	4.62
664.187	3.62
664.945	4.62
665.703	6.62
666.46	4.62
667.218	5.62
667.976	4.62
668.733	4.62
669.49	4.62
670.248	2.62
671.005	3.62
671.762	2.62
672.519	4.62
673.276	2.62
674.033	3.62
674.79	5.62
675.547	3.62
676.304	4.62
677.06	4.62
677.817	2.62
678.574	4.62
679.33	2.62
680.086	5.62
680.843	3.62
681.599	4.62
682.355	3.62
683.111	3.62
683.867	2.62
684.623	3.62
685.379	3.62
686.135	1.62
686.89	2.62
687.646	2.62
688.402	5.62
689.157	3.62
689.912	1.62
690.668	2.62
691.423	1.62
692.178	6.62
692.933	4.62
693.688	2.62
694.443	3.62
695.198	1.62
695.953	0.62
696.708	2.62
697.462	3.62
698.217	2.62
698.972	2.62
699.726	4.62
700.48	2.62
701.235	2.62
701.989	2.62
702.743	3.62
703.497	4.62
704.251	4.62
705.005	2.62
705.759	3.62
706.513	1.62
707.266	1.62
708.02	2.62
708.774	3.62
709.527	2.62
710.28	1.62
711.034	3.62
711.787	5.62
712.54	2.62
713.293	3.62
714.046	0.62
714.799	1.62
715.552	3.62
716.305	2.62
717.058	2.62
717.81	3.62
718.563	3.62
719.315	5.62
720.068	1.62
720.82	2.62
721.573	4.62
722.325	1.62
723.077	1.62
723.829	4.62
724.581	2.62
725.333	4.62
726.085	2.62
726.836	3.62
727.588	2.62
728.34	5.62
729.091	3.62
729.843	3.62
730.594	4.62
731.346	0.62
732.097	4.62
732.848	3.62
733.599	4.62
734.35	3.62
735.101	6.62
735.852	2.62
736.603	4.62
737.354	3.62
738.104	2.62
738.855	2.62
739.605	2.62
740.356	4.62
741.106	4.62
741.856	3.62
742.607	4.62
743.357	4.62
744.107	5.62
744.857	4.62
745.607	2.62
746.357	3.62
747.106	3.62
747.856	3.62
748.606	4.62
749.355	2.62
750.105	6.62
750.854	3.62
751.603	5.62
752.353	6.62
753.102	7.62
753.851	5.62
754.6	4.62
755.349	5.62
756.098	4.62
756.847	5.62
757.595	4.62
758.344	6.62
759.093	6.62
759.841	6.62
760.589	5.62
761.338	5.62
762.086	8.62
762.834	7.62
763.582	4.62
764.331	6.62
765.079	7.62
765.826	5.62
766.574	8.62
767.322	7.62
768.07	9.62
768.817	7.62
769.565	7.62
770.312	9.62
771.06	7.62
771.807	6.62
772.554	7.62
773.302	8.62
774.049	8.62
774.796	9.62
775.543	5.62
776.29	5.62
777.036	8.62
777.783	6.62
778.53	5.62
779.276	8.62
780.023	9.62
780.769	7.62
781.516	9.62
782.262	10.62
783.008	6.62
783.754	10.62
784.5	8.62
785.246	6.62
785.992	8.62
786.738	9.62
787.484	9.62
788.23	8.62
788.975	9.62
789.721	8.62
790.466	7.62
791.212	8.62
791.957	9.62
792.702	7.62
793.447	6.62
794.193	6.62
794.938	5.62
795.683	6.62
796.427	7.62
797.172	7.62
797.917	7.62
798.662	6.62
799.406	6.62
800.151	8.62
800.895	7.62
801.64	6.62
802.384	5.62
803.128	5.62
803.872	8.62
804.616	4.62
805.36	6.62
806.104	5.62
806.848	6.62
807.592	3.62
808.336	2.62
809.079	7.62
809.823	5.62
810.566	4.62
811.31	4.62
812.053	5.62
812.796	4.62
813.539	3.62
814.283	4.62
815.026	4.62
815.769	4.62
816.511	4.62
817.254	3.62
817.997	5.62
818.74	4.62
819.482	3.62
820.225	5.62
820.967	2.62
821.71	4.62
822.452	1.62
823.194	3.62
823.936	4.62
824.678	0.62
825.42	4.62
826.162	2.62
826.904	3.62
827.646	2.62
828.388	3.62
829.129	3.62
829.871	2.62
830.612	2.62
831.354	2.62
832.095	3.62
832.836	4.62
833.577	4.62
834.319	1.62
835.06	0.62
835.801	6.62
836.542	4.62
837.282	1.62
838.023	2.62
838.764	3.62
839.504	4.62
840.245	2.62
840.985	3.62
841.726	1.62
842.466	1.62
843.206	2.62
843.946	2.62
844.687	3.62
845.427	1.62
846.166	4.62
846.906	2.62
847.646	2.62
848.386	2.62
849.125	2.62
849.865	5.62
850.605	-0.38
851.344	2.62
852.083	4.62
852.823	0.62
853.562	2.62
854.301	1.62
855.04	1.62
855.779	2.62
856.518	1.62
857.257	2.62
857.995	0.62
858.734	1.62
859.473	1.62
860.211	-1.38
860.95	2.62
861.688	0.62
862.426	-0.38
863.165	-0.38
863.903	0.62
864.641	0.62
865.379	2.62
866.117	1.62
866.855	1.62
867.593	3.62
868.33	-0.38
869.068	-1.38
869.806	3.62
870.543	-2.38
871.28	1.62
872.018	0.62
872.755	2.62
873.492	-1.38
874.229	0.62
874.967	0.62
875.703	1.62
876.44	2.62
877.177	0.62
877.914	-0.38
878.651	-1.38
879.387	-0.38
880.124	0.62
880.86	0.62
881.597	0.62
882.333	-0.38
883.069	-1.38
883.806	2.62
884.542	-1.38
885.278	-0.38
886.014	0.62
886.749	0.62
887.485	0.62
888.221	0.62
888.957	2.62
889.692	-1.38
890.428	-1.38
891.163	-1.38
891.899	1.62
892.634	-1.38
893.369	-0.38
894.104	1.62
894.839	-1.38
895.574	-0.38
896.309	1.62
897.044	-1.38
897.779	-1.38
898.514	-1.38
899.248	0.62
899.983	1.62
900.717	0.62
901.452	-1.38
902.186	-0.38
902.92	0.62
903.654	-0.38
904.389	1.62
905.123	0.62
905.857	-0.38
906.59	0.62
907.324	0.62
908.058	-0.38
908.792	-1.38
909.525	0.62
910.259	0.62
910.992	0.62
911.726	1.62
912.459	-0.38
913.192	-0.38
913.925	-1.38
914.658	-0.38
915.391	1.62
916.124	-1.38
916.857	0.62
917.59	-0.38
918.323	-0.38
919.055	0.62
919.788	-0.38
920.521	0.62
921.253	-0.38
921.985	-1.38
922.718	0.62
923.45	0.62
924.182	-1.38
924.914	-0.38
925.646	3.62
926.378	-1.38
927.11	-1.38
927.841	0.62
928.573	0.62
929.305	1.62
930.036	-0.38
930.768	1.62
931.499	0.62
932.23	-1.38
932.962	0.62
933.693	0.62
934.424	0.62
935.155	-1.38
935.886	1.62
936.617	1.62
937.348	-1.38
938.078	0.62
938.809	2.62
939.54	-0.38
940.27	0.62
941.001	-0.38
941.731	0.62
942.461	2.62
943.191	1.62
943.922	-0.38
944.652	1.62
945.382	-0.38
946.112	-1.38
946.841	-0.38
947.571	0.62
948.301	-0.38
949.031	0.62
949.76	-1.38
950.49	-1.38
951.219	-3.38
951.948	-1.38
952.678	-0.38
953.407	-1.38
954.136	-0.38
954.865	-1.38
955.594	0.62
956.323	-0.38
957.052	-2.38
957.78	0.62
958.509	-0.38
959.238	-1.38
959.966	-1.38
960.695	1.62
961.423	-0.38
962.151	-0.38
962.88	1.62
963.608	-1.38
964.336	-2.38
965.064	-1.38
965.792	0.62
966.52	1.62
967.247	0.62
967.975	-1.38
968.703	-1.38
969.43	2.62
970.158	-2.38
970.885	1.62
971.613	-1.38
972.34	1.62
973.067	-0.38
973.794	0.62
974.521	0.62
975.248	-2.38
975.975	-2.38
976.702	-0.38
977.429	-0.38
978.156	1.62
978.882	-0.38
979.609	0.62
980.335	-0.38
981.062	0.62
981.788	1.62
982.514	0.62
983.24	-0.38
983.967	-0.38
984.693	-1.38
985.419	-0.38
986.144	-0.38
986.87	-0.38
987.596	-2.38
988.322	0.62
989.047	-0.38
989.773	-1.38
990.498	2.62
991.224	0.62
991.949	0.62
992.674	0.62
993.399	0.62
994.124	-1.38
994.849	0.62
995.574	2.62
996.299	-0.38
997.024	-0.38
997.749	-0.38
998.473	-2.38
999.198	-0.38
999.922	-1.38
1000.647	1.62
1001.371	2.62
1002.095	-0.38
1002.82	-1.38
1003.544	-0.38
1004.268	-0.38
1004.992	0.62
1005.716	0.62
1006.439	0.62
1007.163	0.62
1007.887	1.62
1008.611	-0.38
1009.334	-0.38
1010.058	-0.38
1010.781	-0.38
1011.504	0.62
1012.228	-0.38
1012.951	1.62
1013.674	-0.38
1014.397	-0.38
1015.12	-1.38
