节点500_285_QEPB04081__587__15-05-19-188.txt的数据

Date: Wed Nov 12 15:05:19 CST 2025
User: PC
Spectrometer: QEPB0408
触发模式: 0
积分时间 (秒): 1.000000E-2
Scans to average: 1
启用暗噪声校正: true
启用非线性校正: false
滑动平均宽度: 0
X轴模式: Wavelengths
Number of Pixels in Spectrum: 1044
>>>>>Begin Spectral Data<<<<<
220.843	0.5
221.644	1.5
222.444	2.5
223.244	2.5
224.045	1.5
224.845	2.5
225.645	1.5
226.445	0.5
227.245	0.5
228.045	3.5
228.845	1.5
229.645	6.5
230.444	-0.5
231.244	4.5
232.043	2.5
232.843	0.5
233.642	4.5
234.442	4.5
235.241	2.5
236.04	2.5
236.839	2.5
237.638	3.5
238.437	4.5
239.236	3.5
240.035	4.5
240.833	5.5
241.632	1.5
242.43	5.5
243.229	4.5
244.027	5.5
244.826	4.5
245.624	5.5
246.422	4.5
247.22	4.5
248.018	5.5
248.816	5.5
249.614	4.5
250.412	5.5
251.21	7.5
252.007	6.5
252.805	5.5
253.602	7.5
254.4	6.5
255.197	5.5
255.994	5.5
256.791	5.5
257.589	11.5
258.386	8.5
259.183	10.5
259.979	8.5
260.776	9.5
261.573	8.5
262.37	7.5
263.166	9.5
263.963	10.5
264.759	11.5
265.556	11.5
266.352	11.5
267.148	12.5
267.944	9.5
268.74	12.5
269.536	14.5
270.332	13.5
271.128	13.5
271.924	13.5
272.719	14.5
273.515	15.5
274.311	15.5
275.106	17.5
275.901	16.5
276.697	17.5
277.492	15.5
278.287	17.5
279.082	13.5
279.877	19.5
280.672	18.5
281.467	18.5
282.262	15.5
283.056	18.5
283.851	16.5
284.646	17.5
285.44	16.5
286.234	18.5
287.029	16.5
287.823	16.5
288.617	16.5
289.411	17.5
290.205	18.5
290.999	17.5
291.793	18.5
292.587	15.5
293.381	14.5
294.174	11.5
294.968	14.5
295.761	15.5
296.555	14.5
297.348	13.5
298.141	14.5
298.935	16.5
299.728	13.5
300.521	14.5
301.314	10.5
302.107	12.5
302.899	13.5
303.692	13.5
304.485	13.5
305.277	11.5
306.07	12.5
306.862	13.5
307.655	12.5
308.447	11.5
309.239	11.5
310.031	11.5
310.823	10.5
311.615	10.5
312.407	10.5
313.199	8.5
313.991	9.5
314.783	7.5
315.574	9.5
316.366	7.5
317.157	9.5
317.949	7.5
318.74	7.5
319.531	6.5
320.322	6.5
321.113	10.5
321.904	8.5
322.695	6.5
323.486	8.5
324.277	5.5
325.068	8.5
325.858	9.5
326.649	5.5
327.439	8.5
328.23	7.5
329.02	8.5
329.81	7.5
330.6	6.5
331.391	6.5
332.181	7.5
332.971	4.5
333.76	6.5
334.55	6.5
335.34	6.5
336.13	4.5
336.919	6.5
337.709	5.5
338.498	5.5
339.287	5.5
340.077	5.5
340.866	6.5
341.655	5.5
342.444	5.5
343.233	4.5
344.022	8.5
344.811	4.5
345.6	7.5
346.388	4.5
347.177	6.5
347.965	6.5
348.754	4.5
349.542	1.5
350.33	7.5
351.119	5.5
351.907	5.5
352.695	7.5
353.483	6.5
354.271	3.5
355.059	5.5
355.846	4.5
356.634	5.5
357.422	4.5
358.209	5.5
358.997	6.5
359.784	5.5
360.571	4.5
361.359	5.5
362.146	4.5
362.933	7.5
363.72	4.5
364.507	5.5
365.294	3.5
366.081	4.5
366.867	5.5
367.654	5.5
368.44	4.5
369.227	4.5
370.013	4.5
370.8	3.5
371.586	6.5
372.372	3.5
373.158	3.5
373.944	4.5
374.73	5.5
375.516	4.5
376.302	2.5
377.088	5.5
377.873	8.5
378.659	4.5
379.445	8.5
380.23	3.5
381.015	5.5
381.801	4.5
382.586	6.5
383.371	3.5
384.156	2.5
384.941	3.5
385.726	6.5
386.511	3.5
387.296	3.5
388.08	4.5
388.865	4.5
389.649	3.5
390.434	4.5
391.218	4.5
392.003	4.5
392.787	4.5
393.571	3.5
394.355	7.5
395.139	4.5
395.923	6.5
396.707	6.5
397.491	6.5
398.274	5.5
399.058	6.5
399.842	6.5
400.625	5.5
401.408	6.5
402.192	7.5
402.975	7.5
403.758	6.5
404.541	5.5
405.324	7.5
406.107	8.5
406.89	5.5
407.673	6.5
408.456	7.5
409.238	8.5
410.021	6.5
410.803	9.5
411.586	7.5
412.368	7.5
413.151	6.5
413.933	6.5
414.715	9.5
415.497	7.5
416.279	9.5
417.061	9.5
417.843	9.5
418.624	8.5
419.406	9.5
420.188	12.5
420.969	8.5
421.751	11.5
422.532	11.5
423.313	12.5
424.095	11.5
424.876	11.5
425.657	10.5
426.438	13.5
427.219	10.5
428	11.5
428.78	10.5
429.561	11.5
430.342	12.5
431.122	14.5
431.903	13.5
432.683	14.5
433.464	13.5
434.244	15.5
435.024	17.5
435.804	17.5
436.584	14.5
437.364	20.5
438.144	17.5
438.924	21.5
439.704	20.5
440.483	21.5
441.263	22.5
442.042	24.5
442.822	27.5
443.601	27.5
444.38	30.5
445.16	32.5
445.939	33.5
446.718	36.5
447.497	36.5
448.276	41.5
449.054	43.5
449.833	51.5
450.612	54.5
451.391	58.5
452.169	66.5
452.948	67.5
453.726	75.5
454.504	82.5
455.282	92.5
456.061	106.5
456.839	120.5
457.617	134.5
458.395	151.5
459.172	156.5
459.95	179.5
460.728	199.5
461.506	219.5
462.283	245.5
463.061	273.5
463.838	308.5
464.615	340.5
465.393	385.5
466.17	422.5
466.947	469.5
467.724	539.5
468.501	585.5
469.278	635.5
470.055	729.5
470.831	798.5
471.608	882.5
472.385	990.5
473.161	1082.5
473.938	1206.5
474.714	1336.5
475.49	1459.5
476.266	1611.5
477.043	1755.5
477.819	1938.5
478.595	2155.5
479.371	2356.5
480.146	2599.5
480.922	2825.5
481.698	3097.5
482.473	3418.5
483.249	3724.5
484.024	4105.5
484.8	4491.5
485.575	4921.5
486.35	5389.5
487.126	5856.5
487.901	6411.5
488.676	6986.5
489.451	7646.5
490.225	8298.5
491	9077.5
491.775	9896.5
492.55	10700.5
493.324	11593.5
494.099	12478.5
494.873	13420.5
495.647	14466.5
496.422	15493.5
497.196	16598.5
497.97	17771.5
498.744	18818.5
499.518	19903.5
500.292	21041.5
501.066	22035.5
501.839	22966.5
502.613	23971.5
503.387	24755.5
504.16	25368.5
504.934	25850.5
505.707	26132.5
506.48	26291.5
507.253	26398.5
508.027	26255.5
508.8	26083.5
509.573	25760.5
510.346	25253.5
511.118	24709.5
511.891	24018.5
512.664	23313.5
513.437	22532.5
514.209	21617.5
514.982	20805.5
515.754	19897.5
516.526	19081.5
517.298	18315.5
518.071	17535.5
518.843	16851.5
519.615	16185.5
520.387	15576.5
521.159	14987.5
521.93	14351.5
522.702	13821.5
523.474	13216.5
524.245	12623.5
525.017	12105.5
525.788	11677.5
526.56	11159.5
527.331	10655.5
528.102	10168.5
528.873	9748.5
529.644	9230.5
530.415	8820.5
531.186	8402.5
531.957	7960.5
532.728	7599.5
533.498	7223.5
534.269	6789.5
535.039	6431.5
535.81	6098.5
536.58	5710.5
537.351	5416.5
538.121	5125.5
538.891	4884.5
539.661	4594.5
540.431	4326.5
541.201	4089.5
541.971	3882.5
542.741	3686.5
543.51	3504.5
544.28	3349.5
545.05	3171.5
545.819	3001.5
546.588	2878.5
547.358	2744.5
548.127	2591.5
548.896	2439.5
549.665	2327.5
550.434	2210.5
551.203	2096.5
551.972	1996.5
552.741	1882.5
553.51	1779.5
554.278	1677.5
555.047	1573.5
555.815	1482.5
556.584	1411.5
557.352	1334.5
558.121	1264.5
558.889	1185.5
559.657	1131.5
560.425	1069.5
561.193	1004.5
561.961	943.5
562.729	892.5
563.496	848.5
564.264	804.5
565.032	758.5
565.799	715.5
566.567	680.5
567.334	641.5
568.101	603.5
568.869	572.5
569.636	540.5
570.403	500.5
571.17	476.5
571.937	445.5
572.704	420.5
573.471	405.5
574.237	376.5
575.004	358.5
575.771	331.5
576.537	313.5
577.303	300.5
578.07	281.5
578.836	261.5
579.602	246.5
580.368	234.5
581.134	225.5
581.9	211.5
582.666	200.5
583.432	189.5
584.198	180.5
584.964	170.5
585.729	161.5
586.495	151.5
587.26	145.5
588.025	133.5
588.791	129.5
589.556	125.5
590.321	112.5
591.086	112.5
591.851	109.5
592.616	96.5
593.381	94.5
594.146	83.5
594.911	85.5
595.675	86.5
596.44	79.5
597.204	71.5
597.969	68.5
598.733	68.5
599.497	64.5
600.261	62.5
601.025	60.5
601.79	54.5
602.553	53.5
603.317	51.5
604.081	49.5
604.845	44.5
605.609	47.5
606.372	44.5
607.136	43.5
607.899	42.5
608.662	39.5
609.426	34.5
610.189	33.5
610.952	36.5
611.715	32.5
612.478	30.5
613.241	32.5
614.004	27.5
614.767	29.5
615.529	26.5
616.292	27.5
617.055	25.5
617.817	22.5
618.579	24.5
619.342	23.5
620.104	23.5
620.866	19.5
621.628	17.5
622.39	20.5
623.152	19.5
623.914	19.5
624.676	17.5
625.438	17.5
626.199	16.5
626.961	16.5
627.722	15.5
628.484	13.5
629.245	15.5
630.006	13.5
630.768	13.5
631.529	11.5
632.29	13.5
633.051	13.5
633.812	11.5
634.573	11.5
635.333	9.5
636.094	12.5
636.855	11.5
637.615	10.5
638.376	12.5
639.136	9.5
639.896	9.5
640.657	9.5
641.417	7.5
642.177	7.5
642.937	8.5
643.697	10.5
644.457	5.5
645.216	11.5
645.976	6.5
646.736	6.5
647.495	8.5
648.255	5.5
649.014	8.5
649.774	8.5
650.533	9.5
651.292	7.5
652.051	5.5
652.81	8.5
653.569	5.5
654.328	6.5
655.087	4.5
655.846	6.5
656.604	5.5
657.363	5.5
658.121	6.5
658.88	5.5
659.638	5.5
660.397	2.5
661.155	3.5
661.913	6.5
662.671	3.5
663.429	6.5
664.187	3.5
664.945	2.5
665.703	6.5
666.46	3.5
667.218	5.5
667.976	5.5
668.733	5.5
669.49	3.5
670.248	4.5
671.005	4.5
671.762	5.5
672.519	5.5
673.276	4.5
674.033	4.5
674.79	6.5
675.547	4.5
676.304	7.5
677.06	4.5
677.817	2.5
678.574	3.5
679.33	5.5
680.086	5.5
680.843	3.5
681.599	4.5
682.355	3.5
683.111	3.5
683.867	4.5
684.623	5.5
685.379	5.5
686.135	1.5
686.89	4.5
687.646	3.5
688.402	4.5
689.157	2.5
689.912	2.5
690.668	2.5
691.423	0.5
692.178	4.5
692.933	3.5
693.688	2.5
694.443	2.5
695.198	4.5
695.953	4.5
696.708	2.5
697.462	4.5
698.217	5.5
698.972	3.5
699.726	4.5
700.48	2.5
701.235	3.5
701.989	3.5
702.743	-2.5
703.497	5.5
704.251	5.5
705.005	4.5
705.759	2.5
706.513	2.5
707.266	4.5
708.02	6.5
708.774	3.5
709.527	6.5
710.28	4.5
711.034	0.5
711.787	2.5
712.54	0.5
713.293	2.5
714.046	4.5
714.799	1.5
715.552	3.5
716.305	1.5
717.058	2.5
717.81	0.5
718.563	1.5
719.315	2.5
720.068	1.5
720.82	1.5
721.573	1.5
722.325	2.5
723.077	3.5
723.829	1.5
724.581	5.5
725.333	4.5
726.085	4.5
726.836	1.5
727.588	4.5
728.34	3.5
729.091	4.5
729.843	5.5
730.594	3.5
731.346	6.5
732.097	2.5
732.848	4.5
733.599	3.5
734.35	5.5
735.101	4.5
735.852	0.5
736.603	3.5
737.354	4.5
738.104	4.5
738.855	3.5
739.605	2.5
740.356	6.5
741.106	2.5
741.856	4.5
742.607	5.5
743.357	5.5
744.107	3.5
744.857	4.5
745.607	5.5
746.357	3.5
747.106	4.5
747.856	3.5
748.606	2.5
749.355	5.5
750.105	3.5
750.854	4.5
751.603	3.5
752.353	3.5
753.102	4.5
753.851	2.5
754.6	6.5
755.349	4.5
756.098	7.5
756.847	4.5
757.595	5.5
758.344	4.5
759.093	5.5
759.841	6.5
760.589	5.5
761.338	6.5
762.086	5.5
762.834	8.5
763.582	7.5
764.331	8.5
765.079	4.5
765.826	5.5
766.574	4.5
767.322	6.5
768.07	5.5
768.817	5.5
769.565	3.5
770.312	8.5
771.06	7.5
771.807	5.5
772.554	6.5
773.302	6.5
774.049	8.5
774.796	6.5
775.543	5.5
776.29	8.5
777.036	7.5
777.783	5.5
778.53	8.5
779.276	9.5
780.023	10.5
780.769	9.5
781.516	6.5
782.262	8.5
783.008	7.5
783.754	7.5
784.5	9.5
785.246	7.5
785.992	8.5
786.738	8.5
787.484	6.5
788.23	9.5
788.975	8.5
789.721	8.5
790.466	8.5
791.212	7.5
791.957	6.5
792.702	7.5
793.447	8.5
794.193	6.5
794.938	8.5
795.683	8.5
796.427	7.5
797.172	8.5
797.917	7.5
798.662	7.5
799.406	6.5
800.151	5.5
800.895	3.5
801.64	6.5
802.384	8.5
803.128	8.5
803.872	6.5
804.616	5.5
805.36	5.5
806.104	5.5
806.848	4.5
807.592	5.5
808.336	5.5
809.079	6.5
809.823	5.5
810.566	5.5
811.31	6.5
812.053	5.5
812.796	5.5
813.539	4.5
814.283	2.5
815.026	5.5
815.769	3.5
816.511	4.5
817.254	4.5
817.997	4.5
818.74	6.5
819.482	1.5
820.225	4.5
820.967	6.5
821.71	3.5
822.452	5.5
823.194	5.5
823.936	2.5
824.678	3.5
825.42	4.5
826.162	3.5
826.904	4.5
827.646	2.5
828.388	5.5
829.129	3.5
829.871	4.5
830.612	5.5
831.354	2.5
832.095	1.5
832.836	3.5
833.577	2.5
834.319	1.5
835.06	3.5
835.801	3.5
836.542	3.5
837.282	5.5
838.023	3.5
838.764	2.5
839.504	5.5
840.245	3.5
840.985	2.5
841.726	2.5
842.466	1.5
843.206	3.5
843.946	2.5
844.687	2.5
845.427	1.5
846.166	3.5
846.906	1.5
847.646	2.5
848.386	2.5
849.125	4.5
849.865	2.5
850.605	3.5
851.344	3.5
852.083	2.5
852.823	1.5
853.562	1.5
854.301	0.5
855.04	2.5
855.779	1.5
856.518	3.5
857.257	0.5
857.995	2.5
858.734	4.5
859.473	0.5
860.211	1.5
860.95	2.5
861.688	2.5
862.426	3.5
863.165	0.5
863.903	1.5
864.641	3.5
865.379	2.5
866.117	0.5
866.855	2.5
867.593	2.5
868.33	1.5
869.068	5.5
869.806	0.5
870.543	1.5
871.28	3.5
872.018	1.5
872.755	-0.5
873.492	0.5
874.229	1.5
874.967	0.5
875.703	-0.5
876.44	1.5
877.177	-0.5
877.914	1.5
878.651	1.5
879.387	0.5
880.124	1.5
880.86	1.5
881.597	-0.5
882.333	-0.5
883.069	1.5
883.806	0.5
884.542	1.5
885.278	0.5
886.014	-0.5
886.749	-0.5
887.485	-0.5
888.221	-0.5
888.957	1.5
889.692	-0.5
890.428	-0.5
891.163	-0.5
891.899	2.5
892.634	0.5
893.369	0.5
894.104	-1.5
894.839	-2.5
895.574	0.5
896.309	-0.5
897.044	2.5
897.779	-2.5
898.514	-1.5
899.248	2.5
899.983	0.5
900.717	-0.5
901.452	-0.5
902.186	-0.5
902.92	0.5
903.654	1.5
904.389	1.5
905.123	1.5
905.857	0.5
906.59	-1.5
907.324	0.5
908.058	0.5
908.792	0.5
909.525	0.5
910.259	-0.5
910.992	0.5
911.726	-0.5
912.459	1.5
913.192	-2.5
913.925	-0.5
914.658	0.5
915.391	0.5
916.124	0.5
916.857	-1.5
917.59	1.5
918.323	-0.5
919.055	-1.5
919.788	-0.5
920.521	0.5
921.253	1.5
921.985	-1.5
922.718	-0.5
923.45	0.5
924.182	-1.5
924.914	1.5
925.646	-0.5
926.378	1.5
927.11	0.5
927.841	-0.5
928.573	-0.5
929.305	-1.5
930.036	0.5
930.768	-2.5
931.499	0.5
932.23	-2.5
932.962	1.5
933.693	0.5
934.424	0.5
935.155	-0.5
935.886	0.5
936.617	-1.5
937.348	-0.5
938.078	0.5
938.809	0.5
939.54	0.5
940.27	-0.5
941.001	-2.5
941.731	-2.5
942.461	-0.5
943.191	-0.5
943.922	1.5
944.652	0.5
945.382	-0.5
946.112	-0.5
946.841	1.5
947.571	-1.5
948.301	0.5
949.031	1.5
949.76	-0.5
950.49	0.5
951.219	-0.5
951.948	-0.5
952.678	0.5
953.407	-1.5
954.136	0.5
954.865	-0.5
955.594	0.5
956.323	-0.5
957.052	0.5
957.78	-0.5
958.509	1.5
959.238	-0.5
959.966	-0.5
960.695	-0.5
961.423	-1.5
962.151	1.5
962.88	-0.5
963.608	0.5
964.336	1.5
965.064	-2.5
965.792	0.5
966.52	1.5
967.247	0.5
967.975	1.5
968.703	0.5
969.43	1.5
970.158	0.5
970.885	-0.5
971.613	0.5
972.34	0.5
973.067	1.5
973.794	-0.5
974.521	0.5
975.248	0.5
975.975	-1.5
976.702	-0.5
977.429	-1.5
978.156	0.5
978.882	-0.5
979.609	1.5
980.335	2.5
981.062	-0.5
981.788	0.5
982.514	-0.5
983.24	1.5
983.967	-0.5
984.693	1.5
985.419	-0.5
986.144	-3.5
986.87	1.5
987.596	1.5
988.322	0.5
989.047	2.5
989.773	-0.5
990.498	1.5
991.224	-0.5
991.949	0.5
992.674	-0.5
993.399	-0.5
994.124	0.5
994.849	-0.5
995.574	0.5
996.299	1.5
997.024	1.5
997.749	2.5
998.473	-0.5
999.198	0.5
999.922	-1.5
1000.647	0.5
1001.371	2.5
1002.095	-0.5
1002.82	-0.5
1003.544	-1.5
1004.268	-1.5
1004.992	-0.5
1005.716	-1.5
1006.439	1.5
1007.163	0.5
1007.887	3.5
1008.611	-0.5
1009.334	-0.5
1010.058	1.5
1010.781	0.5
1011.504	2.5
1012.228	0.5
1012.951	0.5
1013.674	-0.5
1014.397	0.5
1015.12	-0.5
