节点500_285_QEPB04081__20__14-55-54-467.txt的数据

Date: Wed Nov 12 14:55:54 CST 2025
User: PC
Spectrometer: QEPB0408
触发模式: 0
积分时间 (秒): 1.000000E-2
Scans to average: 1
启用暗噪声校正: true
启用非线性校正: false
滑动平均宽度: 0
X轴模式: Wavelengths
Number of Pixels in Spectrum: 1044
>>>>>Begin Spectral Data<<<<<
220.843	2.25
221.644	2.25
222.444	3.25
223.244	2.25
224.045	2.25
224.845	1.25
225.645	3.25
226.445	3.25
227.245	4.25
228.045	3.25
228.845	1.25
229.645	1.25
230.444	4.25
231.244	4.25
232.043	4.25
232.843	4.25
233.642	4.25
234.442	3.25
235.241	5.25
236.04	4.25
236.839	7.25
237.638	4.25
238.437	4.25
239.236	2.25
240.035	7.25
240.833	4.25
241.632	5.25
242.43	7.25
243.229	7.25
244.027	5.25
244.826	6.25
245.624	6.25
246.422	5.25
247.22	4.25
248.018	9.25
248.816	5.25
249.614	8.25
250.412	6.25
251.21	7.25
252.007	7.25
252.805	8.25
253.602	9.25
254.4	9.25
255.197	10.25
255.994	8.25
256.791	10.25
257.589	12.25
258.386	11.25
259.183	11.25
259.979	10.25
260.776	12.25
261.573	13.25
262.37	10.25
263.166	13.25
263.963	13.25
264.759	17.25
265.556	13.25
266.352	17.25
267.148	17.25
267.944	15.25
268.74	16.25
269.536	16.25
270.332	18.25
271.128	18.25
271.924	18.25
272.719	17.25
273.515	17.25
274.311	22.25
275.106	17.25
275.901	20.25
276.697	25.25
277.492	18.25
278.287	20.25
279.082	21.25
279.877	20.25
280.672	23.25
281.467	20.25
282.262	23.25
283.056	22.25
283.851	21.25
284.646	22.25
285.44	18.25
286.234	20.25
287.029	21.25
287.823	21.25
288.617	21.25
289.411	18.25
290.205	20.25
290.999	19.25
291.793	21.25
292.587	19.25
293.381	15.25
294.174	15.25
294.968	18.25
295.761	18.25
296.555	16.25
297.348	16.25
298.141	17.25
298.935	15.25
299.728	16.25
300.521	15.25
301.314	16.25
302.107	13.25
302.899	12.25
303.692	12.25
304.485	11.25
305.277	15.25
306.07	13.25
306.862	12.25
307.655	11.25
308.447	12.25
309.239	13.25
310.031	10.25
310.823	12.25
311.615	11.25
312.407	10.25
313.199	12.25
313.991	9.25
314.783	11.25
315.574	9.25
316.366	9.25
317.157	12.25
317.949	7.25
318.74	7.25
319.531	10.25
320.322	9.25
321.113	9.25
321.904	8.25
322.695	9.25
323.486	9.25
324.277	9.25
325.068	7.25
325.858	9.25
326.649	7.25
327.439	5.25
328.23	6.25
329.02	9.25
329.81	6.25
330.6	10.25
331.391	7.25
332.181	9.25
332.971	6.25
333.76	8.25
334.55	8.25
335.34	7.25
336.13	7.25
336.919	6.25
337.709	9.25
338.498	7.25
339.287	8.25
340.077	6.25
340.866	6.25
341.655	7.25
342.444	7.25
343.233	7.25
344.022	4.25
344.811	5.25
345.6	6.25
346.388	5.25
347.177	7.25
347.965	9.25
348.754	6.25
349.542	7.25
350.33	7.25
351.119	6.25
351.907	5.25
352.695	5.25
353.483	7.25
354.271	6.25
355.059	7.25
355.846	7.25
356.634	6.25
357.422	7.25
358.209	5.25
358.997	7.25
359.784	4.25
360.571	6.25
361.359	7.25
362.146	7.25
362.933	6.25
363.72	4.25
364.507	5.25
365.294	6.25
366.081	7.25
366.867	7.25
367.654	5.25
368.44	4.25
369.227	7.25
370.013	7.25
370.8	3.25
371.586	5.25
372.372	6.25
373.158	6.25
373.944	5.25
374.73	6.25
375.516	5.25
376.302	7.25
377.088	6.25
377.873	7.25
378.659	6.25
379.445	7.25
380.23	8.25
381.015	8.25
381.801	6.25
382.586	6.25
383.371	5.25
384.156	7.25
384.941	7.25
385.726	10.25
386.511	4.25
387.296	6.25
388.08	6.25
388.865	7.25
389.649	3.25
390.434	5.25
391.218	5.25
392.003	6.25
392.787	7.25
393.571	8.25
394.355	8.25
395.139	10.25
395.923	8.25
396.707	8.25
397.491	7.25
398.274	6.25
399.058	9.25
399.842	7.25
400.625	7.25
401.408	8.25
402.192	8.25
402.975	10.25
403.758	7.25
404.541	7.25
405.324	8.25
406.107	9.25
406.89	7.25
407.673	11.25
408.456	9.25
409.238	10.25
410.021	10.25
410.803	8.25
411.586	11.25
412.368	10.25
413.151	9.25
413.933	8.25
414.715	9.25
415.497	9.25
416.279	9.25
417.061	9.25
417.843	11.25
418.624	12.25
419.406	12.25
420.188	12.25
420.969	11.25
421.751	11.25
422.532	9.25
423.313	11.25
424.095	13.25
424.876	11.25
425.657	13.25
426.438	14.25
427.219	13.25
428	14.25
428.78	15.25
429.561	13.25
430.342	17.25
431.122	13.25
431.903	17.25
432.683	14.25
433.464	16.25
434.244	18.25
435.024	16.25
435.804	19.25
436.584	20.25
437.364	19.25
438.144	22.25
438.924	20.25
439.704	25.25
440.483	24.25
441.263	22.25
442.042	26.25
442.822	24.25
443.601	29.25
444.38	29.25
445.16	33.25
445.939	35.25
446.718	34.25
447.497	37.25
448.276	41.25
449.054	43.25
449.833	44.25
450.612	51.25
451.391	56.25
452.169	55.25
452.948	65.25
453.726	67.25
454.504	76.25
455.282	85.25
456.061	88.25
456.839	101.25
457.617	109.25
458.395	120.25
459.172	140.25
459.95	153.25
460.728	173.25
461.506	187.25
462.283	209.25
463.061	236.25
463.838	259.25
464.615	295.25
465.393	331.25
466.17	376.25
466.947	413.25
467.724	464.25
468.501	514.25
469.278	577.25
470.055	651.25
470.831	730.25
471.608	812.25
472.385	893.25
473.161	1002.25
473.938	1122.25
474.714	1256.25
475.49	1383.25
476.266	1539.25
477.043	1704.25
477.819	1906.25
478.595	2124.25
479.371	2353.25
480.146	2620.25
480.922	2891.25
481.698	3250.25
482.473	3587.25
483.249	3959.25
484.024	4372.25
484.8	4855.25
485.575	5373.25
486.35	5941.25
487.126	6558.25
487.901	7247.25
488.676	7969.25
489.451	8781.25
490.225	9681.25
491	10563.25
491.775	11639.25
492.55	12748.25
493.324	13845.25
494.099	14945.25
494.873	16177.25
495.647	17471.25
496.422	18806.25
497.196	20102.25
497.97	21429.25
498.744	22803.25
499.518	24072.25
500.292	25247.25
501.066	26329.25
501.839	27274.25
502.613	28106.25
503.387	28819.25
504.16	29338.25
504.934	29428.25
505.707	29463.25
506.48	29296.25
507.253	28892.25
508.027	28398.25
508.8	27869.25
509.573	27206.25
510.346	26350.25
511.118	25335.25
511.891	24428.25
512.664	23435.25
513.437	22465.25
514.209	21359.25
514.982	20463.25
515.754	19451.25
516.526	18577.25
517.298	17741.25
518.071	16960.25
518.843	16349.25
519.615	15722.25
520.387	15121.25
521.159	14479.25
521.93	13936.25
522.702	13368.25
523.474	12827.25
524.245	12239.25
525.017	11657.25
525.788	11236.25
526.56	10685.25
527.331	10152.25
528.102	9717.25
528.873	9215.25
529.644	8715.25
530.415	8268.25
531.186	7841.25
531.957	7425.25
532.728	7022.25
533.498	6636.25
534.269	6215.25
535.039	5891.25
535.81	5542.25
536.58	5263.25
537.351	4956.25
538.121	4653.25
538.891	4437.25
539.661	4181.25
540.431	3948.25
541.201	3739.25
541.971	3549.25
542.741	3347.25
543.51	3189.25
544.28	3049.25
545.05	2900.25
545.819	2762.25
546.588	2607.25
547.358	2487.25
548.127	2353.25
548.896	2239.25
549.665	2113.25
550.434	1997.25
551.203	1905.25
551.972	1799.25
552.741	1686.25
553.51	1583.25
554.278	1498.25
555.047	1416.25
555.815	1336.25
556.584	1258.25
557.352	1184.25
558.121	1133.25
558.889	1064.25
559.657	1001.25
560.425	935.25
561.193	891.25
561.961	836.25
562.729	793.25
563.496	736.25
564.264	711.25
565.032	665.25
565.799	629.25
566.567	587.25
567.334	562.25
568.101	535.25
568.869	509.25
569.636	468.25
570.403	449.25
571.17	421.25
571.937	389.25
572.704	374.25
573.471	353.25
574.237	334.25
575.004	323.25
575.771	298.25
576.537	278.25
577.303	270.25
578.07	247.25
578.836	240.25
579.602	225.25
580.368	210.25
581.134	195.25
581.9	190.25
582.666	174.25
583.432	169.25
584.198	158.25
584.964	147.25
585.729	142.25
586.495	132.25
587.26	130.25
588.025	119.25
588.791	116.25
589.556	108.25
590.321	104.25
591.086	100.25
591.851	93.25
592.616	90.25
593.381	88.25
594.146	78.25
594.911	80.25
595.675	72.25
596.44	71.25
597.204	68.25
597.969	63.25
598.733	62.25
599.497	61.25
600.261	56.25
601.025	56.25
601.79	49.25
602.553	52.25
603.317	45.25
604.081	45.25
604.845	42.25
605.609	42.25
606.372	41.25
607.136	38.25
607.899	39.25
608.662	36.25
609.426	35.25
610.189	32.25
610.952	32.25
611.715	29.25
612.478	29.25
613.241	26.25
614.004	29.25
614.767	29.25
615.529	26.25
616.292	23.25
617.055	22.25
617.817	24.25
618.579	25.25
619.342	21.25
620.104	20.25
620.866	21.25
621.628	18.25
622.39	17.25
623.152	18.25
623.914	19.25
624.676	19.25
625.438	18.25
626.199	17.25
626.961	12.25
627.722	16.25
628.484	17.25
629.245	14.25
630.006	15.25
630.768	12.25
631.529	13.25
632.29	10.25
633.051	11.25
633.812	11.25
634.573	9.25
635.333	12.25
636.094	12.25
636.855	8.25
637.615	9.25
638.376	8.25
639.136	10.25
639.896	7.25
640.657	9.25
641.417	9.25
642.177	6.25
642.937	10.25
643.697	11.25
644.457	9.25
645.216	10.25
645.976	10.25
646.736	9.25
647.495	6.25
648.255	9.25
649.014	7.25
649.774	8.25
650.533	7.25
651.292	6.25
652.051	7.25
652.81	7.25
653.569	6.25
654.328	6.25
655.087	6.25
655.846	6.25
656.604	6.25
657.363	7.25
658.121	6.25
658.88	5.25
659.638	6.25
660.397	6.25
661.155	6.25
661.913	6.25
662.671	7.25
663.429	4.25
664.187	6.25
664.945	5.25
665.703	7.25
666.46	6.25
667.218	2.25
667.976	5.25
668.733	3.25
669.49	5.25
670.248	4.25
671.005	6.25
671.762	5.25
672.519	6.25
673.276	2.25
674.033	2.25
674.79	4.25
675.547	6.25
676.304	9.25
677.06	5.25
677.817	4.25
678.574	6.25
679.33	3.25
680.086	3.25
680.843	6.25
681.599	5.25
682.355	6.25
683.111	5.25
683.867	3.25
684.623	5.25
685.379	3.25
686.135	6.25
686.89	3.25
687.646	4.25
688.402	3.25
689.157	4.25
689.912	4.25
690.668	3.25
691.423	4.25
692.178	5.25
692.933	4.25
693.688	5.25
694.443	4.25
695.198	5.25
695.953	6.25
696.708	4.25
697.462	4.25
698.217	3.25
698.972	5.25
699.726	4.25
700.48	3.25
701.235	8.25
701.989	5.25
702.743	4.25
703.497	5.25
704.251	4.25
705.005	4.25
705.759	3.25
706.513	5.25
707.266	3.25
708.02	4.25
708.774	3.25
709.527	4.25
710.28	4.25
711.034	2.25
711.787	3.25
712.54	4.25
713.293	4.25
714.046	4.25
714.799	3.25
715.552	2.25
716.305	5.25
717.058	6.25
717.81	4.25
718.563	5.25
719.315	3.25
720.068	6.25
720.82	5.25
721.573	5.25
722.325	4.25
723.077	5.25
723.829	6.25
724.581	6.25
725.333	4.25
726.085	2.25
726.836	6.25
727.588	4.25
728.34	1.25
729.091	3.25
729.843	3.25
730.594	5.25
731.346	6.25
732.097	3.25
732.848	3.25
733.599	4.25
734.35	4.25
735.101	5.25
735.852	5.25
736.603	4.25
737.354	4.25
738.104	4.25
738.855	6.25
739.605	1.25
740.356	6.25
741.106	7.25
741.856	3.25
742.607	5.25
743.357	4.25
744.107	4.25
744.857	9.25
745.607	5.25
746.357	6.25
747.106	3.25
747.856	5.25
748.606	7.25
749.355	6.25
750.105	7.25
750.854	5.25
751.603	6.25
752.353	7.25
753.102	7.25
753.851	6.25
754.6	5.25
755.349	7.25
756.098	6.25
756.847	7.25
757.595	7.25
758.344	8.25
759.093	8.25
759.841	7.25
760.589	7.25
761.338	7.25
762.086	9.25
762.834	6.25
763.582	7.25
764.331	9.25
765.079	7.25
765.826	7.25
766.574	8.25
767.322	8.25
768.07	8.25
768.817	9.25
769.565	11.25
770.312	9.25
771.06	8.25
771.807	11.25
772.554	7.25
773.302	9.25
774.049	8.25
774.796	10.25
775.543	9.25
776.29	9.25
777.036	8.25
777.783	8.25
778.53	11.25
779.276	11.25
780.023	9.25
780.769	8.25
781.516	10.25
782.262	9.25
783.008	10.25
783.754	10.25
784.5	12.25
785.246	10.25
785.992	7.25
786.738	9.25
787.484	11.25
788.23	9.25
788.975	10.25
789.721	10.25
790.466	8.25
791.212	11.25
791.957	10.25
792.702	12.25
793.447	7.25
794.193	11.25
794.938	10.25
795.683	8.25
796.427	9.25
797.172	9.25
797.917	7.25
798.662	10.25
799.406	9.25
800.151	9.25
800.895	10.25
801.64	9.25
802.384	7.25
803.128	6.25
803.872	8.25
804.616	3.25
805.36	8.25
806.104	6.25
806.848	8.25
807.592	5.25
808.336	6.25
809.079	7.25
809.823	5.25
810.566	6.25
811.31	10.25
812.053	5.25
812.796	8.25
813.539	7.25
814.283	6.25
815.026	7.25
815.769	5.25
816.511	5.25
817.254	4.25
817.997	5.25
818.74	5.25
819.482	6.25
820.225	6.25
820.967	4.25
821.71	6.25
822.452	7.25
823.194	7.25
823.936	4.25
824.678	2.25
825.42	8.25
826.162	5.25
826.904	4.25
827.646	4.25
828.388	6.25
829.129	4.25
829.871	6.25
830.612	5.25
831.354	6.25
832.095	4.25
832.836	3.25
833.577	2.25
834.319	4.25
835.06	5.25
835.801	4.25
836.542	5.25
837.282	4.25
838.023	2.25
838.764	4.25
839.504	5.25
840.245	3.25
840.985	6.25
841.726	3.25
842.466	2.25
843.206	3.25
843.946	5.25
844.687	4.25
845.427	3.25
846.166	7.25
846.906	1.25
847.646	4.25
848.386	4.25
849.125	6.25
849.865	2.25
850.605	5.25
851.344	2.25
852.083	5.25
852.823	3.25
853.562	5.25
854.301	3.25
855.04	3.25
855.779	2.25
856.518	2.25
857.257	2.25
857.995	1.25
858.734	1.25
859.473	1.25
860.211	1.25
860.95	2.25
861.688	2.25
862.426	3.25
863.165	1.25
863.903	2.25
864.641	0.25
865.379	1.25
866.117	2.25
866.855	1.25
867.593	3.25
868.33	3.25
869.068	1.25
869.806	3.25
870.543	3.25
871.28	4.25
872.018	1.25
872.755	2.25
873.492	2.25
874.229	2.25
874.967	1.25
875.703	0.25
876.44	1.25
877.177	1.25
877.914	0.25
878.651	1.25
879.387	1.25
880.124	2.25
880.86	2.25
881.597	2.25
882.333	1.25
883.069	2.25
883.806	2.25
884.542	2.25
885.278	2.25
886.014	1.25
886.749	0.25
887.485	0.25
888.221	0.25
888.957	2.25
889.692	1.25
890.428	0.25
891.163	2.25
891.899	1.25
892.634	1.25
893.369	5.25
894.104	-1.75
894.839	0.25
895.574	1.25
896.309	-0.75
897.044	4.25
897.779	1.25
898.514	1.25
899.248	0.25
899.983	1.25
900.717	1.25
901.452	1.25
902.186	3.25
902.92	1.25
903.654	4.25
904.389	1.25
905.123	3.25
905.857	2.25
906.59	0.25
907.324	1.25
908.058	1.25
908.792	2.25
909.525	2.25
910.259	2.25
910.992	1.25
911.726	0.25
912.459	2.25
913.192	2.25
913.925	1.25
914.658	1.25
915.391	2.25
916.124	1.25
916.857	-0.75
917.59	3.25
918.323	0.25
919.055	0.25
919.788	1.25
920.521	0.25
921.253	2.25
921.985	1.25
922.718	1.25
923.45	2.25
924.182	0.25
924.914	-0.75
925.646	-1.75
926.378	2.25
927.11	3.25
927.841	1.25
928.573	1.25
929.305	0.25
930.036	-0.75
930.768	1.25
931.499	1.25
932.23	-0.75
932.962	2.25
933.693	2.25
934.424	1.25
935.155	2.25
935.886	0.25
936.617	1.25
937.348	0.25
938.078	0.25
938.809	3.25
939.54	1.25
940.27	2.25
941.001	1.25
941.731	1.25
942.461	0.25
943.191	1.25
943.922	1.25
944.652	1.25
945.382	1.25
946.112	1.25
946.841	2.25
947.571	3.25
948.301	0.25
949.031	0.25
949.76	3.25
950.49	2.25
951.219	0.25
951.948	1.25
952.678	1.25
953.407	1.25
954.136	0.25
954.865	-1.75
955.594	-2.75
956.323	-0.75
957.052	1.25
957.78	1.25
958.509	1.25
959.238	0.25
959.966	1.25
960.695	0.25
961.423	-0.75
962.151	0.25
962.88	3.25
963.608	3.25
964.336	1.25
965.064	2.25
965.792	0.25
966.52	-0.75
967.247	2.25
967.975	0.25
968.703	1.25
969.43	-0.75
970.158	2.25
970.885	2.25
971.613	1.25
972.34	-0.75
973.067	-0.75
973.794	1.25
974.521	-0.75
975.248	0.25
975.975	-0.75
976.702	0.25
977.429	1.25
978.156	2.25
978.882	2.25
979.609	1.25
980.335	1.25
981.062	-0.75
981.788	0.25
982.514	3.25
983.24	2.25
983.967	1.25
984.693	1.25
985.419	-1.75
986.144	1.25
986.87	0.25
987.596	2.25
988.322	1.25
989.047	1.25
989.773	1.25
990.498	1.25
991.224	2.25
991.949	-0.75
992.674	-0.75
993.399	0.25
994.124	-1.75
994.849	3.25
995.574	-0.75
996.299	-0.75
997.024	0.25
997.749	-0.75
998.473	1.25
999.198	0.25
999.922	1.25
1000.647	0.25
1001.371	5.25
1002.095	-0.75
1002.82	0.25
1003.544	0.25
1004.268	0.25
1004.992	2.25
1005.716	2.25
1006.439	-0.75
1007.163	1.25
1007.887	-0.75
1008.611	-0.75
1009.334	1.25
1010.058	2.25
1010.781	-0.75
1011.504	1.25
1012.228	0.25
1012.951	0.25
1013.674	-1.75
1014.397	-2.75
1015.12	-0.75
