节点500_285_QEPB04081__436__15-02-48-543.txt的数据

Date: Wed Nov 12 15:02:48 CST 2025
User: PC
Spectrometer: QEPB0408
触发模式: 0
积分时间 (秒): 1.000000E-2
Scans to average: 1
启用暗噪声校正: true
启用非线性校正: false
滑动平均宽度: 0
X轴模式: Wavelengths
Number of Pixels in Spectrum: 1044
>>>>>Begin Spectral Data<<<<<
220.843	3.12
221.644	1.12
222.444	1.12
223.244	1.12
224.045	1.12
224.845	2.12
225.645	2.12
226.445	2.12
227.245	3.12
228.045	3.12
228.845	2.12
229.645	2.12
230.444	4.12
231.244	3.12
232.043	4.12
232.843	3.12
233.642	4.12
234.442	3.12
235.241	3.12
236.04	5.12
236.839	3.12
237.638	4.12
238.437	4.12
239.236	4.12
240.035	4.12
240.833	5.12
241.632	4.12
242.43	2.12
243.229	5.12
244.027	4.12
244.826	7.12
245.624	6.12
246.422	6.12
247.22	6.12
248.018	6.12
248.816	6.12
249.614	7.12
250.412	8.12
251.21	7.12
252.007	9.12
252.805	6.12
253.602	7.12
254.4	11.12
255.197	9.12
255.994	9.12
256.791	9.12
257.589	9.12
258.386	9.12
259.183	9.12
259.979	9.12
260.776	12.12
261.573	10.12
262.37	11.12
263.166	13.12
263.963	10.12
264.759	12.12
265.556	11.12
266.352	12.12
267.148	14.12
267.944	16.12
268.74	16.12
269.536	14.12
270.332	14.12
271.128	16.12
271.924	18.12
272.719	16.12
273.515	17.12
274.311	15.12
275.106	16.12
275.901	17.12
276.697	18.12
277.492	21.12
278.287	18.12
279.082	18.12
279.877	17.12
280.672	16.12
281.467	21.12
282.262	17.12
283.056	19.12
283.851	18.12
284.646	18.12
285.44	21.12
286.234	18.12
287.029	18.12
287.823	20.12
288.617	20.12
289.411	17.12
290.205	17.12
290.999	23.12
291.793	19.12
292.587	15.12
293.381	14.12
294.174	19.12
294.968	18.12
295.761	14.12
296.555	14.12
297.348	17.12
298.141	16.12
298.935	18.12
299.728	16.12
300.521	16.12
301.314	14.12
302.107	14.12
302.899	14.12
303.692	14.12
304.485	12.12
305.277	14.12
306.07	13.12
306.862	13.12
307.655	16.12
308.447	11.12
309.239	10.12
310.031	10.12
310.823	10.12
311.615	12.12
312.407	9.12
313.199	8.12
313.991	9.12
314.783	11.12
315.574	10.12
316.366	9.12
317.157	9.12
317.949	9.12
318.74	7.12
319.531	7.12
320.322	6.12
321.113	12.12
321.904	10.12
322.695	9.12
323.486	8.12
324.277	6.12
325.068	9.12
325.858	6.12
326.649	8.12
327.439	6.12
328.23	10.12
329.02	7.12
329.81	6.12
330.6	7.12
331.391	8.12
332.181	9.12
332.971	8.12
333.76	7.12
334.55	6.12
335.34	8.12
336.13	6.12
336.919	7.12
337.709	5.12
338.498	8.12
339.287	7.12
340.077	7.12
340.866	7.12
341.655	7.12
342.444	9.12
343.233	8.12
344.022	5.12
344.811	3.12
345.6	7.12
346.388	2.12
347.177	8.12
347.965	8.12
348.754	6.12
349.542	9.12
350.33	5.12
351.119	5.12
351.907	6.12
352.695	6.12
353.483	6.12
354.271	6.12
355.059	7.12
355.846	5.12
356.634	9.12
357.422	7.12
358.209	3.12
358.997	5.12
359.784	7.12
360.571	6.12
361.359	6.12
362.146	5.12
362.933	6.12
363.72	7.12
364.507	5.12
365.294	5.12
366.081	7.12
366.867	7.12
367.654	6.12
368.44	7.12
369.227	6.12
370.013	4.12
370.8	4.12
371.586	7.12
372.372	6.12
373.158	5.12
373.944	5.12
374.73	6.12
375.516	6.12
376.302	6.12
377.088	5.12
377.873	6.12
378.659	6.12
379.445	4.12
380.23	4.12
381.015	7.12
381.801	5.12
382.586	7.12
383.371	4.12
384.156	4.12
384.941	7.12
385.726	4.12
386.511	4.12
387.296	6.12
388.08	6.12
388.865	6.12
389.649	6.12
390.434	7.12
391.218	8.12
392.003	8.12
392.787	5.12
393.571	4.12
394.355	7.12
395.139	5.12
395.923	8.12
396.707	6.12
397.491	6.12
398.274	8.12
399.058	3.12
399.842	6.12
400.625	5.12
401.408	5.12
402.192	7.12
402.975	8.12
403.758	9.12
404.541	5.12
405.324	11.12
406.107	7.12
406.89	8.12
407.673	7.12
408.456	7.12
409.238	10.12
410.021	9.12
410.803	10.12
411.586	8.12
412.368	10.12
413.151	9.12
413.933	10.12
414.715	10.12
415.497	11.12
416.279	12.12
417.061	9.12
417.843	8.12
418.624	10.12
419.406	10.12
420.188	10.12
420.969	10.12
421.751	13.12
422.532	10.12
423.313	10.12
424.095	13.12
424.876	14.12
425.657	14.12
426.438	13.12
427.219	15.12
428	14.12
428.78	12.12
429.561	10.12
430.342	14.12
431.122	14.12
431.903	16.12
432.683	15.12
433.464	16.12
434.244	13.12
435.024	18.12
435.804	16.12
436.584	18.12
437.364	22.12
438.144	19.12
438.924	21.12
439.704	22.12
440.483	24.12
441.263	24.12
442.042	26.12
442.822	26.12
443.601	28.12
444.38	29.12
445.16	31.12
445.939	36.12
446.718	36.12
447.497	39.12
448.276	42.12
449.054	45.12
449.833	47.12
450.612	50.12
451.391	58.12
452.169	59.12
452.948	69.12
453.726	75.12
454.504	82.12
455.282	94.12
456.061	103.12
456.839	114.12
457.617	128.12
458.395	140.12
459.172	155.12
459.95	172.12
460.728	190.12
461.506	212.12
462.283	231.12
463.061	264.12
463.838	291.12
464.615	329.12
465.393	366.12
466.17	403.12
466.947	465.12
467.724	512.12
468.501	571.12
469.278	635.12
470.055	707.12
470.831	771.12
471.608	869.12
472.385	964.12
473.161	1057.12
473.938	1165.12
474.714	1313.12
475.49	1436.12
476.266	1595.12
477.043	1747.12
477.819	1940.12
478.595	2130.12
479.371	2335.12
480.146	2558.12
480.922	2850.12
481.698	3138.12
482.473	3449.12
483.249	3810.12
484.024	4162.12
484.8	4545.12
485.575	4990.12
486.35	5519.12
487.126	6016.12
487.901	6604.12
488.676	7209.12
489.451	7895.12
490.225	8617.12
491	9403.12
491.775	10285.12
492.55	11118.12
493.324	12095.12
494.099	12991.12
494.873	14033.12
495.647	15096.12
496.422	16229.12
497.196	17385.12
497.97	18551.12
498.744	19712.12
499.518	20852.12
500.292	21915.12
501.066	23032.12
501.839	23989.12
502.613	24860.12
503.387	25759.12
504.16	26324.12
504.934	26677.12
505.707	26935.12
506.48	27083.12
507.253	26931.12
508.027	26809.12
508.8	26509.12
509.573	26092.12
510.346	25593.12
511.118	24895.12
511.891	24142.12
512.664	23359.12
513.437	22443.12
514.209	21534.12
514.982	20729.12
515.754	19833.12
516.526	18939.12
517.298	18139.12
518.071	17294.12
518.843	16715.12
519.615	16040.12
520.387	15403.12
521.159	14838.12
521.93	14249.12
522.702	13666.12
523.474	13108.12
524.245	12544.12
525.017	11967.12
525.788	11531.12
526.56	11067.12
527.331	10488.12
528.102	10057.12
528.873	9589.12
529.644	9105.12
530.415	8708.12
531.186	8234.12
531.957	7824.12
532.728	7439.12
533.498	7037.12
534.269	6650.12
535.039	6313.12
535.81	5940.12
536.58	5626.12
537.351	5284.12
538.121	5011.12
538.891	4763.12
539.661	4484.12
540.431	4234.12
541.201	4004.12
541.971	3771.12
542.741	3578.12
543.51	3429.12
544.28	3240.12
545.05	3098.12
545.819	2951.12
546.588	2789.12
547.358	2643.12
548.127	2509.12
548.896	2391.12
549.665	2263.12
550.434	2160.12
551.203	2026.12
551.972	1954.12
552.741	1827.12
553.51	1726.12
554.278	1626.12
555.047	1538.12
555.815	1451.12
556.584	1385.12
557.352	1295.12
558.121	1224.12
558.889	1148.12
559.657	1096.12
560.425	1037.12
561.193	974.12
561.961	922.12
562.729	862.12
563.496	814.12
564.264	778.12
565.032	727.12
565.799	690.12
566.567	653.12
567.334	617.12
568.101	584.12
568.869	557.12
569.636	514.12
570.403	475.12
571.17	466.12
571.937	442.12
572.704	405.12
573.471	392.12
574.237	366.12
575.004	346.12
575.771	325.12
576.537	308.12
577.303	290.12
578.07	265.12
578.836	258.12
579.602	241.12
580.368	225.12
581.134	217.12
581.9	203.12
582.666	192.12
583.432	184.12
584.198	172.12
584.964	166.12
585.729	158.12
586.495	154.12
587.26	138.12
588.025	133.12
588.791	124.12
589.556	122.12
590.321	113.12
591.086	107.12
591.851	100.12
592.616	100.12
593.381	94.12
594.146	89.12
594.911	82.12
595.675	82.12
596.44	75.12
597.204	73.12
597.969	70.12
598.733	66.12
599.497	61.12
600.261	62.12
601.025	61.12
601.79	58.12
602.553	53.12
603.317	51.12
604.081	53.12
604.845	44.12
605.609	46.12
606.372	42.12
607.136	39.12
607.899	41.12
608.662	40.12
609.426	35.12
610.189	34.12
610.952	33.12
611.715	33.12
612.478	30.12
613.241	31.12
614.004	28.12
614.767	30.12
615.529	24.12
616.292	25.12
617.055	25.12
617.817	22.12
618.579	27.12
619.342	25.12
620.104	21.12
620.866	23.12
621.628	21.12
622.39	19.12
623.152	22.12
623.914	19.12
624.676	17.12
625.438	17.12
626.199	16.12
626.961	16.12
627.722	13.12
628.484	16.12
629.245	14.12
630.006	14.12
630.768	15.12
631.529	15.12
632.29	14.12
633.051	12.12
633.812	12.12
634.573	11.12
635.333	10.12
636.094	11.12
636.855	12.12
637.615	13.12
638.376	12.12
639.136	12.12
639.896	10.12
640.657	10.12
641.417	10.12
642.177	10.12
642.937	9.12
643.697	10.12
644.457	7.12
645.216	6.12
645.976	8.12
646.736	7.12
647.495	9.12
648.255	5.12
649.014	9.12
649.774	9.12
650.533	5.12
651.292	6.12
652.051	8.12
652.81	7.12
653.569	7.12
654.328	7.12
655.087	5.12
655.846	7.12
656.604	9.12
657.363	6.12
658.121	9.12
658.88	7.12
659.638	6.12
660.397	7.12
661.155	4.12
661.913	7.12
662.671	6.12
663.429	8.12
664.187	8.12
664.945	8.12
665.703	7.12
666.46	5.12
667.218	5.12
667.976	4.12
668.733	4.12
669.49	5.12
670.248	6.12
671.005	7.12
671.762	6.12
672.519	4.12
673.276	4.12
674.033	7.12
674.79	3.12
675.547	2.12
676.304	5.12
677.06	4.12
677.817	2.12
678.574	4.12
679.33	5.12
680.086	2.12
680.843	5.12
681.599	5.12
682.355	4.12
683.111	3.12
683.867	6.12
684.623	4.12
685.379	2.12
686.135	5.12
686.89	3.12
687.646	4.12
688.402	4.12
689.157	3.12
689.912	2.12
690.668	6.12
691.423	5.12
692.178	5.12
692.933	6.12
693.688	5.12
694.443	4.12
695.198	5.12
695.953	3.12
696.708	4.12
697.462	4.12
698.217	3.12
698.972	3.12
699.726	5.12
700.48	1.12
701.235	4.12
701.989	1.12
702.743	2.12
703.497	3.12
704.251	2.12
705.005	5.12
705.759	5.12
706.513	3.12
707.266	3.12
708.02	2.12
708.774	5.12
709.527	2.12
710.28	4.12
711.034	5.12
711.787	4.12
712.54	3.12
713.293	2.12
714.046	3.12
714.799	5.12
715.552	5.12
716.305	6.12
717.058	4.12
717.81	4.12
718.563	5.12
719.315	5.12
720.068	4.12
720.82	3.12
721.573	7.12
722.325	3.12
723.077	5.12
723.829	2.12
724.581	4.12
725.333	6.12
726.085	3.12
726.836	4.12
727.588	2.12
728.34	4.12
729.091	4.12
729.843	5.12
730.594	4.12
731.346	3.12
732.097	6.12
732.848	5.12
733.599	4.12
734.35	5.12
735.101	3.12
735.852	6.12
736.603	6.12
737.354	7.12
738.104	5.12
738.855	6.12
739.605	7.12
740.356	5.12
741.106	6.12
741.856	5.12
742.607	8.12
743.357	6.12
744.107	7.12
744.857	4.12
745.607	6.12
746.357	8.12
747.106	4.12
747.856	4.12
748.606	6.12
749.355	8.12
750.105	5.12
750.854	3.12
751.603	6.12
752.353	5.12
753.102	7.12
753.851	4.12
754.6	6.12
755.349	6.12
756.098	5.12
756.847	6.12
757.595	8.12
758.344	5.12
759.093	6.12
759.841	5.12
760.589	6.12
761.338	6.12
762.086	6.12
762.834	7.12
763.582	7.12
764.331	5.12
765.079	7.12
765.826	8.12
766.574	7.12
767.322	6.12
768.07	6.12
768.817	7.12
769.565	7.12
770.312	6.12
771.06	7.12
771.807	10.12
772.554	8.12
773.302	6.12
774.049	6.12
774.796	11.12
775.543	6.12
776.29	10.12
777.036	8.12
777.783	9.12
778.53	11.12
779.276	9.12
780.023	8.12
780.769	9.12
781.516	10.12
782.262	7.12
783.008	11.12
783.754	11.12
784.5	8.12
785.246	9.12
785.992	11.12
786.738	9.12
787.484	7.12
788.23	9.12
788.975	6.12
789.721	11.12
790.466	12.12
791.212	9.12
791.957	10.12
792.702	9.12
793.447	11.12
794.193	8.12
794.938	8.12
795.683	10.12
796.427	8.12
797.172	10.12
797.917	7.12
798.662	9.12
799.406	8.12
800.151	9.12
800.895	7.12
801.64	8.12
802.384	8.12
803.128	8.12
803.872	5.12
804.616	9.12
805.36	8.12
806.104	6.12
806.848	6.12
807.592	4.12
808.336	7.12
809.079	6.12
809.823	6.12
810.566	7.12
811.31	5.12
812.053	7.12
812.796	4.12
813.539	5.12
814.283	5.12
815.026	4.12
815.769	5.12
816.511	7.12
817.254	6.12
817.997	6.12
818.74	10.12
819.482	8.12
820.225	6.12
820.967	5.12
821.71	3.12
822.452	6.12
823.194	3.12
823.936	3.12
824.678	5.12
825.42	4.12
826.162	4.12
826.904	4.12
827.646	3.12
828.388	5.12
829.129	5.12
829.871	2.12
830.612	5.12
831.354	3.12
832.095	2.12
832.836	3.12
833.577	4.12
834.319	4.12
835.06	1.12
835.801	4.12
836.542	2.12
837.282	4.12
838.023	3.12
838.764	3.12
839.504	4.12
840.245	3.12
840.985	2.12
841.726	3.12
842.466	3.12
843.206	5.12
843.946	2.12
844.687	4.12
845.427	2.12
846.166	2.12
846.906	4.12
847.646	3.12
848.386	4.12
849.125	3.12
849.865	2.12
850.605	0.12
851.344	4.12
852.083	2.12
852.823	4.12
853.562	2.12
854.301	2.12
855.04	2.12
855.779	4.12
856.518	3.12
857.257	4.12
857.995	4.12
858.734	1.12
859.473	3.12
860.211	3.12
860.95	2.12
861.688	0.12
862.426	3.12
863.165	2.12
863.903	3.12
864.641	2.12
865.379	1.12
866.117	3.12
866.855	2.12
867.593	2.12
868.33	2.12
869.068	0.12
869.806	2.12
870.543	3.12
871.28	3.12
872.018	1.12
872.755	2.12
873.492	2.12
874.229	3.12
874.967	2.12
875.703	1.12
876.44	3.12
877.177	0.12
877.914	-1.88
878.651	4.12
879.387	2.12
880.124	2.12
880.86	2.12
881.597	1.12
882.333	0.12
883.069	0.12
883.806	1.12
884.542	2.12
885.278	1.12
886.014	1.12
886.749	0.12
887.485	1.12
888.221	-0.88
888.957	1.12
889.692	1.12
890.428	1.12
891.163	1.12
891.899	1.12
892.634	1.12
893.369	2.12
894.104	2.12
894.839	1.12
895.574	1.12
896.309	1.12
897.044	0.12
897.779	4.12
898.514	0.12
899.248	-0.88
899.983	1.12
900.717	-0.88
901.452	1.12
902.186	0.12
902.92	2.12
903.654	2.12
904.389	0.12
905.123	1.12
905.857	1.12
906.59	1.12
907.324	1.12
908.058	0.12
908.792	2.12
909.525	1.12
910.259	0.12
910.992	0.12
911.726	1.12
912.459	2.12
913.192	2.12
913.925	2.12
914.658	-0.88
915.391	2.12
916.124	0.12
916.857	1.12
917.59	0.12
918.323	2.12
919.055	1.12
919.788	1.12
920.521	2.12
921.253	2.12
921.985	0.12
922.718	0.12
923.45	-2.88
924.182	0.12
924.914	1.12
925.646	0.12
926.378	2.12
927.11	2.12
927.841	-0.88
928.573	-0.88
929.305	0.12
930.036	1.12
930.768	2.12
931.499	1.12
932.23	-1.88
932.962	0.12
933.693	2.12
934.424	-0.88
935.155	0.12
935.886	2.12
936.617	0.12
937.348	2.12
938.078	-0.88
938.809	1.12
939.54	3.12
940.27	1.12
941.001	1.12
941.731	3.12
942.461	1.12
943.191	1.12
943.922	1.12
944.652	1.12
945.382	2.12
946.112	1.12
946.841	2.12
947.571	-0.88
948.301	2.12
949.031	0.12
949.76	0.12
950.49	-0.88
951.219	-0.88
951.948	0.12
952.678	1.12
953.407	0.12
954.136	-1.88
954.865	-0.88
955.594	0.12
956.323	-0.88
957.052	2.12
957.78	0.12
958.509	0.12
959.238	3.12
959.966	0.12
960.695	-0.88
961.423	0.12
962.151	3.12
962.88	2.12
963.608	3.12
964.336	-1.88
965.064	0.12
965.792	2.12
966.52	1.12
967.247	3.12
967.975	-0.88
968.703	-0.88
969.43	2.12
970.158	-0.88
970.885	0.12
971.613	0.12
972.34	0.12
973.067	0.12
973.794	0.12
974.521	1.12
975.248	1.12
975.975	0.12
976.702	2.12
977.429	0.12
978.156	-0.88
978.882	1.12
979.609	1.12
980.335	1.12
981.062	1.12
981.788	0.12
982.514	0.12
983.24	2.12
983.967	-0.88
984.693	3.12
985.419	-1.88
986.144	-0.88
986.87	1.12
987.596	0.12
988.322	0.12
989.047	1.12
989.773	0.12
990.498	0.12
991.224	2.12
991.949	1.12
992.674	1.12
993.399	2.12
994.124	1.12
994.849	0.12
995.574	2.12
996.299	-0.88
997.024	4.12
997.749	0.12
998.473	2.12
999.198	0.12
999.922	2.12
1000.647	-1.88
1001.371	3.12
1002.095	-0.88
1002.82	0.12
1003.544	-0.88
1004.268	2.12
1004.992	5.12
1005.716	2.12
1006.439	1.12
1007.163	1.12
1007.887	3.12
1008.611	1.12
1009.334	1.12
1010.058	1.12
1010.781	1.12
1011.504	0.12
1012.228	1.12
1012.951	-0.88
1013.674	-1.88
1014.397	1.12
1015.12	0.12
