节点500_285_QEPB04081__27__14-56-01-438.txt的数据

Date: Wed Nov 12 14:56:01 CST 2025
User: PC
Spectrometer: QEPB0408
触发模式: 0
积分时间 (秒): 1.000000E-2
Scans to average: 1
启用暗噪声校正: true
启用非线性校正: false
滑动平均宽度: 0
X轴模式: Wavelengths
Number of Pixels in Spectrum: 1044
>>>>>Begin Spectral Data<<<<<
220.843	4.12
221.644	2.12
222.444	3.12
223.244	1.12
224.045	4.12
224.845	3.12
225.645	-0.88
226.445	4.12
227.245	2.12
228.045	3.12
228.845	3.12
229.645	5.12
230.444	3.12
231.244	1.12
232.043	4.12
232.843	1.12
233.642	6.12
234.442	1.12
235.241	3.12
236.04	3.12
236.839	4.12
237.638	2.12
238.437	7.12
239.236	5.12
240.035	2.12
240.833	7.12
241.632	3.12
242.43	5.12
243.229	7.12
244.027	5.12
244.826	8.12
245.624	6.12
246.422	3.12
247.22	8.12
248.018	8.12
248.816	5.12
249.614	9.12
250.412	5.12
251.21	7.12
252.007	7.12
252.805	7.12
253.602	5.12
254.4	8.12
255.197	12.12
255.994	7.12
256.791	9.12
257.589	11.12
258.386	8.12
259.183	13.12
259.979	11.12
260.776	11.12
261.573	13.12
262.37	13.12
263.166	12.12
263.963	16.12
264.759	14.12
265.556	11.12
266.352	15.12
267.148	15.12
267.944	13.12
268.74	16.12
269.536	16.12
270.332	17.12
271.128	21.12
271.924	19.12
272.719	17.12
273.515	17.12
274.311	17.12
275.106	19.12
275.901	20.12
276.697	20.12
277.492	18.12
278.287	19.12
279.082	19.12
279.877	23.12
280.672	20.12
281.467	25.12
282.262	19.12
283.056	21.12
283.851	21.12
284.646	19.12
285.44	20.12
286.234	19.12
287.029	21.12
287.823	19.12
288.617	19.12
289.411	22.12
290.205	18.12
290.999	22.12
291.793	20.12
292.587	21.12
293.381	17.12
294.174	15.12
294.968	17.12
295.761	15.12
296.555	12.12
297.348	13.12
298.141	16.12
298.935	17.12
299.728	18.12
300.521	16.12
301.314	15.12
302.107	14.12
302.899	14.12
303.692	12.12
304.485	13.12
305.277	13.12
306.07	13.12
306.862	11.12
307.655	11.12
308.447	13.12
309.239	13.12
310.031	13.12
310.823	11.12
311.615	13.12
312.407	11.12
313.199	10.12
313.991	9.12
314.783	9.12
315.574	8.12
316.366	8.12
317.157	7.12
317.949	10.12
318.74	8.12
319.531	11.12
320.322	6.12
321.113	7.12
321.904	9.12
322.695	8.12
323.486	7.12
324.277	7.12
325.068	8.12
325.858	8.12
326.649	8.12
327.439	6.12
328.23	8.12
329.02	6.12
329.81	6.12
330.6	6.12
331.391	8.12
332.181	3.12
332.971	8.12
333.76	7.12
334.55	4.12
335.34	7.12
336.13	6.12
336.919	9.12
337.709	7.12
338.498	6.12
339.287	7.12
340.077	7.12
340.866	8.12
341.655	6.12
342.444	7.12
343.233	6.12
344.022	6.12
344.811	6.12
345.6	7.12
346.388	7.12
347.177	8.12
347.965	7.12
348.754	4.12
349.542	7.12
350.33	6.12
351.119	5.12
351.907	7.12
352.695	9.12
353.483	5.12
354.271	6.12
355.059	3.12
355.846	5.12
356.634	6.12
357.422	7.12
358.209	8.12
358.997	8.12
359.784	5.12
360.571	7.12
361.359	5.12
362.146	6.12
362.933	5.12
363.72	7.12
364.507	6.12
365.294	6.12
366.081	3.12
366.867	7.12
367.654	4.12
368.44	6.12
369.227	5.12
370.013	5.12
370.8	4.12
371.586	7.12
372.372	5.12
373.158	6.12
373.944	4.12
374.73	7.12
375.516	6.12
376.302	7.12
377.088	3.12
377.873	6.12
378.659	5.12
379.445	6.12
380.23	6.12
381.015	7.12
381.801	4.12
382.586	5.12
383.371	5.12
384.156	7.12
384.941	8.12
385.726	6.12
386.511	7.12
387.296	6.12
388.08	4.12
388.865	5.12
389.649	6.12
390.434	6.12
391.218	5.12
392.003	5.12
392.787	5.12
393.571	6.12
394.355	6.12
395.139	6.12
395.923	6.12
396.707	6.12
397.491	8.12
398.274	7.12
399.058	5.12
399.842	5.12
400.625	8.12
401.408	9.12
402.192	8.12
402.975	9.12
403.758	8.12
404.541	7.12
405.324	9.12
406.107	8.12
406.89	9.12
407.673	10.12
408.456	9.12
409.238	9.12
410.021	8.12
410.803	9.12
411.586	9.12
412.368	7.12
413.151	11.12
413.933	11.12
414.715	7.12
415.497	12.12
416.279	10.12
417.061	12.12
417.843	11.12
418.624	11.12
419.406	10.12
420.188	12.12
420.969	12.12
421.751	8.12
422.532	11.12
423.313	13.12
424.095	13.12
424.876	10.12
425.657	10.12
426.438	12.12
427.219	13.12
428	13.12
428.78	14.12
429.561	13.12
430.342	17.12
431.122	15.12
431.903	15.12
432.683	16.12
433.464	15.12
434.244	18.12
435.024	15.12
435.804	17.12
436.584	19.12
437.364	19.12
438.144	19.12
438.924	20.12
439.704	23.12
440.483	24.12
441.263	25.12
442.042	26.12
442.822	26.12
443.601	27.12
444.38	31.12
445.16	32.12
445.939	33.12
446.718	37.12
447.497	35.12
448.276	41.12
449.054	43.12
449.833	44.12
450.612	50.12
451.391	54.12
452.169	53.12
452.948	62.12
453.726	68.12
454.504	78.12
455.282	79.12
456.061	95.12
456.839	98.12
457.617	111.12
458.395	127.12
459.172	135.12
459.95	150.12
460.728	168.12
461.506	189.12
462.283	213.12
463.061	235.12
463.838	259.12
464.615	299.12
465.393	329.12
466.17	369.12
466.947	405.12
467.724	467.12
468.501	514.12
469.278	579.12
470.055	645.12
470.831	724.12
471.608	798.12
472.385	901.12
473.161	1004.12
473.938	1117.12
474.714	1243.12
475.49	1393.12
476.266	1533.12
477.043	1716.12
477.819	1915.12
478.595	2129.12
479.371	2360.12
480.146	2611.12
480.922	2915.12
481.698	3220.12
482.473	3571.12
483.249	3939.12
484.024	4364.12
484.8	4839.12
485.575	5380.12
486.35	5959.12
487.126	6536.12
487.901	7226.12
488.676	7971.12
489.451	8755.12
490.225	9655.12
491	10588.12
491.775	11637.12
492.55	12730.12
493.324	13813.12
494.099	14980.12
494.873	16226.12
495.647	17427.12
496.422	18805.12
497.196	20067.12
497.97	21472.12
498.744	22786.12
499.518	23987.12
500.292	25181.12
501.066	26311.12
501.839	27303.12
502.613	28102.12
503.387	28823.12
504.16	29282.12
504.934	29415.12
505.707	29449.12
506.48	29223.12
507.253	28927.12
508.027	28387.12
508.8	27862.12
509.573	27212.12
510.346	26287.12
511.118	25286.12
511.891	24396.12
512.664	23404.12
513.437	22421.12
514.209	21410.12
514.982	20473.12
515.754	19456.12
516.526	18537.12
517.298	17743.12
518.071	16922.12
518.843	16295.12
519.615	15720.12
520.387	15064.12
521.159	14505.12
521.93	13925.12
522.702	13346.12
523.474	12831.12
524.245	12196.12
525.017	11684.12
525.788	11189.12
526.56	10662.12
527.331	10179.12
528.102	9693.12
528.873	9206.12
529.644	8685.12
530.415	8285.12
531.186	7835.12
531.957	7443.12
532.728	7022.12
533.498	6603.12
534.269	6225.12
535.039	5883.12
535.81	5583.12
536.58	5297.12
537.351	4935.12
538.121	4690.12
538.891	4454.12
539.661	4179.12
540.431	3943.12
541.201	3738.12
541.971	3545.12
542.741	3347.12
543.51	3194.12
544.28	3042.12
545.05	2914.12
545.819	2723.12
546.588	2627.12
547.358	2489.12
548.127	2350.12
548.896	2230.12
549.665	2110.12
550.434	1995.12
551.203	1894.12
551.972	1793.12
552.741	1708.12
553.51	1602.12
554.278	1498.12
555.047	1418.12
555.815	1339.12
556.584	1257.12
557.352	1194.12
558.121	1112.12
558.889	1064.12
559.657	998.12
560.425	947.12
561.193	899.12
561.961	826.12
562.729	799.12
563.496	763.12
564.264	710.12
565.032	677.12
565.799	636.12
566.567	601.12
567.334	565.12
568.101	531.12
568.869	497.12
569.636	470.12
570.403	451.12
571.17	428.12
571.937	396.12
572.704	367.12
573.471	361.12
574.237	338.12
575.004	317.12
575.771	303.12
576.537	282.12
577.303	265.12
578.07	248.12
578.836	231.12
579.602	215.12
580.368	206.12
581.134	196.12
581.9	188.12
582.666	178.12
583.432	175.12
584.198	158.12
584.964	149.12
585.729	144.12
586.495	136.12
587.26	129.12
588.025	123.12
588.791	111.12
589.556	107.12
590.321	107.12
591.086	97.12
591.851	98.12
592.616	86.12
593.381	82.12
594.146	82.12
594.911	76.12
595.675	73.12
596.44	72.12
597.204	64.12
597.969	64.12
598.733	57.12
599.497	58.12
600.261	55.12
601.025	53.12
601.79	51.12
602.553	47.12
603.317	47.12
604.081	43.12
604.845	43.12
605.609	39.12
606.372	41.12
607.136	38.12
607.899	35.12
608.662	34.12
609.426	32.12
610.189	36.12
610.952	35.12
611.715	29.12
612.478	27.12
613.241	28.12
614.004	29.12
614.767	25.12
615.529	25.12
616.292	25.12
617.055	24.12
617.817	23.12
618.579	23.12
619.342	21.12
620.104	20.12
620.866	24.12
621.628	22.12
622.39	17.12
623.152	20.12
623.914	17.12
624.676	17.12
625.438	17.12
626.199	15.12
626.961	18.12
627.722	14.12
628.484	13.12
629.245	13.12
630.006	12.12
630.768	15.12
631.529	11.12
632.29	13.12
633.051	11.12
633.812	12.12
634.573	11.12
635.333	11.12
636.094	11.12
636.855	12.12
637.615	11.12
638.376	11.12
639.136	9.12
639.896	9.12
640.657	9.12
641.417	9.12
642.177	9.12
642.937	6.12
643.697	9.12
644.457	8.12
645.216	11.12
645.976	7.12
646.736	6.12
647.495	9.12
648.255	7.12
649.014	7.12
649.774	9.12
650.533	6.12
651.292	9.12
652.051	9.12
652.81	6.12
653.569	7.12
654.328	5.12
655.087	6.12
655.846	5.12
656.604	7.12
657.363	5.12
658.121	7.12
658.88	7.12
659.638	7.12
660.397	5.12
661.155	6.12
661.913	7.12
662.671	6.12
663.429	8.12
664.187	5.12
664.945	6.12
665.703	6.12
666.46	5.12
667.218	7.12
667.976	5.12
668.733	5.12
669.49	8.12
670.248	5.12
671.005	6.12
671.762	4.12
672.519	5.12
673.276	3.12
674.033	6.12
674.79	2.12
675.547	4.12
676.304	6.12
677.06	4.12
677.817	3.12
678.574	5.12
679.33	3.12
680.086	4.12
680.843	3.12
681.599	4.12
682.355	6.12
683.111	3.12
683.867	5.12
684.623	5.12
685.379	4.12
686.135	5.12
686.89	3.12
687.646	4.12
688.402	4.12
689.157	6.12
689.912	4.12
690.668	3.12
691.423	5.12
692.178	4.12
692.933	3.12
693.688	3.12
694.443	4.12
695.198	5.12
695.953	3.12
696.708	5.12
697.462	4.12
698.217	4.12
698.972	3.12
699.726	4.12
700.48	6.12
701.235	3.12
701.989	4.12
702.743	4.12
703.497	3.12
704.251	4.12
705.005	3.12
705.759	5.12
706.513	4.12
707.266	4.12
708.02	5.12
708.774	4.12
709.527	2.12
710.28	3.12
711.034	3.12
711.787	2.12
712.54	2.12
713.293	3.12
714.046	2.12
714.799	3.12
715.552	3.12
716.305	3.12
717.058	3.12
717.81	3.12
718.563	3.12
719.315	4.12
720.068	6.12
720.82	2.12
721.573	4.12
722.325	6.12
723.077	3.12
723.829	7.12
724.581	5.12
725.333	5.12
726.085	6.12
726.836	4.12
727.588	5.12
728.34	7.12
729.091	3.12
729.843	4.12
730.594	4.12
731.346	6.12
732.097	5.12
732.848	5.12
733.599	5.12
734.35	6.12
735.101	5.12
735.852	5.12
736.603	6.12
737.354	5.12
738.104	4.12
738.855	4.12
739.605	6.12
740.356	7.12
741.106	3.12
741.856	6.12
742.607	6.12
743.357	5.12
744.107	6.12
744.857	6.12
745.607	5.12
746.357	4.12
747.106	7.12
747.856	5.12
748.606	5.12
749.355	7.12
750.105	5.12
750.854	6.12
751.603	6.12
752.353	6.12
753.102	6.12
753.851	6.12
754.6	6.12
755.349	5.12
756.098	8.12
756.847	5.12
757.595	6.12
758.344	7.12
759.093	6.12
759.841	8.12
760.589	8.12
761.338	9.12
762.086	7.12
762.834	7.12
763.582	6.12
764.331	7.12
765.079	8.12
765.826	8.12
766.574	9.12
767.322	8.12
768.07	7.12
768.817	9.12
769.565	7.12
770.312	9.12
771.06	8.12
771.807	10.12
772.554	10.12
773.302	8.12
774.049	7.12
774.796	11.12
775.543	6.12
776.29	9.12
777.036	9.12
777.783	12.12
778.53	11.12
779.276	10.12
780.023	9.12
780.769	10.12
781.516	10.12
782.262	7.12
783.008	10.12
783.754	9.12
784.5	5.12
785.246	11.12
785.992	9.12
786.738	10.12
787.484	11.12
788.23	7.12
788.975	8.12
789.721	10.12
790.466	9.12
791.212	9.12
791.957	8.12
792.702	9.12
793.447	11.12
794.193	10.12
794.938	7.12
795.683	9.12
796.427	7.12
797.172	9.12
797.917	7.12
798.662	8.12
799.406	6.12
800.151	8.12
800.895	8.12
801.64	6.12
802.384	7.12
803.128	7.12
803.872	7.12
804.616	8.12
805.36	8.12
806.104	5.12
806.848	8.12
807.592	7.12
808.336	7.12
809.079	6.12
809.823	4.12
810.566	6.12
811.31	5.12
812.053	8.12
812.796	4.12
813.539	6.12
814.283	7.12
815.026	5.12
815.769	5.12
816.511	5.12
817.254	5.12
817.997	4.12
818.74	3.12
819.482	6.12
820.225	6.12
820.967	5.12
821.71	3.12
822.452	6.12
823.194	6.12
823.936	2.12
824.678	2.12
825.42	4.12
826.162	5.12
826.904	5.12
827.646	6.12
828.388	4.12
829.129	3.12
829.871	5.12
830.612	3.12
831.354	4.12
832.095	5.12
832.836	5.12
833.577	4.12
834.319	5.12
835.06	5.12
835.801	3.12
836.542	2.12
837.282	5.12
838.023	2.12
838.764	5.12
839.504	5.12
840.245	3.12
840.985	3.12
841.726	2.12
842.466	6.12
843.206	4.12
843.946	3.12
844.687	3.12
845.427	4.12
846.166	4.12
846.906	1.12
847.646	3.12
848.386	2.12
849.125	3.12
849.865	3.12
850.605	5.12
851.344	5.12
852.083	3.12
852.823	2.12
853.562	3.12
854.301	2.12
855.04	2.12
855.779	4.12
856.518	2.12
857.257	3.12
857.995	3.12
858.734	3.12
859.473	2.12
860.211	3.12
860.95	0.12
861.688	2.12
862.426	2.12
863.165	3.12
863.903	3.12
864.641	2.12
865.379	2.12
866.117	1.12
866.855	3.12
867.593	2.12
868.33	3.12
869.068	2.12
869.806	0.12
870.543	2.12
871.28	2.12
872.018	1.12
872.755	2.12
873.492	-0.88
874.229	3.12
874.967	1.12
875.703	3.12
876.44	4.12
877.177	-0.88
877.914	1.12
878.651	0.12
879.387	2.12
880.124	0.12
880.86	1.12
881.597	1.12
882.333	0.12
883.069	3.12
883.806	-1.88
884.542	0.12
885.278	2.12
886.014	1.12
886.749	3.12
887.485	0.12
888.221	0.12
888.957	-0.88
889.692	1.12
890.428	1.12
891.163	0.12
891.899	2.12
892.634	0.12
893.369	2.12
894.104	3.12
894.839	1.12
895.574	1.12
896.309	-0.88
897.044	1.12
897.779	0.12
898.514	0.12
899.248	0.12
899.983	0.12
900.717	5.12
901.452	0.12
902.186	0.12
902.92	2.12
903.654	0.12
904.389	0.12
905.123	0.12
905.857	1.12
906.59	2.12
907.324	0.12
908.058	1.12
908.792	0.12
909.525	0.12
910.259	2.12
910.992	1.12
911.726	-0.88
912.459	1.12
913.192	2.12
913.925	0.12
914.658	2.12
915.391	1.12
916.124	1.12
916.857	-0.88
917.59	-1.88
918.323	2.12
919.055	-0.88
919.788	1.12
920.521	0.12
921.253	2.12
921.985	3.12
922.718	0.12
923.45	0.12
924.182	-1.88
924.914	0.12
925.646	-0.88
926.378	0.12
927.11	2.12
927.841	-0.88
928.573	-0.88
929.305	1.12
930.036	1.12
930.768	1.12
931.499	0.12
932.23	1.12
932.962	1.12
933.693	1.12
934.424	1.12
935.155	1.12
935.886	2.12
936.617	-0.88
937.348	1.12
938.078	1.12
938.809	1.12
939.54	1.12
940.27	1.12
941.001	1.12
941.731	0.12
942.461	1.12
943.191	3.12
943.922	0.12
944.652	0.12
945.382	0.12
946.112	0.12
946.841	0.12
947.571	1.12
948.301	1.12
949.031	0.12
949.76	1.12
950.49	0.12
951.219	0.12
951.948	2.12
952.678	1.12
953.407	0.12
954.136	0.12
954.865	-0.88
955.594	1.12
956.323	-0.88
957.052	1.12
957.78	1.12
958.509	-1.88
959.238	0.12
959.966	-2.88
960.695	0.12
961.423	0.12
962.151	1.12
962.88	1.12
963.608	-0.88
964.336	0.12
965.064	1.12
965.792	3.12
966.52	1.12
967.247	-0.88
967.975	2.12
968.703	1.12
969.43	0.12
970.158	-0.88
970.885	1.12
971.613	0.12
972.34	1.12
973.067	1.12
973.794	1.12
974.521	1.12
975.248	0.12
975.975	-0.88
976.702	-0.88
977.429	1.12
978.156	1.12
978.882	-0.88
979.609	2.12
980.335	2.12
981.062	1.12
981.788	2.12
982.514	-1.88
983.24	2.12
983.967	0.12
984.693	0.12
985.419	-0.88
986.144	-0.88
986.87	-0.88
987.596	0.12
988.322	1.12
989.047	0.12
989.773	-0.88
990.498	1.12
991.224	0.12
991.949	1.12
992.674	-0.88
993.399	0.12
994.124	0.12
994.849	0.12
995.574	0.12
996.299	-1.88
997.024	-1.88
997.749	0.12
998.473	1.12
999.198	0.12
999.922	-0.88
1000.647	1.12
1001.371	3.12
1002.095	0.12
1002.82	-1.88
1003.544	-1.88
1004.268	2.12
1004.992	1.12
1005.716	1.12
1006.439	2.12
1007.163	1.12
1007.887	2.12
1008.611	-0.88
1009.334	1.12
1010.058	1.12
1010.781	1.12
1011.504	0.12
1012.228	-2.88
1012.951	0.12
1013.674	0.12
1014.397	-0.88
1015.12	1.12
