节点500_285_QEPB04081__257__14-59-49-869.txt的数据

Date: Wed Nov 12 14:59:49 CST 2025
User: PC
Spectrometer: QEPB0408
触发模式: 0
积分时间 (秒): 1.000000E-2
Scans to average: 1
启用暗噪声校正: true
启用非线性校正: false
滑动平均宽度: 0
X轴模式: Wavelengths
Number of Pixels in Spectrum: 1044
>>>>>Begin Spectral Data<<<<<
220.843	3.75
221.644	1.75
222.444	1.75
223.244	1.75
224.045	-0.25
224.845	4.75
225.645	-0.25
226.445	1.75
227.245	3.75
228.045	5.75
228.845	1.75
229.645	2.75
230.444	6.75
231.244	1.75
232.043	3.75
232.843	4.75
233.642	1.75
234.442	5.75
235.241	3.75
236.04	5.75
236.839	0.75
237.638	4.75
238.437	3.75
239.236	4.75
240.035	4.75
240.833	3.75
241.632	5.75
242.43	4.75
243.229	4.75
244.027	4.75
244.826	4.75
245.624	5.75
246.422	5.75
247.22	3.75
248.018	5.75
248.816	5.75
249.614	5.75
250.412	7.75
251.21	6.75
252.007	6.75
252.805	6.75
253.602	6.75
254.4	6.75
255.197	7.75
255.994	8.75
256.791	9.75
257.589	8.75
258.386	9.75
259.183	7.75
259.979	7.75
260.776	10.75
261.573	9.75
262.37	10.75
263.166	10.75
263.963	10.75
264.759	11.75
265.556	12.75
266.352	11.75
267.148	12.75
267.944	13.75
268.74	14.75
269.536	14.75
270.332	16.75
271.128	17.75
271.924	17.75
272.719	13.75
273.515	16.75
274.311	13.75
275.106	15.75
275.901	17.75
276.697	20.75
277.492	19.75
278.287	18.75
279.082	18.75
279.877	17.75
280.672	17.75
281.467	20.75
282.262	20.75
283.056	21.75
283.851	18.75
284.646	17.75
285.44	18.75
286.234	20.75
287.029	20.75
287.823	17.75
288.617	16.75
289.411	16.75
290.205	18.75
290.999	20.75
291.793	19.75
292.587	19.75
293.381	18.75
294.174	17.75
294.968	19.75
295.761	13.75
296.555	17.75
297.348	13.75
298.141	14.75
298.935	16.75
299.728	16.75
300.521	16.75
301.314	12.75
302.107	14.75
302.899	13.75
303.692	13.75
304.485	12.75
305.277	10.75
306.07	12.75
306.862	11.75
307.655	7.75
308.447	11.75
309.239	12.75
310.031	10.75
310.823	10.75
311.615	11.75
312.407	6.75
313.199	10.75
313.991	11.75
314.783	7.75
315.574	9.75
316.366	9.75
317.157	9.75
317.949	10.75
318.74	7.75
319.531	8.75
320.322	9.75
321.113	10.75
321.904	7.75
322.695	5.75
323.486	7.75
324.277	9.75
325.068	6.75
325.858	7.75
326.649	7.75
327.439	6.75
328.23	7.75
329.02	5.75
329.81	4.75
330.6	4.75
331.391	7.75
332.181	5.75
332.971	8.75
333.76	3.75
334.55	5.75
335.34	3.75
336.13	7.75
336.919	7.75
337.709	6.75
338.498	5.75
339.287	7.75
340.077	7.75
340.866	6.75
341.655	5.75
342.444	6.75
343.233	4.75
344.022	5.75
344.811	6.75
345.6	6.75
346.388	10.75
347.177	6.75
347.965	6.75
348.754	3.75
349.542	6.75
350.33	6.75
351.119	7.75
351.907	5.75
352.695	4.75
353.483	6.75
354.271	6.75
355.059	7.75
355.846	4.75
356.634	4.75
357.422	4.75
358.209	5.75
358.997	6.75
359.784	4.75
360.571	7.75
361.359	6.75
362.146	8.75
362.933	6.75
363.72	5.75
364.507	4.75
365.294	7.75
366.081	4.75
366.867	5.75
367.654	3.75
368.44	4.75
369.227	4.75
370.013	3.75
370.8	5.75
371.586	6.75
372.372	6.75
373.158	5.75
373.944	2.75
374.73	4.75
375.516	5.75
376.302	5.75
377.088	4.75
377.873	4.75
378.659	5.75
379.445	5.75
380.23	5.75
381.015	3.75
381.801	7.75
382.586	3.75
383.371	5.75
384.156	6.75
384.941	3.75
385.726	3.75
386.511	5.75
387.296	7.75
388.08	4.75
388.865	7.75
389.649	6.75
390.434	5.75
391.218	4.75
392.003	4.75
392.787	5.75
393.571	6.75
394.355	5.75
395.139	3.75
395.923	5.75
396.707	5.75
397.491	6.75
398.274	7.75
399.058	5.75
399.842	7.75
400.625	9.75
401.408	5.75
402.192	6.75
402.975	6.75
403.758	8.75
404.541	7.75
405.324	6.75
406.107	6.75
406.89	7.75
407.673	9.75
408.456	6.75
409.238	6.75
410.021	8.75
410.803	6.75
411.586	10.75
412.368	4.75
413.151	10.75
413.933	9.75
414.715	7.75
415.497	9.75
416.279	8.75
417.061	9.75
417.843	9.75
418.624	8.75
419.406	9.75
420.188	9.75
420.969	10.75
421.751	9.75
422.532	10.75
423.313	11.75
424.095	11.75
424.876	11.75
425.657	9.75
426.438	14.75
427.219	12.75
428	12.75
428.78	12.75
429.561	11.75
430.342	12.75
431.122	11.75
431.903	12.75
432.683	16.75
433.464	13.75
434.244	16.75
435.024	13.75
435.804	19.75
436.584	16.75
437.364	18.75
438.144	19.75
438.924	21.75
439.704	21.75
440.483	25.75
441.263	22.75
442.042	23.75
442.822	25.75
443.601	29.75
444.38	30.75
445.16	30.75
445.939	33.75
446.718	34.75
447.497	38.75
448.276	39.75
449.054	45.75
449.833	46.75
450.612	54.75
451.391	59.75
452.169	61.75
452.948	70.75
453.726	75.75
454.504	81.75
455.282	84.75
456.061	95.75
456.839	106.75
457.617	120.75
458.395	134.75
459.172	152.75
459.95	164.75
460.728	182.75
461.506	204.75
462.283	228.75
463.061	255.75
463.838	278.75
464.615	316.75
465.393	353.75
466.17	392.75
466.947	442.75
467.724	485.75
468.501	549.75
469.278	604.75
470.055	680.75
470.831	749.75
471.608	847.75
472.385	944.75
473.161	1035.75
473.938	1155.75
474.714	1290.75
475.49	1410.75
476.266	1563.75
477.043	1734.75
477.819	1928.75
478.595	2124.75
479.371	2337.75
480.146	2590.75
480.922	2860.75
481.698	3143.75
482.473	3502.75
483.249	3835.75
484.024	4237.75
484.8	4624.75
485.575	5128.75
486.35	5619.75
487.126	6190.75
487.901	6810.75
488.676	7455.75
489.451	8188.75
490.225	8971.75
491	9777.75
491.775	10669.75
492.55	11684.75
493.324	12692.75
494.099	13638.75
494.873	14718.75
495.647	15909.75
496.422	17083.75
497.196	18304.75
497.97	19539.75
498.744	20715.75
499.518	21929.75
500.292	23059.75
501.066	24180.75
501.839	25164.75
502.613	26029.75
503.387	26762.75
504.16	27362.75
504.934	27669.75
505.707	27828.75
506.48	27818.75
507.253	27552.75
508.027	27379.75
508.8	27043.75
509.573	26527.75
510.346	25906.75
511.118	25083.75
511.891	24263.75
512.664	23355.75
513.437	22426.75
514.209	21484.75
514.982	20640.75
515.754	19659.75
516.526	18831.75
517.298	17959.75
518.071	17215.75
518.843	16534.75
519.615	15891.75
520.387	15271.75
521.159	14623.75
521.93	14047.75
522.702	13550.75
523.474	12946.75
524.245	12424.75
525.017	11858.75
525.788	11421.75
526.56	10900.75
527.331	10320.75
528.102	9877.75
528.873	9429.75
529.644	8973.75
530.415	8522.75
531.186	8055.75
531.957	7678.75
532.728	7261.75
533.498	6946.75
534.269	6474.75
535.039	6123.75
535.81	5784.75
536.58	5493.75
537.351	5152.75
538.121	4876.75
538.891	4582.75
539.661	4365.75
540.431	4116.75
541.201	3872.75
541.971	3698.75
542.741	3506.75
543.51	3339.75
544.28	3167.75
545.05	3017.75
545.819	2848.75
546.588	2713.75
547.358	2585.75
548.127	2440.75
548.896	2321.75
549.665	2216.75
550.434	2078.75
551.203	1977.75
551.972	1866.75
552.741	1772.75
553.51	1679.75
554.278	1598.75
555.047	1486.75
555.815	1421.75
556.584	1324.75
557.352	1249.75
558.121	1186.75
558.889	1120.75
559.657	1043.75
560.425	996.75
561.193	940.75
561.961	891.75
562.729	840.75
563.496	797.75
564.264	749.75
565.032	700.75
565.799	675.75
566.567	634.75
567.334	601.75
568.101	561.75
568.869	532.75
569.636	500.75
570.403	468.75
571.17	442.75
571.937	419.75
572.704	396.75
573.471	373.75
574.237	359.75
575.004	330.75
575.771	315.75
576.537	292.75
577.303	278.75
578.07	271.75
578.836	246.75
579.602	228.75
580.368	217.75
581.134	202.75
581.9	192.75
582.666	190.75
583.432	177.75
584.198	167.75
584.964	159.75
585.729	154.75
586.495	147.75
587.26	136.75
588.025	126.75
588.791	122.75
589.556	117.75
590.321	110.75
591.086	105.75
591.851	95.75
592.616	95.75
593.381	87.75
594.146	81.75
594.911	81.75
595.675	73.75
596.44	79.75
597.204	64.75
597.969	66.75
598.733	65.75
599.497	66.75
600.261	61.75
601.025	52.75
601.79	54.75
602.553	49.75
603.317	48.75
604.081	46.75
604.845	44.75
605.609	43.75
606.372	37.75
607.136	42.75
607.899	41.75
608.662	34.75
609.426	35.75
610.189	34.75
610.952	30.75
611.715	29.75
612.478	30.75
613.241	26.75
614.004	25.75
614.767	25.75
615.529	25.75
616.292	25.75
617.055	24.75
617.817	22.75
618.579	21.75
619.342	20.75
620.104	23.75
620.866	22.75
621.628	19.75
622.39	19.75
623.152	16.75
623.914	18.75
624.676	15.75
625.438	16.75
626.199	13.75
626.961	12.75
627.722	15.75
628.484	14.75
629.245	13.75
630.006	14.75
630.768	13.75
631.529	13.75
632.29	11.75
633.051	12.75
633.812	12.75
634.573	10.75
635.333	11.75
636.094	9.75
636.855	11.75
637.615	10.75
638.376	12.75
639.136	9.75
639.896	9.75
640.657	9.75
641.417	7.75
642.177	9.75
642.937	7.75
643.697	10.75
644.457	9.75
645.216	7.75
645.976	8.75
646.736	7.75
647.495	8.75
648.255	8.75
649.014	5.75
649.774	7.75
650.533	7.75
651.292	7.75
652.051	6.75
652.81	8.75
653.569	5.75
654.328	5.75
655.087	6.75
655.846	6.75
656.604	6.75
657.363	4.75
658.121	5.75
658.88	4.75
659.638	5.75
660.397	5.75
661.155	5.75
661.913	7.75
662.671	3.75
663.429	4.75
664.187	4.75
664.945	3.75
665.703	5.75
666.46	7.75
667.218	6.75
667.976	8.75
668.733	6.75
669.49	4.75
670.248	3.75
671.005	6.75
671.762	4.75
672.519	2.75
673.276	5.75
674.033	4.75
674.79	5.75
675.547	5.75
676.304	4.75
677.06	2.75
677.817	4.75
678.574	5.75
679.33	4.75
680.086	4.75
680.843	4.75
681.599	4.75
682.355	3.75
683.111	2.75
683.867	4.75
684.623	5.75
685.379	5.75
686.135	2.75
686.89	1.75
687.646	4.75
688.402	3.75
689.157	3.75
689.912	4.75
690.668	2.75
691.423	5.75
692.178	4.75
692.933	2.75
693.688	1.75
694.443	4.75
695.198	3.75
695.953	4.75
696.708	3.75
697.462	2.75
698.217	3.75
698.972	2.75
699.726	3.75
700.48	3.75
701.235	2.75
701.989	3.75
702.743	4.75
703.497	5.75
704.251	2.75
705.005	3.75
705.759	5.75
706.513	3.75
707.266	3.75
708.02	4.75
708.774	3.75
709.527	6.75
710.28	5.75
711.034	4.75
711.787	2.75
712.54	5.75
713.293	3.75
714.046	5.75
714.799	3.75
715.552	1.75
716.305	5.75
717.058	1.75
717.81	3.75
718.563	3.75
719.315	3.75
720.068	3.75
720.82	1.75
721.573	1.75
722.325	0.75
723.077	4.75
723.829	2.75
724.581	1.75
725.333	4.75
726.085	3.75
726.836	3.75
727.588	5.75
728.34	6.75
729.091	3.75
729.843	3.75
730.594	1.75
731.346	1.75
732.097	5.75
732.848	3.75
733.599	2.75
734.35	5.75
735.101	3.75
735.852	3.75
736.603	5.75
737.354	2.75
738.104	3.75
738.855	4.75
739.605	3.75
740.356	4.75
741.106	5.75
741.856	5.75
742.607	5.75
743.357	5.75
744.107	4.75
744.857	6.75
745.607	8.75
746.357	3.75
747.106	4.75
747.856	6.75
748.606	7.75
749.355	2.75
750.105	7.75
750.854	4.75
751.603	5.75
752.353	7.75
753.102	4.75
753.851	8.75
754.6	4.75
755.349	7.75
756.098	8.75
756.847	5.75
757.595	6.75
758.344	2.75
759.093	6.75
759.841	4.75
760.589	6.75
761.338	7.75
762.086	3.75
762.834	5.75
763.582	5.75
764.331	6.75
765.079	7.75
765.826	6.75
766.574	5.75
767.322	7.75
768.07	9.75
768.817	9.75
769.565	6.75
770.312	8.75
771.06	7.75
771.807	9.75
772.554	7.75
773.302	7.75
774.049	8.75
774.796	7.75
775.543	9.75
776.29	8.75
777.036	8.75
777.783	6.75
778.53	8.75
779.276	9.75
780.023	7.75
780.769	6.75
781.516	8.75
782.262	9.75
783.008	9.75
783.754	10.75
784.5	7.75
785.246	10.75
785.992	8.75
786.738	9.75
787.484	10.75
788.23	8.75
788.975	6.75
789.721	9.75
790.466	8.75
791.212	10.75
791.957	7.75
792.702	10.75
793.447	9.75
794.193	8.75
794.938	8.75
795.683	8.75
796.427	10.75
797.172	8.75
797.917	7.75
798.662	8.75
799.406	6.75
800.151	7.75
800.895	4.75
801.64	8.75
802.384	5.75
803.128	6.75
803.872	7.75
804.616	4.75
805.36	6.75
806.104	8.75
806.848	6.75
807.592	5.75
808.336	6.75
809.079	6.75
809.823	5.75
810.566	7.75
811.31	5.75
812.053	3.75
812.796	4.75
813.539	3.75
814.283	5.75
815.026	6.75
815.769	5.75
816.511	6.75
817.254	5.75
817.997	6.75
818.74	5.75
819.482	6.75
820.225	4.75
820.967	6.75
821.71	3.75
822.452	4.75
823.194	6.75
823.936	4.75
824.678	6.75
825.42	3.75
826.162	2.75
826.904	4.75
827.646	4.75
828.388	3.75
829.129	3.75
829.871	3.75
830.612	3.75
831.354	2.75
832.095	2.75
832.836	2.75
833.577	4.75
834.319	2.75
835.06	1.75
835.801	2.75
836.542	2.75
837.282	4.75
838.023	3.75
838.764	3.75
839.504	2.75
840.245	1.75
840.985	2.75
841.726	4.75
842.466	2.75
843.206	1.75
843.946	2.75
844.687	2.75
845.427	2.75
846.166	1.75
846.906	3.75
847.646	3.75
848.386	3.75
849.125	5.75
849.865	2.75
850.605	1.75
851.344	-0.25
852.083	0.75
852.823	3.75
853.562	1.75
854.301	1.75
855.04	4.75
855.779	1.75
856.518	2.75
857.257	0.75
857.995	1.75
858.734	2.75
859.473	3.75
860.211	3.75
860.95	-2.25
861.688	3.75
862.426	3.75
863.165	1.75
863.903	2.75
864.641	2.75
865.379	3.75
866.117	2.75
866.855	-0.25
867.593	3.75
868.33	1.75
869.068	2.75
869.806	0.75
870.543	2.75
871.28	2.75
872.018	1.75
872.755	-0.25
873.492	1.75
874.229	0.75
874.967	2.75
875.703	1.75
876.44	1.75
877.177	3.75
877.914	-2.25
878.651	1.75
879.387	0.75
880.124	-0.25
880.86	0.75
881.597	1.75
882.333	3.75
883.069	3.75
883.806	-0.25
884.542	1.75
885.278	-0.25
886.014	1.75
886.749	0.75
887.485	-0.25
888.221	2.75
888.957	-0.25
889.692	1.75
890.428	0.75
891.163	0.75
891.899	1.75
892.634	-0.25
893.369	4.75
894.104	-0.25
894.839	1.75
895.574	1.75
896.309	-1.25
897.044	2.75
897.779	0.75
898.514	1.75
899.248	1.75
899.983	2.75
900.717	1.75
901.452	0.75
902.186	0.75
902.92	-0.25
903.654	3.75
904.389	1.75
905.123	2.75
905.857	1.75
906.59	0.75
907.324	-0.25
908.058	0.75
908.792	1.75
909.525	-0.25
910.259	-1.25
910.992	-1.25
911.726	-0.25
912.459	0.75
913.192	0.75
913.925	1.75
914.658	0.75
915.391	-0.25
916.124	0.75
916.857	-1.25
917.59	-0.25
918.323	0.75
919.055	1.75
919.788	0.75
920.521	0.75
921.253	0.75
921.985	0.75
922.718	1.75
923.45	0.75
924.182	-0.25
924.914	0.75
925.646	0.75
926.378	1.75
927.11	-2.25
927.841	0.75
928.573	0.75
929.305	-1.25
930.036	0.75
930.768	0.75
931.499	1.75
932.23	1.75
932.962	1.75
933.693	1.75
934.424	-0.25
935.155	-0.25
935.886	-0.25
936.617	-1.25
937.348	-1.25
938.078	-2.25
938.809	1.75
939.54	-2.25
940.27	-0.25
941.001	0.75
941.731	0.75
942.461	1.75
943.191	0.75
943.922	0.75
944.652	-0.25
945.382	1.75
946.112	-1.25
946.841	1.75
947.571	0.75
948.301	-1.25
949.031	0.75
949.76	0.75
950.49	-0.25
951.219	-0.25
951.948	-2.25
952.678	-2.25
953.407	-0.25
954.136	-0.25
954.865	1.75
955.594	-0.25
956.323	0.75
957.052	-1.25
957.78	0.75
958.509	0.75
959.238	-2.25
959.966	0.75
960.695	0.75
961.423	0.75
962.151	0.75
962.88	-2.25
963.608	0.75
964.336	-0.25
965.064	1.75
965.792	0.75
966.52	1.75
967.247	-0.25
967.975	0.75
968.703	1.75
969.43	-1.25
970.158	0.75
970.885	0.75
971.613	-0.25
972.34	-0.25
973.067	-0.25
973.794	-2.25
974.521	-0.25
975.248	-0.25
975.975	-0.25
976.702	-1.25
977.429	0.75
978.156	-0.25
978.882	1.75
979.609	2.75
980.335	3.75
981.062	1.75
981.788	-0.25
982.514	0.75
983.24	1.75
983.967	1.75
984.693	-0.25
985.419	3.75
986.144	-0.25
986.87	-2.25
987.596	-0.25
988.322	-0.25
989.047	1.75
989.773	-0.25
990.498	-0.25
991.224	-0.25
991.949	-0.25
992.674	0.75
993.399	0.75
994.124	0.75
994.849	1.75
995.574	-0.25
996.299	1.75
997.024	-0.25
997.749	0.75
998.473	1.75
999.198	-1.25
999.922	1.75
1000.647	-0.25
1001.371	3.75
1002.095	-2.25
1002.82	-4.25
1003.544	-0.25
1004.268	-0.25
1004.992	-1.25
1005.716	0.75
1006.439	0.75
1007.163	1.75
1007.887	0.75
1008.611	2.75
1009.334	1.75
1010.058	0.75
1010.781	1.75
1011.504	-0.25
1012.228	1.75
1012.951	-0.25
1013.674	1.75
1014.397	0.75
1015.12	0.75
