节点500_285_QEPB04081__481__15-03-33-454.txt的数据

Date: Wed Nov 12 15:03:33 CST 2025
User: PC
Spectrometer: QEPB0408
触发模式: 0
积分时间 (秒): 1.000000E-2
Scans to average: 1
启用暗噪声校正: true
启用非线性校正: false
滑动平均宽度: 0
X轴模式: Wavelengths
Number of Pixels in Spectrum: 1044
>>>>>Begin Spectral Data<<<<<
220.843	0.88
221.644	-0.12
222.444	1.88
223.244	-1.12
224.045	0.88
224.845	-0.12
225.645	0.88
226.445	1.88
227.245	1.88
228.045	2.88
228.845	2.88
229.645	2.88
230.444	3.88
231.244	0.88
232.043	2.88
232.843	-0.12
233.642	2.88
234.442	3.88
235.241	1.88
236.04	3.88
236.839	1.88
237.638	2.88
238.437	4.88
239.236	2.88
240.035	3.88
240.833	4.88
241.632	2.88
242.43	3.88
243.229	4.88
244.027	5.88
244.826	2.88
245.624	3.88
246.422	3.88
247.22	5.88
248.018	4.88
248.816	4.88
249.614	4.88
250.412	4.88
251.21	6.88
252.007	5.88
252.805	5.88
253.602	5.88
254.4	5.88
255.197	5.88
255.994	4.88
256.791	6.88
257.589	6.88
258.386	7.88
259.183	5.88
259.979	6.88
260.776	8.88
261.573	8.88
262.37	10.88
263.166	8.88
263.963	10.88
264.759	10.88
265.556	12.88
266.352	9.88
267.148	10.88
267.944	10.88
268.74	13.88
269.536	14.88
270.332	13.88
271.128	10.88
271.924	11.88
272.719	14.88
273.515	14.88
274.311	14.88
275.106	15.88
275.901	12.88
276.697	14.88
277.492	15.88
278.287	13.88
279.082	15.88
279.877	17.88
280.672	19.88
281.467	16.88
282.262	15.88
283.056	17.88
283.851	16.88
284.646	18.88
285.44	16.88
286.234	19.88
287.029	17.88
287.823	15.88
288.617	16.88
289.411	17.88
290.205	15.88
290.999	18.88
291.793	14.88
292.587	16.88
293.381	15.88
294.174	17.88
294.968	14.88
295.761	12.88
296.555	15.88
297.348	10.88
298.141	13.88
298.935	14.88
299.728	11.88
300.521	14.88
301.314	12.88
302.107	10.88
302.899	10.88
303.692	12.88
304.485	13.88
305.277	12.88
306.07	7.88
306.862	10.88
307.655	12.88
308.447	11.88
309.239	9.88
310.031	10.88
310.823	10.88
311.615	10.88
312.407	8.88
313.199	8.88
313.991	7.88
314.783	9.88
315.574	8.88
316.366	3.88
317.157	7.88
317.949	7.88
318.74	5.88
319.531	5.88
320.322	7.88
321.113	5.88
321.904	3.88
322.695	6.88
323.486	4.88
324.277	6.88
325.068	5.88
325.858	6.88
326.649	6.88
327.439	5.88
328.23	5.88
329.02	4.88
329.81	3.88
330.6	3.88
331.391	4.88
332.181	2.88
332.971	4.88
333.76	6.88
334.55	5.88
335.34	6.88
336.13	4.88
336.919	4.88
337.709	2.88
338.498	4.88
339.287	5.88
340.077	5.88
340.866	3.88
341.655	1.88
342.444	3.88
343.233	4.88
344.022	6.88
344.811	7.88
345.6	6.88
346.388	4.88
347.177	4.88
347.965	2.88
348.754	5.88
349.542	6.88
350.33	7.88
351.119	4.88
351.907	3.88
352.695	4.88
353.483	3.88
354.271	4.88
355.059	2.88
355.846	3.88
356.634	4.88
357.422	3.88
358.209	4.88
358.997	4.88
359.784	3.88
360.571	3.88
361.359	3.88
362.146	4.88
362.933	3.88
363.72	4.88
364.507	4.88
365.294	3.88
366.081	5.88
366.867	2.88
367.654	2.88
368.44	2.88
369.227	2.88
370.013	5.88
370.8	3.88
371.586	4.88
372.372	-0.12
373.158	2.88
373.944	3.88
374.73	3.88
375.516	6.88
376.302	4.88
377.088	2.88
377.873	3.88
378.659	2.88
379.445	3.88
380.23	2.88
381.015	3.88
381.801	2.88
382.586	3.88
383.371	4.88
384.156	4.88
384.941	2.88
385.726	4.88
386.511	3.88
387.296	4.88
388.08	5.88
388.865	4.88
389.649	5.88
390.434	3.88
391.218	3.88
392.003	3.88
392.787	5.88
393.571	6.88
394.355	3.88
395.139	5.88
395.923	5.88
396.707	3.88
397.491	7.88
398.274	5.88
399.058	5.88
399.842	7.88
400.625	6.88
401.408	3.88
402.192	6.88
402.975	5.88
403.758	4.88
404.541	4.88
405.324	8.88
406.107	5.88
406.89	5.88
407.673	6.88
408.456	7.88
409.238	8.88
410.021	7.88
410.803	7.88
411.586	5.88
412.368	8.88
413.151	6.88
413.933	8.88
414.715	8.88
415.497	4.88
416.279	6.88
417.061	5.88
417.843	8.88
418.624	6.88
419.406	7.88
420.188	7.88
420.969	7.88
421.751	10.88
422.532	7.88
423.313	9.88
424.095	11.88
424.876	8.88
425.657	9.88
426.438	10.88
427.219	14.88
428	12.88
428.78	12.88
429.561	8.88
430.342	13.88
431.122	12.88
431.903	12.88
432.683	14.88
433.464	16.88
434.244	10.88
435.024	13.88
435.804	14.88
436.584	15.88
437.364	20.88
438.144	17.88
438.924	20.88
439.704	18.88
440.483	18.88
441.263	24.88
442.042	24.88
442.822	26.88
443.601	27.88
444.38	28.88
445.16	29.88
445.939	31.88
446.718	34.88
447.497	36.88
448.276	42.88
449.054	42.88
449.833	46.88
450.612	54.88
451.391	55.88
452.169	59.88
452.948	66.88
453.726	70.88
454.504	82.88
455.282	87.88
456.061	101.88
456.839	110.88
457.617	126.88
458.395	136.88
459.172	156.88
459.95	168.88
460.728	186.88
461.506	215.88
462.283	234.88
463.061	264.88
463.838	299.88
464.615	331.88
465.393	363.88
466.17	404.88
466.947	460.88
467.724	509.88
468.501	567.88
469.278	632.88
470.055	698.88
470.831	778.88
471.608	866.88
472.385	968.88
473.161	1060.88
473.938	1181.88
474.714	1301.88
475.49	1431.88
476.266	1599.88
477.043	1755.88
477.819	1928.88
478.595	2116.88
479.371	2349.88
480.146	2596.88
480.922	2845.88
481.698	3098.88
482.473	3439.88
483.249	3753.88
484.024	4138.88
484.8	4546.88
485.575	4990.88
486.35	5466.88
487.126	6004.88
487.901	6553.88
488.676	7162.88
489.451	7851.88
490.225	8601.88
491	9321.88
491.775	10200.88
492.55	11068.88
493.324	12001.88
494.099	12932.88
494.873	13887.88
495.647	15000.88
496.422	16106.88
497.196	17242.88
497.97	18368.88
498.744	19577.88
499.518	20641.88
500.292	21818.88
501.066	22882.88
501.839	23771.88
502.613	24745.88
503.387	25522.88
504.16	26149.88
504.934	26597.88
505.707	26672.88
506.48	26902.88
507.253	26938.88
508.027	26670.88
508.8	26513.88
509.573	26155.88
510.346	25510.88
511.118	24883.88
511.891	24168.88
512.664	23316.88
513.437	22505.88
514.209	21569.88
514.982	20757.88
515.754	19826.88
516.526	18969.88
517.298	18108.88
518.071	17407.88
518.843	16683.88
519.615	16105.88
520.387	15425.88
521.159	14854.88
521.93	14222.88
522.702	13714.88
523.474	13100.88
524.245	12561.88
525.017	12018.88
525.788	11507.88
526.56	11037.88
527.331	10562.88
528.102	10112.88
528.873	9590.88
529.644	9116.88
530.415	8742.88
531.186	8312.88
531.957	7858.88
532.728	7432.88
533.498	7087.88
534.269	6649.88
535.039	6308.88
535.81	5948.88
536.58	5615.88
537.351	5294.88
538.121	5009.88
538.891	4748.88
539.661	4506.88
540.431	4242.88
541.201	4000.88
541.971	3813.88
542.741	3593.88
543.51	3435.88
544.28	3256.88
545.05	3078.88
545.819	2949.88
546.588	2797.88
547.358	2660.88
548.127	2518.88
548.896	2407.88
549.665	2281.88
550.434	2146.88
551.203	2041.88
551.972	1931.88
552.741	1823.88
553.51	1737.88
554.278	1632.88
555.047	1541.88
555.815	1460.88
556.584	1371.88
557.352	1308.88
558.121	1244.88
558.889	1148.88
559.657	1091.88
560.425	1028.88
561.193	971.88
561.961	909.88
562.729	873.88
563.496	816.88
564.264	779.88
565.032	726.88
565.799	694.88
566.567	652.88
567.334	621.88
568.101	582.88
568.869	548.88
569.636	516.88
570.403	485.88
571.17	465.88
571.937	435.88
572.704	412.88
573.471	388.88
574.237	369.88
575.004	343.88
575.771	331.88
576.537	307.88
577.303	284.88
578.07	279.88
578.836	249.88
579.602	240.88
580.368	231.88
581.134	219.88
581.9	205.88
582.666	193.88
583.432	179.88
584.198	174.88
584.964	164.88
585.729	158.88
586.495	147.88
587.26	142.88
588.025	131.88
588.791	122.88
589.556	116.88
590.321	112.88
591.086	103.88
591.851	103.88
592.616	94.88
593.381	90.88
594.146	86.88
594.911	82.88
595.675	79.88
596.44	73.88
597.204	73.88
597.969	67.88
598.733	65.88
599.497	63.88
600.261	62.88
601.025	57.88
601.79	53.88
602.553	49.88
603.317	49.88
604.081	44.88
604.845	44.88
605.609	47.88
606.372	41.88
607.136	39.88
607.899	40.88
608.662	37.88
609.426	33.88
610.189	35.88
610.952	34.88
611.715	30.88
612.478	31.88
613.241	27.88
614.004	28.88
614.767	26.88
615.529	22.88
616.292	23.88
617.055	20.88
617.817	22.88
618.579	23.88
619.342	22.88
620.104	21.88
620.866	19.88
621.628	19.88
622.39	21.88
623.152	18.88
623.914	17.88
624.676	18.88
625.438	18.88
626.199	15.88
626.961	17.88
627.722	13.88
628.484	11.88
629.245	14.88
630.006	12.88
630.768	13.88
631.529	10.88
632.29	9.88
633.051	8.88
633.812	11.88
634.573	13.88
635.333	9.88
636.094	10.88
636.855	6.88
637.615	9.88
638.376	10.88
639.136	8.88
639.896	10.88
640.657	7.88
641.417	7.88
642.177	7.88
642.937	8.88
643.697	9.88
644.457	8.88
645.216	7.88
645.976	7.88
646.736	6.88
647.495	7.88
648.255	5.88
649.014	7.88
649.774	5.88
650.533	7.88
651.292	4.88
652.051	4.88
652.81	4.88
653.569	4.88
654.328	3.88
655.087	4.88
655.846	5.88
656.604	5.88
657.363	4.88
658.121	3.88
658.88	6.88
659.638	4.88
660.397	4.88
661.155	4.88
661.913	6.88
662.671	3.88
663.429	6.88
664.187	4.88
664.945	2.88
665.703	6.88
666.46	2.88
667.218	5.88
667.976	3.88
668.733	3.88
669.49	3.88
670.248	1.88
671.005	2.88
671.762	3.88
672.519	4.88
673.276	3.88
674.033	1.88
674.79	2.88
675.547	3.88
676.304	4.88
677.06	2.88
677.817	4.88
678.574	2.88
679.33	0.88
680.086	2.88
680.843	2.88
681.599	3.88
682.355	3.88
683.111	3.88
683.867	2.88
684.623	0.88
685.379	1.88
686.135	3.88
686.89	2.88
687.646	3.88
688.402	2.88
689.157	1.88
689.912	0.88
690.668	4.88
691.423	0.88
692.178	1.88
692.933	1.88
693.688	1.88
694.443	0.88
695.198	2.88
695.953	2.88
696.708	1.88
697.462	3.88
698.217	1.88
698.972	2.88
699.726	2.88
700.48	1.88
701.235	3.88
701.989	2.88
702.743	2.88
703.497	0.88
704.251	0.88
705.005	4.88
705.759	1.88
706.513	3.88
707.266	1.88
708.02	0.88
708.774	1.88
709.527	2.88
710.28	3.88
711.034	3.88
711.787	5.88
712.54	1.88
713.293	1.88
714.046	2.88
714.799	6.88
715.552	2.88
716.305	2.88
717.058	0.88
717.81	3.88
718.563	0.88
719.315	4.88
720.068	0.88
720.82	2.88
721.573	4.88
722.325	1.88
723.077	3.88
723.829	0.88
724.581	4.88
725.333	2.88
726.085	3.88
726.836	1.88
727.588	2.88
728.34	5.88
729.091	2.88
729.843	2.88
730.594	3.88
731.346	3.88
732.097	0.88
732.848	3.88
733.599	4.88
734.35	3.88
735.101	0.88
735.852	4.88
736.603	3.88
737.354	2.88
738.104	2.88
738.855	2.88
739.605	2.88
740.356	3.88
741.106	2.88
741.856	1.88
742.607	2.88
743.357	5.88
744.107	6.88
744.857	3.88
745.607	4.88
746.357	3.88
747.106	0.88
747.856	6.88
748.606	1.88
749.355	4.88
750.105	4.88
750.854	5.88
751.603	4.88
752.353	3.88
753.102	3.88
753.851	4.88
754.6	5.88
755.349	4.88
756.098	3.88
756.847	4.88
757.595	5.88
758.344	2.88
759.093	2.88
759.841	3.88
760.589	5.88
761.338	3.88
762.086	3.88
762.834	6.88
763.582	4.88
764.331	7.88
765.079	2.88
765.826	5.88
766.574	3.88
767.322	6.88
768.07	4.88
768.817	4.88
769.565	7.88
770.312	5.88
771.06	6.88
771.807	5.88
772.554	7.88
773.302	7.88
774.049	7.88
774.796	6.88
775.543	6.88
776.29	6.88
777.036	7.88
777.783	6.88
778.53	6.88
779.276	6.88
780.023	8.88
780.769	7.88
781.516	8.88
782.262	6.88
783.008	6.88
783.754	5.88
784.5	9.88
785.246	7.88
785.992	8.88
786.738	8.88
787.484	7.88
788.23	8.88
788.975	6.88
789.721	5.88
790.466	6.88
791.212	5.88
791.957	8.88
792.702	7.88
793.447	6.88
794.193	6.88
794.938	7.88
795.683	7.88
796.427	7.88
797.172	7.88
797.917	8.88
798.662	8.88
799.406	4.88
800.151	4.88
800.895	6.88
801.64	5.88
802.384	4.88
803.128	4.88
803.872	6.88
804.616	6.88
805.36	6.88
806.104	4.88
806.848	5.88
807.592	4.88
808.336	3.88
809.079	6.88
809.823	4.88
810.566	4.88
811.31	5.88
812.053	5.88
812.796	1.88
813.539	2.88
814.283	3.88
815.026	3.88
815.769	3.88
816.511	2.88
817.254	3.88
817.997	3.88
818.74	3.88
819.482	5.88
820.225	3.88
820.967	5.88
821.71	2.88
822.452	5.88
823.194	2.88
823.936	3.88
824.678	2.88
825.42	2.88
826.162	2.88
826.904	3.88
827.646	2.88
828.388	1.88
829.129	3.88
829.871	1.88
830.612	2.88
831.354	3.88
832.095	0.88
832.836	4.88
833.577	1.88
834.319	2.88
835.06	2.88
835.801	2.88
836.542	3.88
837.282	1.88
838.023	3.88
838.764	0.88
839.504	-0.12
840.245	1.88
840.985	0.88
841.726	0.88
842.466	2.88
843.206	1.88
843.946	0.88
844.687	1.88
845.427	3.88
846.166	0.88
846.906	1.88
847.646	-0.12
848.386	0.88
849.125	0.88
849.865	1.88
850.605	1.88
851.344	0.88
852.083	2.88
852.823	1.88
853.562	1.88
854.301	0.88
855.04	3.88
855.779	0.88
856.518	0.88
857.257	2.88
857.995	2.88
858.734	1.88
859.473	-0.12
860.211	0.88
860.95	0.88
861.688	2.88
862.426	-0.12
863.165	0.88
863.903	1.88
864.641	2.88
865.379	0.88
866.117	-0.12
866.855	1.88
867.593	0.88
868.33	0.88
869.068	1.88
869.806	1.88
870.543	-0.12
871.28	0.88
872.018	-0.12
872.755	1.88
873.492	-1.12
874.229	1.88
874.967	-3.12
875.703	0.88
876.44	1.88
877.177	-0.12
877.914	1.88
878.651	0.88
879.387	1.88
880.124	0.88
880.86	-0.12
881.597	1.88
882.333	-0.12
883.069	-1.12
883.806	0.88
884.542	0.88
885.278	0.88
886.014	-2.12
886.749	-0.12
887.485	-1.12
888.221	0.88
888.957	-0.12
889.692	-2.12
890.428	-0.12
891.163	-2.12
891.899	-0.12
892.634	-0.12
893.369	-0.12
894.104	-0.12
894.839	-0.12
895.574	-0.12
896.309	0.88
897.044	-1.12
897.779	-0.12
898.514	-1.12
899.248	-0.12
899.983	-0.12
900.717	0.88
901.452	-0.12
902.186	-1.12
902.92	-1.12
903.654	-1.12
904.389	0.88
905.123	-1.12
905.857	0.88
906.59	-1.12
907.324	-1.12
908.058	-1.12
908.792	-0.12
909.525	-1.12
910.259	0.88
910.992	0.88
911.726	-2.12
912.459	-2.12
913.192	-0.12
913.925	-0.12
914.658	-4.12
915.391	-0.12
916.124	0.88
916.857	-1.12
917.59	-3.12
918.323	-0.12
919.055	-2.12
919.788	-1.12
920.521	2.88
921.253	-1.12
921.985	-3.12
922.718	-3.12
923.45	-0.12
924.182	-0.12
924.914	-1.12
925.646	-1.12
926.378	-0.12
927.11	-0.12
927.841	-1.12
928.573	-0.12
929.305	-1.12
930.036	-0.12
930.768	-1.12
931.499	-1.12
932.23	-1.12
932.962	-0.12
933.693	-0.12
934.424	0.88
935.155	0.88
935.886	-0.12
936.617	-1.12
937.348	-1.12
938.078	-1.12
938.809	-0.12
939.54	0.88
940.27	-2.12
941.001	0.88
941.731	0.88
942.461	-0.12
943.191	0.88
943.922	-1.12
944.652	-0.12
945.382	-1.12
946.112	1.88
946.841	-2.12
947.571	-2.12
948.301	-1.12
949.031	-2.12
949.76	-1.12
950.49	-1.12
951.219	-3.12
951.948	0.88
952.678	-2.12
953.407	-1.12
954.136	-0.12
954.865	0.88
955.594	-1.12
956.323	0.88
957.052	-1.12
957.78	-2.12
958.509	-0.12
959.238	-2.12
959.966	-0.12
960.695	1.88
961.423	1.88
962.151	-0.12
962.88	-0.12
963.608	0.88
964.336	0.88
965.064	0.88
965.792	-2.12
966.52	-0.12
967.247	-2.12
967.975	-3.12
968.703	-0.12
969.43	-0.12
970.158	-2.12
970.885	-0.12
971.613	-3.12
972.34	0.88
973.067	-1.12
973.794	0.88
974.521	-0.12
975.248	-1.12
975.975	-0.12
976.702	-2.12
977.429	0.88
978.156	-1.12
978.882	-1.12
979.609	-0.12
980.335	-1.12
981.062	0.88
981.788	-0.12
982.514	1.88
983.24	-3.12
983.967	-1.12
984.693	1.88
985.419	-0.12
986.144	-1.12
986.87	-0.12
987.596	0.88
988.322	1.88
989.047	-0.12
989.773	-1.12
990.498	-3.12
991.224	-0.12
991.949	-0.12
992.674	0.88
993.399	-2.12
994.124	-2.12
994.849	-1.12
995.574	-1.12
996.299	-0.12
997.024	0.88
997.749	-3.12
998.473	-0.12
999.198	-2.12
999.922	0.88
1000.647	-4.12
1001.371	3.88
1002.095	-1.12
1002.82	0.88
1003.544	-0.12
1004.268	-0.12
1004.992	1.88
1005.716	-1.12
1006.439	-0.12
1007.163	1.88
1007.887	-0.12
1008.611	-0.12
1009.334	-2.12
1010.058	-0.12
1010.781	-0.12
1011.504	-2.12
1012.228	-1.12
1012.951	-3.12
1013.674	0.88
1014.397	-0.12
1015.12	-1.12
