节点500_285_QEPB04081__865__15-09-56-635.txt的数据

Date: Wed Nov 12 15:09:56 CST 2025
User: PC
Spectrometer: QEPB0408
触发模式: 0
积分时间 (秒): 1.000000E-2
Scans to average: 1
启用暗噪声校正: true
启用非线性校正: false
滑动平均宽度: 0
X轴模式: Wavelengths
Number of Pixels in Spectrum: 1044
>>>>>Begin Spectral Data<<<<<
220.843	1.25
221.644	1.25
222.444	1.25
223.244	2.25
224.045	2.25
224.845	1.25
225.645	2.25
226.445	2.25
227.245	2.25
228.045	3.25
228.845	5.25
229.645	1.25
230.444	4.25
231.244	4.25
232.043	5.25
232.843	4.25
233.642	3.25
234.442	2.25
235.241	4.25
236.04	2.25
236.839	5.25
237.638	5.25
238.437	4.25
239.236	4.25
240.035	5.25
240.833	2.25
241.632	3.25
242.43	2.25
243.229	4.25
244.027	7.25
244.826	3.25
245.624	4.25
246.422	6.25
247.22	8.25
248.018	5.25
248.816	5.25
249.614	5.25
250.412	5.25
251.21	3.25
252.007	7.25
252.805	7.25
253.602	8.25
254.4	8.25
255.197	7.25
255.994	8.25
256.791	5.25
257.589	8.25
258.386	7.25
259.183	6.25
259.979	10.25
260.776	9.25
261.573	10.25
262.37	9.25
263.166	9.25
263.963	11.25
264.759	11.25
265.556	10.25
266.352	11.25
267.148	10.25
267.944	13.25
268.74	13.25
269.536	13.25
270.332	11.25
271.128	13.25
271.924	12.25
272.719	14.25
273.515	13.25
274.311	16.25
275.106	13.25
275.901	17.25
276.697	14.25
277.492	18.25
278.287	15.25
279.082	15.25
279.877	14.25
280.672	17.25
281.467	15.25
282.262	15.25
283.056	15.25
283.851	19.25
284.646	18.25
285.44	17.25
286.234	19.25
287.029	17.25
287.823	17.25
288.617	15.25
289.411	17.25
290.205	16.25
290.999	17.25
291.793	16.25
292.587	18.25
293.381	16.25
294.174	15.25
294.968	16.25
295.761	14.25
296.555	14.25
297.348	15.25
298.141	14.25
298.935	16.25
299.728	14.25
300.521	14.25
301.314	13.25
302.107	10.25
302.899	12.25
303.692	10.25
304.485	12.25
305.277	11.25
306.07	10.25
306.862	11.25
307.655	13.25
308.447	13.25
309.239	10.25
310.031	10.25
310.823	12.25
311.615	11.25
312.407	11.25
313.199	9.25
313.991	9.25
314.783	9.25
315.574	11.25
316.366	8.25
317.157	8.25
317.949	12.25
318.74	7.25
319.531	8.25
320.322	7.25
321.113	8.25
321.904	8.25
322.695	9.25
323.486	5.25
324.277	6.25
325.068	6.25
325.858	9.25
326.649	7.25
327.439	10.25
328.23	8.25
329.02	6.25
329.81	9.25
330.6	8.25
331.391	7.25
332.181	7.25
332.971	8.25
333.76	5.25
334.55	7.25
335.34	6.25
336.13	6.25
336.919	8.25
337.709	4.25
338.498	5.25
339.287	7.25
340.077	7.25
340.866	4.25
341.655	8.25
342.444	8.25
343.233	6.25
344.022	9.25
344.811	4.25
345.6	6.25
346.388	5.25
347.177	6.25
347.965	6.25
348.754	7.25
349.542	6.25
350.33	6.25
351.119	9.25
351.907	5.25
352.695	4.25
353.483	6.25
354.271	4.25
355.059	5.25
355.846	7.25
356.634	5.25
357.422	4.25
358.209	5.25
358.997	6.25
359.784	4.25
360.571	8.25
361.359	5.25
362.146	5.25
362.933	5.25
363.72	4.25
364.507	5.25
365.294	5.25
366.081	5.25
366.867	4.25
367.654	5.25
368.44	5.25
369.227	5.25
370.013	7.25
370.8	7.25
371.586	4.25
372.372	8.25
373.158	5.25
373.944	5.25
374.73	3.25
375.516	5.25
376.302	4.25
377.088	6.25
377.873	3.25
378.659	5.25
379.445	4.25
380.23	2.25
381.015	6.25
381.801	3.25
382.586	5.25
383.371	6.25
384.156	3.25
384.941	5.25
385.726	6.25
386.511	5.25
387.296	5.25
388.08	6.25
388.865	8.25
389.649	5.25
390.434	7.25
391.218	7.25
392.003	7.25
392.787	7.25
393.571	5.25
394.355	4.25
395.139	5.25
395.923	5.25
396.707	3.25
397.491	5.25
398.274	4.25
399.058	7.25
399.842	5.25
400.625	6.25
401.408	6.25
402.192	5.25
402.975	7.25
403.758	6.25
404.541	7.25
405.324	8.25
406.107	7.25
406.89	9.25
407.673	7.25
408.456	8.25
409.238	8.25
410.021	9.25
410.803	7.25
411.586	7.25
412.368	7.25
413.151	8.25
413.933	7.25
414.715	6.25
415.497	8.25
416.279	9.25
417.061	9.25
417.843	9.25
418.624	9.25
419.406	9.25
420.188	10.25
420.969	9.25
421.751	11.25
422.532	9.25
423.313	12.25
424.095	11.25
424.876	11.25
425.657	12.25
426.438	11.25
427.219	13.25
428	11.25
428.78	13.25
429.561	14.25
430.342	14.25
431.122	14.25
431.903	16.25
432.683	16.25
433.464	15.25
434.244	17.25
435.024	16.25
435.804	16.25
436.584	19.25
437.364	20.25
438.144	20.25
438.924	18.25
439.704	21.25
440.483	22.25
441.263	25.25
442.042	26.25
442.822	27.25
443.601	29.25
444.38	30.25
445.16	32.25
445.939	38.25
446.718	41.25
447.497	40.25
448.276	45.25
449.054	50.25
449.833	55.25
450.612	59.25
451.391	64.25
452.169	66.25
452.948	77.25
453.726	86.25
454.504	93.25
455.282	104.25
456.061	113.25
456.839	128.25
457.617	135.25
458.395	159.25
459.172	169.25
459.95	189.25
460.728	211.25
461.506	234.25
462.283	266.25
463.061	286.25
463.838	325.25
464.615	357.25
465.393	392.25
466.17	437.25
466.947	494.25
467.724	553.25
468.501	612.25
469.278	672.25
470.055	735.25
470.831	830.25
471.608	912.25
472.385	1001.25
473.161	1096.25
473.938	1214.25
474.714	1345.25
475.49	1473.25
476.266	1613.25
477.043	1759.25
477.819	1933.25
478.595	2129.25
479.371	2330.25
480.146	2532.25
480.922	2780.25
481.698	3038.25
482.473	3304.25
483.249	3619.25
484.024	3962.25
484.8	4295.25
485.575	4709.25
486.35	5118.25
487.126	5526.25
487.901	6038.25
488.676	6549.25
489.451	7139.25
490.225	7759.25
491	8379.25
491.775	9113.25
492.55	9895.25
493.324	10666.25
494.099	11381.25
494.873	12262.25
495.647	13190.25
496.422	14133.25
497.196	15083.25
497.97	16055.25
498.744	17176.25
499.518	18128.25
500.292	19098.25
501.066	20124.25
501.839	21077.25
502.613	21969.25
503.387	22784.25
504.16	23458.25
504.934	23960.25
505.707	24332.25
506.48	24594.25
507.253	24800.25
508.027	24833.25
508.8	24864.25
509.573	24739.25
510.346	24392.25
511.118	23938.25
511.891	23446.25
512.664	22759.25
513.437	22168.25
514.209	21351.25
514.982	20664.25
515.754	19934.25
516.526	19090.25
517.298	18358.25
518.071	17595.25
518.843	16949.25
519.615	16292.25
520.387	15683.25
521.159	15088.25
521.93	14466.25
522.702	13851.25
523.474	13326.25
524.245	12727.25
525.017	12161.25
525.788	11802.25
526.56	11279.25
527.331	10774.25
528.102	10316.25
528.873	9850.25
529.644	9397.25
530.415	9003.25
531.186	8554.25
531.957	8179.25
532.728	7778.25
533.498	7383.25
534.269	6991.25
535.039	6623.25
535.81	6266.25
536.58	5921.25
537.351	5571.25
538.121	5339.25
538.891	5023.25
539.661	4754.25
540.431	4477.25
541.201	4223.25
541.971	3988.25
542.741	3806.25
543.51	3633.25
544.28	3467.25
545.05	3280.25
545.819	3128.25
546.588	2984.25
547.358	2829.25
548.127	2684.25
548.896	2547.25
549.665	2413.25
550.434	2286.25
551.203	2179.25
551.972	2061.25
552.741	1949.25
553.51	1849.25
554.278	1747.25
555.047	1668.25
555.815	1557.25
556.584	1473.25
557.352	1413.25
558.121	1318.25
558.889	1237.25
559.657	1187.25
560.425	1119.25
561.193	1072.25
561.961	993.25
562.729	932.25
563.496	887.25
564.264	842.25
565.032	789.25
565.799	753.25
566.567	708.25
567.334	679.25
568.101	628.25
568.869	606.25
569.636	554.25
570.403	542.25
571.17	487.25
571.937	479.25
572.704	447.25
573.471	422.25
574.237	396.25
575.004	375.25
575.771	355.25
576.537	333.25
577.303	313.25
578.07	299.25
578.836	278.25
579.602	260.25
580.368	242.25
581.134	240.25
581.9	225.25
582.666	211.25
583.432	201.25
584.198	191.25
584.964	179.25
585.729	170.25
586.495	160.25
587.26	152.25
588.025	142.25
588.791	138.25
589.556	127.25
590.321	120.25
591.086	114.25
591.851	112.25
592.616	105.25
593.381	99.25
594.146	96.25
594.911	91.25
595.675	82.25
596.44	85.25
597.204	78.25
597.969	73.25
598.733	71.25
599.497	67.25
600.261	62.25
601.025	63.25
601.79	58.25
602.553	56.25
603.317	56.25
604.081	52.25
604.845	52.25
605.609	49.25
606.372	46.25
607.136	43.25
607.899	42.25
608.662	40.25
609.426	38.25
610.189	38.25
610.952	39.25
611.715	34.25
612.478	33.25
613.241	31.25
614.004	26.25
614.767	32.25
615.529	28.25
616.292	27.25
617.055	27.25
617.817	24.25
618.579	23.25
619.342	24.25
620.104	20.25
620.866	24.25
621.628	20.25
622.39	20.25
623.152	18.25
623.914	19.25
624.676	19.25
625.438	17.25
626.199	16.25
626.961	15.25
627.722	16.25
628.484	16.25
629.245	13.25
630.006	14.25
630.768	13.25
631.529	16.25
632.29	12.25
633.051	10.25
633.812	13.25
634.573	12.25
635.333	11.25
636.094	9.25
636.855	12.25
637.615	10.25
638.376	12.25
639.136	13.25
639.896	8.25
640.657	9.25
641.417	10.25
642.177	10.25
642.937	8.25
643.697	9.25
644.457	9.25
645.216	6.25
645.976	10.25
646.736	9.25
647.495	8.25
648.255	7.25
649.014	7.25
649.774	6.25
650.533	7.25
651.292	8.25
652.051	4.25
652.81	8.25
653.569	6.25
654.328	5.25
655.087	8.25
655.846	7.25
656.604	10.25
657.363	8.25
658.121	5.25
658.88	6.25
659.638	6.25
660.397	6.25
661.155	4.25
661.913	4.25
662.671	4.25
663.429	4.25
664.187	6.25
664.945	4.25
665.703	6.25
666.46	5.25
667.218	5.25
667.976	6.25
668.733	6.25
669.49	4.25
670.248	5.25
671.005	6.25
671.762	5.25
672.519	6.25
673.276	4.25
674.033	5.25
674.79	4.25
675.547	5.25
676.304	3.25
677.06	2.25
677.817	8.25
678.574	3.25
679.33	4.25
680.086	4.25
680.843	3.25
681.599	4.25
682.355	2.25
683.111	2.25
683.867	1.25
684.623	3.25
685.379	3.25
686.135	4.25
686.89	4.25
687.646	3.25
688.402	4.25
689.157	2.25
689.912	3.25
690.668	4.25
691.423	3.25
692.178	4.25
692.933	3.25
693.688	2.25
694.443	2.25
695.198	4.25
695.953	5.25
696.708	4.25
697.462	4.25
698.217	2.25
698.972	3.25
699.726	3.25
700.48	2.25
701.235	4.25
701.989	2.25
702.743	2.25
703.497	3.25
704.251	3.25
705.005	4.25
705.759	3.25
706.513	4.25
707.266	4.25
708.02	4.25
708.774	4.25
709.527	3.25
710.28	3.25
711.034	4.25
711.787	2.25
712.54	4.25
713.293	3.25
714.046	4.25
714.799	3.25
715.552	4.25
716.305	4.25
717.058	3.25
717.81	4.25
718.563	2.25
719.315	2.25
720.068	4.25
720.82	5.25
721.573	2.25
722.325	2.25
723.077	3.25
723.829	2.25
724.581	5.25
725.333	2.25
726.085	5.25
726.836	4.25
727.588	2.25
728.34	3.25
729.091	2.25
729.843	5.25
730.594	4.25
731.346	4.25
732.097	2.25
732.848	5.25
733.599	4.25
734.35	3.25
735.101	1.25
735.852	3.25
736.603	2.25
737.354	4.25
738.104	4.25
738.855	2.25
739.605	5.25
740.356	6.25
741.106	5.25
741.856	0.25
742.607	4.25
743.357	2.25
744.107	4.25
744.857	5.25
745.607	4.25
746.357	6.25
747.106	6.25
747.856	4.25
748.606	4.25
749.355	5.25
750.105	6.25
750.854	4.25
751.603	6.25
752.353	6.25
753.102	4.25
753.851	4.25
754.6	6.25
755.349	6.25
756.098	4.25
756.847	4.25
757.595	4.25
758.344	5.25
759.093	5.25
759.841	6.25
760.589	3.25
761.338	4.25
762.086	6.25
762.834	5.25
763.582	6.25
764.331	4.25
765.079	7.25
765.826	6.25
766.574	6.25
767.322	7.25
768.07	8.25
768.817	7.25
769.565	7.25
770.312	7.25
771.06	9.25
771.807	6.25
772.554	7.25
773.302	5.25
774.049	9.25
774.796	9.25
775.543	8.25
776.29	7.25
777.036	9.25
777.783	7.25
778.53	8.25
779.276	10.25
780.023	6.25
780.769	5.25
781.516	8.25
782.262	7.25
783.008	8.25
783.754	6.25
784.5	7.25
785.246	7.25
785.992	9.25
786.738	7.25
787.484	8.25
788.23	9.25
788.975	8.25
789.721	5.25
790.466	8.25
791.212	8.25
791.957	7.25
792.702	8.25
793.447	10.25
794.193	7.25
794.938	7.25
795.683	8.25
796.427	7.25
797.172	5.25
797.917	7.25
798.662	6.25
799.406	6.25
800.151	8.25
800.895	7.25
801.64	7.25
802.384	6.25
803.128	7.25
803.872	8.25
804.616	5.25
805.36	7.25
806.104	6.25
806.848	5.25
807.592	5.25
808.336	4.25
809.079	5.25
809.823	6.25
810.566	3.25
811.31	5.25
812.053	5.25
812.796	6.25
813.539	4.25
814.283	6.25
815.026	2.25
815.769	4.25
816.511	2.25
817.254	7.25
817.997	6.25
818.74	3.25
819.482	6.25
820.225	5.25
820.967	2.25
821.71	5.25
822.452	4.25
823.194	3.25
823.936	3.25
824.678	3.25
825.42	5.25
826.162	3.25
826.904	5.25
827.646	4.25
828.388	5.25
829.129	2.25
829.871	5.25
830.612	2.25
831.354	2.25
832.095	2.25
832.836	3.25
833.577	4.25
834.319	0.25
835.06	5.25
835.801	4.25
836.542	5.25
837.282	4.25
838.023	4.25
838.764	4.25
839.504	3.25
840.245	3.25
840.985	5.25
841.726	1.25
842.466	5.25
843.206	4.25
843.946	2.25
844.687	3.25
845.427	2.25
846.166	4.25
846.906	2.25
847.646	4.25
848.386	2.25
849.125	4.25
849.865	2.25
850.605	2.25
851.344	6.25
852.083	2.25
852.823	4.25
853.562	4.25
854.301	1.25
855.04	3.25
855.779	5.25
856.518	4.25
857.257	3.25
857.995	1.25
858.734	3.25
859.473	2.25
860.211	0.25
860.95	2.25
861.688	4.25
862.426	4.25
863.165	5.25
863.903	2.25
864.641	2.25
865.379	3.25
866.117	0.25
866.855	1.25
867.593	1.25
868.33	3.25
869.068	3.25
869.806	1.25
870.543	2.25
871.28	1.25
872.018	2.25
872.755	2.25
873.492	2.25
874.229	3.25
874.967	1.25
875.703	2.25
876.44	3.25
877.177	0.25
877.914	1.25
878.651	0.25
879.387	1.25
880.124	-0.75
880.86	5.25
881.597	1.25
882.333	2.25
883.069	1.25
883.806	2.25
884.542	-0.75
885.278	1.25
886.014	1.25
886.749	-0.75
887.485	2.25
888.221	2.25
888.957	1.25
889.692	0.25
890.428	2.25
891.163	0.25
891.899	-0.75
892.634	0.25
893.369	2.25
894.104	-0.75
894.839	-0.75
895.574	1.25
896.309	2.25
897.044	0.25
897.779	0.25
898.514	2.25
899.248	1.25
899.983	1.25
900.717	1.25
901.452	1.25
902.186	1.25
902.92	1.25
903.654	-0.75
904.389	0.25
905.123	0.25
905.857	1.25
906.59	1.25
907.324	0.25
908.058	3.25
908.792	2.25
909.525	1.25
910.259	2.25
910.992	0.25
911.726	2.25
912.459	1.25
913.192	0.25
913.925	2.25
914.658	-1.75
915.391	0.25
916.124	2.25
916.857	0.25
917.59	-0.75
918.323	0.25
919.055	1.25
919.788	-0.75
920.521	0.25
921.253	3.25
921.985	1.25
922.718	0.25
923.45	2.25
924.182	-1.75
924.914	-1.75
925.646	2.25
926.378	2.25
927.11	0.25
927.841	-1.75
928.573	1.25
929.305	0.25
930.036	1.25
930.768	1.25
931.499	1.25
932.23	1.25
932.962	-0.75
933.693	-1.75
934.424	1.25
935.155	1.25
935.886	1.25
936.617	0.25
937.348	-0.75
938.078	2.25
938.809	0.25
939.54	2.25
940.27	-1.75
941.001	0.25
941.731	2.25
942.461	0.25
943.191	2.25
943.922	-0.75
944.652	1.25
945.382	0.25
946.112	0.25
946.841	1.25
947.571	-0.75
948.301	-0.75
949.031	1.25
949.76	1.25
950.49	0.25
951.219	1.25
951.948	-0.75
952.678	0.25
953.407	0.25
954.136	-0.75
954.865	0.25
955.594	1.25
956.323	-0.75
957.052	1.25
957.78	-1.75
958.509	-0.75
959.238	0.25
959.966	1.25
960.695	0.25
961.423	0.25
962.151	0.25
962.88	-0.75
963.608	2.25
964.336	0.25
965.064	2.25
965.792	2.25
966.52	1.25
967.247	2.25
967.975	0.25
968.703	1.25
969.43	-2.75
970.158	1.25
970.885	0.25
971.613	1.25
972.34	2.25
973.067	0.25
973.794	-0.75
974.521	0.25
975.248	0.25
975.975	1.25
976.702	-0.75
977.429	0.25
978.156	-1.75
978.882	1.25
979.609	2.25
980.335	1.25
981.062	0.25
981.788	1.25
982.514	2.25
983.24	1.25
983.967	0.25
984.693	2.25
985.419	1.25
986.144	1.25
986.87	0.25
987.596	1.25
988.322	-0.75
989.047	2.25
989.773	2.25
990.498	0.25
991.224	0.25
991.949	0.25
992.674	0.25
993.399	1.25
994.124	2.25
994.849	1.25
995.574	2.25
996.299	0.25
997.024	-1.75
997.749	0.25
998.473	1.25
999.198	0.25
999.922	-0.75
1000.647	1.25
1001.371	2.25
1002.095	-0.75
1002.82	0.25
1003.544	-0.75
1004.268	0.25
1004.992	-0.75
1005.716	2.25
1006.439	0.25
1007.163	1.25
1007.887	1.25
1008.611	2.25
1009.334	0.25
1010.058	2.25
1010.781	1.25
1011.504	0.25
1012.228	1.25
1012.951	-1.75
1013.674	1.25
1014.397	0.25
1015.12	-0.75
