节点500_285_QEPB04081__39__14-56-12-415.txt的数据

Date: Wed Nov 12 14:56:12 CST 2025
User: PC
Spectrometer: QEPB0408
触发模式: 0
积分时间 (秒): 1.000000E-2
Scans to average: 1
启用暗噪声校正: true
启用非线性校正: false
滑动平均宽度: 0
X轴模式: Wavelengths
Number of Pixels in Spectrum: 1044
>>>>>Begin Spectral Data<<<<<
220.843	0.25
221.644	-0.75
222.444	2.25
223.244	1.25
224.045	2.25
224.845	0.25
225.645	2.25
226.445	1.25
227.245	2.25
228.045	1.25
228.845	3.25
229.645	2.25
230.444	3.25
231.244	3.25
232.043	1.25
232.843	5.25
233.642	2.25
234.442	2.25
235.241	2.25
236.04	3.25
236.839	2.25
237.638	3.25
238.437	4.25
239.236	3.25
240.035	6.25
240.833	5.25
241.632	5.25
242.43	5.25
243.229	4.25
244.027	5.25
244.826	5.25
245.624	5.25
246.422	4.25
247.22	4.25
248.018	5.25
248.816	5.25
249.614	5.25
250.412	7.25
251.21	5.25
252.007	7.25
252.805	7.25
253.602	7.25
254.4	6.25
255.197	9.25
255.994	10.25
256.791	6.25
257.589	8.25
258.386	7.25
259.183	8.25
259.979	11.25
260.776	7.25
261.573	10.25
262.37	8.25
263.166	11.25
263.963	10.25
264.759	13.25
265.556	15.25
266.352	11.25
267.148	12.25
267.944	13.25
268.74	13.25
269.536	15.25
270.332	14.25
271.128	14.25
271.924	13.25
272.719	18.25
273.515	18.25
274.311	17.25
275.106	20.25
275.901	15.25
276.697	18.25
277.492	17.25
278.287	18.25
279.082	17.25
279.877	18.25
280.672	18.25
281.467	19.25
282.262	18.25
283.056	18.25
283.851	19.25
284.646	19.25
285.44	18.25
286.234	19.25
287.029	19.25
287.823	19.25
288.617	20.25
289.411	20.25
290.205	18.25
290.999	19.25
291.793	15.25
292.587	17.25
293.381	17.25
294.174	18.25
294.968	15.25
295.761	16.25
296.555	13.25
297.348	15.25
298.141	12.25
298.935	15.25
299.728	15.25
300.521	12.25
301.314	13.25
302.107	13.25
302.899	10.25
303.692	12.25
304.485	11.25
305.277	13.25
306.07	13.25
306.862	11.25
307.655	11.25
308.447	10.25
309.239	10.25
310.031	13.25
310.823	10.25
311.615	11.25
312.407	8.25
313.199	10.25
313.991	10.25
314.783	10.25
315.574	7.25
316.366	8.25
317.157	8.25
317.949	7.25
318.74	9.25
319.531	7.25
320.322	9.25
321.113	6.25
321.904	7.25
322.695	7.25
323.486	7.25
324.277	6.25
325.068	5.25
325.858	7.25
326.649	6.25
327.439	8.25
328.23	7.25
329.02	8.25
329.81	5.25
330.6	5.25
331.391	4.25
332.181	5.25
332.971	6.25
333.76	6.25
334.55	6.25
335.34	7.25
336.13	5.25
336.919	6.25
337.709	6.25
338.498	7.25
339.287	7.25
340.077	7.25
340.866	5.25
341.655	8.25
342.444	6.25
343.233	6.25
344.022	7.25
344.811	5.25
345.6	8.25
346.388	5.25
347.177	5.25
347.965	7.25
348.754	7.25
349.542	6.25
350.33	5.25
351.119	7.25
351.907	6.25
352.695	5.25
353.483	5.25
354.271	5.25
355.059	6.25
355.846	6.25
356.634	5.25
357.422	5.25
358.209	5.25
358.997	7.25
359.784	3.25
360.571	9.25
361.359	5.25
362.146	5.25
362.933	5.25
363.72	5.25
364.507	5.25
365.294	6.25
366.081	7.25
366.867	4.25
367.654	6.25
368.44	4.25
369.227	5.25
370.013	5.25
370.8	4.25
371.586	3.25
372.372	4.25
373.158	4.25
373.944	7.25
374.73	5.25
375.516	6.25
376.302	7.25
377.088	6.25
377.873	5.25
378.659	3.25
379.445	6.25
380.23	6.25
381.015	3.25
381.801	6.25
382.586	4.25
383.371	5.25
384.156	7.25
384.941	7.25
385.726	7.25
386.511	6.25
387.296	7.25
388.08	6.25
388.865	5.25
389.649	5.25
390.434	5.25
391.218	5.25
392.003	6.25
392.787	6.25
393.571	7.25
394.355	6.25
395.139	5.25
395.923	5.25
396.707	6.25
397.491	7.25
398.274	7.25
399.058	5.25
399.842	6.25
400.625	9.25
401.408	6.25
402.192	8.25
402.975	8.25
403.758	5.25
404.541	8.25
405.324	6.25
406.107	7.25
406.89	7.25
407.673	5.25
408.456	9.25
409.238	9.25
410.021	9.25
410.803	7.25
411.586	9.25
412.368	10.25
413.151	8.25
413.933	10.25
414.715	9.25
415.497	10.25
416.279	11.25
417.061	10.25
417.843	9.25
418.624	8.25
419.406	9.25
420.188	10.25
420.969	10.25
421.751	9.25
422.532	11.25
423.313	10.25
424.095	12.25
424.876	10.25
425.657	11.25
426.438	13.25
427.219	13.25
428	13.25
428.78	13.25
429.561	11.25
430.342	15.25
431.122	12.25
431.903	15.25
432.683	14.25
433.464	16.25
434.244	15.25
435.024	14.25
435.804	17.25
436.584	20.25
437.364	18.25
438.144	19.25
438.924	17.25
439.704	21.25
440.483	20.25
441.263	22.25
442.042	22.25
442.822	25.25
443.601	25.25
444.38	28.25
445.16	30.25
445.939	30.25
446.718	29.25
447.497	36.25
448.276	39.25
449.054	39.25
449.833	42.25
450.612	45.25
451.391	47.25
452.169	50.25
452.948	54.25
453.726	64.25
454.504	68.25
455.282	74.25
456.061	86.25
456.839	94.25
457.617	99.25
458.395	111.25
459.172	123.25
459.95	137.25
460.728	160.25
461.506	170.25
462.283	191.25
463.061	214.25
463.838	240.25
464.615	271.25
465.393	303.25
466.17	340.25
466.947	363.25
467.724	424.25
468.501	467.25
469.278	523.25
470.055	587.25
470.831	655.25
471.608	740.25
472.385	820.25
473.161	927.25
473.938	1024.25
474.714	1137.25
475.49	1274.25
476.266	1400.25
477.043	1583.25
477.819	1741.25
478.595	1931.25
479.371	2159.25
480.146	2380.25
480.922	2630.25
481.698	2929.25
482.473	3280.25
483.249	3635.25
484.024	3994.25
484.8	4419.25
485.575	4893.25
486.35	5416.25
487.126	5977.25
487.901	6637.25
488.676	7253.25
489.451	8033.25
490.225	8800.25
491	9688.25
491.775	10577.25
492.55	11605.25
493.324	12587.25
494.099	13678.25
494.873	14727.25
495.647	15952.25
496.422	17149.25
497.196	18314.25
497.97	19546.25
498.744	20728.25
499.518	21927.25
500.292	23008.25
501.066	23999.25
501.839	24830.25
502.613	25619.25
503.387	26238.25
504.16	26693.25
504.934	26869.25
505.707	26857.25
506.48	26678.25
507.253	26408.25
508.027	25921.25
508.8	25460.25
509.573	24788.25
510.346	23999.25
511.118	23108.25
511.891	22248.25
512.664	21312.25
513.437	20402.25
514.209	19510.25
514.982	18609.25
515.754	17781.25
516.526	16878.25
517.298	16183.25
518.071	15468.25
518.843	14938.25
519.615	14358.25
520.387	13758.25
521.159	13214.25
521.93	12634.25
522.702	12237.25
523.474	11676.25
524.245	11157.25
525.017	10648.25
525.788	10234.25
526.56	9734.25
527.331	9269.25
528.102	8842.25
528.873	8369.25
529.644	7958.25
530.415	7562.25
531.186	7121.25
531.957	6771.25
532.728	6397.25
533.498	6039.25
534.269	5686.25
535.039	5397.25
535.81	5086.25
536.58	4801.25
537.351	4533.25
538.121	4258.25
538.891	4050.25
539.661	3804.25
540.431	3609.25
541.201	3395.25
541.971	3235.25
542.741	3053.25
543.51	2881.25
544.28	2774.25
545.05	2651.25
545.819	2493.25
546.588	2370.25
547.358	2253.25
548.127	2146.25
548.896	2043.25
549.665	1919.25
550.434	1822.25
551.203	1728.25
551.972	1628.25
552.741	1539.25
553.51	1457.25
554.278	1379.25
555.047	1284.25
555.815	1225.25
556.584	1138.25
557.352	1078.25
558.121	1024.25
558.889	960.25
559.657	913.25
560.425	859.25
561.193	805.25
561.961	769.25
562.729	726.25
563.496	675.25
564.264	637.25
565.032	613.25
565.799	579.25
566.567	550.25
567.334	515.25
568.101	490.25
568.869	458.25
569.636	436.25
570.403	400.25
571.17	376.25
571.937	364.25
572.704	346.25
573.471	318.25
574.237	303.25
575.004	285.25
575.771	271.25
576.537	255.25
577.303	243.25
578.07	223.25
578.836	212.25
579.602	199.25
580.368	186.25
581.134	178.25
581.9	169.25
582.666	161.25
583.432	158.25
584.198	148.25
584.964	139.25
585.729	127.25
586.495	127.25
587.26	117.25
588.025	108.25
588.791	105.25
589.556	100.25
590.321	95.25
591.086	88.25
591.851	80.25
592.616	82.25
593.381	76.25
594.146	70.25
594.911	71.25
595.675	64.25
596.44	68.25
597.204	61.25
597.969	59.25
598.733	56.25
599.497	53.25
600.261	51.25
601.025	50.25
601.79	47.25
602.553	43.25
603.317	42.25
604.081	39.25
604.845	45.25
605.609	38.25
606.372	35.25
607.136	37.25
607.899	32.25
608.662	34.25
609.426	30.25
610.189	31.25
610.952	28.25
611.715	25.25
612.478	26.25
613.241	25.25
614.004	23.25
614.767	25.25
615.529	21.25
616.292	24.25
617.055	19.25
617.817	21.25
618.579	24.25
619.342	18.25
620.104	18.25
620.866	16.25
621.628	19.25
622.39	18.25
623.152	15.25
623.914	18.25
624.676	16.25
625.438	17.25
626.199	14.25
626.961	15.25
627.722	13.25
628.484	12.25
629.245	12.25
630.006	12.25
630.768	11.25
631.529	11.25
632.29	11.25
633.051	11.25
633.812	10.25
634.573	9.25
635.333	7.25
636.094	10.25
636.855	10.25
637.615	8.25
638.376	11.25
639.136	7.25
639.896	9.25
640.657	11.25
641.417	9.25
642.177	9.25
642.937	8.25
643.697	9.25
644.457	9.25
645.216	8.25
645.976	7.25
646.736	7.25
647.495	7.25
648.255	8.25
649.014	5.25
649.774	7.25
650.533	6.25
651.292	7.25
652.051	7.25
652.81	6.25
653.569	5.25
654.328	5.25
655.087	9.25
655.846	3.25
656.604	7.25
657.363	5.25
658.121	7.25
658.88	5.25
659.638	3.25
660.397	6.25
661.155	4.25
661.913	7.25
662.671	6.25
663.429	4.25
664.187	6.25
664.945	3.25
665.703	6.25
666.46	4.25
667.218	5.25
667.976	4.25
668.733	4.25
669.49	6.25
670.248	4.25
671.005	7.25
671.762	5.25
672.519	5.25
673.276	2.25
674.033	4.25
674.79	4.25
675.547	5.25
676.304	3.25
677.06	5.25
677.817	2.25
678.574	6.25
679.33	6.25
680.086	4.25
680.843	3.25
681.599	6.25
682.355	7.25
683.111	3.25
683.867	3.25
684.623	4.25
685.379	3.25
686.135	4.25
686.89	2.25
687.646	4.25
688.402	3.25
689.157	4.25
689.912	5.25
690.668	4.25
691.423	4.25
692.178	3.25
692.933	5.25
693.688	4.25
694.443	3.25
695.198	3.25
695.953	1.25
696.708	3.25
697.462	6.25
698.217	3.25
698.972	5.25
699.726	6.25
700.48	3.25
701.235	2.25
701.989	6.25
702.743	5.25
703.497	0.25
704.251	5.25
705.005	2.25
705.759	4.25
706.513	3.25
707.266	4.25
708.02	4.25
708.774	4.25
709.527	1.25
710.28	2.25
711.034	4.25
711.787	3.25
712.54	1.25
713.293	3.25
714.046	0.25
714.799	5.25
715.552	4.25
716.305	3.25
717.058	1.25
717.81	5.25
718.563	5.25
719.315	3.25
720.068	5.25
720.82	5.25
721.573	4.25
722.325	4.25
723.077	3.25
723.829	3.25
724.581	3.25
725.333	3.25
726.085	4.25
726.836	1.25
727.588	3.25
728.34	3.25
729.091	5.25
729.843	4.25
730.594	3.25
731.346	5.25
732.097	3.25
732.848	4.25
733.599	1.25
734.35	6.25
735.101	4.25
735.852	4.25
736.603	3.25
737.354	5.25
738.104	2.25
738.855	3.25
739.605	2.25
740.356	4.25
741.106	3.25
741.856	6.25
742.607	6.25
743.357	4.25
744.107	3.25
744.857	4.25
745.607	5.25
746.357	6.25
747.106	6.25
747.856	5.25
748.606	5.25
749.355	9.25
750.105	5.25
750.854	5.25
751.603	5.25
752.353	5.25
753.102	5.25
753.851	6.25
754.6	6.25
755.349	2.25
756.098	6.25
756.847	6.25
757.595	6.25
758.344	9.25
759.093	2.25
759.841	9.25
760.589	4.25
761.338	6.25
762.086	6.25
762.834	8.25
763.582	9.25
764.331	5.25
765.079	7.25
765.826	7.25
766.574	6.25
767.322	11.25
768.07	4.25
768.817	7.25
769.565	5.25
770.312	8.25
771.06	8.25
771.807	8.25
772.554	9.25
773.302	6.25
774.049	9.25
774.796	8.25
775.543	8.25
776.29	11.25
777.036	8.25
777.783	10.25
778.53	10.25
779.276	9.25
780.023	10.25
780.769	8.25
781.516	9.25
782.262	10.25
783.008	10.25
783.754	10.25
784.5	10.25
785.246	10.25
785.992	9.25
786.738	7.25
787.484	10.25
788.23	9.25
788.975	7.25
789.721	9.25
790.466	7.25
791.212	7.25
791.957	7.25
792.702	9.25
793.447	9.25
794.193	7.25
794.938	4.25
795.683	9.25
796.427	8.25
797.172	8.25
797.917	7.25
798.662	6.25
799.406	8.25
800.151	7.25
800.895	6.25
801.64	7.25
802.384	7.25
803.128	6.25
803.872	6.25
804.616	7.25
805.36	8.25
806.104	8.25
806.848	6.25
807.592	6.25
808.336	8.25
809.079	6.25
809.823	7.25
810.566	5.25
811.31	1.25
812.053	5.25
812.796	6.25
813.539	7.25
814.283	4.25
815.026	1.25
815.769	7.25
816.511	6.25
817.254	5.25
817.997	3.25
818.74	3.25
819.482	5.25
820.225	3.25
820.967	4.25
821.71	4.25
822.452	3.25
823.194	4.25
823.936	5.25
824.678	3.25
825.42	6.25
826.162	4.25
826.904	3.25
827.646	0.25
828.388	2.25
829.129	6.25
829.871	3.25
830.612	0.25
831.354	5.25
832.095	2.25
832.836	3.25
833.577	6.25
834.319	3.25
835.06	3.25
835.801	2.25
836.542	4.25
837.282	4.25
838.023	2.25
838.764	5.25
839.504	0.25
840.245	4.25
840.985	6.25
841.726	6.25
842.466	2.25
843.206	1.25
843.946	3.25
844.687	3.25
845.427	2.25
846.166	1.25
846.906	5.25
847.646	3.25
848.386	4.25
849.125	3.25
849.865	2.25
850.605	5.25
851.344	1.25
852.083	-0.75
852.823	1.25
853.562	2.25
854.301	3.25
855.04	3.25
855.779	2.25
856.518	2.25
857.257	1.25
857.995	4.25
858.734	1.25
859.473	4.25
860.211	2.25
860.95	1.25
861.688	2.25
862.426	1.25
863.165	1.25
863.903	1.25
864.641	1.25
865.379	3.25
866.117	2.25
866.855	3.25
867.593	3.25
868.33	1.25
869.068	3.25
869.806	0.25
870.543	0.25
871.28	1.25
872.018	2.25
872.755	-0.75
873.492	1.25
874.229	3.25
874.967	1.25
875.703	2.25
876.44	1.25
877.177	2.25
877.914	2.25
878.651	1.25
879.387	0.25
880.124	2.25
880.86	2.25
881.597	1.25
882.333	0.25
883.069	1.25
883.806	0.25
884.542	2.25
885.278	2.25
886.014	0.25
886.749	1.25
887.485	-0.75
888.221	1.25
888.957	1.25
889.692	0.25
890.428	1.25
891.163	0.25
891.899	0.25
892.634	2.25
893.369	1.25
894.104	1.25
894.839	-0.75
895.574	0.25
896.309	1.25
897.044	2.25
897.779	2.25
898.514	0.25
899.248	0.25
899.983	-0.75
900.717	-0.75
901.452	0.25
902.186	1.25
902.92	0.25
903.654	1.25
904.389	2.25
905.123	-0.75
905.857	0.25
906.59	-1.75
907.324	1.25
908.058	1.25
908.792	0.25
909.525	4.25
910.259	0.25
910.992	-0.75
911.726	1.25
912.459	0.25
913.192	1.25
913.925	3.25
914.658	0.25
915.391	2.25
916.124	1.25
916.857	1.25
917.59	-0.75
918.323	1.25
919.055	-0.75
919.788	1.25
920.521	2.25
921.253	0.25
921.985	0.25
922.718	1.25
923.45	-0.75
924.182	0.25
924.914	1.25
925.646	1.25
926.378	-0.75
927.11	-0.75
927.841	-0.75
928.573	1.25
929.305	-1.75
930.036	-0.75
930.768	-0.75
931.499	1.25
932.23	0.25
932.962	1.25
933.693	2.25
934.424	-0.75
935.155	-0.75
935.886	1.25
936.617	-0.75
937.348	1.25
938.078	0.25
938.809	0.25
939.54	0.25
940.27	-0.75
941.001	2.25
941.731	1.25
942.461	-0.75
943.191	-0.75
943.922	0.25
944.652	3.25
945.382	0.25
946.112	1.25
946.841	0.25
947.571	0.25
948.301	1.25
949.031	-0.75
949.76	1.25
950.49	0.25
951.219	1.25
951.948	0.25
952.678	0.25
953.407	1.25
954.136	-1.75
954.865	2.25
955.594	2.25
956.323	0.25
957.052	0.25
957.78	1.25
958.509	0.25
959.238	0.25
959.966	-0.75
960.695	1.25
961.423	1.25
962.151	2.25
962.88	0.25
963.608	-0.75
964.336	2.25
965.064	1.25
965.792	1.25
966.52	1.25
967.247	0.25
967.975	1.25
968.703	2.25
969.43	0.25
970.158	-2.75
970.885	0.25
971.613	0.25
972.34	1.25
973.067	-0.75
973.794	0.25
974.521	1.25
975.248	-1.75
975.975	1.25
976.702	-2.75
977.429	-0.75
978.156	1.25
978.882	-0.75
979.609	1.25
980.335	0.25
981.062	0.25
981.788	1.25
982.514	2.25
983.24	3.25
983.967	0.25
984.693	2.25
985.419	0.25
986.144	-0.75
986.87	0.25
987.596	-0.75
988.322	0.25
989.047	-0.75
989.773	-0.75
990.498	0.25
991.224	0.25
991.949	2.25
992.674	1.25
993.399	1.25
994.124	1.25
994.849	1.25
995.574	2.25
996.299	-0.75
997.024	0.25
997.749	1.25
998.473	0.25
999.198	2.25
999.922	1.25
1000.647	1.25
1001.371	1.25
1002.095	0.25
1002.82	-0.75
1003.544	0.25
1004.268	2.25
1004.992	0.25
1005.716	0.25
1006.439	1.25
1007.163	3.25
1007.887	2.25
1008.611	1.25
1009.334	2.25
1010.058	-1.75
1010.781	1.25
1011.504	0.25
1012.228	-1.75
1012.951	-0.75
1013.674	0.25
1014.397	-0.75
1015.12	0.25
