节点500_285_QEPB04081__629__15-06-01-079.txt的数据

Date: Wed Nov 12 15:06:01 CST 2025
User: PC
Spectrometer: QEPB0408
触发模式: 0
积分时间 (秒): 1.000000E-2
Scans to average: 1
启用暗噪声校正: true
启用非线性校正: false
滑动平均宽度: 0
X轴模式: Wavelengths
Number of Pixels in Spectrum: 1044
>>>>>Begin Spectral Data<<<<<
220.843	1.75
221.644	2.75
222.444	1.75
223.244	2.75
224.045	0.75
224.845	0.75
225.645	4.75
226.445	1.75
227.245	2.75
228.045	0.75
228.845	2.75
229.645	1.75
230.444	1.75
231.244	2.75
232.043	1.75
232.843	0.75
233.642	2.75
234.442	1.75
235.241	4.75
236.04	2.75
236.839	3.75
237.638	2.75
238.437	1.75
239.236	4.75
240.035	2.75
240.833	5.75
241.632	4.75
242.43	3.75
243.229	3.75
244.027	4.75
244.826	4.75
245.624	4.75
246.422	6.75
247.22	3.75
248.018	4.75
248.816	5.75
249.614	6.75
250.412	6.75
251.21	5.75
252.007	6.75
252.805	5.75
253.602	6.75
254.4	4.75
255.197	6.75
255.994	8.75
256.791	7.75
257.589	8.75
258.386	4.75
259.183	7.75
259.979	6.75
260.776	8.75
261.573	6.75
262.37	9.75
263.166	10.75
263.963	9.75
264.759	12.75
265.556	9.75
266.352	9.75
267.148	10.75
267.944	10.75
268.74	13.75
269.536	11.75
270.332	13.75
271.128	13.75
271.924	14.75
272.719	15.75
273.515	14.75
274.311	14.75
275.106	15.75
275.901	13.75
276.697	16.75
277.492	14.75
278.287	18.75
279.082	14.75
279.877	13.75
280.672	18.75
281.467	16.75
282.262	18.75
283.056	18.75
283.851	18.75
284.646	16.75
285.44	18.75
286.234	16.75
287.029	16.75
287.823	17.75
288.617	16.75
289.411	20.75
290.205	15.75
290.999	14.75
291.793	16.75
292.587	15.75
293.381	18.75
294.174	17.75
294.968	17.75
295.761	15.75
296.555	14.75
297.348	13.75
298.141	13.75
298.935	17.75
299.728	12.75
300.521	12.75
301.314	12.75
302.107	13.75
302.899	13.75
303.692	13.75
304.485	11.75
305.277	12.75
306.07	11.75
306.862	11.75
307.655	13.75
308.447	13.75
309.239	9.75
310.031	12.75
310.823	9.75
311.615	11.75
312.407	9.75
313.199	9.75
313.991	8.75
314.783	8.75
315.574	8.75
316.366	9.75
317.157	9.75
317.949	7.75
318.74	6.75
319.531	7.75
320.322	3.75
321.113	10.75
321.904	7.75
322.695	6.75
323.486	7.75
324.277	6.75
325.068	4.75
325.858	6.75
326.649	6.75
327.439	4.75
328.23	5.75
329.02	7.75
329.81	4.75
330.6	5.75
331.391	4.75
332.181	5.75
332.971	6.75
333.76	6.75
334.55	6.75
335.34	6.75
336.13	3.75
336.919	3.75
337.709	8.75
338.498	5.75
339.287	3.75
340.077	5.75
340.866	4.75
341.655	8.75
342.444	5.75
343.233	5.75
344.022	4.75
344.811	6.75
345.6	7.75
346.388	7.75
347.177	5.75
347.965	5.75
348.754	4.75
349.542	6.75
350.33	4.75
351.119	5.75
351.907	5.75
352.695	5.75
353.483	4.75
354.271	6.75
355.059	3.75
355.846	3.75
356.634	4.75
357.422	4.75
358.209	6.75
358.997	6.75
359.784	5.75
360.571	5.75
361.359	1.75
362.146	5.75
362.933	5.75
363.72	4.75
364.507	4.75
365.294	4.75
366.081	4.75
366.867	3.75
367.654	5.75
368.44	3.75
369.227	3.75
370.013	4.75
370.8	5.75
371.586	4.75
372.372	4.75
373.158	3.75
373.944	3.75
374.73	3.75
375.516	6.75
376.302	3.75
377.088	3.75
377.873	3.75
378.659	5.75
379.445	3.75
380.23	2.75
381.015	2.75
381.801	5.75
382.586	4.75
383.371	2.75
384.156	6.75
384.941	6.75
385.726	4.75
386.511	7.75
387.296	7.75
388.08	5.75
388.865	6.75
389.649	5.75
390.434	8.75
391.218	6.75
392.003	6.75
392.787	4.75
393.571	7.75
394.355	4.75
395.139	4.75
395.923	7.75
396.707	6.75
397.491	6.75
398.274	9.75
399.058	4.75
399.842	7.75
400.625	6.75
401.408	8.75
402.192	5.75
402.975	5.75
403.758	8.75
404.541	5.75
405.324	6.75
406.107	7.75
406.89	4.75
407.673	8.75
408.456	9.75
409.238	8.75
410.021	6.75
410.803	7.75
411.586	5.75
412.368	7.75
413.151	9.75
413.933	7.75
414.715	9.75
415.497	9.75
416.279	8.75
417.061	9.75
417.843	9.75
418.624	9.75
419.406	7.75
420.188	10.75
420.969	9.75
421.751	9.75
422.532	10.75
423.313	10.75
424.095	10.75
424.876	8.75
425.657	11.75
426.438	9.75
427.219	11.75
428	12.75
428.78	8.75
429.561	13.75
430.342	11.75
431.122	13.75
431.903	15.75
432.683	13.75
433.464	14.75
434.244	15.75
435.024	18.75
435.804	17.75
436.584	18.75
437.364	18.75
438.144	18.75
438.924	18.75
439.704	22.75
440.483	25.75
441.263	21.75
442.042	24.75
442.822	24.75
443.601	26.75
444.38	28.75
445.16	29.75
445.939	34.75
446.718	36.75
447.497	38.75
448.276	42.75
449.054	45.75
449.833	47.75
450.612	56.75
451.391	61.75
452.169	66.75
452.948	72.75
453.726	76.75
454.504	89.75
455.282	95.75
456.061	107.75
456.839	115.75
457.617	135.75
458.395	144.75
459.172	168.75
459.95	177.75
460.728	197.75
461.506	230.75
462.283	248.75
463.061	280.75
463.838	312.75
464.615	351.75
465.393	380.75
466.17	425.75
466.947	480.75
467.724	535.75
468.501	593.75
469.278	657.75
470.055	719.75
470.831	797.75
471.608	878.75
472.385	973.75
473.161	1083.75
473.938	1208.75
474.714	1310.75
475.49	1465.75
476.266	1616.75
477.043	1768.75
477.819	1943.75
478.595	2141.75
479.371	2346.75
480.146	2569.75
480.922	2814.75
481.698	3090.75
482.473	3400.75
483.249	3708.75
484.024	4051.75
484.8	4457.75
485.575	4866.75
486.35	5291.75
487.126	5798.75
487.901	6325.75
488.676	6873.75
489.451	7555.75
490.225	8191.75
491	8932.75
491.775	9729.75
492.55	10514.75
493.324	11406.75
494.099	12278.75
494.873	13154.75
495.647	14151.75
496.422	15173.75
497.196	16331.75
497.97	17384.75
498.744	18461.75
499.518	19515.75
500.292	20593.75
501.066	21626.75
501.839	22577.75
502.613	23515.75
503.387	24320.75
504.16	24973.75
504.934	25439.75
505.707	25782.75
506.48	25970.75
507.253	26050.75
508.027	25917.75
508.8	25794.75
509.573	25611.75
510.346	25172.75
511.118	24480.75
511.891	23891.75
512.664	23122.75
513.437	22472.75
514.209	21544.75
514.982	20709.75
515.754	19950.75
516.526	19067.75
517.298	18321.75
518.071	17565.75
518.843	16826.75
519.615	16195.75
520.387	15631.75
521.159	14995.75
521.93	14362.75
522.702	13810.75
523.474	13293.75
524.245	12644.75
525.017	12157.75
525.788	11687.75
526.56	11189.75
527.331	10657.75
528.102	10188.75
528.873	9731.75
529.644	9253.75
530.415	8860.75
531.186	8409.75
531.957	8014.75
532.728	7636.75
533.498	7230.75
534.269	6824.75
535.039	6496.75
535.81	6118.75
536.58	5772.75
537.351	5444.75
538.121	5154.75
538.891	4867.75
539.661	4594.75
540.431	4380.75
541.201	4120.75
541.971	3903.75
542.741	3709.75
543.51	3523.75
544.28	3333.75
545.05	3188.75
545.819	3038.75
546.588	2867.75
547.358	2722.75
548.127	2610.75
548.896	2492.75
549.665	2341.75
550.434	2236.75
551.203	2116.75
551.972	1996.75
552.741	1876.75
553.51	1769.75
554.278	1684.75
555.047	1599.75
555.815	1502.75
556.584	1414.75
557.352	1345.75
558.121	1276.75
558.889	1200.75
559.657	1144.75
560.425	1070.75
561.193	1004.75
561.961	957.75
562.729	909.75
563.496	855.75
564.264	796.75
565.032	761.75
565.799	722.75
566.567	684.75
567.334	638.75
568.101	602.75
568.869	589.75
569.636	534.75
570.403	506.75
571.17	475.75
571.937	449.75
572.704	428.75
573.471	408.75
574.237	377.75
575.004	357.75
575.771	334.75
576.537	321.75
577.303	302.75
578.07	289.75
578.836	273.75
579.602	255.75
580.368	239.75
581.134	226.75
581.9	216.75
582.666	204.75
583.432	193.75
584.198	180.75
584.964	169.75
585.729	165.75
586.495	152.75
587.26	145.75
588.025	135.75
588.791	134.75
589.556	120.75
590.321	113.75
591.086	114.75
591.851	107.75
592.616	104.75
593.381	94.75
594.146	87.75
594.911	92.75
595.675	80.75
596.44	79.75
597.204	76.75
597.969	69.75
598.733	67.75
599.497	63.75
600.261	64.75
601.025	58.75
601.79	62.75
602.553	53.75
603.317	52.75
604.081	48.75
604.845	44.75
605.609	47.75
606.372	43.75
607.136	42.75
607.899	38.75
608.662	42.75
609.426	35.75
610.189	39.75
610.952	34.75
611.715	29.75
612.478	33.75
613.241	29.75
614.004	30.75
614.767	27.75
615.529	24.75
616.292	26.75
617.055	25.75
617.817	25.75
618.579	23.75
619.342	25.75
620.104	22.75
620.866	20.75
621.628	18.75
622.39	16.75
623.152	19.75
623.914	16.75
624.676	19.75
625.438	17.75
626.199	17.75
626.961	14.75
627.722	15.75
628.484	15.75
629.245	14.75
630.006	12.75
630.768	12.75
631.529	10.75
632.29	11.75
633.051	10.75
633.812	14.75
634.573	11.75
635.333	10.75
636.094	11.75
636.855	9.75
637.615	11.75
638.376	9.75
639.136	9.75
639.896	9.75
640.657	9.75
641.417	7.75
642.177	8.75
642.937	7.75
643.697	8.75
644.457	8.75
645.216	8.75
645.976	7.75
646.736	7.75
647.495	6.75
648.255	9.75
649.014	6.75
649.774	5.75
650.533	8.75
651.292	3.75
652.051	6.75
652.81	7.75
653.569	5.75
654.328	7.75
655.087	5.75
655.846	4.75
656.604	2.75
657.363	7.75
658.121	4.75
658.88	7.75
659.638	5.75
660.397	4.75
661.155	6.75
661.913	4.75
662.671	3.75
663.429	5.75
664.187	4.75
664.945	4.75
665.703	6.75
666.46	6.75
667.218	4.75
667.976	5.75
668.733	5.75
669.49	3.75
670.248	3.75
671.005	1.75
671.762	4.75
672.519	5.75
673.276	3.75
674.033	5.75
674.79	1.75
675.547	4.75
676.304	3.75
677.06	3.75
677.817	4.75
678.574	5.75
679.33	2.75
680.086	2.75
680.843	4.75
681.599	3.75
682.355	1.75
683.111	4.75
683.867	3.75
684.623	3.75
685.379	4.75
686.135	3.75
686.89	2.75
687.646	3.75
688.402	2.75
689.157	0.75
689.912	2.75
690.668	1.75
691.423	1.75
692.178	4.75
692.933	1.75
693.688	3.75
694.443	1.75
695.198	4.75
695.953	0.75
696.708	3.75
697.462	4.75
698.217	2.75
698.972	3.75
699.726	1.75
700.48	3.75
701.235	4.75
701.989	3.75
702.743	1.75
703.497	3.75
704.251	1.75
705.005	0.75
705.759	3.75
706.513	0.75
707.266	4.75
708.02	4.75
708.774	3.75
709.527	3.75
710.28	3.75
711.034	3.75
711.787	3.75
712.54	3.75
713.293	1.75
714.046	3.75
714.799	5.75
715.552	2.75
716.305	3.75
717.058	2.75
717.81	4.75
718.563	2.75
719.315	3.75
720.068	2.75
720.82	3.75
721.573	3.75
722.325	3.75
723.077	1.75
723.829	3.75
724.581	3.75
725.333	3.75
726.085	3.75
726.836	2.75
727.588	4.75
728.34	2.75
729.091	3.75
729.843	2.75
730.594	6.75
731.346	3.75
732.097	5.75
732.848	4.75
733.599	4.75
734.35	6.75
735.101	3.75
735.852	3.75
736.603	5.75
737.354	2.75
738.104	3.75
738.855	2.75
739.605	5.75
740.356	4.75
741.106	6.75
741.856	4.75
742.607	2.75
743.357	5.75
744.107	4.75
744.857	5.75
745.607	3.75
746.357	3.75
747.106	3.75
747.856	3.75
748.606	6.75
749.355	4.75
750.105	4.75
750.854	3.75
751.603	2.75
752.353	5.75
753.102	4.75
753.851	3.75
754.6	3.75
755.349	6.75
756.098	5.75
756.847	7.75
757.595	4.75
758.344	6.75
759.093	3.75
759.841	5.75
760.589	4.75
761.338	4.75
762.086	3.75
762.834	8.75
763.582	5.75
764.331	7.75
765.079	4.75
765.826	6.75
766.574	5.75
767.322	5.75
768.07	5.75
768.817	7.75
769.565	6.75
770.312	4.75
771.06	6.75
771.807	5.75
772.554	8.75
773.302	6.75
774.049	6.75
774.796	8.75
775.543	5.75
776.29	9.75
777.036	8.75
777.783	4.75
778.53	7.75
779.276	7.75
780.023	6.75
780.769	6.75
781.516	7.75
782.262	8.75
783.008	6.75
783.754	9.75
784.5	9.75
785.246	7.75
785.992	7.75
786.738	8.75
787.484	7.75
788.23	8.75
788.975	8.75
789.721	8.75
790.466	8.75
791.212	7.75
791.957	5.75
792.702	7.75
793.447	7.75
794.193	7.75
794.938	8.75
795.683	7.75
796.427	6.75
797.172	5.75
797.917	6.75
798.662	7.75
799.406	6.75
800.151	6.75
800.895	4.75
801.64	7.75
802.384	7.75
803.128	5.75
803.872	5.75
804.616	6.75
805.36	4.75
806.104	3.75
806.848	6.75
807.592	5.75
808.336	5.75
809.079	4.75
809.823	4.75
810.566	4.75
811.31	5.75
812.053	4.75
812.796	4.75
813.539	4.75
814.283	6.75
815.026	4.75
815.769	5.75
816.511	4.75
817.254	5.75
817.997	2.75
818.74	2.75
819.482	5.75
820.225	3.75
820.967	4.75
821.71	4.75
822.452	4.75
823.194	3.75
823.936	6.75
824.678	4.75
825.42	2.75
826.162	4.75
826.904	3.75
827.646	4.75
828.388	1.75
829.129	5.75
829.871	1.75
830.612	3.75
831.354	4.75
832.095	2.75
832.836	2.75
833.577	2.75
834.319	3.75
835.06	3.75
835.801	1.75
836.542	2.75
837.282	4.75
838.023	2.75
838.764	5.75
839.504	0.75
840.245	3.75
840.985	2.75
841.726	2.75
842.466	1.75
843.206	3.75
843.946	4.75
844.687	1.75
845.427	3.75
846.166	4.75
846.906	2.75
847.646	3.75
848.386	1.75
849.125	3.75
849.865	1.75
850.605	-0.25
851.344	1.75
852.083	1.75
852.823	3.75
853.562	2.75
854.301	1.75
855.04	2.75
855.779	1.75
856.518	2.75
857.257	2.75
857.995	2.75
858.734	1.75
859.473	2.75
860.211	1.75
860.95	1.75
861.688	3.75
862.426	0.75
863.165	0.75
863.903	0.75
864.641	0.75
865.379	1.75
866.117	0.75
866.855	3.75
867.593	-0.25
868.33	1.75
869.068	1.75
869.806	1.75
870.543	0.75
871.28	1.75
872.018	-0.25
872.755	0.75
873.492	1.75
874.229	-0.25
874.967	-0.25
875.703	2.75
876.44	0.75
877.177	1.75
877.914	1.75
878.651	0.75
879.387	0.75
880.124	1.75
880.86	1.75
881.597	0.75
882.333	-0.25
883.069	0.75
883.806	0.75
884.542	1.75
885.278	0.75
886.014	-0.25
886.749	0.75
887.485	1.75
888.221	0.75
888.957	1.75
889.692	1.75
890.428	-0.25
891.163	-1.25
891.899	-0.25
892.634	1.75
893.369	0.75
894.104	1.75
894.839	1.75
895.574	1.75
896.309	1.75
897.044	-0.25
897.779	-0.25
898.514	1.75
899.248	0.75
899.983	0.75
900.717	0.75
901.452	-1.25
902.186	-0.25
902.92	0.75
903.654	0.75
904.389	-1.25
905.123	-0.25
905.857	-0.25
906.59	-2.25
907.324	0.75
908.058	-0.25
908.792	1.75
909.525	-0.25
910.259	0.75
910.992	0.75
911.726	-2.25
912.459	0.75
913.192	-0.25
913.925	1.75
914.658	-1.25
915.391	1.75
916.124	-0.25
916.857	-0.25
917.59	-0.25
918.323	0.75
919.055	0.75
919.788	0.75
920.521	1.75
921.253	0.75
921.985	0.75
922.718	0.75
923.45	-1.25
924.182	-0.25
924.914	-0.25
925.646	0.75
926.378	-1.25
927.11	-0.25
927.841	0.75
928.573	-1.25
929.305	-0.25
930.036	-0.25
930.768	-1.25
931.499	-0.25
932.23	-0.25
932.962	1.75
933.693	0.75
934.424	1.75
935.155	0.75
935.886	-0.25
936.617	-0.25
937.348	0.75
938.078	0.75
938.809	-0.25
939.54	-1.25
940.27	-0.25
941.001	-2.25
941.731	-0.25
942.461	-3.25
943.191	1.75
943.922	-0.25
944.652	0.75
945.382	-1.25
946.112	-0.25
946.841	0.75
947.571	2.75
948.301	-1.25
949.031	-0.25
949.76	1.75
950.49	-0.25
951.219	-0.25
951.948	-1.25
952.678	0.75
953.407	1.75
954.136	-0.25
954.865	0.75
955.594	-0.25
956.323	-1.25
957.052	0.75
957.78	0.75
958.509	2.75
959.238	-2.25
959.966	0.75
960.695	-0.25
961.423	-1.25
962.151	-0.25
962.88	0.75
963.608	-0.25
964.336	0.75
965.064	-0.25
965.792	0.75
966.52	1.75
967.247	-3.25
967.975	-0.25
968.703	-0.25
969.43	-0.25
970.158	0.75
970.885	-0.25
971.613	0.75
972.34	0.75
973.067	-1.25
973.794	-1.25
974.521	1.75
975.248	0.75
975.975	-0.25
976.702	-0.25
977.429	1.75
978.156	-0.25
978.882	1.75
979.609	0.75
980.335	-0.25
981.062	-0.25
981.788	-1.25
982.514	0.75
983.24	0.75
983.967	-1.25
984.693	0.75
985.419	-0.25
986.144	-2.25
986.87	0.75
987.596	1.75
988.322	0.75
989.047	-0.25
989.773	1.75
990.498	-2.25
991.224	2.75
991.949	-0.25
992.674	0.75
993.399	0.75
994.124	-1.25
994.849	0.75
995.574	-2.25
996.299	0.75
997.024	0.75
997.749	1.75
998.473	-0.25
999.198	-1.25
999.922	0.75
1000.647	-0.25
1001.371	5.75
1002.095	-0.25
1002.82	0.75
1003.544	-3.25
1004.268	0.75
1004.992	-0.25
1005.716	0.75
1006.439	2.75
1007.163	1.75
1007.887	-1.25
1008.611	0.75
1009.334	0.75
1010.058	0.75
1010.781	-0.25
1011.504	-0.25
1012.228	0.75
1012.951	-2.25
1013.674	-2.25
1014.397	0.75
1015.12	0.75
